BOXY.EXE: ISS Imagent and Oximeter Data Acquisition Program Version 0.80
Ascii Record File

#ACQ INFORMATION
2  Detector Channels 
16  External MUX Channels 
1  Auxiliary Channels 
5000  Waveform (CCF) Frequency (Hz)
1  Waveforms Skipped 
30  Waveforms Averaged 
1  Cycles Averaged 
16  Acquisitions per Waveform 
10.0806  Updata Rate (Hz) 

#FILE INFORMATION
TRUE -- External MUX Channel results are PARSED.
FALSE -- AC DC and Phase are NOT grouped.
TRUE -- Companion Program Settings File CREATED.
FALSE -- AC data not excluded
FALSE -- DC data not excluded
FALSE -- Phase data not excluded
FALSE -- Auxillary Chn. data not excluded
Tab delimiters

#CALIBRATION STATE
TRUE -- Waveform Calibration Values APPLIED.


#AUX CALIBRATION VALUES
Val Type	aux-1	

Term	1.0000e+00	
Factor	0.0000e+00	


#WF CALIBRATION VALUES
A = Detector Channel
Val Type	A-AC1	A-AC2	A-AC3	A-AC4	A-AC5	A-AC6	A-AC7	A-AC8	A-AC9	A-AC10	A-AC11	A-AC12	A-AC13	A-AC14	A-AC15	A-AC16	A-DC1	A-DC2	A-DC3	A-DC4	A-DC5	A-DC6	A-DC7	A-DC8	A-DC9	A-DC10	A-DC11	A-DC12	A-DC13	A-DC14	A-DC15	A-DC16	A-Ph1	A-Ph2	A-Ph3	A-Ph4	A-Ph5	A-Ph6	A-Ph7	A-Ph8	A-Ph9	A-Ph10	A-Ph11	A-Ph12	A-Ph13	A-Ph14	A-Ph15	A-Ph16	

Term	0.00000e+00	0.00000e+00	0.00000e+00	0.00000e+00	0.00000e+00	0.00000e+00	0.00000e+00	0.00000e+00	0.00000e+00	0.00000e+00	0.00000e+00	0.00000e+00	0.00000e+00	0.00000e+00	0.00000e+00	0.00000e+00	0.00000e+00	0.00000e+00	0.00000e+00	0.00000e+00	0.00000e+00	0.00000e+00	0.00000e+00	0.00000e+00	0.00000e+00	0.00000e+00	0.00000e+00	0.00000e+00	0.00000e+00	0.00000e+00	0.00000e+00	0.00000e+00	0.00000e+00	0.00000e+00	0.00000e+00	0.00000e+00	0.00000e+00	0.00000e+00	0.00000e+00	0.00000e+00	0.00000e+00	0.00000e+00	0.00000e+00	0.00000e+00	0.00000e+00	0.00000e+00	0.00000e+00	0.00000e+00	
Factor	1.00000e+00	1.00000e+00	1.00000e+00	1.00000e+00	1.00000e+00	1.00000e+00	1.00000e+00	1.00000e+00	1.00000e+00	1.00000e+00	1.00000e+00	1.00000e+00	1.00000e+00	1.00000e+00	1.00000e+00	1.00000e+00	1.00000e+00	1.00000e+00	1.00000e+00	1.00000e+00	1.00000e+00	1.00000e+00	1.00000e+00	1.00000e+00	1.00000e+00	1.00000e+00	1.00000e+00	1.00000e+00	1.00000e+00	1.00000e+00	1.00000e+00	1.00000e+00	X	X	X	X	X	X	X	X	X	X	X	X	X	X	X	X	

B = Detector Channel
Val Type	B-AC1	B-AC2	B-AC3	B-AC4	B-AC5	B-AC6	B-AC7	B-AC8	B-AC9	B-AC10	B-AC11	B-AC12	B-AC13	B-AC14	B-AC15	B-AC16	B-DC1	B-DC2	B-DC3	B-DC4	B-DC5	B-DC6	B-DC7	B-DC8	B-DC9	B-DC10	B-DC11	B-DC12	B-DC13	B-DC14	B-DC15	B-DC16	B-Ph1	B-Ph2	B-Ph3	B-Ph4	B-Ph5	B-Ph6	B-Ph7	B-Ph8	B-Ph9	B-Ph10	B-Ph11	B-Ph12	B-Ph13	B-Ph14	B-Ph15	B-Ph16	

Term	0.00000e+00	0.00000e+00	0.00000e+00	0.00000e+00	0.00000e+00	0.00000e+00	0.00000e+00	0.00000e+00	0.00000e+00	0.00000e+00	0.00000e+00	0.00000e+00	0.00000e+00	0.00000e+00	0.00000e+00	0.00000e+00	0.00000e+00	0.00000e+00	0.00000e+00	0.00000e+00	0.00000e+00	0.00000e+00	0.00000e+00	0.00000e+00	0.00000e+00	0.00000e+00	0.00000e+00	0.00000e+00	0.00000e+00	0.00000e+00	0.00000e+00	0.00000e+00	2.30140e+01	-1.20181e+02	-1.19907e+02	-1.83653e+02	-6.30298e+01	-5.18358e+01	-1.58195e+02	-1.62015e+02	-5.19289e+01	-7.20987e+01	-1.70726e+02	-1.70915e+02	-1.78976e+02	-1.76655e+02	-6.37239e+01	-1.49757e+02	
Factor	5.08546e-05	1.47758e-04	3.78023e-05	1.55087e-01	1.88521e-06	1.77159e-06	1.71671e-01	5.62650e-02	2.22537e-06	1.53002e-06	9.34834e-02	3.14727e-02	2.91465e-02	9.72571e-03	2.02248e-06	1.39640e-02	4.02956e-06	4.41231e-06	1.22925e-06	7.62458e-02	4.73918e-08	4.85632e-08	7.91440e-02	2.76715e-02	4.75700e-08	4.85441e-08	4.45230e-02	1.49399e-02	1.44346e-02	4.81122e-03	4.80407e-08	6.69290e-03	X	X	X	X	X	X	X	X	X	X	X	X	X	X	X	X	



#DISTANCE SETTINGS
A = Detector Channel
A-1	A-2	A-3	A-4	A-5	A-6	A-7	A-8	A-9	A-10	A-11	A-12	A-13	A-14	A-15	A-16	

2.5000e+00	3.0000e+00	2.5000e+00	3.0000e+00	2.0000e+00	3.0000e+00	1.5000e+00	3.0000e+00	3.0000e+00	3.0000e+00	3.0000e+00	3.0000e+00	3.0000e+00	3.0000e+00	1.5000e+00	3.0000e+00	

B = Detector Channel
B-1	B-2	B-3	B-4	B-5	B-6	B-7	B-8	B-9	B-10	B-11	B-12	B-13	B-14	B-15	B-16	

1.0000e+01	1.0000e+01	1.0000e+01	1.4400e+00	1.0000e+01	1.0000e+01	1.5100e+00	1.9400e+00	1.0000e+01	1.0000e+01	1.9900e+00	2.4900e+00	2.4100e+00	2.9000e+00	1.0000e+01	2.9800e+00	




#DATA BEGINS
time	group	step	mark	flag	A-AC1	A-AC2	A-AC3	A-AC4	A-AC5	A-AC6	A-AC7	A-AC8	A-AC9	A-AC10	A-AC11	A-AC12	A-AC13	A-AC14	A-AC15	A-AC16	A-DC1	A-DC2	A-DC3	A-DC4	A-DC5	A-DC6	A-DC7	A-DC8	A-DC9	A-DC10	A-DC11	A-DC12	A-DC13	A-DC14	A-DC15	A-DC16	A-Ph1	A-Ph2	A-Ph3	A-Ph4	A-Ph5	A-Ph6	A-Ph7	A-Ph8	A-Ph9	A-Ph10	A-Ph11	A-Ph12	A-Ph13	A-Ph14	A-Ph15	A-Ph16	B-AC1	B-AC2	B-AC3	B-AC4	B-AC5	B-AC6	B-AC7	B-AC8	B-AC9	B-AC10	B-AC11	B-AC12	B-AC13	B-AC14	B-AC15	B-AC16	B-DC1	B-DC2	B-DC3	B-DC4	B-DC5	B-DC6	B-DC7	B-DC8	B-DC9	B-DC10	B-DC11	B-DC12	B-DC13	B-DC14	B-DC15	B-DC16	B-Ph1	B-Ph2	B-Ph3	B-Ph4	B-Ph5	B-Ph6	B-Ph7	B-Ph8	B-Ph9	B-Ph10	B-Ph11	B-Ph12	B-Ph13	B-Ph14	B-Ph15	B-Ph16	aux-1	digaux	

29983.201	1	1	0	256	0.33684	0.071418	0.21087	0.17895	0.22676	0.13482	0.1372	0.31746	0.15605	0.041124	0.1033	0.28212	0.13047	0.086909	0.058443	0.21549	-4.2521	-4.4708	-4.8083	-4.2021	-4.6292	-4.6354	-4.2333	-4.9104	-4.1188	-4.2771	-5.15	-3.9333	-4.6521	-4.8417	-4.1542	-5.0167	48.650	106.270	-90.184	222.489	155.029	-55.662	169.979	213.332	83.195	57.692	-21.975	-85.014	-97.976	198.835	12.262	238.078	0.0004808	0.00050229	0.00056215	1195.5	7.388e-06	1.7602e-05	1249.7	373.76	2.5818e-05	2.1187e-05	438.3	141.13	111.47	39.018	3.1504e-05	55.755	0.0073829	0.0080158	0.0022328	1198.1	8.6192e-05	8.9836e-05	1252.8	383.72	8.7704e-05	8.8717e-05	470.2	153.49	124.91	43.658	8.794e-05	61.998	3.888	-45.460	0.495	-88.488	211.611	125.197	-89.040	-83.797	107.557	195.228	-85.220	-79.714	-78.217	-73.069	50.763	-75.883	-8191	255	
29983.301	1	1	0	0	0.24278	0.17091	0.28644	0.21505	0.065806	0.18198	0.091028	0.35441	0.1677	0.27696	0.18832	0.18876	0.10771	0.16435	0.19002	0.31691	-4.1062	-4.2646	-4.9229	-4.1354	-4.5021	-4.7625	-4.3167	-4.8125	-4.3708	-4.1146	-5.1083	-4.1667	-4.6875	-4.9417	-4.0687	-4.8646	-30.479	188.434	49.609	144.169	188.466	142.241	228.308	200.655	119.804	199.016	145.867	-40.252	-50.809	-99.772	115.865	223.085	0.00034092	0.0019415	0.00038087	1184	3.7884e-05	9.6008e-06	1246	374.77	1.5251e-05	1.6067e-05	431.78	140.97	108.28	38.139	3.3415e-05	55.138	0.007392	0.0080551	0.0022491	1188.5	8.653e-05	8.9962e-05	1252.1	382.27	8.8673e-05	9.041e-05	470.7	152.41	123.47	42.896	8.9893e-05	61.34	64.959	255.022	64.442	-88.424	13.862	53.877	-88.988	-83.929	11.859	-29.424	-84.615	-79.743	-78.375	-73.026	42.285	-75.731	-8191	255	
29983.395	1	1	0	0	0.073233	0.091397	0.15245	0.23409	0.064979	0.11055	0.10159	0.26648	0.063097	0.10511	0.13398	0.26482	0.075098	0.13612	0.16658	0.22752	-4.3979	-4.2458	-5.0896	-4.4812	-4.5021	-5.0333	-4.1875	-5.0229	-4.7208	-4.2229	-5.1375	-4.4021	-4.4146	-5.0708	-3.8479	-4.7896	170.151	88.546	84.959	200.607	186.246	116.582	208.723	202.904	225.292	130.122	229.212	164.883	14.895	23.343	195.266	-95.864	0.00010954	0.00040405	0.00040309	1186.2	7.2031e-06	2.3927e-05	1257.9	372.98	4.1003e-05	5.019e-05	445.91	141.86	107.29	37.061	4.3669e-06	53.968	0.0075689	0.008313	0.0023173	1193.4	8.8869e-05	9.1917e-05	1263.6	384.2	9.1244e-05	9.3316e-05	478.55	154.93	124.1	42.429	9.4461e-05	61.345	-63.502	187.954	209.449	-88.432	46.190	197.205	-88.608	-83.428	237.492	85.962	-85.079	-79.415	-78.470	-73.000	85.458	-75.807	-8191	255	
29983.490	1	1	0	0	0.083627	0.12465	0.33476	0.015869	0.17231	0.089708	0.12901	0.036812	0.13241	0.22467	0.27124	0.1728	0.1182	0.3552	0.16064	0.16485	-4.4729	-4.0479	-5.0083	-4.5271	-4.3271	-4.9729	-4.2271	-4.8	-4.8708	-4.0375	-5.1417	-4.5458	-4.2146	-5.0833	-4.0271	-4.5854	-22.752	83.752	68.517	188.691	178.454	26.604	170.871	-74.469	-75.876	52.004	139.413	-67.007	166.696	240.870	-25.699	-100.236	0.0011123	0.00078203	0.00038634	1187	7.0598e-07	2.9326e-05	1265.3	375.49	2.3577e-05	1.3804e-05	456.55	146.1	110.87	37.51	1.1396e-05	55.118	0.007949	0.008674	0.0023847	1199.9	9.095e-05	9.3132e-05	1274.1	386.94	8.9691e-05	9.3092e-05	489.07	158.31	125.98	42.813	9.3355e-05	62.218	6.791	-100.759	20.428	-88.519	194.510	10.268	-89.016	-83.631	170.123	20.937	-84.946	-79.653	-78.027	-73.126	-17.224	-76.163	-8191	255	
29983.611	1	1	0	0	0.037343	0.20886	0.065046	0.25139	0.17282	0.17497	0.12699	0.17338	0.19403	0.048502	0.21009	0.1537	0.26478	0.097872	0.13266	0.18673	-4.4313	-4.1333	-5.0125	-4.7812	-4.2271	-5.0458	-4.3021	-4.5771	-4.9167	-4.0833	-4.825	-4.6375	-4.0938	-5.0292	-4.3271	-4.3938	24.362	36.579	194.004	195.915	1.278	134.747	204.005	196.032	252.910	20.492	-61.048	158.374	-98.586	147.224	94.469	168.578	0.001077	0.0012682	0.00066178	1195.9	1.9011e-05	2.8412e-06	1264.4	380.34	1.6894e-05	2.1693e-05	451.07	144.44	110.66	37.153	1.9581e-05	54.514	0.0078952	0.0086634	0.002417	1210.4	9.2971e-05	9.4151e-05	1282	389.56	9.1108e-05	9.3058e-05	484.88	157.77	125.41	42.313	8.9648e-05	60.994	-21.546	69.426	64.761	-88.414	-2.349	-83.833	-88.820	-83.889	146.668	-17.380	-84.778	-79.784	-78.540	-72.995	10.721	-75.941	-8191	255	
29983.705	1	1	0	0	0.12839	0.18004	0.17943	0.2353	0.12997	0.14095	0.30474	0.21068	0.035115	0.089715	0.02994	0.16056	0.23908	0.047769	0.11851	0.20864	-4.7188	-4.175	-4.6792	-4.8667	-4.2812	-4.9688	-4.5271	-4.3479	-4.9896	-4.0938	-4.8396	-4.875	-4.15	-5.0437	-4.5938	-4.4896	-95.634	72.040	70.307	223.753	254.973	221.907	178.858	134.742	190.573	257.345	39.273	-93.119	203.205	253.279	21.341	106.292	0.00017822	0.00039058	0.00034709	1184.9	1.2175e-05	1.7295e-05	1253.9	370.19	9.5598e-06	7.7867e-06	441.6	140	108.3	36.753	2.9958e-05	53.588	0.0074799	0.0081767	0.0022592	1193.2	8.7254e-05	9.0242e-05	1257.9	380.35	8.9684e-05	9.1592e-05	472.42	153.82	123.82	41.966	8.9881e-05	60.022	174.203	-75.775	-88.040	-88.487	136.893	147.734	-88.777	-83.630	-100.999	120.537	-84.817	-79.612	-78.244	-72.956	52.464	-75.792	-8191	255	
29983.803	1	1	0	0	0.16479	0.24149	0.088905	0.40036	0.038708	0.32826	0.23742	0.074968	0.077284	0.081506	0.084726	0.13913	0.14544	0.038726	0.05861	0.099542	-4.6937	-4.0875	-4.4729	-4.9021	-4.1729	-4.8562	-4.6813	-4.3167	-4.8875	-4.0646	-4.5896	-5.0792	-4.1229	-4.7625	-4.6625	-4.3187	159.422	253.774	223.136	210.856	175.692	34.706	197.965	-38.222	225.504	-32.838	207.562	159.291	182.127	73.134	-12.256	45.158	0.00063324	0.00038078	0.00068543	1182.5	3.1832e-05	1.1294e-05	1248.1	369.56	2.2821e-05	7.103e-06	436.27	140.71	108.4	36.771	2.9621e-05	53.685	0.0075524	0.0082176	0.002256	1183.8	8.6208e-05	8.7689e-05	1250.3	378.79	8.6281e-05	8.8045e-05	468.24	152.51	122.87	41.701	8.7093e-05	60.235	50.431	75.887	203.504	-88.635	-95.525	97.981	-89.158	-83.668	244.672	139.506	-84.909	-79.707	-78.421	-73.092	-8.190	-76.232	-8191	255	
29983.898	1	1	0	0	0.14517	0.11636	0.12742	0.30528	0.093096	0.12705	0.12355	0.17095	0.15574	0.21804	0.046298	0.20915	0.20382	0.072506	0.043038	0.29973	-4.7625	-4.2771	-4.3812	-5.2292	-4.0687	-4.75	-4.7417	-4.2042	-5.2583	-4.2417	-4.4625	-5.1854	-4.2562	-4.8604	-4.6896	-4.0896	138.410	135.301	219.298	170.613	-54.867	224.647	170.356	155.058	45.672	151.473	-51.309	-78.659	236.468	250.377	149.719	186.464	0.00068197	0.0023931	0.00033286	1176	7.7763e-06	1.8018e-05	1254	370.44	1.1227e-05	1.1666e-05	438.1	142.45	109.83	37.507	1.6298e-05	54.228	0.0074181	0.0081981	0.0022435	1185.2	8.7845e-05	8.9012e-05	1256.1	379.85	8.7736e-05	8.8728e-05	472.13	154.36	123.96	42.215	8.7913e-05	60.862	-51.048	4.725	-14.201	-88.125	17.184	115.449	-88.910	-83.565	133.886	111.322	-85.395	-79.285	-78.645	-72.478	242.259	-75.343	-8191	255	
29983.994	1	1	0	0	0.18564	0.06666	0.13743	0.18699	0.10915	0.086782	0.21515	0.11217	0.18885	0.11741	0.17846	0.39955	0.16473	0.027272	0.080149	0.099829	-4.7771	-4.3354	-4.2146	-5.2604	-4.125	-4.7167	-4.8979	-4.2812	-4.9	-4.2708	-4.1937	-5.1021	-4.2458	-4.7458	-4.9729	-4.15	-57.716	114.424	96.999	220.414	-12.892	250.412	249.171	182.401	-83.769	131.397	3.678	193.536	74.090	172.259	-39.588	169.477	0.00046838	0.0023611	3.2932e-05	1181.7	1.9259e-05	3.7837e-05	1247.2	372.12	2.4342e-05	1.6821e-05	446.64	145.46	110.51	37.331	2.6994e-05	55.095	0.0074459	0.008117	0.002262	1185.7	8.7898e-05	8.9479e-05	1259.1	381.92	8.8688e-05	9.1272e-05	478.59	157.2	125.95	42.708	9.2e-05	62.312	-33.551	-51.804	148.535	-88.636	44.138	42.227	-88.745	-83.883	96.256	-46.703	-84.960	-79.808	-77.436	-73.334	106.859	-75.587	-8191	255	
29984.092	1	1	0	0	0.1358	0.12245	0.068607	0.33042	0.27501	0.24075	0.17876	0.18051	0.086559	0.27927	0.16084	0.1617	0.14275	0.12544	0.13496	0.18041	-4.6167	-4.5687	-4.0875	-5.2833	-4.2583	-4.3812	-5.0896	-4.0583	-4.9938	-4.6396	-4.2167	-5.0375	-4.4354	-4.4187	-4.9229	-4.0875	251.454	157.367	71.336	224.282	78.945	146.193	181.691	201.158	24.058	-98.748	192.871	213.865	0.029	211.125	-18.806	-29.822	0.00083942	0.00078018	0.0001519	1176.5	3.6563e-05	1.2677e-05	1260.4	374.61	3.7968e-06	5.841e-06	440.3	142.91	109.81	37.396	2.8775e-05	53.996	0.0077825	0.0085672	0.0023703	1197.2	9.1154e-05	9.2883e-05	1273.7	386.18	9.1855e-05	9.4687e-05	479.22	157.29	125.95	42.593	9.3394e-05	61.283	-8.727	36.531	-96.072	-88.199	134.204	-9.019	-88.729	-83.632	56.943	65.358	-84.952	-79.868	-78.021	-72.900	61.120	-75.761	-8191	255	
29984.188	1	1	0	0	0.2353	0.0037554	0.063844	0.041309	0.1519	0.067798	0.082657	0.32131	0.22446	0.2271	0.059051	0.2423	0.085156	0.13317	0.14678	0.060739	-4.5542	-4.775	-4.1292	-5.1167	-4.4625	-4.4229	-5.125	-4.1583	-4.6958	-5	-4.0833	-5.0687	-4.6021	-4.3562	-5.1146	-4.2771	253.172	141.072	-63.226	221.672	-48.631	-90.880	178.433	243.915	-50.494	3.851	110.695	161.883	-96.955	196.516	16.020	207.273	0.00024364	0.0026834	0.00078877	1172.3	4.47e-05	1.9989e-05	1242.7	366.33	3.6619e-05	9.5961e-06	432.22	140.73	109.43	36.744	2.2308e-05	53.394	0.0078237	0.0085619	0.0024218	1186.8	9.2046e-05	9.4404e-05	1256	378.41	9.133e-05	9.4637e-05	471.73	154.66	124.6	42.196	9.2856e-05	60.763	162.114	193.805	32.569	-88.399	198.056	-44.632	-88.874	-83.647	230.505	-63.882	-85.470	-79.927	-78.066	-73.057	-45.993	-75.751	-8191	255	
29984.283	1	1	0	0	0.123	0.025312	0.067113	0.3123	0.056677	0.06707	0.16801	0.087541	0.15845	0.17095	0.10249	0.20022	0.23818	0.22391	0.1798	0.029551	-4.2312	-4.7417	-4.1917	-5.1521	-4.6042	-4.1937	-5.2479	-4.4229	-4.5375	-5.0708	-4.2667	-5.1104	-4.7354	-4.2854	-5.0833	-4.2292	105.330	239.145	14.663	253.785	191.149	163.664	177.561	211.775	253.318	177.467	105.565	250.129	147.968	-70.460	155.761	250.689	0.00050747	0.0005594	0.00040256	1172.1	1.709e-05	2.6096e-05	1243.2	367.88	5.6287e-06	1.7804e-06	438.02	142.39	109.03	36.945	1.1813e-05	53.838	0.0078062	0.0086323	0.0023961	1188.6	9.2043e-05	9.4606e-05	1259.6	380.99	9.1979e-05	9.4103e-05	475.87	155.67	125.28	42.337	9.2358e-05	60.969	-11.644	37.616	143.906	-88.330	56.087	258.069	-88.875	-83.249	104.419	1.625	-84.852	-79.798	-78.423	-72.924	79.055	-75.629	-8191	255	
29984.404	1	1	0	0	0.06552	0.11828	0.12346	0.23788	0.035986	0.12301	0.15946	0.25993	0.0084746	0.14279	0.047441	0.086114	0.20721	0.096897	0.16201	0.082649	-4.1625	-5.0792	-4.0542	-5.0062	-4.6583	-4.1396	-5.25	-4.4875	-4.3896	-5.1021	-4.1771	-4.7833	-4.7146	-4.1813	-5.2604	-4.4958	180.591	-80.043	-98.458	152.219	-42.607	165.389	138.333	150.854	211.633	-2.130	109.073	-59.539	229.971	-61.043	48.139	171.837	0.00047144	0.0009434	0.00010944	1181	8.0264e-07	2.7331e-05	1252	370.53	1.6148e-05	1.8598e-05	444.84	144.68	110.61	37.633	7.9173e-06	55.194	0.0077617	0.0085249	0.0023668	1189.8	9.0894e-05	9.3679e-05	1263.9	383.48	9.0512e-05	9.2538e-05	479.78	156.95	126.02	42.582	9.1095e-05	61.532	-40.265	-1.620	3.392	-88.439	46.954	27.344	-88.787	-83.951	34.777	147.505	-84.619	-79.907	-77.745	-72.754	52.747	-76.157	-8191	255	
29984.498	1	1	0	0	0.025852	0.030171	0.31485	0.16958	0.069298	0.099133	0.27108	0.18279	0.080006	0.068307	0.164	0.42348	0.054271	0.21525	0.18443	0.28594	-4.0292	-5.0917	-4.0396	-4.7292	-4.8083	-3.9958	-5.0708	-4.4604	-4.2188	-5.025	-4.3063	-4.6188	-5.0229	-4.3146	-4.8104	-4.6188	-44.508	-18.142	-6.517	229.127	-67.035	-93.258	170.408	223.854	-22.666	-3.765	210.441	253.433	14.522	252.973	0.339	221.542	0.00027415	0.0023951	0.00040606	1182.7	1.0477e-05	3.5749e-05	1264.8	375.56	2.3902e-05	6.7741e-06	449.94	147.08	112.36	38.145	2.7447e-05	55.515	0.007647	0.0083351	0.0023227	1191.3	8.952e-05	9.1304e-05	1271.5	386.21	8.949e-05	9.1903e-05	485.22	158.8	127.37	43.149	9.1077e-05	62.174	37.873	112.005	-39.091	-88.832	68.721	-30.255	-88.936	-83.420	-45.730	231.317	-84.639	-79.516	-78.051	-73.093	-71.607	-75.701	-8191	255	
29984.570	1	1	0	0	0.05318	0.26663	0.071344	0.22993	0.19136	0.094961	0.39118	0.12682	0.058234	0.13389	0.098744	0.32678	0.10536	0.086208	0.12535	0.11658	-3.7458	-5.0083	-4.1771	-4.6833	-4.825	-4.1042	-4.9833	-4.6542	-4.1396	-4.9938	-4.4896	-4.5604	-5.1458	-4.3146	-4.8292	-4.6417	45.124	-64.085	124.939	228.597	-13.275	220.979	177.153	247.908	187.146	105.058	123.893	-100.689	155.401	192.314	111.535	142.219	0.00067692	0.00091393	0.00042044	1187.4	2.2662e-05	6.1376e-06	1265.7	373.21	7.1108e-06	1.3286e-05	441.86	143.44	109.62	37.108	5.9496e-06	53.769	0.0077171	0.0083691	0.0023316	1195.6	8.9174e-05	9.1012e-05	1269.6	384.18	8.7995e-05	9.0116e-05	476.78	155.95	124.96	42.29	9.0045e-05	60.88	-55.571	-20.769	-17.813	-88.823	7.639	54.865	-88.771	-83.718	168.425	-48.889	-85.089	-79.977	-78.471	-73.024	31.050	-76.144	-8191	255	
29984.691	1	1	0	0	0.069857	0.12663	0.060967	0.14205	0.22264	0.18869	0.18856	0.19301	0.18575	0.097368	0.18539	0.1012	0.061181	0.081779	0.14672	0.012028	-3.9229	-4.9479	-4.4042	-4.4458	-4.9458	-4.1583	-4.9021	-5.0375	-4.2083	-5.0917	-4.5354	-4.3104	-5.1083	-4.2292	-4.6979	-4.9917	96.263	143.254	78.452	219.628	-51.237	113.675	185.803	235.169	256.169	-15.801	237.570	225.313	204.889	-11.450	-65.548	170.305	0.00045943	0.0020284	0.00049925	1173.5	2.443e-05	2.2218e-05	1234.3	366.17	2.4576e-05	4.5587e-06	432.77	139.56	107.56	36.462	7.0919e-06	53.128	0.007588	0.0083312	0.0023322	1180.7	8.9218e-05	9.138e-05	1244.9	376.1	8.8533e-05	9.0132e-05	468.47	152.59	122.55	41.54	8.8157e-05	59.834	59.081	-53.506	-78.841	-88.537	13.793	78.297	-89.203	-83.451	-61.063	240.894	-84.890	-80.103	-77.416	-72.858	142.622	-75.958	-8191	255	
29984.785	1	1	0	0	0.21875	0.088538	0.10772	0.14525	0.045395	0.19797	0.24063	0.14942	0.19793	0.058037	0.0927	0.075191	0.08137	0.17559	0.10529	0.077485	-3.7042	-5.0042	-4.3396	-4.2937	-5.0375	-4.1917	-4.6292	-4.9208	-4.0417	-4.8208	-4.7021	-4.2417	-5.0813	-4.175	-4.5646	-5.0021	17.453	172.087	247.265	207.659	183.677	-95.025	253.122	107.519	43.124	254.004	117.026	-70.125	72.249	177.483	156.447	115.826	0.0012113	0.0022265	0.00059187	1169.7	1.5202e-05	8.4309e-06	1239.4	366.57	2.0959e-06	5.6834e-06	437.21	141.9	109.42	36.717	1.5042e-05	53.2	0.0074431	0.0080348	0.0022647	1176.4	8.6834e-05	8.979e-05	1248.8	376.22	8.7699e-05	8.9394e-05	469.31	152.99	123.54	41.862	8.8713e-05	59.938	19.092	126.727	54.760	-88.485	122.584	64.927	-88.785	-83.346	222.015	104.022	-84.739	-79.944	-78.010	-72.889	127.132	-75.407	-8191	255	
29984.883	1	1	0	0	0.12683	0.079419	0.20894	0.24151	0.11863	0.091834	0.2775	0.15338	0.16629	0.15148	0.23609	0.20248	0.11053	0.2692	0.22484	0.037693	-3.8792	-4.8396	-4.8542	-4.2729	-5.0146	-4.425	-4.6062	-5.1	-4.0188	-4.7396	-4.8792	-4.4062	-4.975	-4.525	-4.3521	-5.1042	-18.045	59.770	98.295	215.845	255.672	205.018	103.931	221.877	255.541	79.407	245.194	243.947	73.697	-49.946	19.074	26.178	0.00037786	0.0033183	0.00057024	1179	1.3697e-05	5.8251e-06	1245.2	369.53	1.1941e-05	2.0586e-05	439.58	142.34	108.55	37.099	1.1342e-05	53.927	0.0075114	0.0080927	0.0022738	1180.1	8.6914e-05	8.8932e-05	1250.6	378.41	8.6628e-05	8.8421e-05	471.29	153.71	123.32	41.904	8.8233e-05	60.407	-18.529	150.976	200.925	-88.301	173.243	87.630	-88.839	-83.499	-25.425	10.773	-84.871	-79.455	-78.070	-73.207	-79.644	-75.959	-8191	255	
29985.004	1	1	0	0	0.054378	0.14595	0.14469	0.14458	0.13956	0.22176	0.12227	0.12752	0.18677	0.17435	0.17238	0.15707	0.10615	0.20935	0.15675	0.13534	-3.9042	-4.7292	-4.8938	-4.2208	-4.9604	-4.3354	-4.325	-5.1417	-4.175	-4.6917	-5.1062	-4.2396	-4.9417	-4.5458	-4.1292	-5.1813	79.523	131.666	168.213	256.908	-40.403	173.995	-78.384	208.398	149.198	78.524	95.272	-59.305	179.874	233.056	-71.720	237.603	0.0005345	0.0024215	0.00018302	1176.9	3.6425e-05	1.0471e-05	1252.8	372.82	3.9558e-05	7.1787e-06	447.25	144.98	111.23	37.766	3.7807e-05	55.383	0.0075124	0.008121	0.002301	1183.8	8.7855e-05	9.0643e-05	1260.4	381.98	8.8535e-05	8.9947e-05	478.59	156.5	125.53	42.545	8.8613e-05	61.343	1.797	224.990	112.839	-88.667	16.130	44.430	-88.863	-83.360	-75.460	-38.675	-85.180	-79.455	-78.074	-72.891	64.167	-75.526	-8191	255	
29985.100	1	1	0	0	0.072334	0.18711	0.066823	0.37445	0.18738	0.27017	0.31281	0.1342	0.0080867	0.26495	0.17733	0.062313	0.22105	0.35098	0.076992	0.072178	-3.7438	-4.6104	-4.8646	-4.2083	-4.9437	-4.7854	-4.3667	-5.1542	-4.2625	-4.4479	-5.1729	-4.2562	-4.7583	-4.8646	-4.1396	-5.0021	-86.512	-72.391	89.204	248.622	18.055	7.577	226.807	229.774	86.326	-0.409	-100.930	79.239	100.371	258.427	44.462	101.549	0.00022695	0.0029022	0.00054452	1172.8	1.295e-05	3.3306e-06	1248.1	371.53	1.2347e-05	1.9221e-05	438.88	143.1	109.01	37.106	2.384e-05	53.296	0.007427	0.0080843	0.0022814	1179.6	8.6501e-05	9.0047e-05	1257.9	380.89	8.8357e-05	8.996e-05	473.38	154.56	123.54	41.895	8.803e-05	59.945	206.211	-4.843	8.981	-88.260	54.003	10.894	-88.896	-83.536	56.626	209.442	-84.557	-79.917	-77.732	-72.763	75.488	-76.042	-8191	255	
29985.195	1	1	0	0	0.092717	0.14282	0.14959	0.19445	0.014172	0.071519	0.27861	0.1243	0.083549	0.20808	0.21915	0.27072	0.14488	0.048399	0.1107	0.21276	-3.9188	-4.4333	-4.9042	-4.2625	-4.8063	-4.6875	-4.1771	-5.0687	-4.525	-4.1312	-5.1479	-4.2104	-4.7729	-4.7562	-3.9521	-5.0375	-101.560	185.431	-99.243	167.391	66.040	193.512	220.279	219.271	-3.100	179.248	-95.839	189.291	175.764	212.091	72.075	141.868	0.00085763	0.00079877	0.0004488	1162.5	1.6641e-05	2.8681e-06	1240.1	364.36	2.8768e-05	7.4601e-06	434.13	140.43	108.05	36.773	3.5369e-05	53.81	0.0074322	0.0080267	0.0022209	1167.2	8.4502e-05	8.7854e-05	1239	372.42	8.4669e-05	8.6088e-05	464.44	151.08	121.52	41.453	8.5187e-05	59.577	-30.898	102.593	255.087	-88.531	147.234	-36.623	-89.138	-83.580	15.044	31.278	-84.779	-79.369	-78.173	-72.621	8.007	-75.593	-8191	255	
29985.293	1	1	0	0	0.16413	0.13758	0.25373	0.19053	0.11301	0.10114	0.26179	0.1915	0.1332	0.27006	0.28457	0.080344	0.19071	0.12911	0.096214	0.25016	-4.2604	-4.3104	-4.9313	-4.2688	-4.5875	-5.0292	-4.4271	-4.9583	-4.6333	-4.3583	-5.1021	-4.3229	-4.6083	-5.0125	-4.0938	-4.925	12.920	21.774	138.027	-70.981	-63.880	96.889	193.088	186.056	226.427	116.477	-72.220	157.556	188.600	-64.557	198.198	255.233	0.00067884	0.00072185	0.00025356	1153.5	1.1457e-05	2.3385e-05	1243.1	365.94	8.3468e-06	1.1231e-05	438.23	140.78	109.19	37.64	2.8483e-05	53.925	0.0071392	0.0076816	0.0021186	1157.7	8.0233e-05	8.3065e-05	1236.8	371.91	8.004e-05	8.1656e-05	463.09	150.7	120.43	41.237	8.0531e-05	59.595	78.595	115.734	-15.359	-88.471	241.316	133.140	-88.815	-83.687	257.294	246.152	-84.770	-80.334	-78.183	-72.561	-31.529	-76.036	-8191	255	
29985.389	1	1	0	0	0.18446	0.24957	0.16387	0.08171	0.26401	0.17345	0.084989	0.17519	0.29714	0.079112	0.22609	0.057626	0.16103	0.074521	0.18902	0.17345	-4.4563	-4.1438	-5.0479	-4.3187	-4.3812	-4.9146	-4.1958	-4.9417	-4.7271	-4.2562	-5.2375	-4.4437	-4.3917	-5.1625	-4.0417	-4.7646	144.484	86.081	35.722	47.758	-87.459	-72.225	244.115	145.931	251.651	-23.519	-92.972	159.918	5.369	208.590	36.261	192.100	0.0001576	0.00025722	0.00031807	1169.2	2.3507e-05	3.1517e-05	1254.7	372.38	9.0261e-06	1.9153e-05	443.13	141.39	109.52	37.437	1.4224e-05	54.49	0.0067989	0.0074027	0.0020536	1164	7.9349e-05	8.1821e-05	1240.5	375.2	7.965e-05	8.0981e-05	466.32	151.81	121.46	41.403	7.9131e-05	59.801	-49.349	215.369	179.740	-88.512	84.665	122.009	-88.983	-83.500	210.508	121.433	-84.773	-79.606	-77.825	-72.827	111.231	-75.695	-8191	255	
29985.484	1	1	0	0	0.029279	0.13954	0.13958	0.073513	0.048969	0.13513	0.15931	0.13674	0.21104	0.0817	0.074843	0.13453	0.14389	0.30137	0.069882	0.20356	-4.5854	-4	-4.8042	-4.4625	-4.1729	-4.9396	-4.2312	-4.7188	-4.8	-4.1042	-5.1333	-4.6104	-4.3063	-5.075	-4.1708	-4.5479	108.798	148.905	42.597	216.050	-66.853	94.112	201.933	212.480	129.777	27.710	19.855	185.412	-3.511	206.806	-22.092	139.713	8.996e-05	0.00080678	0.0003878	1173	1.1956e-05	8.9476e-06	1258.1	372.99	8.4879e-06	1.867e-05	450.09	145.35	111.82	37.749	2.932e-05	55.11	0.0067146	0.007217	0.0020035	1164.7	7.714e-05	7.9356e-05	1247.8	376.67	7.7936e-05	7.9562e-05	470.71	153.56	122.42	41.378	7.7892e-05	59.897	62.769	38.235	-14.772	-88.286	152.085	26.183	-88.862	-83.626	41.743	50.488	-84.803	-79.817	-78.517	-72.973	240.492	-75.734	-8191	255	
29985.580	1	1	0	0	0.29067	0.19195	0.1607	0.11216	0.27211	0.25095	0.098552	0.22511	0.30149	0.064782	0.11251	0.16348	0.090661	0.11994	0.21415	0.099343	-4.6583	-4.0104	-4.9313	-4.7771	-4.1771	-4.9604	-4.3958	-4.5271	-4.975	-4.2438	-4.7833	-4.6854	-4.1854	-5.1542	-4.2438	-4.4333	-71.999	228.142	-64.623	161.789	-54.590	-6.410	205.869	226.056	131.048	-37.530	169.756	-68.914	195.548	-50.049	-49.092	188.032	0.0010647	0.00037988	0.00066694	1178.8	2.9698e-05	1.2674e-05	1256.8	370.26	2.9623e-05	2.0831e-05	440.41	141.86	108.39	37.207	1.1351e-05	53.197	0.0065549	0.007038	0.0019448	1164.7	7.4898e-05	7.5998e-05	1238.9	371.75	7.3881e-05	7.5022e-05	461.05	149.64	119.15	40.398	7.5e-05	57.979	31.804	85.893	56.741	-88.553	71.729	2.376	-88.861	-83.448	-1.971	44.156	-84.844	-79.573	-78.320	-72.536	-52.036	-75.819	-8191	255	
29985.699	1	1	0	0	0.28657	0.22851	0.081514	0.1595	0.129	0.095376	0.28703	0.27316	0.23127	0.07615	0.26761	0.08465	0.17076	0.18983	0.098258	0.19314	-4.6021	-4.1125	-4.6375	-4.9146	-3.9458	-4.9792	-4.7333	-4.4854	-4.9187	-4.0854	-4.7729	-4.9667	-4.0833	-5.0375	-4.3708	-4.2063	163.860	221.996	128.431	-31.427	104.983	17.452	161.107	-92.644	35.773	248.990	137.204	-64.952	54.122	-70.313	148.687	-89.057	0.00069438	0.00083069	0.00013353	1162.9	2.0939e-05	5.8945e-06	1240.3	363.38	2.8782e-05	1.6093e-05	432.5	138.73	106.84	36.328	2.5878e-05	52.683	0.0063195	0.0069181	0.0019276	1150.5	7.4838e-05	7.6577e-05	1220.8	366.66	7.4447e-05	7.6546e-05	452.75	147.2	118.19	39.783	7.5831e-05	57.477	6.108	172.494	-67.888	-88.656	37.148	54.190	-88.841	-83.519	26.930	25.834	-84.824	-79.519	-78.057	-73.109	18.069	-76.099	-8191	255	
29985.795	1	1	0	0	0.12163	0.076386	0.28218	0.046295	0.28081	0.13502	0.12739	0.051731	0.043556	0.32299	0.014512	0.22555	0.12867	0.11613	0.26406	0.10329	-4.7729	-4.1229	-4.4792	-5.0146	-4.1062	-4.8458	-4.65	-4.3729	-5.1208	-4.2458	-4.5042	-5.1792	-4.0979	-4.9688	-4.5042	-4.2396	192.394	-47.072	5.517	180.809	35.110	131.217	-70.024	174.468	-75.304	148.827	-44.498	144.139	168.537	203.599	88.388	233.870	0.00075172	0.0015467	0.00049326	1160.4	1.6972e-05	2.2621e-05	1235.7	365.71	4.116e-06	1.4252e-05	434.53	140.37	107.55	36.225	4.0963e-05	52.891	0.006368	0.0069404	0.0019456	1152.2	7.5192e-05	7.693e-05	1226	368.67	7.5195e-05	7.7443e-05	455.48	148.09	118.65	40.102	7.7643e-05	58.026	-39.006	132.454	16.701	-88.487	192.404	-64.070	-88.873	-83.804	159.469	242.402	-85.200	-79.493	-78.098	-72.751	57.094	-76.121	-8191	255	
29985.867	1	1	0	0	0.09258	0.13225	0.28148	0.18756	0.10509	0.23982	0.31637	0.18996	0.035352	0.15651	0.13169	0.066914	0.14809	0.09491	0.090137	0.18632	-4.7979	-4.2771	-4.3708	-4.9646	-4.0042	-4.6479	-4.9979	-4.375	-4.9812	-4.2729	-4.6833	-4.9229	-4.2208	-4.85	-4.7792	-4.1708	223.716	28.052	-42.266	132.388	195.404	146.162	223.707	179.770	-13.141	122.148	199.102	-60.062	233.404	-72.342	-33.926	112.657	0.00049161	0.0023464	0.00076932	1161.8	1.8379e-05	1.6715e-05	1242	366.69	2.5613e-05	2.4377e-05	442.58	142.56	109.6	36.823	1.4159e-05	53.816	0.0065859	0.0072291	0.0020025	1154.8	7.7544e-05	7.8465e-05	1236.8	371.15	7.7444e-05	8.0035e-05	462.4	150.61	120.57	40.661	7.8449e-05	58.704	42.840	-4.571	127.870	-88.258	56.683	-31.895	-88.816	-83.564	46.720	63.697	-84.863	-79.413	-78.111	-73.363	13.770	-75.706	-8191	255	
29985.963	1	1	0	0	0.076298	0.2072	0.069152	0.19208	0.055482	0.27232	0.10719	0.12568	0.15659	0.13321	0.20812	0.056758	0.24826	0.15218	0.17312	0.19825	-4.7167	-4.4292	-4.2625	-5.2271	-4.0958	-4.6875	-4.9542	-4.2958	-4.9042	-4.4208	-4.5125	-5.0958	-4.4229	-4.5833	-4.8229	-4.1979	-94.672	-12.447	116.201	-87.325	77.007	188.975	140.747	70.264	-50.674	160.799	246.383	-38.553	210.376	88.304	49.967	-97.950	0.00062387	0.0012541	0.00055796	1171	1.1031e-05	1.9625e-05	1258	371.48	2.0174e-05	2.119e-05	451.69	145.01	111.26	37.15	3.4386e-05	54.805	0.006525	0.0071645	0.0019806	1161	7.6442e-05	7.814e-05	1243.4	374.66	7.7529e-05	7.9132e-05	468.26	152.98	121.97	41.154	7.7355e-05	59.467	-1.430	38.595	81.216	-88.334	55.089	88.058	-88.952	-83.562	-13.827	40.424	-85.062	-79.334	-78.046	-72.993	10.516	-75.907	-8191	255	
29986.084	1	1	0	0	0.1076	0.11269	0.06192	0.26835	0.13698	0.19112	0.15824	0.042949	0.087965	0.11858	0.2337	0.12572	0.071309	0.021827	0.079643	0.098953	-4.6062	-4.5188	-4.2542	-5.1937	-4.4104	-4.5125	-5.1188	-4.2479	-4.7667	-4.6396	-4.175	-5.1521	-4.4729	-4.4563	-4.9979	-4.0229	-56.894	-3.026	74.424	200.775	-96.787	-11.343	144.523	71.294	186.691	174.573	134.951	121.337	24.144	167.800	32.905	158.328	0.00014152	0.0022263	0.00022997	1167.4	1.3484e-05	2.9035e-05	1257.1	370.01	1.3225e-05	2.3619e-05	436.05	141.64	109.01	36.837	1.5854e-05	53.503	0.0065507	0.007165	0.001991	1161.5	7.6335e-05	7.8597e-05	1242.2	372.34	7.5958e-05	7.8609e-05	460.16	149.94	120.18	40.482	7.6951e-05	58.101	68.454	-22.230	29.980	-88.559	121.733	-10.950	-88.799	-83.645	174.919	9.503	-85.024	-79.646	-78.340	-73.322	139.007	-75.955	-8191	255	
29986.180	1	1	0	0	0.12818	0.2251	0.02063	0.31895	0.14178	0.034779	0.19505	0.10379	0.22766	0.17831	0.030258	0.033002	0.18194	0.068303	0.12957	0.035559	-4.4938	-4.825	-3.9729	-5.1708	-4.3438	-4.4104	-5.175	-4.3479	-4.6833	-4.7125	-4.1667	-4.975	-4.5083	-4.3292	-5.0625	-4.2708	-100.376	-17.960	217.587	181.766	114.874	35.275	209.769	153.835	169.719	1.536	151.637	41.980	-90.471	-45.213	-40.251	3.799	0.00033915	0.0016838	0.00049762	1157.5	1.6907e-05	2.3039e-05	1247	365.68	4.4991e-05	2.9357e-05	436.65	142.28	109.27	37.186	8.3786e-06	53.883	0.0063964	0.007019	0.0019549	1148.5	7.4908e-05	7.622e-05	1227.2	367.92	7.344e-05	7.5075e-05	455.51	148.64	119.19	40.372	7.3287e-05	58.065	66.973	-3.567	13.697	-88.334	137.338	-42.026	-88.857	-83.757	50.196	84.159	-85.349	-79.585	-77.793	-72.928	-32.939	-75.524	-8191	255	
29986.275	1	1	0	0	0.013843	0.047528	0.051813	0.24594	0.024481	0.083625	0.21315	0.22945	0.19397	0.12263	0.22477	0.044485	0.26263	0.10204	0.085411	0.10854	-4.3146	-4.775	-4.05	-4.8938	-4.5375	-4.2167	-5.25	-4.3604	-4.5	-4.8729	-3.9854	-4.9146	-4.6958	-4.1292	-5.1	-4.2875	80.391	152.420	123.645	229.947	118.809	-85.624	-92.550	231.829	256.767	93.435	225.173	27.482	240.514	223.263	-81.953	60.972	0.00030388	0.0012083	0.00017852	1165	1.5744e-05	1.9985e-05	1247.7	369.49	2.6582e-05	8.5507e-06	440.33	142.89	109.21	37.302	9.4866e-06	53.968	0.0062114	0.0067172	0.0018801	1148.1	7.2158e-05	7.3931e-05	1226.4	369.6	7.1869e-05	7.351e-05	457.66	149.22	119.33	40.524	7.088e-05	58.47	31.603	-33.009	22.429	-88.303	-68.126	59.901	-88.708	-83.510	219.345	-23.108	-85.225	-79.922	-77.854	-72.879	-61.513	-75.954	-8191	255	
29986.371	1	1	0	0	0.13324	0.20601	0.038239	0.091767	0.20302	0.14067	0.25117	0.14626	0.23269	0.23683	0.15118	0.076157	0.18985	0.044605	0.25851	0.11318	-4.2104	-5.0437	-4.0437	-5.0771	-4.7229	-4.225	-5.1562	-4.2854	-4.4667	-5.0604	-4.1167	-4.7625	-4.8562	-4.1562	-4.9375	-4.6271	-64.551	0.536	-30.500	-46.785	66.729	256.675	207.968	130.587	44.249	114.086	208.212	88.973	222.375	-6.420	255.421	163.615	0.00056414	0.00027513	0.00051965	1167.6	1.8176e-05	2.0909e-05	1264.6	371.61	1.737e-05	1.9643e-05	445.56	144.51	110.92	37.916	2.9122e-05	55.479	0.006049	0.0065935	0.0018404	1150.2	7.0558e-05	7.254e-05	1231.9	371.18	7.0605e-05	7.287e-05	461	151	120.14	40.922	7.1686e-05	59.592	42.104	240.949	17.527	-88.482	-48.226	61.476	-88.854	-83.697	217.312	136.161	-85.039	-79.614	-78.272	-73.034	-8.928	-75.742	-8191	255	
29986.492	1	1	0	0	0.10984	0.10116	0.11551	0.19448	0.24109	0.18445	0.30514	0.046093	0.27947	0.12461	0.067079	0.17981	0.13196	0.17172	0.088759	0.044559	-4.1208	-5.1021	-4.1021	-4.7917	-4.9083	-3.9625	-5.1479	-4.5521	-4.2333	-5.1813	-4.4396	-4.5312	-5.0417	-4.15	-4.7917	-4.6771	-43.539	-83.510	30.350	248.133	63.380	-67.564	199.653	181.940	139.500	205.861	-92.560	163.833	81.952	220.068	-99.811	194.487	0.00096723	0.0016762	0.0002861	1169.3	2.006e-05	1.5397e-05	1262.5	372.9	4.1042e-05	1.8924e-05	450.99	144.77	111.07	38.047	1.8999e-05	54.854	0.0061128	0.0066268	0.0018447	1150.6	7.0916e-05	7.2851e-05	1231.8	372.76	7.0868e-05	7.1707e-05	464.7	151.21	120.15	40.921	7.0176e-05	59.166	-51.890	58.976	101.145	-88.502	65.768	184.810	-88.979	-83.658	158.780	-6.616	-84.831	-79.300	-77.909	-73.284	-87.006	-76.285	-8191	255	
29986.564	1	1	0	0	0.26587	0.13821	0.13444	0.28864	0.0669	0.19405	0.15262	0.079041	0.10441	0.052111	0.18501	0.17494	0.080309	0.0723	0.22435	0.085809	-3.7771	-5.1562	-4.2438	-4.4292	-4.8688	-3.95	-5.1271	-4.8542	-4.0271	-5.1521	-4.575	-4.3917	-5.0333	-4.1312	-4.8333	-4.8313	257.987	-20.540	248.770	197.842	-100.644	-59.139	91.284	160.661	-21.614	-97.535	179.861	232.430	150.989	239.727	204.735	57.815	0.00068958	0.0029041	0.00087181	1158.9	7.1798e-06	4.8541e-06	1243.3	364.68	2.2598e-05	3.3306e-05	437.63	140.73	108.32	36.88	1.3935e-05	54.042	0.0060113	0.0064568	0.0018016	1139.6	6.8803e-05	6.9558e-05	1213.5	364.32	6.7787e-05	6.8817e-05	449.38	146.14	116.46	39.723	6.7479e-05	57.631	-68.967	-63.376	-74.547	-88.810	214.108	245.261	-88.752	-83.381	-43.979	-87.907	-85.105	-79.896	-78.320	-72.908	85.568	-75.862	-8191	255	
29986.684	1	1	0	0	0.17687	0.24697	0.18295	0.25586	0.2825	0.22265	0.31564	0.096465	0.07136	0.079737	0.26906	0.064103	0.20574	0.22151	0.10639	0.14857	-3.8604	-4.9583	-4.3521	-4.4729	-4.8313	-3.9625	-4.8313	-4.8	-3.9979	-4.9708	-4.5708	-4.2688	-5.0979	-4.2688	-4.5458	-5.0104	1.720	114.362	162.549	254.843	-0.618	42.031	253.281	27.726	80.338	74.341	253.729	22.319	-91.327	-36.710	-99.979	140.322	0.00092973	0.00048881	0.00055312	1144.6	2.0323e-05	1.8553e-05	1239.3	363.07	1.1806e-05	9.1653e-06	431.94	139.3	107.81	36.326	1.1964e-05	53.232	0.0057005	0.006192	0.0017429	1123	6.5985e-05	6.8202e-05	1200.8	359.82	6.5894e-05	6.6486e-05	444.66	144.56	115.22	39.183	6.5202e-05	56.81	-50.272	-54.447	180.356	-88.324	244.048	111.534	-88.764	-83.578	128.624	-6.816	-84.599	-79.836	-78.129	-73.106	66.440	-75.774	-8191	255	
29986.779	1	1	0	0	0.14473	0.065933	0.017292	0.24454	0.145	0.13569	0.19586	0.14059	0.05555	0.19801	0.13765	0.127	0.2496	0.26901	0.14798	0.12987	-3.7917	-4.7937	-4.5667	-4.2646	-4.9708	-4.2479	-4.6729	-5.1833	-3.9083	-4.7375	-4.6375	-4.2688	-5.0229	-4.3854	-4.2937	-4.9812	-4.878	128.067	-88.805	255.491	240.274	113.228	239.584	190.468	75.478	74.527	193.564	189.733	-47.725	-56.019	-78.076	256.119	0.0010113	0.0017713	0.00012836	1143.1	1.4287e-05	2.1184e-05	1229.4	362.9	2.0716e-05	2.2657e-06	434.87	141.04	109.23	37.102	4.8271e-06	54.221	0.005572	0.0060403	0.0016957	1119.6	6.5268e-05	6.6965e-05	1201.1	360.5	6.5623e-05	6.6425e-05	447.13	145.33	115.85	39.6	6.5066e-05	57.423	-59.855	80.654	225.914	-88.396	170.001	-39.832	-88.944	-83.508	128.250	-39.682	-84.974	-80.030	-78.027	-72.580	115.271	-75.788	-8191	255	
29986.875	1	1	0	0	0.074283	0.047642	0.18335	0.30478	0.11572	0.080809	0.26258	0.2187	0.16572	0.1201	0.14857	0.089913	0.17994	0.29507	0.30746	0.23165	-3.8312	-4.7729	-4.6687	-4.2729	-4.9979	-4.3688	-4.4313	-5.0771	-3.8937	-4.5938	-4.9521	-4.2354	-5.0542	-4.4979	-4.3667	-5.1354	160.147	158.885	42.769	256.276	242.613	3.461	215.405	212.751	103.598	56.819	214.207	163.377	-64.833	-96.827	-2.836	169.898	0.00075538	0.00028237	0.00048584	1155.2	2.5529e-05	1.3204e-05	1233.3	364.11	1.2304e-05	2.5104e-05	438.03	140.93	109.04	37.259	3.5828e-05	55.297	0.0055264	0.0059394	0.0016625	1124.2	6.3033e-05	6.5122e-05	1201.4	360.83	6.3694e-05	6.4768e-05	448.97	145.79	116.13	39.989	6.4814e-05	58.243	13.151	31.998	220.559	-88.277	241.182	-41.353	-88.847	-83.423	249.430	-100.408	-85.001	-79.666	-78.063	-72.964	11.572	-75.731	-8191	255	
29986.973	1	1	0	0	0.092013	0.088632	0.27658	0.092245	0.16328	0.1747	0.20874	0.074502	0.15186	0.1107	0.19469	0.09576	0.32254	0.16887	0.18808	0.12019	-3.7771	-4.4812	-4.7917	-4.1333	-4.8875	-4.8042	-4.5312	-5.1146	-4.2625	-4.6917	-5.0583	-4.1146	-5.0458	-4.7083	-4.0604	-5.0729	215.910	69.911	61.848	151.270	-5.638	177.394	184.279	198.417	-29.709	5.057	159.264	-63.331	178.794	71.396	191.193	160.274	0.0004534	0.0016484	0.00026036	1154.7	4.0687e-06	6.1002e-06	1251.3	371.14	1.7045e-05	5.0527e-06	446.13	143.46	110.96	37.714	2.6409e-05	55.732	0.005468	0.005954	0.0016698	1127.9	6.3468e-05	6.5292e-05	1212.5	365.02	6.2661e-05	6.4025e-05	453.73	147.61	117.14	40.267	6.2569e-05	58.504	25.327	25.694	74.359	-88.628	-17.170	182.024	-88.920	-83.673	-12.922	-6.699	-84.453	-79.580	-77.728	-72.373	-26.797	-75.854	-8191	255	
29987.092	1	1	0	0	0.032182	0.099098	0.14923	0.30031	0.051521	0.12923	0.27799	0.26333	0.023981	0.17088	0.058349	0.093083	0.17891	0.19185	0.14744	0.070228	-3.9604	-4.5083	-4.8833	-4.2792	-4.8187	-4.6667	-4.1104	-5.275	-4.4896	-4.4417	-5.2333	-4.2042	-4.8438	-4.7937	-4.0646	-5.0729	44.075	-43.947	-61.381	223.502	231.320	157.791	176.631	-78.354	-34.791	123.190	240.935	206.628	-14.243	204.160	-36.450	-62.500	0.00093196	0.00065244	0.0004375	1158.9	9.1441e-06	1.7518e-05	1234	366.58	7.9175e-06	4.1786e-06	436.28	140.93	109.65	37.731	4.1308e-05	54.705	0.0053353	0.0057603	0.001602	1125.2	6.1663e-05	6.3968e-05	1199.7	361.54	6.1722e-05	6.2434e-05	444.82	145.44	115.75	39.859	6.058e-05	57.308	-63.099	168.795	123.782	-88.413	187.093	-53.504	-88.887	-83.752	-46.944	174.974	-85.021	-79.662	-78.049	-72.903	237.553	-75.835	-8191	255	
29987.164	1	1	0	0	0.14745	0.25732	0.16837	0.18096	0.064328	0.13687	0.2959	0.16764	0.064186	0.18031	0.19145	0.31402	0.041872	0.12086	0.09293	0.23516	-4.1813	-4.1521	-5.1333	-4.2625	-4.7958	-4.8313	-4.2812	-5.1396	-4.4146	-4.2417	-5.0042	-4.2042	-4.8875	-4.8458	-3.9688	-4.9563	225.233	-12.406	-6.866	189.020	144.504	-75.852	201.461	215.292	65.421	157.672	155.102	129.512	-54.448	227.147	258.083	209.221	0.00044617	0.00020862	0.00049998	1145.9	1.2245e-05	2.5296e-05	1233.5	367.89	1.7375e-05	7.4675e-06	437.08	141.09	108.15	37.685	1.6549e-05	54.791	0.0050919	0.0055323	0.0015352	1112.2	5.8564e-05	6.0767e-05	1187.4	358.85	5.9812e-05	6.0823e-05	442.33	144.81	115.12	39.793	6.0204e-05	57.513	27.002	250.539	-3.500	-88.708	196.442	14.702	-88.878	-83.776	186.465	-69.121	-84.817	-80.068	-77.934	-72.863	28.193	-76.074	-8191	255	
29987.260	1	1	0	0	0.16703	0.13816	0.072748	0.24159	0.15163	0.23656	0.044102	0.28651	0.10965	0.093895	0.18291	0.26752	0.17172	0.10515	0.14833	0.059108	-4.2958	-4.0667	-4.9896	-4.1771	-4.2896	-4.8417	-4.2604	-4.8458	-4.5146	-4.25	-5.1792	-4.3458	-4.5917	-4.9229	-3.8396	-4.9563	-67.259	160.417	186.905	165.888	215.410	60.872	-8.317	186.374	235.408	-89.516	-67.137	185.680	208.678	110.376	17.832	85.419	0.00066393	0.0011673	0.00042732	1152.1	8.3946e-06	1.6169e-05	1238.4	365.97	6.1871e-06	5.3187e-06	440.39	142.54	109.5	37.394	4.749e-06	55.483	0.0051894	0.0055815	0.0015501	1119.7	6.0084e-05	6.1268e-05	1198.4	360.21	5.9891e-05	6.1577e-05	445.01	145.52	115.51	39.76	6.0858e-05	57.808	-20.243	-90.853	36.451	-88.557	41.484	162.365	-89.022	-83.409	93.062	115.739	-84.934	-79.651	-78.071	-73.034	146.279	-76.345	-8191	255	
29987.381	1	1	0	0	0.28222	0.12864	0.21312	0.31643	0.082523	0.10385	0.34459	0.22003	0.11934	0.049952	0.23243	0.1053	0.16769	0.17625	0.089304	0.24555	-4.3333	-3.975	-4.9625	-4.3396	-4.2729	-4.9146	-4.0604	-4.6167	-4.8042	-4.0625	-5.0479	-4.4396	-4.2396	-5.0604	-4.125	-4.7875	241.590	-28.632	20.310	175.757	147.488	51.808	179.379	255.743	-17.056	83.330	256.683	139.898	157.162	0.253	-88.548	206.645	0.00052646	0.00065683	0.00029379	1159	1.5212e-05	2.6702e-05	1248.6	371.65	2.3099e-05	8.2896e-06	446.96	145.5	110.67	38.4	1.5214e-05	56.072	0.0051672	0.0056052	0.0015515	1122.6	6.0201e-05	6.1514e-05	1205.2	363.83	5.9764e-05	6.1364e-05	450.85	147.59	116.67	40.265	5.9881e-05	58.617	15.255	84.071	-0.505	-88.182	-95.474	127.162	-88.827	-83.700	18.850	189.582	-85.057	-79.925	-77.982	-72.971	56.931	-75.841	-8191	255	
29987.477	1	1	0	0	0.20025	0.20599	0.18649	0.0512	0.056859	0.10574	0.054786	0.1548	0.11479	0.36583	0.18114	0.16623	0.080765	0.14713	0.15007	0.14403	-4.5167	-4.0125	-5.0437	-4.4563	-4.1375	-5.0479	-4.3104	-4.7375	-4.7604	-3.9813	-4.85	-4.7292	-4.1708	-5.1042	-4.0583	-4.4604	232.388	240.391	-96.831	232.165	86.893	160.232	65.145	174.266	85.228	8.624	248.110	169.818	-25.996	-72.123	-62.899	-53.316	0.00040553	0.0017396	0.0004328	1165	1.6401e-05	2.2229e-05	1261.5	371.72	1.0672e-05	1.6443e-05	452.8	144.47	111.35	38.192	1.4915e-05	56.283	0.0050869	0.0055398	0.0015448	1129.4	5.9659e-05	6.125e-05	1213.8	365.16	5.9726e-05	6.1207e-05	453.64	148.06	116.84	40.078	5.962e-05	58.258	-39.280	75.317	-22.193	-88.654	147.986	134.257	-89.088	-83.375	233.090	15.775	-84.725	-79.925	-78.058	-72.591	-57.095	-76.484	-8191	255	
29987.570	1	1	0	0	0.048267	0.2514	0.16585	0.27214	0.30239	0.13654	0.26658	0.11976	0.018687	0.062659	0.19926	0.12789	0.11414	0.1777	0.13997	0.25289	-4.6542	-4.0083	-4.9062	-4.6458	-4.1896	-4.9854	-4.4958	-4.4729	-4.8833	-4.2292	-4.8146	-4.6604	-4.1375	-5.0979	-4.3354	-4.2771	-84.025	-80.679	-101.347	-41.579	60.404	26.735	223.769	203.725	98.789	164.857	161.206	182.265	47.417	-15.390	94.170	209.517	0.00071003	0.0016391	0.00015322	1163.5	1.3161e-05	1.4651e-05	1240.1	368.59	1.3834e-05	5.4527e-06	440.08	142.16	108.96	37.355	3.9425e-06	54.42	0.0049793	0.0054083	0.0014842	1120.2	5.7156e-05	5.7694e-05	1195.7	359.14	5.667e-05	5.7335e-05	441.33	144.13	114.24	39.129	5.8427e-05	56.688	48.523	166.817	-60.209	-88.528	183.246	235.973	-89.074	-83.387	126.565	221.097	-84.737	-79.868	-78.434	-72.748	229.907	-75.943	-8191	255	
29987.668	1	1	0	0	0.088971	0.085672	0.038601	0.051994	0.18849	0.077787	0.26771	0.17689	0.17092	0.26068	0.16406	0.1618	0.12932	0.2691	0.21912	0.085645	-4.7979	-3.9229	-4.6521	-4.8688	-3.9562	-4.9125	-4.55	-4.3771	-4.8938	-4.0062	-4.5958	-4.8646	-4.1813	-4.8583	-4.4917	-4.1042	-38.917	-69.597	251.633	214.204	119.082	-48.041	178.820	169.498	-36.082	186.283	219.293	230.462	201.283	-19.861	118.395	107.040	0.00022068	0.00054536	0.00044734	1145	1.8218e-05	2.4669e-05	1226.6	362.8	2.4047e-05	6.7312e-06	433.26	141.36	109.15	37.514	1.5997e-05	54.545	0.0049075	0.0053243	0.0014728	1111.7	5.6834e-05	5.8479e-05	1187.5	357	5.7453e-05	5.9408e-05	439.96	144.05	114.22	39.3	5.9325e-05	56.775	-46.010	3.735	-72.988	-88.412	150.690	74.106	-88.837	-83.745	67.198	140.016	-84.795	-79.866	-78.459	-72.792	92.952	-75.818	-8191	255	
29987.766	1	1	0	0	0.12981	0.021768	0.088831	0.22851	0.23328	0.033748	0.11304	0.15518	0.18317	0.099295	0.071223	0.29058	0.2924	0.11854	0.10107	0.19367	-4.6625	-3.9354	-4.375	-5.0646	-4.075	-4.8083	-4.7063	-4.3146	-4.8625	-4.3313	-4.4812	-4.9646	-4.0729	-4.7833	-4.6917	-4.2917	-37.889	228.455	-58.672	148.283	202.744	134.104	234.232	208.186	152.613	-90.099	3.006	209.629	169.557	152.154	158.950	16.560	9.4575e-05	0.0010385	5.4181e-05	1153.2	2.5281e-05	3.3819e-05	1232.8	365.49	1.8741e-05	8.2657e-06	440.51	142.04	109.55	37.512	1.9022e-05	54.778	0.0049479	0.0054234	0.0015181	1118.7	5.8034e-05	5.9716e-05	1192.9	359.01	5.8428e-05	6.0471e-05	443.28	145	115.01	39.31	6.0162e-05	57.022	162.469	-59.802	12.643	-88.508	125.500	55.216	-88.596	-83.586	227.814	108.759	-84.705	-79.479	-78.474	-73.394	141.541	-75.883	-8191	255	
29987.859	1	1	0	0	0.20556	0.15454	0.25392	0.058606	0.14132	0.092953	0.11065	0.25459	0.099088	0.012749	0.20508	0.2164	0.27682	0.28398	0.091426	0.16762	-4.6333	-4.3708	-4.4271	-5.2188	-3.9875	-4.5375	-5.1208	-4.2083	-5.05	-4.4021	-4.4854	-5.2229	-4.2375	-4.6521	-4.6896	-4.2021	94.554	6.555	190.914	161.608	-84.768	236.441	190.886	216.007	-6.566	213.408	167.435	256.431	-88.186	242.569	-62.145	-76.363	4.6278e-05	0.00093897	0.00040042	1153.4	1.4412e-05	1.9598e-05	1243.8	366.91	1.9109e-05	2.1497e-05	445.19	142.75	110.76	37.972	1.7054e-05	55.704	0.0050537	0.0055889	0.0015377	1119.6	5.9535e-05	6.1544e-05	1203.2	361.78	5.9574e-05	6.1845e-05	449.26	146.85	116.32	39.904	6.1296e-05	57.966	-20.474	64.605	-19.569	-88.267	-7.488	123.874	-88.854	-83.673	91.227	50.490	-85.101	-79.666	-78.133	-73.175	42.514	-76.000	-8191	255	
29987.955	1	1	0	0	0.10057	0.21145	0.18945	0.22817	0.083054	0.24615	0.24187	0.21857	0.096935	0.12882	0.065416	0.1018	0.28732	0.13094	0.068162	0.10424	-4.5979	-4.4729	-4.2417	-5.1583	-4.0896	-4.5083	-5.0479	-4.0833	-4.9	-4.5125	-4.2312	-5.0208	-4.3542	-4.4083	-4.7958	-4.1375	96.853	229.635	-19.173	-84.535	104.274	79.012	147.014	243.091	182.075	225.397	-86.633	-67.325	169.073	187.910	-61.966	174.517	0.00056786	0.0013591	5.9482e-05	1158.1	1.0811e-05	1.6794e-06	1243.8	369.71	4.2971e-06	5.9641e-06	443.37	144.46	108.86	37.708	2.927e-05	54.771	0.0051792	0.0057188	0.0015832	1123.8	6.1396e-05	6.288e-05	1209.4	363.69	6.1395e-05	6.3105e-05	450.46	147.37	116.46	39.805	6.2671e-05	57.634	-36.976	45.854	247.671	-88.312	-62.781	26.492	-88.617	-83.855	227.934	109.600	-85.087	-79.934	-78.139	-72.914	-6.862	-75.694	-8191	255	
29988.053	1	1	0	0	0.22753	0.05103	0.19061	0.16968	0.31575	0.15172	0.19023	0.065232	0.1748	0.097796	0.24986	0.082189	0.15329	0.25284	0.074421	0.22166	-4.5958	-4.5104	-3.9896	-5.1937	-4.1542	-4.3	-5.0854	-4.1813	-4.7896	-4.5875	-4.2729	-5.1833	-4.4062	-4.2562	-4.9563	-4.3833	-21.874	-99.150	118.716	201.346	19.748	136.636	194.955	234.969	183.210	-67.931	-76.164	35.261	-58.868	241.736	50.263	234.588	0.00085315	0.00072683	0.0005547	1147.7	2.201e-05	1.3812e-05	1233.3	364.46	1.6159e-05	1.7082e-06	431.5	140.07	107.44	37.039	3.057e-05	53.946	0.0052481	0.0057649	0.0016004	1115.9	6.2133e-05	6.2937e-05	1192.7	356.55	6.0921e-05	6.2806e-05	439.45	144.23	114.46	39.214	6.1698e-05	56.729	-6.743	-31.219	19.725	-88.488	97.765	212.148	-88.728	-83.738	210.985	-96.089	-84.932	-79.624	-78.263	-72.921	67.779	-76.121	-8191	255	
29988.174	1	1	0	0	0.17986	0.069632	0.1198	0.18236	0.053103	0.15184	0.19691	0.23943	0.31125	0.050267	0.33265	0.10122	0.07522	0.23724	0.05675	0.16631	-4.2229	-4.825	-4.0104	-5.0771	-4.3646	-4.1792	-5.2417	-4.0833	-4.5479	-4.8583	-4.1271	-4.9146	-4.5479	-4.1708	-4.9854	-4.2625	208.800	127.572	121.672	251.804	208.737	174.199	150.439	-96.615	202.168	-81.545	161.809	257.321	178.878	218.782	8.533	247.350	0.00065457	0.0012005	7.6134e-05	1131.5	1.1504e-06	9.8167e-06	1226.9	360.4	2.376e-05	4.3028e-06	431.15	141.7	107.7	37.125	2.6661e-05	54.476	0.0052455	0.0057429	0.0015865	1105.7	6.1749e-05	6.3197e-05	1187.3	356.1	6.2077e-05	6.385e-05	441.17	145.21	114.97	39.654	6.3044e-05	57.264	-32.603	-85.058	186.865	-88.172	34.008	207.573	-88.916	-83.607	81.384	-47.180	-84.989	-79.917	-77.989	-73.120	-46.256	-75.961	-8191	255	
29988.270	1	1	0	0	0.066518	0.25702	0.08918	0.21889	0.21194	0.071	0.13297	0.18048	0.062798	0.19781	0.12417	0.20516	0.28025	0.023162	0.11326	0.23524	-4.2562	-4.8771	-4.1146	-4.9187	-4.4708	-4.2479	-5.2042	-4.2354	-4.3542	-4.9479	-4.1312	-4.8479	-4.675	-4.225	-4.9792	-4.4854	183.433	231.163	173.502	164.067	38.509	-78.022	168.418	-91.012	207.285	248.189	197.220	-40.321	256.988	-44.468	142.308	-99.778	0.00040571	0.00068277	0.00030804	1142.9	1.1816e-05	1.9053e-05	1235.1	361.19	9.1425e-06	7.0289e-06	434.04	141.27	107.75	37.583	6.2554e-06	54.947	0.0053638	0.0058092	0.0016089	1110.7	6.2345e-05	6.3412e-05	1192.8	357	6.1826e-05	6.2584e-05	444.66	145.85	115.39	39.695	6.1722e-05	57.657	-12.437	-41.778	98.613	-88.505	-10.647	4.068	-89.086	-83.275	56.418	-13.406	-84.585	-79.167	-77.722	-72.421	154.094	-75.713	-8191	255	
29988.365	1	1	0	0	0.091876	0.092926	0.30485	0.26302	0.11599	0.12715	0.13072	0.049517	0.20455	0.074523	0.083284	0.21372	0.29773	0.14938	0.15352	0.076951	-4.0229	-4.9667	-4.0437	-4.8354	-4.7438	-3.9875	-5.05	-4.6479	-4.1292	-5.0104	-4.0771	-4.725	-4.8125	-4.2896	-5.0062	-4.4125	236.158	158.056	238.578	216.074	185.817	15.522	191.112	255.796	136.292	191.089	165.727	170.144	-83.737	165.459	51.110	162.388	0.00041534	0.00056171	0.00050675	1137.6	8.7839e-06	6.9098e-06	1236.6	365.77	5.103e-06	1.582e-05	441.32	144.01	110.17	37.649	9.1369e-06	55.843	0.0052289	0.0057227	0.0015993	1110.7	6.1611e-05	6.2607e-05	1199.1	360.11	6.1271e-05	6.2935e-05	449.74	147.83	116.96	40.207	6.2758e-05	58.539	19.704	-29.622	124.300	-88.153	9.922	87.447	-88.735	-83.054	112.159	231.651	-84.731	-79.698	-77.874	-73.070	64.948	-75.937	-8191	255	
29988.461	1	1	0	0	0.15838	0.04344	0.062254	0.25661	0.095288	0.14564	0.14553	0.047418	0.056038	0.2674	0.21469	0.11873	0.10064	0.32029	0.12057	0.099172	-3.9	-5.0833	-4.1292	-4.6792	-4.9396	-4.0687	-4.95	-4.6854	-4.1438	-5.0646	-4.3438	-4.5479	-4.9146	-4.0833	-4.9396	-4.7146	-91.575	151.621	63.199	141.557	-19.826	71.180	129.458	7.846	23.856	95.645	192.861	250.618	229.020	115.965	-76.506	198.288	0.00030323	0.00077049	0.00019097	1148.6	1.157e-05	1.933e-05	1249.9	364.87	2.2355e-05	2.4352e-05	441.43	144.21	109.1	37.494	7.8401e-06	55.264	0.00536	0.005779	0.0016163	1117.9	6.2697e-05	6.3836e-05	1208.7	362.42	6.2723e-05	6.3609e-05	450.04	147.3	116.06	39.767	6.2607e-05	57.851	46.321	-17.916	36.674	-88.443	170.511	21.503	-88.931	-83.491	5.157	61.750	-85.146	-79.801	-77.768	-72.536	3.405	-76.088	-8191	255	
29988.557	1	1	0	0	0.1106	0.1471	0.18409	0.25239	0.28949	0.27881	0.21032	0.1351	0.22477	0.28593	0.11145	0.13428	0.063075	0.08587	0.04313	0.21349	-3.7792	-4.9333	-4.1875	-4.5583	-4.9708	-4.0062	-4.7542	-4.6708	-4.1417	-5.1604	-4.4792	-4.4458	-4.9646	-4.0938	-4.5354	-4.8667	-27.996	177.649	-95.584	212.100	42.908	163.437	216.959	192.843	170.735	130.409	251.916	10.057	-35.233	38.173	16.061	184.095	0.00042802	0.00058534	0.00052918	1139.1	2.8745e-05	2.6295e-05	1216.9	359.31	3.1692e-05	9.1286e-06	428.43	139.52	107.19	37.161	8.5571e-06	53.62	0.0052605	0.0057375	0.0016197	1108.8	6.1824e-05	6.3175e-05	1183.8	355.31	6.1248e-05	6.2737e-05	438.4	143.52	113.79	39.238	6.12e-05	56.568	63.818	-46.849	-32.017	-88.446	160.250	69.998	-88.869	-83.774	160.375	-41.048	-84.792	-79.681	-77.860	-72.601	167.288	-75.960	-8191	255	
29988.652	1	1	0	0	0.1204	0.049053	0.1235	0.33035	0.080696	0.18895	0.16349	0.095262	0.14253	0.05591	0.12986	0.1962	0.051665	0.23034	0.13311	0.21638	-3.5792	-5.0729	-4.4417	-4.2312	-5.0938	-4.1208	-4.7021	-4.7375	-3.9771	-4.85	-4.5333	-4.1521	-5.1	-4.2854	-4.4542	-5.0708	163.450	35.796	39.128	202.883	-83.581	-22.903	222.291	246.994	22.192	195.712	55.945	-96.546	45.658	211.431	-24.325	257.617	0.0010143	0.00055975	0.00043893	1137.7	9.0066e-06	2.0784e-05	1218.5	358.6	1.7813e-05	1.2074e-05	429.51	139.51	107.73	37.027	1.6169e-05	54.071	0.0051838	0.0056122	0.0015781	1106.1	5.9341e-05	6.1894e-05	1183	354.48	5.9846e-05	6.0794e-05	438.61	142.99	113.77	39.091	5.996e-05	56.457	-9.513	15.213	-20.707	-88.536	13.952	-34.355	-88.929	-83.501	67.963	93.558	-84.911	-79.691	-78.492	-72.954	30.227	-75.806	-8191	255	
29988.771	1	1	0	0	0.083544	0.14302	0.11836	0.32823	0.15711	0.15555	0.16756	0.23297	0.092256	0.16892	0.1229	0.10906	0.11386	0.089694	0.11744	0.10429	-3.7375	-4.8521	-4.5687	-4.175	-4.8688	-4.25	-4.4667	-4.9604	-3.9854	-4.7354	-4.65	-4.2	-5.1729	-4.3396	-4.3125	-5.2812	-44.051	197.883	-15.751	188.424	-45.939	126.253	233.946	154.769	130.717	-83.846	156.058	221.038	246.388	-37.458	-54.024	75.347	0.0010934	0.0017015	1.999e-05	1141.6	5.7174e-07	9.0787e-06	1227.1	362.85	3.9039e-06	1.128e-05	436.33	140.94	108.66	37.083	6.9696e-06	55.02	0.0050678	0.0055138	0.0015431	1106.2	5.9182e-05	6.1225e-05	1187.2	356.73	5.9331e-05	6.0412e-05	441.83	144.01	114.41	39.319	5.9755e-05	57.19	-12.481	47.279	191.436	-88.672	192.205	98.254	-88.612	-83.699	7.002	-90.879	-85.099	-79.930	-77.953	-72.918	212.954	-75.792	-8191	255	
29988.867	1	1	0	0	0.13704	0.074136	0.089009	0.22415	0.050427	0.29644	0.31789	0.19464	0.068797	0.045732	0.13703	0.21511	0.22324	0.11548	0.2061	0.10524	-3.7771	-4.7521	-4.5979	-4.2792	-5.0188	-4.3812	-4.5479	-5.125	-4.1167	-4.7208	-4.9688	-4.1333	-4.9792	-4.5083	-4.1896	-5.0563	3.922	-22.538	29.922	-80.137	26.720	100.601	166.269	173.059	178.151	176.610	71.766	161.965	190.793	81.005	207.129	232.899	0.00020389	0.00070627	0.00022993	1140	2.0213e-05	2.1757e-05	1236.6	363.47	2.3325e-05	9.4561e-06	440.24	142.69	109.8	37.783	1.775e-05	55.95	0.0050674	0.0054999	0.0015271	1105.7	5.926e-05	6.1373e-05	1195	358.24	5.9241e-05	6.0502e-05	446.8	146.21	115.61	39.989	5.9472e-05	57.955	43.211	-30.685	-27.005	-88.727	-24.078	45.360	-89.161	-83.517	26.560	39.842	-84.969	-79.368	-78.181	-72.516	86.219	-76.024	-8191	255	
29988.965	1	1	0	0	0.28472	0.11895	0.12597	0.15628	0.2418	0.098281	0.22719	0.21992	0.091061	0.12789	0.13711	0.16453	0.24163	0.20996	0.22882	0.25858	-3.9021	-4.575	-4.7167	-4.3	-4.8583	-4.3938	-4.125	-5.1687	-4.3417	-4.5417	-5.2354	-4.1083	-4.9667	-4.6229	-4.1708	-5.0625	150.008	39.687	57.383	215.173	240.320	93.817	182.029	246.301	235.395	88.519	227.082	168.411	-92.784	133.127	94.885	-36.511	0.00094126	0.0013633	5.1953e-05	1151.2	1.1288e-05	2.1817e-05	1234.8	366.73	4.0392e-06	1.0387e-05	436.56	142.6	109.35	37.708	1.697e-05	54.741	0.0050996	0.005547	0.0015114	1113.8	5.8378e-05	6.0165e-05	1197	358.74	5.8503e-05	5.9488e-05	444.01	144.8	114.4	39.394	5.9077e-05	56.727	13.196	-20.855	30.611	-88.342	83.837	84.949	-89.000	-83.264	-18.747	-80.333	-85.142	-79.654	-77.778	-72.367	-20.449	-76.150	-8191	255	
29989.035	1	1	0	0	0.25464	0.11416	0.0715	0.26786	0.072939	0.37556	0.10028	0.19448	0.182	0.019231	0.096445	0.13691	0.03128	0.036475	0.091426	0.051794	-3.7542	-4.5312	-4.9458	-4.1	-4.7479	-4.7	-4.1833	-5.0417	-4.3896	-4.1917	-5.0813	-4.0062	-4.6042	-4.675	-3.9875	-5.0083	90.275	248.465	15.043	229.341	160.085	-11.939	125.377	171.871	56.466	167.163	143.929	-57.202	141.637	-42.520	115.956	190.283	0.00015536	0.0016429	0.0002293	1137.8	3.8758e-06	2.2804e-05	1230.4	360	7.7565e-06	1.9721e-05	433.33	140.27	107.34	37.187	5.5762e-06	54.513	0.0049724	0.0054125	0.0015045	1102.3	5.7781e-05	6.0044e-05	1185	353.69	5.8376e-05	5.935e-05	437.5	142.85	112.91	39.098	5.8532e-05	56.694	18.834	122.403	77.694	-88.280	207.429	25.162	-88.889	-83.782	120.846	96.664	-85.061	-79.848	-78.125	-72.930	172.266	-75.780	-8191	255	
29989.156	1	1	0	0	0.15303	0.10761	0.20582	0.1249	0.10982	0.069387	0.14397	0.13924	0.13671	0.07358	0.10386	0.1078	0.017113	0.038162	0.064896	0.24638	-4.0708	-4.1417	-4.8417	-4.2333	-4.5062	-4.8333	-4.0979	-5.0646	-4.3771	-4.1917	-5	-4.1521	-4.4729	-4.6813	-4.0125	-4.8979	135.384	-35.594	184.269	-43.704	125.782	-13.701	232.220	118.254	252.580	151.828	21.451	222.609	162.551	250.757	1.858	195.211	0.00060186	0.0014631	0.00022056	1136.3	3.1441e-05	4.6857e-06	1223.5	360.58	1.9565e-05	6.4805e-06	434	140.99	107.99	37.811	8.2998e-06	55.069	0.0049937	0.0054061	0.0015038	1095.2	5.7573e-05	5.9909e-05	1176.8	352.84	5.923e-05	6.0043e-05	437.52	143.6	113.61	39.557	5.915e-05	57.506	-8.772	53.530	256.069	-88.349	82.311	-96.868	-88.978	-83.659	42.888	169.884	-84.690	-79.518	-78.256	-72.618	5.008	-75.815	-8191	255	
29989.254	1	1	0	0	0.095481	0.12732	0.097837	0.19912	0.23023	0.16073	0.11037	0.24838	0.2307	0.072417	0.10226	0.17084	0.19548	0.14931	0.1297	0.064649	-4.1687	-4.3208	-4.925	-4.2854	-4.2521	-4.8333	-4.2417	-4.9021	-4.4458	-4.0312	-5.1438	-4.1937	-4.4979	-5.0563	-3.9417	-4.7104	113.650	154.376	52.823	197.989	60.575	107.055	174.072	176.030	7.838	142.980	-88.701	144.886	234.853	-56.795	81.670	218.239	0.0015251	0.0013081	9.6805e-05	1126.7	1.2182e-05	2.4247e-05	1218.3	361.79	2.3145e-05	1.6616e-05	434.83	141.73	108.66	37.935	3.6035e-06	55.686	0.0050268	0.0054626	0.0015158	1094.6	5.7702e-05	5.9765e-05	1180.5	354.1	5.8809e-05	5.9478e-05	441.41	144.54	114.33	39.702	5.9003e-05	57.938	5.157	29.734	-35.869	-88.264	76.902	115.937	-89.100	-83.585	75.252	25.675	-84.395	-79.388	-78.091	-72.748	102.098	-75.961	-8191	255	
29989.350	1	1	0	0	0.11639	0.14097	0.13352	0.23853	0.12824	0.053323	0.33765	0.18437	0.1113	0.17793	0.1321	0.072334	0.2554	0.12942	0.12141	0.1039	-4.3354	-4.0625	-5.0125	-4.3854	-4.2188	-4.8708	-4.0771	-4.5771	-4.7896	-3.8979	-4.9396	-4.3938	-4.3604	-5.0146	-4.1896	-4.6833	166.932	199.176	144.584	183.212	151.880	153.130	206.160	-34.904	-100.474	201.714	-82.742	127.658	142.848	37.188	121.035	228.167	0.00051853	0.00054057	0.00031505	1133.6	1.1632e-05	5.5626e-06	1226.9	364.06	2.2858e-05	8.0856e-06	440.18	144	109.44	38.079	2.5344e-05	56.561	0.0050281	0.0054411	0.0015152	1099.4	5.8265e-05	5.976e-05	1190.8	356.38	5.927e-05	6.0809e-05	446.5	146.78	115.41	39.977	5.9776e-05	58.57	20.413	-99.193	47.288	-88.363	-56.528	71.119	-88.437	-83.507	-9.140	230.837	-84.894	-79.601	-78.079	-72.671	66.321	-75.989	-8191	255	
29989.445	1	1	0	0	0.085508	0.079796	0.081517	0.34923	0.025083	0.20595	0.18753	0.094724	0.14828	0.19859	0.12306	0.17567	0.1654	0.20091	0.24098	0.12641	-4.675	-4.0125	-4.8875	-4.4875	-4.1813	-5.0958	-4.2375	-4.5563	-4.7937	-3.8917	-4.9396	-4.5938	-4.2042	-5.0625	-4.175	-4.4583	-55.363	160.896	-70.319	237.893	215.864	-18.934	141.814	-83.418	0.390	58.303	240.884	170.493	219.223	148.293	51.977	-71.669	0.0010085	0.0028093	0.00018692	1131.5	1.9517e-05	8.2079e-06	1217.7	360.5	2.5504e-05	8.202e-06	438.87	141.78	108.05	37.611	6.4453e-06	55.214	0.0050738	0.0054754	0.00152	1097.5	5.8324e-05	5.972e-05	1186.1	354.9	5.8004e-05	5.9104e-05	441.59	144.45	113.26	39.462	5.8446e-05	57.313	15.213	0.226	-101.564	-88.093	-37.174	9.006	-88.847	-83.837	20.059	-55.266	-85.053	-79.436	-78.730	-72.285	211.339	-76.047	-8191	255	
29989.564	1	1	0	0	0.26756	0.17859	0.23725	0.30294	0.21997	0.17114	0.16107	0.16639	0.11851	0.13828	0.069433	0.12554	0.1077	0.049496	0.10794	0.20226	-4.6104	-4.0208	-4.8375	-4.8313	-4.0917	-5.1708	-4.4208	-4.5125	-4.9417	-4.1042	-4.8354	-4.8771	-4.1667	-5.0979	-4.2625	-4.3583	165.665	-10.695	194.210	189.135	-49.915	180.411	216.174	178.678	20.945	169.419	-24.835	51.268	241.057	143.522	234.263	156.868	0.00081989	0.00062074	0.00039969	1121.6	1.1219e-05	5.5366e-06	1209.4	352.21	1.1719e-05	2.5398e-05	428.61	139.63	106.52	37.323	5.5216e-06	54.538	0.0048601	0.0052893	0.0014635	1083.5	5.679e-05	5.7328e-05	1166.7	347.47	5.6679e-05	5.8263e-05	432.21	142.09	112.04	39.029	5.8598e-05	56.669	-22.240	-5.600	-24.853	-88.502	116.950	208.285	-89.016	-83.439	-88.102	113.956	-84.800	-79.509	-78.393	-72.594	150.471	-75.569	-8191	255	
29989.660	1	1	0	0	0.16685	0.11726	0.14261	0.15898	0.053031	0.069705	0.30549	0.12015	0.070969	0.035696	0.16244	0.17882	0.17722	0.15935	0.23053	0.12796	-4.6271	-3.9708	-4.5667	-4.8542	-3.8333	-4.9688	-4.6729	-4.1771	-4.7812	-3.9625	-4.5792	-4.7979	-3.9938	-4.8417	-4.4771	-4.2917	82.006	121.334	243.447	210.089	-78.653	96.912	186.046	251.971	-44.450	160.118	209.139	181.449	130.419	64.186	-20.858	207.145	0.00070672	0.0014556	0.00027866	1117	3.0519e-06	2.4194e-05	1213.2	355.09	1.1684e-05	1.1787e-05	431.88	139.78	106.92	37.385	1.246e-05	55.341	0.0049106	0.0054392	0.0015009	1085.3	5.8402e-05	5.954e-05	1173.3	349.28	5.7774e-05	5.903e-05	436.13	142.75	112.62	39.201	5.7048e-05	56.748	-30.133	95.591	-54.849	-88.337	-9.795	114.023	-88.749	-83.553	-74.940	-53.864	-85.145	-79.691	-77.913	-72.391	-19.204	-75.794	-8191	255	
29989.734	1	1	0	0	0.13555	0.09386	0.13958	0.21613	0.21307	0.05037	0.2378	0.23389	0.1255	0.1784	0.25761	0.11831	0.078633	0.087125	0.082039	0.1675	-4.7729	-4.2417	-4.3979	-5.0333	-3.9479	-5.0125	-4.7104	-4.0417	-4.9479	-4.1729	-4.5042	-4.8938	-4.0479	-4.5667	-4.7375	-4.15	-37.480	166.581	166.570	184.493	30.614	123.628	-42.406	-100.871	40.395	25.712	-41.877	158.717	27.568	0.151	218.661	200.870	0.0007152	0.0025347	5.9416e-05	1125.5	1.2082e-05	1.477e-05	1219.2	359.02	1.5724e-05	1.7985e-05	436.38	142.15	107.66	37.964	1.5067e-05	55.829	0.0047016	0.0051832	0.001432	1085.3	5.4623e-05	5.5388e-05	1174.7	350.07	5.3746e-05	5.6093e-05	437.22	143.16	112.86	39.441	5.5048e-05	57.516	4.808	82.673	9.602	-87.859	45.126	7.868	-88.743	-83.601	-24.166	85.306	-84.611	-79.436	-78.239	-72.970	95.861	-75.888	-8191	255	
29989.854	1	1	0	0	0.20922	0.086059	0.12594	0.17749	0.10652	0.24995	0.13957	0.14878	0.046055	0.13779	0.082531	0.15473	0.19525	0.19402	0.080183	0.23296	-4.7792	-4.3271	-4.3625	-5.1021	-4.0396	-4.5729	-4.9208	-4.0458	-4.9062	-4.4458	-4.3521	-5.1417	-4.1458	-4.7021	-4.8438	-4.2271	41.019	-96.326	-98.956	251.632	-7.428	15.834	200.223	223.752	39.413	-6.199	191.949	-66.649	-0.103	234.156	126.414	225.621	0.00052203	0.00099812	9.8475e-05	1127.3	1.9136e-05	2.1408e-05	1233.9	364.82	2.3483e-06	1.597e-05	444.89	144.26	109.98	38.581	1.9263e-05	56.823	0.0046666	0.0051013	0.0014032	1089.7	5.4558e-05	5.5543e-05	1183.3	353.81	5.3646e-05	5.5322e-05	442.89	145.3	114.15	39.855	5.4403e-05	57.992	-80.194	-84.211	63.391	-88.136	8.049	43.520	-88.639	-83.923	-21.319	-2.112	-85.121	-79.660	-77.805	-72.736	1.894	-76.021	-8191	255	
29989.949	1	1	0	0	0.20006	0.030499	0.1956	0.18419	0.35936	0.26201	0.12702	0.11418	0.1485	0.086453	0.30395	0.11517	0.32189	0.19706	0.059693	0.11266	-4.7646	-4.45	-4.0542	-5.0875	-4.0833	-4.4938	-4.8896	-4.1417	-4.8271	-4.4354	-4.1438	-4.925	-4.1333	-4.3417	-4.9729	-3.8417	194.679	233.747	-88.045	162.988	231.949	94.666	216.385	196.118	227.133	176.467	252.320	196.465	256.258	7.407	-13.116	94.067	0.00031606	0.0002934	0.00045339	1133.3	2.2513e-06	3.4699e-05	1230.8	361.55	3.8871e-06	1.4202e-05	438.3	140.79	107.65	37.9	2.2599e-05	55.519	0.0046072	0.0050559	0.0013965	1091.3	5.3985e-05	5.4529e-05	1180.9	351.04	5.3476e-05	5.4616e-05	436.65	142.98	111.92	39.086	5.3974e-05	56.623	42.573	-44.144	30.996	-88.095	53.309	49.488	-88.740	-83.626	208.948	86.387	-84.784	-79.222	-78.098	-72.689	123.777	-75.741	-8191	255	
29990.045	1	1	0	0	0.16521	0.1464	0.088363	0.20275	0.1797	0.13107	0.2472	0.39521	0.1	0.15549	0.24422	0.28295	0.27339	0.070725	0.0049497	0.26246	-4.2812	-4.4833	-4.1438	-5.0229	-4.1833	-4.2333	-5.0083	-4.2583	-4.75	-4.7438	-4.0042	-4.9542	-4.2	-4.175	-4.9167	-4.1271	167.698	-84.790	158.745	181.517	233.559	31.462	121.866	146.298	58.814	156.086	33.448	212.674	218.250	119.361	213.034	212.149	0.0010087	0.00081641	9.7722e-05	1116.2	8.2174e-06	7.9009e-06	1207.5	355.97	1.3918e-05	1.2331e-05	433.95	142.21	107.11	37.521	2.1418e-05	55.007	0.0045847	0.0050165	0.0013844	1078.1	5.432e-05	5.5676e-05	1167.2	347.34	5.5341e-05	5.7287e-05	435.78	143.36	112.48	39.158	5.6305e-05	56.907	-2.844	-22.411	-47.285	-87.780	238.191	-46.221	-89.033	-83.227	175.746	38.018	-84.865	-79.686	-77.733	-72.782	65.461	-75.622	-8191	255	
29990.166	1	1	0	0	0.14497	0.12392	0.16512	0.11296	0.16281	0.073325	0.2445	0.19273	0.069864	0.14183	0.0882	0.068316	0.16486	0.32474	0.13427	0.24412	-4.2438	-4.7229	-3.9354	-5.0771	-4.3979	-4.3771	-5.0333	-4.125	-4.4958	-4.7958	-4.1562	-5.0375	-4.6125	-4.2667	-5.0479	-4.3083	-77.588	-38.486	-10.254	208.798	142.072	28.167	141.241	136.123	51.003	116.016	53.787	193.609	248.545	-83.171	207.069	239.408	0.00056074	0.0012846	0.00060784	1114	2.3626e-05	1.8208e-05	1215.9	356.59	8.9899e-06	2.8761e-05	438.07	143.05	107.59	37.376	1.0629e-05	55.108	0.0048076	0.0051867	0.0014518	1078.9	5.5485e-05	5.6704e-05	1175.4	349.65	5.5375e-05	5.6738e-05	439.66	144.84	112.71	39.033	5.6415e-05	57.098	58.130	-42.593	44.522	-88.048	-56.472	247.009	-88.772	-83.536	124.343	26.047	-85.076	-79.669	-77.840	-72.711	170.735	-75.948	-8191	255	
29990.262	1	1	0	0	0.099257	0.092123	0.048221	0.38744	0.18736	0.12384	0.18848	0.099248	0.17788	0.095463	0.092648	0.37884	0.20675	0.08163	0.1915	0.19993	-4.1333	-4.8729	-3.9896	-4.8875	-4.4667	-4	-5.1271	-4.3417	-4.4313	-4.8104	-4.1417	-4.9437	-4.7625	-4.2479	-5.0813	-4.5208	236.666	106.006	232.525	229.569	59.999	17.049	194.793	156.183	-57.439	179.585	153.001	224.036	225.406	257.085	58.276	97.520	0.00028026	0.0006143	0.00028797	1125.3	3.3164e-05	1.6634e-05	1226	362.27	1.071e-05	1.512e-05	443.47	145.95	109.3	38.065	2.202e-05	55.992	0.0047671	0.0052032	0.0014527	1087.6	5.6203e-05	5.7049e-05	1182.7	353.56	5.5664e-05	5.7307e-05	446.38	146.66	114.47	39.498	5.6825e-05	57.715	-3.855	255.626	156.431	-88.078	24.563	71.857	-88.974	-82.917	144.613	21.701	-84.842	-79.608	-77.756	-72.517	254.705	-75.595	-8191	255	
29990.332	1	1	0	0	0.17086	0.027666	0.22704	0.12653	0.23094	0.25177	0.23931	0.20938	0.14348	0.045789	0.29194	0.12443	0.1387	0.076606	0.18666	0.097864	-3.7771	-4.8979	-4.2896	-4.8333	-4.7375	-3.9854	-4.9604	-4.4542	-4.2854	-5.0292	-4.1792	-4.5854	-4.8562	-4.1833	-4.7937	-4.6667	133.392	-36.266	17.618	-80.863	228.528	192.603	194.638	191.057	-93.011	12.216	240.570	23.024	160.476	195.168	-38.318	64.787	0.00067314	0.00077559	0.00037234	1127.2	1.5914e-05	1.7015e-05	1246.1	364.38	1.0582e-05	1.1148e-05	447.8	147.09	109.51	38.184	1.3247e-05	56.296	0.0048167	0.0052212	0.0014697	1091.2	5.6383e-05	5.7683e-05	1195.9	356.51	5.6486e-05	5.7367e-05	450.66	148.49	115.21	39.968	5.7599e-05	58.341	-20.057	55.767	171.532	-88.431	254.229	-93.888	-88.797	-83.538	87.910	7.615	-85.163	-79.410	-77.724	-72.586	236.800	-75.969	-8191	255	
29990.453	1	1	0	0	0.14221	0.03658	0.23504	0.27989	0.16441	0.10631	0.11845	0.31644	0.064407	0.17523	0.10225	0.32835	0.18721	0.18761	0.094958	0.034688	-4.0292	-4.9771	-4.05	-4.7312	-4.8	-3.9229	-4.9667	-4.5833	-4.0042	-4.9604	-4.1562	-4.4875	-4.7562	-4.0125	-4.6146	-4.6625	29.999	161.357	-91.058	-73.319	83.860	118.993	200.723	200.367	1.438	3.724	240.134	204.485	193.377	206.021	44.968	-5.073	0.00083071	0.00096751	0.00018258	1126.4	6.4368e-06	2.082e-06	1231	359.91	6.1352e-06	7.6166e-06	439.33	142.71	106.82	37.401	1.443e-05	54.626	0.0048693	0.005262	0.0014926	1090.4	5.6398e-05	5.8467e-05	1187	352.24	5.7162e-05	5.8472e-05	442.19	144.99	112.81	39.442	5.7999e-05	57.051	-47.733	21.214	7.135	-88.356	-7.324	202.746	-88.666	-83.277	204.472	42.524	-84.823	-79.630	-77.670	-72.774	-9.859	-75.731	-8191	255	
29990.549	1	1	0	0	0.089896	0.10252	0.09373	0.082042	0.08339	0.26975	0.23093	0.15556	0.076945	0.09567	0.20104	0.29943	0.36696	0.075905	0.27469	0.1069	-3.6646	-5.0354	-4.1896	-4.4333	-4.9625	-4.0813	-4.725	-4.7188	-3.9229	-5.0354	-4.4854	-4.4125	-5.0167	-4.1521	-4.5083	-4.7229	-77.816	-46.449	200.193	231.383	254.883	28.916	123.652	251.302	-22.597	-6.324	127.043	226.717	178.520	250.313	20.523	178.194	0.00071063	0.00058853	0.00036277	1108.8	8.8176e-06	9.2273e-06	1211	354.08	1.6321e-05	6.2479e-06	434.23	142.13	107.33	37.462	9.7321e-06	54.62	0.0049072	0.0053504	0.0015045	1080.4	5.7483e-05	5.946e-05	1173.4	349.27	5.8012e-05	5.9327e-05	438.75	144.38	113.46	39.409	5.9379e-05	57.248	0.765	213.086	215.454	-88.257	13.962	79.638	-88.751	-83.402	174.332	162.075	-85.353	-79.602	-78.049	-72.390	255.516	-75.874	-8191	255	
29990.645	1	1	0	0	0.23581	0.087811	0.15837	0.18122	0.10073	0.11734	0.070776	0.21113	0.18948	0.096438	0.17581	0.053396	0.11935	0.13602	0.045307	0.13957	-3.7771	-4.7583	-4.3875	-4.3187	-4.9313	-3.9479	-4.7667	-4.9417	-4.0021	-4.8604	-4.5312	-4.1771	-4.9812	-4.1	-4.5229	-5.025	12.701	-85.952	133.448	226.477	91.735	19.349	222.951	140.124	-60.245	-71.529	153.669	-84.527	223.458	175.993	165.396	169.680	0.00069977	0.0013543	0.00031788	1124.1	3.3643e-06	1.9927e-05	1217.8	357.75	1.3482e-05	1.7971e-05	435.25	143.08	108.04	37.551	2.2606e-05	54.875	0.0050032	0.0054432	0.0015322	1087.5	5.8042e-05	6.1222e-05	1181.5	352.34	5.9341e-05	6.1024e-05	442.63	146.05	114.31	39.68	5.988e-05	57.712	-44.719	66.517	54.370	-88.215	-43.798	152.203	-88.767	-83.290	-74.790	88.642	-84.771	-79.749	-77.843	-72.917	-37.877	-75.750	-8191	255	
29990.740	1	1	0	0	0.092675	0.092949	0.15613	0.3021	0.19654	0.08921	0.11042	0.29152	0.12542	0.17977	0.18142	0.069984	0.34182	0.072714	0.1905	0.069426	-3.7229	-4.7375	-4.5625	-4.1125	-4.9812	-4.275	-4.5375	-5.1	-4.1271	-4.8021	-4.5729	-4.1521	-4.9042	-4.3417	-4.4187	-5.05	167.243	-2.343	-58.960	224.630	-97.783	-46.635	171.125	167.001	107.468	173.619	188.856	-43.569	224.631	16.700	250.691	-36.356	0.00088942	0.0026396	0.00064248	1122.2	1.7361e-05	8.5778e-06	1227.2	359.39	2.4114e-05	1.0673e-05	446.17	144.72	109.26	37.988	3.4484e-05	55.522	0.0050555	0.0055211	0.0015522	1091.5	5.9047e-05	6.1394e-05	1188	355.55	5.9716e-05	6.0914e-05	449.22	147.18	115.47	40.139	5.9633e-05	58.288	9.785	-36.185	78.643	-88.361	188.007	52.481	-89.085	-83.205	15.955	38.702	-85.275	-79.363	-77.689	-72.469	-98.625	-75.819	-8191	255	
29990.861	1	1	0	0	0.18584	0.023494	0.14099	0.11199	0.12119	0.11367	0.26146	0.25725	0.035568	0.15488	0.26065	0.090776	0.27453	0.21553	0.1924	0.20377	-3.6333	-4.6104	-4.7146	-4.2125	-4.8938	-4.2396	-4.45	-5.1479	-4.1375	-4.5896	-4.975	-4.1562	-4.9667	-4.4229	-4.3187	-5.0708	-20.850	116.539	-42.606	215.614	-55.185	-7.371	163.385	198.038	91.157	179.831	167.993	-65.149	-80.578	187.893	169.821	-72.421	0.00051492	0.00066639	0.00026327	1129.9	2.3129e-05	1.1228e-05	1239.6	367.3	1.6587e-05	5.2486e-06	450.72	147.11	110.23	38.614	1.1806e-05	56.66	0.005154	0.0055413	0.0015411	1099.8	5.8965e-05	6.1014e-05	1197	359.45	5.9213e-05	5.9452e-05	453.22	148.84	115.94	40.278	5.9126e-05	58.503	17.669	-42.279	66.323	-88.285	-25.405	57.399	-88.963	-83.449	43.886	-0.239	-84.424	-80.118	-77.640	-72.624	56.008	-75.108	-8191	255	
29990.934	1	1	0	0	0.19918	0.019438	0.13039	0.2865	0.18772	0.050294	0.24148	0.2016	0.098855	0.14927	0.12119	0.067785	0.12341	0.072149	0.28601	0.1136	-3.8125	-4.45	-4.7542	-4.1646	-4.8917	-4.5125	-4.3208	-5.1667	-4.0625	-4.5938	-5.0479	-4.1354	-4.8667	-4.6292	-4.0271	-5.175	159.657	-22.684	149.645	240.064	60.755	164.734	214.087	204.882	253.020	30.405	-7.178	16.543	229.952	165.509	170.800	169.763	0.00055219	0.00089946	0.00014523	1128	1.7564e-05	3.3954e-05	1226.9	360.55	3.7523e-06	1.3655e-05	441.12	143.22	107.76	37.521	1.6784e-05	55.427	0.0050578	0.0054813	0.0015149	1094.5	5.8512e-05	6.0511e-05	1188.3	353.43	5.9324e-05	5.9996e-05	443.58	145.86	114.1	39.578	5.9031e-05	57.437	-9.654	209.656	-74.100	-88.363	-17.688	-29.989	-88.914	-83.269	236.028	-80.154	-84.895	-79.577	-77.457	-72.450	3.146	-76.172	-8191	255	
29991.029	1	1	0	0	0.065037	0.057166	0.1314	0.10588	0.17683	0.051057	0.17214	0.19498	0.12448	0.048661	0.041702	0.2131	0.19953	0.18755	0.097352	0.15359	-3.8583	-4.4292	-4.9229	-4.2583	-4.5458	-4.6937	-4.1167	-5.0667	-4.3208	-4.2375	-4.9875	-4.1354	-4.8604	-4.9479	-3.9104	-4.9833	110.549	92.342	217.833	-37.561	237.228	90.592	241.810	192.294	82.474	59.708	147.569	131.920	63.169	-89.372	233.717	147.118	0.0003217	0.0011565	0.00026601	1118.5	6.8471e-06	1.3706e-05	1221.8	354.59	8.5901e-06	1.5242e-05	434.74	141.34	106.95	37.947	1.3809e-05	54.983	0.0050091	0.0053941	0.0015009	1082.2	5.777e-05	5.9387e-05	1178	351.08	5.9035e-05	5.9638e-05	442.37	145.2	113.66	39.745	5.9306e-05	57.722	66.379	-52.889	-15.021	-88.414	140.359	42.917	-88.914	-83.297	85.824	-1.336	-84.779	-79.972	-78.117	-72.659	92.115	-76.019	-8191	255	
29991.125	1	1	0	0	0.15309	0.095042	0.11374	0.2219	0.038202	0.066939	0.22607	0.10722	0.17441	0.34586	0.12995	0.2953	0.13416	0.10739	0.062571	0.091982	-4.1646	-4.1792	-4.8812	-4.15	-4.5146	-4.6646	-4.3708	-4.9396	-4.3708	-4.1125	-5.1125	-4.0229	-4.4771	-4.9875	-4.1083	-4.9479	149.440	195.430	38.703	-66.173	211.108	189.286	168.102	209.288	173.582	63.838	76.807	237.178	158.201	206.240	25.450	-28.330	0.00066944	0.00095115	0.000243	1121.4	2.1148e-05	3.794e-06	1224.4	359.62	2.5356e-05	1.9445e-05	438.22	143.77	109.07	38.097	1.86e-05	56.157	0.0050929	0.0054416	0.001511	1088	5.8083e-05	5.9872e-05	1182	353.88	5.8162e-05	5.897e-05	444.27	145.68	114.34	39.891	5.9309e-05	58.001	-15.023	80.687	107.053	-88.099	63.832	140.844	-88.891	-83.329	-73.820	14.716	-84.803	-79.845	-77.926	-72.771	24.528	-75.904	-8191	255	
29991.246	1	1	0	0	0.045826	0.16389	0.094224	0.24188	0.18937	0.065317	0.32636	0.1374	0.16662	0.16719	0.21255	0.25322	0.10558	0.027602	0.32323	0.16936	-4.3458	-3.8479	-4.9104	-4.2208	-4.4292	-4.8625	-4.2271	-4.7438	-4.5979	-4.0604	-5.0563	-4.3292	-4.3792	-4.8542	-4.0375	-4.9271	-90.566	51.084	-83.201	222.929	119.726	-36.836	136.069	253.362	-98.681	-59.253	174.663	182.638	219.764	235.228	148.561	177.865	0.00017066	0.00086589	0.00071098	1119.7	1.8401e-05	1.3643e-05	1236.8	364.37	2.2237e-05	8.0037e-06	446.46	144.02	109.78	38.586	9.9434e-06	56.525	0.0049791	0.0054545	0.001524	1094.4	5.8849e-05	6.0287e-05	1192	357.56	5.9411e-05	6.0533e-05	450.86	147.16	115.58	40.594	6.0728e-05	59.07	-24.959	145.221	-10.169	-88.335	52.133	117.920	-88.750	-83.426	-28.459	35.695	-84.771	-79.499	-77.891	-72.434	114.566	-76.132	-8191	255	
29991.342	1	1	0	0	0.15563	0.12603	0.13365	0.22788	0.11347	0.19688	0.10887	0.18437	0.14768	0.092299	0.045721	0.073864	0.11781	0.089969	0.26372	0.05387	-4.4583	-4.0813	-5.0563	-4.5	-4.0458	-4.8729	-4.2792	-4.7542	-4.7562	-4.0271	-4.8646	-4.5833	-4.25	-5.0021	-4.2271	-4.5375	-49.080	107.288	-29.597	255.088	14.758	220.958	193.627	234.614	121.302	245.248	201.336	-87.534	165.106	237.464	189.101	-64.815	0.0011872	0.0015587	0.00026941	1127.7	2.3211e-05	3.4603e-06	1232.4	364.36	6.5223e-06	1.615e-05	443.22	145.26	108.76	38.537	1.4837e-05	56.432	0.0050984	0.0055109	0.0015365	1095.9	5.8907e-05	6.0047e-05	1195.1	358.09	5.9073e-05	5.9252e-05	450.97	147.3	114.77	40.268	5.9666e-05	58.465	7.311	32.428	84.959	-88.396	41.207	153.503	-88.913	-83.528	21.442	-3.111	-84.970	-79.240	-77.930	-72.964	-13.066	-75.880	-8191	255	
29991.438	1	1	0	0	0.10636	0.15671	0.11369	0.13996	0.075138	0.13299	0.14156	0.20556	0.24205	0.20801	0.23121	0.34659	0.17435	0.25212	0.11547	0.19628	-4.6625	-3.9667	-4.6396	-4.5771	-4.0917	-4.8708	-4.3729	-4.5417	-4.9104	-4.0333	-4.8146	-4.5708	-4.2167	-5.0625	-4.0521	-4.4125	-89.385	141.645	103.332	249.635	81.595	-11.385	155.704	165.996	95.967	113.390	220.832	211.524	-64.606	-97.955	-25.849	-91.607	0.00062006	0.0013685	0.00040147	1117.7	1.2425e-05	1.152e-05	1217.6	357.68	3.4374e-05	2.4545e-05	435.68	140.67	105.9	37.502	1.5757e-05	54.572	0.0049729	0.0054734	0.0015066	1083.8	5.7926e-05	5.929e-05	1178	349.77	5.779e-05	5.924e-05	437.08	143.09	111.81	39.342	5.8161e-05	56.786	17.780	-16.953	225.544	-88.306	83.975	-2.010	-88.627	-83.223	26.206	-49.761	-85.172	-79.337	-77.759	-72.644	174.989	-75.488	-8191	255	
29991.533	1	1	0	0	0.10778	0.071861	0.25483	0.18025	0.15853	0.16451	0.2117	0.10432	0.1658	0.058345	0.32853	0.17443	0.2136	0.087045	0.23897	0.041352	-4.6792	-3.8646	-4.7354	-4.7271	-4.1479	-4.95	-4.4646	-4.3396	-4.9292	-4.1	-4.7667	-4.7562	-4.1979	-4.9458	-4.1792	-4.5125	-62.649	244.530	-98.523	232.824	-64.054	209.609	122.413	234.546	52.972	178.836	166.846	201.511	187.278	163.267	60.375	-100.091	0.0009703	0.001148	0.0005023	1101	7.8388e-06	2.2458e-05	1195.9	352.88	1.2488e-05	9.0807e-06	427.55	139.24	106.09	37.277	7.6659e-06	54.151	0.0048391	0.0053242	0.0014648	1069.1	5.647e-05	5.7559e-05	1160.9	345.48	5.6597e-05	5.8311e-05	434.15	141.65	111.44	39.18	5.7661e-05	56.578	-40.648	-45.546	9.115	-88.524	135.849	54.893	-88.769	-83.318	59.994	30.792	-84.674	-79.374	-77.544	-72.333	-2.063	-75.899	-8191	255	
29991.631	1	1	0	0	0.20838	0.11625	0.061229	0.15055	0.20357	0.25289	0.2238	0.12753	0.048652	0.2474	0.19333	0.20785	0.17472	0.038858	0.026137	0.17542	-4.7979	-4.0542	-4.5708	-4.8938	-4.0958	-4.9271	-4.8333	-4.2083	-4.9583	-4.2229	-4.5687	-5.0479	-3.9667	-4.8146	-4.5771	-4.1188	176.114	35.975	-88.224	194.503	-66.378	-37.737	-93.518	200.127	32.045	145.369	223.914	-94.725	185.861	-92.214	227.952	196.850	0.00024961	0.00043622	0.00019552	1098.2	7.5585e-06	5.4858e-06	1209.9	353.06	7.5535e-06	1.0593e-05	436.5	138.79	105.14	37.734	1.0604e-05	55.118	0.0048646	0.0053348	0.0014714	1065.6	5.6755e-05	5.7931e-05	1165.2	346.76	5.7136e-05	5.9084e-05	437.59	142.01	111.58	39.449	5.8177e-05	57.172	247.000	183.211	-56.984	-88.325	105.534	136.294	-88.847	-83.565	-8.974	-68.519	-84.818	-79.286	-77.742	-73.084	205.974	-75.357	-8191	255	
29991.727	1	1	0	0	0.086219	0.17789	0.078868	0.12945	0.036795	0.11552	0.26112	0.082501	0.084992	0.14171	0.054437	0.24841	0.085586	0.21467	0.12493	0.26578	-4.7375	-4.3187	-4.4313	-5.0479	-3.9	-4.8021	-4.8354	-4.1438	-4.9292	-4.2208	-4.5312	-5.0167	-4.1729	-4.5854	-4.5792	-4.0917	-89.292	83.011	92.323	232.791	56.633	36.144	171.649	186.972	-57.700	257.170	-88.804	178.781	134.739	149.408	-58.402	164.537	0.00076115	0.00106	4.311e-05	1093.5	1.4184e-05	1.2786e-05	1213.8	354.74	7.3872e-06	2.0434e-05	435.79	141.33	107.5	38.206	2.5215e-05	55.562	0.0049381	0.0054016	0.0015016	1069.5	5.7341e-05	5.8545e-05	1171.8	348.32	5.7043e-05	5.8671e-05	441.38	144.02	112.84	39.697	5.7446e-05	57.812	12.923	74.788	167.383	-88.179	122.054	13.823	-88.800	-83.851	65.634	150.471	-84.816	-79.391	-77.682	-72.608	58.134	-75.768	-8191	255	
29991.846	1	1	0	0	0.061582	0.1919	0.15087	0.27924	0.10601	0.20341	0.20941	0.074542	0.16843	0.15321	0.16627	0.091437	0.15188	0.20612	0.16599	0.18284	-4.6396	-4.4146	-4.2688	-5.0542	-3.8979	-4.6	-4.8958	-4.15	-5.0125	-4.4688	-4.2354	-5.0188	-4.0083	-4.5312	-4.7	-4.1958	197.517	-25.764	64.376	-72.418	189.266	127.900	-86.639	-96.056	224.706	200.722	212.812	-76.053	198.964	-81.419	234.997	207.113	0.00078657	0.0014867	0.00034022	1103.5	6.8363e-06	1.6716e-05	1218	356.11	2.6976e-05	4.4106e-06	439.71	142.91	107.13	37.868	1.6792e-05	55.926	0.0048292	0.0052807	0.001462	1075.1	5.646e-05	5.7691e-05	1175.9	350.69	5.6446e-05	5.7543e-05	443.13	144.59	112.28	39.342	5.5494e-05	57.546	50.754	-72.896	51.133	-88.120	233.853	78.418	-88.388	-83.797	84.803	190.827	-84.815	-79.357	-77.936	-72.725	109.508	-75.676	-8191	255	
29991.941	1	1	0	0	0.22229	0.12031	0.082782	0.26864	0.062544	0.21628	0.33281	0.19766	0.15454	0.02777	0.056106	0.14987	0.097766	0.1104	0.091558	0.065042	-4.6875	-4.3833	-4.0687	-5.0646	-4.1458	-4.4458	-5.0771	-4.0333	-4.8167	-4.6292	-4.0896	-5.0417	-4.4604	-4.3229	-5.0646	-4.2562	67.102	183.057	109.964	-90.628	197.383	-27.365	227.523	239.281	65.279	10.032	-5.713	190.015	-15.054	-41.647	21.805	-23.993	0.00041476	0.0016227	0.00023746	1100.5	2.437e-05	2.7469e-05	1211.3	351.89	7.1534e-06	3.3929e-06	429.74	139.78	104.79	37.231	4.6684e-06	54.716	0.004713	0.0051357	0.0014094	1068.3	5.513e-05	5.614e-05	1167.3	345.45	5.4984e-05	5.6021e-05	434.17	141.29	110.57	38.86	5.5601e-05	56.42	-25.044	204.867	80.132	-88.298	154.176	67.406	-88.477	-83.273	21.348	194.934	-84.878	-79.584	-78.247	-72.370	44.479	-76.106	-8191	255	
29992.037	1	1	0	0	0.11425	0.048264	0.10712	0.17608	0.25765	0.12564	0.17335	0.15569	0.089539	0.14497	0.21305	0.16856	0.23383	0.22229	0.1375	0.15382	-4.5208	-4.6375	-4.1208	-5.0542	-4.2229	-4.1896	-5.0146	-4.1271	-4.5813	-4.6146	-3.9854	-4.9125	-4.45	-4.2375	-4.8812	-4.2458	254.482	135.598	-86.138	228.627	153.540	34.944	229.899	156.062	-19.819	-31.870	-95.029	-47.402	-88.155	252.090	25.978	187.477	9.1931e-05	0.0012591	0.00040004	1101.5	5.6685e-06	2.481e-05	1203.9	351.71	2.4391e-05	1.7082e-05	432.42	139.35	104.65	36.935	2.2833e-05	54.616	0.0047035	0.0051388	0.0014213	1064.3	5.5288e-05	5.5972e-05	1161	345.72	5.5133e-05	5.6627e-05	434.87	141.52	110.68	38.928	5.6119e-05	56.915	143.174	-86.462	-36.169	-87.894	212.279	151.750	-88.791	-83.500	-39.846	40.250	-84.645	-79.680	-77.936	-72.900	58.681	-75.076	-8191	255	
29992.135	1	1	0	0	0.15168	0.18733	0.076629	0.077611	0.28606	0.068123	0.14488	0.083511	0.10804	0.035367	0.05675	0.17683	0.18344	0.1523	0.094593	0.16851	-4.1521	-4.7063	-3.9188	-4.9563	-4.3833	-4.1062	-5.1875	-4.1917	-4.2937	-4.8208	-4.2063	-4.9354	-4.5729	-4.1	-5.025	-4.2063	13.977	48.338	-34.055	199.096	-93.696	166.397	-58.184	249.651	-13.118	149.392	-93.741	212.923	185.682	-39.683	242.209	145.722	0.00042114	0.0021733	0.00023892	1101	1.957e-05	3.2323e-05	1210.1	355	2.0369e-05	7.8784e-06	438.57	140.81	106.99	37.959	2.2963e-05	55.787	0.0047489	0.0051323	0.0014418	1068.5	5.5685e-05	5.698e-05	1170.2	348.06	5.5118e-05	5.6994e-05	439.65	143.61	112.45	39.349	5.6234e-05	57.631	-54.791	12.597	156.578	-88.442	-28.666	-33.934	-88.581	-83.115	90.568	-19.967	-84.965	-79.578	-77.977	-72.965	142.707	-76.217	-8191	255	
29992.230	1	1	0	0	0.20287	0.14932	0.053345	0.29606	0.18483	0.098176	0.15801	0.22889	0.21071	0.12466	0.019366	0.068059	0.090547	0.096203	0.29296	0.29012	-4.125	-5.0125	-4.1604	-4.8583	-4.6292	-4	-5.1146	-4.2833	-4.3542	-4.95	-4.1875	-4.7292	-4.8208	-4.1354	-5.1479	-4.4688	79.881	235.742	120.500	-74.028	-53.129	144.998	156.128	206.376	7.033	123.314	236.351	-23.581	-49.001	-85.324	208.122	184.835	0.00025734	0.0013955	0.0002935	1112	1.961e-05	7.1388e-06	1219	357.44	2.5031e-05	5.1613e-06	441.16	143.47	109.03	38.426	6.7297e-06	56.691	0.0047589	0.0051509	0.0014431	1074.5	5.5548e-05	5.6476e-05	1177.8	350.58	5.4962e-05	5.7101e-05	445.57	145.32	113.69	39.978	5.6481e-05	58.355	120.961	-22.791	-36.594	-88.180	-22.409	140.972	-88.742	-83.520	-91.253	233.395	-85.113	-79.587	-77.340	-73.115	-35.719	-75.706	-8191	255	
29992.326	1	1	0	0	0.057549	0.23666	0.24827	0.26819	0.11448	0.14792	0.11324	0.026289	0.1444	0.061914	0.080132	0.098849	0.20847	0.15254	0.079264	0.21792	-3.9188	-4.9229	-4.1021	-4.8667	-4.9062	-4.1104	-5.0458	-4.5083	-4.3	-5.1917	-4.2646	-4.7479	-5.0875	-4.0104	-4.9042	-4.6458	70.575	222.843	91.226	240.313	99.935	252.398	235.205	-58.927	65.920	0.530	258.232	210.134	223.881	29.384	61.444	156.289	7.5565e-05	0.00026415	0.00036922	1118.8	1.8781e-05	7.0223e-06	1233.1	358.41	6.3543e-06	1.336e-05	437.6	143.16	106.77	37.876	2.563e-05	56.181	0.0047756	0.0051551	0.0014675	1082.5	5.5867e-05	5.7292e-05	1187.8	353.15	5.5822e-05	5.6979e-05	443.7	145.1	112.61	39.808	5.6378e-05	57.848	164.773	-8.948	215.314	-88.499	6.287	89.185	-88.692	-83.266	166.844	150.029	-84.872	-79.453	-78.140	-72.638	-91.993	-75.486	-8191	255	
29992.422	1	1	0	0	0.18386	0.25539	0.18025	0.18644	0.21536	0.13576	0.2902	0.29158	0.23909	0.11987	0.15394	0.029085	0.19298	0.19664	0.083922	0.15041	-3.9708	-5.0229	-4.0792	-4.7458	-4.9479	-4.1438	-5.1333	-4.7333	-4.0271	-5.0604	-4.3	-4.4875	-5.0958	-4.2312	-4.775	-4.7396	225.869	54.722	234.758	-100.832	22.044	211.744	199.799	176.241	19.561	64.207	-21.712	10.671	215.838	-100.225	-13.745	242.973	0.0008739	0.00090467	0.00041586	1102.9	3.039e-06	2.1066e-05	1208.7	353.4	2.1641e-05	1.3399e-05	429.38	139.19	106.03	37.45	4.1245e-06	55.145	0.0047409	0.005134	0.0014481	1069.1	5.5402e-05	5.6966e-05	1167	347.06	5.5996e-05	5.6505e-05	433.57	141.95	111.12	39.241	5.5441e-05	56.885	31.831	52.280	110.129	-88.447	30.341	197.639	-88.797	-83.118	103.148	29.631	-84.827	-80.140	-77.646	-72.641	-86.174	-75.702	-8191	255	
29992.543	1	1	0	0	0.054941	0.1541	0.20127	0.28216	0.11833	0.17901	0.34084	0.10472	0.015927	0.11575	0.16535	0.34064	0.059911	0.10527	0.10456	0.06497	-3.9875	-4.9	-4.3333	-4.5292	-4.9708	-3.875	-4.9792	-4.9521	-4.0917	-4.9479	-4.5813	-4.2583	-4.9313	-4.2271	-4.6208	-4.9125	89.488	224.533	79.598	231.934	158.057	98.451	235.763	-51.808	-50.037	7.431	231.391	213.339	202.659	51.231	187.581	139.817	0.00074859	0.0016637	0.00047624	1104.4	1.7463e-05	5.9894e-06	1210.9	351.61	3.5106e-05	1.1189e-05	431.15	139.47	107.63	37.687	8.4041e-06	55.619	0.0047383	0.0051626	0.0014318	1068	5.4893e-05	5.6474e-05	1164.9	346.95	5.5387e-05	5.6112e-05	434.23	141.64	111.58	39.402	5.5583e-05	57.158	253.741	-100.856	-18.182	-88.072	108.929	-75.232	-88.819	-83.306	37.354	49.045	-85.057	-79.456	-77.915	-72.698	111.465	-75.721	-8191	255	
29992.637	1	1	0	0	0.070941	0.042823	0.207	0.27791	0.24943	0.16267	0.37026	0.11981	0.20393	0.14887	0.068546	0.16886	0.30379	0.097449	0.16713	0.06437	-3.6583	-4.9979	-4.2812	-4.4563	-4.9792	-4.1521	-4.6667	-5.1521	-3.9813	-4.7833	-4.6	-4.3375	-5.1562	-4.0687	-4.2625	-5.0083	192.830	106.648	158.890	244.584	110.660	-27.072	182.279	243.752	-66.517	71.328	124.744	184.566	-25.464	-100.889	138.985	137.079	0.0006808	0.00047926	0.00020537	1107.3	3.3185e-05	8.1221e-06	1219.1	355.86	2.8468e-05	5.4114e-06	435.47	141.01	107.09	38.14	1.6396e-05	55.493	0.0047179	0.00508	0.0014337	1071.7	5.4332e-05	5.6155e-05	1167.3	347.78	5.4443e-05	5.495e-05	437.06	142.46	111.73	39.436	5.3697e-05	56.972	-12.523	79.845	104.481	-88.377	-47.048	-32.650	-88.795	-83.185	179.382	49.407	-84.287	-79.484	-77.585	-72.548	70.677	-75.962	-8191	255	
29992.734	1	1	0	0	0.10089	0.057169	0.084406	0.17604	0.11845	0.13977	0.13789	0.16699	0.13762	0.2515	0.09854	0.094233	0.16184	0.12283	0.11683	0.1826	-3.9667	-4.9375	-4.6375	-4.3104	-4.9917	-4.275	-4.4833	-4.9187	-3.9917	-4.7729	-4.9125	-4.1604	-5.2458	-4.5146	-4.2521	-5.0437	96.501	173.212	198.931	183.796	-8.357	46.849	257.126	-101.478	202.663	-41.913	229.275	80.197	-56.199	-70.127	-53.382	174.867	0.00047409	0.00096949	9.6731e-05	1112	1.7417e-05	3.3361e-06	1220.8	360.61	9.6891e-06	1.5804e-05	439.67	142.66	107.8	37.948	3.7964e-05	56.378	0.0045305	0.0049497	0.0013815	1074	5.281e-05	5.35e-05	1174.9	350.03	5.2647e-05	5.2935e-05	440.26	143.57	112.31	39.432	5.2941e-05	57.66	-35.527	57.229	-9.514	-88.243	11.197	110.960	-89.035	-83.707	69.713	55.804	-84.655	-79.100	-77.665	-72.471	116.722	-75.711	-8191	255	
29992.830	1	1	0	0	0.20055	0.051268	0.12954	0.24434	0.43565	0.10922	0.35047	0.2123	0.017552	0.063575	0.11944	0.27436	0.098365	0.078491	0.19702	0.10107	-3.8208	-4.6438	-4.8688	-4.175	-5.0437	-4.4625	-4.3583	-5.1354	-4.0625	-4.5	-4.8063	-4.0896	-4.9854	-4.6208	-4.1458	-5.0687	166.243	3.694	168.897	-76.715	213.142	194.501	205.286	183.584	161.773	111.401	-61.987	138.017	111.573	-40.387	188.152	116.941	0.00060939	0.0010509	0.00017362	1118.7	1.549e-05	2.0632e-05	1226.3	357.38	2.8561e-05	4.1268e-06	437.23	142.47	107.23	37.851	1.4241e-05	55.689	0.0046058	0.0049073	0.0013757	1078.4	5.2797e-05	5.4481e-05	1178	349.05	5.2694e-05	5.3074e-05	438.11	142.93	111.05	39.148	5.2869e-05	56.942	-32.120	-15.913	137.097	-88.334	70.086	43.913	-88.777	-83.034	-63.789	-60.395	-85.077	-79.860	-77.695	-72.626	12.399	-75.589	-8191	255	
29992.926	1	1	0	0	0.19549	0.30025	0.2559	0.095761	0.13243	0.16632	0.099348	0.12903	0.16094	0.17798	0.2223	0.17018	0.12451	0.055747	0.062282	0.2363	-3.8542	-4.4938	-4.9229	-4.1167	-4.9146	-4.5979	-4.2542	-4.9917	-3.9917	-4.5625	-4.9	-4.15	-4.8271	-4.8354	-3.9354	-5.1583	95.238	91.231	146.091	-40.501	-21.630	96.040	16.655	32.383	117.429	238.603	-100.836	45.073	252.188	-1.047	32.239	252.073	0.0007039	0.0003178	0.00016433	1103.5	1.6645e-06	1.7569e-05	1202.3	352.08	3.8297e-06	1.085e-05	432.62	139.91	105.89	37.422	9.9086e-06	54.538	0.0045109	0.0048354	0.0013565	1062.3	5.2031e-05	5.3522e-05	1159.1	342.81	5.2723e-05	5.3208e-05	430.88	140.66	109.57	38.681	5.1954e-05	56.102	11.727	77.979	-2.576	-88.008	-56.206	40.486	-88.898	-83.340	223.013	113.974	-85.089	-79.517	-77.711	-72.439	53.764	-75.700	-8191	255	
29993.021	1	1	0	0	0.15072	0.04144	0.14761	0.16098	0.12395	0.17674	0.22905	0.17818	0.23727	0.12784	0.27713	0.057866	0.20994	0.18275	0.17047	0.15493	-4.0729	-4.3646	-5.0125	-4.075	-4.6271	-4.7604	-4.2312	-5.1271	-4.3458	-4.2521	-5.1917	-4.275	-4.7021	-4.7688	-4.0958	-4.9854	-5.883	140.389	-17.244	189.076	-28.484	-42.992	203.005	-83.338	206.968	-9.344	164.268	117.097	132.628	144.337	15.592	-90.645	0.00018446	0.0008823	0.00050543	1103.2	1.7003e-05	1.2481e-06	1212.6	349.79	4.7228e-06	1.0141e-05	437.91	140.5	106.7	37.441	1.622e-05	54.997	0.0043945	0.0047735	0.0013218	1060.1	5.0793e-05	5.1873e-05	1163	342.11	5.1629e-05	5.2371e-05	435.15	142.17	110.61	38.781	5.3164e-05	56.538	-0.400	-67.089	33.985	-88.136	-10.014	108.545	-88.591	-83.403	-38.357	-91.403	-84.884	-79.706	-77.640	-72.236	29.415	-75.666	-8191	255	
#DATA ENDS
