BOXY.EXE: ISS Imagent and Oximeter Data Acquisition Program Version 0.80
Ascii Record File

#ACQ INFORMATION
2  Detector Channels 
16  External MUX Channels 
1  Auxiliary Channels 
5000  Waveform (CCF) Frequency (Hz)
1  Waveforms Skipped 
30  Waveforms Averaged 
1  Cycles Averaged 
16  Acquisitions per Waveform 
10.0806  Updata Rate (Hz) 

#FILE INFORMATION
TRUE -- External MUX Channel results are PARSED.
FALSE -- AC DC and Phase are NOT grouped.
TRUE -- Companion Program Settings File CREATED.
FALSE -- AC data not excluded
FALSE -- DC data not excluded
FALSE -- Phase data not excluded
FALSE -- Auxillary Chn. data not excluded
Tab delimiters

#CALIBRATION STATE
TRUE -- Waveform Calibration Values APPLIED.


#AUX CALIBRATION VALUES
Val Type	aux-1	

Term	1.0000e+00	
Factor	0.0000e+00	


#WF CALIBRATION VALUES
A = Detector Channel
Val Type	A-AC1	A-AC2	A-AC3	A-AC4	A-AC5	A-AC6	A-AC7	A-AC8	A-AC9	A-AC10	A-AC11	A-AC12	A-AC13	A-AC14	A-AC15	A-AC16	A-DC1	A-DC2	A-DC3	A-DC4	A-DC5	A-DC6	A-DC7	A-DC8	A-DC9	A-DC10	A-DC11	A-DC12	A-DC13	A-DC14	A-DC15	A-DC16	A-Ph1	A-Ph2	A-Ph3	A-Ph4	A-Ph5	A-Ph6	A-Ph7	A-Ph8	A-Ph9	A-Ph10	A-Ph11	A-Ph12	A-Ph13	A-Ph14	A-Ph15	A-Ph16	

Term	0.00000e+00	0.00000e+00	0.00000e+00	0.00000e+00	0.00000e+00	0.00000e+00	0.00000e+00	0.00000e+00	0.00000e+00	0.00000e+00	0.00000e+00	0.00000e+00	0.00000e+00	0.00000e+00	0.00000e+00	0.00000e+00	0.00000e+00	0.00000e+00	0.00000e+00	0.00000e+00	0.00000e+00	0.00000e+00	0.00000e+00	0.00000e+00	0.00000e+00	0.00000e+00	0.00000e+00	0.00000e+00	0.00000e+00	0.00000e+00	0.00000e+00	0.00000e+00	0.00000e+00	0.00000e+00	0.00000e+00	0.00000e+00	0.00000e+00	0.00000e+00	0.00000e+00	0.00000e+00	0.00000e+00	0.00000e+00	0.00000e+00	0.00000e+00	0.00000e+00	0.00000e+00	0.00000e+00	0.00000e+00	
Factor	1.00000e+00	1.00000e+00	1.00000e+00	1.00000e+00	1.00000e+00	1.00000e+00	1.00000e+00	1.00000e+00	1.00000e+00	1.00000e+00	1.00000e+00	1.00000e+00	1.00000e+00	1.00000e+00	1.00000e+00	1.00000e+00	1.00000e+00	1.00000e+00	1.00000e+00	1.00000e+00	1.00000e+00	1.00000e+00	1.00000e+00	1.00000e+00	1.00000e+00	1.00000e+00	1.00000e+00	1.00000e+00	1.00000e+00	1.00000e+00	1.00000e+00	1.00000e+00	X	X	X	X	X	X	X	X	X	X	X	X	X	X	X	X	

B = Detector Channel
Val Type	B-AC1	B-AC2	B-AC3	B-AC4	B-AC5	B-AC6	B-AC7	B-AC8	B-AC9	B-AC10	B-AC11	B-AC12	B-AC13	B-AC14	B-AC15	B-AC16	B-DC1	B-DC2	B-DC3	B-DC4	B-DC5	B-DC6	B-DC7	B-DC8	B-DC9	B-DC10	B-DC11	B-DC12	B-DC13	B-DC14	B-DC15	B-DC16	B-Ph1	B-Ph2	B-Ph3	B-Ph4	B-Ph5	B-Ph6	B-Ph7	B-Ph8	B-Ph9	B-Ph10	B-Ph11	B-Ph12	B-Ph13	B-Ph14	B-Ph15	B-Ph16	

Term	0.00000e+00	0.00000e+00	0.00000e+00	0.00000e+00	0.00000e+00	0.00000e+00	0.00000e+00	0.00000e+00	0.00000e+00	0.00000e+00	0.00000e+00	0.00000e+00	0.00000e+00	0.00000e+00	0.00000e+00	0.00000e+00	0.00000e+00	0.00000e+00	0.00000e+00	0.00000e+00	0.00000e+00	0.00000e+00	0.00000e+00	0.00000e+00	0.00000e+00	0.00000e+00	0.00000e+00	0.00000e+00	0.00000e+00	0.00000e+00	0.00000e+00	0.00000e+00	-1.19857e+02	-1.24507e+02	-1.35452e+02	-1.83472e+02	-6.00384e+01	-4.75453e+01	-1.57982e+02	-1.62015e+02	-6.06145e+01	-8.17819e+01	-1.70621e+02	-1.71027e+02	-1.79027e+02	-1.76789e+02	-5.07464e+01	-1.49691e+02	
Factor	1.74378e-05	1.02985e-04	3.40426e-05	1.56174e-01	9.33459e-07	1.34348e-06	1.70957e-01	5.49417e-02	8.43037e-07	1.23105e-06	9.08538e-02	2.97122e-02	2.77676e-02	9.37205e-03	9.74277e-07	1.31938e-02	1.29289e-06	1.35560e-06	3.76670e-07	7.60921e-02	1.47965e-08	1.48193e-08	7.83401e-02	2.67541e-02	1.47987e-08	1.48410e-08	4.23708e-02	1.39488e-02	1.35316e-02	4.53434e-03	1.47790e-08	6.16309e-03	X	X	X	X	X	X	X	X	X	X	X	X	X	X	X	X	



#DISTANCE SETTINGS
A = Detector Channel
A-1	A-2	A-3	A-4	A-5	A-6	A-7	A-8	A-9	A-10	A-11	A-12	A-13	A-14	A-15	A-16	

2.5000e+00	3.0000e+00	2.5000e+00	3.0000e+00	2.0000e+00	3.0000e+00	1.5000e+00	3.0000e+00	3.0000e+00	3.0000e+00	3.0000e+00	3.0000e+00	3.0000e+00	3.0000e+00	1.5000e+00	3.0000e+00	

B = Detector Channel
B-1	B-2	B-3	B-4	B-5	B-6	B-7	B-8	B-9	B-10	B-11	B-12	B-13	B-14	B-15	B-16	

1.0000e+01	1.0000e+01	1.0000e+01	1.4400e+00	1.0000e+01	1.0000e+01	1.5100e+00	1.9400e+00	1.0000e+01	1.0000e+01	1.9900e+00	2.4900e+00	2.4100e+00	2.9000e+00	1.0000e+01	2.9800e+00	




#DATA BEGINS
time	group	step	mark	flag	A-AC1	A-AC2	A-AC3	A-AC4	A-AC5	A-AC6	A-AC7	A-AC8	A-AC9	A-AC10	A-AC11	A-AC12	A-AC13	A-AC14	A-AC15	A-AC16	A-DC1	A-DC2	A-DC3	A-DC4	A-DC5	A-DC6	A-DC7	A-DC8	A-DC9	A-DC10	A-DC11	A-DC12	A-DC13	A-DC14	A-DC15	A-DC16	A-Ph1	A-Ph2	A-Ph3	A-Ph4	A-Ph5	A-Ph6	A-Ph7	A-Ph8	A-Ph9	A-Ph10	A-Ph11	A-Ph12	A-Ph13	A-Ph14	A-Ph15	A-Ph16	B-AC1	B-AC2	B-AC3	B-AC4	B-AC5	B-AC6	B-AC7	B-AC8	B-AC9	B-AC10	B-AC11	B-AC12	B-AC13	B-AC14	B-AC15	B-AC16	B-DC1	B-DC2	B-DC3	B-DC4	B-DC5	B-DC6	B-DC7	B-DC8	B-DC9	B-DC10	B-DC11	B-DC12	B-DC13	B-DC14	B-DC15	B-DC16	B-Ph1	B-Ph2	B-Ph3	B-Ph4	B-Ph5	B-Ph6	B-Ph7	B-Ph8	B-Ph9	B-Ph10	B-Ph11	B-Ph12	B-Ph13	B-Ph14	B-Ph15	B-Ph16	aux-1	digaux	

36078.793	1	1	0	768	0.11907	0.28108	0.14111	0.26309	0.23348	0.023813	0.2874	0.0553	0.039758	0.26938	0.096341	0.16021	0.16158	0.075338	0.1072	0.076661	-2.7125	-3.3083	-2.6833	-3.35	-3.2062	-2.7604	-3.7646	-3.1646	-3.0333	-3.5542	-3.0417	-3.3458	-3.4479	-2.8021	-3.5771	-3.1021	176.774	322.175	174.327	283.686	179.606	32.250	331.279	290.453	219.766	200.452	37.612	273.474	237.809	123.812	353.268	320.344	0.00010093	0.00024338	6.8208e-05	695.75	1.4756e-06	2.8989e-06	750.01	155.68	2.4805e-06	2.9137e-06	196.46	53.507	42.116	12.153	1.345e-06	17.085	4.9362e-05	4.5605e-05	1.2446e-05	693.37	5.0268e-07	5.0305e-07	750.38	155.99	5.2652e-07	4.8725e-07	194.38	54.156	42.206	12.318	5.0633e-07	17.075	175.188	151.062	135.449	38.614	211.303	131.048	38.744	46.514	163.621	139.974	45.344	52.805	53.640	60.440	244.726	59.575	-8191	255	
36078.887	1	1	0	0	0.04434	0.2597	0.25509	0.26749	0.14873	0.12607	0.21219	0.032087	0.26852	0.17317	0.13313	0.20422	0.12492	0.048181	0.19652	0.21654	-2.5354	-3.4688	-2.9104	-3.5146	-3.3458	-2.6688	-3.8021	-3.3812	-3.1021	-3.6583	-2.9271	-3.4771	-3.7	-2.7188	-3.3563	-3.2396	200.277	211.081	268.793	48.027	254.480	162.745	84.715	334.892	204.168	92.654	313.665	120.676	321.806	325.863	181.150	91.666	0.00010387	0.00017595	4.7886e-05	693.93	2.2063e-06	1.3081e-06	751.1	155.25	9.9733e-07	9.1489e-07	196.4	53.868	42.314	12.223	2.2268e-06	16.895	5.1705e-05	4.4766e-05	1.2972e-05	692.85	5.102e-07	5.1781e-07	750.19	155.7	5.256e-07	5.0945e-07	194.3	54.323	42.234	12.334	4.9319e-07	17.027	146.060	88.998	79.043	38.734	203.001	214.272	38.901	46.399	176.030	243.405	45.675	52.598	53.574	60.927	221.259	59.556	-8191	255	
36078.984	1	1	0	0	0.13784	0.36752	0.19396	0.14829	0.04167	0.1374	0.35046	0.12541	0.26395	0.09399	0.012078	0.19413	0.24955	0.15521	0.15488	0.12695	-2.3583	-3.5542	-3.0729	-3.2125	-3.6167	-2.6958	-3.3375	-3.5083	-2.8688	-3.7542	-3.0854	-3.0583	-3.6	-2.9125	-3.3937	-3.4667	252.556	75.999	91.159	344.806	200.356	331.335	357.716	300.517	345.733	269.317	302.510	207.864	99.014	127.382	94.449	324.431	0.00010637	9.7443e-05	6.6563e-05	696.05	2.025e-06	1.6908e-06	750.77	155.43	7.9866e-07	1.9823e-06	194.93	54.333	42.197	12.203	1.3275e-06	16.873	5.0576e-05	4.5599e-05	1.2779e-05	692.52	5.0462e-07	4.9997e-07	750.33	155.89	5.1749e-07	4.8842e-07	193.41	54.272	42.113	12.305	4.8337e-07	17.02	173.954	107.422	165.197	38.874	178.318	155.984	38.671	46.794	173.888	140.806	45.239	52.540	53.587	60.500	245.261	60.079	-8191	255	
36079.078	1	1	0	0	0.1174	0.19772	0.21912	0.10496	0.25093	0.064916	0.20228	0.047274	0.042931	0.081967	0.17023	0.16953	0.032489	0.080292	0.13715	0.11991	-2.4792	-3.5187	-3.2083	-3.0708	-3.5521	-2.8104	-3.5062	-3.4688	-2.95	-3.6937	-3.1958	-2.9854	-3.4604	-2.825	-3.2521	-3.5875	347.445	224.116	151.436	340.721	74.523	79.241	345.990	260.740	229.732	66.237	267.926	267.320	335.978	36.534	162.108	201.444	0.00010843	0.00025254	8.2308e-05	694.11	1.5701e-06	1.787e-06	750.3	155.34	9.5554e-07	1.788e-06	194.61	54.029	41.974	12.192	2.6327e-06	16.987	4.9453e-05	4.5624e-05	1.2493e-05	691.28	5.0028e-07	4.9429e-07	750.44	155.33	5.2295e-07	4.9699e-07	193.54	54.275	42.091	12.306	5.0658e-07	17.086	167.660	157.478	131.980	38.731	192.798	215.597	38.926	46.391	260.711	185.245	45.652	52.969	53.448	59.859	224.563	59.449	-8191	255	
36079.176	1	1	0	0	0.08237	0.12446	0.12019	0.25184	0.11057	0.14089	0.078789	0.23208	0.12602	0.19619	0.14569	0.19672	0.24711	0.23148	0.26592	0.34033	-2.3792	-3.5625	-3.0896	-3.1917	-3.5917	-2.9896	-3.2458	-3.6437	-2.8146	-3.4208	-3.3417	-3.0062	-3.6417	-3.1354	-3.2521	-3.5708	277.865	331.847	112.249	58.210	283.534	102.879	271.218	76.673	255.600	258.981	333.362	378.904	94.511	99.094	303.515	35.496	0.00013179	0.00014235	5.7208e-05	695.49	2.478e-06	1.9591e-06	749.81	154.87	1.4652e-06	1.7193e-06	194.73	54.427	41.684	12.112	1.4935e-06	16.829	5.2529e-05	4.5737e-05	1.2738e-05	691.67	5.0934e-07	5.0062e-07	747.76	155.18	5.1826e-07	4.8799e-07	193.55	54.312	41.984	12.268	4.8561e-07	16.971	156.740	118.126	111.310	38.568	213.823	189.457	39.006	46.472	176.996	80.812	45.731	52.463	53.355	60.647	231.212	60.426	-8191	255	
36079.273	1	1	0	0	0.092919	0.0055171	0.14241	0.1488	0.14026	0.096795	0.21047	0.099708	0.2418	0.22071	0.14403	0.10609	0.074738	0.20975	0.088841	0.061284	-2.3937	-3.5021	-3.4271	-2.8563	-3.6333	-3.1604	-3.1417	-3.6208	-2.8063	-3.4583	-3.25	-2.8958	-3.5646	-3.1542	-2.8292	-3.6333	192.938	292.118	344.316	47.309	313.852	163.531	375.244	263.336	31.301	67.675	158.292	328.379	277.172	46.035	165.828	296.756	0.000131	0.00020788	6.2044e-05	688.83	2.3035e-06	2.0909e-06	749.8	154.14	8.189e-07	2.913e-06	194.82	53.525	41.946	12.095	1.8626e-06	16.785	5.066e-05	4.4111e-05	1.2334e-05	688.12	4.9445e-07	4.7876e-07	747.76	154.81	5.1305e-07	4.7346e-07	192.95	53.857	41.985	12.266	4.9223e-07	16.93	166.911	118.852	105.753	38.431	193.557	157.439	38.860	46.322	255.326	146.089	45.312	52.923	53.500	60.613	231.596	59.437	-8191	255	
36079.391	1	1	0	0	0.087334	0.15087	0.085363	0.11895	0.15054	0.079045	0.10489	0.082634	0.027732	0.11637	0.19859	0.10924	0.25847	0.0313	0.321	0.11522	-2.5375	-3.1521	-3.575	-2.9521	-3.7083	-3.1646	-3.1146	-3.7542	-2.9604	-3.1021	-3.4729	-2.95	-3.4813	-3.3021	-2.9083	-3.6688	87.168	319.830	235.336	305.771	310.538	207.222	343.680	43.135	32.777	84.610	153.666	166.378	239.804	241.742	265.264	297.510	0.00012201	8.4384e-05	9.0944e-05	689.55	1.4067e-06	9.0072e-07	748.31	155.36	1.5658e-06	2.025e-06	194.37	53.672	42.257	12.137	1.8323e-06	16.75	5.177e-05	4.6234e-05	1.2108e-05	689.27	5.1211e-07	4.8678e-07	748.07	155.36	5.1974e-07	4.9343e-07	193.53	54.145	42.172	12.248	5.3595e-07	16.946	161.410	211.792	89.751	38.810	169.441	288.446	38.626	46.229	225.585	107.555	45.824	53.119	53.177	60.719	217.208	59.789	-8191	255	
36079.488	1	1	0	0	0.11746	0.15375	0.15987	0.15727	0.24359	0.10627	0.086631	0.26189	0.27609	0.32882	0.028629	0.20035	0.060343	0.14626	0.15733	0.23238	-2.6458	-3.1458	-3.5458	-2.8396	-3.3375	-3.5125	-3.0312	-3.5458	-3.1479	-3.0417	-3.6104	-2.7854	-3.3542	-3.4292	-2.7729	-3.6063	212.488	193.815	250.086	62.850	154.393	240.663	78.627	299.949	56.587	161.581	116.849	165.575	70.979	383.364	132.022	337.093	0.00013514	0.00014268	8.3505e-05	691.68	1.2455e-06	2.102e-06	750.76	154.53	1.2067e-06	1.1232e-06	195.36	53.784	42.12	12.106	1.2857e-06	16.515	5.3599e-05	4.6271e-05	1.3014e-05	690.49	5.3835e-07	5.054e-07	747.54	155.15	5.1154e-07	5.1381e-07	193.23	53.98	42.014	12.207	5.1e-07	16.828	153.547	126.927	138.554	38.582	179.619	152.747	38.453	46.269	232.344	118.627	46.063	52.378	53.547	60.470	164.125	59.907	-8191	255	
36079.586	1	1	0	0	0.29866	0.22375	0.10862	0.056485	0.3057	0.28633	0.3644	0.10173	0.10998	0.30471	0.17926	0.25668	0.24725	0.12893	0.024673	0.1326	-2.6396	-3.0292	-3.6167	-2.8354	-3.2917	-3.3958	-2.9354	-3.6542	-3.1458	-3.1	-3.6104	-2.7729	-3.2667	-3.5563	-2.8125	-3.6125	79.094	191.631	72.690	246.753	115.445	203.338	351.230	121.354	358.037	231.210	318.427	286.240	178.636	329.792	59.709	312.126	0.00012054	0.00023489	7.7923e-05	689.23	1.2657e-06	2.6683e-06	748.76	154.87	9.4823e-07	1.86e-06	194.14	53.359	41.529	12.132	1.7782e-06	16.762	5.0059e-05	4.537e-05	1.2697e-05	687.51	5.122e-07	4.8648e-07	745.1	154.7	5.2615e-07	5.1879e-07	192.47	53.928	41.854	12.216	5.2906e-07	16.963	168.312	146.980	165.739	38.746	200.477	170.540	38.880	46.055	221.261	170.673	45.862	52.829	53.439	60.267	176.657	59.915	-8191	255	
36079.680	1	1	0	0	0.067882	0.18681	0.048455	0.14554	0.23379	0.15963	0.44302	0.22485	0.053688	0.19209	0.094546	0.087603	0.2011	0.14065	0.10791	0.16769	-2.8667	-2.9792	-3.7042	-2.9958	-3.2417	-3.5792	-2.8229	-3.5125	-3.1021	-2.6604	-3.5938	-3.1771	-3.2292	-3.5187	-2.9062	-3.5271	310.294	296.412	188.827	87.690	284.397	34.331	319.112	376.372	307.660	147.444	302.082	357.818	241.179	348.893	123.541	361.481	0.00010098	0.00016153	8.2269e-05	691.42	2.2288e-06	1.6545e-06	751.55	154.37	1.5032e-06	1.3188e-06	194	53.609	41.99	12.113	1.4451e-06	16.67	5.2362e-05	4.9745e-05	1.2793e-05	689.9	5.4735e-07	5.0525e-07	747.39	154.56	5.5094e-07	5.3106e-07	193.47	53.956	42.053	12.208	5.4498e-07	16.869	165.880	134.119	125.292	38.761	191.755	150.306	38.921	46.448	229.277	239.510	45.493	52.475	53.095	60.612	243.593	59.872	-8191	255	
36079.777	1	1	0	0	0.15561	0.28167	0.12279	0.016392	0.14165	0.10792	0.22414	0.23251	0.43048	0.13585	0.080719	0.2093	0.14293	0.18444	0.046573	0.071315	-3.0396	-2.7667	-3.4917	-3.2271	-3.1562	-3.7125	-2.9542	-3.4958	-3.3708	-2.9062	-3.6354	-3.0667	-2.9833	-3.6312	-2.8896	-3.25	346.559	30.007	116.239	102.173	288.873	43.885	312.153	218.570	261.861	301.300	333.011	376.111	278.158	346.082	312.881	341.196	0.0001456	0.00029451	7.1251e-05	695.79	3.0374e-06	5.3674e-07	749.01	153.79	1.7053e-06	2.3833e-06	193.95	53.237	41.458	12.064	5.0314e-07	16.777	5.289e-05	4.8214e-05	1.3329e-05	690.36	5.6997e-07	5.2624e-07	745.66	154.62	5.2544e-07	5.2145e-07	192.44	53.842	41.77	12.192	5.1911e-07	16.886	157.264	98.929	69.237	38.809	201.124	191.657	38.931	46.023	187.390	125.848	46.058	52.705	53.320	60.576	144.016	59.632	-8191	255	
36079.871	1	1	0	0	0.081259	0.072452	0.12188	0.15751	0.11763	0.12139	0.11606	0.29581	0.17674	0.27652	0.32301	0.18339	0.16235	0.099508	0.06834	0.2114	-3.0021	-2.7583	-3.5271	-3.2604	-2.7958	-3.6688	-3.0729	-3.2729	-3.2083	-2.8667	-3.2833	-3.2854	-2.9896	-3.5396	-2.9917	-3.0208	116.874	320.859	61.603	51.951	323.375	55.539	357.719	303.697	194.255	241.078	342.004	345.445	57.421	54.245	63.365	345.758	0.00011003	0.00025109	4.0377e-05	692.45	1.9646e-06	2.2524e-06	745.11	153.27	2.5057e-06	1.6218e-06	193.16	53.569	41.742	12.211	1.0073e-06	16.712	5.2505e-05	4.6288e-05	1.2954e-05	688.84	5.4032e-07	4.996e-07	744.58	154.24	5.2171e-07	5.3656e-07	191.77	53.843	41.802	12.228	5.2564e-07	16.906	164.900	102.397	53.194	38.986	236.528	191.982	38.724	46.485	248.552	115.692	45.899	52.659	53.773	60.556	224.641	59.451	-8191	255	
36079.992	1	1	0	0	0.1168	0.12521	0.27073	0.18207	0.14302	0.015175	0.38269	0.2334	0.20648	0.24058	0.11633	0.36741	0.12912	0.2034	0.1267	0.085307	-3.0812	-2.9542	-3.3563	-3.3396	-2.9167	-3.5896	-3.0875	-3.0583	-3.5771	-2.8396	-3.4958	-3.3438	-2.8625	-3.4583	-3.1125	-2.9958	119.813	79.753	292.495	29.639	197.601	380.700	308.801	311.588	40.615	261.103	58.192	52.419	238.199	62.013	144.993	277.202	0.00013393	7.392e-05	4.2369e-05	692.56	1.4875e-06	1.9156e-06	747.32	154.67	1.2693e-06	3.1618e-06	193.68	53.057	41.654	12.096	2.0755e-06	16.869	5.2855e-05	4.8499e-05	1.3278e-05	688.95	5.5999e-07	5.2553e-07	745.3	154.36	5.2526e-07	5.4235e-07	192.29	53.908	41.821	12.212	5.4171e-07	16.876	158.211	206.844	194.575	39.092	187.811	253.501	38.950	46.397	169.813	228.427	45.725	52.868	53.727	60.529	188.375	59.873	-8191	255	
36080.086	1	1	0	0	0.031712	0.15808	0.20188	0.19425	0.14877	0.16766	0.10875	0.25132	0.083165	0.132	0.15999	0.20077	0.16053	0.1115	0.10298	0.13908	-3.1937	-2.8187	-3.3187	-3.6771	-2.8312	-3.4792	-3.3688	-2.9	-3.6437	-2.9271	-3.2854	-3.4729	-2.8063	-3.5792	-3.1	-2.8479	358.729	244.236	103.654	42.283	91.810	174.959	133.590	325.209	109.804	154.964	30.499	104.458	262.205	148.418	105.359	50.499	0.00012739	0.00010819	9.7503e-06	692.42	2.0805e-06	1.5621e-06	748.65	154.77	1.4232e-06	1.2383e-06	194.98	53.564	41.584	12	4.2042e-07	16.678	5.2457e-05	4.7805e-05	1.3333e-05	690.6	5.463e-07	5.1837e-07	745.94	154.49	5.3176e-07	5.2098e-07	192.31	53.816	41.784	12.18	5.1222e-07	16.878	156.817	129.245	357.346	38.769	212.549	167.384	38.959	46.426	208.611	161.269	45.793	52.554	53.258	61.014	92.348	59.475	-8191	255	
36080.184	1	1	0	0	0.26619	0.16482	0.17761	0.47515	0.2087	0.21172	0.11519	0.27956	0.18894	0.1326	0.054293	0.2808	0.18923	0.12534	0.13998	0.20728	-3.2854	-2.8646	-3.1521	-3.5271	-2.6937	-3.4875	-3.4583	-2.6729	-3.675	-2.9021	-3.1896	-3.5458	-2.8083	-3.3812	-3.2	-2.8	85.505	142.187	47.981	368.926	36.635	234.584	273.171	363.430	103.594	41.728	187.022	51.143	227.312	102.577	89.150	346.472	0.0001149	0.00011567	5.7945e-05	694.3	2.6143e-06	2.6079e-06	744.08	153.86	8.8149e-07	3.0133e-06	192.45	53.113	41.296	12.059	1.1198e-06	16.749	5.0323e-05	4.5062e-05	1.2498e-05	689.47	5.1202e-07	4.9571e-07	742.7	153.97	4.9779e-07	5.0645e-07	191.87	53.609	41.515	12.148	4.9156e-07	16.852	158.435	44.887	122.052	38.719	213.557	203.598	39.064	46.152	104.740	136.527	45.751	53.346	53.450	60.138	190.930	59.741	-8191	255	
36080.277	1	1	0	0	0.27754	0.099611	0.21024	0.25596	0.10198	0.098276	0.22394	0.037604	0.10312	0.0294	0.24475	0.23826	0.10698	0.10337	0.12352	0.11547	-3.3104	-2.8854	-2.8958	-3.6146	-2.9938	-3.3979	-3.3688	-2.8375	-3.5104	-3.2292	-2.8854	-3.8458	-2.8875	-3.4229	-3.55	-2.8021	43.462	224.371	46.662	136.056	259.952	308.106	160.871	72.170	182.807	142.883	353.596	331.916	133.822	150.784	204.573	107.698	0.00011786	0.00021976	9.8749e-05	689.02	1.0725e-06	3.7425e-07	743.92	153.85	1.3074e-06	6.4223e-07	192.87	53.158	41.802	12.086	9.8215e-07	16.799	4.989e-05	4.339e-05	1.2378e-05	686.64	5.2278e-07	4.6724e-07	743.41	153.67	5.1327e-07	5.0116e-07	191.5	53.753	41.672	12.159	5.0135e-07	16.886	152.758	133.860	119.526	39.081	194.840	358.670	38.917	46.294	97.940	98.114	46.028	53.030	53.579	61.326	239.159	59.589	-8191	255	
36080.352	1	1	0	0	0.081888	0.10215	0.1825	0.12571	0.034328	0.21369	0.039453	0.16586	0.074233	0.13335	0.25268	0.085535	0.030641	0.058574	0.087005	0.20215	-3.2771	-3.2771	-2.8708	-3.7833	-2.8333	-3.0938	-3.6896	-2.9479	-3.3729	-3.2583	-2.9208	-3.4229	-2.9833	-3.025	-3.325	-2.7479	320.044	225.070	190.923	32.741	322.895	253.977	126.788	290.029	34.922	45.742	323.177	49.412	283.789	278.417	309.341	353.005	0.00010807	0.00017516	8.251e-05	690.79	4.6369e-07	1.5162e-06	745.89	153.17	1.8882e-06	1.4964e-06	193.42	53.373	41.659	11.992	1.4967e-06	16.779	5.1581e-05	4.7387e-05	1.2922e-05	688.47	5.3008e-07	5.0911e-07	743.46	153.83	5.1287e-07	4.9727e-07	191.83	53.705	41.584	12.176	5.0061e-07	16.839	172.553	119.587	168.502	38.982	292.976	243.141	38.894	46.463	223.838	156.138	45.553	53.025	53.360	59.510	194.021	59.500	-8191	255	
36080.473	1	1	0	0	0.20489	0.11086	0.1652	0.13929	0.15482	0.074516	0.027617	0.14778	0.39068	0.22523	0.33676	0.12901	0.17528	0.10452	0.098804	0.050724	-3.0938	-3.2646	-2.725	-3.7562	-2.9833	-3.0146	-3.6833	-2.9083	-3.4313	-3.4021	-2.9813	-3.5938	-3.1	-3.0146	-3.6	-3.0521	202.890	156.660	315.723	47.788	135.463	371.168	350.106	323.290	37.316	308.097	331.395	375.899	196.844	126.627	260.070	251.684	0.00011701	0.00017338	3.5039e-05	691.72	1.1038e-06	7.0544e-07	746.56	153.41	1.7609e-06	8.6674e-07	192.83	53.323	41.662	12.074	1.018e-06	16.666	4.9938e-05	4.5249e-05	1.2487e-05	687.05	5.2811e-07	4.7295e-07	743.43	153.21	5.0069e-07	4.7395e-07	191.16	53.718	41.668	12.169	4.9026e-07	16.839	154.359	136.282	379.077	38.742	229.370	183.249	38.929	46.110	213.564	248.750	46.050	52.419	52.925	60.415	196.474	59.975	-8191	255	
36080.566	1	1	0	0	0.18607	0.12834	0.081801	0.069574	0.25563	0.081829	0.13193	0.24564	0.16857	0.23922	0.26212	0.2373	0.054584	0.16902	0.12031	0.14765	-2.7479	-3.4583	-2.6417	-3.6063	-3.1083	-2.825	-3.7146	-2.9083	-3.3333	-3.4646	-3.0104	-3.6042	-3.2354	-2.9667	-3.7271	-3.1104	280.374	317.091	115.780	126.813	211.913	89.365	51.228	254.868	262.192	198.876	353.447	366.899	218.742	365.351	318.600	330.913	0.00011462	0.00019504	4.4733e-05	691.04	2.2111e-06	2.1015e-06	747.68	153.53	9.0335e-07	1.5175e-06	192.52	53.445	41.323	12.069	3.5194e-07	16.638	4.9938e-05	4.4935e-05	1.2793e-05	687.78	5.2386e-07	4.9963e-07	743.17	153.49	4.9754e-07	4.7599e-07	191.3	53.644	41.639	12.135	4.9193e-07	16.841	152.342	113.771	116.431	38.846	231.421	160.727	38.855	46.379	166.245	132.899	45.815	52.583	53.308	60.272	198.149	59.608	-8191	255	
36080.664	1	1	0	0	0.065509	0.043776	0.14354	0.065851	0.075539	0.088082	0.25399	0.19991	0.17994	0.082467	0.28921	0.032278	0.057345	0.19914	0.27083	0.054414	-2.8104	-3.6292	-2.6312	-3.4958	-3.3812	-2.9083	-3.8312	-3.0479	-3.1771	-3.5146	-2.9042	-3.3833	-3.1708	-2.9375	-3.7083	-3.0479	344.535	39.561	129.324	246.741	52.198	177.277	255.396	312.842	92.046	368.023	41.741	339.041	221.542	330.328	63.656	310.272	0.00012016	0.00014519	7.9509e-05	685.67	1.1869e-06	3.864e-07	744.56	153.23	2.0405e-06	4.4335e-07	192.36	53.506	41.785	12.003	1.1308e-06	16.677	5.1331e-05	4.4757e-05	1.2536e-05	684.6	5.168e-07	5.0732e-07	742.28	153.4	5.2711e-07	5.0339e-07	191.3	53.747	41.689	12.142	5.1246e-07	16.83	152.750	156.641	76.418	38.611	236.433	180.031	38.974	46.382	179.784	133.757	45.655	53.015	53.759	60.273	148.419	59.818	-8191	255	
36080.785	1	1	0	0	0.082956	0.1263	0.24912	0.056704	0.060926	0.02922	0.09721	0.10048	0.23339	0.095202	0.10503	0.095375	0.078196	0.23867	0.16629	0.1749	-2.7021	-3.6167	-2.8812	-3.4188	-3.3958	-2.8375	-3.5604	-3.0687	-3.0458	-3.5187	-2.8979	-3.3063	-3.4542	-2.8375	-3.5125	-3.1792	183.062	385.829	174.788	352.021	354.638	150.068	334.069	323.022	268.293	352.608	276.539	347.765	32.570	182.471	63.165	385.121	0.00012051	0.00021085	4.6103e-05	687.53	1.0404e-06	1.9449e-06	742.47	153.59	4.2948e-07	3.2508e-06	190.46	53.524	41.369	12.026	1.0313e-06	16.585	5.0722e-05	4.611e-05	1.3078e-05	685.45	5.2654e-07	5.1682e-07	741.32	153.5	5.0463e-07	4.9615e-07	191.14	53.689	41.622	12.195	5.1582e-07	16.788	152.445	95.461	184.998	38.734	188.824	111.852	38.794	46.614	161.132	156.150	45.502	52.338	53.241	60.624	166.751	59.864	-8191	255	
36080.883	1	1	0	0	0.20428	0.16653	0.13263	0.13346	0.16233	0.12696	0.10122	0.073901	0.0025798	0.30337	0.13354	0.19358	0.15572	0.18633	0.097186	0.11042	-2.5625	-3.4979	-2.8042	-3.3875	-3.6021	-2.8125	-3.5417	-3.1958	-2.925	-3.7333	-3.1104	-3.0125	-3.6542	-2.6625	-3.5104	-3.2771	355.099	115.709	37.472	187.461	174.205	333.724	330.991	133.051	161.005	158.462	379.907	276.359	126.632	190.684	67.015	329.967	0.00015133	0.00022258	6.0995e-05	687.84	1.4054e-06	2.1422e-06	744.01	153.47	1.6275e-06	8.1906e-07	193.08	52.975	41.758	11.975	1.5595e-06	16.646	5.2844e-05	4.3978e-05	1.2873e-05	684.68	5.0474e-07	5.0278e-07	741.64	153.22	5.059e-07	4.7757e-07	191.48	53.648	41.63	12.129	4.9137e-07	16.764	152.459	156.719	82.380	38.796	175.844	242.878	38.662	46.357	164.129	91.621	45.854	52.922	53.605	61.019	218.000	59.899	-8191	255	
36080.953	1	1	0	0	0.058825	0.070929	0.063625	0.10105	0.10734	0.11689	0.052928	0.31282	0.057935	0.17063	0.14721	0.19547	0.12087	0.20223	0.17085	0.076199	-2.3583	-3.6188	-3.0875	-3.2333	-3.5938	-2.8396	-3.3646	-3.4813	-2.9229	-3.4375	-3.0208	-2.9521	-3.5187	-2.7479	-3.225	-3.5167	267.579	70.314	106.114	306.034	164.295	301.538	257.174	256.476	129.124	99.077	324.375	173.401	207.467	382.346	61.833	254.303	0.00011679	0.00013479	5.7432e-05	682.86	1.4939e-06	1.5744e-06	742.91	153.11	1.6016e-06	1.8139e-06	193.82	53.169	41.48	12.102	1.2748e-06	16.732	5.0803e-05	4.4345e-05	1.2165e-05	682.24	5.0259e-07	5.0704e-07	739.16	153.2	5.1872e-07	5.0119e-07	191.28	53.441	41.565	12.172	4.9602e-07	16.857	172.202	135.344	123.233	38.672	188.286	286.797	38.719	46.525	200.506	180.035	45.583	53.088	53.157	60.636	201.480	59.535	-8191	255	
36081.074	1	1	0	0	0.28268	0.19314	0.10037	0.22998	0.017847	0.03952	0.070888	0.19781	0.19262	0.24393	0.084223	0.10956	0.32338	0.14514	0.17576	0.023113	-2.5021	-3.4875	-3.0354	-3.0833	-3.6437	-2.9208	-3.3458	-3.4625	-2.7125	-3.4792	-3.1	-2.9437	-3.6646	-2.8104	-3.3125	-3.5875	344.227	286.001	158.884	336.222	317.575	227.180	301.894	274.763	110.951	340.675	114.642	104.551	117.706	244.487	147.109	180.625	0.0001371	0.00016524	2.1049e-05	687.58	9.6374e-07	1.3688e-06	741.75	153.39	1.0004e-06	2.0283e-06	192.53	53.23	41.452	12.093	3.7082e-07	16.82	4.9984e-05	4.4947e-05	1.281e-05	683.58	5.1227e-07	5.0194e-07	741.71	153.27	5.1296e-07	4.9291e-07	190.98	53.415	41.383	12.115	4.9621e-07	16.833	158.989	150.208	57.938	38.452	179.150	230.739	38.709	46.622	194.615	192.976	46.079	52.558	53.612	60.486	168.968	59.652	-8191	255	
36081.168	1	1	0	0	0.06039	0.13634	0.21533	0.014159	0.076068	0.14449	0.10237	0.12476	0.10238	0.18206	0.070746	0.17337	0.099615	0.22998	0.081701	0.15366	-2.2646	-3.1937	-3.3646	-2.8875	-3.6458	-2.9792	-3.1542	-3.5875	-2.8146	-3.4354	-3.2854	-2.9333	-3.3958	-3.0729	-2.9396	-3.5604	196.555	50.983	287.081	144.415	316.099	124.000	365.673	286.398	246.859	233.717	51.968	288.065	59.541	162.495	202.276	224.148	0.00012189	9.2166e-05	4.7033e-05	686.01	1.7686e-06	2.3557e-06	746.74	153.26	5.2274e-07	1.6028e-06	192.49	53.152	41.524	11.97	1.3704e-06	16.85	5.2225e-05	4.559e-05	1.287e-05	684.34	5.1797e-07	4.9441e-07	741.47	153.23	5.2819e-07	4.8273e-07	190.54	53.541	41.569	12.084	5.0901e-07	16.826	157.678	87.312	100.441	38.503	193.200	177.533	38.680	46.325	146.167	161.344	45.703	53.362	52.859	60.662	242.920	59.752	-8191	255	
36081.266	1	1	0	0	0.10376	0.31469	0.22297	0.081651	0.23591	0.17515	0.14922	0.23308	0.15041	0.21885	0.13929	0.16596	0.40257	0.13924	0.088308	0.1801	-2.4062	-3.2396	-3.1688	-2.8896	-3.6896	-3.0917	-3.1437	-3.4813	-2.7438	-3.1646	-3.5563	-3.0958	-3.5812	-3.1333	-2.9021	-3.6312	242.529	80.396	157.655	358.182	33.271	236.527	38.880	147.703	37.418	328.614	333.482	336.866	38.946	263.436	166.193	340.002	0.00010498	0.00019018	4.9517e-05	685.37	7.2911e-07	1.847e-06	739.25	153.26	1.3505e-06	1.634e-06	193.25	53.151	40.827	11.907	1.8661e-07	16.698	5.0644e-05	4.4274e-05	1.208e-05	682.49	5.0595e-07	4.9188e-07	740.82	152.93	4.9859e-07	4.9557e-07	191.11	53.425	41.4	12.099	5.1178e-07	16.783	168.369	120.237	118.987	38.783	171.996	177.969	38.657	46.782	180.918	175.278	45.549	52.665	53.618	60.679	257.222	60.057	-8191	255	
36081.383	1	1	0	0	0.20923	0.1532	0.28222	0.43653	0.17144	0.29928	0.11256	0.0836	0.12895	0.20562	0.05975	0.22711	0.22598	0.18259	0.12553	0.040526	-2.5396	-3.2125	-3.6063	-2.9083	-3.3958	-3.3104	-2.9646	-3.6854	-2.9729	-3.0563	-3.5021	-2.8812	-3.45	-3.2396	-2.8917	-3.7729	345.226	92.330	55.707	358.385	120.029	235.857	346.258	69.239	195.245	223.241	67.035	61.358	162.738	317.091	274.172	337.024	0.00011651	0.00013287	5.916e-05	686.57	2.1123e-06	3.2088e-07	741.07	152.17	7.7807e-07	2.7123e-06	192.82	52.648	41.278	11.975	7.416e-07	16.568	5.0719e-05	4.5884e-05	1.2415e-05	683.48	5.0851e-07	4.8175e-07	739.29	153.01	5.3217e-07	4.9761e-07	191.06	53.34	41.441	12.11	5.1622e-07	16.737	169.384	100.503	166.541	38.977	201.817	291.524	38.695	46.781	193.398	156.494	45.738	53.126	53.415	60.412	197.210	59.246	-8191	255	
36081.480	1	1	0	0	0.14634	0.12323	0.068635	0.16111	0.12498	0.042367	0.11279	0.060128	0.36371	0.24688	0.15582	0.077212	0.13893	0.16849	0.2087	0.20712	-2.7875	-3.0625	-3.4813	-2.9208	-3.4708	-3.45	-2.9688	-3.5104	-3.1188	-3.0479	-3.6333	-2.8625	-3.0354	-3.2646	-2.7354	-3.5354	188.739	311.524	135.490	316.960	135.211	137.466	351.214	303.096	338.438	156.426	223.594	93.868	375.815	79.367	41.190	230.102	0.0001288	7.983e-05	7.1757e-05	687.23	2.0037e-06	1.8864e-06	739.65	153.19	1.0008e-06	2.4958e-06	191.09	53.497	41.631	12.05	1.1794e-06	16.698	5.0391e-05	4.6892e-05	1.266e-05	683.24	5.2302e-07	4.95e-07	738.75	153.08	5.1814e-07	4.9909e-07	190.66	53.512	41.422	12.128	4.9072e-07	16.783	153.032	284.901	130.706	38.833	214.837	200.498	38.722	46.424	238.020	137.934	45.718	52.943	53.650	60.322	160.047	59.407	-8191	255	
36081.578	1	1	0	0	0.12029	0.12513	0.17047	0.37139	0.27095	0.13455	0.29497	0.090541	0.15095	0.22308	0.10174	0.077966	0.19294	0.10885	0.39273	0.035594	-2.9354	-3.0917	-3.5583	-3.1	-3.3083	-3.4062	-2.7104	-3.3438	-3.2146	-2.8583	-3.5812	-2.6917	-3.1521	-3.5375	-2.5333	-3.5542	161.257	326.075	379.185	333.784	44.355	362.421	345.083	297.887	220.814	80.270	234.439	74.838	381.103	48.704	213.749	44.608	0.00013714	6.3541e-05	3.6919e-05	687.08	1.6224e-06	2.3296e-06	739.11	152.76	7.0138e-07	2.4191e-06	191.75	53.097	41.728	11.981	1.7951e-06	16.82	5.0886e-05	4.4763e-05	1.2279e-05	683.02	5.1692e-07	4.8397e-07	737.8	152.96	5.1851e-07	5.1171e-07	190.13	53.344	41.451	12.107	4.9898e-07	16.781	150.532	261.883	63.537	38.823	148.022	233.566	38.608	46.504	175.380	137.108	45.919	52.908	53.472	60.846	158.946	59.265	-8191	255	
36081.648	1	1	0	0	0.1252	0.10431	0.18938	0.40536	0.19844	0.13281	0.11843	0.1722	0.056438	0.19598	0.22043	0.23716	0.22045	0.1435	0.13829	0.18157	-2.8854	-2.6979	-3.6813	-3.0938	-2.9813	-3.4313	-2.7729	-3.2521	-3.4333	-2.725	-3.5812	-2.9938	-2.9313	-3.6542	-2.7833	-3.0938	155.961	115.341	118.388	316.672	341.951	184.610	132.858	323.398	360.676	118.969	280.140	62.182	285.700	96.572	226.998	335.519	0.00011462	6.4494e-05	3.7409e-05	686.77	1.4334e-06	2.0673e-06	744.9	153.03	9.022e-07	1.5887e-06	193.57	53.298	41.796	12.044	2.1588e-06	16.941	4.9332e-05	4.633e-05	1.3021e-05	683.98	5.1538e-07	4.795e-07	739.34	152.66	5.2196e-07	5.2049e-07	190.62	53.368	41.631	12.122	5.326e-07	16.813	152.116	126.840	91.427	38.414	196.001	172.604	38.482	46.245	214.559	173.986	45.673	52.265	52.936	60.021	232.607	58.395	-8191	255	
36081.770	1	1	0	0	0.10599	0.095683	0.15065	0.080137	0.17837	0.11444	0.35879	0.066558	0.14057	0.03969	0.10794	0.15482	0.32117	0.1763	0.17677	0.13434	-3.1917	-2.7896	-3.6667	-3.2792	-2.9146	-3.5854	-3.05	-3.1729	-3.5812	-2.7958	-3.4188	-3.2292	-2.7458	-3.65	-2.8146	-3.0854	147.730	128.309	79.513	272.863	162.651	265.849	372.235	268.780	89.577	148.732	295.610	156.084	291.347	77.913	290.160	69.979	0.0001289	0.00022929	4.3603e-05	689.05	1.7096e-06	2.6101e-06	745.93	152.27	1.3401e-06	3.8267e-06	192.77	53.323	41.584	12.022	1.0041e-06	16.608	5.0611e-05	4.8415e-05	1.281e-05	684.12	5.25e-07	4.8623e-07	741.25	152.86	5.3654e-07	5.0432e-07	191.11	53.434	41.556	12.126	5.072e-07	16.768	155.212	104.182	92.626	38.950	182.849	168.249	38.598	46.367	171.721	171.149	45.767	53.159	53.510	60.728	176.346	60.112	-8191	255	
36081.863	1	1	0	0	0.24001	0.27592	0.20203	0.18592	0.11628	0.10117	0.1973	0.16533	0.23412	0.10829	0.11356	0.17317	0.34673	0.04719	0.1287	0.062929	-3.0083	-2.7188	-3.4667	-3.3167	-2.8375	-3.4917	-3.1562	-2.9979	-3.4792	-2.8458	-3.4229	-3.4583	-2.7833	-3.4479	-3.0729	-3.1458	236.917	233.764	296.800	358.629	330.750	78.296	314.336	322.885	271.131	336.343	258.367	310.718	57.068	246.643	367.994	106.299	0.00011174	6.9657e-05	8.5844e-05	687.57	2.1698e-06	2.11e-06	744.93	151.87	1.7846e-06	2.0321e-06	192.42	52.376	41.303	12.01	1.2202e-06	16.717	4.9725e-05	4.5661e-05	1.29e-05	683.55	5.2981e-07	5.0648e-07	740.59	152.78	5.3568e-07	5.3088e-07	190.56	53.23	41.42	12.104	5.3731e-07	16.747	151.384	113.721	124.780	38.688	206.047	237.065	38.744	46.578	269.868	213.200	45.833	52.780	53.311	60.274	157.864	59.718	-8191	255	
36081.961	1	1	0	0	0.07153	0.1229	0.023851	0.16566	0.10897	0.1154	0.042866	0.15128	0.055164	0.11919	0.093782	0.14571	0.25203	0.20155	0.22722	0.19894	-3.0896	-2.8896	-3.25	-3.5292	-2.9521	-3.5938	-3.2542	-3.1333	-3.6542	-2.9708	-3.4083	-3.4229	-2.7625	-3.6833	-3.1937	-2.9437	293.443	101.607	110.642	298.509	224.407	109.414	353.483	256.467	108.847	230.049	67.345	61.038	90.763	225.224	90.937	267.194	0.00011578	0.0003424	2.6152e-05	688.54	2.2143e-06	1.268e-06	741.52	152.91	2.17e-06	2.594e-06	192.31	53.634	41.149	11.984	1.5124e-06	16.62	5.2941e-05	4.8389e-05	1.3283e-05	685.02	5.6495e-07	5.2772e-07	740.67	153.09	5.3836e-07	5.2723e-07	190.78	53.571	41.427	12.116	5.2992e-07	16.808	154.392	106.514	70.659	38.642	211.150	211.563	38.717	46.124	152.416	189.719	45.694	52.602	53.546	60.960	238.860	59.510	-8191	255	
36082.059	1	1	0	0	0.05832	0.24292	0.23984	0.21295	0.16915	0.10143	0.040875	0.1721	0.29782	0.13359	0.20464	0.18463	0.096134	0.078882	0.055918	0.12944	-3.2458	-2.7729	-3.0938	-3.475	-2.7458	-3.4188	-3.2208	-2.9125	-3.4667	-2.8521	-3.1146	-3.4562	-2.8146	-3.4646	-3.2979	-2.8604	257.842	152.184	293.504	337.391	172.726	138.001	364.651	344.931	50.199	179.821	363.362	51.015	232.321	60.470	118.664	250.574	0.00010244	0.00018292	4.0395e-05	686.13	8.307e-07	1.3682e-06	741.21	153.08	1.657e-06	1.0261e-06	193.84	53.038	41.225	12.056	1.655e-06	16.499	5.3666e-05	4.8638e-05	1.3689e-05	683.56	5.4291e-07	5.1883e-07	739.81	152.93	5.3059e-07	5.3666e-07	190.88	53.319	41.48	12.127	5.3448e-07	16.753	145.884	116.822	97.765	38.528	214.806	129.216	38.725	46.345	202.318	167.643	45.786	52.780	53.386	60.708	228.614	59.537	-8191	255	
36082.176	1	1	0	0	0.059987	0.12819	0.04343	0.33212	0.1875	0.17666	0.03616	0.23094	0.16655	0.36414	0.14445	0.24407	0.16077	0.17469	0.19164	0.11141	-3.2062	-2.9646	-2.9188	-3.5563	-2.7	-3.5458	-3.3167	-2.7375	-3.5708	-3.1354	-2.9646	-3.4896	-2.675	-3.1625	-3.2958	-2.7938	61.315	307.966	371.684	366.599	323.828	245.842	150.871	216.785	266.243	110.498	41.118	135.441	351.477	49.972	102.030	104.801	0.0001271	0.00019265	5.2142e-05	685.88	5.7026e-07	2.5783e-06	739.84	152.48	1.2624e-06	1.8428e-06	192.87	52.802	41.326	11.952	2.9863e-06	16.608	5.3537e-05	4.9361e-05	1.3801e-05	685.07	5.4954e-07	5.2065e-07	739.85	153.17	5.4305e-07	5.4018e-07	190.98	53.373	41.463	12.123	5.2392e-07	16.731	141.398	112.117	86.554	38.822	149.255	226.722	38.853	46.662	184.280	211.093	45.774	52.779	53.132	60.326	209.504	59.641	-8191	255	
36082.250	1	1	0	0	0.090766	0.12819	0.12407	0.32755	0.19377	0.058465	0.089473	0.23403	0.17514	0.11741	0.17992	0.10837	0.17585	0.18324	0.11916	0.27672	-3.1729	-3.0062	-2.7917	-3.5833	-2.8125	-3.2479	-3.4729	-2.6604	-3.4437	-3.2396	-2.9271	-3.5062	-2.9896	-3.1188	-3.5563	-2.7667	164.271	63.127	387.290	304.367	135.405	197.149	385.390	77.970	345.962	233.429	85.464	97.685	362.318	79.550	342.964	123.472	0.00011266	7.4262e-05	1.4299e-05	687.15	2.4153e-06	3.0285e-06	744.58	151.54	7.3544e-07	2.7235e-06	191.84	53.277	41.316	12.012	2.5566e-06	16.596	5.3822e-05	5.0055e-05	1.3787e-05	684.06	5.6865e-07	5.1948e-07	741.73	152.68	5.2797e-07	5.2361e-07	190.74	53.404	41.447	12.091	5.1856e-07	16.736	159.840	82.307	85.024	38.784	231.373	179.351	38.853	46.276	206.805	151.703	45.844	53.050	52.885	60.177	234.389	59.607	-8191	255	
36082.348	1	1	0	0	0.070521	0.12836	0.28271	0.010434	0.13593	0.24671	0.09543	0.25738	0.13205	0.12788	0.15128	0.094353	0.0081865	0.26885	0.15139	0.047281	-3.1833	-3.1458	-2.6646	-3.6146	-3.0333	-3.0792	-3.7062	-2.825	-3.4042	-3.1083	-2.7396	-3.5167	-3.0583	-2.8625	-3.6	-2.8875	387.681	341.825	140.776	323.656	214.885	259.353	325.851	324.221	83.390	263.644	287.072	62.994	284.370	33.194	86.622	241.717	0.00011037	0.00011976	7.7886e-05	687.88	1.325e-06	4.5968e-07	740.52	151.91	1.4366e-06	4.8747e-07	192.45	53.069	41.365	11.89	1.8187e-06	16.715	5.3601e-05	4.8474e-05	1.3826e-05	685.25	5.5256e-07	5.1522e-07	740.67	152.44	5.4246e-07	5.1671e-07	190.55	53.34	41.37	12.071	5.2487e-07	16.745	154.947	141.968	95.917	38.784	179.142	114.767	38.910	46.309	195.600	56.258	45.801	53.144	53.066	60.548	209.122	59.618	-8191	255	
36082.465	1	1	0	0	0.014492	0.3276	0.071319	0.15755	0.26481	0.14046	0.26595	0.16266	0.22677	0.080304	0.28866	0.14519	0.39592	0.091438	0.031973	0.029897	-2.7625	-3.3646	-2.65	-3.5604	-3.0292	-3.0417	-3.6167	-2.9396	-3.3354	-3.4979	-2.5875	-3.4729	-3.1542	-2.9938	-3.7083	-2.9542	118.128	82.644	205.692	207.818	284.494	161.242	303.969	176.645	148.835	225.844	264.848	310.365	318.235	291.509	311.923	303.060	0.00012098	8.7005e-05	6.3659e-05	686.99	1.2734e-06	2.5252e-06	743.56	152.06	5.0895e-07	1.9637e-06	191.95	52.936	41.411	12	1.5908e-06	16.569	5.3798e-05	4.7898e-05	1.3289e-05	683.78	5.5129e-07	5.3606e-07	740.68	153.02	5.4126e-07	5.1823e-07	190.73	53.393	41.483	12.116	5.2127e-07	16.677	167.678	123.152	119.879	38.651	155.644	186.103	38.852	45.989	221.295	182.371	45.361	52.846	53.448	61.010	223.118	59.778	-8191	255	
36082.562	1	1	0	0	0.11712	0.21538	0.1373	0.13845	0.012677	0.073523	0.21969	0.069024	0.15566	0.26923	0.13325	0.18216	0.090584	0.14934	0.21053	0.11299	-2.75	-3.4958	-2.8146	-3.6333	-3.1	-2.9792	-3.8271	-2.8375	-2.9646	-3.4688	-2.9562	-3.5083	-3.2417	-2.8229	-3.5333	-2.9292	28.924	378.108	233.470	364.919	138.781	91.173	366.419	190.395	265.738	356.583	231.270	335.223	307.945	108.441	198.893	82.187	0.00010128	0.00012187	3.8387e-05	685.12	1.1037e-06	1.9085e-06	742.31	151.68	1.4258e-06	2.9369e-06	191.89	53.124	41.544	11.983	1.5978e-06	16.652	5.202e-05	4.7494e-05	1.3455e-05	683.91	5.4217e-07	5.3238e-07	740.55	152.34	5.4052e-07	5.0388e-07	190.26	53.334	41.383	12.082	5.4735e-07	16.724	159.349	42.980	154.127	38.790	122.057	179.279	38.930	46.479	188.644	183.733	45.458	52.598	53.427	60.827	255.980	59.577	-8191	255	
36082.656	1	1	0	0	0.15341	0.13063	0.12533	0.16085	0.15587	0.20629	0.22913	0.1926	0.06751	0.29239	0.13712	0.11525	0.14555	0.017274	0.15466	0.055382	-2.725	-3.6646	-2.7062	-3.5125	-3.3771	-2.8521	-3.525	-3.2229	-2.7979	-3.5146	-2.9708	-3.2208	-3.4313	-2.9167	-3.4229	-3.2833	66.965	339.077	308.725	384.249	103.141	218.242	328.165	333.533	210.493	75.272	334.692	321.296	72.756	83.674	230.010	275.037	0.00012472	0.00015826	3.6102e-05	685.46	7.3567e-07	3.5082e-06	743.67	152.6	1.5049e-06	2.2345e-06	193	52.601	41.476	11.979	1.5779e-06	16.524	5.438e-05	4.8607e-05	1.3922e-05	683.2	5.5299e-07	5.2945e-07	739.65	152.79	5.4175e-07	5.058e-07	190.62	53.205	41.533	12.081	5.229e-07	16.743	160.211	102.522	106.683	38.615	228.714	220.967	38.878	46.874	176.596	202.242	45.611	52.908	53.557	60.821	251.045	60.057	-8191	255	
36082.754	1	1	0	0	0.18712	0.098476	0.10549	0.12555	0.24357	0.18601	0.22309	0.086816	0.22764	0.12623	0.096011	0.27974	0.11218	0.26176	0.18741	0.11371	-2.6437	-3.6604	-2.8521	-3.275	-3.5479	-2.8229	-3.4896	-3.4208	-2.8458	-3.5958	-2.9604	-3.3375	-3.4396	-2.8521	-3.4188	-3.1896	75.965	173.028	105.615	40.721	231.716	283.806	322.061	68.132	252.737	31.214	81.471	86.820	318.199	211.383	158.522	359.888	0.00012266	0.00015295	1.9678e-05	686.43	2.4269e-06	2.9309e-06	744.64	152.01	5.4565e-07	1.8872e-06	192.11	52.857	41.182	11.999	1.2907e-06	16.593	5.5347e-05	5.0358e-05	1.3406e-05	684.65	5.8209e-07	5.4304e-07	741.98	152.82	5.8402e-07	5.6442e-07	190.5	53.235	41.603	12.094	5.6157e-07	16.748	163.934	62.741	103.961	38.551	202.294	197.578	38.920	46.567	233.839	149.671	45.791	52.828	53.646	60.676	182.757	60.080	-8191	255	
36082.848	1	1	0	0	0.29268	0.28638	0.13303	0.24206	0.0209	0.32376	0.079277	0.09597	0.23947	0.058323	0.15398	0.06842	0.090142	0.015353	0.17946	0.17416	-2.5042	-3.6146	-2.9729	-3.1063	-3.4354	-2.8542	-3.525	-3.4917	-2.7313	-3.5208	-3.1562	-3.1875	-3.6833	-2.9833	-3.4208	-3.4437	238.528	315.977	348.359	271.690	313.257	383.388	231.622	325.623	195.700	338.975	306.457	118.341	211.008	88.889	204.415	357.667	0.00012002	9.6973e-05	2.1339e-05	688.38	6.2587e-07	1.3214e-06	741.13	152.01	1.2704e-06	3.2045e-06	191.99	52.752	41.095	11.956	2.4283e-06	16.741	5.6085e-05	5.0182e-05	1.4255e-05	685.96	5.795e-07	5.4865e-07	741.08	152.51	5.6768e-07	5.3224e-07	190.37	53.233	41.381	12.082	5.5036e-07	16.766	152.950	237.165	39.371	38.631	198.448	241.625	38.933	46.704	187.090	185.316	45.536	52.913	53.681	60.589	213.773	60.124	-8191	255	
36082.945	1	1	0	0	0.18201	0.13116	0.24497	0.22089	0.11593	0.27652	0.048439	0.17501	0.24134	0.071185	0.17282	0.086807	0.037452	0.22821	0.18779	0.069282	-2.2875	-3.5146	-3.1417	-2.9396	-3.5729	-2.8708	-3.325	-3.4938	-2.5229	-3.4583	-3.1813	-2.975	-3.5479	-2.7771	-3.1604	-3.7	151.866	84.194	105.976	125.276	329.698	219.309	309.472	86.265	89.059	81.565	333.068	128.190	302.700	156.993	314.034	185.855	0.00013164	0.00024439	1.6694e-05	686.68	2.3005e-06	3.3325e-06	737.73	152.05	1.7389e-06	1.3362e-06	191.5	53.02	41.369	12.074	9.0704e-07	16.554	5.5923e-05	4.9649e-05	1.3865e-05	684.47	5.5471e-07	5.4757e-07	739.15	152.9	5.7225e-07	5.3737e-07	190.41	53.353	41.443	12.126	5.3288e-07	16.735	175.033	136.194	143.034	38.652	227.867	199.692	38.832	46.387	199.963	140.584	45.756	52.704	53.221	60.571	230.638	59.611	-8191	255	
36083.066	1	1	0	0	0.2695	0.092511	0.17107	0.25588	0.20292	0.31406	0.063368	0.22167	0.060281	0.16582	0.21388	0.098334	0.42138	0.1976	0.041339	0.13235	-2.6229	-3.4417	-3.075	-2.9042	-3.675	-3.0958	-3.3375	-3.7062	-2.6104	-3.4521	-3.4083	-2.7479	-3.4292	-2.875	-3.1333	-3.5667	329.940	160.718	321.523	297.726	121.390	129.976	224.798	39.395	207.025	157.575	118.938	160.615	259.002	305.074	218.549	214.042	0.00010916	0.00021877	6.1557e-05	689.61	1.1915e-06	4.0317e-06	735.74	152.52	2.3542e-06	3.6378e-06	191	52.581	41.183	11.998	9.1317e-07	16.565	5.4636e-05	4.9971e-05	1.4118e-05	686.02	5.5721e-07	5.3189e-07	738.65	152.7	5.6802e-07	5.3919e-07	190.05	53.231	41.395	12.09	5.3423e-07	16.725	167.216	107.958	105.482	38.407	207.880	209.868	38.491	46.461	215.681	170.136	45.649	53.137	53.446	60.605	168.263	59.752	-8191	255	
36083.160	1	1	0	0	0.047176	0.047569	0.090367	0.18509	0.19284	0.17666	0.18479	0.19928	0.1913	0.10595	0.091329	0.070452	0.038982	0.12577	0.25008	0.15318	-2.5	-3.4667	-3.45	-2.7958	-3.7125	-3.0312	-3.0229	-3.6688	-2.6708	-3.3063	-3.4167	-2.7396	-3.4062	-3.1875	-2.9208	-3.5729	132.025	303.045	131.082	349.323	310.228	181.563	268.676	329.963	131.604	30.552	337.297	338.955	306.434	282.442	356.859	108.889	0.00010424	0.00019466	4.1763e-05	684.84	6.3776e-07	1.6629e-06	742.3	152.87	1.1598e-06	1.8909e-06	191.55	52.745	41.647	11.823	8.9463e-07	16.42	5.5832e-05	4.9087e-05	1.369e-05	683.38	5.5114e-07	5.397e-07	739.21	152.88	5.6463e-07	5.3242e-07	189.92	53.257	41.421	12.091	5.3657e-07	16.679	172.171	130.494	171.769	38.744	239.936	292.073	38.849	46.567	165.008	130.690	45.600	52.963	53.530	60.571	293.971	59.910	-8191	255	
36083.258	1	1	0	0	0.1342	0.15913	0.13812	0.23695	0.15416	0.14815	0.053816	0.14153	0.17125	0.053835	0.14038	0.11315	0.1166	0.33388	0.12988	0.037575	-2.4813	-3.1771	-3.4833	-3.0375	-3.6083	-3.0479	-3.0125	-3.7375	-3.0438	-3.1458	-3.5333	-2.875	-3.5312	-3.2958	-2.8604	-3.575	152.129	114.611	226.928	388.633	367.470	180.139	87.332	352.258	277.792	282.681	302.710	97.059	133.322	383.376	349.755	335.860	8.5561e-05	0.000144	3.4222e-05	684.81	1.0159e-06	6.9879e-07	739.61	151.84	2.0536e-06	1.7383e-06	192.06	52.644	41.256	11.995	1.9422e-06	16.586	5.3216e-05	4.8245e-05	1.33e-05	683.72	5.401e-07	5.3084e-07	739.51	152.23	5.3568e-07	5.2432e-07	190.2	53.253	41.427	12.097	5.4257e-07	16.711	174.017	102.559	38.676	38.547	182.332	150.565	38.585	46.627	210.812	178.749	45.741	52.579	53.357	60.396	159.732	60.124	-8191	255	
36083.352	1	1	0	0	0.21711	0.18765	0.14052	0.20022	0.12999	0.082205	0.24836	0.10025	0.086728	0.30667	0.015837	0.19582	0.11505	0.096355	0.036431	0.045649	-2.6021	-3.0021	-3.6958	-2.8458	-3.5458	-3.3125	-2.8563	-3.7125	-2.9729	-3.2708	-3.5	-2.8604	-3.3896	-3.275	-2.8167	-3.5396	40.010	65.386	178.370	74.292	262.087	183.518	364.875	217.432	283.489	37.446	347.226	73.497	186.731	33.245	335.660	355.423	9.9143e-05	0.00014744	6.0957e-05	682.97	1.7602e-06	1.5311e-06	743.11	152.78	9.6918e-07	2.4192e-06	192.72	52.914	41.296	12.031	2.3478e-06	16.56	5.3108e-05	4.8474e-05	1.3468e-05	683.21	5.6899e-07	5.1726e-07	738.84	152.92	5.5557e-07	5.5017e-07	190.42	53.135	41.429	12.113	5.5363e-07	16.766	159.913	166.032	85.917	38.720	224.678	201.444	38.444	46.375	202.240	203.294	45.930	52.933	53.414	60.896	152.652	59.803	-8191	255	
36083.473	1	1	0	0	0.094651	0.11693	0.12095	0.26647	0.14012	0.18181	0.043088	0.15612	0.15432	0.05778	0.32726	0.145	0.28136	0.061421	0.18499	0.015442	-2.8271	-2.9167	-3.7104	-2.9813	-3.1833	-3.5479	-3.0271	-3.5687	-3.2812	-2.9688	-3.6625	-2.8083	-3.2	-3.525	-2.8563	-3.5021	324.619	208.882	343.727	353.912	184.050	58.172	189.696	326.320	169.520	213.064	245.742	269.664	188.751	195.610	374.277	376.606	0.00012994	0.00011652	8.4221e-05	685.67	2.5152e-06	2.4804e-06	740.61	152.77	6.9934e-07	9.4948e-07	192.43	52.795	41.12	11.908	8.896e-07	16.548	5.4021e-05	4.9231e-05	1.3619e-05	683.06	5.5585e-07	5.3566e-07	739.1	152.81	5.5187e-07	5.4337e-07	190.47	53.294	41.309	12.066	5.5523e-07	16.741	174.775	143.775	113.466	38.808	176.876	229.524	38.707	46.567	222.391	96.211	45.897	52.549	53.163	60.372	360.618	59.892	-8191	255	
36083.547	1	1	0	0	0.16476	0.17714	0.17583	0.26719	0.40375	0.22296	0.096059	0.14082	0.15507	0.10578	0.069975	0.083608	0.19898	0.18199	0.19302	0.34453	-2.925	-2.8354	-3.5021	-3.2875	-3.05	-3.8	-2.8167	-3.4167	-3.3875	-3.0042	-3.6875	-3.1396	-3.0458	-3.5646	-2.9354	-3.3542	357.666	349.021	201.037	263.292	366.105	290.687	370.581	370.649	344.858	340.084	315.136	170.515	327.982	125.692	166.185	216.401	0.00011267	0.00011715	7.6473e-05	691.35	1.7291e-06	1.3863e-06	739.81	152.49	2.0109e-06	2.2976e-06	191.48	53.324	41.14	11.975	4.2804e-07	16.554	5.4277e-05	4.9042e-05	1.3715e-05	685.26	5.5585e-07	5.3541e-07	738.41	152.49	5.6762e-07	5.3749e-07	190.23	53.263	41.326	12.119	5.5409e-07	16.695	167.204	125.240	152.796	38.714	213.725	214.102	38.583	46.054	198.277	202.226	45.824	52.795	53.306	60.297	188.487	59.572	-8191	255	
36083.641	1	1	0	0	0.098234	0.18006	0.087039	0.1071	0.086709	0.073055	0.31015	0.14087	0.14378	0.16457	0.16626	0.10243	0.17642	0.22387	0.2916	0.068072	-3.0104	-2.8729	-3.6646	-3.0917	-3.0917	-3.6146	-2.8	-3.3375	-3.3625	-2.825	-3.6771	-3.1354	-2.8333	-3.5083	-2.85	-3.2521	183.329	119.366	70.704	211.591	287.189	353.055	297.094	288.311	181.623	126.904	92.839	349.652	82.047	306.415	98.539	243.966	0.00012426	0.00019784	2.3958e-05	686.95	2.7357e-06	1.793e-06	736.62	152.22	1.6141e-06	2.5764e-06	191.53	52.952	41.306	11.938	4.6698e-07	16.64	5.5576e-05	5.0487e-05	1.4412e-05	684.67	5.5999e-07	5.3294e-07	738.89	152.54	5.7197e-07	5.2707e-07	189.8	53.167	41.471	12.065	5.5729e-07	16.726	164.389	104.735	157.538	38.773	179.982	217.771	38.861	46.508	215.670	189.027	45.653	52.891	53.329	60.509	220.765	59.504	-8191	255	
36083.738	1	1	0	0	0.19287	0.1617	0.30868	0.090669	0.065599	0.11852	0.19989	0.14885	0.090063	0.11538	0.2058	0.18148	0.13566	0.28537	0.073402	0.065826	-3.2729	-2.8229	-3.3979	-3.2938	-2.7854	-3.6396	-3.325	-3.1646	-3.5958	-2.9354	-3.5125	-3.3646	-2.775	-3.7438	-2.8937	-3.1479	362.071	361.540	67.920	40.591	74.364	321.106	367.479	45.230	74.972	324.121	379.749	86.774	301.473	258.847	198.355	150.479	0.00012949	7.0845e-05	4.1322e-05	686.6	1.4478e-06	1.6181e-06	739.38	151.97	1.134e-06	5.758e-07	190.66	53.173	40.824	12.023	1.272e-06	16.73	5.5357e-05	5.0208e-05	1.3656e-05	683.76	5.6985e-07	5.2291e-07	739.06	152.74	5.3855e-07	5.4667e-07	189.74	53.34	41.214	12.08	5.5858e-07	16.744	172.942	51.727	91.934	38.750	186.938	72.343	38.727	46.489	227.126	240.437	45.624	52.606	53.581	60.541	210.875	59.432	-8191	255	
36083.832	1	1	0	0	0.080668	0.13935	0.06221	0.06838	0.097086	0.055329	0.17893	0.20005	0.16225	0.24519	0.073876	0.24761	0.32358	0.13025	0.10987	0.15342	-3.3187	-2.8417	-3.3542	-3.4833	-2.975	-3.4896	-3.2062	-3.225	-3.4458	-2.6917	-3.2396	-3.5167	-2.8146	-3.6375	-3.0521	-2.8063	273.056	327.425	350.636	28.804	364.440	73.011	271.067	337.144	310.778	132.971	116.552	54.884	270.806	189.147	57.380	326.987	0.00014201	6.133e-05	3.9805e-05	687.26	1.0151e-06	1.8447e-06	742.48	152.43	1.8199e-06	2.9741e-06	190.84	52.807	41.232	11.931	1.7572e-06	16.583	5.4733e-05	5.1047e-05	1.3921e-05	685.2	5.7037e-07	5.2886e-07	740.53	152.11	5.4095e-07	5.4374e-07	190.03	53.048	41.422	12.072	5.4729e-07	16.679	165.240	148.766	86.026	38.975	163.030	82.929	38.826	46.136	183.900	157.577	45.679	52.363	52.892	61.167	258.417	59.779	-8191	255	
36083.953	1	1	0	0	0.17773	0.20996	0.091891	0.11305	0.12276	0.26207	0.087807	0.091879	0.18973	0.15926	0.26284	0.21176	0.14636	0.18989	0.072853	0.13177	-3.2958	-2.8312	-3.1167	-3.5792	-2.9021	-3.4625	-3.2667	-3.1542	-3.5958	-2.9021	-3.1875	-3.675	-2.8125	-3.5625	-3.2125	-2.8417	71.102	104.321	214.598	335.862	322.487	247.683	330.740	360.892	351.990	130.727	353.292	169.737	168.928	53.232	107.617	339.858	0.00011565	0.00010598	5.4173e-05	689.69	1.6943e-06	1.4034e-06	743.72	151.04	9.3455e-07	2.3415e-06	192.11	52.972	41.454	11.982	1.7677e-06	16.63	5.4275e-05	5.0134e-05	1.4125e-05	685.2	5.7364e-07	5.4415e-07	739.83	152.23	5.6821e-07	5.515e-07	190.56	53.238	41.414	12.098	5.4519e-07	16.74	160.132	163.127	80.696	38.262	201.660	225.958	38.190	46.376	130.514	174.868	45.827	52.664	53.524	60.476	192.683	59.674	-8191	255	
36084.051	1	1	0	0	0.1949	0.15591	0.28149	0.032587	0.10541	0.23171	0.23409	0.21826	0.078008	0.086697	0.16523	0.11212	0.12907	0.10471	0.10586	0.11972	-3.2625	-2.9417	-3.0667	-3.4938	-2.7167	-3.3104	-3.4021	-2.7521	-3.5792	-2.9333	-3.0146	-3.7583	-2.7521	-3.3396	-3.3042	-2.7875	289.185	352.098	214.155	372.358	372.387	250.888	375.088	252.989	285.692	363.259	241.218	64.644	238.901	220.083	79.318	220.345	0.0001312	0.00018587	1.0306e-05	687.88	1.7439e-06	1.776e-06	743.33	152.39	3.5951e-07	3.1538e-06	192.94	52.967	41.128	11.982	7.0262e-07	16.508	5.3733e-05	5.1295e-05	1.4314e-05	684.61	5.6341e-07	5.5798e-07	738.69	152.31	5.6303e-07	5.5103e-07	190.05	53.215	41.335	12.069	5.641e-07	16.761	170.914	76.706	139.358	38.656	196.832	173.084	38.845	46.468	230.107	166.848	45.533	53.090	53.716	60.361	233.837	59.568	-8191	255	
36084.145	1	1	0	0	0.19449	0.23881	0.078624	0.24712	0.1257	0.10666	0.037858	0.18046	0.20133	0.061886	0.10381	0.15974	0.034588	0.11717	0.21916	0.208	-3.2646	-3.0229	-3.0375	-3.6625	-2.6229	-3.1042	-3.3083	-2.7208	-3.3917	-3.1875	-2.8958	-3.6063	-2.7854	-3.1188	-3.3875	-2.6771	189.436	249.033	301.773	103.020	79.296	50.358	198.332	252.350	312.468	142.441	41.178	306.176	340.370	290.614	166.786	386.764	9.0798e-05	5.6737e-05	4.6161e-05	682.21	1.059e-06	1.6436e-06	740.92	152.05	1.3195e-06	3.2175e-06	191.9	52.82	41.22	11.87	9.621e-07	16.62	5.5546e-05	4.9092e-05	1.3675e-05	683.15	5.7398e-07	5.1812e-07	738.51	152.32	5.6565e-07	5.3811e-07	190.22	53.113	41.384	12.075	5.4094e-07	16.693	158.945	188.021	138.212	39.091	207.708	142.549	38.683	46.064	266.189	131.646	45.523	52.782	53.384	61.032	264.591	59.832	-8191	255	
36084.242	1	1	0	0	0.10718	0.15548	0.054621	0.27354	0.13919	0.077668	0.20442	0.24297	0.18127	0.15787	0.034995	0.17473	0.12305	0.092611	0.038246	0.067899	-2.9646	-3.3542	-2.8563	-3.7604	-2.8104	-3.1667	-3.4604	-2.8375	-3.3063	-3.3583	-2.7917	-3.4146	-2.9104	-2.9104	-3.3604	-2.7812	268.600	340.154	100.322	383.328	170.129	224.600	362.426	28.357	208.895	65.526	245.591	222.773	222.653	114.584	117.706	381.911	0.00011339	8.7302e-05	3.7023e-06	688.38	2.6835e-06	1.0684e-06	736.88	152.06	1.2848e-06	5.2752e-07	191.08	53.019	41.428	11.839	1.858e-06	16.522	5.3372e-05	4.9821e-05	1.3842e-05	684.22	5.6322e-07	5.3878e-07	737.77	152.15	5.3753e-07	5.2284e-07	190.08	53.153	41.305	12.041	5.3158e-07	16.642	155.544	90.082	125.572	38.709	205.256	229.931	38.730	46.048	228.286	166.401	45.422	52.498	53.560	60.863	224.729	59.597	-8191	255	
36084.336	1	1	0	0	0.16625	0.2824	0.20775	0.27302	0.24484	0.077931	0.089919	0.030552	0.21832	0.22872	0.10632	0.16026	0.2435	0.27729	0.1438	0.14663	-3.1646	-3.3542	-2.9521	-3.6333	-3.2125	-2.9979	-3.5875	-2.8958	-3.2958	-3.3375	-2.8542	-3.5062	-3.0458	-2.8771	-3.6292	-2.825	111.570	385.973	319.416	29.561	85.674	201.927	331.441	117.270	68.751	125.710	329.528	68.580	193.321	264.726	349.395	107.879	0.0001114	6.56e-05	6.1458e-05	686.17	1.9677e-06	2.5425e-06	742.45	151.21	4.3136e-07	1.8321e-06	191.11	53.034	41.317	11.98	1.3312e-06	16.489	5.2823e-05	4.7079e-05	1.3674e-05	682.72	5.524e-07	5.2991e-07	739.35	151.8	5.3513e-07	5.2593e-07	189.2	53.165	41.294	12.015	5.1646e-07	16.65	162.793	119.095	121.165	38.735	170.771	262.505	39.027	45.969	240.959	153.037	45.631	53.134	53.064	60.710	196.867	59.356	-8191	255	
36084.434	1	1	0	0	0.25551	0.26793	0.1621	0.14103	0.2048	0.10527	0.24106	0.26229	0.075667	0.15829	0.26739	0.21641	0.13321	0.056384	0.24653	0.065111	-2.9313	-3.4875	-2.5458	-3.6292	-3.1833	-2.9604	-3.8521	-3.0167	-3.3	-3.5187	-2.8521	-3.3583	-3.3604	-2.9313	-3.5396	-3.0438	31.420	163.502	225.613	385.638	117.649	244.222	46.546	335.000	146.175	48.601	313.799	259.467	234.690	71.351	371.940	272.502	0.00010699	2.6963e-05	5.5312e-05	683.38	1.6353e-06	1.7551e-06	733.36	151.55	1.7412e-06	1.5372e-06	190.69	52.799	41.282	11.84	1.6835e-06	16.598	5.2421e-05	4.8019e-05	1.3376e-05	681.38	5.4241e-07	5.0302e-07	736.46	151.83	5.3513e-07	4.8808e-07	188.79	53.075	41.173	12.022	5.0914e-07	16.636	160.186	114.396	90.561	38.993	251.050	192.996	38.887	46.598	201.608	127.003	45.789	53.313	53.295	61.266	176.109	60.063	-8191	255	
36084.555	1	1	0	0	0.054103	0.2671	0.19373	0.087491	0.24746	0.16678	0.18929	0.1579	0.053772	0.15069	0.25245	0.18706	0.16826	0.1407	0.13949	0.12289	-2.8125	-3.5271	-2.7938	-3.5187	-3.1833	-2.9771	-3.6667	-2.9479	-3.1562	-3.5917	-2.7979	-3.3438	-3.4479	-2.8521	-3.5625	-3.1437	182.107	196.462	151.031	62.593	383.156	285.018	251.349	295.634	263.210	149.873	163.782	253.857	103.777	232.353	325.394	83.049	0.00011032	0.00012866	4.0913e-05	686.21	2.8203e-06	1.9486e-06	740.34	151.96	1.8743e-06	2.216e-06	192.18	52.659	41.063	11.921	3.4659e-07	16.486	5.191e-05	4.5822e-05	1.3327e-05	682.08	5.2888e-07	5.0188e-07	737.62	151.97	5.2748e-07	5.0163e-07	189.39	52.888	41.144	12.021	5.1785e-07	16.642	163.009	246.663	99.677	38.994	194.500	256.974	38.508	46.636	202.356	205.101	45.784	52.855	53.219	60.802	162.327	60.131	-8191	255	
36084.648	1	1	0	0	0.15454	0.13525	0.3302	0.14232	0.18042	0.1435	0.080953	0.076364	0.065697	0.046868	0.12187	0.27226	0.14266	0.20947	0.084687	0.10481	-2.5208	-3.525	-2.8125	-3.2938	-3.4375	-2.7917	-3.6021	-3.2562	-2.8812	-3.5583	-2.7167	-3.1667	-3.2625	-2.6542	-3.2375	-3.2771	215.493	370.382	45.703	199.173	234.377	368.887	34.072	377.187	309.988	46.302	135.458	378.504	363.873	333.840	135.026	43.374	0.00013501	6.2469e-05	5.0527e-05	688.56	1.6042e-06	1.119e-06	737.45	151.47	4.7745e-07	1.4496e-06	190.83	52.487	41.297	11.917	1.4325e-06	16.504	5.1689e-05	4.4627e-05	1.2962e-05	682.01	5.3452e-07	5.1543e-07	735.32	151.87	5.1317e-07	5.041e-07	189.14	52.937	41.133	12.033	5.0904e-07	16.635	164.953	157.653	117.922	38.811	191.029	130.406	38.874	46.455	186.847	214.420	46.376	53.050	53.063	60.666	98.097	59.750	-8191	255	
36084.746	1	1	0	0	0.027685	0.24215	0.24551	0.018004	0.046362	0.045735	0.1478	0.035759	0.1465	0.34966	0.13876	0.14873	0.10028	0.14207	0.067895	0.33409	-2.2729	-3.5333	-2.7979	-3.1229	-3.3375	-2.7479	-3.4333	-3.2292	-2.6958	-3.5312	-3.0479	-2.9708	-3.5938	-2.9104	-3.1771	-3.2687	228.043	95.288	166.076	311.879	320.121	84.495	144.832	174.163	119.097	195.900	43.395	78.214	210.078	378.679	259.959	382.600	0.00012951	0.00013989	5.4146e-05	685.41	1.6629e-06	1.3549e-06	741.14	151.44	1.6265e-06	1.5974e-06	189.98	52.662	40.938	11.904	2.0025e-06	16.52	5.2737e-05	4.6424e-05	1.3327e-05	681.46	5.4251e-07	5.1556e-07	736.63	151.85	5.4083e-07	4.9674e-07	188.97	52.971	41.164	12.035	5.0424e-07	16.639	150.217	126.849	175.805	38.961	203.425	249.026	38.977	46.573	218.530	197.370	45.879	52.744	53.477	60.961	155.373	59.683	-8191	255	
36084.844	1	1	0	0	0.1663	0.1112	0.13641	0.35827	0.091381	0.18612	0.12539	0.1021	0.04331	0.2156	0.12971	0.04163	0.27671	0.31265	0.14436	0.21188	-2.3667	-3.4313	-2.9208	-2.8417	-3.6083	-2.4625	-3.3479	-3.4062	-2.8417	-3.7062	-3.2	-2.9313	-3.4979	-2.9146	-3.2188	-3.4083	55.121	210.635	101.078	386.541	293.612	344.278	320.803	30.713	34.055	187.968	242.697	252.476	374.756	266.268	99.534	346.610	9.7207e-05	0.00014112	6.6265e-05	681.8	2.352e-06	3.7449e-06	734.78	151.6	6.3629e-07	6.8771e-07	189.46	52.731	40.984	11.834	9.1679e-07	16.579	5.185e-05	4.7025e-05	1.2991e-05	680.91	5.2413e-07	5.2096e-07	734.41	151.64	5.2329e-07	4.9813e-07	188.92	52.93	41.143	11.965	5.1391e-07	16.626	161.570	95.931	66.400	38.476	184.373	227.793	38.574	46.548	265.528	282.307	45.684	52.371	53.506	60.407	340.539	60.067	-8191	255	
36084.938	1	1	0	0	0.21305	0.038932	0.25306	0.17502	0.096525	0.033315	0.22541	0.24536	0.13326	0.22794	0.12758	0.083238	0.21526	0.29973	0.17888	0.12694	-2.3083	-3.4021	-3.1083	-2.8417	-3.4938	-2.6813	-3.2396	-3.3604	-2.6708	-3.4583	-3.075	-2.9104	-3.5771	-2.8	-3.0104	-3.6396	280.542	184.087	324.452	137.424	70.908	63.125	252.158	197.241	64.449	51.984	300.338	38.733	366.552	52.929	31.896	119.841	0.0001294	0.00010102	9.2261e-05	684.34	2.0666e-06	1.6249e-06	738.39	150.97	1.5034e-06	5.9836e-07	190.78	52.732	41.481	11.898	1.8079e-06	16.532	5.0902e-05	4.4091e-05	1.2383e-05	679.79	4.9991e-07	5.0102e-07	735.78	151.48	5.1885e-07	4.981e-07	188.59	52.882	41.151	12.036	5.172e-07	16.621	144.621	56.032	112.240	38.724	191.604	219.384	38.724	46.819	170.180	134.906	45.655	52.791	53.442	60.919	210.361	59.933	-8191	255	
36085.035	1	1	0	0	0.108	0.24134	0.10597	0.26823	0.12905	0.049004	0.043549	0.25406	0.070029	0.15069	0.16217	0.0052222	0.19209	0.24584	0.2129	0.12969	-2.2875	-3.2979	-3.1625	-2.7396	-3.6083	-3.0125	-3.0333	-3.4333	-2.7729	-3.2917	-3.2771	-2.825	-3.4917	-3.0438	-2.9792	-3.3958	337.509	46.865	328.059	325.222	286.727	243.942	296.876	336.800	299.793	205.676	31.885	348.220	305.570	235.048	121.993	210.122	0.0001201	0.00016442	6.712e-05	682.47	1.2043e-06	7.133e-07	736.73	151.16	1.4685e-06	9.4259e-07	190.19	52.774	40.824	11.972	1.4728e-06	16.515	5.2605e-05	4.6192e-05	1.2359e-05	681.12	5.307e-07	4.9666e-07	734.01	151.68	5.3448e-07	4.887e-07	189.01	52.874	41.064	12.039	4.9734e-07	16.655	152.712	163.773	156.337	38.486	163.961	278.749	38.581	46.706	177.738	202.749	45.600	53.294	53.653	60.349	225.734	59.587	-8191	255	
36085.156	1	1	0	0	0.11634	0.09798	0.11364	0.086929	0.35205	0.22576	0.13204	0.093144	0.068731	0.12677	0.13193	0.25747	0.15852	0.30954	0.11352	0.16151	-2.4667	-3.0187	-3.3896	-2.6708	-3.3021	-3.2479	-2.9583	-3.6	-2.8854	-3.0708	-3.6021	-2.75	-3.4313	-3.2646	-2.8958	-3.5875	150.087	197.531	243.572	86.898	231.774	260.771	298.902	363.745	101.407	330.565	146.504	283.924	324.405	318.746	382.217	363.288	0.00012699	0.00019127	7.8724e-05	681.96	1.1895e-06	1.1068e-06	733.74	150.9	2.0321e-06	1.9271e-06	191.32	52.383	40.667	11.973	2.427e-06	16.577	5.236e-05	4.7694e-05	1.2832e-05	680.25	5.123e-07	4.9e-07	732.81	151.25	5.3084e-07	4.9637e-07	188.75	52.815	41.018	12.007	5.2382e-07	16.661	155.318	133.509	123.308	38.827	206.400	216.034	38.569	46.654	202.196	175.241	45.952	52.986	52.712	60.811	210.953	59.893	-8191	255	
36085.250	1	1	0	0	0.18366	0.20839	0.11641	0.33065	0.15375	0.27383	0.22287	0.10674	0.13621	0.065504	0.13089	0.20497	0.06127	0.14299	0.22469	0.052498	-2.6021	-3.0583	-3.5062	-2.8167	-3.3458	-3.3292	-2.8542	-3.7021	-3.0146	-3.1208	-3.45	-3.0042	-3.4458	-3.175	-2.7542	-3.5708	202.901	350.073	152.260	52.116	139.305	214.922	89.022	330.089	81.460	374.665	251.172	345.051	180.863	58.045	108.813	365.671	9.3512e-05	0.00020859	4.9154e-05	680.36	3.0934e-06	8.8747e-08	739.01	151.21	1.8787e-06	2.0452e-06	190.08	52.63	41.082	11.958	1.4646e-06	16.517	5.132e-05	4.5924e-05	1.2327e-05	678.73	5.1529e-07	5.0136e-07	735.1	151.73	5.2896e-07	4.968e-07	188.99	52.953	41.144	12.068	5.0723e-07	16.635	155.005	84.433	109.067	38.669	218.287	203.561	38.624	46.539	191.475	85.230	45.719	52.556	53.127	60.529	183.398	59.966	-8191	255	
36085.348	1	1	0	0	0.24857	0.15292	0.24246	0.22638	0.3568	0.22729	0.21979	0.14881	0.090333	0.076358	0.090973	0.16109	0.20617	0.22108	0.038001	0.14289	-2.7771	-2.8833	-3.5187	-2.8646	-3.3125	-3.3167	-2.825	-3.4667	-3.1542	-2.8187	-3.6937	-2.8667	-3.1063	-3.5062	-2.65	-3.5271	132.751	340.585	327.411	362.290	345.385	246.799	328.231	102.251	114.646	186.521	272.603	176.525	245.322	382.868	283.585	151.333	0.00011514	0.0001905	5.0131e-05	683.32	2.6102e-06	2.4099e-06	733.34	151.45	4.5448e-07	7.6738e-07	190.88	52.979	41.008	11.821	1.5893e-06	16.423	5.2755e-05	4.62e-05	1.2639e-05	681.4	5.3036e-07	5.0389e-07	733.47	151.87	4.9945e-07	5.0515e-07	188.6	53.014	41.129	12.001	5.0116e-07	16.64	164.272	114.656	115.343	38.570	219.992	214.851	38.886	46.472	237.520	148.716	45.907	53.297	53.226	61.005	241.212	59.681	-8191	255	
36085.418	1	1	0	0	0.12588	0.23394	0.11451	0.076495	0.2822	0.12813	0.13858	0.24023	0.29272	0.16232	0.20041	0.03974	0.23759	0.11439	0.058554	0.21355	-2.75	-2.7271	-3.5687	-2.7771	-3.0667	-3.5083	-2.8583	-3.4688	-3.4042	-2.8729	-3.5833	-3.025	-3.05	-3.4042	-2.7062	-3.2479	101.239	118.075	335.740	384.961	94.620	114.719	298.495	289.636	349.860	235.126	317.027	336.053	245.166	225.170	346.517	214.343	0.00011562	0.00018517	3.2407e-05	682.88	1.4418e-06	2.2619e-06	736.68	150.72	1.0225e-06	1.887e-06	190.43	52.669	41.132	11.867	1.4179e-06	16.606	5.0388e-05	4.6073e-05	1.2354e-05	679.93	5.0108e-07	4.8573e-07	734.88	151.46	5.0362e-07	4.8379e-07	188.76	52.979	41.141	12.011	4.9423e-07	16.682	152.178	111.926	118.037	38.725	219.719	197.936	38.739	46.332	166.847	146.887	45.796	52.638	53.403	60.420	159.215	59.623	-8191	255	
36085.539	1	1	0	0	0.207	0.21912	0.079647	0.20956	0.041607	0.29973	0.168	0.11952	0.29643	0.16737	0.063214	0.15713	0.17745	0.20912	0.22499	0.037957	-3.0812	-2.8167	-3.5667	-2.9396	-3.0708	-3.5667	-2.8729	-3.2417	-3.4313	-2.8229	-3.4792	-3.0417	-2.9813	-3.7333	-2.6292	-3.3083	273.451	162.581	169.869	354.033	93.158	357.058	339.532	370.656	89.646	242.671	141.979	185.889	296.508	112.505	67.666	219.273	0.00010534	7.1871e-05	3.991e-05	681.72	5.656e-07	1.6036e-06	734.64	151.57	4.387e-07	1.9051e-06	190.8	52.377	40.944	11.864	2.3459e-06	16.658	5.0388e-05	4.7771e-05	1.2527e-05	680.08	5.3163e-07	5.0197e-07	733.57	151.7	5.4955e-07	5.1869e-07	188.91	52.786	41.158	12.016	5.3669e-07	16.682	162.396	94.227	104.457	38.915	252.469	138.556	38.672	46.369	105.159	167.806	46.085	53.117	53.783	60.739	220.976	59.261	-8191	255	
36085.633	1	1	0	0	0.12918	0.2151	0.14182	0.020669	0.15518	0.083683	0.20849	0.22604	0.20775	0.13282	0.10574	0.093841	0.28667	0.22385	0.12601	0.1799	-2.9646	-2.6646	-3.4229	-3.1875	-2.8354	-3.5438	-3.0396	-3.2167	-3.6063	-2.7979	-3.4	-3.3167	-2.8312	-3.5958	-3.0375	-3.0604	338.058	95.537	256.682	251.916	38.734	320.097	340.245	200.311	232.067	130.271	100.377	256.574	42.408	310.820	66.213	110.173	0.00011507	0.00013813	2.041e-05	683.74	2.6118e-06	1.9398e-06	737.97	151.7	1.5002e-06	2.5023e-06	189.97	52.941	40.943	11.924	8.4291e-07	16.529	5.2791e-05	4.8443e-05	1.3034e-05	681.31	5.4426e-07	5.1747e-07	735.1	151.44	5.322e-07	5.1863e-07	188.74	53.104	41.151	12.025	5.2964e-07	16.614	170.582	90.960	127.318	38.904	216.943	213.213	38.910	46.058	238.683	55.277	45.620	52.759	53.284	60.297	202.402	59.621	-8191	255	
36085.730	1	1	0	0	0.089605	0.031723	0.37695	0.22431	0.073311	0.20464	0.056716	0.14878	0.090198	0.22311	0.12472	0.077215	0.12113	0.10204	0.071721	0.252	-3.0875	-2.6625	-3.4062	-3.2896	-2.9188	-3.5792	-3.0021	-3.0625	-3.5146	-2.8979	-3.3583	-3.2354	-2.8937	-3.4729	-3.0208	-2.9562	326.097	168.311	257.315	73.124	255.955	163.093	244.397	323.633	52.518	135.393	325.898	341.884	270.701	188.107	261.149	310.903	0.00012318	0.00022838	1.8389e-05	683.58	1.4603e-06	2.1277e-06	737.27	150.91	1.2763e-06	1.1098e-06	188.93	52.555	40.961	11.952	2.779e-07	16.811	5.2645e-05	4.7915e-05	1.3099e-05	681.08	5.3126e-07	4.9864e-07	735.05	151.29	5.2976e-07	5.3397e-07	188.56	52.886	41.092	12.048	5.3026e-07	16.703	167.413	142.978	172.923	38.808	156.673	158.854	38.894	46.037	180.711	153.965	45.578	52.702	53.344	60.535	209.204	59.736	-8191	255	
36085.824	1	1	0	0	0.25505	0.2431	0.31848	0.035719	0.25225	0.22225	0.16207	0.23391	0.14957	0.30059	0.038619	0.14675	0.18613	0.02721	0.12199	0.12607	-3.1229	-2.8104	-3.2375	-3.3521	-2.7333	-3.6375	-3.15	-2.8667	-3.5208	-2.7812	-3.5271	-3.425	-2.825	-3.4417	-3.2854	-2.9437	267.676	274.836	134.751	352.547	259.160	106.703	35.789	254.164	166.986	182.016	83.261	143.586	320.439	59.065	164.918	211.012	0.00010829	0.00020892	5.8836e-05	685.73	1.0895e-06	7.3202e-07	734.33	152.06	1.1541e-06	8.6995e-07	191.08	52.463	41.224	11.964	1.3793e-06	16.321	5.265e-05	5.1117e-05	1.3584e-05	681.81	5.6449e-07	5.1639e-07	736.33	151.96	5.4595e-07	5.3898e-07	189.29	52.946	41.205	12.074	5.4107e-07	16.575	167.652	185.272	126.738	38.688	170.348	266.837	38.734	46.526	182.136	153.137	45.560	52.951	52.821	60.232	184.383	59.810	-8191	255	
36085.945	1	1	0	0	0.0461	0.1847	0.12758	0.12121	0.20862	0.20363	0.15802	0.20507	0.13694	0.18205	0.16181	0.080329	0.066286	0.068186	0.095587	0.077668	-3.2729	-2.8688	-3.2083	-3.6229	-2.7542	-3.4354	-3.275	-2.9	-3.4167	-2.9271	-2.9708	-3.6333	-2.7771	-3.4042	-3.2521	-2.6146	357.982	102.860	335.022	178.443	374.297	315.007	287.237	219.942	50.445	333.307	193.190	207.892	383.181	311.227	156.817	72.082	0.0001048	0.00010764	5.6992e-05	683.47	1.5071e-06	2.1929e-06	735.83	150.5	2.4506e-06	1.5178e-06	191.03	52.357	40.915	11.934	1.0166e-06	16.65	5.191e-05	4.8592e-05	1.3996e-05	680.99	5.4285e-07	5.3112e-07	735.72	151.22	5.1814e-07	5.1486e-07	188.62	52.956	41.036	12.046	5.2579e-07	16.641	161.385	162.350	88.018	38.898	222.654	197.350	38.996	46.260	210.794	158.568	45.427	52.780	53.478	60.854	271.436	59.757	-8191	255	
36086.020	1	1	0	0	0.185	0.14543	0.077695	0.2401	0.17545	0.16129	0.15797	0.12277	0.1784	0.15137	0.096751	0.29368	0.090989	0.13111	0.43634	0.11105	-3.2458	-3.0438	-3.1604	-3.5208	-2.775	-3.3375	-3.2958	-2.9	-3.5583	-3.1229	-3.1208	-3.4854	-2.8958	-3.0938	-3.4375	-2.8375	47.743	303.643	243.385	307.128	215.413	181.408	287.107	368.392	257.437	174.666	287.456	146.201	78.437	102.569	279.380	115.863	0.000102	0.00020865	9.0726e-05	685.04	4.2582e-07	2.2323e-06	737.42	150.99	2.3537e-06	2.2669e-06	190.88	52.919	41.076	11.736	6.9568e-07	16.617	5.216e-05	4.7915e-05	1.3358e-05	682.29	5.3942e-07	5.217e-07	735.73	151.52	5.2807e-07	5.1158e-07	188.87	53.132	40.979	11.965	5.2838e-07	16.637	151.995	120.352	124.434	38.809	285.709	189.062	39.110	46.088	195.740	187.932	45.565	52.911	53.650	59.670	220.929	59.442	-8191	255	
36086.113	1	1	0	0	0.056448	0.10922	0.13259	0.073925	0.083254	0.081371	0.25619	0.13688	0.11594	0.11756	0.23582	0.159	0.39908	0.25463	0.19005	0.17402	-3.0729	-3.0458	-2.7458	-3.6333	-2.7208	-3.1833	-3.5771	-2.8771	-3.1583	-3.175	-2.9062	-3.6104	-3.0062	-3.0354	-3.4771	-2.6854	270.402	51.726	297.517	331.700	306.409	207.917	323.528	289.541	236.196	353.114	293.898	378.152	34.412	312.170	281.033	332.555	9.0792e-05	0.00029724	5.6565e-05	683.78	1.9907e-06	3.0531e-06	739.04	151.3	1.9705e-06	1.8279e-06	189.64	52.247	41.088	11.885	2.1115e-06	16.495	5.2308e-05	4.8135e-05	1.3343e-05	682.72	5.4245e-07	5.2451e-07	735.86	151.59	5.4101e-07	4.9965e-07	188.99	52.876	41.149	12.046	5.1212e-07	16.602	170.391	189.819	32.079	38.682	223.517	183.389	39.166	46.450	181.384	173.309	45.494	52.683	53.840	60.846	184.110	59.572	-8191	255	
36086.234	1	1	0	0	0.067799	0.21906	0.19229	0.056069	0.0853	0.30031	0.14415	0.11154	0.18575	0.07669	0.23992	0.10474	0.11073	0.13005	0.20468	0.21547	-3.0521	-3.1125	-2.8312	-3.7167	-2.95	-2.9583	-3.625	-2.8229	-3.2854	-3.3875	-2.7917	-3.5479	-2.9104	-2.8521	-3.4896	-2.8917	272.288	313.652	330.543	38.901	150.752	339.452	364.913	344.691	33.800	139.006	42.849	347.771	336.445	35.024	280.329	282.142	0.00012747	0.00015768	3.1835e-05	685.71	1.285e-06	1.1926e-06	736.33	151.42	1.8579e-06	1.8254e-06	190.74	52.214	41.029	11.918	8.123e-07	16.555	5.2753e-05	4.6813e-05	1.3009e-05	683	5.3859e-07	5.2541e-07	735.63	151.67	5.3223e-07	5.0156e-07	189.14	52.689	41.005	12.032	5.0633e-07	16.641	158.832	73.759	145.373	38.938	173.848	190.695	39.128	46.462	209.662	113.189	45.596	52.970	53.306	60.661	166.015	59.304	-8191	255	
36086.328	1	1	0	0	0.07867	0.17621	0.057707	0.12634	0.27883	0.17431	0.32201	0.13096	0.14133	0.077471	0.12024	0.12092	0.22614	0.14863	0.24457	0.23867	-2.9667	-3.3667	-2.5854	-3.625	-3.0958	-2.9333	-3.6146	-2.7625	-3.1354	-3.5979	-2.8521	-3.4604	-3.2271	-2.925	-3.5438	-2.7687	304.506	155.648	139.578	352.494	196.954	119.958	365.592	338.589	41.080	283.695	186.126	278.748	150.077	74.097	278.767	270.330	0.00012276	0.00016183	7.7922e-05	685.4	1.5281e-06	2.1531e-06	742.64	151.58	1.6259e-06	1.5888e-06	190.69	52.549	41.002	11.959	5.0377e-07	16.593	5.2333e-05	4.6819e-05	1.3746e-05	682.2	5.5185e-07	5.1012e-07	736.49	151.53	5.4222e-07	5.1628e-07	188.93	52.835	41.17	12.053	5.1936e-07	16.657	149.743	164.689	91.995	38.735	194.405	170.784	38.949	46.418	188.397	136.552	45.947	53.072	53.433	60.400	65.272	59.399	-8191	255	
36086.426	1	1	0	0	0.10377	0.083032	0.18634	0.18284	0.20924	0.14535	0.079835	0.15784	0.098975	0.28366	0.11875	0.085783	0.16032	0.18483	0.22972	0.14092	-2.8104	-3.4854	-2.7854	-3.5542	-3.2104	-2.7979	-3.7188	-2.8729	-3.0958	-3.5146	-2.9708	-3.5187	-3.3208	-2.7625	-3.5396	-2.9104	175.243	47.771	77.392	36.444	34.716	299.532	222.775	70.707	94.483	221.200	231.299	54.365	223.487	344.686	158.392	259.297	0.00012236	0.00026228	2.2792e-05	683.88	1.8884e-06	2.2561e-06	741.06	150.23	6.5785e-07	1.1499e-06	190.15	52.621	41.114	11.855	1.1285e-06	16.542	5.2435e-05	4.7697e-05	1.3147e-05	681.91	5.274e-07	5.1787e-07	736.77	151.15	5.2319e-07	5.1736e-07	188.66	53.083	41.142	12.003	5.2767e-07	16.642	165.600	143.515	177.239	38.607	213.448	210.731	39.010	46.224	204.204	88.814	45.468	52.835	53.757	60.034	284.313	59.669	-8191	255	
36086.547	1	1	0	0	0.065205	0.14088	0.24757	0.06338	0.16261	0.099868	0.023009	0.24217	0.3133	0.22472	0.14021	0.085138	0.16196	0.16262	0.11808	0.091598	-2.4437	-3.4479	-2.7896	-3.1917	-3.2333	-2.8125	-3.5917	-3.025	-3.0542	-3.7542	-2.9375	-3.3583	-3.3937	-2.7271	-3.5687	-3.2583	386.030	122.654	209.891	305.813	33.361	262.021	143.088	69.572	317.761	241.269	383.921	67.332	210.659	352.652	351.622	352.880	8.2622e-05	9.977e-05	4.223e-05	684.99	2.1466e-06	2.4156e-06	738.37	150.3	1.1815e-06	2.4434e-06	189.78	52.739	41.252	11.875	1.5457e-06	16.608	5.3445e-05	4.6404e-05	1.3602e-05	681.43	5.4651e-07	5.3507e-07	736.75	151.31	5.4857e-07	5.1035e-07	189.18	52.87	41.259	12.046	5.2253e-07	16.626	169.713	152.141	75.446	38.567	204.484	178.591	39.004	46.336	220.188	178.719	45.705	52.890	53.252	60.321	211.055	59.616	-8191	255	
36086.645	1	1	0	0	0.25179	0.31816	0.13171	0.11064	0.098725	0.22548	0.054087	0.085751	0.13173	0.29331	0.2063	0.10487	0.091977	0.1645	0.061354	0.018868	-2.6792	-3.6396	-2.9271	-3.1896	-3.3854	-2.6667	-3.6125	-3.1688	-2.6271	-3.6729	-2.9167	-3.0896	-3.5729	-2.7208	-3.4354	-3.2875	317.647	278.526	153.123	137.734	253.095	104.217	52.769	48.533	318.822	335.792	96.603	149.700	160.672	356.174	348.158	222.591	0.00011031	0.00021488	7.2533e-05	687.3	1.1853e-06	2.1822e-06	734.67	150.77	1.3929e-06	2.5497e-06	189.73	52.633	41.177	11.909	1.7793e-06	16.352	5.3733e-05	4.8646e-05	1.3459e-05	682.61	5.3332e-07	5.3004e-07	734.7	151.26	5.4101e-07	5.0685e-07	188.72	52.817	41.204	12.014	5.1449e-07	16.595	169.224	182.312	146.978	38.646	247.456	241.195	38.908	46.645	195.866	164.575	45.783	53.115	53.541	61.049	219.984	59.586	-8191	255	
36086.715	1	1	0	0	0.11599	0.26904	0.09289	0.068232	0.12265	0.076652	0.27872	0.20302	0.24141	0.068847	0.28386	0.10814	0.065581	0.10197	0.11144	0.10847	-2.4708	-3.4479	-2.9875	-3.1583	-3.4896	-2.8271	-3.5167	-3.4333	-2.7354	-3.4771	-2.8521	-2.9771	-3.4396	-2.7438	-3.2083	-3.5521	147.618	51.960	247.281	302.842	270.986	65.425	31.521	339.179	161.143	150.513	134.171	124.505	314.306	30.693	377.499	225.464	0.00012409	0.00011434	6.1414e-05	686.07	1.3228e-06	9.2822e-07	735.73	151.36	1.222e-06	1.9022e-06	191.2	52.529	40.91	12.051	1.1837e-06	16.519	5.306e-05	4.8595e-05	1.3686e-05	681.96	5.3437e-07	5.2235e-07	735.91	151.29	5.4934e-07	5.1149e-07	188.76	52.983	41.033	12.066	5.1573e-07	16.599	156.616	80.641	159.502	38.537	234.115	183.827	38.837	46.609	265.751	133.534	45.560	52.628	53.534	60.755	188.610	59.565	-8191	255	
36086.836	1	1	0	0	0.080003	0.13142	0.1683	0.15399	0.14493	0.16879	0.20797	0.19658	0.41643	0.072765	0.25021	0.22087	0.10754	0.11238	0.15843	0.29555	-2.5	-3.4938	-3.1542	-3.1042	-3.4521	-3.025	-3.275	-3.3542	-2.7542	-3.4583	-3.175	-2.7875	-3.4813	-2.9	-3.0521	-3.4583	202.942	105.381	45.955	311.027	129.271	128.085	242.929	363.411	134.578	316.852	67.049	353.550	328.510	62.392	379.745	203.692	0.00011412	0.00013055	4.4082e-05	685.98	7.6181e-07	2.8226e-07	737.37	150.82	8.2887e-07	2.8338e-06	190.13	52.552	40.911	11.927	2.7892e-06	16.544	5.2184e-05	4.6613e-05	1.3198e-05	683.36	5.2e-07	5.1849e-07	735.5	151.35	5.3772e-07	5.1239e-07	188.17	52.924	41.054	12.023	5.2016e-07	16.587	162.110	127.806	160.277	38.741	217.814	232.931	38.644	46.498	179.306	142.808	45.840	52.730	53.362	60.802	218.823	59.633	-8191	255	
36086.930	1	1	0	0	0.091706	0.22521	0.18182	0.10979	0.34668	0.13333	0.26011	0.06982	0.07053	0.29912	0.27658	0.15154	0.12213	0.20011	0.11763	0.067997	-2.4125	-3.4062	-3.2375	-2.7875	-3.4896	-2.8729	-3.2146	-3.6562	-2.7854	-3.5021	-3.2271	-2.8271	-3.7313	-3.0396	-2.6792	-3.6167	150.381	202.045	251.144	351.982	230.828	331.054	328.132	348.326	190.882	265.046	379.818	68.561	347.650	258.268	45.448	124.227	0.00011203	9.385e-05	2.6399e-05	688.08	5.3166e-07	1.4944e-06	739.11	151.14	1.5254e-06	6.7723e-07	190.6	52.459	40.931	11.91	1.4703e-06	16.691	5.2572e-05	4.7022e-05	1.2735e-05	681.99	5.2765e-07	5.1361e-07	736	151.18	5.1731e-07	5.0382e-07	188.51	52.792	41.077	11.989	5.1665e-07	16.656	153.904	116.635	380.001	38.782	231.522	124.422	39.019	46.356	216.078	93.215	45.587	53.030	53.487	60.739	214.032	60.208	-8191	255	
36087.027	1	1	0	0	0.23024	0.084359	0.12434	0.182	0.20616	0.23948	0.037986	0.14716	0.17876	0.28373	0.14703	0.12668	0.11601	0.21947	0.21392	0.22316	-2.4271	-3.2479	-3.4125	-2.8458	-3.5292	-2.9729	-3.2521	-3.3646	-2.8167	-3.2458	-3.525	-2.6542	-3.3583	-3.1188	-2.9062	-3.6979	249.807	355.596	218.349	322.686	310.944	311.659	227.864	386.799	100.928	55.719	255.221	285.136	254.503	196.428	60.471	240.579	0.00013187	7.3534e-05	4.5842e-05	685.79	1.3339e-06	1.5046e-06	735.84	151.54	1.0605e-06	1.8851e-06	191.17	52.716	40.885	11.751	1.089e-06	16.465	5.2106e-05	4.7042e-05	1.2556e-05	682.26	5.2463e-07	5.1753e-07	735.37	151.37	5.2908e-07	4.9495e-07	188.7	52.821	40.967	11.964	5.0104e-07	16.622	160.056	85.918	104.179	38.716	242.024	183.654	38.577	46.250	260.263	158.035	45.710	52.906	53.287	60.297	164.271	59.350	-8191	255	
36087.125	1	1	0	0	0.24439	0.057595	0.16856	0.12925	0.12494	0.12722	0.082114	0.049344	0.21642	0.069875	0.1558	0.02461	0.080251	0.35786	0.1763	0.25533	-2.4125	-3.2687	-3.6625	-2.8792	-3.4396	-3.0854	-3.0646	-3.5208	-2.9042	-3.1458	-3.6375	-2.8396	-3.3604	-3.4042	-2.7812	-3.6271	144.822	372.824	353.046	371.947	144.519	65.929	101.646	50.049	187.380	144.426	357.316	125.582	360.459	89.830	287.519	191.007	0.00013363	0.00010258	4.664e-05	684.23	2.8459e-06	1.281e-06	734.68	151.04	1.6799e-06	2.3165e-06	190.63	52.716	41.181	12.044	1.0634e-06	16.497	5.15e-05	4.6054e-05	1.2763e-05	681.28	5.2509e-07	4.9639e-07	734.75	151.39	5.2165e-07	5.2695e-07	188.77	52.86	41.172	12.045	5.0917e-07	16.619	159.824	104.982	152.281	38.610	238.059	131.207	38.801	46.494	184.914	197.644	45.932	52.806	53.687	60.367	220.672	59.741	-8191	255	
36087.242	1	1	0	0	0.33079	0.039745	0.14324	0.014461	0.13943	0.23392	0.099019	0.070661	0.012471	0.18933	0.035335	0.069587	0.036601	0.061042	0.25423	0.065424	-2.6604	-3.0771	-3.4521	-2.8729	-3.3167	-3.1583	-2.9437	-3.6521	-3.125	-3.0021	-3.6958	-2.9313	-3.3438	-3.3583	-2.8167	-3.4667	239.495	122.209	69.987	202.937	245.634	382.014	169.942	117.837	362.163	280.438	263.858	95.781	220.223	79.823	357.253	245.764	0.00010012	8.0502e-05	3.6737e-05	683.36	7.9539e-07	1.569e-06	739.04	151.15	1.702e-06	1.5084e-06	191.22	52.756	41.245	11.836	2.4181e-06	16.369	5.2438e-05	4.7127e-05	1.3023e-05	680.86	5.4349e-07	5.096e-07	735.42	151.26	5.4326e-07	5.3663e-07	189.04	52.931	41.217	11.976	5.2715e-07	16.537	145.089	168.687	76.539	38.542	164.630	204.461	38.721	46.456	193.141	172.795	45.809	52.824	53.892	60.679	224.528	59.764	-8191	255	
36087.312	1	1	0	0	0.16279	0.24899	0.10847	0.094049	0.18631	0.1915	0.089048	0.17971	0.099016	0.16735	0.20375	0.12531	0.23747	0.065265	0.23104	0.15869	-2.7313	-2.8771	-3.3	-2.7917	-3.3271	-3.4542	-2.7521	-3.3438	-3.0167	-2.8521	-3.5917	-2.7458	-3.1979	-3.4667	-2.7396	-3.4042	116.379	378.430	159.719	245.975	340.465	258.175	369.700	333.397	139.003	286.297	325.074	316.580	30.039	387.062	364.276	295.920	0.00013669	0.0002009	5.3001e-05	681.24	2.3219e-06	2.0888e-06	736.24	149.91	1.9359e-06	2.9715e-06	191.12	52.669	41.247	11.972	1.9962e-06	16.488	5.3397e-05	4.8604e-05	1.3092e-05	680.64	5.569e-07	5.0874e-07	734.73	150.81	5.2273e-07	5.1671e-07	189.36	52.831	41.106	12.041	5.2656e-07	16.594	166.489	95.190	124.490	38.342	202.995	221.400	38.690	46.413	232.555	248.847	45.680	52.730	52.969	60.289	196.181	59.621	-8191	255	
36087.410	1	1	0	0	0.21765	0.089036	0.24702	0.14414	0.068766	0.19046	0.1277	0.18485	0.14764	0.16351	0.18761	0.3027	0.21249	0.079133	0.089367	0.069406	-3.1104	-2.7438	-3.4979	-3.025	-3.0771	-3.55	-2.9083	-3.3375	-3.2604	-2.9229	-3.6771	-3.2625	-2.9271	-3.4167	-2.6271	-3.3375	242.866	157.107	110.082	66.101	238.688	192.132	33.435	219.898	217.089	358.836	103.091	322.191	211.066	276.587	106.260	302.215	0.00011614	0.00018335	7.2307e-05	687.44	4.0844e-07	3.7795e-06	736.73	150.85	7.7263e-07	9.0731e-07	189.32	52.536	41.07	11.898	9.7128e-07	16.392	5.1996e-05	4.8525e-05	1.3384e-05	681.73	5.4411e-07	5.0241e-07	733.15	151.33	5.2751e-07	5.2627e-07	188.33	52.857	40.993	12.03	5.4411e-07	16.588	159.882	95.888	67.279	38.793	225.569	241.364	38.738	46.502	168.555	114.940	45.392	53.102	52.792	60.760	228.938	59.692	-8191	255	
36087.508	1	1	0	0	0.1693	0.21209	0.22886	0.18096	0.037311	0.27252	0.1574	0.19654	0.18712	0.16814	0.2465	0.10838	0.12945	0.087545	0.13043	0.093435	-3.0271	-2.6167	-3.4396	-3	-2.925	-3.6333	-2.95	-3.2167	-3.4313	-2.7208	-3.3979	-3.1833	-2.8146	-3.6875	-2.8667	-3.0333	198.705	40.205	333.463	381.596	152.237	81.510	42.785	381.868	315.704	95.735	321.650	252.278	29.355	198.974	161.416	170.845	0.00011529	0.00012849	2.9092e-05	682.63	1.3559e-06	1.5903e-06	735.06	150	8.7411e-08	2.1511e-06	191.1	52.436	40.516	11.921	5.0911e-07	16.373	5.1821e-05	4.8971e-05	1.3358e-05	680.95	5.492e-07	5.1852e-07	734.68	150.88	5.3016e-07	5.2877e-07	188.29	52.719	41.019	12.031	5.3552e-07	16.552	185.698	81.090	127.262	38.853	243.241	240.804	38.796	46.478	74.289	187.532	45.919	53.068	53.659	60.838	219.551	59.780	-8191	255	
36087.629	1	1	0	0	0.21179	0.14411	0.10957	0.10391	0.20661	0.14295	0.038841	0.10348	0.082685	0.17342	0.29217	0.1426	0.20804	0.35218	0.16285	0.13675	-3.025	-2.6604	-3.3979	-3.3646	-2.7458	-3.6125	-3.0604	-3.0125	-3.4979	-2.6937	-3.4521	-3.2562	-2.7042	-3.5	-2.9396	-3.1	36.714	311.425	354.864	371.762	367.129	321.377	387.255	354.550	116.587	125.534	354.439	36.804	52.630	224.563	325.605	156.712	0.0001227	0.0002398	3.8532e-05	685.59	2.797e-06	1.3883e-06	740.81	150.47	6.4467e-07	1.2101e-06	189.64	52.758	41.185	11.857	9.9637e-07	16.596	5.4145e-05	5.0233e-05	1.3334e-05	681.57	5.5474e-07	5.2497e-07	736.25	151.22	5.2973e-07	5.3981e-07	188.03	52.883	41.13	12.035	5.2515e-07	16.582	163.122	137.744	145.050	38.750	167.600	211.599	38.712	46.428	178.013	91.844	45.570	53.190	53.374	60.222	241.288	59.956	-8191	255	
36087.723	1	1	0	0	0.19542	0.18757	0.089589	0.019316	0.13914	0.039486	0.1328	0.34542	0.11924	0.064542	0.10696	0.22324	0.12046	0.063561	0.093966	0.18214	-3.4354	-2.6271	-3.0896	-3.4771	-2.8104	-3.6333	-3.1063	-3.1562	-3.65	-2.8458	-3.2896	-3.5958	-2.8646	-3.5854	-3.1292	-3.0521	133.748	245.706	385.960	378.895	299.809	233.691	268.780	208.820	141.528	111.069	364.012	285.212	373.403	114.812	272.161	294.743	9.0665e-05	0.00014561	6.0458e-05	683.17	1.4534e-06	2.9635e-06	739.26	149.59	1.389e-06	2.777e-06	190.51	52.516	40.98	11.966	1.768e-06	16.479	5.2327e-05	5.0442e-05	1.3316e-05	681.48	5.5962e-07	5.2451e-07	736.29	151.04	5.4271e-07	5.3805e-07	188.66	52.831	41.098	12.03	5.2444e-07	16.571	149.608	127.244	120.905	39.256	209.964	172.739	39.069	46.378	186.773	136.181	44.998	52.957	53.680	60.678	182.457	59.831	-8191	255	
36087.820	1	1	0	0	0.053119	0.2832	0.11637	0.27397	0.1274	0.20019	0.22599	0.17009	0.36682	0.22468	0.084464	0.12639	0.14909	0.12734	0.10782	0.2174	-3.2979	-2.8979	-3.2479	-3.4021	-2.7687	-3.3646	-3.2771	-3.1042	-3.6167	-2.9542	-3.2687	-3.4542	-2.7062	-3.4229	-3.2812	-2.8583	50.411	354.058	61.247	45.003	308.400	366.465	35.268	343.817	159.850	107.918	115.615	252.265	37.508	141.351	125.677	349.168	0.00010407	0.00019605	6.9361e-05	683.46	1.8345e-06	4.7952e-07	730.13	149.95	2.1469e-06	1.1547e-06	189.51	51.971	41.095	11.864	1.5002e-06	16.542	5.3639e-05	4.9541e-05	1.328e-05	680.97	5.6436e-07	5.3069e-07	733.32	150.74	5.4302e-07	5.3251e-07	188.6	52.696	41.086	12.019	5.2013e-07	16.576	158.065	182.598	376.434	38.714	203.476	172.051	38.884	45.988	202.239	208.045	45.466	52.839	52.903	61.134	192.681	59.503	-8191	255	
36087.914	1	1	0	0	0.22561	0.19011	0.14693	0.16828	0.093539	0.28622	0.17997	0.059726	0.14135	0.25391	0.10655	0.088365	0.13285	0.054807	0.22311	0.15798	-3.0979	-3.1312	-3.0146	-3.6021	-2.8042	-3.4417	-3.4375	-2.9688	-3.4083	-3.0917	-3.0062	-3.5833	-2.8708	-3.2833	-3.2812	-2.8667	182.912	63.054	80.164	356.139	186.813	73.079	138.661	57.931	72.546	325.473	165.350	216.806	266.276	208.886	154.080	285.658	0.00011848	0.00014612	7.1734e-05	683.84	8.2527e-07	2.4845e-06	736.94	150.79	1.5886e-06	2.4936e-06	189.32	52.705	40.633	11.823	8.2066e-07	16.478	5.2618e-05	4.8135e-05	1.326e-05	680.82	5.4263e-07	5.0741e-07	734.74	151.16	5.2822e-07	5.433e-07	188.34	52.909	40.983	12.003	5.3506e-07	16.617	159.607	84.538	111.510	38.698	118.591	195.603	38.779	46.158	207.736	223.362	45.679	52.808	53.795	60.241	169.225	59.456	-8191	255	
36088.012	1	1	0	0	0.21721	0.23931	0.14967	0.035299	0.21518	0.043099	0.34723	0.15676	0.10777	0.11602	0.041758	0.068434	0.14746	0.11033	0.1449	0.12693	-3.2458	-3.0729	-2.8021	-3.6646	-2.775	-3.25	-3.4083	-2.825	-3.5687	-3.2687	-2.8917	-3.5875	-2.8063	-3.1708	-3.5292	-2.7938	63.612	356.542	53.143	270.439	338.818	313.291	310.410	344.288	198.990	380.975	206.667	379.379	274.569	74.758	302.500	164.246	0.00011958	0.00015641	3.1986e-05	680.82	2.0379e-06	2.5808e-06	742.03	150.54	1.2314e-06	1.0881e-06	190.93	52.61	40.761	11.964	9.7723e-07	16.457	5.4487e-05	4.7949e-05	1.3367e-05	681.05	5.4442e-07	5.2071e-07	736.47	150.99	5.3352e-07	5.2608e-07	188.62	52.818	40.952	12.026	5.197e-07	16.61	156.380	107.446	187.641	38.712	246.692	242.329	38.651	46.283	245.449	88.216	45.432	53.083	53.756	60.410	173.852	59.394	-8191	255	
36088.109	1	1	0	0	0.13698	0.018591	0.10728	0.36978	0.033619	0.056935	0.11371	0.075075	0.073171	0.074146	0.31051	0.11058	0.22525	0.2658	0.054576	0.27574	-3.0563	-3.3771	-2.8521	-3.7417	-3.0438	-3.2	-3.8667	-3.0417	-3.2958	-3.3688	-2.7167	-3.5042	-3.1312	-3.05	-3.5917	-2.6146	133.376	97.216	182.720	376.363	133.003	260.847	357.268	253.866	63.542	347.989	29.284	141.956	341.092	304.534	302.524	310.367	0.00013417	0.00023737	6.9201e-05	683.39	9.0948e-07	9.4654e-07	739.16	151	1.2096e-06	1.7892e-06	189.33	52.625	40.616	11.936	9.5353e-07	16.436	5.2734e-05	4.7596e-05	1.3869e-05	680.2	5.5552e-07	5.1679e-07	736.04	151.04	5.457e-07	5.1365e-07	188.07	52.938	40.929	12.006	5.3617e-07	16.635	162.382	107.255	70.250	38.443	195.278	194.691	38.804	46.216	201.786	166.355	45.551	53.021	53.320	60.503	191.295	60.056	-8191	255	
36088.227	1	1	0	0	0.1244	0.019501	0.15129	0.13552	0.22919	0.35994	0.15333	0.26453	0.073011	0.0058474	0.1094	0.15266	0.090908	0.25569	0.23153	0.24327	-2.825	-3.3646	-2.8542	-3.6729	-2.9417	-3.0042	-3.5875	-2.9813	-3.2792	-3.5062	-2.8396	-3.6271	-3.1771	-2.7375	-3.5979	-2.8688	63.385	119.071	136.666	278.920	133.312	244.456	381.087	343.977	299.668	93.976	386.855	76.845	312.638	118.966	228.465	284.152	0.00012209	0.00017986	6.892e-05	684.85	8.1931e-07	2.6897e-06	735.87	149.79	6.6018e-07	2.0762e-06	188.67	52.283	40.991	11.894	6.6212e-07	16.343	5.2079e-05	4.9205e-05	1.3522e-05	680.23	5.4685e-07	5.2238e-07	733.76	150.72	5.6953e-07	5.2021e-07	188	52.752	41.131	12.028	5.1819e-07	16.561	163.267	48.538	86.361	38.746	211.998	184.757	38.936	46.254	217.923	149.673	45.998	52.792	53.360	60.583	195.076	59.876	-8191	255	
36088.324	1	1	0	0	0.24549	0.19477	0.15439	0.15091	0.25057	0.047974	0.13761	0.14029	0.18494	0.036714	0.067087	0.18223	0.17715	0.12841	0.077356	0.10714	-2.8917	-3.4646	-2.825	-3.5938	-3.2646	-2.9396	-3.7292	-2.9604	-3.0583	-3.5854	-2.7333	-3.4437	-3.2875	-2.8896	-3.5062	-3.0458	275.771	67.180	182.322	79.096	156.813	241.999	296.598	383.156	264.745	212.246	38.748	298.873	65.901	137.226	333.688	298.286	0.00010695	0.00018229	3.7521e-05	682.74	6.3459e-07	1.1352e-06	737.1	151.58	1.693e-06	2.3981e-06	189.97	52.32	40.857	11.806	7.255e-07	16.556	5.3135e-05	4.7932e-05	1.4043e-05	681.08	5.5789e-07	5.4165e-07	735.26	151.29	5.6697e-07	5.3511e-07	188.38	52.801	40.977	11.95	5.302e-07	16.601	159.915	110.702	156.684	38.806	158.796	258.129	38.877	46.319	189.595	187.052	45.911	52.859	53.891	60.486	252.888	59.748	-8191	255	
36088.418	1	1	0	0	0.061619	0.12204	0.0075065	0.23227	0.13792	0.034049	0.092497	0.16347	0.14127	0.10858	0.14982	0.26241	0.32879	0.27291	0.070117	0.1787	-2.6729	-3.6833	-2.725	-3.4333	-3.3479	-2.7146	-3.8375	-2.9542	-3.0458	-3.5521	-2.8042	-3.4583	-3.4354	-2.9104	-3.5417	-3.0792	169.608	64.819	323.135	35.763	220.193	50.105	222.792	296.362	243.691	36.913	357.625	354.397	354.428	386.718	282.382	28.960	0.00010292	4.7926e-05	3.7951e-05	681.26	1.7351e-06	9.7939e-07	735.85	150.33	1.0181e-06	1.1329e-06	190.02	52.388	40.989	11.814	1.9546e-06	16.385	5.3968e-05	4.7361e-05	1.405e-05	679.96	5.6217e-07	5.3022e-07	734.83	150.98	5.7018e-07	5.2989e-07	188.22	52.817	41.046	11.997	5.2074e-07	16.571	155.920	179.939	107.714	38.654	154.302	183.185	38.701	46.546	151.997	199.089	45.723	52.672	52.897	60.361	214.413	59.606	-8191	255	
36088.516	1	1	0	0	0.10737	0.051891	0.27995	0.11396	0.11821	0.047562	0.11958	0.13877	0.20583	0.10662	0.29221	0.20293	0.24543	0.14748	0.081752	0.12304	-2.5812	-3.5438	-2.7958	-3.2896	-3.5229	-2.825	-3.6542	-3.1833	-3.0021	-3.7958	-2.7417	-3.4021	-3.7646	-2.8521	-3.4625	-3.25	113.371	153.486	112.679	308.844	114.059	174.512	302.650	133.488	250.842	202.896	353.997	354.661	188.419	116.562	304.816	66.724	0.00012625	0.00018818	6.3907e-05	682.99	2.3389e-06	1.1863e-06	736.53	150.49	1.7035e-06	3.1972e-06	189.07	52.455	41.117	11.817	9.0035e-07	16.482	5.3477e-05	4.7932e-05	1.3504e-05	679.59	5.6054e-07	5.1577e-07	734.45	150.58	5.5254e-07	5.1251e-07	187.77	52.775	40.976	11.981	5.2949e-07	16.6	156.461	161.871	126.361	38.409	205.729	216.308	38.815	46.965	188.006	196.691	46.033	52.735	52.955	60.412	204.122	59.790	-8191	255	
36088.609	1	1	0	0	0.088481	0.045439	0.03935	0.053593	0.039632	0.050862	0.041593	0.10065	0.19525	0.19232	0.10709	0.36332	0.16498	0.14312	0.24313	0.099336	-2.4542	-3.7417	-2.9521	-3.125	-3.5812	-2.85	-3.55	-3.2917	-2.8292	-3.7208	-3.05	-2.9417	-3.5396	-2.7646	-3.3521	-3.4458	99.749	40.793	276.695	58.188	103.145	147.335	246.655	103.939	68.632	281.064	386.178	309.966	49.937	340.115	44.928	167.439	0.00014239	3.2132e-05	3.8294e-05	680.35	1.2994e-06	2.1878e-06	735.51	149.89	9.0726e-07	6.3377e-07	188.15	52.388	40.968	11.88	2.0107e-06	16.497	5.2012e-05	4.6336e-05	1.3956e-05	680.33	5.6146e-07	5.1886e-07	734.21	150.84	5.5005e-07	5.1619e-07	187.97	52.728	41.021	11.978	5.3395e-07	16.564	162.310	40.953	134.494	38.681	148.426	213.990	38.800	46.350	167.080	169.627	45.819	53.025	53.025	60.639	185.057	60.000	-8191	255	
#DATA ENDS
