BOXY.EXE: ISS Imagent and Oximeter Data Acquisition Program Version 0.80
Ascii Record File

#ACQ INFORMATION
2  Detector Channels 
16  External MUX Channels 
1  Auxiliary Channels 
5000  Waveform (CCF) Frequency (Hz)
1  Waveforms Skipped 
30  Waveforms Averaged 
1  Cycles Averaged 
16  Acquisitions per Waveform 
10.0806  Updata Rate (Hz) 

#FILE INFORMATION
TRUE -- External MUX Channel results are PARSED.
FALSE -- AC DC and Phase are NOT grouped.
TRUE -- Companion Program Settings File CREATED.
FALSE -- AC data not excluded
FALSE -- DC data not excluded
FALSE -- Phase data not excluded
FALSE -- Auxillary Chn. data not excluded
Tab delimiters

#CALIBRATION STATE
TRUE -- Waveform Calibration Values APPLIED.


#AUX CALIBRATION VALUES
Val Type	aux-1	

Term	1.0000e+00	
Factor	0.0000e+00	


#WF CALIBRATION VALUES
A = Detector Channel
Val Type	A-AC1	A-AC2	A-AC3	A-AC4	A-AC5	A-AC6	A-AC7	A-AC8	A-AC9	A-AC10	A-AC11	A-AC12	A-AC13	A-AC14	A-AC15	A-AC16	A-DC1	A-DC2	A-DC3	A-DC4	A-DC5	A-DC6	A-DC7	A-DC8	A-DC9	A-DC10	A-DC11	A-DC12	A-DC13	A-DC14	A-DC15	A-DC16	A-Ph1	A-Ph2	A-Ph3	A-Ph4	A-Ph5	A-Ph6	A-Ph7	A-Ph8	A-Ph9	A-Ph10	A-Ph11	A-Ph12	A-Ph13	A-Ph14	A-Ph15	A-Ph16	

Term	0.00000e+00	0.00000e+00	0.00000e+00	0.00000e+00	0.00000e+00	0.00000e+00	0.00000e+00	0.00000e+00	0.00000e+00	0.00000e+00	0.00000e+00	0.00000e+00	0.00000e+00	0.00000e+00	0.00000e+00	0.00000e+00	0.00000e+00	0.00000e+00	0.00000e+00	0.00000e+00	0.00000e+00	0.00000e+00	0.00000e+00	0.00000e+00	0.00000e+00	0.00000e+00	0.00000e+00	0.00000e+00	0.00000e+00	0.00000e+00	0.00000e+00	0.00000e+00	0.00000e+00	0.00000e+00	0.00000e+00	0.00000e+00	0.00000e+00	0.00000e+00	0.00000e+00	0.00000e+00	0.00000e+00	0.00000e+00	0.00000e+00	0.00000e+00	0.00000e+00	0.00000e+00	0.00000e+00	0.00000e+00	
Factor	1.00000e+00	1.00000e+00	1.00000e+00	1.00000e+00	1.00000e+00	1.00000e+00	1.00000e+00	1.00000e+00	1.00000e+00	1.00000e+00	1.00000e+00	1.00000e+00	1.00000e+00	1.00000e+00	1.00000e+00	1.00000e+00	1.00000e+00	1.00000e+00	1.00000e+00	1.00000e+00	1.00000e+00	1.00000e+00	1.00000e+00	1.00000e+00	1.00000e+00	1.00000e+00	1.00000e+00	1.00000e+00	1.00000e+00	1.00000e+00	1.00000e+00	1.00000e+00	X	X	X	X	X	X	X	X	X	X	X	X	X	X	X	X	

B = Detector Channel
Val Type	B-AC1	B-AC2	B-AC3	B-AC4	B-AC5	B-AC6	B-AC7	B-AC8	B-AC9	B-AC10	B-AC11	B-AC12	B-AC13	B-AC14	B-AC15	B-AC16	B-DC1	B-DC2	B-DC3	B-DC4	B-DC5	B-DC6	B-DC7	B-DC8	B-DC9	B-DC10	B-DC11	B-DC12	B-DC13	B-DC14	B-DC15	B-DC16	B-Ph1	B-Ph2	B-Ph3	B-Ph4	B-Ph5	B-Ph6	B-Ph7	B-Ph8	B-Ph9	B-Ph10	B-Ph11	B-Ph12	B-Ph13	B-Ph14	B-Ph15	B-Ph16	

Term	0.00000e+00	0.00000e+00	0.00000e+00	0.00000e+00	0.00000e+00	0.00000e+00	0.00000e+00	0.00000e+00	0.00000e+00	0.00000e+00	0.00000e+00	0.00000e+00	0.00000e+00	0.00000e+00	0.00000e+00	0.00000e+00	0.00000e+00	0.00000e+00	0.00000e+00	0.00000e+00	0.00000e+00	0.00000e+00	0.00000e+00	0.00000e+00	0.00000e+00	0.00000e+00	0.00000e+00	0.00000e+00	0.00000e+00	0.00000e+00	0.00000e+00	0.00000e+00	-7.80260e+01	-1.58627e+02	-1.69044e+02	-1.83775e+02	-9.56680e+01	-8.10641e+01	-1.58123e+02	-1.62015e+02	-7.06761e+01	-1.03333e+02	-1.70742e+02	-1.70756e+02	-1.78698e+02	-1.77014e+02	-1.06885e+02	-1.49823e+02	
Factor	1.89549e-05	9.66343e-05	3.90588e-05	1.69121e-01	1.09656e-06	1.06494e-06	1.87830e-01	6.00408e-02	1.11570e-06	1.14070e-06	9.95031e-02	3.37985e-02	3.11028e-02	1.10307e-02	1.00689e-06	1.56862e-02	6.37178e-07	6.49506e-07	1.80709e-07	7.65429e-02	7.12655e-09	7.12169e-09	7.97188e-02	2.69659e-02	7.12101e-09	7.12221e-09	4.22235e-02	1.44095e-02	1.37016e-02	4.81339e-03	7.13314e-09	6.55754e-03	X	X	X	X	X	X	X	X	X	X	X	X	X	X	X	X	



#DISTANCE SETTINGS
A = Detector Channel
A-1	A-2	A-3	A-4	A-5	A-6	A-7	A-8	A-9	A-10	A-11	A-12	A-13	A-14	A-15	A-16	

2.5000e+00	3.0000e+00	2.5000e+00	3.0000e+00	2.0000e+00	3.0000e+00	1.5000e+00	3.0000e+00	3.0000e+00	3.0000e+00	3.0000e+00	3.0000e+00	3.0000e+00	3.0000e+00	1.5000e+00	3.0000e+00	

B = Detector Channel
B-1	B-2	B-3	B-4	B-5	B-6	B-7	B-8	B-9	B-10	B-11	B-12	B-13	B-14	B-15	B-16	

1.0000e+01	1.0000e+01	1.0000e+01	1.4400e+00	1.0000e+01	1.0000e+01	1.5100e+00	1.9400e+00	1.0000e+01	1.0000e+01	1.9900e+00	2.4900e+00	2.4100e+00	2.9000e+00	1.0000e+01	2.9800e+00	




#DATA BEGINS
time	group	step	mark	flag	A-AC1	A-AC2	A-AC3	A-AC4	A-AC5	A-AC6	A-AC7	A-AC8	A-AC9	A-AC10	A-AC11	A-AC12	A-AC13	A-AC14	A-AC15	A-AC16	A-DC1	A-DC2	A-DC3	A-DC4	A-DC5	A-DC6	A-DC7	A-DC8	A-DC9	A-DC10	A-DC11	A-DC12	A-DC13	A-DC14	A-DC15	A-DC16	A-Ph1	A-Ph2	A-Ph3	A-Ph4	A-Ph5	A-Ph6	A-Ph7	A-Ph8	A-Ph9	A-Ph10	A-Ph11	A-Ph12	A-Ph13	A-Ph14	A-Ph15	A-Ph16	B-AC1	B-AC2	B-AC3	B-AC4	B-AC5	B-AC6	B-AC7	B-AC8	B-AC9	B-AC10	B-AC11	B-AC12	B-AC13	B-AC14	B-AC15	B-AC16	B-DC1	B-DC2	B-DC3	B-DC4	B-DC5	B-DC6	B-DC7	B-DC8	B-DC9	B-DC10	B-DC11	B-DC12	B-DC13	B-DC14	B-DC15	B-DC16	B-Ph1	B-Ph2	B-Ph3	B-Ph4	B-Ph5	B-Ph6	B-Ph7	B-Ph8	B-Ph9	B-Ph10	B-Ph11	B-Ph12	B-Ph13	B-Ph14	B-Ph15	B-Ph16	aux-1	digaux	

44623.848	1	1	0	256	0.23649	0.19525	0.16953	0.197	0.1526	0.07657	0.27421	0.20268	0.18647	0.085746	0.15343	0.095367	0.14323	0.0062005	0.17812	0.17604	-4.7146	-4.1354	-4.4229	-5.0708	-3.9604	-4.7875	-5.0312	-4.3875	-4.9875	-4.3313	-4.4729	-5.0563	-4.1854	-4.7771	-4.6188	-4.3187	-106.691	-64.757	-147.866	-148.679	-46.429	152.840	129.628	115.628	-27.805	-39.154	16.440	158.806	-158.568	-79.092	-115.761	80.147	0.00098604	0.00044043	0.00020655	1588.6	6.4552e-06	4.9763e-06	1785.3	532.69	9.0807e-06	6.0232e-06	702.73	257.73	166.63	73.307	6.8792e-06	136.83	5.6985e-05	3.4897e-05	9.4628e-06	1292.3	4.0231e-07	3.6116e-07	1460.4	432.61	3.8044e-07	3.7033e-07	553.2	205.03	130.65	57.5	3.8156e-07	106.42	-107.235	-90.952	-113.756	-158.601	-72.228	-40.266	-159.505	-154.709	-24.182	-54.018	-156.557	-151.676	-150.571	-145.759	-87.076	-147.704	-8191	255	
44623.945	1	1	0	0	0.16658	0.19554	0.027067	0.075718	0.10199	0.28974	0.23877	0.22925	0.19558	0.17348	0.16811	0.20081	0.35431	0.019004	0.14634	0.058177	-4.75	-4.3375	-4.2479	-5.2188	-4.0979	-4.65	-5.0854	-4.1625	-4.9083	-4.5354	-4.5875	-5.1896	-4.15	-4.7375	-4.7854	-4.2521	24.777	7.215	-55.382	95.559	38.461	-17.563	126.226	88.308	163.787	-135.360	166.086	142.283	124.922	81.151	-9.400	173.697	0.0010188	0.0005335	0.00021088	1603.1	3.6887e-06	5.7406e-06	1811.7	541.99	6.6112e-06	7.2605e-06	705.6	258.82	166.46	73.186	7.5239e-06	137.45	5.8497e-05	3.4665e-05	9.4123e-06	1305.1	3.9695e-07	3.5987e-07	1476.1	437.43	3.9301e-07	3.7047e-07	555.9	205.68	130.93	57.594	3.9014e-07	106.55	-108.140	-118.863	-119.496	-158.544	-52.032	-17.989	-159.391	-154.642	-37.504	-60.899	-156.086	-152.098	-150.580	-145.793	-82.155	-148.305	-8191	255	
44624.043	1	1	0	0	0.19403	0.1319	0.011751	0.23799	0.13523	0.14678	0.23548	0.31518	0.1131	0.152	0.068733	0.23956	0.17265	0.12171	0.097447	0.2255	-4.5979	-4.5854	-4.0979	-5.0625	-4.3271	-4.3104	-5.0125	-4.1604	-4.7917	-4.6979	-4.3438	-5.1958	-4.4938	-4.5083	-4.9812	-4.3167	-62.048	101.726	108.937	180.957	45.285	-167.206	38.262	116.579	-159.378	-53.322	159.803	74.821	171.304	178.698	140.342	148.895	0.0011079	0.00064501	0.00017761	1569.3	6.3572e-06	6.0447e-06	1771.1	531.87	6.4646e-06	5.2768e-06	691.1	253.45	164.53	72.656	4.1912e-06	134.19	5.8197e-05	3.3548e-05	9.6766e-06	1282.9	4.0486e-07	3.7371e-07	1447.4	429.13	3.9536e-07	3.68e-07	545.56	201.68	128.83	56.628	3.7604e-07	104.33	-107.874	-115.382	-113.310	-158.918	-63.930	-58.279	-159.852	-154.816	-53.487	-96.674	-156.204	-151.505	-150.493	-145.752	-43.912	-148.145	-8191	255	
44624.137	1	1	0	0	0.1881	0.092513	0.20215	0.25707	0.27111	0.088041	0.26151	0.095392	0.083593	0.13501	0.085422	0.27264	0.076693	0.093169	0.1839	0.093013	-4.5646	-4.6354	-4.0521	-5.1375	-4.2438	-4.4583	-5.3042	-4.2354	-4.6729	-4.7229	-4.3146	-5.2333	-4.5521	-4.3583	-4.8917	-4.2562	-3.807	-160.932	90.708	179.734	56.489	-90.950	139.960	98.371	-156.350	-62.251	87.185	158.147	103.481	156.995	-81.608	-117.746	0.00099649	0.00054667	0.00029084	1563.5	8.3225e-06	8.1798e-06	1767.7	531.85	6.5358e-06	6.4905e-06	685.77	253.97	162.93	71.548	6.3467e-06	134.67	5.6315e-05	3.3632e-05	9.2813e-06	1276.3	3.7267e-07	3.568e-07	1443.2	429.07	3.8295e-07	3.5403e-07	543.97	201.46	128.74	56.334	3.5774e-07	104.77	-107.451	-85.764	-142.938	-158.980	-55.584	-39.605	-159.499	-155.159	-30.322	-67.451	-156.080	-151.715	-150.429	-145.698	-97.994	-148.022	-8191	255	
44624.234	1	1	0	0	0.09277	0.1568	0.144	0.3191	0.19163	0.11121	0.18745	0.19247	0.097725	0.14978	0.27044	0.30277	0.25517	0.24975	0.07176	0.26385	-4.4563	-4.7396	-4.1167	-5.1813	-4.425	-4.1396	-5.0813	-4.4375	-4.5687	-4.9146	-4.2958	-5.0167	-4.7521	-4.1188	-4.9437	-4.3187	-151.354	141.512	39.417	166.028	36.364	-127.644	117.626	144.599	-26.969	99.758	133.647	176.259	78.573	154.317	-88.623	129.268	0.0010046	0.00051789	0.00032086	1564.3	5.1617e-06	5.2147e-06	1769.7	533.14	4.6286e-06	6.4391e-06	698.88	256.94	165.58	72.449	6.4794e-06	135.87	5.559e-05	3.345e-05	9.6484e-06	1280.1	3.7469e-07	3.6285e-07	1447.5	430.81	3.8459e-07	3.5808e-07	551.39	203.38	129.65	56.983	3.942e-07	105.66	-107.470	-111.483	-87.785	-158.796	-84.490	-24.944	-159.383	-154.882	-39.061	-53.929	-156.039	-151.781	-150.554	-145.937	-93.986	-148.171	-8191	255	
44624.355	1	1	0	0	0.21738	0.15046	0.054643	0.20437	0.10035	0.10247	0.0919	0.18512	0.12647	0.18265	0.17854	0.15635	0.33233	0.14506	0.15606	0.31789	-4.2	-5.0104	-3.9958	-5.0021	-4.6625	-4.3562	-5.2229	-4.5271	-4.3083	-4.9333	-4.2562	-4.9917	-4.8125	-4.05	-5.0854	-4.4042	86.157	-66.201	30.983	169.822	155.937	106.097	142.276	140.934	-36.690	-102.390	125.361	15.391	152.316	61.372	87.342	134.753	0.00098712	0.00066601	0.00019334	1577.6	4.98e-06	5.9837e-06	1793.3	540.88	6.1537e-06	4.8955e-06	704.63	258.35	166.84	73.105	3.8531e-06	137.63	5.713e-05	3.2126e-05	9.6672e-06	1286.2	3.9033e-07	3.7214e-07	1463.6	435.36	3.871e-07	3.6693e-07	555.68	205.79	130.98	57.653	3.8558e-07	107.13	-107.830	-101.502	-156.076	-158.756	-14.719	-24.535	-158.967	-154.960	-38.085	-70.267	-156.054	-151.633	-150.627	-145.423	-88.430	-147.652	-8191	255	
44624.449	1	1	0	0	0.20367	0.18372	0.10962	0.099847	0.066071	0.21198	0.23989	0.20203	0.18223	0.12893	0.14857	0.4738	0.10363	0.17435	0.14173	0.1316	-4.1979	-4.9313	-4.0208	-4.925	-4.6875	-3.975	-5.1896	-4.6062	-4.3146	-4.9729	-4.4021	-4.7729	-4.8562	-4.1188	-4.8958	-4.6833	-155.183	82.262	36.204	-153.331	-71.551	153.961	148.250	132.022	-116.220	-72.828	143.410	164.130	140.718	149.068	-38.929	-146.113	0.0010578	0.00057704	0.00028737	1604.7	8.0117e-06	6.3153e-06	1816.6	543.56	6.2318e-06	5.4882e-06	711.71	261.04	167.58	73.19	5.1713e-06	138.26	5.8257e-05	3.2563e-05	9.3946e-06	1304.2	3.9255e-07	3.6684e-07	1481	438.08	3.8817e-07	3.566e-07	560.59	207.22	131.67	57.729	3.911e-07	107.61	-106.905	-106.164	-132.745	-158.943	-63.300	-52.002	-159.314	-154.542	-50.970	-65.085	-156.251	-151.986	-150.507	-145.723	-44.115	-147.987	-8191	255	
44624.547	1	1	0	0	0.07685	0.23518	0.098257	0.4763	0.15162	0.10892	0.10146	0.1752	0.20651	0.11481	0.35478	0.059295	0.32949	0.18944	0.031951	0.19791	-3.8771	-4.9563	-4.1	-4.6396	-4.8583	-4.1	-5.1104	-4.6771	-4.25	-5.0354	-4.2604	-4.6146	-4.9812	-3.9854	-4.7896	-4.65	112.008	-155.376	34.877	182.402	72.474	-123.165	54.585	137.799	140.551	-151.869	-167.418	-44.602	84.140	85.176	138.541	143.570	0.001055	0.00084274	0.00021995	1577.4	4.3761e-06	7.098e-06	1777.1	530.28	6.3343e-06	5.7676e-06	690.37	254.44	164.68	71.374	4.663e-06	134.12	5.7535e-05	3.47e-05	9.5757e-06	1282.3	3.779e-07	3.5743e-07	1448.9	429.67	3.9679e-07	3.5648e-07	546.51	202.13	129.13	56.47	3.7927e-07	104.82	-107.634	-112.053	-117.513	-158.909	-68.059	-44.163	-159.325	-154.893	-28.286	-91.242	-156.041	-152.216	-150.309	-145.614	-70.600	-147.726	-8191	255	
44624.641	1	1	0	0	0.1723	0.096552	0.052597	0.17878	0.028728	0.12323	0.26197	0.28571	0.038698	0.099023	0.19088	0.23822	0.17991	0.10072	0.013156	0.24735	-3.8229	-4.9313	-4.1521	-4.6333	-4.8625	-4.0875	-4.9833	-4.8708	-4.1208	-5.0104	-4.4354	-4.6042	-5.1667	-4.1229	-4.65	-4.9437	27.345	93.986	23.903	137.647	157.935	175.689	126.648	94.474	49.699	-43.859	145.066	176.603	148.273	121.265	-148.935	101.212	0.0010008	0.00036356	0.00014856	1562.3	5.5626e-06	6.1778e-06	1765.3	529.48	4.7816e-06	6.5605e-06	689.77	253.65	164.3	71.977	3.0552e-06	134.96	5.8113e-05	3.3067e-05	9.3969e-06	1270.1	3.7925e-07	3.6279e-07	1445.2	428.75	3.8965e-07	3.5452e-07	545.18	201.73	128.84	56.457	3.7962e-07	104.84	-106.730	-126.703	-99.872	-158.838	-77.002	-48.924	-159.433	-154.680	-58.471	-74.304	-156.011	-152.032	-150.772	-145.829	-87.514	-147.889	-8191	255	
44624.738	1	1	0	0	0.29673	0.05661	0.052272	0.17373	0.10875	0.084326	0.34584	0.17108	0.12824	0.020236	0.044415	0.11889	0.14959	0.13614	0.11684	0.14501	-3.6542	-4.9604	-4.4187	-4.5437	-5.0521	-4.1333	-4.8458	-4.9875	-4.0979	-4.8167	-4.6021	-4.2438	-5.1479	-4.3375	-4.4979	-5.0771	-13.967	77.496	-145.657	170.048	-167.305	84.000	122.818	65.330	-85.958	162.656	185.875	183.314	-100.058	-81.906	-108.236	133.124	0.0010709	0.00051916	0.00030798	1574.2	7.6167e-06	3.7307e-06	1779.9	533.35	7.7699e-06	4.9444e-06	694.07	254.33	162.99	71.982	5.6472e-06	135.39	5.819e-05	3.3282e-05	9.7632e-06	1278.7	3.7784e-07	3.7479e-07	1451.4	430.77	3.9968e-07	3.4641e-07	547.78	202.62	128.71	56.637	3.8207e-07	105.22	-109.441	-115.448	-115.047	-158.888	-100.233	-25.173	-159.490	-155.046	-33.861	-74.223	-156.372	-151.491	-150.413	-146.102	-102.399	-148.063	-8191	255	
44624.836	1	1	0	0	0.022511	0.16455	0.11287	0.2125	0.067995	0.12202	0.24564	0.33451	0.18823	0.34234	0.18536	0.10756	0.10839	0.38714	0.13596	0.14049	-3.7604	-4.9604	-4.5062	-4.4583	-4.8229	-4.2	-4.6021	-5.1375	-4.0813	-4.7458	-4.7417	-4.2	-5.1062	-4.325	-4.2812	-5.1438	53.408	-53.655	-3.599	144.557	-105.274	64.500	144.338	153.524	-158.378	0.155	153.307	66.652	80.567	177.476	120.186	183.286	0.00097818	0.00081617	0.00017291	1576.4	6.2996e-06	4.8331e-06	1794.1	534.37	6.7656e-06	4.6101e-06	700.58	257.71	164.2	72.733	4.3649e-06	136.75	5.8247e-05	3.292e-05	9.4605e-06	1282.2	3.8907e-07	3.7861e-07	1459.9	432.23	4.028e-07	3.7528e-07	553.08	204.16	129.74	57.116	3.7645e-07	106.58	-105.013	-117.278	-140.106	-158.866	-88.131	-55.500	-159.718	-154.991	-64.053	-12.594	-156.043	-151.357	-150.289	-145.527	-84.483	-147.744	-8191	255	
44624.930	1	1	0	0	0.17397	0.10631	0.35938	0.21881	0.3075	0.118	0.13954	0.047111	0.22384	0.16414	0.26755	0.30211	0.1348	0.12581	0.16887	0.18897	-3.7562	-4.4896	-4.8	-4.2937	-4.9563	-4.4479	-4.525	-5.1438	-3.9896	-4.6729	-4.9313	-4.1896	-5.1771	-4.5458	-4.2583	-5.2479	16.066	-6.824	-40.387	-161.169	-39.683	108.712	154.394	45.502	-72.600	-38.972	159.357	-164.676	-130.305	88.310	-152.668	104.799	0.00096476	0.00058889	0.00025945	1596.6	4.0055e-06	3.6655e-06	1805	538.43	9.791e-06	4.4786e-06	706.82	259.14	166.27	73.008	6.7453e-06	137.35	5.7465e-05	3.4075e-05	9.1205e-06	1297.1	3.7927e-07	3.8183e-07	1476.4	436.18	3.9461e-07	3.6332e-07	557.2	206.22	130.65	57.447	3.9069e-07	107.15	-110.810	-85.062	-127.444	-158.920	-89.428	-77.862	-159.365	-154.770	-23.738	-35.787	-156.191	-151.674	-150.584	-145.878	-76.312	-147.720	-8191	255	
44625.027	1	1	0	0	0.11148	0.11565	0.11959	0.20042	0.15734	0.16059	0.20144	0.221	0.20516	0.18484	0.077638	0.010416	0.2651	0.17861	0.11691	0.34171	-3.9708	-4.5625	-4.8104	-4.4125	-4.9896	-4.6542	-4.4979	-5.1083	-4.1521	-4.5396	-5.0875	-4.1271	-4.9542	-4.8042	-4.3146	-5.2979	174.376	110.290	-16.968	-163.934	-149.809	61.708	155.688	129.351	118.255	139.760	134.796	-112.234	152.966	9.696	105.500	156.398	0.0010277	0.00035565	0.00023658	1567.9	7.9424e-06	6.0781e-06	1775	531.01	6.6804e-06	8.1589e-06	692.28	255.77	164.37	71.598	4.6868e-06	135.75	5.6759e-05	3.3368e-05	9.2771e-06	1277.7	3.78e-07	3.7945e-07	1445.6	428.61	3.9783e-07	3.581e-07	546.07	202.11	128.37	56.294	3.8058e-07	105.17	-110.237	-123.205	-128.953	-158.971	-65.435	-56.927	-159.563	-154.963	-57.685	-86.991	-156.052	-151.876	-150.661	-145.715	-75.545	-148.130	-8191	255	
44625.145	1	1	0	0	0.26866	0.13648	0.062953	0.20204	0.12601	0.054536	0.018301	0.2517	0.19323	0.053738	0.10462	0.22351	0.055621	0.28205	0.086761	0.28918	-3.8479	-4.5646	-4.825	-4.1458	-4.7	-4.5979	-4.4208	-5.3396	-4.4083	-4.3042	-5.0854	-4.1979	-4.9437	-4.7604	-4.1188	-5.1583	-141.082	114.753	112.248	105.595	-40.948	123.580	108.102	157.082	-46.793	101.783	132.852	-154.463	155.036	-167.101	-66.657	130.084	0.00098171	0.00058178	0.00019799	1548.4	5.976e-06	5.6022e-06	1767.1	527.57	9.6076e-06	5.1892e-06	697.5	253.63	163.43	71.679	3.4012e-06	134.97	5.7138e-05	3.4159e-05	9.366e-06	1266.3	3.7904e-07	3.7246e-07	1438.6	425.89	3.9259e-07	3.6101e-07	547.08	201.9	127.97	56.396	3.8607e-07	105.23	-106.224	-134.886	-135.511	-158.856	-40.053	-25.210	-159.573	-155.133	-59.260	-61.489	-155.921	-151.878	-150.683	-145.878	-53.478	-148.191	-8191	255	
44625.242	1	1	0	0	0.061456	0.31812	0.2144	0.25257	0.068119	0.052508	0.12013	0.39437	0.12846	0.11611	0.26537	0.2902	0.030814	0.24445	0.076335	0.25459	-3.9479	-4.3667	-4.9417	-4.1271	-4.625	-4.7958	-4.2583	-5.0917	-4.3375	-4.2667	-5.1687	-4.3271	-4.6208	-4.7792	-4.0604	-5.1458	-101.442	-74.912	27.398	146.369	-122.211	-120.432	-162.189	138.159	177.166	-39.898	142.933	174.856	-97.058	99.147	155.855	133.765	0.00096193	0.00038479	0.00021214	1567.1	4.3938e-06	4.2407e-06	1782.5	531.36	5.0537e-06	6.6147e-06	698.68	257.05	164.44	72.396	5.2681e-06	136.65	5.7308e-05	3.1845e-05	9.6901e-06	1275.1	3.9404e-07	3.5669e-07	1452.9	429.78	4.0622e-07	3.7215e-07	551.59	204.49	129.39	56.876	3.9405e-07	106.76	-109.715	-133.373	-146.108	-158.822	-36.831	-10.179	-159.698	-154.723	-67.920	-76.184	-155.733	-151.921	-150.495	-145.554	-54.914	-147.690	-8191	255	
44625.312	1	1	0	0	0.1936	0.26607	0.11726	0.10771	0.18821	0.23282	0.18245	0.21369	0.28468	0.13908	0.313	0.18899	0.25854	0.29262	0.13253	0.21402	-4.2188	-4.1583	-4.8438	-4.3208	-4.4792	-4.6667	-4.2792	-5.0479	-4.5563	-4.1354	-5.2167	-4.2812	-4.6458	-5.1	-3.9938	-5.1083	-170.828	37.943	149.756	-60.874	54.052	-41.153	77.848	123.663	-10.380	31.249	129.302	185.453	162.043	-147.170	-139.325	90.420	0.0010274	0.00078985	0.00016548	1583.4	6.1876e-06	4.7447e-06	1808.1	542.53	4.9722e-06	3.7521e-06	711.22	262.48	167.26	73.373	5.269e-06	139.31	5.8817e-05	3.5309e-05	9.6401e-06	1293.6	4.0146e-07	3.7322e-07	1480.1	436.91	4.1195e-07	3.818e-07	561.36	208.18	131.24	57.685	3.9477e-07	108.31	-104.406	-127.958	-157.006	-158.859	-80.146	-40.553	-159.687	-155.174	-42.862	-73.269	-155.902	-151.581	-150.906	-145.838	-85.625	-147.998	-8191	255	
44625.434	1	1	0	0	0.060945	0.12295	0.050833	0.28295	0.14086	0.18722	0.20244	0.16074	0.25954	0.17552	0.39785	0.047321	0.092911	0.29264	0.12283	0.11501	-4.3688	-3.9479	-5.0708	-4.5479	-4.2771	-4.9396	-4.4125	-4.9042	-4.5437	-4.1229	-5.2375	-4.5312	-4.2625	-5.0188	-3.9708	-5.0417	-70.287	-32.787	-150.319	162.910	14.092	111.879	87.280	160.932	156.740	20.937	121.316	180.511	147.958	98.896	35.886	-127.033	0.0010476	0.00025837	0.00021737	1618.3	6.2653e-06	2.9115e-06	1849.7	549.66	8.6491e-06	7.8042e-06	724.46	267.04	169.67	74.383	1.3901e-06	140.62	6.0308e-05	3.4832e-05	9.9846e-06	1317.3	4.1671e-07	3.7251e-07	1511.7	443.47	4.2303e-07	3.9269e-07	571.27	212.12	133.65	58.575	4.1292e-07	109.5	-108.419	-141.493	-139.847	-158.974	-60.862	-41.374	-159.447	-155.204	-72.641	-54.727	-155.854	-151.634	-150.159	-145.936	-141.653	-148.226	-8191	255	
44625.531	1	1	0	0	0.19933	0.27954	0.1243	0.26751	0.10493	0.090941	0.26097	0.23331	0.074274	0.13464	0.089992	0.34217	0.34023	0.136	0.081707	0.33558	-4.4125	-4.0083	-5.0646	-4.4958	-4.2729	-5.0125	-4.4313	-4.8958	-4.8854	-4.0062	-5.1729	-4.6375	-4.3729	-5.0583	-4.0521	-4.6917	-68.032	131.987	-162.239	174.221	-39.650	-50.764	159.641	166.442	89.223	-35.353	-163.678	155.643	150.878	153.704	151.632	175.366	0.0011014	0.00066474	0.0002106	1594.1	7.3554e-06	7.4095e-06	1793.4	536.54	4.1057e-06	4.4857e-06	703.73	258.02	164.18	72.538	8.4937e-06	136.48	6.0221e-05	3.7238e-05	1.003e-05	1299.9	4.2418e-07	3.7442e-07	1469.5	432.58	4.1334e-07	4.0433e-07	555.83	205.63	129.52	57.1	4.0632e-07	106.68	-108.462	-97.446	-137.956	-159.045	-53.884	-32.524	-159.435	-154.787	-37.213	-25.552	-156.112	-151.621	-150.678	-145.785	-82.929	-148.082	-8191	255	
44625.625	1	1	0	0	0.038772	0.21444	0.12655	0.2619	0.081784	0.01541	0.35294	0.14557	0.27938	0.10596	0.32606	0.30141	0.135	0.33626	0.089057	0.13217	-4.5729	-4.0229	-4.8229	-4.6875	-4.1771	-4.9708	-4.425	-4.4771	-4.8063	-4.175	-4.925	-4.8104	-4.2375	-5.1937	-4.1979	-4.675	-48.025	-5.481	89.188	137.936	138.220	35.435	121.040	114.049	165.529	31.388	123.731	126.576	59.717	137.157	92.042	143.103	0.0011462	0.00057103	0.00027557	1562.7	4.7417e-06	7.5837e-06	1777.6	532.79	5.573e-06	4.7282e-06	702.81	255.68	165.22	72.099	5.1294e-06	136.51	6.1117e-05	3.6091e-05	9.6164e-06	1273.6	4.0709e-07	3.7589e-07	1452.9	430.67	4.1345e-07	3.941e-07	553.09	203.97	129.32	56.641	4.0072e-07	106.13	-106.986	-128.704	-106.777	-158.954	-60.864	-32.130	-159.609	-155.057	-65.329	-68.901	-155.984	-151.704	-150.641	-145.690	-62.506	-147.944	-8191	255	
44625.746	1	1	0	0	0.10832	0.17978	0.021249	0.044688	0.23757	0.21127	0.20961	0.13578	0.09177	0.16919	0.20301	0.046251	0.20024	0.17553	0.10398	0.20776	-4.7167	-4.0354	-4.6917	-4.8396	-4.1	-4.9604	-4.3396	-4.4	-4.8812	-4.2146	-4.8208	-4.9354	-4.2688	-5.0938	-4.5271	-4.2937	26.950	73.940	47.353	-162.666	-70.709	84.453	88.319	98.140	147.212	-3.882	110.777	151.424	93.493	161.074	-93.998	122.400	0.001023	0.00088197	0.00019796	1560.3	5.6667e-06	6.1785e-06	1778.5	529.92	5.168e-06	6.9587e-06	693.65	256.33	164.71	72.063	7.3963e-06	136.54	5.9567e-05	3.6658e-05	9.3735e-06	1272.6	4.2427e-07	3.6893e-07	1453	429.18	4.1508e-07	3.8878e-07	550.45	204.53	129.53	56.714	3.9504e-07	106.11	-108.168	-109.678	-128.927	-158.806	-66.967	-52.743	-159.754	-155.115	-49.604	-57.721	-156.069	-151.780	-150.840	-145.741	-72.387	-147.818	-8191	255	
44625.844	1	1	0	0	0.16805	0.15346	0.092884	0.19212	0.21269	0.083181	0.36594	0.43984	0.2032	0.18648	0.1541	0.38655	0.12767	0.12559	0.16042	0.088638	-4.7771	-4.0208	-4.6	-5	-4.1229	-4.8562	-4.6833	-4.3938	-4.9042	-4.0667	-4.7167	-5.1396	-4.3625	-4.8896	-4.6375	-4.3438	86.934	-123.207	159.624	83.259	-43.277	-125.558	155.470	100.419	129.643	-11.161	158.631	167.611	83.164	97.866	89.455	-130.072	0.0009515	0.00074201	0.00035321	1571	9.059e-06	4.6713e-06	1795.1	534.22	6.4092e-06	4.4006e-06	702.48	259.51	165.52	72.528	5.3187e-06	137.23	5.8124e-05	3.7103e-05	1.0053e-05	1279.2	4.2404e-07	3.8754e-07	1463.5	431.73	4.2659e-07	3.8093e-07	553.64	205.79	129.87	57.136	4.121e-07	106.77	-110.370	-104.077	-107.905	-158.679	-67.827	-15.934	-159.285	-154.797	-66.072	-55.064	-155.946	-151.626	-150.760	-145.515	-94.382	-147.955	-8191	255	
44625.914	1	1	0	0	0.04608	0.1545	0.1743	0.19488	0.24654	0.32371	0.22292	0.22439	0.12597	0.23657	0.30245	0.17698	0.2727	0.17332	0.3086	0.14042	-4.6833	-4.3396	-4.4062	-5.05	-4.0354	-4.7937	-4.8938	-4.2021	-4.8604	-4.3917	-4.4458	-5.1979	-4.1479	-4.8313	-4.5813	-4.1896	68.372	154.261	165.255	115.672	44.749	-91.825	97.593	151.313	-88.043	146.544	119.201	142.118	156.435	117.344	161.723	-107.221	0.0010116	0.00055709	0.00013527	1584.4	6.1051e-06	6.5739e-06	1818.1	538.95	7.3838e-06	7.3269e-06	705.86	261.25	166.22	72.434	6.0617e-06	136.99	5.9646e-05	3.557e-05	1.0369e-05	1289.7	4.4228e-07	3.9389e-07	1483.2	435.26	4.2643e-07	3.8932e-07	559.35	207.88	130.43	57.369	4.1103e-07	107.17	-112.152	-129.245	-109.644	-158.737	-54.841	-19.893	-159.447	-154.851	-29.769	-44.769	-156.010	-151.898	-150.284	-145.564	-93.562	-148.142	-8191	255	
44626.035	1	1	0	0	0.13931	0.13911	0.070481	0.2396	0.093991	0.15384	0.28972	0.067986	0.28055	0.1288	0.087843	0.34896	0.22671	0.24446	0.07501	0.22701	-4.6292	-4.3417	-4.3438	-5.2208	-4.0188	-4.6708	-4.8812	-4.1958	-5.0083	-4.4563	-4.2917	-5.1146	-4.1438	-4.6458	-4.7646	-4.3458	-110.804	-37.459	-5.286	149.726	-86.526	-53.269	95.185	166.400	53.297	8.995	83.152	183.708	170.525	-139.654	124.780	98.956	0.0010585	0.00084445	0.00026692	1570.2	4.5863e-06	4.6488e-06	1765.8	529.85	6.6563e-06	7.9853e-06	689.61	255.62	162.44	71.343	4.2708e-06	133.42	5.9818e-05	3.6843e-05	1.043e-05	1278	4.1484e-07	3.7512e-07	1449.8	428.45	4.0054e-07	3.8389e-07	546.56	202.39	127.83	56.065	4.0149e-07	103.72	-112.676	-105.883	-127.620	-159.030	-93.625	-47.718	-159.416	-154.832	-67.223	-66.329	-156.088	-151.850	-150.706	-145.534	-86.205	-148.393	-8191	255	
44626.129	1	1	0	0	0.28029	0.025823	0.06306	0.16814	0.042035	0.081981	0.33365	0.3858	0.12924	0.14456	0.25514	0.19139	0.12489	0.13606	0.24637	0.24224	-4.6396	-4.4354	-4.2063	-5.2021	-4.0188	-4.5333	-4.9688	-4.1917	-4.7146	-4.7146	-4.4812	-5.175	-4.4	-4.5813	-5.0375	-4.2271	-106.835	-82.110	173.863	-170.679	-140.070	-87.571	90.020	133.511	-85.728	41.052	121.119	125.636	-137.358	-120.830	-152.563	122.462	0.0010049	0.00069288	0.00032716	1535.2	2.7414e-06	5.4411e-06	1748.8	520.72	8.7009e-06	8.5504e-06	682.02	249.58	159.85	70.956	5.4076e-06	132.18	5.7687e-05	3.4897e-05	9.802e-06	1252.3	3.8844e-07	3.7956e-07	1425.9	421.64	4.0861e-07	3.8147e-07	539.53	198.63	126.05	55.275	3.9223e-07	102.82	-106.855	-131.175	-124.900	-158.849	-42.109	-20.436	-159.375	-154.825	-59.104	-82.558	-156.187	-151.580	-150.387	-145.993	-108.234	-148.203	-8191	255	
44626.227	1	1	0	0	0.15935	0.20785	0.1324	0.27027	0.13418	0.32662	0.074615	0.10787	0.22488	0.10541	0.19372	0.15894	0.088772	0.38156	0.27789	0.11008	-4.5208	-4.5125	-4.1979	-5.2354	-4.3417	-4.3375	-5.0271	-4.1542	-4.7479	-4.9	-4.2937	-5.1604	-4.3875	-4.45	-4.8938	-4.4021	74.104	77.516	-58.007	153.689	-72.324	-18.495	9.999	130.810	154.723	81.613	55.399	93.371	166.329	143.830	-57.118	119.175	0.00097226	0.00074798	0.00014142	1540.7	6.3138e-06	7.694e-06	1758.1	519.88	1.0033e-05	6.9978e-06	683.51	250.71	162.95	70.436	8.4342e-06	132.02	5.8502e-05	3.544e-05	9.6965e-06	1255.6	3.9143e-07	3.8887e-07	1433.2	421.47	4.0493e-07	3.9669e-07	539.46	199.22	127.13	55.308	3.9072e-07	102.99	-110.154	-102.520	-151.630	-158.754	-68.413	-63.376	-159.358	-154.742	-61.213	-59.983	-156.689	-151.433	-150.238	-145.646	-73.219	-148.123	-8191	255	
44626.320	1	1	0	0	0.12978	0.071684	0.086752	0.31098	0.27321	0.035129	0.34062	0.26307	0.055928	0.04479	0.098916	0.44702	0.24058	0.045619	0.12289	0.19113	-4.2438	-4.7917	-4.0729	-5.0938	-4.5083	-4.3604	-5.2542	-4.2375	-4.5167	-4.75	-4.2729	-4.9437	-4.6979	-4.2104	-5.0042	-4.3229	-166.693	82.217	101.014	164.734	-32.325	150.757	61.924	120.354	32.003	24.994	129.121	148.394	21.453	132.775	-171.721	160.504	0.00095744	0.00048844	0.00021318	1548.8	5.3687e-06	3.9164e-06	1757.2	525.85	3.4791e-06	3.4464e-06	687.3	253.18	162.31	70.932	6.0312e-06	134.19	5.7529e-05	3.4704e-05	9.9315e-06	1257.6	3.9665e-07	3.8192e-07	1438.8	424.42	4.0265e-07	3.7596e-07	544.88	201.32	127.69	55.897	3.7819e-07	104.23	-107.420	-156.974	-101.412	-158.743	-41.350	-26.855	-159.557	-154.913	-26.851	-64.513	-156.136	-151.847	-150.295	-146.158	-71.756	-147.974	-8191	255	
44626.441	1	1	0	0	0.18356	0.14486	0.21702	0.3299	0.053073	0.02682	0.34682	0.25447	0.0044569	0.083714	0.15957	0.17884	0.11127	0.066842	0.086449	0.27382	-4.1438	-4.8396	-3.95	-5.0333	-4.4271	-4.1438	-5.1771	-4.4667	-4.4354	-4.9479	-4.25	-5.0292	-4.6771	-4.3333	-4.9917	-4.3625	-155.114	31.796	35.289	182.051	141.000	-2.250	150.354	144.368	155.755	-63.013	123.741	137.973	166.877	134.916	185.660	128.619	0.0010383	0.00040225	0.00032257	1555.2	6.2318e-06	3.9031e-06	1788.4	528.53	8.6216e-06	9.233e-06	697.62	254.74	164.29	71.864	3.9293e-06	135.79	5.8854e-05	3.6796e-05	9.8434e-06	1269.2	4.0667e-07	3.6935e-07	1454.1	427.58	4.1291e-07	3.8488e-07	551.4	203.35	129.14	56.358	3.9524e-07	105.36	-106.233	-151.602	-120.583	-159.023	-63.409	-18.547	-159.386	-154.596	-43.800	-43.159	-156.261	-151.641	-150.500	-145.978	-67.019	-148.078	-8191	255	
44626.539	1	1	0	0	0.097075	0.070224	0.15538	0.15727	0.1156	0.24565	0.26956	0.1175	0.043214	0.065235	0.31167	0.22518	0.1489	0.17864	0.17535	0.30744	-3.975	-4.9521	-4.1729	-4.9521	-4.5563	-4.0708	-5.0604	-4.6125	-4.1979	-4.9271	-4.1042	-4.6604	-4.9625	-4.0042	-4.8271	-4.5375	99.367	142.740	135.820	-127.892	66.665	100.554	83.565	-108.124	6.454	136.513	-163.606	161.922	75.573	-101.251	-144.269	108.517	0.00098042	0.00071167	0.00023176	1558.4	4.139e-06	4.3206e-06	1767.9	528.11	6.7891e-06	9.4667e-06	684.67	253.07	162.46	70.418	4.2762e-06	132.08	5.9231e-05	3.5724e-05	9.8426e-06	1265.8	4.0841e-07	3.833e-07	1442.5	425.83	4.2366e-07	3.6022e-07	541.06	200.26	127.67	55.426	3.9506e-07	102.96	-109.050	-119.360	-110.884	-158.920	-55.343	-60.229	-159.772	-154.712	-62.327	-62.690	-155.793	-151.905	-150.511	-145.955	-79.756	-148.093	-8191	255	
44626.609	1	1	0	0	0.04872	0.16661	0.19173	0.40889	0.24075	0.23448	0.20787	0.20263	0.18257	0.22871	0.13097	0.10363	0.065246	0.20302	0.11757	0.088636	-3.9208	-4.95	-4.1354	-4.7812	-4.7104	-4.0542	-5.0687	-4.5292	-4.0167	-4.8021	-4.4042	-4.6687	-5	-4.1021	-4.8542	-4.7542	81.558	157.976	83.314	122.637	-91.095	-31.495	120.417	118.192	-81.215	38.435	91.867	176.662	44.797	88.989	-41.129	137.174	0.00095472	0.00062871	0.0002388	1537.8	4.5314e-06	2.3733e-06	1753.5	522.28	8.1766e-06	2.8467e-06	680.45	248.06	161.33	69.828	5.538e-06	130.93	5.6719e-05	3.4596e-05	1.0042e-05	1255.1	3.9328e-07	3.7537e-07	1428.4	422.01	4.0616e-07	3.596e-07	537.73	197.83	126.55	54.941	3.7774e-07	101.76	-107.147	-128.285	-118.092	-158.935	-50.583	-60.255	-159.804	-154.789	-58.235	-71.175	-156.117	-151.703	-150.287	-145.954	-115.156	-148.017	-8191	255	
44626.707	1	1	0	0	0.052061	0.14767	0.19766	0.36926	0.0788	0.22736	0.20259	0.27598	0.23012	0.10317	0.18415	0.30481	0.099944	0.052097	0.10141	0.073649	-3.6896	-4.9271	-4.1917	-4.4688	-4.9604	-3.9729	-5.0146	-4.9062	-4.0375	-5.0167	-4.5271	-4.4625	-5.1396	-4.3479	-4.7104	-4.9083	175.634	-0.919	-26.921	171.117	-24.595	177.993	157.014	109.353	65.441	17.396	140.145	69.938	102.600	122.888	-8.691	153.750	0.00099713	0.00061799	0.00015717	1537	4.6989e-06	5.1836e-06	1756.4	521.56	3.4488e-06	4.202e-06	681.38	248.69	161	69.686	7.4922e-06	131.15	5.6645e-05	3.455e-05	9.6939e-06	1259.9	3.6975e-07	3.8125e-07	1432.2	423.15	4.1122e-07	3.6393e-07	538.67	197.48	126.49	54.944	3.8899e-07	102.1	-110.342	-115.328	-137.470	-158.952	-46.838	-25.515	-159.333	-154.937	-40.723	-53.221	-155.863	-152.156	-150.570	-145.660	-59.710	-148.115	-8191	255	
44626.824	1	1	0	0	0.088239	0.24101	0.088377	0.28896	0.055096	0.12256	0.10367	0.20628	0.1707	0.089304	0.12471	0.13912	0.18912	0.23854	0.03416	0.27056	-3.8854	-4.9854	-4.225	-4.6188	-5.025	-4.1417	-4.9083	-5.0167	-4.0542	-4.8896	-4.6042	-4.4396	-5.1208	-4.15	-4.6167	-5.0875	-15.827	151.178	149.316	123.894	-30.787	141.696	152.492	178.052	-143.976	-76.027	129.638	110.745	84.996	-171.723	22.971	122.622	0.00095895	0.0006184	0.00023697	1542.2	4.7682e-06	4.9626e-06	1768	524.64	6.7372e-06	4.743e-06	680.2	250.6	161.45	69.798	5.2079e-06	131.31	5.7541e-05	3.5061e-05	9.8735e-06	1258.8	3.93e-07	3.8033e-07	1436.7	423.23	4.13e-07	3.777e-07	538.6	198.39	126.92	55.19	3.9418e-07	102.49	-111.186	-121.831	-147.132	-158.949	-53.482	-35.852	-159.668	-154.634	-50.737	-48.126	-155.664	-151.954	-150.669	-145.660	-105.958	-148.085	-8191	255	
44626.922	1	1	0	0	0.025256	0.20269	0.33095	0.30114	0.16676	0.24185	0.16127	0.1597	0.14865	0.17487	0.28669	0.38393	0.15211	0.18766	0.162	0.14198	-3.8208	-4.8896	-4.4083	-4.3125	-4.8771	-4.2354	-4.6917	-5.0042	-4.0062	-4.7854	-4.8479	-4.3458	-5.0354	-4.35	-4.4437	-5.0354	-33.903	-152.846	-53.201	186.304	-59.663	-144.302	126.677	124.540	103.057	-30.907	175.758	147.251	127.441	140.141	-154.632	146.587	0.0010438	0.00039822	0.00032339	1566.6	7.5303e-06	6.4723e-06	1763.1	526.42	4.0587e-06	8.7974e-06	691.89	252.29	162.42	71.013	9.066e-06	133.2	5.7634e-05	3.4543e-05	9.8381e-06	1272	4.0587e-07	3.8792e-07	1440.5	425.81	4.0424e-07	3.9099e-07	544.24	200.08	127.56	55.905	4.1452e-07	103.87	-107.813	-104.033	-125.324	-158.925	-50.368	-21.748	-159.694	-154.731	-21.364	-45.116	-155.851	-151.767	-150.338	-145.625	-102.931	-148.073	-8191	255	
44627.020	1	1	0	0	0.092521	0.12663	0.15596	0.16601	0.092675	0.13115	0.35911	0.2074	0.15979	0.11318	0.11248	0.19924	0.079277	0.067727	0.17935	0.17081	-3.9021	-4.8187	-4.65	-4.2646	-4.9938	-4.475	-4.4187	-5.1729	-4.0479	-4.7208	-4.85	-4.1188	-5.1104	-4.4313	-4.2771	-5.1604	-23.601	-4.812	127.226	-164.741	146.242	-142.142	113.660	-75.403	130.242	167.894	28.629	108.221	174.275	163.653	157.283	86.019	0.0010117	0.00042103	0.00023684	1541.9	6.312e-06	3.1676e-06	1750.4	524.14	7.2066e-06	6.9571e-06	683.01	249.19	159.96	69.774	7.3281e-06	131.36	5.8253e-05	3.524e-05	9.6077e-06	1260.5	4.0647e-07	3.7662e-07	1432.2	422.56	4.0538e-07	3.8642e-07	537.76	197.61	126.16	54.893	4.0069e-07	102.22	-110.792	-132.344	-116.084	-159.177	-46.189	-38.273	-159.680	-154.839	-64.359	-61.723	-156.029	-151.707	-150.422	-145.735	-70.208	-147.942	-8191	255	
44627.113	1	1	0	0	0.23048	0.032433	0.090412	0.26688	0.043632	0.18621	0.1746	0.13216	0.21402	0.18816	0.25794	0.28588	0.13319	0.24295	0.21122	0.20488	-3.6833	-4.6521	-4.8938	-4.1854	-4.9792	-4.3958	-4.3583	-5.3708	-4.1917	-4.4771	-5.1083	-4.2375	-5.1083	-4.6271	-4.2417	-5.1417	-123.703	84.036	-148.489	-141.753	-141.681	-116.426	186.994	158.309	-161.017	-162.288	185.886	169.547	82.074	-132.000	-114.240	90.359	0.00093731	0.00041343	0.00015375	1532.4	6.3853e-06	4.416e-06	1737.7	517.92	6.2433e-06	6.3145e-06	676.6	247.33	160.19	69.397	6.3875e-06	130.56	5.6743e-05	3.5665e-05	9.9153e-06	1249.5	4.0252e-07	3.7715e-07	1417.8	419.28	4.0386e-07	3.8546e-07	534.03	196.76	125.96	54.748	4.0874e-07	101.67	-104.017	-171.283	-143.842	-158.820	-75.581	-18.609	-159.431	-154.754	-74.847	-61.453	-155.976	-151.809	-150.762	-145.425	-95.080	-147.811	-8191	255	
44627.211	1	1	0	0	0.039976	0.20771	0.16163	0.18131	0.11193	0.31501	0.13031	0.30646	0.061236	0.28013	0.089529	0.24273	0.11266	0.16756	0.16002	0.24496	-3.8729	-4.5667	-4.825	-4.2521	-4.7729	-4.6687	-4.2667	-5.1062	-4.0896	-4.4583	-5.0354	-4.2396	-4.8938	-4.7958	-4.0521	-5.075	71.534	-27.162	-158.615	141.299	154.919	-8.375	-170.593	156.396	117.872	137.610	-164.271	177.314	-82.811	-158.608	42.947	178.972	0.00092405	0.00057908	0.00028198	1531.7	1.4397e-06	2.9526e-06	1739.5	520.73	5.3736e-06	5.4716e-06	677.65	248.27	160.59	69.564	3.6498e-06	131.47	5.5935e-05	3.3187e-05	9.6461e-06	1248.4	3.8716e-07	3.6171e-07	1420.8	420.48	4.0443e-07	3.5786e-07	535.24	197.73	125.81	54.965	3.9015e-07	102.03	-108.300	-108.227	-121.705	-158.882	-87.389	-49.946	-159.657	-154.809	-82.533	-48.401	-155.837	-151.977	-150.354	-145.715	-114.095	-148.394	-8191	255	
44627.305	1	1	0	0	0.15416	0.1377	0.12191	0.16389	0.046101	0.25092	0.25402	0.15979	0.11121	0.13555	0.23458	0.19677	0.088041	0.26223	0.093982	0.16049	-3.9521	-4.275	-4.9958	-4.3438	-4.7396	-4.6604	-4.2208	-5.2063	-4.4437	-4.2104	-5.1479	-4.1667	-4.7771	-4.7208	-3.9771	-5.1917	125.026	-132.836	-134.545	-151.649	154.005	-133.351	99.839	128.416	77.785	148.078	173.717	92.289	106.004	171.700	19.695	151.823	0.00095764	0.00068756	0.00024169	1539.8	5.9882e-06	7.0091e-06	1750.7	521.34	5.7703e-06	4.9971e-06	684.67	249.56	159.41	69.604	6.5979e-06	131.28	5.7308e-05	3.437e-05	9.5444e-06	1259.5	3.9494e-07	3.6049e-07	1430.4	421.94	4.1475e-07	3.7436e-07	539.26	198.05	126.36	55.014	3.8896e-07	102.49	-108.272	-116.715	-126.125	-159.155	-83.655	-61.522	-159.491	-154.880	-54.654	-84.421	-156.100	-151.917	-150.770	-145.602	-80.084	-148.085	-8191	255	
44627.426	1	1	0	0	0.0077651	0.23282	0.035461	0.22812	0.15544	0.14798	0.27166	0.23624	0.13133	0.25733	0.17363	0.24941	0.012597	0.20988	0.13545	0.18007	-4.3438	-4.2229	-5.0583	-4.3458	-4.5125	-4.8625	-4.225	-5.1083	-4.4563	-4.0917	-5.1708	-4.4375	-4.5792	-5.0417	-3.9813	-4.9271	-50.465	-99.743	-123.776	110.714	-46.974	60.554	-101.298	120.919	68.676	64.765	-152.855	143.309	-149.756	32.728	157.536	-143.854	0.00093104	0.00051784	0.00016145	1549.2	4.0003e-06	6.9851e-06	1762.2	525.32	8.1013e-06	6.1965e-06	683.99	250.04	161.21	70.745	3.6045e-06	131.93	5.7692e-05	3.6123e-05	9.4895e-06	1265.5	4.0531e-07	3.614e-07	1439.1	424.04	3.9814e-07	3.7561e-07	540.67	198.91	126.95	55.393	3.9834e-07	102.83	-106.959	-105.641	-115.118	-158.737	-53.880	-23.968	-159.469	-154.996	-25.038	-36.193	-155.955	-151.800	-150.566	-145.590	-75.995	-148.020	-8191	255	
44627.523	1	1	0	0	0.15138	0.14024	0.18733	0.35214	0.18721	0.10155	0.29105	0.35248	0.090658	0.23909	0.18388	0.18387	0.19172	0.17747	0.084301	0.17067	-4.2583	-4.1646	-4.9521	-4.2708	-4.3708	-4.7917	-4.1125	-4.9604	-4.7562	-4.0208	-5.2833	-4.5354	-4.4313	-5.125	-4.0271	-4.9271	73.097	134.277	-45.157	149.129	-66.604	-144.354	127.736	162.442	-94.028	2.980	181.069	133.640	153.246	26.536	-12.934	149.603	0.0010642	0.00046273	0.00031963	1544.6	5.7757e-06	6.9023e-06	1750.2	525.75	7.1172e-06	1.0033e-06	673.62	246.34	158.33	69.245	5.8347e-06	129.15	5.6601e-05	3.4152e-05	9.1375e-06	1267.4	3.9003e-07	3.8611e-07	1432.3	421.87	3.8772e-07	3.6736e-07	534.58	195.81	125.03	54.438	3.9564e-07	100.75	-107.983	-127.645	-142.666	-158.815	-47.278	-50.568	-159.837	-155.121	-56.151	-85.998	-156.100	-151.780	-150.719	-145.532	-75.556	-147.920	-8191	255	
44627.617	1	1	0	0	0.34334	0.16345	0.21375	0.18519	0.2565	0.092135	0.18626	0.36583	0.10851	0.33691	0.31202	0.16808	0.20958	0.10629	0.12356	0.10482	-4.5125	-4.0312	-4.9917	-4.375	-4.2042	-4.9458	-4.3458	-4.7979	-4.5542	-4.2271	-5.0708	-4.6667	-4.4688	-4.95	-4.1521	-4.7125	115.959	-129.265	-160.257	67.892	-40.791	-146.371	111.992	160.272	84.686	-114.856	177.491	146.977	-172.447	151.235	-57.663	122.005	0.00094104	0.00039851	0.00010914	1526.6	4.0856e-06	4.5222e-06	1732.4	517.22	9.0992e-06	8.079e-06	675.98	245.45	157.87	68.9	5.812e-06	128.77	5.6259e-05	3.5422e-05	8.9899e-06	1245.8	3.801e-07	3.5312e-07	1410.7	417.97	3.9446e-07	3.6392e-07	531.25	194.84	124.3	54.194	3.8538e-07	100.49	-109.449	-96.116	-134.253	-158.642	-51.380	-81.252	-159.533	-154.918	-48.553	-62.682	-156.167	-151.686	-150.876	-145.804	-68.196	-148.117	-8191	255	
44627.715	1	1	0	0	0.10809	0.087137	0.18498	0.27666	0.069431	0.08742	0.19296	0.24286	0.11256	0.12431	0.12491	0.29002	0.25069	0.084794	0.031029	0.15627	-4.55	-4.0979	-4.8708	-4.5563	-4.1542	-5.1625	-4.2542	-4.5229	-4.8458	-3.9042	-5.0854	-4.6167	-4.2	-5.025	-4.2688	-4.5833	21.453	-101.639	-121.645	134.608	-29.476	-148.870	182.686	106.808	-166.127	-162.300	150.477	-164.463	178.173	-149.996	-53.459	133.267	0.00091122	0.00051078	0.00029042	1532.9	8.4426e-06	6.9129e-06	1733.3	516.11	6.8916e-06	4.4541e-06	671.13	245.95	158.08	69.358	7.9461e-06	130.16	5.7455e-05	3.3561e-05	9.2647e-06	1250.3	3.8096e-07	3.4696e-07	1417.6	417.82	3.9352e-07	3.697e-07	530.43	195.29	124.96	54.481	3.8512e-07	101.28	-108.183	-134.892	-152.780	-158.699	-60.667	-42.712	-159.280	-155.002	-37.885	-55.392	-156.118	-151.739	-150.517	-145.886	-76.067	-148.376	-8191	255	
44627.836	1	1	0	0	0.22445	0.11589	0.22745	0.20616	0.21991	0.112	0.10991	0.18825	0.1159	0.34135	0.3055	0.19283	0.15045	0.16266	0.29537	0.2475	-4.5729	-3.9146	-4.7396	-4.9208	-3.8729	-5.0917	-4.5417	-4.3063	-4.8625	-4.0625	-4.7771	-4.8812	-3.9313	-5.0604	-4.2521	-4.5729	-117.935	-70.333	95.523	-148.886	-141.777	-105.016	133.528	115.799	-163.820	-102.425	122.784	-165.492	112.040	53.723	96.837	153.316	0.00095656	0.00043544	0.00023909	1540.8	6.9884e-06	3.4212e-06	1754.9	518.74	1.1043e-05	5.7217e-06	680.98	247	161.2	69.713	4.5398e-06	131	5.4647e-05	3.3788e-05	9.3088e-06	1254.9	3.9585e-07	3.7163e-07	1425.1	419.89	3.997e-07	3.7372e-07	537.72	197.06	125.98	54.735	3.9828e-07	102	-109.056	-119.193	-121.248	-158.881	-74.303	-20.679	-159.631	-154.972	-55.004	-41.800	-156.127	-151.513	-150.475	-145.735	-50.152	-148.279	-8191	255	
44627.906	1	1	0	0	0.062039	0.092264	0.11739	0.24615	0.16939	0.21994	0.20316	0.10365	0.11896	0.19824	0.18121	0.37882	0.11132	0.098518	0.070765	0.30186	-4.6062	-4.1312	-4.475	-5.0542	-3.9688	-4.9208	-4.6354	-4.3292	-5	-4.0604	-4.6521	-4.9583	-4.0729	-4.9333	-4.6354	-4.3083	153.702	61.864	101.348	135.122	12.471	-6.806	114.017	-71.715	119.298	110.650	185.324	117.508	-103.655	-93.413	-169.488	126.205	0.00096255	0.0007902	0.00025186	1553	2.9428e-06	5.5554e-06	1759.8	524.94	5.834e-06	1.7899e-06	687.77	251.61	163.28	70.108	3.5456e-06	133.92	5.5283e-05	3.549e-05	9.8396e-06	1262.2	3.9169e-07	3.5423e-07	1439.9	423.41	3.9637e-07	3.7369e-07	541.91	199.68	127.52	55.49	3.8002e-07	103.91	-106.252	-127.831	-154.084	-158.922	-50.391	-59.038	-159.787	-154.762	-59.860	-23.998	-156.301	-151.709	-150.360	-145.759	-66.689	-147.875	-8191	255	
44628.004	1	1	0	0	0.042054	0.050721	0.2261	0.30534	0.037718	0.21197	0.1416	0.24775	0.15016	0.16846	0.12782	0.25304	0.19733	0.25361	0.27497	0.20967	-4.7125	-4.1479	-4.325	-4.9646	-3.9688	-4.7771	-4.7438	-4.3083	-4.9875	-4.375	-4.4875	-4.9625	-4.1875	-4.6958	-4.65	-4.3833	-124.659	21.088	2.116	178.244	-156.294	-109.246	113.946	-149.752	110.079	125.136	71.132	137.082	-165.732	140.962	-168.204	148.848	0.0010061	0.00050728	0.0002065	1546.3	8.2101e-06	8.317e-06	1760.2	522.44	7.7337e-06	5.047e-06	680.89	248.11	159.16	69.203	5.5621e-06	130.3	5.8133e-05	3.4076e-05	9.3122e-06	1262.1	4.0097e-07	3.5874e-07	1434.1	421.98	3.7568e-07	3.7786e-07	536.7	197.45	125.24	54.549	3.7419e-07	101.58	-106.530	-101.845	-128.349	-158.724	-57.706	-54.024	-159.452	-154.649	-44.096	-95.005	-156.090	-151.459	-150.694	-146.022	-85.644	-148.178	-8191	255	
44628.098	1	1	0	0	0.26332	0.21012	0.20992	0.29266	0.26212	0.061472	0.077872	0.19604	0.083115	0.2806	0.17063	0.085456	0.068887	0.34178	0.13338	0.20887	-4.5896	-4.3021	-4.2625	-5.2	-3.8833	-4.6333	-4.9729	-4.1583	-4.9	-4.3479	-4.4354	-5.0708	-4.1875	-4.6292	-4.7604	-4.1333	63.789	-78.700	119.638	113.939	-76.202	168.881	153.661	113.890	-19.278	20.377	-165.745	63.253	-66.978	-172.267	-32.456	111.641	0.00099516	0.00050164	0.00016313	1529.6	2.547e-06	2.8052e-06	1738.6	518.98	4.6417e-06	4.8718e-06	673.91	245.47	158.98	69.036	5.9177e-06	129.59	5.4193e-05	3.3542e-05	9.4123e-06	1246.8	3.8124e-07	3.624e-07	1415.4	417.66	3.798e-07	3.674e-07	530.38	195.32	124.57	54.162	3.7505e-07	100.75	-105.469	-129.495	-146.101	-158.681	-1.492	-46.681	-159.443	-155.169	-74.283	-61.715	-156.110	-151.406	-150.243	-145.764	-55.839	-148.314	-8191	255	
44628.219	1	1	0	0	0.060217	0.19502	0.16511	0.0090566	0.20416	0.043312	0.050074	0.1921	0.31988	0.22178	0.26645	0.17629	0.26255	0.18638	0.13949	0.20823	-4.5188	-4.4958	-4.0375	-5.2188	-4.1438	-4.5875	-5.2438	-4.1188	-4.9313	-4.3729	-4.2771	-5.3	-4.0917	-4.5979	-4.9292	-4.1604	-90.168	67.199	151.984	133.636	117.331	153.631	73.959	115.622	-153.267	89.461	126.516	181.618	152.444	76.032	147.877	87.216	0.00091854	0.00046679	0.00018739	1534.6	7.0149e-06	4.7575e-06	1737.8	513.48	5.3314e-06	4.5223e-06	678.44	244.82	158.14	68.651	3.9264e-06	129.59	5.5249e-05	3.4291e-05	9.5158e-06	1251.4	3.9052e-07	3.6832e-07	1420.7	416.18	3.7827e-07	3.6218e-07	531.97	195.22	124.25	53.95	3.6492e-07	100.7	-107.243	-135.568	-124.905	-158.782	-42.228	-48.212	-159.421	-155.009	-29.091	-70.201	-156.199	-151.633	-150.573	-145.789	-94.255	-148.083	-8191	255	
44628.316	1	1	0	0	0.073897	0.24367	0.19309	0.090976	0.068515	0.11788	0.17505	0.28634	0.087541	0.080939	0.38454	0.17376	0.343	0.19933	0.061196	0.24901	-4.4896	-4.4708	-4.1333	-5.2125	-4.2	-4.3208	-5.0938	-4.2646	-4.7979	-4.7812	-4.3021	-5.0708	-4.4083	-4.2458	-4.7667	-4.2438	-21.004	-161.757	-16.692	79.183	-133.752	43.589	146.147	134.721	-65.028	75.178	122.000	-162.540	-168.550	120.856	-124.124	168.077	0.00093767	0.00039693	0.00025487	1540.1	8.5684e-06	5.3781e-06	1750.5	517.44	6.2944e-06	3.9361e-06	682.03	249.32	159.13	69.254	7.8305e-06	131.18	5.4775e-05	3.3835e-05	9.5079e-06	1251.9	4.0326e-07	3.7306e-07	1424.7	418.02	3.8853e-07	3.5878e-07	536.66	197.46	125.58	54.467	3.8003e-07	102.14	-112.937	-87.369	-103.283	-158.856	-66.051	-38.533	-159.612	-154.881	-97.200	-75.770	-156.133	-151.653	-150.541	-145.742	-49.712	-148.133	-8191	255	
44628.410	1	1	0	0	0.10219	0.034389	0.15571	0.46553	0.058464	0.10666	0.19722	0.098336	0.13981	0.12969	0.43032	0.27025	0.36395	0.20007	0.21905	0.084403	-4.3562	-4.8042	-4.1167	-5.0792	-4.5896	-4.2063	-5.2125	-4.1625	-4.5104	-4.6979	-4.3667	-5.1875	-4.4542	-4.4104	-5.0625	-4.3521	-29.718	-168.655	-21.643	153.466	-123.139	-17.041	95.710	104.538	123.976	37.600	149.558	135.535	177.439	182.784	-143.342	123.574	0.00093993	0.0006153	0.00025482	1546.5	8.519e-06	7.1728e-06	1763.4	522.98	8.5813e-06	5.369e-06	690.72	252.65	161.85	70.298	5.108e-06	133.36	5.5635e-05	3.3065e-05	9.5286e-06	1260.3	4.016e-07	3.762e-07	1442.7	423.22	4.0257e-07	3.589e-07	545.84	201.16	127.45	55.241	3.776e-07	103.94	-105.714	-115.829	-126.267	-158.971	-63.466	-25.194	-159.252	-155.100	-51.801	-31.111	-155.773	-151.443	-150.593	-145.796	-93.597	-147.986	-8191	255	
44628.508	1	1	0	0	0.26281	0.12402	0.10082	0.083982	0.10826	0.1957	0.13985	0.16204	0.098552	0.35779	0.12209	0.12196	0.18508	0.14788	0.23807	0.146	-4.1708	-4.8396	-3.9146	-5.0563	-4.5104	-3.9437	-5.2917	-4.2917	-4.5292	-4.8729	-4.2646	-4.9125	-4.7542	-4.05	-5.0958	-4.4958	-85.861	69.839	144.302	-148.964	82.183	177.138	94.966	54.394	-41.310	-98.076	136.278	-119.734	148.950	157.737	86.645	121.413	0.0010141	0.00046725	7.5392e-05	1564.5	4.6789e-06	6.0913e-06	1770.8	524.23	3.9627e-06	7.0392e-06	685.66	249.21	159.16	68.753	6.004e-06	130.17	5.6607e-05	3.3939e-05	9.3427e-06	1270.7	3.991e-07	3.7049e-07	1443.9	424.82	3.8225e-07	3.6518e-07	541.19	198.7	125.66	54.302	3.8355e-07	101.61	-107.146	-126.556	-158.926	-158.887	-51.887	-36.063	-159.376	-154.894	-53.655	-77.257	-156.189	-151.529	-150.575	-145.905	-86.001	-148.015	-8191	255	
44628.602	1	1	0	0	0.14462	0.080308	0.028443	0.32265	0.077212	0.12485	0.42638	0.28381	0.26047	0.23331	0.27195	0.14865	0.041156	0.15273	0.13816	0.13368	-3.9958	-4.8917	-3.7458	-4.9917	-4.675	-4.1354	-5.2292	-4.3125	-4.4062	-4.9833	-4.2354	-4.8875	-4.8979	-4.1875	-5.0375	-4.725	-151.548	-79.834	123.864	108.477	-133.337	111.035	113.662	120.712	125.246	-96.126	-156.389	62.054	-113.418	149.255	-125.601	-149.051	0.0010004	0.00013697	0.00020913	1527.6	6.2755e-06	3.7338e-06	1742.8	518.64	8.6102e-06	6.0477e-06	676.09	247.66	158.88	67.964	7.956e-06	129.09	5.6581e-05	3.1759e-05	9.2391e-06	1250	3.8047e-07	3.6012e-07	1423.4	418.33	3.9502e-07	3.6144e-07	533	195.8	124.64	53.594	3.6153e-07	100.69	-106.136	-119.205	-82.111	-158.805	-108.890	-62.609	-159.512	-155.052	-35.983	-78.507	-156.275	-151.951	-150.431	-145.649	-86.305	-148.146	-8191	255	
44628.699	1	1	0	0	0.11547	0.15711	0.076775	0.078843	0.221	0.16744	0.10524	0.33076	0.23216	0.08094	0.17621	0.064044	0.13591	0.019588	0.070616	0.2688	-4.0208	-4.9688	-4.0479	-4.7667	-4.8417	-3.9208	-5.1083	-4.7208	-4.3708	-5.0479	-4.2021	-4.6813	-5.0917	-4.1417	-4.8958	-4.8354	179.942	-157.567	-162.106	147.240	7.379	-30.938	104.821	87.635	60.140	127.877	76.348	-172.257	154.154	-15.961	34.775	96.020	0.00095989	0.00065507	0.00020896	1537.6	8.4409e-06	4.7418e-06	1739.6	519.96	8.8315e-06	6.6385e-06	680.89	249.64	159.98	68.866	6.2371e-06	130.18	5.4674e-05	3.205e-05	9.3423e-06	1248.4	3.8007e-07	3.7558e-07	1424.3	419.57	4.0235e-07	3.5666e-07	536.69	197.48	125.66	54.043	3.7773e-07	101.64	-113.162	-138.134	-155.556	-159.115	-65.179	-41.507	-159.508	-154.553	-28.960	-57.146	-155.993	-151.906	-150.203	-145.494	-76.183	-147.766	-8191	255	
44628.797	1	1	0	0	0.13649	0.25775	0.12816	0.15858	0.21247	0.081868	0.37879	0.30711	0.15103	0.17725	0.27039	0.25036	0.23673	0.34085	0.18233	0.085597	-3.7	-4.9938	-4.1062	-4.6021	-5.025	-3.9771	-4.7646	-4.8167	-4.1312	-5.0354	-4.3167	-4.5813	-4.9313	-4.0813	-4.7771	-5.0417	49.234	52.699	-14.341	98.008	32.862	-86.203	180.352	122.253	6.710	23.947	110.789	90.611	12.311	131.048	-12.849	59.517	0.0009498	0.00048999	0.0002248	1530.9	5.8095e-06	2.155e-06	1757.1	523.49	7.1916e-06	4.1114e-06	687.7	249.13	160.59	68.654	5.9634e-06	130.39	5.6449e-05	3.4182e-05	9.293e-06	1251.9	3.7202e-07	3.6399e-07	1433.7	422.2	3.8898e-07	3.7797e-07	541.36	198.62	125.94	54.095	3.7557e-07	102	-108.022	-132.730	-92.673	-159.079	-41.529	-44.699	-159.524	-154.843	-61.321	-49.557	-156.181	-151.779	-150.634	-146.042	-85.141	-147.810	-8191	255	
44628.914	1	1	0	0	0.024914	0.16072	0.32337	0.23383	0.083348	0.12989	0.29204	0.39188	0.31288	0.22782	0.099261	0.32981	0.11216	0.12326	0.17693	0.072901	-3.7062	-4.9292	-4.2583	-4.6875	-5.1312	-4.0521	-4.9021	-4.9083	-4.1292	-4.925	-4.4833	-4.3792	-4.9708	-4.3083	-4.4917	-5.0375	-113.918	-144.535	-70.317	161.881	101.577	31.319	157.391	149.265	75.984	97.956	127.705	111.387	181.627	-90.360	-85.659	-54.466	0.0010492	0.00056638	0.00020932	1550.9	5.9894e-06	4.1742e-06	1771.8	526.57	4.8748e-06	7.0006e-06	692.06	250.74	162	69.46	7.2347e-06	132.24	5.5178e-05	3.3719e-05	9.0339e-06	1264.3	3.8215e-07	3.6608e-07	1446	425.04	3.8853e-07	3.7171e-07	546.89	199.64	127.01	54.584	3.7834e-07	103.24	-108.289	-104.535	-140.817	-158.736	-41.469	-61.706	-159.430	-155.015	-33.501	-60.869	-156.230	-151.891	-150.179	-145.976	-74.129	-147.881	-8191	255	
44629.012	1	1	0	0	0.025559	0.12334	0.053399	0.12707	0.081142	0.14074	0.21479	0.35419	0.25304	0.25708	0.1671	0.17434	0.15771	0.030482	0.060137	0.22451	-3.6792	-5	-4.4792	-4.275	-5.0729	-4.3167	-4.5104	-5.0125	-4.0417	-4.8458	-4.7146	-4.3396	-5.0125	-4.3854	-4.3542	-5.25	-95.055	-28.113	-121.753	132.349	169.725	14.416	175.186	142.044	128.279	-157.169	-128.980	-154.661	87.810	-109.408	-113.766	158.363	0.00096894	0.00048322	0.00027726	1555.7	6.2528e-06	2.9794e-06	1774.6	525.47	1.1434e-05	3.3389e-06	687.2	250.51	160.1	68.401	3.1326e-06	130.39	5.628e-05	3.2436e-05	9.328e-06	1266.5	3.7965e-07	3.5665e-07	1446.6	424.61	3.9357e-07	3.508e-07	542.87	198.96	125.34	53.855	3.5947e-07	101.87	-108.537	-130.046	-121.157	-158.795	-38.598	-39.366	-159.471	-155.158	-25.705	-71.593	-155.846	-152.071	-150.840	-145.703	-52.915	-148.035	-8191	255	
44629.105	1	1	0	0	0.18545	0.22445	0.067184	0.21026	0.11201	0.074781	0.17146	0.047776	0.25147	0.12963	0.1077	0.1712	0.16293	0.32087	0.092293	0.27369	-3.8937	-4.725	-4.6333	-4.2542	-5.0146	-4.3562	-4.6583	-4.8688	-3.8771	-4.7167	-4.8688	-4.1417	-5.0437	-4.7125	-4.2063	-5.2646	175.125	-1.521	116.404	172.740	143.143	93.974	45.236	134.624	-130.594	165.760	-84.443	163.437	-172.560	145.556	-100.639	119.852	0.00091484	0.00073068	0.00029831	1529.2	5.3778e-06	6.0096e-06	1737.6	518.36	6.2853e-06	6.3467e-06	675.72	245.81	158.11	67.53	4.4357e-06	129.01	5.4252e-05	3.3861e-05	9.709e-06	1246.9	3.6415e-07	3.4101e-07	1425.8	418.68	3.868e-07	3.5283e-07	537.88	196.43	124.26	53.21	3.6479e-07	100.74	-109.350	-119.891	-137.417	-158.938	-56.051	-43.607	-159.517	-155.011	-59.881	-76.950	-155.852	-151.734	-150.274	-145.802	-100.909	-147.837	-8191	255	
44629.203	1	1	0	0	0.09679	0.13573	0.25137	0.28844	0.1006	0.076626	0.14463	0.23029	0.15652	0.094522	0.16528	0.21647	0.19537	0.084194	0.099979	0.042684	-3.9125	-4.7417	-4.8458	-4.0979	-4.9875	-4.4104	-4.3521	-5.1312	-4.1104	-4.4375	-5.1208	-4.0208	-5.0417	-4.6542	-4.2271	-5.3021	164.472	9.616	-108.228	165.626	163.110	164.906	10.050	108.532	28.626	-68.928	155.680	138.994	106.283	133.651	93.593	20.171	0.00097377	0.00061309	0.00027351	1542.8	4.0216e-06	5.2539e-06	1770.2	522.34	1.0894e-05	6.883e-06	692.8	249.67	160.31	68.884	4.9704e-06	131.79	5.6669e-05	3.3218e-05	9.3811e-06	1256.3	3.7024e-07	3.4884e-07	1440.6	422.84	3.9277e-07	3.6317e-07	546.44	199.11	125.77	54.267	3.8043e-07	102.91	-109.783	-161.386	-109.845	-159.006	-72.524	-30.423	-159.600	-155.016	-53.987	-22.577	-155.810	-151.900	-150.498	-145.870	-76.404	-147.956	-8191	255	
44629.301	1	1	0	0	0.094604	0.10635	0.046913	0.22114	0.029176	0.17113	0.14048	0.055279	0.14458	0.32121	0.18848	0.12137	0.18304	0.085947	0.036802	0.22433	-3.6979	-4.4437	-5.0083	-4.1396	-4.6292	-4.5458	-4.3479	-5.2667	-4.2292	-4.2229	-5.1062	-4.2021	-4.7146	-4.7333	-4.0979	-5.0771	95.990	150.822	-146.738	169.384	-36.373	145.898	-4.418	-65.362	-27.149	150.728	159.880	37.466	143.985	136.735	114.385	146.748	0.0010682	0.00047472	0.00018105	1566.1	3.0499e-06	6.2781e-06	1794.3	531.23	5.6702e-06	5.9931e-06	700.65	255.66	161.87	69.627	4.9324e-06	133.8	5.7873e-05	3.3954e-05	9.3182e-06	1273	3.733e-07	3.6926e-07	1462.4	428.5	4.067e-07	3.6436e-07	554.97	202.52	127.46	54.819	3.9604e-07	104.17	-105.984	-79.885	-139.888	-158.601	-36.041	-37.609	-159.659	-154.958	-56.628	-65.804	-155.933	-151.978	-150.716	-145.837	-56.845	-147.976	-8191	255	
44629.395	1	1	0	0	0.2363	0.059976	0.16292	0.24438	0.16714	0.053385	0.2388	0.45161	0.11327	0.31176	0.20598	0.20293	0.31671	0.18276	0.075076	0.31279	-3.8375	-4.6042	-5.05	-4.1438	-4.65	-4.5875	-4.1896	-5.2375	-4.4896	-4.3125	-5.0354	-4.3562	-4.7583	-4.8562	-3.9333	-5.3333	-130.726	103.278	-49.322	146.660	-85.925	8.288	60.371	82.645	-63.594	144.837	155.364	100.134	-145.630	114.938	120.400	114.024	0.00097595	0.00040273	0.00013735	1588.9	7.0034e-06	6.5748e-06	1823.8	536.54	5.6447e-06	3.8691e-06	715.14	259.97	165.05	70.664	5.6982e-06	136.06	5.7025e-05	3.4109e-05	9.4496e-06	1291.6	4.0571e-07	3.8011e-07	1488.9	434.95	4.1763e-07	3.8608e-07	563.91	205.92	130.11	55.561	4.0311e-07	105.98	-107.612	-110.243	-148.690	-158.940	-55.028	-41.117	-159.461	-155.042	-64.584	-14.511	-155.958	-151.734	-150.774	-145.703	-89.351	-148.029	-8191	255	
44629.516	1	1	0	0	0.20933	0.13421	0.066856	0.27295	0.05262	0.20293	0.066967	0.30224	0.20054	0.079071	0.12106	0.15738	0.12538	0.17552	0.16528	0.25113	-4.1375	-4.0667	-5	-4.3187	-4.4354	-4.8083	-4.4458	-5.15	-4.4354	-4.3208	-5.2479	-4.3229	-4.65	-4.8292	-3.8604	-5.0333	-152.979	-134.659	-34.097	129.830	30.519	-153.075	33.657	114.123	138.517	75.809	146.896	160.264	-163.250	103.494	147.501	159.088	0.0010677	0.00073884	0.00022529	1606.9	7.0846e-06	7.4289e-06	1814.7	535.14	6.4975e-06	4.5704e-06	701.14	254.32	161.35	69.102	4.8831e-06	131.87	6.0742e-05	3.8886e-05	9.9797e-06	1309	4.1497e-07	3.9677e-07	1484.9	432.71	4.0778e-07	3.9401e-07	553.27	202.11	127.19	54.388	4.075e-07	102.7	-106.985	-103.069	186.514	-159.009	-53.392	-40.757	-159.431	-154.887	-57.102	-68.288	-156.190	-152.125	-150.454	-145.622	-74.779	-147.911	-8191	255	
44629.613	1	1	0	0	0.21838	0.011062	0.086662	0.26441	0.12596	0.17718	0.22588	0.26406	0.29651	0.19702	0.062956	0.058285	0.18135	0.19161	0.16285	0.066088	-4.0771	-4.275	-5.0437	-4.3771	-4.3562	-4.8917	-4.1729	-4.8	-4.4875	-4.1125	-5.125	-4.3854	-4.3917	-4.9625	-3.9062	-4.9187	-100.140	-28.462	-48.920	126.627	162.757	63.232	110.807	116.649	-130.651	-23.506	137.839	-109.791	174.467	143.937	-39.265	-58.464	0.00092165	0.00027607	0.00021047	1539.6	3.0948e-06	2.1766e-06	1760.2	519.68	3.7575e-06	7.4235e-06	682.83	245.85	156.75	67.046	5.0448e-06	127.82	5.8221e-05	3.5766e-05	9.7557e-06	1255.7	4.1576e-07	3.6991e-07	1432.5	419.53	4.1173e-07	3.8843e-07	538.71	195.41	123.24	52.825	4.0882e-07	99.764	-106.936	-146.153	-125.362	-158.838	-40.056	-24.554	-159.722	-154.927	-50.305	-51.961	-155.844	-151.751	-150.168	-145.395	-63.965	-147.985	-8191	255	
44629.707	1	1	0	0	0.10823	0.13816	0.14306	0.2652	0.056318	0.13229	0.12137	0.098169	0.22357	0.28213	0.17198	0.33225	0.313	0.27147	0.31941	0.26001	-4.3208	-3.975	-4.9375	-4.6312	-4.0771	-4.8938	-4.1896	-4.6521	-4.7729	-4.0625	-5.1562	-4.4521	-4.2417	-5.1083	-4.2688	-4.5896	-43.641	-34.964	-84.492	143.400	-25.981	-143.031	107.731	90.070	-167.366	135.391	114.764	71.240	179.632	134.630	51.823	129.357	0.00092107	0.00071834	0.0003352	1531.5	3.5654e-06	7.0023e-06	1744.7	512.92	6.4006e-06	6.5159e-06	678.03	246.2	155.57	67.088	8.9373e-06	128.45	5.5012e-05	3.5056e-05	1.0054e-05	1243.7	3.9536e-07	3.7334e-07	1427.6	415.95	4.2732e-07	3.9151e-07	534.89	195.16	123.05	52.581	4.1836e-07	99.828	-104.953	-100.346	-119.657	-158.617	-4.251	-14.898	-159.562	-155.223	-25.571	-66.089	-156.582	-151.642	-150.746	-145.453	-66.780	-148.002	-8191	255	
44629.781	1	1	0	0	0.0372	0.088611	0.1771	0.15715	0.20878	0.13992	0.054525	0.045834	0.075485	0.064916	0.11486	0.18316	0.091178	0.29651	0.29789	0.1686	-4.6	-3.9313	-4.7937	-4.7188	-4.0667	-5.0167	-4.3729	-4.7438	-4.85	-4.1667	-5.0646	-4.8167	-4.0917	-5.1104	-4.0958	-4.5854	22.220	-120.450	-128.581	-152.509	-127.337	30.268	176.828	40.597	120.510	127.460	-163.371	100.679	-46.068	128.766	71.972	118.860	0.00092849	0.00078135	0.00025931	1517.2	4.1881e-06	3.2633e-06	1758.4	513.96	5.4979e-06	5.8192e-06	681.67	244.93	157.79	67.094	3.4405e-06	129.42	5.6504e-05	3.6182e-05	1.0146e-05	1241.3	4.1085e-07	3.7785e-07	1431	415.57	4.1693e-07	3.8061e-07	538.88	195.69	123.76	52.909	4.2421e-07	100.53	-106.523	-138.956	-106.272	-158.893	-81.367	-38.343	-159.555	-155.245	-31.930	-71.961	-156.228	-151.833	-150.682	-145.925	-97.835	-148.242	-8191	255	
44629.898	1	1	0	0	0.12564	0.17292	0.072724	0.19168	0.13485	0.1726	0.46869	0.17907	0.016995	0.16442	0.22696	0.19813	0.088993	0.28181	0.15566	0.23289	-4.6083	-4.025	-4.7333	-4.8646	-3.9646	-4.9479	-4.4729	-4.4292	-4.8313	-3.9375	-4.8792	-4.9521	-4.1312	-5.0188	-4.3042	-4.3292	-50.130	-57.927	159.716	181.942	-87.783	-157.906	123.034	139.552	155.967	51.301	86.737	140.424	-118.180	-158.236	15.834	103.622	0.00099639	0.00048581	0.00022765	1539.4	3.6861e-06	5.6713e-06	1757.7	518.47	7.421e-06	5.6566e-06	686.19	249.74	158.42	68.061	6.6254e-06	130.94	5.7444e-05	3.5749e-05	9.9157e-06	1250.7	4.0648e-07	3.7338e-07	1436.9	419.46	4.0231e-07	3.6196e-07	541.78	198.4	124.81	53.728	3.9836e-07	101.96	-114.377	-111.426	-120.479	-159.040	-51.853	-42.854	-159.472	-154.948	-74.397	-72.531	-156.269	-151.471	-150.895	-145.809	-49.747	-148.180	-8191	255	
44629.996	1	1	0	0	0.22026	0.30368	0.25083	0.1636	0.17143	0.030206	0.27989	0.44012	0.26638	0.26492	0.039992	0.075453	0.14261	0.19198	0.12804	0.17317	-4.4875	-3.9979	-4.5104	-4.8417	-4.1042	-4.8688	-4.65	-4.2688	-4.9854	-4.1104	-4.6729	-5.0042	-4.1813	-4.9625	-4.4437	-4.3187	-100.973	36.457	-11.140	175.412	69.293	124.715	151.905	143.657	-40.145	-78.438	70.296	-130.295	158.930	111.704	80.405	59.902	0.00092813	0.00051727	0.00020659	1539.2	6.7271e-06	7.9464e-06	1761.6	520.04	6.7894e-06	8.8567e-06	678.27	247.43	158.14	67.315	7.2995e-06	128.4	5.6961e-05	3.5134e-05	1.013e-05	1257.1	4.018e-07	3.8558e-07	1440.2	419.89	3.9342e-07	3.9979e-07	538.73	196.3	123.86	53.277	3.8947e-07	100.22	-107.583	-96.034	-159.389	-158.536	-49.601	-28.860	-159.374	-154.847	-48.921	-42.342	-155.672	-151.814	-150.576	-146.080	-67.434	-148.115	-8191	255	
44630.090	1	1	0	0	0.20363	0.20774	0.11581	0.22121	0.21739	0.096388	0.26697	0.14539	0.18909	0.11819	0.070372	0.34234	0.10278	0.039639	0.13283	0.33737	-4.7542	-4.1646	-4.5375	-4.9333	-4.1125	-4.7417	-4.85	-4.4042	-4.9187	-4.1521	-4.4313	-5.1396	-4.05	-4.8625	-4.7	-4.1208	22.110	-11.933	-73.920	107.083	174.475	95.969	94.554	135.837	-73.854	-114.178	-124.907	149.701	-168.458	185.845	106.967	101.866	0.00094701	0.00076865	0.00021635	1503.9	9.3479e-06	4.8233e-06	1727	509.87	5.0892e-06	5.5086e-06	667.51	241.65	155.04	66.3	6.6565e-06	127.08	5.7042e-05	3.575e-05	9.6228e-06	1230.4	3.976e-07	3.835e-07	1413.3	412.3	3.86e-07	3.8522e-07	528.18	192.62	122.38	52.237	3.8746e-07	98.584	-107.422	-94.725	-131.518	-158.736	-71.314	-0.137	-159.470	-155.006	-16.992	-55.698	-156.148	-151.711	-150.786	-145.739	-86.255	-148.477	-8191	255	
44630.188	1	1	0	0	0.14639	0.091385	0.21063	0.33975	0.10899	0.048796	0.23645	0.14296	0.20401	0.13624	0.10558	0.18226	0.16592	0.22756	0.043584	0.21024	-4.6417	-4.4021	-4.2521	-5.0708	-3.9062	-4.6875	-4.9583	-4.1729	-5.0417	-4.4417	-4.3958	-5.0708	-4.125	-4.7646	-4.9313	-4.1438	129.244	41.933	-130.664	149.164	160.387	-82.040	158.689	105.572	-0.764	144.614	2.504	-123.457	149.377	171.152	55.748	131.994	0.00090952	0.00064469	0.00011016	1502.4	5.9488e-06	6.5743e-06	1718.6	511.77	8.0312e-06	2.0406e-06	672.59	242.31	155.29	66.346	7.8634e-06	126.74	5.4434e-05	3.5635e-05	9.8957e-06	1227.4	4.028e-07	3.8301e-07	1406.2	412.28	4.0412e-07	3.6988e-07	530.39	192.72	122.29	52.273	3.8152e-07	98.539	-107.059	-93.932	180.301	-158.954	-62.519	-34.236	-159.404	-154.859	-46.379	-55.381	-156.256	-151.508	-151.101	-145.855	-70.774	-148.219	-8191	255	
44630.309	1	1	0	0	0.16508	0.13524	0.052849	0.27009	0.10025	0.049065	0.15393	0.055028	0.15136	0.23548	0.058337	0.33835	0.41294	0.17352	0.12904	0.096121	-4.7667	-4.2625	-4.0813	-4.9521	-4.0625	-4.6354	-5.0542	-4.1729	-4.8417	-4.5563	-4.2979	-5.2125	-4.2583	-4.4875	-4.9042	-4.1854	-62.178	21.672	125.407	163.761	-167.597	-49.345	86.527	-149.687	81.082	52.918	143.643	170.190	79.240	-92.093	186.452	165.013	0.00092434	0.0005242	0.00022264	1519.5	7.2148e-06	4.6809e-06	1735.8	510.56	6.7554e-06	4.4653e-06	679.29	243.85	155.2	66.671	4.3543e-06	127.25	5.4743e-05	3.5577e-05	9.6566e-06	1233.2	4.0434e-07	3.7143e-07	1416.9	413.79	4.0338e-07	3.6676e-07	533.86	193.49	122.64	52.508	3.8638e-07	99.333	-107.675	-142.764	-136.824	-158.787	-60.505	-37.101	-159.585	-154.973	-25.621	-103.480	-156.412	-151.833	-150.877	-146.075	-88.206	-148.221	-8191	255	
44630.379	1	1	0	0	0.16834	0.14078	0.063568	0.2068	0.20328	0.15386	0.26521	0.22972	0.21067	0.13738	0.044166	0.14316	0.060425	0.03946	0.18702	0.2773	-4.5896	-4.3646	-4.0813	-5.2625	-4.3187	-4.4729	-5.0479	-4.1521	-4.7	-4.75	-4.2375	-5.1438	-4.4187	-4.4354	-4.8938	-4.3583	-36.107	90.828	171.447	61.891	-110.371	-36.480	147.384	94.175	-165.742	-17.665	155.497	169.630	-124.270	-46.285	144.826	128.302	0.00092079	0.00028007	0.00025499	1511	5.5057e-06	7.9559e-06	1743.9	515.07	1.0622e-05	7.9234e-06	681.46	246.88	157.97	67.223	5.0796e-06	127.79	5.5841e-05	3.3732e-05	9.625e-06	1234.9	3.8844e-07	3.8346e-07	1426.6	416	4.0395e-07	3.8015e-07	537.33	195.97	123.88	52.935	3.9934e-07	99.978	-106.718	-105.920	-123.478	-158.860	-68.097	-71.116	-159.274	-154.859	-34.214	-57.500	-155.843	-151.816	-150.490	-145.817	-54.360	-147.911	-8191	255	
44630.477	1	1	0	0	0.10965	0.14554	0.0062998	0.41738	0.12183	0.10782	0.12777	0.42744	0.22478	0.073497	0.059848	0.2988	0.11479	0.13158	0.046943	0.10491	-4.4688	-4.7729	-4.05	-5.1708	-4.4437	-4.2979	-5.0583	-4.2667	-4.6	-4.6708	-4.2667	-4.9396	-4.5792	-4.3729	-4.8854	-4.2229	-57.802	15.991	-51.624	142.983	94.715	-26.705	30.085	148.322	-81.120	166.699	139.983	125.551	-94.927	-167.101	65.999	-127.966	0.00097828	0.00071682	0.00016668	1527.2	4.2833e-06	4.6383e-06	1750.3	515.41	7.4938e-06	7.2826e-06	674.98	244.93	156.13	66.274	5.0316e-06	125.47	5.7172e-05	3.4644e-05	9.8468e-06	1246	3.9849e-07	3.7417e-07	1431.7	416.63	4.0293e-07	3.7536e-07	533.41	194.1	122.97	52.467	3.8785e-07	98.124	-110.954	-107.930	-126.893	-158.547	-82.572	-33.254	-159.595	-154.654	-52.024	-70.093	-156.247	-151.974	-150.632	-145.509	-88.478	-148.019	-8191	255	
44630.598	1	1	0	0	0.18473	0.13908	0.045996	0.22158	0.23864	0.26341	0.35773	0.16987	0.33146	0.043783	0.053482	0.043697	0.14111	0.18615	0.08911	0.21516	-4.2688	-4.7167	-4.0167	-5.1604	-4.7083	-4.0875	-5.3	-4.25	-4.4042	-4.975	-4.0667	-5.0021	-4.8333	-4.2688	-4.9667	-4.3292	6.864	127.277	-166.626	161.945	126.554	142.537	130.836	156.460	-8.629	40.981	122.058	-156.296	-168.440	-53.995	92.980	138.532	0.0010089	0.0002406	0.00023357	1510.8	4.6088e-06	1.3664e-06	1723.8	510.96	7.9444e-06	7.6089e-06	669.65	241.58	154.57	65.813	6.0303e-06	124.4	5.7426e-05	3.5651e-05	9.7605e-06	1232.3	3.9062e-07	3.6042e-07	1405.3	412.65	4.0289e-07	3.6307e-07	526.07	190.85	121.7	51.893	3.7751e-07	97.023	-106.598	-110.790	-134.890	-158.778	-44.255	-22.133	-159.574	-154.986	-46.682	-60.329	-156.322	-151.949	-150.907	-146.226	-80.764	-148.143	-8191	255	
44630.691	1	1	0	0	0.2446	0.33619	0.062752	0.16984	0.27892	0.1082	0.1918	0.079619	0.27543	0.099074	0.29774	0.23246	0.14606	0.30767	0.066735	0.16992	-4.0938	-4.8833	-3.9604	-4.9896	-4.6896	-3.9708	-5.2146	-4.5729	-4.3042	-4.8938	-4.1292	-4.8458	-4.9	-4.0458	-4.9979	-4.6021	-60.244	-168.425	43.465	95.633	-120.056	169.772	-101.922	58.917	-42.632	20.395	178.690	181.501	-100.121	-120.509	-42.276	107.895	0.00089136	0.0005907	0.00018067	1511.4	6.9263e-06	3.9448e-06	1718.5	508.22	6.6829e-06	1.3674e-06	665.51	241.51	155.76	66.196	2.9525e-06	125.23	5.4276e-05	3.3566e-05	9.8953e-06	1229.1	3.8185e-07	3.7588e-07	1400.7	411.6	3.8474e-07	3.5326e-07	525.02	191.45	122.27	52.193	3.8886e-07	97.566	-106.025	-109.682	-140.420	-158.872	-55.207	-22.819	-159.574	-154.725	-39.748	-5.752	-156.197	-151.911	-150.442	-146.032	-50.678	-148.028	-8191	255	
44630.789	1	1	0	0	0.29389	0.039991	0.081121	0.15338	0.24007	0.023648	0.2382	0.20936	0.15639	0.03795	0.24283	0.12964	0.10665	0.25237	0.18667	0.30698	-3.9417	-5.0021	-4.0604	-4.7583	-4.8812	-4.1625	-5.1354	-4.6708	-4.2104	-5.0646	-4.3938	-4.7375	-4.7583	-4.1896	-5.0188	-4.7542	141.012	92.103	-143.078	161.518	90.869	127.327	150.132	107.396	87.560	-57.199	143.141	138.657	177.860	164.476	9.140	116.440	0.00093356	0.00065982	0.00030903	1512.2	3.1441e-06	4.4237e-06	1726.7	509.4	2.5851e-06	5.1636e-06	668.34	242.22	156.49	66.127	5.3e-06	125.58	5.5614e-05	3.38e-05	9.6751e-06	1232.7	3.786e-07	3.7143e-07	1409.8	413.47	3.6811e-07	3.8105e-07	526.9	191.87	122.56	52.295	3.8293e-07	97.915	-110.316	-106.477	-114.445	-159.164	-49.009	-41.518	-159.180	-154.726	-43.481	-52.036	-156.615	-151.959	-150.314	-145.377	-61.146	-148.182	-8191	255	
44630.910	1	1	0	0	0.22588	0.056335	0.084892	0.14177	0.090006	0.082731	0.2765	0.089861	0.14632	0.15631	0.099776	0.029499	0.055579	0.12846	0.20409	0.20384	-3.8625	-5.0792	-4.1438	-4.5833	-4.8479	-4.0604	-4.9604	-4.6729	-4.0354	-5.0125	-4.4917	-4.5958	-5.0083	-4.1479	-4.8417	-4.8187	-15.991	-161.710	-113.135	123.657	146.480	52.466	124.599	-109.615	173.690	125.559	97.319	72.579	-26.722	63.717	-161.159	155.670	0.00087405	0.00050765	0.00019594	1524	4.2371e-06	2.5645e-06	1736.5	512.55	9.099e-06	8.027e-06	668.19	243.51	156.96	66.65	3.7478e-06	125.55	5.5012e-05	3.3726e-05	9.8501e-06	1237.8	3.8847e-07	3.6999e-07	1416	415.1	4.0256e-07	3.5629e-07	528.82	192.92	123.15	52.642	3.6654e-07	98.373	-106.625	-124.587	-84.103	-158.807	-71.467	-5.573	-159.605	-154.641	-63.572	-67.464	-156.520	-152.190	-150.437	-145.597	-72.269	-147.821	-8191	255	
44631.004	1	1	0	0	0.084131	0.09145	0.21231	0.40902	0.20575	0.038655	0.16245	0.16871	0.092917	0.054121	0.24297	0.23031	0.06291	0.14362	0.15151	0.33298	-3.8	-5.05	-4.3313	-4.5292	-5.0021	-4.1583	-4.9167	-4.8104	-4.0729	-5.0437	-4.4583	-4.3042	-5.0979	-4.1021	-4.5687	-4.9229	70.666	-48.701	115.720	-161.715	134.380	81.557	-170.520	160.842	-108.291	121.471	123.147	100.233	97.387	157.885	-44.039	59.712	0.00094844	0.000554	0.00026519	1527.6	6.842e-06	5.0148e-06	1742	512	5.1662e-06	8.387e-06	665.52	242.69	156.04	66.645	4.647e-06	125.34	5.5279e-05	3.5031e-05	9.6551e-06	1240.9	3.8866e-07	3.7531e-07	1419.2	414.14	4.0014e-07	3.7182e-07	527.66	192.03	122.78	52.267	3.9183e-07	97.597	-105.598	-98.466	-112.728	-158.591	-52.165	-52.425	-159.690	-154.783	-57.306	-54.457	-155.881	-151.793	-150.220	-145.969	-59.403	-147.828	-8191	255	
44631.074	1	1	0	0	0.16972	0.10902	0.090178	0.30511	0.038237	0.10531	0.39882	0.25327	0.10851	0.08803	0.31233	0.33117	0.13741	0.20188	0.14588	0.11047	-3.6021	-4.9667	-4.4542	-4.2521	-5.0062	-4.1167	-4.8604	-4.8833	-3.925	-4.8771	-4.7688	-4.2396	-5.0583	-4.4313	-4.5188	-5.0625	-82.413	-63.480	37.746	162.382	14.918	167.353	92.955	122.986	-7.208	-93.056	122.731	176.961	140.790	94.873	7.046	106.409	0.00095703	0.0007367	0.00014129	1496.9	7.3118e-06	7.5244e-06	1707	502.96	7.6385e-06	8.0827e-06	658.83	236.91	152.78	65.921	4.4954e-06	123.7	5.7074e-05	3.339e-05	9.5697e-06	1223.2	4.0099e-07	3.6852e-07	1392	407.11	3.9306e-07	3.6825e-07	519.38	188.28	120.27	51.528	3.9201e-07	96.058	-108.347	-118.676	-155.083	-158.798	-99.690	-62.013	-159.533	-154.825	-44.206	-51.945	-155.989	-152.113	-150.446	-145.953	-94.702	-148.189	-8191	255	
44631.195	1	1	0	0	0.31572	0.077611	0.095664	0.17299	0.32125	0.019582	0.36289	0.21638	0.26654	0.11743	0.2696	0.18148	0.15235	0.069919	0.020507	0.32491	-3.6104	-4.6062	-4.75	-4.2292	-5.0521	-4.1604	-4.5854	-5.175	-3.9562	-4.7604	-4.7896	-4.0667	-5.1417	-4.2917	-4.3812	-5.1271	45.967	-132.999	-84.547	175.137	-58.058	48.417	70.078	110.404	18.766	180.548	162.924	-161.386	157.536	41.473	114.756	128.554	0.00093241	0.00063542	0.00012717	1490	3.5093e-06	6.794e-06	1704.1	504.39	6.8969e-06	5.9928e-06	655.37	238.29	152.68	65.56	5.7696e-06	124.23	5.5011e-05	3.5067e-05	9.3438e-06	1218.6	3.8765e-07	3.6335e-07	1388.6	407.35	3.8913e-07	3.4923e-07	517.82	189	120.45	51.521	3.8293e-07	96.53	-109.302	-110.454	-139.292	-158.913	-68.087	-32.330	-159.834	-155.034	-38.498	-53.340	-156.097	-152.156	-150.181	-145.645	-97.585	-147.987	-8191	255	
44631.293	1	1	0	0	0.13937	0.10527	0.089293	0.1643	0.13221	0.21433	0.21529	0.11852	0.1557	0.15314	0.18608	0.23769	0.17713	0.40294	0.19052	0.18218	-3.6771	-4.5687	-4.6875	-4.1021	-4.8396	-4.5083	-4.4479	-5.1042	-4.2188	-4.5188	-4.95	-4.1354	-5.0583	-4.6125	-4.0146	-5.0958	-141.163	84.055	-6.401	109.011	-165.756	-158.524	129.136	140.149	129.013	-69.344	184.222	176.562	109.691	154.342	-130.252	127.227	0.00095905	0.00060243	0.0003223	1503	6.6628e-06	7.9798e-06	1710.7	506.5	9.178e-06	1.0048e-05	666.86	242.29	155.14	66.045	3.9899e-06	125.39	5.4773e-05	3.2766e-05	9.4059e-06	1223.8	3.8817e-07	3.6749e-07	1398.6	409.47	3.9157e-07	3.8025e-07	524.31	191	121.74	52.161	3.7751e-07	97.647	-106.641	-117.728	-123.472	-158.704	-44.729	-40.825	-159.584	-154.913	-54.881	-42.002	-156.034	-151.571	-150.724	-145.857	-62.239	-148.157	-8191	255	
44631.387	1	1	0	0	0.1079	0.03462	0.045012	0.39373	0.23073	0.12785	0.3009	0.1571	0.17428	0.078612	0.17507	0.13277	0.18448	0.30082	0.20227	0.19002	-3.8979	-4.4688	-4.625	-4.1667	-4.7479	-4.3167	-4.2833	-5.1354	-4.1917	-4.3938	-5.0229	-4.0729	-4.8583	-4.5208	-4.0771	-5.0792	-135.777	-40.038	-28.191	147.102	165.092	139.946	164.455	165.634	-160.116	29.093	-113.106	108.939	143.012	128.112	-64.336	168.446	0.00086976	0.00059669	0.00020669	1512.9	4.4169e-06	6.1994e-06	1729.5	510.41	4.0534e-06	5.1445e-06	669.86	242.35	156.2	66.625	5.7392e-06	126.87	5.489e-05	3.5023e-05	9.357e-06	1230.7	3.8025e-07	3.6386e-07	1406.6	412.74	4.0616e-07	3.7271e-07	528.15	192.54	122.62	52.572	3.9683e-07	98.781	-108.125	-125.400	-132.083	-159.025	-53.634	-32.006	-159.641	-154.877	-24.826	-49.196	-156.006	-151.718	-150.709	-145.569	-60.222	-147.982	-8191	255	
44631.484	1	1	0	0	0.072161	0.14679	0.027776	0.28614	0.19413	0.091361	0.27771	0.2372	0.1139	0.22415	0.17259	0.21392	0.13157	0.12856	0.081775	0.32946	-3.8458	-4.1896	-4.8333	-4.2708	-4.65	-4.775	-4.1229	-5.2604	-4.3562	-4.3187	-4.9875	-4.0896	-4.8229	-4.9187	-3.9271	-5.1021	121.473	-26.873	145.126	101.915	-98.847	88.959	141.287	165.314	-42.473	183.582	-157.211	165.506	153.539	138.139	25.740	94.607	0.00092109	0.00031325	0.00013215	1519.7	5.4317e-06	7.4367e-06	1749.1	511	7.4026e-06	4.9569e-06	669.94	241.06	155.08	66.094	4.7411e-06	124.53	5.5137e-05	3.4053e-05	9.2723e-06	1238.5	3.9015e-07	3.6549e-07	1418.8	413.25	4.0458e-07	3.7917e-07	528.2	191.88	122.28	52.243	3.818e-07	97.517	-106.598	-121.439	-116.016	-158.900	-119.919	-35.757	-159.820	-154.964	-48.117	-90.040	-155.932	-151.754	-150.509	-145.345	-63.827	-148.134	-8191	255	
44631.605	1	1	0	0	0.22198	0.2013	0.14213	0.12151	0.036309	0.15772	0.090747	0.25562	0.17282	0.11258	0.20626	0.28574	0.26279	0.15919	0.16774	0.14472	-4.1479	-4.1708	-4.8812	-4.2146	-4.4292	-4.725	-4.1667	-4.9396	-4.4396	-4.2188	-5.1042	-4.3396	-4.6146	-4.8583	-3.9646	-4.9688	79.587	100.874	46.924	142.397	170.717	104.996	67.984	86.991	97.089	92.557	185.410	148.681	-144.108	-101.914	-50.016	149.317	0.00097835	0.00056698	0.00024646	1497.7	4.6317e-06	7.2189e-06	1703.9	504.25	5.5625e-06	6.4009e-06	659.49	238.95	153.42	65.417	4.5506e-06	123.14	5.4901e-05	3.415e-05	9.3253e-06	1224.1	3.7995e-07	3.7441e-07	1391.8	408.59	3.8035e-07	3.6127e-07	519.93	189.28	120.67	51.317	3.7771e-07	96.376	-106.581	-133.775	-137.756	-158.764	-45.963	-38.872	-159.557	-155.060	-44.221	-69.514	-156.322	-151.954	-150.491	-145.812	-73.302	-147.807	-8191	255	
44631.676	1	1	0	0	0.082878	0.17418	0.05441	0.025738	0.11555	0.1597	0.2679	0.23031	0.19381	0.059379	0.1126	0.023006	0.10541	0.11163	0.26884	0.39325	-4.1937	-3.9396	-4.9792	-4.3375	-4.4083	-5.0312	-4.2104	-4.9146	-4.6604	-4.1604	-5.0896	-4.3042	-4.5417	-5.0583	-3.9	-5.0021	-41.025	-107.663	90.398	101.063	-47.527	-117.857	89.952	181.382	-0.687	174.680	116.596	-150.647	-105.257	133.711	44.163	130.167	0.00094783	0.00026575	0.00017606	1493.1	4.572e-06	4.8478e-06	1697.4	502.64	4.6765e-06	4.9349e-06	658.91	236.93	153.53	64.902	5.8192e-06	122.76	5.562e-05	3.4171e-05	9.2564e-06	1220.5	3.8449e-07	3.4444e-07	1389.2	406.33	3.9364e-07	3.6473e-07	519	187.95	120.24	51.174	3.8546e-07	95.598	-105.749	-121.815	-125.521	-158.525	-57.784	-41.882	-159.685	-155.173	-57.625	-62.050	-156.255	-151.771	-150.864	-145.562	-71.807	-148.273	-8191	255	
44631.773	1	1	0	0	0.084908	0.081028	0.2219	0.28583	0.17416	0.056652	0.33218	0.15222	0.039779	0.098445	0.085558	0.063424	0.28142	0.34689	0.25358	0.21544	-4.4583	-4.1458	-4.9896	-4.4375	-4.3417	-4.8979	-4.1521	-4.9292	-4.6833	-4.1979	-5.0958	-4.5938	-4.5104	-5.2021	-4.0458	-4.8104	-66.601	53.480	-124.577	152.798	184.598	-40.700	114.854	84.417	-91.388	-26.698	102.430	185.410	174.902	110.586	-70.696	103.562	0.00094232	0.00068273	0.00020104	1500.4	3.0127e-06	6.4692e-06	1724.4	504.57	6.4669e-06	5.8072e-06	658.19	237.74	153.01	64.792	6.4746e-06	123.63	5.5109e-05	3.3241e-05	9.4311e-06	1223.6	3.7692e-07	3.4212e-07	1397.4	407.25	3.9189e-07	3.6013e-07	519.97	188.9	120.01	51.05	3.8791e-07	96.039	-106.260	-119.631	-85.463	-158.909	-108.554	-20.240	-159.500	-155.307	-47.132	-41.363	-156.264	-151.910	-150.470	-145.591	-78.712	-148.128	-8191	255	
44631.867	1	1	0	0	0.090865	0.082738	0.30715	0.20511	0.1951	0.10928	0.16872	0.38062	0.047322	0.16726	0.14577	0.4382	0.33137	0.095644	0.1647	0.36712	-4.525	-3.9375	-4.8375	-4.6771	-4.0875	-4.9479	-4.375	-4.5833	-4.8458	-3.8083	-5.0083	-4.6104	-4.0563	-5.2229	-4.0604	-4.4583	-36.128	-77.896	11.903	104.387	-67.664	47.967	83.970	103.809	76.249	87.044	41.870	167.366	179.374	-64.936	-96.834	129.197	0.00090459	0.00059681	0.0002214	1506.3	6.2139e-06	1.9858e-06	1716.2	507.73	7.1018e-06	8.2298e-06	667.55	239.62	152.71	64.602	5.7874e-06	123.37	5.3134e-05	3.3383e-05	9.5177e-06	1228.9	3.8985e-07	3.6927e-07	1406.5	410.47	3.7983e-07	3.7369e-07	526.46	190.21	120.5	51.102	3.9208e-07	96.272	-108.522	-108.921	-155.506	-158.985	-86.935	-22.679	-159.475	-155.081	-65.647	-70.191	-155.893	-151.565	-150.796	-145.739	-62.700	-148.159	-8191	255	
44631.988	1	1	0	0	0.044048	0.10415	0.21786	0.18586	0.1167	0.15285	0.12129	0.21308	0.079455	0.16778	0.20475	0.19931	0.0064568	0.083844	0.10375	0.084971	-4.6792	-4.0042	-4.7792	-4.7729	-4.0646	-5.0604	-4.3729	-4.5729	-4.8313	-3.9521	-4.9542	-4.9229	-4.1792	-5.1083	-4.2646	-4.5771	-151.147	139.159	55.333	129.659	19.543	122.019	101.544	-126.046	137.752	-121.540	-156.683	174.528	168.800	107.443	144.029	54.016	0.00085199	0.00061461	0.00020846	1524.1	5.1749e-06	1.0345e-05	1742.1	510.59	6.8737e-06	6.6098e-06	667.34	239.71	152.95	64.624	5.3911e-06	122.62	5.4618e-05	3.3441e-05	9.4262e-06	1243.3	3.965e-07	3.619e-07	1419.7	412.19	3.9953e-07	3.8383e-07	526.86	190.2	120.37	50.734	3.8443e-07	95.573	-111.737	-117.667	-126.521	-158.911	-82.425	-43.301	-159.581	-155.307	-42.231	-49.579	-156.185	-151.965	-150.447	-145.261	-39.190	-147.996	-8191	255	
44632.086	1	1	0	0	0.035414	0.15251	0.23466	0.25604	0.059483	0.074292	0.27284	0.32332	0.21004	0.16421	0.23396	0.14723	0.16639	0.095881	0.23238	0.22677	-4.7562	-4.1937	-4.7729	-4.9396	-3.8917	-5.0521	-4.6792	-4.3646	-4.9604	-4.0333	-4.6375	-4.9333	-4.0854	-4.9854	-4.4667	-4.3583	-82.389	-9.653	-24.223	142.918	-169.274	143.148	109.557	99.074	31.922	-78.915	162.979	108.342	173.353	135.595	86.894	88.071	0.00088018	0.00041304	0.0002468	1494.2	7.7328e-06	6.1216e-06	1708	501.55	5.632e-06	8.5775e-06	659.51	234.47	149.86	63.419	4.6889e-06	120.42	5.3762e-05	3.5582e-05	8.895e-06	1222.1	3.8577e-07	3.6018e-07	1393.4	405.45	3.7655e-07	3.7721e-07	519.77	186.68	118.33	50.181	3.8174e-07	94.162	-107.289	-125.096	-138.124	-158.770	-41.628	-35.691	-159.602	-154.948	-62.816	-55.367	-156.185	-152.158	-150.362	-145.740	-73.067	-147.843	-8191	255	
44632.180	1	1	0	0	0.21677	0.30911	0.38098	0.069797	0.09885	0.24799	0.31895	0.24446	0.26992	0.19408	0.23706	0.2003	0.27252	0.078064	0.39176	0.046971	-4.7917	-4.125	-4.3875	-5.0604	-3.9437	-4.8417	-4.8292	-4.3688	-4.9146	-4.3187	-4.4688	-5.0167	-4.0146	-4.7896	-4.5667	-4.2875	131.453	181.387	132.239	112.088	152.701	-16.854	160.591	131.847	81.794	-113.097	84.762	181.841	-172.843	167.763	-139.107	71.884	0.00090002	0.00031383	0.0001681	1496.8	6.2951e-06	3.3549e-06	1714.2	501.51	4.3532e-06	5.5802e-06	654.85	234.04	149.88	63.683	4.9566e-06	120.86	5.3932e-05	3.4253e-05	9.8204e-06	1218.6	3.9009e-07	3.6533e-07	1392.2	404.24	3.8283e-07	3.6129e-07	517.21	186.7	117.97	50.161	3.6835e-07	94.205	-107.444	-122.098	-147.118	-158.876	-49.381	-67.698	-159.309	-155.136	-79.031	-64.513	-156.540	-151.491	-150.624	-145.689	-91.762	-148.332	-8191	255	
44632.277	1	1	0	0	0.11554	0.2874	0.1806	0.20692	0.081213	0.32462	0.45421	0.21816	0.23007	0.12185	0.071398	0.15205	0.43849	0.14922	0.077335	0.072156	-4.6292	-4.2562	-4.2292	-5.125	-3.9479	-4.8792	-4.8646	-4.1521	-4.8688	-4.4333	-4.4229	-5.2479	-4.2521	-4.7354	-4.8792	-4.0625	-46.008	-154.490	13.875	177.773	160.374	-142.282	146.717	141.450	-170.715	-93.755	17.993	116.472	143.008	-171.907	-47.747	169.669	0.00082901	0.00072259	0.00021668	1502.1	5.802e-06	2.9991e-06	1710.3	503.01	9.6772e-06	9.0401e-06	665.82	237.13	152.4	64.636	2.8272e-06	122.42	5.437e-05	3.2814e-05	9.4974e-06	1223.9	3.9609e-07	3.597e-07	1396.8	406.39	3.9752e-07	3.8368e-07	521.66	188.1	119.52	50.702	3.7409e-07	95.35	-107.019	-90.731	-126.144	-158.902	-65.336	-36.520	-159.904	-155.396	-25.621	-51.380	-156.469	-151.793	-150.423	-145.820	-129.115	-147.937	-8191	255	
44632.371	1	1	0	0	0.19382	0.16839	0.10734	0.32314	0.23455	0.17936	0.43849	0.24526	0.17404	0.067946	0.33487	0.11731	0.056331	0.17421	0.2543	0.24898	-4.5687	-4.4167	-4.4062	-5.1667	-4.1583	-4.6687	-5.0417	-4.2083	-4.8896	-4.5437	-4.3083	-5.1708	-4.2917	-4.4979	-4.8562	-4.2167	35.220	-137.868	-92.039	174.245	140.817	162.285	117.219	152.040	165.472	9.249	130.452	109.910	100.221	151.006	-18.894	89.900	0.00085969	0.00022915	0.00019433	1521	6.4858e-06	7.6744e-06	1730	506.9	4.4228e-06	7.8969e-07	669.36	239.92	153.33	64.416	4.9447e-06	125.06	5.4517e-05	3.5703e-05	9.4661e-06	1239	3.9797e-07	3.624e-07	1415.6	409.86	3.9627e-07	3.5727e-07	528.96	190.9	120.92	51.124	3.9368e-07	97.033	-106.218	-131.474	-96.905	-158.888	-44.839	-15.325	-159.586	-155.000	-59.570	-18.394	-156.622	-151.531	-150.623	-145.943	-78.062	-147.794	-8191	255	
44632.469	1	1	0	0	0.15414	0.194	0.18578	0.11944	0.19175	0.16814	0.067586	0.40692	0.10312	0.25602	0.38345	0.16963	0.21991	0.18873	0.1964	0.33177	-4.4833	-4.6312	-4.1958	-5.2438	-4.1625	-4.3854	-5.3083	-4.05	-4.8083	-4.5958	-4.3187	-5.0667	-4.4229	-4.3479	-4.9354	-4.2125	-14.798	-57.723	-127.833	118.426	-102.933	-67.156	-129.451	183.661	-138.578	93.254	157.292	-111.352	101.991	58.126	167.056	-166.084	0.00093519	0.00067278	0.00011296	1543.5	4.7738e-06	5.933e-06	1768.3	512.91	8.9201e-06	3.9208e-06	677.23	239.75	153.9	64.686	6.5085e-06	123.56	5.7081e-05	3.5964e-05	1.0094e-05	1257.1	4.0316e-07	3.8616e-07	1444.9	415.19	4.0154e-07	3.6313e-07	531.63	191.3	120.75	50.951	3.9781e-07	96.39	-108.016	-100.848	-151.194	-159.047	-41.676	-24.882	-159.568	-154.910	-60.020	-50.590	-156.319	-151.718	-150.622	-145.837	-67.433	-147.872	-8191	255	
44632.590	1	1	0	0	0.12617	0.12363	0.15585	0.2119	0.24353	0.087824	0.38716	0.29357	0.047433	0.072775	0.27779	0.20594	0.32735	0.10516	0.15406	0.31816	-4.3646	-4.7104	-4.2271	-5.1625	-4.3875	-4.3396	-5.1562	-4.3396	-4.6542	-4.5833	-4.1854	-5.0667	-4.5042	-4.3229	-5.0771	-4.3021	-162.668	38.361	-22.742	137.928	153.677	-27.154	79.146	146.531	-132.792	143.539	166.804	171.690	-148.251	174.294	50.831	118.072	0.0009012	0.00059988	0.00015791	1508.6	7.9328e-06	6.8177e-06	1708.4	502.61	5.4856e-06	6.8844e-06	657.73	236.11	151.56	63.694	3.756e-06	121.22	5.5845e-05	3.4924e-05	9.5719e-06	1229.7	4.0335e-07	3.8289e-07	1396.9	406.26	3.9523e-07	3.7417e-07	519.14	187.61	118.64	50.147	3.8387e-07	94.496	-109.534	-114.627	-111.786	-158.831	-56.588	-41.635	-159.828	-155.044	-66.353	-54.909	-156.116	-151.681	-150.533	-145.950	-125.174	-147.891	-8191	255	
44632.684	1	1	0	0	0.16628	0.39489	0.27428	0.33011	0.04851	0.16806	0.073049	0.075868	0.054011	0.056711	0.16963	0.19706	0.047245	0.33197	0.32785	0.10108	-4.3104	-4.775	-4.0021	-5.0292	-4.5125	-4.2792	-5.2312	-4.2854	-4.5	-4.975	-4.05	-5.0125	-4.4458	-4.3562	-4.9708	-4.5208	123.447	127.583	25.923	135.248	137.062	32.689	104.207	119.668	132.585	-48.788	54.335	97.479	66.532	167.883	78.904	-147.260	0.00086023	0.00049157	0.00029139	1494.9	7.5329e-06	5.2585e-06	1710.7	501.62	3.1675e-06	2.1493e-06	658.71	237.43	152.32	63.768	6.0101e-06	122.93	5.3338e-05	3.5667e-05	9.9119e-06	1221.4	3.8887e-07	3.8309e-07	1400	406.43	3.9013e-07	3.9012e-07	521.23	188.39	119.4	50.268	3.9608e-07	95.629	-110.218	-119.454	-119.700	-158.779	-54.556	-43.946	-159.427	-154.632	-64.670	-67.202	-156.219	-151.938	-150.380	-145.441	-47.814	-147.897	-8191	255	
44632.781	1	1	0	0	0.098234	0.1027	0.051733	0.19633	0.10953	0.27785	0.24543	0.23284	0.091264	0.10576	0.34884	0.19861	0.10383	0.15064	0.084763	0.18639	-4.1271	-4.8417	-4.1167	-4.9688	-4.8375	-4.1687	-5.1479	-4.4417	-4.2354	-5.0188	-4.2812	-4.9292	-4.925	-4.1854	-5.0146	-4.6354	-16.551	-148.604	-52.361	173.070	151.113	14.229	117.901	102.939	-149.881	51.652	107.412	100.707	-0.616	126.949	-102.686	139.728	0.00091389	0.0007149	0.00012786	1509.3	4.8613e-06	5.0787e-06	1716.5	507.05	5.84e-06	6.5076e-06	668.5	239.92	153.54	64.43	1.1098e-06	123.42	5.6847e-05	3.5831e-05	1.0326e-05	1230.4	4.0454e-07	3.9656e-07	1407.2	409.88	3.9562e-07	3.7133e-07	526.36	190.06	120.29	50.651	3.9461e-07	96.221	-105.266	-86.115	-102.428	-158.922	-66.993	-56.841	-159.497	-154.666	-32.950	-59.979	-156.127	-151.657	-150.653	-145.768	-103.997	-147.749	-8191	255	
44632.879	1	1	0	0	0.16204	0.29533	0.09807	0.15016	0.09478	0.24966	0.19084	0.17624	0.15491	0.11477	0.22065	0.15618	0.1957	0.1859	0.14374	0.13289	-4.0375	-5.0646	-4.1208	-4.7312	-4.8292	-4.1604	-5.0188	-4.7292	-4.1625	-5.0646	-4.2417	-4.7312	-4.8313	-4.1396	-4.8417	-4.7604	-63.200	149.667	-39.448	144.881	7.594	-128.328	66.262	148.386	-16.222	39.590	92.468	178.083	163.881	167.135	-155.648	164.011	0.00096196	0.00061827	0.00039107	1518.2	5.2489e-06	9.3364e-06	1735.1	510.04	3.3029e-06	6.9989e-06	671	241.56	153.5	64.246	6.4925e-06	123.66	5.9417e-05	3.5196e-05	1.0384e-05	1238.5	3.9802e-07	3.8913e-07	1420.7	411.58	4.2054e-07	3.7948e-07	530	191.71	121	50.848	4.228e-07	96.805	-113.952	-166.913	-133.522	-158.714	-56.450	-50.278	-159.446	-154.995	-82.628	-49.390	-156.122	-151.629	-150.486	-145.711	-43.818	-147.780	-8191	255	
44632.973	1	1	0	0	0.22632	0.17705	0.026263	0.24411	0.15626	0.055932	0.16109	0.24288	0.081814	0.074622	0.041266	0.32117	0.22189	0.17585	0.069307	0.43014	-3.9833	-4.9333	-4.1667	-4.7104	-4.85	-3.9708	-5.0583	-4.8729	-4.125	-4.9437	-4.4458	-4.7292	-4.9604	-4.1479	-4.7417	-4.9396	41.682	114.065	-4.386	-169.717	132.704	-64.124	124.349	148.446	-85.726	-27.772	136.717	161.225	-7.332	115.697	66.982	145.110	0.00087203	0.00043272	0.00024915	1518	6.2784e-06	7.1918e-06	1758	513.79	6.8436e-06	4.6413e-06	676	240.82	153.94	64.581	4.8868e-06	123.25	5.7982e-05	3.4964e-05	1.0274e-05	1244.2	4.1579e-07	4.0597e-07	1432.9	415.01	4.539e-07	3.9295e-07	531.72	191.73	121.05	50.852	4.1733e-07	95.964	-108.394	-110.966	-120.850	-159.152	-69.863	-34.004	-159.499	-154.897	-61.634	-34.925	-155.951	-151.467	-150.541	-145.782	-87.528	-148.242	-8191	255	
44633.066	1	1	0	0	0.12593	0.04936	0.067198	0.3362	0.1148	0.086701	0.23818	0.23886	0.061833	0.038071	0.31445	0.015777	0.092962	0.077655	0.049684	0.25316	-3.7917	-4.9542	-4.3125	-4.6396	-4.8958	-4.0521	-4.9062	-4.7542	-4.1062	-4.9729	-4.5896	-4.4875	-5.1458	-4.1937	-4.55	-4.95	-18.873	164.184	-106.552	103.089	143.149	161.444	93.621	181.858	-103.071	79.258	170.024	110.151	93.454	144.605	-93.000	99.215	0.00091887	0.00033864	0.00013192	1498.4	5.4128e-06	6.6126e-06	1714.1	502.65	7.2154e-06	7.7019e-06	651.48	234.25	152.05	63.189	5.5144e-06	121.99	5.8071e-05	3.5014e-05	1.0151e-05	1220	4.033e-07	3.8229e-07	1395.3	405.19	4.0921e-07	3.7341e-07	516.97	186.11	118.64	49.767	4.1127e-07	94.373	-108.581	-136.418	-148.640	-158.826	-25.929	-40.512	-159.481	-154.877	-34.387	-55.831	-156.182	-151.868	-150.771	-145.843	-73.345	-148.014	-8191	255	
44633.164	1	1	0	0	0.077643	0.1528	0.031955	0.23632	0.030117	0.080228	0.4591	0.1296	0.11431	0.12674	0.18222	0.043734	0.22498	0.17265	0.066505	0.21384	-3.675	-4.9792	-4.4521	-4.3208	-4.9688	-4.3042	-4.9417	-5.0021	-4.0458	-4.7167	-4.5229	-4.1875	-4.9771	-4.2375	-4.275	-4.9938	55.086	30.781	121.179	142.385	155.928	-152.468	146.641	6.677	95.943	-78.885	151.289	-113.857	89.713	-163.223	83.236	184.226	0.00090743	0.00052082	0.0001837	1477.3	5.679e-06	5.4269e-06	1687.1	495.81	9.3293e-06	6.6239e-06	656.07	232.69	151.67	63.147	4.231e-06	120.93	5.6989e-05	3.2739e-05	9.7677e-06	1200.9	3.9921e-07	3.8365e-07	1376.3	401.23	4.09e-07	3.772e-07	515.87	185.73	118.71	49.837	3.9791e-07	94.263	-106.240	-101.641	-144.646	-159.190	-72.141	-69.598	-159.727	-154.758	-58.431	-60.021	-155.897	-152.134	-150.919	-145.777	-51.075	-147.975	-8191	255	
44633.285	1	1	0	0	0.16488	0.015703	0.24399	0.097306	0.24144	0.10219	0.10381	0.20103	0.10942	0.062075	0.15262	0.14705	0.29965	0.18177	0.054607	0.18017	-3.8229	-4.7042	-4.5208	-4	-4.8979	-4.3229	-4.5083	-5.1104	-4.1813	-4.7604	-4.8063	-4.2708	-5.2167	-4.3958	-4.3521	-5.2167	66.554	-54.475	-29.088	151.347	124.406	-3.979	106.796	119.806	-124.858	-122.218	175.572	-125.456	109.107	100.336	129.677	122.825	0.00084545	0.00053935	0.00014498	1478.9	4.5419e-06	7.1979e-06	1690.9	497.09	6.9844e-06	7.9458e-06	651.64	234.69	151.16	63.561	7.16e-06	121.52	5.476e-05	3.5268e-05	9.5008e-06	1202.1	4.1169e-07	4.0505e-07	1382.2	401.83	4.0094e-07	3.8178e-07	516.7	186.63	118.91	49.886	4.0354e-07	94.748	-108.206	-120.668	-111.429	-158.865	-71.097	-33.960	-159.880	-154.913	-22.706	-47.160	-156.098	-152.119	-150.402	-145.553	-89.469	-147.866	-8191	255	
44633.383	1	1	0	0	0.027315	0.18161	0.088617	0.37613	0.14481	0.16487	0.21482	0.28795	0.055697	0.11347	0.15578	0.090118	0.28794	0.27795	0.28259	0.25481	-3.6729	-4.8875	-4.7688	-4.2333	-4.7625	-4.5062	-4.3833	-5.0708	-3.9208	-4.6771	-4.9271	-3.9083	-5.1833	-4.6083	-4.1062	-5.1396	-15.934	-137.969	-30.246	159.149	-36.888	68.719	132.370	109.912	78.051	-44.487	120.020	178.616	103.700	103.994	-149.397	176.456	0.00085426	0.00064026	0.00039798	1483.9	6.7147e-06	3.9499e-06	1706	498.27	1.0945e-05	5.5129e-06	658.74	235.75	149.98	63.6	5.4445e-06	121.99	5.579e-05	3.6246e-05	9.9032e-06	1206.4	3.8667e-07	3.984e-07	1391.4	403.28	4.1192e-07	3.8591e-07	518.84	187.89	118.95	50.139	3.8032e-07	95.125	-109.022	-121.323	-117.741	-158.803	-53.250	-47.314	-159.850	-154.832	-42.376	-64.764	-155.862	-151.890	-150.761	-145.512	-47.635	-148.223	-8191	255	
44633.477	1	1	0	0	0.11633	0.12863	0.13126	0.30128	0.095749	0.014949	0.2932	0.33867	0.34811	0.09594	0.23523	0.18685	0.15293	0.044571	0.17679	0.13162	-3.825	-4.625	-4.5667	-4.1229	-4.9917	-4.5437	-4.2729	-5.0875	-4.0771	-4.4646	-4.9958	-4.2812	-5.0167	-4.7188	-4.1208	-5.2375	45.210	-149.934	109.497	171.091	162.491	1.963	127.560	172.789	143.484	-87.033	105.745	169.200	115.508	175.834	-47.497	-148.827	0.000878	0.0003059	0.00029056	1487.6	2.4512e-06	3.6038e-06	1717.6	501.95	6.9975e-06	5.7596e-06	652.43	236.65	151.74	63.847	7.5853e-06	121.67	5.5955e-05	3.6015e-05	1.0102e-05	1212.3	3.9824e-07	3.646e-07	1397.5	404.83	4.0851e-07	3.7669e-07	517.96	188.26	119.09	50.283	3.9029e-07	94.641	-111.992	-137.577	-138.483	-159.238	-62.702	-73.024	-159.634	-154.969	-44.323	-80.102	-156.215	-151.551	-150.874	-145.507	-68.302	-147.942	-8191	255	
44633.551	1	1	0	0	0.08475	0.15496	0.31281	0.2044	0.28346	0.13265	0.076957	0.29906	0.16415	0.077045	0.16571	0.14384	0.089433	0.056224	0.32029	0.21151	-4.0563	-4.3875	-4.9271	-4.2542	-4.8	-4.7083	-4.3229	-5.2125	-4.3667	-4.1937	-5.1542	-4.2083	-4.8187	-4.6521	-3.9542	-5.0667	-80.450	-128.464	152.807	146.907	-118.490	-143.724	96.348	98.109	155.043	-157.466	-144.522	23.972	-62.842	170.058	-140.975	89.999	0.00092051	0.00054673	0.00036583	1464.9	5.8993e-06	5.1045e-06	1683.3	492.94	7.0059e-06	7.0282e-06	645.7	230.55	150.11	63.198	2.1369e-06	119.23	5.5207e-05	3.3339e-05	9.6559e-06	1194.5	3.8019e-07	3.6309e-07	1371.7	398.41	4.1109e-07	3.7763e-07	510.21	184.08	117.28	49.562	3.9519e-07	92.783	-108.151	-97.346	-138.854	-158.987	-89.880	-27.329	-159.798	-154.741	-31.786	-47.545	-156.173	-152.164	-150.805	-145.737	-44.656	-147.878	-8191	255	
44633.672	1	1	0	0	0.12515	0.22213	0.24806	0.36885	0.2353	0.1848	0.22779	0.10165	0.12013	0.17178	0.058282	0.12321	0.099897	0.033229	0.057832	0.098368	-4.0687	-4.2167	-5.0604	-4.1146	-4.5146	-4.8979	-4.2312	-5.1167	-4.5188	-4.1458	-5.1333	-4.1833	-4.4417	-4.9792	-4.1667	-4.9458	74.516	-12.996	180.998	154.006	-85.448	-92.481	106.927	16.944	26.446	94.254	-128.588	-150.708	-145.224	-54.437	176.408	118.691	0.0008982	0.00024808	0.00019563	1452.3	5.765e-06	6.3411e-06	1675.5	489.7	7.1763e-06	5.3314e-06	641.02	230.41	148.22	63.201	4.171e-06	119.6	5.5911e-05	3.4491e-05	9.7033e-06	1185.9	4.0262e-07	3.566e-07	1368.6	395.61	3.9296e-07	3.6049e-07	508.26	184.04	116.83	49.521	3.9925e-07	93.311	-107.007	-109.185	-114.079	-158.777	-123.803	-39.702	-159.639	-154.803	-32.629	-60.788	-156.077	-151.613	-150.440	-145.692	-96.289	-148.229	-8191	255	
#DATA ENDS
