BOXY.EXE: ISS Imagent and Oximeter Data Acquisition Program Version 0.80
Ascii Record File

#ACQ INFORMATION
2  Detector Channels 
16  External MUX Channels 
1  Auxiliary Channels 
5000  Waveform (CCF) Frequency (Hz)
1  Waveforms Skipped 
30  Waveforms Averaged 
1  Cycles Averaged 
16  Acquisitions per Waveform 
10.0806  Updata Rate (Hz) 

#FILE INFORMATION
TRUE -- External MUX Channel results are PARSED.
FALSE -- AC DC and Phase are NOT grouped.
TRUE -- Companion Program Settings File CREATED.
FALSE -- AC data not excluded
FALSE -- DC data not excluded
FALSE -- Phase data not excluded
FALSE -- Auxillary Chn. data not excluded
Tab delimiters

#CALIBRATION STATE
TRUE -- Waveform Calibration Values APPLIED.


#AUX CALIBRATION VALUES
Val Type	aux-1	

Term	1.0000e+00	
Factor	0.0000e+00	


#WF CALIBRATION VALUES
A = Detector Channel
Val Type	A-AC1	A-AC2	A-AC3	A-AC4	A-AC5	A-AC6	A-AC7	A-AC8	A-AC9	A-AC10	A-AC11	A-AC12	A-AC13	A-AC14	A-AC15	A-AC16	A-DC1	A-DC2	A-DC3	A-DC4	A-DC5	A-DC6	A-DC7	A-DC8	A-DC9	A-DC10	A-DC11	A-DC12	A-DC13	A-DC14	A-DC15	A-DC16	A-Ph1	A-Ph2	A-Ph3	A-Ph4	A-Ph5	A-Ph6	A-Ph7	A-Ph8	A-Ph9	A-Ph10	A-Ph11	A-Ph12	A-Ph13	A-Ph14	A-Ph15	A-Ph16	

Term	0.00000e+00	0.00000e+00	0.00000e+00	0.00000e+00	0.00000e+00	0.00000e+00	0.00000e+00	0.00000e+00	0.00000e+00	0.00000e+00	0.00000e+00	0.00000e+00	0.00000e+00	0.00000e+00	0.00000e+00	0.00000e+00	0.00000e+00	0.00000e+00	0.00000e+00	0.00000e+00	0.00000e+00	0.00000e+00	0.00000e+00	0.00000e+00	0.00000e+00	0.00000e+00	0.00000e+00	0.00000e+00	0.00000e+00	0.00000e+00	0.00000e+00	0.00000e+00	0.00000e+00	0.00000e+00	0.00000e+00	0.00000e+00	0.00000e+00	0.00000e+00	0.00000e+00	0.00000e+00	0.00000e+00	0.00000e+00	0.00000e+00	0.00000e+00	0.00000e+00	0.00000e+00	0.00000e+00	0.00000e+00	
Factor	1.00000e+00	1.00000e+00	1.00000e+00	1.00000e+00	1.00000e+00	1.00000e+00	1.00000e+00	1.00000e+00	1.00000e+00	1.00000e+00	1.00000e+00	1.00000e+00	1.00000e+00	1.00000e+00	1.00000e+00	1.00000e+00	1.00000e+00	1.00000e+00	1.00000e+00	1.00000e+00	1.00000e+00	1.00000e+00	1.00000e+00	1.00000e+00	1.00000e+00	1.00000e+00	1.00000e+00	1.00000e+00	1.00000e+00	1.00000e+00	1.00000e+00	1.00000e+00	X	X	X	X	X	X	X	X	X	X	X	X	X	X	X	X	

B = Detector Channel
Val Type	B-AC1	B-AC2	B-AC3	B-AC4	B-AC5	B-AC6	B-AC7	B-AC8	B-AC9	B-AC10	B-AC11	B-AC12	B-AC13	B-AC14	B-AC15	B-AC16	B-DC1	B-DC2	B-DC3	B-DC4	B-DC5	B-DC6	B-DC7	B-DC8	B-DC9	B-DC10	B-DC11	B-DC12	B-DC13	B-DC14	B-DC15	B-DC16	B-Ph1	B-Ph2	B-Ph3	B-Ph4	B-Ph5	B-Ph6	B-Ph7	B-Ph8	B-Ph9	B-Ph10	B-Ph11	B-Ph12	B-Ph13	B-Ph14	B-Ph15	B-Ph16	

Term	0.00000e+00	0.00000e+00	0.00000e+00	0.00000e+00	0.00000e+00	0.00000e+00	0.00000e+00	0.00000e+00	0.00000e+00	0.00000e+00	0.00000e+00	0.00000e+00	0.00000e+00	0.00000e+00	0.00000e+00	0.00000e+00	0.00000e+00	0.00000e+00	0.00000e+00	0.00000e+00	0.00000e+00	0.00000e+00	0.00000e+00	0.00000e+00	0.00000e+00	0.00000e+00	0.00000e+00	0.00000e+00	0.00000e+00	0.00000e+00	0.00000e+00	0.00000e+00	-7.23465e+01	-1.49617e+02	-1.26872e+02	-1.83762e+02	-5.18693e+01	-6.06153e+01	-1.58526e+02	-1.62015e+02	-4.81224e+01	-7.56965e+01	-1.70957e+02	-1.70833e+02	-1.76992e+02	-1.76825e+02	-4.67194e+01	-1.50028e+02	
Factor	1.63432e-05	1.10510e-04	3.48016e-05	1.52478e-01	1.22918e-06	1.22249e-06	1.63273e-01	5.15583e-02	9.18127e-07	1.18410e-06	8.55517e-02	2.92432e-02	2.25317e-02	9.04730e-03	1.05066e-06	1.29668e-02	1.38578e-06	1.45995e-06	4.07899e-07	7.71863e-02	1.59237e-08	1.59708e-08	7.76724e-02	2.61251e-02	1.59683e-08	1.59842e-08	4.15537e-02	1.42499e-02	1.15109e-02	4.55475e-03	1.60640e-08	6.29093e-03	X	X	X	X	X	X	X	X	X	X	X	X	X	X	X	X	



#DISTANCE SETTINGS
A = Detector Channel
A-1	A-2	A-3	A-4	A-5	A-6	A-7	A-8	A-9	A-10	A-11	A-12	A-13	A-14	A-15	A-16	

2.5000e+00	3.0000e+00	2.5000e+00	3.0000e+00	2.0000e+00	3.0000e+00	1.5000e+00	3.0000e+00	3.0000e+00	3.0000e+00	3.0000e+00	3.0000e+00	3.0000e+00	3.0000e+00	1.5000e+00	3.0000e+00	

B = Detector Channel
B-1	B-2	B-3	B-4	B-5	B-6	B-7	B-8	B-9	B-10	B-11	B-12	B-13	B-14	B-15	B-16	

1.0000e+01	1.0000e+01	1.0000e+01	1.4400e+00	1.0000e+01	1.0000e+01	1.5100e+00	1.9400e+00	1.0000e+01	1.0000e+01	1.9900e+00	2.4900e+00	2.4100e+00	2.9000e+00	1.0000e+01	2.9800e+00	




#DATA BEGINS
time	group	step	mark	flag	A-AC1	A-AC2	A-AC3	A-AC4	A-AC5	A-AC6	A-AC7	A-AC8	A-AC9	A-AC10	A-AC11	A-AC12	A-AC13	A-AC14	A-AC15	A-AC16	A-DC1	A-DC2	A-DC3	A-DC4	A-DC5	A-DC6	A-DC7	A-DC8	A-DC9	A-DC10	A-DC11	A-DC12	A-DC13	A-DC14	A-DC15	A-DC16	A-Ph1	A-Ph2	A-Ph3	A-Ph4	A-Ph5	A-Ph6	A-Ph7	A-Ph8	A-Ph9	A-Ph10	A-Ph11	A-Ph12	A-Ph13	A-Ph14	A-Ph15	A-Ph16	B-AC1	B-AC2	B-AC3	B-AC4	B-AC5	B-AC6	B-AC7	B-AC8	B-AC9	B-AC10	B-AC11	B-AC12	B-AC13	B-AC14	B-AC15	B-AC16	B-DC1	B-DC2	B-DC3	B-DC4	B-DC5	B-DC6	B-DC7	B-DC8	B-DC9	B-DC10	B-DC11	B-DC12	B-DC13	B-DC14	B-DC15	B-DC16	B-Ph1	B-Ph2	B-Ph3	B-Ph4	B-Ph5	B-Ph6	B-Ph7	B-Ph8	B-Ph9	B-Ph10	B-Ph11	B-Ph12	B-Ph13	B-Ph14	B-Ph15	B-Ph16	aux-1	digaux	

1438.979	1	1	0	256	0.027565	0.36722	0.37976	0.45847	0.17332	0.1014	0.17441	0.20406	0.14309	0.29254	0.11655	0.16836	0.04793	0.07015	0.12862	0.10102	-2.0917	-3.1792	-2.5708	-2.9792	-3.1083	-2.5896	-3.3542	-3.0042	-2.6688	-3.3	-2.7917	-2.8396	-3.225	-2.7583	-3.0167	-3.0042	371.958	193.577	60.163	349.086	118.392	71.885	365.343	217.312	283.236	363.556	131.387	285.439	373.380	381.265	341.873	288.779	0.00016702	0.00044922	0.00026906	1166.8	3.529e-06	8.8972e-06	1272.2	232.34	6.0903e-06	4.1376e-06	291.86	81.601	63.926	18.604	3.5816e-06	25.82	0.00053713	0.00059109	0.00017934	1157	6.0714e-06	6.3987e-06	1258	235.04	5.9398e-06	6.5605e-06	296.92	84.68	66.321	19.916	6.8283e-06	27.391	210.053	160.792	73.143	38.128	59.117	238.588	38.054	46.093	163.102	148.142	45.291	52.944	53.043	59.909	164.814	59.241	-8191	255	
1439.053	1	1	0	0	0.22348	0.095185	0.05062	0.18368	0.50123	0.22087	0.076515	0.14501	0.1985	0.31969	0.1567	0.27532	0.054538	0.05018	0.14507	0.12968	-2.2854	-3.1813	-2.6271	-2.8854	-3.0917	-2.5833	-3.3917	-2.9979	-2.4521	-3.3229	-2.9979	-2.7562	-3.2854	-2.4062	-3.0396	-3.3333	277.968	132.782	30.237	350.426	334.091	70.459	317.254	356.075	136.779	292.450	342.485	63.776	371.402	37.822	31.331	69.381	0.0002318	0.00021788	0.00019963	1174.8	3.0193e-06	4.3179e-06	1272.8	231.97	2.6431e-06	7.2722e-06	291.51	81.754	64.054	18.759	4.6733e-06	25.859	0.00052298	0.0006118	0.00017206	1158.4	6.1163e-06	6.7725e-06	1258.3	234.44	6.0709e-06	6.9482e-06	297.02	84.749	66.713	20.182	6.9398e-06	27.63	203.976	91.336	367.857	37.832	205.988	220.796	38.149	46.059	213.303	201.257	45.203	52.587	52.823	59.766	249.005	59.146	-8191	255	
1439.171	1	1	0	0	0.19316	0.14373	0.073706	0.10941	0.083432	0.090323	0.3624	0.3135	0.14516	0.055817	0.17891	0.23975	0.096583	0.10394	0.08621	0.027275	-2.0438	-3.3	-2.6229	-2.8083	-3.1562	-2.65	-3.1208	-3.2458	-2.6646	-3.1417	-2.9604	-2.8146	-3.3479	-2.675	-2.9042	-3.1063	109.440	235.522	239.549	373.019	382.130	189.710	334.417	328.713	113.905	42.979	303.166	356.485	355.000	384.857	133.400	181.413	0.0001848	0.00021506	0.00024324	1181.7	6.4921e-06	5.024e-06	1276.8	233.26	4.888e-06	1.2489e-06	292.91	82.01	64.332	18.678	3.4866e-06	26.195	0.00057082	0.00067787	0.00017806	1167.4	6.6074e-06	7.3909e-06	1266.9	236.34	6.679e-06	7.3064e-06	298.34	85.055	67.155	20.243	6.6441e-06	27.581	195.605	189.162	177.414	37.775	284.988	99.683	38.248	46.036	219.025	199.459	45.137	52.352	53.093	59.572	200.729	58.827	-8191	255	
1439.268	1	1	0	0	0.31069	0.20323	0.13083	0.53997	0.08483	0.25456	0.30984	0.047528	0.38621	0.23971	0.22959	0.085184	0.12019	0.055605	0.049538	0.1834	-2.3	-3.0604	-2.8917	-2.7104	-3.1083	-2.6708	-3.0146	-3.2396	-2.4854	-3.0396	-2.9583	-2.7104	-3.3667	-2.7562	-2.7167	-3.4	264.050	207.116	387.334	326.423	131.497	204.773	355.890	210.188	181.605	129.644	206.041	47.840	209.500	72.164	199.910	353.759	0.0002197	0.00023123	0.00016836	1174	1.1323e-05	3.3799e-06	1272	233.01	1.9888e-06	1.9996e-06	293.07	82.065	64.161	18.741	2.3874e-06	26.017	0.00059236	0.0006482	0.00016774	1159	6.7942e-06	7.0788e-06	1257.3	235.68	6.8574e-06	7.0504e-06	297.43	84.802	67.297	20.213	6.7226e-06	27.735	216.565	253.108	141.926	37.742	224.099	48.645	37.913	46.098	132.440	349.238	45.274	52.281	52.852	59.413	308.837	58.936	-8191	255	
1439.364	1	1	0	0	0.14726	0.088026	0.13788	0.074918	0.23779	0.15799	0.32995	0.23452	0.27225	0.29393	0.19906	0.12835	0.15032	0.17042	0.18334	0.38603	-2.0708	-3.0729	-3.0104	-2.6667	-3.3792	-2.95	-2.8979	-3.2667	-2.6458	-3.0292	-3.0542	-2.625	-3.0375	-2.8625	-2.5938	-3.225	244.553	92.913	310.923	43.117	331.325	87.309	299.710	340.551	254.094	97.611	56.934	373.418	343.329	325.028	150.102	311.248	0.00016785	0.00073368	0.00016416	1178.5	2.4386e-06	5.7111e-06	1278.7	233.46	1.6028e-06	5.6329e-06	294.47	82.156	64.502	18.784	9.9337e-06	26.236	0.00065306	0.00066522	0.00017598	1163.2	7.534e-06	7.3353e-06	1264.4	237.4	7.6942e-06	7.2907e-06	299.12	85.667	68.157	20.321	6.8699e-06	28.113	238.102	167.328	39.250	37.610	180.427	128.298	38.112	46.135	284.606	117.686	45.121	52.710	53.047	59.429	118.728	59.560	-8191	255	
1439.460	1	1	0	0	0.036291	0.11745	0.16191	0.3714	0.1632	0.16194	0.35066	0.21568	0.1378	0.031575	0.13683	0.049634	0.10559	0.11814	0.10143	0.24477	-2.1958	-3.0271	-3.0479	-2.7458	-3.1771	-2.7833	-2.7604	-3.3125	-2.3833	-2.8729	-3.1917	-2.6	-3.1854	-2.9792	-2.6208	-3.4854	195.363	31.915	217.153	43.303	121.306	90.309	336.848	386.729	159.997	327.386	357.797	244.551	302.699	371.033	165.543	364.965	0.00019887	0.00046641	0.00022427	1184.2	3.3853e-06	6.2777e-06	1285.5	235	3.4104e-06	4.1396e-06	294.45	82.006	64.595	18.911	5.4312e-06	26.365	0.00070342	0.00066338	0.00017859	1171.9	7.826e-06	7.3105e-06	1268.4	238.61	7.8042e-06	7.0925e-06	299.99	86.116	68.028	20.304	6.6257e-06	28.214	213.606	349.691	143.877	37.889	270.463	313.097	38.106	45.962	259.168	39.838	45.503	52.439	52.813	59.368	161.711	59.068	-8191	255	
1439.581	1	1	0	0	0.31078	0.034736	0.051699	0.24192	0.13231	0.11008	0.22074	0.1647	0.11338	0.1412	0.24968	0.23617	0.29843	0.043173	0.13075	0.19191	-2.3104	-2.7854	-3.1042	-2.8187	-2.8625	-2.9167	-2.7938	-3.2875	-2.6333	-2.5458	-3.0979	-2.5062	-3.0625	-3.0146	-2.5292	-3.2375	293.556	350.333	109.105	28.485	338.968	255.782	346.793	238.227	63.801	340.707	307.801	347.548	61.092	210.293	55.864	66.156	0.00018657	0.00043753	0.00018768	1178.4	3.3462e-06	4.3627e-06	1288.3	234.12	3.4262e-06	1.641e-06	294.76	82.879	64.833	18.8	4.8185e-06	26.236	0.00067006	0.00062758	0.00016845	1172.2	7.3547e-06	6.9582e-06	1266.9	239.1	7.3456e-06	6.6509e-06	299.34	86.24	67.917	20.128	6.3204e-06	28.129	205.599	60.123	175.009	37.620	67.563	294.223	37.994	45.883	373.331	267.795	45.501	52.412	52.908	59.412	269.531	58.915	-8191	255	
1439.675	1	1	0	0	0.041783	0.37736	0.1262	0.28196	0.1289	0.10079	0.28548	0.11412	0.29599	0.12126	0.097529	0.2622	0.2968	0.17057	0.30068	0.11795	-2.3771	-2.6521	-3.2646	-2.6792	-3.0271	-2.9	-2.6208	-3.2375	-2.8792	-2.5938	-3.175	-2.4979	-2.9292	-3.1771	-2.5021	-3.2729	224.366	89.023	366.169	308.717	88.311	204.181	283.756	307.319	79.079	128.013	348.132	347.426	216.314	309.563	387.198	347.636	0.00016058	0.00057554	8.8009e-05	1180.7	4.9209e-06	3.8556e-06	1280.2	233.74	2.3779e-06	5.382e-06	295.29	82.822	63.9	19.064	8.4845e-06	26.452	0.000615	0.00057996	0.00016265	1170.5	6.7071e-06	6.3188e-06	1262.4	237.93	6.5395e-06	5.9972e-06	298.3	85.676	66.853	19.982	6.1162e-06	28.022	202.501	129.187	105.737	37.896	171.680	203.946	38.072	45.863	179.175	117.174	45.375	52.339	52.712	59.644	258.115	58.829	-8191	255	
1439.748	1	1	0	0	0.12877	0.16693	0.42468	0.36601	0.028243	0.097146	0.26271	0.14473	0.18871	0.044631	0.018295	0.058608	0.084546	0.25839	0.19829	0.084032	-2.4667	-2.775	-3.3063	-2.7292	-2.7854	-3.2083	-2.6	-3.2729	-3.025	-2.7792	-3.4146	-2.7854	-2.7771	-3.2188	-2.5062	-3.2792	32.662	78.425	332.094	341.996	358.494	231.252	321.903	322.744	183.969	76.404	32.342	73.947	68.530	298.095	184.232	384.668	0.00020433	0.00052584	0.00020978	1174	7.7936e-06	4.3584e-06	1272.8	233.53	1.9047e-06	4.6978e-06	292.18	81.827	64.771	18.695	6.4328e-06	26.286	0.00055086	0.00052609	0.00015991	1161.5	6.1169e-06	5.8784e-06	1256.3	236.91	6.1792e-06	5.7533e-06	297.5	85.177	66.68	19.829	6.6019e-06	27.892	201.721	83.452	153.026	37.913	285.379	195.619	38.377	45.692	337.332	154.347	45.161	52.300	52.814	59.183	206.878	59.284	-8191	255	
1439.845	1	1	0	0	0.2615	0.12962	0.21967	0.13033	0.11773	0.15653	0.23031	0.29136	0.20773	0.066539	0.17818	0.18173	0.050249	0.16445	0.13679	0.13195	-2.5833	-2.475	-3.1021	-2.9792	-2.7667	-3.2521	-2.8042	-3.1	-2.9333	-2.5875	-3.325	-2.7417	-2.7792	-3.2542	-2.6271	-3.05	190.444	52.492	216.854	128.706	357.613	229.553	202.678	348.703	221.146	213.565	280.803	290.563	36.589	312.330	369.119	121.023	0.00014339	0.00053463	0.00015001	1170.5	3.31e-06	4.3011e-06	1274.5	233.59	3.3477e-06	6.8166e-06	295.57	82.045	64.046	18.758	7.1255e-06	25.878	0.00054556	0.00052856	0.00017204	1159.8	6.0808e-06	5.8909e-06	1257.5	236.36	6.0907e-06	5.887e-06	298.93	85.287	66.49	19.887	6.8276e-06	27.699	196.161	107.539	155.260	37.982	322.495	125.502	38.075	45.896	168.479	134.793	45.366	52.535	52.766	59.939	269.088	58.893	-8191	255	
1439.963	1	1	0	0	0.10536	0.26194	0.20043	0.23956	0.065137	0.12839	0.35203	0.042425	0.22009	0.18779	0.061535	0.14973	0.068839	0.14195	0.19183	0.13374	-2.6896	-2.6104	-3.2125	-2.9437	-2.6562	-3.0583	-2.6708	-3.0854	-3.0333	-2.3375	-3.2833	-2.7771	-2.6771	-3.2687	-2.7646	-2.9333	296.291	102.018	266.076	358.824	174.382	308.313	312.531	288.495	144.657	109.348	43.266	97.304	387.160	135.714	368.716	350.845	0.00013265	0.00077028	0.00014764	1174	8.0499e-06	4.5154e-06	1270.3	232.86	1.7094e-06	7.2385e-06	295.02	82.289	64.125	18.698	3.2099e-06	26.12	0.00054175	0.00055025	0.00017548	1160.2	5.985e-06	6.279e-06	1260.5	236.26	6.2058e-06	6.4696e-06	300.31	85.451	66.828	20.135	7.3385e-06	27.841	204.407	95.749	178.889	38.049	200.015	213.451	38.076	45.657	200.218	187.117	45.475	53.079	52.744	59.145	353.061	58.959	-8191	255	
1440.060	1	1	0	0	0.18245	0.096792	0.26563	0.2297	0.11973	0.033282	0.15612	0.15161	0.44614	0.18505	0.33086	0.12579	0.25824	0.24443	0.22104	0.19279	-2.8937	-2.6854	-3.1	-2.9813	-2.5521	-3.2188	-2.6479	-2.8167	-3.1937	-2.625	-3.1979	-2.9125	-2.7188	-3.2687	-2.8187	-2.9958	277.405	198.116	66.741	50.247	254.073	277.015	280.011	368.007	346.122	224.629	328.122	273.087	367.644	180.488	351.238	233.105	0.00020589	0.00038874	0.0001601	1181.7	1.3012e-06	4.7912e-06	1275.5	234.71	1.26e-06	7.4642e-06	293.08	82.8	64.302	18.86	4.5872e-06	26.288	0.00057335	0.00063679	0.00018779	1166.3	6.2605e-06	7.0875e-06	1267.3	237.21	6.3827e-06	7.034e-06	300.31	85.658	66.776	20.288	7.0443e-06	27.825	202.567	103.794	68.133	38.095	51.631	223.222	38.206	45.838	263.693	212.786	45.406	52.504	52.892	59.496	263.283	59.148	-8191	255	
1440.156	1	1	0	0	0.12643	0.055937	0.13843	0.060235	0.22563	0.074765	0.081495	0.23189	0.18203	0.13504	0.23964	0.13746	0.2825	0.14238	0.25361	0.11916	-2.7938	-2.5083	-2.9833	-3.1813	-2.5687	-3.1417	-2.8958	-2.8396	-3.1312	-2.3854	-3.1021	-3.0729	-2.5458	-3.2021	-2.7479	-2.7104	286.510	126.316	193.758	380.918	264.339	94.007	369.972	350.489	288.979	204.056	298.562	128.015	277.748	221.156	160.950	99.660	0.00021709	0.00072336	0.00019853	1178.2	5.5263e-06	1.9751e-06	1280.6	233.86	3.3558e-06	7.5296e-06	294.19	81.791	64.872	18.84	4.4996e-06	26.306	0.00055869	0.00065626	0.00017517	1163.6	6.2614e-06	7.2397e-06	1264.3	237.09	6.4365e-06	7.3169e-06	299.34	85.31	67.252	20.39	6.9964e-06	27.908	235.549	103.627	186.206	37.977	262.908	178.732	38.126	45.998	186.032	105.664	45.162	52.592	52.895	59.615	366.395	59.171	-8191	255	
1440.252	1	1	0	0	0.20968	0.084334	0.17305	0.19613	0.082477	0.39519	0.20253	0.16339	0.11305	0.21455	0.054185	0.14247	0.1775	0.12494	0.14233	0.22293	-2.6667	-2.5563	-2.8812	-3.275	-2.4938	-3.1833	-2.9375	-2.5917	-3.1104	-2.5812	-2.9417	-3.1188	-2.675	-3.1458	-2.9542	-2.5771	280.542	215.689	80.461	350.147	99.350	158.609	382.280	300.933	159.708	148.052	61.300	379.229	207.344	265.863	144.569	305.386	0.00023739	0.00029795	0.00012857	1177.8	4.6782e-06	2.4323e-06	1280.8	234.06	3.0975e-06	1.3403e-06	296.08	82.131	64.816	18.835	3.1978e-06	26.315	0.0006082	0.00068332	0.0001767	1166.8	6.8763e-06	7.5325e-06	1268	237.56	7.1733e-06	7.6344e-06	300.39	85.844	68.069	20.537	7.2433e-06	27.986	183.885	179.820	62.910	37.962	246.646	45.547	38.147	45.655	207.282	330.044	45.077	52.837	52.694	59.628	236.256	58.577	-8191	255	
1440.348	1	1	0	0	0.023098	0.03664	0.25607	0.42786	0.27435	0.1107	0.19102	0.46989	0.055403	0.22089	0.28783	0.24967	0.26744	0.26626	0.17276	0.1153	-2.9167	-2.8042	-2.8312	-3.2958	-2.5104	-3.0354	-3.3	-2.8	-3.2812	-2.6729	-2.9229	-3.1042	-2.7521	-3.15	-3.1521	-2.5854	327.062	372.469	209.602	385.075	93.252	373.821	293.032	54.336	340.537	218.620	291.027	41.313	139.711	379.004	217.537	263.170	0.00029589	0.00053862	0.00014914	1182.4	2.7466e-06	5.5331e-07	1293.9	235.42	3.1249e-06	7.3707e-06	295.98	82.696	64.984	18.851	1.7142e-06	26.486	0.0006667	0.00070335	0.00017842	1173.1	7.5118e-06	7.4436e-06	1276.7	238.52	7.6202e-06	7.4343e-06	301.04	86.035	68.446	20.467	6.9716e-06	28.25	208.160	359.060	306.214	38.151	233.966	214.535	38.234	45.599	266.612	235.574	44.815	52.969	52.898	59.804	327.395	58.929	-8191	255	
1440.444	1	1	0	0	0.085042	0.16706	0.13085	0.14145	0.10246	0.24935	0.27061	0.13484	0.18162	0.086398	0.19839	0.15904	0.15328	0.20305	0.23216	0.1275	-2.8708	-2.6729	-2.6667	-3.25	-2.6729	-2.9062	-3.4625	-2.5396	-3.2604	-2.8292	-2.85	-3.4021	-2.8708	-2.95	-3.3167	-2.6042	339.785	360.771	189.915	317.162	166.976	74.674	357.010	374.670	60.510	110.012	297.564	355.856	337.618	34.812	83.613	287.075	0.00017945	0.00040012	0.00024302	1189.7	6.9564e-06	4.9927e-06	1293.4	237.12	2.7196e-06	5.3138e-06	297.15	83.409	65.352	19.088	2.4107e-06	26.634	0.00069014	0.00068137	0.00017714	1179.7	7.9729e-06	7.4377e-06	1278.3	240.13	8.1488e-06	7.643e-06	303.35	87.505	69.458	20.762	7.5644e-06	28.829	209.086	59.022	86.838	37.962	172.720	145.051	38.058	45.458	198.222	111.965	44.921	52.632	52.888	59.237	320.514	58.981	-8191	255	
1440.540	1	1	0	0	0.092714	0.08475	0.21223	0.3266	0.10889	0.11402	0.071174	0.16479	0.23309	0.10982	0.22274	0.10864	0.26728	0.39864	0.063923	0.31615	-2.8667	-3.0771	-2.5521	-3.425	-2.6292	-2.85	-3.3125	-2.6375	-3.1333	-3.0979	-2.6562	-3.3563	-2.8375	-2.9604	-3.225	-2.6646	74.458	381.506	323.189	354.456	318.965	206.781	294.379	315.042	252.441	58.851	76.890	363.063	30.274	36.085	260.109	327.656	0.00020416	0.00045891	0.00015856	1198	7.8138e-06	3.6032e-06	1302.4	239.33	4.675e-06	1.706e-06	303.57	84.143	67.214	19.467	7.9071e-06	27.267	0.00076206	0.00074192	0.00019165	1195.6	8.989e-06	8.3089e-06	1294.7	246.07	9.3922e-06	8.8155e-06	312.22	90.411	71.789	21.517	8.9686e-06	30.29	182.216	106.687	86.688	37.884	129.885	100.948	38.229	45.529	77.406	229.697	45.087	52.555	52.477	59.388	182.082	59.022	-8191	255	
1440.661	1	1	0	0	0.13503	0.095876	0.14301	0.19593	0.18841	0.082669	0.36746	0.23677	0.098471	0.22473	0.19857	0.1513	0.020543	0.1878	0.070558	0.13541	-2.5875	-2.8875	-2.5625	-3.3375	-2.7521	-2.6562	-3.35	-2.7104	-3.0583	-3.0667	-2.6104	-3.3271	-2.9437	-2.8417	-3.2458	-2.6937	107.754	164.301	210.145	271.758	252.603	307.499	299.861	360.262	370.313	67.030	263.844	373.870	115.599	347.471	192.813	320.263	0.00020313	0.00051032	0.00011143	1212.5	5.6599e-06	9.6756e-07	1327.6	247.88	1.9407e-06	9.1014e-07	315.76	86.707	68.047	20.235	4.1037e-06	27.929	0.00090182	0.00088467	0.00023788	1223.4	1.0636e-05	9.9841e-06	1324.8	259.39	1.1122e-05	1.0718e-05	328.61	95.091	74.607	22.645	1.1389e-05	31.899	213.580	135.764	87.993	37.881	264.647	306.808	38.210	45.056	346.956	321.573	45.105	52.381	52.555	58.784	206.905	58.317	-8191	255	
1440.755	1	1	0	0	0.088882	0.059052	0.092366	0.15116	0.11483	0.10519	0.36543	0.066897	0.19567	0.40321	0.042387	0.012789	0.057867	0.2252	0.40162	0.13812	-2.4604	-3.2854	-2.6667	-3.4458	-2.8375	-2.7271	-3.5896	-2.7667	-2.8875	-3.1146	-2.5958	-3.2938	-3.0563	-2.5438	-3.3542	-2.6708	334.207	161.802	298.063	376.621	308.652	334.351	300.422	218.534	313.616	102.796	306.982	209.524	186.056	45.064	199.297	256.351	0.00027647	0.0003904	0.00017133	1230.1	3.6986e-08	7.1419e-06	1341.6	255.68	4.2231e-06	6.9936e-06	318.59	87.635	69.34	20.282	6.7048e-06	27.863	0.0010491	0.0010374	0.00029471	1247.8	1.2007e-05	1.1122e-05	1348.5	269.19	1.1771e-05	1.1258e-05	337.06	96.471	75.736	22.813	1.2133e-05	32.003	224.669	371.484	139.791	37.668	370.365	35.173	38.044	45.297	207.798	68.846	44.848	52.312	52.501	58.749	118.929	58.793	-8191	255	
1440.853	1	1	0	0	0.047409	0.19564	0.17523	0.27377	0.095118	0.26559	0.098458	0.18292	0.12996	0.33371	0.13363	0.2956	0.079702	0.11659	0.05561	0.13845	-2.425	-3.0167	-2.6479	-3.2938	-2.7438	-2.6875	-3.4042	-2.8438	-2.9208	-3.3063	-2.65	-3.0333	-2.9688	-2.5375	-3.2771	-2.7292	62.590	289.665	322.466	57.676	305.171	258.193	313.599	338.086	61.274	239.144	362.232	108.294	380.425	264.768	95.808	264.641	0.0002234	0.00083433	0.00028267	1235	9.3118e-06	1.0518e-05	1336.8	255.69	4.0585e-06	9.4124e-07	319.7	87.65	69.06	20.268	7.1056e-06	28.093	0.0010193	0.0010176	0.00031301	1251.8	1.1642e-05	1.0873e-05	1351.8	268.56	1.1592e-05	1.1186e-05	339.17	96.521	75.604	22.893	1.2865e-05	32.017	204.159	159.116	91.783	37.794	71.947	135.648	38.040	45.277	163.524	119.785	44.868	52.209	52.537	59.332	179.782	58.252	-8191	255	
1440.949	1	1	0	0	0.247	0.085415	0.21154	0.32113	0.24246	0.13073	0.32465	0.24886	0.078128	0.12225	0.14695	0.23383	0.086703	0.086544	0.037171	0.058731	-2.375	-3.2188	-2.5583	-3.2687	-3.2333	-2.6729	-3.4729	-3.0646	-2.8063	-3.0875	-2.6333	-3.0375	-3.3312	-2.5271	-3.1354	-2.8979	66.899	36.898	123.174	351.977	235.884	54.980	339.923	301.472	53.927	205.264	243.553	361.450	296.747	331.983	220.681	186.349	0.00015248	0.00023413	9.8431e-05	1239.7	2.9682e-06	1.2418e-05	1344.7	256.16	3.6082e-06	2.6209e-06	319.91	87.883	69.461	20.243	3.3935e-06	27.992	0.0010016	0.0010318	0.00032575	1250.3	1.1327e-05	1.1029e-05	1354.9	267.6	1.0809e-05	1.1051e-05	338.22	95.082	74.827	22.721	1.2098e-05	31.401	189.776	56.301	164.857	37.812	34.402	232.393	38.002	45.503	154.727	240.804	44.839	52.300	52.524	59.222	281.703	58.336	-8191	255	
1441.044	1	1	0	0	0.1208	0.18924	0.11508	0.14763	0.088565	0.20762	0.043226	0.071183	0.30152	0.14943	0.2405	0.12832	0.064603	0.37811	0.14059	0.18787	-2.3438	-3.3125	-2.4646	-3.1146	-3.0396	-2.6104	-3.3625	-3.1333	-2.5812	-3.3625	-2.8229	-2.9083	-3.2354	-2.4396	-3.2125	-3.15	147.079	194.019	219.626	286.534	154.896	175.635	352.832	236.015	377.565	98.055	300.599	299.809	64.291	261.547	317.866	326.540	0.00017963	0.00093968	7.804e-05	1235.3	5.4735e-06	6.179e-06	1337.7	254.5	4.6177e-06	5.4825e-06	320.14	87.572	68.983	20.158	3.0103e-06	27.943	0.00089798	0.0010089	0.00030417	1242.2	1.0317e-05	1.0925e-05	1348.4	264.53	9.9707e-06	1.1125e-05	335.38	94.092	74.223	22.771	1.1365e-05	31.145	188.354	77.146	97.713	37.760	282.471	214.385	38.159	45.510	211.491	191.123	45.186	52.130	52.619	59.314	166.125	58.792	-8191	255	
1441.140	1	1	0	0	0.24785	0.14253	0.2728	0.31396	0.14237	0.088119	0.19346	0.34891	0.13706	0.11251	0.15516	0.2294	0.22201	0.061119	0.055195	0.031399	-2.1729	-3.1479	-2.7812	-2.9958	-3.1562	-2.6771	-3.2229	-3.1604	-2.5979	-3.1417	-2.7958	-2.6042	-3.1312	-2.7562	-2.8354	-3.1958	285.253	140.156	165.605	322.213	344.246	101.021	369.923	329.048	60.315	55.202	375.648	55.944	298.938	106.559	53.349	257.539	0.00032484	0.00054233	0.00026804	1231.4	1.4183e-05	4.7116e-06	1345.2	255.24	1.0277e-05	4.8128e-06	319.08	87.763	68.981	20.126	6.4359e-06	27.761	0.00086377	0.0010244	0.00028567	1237.2	9.9034e-06	1.1233e-05	1345.1	263.72	9.9203e-06	1.1286e-05	333.68	93.545	73.952	22.801	1.0849e-05	30.882	205.131	104.732	123.340	37.872	207.331	250.990	37.855	45.630	211.752	219.262	44.842	52.306	52.544	58.752	86.772	59.047	-8191	255	
1441.261	1	1	0	0	0.08964	0.19321	0.26308	0.3194	0.15841	0.19842	0.14929	0.10767	0.12245	0.23892	0.13237	0.14763	0.17911	0.09736	0.27594	0.23204	-2.0917	-3.2104	-3.0583	-2.8896	-3.2625	-2.5021	-3.2292	-3.1562	-2.5375	-3.3146	-3.0271	-2.8292	-3.4271	-2.5979	-2.9938	-3.1667	322.593	368.178	189.655	31.407	49.062	141.316	199.128	336.159	245.586	125.873	38.131	322.725	381.544	386.350	332.598	29.053	0.00028985	0.00036431	6.4201e-05	1233.5	6.0816e-06	1.1132e-05	1336	256.61	4.3528e-06	5.6527e-06	319.54	87.085	68.749	20.147	4.4469e-06	27.874	0.00087924	0.0010452	0.00027677	1235.6	1.0243e-05	1.1458e-05	1338.4	263.69	1.0328e-05	1.1504e-05	332.56	93.437	74.373	22.841	1.0494e-05	30.915	209.096	115.834	297.354	37.579	223.786	213.133	38.093	45.666	176.108	249.257	44.933	52.223	52.573	58.860	157.923	58.874	-8191	255	
1441.357	1	1	0	0	0.11542	0.12353	0.12982	0.19364	0.067437	0.26486	0.2981	0.098851	0.30093	0.1178	0.27174	0.11362	0.041325	0.086553	0.13052	0.18796	-2.2292	-3.2583	-2.7875	-2.9562	-3.2562	-2.8	-3.1333	-3.2229	-2.4208	-3.05	-3.1583	-2.8875	-3.4	-2.5604	-2.6479	-3.1604	378.351	142.663	284.829	332.967	258.286	365.906	357.958	371.047	86.934	164.939	31.034	338.065	241.920	45.778	298.616	326.046	0.00038377	0.00061648	5.0788e-05	1225.1	7.3422e-06	1.2326e-06	1339.5	254.91	8.8432e-06	5.3192e-06	319.02	87.007	69.343	20.137	5.99e-06	27.759	0.00095259	0.0010451	0.00027043	1233.3	1.0999e-05	1.1484e-05	1341.6	263.3	1.1056e-05	1.1273e-05	332.7	93.213	75.064	22.732	1.0324e-05	30.872	199.043	340.853	259.746	37.653	208.364	110.068	37.989	45.392	222.257	272.522	44.931	52.414	52.462	58.993	305.864	58.677	-8191	255	
1441.453	1	1	0	0	0.15542	0.19791	0.13578	0.17723	0.17748	0.19598	0.3534	0.047564	0.21199	0.023802	0.23629	0.28866	0.20899	0.15626	0.053243	0.10587	-2.2417	-3.0583	-2.9396	-2.7042	-3.2833	-2.7792	-2.8729	-3.2854	-2.5958	-3.1458	-3.2188	-2.5125	-3.4521	-2.8667	-2.8396	-3.3646	345.094	76.572	286.214	323.245	227.572	74.378	336.999	306.445	273.248	166.822	37.475	237.071	339.633	63.411	368.783	346.841	0.00032532	0.00062278	8.5847e-05	1228.3	1.4094e-05	6.5423e-06	1342.4	254.31	1.6135e-06	1.7794e-06	318.79	87.131	68.255	20.016	2.3466e-06	27.79	0.0009822	0.0010013	0.00026451	1233.6	1.1217e-05	1.0842e-05	1339.1	262.95	1.119e-05	1.0518e-05	330.1	93.136	74.514	22.446	9.6249e-06	30.815	215.559	224.161	299.471	37.844	186.332	320.968	37.854	45.371	328.257	353.141	45.552	52.275	52.589	59.100	163.717	59.118	-8191	255	
1441.549	1	1	0	0	0.053866	0.2224	0.084405	0.51838	0.25917	0.14284	0.12271	0.19534	0.15795	0.23159	0.17228	0.20137	0.18724	0.082182	0.054645	0.219	-2.3604	-3.0479	-3.1146	-2.7354	-3.0625	-2.9667	-2.8354	-3.4396	-2.5979	-2.8417	-3.1312	-2.5208	-3.2458	-2.9104	-2.6542	-3.275	288.625	243.647	100.367	365.929	308.435	379.566	111.211	297.393	125.408	219.565	323.206	29.484	377.943	268.915	93.373	296.120	0.00020475	0.0004871	4.8957e-05	1226.1	3.389e-06	1.9586e-06	1326.8	253.53	2.9156e-06	9.3455e-06	316.99	86.721	68.756	19.974	5.4021e-06	27.676	0.00096445	0.00091881	0.00024386	1232.8	1.0841e-05	9.9405e-06	1327.8	262.28	1.0773e-05	9.841e-06	327.97	93.352	74.1	22.238	9.3362e-06	30.926	232.520	85.366	330.637	37.824	173.511	157.189	38.036	45.693	302.552	345.808	45.388	52.434	52.695	59.411	69.376	58.894	-8191	255	
1441.645	1	1	0	0	0.30103	0.18166	0.097405	0.20687	0.14576	0.18819	0.11721	0.090218	0.19299	0.25145	0.034949	0.14352	0.097683	0.306	0.083519	0.038487	-2.2396	-2.7313	-3.1292	-2.6229	-3.1063	-3.0479	-2.7646	-3.5854	-2.7229	-2.8167	-3.3146	-2.5667	-3.1271	-3.0958	-2.4604	-3.2375	285.991	325.852	45.468	288.502	316.623	158.085	41.025	301.485	373.032	59.870	356.782	336.294	365.569	106.426	290.871	110.858	0.00027199	0.00044494	0.00026286	1230.3	9.3941e-06	4.8229e-06	1329.2	254.5	2.2729e-06	3.0543e-06	316.91	87.153	68.792	19.923	1.1418e-05	27.884	0.00095173	0.00089887	0.00024119	1235	1.053e-05	9.8492e-06	1329.4	263.6	1.0656e-05	9.7476e-06	328.5	93.942	74.012	22.212	9.5109e-06	31.07	217.031	380.571	139.862	37.737	85.565	123.626	38.054	45.321	120.225	112.618	45.331	51.993	52.612	59.610	246.915	58.726	-8191	255	
1441.741	1	1	0	0	0.30933	0.19773	0.10725	0.042434	0.10658	0.067592	0.16248	0.070494	0.23962	0.25105	0.086774	0.22486	0.18232	0.23036	0.13293	0.218	-2.4292	-2.75	-3.2083	-2.7458	-2.9208	-3.1604	-2.55	-3.2146	-2.85	-2.625	-3.2	-2.725	-2.9437	-3.0667	-2.4854	-3.3104	330.339	306.907	230.699	217.839	207.186	213.071	292.879	360.478	166.949	46.420	365.374	265.089	151.614	63.522	123.815	371.775	0.00022303	0.00010386	0.00015745	1226.1	5.0205e-06	7.5877e-06	1332.1	253.5	4.6286e-06	3.6206e-06	316.29	86.653	67.882	20.043	1.9331e-06	27.682	0.00091095	0.00086769	0.00024366	1235.4	1.0032e-05	9.4851e-06	1331.2	263.19	9.9348e-06	9.1458e-06	327.99	93.38	73.167	22.035	9.4749e-06	30.898	194.651	216.805	149.564	37.769	133.777	27.735	38.067	45.667	160.330	87.711	45.412	52.346	52.584	59.319	193.400	58.846	-8191	255	
1441.836	1	1	0	0	0.23393	0.38671	0.26918	0.10024	0.078885	0.088775	0.26532	0.090483	0.080865	0.231	0.10462	0.34123	0.15783	0.10928	0.14974	0.17126	-2.4354	-2.6083	-3.3167	-2.6521	-2.9208	-3.175	-2.7229	-3.2208	-2.9479	-2.8083	-3.3542	-2.7333	-2.7646	-3.1813	-2.6188	-3.1583	91.122	340.383	349.540	339.561	344.754	54.939	67.935	367.216	201.983	258.188	351.206	63.557	376.863	320.720	93.703	198.617	0.00019631	0.00016626	9.2792e-05	1228.4	2.6027e-06	6.3021e-07	1329.1	253.45	4.6734e-06	4.2151e-06	317.19	86.974	68.359	19.968	9.9666e-06	27.423	0.00085111	0.00081158	0.00024485	1233.1	9.2297e-06	8.8174e-06	1332.3	261.11	9.4216e-06	8.6804e-06	328.6	92.929	72.835	21.809	9.985e-06	30.538	192.354	335.901	210.278	37.991	191.424	358.378	38.198	45.657	293.103	379.064	45.158	52.348	52.670	59.180	237.237	59.019	-8191	255	
1441.934	1	1	0	0	0.10952	0.12005	0.085416	0.1978	0.088932	0.11836	0.22392	0.14202	0.078705	0.13228	0.13739	0.11104	0.26182	0.24306	0.24081	0.1091	-2.4729	-2.5729	-3.2604	-2.7271	-2.6875	-3.1458	-2.9146	-3.0354	-3.0563	-2.5771	-3.1667	-2.8187	-2.6437	-3.3042	-2.6146	-2.9583	78.046	44.377	247.930	335.522	253.164	349.564	45.828	52.452	312.029	158.582	244.128	31.199	280.445	104.087	220.317	164.910	0.00014784	0.00016332	0.00011297	1228.2	1.5714e-06	5.1648e-06	1331.3	253.28	1.3511e-06	5.116e-06	316.33	86.394	68.521	19.943	3.7483e-06	27.702	0.00081431	0.00080101	0.0002588	1231.1	9.093e-06	8.9921e-06	1333	260.8	9.2863e-06	9.0804e-06	329.79	92.727	72.697	22.049	1.0575e-05	30.65	171.312	310.716	154.708	37.870	180.453	47.192	38.096	45.470	187.442	205.018	45.046	52.564	52.628	59.534	203.096	58.860	-8191	255	
1442.052	1	1	0	0	0.042823	0.088289	0.22474	0.17549	0.20671	0.14701	0.32053	0.19176	0.045663	0.23745	0.086714	0.177	0.1916	0.072453	0.085034	0.17238	-2.7333	-2.3833	-2.9771	-2.9229	-2.7917	-3.2438	-2.7687	-3.0229	-3.1562	-2.6417	-3.2875	-2.8563	-2.5708	-3.2833	-2.7812	-2.9521	356.532	340.383	103.197	282.985	361.706	365.651	48.426	47.406	341.662	80.403	40.721	39.710	342.312	332.387	71.013	340.485	0.00012154	0.00019968	0.00020955	1234.3	1.5949e-06	7.8653e-07	1330.6	251.68	1.8068e-06	1.1882e-06	317.56	86.611	68.361	19.985	3.3604e-06	27.539	0.00082677	0.00085665	0.00027014	1231	9.1058e-06	9.5989e-06	1335.6	260.27	9.2221e-06	9.6321e-06	329.92	92.479	72.54	22.155	1.0493e-05	30.402	167.130	369.816	171.463	38.027	250.666	204.606	38.190	45.362	382.809	203.169	45.597	52.701	52.688	59.335	34.516	58.447	-8191	255	
1442.149	1	1	0	0	0.24934	0.39578	0.073168	0.37417	0.039411	0.23828	0.19058	0.079517	0.073444	0.23032	0.17088	0.041051	0.20967	0.37739	0.11431	0.19102	-2.9167	-2.4437	-3.0438	-3.0854	-2.5521	-3.4792	-2.8854	-2.8979	-3.2375	-2.6854	-3.2583	-3.1063	-2.6458	-3.2208	-2.7833	-2.9333	153.318	252.367	217.920	382.266	235.027	38.623	331.273	53.744	315.238	227.977	49.066	192.688	33.311	290.158	142.736	305.955	0.00027219	0.00075688	9.1747e-05	1228.2	3.8645e-06	9.4303e-07	1330.3	252.79	3.9004e-06	4.8482e-06	314.97	86.631	68.179	20.037	5.0925e-06	27.39	0.00079549	0.00089563	0.00026119	1227.5	8.8098e-06	9.9843e-06	1333.8	259.59	8.9275e-06	9.9544e-06	328.16	92.207	72.426	22.229	9.9219e-06	30.203	192.338	97.326	252.611	37.955	148.470	34.528	38.129	45.573	325.749	175.636	45.021	52.458	52.377	59.218	136.161	58.474	-8191	255	
1442.220	1	1	0	0	0.10581	0.092821	0.15551	0.29894	0.18325	0.081013	0.24626	0.23498	0.1541	0.20304	0.14827	0.31846	0.10853	0.031817	0.13001	0.077366	-2.6729	-2.4667	-2.8479	-3.2458	-2.6937	-3.2708	-3.1042	-2.9167	-3.1333	-2.5042	-3.0812	-3.1937	-2.6312	-3.2729	-2.9479	-2.7812	143.476	272.524	38.450	28.607	207.065	327.856	369.296	49.901	95.877	107.045	41.038	352.978	302.503	379.376	344.237	299.308	0.00021748	0.000904	0.00029068	1228.6	5.6869e-06	8.4925e-06	1333.2	252.07	9.1814e-06	7.6401e-06	315.16	87.134	68.25	19.848	4.6014e-06	27.563	0.00079152	0.0009365	0.00024997	1226.4	8.8487e-06	1.0278e-05	1330.3	259.32	9.2123e-06	1.0434e-05	327.84	92.221	72.635	22.297	9.7551e-06	30.257	204.524	140.968	216.272	37.940	224.183	170.686	38.318	45.678	230.302	186.008	45.138	52.618	52.422	59.409	196.773	59.234	-8191	255	
1442.341	1	1	0	0	0.11466	0.029773	0.12955	0.29564	0.19457	0.16455	0.27838	0.18629	0.13654	0.1122	0.11276	0.12326	0.17081	0.256	0.19323	0.013659	-2.8667	-2.5104	-2.8354	-3.2896	-2.4188	-3.3104	-3.1729	-2.7521	-3.4688	-2.6625	-3.1375	-3.2333	-2.4792	-3.0354	-2.9167	-2.7729	252.359	260.233	73.009	342.046	208.977	79.530	378.534	346.681	87.480	282.504	329.390	38.727	158.241	146.862	75.481	250.416	0.00023166	7.6408e-05	0.00016632	1223.5	3.6891e-06	4.4897e-06	1328.3	253.4	1.0404e-06	5.1473e-06	315.74	86.661	68.15	19.941	6.4124e-06	27.488	0.00083628	0.00095397	0.00024264	1225.5	9.4658e-06	1.0387e-05	1329.8	259.08	9.8042e-06	1.0337e-05	326.79	91.967	73.071	22.235	9.3915e-06	30.034	200.378	253.040	156.455	37.959	157.493	169.241	38.196	45.768	197.216	335.302	44.947	52.788	52.642	59.343	103.141	58.678	-8191	255	
1442.437	1	1	0	0	0.054242	0.17455	0.19283	0.042387	0.28285	0.16805	0.1806	0.26022	0.17885	0.44746	0.22572	0.12331	0.21772	0.092903	0.082953	0.082646	-2.8146	-2.5833	-2.8438	-3.5146	-2.4188	-3.175	-3.2625	-2.5375	-3.3354	-2.8417	-2.8333	-3.1333	-2.7396	-3.1625	-2.9458	-2.3708	373.927	311.175	34.282	193.029	334.331	378.132	333.184	330.862	36.776	91.776	31.895	375.617	103.784	381.419	275.270	339.463	0.00023689	7.2687e-05	0.00022179	1231.8	8.0203e-06	6.6295e-06	1335.6	251.11	3.4263e-06	1.785e-06	313.77	86.235	68.38	19.915	3.058e-06	27.612	0.00086966	0.0009143	0.00023194	1226.8	9.7904e-06	9.7789e-06	1328.6	258.15	9.9027e-06	9.642e-06	324.86	91.376	72.961	21.987	8.9666e-06	30.032	198.340	215.744	115.411	38.009	207.408	55.959	38.072	45.573	262.652	327.820	45.452	52.612	52.654	59.322	68.086	59.061	-8191	255	
1442.533	1	1	0	0	0.012829	0.20998	0.18323	0.21844	0.36312	0.14174	0.39458	0.12458	0.12241	0.21009	0.20895	0.33906	0.14667	0.046923	0.028873	0.11129	-2.7625	-2.7188	-2.75	-3.275	-2.3917	-2.9271	-3.3833	-2.8208	-3.0375	-2.9313	-2.7062	-3.3625	-2.8521	-3.0229	-2.9896	-2.4021	187.193	373.206	33.050	40.807	150.635	92.413	343.268	288.515	37.242	59.428	37.301	62.265	308.244	229.532	32.697	344.630	0.00025617	0.00096326	0.00013244	1225	9.6703e-06	4.5239e-06	1331	250.65	3.1451e-06	6.1762e-06	314.66	87.164	68.287	19.79	3.4653e-06	27.596	0.00087309	0.0008628	0.00022107	1223.5	9.9209e-06	9.2123e-06	1326.4	257.85	9.8339e-06	9.1533e-06	323.53	91.835	73.065	21.793	8.609e-06	30.212	208.210	97.933	104.728	37.910	278.711	252.104	38.098	45.443	33.743	172.960	45.097	52.857	52.695	59.383	116.482	58.638	-8191	255	
1442.654	1	1	0	0	0.15363	0.18228	0.04853	0.24372	0.16943	0.24888	0.1654	0.09228	0.072363	0.14425	0.031577	0.13691	0.1893	0.062593	0.098049	0.043744	-2.7875	-2.6979	-2.4729	-3.1792	-2.6729	-3.0042	-3.4521	-2.5125	-3.1375	-2.9375	-2.5125	-3.3375	-2.725	-2.8396	-3.3417	-2.6854	165.012	200.500	255.513	294.785	153.630	271.942	362.604	358.831	378.592	378.199	347.939	375.021	304.212	160.115	73.513	255.468	0.00024797	0.00064015	0.00010698	1224.3	5.2294e-06	4.753e-06	1329.7	250.77	3.234e-06	6.363e-06	315.42	86.386	67.989	19.923	3.3812e-06	27.648	0.00085238	0.00081873	0.00021145	1224.4	9.5368e-06	8.7891e-06	1319.6	258.21	9.343e-06	8.7713e-06	322.08	91.862	72.44	21.706	8.3384e-06	30.267	180.082	53.837	316.064	38.074	234.845	186.704	38.187	45.892	117.484	135.566	45.421	52.851	52.231	58.898	313.951	58.810	-8191	255	
1442.750	1	1	0	0	0.23289	0.17344	0.18022	0.20722	0.26119	0.16452	0.21201	0.13554	0.26717	0.29412	0.058467	0.15012	0.27637	0.38621	0.27017	0.097461	-2.6292	-3.0167	-2.3083	-3.425	-2.5667	-2.6208	-3.4542	-2.6833	-2.95	-3.0292	-2.475	-3.2896	-2.7042	-2.5812	-3.0875	-2.575	326.972	275.440	299.510	335.670	168.609	69.175	384.034	365.280	332.563	315.554	176.421	335.933	44.589	309.667	106.336	302.583	0.00010128	0.00098267	0.00022588	1225.8	8.052e-06	3.1815e-06	1328.1	251.15	4.5392e-06	3.7372e-06	314.45	86.239	67.92	19.804	7.5708e-06	27.512	0.00081489	0.00079314	0.00021027	1227.1	9.1958e-06	8.3652e-06	1320.5	258.07	9.0259e-06	8.5147e-06	323.04	91.965	72.238	21.586	8.6504e-06	30.325	192.033	358.513	145.858	37.830	287.842	256.491	38.003	45.242	271.181	320.634	44.664	52.173	52.228	58.878	204.358	58.735	-8191	255	
1442.844	1	1	0	0	0.11771	0.14856	0.079073	0.26985	0.14081	0.054635	0.15604	0.34025	0.050091	0.089514	0.13834	0.41525	0.12285	0.20801	0.088076	0.3017	-2.6542	-3.0646	-2.5667	-3.1937	-2.9813	-2.5208	-3.4854	-2.6021	-2.8208	-3.1521	-2.5438	-3.0687	-3.0979	-2.6083	-3.2333	-2.6104	27.548	335.882	365.764	366.327	210.319	97.757	311.503	39.282	287.364	311.818	300.985	342.621	38.309	78.056	135.106	68.336	0.00012646	0.00047597	0.00013441	1219.4	4.1221e-06	1.3484e-06	1321.8	249.82	1.5726e-06	2.2012e-06	313.02	85.824	67.611	19.774	3.3175e-06	27.354	0.00077804	0.00076692	0.00021617	1223.1	8.7682e-06	8.0735e-06	1320.7	257.66	8.6432e-06	8.2201e-06	323.23	91.623	71.917	21.462	9.023e-06	30.217	203.706	106.861	27.186	37.532	115.237	134.110	37.571	44.868	248.692	208.187	44.883	52.021	52.073	57.930	42.351	58.474	-8191	255	
1442.941	1	1	0	0	0.12794	0.057576	0.10261	0.26346	0.15633	0.17213	0.12966	0.15364	0.093183	0.1559	0.12217	0.21567	0.30718	0.15314	0.32432	0.1532	-2.4271	-3.0687	-2.4958	-2.9375	-2.9292	-2.55	-3.3792	-2.7729	-2.7729	-3.275	-2.7229	-2.9813	-3.0667	-2.5833	-3.0812	-2.8354	176.223	319.590	215.543	275.970	64.998	128.420	263.671	311.427	137.623	102.811	331.663	313.484	354.369	386.446	273.454	303.482	0.00024823	0.00045378	9.5016e-05	1218.2	4.4296e-06	1.2684e-06	1327.1	250.52	1.5034e-06	3.7705e-06	312.18	86.237	67.779	19.742	3.3785e-06	27.382	0.00075343	0.00075744	0.00023094	1221.9	8.7048e-06	7.9562e-06	1323.9	258	8.4001e-06	8.1523e-06	323.83	91.458	71.718	21.436	9.2427e-06	30.055	207.519	95.521	70.783	37.064	266.019	101.583	37.415	44.855	74.952	168.307	44.066	51.635	51.821	58.532	274.010	58.249	-8191	255	
1443.037	1	1	0	0	0.15673	0.24683	0.15025	0.26482	0.077329	0.087314	0.14309	0.2113	0.10971	0.056585	0.24343	0.31358	0.18181	0.16555	0.18958	0.18734	-2.4021	-3.2396	-2.4708	-3.1937	-3.0208	-2.5104	-3.3917	-2.8083	-2.6646	-3.1875	-2.6604	-2.9083	-3.1833	-2.4667	-3.2292	-2.8542	62.667	97.567	385.373	359.167	106.998	91.090	352.154	32.847	93.428	166.981	320.411	330.841	80.221	66.800	321.819	192.363	0.00012147	0.00098942	7.5314e-05	1225.1	5.0618e-06	6.299e-06	1323.4	249.84	5.2713e-06	6.1144e-06	313.51	86.313	67.546	19.727	3.6026e-06	27.352	0.00072525	0.00075398	0.00023657	1222.3	8.3401e-06	8.2064e-06	1322.1	256.81	8.189e-06	8.4106e-06	324.74	91.045	71.535	21.571	9.397e-06	29.902	179.813	256.076	65.687	36.876	166.409	200.004	37.246	44.751	244.561	199.496	44.198	51.779	51.803	58.323	288.106	57.904	-8191	255	
1443.133	1	1	0	0	0.12823	0.12689	0.14251	0.26782	0.072859	0.16297	0.13396	0.23499	0.11298	0.2014	0.10243	0.053483	0.1659	0.20055	0.09591	0.18311	-2.2917	-3.1542	-2.475	-2.9021	-3.1292	-2.6917	-3.2917	-2.9562	-2.625	-3.2812	-2.6354	-2.8208	-3.1146	-2.5354	-3	-2.9604	138.246	224.711	247.315	324.202	323.731	337.656	310.515	180.353	136.095	189.022	132.422	171.224	27.349	60.471	280.330	281.596	0.00021106	0.00030028	7.6007e-05	1221.5	5.1105e-06	3.7164e-06	1327.9	250.66	4.756e-06	6.4824e-06	311.95	85.643	67.638	19.789	7.5726e-06	27.378	0.0007065	0.0007877	0.0002377	1219.5	8.0696e-06	8.5971e-06	1323.7	256.27	7.8471e-06	8.7606e-06	323.86	90.63	71.237	21.675	8.912e-06	29.771	224.191	354.156	339.728	37.083	216.347	218.232	37.189	44.669	260.245	257.403	44.212	51.899	51.846	58.445	190.203	58.170	-8191	255	
1443.229	1	1	0	0	0.062878	0.20557	0.12465	0.3161	0.13739	0.16557	0.23274	0.066288	0.23593	0.15449	0.2527	0.11781	0.21028	0.15839	0.16806	0.24606	-2.075	-3.1875	-2.5167	-2.9333	-3.4042	-2.4562	-3.3292	-3.0542	-2.5771	-3.2875	-2.6125	-2.6958	-3.2646	-2.575	-2.8208	-3.1583	265.596	226.100	99.606	333.314	36.106	184.357	302.452	80.158	257.977	40.107	301.437	81.414	244.474	385.672	149.476	242.264	0.0002299	0.0009951	4.8687e-05	1218.7	6.1447e-06	6.9511e-06	1323.6	250.78	5.7456e-06	1.7661e-05	313.03	85.119	67.486	19.624	3.4803e-06	27.138	0.00068456	0.00081391	0.00022429	1214	7.8789e-06	8.8288e-06	1318	255.7	7.7998e-06	8.9138e-06	321.58	90.101	71.073	21.631	8.3692e-06	29.512	205.244	117.491	372.479	36.857	230.022	171.589	36.888	45.022	228.252	130.889	44.110	51.624	51.737	57.715	68.421	57.890	-8191	255	
1443.350	1	1	0	0	0.32566	0.12685	0.19522	0.16846	0.26651	0.17808	0.25087	0.11745	0.17497	0.16653	0.19417	0.067995	0.13498	0.15011	0.25377	0.1565	-2.025	-3.1813	-2.5875	-2.7354	-3.1125	-2.4938	-3.1292	-3.0771	-2.5792	-3.3187	-2.9562	-2.775	-3.2562	-2.6729	-2.9	-3.1937	234.956	200.488	373.848	359.994	121.812	56.786	334.852	277.835	307.647	277.518	58.232	335.630	378.451	70.201	225.254	354.129	0.00035514	0.00071268	0.00010787	1220	6.9775e-06	5.5255e-06	1323.3	248.12	7.8172e-06	4.3365e-06	313.39	85.764	67.568	19.58	6.2637e-06	27.529	0.00068385	0.00080804	0.00021094	1211.9	7.974e-06	8.8617e-06	1313.6	254.1	7.9981e-06	8.906e-06	321.53	89.886	71.328	21.647	8.1868e-06	29.464	212.876	93.162	329.231	37.192	179.555	189.666	37.347	44.836	210.384	153.707	44.743	51.860	52.466	58.984	132.190	58.555	-8191	255	
1443.446	1	1	0	0	0.061402	0.12546	0.035402	0.28556	0.23831	0.2376	0.17005	0.1836	0.2429	0.11922	0.082576	0.20001	0.21361	0.20205	0.044197	0.096906	-1.9167	-3.0479	-2.8333	-2.5708	-3.2938	-2.5563	-2.9021	-3.2125	-2.5583	-3.1646	-2.9938	-2.7479	-3.2854	-2.6854	-2.7729	-3.2479	307.450	61.758	261.340	386.138	155.743	106.367	325.846	197.520	194.005	202.209	137.134	334.616	214.736	255.137	175.510	209.861	0.00023211	6.9383e-05	0.00025543	1215.5	7.6092e-06	5.8014e-06	1330.2	248.68	6.0984e-06	5.2111e-06	312.19	85.735	67.346	19.635	2.7282e-06	27.549	0.00073452	0.00079943	0.00020872	1209.9	8.4247e-06	8.7493e-06	1316	253.68	8.3953e-06	8.6044e-06	319.72	89.58	71.582	21.549	7.9294e-06	29.57	201.346	56.386	33.837	37.512	214.817	143.611	37.943	45.231	255.309	284.414	44.915	51.998	52.606	59.970	206.232	59.138	-8191	255	
1443.517	1	1	0	0	0.12509	0.044259	0.099899	0.3172	0.18793	0.44557	0.48154	0.11726	0.147	0.22973	0.24817	0.079025	0.081239	0.13992	0.2391	0.20065	-2.025	-3.1229	-2.925	-2.7604	-3.2479	-2.8083	-2.9021	-3.2667	-2.4958	-3.175	-3.0333	-2.5667	-3.2292	-2.8708	-2.5312	-3.3	81.735	223.340	43.217	360.968	387.288	349.177	333.705	306.300	154.355	279.838	250.762	348.814	44.894	34.143	329.315	38.321	0.00019905	0.00089577	1.2538e-05	1222.8	8.5007e-06	6.2848e-06	1324.3	248.77	6.4515e-06	2.0557e-06	314.45	86.02	67.418	19.761	5.6767e-06	27.503	0.0007656	0.00076986	0.00020276	1211.4	8.6957e-06	8.4491e-06	1313.9	253.72	8.7697e-06	8.1838e-06	319.95	89.814	71.652	21.412	7.6218e-06	29.571	216.864	128.497	45.515	38.316	221.599	69.886	38.252	45.998	204.861	178.400	45.238	52.679	53.096	59.296	74.887	58.910	-8191	255	
1443.614	1	1	0	0	0.21605	0.19795	0.074708	0.47242	0.088819	0.077635	0.10381	0.10697	0.16119	0.15741	0.13029	0.048664	0.22336	0.21206	0.12189	0.29804	-2.325	-2.9229	-3.0583	-2.5604	-3.2562	-2.9771	-2.9333	-3.4062	-2.6063	-2.8729	-3.2229	-2.7104	-3.3271	-3.0062	-2.5812	-3.3438	70.501	129.535	349.424	377.964	317.593	306.085	256.408	87.968	145.435	346.403	157.700	59.570	327.981	110.122	247.758	374.608	0.00021921	0.0001307	0.00016198	1219.5	1.0213e-05	2.8914e-06	1324.3	248.34	1.841e-06	6.627e-06	314.33	85.358	67.397	19.606	7.028e-06	27.249	0.00076998	0.00073355	0.00019726	1211.2	8.7247e-06	8.0586e-06	1309.6	254.23	8.7039e-06	8.0047e-06	319.64	90.135	71.537	21.412	7.4996e-06	29.676	203.576	226.991	129.886	38.095	261.631	377.142	38.269	46.028	52.335	81.754	45.424	52.312	52.663	59.832	180.061	58.728	-8191	255	
1443.734	1	1	0	0	0.15434	0.11186	0.19896	0.28164	0.033152	0.17894	0.2338	0.11381	0.20118	0.18195	0.21107	0.20634	0.096461	0.061797	0.077538	0.19662	-2.4229	-2.8521	-3.2146	-2.6937	-3.0146	-3.0375	-2.9021	-3.2729	-2.8563	-2.7562	-3.1562	-2.5458	-3.0354	-3.1375	-2.6813	-3.2417	138.120	373.330	182.653	48.700	312.761	100.960	369.061	169.956	335.871	283.879	284.160	283.334	79.144	250.012	223.903	244.408	0.00021633	0.00045908	0.00029325	1220.7	8.6629e-06	1.1037e-06	1326.8	249.46	4.8605e-06	2.1639e-06	313.19	85.781	67.371	19.702	3.7437e-06	27.597	0.00076858	0.00072042	0.0001945	1214.6	8.521e-06	8.0519e-06	1312.3	255.36	8.6078e-06	7.8155e-06	320.01	90.71	71.422	21.374	7.7533e-06	30.053	203.061	345.061	123.092	38.122	230.063	285.997	38.296	45.974	188.711	37.341	45.828	52.934	53.192	59.638	217.043	59.201	-8191	255	
1443.829	1	1	0	0	0.33201	0.17114	0.10231	0.15978	0.195	0.03882	0.29709	0.10764	0.013395	0.21366	0.29329	0.21795	0.14138	0.1565	0.23335	0.21984	-2.4729	-2.6604	-3.3083	-2.5521	-2.9958	-3.0771	-2.8917	-3.0625	-2.6167	-2.5833	-3.4146	-2.7042	-3.1771	-3.2188	-2.6625	-3.2479	316.157	306.343	90.312	107.200	51.278	272.252	298.474	79.563	79.986	386.660	380.821	359.020	271.351	89.037	248.036	41.993	0.00021975	0.00046902	0.00017489	1220.3	6.024e-06	1.0025e-05	1322.4	249.42	2.3427e-06	1.737e-06	313.17	85.814	67.527	19.736	7.6234e-06	27.405	0.00074058	0.00070764	0.00020014	1216.8	8.29e-06	7.8671e-06	1311.8	255.38	8.3131e-06	7.5707e-06	320.12	90.918	71.258	21.324	8.1683e-06	29.907	218.242	383.757	201.581	38.302	44.558	51.763	38.481	46.217	281.977	325.681	45.633	52.706	53.170	59.511	354.590	59.176	-8191	255	
1443.925	1	1	0	0	0.27754	0.16099	0.10391	0.27851	0.21803	0.18097	0.2401	0.30433	0.20876	0.18886	0.23126	0.35937	0.24532	0.23883	0.14508	0.32976	-2.6667	-2.5396	-3.4188	-2.7646	-3.0792	-3.2417	-2.5687	-3.3875	-2.9708	-2.4771	-3.3583	-2.8292	-2.7646	-3.0833	-2.6125	-2.9542	98.813	337.654	149.109	302.192	338.732	290.329	316.973	267.314	189.728	235.850	48.240	277.733	361.518	303.948	40.486	273.523	0.00020912	0.00055842	0.00020768	1220.8	7.0585e-06	5.3502e-06	1321.6	248.34	4.9503e-06	4.7498e-06	311.86	85.582	67.602	19.674	2.6785e-06	27.278	0.00072926	0.00069567	0.00021377	1217.3	8.0731e-06	7.7749e-06	1316.9	255.48	8.1567e-06	7.645e-06	321.56	91.009	71.199	21.321	8.7919e-06	29.821	201.836	105.196	118.949	38.376	232.085	122.871	38.480	45.683	354.665	216.954	45.713	53.140	52.853	59.914	176.817	58.953	-8191	255	
1444.021	1	1	0	0	0.15935	0.12991	0.18638	0.19776	0.25017	0.08797	0.4697	0.18097	0.1203	0.26159	0.23135	0.19105	0.23158	0.31346	0.46043	0.092038	-2.75	-2.7125	-3.2479	-2.9667	-2.6083	-3.1667	-2.7875	-3.0271	-3.0438	-2.7229	-3.4708	-2.9146	-2.8375	-3.3604	-2.7083	-3.05	318.325	253.262	326.613	346.768	257.690	244.290	341.792	378.688	374.029	285.206	33.640	36.640	76.110	240.172	332.764	34.336	0.00019586	0.00037929	0.00020481	1219.2	9.729e-06	5.5401e-06	1324	249.99	4.1488e-06	3.693e-06	312.54	86.262	67.588	19.818	4.339e-06	27.35	0.00071083	0.00070094	0.00022831	1216.3	8.0529e-06	7.9244e-06	1321	255.85	8.193e-06	7.8754e-06	322.73	90.78	71.19	21.45	9.2671e-06	29.742	184.130	126.151	81.427	38.249	207.783	72.426	38.389	45.836	213.508	198.544	45.410	53.151	52.972	59.845	182.622	58.740	-8191	255	
1444.117	1	1	0	0	0.23646	0.10592	0.14897	0.16771	0.11693	0.16824	0.20513	0.075722	0.11244	0.25464	0.11762	0.041898	0.25774	0.24651	0.12622	0.29583	-2.6271	-2.5021	-3.325	-2.8917	-2.7604	-3.5	-2.7667	-3.0271	-3.2104	-2.5708	-3.0292	-3.1	-2.6	-3.3563	-2.8	-2.8083	329.179	83.886	231.204	95.923	67.691	359.379	370.334	302.080	345.562	177.183	41.726	48.031	235.064	69.678	77.990	215.145	0.00017094	0.0007182	0.00025104	1219.2	9.3037e-06	3.2384e-06	1325.8	249.82	5.4872e-06	6.2964e-06	313.08	86.121	67.667	19.647	6.1145e-06	27.261	0.00071817	0.00075251	0.00023652	1216.5	8.0443e-06	8.4737e-06	1320.6	255.52	8.0837e-06	8.5361e-06	323.68	90.606	71.067	21.603	9.2495e-06	29.724	219.718	114.022	47.035	38.399	209.843	208.779	38.484	46.045	256.784	165.798	45.762	52.910	53.253	59.707	220.362	59.294	-8191	255	
1444.213	1	1	0	0	0.13532	0.16609	0.15207	0.21067	0.28653	0.040784	0.18321	0.37209	0.20517	0.14756	0.28136	0.17074	0.1197	0.16623	0.1286	0.13732	-2.7729	-2.575	-3.15	-3.1396	-2.5521	-3.2396	-2.8625	-2.9167	-3.2125	-2.5021	-3.1646	-3.2188	-2.6708	-3.2979	-2.6521	-2.7958	299.949	151.826	47.332	374.652	205.777	183.621	294.749	305.911	76.986	340.535	296.808	98.289	37.501	322.381	195.028	292.787	0.00016775	0.00059652	0.00013594	1216.1	3.5966e-06	1.015e-05	1328	249.68	4.1841e-06	4.3292e-06	312.58	85.612	67.459	19.56	4.0279e-06	27.368	0.00070802	0.000801	0.00022991	1215.4	7.8373e-06	8.9193e-06	1319.2	255.27	7.8971e-06	8.8142e-06	322.3	90.396	71.028	21.624	8.6949e-06	29.609	187.062	362.672	205.961	38.300	199.231	238.880	38.347	46.138	207.268	127.002	45.457	52.708	52.860	59.812	46.135	59.047	-8191	255	
1444.334	1	1	0	0	0.089542	0.058449	0.33738	0.20417	0.10718	0.1478	0.48254	0.019368	0.14339	0.18482	0.28193	0.13598	0.23991	0.26832	0.19519	0.16588	-2.9667	-2.7271	-3.0729	-3.275	-2.3833	-3.1896	-2.7771	-2.8875	-3.1604	-2.7854	-3.1479	-3.0104	-2.5687	-3.1021	-2.7	-2.6979	120.129	384.388	224.430	327.708	140.262	88.604	336.176	148.988	363.009	194.436	322.261	303.604	41.461	360.048	192.618	282.984	0.00028207	6.1835e-05	0.00011301	1221.8	3.4003e-07	9.6693e-06	1325.6	248.89	6.0205e-06	9.9865e-07	311.89	85.806	67.44	19.877	8.6003e-06	27.406	0.00069758	0.0008098	0.00021712	1213.2	7.8225e-06	8.9625e-06	1318.3	254.12	8.0464e-06	8.9681e-06	320.67	90.086	71.138	21.692	8.3309e-06	29.532	201.666	136.654	227.247	38.283	237.225	186.847	38.282	45.890	222.469	222.597	45.572	52.954	52.974	59.775	202.641	58.971	-8191	255	
1444.430	1	1	0	0	0.18836	0.10899	0.12067	0.31944	0.15526	0.25332	0.47667	0.37664	0.073426	0.15252	0.31312	0.016786	0.16161	0.2953	0.030814	0.33605	-2.6063	-2.6167	-2.9604	-3.25	-2.4896	-3.2125	-2.9646	-2.6437	-3.2583	-2.7958	-2.8417	-3.2333	-2.6021	-2.9896	-3.0583	-2.5438	384.308	375.046	289.404	365.100	255.371	260.427	375.451	300.361	160.679	363.697	260.213	345.796	89.276	350.731	78.602	309.752	0.00024206	0.00042084	7.6303e-05	1220.5	4.3564e-06	8.0497e-06	1328.5	249.35	8.7957e-06	7.1524e-06	314.01	86.034	67.695	19.71	1.015e-06	27.493	0.0007218	0.00081365	0.00020736	1213.5	8.2344e-06	8.8304e-06	1316.1	254.12	8.4593e-06	8.9071e-06	320.77	90.056	71.514	21.641	8.2482e-06	29.503	211.600	299.768	60.551	38.493	225.049	89.339	38.662	46.070	261.257	71.344	45.533	53.248	52.888	59.382	363.504	59.270	-8191	255	
1444.526	1	1	0	0	0.14639	0.17591	0.19013	0.31378	0.21548	0.048393	0.2436	0.10094	0.07597	0.082564	0.22783	0.27742	0.1174	0.3117	0.21129	0.32999	-2.7812	-2.6354	-2.7625	-3.2292	-2.4854	-3.1729	-3.2396	-2.7229	-3.2167	-2.9104	-2.6562	-3.3875	-2.4604	-3.0521	-3.1562	-2.6688	119.021	303.491	346.074	319.799	215.311	219.471	220.088	137.209	232.815	178.064	49.972	331.345	86.419	80.051	242.918	268.086	0.00023861	0.00051802	8.7537e-05	1219.3	8.726e-06	2.8841e-06	1317.8	249.2	9.3844e-06	8.7204e-06	314.07	86.091	67.762	19.665	3.7244e-06	27.408	0.00076855	0.00079942	0.00020642	1213.2	8.8056e-06	8.611e-06	1313.6	253.9	8.9102e-06	8.7266e-06	320.4	90.168	71.899	21.538	8.0838e-06	29.547	188.976	111.863	69.947	38.484	284.490	359.030	38.736	46.080	223.467	127.088	45.982	52.977	53.233	59.753	285.965	59.004	-8191	255	
1444.622	1	1	0	0	0.049867	0.15013	0.087254	0.23947	0.18628	0.080293	0.064596	0.22114	0.043033	0.24758	0.1516	0.18365	0.055087	0.17977	0.22463	0.014867	-2.9104	-2.7479	-2.5812	-3.3542	-2.6437	-2.8375	-3.25	-2.7146	-3.1917	-2.9333	-2.7875	-3.1396	-2.7396	-2.8792	-3.1417	-2.6833	188.813	257.761	110.607	362.733	52.256	89.459	334.451	290.983	31.750	29.995	258.354	268.138	107.119	309.319	220.069	303.948	0.00019283	0.00020443	0.00011813	1223.1	1.7505e-06	5.6982e-06	1325.5	248.69	5.0698e-06	3.508e-06	313.01	85.892	67.493	19.706	5.5797e-06	27.386	0.00079196	0.00077449	0.00019952	1216.1	8.8952e-06	8.2979e-06	1314.2	254.65	8.972e-06	8.3769e-06	319.03	90.544	71.879	21.47	7.9014e-06	29.688	196.162	88.795	284.073	38.551	374.000	181.423	38.891	46.002	220.511	205.985	45.709	53.446	53.329	59.943	241.346	59.641	-8191	255	
1444.743	1	1	0	0	0.30473	0.36602	0.19113	0.053451	0.18828	0.18868	0.33262	0.2038	0.2217	0.20745	0.11282	0.074563	0.050579	0.086687	0.091105	0.20123	-2.7167	-2.9583	-2.5125	-3.3354	-2.6979	-2.8312	-3.2083	-2.5729	-3.1479	-2.9292	-2.8208	-3.2667	-2.8917	-2.6958	-3.225	-2.3375	42.457	342.213	42.194	349.050	98.814	262.979	369.549	287.335	302.182	49.050	222.212	220.279	365.007	85.384	217.176	368.158	0.00014871	0.0003828	0.00024033	1223.1	7.6719e-06	2.1894e-06	1326.2	249.52	6.7008e-06	5.9301e-06	311.92	86.129	67.471	19.729	1.5437e-06	27.412	0.00078532	0.00074917	0.00019429	1218.4	8.8865e-06	8.1495e-06	1314.3	255.39	8.8148e-06	8.2162e-06	319.48	91.044	71.57	21.441	7.8826e-06	29.927	214.840	48.964	119.712	38.922	260.950	64.032	39.009	46.479	119.034	199.797	45.933	52.915	53.053	59.664	236.741	59.081	-8191	255	
1444.815	1	1	0	0	0.32368	0.20807	0.064	0.39984	0.13369	0.1848	0.16253	0.20257	0.12718	0.068023	0.065183	0.167	0.37968	0.16996	0.26427	0.040179	-2.7438	-2.875	-2.5917	-3.3	-2.5854	-2.7792	-3.4375	-2.6188	-2.9833	-3.0938	-2.5271	-3.1021	-2.9854	-2.7313	-3.1646	-2.7854	158.336	151.369	139.603	320.811	308.646	303.333	169.104	349.353	210.191	253.996	324.875	66.122	328.930	237.094	217.116	197.726	0.00013477	0.0003355	0.00014008	1220	3.4132e-06	4.2803e-06	1328.1	249.08	1.2309e-06	1.4173e-06	312.07	85.782	67.382	19.566	4.2216e-06	27.244	0.00076187	0.00074517	0.00019748	1217.5	8.6737e-06	7.8926e-06	1314.6	255.63	8.451e-06	8.0394e-06	319.61	91.269	71.525	21.295	8.2098e-06	29.969	211.508	135.703	112.962	38.778	372.526	202.562	38.989	46.395	225.658	278.451	45.822	53.379	53.202	60.150	309.766	59.445	-8191	255	
1444.909	1	1	0	0	0.18248	0.10487	0.16615	0.10228	0.22566	0.33308	0.39485	0.12156	0.23179	0.11502	0.1162	0.16286	0.025608	0.40181	0.33646	0.083243	-2.5167	-3.0438	-2.45	-3.2271	-2.7292	-2.6604	-3.5396	-2.8063	-2.9333	-3.3167	-2.5479	-3.2146	-2.9354	-2.6562	-3.2562	-2.6312	131.238	355.228	158.412	310.095	191.462	184.221	335.174	242.060	138.485	217.233	72.597	365.790	138.989	354.535	251.266	144.666	8.4438e-05	0.00056856	0.00028469	1224.1	3.3617e-06	3.5165e-06	1330.5	248.76	2.5165e-06	5.8577e-06	311.87	85.685	67.732	19.589	7.8088e-06	27.382	0.00074101	0.00072905	0.00021136	1219.3	8.4298e-06	7.8919e-06	1318.4	256.22	8.3134e-06	7.9783e-06	321.11	90.943	71.443	21.292	8.8169e-06	29.976	211.824	145.080	116.797	38.403	344.566	240.600	38.801	46.340	343.971	334.154	45.866	53.548	53.121	59.808	227.504	59.675	-8191	255	
1445.030	1	1	0	0	0.15347	0.12719	0.19611	0.28945	0.22212	0.26507	0.22414	0.188	0.28636	0.057945	0.26769	0.024099	0.099308	0.42811	0.23401	0.13218	-2.475	-3.1625	-2.5062	-3.1646	-2.9083	-2.5438	-3.4	-2.6646	-2.7708	-3.1667	-2.6229	-3.1375	-2.9542	-2.7583	-3.3229	-2.7354	37.141	78.440	113.863	328.954	125.284	356.188	355.502	364.156	83.149	245.007	268.698	179.333	325.361	359.743	157.664	261.610	0.00014628	0.00012927	0.00025896	1216.9	5.8709e-06	2.8773e-06	1326.9	249.01	3.2225e-06	1.9265e-06	311.61	85.892	67.851	19.714	2.2735e-06	27.623	0.00073607	0.00072473	0.0002253	1217.8	8.3629e-06	7.7819e-06	1320.5	255.45	8.1205e-06	8.0406e-06	322.84	90.763	71.4	21.399	9.2063e-06	29.963	199.785	59.054	108.527	38.353	180.115	221.321	38.900	46.170	184.254	206.603	45.588	53.166	53.357	59.903	190.346	59.482	-8191	255	
1445.126	1	1	0	0	0.12936	0.12206	0.2765	0.18864	0.046281	0.16764	0.25695	0.080217	0.050971	0.07421	0.047796	0.1811	0.17178	0.36062	0.24325	0.087309	-2.1937	-3.2333	-2.4062	-3.2104	-3.0438	-2.5104	-3.2792	-2.8854	-2.7812	-3.1625	-2.8417	-3.0104	-3.2042	-2.7417	-3.2104	-2.8542	387.168	283.170	52.898	97.912	279.239	309.719	318.841	327.808	53.732	326.049	113.716	207.122	248.145	278.043	223.507	306.152	0.00018569	0.00076822	0.00019141	1221.2	7.9653e-06	9.55e-07	1324.4	251.07	3.5047e-06	7.9867e-06	311.03	85.731	68.113	19.628	7.1223e-07	27.333	0.0007177	0.00075559	0.00023421	1217.4	8.2501e-06	8.199e-06	1321.1	255.84	8.0415e-06	8.364e-06	323.47	90.58	71.315	21.496	9.2316e-06	29.816	180.884	241.622	215.634	38.524	126.241	307.055	38.885	46.208	209.039	163.129	45.969	53.102	53.520	59.782	342.955	59.227	-8191	255	
1445.222	1	1	0	0	0.124	0.24499	0.21361	0.035997	0.19568	0.084855	0.3015	0.29169	0.15791	0.03637	0.32763	0.25925	0.16939	0.19054	0.17574	0.26356	-2.2083	-3.2771	-2.7854	-3.0917	-3.2333	-2.6146	-3.275	-3.0271	-2.5208	-3.25	-2.9188	-2.9875	-3.2271	-2.6021	-3.0479	-2.9938	383.888	30.303	152.246	276.145	110.904	120.219	295.411	358.097	268.104	188.558	295.247	250.092	381.321	281.892	357.425	105.700	0.00017569	0.00083781	9.4956e-05	1224.1	8.3557e-06	6.2716e-06	1327.8	249.48	2.4497e-06	7.7616e-06	313.89	85.97	67.464	19.76	6.0714e-06	27.276	0.00069756	0.00078173	0.00023283	1217.2	7.9369e-06	8.6513e-06	1319.7	254.82	7.8471e-06	8.7562e-06	323.27	90.472	71.052	21.668	8.8838e-06	29.755	218.145	88.375	226.648	38.552	266.729	178.137	38.724	46.277	143.655	198.497	45.653	53.106	53.727	59.806	315.630	59.506	-8191	255	
1445.318	1	1	0	0	0.099307	0.079972	0.16661	0.2493	0.34739	0.30699	0.066325	0.33005	0.12656	0.23765	0.41242	0.044787	0.25696	0.26796	0.15828	0.13513	-2.2479	-3.2438	-2.55	-2.9354	-3.1896	-2.5042	-3.3229	-3.1667	-2.4854	-3.1458	-2.9938	-2.6312	-3.1104	-2.5625	-2.8583	-3.1875	70.607	118.250	107.300	366.635	43.817	121.523	101.857	320.623	386.119	70.925	37.694	345.802	341.459	377.014	205.739	345.868	0.00021991	0.00050666	0.00017911	1217.4	3.834e-06	6.9597e-06	1324.2	249.22	4.4015e-06	2.1352e-06	313.68	85.846	67.631	19.722	5.7717e-06	27.424	0.00068787	0.00081602	0.00022388	1212.3	7.8461e-06	8.8606e-06	1317.3	254.41	7.8341e-06	8.9667e-06	322.07	89.984	71.19	21.641	8.5095e-06	29.635	215.941	135.799	94.693	38.531	198.520	200.723	38.903	46.441	259.025	239.048	45.870	53.152	53.592	60.032	75.731	59.751	-8191	255	
1445.414	1	1	0	0	0.10751	0.092503	0.23626	0.38715	0.093332	0.24389	0.17121	0.21869	0.13722	0.18262	0.096142	0.15452	0.22984	0.048491	0.065355	0.24951	-2.1458	-3.0125	-2.7042	-2.8479	-3.1604	-2.6208	-3.1104	-3.15	-2.4479	-3.2125	-3.0646	-2.6146	-3.3708	-2.6063	-2.9271	-3.2604	96.990	28.999	366.340	364.099	63.332	256.927	359.086	374.609	289.394	167.015	349.028	307.919	379.827	278.354	239.250	35.232	0.00021603	0.00041891	0.00018872	1217.2	2.0449e-06	1.5548e-06	1325.7	250.28	5.7144e-06	6.1669e-06	314.02	85.639	67.371	19.706	2.9143e-06	27.485	0.00071471	0.00084354	0.0002189	1211.8	8.3208e-06	9.2447e-06	1316.8	254.84	8.3676e-06	9.138e-06	321.52	89.974	71.535	21.756	8.3797e-06	29.566	203.334	56.115	218.045	38.598	269.234	274.105	38.746	46.086	243.783	377.775	45.991	53.308	53.626	59.802	86.893	59.392	-8191	255	
1445.510	1	1	0	0	0.14113	0.25141	0.13906	0.31593	0.23848	0.040532	0.2485	0.24633	0.24425	0.1553	0.33718	0.17638	0.11967	0.098759	0.23804	0.13231	-2.1667	-3.0563	-3.0854	-2.6521	-3.3521	-2.5271	-3.1937	-3.2896	-2.6021	-3.0708	-3.0146	-2.6562	-3.3833	-2.6979	-2.8229	-3.2958	363.324	375.162	34.969	386.718	82.216	105.638	289.590	363.363	261.809	42.416	357.350	213.627	369.474	329.821	81.022	353.383	0.00030329	0.00062872	7.7021e-05	1222.7	8.9306e-06	3.928e-06	1324.6	247.9	1.426e-06	5.3109e-06	313.4	86.038	67.485	19.567	6.7051e-07	27.474	0.00075812	0.00082724	0.00021432	1212.3	8.8175e-06	8.953e-06	1315.9	254.01	8.9182e-06	8.8704e-06	321.13	89.833	71.915	21.63	8.1297e-06	29.668	200.099	363.858	183.589	38.531	208.059	284.721	38.680	46.190	386.100	152.446	46.126	53.025	53.578	60.277	174.461	58.479	-8191	255	
1445.607	1	1	0	0	0.27375	0.086004	0.075297	0.23433	0.25747	0.090286	0.19865	0.15703	0.32338	0.044497	0.2669	0.080113	0.098649	0.042894	0.1391	0.38877	-2.1813	-2.9604	-2.9958	-2.6667	-3.2354	-2.7958	-2.8625	-3.3187	-2.5542	-2.9083	-3.1917	-2.4792	-3.4146	-2.6646	-2.7062	-3.1958	340.148	302.088	177.168	347.307	43.526	287.032	321.119	314.455	159.927	338.164	356.522	174.641	163.525	82.515	138.808	304.780	0.00021836	0.00031987	0.0001641	1218.7	3.6484e-06	7.18e-06	1327	249.62	6.855e-06	3.9163e-06	310.91	85.716	68.107	19.696	3.0799e-06	27.409	0.00079936	0.00079222	0.00020934	1212.3	9.1409e-06	8.6562e-06	1313.7	254.88	9.1517e-06	8.4403e-06	319.81	90.16	71.978	21.551	7.9507e-06	29.778	217.140	157.467	63.220	37.842	244.770	125.229	38.000	45.390	252.100	314.342	44.869	52.136	52.685	59.479	127.746	58.987	-8191	255	
1445.703	1	1	0	0	0.2844	0.16343	0.054037	0.40435	0.38539	0.09781	0.33355	0.15436	0.10371	0.14782	0.25631	0.035117	0.23891	0.27521	0.27524	0.078795	-2.2687	-2.9646	-3.0208	-2.5833	-3.2875	-2.9188	-2.9979	-3.2396	-2.7042	-2.8229	-3.2792	-2.5396	-3.2646	-2.8937	-2.6229	-3.3208	118.145	181.756	54.767	357.738	113.571	47.146	334.116	361.361	225.296	212.603	327.869	215.208	34.399	385.665	386.174	372.882	0.00013869	0.00084635	0.00018116	1216.8	6.2184e-06	9.2552e-06	1324	249.29	3.4887e-06	6.6889e-06	313.19	85.655	67.793	19.667	8.2271e-06	27.419	0.00080816	0.0007704	0.00020729	1213.7	9.1687e-06	8.4864e-06	1312.2	255.53	9.1168e-06	8.3231e-06	319.72	90.726	71.772	21.506	7.7838e-06	29.96	250.082	222.124	212.413	37.522	249.994	132.449	38.007	45.593	98.107	103.490	44.664	52.507	52.336	58.910	200.987	58.906	-8191	255	
1445.823	1	1	0	0	0.095265	0.23303	0.07247	0.32157	0.1265	0.18672	0.15865	0.12606	0.14622	0.31032	0.144	0.02055	0.19999	0.062283	0.13388	0.079813	-2.2479	-2.7771	-3.1646	-2.6833	-3.0938	-3.0125	-2.7854	-3.3	-2.8604	-2.6375	-3.1875	-2.6083	-3.1375	-3.0208	-2.5521	-3.1958	105.813	199.662	139.085	368.068	91.470	297.102	374.803	31.828	259.545	131.002	30.586	105.919	329.201	43.276	168.881	323.455	0.00018076	0.0006831	7.9866e-05	1217	1.6299e-06	1.6037e-06	1322	249.86	3.5948e-06	2.9723e-06	314.32	85.398	67.528	19.74	1.1531e-05	27.397	0.00077797	0.00074614	0.00020335	1215	8.7415e-06	8.2374e-06	1312.4	256.51	8.775e-06	8.0418e-06	319.83	90.664	71.61	21.468	7.9013e-06	30.066	198.891	106.496	124.447	37.523	55.677	205.548	37.981	45.357	88.798	179.023	45.175	51.775	52.454	59.025	226.129	58.549	-8191	255	
1445.918	1	1	0	0	0.16822	0.10173	0.37017	0.24423	0.1708	0.027462	0.32282	0.14601	0.24335	0.18479	0.07718	0.36694	0.16992	0.22558	0.16499	0.14504	-2.4271	-2.6813	-3.1104	-2.8083	-2.8312	-3.1042	-2.6042	-3.2458	-2.8896	-2.65	-3.3979	-2.6312	-3.1167	-3.0187	-2.5729	-3.0854	143.091	157.707	297.399	359.184	135.942	381.210	341.434	315.372	95.435	267.988	76.264	68.373	328.839	37.775	70.816	251.815	0.00016394	7.3163e-05	0.00021573	1217.4	3.8877e-06	5.4013e-06	1321.5	248.48	4.8223e-06	1.5825e-06	311.29	85.935	67.631	19.608	1.0078e-05	27.4	0.00076373	0.00072533	0.00020879	1217.6	8.3886e-06	8.0513e-06	1314.7	256.12	8.5283e-06	7.8419e-06	321.22	91.289	71.556	21.413	8.5259e-06	30.099	212.981	110.549	164.867	37.344	147.830	174.434	37.889	45.152	228.140	170.580	45.060	52.078	52.422	59.163	199.973	58.701	-8191	255	
1446.014	1	1	0	0	0.13003	0.30293	0.13917	0.14511	0.10845	0.21709	0.092262	0.20103	0.078323	0.17169	0.038701	0.20802	0.20687	0.31836	0.10829	0.191	-2.5042	-2.5604	-3.2104	-2.85	-2.8187	-3.2458	-2.8021	-3.0958	-2.6917	-2.4313	-3.3833	-2.5896	-2.675	-3.15	-2.2958	-3.0604	165.764	178.411	265.345	340.567	342.706	52.956	148.677	315.589	294.408	292.254	243.695	286.525	178.633	41.912	174.797	242.229	0.00020214	0.00015826	0.00015607	1221	2.1104e-06	3.8597e-06	1321.6	248.69	2.6694e-06	6.2466e-06	312.63	85.532	67.56	19.744	4.8408e-06	27.365	0.00075616	0.00072303	0.00022376	1220.3	8.3582e-06	7.9967e-06	1318.8	255.95	8.5262e-06	7.8776e-06	322.5	90.978	71.327	21.421	9.0447e-06	29.927	227.396	66.619	181.498	37.699	30.379	189.056	37.886	45.383	258.866	208.586	44.872	52.157	52.356	59.181	204.279	58.342	-8191	255	
1446.110	1	1	0	0	0.054393	0.037545	0.28401	0.22064	0.28556	0.18347	0.21544	0.25748	0.2521	0.067756	0.1245	0.29964	0.054803	0.048489	0.12451	0.19325	-2.6562	-2.5583	-3.2271	-2.9042	-2.7479	-3.325	-2.7375	-3.1562	-3.1667	-2.5729	-3.2604	-2.8688	-2.7896	-3.2479	-2.4083	-2.9896	40.568	264.745	48.520	165.210	304.234	34.082	320.394	381.327	91.639	156.122	328.832	374.087	382.182	227.075	284.542	243.951	0.00017471	0.0010649	0.00015215	1220.1	5.5687e-06	6.0081e-06	1317.8	249.48	2.2561e-06	5.2016e-06	314.06	85.302	66.898	19.81	3.7479e-06	27.483	0.00073234	0.00071706	0.00023399	1216.4	8.0248e-06	8.0013e-06	1317.9	255.27	8.1081e-06	7.939e-06	323.21	90.512	71.062	21.442	9.2209e-06	29.796	199.656	134.076	167.110	37.595	231.792	99.002	37.991	45.070	251.109	153.921	44.902	52.294	52.492	59.333	364.696	59.052	-8191	255	
1446.206	1	1	0	0	0.083857	0.19965	0.24842	0.35642	0.12321	0.16109	0.029614	0.10884	0.12746	0.021928	0.2929	0.020705	0.28497	0.10808	0.085872	0.10951	-2.7667	-2.4521	-3.1042	-2.9437	-2.5438	-3.35	-2.8292	-2.9917	-3.1875	-2.5	-3.1417	-2.8458	-2.7229	-3.2083	-2.7771	-2.9	66.757	154.889	142.989	309.627	114.844	128.083	261.573	296.160	94.051	47.522	286.766	327.385	386.409	289.517	43.269	82.784	0.00010225	0.00027403	0.00020003	1218.1	3.7129e-06	3.4762e-06	1323.4	249.82	6.3527e-06	6.3837e-06	312.54	85.714	67.381	19.592	2.8242e-06	27.236	0.0007128	0.00075532	0.00023431	1214.2	7.8795e-06	8.4691e-06	1319.8	254.99	8.007e-06	8.4943e-06	322.8	90.525	70.968	21.566	9.151e-06	29.652	232.793	103.971	87.392	37.566	37.635	368.508	37.901	44.838	242.219	156.204	45.033	51.972	52.283	59.071	373.706	58.552	-8191	255	
1446.302	1	1	0	0	0.079215	0.11874	0.2592	0.13799	0.0402	0.095563	0.3984	0.24002	0.048368	0.11927	0.077811	0.094768	0.15607	0.053813	0.081896	0.036377	-2.9062	-2.5021	-3.1146	-3.1042	-2.4562	-3.1813	-2.8604	-2.9604	-3.1042	-2.425	-3.3375	-3.1229	-2.5667	-3.3937	-2.7021	-2.825	56.650	299.427	253.095	315.041	274.462	139.519	304.602	375.626	152.024	157.569	319.626	335.466	115.052	233.447	69.383	32.353	0.00025612	0.00052133	0.00014997	1213.9	6.695e-06	7.415e-06	1323.9	247.41	3.8341e-06	8.11e-06	312.82	85.381	67.594	19.662	1.6533e-06	27.245	0.0007005	0.0008001	0.00022899	1212	7.8112e-06	8.8731e-06	1317.1	254.19	7.9377e-06	8.9272e-06	322.08	90.178	70.927	21.647	8.8037e-06	29.544	191.786	115.475	41.966	37.457	181.907	265.678	37.602	45.011	297.148	178.506	44.815	51.908	52.103	58.333	337.561	58.332	-8191	255	
1446.423	1	1	0	0	0.087443	0.10306	0.20556	0.22714	0.12719	0.13725	0.46077	0.14817	0.14449	0.28443	0.14008	0.20631	0.32825	0.29703	0.090461	0.15057	-2.625	-2.6688	-2.95	-3.0896	-2.4854	-3.0333	-3.2708	-2.5375	-3.3042	-2.7271	-3.1021	-3.0875	-2.5125	-3.2167	-2.7104	-2.6042	245.236	211.919	335.580	332.586	119.480	172.769	325.318	331.170	202.171	328.525	329.030	276.367	316.927	381.383	385.258	70.578	0.0002142	0.0006525	0.00015819	1220.4	5.9551e-06	2.9643e-06	1321.3	249.08	6.5324e-06	8.265e-06	311.52	85.067	67.219	19.536	1.3496e-06	27.385	0.00071009	0.00082737	0.00021701	1214.1	7.9511e-06	9.2206e-06	1314.7	254.22	8.2193e-06	9.3106e-06	321.24	90.21	71.277	21.72	8.6189e-06	29.535	204.923	86.921	125.075	37.298	215.904	148.710	37.637	44.876	236.359	162.329	44.230	51.941	51.812	58.618	236.470	58.108	-8191	255	
1446.519	1	1	0	0	0.10496	0.028887	0.13564	0.16257	0.20613	0.026406	0.34885	0.18973	0.13818	0.16577	0.26967	0.22323	0.15919	0.28986	0.11766	0.21162	-2.8312	-2.525	-2.8167	-3.3167	-2.5812	-3.1146	-2.9521	-2.7812	-3.1146	-2.6354	-2.7542	-3.175	-2.5958	-3.2042	-2.9875	-2.4792	132.491	334.809	315.696	44.583	247.808	186.916	44.090	268.626	348.866	332.189	295.439	383.394	80.085	237.208	247.417	317.679	0.00023412	0.00021106	0.00018525	1213.1	9.7832e-06	7.6641e-06	1322.1	246.98	4.0181e-06	6.8227e-06	312.02	85.729	67.537	19.68	5.1735e-06	27.348	0.00075814	0.00083963	0.00021499	1212.7	8.675e-06	9.1867e-06	1314.4	253.25	8.9078e-06	9.1419e-06	320.46	90.081	71.717	21.729	8.4325e-06	29.497	225.632	122.308	100.008	37.139	164.472	252.500	37.418	44.659	248.542	126.453	44.279	51.811	52.064	58.610	204.302	58.244	-8191	255	
1446.615	1	1	0	0	0.089324	0.10178	0.11663	0.23956	0.12327	0.16914	0.24117	0.23086	0.078935	0.097784	0.16426	0.12524	0.059478	0.34281	0.090076	0.24571	-2.8333	-2.6	-2.8563	-3.4813	-2.6937	-3.1437	-3.2812	-2.6417	-3.1813	-2.7896	-2.7958	-3.1604	-2.6937	-2.9625	-3.1583	-2.55	155.974	347.920	214.104	368.697	150.121	148.876	40.430	55.820	221.895	217.801	98.888	270.453	367.543	375.961	104.062	380.602	0.00022839	0.00013214	0.00017923	1216.2	4.4726e-06	5.0577e-06	1319.3	248.58	4.4849e-06	5.0774e-06	314.01	85.221	66.89	19.62	3.1151e-06	27.454	0.00079729	0.00081967	0.00020876	1211.3	8.9629e-06	8.753e-06	1315.1	253.89	9.0956e-06	8.6942e-06	320.23	90.213	71.575	21.574	8.1382e-06	29.6	202.443	145.311	367.074	37.255	234.151	40.143	37.630	44.682	209.197	152.756	43.823	51.488	51.973	58.088	103.263	57.774	-8191	255	
1446.711	1	1	0	0	0.074386	0.17374	0.20532	0.32658	0.095019	0.19028	0.28117	0.32325	0.16759	0.18945	0.15862	0.49009	0.18734	0.36979	0.17514	0.064474	-2.8312	-2.875	-2.6792	-3.4833	-2.5604	-3	-3.3583	-2.6521	-3.0375	-2.7854	-2.6646	-3.2083	-2.6896	-2.9146	-3.2708	-2.3625	278.490	208.378	71.518	379.143	181.308	304.760	348.392	367.759	107.174	184.267	363.833	346.664	80.455	52.640	38.037	115.319	0.00019751	0.00064687	0.0001032	1217.9	1.2378e-06	4.9089e-06	1323.1	247.31	3.8577e-06	4.652e-06	311.26	85.461	67.063	19.82	1.5756e-06	27.326	0.00080277	0.00077827	0.00020261	1213.8	9.1529e-06	8.3973e-06	1312.9	254.36	9.1467e-06	8.4833e-06	318.99	90.546	71.874	21.495	8.0413e-06	29.79	232.098	382.826	140.414	37.166	124.846	314.679	37.305	44.828	266.103	208.607	44.011	51.542	51.761	58.620	328.175	57.871	-8191	255	
1446.806	1	1	0	0	0.070347	0.18471	0.063212	0.31777	0.016331	0.25069	0.43809	0.10726	0.11733	0.10985	0.15499	0.14011	0.18172	0.15235	0.18568	0.32175	-2.6333	-2.8708	-2.4271	-3.5417	-2.6479	-2.7604	-3.2521	-2.5438	-3.1875	-2.9333	-2.5458	-3.3875	-2.7687	-2.8063	-3.2333	-2.5938	234.698	166.973	204.761	342.524	310.889	38.613	356.905	48.591	141.173	131.097	38.645	331.267	80.104	178.555	131.139	197.344	0.0001939	0.00045884	0.00011381	1220	3.8628e-06	6.7635e-06	1320.1	248.15	3.8781e-06	7.7378e-06	311.44	85.489	67.627	19.771	1.6196e-06	27.135	0.00079395	0.00076805	0.00019884	1215.9	9.0777e-06	8.3038e-06	1312.7	255.09	8.9129e-06	8.3699e-06	319.59	91.026	71.95	21.445	8.0681e-06	29.939	202.649	212.380	122.571	37.177	180.260	231.681	37.407	44.713	162.520	295.343	44.415	52.006	51.884	58.426	269.234	58.396	-8191	255	
1446.902	1	1	0	0	0.2675	0.31671	0.1299	0.10818	0.11663	0.12721	0.13954	0.31143	0.18276	0.3577	0.15694	0.26339	0.30299	0.082183	0.17352	0.21614	-2.5854	-3.0792	-2.5771	-3.425	-2.8208	-2.6875	-3.3812	-2.6229	-3.0625	-3.0125	-2.6167	-3.2687	-2.7292	-2.6729	-3.2604	-2.6125	247.396	324.488	57.722	361.452	272.414	259.787	343.649	311.912	106.386	85.860	381.553	304.087	288.084	74.218	247.271	351.398	0.00017043	0.00071125	9.2285e-05	1216.5	3.3669e-06	5.6159e-06	1317.6	247.68	6.77e-06	1.5445e-06	312.53	85.327	67.004	19.81	9.9568e-06	27.368	0.00076624	0.00075208	0.00020176	1217.6	8.7187e-06	8.06e-06	1313.2	255.71	8.515e-06	8.1745e-06	319.96	91.248	71.361	21.411	8.3614e-06	30.044	201.116	142.432	111.436	37.037	215.128	69.257	37.137	44.665	212.253	56.791	44.082	51.562	51.746	58.233	166.682	57.409	-8191	255	
1446.998	1	1	0	0	0.13172	0.14926	0.14933	0.25942	0.066491	0.16801	0.3571	0.20594	0.22766	0.18951	0.12657	0.19548	0.15558	0.12607	0.18124	0.28038	-2.4708	-3.0292	-2.4792	-3.2687	-2.8104	-2.6104	-3.375	-2.6729	-2.8396	-3.2125	-2.3563	-3.1167	-2.9896	-2.6021	-3.1854	-2.8063	60.216	193.586	68.951	359.831	247.622	31.875	335.846	365.657	151.070	183.244	273.051	99.434	266.971	222.718	215.354	65.298	0.00026196	0.00065253	0.00017345	1213.2	6.392e-06	5.7889e-06	1321.1	248.78	4.9686e-06	4.8933e-06	312.41	85.627	67.088	19.567	2.1688e-06	27.435	0.00073108	0.00073152	0.00020944	1215.7	8.3151e-06	7.6325e-06	1314.6	255.59	8.1141e-06	7.7904e-06	320.98	90.797	71.068	21.24	8.7603e-06	29.968	178.350	79.485	129.343	36.883	192.943	239.245	37.244	44.772	46.783	172.825	44.311	51.868	52.104	59.087	215.576	57.874	-8191	255	
1447.094	1	1	0	0	0.11522	0.04036	0.15728	0.27961	0.16491	0.10564	0.3069	0.10793	0.19924	0.19642	0.11581	0.061058	0.052406	0.34241	0.052479	0.14579	-2.3167	-3.2667	-2.5479	-3.325	-2.9229	-2.7562	-3.5042	-2.75	-2.8708	-3.2083	-2.6896	-3.0542	-3.1437	-2.5979	-3.0625	-2.775	285.534	372.676	221.370	316.467	363.085	330.859	336.214	362.553	101.643	32.730	154.067	291.203	29.993	39.303	56.507	165.553	0.00018388	0.00089748	0.00027479	1219.3	1.138e-05	1.1216e-05	1317.2	249.22	2.5666e-06	9.4262e-07	312.08	85.506	67.591	19.551	7.5575e-06	27.377	0.00071567	0.00071393	0.00022368	1216.8	8.15e-06	7.7179e-06	1317.1	255.38	8.0001e-06	7.8724e-06	322.42	90.542	71.124	21.319	9.1103e-06	29.788	224.427	120.475	158.360	36.903	189.543	181.794	37.230	44.864	53.898	225.483	44.003	51.596	51.842	58.526	276.422	58.022	-8191	255	
1447.215	1	1	0	0	0.1867	0.23606	0.18302	0.12073	0.14705	0.1145	0.21315	0.34189	0.3189	0.025721	0.21052	0.1105	0.1217	0.13018	0.16348	0.13687	-2.2708	-3.1625	-2.5021	-2.9833	-3.0667	-2.3563	-3.5229	-3.0021	-2.6437	-3.2583	-2.6792	-2.9125	-3.1708	-2.4188	-3.1458	-2.85	165.583	312.819	287.804	253.006	154.661	269.918	361.891	246.147	312.351	91.050	325.604	325.927	345.740	127.083	106.207	42.973	0.00016974	0.00066862	5.7754e-05	1215.5	4.4274e-06	4.2486e-06	1322.7	247.35	2.8277e-06	1.2911e-05	313.23	85.468	67.77	19.598	4.5661e-06	27.272	0.00068965	0.00072681	0.00022857	1215	7.8637e-06	7.924e-06	1318.4	254.12	7.652e-06	8.1482e-06	322.82	90.251	71.039	21.377	8.8722e-06	29.664	192.824	90.176	92.017	36.808	241.584	212.319	37.119	44.860	190.639	178.941	44.162	51.315	52.168	58.551	232.509	58.433	-8191	255	
1447.287	1	1	0	0	0.43841	0.16272	0.094194	0.31109	0.29795	0.14054	0.23081	0.23204	0.053182	0.10488	0.24932	0.24666	0.14511	0.27859	0.1627	0.18087	-2.3208	-3.2208	-2.5479	-2.9271	-3.0896	-2.3208	-3.3792	-2.9646	-2.5958	-3.1917	-2.5563	-2.9042	-3.3146	-2.5229	-3.0667	-2.9021	340.591	268.503	213.267	365.468	336.503	375.175	306.903	291.117	201.503	165.476	364.206	299.866	336.101	310.855	290.716	157.731	0.00012163	0.00040056	0.0002519	1214.8	9.5363e-06	3.1069e-06	1322	247	1.7164e-06	7.3814e-06	312.01	86.28	67.591	19.49	9.2176e-07	27.266	0.00066658	0.00076149	0.00022637	1212.3	7.6552e-06	8.3139e-06	1316.9	253.73	7.42e-06	8.4408e-06	321.22	89.938	70.838	21.463	8.5049e-06	29.467	209.011	102.976	106.841	37.073	204.137	192.647	37.415	44.843	157.075	194.999	44.664	51.766	51.842	59.065	175.790	58.374	-8191	255	
1447.383	1	1	0	0	0.085747	0.18015	0.35165	0.27503	0.19071	0.22362	0.12123	0.15304	0.19029	0.26829	0.28792	0.23585	0.22914	0.12887	0.050758	0.046349	-2.1167	-3.0875	-2.6104	-2.8396	-3.2792	-2.4708	-3.1125	-3.3646	-2.4104	-3.1479	-2.8688	-2.4938	-3.3542	-2.5625	-2.9708	-3.1646	190.700	321.281	147.651	335.245	356.563	243.357	364.112	376.731	179.874	361.144	100.593	145.525	139.981	296.500	226.149	373.390	0.00016942	0.00060889	1.6416e-05	1218.3	3.7399e-06	7.3672e-06	1322.2	247	3.5931e-06	8.7824e-06	310.02	85.335	67.26	19.527	2.5273e-06	27.267	0.00066572	0.00079136	0.00021628	1210.5	7.7288e-06	8.7213e-06	1316.1	253.71	7.698e-06	8.8118e-06	320.33	89.796	70.988	21.552	8.2631e-06	29.484	181.102	129.265	63.578	37.216	178.048	205.544	37.654	45.116	195.435	175.004	44.713	51.814	52.079	58.637	38.776	58.718	-8191	255	
1447.503	1	1	0	0	0.23412	0.0065715	0.24567	0.26857	0.22021	0.1599	0.16831	0.18752	0.10363	0.16741	0.15206	0.12317	0.18562	0.24984	0.27971	0.14669	-1.9771	-3.1667	-2.775	-2.8063	-3.1708	-2.7646	-3.0208	-3.0792	-2.6604	-3.2062	-3.0187	-2.7583	-3.3583	-2.7562	-2.9333	-3.2292	323.646	374.734	89.377	28.908	261.286	276.863	267.704	71.341	362.146	313.047	328.127	53.115	384.754	97.981	273.051	372.314	0.00025202	0.001306	0.00017642	1215.7	7.9744e-06	3.941e-06	1314.4	248.92	6.6562e-06	8.8296e-06	310	85.283	67.195	19.685	2.9088e-06	27.398	0.00069889	0.00080988	0.00021004	1210.7	8.1657e-06	8.7991e-06	1310.8	252.86	8.1197e-06	8.7511e-06	319.77	89.494	71.186	21.54	7.8288e-06	29.384	188.605	58.520	61.324	37.273	216.142	28.843	37.474	44.842	150.233	117.537	44.581	52.297	52.169	58.561	133.769	58.420	-8191	255	
1447.599	1	1	0	0	0.19803	0.12485	0.085124	0.36897	0.24653	0.49135	0.17827	0.33167	0.10948	0.1886	0.14623	0.1024	0.082133	0.31251	0.2111	0.078437	-2.2812	-3.0875	-2.9792	-2.7667	-3.4208	-2.7771	-2.95	-3.2875	-2.4875	-3.1125	-3.1729	-2.6437	-3.2354	-2.6104	-2.5021	-3.1208	234.145	256.611	175.918	79.126	181.505	42.013	372.611	224.680	124.964	241.447	41.978	104.905	360.547	365.766	330.908	273.409	0.00012325	0.00021407	9.597e-05	1216.3	7.5097e-06	5.52e-06	1322.2	249.53	9.0284e-06	7.0079e-06	312.29	84.989	67.372	19.835	5.0777e-06	27.412	0.00073617	0.00077833	0.00020457	1208.2	8.621e-06	8.6889e-06	1311.4	253.5	8.7636e-06	8.5678e-06	319.81	89.508	71.49	21.596	7.956e-06	29.548	202.679	48.463	164.544	37.468	189.213	121.515	37.477	45.342	209.188	129.370	43.864	51.553	51.502	58.303	215.899	57.854	-8191	255	
1447.696	1	1	0	0	0.26459	0.30793	0.36247	0.22487	0.16769	0.043013	0.22507	0.30231	0.14799	0.043786	0.081378	0.23211	0.13282	0.2821	0.097528	0.22026	-2.0187	-2.9083	-2.9688	-2.7938	-3.1562	-2.675	-2.9083	-3.4625	-2.6396	-2.9125	-3.1562	-2.6125	-3.2104	-2.8354	-2.6625	-3.2104	82.288	156.957	67.675	367.064	315.480	225.636	372.692	330.898	342.147	80.357	140.094	245.952	86.291	38.154	117.956	221.340	0.00025857	0.00058324	0.00019845	1216.6	3.7697e-06	7.6357e-06	1320.9	248.35	4.1444e-06	2.1984e-06	313.4	85.848	67.482	19.643	4.3561e-06	27.483	0.00078525	0.00077612	0.00020723	1211.9	9.0414e-06	8.4902e-06	1311.2	254.14	9.1552e-06	8.4442e-06	320.28	90.249	71.989	21.487	7.907e-06	29.814	189.377	170.461	367.641	36.870	348.946	111.611	37.068	44.993	177.161	41.250	44.602	52.011	52.221	58.499	159.306	58.452	-8191	255	
1447.815	1	1	0	0	0.20092	0.13651	0.26642	0.3849	0.16455	0.23423	0.12862	0.18085	0.11803	0.10313	0.047198	0.14051	0.018844	0.26211	0.30295	0.061438	-2.2271	-2.7083	-3.1625	-2.6125	-3.025	-2.8937	-2.7521	-3.3521	-2.6292	-2.8187	-3.4167	-2.6708	-3.0375	-2.9688	-2.6271	-3.2375	264.175	250.089	331.598	344.766	61.039	85.961	74.553	335.106	244.945	135.948	37.800	249.149	243.079	91.288	127.228	27.370	0.00019389	0.00038611	4.9987e-05	1217.5	6.3131e-06	2.6235e-06	1324.3	248.54	9.1935e-07	5.7004e-06	313.7	85.029	67.585	19.519	3.6644e-06	27.46	0.00080885	0.0007641	0.00020379	1214.6	9.0606e-06	8.4359e-06	1312.6	255.33	9.0814e-06	8.3326e-06	319.5	90.632	71.796	21.44	7.962e-06	30.064	227.967	101.486	291.813	37.394	146.292	322.316	37.619	45.118	56.956	106.384	44.754	51.836	51.584	58.988	240.667	58.642	-8191	255	
1447.911	1	1	0	0	0.018456	0.15539	0.10672	0.2155	0.2023	0.10281	0.2604	0.16941	0.10266	0.13738	0.10837	0.13255	0.10314	0.11123	0.1506	0.085518	-2.2667	-2.5375	-3.0083	-2.6833	-3.0167	-3.0563	-2.8396	-3.2417	-2.6417	-2.5542	-3.2708	-2.4833	-2.9688	-3.0896	-2.6771	-3.3187	131.809	160.836	178.582	342.359	75.269	138.503	343.174	301.163	196.118	288.521	74.682	288.327	243.896	303.707	358.531	338.259	0.00013368	0.00057542	8.522e-05	1212.4	5.9466e-06	5.7301e-06	1322.1	248.71	1.2554e-06	4.5746e-06	312.66	85.346	67.963	19.681	8.7334e-06	27.397	0.00079831	0.00076484	0.00020819	1218.7	9.0198e-06	8.6061e-06	1314	256.34	9.2823e-06	8.4615e-06	321.95	91.609	72.42	21.708	8.9988e-06	30.56	232.886	97.134	50.800	37.107	292.324	108.123	37.616	44.984	160.056	144.915	44.433	51.950	51.905	59.152	239.379	58.233	-8191	255	
1447.982	1	1	0	0	0.20907	0.090931	0.24032	0.17276	0.07217	0.15056	0.51379	0.4167	0.27686	0.12664	0.1823	0.22318	0.29546	0.15016	0.10101	0.18322	-2.4437	-2.4208	-3.1875	-2.7646	-2.8583	-3.1229	-2.6813	-3.2646	-2.8812	-2.7792	-3.3563	-2.6437	-2.8583	-3.2896	-2.3667	-3.3792	379.527	254.964	332.802	329.049	73.786	88.737	300.111	300.427	129.250	344.125	342.750	188.398	110.215	313.133	312.288	147.865	0.00012134	0.001164	0.00029245	1219.9	3.6776e-06	5.9564e-06	1323.9	250.57	6.1835e-06	3.1404e-06	315	85.659	68.015	19.903	3.2485e-06	27.318	0.00085041	0.00081396	0.00024124	1226.9	9.5861e-06	9.1928e-06	1324.1	260.02	9.871e-06	9.1786e-06	326.98	92.868	72.957	22.021	1.0259e-05	30.85	197.154	36.537	116.969	37.226	173.566	371.843	37.626	44.842	124.270	193.064	44.747	51.925	51.771	58.309	334.943	58.191	-8191	255	
1448.103	1	1	0	0	0.25178	0.26581	0.1496	0.30906	0.15344	0.093276	0.33169	0.042011	0.065562	0.061482	0.044629	0.3214	0.11378	0.081165	0.16737	0.19386	-2.5396	-2.5312	-3.2104	-2.9542	-2.7771	-3.4396	-2.7313	-3.1125	-3.1146	-2.675	-3.3479	-2.8396	-2.8667	-3.1729	-2.4896	-3.0542	217.030	317.381	67.114	312.423	265.544	123.999	342.137	375.336	203.992	96.876	333.021	301.213	323.118	260.542	72.461	130.247	0.00024761	0.00064412	0.00022271	1221.1	5.1915e-06	5.0043e-06	1325.3	251.23	5.6361e-06	5.0866e-06	313.78	86.834	67.877	19.998	7.2746e-06	27.4	0.00088701	0.00084848	0.00027165	1231.8	9.9304e-06	9.6903e-06	1333.3	261.15	1.0202e-05	9.5753e-06	329.62	93.64	73.2	22.163	1.1106e-05	30.881	205.019	78.543	93.765	37.343	266.375	111.704	37.602	44.912	124.289	349.027	44.883	51.673	51.981	58.642	212.867	57.962	-8191	255	
1448.199	1	1	0	0	0.19227	0.13071	0.29494	0.15665	0.26587	0.21006	0.22036	0.16817	0.20699	0.13441	0.20805	0.14869	0.065715	0.20538	0.055247	0.10042	-2.675	-2.5167	-3.1	-3.05	-2.7542	-3.1479	-2.8396	-3.1229	-3.1	-2.5729	-3.2542	-2.9396	-2.9167	-3.2646	-2.5875	-2.9	293.929	313.796	207.228	378.436	137.510	352.831	314.556	289.433	375.188	286.547	316.115	268.658	348.496	376.408	316.583	332.597	0.00030411	0.00050885	0.00011615	1228.2	4.5577e-06	3.0077e-06	1334	252.11	5.6882e-06	1.1041e-05	315.15	86.924	68.224	19.888	4.0942e-06	27.874	0.00089053	0.00088858	0.00028826	1236	9.8148e-06	1.0037e-05	1338.8	261.9	1.0094e-05	1.0082e-05	331.51	93.503	73.29	22.354	1.1487e-05	30.813	183.307	89.201	374.277	37.024	49.409	345.329	37.361	44.589	227.208	134.728	44.343	51.548	51.636	58.160	174.867	57.832	-8191	255	
1448.295	1	1	0	0	0.035993	0.059652	0.1673	0.34899	0.029896	0.095243	0.27168	0.23407	0.21159	0.2241	0.18559	0.26404	0.23569	0.12762	0.14443	0.078995	-2.8292	-2.4313	-3.0896	-3.0729	-2.7521	-3.1396	-2.8354	-3.0021	-3.0021	-2.5563	-3.2083	-2.9917	-2.3729	-3.3458	-2.5479	-2.8875	77.507	74.208	317.354	43.733	64.553	233.763	250.973	339.459	120.115	212.936	336.890	320.383	298.498	354.754	222.699	341.705	0.0002552	0.00025882	8.9379e-05	1232.2	5.0425e-06	3.3801e-06	1332.5	252.43	1.312e-06	8.0112e-06	316.4	86.723	68.44	20.113	5.8419e-06	27.766	0.00088429	0.00094973	0.00028921	1236.1	9.7051e-06	1.0744e-05	1340.8	261.48	9.9424e-06	1.0746e-05	332.18	93.356	73.313	22.597	1.1384e-05	30.787	199.813	288.303	279.404	37.238	202.280	135.883	37.614	45.046	321.869	281.738	44.645	51.694	51.679	58.988	76.840	58.749	-8191	255	
1448.391	1	1	0	0	0.064341	0.14851	0.21967	0.13735	0.05199	0.12019	0.469	0.14607	0.099494	0.20239	0.16574	0.058144	0.17776	0.10347	0.10759	0.24183	-2.7208	-2.4229	-3.0583	-3.1479	-2.3521	-3.2812	-2.9292	-2.8521	-3.1562	-2.5375	-3.0042	-3.0604	-2.7792	-3.2104	-2.8688	-2.7562	257.261	81.598	34.700	362.029	273.206	373.164	363.736	46.256	114.651	84.701	86.744	134.019	78.567	133.152	72.101	121.626	0.00021374	0.00095329	6.5489e-05	1232.4	6.2237e-06	1.4692e-06	1335.5	252.77	5.0919e-06	5.9673e-06	317.88	86.843	68.97	20.036	2.7545e-06	27.783	0.00087574	0.0010039	0.00028196	1236.7	9.6802e-06	1.1104e-05	1340.9	261.05	9.9329e-06	1.1067e-05	330.61	93.253	73.457	22.702	1.0681e-05	30.637	199.436	105.812	280.510	38.105	136.788	166.859	38.412	45.718	169.985	195.061	45.282	52.839	52.700	59.318	305.195	58.530	-8191	255	
1448.512	1	1	0	0	0.14161	0.13834	0.13419	0.23053	0.034687	0.22635	0.34077	0.31666	0.053155	0.19925	0.11295	0.092937	0.16664	0.075029	0.086716	0.37963	-2.7729	-2.6	-2.8187	-3.2917	-2.475	-3.2542	-2.8417	-2.9104	-3.2438	-2.65	-3.0229	-3.3125	-2.6729	-3.2625	-2.9271	-2.5417	350.445	145.578	317.696	28.593	218.484	88.923	312.671	38.356	363.561	190.286	215.299	221.512	81.306	142.817	334.674	37.680	0.0002157	0.0010888	3.458e-05	1229.8	1.1761e-05	5.0258e-06	1329.5	252.7	1.4914e-05	5.7911e-06	314.21	86.808	68.743	19.951	4.7356e-06	27.664	0.00087506	0.0010149	0.00026539	1233.6	9.8564e-06	1.1197e-05	1336.2	260.48	1.0149e-05	1.13e-05	329.19	92.888	73.812	22.627	1.0268e-05	30.465	211.394	128.780	267.834	36.942	185.074	45.497	37.153	44.410	217.340	366.249	44.377	52.286	52.441	59.075	263.826	58.465	-8191	255	
1448.584	1	1	0	0	0.14262	0.26867	0.16913	0.11525	0.20172	0.030037	0.32265	0.26864	0.258	0.28888	0.21841	0.19144	0.11768	0.25467	0.1093	0.022506	-2.7854	-2.5792	-2.8167	-3.3729	-2.5667	-3.2271	-3.0917	-2.8	-3.1979	-2.6771	-2.8396	-3.2396	-2.4854	-2.9062	-2.9062	-2.6708	35.284	367.104	291.174	284.179	348.092	302.906	294.566	310.208	84.566	71.898	342.634	104.518	289.371	195.997	99.286	179.407	0.00024961	0.00024471	0.00014218	1228.3	9.8818e-06	7.6883e-06	1333	253.59	7.6844e-06	2.8625e-06	315.23	86.97	68.611	20.045	6.576e-06	27.833	0.00091883	0.0010055	0.00025454	1230.8	1.0371e-05	1.0613e-05	1333	260.04	1.0488e-05	1.0584e-05	328.46	92.573	73.904	22.444	9.8929e-06	30.458	220.128	36.104	376.453	38.033	211.426	386.118	38.324	45.412	245.786	115.304	44.622	52.701	52.459	59.159	116.444	58.878	-8191	255	
1448.680	1	1	0	0	0.088714	0.13138	0.19488	0.096772	0.096074	0.11278	0.11714	0.090698	0.1847	0.020143	0.062985	0.22016	0.16982	0.12539	0.07008	0.31365	-2.8792	-2.5438	-2.6375	-3.3312	-2.6229	-3.2313	-3.1333	-2.7875	-3.0479	-2.9708	-2.7354	-3.075	-2.5729	-2.8646	-2.8792	-2.2958	159.264	200.811	362.358	235.427	151.997	290.555	301.907	354.249	35.193	197.264	119.256	190.232	316.832	109.854	188.342	371.633	0.00022096	0.00057128	0.00013527	1228.1	1.9858e-06	8.7775e-06	1330.6	253.59	3.7813e-06	6.1202e-06	317.4	86.633	68.493	19.991	3.8605e-06	27.632	0.0009444	0.00096209	0.00024718	1231.1	1.0909e-05	1.0377e-05	1333.1	260.96	1.1136e-05	1.0526e-05	328.4	92.919	74.319	22.363	9.787e-06	30.668	224.876	82.630	87.836	38.056	165.152	46.005	38.105	45.443	179.837	189.249	44.989	52.138	51.986	58.802	64.015	57.849	-8191	255	
1448.776	1	1	0	0	0.05313	0.045207	0.13347	0.18457	0.038827	0.14598	0.1588	0.093824	0.061809	0.054156	0.16186	0.11131	0.16261	0.29687	0.054283	0.15903	-2.8375	-2.8375	-2.5479	-3.3063	-2.6375	-2.8542	-3.3646	-2.5542	-3	-2.7083	-2.7042	-3.2667	-2.6437	-2.8875	-3.225	-2.5312	355.625	381.783	159.059	279.600	364.010	139.369	340.806	32.477	105.263	334.592	331.888	292.568	343.072	265.891	95.726	362.820	0.00012682	0.00067597	7.2294e-05	1227.2	2.292e-06	5.7736e-06	1341.2	253.15	4.3127e-06	1.2962e-06	318.49	87.152	67.93	20.028	4.0343e-06	27.461	0.00096509	0.00092494	0.00023769	1233.6	1.0942e-05	9.8873e-06	1333.8	261.76	1.0853e-05	9.9902e-06	327.15	93.491	73.993	22.187	9.4405e-06	30.825	169.284	298.337	304.670	37.388	245.685	212.370	38.039	45.887	177.836	281.245	45.075	52.436	50.962	58.196	227.432	58.072	-8191	255	
#DATA ENDS
