BOXY.EXE: ISS Imagent and Oximeter Data Acquisition Program Version 0.80
Ascii Record File

#ACQ INFORMATION
2  Detector Channels 
16  External MUX Channels 
1  Auxiliary Channels 
5000  Waveform (CCF) Frequency (Hz)
1  Waveforms Skipped 
30  Waveforms Averaged 
1  Cycles Averaged 
16  Acquisitions per Waveform 
10.0806  Updata Rate (Hz) 

#FILE INFORMATION
TRUE -- External MUX Channel results are PARSED.
FALSE -- AC DC and Phase are NOT grouped.
TRUE -- Companion Program Settings File CREATED.
FALSE -- AC data not excluded
FALSE -- DC data not excluded
FALSE -- Phase data not excluded
FALSE -- Auxillary Chn. data not excluded
Tab delimiters

#CALIBRATION STATE
TRUE -- Waveform Calibration Values APPLIED.


#AUX CALIBRATION VALUES
Val Type	aux-1	

Term	1.0000e+00	
Factor	0.0000e+00	


#WF CALIBRATION VALUES
A = Detector Channel
Val Type	A-AC1	A-AC2	A-AC3	A-AC4	A-AC5	A-AC6	A-AC7	A-AC8	A-AC9	A-AC10	A-AC11	A-AC12	A-AC13	A-AC14	A-AC15	A-AC16	A-DC1	A-DC2	A-DC3	A-DC4	A-DC5	A-DC6	A-DC7	A-DC8	A-DC9	A-DC10	A-DC11	A-DC12	A-DC13	A-DC14	A-DC15	A-DC16	A-Ph1	A-Ph2	A-Ph3	A-Ph4	A-Ph5	A-Ph6	A-Ph7	A-Ph8	A-Ph9	A-Ph10	A-Ph11	A-Ph12	A-Ph13	A-Ph14	A-Ph15	A-Ph16	

Term	0.00000e+00	0.00000e+00	0.00000e+00	0.00000e+00	0.00000e+00	0.00000e+00	0.00000e+00	0.00000e+00	0.00000e+00	0.00000e+00	0.00000e+00	0.00000e+00	0.00000e+00	0.00000e+00	0.00000e+00	0.00000e+00	0.00000e+00	0.00000e+00	0.00000e+00	0.00000e+00	0.00000e+00	0.00000e+00	0.00000e+00	0.00000e+00	0.00000e+00	0.00000e+00	0.00000e+00	0.00000e+00	0.00000e+00	0.00000e+00	0.00000e+00	0.00000e+00	0.00000e+00	0.00000e+00	0.00000e+00	0.00000e+00	0.00000e+00	0.00000e+00	0.00000e+00	0.00000e+00	0.00000e+00	0.00000e+00	0.00000e+00	0.00000e+00	0.00000e+00	0.00000e+00	0.00000e+00	0.00000e+00	
Factor	1.00000e+00	1.00000e+00	1.00000e+00	1.00000e+00	1.00000e+00	1.00000e+00	1.00000e+00	1.00000e+00	1.00000e+00	1.00000e+00	1.00000e+00	1.00000e+00	1.00000e+00	1.00000e+00	1.00000e+00	1.00000e+00	1.00000e+00	1.00000e+00	1.00000e+00	1.00000e+00	1.00000e+00	1.00000e+00	1.00000e+00	1.00000e+00	1.00000e+00	1.00000e+00	1.00000e+00	1.00000e+00	1.00000e+00	1.00000e+00	1.00000e+00	1.00000e+00	X	X	X	X	X	X	X	X	X	X	X	X	X	X	X	X	

B = Detector Channel
Val Type	B-AC1	B-AC2	B-AC3	B-AC4	B-AC5	B-AC6	B-AC7	B-AC8	B-AC9	B-AC10	B-AC11	B-AC12	B-AC13	B-AC14	B-AC15	B-AC16	B-DC1	B-DC2	B-DC3	B-DC4	B-DC5	B-DC6	B-DC7	B-DC8	B-DC9	B-DC10	B-DC11	B-DC12	B-DC13	B-DC14	B-DC15	B-DC16	B-Ph1	B-Ph2	B-Ph3	B-Ph4	B-Ph5	B-Ph6	B-Ph7	B-Ph8	B-Ph9	B-Ph10	B-Ph11	B-Ph12	B-Ph13	B-Ph14	B-Ph15	B-Ph16	

Term	0.00000e+00	0.00000e+00	0.00000e+00	0.00000e+00	0.00000e+00	0.00000e+00	0.00000e+00	0.00000e+00	0.00000e+00	0.00000e+00	0.00000e+00	0.00000e+00	0.00000e+00	0.00000e+00	0.00000e+00	0.00000e+00	0.00000e+00	0.00000e+00	0.00000e+00	0.00000e+00	0.00000e+00	0.00000e+00	0.00000e+00	0.00000e+00	0.00000e+00	0.00000e+00	0.00000e+00	0.00000e+00	0.00000e+00	0.00000e+00	0.00000e+00	0.00000e+00	-7.23465e+01	-1.49617e+02	-1.26872e+02	-1.83762e+02	-5.18693e+01	-6.06153e+01	-1.58526e+02	-1.62015e+02	-4.81224e+01	-7.56965e+01	-1.70957e+02	-1.70833e+02	-1.76992e+02	-1.76825e+02	-4.67194e+01	-1.50028e+02	
Factor	1.63432e-05	1.10510e-04	3.48016e-05	1.52478e-01	1.22918e-06	1.22249e-06	1.63273e-01	5.15583e-02	9.18127e-07	1.18410e-06	8.55517e-02	2.92432e-02	2.25317e-02	9.04730e-03	1.05066e-06	1.29668e-02	1.38578e-06	1.45995e-06	4.07899e-07	7.71863e-02	1.59237e-08	1.59708e-08	7.76724e-02	2.61251e-02	1.59683e-08	1.59842e-08	4.15537e-02	1.42499e-02	1.15109e-02	4.55475e-03	1.60640e-08	6.29093e-03	X	X	X	X	X	X	X	X	X	X	X	X	X	X	X	X	



#DISTANCE SETTINGS
A = Detector Channel
A-1	A-2	A-3	A-4	A-5	A-6	A-7	A-8	A-9	A-10	A-11	A-12	A-13	A-14	A-15	A-16	

2.5000e+00	3.0000e+00	2.5000e+00	3.0000e+00	2.0000e+00	3.0000e+00	1.5000e+00	3.0000e+00	3.0000e+00	3.0000e+00	3.0000e+00	3.0000e+00	3.0000e+00	3.0000e+00	1.5000e+00	3.0000e+00	

B = Detector Channel
B-1	B-2	B-3	B-4	B-5	B-6	B-7	B-8	B-9	B-10	B-11	B-12	B-13	B-14	B-15	B-16	

1.0000e+01	1.0000e+01	1.0000e+01	1.4400e+00	1.0000e+01	1.0000e+01	1.5100e+00	1.9400e+00	1.0000e+01	1.0000e+01	1.9900e+00	2.4900e+00	2.4100e+00	2.9000e+00	1.0000e+01	2.9800e+00	




#DATA BEGINS
time	group	step	mark	flag	A-AC1	A-AC2	A-AC3	A-AC4	A-AC5	A-AC6	A-AC7	A-AC8	A-AC9	A-AC10	A-AC11	A-AC12	A-AC13	A-AC14	A-AC15	A-AC16	A-DC1	A-DC2	A-DC3	A-DC4	A-DC5	A-DC6	A-DC7	A-DC8	A-DC9	A-DC10	A-DC11	A-DC12	A-DC13	A-DC14	A-DC15	A-DC16	A-Ph1	A-Ph2	A-Ph3	A-Ph4	A-Ph5	A-Ph6	A-Ph7	A-Ph8	A-Ph9	A-Ph10	A-Ph11	A-Ph12	A-Ph13	A-Ph14	A-Ph15	A-Ph16	B-AC1	B-AC2	B-AC3	B-AC4	B-AC5	B-AC6	B-AC7	B-AC8	B-AC9	B-AC10	B-AC11	B-AC12	B-AC13	B-AC14	B-AC15	B-AC16	B-DC1	B-DC2	B-DC3	B-DC4	B-DC5	B-DC6	B-DC7	B-DC8	B-DC9	B-DC10	B-DC11	B-DC12	B-DC13	B-DC14	B-DC15	B-DC16	B-Ph1	B-Ph2	B-Ph3	B-Ph4	B-Ph5	B-Ph6	B-Ph7	B-Ph8	B-Ph9	B-Ph10	B-Ph11	B-Ph12	B-Ph13	B-Ph14	B-Ph15	B-Ph16	aux-1	digaux	

3714.527	1	1	0	512	0.19226	0.22327	0.14601	0.074642	0.1133	0.25556	0.14508	0.33273	0.064206	0.081294	0.17114	0.19361	0.26798	0.086517	0.011294	0.28966	-2.0229	-2.5104	-2.8396	-2.3792	-2.5375	-2.8312	-2.4542	-2.8208	-2.5917	-2.4333	-3.1562	-2.5604	-2.6646	-2.9771	-2.1063	-2.8979	168.884	327.498	388.444	384.802	162.691	427.441	439.002	391.173	396.303	152.131	407.163	383.476	469.128	459.215	165.642	329.618	0.00095362	0.00039597	0.00025345	1330.4	6.1731e-06	7.8597e-06	1408.5	492.6	6.6843e-06	7.0017e-06	554.99	199.91	170.12	79.149	5.5487e-06	99.548	0.00016003	0.00010526	3.2677e-05	1231.3	1.2012e-06	1.1778e-06	1288.3	453.14	1.299e-06	1.1797e-06	502.84	181.45	156.01	72.975	1.3929e-06	89.74	236.039	191.029	217.641	127.246	264.027	280.277	125.845	131.756	283.401	265.343	129.573	134.420	136.610	141.110	277.016	137.013	-8191	255	
3714.623	1	1	0	0	0.19779	0.43119	0.10349	0.091576	0.21198	0.024316	0.51554	0.30556	0.071436	0.13232	0.085188	0.2828	0.12561	0.21749	0.089471	0.45451	-2.1146	-2.2667	-2.7917	-2.5187	-2.3854	-2.9062	-2.4167	-2.9396	-2.7042	-2.3417	-3.2042	-2.4042	-2.6146	-3.0958	-2.3292	-2.7542	426.309	436.725	344.631	379.753	150.153	266.138	429.344	423.573	185.391	453.726	123.332	409.512	413.553	446.753	153.593	390.422	0.0009181	0.00050659	0.00012802	1352.6	7.1727e-06	6.7051e-06	1417.6	491.8	6.3045e-06	4.3673e-06	555.86	201.17	170.8	80.059	3.7819e-06	99.588	0.00016002	0.00010535	3.419e-05	1238.8	1.2413e-06	1.2012e-06	1291.5	452.09	1.2683e-06	1.173e-06	504.38	182.79	156.52	73.413	1.4265e-06	90.169	236.892	180.042	167.893	126.862	287.537	276.482	125.559	131.556	282.318	233.426	129.432	134.242	136.462	141.231	295.242	137.504	-8191	255	
3714.743	1	1	0	0	0.22009	0.43902	0.1284	0.33937	0.3302	0.16986	0.1393	0.41028	0.10326	0.15177	0.23359	0.25652	0.29435	0.34532	0.10209	0.2811	-2.3458	-2.0687	-2.725	-2.4979	-2.375	-2.7812	-2.325	-2.8229	-2.8521	-2.3646	-3.0958	-2.5396	-2.575	-3.0771	-2.2292	-2.8375	149.034	348.723	456.013	421.800	244.905	434.521	374.458	432.928	465.053	366.437	462.518	463.771	441.096	196.704	218.008	435.982	0.00096226	0.00069545	0.00025381	1342.9	5.115e-06	4.9157e-06	1405	490.44	8.9322e-06	6.6148e-06	549.41	202.09	170.83	79.753	6.2711e-06	99.76	0.00016131	0.00011264	3.426e-05	1236.8	1.2119e-06	1.2858e-06	1291	452.1	1.2391e-06	1.2603e-06	504.19	183.54	156.77	73.477	1.356e-06	90.706	238.186	179.395	207.110	126.879	273.276	249.554	125.541	131.662	292.727	247.175	129.752	134.565	136.644	141.226	274.091	137.341	-8191	255	
3714.838	1	1	0	0	0.15065	0.12049	0.071829	0.41761	0.17534	0.22349	0.32236	0.26732	0.20526	0.33557	0.41573	0.15806	0.34053	0.40841	0.045942	0.14388	-2.4583	-2.1188	-2.6188	-2.5083	-2.2479	-3.0604	-2.6479	-2.8104	-2.7771	-2.1	-2.8979	-2.8417	-2.55	-3.0771	-2.2708	-2.9979	451.533	164.323	125.871	463.538	244.724	339.937	391.297	426.407	370.608	172.135	395.598	177.676	446.763	420.533	264.618	372.537	0.00091467	0.00066078	0.00026903	1334.7	5.6584e-06	8.9672e-06	1399.4	485.76	9.0437e-06	7.6149e-06	549.74	198.8	168.68	79.316	4.9545e-06	97.935	0.00015731	0.00012043	3.2462e-05	1231.4	1.2178e-06	1.315e-06	1286.5	449.34	1.2375e-06	1.2812e-06	500.98	182	155.88	73.085	1.3288e-06	89.635	234.678	199.111	189.969	127.132	263.571	267.067	125.778	132.079	279.674	257.628	129.764	134.387	136.950	141.355	274.406	137.601	-8191	255	
3714.936	1	1	0	0	0.080194	0.23732	0.047667	0.16584	0.13016	0.037581	0.37091	0.29579	0.19207	0.23354	0.34223	0.10415	0.18008	0.22209	0.18759	0.34186	-2.3729	-2.2625	-2.7854	-2.6708	-2.2583	-2.9646	-2.5979	-2.7646	-2.6188	-2.1396	-2.8833	-2.8438	-2.5146	-3.0146	-2.4729	-2.6396	179.958	255.805	388.542	424.640	181.888	421.529	381.731	425.782	391.799	384.841	423.729	362.691	470.414	128.048	309.559	392.556	0.00091448	0.00051524	0.00014016	1319.1	5.2166e-06	5.3178e-06	1389	486.24	6.6998e-06	6.2455e-06	550.76	199.05	169.31	79.173	6.5921e-06	98.859	0.00015941	0.00012202	3.1348e-05	1227.1	1.2136e-06	1.3128e-06	1281.6	449.84	1.283e-06	1.2918e-06	502.2	181.7	155.9	73.024	1.2566e-06	89.858	236.479	185.221	197.328	127.221	301.353	280.464	125.999	131.956	269.690	262.673	129.593	134.374	136.730	141.208	319.330	137.680	-8191	255	
3715.030	1	1	0	0	0.10752	0.043389	0.12765	0.32032	0.31023	0.26864	0.11458	0.20156	0.2874	0.12478	0.1878	0.252	0.56616	0.42867	0.28911	0.32447	-2.5771	-1.9896	-2.6312	-3.0417	-2.1354	-2.9625	-2.7021	-2.5417	-2.9813	-2.4271	-2.7167	-2.9583	-2.2792	-3.1688	-2.5146	-2.6312	114.541	425.993	464.320	422.561	429.899	261.450	404.139	312.385	227.955	422.844	422.876	469.310	473.117	445.657	324.538	400.059	0.00096412	0.00051896	0.00021379	1328.5	6.3075e-06	6.7064e-06	1384.8	485.38	7.5512e-06	2.8722e-06	553.33	200.54	169.36	79.758	4.3394e-06	99.756	0.00016187	0.0001184	3.0555e-05	1231.3	1.2801e-06	1.2654e-06	1283.8	449.46	1.3134e-06	1.304e-06	502.68	183.11	156.3	73.583	1.2689e-06	90.849	235.012	203.515	216.673	127.285	247.539	251.210	126.214	131.980	268.311	210.147	129.790	134.397	136.824	141.208	276.196	137.515	-8191	255	
3715.126	1	1	0	0	0.20049	0.082061	0.20638	0.2188	0.074712	0.18147	0.58973	0.35829	0.17081	0.15989	0.12066	0.18325	0.28463	0.18201	0.19291	0.25212	-2.5812	-2.4625	-2.6813	-2.8896	-2.2125	-2.9625	-2.8542	-2.5979	-2.9542	-2.425	-2.7896	-2.8354	-2.2896	-3.0062	-2.5792	-2.4667	139.736	186.053	392.073	415.114	435.051	332.228	403.797	447.922	263.761	209.255	146.491	464.643	387.589	425.323	297.370	450.428	0.00098685	0.00070517	0.00026716	1347.8	7.0987e-06	9.314e-06	1413.3	493.82	5.7938e-06	2.8162e-06	559.66	204.55	172.85	81.42	9.0526e-06	102.17	0.00016754	0.00011621	3.0693e-05	1236.1	1.344e-06	1.2492e-06	1291.5	452.3	1.3713e-06	1.2427e-06	505.38	185.28	157.91	74.096	1.2477e-06	91.917	235.546	177.809	212.315	126.808	273.687	261.603	125.616	131.705	286.302	260.187	129.137	133.863	136.591	140.750	290.036	137.192	-8191	255	
3715.222	1	1	0	0	0.1863	0.14138	0.065892	0.17295	0.29898	0.1515	0.15896	0.26565	0.12693	0.24477	0.19548	0.22374	0.5123	0.080342	0.18104	0.25906	-2.4646	-2.4313	-2.6042	-3.0833	-2.2125	-2.7375	-2.8812	-2.3625	-2.9854	-2.4646	-2.7271	-3.0521	-2.4271	-2.8208	-2.8896	-2.2229	147.039	342.105	149.112	402.700	266.025	269.629	441.241	141.539	352.093	266.093	424.302	156.313	438.154	184.302	136.530	430.342	0.00092161	0.00055699	0.00026332	1346.6	5.6499e-06	7.4764e-06	1417.2	493	5.865e-06	7.82e-06	557.03	203.38	172.24	80.571	1.0018e-05	101.04	0.00016599	0.00011481	2.9031e-05	1235.6	1.3356e-06	1.2079e-06	1293.7	452.01	1.352e-06	1.2507e-06	504.47	184	157.09	73.477	1.2102e-06	90.957	235.401	199.909	217.331	126.696	275.762	284.391	125.454	131.415	280.425	258.631	129.491	133.974	136.521	140.665	287.286	137.085	-8191	255	
3715.343	1	1	0	0	0.049673	0.12261	0.042746	0.13111	0.04233	0.10912	0.14403	0.32345	0.23998	0.1995	0.25324	0.32249	0.32623	0.10788	0.27853	0.21193	-2.525	-2.3604	-2.2896	-3.0583	-2.3458	-2.6896	-2.9979	-2.5396	-2.9708	-2.6937	-2.4479	-2.9562	-2.3688	-2.6875	-2.7458	-2.3833	452.125	350.819	205.238	468.112	176.680	472.093	452.788	417.733	240.997	432.799	385.693	438.555	396.084	396.755	214.069	373.052	0.00090811	0.00081033	0.0001777	1345.1	8.7493e-06	5.5692e-06	1415.7	494.95	4.5231e-06	6.5076e-06	558.69	201.75	172.04	80.465	5.48e-06	100.66	0.00017054	0.00011128	3.0046e-05	1232.7	1.3349e-06	1.213e-06	1290.6	451.73	1.3357e-06	1.2279e-06	503.77	183.34	156.56	73.445	1.2468e-06	90.825	237.620	177.923	197.332	126.590	295.074	293.068	125.515	131.273	285.053	221.308	129.077	134.074	136.255	140.940	257.375	136.927	-8191	255	
3715.439	1	1	0	0	0.11518	0.12159	0.18921	0.24161	0.26331	0.016172	0.2865	0.13341	0.27668	0.18804	0.028247	0.25321	0.1847	0.2226	0.046004	0.1259	-2.4625	-2.6271	-2.1813	-2.8708	-2.3167	-2.5563	-3.0625	-2.4083	-2.8979	-2.8167	-2.5771	-2.8354	-2.4125	-2.7375	-2.7542	-2.4479	201.323	419.223	298.819	415.548	401.046	177.580	394.633	416.729	318.244	262.886	177.118	405.203	125.944	135.720	278.146	395.984	0.00099578	0.00054883	0.00023823	1352.5	1.0464e-05	8.3528e-06	1422	495.41	5.22e-06	6.0807e-06	562.38	204.41	172.2	81.01	4.6534e-06	102.15	0.00016722	0.0001098	3.09e-05	1234	1.3387e-06	1.1814e-06	1291	451.89	1.3099e-06	1.2146e-06	506.77	184.36	157.07	73.916	1.2998e-06	91.888	234.771	174.943	182.761	126.677	287.518	285.967	125.524	131.457	288.471	243.090	129.137	133.862	136.818	140.760	289.037	136.892	-8191	255	
3715.535	1	1	0	0	0.21469	0.030897	0.13317	0.20841	0.08304	0.14287	0.29333	0.18956	0.39943	0.14565	0.045476	0.47889	0.39223	0.24324	0.29677	0.15722	-2.1854	-2.6167	-2.3417	-3.0521	-2.4833	-2.325	-3.0708	-2.3125	-2.6792	-2.8688	-2.2396	-3.0896	-2.675	-2.6813	-2.9792	-2.5917	252.029	121.931	451.720	443.496	257.689	388.899	452.392	363.201	135.803	273.981	153.587	186.289	156.266	118.993	417.690	417.382	0.00094026	0.00069206	0.00021611	1355.8	6.8942e-06	5.3282e-06	1422.9	498.36	4.258e-06	5.0226e-06	564.12	205.81	173.3	81.051	6.0547e-06	102.14	0.0001647	0.00011047	3.1543e-05	1236.5	1.3074e-06	1.1855e-06	1295.7	455.23	1.3234e-06	1.2009e-06	509.31	185.28	157.75	74.058	1.378e-06	92.259	237.073	179.670	201.062	126.680	310.379	248.643	125.461	131.552	253.728	227.190	129.103	133.967	136.602	140.781	288.345	137.124	-8191	255	
3715.607	1	1	0	0	0.41056	0.10329	0.049237	0.23099	0.30924	0.217	0.15871	0.32627	0.076793	0.25095	0.34536	0.46087	0.3477	0.079471	0.13149	0.35865	-2.15	-2.7354	-2.0521	-2.925	-2.5167	-2.3958	-3.1792	-2.4375	-2.3229	-2.8208	-2.2604	-2.9708	-2.8229	-2.3812	-2.9	-2.3979	431.609	156.922	121.378	462.135	267.445	303.742	413.108	472.525	392.478	146.873	420.145	445.219	121.328	324.296	114.240	422.596	0.00097609	0.00035892	0.00026004	1355.8	8.0194e-06	9.8579e-06	1426.1	498.28	7.267e-06	6.6382e-06	563.06	204.96	172.36	80.726	4.3585e-06	101.02	0.00016683	0.00011273	3.4167e-05	1236.9	1.3253e-06	1.2304e-06	1297.9	455.16	1.2641e-06	1.2077e-06	508.68	185.06	157.08	73.815	1.434e-06	91.463	234.384	153.357	191.666	126.824	297.049	279.846	125.394	131.594	286.688	257.412	129.159	133.871	136.262	140.766	287.914	137.182	-8191	255	
3715.728	1	1	0	0	0.040168	0.14748	0.28425	0.11648	0.12936	0.24947	0.099035	0.11853	0.12033	0.10059	0.18195	0.29393	0.11002	0.050545	0.16595	0.12331	-2.1333	-2.7771	-2.2938	-2.8417	-2.5125	-2.1604	-3.1521	-2.6875	-2.2708	-2.9729	-2.4708	-2.7792	-2.8583	-2.4188	-2.8521	-2.5521	310.916	119.010	124.594	402.840	256.795	156.865	421.084	138.752	324.850	350.268	397.862	116.172	173.250	300.787	366.416	443.324	0.00093455	0.00084301	0.00028786	1354.2	2.9731e-06	3.4282e-06	1426.3	493.61	4.6469e-06	8.249e-06	560.49	203.67	171.92	80.774	5.6062e-06	101.26	0.00015977	0.00011289	3.5015e-05	1233.6	1.2429e-06	1.2465e-06	1293.8	450.84	1.2661e-06	1.2528e-06	506.18	183.99	156.79	73.734	1.4147e-06	91.3	236.648	167.281	222.889	126.694	252.485	265.673	125.593	131.968	287.185	261.852	129.396	134.116	136.616	140.680	296.371	136.995	-8191	255	
3715.822	1	1	0	0	0.10594	0.17378	0.27178	0.11129	0.30689	0.15443	0.39773	0.53481	0.33522	0.089577	0.11035	0.24559	0.29608	0.088692	0.089488	0.18975	-1.8458	-2.8021	-2.0812	-2.8083	-2.4771	-2.2333	-2.8937	-2.8312	-2.3417	-2.7333	-2.3375	-2.7458	-2.9833	-2.2958	-2.8458	-2.8042	257.974	255.210	238.075	444.912	183.580	453.653	406.625	445.444	240.443	325.126	201.618	430.869	464.887	384.310	295.173	126.642	0.00098116	0.00067039	0.00025624	1350.5	8.3943e-06	7.5833e-06	1419.9	495.18	6.7495e-06	4.127e-06	559.99	203.7	173.64	80.35	8.887e-06	102.38	0.00016145	0.00011825	3.5383e-05	1232.9	1.2373e-06	1.3012e-06	1295.6	452.55	1.2442e-06	1.2746e-06	507.35	184.84	157.74	73.898	1.3795e-06	92.093	235.135	190.710	189.283	126.701	252.800	276.999	125.448	131.692	266.819	271.745	129.627	133.722	136.491	140.674	289.855	137.013	-8191	255	
3715.918	1	1	0	0	0.017911	0.14722	0.11997	0.14858	0.13721	0.2747	0.091552	0.195	0.12103	0.19746	0.11207	0.17411	0.17604	0.0093595	0.19012	0.31806	-1.8708	-2.7625	-2.1917	-2.7396	-2.7	-2.0125	-2.9229	-2.7958	-2.1146	-2.7521	-2.4437	-2.6896	-3.0104	-2.3792	-2.7729	-2.8146	210.580	405.279	197.521	144.245	233.019	135.288	357.454	471.899	323.677	335.741	150.602	376.318	402.824	449.757	311.040	447.913	0.00094525	0.00074662	0.00022136	1356.2	8.3994e-06	9.506e-06	1428.3	496.33	8.6308e-06	3.947e-06	562.74	206.84	173.61	81.362	7.5022e-06	103.15	0.0001612	0.00012446	3.3618e-05	1236.7	1.2638e-06	1.3561e-06	1301.8	454	1.2606e-06	1.3458e-06	509.27	186.29	158.47	74.241	1.343e-06	92.917	237.489	188.423	192.857	126.766	275.688	261.983	125.531	131.760	286.757	253.144	129.274	133.917	136.425	140.631	271.016	137.109	-8191	255	
3716.016	1	1	0	0	0.2797	0.21232	0.11781	0.10705	0.04874	0.12875	0.12663	0.18898	0.18629	0.24616	0.20043	0.34169	0.2797	0.22725	0.088538	0.15706	-1.8792	-2.8729	-2.2229	-2.7083	-2.95	-2.2438	-2.8875	-2.7396	-2.2458	-2.9333	-2.4208	-2.5812	-3.1146	-2.275	-2.5833	-2.8229	239.459	169.750	290.198	419.247	305.558	130.036	398.382	351.480	366.307	289.404	387.183	463.923	379.880	468.942	251.482	403.379	0.0010169	0.000672	0.00015705	1351.8	5.971e-06	7.9933e-06	1428.9	496.85	9.1389e-06	3.8381e-06	563.13	206.17	173.92	81.102	5.1513e-06	102.6	0.0001649	0.00012112	3.3813e-05	1238.3	1.2684e-06	1.3296e-06	1301	454.08	1.3017e-06	1.3428e-06	509.85	186.81	158.43	74.218	1.2566e-06	92.643	235.377	189.025	208.045	126.674	259.479	275.127	125.384	131.616	274.770	235.663	129.487	134.100	136.331	140.776	279.680	137.166	-8191	255	
3716.135	1	1	0	0	0.11088	0.29132	0.1932	0.2384	0.17816	0.029614	0.29377	0.11374	0.086874	0.27825	0.33324	0.16206	0.25372	0.098038	0.013321	0.24804	-1.6417	-2.7604	-2.3917	-2.3812	-2.7271	-2.3187	-2.7562	-2.8479	-1.9458	-2.8354	-2.6688	-2.4896	-3.0792	-2.45	-2.5271	-2.9521	117.528	164.990	269.535	452.682	372.324	171.159	399.663	460.235	304.118	234.383	437.865	426.825	468.391	469.873	413.919	365.773	0.00097772	0.00087881	0.00019382	1349.6	8.9064e-06	8.0566e-06	1419.1	493.91	7.6178e-06	7.092e-06	559.32	204.34	172.65	80.405	4.5124e-06	101.96	0.00016726	0.00011916	3.1169e-05	1235.5	1.3092e-06	1.2444e-06	1294.4	451.46	1.3426e-06	1.3005e-06	505.23	184.94	157.31	73.845	1.2091e-06	91.854	237.448	177.522	206.680	126.559	264.706	294.257	125.444	131.633	266.207	274.713	129.477	133.740	136.414	140.949	295.788	137.391	-8191	255	
3716.207	1	1	0	0	0.36065	0.12281	0.23457	0.30332	0.055614	0.12204	0.18351	0.2882	0.36745	0.086833	0.24284	0.13801	0.23916	0.40866	0.11246	0.043303	-1.6979	-2.8625	-2.6271	-2.3896	-2.8125	-2.3208	-2.7583	-3.0021	-2.2375	-2.7729	-2.8125	-2.5333	-3.1688	-2.4271	-2.3333	-2.9375	247.001	139.956	441.239	416.219	241.231	194.048	356.483	394.391	121.289	263.763	448.637	316.475	405.195	415.511	391.464	411.745	0.00090303	0.00085028	0.00023311	1360.3	8.3167e-06	7.663e-06	1424.9	491.81	5.3036e-06	9.3006e-06	559.06	204.17	172.85	81.198	6.5349e-06	102.66	0.00016623	0.00011086	2.8626e-05	1240.7	1.3145e-06	1.2336e-06	1297.1	451.47	1.3242e-06	1.1851e-06	506.47	185.87	157.95	74.177	1.1215e-06	92.749	234.780	174.936	218.673	126.809	271.484	271.008	125.304	131.800	268.279	258.690	129.816	133.794	136.447	141.038	287.575	136.885	-8191	255	
3716.303	1	1	0	0	0.22666	0.13331	0.046564	0.36927	0.22696	0.14377	0.13664	0.093574	0.022152	0.12224	0.24484	0.058689	0.4796	0.17895	0.20774	0.19017	-1.7604	-2.7062	-2.6667	-2.3292	-2.8354	-2.325	-2.5292	-3.1042	-2.1771	-2.4938	-2.8417	-2.2833	-2.9479	-2.7896	-2.4938	-3.1042	180.373	290.700	189.052	453.112	434.505	271.879	311.727	439.445	196.608	356.916	396.781	342.552	402.248	389.308	201.538	431.999	0.00093858	0.00052789	0.00022653	1365.2	9.9874e-06	4.27e-06	1422.4	494.44	4.8762e-06	5.8215e-06	564.64	207.07	172.58	81.038	5.3332e-06	102.55	0.00016625	0.00010764	2.8673e-05	1243.6	1.3138e-06	1.1566e-06	1302.3	452.66	1.2776e-06	1.1555e-06	509.64	187.49	158.49	74.299	1.1365e-06	93.064	234.014	189.797	211.947	126.831	271.256	255.043	125.670	131.696	287.579	254.900	129.492	134.089	136.536	140.791	270.245	137.452	-8191	255	
3716.423	1	1	0	0	0.04266	0.14155	0.28802	0.21336	0.24621	0.19772	0.29117	0.1763	0.18517	0.29466	0.11338	0.33732	0.10829	0.04959	0.11782	0.23545	-1.9188	-2.5354	-2.7604	-2.2292	-2.8271	-2.5312	-2.5125	-3.2208	-2.3563	-2.6813	-3.0979	-2.3604	-2.8479	-2.6917	-2.2812	-3.0875	253.018	215.063	276.388	466.604	325.881	223.008	384.307	452.058	212.773	283.046	426.155	408.467	227.049	383.340	136.421	420.807	0.00095479	0.00077116	0.00026035	1355	4.3194e-06	6.1267e-06	1425.6	495.09	9.8691e-06	5.0384e-06	562.92	206.1	173.48	81.005	5.3181e-06	102.03	0.00016385	0.00010418	2.8471e-05	1245.6	1.2434e-06	1.1507e-06	1303.2	453.77	1.2746e-06	1.0799e-06	510.71	186.92	158.26	74.097	1.1268e-06	92.541	234.299	175.289	209.460	126.809	270.860	281.634	125.891	131.947	270.230	286.248	129.606	134.230	136.464	140.755	269.080	137.297	-8191	255	
3716.519	1	1	0	0	0.15413	0.26628	0.3326	0.13398	0.28902	0.4163	0.27077	0.17543	0.19473	0.026191	0.16394	0.22371	0.17036	0.11859	0.17112	0.27392	-1.9146	-2.5292	-2.825	-2.35	-2.7667	-2.6333	-2.4354	-3.0583	-2.4292	-2.5062	-2.9938	-2.1937	-2.9104	-2.9125	-2.1979	-2.9562	175.806	265.526	179.603	113.899	345.975	126.766	410.405	452.373	365.850	122.049	419.959	399.302	413.739	434.007	121.200	384.242	0.0010177	0.00062974	0.00020286	1348.7	8.0556e-06	6.4447e-06	1416.8	494.6	5.1583e-06	2.7519e-06	558.44	203.86	171.47	80.069	5.2324e-06	100.88	0.00015889	9.8315e-05	2.8269e-05	1242.9	1.1972e-06	1.0605e-06	1298.4	452.86	1.1975e-06	1.0905e-06	506.32	184.96	157.06	73.335	1.2183e-06	91.568	237.037	169.795	193.027	126.813	292.008	275.019	125.582	131.717	260.676	261.204	129.748	133.858	136.478	140.738	283.052	137.251	-8191	255	
3716.616	1	1	0	0	0.16078	0.13426	0.25057	0.28841	0.32839	0.17695	0.13858	0.30441	0.13104	0.017921	0.34568	0.018803	0.17051	0.27532	0.29483	0.39859	-2.0104	-2.1833	-2.7104	-2.3312	-2.5708	-2.7667	-2.5812	-3.1104	-2.4646	-2.4062	-3.0625	-2.3812	-2.6188	-2.8875	-2.1542	-3	328.594	179.011	192.011	424.967	283.944	154.929	441.367	130.726	160.000	117.056	437.007	379.157	120.606	127.286	181.182	468.166	0.00090854	0.00037109	0.0002189	1353.1	6.6873e-06	3.8644e-06	1430.1	497.01	5.6701e-06	4.8464e-06	562.97	204.71	172.87	80.123	6.9866e-06	102.04	0.00015489	0.00010009	3.0477e-05	1242.3	1.1678e-06	1.1087e-06	1301.7	453.46	1.2145e-06	1.0892e-06	509.27	185.67	157.78	73.663	1.2784e-06	92.141	239.745	163.663	200.621	126.588	246.030	301.444	125.460	131.742	273.384	262.364	129.650	134.163	136.264	140.998	277.940	137.300	-8191	255	
3716.736	1	1	0	0	0.11928	0.19778	0.14991	0.33828	0.093593	0.1784	0.39242	0.2287	0.05137	0.20446	0.155	0.29936	0.04693	0.23398	0.26942	0.2472	-2.0521	-2.2458	-2.9958	-2.4104	-2.6271	-2.8917	-2.25	-2.9104	-2.4583	-2.3375	-2.8937	-2.4042	-2.7854	-2.8438	-2.1833	-2.9625	145.418	252.538	257.929	440.516	212.959	307.546	371.054	406.371	462.632	448.405	457.583	419.163	143.444	125.043	183.691	469.969	0.00093198	0.0005996	0.00015479	1354.5	5.4935e-06	3.6592e-06	1428.7	494.82	7.6115e-06	6.3651e-06	561.68	205.27	171.22	80.49	7.5537e-06	101.63	0.00016018	0.00010298	3.0416e-05	1244.8	1.1816e-06	1.1185e-06	1305.6	453.65	1.187e-06	1.1391e-06	510.51	186.54	157.46	73.89	1.3391e-06	92.549	238.169	161.620	214.707	126.940	283.057	273.284	125.576	131.857	277.195	256.635	129.657	134.106	136.454	141.319	264.735	137.589	-8191	255	
3716.832	1	1	0	0	0.1588	0.15583	0.082483	0.17571	0.16756	0.092644	0.4711	0.095664	0.11567	0.10614	0.07548	0.11338	0.22786	0.20539	0.0755	0.16928	-2.1562	-2.3208	-2.5854	-2.5125	-2.3	-2.875	-2.3063	-2.9625	-2.5958	-2.1271	-2.9979	-2.4458	-2.4917	-2.9313	-2.3542	-2.8875	254.597	295.348	339.304	445.302	165.236	246.896	452.653	391.414	210.899	309.576	425.004	134.114	302.899	426.070	364.486	311.251	0.00097405	0.0003899	0.00024934	1344.7	6.3922e-06	5.0635e-06	1424.5	493.7	6.7466e-06	5.0664e-06	556.81	204.22	170.54	79.98	8.272e-06	102.12	0.00015555	0.00010652	3.2777e-05	1240.9	1.1786e-06	1.1671e-06	1306.2	454.83	1.1468e-06	1.1842e-06	510.77	187.13	157.43	73.871	1.3168e-06	92.886	238.337	176.938	231.179	127.128	240.241	236.034	125.712	131.883	289.286	265.148	130.386	134.712	137.062	141.496	279.280	137.466	-8191	255	
3716.902	1	1	0	0	0.21415	0.11815	0.099365	0.40983	0.1609	0.18958	0.15629	0.30653	0.1483	0.34019	0.25403	0.21963	0.2218	0.054196	0.13305	0.2093	-2.2875	-2.2313	-2.8042	-2.6604	-2.3271	-2.7938	-2.3667	-2.8479	-2.7667	-2.3208	-2.9583	-2.5854	-2.5979	-2.9562	-2.2771	-2.5979	238.550	463.651	406.916	436.809	229.162	407.685	432.428	427.611	418.060	370.801	435.146	435.680	401.755	318.430	239.337	406.715	0.00094594	0.00073018	0.0002257	1332.1	9.1595e-06	6.5371e-06	1417.6	491.9	5.7886e-06	6.3193e-06	562.56	204.34	172.49	80.363	6.7729e-06	101.77	0.00015582	0.00010999	3.1826e-05	1234.9	1.1333e-06	1.1897e-06	1298.9	451.71	1.181e-06	1.2297e-06	509.36	185.66	157.13	73.593	1.2246e-06	92.054	236.436	192.033	181.173	127.270	265.854	253.703	125.807	131.555	265.339	225.690	129.752	134.041	136.556	141.211	288.924	137.551	-8191	255	
3717.023	1	1	0	0	0.089331	0.076304	0.32959	0.29878	0.17526	0.042821	0.26277	0.36898	0.12918	0.22321	0.21976	0.25999	0.17035	0.11112	0.18303	0.27951	-2.3583	-2.2771	-2.7938	-2.8292	-2.2604	-2.8208	-2.5563	-2.6063	-2.7292	-2.15	-2.8417	-2.7271	-2.3833	-3.2417	-2.2854	-2.5458	420.436	195.997	348.403	123.226	266.527	414.647	444.105	430.752	204.227	355.337	409.394	437.781	413.387	191.422	412.676	404.547	0.00097886	0.00059155	0.00017689	1349.5	8.7882e-06	5.1713e-06	1418.4	491.89	7.0183e-06	9.8439e-06	561.56	203.24	171.71	79.977	7.1186e-06	101.05	0.0001574	0.00011267	3.0486e-05	1237.6	1.1595e-06	1.2242e-06	1299.8	451.93	1.1741e-06	1.2566e-06	508.93	185.61	157.32	73.722	1.2539e-06	92.089	235.232	181.740	204.333	126.810	279.300	286.204	125.783	131.727	270.328	272.465	129.807	134.435	136.745	141.387	257.960	137.662	-8191	255	
3717.119	1	1	0	0	0.096303	0.2549	0.24373	0.38543	0.26626	0.071993	0.34386	0.15706	0.27157	0.13501	0.296	0.11732	0.20202	0.1889	0.20303	0.14945	-2.4458	-2.1	-2.7729	-2.7604	-2.0854	-2.8083	-2.75	-2.4854	-2.675	-2.1458	-2.6667	-2.75	-2.2687	-3.0312	-2.5708	-2.5458	408.765	117.671	135.213	411.646	150.340	326.397	429.256	434.149	373.223	287.438	417.489	184.967	406.647	438.134	272.534	439.346	0.00091033	0.00069656	0.00026628	1337.8	9.0709e-06	9.7616e-06	1414.5	488.28	5.6258e-06	7.4112e-06	555.86	201.58	169.24	79.573	8.2692e-06	100.89	0.00015727	0.00011732	2.9886e-05	1237.2	1.2207e-06	1.2704e-06	1302.2	451.71	1.2542e-06	1.2225e-06	509.74	185.84	156.86	73.64	1.2224e-06	92.559	233.903	180.372	217.555	127.388	266.972	274.860	125.926	132.102	278.172	263.790	130.194	134.763	136.929	141.563	291.805	137.694	-8191	255	
3717.215	1	1	0	0	0.42202	0.20758	0.23912	0.23625	0.071704	0.19121	0.37945	0.38992	0.085096	0.084333	0.2155	0.26707	0.17613	0.11328	0.089447	0.21547	-2.55	-2.2146	-2.7042	-2.8792	-2.1458	-2.7625	-2.5187	-2.4958	-3.0896	-2.3583	-2.7229	-2.9292	-2.4104	-3.0229	-2.6333	-2.4875	258.130	269.394	290.656	426.977	142.330	377.845	407.529	432.696	373.371	228.379	460.572	435.770	363.025	195.693	396.665	397.714	0.00094026	0.00044953	0.00024834	1332.4	1.0207e-05	8.1571e-06	1424.9	496.27	1.057e-05	7.3802e-06	567.01	208.23	173.7	81.046	5.9316e-06	103	0.00016494	0.00011689	2.9384e-05	1235.4	1.2939e-06	1.2459e-06	1303.1	454.62	1.313e-06	1.2459e-06	513.01	188.02	158.44	74.219	1.2251e-06	93.154	236.927	162.483	201.900	127.380	272.747	263.796	125.716	131.592	277.445	240.382	129.630	133.855	136.470	140.847	286.511	137.376	-8191	255	
3717.311	1	1	0	0	0.23926	0.1337	0.18063	0.31152	0.062379	0.23165	0.17986	0.261	0.063499	0.079968	0.26833	0.38126	0.26295	0.1263	0.16853	0.33156	-2.3583	-2.1562	-2.5083	-2.9292	-2.0854	-2.6875	-2.8396	-2.2604	-2.7687	-2.3438	-2.5167	-2.8979	-2.4146	-2.8396	-2.7208	-2.4146	436.824	182.746	468.389	161.400	269.384	136.850	403.890	427.850	471.834	434.724	436.627	434.381	454.206	471.885	216.289	439.641	0.00096628	0.00090198	0.0002459	1360.6	1.1003e-05	6.0379e-06	1436	496.58	7.3389e-06	6.7842e-06	567.01	205.91	172.16	80.213	7.408e-06	102.5	0.00016796	0.00011561	2.9498e-05	1242.2	1.3156e-06	1.2e-06	1308.1	453.24	1.3426e-06	1.1828e-06	510.24	186.2	157.33	73.479	1.1821e-06	92.065	237.957	189.121	194.333	126.733	253.182	264.204	125.737	131.726	277.253	259.332	129.297	134.276	136.305	140.799	265.476	136.965	-8191	255	
3717.408	1	1	0	0	0.15384	0.37092	0.046465	0.2671	0.26743	0.097631	0.36594	0.39579	0.12506	0.14467	0.12226	0.32512	0.41698	0.12999	0.1738	0.39657	-2.4271	-2.2062	-2.3812	-2.9521	-2.075	-2.6542	-2.8146	-2.2646	-2.8479	-2.4583	-2.5083	-3.0646	-2.2792	-2.5667	-2.6854	-2.4167	394.854	389.171	214.880	418.667	192.958	132.278	442.145	375.304	411.228	240.158	364.108	390.509	129.159	471.044	230.423	437.369	0.00096268	0.00036399	0.00015666	1357.5	7.5262e-06	6.0266e-06	1423.7	494.49	6.2796e-06	7.3866e-06	565.17	205.28	172.91	80.368	7.1764e-06	102.55	0.00016765	0.00010686	2.873e-05	1238.8	1.303e-06	1.1594e-06	1301.2	452.32	1.3346e-06	1.1878e-06	510.23	186.01	157.35	73.677	1.1718e-06	92.381	238.187	187.139	200.778	127.045	294.814	265.427	125.657	131.451	255.343	274.009	129.180	134.086	136.354	140.802	278.491	137.100	-8191	255	
3717.504	1	1	0	0	0.36307	0.18991	0.24611	0.26192	0.41174	0.23833	0.26281	0.077516	0.15798	0.27368	0.24711	0.19808	0.20615	0.16386	0.20532	0.26873	-2.2521	-2.2021	-2.2583	-2.8833	-2.0687	-2.5167	-2.9354	-2.3937	-2.6771	-2.5187	-2.3167	-3.1	-2.4437	-2.8479	-2.7333	-2.4458	163.114	174.817	393.133	406.497	174.369	431.738	121.903	429.878	153.606	358.528	460.199	186.613	119.909	409.742	335.082	430.683	0.00094837	0.00063711	0.00023202	1355.2	8.0828e-06	4.3756e-06	1431.3	495.85	6.3664e-06	3.5193e-06	567.81	207.42	173.79	80.726	5.322e-06	102.85	0.00016122	0.00010588	2.8821e-05	1240.7	1.2981e-06	1.1241e-06	1302.7	452.48	1.2818e-06	1.119e-06	511.97	187.21	157.86	73.665	1.209e-06	92.902	237.757	170.039	214.429	126.740	282.271	255.669	125.429	131.594	276.403	244.568	129.390	133.938	136.199	140.667	265.989	137.160	-8191	255	
3717.600	1	1	0	0	0.16799	0.10236	0.1622	0.24267	0.1234	0.029697	0.38091	0.25369	0.12925	0.1129	0.29999	0.21144	0.18462	0.19208	0.32755	0.19504	-2.4021	-2.4896	-2.0521	-3.2917	-2.4	-2.5375	-3.0021	-2.4042	-2.8125	-2.5604	-2.3604	-3.0687	-2.5646	-2.4896	-2.8667	-2.2583	211.051	469.049	130.356	156.085	408.904	344.040	402.273	419.128	454.605	369.490	461.204	429.103	443.121	467.708	147.568	303.542	0.0010119	0.0004691	0.00019226	1359.4	7.8088e-06	3.548e-06	1436.5	497.61	6.4365e-06	3.7974e-06	571.14	207.3	172.56	80.921	8.74e-06	103.22	0.00016344	0.00010085	2.9783e-05	1241.7	1.2149e-06	1.1205e-06	1305.3	453.94	1.2556e-06	1.1108e-06	513.86	187.91	157.75	74.087	1.2318e-06	93.569	233.075	207.967	201.909	126.690	261.821	268.472	125.523	131.663	282.967	263.945	129.238	134.109	136.562	140.829	274.573	136.995	-8191	255	
3717.696	1	1	0	0	0.17231	0.1638	0.18894	0.1662	0.16829	0.064997	0.20231	0.32233	0.23889	0.10148	0.090484	0.029107	0.10687	0.40219	0.040144	0.42609	-2.2208	-2.5812	-2.1813	-3.0458	-2.4125	-2.3563	-3.0458	-2.4521	-2.5333	-2.7042	-2.3917	-3.0458	-2.6562	-2.4	-2.7646	-2.425	236.775	450.431	386.134	453.374	208.741	326.767	384.261	434.076	346.391	225.498	471.733	237.168	367.806	422.764	412.107	439.465	0.00090917	0.00062426	0.0001812	1356.2	8.1534e-06	5.7819e-06	1431.5	491.92	8.0531e-06	4.7292e-06	564.52	206.26	172.83	80.428	8.215e-06	103.11	0.00015736	0.00010332	2.9742e-05	1238.6	1.1917e-06	1.0891e-06	1303.1	451.63	1.2235e-06	1.0853e-06	509.71	186.57	157.34	73.519	1.2553e-06	92.664	236.203	185.844	193.733	126.948	272.036	227.625	125.659	131.585	274.398	243.849	129.543	134.021	136.562	140.865	276.665	137.288	-8191	255	
3717.817	1	1	0	0	0.30194	0.13169	0.12077	0.1783	0.099585	0.15154	0.33646	0.30745	0.13917	0.059839	0.082001	0.35236	0.13087	0.25896	0.058421	0.27311	-1.9542	-2.6833	-2.0771	-2.8208	-2.45	-2.35	-2.9792	-2.5458	-2.4104	-2.7042	-2.3438	-3.0208	-2.9792	-2.3125	-3.0146	-2.5875	137.902	350.079	404.874	428.009	451.468	202.317	473.089	388.333	403.805	242.017	415.247	382.340	390.105	443.424	331.313	422.283	0.00093219	0.00031222	0.00020333	1354.2	4.2416e-06	4.2573e-06	1417.4	491.36	5.6547e-06	3.638e-06	564.36	205.53	172.38	80.38	7.357e-06	102.8	0.00015216	0.00010129	3.1829e-05	1233.8	1.1372e-06	1.0943e-06	1295	450.87	1.194e-06	1.081e-06	511.12	186.01	157.06	73.606	1.3083e-06	92.76	237.672	178.352	210.156	126.808	259.790	277.032	125.296	131.537	266.750	260.580	129.452	134.156	136.205	140.846	266.527	137.274	-8191	255	
3717.911	1	1	0	0	0.082545	0.088328	0.12966	0.47155	0.30448	0.067402	0.27725	0.17698	0.169	0.28322	0.11662	0.14575	0.44011	0.31391	0.086378	0.33318	-1.9521	-2.7938	-2.2021	-2.8271	-2.75	-2.3521	-3.0354	-2.7083	-2.2917	-2.7292	-2.4042	-2.7979	-3.0292	-2.275	-2.7917	-2.5417	229.719	293.974	335.582	464.781	300.088	189.522	117.903	459.671	213.507	195.820	154.774	468.031	421.251	454.422	119.854	452.100	0.00094953	0.00065519	9.0852e-05	1346.2	8.0751e-06	6.5714e-06	1421.6	493.28	4.7273e-06	4.9825e-06	565.45	204.88	172.13	80.444	1.0136e-05	103.26	0.00015071	0.00010665	3.2448e-05	1231.8	1.1798e-06	1.1738e-06	1297	451.73	1.1443e-06	1.2025e-06	511.14	186.41	157.28	73.74	1.3288e-06	93.161	237.594	180.394	175.351	126.569	258.080	263.744	125.881	131.892	295.029	228.936	129.881	134.036	136.484	140.891	277.709	137.365	-8191	255	
3718.007	1	1	0	0	0.10294	0.14897	0.013438	0.13201	0.034669	0.14369	0.19567	0.19219	0.20354	0.054897	0.44889	0.050256	0.18864	0.3699	0.10224	0.16855	-1.8937	-2.7625	-2.1021	-2.65	-2.6813	-2.3792	-2.9917	-2.7562	-2.2438	-2.8042	-2.4542	-2.6771	-2.9542	-2.2896	-2.8854	-2.7313	378.870	192.876	151.076	116.297	244.383	282.157	441.229	406.770	451.827	399.205	380.542	358.927	403.382	442.296	329.917	442.803	0.00093202	0.0008485	0.00025338	1337	7.0978e-06	5.6981e-06	1429.3	493.65	6.0722e-06	6.6858e-06	564.46	207.01	171.55	80.226	8.9632e-06	102.83	0.0001579	0.00011369	3.2425e-05	1229.1	1.1604e-06	1.2311e-06	1301.4	452.06	1.1992e-06	1.2861e-06	512.54	187.73	157.16	73.784	1.2526e-06	93.455	236.433	176.668	220.093	126.519	259.542	264.727	125.422	131.784	256.559	262.219	129.448	134.130	136.726	141.105	279.026	137.504	-8191	255	
3718.103	1	1	0	0	0.13942	0.083366	0.13052	0.16192	0.088933	0.37983	0.044196	0.24885	0.055792	0.25015	0.27151	0.22657	0.37286	0.060598	0.10364	0.043424	-1.8354	-2.7896	-2.1562	-2.8104	-2.7396	-2.1292	-2.9938	-2.8	-2.2104	-2.8771	-2.4104	-2.6271	-2.7667	-2.2917	-2.775	-2.7438	121.527	365.926	242.237	144.796	303.920	169.541	159.145	427.585	191.701	141.007	427.693	430.320	459.291	229.048	265.545	420.516	0.00097214	0.000658	0.00012586	1336.8	1.1404e-05	1.1693e-05	1407.8	487.73	7.0455e-06	4.5565e-06	561.4	205.31	171.29	80.273	5.3945e-06	101.53	0.00015453	0.00011249	3.1276e-05	1226.8	1.1814e-06	1.2728e-06	1293	448.55	1.1875e-06	1.2735e-06	508.9	186.43	156.64	73.493	1.2242e-06	92.412	235.854	176.543	195.411	126.537	281.139	265.789	125.834	131.827	274.959	260.663	129.842	134.081	137.046	140.930	273.385	137.647	-8191	255	
3718.200	1	1	0	0	0.3581	0.10719	0.27669	0.33511	0.048951	0.11086	0.43418	0.23231	0.22173	0.059411	0.43824	0.16444	0.40877	0.20462	0.18909	0.29497	-2.0083	-2.8125	-2.3792	-2.5208	-2.7271	-2.2375	-2.8688	-2.9667	-2.0792	-3	-2.5729	-2.5	-2.7562	-2.4188	-2.4667	-2.8771	135.045	327.571	115.109	459.866	454.929	431.468	430.823	421.680	373.699	195.756	460.421	159.313	417.165	395.010	225.325	429.932	0.00097522	0.00041071	0.00025663	1326.4	8.7179e-06	7.5545e-06	1412.2	486.15	7.0461e-06	5.2198e-06	559.42	204.1	170.36	79.594	5.2527e-06	101.98	0.00016237	0.00011771	3.019e-05	1221.5	1.2404e-06	1.3089e-06	1290.2	446.6	1.2878e-06	1.2815e-06	506.72	186.11	156.27	73.194	1.2459e-06	92.655	236.743	176.611	193.007	126.729	271.357	281.131	125.411	131.642	270.910	242.474	129.465	133.864	136.951	141.160	287.310	137.455	-8191	255	
3718.296	1	1	0	0	0.24242	0.0031478	0.24791	0.39255	0.099317	0.13687	0.23857	0.37812	0.14929	0.18699	0.13406	0.3304	0.19281	0.27511	0.12517	0.031453	-1.8937	-2.7354	-2.4854	-2.5771	-2.7667	-2.2	-2.5375	-2.8438	-2.1854	-2.7896	-2.6708	-2.4042	-2.8479	-2.3792	-2.6562	-2.875	220.555	268.734	372.075	405.009	205.025	176.366	445.264	427.560	296.188	276.138	162.148	122.843	122.214	413.894	212.606	274.432	0.00099877	0.00045904	0.00018219	1324	1.0243e-05	1.9774e-06	1407.8	486.58	6.5825e-06	4.7573e-06	556.82	203.64	169.85	80.129	4.7049e-06	101.84	0.00016381	0.00011461	3.0069e-05	1223	1.2981e-06	1.248e-06	1291.1	447.96	1.3403e-06	1.2322e-06	508.5	186.19	156.4	73.494	1.2092e-06	93.18	237.205	164.684	189.124	126.804	264.640	268.775	125.633	131.918	290.067	205.750	130.062	134.329	136.795	141.189	262.886	137.712	-8191	255	
3718.416	1	1	0	0	0.18793	0.0080912	0.18627	0.35122	0.092947	0.19289	0.16759	0.4125	0.098213	0.11242	0.21696	0.29534	0.24372	0.2471	0.27829	0.14193	-1.7875	-2.7	-2.5021	-2.2854	-2.8396	-2.3729	-2.7062	-2.9437	-2.2062	-2.6521	-2.825	-2.4583	-2.9375	-2.5375	-2.4437	-3.0583	179.764	382.130	149.597	155.255	374.164	266.315	391.131	427.417	222.126	175.410	434.437	434.264	447.223	190.708	195.000	420.995	0.0010027	0.00054783	0.00022398	1321.6	7.9957e-06	4.7024e-06	1401.7	485.19	4.159e-06	5.1356e-06	558.18	205.71	170.45	80.352	7.7261e-06	102.67	0.00017189	0.00011235	3.0304e-05	1219.1	1.3513e-06	1.2178e-06	1289.8	448.24	1.3916e-06	1.1859e-06	510.51	187.79	156.64	73.958	1.2047e-06	93.941	236.464	171.543	193.159	127.175	269.389	296.394	125.732	131.954	284.384	268.068	130.148	134.365	136.739	141.473	276.374	137.754	-8191	255	
3718.512	1	1	0	0	0.14187	0.37794	0.13278	0.39226	0.20114	0.12405	0.23665	0.36577	0.13009	0.29153	0.2239	0.29143	0.38887	0.24679	0.28609	0.058749	-1.9	-2.7396	-2.5792	-2.1437	-2.8479	-2.5292	-2.5854	-3.025	-2.2313	-2.5917	-2.8563	-2.2208	-2.8583	-2.5833	-2.1021	-3.025	307.760	326.855	265.643	442.441	216.174	222.963	433.873	460.338	238.306	177.516	414.401	397.404	433.187	351.338	280.751	360.112	0.00096957	0.00068355	0.00010734	1335.1	7.7422e-06	7.5129e-06	1405	485.62	4.0847e-06	3.7728e-06	561.51	206.5	170.93	79.975	5.6244e-06	102.48	0.00017408	0.00011307	2.9138e-05	1226.4	1.2989e-06	1.2046e-06	1293.1	447.96	1.3553e-06	1.1546e-06	509.7	187.36	156.62	73.361	1.1988e-06	93.114	235.205	181.039	176.172	127.066	285.736	289.134	125.827	132.166	276.334	264.123	129.701	134.138	136.647	141.074	279.453	137.684	-8191	255	
3718.609	1	1	0	0	0.098529	0.23064	0.22605	0.067133	0.082868	0.23617	0.37321	0.17633	0.11861	0.13118	0.086621	0.094929	0.087975	0.10403	0.13108	0.24021	-1.9875	-2.4583	-2.7917	-2.2854	-2.85	-2.5062	-2.3812	-2.9979	-2.225	-2.55	-2.8604	-2.2271	-2.9083	-2.6958	-2.2354	-2.8042	292.740	334.292	235.102	460.081	235.887	165.523	374.803	368.677	157.964	301.960	301.776	455.136	441.521	393.960	219.059	342.555	0.00090972	0.00061716	0.0001463	1334.8	7.6612e-06	7.1269e-06	1407.3	485.55	6.7437e-06	5.9471e-06	554.2	204.39	169.94	79.107	8.0004e-06	101.51	0.00016629	0.00010618	2.96e-05	1223.9	1.2912e-06	1.1836e-06	1291	447.36	1.3109e-06	1.1715e-06	507.35	186.42	156.1	73.143	1.2314e-06	92.737	234.379	211.504	196.655	126.873	291.818	270.654	125.597	131.862	280.042	243.732	129.867	134.467	136.691	141.298	269.512	137.781	-8191	255	
3718.705	1	1	0	0	0.16336	0.28253	0.2506	0.3472	0.056274	0.16357	0.27779	0.29224	0.21425	0.2334	0.35105	0.19741	0.16981	0.28172	0.099814	0.20708	-1.9083	-2.4479	-2.8187	-2.4042	-2.6479	-2.6146	-2.3521	-3.1896	-2.2521	-2.4854	-2.9938	-2.3458	-2.9104	-2.8854	-2.1958	-2.8312	260.017	436.407	324.979	473.607	197.993	453.381	391.101	439.655	277.184	158.131	437.262	397.369	457.924	435.056	150.305	402.545	0.00097941	0.0006948	0.00018477	1309.4	8.5126e-06	4.9612e-06	1399.7	485.36	7.3773e-06	4.04e-06	557.48	204.92	168.6	78.979	6.7615e-06	102.41	0.00016585	0.0001047	3.0754e-05	1214.6	1.2413e-06	1.1389e-06	1290.6	447.64	1.2938e-06	1.1262e-06	509.14	187.3	156.08	73.326	1.2736e-06	93.566	238.091	187.153	202.498	127.143	306.260	312.882	125.803	132.184	262.005	244.000	129.824	134.434	136.931	141.557	252.821	137.667	-8191	255	
3718.801	1	1	0	0	0.12306	0.050903	0.18713	0.38489	0.43644	0.052345	0.42087	0.31997	0.090299	0.23925	0.099111	0.17989	0.35312	0.2243	0.23156	0.16231	-2.0667	-2.3042	-2.9521	-2.3625	-2.5583	-2.8333	-2.4083	-3.0146	-2.5625	-2.4792	-3.0021	-2.3958	-2.8083	-2.9146	-2.05	-2.8458	405.221	279.560	175.194	432.222	119.438	298.679	394.868	405.051	356.421	173.353	190.824	371.697	427.130	462.724	278.204	308.356	0.00098975	0.00078612	0.00011182	1320.3	8.6784e-06	4.7139e-06	1407.5	484.44	5.5909e-06	3.4749e-06	556.02	205.32	169.23	79.954	8.2326e-06	104.02	0.00016531	0.00010617	3.2035e-05	1223.3	1.2077e-06	1.1444e-06	1296.3	448.66	1.2479e-06	1.124e-06	511.58	188.03	156.49	73.742	1.3163e-06	94.413	236.699	161.164	250.631	127.039	283.871	215.294	125.781	132.299	278.259	249.049	130.363	134.535	137.017	141.394	264.639	137.844	-8191	255	
3718.895	1	1	0	0	0.21678	0.27831	0.20036	0.21702	0.12454	0.12853	0.2593	0.24346	0.12037	0.14842	0.054496	0.14433	0.34621	0.33393	0.08842	0.31473	-2.2333	-2.2062	-2.6354	-2.4625	-2.5458	-2.8667	-2.4125	-3.0187	-2.5458	-2.275	-2.9271	-2.6	-2.4854	-2.7917	-2.1646	-3.0021	465.818	256.334	448.303	387.120	444.346	242.205	440.949	404.009	314.677	468.418	469.699	410.549	424.154	407.266	281.456	369.075	0.00097312	0.00082446	0.00033129	1329.1	6.3759e-06	3.6413e-06	1417.1	488.74	7.5192e-06	6.1967e-06	557.05	206.21	170.73	79.822	7.5028e-06	102.87	0.00016271	0.00010734	3.3533e-05	1226.5	1.1717e-06	1.155e-06	1299.6	450.52	1.263e-06	1.1863e-06	510.85	187.91	156.73	73.504	1.3478e-06	93.378	233.682	177.518	210.327	127.171	264.575	230.499	125.894	131.751	280.104	241.040	130.029	134.528	136.619	141.409	248.779	137.306	-8191	255	
3718.991	1	1	0	0	0.11058	0.20851	0.18067	0.46559	0.099053	0.076306	0.53262	0.067294	0.1454	0.050449	0.39486	0.15766	0.24692	0.31535	0.1871	0.12112	-1.9917	-2.2708	-2.8167	-2.5771	-2.3937	-2.9417	-2.4208	-2.9167	-2.6083	-2.225	-3.0521	-2.6333	-2.4729	-3.0625	-2.3187	-2.7562	423.222	192.372	334.529	452.104	275.078	161.238	431.347	467.923	269.117	262.847	404.300	465.179	366.346	409.042	327.698	413.098	0.00097665	0.00072576	0.00016516	1326.4	7.7522e-06	7.1084e-06	1409	485.8	6.1494e-06	4.8761e-06	558.09	205.24	169.83	79.575	8.3166e-06	102.52	0.00015911	0.00010867	3.3833e-05	1219.7	1.1952e-06	1.1655e-06	1292	447.16	1.2079e-06	1.218e-06	509.48	186.73	155.86	73.127	1.3447e-06	93.079	238.740	146.084	170.281	127.107	277.454	274.928	125.650	131.875	300.971	264.577	129.915	134.125	136.342	141.426	271.244	137.582	-8191	255	
3719.088	1	1	0	0	0.35644	0.16839	0.24402	0.37552	0.14687	0.026282	0.23677	0.37689	0.10244	0.2454	0.30368	0.27495	0.17921	0.27501	0.15582	0.23408	-2.2979	-2.125	-2.7479	-2.6688	-2.2729	-3.1229	-2.4688	-2.7104	-2.7438	-2.1542	-2.9938	-2.4083	-2.3604	-2.9521	-2.1979	-2.5375	424.402	443.636	389.936	382.541	424.546	337.985	399.262	409.094	164.922	449.589	427.524	422.448	344.431	450.110	379.614	473.105	0.00097897	0.00060447	0.00019412	1322.8	5.3842e-06	5.0632e-06	1410.7	483.68	6.785e-06	6.621e-06	561.43	204.71	169.03	79.446	7.1752e-06	102.33	0.00015801	0.00011565	3.2388e-05	1221	1.1525e-06	1.2471e-06	1293.4	447	1.1999e-06	1.2785e-06	510.3	187.12	156.02	73.366	1.321e-06	93.397	234.325	178.929	190.840	126.997	271.071	277.746	125.842	131.831	258.677	256.646	130.117	134.268	136.691	141.387	283.476	137.881	-8191	255	
3719.208	1	1	0	0	0.078587	0.11653	0.084427	0.21461	0.09189	0.15641	0.19499	0.15044	0.062391	0.12877	0.052546	0.26255	0.20224	0.13236	0.086039	0.26469	-2.5896	-2.0292	-2.7521	-2.6625	-2.2792	-2.8667	-2.4292	-2.5417	-2.8646	-2.4042	-2.9167	-2.7	-2.4396	-3.0812	-2.4125	-2.5958	289.329	418.163	201.342	402.997	309.710	269.934	440.725	393.015	307.416	204.075	350.328	130.548	422.538	405.722	317.524	392.650	0.00098391	0.00073649	0.00015385	1325.8	8.2503e-06	7.0017e-06	1419.6	491.59	7.3592e-06	4.0634e-06	568.38	208.52	171.14	80.924	7.4903e-06	105.01	0.00015954	0.00012025	3.0897e-05	1221.6	1.1942e-06	1.296e-06	1298.7	449.65	1.2358e-06	1.3253e-06	514.09	188.85	156.9	73.822	1.2312e-06	94.542	236.031	187.772	214.393	127.085	292.781	254.379	125.410	131.807	289.403	271.724	129.649	134.241	136.427	141.129	271.191	137.095	-8191	255	
3719.304	1	1	0	0	0.13886	0.2731	0.041418	0.045735	0.17066	0.20854	0.39885	0.17664	0.14469	0.12287	0.11034	0.1425	0.26528	0.19417	0.29328	0.19445	-2.3771	-2.15	-2.7875	-2.9062	-2.0438	-2.8187	-2.7562	-2.5	-2.9083	-2.3479	-2.7792	-2.9208	-2.3958	-3.0667	-2.6271	-2.6104	169.504	432.649	451.129	416.353	183.541	291.216	414.271	426.246	120.529	416.796	451.892	380.299	432.936	159.327	414.979	149.018	0.00094926	0.00048795	0.00018134	1338.7	9.3782e-06	5.7129e-06	1433.9	492.92	6.4279e-06	9.4117e-06	569.2	208.5	172.61	80.713	8.2149e-06	104.08	0.00016328	0.0001211	3.0908e-05	1226.2	1.2485e-06	1.251e-06	1303	449.51	1.3297e-06	1.2752e-06	513.56	189.03	157.13	73.765	1.232e-06	93.996	236.753	199.264	195.759	126.909	298.227	246.814	125.493	131.716	287.811	249.734	129.598	134.208	136.390	140.803	300.730	137.180	-8191	255	
3719.376	1	1	0	0	0.15216	0.14331	0.13154	0.14624	0.30486	0.040741	0.20887	0.18759	0.19634	0.053511	0.19026	0.15723	0.137	0.29155	0.064549	0.24616	-2.2146	-2.3375	-2.4771	-3.0396	-2.2104	-2.8833	-2.6521	-2.5438	-3.0458	-2.3958	-2.7604	-2.9292	-2.3458	-2.9021	-2.5104	-2.5417	318.801	205.862	432.117	462.294	367.000	123.063	436.645	377.595	116.746	429.350	470.483	164.185	116.214	438.846	407.081	433.865	0.0009534	0.00082869	0.00022831	1341.2	7.1915e-06	4.7433e-06	1418.2	488.93	7.8966e-06	6.8618e-06	563.83	208.46	171.51	80.124	8.1511e-06	103.81	0.00016441	0.000116	2.8853e-05	1225.5	1.2555e-06	1.1877e-06	1293.8	446.67	1.2926e-06	1.1759e-06	509.68	187.7	156.51	73.264	1.1609e-06	93.561	238.165	185.420	197.686	126.655	286.530	285.792	125.473	131.535	278.978	235.262	129.382	133.999	136.304	140.838	277.741	136.874	-8191	255	
3719.497	1	1	0	0	0.12553	0.10364	0.06787	0.28687	0.078093	0.2697	0.19456	0.47626	0.21053	0.34122	0.16614	0.13624	0.072747	0.18489	0.011818	0.25993	-2.4542	-2.2917	-2.6417	-3.0167	-2.2396	-2.8396	-2.8583	-2.3271	-2.9104	-2.3771	-2.6125	-2.8563	-2.3792	-2.9062	-2.7188	-2.3937	270.449	290.320	407.792	141.766	443.054	172.618	224.469	441.443	439.189	199.567	134.108	463.115	396.422	401.947	344.221	431.705	0.00095805	0.00071004	0.00019046	1345.6	5.3247e-06	8.43e-06	1427.6	489.02	6.0866e-06	5.2545e-06	567.23	208.34	172.39	80.546	7.5575e-06	104.01	0.00016601	0.00010793	2.7072e-05	1229.5	1.2689e-06	1.1206e-06	1298.9	447.22	1.2989e-06	1.1038e-06	510.54	188.73	157.27	73.55	1.131e-06	93.974	234.930	185.464	200.068	126.648	262.369	266.463	125.558	131.666	259.484	247.716	129.251	134.178	136.091	140.607	280.110	137.311	-8191	255	
3719.593	1	1	0	0	0.10376	0.099884	0.31559	0.21199	0.041612	0.19622	0.096881	0.37427	0.030205	0.061288	0.26868	0.27027	0.3571	0.24756	0.084582	0.50064	-2.3458	-2.4437	-2.2625	-3.0354	-2.1646	-2.4479	-2.8729	-2.4375	-2.8542	-2.6271	-2.4021	-2.9667	-2.5417	-2.8	-2.5125	-2.2646	423.573	154.468	132.867	121.311	364.934	168.235	308.050	441.153	413.605	418.493	395.482	391.912	428.167	427.542	221.797	405.742	0.00094434	0.00061139	0.00016452	1345.7	8.7483e-06	7.448e-06	1426.2	487.76	7.2685e-06	9.0557e-06	563.68	208.76	172.34	80.792	7.775e-06	105.29	0.00016264	0.00010488	2.7198e-05	1230.4	1.2641e-06	1.1095e-06	1299.8	446.85	1.2328e-06	1.1189e-06	511.65	189.35	157.43	73.851	1.1154e-06	94.829	237.703	194.114	215.658	126.677	293.054	232.957	125.774	131.559	297.936	260.715	129.289	134.146	136.233	140.855	281.760	137.012	-8191	255	
3719.689	1	1	0	0	0.2108	0.15523	0.13344	0.40125	0.1841	0.2763	0.27196	0.42427	0.19763	0.30976	0.19437	0.090003	0.49849	0.15076	0.24191	0.26375	-2.4188	-2.3292	-2.3937	-3.1375	-2.2625	-2.5396	-2.8896	-2.3271	-2.6312	-2.7	-2.4771	-3.1396	-2.3979	-2.7687	-2.8875	-2.4625	155.413	162.738	285.655	468.683	163.148	348.929	117.503	382.259	213.064	212.273	407.493	391.119	407.662	413.066	370.918	446.907	0.00091229	0.00067364	0.00019286	1351.4	7.0858e-06	4.9021e-06	1438.9	490.58	7.2232e-06	2.9608e-06	568.2	209.42	172.41	80.632	6.6035e-06	104.43	0.00016273	0.00010271	2.7383e-05	1234	1.176e-06	1.0722e-06	1307.1	449.01	1.2336e-06	1.0959e-06	513.1	189.41	156.83	73.716	1.132e-06	94.336	239.044	188.108	217.874	126.556	297.057	281.666	125.604	131.493	264.454	262.742	129.289	133.942	136.251	140.632	289.554	137.243	-8191	255	
3719.785	1	1	0	0	0.3071	0.23599	0.074265	0.37122	0.13187	0.050839	0.15778	0.40717	0.17319	0.33346	0.34358	0.27654	0.083383	0.46165	0.13042	0.4174	-2.2062	-2.5854	-2.2771	-2.9729	-2.4708	-2.2792	-2.9542	-2.3042	-2.55	-2.5375	-2.2875	-3.0146	-2.6167	-2.5375	-2.8604	-2.4583	471.993	355.231	205.381	441.573	247.021	413.634	391.358	463.401	331.565	152.554	146.072	433.244	390.204	431.650	441.417	376.689	0.0010014	0.00084433	0.00028348	1347.7	6.6427e-06	9.8351e-06	1427.7	488.29	5.5376e-06	6.2256e-06	562.83	205.9	171.42	80.035	6.6364e-06	103.64	0.00015446	9.8793e-05	2.925e-05	1232.7	1.1401e-06	1.0427e-06	1299.7	445.92	1.1294e-06	1.0284e-06	508.57	187.38	156.35	73.069	1.1681e-06	93.503	235.858	196.878	203.353	126.785	256.328	262.120	125.524	131.469	278.947	271.077	129.417	133.883	136.478	140.669	264.929	136.986	-8191	255	
3719.904	1	1	0	0	0.35909	0.29032	0.099487	0.11402	0.34287	0.2481	0.13665	0.096507	0.20164	0.13604	0.31857	0.34812	0.13969	0.22109	0.24492	0.17596	-2.2979	-2.8	-1.9104	-2.7958	-2.4646	-2.2208	-2.8604	-2.3708	-2.4854	-2.6917	-2.2792	-2.8688	-2.7417	-2.45	-2.9479	-2.5292	304.857	311.135	367.229	393.372	450.859	337.660	456.555	114.685	193.454	439.321	432.251	355.753	354.462	433.846	392.903	306.318	0.0010076	0.0006788	0.00015069	1345	1.0416e-05	8.1538e-06	1426	488.96	7.2853e-06	6.3234e-06	564.74	208.16	170.66	79.992	7.6927e-06	103.73	0.00015497	9.2631e-05	2.9564e-05	1231.3	1.1116e-06	1.0077e-06	1298.1	445.97	1.1495e-06	1.031e-06	511.06	188.25	156.16	73.274	1.2358e-06	93.887	236.616	199.988	186.932	126.478	277.044	283.850	125.572	131.645	282.644	251.676	129.751	134.171	136.392	140.630	262.105	137.495	-8191	255	
3720.000	1	1	0	0	0.21369	0.14158	0.22138	0.21332	0.12632	0.14202	0.25862	0.33195	0.23657	0.068246	0.10441	0.15697	0.17309	0.24756	0.18595	0.12473	-2.0583	-2.6625	-2.1396	-3.0604	-2.4854	-2.3292	-3.1167	-2.4854	-2.4688	-3.0042	-2.3542	-2.7562	-2.7792	-2.2458	-2.8229	-2.5833	351.953	244.612	227.602	456.223	191.607	325.229	470.843	441.570	202.347	305.230	388.020	124.925	395.423	453.263	329.749	439.347	0.00094081	0.00055028	0.0001638	1340.4	7.2354e-06	7.2207e-06	1423.2	488.69	7.1533e-06	5.7222e-06	565.49	207.33	171.55	80.466	8.6818e-06	103.63	0.00014851	9.8817e-05	2.9799e-05	1230.7	1.0829e-06	1.074e-06	1300.3	446.92	1.1288e-06	1.0784e-06	510.63	188.42	156.64	73.58	1.2835e-06	94.214	236.822	179.912	217.038	126.613	283.773	247.684	125.676	131.528	272.640	226.559	129.734	134.120	136.506	140.882	261.050	137.273	-8191	255	
3720.096	1	1	0	0	0.14924	0.13025	0.41212	0.30941	0.083818	0.19979	0.29417	0.23762	0.28729	0.22965	0.39789	0.25926	0.11258	0.07516	0.052797	0.29472	-1.9937	-2.8625	-2.2083	-2.8187	-2.5729	-2.3125	-2.9771	-2.5354	-2.3354	-2.7938	-2.2896	-2.7292	-2.8667	-2.2687	-2.8625	-2.8458	386.226	170.788	430.190	451.481	115.291	451.446	398.681	377.291	359.355	259.370	442.885	340.199	472.698	124.220	391.440	423.793	0.0010311	0.00073893	0.0002001	1345.9	9.264e-06	8.6092e-06	1428.2	488.89	6.2951e-06	3.3946e-06	565.39	207.31	170.92	79.888	7.524e-06	103.91	0.00015185	0.00010214	3.0258e-05	1233.2	1.1157e-06	1.1576e-06	1304.9	448.66	1.1664e-06	1.1424e-06	513.37	188.84	156.51	73.451	1.24e-06	94.171	235.138	203.325	217.930	126.729	266.948	255.983	125.696	131.657	244.110	276.562	129.489	134.250	136.502	140.827	294.046	137.575	-8191	255	
3720.192	1	1	0	0	0.079683	0.093782	0.12184	0.30774	0.035095	0.31476	0.37225	0.35632	0.15717	0.13795	0.17565	0.15504	0.3552	0.16867	0.12746	0.044646	-1.875	-2.7854	-2.1896	-2.6896	-2.7708	-2.1229	-2.7979	-2.5854	-2.3458	-2.7771	-2.5146	-2.5438	-2.8667	-2.5375	-2.7354	-2.8396	209.481	352.410	276.759	398.894	166.701	179.229	467.224	414.170	259.301	305.288	374.373	401.163	427.599	258.641	157.885	430.613	0.00098073	0.00051008	0.00019199	1326.3	8.4851e-06	5.8771e-06	1416.5	487.05	8.2755e-06	8.3519e-06	560.9	205.95	169.11	78.773	6.1539e-06	102.03	0.00014996	0.00010691	3.1127e-05	1221.5	1.1189e-06	1.2059e-06	1296.5	446.37	1.1357e-06	1.1796e-06	508.77	186.72	155.28	72.653	1.2193e-06	92.793	237.051	173.486	214.436	126.795	272.463	262.189	125.751	131.743	289.507	202.690	129.763	134.403	136.770	140.934	275.777	137.640	-8191	255	
3720.289	1	1	0	0	0.16095	0.17849	0.17361	0.15414	0.20877	0.072132	0.30109	0.21428	0.19845	0.22472	0.35814	0.1278	0.3017	0.26663	0.12421	0.18644	-1.8312	-2.8104	-2.4167	-2.675	-2.8438	-2.0958	-3.1188	-2.8979	-2.1396	-2.8354	-2.4458	-2.4938	-2.9646	-2.3917	-2.5208	-2.8542	149.877	441.303	256.366	428.927	299.999	235.755	421.095	434.915	409.173	239.200	397.124	398.085	433.650	384.703	439.866	114.789	0.00093622	0.00038994	0.00027092	1323.9	4.7012e-06	4.7424e-06	1408.2	484.54	6.5066e-06	3.4068e-06	558.21	202.82	167.7	78.435	8.0226e-06	101.48	0.00015189	0.00011406	3.0027e-05	1222.8	1.1599e-06	1.2423e-06	1294	447.22	1.1861e-06	1.2056e-06	508.6	185.93	154.85	72.575	1.233e-06	92.82	237.780	179.077	212.144	126.831	254.690	297.330	125.659	132.097	258.562	256.249	129.853	133.990	136.946	141.259	264.396	137.829	-8191	255	
3720.385	1	1	0	0	0.10465	0.10362	0.075558	0.26171	0.265	0.10236	0.15086	0.16365	0.14654	0.21334	0.30256	0.17146	0.22977	0.15527	0.29037	0.25982	-1.75	-2.7125	-2.2917	-2.4813	-2.8812	-2.0979	-2.925	-2.7792	-2.1875	-2.9458	-2.7583	-2.5167	-2.9146	-2.5854	-2.6937	-2.9229	144.154	179.072	290.112	411.333	442.415	440.838	460.604	422.808	468.437	323.961	424.322	417.005	400.235	121.331	469.935	441.647	0.00090317	0.00050176	0.00020438	1308.6	6.6494e-06	5.0842e-06	1391.4	483.52	6.0418e-06	2.9938e-06	555.4	203.17	167.19	78.422	5.2789e-06	102.07	0.00015863	0.00011589	2.9351e-05	1218.9	1.2147e-06	1.2188e-06	1290.2	446.5	1.2771e-06	1.2457e-06	508.44	186.15	154.82	72.795	1.1819e-06	93.317	236.875	192.535	208.667	127.390	285.549	270.609	126.258	131.908	266.845	307.227	129.986	134.583	136.863	141.326	252.772	138.020	-8191	255	
3720.505	1	1	0	0	0.048971	0.10936	0.24549	0.24534	0.12657	0.22287	0.19062	0.094992	0.1223	0.13703	0.16638	0.19882	0.37215	0.31404	0.2051	0.41246	-1.7729	-2.4979	-2.4292	-2.4292	-2.7667	-2.4146	-2.7208	-2.9583	-2.3667	-2.7167	-2.7062	-2.2875	-3.0104	-2.7479	-2.4562	-2.8583	307.834	460.859	265.137	394.355	148.721	184.907	371.233	128.295	241.209	272.917	457.482	471.594	438.047	394.212	273.697	404.418	0.0010188	0.00060053	0.00022511	1325.3	5.1562e-06	7.1947e-06	1417.7	486.67	9.6976e-06	7.2248e-06	563.92	206.77	170.11	80.155	5.9523e-06	104.2	0.00017169	0.00011336	2.9982e-05	1220.7	1.283e-06	1.2098e-06	1296	447	1.3094e-06	1.1991e-06	510.97	187.86	155.93	73.289	1.1429e-06	94.183	237.331	195.409	192.976	126.811	236.870	283.312	125.648	131.907	277.596	229.907	129.935	134.323	136.539	140.925	276.507	137.804	-8191	255	
3720.602	1	1	0	0	0.10704	0.10716	0.22868	0.38437	0.28513	0.29054	0.35487	0.2575	0.081484	0.21705	0.17638	0.14226	0.36609	0.25894	0.18472	0.038422	-1.9583	-2.6146	-2.4833	-2.4375	-2.7583	-2.3333	-2.4104	-3.0354	-2.0396	-2.6146	-2.5646	-2.2188	-2.9562	-2.5854	-2.3708	-3.15	268.074	136.497	142.425	120.429	150.422	362.511	419.137	358.770	189.232	468.209	207.512	461.526	409.574	430.248	261.025	378.769	0.00098262	0.00053322	0.00019015	1330.9	6.5426e-06	5.0177e-06	1419.6	489.85	7.4031e-06	5.284e-06	562.96	205.74	170.12	79.362	5.8373e-06	102.46	0.00017104	0.00010479	2.7956e-05	1219.6	1.2816e-06	1.1937e-06	1293.5	446.65	1.3026e-06	1.1531e-06	509.36	186.35	155.15	72.584	1.1494e-06	92.929	238.663	157.473	206.607	126.933	295.054	262.935	125.456	131.550	271.371	301.806	129.692	134.127	136.441	140.823	292.367	137.248	-8191	255	
3720.673	1	1	0	0	0.15535	0.28916	0.11537	0.28991	0.10263	0.089917	0.15178	0.18871	0.068868	0.21054	0.14484	0.14758	0.35434	0.21745	0.10613	0.2349	-1.7396	-2.5542	-2.6562	-2.3479	-2.8271	-2.6875	-2.4292	-3.0917	-2.3479	-2.6833	-2.9417	-2.3833	-2.9083	-2.6292	-2.2229	-3	188.416	332.197	344.444	434.962	429.369	420.014	403.286	396.462	403.512	261.011	444.037	375.475	122.961	464.349	406.484	167.489	0.0009648	0.00076539	0.00015163	1328.7	8.667e-06	5.437e-06	1399.1	484.85	6.1432e-06	5.319e-06	558.41	203.75	168.05	78.97	8.3751e-06	102.07	0.00016376	0.00010402	2.7952e-05	1218.4	1.2388e-06	1.1155e-06	1285.9	445.64	1.2785e-06	1.1255e-06	507.09	185.84	154.46	72.515	1.1555e-06	92.931	238.282	172.822	200.171	126.838	276.087	260.833	125.650	131.989	259.251	250.099	129.586	134.135	136.637	141.211	286.563	137.330	-8191	255	
3720.769	1	1	0	0	0.12184	0.090958	0.086469	0.25703	0.1056	0.089079	0.078251	0.33024	0.3835	0.19496	0.13228	0.27671	0.084825	0.18176	0.066212	0.22967	-1.8771	-2.4813	-2.7229	-2.2396	-2.7646	-2.6437	-2.5542	-3.1042	-2.3875	-2.3125	-2.8958	-2.2958	-2.9771	-2.9417	-2.3771	-3.0771	430.264	377.923	331.768	460.190	308.575	383.821	410.271	411.025	464.383	252.961	396.316	445.382	373.887	136.517	180.444	442.984	0.0009085	0.00047031	0.00026119	1319.8	5.617e-06	4.5662e-06	1403.8	478.63	6.1649e-06	5.0837e-06	553.84	202.6	168.12	78.474	8.1297e-06	102.5	0.00015915	0.00010457	2.7787e-05	1214.6	1.2082e-06	1.0905e-06	1287.7	443.49	1.2107e-06	1.0918e-06	506.5	186.05	154.65	72.578	1.1673e-06	93.589	235.935	167.462	201.615	126.907	280.049	264.087	125.678	132.020	291.456	227.955	129.967	134.357	136.554	141.233	274.893	137.475	-8191	255	
3720.888	1	1	0	0	0.16667	0.1131	0.19213	0.28325	0.1341	0.22682	0.298	0.33746	0.087324	0.21432	0.26663	0.087645	0.15173	0.33403	0.20106	0.20791	-2.0167	-2.3875	-2.7083	-2.5229	-2.6979	-2.7229	-2.5	-2.9958	-2.4062	-2.4292	-3.1312	-2.4938	-2.7521	-2.8646	-2.2687	-2.9562	406.385	319.736	197.232	118.610	341.067	231.062	400.115	454.631	267.020	380.034	195.058	332.826	409.327	455.916	427.650	452.099	0.00095791	0.00042527	0.00020422	1313.9	8.2019e-06	5.6185e-06	1391.3	476.55	4.0778e-06	6.5077e-06	551.57	202.86	167.44	78.171	9.0764e-06	102.84	0.00015856	0.00010011	2.9116e-05	1214.4	1.1806e-06	1.0879e-06	1286.8	443.62	1.2043e-06	1.046e-06	508.74	187.24	154.9	72.621	1.2432e-06	93.923	233.498	168.939	193.013	127.100	275.531	280.500	126.130	132.128	305.010	276.530	130.255	134.701	136.788	141.306	301.100	137.615	-8191	255	
3720.984	1	1	0	0	0.23459	0.1287	0.1299	0.16406	0.08208	0.18328	0.070045	0.27587	0.18113	0.11028	0.20659	0.39336	0.31145	0.31708	0.082905	0.19305	-1.9312	-2.2687	-2.7146	-2.5625	-2.6562	-2.875	-2.2833	-3.05	-2.5417	-2.2667	-3.0104	-2.6896	-2.8646	-2.7729	-2.175	-3.1042	356.332	457.136	399.504	140.637	435.501	379.356	319.737	441.599	259.129	123.831	420.874	468.418	414.867	427.500	240.904	358.917	0.00097296	0.00050045	0.0001772	1308.4	7.4382e-06	5.5369e-06	1400.7	476.17	5.9984e-06	9.3221e-06	551.09	202.06	166.81	78.082	6.3544e-06	102.31	0.00015484	0.00010068	3.0352e-05	1209.8	1.1544e-06	1.0727e-06	1285.7	442.03	1.1397e-06	1.0737e-06	506.46	185.46	154.18	72.124	1.273e-06	92.985	235.561	179.775	221.953	127.096	253.240	260.709	125.878	132.153	299.184	255.570	130.194	134.770	136.678	141.235	269.345	137.448	-8191	255	
3721.081	1	1	0	0	0.12579	0.11135	0.065506	0.07273	0.12849	0.064618	0.43065	0.1661	0.070134	0.22805	0.32824	0.29551	0.083074	0.23354	0.27223	0.23185	-2.0667	-2.2	-2.9083	-2.5563	-2.3375	-2.8083	-2.2875	-2.9062	-2.6083	-2.1437	-3.1437	-2.625	-2.55	-2.9896	-2.2146	-2.9229	284.725	311.149	324.343	164.838	223.528	211.896	434.141	363.018	322.525	159.418	370.066	466.843	414.651	405.924	122.712	424.029	0.00096451	0.00073917	0.00019924	1301.4	7.0392e-06	6.4278e-06	1385.5	477.51	4.5849e-06	4.6963e-06	552.58	202.01	166.05	77.713	5.4063e-06	100.9	0.00015266	0.00010217	3.1396e-05	1206	1.1395e-06	1.0675e-06	1277.5	440.5	1.1465e-06	1.1033e-06	504.28	185.29	153.39	72.056	1.2839e-06	92.481	233.640	165.032	194.563	127.206	266.542	276.503	125.916	132.055	265.449	281.425	129.949	134.752	136.708	141.490	271.250	137.654	-8191	255	
3721.177	1	1	0	0	0.051859	0.033408	0.15219	0.25487	0.1878	0.2378	0.26965	0.037882	0.072737	0.10233	0.25601	0.20355	0.32093	0.29129	0.22176	0.073415	-2.4125	-2.1646	-2.9396	-2.6792	-2.1875	-3.075	-2.4833	-2.9042	-2.6688	-1.975	-3.0563	-2.7458	-2.4271	-3.0729	-2.3896	-2.8	449.131	209.881	302.980	412.035	131.531	358.316	405.067	293.117	430.021	231.546	441.185	372.413	423.796	421.164	435.707	396.171	0.0009447	0.00067374	0.00017029	1302.4	7.8963e-06	5.77e-06	1377.1	472.96	4.1875e-06	5.6124e-06	556.31	203.44	168.88	78.774	7.5443e-06	102.72	0.00015051	0.00010746	3.1129e-05	1205.3	1.0944e-06	1.1381e-06	1277.5	439.58	1.1759e-06	1.1425e-06	505.74	186.21	154.19	72.397	1.2396e-06	93.399	237.605	196.038	214.490	127.466	290.800	283.844	125.812	132.101	271.545	230.109	129.703	134.587	136.496	141.016	305.317	137.512	-8191	255	
3721.297	1	1	0	0	0.17157	0.18038	0.20725	0.32733	0.26709	0.22206	0.23947	0.21082	0.14036	0.14354	0.18931	0.23261	0.123	0.11688	0.21132	0.37163	-2.3	-2.2104	-2.8271	-2.6854	-2.2458	-2.9521	-2.5479	-2.7271	-2.8417	-2.3646	-2.8021	-2.8708	-2.45	-3.1458	-2.3688	-2.5729	167.652	226.063	436.162	440.641	274.815	141.204	421.287	133.409	250.417	117.284	114.496	453.257	384.372	451.476	376.991	407.721	0.0010222	0.00085704	0.0002594	1310.4	5.623e-06	6.3668e-06	1391.6	474.72	6.631e-06	7.8831e-06	555.24	203.54	167.28	78.632	8.0313e-06	102.92	0.00015267	0.00011035	3.0061e-05	1209.7	1.0766e-06	1.2052e-06	1280.8	440.54	1.159e-06	1.1869e-06	507.05	186.69	154.45	72.676	1.1795e-06	94.014	236.698	169.043	226.216	126.990	298.792	237.837	125.705	132.099	279.472	247.841	129.972	134.632	136.627	141.306	289.162	137.703	-8191	255	
3721.369	1	1	0	0	0.27923	0.22907	0.14209	0.2822	0.090426	0.098454	0.011066	0.25714	0.30553	0.069119	0.30643	0.1187	0.47601	0.15065	0.21979	0.2164	-2.3417	-2.2771	-2.5563	-2.6833	-2.0333	-2.7667	-2.3	-2.5146	-2.8479	-2.3292	-2.7562	-2.6562	-2.4562	-2.8187	-2.325	-2.625	249.198	290.215	460.041	409.588	314.778	204.996	467.002	425.873	391.607	254.740	448.127	467.040	435.977	415.403	383.058	397.334	0.0010521	0.00050808	0.00021033	1300.6	7.6597e-06	4.9366e-06	1390.3	479.45	6.3498e-06	8.4833e-06	556.76	204.04	168.52	78.736	7.8665e-06	102.93	0.00015582	0.00011242	3.0201e-05	1205.1	1.1629e-06	1.242e-06	1278.6	441.11	1.1492e-06	1.2216e-06	505.8	186.55	154.3	72.511	1.1706e-06	93.402	237.421	189.341	222.324	127.241	267.001	276.701	125.653	132.002	276.800	267.553	129.536	134.515	136.443	140.915	274.929	137.395	-8191	255	
3721.465	1	1	0	0	0.26454	0.28947	0.23976	0.14407	0.19657	0.2428	0.1736	0.22816	0.26033	0.3039	0.42527	0.46951	0.32139	0.32109	0.13037	0.26381	-2.5563	-2.1063	-2.5125	-2.8792	-2.1979	-2.7479	-2.7417	-2.6188	-2.9417	-2.2687	-2.8604	-2.9625	-2.1958	-2.9083	-2.4792	-2.5354	121.154	174.431	457.565	432.393	374.889	147.865	431.921	429.638	373.195	234.796	467.268	442.018	123.416	122.783	273.321	407.848	0.00096141	0.00060826	0.0001621	1316.2	6.634e-06	6.5254e-06	1395.4	479.23	6.9693e-06	7.4828e-06	555.38	203.91	166.91	78.47	7.4818e-06	102.29	0.00015695	0.00010936	2.8327e-05	1208.5	1.1862e-06	1.212e-06	1275.8	440.14	1.2301e-06	1.1546e-06	504.66	185.78	153.59	72.12	1.1449e-06	92.748	237.033	166.460	212.173	126.566	277.455	263.283	125.767	131.556	282.295	236.859	129.827	134.331	136.646	140.892	289.344	137.187	-8191	255	
3721.586	1	1	0	0	0.15415	0.17022	0.2499	0.27555	0.26184	0.01769	0.11511	0.26687	0.096027	0.099722	0.26607	0.12522	0.37692	0.35259	0.23633	0.34894	-2.3354	-2.3229	-2.4833	-2.9562	-2.0625	-2.6229	-2.5896	-2.6167	-2.8333	-2.4	-2.4854	-2.8521	-2.1875	-2.8167	-2.5896	-2.3792	340.540	127.604	281.891	402.586	383.664	406.086	389.734	125.725	384.658	253.740	426.884	275.743	442.219	440.560	376.844	401.155	0.00095946	0.00052749	0.00022641	1316.2	8.4077e-06	6.6912e-06	1395.9	478.48	8.3918e-06	6.1291e-06	553.69	204.02	166.64	78.724	6.8758e-06	102.32	0.0001603	0.00010915	2.8219e-05	1208.9	1.2687e-06	1.1673e-06	1281.9	440.12	1.2901e-06	1.1816e-06	505.14	186.23	153.79	72.345	1.1314e-06	92.912	235.659	185.885	212.009	126.937	264.094	271.517	125.634	131.946	271.486	265.724	129.706	134.352	136.510	140.988	270.401	137.211	-8191	255	
3721.682	1	1	0	0	0.27855	0.24979	0.16063	0.50882	0.3145	0.2346	0.40884	0.22033	0.083738	0.15592	0.18657	0.22992	0.35794	0.098608	0.20498	0.1821	-2.4688	-2.2687	-2.1396	-3.0979	-2.2479	-2.6854	-2.9396	-2.5187	-2.9458	-2.4188	-2.4333	-3.0062	-2.45	-2.6	-2.7042	-2.1917	296.096	287.020	360.759	139.747	218.709	325.888	393.645	184.341	432.894	364.910	436.651	398.705	448.277	350.266	409.102	350.582	0.0009797	0.00082107	0.00018632	1306.6	6.7362e-06	7.5605e-06	1411.2	482.99	7.6386e-06	5.9099e-06	559.62	205.64	168.45	78.879	4.7311e-06	102.57	0.00016714	0.00010893	2.8619e-05	1208	1.2698e-06	1.142e-06	1285.9	442.83	1.3e-06	1.1181e-06	507.39	186.85	154.55	72.421	1.15e-06	93.536	236.741	203.044	203.175	127.083	291.715	280.914	125.551	131.520	271.497	252.097	129.732	134.498	136.646	140.750	263.198	137.584	-8191	255	
3721.778	1	1	0	0	0.16164	0.14149	0.12161	0.26256	0.058886	0.13508	0.1141	0.2153	0.020581	0.24851	0.09216	0.2033	0.31341	0.15377	0.039346	0.297	-2.3729	-2.4167	-2.1667	-3.0146	-2.1917	-2.6125	-2.7812	-2.4521	-2.9625	-2.5104	-2.4375	-3.0604	-2.4417	-2.7521	-2.7208	-2.3042	467.289	270.352	402.300	191.051	417.263	118.802	343.265	425.272	173.064	261.534	133.886	457.078	402.513	187.122	304.491	421.751	0.00095717	0.00069855	0.00019503	1320	7.7288e-06	5.7603e-06	1399.3	478.06	5.7292e-06	2.5037e-06	552.61	203.35	166.47	77.772	7.1806e-06	102.61	0.00016593	0.00010486	2.8299e-05	1210.7	1.298e-06	1.1109e-06	1283.6	441.64	1.2519e-06	1.1269e-06	506.43	185.99	153.44	71.988	1.1583e-06	92.904	236.183	181.125	206.843	126.768	280.827	286.047	125.816	132.236	276.026	285.504	129.716	134.860	137.017	141.124	261.503	137.274	-8191	255	
3721.897	1	1	0	0	0.010452	0.028832	0.12849	0.050918	0.19233	0.17653	0.26421	0.48056	0.14412	0.2781	0.16492	0.3072	0.29851	0.27311	0.24556	0.15993	-2.3521	-2.5146	-2.0854	-3.05	-2.375	-2.3708	-2.9729	-2.4208	-2.8646	-2.5375	-2.3979	-2.9708	-2.5563	-2.5729	-2.8688	-2.2354	135.621	424.952	260.534	374.248	328.760	342.047	394.372	412.198	264.194	178.788	349.698	362.250	448.384	463.267	155.647	411.151	0.00097802	0.00072837	0.00015723	1313.6	5.8014e-06	7.3265e-06	1401.9	475.49	8.8872e-06	9.6143e-06	553.52	202.13	166.37	77.922	7.0201e-06	101.26	0.00015949	0.00010274	2.8289e-05	1207.3	1.2311e-06	1.1027e-06	1280.7	439.08	1.2175e-06	1.1134e-06	503.9	184.53	152.93	71.736	1.1922e-06	92.21	234.374	177.348	207.561	126.718	272.342	274.014	125.843	131.583	270.115	267.854	129.411	134.278	136.657	140.963	289.352	137.528	-8191	255	
3721.969	1	1	0	0	0.047239	0.081925	0.22561	0.15086	0.17421	0.16032	0.26713	0.31699	0.31214	0.29444	0.24886	0.066457	0.14948	0.071606	0.25002	0.20946	-2.1854	-2.5687	-2.3167	-2.9292	-2.4417	-2.4125	-3.0333	-2.4938	-2.6437	-2.7167	-2.3833	-2.9333	-2.7583	-2.675	-2.9062	-2.4646	317.245	421.931	210.913	193.841	133.946	153.634	428.969	382.380	251.784	433.955	394.053	136.157	436.837	450.758	281.322	440.296	0.00097146	0.00081783	0.00021348	1303.5	8.9242e-06	8.5231e-06	1382.1	474.73	6.659e-06	3.7691e-06	552.57	202.69	167.78	78.396	6.4523e-06	102.11	0.00015539	0.00010049	3.0638e-05	1203.9	1.1815e-06	1.0593e-06	1276.7	438.89	1.1875e-06	1.0863e-06	503.43	185.29	153.76	71.993	1.2507e-06	92.793	235.745	183.777	196.764	127.117	263.823	259.841	125.954	131.836	285.605	252.188	129.767	133.854	136.456	141.028	283.897	137.193	-8191	255	
3722.065	1	1	0	0	0.15513	0.1879	0.047588	0.33192	0.16485	0.22943	0.34237	0.089571	0.15676	0.16169	0.2958	0.2266	0.25275	0.40996	0.077989	0.40075	-2.2	-2.7229	-2.1771	-2.8958	-2.4583	-2.4896	-3.1063	-2.4813	-2.4958	-2.8396	-2.3708	-3.0417	-2.9146	-2.3021	-2.9146	-2.5792	385.767	312.940	380.822	464.806	117.465	152.171	423.250	413.513	394.531	401.126	395.740	456.735	367.520	434.447	415.083	439.244	0.00096367	0.00056635	0.00025516	1291	6.7066e-06	6.5981e-06	1381.5	472.45	5.5536e-06	7.1235e-06	550.75	203.14	166.33	77.824	4.5505e-06	102.15	0.00015568	9.7007e-05	3.0494e-05	1200.5	1.1236e-06	1.0498e-06	1278.4	439.53	1.1331e-06	1.0539e-06	504.05	185.89	153.64	72.1	1.2693e-06	93.268	235.560	189.621	177.710	127.022	258.275	255.092	126.155	132.141	266.942	217.857	129.878	134.484	136.887	141.254	276.420	137.769	-8191	255	
3722.185	1	1	0	0	0.080459	0.36863	0.11965	0.19017	0.19306	0.11178	0.19977	0.26144	0.071725	0.099405	0.35792	0.16723	0.11729	0.20156	0.067593	0.25639	-2.0708	-2.725	-2.0958	-2.8625	-2.5583	-2.3104	-3.2042	-2.5	-2.6437	-2.7542	-2.2021	-2.8021	-2.9771	-2.2438	-3.1354	-2.7125	170.353	134.216	207.725	159.677	257.196	379.530	418.983	466.464	399.481	365.898	421.765	395.888	465.079	143.481	243.286	426.358	0.00090564	0.00050208	0.00010276	1305.4	6.7111e-06	5.7459e-06	1392.2	477.56	4.1526e-06	5.7205e-06	555.09	203.89	167.28	78.338	4.8207e-06	101.16	0.00015327	0.00010349	3.1387e-05	1205.8	1.1256e-06	1.1214e-06	1283.4	440.17	1.1349e-06	1.1202e-06	506.26	186.38	153.67	72.081	1.2411e-06	92.688	234.105	158.910	195.460	127.089	282.716	270.944	125.677	131.908	272.045	275.632	129.487	134.350	136.439	141.157	299.547	137.705	-8191	255	
3722.282	1	1	0	0	0.11761	0.045246	0.072598	0.40066	0.065308	0.19849	0.067825	0.076768	0.27645	0.1682	0.22346	0.25507	0.26702	0.6286	0.034744	0.056663	-1.7479	-2.8521	-2.1833	-2.7792	-2.75	-2.2583	-2.9104	-2.7229	-2.2604	-2.9458	-2.3333	-2.625	-3.0333	-2.2458	-2.7146	-2.5938	349.148	225.716	290.745	421.628	289.797	161.274	366.916	357.710	276.936	166.623	408.695	435.372	440.100	450.943	235.661	424.975	0.00096058	0.00070151	0.00024023	1299.9	7.4715e-06	5.3606e-06	1389.2	474.75	5.301e-06	5.1716e-06	550.36	201.01	165.55	77.39	3.8633e-06	100.52	0.00014727	0.00010538	3.1034e-05	1201.3	1.1333e-06	1.1499e-06	1276.9	438.4	1.0716e-06	1.1482e-06	502.4	184.11	152.75	71.438	1.1971e-06	91.931	238.150	212.688	218.356	127.212	291.845	262.126	125.522	132.062	278.068	235.085	129.844	134.409	136.871	141.013	287.456	137.646	-8191	255	
3722.378	1	1	0	0	0.29038	0.20218	0.16531	0.40554	0.033737	0.12214	0.24389	0.33737	0.079848	0.13627	0.1989	0.26943	0.26761	0.10135	0.12323	0.27375	-1.9083	-2.8667	-2.2708	-2.7104	-2.775	-2.1396	-2.9021	-2.8438	-2.1188	-2.8125	-2.5271	-2.6417	-2.7708	-2.2729	-2.7604	-2.7687	308.288	274.250	324.644	426.339	311.323	249.454	416.840	378.754	134.887	152.948	432.219	359.970	418.141	336.529	271.869	447.383	0.00097543	0.00058123	0.00021916	1304.9	5.9786e-06	6.9281e-06	1386.7	475.27	6.0333e-06	5.142e-06	549.84	202.27	165.35	77.385	5.1053e-06	102.08	0.00015045	0.00010547	3.0236e-05	1206.3	1.107e-06	1.145e-06	1278	439.16	1.1029e-06	1.1529e-06	502.87	184.79	152.87	71.56	1.1387e-06	92.433	237.031	168.813	196.978	126.918	281.414	273.047	126.014	131.973	287.167	216.443	129.661	134.278	137.009	141.145	270.250	137.141	-8191	255	
3722.474	1	1	0	0	0.071422	0.15806	0.12837	0.4164	0.12719	0.20829	0.35964	0.22534	0.22617	0.059945	0.18265	0.24972	0.1101	0.33334	0.1497	0.15123	-1.8667	-2.6708	-2.2438	-2.425	-3.0667	-2.3292	-2.9979	-2.8104	-2.0625	-2.9542	-2.4813	-2.5896	-2.8937	-2.3896	-2.5521	-2.85	307.071	316.330	373.482	429.554	307.475	252.353	441.048	444.772	377.980	442.218	320.542	373.770	305.994	453.168	136.995	353.369	0.0009481	0.00042987	0.00021984	1323.4	7.8171e-06	3.6488e-06	1407.8	481.71	8.4127e-06	8.4963e-06	557.27	206.72	169.3	78.857	7.8936e-06	103.39	0.00015087	0.00010965	2.8439e-05	1210.8	1.1348e-06	1.1779e-06	1286.4	440.95	1.1512e-06	1.1916e-06	505.43	186.69	154.45	72.094	1.1517e-06	93.223	234.984	195.909	199.140	126.428	265.045	267.343	125.639	131.828	282.720	272.444	129.629	134.091	136.368	140.766	289.895	137.172	-8191	255	
3722.570	1	1	0	0	0.15229	0.17197	0.12717	0.23987	0.21152	0.10542	0.26329	0.28126	0.14081	0.14242	0.025378	0.32473	0.31446	0.32031	0.14937	0.094959	-1.575	-2.9417	-2.4125	-2.4021	-2.8167	-2.1521	-2.6604	-3.0125	-2.2146	-2.8937	-2.5292	-2.2854	-3.1104	-2.5604	-2.5	-2.9042	459.257	195.500	159.273	396.255	115.190	163.029	447.428	430.220	473.528	233.589	373.014	444.280	444.140	443.090	137.621	231.147	0.0010099	0.00037331	0.00030527	1327	8.2303e-06	6.7571e-06	1409.8	480.21	8.4532e-06	6.3095e-06	555.34	204.95	167.35	77.909	3.9012e-06	101.82	0.00015816	0.00010716	2.8242e-05	1215.2	1.1637e-06	1.142e-06	1286.8	441.35	1.2068e-06	1.1094e-06	505.52	186.12	153.85	71.876	1.0937e-06	92.789	236.038	184.717	205.444	126.462	234.531	281.308	125.691	131.654	268.199	233.736	129.710	134.371	136.731	141.102	279.092	137.451	-8191	255	
3722.666	1	1	0	0	0.022752	0.22904	0.18212	0.39647	0.13703	0.055398	0.23563	0.34875	0.0083233	0.12422	0.29901	0.26441	0.22267	0.17684	0.15837	0.20269	-1.8917	-2.725	-2.6833	-2.5354	-2.8021	-2.4333	-2.6667	-2.9542	-2.1042	-2.9	-2.7729	-2.4521	-3.0563	-2.5312	-2.5625	-2.8083	299.106	181.264	217.130	445.606	252.362	193.261	390.576	457.669	142.907	259.930	469.764	114.033	395.493	432.867	226.434	394.888	0.0009424	0.00071166	0.00022961	1301.5	7.054e-06	6.7472e-06	1400.2	479.56	6.5763e-06	5.7458e-06	553.9	203.82	167	77.855	4.6732e-06	100.79	0.00016267	0.00010483	2.8139e-05	1205.6	1.1895e-06	1.1358e-06	1280.1	438.89	1.2552e-06	1.087e-06	501.89	184.46	152.64	71.347	1.081e-06	91.692	235.270	166.165	199.279	127.296	259.086	286.778	125.562	131.774	275.034	256.907	129.546	134.036	136.144	140.606	271.116	137.110	-8191	255	
3722.762	1	1	0	0	0.15336	0.064445	0.18687	0.50051	0.11146	0.14181	0.15891	0.29037	0.096701	0.35215	0.3699	0.25988	0.18587	0.23968	0.26708	0.10391	-1.7875	-2.6125	-2.6021	-2.3375	-2.7562	-2.6896	-2.5687	-3.0729	-1.9708	-2.4396	-2.7542	-2.2188	-2.8896	-2.7	-2.2646	-3.0896	386.664	344.275	387.599	129.218	351.656	151.591	355.477	449.147	347.342	127.056	450.256	412.063	417.241	436.332	211.765	436.048	0.00095989	0.00050258	0.00018442	1316.1	5.9611e-06	5.2614e-06	1398.6	479.14	5.3644e-06	7.6167e-06	556.98	203.27	167.59	77.834	5.1607e-06	102.1	0.00016153	9.9839e-05	2.6094e-05	1207.4	1.2246e-06	1.0962e-06	1276.9	439.93	1.2377e-06	1.1139e-06	503.38	184.45	152.9	71.454	1.0826e-06	92.189	234.480	163.779	188.223	126.682	276.878	249.119	125.412	131.709	296.873	239.721	129.568	134.211	136.405	140.946	278.975	137.110	-8191	255	
3722.858	1	1	0	0	0.14163	0.30543	0.26456	0.29529	0.061342	0.20888	0.32883	0.24359	0.22224	0.11673	0.077182	0.094979	0.20424	0.472	0.30458	0.28578	-1.8813	-2.5583	-2.525	-2.2979	-2.8083	-2.4792	-2.4104	-2.9708	-2.25	-2.5396	-2.8521	-2.1417	-2.7938	-2.6646	-2.2958	-3.0917	291.821	395.900	191.828	442.552	389.540	199.589	443.420	432.838	241.510	199.080	452.875	131.597	443.730	118.749	177.985	114.818	0.00094987	0.00070638	0.0001472	1319.1	7.6695e-06	8.4091e-06	1406.4	482.08	8.2732e-06	1.0277e-05	558.66	205.13	168.21	78.416	6.7592e-06	102.65	0.00015493	9.9952e-05	2.7035e-05	1208.9	1.2127e-06	1.0987e-06	1282.3	441.04	1.1945e-06	1.0723e-06	504.63	185.33	153.15	71.677	1.132e-06	92.683	238.233	177.873	204.936	126.582	239.674	252.862	125.252	131.503	273.299	245.890	129.397	133.929	136.298	140.984	276.605	137.122	-8191	255	
3722.977	1	1	0	0	0.13015	0.1575	0.27397	0.43373	0.11282	0.25857	0.4794	0.27013	0.1001	0.083793	0.20199	0.098374	0.35549	0.185	0.081825	0.14682	-1.9583	-2.3063	-3.0146	-2.4104	-2.8771	-2.6854	-2.4958	-3.025	-2.4062	-2.4062	-2.9521	-2.3771	-2.8292	-2.9375	-2.2458	-3.1437	453.614	235.122	330.867	452.832	140.528	199.562	415.807	387.010	336.230	404.242	352.211	120.628	447.183	438.514	214.840	397.429	0.00094629	0.00057431	0.00023221	1327.1	5.0196e-06	9.2248e-06	1400	480.81	4.4948e-06	6.1615e-06	559.05	204.64	167.69	78.059	8.4405e-06	101.99	0.00015879	9.8589e-05	2.778e-05	1210.6	1.2023e-06	1.0977e-06	1284.6	441.1	1.1939e-06	1.0706e-06	506.78	185.31	153.25	71.748	1.1806e-06	92.609	235.578	196.691	218.462	126.589	264.863	274.936	125.634	131.695	284.122	242.182	129.582	134.042	136.485	141.002	275.883	137.272	-8191	255	
3723.073	1	1	0	0	0.18295	0.11185	0.31042	0.2715	0.12363	0.31358	0.31997	0.26582	0.23568	0.28109	0.12838	0.12425	0.33982	0.27798	0.083773	0.25636	-2.0417	-2.3583	-2.8812	-2.4562	-2.4167	-2.8354	-2.4708	-3.0563	-2.5396	-2.4188	-2.9958	-2.3854	-2.6167	-2.9083	-2.1875	-2.8229	428.752	127.340	220.074	116.584	216.420	218.321	437.888	175.879	384.163	445.748	448.726	466.817	121.676	413.457	291.524	428.136	0.00088968	0.00050012	0.00015612	1313.1	7.0317e-06	5.2229e-06	1403.1	480.07	4.0323e-06	8.832e-06	554.42	201.59	166.55	77.455	4.7563e-06	100.54	0.00015554	9.9033e-05	2.9317e-05	1202.6	1.1543e-06	1.0835e-06	1280.3	440.18	1.1648e-06	1.103e-06	502.43	183.18	152.26	70.997	1.2261e-06	91.169	235.071	189.324	183.645	126.678	278.672	274.644	125.526	131.454	274.897	242.627	129.692	134.364	136.320	140.904	293.823	137.291	-8191	255	
3723.170	1	1	0	0	0.15529	0.17149	0.10117	0.20718	0.022335	0.23874	0.31917	0.080792	0.30713	0.10588	0.11122	0.29071	0.19346	0.28002	0.19198	0.24093	-2.0083	-2.2854	-2.8354	-2.3979	-2.3604	-2.8104	-2.2438	-2.7042	-2.4417	-2.2125	-2.8854	-2.2896	-2.5521	-3.2042	-2.1479	-3.0062	161.123	412.754	339.317	388.138	290.845	180.361	380.190	368.355	184.507	230.860	114.516	421.069	425.086	401.045	426.990	417.625	0.00094944	0.00065852	0.00022312	1304.8	9.5236e-06	2.7881e-06	1391.8	478.62	4.1496e-06	4.9276e-06	554.59	201.29	164.66	78.049	7.0566e-06	101.04	0.00015466	9.7135e-05	3.0521e-05	1201.7	1.1384e-06	1.0717e-06	1274.5	439.67	1.1357e-06	1.0735e-06	502.04	182.97	151.46	71.169	1.2711e-06	91.464	236.708	178.157	182.632	127.141	288.502	304.755	125.601	131.786	303.860	250.076	129.720	134.043	136.398	140.623	271.442	136.934	-8191	255	
3723.266	1	1	0	0	0.068753	0.23359	0.37836	0.43116	0.22061	0.07207	0.27615	0.13676	0.23909	0.37586	0.15319	0.098847	0.22569	0.42771	0.1034	0.31253	-2.3667	-2.1167	-2.7979	-2.8312	-2.4083	-2.6708	-2.2771	-2.8042	-2.6292	-2.1562	-3.0812	-2.4292	-2.5833	-2.9396	-2.0354	-2.9896	349.747	334.683	425.734	454.587	411.876	209.588	428.882	433.311	180.948	179.250	392.569	418.410	369.792	134.936	158.381	447.188	0.00095328	0.00051084	0.00019308	1301.6	6.0234e-06	6.5186e-06	1391.4	474.29	4.9372e-06	5.5078e-06	551.34	201.79	165.02	77.082	7.4959e-06	100.5	0.00015168	0.00010214	3.1309e-05	1199.6	1.1259e-06	1.0773e-06	1275.3	437.24	1.1202e-06	1.0751e-06	501.55	183.77	152.15	71.251	1.2517e-06	92.052	236.304	183.850	196.897	127.289	265.184	252.111	125.604	131.763	259.538	257.909	129.490	134.283	136.446	141.295	249.869	137.452	-8191	255	
3723.362	1	1	0	0	0.11645	0.25918	0.26894	0.41132	0.19622	0.078852	0.25441	0.3322	0.22406	0.090886	0.12296	0.20055	0.11393	0.30969	0.18029	0.15394	-2.3729	-2.3042	-2.8542	-2.5687	-2.3771	-2.9292	-2.2854	-2.7896	-2.5083	-2.1521	-2.9458	-2.5104	-2.3292	-2.9458	-2.2625	-2.8917	147.078	415.895	295.471	122.148	306.317	290.326	440.817	472.563	418.952	359.715	352.760	162.019	410.340	424.263	369.750	317.525	0.0010193	0.00062274	0.00026319	1295.9	5.5767e-06	7.4807e-06	1377.5	472.44	5.7494e-06	6.078e-06	549.66	201.4	165.12	77.197	7.2356e-06	100.83	0.00015686	0.00010297	3.0559e-05	1199.2	1.0735e-06	1.1583e-06	1272.8	437.93	1.1118e-06	1.1628e-06	502.48	184.64	152.33	71.39	1.2197e-06	92.229	236.902	182.204	198.623	127.298	291.066	265.857	126.104	131.922	266.145	261.051	129.844	134.347	136.673	141.167	270.836	137.655	-8191	255	
3723.458	1	1	0	0	0.046326	0.084431	0.24017	0.46447	0.23294	0.12597	0.19657	0.098283	0.26588	0.13849	0.16542	0.25305	0.16698	0.38648	0.11593	0.22119	-2.2438	-2.075	-2.5958	-2.7521	-2.3229	-2.8937	-2.5479	-2.6271	-2.5542	-2.2687	-2.8854	-2.4813	-2.4708	-3.1417	-2.3333	-2.4625	368.698	357.175	283.902	433.167	170.945	116.384	396.233	174.196	361.141	160.181	453.988	130.910	411.628	416.742	125.339	454.384	0.00097069	0.00053714	0.00021587	1293.3	8.9457e-06	5.0323e-06	1371.8	468.71	6.5869e-06	6.7205e-06	544.44	200.67	165.12	77.129	6.4562e-06	99.836	0.000151	0.00011049	2.9086e-05	1196.5	1.089e-06	1.1626e-06	1268.9	435.45	1.119e-06	1.1576e-06	498.46	183.04	151.38	71.019	1.1519e-06	91.07	233.356	151.971	174.830	127.005	263.092	279.914	125.969	132.197	280.371	255.796	129.796	134.510	136.375	140.905	274.233	137.495	-8191	255	
3723.579	1	1	0	0	0.16514	0.15406	0.19695	0.31196	0.088582	0.053217	0.28154	0.37275	0.15282	0.12014	0.32705	0.039975	0.10464	0.41339	0.24004	0.40592	-2.525	-2.15	-2.6708	-2.9062	-2.2646	-2.925	-2.4104	-2.5062	-3.0187	-2.1562	-2.8417	-2.8312	-2.3979	-2.8063	-2.3729	-2.5	174.771	115.004	142.264	434.908	134.821	128.359	445.655	427.961	365.053	170.893	447.283	462.683	426.830	452.968	149.083	387.393	0.00094892	0.00028441	0.00012939	1294.7	4.3533e-06	5.7836e-06	1382.3	470.08	5.9063e-06	7.4443e-06	542.89	198.92	162.52	76.002	6.1609e-06	99.602	0.0001517	0.0001079	2.8561e-05	1194.1	1.1176e-06	1.1571e-06	1264.7	433.35	1.1565e-06	1.1516e-06	496.81	182.15	150.56	70.618	1.1081e-06	91.047	237.013	202.985	209.625	127.018	283.304	264.992	125.611	131.660	273.407	244.413	129.714	134.322	137.004	141.114	291.540	137.189	-8191	255	
3723.675	1	1	0	0	0.16204	0.18143	0.16232	0.53277	0.17547	0.14294	0.15191	0.2851	0.10598	0.33097	0.26398	0.3066	0.36271	0.4272	0.030968	0.284	-2.4437	-2.3375	-2.4521	-2.7833	-2.0875	-2.8979	-2.5479	-2.4229	-2.7979	-2.3396	-2.5729	-2.9896	-2.2292	-3.0979	-2.5479	-2.4521	394.778	352.163	347.758	468.160	289.169	181.690	472.906	391.440	231.466	323.301	391.129	412.446	441.064	420.073	370.677	457.644	0.00096122	0.00070975	0.00021815	1301.2	6.9568e-06	6.308e-06	1380	472.68	6.6363e-06	8.1821e-06	547.68	199.66	164.05	76.788	3.9791e-06	100.02	0.00015869	0.00010738	2.7067e-05	1198	1.1725e-06	1.141e-06	1267.9	435.28	1.2155e-06	1.1292e-06	499.92	182.44	151.38	70.909	1.1163e-06	91.36	239.064	178.746	207.907	127.123	301.600	258.574	125.916	131.881	280.103	265.583	129.833	134.648	136.768	141.004	263.247	137.373	-8191	255	
3723.771	1	1	0	0	0.12562	0.21981	0.29203	0.33287	0.42317	0.29976	0.23737	0.44202	0.20974	0.098048	0.13219	0.18076	0.41301	0.14822	0.16199	0.20007	-2.4792	-2.15	-2.3812	-2.95	-2.2146	-2.6063	-2.6729	-2.3688	-2.8208	-2.3271	-2.5333	-3.0854	-2.2146	-2.8771	-2.4104	-2.3312	227.136	455.048	169.293	466.276	361.666	363.545	396.085	422.416	165.071	364.633	415.924	420.904	389.499	428.618	409.749	395.594	0.00097212	0.00062855	0.00021106	1297.1	8.0037e-06	6.1883e-06	1380.3	476.18	7.6228e-06	6.5393e-06	556.13	202.3	166.4	77.595	8.1815e-06	101.75	0.00015752	0.00010422	2.7294e-05	1199.1	1.2377e-06	1.1059e-06	1267.6	437.65	1.2601e-06	1.1025e-06	502.49	183.58	151.8	71.099	1.1016e-06	91.99	236.723	193.017	203.347	127.285	285.113	281.116	126.024	131.680	291.348	272.135	129.525	134.065	136.190	140.689	283.670	137.060	-8191	255	
3723.867	1	1	0	0	0.14076	0.16518	0.1374	0.24563	0.10742	0.39315	0.38458	0.35063	0.2204	0.1086	0.11104	0.07469	0.14428	0.38571	0.21137	0.34925	-2.3375	-2.3417	-2.25	-3.0229	-2.0396	-2.8104	-2.8208	-2.3521	-2.75	-2.3688	-2.3104	-2.8688	-2.45	-2.8063	-2.7208	-2.3021	207.780	142.810	359.027	377.840	297.221	385.789	433.737	415.789	463.507	171.147	148.748	414.747	459.065	447.771	132.152	407.445	0.00089805	0.00095974	0.00020323	1308.5	6.4871e-06	5.9003e-06	1393.2	478.16	5.204e-06	5.6924e-06	553.03	200.99	164.74	77.307	5.8716e-06	101.09	0.00015895	0.00010356	2.6853e-05	1199.9	1.2459e-06	1.0984e-06	1271.1	437.18	1.2324e-06	1.0781e-06	499.6	182.59	151.03	70.658	1.1089e-06	91.069	237.942	169.837	215.400	126.607	247.579	265.396	125.664	131.483	280.884	294.089	129.589	133.985	136.168	140.528	295.193	136.781	-8191	255	
3723.962	1	1	0	0	0.24321	0.053364	0.080332	0.026119	0.20523	0.091914	0.2232	0.31172	0.2639	0.20358	0.29841	0.27954	0.38835	0.24533	0.2022	0.14192	-2.3604	-2.6333	-2.4	-3.0083	-2.1854	-2.4354	-2.9125	-2.3917	-2.7062	-2.5792	-2.3146	-2.9625	-2.3021	-2.6813	-2.7875	-2.2938	371.162	173.681	138.735	113.544	232.067	440.562	444.006	407.577	241.063	136.627	389.340	384.114	364.788	134.530	343.270	127.675	0.00095407	0.00051674	0.00018071	1307.5	5.5823e-06	6.2804e-06	1389.8	477.37	5.5667e-06	6.4655e-06	551.88	200.16	165.2	76.885	6.3886e-06	100.26	0.00015371	0.00010012	2.7058e-05	1193.5	1.1932e-06	1.0923e-06	1266.8	436.44	1.2001e-06	1.0763e-06	497.93	181.42	150.51	70.369	1.1428e-06	90.509	233.664	173.918	201.195	126.463	271.091	281.328	125.307	131.069	274.916	252.000	129.115	133.973	136.167	140.388	274.926	137.097	-8191	255	
3724.058	1	1	0	0	0.27709	0.14479	0.1673	0.28213	0.11461	0.11264	0.194	0.3602	0.1292	0.068191	0.23787	0.33365	0.14946	0.51016	0.16177	0.18709	-2.1417	-2.6688	-2.1854	-2.9625	-2.2938	-2.3021	-3.1229	-2.3396	-2.7208	-2.8521	-2.4896	-2.9646	-2.4583	-2.3792	-2.8354	-2.3917	386.473	441.421	292.035	417.475	150.821	226.775	400.375	127.365	224.919	453.489	452.486	468.156	436.838	462.464	131.004	345.762	0.0009244	0.00060655	0.00017318	1311.2	6.531e-06	6.7244e-06	1400.7	478.43	4.5523e-06	4.8989e-06	553.19	201.23	165.72	77.621	6.2123e-06	101.32	0.00015591	9.9517e-05	2.8131e-05	1193.7	1.1897e-06	1.0631e-06	1268.8	436.3	1.1756e-06	1.0897e-06	498.93	182.02	150.72	70.683	1.2003e-06	91.318	236.767	180.015	218.055	126.568	271.733	285.920	125.348	131.303	277.056	281.207	129.186	133.916	136.257	140.216	252.581	137.155	-8191	255	
3724.154	1	1	0	0	0.13844	0.21332	0.16715	0.14883	0.27796	0.056636	0.40136	0.14723	0.064707	0.13746	0.21148	0.29029	0.18887	0.24596	0.088328	0.092935	-2.0979	-2.6437	-2.0312	-2.8958	-2.4437	-2.3542	-3.0812	-2.3625	-2.7271	-2.8083	-2.3354	-2.9375	-2.6104	-2.3583	-2.975	-2.3625	422.085	185.365	274.007	444.972	436.074	230.189	393.160	445.243	341.484	186.803	432.855	420.613	421.402	412.909	234.426	396.253	0.00090249	0.00049772	0.00014865	1310.3	7.4727e-06	5.1208e-06	1391.3	480.75	6.8354e-06	7.4215e-06	556.99	201.5	166.34	77.83	8.9443e-06	101.72	0.00015522	0.00010003	3.016e-05	1193	1.184e-06	1.0968e-06	1269.3	438.21	1.1808e-06	1.1056e-06	501.49	182.73	151.21	70.934	1.2422e-06	91.793	234.111	187.618	198.765	126.796	276.439	235.462	125.389	131.240	285.071	226.377	129.401	134.011	136.357	140.455	263.146	136.987	-8191	255	
3724.250	1	1	0	0	0.067804	0.074781	0.21569	0.21373	0.18881	0.3137	0.19528	0.24948	0.098914	0.029215	0.2243	0.12634	0.17651	0.34461	0.13091	0.30991	-2.1437	-2.5667	-1.9646	-3.1458	-2.4875	-2.3	-3.1167	-2.3438	-2.3292	-2.7458	-2.3854	-2.9583	-2.7417	-2.3771	-2.8833	-2.5875	193.546	466.805	426.131	425.320	268.127	328.159	315.900	456.613	298.524	443.578	403.215	445.205	267.971	429.247	337.057	422.985	0.00094751	0.00053979	0.00019426	1307.7	5.0466e-06	3.4328e-06	1394.4	479.73	8.0102e-06	6.3598e-06	557.34	202.08	165.77	77.453	7.8733e-06	101.78	0.00015292	0.00010015	3.125e-05	1193.7	1.156e-06	1.0967e-06	1268.8	437.35	1.1505e-06	1.1089e-06	500.84	182.97	151.02	70.683	1.2241e-06	91.528	235.080	175.605	202.416	126.615	278.818	227.680	125.346	131.494	268.676	228.418	129.597	133.970	136.187	140.664	290.248	137.028	-8191	255	
3724.371	1	1	0	0	0.24765	0.14247	0.18513	0.25256	0.12645	0.10046	0.27028	0.17439	0.17174	0.15224	0.17803	0.27396	0.25726	0.049572	0.060651	0.066248	-1.9292	-2.7583	-2.2021	-2.8333	-2.6375	-2.3354	-2.9938	-2.5104	-2.4313	-2.9604	-2.225	-2.7083	-2.9146	-2.2167	-2.7271	-2.7979	438.103	203.999	396.220	440.605	390.220	218.106	412.112	426.287	323.373	122.696	436.576	434.088	398.845	393.174	271.925	380.332	0.0010321	0.00058339	0.00017193	1299.2	6.3617e-06	7.4505e-06	1383.6	478.06	7.86e-06	6.9408e-06	552.74	199.87	165.82	76.892	5.6863e-06	100.42	0.00015281	0.00010607	3.2056e-05	1187.2	1.1194e-06	1.148e-06	1260.7	434.91	1.1246e-06	1.1265e-06	497.97	180.86	150.59	70.365	1.2333e-06	90.825	239.661	164.928	216.220	126.518	273.644	253.246	125.441	131.596	289.489	253.184	129.432	133.971	136.116	140.584	281.948	136.950	-8191	255	
#DATA ENDS
