BOXY.EXE: ISS Imagent and Oximeter Data Acquisition Program Version 0.80
Ascii Record File

#ACQ INFORMATION
2  Detector Channels 
16  External MUX Channels 
1  Auxiliary Channels 
5000  Waveform (CCF) Frequency (Hz)
1  Waveforms Skipped 
30  Waveforms Averaged 
1  Cycles Averaged 
16  Acquisitions per Waveform 
10.0806  Updata Rate (Hz) 

#FILE INFORMATION
TRUE -- External MUX Channel results are PARSED.
FALSE -- AC DC and Phase are NOT grouped.
TRUE -- Companion Program Settings File CREATED.
FALSE -- AC data not excluded
FALSE -- DC data not excluded
FALSE -- Phase data not excluded
FALSE -- Auxillary Chn. data not excluded
Tab delimiters

#CALIBRATION STATE
TRUE -- Waveform Calibration Values APPLIED.


#AUX CALIBRATION VALUES
Val Type	aux-1	

Term	1.0000e+00	
Factor	0.0000e+00	


#WF CALIBRATION VALUES
A = Detector Channel
Val Type	A-AC1	A-AC2	A-AC3	A-AC4	A-AC5	A-AC6	A-AC7	A-AC8	A-AC9	A-AC10	A-AC11	A-AC12	A-AC13	A-AC14	A-AC15	A-AC16	A-DC1	A-DC2	A-DC3	A-DC4	A-DC5	A-DC6	A-DC7	A-DC8	A-DC9	A-DC10	A-DC11	A-DC12	A-DC13	A-DC14	A-DC15	A-DC16	A-Ph1	A-Ph2	A-Ph3	A-Ph4	A-Ph5	A-Ph6	A-Ph7	A-Ph8	A-Ph9	A-Ph10	A-Ph11	A-Ph12	A-Ph13	A-Ph14	A-Ph15	A-Ph16	

Term	0.00000e+00	0.00000e+00	0.00000e+00	0.00000e+00	0.00000e+00	0.00000e+00	0.00000e+00	0.00000e+00	0.00000e+00	0.00000e+00	0.00000e+00	0.00000e+00	0.00000e+00	0.00000e+00	0.00000e+00	0.00000e+00	0.00000e+00	0.00000e+00	0.00000e+00	0.00000e+00	0.00000e+00	0.00000e+00	0.00000e+00	0.00000e+00	0.00000e+00	0.00000e+00	0.00000e+00	0.00000e+00	0.00000e+00	0.00000e+00	0.00000e+00	0.00000e+00	0.00000e+00	0.00000e+00	0.00000e+00	0.00000e+00	0.00000e+00	0.00000e+00	0.00000e+00	0.00000e+00	0.00000e+00	0.00000e+00	0.00000e+00	0.00000e+00	0.00000e+00	0.00000e+00	0.00000e+00	0.00000e+00	
Factor	1.00000e+00	1.00000e+00	1.00000e+00	1.00000e+00	1.00000e+00	1.00000e+00	1.00000e+00	1.00000e+00	1.00000e+00	1.00000e+00	1.00000e+00	1.00000e+00	1.00000e+00	1.00000e+00	1.00000e+00	1.00000e+00	1.00000e+00	1.00000e+00	1.00000e+00	1.00000e+00	1.00000e+00	1.00000e+00	1.00000e+00	1.00000e+00	1.00000e+00	1.00000e+00	1.00000e+00	1.00000e+00	1.00000e+00	1.00000e+00	1.00000e+00	1.00000e+00	X	X	X	X	X	X	X	X	X	X	X	X	X	X	X	X	

B = Detector Channel
Val Type	B-AC1	B-AC2	B-AC3	B-AC4	B-AC5	B-AC6	B-AC7	B-AC8	B-AC9	B-AC10	B-AC11	B-AC12	B-AC13	B-AC14	B-AC15	B-AC16	B-DC1	B-DC2	B-DC3	B-DC4	B-DC5	B-DC6	B-DC7	B-DC8	B-DC9	B-DC10	B-DC11	B-DC12	B-DC13	B-DC14	B-DC15	B-DC16	B-Ph1	B-Ph2	B-Ph3	B-Ph4	B-Ph5	B-Ph6	B-Ph7	B-Ph8	B-Ph9	B-Ph10	B-Ph11	B-Ph12	B-Ph13	B-Ph14	B-Ph15	B-Ph16	

Term	0.00000e+00	0.00000e+00	0.00000e+00	0.00000e+00	0.00000e+00	0.00000e+00	0.00000e+00	0.00000e+00	0.00000e+00	0.00000e+00	0.00000e+00	0.00000e+00	0.00000e+00	0.00000e+00	0.00000e+00	0.00000e+00	0.00000e+00	0.00000e+00	0.00000e+00	0.00000e+00	0.00000e+00	0.00000e+00	0.00000e+00	0.00000e+00	0.00000e+00	0.00000e+00	0.00000e+00	0.00000e+00	0.00000e+00	0.00000e+00	0.00000e+00	0.00000e+00	-2.91036e+01	-1.30727e+02	-1.25827e+02	-1.83848e+02	-4.53590e+01	-6.39396e+01	-1.58330e+02	-1.62015e+02	-4.04028e+01	-6.93137e+01	-1.70849e+02	-1.70812e+02	-1.78650e+02	-1.77103e+02	-5.65599e+01	-1.50176e+02	
Factor	2.48695e-05	1.25508e-04	3.68752e-05	1.52866e-01	1.67459e-06	1.76788e-06	1.70140e-01	5.22108e-02	1.64632e-06	1.54420e-06	8.69566e-02	2.95778e-02	2.73539e-02	9.37122e-03	1.62419e-06	1.32152e-02	8.28636e-06	1.10554e-05	3.07181e-06	7.48206e-02	1.15288e-07	1.22545e-07	7.80540e-02	2.56305e-02	1.14741e-07	1.21952e-07	4.13475e-02	1.40655e-02	1.35687e-02	4.64103e-03	1.17712e-07	6.32584e-03	X	X	X	X	X	X	X	X	X	X	X	X	X	X	X	X	



#DISTANCE SETTINGS
A = Detector Channel
A-1	A-2	A-3	A-4	A-5	A-6	A-7	A-8	A-9	A-10	A-11	A-12	A-13	A-14	A-15	A-16	

2.5000e+00	3.0000e+00	2.5000e+00	3.0000e+00	2.0000e+00	3.0000e+00	1.5000e+00	3.0000e+00	3.0000e+00	3.0000e+00	3.0000e+00	3.0000e+00	3.0000e+00	3.0000e+00	1.5000e+00	3.0000e+00	

B = Detector Channel
B-1	B-2	B-3	B-4	B-5	B-6	B-7	B-8	B-9	B-10	B-11	B-12	B-13	B-14	B-15	B-16	

1.0000e+01	1.0000e+01	1.0000e+01	1.4400e+00	1.0000e+01	1.0000e+01	1.5100e+00	1.9400e+00	1.0000e+01	1.0000e+01	1.9900e+00	2.4900e+00	2.4100e+00	2.9000e+00	1.0000e+01	2.9800e+00	




#DATA BEGINS
time	group	step	mark	flag	A-AC1	A-AC2	A-AC3	A-AC4	A-AC5	A-AC6	A-AC7	A-AC8	A-AC9	A-AC10	A-AC11	A-AC12	A-AC13	A-AC14	A-AC15	A-AC16	A-DC1	A-DC2	A-DC3	A-DC4	A-DC5	A-DC6	A-DC7	A-DC8	A-DC9	A-DC10	A-DC11	A-DC12	A-DC13	A-DC14	A-DC15	A-DC16	A-Ph1	A-Ph2	A-Ph3	A-Ph4	A-Ph5	A-Ph6	A-Ph7	A-Ph8	A-Ph9	A-Ph10	A-Ph11	A-Ph12	A-Ph13	A-Ph14	A-Ph15	A-Ph16	B-AC1	B-AC2	B-AC3	B-AC4	B-AC5	B-AC6	B-AC7	B-AC8	B-AC9	B-AC10	B-AC11	B-AC12	B-AC13	B-AC14	B-AC15	B-AC16	B-DC1	B-DC2	B-DC3	B-DC4	B-DC5	B-DC6	B-DC7	B-DC8	B-DC9	B-DC10	B-DC11	B-DC12	B-DC13	B-DC14	B-DC15	B-DC16	B-Ph1	B-Ph2	B-Ph3	B-Ph4	B-Ph5	B-Ph6	B-Ph7	B-Ph8	B-Ph9	B-Ph10	B-Ph11	B-Ph12	B-Ph13	B-Ph14	B-Ph15	B-Ph16	aux-1	digaux	

50762.898	1	1	0	256	0.17267	0.11516	0.28366	0.14963	0.14766	0.36827	0.25979	0.19364	0.027479	0.039129	0.18596	0.053569	0.064187	0.12095	0.11452	0.13618	-3.975	-4.5042	-5.1667	-4.3667	-4.9062	-4.7542	-4.4625	-5.2167	-4.45	-4.5104	-5.1625	-4.2583	-4.8187	-4.8292	-4.2146	-5.1062	414.635	251.254	423.778	438.224	326.626	137.839	358.082	429.432	347.630	125.174	375.046	450.913	167.888	321.772	442.891	131.649	0.00034543	0.00032672	4.2256e-05	1004.5	2.4465e-06	4.0856e-06	1096.3	210.18	3.1698e-06	1.9634e-06	267.23	74.273	58.457	16.643	1.2711e-06	22.991	0.00023585	0.00020353	5.1907e-05	1002.4	2.3557e-06	2.2686e-06	1092.7	210.55	2.4e-06	2.2993e-06	267.9	74.581	58.405	16.945	2.3405e-06	23.437	275.965	192.233	170.093	110.445	266.576	235.900	110.649	118.788	239.829	233.525	117.836	125.278	125.246	132.374	267.496	131.376	-8191	255	
50762.992	1	1	0	0	0.097767	0.20115	0.13063	0.089654	0.14867	0.10665	0.214	0.20212	0.11225	0.24622	0.21101	0.29032	0.16448	0.32864	0.065096	0.030989	-4.2812	-4.3521	-5.0146	-4.3938	-4.7333	-4.8521	-4.4187	-5.1771	-4.5062	-4.3375	-5.1042	-4.1146	-4.7292	-5.025	-4.0646	-5.0896	349.362	403.173	109.915	458.104	104.560	118.326	445.119	148.932	358.786	102.957	100.641	151.931	434.219	402.551	115.751	264.695	0.00033506	0.00011491	7.1875e-05	1007.6	5.8506e-06	2.3794e-06	1098.7	210.54	6.1314e-06	2.4899e-06	265.91	74.5	58.742	16.621	3.4003e-06	22.925	0.00023098	0.00020294	5.7456e-05	1000.9	2.4381e-06	2.1272e-06	1090.1	210.34	2.3907e-06	2.2996e-06	268.04	74.497	58.432	16.939	2.3542e-06	23.414	277.321	197.984	170.977	110.611	270.513	227.350	110.793	118.573	276.494	225.675	117.717	125.016	125.723	132.522	278.467	132.069	-8191	255	
50763.090	1	1	0	0	0.19378	0.12328	0.12054	0.2161	0.068502	0.26442	0.11917	0.022773	0.025702	0.34937	0.28183	0.19191	0.14428	0.064555	0.094212	0.15823	-4.2458	-4.3021	-5.2833	-4.3625	-4.6958	-4.9271	-4.275	-4.9542	-4.6333	-4.2354	-5.1208	-4.3146	-4.525	-4.9667	-4.2146	-4.7167	121.910	378.859	180.622	432.920	423.374	181.869	424.106	224.372	180.938	280.403	451.167	366.372	373.729	319.887	213.560	383.547	0.00037606	0.00016415	6.1942e-05	1008.5	4.5176e-06	9.4048e-07	1099.1	209.6	5.2489e-06	4.2059e-06	267.65	73.908	57.915	16.623	4.1031e-06	23.03	0.0002338	0.00021496	5.7405e-05	1001	2.3315e-06	2.1948e-06	1090.4	209.81	2.4112e-06	2.3511e-06	267.59	74.357	58.278	16.89	2.2836e-06	23.404	280.141	232.360	217.914	110.457	239.774	329.128	110.501	118.279	245.483	263.013	117.934	125.305	125.422	132.598	252.309	131.642	-8191	255	
50763.211	1	1	0	0	0.12309	0.30433	0.065545	0.29178	0.29183	0.18263	0.09077	0.19665	0.079454	0.20816	0.11807	0.19679	0.25941	0.19075	0.067974	0.081292	-4.425	-4.1979	-5.0542	-4.3562	-4.4229	-4.9917	-4.2479	-4.7792	-4.8958	-4.1625	-5.1625	-4.5667	-4.4313	-5.1729	-4.1438	-4.7458	427.665	178.280	332.459	381.079	242.923	414.786	342.535	424.919	296.327	428.485	224.380	336.464	379.852	161.271	234.566	195.239	0.00033737	0.00020523	6.766e-05	1005.4	3.4433e-06	3.8643e-06	1102.3	210.08	3.9685e-06	1.8048e-06	265.72	74.319	57.853	16.59	2.3906e-06	22.656	0.00023504	0.00021233	5.6336e-05	999.91	2.3552e-06	2.2015e-06	1090.4	209.78	2.4602e-06	2.4319e-06	266.76	74.459	58.236	16.87	2.3606e-06	23.29	276.849	198.473	182.188	110.697	281.443	272.225	110.825	118.014	278.727	256.427	117.906	124.792	125.271	132.364	282.651	131.781	-8191	255	
50763.309	1	1	0	0	0.11061	0.081848	0.084326	0.11518	0.23993	0.17477	0.2118	0.099889	0.15868	0.06602	0.055457	0.11503	0.21312	0.076238	0.17812	0.16527	-4.5167	-4.0146	-5.0083	-4.6312	-4.4437	-5.0333	-4.4729	-4.7021	-4.8938	-4.1396	-5.0833	-4.8271	-4.1896	-5.2083	-4.1937	-4.625	375.398	356.223	128.664	381.097	309.770	277.007	432.765	431.252	111.926	199.069	401.938	110.715	248.837	343.231	206.714	278.371	0.00029735	0.00027076	5.3973e-05	1002.9	2.8427e-06	4.4228e-06	1098.8	209.23	2.9021e-06	2.7951e-06	265.84	74.05	58.106	16.507	4.61e-06	22.87	0.00023709	0.0002341	5.8934e-05	1000.1	2.4472e-06	2.1821e-06	1089.8	209.48	2.2936e-06	2.3547e-06	267.24	74.176	58.076	16.808	2.4492e-06	23.31	275.118	156.125	274.687	110.723	264.323	249.877	110.741	118.541	293.855	263.863	117.831	125.525	125.050	132.522	273.994	131.494	-8191	255	
50763.402	1	1	0	0	0.1315	0.039179	0.21896	0.19559	0.16716	0.30245	0.2196	0.080677	0.15548	0.16333	0.021061	0.20348	0.2167	0.119	0.20733	0.19365	-4.8729	-4.1583	-4.8812	-4.8292	-4.2312	-5.0708	-4.4708	-4.5667	-5.0208	-4.1813	-4.9479	-4.8063	-4.3208	-5.1896	-4.3042	-4.525	388.119	106.761	405.586	121.556	407.278	234.265	409.490	232.282	178.965	172.836	271.241	441.433	370.475	325.651	106.824	109.243	0.00029377	0.00023588	8.8972e-05	1005.9	1.9329e-06	1.1974e-06	1093.7	211.09	3.5215e-06	2.3202e-06	263.86	74.667	57.909	16.354	4.172e-06	22.861	0.00022693	0.00022763	5.7097e-05	999.67	2.5334e-06	2.2791e-06	1085.5	209.59	2.3861e-06	2.3709e-06	265.97	74.264	58.01	16.756	2.3018e-06	23.197	275.405	187.493	195.850	110.849	242.778	180.198	110.775	117.902	274.741	223.290	118.043	125.104	125.299	132.565	256.604	131.861	-8191	255	
50763.523	1	1	0	0	0.18575	0.034639	0.022636	0.25819	0.065879	0.18569	0.30736	0.059427	0.1295	0.19953	0.15192	0.096509	0.047246	0.11553	0.013447	0.065527	-4.825	-4.0875	-4.9542	-4.9625	-4.2208	-5.0667	-4.8063	-4.4458	-5.1167	-4.1979	-4.8583	-4.8896	-4.2958	-5.1042	-4.5104	-4.3812	325.653	306.213	353.563	447.802	118.430	116.698	433.762	192.914	146.627	131.217	387.909	406.035	151.553	290.415	452.198	300.773	0.00033083	0.00021551	8.581e-05	1000.8	3.4543e-06	4.7507e-06	1088	209.06	3.3967e-06	5.709e-07	266.57	73.669	58.198	16.359	2.8906e-06	22.57	0.00023226	0.00021213	5.8192e-05	995.19	2.4511e-06	2.2382e-06	1078.5	208.56	2.3672e-06	2.4312e-06	265.67	74.013	58.028	16.702	2.2535e-06	23.068	277.323	232.268	185.498	110.478	276.514	278.350	110.670	118.195	282.194	166.841	118.012	125.238	125.311	132.997	262.847	131.382	-8191	255	
50763.594	1	1	0	0	0.13718	0.075272	0.14147	0.15036	0.096058	0.35103	0.21358	0.032375	0.13796	0.14342	0.19564	0.12206	0.044061	0.15625	0.30803	0.19767	-4.8375	-4.2417	-4.6604	-5.0083	-4.1729	-4.9688	-4.7292	-4.475	-5.1167	-4.4229	-4.5958	-5.0646	-4.2042	-5.0542	-4.7083	-4.1729	239.661	409.948	308.184	386.948	332.334	186.545	439.485	458.966	128.216	160.125	402.609	384.647	308.631	351.582	322.463	400.031	0.00031335	0.00032022	2.5666e-05	996.69	3.949e-06	3.2926e-06	1084.2	207.55	3.2359e-06	3.4592e-06	266.65	73.235	57.25	16.307	4.0738e-06	22.482	0.00022418	0.00022885	5.7321e-05	991.4	2.5543e-06	2.2569e-06	1076.5	207.92	2.3732e-06	2.4182e-06	265.24	73.634	57.645	16.666	2.3162e-06	23.053	278.044	192.216	159.994	110.428	258.684	247.112	110.499	118.180	270.352	260.373	117.578	125.360	125.268	132.545	270.169	131.977	-8191	255	
50763.691	1	1	0	0	0.11455	0.17931	0.15145	0.28018	0.13477	0.199	0.20838	0.11511	0.095978	0.13096	0.51796	0.050016	0.067142	0.051897	0.14181	0.028446	-4.8771	-4.3604	-4.4479	-5.1917	-4.1083	-4.9	-4.8271	-4.2021	-5.1458	-4.375	-4.5354	-5.2312	-4.1417	-4.8438	-4.9833	-4.1979	337.738	437.491	132.756	329.493	398.001	168.518	378.888	267.217	249.596	338.672	424.187	380.773	127.784	257.326	303.484	357.572	0.00033422	0.00017525	4.2991e-05	997	4.038e-06	3.5842e-06	1083.2	208.27	3.3971e-06	2.111e-06	263.94	73.575	57.419	16.186	4.2616e-06	22.642	0.00023293	0.00022309	5.688e-05	991.87	2.6197e-06	2.215e-06	1073.9	207.83	2.3565e-06	2.2543e-06	264.16	73.806	57.7	16.594	2.162e-06	23.008	278.406	159.386	207.380	110.710	272.540	281.567	110.767	118.453	274.634	246.134	117.583	125.260	125.596	131.988	242.761	131.755	-8191	255	
50763.809	1	1	0	0	0.17274	0.052306	0.10455	0.35156	0.085971	0.12372	0.21801	0.17494	0.060571	0.21353	0.055307	0.20954	0.28666	0.29904	0.0858	0.074481	-4.6438	-4.4729	-4.3604	-5.1875	-4.2208	-4.6188	-5.2583	-4.0917	-4.9729	-4.5854	-4.3208	-5.2542	-4.4396	-4.6354	-4.975	-4.2875	401.366	415.317	328.215	456.391	185.067	217.654	396.531	109.145	223.461	362.695	346.849	120.900	121.723	391.491	298.627	326.022	0.00032515	0.00016283	8.4655e-05	993.7	3.8012e-06	4.3486e-06	1079.1	207.47	4.3967e-06	1.6957e-06	263.94	73.474	57.252	16.27	4.0269e-06	22.446	0.00022686	0.00021611	5.6374e-05	986.96	2.4309e-06	2.2676e-06	1070.3	207.27	2.2647e-06	2.1977e-06	263.47	73.421	57.406	16.513	2.1046e-06	22.934	281.524	196.592	198.518	110.936	283.779	240.109	110.893	118.631	252.813	244.253	117.479	124.952	125.118	132.023	259.267	131.316	-8191	255	
50763.906	1	1	0	0	0.040714	0.052284	0.092326	0.28761	0.074434	0.06369	0.12716	0.064108	0.073272	0.25927	0.12337	0.15112	0.12068	0.088498	0.024132	0.18942	-4.7854	-4.5813	-4.2917	-5.2438	-4.3167	-4.4375	-5.2646	-4.1562	-4.7979	-4.8708	-4.4646	-5.4417	-4.3646	-4.5708	-5.0958	-4.2958	437.711	374.968	196.144	402.971	212.867	353.088	402.756	372.994	202.991	274.115	399.683	397.293	136.136	266.856	253.777	200.219	0.0003547	6.4265e-05	3.9465e-05	988.88	3.2465e-06	3.1855e-06	1076.5	206.84	4.6983e-06	1.9913e-06	261.13	73.067	57.565	16.29	3.2704e-06	22.639	0.00022263	0.00019596	5.8032e-05	984.09	2.4929e-06	2.2668e-06	1068	206.65	2.275e-06	2.2256e-06	262.97	73.247	57.473	16.578	2.0911e-06	23.014	285.851	184.496	226.374	110.714	258.013	231.264	110.661	118.276	270.662	243.704	117.719	125.342	125.891	132.482	273.881	131.827	-8191	255	
50764.004	1	1	0	0	0.20523	0.22737	0.062929	0.23044	0.12252	0.11762	0.24108	0.086095	0.037681	0.10094	0.1351	0.035915	0.22625	0.10386	0.1799	0.083643	-4.6875	-4.8354	-4.2875	-5.1917	-4.3542	-4.4292	-5.3354	-4.2188	-4.8521	-4.9521	-4.4104	-5.125	-4.5687	-4.3604	-5.2104	-4.2958	180.626	114.903	104.989	422.212	143.664	421.433	389.550	332.589	267.792	357.137	118.337	311.341	403.926	426.888	225.199	352.586	0.00033326	0.00017644	9.8721e-05	989.98	4.3546e-06	2.2595e-06	1077.5	207.94	3.9849e-06	1.6453e-06	261.07	72.919	57.916	16.229	2.8311e-06	22.133	0.00022732	0.00018677	5.6976e-05	984.19	2.429e-06	2.2278e-06	1069.2	206.7	2.2994e-06	1.9263e-06	262.79	73.4	57.439	16.539	2.1303e-06	22.853	281.765	186.853	194.601	110.783	282.913	288.516	110.807	118.157	290.776	229.650	117.935	125.253	125.644	132.531	257.354	131.605	-8191	255	
50764.098	1	1	0	0	0.18792	0.17161	0.14262	0.14774	0.22737	0.19582	0.1621	0.087339	0.09341	0.17798	0.067053	0.11464	0.26298	0.14877	0.1999	0.12706	-4.3875	-4.8792	-4.2063	-5.1583	-4.5437	-4.3313	-5.2708	-4.2562	-4.7917	-4.8292	-4.2021	-5.0229	-4.6875	-4.2688	-5.2958	-4.5146	437.235	231.259	452.432	457.489	430.864	214.898	400.450	247.843	281.078	389.218	107.996	395.394	386.578	408.747	137.898	368.625	0.0003094	0.00020184	6.7323e-05	988.41	4.197e-06	4.0379e-06	1076	205.81	3.2976e-06	1.4991e-06	262.57	73.074	57.04	16.183	1.3115e-06	22.616	0.00021595	0.00019543	5.8236e-05	982.77	2.2284e-06	2.1399e-06	1066.3	206.18	2.1528e-06	2.0772e-06	262.63	73.351	57.345	16.56	2.0651e-06	22.961	276.494	214.908	205.422	110.558	267.379	270.347	110.480	118.235	297.951	257.031	117.455	125.607	126.023	132.369	256.827	131.987	-8191	255	
50764.195	1	1	0	0	0.13587	0.14188	0.01754	0.17727	0.15014	0.21472	0.044252	0.1026	0.10955	0.20928	0.28181	0.040425	0.091966	0.18051	0.059386	0.10303	-4.4146	-5.0146	-4.175	-5.1833	-4.8063	-4.1771	-5.3	-4.6417	-4.3729	-5.1646	-4.1937	-4.9437	-4.8417	-4.1958	-5.1521	-4.3562	400.113	195.261	404.311	337.089	278.503	140.960	369.621	366.472	400.580	276.852	339.661	213.034	274.030	388.794	433.360	131.837	0.00034448	0.00023803	0.00010232	986.87	2.2929e-06	3.6764e-06	1077.5	205.77	3.5199e-06	3.9797e-06	261.73	73.318	57.256	16.166	2.9377e-06	22.445	0.00022152	0.00019142	5.7718e-05	983.04	2.153e-06	2.1269e-06	1067.8	206.51	2.1743e-06	2.1403e-06	262.52	73.227	57.336	16.484	2.047e-06	22.905	275.136	243.052	216.738	110.726	282.831	247.570	110.791	118.199	282.315	277.990	117.858	125.137	125.556	132.580	230.485	131.755	-8191	255	
50764.289	1	1	0	0	0.12335	0.10367	0.1107	0.12072	0.3225	0.25871	0.24284	0.12165	0.27871	0.32291	0.045674	0.12258	0.25681	0.029185	0.099388	0.17767	-4.0854	-5.1583	-4.0771	-4.85	-4.9417	-4.1958	-5.25	-4.8333	-4.3583	-5.1396	-4.3875	-4.6458	-5.0458	-4.0729	-4.9375	-4.7146	199.546	238.263	386.524	102.081	153.770	287.125	294.105	441.927	147.596	379.305	150.069	432.283	413.675	188.887	249.966	107.178	0.00037469	0.00020211	6.8635e-05	986.85	3.6857e-06	3.9797e-06	1077	207.19	2.607e-06	2.9369e-06	260.65	72.677	57.369	16.165	2.6411e-06	22.368	0.0002314	0.00018039	5.5229e-05	981.08	2.1878e-06	2.0994e-06	1067	206.45	2.1574e-06	2.0122e-06	262.08	73.17	57.444	16.512	2.1169e-06	22.894	276.554	230.551	194.862	110.684	252.410	243.040	110.525	118.427	277.910	247.255	117.762	125.476	125.966	131.966	259.238	131.504	-8191	255	
50764.387	1	1	0	0	0.33094	0.081439	0.045708	0.1239	0.21116	0.1946	0.086058	0.096175	0.039619	0.17713	0.19089	0.19492	0.27111	0.30474	0.057242	0.17619	-3.8812	-5.1292	-4.1312	-4.6271	-5.0167	-4.0917	-5.0437	-4.8562	-4.2208	-5.2438	-4.4583	-4.4042	-5.0813	-4.1792	-4.8479	-4.7146	335.199	441.221	408.015	327.837	134.144	459.169	410.397	374.884	371.541	419.720	404.539	447.767	166.178	433.065	153.113	170.526	0.0003529	0.00023196	3.5272e-05	985.57	3.8406e-06	4.9257e-06	1073.5	207.05	5.3497e-06	2.5481e-06	261.67	72.333	56.877	16.138	2.471e-06	22.266	0.00022941	0.00018992	5.5197e-05	980.32	2.2265e-06	2.1177e-06	1065.1	206.44	2.3013e-06	2.0785e-06	262.27	73.051	57.19	16.477	2.1485e-06	22.834	272.905	222.509	219.770	110.486	272.304	226.539	110.753	118.441	275.414	229.525	117.755	125.188	125.467	132.288	247.575	131.587	-8191	255	
50764.484	1	1	0	0	0.1023	0.16273	0.24215	0.20696	0.23276	0.16148	0.14344	0.17564	0.053462	0.14626	0.098358	0.20406	0.1897	0.12546	0.21348	0.075394	-3.975	-5.1104	-4.4896	-4.6729	-5.2396	-4.2312	-4.9396	-5.0833	-4.0938	-5.0417	-4.5687	-4.4437	-5.1562	-4.3104	-4.6604	-5.0458	282.682	272.135	459.291	418.820	333.642	308.179	309.947	399.862	265.162	254.814	107.754	220.917	385.985	114.693	135.851	133.651	0.00035202	0.00022362	4.9791e-05	988.26	5.8566e-06	3.418e-06	1077.2	207.75	2.5303e-06	2.3683e-06	262.44	73.234	57.471	16.186	4.5731e-06	22.716	0.00023055	0.00019812	5.5811e-05	980.86	2.269e-06	2.2301e-06	1066.8	206.47	2.2549e-06	2.096e-06	262.14	73.175	57.449	16.495	2.1406e-06	22.851	280.725	177.183	182.203	110.581	279.666	276.692	110.724	118.213	248.903	243.137	117.565	125.335	125.553	132.790	251.759	131.880	-8191	255	
50764.605	1	1	0	0	0.11761	0.20464	0.15468	0.1355	0.25559	0.16574	0.16648	0.042796	0.32221	0.21869	0.22164	0.13448	0.079941	0.14344	0.08355	0.13549	-3.6958	-5.0458	-4.7312	-4.375	-5.2479	-4.2396	-4.8083	-5.0188	-4.0479	-5.2208	-4.7479	-4.2417	-5.1333	-4.2958	-4.6542	-5.0375	289.711	353.402	195.053	450.193	226.740	222.199	406.483	328.061	434.899	349.268	142.228	438.474	281.194	247.260	238.141	414.528	0.00030549	0.00024706	8.3353e-05	983.95	6.3779e-06	2.6636e-06	1074	206.07	3.8731e-06	1.2377e-06	261.93	72.695	56.764	16.177	1.7207e-06	22.56	0.0002315	0.00019444	5.4774e-05	979.79	2.2647e-06	2.2607e-06	1065.8	206.76	2.2021e-06	2.1136e-06	263.01	73.025	57.157	16.49	2.1048e-06	22.923	280.715	176.860	222.105	110.525	257.082	287.853	110.820	118.324	249.867	279.802	117.995	124.886	125.497	132.615	234.803	131.377	-8191	255	
50764.699	1	1	0	0	0.24077	0.029373	0.22741	0.11528	0.27947	0.20017	0.034309	0.041514	0.057309	0.2219	0.26462	0.17066	0.23033	0.43107	0.12757	0.11227	-3.9542	-5.0146	-4.6792	-4.3542	-5.0437	-4.2771	-4.5542	-5.2479	-4.1646	-4.7812	-4.8875	-4.1625	-5.2146	-4.4354	-4.3958	-5.1167	376.588	363.270	114.524	440.579	290.803	432.927	142.855	404.486	406.484	229.304	368.647	273.485	411.111	111.518	372.809	363.163	0.00032582	0.00032595	8.5862e-05	983	4.2878e-06	2.5869e-06	1080.8	205.33	3.5113e-06	3.9202e-06	260.24	73.291	56.811	16.165	2.2494e-06	22.544	0.00022363	0.00020358	5.2144e-05	979.78	2.2421e-06	2.2658e-06	1067.3	206.13	2.3185e-06	2.0551e-06	262.17	73.313	57.27	16.519	2.1436e-06	22.943	276.828	203.204	199.521	110.730	238.141	267.280	110.613	118.429	284.627	242.500	117.599	125.431	125.286	132.472	285.194	131.820	-8191	255	
50764.793	1	1	0	0	0.18454	0.081443	0.1721	0.10208	0.14457	0.2643	0.1932	0.10858	0.11501	0.15172	0.20762	0.098601	0.14608	0.12271	0.17797	0.082019	-3.7875	-4.6604	-4.8812	-4.15	-5.125	-4.5292	-4.6333	-5.1542	-4.2625	-4.675	-5.0208	-4.1521	-5.1312	-4.5062	-4.1104	-5.0938	459.503	326.537	422.822	190.491	241.376	149.851	434.468	361.910	161.326	161.929	425.240	445.242	439.599	415.942	273.179	402.407	0.00034581	0.00046546	8.5857e-05	987.81	5.7402e-06	3.7049e-06	1074.7	204.85	3.825e-06	3.1e-06	260.39	73.024	56.927	16.17	1.9662e-06	22.607	0.00022548	0.00019368	5.2157e-05	980.25	2.239e-06	2.0562e-06	1065.5	206.27	2.237e-06	2.0536e-06	262.79	73.176	57.414	16.527	2.0887e-06	22.921	277.703	195.215	198.112	110.594	276.294	233.015	110.780	118.592	307.643	254.065	117.796	125.100	125.354	132.786	271.527	131.635	-8191	255	
50764.891	1	1	0	0	0.13475	0.057008	0.20864	0.19252	0.020013	0.15791	0.038108	0.06808	0.12682	0.091576	0.1447	0.047413	0.064324	0.13096	0.20967	0.067703	-3.8854	-4.6542	-4.8729	-4.1167	-4.9938	-4.7354	-4.5208	-5.2458	-4.3229	-4.4479	-5.1687	-4.2146	-4.9375	-4.6417	-4.2646	-5.2292	108.709	217.313	362.730	369.661	193.758	459.638	290.428	352.813	456.210	389.980	395.604	380.576	154.157	450.553	212.919	164.953	0.00036603	0.00037733	8.2947e-05	988.74	3.89e-06	2.786e-06	1076.4	206.97	4.1806e-06	4.948e-06	260.36	72.891	56.998	16.053	3.293e-06	22.292	0.00022223	0.00017366	5e-05	982.35	2.0769e-06	1.8211e-06	1068.5	206.72	1.9721e-06	1.8979e-06	262.38	73.175	57.424	16.506	1.7009e-06	22.823	276.673	169.810	223.292	110.529	277.834	233.437	110.815	118.378	281.444	222.619	118.366	125.214	125.352	132.531	288.689	132.081	-8191	255	
50764.988	1	1	0	0	0.015611	0.24035	0.16951	0.081277	0.058497	0.21822	0.23013	0.058911	0.074854	0.14477	0.2374	0.18306	0.14977	0.24987	0.062586	0.20905	-3.9792	-4.5271	-5.1458	-4.3562	-4.9021	-4.7583	-4.2688	-5.2729	-4.2875	-4.2667	-5.2708	-4.1875	-4.7958	-4.725	-4.025	-5.2604	307.989	275.793	218.078	109.088	440.037	219.283	430.171	229.371	248.706	298.600	193.851	147.025	355.689	120.984	103.193	380.576	0.00035585	0.00014011	6.8359e-05	985.64	5.2594e-06	1.7969e-06	1073.2	206.1	3.4543e-06	4.1315e-06	261.61	72.673	57.204	16.277	4.4403e-06	22.578	0.000194	0.00014706	3.6017e-05	979.16	1.7485e-06	1.4754e-06	1064.9	206.01	1.6941e-06	1.4703e-06	262.05	73.032	57.244	16.553	1.6092e-06	22.855	279.184	199.168	200.301	110.461	265.097	229.092	110.541	118.342	299.287	240.882	117.910	125.191	125.596	133.036	272.293	131.281	-8191	255	
50765.082	1	1	0	0	0.20916	0.17661	0.16929	0.11632	0.15467	0.29141	0.43734	0.21007	0.25523	0.073311	0.036317	0.22964	0.22914	0.12665	0.1442	0.056585	-4.2521	-4.4	-5.0354	-4.4354	-4.6833	-4.8792	-4.2438	-5.0208	-4.5667	-4.1667	-5.1917	-4.2333	-4.6375	-4.8708	-4.1479	-5.0687	108.344	276.508	111.712	176.232	207.216	280.426	389.118	295.199	327.259	272.627	453.407	367.008	297.496	457.737	384.736	256.894	0.00032572	0.00027162	7.8011e-05	985.78	4.8406e-06	2.7057e-06	1073.8	206.67	4.3731e-06	1.7873e-06	263.15	72.765	57.219	16.197	3.9701e-06	22.644	0.0001822	0.00013789	3.4679e-05	979.37	1.5924e-06	1.3311e-06	1064.6	206.02	1.5526e-06	1.4088e-06	262.96	73.114	57.395	16.518	1.4849e-06	22.941	278.931	178.515	187.295	110.598	255.995	268.007	110.881	118.350	277.535	284.473	118.258	124.965	125.427	132.557	242.144	132.085	-8191	255	
50765.203	1	1	0	0	0.063788	0.073703	0.075412	0.2774	0.031066	0.17221	0.10781	0.15082	0.16883	0.274	0.17572	0.082579	0.050617	0.17917	0.083451	0.21852	-4.3479	-4.1854	-5.2688	-4.5479	-4.3917	-5.0875	-4.1062	-5.1229	-4.625	-4.2146	-5.2917	-4.3917	-4.3271	-4.9917	-4.1188	-5.0396	292.523	320.650	385.911	442.783	246.310	154.197	296.401	114.438	352.587	317.346	269.154	256.343	259.363	335.828	164.124	143.920	0.00034951	0.00022421	3.107e-05	984.68	4.0463e-06	2.4046e-06	1073.7	205.93	4.7784e-06	2.7318e-06	262.25	72.718	57.36	16.227	2.7321e-06	22.475	0.00017976	0.00012348	3.1915e-05	979.79	1.5552e-06	1.2597e-06	1064.7	205.92	1.4842e-06	1.3742e-06	262.22	72.91	57.203	16.547	1.5332e-06	22.862	278.869	228.699	191.072	110.494	257.458	259.308	110.748	118.194	274.914	258.213	117.731	125.047	125.410	132.094	272.169	131.511	-8191	255	
50765.301	1	1	0	0	0.15856	0.071701	0.14303	0.42133	0.16934	0.046449	0.068228	0.11701	0.21774	0.22383	0.23742	0.060654	0.11471	0.14464	0.22392	0.15955	-4.4958	-4.1958	-5.1542	-4.6438	-4.3646	-5.0667	-4.4104	-4.6667	-4.9417	-4.1708	-5.1083	-4.5979	-4.3208	-5.1792	-4.3292	-4.75	338.887	158.273	376.647	412.341	139.125	191.841	401.878	131.982	403.385	441.710	150.024	309.075	389.003	247.002	432.493	233.848	0.00031219	0.00029569	3.0953e-05	977.26	3.5808e-06	3.6188e-06	1067	207.5	3.03e-06	2.0713e-06	260.93	72.792	57.232	16.134	3.4471e-06	22.272	0.00016759	0.00013211	3.34e-05	974.85	1.7185e-06	1.3748e-06	1061.9	206.34	1.5143e-06	1.4309e-06	262.02	73.061	57.102	16.478	1.5457e-06	22.825	277.272	193.056	202.709	110.345	269.290	260.485	110.912	118.229	288.725	261.672	117.709	125.365	125.372	132.581	240.337	131.797	-8191	255	
50765.395	1	1	0	0	0.18385	0.26916	0.10695	0.10247	0.17131	0.15411	0.23525	0.23374	0.076315	0.11358	0.27419	0.13834	0.031622	0.28805	0.101	0.098963	-4.6958	-4.1375	-5.025	-4.7937	-4.3187	-5.0792	-4.5521	-4.5542	-4.8688	-4.075	-4.9542	-4.7417	-4.1167	-5.1312	-4.2833	-4.4563	210.028	205.394	387.255	416.319	381.871	242.241	401.087	402.824	414.766	298.047	384.939	335.921	284.411	192.606	136.286	288.050	0.00035481	0.00026766	4.6443e-05	982	3.7173e-06	1.1583e-06	1069.1	207.04	2.9638e-06	1.177e-06	262.13	73.002	56.826	16.268	3.8819e-06	22.211	0.00016823	0.00014222	3.5083e-05	976.52	1.7411e-06	1.4019e-06	1061.6	205.98	1.5033e-06	1.4573e-06	261.88	73.014	56.932	16.532	1.4614e-06	22.802	279.096	157.171	178.251	110.689	282.268	271.827	110.826	118.395	247.271	240.701	117.499	124.920	125.510	132.290	253.113	131.559	-8191	255	
50765.492	1	1	0	0	0.25784	0.034731	0.11054	0.18738	0.17872	0.12433	0.22769	0.13907	0.16051	0.17872	0.071655	0.1795	0.085857	0.18714	0.051137	0.11575	-4.6562	-4.0875	-4.8729	-4.9583	-4.0813	-5.2896	-4.5271	-4.4104	-4.9708	-4.05	-4.9771	-4.9604	-4.225	-5.0188	-4.5875	-4.3833	226.222	251.957	423.126	334.217	106.319	336.258	334.440	324.306	147.464	182.137	192.172	136.358	146.267	413.994	203.619	308.659	0.00031352	0.00024331	5.3051e-05	981.32	3.9256e-06	5.0571e-06	1071.6	206.34	3.5364e-06	2.7781e-06	261.13	72.563	56.942	16.203	3.4364e-06	22.477	0.00017094	0.00013359	3.4673e-05	976.53	1.5605e-06	1.2678e-06	1063.2	205.77	1.5076e-06	1.3902e-06	262.12	73.044	57.134	16.514	1.6546e-06	22.905	283.017	178.604	198.600	110.671	275.297	261.196	110.962	118.260	279.206	249.061	117.430	125.026	125.563	132.404	255.486	131.854	-8191	255	
50765.590	1	1	0	0	0.052858	0.19456	0.16463	0.16629	0.11699	0.052459	0.06176	0.029532	0.28165	0.16339	0.1668	0.22296	0.20608	0.075722	0.053185	0.053371	-4.9396	-4.1521	-4.7104	-4.975	-4.0708	-5.1083	-4.7042	-4.3854	-5.0958	-4.2479	-4.7604	-4.9583	-4.1729	-5.0708	-4.5333	-4.3063	416.543	333.837	428.285	423.810	142.335	315.353	115.995	151.076	447.884	182.737	416.344	120.726	422.582	235.296	355.220	243.757	0.0003171	0.00017591	7.3628e-05	982.52	5.4618e-06	2.6192e-06	1066.8	206.18	3.6591e-06	1.9263e-06	260.83	72.714	56.7	16.076	3.3665e-06	22.132	0.00017993	0.00014326	4.0746e-05	975.79	1.805e-06	1.4637e-06	1058.7	205.51	1.4861e-06	1.4533e-06	261.19	72.889	56.925	16.362	1.428e-06	22.675	277.704	202.725	189.628	110.676	260.853	241.802	110.900	118.051	264.834	239.093	117.786	125.489	125.596	132.075	262.311	131.775	-8191	255	
50765.684	1	1	0	0	0.16406	0.2276	0.060348	0.12688	0.091201	0.13688	0.16372	0.24076	0.055011	0.16707	0.13758	0.13867	0.15399	0.054646	0.065777	0.11889	-4.9208	-4.2021	-4.6875	-5.1542	-3.9417	-4.7625	-4.7688	-4.1854	-4.9958	-4.3646	-4.4833	-5.0958	-4.0958	-4.9563	-4.8146	-4.0854	345.823	293.906	238.218	449.831	102.909	159.193	100.182	414.006	198.747	426.779	249.404	150.669	283.378	369.552	221.019	222.928	0.00030113	0.00013696	8.2841e-05	979.6	4.2626e-06	3.559e-06	1067.7	205.13	2.6889e-06	3.5043e-06	261.03	72.4	56.255	15.906	1.8823e-06	22.111	0.00016958	0.00013596	3.6599e-05	972.96	1.578e-06	1.3615e-06	1056.8	205.06	1.4692e-06	1.3699e-06	260.39	72.466	56.75	16.272	1.3039e-06	22.626	276.089	176.769	186.338	110.567	279.369	250.221	110.795	118.133	282.108	253.726	118.043	125.330	125.603	132.272	246.231	132.236	-8191	255	
50765.781	1	1	0	0	0.25155	0.13918	0.15114	0.095321	0.19348	0.093817	0.15452	0.09948	0.052762	0.16236	0.13795	0.22907	0.15736	0.027207	0.23359	0.22675	-4.8063	-4.4167	-4.2771	-5.2146	-4.1979	-4.7625	-5	-4.2229	-4.9583	-4.5646	-4.4812	-5.0271	-4.2688	-4.75	-4.9208	-4.3	217.346	169.412	382.721	388.178	231.785	158.483	339.031	425.390	107.052	181.316	459.346	453.422	120.151	372.843	263.603	374.750	0.00030667	0.00014554	8.6709e-05	976	4.3292e-06	4.3158e-06	1063.7	204.71	4.0574e-06	2.9116e-06	259.87	71.982	56.358	16.06	3.1641e-06	22.138	0.00016901	0.00013128	3.3534e-05	970.18	1.5965e-06	1.2275e-06	1054.4	204.72	1.2447e-06	1.2396e-06	260.64	72.383	56.641	16.294	1.1011e-06	22.633	277.177	167.921	199.730	110.479	271.906	258.706	110.887	118.601	273.131	237.211	117.492	125.079	125.826	132.018	234.512	132.073	-8191	255	
50765.898	1	1	0	0	0.11556	0.15393	0.21262	0.16511	0.10814	0.047603	0.11053	0.25396	0.21337	0.079032	0.019776	0.12578	0.031629	0.012266	0.1069	0.046411	-4.6354	-4.5312	-4.2667	-5.1729	-4.2188	-4.6833	-5.1021	-4.1896	-5.0437	-4.6354	-4.1896	-4.9792	-4.4521	-4.7854	-4.8708	-4.1146	417.293	252.342	157.262	415.989	414.640	113.610	446.755	404.741	276.666	120.496	442.985	272.695	442.980	133.479	354.807	336.223	0.00035959	0.00029306	4.6576e-05	972.39	3.3775e-06	2.2483e-06	1055.7	203.61	3.4227e-06	3.0983e-06	258.08	72.678	56.276	15.757	2.2854e-06	22.071	0.00015278	9.8186e-05	3.036e-05	965.14	1.4363e-06	1.2109e-06	1048.9	203.49	1.2581e-06	1.22e-06	259.18	72.515	56.457	16.169	1.1879e-06	22.495	278.938	195.601	224.617	110.935	289.982	243.987	110.774	118.594	263.284	221.919	117.770	125.777	125.189	132.200	269.447	131.872	-8191	255	
50765.996	1	1	0	0	0.14826	0.030277	0.033007	0.2277	0.2554	0.22344	0.09952	0.083508	0.032304	0.090091	0.14849	0.16752	0.042283	0.21052	0.095722	0.041203	-4.4896	-4.6813	-4.2208	-5.1708	-4.4062	-4.5208	-5.1979	-4.2292	-4.7667	-4.8271	-4.1667	-4.9771	-4.4854	-4.3625	-5.1146	-4.1625	193.410	213.507	182.111	421.416	190.752	258.896	252.478	447.319	316.688	190.370	331.650	417.051	391.672	170.049	120.960	359.635	0.00031845	0.00020443	5.8709e-05	975.48	3.8636e-06	2.0571e-06	1051.3	204.74	4.5641e-06	3.531e-06	257.95	71.975	56.8	15.873	3.9966e-06	22.106	0.00015192	0.00010586	3.0737e-05	962.78	1.382e-06	1.1376e-06	1045.6	203.65	1.1943e-06	1.1032e-06	258.76	72.181	56.346	16.111	1.2774e-06	22.425	281.997	221.094	183.030	110.653	274.208	256.503	110.730	117.980	310.526	227.132	117.732	125.003	126.236	132.275	252.879	131.852	-8191	255	
50766.066	1	1	0	0	0.2085	0.33859	0.16275	0.13645	0.19546	0.13922	0.10883	0.16371	0.21962	0.13618	0.18113	0.33094	0.20021	0.32401	0.085607	0.17009	-4.4812	-4.8521	-4.2354	-5.1167	-4.4271	-4.3792	-5.1333	-4.3729	-4.6104	-4.8604	-4.2458	-5.0563	-4.6146	-4.4417	-5.0646	-4.3771	457.784	455.400	428.769	442.288	398.105	376.345	306.317	455.091	283.876	438.269	433.659	192.227	386.814	455.727	326.964	166.876	0.00031503	0.00029601	4.8008e-05	967.56	3.9701e-06	2.9185e-06	1056.4	202.82	4.0813e-06	2.337e-06	259.33	71.876	56.224	15.73	5.1216e-06	22.158	0.00014867	0.00010977	2.9553e-05	960.5	1.3431e-06	1.2472e-06	1044.4	202.88	1.2746e-06	1.0676e-06	258.61	71.947	56.298	16.04	1.0717e-06	22.384	276.493	167.868	209.858	110.562	258.518	262.809	110.875	118.318	261.860	250.942	117.690	125.147	125.427	132.880	242.106	131.439	-8191	255	
50766.164	1	1	0	0	0.1604	0.13768	0.12028	0.034687	0.16733	0.087091	0.18863	0.12715	0.082857	0.14052	0.14836	0.087002	0.16599	0.092043	0.10932	0.0081169	-4.3875	-4.9062	-3.9292	-5.025	-4.5896	-4.2354	-5.35	-4.4167	-4.4792	-5.0208	-4.1229	-4.9688	-4.7562	-4.2021	-5.0417	-4.3562	453.776	406.444	262.428	349.433	200.884	356.779	432.624	439.852	133.102	349.707	332.309	411.394	420.581	175.766	198.111	105.030	0.00030273	0.00018167	5.492e-05	966.56	4.5834e-06	2.7339e-06	1055.6	202.66	3.4631e-06	1.3862e-06	257.56	71.653	56.078	15.714	3.7896e-06	22.005	0.00015038	0.00010107	3.1992e-05	960.95	1.4154e-06	1.2122e-06	1044.7	202.09	1.2994e-06	1.0859e-06	257.26	71.651	55.964	16.001	1.2041e-06	22.267	278.137	208.802	198.811	110.675	275.486	241.756	110.733	118.692	288.535	203.207	117.604	124.849	125.881	132.327	245.509	131.223	-8191	255	
50766.285	1	1	0	0	0.01411	0.17507	0.049981	0.086632	0.0079727	0.019124	0.32799	0.16827	0.12083	0.14501	0.17661	0.092044	0.1725	0.25198	0.10608	0.18356	-4.1958	-5.0854	-4.0292	-5.1271	-4.7625	-4.2958	-5.3875	-4.4458	-4.3458	-4.9229	-4.2438	-4.7167	-5.0083	-4.0542	-5.1604	-4.4458	116.192	386.499	136.722	124.511	424.708	215.598	271.757	113.505	201.002	204.545	434.212	353.256	411.039	165.912	381.816	226.934	0.00031012	0.00026684	5.6497e-05	969.08	4.203e-06	1.4391e-06	1052.7	203.42	4.6338e-06	8.7754e-07	257.95	71.601	56.177	15.632	3.3043e-06	22.079	0.00015906	9.708e-05	3.1115e-05	959.76	1.3056e-06	1.154e-06	1040.8	202.11	1.3133e-06	1.0607e-06	256.72	71.485	55.903	15.917	1.055e-06	22.297	277.717	176.605	180.918	110.382	253.902	253.795	110.054	118.191	259.846	245.302	117.598	124.176	124.618	132.118	248.913	131.421	-8191	255	
50766.379	1	1	0	0	0.20096	0.147	0.33419	0.25555	0.17624	0.29961	0.12251	0.12656	0.1184	0.15186	0.050176	0.082795	0.20749	0.14347	0.12145	0.06684	-4.1021	-5.175	-4.0667	-4.7229	-4.9083	-4.1833	-5.0417	-4.6438	-4.3042	-5.0646	-4.225	-4.6333	-4.8417	-4.1667	-4.8375	-4.7417	242.604	257.437	368.209	410.157	431.624	457.724	370.424	190.017	197.959	275.177	100.707	421.474	339.717	419.606	153.131	378.431	0.00032348	0.00013709	6.8142e-05	961	3.5564e-06	2.1201e-06	1052	203.96	3.0682e-06	3.0665e-06	256.06	71.432	56.475	15.75	2.9848e-06	21.896	0.00015634	9.5123e-05	3.0238e-05	954.53	1.2115e-06	1.12e-06	1039.7	202.27	1.2543e-06	1.0521e-06	257.13	71.542	56.078	16.002	1.1278e-06	22.281	280.688	249.986	182.524	109.829	265.103	261.442	110.210	118.198	286.743	262.715	117.869	125.204	125.591	132.433	272.444	131.588	-8191	255	
50766.477	1	1	0	0	0.14168	0.21473	0.13434	0.29375	0.055461	0.094715	0.27948	0.12725	0.21421	0.16867	0.072166	0.16386	0.12518	0.30484	0.060863	0.22221	-3.9625	-5.0917	-4.1937	-4.7417	-5.0042	-4.1042	-5.1229	-4.7562	-4.1271	-5.0563	-4.4688	-4.4688	-5.1	-4.1208	-4.7896	-4.8792	120.365	365.866	402.445	385.857	218.732	175.686	363.557	121.680	228.112	113.352	335.320	346.932	274.200	135.051	273.078	133.310	0.00031323	0.00024895	7.5042e-05	962.25	4.5607e-06	2.7836e-06	1043.7	201.27	3.9355e-06	2.3044e-06	256.2	72.007	56.094	15.764	2.1919e-06	22.001	0.00015136	8.9042e-05	2.9144e-05	954	1.169e-06	1.0056e-06	1038.1	201.51	1.2834e-06	9.7688e-07	257.11	71.809	56.202	15.976	1.0496e-06	22.314	281.998	187.185	212.799	110.688	275.091	272.819	110.694	118.326	271.745	241.361	117.749	124.823	125.385	132.139	265.945	131.383	-8191	255	
50766.570	1	1	0	0	0.073679	0.21816	0.26489	0.16922	0.058186	0.22619	0.2601	0.050913	0.20694	0.1886	0.17258	0.090083	0.13686	0.08227	0.093189	0.11242	-3.9	-5.025	-4.525	-4.6208	-5.0333	-4.0938	-4.8979	-5.0104	-4.0771	-4.9812	-4.7292	-4.325	-5.1188	-4.1562	-4.5333	-5.0333	101.822	423.969	139.252	109.947	187.797	287.129	412.529	365.915	232.654	283.547	122.409	257.733	228.902	325.894	118.636	150.671	0.00032001	0.00019773	6.9006e-05	968.25	3.3575e-06	2.4175e-06	1049	204.12	4.4935e-06	1.3352e-06	257.64	71.696	56.461	15.899	3.8522e-06	21.87	0.00015485	9.8439e-05	2.7186e-05	956.81	1.2295e-06	1.1494e-06	1040	203.13	1.3446e-06	1.047e-06	257.87	71.847	56.156	16.007	1.131e-06	22.321	280.305	177.165	203.502	110.223	288.062	277.370	110.519	118.303	276.571	234.964	117.169	124.586	125.193	131.878	263.828	131.245	-8191	255	
50766.691	1	1	0	0	0.081646	0.045587	0.21057	0.0831	0.1323	0.21128	0.32302	0.29512	0.092384	0.09378	0.15825	0.077064	0.081799	0.2451	0.16886	0.062908	-3.7917	-4.8979	-4.5312	-4.3104	-5.0542	-4.1937	-4.7396	-4.975	-4.1896	-5.125	-4.7438	-4.1813	-5.1458	-4.2854	-4.5417	-4.9708	247.461	372.320	306.650	365.835	333.503	171.585	394.131	343.707	434.455	289.578	406.209	327.156	173.721	135.349	273.591	408.249	0.00031828	0.00022588	9.8967e-05	963.74	4.2059e-06	2.5394e-06	1049.5	202.51	4.349e-06	3.3404e-06	257.67	71.506	55.683	15.697	2.5134e-06	21.98	0.0001544	0.00010056	2.8427e-05	954.55	1.1644e-06	1.0952e-06	1040.7	202.4	1.3346e-06	1.0356e-06	257.66	71.787	56.014	16.015	1.224e-06	22.388	275.059	169.488	204.393	110.365	261.053	267.302	110.082	118.042	295.810	230.788	118.020	125.240	125.639	132.585	250.273	131.919	-8191	255	
50766.766	1	1	0	0	0.079127	0.087649	0.1068	0.39865	0.039854	0.17138	0.081395	0.32768	0.17142	0.11798	0.17523	0.16514	0.32759	0.15238	0.048095	0.041487	-3.7146	-4.7646	-4.8313	-4.2396	-5.1042	-4.3479	-4.5167	-4.9229	-4	-4.7646	-4.9125	-4.2375	-5.1188	-4.4958	-4.2125	-5.1417	296.614	208.910	431.731	354.672	200.311	399.491	416.633	388.893	353.041	231.157	348.184	397.421	398.857	448.280	442.274	262.768	0.00032832	0.00016168	7.053e-05	962.34	2.6731e-06	3.3221e-06	1050.5	204.55	3.5179e-06	3.5798e-06	257.69	71.301	56.186	15.705	2.6406e-06	21.937	0.00015112	0.00010613	2.7883e-05	956.43	1.3277e-06	1.0738e-06	1040.8	202.88	1.2865e-06	1.0892e-06	257.82	71.778	56.226	15.982	1.2007e-06	22.348	278.012	192.707	184.687	110.589	278.210	251.565	110.628	118.478	266.286	257.246	118.058	125.434	125.545	132.512	248.810	131.856	-8191	255	
50766.887	1	1	0	0	0.16073	0.11643	0.14584	0.048705	0.17969	0.06912	0.21008	0.13997	0.032836	0.089177	0.089799	0.1983	0.075136	0.063767	0.1085	0.27867	-3.8042	-4.7021	-4.8708	-4.075	-5.1854	-4.6062	-4.4458	-5.2271	-4.1104	-4.7812	-5.0292	-4.2021	-5.0625	-4.7708	-4.2708	-5.1521	180.315	250.307	213.649	342.374	165.507	282.010	106.605	172.249	421.694	443.424	132.271	107.489	116.818	164.559	243.243	387.702	0.00031017	0.00020506	6.6386e-05	962.52	5.0381e-06	2.5233e-06	1051.1	203.74	3.9401e-06	2.0105e-06	256.32	71.853	55.657	15.805	4.0325e-06	21.762	0.0001567	0.00011101	2.9259e-05	957.39	1.304e-06	1.1172e-06	1042.4	203.17	1.2196e-06	1.2665e-06	257.56	71.9	56.154	16.086	1.2176e-06	22.342	278.919	177.451	199.476	110.618	284.529	204.303	110.691	118.324	281.361	270.800	118.170	125.232	125.151	132.743	264.195	132.031	-8191	255	
50766.980	1	1	0	0	0.035488	0.14042	0.17876	0.1572	0.099735	0.14714	0.17333	0.12311	0.12198	0.12314	0.22641	0.080069	0.050401	0.1578	0.10214	0.14779	-3.9542	-4.5292	-4.9854	-4.3208	-4.9958	-4.7812	-4.3854	-5.1896	-4.2208	-4.4625	-5.1125	-4.3271	-4.8104	-4.8375	-4.1062	-5.1875	272.978	408.320	182.007	372.817	248.593	344.055	399.233	451.610	440.623	362.112	392.511	396.409	224.547	231.871	317.100	318.252	0.00034296	0.00023108	6.2668e-05	965.07	4.6311e-06	3.0306e-06	1052.3	203.85	3.6677e-06	2.632e-06	256.41	71.779	55.878	15.735	2.4697e-06	22.058	0.00016333	0.00010754	2.5707e-05	959.21	1.3301e-06	1.1238e-06	1043.3	203.1	1.391e-06	1.2241e-06	257.49	71.928	56.355	16.06	1.2718e-06	22.442	276.158	159.117	211.861	110.579	263.014	254.258	110.688	118.256	269.003	235.836	117.903	125.267	125.820	132.722	270.510	131.531	-8191	255	
50767.074	1	1	0	0	0.099219	0.11515	0.076689	0.14925	0.024197	0.23484	0.21783	0.16697	0.08897	0.10736	0.2946	0.12316	0.16504	0.17501	0.20748	0.22056	-4.1979	-4.3979	-4.9646	-4.1417	-4.8021	-4.7208	-4.3083	-4.9896	-4.4437	-4.5583	-5.2896	-4.2146	-4.8771	-4.9437	-4.2146	-5.2	107.911	310.831	131.212	439.041	166.768	139.679	324.426	385.146	285.434	399.800	389.712	129.610	247.389	344.424	104.332	214.922	0.00032275	0.00027896	8.4555e-05	966.05	4.6726e-06	1.4277e-06	1048.7	203.36	3.7659e-06	2.0323e-06	259.02	71.588	56.624	15.79	2.6876e-06	21.967	0.00016198	0.00010503	2.7531e-05	961.52	1.3445e-06	1.1139e-06	1042.2	203.06	1.3054e-06	1.2731e-06	258.35	71.747	56.305	16.086	1.1492e-06	22.387	279.976	179.539	197.658	110.698	244.354	235.348	110.851	118.520	265.254	295.124	118.556	125.254	125.262	132.757	261.675	131.556	-8191	255	
50767.172	1	1	0	0	0.16689	0.30154	0.14795	0.073179	0.16802	0.039853	0.035215	0.11435	0.11731	0.099564	0.037697	0.22711	0.081804	0.22806	0.26324	0.16373	-4.3104	-4.3271	-5.1875	-4.375	-4.6917	-5.1625	-4.2646	-5.0354	-4.6854	-4.2396	-5.2167	-4.3333	-4.6167	-5.0896	-4.1208	-4.9917	272.647	213.341	341.693	132.989	406.037	170.780	189.201	105.823	168.670	224.553	201.142	403.086	189.333	422.996	209.704	252.186	0.00036397	0.00024895	7.8741e-05	964.06	4.7861e-06	2.7268e-06	1051.1	203.33	3.2554e-06	3.4633e-06	258.72	72.011	56.379	15.698	2.7973e-06	21.994	0.00016253	0.00010632	2.9867e-05	958.86	1.4308e-06	1.0636e-06	1041.6	202.82	1.2194e-06	1.108e-06	258.64	72.003	56.143	16.105	1.1835e-06	22.415	278.990	197.046	203.105	110.575	253.820	291.668	110.921	118.568	261.298	255.881	117.907	125.380	125.585	132.299	272.431	131.899	-8191	255	
50767.293	1	1	0	0	0.19153	0.0613	0.025318	0.1104	0.08297	0.068539	0.26951	0.096871	0.12854	0.060748	0.23769	0.053904	0.23305	0.10494	0.14574	0.13884	-4.6667	-4.1854	-5.0188	-4.5354	-4.3063	-5.075	-4.3104	-4.8875	-4.8229	-4.1417	-5.3167	-4.6312	-4.5938	-5.2354	-4.2188	-5.0396	450.351	159.893	342.734	440.009	248.136	279.376	329.483	445.898	151.777	417.006	405.007	258.146	397.258	231.689	312.590	195.570	0.00035542	0.00019561	4.2713e-05	963.06	4.8985e-06	3.0698e-06	1049.6	203.43	3.9004e-06	2.7184e-06	257.81	71.272	55.926	15.91	2.0836e-06	22.188	0.00015996	0.00011224	2.469e-05	959.99	1.3695e-06	1.1106e-06	1043.4	202.97	1.1766e-06	1.1392e-06	258.95	71.731	56.309	16.175	1.183e-06	22.433	274.513	177.982	184.146	110.632	268.009	246.617	110.593	118.715	284.905	279.591	118.094	125.518	125.146	132.300	261.182	131.745	-8191	255	
50767.363	1	1	0	0	0.17436	0.068471	0.081364	0.25376	0.11913	0.10384	0.14461	0.10386	0.16271	0.026439	0.12995	0.08808	0.17122	0.22951	0.25517	0.10842	-4.7	-3.9292	-5.2667	-4.6396	-4.3792	-5.2333	-4.5333	-4.8313	-4.95	-4.0833	-5.1146	-4.6021	-4.3562	-5.1813	-4.1583	-4.6021	377.446	397.568	437.632	434.626	169.608	271.204	439.313	407.345	293.450	123.286	391.779	376.278	111.380	109.888	402.009	225.720	0.00034643	0.00026657	8.2031e-05	964.95	3.7502e-06	2.008e-06	1049	203.3	4.4126e-06	1.7821e-06	259.27	71.376	56.48	15.899	2.4483e-06	21.849	0.00015716	0.0001141	2.661e-05	959.75	1.3333e-06	9.5305e-07	1042.6	202.69	1.2191e-06	1.2505e-06	258.43	71.845	56.382	16.149	1.222e-06	22.378	277.580	164.179	188.040	110.770	262.295	262.367	110.412	118.372	291.911	200.854	117.619	125.429	125.364	132.915	234.084	131.907	-8191	255	
50767.461	1	1	0	0	0.038786	0.19348	0.12667	0.16827	0.043242	0.074292	0.29627	0.18907	0.077649	0.0058295	0.20924	0.061947	0.083565	0.11333	0.15699	0.187	-4.8958	-4.1479	-4.9812	-4.8771	-4.3625	-5.3938	-4.625	-4.5729	-4.9875	-4.1583	-5.0479	-4.9187	-4.2917	-5.0521	-4.3417	-4.3958	192.379	204.741	413.431	119.214	272.945	325.573	423.748	350.270	150.245	306.290	405.681	335.608	173.299	165.398	276.248	365.137	0.00035206	0.00025811	5.9461e-05	964.49	4.4662e-06	3.6195e-06	1055.4	202.56	4.3352e-06	3.3168e-06	257.39	71.658	56.314	15.885	3.6385e-06	22.202	0.00015596	0.0001074	2.6744e-05	960.6	1.418e-06	1.0638e-06	1044.1	202.94	1.2198e-06	1.2363e-06	258.49	71.823	56.274	16.141	1.173e-06	22.462	276.422	192.074	197.090	110.591	296.422	259.744	110.720	118.567	284.669	232.578	117.650	125.279	125.613	132.893	256.045	131.525	-8191	255	
50767.555	1	1	0	0	0.13027	0.14118	0.22722	0.16324	0.091674	0.13229	0.10523	0.0555	0.068881	0.042693	0.21728	0.20066	0.11691	0.083144	0.139	0.22022	-4.6771	-4.1229	-4.7188	-5.0167	-4.025	-5.15	-4.6312	-4.5229	-5.0667	-4.1854	-4.7896	-4.9542	-4.2875	-5.0375	-4.6542	-4.4313	323.364	457.077	168.771	352.901	353.683	363.227	414.557	393.665	193.584	428.225	400.701	407.229	224.008	209.400	212.678	218.195	0.00034243	0.0002147	6.9123e-05	971.07	5.3194e-06	3.297e-06	1057	203.55	2.3014e-06	2.0583e-06	258.49	71.883	56.874	15.893	3.4968e-06	22.092	0.00015585	0.000115	2.7442e-05	961.26	1.4305e-06	1.0444e-06	1044.4	202.81	1.2e-06	1.1019e-06	258.81	72.023	56.53	16.162	1.1869e-06	22.428	278.833	194.868	206.768	110.734	265.196	261.962	110.812	118.193	280.501	250.778	118.133	125.150	125.467	132.345	212.792	131.610	-8191	255	
50767.676	1	1	0	0	0.24111	0.15604	0.29543	0.019877	0.13532	0.066304	0.092369	0.25426	0.12012	0.11506	0.080962	0.21215	0.1027	0.1981	0.17159	0.061937	-4.8333	-4.2083	-4.6792	-5.1396	-4.1021	-5.0917	-4.8229	-4.3104	-5.0271	-4.4521	-4.8375	-5.0979	-4.3063	-4.9083	-4.8167	-4.4271	441.112	414.335	430.488	328.519	387.230	450.709	390.799	399.462	119.599	326.527	148.619	414.257	375.449	256.949	323.048	127.994	0.00033202	0.00017613	5.2019e-05	963.54	3.6447e-06	1.3968e-06	1048.4	202.8	4.1777e-06	3.0147e-06	259.24	71.811	56.435	15.915	3.4266e-06	21.883	0.00015532	0.00011318	2.8427e-05	959.48	1.395e-06	1.0631e-06	1043.3	202.87	1.2206e-06	1.2249e-06	258.61	72.052	56.311	16.193	1.1671e-06	22.416	280.791	223.172	204.829	110.981	243.231	263.613	110.675	118.324	288.283	198.820	117.643	125.329	125.344	132.443	261.803	131.922	-8191	255	
50767.770	1	1	0	0	0.092382	0.31299	0.20066	0.14371	0.24927	0.1511	0.16553	0.28804	0.033844	0.089244	0.12338	0.1793	0.031907	0.14882	0.07868	0.12761	-4.825	-4.3021	-4.5021	-5.1438	-4.2583	-4.8458	-4.9688	-4.1208	-5.075	-4.3792	-4.3958	-5.1625	-4.2167	-4.9042	-4.975	-4.225	270.954	418.767	179.646	450.771	131.664	392.490	115.087	425.376	320.555	113.874	140.108	205.571	431.661	270.590	161.788	322.994	0.0003331	0.00014148	8.4383e-05	968.05	2.6435e-06	1.7103e-06	1054.5	204	4.3875e-06	3.5326e-06	260.03	71.494	56.441	15.942	3.2691e-06	22.086	0.00015368	0.0001124	2.8555e-05	962.41	1.3083e-06	1.1494e-06	1044.7	202.9	1.2323e-06	1.1451e-06	259.17	72.037	56.397	16.208	1.2063e-06	22.488	280.136	196.959	193.602	110.779	276.266	294.979	110.769	118.421	273.276	254.674	117.732	124.961	125.491	132.646	263.038	131.636	-8191	255	
50767.867	1	1	0	0	0.23335	0.06487	0.11523	0.21256	0.16056	0.18035	0.14757	0.071419	0.11268	0.29498	0.22996	0.18442	0.070894	0.16843	0.12699	0.09111	-4.8604	-4.3375	-4.4021	-5.2188	-4.3729	-4.7021	-5.1708	-4.2958	-4.9646	-4.6792	-4.4208	-5.0854	-4.1417	-4.7354	-4.9583	-4.2188	147.017	186.351	257.573	354.889	146.710	385.715	419.226	377.537	340.110	456.290	421.714	410.457	143.484	115.927	250.950	106.437	0.00032637	0.00028656	6.5149e-05	967.6	3.5612e-06	2.5929e-06	1055.8	202.97	4.1697e-06	1.746e-06	259.37	71.977	56.446	16.03	5.3482e-06	22.099	0.00014938	0.00011765	3.0616e-05	963.95	1.4264e-06	1.1241e-06	1047	202.95	1.3398e-06	1.1662e-06	258.71	72.271	56.513	16.273	1.1558e-06	22.53	279.331	184.613	199.015	110.859	277.348	278.138	110.687	118.558	264.404	269.681	118.133	125.014	125.261	131.894	267.917	131.358	-8191	255	
50767.965	1	1	0	0	0.30726	0.11534	0.042457	0.36548	0.19216	0.09609	0.19247	0.22094	0.2766	0.083046	0.10458	0.012329	0.07981	0.039349	0.030241	0.15701	-4.7083	-4.6396	-4.3729	-5.3354	-4.4333	-4.6979	-5.1021	-4.1875	-5.0021	-4.7333	-4.3396	-5.1625	-4.3292	-4.4542	-5.0479	-4.2562	395.857	375.739	183.356	454.375	241.389	202.249	456.860	271.971	104.708	416.381	168.827	368.870	155.690	148.925	396.537	266.080	0.00033731	0.00028138	4.4606e-05	967.07	3.8155e-06	3.011e-06	1055.8	203.35	3.8175e-06	3.3175e-06	257.56	71.937	56.565	16.012	3.9597e-06	22.301	0.00015316	0.00011288	2.9797e-05	963.07	1.462e-06	1.0952e-06	1047.7	203.22	1.3128e-06	1.0869e-06	258.68	72.117	56.607	16.283	1.2068e-06	22.603	275.343	201.378	192.317	110.348	275.818	284.526	110.842	118.595	282.228	254.735	117.834	125.198	125.416	132.393	288.561	131.559	-8191	255	
50768.059	1	1	0	0	0.2199	0.16049	0.15196	0.32331	0.089968	0.11372	0.11289	0.13206	0.114	0.054864	0.032033	0.10715	0.14307	0.19454	0.24109	0.08188	-4.575	-4.8271	-4.0938	-5.2854	-4.4688	-4.3042	-5.2542	-4.3125	-4.6542	-4.9708	-4.1813	-5.1188	-4.5625	-4.3792	-5.0417	-4.1917	310.116	406.073	114.467	415.869	124.143	229.965	261.108	414.226	179.733	180.891	335.948	132.596	390.143	333.860	251.428	351.996	0.00035969	0.00021935	6.6737e-05	972.75	3.5001e-06	3.085e-06	1058.8	203.2	5.2659e-06	3.2405e-06	258.24	72.092	56.207	16.036	3.362e-06	22.142	0.00016498	0.00011479	3.3112e-05	964.79	1.4094e-06	1.1637e-06	1049.6	202.99	1.2074e-06	1.1796e-06	258.92	72.239	56.386	16.231	1.1524e-06	22.557	279.072	209.524	200.653	110.520	276.742	268.916	110.805	118.360	282.898	292.997	117.791	125.314	125.744	132.819	278.802	131.546	-8191	255	
50768.156	1	1	0	0	0.078146	0.14602	0.14384	0.20175	0.061441	0.066575	0.20712	0.10029	0.12067	0.14946	0.079995	0.12604	0.15523	0.21044	0.27611	0.058041	-4.6104	-4.8375	-4.0979	-5.0875	-4.5563	-4.3625	-5.3125	-4.1937	-4.6771	-5.075	-4.2958	-4.9521	-4.6479	-4.2188	-5.0625	-4.4854	372.518	219.083	447.490	454.514	454.328	271.689	309.382	404.299	283.483	400.881	110.021	129.646	160.005	456.706	180.698	451.417	0.00033476	0.00022384	3.8815e-05	965.61	4.3458e-06	2.9664e-06	1062.2	203.38	2.6351e-06	2.2159e-06	259.07	72.208	56.022	15.943	2.697e-06	22.251	0.00015592	0.00010279	3.1793e-05	963.1	1.3335e-06	1.1787e-06	1049.1	203.53	1.1785e-06	1.1039e-06	258.55	72.326	56.38	16.273	1.0288e-06	22.587	276.741	194.815	208.787	110.577	260.332	274.947	110.726	118.510	280.115	241.698	117.535	125.192	125.774	132.600	270.636	131.359	-8191	255	
50768.254	1	1	0	0	0.34717	0.11603	0.27515	0.15988	0.082571	0.21948	0.17268	0.24975	0.16378	0.11404	0.12726	0.17618	0.27205	0.11549	0.23985	0.074306	-4.2188	-5.2208	-4.0792	-5.0292	-4.8667	-4.125	-5.2208	-4.6771	-4.3375	-5.1312	-4.2188	-4.9229	-4.9104	-4.2542	-5.075	-4.5583	252.883	205.559	255.267	439.973	354.888	375.300	412.952	410.444	206.191	359.554	413.298	455.593	445.278	424.011	159.253	249.386	0.00032825	0.00020451	4.1297e-05	966.64	2.5991e-06	2.6593e-06	1057.1	203.59	3.2354e-06	3.3341e-06	256.86	71.43	56.307	15.943	1.5216e-06	22.159	0.00015502	0.00010176	2.9355e-05	963.15	1.3369e-06	1.1821e-06	1047.9	203.29	1.3181e-06	1.0927e-06	258.62	72.179	56.606	16.243	1.0984e-06	22.548	280.031	195.916	199.828	110.613	276.945	230.080	110.930	118.537	283.201	236.610	117.664	125.694	125.654	132.674	240.148	131.356	-8191	255	
50768.371	1	1	0	0	0.044238	0.24969	0.11959	0.17337	0.15204	0.15963	0.084582	0.105	0.08617	0.15365	0.19559	0.080132	0.19012	0.19155	0.11947	0.14765	-3.9042	-5.0479	-3.9437	-4.9208	-4.7625	-4.0375	-5.2479	-4.6271	-4.2417	-5.1813	-4.2729	-4.6687	-4.8896	-4.2354	-5.2167	-4.6083	366.704	345.344	430.059	431.373	276.267	348.574	423.614	104.435	143.768	182.940	134.631	355.863	100.675	199.069	128.135	289.317	0.0003338	0.00026594	6.2365e-05	967.2	4.8609e-06	3.2868e-06	1060.7	203.14	3.5279e-06	2.3064e-06	258.9	71.867	56.639	16.018	3.5925e-06	22.242	0.00016298	0.00010378	3.1269e-05	963.76	1.3393e-06	1.2247e-06	1051.8	203.45	1.3704e-06	1.1316e-06	259.16	72.261	56.641	16.346	1.2083e-06	22.64	279.127	163.283	206.939	110.774	269.100	247.938	110.902	118.330	281.029	230.522	117.497	125.398	125.112	132.600	255.597	131.925	-8191	255	
50768.469	1	1	0	0	0.097304	0.17996	0.071915	0.31923	0.14447	0.23973	0.13015	0.15739	0.035435	0.28151	0.32791	0.2268	0.16601	0.26285	0.089705	0.1749	-4.0417	-5.175	-4.4062	-4.8562	-4.9417	-4.15	-5.0188	-4.675	-4.0833	-5.2438	-4.3667	-4.5521	-4.9708	-4.3021	-4.7667	-4.8125	429.516	134.181	373.030	419.740	238.459	243.146	115.843	423.541	214.547	146.298	101.721	158.705	343.508	231.195	313.887	387.766	0.00030076	0.00020992	8.225e-05	974.87	3.4588e-06	2.928e-06	1063	202.76	4.4276e-06	2.9066e-06	259.36	72.209	56.883	16.04	2.8922e-06	22.226	0.00016008	0.00011072	3.1844e-05	968.94	1.3664e-06	1.1672e-06	1053.5	203.55	1.3262e-06	1.1718e-06	259.17	72.451	56.773	16.324	1.2188e-06	22.583	275.878	187.494	201.329	110.280	266.040	265.417	110.727	118.273	265.338	265.617	117.591	125.054	125.542	132.497	250.617	131.357	-8191	255	
50768.562	1	1	0	0	0.12822	0.22108	0.038907	0.20058	0.24069	0.18416	0.26961	0.067064	0.12973	0.11153	0.17159	0.086391	0.10319	0.089598	0.15205	0.20221	-3.8958	-5.0437	-4.4771	-4.4833	-4.9771	-4.1167	-4.9146	-4.8479	-4.1021	-4.9958	-4.5583	-4.5521	-5.2208	-4.225	-4.7208	-4.9583	248.553	178.476	323.951	413.611	374.455	264.294	368.047	127.532	204.455	226.361	290.357	417.671	370.615	316.012	426.595	435.877	0.00035816	0.00028827	5.4148e-05	981.12	3.212e-06	1.2249e-06	1058.8	203.79	4.2311e-06	2.6169e-06	260.37	72.358	56.85	16.13	3.3103e-06	22.191	0.00016711	0.00010436	3.0641e-05	971.29	1.377e-06	1.3258e-06	1052.2	203.73	1.419e-06	1.0742e-06	260.09	72.467	56.817	16.363	1.1953e-06	22.608	277.531	177.388	189.656	110.447	262.385	233.637	110.586	118.303	276.828	275.094	117.747	124.988	125.626	132.714	261.966	131.495	-8191	255	
50768.660	1	1	0	0	0.1989	0.19205	0.19093	0.20164	0.24892	0.072744	0.32255	0.01443	0.065246	0.13848	0.18261	0.16972	0.10687	0.097	0.15957	0.11728	-3.7938	-5.0208	-4.4771	-4.525	-5.1146	-4.0875	-4.8562	-5.0563	-4.2042	-4.9667	-4.7063	-4.425	-5.2104	-4.1333	-4.6188	-5.1917	297.312	180.069	429.823	148.689	384.717	129.365	384.412	267.011	349.053	400.508	418.333	352.734	118.784	402.750	431.478	239.844	0.00029161	0.0003733	5.6364e-05	982.32	5.4515e-06	3.9201e-06	1065.2	204.67	3.5026e-06	1.8555e-06	260.13	72.719	56.761	16.009	3.8159e-06	22.337	0.00015544	0.00011072	3.2369e-05	972.77	1.3371e-06	1.277e-06	1057.4	204.16	1.4127e-06	1.1916e-06	260.48	72.744	56.758	16.378	1.222e-06	22.638	277.632	178.688	223.372	110.326	273.197	244.389	110.826	118.399	284.740	298.488	117.809	124.887	125.559	132.569	258.271	131.656	-8191	255	
50768.758	1	1	0	0	0.1295	0.13655	0.19176	0.10368	0.16347	0.25708	0.22413	0.20068	0.083464	0.05898	0.18415	0.34402	0.10408	0.37363	0.091253	0.12002	-3.6875	-5.0208	-4.8146	-4.5062	-5.4292	-4.2479	-4.7354	-5.3438	-4.1875	-4.8542	-4.8229	-4.3063	-5.2083	-4.4187	-4.4646	-5.175	172.707	353.496	409.016	452.308	347.805	138.702	395.978	148.015	132.107	182.492	421.194	236.960	318.904	439.780	234.766	423.427	0.00033531	0.00021884	6.2881e-05	981.97	3.724e-06	2.8324e-06	1063.7	204.13	2.0912e-06	3.372e-06	259.68	72.902	56.416	16.03	1.2816e-06	22.343	0.00016498	0.00010275	3.0552e-05	972.49	1.371e-06	1.1593e-06	1057.7	203.87	1.3862e-06	1.1677e-06	259.29	72.731	56.883	16.412	1.1989e-06	22.776	277.551	163.425	205.085	110.566	252.667	239.237	110.765	118.464	270.675	255.601	117.787	124.949	126.093	132.376	230.928	131.605	-8191	255	
50768.852	1	1	0	0	0.057176	0.23748	0.16558	0.13115	0.17604	0.13774	0.22035	0.15267	0.18369	0.13377	0.13495	0.24586	0.08354	0.15882	0.26377	0.094332	-3.8104	-4.975	-4.9104	-4.3771	-5.2167	-4.5958	-4.4521	-5.2708	-4.2583	-4.7083	-5	-4.275	-5.1271	-4.6021	-4.3313	-5.2	139.129	404.747	271.311	105.280	393.049	120.350	370.954	253.330	314.468	393.303	131.612	292.995	112.492	398.586	138.163	302.263	0.00028636	0.00019863	4.1034e-05	972.07	4.0305e-06	1.7473e-06	1066.8	205.29	2.5194e-06	2.9788e-06	258.23	72.564	56.634	15.986	2.8279e-06	22.323	0.00015723	0.00011154	3.1505e-05	970.33	1.4272e-06	1.1563e-06	1057.4	204.47	1.4063e-06	1.2223e-06	259.77	72.592	56.841	16.381	1.3684e-06	22.72	275.347	171.976	217.540	110.792	261.214	257.886	110.691	118.432	271.349	243.059	118.221	124.868	125.769	132.352	247.456	131.689	-8191	255	
50768.973	1	1	0	0	0.13855	0.092289	0.11147	0.19392	0.072498	0.15557	0.1591	0.096637	0.14041	0.21365	0.29278	0.14589	0.025657	0.23844	0.055491	0.16402	-3.9729	-4.6188	-5.0271	-4.1979	-5.0667	-4.5667	-4.4958	-5.1521	-4.2354	-4.5771	-5.1458	-4.0813	-4.9563	-4.5979	-4.1729	-5.2063	358.929	129.466	253.649	357.039	156.595	364.964	450.731	448.124	367.327	253.178	406.768	177.974	413.088	440.888	247.792	344.049	0.00030987	0.00032296	7.8992e-05	981.44	4.3812e-06	2.5323e-06	1065	204.69	4.6076e-06	4.2784e-06	259.03	72.19	56.716	16.249	4.2295e-06	22.338	0.00015894	0.0001226	2.8683e-05	973.36	1.4298e-06	1.1376e-06	1056.2	204.54	1.3833e-06	1.2406e-06	260.02	72.55	56.922	16.447	1.2551e-06	22.758	281.971	203.062	204.183	110.492	273.240	228.167	110.666	118.580	264.193	203.961	117.762	125.174	125.368	132.277	247.542	131.715	-8191	255	
50769.070	1	1	0	0	0.22435	0.1476	0.11122	0.15988	0.14649	0.3584	0.12588	0.13719	0.27657	0.11981	0.24639	0.067576	0.13851	0.15558	0.13457	0.13098	-3.9313	-4.4542	-5.0167	-4.2625	-4.8167	-4.7646	-4.225	-5.1417	-4.4083	-4.4792	-5.0146	-4.1104	-4.8125	-4.7354	-4.0917	-5.2188	390.104	366.526	435.259	385.264	304.484	143.838	409.221	113.214	436.855	125.484	418.748	220.162	182.296	169.782	313.279	137.979	0.00030496	0.00014805	6.5012e-05	977.31	3.206e-06	3.5621e-06	1071.4	205.73	3.6469e-06	2.0554e-06	260.39	72.331	57.134	16.167	4.0678e-06	22.445	0.00016578	0.00011196	2.8024e-05	971.55	1.3112e-06	1.2643e-06	1058	204.44	1.2863e-06	1.1618e-06	260.49	72.661	57.045	16.465	1.327e-06	22.785	281.898	183.469	185.289	110.628	252.896	257.703	110.871	118.356	271.570	261.432	117.891	125.177	125.578	132.866	260.196	131.602	-8191	255	
50769.164	1	1	0	0	0.21482	0.10846	0.17543	0.16007	0.22406	0.057148	0.060574	0.072297	0.2225	0.062153	0.25708	0.12698	0.085597	0.043381	0.068094	0.17556	-4.2625	-4.3542	-5.0104	-4.3833	-4.6729	-4.8458	-4.275	-5.0583	-4.5646	-4.3708	-5.3208	-4.1562	-4.8167	-4.9979	-4.2417	-5.05	333.607	342.256	343.564	360.594	257.192	282.596	365.893	168.693	406.579	335.964	376.441	427.697	330.987	131.683	236.238	436.994	0.00031556	0.00036477	4.9945e-05	980.08	4.9947e-06	4.4146e-06	1063.5	205.61	5.317e-06	2.1593e-06	260.62	73.05	57.147	16.119	3.3391e-06	22.277	0.00015991	0.00011131	2.8325e-05	975.49	1.3467e-06	1.2255e-06	1057.9	204.31	1.4144e-06	1.1761e-06	260.84	72.836	57.059	16.489	1.2872e-06	22.813	277.606	179.143	177.697	110.581	286.082	285.054	110.676	118.239	256.447	237.929	117.972	125.449	125.404	132.241	279.405	131.635	-8191	255	
50769.234	1	1	0	0	0.19779	0.12984	0.13178	0.30086	0.10958	0.054767	0.22459	0.12137	0.048506	0.15227	0.0099796	0.32526	0.027145	0.11169	0.13866	0.13885	-4.45	-4.1792	-5.1583	-4.4167	-4.5563	-5.225	-4.4229	-5.0542	-4.7292	-4.3417	-5.2417	-4.4604	-4.5312	-5.1521	-4.275	-4.8979	229.336	224.044	333.975	459.078	413.000	276.497	413.155	323.389	214.025	267.796	107.753	441.522	434.631	274.280	209.395	437.456	0.00031234	0.00030701	6.4977e-05	982.7	4.821e-06	1.1767e-06	1077	205.27	4.0608e-06	3.4299e-06	259.76	72.235	57.426	16.196	2.5661e-06	22.355	0.00016076	0.00011272	2.7646e-05	974.89	1.4978e-06	1.1351e-06	1061.5	204.78	1.4553e-06	1.2764e-06	260.76	72.609	57.2	16.527	1.2865e-06	22.849	275.686	188.749	191.588	110.417	264.627	185.672	110.777	118.352	288.863	257.631	117.983	125.038	125.116	132.482	263.539	131.506	-8191	255	
50769.355	1	1	0	0	0.15111	0.23239	0.1617	0.14536	0.13787	0.11044	0.43995	0.13661	0.28865	0.11065	0.11315	0.062329	0.17564	0.039548	0.11857	0.11364	-4.65	-4.0792	-5.0458	-4.5813	-4.4354	-5.1333	-4.3187	-4.8667	-4.9792	-4.2875	-5.0729	-4.3875	-4.4729	-5.2312	-4.1687	-4.8229	167.254	248.498	168.476	452.221	361.792	391.698	390.823	415.486	109.100	143.846	311.033	402.403	345.519	100.612	422.675	299.296	0.00033658	9.1515e-05	2.3977e-05	983.87	4.5655e-06	3.0648e-06	1073.4	207.23	3.2527e-06	1.2877e-06	262.04	72.676	57.439	16.163	2.741e-06	22.183	0.00015818	0.00011652	2.988e-05	977.69	1.4135e-06	1.1739e-06	1062.4	205.4	1.2973e-06	1.1913e-06	261.11	72.731	57.161	16.558	1.26e-06	22.869	280.769	149.768	217.229	110.539	269.302	255.477	110.508	118.375	274.917	263.805	117.661	124.940	125.164	132.223	253.933	131.937	-8191	255	
50769.449	1	1	0	0	0.2	0.15841	0.13689	0.167	0.17909	0.091662	0.24451	0.29645	0.27013	0.16743	0.22175	0.04309	0.12671	0.16818	0.1169	0.23108	-4.6625	-4.1125	-4.9563	-4.7208	-4.2396	-5.1958	-4.3896	-4.6521	-4.9604	-4.1917	-4.9792	-4.7271	-4.2146	-5.0979	-4.5292	-4.65	124.005	186.568	268.375	452.886	116.323	439.640	420.441	404.123	426.968	243.565	424.094	451.085	165.752	186.726	219.681	401.910	0.00029007	0.00025539	7.459e-05	985.77	2.8717e-06	2.9944e-06	1071.3	205.68	3.7492e-06	3.5642e-06	260.2	72.695	57.317	16.238	4.0508e-06	22.532	0.00015074	0.00011903	3.1249e-05	978.48	1.4488e-06	1.1958e-06	1062.2	204.87	1.3482e-06	1.2431e-06	260.71	72.953	57.137	16.586	1.2593e-06	22.908	282.109	188.489	177.289	110.621	243.246	283.120	110.617	118.409	292.364	248.749	117.719	125.169	125.738	132.497	261.708	131.378	-8191	255	
50769.547	1	1	0	0	0.097306	0.31489	0.19607	0.18341	0.095075	0.10887	0.1945	0.14073	0.058822	0.0822	0.1922	0.22331	0.15835	0.10792	0.14259	0.097434	-5.0083	-4.2167	-4.8708	-4.8313	-4.1792	-5.1813	-4.6875	-4.5625	-4.8917	-4.0292	-5.0062	-4.8	-4.1333	-5.1854	-4.4729	-4.4104	109.249	273.672	144.115	426.622	442.784	178.840	382.420	404.057	225.042	290.797	391.727	432.572	128.106	144.812	442.208	432.983	0.00031718	0.0002835	6.7762e-05	983.42	2.7904e-06	3.654e-06	1072.8	204.47	3.64e-06	2.3997e-06	261.86	72.306	57.298	16.259	2.329e-06	22.512	0.00016188	0.00012313	3.3176e-05	977.07	1.627e-06	1.1468e-06	1063.6	204.9	1.3733e-06	1.3539e-06	261.33	72.967	57.136	16.556	1.284e-06	22.914	278.815	182.657	205.086	110.670	271.941	251.605	110.615	118.571	294.503	251.370	117.793	125.208	125.076	131.970	281.855	131.861	-8191	255	
50769.645	1	1	0	0	0.15042	0.099812	0.013037	0.45295	0.067975	0.051869	0.16685	0.12594	0.063048	0.1023	0.11451	0.032138	0.030851	0.24342	0.10451	0.23434	-4.7583	-4.1958	-4.65	-5.05	-4.1354	-5.0958	-4.7438	-4.4854	-5.0396	-4.2542	-4.7604	-4.9083	-4.2229	-4.9792	-4.7083	-4.2875	311.008	131.725	337.012	408.602	367.205	196.098	373.128	288.934	261.430	271.294	357.588	311.507	173.952	161.591	214.453	284.095	0.00032111	0.00026956	4.7091e-05	982.24	3.5777e-06	1.6633e-06	1071.7	205.85	2.3727e-06	1.6023e-06	260.05	73.519	56.885	16.207	2.4731e-06	22.701	0.00016001	0.00011991	3.0283e-05	978.35	1.4786e-06	1.1994e-06	1063.4	205.25	1.2492e-06	1.3572e-06	261.26	72.98	56.975	16.59	1.289e-06	23.007	278.628	202.030	208.118	110.597	269.376	243.121	110.636	118.061	280.989	219.555	117.782	125.372	125.444	131.846	264.803	131.277	-8191	255	
50769.766	1	1	0	0	0.2034	0.18151	0.1892	0.18414	0.10977	0.081776	0.33708	0.1612	0.098113	0.042646	0.40038	0.13634	0.13699	0.12624	0.23404	0.19322	-4.8625	-4.3417	-4.6188	-5.0375	-4.2312	-5.1083	-5.0104	-4.3167	-5.2354	-4.4583	-4.6167	-4.9458	-4.1375	-5.1167	-4.8438	-4.2854	257.587	154.328	175.268	437.675	375.024	113.715	407.313	432.306	320.523	162.429	426.206	106.215	318.392	378.745	401.643	447.733	0.0003342	0.00016967	6.9031e-05	989.24	4.3621e-06	4.6285e-06	1072.1	204.31	3.9582e-06	3.5837e-06	260.48	73.163	57.011	16.187	3.1108e-06	22.609	0.0001629	0.00011668	3.059e-05	981.52	1.5677e-06	1.1981e-06	1063.8	204.65	1.3047e-06	1.345e-06	261.49	73.191	57.097	16.577	1.2416e-06	22.99	277.685	170.355	230.205	110.478	286.670	270.436	110.496	118.527	285.255	225.768	117.657	125.116	125.420	132.957	259.684	131.422	-8191	255	
50769.859	1	1	0	0	0.13995	0.18899	0.17833	0.19536	0.27359	0.077403	0.086767	0.17182	0.26289	0.11777	0.11348	0.1294	0.094757	0.16505	0.069942	0.12279	-4.9458	-4.425	-4.4104	-5.2958	-4.0229	-4.8146	-5.0458	-4.225	-5.15	-4.4583	-4.3896	-5.1021	-4.2146	-4.75	-4.8896	-4.225	253.848	387.850	453.991	405.303	258.816	376.261	388.178	412.126	237.359	138.756	361.408	177.587	270.892	295.822	350.864	122.834	0.00034495	0.00033522	3.7067e-05	981.3	3.3302e-06	3.9769e-06	1074.7	204.73	3.1751e-06	3.1407e-06	262.66	72.276	57.41	16.407	2.5301e-06	22.568	0.00015616	0.0001182	3.4577e-05	979.42	1.4983e-06	1.1718e-06	1066	204.97	1.3432e-06	1.2564e-06	261.82	72.862	57.317	16.588	1.2355e-06	22.952	276.636	208.483	205.300	110.366	263.776	248.205	110.631	118.190	279.947	241.716	117.886	125.277	125.829	131.856	282.164	131.798	-8191	255	
50769.934	1	1	0	0	0.06034	0.18927	0.23625	0.074973	0.28801	0.068637	0.34425	0.030912	0.0072964	0.18082	0.067418	0.18994	0.14216	0.1566	0.20231	0.17494	-4.7104	-4.4646	-4.2125	-5.2875	-4.2917	-4.8333	-5.2708	-4.3167	-4.9771	-4.6312	-4.1792	-5.0417	-4.3583	-4.5021	-4.9313	-4.2562	134.651	370.514	372.858	364.925	123.963	330.280	401.304	401.794	344.845	417.832	386.056	260.517	438.418	352.420	308.042	240.652	0.00033511	0.00028306	7.2446e-05	982.83	4.6228e-06	3.4349e-06	1075.1	205.62	2.8873e-06	3.2589e-06	262.73	72.75	57.232	16.402	3.6441e-06	22.53	0.00016034	0.00011776	3.1908e-05	979.8	1.5031e-06	1.3207e-06	1064.3	205.43	1.3422e-06	1.2363e-06	261.74	72.993	57.035	16.636	1.1909e-06	22.935	281.366	218.747	182.158	110.641	257.864	266.762	110.697	118.236	263.403	248.669	117.566	125.072	125.668	131.905	258.086	131.657	-8191	255	
50770.055	1	1	0	0	0.015972	0.09952	0.19245	0.33123	0.18319	0.060674	0.12747	0.13141	0.10461	0.069486	0.043299	0.20226	0.031256	0.02341	0.15294	0.26796	-4.6979	-4.7312	-4.2229	-5.2521	-4.2667	-4.5062	-5.1146	-4.1125	-4.9062	-4.8854	-4.2896	-5.1104	-4.5583	-4.2562	-5.0104	-4.2583	261.815	332.911	375.656	355.333	125.906	386.245	377.591	125.479	280.130	457.687	235.692	156.661	142.914	453.815	332.286	410.669	0.00033246	0.00020014	4.6389e-05	987.17	4.6053e-06	2.9174e-06	1071.1	205.11	4.2207e-06	3.8218e-06	262.1	73.065	56.847	16.313	3.2701e-06	22.523	0.0001557	0.00011857	3.1646e-05	982.4	1.4682e-06	1.2165e-06	1065.5	205.28	1.2959e-06	1.1618e-06	261.48	73.054	57.205	16.566	1.1695e-06	22.967	278.187	209.988	191.248	110.523	254.015	279.586	110.667	118.383	280.822	270.248	117.526	125.042	125.557	132.224	253.257	131.612	-8191	255	
50770.148	1	1	0	0	0.12294	0.24463	0.090411	0.18292	0.094624	0.26838	0.33548	0.074498	0.12844	0.22346	0.34723	0.10664	0.20956	0.16307	0.048387	0.1225	-4.5521	-4.8521	-4.1229	-5.2417	-4.5521	-4.3938	-5.3104	-4.3833	-4.9896	-4.9062	-4.2833	-5.1312	-4.575	-4.2104	-5.0958	-4.2479	344.636	310.775	210.540	408.587	174.476	434.546	418.577	104.430	294.398	352.743	178.727	298.361	425.670	444.678	187.270	345.458	0.00035087	0.00023328	5.9068e-05	987.39	4.2e-06	3.4609e-06	1073.4	205.22	4.4586e-06	1.8608e-06	261.41	73.154	57.521	16.231	3.1156e-06	22.605	0.00016559	0.00011203	3.235e-05	982.73	1.4702e-06	1.3352e-06	1068.8	204.96	1.319e-06	1.204e-06	261.48	73.072	57.362	16.57	1.1825e-06	23.024	280.983	188.285	191.647	110.854	272.623	267.384	110.780	118.562	265.529	192.199	118.002	125.082	125.175	132.113	276.007	131.377	-8191	255	
50770.246	1	1	0	0	0.3824	0.14674	0.10037	0.35505	0.090804	0.10044	0.23895	0.096438	0.15209	0.17696	0.2057	0.11027	0.1142	0.012449	0.2598	0.14662	-4.3896	-5.0958	-4.1958	-5.1292	-4.6604	-4.2354	-5.1917	-4.4187	-4.5354	-4.9833	-4.05	-5.0042	-4.6229	-4.2333	-5.1312	-4.5062	422.467	365.016	176.855	415.457	305.175	312.396	375.690	387.660	272.468	243.548	140.515	386.666	450.411	118.171	342.980	145.410	0.00035383	0.00018974	7.0784e-05	985.49	5.0006e-06	4.1745e-06	1076.6	205.82	5.1046e-06	3.0968e-06	261.41	72.409	57.506	16.426	4.7823e-06	22.514	0.00016552	0.00011053	3.2004e-05	981.25	1.4118e-06	1.2964e-06	1065.7	205.5	1.3482e-06	1.1575e-06	261.82	72.929	57.378	16.665	1.1872e-06	22.99	279.100	207.343	205.901	110.718	261.248	272.551	110.502	118.023	270.097	253.187	117.276	124.969	125.361	132.306	246.028	132.002	-8191	255	
50770.363	1	1	0	0	0.065286	0.22428	0.090082	0.34139	0.025179	0.19437	0.19436	0.18628	0.23768	0.0073467	0.2892	0.119	0.039639	0.19842	0.12813	0.25293	-4.4604	-5.0604	-4.2021	-4.9771	-4.7583	-4.175	-5.1542	-4.4833	-4.5	-5.1125	-4.1687	-4.8812	-4.9042	-4.1854	-4.9938	-4.5292	109.907	257.481	176.551	374.690	202.396	414.007	363.767	394.098	295.797	424.753	447.013	349.037	219.477	105.023	175.044	181.098	0.00034317	0.00019209	7.0414e-05	991.51	3.9825e-06	2.7925e-06	1075.2	206.52	4.8003e-06	1.9047e-06	261.96	73.353	57.369	16.26	3.1315e-06	22.622	0.00016504	0.00010721	3.379e-05	983.3	1.4632e-06	1.3421e-06	1065.8	205.73	1.3621e-06	1.1527e-06	261.71	73.22	57.396	16.608	1.1867e-06	23.039	280.268	209.419	233.364	110.805	263.121	238.758	110.823	118.233	265.362	298.081	117.893	125.211	125.408	132.375	272.100	131.838	-8191	255	
50770.461	1	1	0	0	0.11404	0.10495	0.052143	0.11904	0.078237	0.10656	0.079804	0.11026	0.030523	0.22257	0.028238	0.12894	0.15964	0.15324	0.092002	0.096944	-4.1646	-5.0312	-4.275	-4.8292	-4.8479	-4.1188	-5.1813	-4.6458	-4.1292	-5.1417	-4.4083	-4.8208	-5.0042	-4.0875	-4.9625	-4.7812	321.890	358.275	408.977	167.673	196.648	436.753	375.103	133.251	267.597	329.010	308.744	202.705	364.884	298.284	332.697	255.165	0.0003507	0.00018282	4.6174e-05	987.34	4.9267e-06	1.6056e-06	1075	206.37	3.9232e-06	3.9749e-06	260.68	72.768	57.091	16.225	3.1556e-06	22.826	0.00016552	0.00010975	3.3944e-05	982.72	1.4056e-06	1.2443e-06	1066.8	205.54	1.397e-06	1.2106e-06	261.88	73.109	57.33	16.645	1.2549e-06	23.027	281.908	156.309	208.324	110.597	252.482	254.232	110.841	118.654	272.589	242.161	117.803	125.133	125.377	132.939	284.189	131.199	-8191	255	
50770.531	1	1	0	0	0.041599	0.033506	0.16868	0.3791	0.034502	0.081152	0.069639	0.14197	0.039894	0.19027	0.36734	0.20024	0.11785	0.037561	0.18484	0.035681	-4.0646	-5.0771	-4.3667	-4.7479	-5.1958	-4.2792	-5.0813	-4.8938	-4.2771	-5.0417	-4.6458	-4.5125	-5.0312	-4.1458	-4.7417	-4.9375	268.017	140.775	399.446	450.044	305.115	105.353	394.777	431.127	310.115	300.559	370.306	429.830	192.268	404.229	139.660	394.943	0.00035814	0.00012664	0.00012307	987.27	4.5082e-06	3.0361e-06	1079.4	206.34	3.8006e-06	2.9285e-06	261.04	72.762	57.188	16.255	3.6614e-06	22.675	0.00016966	0.00011187	3.3694e-05	981.78	1.3931e-06	1.228e-06	1066.4	205.5	1.4182e-06	1.0742e-06	261.32	73.222	57.335	16.639	1.2394e-06	23.091	278.024	210.778	194.742	110.640	263.170	243.477	110.723	118.274	276.263	257.038	117.708	125.256	125.307	132.786	254.656	131.754	-8191	255	
50770.652	1	1	0	0	0.12503	0.065325	0.20603	0.27287	0.17057	0.24666	0.13735	0.22532	0.21652	0.026862	0.17917	0.15107	0.24389	0.25352	0.23199	0.080061	-3.9688	-5.1479	-4.5542	-4.6	-5.1833	-4.1125	-4.8688	-4.9688	-4.0646	-5.0708	-4.6646	-4.375	-5.1333	-4.2875	-4.6562	-4.9729	160.873	153.897	199.366	429.585	394.720	174.881	441.041	319.169	310.943	270.279	157.521	162.550	105.921	409.823	200.572	283.183	0.00033751	0.00018357	6.3827e-05	989.83	5.8924e-06	2.9331e-06	1074.7	206.32	4.4546e-06	3.0473e-06	261.66	72.57	57.48	16.366	3.2771e-06	22.451	0.00016918	0.00010473	3.2478e-05	983.54	1.4195e-06	1.2288e-06	1066.9	205.94	1.4075e-06	1.2439e-06	262.15	72.899	57.296	16.683	1.3306e-06	23.023	280.607	215.691	189.062	110.485	265.172	249.185	110.460	118.531	275.612	232.430	118.030	125.447	125.156	132.520	290.771	131.385	-8191	255	
50770.750	1	1	0	0	0.18089	0.18609	0.23232	0.048513	0.23909	0.066804	0.15897	0.016381	0.094055	0.20992	0.063282	0.18216	0.31963	0.08081	0.21031	0.2484	-3.6396	-5.0458	-4.6896	-4.2937	-5.0563	-4.3646	-4.7125	-5.0542	-4.2833	-4.9062	-4.7833	-4.1458	-5.3396	-4.4146	-4.4688	-5.0938	345.736	346.282	202.848	366.916	123.268	226.980	444.487	323.264	343.787	326.323	227.842	278.834	418.062	101.322	356.511	214.522	0.00031465	0.00022677	5.3926e-05	988.99	3.6607e-06	2.4602e-06	1074.7	206.52	4.1891e-06	3.0237e-06	261.49	73.015	57.167	16.335	2.8239e-06	22.56	0.00016744	0.00010922	3.2043e-05	981.04	1.4308e-06	1.2941e-06	1065.9	205.54	1.4701e-06	1.1093e-06	261.74	73.276	57.402	16.612	1.2169e-06	23.066	274.585	209.334	189.416	110.349	246.967	246.537	110.721	118.516	281.034	259.744	118.127	125.107	125.322	132.605	267.568	131.887	-8191	255	
50770.844	1	1	0	0	0.13165	0.29243	0.10671	0.10057	0.11195	0.06141	0.18555	0.12945	0.047082	0.093824	0.035782	0.27752	0.28303	0.15346	0.25999	0.086318	-3.9604	-4.8646	-4.9604	-4.4104	-5.1104	-4.4479	-4.6604	-5.2292	-4.1479	-4.9625	-5.0104	-4.1604	-5.0479	-4.5792	-4.4167	-5.1958	167.906	102.169	260.698	256.729	227.873	459.650	369.384	426.920	197.584	212.822	431.981	363.954	196.053	403.552	409.568	399.470	0.0003273	0.00014364	7.8465e-05	990.2	3.1188e-06	2.4062e-06	1076	206.04	3.9523e-06	2.3501e-06	261.25	73.025	57.213	16.28	3.6483e-06	22.521	0.00017512	0.00011454	3.2177e-05	982.87	1.3717e-06	1.3623e-06	1067.3	205.73	1.4448e-06	1.2088e-06	261.55	73.149	57.334	16.567	1.3336e-06	23.053	278.647	192.420	203.371	110.372	276.320	268.441	110.406	118.361	273.751	239.679	117.610	125.466	125.080	132.300	276.534	131.351	-8191	255	
50770.941	1	1	0	0	0.057324	0.14402	0.10424	0.12253	0.21471	0.11963	0.32798	0.13347	0.089539	0.25314	0.36726	0.095199	0.1621	0.28509	0.11619	0.093435	-3.8417	-4.7646	-4.8	-4.3708	-5.2604	-4.675	-4.5	-5.3083	-4.2854	-4.8667	-5.0271	-4.2	-5.0563	-4.6312	-4.2	-5.3229	369.522	274.106	149.025	418.750	376.839	183.551	420.881	163.458	415.224	294.177	405.287	105.712	388.357	107.306	361.770	304.496	0.00033577	0.00022543	6.8657e-05	986.23	3.5666e-06	2.8819e-06	1081.1	206.27	4.7697e-06	2.6528e-06	262.69	72.777	57.267	16.292	4.075e-06	22.627	0.00016533	0.00011866	2.9835e-05	983.74	1.3556e-06	1.29e-06	1068.3	205.7	1.4771e-06	1.203e-06	261.49	73.281	57.292	16.637	1.3135e-06	23.025	278.332	189.518	198.785	110.419	269.219	244.723	110.391	118.266	265.680	235.472	117.595	125.018	125.722	132.404	235.050	131.889	-8191	255	
50771.062	1	1	0	0	0.1738	0.11285	0.13689	0.14004	0.24197	0.21108	0.15733	0.092746	0.28242	0.10712	0.11868	0.17731	0.13647	0.079052	0.13381	0.11647	-4.1042	-4.6813	-4.9854	-4.2979	-4.9833	-4.6771	-4.5042	-5.2875	-4.2604	-4.4167	-5.1417	-4.2625	-4.825	-4.9104	-4.2979	-5.125	246.475	135.582	299.935	262.118	416.065	187.876	268.597	123.831	350.720	313.935	312.523	115.782	171.860	442.945	420.239	398.980	0.00032983	0.00031546	5.755e-05	989.05	3.545e-06	2.9693e-06	1076.7	205.33	4.6605e-06	3.3481e-06	261.23	72.734	57.088	16.312	3.6279e-06	22.719	0.00017709	0.00012401	3.0193e-05	983.6	1.4125e-06	1.202e-06	1066.9	205.52	1.4553e-06	1.2505e-06	261.7	73.052	57.259	16.6	1.3902e-06	23.042	280.114	199.817	165.702	110.605	256.683	238.763	110.648	118.415	278.243	258.298	117.889	124.792	125.855	132.448	238.748	131.497	-8191	255	
50771.156	1	1	0	0	0.14917	0.28877	0.084587	0.22755	0.17314	0.16177	0.31499	0.27559	0.17482	0.20813	0.032365	0.2314	0.054061	0.26136	0.27974	0.16941	-4.1	-4.4958	-5.0604	-4.325	-4.7125	-4.8104	-4.4333	-5.2625	-4.5229	-4.3688	-5.1396	-4.2583	-4.575	-4.9729	-4.0896	-5.0417	261.642	373.478	440.465	453.220	131.201	431.330	395.723	438.510	163.830	197.606	280.776	412.509	431.502	116.730	103.076	269.007	0.00035537	0.00029969	5.8044e-05	985.64	3.6581e-06	2.7535e-06	1073.1	205.41	4.3861e-06	1.2203e-06	261.22	72.936	57.306	16.288	3.4738e-06	22.888	0.00017577	0.00011905	3.0405e-05	982.62	1.3935e-06	1.1762e-06	1065.5	205.74	1.4056e-06	1.2365e-06	261.7	73.036	57.212	16.605	1.3569e-06	23.093	280.334	192.765	172.595	110.231	280.278	267.839	110.953	118.087	281.232	253.253	117.846	125.330	125.701	132.261	273.166	132.018	-8191	255	
50771.230	1	1	0	0	0.19399	0.13434	0.23478	0.22432	0.10367	0.16713	0.21474	0.19823	0.12822	0.17653	0.107	0.033841	0.22995	0.017681	0.043057	0.078973	-4.3438	-4.2562	-5.1479	-4.3354	-4.6667	-5.0271	-4.3021	-5.0167	-4.65	-4.2354	-5.2688	-4.5417	-4.6854	-5.0437	-4.1562	-5.0042	433.873	382.861	381.071	398.079	418.703	195.922	371.709	411.818	161.744	359.998	405.308	183.556	443.052	168.051	178.581	392.031	0.00032369	0.00032303	9.1797e-05	984.18	2.5846e-06	3.2088e-06	1075.7	206.56	3.1486e-06	2.1197e-06	261.44	73.169	57.28	16.218	5.6581e-06	22.654	0.0001723	0.00012242	3.004e-05	982.77	1.4111e-06	1.1369e-06	1067.1	206.02	1.3611e-06	1.3593e-06	262.11	73.177	57.352	16.597	1.3971e-06	23.077	279.379	156.415	207.984	110.612	288.155	234.771	110.696	118.028	295.486	240.740	117.785	124.984	125.373	132.000	278.162	131.449	-8191	255	
50771.324	1	1	0	0	0.1016	0.24845	0.069258	0.17162	0.036656	0.31913	0.23772	0.11527	0.12204	0.26449	0.32935	0.17327	0.085688	0.15663	0.1867	0.18484	-4.5104	-4.1208	-5.0625	-4.5146	-4.5437	-5.1875	-4.3792	-5.0521	-4.8396	-4.2937	-5.2375	-4.5958	-4.5333	-5.1708	-4.2542	-4.8708	108.620	103.030	237.798	104.534	301.961	353.697	434.951	249.525	350.593	350.406	429.646	100.758	457.392	309.669	175.199	174.510	0.00033459	0.00025433	9.2651e-05	987.3	5.0963e-06	3.1884e-06	1072.6	206.71	3.8271e-06	3.9957e-06	260.61	72.568	57.242	16.352	2.4889e-06	22.77	0.00016747	0.0001202	3.1025e-05	982.06	1.5331e-06	1.1455e-06	1065.3	205.62	1.385e-06	1.3138e-06	261.47	73.068	57.292	16.599	1.31e-06	23.18	279.499	164.802	197.354	110.383	285.330	283.663	110.561	118.201	266.831	237.107	118.447	125.252	125.670	131.847	263.164	131.312	-8191	255	
50771.445	1	1	0	0	0.098657	0.12054	0.11091	0.17681	0.11288	0.12515	0.096535	0.14227	0.14384	0.054514	0.14484	0.19947	0.055071	0.15275	0.12894	0.15549	-4.6354	-4.1062	-5.0687	-4.5875	-4.4396	-5.0771	-4.4	-4.9542	-4.8438	-4.1729	-4.9583	-4.5833	-4.3938	-5.1875	-4.2521	-4.5938	397.516	133.106	306.970	115.284	307.381	179.888	394.425	234.663	439.742	272.869	101.083	444.457	438.659	352.902	297.458	131.995	0.00035763	0.0002045	6.2539e-05	990.36	2.5337e-06	2.8816e-06	1072.8	205.47	5.2404e-06	2.9993e-06	262.39	73.441	57.285	16.329	3.8183e-06	22.564	0.00016013	0.0001291	3.1409e-05	984.06	1.4911e-06	1.1244e-06	1066	205.42	1.4159e-06	1.3194e-06	262.25	73.348	57.271	16.647	1.3821e-06	23.112	282.059	203.288	202.504	110.638	286.043	219.668	110.690	118.093	292.475	248.800	117.914	125.207	125.467	132.437	221.339	131.809	-8191	255	
50771.539	1	1	0	0	0.14504	0.18638	0.095001	0.44157	0.21488	0.080726	0.22624	0.14873	0.14795	0.08661	0.11306	0.17576	0.10185	0.039487	0.19196	0.097306	-4.7625	-4.1375	-4.9688	-4.8396	-4.3271	-5.1917	-4.3333	-4.7167	-4.9396	-4.1417	-5.0083	-4.7438	-4.3083	-5.2125	-4.425	-4.4542	240.088	255.306	294.245	402.008	109.729	222.398	329.944	366.015	187.593	421.017	455.931	144.548	230.258	150.865	335.550	301.582	0.00032646	0.00018355	4.6844e-05	994	3.1984e-06	2.3335e-06	1073	206.37	4.4064e-06	3.4127e-06	261.49	72.696	57.582	16.356	2.4569e-06	22.571	0.00016352	0.00012046	3.3208e-05	986.71	1.4387e-06	1.1948e-06	1067.9	205.47	1.3009e-06	1.3849e-06	262.11	73.248	57.383	16.651	1.2806e-06	23.059	277.928	196.174	174.610	110.536	265.295	238.936	110.644	118.303	280.027	251.825	117.835	125.218	125.634	132.564	275.769	131.032	-8191	255	
50771.637	1	1	0	0	0.12071	0.22888	0.25884	0.31722	0.20149	0.19582	0.013875	0.083509	0.17601	0.075045	0.25229	0.45501	0.21301	0.34968	0.13468	0.041868	-4.7083	-4.0021	-4.8458	-4.9729	-4.2917	-5.2562	-4.7542	-4.4417	-5.1937	-4.2083	-4.9604	-4.9229	-4.0167	-5.0625	-4.5042	-4.4938	171.546	320.461	214.133	401.562	228.355	301.679	387.578	336.374	311.658	168.181	284.605	372.144	322.002	449.109	148.264	297.201	0.00032521	0.00016094	7.7585e-05	992.47	4.3235e-06	3.8616e-06	1080.4	206.62	4.8905e-06	2.2303e-06	261.04	73.34	56.87	16.394	1.7167e-06	22.824	0.00016416	0.00013059	3.2734e-05	985.88	1.5458e-06	1.2188e-06	1071.5	205.87	1.3384e-06	1.3382e-06	262.43	73.3	57.33	16.649	1.2688e-06	23.195	279.144	204.723	180.102	111.030	278.854	231.470	110.803	118.409	278.351	220.868	117.346	125.207	125.354	132.330	216.923	131.257	-8191	255	
50771.734	1	1	0	0	0.25022	0.13675	0.14464	0.23355	0.26063	0.13956	0.44605	0.13031	0.46788	0.089496	0.091582	0.07644	0.12355	0.24899	0.17986	0.12464	-4.8521	-4.3333	-4.55	-4.975	-4.3625	-5.1333	-4.7542	-4.2271	-5.0354	-4.3708	-4.7792	-5.0271	-4.0854	-4.9896	-4.6979	-4.3	119.823	459.002	349.859	105.292	344.015	212.110	420.623	412.451	259.856	385.717	418.724	353.078	335.531	314.687	134.650	177.624	0.00033269	0.00024155	5.5302e-05	995.03	6.5774e-06	1.2116e-06	1080.8	205.75	2.9091e-06	2.4168e-06	261.58	73.002	57.053	16.404	2.5635e-06	22.81	0.00017103	0.00012817	3.0949e-05	988.59	1.553e-06	1.2009e-06	1072	206.1	1.2863e-06	1.3654e-06	261.95	73.376	57.368	16.688	1.2571e-06	23.217	277.110	176.667	203.512	110.596	275.378	247.044	110.912	118.255	270.551	236.306	117.690	125.277	125.371	132.782	258.927	131.108	-8191	255	
50771.828	1	1	0	0	0.13209	0.1024	0.12078	0.12945	0.097242	0.21273	0.28988	0.090301	0.21931	0.050159	0.085827	0.1216	0.10382	0.13889	0.053374	0.27535	-5.0479	-4.4042	-4.6562	-5.1792	-4.1937	-4.8375	-5.0354	-4.1687	-5.0333	-4.4812	-4.5021	-5.2604	-4.2271	-4.85	-4.8792	-4.1229	393.053	328.085	277.943	424.073	408.947	336.605	408.455	323.710	202.946	412.621	244.785	324.325	132.338	265.719	392.687	390.722	0.00036373	0.00021617	9.2259e-05	992.21	4.5539e-06	3.2723e-06	1079.8	207.39	4.0535e-06	9.2352e-07	263.74	73.07	57.675	16.443	2.5453e-06	22.649	0.00016807	0.00013004	3.4615e-05	988.73	1.5504e-06	1.265e-06	1073.2	206.39	1.4053e-06	1.3458e-06	262.86	73.42	57.588	16.705	1.3544e-06	23.224	278.139	210.941	189.880	110.811	247.438	225.954	110.851	118.151	288.732	249.526	117.795	125.014	125.506	132.481	274.282	131.226	-8191	255	
50771.926	1	1	0	0	0.15185	0.028776	0.16423	0.078313	0.16744	0.18439	0.23793	0.21606	0.16149	0.14135	0.048817	0.12637	0.18675	0.09939	0.069144	0.13402	-4.8438	-4.6083	-4.5521	-5.2604	-4.2021	-4.9125	-5.0917	-4.1271	-5.2833	-4.6687	-4.3042	-5.1813	-4.2333	-4.6875	-5.1167	-4.15	309.226	198.241	359.758	274.791	177.606	343.400	451.950	425.321	274.755	282.269	419.583	385.507	115.435	397.300	300.676	112.421	0.00034434	0.00018482	4.6911e-05	994.67	3.2898e-06	3.0005e-06	1085.9	206.8	4.196e-06	2.2375e-06	262.11	74.042	57.102	16.422	3.1608e-06	23.03	0.00016436	0.00012099	3.2804e-05	991.17	1.56e-06	1.2995e-06	1074.8	206.29	1.3819e-06	1.2708e-06	262.73	73.552	57.413	16.713	1.3561e-06	23.277	280.074	183.140	201.629	110.796	275.601	239.106	110.842	118.378	265.454	257.070	117.735	125.354	125.242	132.361	258.565	131.654	-8191	255	
50772.047	1	1	0	0	0.034918	0.13779	0.062331	0.17372	0.088862	0.15291	0.26012	0.20107	0.26921	0.072256	0.23226	0.27566	0.089693	0.12748	0.096964	0.1605	-4.6937	-4.5542	-4.1396	-5.3333	-4.1958	-4.6292	-5.2812	-4.2021	-4.9833	-4.75	-4.4042	-5.2	-4.35	-4.5417	-5.0146	-4.1958	107.195	333.429	259.670	134.522	118.082	196.239	429.798	118.836	340.197	442.900	351.093	360.973	176.338	303.797	163.139	136.733	0.00033302	9.6876e-05	4.9826e-05	997.23	4.4958e-06	3.3997e-06	1085.2	207.28	4.994e-06	7.8896e-07	261.27	73.113	57.185	16.456	2.2168e-06	22.732	0.0001624	0.00011882	3.283e-05	990.03	1.5634e-06	1.2816e-06	1074.4	206.58	1.4527e-06	1.2424e-06	262.69	73.406	57.51	16.701	1.1985e-06	23.323	280.503	164.532	228.503	110.615	284.560	268.965	110.822	117.899	285.738	169.237	117.658	125.282	125.477	132.274	270.645	130.805	-8191	255	
50772.141	1	1	0	0	0.10305	0.070643	0.11771	0.15426	0.10686	0.11852	0.12362	0.26319	0.1908	0.088045	0.0067168	0.16716	0.14734	0.13441	0.03916	0.34017	-4.6667	-4.8479	-4.2438	-5.1958	-4.4	-4.5813	-5.2875	-4.1229	-4.8479	-4.9521	-4.4125	-5.1396	-4.5813	-4.4521	-5.1104	-4.2271	157.814	200.624	326.628	281.300	203.501	373.639	230.253	427.156	355.666	181.800	458.285	448.208	450.020	318.117	202.387	451.856	0.00032399	0.00023833	8.8683e-05	995.13	1.9279e-06	2.9883e-06	1084.5	206.55	4.2187e-06	1.7472e-06	261.3	73.489	57.284	16.386	1.8451e-06	22.928	0.00016749	0.00011141	3.2664e-05	990.38	1.4495e-06	1.3038e-06	1074.8	206.4	1.3798e-06	1.2912e-06	262.6	73.372	57.654	16.694	1.3542e-06	23.294	278.448	204.508	183.815	110.767	323.805	248.130	110.684	118.639	262.971	251.642	117.134	125.214	125.487	131.929	265.165	131.487	-8191	255	
50772.234	1	1	0	0	0.055481	0.026641	0.14761	0.3133	0.2521	0.060862	0.087359	0.42745	0.1652	0.061791	0.099692	0.2989	0.17559	0.030052	0.022722	0.053391	-4.5583	-4.9833	-4.1542	-5.1375	-4.7042	-4.3313	-5.2958	-4.175	-4.7438	-5.0229	-4.2542	-5.0083	-4.7896	-4.175	-5.1792	-4.5	344.629	172.018	174.059	419.651	259.893	103.504	430.411	436.673	103.223	278.348	199.958	402.206	341.898	375.265	438.749	418.522	0.00038187	0.00034113	4.9172e-05	995.11	4.3023e-06	3.9603e-06	1079.6	206.72	3.8266e-06	1.3043e-06	263.6	73.045	57.195	16.373	3.0034e-06	22.914	0.00017536	0.00011687	3.4724e-05	992.91	1.5477e-06	1.386e-06	1075.6	206.62	1.4347e-06	1.1768e-06	263.07	73.474	57.491	16.728	1.1936e-06	23.351	279.834	181.315	194.963	110.443	273.357	257.414	110.689	118.574	285.852	198.900	117.729	125.324	125.480	132.748	262.925	131.460	-8191	255	
50772.336	1	1	0	0	0.32094	0.088203	0.11546	0.11909	0.10848	0.09362	0.13317	0.19836	0.14943	0.0088936	0.11411	0.10179	0.048693	0.28533	0.12	0.12357	-4.1562	-5.0687	-4.1813	-5.1417	-4.8042	-4.2875	-5.1917	-4.4042	-4.4792	-5.0417	-4.2396	-4.8917	-4.9979	-4.1667	-5.125	-4.4187	226.651	210.649	228.972	335.709	152.238	420.370	334.472	119.770	366.053	188.924	446.163	133.158	341.602	339.979	205.788	442.142	0.00032629	0.00030179	8.8483e-05	999.42	3.8658e-06	3.2689e-06	1087.8	207.36	3.5136e-06	8.0738e-07	263.61	73.494	58.325	16.271	3.8201e-06	22.851	0.00017519	0.00012435	3.5537e-05	992.63	1.4533e-06	1.325e-06	1076.1	207.08	1.4053e-06	1.1994e-06	263.22	73.678	57.832	16.673	1.2735e-06	23.344	279.207	198.705	202.620	110.719	240.331	227.234	110.801	118.436	289.681	170.318	117.476	124.751	125.484	132.337	268.993	131.684	-8191	255	
50772.430	1	1	0	0	0.20179	0.06014	0.088067	0.13595	0.15479	0.1132	0.11555	0.17411	0.23545	0.037622	0.21539	0.12421	0.20516	0.16276	0.17194	0.11983	-4.075	-5.0896	-4.1312	-4.9187	-4.8833	-4.1583	-5.2625	-4.6458	-4.3438	-5.075	-4.375	-4.7833	-4.8854	-4.2542	-5.1937	-4.6104	238.989	164.931	364.141	120.974	258.085	160.718	453.267	369.151	339.393	333.619	386.998	207.253	353.307	405.162	124.796	411.113	0.00036923	0.00026725	6.8817e-05	999.63	3.5612e-06	3.9946e-06	1083.9	207	4.9051e-06	2.0877e-06	263.36	72.721	57.887	16.496	2.9776e-06	23.023	0.00018042	0.00011424	3.3694e-05	993.48	1.4927e-06	1.409e-06	1076.4	206.76	1.3355e-06	1.3194e-06	263.34	73.355	57.824	16.76	1.3012e-06	23.359	280.509	196.031	169.993	110.646	263.353	280.845	110.459	118.293	289.980	310.274	117.928	124.937	125.183	132.146	263.101	131.517	-8191	255	
50772.523	1	1	0	0	0.046603	0.021363	0.18752	0.079224	0.23915	0.11727	0.24078	0.20542	0.1707	0.25177	0.12892	0.14066	0.11057	0.26078	0.1748	0.18344	-4.0188	-5.1083	-4.25	-4.7708	-4.9896	-3.9917	-5.1458	-4.7646	-4.2792	-5.2438	-4.3792	-4.5229	-5.125	-4.0458	-4.975	-4.7667	176.438	103.120	126.024	181.495	173.613	121.122	391.492	393.200	373.734	144.303	146.144	394.283	141.319	448.830	302.891	321.584	0.00035713	0.00014007	9.1919e-05	994.77	2.882e-06	2.8242e-06	1083.2	206.87	3.6208e-06	2.4117e-06	261.98	73.581	57.553	16.367	2.5693e-06	22.813	0.00017401	0.00011832	3.4711e-05	992.17	1.4615e-06	1.3276e-06	1076.9	206.65	1.4598e-06	1.187e-06	262.98	73.851	57.615	16.765	1.2473e-06	23.343	276.412	176.296	191.190	110.503	266.459	265.177	110.700	118.228	262.551	202.957	117.256	124.921	125.736	132.252	255.201	131.709	-8191	255	
50772.621	1	1	0	0	0.024098	0.206	0.087716	0.3215	0.2866	0.029898	0.11762	0.10027	0.11536	0.16855	0.1566	0.14621	0.04833	0.051578	0.23986	0.13347	-3.9292	-5.1479	-4.2396	-4.5417	-5.1292	-4.2562	-5.1604	-4.9458	-4.1792	-5.1813	-4.6062	-4.4708	-5.375	-4.2667	-4.6417	-4.9521	321.323	290.242	231.649	402.680	169.670	252.794	384.222	448.692	315.388	193.984	115.411	336.197	434.861	346.383	407.240	442.755	0.00032754	0.00014918	5.7141e-05	996.41	4.4087e-06	2.1356e-06	1081.5	207.27	4.231e-06	1.949e-06	264.14	73.466	57.397	16.454	1.8326e-06	22.939	0.00016859	0.00010839	3.244e-05	990.57	1.4517e-06	1.3365e-06	1074.9	206.85	1.4345e-06	1.1791e-06	263.91	73.526	57.654	16.722	1.2485e-06	23.398	277.167	189.786	167.680	110.421	260.773	206.236	110.559	118.129	283.398	241.776	117.768	125.412	125.303	132.693	279.939	131.940	-8191	255	
50772.742	1	1	0	0	0.28919	0.10907	0.4178	0.096069	0.2729	0.10632	0.072124	0.14152	0.086662	0.22129	0.153	0.091797	0.14966	0.14297	0.10463	0.15841	-3.7958	-5	-4.4563	-4.4583	-5.0542	-4.2729	-4.8146	-5.0958	-4.0917	-4.9771	-4.6667	-4.1687	-5.1917	-4.1708	-4.4604	-5.1583	165.298	228.159	260.522	433.296	219.864	232.432	159.077	434.727	233.352	354.048	386.100	453.766	436.703	448.093	319.636	179.533	0.00036808	0.00030359	5.8747e-05	996.65	4.7069e-06	3.1199e-06	1082	207.97	2.5207e-06	2.4877e-06	261.47	73.367	57.291	16.541	3.0227e-06	22.852	0.0001746	0.00010901	3.2606e-05	991.5	1.4346e-06	1.2995e-06	1076.6	206.92	1.4751e-06	1.2373e-06	262.37	73.685	57.635	16.766	1.3294e-06	23.358	274.537	183.533	183.913	110.371	257.467	243.943	110.708	118.392	289.950	311.194	117.812	125.319	125.254	132.689	274.828	131.649	-8191	255	
#DATA ENDS
