BOXY.EXE: ISS Imagent and Oximeter Data Acquisition Program Version 0.80
Ascii Record File

#ACQ INFORMATION
2  Detector Channels 
16  External MUX Channels 
1  Auxiliary Channels 
5000  Waveform (CCF) Frequency (Hz)
1  Waveforms Skipped 
30  Waveforms Averaged 
1  Cycles Averaged 
16  Acquisitions per Waveform 
10.0806  Updata Rate (Hz) 

#FILE INFORMATION
TRUE -- External MUX Channel results are PARSED.
FALSE -- AC DC and Phase are NOT grouped.
TRUE -- Companion Program Settings File CREATED.
FALSE -- AC data not excluded
FALSE -- DC data not excluded
FALSE -- Phase data not excluded
FALSE -- Auxillary Chn. data not excluded
Tab delimiters

#CALIBRATION STATE
TRUE -- Waveform Calibration Values APPLIED.


#AUX CALIBRATION VALUES
Val Type	aux-1	

Term	1.0000e+00	
Factor	0.0000e+00	


#WF CALIBRATION VALUES
A = Detector Channel
Val Type	A-AC1	A-AC2	A-AC3	A-AC4	A-AC5	A-AC6	A-AC7	A-AC8	A-AC9	A-AC10	A-AC11	A-AC12	A-AC13	A-AC14	A-AC15	A-AC16	A-DC1	A-DC2	A-DC3	A-DC4	A-DC5	A-DC6	A-DC7	A-DC8	A-DC9	A-DC10	A-DC11	A-DC12	A-DC13	A-DC14	A-DC15	A-DC16	A-Ph1	A-Ph2	A-Ph3	A-Ph4	A-Ph5	A-Ph6	A-Ph7	A-Ph8	A-Ph9	A-Ph10	A-Ph11	A-Ph12	A-Ph13	A-Ph14	A-Ph15	A-Ph16	

Term	0.00000e+00	0.00000e+00	0.00000e+00	0.00000e+00	0.00000e+00	0.00000e+00	0.00000e+00	0.00000e+00	0.00000e+00	0.00000e+00	0.00000e+00	0.00000e+00	0.00000e+00	0.00000e+00	0.00000e+00	0.00000e+00	0.00000e+00	0.00000e+00	0.00000e+00	0.00000e+00	0.00000e+00	0.00000e+00	0.00000e+00	0.00000e+00	0.00000e+00	0.00000e+00	0.00000e+00	0.00000e+00	0.00000e+00	0.00000e+00	0.00000e+00	0.00000e+00	0.00000e+00	0.00000e+00	0.00000e+00	0.00000e+00	0.00000e+00	0.00000e+00	0.00000e+00	0.00000e+00	0.00000e+00	0.00000e+00	0.00000e+00	0.00000e+00	0.00000e+00	0.00000e+00	0.00000e+00	0.00000e+00	
Factor	1.00000e+00	1.00000e+00	1.00000e+00	1.00000e+00	1.00000e+00	1.00000e+00	1.00000e+00	1.00000e+00	1.00000e+00	1.00000e+00	1.00000e+00	1.00000e+00	1.00000e+00	1.00000e+00	1.00000e+00	1.00000e+00	1.00000e+00	1.00000e+00	1.00000e+00	1.00000e+00	1.00000e+00	1.00000e+00	1.00000e+00	1.00000e+00	1.00000e+00	1.00000e+00	1.00000e+00	1.00000e+00	1.00000e+00	1.00000e+00	1.00000e+00	1.00000e+00	X	X	X	X	X	X	X	X	X	X	X	X	X	X	X	X	

B = Detector Channel
Val Type	B-AC1	B-AC2	B-AC3	B-AC4	B-AC5	B-AC6	B-AC7	B-AC8	B-AC9	B-AC10	B-AC11	B-AC12	B-AC13	B-AC14	B-AC15	B-AC16	B-DC1	B-DC2	B-DC3	B-DC4	B-DC5	B-DC6	B-DC7	B-DC8	B-DC9	B-DC10	B-DC11	B-DC12	B-DC13	B-DC14	B-DC15	B-DC16	B-Ph1	B-Ph2	B-Ph3	B-Ph4	B-Ph5	B-Ph6	B-Ph7	B-Ph8	B-Ph9	B-Ph10	B-Ph11	B-Ph12	B-Ph13	B-Ph14	B-Ph15	B-Ph16	

Term	0.00000e+00	0.00000e+00	0.00000e+00	0.00000e+00	0.00000e+00	0.00000e+00	0.00000e+00	0.00000e+00	0.00000e+00	0.00000e+00	0.00000e+00	0.00000e+00	0.00000e+00	0.00000e+00	0.00000e+00	0.00000e+00	0.00000e+00	0.00000e+00	0.00000e+00	0.00000e+00	0.00000e+00	0.00000e+00	0.00000e+00	0.00000e+00	0.00000e+00	0.00000e+00	0.00000e+00	0.00000e+00	0.00000e+00	0.00000e+00	0.00000e+00	0.00000e+00	-2.91036e+01	-1.30727e+02	-1.25827e+02	-1.83848e+02	-4.53590e+01	-6.39396e+01	-1.58330e+02	-1.62015e+02	-4.04028e+01	-6.93137e+01	-1.70849e+02	-1.70812e+02	-1.78650e+02	-1.77103e+02	-5.65599e+01	-1.50176e+02	
Factor	2.48695e-05	1.25508e-04	3.68752e-05	1.52866e-01	1.67459e-06	1.76788e-06	1.70140e-01	5.22108e-02	1.64632e-06	1.54420e-06	8.69566e-02	2.95778e-02	2.73539e-02	9.37122e-03	1.62419e-06	1.32152e-02	8.28636e-06	1.10554e-05	3.07181e-06	7.48206e-02	1.15288e-07	1.22545e-07	7.80540e-02	2.56305e-02	1.14741e-07	1.21952e-07	4.13475e-02	1.40655e-02	1.35687e-02	4.64103e-03	1.17712e-07	6.32584e-03	X	X	X	X	X	X	X	X	X	X	X	X	X	X	X	X	



#DISTANCE SETTINGS
A = Detector Channel
A-1	A-2	A-3	A-4	A-5	A-6	A-7	A-8	A-9	A-10	A-11	A-12	A-13	A-14	A-15	A-16	

2.5000e+00	3.0000e+00	2.5000e+00	3.0000e+00	2.0000e+00	3.0000e+00	1.5000e+00	3.0000e+00	3.0000e+00	3.0000e+00	3.0000e+00	3.0000e+00	3.0000e+00	3.0000e+00	1.5000e+00	3.0000e+00	

B = Detector Channel
B-1	B-2	B-3	B-4	B-5	B-6	B-7	B-8	B-9	B-10	B-11	B-12	B-13	B-14	B-15	B-16	

1.0000e+01	1.0000e+01	1.0000e+01	1.4400e+00	1.0000e+01	1.0000e+01	1.5100e+00	1.9400e+00	1.0000e+01	1.0000e+01	1.9900e+00	2.4900e+00	2.4100e+00	2.9000e+00	1.0000e+01	2.9800e+00	




#DATA BEGINS
time	group	step	mark	flag	A-AC1	A-AC2	A-AC3	A-AC4	A-AC5	A-AC6	A-AC7	A-AC8	A-AC9	A-AC10	A-AC11	A-AC12	A-AC13	A-AC14	A-AC15	A-AC16	A-DC1	A-DC2	A-DC3	A-DC4	A-DC5	A-DC6	A-DC7	A-DC8	A-DC9	A-DC10	A-DC11	A-DC12	A-DC13	A-DC14	A-DC15	A-DC16	A-Ph1	A-Ph2	A-Ph3	A-Ph4	A-Ph5	A-Ph6	A-Ph7	A-Ph8	A-Ph9	A-Ph10	A-Ph11	A-Ph12	A-Ph13	A-Ph14	A-Ph15	A-Ph16	B-AC1	B-AC2	B-AC3	B-AC4	B-AC5	B-AC6	B-AC7	B-AC8	B-AC9	B-AC10	B-AC11	B-AC12	B-AC13	B-AC14	B-AC15	B-AC16	B-DC1	B-DC2	B-DC3	B-DC4	B-DC5	B-DC6	B-DC7	B-DC8	B-DC9	B-DC10	B-DC11	B-DC12	B-DC13	B-DC14	B-DC15	B-DC16	B-Ph1	B-Ph2	B-Ph3	B-Ph4	B-Ph5	B-Ph6	B-Ph7	B-Ph8	B-Ph9	B-Ph10	B-Ph11	B-Ph12	B-Ph13	B-Ph14	B-Ph15	B-Ph16	aux-1	digaux	

50852.617	1	1	0	256	0.068614	0.11308	0.11887	0.24337	0.074648	0.033134	0.14592	0.11071	0.10067	0.067316	0.21056	0.19525	0.2234	0.15461	0.035488	0.088164	-3.8646	-5.0458	-4.1229	-4.9	-4.9437	-4.15	-5.2937	-4.7042	-4.2604	-5.0896	-4.3417	-4.6521	-4.9104	-4.275	-4.95	-4.7625	356.046	206.273	281.691	429.825	336.159	228.269	433.302	404.225	211.532	313.367	447.198	448.096	133.269	374.487	232.104	249.301	0.00074704	0.00057861	0.0001127	1338.3	5.4458e-06	8.0382e-06	1347.5	355.37	7.6717e-06	6.8412e-06	409.42	134.37	115.1	39.112	5.1705e-06	48.943	0.00065036	0.00063212	0.00017862	1366.5	6.9795e-06	7.0093e-06	1369.6	363.61	6.6406e-06	6.7787e-06	417.81	137.35	117.54	40.401	6.6461e-06	50.69	279.430	193.707	178.266	108.766	265.513	255.426	108.454	113.622	295.531	252.621	112.933	117.656	118.311	122.405	245.127	121.458	-8191	255	
50852.715	1	1	0	0	0.25606	0.14284	0.10857	0.35507	0.11875	0.31261	0.17765	0.3283	0.12358	0.22896	0.11701	0.051676	0.087044	0.067025	0.078618	0.10499	-3.8708	-5.0146	-4.3292	-4.6167	-5.0458	-3.9229	-4.9604	-4.8458	-4.125	-5.2438	-4.4854	-4.4563	-5.2	-4.0563	-4.7292	-4.7833	236.447	372.956	345.132	393.292	124.062	376.882	366.809	357.233	439.115	245.981	137.797	128.854	288.347	278.330	242.904	113.584	0.00069764	0.00026275	0.0001424	1336.7	6.7032e-06	3.8597e-06	1343.6	354.53	7.1491e-06	6.8478e-06	407.07	134.55	114.57	38.952	6.0367e-06	49.01	0.00063164	0.00061726	0.00017394	1365.8	6.648e-06	6.6915e-06	1366.5	362.89	6.7286e-06	6.8758e-06	416.42	137.5	117.28	40.324	6.7211e-06	50.701	278.798	156.117	204.307	108.458	250.636	267.883	108.494	113.710	263.314	231.827	112.931	117.727	118.545	122.549	255.314	121.392	-8191	255	
50852.809	1	1	0	0	0.36144	0.17254	0.017963	0.041272	0.17269	0.23179	0.38659	0.17825	0.10874	0.16801	0.044359	0.24538	0.2728	0.12549	0.020357	0.12696	-3.7917	-5.1646	-4.3833	-4.6	-4.9625	-4.3167	-4.825	-4.925	-4.1062	-5.0833	-4.6562	-4.3688	-5.2312	-4.2542	-4.5854	-4.9583	390.377	334.812	323.312	125.164	130.745	186.722	334.600	420.891	209.463	164.906	357.578	397.450	378.841	103.897	211.949	383.755	0.00068366	0.00048338	0.00011979	1336.9	8.4581e-06	5.0531e-06	1344	353.34	5.3592e-06	2.4876e-06	405.75	134.55	114.58	38.927	4.861e-06	48.911	0.00062229	0.00062145	0.00017298	1364.3	6.6036e-06	6.7402e-06	1364.7	361.82	6.8491e-06	6.5689e-06	416.44	137.21	116.96	40.248	6.6777e-06	50.571	275.287	187.575	173.486	108.561	248.334	258.187	108.475	113.662	274.477	283.380	112.996	117.561	118.442	122.419	260.047	121.327	-8191	255	
50852.906	1	1	0	0	0.084192	0.11447	0.064816	0.28523	0.28095	0.02227	0.19999	0.066201	0.21098	0.15854	0.34807	0.14045	0.096062	0.12743	0.017521	0.13358	-3.9313	-4.8729	-4.7021	-4.2625	-4.95	-4.1479	-4.75	-5.1396	-4.0333	-5.0062	-4.925	-4.1833	-5.2562	-4.4958	-4.4146	-5.1229	219.699	358.555	393.373	105.008	214.223	385.139	403.626	114.244	410.871	404.183	104.752	441.978	334.371	422.827	452.760	122.422	0.00071259	0.00028399	7.688e-05	1336.6	9.9776e-06	5.0138e-06	1336.5	353.02	8.2005e-06	4.1806e-06	407.76	134.5	114.06	38.784	6.8572e-06	48.992	0.00063729	0.00061312	0.0001707	1361.9	6.7059e-06	6.9013e-06	1361.7	361.52	6.8955e-06	6.7724e-06	415.76	137.16	116.83	40.122	6.777e-06	50.457	272.333	142.229	206.026	108.504	244.438	266.656	108.395	113.644	270.375	246.388	112.816	117.696	117.897	122.044	274.722	121.172	-8191	255	
50853.027	1	1	0	0	0.17633	0.26976	0.072708	0.18911	0.29332	0.23904	0.056655	0.17166	0.12452	0.20499	0.13301	0.1089	0.22192	0.13583	0.099048	0.13142	-3.8208	-5.0146	-4.8042	-4.4083	-4.9938	-4.5083	-4.4437	-5.2	-4.0833	-4.9042	-5.0521	-4.3125	-5.2167	-4.5896	-4.3896	-5.3125	250.037	267.443	170.160	374.764	132.557	188.070	446.164	367.572	367.436	239.015	111.559	371.351	234.784	405.457	315.154	119.609	0.00072828	2.4776e-05	0.00013698	1334	6.3549e-06	5.4124e-06	1341.5	353.54	1.0353e-05	5.4165e-06	405.66	132.81	114.16	38.809	4.8314e-06	48.867	0.00063534	0.00061544	0.0001682	1359.2	6.6862e-06	6.8472e-06	1361.4	360.82	6.7625e-06	6.5839e-06	415.15	136.54	116.77	40.152	6.7479e-06	50.456	276.098	173.854	168.588	108.730	274.946	237.517	108.597	113.657	291.480	221.782	112.712	117.650	118.258	122.547	220.242	121.277	-8191	255	
50853.098	1	1	0	0	0.036854	0.1181	0.13968	0.22974	0.076202	0.13592	0.052191	0.074402	0.10803	0.03327	0.19787	0.056975	0.15694	0.25107	0.064627	0.12561	-3.8792	-4.7	-4.9563	-4.4271	-5.1521	-4.6062	-4.5896	-5.2104	-4.2312	-4.6708	-5.2292	-4.3771	-5.1312	-5.0062	-4.3063	-5.3	254.225	226.891	115.392	386.160	189.992	109.607	154.589	370.751	292.295	244.536	391.975	296.309	442.260	396.259	176.608	366.320	0.00072057	0.00022517	0.00011488	1331.5	5.6196e-06	7.9069e-06	1334.6	353.46	6.0528e-06	3.3229e-06	402.47	133.27	113.89	38.939	6.5325e-06	48.637	0.00063748	0.00062191	0.00016958	1357.5	6.7559e-06	6.9077e-06	1357.5	360.15	6.8429e-06	6.8285e-06	413.16	136.67	116.56	40.147	6.819e-06	50.311	278.113	188.489	202.459	108.784	257.671	268.204	108.472	113.600	265.653	244.560	112.949	117.834	118.506	122.701	253.499	121.170	-8191	255	
50853.219	1	1	0	0	0.16052	0.038574	0.15299	0.21854	0.19728	0.25798	0.2065	0.30044	0.17832	0.19326	0.30738	0.013979	0.2154	0.17749	0.065585	0.089754	-4.0417	-4.5563	-5.0042	-4.2708	-4.8542	-4.8125	-4.3604	-5.1667	-4.25	-4.475	-5.0521	-4.3146	-4.875	-4.9083	-4.0521	-5.1167	228.924	176.349	175.666	402.435	318.088	368.616	392.869	425.985	160.784	341.513	403.850	385.267	399.369	407.531	320.998	295.277	0.00074335	0.0004269	0.00011648	1330.6	9.5727e-06	2.9792e-06	1330.4	351.47	5.7169e-06	5.4176e-06	403.26	133.48	114.18	38.535	7.2545e-06	48.579	0.00064635	0.00061685	0.00017063	1356.4	6.8171e-06	6.7285e-06	1355.3	359.76	6.7881e-06	6.7206e-06	413.31	136.11	116.18	39.892	6.6007e-06	50.103	274.706	191.980	207.822	108.883	268.183	260.892	108.470	113.689	282.222	247.014	113.106	117.507	118.144	122.504	233.724	121.383	-8191	255	
50853.316	1	1	0	0	0.11914	0.12105	0.28868	0.11892	0.078316	0.23376	0.061378	0.1975	0.20273	0.11372	0.13253	0.32864	0.0436	0.25786	0.095034	0.056194	-4.1875	-4.2875	-5.0729	-4.2604	-4.7125	-5.0188	-4.275	-5.3646	-4.3229	-4.3562	-5.2521	-4.2562	-4.7562	-4.9625	-4.0667	-5.1354	148.572	362.939	410.440	431.403	336.491	425.295	375.311	380.696	251.278	375.637	361.757	323.847	248.398	382.407	376.363	264.201	0.00069261	0.00034765	7.8459e-05	1323.6	4.833e-06	4.4346e-06	1332.8	349.45	5.7583e-06	5.412e-06	400.23	133.49	113.8	38.225	4.4788e-06	48.402	0.0006211	0.00060584	0.00016985	1350.1	6.5054e-06	6.4735e-06	1349.9	358.34	6.6428e-06	6.6248e-06	411.01	136.14	115.63	39.722	6.5826e-06	49.965	278.289	173.035	221.947	108.843	263.167	236.136	108.464	113.743	272.439	250.419	113.404	117.498	118.137	122.543	249.329	121.085	-8191	255	
50853.410	1	1	0	0	0.17894	0.0759	0.12431	0.26432	0.13661	0.1495	0.22508	0.31328	0.096894	0.16784	0.14488	0.14624	0.32936	0.1296	0.13424	0.1884	-4.0833	-4.3542	-5.075	-4.3729	-4.5208	-4.875	-4.2375	-4.9479	-4.7792	-4.2479	-5.1125	-4.2896	-4.7354	-5.0312	-4.1167	-5.0125	132.303	451.844	234.590	412.126	333.494	278.709	352.609	415.365	99.931	415.960	435.938	379.411	408.576	164.769	185.977	406.176	0.00071381	0.00036229	0.00014626	1320.1	7.025e-06	6.048e-06	1329.7	348.68	5.6217e-06	3.3477e-06	401.54	132.2	112.74	38.441	5.4727e-06	48.469	0.00060544	0.00060287	0.00016819	1347.9	6.569e-06	6.5232e-06	1349.8	357.42	6.5768e-06	6.6202e-06	411.68	135.45	115.45	39.74	6.6829e-06	49.92	277.697	178.647	179.156	108.898	258.206	260.025	108.381	113.811	274.619	267.078	113.018	117.870	118.058	122.142	251.038	121.377	-8191	255	
50853.508	1	1	0	0	0.16678	0.091659	0.084469	0.13157	0.072547	0.22472	0.27494	0.23619	0.041169	0.21764	0.09891	0.21192	0.21554	0.043457	0.11142	0.32972	-4.5208	-4.2646	-5.0125	-4.475	-4.4417	-5.1813	-4.2292	-4.9896	-4.8125	-4.3021	-5.1896	-4.3167	-4.55	-5.1896	-4.1958	-4.9125	131.072	303.699	188.041	449.238	318.062	278.914	397.739	407.419	163.678	296.873	101.100	423.303	361.278	348.799	182.694	126.283	0.00068281	0.00051988	8.7435e-05	1313.4	7.7204e-06	5.1054e-06	1323.3	348.5	5.0384e-06	4.2596e-06	402.66	132.43	113.17	38.548	6.0515e-06	48.237	0.00062303	0.00063184	0.0001661	1342.7	6.6595e-06	6.534e-06	1347	356.97	6.5378e-06	6.9009e-06	410.91	135.58	115.59	39.793	6.8712e-06	49.922	275.520	179.746	226.230	108.724	265.289	246.731	108.587	113.560	307.742	206.460	113.110	117.767	118.378	122.635	260.013	121.489	-8191	255	
50853.605	1	1	0	0	0.013755	0.15106	0.15229	0.26783	0.041858	0.19029	0.17861	0.13389	0.31064	0.24165	0.2742	0.005524	0.076798	0.084957	0.18975	0.11977	-4.5625	-4.0667	-5.0604	-4.6583	-4.1396	-5.0771	-4.4104	-4.7708	-4.9979	-4.1	-5.2229	-4.5312	-4.1458	-5.2396	-4.2979	-4.6479	272.463	200.102	351.124	426.750	311.296	433.796	337.152	423.160	238.464	277.513	103.838	244.809	356.601	99.919	294.867	372.141	0.00063717	0.00031808	0.00013343	1317.2	7.1822e-06	5.0452e-06	1327.3	348.73	5.333e-06	4.4486e-06	401.09	133.34	112.83	38.272	7.559e-06	48.145	0.00060689	0.0006236	0.00016972	1346.5	6.8044e-06	6.8161e-06	1350	357.36	6.829e-06	6.9129e-06	411.36	136.01	115.38	39.77	7.0706e-06	49.876	277.567	184.734	159.277	108.707	269.991	229.333	108.559	113.772	257.695	240.298	112.773	117.823	118.178	122.293	277.648	121.546	-8191	255	
50853.723	1	1	0	0	0.16474	0.12152	0.1237	0.45638	0.075983	0.1202	0.19517	0.12966	0.093427	0.089813	0.16927	0.18608	0.26176	0.061884	0.11664	0.22533	-4.5958	-4.0667	-4.8438	-5.0083	-4.2979	-5.1208	-4.5104	-4.6312	-4.9583	-4.0375	-5.0188	-4.7937	-4.2083	-5.1833	-4.3229	-4.5062	230.289	267.439	379.357	114.060	103.588	447.814	436.379	381.583	343.302	213.864	119.573	311.407	128.394	358.972	368.888	455.011	0.00067233	0.0005661	0.00012054	1322.5	8.0798e-06	5.7883e-06	1329.1	349.75	9.3427e-06	4.3561e-06	404.83	132.9	112.98	38.328	7.5712e-06	48.298	0.00064697	0.00064651	0.00017946	1352.5	7.0765e-06	6.9218e-06	1351.9	357.82	6.7888e-06	7.2119e-06	412.52	135.97	115.64	39.723	7.0527e-06	49.921	273.488	196.494	192.006	108.784	259.741	239.002	108.644	113.325	275.363	228.995	112.800	117.878	118.353	122.163	275.587	121.148	-8191	255	
50853.793	1	1	0	0	0.10655	0.1404	0.2488	0.19447	0.1571	0.14422	0.26118	0.031674	0.12378	0.050456	0.16378	0.20255	0.28598	0.092128	0.11866	0.045882	-4.75	-3.9771	-4.7354	-5.0708	-4.2708	-5.0604	-4.6458	-4.4729	-4.975	-4.1125	-4.825	-4.9833	-4.3021	-5.0625	-4.4792	-4.3896	316.971	96.488	125.301	420.047	451.269	195.497	435.915	311.294	189.643	270.663	367.389	382.184	428.483	112.137	438.429	155.327	0.00075308	0.00028394	0.00010276	1325	4.8452e-06	9.0864e-06	1327.3	350.2	6.3188e-06	4.7848e-06	402.16	132.1	112.68	38.315	8.0242e-06	48.274	0.00064628	0.00065872	0.00017846	1352.8	7.1073e-06	7.0716e-06	1351.5	357.7	6.7088e-06	7.0049e-06	411.11	135.7	115.38	39.747	6.9718e-06	49.976	276.508	185.692	193.953	109.039	278.145	251.272	108.541	113.486	274.092	246.531	112.641	117.666	118.115	122.484	265.727	121.362	-8191	255	
50853.891	1	1	0	0	0.1134	0.21227	0.07967	0.26923	0.35918	0.082481	0.23429	0.03878	0.16537	0.19771	0.06577	0.19149	0.076319	0.1236	0.22977	0.10088	-4.7979	-4.1625	-4.6	-5.2521	-4.1083	-5.0146	-4.6333	-4.4042	-5.1021	-4.3	-4.7104	-5.0896	-4.2021	-4.95	-4.6458	-4.3771	133.490	377.174	151.117	423.495	357.695	448.463	402.123	423.156	99.476	410.398	227.326	445.222	421.088	115.003	121.417	400.621	0.00069765	0.00041934	8.635e-05	1320.8	8.2704e-06	5.9583e-06	1330.5	348.06	8.0565e-06	3.2096e-06	402.21	132.87	112.44	38.362	6.2709e-06	48.263	0.00062655	0.00063262	0.00017372	1349.7	6.899e-06	6.836e-06	1350.3	356.6	6.6566e-06	6.875e-06	411.74	135.74	115.1	39.684	6.8055e-06	49.842	276.473	198.936	202.534	108.991	263.232	237.555	108.689	113.566	280.368	270.282	112.876	117.637	118.359	122.496	245.531	121.353	-8191	255	
50853.988	1	1	0	0	0.19194	0.10482	0.20686	0.12893	0.14673	0.16342	0.15511	0.05462	0.28125	0.37151	0.15081	0.26954	0.1951	0.028001	0.14745	0.15257	-4.8708	-4.3729	-4.4375	-5.1583	-4.0917	-4.7417	-5.0021	-4.35	-4.95	-4.3646	-4.3938	-5.1167	-4.1854	-4.8146	-4.7583	-4.2542	259.073	346.410	285.944	405.976	415.624	295.780	379.342	278.741	225.934	439.003	352.791	106.879	365.787	297.422	180.707	393.760	0.00066376	0.00030998	0.00012444	1324.8	5.6862e-06	7.0122e-06	1332.1	349.82	4.774e-06	4.3836e-06	402.1	133.14	112.2	38.489	5.7253e-06	48.261	0.00061721	0.00063691	0.00017537	1351.3	6.8872e-06	7.1492e-06	1353.5	357.52	6.9552e-06	7.2831e-06	411.02	135.76	115.29	39.815	6.9683e-06	49.875	277.137	156.853	162.180	108.698	288.327	222.258	108.874	113.672	292.206	262.205	112.647	117.946	118.270	122.366	258.176	121.286	-8191	255	
50854.105	1	1	0	0	0.046912	0.14715	0.084219	0.1887	0.16267	0.071557	0.12377	0.1795	0.15133	0.08812	0.055705	0.17922	0.11982	0.19937	0.21297	0.027936	-4.7917	-4.3875	-4.4292	-5.3854	-4.2396	-4.675	-5.0146	-4.2812	-4.9688	-4.5167	-4.3833	-5.1896	-4.2937	-4.6146	-4.8917	-4.1333	335.135	302.770	291.147	421.033	439.039	140.235	402.973	385.764	386.051	305.106	249.052	447.336	307.678	447.332	109.721	126.007	0.00068701	0.00030479	0.00015933	1322.2	8.8347e-06	5.3735e-06	1327.5	348.98	6.8068e-06	5.7216e-06	400.59	132.66	112.32	38.21	6.4423e-06	48.344	0.00063327	0.00065084	0.00017193	1352.8	6.9514e-06	6.8802e-06	1351.5	356.71	6.7484e-06	6.8301e-06	409.69	135.53	114.87	39.602	6.7606e-06	49.791	275.572	193.277	194.101	108.761	251.551	253.601	108.625	113.302	269.364	265.032	112.625	117.801	118.141	122.370	258.736	121.253	-8191	255	
50854.203	1	1	0	0	0.18142	0.014907	0.17119	0.40493	0.07859	0.17451	0.33507	0.067721	0.084089	0.08737	0.11267	0.23459	0.2535	0.1828	0.30919	0.1143	-4.6917	-4.6292	-4.1521	-5.2333	-4.2167	-4.5583	-5.2479	-4.25	-4.9688	-4.6375	-4.3	-5.2271	-4.4771	-4.6062	-5.0312	-4.1417	379.922	444.789	264.483	393.020	223.320	296.237	342.977	442.888	306.243	348.983	383.692	380.095	428.631	231.000	233.819	385.950	0.00073459	0.00039889	8.6751e-05	1322.2	5.5825e-06	5.588e-06	1328.1	347.78	5.5596e-06	2.8016e-06	399.25	132.64	112.2	38.226	6.8378e-06	48.201	0.00063408	0.00060651	0.00017017	1348.2	6.7472e-06	6.7234e-06	1346.7	355.69	6.5794e-06	6.9383e-06	408.8	135.21	114.89	39.523	6.4322e-06	49.629	275.838	198.793	176.861	108.591	229.148	221.903	108.515	113.691	264.894	263.244	112.984	117.899	118.218	122.341	223.492	121.217	-8191	255	
50854.301	1	1	0	0	0.25588	0.21018	0.071221	0.053347	0.043619	0.29522	0.35873	0.077132	0.1504	0.069041	0.22692	0.3376	0.2168	0.19479	0.21843	0.30353	-4.4958	-4.5938	-4.0979	-5.3375	-4.4417	-4.4437	-5.3125	-4.2792	-4.7646	-4.8104	-4.2688	-5.0667	-4.6271	-4.45	-5.0188	-4.2479	122.260	186.292	414.116	383.734	149.678	241.533	435.538	368.095	260.587	295.193	342.537	411.489	148.671	404.958	137.093	121.211	0.0006763	0.00048103	0.00010678	1320.7	6.9759e-06	6.6357e-06	1323.6	346.04	6.8319e-06	5.1792e-06	397.87	132.2	112.24	38.3	6.8203e-06	48.236	0.00060547	0.00061302	0.00017434	1344.7	6.6399e-06	6.547e-06	1344.9	355.11	6.5084e-06	6.6192e-06	408.58	134.98	114.86	39.568	6.5156e-06	49.614	271.448	198.081	214.988	108.684	257.245	245.400	108.468	113.351	257.520	238.473	112.915	117.787	118.079	122.085	244.276	121.570	-8191	255	
50854.395	1	1	0	0	0.13457	0.094737	0.17839	0.10863	0.19399	0.077016	0.029251	0.19434	0.10547	0.086019	0.1669	0.39616	0.16127	0.22807	0.074962	0.02805	-4.4688	-4.8354	-4.1292	-5.1604	-4.6062	-4.3979	-5.3854	-4.2812	-4.6583	-5.0417	-4.1042	-5.0813	-4.6729	-4.325	-5.0104	-4.3208	431.441	237.233	332.615	96.315	379.591	349.128	402.638	383.855	417.749	114.729	376.425	435.099	430.782	444.481	249.179	368.097	0.00069275	0.00037152	0.00011866	1317.4	6.4655e-06	8.3343e-06	1322.8	348.16	5.5315e-06	5.8354e-06	396.77	131.85	112.03	38.183	3.5256e-06	48.154	0.00060026	0.00059635	0.00016771	1345	6.5234e-06	6.5886e-06	1345.9	355.39	6.4597e-06	6.6024e-06	408.34	134.8	114.69	39.532	6.4327e-06	49.625	278.238	210.045	190.533	108.708	263.940	259.517	108.677	113.644	277.423	257.984	112.828	117.618	118.264	122.103	257.910	121.428	-8191	255	
50854.488	1	1	0	0	0.058034	0.20449	0.18507	0.19241	0.15473	0.32471	0.37753	0.15587	0.081243	0.20301	0.13767	0.14758	0.055314	0.11296	0.12602	0.020865	-4.1687	-5.0687	-4.2979	-5.1813	-4.725	-4.1021	-5.4917	-4.5854	-4.3479	-5.2042	-4.3438	-4.9167	-4.8542	-4.1896	-5.0437	-4.5437	440.446	405.396	148.667	399.851	340.995	148.229	412.175	407.347	119.442	297.953	335.022	380.438	100.545	427.681	339.706	321.149	0.00070961	0.00030142	0.00017117	1315.5	7.1988e-06	5.3312e-06	1326.6	347.01	1.0521e-05	6.965e-06	398.73	132.66	112.06	38.145	7.4477e-06	48.106	0.00061575	0.00059098	0.00016646	1343.4	6.5287e-06	6.5843e-06	1345.7	354.91	6.5084e-06	6.5958e-06	408.06	134.98	114.67	39.502	6.494e-06	49.665	275.792	191.571	185.641	108.683	277.599	235.559	108.568	113.742	259.281	261.280	112.599	117.317	118.374	122.312	265.485	120.943	-8191	255	
50854.590	1	1	0	0	0.19246	0.24526	0.22124	0.067751	0.064445	0.10614	0.092805	0.226	0.15763	0.086966	0.12936	0.27543	0.13555	0.1937	0.039458	0.2518	-4.1188	-5.0312	-4.1708	-5.0083	-4.9896	-4.1937	-5.2229	-4.7375	-4.1958	-5.1729	-4.2458	-4.8104	-5.05	-4.3438	-5.0333	-4.7396	179.066	453.441	385.416	416.383	370.446	195.246	436.086	403.646	398.004	362.935	232.242	192.893	180.995	414.001	152.090	415.455	0.0006962	0.00046257	0.00015637	1315.7	5.4021e-06	5.3288e-06	1324.9	348.31	5.5595e-06	4.5306e-06	397.47	131.53	111.96	38.076	7.2991e-06	48.207	0.00061556	0.00061312	0.00017014	1344.1	6.5303e-06	6.6366e-06	1346.2	355.17	6.7408e-06	6.6791e-06	408.08	134.78	114.5	39.531	6.6297e-06	49.661	276.382	161.133	206.960	108.626	262.153	238.948	108.674	113.719	278.799	218.247	112.774	117.674	118.141	122.335	241.268	121.314	-8191	255	
50854.707	1	1	0	0	0.072996	0.13889	0.089254	0.11647	0.096575	0.11975	0.10655	0.09771	0.10878	0.064127	0.22531	0.15392	0.36425	0.15225	0.20652	0.21698	-3.9625	-5.0104	-4.2063	-4.7396	-4.9729	-4.1417	-5.3229	-4.8979	-4.2375	-5.225	-4.5604	-4.5979	-4.9146	-4.1562	-4.825	-4.8688	408.477	109.234	97.674	120.453	259.725	329.634	279.212	406.218	415.702	394.340	136.301	108.619	448.386	404.690	124.908	434.262	0.0007025	0.00025364	8.1676e-05	1319.7	8.857e-06	5.2177e-06	1318.9	347.14	1.1962e-05	5.8009e-06	398.83	132.15	111.97	38.104	4.8062e-06	47.965	0.00062757	0.00061659	0.00017516	1345.8	6.6939e-06	6.8876e-06	1346.5	355.32	6.665e-06	6.6555e-06	408.87	134.86	114.82	39.515	6.4864e-06	49.575	277.245	190.110	222.762	108.640	260.433	249.562	108.546	113.883	259.872	219.785	112.909	117.644	118.465	122.462	265.652	121.434	-8191	255	
50854.805	1	1	0	0	0.063563	0.084399	0.17355	0.25193	0.09648	0.21316	0.27976	0.083481	0.087492	0.17126	0.068489	0.07414	0.062091	0.24234	0.16495	0.076593	-3.7479	-5.0708	-4.3063	-4.5583	-5.0979	-4.1229	-5.2146	-4.95	-4.1937	-4.9854	-4.6062	-4.4187	-5.1396	-4.1792	-4.7229	-5.0104	313.551	383.247	288.456	384.582	374.794	313.530	407.793	400.488	226.609	363.737	305.659	211.359	151.700	432.612	184.138	119.278	0.0007253	0.00030321	8.7554e-05	1310.3	5.0815e-06	3.7032e-06	1323.7	346.25	8.939e-06	6.2095e-06	398.99	131.26	112.09	38.107	6.9651e-06	48.067	0.00062065	0.00060429	0.00016608	1340.2	6.5359e-06	6.7025e-06	1343.3	354.14	6.584e-06	6.5541e-06	408.2	134.48	114.62	39.461	6.4097e-06	49.661	273.240	175.728	205.297	108.692	264.842	253.029	108.632	113.624	266.595	214.639	112.789	117.791	118.183	122.446	242.527	121.358	-8191	255	
50854.898	1	1	0	0	0.27843	0.15797	0.19894	0.23928	0.14686	0.034492	0.091174	0.10208	0.24945	0.24661	0.31897	0.27397	0.075083	0.095177	0.30875	0.15677	-3.7083	-4.8583	-4.5542	-4.3313	-5.1438	-4.3292	-4.7604	-5.0708	-4.0958	-5.1146	-4.7167	-4.2958	-5.0292	-4.4	-4.5167	-5.0479	223.238	189.371	108.745	430.452	108.527	238.490	276.130	118.396	346.361	302.541	422.411	442.747	357.364	138.149	263.890	384.640	0.00071175	0.00051503	0.00011784	1310.7	6.1402e-06	3.0646e-06	1324.1	346.5	5.4752e-06	2.4788e-06	398.87	131.53	112.08	38.347	2.7388e-06	48.376	0.0006155	0.00058566	0.00016604	1340.8	6.7446e-06	6.7691e-06	1344.8	354.64	6.5871e-06	6.5384e-06	408.42	134.61	114.58	39.606	6.4156e-06	49.731	277.287	206.768	176.243	108.744	268.047	239.200	108.615	113.680	270.297	221.005	113.029	117.823	118.140	122.265	259.954	121.212	-8191	255	
50854.996	1	1	0	0	0.12342	0.096348	0.24165	0.23563	0.021154	0.14545	0.084928	0.2504	0.23761	0.083038	0.22256	0.10646	0.1521	0.24556	0.16587	0.24131	-3.8229	-4.7896	-4.6396	-4.2104	-5.0979	-4.25	-4.5979	-5.1104	-3.8812	-4.85	-4.8792	-4.2958	-5.0271	-4.5188	-4.3792	-5.2833	398.695	202.176	134.839	440.203	402.618	223.547	444.388	288.277	180.742	325.889	440.057	123.376	207.926	113.969	127.215	343.199	0.00073733	0.00020362	0.00014671	1314.2	9.1785e-06	2.9171e-06	1317	345.86	8.5185e-06	5.0956e-06	397.38	131.4	111.98	38.085	7.1512e-06	48.001	0.00061873	0.00058596	0.00016421	1341	6.5536e-06	6.692e-06	1341.4	354.46	6.6449e-06	6.5399e-06	407.86	134.48	114.44	39.464	6.4967e-06	49.641	271.910	176.562	193.336	108.673	284.150	254.611	108.708	113.484	270.670	204.874	112.787	117.375	118.374	122.304	272.401	121.655	-8191	255	
50855.094	1	1	0	0	0.067236	0.056318	0.18322	0.17492	0.13462	0.23182	0.3398	0.14319	0.16552	0.058433	0.0028003	0.21877	0.077259	0.14622	0.17813	0.27711	-3.8417	-4.725	-4.8688	-4.3187	-4.9563	-4.4396	-4.6125	-5.2958	-4.0958	-4.5458	-4.9958	-4.0771	-5.1875	-4.7021	-4.2458	-5.2479	100.638	218.801	261.647	385.265	233.191	112.091	373.735	440.546	359.536	451.760	347.453	129.362	306.389	452.836	384.049	402.511	0.00068679	0.00039058	4.3948e-05	1315	8.5961e-06	2.7319e-06	1317.9	345.72	7.0463e-06	4.9149e-06	399.69	131.37	111.87	38.117	4.4443e-06	48.215	0.00060375	0.00060063	0.00016581	1340.2	6.5058e-06	6.5212e-06	1341.9	354.43	6.6514e-06	6.5541e-06	407.89	134.26	114.43	39.52	6.5774e-06	49.65	277.328	197.508	244.232	108.654	257.896	209.987	108.280	113.629	284.293	207.067	113.121	117.818	118.220	122.665	250.385	121.265	-8191	255	
50855.188	1	1	0	0	0.098867	0.040516	0.17833	0.28006	0.16843	0.058052	0.049036	0.15317	0.087547	0.15963	0.29256	0.16646	0.025782	0.1268	0.12654	0.24507	-3.9229	-4.6583	-4.9083	-4.3021	-4.9563	-4.7833	-4.35	-5.3979	-4.275	-4.4563	-5.1687	-4.1604	-4.9125	-4.8208	-4.3708	-5.2521	322.087	166.253	433.364	400.599	100.624	287.012	340.407	396.169	425.405	353.105	377.742	330.647	410.460	349.256	158.813	125.037	0.00067597	0.00048387	6.3749e-05	1319.4	5.896e-06	4.3265e-06	1319	344.38	7.6098e-06	4.088e-06	398.39	131.01	111.96	38.24	4.4197e-06	48.175	0.00062184	0.000594	0.00016389	1342.7	6.6761e-06	6.6749e-06	1342.4	354.26	6.5486e-06	6.5511e-06	408.54	134.53	114.64	39.555	6.7444e-06	49.799	275.078	187.516	150.114	108.484	259.364	242.032	108.535	113.600	283.464	222.764	112.806	117.533	118.200	122.174	269.535	121.669	-8191	255	
50855.309	1	1	0	0	0.13413	0.073333	0.056954	0.10659	0.1956	0.12298	0.2073	0.046334	0.12871	0.16237	0.25136	0.081567	0.23668	0.18525	0.16294	0.043501	-3.9688	-4.425	-4.9	-4.2333	-4.8271	-4.8938	-4.35	-5.0958	-4.3917	-4.375	-5.1417	-4.2896	-4.625	-5.0625	-4.1625	-5.0167	305.549	149.809	193.008	395.104	246.408	380.350	415.728	107.713	205.997	413.025	393.707	362.664	109.623	421.541	276.492	349.825	0.00070678	0.00044778	0.00011349	1314.5	6.6124e-06	6.1139e-06	1324.1	345.73	7.4403e-06	5.169e-06	398.4	131.84	111.97	38.218	8.1832e-06	48.053	0.00063957	0.00060383	0.0001685	1343.3	6.7523e-06	6.8089e-06	1345	354.38	6.7745e-06	6.6692e-06	408.02	134.48	114.68	39.48	6.5742e-06	49.724	275.297	180.405	173.014	108.882	279.677	279.810	108.426	113.729	276.930	235.531	113.123	117.436	118.142	122.432	265.741	121.328	-8191	255	
50855.402	1	1	0	0	0.054728	0.1235	0.16098	0.23373	0.18648	0.13574	0.25499	0.11787	0.099211	0.0061156	0.077776	0.31819	0.26242	0.14023	0.15888	0.20749	-4.1583	-4.2937	-4.8938	-4.3708	-4.5479	-5.0062	-4.2	-5.1375	-4.6937	-4.325	-5.2604	-4.4021	-4.6667	-5	-4.25	-5.0625	251.204	407.306	144.766	430.115	140.302	163.923	423.948	388.931	155.918	205.398	98.086	446.396	451.441	117.547	360.429	396.153	0.00068025	0.00044621	0.00013291	1317.1	6.5496e-06	4.4903e-06	1325.4	346.53	6.8087e-06	6.2675e-06	398.55	130.91	111.48	38.194	6.1343e-06	47.977	0.00060927	0.00060358	0.0001677	1340.1	6.7919e-06	6.5779e-06	1343.9	354.23	6.4575e-06	6.5884e-06	407.97	134.33	114.31	39.533	6.586e-06	49.59	272.924	200.264	176.424	108.871	260.932	250.491	108.542	113.598	263.254	229.927	112.981	117.922	118.243	122.415	239.447	121.336	-8191	255	
50855.500	1	1	0	0	0.076941	0.22219	0.07876	0.15004	0.2025	0.21525	0.16142	0.18478	0.13731	0.15507	0.22258	0.18567	0.16208	0.12692	0.14802	0.12212	-4.4125	-4.0667	-5.0958	-4.5042	-4.3688	-5.0396	-4.2979	-5.0292	-4.7646	-4.1646	-5.1729	-4.5021	-4.4875	-5.0521	-4.1292	-4.8958	245.031	139.162	385.783	97.204	224.289	189.655	332.994	378.174	161.016	235.628	430.175	395.071	417.890	437.988	267.351	345.684	0.00068983	0.00025176	0.00011382	1313.4	5.6751e-06	4.4545e-06	1322.7	346.59	9.2369e-06	4.0289e-06	397.06	130.91	111.79	38.136	7.4523e-06	48.284	0.00062265	0.00063129	0.00016777	1341.6	6.5623e-06	6.4533e-06	1344	354.01	6.5357e-06	6.7955e-06	407.13	134.47	114.52	39.53	6.817e-06	49.693	272.758	199.121	204.277	109.055	286.480	236.609	108.604	113.630	275.361	272.632	112.829	117.817	118.094	122.360	260.482	121.191	-8191	255	
50855.594	1	1	0	0	0.055003	0.16412	0.1732	0.12225	0.1523	0.21332	0.21016	0.15878	0.14707	0.1765	0.13605	0.19449	0.1794	0.16439	0.16549	0.13018	-4.4229	-4.1937	-5.0563	-4.7521	-4.3562	-5.0354	-4.3917	-4.8187	-4.9938	-4.0542	-5.1562	-4.6771	-4.3833	-5.2312	-4.1625	-4.6979	235.631	234.681	363.717	400.307	257.922	172.885	416.577	112.459	397.627	96.202	210.504	157.224	434.354	360.078	163.557	127.732	0.00071606	0.00047916	9.633e-05	1312.6	6.1163e-06	4.6952e-06	1328.4	347.13	5.5207e-06	3.0885e-06	399.54	131.9	112.16	38.389	4.2318e-06	48.035	0.00061518	0.00062	0.00016914	1341.1	6.8128e-06	6.7349e-06	1344.4	354.82	6.6853e-06	7.0216e-06	408.79	134.55	114.74	39.636	6.949e-06	49.773	277.647	184.068	172.585	108.795	269.840	220.889	108.616	113.601	272.109	237.095	112.904	117.857	118.031	122.318	226.152	121.352	-8191	255	
50855.691	1	1	0	0	0.22255	0.24404	0.065446	0.29659	0.08419	0.1534	0.36641	0.11495	0.082463	0.081932	0.16588	0.13488	0.054835	0.23708	0.12783	0.022788	-4.7583	-4.2354	-4.8667	-4.7375	-4.3688	-5.25	-4.3167	-4.7292	-5.0646	-4.1604	-5.0604	-4.7542	-4.3208	-5.1208	-4.2688	-4.6021	190.231	285.156	218.908	449.031	388.850	211.143	424.460	414.677	356.865	360.462	402.770	129.743	380.742	431.811	117.288	345.263	0.00069448	0.0004878	0.00012563	1318.7	8.0377e-06	4.9652e-06	1327.8	347.61	7.0223e-06	5.418e-06	402.69	132.39	112.34	38.482	3.3147e-06	48.274	0.00062424	0.00063421	0.00017461	1346.5	6.9526e-06	6.9649e-06	1349.6	355.84	6.9861e-06	7.2749e-06	411.12	135.05	115.18	39.856	7.0841e-06	49.942	274.181	186.794	213.890	108.994	266.753	230.722	108.748	113.645	261.899	237.065	112.824	117.677	117.878	122.427	276.945	121.661	-8191	255	
50855.785	1	1	0	0	0.019332	0.23204	0.27051	0.058677	0.051764	0.14521	0.16047	0.082494	0.20919	0.098829	0.19893	0.088563	0.086298	0.22087	0.16806	0.10437	-4.6979	-3.9313	-4.8187	-5.025	-4.1625	-5.0938	-4.6333	-4.4313	-5.0375	-4.1729	-4.8125	-4.9417	-4.3333	-5.1729	-4.4375	-4.45	251.498	405.235	324.254	435.140	256.673	265.099	108.102	363.268	405.422	449.911	349.092	406.470	341.789	327.418	409.716	413.181	0.0007128	0.00040763	0.00012916	1331.8	9.3561e-06	5.614e-06	1337.1	350.31	9.1927e-06	2.422e-06	403.36	132.83	113.64	38.856	3.1817e-06	48.854	0.00066581	0.00068841	0.00019097	1360.2	7.6565e-06	7.6558e-06	1360.1	358.92	7.739e-06	8.0013e-06	415.3	136.33	116.49	40.254	8.3809e-06	50.643	276.968	197.623	198.859	108.880	289.267	245.119	108.578	113.586	262.290	292.758	112.676	117.918	118.086	122.397	245.308	121.247	-8191	255	
50855.883	1	1	0	0	0.32748	0.10718	0.094757	0.35799	0.21098	0.17297	0.2897	0.18314	0.13195	0.20234	0.28394	0.03639	0.2948	0.25919	0.13979	0.27064	-4.9667	-4.1312	-4.6625	-5.0604	-4.2104	-5.1042	-4.7042	-4.4437	-5.1083	-4.2333	-4.7271	-5.0083	-4.0146	-4.975	-4.5854	-4.2042	177.640	324.005	405.071	104.855	165.605	336.887	426.262	380.376	222.374	443.090	350.364	233.311	391.828	104.006	243.339	105.485	0.00075856	0.00050333	0.00015645	1360.7	9.6506e-06	4.6988e-06	1362.9	357.13	6.0464e-06	5.5413e-06	413.73	135.36	115.62	39.266	5.1411e-06	49.75	0.00075686	0.00079558	0.00022427	1388	8.8344e-06	8.9479e-06	1386.5	366.69	8.7791e-06	9.1255e-06	423.38	138.61	118.52	40.873	9.1188e-06	51.445	277.007	158.708	166.792	108.749	267.238	300.213	108.739	113.330	275.308	233.659	112.846	117.905	117.839	122.164	243.957	120.863	-8191	255	
50855.980	1	1	0	0	0.11026	0.029059	0.039857	0.12724	0.038061	0.17757	0.15162	0.13345	0.14355	0.1355	0.17186	0.19583	0.15103	0.025615	0.23722	0.042789	-4.9021	-4.4958	-4.3917	-5.2812	-4.1104	-4.9604	-4.9833	-4.3562	-5.1542	-4.3375	-4.5979	-5.1833	-4.1438	-4.9375	-4.9229	-4.3438	203.807	454.798	146.107	437.018	364.870	173.321	383.822	414.485	445.809	332.110	351.776	417.552	383.107	389.473	435.378	302.541	0.00068887	0.00027434	0.00017877	1382.8	6.1311e-06	7.7018e-06	1376.9	362.91	8.7845e-06	4.2792e-06	417.66	135.9	116.39	39.635	3.1608e-06	49.823	0.00079188	0.00085124	0.00023616	1412.4	9.412e-06	9.3425e-06	1402.2	370.97	9.1472e-06	9.4241e-06	427.26	139.39	119.77	41.21	9.3164e-06	51.707	278.121	213.663	198.413	108.628	256.152	256.892	108.489	113.476	282.378	250.098	112.637	117.380	118.175	122.398	292.992	120.930	-8191	255	
50856.098	1	1	0	0	0.041044	0.17009	0.14459	0.34379	0.26401	0.054281	0.22331	0.35406	0.2934	0.07478	0.24342	0.14897	0.025399	0.14133	0.16567	0.10248	-4.8917	-4.2937	-4.2562	-5.4083	-4.0604	-4.6479	-5.1292	-4.3187	-5.0292	-4.5333	-4.3708	-5.3187	-4.2083	-4.8812	-4.85	-4.2354	294.549	253.029	243.832	439.628	396.124	174.697	435.402	427.354	179.329	447.958	432.643	96.606	301.280	376.975	291.455	270.664	0.0007159	0.00043632	0.00015114	1393.2	1.161e-05	6.0111e-06	1387.8	364.24	5.5719e-06	5.5241e-06	418.89	135.94	117.27	39.691	4.9973e-06	50.091	0.00082237	0.00087149	0.00024364	1425.2	9.45e-06	9.5649e-06	1411.8	373.36	9.3425e-06	9.6116e-06	429.17	139.78	120.38	41.372	9.4668e-06	51.969	275.606	197.151	196.914	108.744	279.994	204.385	108.499	113.486	223.838	223.896	112.726	117.648	118.008	122.372	293.772	121.359	-8191	255	
50856.195	1	1	0	0	0.099311	0.082806	0.14263	0.266	0.055196	0.14644	0.12758	0.04776	0.17776	0.080577	0.3642	0.30425	0.14183	0.23997	0.063648	0.35699	-4.7375	-4.6521	-4.2354	-5.2729	-4.1438	-4.6562	-5.2583	-4.1479	-4.9167	-4.7562	-4.3187	-5.3083	-4.3896	-4.5312	-5.0229	-4.0792	211.859	97.138	301.220	417.403	105.745	305.999	154.669	106.110	414.240	306.401	376.730	389.753	444.498	401.518	415.132	166.766	0.00075528	0.000311	0.00011624	1398.8	6.7531e-06	8.349e-06	1398.8	366.09	7.8991e-06	4.5828e-06	417.89	137.16	117.7	40.254	6.196e-06	50.092	0.00083086	0.0008766	0.00024685	1430.8	9.676e-06	9.7584e-06	1418.6	375.12	9.2479e-06	9.4965e-06	429.92	140.22	120.73	41.551	9.4413e-06	51.961	276.837	190.872	187.447	108.526	256.284	240.058	108.499	113.400	272.437	255.672	112.664	117.539	118.272	122.129	275.275	121.426	-8191	255	
50856.289	1	1	0	0	0.08943	0.023218	0.20479	0.081503	0.11272	0.2276	0.27361	0.018637	0.23261	0.12922	0.23836	0.19757	0.29911	0.19783	0.10789	0.11826	-4.4167	-4.7479	-4.1729	-5.4375	-4.4375	-4.4042	-5.3396	-4.3354	-4.8438	-4.6937	-4.3083	-5.0167	-4.4417	-4.7	-5.0625	-4.3688	155.752	438.993	188.715	353.084	377.342	206.037	436.242	192.193	102.066	250.011	398.630	124.341	420.920	452.264	328.393	435.019	0.00077118	0.00045428	0.00011373	1401	5.9177e-06	6.5175e-06	1394.9	366.32	7.8045e-06	6.5307e-06	418.44	137.21	118.94	40.175	1.0311e-05	50.438	0.00082869	0.00086718	0.00025075	1434	9.6436e-06	9.714e-06	1421.4	375.24	9.2261e-06	9.6154e-06	430.71	140.59	121.32	41.598	9.4199e-06	52.172	274.427	174.459	175.789	108.694	288.732	209.700	108.915	113.301	275.918	257.642	112.589	117.762	118.020	121.897	237.479	120.857	-8191	255	
50856.387	1	1	0	0	0.22769	0.1179	0.23138	0.35987	0.19297	0.16305	0.14473	0.1579	0.13289	0.12605	0.42982	0.10588	0.18157	0.063744	0.19202	0.16187	-4.4208	-4.7625	-4.125	-5.2979	-4.4583	-4.2458	-5.2146	-4.3292	-4.6229	-4.9021	-4.2083	-5.0042	-4.6917	-4.5375	-5.0792	-4.4417	252.647	127.305	426.076	453.924	115.887	116.252	341.845	450.847	314.695	170.814	384.788	420.115	197.664	290.369	402.647	448.342	0.00074712	0.0003559	0.00013181	1402.5	8.0326e-06	7.7154e-06	1400.7	366.35	8.0612e-06	8.5076e-06	420.75	137.24	118.49	40.18	3.7444e-06	50.806	0.00081909	0.00085599	0.00025043	1436.4	9.3751e-06	9.519e-06	1425.3	375.95	9.1657e-06	9.6309e-06	431.9	140.57	121.29	41.61	9.392e-06	52.21	277.729	200.710	207.883	108.482	269.338	240.582	108.709	113.489	283.427	258.539	112.403	117.374	118.102	121.938	298.072	121.173	-8191	255	
50856.484	1	1	0	0	0.38119	0.23809	0.19437	0.28364	0.16788	0.33099	0.20786	0.18744	0.16403	0.098887	0.12394	0.2435	0.1282	0.085253	0.0501	0.15266	-4.2521	-5.0125	-4.1104	-5.2333	-4.5625	-4.2542	-5.3708	-4.6	-4.4729	-4.9979	-4.2937	-5.0583	-4.9854	-4.3896	-4.9458	-4.3917	287.256	135.374	317.601	390.733	366.520	370.359	317.871	340.040	263.464	209.385	188.250	429.124	180.241	332.464	186.708	352.623	0.00070588	0.00035738	0.0001155	1402	9.7684e-06	5.9898e-06	1398.4	367.66	8.5438e-06	3.0485e-06	419.53	137.05	118.89	40.414	5.6474e-06	50.367	0.0008256	0.00084507	0.00024392	1438.5	9.4399e-06	9.7944e-06	1424.1	376.15	9.2546e-06	9.6583e-06	431.26	140.59	121.75	41.771	9.4413e-06	52.286	272.923	158.007	194.200	108.606	280.174	238.686	108.575	113.330	249.180	207.898	112.576	117.766	117.868	122.277	250.153	120.770	-8191	255	
50856.578	1	1	0	0	0.21919	0.13245	0.10254	0.024121	0.17995	0.076861	0.3054	0.31581	0.22281	0.087204	0.17847	0.033176	0.1764	0.19044	0.048824	0.060847	-4.2021	-5.0604	-4.1333	-4.9563	-4.7292	-4.0833	-5.2937	-4.6667	-4.2667	-5.1229	-4.2562	-4.9062	-5.0583	-4.1562	-5.0875	-4.7479	108.317	281.423	101.222	311.005	205.651	349.328	425.257	429.728	352.786	100.588	448.536	296.038	128.087	453.667	420.036	444.416	0.00071659	0.00047071	0.00012592	1406.7	7.6992e-06	6.9261e-06	1399.9	367.27	1.1477e-05	5.4674e-06	420.18	136.9	118.71	40.24	6.9366e-06	50.471	0.00083404	0.00087891	0.00024644	1440	9.3892e-06	9.8067e-06	1428.6	376.6	9.3048e-06	9.6687e-06	431.69	140.61	121.58	41.834	9.4432e-06	52.316	277.564	202.301	177.137	108.503	234.586	232.143	108.628	113.347	270.344	233.614	112.612	117.756	118.131	122.267	215.108	121.277	-8191	255	
50856.699	1	1	0	0	0.16568	0.26107	0.12363	0.29426	0.16937	0.076475	0.056451	0.086838	0.21543	0.16719	0.11651	0.2768	0.064768	0.32407	0.18763	0.060498	-4.0083	-5.1542	-4.0938	-4.9125	-5.0125	-4.0771	-5.0542	-4.8021	-4.3438	-5.0208	-4.4625	-4.6354	-5.0958	-3.9729	-4.8479	-4.8396	228.499	311.059	320.277	381.998	396.734	213.904	171.958	368.818	446.501	311.535	440.473	137.316	140.637	353.652	217.736	332.174	0.00070294	0.00029901	0.00022285	1414.3	6.4286e-06	3.8582e-06	1402.6	369.4	8.5795e-06	4.812e-06	423.21	137.71	118.56	40.296	5.2579e-06	50.529	0.00083095	0.00085528	0.00024167	1441.7	9.1553e-06	9.5182e-06	1426.9	377.11	9.2718e-06	9.5806e-06	432.64	140.54	121.67	41.771	9.0224e-06	52.304	278.027	129.776	189.470	108.469	258.633	246.003	108.708	113.589	275.821	231.854	112.696	117.680	118.169	122.129	245.141	121.691	-8191	255	
50856.793	1	1	0	0	0.10867	0.20725	0.054049	0.091366	0.26289	0.14316	0.22994	0.24349	0.32455	0.29763	0.054517	0.22003	0.26275	0.025835	0.095281	0.19338	-3.9021	-5.1333	-4.1854	-4.7812	-5.025	-4.0875	-5.0729	-5.0271	-4.1125	-5.0687	-4.475	-4.4583	-5.2458	-4.3354	-4.7063	-5.0917	95.893	400.943	252.643	370.354	221.704	280.942	403.756	367.622	338.921	432.320	434.220	239.120	449.100	294.604	411.915	445.421	0.00078402	0.00042212	0.00019423	1404.6	6.8091e-06	6.471e-06	1397.8	365.33	6.2937e-06	5.5262e-06	423.23	137.12	118.92	40.115	6.7112e-06	50.555	0.00081476	0.00084586	0.0002301	1440.2	9.0722e-06	9.4174e-06	1425.4	376.13	9.0987e-06	9.3959e-06	433.15	140.64	121.71	41.74	9.0695e-06	52.398	276.258	168.964	184.168	108.641	258.511	256.080	108.422	113.265	285.808	233.829	112.772	117.751	118.255	122.154	253.417	121.296	-8191	255	
50856.891	1	1	0	0	0.044115	0.075287	0.031148	0.29121	0.066981	0.13424	0.14848	0.096664	0.17355	0.13314	0.078692	0.23088	0.11687	0.0995	0.19444	0.16474	-3.8979	-5.0729	-4.5271	-4.4396	-5.1438	-4.075	-4.9396	-5.0062	-3.8833	-5.0396	-4.6	-4.3083	-5.2	-4.3458	-4.5437	-5.0854	385.340	217.360	216.193	404.749	102.082	377.920	339.486	384.714	279.674	324.619	147.994	435.094	308.110	144.354	418.033	447.604	0.00069772	0.00035392	0.00018476	1404.7	8.0236e-06	9.1165e-06	1406.7	367.19	8.1284e-06	7.2658e-06	420.67	137.22	118.31	40	6.3858e-06	50.462	0.00080673	0.00082384	0.0002301	1437.3	8.9932e-06	9.4511e-06	1426.2	376.91	9.1346e-06	9.1014e-06	432.43	140.7	121.44	41.683	8.9354e-06	52.352	276.040	195.462	205.025	108.559	271.534	250.341	108.290	113.393	295.562	245.523	112.934	117.441	118.248	122.453	245.557	121.115	-8191	255	
50856.961	1	1	0	0	0.1568	0.15316	0.19015	0.4862	0.15545	0.10863	0.32558	0.1742	0.24269	0.082366	0.10557	0.15309	0.147	0.11109	0.019924	0.13214	-3.7458	-4.8833	-4.4583	-4.3438	-5.1292	-4.2208	-4.6417	-5.1333	-4.0854	-4.8479	-4.8021	-4.2625	-5.1396	-4.4333	-4.575	-5.0687	166.415	310.290	258.318	368.017	305.924	404.285	160.492	373.534	293.673	352.522	434.971	400.073	109.642	379.277	179.083	441.204	0.00071455	0.00048539	0.00016723	1406.3	7.4248e-06	7.8341e-06	1403.5	368.15	8.9643e-06	3.1873e-06	421.06	136.72	118.4	40.122	1.0086e-05	50.769	0.0008088	0.00082402	0.00022949	1437.5	8.8995e-06	9.3637e-06	1426.1	376.88	9.1477e-06	9.0872e-06	432.09	140.42	121.59	41.681	9.1409e-06	52.496	275.325	172.904	185.088	108.469	281.915	257.286	108.289	113.444	271.776	262.800	112.798	117.626	117.863	122.168	267.935	121.470	-8191	255	
50857.082	1	1	0	0	0.072315	0.20363	0.096468	0.24669	0.031454	0.079929	0.10804	0.13431	0.14984	0.0041227	0.10863	0.25599	0.10812	0.2749	0.14237	0.19913	-3.7021	-4.8333	-4.7708	-4.3313	-4.9854	-4.3646	-4.5813	-5.3729	-4.1375	-4.7688	-5.0312	-4.2521	-5.0729	-4.5417	-4.2458	-5.3313	120.044	366.857	428.863	371.332	289.139	292.337	391.484	110.308	416.829	318.534	390.528	149.029	427.323	398.771	351.051	218.686	0.00068166	0.00053022	0.00021182	1413.1	7.0855e-06	5.2621e-06	1401.5	369.41	5.8763e-06	3.1814e-06	420.89	137.11	118.82	40.16	3.1664e-06	50.7	0.0007983	0.00084671	0.00023337	1442.7	8.9079e-06	9.2999e-06	1428.4	377.81	9.0849e-06	8.7843e-06	431.98	140.28	121.61	41.726	8.9368e-06	52.468	276.719	206.376	187.321	108.440	254.739	284.239	108.405	113.664	279.407	249.030	112.943	117.534	118.388	122.396	267.954	121.486	-8191	255	
50857.180	1	1	0	0	0.25844	0.042321	0.13631	0.39279	0.046627	0.20128	0.20189	0.23105	0.22023	0.10251	0.17411	0.1819	0.034307	0.14863	0.19591	0.1574	-3.8312	-4.5375	-4.9542	-4.2458	-5.0583	-4.5792	-4.4062	-5.2438	-4.1896	-4.6625	-5.1458	-3.9333	-5.0896	-4.7396	-4.0833	-5.2604	111.895	149.801	345.415	452.971	221.316	396.582	436.630	336.572	334.398	236.872	399.004	380.932	143.934	130.602	290.728	309.976	0.00073145	0.00056378	0.00013432	1406	8.394e-06	5.6499e-06	1398.3	367.83	5.7029e-06	4.7364e-06	419.76	137.06	118.79	40.252	4.9407e-06	50.618	0.00079972	0.00081285	0.00022921	1438.9	8.874e-06	9.1299e-06	1425.5	376.68	9.0471e-06	9.0585e-06	431.97	140.44	121.68	41.773	8.8736e-06	52.502	276.686	200.200	206.029	108.589	265.054	269.176	108.445	113.364	262.728	225.967	112.878	117.582	118.000	122.107	254.693	121.082	-8191	255	
50857.273	1	1	0	0	0.10331	0.22046	0.088114	0.27264	0.09626	0.098713	0.2592	0.1636	0.075392	0.090561	0.15733	0.36301	0.24658	0.28231	0.25117	0.12415	-4.1458	-4.4625	-4.9979	-4.375	-4.7833	-4.7271	-4.3667	-5.3229	-4.2812	-4.3792	-5.1271	-4.2208	-4.9125	-4.8208	-4.15	-5.2542	410.525	368.807	313.072	388.005	247.787	325.303	428.263	349.689	120.464	106.997	96.918	438.174	374.545	110.775	452.667	437.436	0.00079019	0.00043403	3.2233e-05	1404	6.1746e-06	5.5544e-06	1399	368.17	4.5975e-06	3.4863e-06	423.54	137.11	118.42	40.388	4.9894e-06	50.553	0.00080291	0.00082017	0.00022854	1436.5	8.7868e-06	9.0273e-06	1425.5	376.39	8.7779e-06	8.919e-06	431.95	140.74	121.55	41.759	8.9018e-06	52.422	274.260	172.244	217.575	108.701	250.502	232.729	108.248	113.590	276.042	236.857	112.632	117.518	117.983	122.213	220.556	121.048	-8191	255	
50857.371	1	1	0	0	0.24267	0.17195	0.06077	0.21179	0.12166	0.055975	0.18589	0.095487	0.24975	0.095206	0.077835	0.08476	0.25536	0.12726	0.13551	0.077941	-4.0667	-4.2438	-5.0312	-4.3562	-4.5833	-4.8354	-4.2792	-5.0479	-4.3854	-4.2375	-5.2125	-4.3208	-4.6521	-4.9375	-3.9458	-5.2583	273.872	230.240	240.434	383.862	423.871	298.189	326.713	431.071	170.463	377.507	394.228	411.572	371.265	157.720	431.512	341.095	0.00073339	0.0004002	0.00011163	1406.4	8.0643e-06	7.1981e-06	1397.1	369.15	9.655e-06	6.2454e-06	421.27	137.1	117.91	40.109	7.1348e-06	50.337	0.00079388	0.00083086	0.00022363	1438.4	8.6792e-06	8.9851e-06	1424.4	376.68	9.0315e-06	9.0323e-06	432.54	140.38	121.42	41.652	8.8189e-06	52.344	278.316	199.522	216.925	108.889	258.314	223.388	108.390	113.429	280.067	218.751	112.682	117.329	117.903	122.194	224.601	120.782	-8191	255	
50857.492	1	1	0	0	0.28226	0.072604	0.18265	0.21242	0.064332	0.12128	0.052865	0.13538	0.07573	0.15804	0.038739	0.3399	0.21324	0.13874	0.25447	0.17446	-4.3521	-4.1417	-5.0437	-4.5146	-4.5729	-5.0167	-4.2958	-4.925	-4.7333	-4.1937	-5.1917	-4.3833	-4.7	-5.1813	-4.0542	-5.0563	316.630	127.533	410.107	445.463	294.831	104.349	379.350	176.327	448.033	412.682	104.810	376.997	437.644	156.418	303.216	366.852	0.00069318	0.00039252	0.00017274	1402.9	7.3382e-06	1.0708e-05	1396.3	367.61	1.1544e-05	6.0854e-06	421.11	137.03	119.92	40.224	5.978e-06	50.684	0.00077073	0.00079829	0.0002263	1438.4	8.6785e-06	8.8692e-06	1426.8	377.29	8.7817e-06	8.9355e-06	432.37	140.65	122.04	41.743	8.7809e-06	52.393	275.053	136.355	202.422	108.591	253.346	256.539	108.679	113.690	279.280	244.308	112.930	117.587	117.849	122.577	278.565	120.811	-8191	255	
50857.562	1	1	0	0	0.18606	0.10371	0.16539	0.21865	0.068162	0.042593	0.15912	0.084548	0.14478	0.13287	0.20978	0.40657	0.10228	0.22858	0.29752	0.089817	-4.5	-4.2854	-5.1438	-4.6062	-4.3875	-5.0604	-4.2792	-4.9062	-4.8396	-4.2667	-5.1375	-4.6333	-4.475	-5.1208	-4.0667	-4.9208	424.265	207.694	228.802	372.145	279.943	438.937	312.415	272.616	370.350	365.908	133.439	403.832	428.044	384.368	204.684	307.264	0.000767	0.00043969	0.00014374	1409.3	6.3683e-06	2.814e-06	1400.1	367.2	7.1375e-06	8.0388e-06	422.96	137.41	119.09	40.274	1.9269e-06	50.794	0.00076872	0.00080401	0.00021631	1439.4	8.5911e-06	8.6818e-06	1424.9	376.78	8.3773e-06	8.496e-06	433	140.54	121.82	41.725	8.4446e-06	52.556	275.592	163.928	193.315	108.838	283.535	180.222	108.604	113.570	282.563	249.497	112.638	117.693	117.887	122.518	270.836	120.956	-8191	255	
50857.660	1	1	0	0	0.061734	0.2125	0.087357	0.27374	0.097419	0.10947	0.35728	0.22516	0.13018	0.15858	0.1278	0.2678	0.036716	0.1356	0.16188	0.27002	-4.5958	-4.0271	-5.0938	-4.6208	-4.3396	-5.175	-4.3771	-4.7167	-4.8833	-4.0437	-5.1333	-4.6083	-4.3313	-5.1542	-4.2146	-4.6062	121.495	130.080	340.699	97.491	315.452	423.576	435.425	453.706	211.633	390.372	167.235	417.880	124.341	228.271	454.738	119.874	0.00070962	0.00050811	0.00018599	1409.6	8.8872e-06	5.4894e-06	1403.8	367.61	8.2332e-06	3.641e-06	422.5	137.2	119.05	40.173	6.005e-06	50.772	0.00074044	0.00077084	0.00020883	1439.4	8.2186e-06	8.3972e-06	1424.8	377.32	8.0022e-06	8.2579e-06	432.81	140.55	121.8	41.738	8.1582e-06	52.462	279.596	185.041	178.559	108.509	251.583	262.509	108.682	113.347	256.866	259.074	112.695	117.860	117.893	122.271	234.030	121.391	-8191	255	
50857.781	1	1	0	0	0.11302	0.15601	0.083654	0.2635	0.13603	0.030406	0.26796	0.14102	0.25077	0.22051	0.20627	0.12204	0.078348	0.13243	0.32272	0.018064	-4.7042	-4.0521	-4.8958	-4.9187	-4.1188	-5.2917	-4.6521	-4.5646	-5.0479	-4.075	-4.9583	-4.7417	-4.2229	-5.0958	-4.3438	-4.4146	245.772	169.893	249.941	147.966	108.902	277.129	408.924	301.901	328.901	253.740	102.941	126.221	391.617	169.293	453.546	99.516	0.00072982	0.00042765	0.00012889	1406	3.8512e-06	2.8226e-06	1396.6	370.56	4.6609e-06	4.2994e-06	429.88	140.02	121.06	41.093	4.7032e-06	51.872	0.00071365	0.00074387	0.00020157	1435.9	7.9671e-06	7.8564e-06	1420.8	376.18	7.7663e-06	7.9474e-06	432.67	140.8	122.08	41.873	7.9299e-06	52.69	274.808	179.011	199.988	108.613	247.265	229.701	108.649	111.760	263.327	303.174	110.360	115.498	115.902	119.988	253.598	118.737	-8191	255	
50857.875	1	1	0	0	0.097069	0.15827	0.118	0.31454	0.20824	0.1408	0.31634	0.17904	0.3081	0.1407	0.13902	0.1997	0.099414	0.19136	0.092932	0.15029	-4.6771	-3.9062	-4.7021	-5.0417	-4.0437	-5.0167	-4.7104	-4.4187	-5.0271	-4.1625	-4.6458	-5.0167	-4.3479	-4.9646	-4.5458	-4.4104	108.548	447.776	228.184	385.131	204.016	155.239	367.105	196.601	286.961	196.771	273.342	135.651	183.533	268.706	253.242	409.484	0.00066887	0.00025202	0.00013892	1431.9	8.7658e-06	3.166e-06	1424.3	374.55	1.0788e-05	5.355e-06	426.39	139.41	121.42	40.826	6.469e-06	50.986	0.00070912	0.00073475	0.0002015	1438.5	7.9306e-06	8.0318e-06	1424.9	377.3	7.697e-06	7.7559e-06	430.71	140.64	121.87	41.745	7.6758e-06	52.434	277.423	177.402	188.998	106.558	282.794	275.281	106.298	111.174	251.556	255.042	110.657	115.696	115.741	120.147	270.049	120.618	-8191	255	
50857.973	1	1	0	0	0.13947	0.13472	0.10202	0.20238	0.082279	0.12288	0.19581	0.066361	0.11183	0.072422	0.084117	0.15424	0.28682	0.176	0.16638	0.24671	-4.7792	-4.1792	-4.4854	-5.2	-4.0229	-4.9313	-4.8854	-4.5	-5.1083	-4.3646	-4.6333	-5.1417	-4.1438	-5.0396	-4.7042	-4.4667	368.168	275.415	154.923	412.580	151.837	361.563	440.764	362.162	207.716	117.714	383.376	350.434	412.571	101.652	394.633	446.098	0.00075398	0.00035507	0.00012196	1401.6	8.9106e-06	5.5833e-06	1392.6	365.82	9.4028e-06	3.2227e-06	420.03	137.21	118.22	40.166	5.2517e-06	50.796	0.00069039	0.00070131	0.00019036	1429.1	7.4925e-06	7.3045e-06	1415	375.03	7.2289e-06	7.3862e-06	429.74	140.08	121.26	41.491	7.1915e-06	52.457	275.166	200.154	202.332	108.732	256.031	241.332	108.477	113.563	270.063	239.793	112.667	117.607	118.056	122.353	237.133	121.101	-8191	255	
50858.094	1	1	0	0	0.10527	0.12552	0.067288	0.057844	0.04877	0.14313	0.033462	0.13939	0.31829	0.19903	0.1675	0.086273	0.069305	0.26178	0.15101	0.045082	-4.8313	-4.3479	-4.2917	-5.2479	-4.0542	-4.8896	-5.0125	-4.2812	-5.1458	-4.4708	-4.5938	-5.1	-4.2583	-4.8958	-4.7396	-4.2708	430.995	154.150	197.646	303.508	319.073	361.154	355.490	362.829	258.733	273.124	304.032	219.956	379.414	449.352	427.258	221.539	0.00070683	0.00054584	0.00010425	1398.7	7.2563e-06	2.5354e-06	1387.5	366.25	7.6608e-06	2.9705e-06	418.44	136.47	118.58	39.771	5.2115e-06	50.721	0.00064502	0.00066137	0.00018147	1428.3	7.2074e-06	6.9925e-06	1412.4	374.36	6.9284e-06	7.0005e-06	429.47	139.68	121.32	41.406	6.7677e-06	52.388	275.447	188.361	171.017	108.645	263.917	266.644	108.590	113.290	274.335	278.758	112.717	117.909	118.181	121.891	318.441	121.266	-8191	255	
50858.164	1	1	0	0	0.021688	0.2653	0.1386	0.28032	0.12013	0.078887	0.55459	0.11326	0.15456	0.065404	0.13028	0.18173	0.18751	0.15328	0.080681	0.24534	-4.6583	-4.4229	-4.2583	-5.1167	-4.2292	-4.6188	-5.1896	-4.0667	-5.0396	-4.6458	-4.4563	-5.2937	-4.4187	-4.6958	-4.9313	-4.1146	378.343	424.358	197.742	338.222	103.324	243.936	405.029	383.641	190.644	284.658	416.721	442.223	424.831	218.276	127.223	387.866	0.00075886	0.00064656	0.00013304	1391.4	8.6896e-06	5.945e-06	1385.8	365.09	7.7419e-06	5.9163e-06	418.28	137.23	118.4	40.274	5.5049e-06	50.354	0.00061745	0.00063299	0.00017395	1423.3	6.8111e-06	6.6631e-06	1409.2	373.77	6.6982e-06	6.5267e-06	428.34	139.98	121.44	41.574	6.4421e-06	52.043	274.167	190.237	137.399	108.572	257.381	226.948	108.662	113.428	274.135	229.271	112.554	118.126	118.334	122.183	280.612	121.280	-8191	255	
50858.258	1	1	0	0	0.088608	0.064042	0.17053	0.22695	0.1003	0.086938	0.42541	0.093943	0.021781	0.12096	0.11951	0.21026	0.051902	0.2061	0.095832	0.10913	-4.7562	-4.6917	-4.325	-5.4083	-4.3688	-4.5729	-5.35	-4.2812	-4.9062	-4.8875	-4.3979	-5.1438	-4.5979	-4.6104	-5.0417	-4.2792	126.377	193.881	153.100	447.757	206.584	305.387	403.949	331.853	289.101	205.749	396.744	412.385	141.771	317.711	310.071	162.730	0.00073022	0.00069963	0.00013814	1389.4	6.7604e-06	4.1228e-06	1380.8	364.05	9.2112e-06	5.0883e-06	415.86	136.56	117.85	40.086	5.9566e-06	50.186	0.00060768	0.00060971	0.00016961	1420	6.6495e-06	6.6958e-06	1402.4	372.96	6.3531e-06	6.5244e-06	427.47	139.42	121.06	41.494	6.3469e-06	51.869	270.875	185.558	190.454	108.753	234.935	231.322	108.536	113.367	249.243	261.408	112.500	117.975	118.119	122.200	255.003	121.243	-8191	255	
50858.379	1	1	0	0	0.22977	0.18599	0.15999	0.39946	0.23072	0.085078	0.30212	0.16762	0.12953	0.1178	0.16568	0.24362	0.29628	0.18237	0.08552	0.10351	-4.6146	-4.8542	-4.2167	-5.3812	-4.2375	-4.475	-5.2771	-4.2562	-4.6687	-4.9	-4.0833	-5.2333	-4.5167	-4.5479	-5.0833	-4.3229	96.026	291.333	213.526	401.644	182.233	173.494	387.778	340.092	352.026	341.248	319.671	192.766	373.879	407.926	295.601	361.129	0.00070908	0.00041977	0.00011513	1392.5	7.55e-06	4.684e-06	1381.3	365.12	9.409e-06	6.2897e-06	416.9	135.59	118.05	40.029	3.941e-06	50.32	0.00061309	0.00059296	0.00016769	1417.6	6.5788e-06	6.5268e-06	1400.8	372.43	6.316e-06	6.514e-06	426.46	139.03	120.9	41.483	6.5622e-06	51.952	274.217	200.758	197.420	108.763	273.031	243.700	108.465	113.380	272.303	232.183	112.704	117.628	117.981	121.888	269.667	121.060	-8191	255	
50858.477	1	1	0	0	0.069505	0.16884	0.084621	0.16855	0.14566	0.061701	0.14034	0.17516	0.084437	0.014504	0.032353	0.15207	0.15832	0.053215	0.071277	0.15186	-4.2375	-4.8146	-4.0833	-5.3104	-4.4917	-4.325	-5.2937	-4.3604	-4.4958	-5.0542	-4.3896	-4.8542	-4.8542	-4.2833	-4.9958	-4.3854	324.459	424.371	186.135	428.463	429.263	100.819	361.683	111.085	130.295	343.157	367.352	104.540	434.393	335.445	302.985	398.314	0.00067541	0.00043293	0.00013002	1391.1	6.826e-06	6.9176e-06	1378.5	364	4.5145e-06	4.8575e-06	415.52	136.41	118.21	40.099	6.547e-06	50.267	0.00061626	0.00061374	0.00017094	1416.1	6.6483e-06	6.8865e-06	1402.6	372.27	6.6215e-06	6.7747e-06	426.73	139.34	120.78	41.508	6.6591e-06	51.955	277.370	174.345	188.793	108.642	233.317	224.803	108.427	113.226	287.407	246.344	112.731	117.577	118.132	122.402	238.286	121.309	-8191	255	
50858.570	1	1	0	0	0.12053	0.022359	0.074944	0.18681	0.073059	0.22897	0.20245	0.15185	0.15688	0.20096	0.040965	0.06582	0.24291	0.11921	0.16932	0.14894	-4.3063	-5.1021	-4.0104	-5.0646	-4.7	-4.1417	-5.1937	-4.5604	-4.4208	-5.1604	-4.3771	-4.975	-4.8583	-4.1271	-4.9271	-4.4854	181.041	447.202	98.319	400.680	103.020	219.360	330.115	454.101	117.151	230.526	316.831	335.255	346.193	274.299	184.431	416.030	0.00072974	0.00030594	8.3204e-05	1383.8	6.9589e-06	5.849e-06	1382.6	364.84	5.9554e-06	2.5049e-06	416.29	137.9	118.21	40.066	5.6045e-06	50.163	0.00064815	0.00062903	0.00017497	1415	6.8793e-06	6.9823e-06	1402.9	372.42	6.868e-06	6.7871e-06	426.6	139.73	120.97	41.533	6.854e-06	51.938	274.850	157.620	163.164	108.469	253.902	247.824	108.622	113.490	272.927	274.398	112.865	117.514	118.125	122.178	271.382	121.150	-8191	255	
50858.668	1	1	0	0	0.27027	0.13453	0.12869	0.13798	0.18281	0.17765	0.15118	0.23431	0.11964	0.061835	0.12885	0.32406	0.31863	0.18712	0.36603	0.050196	-4.0229	-5.0479	-4.0979	-4.8771	-4.9104	-3.9688	-5.3167	-4.7208	-4.2875	-5.1188	-4.3	-4.7896	-5.1438	-4.1125	-4.8875	-4.8292	121.746	331.470	95.749	403.124	184.802	174.641	425.820	383.032	261.262	131.554	387.137	415.596	398.375	429.112	143.193	418.481	0.00073744	0.00030898	0.00013096	1386.2	7.2517e-06	8.9472e-06	1379.5	364.59	9.5807e-06	4.9036e-06	418.08	136.1	118.56	39.773	7.3663e-06	50.159	0.00066279	0.00064241	0.00017655	1415.5	7.1762e-06	7.0921e-06	1403.4	372.62	6.9719e-06	6.9525e-06	427.41	139.19	120.87	41.393	7.1591e-06	51.863	274.702	191.492	218.138	108.432	278.994	262.289	108.602	113.502	296.632	231.443	112.888	117.389	117.987	122.279	260.446	121.309	-8191	255	
50858.789	1	1	0	0	0.086034	0.17765	0.046744	0.27524	0.087596	0.074671	0.080169	0.12414	0.091807	0.13733	0.24348	0.23294	0.20843	0.12724	0.15081	0.27208	-3.875	-5.1875	-4.1646	-4.7188	-4.9563	-3.9354	-5.2042	-5.0083	-4.0792	-5.2188	-4.4917	-4.6229	-4.9479	-4.2729	-4.7979	-4.9146	387.786	427.625	200.728	430.930	451.676	330.712	421.177	343.543	443.473	205.679	453.604	422.476	371.784	440.694	452.649	371.311	0.00073119	0.00046505	8.4364e-05	1387.8	6.4737e-06	6.1745e-06	1379.7	364.63	9.7615e-06	2.559e-06	415.94	136.14	118.37	39.944	4.6884e-06	50.256	0.00066294	0.00065119	0.00018404	1418.1	6.9576e-06	7.3499e-06	1403.7	372.48	7.221e-06	7.156e-06	426.99	139.2	121.04	41.396	6.9394e-06	51.978	271.076	178.469	202.142	108.476	259.743	246.055	108.560	113.484	284.623	250.136	112.870	117.599	117.876	122.067	233.415	121.354	-8191	255	
50858.859	1	1	0	0	0.17725	0.0404	0.15891	0.43656	0.068427	0.22263	0.17558	0.22745	0.05206	0.21427	0.20433	0.21864	0.069954	0.18077	0.20331	0.15123	-3.9813	-5.0896	-4.3521	-4.425	-4.9938	-4.0771	-5.0917	-4.85	-4.1875	-5.0687	-4.4646	-4.4042	-5.1792	-4.3521	-4.7875	-5.0083	291.377	356.434	448.947	394.858	368.006	109.308	386.174	117.677	246.480	404.904	405.508	430.959	369.530	112.284	418.427	428.489	0.00073467	0.00034802	0.00010803	1386.8	6.4432e-06	7.072e-06	1379.9	365.04	5.9618e-06	7.2091e-06	418.1	135.94	117.89	40.091	8.1474e-06	50.163	0.00066106	0.00063916	0.00018096	1415.1	7.0818e-06	7.3055e-06	1404.3	373.35	7.1701e-06	7.2002e-06	427.98	139.15	120.9	41.421	7.1142e-06	51.911	274.735	168.610	185.922	108.688	246.744	267.314	108.568	113.562	270.788	226.367	112.814	117.692	118.024	122.218	255.795	121.335	-8191	255	
50858.953	1	1	0	0	0.064037	0.13169	0.064146	0.074352	0.15297	0.20917	0.0664	0.17741	0.17035	0.27758	0.31367	0.19723	0.13478	0.061849	0.16562	0.10913	-3.7083	-5.1125	-4.4646	-4.3875	-5.0458	-4.1875	-4.825	-4.9792	-4	-5.0333	-4.6792	-4.275	-5.1646	-4.4458	-4.5104	-5.0875	355.747	239.661	283.218	386.024	382.614	117.936	387.259	386.401	269.463	319.550	96.875	419.819	109.797	421.052	244.077	368.270	0.00077224	0.00039015	0.0001297	1381.7	9.9192e-06	3.0855e-06	1374.3	364.34	6.7008e-06	6.3137e-06	417.5	135.75	117.95	39.821	5.8427e-06	50.157	0.00066952	0.00067261	0.00018329	1413.3	7.0316e-06	7.2991e-06	1401.1	372.21	7.2237e-06	7.1009e-06	427.3	139.2	120.84	41.363	7.3166e-06	51.846	272.414	169.039	179.545	108.671	265.890	252.643	108.608	113.294	276.247	237.108	112.609	117.426	118.195	122.149	289.097	121.093	-8191	255	
50859.055	1	1	0	0	0.058923	0.25146	0.072988	0.28009	0.23242	0.075639	0.29286	0.1116	0.091665	0.28043	0.083526	0.23873	0.011109	0.051585	0.049488	0.21724	-3.8396	-4.8125	-4.6354	-4.5271	-5.0771	-4.4042	-4.625	-5.025	-4.125	-4.6979	-4.95	-4.1292	-5.1771	-4.5875	-4.2958	-5.3271	253.088	251.024	399.767	387.743	334.326	320.116	384.829	169.014	372.520	399.077	375.209	283.470	340.693	199.451	136.627	398.063	0.00070467	0.00055021	0.00018598	1383.2	5.6643e-06	5.7523e-06	1375.7	364.78	6.1516e-06	2.6753e-06	415.97	136.38	117.9	39.947	3.473e-06	50.474	0.00066617	0.00064313	0.00018261	1413.5	7.0563e-06	7.2784e-06	1401.5	372.48	7.0133e-06	6.8923e-06	427.12	139.34	120.75	41.409	6.9938e-06	52.011	272.668	200.716	187.096	108.517	271.272	246.367	108.501	113.321	256.108	282.484	112.866	117.527	118.019	122.193	265.850	121.427	-8191	255	
50859.172	1	1	0	0	0.26502	0.14959	0.05887	0.14208	0.1717	0.21672	0.086177	0.046887	0.11023	0.13815	0.06855	0.22072	0.12942	0.21225	0.11837	0.36885	-3.7917	-4.7042	-4.85	-4.2875	-4.95	-4.5	-4.5125	-5.2875	-4.1729	-4.6917	-4.8688	-4.225	-4.9708	-4.6292	-4.1042	-5.2396	310.116	306.895	192.697	372.210	265.333	447.525	378.200	190.884	120.193	163.905	382.494	150.047	346.010	450.355	454.552	452.825	0.00069422	0.00043946	0.00014498	1388.3	6.1324e-06	4.8308e-06	1374.4	364.51	6.7996e-06	4.2243e-06	417.96	135.85	118.18	40.232	7.1618e-06	50.288	0.00064827	0.00063942	0.00017418	1413.3	7.0758e-06	7.2483e-06	1401.6	372.4	7.1113e-06	7.0663e-06	427	139.19	121.04	41.536	7.1552e-06	51.931	273.031	187.855	212.051	108.504	246.192	248.938	108.360	113.490	286.908	246.877	112.763	117.639	118.486	122.243	244.930	121.163	-8191	255	
50859.270	1	1	0	0	0.13243	0.11695	0.16298	0.10151	0.08447	0.07227	0.04153	0.059582	0.072195	0.18611	0.014958	0.094109	0.16171	0.28262	0.11406	0.073373	-3.9688	-4.4333	-4.9833	-4.3187	-4.7708	-4.6271	-4.25	-5.15	-4.2729	-4.4646	-5.1917	-4.1562	-5.0625	-4.6896	-4.0833	-5.2146	184.886	428.459	409.395	376.742	144.109	350.690	99.791	424.518	154.343	190.592	214.005	420.934	401.198	423.937	120.705	327.575	0.00069323	0.00055023	0.00013768	1384.2	6.4262e-06	3.0956e-06	1395.8	372.3	6.918e-06	6.5593e-06	424.37	138.93	120.96	40.608	4.2252e-06	51.148	0.0006617	0.00064013	0.00018071	1416.2	7.0424e-06	7.0938e-06	1406.7	374.14	7.1347e-06	7.3852e-06	428.53	139.7	121.46	41.502	7.3823e-06	52.177	274.951	172.278	185.820	108.608	264.347	254.641	106.960	111.283	267.204	250.885	110.642	115.359	115.901	120.344	260.120	118.882	-8191	255	
50859.363	1	1	0	0	0.22817	0.18523	0.039076	0.33129	0.14558	0.10474	0.12731	0.17593	0.052952	0.048518	0.18889	0.19442	0.25823	0.23506	0.051378	0.053322	-3.9104	-4.3625	-4.9521	-4.2438	-4.6792	-4.8812	-4.3646	-5.1937	-4.4917	-4.2667	-5.2063	-4.2333	-4.9167	-4.95	-4.0375	-5.0896	162.909	267.231	423.137	409.694	349.293	345.353	93.802	400.173	365.134	416.703	178.290	326.389	412.621	397.480	215.310	334.510	0.0007199	0.00053507	0.00012099	1411.2	5.1221e-06	5.7312e-06	1402.9	372.43	6.6116e-06	6.4908e-06	425.83	137.73	120.04	40.803	3.5125e-06	51.064	0.00068737	0.00067201	0.00018085	1422	7.2067e-06	7.3022e-06	1407.7	373.72	7.2299e-06	7.358e-06	428.64	139.6	121.37	41.624	7.2974e-06	52.09	274.252	176.025	168.525	106.458	278.654	240.162	106.337	111.380	235.500	256.967	110.908	115.726	116.094	120.607	239.637	119.799	-8191	255	
50859.461	1	1	0	0	0.28078	0.25685	0.073762	0.23426	0.20689	0.1106	0.18799	0.36768	0.059582	0.062503	0.1932	0.11803	0.097696	0.11255	0.15879	0.17704	-4.2896	-4.2083	-5.0896	-4.3396	-4.5563	-4.875	-4.2375	-5.1146	-4.4812	-4.2917	-5.1542	-4.4229	-4.5938	-5.1333	-4.1229	-5.0396	196.631	420.587	94.626	388.696	184.722	294.068	288.262	418.958	309.835	391.706	312.091	418.687	202.660	188.214	168.232	284.360	0.00069902	0.00048427	0.00013687	1402.5	5.5218e-06	6.0375e-06	1388.7	366.39	4.1674e-06	3.8103e-06	419.8	137.11	120.15	40.704	5.9664e-06	50.884	0.00067926	0.0006865	0.00018315	1419.5	7.3614e-06	7.2399e-06	1403.9	373.64	7.2906e-06	7.4103e-06	427.92	139.64	121.3	41.559	7.5888e-06	52.09	275.612	169.280	207.072	107.300	286.142	239.502	107.508	112.465	282.385	249.522	111.670	116.613	116.568	120.408	271.947	119.253	-8191	255	
50859.555	1	1	0	0	0.17962	0.12114	0.17388	0.43031	0.19259	0.063594	0.18085	0.14856	0.13435	0.082586	0.37981	0.12859	0.19226	0.43127	0.020456	0.28016	-4.4083	-4.15	-5.025	-4.5208	-4.5521	-4.9542	-4.3729	-4.9729	-4.7	-4.0292	-5.2042	-4.4125	-4.4021	-5.175	-4.1396	-4.8833	116.346	398.499	234.576	369.619	313.485	409.004	413.410	442.517	128.028	303.383	423.443	141.256	448.188	421.196	366.209	347.289	0.00068793	0.00031456	6.702e-05	1416	9.0643e-06	8.5306e-06	1404.4	370.25	7.4274e-06	6.9727e-06	422.94	138.1	119.81	40.69	3.2647e-06	51.228	0.00066857	0.00069138	0.00018986	1423.4	7.4041e-06	7.6872e-06	1407.6	373.92	7.4615e-06	7.5513e-06	429.72	139.84	121.26	41.502	7.5191e-06	52.123	273.663	159.647	167.167	106.888	249.689	222.345	106.698	111.585	273.232	243.633	111.163	115.894	116.104	120.392	273.047	119.587	-8191	255	
50859.652	1	1	0	0	0.10153	0.093883	0.13435	0.18332	0.036813	0.075876	0.31782	0.14321	0.10939	0.14893	0.25177	0.22742	0.093015	0.30308	0.096331	0.021473	-4.5354	-3.9813	-4.9854	-4.5458	-4.3313	-5.0542	-4.4833	-4.775	-4.9229	-4.1667	-5.2958	-4.775	-4.4021	-5.2063	-4.1771	-4.7167	385.818	325.927	113.730	267.040	176.128	248.866	370.081	376.381	194.943	430.667	329.361	432.974	107.278	423.343	400.307	116.398	0.00073312	0.00050022	0.0001211	1415.5	8.8586e-06	3.1833e-06	1399.5	370.46	5.9199e-06	6.3434e-06	422.25	137.6	118.94	40.296	5.1504e-06	50.827	0.00069566	0.00069145	0.00019052	1424.5	7.5934e-06	7.4293e-06	1408.7	374.61	7.3279e-06	7.7137e-06	429.35	139.93	121.31	41.462	7.5934e-06	52.121	276.109	193.118	184.296	106.905	266.653	223.401	106.729	111.947	240.087	266.923	111.485	116.306	116.560	120.744	270.380	119.717	-8191	255	
50859.773	1	1	0	0	0.072926	0.033687	0.18316	0.31561	0.066783	0.24991	0.23126	0.1615	0.12671	0.062169	0.12364	0.21893	0.063078	0.3043	0.081189	0.14943	-4.6979	-4.2292	-5.0771	-4.7625	-4.25	-4.9917	-4.4854	-4.6833	-4.9292	-4.0854	-4.9979	-4.8167	-4.2104	-5.2771	-4.35	-4.5896	197.028	419.843	412.341	453.387	272.881	262.373	97.987	419.197	356.947	98.091	100.247	197.820	323.179	436.518	391.106	226.205	0.00068498	0.00041876	7.3354e-05	1408.8	6.0304e-06	6.8784e-06	1396.8	368.29	9.1098e-06	6.7327e-06	422.61	136.87	119.62	40.296	6.6209e-06	50.724	0.00068751	0.00070474	0.00019205	1423.3	7.602e-06	7.4538e-06	1407.3	373.83	7.61e-06	7.7899e-06	429.46	139.63	121.26	41.482	7.6018e-06	52.15	273.299	199.475	174.353	107.271	248.243	284.149	106.947	112.174	282.523	216.307	111.503	116.324	116.617	120.982	260.266	120.032	-8191	255	
50859.867	1	1	0	0	0.30086	0.19719	0.059673	0.10019	0.38746	0.12423	0.19076	0.2721	0.024817	0.076254	0.10301	0.3059	0.22772	0.20578	0.21065	0.17607	-4.6958	-4.1271	-4.8438	-4.9271	-4.1521	-5.15	-4.6667	-4.5208	-5.1521	-4.075	-4.9062	-5.0333	-4.2	-5.2958	-4.4125	-4.5188	279.685	290.857	379.860	384.070	389.365	248.617	424.589	382.763	370.882	110.693	392.754	398.146	153.323	421.650	401.788	425.739	0.00063188	0.00052812	9.517e-05	1404.6	9.3747e-06	4.5236e-06	1394.3	367.86	5.6627e-06	1.7799e-06	422.1	137.59	119.7	40.378	5.1261e-06	50.685	0.00069921	0.0007099	0.00019132	1421.7	7.7373e-06	7.6425e-06	1409.4	374.12	7.5112e-06	7.7523e-06	429.36	139.56	121.17	41.447	7.5669e-06	52.051	278.033	172.245	182.550	107.579	251.033	218.627	107.115	112.185	267.135	245.675	111.087	116.476	116.849	120.981	266.545	120.196	-8191	255	
50859.965	1	1	0	0	0.16134	0.14087	0.096839	0.32249	0.064284	0.14652	0.2562	0.13059	0.30123	0.089647	0.019437	0.25262	0.037152	0.097363	0.065463	0.036203	-4.6479	-4.1333	-4.7562	-5.0375	-3.9042	-5.025	-4.7292	-4.5208	-5.2542	-4.1979	-4.6396	-5.2604	-4.1729	-5.0292	-4.5062	-4.45	166.022	259.001	304.474	427.490	249.487	199.520	400.037	389.477	114.381	410.125	412.651	111.432	320.313	151.863	362.385	230.486	0.0007056	0.0001168	0.00013722	1397.5	9.0598e-06	2.8573e-06	1392.6	367.32	7.1502e-06	3.9975e-06	424.51	137.67	119.75	40.273	7.5461e-06	50.744	0.00066374	0.00070068	0.0001951	1423.6	7.8086e-06	7.5271e-06	1408.5	373.33	7.2688e-06	7.8872e-06	429.21	140	121.21	41.471	7.631e-06	52.121	275.882	210.874	196.270	107.321	268.781	201.158	107.486	112.226	257.225	261.905	111.325	116.641	116.669	121.346	225.494	119.879	-8191	255	
50860.059	1	1	0	0	0.095571	0.27128	0.20538	0.13097	0.18158	0.089693	0.078922	0.14948	0.052793	0.16788	0.25603	0.11001	0.17662	0.14085	0.1741	0.158	-4.7167	-4.2708	-4.475	-5.3	-4.0729	-4.8562	-4.9958	-4.2417	-5.0833	-4.3229	-4.675	-5.025	-4.2354	-4.7917	-4.8646	-4.1354	100.371	438.578	212.414	374.940	243.409	318.109	448.960	454.189	198.287	149.417	374.451	390.300	141.532	346.696	258.992	411.936	0.00069283	0.0005155	0.00012365	1398.8	3.3823e-06	6.5376e-06	1394.7	369.61	4.5041e-06	3.8332e-06	421.05	137.35	119.41	40.315	6.1274e-06	50.627	0.00068918	0.00070055	0.00019627	1420.3	7.7351e-06	7.7507e-06	1410	374.34	7.4462e-06	7.7617e-06	428.86	139.77	121.36	41.495	7.5316e-06	52.158	273.128	220.864	168.723	107.771	248.695	268.384	107.180	112.380	274.222	243.001	111.404	116.531	116.910	121.212	263.290	120.284	-8191	255	
50860.156	1	1	0	0	0.055814	0.18108	0.10411	0.34408	0.15012	0.39679	0.39426	0.2192	0.12154	0.021022	0.14315	0.13096	0.086973	0.16704	0.14965	0.052523	-4.8125	-4.4	-4.3812	-5.2	-4.0938	-4.8042	-5.2958	-4.1125	-4.9604	-4.4	-4.4917	-5.1438	-4.3187	-4.6646	-5.0104	-4.1292	249.336	174.005	346.718	409.131	96.817	238.727	386.138	395.870	270.682	389.263	260.382	134.530	171.925	379.995	221.806	173.835	0.00067767	0.00063709	8.6157e-05	1406.2	7.8697e-06	6.8333e-06	1396.6	367.31	9.1617e-06	4.7397e-06	421.26	137.38	119.45	40.125	4.2437e-06	50.814	0.00069721	0.00070061	0.00019269	1426.2	7.6986e-06	7.762e-06	1412	373.85	7.5641e-06	7.6271e-06	429.31	139.94	121.27	41.389	7.5172e-06	52.152	278.617	186.574	171.117	107.803	263.177	257.241	107.497	112.421	270.250	254.044	111.726	116.715	116.959	121.042	294.891	120.341	-8191	255	
50860.254	1	1	0	0	0.18805	0.25862	0.11072	0.23319	0.1379	0.12442	0.17309	0.31048	0.29812	0.27479	0.28497	0.2906	0.14878	0.22385	0.17398	0.18041	-4.6646	-4.5542	-4.2479	-5.2604	-4.2625	-4.5312	-5.3042	-4.3146	-4.9583	-4.8021	-4.4146	-5.0958	-4.4333	-4.5646	-4.9792	-4.1333	394.707	185.817	222.434	362.131	158.474	209.751	308.635	358.823	296.824	142.814	349.440	304.694	408.046	445.216	107.426	371.339	0.00075721	0.00051044	6.6721e-05	1401	7.6943e-06	3.2034e-06	1390.3	368.71	7.3187e-06	5.305e-06	422.63	136.96	118.77	40.396	6.6105e-06	50.604	0.00070144	0.00072374	0.00019347	1423.9	7.7183e-06	7.6177e-06	1408.4	374.01	7.5485e-06	7.6532e-06	429.11	139.73	121.01	41.514	7.4701e-06	51.979	273.116	206.159	214.229	107.647	252.984	273.607	107.427	112.440	280.220	238.450	111.692	116.413	117.357	121.228	252.148	120.081	-8191	255	
50860.348	1	1	0	0	0.13204	0.12816	0.088129	0.11751	0.27556	0.13733	0.1335	0.25385	0.048901	0.035245	0.16015	0.16416	0.10947	0.096236	0.12689	0.12736	-4.4958	-4.7042	-4.1167	-5.2396	-4.2979	-4.5354	-5.2604	-4.2312	-4.8729	-4.7479	-4.2083	-5.1104	-4.5479	-4.3667	-4.9812	-4.2979	280.427	235.399	201.355	95.869	379.706	397.105	437.173	439.665	96.980	138.493	385.759	376.637	317.981	374.556	210.877	386.987	0.00071415	0.00074871	0.00012655	1404.4	6.4895e-06	3.2582e-06	1398.7	366.12	2.4651e-06	2.9612e-06	420.88	137.93	120.13	40.366	6.974e-06	50.968	0.00068445	0.00069785	0.00019987	1424	7.7305e-06	7.665e-06	1410.2	373.29	7.4823e-06	7.5856e-06	429.01	140.1	121.15	41.506	7.4853e-06	52.252	279.107	197.234	178.546	107.446	285.935	263.035	107.477	112.529	317.739	228.226	111.752	116.491	116.940	120.722	266.942	120.143	-8191	255	
50860.445	1	1	0	0	0.041429	0.12318	0.080015	0.31203	0.2803	0.20314	0.12622	0.34886	0.07702	0.065688	0.18561	0.14722	0.27708	0.19338	0.078831	0.1698	-4.3146	-4.9062	-4.0938	-5.2271	-4.5208	-4.3021	-5.4042	-4.3292	-4.6062	-5.0708	-4.0771	-5.1854	-4.6021	-4.4479	-5.1021	-4.3271	453.649	97.905	321.654	406.819	191.173	116.552	354.823	423.723	114.175	397.509	365.239	404.557	391.244	108.955	400.863	347.394	0.00078159	0.00050775	0.00012752	1405.6	4.9636e-06	6.95e-06	1402.1	367.84	8.4242e-06	6.5979e-06	422.1	137.91	119.51	40.484	8.1676e-06	50.663	0.00070339	0.00069221	0.00019505	1424.7	7.5566e-06	7.7316e-06	1410.5	374.12	7.5339e-06	7.5732e-06	429.71	139.86	121.28	41.487	7.4647e-06	52.125	273.678	196.922	180.854	107.118	270.471	237.759	107.306	112.043	274.239	243.286	111.362	116.389	117.214	120.802	261.379	119.712	-8191	255	
50860.566	1	1	0	0	0.10536	0.15865	0.070857	0.19649	0.099771	0.022382	0.23563	0.069035	0.073787	0.13247	0.15902	0.16508	0.059474	0.19768	0.11656	0.14047	-4.3229	-5.0229	-4.0958	-5.2292	-4.7854	-4.2937	-5.4333	-4.4437	-4.4167	-5.0479	-4.2458	-4.9938	-4.9375	-4.3229	-4.9896	-4.5542	236.889	194.928	373.011	375.231	453.016	116.921	436.326	345.906	270.680	111.037	387.574	373.893	412.258	430.949	339.367	402.535	0.00078724	0.00065444	0.00012301	1408.1	8.2066e-06	3.2637e-06	1396.5	369.39	5.9813e-06	6.0164e-06	423.76	137.78	119.91	40.438	6.516e-06	50.618	0.00070494	0.00069709	0.00019174	1426.5	7.7488e-06	7.6601e-06	1411.4	374.47	7.6241e-06	7.3837e-06	429.53	140	121.29	41.446	7.4431e-06	52.138	271.142	185.308	167.143	107.370	258.766	265.240	107.220	112.210	280.733	223.476	111.742	116.225	116.770	121.286	243.145	120.167	-8191	255	
50860.660	1	1	0	0	0.11503	0.063836	0.24193	0.36901	0.25559	0.099514	0.30405	0.21045	0.15561	0.12649	0.23491	0.077856	0.25524	0.079728	0.17886	0.15954	-4.125	-5.1375	-4.1333	-4.9938	-4.6875	-4.1854	-5.2542	-4.6271	-4.1021	-5.0771	-4.2417	-4.8688	-4.9708	-4.0771	-5.1167	-4.7208	298.391	451.573	144.161	420.862	124.893	238.215	371.520	317.302	164.080	131.097	364.888	338.259	446.292	202.180	211.053	382.266	0.00075899	0.00067562	0.00010884	1405.6	8.8072e-06	8.4251e-06	1400.1	368.19	7.0605e-06	8.8715e-06	422.48	137.73	119.82	40.174	6.3197e-06	51.025	0.00069246	0.00071121	0.00019862	1424.2	7.5545e-06	7.7541e-06	1411.7	374.31	7.598e-06	7.6446e-06	429.88	140	121.31	41.498	7.5493e-06	52.182	274.058	164.076	199.345	107.289	254.749	228.294	107.198	112.324	256.066	244.854	111.175	116.030	116.613	120.849	262.606	120.064	-8191	255	
50860.734	1	1	0	0	0.14863	0.054966	0.19542	0.17571	0.15484	0.22812	0.33312	0.17713	0.073848	0.059554	0.047564	0.12765	0.28035	0.18499	0.09818	0.28731	-3.8646	-5.0062	-4.1188	-4.9208	-4.9521	-4.0687	-5.1479	-4.7271	-4.1583	-5.2	-4.2604	-4.5792	-5.1333	-4.1667	-4.9417	-4.9167	243.407	435.175	96.641	356.062	117.393	326.761	413.316	438.404	243.974	111.564	368.752	416.506	391.679	122.600	347.896	372.241	0.00076725	0.00051987	0.00013072	1405.6	6.754e-06	6.1021e-06	1402.7	368.33	6.9218e-06	2.5353e-06	421.82	137.4	119.18	40.362	8.417e-06	51.019	0.00068392	0.00068037	0.00019465	1425.9	7.5321e-06	7.7571e-06	1412.7	374.44	7.6169e-06	7.5e-06	429.8	139.8	121.29	41.475	7.6123e-06	52.248	275.645	177.875	204.740	107.546	252.015	225.026	107.183	112.201	292.424	166.476	111.502	116.002	117.013	120.739	253.612	120.271	-8191	255	
50860.855	1	1	0	0	0.22705	0.070784	0.055066	0.26615	0.11014	0.18725	0.23224	0.21926	0.25491	0.034397	0.31505	0.18557	0.20148	0.14505	0.11651	0.121	-3.9333	-5.0271	-4.3729	-4.6583	-5.1167	-4.2125	-5	-5.0333	-4.2458	-5.0875	-4.475	-4.4854	-5.1292	-4.2458	-4.7438	-4.9042	381.759	175.861	251.788	418.010	169.294	263.329	380.345	319.114	297.687	263.452	422.679	156.967	408.246	426.629	98.587	317.120	0.0007616	0.00037723	8.6267e-05	1407.5	8.1381e-06	7.0512e-06	1399.7	368.39	6.8328e-06	3.979e-06	423.39	138.13	119.73	40.231	6.0573e-06	51.077	0.00070703	0.00068958	0.00019399	1425.4	7.5996e-06	7.7278e-06	1413	374.23	7.4297e-06	7.2899e-06	429.96	139.93	121.45	41.473	7.3933e-06	52.244	273.379	185.278	179.850	107.286	270.799	252.339	107.256	112.273	257.933	258.823	111.622	116.485	117.260	120.868	252.002	120.199	-8191	255	
50860.949	1	1	0	0	0.04837	0.23266	0.15097	0.31259	0.21382	0.25303	0.30208	0.11455	0.24405	0.10797	0.23821	0.12993	0.15752	0.050651	0.087634	0.20977	-3.8417	-5.0271	-4.5375	-4.5354	-5.1062	-4.2229	-4.9021	-4.8542	-4.175	-5.0479	-4.6292	-4.2854	-5.1438	-4.3333	-4.4125	-5.05	258.960	371.259	345.208	394.858	121.984	292.527	382.460	385.146	153.154	283.557	424.938	374.086	360.266	120.185	284.774	449.829	0.00073898	0.00049505	8.6808e-05	1407	8.1161e-06	6.3504e-06	1393	369.83	8.2988e-06	6.04e-06	422.35	138.07	119.71	40.383	6.5354e-06	51.097	0.00068953	0.00067668	0.00019251	1425.2	7.5261e-06	7.6295e-06	1409.8	374.56	7.6054e-06	7.7358e-06	429.96	140.02	121.44	41.545	7.6314e-06	52.243	271.899	162.955	208.979	107.401	274.526	241.917	107.305	112.252	288.063	267.945	111.452	116.080	117.016	120.753	230.169	119.979	-8191	255	
50861.043	1	1	0	0	0.11047	0.15105	0.13781	0.25336	0.054369	0.068296	0.16107	0.030822	0.19724	0.14694	0.30198	0.10888	0.17824	0.11615	0.1733	0.14835	-3.8604	-4.9042	-4.6417	-4.4104	-5.1833	-4.3917	-4.6979	-5.2	-3.9271	-4.9062	-4.8792	-4.4437	-5.2479	-4.4667	-4.55	-5.1229	192.244	230.252	396.917	407.916	217.849	315.544	427.363	96.824	225.660	343.451	382.361	363.511	111.507	338.532	216.160	412.245	0.00070082	0.00054273	9.8034e-05	1408	7.3195e-06	7.1095e-06	1399.3	369.09	8.59e-06	4.4085e-06	424.26	138.12	120.23	40.356	6.51e-06	50.982	0.00070049	0.00068919	0.00019023	1425	7.3467e-06	7.7826e-06	1412.5	374.7	7.5256e-06	7.5567e-06	430.38	140.12	121.62	41.458	7.2474e-06	52.159	276.076	188.448	200.605	107.449	262.860	225.262	107.373	112.370	290.438	185.048	111.617	116.326	116.916	121.007	241.457	120.263	-8191	255	
50861.141	1	1	0	0	0.11849	0.048509	0.241	0.31262	0.18547	0.11941	0.03472	0.30472	0.38513	0.17848	0.1451	0.18617	0.10622	0.12729	0.062917	0.16222	-3.8063	-4.7625	-4.8	-4.3354	-5.125	-4.4396	-4.5813	-5.2729	-4.075	-4.7229	-5.1062	-4.2688	-5.1042	-4.3667	-4.3229	-5.2271	355.347	317.272	334.534	387.965	260.004	147.829	399.528	394.585	200.436	302.035	450.679	408.245	141.141	447.630	103.862	404.383	0.00074965	0.00031425	0.00013394	1404.9	2.3041e-06	5.2098e-06	1396.3	370.23	1.1082e-05	6.569e-06	423.71	138.26	119.56	40.283	5.2426e-06	50.946	0.00069293	0.00069635	0.00019355	1425.2	7.5571e-06	7.5861e-06	1413.1	374.95	7.6867e-06	7.4873e-06	429.48	140.11	121.48	41.495	7.3941e-06	52.263	275.295	205.364	195.697	107.401	252.388	213.062	107.515	112.405	260.882	245.610	111.746	116.441	117.071	120.813	260.593	119.851	-8191	255	
50861.262	1	1	0	0	0.15241	0.1928	0.072342	0.27489	0.13821	0.27425	0.10403	0.15916	0.13043	0.064086	0.15783	0.17346	0.077162	0.23163	0.24271	0.33446	-3.7188	-4.6729	-5.0896	-4.225	-4.8583	-4.6292	-4.4604	-5.2375	-4.0458	-4.5458	-5.0625	-4.2125	-4.8792	-4.7833	-4.5125	-5.3	389.988	299.496	170.333	446.019	335.924	115.033	363.180	407.091	210.064	224.000	379.398	429.563	378.138	413.155	119.624	399.340	0.00068673	0.00040099	0.00011523	1407.8	4.6402e-06	8.5208e-06	1394.1	369.24	9.6889e-06	7.4176e-06	421.99	138.35	119.99	40.644	5.3695e-06	51.043	0.00068661	0.00068371	0.00018758	1425.1	7.4651e-06	7.6407e-06	1410.7	374.69	7.4288e-06	7.4886e-06	428.96	140.2	121.33	41.548	7.2955e-06	52.13	272.109	181.667	213.956	107.292	277.747	234.581	107.341	112.235	273.128	262.435	111.715	116.472	117.080	120.997	227.422	120.020	-8191	255	
50861.332	1	1	0	0	0.041277	0.29522	0.09687	0.27209	0.068111	0.10933	0.12147	0.13612	0.24689	0.085325	0.12636	0.23304	0.14139	0.25959	0.17658	0.16556	-4	-4.4875	-5.0896	-4.3333	-4.9396	-4.7604	-4.3292	-5.3021	-4.3688	-4.3063	-5.0396	-4.3438	-4.9	-4.9625	-4.0687	-5.2417	137.552	242.382	408.795	427.910	101.558	416.036	290.448	386.314	400.275	450.107	211.808	364.600	418.936	178.528	155.794	404.496	0.00075058	0.00078014	9.805e-05	1394.5	9.3007e-06	5.7585e-06	1391.3	364.98	8.6552e-06	2.8462e-06	417.48	136.6	117.82	40.016	7.3351e-06	50.328	0.00068842	0.00065701	0.00019032	1424.2	7.2634e-06	7.4628e-06	1410.6	373.45	7.3504e-06	7.4378e-06	428.61	139.72	121.02	41.412	7.3389e-06	52.081	270.889	176.710	152.723	108.477	274.210	226.547	108.268	113.452	276.224	288.167	112.903	117.681	118.153	122.306	252.229	121.646	-8191	255	
50861.453	1	1	0	0	0.053864	0.15368	0.22278	0.24322	0.0027825	0.041	0.18613	0.21971	0.16794	0.077293	0.15579	0.36313	0.11377	0.086983	0.0094465	0.13383	-4.2479	-4.3104	-5.0896	-4.3875	-4.6937	-4.9042	-4.2771	-5.1083	-4.6229	-4.3396	-5.15	-4.3146	-4.8146	-5.1292	-4.1333	-5.0479	171.829	268.546	99.817	406.693	351.610	165.172	395.216	376.385	187.675	358.704	407.515	417.065	193.902	256.336	161.018	387.917	0.00072296	0.00054028	0.00011501	1394.3	8.5092e-06	6.8789e-06	1387.1	365.94	6.3171e-06	4.9307e-06	419.18	137.13	118.74	39.968	5.2174e-06	50.426	0.00068539	0.00067804	0.00018531	1422.9	7.2199e-06	7.2018e-06	1407.5	373.96	7.3415e-06	7.3994e-06	428.55	139.61	121.35	41.455	7.4693e-06	52.117	276.462	151.268	161.715	108.587	284.352	260.787	108.451	113.693	262.202	260.727	112.990	117.451	118.350	122.208	281.876	120.986	-8191	255	
50861.551	1	1	0	0	0.15075	0.17408	0.21737	0.12984	0.055811	0.045159	0.24118	0.19833	0.46219	0.059077	0.13492	0.075414	0.24253	0.12791	0.037723	0.12193	-4.2021	-4.2667	-4.9833	-4.375	-4.5083	-4.9729	-4.4187	-5.0417	-4.7417	-4.175	-5.3667	-4.5333	-4.6146	-5.1687	-4.0958	-5.0167	257.078	313.344	436.217	395.917	148.605	408.609	363.221	395.087	433.705	278.411	371.821	268.989	367.024	422.909	325.183	135.737	0.00077239	0.00041974	0.00019413	1385.7	7.2585e-06	6.2682e-06	1383.6	365.37	5.621e-06	5.8237e-06	419.92	136.16	118.53	40.007	4.6665e-06	50.447	0.00068299	0.00067597	0.00018275	1420.6	7.2382e-06	7.1551e-06	1407.8	373.6	7.1782e-06	7.3501e-06	429.18	139.74	121.23	41.42	7.2815e-06	52.031	275.370	176.037	217.781	108.733	263.251	230.820	108.535	113.518	300.685	233.359	112.927	117.677	118.197	122.513	242.411	121.286	-8191	255	
50861.645	1	1	0	0	0.06215	0.046176	0.13046	0.079668	0.24181	0.26226	0.23943	0.097814	0.019416	0.3782	0.2719	0.25977	0.10055	0.051622	0.06958	0.23343	-4.4417	-4.0938	-5.1458	-4.6292	-4.3042	-5.1354	-4.4167	-4.9563	-4.7438	-4.0958	-5.1958	-4.5854	-4.5771	-5.1479	-4.0771	-4.8458	260.606	166.985	191.358	435.691	169.188	314.526	407.566	436.130	151.052	388.975	396.718	425.907	125.915	386.100	244.257	340.274	0.00071993	0.00068802	0.00014284	1390.8	3.9805e-06	6.9442e-06	1386	365.09	7.9738e-06	5.7137e-06	417.97	136.23	118.04	40.312	4.2865e-06	50.537	0.00067068	0.00067848	0.00017977	1420.2	7.1798e-06	7.1761e-06	1409.6	373.82	7.0262e-06	7.4276e-06	428.43	139.53	121.09	41.534	7.218e-06	52.186	275.841	193.063	192.968	108.616	259.816	244.594	108.390	113.308	264.229	238.551	112.824	117.575	118.128	122.266	237.631	121.182	-8191	255	
50861.742	1	1	0	0	0.36182	0.053933	0.063203	0.26717	0.091312	0.12259	0.22982	0.033539	0.15198	0.09955	0.10688	0.30452	0.12654	0.061434	0.039194	0.35661	-4.6771	-4.0833	-5.0625	-4.7396	-4.1958	-5.0771	-4.4563	-4.6646	-5.0292	-4.2521	-5.0458	-4.7812	-4.2979	-5.0021	-4.0417	-4.5354	167.611	291.869	400.154	120.240	264.041	350.831	380.657	318.948	449.632	432.676	390.640	315.737	130.082	440.023	269.696	380.628	0.000734	0.00032995	9.726e-05	1390.7	6.6912e-06	6.5438e-06	1382.4	365	5.0708e-06	5.5148e-06	419.92	136.52	118.45	39.969	8.4173e-06	50.612	0.00065248	0.00067871	0.00018291	1421.6	7.2456e-06	7.186e-06	1407.4	373.09	7.1254e-06	7.2716e-06	429.09	139.67	120.99	41.419	7.253e-06	52.136	276.536	149.202	195.075	108.605	254.638	274.911	108.287	113.569	259.581	240.677	112.743	117.630	117.866	122.147	276.120	121.221	-8191	255	
50861.859	1	1	0	0	0.31361	0.073949	0.18521	0.10177	0.17139	0.01917	0.13346	0.16676	0.030889	0.039595	0.23664	0.3439	0.27437	0.21224	0.078827	0.25509	-4.7354	-4.1042	-4.8625	-4.9625	-4.1813	-5.1271	-4.4646	-4.6208	-5.0604	-4.0375	-4.9437	-4.9521	-4.1687	-5.3	-4.2937	-4.6625	402.879	256.166	237.141	410.081	165.499	106.186	374.734	427.380	233.352	308.579	377.537	385.530	396.552	375.207	309.811	395.207	0.00071847	0.00044599	0.00010895	1391.4	7.0569e-06	4.3055e-06	1380.9	365.55	7.1003e-06	4.7096e-06	419.37	136.25	118.53	39.872	6.567e-06	50.452	0.00066441	0.00066627	0.00018393	1422.4	7.2932e-06	7.2657e-06	1407.6	373.49	7.1895e-06	7.3146e-06	429.08	139.85	121.18	41.424	7.2942e-06	52.054	275.515	166.204	198.586	108.767	261.208	268.083	108.410	113.478	265.949	229.914	112.972	117.784	118.041	122.108	265.517	120.934	-8191	255	
50861.957	1	1	0	0	0.022103	0.09697	0.082955	0.27453	0.16037	0.20371	0.12191	0.33013	0.14812	0.12421	0.21243	0.15202	0.24672	0.28139	0.23183	0.22595	-4.6604	-4.1583	-4.8708	-5.0354	-4.1021	-5.0792	-4.7104	-4.3625	-5.1687	-4.0896	-4.7667	-4.8771	-4.0563	-5.1687	-4.5375	-4.3583	157.551	311.431	235.288	445.899	104.641	201.481	416.156	393.824	153.697	418.276	206.207	439.871	194.203	416.590	234.180	361.263	0.00070823	0.00016756	0.0001186	1393.7	8.1306e-06	4.9765e-06	1383.6	365.11	5.9151e-06	7.3973e-06	419.23	136.48	117.52	40.037	5.6952e-06	50.435	0.00067485	0.00067049	0.00018637	1421.6	7.3515e-06	7.2876e-06	1408.9	373.61	7.0425e-06	7.3641e-06	428.65	139.58	120.86	41.406	7.4431e-06	52.07	274.434	177.304	177.835	108.888	253.488	232.304	108.399	113.422	259.384	248.745	112.741	117.708	118.138	122.221	254.785	121.101	-8191	255	
50862.027	1	1	0	0	0.13164	0.11994	0.16606	0.23164	0.13968	0.20509	0.14943	0.39075	0.082451	0.07489	0.053516	0.16624	0.29163	0.20852	0.3268	0.24678	-4.8458	-4.2375	-4.6979	-5.1062	-3.9896	-5.0729	-4.7875	-4.4208	-5.1583	-4.2667	-4.6542	-5.1583	-4.2188	-5.1	-4.7688	-4.2458	207.537	214.375	169.589	427.999	218.598	274.573	419.983	390.051	262.044	251.997	408.853	379.408	330.023	385.683	147.449	446.184	0.00065076	0.00033617	0.00017176	1390.9	9.9973e-06	6.8905e-06	1386.2	364.87	6.2249e-06	5.9868e-06	417.03	136.06	118.23	39.973	5.351e-06	50.306	0.0006681	0.00068205	0.00018906	1420.7	7.559e-06	7.4186e-06	1408.3	372.99	7.2394e-06	7.2549e-06	428.44	139.65	120.9	41.405	7.2136e-06	52.114	277.159	185.311	186.932	108.816	262.869	253.471	108.738	113.663	278.555	213.330	112.726	117.545	118.158	122.372	262.526	121.155	-8191	255	
50862.148	1	1	0	0	0.2413	0.29055	0.197	0.28426	0.16696	0.14584	0.22659	0.12914	0.16108	0.15698	0.2674	0.28574	0.10968	0.15806	0.028253	0.10279	-4.8979	-4.3313	-4.4688	-5.3833	-4.1438	-4.825	-5.0958	-4.2771	-5.1562	-4.4354	-4.4812	-5.2125	-4.1937	-4.7875	-4.8208	-4.2917	102.891	357.839	399.372	115.396	110.372	431.156	434.135	365.512	205.348	266.956	434.724	124.473	105.013	356.607	158.032	388.760	0.00067662	0.0004015	0.00019188	1391.7	8.3538e-06	6.4213e-06	1379.9	364.52	8.3815e-06	6.3027e-06	417.91	136.34	118.62	39.807	3.6222e-06	50.471	0.00065395	0.0006662	0.00018655	1421.5	7.3683e-06	7.307e-06	1407.5	373.36	7.0757e-06	7.5762e-06	427.78	139.59	121.17	41.399	7.2288e-06	52.114	272.649	199.046	205.505	108.839	276.305	224.712	108.839	113.375	268.302	203.196	112.847	117.649	118.137	122.355	243.036	120.971	-8191	255	
50862.246	1	1	0	0	0.10189	0.12929	0.029794	0.22867	0.098117	0.073867	0.19967	0.21185	0.09734	0.10366	0.21288	0.15597	0.17091	0.18209	0.28325	0.03133	-4.7729	-4.4375	-4.3396	-5.2396	-4.2	-4.5833	-5.0938	-4.175	-4.7979	-4.5917	-4.3833	-5.2646	-4.3208	-4.5687	-5.075	-4.225	373.262	311.291	287.489	425.241	106.903	103.313	408.177	413.833	121.431	380.747	386.458	423.047	158.441	364.526	212.927	141.401	0.00076471	0.00035121	0.00015299	1396.8	9.0403e-06	5.8806e-07	1380.8	365.27	8.1727e-06	7.2136e-06	419.25	137.21	118.04	39.936	6.524e-06	50.488	0.00066072	0.00068422	0.00018919	1422.8	7.1872e-06	7.2692e-06	1406.8	373.32	7.1115e-06	7.2223e-06	428.49	139.76	120.86	41.381	7.2141e-06	52.065	272.335	182.386	162.448	108.682	273.437	274.507	108.660	113.294	255.744	245.232	112.746	117.766	118.015	122.258	276.240	120.970	-8191	255	
50862.340	1	1	0	0	0.16884	0.11237	0.13349	0.22011	0.24537	0.14097	0.14323	0.10935	0.15242	0.1861	0.19183	0.043518	0.18576	0.11647	0.023806	0.24098	-4.5792	-4.5521	-4.2646	-5.2688	-4.3083	-4.4062	-5.2188	-4.3375	-4.9354	-4.8625	-4.4375	-5.2208	-4.3938	-4.5729	-5.1792	-4.1937	233.665	232.849	290.812	101.032	318.981	345.210	411.485	354.247	321.877	414.106	398.107	429.884	347.861	384.857	326.940	390.537	0.0006899	0.00049632	3.2433e-05	1387.9	9.9955e-06	5.55e-06	1382.2	364.3	4.6185e-06	5.2946e-06	417.12	136.76	118.26	39.781	6.9289e-06	50.365	0.00067278	0.00066577	0.00018426	1420.4	7.1584e-06	7.2695e-06	1406.4	372.69	7.1909e-06	7.1398e-06	427.85	139.61	120.89	41.318	7.18e-06	52.072	278.570	219.712	148.890	108.746	261.566	246.161	108.652	113.356	249.009	239.654	112.805	117.670	117.891	122.249	248.703	121.109	-8191	255	
50862.438	1	1	0	0	0.21137	0.090905	0.12007	0.19802	0.13166	0.18579	0.22302	0.26237	0.1304	0.19293	0.16301	0.10787	0.1694	0.088523	0.20775	0.099539	-4.6167	-4.8187	-4.0687	-5.1937	-4.5771	-4.3521	-5.4354	-4.3083	-4.7271	-4.8896	-4.225	-5.2958	-4.6542	-4.3833	-5.0667	-4.1854	325.426	401.652	206.030	356.062	190.279	259.538	377.743	372.031	323.619	406.737	288.319	441.769	181.389	329.964	174.727	124.709	0.00071566	0.0002091	0.00014766	1390.4	6.0452e-06	3.5644e-06	1380.6	364.53	8.943e-06	7.427e-06	417.72	136.15	118.22	40.119	7.5292e-06	50.279	0.00067763	0.00065503	0.00018209	1420.7	7.2072e-06	7.2136e-06	1405.8	373.36	7.2727e-06	7.2996e-06	428.49	139.62	121.07	41.394	7.1873e-06	52.055	272.890	193.903	198.968	108.625	290.054	248.234	108.841	113.449	283.264	246.848	112.420	117.567	118.186	122.471	264.814	120.849	-8191	255	
#DATA ENDS
