BOXY.EXE: ISS Imagent and Oximeter Data Acquisition Program Version 0.80
Ascii Record File

#ACQ INFORMATION
2  Detector Channels 
16  External MUX Channels 
1  Auxiliary Channels 
5000  Waveform (CCF) Frequency (Hz)
1  Waveforms Skipped 
30  Waveforms Averaged 
1  Cycles Averaged 
16  Acquisitions per Waveform 
10.0806  Updata Rate (Hz) 

#FILE INFORMATION
TRUE -- External MUX Channel results are PARSED.
FALSE -- AC DC and Phase are NOT grouped.
TRUE -- Companion Program Settings File CREATED.
FALSE -- AC data not excluded
FALSE -- DC data not excluded
FALSE -- Phase data not excluded
FALSE -- Auxillary Chn. data not excluded
Tab delimiters

#CALIBRATION STATE
TRUE -- Waveform Calibration Values APPLIED.


#AUX CALIBRATION VALUES
Val Type	aux-1	

Term	1.0000e+00	
Factor	0.0000e+00	


#WF CALIBRATION VALUES
A = Detector Channel
Val Type	A-AC1	A-AC2	A-AC3	A-AC4	A-AC5	A-AC6	A-AC7	A-AC8	A-AC9	A-AC10	A-AC11	A-AC12	A-AC13	A-AC14	A-AC15	A-AC16	A-DC1	A-DC2	A-DC3	A-DC4	A-DC5	A-DC6	A-DC7	A-DC8	A-DC9	A-DC10	A-DC11	A-DC12	A-DC13	A-DC14	A-DC15	A-DC16	A-Ph1	A-Ph2	A-Ph3	A-Ph4	A-Ph5	A-Ph6	A-Ph7	A-Ph8	A-Ph9	A-Ph10	A-Ph11	A-Ph12	A-Ph13	A-Ph14	A-Ph15	A-Ph16	

Term	0.00000e+00	0.00000e+00	0.00000e+00	0.00000e+00	0.00000e+00	0.00000e+00	0.00000e+00	0.00000e+00	0.00000e+00	0.00000e+00	0.00000e+00	0.00000e+00	0.00000e+00	0.00000e+00	0.00000e+00	0.00000e+00	0.00000e+00	0.00000e+00	0.00000e+00	0.00000e+00	0.00000e+00	0.00000e+00	0.00000e+00	0.00000e+00	0.00000e+00	0.00000e+00	0.00000e+00	0.00000e+00	0.00000e+00	0.00000e+00	0.00000e+00	0.00000e+00	0.00000e+00	0.00000e+00	0.00000e+00	0.00000e+00	0.00000e+00	0.00000e+00	0.00000e+00	0.00000e+00	0.00000e+00	0.00000e+00	0.00000e+00	0.00000e+00	0.00000e+00	0.00000e+00	0.00000e+00	0.00000e+00	
Factor	1.00000e+00	1.00000e+00	1.00000e+00	1.00000e+00	1.00000e+00	1.00000e+00	1.00000e+00	1.00000e+00	1.00000e+00	1.00000e+00	1.00000e+00	1.00000e+00	1.00000e+00	1.00000e+00	1.00000e+00	1.00000e+00	1.00000e+00	1.00000e+00	1.00000e+00	1.00000e+00	1.00000e+00	1.00000e+00	1.00000e+00	1.00000e+00	1.00000e+00	1.00000e+00	1.00000e+00	1.00000e+00	1.00000e+00	1.00000e+00	1.00000e+00	1.00000e+00	X	X	X	X	X	X	X	X	X	X	X	X	X	X	X	X	

B = Detector Channel
Val Type	B-AC1	B-AC2	B-AC3	B-AC4	B-AC5	B-AC6	B-AC7	B-AC8	B-AC9	B-AC10	B-AC11	B-AC12	B-AC13	B-AC14	B-AC15	B-AC16	B-DC1	B-DC2	B-DC3	B-DC4	B-DC5	B-DC6	B-DC7	B-DC8	B-DC9	B-DC10	B-DC11	B-DC12	B-DC13	B-DC14	B-DC15	B-DC16	B-Ph1	B-Ph2	B-Ph3	B-Ph4	B-Ph5	B-Ph6	B-Ph7	B-Ph8	B-Ph9	B-Ph10	B-Ph11	B-Ph12	B-Ph13	B-Ph14	B-Ph15	B-Ph16	

Term	0.00000e+00	0.00000e+00	0.00000e+00	0.00000e+00	0.00000e+00	0.00000e+00	0.00000e+00	0.00000e+00	0.00000e+00	0.00000e+00	0.00000e+00	0.00000e+00	0.00000e+00	0.00000e+00	0.00000e+00	0.00000e+00	0.00000e+00	0.00000e+00	0.00000e+00	0.00000e+00	0.00000e+00	0.00000e+00	0.00000e+00	0.00000e+00	0.00000e+00	0.00000e+00	0.00000e+00	0.00000e+00	0.00000e+00	0.00000e+00	0.00000e+00	0.00000e+00	2.30140e+01	-1.20181e+02	-1.19907e+02	-1.83653e+02	-6.30298e+01	-5.18358e+01	-1.58195e+02	-1.62015e+02	-5.19289e+01	-7.20987e+01	-1.70726e+02	-1.70915e+02	-1.78976e+02	-1.76655e+02	-6.37239e+01	-1.49757e+02	
Factor	5.08546e-05	1.47758e-04	3.78023e-05	1.55087e-01	1.88521e-06	1.77159e-06	1.71671e-01	5.62650e-02	2.22537e-06	1.53002e-06	9.34834e-02	3.14727e-02	2.91465e-02	9.72571e-03	2.02248e-06	1.39640e-02	4.02956e-06	4.41231e-06	1.22925e-06	7.62458e-02	4.73918e-08	4.85632e-08	7.91440e-02	2.76715e-02	4.75700e-08	4.85441e-08	4.45230e-02	1.49399e-02	1.44346e-02	4.81122e-03	4.80407e-08	6.69290e-03	X	X	X	X	X	X	X	X	X	X	X	X	X	X	X	X	



#DISTANCE SETTINGS
A = Detector Channel
A-1	A-2	A-3	A-4	A-5	A-6	A-7	A-8	A-9	A-10	A-11	A-12	A-13	A-14	A-15	A-16	

2.5000e+00	3.0000e+00	2.5000e+00	3.0000e+00	2.0000e+00	3.0000e+00	1.5000e+00	3.0000e+00	3.0000e+00	3.0000e+00	3.0000e+00	3.0000e+00	3.0000e+00	3.0000e+00	1.5000e+00	3.0000e+00	

B = Detector Channel
B-1	B-2	B-3	B-4	B-5	B-6	B-7	B-8	B-9	B-10	B-11	B-12	B-13	B-14	B-15	B-16	

1.0000e+01	1.0000e+01	1.0000e+01	1.4400e+00	1.0000e+01	1.0000e+01	1.5100e+00	1.9400e+00	1.0000e+01	1.0000e+01	1.9900e+00	2.4900e+00	2.4100e+00	2.9000e+00	1.0000e+01	2.9800e+00	




#DATA BEGINS
time	group	step	mark	flag	A-AC1	A-AC2	A-AC3	A-AC4	A-AC5	A-AC6	A-AC7	A-AC8	A-AC9	A-AC10	A-AC11	A-AC12	A-AC13	A-AC14	A-AC15	A-AC16	A-DC1	A-DC2	A-DC3	A-DC4	A-DC5	A-DC6	A-DC7	A-DC8	A-DC9	A-DC10	A-DC11	A-DC12	A-DC13	A-DC14	A-DC15	A-DC16	A-Ph1	A-Ph2	A-Ph3	A-Ph4	A-Ph5	A-Ph6	A-Ph7	A-Ph8	A-Ph9	A-Ph10	A-Ph11	A-Ph12	A-Ph13	A-Ph14	A-Ph15	A-Ph16	B-AC1	B-AC2	B-AC3	B-AC4	B-AC5	B-AC6	B-AC7	B-AC8	B-AC9	B-AC10	B-AC11	B-AC12	B-AC13	B-AC14	B-AC15	B-AC16	B-DC1	B-DC2	B-DC3	B-DC4	B-DC5	B-DC6	B-DC7	B-DC8	B-DC9	B-DC10	B-DC11	B-DC12	B-DC13	B-DC14	B-DC15	B-DC16	B-Ph1	B-Ph2	B-Ph3	B-Ph4	B-Ph5	B-Ph6	B-Ph7	B-Ph8	B-Ph9	B-Ph10	B-Ph11	B-Ph12	B-Ph13	B-Ph14	B-Ph15	B-Ph16	aux-1	digaux	

29002.484	1	1	0	256	0.09714	0.1487	0.23581	0.30883	0.044284	0.25006	0.35576	0.14985	0.13688	0.051217	0.15614	0.19783	0.1831	0.11075	0.024976	0.048348	-4.5833	-3.9833	-4.2583	-4.8208	-3.7854	-4.6979	-4.6312	-4.0542	-4.8167	-4.0604	-4.3375	-4.9375	-3.8875	-4.8292	-4.5604	-3.9437	476.921	251.685	288.681	182.720	386.697	400.718	446.244	455.111	165.879	287.133	375.529	166.455	243.986	434.147	295.236	509.425	0.00069082	0.00048046	0.00010004	1125.3	4.1596e-06	3.8887e-06	1224.1	233.95	4.393e-06	2.6599e-06	295.45	80.342	64.018	18.497	1.511e-06	25.497	0.0006244	0.00063549	0.00017519	1121.9	6.9624e-06	7.1233e-06	1220	235.28	7.3385e-06	7.5344e-06	300.01	82.218	65.328	19.217	7.1859e-06	26.747	354.009	298.486	301.604	174.128	297.886	314.745	174.194	181.642	332.033	218.324	181.001	188.335	188.645	196.014	251.746	195.081	-8191	255	
29002.580	1	1	0	0	0.11133	0.070755	0.18765	0.073941	0.21954	0.19708	0.13442	0.10372	0.07603	0.353	0.1519	0.19038	0.36331	0.2163	0.30555	0.19914	-4.6208	-4.2917	-4.35	-4.9208	-3.7979	-4.4375	-4.6771	-4.0292	-4.8854	-4.0896	-4.2375	-4.8688	-3.9208	-4.5729	-4.625	-3.8875	363.797	362.923	200.132	494.104	349.732	459.184	477.112	507.106	376.359	399.482	401.694	401.643	390.046	452.626	213.526	368.582	0.00065381	0.00025119	4.3133e-05	1125.7	1.4917e-06	7.3204e-06	1220.3	234.83	1.6771e-06	3.6189e-06	294.86	80.552	63.204	18.269	8.2303e-06	25.429	0.00061337	0.00063478	0.00017294	1124.1	6.5915e-06	6.5116e-06	1218.3	235.24	6.1138e-06	6.0495e-06	298.74	81.945	64.706	18.983	5.6007e-06	26.5	338.860	208.583	285.140	174.386	225.717	294.414	174.339	181.609	314.758	340.931	181.481	188.404	188.592	195.686	308.925	194.614	-8191	255	
29002.676	1	1	0	0	0.030642	0.2055	0.1291	0.30079	0.19383	0.15168	0.36559	0.068988	0.26127	0.12137	0.14387	0.15273	0.20955	0.14093	0.16983	0.12351	-4.4646	-4.3063	-4.0167	-5.0083	-3.7396	-4.4333	-4.85	-3.9917	-4.7812	-4.3438	-3.9833	-4.8729	-4.1417	-4.5188	-4.7833	-3.9042	179.352	177.369	398.685	485.789	450.663	199.058	405.823	451.042	473.615	418.015	199.111	506.517	312.738	367.337	342.756	223.471	0.00076457	0.00024143	7.4449e-05	1127.7	3.4731e-06	3.4169e-06	1226.8	235.07	2.2391e-06	5.8636e-06	294.27	80.731	63.167	18.436	2.9312e-06	25.59	0.00049663	0.00050796	0.00014187	1121.6	5.4805e-06	5.5935e-06	1220.4	234.35	5.6695e-06	5.9026e-06	298.58	81.783	64.738	19.075	6.268e-06	26.664	344.451	283.564	355.030	174.411	307.665	357.867	174.313	181.737	277.347	277.957	181.357	188.226	188.644	195.576	293.050	195.151	-8191	255	
29002.748	1	1	0	0	0.29538	0.10411	0.17322	0.2521	0.18354	0.17909	0.26499	0.26303	0.19941	0.22893	0.1508	0.1139	0.052791	0.22419	0.19159	0.1573	-4.3708	-4.5229	-3.9417	-4.9437	-4.0396	-4.2979	-4.9313	-3.9771	-4.5896	-4.4896	-3.8917	-4.8604	-4.1417	-4.0021	-4.6979	-3.8438	410.112	381.445	165.746	164.767	402.409	212.939	414.676	177.831	216.907	467.477	505.826	498.966	259.633	272.044	471.395	436.705	0.00077349	0.00031712	6.9971e-05	1129.2	3.5371e-07	2.0169e-06	1220.6	234.78	8.319e-06	2.6633e-06	296.87	80.556	63.557	18.449	4.8932e-06	25.54	0.00058454	0.00060267	0.00017371	1125.5	6.9489e-06	6.9946e-06	1221.1	236.13	7.3033e-06	7.6353e-06	301.47	82.432	65.651	19.358	8.4555e-06	27.031	347.964	249.333	458.571	174.152	312.255	341.321	174.413	181.805	301.457	175.492	181.612	187.974	188.677	196.300	239.830	194.735	-8191	255	
29002.869	1	1	0	0	0.30527	0.046001	0.19772	0.19595	0.014721	0.30073	0.25953	0.11259	0.10429	0.11239	0.12323	0.020651	0.17061	0.051328	0.19124	0.20818	-4.2083	-4.5333	-3.9625	-4.8833	-4.25	-4.0687	-4.875	-4.0104	-4.4521	-4.6208	-3.8646	-4.7708	-4.2167	-4.0083	-4.8875	-3.9646	456.611	454.040	223.520	481.777	274.289	326.023	431.716	422.701	418.758	334.348	185.734	238.243	352.541	323.798	436.045	320.765	0.00070195	0.00041645	0.00013589	1132.8	1.1911e-06	9.0781e-06	1232.1	236.7	4.92e-06	4.193e-06	297.29	81.272	64.138	18.408	1.8665e-06	25.485	0.00076043	0.00079809	0.00022421	1131.6	8.5843e-06	8.6122e-06	1229.1	238.31	8.2005e-06	8.1768e-06	302.19	82.929	65.801	19.329	7.7255e-06	27.019	354.548	380.009	213.547	174.170	355.200	290.245	174.132	181.704	340.571	231.296	181.256	188.257	188.386	195.590	340.877	195.412	-8191	255	
29002.963	1	1	0	0	0.19053	0.13931	0.17298	0.22365	0.20904	0.10599	0.046929	0.27457	0.10415	0.20743	0.27882	0.085327	0.11822	0.011425	0.21556	0.11432	-4.1146	-4.6625	-3.9146	-4.9646	-4.4125	-3.8896	-5.0708	-4.1417	-4.3271	-4.7021	-4.0417	-4.6896	-4.4458	-4.05	-4.8292	-4.1146	414.691	227.415	296.610	482.330	337.398	455.638	475.775	423.031	349.224	419.709	512.146	240.419	417.596	309.019	259.677	489.298	0.00075361	0.00091261	0.00010721	1132.1	7.4074e-06	5.1873e-06	1230.7	235.69	6.2299e-06	9.2487e-07	298.01	81.48	64.202	18.485	4.1923e-06	25.58	0.00069219	0.00073709	0.00020784	1131.9	8.4813e-06	8.7614e-06	1228.2	238.99	8.8419e-06	8.9364e-06	303.65	83.331	66.121	19.444	8.4672e-06	27.083	345.590	265.356	285.679	174.406	312.862	374.868	174.242	181.546	308.975	522.779	181.616	187.846	188.383	195.615	373.224	195.353	-8191	255	
29003.059	1	1	0	0	0.084633	0.10574	0.23134	0.35835	0.11008	0.079424	0.1422	0.16359	0.22132	0.17524	0.30214	0.1912	0.14427	0.13563	0.13685	0.23212	-3.9208	-4.9104	-3.8479	-4.6833	-4.4708	-3.8292	-4.9417	-4.2625	-4.0792	-4.8625	-3.9708	-4.5167	-4.6458	-3.8875	-4.6542	-4.2521	438.865	409.019	478.572	475.398	374.752	217.909	453.046	520.574	293.746	450.391	499.688	203.364	233.890	277.461	338.199	181.443	0.00064244	0.00032498	0.00013486	1129.1	2.5017e-06	4.231e-06	1228.5	237.32	1.8423e-05	3.3436e-06	297.93	81.202	64.201	18.372	6.505e-08	25.585	0.00072719	0.00075935	0.00020812	1130.1	8.0742e-06	8.1891e-06	1228.4	239.18	8.1084e-06	8.2137e-06	303.45	83.002	66.073	19.412	8.5062e-06	27.094	354.798	228.808	315.217	174.069	252.048	377.757	174.297	181.618	307.841	321.678	181.186	187.929	188.445	196.006	446.040	195.579	-8191	255	
29003.180	1	1	0	0	0.16236	0.13131	0.12489	0.15124	0.14048	0.038881	0.23496	0.23676	0.077482	0.1767	0.12664	0.09095	0.19956	0.019785	0.054664	0.2897	-3.7479	-4.7625	-3.8	-4.5167	-4.6813	-3.9208	-4.8708	-4.375	-3.9146	-4.9125	-4.0833	-4.4167	-4.8792	-3.9083	-4.525	-4.5792	315.997	424.116	194.035	467.464	416.690	188.470	377.275	469.507	300.419	401.025	482.267	174.075	269.499	325.444	478.506	469.176	0.00063326	0.00025363	7.8552e-05	1131.6	8.0888e-06	5.0744e-06	1227.9	236.22	1.029e-05	1.6975e-06	298.36	81.475	63.833	18.365	3.5037e-06	25.751	0.00076541	0.00079659	0.00021978	1131.7	8.4035e-06	8.4223e-06	1228.7	238.7	7.7516e-06	7.6067e-06	302.15	82.646	65.254	19.175	6.5106e-06	26.797	346.837	237.268	297.524	174.235	331.601	206.430	173.966	181.712	337.485	269.179	181.373	187.719	188.406	195.648	236.219	195.458	-8191	255	
29003.275	1	1	0	0	0.15979	0.17186	0.19068	0.17407	0.21239	0.14127	0.12911	0.28371	0.19147	0.099521	0.10593	0.092761	0.13647	0.10147	0.29163	0.0761	-3.7625	-4.8792	-3.9646	-4.2	-4.6771	-3.9604	-4.8375	-4.4563	-3.9583	-4.9979	-4.1375	-4.0833	-4.9563	-3.8187	-4.5354	-4.6125	314.584	223.641	471.088	445.985	363.211	364.876	485.182	437.353	351.897	447.862	330.141	169.668	512.286	397.798	356.151	301.809	0.00064986	0.00028826	7.1803e-05	1128.9	2.5164e-06	5.1731e-06	1227.6	235.73	5.18e-06	1.8293e-06	294.8	80.907	63.521	18.425	3.3551e-06	25.439	0.00057017	0.00056826	0.00015497	1124.3	5.8693e-06	5.9061e-06	1219.4	236.08	5.7365e-06	5.7775e-06	299.01	82.025	64.761	19.066	5.9453e-06	26.67	352.308	287.311	391.330	174.212	250.943	329.006	174.096	181.977	325.427	265.517	181.399	187.930	188.395	195.881	272.089	195.416	-8191	255	
29003.348	1	1	0	0	0.097645	0.19947	0.09915	0.12917	0.13255	0.14351	0.18396	0.12854	0.1476	0.081789	0.25675	0.060179	0.17407	0.23886	0.13399	0.071321	-3.6083	-4.7542	-4.3021	-4.2667	-4.8958	-4.0458	-4.6562	-4.7812	-3.9688	-4.9167	-4.3229	-4.1521	-4.95	-4.0375	-4.3021	-4.7771	373.873	491.602	261.383	471.484	482.985	423.101	497.806	516.200	376.862	204.124	477.680	221.948	257.042	423.382	180.095	431.150	0.00064866	0.00067284	0.00011037	1125.3	3.1965e-06	2.4112e-06	1220.9	235.75	1.0435e-06	2.7148e-06	296.53	81.52	63.979	18.389	6.4411e-06	25.917	0.00056079	0.00057162	0.0001613	1121.9	6.512e-06	6.736e-06	1218.4	237.51	7.0755e-06	7.2701e-06	301.93	82.935	65.971	19.34	7.5552e-06	27.165	354.798	273.657	224.749	174.119	238.050	465.876	174.070	181.552	194.694	334.569	181.452	187.934	188.329	196.021	356.329	195.708	-8191	255	
29003.469	1	1	0	0	0.16953	0.066924	0.25332	0.013355	0.22977	0.18892	0.12688	0.13016	0.2446	0.092529	0.062051	0.21395	0.14527	0.14248	0.16188	0.152	-3.5021	-4.4917	-4.3021	-4.075	-4.9375	-3.9646	-4.4354	-4.9333	-3.8146	-4.6979	-4.5188	-3.8708	-4.7417	-4.1896	-4.35	-4.8313	499.950	300.826	452.168	306.338	379.136	209.780	500.287	447.315	460.489	203.602	369.539	211.093	221.903	195.168	416.112	204.399	0.00062021	0.00050568	0.0001681	1129.1	7.1352e-06	4.3866e-06	1229.2	239.84	7.5782e-07	2.3797e-06	300.05	81.501	64.539	18.602	5.1687e-06	25.714	0.00067207	0.00068737	0.00018827	1128.9	7.2668e-06	7.3024e-06	1226.8	241.61	6.9364e-06	6.7807e-06	303.98	82.955	66.039	19.45	6.7298e-06	27.033	346.273	252.618	236.079	174.273	281.038	275.569	174.144	181.312	468.256	418.463	180.945	187.903	188.632	196.280	287.155	195.229	-8191	255	
29003.564	1	1	0	0	0.12736	0.23103	0.15068	0.17181	0.12227	0.16849	0.0058816	0.00080794	0.11389	0.098175	0.1994	0.11829	0.16833	0.21226	0.13007	0.22588	-3.6188	-4.5333	-4.45	-4.1729	-4.7229	-4.1333	-4.2729	-4.9458	-3.8896	-4.6042	-4.775	-3.8979	-4.7479	-4.3875	-3.9167	-4.8187	297.539	325.617	305.236	404.449	267.390	294.266	509.794	180.000	423.565	229.055	251.438	216.772	500.739	510.944	297.646	461.724	0.00058091	0.00049675	7.4538e-05	1130.6	5.7005e-06	4.2753e-06	1232.2	243.3	1.0614e-05	4.6937e-06	304.76	82.382	65.551	18.918	2.1569e-06	26.45	0.00062858	0.00064977	0.00018824	1130.9	7.6186e-06	8.027e-06	1230	244.39	8.6954e-06	8.8349e-06	309.55	84.59	67.546	19.999	9.6779e-06	27.847	351.826	238.262	285.486	174.292	300.962	345.026	173.914	181.708	339.332	349.266	181.372	187.953	188.384	195.393	208.140	194.926	-8191	255	
29003.660	1	1	0	0	0.13688	0.19531	0.062521	0.24715	0.048221	0.27763	0.29219	0.057664	0.18783	0.24635	0.23582	0.22958	0.16624	0.077067	0.14486	0.14191	-3.6458	-4.3833	-4.6646	-4.1188	-4.7792	-4.4271	-4.2562	-4.9979	-4.0708	-4.3	-4.725	-3.9542	-4.7771	-4.4021	-3.9833	-4.9021	191.930	332.774	202.651	483.342	509.554	268.662	501.298	437.132	515.978	365.193	489.039	522.517	242.840	218.208	275.754	425.713	0.00072968	0.00010291	0.0001632	1139.6	3.0822e-06	1.6099e-06	1240.1	246.65	4.7151e-06	2.7041e-06	307.01	83.235	65.913	19.21	1.2364e-05	26.226	0.00087699	0.0009143	0.00025476	1141.5	9.9288e-06	1.0074e-05	1243.9	249.41	9.8888e-06	1.0014e-05	313.06	85.691	68.452	20.304	9.8087e-06	28.152	352.000	256.783	252.575	174.239	329.311	455.697	174.000	181.357	300.611	307.486	181.561	187.793	188.117	195.727	343.458	194.468	-8191	255	
29003.781	1	1	0	0	0.11124	0.11643	0.16234	0.25735	0.074867	0.059944	0.27218	0.18905	0.24417	0.11699	0.045941	0.15248	0.10931	0.29038	0.23221	0.16224	-3.6813	-4.2646	-4.5312	-4.0958	-4.6521	-4.5854	-4.0437	-4.95	-4.0667	-4.1625	-4.9563	-3.9146	-4.6229	-4.4187	-3.9417	-5.0042	430.564	477.812	323.402	416.568	398.731	387.887	426.341	483.512	419.387	501.562	299.118	282.386	202.092	203.159	199.220	401.534	0.00080231	0.00022654	0.00011573	1147.5	2.6072e-06	2.021e-06	1248.6	248.51	9.954e-06	4.1325e-06	307.58	84.284	66.789	19.344	6.7616e-06	26.828	0.00087225	0.00090211	0.00024968	1147.9	9.7083e-06	9.8978e-06	1247.5	250.96	9.4757e-06	9.3756e-06	314.53	86.506	68.768	20.377	8.5598e-06	28.116	352.240	175.432	352.660	174.258	258.478	275.487	173.938	181.449	329.399	286.515	181.289	187.637	187.996	195.308	287.269	194.330	-8191	255	
29003.877	1	1	0	0	0.15373	0.25666	0.045764	0.12311	0.075581	0.17773	0.27689	0.057192	0.042313	0.073415	0.30892	0.10237	0.2971	0.22097	0.088047	0.074627	-3.7917	-4.4396	-4.8583	-3.9437	-4.4375	-4.6271	-4.0417	-4.9292	-4.3063	-4.1188	-4.9771	-4.0062	-4.5229	-4.8167	-3.8271	-4.7792	237.494	369.139	398.568	386.733	358.183	459.721	487.114	442.928	212.569	328.679	198.687	266.138	261.858	271.874	338.186	277.839	0.00079442	0.0002166	8.0322e-05	1143.3	9.8882e-06	2.3239e-06	1249.2	246.47	8.2163e-06	3.0972e-06	307.27	83.5	66.648	19.554	6.1784e-06	26.648	0.00074204	0.00074642	0.000215	1145.9	8.2259e-06	8.3818e-06	1246.7	249.39	8.5897e-06	8.8965e-06	313.33	86.253	68.767	20.616	9.967e-06	28.399	339.135	209.685	295.375	174.500	269.744	331.894	174.047	181.108	319.742	209.092	181.225	187.852	187.963	195.681	216.278	194.494	-8191	255	
29003.973	1	1	0	0	0.29008	0.19175	0.22197	0.105	0.11261	0.13275	0.22125	0.23229	0.17799	0.097216	0.10399	0.1654	0.12862	0.089518	0.10289	0.29107	-4.0583	-3.9604	-4.8979	-4.2396	-4.4729	-4.8354	-4.0292	-4.9479	-4.3688	-3.8937	-4.8979	-4.1813	-4.2208	-4.9083	-4.0083	-4.6312	347.042	500.648	446.695	184.884	174.573	465.264	492.593	374.534	514.672	325.337	494.287	417.993	473.443	277.004	244.566	215.164	0.00069708	0.0005526	4.8515e-05	1148.9	7.1945e-06	8.6044e-06	1252.4	247.96	1.121e-05	8.7195e-06	309.93	84.459	67.283	19.522	3.5383e-06	26.885	0.00091353	0.00096996	0.00026903	1150.5	1.0682e-05	1.0687e-05	1253.5	252.13	1.0283e-05	1.0294e-05	315.72	86.938	69.207	20.606	9.3409e-06	28.356	344.473	307.171	517.784	174.253	268.655	409.625	173.945	181.347	331.670	277.891	181.632	187.843	188.137	195.146	189.323	194.326	-8191	255	
29004.043	1	1	0	0	0.23743	0.18126	0.26166	0.15471	0.13233	0.040463	0.13799	0.39035	0.17251	0.38925	0.10119	0.19913	0.048469	0.11457	0.10918	0.17861	-4.1896	-3.9208	-4.9229	-4.1354	-4.1021	-4.8	-3.9896	-4.5896	-4.4792	-3.875	-5.0479	-4.2562	-4.1438	-4.8208	-3.9396	-4.5062	419.620	176.353	380.235	496.622	163.684	169.711	456.209	446.832	373.080	233.101	428.558	475.211	400.872	364.821	167.137	490.195	0.000686	0.00051234	0.00013304	1151.4	6.2904e-06	2.7844e-06	1251	248.12	8.5084e-06	2.0905e-06	307.51	84.068	66.68	19.517	7.0176e-06	26.76	0.00080082	0.00082496	0.00022682	1152.5	8.9612e-06	9.2752e-06	1250.9	251.8	9.2842e-06	9.662e-06	315.14	86.626	69.105	20.605	9.5395e-06	28.388	352.693	402.891	200.521	174.439	335.874	507.744	173.972	181.379	312.232	267.686	181.110	187.740	187.849	195.102	385.342	194.495	-8191	255	
29004.164	1	1	0	0	0.26337	0.047756	0.076736	0.24997	0.072633	0.17751	0.08961	0.2308	0.20154	0.1948	0.26447	0.097179	0.18736	0.10734	0.16438	0.10216	-4.2104	-3.8812	-4.7479	-4.3438	-4.1042	-4.8562	-4.1042	-4.5229	-4.7479	-3.95	-4.7708	-4.5708	-3.9479	-4.9667	-3.9708	-4.5167	435.399	442.057	477.723	478.236	254.004	428.036	237.268	429.877	227.037	314.777	394.164	194.915	517.783	278.658	266.235	366.377	0.00072876	0.00013234	5.6161e-05	1146.8	6.0085e-06	8.1668e-06	1247	246.93	8.8294e-06	3.4587e-06	307.01	83.9	66.952	19.506	6.3945e-06	26.639	0.00083486	0.00085314	0.0002322	1150.4	8.9494e-06	8.8955e-06	1246.6	249.64	8.4274e-06	8.4525e-06	312.88	85.97	68.702	20.43	8.3493e-06	28.108	357.630	313.071	324.138	174.365	320.367	328.131	174.126	181.240	287.009	294.909	181.074	187.808	187.843	195.034	242.570	194.863	-8191	255	
29004.260	1	1	0	0	0.076408	0.1777	0.09279	0.21763	0.29162	0.23194	0.10942	0.19873	0.24507	0.21745	0.11874	0.10227	0.07335	0.10066	0.045956	0.083407	-4.5792	-3.8583	-4.5312	-4.6833	-3.9	-4.9313	-4.3146	-4.2604	-4.7396	-3.8812	-4.7188	-4.6292	-3.8083	-4.9563	-4.2333	-4.2958	288.495	402.983	380.283	515.544	296.740	304.414	172.899	485.893	342.682	458.429	302.530	241.161	223.685	296.016	482.634	366.098	0.00065073	0.00011782	6.2762e-05	1147.6	2.5234e-06	1.4617e-06	1250.9	247.85	2.7194e-06	4.3364e-06	309.81	84.543	66.724	19.486	8.9771e-06	26.803	0.00072704	0.00076441	0.00021176	1149.7	8.182e-06	8.1474e-06	1250.6	250.08	7.9652e-06	7.9165e-06	314.17	86.157	68.54	20.4	7.6787e-06	28.054	345.765	515.907	249.101	174.457	173.709	204.431	174.027	181.450	314.787	342.918	181.351	188.003	188.222	195.234	309.847	194.639	-8191	255	
29004.355	1	1	0	0	0.13478	0.1361	0.096545	0.26714	0.043093	0.23441	0.15379	0.10652	0.099644	0.042564	0.11723	0.3353	0.17177	0.056426	0.088859	0.24933	-4.5771	-3.8979	-4.6312	-4.6813	-3.9229	-4.8646	-4.2937	-4.2146	-4.9354	-4.0833	-4.625	-4.7458	-3.8271	-4.8167	-4.2375	-4.2417	260.782	429.251	364.811	442.997	175.740	521.734	398.269	406.699	509.967	448.106	460.734	444.776	251.201	273.865	386.656	523.058	0.00077536	0.00039413	5.154e-05	1149.9	1.2962e-07	4.2569e-06	1245.9	247.32	4.142e-06	3.3081e-06	308.84	84.63	66.645	19.394	9.6686e-06	26.764	0.00066211	0.00068722	0.00019103	1149.6	7.6034e-06	7.4639e-06	1247.5	249.67	7.5467e-06	7.5887e-06	313.17	86.282	68.341	20.303	7.5341e-06	28.026	334.310	318.085	294.197	174.437	351.776	389.417	174.238	181.349	512.136	321.532	181.200	187.981	187.849	195.292	315.488	194.701	-8191	255	
29004.453	1	1	0	0	0.17413	0.10842	0.13213	0.20347	0.20657	0.17005	0.18388	0.23918	0.17465	0.10942	0.025701	0.075299	0.092428	0.093333	0.25242	0.10217	-4.7604	-4.0167	-4.3146	-4.9292	-3.9792	-4.6021	-4.5625	-4.2167	-4.7	-3.9708	-4.3667	-4.7063	-3.9083	-4.7937	-4.575	-4.0771	479.231	510.600	270.794	422.061	402.970	366.274	482.087	347.119	187.365	406.039	184.813	242.388	310.658	257.415	293.586	170.946	0.00083091	0.00041698	0.00013077	1149.1	6.4891e-06	6.8182e-06	1250.9	247.72	2.0834e-06	8.5005e-06	308.62	84.887	66.587	19.332	1.5125e-06	26.507	0.00066851	0.00069829	0.00018951	1147.4	7.2763e-06	7.2882e-06	1247.9	249.24	7.0767e-06	7.1357e-06	313.03	85.834	68.102	20.232	6.8706e-06	27.901	351.344	260.110	320.963	174.453	279.834	303.935	174.274	181.043	389.472	336.864	181.444	187.805	188.245	195.518	339.494	194.774	-8191	255	
29004.572	1	1	0	0	0.073668	0.1402	0.21515	0.17116	0.11883	0.13187	0.20293	0.14913	0.083273	0.092133	0.071274	0.17014	0.21535	0.10441	0.03384	0.15672	-4.5396	-4.1708	-4.1208	-5.0813	-3.9708	-4.4917	-4.7562	-4.0188	-4.7937	-4.2458	-4.175	-4.7958	-3.9	-4.3646	-4.5625	-3.775	293.429	196.919	271.097	188.473	295.219	460.776	473.612	427.556	409.622	168.224	326.736	187.202	273.543	238.800	368.220	390.974	0.00075534	0.00025056	0.0001201	1146.7	9.8839e-06	1.9689e-06	1244.6	247.42	1.7865e-06	6.2617e-06	307.24	83.833	66.534	19.393	5.6776e-06	26.709	0.00061268	0.00063702	0.00017927	1144.2	7.0812e-06	7.1332e-06	1244.2	248.87	7.3106e-06	7.6155e-06	312.06	85.573	68.191	20.348	7.9961e-06	28.049	356.319	276.388	297.052	174.254	304.040	321.176	174.178	181.505	297.264	226.061	181.280	188.154	188.609	194.847	252.234	194.633	-8191	255	
29004.645	1	1	0	0	0.20838	0.11427	0.26151	0.015149	0.20301	0.20662	0.16872	0.36647	0.27058	0.1655	0.28204	0.10765	0.21677	0.19385	0.080399	0.19117	-4.5104	-4.2917	-4.1542	-4.9625	-4.0062	-4.4292	-4.9542	-3.9708	-4.5958	-4.5188	-4.0646	-4.9688	-4.1438	-4.425	-4.5979	-4.1271	443.415	245.572	246.367	205.197	206.820	300.627	465.676	379.582	308.713	335.098	174.824	260.828	458.249	269.622	462.625	165.307	0.000745	0.00026057	0.00019007	1145.3	1.9064e-06	4.1804e-06	1247.4	247.71	4.2068e-06	4.1808e-06	309.02	83.611	66.554	19.282	7.049e-06	26.466	0.00071005	0.00073024	0.00020151	1144.7	7.7153e-06	7.8618e-06	1243.8	249.12	7.709e-06	7.6371e-06	312.28	85.396	68.075	20.133	7.3206e-06	27.768	347.348	264.571	256.473	174.220	340.102	210.014	174.015	181.267	372.684	289.569	181.630	188.008	188.224	195.465	288.001	195.088	-8191	255	
29004.740	1	1	0	0	0.12374	0.17523	0.30361	0.27839	0.030431	0.10825	0.098854	0.2325	0.10221	0.14125	0.21869	0.064787	0.076561	0.11296	0.11022	0.047174	-4.5292	-4.5125	-4.0437	-5.1792	-3.9583	-4.2896	-4.8083	-3.8542	-4.6375	-4.4563	-4.0375	-4.8417	-4.225	-4.2479	-4.8583	-3.9292	208.170	373.911	243.765	470.400	269.480	421.954	273.966	461.365	420.266	268.704	449.114	487.991	401.266	249.457	316.347	339.716	0.00078399	0.00057959	0.00017028	1146.7	1.2885e-05	7.1333e-06	1241.7	244.83	8.0763e-06	2.011e-06	305.35	83.349	65.898	19.072	7.0983e-06	26.365	0.00063853	0.00065572	0.00018374	1142.4	7.0851e-06	7.0527e-06	1240.2	246.45	6.8734e-06	6.887e-06	309.84	85.012	67.376	19.931	6.6599e-06	27.643	350.366	189.955	265.249	174.231	297.503	338.229	174.120	181.548	332.965	191.588	181.182	188.046	188.342	195.330	279.707	194.387	-8191	255	
29004.861	1	1	0	0	0.17765	0.15476	0.015926	0.081342	0.17848	0.10229	0.1917	0.11175	0.057114	0.15869	0.12416	0.048292	0.12791	0.12032	0.12965	0.14378	-4.3271	-4.525	-3.8542	-4.8438	-4.3354	-4.0563	-5.0146	-4.1792	-4.3375	-4.5563	-4.0375	-4.675	-4.4146	-4.1792	-4.8479	-4.0125	230.211	224.254	251.001	447.529	409.552	420.768	471.671	465.359	241.677	516.689	452.551	174.676	199.005	506.962	335.974	304.483	0.00069174	0.00049737	4.4305e-05	1140.8	7.2376e-06	3.7672e-06	1242.7	243.63	8.2904e-06	2.0207e-06	302.07	83.053	65.931	19.227	4.5294e-06	26.222	0.00059236	0.0006138	0.00016766	1137	6.6401e-06	6.6545e-06	1237.4	246.06	6.5505e-06	6.4573e-06	307.99	84.434	67.053	19.843	6.328e-06	27.476	349.403	281.765	442.984	174.142	338.767	281.161	174.178	181.597	333.732	383.931	181.158	188.139	188.371	195.357	215.603	194.726	-8191	255	
29004.955	1	1	0	0	0.082765	0.032109	0.20445	0.23933	0.16827	0.20586	0.1739	0.079779	0.15844	0.090245	0.28701	0.21725	0.23834	0.10817	0.10462	0.15074	-4.0563	-4.8104	-3.8417	-4.9354	-4.2021	-4.1813	-5.0271	-4.2125	-4.2729	-4.8938	-3.8771	-4.7562	-4.5708	-3.9562	-4.8875	-4.2146	362.577	384.942	418.722	498.006	199.754	310.936	175.161	262.232	302.952	240.095	216.990	226.812	199.486	469.712	230.026	240.733	0.00072525	0.00025889	8.3782e-05	1139.9	6.1181e-06	6.325e-06	1241.7	244.7	6.3946e-06	3.7219e-06	304.36	82.376	65.63	19.03	6.9229e-06	26.268	0.00057116	0.00057921	0.00016563	1136.9	6.4375e-06	6.5035e-06	1236	245.72	6.1612e-06	6.1514e-06	308.12	84.131	66.737	19.692	5.9374e-06	27.383	347.659	285.776	248.756	174.237	325.003	332.467	174.156	181.843	334.850	323.225	181.294	188.126	188.395	195.524	249.796	194.601	-8191	255	
29005.053	1	1	0	0	0.18306	0.20032	0.1654	0.077519	0.18519	0.22383	0.17622	0.10895	0.087827	0.04919	0.23323	0.1988	0.08945	0.11944	0.11321	0.12578	-3.9729	-4.9104	-3.925	-4.7708	-4.6062	-3.9417	-4.9042	-4.3417	-4.0833	-4.825	-4.0333	-4.6792	-4.775	-3.9688	-4.8708	-4.3917	270.450	292.982	402.971	203.047	193.017	247.950	459.488	470.679	444.262	165.268	418.657	363.840	500.146	240.088	227.911	350.799	0.00076663	0.00012537	4.1961e-05	1139.1	2.3317e-06	3.9832e-06	1232.4	243.17	5.6812e-06	3.7686e-06	305.61	82.94	65.278	18.889	8.5343e-06	26.191	0.00053642	0.0005395	0.00015035	1135.5	5.8764e-06	5.8514e-06	1230.8	244.25	5.8733e-06	5.6314e-06	307.75	84.112	66.67	19.695	5.6595e-06	27.313	358.921	462.168	255.019	174.261	469.010	347.263	174.240	181.770	284.308	339.284	181.304	187.781	188.372	195.829	323.836	194.937	-8191	255	
29005.148	1	1	0	0	0.11659	0.022207	0.087632	0.31191	0.1842	0.22344	0.15405	0.077289	0.097922	0.036955	0.13812	0.21229	0.11622	0.10136	0.060956	0.16133	-3.8104	-4.7896	-3.9104	-4.5687	-4.6562	-3.8	-5.0062	-4.5479	-4.1687	-4.9333	-4.1208	-4.4792	-4.8104	-4.0458	-4.6625	-4.6771	481.495	481.633	397.814	466.749	468.517	477.111	497.248	201.779	213.874	370.531	497.051	401.265	476.520	340.152	484.443	176.591	0.00074783	0.00055738	0.00019465	1134.6	1.4435e-06	1.0562e-06	1234.3	243.07	5.3013e-06	1.7371e-06	304.09	83.616	65.489	18.946	5.666e-07	26.342	0.00052058	0.00052207	0.00014667	1132.3	5.7045e-06	5.6762e-06	1228.9	244.43	5.7252e-06	5.7068e-06	306.74	84.236	66.646	19.67	5.6877e-06	27.33	360.443	286.423	246.600	174.119	354.242	261.675	174.267	181.478	279.015	424.840	181.380	187.753	188.818	195.700	268.597	195.105	-8191	255	
29005.270	1	1	0	0	0.098525	0.084754	0.21406	0.18851	0.1242	0.21502	0.0053782	0.034752	0.18626	0.13113	0.37163	0.089805	0.13523	0.14201	0.089648	0.036052	-3.5229	-4.7625	-4.0938	-4.2521	-4.7937	-3.8854	-4.7583	-4.5417	-3.9625	-4.9271	-4.15	-4.2979	-4.8396	-3.8063	-4.5146	-4.6375	230.102	187.276	480.005	473.978	494.525	492.586	301.936	417.665	466.193	335.944	169.640	384.264	493.880	467.306	325.327	311.535	0.0008252	0.00037005	6.7719e-05	1136.8	2.5608e-06	2.6718e-06	1234.6	243.22	6.9959e-06	5.3866e-06	302.8	83.392	65.287	18.916	4.4751e-06	26.055	0.00052802	0.00052234	0.00014818	1131.7	5.6886e-06	5.8445e-06	1231.5	244.3	5.6516e-06	5.5963e-06	306.83	84.129	66.406	19.623	5.3966e-06	27.162	351.587	247.920	219.014	174.061	354.671	400.334	174.079	181.483	270.161	221.234	181.362	187.725	188.280	195.030	340.817	194.895	-8191	255	
29005.342	1	1	0	0	0.057557	0.1822	0.15434	0.16138	0.091942	0.16873	0.22936	0.046675	0.16356	0.26301	0.20125	0.22097	0.39991	0.078591	0.15908	0.23324	-3.5312	-4.9313	-4.2229	-4.1083	-4.8396	-3.9437	-4.6083	-4.8208	-3.8083	-4.7396	-4.2771	-4.05	-4.9437	-4.0292	-4.3438	-4.7521	497.954	469.253	407.487	260.749	321.200	455.877	393.310	176.529	163.941	204.789	365.891	488.054	257.794	254.893	273.849	409.932	0.00076404	0.00015073	6.3315e-05	1130.7	4.326e-06	8.2055e-06	1235.3	243.25	5.0781e-06	3.7489e-06	302.16	82.628	64.967	18.829	7.6853e-06	26.292	0.00048712	0.0004752	0.00013237	1129.1	5.1184e-06	5.1262e-06	1228.6	243.91	5.0225e-06	4.9753e-06	305.16	83.437	66.213	19.429	4.9566e-06	27.069	352.547	266.445	296.059	174.300	286.963	343.161	174.094	181.484	336.972	339.506	181.177	187.658	188.390	195.768	349.400	194.908	-8191	255	
29005.461	1	1	0	0	0.15809	0.11824	0.11121	0.32596	0.026113	0.14305	0.18345	0.15492	0.21263	0.15669	0.084481	0.29916	0.074788	0.069802	0.14404	0.18798	-3.5625	-4.7937	-4.3104	-4.15	-4.7833	-3.9458	-4.4792	-4.8021	-3.9313	-4.6854	-4.5687	-3.925	-4.875	-4.1521	-4.1562	-4.7604	511.090	430.343	445.252	518.603	523.005	223.914	433.005	503.078	479.532	439.039	416.428	452.879	351.060	457.082	249.248	507.582	0.00066458	0.0001255	0.00013453	1129.9	8.7323e-06	6.2687e-06	1229.3	242.47	3.7265e-06	2.9635e-06	302.88	82.69	64.799	19.012	7.6632e-06	26.182	0.00045511	0.00044023	0.00012542	1124.8	5.0561e-06	5.0811e-06	1224.3	243.44	5.3301e-06	5.2071e-06	305.63	83.666	66.027	19.629	5.405e-06	27.153	338.874	176.478	318.062	174.419	264.057	341.200	174.031	181.760	300.832	374.229	181.295	187.596	188.334	195.508	380.753	194.540	-8191	255	
29005.557	1	1	0	0	0.24431	0.13535	0.033491	0.20638	0.069716	0.26507	0.35268	0.2312	0.14748	0.19405	0.080066	0.26227	0.080005	0.22329	0.025821	0.12728	-3.5542	-4.5729	-4.5292	-3.9833	-4.8208	-4.1687	-4.275	-4.9563	-3.8396	-4.4563	-4.8187	-3.8042	-4.7937	-4.3917	-4.1062	-4.7937	492.717	247.050	415.130	487.539	223.630	344.477	489.384	521.849	503.001	283.857	381.884	397.623	233.437	501.076	483.806	459.829	0.00068374	0.00033019	8.6042e-05	1132.2	3.4411e-06	4.4708e-06	1233.7	244.09	1.1992e-05	5.4076e-06	303.35	82.675	65.574	19.043	3.6654e-06	26.183	0.00050586	0.00050158	0.00014261	1129.1	5.5922e-06	5.6311e-06	1230.5	244.18	5.4936e-06	5.5195e-06	306.25	83.801	66.521	19.678	5.3674e-06	27.198	349.830	245.034	264.706	174.401	335.833	358.496	174.076	181.686	342.094	304.096	181.169	187.928	188.460	195.272	300.098	194.616	-8191	255	
29005.654	1	1	0	0	0.21413	0.21532	0.30373	0.25709	0.066021	0.22806	0.19239	0.14523	0.19243	0.094305	0.095689	0.041815	0.14623	0.17297	0.21689	0.12342	-3.6729	-4.3958	-4.6792	-3.9542	-4.6729	-4.4646	-4.0729	-4.8521	-3.9708	-4.2417	-4.7521	-3.9938	-4.7521	-4.5771	-3.8583	-4.9542	435.792	411.287	340.099	518.275	273.768	231.568	470.538	482.210	271.596	384.988	216.272	322.623	217.483	374.981	510.409	507.156	0.00069355	0.00055323	5.5213e-05	1131	3.0575e-06	2.4497e-06	1232.1	242.65	1.2356e-05	3.7298e-06	303.78	82.771	65.251	18.866	3.2423e-06	26.221	0.00048193	0.00048536	0.00013464	1129.4	5.2662e-06	5.2764e-06	1228.7	244.39	5.3525e-06	5.2853e-06	306.49	83.885	66.471	19.616	5.4566e-06	27.218	349.769	243.743	253.769	174.314	278.978	199.657	173.990	181.396	335.187	300.310	181.402	187.911	188.261	196.282	281.409	195.323	-8191	255	
29005.748	1	1	0	0	0.30484	0.27394	0.20818	0.41213	0.14234	0.13921	0.15486	0.27219	0.22654	0.19617	0.18581	0.23091	0.20849	0.18813	0.18632	0.17354	-3.7667	-4.1875	-4.8396	-3.9521	-4.6062	-4.5563	-4.1083	-4.9187	-4.075	-4.2063	-4.8375	-4.0062	-4.3521	-4.7063	-3.8167	-4.8708	258.475	247.647	286.879	463.886	458.196	416.769	186.702	448.952	479.302	378.061	493.166	462.008	514.147	370.782	260.806	202.341	0.00063163	0.00042143	7.0347e-05	1130.3	1.8054e-06	1.1559e-06	1237.4	242.71	1.1454e-05	5.1631e-06	305.82	82.727	65.589	19.052	1.7403e-06	26.377	0.00051088	0.00052291	0.00014236	1130	5.6682e-06	5.8128e-06	1232.1	244.59	5.8976e-06	5.8537e-06	307.89	84.182	66.791	19.703	5.7638e-06	27.385	357.160	252.971	200.300	174.170	230.033	293.576	174.135	181.737	293.149	326.085	181.240	187.652	187.981	195.619	274.331	194.817	-8191	255	
29005.844	1	1	0	0	0.078695	0.040177	0.18041	0.21497	0.11535	0.305	0.082488	0.25342	0.14945	0.15536	0.29482	0.032339	0.10441	0.31812	0.13293	0.27294	-3.8937	-4.1042	-4.7479	-4.1396	-4.3583	-4.675	-3.9188	-4.8167	-4.2917	-4.1021	-4.8792	-4.0083	-4.4417	-4.6792	-3.7958	-4.7708	382.957	247.293	469.794	449.939	299.262	384.329	482.719	513.409	188.573	413.363	452.235	430.926	438.313	465.028	441.302	265.920	0.0006788	0.00039226	6.1138e-05	1137.6	3.7549e-06	3.834e-06	1237.3	244.44	7.1542e-06	3.1531e-06	304.8	82.39	65.98	19.069	3.6073e-06	26.265	0.00052662	0.00052383	0.00014714	1132.9	5.7951e-06	5.7473e-06	1233.1	245.19	5.7881e-06	5.958e-06	307.2	83.953	66.932	19.736	5.9748e-06	27.344	343.140	246.868	270.652	174.402	287.378	435.975	173.993	181.201	295.622	254.487	181.451	187.888	188.152	195.755	294.261	195.183	-8191	255	
29005.939	1	1	0	0	0.28164	0.079317	0.12924	0.081537	0.075923	0.15337	0.31019	0.26933	0.028494	0.10041	0.16825	0.057889	0.048234	0.19281	0.23343	0.14582	-4.0625	-4.1229	-4.8313	-4.3021	-4.2354	-4.7667	-3.9854	-4.8167	-4.6333	-3.9813	-4.8792	-4.3021	-4.2271	-4.9083	-3.9188	-4.6021	180.500	166.924	301.602	379.835	493.371	268.804	439.906	470.985	237.621	305.496	181.786	380.227	489.421	515.302	212.704	225.219	0.00069008	0.00035955	2.5494e-05	1133.9	6.2989e-06	2.9651e-06	1237.8	244.8	6.2945e-06	4.4754e-06	304.61	82.464	66.06	19.132	4.8158e-06	26.241	0.00053081	0.00055067	0.00015118	1133.1	6.0294e-06	6.0208e-06	1233.1	245.61	6.0038e-06	6.1004e-06	308.05	84.146	66.954	19.841	6.0704e-06	27.331	343.488	262.865	222.655	174.085	325.263	332.813	174.189	181.200	324.719	397.396	181.199	188.058	188.104	195.639	363.601	194.909	-8191	255	
29006.035	1	1	0	0	0.16822	0.15533	0.15542	0.27084	0.13433	0.092448	0.17496	0.13831	0.23186	0.11624	0.13012	0.21395	0.070598	0.25744	0.11651	0.14258	-4.1813	-3.9292	-4.7354	-4.4458	-4.0583	-4.6854	-3.9688	-4.5646	-4.6979	-3.9292	-4.8729	-4.3729	-4.0687	-4.7562	-3.9354	-4.4583	449.674	305.343	499.964	489.250	508.016	459.203	457.641	443.709	409.293	183.498	163.558	483.265	318.458	176.386	300.024	348.348	0.00070531	0.00020362	5.1239e-05	1137	5.2404e-06	9.7084e-06	1234.2	244.32	2.5833e-06	5.3294e-06	305.02	83.494	65.959	18.995	6.902e-06	26.281	0.00053964	0.00055722	0.00015248	1134.3	6.1729e-06	6.2552e-06	1233.6	245.37	6.3554e-06	6.4291e-06	309.5	84.456	67.198	19.843	6.4843e-06	27.405	346.537	194.903	437.835	174.038	276.566	329.582	174.171	181.470	382.000	302.367	181.186	188.149	188.055	195.812	312.641	194.556	-8191	255	
29006.133	1	1	0	0	0.20213	0.14793	0.095764	0.12772	0.23686	0.15763	0.23686	0.070592	0.15676	0.13152	0.067743	0.18527	0.099716	0.053774	0.17089	0.18862	-4.3833	-3.7604	-4.8604	-4.4917	-3.9375	-4.9833	-4.2292	-4.4062	-4.6729	-3.9417	-4.9187	-4.4833	-3.9417	-4.9083	-3.9333	-4.3792	330.887	476.710	226.155	437.117	472.494	175.419	518.270	508.907	501.760	467.915	337.462	237.996	279.640	507.443	200.163	441.800	0.0008046	0.00039843	0.00014911	1138.6	2.4033e-06	5.0666e-06	1244.1	244.44	2.5795e-06	4.0899e-06	302.33	83.002	65.756	18.868	5.505e-06	26.109	0.00058095	0.00058734	0.00016282	1134.7	6.1386e-06	6.1432e-06	1234.5	245.31	5.9556e-06	5.9299e-06	307.51	83.995	66.61	19.615	5.5031e-06	27.284	358.783	315.473	248.328	174.287	277.840	247.164	174.383	181.320	306.110	327.287	181.323	187.873	188.435	195.574	291.322	195.035	-8191	255	
29006.229	1	1	0	0	0.11149	0.011092	0.05271	0.41719	0.083072	0.097873	0.25939	0.15486	0.2773	0.034901	0.32702	0.18371	0.19282	0.11884	0.080574	0.16873	-4.4771	-3.725	-4.6208	-4.7125	-3.9708	-4.7958	-4.275	-4.3208	-4.8458	-4.0229	-4.7521	-4.7583	-3.8542	-4.9062	-4.0417	-4.0896	456.845	367.687	520.896	481.167	473.617	182.849	488.626	452.468	489.772	327.934	446.797	497.446	453.476	424.612	240.445	460.515	0.00073102	0.00027855	9.055e-05	1134.3	6.086e-06	1.0187e-06	1235.9	243.01	3.4798e-06	4.2956e-06	303.4	83.06	65.606	18.928	2.8617e-06	26.275	0.00048709	0.00048269	0.00013316	1130.3	5.0922e-06	5.1041e-06	1231.5	244.34	5.1759e-06	5.1114e-06	306.33	83.817	66.359	19.62	5.3711e-06	27.175	353.583	300.353	242.528	174.248	335.482	270.060	174.313	181.589	219.126	258.839	181.190	187.840	188.253	195.333	388.175	194.564	-8191	255	
29006.350	1	1	0	0	0.071681	0.12394	0.1509	0.21844	0.20705	0.1344	0.20228	0.079877	0.22269	0.037082	0.23836	0.34094	0.1164	0.17855	0.30413	0.15766	-4.6083	-4.0979	-4.5	-4.7312	-3.9229	-4.9563	-4.4167	-4.3375	-4.9333	-3.9313	-4.4313	-4.6854	-4.2	-4.7146	-4.3771	-4.0312	193.218	329.917	505.251	469.671	271.000	292.752	475.024	510.116	347.314	171.330	222.305	479.425	229.922	481.400	230.345	347.278	0.00073051	0.00048481	0.00010874	1136.8	2.2577e-06	2.1745e-06	1238	244.19	5.0121e-06	7.3116e-06	303.26	82.861	65.514	19.045	4.901e-06	26.075	0.0004797	0.00047997	0.00013197	1131.3	5.3539e-06	5.3492e-06	1231.7	244.32	5.4475e-06	5.4298e-06	306.15	83.728	66.53	19.607	5.7077e-06	27.195	342.468	211.152	250.262	174.290	370.457	247.857	174.165	181.558	279.883	332.000	181.340	187.802	188.265	195.887	347.350	194.352	-8191	255	
29006.445	1	1	0	0	0.055148	0.076241	0.13093	0.18696	0.12639	0.17746	0.18234	0.21594	0.25866	0.056445	0.2612	0.12619	0.03089	0.090464	0.12179	0.25314	-4.6125	-4.0125	-4.2708	-5.0354	-4.0583	-4.8042	-4.5938	-4.0417	-4.9479	-4.1271	-4.2375	-4.7583	-4.0896	-4.8146	-4.5271	-4.0625	441.856	516.701	293.498	498.253	230.311	306.225	464.459	449.022	392.624	219.928	484.954	202.912	333.530	461.586	239.062	222.048	0.00079885	0.00029383	9.5292e-05	1138	7.0329e-06	5.0349e-06	1236.3	243.98	4.056e-06	3.8479e-06	304.17	83.175	65.475	18.88	1.5183e-06	26.189	0.0005186	0.00053029	0.00015106	1132.8	6.0255e-06	6.0884e-06	1232.1	244.56	6.0922e-06	6.1604e-06	306.97	84.174	66.74	19.645	6.0739e-06	27.321	344.448	495.135	272.434	174.261	279.828	359.293	174.180	181.170	372.717	276.451	181.300	187.953	188.197	195.385	344.981	195.126	-8191	255	
29006.543	1	1	0	0	0.21024	0.11689	0.10318	0.25174	0.16064	0.13968	0.29686	0.11433	0.17022	0.23454	0.081895	0.12975	0.097999	0.17001	0.10505	0.18843	-4.6125	-4.1604	-4.0833	-5.0729	-3.8542	-4.5708	-4.8542	-4.0312	-4.6833	-4.0396	-4.1979	-4.9333	-4.0771	-4.4146	-4.7146	-3.9458	388.735	447.594	400.344	476.177	380.748	339.237	441.367	236.605	349.610	407.940	478.381	375.214	347.171	245.512	222.824	252.378	0.00063577	0.00021182	0.00023857	1132.4	3.6283e-06	7.4468e-06	1234.8	243.44	6.9481e-06	1.3815e-06	306	82.877	65.542	18.909	6.1807e-06	26.148	0.00054749	0.00055872	0.00015562	1134.1	5.942e-06	5.9245e-06	1233.6	244.67	6.0894e-06	6.247e-06	308.55	84.3	66.933	19.714	6.1974e-06	27.358	351.654	249.614	253.003	174.404	227.364	302.663	174.105	181.505	329.372	240.352	181.105	188.160	188.069	194.815	331.368	194.894	-8191	255	
29006.639	1	1	0	0	0.37752	0.28842	0.19532	0.21104	0.02235	0.17077	0.34702	0.23701	0.15178	0.21124	0.17926	0.19401	0.08358	0.10308	0.074274	0.046798	-4.4042	-4.2625	-3.9708	-4.9208	-3.9354	-4.2104	-4.7333	-3.9833	-4.7021	-4.2875	-4.0396	-4.875	-4.1792	-4.0938	-4.7833	-3.8479	225.587	247.234	232.787	435.900	164.010	514.260	446.897	447.051	275.670	180.759	335.980	264.906	454.356	484.487	388.890	446.817	0.00067546	0.00024445	2.4888e-05	1136.6	5.257e-06	4.6038e-06	1237.9	243.87	3.9415e-06	1.3989e-06	303.53	82.528	65.608	18.97	6.5395e-06	26.23	0.00054413	0.00056529	0.0001558	1135.3	6.16e-06	6.1652e-06	1233.1	245.28	6.0228e-06	5.932e-06	307.58	84.191	66.799	19.625	5.4587e-06	27.224	348.327	238.031	255.563	174.285	284.071	372.873	174.124	181.544	306.287	390.537	181.369	188.184	187.892	195.445	347.909	194.973	-8191	255	
29006.734	1	1	0	0	0.082109	0.27487	0.18093	0.14879	0.048022	0.024883	0.20296	0.42122	0.039599	0.19998	0.12607	0.0045581	0.050161	0.12045	0.16242	0.12945	-4.3583	-4.4229	-3.9229	-5.0062	-4.0021	-3.9813	-4.9083	-3.9979	-4.6562	-4.5271	-3.9375	-4.8729	-4.3667	-4.0687	-4.8063	-3.9958	373.028	230.112	280.071	448.345	414.417	315.198	449.388	449.133	442.742	327.882	302.566	225.105	504.456	231.500	305.479	453.975	0.00066232	0.00036061	5.2794e-05	1138.9	9.1204e-06	2.7273e-06	1240.7	244.31	4.9742e-06	2.1755e-06	305.21	83.033	65.722	18.953	1.4369e-06	26.297	0.0004905	0.00048375	0.00013721	1134.6	5.3664e-06	5.3819e-06	1232.3	244.83	5.5023e-06	5.6829e-06	307.61	84.156	66.732	19.655	6.0228e-06	27.403	344.760	284.680	495.526	174.140	312.964	289.190	174.190	181.593	380.008	264.962	181.308	187.989	188.501	195.744	205.552	194.974	-8191	255	
29006.830	1	1	0	0	0.044481	0.032478	0.080226	0.25763	0.13362	0.079649	0.2012	0.1466	0.086828	0.12659	0.192	0.04582	0.38204	0.0585	0.13196	0.14682	-4.0896	-4.5333	-3.8667	-4.7604	-4.3271	-4.1292	-5.0167	-3.9688	-4.4417	-4.5542	-3.9146	-4.7104	-4.4458	-3.925	-4.8583	-4.0333	439.233	511.994	310.320	492.017	183.139	518.331	165.201	516.832	390.481	169.240	505.530	442.244	296.154	257.531	167.297	350.872	0.00061536	9.9057e-05	5.0159e-05	1138.1	5.4152e-06	3.4134e-06	1237.3	244.3	1.6029e-06	4.0252e-06	306.02	82.827	65.83	18.988	6.4143e-06	26.313	0.00054996	0.00055874	0.00015905	1136.5	6.3762e-06	6.4348e-06	1235.3	245.33	6.5325e-06	6.6337e-06	308.91	84.593	67.21	19.804	6.7187e-06	27.556	346.824	253.609	218.853	174.216	198.540	318.215	174.093	181.568	327.570	399.992	181.335	188.021	188.226	195.314	338.982	195.245	-8191	255	
29006.949	1	1	0	0	0.097559	0.12127	0.096237	0.088123	0.1225	0.34301	0.14554	0.26018	0.19461	0.10321	0.069427	0.20121	0.26235	0.12466	0.11859	0.11088	-3.925	-4.6896	-3.8312	-4.7917	-4.3417	-3.9646	-4.9313	-4.1833	-4.2479	-4.8229	-3.8542	-4.5687	-4.5167	-3.9521	-4.9896	-4.2479	201.723	460.067	323.809	247.719	376.664	450.469	475.564	411.577	369.285	397.384	314.471	203.053	166.884	183.015	197.342	500.537	0.00063416	0.0003895	9.0754e-05	1141.2	6.3512e-06	2.2704e-06	1241.6	245.91	3.3555e-06	1.0404e-06	305.34	83.503	65.889	18.938	8.4055e-06	26.485	0.00060866	0.00062556	0.00017556	1139.3	6.9088e-06	6.99e-06	1238.7	246.95	6.9517e-06	6.8351e-06	309.2	84.847	67.241	19.799	6.5304e-06	27.444	347.780	211.813	212.918	174.450	240.800	375.807	174.219	181.592	299.976	206.447	181.243	187.660	188.150	195.100	299.077	195.020	-8191	255	
29007.045	1	1	0	0	0.25001	0.216	0.1245	0.28168	0.095189	0.18698	0.18584	0.13968	0.069302	0.13261	0.14861	0.10126	0.10047	0.18554	0.19571	0.022739	-3.8583	-4.9271	-3.9833	-4.7271	-4.6104	-3.9833	-5.0396	-4.5	-4.0833	-5.0271	-4.0813	-4.5917	-4.7479	-3.8958	-4.7688	-4.4146	268.019	221.503	284.786	444.891	434.556	486.674	506.971	434.012	311.230	361.407	267.454	493.444	180.230	327.166	291.564	328.157	0.00073774	0.00014674	0.00021266	1141.6	6.4178e-06	1.9696e-06	1243.2	245.31	6.2539e-06	2.2555e-06	304.57	83.076	65.62	18.972	8.1134e-06	26.124	0.00057715	0.0005791	0.00016099	1137.2	6.2004e-06	6.39e-06	1236	245.46	6.2724e-06	6.3435e-06	308.28	84.403	66.939	19.73	6.3663e-06	27.37	342.745	302.466	235.312	174.349	289.111	455.176	174.167	181.455	321.198	322.136	181.077	187.876	188.508	195.486	309.233	195.060	-8191	255	
29007.141	1	1	0	0	0.10201	0.18708	0.15011	0.18288	0.038863	0.32348	0.075389	0.078872	0.10453	0.13659	0.19008	0.15414	0.10473	0.20304	0.15408	0.093862	-3.6917	-4.9042	-3.9562	-4.5583	-4.7042	-3.8771	-4.8979	-4.4292	-4.0375	-5.0396	-4.1396	-4.2958	-4.7125	-3.9146	-4.5479	-4.5083	465.789	505.778	449.269	496.900	427.927	454.690	408.691	488.592	514.241	316.236	432.862	470.039	291.455	276.726	295.116	375.959	0.00065134	0.0001951	0.00016096	1144.5	4.7928e-06	2.5018e-06	1244.2	244.87	1.0434e-05	6.6694e-06	305.92	83.526	65.469	18.911	7.07e-06	26.3	0.00057796	0.00059403	0.00016289	1138.7	6.339e-06	6.3332e-06	1238.9	245.81	6.1503e-06	6.0362e-06	308.9	84.327	66.833	19.665	5.5454e-06	27.269	337.689	217.773	272.450	174.294	289.217	234.631	174.158	181.229	326.159	283.932	181.528	187.844	188.251	195.535	300.987	195.034	-8191	255	
29007.236	1	1	0	0	0.13813	0.023463	0.16027	0.34288	0.27685	0.26238	0.1122	0.19488	0.21061	0.10599	0.26942	0.031216	0.064956	0.14833	0.075915	0.080949	-3.6042	-4.85	-4.0583	-4.3562	-4.6646	-4.0104	-4.7292	-4.6583	-3.9875	-4.9792	-4.1646	-4.2604	-4.8938	-4.0479	-4.4521	-4.65	316.201	348.274	518.212	485.441	450.959	516.169	464.610	484.337	340.344	198.382	516.282	473.928	235.097	517.572	418.268	310.222	0.00079318	9.0626e-05	0.00014993	1139.9	5.1706e-06	7.3703e-06	1237.6	244.13	6.1366e-06	3.6991e-06	304.85	83.093	65.94	18.851	4.1604e-06	26.024	0.00050484	0.00050242	0.00013753	1134.4	5.217e-06	5.2414e-06	1233.6	244.59	5.041e-06	4.9616e-06	307.12	83.994	66.345	19.474	4.7537e-06	27.049	356.470	416.332	252.583	174.144	339.024	368.505	173.978	181.822	260.473	365.506	181.266	187.725	188.301	195.699	310.000	195.083	-8191	255	
29007.334	1	1	0	0	0.095742	0.21028	0.093833	0.17866	0.2452	0.30427	0.32511	0.15151	0.17494	0.14445	0.085047	0.11371	0.084239	0.17369	0.23347	0.060309	-3.4646	-4.8833	-4.2458	-4.2375	-4.9021	-3.9562	-4.5312	-4.7042	-3.9167	-4.7375	-4.4979	-3.9562	-4.9187	-4.0208	-4.3833	-4.8313	324.478	198.284	481.732	456.436	180.806	181.200	459.500	221.331	333.287	384.570	455.668	497.443	421.291	396.025	462.334	363.962	0.00071256	0.00044339	8.3887e-05	1139.6	6.0498e-06	5.3934e-06	1238.4	242.7	3.1522e-06	4.282e-06	304.37	83.026	65.048	18.829	4.0613e-06	26.027	0.00043058	0.00042579	0.00011981	1133.4	4.7262e-06	4.7725e-06	1231.9	244.16	4.6684e-06	4.7559e-06	306.39	83.548	66.189	19.478	4.8513e-06	27.03	353.427	299.276	276.373	173.932	290.737	358.806	174.282	181.433	333.151	261.758	181.305	187.816	188.600	195.913	366.453	195.057	-8191	255	
29007.430	1	1	0	0	0.061012	0.11782	0.12268	0.39248	0.060863	0.31404	0.16121	0.22789	0.27961	0.079409	0.09041	0.14814	0.19023	0.093224	0.149	0.24267	-3.6146	-4.6875	-4.3917	-4.2125	-4.9104	-4.0979	-4.4229	-4.8292	-3.8708	-4.6333	-4.5979	-3.775	-4.8021	-4.1438	-4.2	-4.8917	174.544	283.889	366.003	507.689	433.255	367.613	397.664	445.163	523.331	228.300	408.016	521.811	168.588	443.918	228.755	495.528	0.00065862	0.0003121	8.4455e-05	1131.4	1.6112e-06	6.0541e-06	1237.7	243.9	7.0785e-06	1.0867e-06	303.86	82.712	65.701	18.832	4.2347e-06	26.158	0.00045972	0.00045941	0.00012527	1129.4	5.0808e-06	5.152e-06	1229.2	244.24	5.365e-06	5.1269e-06	307.08	83.763	66.516	19.468	4.9006e-06	27.024	342.711	248.124	241.813	174.081	262.584	381.680	174.198	181.634	331.055	327.931	181.512	187.652	188.204	195.229	345.267	194.802	-8191	255	
29007.525	1	1	0	0	0.040888	0.29827	0.18385	0.19116	0.11353	0.22436	0.15289	0.12157	0.14112	0.083498	0.28859	0.10961	0.097397	0.13319	0.22395	0.15178	-3.6771	-4.4313	-4.5333	-4.0687	-4.7292	-4.2292	-4.2562	-4.9521	-3.8042	-4.3917	-4.6875	-4.1042	-4.7667	-4.3708	-4.0292	-4.8354	376.885	229.037	287.895	163.541	494.662	382.982	429.035	215.913	203.198	389.185	426.111	425.171	206.777	223.143	235.957	242.365	0.00062284	0.00026406	3.0738e-05	1137.7	5.1042e-06	5.5994e-06	1229.4	243.39	8.4395e-06	4.2518e-06	301.76	82.733	64.877	18.743	3.4156e-06	26.151	0.00043504	0.00042722	0.00011704	1130	4.5323e-06	4.5494e-06	1223.9	243.06	4.4607e-06	4.3802e-06	304.54	83.155	65.738	19.303	4.8395e-06	27	343.298	360.859	284.487	174.465	286.422	341.291	174.244	181.477	338.962	251.995	181.368	188.062	188.332	195.657	392.996	195.298	-8191	255	
29007.646	1	1	0	0	0.092041	0.21478	0.10348	0.17609	0.12081	0.094885	0.16102	0.15727	0.11236	0.21373	0.17903	0.10851	0.06937	0.2216	0.22841	0.10247	-3.7333	-4.3521	-4.6271	-4.2271	-4.5958	-4.4229	-4.1875	-4.9417	-4.0958	-4.3333	-4.825	-3.8479	-4.6375	-4.5229	-4.0396	-4.8625	320.804	283.417	449.722	522.201	322.868	419.299	343.913	383.446	262.019	315.132	438.259	414.100	503.221	174.141	369.657	270.485	0.00069084	0.00058003	5.6741e-05	1129.5	7.1315e-06	4.5021e-06	1235.7	241.53	8.8484e-06	1.6574e-06	302.91	81.979	64.814	18.908	2.5553e-06	26.089	0.00044793	0.00046107	0.00012856	1127.6	5.2304e-06	5.3777e-06	1228.6	242.91	5.4483e-06	5.4718e-06	306.03	83.28	66.002	19.483	5.3554e-06	27.102	345.380	247.073	252.444	174.330	328.097	336.452	174.062	181.665	290.550	282.047	181.523	187.695	188.106	195.918	279.873	195.335	-8191	255	
29007.740	1	1	0	0	0.17012	0.071153	0.16507	0.21471	0.18761	0.18902	0.16774	0.31809	0.11451	0.23147	0.12899	0.092902	0.21307	0.11983	0.078468	0.13975	-3.8458	-4.1562	-4.8167	-4.0583	-4.5292	-4.6083	-4.0375	-4.7792	-4.1687	-4.2146	-4.975	-3.9437	-4.5167	-4.6792	-3.7604	-4.8875	438.930	504.357	226.276	494.411	431.479	365.614	442.322	412.044	168.719	293.157	430.027	305.845	507.705	182.174	330.141	307.677	0.00067897	0.00051891	0.00010333	1136	4.2092e-06	5.7178e-06	1230.2	242.92	2.9032e-06	2.5261e-06	302.26	82.539	65.308	18.724	2.6696e-06	26.197	0.00048701	0.00050068	0.00013359	1130.5	5.3202e-06	5.1621e-06	1227.8	243.81	5.2133e-06	5.0463e-06	305.65	83.341	66.12	19.361	5.0153e-06	27.027	343.973	215.608	228.512	174.231	256.768	328.733	173.997	181.347	304.816	289.630	181.681	188.023	188.530	195.597	235.394	194.880	-8191	255	
29007.814	1	1	0	0	0.17495	0.20479	0.031962	0.17488	0.17787	0.1159	0.27288	0.18206	0.1826	0.15214	0.14696	0.048163	0.1258	0.11843	0.25289	0.12944	-3.9688	-3.9854	-4.8063	-4.2708	-4.4417	-4.7521	-4.1083	-4.8208	-4.25	-4.0208	-4.8375	-4.0292	-4.3542	-4.7083	-3.8875	-4.7292	296.040	171.310	514.120	413.059	337.747	404.647	459.197	474.206	505.427	504.261	169.195	422.072	201.355	236.680	462.342	444.388	0.00079039	0.00039767	9.8975e-05	1132.4	2.1118e-06	3.7514e-06	1234.6	242.8	7.9187e-06	4.4505e-06	302.62	82.255	64.828	18.811	3.5943e-06	26.154	0.00045872	0.00044803	0.00012653	1126.8	4.9766e-06	5.0169e-06	1227	242.86	4.8855e-06	5.0269e-06	304.43	83.306	65.896	19.423	5.0635e-06	27.055	352.798	217.698	268.701	174.121	302.556	361.966	174.125	181.471	305.254	334.226	181.315	188.162	188.648	195.647	462.559	194.910	-8191	255	
29007.910	1	1	0	0	0.087978	0.20812	0.19274	0.36113	0.10081	0.2158	0.32617	0.12522	0.0092007	0.13308	0.17956	0.25998	0.037247	0.20403	0.032308	0.037406	-4.0292	-3.9229	-4.8667	-4.1542	-4.0792	-4.7792	-4.1292	-4.7333	-4.3979	-3.7854	-4.8313	-4.1104	-4.2667	-4.8333	-3.9333	-4.7812	173.018	380.141	522.796	516.546	392.733	192.659	448.420	188.599	387.015	289.892	209.212	484.125	511.131	456.462	346.140	402.752	0.00063879	0.00064191	0.00011495	1133.4	5.6712e-06	1.2335e-06	1233	241.96	7.2856e-06	6.2928e-06	302.78	81.98	64.588	18.778	3.8662e-06	26.104	0.0004655	0.00045819	0.000127	1127.8	4.9634e-06	4.8346e-06	1224.7	242.31	4.8656e-06	4.8703e-06	304.99	83.108	65.784	19.41	4.9081e-06	26.909	350.443	204.000	316.365	174.318	259.286	299.697	174.222	181.489	277.386	299.546	181.454	187.993	188.232	195.712	390.048	195.089	-8191	255	
29008.029	1	1	0	0	0.013801	0.1392	0.21051	0.3143	0.13007	0.19966	0.17674	0.17043	0.23797	0.18905	0.14968	0.094403	0.067537	0.10235	0.2043	0.058364	-4.1875	-3.7625	-4.7521	-4.2958	-4.1792	-4.7917	-4.2271	-4.7333	-4.7042	-3.8458	-4.8292	-4.5708	-4.0896	-4.875	-4.1083	-4.2083	508.855	258.398	264.047	477.840	501.764	492.600	504.409	521.855	488.006	177.790	468.945	171.373	472.733	173.800	225.699	393.598	0.00080362	0.00028727	0.00010648	1134.9	3.8321e-06	5.5876e-06	1232	242.26	3.0679e-06	3.2978e-06	302.62	82.32	64.811	18.655	5.7006e-06	26.079	0.0004449	0.00045223	0.00012658	1128.5	4.9838e-06	4.8645e-06	1226.8	242.76	4.7646e-06	4.7608e-06	304.45	83.077	65.831	19.288	4.6903e-06	26.853	344.607	203.043	187.047	174.276	278.946	381.371	174.218	181.664	303.105	228.201	181.314	188.007	187.997	195.904	374.406	195.025	-8191	255	
29008.125	1	1	0	0	0.058851	0.24047	0.19218	0.19841	0.20718	0.094108	0.22309	0.11492	0.29659	0.089524	0.13138	0.16797	0.10843	0.20235	0.090492	0.096713	-4.5604	-3.7708	-4.8292	-4.5563	-3.9542	-4.8646	-4.1937	-4.3438	-4.8833	-3.9313	-4.7667	-4.7	-3.9938	-4.8083	-4.1771	-4.1562	266.523	199.242	386.297	413.368	500.127	485.042	189.419	405.466	495.660	348.754	469.160	174.231	275.665	264.213	265.126	381.610	0.00075745	0.00028927	3.5886e-05	1126	2.9748e-06	2.7401e-06	1229.3	241.32	3.9342e-06	2.8589e-07	302.51	81.928	65.035	18.681	2.264e-06	25.671	0.00041642	0.00041636	0.00011324	1123.6	4.5807e-06	4.5371e-06	1223.3	242.17	4.5102e-06	4.5706e-06	303.95	82.754	65.553	19.264	4.7504e-06	26.811	356.492	220.495	277.623	174.417	323.877	251.873	174.203	181.368	334.677	445.207	181.744	187.932	188.308	195.910	368.370	194.757	-8191	255	
29008.223	1	1	0	0	0.09588	0.19787	0.21842	0.29356	0.053395	0.14187	0.14724	0.081114	0.16591	0.13577	0.26028	0.16213	0.09255	0.09761	0.02291	0.21841	-4.5792	-3.8875	-4.4521	-4.6771	-4.0312	-4.9583	-4.2458	-4.1813	-4.6708	-4.0542	-4.6146	-4.7417	-3.8438	-4.8021	-4.2312	-3.9792	270.919	371.439	385.670	521.223	351.591	355.525	460.204	446.812	221.742	288.874	441.141	504.092	302.953	320.807	169.295	426.734	0.00068224	0.00014378	0.00012412	1128.2	2.4011e-06	3.329e-06	1228.5	241.28	1.1005e-05	4.6517e-06	300.59	82.168	64.842	18.638	6.2454e-06	26.145	0.00043409	0.00044269	0.00012057	1123.8	4.7246e-06	4.6994e-06	1222.9	241.73	4.5315e-06	4.6253e-06	303.44	82.929	65.697	19.267	4.6504e-06	26.843	349.102	210.141	244.642	174.508	342.285	372.219	174.167	181.800	278.776	318.574	181.373	188.126	188.163	195.780	348.565	194.770	-8191	255	
29008.342	1	1	0	0	0.097868	0.15545	0.040557	0.22673	0.094013	0.078798	0.35567	0.22096	0.036805	0.078181	0.26982	0.32083	0.26081	0.21324	0.088927	0.096643	-4.5	-3.9625	-4.2708	-4.8708	-3.7771	-4.7396	-4.4688	-4.0896	-4.8083	-4.0104	-4.4458	-4.8146	-3.9604	-4.7917	-4.4208	-4.0583	315.597	372.474	521.789	173.667	210.403	254.116	465.556	170.592	259.745	248.074	399.879	173.002	373.551	446.342	433.540	442.917	0.00069133	0.0003776	0.00012863	1129.5	4.3357e-06	2.7868e-06	1229.4	241.47	3.2323e-06	3.7973e-06	301.35	82.1	65.088	18.746	3.293e-06	26.253	0.00041763	0.00042448	0.00011765	1125.1	4.6845e-06	4.6208e-06	1220.7	241.91	4.6307e-06	4.7277e-06	303.81	82.941	65.774	19.35	4.7182e-06	26.939	348.923	240.207	305.503	174.333	299.393	297.261	174.130	181.750	257.549	344.636	181.343	188.488	188.130	196.214	327.059	195.206	-8191	255	
29008.438	1	1	0	0	0.14527	0.13191	0.030637	0.30944	0.18043	0.093798	0.27869	0.20063	0.26708	0.077406	0.070764	0.33527	0.1272	0.14434	0.17402	0.15793	-4.4354	-4.0125	-4.0938	-5.0583	-3.8812	-4.5333	-4.5437	-3.9667	-4.7646	-4.0771	-4.1312	-4.9688	-3.9688	-4.6292	-4.5021	-4.0208	174.164	183.865	195.100	514.226	426.109	344.845	420.304	408.083	468.597	336.091	198.294	447.211	325.059	356.273	165.241	172.822	0.00060607	0.00019185	0.00010659	1128	4.2976e-06	2.7401e-06	1229	242.83	5.3424e-06	1.891e-06	302.4	82.229	64.855	18.765	4.3859e-06	26.034	0.00042529	0.00042899	0.00012207	1125.8	4.8154e-06	4.8132e-06	1224.1	242.48	4.6957e-06	4.7535e-06	305.02	83.084	65.795	19.363	4.8025e-06	26.94	349.075	207.807	237.989	174.465	259.066	404.244	174.391	181.414	284.829	377.728	181.203	187.719	188.369	195.781	297.589	194.917	-8191	255	
29008.510	1	1	0	0	0.15437	0.25536	0.17586	0.2786	0.16093	0.089504	0.21416	0.26831	0.22141	0.19193	0.20645	0.11181	0.13341	0.14646	0.18759	0.15918	-4.3792	-4.1792	-4.0563	-5.0854	-3.7979	-4.3271	-4.6896	-3.9979	-4.6271	-4.225	-3.9792	-4.8833	-4.0771	-4.4333	-4.6687	-4.0312	277.951	244.754	243.572	468.736	401.252	460.188	481.705	468.658	345.925	501.538	472.173	247.624	411.908	517.685	453.608	279.092	0.00072321	0.00035919	0.00018325	1131.3	5.3271e-06	7.9022e-06	1233.1	241.48	9.8855e-06	3.1675e-06	302.45	82.478	64.808	18.688	7.7379e-06	25.992	0.00044267	0.00044788	0.00012473	1127.7	4.8655e-06	4.8881e-06	1225.8	242.52	4.9396e-06	5.0298e-06	304.88	83.277	65.94	19.382	4.9359e-06	26.906	344.306	252.533	302.934	174.349	298.416	283.033	174.256	181.577	322.055	321.120	181.713	187.604	188.573	195.804	285.970	194.179	-8191	255	
29008.631	1	1	0	0	0.20419	0.19903	0.22823	0.12228	0.2075	0.082966	0.036558	0.17697	0.13055	0.15841	0.10577	0.16106	0.21691	0.13649	0.17491	0.20333	-4.4729	-4.2937	-3.9771	-4.9458	-3.9562	-4.2104	-4.9104	-3.7646	-4.5083	-4.4771	-3.9979	-4.8146	-4.0792	-4.2458	-4.7688	-3.8396	320.468	334.467	231.762	223.604	221.231	173.531	327.002	468.755	223.135	449.791	476.627	340.730	498.111	437.631	402.234	480.820	0.0007489	0.00033962	0.00015542	1134.3	2.1077e-06	4.5592e-06	1233.9	242.22	3.6687e-06	5.3394e-06	303.46	81.648	65.058	18.798	4.0116e-06	26.012	0.00045086	0.0004495	0.00012554	1129.6	5.0911e-06	5.0847e-06	1226.3	242.8	5.0117e-06	4.9636e-06	304.95	83.179	66.03	19.372	4.8664e-06	26.955	343.394	248.205	169.458	174.256	249.912	237.332	174.364	181.509	330.656	247.156	181.331	188.433	188.601	195.541	339.194	194.878	-8191	255	
29008.727	1	1	0	0	0.18887	0.14517	0.22234	0.11518	0.18104	0.13901	0.20011	0.1892	0.18917	0.1952	0.23081	0.10384	0.1831	0.071054	0.14788	0.08275	-4.3104	-4.5917	-3.8937	-4.8979	-4.2188	-4.0458	-4.9771	-4.0542	-4.4688	-4.5312	-3.9583	-4.5854	-4.2688	-3.8875	-4.7917	-4.1854	280.609	406.951	351.863	451.126	410.955	350.376	483.718	442.872	346.630	225.630	517.572	504.916	523.240	223.646	256.064	203.868	0.00082169	0.00030421	0.0001389	1130.7	3.9551e-06	1.9208e-06	1230.1	242.64	6.1417e-06	3.8934e-06	301.08	81.621	65.195	18.668	4.8504e-06	26.089	0.00045677	0.0004514	0.00012557	1129.4	5.0435e-06	4.9626e-06	1227.6	242.87	5.1203e-06	5.1163e-06	304.87	83.109	66.04	19.473	5.2273e-06	27.025	353.333	290.206	201.240	174.527	268.073	315.470	174.299	181.803	316.298	274.066	181.233	188.031	188.751	196.200	297.358	194.920	-8191	255	
29008.820	1	1	0	0	0.21502	0.13416	0.13974	0.17154	0.2397	0.22331	0.019988	0.18689	0.1105	0.055826	0.16718	0.18558	0.15302	0.13833	0.22474	0.15044	-4.0062	-4.6354	-3.8396	-4.9729	-4.5333	-3.9604	-4.9667	-4.2104	-4.3854	-4.7896	-3.9042	-4.6833	-4.4917	-3.9542	-4.8292	-3.9729	480.186	485.176	205.559	485.329	472.630	380.517	224.344	464.779	233.332	216.893	165.049	260.572	218.668	391.478	319.646	282.912	0.00059079	0.00050571	0.00010191	1134.1	4.9412e-06	2.8304e-06	1237	242.48	8.3735e-06	1.0451e-06	300.21	82.199	65.161	18.887	1.1338e-05	26.02	0.00048706	0.0004827	0.00013892	1131.4	5.4694e-06	5.3616e-06	1230.3	243.2	5.5208e-06	5.3979e-06	304.68	83.507	66.153	19.518	5.5024e-06	27.121	351.998	282.110	237.322	174.197	394.150	288.880	174.204	181.312	308.603	410.339	181.621	187.722	188.735	195.580	354.988	194.951	-8191	255	
29008.941	1	1	0	0	0.059367	0.26855	0.20428	0.24386	0.20475	0.06474	0.060775	0.20727	0.23522	0.20476	0.23854	0.13023	0.15713	0.16037	0.05594	0.062428	-4.0521	-4.6625	-3.775	-4.7542	-4.4437	-3.9542	-5.0479	-4.2083	-4.1813	-4.8583	-3.95	-4.4938	-4.7354	-3.7958	-4.6646	-4.1146	334.035	500.052	307.285	176.078	407.134	388.063	502.098	230.959	466.210	210.076	188.028	364.815	520.660	324.274	341.008	508.565	0.0008962	4.8821e-05	9.2541e-05	1136.7	3.494e-06	2.9446e-06	1232.5	242.38	1.0873e-05	1.3301e-06	301.72	82.326	64.732	18.785	3.3242e-06	26.168	0.00049344	0.00050395	0.00014347	1131.6	5.4662e-06	5.6844e-06	1229	243.22	5.6082e-06	5.5932e-06	305.25	83.463	65.998	19.454	5.4396e-06	27.108	350.904	429.346	252.600	174.453	298.273	290.563	174.328	181.614	308.088	208.069	181.273	187.933	188.443	195.720	327.592	195.088	-8191	255	
29009.037	1	1	0	0	0.20419	0.099872	0.17776	0.21938	0.18571	0.33353	0.096941	0.068097	0.11923	0.10372	0.079081	0.048193	0.11063	0.18367	0.090204	0.066413	-3.8021	-4.9521	-3.8958	-4.6333	-4.7375	-3.8604	-4.8438	-4.3333	-4.0833	-4.9271	-3.9396	-4.4229	-4.7312	-3.9771	-4.6646	-4.4042	279.679	402.876	483.434	487.004	319.428	202.970	441.504	366.670	331.277	181.574	334.950	214.761	490.186	491.372	174.363	353.471	0.000777	0.00069668	9.2098e-05	1139.2	5.3959e-06	2.6043e-06	1236.2	241.17	7.5511e-06	2.7168e-06	302.24	81.928	65.283	18.697	2.9234e-06	26.068	0.0004895	0.00050433	0.00013856	1131.8	5.4015e-06	5.3862e-06	1229.9	243.14	5.3491e-06	5.4255e-06	304.93	83.439	65.956	19.405	5.32e-06	27.089	353.802	285.124	212.383	174.283	307.066	406.405	174.243	181.738	307.081	268.989	181.251	188.203	188.397	195.639	426.822	194.864	-8191	255	
29009.109	1	1	0	0	0.1312	0.19031	0.092733	0.22236	0.12137	0.10858	0.29852	0.2092	0.09064	0.14233	0.36962	0.15357	0.040163	0.087418	0.16954	0.12782	-3.7542	-4.9333	-3.9979	-4.4083	-4.6875	-3.8708	-4.8667	-4.5729	-3.9104	-4.725	-4.1813	-4.175	-4.8208	-3.8042	-4.4979	-4.6292	352.063	338.005	474.087	511.378	375.657	306.172	435.912	377.392	320.437	222.331	182.484	514.763	509.449	387.362	267.134	247.144	0.000722	0.00064256	0.00014048	1137.5	1.0293e-05	1.7687e-06	1235.8	243.05	1.1813e-05	2.0018e-06	303.87	82.46	65.172	18.868	2.5754e-06	26.221	0.0004898	0.00049853	0.00014064	1131	5.6242e-06	5.8275e-06	1230.3	243.66	5.7653e-06	5.7346e-06	306.01	83.686	66.367	19.538	5.8051e-06	27.18	343.559	320.914	285.656	174.412	303.798	179.416	174.181	181.814	289.610	294.410	181.520	187.869	188.227	195.542	339.816	194.802	-8191	255	
29009.205	1	1	0	0	0.15097	0.13407	0.21777	0.2794	0.18026	0.13052	0.19941	0.15404	0.23375	0.27486	0.24224	0.10997	0.30625	0.20242	0.15173	0.13935	-3.4917	-4.8083	-4.1354	-4.1833	-4.8125	-3.9792	-4.5708	-4.6146	-3.9813	-4.8438	-4.1687	-4.1521	-4.8604	-3.8458	-4.35	-4.6146	292.941	176.328	316.638	492.753	411.898	296.198	498.610	278.382	195.139	252.235	437.609	181.493	433.949	231.774	269.809	508.127	0.00068332	0.0003682	9.9531e-05	1136	6.5813e-06	3.7701e-06	1235	243.04	4.1336e-06	1.4046e-06	303.47	82.894	64.933	18.758	5.1046e-06	26.171	0.00050753	0.0005182	0.00014228	1131.3	5.5654e-06	5.6604e-06	1231.7	243.51	5.549e-06	5.4778e-06	305.87	83.595	66.158	19.51	5.7478e-06	27.151	356.182	231.239	273.536	174.305	291.885	309.796	174.092	181.362	301.036	465.793	181.300	187.879	188.149	195.413	254.900	195.111	-8191	255	
29009.326	1	1	0	0	0.2711	0.20566	0.13352	0.19282	0.11372	0.064041	0.076356	0.19328	0.35111	0.11907	0.028747	0.20295	0.12542	0.056485	0.064914	0.04702	-3.6562	-4.6438	-4.425	-4.2542	-4.7792	-3.9562	-4.5	-4.775	-3.7417	-4.7354	-4.4896	-3.9417	-4.8083	-4.1354	-4.1917	-4.8063	238.631	285.456	347.795	504.269	446.616	280.520	433.564	166.069	267.487	485.565	250.349	213.509	497.086	364.718	168.936	233.160	0.00067067	0.00066356	6.6171e-05	1134.2	5.9195e-06	7.1997e-06	1234.9	242.65	9.0574e-06	3.1213e-06	301.83	82.621	65.266	18.79	2.3825e-06	26.196	0.00052111	0.00053665	0.00014791	1131.2	5.7733e-06	5.896e-06	1231.5	243.68	5.6842e-06	5.7826e-06	306.26	83.63	66.338	19.474	5.6172e-06	27.163	355.205	273.260	202.116	174.243	307.697	327.778	174.321	181.678	309.769	216.966	181.563	187.828	188.442	196.035	346.008	195.024	-8191	255	
29009.424	1	1	0	0	0.073763	0.13457	0.15928	0.41724	0.11478	0.23999	0.25411	0.074796	0.18256	0.10092	0.087324	0.11859	0.20882	0.204	0.074396	0.29622	-3.5333	-4.6292	-4.4979	-4.0208	-4.9062	-4.2063	-4.2667	-4.9354	-4.0062	-4.7	-4.6604	-3.8833	-4.8958	-4.2354	-4.2104	-4.8562	193.700	415.512	437.593	477.315	419.419	475.403	419.207	205.038	176.775	311.504	208.952	489.760	216.354	242.044	295.474	484.392	0.00078098	0.00041793	7.4535e-05	1135.7	2.9528e-06	8.229e-07	1232.2	243.15	6.8871e-06	3.2293e-06	302.74	82.315	65.461	18.868	2.664e-06	25.986	0.00050749	0.00051767	0.00014527	1130.4	5.7942e-06	5.7933e-06	1229.2	243.76	5.8153e-06	5.878e-06	306.23	83.618	66.482	19.541	5.8549e-06	27.152	341.421	268.647	200.189	174.395	296.733	390.524	174.398	181.640	331.318	288.192	181.481	187.961	188.453	195.571	275.177	195.064	-8191	255	
29009.520	1	1	0	0	0.15404	0.16541	0.16968	0.22935	0.077508	0.097764	0.38486	0.066213	0.19794	0.24995	0.099649	0.045934	0.11911	0.087449	0.089345	0.10281	-3.5708	-4.4979	-4.6687	-4.0125	-4.6771	-4.3729	-4.2917	-4.9458	-4.0875	-4.3458	-4.7583	-4	-4.6479	-4.4833	-4	-4.9604	397.939	330.910	479.469	452.249	212.447	316.910	435.235	451.987	194.491	305.255	460.001	466.353	401.456	205.340	417.064	468.025	0.0008261	0.00035564	1.4642e-05	1135.5	7.0161e-06	4.0215e-06	1237.8	242.55	7.0236e-06	3.9504e-06	303.31	82.192	65.156	18.817	2.8941e-06	26.031	0.00052541	0.00053372	0.0001453	1131	5.6851e-06	5.7087e-06	1230.3	243.53	5.6505e-06	5.6787e-06	306.48	83.549	66.238	19.536	5.697e-06	27.117	354.215	260.847	177.359	174.156	308.983	324.468	174.188	181.342	301.725	350.365	181.120	187.990	188.069	195.567	271.649	195.396	-8191	255	
29009.615	1	1	0	0	0.30766	0.29528	0.0322	0.32843	0.064019	0.082912	0.30994	0.13374	0.15924	0.070342	0.081311	0.094577	0.25694	0.10956	0.1392	0.12727	-3.6271	-4.1896	-4.7438	-3.9688	-4.6521	-4.3125	-4.0708	-4.8938	-4.0188	-4.2396	-4.6833	-3.9542	-4.5208	-4.5292	-3.7917	-4.7833	440.045	246.970	343.228	489.012	280.612	396.043	164.086	468.301	440.437	393.473	225.458	430.904	446.563	392.738	255.276	239.662	0.00069569	0.00022235	7.9217e-05	1130.1	6.1772e-06	5.4137e-06	1231.5	243.21	6.0134e-06	1.8772e-06	304.34	82.28	65.16	18.803	4.2203e-06	26.286	0.00052316	0.00052323	0.00014334	1129.4	5.7023e-06	5.7923e-06	1230.5	243.55	5.6628e-06	5.7721e-06	305.86	83.635	66.468	19.48	5.6356e-06	27.246	343.453	291.433	286.088	174.026	306.185	376.627	174.034	181.780	302.179	347.068	181.683	188.158	187.993	195.677	288.692	194.420	-8191	255	
29009.711	1	1	0	0	0.09132	0.10289	0.041784	0.29841	0.084126	0.1682	0.095224	0.028182	0.095312	0.098614	0.19752	0.26419	0.16188	0.13908	0.1683	0.28424	-3.9542	-4.2146	-4.7604	-4.0792	-4.55	-4.5646	-4.0875	-4.8542	-4.2562	-4.0125	-4.9938	-3.925	-4.4313	-4.6521	-3.7042	-4.8979	351.462	190.652	343.593	444.707	208.930	257.049	163.917	425.168	311.200	483.184	438.596	430.140	384.207	329.673	325.425	440.329	0.00071175	0.00036471	9.667e-05	1140.1	3.5924e-06	4.4866e-06	1234.5	243.29	1.8244e-06	8.2159e-06	302.9	82.118	65.316	18.869	6.9235e-06	26.207	0.0005164	0.0005301	0.0001452	1133.3	5.7101e-06	5.7574e-06	1231	244.01	5.7357e-06	5.8074e-06	306.55	83.65	66.419	19.557	5.737e-06	27.229	350.064	328.088	230.674	174.305	212.961	377.434	173.975	181.746	244.675	227.819	181.378	187.941	188.348	195.173	299.992	195.015	-8191	255	
29009.807	1	1	0	0	0.1441	0.20627	0.080218	0.54203	0.21393	0.17549	0.084507	0.17781	0.15877	0.10522	0.15048	0.050725	0.19073	0.30929	0.23361	0.15803	-4.0542	-3.9625	-4.7812	-4.1208	-4.1708	-4.7688	-3.975	-4.8417	-4.3417	-4.0854	-5.0083	-4.1292	-4.3333	-4.6083	-3.9604	-4.7542	497.753	243.975	516.551	169.018	297.028	382.128	432.044	440.833	325.140	165.885	514.331	451.133	179.989	171.496	235.539	384.240	0.00073802	0.00059615	6.6247e-05	1137.2	5.3798e-06	2.6111e-06	1238.4	243.05	4.0213e-06	2.3667e-06	304.33	82.172	65.472	18.775	6.9644e-06	26.167	0.00052492	0.0005286	0.00014599	1132.9	5.7759e-06	5.6313e-06	1230.3	244.07	5.6751e-06	5.6665e-06	306.03	83.637	66.339	19.518	5.55e-06	27.225	343.152	252.636	501.481	174.381	274.548	356.476	174.057	181.672	211.258	236.117	181.241	188.267	188.129	195.502	277.569	194.723	-8191	255	
29009.902	1	1	0	0	0.27753	0.26805	0.084543	0.15769	0.15143	0.21151	0.42164	0.11255	0.20438	0.13582	0.080513	0.19363	0.1264	0.18135	0.03669	0.21419	-4.15	-3.7771	-4.8417	-4.5146	-4.2542	-4.975	-3.8833	-4.6062	-4.4062	-3.9229	-4.8833	-4.375	-3.9854	-4.7833	-3.9021	-4.5458	337.091	278.798	412.719	421.659	224.345	484.739	458.023	440.600	170.960	404.596	464.576	476.623	484.847	462.111	470.022	434.955	0.00075202	0.00074453	0.00010087	1137.4	5.7585e-06	6.7351e-06	1239.5	244.33	7.6382e-06	3.247e-06	302.31	83.303	65.062	18.806	6.6978e-06	26.19	0.00050513	0.00050351	0.00013973	1133	5.5285e-06	5.5033e-06	1232	244.13	5.4551e-06	5.704e-06	306.33	83.916	66.24	19.575	5.5013e-06	27.201	354.338	266.548	320.525	174.451	297.009	353.501	174.032	181.313	393.420	235.933	181.284	188.169	188.430	195.131	316.494	194.646	-8191	255	
29010.021	1	1	0	0	0.17169	0.1384	0.22172	0.22646	0.18766	0.20773	0.017829	0.16356	0.1525	0.20105	0.10536	0.040978	0.1537	0.14796	0.082623	0.098782	-4.2417	-3.9729	-4.7896	-4.4521	-4	-4.8625	-4.225	-4.5125	-4.8812	-3.8396	-4.7792	-4.475	-4.0125	-4.7354	-4.1	-4.4604	374.451	168.652	468.535	505.830	297.761	446.384	496.315	506.577	513.796	378.631	358.505	176.986	456.123	482.194	365.229	389.137	0.00083323	0.00040297	7.5347e-05	1136.8	3.8319e-06	4.852e-06	1235.2	244.05	7.202e-06	2.0253e-06	305.41	82.332	65.441	18.92	2.0753e-06	26.146	0.00049825	0.00049282	0.00013746	1134.3	5.2974e-06	5.3925e-06	1230.6	244.06	5.342e-06	5.3214e-06	306.32	83.578	66.338	19.569	5.3724e-06	27.125	353.708	223.728	190.196	174.371	313.014	342.422	174.294	181.259	379.063	316.830	181.504	187.931	188.440	195.592	276.699	194.961	-8191	255	
29010.117	1	1	0	0	0.055448	0.076841	0.10844	0.22615	0.047655	0.12652	0.22753	0.12542	0.26338	0.19282	0.067953	0.077407	0.14641	0.15569	0.0069633	0.23912	-4.5396	-3.6833	-4.6583	-4.6	-3.7958	-4.8417	-4.2417	-4.3833	-4.6896	-3.8688	-4.625	-4.7333	-3.8896	-4.8167	-4.0938	-4.2375	240.807	212.012	258.571	415.159	323.182	440.338	377.474	383.683	510.198	501.195	358.213	443.906	485.565	427.090	172.569	195.162	0.00075657	0.0005158	6.0247e-06	1137.8	4.6884e-06	9.5226e-07	1232.5	243.79	8.5978e-06	1.2223e-06	303.47	82.513	65.218	18.695	6.1083e-06	26.113	0.00048718	0.00049519	0.0001383	1133.3	5.4862e-06	5.4236e-06	1231	244.02	5.4502e-06	5.5619e-06	306.08	83.773	66.323	19.538	5.4683e-06	27.211	352.407	281.665	298.657	174.265	293.660	330.822	174.243	181.224	324.746	402.244	181.523	188.218	188.053	195.532	294.303	194.908	-8191	255	
29010.215	1	1	0	0	0.30934	0.19375	0.42585	0.20932	0.13164	0.094268	0.25107	0.23171	0.065923	0.13732	0.16073	0.32119	0.065427	0.23615	0.078847	0.098882	-4.3812	-3.8792	-4.525	-4.7229	-3.7042	-4.7583	-4.4771	-4.2479	-4.7604	-4.0417	-4.45	-4.6813	-3.7667	-4.7229	-4.3208	-4.0125	223.929	167.784	175.604	394.207	490.457	305.094	371.751	485.884	383.838	389.141	473.055	507.153	217.585	455.231	264.850	433.654	0.00072685	0.00021276	6.8937e-05	1136.8	4.2933e-06	4.776e-06	1237.3	243.56	6.165e-06	3.3209e-06	304.64	82.922	65.44	18.859	6.1913e-06	26.181	0.00048906	0.00048926	0.00013402	1133.2	5.272e-06	5.2397e-06	1231.7	244.39	5.1945e-06	5.3283e-06	306.58	83.821	66.267	19.449	5.2004e-06	27.111	354.663	343.607	270.030	174.201	333.481	386.026	174.313	181.569	247.631	263.033	181.372	187.765	188.199	195.527	421.440	194.940	-8191	255	
29010.311	1	1	0	0	0.17343	0.092386	0.25328	0.070912	0.066549	0.099883	0.23078	0.18845	0.13794	0.25766	0.031519	0.17563	0.16682	0.17818	0.079506	0.23685	-4.5208	-4.0583	-4.3125	-4.875	-3.8292	-4.7708	-4.6104	-4.1438	-4.9104	-3.9896	-4.2771	-4.8979	-3.8917	-4.6021	-4.2958	-3.9542	166.658	363.017	417.330	489.348	492.990	356.913	473.917	468.458	506.838	495.710	461.720	511.212	420.756	456.486	203.139	425.051	0.00058008	0.00035931	0.00010128	1138.3	4.1404e-06	6.8406e-06	1241.1	241.98	3.0155e-06	5.5021e-06	302.99	82.699	65.441	18.894	5.1968e-06	26.032	0.00046715	0.00047982	0.00013054	1131.8	5.2012e-06	5.1318e-06	1230.1	243.28	5.0914e-06	5.1267e-06	305.61	83.675	66.323	19.534	5.2905e-06	27.096	364.277	344.632	274.782	174.522	364.103	326.420	174.120	181.514	254.994	328.577	180.981	187.734	188.505	195.750	323.850	194.683	-8191	255	
29010.406	1	1	0	0	0.13218	0.26916	0.0969	0.39802	0.16207	0.058333	0.11869	0.064003	0.15364	0.26346	0.12814	0.13685	0.17988	0.17755	0.27216	0.11411	-4.5083	-4.0583	-4.1667	-4.8979	-3.8292	-4.4	-4.8438	-3.9	-4.7229	-4.1146	-3.9854	-4.7146	-3.8812	-4.325	-4.5167	-3.8479	348.526	237.267	248.585	472.589	330.510	422.227	504.502	445.516	261.390	311.202	211.580	351.626	444.810	420.230	451.797	463.440	0.00070537	0.00037691	0.00013735	1136.6	2.3966e-06	2.2158e-06	1234.2	242.37	4.048e-06	2.5102e-06	304.22	82.832	65.07	18.772	4.204e-06	26.244	0.00048345	0.00049575	0.00013562	1131.2	5.2294e-06	5.4245e-06	1229	243.44	5.3205e-06	5.3344e-06	305.75	83.58	66.306	19.489	5.3529e-06	27.163	347.018	310.841	229.370	174.289	341.760	364.202	174.218	181.525	301.362	364.562	181.017	187.866	188.207	195.161	332.988	195.018	-8191	255	
29010.504	1	1	0	0	0.14974	0.36516	0.2138	0.30178	0.1209	0.16843	0.21071	0.25714	0.16114	0.17703	0.12095	0.054404	0.23176	0.027105	0.14524	0.12975	-4.4396	-4.25	-3.8771	-4.7646	-3.9062	-4.2979	-4.8083	-3.7542	-4.575	-4.3542	-4.0271	-4.8354	-4.3021	-4.2937	-4.7542	-3.7458	271.731	332.089	426.340	522.029	441.403	331.471	444.936	513.364	307.725	237.957	278.866	433.920	478.437	331.564	434.581	426.045	0.00065674	0.00019088	0.00013091	1136.5	1.6522e-06	3.5015e-06	1238.3	243.07	4.825e-06	8.3298e-06	305.66	82.887	65.135	18.833	7.0799e-07	26.026	0.00048304	0.00049449	0.0001343	1130.7	5.2704e-06	5.3761e-06	1230.5	243.6	5.2324e-06	5.1925e-06	306.72	83.749	66.186	19.492	5.1577e-06	27.041	354.655	228.844	292.780	174.458	275.319	308.076	174.161	181.398	359.675	289.002	181.196	187.890	188.297	195.451	229.198	194.653	-8191	255	
29010.623	1	1	0	0	0.0697	0.18587	0.18165	0.26094	0.015554	0.21111	0.15528	0.071991	0.10346	0.26754	0.063579	0.15568	0.16449	0.27802	0.0628	0.19669	-4.4938	-4.3417	-3.8312	-5.025	-4.0896	-4.175	-4.9333	-3.8292	-4.5708	-4.6729	-3.9917	-4.9958	-4.2771	-4.0125	-4.5687	-4.0729	325.462	198.803	248.787	494.378	486.919	476.336	391.269	379.799	418.605	468.876	271.576	461.997	182.134	168.833	406.227	502.367	0.00069213	0.00041765	7.4246e-05	1138.5	1.1289e-06	3.873e-06	1234.7	243.63	5.6119e-06	2.6743e-06	302.52	82.22	65.202	18.861	2.4562e-06	26.063	0.00047324	0.00047926	0.00013367	1131.2	5.2756e-06	5.2576e-06	1229.3	243.63	5.2566e-06	5.1691e-06	306.05	83.364	66.32	19.491	5.2233e-06	27.044	345.514	374.078	219.541	174.339	167.149	333.683	174.470	181.565	323.237	308.262	181.098	188.016	187.997	195.621	362.009	194.512	-8191	255	
29010.721	1	1	0	0	0.054703	0.25015	0.21604	0.11243	0.10533	0.075416	0.20452	0.25064	0.32173	0.13959	0.20391	0.197	0.059434	0.27631	0.10612	0.17959	-4.1062	-4.4396	-3.7771	-4.8917	-4.2979	-4.0062	-5.0583	-4.0104	-4.3917	-4.6646	-3.9646	-4.6562	-4.2417	-3.9708	-4.9042	-4.0917	394.258	410.432	500.784	501.853	489.234	470.278	409.354	183.793	174.831	453.807	509.793	225.727	339.815	310.951	429.833	380.123	0.00066214	0.0001786	0.00018371	1137.2	9.5852e-06	7.2591e-06	1234.8	243.48	1.15e-05	3.5582e-06	303.26	82.321	64.848	18.747	6.515e-06	26.205	0.00048099	0.00047833	0.00013525	1132.3	5.2897e-06	5.2923e-06	1230.1	243.42	5.3085e-06	5.287e-06	306.25	83.515	66.004	19.422	5.0469e-06	27.054	346.902	183.591	233.745	174.137	283.964	282.321	174.379	181.447	287.132	332.397	181.418	187.774	188.394	195.624	363.290	194.985	-8191	255	
29010.814	1	1	0	0	0.11897	0.076926	0.054774	0.17871	0.046232	0.13377	0.18201	0.16417	0.10501	0.14497	0.24928	0.15772	0.12074	0.14227	0.086189	0.050597	-3.9313	-4.8667	-3.8917	-4.7042	-4.3667	-4.0062	-5.0104	-4.0062	-4.1667	-4.7292	-3.8667	-4.6771	-4.525	-3.9979	-4.8083	-4.2104	283.123	280.850	378.351	500.498	318.057	515.282	421.142	453.716	255.665	440.006	436.959	431.001	465.669	436.329	348.798	280.429	0.00069719	0.00049472	2.4436e-05	1139.7	7.6042e-06	6.84e-06	1239.5	242.76	6.1777e-06	5.6535e-06	302.01	82.261	65.186	18.954	4.3676e-06	26.012	0.00046665	0.00045324	0.00012919	1130.9	4.9661e-06	4.9852e-06	1228.9	242.91	5.0657e-06	4.9412e-06	304.88	83.442	66.107	19.44	5.0895e-06	27.019	345.396	264.982	501.512	174.218	295.828	388.726	174.192	181.640	283.327	319.286	181.158	187.832	187.832	195.471	344.830	195.310	-8191	255	
29010.910	1	1	0	0	0.26143	0.14328	0.046057	0.15567	0.16803	0.067457	0.14496	0.06688	0.14621	0.13963	0.14134	0.13176	0.10672	0.13827	0.20398	0.13167	-3.8208	-4.8646	-3.8438	-4.7083	-4.6771	-3.7104	-4.7771	-4.4021	-4.1396	-4.8896	-4.0229	-4.6479	-4.8104	-3.9	-4.7271	-4.3	241.535	357.760	387.933	480.939	190.140	469.992	329.480	223.264	415.721	304.716	466.848	457.530	327.555	271.576	489.186	311.484	0.00072153	0.00040238	0.00014684	1136.9	1.8781e-06	3.4889e-06	1235.8	241.24	6.592e-06	2.8443e-06	303.39	82.711	65.003	18.807	5.1359e-06	26.105	0.00047699	0.00047737	0.0001361	1131.5	5.2478e-06	5.2903e-06	1230.6	243.39	5.3088e-06	5.234e-06	305.43	83.465	66.145	19.532	5.1929e-06	27.107	352.363	266.617	273.380	174.523	310.456	281.404	174.231	181.337	343.283	353.498	181.234	187.950	188.394	195.356	313.362	194.870	-8191	255	
29010.984	1	1	0	0	0.061916	0.36134	0.052894	0.23398	0.16037	0.16846	0.11349	0.45999	0.087842	0.27548	0.20695	0.30746	0.19125	0.21923	0.016587	0.043741	-3.6292	-4.8771	-3.9917	-4.3729	-4.6333	-3.9292	-4.9167	-4.3583	-3.925	-4.8021	-4.0771	-4.4292	-4.7958	-3.8563	-4.625	-4.675	291.780	287.267	273.286	168.663	298.122	508.412	357.468	478.857	423.256	176.448	406.534	518.240	236.833	245.781	431.124	495.795	0.00063868	9.6575e-05	4.1268e-05	1136.5	4.3231e-06	5.049e-06	1234.1	243.85	5.2487e-06	1.0897e-06	303.56	82.881	64.933	18.722	3.5945e-06	26.254	0.00047687	0.00048162	0.0001342	1131.4	5.2753e-06	5.3074e-06	1230.9	244.02	5.3123e-06	5.3432e-06	305.85	83.528	66.166	19.463	5.2932e-06	27.097	348.289	258.640	371.885	174.366	302.227	369.242	174.351	181.482	282.747	482.389	181.054	188.072	188.363	196.271	321.937	195.027	-8191	255	
29011.104	1	1	0	0	0.38347	0.036081	0.10822	0.20252	0.035621	0.087516	0.46988	0.32499	0.2	0.12104	0.039596	0.19781	0.053828	0.076015	0.073356	0.073166	-3.6854	-4.8083	-4.2396	-4.3708	-4.7167	-4.0292	-4.7896	-4.5729	-3.9	-4.8979	-4.2271	-4.3146	-4.9229	-4.0188	-4.575	-4.6292	398.548	385.698	315.852	430.177	292.524	467.296	464.764	490.189	244.298	388.202	164.456	230.131	289.742	233.842	239.555	449.506	0.00063635	0.00052645	7.3386e-05	1133.6	6.8196e-06	1.9271e-06	1233.5	243.41	7.346e-06	3.9812e-06	303.03	82.459	65.101	18.832	6.7447e-06	26.011	0.00048064	0.00048554	0.00013938	1130.5	5.3291e-06	5.4988e-06	1228.5	243.39	5.4768e-06	5.3961e-06	305.6	83.605	66.07	19.503	5.3704e-06	27.071	363.579	223.718	253.482	174.066	324.250	466.821	174.307	181.569	301.233	319.996	181.137	187.407	188.644	195.607	235.934	195.142	-8191	255	
29011.199	1	1	0	0	0.072811	0.2364	0.16615	0.14235	0.1688	0.10476	0.21963	0.13539	0.18085	0.17796	0.25763	0.27241	0.12363	0.026282	0.073622	0.073587	-3.6104	-4.75	-4.2792	-4.1417	-4.8979	-3.9417	-4.525	-4.7042	-3.8208	-4.8208	-4.4396	-4.0333	-4.9292	-3.9646	-4.3208	-4.7542	520.729	337.035	297.900	470.523	257.364	247.091	462.586	421.405	330.106	243.316	430.268	457.766	438.614	387.301	395.473	332.364	0.00063832	8.5363e-05	9.8068e-05	1140.9	2.0921e-06	5.1324e-06	1233.2	242.78	4.0402e-06	3.9441e-06	302.94	82.448	65.127	18.792	7.7113e-06	25.928	0.00048371	0.00048489	0.00013501	1131.8	5.21e-06	5.4359e-06	1229	243.81	5.4148e-06	5.444e-06	305.85	83.679	66.276	19.514	5.453e-06	27.054	352.690	479.680	216.141	174.224	286.699	345.703	174.000	181.678	295.811	368.683	181.349	187.904	188.431	195.570	300.621	195.441	-8191	255	
29011.295	1	1	0	0	0.089875	0.1491	0.02227	0.14265	0.04507	0.2124	0.099876	0.056527	0.10728	0.27171	0.14021	0.11153	0.10124	0.13039	0.3664	0.041533	-3.4625	-4.5938	-4.4375	-4.0396	-4.8729	-4.0167	-4.4146	-4.7729	-3.8187	-4.6708	-4.4938	-3.9542	-5.0271	-4.0479	-4.1708	-4.9667	172.928	457.566	284.703	523.180	299.102	345.262	168.106	471.773	444.936	299.561	173.375	220.529	521.063	522.744	291.234	413.225	0.0006646	5.7162e-05	4.1575e-05	1136.6	5.1339e-06	6.5245e-06	1238.7	242.52	3.7292e-06	4.568e-06	305.72	82.651	65.442	18.745	6.8228e-06	26.078	0.00049281	0.00049781	0.0001396	1130.8	5.5883e-06	5.6275e-06	1230.9	243.97	5.5722e-06	5.6206e-06	306.63	83.663	66.266	19.486	5.5838e-06	27.077	350.846	296.414	270.707	174.272	322.154	355.023	174.302	181.200	367.783	352.384	181.319	187.958	188.495	195.496	312.215	195.092	-8191	255	
29011.391	1	1	0	0	0.30814	0.22654	0.07159	0.24686	0.062151	0.11884	0.24378	0.12502	0.13866	0.1661	0.16639	0.35627	0.26819	0.18558	0.047418	0.20063	-3.6292	-4.5312	-4.5271	-4.0938	-4.7479	-4.1062	-4.2937	-4.8688	-3.9667	-4.4854	-4.7312	-3.8146	-4.8167	-4.2667	-4.0729	-4.8562	468.097	341.795	384.701	406.154	237.883	409.958	456.372	467.994	349.504	359.651	264.633	451.956	198.257	378.980	421.342	475.680	0.00068223	0.00019817	1.2617e-05	1135.4	3.0056e-06	6.9829e-06	1235.8	242.78	1.4708e-05	3.6405e-06	303.59	82.813	64.824	18.776	7.6013e-06	26.028	0.00049166	0.00049052	0.00013763	1130.3	5.418e-06	5.4782e-06	1230.7	243.32	5.4581e-06	5.4711e-06	306.51	83.709	66.114	19.462	5.4934e-06	27.17	352.480	207.422	341.040	174.121	308.069	306.209	174.086	181.575	326.865	256.975	181.680	188.218	188.415	196.032	326.001	194.773	-8191	255	
29011.512	1	1	0	0	0.25868	0.2236	0.064612	0.070295	0.13252	0.22791	0.18216	0.021203	0.17877	0.10377	0.21811	0.16076	0.14103	0.060372	0.25379	0.025005	-3.6958	-4.3792	-4.8375	-4.0792	-4.8229	-4.2979	-4.1021	-4.9042	-4.0188	-4.2042	-4.7458	-3.8646	-4.8229	-4.45	-3.8917	-4.8583	428.731	312.811	351.087	492.653	330.942	462.323	232.871	474.010	405.837	417.127	518.651	346.613	331.326	520.897	288.202	225.456	0.00065441	0.00021816	8.0689e-05	1135.2	7.3938e-06	4.8088e-06	1233.1	243.58	9.709e-06	3.6118e-06	303.08	82.49	65.04	18.822	4.3596e-06	26.199	0.00050264	0.0005048	0.00013968	1130.5	5.3881e-06	5.5329e-06	1229.3	243.94	5.4554e-06	5.4382e-06	306.66	83.556	66.195	19.489	5.365e-06	27.106	352.078	254.125	319.805	174.099	311.071	299.759	174.266	181.672	350.245	252.409	181.834	188.174	188.532	196.148	326.759	195.182	-8191	255	
29011.607	1	1	0	0	0.33289	0.08459	0.053672	0.18501	0.23094	0.09597	0.26911	0.1017	0.11353	0.10555	0.23677	0.23438	0.24785	0.16644	0.34748	0.038774	-3.8646	-4.2021	-4.7354	-3.9813	-4.525	-4.4167	-4	-4.85	-4.1312	-4.0146	-4.9125	-3.925	-4.4625	-4.7312	-3.95	-4.8083	438.896	352.492	419.235	193.631	272.297	281.217	495.011	494.152	516.487	327.207	488.165	420.113	522.276	484.459	448.734	469.029	0.0007841	0.00025364	8.9863e-05	1135.4	8.8609e-06	6.6192e-06	1235.2	243.18	3.4245e-06	5.5586e-06	302.26	82.205	65.25	18.941	7.6802e-06	26.147	0.00049119	0.0005095	0.00013769	1132.6	5.4772e-06	5.499e-06	1230.1	243.75	5.6361e-06	5.6876e-06	305.94	83.415	66.47	19.568	5.7234e-06	27.138	343.993	197.548	308.286	174.242	296.654	345.071	173.898	181.546	377.819	297.371	181.271	187.962	187.908	195.817	279.500	195.069	-8191	255	
29011.703	1	1	0	0	0.10356	0.24995	0.073377	0.085337	0.1789	0.10994	0.17873	0.24834	0.054754	0.10603	0.082864	0.17045	0.21537	0.29192	0.072279	0.047709	-3.9417	-4.0833	-4.7771	-4.1875	-4.3979	-4.6833	-4.0667	-4.8042	-4.3042	-3.8625	-4.9271	-4.0917	-4.3396	-4.7396	-3.9208	-4.8229	472.665	258.922	212.071	342.349	274.992	376.773	483.676	419.479	347.827	419.782	409.490	233.186	252.107	460.369	372.433	330.464	0.00076199	0.00068632	9.7299e-05	1132.6	1.0441e-06	4.1328e-06	1229.9	243.52	5.9749e-06	9.6121e-07	303.37	82.513	65.008	18.811	7.3269e-06	26.146	0.00052168	0.00051826	0.00014399	1130.8	5.6634e-06	5.6964e-06	1229.3	243.93	5.5948e-06	5.6755e-06	306.73	83.529	66.197	19.522	5.4421e-06	27.044	356.938	240.069	194.497	174.411	369.131	398.513	174.035	181.461	322.093	388.510	181.603	188.111	187.962	195.496	334.910	194.849	-8191	255	
29011.801	1	1	0	0	0.21322	0.02648	0.084601	0.22475	0.15421	0.1325	0.14841	0.08685	0.13243	0.11213	0.22115	0.20171	0.084531	0.19276	0.032411	0.19973	-4.1813	-3.9604	-4.8604	-4.2104	-4.3479	-4.6562	-4.0229	-4.5875	-4.4542	-3.9354	-4.9062	-4.2271	-4.175	-4.8313	-3.9542	-4.5875	492.003	255.341	324.333	482.745	307.496	490.090	168.067	340.595	321.519	372.609	451.241	173.398	510.439	177.475	322.489	392.172	0.00062673	0.00032363	2.1862e-05	1135.7	4.2078e-06	2.8353e-06	1234.7	243.1	1.3162e-05	2.5768e-06	304.62	82.09	65.273	18.75	5.5975e-06	26.155	0.00048025	0.00049354	0.00013592	1132	5.2586e-06	5.2558e-06	1230.2	244.21	5.2514e-06	5.305e-06	306.2	83.395	66.255	19.453	5.292e-06	27.108	350.273	293.564	507.368	174.163	319.724	349.716	174.046	181.655	328.974	308.341	181.251	188.113	188.455	195.509	311.064	194.839	-8191	255	
29011.895	1	1	0	0	0.099953	0.16535	0.13403	0.39408	0.17003	0.084212	0.32134	0.33888	0.12208	0.17977	0.033139	0.21662	0.029459	0.23123	0.22385	0.17011	-4.275	-3.8146	-5.0229	-4.4062	-4.025	-4.9958	-4.0646	-4.65	-4.5667	-3.7542	-4.8167	-4.2937	-4.2792	-4.8313	-3.9313	-4.2375	499.051	259.975	392.933	472.375	494.798	430.795	466.236	410.644	272.416	224.383	322.026	194.817	326.599	390.075	462.354	197.254	0.0007715	0.00031667	7.8854e-05	1137	4.3932e-06	6.023e-06	1233.5	243.57	1.1214e-05	2.6549e-06	302.05	82.561	65.364	18.938	3.7e-06	25.997	0.00047495	0.00048208	0.00013234	1130.5	5.193e-06	5.1624e-06	1230.7	243.64	5.2008e-06	5.204e-06	305.22	83.712	66.264	19.51	5.3645e-06	27.068	354.530	171.022	313.560	174.344	275.549	303.408	174.224	181.729	347.285	274.494	181.114	188.333	188.320	195.843	385.155	194.835	-8191	255	
29011.992	1	1	0	0	0.098582	0.13701	0.17566	0.26185	0.054288	0.1371	0.063212	0.13343	0.25701	0.19368	0.24616	0.18439	0.12123	0.13651	0.29493	0.21115	-4.3292	-3.8375	-4.6083	-4.5	-3.9792	-4.8833	-4.2	-4.4583	-4.8604	-3.9458	-4.8	-4.6312	-3.8646	-4.7792	-4.0042	-4.2312	323.621	329.768	181.890	479.766	453.524	291.135	194.671	185.690	364.471	367.232	322.808	460.337	179.589	507.092	433.600	170.667	0.0007546	0.00033361	0.00020811	1133.4	1.0543e-06	1.02e-05	1233.1	243.06	5.7663e-06	1.3843e-06	302.53	82.155	65.252	18.933	2.3184e-06	26.043	0.00048797	0.00049077	0.00013533	1129.2	5.4172e-06	5.3289e-06	1230.5	243.88	5.4833e-06	5.5239e-06	305.94	83.39	66.432	19.525	5.513e-06	27.1	348.779	195.048	278.716	174.412	469.656	336.434	174.232	181.419	302.033	333.020	180.922	187.879	187.974	195.804	283.242	194.955	-8191	255	
29012.111	1	1	0	0	0.2454	0.23403	0.040088	0.12402	0.10345	0.36933	0.14511	0.17154	0.10816	0.11009	0.13122	0.24174	0.15838	0.17732	0.076494	0.13602	-4.5646	-3.925	-4.5667	-4.6646	-3.8083	-4.8583	-4.4688	-4.3562	-4.8146	-3.9	-4.6146	-4.6396	-3.9125	-4.6937	-4.2458	-4.2083	245.641	404.413	376.224	258.303	392.508	232.800	501.844	212.262	184.099	452.383	503.292	228.594	186.829	180.817	467.026	513.530	0.00080938	0.00036973	0.00015188	1136.5	8.6208e-06	3.1713e-06	1238	243.23	4.9122e-06	5.9771e-06	304.18	82.505	64.831	18.833	2.9356e-06	26.235	0.00049877	0.00051335	0.0001427	1131.9	5.6303e-06	5.6598e-06	1231.4	243.88	5.5027e-06	5.6752e-06	306.56	83.479	66.28	19.536	5.6401e-06	27.147	346.081	290.492	316.610	174.433	295.991	369.415	174.381	181.246	307.278	338.249	181.356	187.840	188.335	195.390	275.341	195.167	-8191	255	
29012.207	1	1	0	0	0.09164	0.17819	0.13819	0.27115	0.11394	0.22751	0.16909	0.16161	0.33395	0.028402	0.13362	0.13332	0.045712	0.19485	0.22515	0.15731	-4.3604	-3.7396	-4.3375	-4.6813	-3.8417	-4.7083	-4.6146	-4.125	-4.7458	-4.0583	-4.4604	-4.7604	-3.8542	-4.8146	-4.5188	-4.0417	236.691	235.986	358.213	441.207	281.312	278.764	481.763	235.840	510.323	380.074	466.290	493.222	386.523	406.664	212.235	523.123	0.00074185	0.00051729	9.4935e-05	1132.6	1.5599e-06	7.2088e-07	1237.7	243.46	2.9099e-06	3.5504e-06	302.93	81.916	65.164	18.932	4.4714e-06	25.814	0.00050696	0.0005187	0.00014534	1131.1	5.5057e-06	5.5584e-06	1230.9	244.09	5.4988e-06	5.6616e-06	306.08	83.658	66.316	19.542	5.6158e-06	27.037	349.020	230.284	341.123	174.409	266.004	508.039	174.338	181.441	340.049	357.285	181.586	187.843	188.492	195.508	346.954	195.052	-8191	255	
29012.305	1	1	0	0	0.036375	0.25218	0.18135	0.24088	0.22227	0.10642	0.21202	0.089653	0.13064	0.17469	0.096612	0.13414	0.27555	0.15058	0.10857	0.11556	-4.5792	-3.9708	-4.2271	-4.8708	-3.9146	-4.6833	-4.6896	-3.9562	-4.9021	-4.3229	-4.3521	-4.8854	-3.9	-4.4667	-4.6292	-3.8937	488.503	407.479	215.282	522.781	456.871	227.823	497.127	432.509	436.930	443.897	416.229	322.752	231.476	323.451	434.998	412.074	0.00081876	0.00053484	4.2154e-05	1134.1	3.3943e-06	5.2933e-06	1237.2	242.21	5.7162e-06	3.5538e-06	304.21	82.783	65.377	18.862	4.1116e-06	26.198	0.00050605	0.00051188	0.00014165	1131.5	5.6539e-06	5.64e-06	1230	243.5	5.5777e-06	5.5858e-06	306.89	83.52	66.266	19.535	5.498e-06	27.151	345.622	298.891	281.550	174.351	309.588	398.842	174.366	181.546	316.081	303.067	181.050	188.348	188.719	195.573	334.679	194.823	-8191	255	
#DATA ENDS
