BOXY.EXE: ISS Imagent and Oximeter Data Acquisition Program Version 0.80
Ascii Record File

#ACQ INFORMATION
2  Detector Channels 
16  External MUX Channels 
1  Auxiliary Channels 
5000  Waveform (CCF) Frequency (Hz)
1  Waveforms Skipped 
30  Waveforms Averaged 
1  Cycles Averaged 
16  Acquisitions per Waveform 
10.0806  Updata Rate (Hz) 

#FILE INFORMATION
TRUE -- External MUX Channel results are PARSED.
FALSE -- AC DC and Phase are NOT grouped.
TRUE -- Companion Program Settings File CREATED.
FALSE -- AC data not excluded
FALSE -- DC data not excluded
FALSE -- Phase data not excluded
FALSE -- Auxillary Chn. data not excluded
Tab delimiters

#CALIBRATION STATE
TRUE -- Waveform Calibration Values APPLIED.


#AUX CALIBRATION VALUES
Val Type	aux-1	

Term	1.0000e+00	
Factor	0.0000e+00	


#WF CALIBRATION VALUES
A = Detector Channel
Val Type	A-AC1	A-AC2	A-AC3	A-AC4	A-AC5	A-AC6	A-AC7	A-AC8	A-AC9	A-AC10	A-AC11	A-AC12	A-AC13	A-AC14	A-AC15	A-AC16	A-DC1	A-DC2	A-DC3	A-DC4	A-DC5	A-DC6	A-DC7	A-DC8	A-DC9	A-DC10	A-DC11	A-DC12	A-DC13	A-DC14	A-DC15	A-DC16	A-Ph1	A-Ph2	A-Ph3	A-Ph4	A-Ph5	A-Ph6	A-Ph7	A-Ph8	A-Ph9	A-Ph10	A-Ph11	A-Ph12	A-Ph13	A-Ph14	A-Ph15	A-Ph16	

Term	0.00000e+00	0.00000e+00	0.00000e+00	0.00000e+00	0.00000e+00	0.00000e+00	0.00000e+00	0.00000e+00	0.00000e+00	0.00000e+00	0.00000e+00	0.00000e+00	0.00000e+00	0.00000e+00	0.00000e+00	0.00000e+00	0.00000e+00	0.00000e+00	0.00000e+00	0.00000e+00	0.00000e+00	0.00000e+00	0.00000e+00	0.00000e+00	0.00000e+00	0.00000e+00	0.00000e+00	0.00000e+00	0.00000e+00	0.00000e+00	0.00000e+00	0.00000e+00	0.00000e+00	0.00000e+00	0.00000e+00	0.00000e+00	0.00000e+00	0.00000e+00	0.00000e+00	0.00000e+00	0.00000e+00	0.00000e+00	0.00000e+00	0.00000e+00	0.00000e+00	0.00000e+00	0.00000e+00	0.00000e+00	
Factor	1.00000e+00	1.00000e+00	1.00000e+00	1.00000e+00	1.00000e+00	1.00000e+00	1.00000e+00	1.00000e+00	1.00000e+00	1.00000e+00	1.00000e+00	1.00000e+00	1.00000e+00	1.00000e+00	1.00000e+00	1.00000e+00	1.00000e+00	1.00000e+00	1.00000e+00	1.00000e+00	1.00000e+00	1.00000e+00	1.00000e+00	1.00000e+00	1.00000e+00	1.00000e+00	1.00000e+00	1.00000e+00	1.00000e+00	1.00000e+00	1.00000e+00	1.00000e+00	X	X	X	X	X	X	X	X	X	X	X	X	X	X	X	X	

B = Detector Channel
Val Type	B-AC1	B-AC2	B-AC3	B-AC4	B-AC5	B-AC6	B-AC7	B-AC8	B-AC9	B-AC10	B-AC11	B-AC12	B-AC13	B-AC14	B-AC15	B-AC16	B-DC1	B-DC2	B-DC3	B-DC4	B-DC5	B-DC6	B-DC7	B-DC8	B-DC9	B-DC10	B-DC11	B-DC12	B-DC13	B-DC14	B-DC15	B-DC16	B-Ph1	B-Ph2	B-Ph3	B-Ph4	B-Ph5	B-Ph6	B-Ph7	B-Ph8	B-Ph9	B-Ph10	B-Ph11	B-Ph12	B-Ph13	B-Ph14	B-Ph15	B-Ph16	

Term	0.00000e+00	0.00000e+00	0.00000e+00	0.00000e+00	0.00000e+00	0.00000e+00	0.00000e+00	0.00000e+00	0.00000e+00	0.00000e+00	0.00000e+00	0.00000e+00	0.00000e+00	0.00000e+00	0.00000e+00	0.00000e+00	0.00000e+00	0.00000e+00	0.00000e+00	0.00000e+00	0.00000e+00	0.00000e+00	0.00000e+00	0.00000e+00	0.00000e+00	0.00000e+00	0.00000e+00	0.00000e+00	0.00000e+00	0.00000e+00	0.00000e+00	0.00000e+00	-7.80260e+01	-1.58627e+02	-1.69044e+02	-1.83775e+02	-9.56680e+01	-8.10641e+01	-1.58123e+02	-1.62015e+02	-7.06761e+01	-1.03333e+02	-1.70742e+02	-1.70756e+02	-1.78698e+02	-1.77014e+02	-1.06885e+02	-1.49823e+02	
Factor	1.89549e-05	9.66343e-05	3.90588e-05	1.69121e-01	1.09656e-06	1.06494e-06	1.87830e-01	6.00408e-02	1.11570e-06	1.14070e-06	9.95031e-02	3.37985e-02	3.11028e-02	1.10307e-02	1.00689e-06	1.56862e-02	6.37178e-07	6.49506e-07	1.80709e-07	7.65429e-02	7.12655e-09	7.12169e-09	7.97188e-02	2.69659e-02	7.12101e-09	7.12221e-09	4.22235e-02	1.44095e-02	1.37016e-02	4.81339e-03	7.13314e-09	6.55754e-03	X	X	X	X	X	X	X	X	X	X	X	X	X	X	X	X	



#DISTANCE SETTINGS
A = Detector Channel
A-1	A-2	A-3	A-4	A-5	A-6	A-7	A-8	A-9	A-10	A-11	A-12	A-13	A-14	A-15	A-16	

2.5000e+00	3.0000e+00	2.5000e+00	3.0000e+00	2.0000e+00	3.0000e+00	1.5000e+00	3.0000e+00	3.0000e+00	3.0000e+00	3.0000e+00	3.0000e+00	3.0000e+00	3.0000e+00	1.5000e+00	3.0000e+00	

B = Detector Channel
B-1	B-2	B-3	B-4	B-5	B-6	B-7	B-8	B-9	B-10	B-11	B-12	B-13	B-14	B-15	B-16	

1.0000e+01	1.0000e+01	1.0000e+01	1.4400e+00	1.0000e+01	1.0000e+01	1.5100e+00	1.9400e+00	1.0000e+01	1.0000e+01	1.9900e+00	2.4900e+00	2.4100e+00	2.9000e+00	1.0000e+01	2.9800e+00	




#DATA BEGINS
time	group	step	mark	flag	A-AC1	A-AC2	A-AC3	A-AC4	A-AC5	A-AC6	A-AC7	A-AC8	A-AC9	A-AC10	A-AC11	A-AC12	A-AC13	A-AC14	A-AC15	A-AC16	A-DC1	A-DC2	A-DC3	A-DC4	A-DC5	A-DC6	A-DC7	A-DC8	A-DC9	A-DC10	A-DC11	A-DC12	A-DC13	A-DC14	A-DC15	A-DC16	A-Ph1	A-Ph2	A-Ph3	A-Ph4	A-Ph5	A-Ph6	A-Ph7	A-Ph8	A-Ph9	A-Ph10	A-Ph11	A-Ph12	A-Ph13	A-Ph14	A-Ph15	A-Ph16	B-AC1	B-AC2	B-AC3	B-AC4	B-AC5	B-AC6	B-AC7	B-AC8	B-AC9	B-AC10	B-AC11	B-AC12	B-AC13	B-AC14	B-AC15	B-AC16	B-DC1	B-DC2	B-DC3	B-DC4	B-DC5	B-DC6	B-DC7	B-DC8	B-DC9	B-DC10	B-DC11	B-DC12	B-DC13	B-DC14	B-DC15	B-DC16	B-Ph1	B-Ph2	B-Ph3	B-Ph4	B-Ph5	B-Ph6	B-Ph7	B-Ph8	B-Ph9	B-Ph10	B-Ph11	B-Ph12	B-Ph13	B-Ph14	B-Ph15	B-Ph16	aux-1	digaux	

44348.023	1	1	0	256	0.093354	0.041745	0.13488	0.20857	0.030009	0.066272	0.29244	0.027576	0.24074	0.060757	0.13287	0.17917	0.21917	0.21523	0.10602	0.044503	-4.3896	-4.1354	-3.875	-4.8542	-3.7396	-4.1562	-4.65	-3.675	-4.6208	-4.2375	-3.8354	-4.7708	-4.0479	-4.2771	-4.575	-3.7396	-10.137	85.589	90.190	271.688	272.328	297.808	319.531	82.198	42.348	76.356	143.553	321.307	15.397	290.959	170.848	78.308	0.00011517	0.00030341	0.00016572	1259.7	2.9445e-06	1.9909e-06	1347.2	263.94	1.1859e-06	4.322e-06	329.04	91.639	73.069	21.454	2.7877e-06	29.674	3.7754e-05	3.4508e-05	9.8392e-06	1137.7	4.0903e-07	3.7674e-07	1215.9	238.22	3.8922e-07	3.7024e-07	290.5	82.088	64.848	19.23	3.6794e-07	26.101	178.130	-12.518	10.442	-14.056	125.790	103.622	-14.062	-6.520	111.906	120.544	-6.980	0.176	0.327	7.148	58.495	6.601	-8191	255	
44348.121	1	1	0	0	0.056138	0.13071	0.13565	0.30455	0.17293	0.24132	0.17309	0.22261	0.085771	0.15679	0.15335	0.22657	0.29603	0.076181	0.2109	0.15621	-4.2	-4.225	-3.8375	-4.8521	-4.0729	-4.0729	-4.8187	-3.7687	-4.3833	-4.3854	-3.7229	-4.8229	-4.0813	-4.0375	-4.6021	-3.7229	182.878	112.774	199.012	320.324	25.587	18.191	206.594	319.545	199.188	56.464	45.413	240.165	302.754	327.719	296.534	55.079	0.00011721	0.00021667	5.8746e-05	1260.8	2.8467e-06	9.7677e-07	1350.2	262.24	1.5938e-06	2.2974e-06	329.61	91.588	72.944	21.614	1.8701e-06	29.505	3.7635e-05	3.5301e-05	9.8125e-06	1137.3	3.9649e-07	3.6982e-07	1217.2	238.07	3.8419e-07	3.6869e-07	290.31	82.276	64.901	19.262	3.5499e-07	26.064	188.287	9.363	89.630	-13.826	71.634	97.828	-13.706	-6.487	135.615	108.073	-7.051	0.363	0.503	6.797	120.082	7.032	-8191	255	
44348.219	1	1	0	0	0.016699	0.18277	0.014248	0.082517	0.095973	0.088829	0.10653	0.24457	0.10408	0.18872	0.17423	0.089695	0.29848	0.18761	0.083573	0.071342	-4.025	-4.4187	-3.7042	-4.6854	-3.9229	-3.8854	-4.7542	-3.7375	-4.2688	-4.375	-3.7708	-4.6667	-4.0146	-4.0333	-4.7583	-3.8688	-9.760	13.358	320.199	149.219	154.783	212.052	-16.949	244.437	200.936	40.756	254.736	328.248	275.695	207.270	268.279	170.029	0.00013404	0.0002952	0.00011717	1257.4	2.64e-06	2.3047e-06	1346.9	262.25	1.5575e-06	3.3372e-06	328.86	91.79	73.421	21.477	3.906e-06	29.399	3.7745e-05	3.3862e-05	9.2e-06	1136.6	3.8571e-07	3.6933e-07	1215.4	237.46	3.8793e-07	3.6892e-07	290.13	82.123	64.995	19.211	3.6764e-07	26.029	199.465	55.106	-16.010	-14.144	130.659	49.608	-13.781	-6.569	204.975	89.244	-7.006	0.600	0.726	7.141	82.820	7.129	-8191	255	
44348.312	1	1	0	0	0.096447	0.20477	0.060979	0.25693	0.20251	0.079534	0.17025	0.19511	0.14146	0.056579	0.24464	0.04862	0.025639	0.055324	0.11761	0.071756	-3.65	-4.4625	-3.6125	-4.75	-4.1854	-3.8688	-4.7833	-3.9625	-4.1396	-4.4896	-3.7333	-4.5354	-4.4292	-3.7917	-4.7708	-3.9625	165.137	52.845	314.709	31.166	61.718	115.393	290.496	223.397	70.415	133.656	134.666	280.369	36.030	183.431	236.741	3.886	0.00011502	0.00027057	0.00010762	1254.3	1.6497e-06	2.3124e-06	1345.2	263.31	3.0535e-06	2.6301e-06	330.71	92.114	72.986	21.512	2.7936e-06	29.472	3.6808e-05	3.2965e-05	9.3453e-06	1132.8	3.82e-07	3.7049e-07	1214.8	238.04	3.7583e-07	3.5739e-07	290.98	82.154	64.913	19.184	3.5713e-07	26.039	212.936	36.387	22.227	-13.896	124.589	129.735	-13.479	-6.222	119.344	99.264	-7.210	0.005	0.807	7.000	47.748	6.682	-8191	255	
44348.410	1	1	0	0	0.11527	0.17289	0.14321	0.15736	0.11055	0.089981	0.17423	0.30277	0.028074	0.18981	0.23483	0.1432	0.088311	0.16884	0.17287	0.099166	-3.6917	-4.6542	-3.6562	-4.4896	-4.5146	-3.6896	-4.8646	-3.9958	-3.9333	-4.7125	-3.9229	-4.5146	-4.6458	-3.6292	-4.675	-4.0687	249.691	16.601	30.334	281.765	117.559	-10.289	246.771	202.786	248.011	331.671	268.558	13.166	273.182	248.156	244.520	97.635	9.6662e-05	0.00028976	0.00011511	1248.6	8.1013e-07	1.8787e-06	1344.2	262.35	1.3216e-06	3.9312e-06	329.07	91.445	73.355	21.526	1.3064e-06	29.27	3.6609e-05	3.2833e-05	9.2851e-06	1132.2	3.7916e-07	3.6224e-07	1214.1	237.77	3.7462e-07	3.6446e-07	289.76	82.096	64.982	19.195	3.5259e-07	25.933	177.210	-6.662	31.973	-13.931	134.839	178.660	-13.684	-6.388	104.479	73.608	-6.594	0.170	0.560	7.374	117.536	7.039	-8191	255	
44348.527	1	1	0	0	0.12083	0.057461	0.079021	0.23447	0.22508	0.16638	0.44677	0.14346	0.089337	0.082924	0.14316	0.13611	0.062809	0.05486	0.16865	0.085271	-3.6875	-4.5229	-3.7542	-4.2104	-4.5083	-3.7104	-4.6604	-4.375	-3.8208	-4.5479	-3.8083	-4.1896	-4.5729	-3.8896	-4.5417	-4.3792	272.306	55.016	167.427	301.935	219.775	163.688	274.061	54.525	80.258	56.601	244.577	302.927	57.600	215.085	41.466	281.507	0.00012511	0.00016429	0.00011011	1256.5	2.1422e-06	3.0237e-06	1338.6	262.06	1.9597e-06	2.0203e-06	326.39	90.98	72.272	21.227	2.7341e-06	29.531	3.5467e-05	3.2851e-05	9.2561e-06	1134.8	3.749e-07	3.6543e-07	1212.7	237.79	3.7313e-07	3.4888e-07	290.21	81.86	64.586	19.09	3.5811e-07	25.96	184.030	-17.257	12.538	-13.918	108.185	145.940	-13.669	-6.153	162.858	113.038	-6.594	0.394	1.100	7.790	132.396	7.130	-8191	255	
44348.625	1	1	0	0	0.064576	0.08227	0.20495	0.15078	0.036759	0.091235	0.20442	0.14577	0.16834	0.098591	0.1957	0.27188	0.19623	0.06617	0.2553	0.06601	-3.6875	-4.6917	-3.7896	-4.2479	-4.6083	-3.7979	-4.6312	-4.4667	-3.725	-4.7438	-3.9854	-3.9229	-4.5208	-3.6167	-4.3583	-4.3833	145.642	264.643	182.941	310.021	276.384	-15.011	277.433	258.811	304.747	235.495	290.537	226.730	315.124	245.770	214.163	125.995	0.00011504	0.00016213	6.357e-05	1250.9	1.1434e-06	1.3872e-06	1342.5	263.62	1.8164e-06	2.0815e-06	328.09	91.203	72.753	21.539	2.2837e-06	29.505	3.635e-05	3.2952e-05	9.0923e-06	1132.1	3.7239e-07	3.7218e-07	1213.4	237.88	3.5931e-07	3.5616e-07	290.01	81.862	64.714	19.137	3.516e-07	25.932	180.860	40.786	11.684	-14.032	115.478	121.974	-13.548	-6.326	131.613	98.333	-6.304	-0.157	0.971	7.232	143.277	7.031	-8191	255	
44348.723	1	1	0	0	0.08866	0.048681	0.23895	0.27071	0.093455	0.14246	0.093804	0.10203	0.18826	0.27266	0.19122	0.21751	0.17907	0.033278	0.28133	0.079317	-3.5312	-4.6083	-4.0625	-4.0771	-4.7354	-3.7875	-4.5771	-4.6188	-3.6667	-4.575	-4.1875	-3.8583	-4.7542	-3.7667	-4.3562	-4.5458	178.997	275.236	38.905	284.262	311.616	31.208	242.043	298.970	154.033	130.542	-5.138	143.015	194.986	271.913	132.115	237.236	8.8997e-05	0.00022032	7.3348e-05	1253.6	2.174e-06	1.9979e-06	1344.9	263.56	3.2347e-06	2.2899e-06	329.96	91.345	72.589	21.535	1.8596e-06	29.476	3.618e-05	3.2136e-05	9.2339e-06	1131.9	3.6933e-07	3.5611e-07	1211.9	238.07	3.6859e-07	3.5578e-07	290.21	82.051	64.574	19.151	3.6147e-07	26.008	195.081	62.596	18.594	-14.056	163.585	121.991	-13.980	-6.673	184.913	77.913	-7.199	0.472	0.534	7.037	83.862	6.629	-8191	255	
44348.840	1	1	0	0	0.1971	0.11939	0.15476	0.035384	0.13465	0.20523	0.22202	0.25612	0.2699	0.11141	0.10705	0.12984	0.22455	0.14712	0.13109	0.14519	-3.4062	-4.6813	-4.1917	-4.0813	-4.8187	-3.8979	-4.4333	-4.8354	-3.6917	-4.4729	-4.3146	-3.7333	-4.6438	-4.0125	-4.1062	-4.7688	63.821	140.474	254.215	-3.210	163.000	149.754	240.218	332.055	31.362	89.034	-17.217	272.565	296.031	67.662	318.995	261.985	0.00010032	0.0001862	1.7304e-05	1254.3	1.9393e-06	3.0571e-06	1347.2	264.21	2.6488e-07	2.0307e-06	328.37	91.277	73.004	21.474	7.9858e-07	29.635	3.6716e-05	3.3161e-05	8.9097e-06	1131.9	3.787e-07	3.55e-07	1214	238.12	3.6078e-07	3.5028e-07	289.36	81.848	64.67	19.143	3.6294e-07	26.033	181.560	51.430	58.301	-14.179	71.548	117.743	-13.967	-6.339	163.180	132.486	-7.008	0.256	0.609	6.881	98.165	7.196	-8191	255	
44348.914	1	1	0	0	0.18005	0.19824	0.16755	0.24517	0.20269	0.12493	0.23969	0.27683	0.055694	0.10754	0.34103	0.072218	0.36335	0.095133	0.090745	0.20367	-3.3729	-4.5479	-4.3688	-3.9354	-4.7188	-3.975	-4.1	-4.7208	-3.7417	-4.3229	-4.4083	-3.8458	-4.7458	-4.0042	-3.9938	-4.7667	187.404	199.031	298.634	303.894	226.006	312.401	313.367	290.411	94.377	323.331	298.071	43.471	200.531	309.527	269.724	12.457	0.00012247	0.00035462	9.5209e-05	1257.2	3.4271e-06	2.0001e-06	1349	263.1	2.5195e-06	1.2135e-06	332.3	91.194	72.789	21.661	2.5386e-06	29.635	3.6261e-05	3.1382e-05	9.0068e-06	1133.5	3.662e-07	3.4828e-07	1214.5	237.68	3.7342e-07	3.4277e-07	290.56	81.786	64.649	19.217	3.5259e-07	26.011	174.360	63.937	33.121	-14.141	108.141	88.211	-13.959	-6.628	170.344	18.007	-6.898	0.004	0.498	6.927	103.016	6.819	-8191	255	
44349.008	1	1	0	0	0.096653	0.1789	0.13416	0.14404	0.20772	0.046681	0.14127	0.23063	0.14448	0.072184	0.084249	0.045139	0.19994	0.10017	0.11602	0.10476	-3.5563	-4.3583	-4.4479	-3.8812	-4.5667	-4.1896	-4.0854	-4.7625	-3.9354	-4.1771	-4.7021	-3.8646	-4.5667	-4.3625	-3.8896	-4.7625	317.237	253.953	44.688	241.648	287.641	151.635	224.969	199.179	59.269	-11.424	94.128	218.106	192.063	51.015	15.394	29.370	0.00012875	0.00028568	5.3574e-05	1258.2	2.0801e-06	1.0008e-06	1347	263.28	2.1005e-06	2.8388e-06	329.78	91.071	73.251	21.667	2.9356e-06	29.344	3.5317e-05	3.206e-05	8.5351e-06	1133.6	3.6326e-07	3.491e-07	1213.8	237.88	3.6448e-07	3.4513e-07	289.95	81.592	64.774	19.146	3.474e-07	25.905	182.213	0.092	10.783	-13.927	144.391	108.366	-13.741	-6.489	102.257	41.605	-7.078	-0.005	0.554	7.026	114.301	7.001	-8191	255	
44349.129	1	1	0	0	0.24304	0.084251	0.15803	0.14681	0.066179	0.052379	0.30735	0.18082	0.060933	0.057972	0.17978	0.22103	0.10215	0.22739	0.35107	0.10979	-3.5542	-4.1625	-4.4625	-3.8646	-4.5813	-4.3646	-3.9375	-4.7063	-4.0729	-4.1625	-4.8125	-3.8854	-4.6333	-4.4375	-3.7896	-4.7375	224.542	249.519	28.559	287.599	62.352	14.116	237.672	290.764	19.136	105.070	113.954	-18.409	230.863	117.857	206.571	21.094	0.00010466	0.00024277	6.7183e-05	1254.6	2.1723e-06	7.6633e-07	1342.8	262.68	1.2166e-06	1.7552e-06	329.77	91.951	73.484	21.369	6.6937e-07	29.399	3.5241e-05	3.1796e-05	8.5125e-06	1131.9	3.5432e-07	3.3582e-07	1211.2	237.23	3.6058e-07	3.3841e-07	289.6	81.838	64.632	19.046	3.5499e-07	25.857	195.322	29.153	45.411	-13.889	104.521	147.464	-13.880	-6.474	210.983	15.045	-6.528	0.569	0.304	7.501	166.064	6.824	-8191	255	
44349.223	1	1	0	0	0.089435	0.059638	0.10432	0.30301	0.091755	0.31729	0.078215	0.11317	0.37714	0.0061474	0.12597	0.16388	0.15465	0.14007	0.12238	0.23198	-3.8563	-4.0521	-4.575	-3.9313	-4.3938	-4.5833	-3.8646	-4.8521	-3.9354	-3.8688	-4.6438	-4.0312	-4.3354	-4.4146	-3.6417	-4.3646	1.533	182.907	172.804	306.900	-22.842	319.335	36.710	294.176	143.739	137.155	275.762	233.080	57.561	197.650	259.217	295.813	0.00010165	0.00022905	3.9901e-05	1254.6	1.5769e-06	3.1033e-06	1345.8	262.04	1.1247e-06	2.8725e-06	328.96	91.115	73.024	21.474	3.04e-06	29.393	3.5146e-05	3.0758e-05	8.6405e-06	1130.1	3.5599e-07	3.3383e-07	1210.2	236.83	3.4384e-07	3.4431e-07	289.15	81.762	64.681	19.122	3.4504e-07	25.851	197.315	37.452	19.192	-13.952	88.029	161.624	-14.142	-6.623	156.501	89.259	-6.987	0.403	0.519	7.515	120.907	6.385	-8191	255	
44349.320	1	1	0	0	0.2598	0.019929	0.13737	0.092763	0.080116	0.078407	0.17626	0.040693	0.22139	0.2989	0.12605	0.065323	0.18884	0.16244	0.21207	0.17773	-3.8375	-3.9104	-4.7688	-3.8729	-4.175	-4.4646	-3.9583	-4.7396	-4.2083	-3.6542	-4.825	-3.975	-4.2083	-4.6167	-3.6917	-4.5542	147.099	250.114	7.255	-9.215	195.341	-20.450	301.946	249.970	235.028	2.455	100.449	302.303	274.460	275.013	104.595	32.716	0.00012664	0.00011509	7.0028e-05	1251.3	1.8772e-06	1.8519e-06	1340.3	262.49	2.8506e-06	3.1063e-06	333.08	92.122	73.518	21.805	2.1809e-06	29.778	3.517e-05	3.1226e-05	8.6989e-06	1129	3.5505e-07	3.3423e-07	1209.9	236.93	3.6087e-07	3.3884e-07	290.26	81.759	64.72	19.149	3.4738e-07	25.901	181.719	67.340	24.977	-13.940	162.106	152.142	-13.868	-6.771	120.638	124.613	-7.284	-0.018	0.130	6.645	71.402	6.242	-8191	255	
44349.414	1	1	0	0	0.19822	0.072068	0.19468	0.2842	0.27537	0.15858	0.05934	0.20688	0.10935	0.11948	0.17922	0.19093	0.16875	0.15041	0.050159	0.088855	-4.1042	-3.9313	-4.6625	-4.075	-4.0208	-4.5563	-3.8854	-4.5458	-4.2875	-3.6479	-4.8521	-4.0542	-4.0271	-4.7271	-3.6083	-4.4938	233.185	216.213	9.272	325.240	1.573	153.966	270.632	2.240	72.035	47.117	117.703	110.538	237.646	274.248	-18.848	252.372	0.00011176	0.00022503	9.9387e-05	1255.9	1.7316e-06	4.0252e-06	1344.4	262.85	1.9746e-06	3.9545e-06	330.14	90.783	73.096	21.478	2.5765e-06	29.381	3.4315e-05	3.2083e-05	8.5163e-06	1130.5	3.5667e-07	3.3966e-07	1208.8	236.86	3.5534e-07	3.3804e-07	289.56	81.574	64.427	19.135	3.4468e-07	25.891	167.922	73.014	-0.059	-14.292	98.198	120.227	-14.191	-6.496	127.654	84.964	-6.897	0.102	0.670	7.195	109.869	6.442	-8191	255	
44349.488	1	1	0	0	0.023917	0.18567	0.030215	0.3136	0.09791	0.10618	0.24931	0.12859	0.10431	0.073598	0.25103	0.040904	0.22124	0.10821	0.20504	0.13387	-4.125	-3.7292	-4.5104	-4.2333	-3.8333	-4.7438	-3.9646	-4.2792	-4.4583	-3.8312	-4.5333	-4.0958	-3.9437	-4.7771	-3.9188	-4.2833	169.380	116.851	121.594	311.902	214.554	229.159	255.250	17.574	182.501	206.321	306.415	89.691	40.352	278.611	255.966	228.553	0.0001207	0.00022747	6.4624e-05	1255.7	2.1014e-06	3.2575e-06	1344	263.2	1.0939e-06	2.5008e-06	330.2	90.417	72.985	21.456	1.5501e-06	29.571	3.3756e-05	3.0734e-05	8.435e-06	1130.4	3.5438e-07	3.3292e-07	1208.6	237.15	3.4724e-07	3.3878e-07	289.3	81.491	64.532	19.049	3.5007e-07	25.901	204.330	69.339	66.210	-14.037	106.710	111.381	-13.657	-6.915	107.735	92.994	-7.022	0.136	0.556	7.452	106.308	6.356	-8191	255	
44349.609	1	1	0	0	0.15023	0.073781	0.075731	0.26859	0.10823	0.12139	0.17589	0.094265	0.13343	0.21785	0.32848	0.047704	0.26279	0.28535	0.30229	0.12592	-4.1542	-3.6917	-4.5583	-4.4208	-3.6604	-4.7625	-4.0667	-4.1708	-4.65	-3.7438	-4.5521	-4.3604	-3.7375	-4.7583	-3.9167	-4.1104	272.096	326.821	276.700	307.403	183.884	212.799	22.708	306.943	24.150	4.491	0.213	252.553	71.445	291.592	171.321	55.346	0.00011021	0.00020194	6.7117e-05	1249.2	1.3883e-06	3.9255e-06	1337.8	262.24	2.6706e-06	2.3554e-06	326.62	90.521	72.858	21.579	1.4522e-06	29.454	3.3624e-05	3.0082e-05	8.6428e-06	1128.5	3.5469e-07	3.2327e-07	1207.1	235.92	3.4862e-07	3.2811e-07	287.95	81.388	64.342	19.049	3.3939e-07	25.857	213.503	65.568	62.932	-13.962	103.228	122.158	-13.823	-6.371	157.653	66.122	-6.724	0.435	0.739	6.940	65.669	6.722	-8191	255	
44349.703	1	1	0	0	0.28707	0.21283	0.15905	0.23578	0.032097	0.13771	0.04672	0.18474	0.1882	0.081173	0.28359	0.13482	0.17468	0.24248	0.21535	0.10063	-4.3208	-3.7458	-4.5062	-4.4313	-3.6604	-4.5458	-4.1125	-3.9583	-4.7354	-3.6542	-4.3625	-4.5021	-3.6937	-4.6521	-4.1667	-3.8646	134.359	333.295	59.292	3.000	159.550	101.950	88.935	271.659	57.086	103.471	307.625	258.504	261.420	-1.664	100.029	38.623	0.00012863	0.0002207	7.0558e-05	1249.3	1.9582e-06	2.2571e-06	1334	262.03	3.4713e-06	2.3926e-06	327.22	91.02	72.098	21.297	1.4729e-06	29.114	3.4171e-05	3.0672e-05	8.5393e-06	1128.2	3.5382e-07	3.3407e-07	1206.1	236.38	3.5807e-07	3.4154e-07	287.75	81.496	64.29	18.982	3.4758e-07	25.833	169.710	45.274	9.756	-13.869	158.968	173.963	-14.053	-6.365	158.917	139.362	-7.083	0.458	0.691	7.260	36.588	6.643	-8191	255	
44349.801	1	1	0	0	0.23096	0.14709	0.15059	0.13347	0.091843	0.1756	0.28907	0.26617	0.066413	0.19446	0.050095	0.075356	0.17104	0.019659	0.31381	0.28892	-4.4917	-3.8479	-4.3521	-4.6104	-3.6875	-4.5646	-4.4708	-3.9646	-4.65	-3.7625	-4.3396	-4.6417	-3.8521	-4.5062	-4.1979	-3.8729	124.815	287.001	175.053	262.542	201.798	194.927	296.502	216.856	158.098	38.420	285.090	282.168	57.503	164.751	121.088	288.187	0.00011324	5.8536e-05	8.506e-05	1251	1.5094e-06	2.6542e-06	1338.7	260.49	2.2448e-06	2.6565e-06	325.53	90.42	72.719	21.44	1.7605e-06	29.079	3.4879e-05	3.2006e-05	8.7497e-06	1126.4	3.557e-07	3.2448e-07	1206.4	235.17	3.3921e-07	3.2916e-07	287.27	81.19	64.278	18.999	3.4527e-07	25.707	190.376	34.660	41.886	-14.015	140.445	107.439	-13.589	-6.401	142.691	103.515	-7.077	0.399	0.517	7.373	85.130	6.500	-8191	255	
44349.922	1	1	0	0	0.30271	0.20721	0.14674	0.0812	0.098565	0.27302	0.21493	0.024059	0.2549	0.16621	0.13692	0.096573	0.017307	0.26352	0.05948	0.072345	-4.5021	-3.8417	-4.1417	-4.7875	-3.65	-4.4896	-4.425	-4.0583	-4.6521	-4.0417	-4.1937	-4.7167	-3.7104	-4.4271	-4.4458	-3.7438	-21.309	253.433	196.237	215.978	95.189	279.465	278.355	136.748	122.766	150.495	204.789	298.904	124.903	225.249	65.477	269.762	9.174e-05	0.00020138	9.7847e-05	1247.2	1.6935e-06	1.7711e-06	1336	260.57	1.2358e-06	2.8985e-06	325.54	91.122	72.406	21.299	2.0239e-06	29.152	3.4205e-05	3.1605e-05	8.4079e-06	1124.3	3.5599e-07	3.3534e-07	1204.2	235.2	3.462e-07	3.3601e-07	287.12	81.277	64.04	18.986	3.4325e-07	25.658	189.456	71.137	20.023	-13.817	161.910	102.685	-13.765	-6.399	93.365	108.408	-7.014	0.008	0.718	6.989	95.645	6.558	-8191	255	
44350.020	1	1	0	0	0.10415	0.045197	0.20179	0.081981	0.35416	0.15676	0.078634	0.27983	0.24508	0.16869	0.061342	0.15288	0.15641	0.093079	0.1648	0.17655	-4.3688	-3.9333	-4.0563	-4.9083	-3.6479	-4.2458	-4.6542	-3.8167	-4.7479	-4.1937	-3.8896	-4.8833	-3.8729	-4.4688	-4.6458	-3.7146	265.323	121.735	198.864	166.001	300.244	88.337	178.956	255.740	137.888	114.319	22.580	313.298	298.855	317.693	64.550	300.296	0.00012023	0.00034389	6.7584e-05	1245.4	2.6385e-06	2.5437e-06	1328.8	260.73	2.5984e-06	1.6991e-06	324.25	90.725	71.846	21.185	2.9287e-06	29.003	3.432e-05	3.1087e-05	9.0324e-06	1123.3	3.5774e-07	3.3245e-07	1204.3	234.66	3.2309e-07	3.2271e-07	286.46	81.031	63.792	18.901	3.3673e-07	25.671	181.173	28.673	316.501	-14.063	104.942	105.737	-13.576	-6.621	155.177	92.495	-6.918	0.624	0.583	7.353	69.837	6.923	-8191	255	
44350.113	1	1	0	0	0.052675	0.13966	0.21117	0.28065	0.11023	0.051845	0.028021	0.16514	0.12909	0.1638	0.18681	0.10164	0.11598	0.22975	0.15455	0.26064	-4.2271	-4.175	-3.7833	-4.9354	-3.8042	-4.2292	-4.7229	-3.9062	-4.5021	-4.3792	-4.0375	-4.6521	-3.9208	-4.25	-4.425	-3.7833	151.804	83.343	261.645	274.125	286.286	116.341	96.310	233.792	17.825	228.155	103.226	6.941	47.398	-10.031	261.720	-10.128	0.00010448	0.00026002	9.314e-05	1239.7	3.7489e-06	2.1761e-06	1328.8	260	2.2446e-06	2.7744e-06	324.04	90.462	71.905	21.252	2.2835e-06	29.254	3.3719e-05	2.9734e-05	8.5566e-06	1121.6	3.5175e-07	3.3525e-07	1201.8	234.45	3.4108e-07	3.3716e-07	286.57	80.908	63.867	18.922	3.3459e-07	25.684	204.604	30.357	28.561	-13.651	116.623	113.569	-13.543	-6.179	130.167	101.154	-7.191	0.387	0.467	7.371	99.604	6.959	-8191	255	
44350.211	1	1	0	0	0.12268	0.14777	0.050451	0.26029	0.12858	0.10681	0.21092	0.26436	0.18463	0.040278	0.23759	0.12085	0.1377	0.11611	0.11808	0.13555	-4.1104	-4.3979	-3.6625	-4.7063	-3.8542	-4.1062	-4.8438	-3.7271	-4.3417	-4.5	-3.7833	-4.6333	-4.075	-3.9979	-4.6104	-3.9396	199.622	213.780	302.154	326.917	26.253	252.864	230.070	313.070	-2.163	332.964	-16.077	60.065	285.975	25.932	102.398	330.179	0.00010887	0.00011627	5.1983e-05	1242	5.4764e-07	1.664e-06	1327.6	259.32	2.0029e-06	2.8091e-06	326.22	90.184	71.737	21.107	2.857e-06	29.141	3.4112e-05	3.0973e-05	8.6989e-06	1122.7	3.5633e-07	3.3852e-07	1201.2	234.26	3.5746e-07	3.4894e-07	286.61	80.94	63.87	18.85	3.3613e-07	25.779	185.205	3.434	28.132	-14.083	170.197	113.195	-13.666	-6.575	211.873	49.832	-6.803	0.535	0.669	7.389	79.824	6.484	-8191	255	
44350.305	1	1	0	0	0.077638	0.06292	0.21271	0.24844	0.27041	0.16968	0.2294	0.15132	0.15101	0.063885	0.21824	0.046108	0.13585	0.095459	0.13911	0.042947	-3.9375	-4.5333	-3.7229	-4.6458	-4.1229	-3.9792	-4.8521	-3.9708	-4.2292	-4.5521	-3.8583	-4.7146	-4.2625	-3.9771	-4.65	-4.0479	197.414	24.290	19.782	222.995	188.632	77.751	284.489	257.577	39.879	190.608	325.186	262.077	138.811	92.307	173.003	-3.815	0.0001297	0.00020227	9.4402e-05	1241	3.5458e-06	2.692e-06	1326.5	259.24	1.0774e-06	1.4465e-06	324.22	90.616	71.265	21.076	2.5891e-06	29.115	3.5432e-05	3.2153e-05	8.7437e-06	1123	3.727e-07	3.5598e-07	1201.8	234.23	3.6338e-07	3.4255e-07	285.87	81.02	63.583	18.866	3.4777e-07	25.684	188.889	105.874	41.295	-13.569	126.998	151.802	-13.708	-6.068	153.204	11.279	-6.644	0.073	1.042	7.437	116.556	6.791	-8191	255	
44350.402	1	1	0	0	0.16779	0.1524	0.080793	0.25272	0.23316	0.24917	0.11898	0.1112	0.10432	0.10916	0.077097	0.17071	0.26493	0.23583	0.082374	0.22592	-4	-4.7312	-3.8083	-4.675	-4.2208	-3.95	-4.9229	-4.3021	-4.1083	-4.5479	-3.7521	-4.5188	-4.4938	-3.8646	-4.5521	-3.9021	32.965	133.767	42.791	285.545	34.285	297.657	147.869	144.831	283.674	137.672	216.470	136.777	-13.389	-8.698	92.689	49.605	0.00012013	0.00026885	4.528e-05	1233.1	2.5306e-06	1.4937e-06	1325	258.25	3.4545e-06	3.9091e-06	322.67	89.983	71.484	21.178	2.6443e-06	28.859	3.5146e-05	3.0554e-05	8.7106e-06	1120.7	3.6991e-07	3.3939e-07	1197.6	233.57	3.5623e-07	3.3305e-07	286.1	80.888	63.711	18.885	3.4156e-07	25.659	187.621	49.020	58.918	-13.857	134.628	74.477	-13.488	-5.966	118.787	100.775	-6.732	0.172	0.885	7.552	87.954	7.458	-8191	255	
44350.520	1	1	0	0	0.19752	0.04984	0.11614	0.18083	0.1829	0.1852	0.20664	0.088798	0.084576	0.20152	0.11444	0.063876	0.072981	0.16112	0.13917	0.32338	-3.6521	-4.6771	-3.6708	-4.6354	-4.4042	-3.6854	-4.8479	-4.3438	-3.8646	-4.7667	-3.8542	-4.3583	-4.5437	-3.775	-4.7063	-4.3313	53.337	184.658	-14.237	-7.098	213.393	123.806	275.467	111.117	274.078	169.729	125.303	214.308	235.700	164.276	213.222	-7.985	0.00011533	0.0002067	1.8771e-05	1238.1	3.3176e-06	1.9968e-06	1318.9	259.32	2.9158e-06	3.1685e-06	325.32	89.823	71.82	21.136	3.1921e-06	29.029	3.43e-05	3.1337e-05	8.9187e-06	1121	3.5256e-07	3.3855e-07	1200.5	233.91	3.5664e-07	3.5589e-07	286.49	80.68	63.784	18.841	3.5171e-07	25.64	192.839	69.606	316.997	-13.693	158.119	96.330	-13.440	-6.168	149.339	90.799	-6.927	0.408	0.693	7.699	98.483	6.927	-8191	255	
44350.617	1	1	0	0	0.17894	0.12408	0.1657	0.24206	0.1077	0.22004	0.18004	0.085388	0.22094	0.19352	0.069982	0.13505	0.09545	0.16527	0.043998	0.19737	-3.6979	-4.6562	-3.7729	-4.3375	-4.5979	-3.9458	-4.7063	-4.4313	-3.6854	-4.6708	-3.8479	-4.2604	-4.7042	-3.6146	-4.5604	-4.3479	223.311	98.054	50.412	293.242	169.009	245.327	233.111	17.017	210.833	26.475	-9.402	291.598	106.886	-16.427	110.300	175.504	0.0001324	0.00028215	0.00011404	1236.2	2.4076e-06	2.6011e-06	1326.3	257.61	4.1411e-06	8.6608e-07	324.59	89.645	71.563	21.121	2.8189e-06	29.073	3.4219e-05	3.1777e-05	9.0806e-06	1121	3.6815e-07	3.5476e-07	1201.4	233.91	3.7222e-07	3.4319e-07	286.48	80.748	63.677	18.893	3.5209e-07	25.655	193.506	22.231	10.421	-13.833	153.997	81.056	-13.460	-6.149	129.301	104.973	-6.746	0.334	0.783	7.717	109.144	6.950	-8191	255	
44350.715	1	1	0	0	0.10796	0.16943	0.11408	0.26212	0.10169	0.32962	0.25878	0.1795	0.19636	0.14592	0.16737	0.36814	0.14388	0.088086	0.099661	0.12808	-3.4125	-4.6687	-3.9	-4.1646	-4.625	-3.7458	-4.5771	-4.6	-3.7333	-4.7354	-4.1146	-4.1604	-4.6229	-3.9042	-4.2812	-4.4583	329.881	0.716	232.518	269.742	177.576	322.048	270.292	222.218	190.692	178.925	252.109	69.299	139.671	334.635	232.139	81.869	0.00011601	0.00014095	7.9099e-05	1234.5	1.1526e-06	5.3475e-07	1324.3	257.26	2.0456e-06	3.4847e-06	322.68	89.426	71.355	21.185	2.3115e-06	28.922	3.4766e-05	3.1519e-05	8.857e-06	1118.6	3.7377e-07	3.5059e-07	1199.4	233.51	3.6838e-07	3.5473e-07	285.59	80.637	63.705	18.895	3.5878e-07	25.674	190.787	46.099	0.813	-13.849	134.861	116.213	-13.447	-6.491	102.482	96.871	-6.743	0.792	0.742	7.171	124.803	6.785	-8191	255	
44350.785	1	1	0	0	0.050505	0.094332	0.20831	0.43087	0.11068	0.23933	0.12461	0.09219	0.28807	0.19698	0.35894	0.058355	0.30306	0.048778	0.22099	0.099072	-3.4188	-4.8271	-3.9104	-4.025	-4.6479	-3.825	-4.5167	-4.4958	-3.7208	-4.5917	-4.1521	-4.0958	-4.7104	-3.9979	-4.1583	-4.6646	190.005	297.334	126.036	278.747	43.585	245.635	238.859	319.019	189.469	59.170	273.444	45.654	335.315	280.952	302.118	112.697	9.6418e-05	0.00025603	0.00010425	1237.7	2.3413e-06	1.2504e-06	1326.9	256.33	1.9182e-06	1.4906e-06	325.29	89.593	72.182	21.133	2.479e-06	29.058	3.5695e-05	3.2781e-05	9.2455e-06	1120	3.7205e-07	3.6289e-07	1200.2	233.14	3.6954e-07	3.4424e-07	286.27	80.685	63.829	18.87	3.5746e-07	25.708	163.548	15.355	37.422	-14.012	173.870	56.011	-13.542	-6.163	182.156	121.973	-6.493	0.151	0.598	7.594	90.287	6.724	-8191	255	
44350.906	1	1	0	0	0.2112	0.080073	0.12621	0.29452	0.045326	0.11602	0.14511	0.13925	0.16091	0.32879	0.15829	0.15102	0.20172	0.17375	0.06986	0.28187	-3.3771	-4.6604	-4.2396	-3.9208	-4.7542	-3.95	-4.2312	-4.8875	-3.8646	-4.4875	-4.4896	-3.8479	-4.7667	-3.925	-4.075	-4.7417	47.394	319.229	123.885	236.839	288.251	171.013	243.963	-13.637	228.078	35.128	293.964	247.489	-19.292	29.882	82.616	284.677	0.00013883	0.00010591	0.00015693	1236.1	1.8403e-06	2.1639e-06	1328.6	257.57	2.349e-06	1.8117e-06	325.18	89.55	71.544	21.031	2.752e-06	29.185	3.6456e-05	3.1397e-05	8.9997e-06	1119.5	3.7379e-07	3.5042e-07	1198.6	233.7	3.6095e-07	3.4785e-07	286.46	80.55	63.737	18.834	3.6913e-07	25.597	170.683	325.187	71.199	-14.219	136.955	63.349	-13.638	-6.238	162.400	94.738	-6.682	0.101	1.043	7.144	67.582	6.783	-8191	255	
44351.004	1	1	0	0	0.15289	0.072541	0.084421	0.42723	0.097798	0.19358	0.22238	0.26173	0.1472	0.2965	0.14418	0.14455	0.11046	0.052178	0.07431	0.18839	-3.4437	-4.4062	-4.5333	-4.0479	-4.6604	-3.9979	-4.0333	-4.6958	-3.725	-4.4375	-4.5813	-3.8312	-4.6146	-4.1729	-3.9146	-4.7083	90.184	256.629	102.780	307.688	22.361	162.368	244.798	8.512	210.145	270.751	288.272	25.969	224.624	105.928	75.086	275.765	0.00013159	0.00014426	8.5015e-05	1239.1	2.0521e-06	9.8345e-07	1330.4	259.97	9.8264e-07	1.7603e-06	324.51	89.898	71.684	21.255	2.1332e-06	29.352	3.6521e-05	3.1184e-05	9.2357e-06	1120.6	3.6877e-07	3.5794e-07	1200.9	233.8	3.7195e-07	3.5638e-07	285.87	80.613	63.814	18.889	3.6957e-07	25.739	183.228	67.875	80.748	-14.213	76.965	114.039	-13.961	-6.292	154.060	118.293	-6.859	-0.026	0.477	7.258	135.921	6.886	-8191	255	
44351.098	1	1	0	0	0.12311	0.25028	0.20214	0.095629	0.14979	0.14071	0.26166	0.21207	0.075406	0.25763	0.17182	0.25284	0.17633	0.17887	0.17438	0.13351	-3.5062	-4.2167	-4.5479	-3.7438	-4.6354	-4.0437	-3.8875	-4.7375	-3.9562	-4.2396	-4.7271	-3.8542	-4.6083	-4.3958	-3.7167	-4.6479	148.026	179.969	200.523	244.360	142.287	81.302	262.011	238.885	286.156	-1.845	221.933	261.079	328.513	2.178	0.338	200.881	0.00011026	0.00028128	0.00012094	1239.9	1.7426e-06	1.9296e-06	1326	259.32	2.4687e-06	1.9628e-06	324.24	90.336	71.829	21.306	1.2653e-06	29.391	3.5847e-05	3.2823e-05	9.0727e-06	1121.9	3.7207e-07	3.6416e-07	1199.5	233.83	3.7922e-07	3.6093e-07	285.65	80.856	63.726	18.916	3.667e-07	25.75	182.418	54.024	-13.200	-14.103	129.915	155.142	-13.838	-6.446	100.398	49.269	-6.659	0.318	0.715	7.372	122.853	7.049	-8191	255	
44351.195	1	1	0	0	0.23003	0.052517	0.052525	0.19213	0.22678	0.33071	0.28021	0.082506	0.068382	0.1255	0.13335	0.10881	0.17681	0.24655	0.070343	0.22018	-3.5083	-4.0833	-4.6417	-3.7708	-4.5208	-4.2937	-4.0104	-4.7542	-3.9458	-4.0396	-4.725	-3.8625	-4.5958	-4.4875	-3.6708	-4.7375	79.523	226.290	135.190	227.149	248.842	11.759	228.003	41.801	69.076	42.339	46.784	274.651	219.059	289.151	142.184	319.458	8.653e-05	0.00025185	8.4644e-05	1237.4	2.1942e-06	2.2683e-06	1331.1	258.9	1.6878e-06	2.5707e-06	325.5	90.477	72.277	21.193	3.0943e-06	29.222	3.6396e-05	3.3432e-05	9.1397e-06	1119.6	3.6864e-07	3.6748e-07	1198.2	234.08	3.7906e-07	3.5526e-07	286.3	80.819	63.9	18.869	3.8232e-07	25.721	194.676	14.568	25.950	-14.351	98.034	216.447	-13.954	-6.756	182.986	65.399	-6.925	-0.216	0.556	7.275	114.297	6.654	-8191	255	
44351.312	1	1	0	0	0.047354	0.16264	0.0061802	0.20304	0.12648	0.20525	0.23207	0.31232	0.21609	0.080831	0.20699	0.36858	0.15879	0.011264	0.13416	0.08196	-3.7646	-4.0083	-4.5042	-4.0521	-4.2771	-4.4521	-3.8396	-4.7542	-4.15	-3.8854	-4.7438	-3.7271	-4.3417	-4.5354	-3.7271	-4.6792	253.601	181.589	302.360	13.593	139.249	78.279	203.311	227.065	221.370	301.730	61.332	322.245	324.522	278.915	112.116	313.038	0.00011547	0.0002129	7.3981e-05	1246.9	3.6713e-06	2.4474e-06	1333.6	258.55	2.6479e-06	2.4391e-06	323.37	90.272	72.043	21.29	2.5034e-06	29.517	3.7446e-05	3.3883e-05	9.0622e-06	1122.7	3.8681e-07	3.5999e-07	1199.7	233.6	3.8858e-07	3.6581e-07	285.71	80.673	63.768	18.887	3.885e-07	25.77	187.875	61.847	71.011	-13.969	108.114	129.022	-13.981	-6.319	147.298	131.212	-6.820	0.349	1.030	7.338	103.488	6.614	-8191	255	
44351.387	1	1	0	0	0.14963	0.11731	0.006491	0.42055	0.15647	0.19144	0.092542	0.13798	0.047672	0.1206	0.18203	0.1071	0.21121	0.053552	0.1371	0.26303	-3.8271	-3.9167	-4.6583	-3.9625	-4.1292	-4.4521	-3.8417	-4.5729	-4.2812	-3.7708	-4.7667	-3.9062	-4.2312	-4.6479	-3.775	-4.4979	19.024	285.022	166.744	316.600	302.859	270.752	245.501	318.167	213.864	148.104	255.072	77.683	266.638	257.450	80.914	255.675	0.00011948	0.0003603	0.0001019	1238.9	2.9679e-06	2.1566e-06	1332.9	259	1.6225e-06	3.5429e-06	324.06	90.267	71.614	21.396	2.0737e-06	29.137	3.7368e-05	3.3876e-05	9.6676e-06	1120	3.934e-07	3.697e-07	1200.3	233.41	3.8778e-07	3.738e-07	285.81	80.58	63.68	18.927	3.6935e-07	25.649	187.948	54.141	33.666	-14.244	104.207	126.785	-14.005	-6.622	153.073	117.810	-6.876	-0.054	0.256	7.434	102.308	7.056	-8191	255	
44351.484	1	1	0	0	0.11724	0.29868	0.22414	0.18872	0.16011	0.0655	0.0427	0.066027	0.26819	0.10363	0.13135	0.13628	0.11673	0.044845	0.12791	0.12929	-4.0938	-3.8438	-4.6	-4.1667	-3.9562	-4.6521	-3.8771	-4.5312	-4.2312	-3.6729	-4.7438	-4.0979	-4.1396	-4.7708	-3.6792	-4.3104	67.880	23.262	219.393	312.950	-5.710	173.661	101.725	137.365	176.565	284.895	38.360	-7.712	4.003	309.825	-21.216	314.078	0.00011572	0.00037062	3.2812e-05	1242.3	1.3342e-06	2.8906e-06	1327.2	259.08	1.7706e-06	2.2124e-06	325.26	89.75	72.304	21.32	2.0964e-06	29.028	3.7884e-05	3.4405e-05	9.5633e-06	1120	4.0084e-07	3.6896e-07	1198.6	233.57	3.9252e-07	3.6889e-07	285.72	80.541	63.756	18.884	3.877e-07	25.652	180.023	29.084	70.600	-14.053	148.653	111.022	-13.989	-6.685	155.073	104.223	-7.216	0.084	0.597	7.337	57.258	7.136	-8191	255	
44351.602	1	1	0	0	0.035526	0.034853	0.20046	0.13875	0.19717	0.1576	0.047666	0.087079	0.06065	0.15864	0.11519	0.076258	0.19556	0.18048	0.080658	0.16258	-4.2063	-3.825	-4.75	-4.2104	-3.8312	-4.7	-3.9688	-4.3333	-4.3938	-3.6896	-4.4292	-4.2021	-3.8521	-4.6813	-3.6979	-4.2375	-0.534	12.582	293.303	33.902	280.667	92.961	-24.238	94.397	327.343	170.964	200.579	175.367	285.478	167.643	177.173	31.824	0.00010647	0.00014782	9.3786e-05	1244.9	4.1483e-06	7.2086e-07	1335.4	259.27	1.6267e-06	3.386e-06	324.07	89.748	71.977	21.244	1.6161e-06	29.146	3.6939e-05	3.4977e-05	9.5655e-06	1121.7	3.9689e-07	3.6841e-07	1198.9	233.66	3.8569e-07	3.8942e-07	285.27	80.728	63.726	18.868	3.9944e-07	25.708	182.420	94.761	42.973	-14.254	145.646	33.921	-13.958	-6.371	131.861	135.304	-6.704	0.167	0.442	7.270	71.999	6.877	-8191	255	
44351.699	1	1	0	0	0.113	0.076096	0.044088	0.25334	0.21654	0.059544	0.039189	0.08782	0.091335	0.13769	0.10059	0.015664	0.1316	0.16705	0.26882	0.13164	-4.2354	-3.6479	-4.6833	-4.425	-3.8396	-4.5979	-4.0104	-4.0771	-4.6354	-3.9833	-4.6208	-4.65	-3.7833	-4.7562	-4.1396	-3.8833	202.121	9.336	232.223	266.715	106.905	115.886	219.329	262.374	160.262	78.901	-16.420	104.754	187.127	-4.509	172.829	28.059	0.00013332	0.00036417	6.7185e-05	1241.8	1.4538e-06	2.4262e-06	1324.5	257.56	2.5175e-06	3.266e-06	325.88	90.547	71.585	21.16	6.5653e-07	29.018	3.7847e-05	3.5276e-05	9.8618e-06	1121.1	3.9503e-07	3.6881e-07	1199.3	233.33	3.9232e-07	3.8107e-07	285.94	80.831	63.686	18.863	3.7777e-07	25.652	196.726	12.577	41.830	-14.090	131.931	105.635	-13.817	-6.557	161.398	143.742	-7.062	0.117	0.833	7.252	68.279	6.962	-8191	255	
44351.793	1	1	0	0	0.13422	0.19539	0.15322	0.29283	0.10885	0.10151	0.15783	0.15489	0.13105	0.082549	0.1949	0.27948	0.19853	0.15855	0.13233	0.096213	-4.2042	-3.4917	-4.3896	-4.6146	-3.7938	-4.5979	-4.3271	-4.0333	-4.6813	-3.7896	-4.5	-4.5417	-3.7458	-4.5188	-4.2167	-3.8937	166.910	320.463	48.146	-20.749	175.698	112.344	30.172	224.684	11.963	243.065	264.632	30.782	331.155	254.781	319.245	210.831	0.00011813	0.00028729	2.0515e-05	1241	2.5578e-06	2.5928e-06	1326.7	258.01	2.8306e-06	1.6669e-06	323.29	89.333	71.782	21.148	1.7158e-06	29.168	3.6958e-05	3.5694e-05	9.4262e-06	1120.9	4.0748e-07	3.783e-07	1198.3	233.72	3.9373e-07	3.8326e-07	285.32	80.548	63.617	18.874	3.8648e-07	25.677	194.446	3.534	-0.877	-13.926	163.856	104.679	-13.565	-6.393	167.844	108.284	-6.724	0.263	0.523	7.172	44.421	6.965	-8191	255	
44351.891	1	1	0	0	0.069715	0.34649	0.16117	0.11672	0.054349	0.12964	0.09129	0.1819	0.16344	0.13423	0.28641	0.11078	0.0013028	0.10038	0.24337	0.09614	-4.5	-3.7313	-4.0563	-4.6333	-3.6604	-4.6	-4.3667	-3.9646	-4.6312	-3.9083	-4.05	-4.7354	-3.7542	-4.6625	-4.375	-3.7812	68.564	189.992	320.184	307.236	216.945	256.773	154.621	238.177	87.887	204.709	255.442	22.170	180.000	282.294	84.551	330.643	0.00010051	0.00032997	0.000106	1236.2	2.4187e-06	2.5253e-06	1323.5	257.74	3.5297e-06	1.8007e-06	324.44	89.387	71.735	21.208	1.3012e-06	29.393	3.8549e-05	3.5406e-05	9.834e-06	1120.4	4.0593e-07	3.8527e-07	1196.9	233.13	4.0262e-07	3.9349e-07	285.51	80.465	63.634	18.918	3.8598e-07	25.709	199.915	35.234	4.819	-13.977	133.228	67.537	-13.663	-6.529	134.713	100.744	-6.808	0.283	0.823	7.357	51.539	6.837	-8191	255	
44352.012	1	1	0	0	0.097608	0.10203	0.081612	0.21335	0.24923	0.11683	0.10856	0.043469	0.050877	0.15602	0.18898	0.23278	0.18878	0.054868	0.086115	0.15624	-4.4417	-3.8771	-4.0333	-4.7708	-3.5938	-4.35	-4.4812	-3.9958	-4.7208	-3.9604	-4.0437	-4.7438	-3.7438	-4.2937	-4.5	-3.9396	272.018	102.041	236.964	65.422	209.646	42.225	93.677	261.550	187.003	128.701	185.354	-22.419	41.356	150.526	236.864	125.797	0.00010762	1.6177e-05	7.3463e-05	1241.2	2.3927e-06	3.7285e-06	1328.6	258.53	1.9812e-07	1.8249e-06	325.66	89.907	72.099	21.137	1.5888e-06	29.027	3.7765e-05	3.4835e-05	9.6495e-06	1121.3	4.0287e-07	3.8591e-07	1198.8	233.42	3.9633e-07	3.7524e-07	286.14	80.739	63.844	18.856	3.8824e-07	25.677	199.049	321.161	62.514	-13.850	137.807	125.232	-13.431	-6.310	90.793	140.151	-7.170	0.387	0.451	7.301	86.761	7.089	-8191	255	
44352.082	1	1	0	0	0.14014	0.21566	0.21309	0.065676	0.13644	0.12711	0.12651	0.17462	0.06481	0.15954	0.22876	0.22293	0.1075	0.055204	0.12624	0.15729	-4.4812	-4.0625	-3.9125	-4.7646	-3.7812	-4.4062	-4.5271	-3.7083	-4.7146	-4.1417	-4.0417	-4.7833	-3.7104	-4.2688	-4.4854	-3.8021	7.223	0.278	9.811	174.989	291.906	34.781	39.811	268.088	-17.447	240.683	262.424	270.639	289.203	199.114	77.267	325.452	0.00011325	0.0001287	4.3102e-05	1235	1.4453e-06	1.1983e-06	1326.3	256.55	3.1055e-06	2.5829e-06	323.04	90.16	71.83	21.187	2.0049e-06	29.184	3.7974e-05	3.5447e-05	9.6544e-06	1120.2	4.0292e-07	3.796e-07	1199.1	233.12	3.952e-07	3.7923e-07	285.11	80.767	63.688	18.901	3.7569e-07	25.681	179.602	52.468	-15.082	-14.006	151.343	82.397	-13.495	-6.697	153.096	122.641	-6.958	0.484	0.323	7.199	124.287	6.806	-8191	255	
44352.203	1	1	0	0	0.11789	0.11997	0.10022	0.15879	0.21448	0.18158	0.26272	0.18504	0.079798	0.067696	0.29852	0.085081	0.17405	0.23295	0.14026	0.018749	-4.225	-4.2729	-3.675	-4.8896	-3.9042	-4.1229	-4.7542	-3.6979	-4.4146	-4.2625	-3.9729	-4.6771	-3.9813	-4.0604	-4.6958	-3.8708	140.866	199.120	55.913	225.231	228.747	126.989	253.836	157.240	294.558	15.480	81.360	28.101	54.630	227.418	128.710	152.446	0.00011044	0.00013539	9.4904e-06	1241.4	2.2031e-06	1.0719e-06	1327.3	258.19	2.1163e-06	1.7687e-06	324.46	90.092	71.793	21.226	1.2286e-06	29.214	3.7625e-05	3.5615e-05	9.4074e-06	1123.2	3.9821e-07	3.7669e-07	1198.5	233.3	3.8992e-07	3.7353e-07	286.08	80.626	63.627	18.904	3.8431e-07	25.681	185.257	5.098	225.409	-13.689	130.133	114.019	-13.488	-6.385	185.883	128.200	-6.703	0.307	1.084	7.465	88.397	6.806	-8191	255	
44352.301	1	1	0	0	0.1259	0.24165	0.084093	0.1221	0.27918	0.23932	0.15623	0.16198	0.23332	0.13203	0.19944	0.36269	0.16743	0.24152	0.25576	0.10816	-4.1229	-4.4583	-3.7625	-4.9187	-4.0417	-3.9521	-4.9229	-3.6771	-4.5333	-4.4729	-3.7042	-4.625	-4.2083	-3.9917	-4.7167	-3.9521	255.573	26.288	334.795	326.630	279.240	260.754	173.826	303.445	210.269	186.586	244.216	248.780	277.593	333.695	6.041	140.665	0.00010208	0.00027192	0.00010119	1236.7	9.6311e-07	2.1022e-06	1316.7	258.01	3.4208e-07	1.4965e-06	323.16	89.502	71.918	21.267	2.1763e-06	29.16	3.8062e-05	3.4069e-05	9.98e-06	1121.7	4.0372e-07	3.803e-07	1199.1	233.53	3.941e-07	3.7856e-07	285.4	80.63	63.671	18.933	3.8553e-07	25.679	192.428	12.896	2.872	-13.636	191.582	115.389	-13.487	-6.302	120.043	85.185	-7.019	0.451	0.867	7.584	63.212	6.744	-8191	255	
44352.395	1	1	0	0	0.20637	0.10192	0.29459	0.10451	0.016857	0.090498	0.092715	0.072459	0.047001	0.17642	0.11181	0.20234	0.1896	0.27203	0.1043	0.12562	-4.0292	-4.4	-3.7771	-4.675	-4.2167	-3.9562	-4.9958	-3.8438	-4.1771	-4.575	-3.825	-4.65	-4.3625	-3.8146	-4.7479	-3.9875	8.167	279.955	-10.930	4.020	252.003	150.589	332.533	255.708	294.814	156.030	-10.230	-11.729	216.624	316.916	223.957	131.611	9.6158e-05	0.00042249	8.2555e-05	1235.6	2.9213e-06	2.0073e-06	1325.7	257.56	2.6193e-06	1.6428e-06	323.69	89.768	72.117	21.278	1.2468e-06	29.186	3.8677e-05	3.4797e-05	9.7609e-06	1121.7	4.0874e-07	3.785e-07	1200.2	233.14	3.8735e-07	3.8062e-07	285.39	80.652	63.934	18.945	3.88e-07	25.696	199.898	21.247	-4.558	-14.001	155.402	155.379	-13.557	-6.324	155.229	146.410	-6.983	0.154	1.173	7.318	119.403	6.388	-8191	255	
44352.488	1	1	0	0	0.1078	0.064463	0.13489	0.16688	0.046532	0.23507	0.20943	0.16242	0.14195	0.22692	0.2239	0.14932	0.042746	0.18242	0.31299	0.025895	-3.9792	-4.6229	-3.6646	-4.6521	-4.3479	-3.6958	-5.0125	-4.0167	-3.8146	-4.6667	-3.8417	-4.4042	-4.4125	-3.7687	-4.7292	-4.1958	221.727	122.798	112.789	2.528	175.468	153.860	273.396	285.712	-12.276	19.095	-7.611	313.177	261.468	249.711	178.598	229.352	8.0842e-05	0.00015414	0.00010458	1239	2.4543e-06	6.7418e-07	1327.6	258.62	2.7542e-06	2.6352e-06	322.18	89.983	71.918	21.016	2.6812e-06	28.906	3.8341e-05	3.4597e-05	1.0043e-05	1123	3.93e-07	3.7436e-07	1200.8	233.12	3.8111e-07	3.7912e-07	284.8	80.679	63.667	18.85	3.8336e-07	25.651	178.149	50.236	-20.492	-13.992	71.515	186.255	-13.438	-6.376	182.324	59.367	-6.742	0.175	0.610	7.749	76.313	6.778	-8191	255	
44352.609	1	1	0	0	0.13957	0.18908	0.16741	0.22908	0.057414	0.075631	0.30361	0.2927	0.15074	0.17577	0.15691	0.1703	0.2713	0.16286	0.23158	0.2892	-3.7396	-4.6833	-3.7125	-4.5229	-4.625	-3.725	-4.7396	-4.1021	-4.0479	-4.7875	-3.8979	-4.2583	-4.6729	-3.9333	-4.5167	-4.4396	275.834	142.697	328.020	-20.921	115.610	305.505	228.879	249.779	176.665	224.887	307.702	8.146	328.357	270.972	167.694	292.135	0.00012677	0.00022681	9.5782e-05	1241.7	3.4754e-06	2.9451e-06	1322.6	257.41	2.0783e-06	3.2944e-06	322.84	89.899	72.087	21.175	2.0227e-06	29.128	3.9777e-05	3.4535e-05	9.7733e-06	1122.8	3.9413e-07	3.9046e-07	1199.2	233.4	3.9875e-07	3.8893e-07	285.44	80.74	63.755	18.87	3.8852e-07	25.616	191.343	31.974	15.980	-13.868	99.699	86.101	-13.889	-6.284	172.158	48.280	-6.598	0.401	0.552	7.331	135.044	7.050	-8191	255	
44352.684	1	1	0	0	0.19864	0.21063	0.1551	0.057721	0.15789	0.13169	0.18789	0.049071	0.13932	0.033897	0.24254	0.17744	0.082046	0.21805	0.089551	0.2253	-3.6562	-4.5563	-3.7875	-4.4896	-4.5583	-3.7521	-4.6813	-4.4271	-3.8521	-4.7417	-4.0729	-4.1354	-4.7021	-3.8417	-4.3208	-4.4833	315.035	196.989	126.110	166.510	247.751	322.594	331.955	-23.302	157.156	175.229	21.112	61.472	199.998	283.226	25.846	255.587	0.0001308	0.00012173	0.00016383	1243.6	4.0364e-06	1.4758e-06	1327.8	257.97	1.1414e-06	2.1204e-06	323.77	89.444	71.82	21.154	1.9353e-06	29.166	3.8306e-05	3.5191e-05	9.7628e-06	1123.3	3.9244e-07	3.8767e-07	1200.6	233.29	4.0016e-07	3.8536e-07	285.84	80.451	63.681	18.945	3.8708e-07	25.723	183.394	42.085	23.527	-14.109	114.333	128.309	-13.796	-6.120	141.409	93.432	-6.464	0.640	0.721	7.352	127.262	7.034	-8191	255	
44352.777	1	1	0	0	0.10776	0.094539	0.1595	0.0098322	0.18103	0.15702	0.15046	0.09948	0.15331	0.16421	0.1653	0.31203	0.064271	0.23736	0.16789	0.17224	-3.4521	-4.7271	-3.9375	-4.1687	-4.5708	-3.8667	-4.5542	-4.4229	-3.7604	-4.6583	-4.1458	-3.9813	-4.7812	-3.8833	-4.2083	-4.5292	302.920	249.539	228.205	159.906	207.809	261.808	270.408	49.829	261.276	159.914	239.580	299.426	63.185	251.705	81.781	81.185	0.00011706	0.00022119	7.8117e-05	1238.6	2.2831e-06	3.5809e-06	1327.3	257.55	1.0549e-06	3.7504e-06	322.38	90.291	71.542	21.218	1.1227e-06	28.917	3.9157e-05	3.5617e-05	9.9187e-06	1122.8	4.0644e-07	3.8932e-07	1200.6	233.37	3.9814e-07	3.7647e-07	285.63	80.719	63.729	18.951	3.9122e-07	25.722	203.319	-5.195	-1.151	-13.955	101.897	77.719	-13.572	-6.255	168.406	31.237	-6.553	0.448	0.739	7.513	118.319	6.728	-8191	255	
44352.875	1	1	0	0	0.012553	0.30463	0.18723	0.14283	0.1162	0.11898	0.15982	0.10579	0.12786	0.22101	0.034536	0.079603	0.056939	0.10462	0.12212	0.21882	-3.4479	-4.7021	-4.1729	-4.025	-4.6646	-3.7604	-4.4062	-4.6708	-3.7458	-4.6333	-4.4583	-4.0396	-4.8146	-4	-4.0917	-4.6208	0.106	-9.784	15.467	330.800	274.073	78.940	210.098	204.997	-20.721	147.329	96.381	250.745	323.237	331.683	189.732	151.621	9.8907e-05	0.00014097	8.6019e-05	1240.3	1.3583e-06	1.7649e-06	1323.9	257.62	3.008e-06	2.0846e-06	323.21	90.179	71.963	20.973	2.0343e-06	28.868	3.9182e-05	3.6376e-05	1.0203e-05	1123.5	4.0025e-07	4.0101e-07	1199.9	233.17	4.0443e-07	3.889e-07	285.89	80.679	63.644	18.84	4.0116e-07	25.689	180.767	51.775	51.456	-14.026	146.559	198.398	-13.660	-6.030	121.264	51.836	-6.484	0.453	0.777	7.686	122.755	6.645	-8191	255	
44352.996	1	1	0	0	0.25537	0.068249	0.082561	0.29962	0.15725	0.10299	0.18481	0.12691	0.10768	0.26398	0.093424	0.13991	0.13003	0.28643	0.081056	0.051317	-3.4021	-4.5604	-4.2958	-3.8771	-4.6229	-4.0188	-4.2	-4.6479	-3.7708	-4.4521	-4.45	-3.6917	-4.7208	-4.1167	-4.0813	-4.8146	151.442	15.186	84.836	317.744	-7.236	262.114	317.739	171.493	-10.515	79.134	137.780	15.589	175.325	221.536	56.848	20.955	0.00012698	0.00029659	9.6987e-05	1242.4	9.4779e-07	1.9625e-06	1331.2	258.64	3.0329e-06	2.5401e-06	323.27	88.986	71.436	21.114	2.2787e-06	29.102	4.0028e-05	3.5831e-05	9.8852e-06	1122.6	4.0409e-07	4.0416e-07	1201.3	233.57	4.0613e-07	3.9901e-07	285.9	80.34	63.696	18.869	4.0415e-07	25.704	194.799	28.667	-0.610	-13.974	194.136	148.815	-13.570	-6.261	169.952	145.720	-6.988	0.554	0.683	7.246	140.800	6.714	-8191	255	
44353.090	1	1	0	0	0.13122	0.064776	0.1019	0.21961	0.20003	0.22882	0.14457	0.13801	0.058338	0.16721	0.19023	0.043239	0.12481	0.065141	0.17276	0.10928	-3.5229	-4.4313	-4.3646	-3.875	-4.6625	-4.0854	-4.0333	-4.8417	-3.9833	-4.3229	-4.6792	-3.7729	-4.7833	-4.3042	-3.7792	-4.7146	14.971	161.393	224.747	248.916	-6.275	260.902	333.223	37.042	237.794	217.351	292.811	268.263	316.002	14.390	55.819	319.762	0.00012334	0.00016653	7.3254e-05	1235.2	2.9945e-06	1.1277e-06	1323.2	256.16	1.3425e-06	1.4855e-06	323.75	89.812	71.485	21.154	7.4106e-08	28.925	4.0425e-05	3.6853e-05	1.0048e-05	1120.2	4.1168e-07	3.9831e-07	1200.8	233.15	4.1474e-07	3.9559e-07	285.97	80.657	63.611	18.933	4.0061e-07	25.634	195.346	17.134	13.828	-13.775	112.725	137.674	-13.633	-6.038	156.078	67.997	-6.673	0.277	1.097	7.523	62.186	7.164	-8191	255	
44353.188	1	1	0	0	0.25087	0.16294	0.12613	0.14776	0.13017	0.073571	0.22262	0.049989	0.21636	0.11421	0.16854	0.12702	0.13481	0.12779	0.10044	0.1487	-3.6292	-4.1771	-4.4938	-3.8729	-4.4583	-4.3	-3.7771	-4.8271	-3.9562	-4.1333	-4.6813	-3.7979	-4.6375	-4.3562	-3.7354	-4.9083	285.597	110.553	196.661	249.243	264.882	-3.071	292.574	182.138	69.216	298.774	103.459	258.263	303.685	64.171	85.437	-17.786	0.00010591	0.00026641	7.173e-05	1238.2	2.4583e-06	1.673e-06	1326	257.69	7.9629e-07	2.6072e-06	325.26	89.256	72.008	21.114	1.8882e-06	28.929	3.9109e-05	3.5357e-05	1.0117e-05	1122.9	4.1454e-07	3.8844e-07	1200.3	233.63	4.0428e-07	4.079e-07	286.38	80.6	63.872	18.888	4.0301e-07	25.652	191.089	33.197	11.098	-13.980	135.663	142.716	-13.468	-6.170	87.416	69.778	-6.794	0.306	0.466	7.951	118.412	6.445	-8191	255	
44353.281	1	1	0	0	0.28019	0.16326	0.034681	0.19569	0.02535	0.076227	0.19246	0.37389	0.1449	0.13384	0.12059	0.26702	0.21125	0.099726	0.20538	0.17328	-3.8021	-4.0833	-4.8438	-3.8688	-4.4313	-4.2937	-4.0813	-4.7292	-4.0854	-3.9771	-4.7958	-3.7583	-4.4083	-4.3958	-3.8646	-4.8354	152.965	64.827	287.781	-14.087	32.441	196.472	251.778	329.995	131.028	279.828	299.274	182.293	277.370	84.798	-19.629	266.804	0.00011818	0.00023881	0.00015041	1238	1.2695e-06	2.9345e-06	1329.3	257.95	3.2197e-06	2.6407e-06	324.49	89.891	71.057	21.061	3.4754e-06	28.966	4.0138e-05	3.6827e-05	1.0011e-05	1122.5	4.2188e-07	4.0494e-07	1199.9	233.56	4.0188e-07	3.9463e-07	286.36	80.69	63.633	18.922	4.11e-07	25.676	181.512	-17.903	15.982	-13.817	-21.565	137.919	-13.542	-6.439	146.394	82.622	-6.286	0.826	1.211	7.735	98.206	7.200	-8191	255	
44353.379	1	1	0	0	0.1224	0.2992	0.047413	0.29488	0.093351	0.23835	0.18217	0.048371	0.22549	0.10873	0.098258	0.060514	0.094193	0.0087411	0.073058	0.11611	-3.8229	-4.075	-4.8396	-3.9688	-4.1583	-4.5333	-3.8583	-4.725	-4.2604	-3.8812	-4.9167	-3.9667	-4.2333	-4.6396	-3.8479	-4.6417	1.018	-9.418	136.331	333.889	259.609	14.604	259.229	230.469	2.970	7.352	77.724	206.115	48.149	171.944	277.176	257.396	9.7618e-05	0.00038682	9.965e-05	1233.6	1.8622e-06	3.0946e-06	1324.4	257.2	2.6396e-06	3.3834e-06	322.31	89.373	71.258	21.046	2.2872e-06	28.935	3.9398e-05	3.6429e-05	9.8441e-06	1121.5	4.2054e-07	3.9355e-07	1199.9	233.38	4.0434e-07	3.9813e-07	285.6	80.592	63.621	18.917	4.1118e-07	25.707	193.075	3.890	16.869	-13.839	59.052	111.697	-13.713	-6.222	206.739	95.416	-6.634	0.895	1.146	7.659	107.705	7.314	-8191	255	
44353.473	1	1	0	0	0.086873	0.10536	0.22236	0.36521	0.10539	0.11277	0.33335	0.060029	0.099003	0.1842	0.13387	0.1267	0.056307	0.039994	0.19357	0.091453	-3.9854	-3.8042	-4.8771	-4.0417	-4.025	-4.5917	-4.0062	-4.5729	-4.3229	-3.8417	-4.8812	-4.1583	-4.0833	-4.8479	-3.8208	-4.2708	60.547	313.836	215.997	279.365	215.402	100.859	244.117	243.161	12.828	151.771	18.232	244.544	311.827	319.386	330.413	283.861	0.00010224	0.00015655	4.4345e-05	1237.4	2.8305e-06	2.3802e-06	1325.1	257.09	3.2818e-06	1.9852e-06	322.23	89.351	71.256	21.122	1.9507e-06	29.235	4.1488e-05	3.6041e-05	9.7609e-06	1122.7	4.1858e-07	3.9982e-07	1200	233.39	4.0119e-07	4.0359e-07	286.17	80.524	63.66	18.939	4.1185e-07	25.769	183.037	-14.412	5.098	-13.438	131.317	114.269	-13.233	-6.166	112.739	46.469	-6.623	0.807	0.961	7.379	109.835	7.212	-8191	255	
44353.570	1	1	0	0	0.0078861	0.050651	0.10624	0.23189	0.12187	0.04917	0.15067	0.15043	0.084737	0.11445	0.25436	0.3483	0.34213	0.11359	0.22863	0.12719	-4.2625	-3.7729	-4.6583	-4.2729	-3.7958	-4.65	-4.0146	-4.4292	-4.3938	-3.7271	-4.8229	-4.1521	-3.9354	-4.6687	-3.7729	-4.3313	309.795	226.835	74.024	273.452	-1.680	117.576	238.163	219.137	130.037	128.812	289.744	309.832	290.991	311.864	216.552	228.062	0.00012192	0.00015071	9.1317e-05	1241.4	2.353e-06	1.789e-06	1325.7	259.16	2.2646e-06	2.5106e-06	322.5	89.448	71.403	21.048	7.0652e-07	29.011	4.0207e-05	3.7389e-05	9.9269e-06	1123.3	4.2115e-07	3.8999e-07	1202	233.97	4.0516e-07	3.9255e-07	286.3	80.491	63.702	18.906	3.9925e-07	25.702	198.871	-15.483	35.570	-13.773	123.774	165.932	-13.490	-6.305	152.088	122.857	-6.816	0.408	0.658	7.596	141.360	7.258	-8191	255	
44353.691	1	1	0	0	0.26787	0.18315	0.15402	0.22641	0.18612	0.11302	0.37711	0.077434	0.16553	0.21195	0.16288	0.27697	0.14474	0.10369	0.38826	0.20134	-4.35	-3.6417	-4.5896	-4.3875	-3.675	-4.6125	-4.1729	-4.2396	-4.6229	-3.7438	-4.5917	-4.375	-3.9646	-4.9542	-4	-4.3354	257.662	-1.966	220.329	300.284	308.396	296.367	298.217	150.107	-5.353	282.611	70.926	99.505	327.584	138.011	89.409	0.444	0.00013469	0.00032516	3.9251e-05	1240.8	2.7944e-06	2.6493e-06	1319.8	257.1	4.0616e-06	2.7428e-06	321.89	89.754	71.31	21.023	2.4341e-06	28.804	3.8075e-05	3.655e-05	9.9571e-06	1124.2	4.0811e-07	3.8981e-07	1200.2	233.5	4.1272e-07	3.9921e-07	285.31	80.741	63.702	18.909	3.9755e-07	25.666	187.958	28.136	2.280	-13.658	119.540	90.772	-13.401	-6.193	145.404	103.240	-6.697	0.693	0.558	7.605	121.000	7.180	-8191	255	
44353.785	1	1	0	0	0.1631	0.020905	0.1515	0.091443	0.036879	0.031497	0.26524	0.095137	0.18282	0.10359	0.2579	0.18053	0.1001	0.29289	0.05895	0.13192	-4.3667	-3.7542	-4.3812	-4.5479	-3.7667	-4.6917	-4.0896	-4.0396	-4.5417	-3.8438	-4.5104	-4.6042	-3.7958	-4.6854	-4.1125	-4.0208	86.729	165.606	158.059	123.413	268.289	141.724	201.209	266.504	-3.593	332.176	332.232	231.435	320.580	283.251	179.069	300.678	0.00012235	0.00030147	5.4254e-05	1234.8	1.3483e-06	2.5802e-06	1321.6	257.23	1.1048e-06	2.4174e-06	322.66	89.104	71.344	21.271	1.7416e-06	29.24	3.8586e-05	3.6357e-05	9.8012e-06	1122.1	4.0887e-07	3.8666e-07	1198.9	233.19	3.9857e-07	3.8534e-07	285.71	80.71	63.812	18.932	3.9636e-07	25.738	204.467	53.874	30.786	-13.808	-9.474	97.596	-13.292	-6.165	187.019	78.360	-6.581	0.757	1.060	7.722	45.625	7.045	-8191	255	
44353.883	1	1	0	0	0.26936	0.06577	0.32948	0.1555	0.29361	0.0743	0.18608	0.11531	0.10408	0.12771	0.11342	0.081506	0.066017	0.096428	0.19953	0.017426	-4.4458	-3.9458	-4.3167	-4.625	-3.6896	-4.725	-4.3083	-3.9667	-4.7125	-3.8958	-4.4479	-4.7521	-3.85	-4.7125	-4.2479	-3.9729	87.886	281.271	221.375	312.398	285.932	277.525	102.269	266.678	95.153	-16.224	287.410	149.647	314.724	65.081	160.014	208.179	0.00010279	0.00011219	5.5253e-05	1240.9	7.4906e-07	2.5936e-06	1317.2	257.64	1.4315e-06	2.0852e-06	323	89.197	71.182	20.946	2.2445e-06	29.232	3.8994e-05	3.6455e-05	9.7052e-06	1123.1	4.0437e-07	3.8784e-07	1199.1	233.45	3.8373e-07	3.8663e-07	285.8	80.558	63.771	18.852	3.8271e-07	25.738	193.977	111.155	54.597	-13.515	60.073	94.908	-13.582	-6.418	260.083	103.523	-7.178	0.498	1.411	7.645	144.573	6.906	-8191	255	
44353.980	1	1	0	0	0.10178	0.031415	0.084899	0.034929	0.13941	0.074747	0.19177	0.184	0.051611	0.062995	0.3284	0.14455	0.11394	0.064087	0.14757	0.077962	-4.4563	-3.9521	-4.1583	-4.7	-3.7313	-4.5917	-4.3646	-3.7979	-4.7583	-3.8458	-4.2354	-4.7583	-3.8729	-4.525	-4.1979	-3.7458	228.438	167.262	109.488	292.617	308.518	45.973	293.576	155.907	85.507	169.878	-5.422	84.298	281.503	60.790	88.036	282.071	8.9656e-05	0.00020014	8.0729e-05	1234.5	3.9593e-06	1.8481e-06	1324.1	257.05	3.28e-06	2.2688e-06	323.61	89.138	71.941	21.309	3.1133e-06	29.147	3.8046e-05	3.4907e-05	9.4989e-06	1121.1	3.9818e-07	3.6751e-07	1199.8	233.11	3.7962e-07	3.7194e-07	285.51	80.529	63.918	18.937	3.8654e-07	25.637	198.368	-14.663	39.998	-13.574	104.612	164.041	-13.531	-5.874	149.493	120.712	-6.758	0.865	0.981	7.395	91.800	7.303	-8191	255	
44354.074	1	1	0	0	0.038767	0.068142	0.11802	0.26847	0.30493	0.086715	0.31887	0.2538	0.16512	0.026931	0.058958	0.088375	0.12377	0.066961	0.15791	0.20045	-4.4313	-4.0125	-4.0479	-4.9313	-3.7292	-4.4854	-4.675	-3.9542	-4.7708	-4.0813	-3.9833	-4.7667	-3.7875	-4.3271	-4.4396	-3.7083	161.912	12.318	309.535	265.128	203.360	176.782	316.435	291.556	70.022	223.231	309.033	86.548	180.201	101.209	278.616	231.847	0.00011006	0.00020623	9.1117e-05	1230.2	1.0993e-06	4.422e-06	1316.9	255.1	1.3755e-06	1.417e-06	322.66	88.886	70.929	21.116	9.1744e-07	28.819	3.769e-05	3.373e-05	9.6058e-06	1119.9	3.9261e-07	3.8134e-07	1195.7	232.92	3.9091e-07	3.7614e-07	285.37	80.527	63.603	18.885	3.6965e-07	25.72	174.916	6.914	27.709	-13.589	150.813	100.412	-13.411	-6.154	101.626	89.193	-6.867	0.344	1.057	7.969	114.396	7.147	-8191	255	
44354.172	1	1	0	0	0.1197	0.1325	0.07642	0.21195	0.14467	0.21474	0.15693	0.27858	0.10658	0.3919	0.13865	0.068431	0.35154	0.084069	0.10246	0.10298	-4.2375	-3.8812	-3.8125	-4.925	-3.7208	-4.3708	-4.8917	-3.7771	-4.5646	-4.1792	-3.8396	-4.6167	-4.1083	-4.1625	-4.55	-3.825	98.795	157.244	177.876	300.646	135.344	183.547	167.773	305.950	60.898	106.497	-0.409	-23.152	297.296	77.201	61.285	209.117	0.00010343	0.00030223	4.2264e-05	1226.9	1.1213e-06	2.6766e-06	1317.7	256.17	1.9655e-06	2.9941e-06	321.58	88.828	71.318	21.094	5.831e-07	28.986	3.7498e-05	3.3889e-05	9.6773e-06	1118.5	4.044e-07	3.7243e-07	1198.2	232.84	3.8445e-07	3.7304e-07	284.99	80.424	63.646	18.885	3.7009e-07	25.67	184.755	62.278	316.529	-13.508	88.759	101.559	-13.260	-6.003	111.464	102.367	-6.674	0.044	0.871	7.437	242.919	7.488	-8191	255	
44354.293	1	1	0	0	0.038313	0.093012	0.17081	0.19616	0.19405	0.28424	0.22811	0.25076	0.24331	0.14814	0.16881	0.16599	0.058773	0.1111	0.21493	0.14926	-4.2417	-4.3042	-3.7854	-4.8708	-4.0062	-4.0188	-4.8625	-3.8042	-4.5208	-4.4042	-3.9938	-4.7542	-4.0312	-4.0188	-4.6438	-3.8333	241.854	197.724	95.829	298.913	28.184	221.461	255.235	307.431	161.718	66.113	251.270	310.895	112.749	129.157	71.208	179.264	0.00011517	0.00028915	9.7623e-05	1233.3	5.4431e-07	2.7963e-06	1319.8	256.63	3.5148e-06	3.3763e-06	322.04	88.995	71.397	20.927	2.0025e-06	29.139	3.8086e-05	3.4634e-05	9.6228e-06	1119.5	3.9328e-07	3.791e-07	1197.7	232.86	3.7912e-07	3.8239e-07	285.27	80.535	63.661	18.834	3.8112e-07	25.706	186.844	61.167	19.723	-13.670	86.261	93.267	-13.272	-5.952	136.324	80.261	-7.040	0.624	1.087	7.224	99.202	6.633	-8191	255	
44354.387	1	1	0	0	0.19644	0.0088278	0.10181	0.048483	0.26766	0.12217	0.20516	0.13614	0.094176	0.23838	0.18732	0.35186	0.18664	0.11696	0.12413	0.1526	-4.3	-4.475	-3.8167	-4.7917	-4.0396	-3.8229	-4.7812	-3.8438	-4.275	-4.3854	-3.8	-4.7292	-4.2083	-3.9521	-4.7042	-3.9521	163.770	191.412	22.848	276.590	273.401	160.353	238.602	106.959	178.282	171.912	311.533	320.670	17.064	316.027	178.136	307.917	0.00010499	0.00012501	2.8966e-05	1230.2	2.478e-06	3.2645e-06	1316.3	256.48	1.3561e-06	2.9103e-06	322	89.55	71.34	21.117	2.5278e-06	28.968	3.8267e-05	3.4554e-05	1.0206e-05	1118.5	4.0013e-07	3.8227e-07	1198.3	232.84	3.9741e-07	3.773e-07	285.27	80.554	63.73	18.916	3.8699e-07	25.656	180.577	92.596	97.214	-13.764	114.287	56.788	-13.295	-6.446	144.073	113.449	-6.796	0.494	1.491	7.760	110.801	7.153	-8191	255	
44354.484	1	1	0	0	0.30883	0.1772	0.25338	0.13707	0.050818	0.096263	0.20736	0.16466	0.11508	0.13125	0.10049	0.18519	0.048636	0.1004	0.21876	0.051615	-3.8563	-4.6083	-3.7417	-4.6208	-4.1458	-3.9188	-4.8271	-3.925	-4.2875	-4.6042	-3.7375	-4.5229	-4.4	-3.925	-4.7833	-4.0104	194.619	72.353	15.828	156.723	104.147	201.837	-20.123	262.420	111.739	207.783	-8.019	273.250	321.659	200.519	205.549	277.365	0.00014573	0.00022192	2.9095e-05	1229.7	3.3162e-06	2.4496e-06	1318.2	256.26	3.0964e-06	1.7478e-06	322.44	88.856	71.303	21.047	2.7487e-06	29.086	3.8184e-05	3.4409e-05	9.4285e-06	1119.2	3.9915e-07	3.7944e-07	1197.6	232.8	3.897e-07	3.6574e-07	285.51	80.455	63.676	18.861	3.7705e-07	25.625	191.737	67.947	15.902	-13.560	185.011	61.727	-13.395	-6.100	130.098	109.722	-6.516	0.694	1.301	7.704	104.759	7.077	-8191	255	
44354.555	1	1	0	0	0.070999	0.15136	0.099567	0.083121	0.16715	0.057898	0.1002	0.28372	0.037546	0.17066	0.15931	0.14571	0.29631	0.35686	0.20682	0.24648	-3.8688	-4.6312	-3.7167	-4.6208	-4.3292	-3.7354	-4.9437	-4.2167	-3.9688	-4.7667	-3.8167	-4.4563	-4.5979	-3.8958	-4.6729	-4.2625	-21.539	187.453	118.425	335.002	13.601	247.669	243.493	292.832	43.253	243.086	-7.214	165.522	-15.992	16.843	54.054	263.418	7.6108e-05	0.00013086	9.4334e-05	1231.5	2.2805e-06	1.388e-06	1320.4	256.12	1.1378e-06	9.4036e-07	319.06	88.866	70.941	20.78	2.1792e-06	29.077	3.8117e-05	3.424e-05	9.5241e-06	1119.5	3.9582e-07	3.7923e-07	1198.1	232.95	3.9372e-07	3.7107e-07	284.44	80.389	63.559	18.824	3.7381e-07	25.697	171.915	89.832	3.362	-13.573	109.609	155.241	-13.056	-6.192	190.877	21.854	-6.553	1.128	1.011	8.051	16.711	7.443	-8191	255	
44354.652	1	1	0	0	0.11541	0.15781	0.11996	0.30305	0.20168	0.11355	0.12748	0.085852	0.26987	0.14905	0.035991	0.11505	0.36341	0.15432	0.1134	0.19152	-3.6646	-4.9	-3.7625	-4.4396	-4.5437	-3.8	-4.7	-4.2271	-3.8396	-4.6729	-3.9437	-4.1917	-4.75	-3.8542	-4.5938	-4.2917	322.458	199.019	44.545	309.026	50.921	44.628	137.807	259.623	189.489	169.358	183.369	314.951	268.228	239.725	200.210	316.085	0.00011791	0.00022331	5.3265e-05	1226.5	1.5844e-06	1.7155e-06	1319.3	256.08	1.0575e-06	6.4019e-07	320.27	89.281	71.383	21.073	1.2842e-06	29.083	3.6841e-05	3.3348e-05	9.5226e-06	1120.1	3.8117e-07	3.6875e-07	1197.7	232.8	3.7124e-07	3.6501e-07	284.35	80.343	63.619	18.895	3.7122e-07	25.623	198.738	35.331	8.935	-13.647	107.174	129.516	-13.178	-6.127	131.540	37.146	-6.580	0.555	1.373	7.444	-1.460	7.265	-8191	255	
44354.770	1	1	0	0	0.22664	0.17198	0.1269	0.093493	0.11728	0.20149	0.20547	0.032937	0.18376	0.18242	0.21748	0.17602	0.053926	0.12024	0.13521	0.17764	-3.6437	-4.5875	-3.8396	-4.3729	-4.6562	-3.65	-4.4667	-4.5354	-3.7771	-4.825	-4.0854	-4.1771	-4.5646	-3.7167	-4.5	-4.4542	185.835	234.983	171.279	12.132	29.678	117.835	245.149	284.332	100.120	299.807	251.515	17.247	-16.638	120.894	8.938	29.616	0.00011296	0.00012698	7.2383e-05	1236.5	3.439e-06	1.9293e-06	1316.5	256.62	2.3188e-06	3.9846e-06	321.84	89.39	71.522	21.192	4.4741e-07	28.816	3.635e-05	3.2807e-05	9.366e-06	1117.9	3.7814e-07	3.6916e-07	1196	232.36	3.8056e-07	3.588e-07	284.96	80.369	63.514	18.885	3.6534e-07	25.55	193.105	330.827	20.772	-13.630	129.669	103.395	-13.384	-6.118	180.330	105.417	-6.544	0.584	1.368	7.600	85.982	7.148	-8191	255	
44354.867	1	1	0	0	0.19952	0.1369	0.22319	0.18358	0.18255	0.19068	0.25497	0.17561	0.28783	0.15645	0.098218	0.19161	0.13881	0.069477	0.16195	0.091705	-3.5458	-4.7	-4.1646	-4.0833	-4.4708	-3.8958	-4.4104	-4.5208	-3.7833	-4.7229	-4.1271	-3.9813	-4.7979	-3.9042	-4.3583	-4.6104	-22.105	228.970	177.848	253.157	293.985	143.961	263.303	0.607	109.122	130.953	-15.074	-12.871	148.835	18.129	193.473	265.286	0.00012388	4.5613e-05	5.1806e-05	1228	2.6687e-06	1.1751e-06	1324.6	256.69	3.1895e-06	2.4401e-06	321.88	89.545	70.842	21.429	1.7856e-06	28.967	3.721e-05	3.1981e-05	9.1958e-06	1118.2	3.7161e-07	3.6238e-07	1197.2	232.8	3.8338e-07	3.4909e-07	283.97	80.449	63.408	18.903	3.6615e-07	25.602	196.575	80.308	32.963	-13.588	155.997	170.791	-13.484	-6.182	133.691	31.816	-6.832	0.532	0.513	7.475	24.407	6.639	-8191	255	
44354.965	1	1	0	0	0.22849	0.13758	0.10289	0.11572	0.093472	0.2951	0.17418	0.083689	0.11787	0.20414	0.16235	0.088499	0.25191	0.041093	0.092284	0.19023	-3.4625	-4.5625	-4.2229	-4.0188	-4.6521	-3.8271	-4.2542	-4.6771	-3.8229	-4.5271	-4.4271	-3.75	-4.8125	-4.1042	-4.1542	-4.7063	197.238	57.105	165.521	6.624	73.205	216.861	256.426	310.263	-20.266	112.402	218.121	165.882	-19.169	-13.016	46.586	23.590	0.00012909	0.00013918	2.06e-06	1239.9	3.783e-06	2.1647e-06	1325.2	256.34	3.0547e-06	3.46e-06	324.54	89.417	71.342	21.142	2.0045e-06	29.12	3.6152e-05	3.3133e-05	8.8378e-06	1120.3	3.7094e-07	3.6579e-07	1197.4	232.42	3.7451e-07	3.5892e-07	285.77	80.402	63.625	18.84	3.6874e-07	25.706	189.017	2.215	268.960	-13.896	167.373	114.148	-13.525	-6.146	142.674	70.260	-6.923	0.429	0.669	6.704	39.007	7.341	-8191	255	
44355.086	1	1	0	0	0.063348	0.069283	0.29329	0.47263	0.13864	0.13646	0.2909	0.2911	0.065189	0.03058	0.22225	0.18312	0.12989	0.026444	0.16296	0.27911	-3.3854	-4.5021	-4.4417	-4	-4.6562	-4.1104	-4.1687	-4.8646	-3.6521	-4.4875	-4.5354	-3.8958	-4.7438	-4.1354	-3.9479	-4.6542	333.080	310.015	272.774	314.375	221.103	134.781	272.974	283.039	334.435	68.359	134.422	156.147	321.899	43.036	116.031	252.386	0.00010087	0.00017935	7.0924e-05	1240.3	2.4617e-06	2.0921e-06	1329.8	257.9	2.3496e-06	2.2712e-06	322.1	89.863	72.026	21.025	1.8098e-06	29.267	3.6956e-05	3.2998e-05	9.314e-06	1119.2	3.8172e-07	3.6358e-07	1197.9	232.63	3.6865e-07	3.6087e-07	285.11	80.567	63.724	18.797	3.6361e-07	25.682	176.141	103.346	65.093	-14.015	114.888	112.774	-13.894	-6.272	119.132	89.355	-7.234	0.432	0.963	7.468	133.911	7.206	-8191	255	
44355.180	1	1	0	0	0.066638	0.20522	0.12068	0.40557	0.079114	0.12834	0.12554	0.14474	0.13417	0.10774	0.10171	0.14104	0.09141	0.28553	0.12501	0.21752	-3.4875	-4.3542	-4.5292	-3.825	-4.6771	-4.1875	-3.975	-4.6687	-3.8896	-4.3375	-4.5542	-3.6917	-4.6021	-4.2625	-3.8667	-4.7188	93.926	180.055	19.239	302.414	69.385	125.324	298.783	304.490	52.830	265.390	192.997	8.678	318.497	-21.330	-9.146	266.656	0.00011126	0.00022832	0.00011715	1239.8	2.6426e-06	2.8615e-06	1324	257.91	3.1697e-06	2.4401e-06	326.65	89.539	71.716	21.162	1.9095e-06	29.167	3.6854e-05	3.2828e-05	9.2982e-06	1120.5	3.749e-07	3.6763e-07	1196.9	232.85	3.8821e-07	3.7224e-07	285.67	80.618	63.547	18.855	3.7504e-07	25.698	186.615	26.023	15.559	-14.154	92.371	113.012	-13.780	-6.231	121.575	91.247	-6.865	0.593	0.943	7.073	115.300	6.448	-8191	255	
44355.254	1	1	0	0	0.126	0.098675	0.20079	0.27535	0.017728	0.058997	0.24688	0.086699	0.057549	0.22721	0.20378	0.32713	0.075542	0.22791	0.1852	0.053158	-3.65	-4.0771	-4.6687	-3.9875	-4.5312	-4.3708	-3.9792	-4.875	-3.9521	-4.1021	-4.7125	-3.7958	-4.35	-4.55	-3.8375	-4.8021	77.554	226.580	-2.741	324.956	59.155	296.795	311.723	303.579	139.935	288.877	-0.688	45.638	157.684	248.865	271.857	309.655	0.0001033	0.00022909	7.2423e-05	1244.6	2.1607e-06	1.0138e-06	1327.5	257.92	2.4626e-06	1.4912e-06	324.95	90.511	71.652	21.044	1.0542e-06	29.135	3.7086e-05	3.3896e-05	8.9922e-06	1122.4	3.8164e-07	3.6067e-07	1198.2	232.86	3.9707e-07	3.6731e-07	285.67	80.633	63.655	18.881	3.7357e-07	25.669	189.785	80.379	-16.899	-14.057	130.642	110.886	-14.018	-6.357	137.086	77.076	-6.760	-0.089	0.919	7.109	64.765	7.019	-8191	255	
44355.371	1	1	0	0	0.14312	0.079617	0.046398	0.12278	0.069746	0.034642	0.23866	0.062771	0.27136	0.092267	0.027896	0.014793	0.12851	0.17854	0.092192	0.057781	-3.6896	-4.0708	-4.8729	-3.9583	-4.4062	-4.6979	-3.9917	-4.7937	-4.2646	-4.0229	-4.8979	-3.9417	-4.3271	-4.5292	-3.7771	-4.6708	-0.517	152.505	49.758	256.595	231.409	108.062	290.779	57.225	161.018	303.324	54.907	115.190	303.070	316.948	255.031	265.978	7.9472e-05	8.4094e-05	7.6865e-05	1235.3	2.4201e-06	3.6495e-06	1323.1	257.91	1.9741e-06	3.6983e-06	323.83	89.896	71.991	21.125	1.9019e-06	29.17	3.7709e-05	3.4203e-05	9.1544e-06	1121.3	3.8886e-07	3.6647e-07	1198.6	233.04	3.7547e-07	3.7421e-07	285.17	80.571	63.74	18.877	3.8828e-07	25.641	182.836	54.067	47.776	-14.130	123.827	87.332	-13.562	-6.456	224.344	82.233	-6.600	0.267	0.637	7.400	101.212	6.930	-8191	255	
44355.469	1	1	0	0	0.066413	0.081933	0.068324	0.35925	0.06114	0.20709	0.17738	0.047043	0.17965	0.35358	0.081696	0.089053	0.21165	0.1252	0.15456	0.28895	-3.9083	-3.9875	-4.7417	-4.0146	-4.1562	-4.6229	-3.9354	-4.7104	-4.5458	-3.8771	-4.8396	-4.0958	-4.2417	-4.6896	-3.7208	-4.7937	228.636	9.996	242.105	284.286	329.590	148.380	287.320	313.632	37.348	251.645	274.218	63.679	272.015	254.504	182.930	289.035	0.00012908	0.00027001	7.4538e-05	1237.3	2.9771e-06	2.3212e-06	1330.3	257.44	2.5609e-06	1.6808e-06	322.71	89.391	70.991	20.925	2.4449e-06	29.095	3.7913e-05	3.3782e-05	9.3683e-06	1121.6	3.8712e-07	3.762e-07	1198.2	232.94	4.0421e-07	3.7464e-07	285.25	80.403	63.557	18.829	3.8624e-07	25.611	171.823	329.518	3.620	-13.828	133.970	113.846	-13.758	-6.474	136.029	119.157	-6.923	0.396	0.604	7.260	75.391	6.862	-8191	255	
44355.562	1	1	0	0	0.14094	0.17433	0.35054	0.21839	0.16182	0.20474	0.25748	0.10237	0.16756	0.15159	0.012844	0.19484	0.12817	0.1152	0.11871	0.29429	-3.9938	-3.7	-4.6542	-4.2312	-4.1271	-4.6708	-3.8458	-4.55	-4.4292	-3.7729	-4.8958	-4.1667	-4.0188	-4.8729	-3.9792	-4.5083	61.603	145.903	106.154	298.471	244.876	101.205	184.734	132.909	276.346	303.268	242.586	3.269	42.444	38.835	136.069	186.089	0.00013584	0.00013363	4.2071e-05	1241.6	1.4669e-06	2.1748e-06	1330.7	256.22	1.8801e-06	1.134e-06	322.97	90.125	71.839	21.092	2.616e-06	29.492	3.7905e-05	3.4699e-05	9.4074e-06	1119.8	3.9098e-07	3.6963e-07	1198.5	232.2	3.9533e-07	3.7156e-07	284.78	80.57	63.594	18.903	3.8485e-07	25.762	170.637	61.668	330.112	-13.913	125.593	99.569	-13.868	-6.678	181.315	134.031	-6.526	0.092	0.329	6.919	109.985	7.033	-8191	255	
44355.684	1	1	0	0	0.12045	0.04225	0.067481	0.058624	0.030557	0.20509	0.16591	0.31348	0.1076	0.29529	0.27712	0.051723	0.17522	0.146	0.4666	0.1379	-4.2271	-3.8021	-4.7083	-4.4062	-3.9396	-4.7458	-3.9083	-4.4104	-4.5417	-3.8396	-4.8333	-4.2167	-3.9708	-4.6271	-3.8708	-4.4062	64.518	287.434	16.324	221.638	219.167	317.015	277.767	281.858	179.434	72.296	288.697	158.403	31.271	-1.311	39.317	203.856	8.2184e-05	0.0004302	0.00012145	1240.4	1.656e-06	7.0094e-07	1321.9	257.17	1.8776e-06	3.2035e-06	323.73	89.999	71.394	21.033	1.8115e-06	29.127	3.7475e-05	3.5539e-05	9.5749e-06	1119.9	3.9125e-07	3.662e-07	1197	232.65	3.7629e-07	3.8061e-07	285.27	80.578	63.392	18.868	3.8636e-07	25.65	196.043	34.083	22.170	-13.817	188.656	95.006	-13.871	-6.389	118.860	89.305	-6.895	0.001	0.783	7.801	100.963	6.852	-8191	255	
44355.781	1	1	0	0	0.27885	0.20292	0.16605	0.060017	0.079175	0.17817	0.012748	0.10505	0.08603	0.15785	0.11192	0.064502	0.13909	0.019546	0.08127	0.066199	-4.3938	-3.8042	-4.4896	-4.4521	-3.9083	-4.7208	-4.0917	-4.45	-4.6417	-3.7083	-4.6729	-4.5375	-3.7833	-4.7958	-4	-4.1958	44.560	42.186	329.716	45.263	1.779	27.658	158.601	78.551	74.747	123.681	10.702	112.195	14.075	73.537	254.573	197.374	0.00013313	0.00020458	0.00011093	1249.4	3.1513e-06	2.7678e-06	1325.8	257.61	2.709e-06	2.5692e-06	324.06	90.34	71.778	21.246	2.4029e-06	28.929	3.7128e-05	3.4975e-05	9.5885e-06	1123	3.9735e-07	3.6445e-07	1197.9	232.53	3.825e-07	3.7531e-07	285.88	80.614	63.689	18.876	3.9308e-07	25.691	183.224	2.467	45.869	-14.013	101.373	89.818	-13.918	-6.730	150.259	124.459	-6.975	0.311	0.496	7.360	106.334	7.120	-8191	255	
44355.852	1	1	0	0	0.08986	0.2511	0.0905	0.16008	0.12047	0.17489	0.10366	0.031478	0.19189	0.23672	0.1357	0.015986	0.2086	0.23067	0.19826	0.26667	-4.4146	-3.5792	-4.5938	-4.4729	-3.7042	-4.5875	-4.2354	-4.1542	-4.7021	-3.7	-4.4604	-4.6729	-3.9333	-4.7792	-3.9396	-4.0729	49.166	6.795	107.422	292.884	205.481	96.916	265.177	94.603	182.222	190.692	-0.567	0.010	266.039	26.146	59.709	241.163	0.00011636	0.00010373	0.00012649	1241.3	2.2438e-07	4.9396e-07	1329.1	257.95	2.0748e-06	1.8235e-06	323.42	89.836	71.829	21.099	2.7459e-06	29.205	3.7275e-05	3.539e-05	9.3366e-06	1121	3.9558e-07	3.7034e-07	1198.2	233.01	3.8121e-07	3.8598e-07	285.26	80.592	63.614	18.849	3.8452e-07	25.597	190.078	26.232	60.673	-13.734	206.723	167.209	-13.689	-6.458	128.402	54.580	-7.270	0.217	0.734	7.397	119.644	6.782	-8191	255	
44355.973	1	1	0	0	0.10685	0.032809	0.013867	0.10615	0.058765	0.15954	0.21719	0.14887	0.15405	0.26147	0.063867	0.16478	0.10751	0.089258	0.11531	0.23399	-4.625	-3.7042	-4.0729	-4.75	-3.5542	-4.6042	-4.4958	-3.9562	-4.6417	-3.8729	-4.325	-4.6875	-3.7729	-4.6062	-4.2875	-3.9583	8.732	230.241	240.794	273.478	205.405	211.647	298.367	279.199	65.687	93.861	-4.214	2.558	268.489	197.593	109.888	226.876	0.0001254	0.00010739	0.00010519	1245.7	9.1168e-08	1.0844e-06	1334.7	259.75	2.0348e-06	3.2313e-06	323.34	89.695	71.332	21.253	1.286e-06	29.136	3.6882e-05	3.4044e-05	9.4281e-06	1121.8	4.0044e-07	3.7114e-07	1200.6	233.36	3.8993e-07	3.7132e-07	285.66	80.479	63.584	18.854	3.8216e-07	25.63	205.842	39.776	61.597	-13.786	231.490	117.643	-13.707	-6.736	150.523	124.167	-6.946	0.321	0.633	7.330	45.547	6.779	-8191	255	
44356.066	1	1	0	0	0.15005	0.1527	0.070915	0.21398	0.076614	0.23126	0.30501	0.25633	0.076215	0.083533	0.032231	0.044543	0.099484	0.055867	0.15556	0.12404	-4.4271	-3.8917	-4.1021	-4.8542	-3.8333	-4.4271	-4.6167	-4.0208	-4.6396	-3.8917	-4.2396	-4.8562	-3.75	-4.5813	-4.475	-3.9292	317.139	278.413	253.632	322.863	317.928	214.248	325.111	265.257	180.834	180.748	325.181	-16.385	304.070	256.553	190.943	227.441	0.00010251	0.00021465	9.1493e-05	1245.1	2.7943e-06	2.5527e-06	1328.3	256.14	2.2896e-06	3.6135e-06	323.37	90.011	71.435	21.091	2.1767e-06	29.179	3.7591e-05	3.5685e-05	9.6962e-06	1121.3	4.1047e-07	3.7347e-07	1198.8	232.77	3.9827e-07	3.7677e-07	284.99	80.581	63.566	18.923	3.8766e-07	25.681	201.650	6.327	30.060	-13.706	165.036	105.399	-13.647	-6.506	132.023	98.208	-6.820	-0.035	0.733	7.053	89.338	6.866	-8191	255	
44356.164	1	1	0	0	0.15416	0.079101	0.12174	0.10366	0.030345	0.14406	0.092753	0.21647	0.14767	0.09972	0.034285	0.049135	0.071967	0.23744	0.17667	0.08399	-4.4771	-4.075	-4.0563	-4.8187	-3.8375	-4.3771	-4.7104	-3.9708	-4.5687	-4.1417	-4.1062	-4.8229	-3.9958	-4.2583	-4.5396	-3.8667	164.122	85.216	201.524	196.670	194.667	107.230	227.243	286.844	117.658	145.108	252.389	269.453	28.995	-24.209	284.887	213.862	8.2969e-05	0.00036536	0.00010067	1240.5	1.3976e-06	8.8429e-07	1330.6	258.25	2.1494e-06	1.8226e-06	322.52	89.619	72.025	21.161	1.2545e-06	28.882	3.7823e-05	3.5648e-05	9.9601e-06	1120.4	4.0755e-07	3.9039e-07	1199.9	232.95	4.056e-07	3.7976e-07	284.89	80.44	63.714	18.845	3.9477e-07	25.662	195.672	19.920	27.062	-14.000	192.758	102.723	-13.680	-6.331	145.600	105.435	-6.846	0.306	0.640	7.394	92.868	6.972	-8191	255	
44356.262	1	1	0	0	0.29533	0.035196	0.056223	0.070854	0.24364	0.19318	0.22195	0.1085	0.13476	0.29454	0.1099	0.21284	0.11132	0.20208	0.11483	0.17728	-4.3479	-4.2792	-3.9188	-4.8625	-3.85	-4.275	-4.65	-3.8438	-4.4187	-4.225	-3.9979	-4.8063	-3.9479	-4.1646	-4.6	-3.6312	-2.217	78.479	232.914	14.030	79.347	97.611	334.272	45.493	295.738	224.060	-0.397	124.413	4.151	143.050	276.866	162.326	9.8298e-05	0.00027725	6.601e-05	1243.9	2.7081e-06	2.3685e-06	1327.8	258.24	2.3405e-06	2.1777e-06	323.3	90.013	72.026	21.296	3.6098e-07	29.278	3.8228e-05	3.5839e-05	9.7651e-06	1122.4	4.0636e-07	3.9258e-07	1199.7	233.55	4.1075e-07	3.8461e-07	285.49	80.64	63.674	18.928	3.7858e-07	25.776	183.953	2.269	0.617	-13.771	117.100	114.780	-13.672	-6.539	150.677	87.591	-7.021	0.041	0.695	7.215	16.310	6.279	-8191	255	
44356.355	1	1	0	0	0.10898	0.2714	0.06055	0.3517	0.082649	0.1581	0.21827	0.20734	0.24398	0.07634	0.097051	0.085463	0.10705	0.17232	0.10988	0.23312	-4.1687	-4.4271	-3.9354	-4.7792	-3.9667	-4.0542	-4.8979	-3.8604	-4.5	-4.5813	-3.7708	-4.8646	-4.2146	-3.8812	-4.7125	-3.7521	318.015	130.516	105.919	274.201	122.177	49.863	230.487	160.699	29.560	159.889	179.167	-7.928	15.506	217.190	15.455	213.648	0.00013537	0.00015724	8.1504e-05	1242.4	1.3219e-06	2.7341e-06	1325.2	257.25	3.625e-07	3.1631e-06	324.92	89.835	72.064	21.098	1.9256e-06	29.064	3.8966e-05	3.4792e-05	9.8569e-06	1123.9	4.1402e-07	3.8789e-07	1199.2	232.73	3.9563e-07	3.7939e-07	285.37	80.688	63.681	18.877	3.8755e-07	25.665	174.875	2.423	5.471	-14.187	134.599	96.949	-13.752	-6.593	-13.958	93.594	-6.615	-0.248	0.649	7.427	116.560	6.851	-8191	255	
44356.477	1	1	0	0	0.10286	0.16964	0.064602	0.1349	0.12748	0.19858	0.16928	0.16287	0.33793	0.30666	0.26607	0.4053	0.26204	0.17346	0.083641	0.070691	-4.1896	-4.4729	-3.6562	-4.8	-4.1104	-3.8875	-4.8125	-3.775	-4.2188	-4.4833	-3.9083	-4.5687	-4.2521	-3.8479	-4.7458	-3.8479	231.747	217.966	173.810	272.411	145.152	186.656	301.935	276.198	327.755	83.761	18.193	302.241	238.551	256.929	170.160	182.404	9.0601e-05	0.00037508	8.7839e-05	1245	1.7712e-06	9.5341e-07	1333.2	256.32	9.745e-07	2.1329e-06	321.19	89.523	71.159	21.287	8.1983e-07	29.134	3.9184e-05	3.575e-05	1.0105e-05	1122.4	4.0234e-07	3.8717e-07	1201.9	232.46	3.9916e-07	3.8491e-07	285.04	80.575	63.715	18.943	3.9455e-07	25.67	182.112	24.756	29.433	-14.156	55.306	66.594	-13.771	-6.373	161.673	70.596	-6.931	0.616	1.058	7.383	68.923	7.064	-8191	255	
44356.547	1	1	0	0	0.23036	0.20881	0.13881	0.1149	0.19873	0.2447	0.072375	0.013481	0.32653	0.17462	0.05107	0.22836	0.19708	0.034063	0.12894	0.13733	-3.9021	-4.3792	-3.6729	-4.6521	-4.2333	-3.9354	-4.9667	-4.1417	-4.2562	-4.5333	-3.7854	-4.55	-4.5208	-3.875	-4.7646	-3.9583	-10.490	294.376	-9.947	310.039	319.397	1.836	239.567	190.090	217.058	232.113	62.094	335.507	19.869	248.622	204.512	201.825	8.9311e-05	2.1994e-05	4.5293e-05	1242.2	1.4299e-06	1.5774e-06	1332.3	256.29	1.9074e-06	4.1059e-06	322.04	90.016	71.193	21.127	3.0294e-06	29.347	3.9119e-05	3.5038e-05	9.968e-06	1122.1	4.0566e-07	3.8324e-07	1201.9	232.33	3.9602e-07	3.792e-07	285.29	80.543	63.706	18.848	3.8318e-07	25.727	180.177	207.724	51.422	-13.856	104.532	86.418	-13.689	-6.366	141.233	98.941	-7.051	-0.098	0.746	6.697	102.465	6.932	-8191	255	
44356.645	1	1	0	0	0.13174	0.1941	0.17547	0.36139	0.26267	0.32202	0.15947	0.28113	0.080053	0.20052	0.22352	0.20778	0.21567	0.24292	0.15807	0.12879	-3.6604	-4.7646	-3.6167	-4.5708	-4.4688	-3.8708	-4.7979	-4.0146	-3.7583	-4.5083	-3.9375	-4.3125	-4.3958	-3.6458	-4.6333	-4.1375	177.710	122.158	292.612	250.830	301.433	320.593	286.559	305.002	144.428	237.537	290.078	-22.219	316.611	300.036	218.447	164.661	0.00012918	0.00029977	0.0001439	1240.4	3.9859e-07	2.4178e-06	1329.9	256.71	2.4835e-06	3.1364e-06	323.48	89.685	72.029	21.301	2.5114e-06	29.092	3.8256e-05	3.5234e-05	1.0104e-05	1120.3	4.0526e-07	3.8881e-07	1200.1	232.54	4.1208e-07	3.7825e-07	285.46	80.667	63.735	18.903	3.8989e-07	25.706	195.473	23.486	15.229	-14.000	24.813	75.717	-13.530	-6.337	192.058	94.001	-6.789	0.120	1.383	7.378	138.129	6.591	-8191	255	
44356.766	1	1	0	0	0.071784	0.086448	0.22243	0.16023	0.20231	0.11734	0.25729	0.16551	0.16865	0.13747	0.10425	0.27852	0.070645	0.25995	0.10558	0.069473	-3.6917	-4.7688	-3.9188	-4.4146	-4.4375	-3.9375	-4.7854	-4.2438	-3.8417	-4.7333	-4.2125	-4.3438	-4.8812	-3.5167	-4.6375	-4.4833	9.997	103.635	60.920	259.742	314.837	33.663	234.125	262.278	163.252	115.187	217.257	281.526	186.283	282.785	302.348	122.356	0.00011438	0.00011509	0.00012134	1242.1	2.0944e-06	2.7747e-06	1324.4	258.46	2.2558e-06	1.7071e-06	323.03	89.72	71.493	21.208	4.4656e-06	29.117	3.9563e-05	3.4604e-05	1.0063e-05	1122.3	4.0642e-07	3.9631e-07	1199.5	233.03	4.0931e-07	3.8539e-07	284.75	80.574	63.623	18.921	3.8721e-07	25.699	178.715	148.079	79.624	-14.209	117.112	82.954	-13.756	-6.243	99.955	40.773	-6.401	0.396	0.966	7.089	97.479	6.653	-8191	255	
44356.859	1	1	0	0	0.040293	0.090823	0.11367	0.0043223	0.27064	0.17177	0.32462	0.11327	0.17019	0.049008	0.21662	0.12464	0.16258	0.10433	0.14323	0.34658	-3.7167	-4.7562	-3.9729	-4.0729	-4.6083	-3.75	-4.5917	-4.5771	-3.7708	-4.7292	-4.2312	-4.0771	-4.6646	-3.7646	-4.3854	-4.4229	102.025	227.307	-9.503	-6.642	186.015	179.344	235.116	248.616	15.891	164.561	269.391	298.441	212.531	295.646	143.474	202.356	7.631e-05	0.00029318	7.2733e-05	1237.4	2.7069e-06	2.7303e-06	1324.1	257.37	9.3594e-07	2.1347e-06	322.77	89.463	72.188	21	1.5347e-06	29.156	3.8916e-05	3.4372e-05	9.9352e-06	1120.6	4.0474e-07	3.9911e-07	1197.5	233.16	4.0622e-07	3.9163e-07	284.72	80.536	63.759	18.88	3.9846e-07	25.72	180.458	35.176	-18.564	-13.814	127.999	85.508	-13.454	-6.032	132.122	7.872	-6.549	0.178	0.730	7.314	73.326	7.295	-8191	255	
44356.957	1	1	0	0	0.37601	0.13323	0.058694	0.32498	0.063772	0.21188	0.34342	0.15337	0.12023	0.23363	0.15954	0.26379	0.12506	0.15568	0.31218	0.13611	-3.4437	-4.5896	-3.9417	-4.1208	-4.7396	-3.8729	-4.5437	-4.5083	-3.7229	-4.75	-4.3646	-3.9229	-4.9021	-3.9354	-4.1542	-4.5687	74.004	33.992	198.535	299.189	130.967	275.195	241.925	270.887	277.656	261.531	335.203	3.202	200.754	95.163	-8.621	-16.887	9.1892e-05	0.00015048	6.6519e-05	1240.2	1.8403e-06	2.0748e-06	1330.8	255.83	1.037e-06	2.914e-06	324.04	89.293	71.874	21.246	2.2111e-06	29.094	3.9145e-05	3.6321e-05	1.0278e-05	1120.6	4.1438e-07	4.0537e-07	1199.7	232.84	4.2287e-07	4.0654e-07	285.24	80.498	63.64	18.941	4.0824e-07	25.715	185.237	0.678	-2.634	-13.951	124.819	121.452	-13.421	-6.034	138.451	96.010	-6.447	0.294	1.103	7.889	73.203	6.879	-8191	255	
44357.051	1	1	0	0	0.041388	0.026363	0.26533	0.18293	0.20456	0.11703	0.036082	0.14558	0.066713	0.12265	0.068873	0.055875	0.21735	0.088117	0.11207	0.13504	-3.4458	-4.5042	-4.2083	-3.9729	-4.7292	-3.9146	-4.2562	-4.6167	-3.775	-4.6146	-4.5354	-3.9542	-4.7729	-3.9167	-4.1917	-4.8354	25.566	14.181	97.376	-10.969	28.085	150.074	260.786	280.964	298.395	317.364	184.025	89.549	5.342	122.107	255.785	294.095	0.00012515	4.0987e-05	0.00012311	1239.1	3.1288e-06	1.298e-06	1328.7	257.81	1.7682e-06	2.872e-06	322.2	89.407	71.273	21.059	1.1693e-06	29.184	3.9643e-05	3.6615e-05	1.0002e-05	1122	4.0384e-07	3.995e-07	1200.6	233.32	4.1398e-07	3.9184e-07	285.4	80.518	63.685	18.906	4.0268e-07	25.75	193.722	308.222	50.383	-14.044	138.710	123.209	-13.731	-5.949	208.972	81.958	-7.021	0.501	0.982	7.219	98.107	6.809	-8191	255	
44357.148	1	1	0	0	0.087716	0.067282	0.19603	0.43357	0.097078	0.17273	0.057175	0.11047	0.093989	0.071889	0.091009	0.15006	0.33708	0.19525	0.16982	0.045183	-3.5083	-4.5437	-4.6229	-3.9271	-4.7021	-4.0146	-4.2667	-4.6417	-3.8417	-4.3833	-4.4875	-3.7313	-4.8458	-4.2604	-4	-4.7833	146.783	199.510	211.826	311.256	127.364	47.771	33.273	171.476	179.505	131.158	160.387	33.555	265.504	23.844	0.833	255.605	9.6002e-05	0.0001937	6.4691e-05	1239.5	3.1492e-06	8.6154e-07	1329.6	256.81	1.6789e-06	2.1886e-06	321.04	89.542	71.572	21.083	1.9126e-06	28.803	3.9699e-05	3.541e-05	9.965e-06	1121.4	4.1282e-07	3.9424e-07	1199.7	232.7	4.1271e-07	3.8613e-07	284.81	80.678	63.596	18.907	3.9558e-07	25.642	183.753	30.842	30.635	-13.747	131.749	35.690	-13.636	-6.461	141.249	115.618	-6.906	0.328	1.054	7.163	64.864	6.915	-8191	255	
44357.246	1	1	0	0	0.30577	0.15027	0.33995	0.3805	0.13786	0.12175	0.017358	0.095643	0.087758	0.14824	0.1868	0.086588	0.11046	0.23016	0.15922	0.11912	-3.7375	-4.3417	-4.3458	-4.0542	-4.7646	-4.2229	-4.0458	-4.7688	-3.8354	-4.3021	-4.5521	-3.925	-4.6271	-4.2396	-3.9604	-4.8938	74.851	95.373	168.235	-18.963	8.361	14.568	263.058	-13.800	-21.745	36.549	258.541	317.048	212.412	43.436	185.178	307.124	0.00010961	0.00022064	8.779e-05	1240.4	1.6849e-06	2.9131e-06	1326.5	255.27	2.03e-06	2.4714e-06	320.7	89.609	71.661	21.047	4.9562e-07	29.167	4.0235e-05	3.5616e-05	9.7937e-06	1121	4.0611e-07	4.0168e-07	1199.7	232.83	4.1989e-07	4.0241e-07	284.25	80.492	63.876	18.89	4.0635e-07	25.709	201.418	21.884	-5.666	-13.747	142.129	81.052	-13.786	-6.052	133.350	108.864	-6.964	0.105	0.977	7.747	179.568	7.259	-8191	255	
44357.363	1	1	0	0	0.057371	0.2002	0.15539	0.27388	0.1526	0.084912	0.076475	0.11839	0.086073	0.13659	0.16508	0.15376	0.073408	0.18297	0.084711	0.090727	-3.6667	-4.1312	-4.6125	-3.8646	-4.4875	-4.4354	-3.975	-4.7812	-3.8479	-4.0875	-4.8854	-3.7875	-4.5333	-4.6896	-3.9604	-4.6687	47.264	40.448	226.543	305.945	260.743	17.283	174.014	184.125	16.161	253.120	294.888	97.184	316.499	15.857	62.198	14.455	0.00011235	0.00029657	3.6453e-05	1239	3.7175e-06	1.4049e-06	1324.2	256.36	3.7521e-07	3.924e-07	322.55	88.896	71.452	21.076	2.0202e-06	29.293	3.9713e-05	3.5964e-05	9.994e-06	1122.7	4.0114e-07	3.8941e-07	1199.1	232.83	4.016e-07	4.0349e-07	285.06	80.435	63.639	18.904	4.0059e-07	25.703	194.799	16.006	82.890	-13.842	127.977	68.631	-13.411	-6.116	59.809	27.368	-6.874	0.539	0.827	7.604	30.246	6.963	-8191	255	
44357.461	1	1	0	0	0.16402	0.11994	0.23497	0.17347	0.1174	0.052703	0.040879	0.059116	0.107	0.15321	0.0563	0.27506	0.15557	0.099336	0.20105	0.099271	-3.8312	-4.0958	-4.6708	-4.0333	-4.3792	-4.5625	-4.0563	-4.7479	-4.1833	-3.9062	-4.8771	-3.8688	-4.5042	-4.6896	-3.525	-4.6396	308.619	29.536	27.194	326.747	28.100	301.468	298.767	75.497	183.993	222.355	275.251	163.932	96.704	83.010	25.497	223.074	0.00014011	3.6516e-05	0.00010973	1235.2	8.4519e-07	1.2514e-06	1324.4	255.57	1.8445e-06	2.4578e-06	320.67	89.337	71.239	21.081	1.9308e-06	29	4.0755e-05	3.7343e-05	9.9296e-06	1119.7	4.0725e-07	3.8476e-07	1198.4	232.65	4.0621e-07	3.8513e-07	285	80.508	63.606	18.919	3.9546e-07	25.68	187.245	317.437	-3.771	-13.840	159.847	134.699	-13.437	-6.203	190.773	104.134	-6.062	0.644	0.830	7.185	55.993	7.092	-8191	255	
44357.555	1	1	0	0	0.16935	0.23211	0.15744	0.071332	0.021262	0.15745	0.33531	0.3658	0.04736	0.15711	0.16439	0.036013	0.13274	0.13216	0.089016	0.18333	-4.0708	-3.9813	-4.6937	-3.8396	-4.1	-4.5	-3.8771	-4.5167	-4.2333	-3.9125	-5.0167	-4.0938	-4.1312	-4.6667	-3.9938	-4.5354	87.808	223.957	73.243	258.256	78.068	167.321	244.331	260.916	323.416	170.833	244.553	221.771	304.769	-13.092	132.936	311.415	0.00012389	0.00021254	3.6096e-05	1233.5	1.803e-06	2.6865e-06	1325.7	257.41	2.2239e-06	2.3445e-06	321.35	88.98	71.428	21.182	2.3551e-06	29.018	3.8995e-05	3.4677e-05	9.6837e-06	1122.2	3.9961e-07	3.8135e-07	1199.3	232.96	4.1075e-07	3.8754e-07	285.09	80.328	63.641	18.881	3.8663e-07	25.63	189.886	26.789	77.674	-13.684	112.031	108.307	-13.562	-5.960	159.282	97.229	-6.596	0.729	0.753	7.642	99.247	7.489	-8191	255	
44357.652	1	1	0	0	0.10574	0.34591	0.060776	0.30351	0.15225	0.033407	0.0048706	0.22558	0.22734	0.076477	0.10781	0.11057	0.31401	0.21594	0.088317	0.1333	-4.1771	-3.7042	-4.6333	-4.0833	-4.0479	-4.7083	-4.0292	-4.5188	-4.4167	-3.7625	-4.775	-4.0479	-3.9896	-4.6542	-3.9	-4.3958	208.501	56.258	305.006	16.354	267.544	242.941	45.775	322.714	159.876	164.183	233.338	128.120	217.499	280.127	16.901	158.582	7.8338e-05	0.00023278	0.00010003	1236.8	2.1987e-06	1.908e-06	1322.1	255.71	1.6042e-06	1.1463e-06	321.14	89.381	71.281	20.966	1.5463e-06	28.827	3.8766e-05	3.5721e-05	9.6886e-06	1121.8	4.0938e-07	3.7506e-07	1200.3	232.37	4.0229e-07	3.9536e-07	285.18	80.504	63.537	18.852	3.9014e-07	25.617	182.211	53.979	45.322	-13.720	98.203	106.128	-13.485	-6.218	139.315	75.736	-6.538	0.696	1.003	7.352	68.930	6.936	-8191	255	
44357.746	1	1	0	0	0.011238	0.2156	0.23147	0.10807	0.21206	0.049556	0.03293	0.10814	0.36877	0.04944	0.16904	0.1041	0.14366	0.25838	0.077387	0.19799	-4.3	-4.0437	-4.8187	-4.3562	-3.7646	-4.825	-4.025	-4.4333	-4.6125	-3.8604	-4.7083	-4.3104	-3.9833	-4.8083	-3.9396	-4.3333	124.192	83.214	118.509	-11.608	221.901	119.706	126.215	325.602	91.457	24.738	317.329	111.935	330.930	71.846	208.361	7.486	0.00010206	0.00019346	9.5451e-05	1229.8	1.2307e-06	3.0097e-06	1327.3	257.32	1.541e-06	2.5851e-06	326.55	90.256	71.905	21.335	6.4106e-07	29.428	3.8578e-05	3.5053e-05	9.5968e-06	1121.4	4.0048e-07	3.787e-07	1197.7	232.61	3.9019e-07	3.8384e-07	285.7	80.615	63.727	18.925	3.9683e-07	25.781	192.459	61.296	5.274	-13.503	110.931	83.416	-13.420	-6.319	127.918	108.104	-7.141	-0.221	0.273	7.138	134.980	6.344	-8191	255	
44357.844	1	1	0	0	0.23264	0.16832	0.17546	0.082632	0.049495	0.096581	0.16822	0.21289	0.10907	0.090214	0.19223	0.30961	0.15301	0.17092	0.15038	0.15828	-4.3625	-3.6479	-4.5813	-4.4229	-3.9125	-4.7438	-4.1562	-4.2063	-4.6979	-3.7104	-4.6125	-4.3958	-3.85	-4.7063	-3.975	-4.1542	186.100	80.488	112.447	298.667	59.125	226.694	181.957	206.773	221.153	147.637	223.481	286.491	215.834	86.773	-13.558	259.291	0.00013031	0.00025088	9.7691e-05	1253.2	1.8533e-06	1.3708e-06	1343.9	260.38	3.136e-06	4.7051e-06	326.31	90.301	72.726	21.293	1.57e-06	29.433	3.8143e-05	3.5566e-05	9.7541e-06	1125.7	3.9921e-07	3.7358e-07	1203.6	233.48	3.9243e-07	3.8605e-07	286.44	80.744	63.839	18.998	3.9223e-07	25.8	201.926	59.588	35.777	-14.268	114.632	87.771	-13.802	-6.764	184.729	103.061	-7.331	0.098	0.133	7.098	52.609	6.245	-8191	255	
#DATA ENDS
