BOXY.EXE: ISS Imagent and Oximeter Data Acquisition Program Version 0.80
Ascii Record File

#ACQ INFORMATION
2  Detector Channels 
16  External MUX Channels 
1  Auxiliary Channels 
5000  Waveform (CCF) Frequency (Hz)
1  Waveforms Skipped 
30  Waveforms Averaged 
1  Cycles Averaged 
16  Acquisitions per Waveform 
10.0806  Updata Rate (Hz) 

#FILE INFORMATION
TRUE -- External MUX Channel results are PARSED.
FALSE -- AC DC and Phase are NOT grouped.
TRUE -- Companion Program Settings File CREATED.
FALSE -- AC data not excluded
FALSE -- DC data not excluded
FALSE -- Phase data not excluded
FALSE -- Auxillary Chn. data not excluded
Tab delimiters

#CALIBRATION STATE
TRUE -- Waveform Calibration Values APPLIED.


#AUX CALIBRATION VALUES
Val Type	aux-1	

Term	1.0000e+00	
Factor	0.0000e+00	


#WF CALIBRATION VALUES
A = Detector Channel
Val Type	A-AC1	A-AC2	A-AC3	A-AC4	A-AC5	A-AC6	A-AC7	A-AC8	A-AC9	A-AC10	A-AC11	A-AC12	A-AC13	A-AC14	A-AC15	A-AC16	A-DC1	A-DC2	A-DC3	A-DC4	A-DC5	A-DC6	A-DC7	A-DC8	A-DC9	A-DC10	A-DC11	A-DC12	A-DC13	A-DC14	A-DC15	A-DC16	A-Ph1	A-Ph2	A-Ph3	A-Ph4	A-Ph5	A-Ph6	A-Ph7	A-Ph8	A-Ph9	A-Ph10	A-Ph11	A-Ph12	A-Ph13	A-Ph14	A-Ph15	A-Ph16	

Term	0.00000e+00	0.00000e+00	0.00000e+00	0.00000e+00	0.00000e+00	0.00000e+00	0.00000e+00	0.00000e+00	0.00000e+00	0.00000e+00	0.00000e+00	0.00000e+00	0.00000e+00	0.00000e+00	0.00000e+00	0.00000e+00	0.00000e+00	0.00000e+00	0.00000e+00	0.00000e+00	0.00000e+00	0.00000e+00	0.00000e+00	0.00000e+00	0.00000e+00	0.00000e+00	0.00000e+00	0.00000e+00	0.00000e+00	0.00000e+00	0.00000e+00	0.00000e+00	0.00000e+00	0.00000e+00	0.00000e+00	0.00000e+00	0.00000e+00	0.00000e+00	0.00000e+00	0.00000e+00	0.00000e+00	0.00000e+00	0.00000e+00	0.00000e+00	0.00000e+00	0.00000e+00	0.00000e+00	0.00000e+00	
Factor	1.00000e+00	1.00000e+00	1.00000e+00	1.00000e+00	1.00000e+00	1.00000e+00	1.00000e+00	1.00000e+00	1.00000e+00	1.00000e+00	1.00000e+00	1.00000e+00	1.00000e+00	1.00000e+00	1.00000e+00	1.00000e+00	1.00000e+00	1.00000e+00	1.00000e+00	1.00000e+00	1.00000e+00	1.00000e+00	1.00000e+00	1.00000e+00	1.00000e+00	1.00000e+00	1.00000e+00	1.00000e+00	1.00000e+00	1.00000e+00	1.00000e+00	1.00000e+00	X	X	X	X	X	X	X	X	X	X	X	X	X	X	X	X	

B = Detector Channel
Val Type	B-AC1	B-AC2	B-AC3	B-AC4	B-AC5	B-AC6	B-AC7	B-AC8	B-AC9	B-AC10	B-AC11	B-AC12	B-AC13	B-AC14	B-AC15	B-AC16	B-DC1	B-DC2	B-DC3	B-DC4	B-DC5	B-DC6	B-DC7	B-DC8	B-DC9	B-DC10	B-DC11	B-DC12	B-DC13	B-DC14	B-DC15	B-DC16	B-Ph1	B-Ph2	B-Ph3	B-Ph4	B-Ph5	B-Ph6	B-Ph7	B-Ph8	B-Ph9	B-Ph10	B-Ph11	B-Ph12	B-Ph13	B-Ph14	B-Ph15	B-Ph16	

Term	0.00000e+00	0.00000e+00	0.00000e+00	0.00000e+00	0.00000e+00	0.00000e+00	0.00000e+00	0.00000e+00	0.00000e+00	0.00000e+00	0.00000e+00	0.00000e+00	0.00000e+00	0.00000e+00	0.00000e+00	0.00000e+00	0.00000e+00	0.00000e+00	0.00000e+00	0.00000e+00	0.00000e+00	0.00000e+00	0.00000e+00	0.00000e+00	0.00000e+00	0.00000e+00	0.00000e+00	0.00000e+00	0.00000e+00	0.00000e+00	0.00000e+00	0.00000e+00	-8.19876e+01	-1.12488e+02	-1.32334e+02	-1.83765e+02	-5.47796e+01	-7.96704e+01	-1.58050e+02	-1.62015e+02	-4.66416e+01	-8.78703e+01	-1.70682e+02	-1.70765e+02	-1.77608e+02	-1.76832e+02	-7.22374e+01	-1.49734e+02	
Factor	1.97146e-05	1.23164e-04	3.32636e-05	1.69880e-01	1.09298e-06	1.11543e-06	1.82340e-01	6.04400e-02	9.77201e-07	1.31635e-06	1.00421e-01	3.42866e-02	2.87001e-02	1.09200e-02	1.35373e-06	1.56389e-02	8.88536e-07	9.06807e-07	2.53891e-07	8.32282e-02	9.95797e-09	9.96105e-09	8.40902e-02	2.94902e-02	9.96807e-09	9.92728e-09	4.65780e-02	1.59708e-02	1.39218e-02	5.21665e-03	9.98655e-09	7.18501e-03	X	X	X	X	X	X	X	X	X	X	X	X	X	X	X	X	



#DISTANCE SETTINGS
A = Detector Channel
A-1	A-2	A-3	A-4	A-5	A-6	A-7	A-8	A-9	A-10	A-11	A-12	A-13	A-14	A-15	A-16	

2.5000e+00	3.0000e+00	2.5000e+00	3.0000e+00	2.0000e+00	3.0000e+00	1.5000e+00	3.0000e+00	3.0000e+00	3.0000e+00	3.0000e+00	3.0000e+00	3.0000e+00	3.0000e+00	1.5000e+00	3.0000e+00	

B = Detector Channel
B-1	B-2	B-3	B-4	B-5	B-6	B-7	B-8	B-9	B-10	B-11	B-12	B-13	B-14	B-15	B-16	

1.0000e+01	1.0000e+01	1.0000e+01	1.4400e+00	1.0000e+01	1.0000e+01	1.5100e+00	1.9400e+00	1.0000e+01	1.0000e+01	1.9900e+00	2.4900e+00	2.4100e+00	2.9000e+00	1.0000e+01	2.9800e+00	




#DATA BEGINS
time	group	step	mark	flag	A-AC1	A-AC2	A-AC3	A-AC4	A-AC5	A-AC6	A-AC7	A-AC8	A-AC9	A-AC10	A-AC11	A-AC12	A-AC13	A-AC14	A-AC15	A-AC16	A-DC1	A-DC2	A-DC3	A-DC4	A-DC5	A-DC6	A-DC7	A-DC8	A-DC9	A-DC10	A-DC11	A-DC12	A-DC13	A-DC14	A-DC15	A-DC16	A-Ph1	A-Ph2	A-Ph3	A-Ph4	A-Ph5	A-Ph6	A-Ph7	A-Ph8	A-Ph9	A-Ph10	A-Ph11	A-Ph12	A-Ph13	A-Ph14	A-Ph15	A-Ph16	B-AC1	B-AC2	B-AC3	B-AC4	B-AC5	B-AC6	B-AC7	B-AC8	B-AC9	B-AC10	B-AC11	B-AC12	B-AC13	B-AC14	B-AC15	B-AC16	B-DC1	B-DC2	B-DC3	B-DC4	B-DC5	B-DC6	B-DC7	B-DC8	B-DC9	B-DC10	B-DC11	B-DC12	B-DC13	B-DC14	B-DC15	B-DC16	B-Ph1	B-Ph2	B-Ph3	B-Ph4	B-Ph5	B-Ph6	B-Ph7	B-Ph8	B-Ph9	B-Ph10	B-Ph11	B-Ph12	B-Ph13	B-Ph14	B-Ph15	B-Ph16	aux-1	digaux	

7367.498	1	1	0	768	0.20221	0.19233	0.11455	0.17926	0.30326	0.094005	0.17186	0.13805	0.1347	0.19808	0.14518	0.38163	0.16116	0.26935	0.038945	0.16497	-1.8083	-2.7792	-2.5208	-2.4979	-2.8688	-2.3521	-2.6604	-2.6833	-2.1604	-2.8229	-2.7188	-2.2729	-2.8563	-2.4813	-2.4521	-2.8854	253.695	196.598	206.639	298.958	198.993	253.168	261.388	225.209	257.582	281.750	-44.965	266.749	132.694	293.050	22.716	208.265	0.00020553	0.00038858	0.00023348	1271.4	9.8432e-07	9.9547e-07	1281.3	348.3	2.3604e-06	1.1196e-05	402.42	135.9	117.09	40.964	4.0321e-06	51.171	0.0002969	0.0003377	9.015e-05	1270.6	3.3244e-06	3.6648e-06	1282.6	348.3	3.247e-06	3.6907e-06	397.49	136.25	117.4	41.099	3.4091e-06	50.656	207.737	132.475	49.089	-33.071	208.745	38.539	-33.139	-28.164	176.914	87.237	-29.086	-24.207	-23.760	-19.470	112.138	-20.165	-8191	255	
7367.594	1	1	0	0	0.11488	0.11321	0.070346	0.28942	0.2402	0.22418	0.22295	0.1083	0.10107	0.28469	0.16335	0.13002	0.058085	0.18571	0.17722	0.20771	-1.8271	-2.7854	-2.5792	-2.5021	-2.9479	-2.3833	-2.5979	-3.0083	-2.2333	-2.8042	-2.8146	-2.3729	-2.8292	-2.4188	-2.225	-2.8271	209.126	79.574	128.881	305.169	80.968	194.138	209.239	12.201	-40.551	45.970	-13.919	227.505	271.659	299.453	33.214	273.442	0.00026857	0.00063043	2.9234e-05	1265.3	2.5633e-06	4.2695e-06	1274.3	346.01	1.8519e-06	7.4661e-06	401.89	135.84	116.87	41.04	5.011e-06	51.115	0.00031381	0.00033712	8.796e-05	1266.6	3.5199e-06	3.6626e-06	1277.2	346.59	3.5336e-06	3.6436e-06	396.37	135.79	117.17	40.96	3.3647e-06	50.475	183.710	64.744	31.781	-33.203	292.018	67.497	-32.988	-28.164	138.521	85.246	-29.144	-24.435	-23.856	-19.741	141.776	-20.484	-8191	255	
7367.690	1	1	0	0	0.14945	0.065978	0.095174	0.41908	0.11553	0.23072	0.25486	0.10307	0.23446	0.22605	0.20433	0.31394	0.11641	0.28842	0.074455	0.20175	-1.6771	-2.6583	-2.7646	-2.2729	-2.7479	-2.5563	-2.4021	-2.7583	-2.3083	-2.6896	-2.8563	-2.2521	-3.1	-2.5979	-2.3167	-2.8104	203.169	44.366	289.201	256.342	-15.380	59.318	250.137	238.978	-36.512	181.826	-22.389	208.471	67.261	185.439	200.186	164.090	0.00013166	0.00021959	0.00012168	1266.9	4.1461e-06	4.4752e-06	1280.8	347.21	2.3862e-06	2.7871e-06	400.19	135.8	116.79	40.939	8.5973e-06	51.31	0.00033244	0.00032784	8.7159e-05	1265.5	3.6966e-06	3.6102e-06	1275.8	346.93	3.665e-06	3.5326e-06	395.62	135.66	117.23	40.781	3.2773e-06	50.588	196.308	10.426	30.794	-33.209	208.330	117.131	-33.141	-28.119	76.119	101.576	-28.698	-24.236	-23.725	-19.761	125.098	-20.116	-8191	255	
7367.786	1	1	0	0	0.15337	0.19782	0.031354	0.3818	0.056472	0.14606	0.32997	0.15864	0.19769	0.044635	0.20642	0.25597	0.070411	0.17706	0.13969	0.10794	-1.8458	-2.5979	-2.6229	-2.1646	-2.7708	-2.675	-2.2854	-2.8917	-2.2958	-2.5333	-2.9792	-2.2833	-2.8542	-2.6771	-2.1667	-3.0125	64.820	-42.921	133.757	267.930	293.517	143.552	252.980	260.202	122.997	-40.466	22.121	306.144	74.936	-39.814	-38.396	273.685	0.00019534	0.00034831	6.1355e-05	1273.2	3.3275e-06	5.5524e-06	1276.9	345.42	4.0911e-06	6.2094e-06	401.06	135.72	117.93	41.138	5.5957e-06	51.18	0.00034225	0.00031866	8.49e-05	1266.2	3.7466e-06	3.5048e-06	1274.9	347.12	3.7499e-06	3.394e-06	394.86	135.97	117.31	40.826	3.2188e-06	50.658	181.741	94.461	29.325	-33.565	144.525	62.069	-33.035	-27.947	137.683	-3.955	-28.853	-24.544	-24.087	-19.925	98.044	-20.435	-8191	255	
7367.882	1	1	0	0	0.28748	0.29206	0.17286	0.40835	0.12835	0.10426	0.17867	0.16322	0.17381	0.36993	0.11185	0.096367	0.15143	0.070144	0.18056	0.032591	-1.9021	-2.3146	-2.6937	-2.3146	-2.625	-2.7667	-2.3167	-2.9479	-2.3104	-2.3563	-2.9271	-2.3125	-2.7562	-2.75	-2.2625	-2.6396	4.958	34.531	226.879	308.922	62.264	254.925	219.392	231.460	210.256	54.354	133.570	13.221	201.777	191.502	219.039	294.875	0.00011405	0.00036329	5.9974e-05	1268	4.2256e-06	3.3498e-06	1281.8	347.29	4.9162e-06	3.012e-06	400.91	136.15	116.93	41.208	6.8995e-06	51.439	0.00033866	0.00031127	8.3575e-05	1267.3	3.6754e-06	3.4623e-06	1273.8	347.38	3.6701e-06	3.3347e-06	394.73	136.11	116.76	40.731	3.2158e-06	50.609	196.639	48.627	76.509	-33.557	64.991	76.963	-33.345	-28.405	80.807	113.922	-29.267	-24.474	-24.270	-19.807	107.836	-20.484	-8191	255	
7367.979	1	1	0	0	0.24658	0.085979	0.11201	0.24948	0.015253	0.13103	0.18779	0.24245	0.1868	0.13669	0.23538	0.13922	0.26341	0.21864	0.13548	0.17701	-2.0083	-2.3792	-2.9688	-2.4	-2.5417	-2.9333	-2.3542	-2.9354	-2.6021	-2.4146	-3.1125	-2.175	-2.8521	-2.8333	-2.0083	-2.8396	-6.239	24.589	306.005	298.285	-25.049	113.490	249.954	-43.112	182.866	-2.855	279.160	-29.011	288.834	275.342	240.314	-43.977	0.00014079	0.00067983	0.0001246	1276.2	2.0214e-06	2.8821e-06	1284.3	347.89	2.516e-06	3.5675e-06	401.99	136.48	117.03	40.992	6.9683e-06	51.304	0.00033292	0.00030762	8.4849e-05	1268.1	3.6111e-06	3.4348e-06	1271.2	347.1	3.6017e-06	3.3144e-06	394.15	135.9	116.21	40.446	3.3802e-06	50.584	189.592	33.415	121.877	-33.639	147.203	180.016	-33.431	-28.441	115.859	135.499	-29.231	-24.720	-24.299	-19.964	147.041	-20.502	-8191	255	
7368.099	1	1	0	0	0.097549	0.12932	0.14966	0.24005	0.18463	0.095748	0.26128	0.2237	0.24499	0.19741	0.12427	0.19722	0.27467	0.20327	0.18591	0.1295	-2.0125	-2.1854	-2.9062	-2.4125	-2.4208	-2.8625	-2.4792	-2.8333	-2.5146	-2.3292	-2.9333	-2.3771	-2.3792	-2.825	-2.2583	-2.7771	144.549	106.591	223.591	297.695	-3.468	101.320	286.349	237.348	139.427	82.708	47.868	256.956	-46.515	222.089	-10.287	146.615	0.00014968	0.00049658	0.00012625	1278.3	1.7315e-06	1.6397e-06	1283.4	348.23	1.5364e-06	5.1404e-06	400.17	135.27	116.8	40.927	5.4168e-06	51.127	0.00032914	0.0002995	8.9612e-05	1265.7	3.5175e-06	3.3657e-06	1270.8	346.49	3.5825e-06	3.2808e-06	393.87	135.25	115.75	40.373	3.6708e-06	50.409	189.913	55.575	124.196	-33.780	166.274	93.835	-33.628	-28.770	149.095	77.744	-29.590	-25.025	-24.462	-19.986	180.063	-20.686	-8191	255	
7368.195	1	1	0	0	0.20073	0.13459	0.048852	0.14907	0.13896	0.23196	0.37238	0.25338	0.12973	0.18253	0.1162	0.2509	0.06333	0.32856	0.10111	0.28889	-2.325	-2.1917	-2.7	-2.4125	-2.4292	-2.7583	-2.2458	-2.6042	-2.7083	-2.2562	-2.8563	-2.4396	-2.425	-2.7792	-1.9937	-2.6562	-9.201	38.243	-19.377	262.020	10.715	172.428	290.882	233.368	259.679	-5.995	223.847	254.257	151.733	-33.688	126.074	279.556	6.3352e-05	0.00020026	9.7653e-05	1272.4	2.5101e-06	2.8527e-06	1285.4	347.16	3.2233e-06	1.9896e-06	401.05	135.08	116.5	40.719	3.9464e-06	51.253	0.0003287	0.00029786	9.5293e-05	1262.9	3.5045e-06	3.383e-06	1270.5	345.51	3.5827e-06	3.3104e-06	394.44	134.74	115.39	40.264	3.8495e-06	50.312	145.682	12.861	128.209	-33.773	165.194	38.898	-33.676	-28.716	210.232	127.967	-29.546	-24.668	-24.301	-20.013	221.183	-20.740	-8191	255	
7368.291	1	1	0	0	0.18515	0.045891	0.14609	0.29757	0.18508	0.041172	0.081463	0.40557	0.21348	0.097389	0.045412	0.074655	0.10621	0.24454	0.2134	0.11204	-2.1354	-2.1042	-2.7146	-2.4417	-2.2458	-2.7792	-2.2354	-2.6625	-2.925	-2.3771	-2.7417	-2.4292	-2.2146	-2.8167	-2.4042	-2.4917	296.010	39.130	-46.578	290.513	116.201	163.878	145.138	245.878	-29.867	39.446	238.610	188.438	-1.217	-35.519	87.116	288.066	0.00012286	0.00042864	0.00012869	1271.7	2.9347e-06	1.3056e-06	1279.5	346.52	2.7266e-06	5.2763e-06	399.46	134.91	116.24	40.725	1.1801e-06	51.094	0.00032132	0.00030766	9.8166e-05	1261	3.4431e-06	3.4923e-06	1269.1	344.38	3.5337e-06	3.4898e-06	393.91	134.48	115.08	40.301	3.9739e-06	50.124	169.513	71.812	53.656	-33.664	94.356	190.577	-33.354	-28.666	93.954	102.361	-29.592	-24.639	-24.029	-20.054	49.484	-20.769	-8191	255	
7368.388	1	1	0	0	0.17596	0.13266	0.11781	0.2305	0.059065	0.11985	0.25715	0.30167	0.098451	0.20625	0.091164	0.18352	0.19093	0.18877	0.047013	0.082495	-2.2104	-2.2188	-2.5833	-2.6958	-2.2625	-2.9208	-2.5062	-2.3479	-2.8042	-2.0125	-2.7958	-2.6083	-2.2729	-2.9417	-2.2625	-2.4062	34.699	125.673	70.184	-43.192	167.889	27.431	254.280	301.069	216.448	310.091	186.715	247.306	283.308	-45.638	169.150	36.236	0.00015045	0.00060753	0.00021292	1268.2	2.9948e-06	2.7177e-06	1274.9	345.96	3.9982e-06	8.0956e-06	398.27	134.04	115.38	40.584	6.6289e-06	50.916	0.00032381	0.00033267	0.0001007	1258.4	3.406e-06	3.7715e-06	1268.8	343.39	3.5333e-06	3.7722e-06	392.76	133.94	114.52	40.353	3.961e-06	50.044	180.833	74.606	36.086	-33.613	110.808	144.793	-33.404	-28.586	124.993	163.184	-29.455	-24.530	-24.131	-20.093	146.130	-20.669	-8191	255	
7368.484	1	1	0	0	0.10391	0.13053	0.2804	0.17622	0.26615	0.28146	0.25995	0.08853	0.19909	0.057214	0.21175	0.19821	0.24767	0.22168	0.10389	0.19539	-2.3688	-2.0833	-2.5125	-2.7896	-2.0458	-2.8688	-2.6042	-2.4771	-2.8583	-2.1479	-2.7062	-2.6583	-2.2542	-2.7938	-2.4875	-2.4208	309.484	-35.345	175.888	3.745	-40.736	70.919	-30.046	-22.269	136.296	83.853	-35.603	247.119	246.853	240.711	61.913	197.772	0.00013591	0.0002	9.223e-05	1262.1	2.464e-06	4.3373e-06	1274.2	343.91	1.6716e-06	1.8863e-06	397.53	133.63	114.95	40.207	3.636e-06	50.419	0.00032254	0.00035818	9.8517e-05	1255.5	3.4414e-06	3.9828e-06	1266.5	342.51	3.5814e-06	3.9448e-06	392.21	133.75	114.56	40.352	3.8567e-06	49.876	191.637	227.018	37.514	-33.587	127.211	101.463	-33.412	-28.512	203.896	142.180	-29.201	-24.633	-23.939	-19.799	73.483	-20.472	-8191	255	
7368.578	1	1	0	0	0.19463	0.22426	0.15271	0.14488	0.25439	0.013518	0.21902	0.15791	0.040689	0.18586	0.24867	0.20009	0.15484	0.071686	0.14146	0.060427	-2.4396	-2.2542	-2.5354	-2.85	-2.2542	-2.8063	-2.7042	-2.2625	-2.825	-2.175	-2.3563	-2.6688	-2.2188	-2.7229	-2.5062	-2.0208	-23.781	219.859	-1.870	42.879	-14.928	278.242	269.711	-25.984	232.702	172.527	9.821	266.049	-32.614	5.517	265.646	128.050	0.00011748	0.00012471	0.00014708	1259.5	3.1768e-06	4.1278e-06	1267.7	343.19	2.0082e-06	1.8267e-06	395.01	132.4	114.92	40.272	6.1013e-06	50.247	0.00033139	0.00036386	9.5858e-05	1254.9	3.5763e-06	4.0176e-06	1262.3	341.88	3.7237e-06	3.9982e-06	390.98	133.13	114.83	40.285	3.7897e-06	49.684	173.435	126.384	5.398	-33.576	186.788	102.782	-33.074	-28.560	18.091	151.573	-29.040	-24.483	-24.152	-19.884	92.148	-20.249	-8191	255	
7368.699	1	1	0	0	0.16043	0.28983	0.059259	0.41704	0.22269	0.27664	0.35548	0.10084	0.1755	0.19947	0.31915	0.35198	0.23121	0.057277	0.22562	0.10926	-2.5146	-2.3167	-2.2542	-3.2021	-2.0979	-2.7812	-2.8479	-2.1896	-2.7521	-2.1396	-2.375	-2.9042	-2.1792	-2.6625	-2.7104	-2.3104	205.963	227.947	129.792	291.174	62.284	-10.336	273.831	93.728	135.544	234.962	204.615	264.974	12.561	-42.675	279.702	18.595	0.00024079	0.00043839	0.00010422	1256.7	3.0167e-06	5.609e-06	1273.1	342.7	4.042e-06	3.8237e-06	394.49	133.53	114.46	40.308	4.6936e-06	50.198	0.0003489	0.00036392	9.3831e-05	1253.8	3.7921e-06	3.9575e-06	1265.8	341.74	3.911e-06	3.9226e-06	390.49	133.31	115.01	40.249	3.7005e-06	49.734	183.117	9.795	27.324	-33.376	161.626	76.920	-33.251	-28.483	124.532	40.408	-29.251	-24.238	-23.780	-19.660	106.960	-20.199	-8191	255	
7368.795	1	1	0	0	0.31217	0.19088	0.046193	0.16562	0.087682	0.039648	0.080549	0.29957	0.080197	0.21444	0.13028	0.26611	0.18026	0.16431	0.11642	0.088978	-2.5417	-2.4083	-2.2917	-2.8833	-2.2375	-2.7687	-2.9208	-2.3	-2.775	-2.4042	-2.1354	-2.9021	-2.5042	-2.5854	-2.7208	-2.1417	64.559	44.480	252.312	305.836	-30.701	14.691	218.975	282.021	148.192	26.841	289.575	12.132	-29.191	2.714	90.033	208.631	0.00015757	0.00014591	0.00019456	1258.6	3.1309e-06	3.3267e-06	1253.7	339.21	4.8736e-06	8.2556e-06	395.39	133.26	115.61	40.636	2.794e-06	50.503	0.00036247	0.00035465	9.1052e-05	1253	3.9598e-06	3.8273e-06	1258.6	341.2	4.0055e-06	3.8065e-06	390.38	133.54	115.49	40.257	3.6247e-06	49.902	181.605	62.520	-10.100	-33.179	160.542	97.770	-32.719	-28.247	227.386	59.778	-29.165	-24.587	-24.278	-20.081	125.095	-20.578	-8191	255	
7368.891	1	1	0	0	0.098619	0.12857	0.16461	0.38121	0.12936	0.20926	0.23264	0.050774	0.096785	0.059591	0.22176	0.045962	0.3348	0.19467	0.10939	0.2272	-2.2229	-2.6083	-2.1625	-2.9021	-2.4729	-2.3583	-2.9125	-2.0938	-2.6437	-2.4667	-2.4208	-2.9479	-2.3521	-2.5896	-2.6583	-2.1604	0.373	59.884	16.244	291.872	245.401	53.273	123.258	224.892	236.486	231.106	216.469	193.523	255.174	231.805	79.035	208.084	0.00018279	0.0010364	0.00012163	1269.6	1.1171e-06	5.2749e-06	1277.2	343.79	2.5033e-06	5.3223e-06	397.4	133.94	115.69	40.76	2.4574e-06	50.813	0.00036601	0.00034085	8.8408e-05	1257.6	4.0232e-06	3.7232e-06	1263.1	341.97	4.0139e-06	3.7507e-06	389.78	134.05	115.36	40.236	3.564e-06	50.09	198.102	43.676	26.070	-33.649	47.231	38.962	-33.604	-29.121	172.006	67.309	-29.723	-24.830	-24.528	-20.316	-36.928	-20.917	-8191	255	
7368.987	1	1	0	0	0.031561	0.10342	0.057398	0.19834	0.10486	0.094528	0.26049	0.15247	0.09339	0.19477	0.14995	0.13192	0.24872	0.30697	0.10284	0.17305	-2.2958	-2.6458	-2.0375	-2.8042	-2.3542	-2.4083	-2.9188	-2.3646	-2.8125	-2.5396	-2.1813	-2.8521	-2.45	-2.3979	-3.0104	-2.1896	-13.061	19.034	173.160	-31.963	20.282	299.143	233.101	-31.388	155.417	168.225	-13.343	-31.564	205.044	58.651	-12.362	96.438	0.00010569	0.00047669	0.00010154	1270.1	1.3185e-06	7.7496e-06	1272.3	345.98	4.1539e-06	6.2832e-07	397.67	134.36	115.92	40.655	3.9956e-06	50.958	0.00036405	0.00034071	8.7397e-05	1258.5	3.9699e-06	3.5997e-06	1261.7	343.55	3.8961e-06	3.6401e-06	389.92	134.3	115.26	40.14	3.5547e-06	50.26	181.754	13.578	84.732	-33.793	179.545	90.363	-33.436	-29.031	107.168	76.218	-29.561	-24.874	-24.396	-20.133	74.319	-20.561	-8191	255	
7369.059	1	1	0	0	0.16255	0.22891	0.18901	0.057609	0.041465	0.32124	0.040386	0.17695	0.12515	0.090824	0.10425	0.14681	0.10953	0.27505	0.080917	0.12267	-2.1375	-2.65	-2.2313	-2.9188	-2.3854	-2.225	-3.1292	-2.4083	-2.2896	-2.8208	-2.2667	-2.7792	-2.6896	-1.9958	-2.8854	-2.3187	-37.802	-45.775	36.726	154.528	91.229	-22.641	196.394	275.530	16.419	304.317	263.017	246.773	189.534	304.174	243.138	284.476	0.0001653	0.00075142	0.00010293	1269	3.9497e-06	5.6441e-06	1273.9	342.24	5.5564e-06	7.191e-06	396.36	134.01	115.79	40.521	2.9367e-06	50.915	0.00035184	0.00033186	8.8963e-05	1258.9	3.852e-06	3.5262e-06	1262.8	343.03	3.754e-06	3.5646e-06	390.72	134.54	115.16	40.07	3.7015e-06	50.219	198.803	42.298	49.760	-33.761	123.195	117.502	-33.561	-28.706	152.295	94.321	-29.128	-24.608	-24.133	-20.337	150.250	-20.421	-8191	255	
7369.180	1	1	0	0	0.13496	0.30805	0.13458	0.14804	0.19237	0.26264	0.26262	0.24074	0.28911	0.17552	0.20731	0.096215	0.26831	0.34715	0.049797	0.078975	-1.8979	-2.7562	-1.8813	-2.7625	-2.5375	-2.1458	-3.0062	-2.5833	-2.4229	-2.8542	-2.2896	-2.8167	-2.7479	-2.1937	-2.8812	-2.3833	-35.381	57.921	-40.021	199.042	310.318	26.341	243.420	146.589	-30.296	119.360	291.879	240.890	153.158	310.824	163.000	254.398	0.00012318	0.00038349	5.0643e-05	1263.4	6.6465e-06	4.1109e-06	1269.1	343.26	3.0796e-06	4.4044e-06	395.77	133.72	115.02	40.391	4.1707e-06	50.674	0.00033918	0.00032466	9.3437e-05	1258.7	3.7669e-06	3.3865e-06	1264.7	343.72	3.6804e-06	3.51e-06	391.62	134.32	114.87	39.925	3.9078e-06	50.14	216.125	78.044	-38.747	-33.641	42.305	12.104	-33.319	-28.519	104.957	47.133	-29.350	-24.480	-24.049	-19.777	157.986	-20.273	-8191	255	
7369.276	1	1	0	0	0.17289	0.24505	0.016824	0.16569	0.10104	0.052063	0.21394	0.13599	0.27536	0.13232	0.26158	0.30014	0.0495	0.10211	0.27214	0.27704	-1.9813	-2.7229	-2.1542	-2.7458	-2.6604	-2.2896	-2.7646	-2.525	-2.1417	-2.8354	-2.3458	-2.65	-2.6437	-2.1125	-2.7417	-2.575	-44.185	171.631	178.297	-44.046	134.862	184.126	274.903	262.440	40.271	-43.856	-7.564	-37.155	136.760	222.504	33.117	289.768	0.00016665	0.00032465	0.00015053	1268.2	6.7307e-06	1.6438e-06	1274.4	343.74	3.8655e-06	1.9575e-06	395.57	133.98	115.36	40.41	2.37e-06	50.435	0.00033251	0.00031938	9.8556e-05	1259.8	3.7324e-06	3.4198e-06	1266.7	343.63	3.5354e-06	3.5101e-06	392.53	134.09	114.9	40.057	4.012e-06	49.979	164.181	59.452	99.765	-33.470	123.618	108.968	-33.472	-28.424	272.819	65.302	-29.434	-24.568	-24.082	-20.071	74.974	-20.438	-8191	255	
7369.372	1	1	0	0	0.18347	0.1231	0.20208	0.094053	0.19534	0.012336	0.35245	0.12234	0.089959	0.04164	0.34239	0.072468	0.11626	0.29929	0.086302	0.17659	-1.8292	-2.825	-2.2771	-2.8063	-2.7854	-2.0187	-2.9583	-2.6167	-2.0646	-2.8	-2.2396	-2.4979	-2.7313	-2.1417	-2.6333	-2.4479	122.123	182.341	24.118	-31.840	270.248	159.120	267.254	243.714	115.236	110.869	257.631	249.235	177.304	260.784	220.296	21.187	0.0001442	0.00094666	0.00013966	1268.4	6.6443e-06	3.81e-06	1266.2	340.57	5.5779e-06	5.4714e-06	395.82	134.11	114.06	40.451	2.4166e-06	50.525	0.00032375	0.0003244	0.0001009	1259.6	3.5928e-06	3.5166e-06	1265.7	342.6	3.4163e-06	3.6335e-06	392.76	133.8	114.61	40.171	3.9466e-06	49.961	207.086	56.067	94.678	-33.769	130.935	147.917	-33.339	-28.364	106.542	182.949	-29.321	-24.641	-23.716	-20.136	119.275	-20.340	-8191	255	
7369.492	1	1	0	0	0.26615	0.16333	0.092166	0.35098	0.091929	0.17369	0.22587	0.23271	0.18916	0.12879	0.1554	0.059314	0.053142	0.18672	0.29644	0.1613	-1.6688	-2.7208	-2.0667	-2.4854	-2.7646	-2.0625	-2.8333	-2.7521	-1.925	-2.8521	-2.6083	-2.3792	-2.9167	-2.3917	-2.5958	-2.6917	-36.107	-16.667	-24.256	-45.919	311.431	113.423	-45.863	259.771	290.157	86.211	-29.135	128.248	146.422	222.133	4.243	96.898	0.00010066	0.00055529	0.00012736	1257.2	3.0107e-06	2.821e-06	1257	338.84	2.0412e-06	1.1411e-06	391.15	132.12	113.7	40.037	4.982e-06	50.215	0.00030903	0.00034013	0.0001002	1254.2	3.4729e-06	3.6692e-06	1264.4	341.76	3.3759e-06	3.7827e-06	391.3	133.45	114.58	40.181	3.786e-06	49.854	208.784	50.930	86.266	-33.400	196.856	162.522	-32.959	-27.993	166.818	134.028	-28.515	-23.858	-23.439	-19.396	60.478	-20.073	-8191	255	
7369.587	1	1	0	0	0.12259	0.13243	0.13832	0.18279	0.24195	0.079427	0.15526	0.079772	0.23841	0.17497	0.15046	0.29484	0.29893	0.34316	0.19999	0.023999	-1.8354	-2.7292	-2.3063	-2.4354	-2.7229	-2.3438	-2.8042	-2.7229	-2.2625	-2.6771	-2.5333	-2.25	-2.8792	-2.4958	-2.275	-2.7146	179.340	214.160	54.180	220.159	105.594	207.130	251.788	240.783	270.966	204.250	216.919	271.047	300.256	283.188	37.785	245.508	0.00011647	3.7257e-05	0.00021502	1251.1	3.1847e-06	3.1812e-06	1254.7	339.02	3.7635e-06	4.56e-06	390.66	132.53	113.84	39.886	3.4185e-06	50.056	0.00030691	0.00034892	9.6142e-05	1254.4	3.4703e-06	3.8334e-06	1261.7	342.28	3.378e-06	3.831e-06	390.8	133.63	114.85	40.325	3.6208e-06	49.844	180.769	79.352	14.305	-33.214	124.354	98.660	-32.782	-28.082	211.193	79.914	-28.460	-24.204	-23.070	-19.452	131.944	-19.757	-8191	255	
7369.660	1	1	0	0	0.19547	0.23183	0.058276	0.26179	0.12175	0.15073	0.15901	0.16093	0.03809	0.32016	0.048279	0.077556	0.26935	0.12752	0.044923	0.10585	-1.8167	-2.7229	-2.3917	-2.4125	-2.8708	-2.1125	-2.6562	-2.9437	-2.2583	-2.4792	-2.5125	-2.2938	-2.7021	-2.4354	-2.3896	-2.8187	299.994	-42.766	206.074	262.540	-32.187	143.396	250.347	259.025	84.190	3.782	47.598	114.860	250.372	224.015	96.588	-9.371	0.00020645	0.00059633	0.00018756	1254.3	6.2575e-06	3.0665e-06	1256.6	340.3	2.3696e-06	3.1676e-06	394.5	133.06	114.82	40.27	5.9182e-06	50.276	0.00031466	0.00035375	9.2358e-05	1253.2	3.5934e-06	3.8588e-06	1263.8	342.21	3.5115e-06	3.8367e-06	391.58	133.77	115.38	40.371	3.5248e-06	49.884	179.680	90.316	-5.635	-33.177	153.751	57.944	-33.088	-27.853	168.927	40.723	-28.894	-24.084	-23.724	-19.690	63.204	-19.896	-8191	255	
7369.779	1	1	0	0	0.098724	0.23554	0.066967	0.3447	0.28076	0.11294	0.3429	0.15754	0.090916	0.15885	0.19497	0.086334	0.057125	0.31321	0.39804	0.12801	-1.6854	-2.7125	-2.6875	-2.3563	-2.8854	-2.2458	-2.4833	-2.9104	-2.2729	-2.6771	-2.7146	-2.2333	-2.9417	-2.3583	-2.3021	-3.0292	185.164	97.289	12.620	262.784	80.740	53.827	242.211	245.768	32.460	158.302	205.635	292.920	271.554	70.493	150.799	-31.014	0.00021265	0.00062636	5.4462e-05	1257.3	2.7104e-06	1.5475e-06	1266.5	342.44	3.3449e-06	8.85e-06	392.33	133.52	114.06	40.468	2.3043e-06	50.643	0.00033132	0.00034433	9.0595e-05	1254.3	3.7624e-06	3.771e-06	1263.7	342.91	3.7531e-06	3.7135e-06	391.01	133.86	115.59	40.395	3.4362e-06	49.988	192.324	-7.743	37.386	-33.230	126.177	49.445	-33.471	-28.389	241.675	61.011	-28.936	-24.008	-23.569	-19.661	134.563	-20.158	-8191	255	
7369.875	1	1	0	0	0.16544	0.071752	0.081837	0.42887	0.21844	0.064667	0.40462	0.16549	0.10184	0.08173	0.1162	0.057285	0.204	0.33438	0.26133	0.20972	-1.6958	-2.4813	-2.7438	-2.45	-2.8708	-2.5187	-2.4125	-2.9521	-2.0104	-2.5146	-2.8	-2.3833	-2.8396	-2.6	-2.2042	-2.8792	294.022	205.132	177.402	312.829	111.979	-41.764	230.625	174.719	78.632	210.878	274.866	218.980	3.116	-19.274	241.805	238.396	0.00017852	0.00045012	0.00013306	1254.1	1.5055e-06	1.8724e-06	1263.3	341.58	4.7008e-06	3.1407e-06	392.73	133.35	114.93	40.292	2.3102e-06	50.688	0.00034582	0.00033578	8.8773e-05	1255.7	3.8292e-06	3.6581e-06	1262.7	342.85	3.8781e-06	3.5807e-06	390.25	134.09	115.74	40.315	3.3474e-06	50.066	188.765	36.152	-18.634	-33.404	211.450	93.296	-32.938	-28.184	29.755	88.521	-28.609	-24.178	-23.796	-19.421	116.909	-20.030	-8191	255	
7369.971	1	1	0	0	0.17617	0.23177	0.19537	0.45003	0.17781	0.065779	0.17086	0.16908	0.12664	0.30607	0.17617	0.19469	0.18387	0.23864	0.14233	0.081144	-1.8687	-2.2125	-2.7271	-2.2979	-2.6396	-2.375	-2.1333	-2.9688	-2.325	-2.475	-2.6813	-2.2604	-2.7354	-2.675	-2.2333	-2.9562	110.214	198.871	14.355	274.508	134.640	147.805	238.146	254.684	25.571	22.752	190.083	271.861	-8.172	16.471	175.451	77.785	9.4609e-05	0.00041296	9.4327e-05	1254.6	6.2122e-06	1.4761e-06	1258.4	340.6	1.5813e-06	6.4785e-06	394.91	133.56	115.46	40.379	3.7101e-06	50.66	0.0003538	0.00032139	8.6898e-05	1257.6	3.8314e-06	3.5539e-06	1260.5	343.49	3.8253e-06	3.5045e-06	390.09	134.4	115.66	40.33	3.2833e-06	50.195	195.008	46.749	51.284	-33.145	103.719	130.083	-32.865	-28.147	128.791	79.338	-29.142	-24.217	-23.771	-19.584	38.262	-20.277	-8191	255	
7370.092	1	1	0	0	0.15701	0.12652	0.34015	0.065949	0.18771	0.10758	0.22374	0.091166	0.21305	0.13969	0.234	0.29427	0.35912	0.25258	0.12083	0.15456	-1.9625	-2.3396	-2.8	-2.1417	-2.5354	-2.7167	-2.4083	-2.9417	-2.3146	-2.2042	-3	-2.2208	-2.6583	-2.8646	-2.0458	-2.85	-25.701	168.605	169.793	11.847	194.676	108.544	187.208	-2.813	209.916	120.092	9.468	250.051	-11.954	295.260	17.793	137.171	0.00016155	0.00035201	0.00013446	1259.7	5.8855e-06	5.8747e-06	1263.8	342.31	1.6662e-06	2.5976e-06	396.87	134.14	115.79	40.457	3.4103e-06	50.854	0.0003456	0.00031442	8.6938e-05	1257.6	3.7197e-06	3.5404e-06	1261.7	343.94	3.7455e-06	3.4262e-06	391.02	134.8	115.7	40.239	3.3359e-06	50.391	177.744	47.146	83.961	-33.480	111.862	70.520	-33.040	-28.355	127.389	84.562	-29.344	-24.404	-23.985	-19.726	160.471	-20.163	-8191	255	
7370.188	1	1	0	0	0.13819	0.35835	0.19249	0.17987	0.22818	0.038015	0.20818	0.26877	0.15841	0.12614	0.13555	0.056416	0.15646	0.19094	0.062495	0.13489	-1.875	-2.2396	-2.5687	-2.2313	-2.4396	-2.7729	-2.3229	-2.8646	-2.4375	-2.2646	-2.9125	-2.2979	-2.6208	-2.825	-2.1813	-2.8521	42.215	75.492	-23.127	268.294	241.246	139.350	200.754	299.354	-45.731	149.747	305.247	99.916	262.363	24.660	275.391	278.603	0.00017572	0.0005531	0.0002488	1265.1	8.152e-06	3.081e-06	1262.6	341.33	5.5207e-06	4.1945e-06	391.8	133.81	115.01	40.385	8.4665e-06	50.465	0.00033882	0.00030776	8.7784e-05	1260.2	3.606e-06	3.4452e-06	1261.2	343.8	3.6627e-06	3.2882e-06	390.56	134.71	115.32	40.191	3.5509e-06	50.215	202.705	56.243	69.288	-33.433	109.012	108.242	-33.130	-28.198	142.179	45.075	-29.143	-24.251	-23.701	-19.578	178.843	-20.345	-8191	255	
7370.284	1	1	0	0	0.094567	0.34018	0.1666	0.1525	0.16457	0.077547	0.27213	0.050922	0.14539	0.086526	0.16153	0.08966	0.15516	0.032086	0.23122	0.23696	-2.0958	-2.3187	-2.8021	-2.5083	-2.3375	-2.6896	-2.4479	-2.8229	-2.5187	-2.2521	-2.8667	-2.6063	-2.3271	-2.875	-2.1229	-2.7562	92.594	271.214	88.053	122.075	240.152	247.786	236.149	196.014	240.072	253.880	242.425	75.581	-35.375	144.876	62.062	263.073	0.00020461	0.00039593	8.4569e-05	1258.7	4.2287e-06	3.9229e-06	1266.9	341.97	2.6286e-07	2.1997e-06	397.32	133.73	115.28	40.373	4.8489e-06	50.554	0.00033008	0.00029872	9.2644e-05	1257.4	3.5557e-06	3.3932e-06	1266.7	343.43	3.5964e-06	3.2271e-06	392.38	134.47	115.11	40.171	3.7437e-06	50.149	172.666	134.935	21.296	-33.374	113.459	89.081	-33.265	-28.153	-42.810	49.933	-29.059	-24.446	-24.022	-19.561	90.711	-20.282	-8191	255	
7370.356	1	1	0	0	0.12538	0.29605	0.07701	0.38673	0.18588	0.065985	0.38921	0.081989	0.21358	0.14342	0.073459	0.058819	0.13977	0.28345	0.22731	0.026804	-2.2875	-2.1792	-2.7062	-2.6188	-2.3104	-2.9125	-2.4521	-2.7562	-2.5958	-2.1583	-2.9229	-2.5229	-2.4208	-2.9417	-2.3042	-2.5708	46.138	246.155	-28.039	249.000	210.726	-17.251	259.209	293.886	169.825	175.761	196.438	283.045	291.236	7.312	242.987	131.655	0.00015455	0.00022544	8.825e-05	1258.7	4.3288e-06	3.4355e-06	1265	341.28	4.07e-06	1.3821e-06	395.49	133.63	115	40.261	2.5658e-06	50.585	0.00032402	0.00029774	9.6319e-05	1256.7	3.438e-06	3.3849e-06	1264.5	343.06	3.4928e-06	3.2801e-06	392.55	134.26	115	40.147	3.8213e-06	50.055	199.034	72.208	105.351	-33.259	136.578	154.057	-33.233	-28.198	126.308	65.521	-28.887	-24.050	-23.876	-19.626	139.407	-20.350	-8191	255	
7370.477	1	1	0	0	0.24494	0.11808	0.15919	0.043449	0.087238	0.21453	0.38373	0.072271	0.29708	0.22495	0.11706	0.14135	0.17892	0.14423	0.086487	0.28473	-2.3896	-2.0479	-2.7375	-2.5938	-2.1688	-2.7646	-2.4125	-2.6833	-2.5271	-2.1375	-2.8542	-2.6646	-2.2354	-2.8458	-2.4333	-2.4479	38.670	295.282	-21.899	-44.953	2.298	149.287	271.748	247.485	128.468	20.783	23.442	-26.884	247.260	289.237	236.569	270.293	9.1397e-05	0.00096624	0.0001242	1260.1	2.642e-06	5.1686e-06	1263.8	343.17	2.1268e-06	2.0381e-06	396.59	135.49	115.78	40.652	3.517e-06	50.793	0.00031432	0.0003114	9.8161e-05	1255.8	3.3114e-06	3.4796e-06	1265.5	343.14	3.3904e-06	3.4535e-06	392.9	134.56	115.03	40.349	3.7865e-06	50.018	191.327	100.286	50.471	-33.211	142.622	194.246	-33.268	-28.427	93.430	47.231	-29.280	-24.665	-24.092	-19.739	212.325	-20.563	-8191	255	
7370.571	1	1	0	0	0.2432	0.16622	0.23175	0.31871	0.098597	0.23168	0.25404	0.048188	0.072633	0.16737	0.27994	0.036417	0.2259	0.093556	0.3667	0.38868	-2.4208	-2.1708	-2.7354	-2.4688	-2.1333	-2.8167	-2.4562	-2.3354	-2.6646	-2.0208	-2.6021	-2.5146	-2.0417	-2.6688	-2.4167	-2.2729	230.577	167.558	-39.792	259.981	39.938	194.900	254.255	101.895	-5.768	165.180	294.142	276.587	233.691	312.893	106.224	227.654	0.00016387	0.00021095	6.4501e-05	1262	5.736e-06	4.9704e-06	1274.7	344.83	7.504e-07	7.2976e-06	396.62	134.05	115.84	40.619	4.031e-06	50.954	0.00030835	0.00032757	9.6526e-05	1255.5	3.2601e-06	3.7345e-06	1266.4	343.03	3.3487e-06	3.6915e-06	391.44	133.98	114.86	40.407	3.7346e-06	49.973	182.705	66.886	45.718	-33.457	131.771	110.714	-33.448	-28.508	134.521	136.930	-29.129	-24.458	-24.163	-19.463	109.536	-20.384	-8191	255	
7370.667	1	1	0	0	0.091839	0.042161	0.12188	0.2563	0.19414	0.1122	0.19332	0.21187	0.25926	0.076581	0.22859	0.16753	0.24814	0.19384	0.060974	0.33463	-2.3771	-2.1188	-2.4229	-2.7104	-2.1833	-2.7417	-2.4958	-2.4021	-2.7313	-2.1354	-2.5771	-2.8	-2.1813	-2.8021	-2.3229	-2.2458	138.912	249.476	78.882	298.559	192.964	22.260	-44.140	250.367	143.527	191.864	308.849	-10.227	273.451	151.087	192.762	264.422	0.00019592	0.00011739	8.6596e-05	1267.7	5.292e-06	3.6565e-06	1273	344.5	4.8692e-06	3.2893e-06	396.73	134.85	115.41	40.32	4.2389e-06	50.47	0.00030803	0.00034183	9.2895e-05	1255.7	3.2964e-06	3.8146e-06	1265.4	342.88	3.473e-06	3.7868e-06	391.71	134.3	114.78	40.43	3.6316e-06	49.891	183.369	124.601	4.696	-33.600	137.418	75.971	-33.428	-28.688	136.211	96.539	-29.290	-24.126	-24.094	-19.559	81.895	-20.645	-8191	255	
7370.763	1	1	0	0	0.10267	0.18054	0.043561	0.38552	0.042369	0.16101	0.086001	0.22519	0.11661	0.028298	0.11925	0.13258	0.39791	0.15056	0.08583	0.15928	-2.2938	-2.2562	-2.4437	-2.7938	-2.0708	-2.6229	-2.9188	-2.2083	-2.8771	-2.5167	-2.5583	-3.0417	-2.1042	-2.6625	-2.6604	-2.3083	11.730	73.792	17.569	240.876	70.033	186.872	304.560	262.068	272.420	119.162	219.261	227.112	306.419	295.936	286.075	-43.114	0.00011493	0.00020561	0.00013241	1260.7	3.6353e-06	6.4269e-06	1266.5	341.91	1.0415e-06	3.5111e-06	393.33	133.29	114.77	40.243	3.15e-06	50.782	0.00032159	0.00034579	8.8705e-05	1254.3	3.4858e-06	3.7735e-06	1263.5	342.69	3.642e-06	3.7572e-06	390.47	133.93	115.31	40.379	3.5148e-06	49.835	185.465	76.479	-31.619	-33.280	213.068	111.225	-33.162	-28.418	34.172	57.427	-28.896	-24.256	-23.807	-19.699	135.800	-20.381	-8191	255	
7370.884	1	1	0	0	0.18611	0.12576	0.098763	0.11827	0.15762	0.24707	0.080881	0.18699	0.1212	0.15567	0.24596	0.19612	0.020389	0.12241	0.23046	0.15321	-2.4625	-2.2812	-2.3979	-3.15	-2.0958	-2.7771	-2.6562	-2.425	-2.775	-2.425	-2.3417	-2.7042	-2.2167	-2.5438	-2.6937	-2.2104	294.122	213.663	168.730	169.461	63.504	149.720	-45.994	305.734	38.041	227.777	-32.843	263.074	273.643	281.470	240.663	22.256	0.00022019	0.00044422	0.0001511	1255.4	2.5715e-06	3.6934e-06	1262	341.45	9.5194e-06	3.7371e-06	394.93	134.35	115.18	40.672	5.0559e-06	50.869	0.0003359	0.00033846	8.6397e-05	1251.9	3.6787e-06	3.6401e-06	1261	341.84	3.7277e-06	3.6509e-06	390.24	134.06	115.53	40.412	3.4324e-06	49.922	202.576	39.703	50.740	-33.315	194.282	29.948	-33.124	-28.187	207.551	44.773	-29.214	-24.350	-23.752	-19.723	22.016	-20.285	-8191	255	
7370.956	1	1	0	0	0.12621	0.21532	0.074138	0.265	0.21468	0.19985	0.31589	0.41486	0.24181	0.14447	0.072369	0.19382	0.11475	0.26478	0.09055	0.21365	-2.3792	-2.4188	-2.2021	-2.9813	-2.3104	-2.5687	-2.9	-2.1146	-2.7604	-2.4813	-2.3604	-2.7708	-2.4625	-2.6229	-2.7104	-2.0479	-17.579	132.715	-29.440	227.714	180.090	124.801	282.409	218.706	169.382	103.003	123.559	310.246	297.855	-34.537	305.170	-36.511	0.0001673	0.0001481	0.00019243	1267.2	2.2341e-06	6.4153e-06	1270.4	343.93	3.3297e-06	6.5302e-06	397.04	134.38	116.09	40.762	2.1987e-06	50.707	0.00034346	0.0003302	8.435e-05	1255.8	3.7675e-06	3.5279e-06	1262.3	342.69	3.7694e-06	3.5271e-06	390.66	134.62	115.9	40.345	3.3132e-06	50.083	196.561	280.872	4.073	-33.597	8.485	74.338	-33.369	-28.881	84.961	48.745	-29.246	-24.484	-24.208	-19.768	52.944	-20.505	-8191	255	
7371.052	1	1	0	0	0.34792	0.42423	0.13718	0.31347	0.11075	0.25112	0.34708	0.20909	0.20021	0.32005	0.37065	0.072981	0.32862	0.11089	0.14568	0.24332	-2.15	-2.5208	-2.1437	-2.8375	-2.2562	-2.475	-2.9354	-2.1875	-2.5958	-2.6188	-2.2021	-2.9917	-2.4562	-2.4167	-2.7021	-2.2417	17.077	-41.808	201.008	215.666	178.139	246.626	230.259	-35.591	40.809	3.583	6.733	-13.253	312.077	237.734	11.344	153.714	0.00014115	0.00035594	0.00011075	1261.7	4.5504e-06	8.2051e-07	1263.3	342.33	3.4729e-06	7.4639e-06	395.43	135	115.9	40.606	4.1708e-06	50.889	0.00033869	0.00031708	8.225e-05	1255.8	3.7499e-06	3.4007e-06	1261	343.17	3.6797e-06	3.4353e-06	389.97	134.94	115.8	40.309	3.2788e-06	50.278	194.889	15.924	10.220	-33.421	157.663	212.146	-33.075	-28.339	233.002	76.312	-29.560	-24.753	-23.808	-19.540	145.402	-20.468	-8191	255	
7371.172	1	1	0	0	0.08868	0.09582	0.22495	0.27206	0.14692	0.27777	0.18924	0.18427	0.20457	0.086478	0.15873	0.16698	0.13075	0.24659	0.16674	0.1025	-2.2604	-2.5229	-2.1417	-2.9042	-2.3229	-2.3896	-2.8854	-2.1792	-2.5146	-2.7542	-2.1542	-2.8708	-2.4917	-2.375	-2.7042	-2.2083	156.790	31.806	102.222	271.544	203.464	120.821	255.987	250.568	271.902	146.923	-37.857	181.397	72.736	-0.416	188.430	124.405	0.00016301	0.00016348	9.4664e-05	1261.8	3.4733e-06	5.586e-06	1267.6	342.89	3.1997e-06	4.399e-06	396.26	134.97	116.27	40.944	1.8052e-06	50.855	0.00032946	0.00030851	8.0842e-05	1257.3	3.6033e-06	3.2932e-06	1261	343.93	3.5026e-06	3.3464e-06	390.08	135.01	115.73	40.324	3.3539e-06	50.336	177.618	51.861	25.247	-33.343	94.674	40.368	-33.328	-28.509	135.501	85.518	-29.251	-24.712	-23.943	-19.933	160.391	-20.349	-8191	255	
7371.269	1	1	0	0	0.10429	0.012594	0.18687	0.12485	0.078345	0.086756	0.3944	0.080536	0.1429	0.28227	0.080071	0.15919	0.18648	0.061095	0.21104	0.11602	-2.0854	-2.7167	-2.0396	-2.6104	-2.4958	-2.1792	-2.8917	-2.4417	-2.3479	-2.7229	-2.275	-2.6854	-2.7521	-2.4333	-2.7604	-2.3708	172.513	29.482	61.677	311.173	21.001	175.763	229.483	213.834	31.012	289.564	128.934	244.621	284.098	37.836	170.101	168.699	0.00011043	0.00050906	0.00014749	1261.7	3.0393e-06	1.5743e-06	1272.4	343.05	2.9583e-06	3.3148e-06	395.71	134.83	115.96	40.743	1.204e-06	50.759	0.00031714	0.00030423	8.3249e-05	1258.7	3.4919e-06	3.219e-06	1264.3	343.48	3.4495e-06	3.2536e-06	390.58	134.85	115.64	40.268	3.5046e-06	50.252	187.666	8.673	85.712	-33.426	106.958	123.535	-33.061	-28.344	120.198	103.478	-29.318	-24.282	-23.819	-19.691	154.887	-20.484	-8191	255	
7371.365	1	1	0	0	0.35583	0.25617	0.19498	0.38184	0.17789	0.15153	0.38466	0.24616	0.15635	0.2805	0.29923	0.19285	0.064201	0.089697	0.0059781	0.19135	-1.95	-2.7208	-2.1167	-2.7896	-2.4396	-2.2812	-3.0854	-2.2771	-2.3792	-2.8833	-2.1896	-2.6625	-2.7521	-2.2167	-2.7562	-2.3979	68.311	279.706	15.043	300.781	32.110	55.823	276.380	-35.485	145.681	222.495	274.986	301.274	-38.633	42.968	16.956	282.598	9.4429e-05	0.00032672	0.00010821	1263	4.1401e-06	3.0304e-06	1270.7	343.41	1.6525e-06	5.0126e-06	396.77	134.37	116.38	40.802	6.9294e-06	50.681	0.00031054	0.00029885	8.8551e-05	1257.4	3.4538e-06	3.1173e-06	1265	343.47	3.3634e-06	3.2501e-06	391.9	134.61	115.62	40.227	3.69e-06	50.077	150.662	41.337	100.096	-33.395	88.353	32.380	-33.062	-28.262	42.094	123.374	-29.371	-24.485	-24.178	-19.946	134.484	-20.792	-8191	255	
7371.461	1	1	0	0	0.13161	0.029018	0.28199	0.10579	0.15616	0.12929	0.18197	0.21539	0.25535	0.1618	0.18873	0.09448	0.079625	0.30033	0.31532	0.16825	-1.8979	-2.6333	-2.2521	-2.7292	-2.4375	-2.1417	-3.0146	-2.4521	-2.1458	-2.9354	-2.1917	-2.5042	-2.6583	-2.1729	-2.7042	-2.5479	207.154	34.453	35.534	274.756	296.197	270.268	264.273	289.455	21.157	191.413	176.477	-41.006	193.780	-34.211	125.507	215.940	0.00012944	0.00022203	0.00010028	1264.8	3.5643e-06	4.6564e-06	1272.7	344.91	3.432e-06	6.9221e-06	399.85	135.43	116.15	40.828	6.026e-06	50.926	0.00030345	0.0003008	9.3878e-05	1256.5	3.4353e-06	3.244e-06	1264.9	343.01	3.3019e-06	3.3587e-06	392.96	134.58	115.27	40.271	3.7762e-06	50.073	184.876	145.422	40.819	-33.697	6.544	58.419	-33.426	-28.662	122.118	107.222	-29.364	-24.588	-23.973	-20.169	124.671	-20.404	-8191	255	
7371.555	1	1	0	0	0.13376	0.21233	0.14496	0.23556	0.22874	0.23158	0.35385	0.32242	0.19572	0.24542	0.24366	0.23473	0.20939	0.26507	0.075339	0.17977	-1.7396	-2.8667	-2.2062	-2.6562	-2.6312	-1.9708	-2.7292	-2.6021	-2.1688	-2.8	-2.3667	-2.3833	-2.9437	-2.1708	-2.6333	-2.5854	-42.444	307.138	-15.153	260.664	86.726	51.326	217.343	284.551	31.729	197.170	255.456	277.623	280.317	-11.865	133.986	300.934	0.00015056	0.0003649	3.3958e-05	1269.5	4.7843e-06	6.8041e-06	1268.8	343.16	6.0893e-06	5.5831e-06	395.36	134.93	116.05	40.626	4.7703e-06	50.526	0.00029828	0.00031172	9.6058e-05	1256.2	3.3477e-06	3.4064e-06	1265.5	342.83	3.2196e-06	3.5502e-06	391.9	134.35	115.09	40.349	3.7324e-06	50.018	199.125	14.356	53.525	-33.866	160.549	167.496	-33.417	-28.225	109.633	71.955	-29.189	-24.503	-24.200	-19.703	38.127	-20.575	-8191	255	
7371.651	1	1	0	0	0.20802	0.16813	0.16931	0.2431	0.25219	0.14701	0.18739	0.23959	0.29855	0.36402	0.1772	0.099561	0.2716	0.34829	0.10873	0.11844	-1.6625	-2.8292	-2.1917	-2.4583	-2.8042	-2.0792	-2.7354	-2.8563	-2.1646	-2.9292	-2.3375	-2.3729	-2.8104	-2.0563	-2.3812	-2.675	176.383	-37.215	255.245	311.530	-33.762	102.295	300.662	304.211	-33.840	16.075	41.780	115.472	244.605	219.178	87.999	72.487	0.0001131	0.00030978	6.9698e-05	1264.1	1.475e-06	1.8999e-06	1268.6	341.28	2.2571e-06	1.0677e-06	396.83	134.61	115.81	40.55	3.4649e-06	50.759	0.00029317	0.00033047	9.4276e-05	1253.5	3.3089e-06	3.6517e-06	1264.8	342.16	3.2158e-06	3.675e-06	391.79	134.11	115.07	40.432	3.5454e-06	50.018	199.962	60.796	29.667	-33.738	177.320	147.894	-33.324	-28.382	94.791	308.629	-29.212	-24.481	-23.858	-19.919	74.228	-20.288	-8191	255	
7371.772	1	1	0	0	0.291	0.26962	0.14436	0.22382	0.18446	0.23729	0.18504	0.088589	0.15101	0.2364	0.025035	0.059946	0.095505	0.17864	0.20955	0.028296	-1.7396	-2.7583	-2.3958	-2.3729	-2.9688	-2.3167	-2.7208	-2.9042	-2.0604	-2.9125	-2.5333	-2.3125	-3.1292	-2.2583	-2.1813	-2.8417	18.816	13.005	16.196	254.114	127.143	194.975	221.617	11.420	40.013	-5.137	299.684	308.712	267.720	-0.896	273.723	3.332	0.00025974	0.00039558	0.00012838	1264	4.0361e-06	7.147e-06	1274.9	345.23	1.2055e-06	3.6695e-06	397.14	134.75	116.12	40.653	1.8273e-06	51.141	0.00029804	0.00033926	9.1143e-05	1253.9	3.3461e-06	3.7525e-06	1264.5	343.2	3.292e-06	3.737e-06	391.53	134.2	115.58	40.491	3.4401e-06	50.053	177.976	55.360	-17.340	-33.616	185.711	213.793	-33.132	-28.477	206.987	25.671	-29.080	-24.452	-23.763	-19.803	84.574	-20.507	-8191	255	
7371.868	1	1	0	0	0.1368	0.27055	0.18868	0.28251	0.093923	0.032218	0.26272	0.38735	0.21863	0.15276	0.27789	0.23555	0.15445	0.32088	0.19731	0.2313	-1.8542	-2.4708	-2.4917	-2.3063	-2.9167	-2.2687	-2.4333	-2.9896	-2.1167	-2.7021	-2.5854	-2.2042	-2.8438	-2.2792	-2.2313	-2.8604	176.314	51.131	282.439	205.340	195.741	-35.950	288.163	222.752	28.048	7.997	2.859	-14.416	-3.661	6.428	67.020	70.958	0.00020506	0.00017973	6.5587e-05	1262.1	6.2027e-07	1.4336e-06	1271.4	343.7	3.5145e-06	2.6157e-06	398.8	135.33	116.87	41.008	8.6412e-06	51.027	0.00031125	0.00033997	8.8965e-05	1253.3	3.5377e-06	3.6865e-06	1263.7	342.78	3.5294e-06	3.641e-06	391.6	134.23	115.93	40.567	3.3504e-06	49.922	195.502	-40.990	-15.697	-33.496	-19.784	82.229	-33.368	-28.305	193.925	94.763	-29.263	-24.662	-24.042	-20.070	73.699	-20.603	-8191	255	
7371.964	1	1	0	0	0.30225	0.095824	0.1246	0.078765	0.11154	0.18537	0.11603	0.34679	0.13352	0.085301	0.20039	0.047849	0.396	0.20744	0.13176	0.35807	-1.625	-2.5146	-2.6521	-2.3604	-2.7729	-2.4625	-2.3312	-2.9146	-2.1813	-2.5458	-2.8833	-2.1458	-2.8438	-2.4938	-2.2021	-2.9146	-1.888	6.554	-22.698	-20.571	92.114	-24.998	294.687	284.118	229.971	141.394	293.389	30.963	266.007	-44.937	-18.575	268.114	0.00018449	0.0004456	0.00019842	1265.6	3.1774e-06	3.7549e-06	1272.9	344.76	2.2837e-06	1.179e-05	398.41	135.23	116.27	40.64	5.9281e-06	51.212	0.00033108	0.00033043	8.6866e-05	1253.5	3.6984e-06	3.6043e-06	1264	343.14	3.6686e-06	3.5473e-06	390.35	134.44	116.08	40.395	3.2753e-06	50.138	198.570	50.920	53.219	-33.741	86.391	103.616	-33.401	-28.521	182.694	66.036	-29.165	-25.033	-23.881	-19.924	81.750	-20.103	-8191	255	
7372.061	1	1	0	0	0.093282	0.24044	0.11266	0.14323	0.12469	0.043097	0.23676	0.20846	0.17182	0.056857	0.23308	0.31934	0.15739	0.095814	0.16151	0.20856	-1.6229	-2.3958	-2.5521	-2.3	-2.6542	-2.6208	-2.4188	-2.8	-2.2875	-2.6521	-3.0458	-2.1104	-2.7146	-2.6167	-2.3042	-2.8792	120.361	56.441	64.897	178.781	252.014	107.570	271.302	281.401	36.708	20.048	162.148	296.713	-1.607	33.025	-7.219	103.826	0.00016203	0.00069172	0.00014305	1257.5	5.523e-06	6.5128e-06	1264.1	342.08	2.7432e-06	2.0061e-06	395.04	134.66	115.41	40.41	2.8135e-06	50.75	0.00034164	0.00031861	8.481e-05	1253.4	3.7122e-06	3.451e-06	1260.9	342.45	3.6895e-06	3.3738e-06	389.72	134.53	115.74	40.37	3.1265e-06	50.193	180.848	-1.940	0.533	-33.448	175.479	64.113	-33.096	-28.349	99.290	113.911	-28.769	-24.189	-23.666	-19.674	29.238	-20.059	-8191	255	
7372.181	1	1	0	0	0.098927	0.10256	0.23631	0.33002	0.21418	0.12295	0.074901	0.14493	0.068586	0.14978	0.02262	0.16078	0.1881	0.28832	0.13118	0.16083	-1.8146	-2.3812	-2.8208	-2.1521	-2.6063	-2.6854	-2.2729	-2.9458	-2.4333	-2.4854	-2.8417	-2.1979	-2.7479	-2.6604	-2.1979	-2.8167	269.934	-30.680	175.428	277.848	0.948	245.653	53.896	239.206	160.679	155.283	239.151	273.376	-37.215	-39.108	121.482	289.947	0.00014853	0.00049643	0.00010431	1255.2	2.5177e-06	6.7494e-06	1264.7	342.8	3.0681e-06	2.9827e-06	395.27	134.62	115.98	40.754	1.3238e-06	51.103	0.00033022	0.00030269	8.0786e-05	1254.4	3.5757e-06	3.3323e-06	1258.7	343.44	3.5063e-06	3.2259e-06	389.83	134.93	115.84	40.484	3.0357e-06	50.477	202.327	101.860	49.567	-33.254	112.762	128.583	-33.112	-28.115	126.907	42.695	-28.887	-24.373	-24.004	-19.630	251.854	-20.317	-8191	255	
7372.253	1	1	0	0	0.37101	0.075568	0.16307	0.093453	0.32724	0.13487	0.25066	0.16193	0.11973	0.18603	0.091975	0.17002	0.33238	0.13623	0.061955	0.068525	-2.1146	-2.2958	-2.7479	-2.3396	-2.5604	-2.8896	-2.5354	-2.8229	-2.3479	-2.2333	-2.9021	-2.4333	-2.4688	-2.8229	-2.2146	-2.7042	93.072	74.630	95.015	-33.350	122.969	-21.322	178.644	271.830	156.980	-42.079	205.698	224.647	-24.952	293.786	90.331	158.700	0.000154	0.00014111	6.5464e-05	1264.9	3.8394e-06	2.4428e-06	1266.1	344.55	2.3429e-07	1.1876e-06	396.29	135.16	116.26	40.887	3.232e-06	50.965	0.00031364	0.00028344	7.9389e-05	1257.4	3.3484e-06	3.1508e-06	1259.9	344.4	3.3476e-06	3.0033e-06	390.48	135.43	116.02	40.507	3.0588e-06	50.484	167.547	1.263	198.283	-33.541	158.053	-5.354	-33.181	-28.305	57.259	116.781	-28.781	-24.445	-24.120	-19.482	261.889	-20.546	-8191	255	
7372.349	1	1	0	0	0.25539	0.11779	0.027078	0.36324	0.16991	0.076418	0.037956	0.14435	0.13579	0.16312	0.25288	0.044174	0.32383	0.11947	0.25805	0.12864	-2.1708	-2.2333	-2.8063	-2.2771	-2.6979	-2.9292	-2.3396	-2.7896	-2.4917	-2.3917	-2.9417	-2.2167	-2.5229	-2.8667	-2.0563	-2.7292	172.715	285.620	156.529	216.951	185.602	170.366	176.720	241.564	286.809	118.942	273.012	15.959	241.833	247.102	13.569	194.661	7.8032e-05	0.00019966	0.00017208	1265.2	2.1893e-06	5.7237e-06	1274.7	347.38	3.5707e-06	3.616e-06	400.16	137.34	116.99	41.207	4.2157e-06	51.585	0.00029857	0.00027126	8.1121e-05	1257	3.169e-06	3.0238e-06	1263.4	345.18	3.2256e-06	2.9145e-06	392.13	135.71	115.81	40.494	3.2689e-06	50.51	187.866	21.876	46.934	-33.588	196.942	47.929	-33.600	-28.606	18.527	108.757	-29.295	-24.869	-24.149	-19.948	131.180	-20.295	-8191	255	
7372.445	1	1	0	0	0.1096	0.15097	0.08625	0.29845	0.20035	0.062435	0.15328	0.36438	0.099024	0.10591	0.084051	0.070374	0.1454	0.14401	0.032483	0.19701	-2.3812	-2.1437	-2.775	-2.5542	-2.3292	-2.7396	-2.3729	-2.7479	-2.6063	-2.2542	-3.0062	-2.4583	-2.5187	-2.7896	-2.2542	-2.6854	157.537	60.716	-41.239	-40.739	192.540	11.682	237.526	290.631	272.243	-28.126	121.185	-40.520	-3.572	266.740	199.228	242.885	0.00012949	0.00062058	0.00016857	1268.7	1.7489e-06	4.4967e-06	1275.9	347.21	2.6879e-06	4.9312e-06	400.88	136.75	116.69	41.105	6.3009e-07	51.457	0.00029196	0.00026394	8.5109e-05	1255.3	3.1122e-06	3.0024e-06	1263.7	344.25	3.1664e-06	2.9134e-06	392.7	135.17	115.3	40.371	3.4136e-06	50.276	197.620	80.822	52.536	-33.677	92.007	130.123	-33.546	-28.808	94.856	104.873	-29.350	-24.628	-24.301	-19.991	254.372	-20.742	-8191	255	
7372.564	1	1	0	0	0.064736	0.12463	0.13273	0.17573	0.014907	0.035077	0.1768	0.24381	0.12869	0.11712	0.15195	0.052593	0.21959	0.1517	0.068881	0.25446	-2.2729	-2.1312	-2.7396	-2.6479	-2.1417	-2.8271	-2.4437	-2.6792	-2.7458	-2.0812	-2.7667	-2.5083	-2.3688	-2.8771	-2.225	-2.525	22.242	276.573	187.417	294.437	40.890	281.253	240.421	248.900	185.820	292.704	282.769	109.681	-11.497	-43.067	311.365	277.132	0.00010632	0.00046181	0.00015966	1266.1	5.4911e-06	2.4915e-06	1268.7	344.81	4.7423e-06	5.1356e-06	398.52	135.19	116.09	41.012	1.3884e-06	50.566	0.00028525	0.00027541	8.9396e-05	1250.4	3.0912e-06	3.1278e-06	1258.1	341.95	3.1433e-06	3.1303e-06	390.24	133.91	114.66	40.291	3.545e-06	49.834	185.388	96.699	55.786	-33.733	44.931	174.677	-33.578	-28.610	129.251	36.814	-29.602	-24.413	-24.399	-20.102	289.579	-20.419	-8191	255	
7372.660	1	1	0	0	0.28253	0.29201	0.11754	0.3316	0.16848	0.13145	0.26264	0.17317	0.27013	0.13728	0.21673	0.16937	0.25673	0.016444	0.13554	0.030629	-2.2125	-2.1958	-2.7083	-2.3792	-2.2	-2.8042	-2.4604	-2.4458	-2.8438	-2.1521	-2.625	-2.6792	-2.2104	-2.6417	-2.4229	-2.3229	69.972	296.903	188.510	280.572	298.942	-35.193	-16.974	212.753	218.424	129.235	229.127	244.106	74.509	41.971	308.877	183.206	0.00013558	0.00054008	0.00016561	1260.3	3.974e-06	2.104e-06	1267.6	344.44	5.3464e-06	7.6104e-06	395.92	135.01	116.11	40.951	4.2435e-06	51.093	0.00028323	0.00029391	8.8118e-05	1246.2	2.9957e-06	3.3484e-06	1256.7	341.27	3.102e-06	3.3252e-06	389.54	133.8	114.47	40.299	3.4777e-06	49.801	173.824	115.873	89.805	-33.658	183.608	129.221	-33.459	-28.536	143.899	133.325	-29.401	-24.701	-24.253	-19.902	124.221	-20.514	-8191	255	
7372.756	1	1	0	0	0.19341	0.14355	0.17394	0.22073	0.068936	0.15873	0.29751	0.050535	0.13142	0.037881	0.22549	0.084425	0.12285	0.30409	0.043024	0.061152	-2.4396	-1.9375	-2.5375	-2.8771	-2.2438	-2.8625	-2.4313	-2.5563	-2.9062	-2.2896	-2.6562	-2.8521	-2.125	-2.7417	-2.4	-2.375	266.042	275.541	173.853	239.654	48.295	112.480	162.618	136.570	14.556	93.925	255.433	57.341	205.298	277.470	203.818	200.879	0.00021324	0.00011687	1.5131e-05	1254.3	3.6188e-07	3.0136e-06	1255.5	339.35	7.0783e-06	2.8462e-06	392.78	134.79	115.61	40.501	4.3983e-06	50.499	0.00027965	0.00030768	8.6632e-05	1243.5	3.0089e-06	3.4275e-06	1254	339.42	3.0899e-06	3.3919e-06	388.84	133.85	114.56	40.295	3.3144e-06	49.695	156.522	30.925	45.302	-33.538	49.209	259.369	-32.957	-28.146	151.750	-15.789	-28.862	-24.211	-24.021	-19.845	78.187	-20.492	-8191	255	
7372.852	1	1	0	0	0.19782	0.059825	0.23345	0.21186	0.19719	0.061024	0.31607	0.24641	0.19432	0.0919	0.15302	0.094087	0.31352	0.099554	0.087096	0.17981	-2.4354	-2.1292	-2.4688	-2.8688	-2.1104	-2.825	-2.7562	-2.5312	-2.8292	-2.2125	-2.5229	-2.9271	-2.1396	-2.8438	-2.6125	-2.2313	-14.214	291.352	218.250	286.508	184.713	24.574	235.535	308.575	-2.479	122.009	226.376	192.586	297.091	278.192	62.832	155.373	0.00016692	0.00045159	0.00017727	1247.5	1.2019e-06	6.3047e-06	1264.2	343.47	4.9919e-06	6.3972e-06	394.77	134.22	115.27	40.543	1.7272e-06	50.487	0.00028758	0.00031609	8.1958e-05	1241.6	3.1281e-06	3.4935e-06	1254	340.35	3.2068e-06	3.4727e-06	388.27	133.62	114.76	40.285	3.2912e-06	49.635	156.582	83.817	7.230	-33.338	282.008	145.856	-33.372	-28.687	212.828	86.846	-29.292	-24.483	-23.830	-19.523	199.911	-20.411	-8191	255	
7372.949	1	1	0	0	0.13991	0.25456	0.054753	0.17285	0.041965	0.11952	0.37922	0.27836	0.076442	0.1284	0.050835	0.14246	0.081109	0.057648	0.046281	0.10558	-2.4917	-2.2229	-2.3125	-2.9875	-2.1208	-2.5333	-2.7667	-2.3646	-2.65	-2.4583	-2.3458	-2.8646	-2.2979	-2.6792	-2.5875	-1.9958	127.305	59.895	120.741	258.331	81.939	-17.874	306.300	269.240	58.374	59.806	310.597	221.713	89.994	125.020	188.385	-8.418	0.00012079	0.00072322	7.3957e-05	1249.8	8.3663e-07	1.6809e-06	1263.2	340.56	8.2731e-07	9.0728e-06	396.25	134.7	115.38	40.561	2.9888e-06	50.739	0.00030537	0.00031763	8.1407e-05	1241.9	3.355e-06	3.476e-06	1253	339.2	3.4675e-06	3.4587e-06	387.59	133.33	114.68	40.167	3.2641e-06	49.5	200.539	36.307	235.999	-33.300	125.170	116.661	-33.215	-28.764	69.570	85.952	-29.668	-24.477	-24.085	-20.026	144.811	-20.670	-8191	255	
7373.045	1	1	0	0	0.29747	0.23654	0.21095	0.3979	0.11157	0.17201	0.39723	0.089183	0.26826	0.086099	0.24588	0.16121	0.22624	0.28965	0.24516	0.097483	-2.1083	-2.2875	-2.0875	-2.9104	-2.1979	-2.4562	-2.8104	-2.3917	-2.9083	-2.3417	-2.3667	-2.7313	-2.2917	-2.6083	-2.6292	-2.1104	124.353	18.047	-14.758	301.873	186.102	272.259	291.527	283.033	134.258	97.695	-46.297	295.603	-13.070	299.960	66.054	258.538	0.00016669	0.00064953	0.00011272	1249.1	2.5051e-06	6.2515e-06	1257.8	341.26	3.6523e-06	4.8131e-06	393.29	133.82	114.99	40.322	1.2832e-06	50.338	0.00032362	0.00031305	8.0964e-05	1241.9	3.5144e-06	3.3941e-06	1250.3	339.44	3.5828e-06	3.4011e-06	386.34	133.34	114.7	40.037	3.2471e-06	49.585	186.056	-28.043	26.699	-33.317	140.091	78.936	-33.271	-28.379	184.111	97.477	-29.148	-24.514	-23.996	-19.749	101.043	-20.475	-8191	255	
7373.141	1	1	0	0	0.17242	0.14197	0.11034	0.13436	0.15978	0.095472	0.22299	0.060349	0.042767	0.091987	0.088474	0.17787	0.19543	0.21697	0.22471	0.14058	-2.1917	-2.2562	-2.1354	-2.8229	-2.2917	-2.4625	-2.9437	-2.3167	-2.675	-2.5333	-2.0458	-2.8354	-2.1937	-2.4417	-2.9146	-2.2708	143.421	266.061	-13.957	-40.217	301.101	215.483	169.159	-21.773	-43.525	1.411	202.236	23.962	127.247	-43.097	80.567	288.884	0.00017982	0.00017189	0.00010807	1248	2.1203e-06	4.3274e-06	1259.1	340.36	2.5814e-06	3.2066e-06	394.47	134.58	114.98	40.391	1.4178e-06	50.52	0.00032694	0.00030323	7.8165e-05	1239.7	3.5861e-06	3.2792e-06	1248.1	339.49	3.5711e-06	3.3174e-06	386.29	133.66	114.85	39.952	3.1368e-06	49.74	172.906	47.967	6.088	-33.403	135.064	76.313	-33.250	-28.366	84.198	91.669	-28.993	-24.297	-23.900	-19.771	2.205	-20.346	-8191	255	
7373.262	1	1	0	0	0.10045	0.25845	0.12765	0.29663	0.075574	0.12722	0.16788	0.11882	0.065253	0.10133	0.17775	0.22861	0.20726	0.12654	0.060984	0.11822	-2.3708	-2.5292	-2.1063	-2.9437	-2.3917	-2.2792	-2.9667	-2.1542	-2.5208	-2.6458	-2.2667	-2.8396	-2.4521	-2.25	-2.775	-2.2438	215.829	59.021	-17.667	309.150	-36.561	-12.850	239.898	-22.569	265.489	235.743	106.288	301.334	-23.816	-36.871	118.515	-37.888	0.00010853	0.00055103	0.00019246	1248.5	2.7961e-06	4.1076e-06	1255	339.9	4.5874e-06	3.0108e-06	390.98	133.25	114.85	40.065	5.1009e-06	50.237	0.0003235	0.00030121	7.8134e-05	1241.4	3.5405e-06	3.2389e-06	1245.5	339.47	3.4938e-06	3.2945e-06	385.62	133.54	114.36	39.81	3.2151e-06	49.762	200.339	-26.662	56.614	-33.307	101.458	17.459	-33.270	-28.422	50.815	313.115	-29.160	-24.252	-23.914	-19.808	84.700	-20.519	-8191	255	
7373.358	1	1	0	0	0.29087	0.18621	0.33752	0.21996	0.21927	0.13433	0.10485	0.27597	0.19911	0.20137	0.11314	0.24996	0.26413	0.15411	0.14522	0.38716	-2.0896	-2.6208	-2.1021	-2.8583	-2.6063	-2.1	-2.9833	-2.4229	-2.4688	-2.5708	-2.1396	-2.775	-2.5042	-2.1542	-2.7229	-2.2208	184.051	108.642	7.507	252.782	256.167	-37.866	154.487	292.380	137.248	228.672	151.116	259.648	295.220	277.194	162.596	287.966	7.5264e-05	0.00023503	0.00011505	1246.4	3.4653e-06	2.0288e-06	1254.4	338.65	2.1796e-06	1.9417e-06	390.2	132.76	114.58	40.303	4.1595e-06	50.27	0.00031717	0.00030297	8.0474e-05	1243.3	3.4708e-06	3.1812e-06	1246.6	339.42	3.4286e-06	3.234e-06	385.4	133.46	114.02	39.799	3.3831e-06	49.785	170.744	59.614	8.658	-33.376	76.996	67.211	-32.974	-28.523	141.027	10.239	-29.054	-24.455	-23.901	-19.801	199.776	-20.604	-8191	255	
7373.454	1	1	0	0	0.12188	0.1156	0.23699	0.094958	0.12047	0.10066	0.061799	0.1916	0.12298	0.23186	0.14847	0.15128	0.35072	0.15434	0.12929	0.19818	-1.8687	-2.4396	-1.9188	-2.7333	-2.5	-2.0792	-2.9062	-2.2854	-2.2771	-2.8292	-2.2021	-2.7979	-2.6312	-2.2146	-2.6979	-2.5083	131.254	267.241	306.191	305.808	102.847	269.930	191.132	176.514	167.302	288.953	302.527	75.229	296.582	177.382	-41.623	281.529	0.00011657	0.00042015	0.00010677	1246.4	1.4906e-06	3.5794e-06	1249.6	339.94	4.4862e-06	1.794e-06	391.12	133.93	115.19	40.137	4.616e-06	50.275	0.00030893	0.00029433	8.537e-05	1241.6	3.3973e-06	3.0824e-06	1248.1	339.61	3.317e-06	3.1913e-06	386.72	133.37	114.04	39.685	3.5502e-06	49.551	161.560	50.963	59.237	-33.301	189.496	49.610	-33.053	-28.408	142.051	160.623	-29.132	-24.729	-24.056	-20.003	123.078	-20.432	-8191	255	
7373.550	1	1	0	0	0.14235	0.13736	0.060131	0.12502	0.15259	0.047682	0.17312	0.066554	0.12128	0.13577	0.14521	0.21255	0.22074	0.016608	0.13541	0.15885	-1.6708	-2.7521	-2.1063	-2.575	-2.6333	-2.3146	-3.1042	-2.4396	-2.1688	-2.7625	-2.2104	-2.3958	-2.7979	-2.1208	-2.7417	-2.3917	223.891	46.966	226.064	281.378	157.062	231.046	199.546	209.364	287.636	204.981	242.944	277.100	259.886	150.740	103.408	276.064	0.00017984	0.00011771	0.00012873	1258.9	3.1107e-06	2.6696e-06	1258.9	340.5	2.3651e-06	4.8487e-06	393.1	134.6	114.81	40.513	6.9598e-06	50.521	0.00030266	0.00028995	9.0053e-05	1241.3	3.359e-06	3.1013e-06	1249.1	339.06	3.2586e-06	3.1769e-06	386.7	133.27	113.68	39.727	3.6192e-06	49.573	184.081	-2.238	37.994	-33.701	171.139	141.185	-33.530	-28.450	82.358	166.239	-29.472	-24.813	-24.399	-20.126	138.890	-20.524	-8191	255	
7373.644	1	1	0	0	0.22343	0.025178	0.16938	0.28876	0.28242	0.23111	0.20202	0.19438	0.16855	0.16211	0.10815	0.3085	0.054987	0.27835	0.052854	0.17545	-2.0104	-2.6542	-2.0563	-2.4646	-2.5187	-2.0104	-2.7625	-2.6854	-2.2521	-2.7438	-2.3	-2.3917	-2.8667	-2.1667	-2.7292	-2.5812	158.107	309.669	72.053	-19.508	-34.810	74.711	270.696	286.452	156.495	79.005	158.726	222.734	48.622	218.235	221.974	157.297	0.00014066	0.0002142	0.00011313	1258.3	3.1561e-06	3.6878e-06	1264	341.87	5.3759e-06	1.1319e-06	395.21	134.78	115.24	40.605	6.004e-06	50.464	0.00029539	0.0002936	9.1461e-05	1239	3.2084e-06	3.1452e-06	1249.7	339.34	3.0646e-06	3.2159e-06	387.19	133.22	113.83	39.826	3.4857e-06	49.513	191.755	14.133	22.364	-33.733	131.426	161.907	-33.419	-28.433	153.620	191.399	-29.245	-24.681	-24.129	-19.961	81.691	-20.562	-8191	255	
7373.741	1	1	0	0	0.18926	0.20401	0.059986	0.28381	0.14235	0.12021	0.1924	0.4317	0.17274	0.12395	0.12552	0.11947	0.18973	0.17402	0.088131	0.38021	-1.8354	-2.8438	-2.2333	-2.4958	-2.6646	-2.1813	-2.7125	-2.7	-2.1896	-2.7604	-2.2875	-2.3333	-2.75	-2.3667	-2.5979	-2.8271	-16.678	-18.011	132.217	-42.198	59.462	146.756	306.649	239.523	262.916	173.103	215.909	267.632	-46.479	246.060	72.400	308.574	0.00020927	0.00040742	5.6334e-05	1256.6	2.7033e-06	4.1995e-06	1264.4	342.21	3.3752e-06	4.834e-06	393.8	134.14	115.3	40.492	3.3184e-06	50.76	0.00026992	0.00030111	8.7689e-05	1239.6	3.0159e-06	3.2645e-06	1250.2	338.44	2.9438e-06	3.3621e-06	386.86	132.79	113.73	39.882	3.3462e-06	49.533	172.599	134.203	19.609	-33.622	90.261	119.154	-33.385	-28.802	225.855	119.392	-29.579	-24.587	-24.054	-20.198	139.051	-20.408	-8191	255	
7373.861	1	1	0	0	0.2367	0.17694	0.2542	0.1344	0.019668	0.21465	0.030281	0.24046	0.24177	0.041812	0.1192	0.19724	0.043008	0.12398	0.18162	0.42477	-1.5708	-2.8521	-2.2896	-2.3417	-2.6958	-2.2083	-2.7042	-2.7208	-2.1021	-2.7917	-2.5417	-2.1333	-2.7292	-1.9854	-2.4458	-2.7062	-11.912	224.610	25.281	-0.364	51.450	32.474	215.862	225.881	158.087	150.292	294.928	265.289	220.514	-35.743	144.537	82.098	0.00011529	0.00049746	0.00018438	1255.4	2.4956e-06	5.5486e-06	1263.5	343.13	3.2276e-07	1.6329e-06	394.86	133.85	115.21	40.382	5.7218e-06	50.639	0.00026876	0.00030591	8.4074e-05	1236.5	3e-06	3.3388e-06	1246.7	338.7	2.9534e-06	3.4049e-06	386.31	132.26	113.66	39.861	3.2182e-06	49.354	185.146	23.007	41.440	-33.636	155.974	61.623	-33.526	-28.601	39.439	-17.216	-29.661	-25.047	-24.380	-19.923	121.976	-20.689	-8191	255	
7373.957	1	1	0	0	0.11568	0.29508	0.17117	0.35732	0.083046	0.047755	0.52121	0.25549	0.064175	0.19617	0.02185	0.14998	0.10152	0.10132	0.19791	0.13807	-1.6729	-2.6333	-2.475	-2.3458	-2.7458	-2.1604	-2.6375	-2.6354	-2.1021	-2.7729	-2.6125	-2.2458	-2.8438	-2.3292	-2.3354	-2.825	184.957	20.626	233.481	238.741	182.572	199.530	236.764	283.510	-9.378	114.655	301.969	-39.908	-21.278	288.400	24.102	77.834	0.00025707	0.0001528	0.00010517	1252	6.7686e-06	7.3159e-06	1259.4	340.4	1.2031e-06	3.6149e-06	392.48	133.44	114.64	40.139	2.6492e-06	50.029	0.00028296	0.00031382	8.3045e-05	1234.4	3.1974e-06	3.4372e-06	1243.2	337.16	3.1852e-06	3.4654e-06	385.01	131.67	113.37	39.734	3.2928e-06	49.063	188.793	-35.340	26.521	-33.750	172.861	85.656	-33.564	-28.760	163.905	80.965	-29.411	-24.871	-23.868	-19.975	49.151	-20.456	-8191	255	
7374.053	1	1	0	0	0.073336	0.080837	0.22229	0.15419	0.13016	0.14131	0.19346	0.2474	0.03397	0.10081	0.16304	0.27216	0.039908	0.15904	0.15105	0.12682	-1.6833	-2.6646	-2.4875	-2.2458	-2.8708	-2.2062	-2.2771	-2.8583	-2.1167	-2.5833	-2.5292	-2.1542	-2.7771	-2.4125	-2.3229	-2.8563	25.840	150.417	-5.157	247.068	241.116	55.707	246.098	292.263	235.162	170.329	161.557	302.367	125.410	294.802	-46.502	205.645	0.00015528	0.00036223	0.0001123	1248.3	5.926e-06	1.3291e-06	1251.5	336.22	2.4126e-06	1.023e-05	389.65	131.39	113.15	39.69	5.0657e-06	49.744	0.00031149	0.00032395	8.5577e-05	1229.5	3.5657e-06	3.6041e-06	1236.3	334.33	3.5929e-06	3.5998e-06	382.55	130.35	112.54	39.345	3.392e-06	48.76	186.058	26.277	-22.953	-33.835	136.615	169.011	-33.636	-28.553	152.603	118.786	-29.249	-24.892	-24.137	-20.125	121.110	-20.346	-8191	255	
7374.125	1	1	0	0	0.097994	0.14862	0.0051845	0.01691	0.16006	0.081552	0.32936	0.29015	0.23485	0.13762	0.21952	0.081222	0.21939	0.34191	0.14626	0.076639	-1.6333	-2.4271	-2.7292	-2.3604	-2.6229	-2.4792	-2.4479	-2.6667	-2.2625	-2.5875	-2.7812	-1.9729	-2.7979	-2.3438	-2.1333	-2.8958	122.545	23.628	128.001	129.442	203.253	80.459	274.455	282.964	-32.496	53.529	-15.666	192.330	11.270	-39.379	13.316	-23.112	0.00018267	0.00049755	3.326e-05	1242	6.341e-06	1.6857e-06	1243.2	334.45	2.4498e-06	5.7677e-06	384.9	130.7	112.32	39.332	2.329e-06	49.707	0.00034232	0.00032862	8.8214e-05	1224.4	3.8549e-06	3.677e-06	1229.3	332.09	3.8579e-06	3.5994e-06	379.92	129.83	112.1	39.067	3.3586e-06	48.709	193.197	47.776	44.425	-33.870	161.150	29.279	-33.636	-28.850	82.832	80.358	-29.521	-24.774	-24.155	-20.019	289.704	-20.475	-8191	255	
7374.221	1	1	0	0	0.24565	0.080217	0.28193	0.24292	0.31807	0.06861	0.16227	0.1951	0.2489	0.21575	0.12522	0.12664	0.30437	0.065852	0.081321	0.10411	-1.7667	-2.4146	-2.75	-2.2729	-2.6542	-2.5271	-2.4375	-2.8937	-2.3083	-2.3708	-3.0479	-2.1667	-2.7625	-2.5542	-2.2396	-2.9771	48.561	-42.905	-44.467	240.462	66.357	176.655	193.266	-45.461	102.844	56.714	250.824	-27.253	277.985	239.321	55.872	164.179	0.00011312	0.00068895	0.00011819	1231.6	4.2734e-06	3.9176e-06	1239.2	330.43	2.0925e-06	3.1934e-06	386.9	130.17	111.72	39.231	6.8679e-06	49.458	0.00035618	0.00032673	8.7879e-05	1220.6	3.8744e-06	3.6804e-06	1224.9	330.72	3.9089e-06	3.5706e-06	379.03	129.77	111.58	38.956	3.3966e-06	48.745	156.576	54.428	13.536	-33.920	126.982	30.618	-33.665	-28.634	102.612	302.302	-29.336	-24.888	-24.418	-19.947	86.024	-20.736	-8191	255	
7374.342	1	1	0	0	0.17541	0.025006	0.1187	0.13154	0.20819	0.058744	0.079299	0.18159	0.078391	0.46133	0.1911	0.18735	0.11234	0.14581	0.13418	0.096043	-2.0208	-2.2833	-2.9562	-2.3458	-2.5979	-2.5625	-2.3208	-2.6792	-2.2812	-2.45	-2.7854	-2.0083	-2.5479	-2.6167	-2.0958	-2.8312	183.014	95.643	163.227	241.689	116.224	202.669	284.555	20.935	220.439	21.338	251.895	82.243	222.641	264.485	282.133	204.068	0.00011474	0.00030902	8.8549e-06	1228.7	2.9719e-07	1.8533e-06	1231.3	331.5	5.3991e-06	5.6623e-06	382.24	128.79	111.66	39.062	5.906e-06	49.169	0.00035558	0.00032839	8.8896e-05	1220.5	3.8399e-06	3.6341e-06	1222.9	330.71	3.8795e-06	3.5181e-06	377.5	129.57	111.17	38.822	3.5198e-06	48.73	204.033	60.189	-16.758	-34.045	61.529	118.992	-33.754	-28.565	128.854	51.601	-29.351	-24.527	-24.166	-19.915	159.567	-20.694	-8191	255	
7374.438	1	1	0	0	0.039217	0.22456	0.061513	0.057598	0.27731	0.2086	0.071677	0.15809	0.074493	0.28116	0.056101	0.21888	0.22978	0.18047	0.10819	0.040914	-2.0396	-2.175	-2.8563	-2.5417	-2.5354	-2.6146	-2.2	-2.8708	-2.5271	-2.2313	-2.8583	-2.2375	-2.5083	-2.7479	-1.9292	-2.5708	-4.142	163.479	286.610	227.689	148.478	104.747	268.577	164.620	307.463	119.968	-2.707	266.555	221.246	265.679	106.637	162.772	0.00017888	1.5579e-05	0.00011822	1228.5	3.7398e-06	3.9554e-06	1235.1	330.72	4.1141e-06	3.0208e-06	382.62	129.53	110.9	39.188	5.6638e-06	49.013	0.00035075	0.00032361	9.4035e-05	1220.7	3.8296e-06	3.6224e-06	1221.8	330.1	3.8309e-06	3.501e-06	377.86	129.41	110.7	38.742	3.7392e-06	48.586	199.403	240.213	171.950	-33.732	117.615	112.113	-33.862	-28.726	58.807	93.732	-29.236	-24.818	-24.118	-19.902	140.536	-20.866	-8191	255	
7374.534	1	1	0	0	0.17815	0.079308	0.25014	0.30758	0.21634	0.094506	0.11168	0.2183	0.30568	0.17179	0.18319	0.07268	0.18972	0.14966	0.35813	0.28909	-2.2542	-1.9292	-2.6937	-2.3042	-2.2438	-2.7188	-2.2833	-2.7396	-2.4188	-2.3708	-2.6979	-2.3833	-2.25	-2.8604	-2.0708	-2.7417	144.068	131.302	48.788	286.671	293.518	264.731	198.564	188.777	12.438	237.240	-43.492	19.484	-3.521	247.152	307.191	83.896	0.00025384	0.00010205	6.0832e-05	1227.9	1.5654e-06	1.2912e-06	1235.6	329.78	3.3037e-06	5.1765e-06	383.7	128.55	110.89	38.942	1.6466e-06	48.723	0.00034705	0.00031827	9.8049e-05	1217.9	3.7419e-06	3.588e-06	1223.7	329.82	3.7899e-06	3.4536e-06	378.95	129.21	110.5	38.648	3.9599e-06	48.488	198.662	46.398	195.725	-33.828	190.139	5.277	-33.550	-28.929	121.138	103.909	-29.519	-24.735	-24.289	-20.007	199.512	-20.760	-8191	255	
7374.653	1	1	0	0	0.15853	0.12021	0.13766	0.31651	0.019722	0.14375	0.3967	0.015113	0.076535	0.293	0.22894	0.25001	0.10107	0.24887	0.080013	0.096109	-2.3187	-2.1479	-2.8187	-2.4188	-2.25	-2.9583	-2.3146	-2.6708	-2.6312	-2.0479	-2.7875	-2.5083	-2.1688	-2.7562	-2.1292	-2.5083	168.582	102.069	247.890	-45.207	261.600	-13.006	300.954	125.686	199.623	11.887	230.363	285.784	302.457	244.235	120.999	185.731	0.00015469	0.00034127	7.1943e-05	1229.8	1.3653e-06	3.7571e-06	1229.6	329.44	8.558e-07	8.0506e-06	382.24	129.4	110.49	39.075	6.8106e-06	48.72	0.00034352	0.00031678	0.00010366	1219	3.6806e-06	3.607e-06	1224.1	329.41	3.7746e-06	3.5422e-06	379.41	129.25	110.35	38.721	4.0716e-06	48.368	186.118	111.733	217.650	-33.920	98.496	99.767	-33.466	-28.872	183.357	126.265	-29.547	-24.481	-23.978	-19.633	68.072	-20.783	-8191	255	
7374.725	1	1	0	0	0.25497	0.2694	0.27556	0.33109	0.17036	0.10883	0.28586	0.35141	0.18686	0.18937	0.087992	0.19298	0.12256	0.20381	0.15422	0.19568	-2.2521	-2.0979	-2.7938	-2.5062	-2.1937	-2.7938	-2.5542	-2.525	-2.5875	-1.9208	-2.6271	-2.5604	-2.3292	-2.8354	-2.2062	-2.4083	281.464	6.316	170.597	257.458	37.794	182.277	239.059	245.324	70.365	14.475	-24.133	24.191	107.220	295.383	245.504	211.622	0.0001214	0.0005052	5.0528e-05	1220.8	3.5646e-06	7.5513e-07	1232.6	330.56	2.293e-06	3.8162e-06	382.87	128.69	110.82	39.144	4.386e-06	48.924	0.00033759	0.0003293	0.00010527	1214.2	3.5431e-06	3.7731e-06	1224.6	329.08	3.6516e-06	3.7289e-06	379.19	128.68	110.05	38.806	4.0849e-06	48.404	179.060	137.600	7.847	-33.565	109.865	72.891	-33.432	-28.696	116.537	151.232	-29.661	-24.884	-24.205	-20.054	23.568	-20.708	-8191	255	
7374.823	1	1	0	0	0.15557	0.073214	0.010223	0.34097	0.090133	0.11761	0.31307	0.29097	0.17536	0.12966	0.19077	0.15577	0.13065	0.13636	0.14807	0.22208	-2.2646	-1.9833	-2.4833	-2.6312	-2.1813	-2.7271	-2.4	-2.5104	-2.8646	-2.1542	-2.4938	-2.7875	-2.1937	-2.8917	-2.425	-2.2917	202.700	80.027	-32.200	-28.912	264.777	138.794	199.504	255.890	279.981	37.353	290.059	255.595	265.191	-10.188	159.553	-5.634	0.00013828	0.00064169	0.00010036	1221.8	1.727e-06	1.0002e-05	1233.5	330.95	1.414e-06	3.1494e-06	383.27	129.33	110.86	39.021	3.6724e-06	49.031	0.00033034	0.00035335	0.00010192	1214.3	3.4956e-06	3.9327e-06	1223.5	328.67	3.5807e-06	3.9283e-06	378.93	128.82	110.18	38.943	3.9678e-06	48.245	202.579	129.206	54.366	-33.831	36.366	142.263	-33.584	-28.891	112.025	84.415	-29.366	-24.590	-24.468	-20.057	128.580	-21.003	-8191	255	
7374.942	1	1	0	0	0.42466	0.29136	0.25438	0.084412	0.3174	0.18717	0.36587	0.077168	0.24997	0.15972	0.02904	0.37029	0.10412	0.14498	0.34737	0.061578	-2.3708	-2.0583	-2.6562	-2.8104	-2.2146	-2.925	-2.6875	-2.3458	-2.8312	-2.2729	-2.6604	-2.7896	-2.1479	-2.8	-2.45	-2.1937	185.486	284.591	107.030	250.434	13.612	58.095	300.040	264.430	105.597	53.632	-24.324	223.714	190.768	-5.664	-4.933	69.622	0.00010673	0.00049677	0.00020833	1224.4	1.3249e-06	2.0142e-06	1228.3	328.87	1.4372e-06	6.4169e-06	383.11	128.49	110.02	39.106	2.28e-06	48.743	0.00033063	0.00036649	9.8594e-05	1212.9	3.5416e-06	4.0738e-06	1220.7	327.82	3.6814e-06	4.0605e-06	378.2	128.51	110.04	38.975	3.8784e-06	48.12	200.067	91.120	-15.309	-33.588	101.164	78.791	-33.681	-28.670	147.947	4.837	-29.614	-24.485	-23.898	-19.720	33.928	-20.334	-8191	255	
7375.038	1	1	0	0	0.27895	0.13862	0.29359	0.1938	0.20521	0.21207	0.29668	0.084074	0.2323	0.20523	0.090153	0.10753	0.13829	0.068235	0.13733	0.19223	-2.2812	-2.2771	-2.4708	-2.9167	-2.0271	-2.7	-2.7438	-2.1437	-2.8271	-2.2938	-2.65	-2.9437	-2.2042	-2.6229	-2.6292	-2.1875	30.030	-19.609	-37.118	233.345	75.487	30.902	213.513	203.200	193.759	103.666	297.635	95.009	162.161	226.114	126.469	174.267	0.00020254	0.00061585	0.00012738	1217.5	9.9603e-07	2.0501e-06	1228.3	328.79	1.2619e-06	7.2381e-06	382.37	128.72	109.85	38.833	2.1396e-06	48.597	0.00034423	0.00037352	9.6526e-05	1210.5	3.7516e-06	4.0558e-06	1217	327.19	3.8797e-06	4.0212e-06	377.25	128.43	110.27	38.801	3.8172e-06	47.979	182.535	126.321	33.095	-33.415	11.201	49.996	-33.417	-28.555	95.026	73.554	-29.352	-24.347	-23.971	-19.887	101.293	-20.465	-8191	255	
7375.134	1	1	0	0	0.14046	0.030873	0.19384	0.42539	0.15342	0.048554	0.074704	0.16042	0.12873	0.35222	0.057624	0.10648	0.22546	0.086184	0.029688	0.24102	-2.2875	-2.4271	-2.2771	-2.6188	-2.1188	-2.5396	-2.7229	-2.2042	-2.7375	-2.4729	-2.3042	-2.8667	-2.1979	-2.6417	-2.6188	-2.2771	108.335	180.339	171.808	241.335	120.712	131.088	186.931	257.718	98.548	-26.348	148.190	66.336	276.860	147.467	306.285	299.232	0.00017519	0.0003067	0.00015356	1223.3	4.741e-06	1.6249e-06	1222.7	326.95	3.7328e-06	1.9763e-06	379.61	127.96	109.6	38.786	8.0942e-06	48.865	0.00036394	0.00036978	9.5077e-05	1211	3.9807e-06	3.9565e-06	1217.6	326.53	4.0721e-06	3.97e-06	376.35	128.25	110.5	38.766	3.7719e-06	48.099	206.714	46.550	55.190	-33.546	164.226	126.580	-33.238	-28.460	112.286	132.092	-29.202	-24.308	-23.880	-19.632	124.002	-20.558	-8191	255	
7375.254	1	1	0	0	0.19475	0.14257	0.05939	0.41975	0.27293	0.20042	0.34391	0.14908	0.19393	0.12833	0.14737	0.029069	0.19184	0.095935	0.048614	0.48945	-2.0958	-2.2604	-1.9542	-2.6271	-2.2542	-2.4083	-2.7625	-2.0563	-2.7104	-2.4021	-2.2583	-2.8583	-2.4292	-2.5479	-2.7938	-2.1813	258.324	124.971	86.310	292.151	234.072	275.524	246.978	-41.826	268.377	234.085	168.585	-33.838	145.786	12.843	184.681	200.912	0.00011992	0.00058658	5.1515e-05	1213.8	2.808e-06	4.2811e-06	1218.5	326.67	1.7352e-06	7.2135e-06	378.59	128.07	109.57	38.697	5.3536e-06	48.331	0.00037542	0.00035932	9.1792e-05	1209.5	4.1082e-06	3.8382e-06	1215	327.01	4.143e-06	3.8566e-06	375.61	128.35	110.49	38.699	3.6866e-06	48.142	161.379	5.950	78.681	-33.462	11.944	86.991	-33.106	-28.455	170.968	77.639	-29.009	-24.141	-23.806	-19.713	33.074	-20.417	-8191	255	
7375.351	1	1	0	0	0.042029	0.10289	0.10236	0.13785	0.066206	0.25644	0.34007	0.29459	0.096057	0.13818	0.07531	0.27612	0.22385	0.024657	0.082413	0.24831	-2.2458	-2.4437	-2.2375	-3.0187	-2.2562	-2.3646	-2.7583	-2.2167	-2.6229	-2.5979	-2.2375	-2.7542	-2.4208	-2.275	-2.6833	-2.1771	243.676	153.636	88.455	296.435	-8.934	-8.723	218.863	297.265	60.973	108.948	229.262	269.280	-35.695	269.760	60.072	311.699	0.00013284	0.00034255	9.096e-05	1214.6	1.7418e-06	2.3937e-06	1221	326.97	1.4709e-06	3.4628e-06	382.48	128.21	109.85	38.801	5.0689e-06	48.589	0.00037546	0.00035165	8.9494e-05	1212.5	4.1217e-06	3.7615e-06	1215.9	328.14	4.1285e-06	3.8678e-06	376.41	128.74	110.48	38.603	3.6739e-06	48.366	162.996	31.284	-28.880	-33.193	216.200	75.228	-33.350	-28.289	233.336	197.024	-29.227	-24.469	-23.945	-19.823	160.551	-20.129	-8191	255	
7375.422	1	1	0	0	0.057411	0.18594	0.19663	0.1459	0.20196	0.098031	0.32028	0.22312	0.15335	0.16952	0.064375	0.11528	0.2159	0.21169	0.044907	0.060104	-2.2021	-2.5396	-2.1729	-2.8729	-2.1708	-2.2833	-2.9083	-2.2771	-2.6875	-2.575	-2.2	-2.8021	-2.4313	-2.175	-2.7979	-2.1604	156.884	97.490	60.241	281.450	128.182	192.443	238.147	111.916	302.297	118.409	301.643	1.018	-44.335	237.975	46.041	276.655	6.8563e-05	0.00029488	0.0001776	1210.9	3.4947e-06	5.7351e-06	1219.3	325.55	3.6734e-06	9.1345e-06	379.98	128.35	109.6	38.705	1.4881e-06	48.449	0.00036875	0.00034809	9.1007e-05	1213.7	4.0633e-06	3.7023e-06	1216.5	328.55	4.0085e-06	3.8129e-06	375.14	128.95	110.34	38.486	3.7817e-06	48.418	192.365	42.394	67.899	-33.470	102.400	92.796	-32.909	-28.358	55.281	75.711	-29.057	-24.144	-23.967	-20.003	197.683	-20.410	-8191	255	
7375.518	1	1	0	0	0.1833	0.24414	0.033081	0.24526	0.1744	0.076154	0.27771	0.16603	0.081942	0.16685	0.25012	0.099593	0.19637	0.30745	0.085946	0.31406	-1.9042	-2.6667	-1.9083	-2.7583	-2.4813	-2.3	-2.9396	-2.3667	-2.3937	-2.875	-2.2812	-2.725	-2.4375	-2.1292	-2.6937	-2.3896	-40.169	301.305	196.289	301.808	135.352	288.075	212.653	277.229	81.204	192.298	153.765	-26.443	161.413	271.425	91.139	310.523	8.7654e-05	0.00061793	7.1613e-05	1214	3.6822e-06	3.1863e-06	1215.1	324.7	5.3827e-07	8.2198e-06	377.74	126.9	108.89	38.332	1.0456e-06	48.289	0.00035822	0.00034464	9.5662e-05	1214.8	3.9859e-06	3.6413e-06	1217.2	327.88	3.8745e-06	3.699e-06	376.07	128.81	110	38.379	3.9967e-06	48.374	199.386	77.478	114.909	-33.532	88.402	98.792	-33.114	-28.305	243.986	57.724	-28.900	-24.321	-24.105	-19.513	187.801	-20.430	-8191	255	
7375.637	1	1	0	0	0.092486	0.015596	0.055336	0.064767	0.25681	0.070302	0.25771	0.17603	0.12841	0.1387	0.42515	0.20468	0.24616	0.10938	0.069065	0.042604	-2.0479	-2.7521	-2.2125	-2.7792	-2.7687	-2.1937	-2.8875	-2.3063	-2.1583	-2.7583	-2.2938	-2.6271	-2.7604	-2.2938	-2.7333	-2.4271	153.043	278.933	55.677	45.631	-44.574	-4.098	294.140	229.839	111.651	65.358	-41.268	295.831	-38.915	297.626	254.655	29.351	0.00011789	0.00044085	0.0001734	1205.5	4.0574e-06	3.1342e-06	1211	325.35	3.4116e-06	3.8283e-06	381.29	128.81	109.98	38.825	4.0425e-06	48.613	0.00035207	0.00033586	0.00010094	1211.8	3.9236e-06	3.5728e-06	1217.7	327.72	3.8156e-06	3.6813e-06	377.68	128.82	110.12	38.509	4.2055e-06	48.367	211.296	39.615	84.510	-33.347	134.373	85.146	-33.039	-28.487	70.583	139.709	-29.188	-24.507	-23.916	-19.824	41.033	-20.516	-8191	255	
7375.733	1	1	0	0	0.078838	0.19656	0.016799	0.085294	0.28609	0.013058	0.18077	0.13639	0.10985	0.17033	0.29908	0.10483	0.37875	0.12877	0.12511	0.26431	-1.9312	-2.6813	-2.1937	-2.8042	-2.8979	-2.1312	-2.9792	-2.5896	-2.2375	-2.7208	-2.3479	-2.6208	-2.7729	-2.2812	-2.6125	-2.725	148.116	146.094	130.330	299.224	-7.458	-38.195	222.242	232.411	-43.622	-6.701	284.040	221.558	275.189	-42.607	61.804	187.754	7.6866e-05	0.00040705	9.2557e-05	1220.8	1.5498e-06	3.0195e-06	1216.9	326.64	1.2131e-06	6.0973e-06	379.12	127.31	109.18	38.582	8.0336e-06	48.494	0.00034307	0.00033667	0.00010662	1214.5	3.8461e-06	3.6561e-06	1222.4	327.83	3.7144e-06	3.7588e-06	378.16	128.52	109.72	38.553	4.2518e-06	48.263	171.726	72.198	77.170	-33.456	45.992	77.072	-33.017	-28.422	182.679	100.883	-29.253	-24.276	-23.628	-19.461	121.338	-20.342	-8191	255	
7375.830	1	1	0	0	0.16205	0.10938	0.11109	0.3537	0.19001	0.26477	0.25218	0.22654	0.068978	0.13819	0.40711	0.21656	0.28793	0.28718	0.19607	0.22414	-1.9417	-2.6708	-2.0917	-2.5438	-2.6854	-2.1	-2.9917	-2.6792	-2.1292	-2.8125	-2.4646	-2.5021	-2.8292	-2.2667	-2.5938	-2.725	251.231	94.705	101.666	297.519	33.880	257.003	245.715	-34.517	-27.411	88.096	260.083	226.062	309.559	-33.342	54.160	149.751	0.00015097	0.00082386	3.6667e-05	1221.8	4.2272e-06	2.5755e-06	1223	327.91	4.1924e-06	3.4022e-06	380.85	128.22	110.4	38.938	9.0312e-06	48.667	0.00033326	0.00035437	0.00010766	1213.5	3.7849e-06	3.8597e-06	1221.6	327.49	3.6201e-06	3.9528e-06	378.39	128.75	109.94	38.715	4.1411e-06	48.192	178.065	101.594	104.398	-33.810	127.047	212.473	-33.302	-28.354	72.382	120.972	-29.141	-24.422	-23.772	-19.731	87.060	-20.758	-8191	255	
7375.950	1	1	0	0	0.14271	0.23585	0.081281	0.18831	0.10782	0.062785	0.22599	0.23733	0.13145	0.25581	0.38839	0.066123	0.30492	0.086765	0.13604	0.14676	-1.6896	-2.6146	-2.3479	-2.3375	-2.6813	-2.1479	-2.7917	-2.7042	-2.0271	-2.8688	-2.4604	-2.3333	-2.7833	-2.1	-2.6896	-2.6354	306.648	-20.447	-3.184	215.086	287.441	92.709	281.252	180.275	190.554	9.983	301.681	89.425	268.235	249.809	-11.430	179.893	0.00013543	0.00039177	8.4027e-05	1220	4.2383e-07	3.0534e-06	1223.7	327.23	6.0557e-06	6.5657e-07	378.23	127.9	110.17	38.883	3.5e-06	48.426	0.00032709	0.00037128	0.00010574	1211.8	3.7051e-06	4.0975e-06	1221	327.5	3.6176e-06	4.1403e-06	377.78	128.26	110.05	38.814	4.022e-06	48.169	180.801	313.307	17.355	-33.588	277.831	115.444	-33.340	-28.367	197.539	268.596	-29.294	-24.542	-23.935	-19.709	76.718	-20.580	-8191	255	
7376.022	1	1	0	0	0.12353	0.17865	0.12534	0.074495	0.13961	0.16071	0.24975	0.15715	0.28851	0.16809	0.21434	0.1834	0.15736	0.093551	0.082449	0.23452	-1.6938	-2.6396	-2.4729	-2.3146	-2.7104	-2.2771	-2.5833	-2.8146	-2.1167	-2.7938	-2.425	-2.2396	-2.8458	-2.2354	-2.2875	-2.6813	219.712	157.035	2.410	-44.886	203.817	-14.705	304.838	257.487	12.973	-22.610	245.472	292.222	242.012	68.301	234.109	283.407	0.00017013	0.00025654	0.00021091	1221.6	2.4837e-06	5.2564e-06	1223.9	327.73	5.6182e-06	5.927e-07	380.7	129.06	110.35	38.836	5.2412e-06	48.671	0.00033658	0.0003858	0.00010184	1212	3.823e-06	4.2271e-06	1220.4	327.58	3.7371e-06	4.2186e-06	377.25	128.33	110.38	38.857	3.8655e-06	48.076	205.671	42.536	-19.984	-33.668	38.116	99.354	-33.279	-28.471	185.834	194.371	-29.301	-24.634	-23.849	-19.746	47.340	-20.490	-8191	255	
7376.118	1	1	0	0	0.18577	0.081702	0.27491	0.33228	0.20214	0.1952	0.079271	0.22961	0.25238	0.09201	0.16527	0.23547	0.14845	0.088667	0.26662	0.18248	-1.5312	-2.5354	-2.4125	-2.4292	-2.9083	-2.2271	-2.2875	-2.8375	-2.1583	-2.7021	-2.6625	-2.1146	-2.8458	-2.3	-2.4271	-2.7938	15.359	304.380	-34.018	305.394	244.538	-38.520	271.065	267.168	144.766	210.281	268.832	280.302	264.635	-13.129	96.281	272.374	0.00025443	0.0004987	0.00010456	1220.8	4.0402e-06	6.7194e-06	1221.8	327.55	4.0041e-07	4.2928e-06	380.53	127.62	110	38.557	2.9696e-06	48.49	0.00035218	0.00038155	9.8958e-05	1211.2	4.0099e-06	4.1519e-06	1218.5	327.15	3.96e-06	4.0684e-06	376.71	127.85	110.64	38.725	3.7703e-06	48.045	175.230	48.334	33.114	-33.635	190.413	89.753	-33.372	-28.429	160.798	88.505	-29.155	-24.493	-24.142	-19.372	134.533	-20.514	-8191	255	
7376.214	1	1	0	0	0.08871	0.12628	0.094571	0.17441	0.13179	0.18975	0.27899	0.33578	0.11332	0.19306	0.15972	0.14158	0.1654	0.28948	0.074354	0.19569	-1.7458	-2.675	-2.4021	-2.2292	-2.9083	-2.2812	-2.2292	-2.8583	-2.0771	-2.3875	-2.8292	-2.15	-2.8125	-2.4	-2.0375	-2.8625	10.911	90.142	217.152	-32.637	166.158	3.800	251.000	288.669	235.333	308.466	283.085	-23.767	-26.743	250.078	70.717	202.400	0.00023401	0.0010234	5.2248e-05	1218	2.7985e-06	3.4903e-06	1224	327.11	3.7173e-06	1.7021e-06	381.49	128.02	110	38.766	2.1266e-06	48.98	0.00036859	0.00036622	9.7745e-05	1209.9	4.1623e-06	4.0315e-06	1217.1	327.46	4.134e-06	3.9415e-06	376.99	128.04	110.8	38.73	3.6471e-06	48.124	173.231	78.472	125.429	-33.584	175.664	123.038	-33.618	-28.516	262.664	19.331	-28.994	-24.476	-23.941	-19.908	130.262	-20.178	-8191	255	
7376.335	1	1	0	0	0.31492	0.22804	0.089418	0.26329	0.18911	0.086651	0.26384	0.21115	0.14144	0.20003	0.09239	0.20848	0.12115	0.20556	0.23275	0.086332	-1.8229	-2.3563	-2.7708	-2.2812	-2.6437	-2.6521	-2.3167	-2.8917	-2	-2.4562	-2.7146	-2.175	-2.6292	-2.5479	-2.1688	-2.8583	137.273	285.524	174.409	149.142	232.637	6.717	-44.124	248.360	-15.344	95.221	0.530	262.558	209.215	301.409	17.174	171.308	0.00024097	0.0006033	0.00011072	1216.4	4.5328e-06	2.5075e-06	1226.5	327.8	3.0141e-06	5.8269e-06	379.53	128.68	110.5	38.904	1.0309e-06	48.613	0.00038056	0.00035607	9.4894e-05	1210	4.163e-06	3.9423e-06	1216.4	327.89	4.161e-06	3.7895e-06	375.97	128.58	110.8	38.71	3.5394e-06	48.263	170.139	50.078	39.743	-33.377	-30.454	18.323	-33.579	-28.561	131.050	44.872	-29.141	-24.590	-24.131	-19.788	229.445	-20.238	-8191	255	
7376.431	1	1	0	0	0.16271	0.17819	0.12173	0.1409	0.32051	0.33558	0.20033	0.11993	0.23469	0.11954	0.10912	0.13416	0.22057	0.19063	0.20363	0.122	-1.9146	-2.3604	-2.7521	-2.2438	-2.5771	-2.5417	-2.4375	-2.9562	-2.5104	-2.2375	-2.8812	-2.2021	-2.5917	-2.8396	-2.0729	-2.8271	265.862	159.237	193.676	2.821	305.228	179.400	153.121	230.965	286.176	104.827	160.914	165.857	311.415	219.213	202.651	26.703	0.0001652	0.00058678	7.3632e-05	1220.3	2.4345e-06	2.9993e-06	1219.4	327.65	2.738e-06	2.3866e-06	379.74	128.19	109.71	38.661	5.0298e-06	48.698	0.00037369	0.00034426	9.1693e-05	1212.4	4.0723e-06	3.8175e-06	1215.7	328.61	4.0344e-06	3.6644e-06	376.12	128.76	110.45	38.618	3.5042e-06	48.418	220.086	110.010	61.173	-33.514	194.948	70.562	-33.307	-28.319	82.351	30.943	-28.884	-24.231	-24.038	-19.459	136.057	-20.240	-8191	255	
7376.527	1	1	0	0	0.33943	0.2029	0.09434	0.34397	0.21424	0.28501	0.13135	0.11784	0.060684	0.083561	0.17791	0.14071	0.05804	0.19595	0.12067	0.19071	-1.9771	-2.3563	-2.7062	-2.2167	-2.4479	-2.7292	-2.1562	-2.7146	-2.3604	-2.4188	-3.0229	-2.3688	-2.3646	-2.7396	-2.0458	-2.725	279.130	132.305	300.830	273.117	79.162	81.095	196.644	257.769	298.222	46.942	271.723	157.882	310.527	46.275	-46.415	100.961	0.00013291	0.00061224	3.2292e-05	1215.7	2.5914e-06	1.0594e-06	1220.4	328.16	9.4306e-07	4.233e-06	380.4	128.3	110.22	38.741	1.3635e-06	48.599	0.0003618	0.00032905	9.1793e-05	1212.8	3.8948e-06	3.6961e-06	1215	328.72	3.9309e-06	3.5602e-06	376.36	129.16	110.49	38.648	3.6586e-06	48.532	192.715	32.491	267.826	-33.602	110.551	127.104	-33.279	-28.503	8.346	137.557	-29.401	-24.326	-23.894	-19.487	23.619	-20.143	-8191	255	
7376.623	1	1	0	0	0.13101	0.1735	0.014294	0.16397	0.20883	0.039959	0.049138	0.2049	0.10688	0.24748	0.32269	0.23835	0.34285	0.15236	0.080544	0.30775	-1.8438	-2.1542	-2.7896	-2.3167	-2.2771	-2.7146	-2.2313	-2.8271	-2.5938	-2.2438	-2.9167	-2.3729	-2.1625	-2.8667	-1.9583	-2.7625	47.050	294.615	-3.020	15.651	161.469	98.691	286.659	-10.745	75.370	26.957	229.379	284.071	273.233	289.573	279.897	248.554	0.00011395	0.00059488	8.2986e-05	1211.6	3.9799e-06	7.8269e-06	1219.6	326.94	1.6784e-06	1.7952e-06	383.94	128.84	110.7	38.917	4.4052e-06	48.993	0.00035163	0.00032073	9.6788e-05	1212.8	3.7414e-06	3.6187e-06	1215.9	328.73	3.824e-06	3.4933e-06	378.24	129.03	110.21	38.57	3.8772e-06	48.547	206.240	33.418	121.525	-33.551	167.787	81.584	-33.424	-28.456	240.156	33.788	-29.352	-24.883	-24.158	-19.659	164.742	-20.461	-8191	255	
7376.718	1	1	0	0	0.1232	0.13297	0.077521	0.12902	0.21226	0.029191	0.20212	0.10595	0.10134	0.019807	0.13738	0.072293	0.17644	0.28781	0.17035	0.31796	-2.1208	-2.0687	-2.6896	-2.5146	-2.3354	-2.7542	-2.1042	-2.6188	-2.5521	-2.1875	-2.8417	-2.4562	-2.3021	-2.8333	-2.3229	-2.5958	150.307	220.016	113.479	-30.450	178.316	312.180	308.475	232.495	107.129	211.354	259.953	233.495	277.046	305.755	287.677	273.327	0.00021852	0.00066338	0.00013124	1207	1.7008e-06	1.9346e-06	1216.5	325.79	5.0357e-06	5.5413e-06	383.07	128.72	110.88	38.966	3.7416e-06	48.888	0.00034476	0.00031521	0.00010151	1212.8	3.7149e-06	3.6074e-06	1220	328.2	3.7718e-06	3.4867e-06	378.42	128.92	110.27	38.655	4.0769e-06	48.323	165.794	104.948	44.573	-33.239	279.692	11.951	-33.182	-28.308	121.491	98.520	-29.044	-24.651	-24.303	-19.807	52.029	-20.684	-8191	255	
7376.816	1	1	0	0	0.16889	0.37343	0.027155	0.093055	0.19896	0.22388	0.16192	0.22144	0.10232	0.41795	0.23102	0.030325	0.25689	0.070371	0.25185	0.29777	-2.3125	-2.1688	-2.5354	-2.5438	-2.1208	-2.6333	-2.3688	-2.5417	-2.6792	-2.0833	-2.8979	-2.4562	-2.1458	-2.8312	-2.1021	-2.3375	18.197	299.254	249.081	253.828	18.389	17.839	260.935	220.685	47.532	71.600	261.983	283.443	297.021	181.919	31.132	302.134	0.00017181	0.00043837	7.009e-05	1226.3	1.7604e-06	2.8583e-06	1228.3	329.35	5.0627e-06	4.461e-06	384.31	128.91	110.88	38.922	6.5973e-06	48.766	0.00033942	0.00032495	0.00010521	1214.6	3.6417e-06	3.703e-06	1223.4	328.72	3.6543e-06	3.6497e-06	379.95	128.88	110.12	38.682	4.089e-06	48.176	188.613	69.525	31.241	-33.612	110.918	152.065	-33.508	-28.717	118.946	161.487	-29.599	-24.717	-24.206	-20.012	50.331	-20.689	-8191	255	
7376.934	1	1	0	0	0.0055975	0.053641	0.1671	0.22887	0.29615	0.088473	0.049343	0.096383	0.13531	0.1095	0.27573	0.15552	0.39387	0.046623	0.064049	0.17922	-2.1875	-2.0604	-2.575	-2.7	-2.0771	-2.7458	-2.2938	-2.4896	-2.625	-2.1729	-2.8292	-2.6667	-2.2062	-2.8104	-2.2708	-2.2208	-5.650	26.199	-10.443	286.746	69.669	151.394	275.000	261.563	273.984	71.774	234.954	123.607	283.995	-24.363	72.225	257.628	0.0001474	0.00046998	8.357e-05	1223.3	3.6787e-06	1.8154e-06	1225.4	328.13	1.2561e-06	6.5024e-06	382.99	128.66	110.66	38.927	2.1183e-06	49.048	0.00033215	0.00034064	0.00010283	1212.4	3.512e-06	3.8519e-06	1220.3	327.75	3.6057e-06	3.843e-06	378.53	128.53	109.96	38.83	3.9942e-06	48.273	173.897	44.196	-11.005	-33.772	17.108	165.645	-33.690	-28.700	82.276	102.893	-29.441	-24.773	-24.142	-20.032	96.766	-20.867	-8191	255	
7377.031	1	1	0	0	0.075724	0.18299	0.35281	0.25695	0.11047	0.083197	0.27492	0.30285	0.13656	0.080706	0.030486	0.023028	0.031562	0.24653	0.13191	0.34077	-2.3542	-2.1271	-2.6167	-2.6708	-1.975	-2.7458	-2.4562	-2.2687	-2.6479	-2.1292	-2.4146	-3.0354	-2.1688	-2.6542	-2.3771	-2.4458	175.659	-23.964	-35.400	303.490	257.562	96.449	273.486	293.630	147.860	-24.221	224.935	-25.460	215.213	3.407	194.881	264.950	0.00017613	0.00026284	0.00025897	1218.2	3.4792e-06	6.1609e-06	1227.2	329.19	2.5787e-06	3.7928e-06	381.72	129.21	110.35	38.935	2.7948e-06	48.793	0.00032552	0.00035829	9.9861e-05	1211.4	3.4767e-06	4.0298e-06	1218.2	327.86	3.6237e-06	4.0116e-06	377.54	128.63	109.8	38.855	3.8417e-06	48.047	200.962	109.580	54.266	-33.641	123.180	144.122	-33.736	-28.680	152.713	71.955	-29.429	-24.418	-24.122	-19.954	108.049	-20.905	-8191	255	
7377.127	1	1	0	0	0.29675	0.16419	0.041449	0.2542	0.015811	0.12157	0.082235	0.15573	0.014939	0.07129	0.12592	0.19501	0.33669	0.14032	0.20429	0.11882	-2.5187	-2.0604	-2.5042	-3	-2.0771	-2.6875	-2.4896	-2.3208	-2.6146	-2.1958	-2.5042	-2.9521	-2.2542	-2.7729	-2.3396	-2.2125	310.449	309.433	270.896	232.147	145.070	42.519	72.774	253.220	-30.027	207.139	101.734	269.042	266.706	269.946	125.913	61.273	0.00017898	0.00022564	7.969e-05	1221.7	3.0131e-06	4.7852e-06	1226	328.49	3.8997e-06	8.1425e-06	382	128.59	110.37	39.091	3.1898e-06	48.812	0.00033417	0.00036751	9.6156e-05	1209.8	3.5884e-06	4.0543e-06	1216.4	327.21	3.747e-06	4.0272e-06	377.03	128.17	110.26	38.886	3.8125e-06	47.999	154.815	1.419	-16.305	-33.792	172.821	84.798	-33.529	-28.791	130.572	54.750	-29.704	-24.609	-24.288	-20.053	104.440	-20.649	-8191	255	
7377.223	1	1	0	0	0.39391	0.073304	0.29472	0.32621	0.21802	0.058574	0.29804	0.13861	0.25391	0.20682	0.1392	0.18461	0.14196	0.082069	0.12661	0.24338	-2.4562	-2.2667	-2.3292	-2.8104	-2.0229	-2.8375	-2.575	-2.1	-2.8438	-2.4396	-2.5146	-2.7583	-2.2396	-2.4875	-2.6104	-2.2479	269.261	56.596	142.187	295.741	304.851	307.318	249.100	39.386	57.094	39.187	234.750	299.181	218.053	118.552	-20.250	-33.085	0.00018466	0.00012241	0.00013921	1221.9	3.8906e-06	3.3928e-06	1223.6	327.78	3.3193e-06	5.9226e-06	382.97	128.79	110.78	38.777	1.5271e-06	49.142	0.00035074	0.0003655	9.332e-05	1210.1	3.8229e-06	3.9522e-06	1214.4	326.92	3.9187e-06	3.939e-06	376.72	128.11	110.6	38.705	3.7163e-06	48.108	191.936	-41.719	-17.430	-33.511	86.893	49.085	-33.705	-28.842	143.168	129.638	-29.638	-24.958	-24.389	-20.021	50.606	-20.833	-8191	255	
7377.319	1	1	0	0	0.080949	0.055428	0.21418	0.1237	0.11083	0.04501	0.15364	0.18271	0.16386	0.055517	0.14601	0.36707	0.075968	0.26438	0.22688	0.18972	-2.35	-2.4313	-2.2896	-2.7854	-2.0167	-2.5625	-2.8667	-2.1813	-2.9042	-2.4417	-2.2958	-2.7021	-2	-2.4604	-2.7687	-2.2583	61.144	40.787	-6.501	33.927	145.528	204.130	287.219	160.259	68.621	272.701	306.991	20.527	304.208	233.865	40.212	167.256	0.00021487	0.00049632	0.00020849	1226.2	3.0441e-06	3.4947e-06	1227.1	329.29	1.9947e-06	4.5179e-06	382.94	128.77	110.73	38.87	6.3506e-06	48.834	0.0003671	0.00035475	9.1329e-05	1211	3.983e-06	3.844e-06	1215.5	327.55	4.0388e-06	3.8222e-06	375.95	128.29	110.78	38.677	3.6287e-06	48.048	195.928	64.144	-10.692	-33.640	142.000	106.313	-33.638	-28.626	183.817	123.711	-29.437	-24.506	-24.143	-19.889	91.927	-20.610	-8191	255	
#DATA ENDS
