BOXY.EXE: ISS Imagent and Oximeter Data Acquisition Program Version 0.80
Ascii Record File

#ACQ INFORMATION
2  Detector Channels 
16  External MUX Channels 
1  Auxiliary Channels 
5000  Waveform (CCF) Frequency (Hz)
1  Waveforms Skipped 
30  Waveforms Averaged 
1  Cycles Averaged 
16  Acquisitions per Waveform 
10.0806  Updata Rate (Hz) 

#FILE INFORMATION
TRUE -- External MUX Channel results are PARSED.
FALSE -- AC DC and Phase are NOT grouped.
TRUE -- Companion Program Settings File CREATED.
FALSE -- AC data not excluded
FALSE -- DC data not excluded
FALSE -- Phase data not excluded
FALSE -- Auxillary Chn. data not excluded
Tab delimiters

#CALIBRATION STATE
TRUE -- Waveform Calibration Values APPLIED.


#AUX CALIBRATION VALUES
Val Type	aux-1	

Term	1.0000e+00	
Factor	0.0000e+00	


#WF CALIBRATION VALUES
A = Detector Channel
Val Type	A-AC1	A-AC2	A-AC3	A-AC4	A-AC5	A-AC6	A-AC7	A-AC8	A-AC9	A-AC10	A-AC11	A-AC12	A-AC13	A-AC14	A-AC15	A-AC16	A-DC1	A-DC2	A-DC3	A-DC4	A-DC5	A-DC6	A-DC7	A-DC8	A-DC9	A-DC10	A-DC11	A-DC12	A-DC13	A-DC14	A-DC15	A-DC16	A-Ph1	A-Ph2	A-Ph3	A-Ph4	A-Ph5	A-Ph6	A-Ph7	A-Ph8	A-Ph9	A-Ph10	A-Ph11	A-Ph12	A-Ph13	A-Ph14	A-Ph15	A-Ph16	

Term	0.00000e+00	0.00000e+00	0.00000e+00	0.00000e+00	0.00000e+00	0.00000e+00	0.00000e+00	0.00000e+00	0.00000e+00	0.00000e+00	0.00000e+00	0.00000e+00	0.00000e+00	0.00000e+00	0.00000e+00	0.00000e+00	0.00000e+00	0.00000e+00	0.00000e+00	0.00000e+00	0.00000e+00	0.00000e+00	0.00000e+00	0.00000e+00	0.00000e+00	0.00000e+00	0.00000e+00	0.00000e+00	0.00000e+00	0.00000e+00	0.00000e+00	0.00000e+00	0.00000e+00	0.00000e+00	0.00000e+00	0.00000e+00	0.00000e+00	0.00000e+00	0.00000e+00	0.00000e+00	0.00000e+00	0.00000e+00	0.00000e+00	0.00000e+00	0.00000e+00	0.00000e+00	0.00000e+00	0.00000e+00	
Factor	1.00000e+00	1.00000e+00	1.00000e+00	1.00000e+00	1.00000e+00	1.00000e+00	1.00000e+00	1.00000e+00	1.00000e+00	1.00000e+00	1.00000e+00	1.00000e+00	1.00000e+00	1.00000e+00	1.00000e+00	1.00000e+00	1.00000e+00	1.00000e+00	1.00000e+00	1.00000e+00	1.00000e+00	1.00000e+00	1.00000e+00	1.00000e+00	1.00000e+00	1.00000e+00	1.00000e+00	1.00000e+00	1.00000e+00	1.00000e+00	1.00000e+00	1.00000e+00	X	X	X	X	X	X	X	X	X	X	X	X	X	X	X	X	

B = Detector Channel
Val Type	B-AC1	B-AC2	B-AC3	B-AC4	B-AC5	B-AC6	B-AC7	B-AC8	B-AC9	B-AC10	B-AC11	B-AC12	B-AC13	B-AC14	B-AC15	B-AC16	B-DC1	B-DC2	B-DC3	B-DC4	B-DC5	B-DC6	B-DC7	B-DC8	B-DC9	B-DC10	B-DC11	B-DC12	B-DC13	B-DC14	B-DC15	B-DC16	B-Ph1	B-Ph2	B-Ph3	B-Ph4	B-Ph5	B-Ph6	B-Ph7	B-Ph8	B-Ph9	B-Ph10	B-Ph11	B-Ph12	B-Ph13	B-Ph14	B-Ph15	B-Ph16	

Term	0.00000e+00	0.00000e+00	0.00000e+00	0.00000e+00	0.00000e+00	0.00000e+00	0.00000e+00	0.00000e+00	0.00000e+00	0.00000e+00	0.00000e+00	0.00000e+00	0.00000e+00	0.00000e+00	0.00000e+00	0.00000e+00	0.00000e+00	0.00000e+00	0.00000e+00	0.00000e+00	0.00000e+00	0.00000e+00	0.00000e+00	0.00000e+00	0.00000e+00	0.00000e+00	0.00000e+00	0.00000e+00	0.00000e+00	0.00000e+00	0.00000e+00	0.00000e+00	-7.80260e+01	-1.58627e+02	-1.69044e+02	-1.83775e+02	-9.56680e+01	-8.10641e+01	-1.58123e+02	-1.62015e+02	-7.06761e+01	-1.03333e+02	-1.70742e+02	-1.70756e+02	-1.78698e+02	-1.77014e+02	-1.06885e+02	-1.49823e+02	
Factor	1.89549e-05	9.66343e-05	3.90588e-05	1.69121e-01	1.09656e-06	1.06494e-06	1.87830e-01	6.00408e-02	1.11570e-06	1.14070e-06	9.95031e-02	3.37985e-02	3.11028e-02	1.10307e-02	1.00689e-06	1.56862e-02	6.37178e-07	6.49506e-07	1.80709e-07	7.65429e-02	7.12655e-09	7.12169e-09	7.97188e-02	2.69659e-02	7.12101e-09	7.12221e-09	4.22235e-02	1.44095e-02	1.37016e-02	4.81339e-03	7.13314e-09	6.55754e-03	X	X	X	X	X	X	X	X	X	X	X	X	X	X	X	X	



#DISTANCE SETTINGS
A = Detector Channel
A-1	A-2	A-3	A-4	A-5	A-6	A-7	A-8	A-9	A-10	A-11	A-12	A-13	A-14	A-15	A-16	

2.5000e+00	3.0000e+00	2.5000e+00	3.0000e+00	2.0000e+00	3.0000e+00	1.5000e+00	3.0000e+00	3.0000e+00	3.0000e+00	3.0000e+00	3.0000e+00	3.0000e+00	3.0000e+00	1.5000e+00	3.0000e+00	

B = Detector Channel
B-1	B-2	B-3	B-4	B-5	B-6	B-7	B-8	B-9	B-10	B-11	B-12	B-13	B-14	B-15	B-16	

1.0000e+01	1.0000e+01	1.0000e+01	1.4400e+00	1.0000e+01	1.0000e+01	1.5100e+00	1.9400e+00	1.0000e+01	1.0000e+01	1.9900e+00	2.4900e+00	2.4100e+00	2.9000e+00	1.0000e+01	2.9800e+00	




#DATA BEGINS
time	group	step	mark	flag	A-AC1	A-AC2	A-AC3	A-AC4	A-AC5	A-AC6	A-AC7	A-AC8	A-AC9	A-AC10	A-AC11	A-AC12	A-AC13	A-AC14	A-AC15	A-AC16	A-DC1	A-DC2	A-DC3	A-DC4	A-DC5	A-DC6	A-DC7	A-DC8	A-DC9	A-DC10	A-DC11	A-DC12	A-DC13	A-DC14	A-DC15	A-DC16	A-Ph1	A-Ph2	A-Ph3	A-Ph4	A-Ph5	A-Ph6	A-Ph7	A-Ph8	A-Ph9	A-Ph10	A-Ph11	A-Ph12	A-Ph13	A-Ph14	A-Ph15	A-Ph16	B-AC1	B-AC2	B-AC3	B-AC4	B-AC5	B-AC6	B-AC7	B-AC8	B-AC9	B-AC10	B-AC11	B-AC12	B-AC13	B-AC14	B-AC15	B-AC16	B-DC1	B-DC2	B-DC3	B-DC4	B-DC5	B-DC6	B-DC7	B-DC8	B-DC9	B-DC10	B-DC11	B-DC12	B-DC13	B-DC14	B-DC15	B-DC16	B-Ph1	B-Ph2	B-Ph3	B-Ph4	B-Ph5	B-Ph6	B-Ph7	B-Ph8	B-Ph9	B-Ph10	B-Ph11	B-Ph12	B-Ph13	B-Ph14	B-Ph15	B-Ph16	aux-1	digaux	

44520.723	1	1	0	768	0.12239	0.065603	0.43542	0.23301	0.21494	0.092913	0.27827	0.022319	0.17305	0.22672	0.30765	0.096189	0.16967	0.10241	0.1731	0.17785	-3.8292	-4.125	-4.7979	-4.1354	-4.5625	-4.6354	-4.1458	-5.1062	-4.3375	-4.2396	-5.025	-4.1583	-4.6333	-4.8729	-3.9104	-4.9646	38.474	61.264	272.979	37.096	365.252	197.792	323.976	64.156	270.645	212.352	34.843	352.853	43.321	354.135	217.456	56.992	0.00038209	0.00038112	0.00014329	1479.6	7.9063e-06	3.7438e-06	1608.4	515.38	3.797e-06	4.6279e-06	574.86	178.53	154.34	50.578	5.1228e-06	68.092	4.7897e-05	4.0153e-05	1.0933e-05	1299.6	4.4838e-07	4.2451e-07	1402.1	447.04	4.5074e-07	4.3048e-07	486.17	152.03	130.65	42.483	4.4176e-07	56.968	190.609	66.076	64.492	31.259	147.174	145.706	30.754	34.702	168.654	114.548	33.405	37.548	38.567	42.851	140.841	41.167	-8191	255	
44520.816	1	1	0	0	0.12679	0.18311	0.11402	0.20416	0.2686	0.12788	0.10084	0.2795	0.13713	0.050104	0.18254	0.20382	0.28171	0.27344	0.11133	0.24759	-4.1125	-4.2083	-4.8917	-4.325	-4.4083	-4.8208	-4.1813	-4.8271	-4.5333	-4.075	-5.0875	-4.2479	-4.4812	-4.8417	-3.8521	-5.0625	25.742	34.894	83.724	313.650	124.292	119.968	293.112	367.965	208.263	288.720	339.819	316.458	285.104	370.449	344.485	313.485	0.00037014	0.00057631	0.00018558	1493.2	4.1209e-06	2.8416e-06	1608.7	516.54	5.8637e-06	3.0207e-06	579	179.75	156.15	50.743	3.8357e-06	68.78	4.9525e-05	3.9452e-05	1.0922e-05	1309	4.5114e-07	4.3171e-07	1408.1	448.84	4.5175e-07	4.2827e-07	488.19	153.18	131.76	42.725	4.4463e-07	57.453	195.688	83.883	76.609	31.404	183.197	162.539	30.466	34.833	196.727	107.544	33.200	37.607	38.864	42.750	125.092	41.205	-8191	255	
44520.914	1	1	0	0	0.16831	0.032094	0.24489	0.29219	0.038761	0.12598	0.19351	0.17371	0.22579	0.22959	0.12609	0.11817	0.10483	0.11877	0.1098	0.25412	-4.3417	-4.1521	-4.8229	-4.3792	-4.3646	-4.8688	-4.1188	-4.8938	-4.7542	-3.9938	-5.0521	-4.3271	-4.4062	-5.0792	-3.8937	-4.4875	275.950	101.753	43.092	277.551	156.196	61.336	369.426	340.011	79.353	24.022	127.827	45.894	369.122	195.978	77.346	249.531	0.00036048	0.00046811	0.00012476	1498.3	5.8659e-06	2.8975e-06	1620.5	517.95	5.8295e-06	2.5665e-06	575.13	179.79	155.08	50.243	2.8571e-06	68.107	4.9007e-05	3.9781e-05	1.1073e-05	1317	4.5303e-07	4.1586e-07	1418.2	450.51	4.527e-07	4.3263e-07	488.4	152.97	131.46	42.571	4.4808e-07	56.921	187.930	64.162	43.439	31.664	132.337	198.203	30.684	34.544	179.299	159.780	33.245	37.620	38.570	42.592	122.440	41.213	-8191	255	
44521.012	1	1	0	0	0.047144	0.34276	0.19099	0.26153	0.097828	0.15853	0.16629	0.29411	0.066683	0.14223	0.043539	0.060046	0.066881	0.089991	0.07139	0.11278	-4.3938	-3.8667	-4.8833	-4.4458	-4.1625	-4.9458	-4.2479	-4.8333	-4.6729	-3.9938	-5.0354	-4.4354	-4.1958	-5.0583	-4.1062	-4.5354	19.854	296.256	61.447	331.984	322.090	325.322	324.511	351.806	307.721	152.717	340.638	116.477	331.557	327.276	269.625	307.437	0.00039957	0.00060191	0.00014058	1483.6	5.5419e-06	4.0683e-06	1583.4	508.6	3.9989e-06	3.1406e-06	564.86	176.25	152.8	49.728	5.2445e-06	66.911	4.8136e-05	3.8805e-05	1.0633e-05	1300.8	4.4924e-07	4.1381e-07	1390.4	442.93	4.4511e-07	4.3129e-07	478.8	150.11	129.4	42.01	4.4046e-07	55.889	193.832	38.453	49.131	31.395	149.373	195.545	30.598	34.518	172.793	139.621	33.080	37.617	38.707	43.058	150.412	41.209	-8191	255	
44521.105	1	1	0	0	0.231	0.086	0.10573	0.2501	0.15057	0.1466	0.10932	0.20807	0.26385	0.050554	0.096077	0.23617	0.26904	0.1075	0.13097	0.23697	-4.5729	-3.8354	-4.8208	-4.6292	-4.0667	-4.7771	-4.4333	-4.4313	-4.8667	-3.8083	-4.8375	-4.6854	-4.1375	-4.8542	-4.1875	-4.4458	226.231	191.841	349.668	319.105	198.910	368.523	245.602	315.843	21.131	69.510	323.280	331.439	329.012	26.812	124.657	358.038	0.00035966	0.00058113	0.00014542	1477.8	6.0627e-06	3.199e-06	1587.4	510.81	3.7896e-06	2.653e-06	563.13	175.04	153.06	49.471	3.881e-06	66.742	4.8084e-05	3.9053e-05	1.0843e-05	1295.6	4.475e-07	4.0686e-07	1389.3	442.88	4.3187e-07	4.1816e-07	478.54	150.18	129.76	41.947	4.4497e-07	55.822	190.535	67.449	56.924	31.090	128.685	154.842	30.415	34.620	181.818	166.451	32.958	37.437	38.369	42.695	132.803	40.801	-8191	255	
44521.203	1	1	0	0	0.12916	0.10484	0.092165	0.28895	0.15682	0.12788	0.26467	0.31961	0.20494	0.26835	0.073554	0.16224	0.13199	0.15407	0.039172	0.22483	-4.6625	-4.0375	-4.6542	-4.7521	-3.8896	-4.875	-4.3458	-4.4792	-4.7833	-3.9521	-4.8021	-4.8438	-4.0875	-4.7271	-4.3604	-4.125	21.019	267.006	21.015	365.918	308.012	280.740	317.125	322.621	167.205	85.415	274.756	335.728	264.768	331.976	95.644	243.835	0.00033576	0.00026878	0.00020518	1488.4	5.2421e-06	7.4022e-06	1588.2	515.4	6.4241e-06	6.6231e-06	573.59	176.66	154.61	50.025	3.1427e-06	67.216	4.8817e-05	3.9102e-05	1.0864e-05	1303.3	4.6657e-07	4.2264e-07	1394.8	446.72	4.3837e-07	4.2609e-07	484.39	150.84	131.03	42.183	4.6199e-07	56.123	189.020	61.924	52.494	31.511	161.821	155.223	30.491	34.602	198.747	142.633	33.133	37.488	38.656	42.499	156.674	41.259	-8191	255	
44521.320	1	1	0	0	0.0069059	0.22842	0.047534	0.28307	0.089493	0.14296	0.18264	0.11119	0.11933	0.087556	0.28398	0.073551	0.32791	0.14597	0.11006	0.062261	-4.6167	-4.0542	-4.4292	-4.9229	-3.7917	-4.7562	-4.5375	-4.1875	-4.9354	-4.1333	-4.6792	-4.9708	-3.925	-4.8	-4.55	-4.175	122.436	150.046	65.263	306.004	132.000	287.174	344.039	251.765	342.058	240.033	351.174	366.821	43.718	337.191	308.046	22.255	0.00038321	0.00051837	0.00011751	1499.7	4.0728e-06	2.3035e-06	1611.2	517.54	6.4778e-06	4.7277e-06	576.99	178.01	156.12	50.502	2.0208e-06	68.24	4.9264e-05	4.1091e-05	1.0849e-05	1313.4	4.6131e-07	4.2429e-07	1408.1	449.88	4.4892e-07	4.2502e-07	487.35	152.16	131.68	42.562	4.4542e-07	56.834	195.681	64.377	59.369	31.386	133.416	127.621	30.670	34.407	195.695	122.091	33.139	37.865	38.555	42.835	143.119	41.100	-8191	255	
44521.418	1	1	0	0	0.10893	0.29788	0.11783	0.29704	0.098022	0.049997	0.1207	0.25676	0.01618	0.17494	0.24775	0.15963	0.26003	0.3782	0.11699	0.059737	-4.6146	-4.0875	-4.4521	-4.9896	-3.9458	-4.675	-4.7458	-4.1375	-4.8271	-4.2146	-4.3896	-5.0104	-4.0687	-4.7458	-4.55	-4.2229	258.840	216.200	135.620	355.025	273.840	278.521	207.432	345.817	87.625	239.525	258.862	304.432	320.175	57.126	319.925	135.512	0.00033705	0.00064294	5.7302e-05	1504.7	4.2744e-06	4.7982e-06	1617.1	518.08	3.8923e-06	3.2859e-06	576.61	178.44	155.81	50.118	5.6285e-06	67.348	4.7972e-05	4.0337e-05	1.0743e-05	1319.9	4.58e-07	4.3086e-07	1416.7	450.47	4.4555e-07	4.3337e-07	488.03	152.46	131.56	42.395	4.4142e-07	56.34	199.140	71.734	62.466	31.530	132.840	145.657	30.507	34.554	184.147	174.443	33.302	37.659	38.512	42.892	145.004	41.223	-8191	255	
44521.512	1	1	0	0	0.12043	0.099418	0.1936	0.14828	0.046985	0.22557	0.26962	0.105	0.32138	0.18652	0.16752	0.17372	0.41028	0.13224	0.14833	0.17577	-4.6125	-4.2396	-4.1771	-5.2729	-3.9104	-4.5896	-4.8583	-4.2625	-4.8292	-4.3187	-4.2396	-5.0604	-4.0646	-4.6292	-4.6312	-4.1021	246.048	115.303	216.735	330.934	265.896	301.816	351.387	34.427	360.062	81.297	25.088	19.072	339.895	275.563	360.335	261.331	0.00034112	0.00042919	0.00018634	1487.8	4.7496e-06	3.8192e-06	1598.9	512.1	3.8582e-06	3.9727e-06	560.86	175.36	152.67	49.179	2.9168e-06	66.594	4.8163e-05	4.0969e-05	1.1003e-05	1308.2	4.4924e-07	4.2788e-07	1397.2	444.14	4.3886e-07	4.1925e-07	477.73	149.64	129.17	41.756	4.2845e-07	55.459	193.756	62.015	48.369	31.665	145.279	134.088	30.723	34.622	184.547	136.478	33.190	37.677	38.849	42.728	134.286	41.261	-8191	255	
44521.609	1	1	0	0	0.24237	0.16137	0.13582	0.14585	0.10646	0.15626	0.20484	0.14063	0.14665	0.25355	0.13941	0.051627	0.081356	0.072556	0.12372	0.16396	-4.6375	-4.4729	-4.0625	-5.1521	-4.0958	-4.35	-5.1438	-4.0792	-4.7625	-4.3063	-4.1438	-5.1604	-4.2854	-4.1937	-4.7542	-4.0354	174.556	160.352	214.991	62.322	372.283	138.579	348.618	244.563	317.923	114.821	347.877	54.994	37.241	205.068	296.093	280.502	0.00030591	0.00045939	0.00019574	1469.3	3.9378e-06	3.2035e-06	1585.3	507.33	6.9758e-06	3.3315e-06	566.89	175.35	152.09	49.347	2.6789e-06	66.901	4.687e-05	4.016e-05	1.0925e-05	1290	4.5405e-07	4.2095e-07	1386	440.54	4.3281e-07	4.2736e-07	477.35	149.71	128.69	41.637	4.4487e-07	55.615	195.438	91.417	93.036	31.217	114.645	165.608	30.842	34.663	172.926	127.386	33.243	37.842	38.742	42.629	129.679	41.488	-8191	255	
44521.703	1	1	0	0	0.074581	0.13806	0.21319	0.16687	0.085145	0.129	0.22698	0.25966	0.060827	0.13004	0.26073	0.23612	0.16741	0.060097	0.033785	0.17616	-4.5875	-4.6083	-3.9437	-5.2521	-4.1229	-4.2812	-5.1125	-4.1438	-4.7208	-4.6062	-4.1417	-5.0188	-4.4292	-4.4146	-4.9333	-4.0708	307.951	101.097	164.456	337.237	228.065	95.956	248.131	335.130	285.601	143.775	345.993	352.039	248.665	369.589	161.302	25.513	0.00037958	0.00028102	0.00018138	1483.3	4.9407e-06	5.2167e-06	1599.6	511.09	6.8516e-06	3.4695e-06	570.82	176.72	154.18	49.985	4.3478e-06	67.166	4.8349e-05	3.8493e-05	1.0626e-05	1298.6	4.426e-07	4.3963e-07	1396.8	443.92	4.4721e-07	4.2299e-07	482.21	150.82	130.4	42.11	4.3466e-07	56.108	197.913	74.534	66.025	31.538	152.026	154.968	30.806	34.468	137.477	161.340	33.164	37.423	38.858	42.365	107.352	41.385	-8191	255	
44521.801	1	1	0	0	0.1634	0.10975	0.17348	0.35313	0.13347	0.12182	0.36374	0.21531	0.087346	0.10011	0.39767	0.16569	0.33736	0.27645	0.19866	0.22848	-4.3521	-4.8354	-4.0062	-4.8833	-4.2792	-4.2354	-5.0271	-4.0854	-4.4625	-4.6042	-4.0875	-4.825	-4.5292	-4.2458	-4.7646	-4.2	114.746	283.059	236.085	20.503	113.374	109.681	310.008	254.069	214.304	177.235	280.458	365.370	345.974	43.058	158.889	348.141	0.0003781	0.0002159	0.00014314	1503.7	3.649e-06	3.4943e-06	1633.4	525.9	4.1258e-06	5.1604e-06	589.36	179.73	159.97	50.829	5.172e-06	67.311	4.7514e-05	3.936e-05	1.118e-05	1320.4	4.448e-07	4.2981e-07	1428.1	457.03	4.5785e-07	4.4134e-07	496.88	154.5	135.02	42.851	4.5353e-07	56.543	199.464	99.792	66.153	31.384	121.295	175.996	30.576	34.709	169.596	140.196	33.232	37.384	38.905	42.396	128.824	41.029	-8191	255	
44521.922	1	1	0	0	0.047968	0.15875	0.17656	0.18396	0.14301	0.078945	0.17964	0.23501	0.15971	0.082371	0.31896	0.062613	0.18944	0.24066	0.104	0.13075	-4.0667	-4.8146	-3.9958	-4.8729	-4.4271	-4.1813	-5.0938	-4.2271	-4.3729	-4.8812	-4.1188	-4.7562	-4.5396	-4.15	-4.825	-4.2375	28.315	246.157	69.995	17.267	30.256	218.690	323.820	329.931	267.311	168.284	336.465	270.955	28.977	89.463	220.250	258.428	0.00039811	0.00035262	0.00015998	1568.3	3.1187e-06	3.7362e-06	1702.6	554.06	6.0726e-06	6.7051e-06	606.66	186.95	166.86	51.35	4.5019e-06	68.265	5.1828e-05	4.0559e-05	1.1618e-05	1379.5	4.7072e-07	4.5341e-07	1492	480.53	4.8297e-07	4.657e-07	515.35	159.66	140.87	43.524	4.9555e-07	56.954	191.220	70.214	41.229	31.318	142.023	109.369	30.779	34.336	180.834	111.431	33.514	37.423	38.719	42.791	135.256	40.921	-8191	255	
44522.016	1	1	0	0	0.07434	0.042266	0.088051	0.20531	0.19934	0.20218	0.29034	0.28147	0.015129	0.13547	0.19806	0.19985	0.22792	0.19791	0.12231	0.23001	-3.8021	-4.8229	-3.9083	-4.7937	-4.6729	-3.8979	-5.1062	-4.3875	-4.225	-4.8688	-4.0813	-4.6479	-4.7167	-3.8937	-4.6375	-4.3292	47.580	197.863	343.554	331.115	324.950	173.748	279.747	319.965	309.084	149.806	47.575	55.817	96.669	53.686	270.000	123.034	0.00039609	0.00034631	0.00015132	1601	4.1153e-06	2.8318e-06	1695.2	552.09	5.9032e-06	3.5969e-06	590.37	180.48	162.21	49.558	4.9397e-06	64.5	5.3701e-05	4.2296e-05	1.2292e-05	1406.3	5.0187e-07	4.8364e-07	1486.8	479.53	5.0929e-07	4.7673e-07	501.22	154.78	137.38	42.048	4.9089e-07	53.888	197.927	119.187	70.433	31.230	186.903	139.430	30.515	34.633	170.732	141.149	33.084	37.134	38.760	42.314	182.711	41.099	-8191	255	
44522.113	1	1	0	0	0.045918	0.12998	0.05863	0.47484	0.096683	0.098273	0.17728	0.071584	0.26748	0.1057	0.24534	0.11512	0.028028	0.34273	0.17303	0.21345	-3.8667	-4.9583	-3.9833	-4.6625	-4.7604	-3.8708	-4.9542	-4.5854	-4.1792	-4.8667	-4.1542	-4.5333	-4.8812	-3.8667	-4.7312	-4.4667	316.512	151.199	208.270	349.912	238.330	224.819	353.223	244.711	355.736	191.738	292.090	351.921	283.787	331.529	168.079	65.148	0.00032357	0.00047437	0.00018058	1532.5	3.1415e-06	4.2667e-06	1605.3	534.28	5.0369e-06	5.9018e-06	568.85	172.97	158.15	48.222	5.8842e-06	63.374	4.9854e-05	4.2652e-05	1.2084e-05	1346.9	4.7689e-07	4.7462e-07	1407.7	462.95	4.7052e-07	4.4888e-07	481.65	148.55	133.68	40.92	4.5389e-07	52.665	197.136	61.523	69.324	31.265	180.177	120.471	30.484	34.464	164.661	121.234	33.232	37.256	38.349	42.469	156.394	40.702	-8191	255	
44522.211	1	1	0	0	0.14929	0.081523	0.057053	0.046726	0.126	0.058939	0.1634	0.34431	0.18212	0.1748	0.047526	0.21428	0.089057	0.2488	0.10908	0.32322	-3.5729	-4.8438	-3.9604	-4.4854	-4.6813	-3.7542	-4.8708	-4.7562	-3.9896	-4.9792	-4.2875	-4.4583	-5.0167	-4.0042	-4.625	-4.8562	258.482	224.948	299.449	160.945	121.889	247.853	312.237	317.852	93.940	360.105	248.297	313.856	209.025	315.516	124.279	59.089	0.00033758	0.00046136	3.2488e-05	1508.6	6.8323e-06	3.7587e-06	1598.3	523.14	4.4084e-06	2.8718e-06	563.24	173.36	157.11	48.008	3.0141e-06	63.965	5.0589e-05	4.1374e-05	1.1262e-05	1323.6	4.5233e-07	4.4666e-07	1393.3	455.03	4.6484e-07	4.4432e-07	477.92	148.2	132.26	40.823	4.5734e-07	53.128	194.053	68.650	69.646	31.244	170.025	129.792	30.655	34.443	189.903	139.947	33.263	37.353	38.430	42.166	91.997	41.186	-8191	255	
44522.281	1	1	0	0	0.287	0.14545	0.17472	0.27443	0.2537	0.19563	0.21608	0.10488	0.10779	0.23428	0.043097	0.19473	0.19033	0.38	0.10218	0.077095	-3.5792	-4.8479	-4.1	-4.3292	-4.8979	-3.9521	-4.7833	-4.8542	-3.8563	-4.8271	-4.4833	-4.3562	-4.9917	-3.9646	-4.3625	-4.7438	218.525	298.885	320.651	303.994	339.321	36.637	363.329	84.629	237.282	269.141	172.389	290.310	346.010	233.811	262.278	26.368	0.00032618	0.00050958	0.00016661	1505.9	3.2755e-06	5.1636e-06	1599.9	526.86	4.6777e-06	2.7284e-06	568.31	176.99	158.06	48.974	5.189e-06	64.822	5.0297e-05	3.9405e-05	1.1336e-05	1324.9	4.7985e-07	4.4847e-07	1401.2	457.39	4.8457e-07	4.4011e-07	483.27	150.35	133.58	41.47	4.4191e-07	54.187	200.688	74.786	69.560	31.282	189.909	154.198	30.307	34.703	166.785	143.818	32.979	37.427	38.482	42.582	130.807	41.298	-8191	255	
44522.402	1	1	0	0	0.026905	0.086913	0.21943	0.30572	0.24271	0.2464	0.41718	0.16568	0.16961	0.12851	0.14703	0.11093	0.35715	0.18867	0.081448	0.10664	-3.5271	-4.7729	-4.4042	-4.125	-4.925	-4.1604	-4.4667	-4.9062	-3.8271	-4.8896	-4.6146	-4.2042	-5.0208	-4.0979	-4.2125	-4.8146	370.434	74.869	105.865	38.263	303.259	180.242	313.566	323.120	246.696	309.130	340.888	298.301	38.958	71.819	36.916	299.490	0.0003485	0.00029688	9.1233e-05	1525.8	5.438e-06	5.2831e-06	1622.9	533.51	4.8467e-06	3.214e-06	578.75	178.19	159.47	49.815	4.284e-06	65.395	4.9697e-05	4.0736e-05	1.1641e-05	1341.8	4.6253e-07	4.3933e-07	1421.7	462.28	4.7331e-07	4.3721e-07	490.98	152.22	134.62	42.05	4.6126e-07	54.918	196.011	56.753	69.965	31.133	174.406	166.503	30.512	34.804	175.149	168.252	33.386	37.505	38.960	42.706	123.973	40.863	-8191	255	
44522.496	1	1	0	0	0.18279	0.15493	0.061542	0.33829	0.054141	0.090743	0.19763	0.094219	0.17549	0.049252	0.15183	0.11226	0.11758	0.25883	0.24796	0.12425	-3.4375	-4.7729	-4.4896	-3.9729	-4.8625	-4	-4.3583	-5.2188	-3.9646	-4.6125	-4.8667	-4.2354	-5.05	-4.175	-4.1833	-4.8479	61.626	224.761	39.246	302.141	305.377	233.195	305.728	315.102	234.651	24.438	278.738	298.814	366.553	19.031	226.382	250.065	0.00035269	0.00046482	0.00018501	1531	6.2253e-06	4.6601e-06	1615.2	525.56	5.0792e-06	3.5313e-06	571.66	175.12	155.18	48.604	4.217e-06	63.815	5.077e-05	4.0352e-05	1.1251e-05	1338.8	4.7203e-07	4.5758e-07	1414.7	456.96	4.7092e-07	4.4374e-07	482.88	149.29	131.33	41.004	4.5136e-07	53.332	192.098	89.369	62.155	31.319	145.839	126.590	30.279	34.763	186.196	110.585	33.151	37.385	38.792	42.628	122.333	41.185	-8191	255	
44522.594	1	1	0	0	0.087838	0.034139	0.12659	0.36522	0.096961	0.1158	0.40891	0.076582	0.14796	0.25688	0.15532	0.29407	0.10459	0.12912	0.074766	0.1236	-3.6521	-4.5146	-4.6708	-4.0292	-4.8667	-4.1458	-4.25	-5.1104	-3.7812	-4.5333	-4.7271	-4.0958	-4.9333	-4.3833	-3.9417	-4.975	209.856	342.060	184.761	322.750	236.208	131.172	300.508	325.647	188.170	155.376	139.292	38.486	218.113	24.848	252.139	162.954	0.00035235	0.00031079	0.00018103	1472.9	5.9054e-06	4.5362e-06	1551.3	508.49	4.732e-06	4.8775e-06	543.93	167.27	149.17	47.293	4.4316e-06	62.063	4.9721e-05	3.9218e-05	1.0432e-05	1291.7	4.5089e-07	4.215e-07	1355.3	440.59	4.5592e-07	4.211e-07	463	143.35	126.65	39.863	4.3943e-07	51.964	190.057	45.139	69.983	31.035	146.138	138.643	30.364	34.736	160.200	115.442	33.261	37.506	39.062	42.927	125.862	40.876	-8191	255	
44522.715	1	1	0	0	0.092056	0.043111	0.080309	0.18737	0.068129	0.10949	0.11837	0.072914	0.25032	0.10387	0.18114	0.21538	0.15789	0.024181	0.17038	0.066121	-3.7292	-4.3229	-4.7979	-4.0917	-4.75	-4.4313	-4.2958	-5.0833	-4.1125	-4.2708	-4.8417	-4.0667	-4.7396	-4.6229	-3.8438	-5.0312	371.617	37.910	163.081	359.595	295.683	199.331	306.691	297.869	225.176	128.650	351.563	102.724	336.196	250.744	158.294	44.473	0.00032521	0.00031549	0.00014684	1461.1	5.3855e-06	6.2876e-06	1544.1	505.36	3.8927e-06	2.7875e-06	549.63	169.39	152.04	47.724	4.017e-06	62.517	4.7965e-05	3.8343e-05	1.0697e-05	1281.4	4.49e-07	4.23e-07	1351.7	440.04	4.602e-07	4.2736e-07	467.35	144.99	128.3	40.192	4.4014e-07	52.485	200.019	95.888	109.497	31.106	141.675	164.247	30.387	34.808	145.636	167.961	33.238	37.277	38.663	42.804	128.579	41.018	-8191	255	
44522.809	1	1	0	0	0.047663	0.13177	0.26557	0.33257	0.1499	0.11731	0.14498	0.15265	0.13617	0.1925	0.095559	0.080826	0.21609	0.21143	0.10398	0.22126	-3.9542	-4.2604	-4.7208	-4.1354	-4.5729	-4.6042	-4.0188	-4.9938	-4.3187	-4.2	-4.9354	-4.1271	-4.5542	-4.6021	-4.0021	-4.9292	317.431	72.774	356.346	342.814	84.352	328.150	313.210	370.154	220.204	127.681	295.689	251.219	19.726	352.295	132.047	71.763	0.00031618	0.00019873	0.00019546	1488.2	5.4801e-06	4.5892e-06	1580.5	517.39	5.1341e-06	5.4186e-06	567.46	172.67	153.96	48.403	3.0729e-06	63.681	4.8222e-05	3.8943e-05	1.0841e-05	1304.2	4.3952e-07	4.2693e-07	1380.1	449.16	4.5214e-07	4.2177e-07	477.28	147.3	130.51	40.826	4.4313e-07	53.334	197.214	35.337	61.193	31.326	116.365	138.990	30.409	34.590	191.018	133.193	33.321	36.886	38.606	42.611	101.063	40.903	-8191	255	
44522.883	1	1	0	0	0.11748	0.10982	0.19644	0.086359	0.097441	0.043632	0.32246	0.16888	0.064233	0.26026	0.23818	0.22093	0.20511	0.11077	0.13018	0.06195	-3.9896	-3.9667	-4.7771	-4.2771	-4.3313	-4.7104	-4.1083	-5.0104	-4.3896	-4.1458	-4.9604	-3.9688	-4.5333	-4.8	-3.9979	-4.9604	312.419	279.986	184.718	349.395	60.009	248.892	324.193	279.304	131.724	371.895	30.554	96.096	309.146	75.567	197.076	39.706	0.00035402	0.0005404	8.4627e-05	1500.9	6.4908e-06	3.9451e-06	1600.9	522.56	3.202e-06	4.9542e-06	570.78	174.91	156.86	48.963	3.2606e-06	65.53	4.8727e-05	3.9516e-05	1.1433e-05	1322.2	4.6446e-07	4.3583e-07	1403.3	455.22	4.5425e-07	4.2264e-07	484.32	149.83	132.5	41.322	4.4878e-07	54.416	195.844	60.727	367.990	31.251	118.001	134.825	30.624	34.360	167.116	105.329	33.093	37.387	38.038	42.582	128.241	41.430	-8191	255	
44523.004	1	1	0	0	0.056296	0.095515	0.054859	0.084393	0.19739	0.069705	0.10626	0.22804	0.23649	0.30864	0.17907	0.19791	0.2163	0.10611	0.13875	0.22427	-4.2208	-3.9229	-4.8729	-4.15	-4.2479	-4.8917	-3.9729	-4.8604	-4.5104	-3.7521	-4.8063	-4.2833	-4.2042	-4.9729	-3.9521	-4.5583	130.694	66.772	234.374	362.407	173.046	318.258	329.040	311.226	173.160	315.521	343.907	304.188	88.911	369.633	25.584	341.557	0.00035617	0.00031287	0.00013745	1523.7	6.4386e-06	6.6405e-06	1613.7	523.48	4.6189e-06	3.5322e-06	573.02	174.08	155.05	48.617	2.2147e-06	64.756	4.971e-05	4.1104e-05	1.0976e-05	1333.2	4.6e-07	4.4321e-07	1413.7	455.12	4.5413e-07	4.3883e-07	484.23	149.17	130.78	41.076	4.3781e-07	53.867	192.585	91.183	72.607	31.271	157.749	175.566	30.538	34.436	166.837	117.351	33.317	37.324	38.507	42.891	147.973	41.222	-8191	255	
44523.098	1	1	0	0	0.085376	0.1363	0.031342	0.31188	0.30843	0.1806	0.19877	0.09433	0.19957	0.034983	0.20346	0.04021	0.34179	0.1599	0.095579	0.23271	-4.3313	-4.1208	-4.8812	-4.425	-4.0687	-4.7208	-4.1646	-4.6375	-4.6937	-4.0708	-4.9021	-4.4229	-4.2229	-4.975	-4.0583	-4.6104	233.149	299.543	186.920	356.058	289.072	294.842	288.581	252.753	76.874	126.722	272.943	322.046	285.499	29.687	305.085	322.910	0.00037366	0.00044199	0.00011523	1484.8	7.0901e-06	5.1642e-06	1565.5	510.96	4.9438e-06	3.9093e-06	556.36	170.88	151.73	47.692	3.7391e-06	64.037	4.9193e-05	4.083e-05	1.0872e-05	1301.1	4.6429e-07	4.3197e-07	1373.8	444.04	4.5218e-07	4.3152e-07	471.36	146.13	127.94	40.339	4.5688e-07	53.317	188.786	67.480	47.663	31.280	145.274	135.184	30.657	34.744	177.145	137.818	33.164	37.424	38.463	42.750	121.239	40.671	-8191	255	
44523.195	1	1	0	0	0.13006	0.15928	0.21414	0.14996	0.15338	0.21329	0.2604	0.25869	0.25701	0.20384	0.13632	0.17552	0.10178	0.15813	0.095942	0.087737	-4.3083	-3.8063	-4.7979	-4.475	-4.0917	-4.9271	-4.2	-4.2937	-4.9437	-3.7667	-4.9875	-4.6875	-4.0458	-4.975	-4.1438	-4.4812	73.582	318.143	311.033	344.086	187.744	178.240	263.568	319.409	195.966	320.061	325.267	370.644	304.369	224.633	318.188	247.160	0.00031387	0.00046137	0.00010526	1468.3	2.9496e-06	3.6224e-06	1561.9	506.12	3.9521e-06	4.0458e-06	559.94	171.18	152.41	48.083	4.7586e-06	64.826	4.657e-05	3.885e-05	1.1033e-05	1287.2	4.3963e-07	4.3169e-07	1370.4	440.74	4.4419e-07	4.283e-07	473.54	146.62	128.28	40.644	4.4254e-07	54.082	195.217	58.577	49.137	31.659	182.616	150.202	30.565	34.576	213.845	136.050	33.291	37.990	38.506	42.748	135.380	41.194	-8191	255	
44523.312	1	1	0	0	0.18024	0.26791	0.25679	0.21096	0.11697	0.23049	0.12205	0.17071	0.085787	0.03765	0.20874	0.22654	0.20857	0.17638	0.15147	0.095786	-4.5437	-3.9437	-4.6458	-4.8104	-4.0333	-4.8208	-4.3354	-4.35	-4.8438	-3.9958	-4.7271	-4.7271	-4.0771	-4.8812	-4.1542	-4.325	255.251	104.644	233.284	300.137	132.615	261.401	318.202	307.512	247.140	121.128	263.827	252.324	352.671	357.444	227.983	329.234	0.0003115	0.00065512	0.0001631	1462.3	6.1487e-06	6.0063e-06	1569.6	507.42	4.5102e-06	4.7894e-06	561.61	173.49	151.66	48.411	2.3485e-06	65.618	4.8572e-05	3.8577e-05	1.0894e-05	1287.8	4.4544e-07	4.1562e-07	1377.7	441.38	4.3888e-07	4.3193e-07	474.84	148.2	128	41.018	4.3555e-07	54.762	190.514	75.580	82.582	31.261	148.802	142.698	30.689	34.517	205.309	102.129	32.951	37.726	38.537	42.936	155.885	41.341	-8191	255	
44523.410	1	1	0	0	0.14294	0.12146	0.11963	0.17254	0.10412	0.21202	0.17328	0.2467	0.072222	0.22795	0.30582	0.20435	0.086837	0.21717	0.034317	0.17055	-4.6021	-3.9646	-4.3812	-4.9583	-3.9542	-4.9375	-4.5333	-4.2833	-4.9125	-4.1167	-4.5583	-4.825	-4.0917	-4.7979	-4.4479	-4.0229	337.142	301.691	145.703	303.765	152.113	251.954	301.105	261.756	280.653	79.172	338.173	364.731	325.250	361.120	169.096	310.900	0.00036744	0.00058323	0.00018611	1468.5	5.4366e-06	5.2449e-06	1589.8	511.05	3.4946e-06	3.5868e-06	569.6	174.91	152.86	48.781	5.0959e-06	66.394	4.7764e-05	4.0004e-05	1.0811e-05	1291.5	4.5075e-07	4.3165e-07	1391	443.36	4.4355e-07	4.2764e-07	480.75	149.46	128.92	41.293	4.4297e-07	55.522	197.258	81.711	68.848	31.364	131.834	136.773	30.729	34.571	137.475	118.733	33.170	37.622	38.325	42.824	132.676	41.057	-8191	255	
44523.508	1	1	0	0	0.092001	0.12183	0.31082	0.17377	0.17745	0.12044	0.21762	0.050015	0.11601	0.36583	0.20072	0.15916	0.1748	0.17433	0.14497	0.14314	-4.6542	-3.9833	-4.3187	-4.8479	-3.9437	-4.7271	-4.6854	-4.2354	-4.775	-4.2063	-4.375	-4.925	-4.0229	-4.7604	-4.5854	-4.1271	172.893	318.803	195.741	333.373	156.409	176.440	329.069	313.252	204.487	106.370	308.911	48.750	344.679	368.665	337.711	353.476	0.00038443	0.00035243	0.00014453	1489.5	6.0702e-06	4.4973e-06	1609	515.04	4.6432e-06	3.4366e-06	570.57	176.08	153.29	49.089	3.7708e-06	66.978	4.7334e-05	3.8175e-05	1.0954e-05	1305.1	4.5295e-07	4.2229e-07	1406.1	447.56	4.5309e-07	4.3741e-07	484.54	150.4	129.46	41.504	4.4053e-07	55.688	195.814	76.848	66.388	31.485	139.458	139.996	30.602	34.748	190.736	139.890	33.064	37.235	38.975	42.805	111.599	41.338	-8191	255	
44523.578	1	1	0	0	0.17406	0.13261	0.044828	0.18313	0.10484	0.084899	0.14774	0.022291	0.22236	0.085575	0.336	0.10888	0.16921	0.16571	0.084382	0.15468	-4.5667	-4.3646	-4.1083	-5.0604	-3.7583	-4.5917	-4.8104	-3.9958	-4.8125	-4.1708	-4.2833	-4.9271	-4.1583	-4.6708	-4.6375	-4.125	155.071	265.964	290.857	365.792	169.707	72.961	332.404	56.444	131.832	306.575	230.031	21.579	356.265	294.210	67.645	189.702	0.00032906	0.0002038	0.0001573	1481.5	5.0316e-06	3.8251e-06	1591.3	508.67	5.365e-06	4.6415e-06	563.88	174.19	150.63	48.566	4.394e-06	65.512	4.8108e-05	4.0162e-05	1.11e-05	1297.6	4.3424e-07	4.1522e-07	1392.8	442.69	4.453e-07	4.3049e-07	477.82	148.47	128.05	41.03	4.4095e-07	54.938	194.805	49.481	63.087	31.509	152.305	158.522	30.726	34.386	147.923	128.128	32.830	37.791	38.619	42.969	158.222	41.266	-8191	255	
44523.699	1	1	0	0	0.16253	0.090831	0.16815	0.23837	0.085995	0.19675	0.31528	0.17077	0.13472	0.23162	0.3112	0.057809	0.17866	0.13531	0.12055	0.13728	-4.5062	-4.3542	-4.1021	-5.05	-4.1875	-4.4458	-4.9771	-4.1562	-4.7292	-4.4208	-4.1792	-4.9437	-4.3083	-4.6146	-4.725	-4.0958	281.435	208.964	83.871	353.886	114.989	259.615	326.478	286.625	30.712	106.459	358.314	73.184	331.816	76.122	299.571	26.841	0.00035545	0.00028568	0.00014894	1466.4	3.6477e-06	4.4457e-06	1575.4	509.78	4.7043e-06	1.0108e-06	561.58	173.69	151.63	48.745	5.1499e-06	65.9	4.8218e-05	3.9085e-05	1.0666e-05	1288	4.557e-07	4.1733e-07	1379.6	441.75	4.4689e-07	4.2911e-07	476.13	148.44	128.24	41.163	4.4062e-07	55.028	200.424	89.969	37.477	31.164	122.873	154.999	30.686	34.629	173.722	20.811	33.180	37.597	38.709	42.860	126.774	41.182	-8191	255	
44523.793	1	1	0	0	0.11982	0.36787	0.14291	0.0066442	0.15052	0.045271	0.12276	0.23387	0.1496	0.12333	0.15319	0.097104	0.30197	0.1542	0.040127	0.04396	-4.4104	-4.2729	-3.9708	-5.1667	-4.0979	-4.4125	-5.0271	-4.05	-4.6479	-4.5646	-4.2083	-4.9667	-4.1125	-4.2729	-4.9271	-4.0646	291.600	125.302	177.632	242.483	213.856	147.034	338.545	302.146	52.578	165.022	283.256	351.239	107.596	68.263	190.373	17.361	0.00036721	0.00024438	0.00026331	1476.1	6.5559e-06	3.6765e-06	1593.5	507.8	5.2604e-06	5.0088e-06	562.06	175.04	151.93	48.681	4.5126e-06	65.751	4.7402e-05	4.0606e-05	1.1321e-05	1294	4.5389e-07	4.2755e-07	1389.2	442.77	4.4124e-07	4.3208e-07	477.55	148.91	128.41	41.144	4.3429e-07	55.021	197.045	64.874	72.313	31.305	149.576	153.976	30.633	34.682	167.810	154.251	33.196	37.297	38.951	42.806	148.633	41.127	-8191	255	
44523.891	1	1	0	0	0.21756	0.064212	0.076161	0.092544	0.10092	0.21376	0.45552	0.096524	0.1595	0.10329	0.24664	0.052766	0.16228	0.21362	0.11613	0.15668	-4.3146	-4.6625	-3.9896	-4.9458	-4.2375	-4.3479	-5.0792	-4.1708	-4.5417	-4.6875	-4.1229	-4.9688	-4.4688	-4.2396	-4.9313	-4.0938	315.969	58.780	303.977	316.702	188.409	59.818	327.604	16.991	332.762	110.127	296.561	264.930	88.147	370.523	344.426	233.930	0.00035359	0.00031392	9.4567e-05	1477.2	5.5107e-06	2.9671e-06	1591.9	511.8	5.9295e-06	3.3793e-06	569.5	175.45	152.69	49.049	2.9358e-06	66.497	4.7924e-05	3.8405e-05	1.1155e-05	1297.8	4.3824e-07	4.2546e-07	1395.9	445.06	4.5193e-07	4.2822e-07	482.29	149.76	128.81	41.261	4.3071e-07	55.663	191.334	63.635	74.578	31.365	137.519	153.029	30.814	34.783	174.525	95.717	33.459	37.435	38.765	42.819	124.262	41.320	-8191	255	
44523.988	1	1	0	0	0.097942	0.22156	0.12716	0.29792	0.04674	0.040773	0.18033	0.19745	0.26249	0.15763	0.064748	0.23177	0.15809	0.058099	0.1383	0.21058	-4.0563	-4.5854	-3.9688	-4.9062	-4.4083	-3.9917	-4.9938	-4.2396	-4.2	-4.7729	-3.8271	-4.7271	-4.6	-3.875	-4.8333	-4.1625	207.072	110.347	375.252	327.187	325.455	271.795	25.564	347.913	63.233	230.033	197.532	281.176	45.324	114.304	190.078	46.467	0.0003665	0.00041163	0.0001946	1477	4.6799e-06	2.0547e-06	1590.4	506.8	4.3807e-06	4.6648e-06	567.6	174.96	150.34	48.777	4.3279e-06	67.022	4.7983e-05	3.8213e-05	1.0815e-05	1293.7	4.3741e-07	4.2465e-07	1394.6	440.22	4.4091e-07	4.1336e-07	479.74	149.33	127.27	41.248	4.2598e-07	55.698	186.849	90.662	58.141	31.379	130.507	154.014	30.734	34.636	197.551	99.329	33.492	38.029	38.951	42.947	127.848	41.420	-8191	255	
44524.105	1	1	0	0	0.21953	0.13567	0.054175	0.1968	0.092063	0.14138	0.24939	0.19835	0.1976	0.1466	0.34359	0.18758	0.14048	0.12405	0.12983	0.18283	-3.8708	-4.7708	-3.8792	-4.8917	-4.4875	-4.1417	-5.0271	-4.2625	-4.2625	-4.8354	-4.1083	-4.7479	-4.7896	-4.1167	-4.95	-4.4104	130.101	174.113	361.864	25.970	85.982	320.408	319.360	241.110	133.229	345.260	350.765	297.189	262.069	306.163	232.436	280.138	0.00033899	0.00027609	0.00016816	1492	4.3927e-06	4.6199e-06	1605.5	511.53	3.1615e-06	5.8829e-06	565.14	173.97	151.61	48.543	3.9116e-06	65.384	4.851e-05	3.9437e-05	1.1112e-05	1304.4	4.4738e-07	4.2926e-07	1403.1	444.34	4.3417e-07	4.2681e-07	479.29	148.83	128.26	41.02	4.2967e-07	54.453	195.417	75.297	67.210	31.363	143.639	143.541	30.792	34.790	182.944	123.231	33.364	37.275	38.531	42.856	119.790	41.233	-8191	255	
44524.176	1	1	0	0	0.07284	0.22253	0.1946	0.3099	0.20628	0.17091	0.12586	0.14101	0.24501	0.18866	0.36698	0.23415	0.24252	0.30031	0.081865	0.085073	-3.9583	-4.875	-3.8729	-4.6542	-4.7833	-3.9854	-5.2188	-4.5458	-4.1271	-5.025	-4.1188	-4.5833	-4.8271	-3.9979	-4.9021	-4.5312	143.318	366.109	180.114	374.625	217.597	122.164	232.999	226.957	68.357	241.159	326.302	334.042	93.170	341.711	37.713	316.014	0.00029643	0.00045019	0.00019776	1474.7	3.4312e-06	4.0904e-06	1580.1	510.07	6.6039e-06	2.5836e-06	561.73	172.46	152.21	48.361	5.447e-06	64.41	4.7673e-05	4.0434e-05	1.0891e-05	1294.8	4.5562e-07	4.2666e-07	1383.9	443.71	4.5974e-07	4.2402e-07	475.12	147.4	128.8	40.794	4.4595e-07	53.998	193.951	86.995	62.981	31.358	115.525	160.386	30.537	34.637	171.310	136.456	33.169	37.701	38.853	42.932	146.775	41.494	-8191	255	
44524.273	1	1	0	0	0.17435	0.072544	0.052593	0.12529	0.18763	0.18394	0.19096	0.10682	0.23304	0.06007	0.018656	0.092739	0.079348	0.13949	0.29249	0.22924	-3.8667	-4.8542	-4.1625	-4.5417	-4.7688	-4.0792	-4.9688	-4.7875	-4.0146	-4.8167	-4.2458	-4.3063	-5.0938	-4.0563	-4.6354	-4.7292	348.814	357.503	72.097	47.917	158.265	374.613	305.574	286.592	128.248	42.724	255.716	367.611	315.161	135.014	43.420	357.628	0.00030442	0.0005214	0.00017178	1479.8	8.0537e-06	4.916e-06	1583.8	515.01	2.5777e-06	4.4476e-06	562.01	174.44	153.35	48.093	1.5115e-06	64.752	4.7787e-05	4.0317e-05	1.1147e-05	1299.6	4.492e-07	4.5049e-07	1386.3	447.03	4.6205e-07	4.3107e-07	478.1	148.74	129.7	40.943	4.4682e-07	54.482	196.924	70.013	76.171	31.117	150.020	133.418	30.534	34.713	192.872	154.655	32.986	37.209	38.785	42.508	196.618	41.304	-8191	255	
44524.395	1	1	0	0	0.072138	0.22701	0.1612	0.057932	0.28622	0.029253	0.133	0.078096	0.25536	0.013119	0.13434	0.31962	0.10961	0.11345	0.065267	0.19872	-3.7521	-4.9187	-4.1604	-4.3896	-4.9271	-3.8333	-4.7917	-4.8833	-4.0396	-4.8417	-4.3583	-4.1438	-5.0229	-4.0188	-4.4604	-4.75	319.979	203.993	346.174	23.929	286.160	342.524	361.798	20.574	18.845	97.837	311.369	361.889	296.584	23.747	198.138	306.545	0.00035942	0.00032327	0.00010099	1481.9	5.9653e-06	3.2264e-06	1588.4	513.02	5.5043e-06	4.0599e-06	567.7	175.26	153.7	48.647	2.7643e-06	66.257	4.9922e-05	3.9566e-05	1.1228e-05	1301	4.5732e-07	4.3745e-07	1392	446.14	4.8076e-07	4.4014e-07	480.97	149.5	129.71	41.281	4.461e-07	55.226	190.561	35.356	70.170	31.207	148.475	167.082	30.603	34.883	167.752	168.399	33.401	37.584	38.912	42.749	167.992	41.292	-8191	255	
44524.488	1	1	0	0	0.10279	0.1126	0.12701	0.2165	0.061089	0.2298	0.15794	0.43293	0.24827	0.25991	0.25767	0.1997	0.096567	0.040443	0.14921	0.17005	-3.7417	-4.825	-4.3792	-4.2875	-4.9354	-4.0396	-4.6062	-5.0188	-3.9625	-4.7646	-4.4646	-4.1854	-5.1417	-4.1229	-4.3396	-4.9521	125.610	81.908	57.942	329.260	375.605	215.923	254.650	308.651	69.013	30.497	280.874	344.751	330.816	316.456	135.378	288.661	0.00032393	0.00043167	0.00015963	1488.8	3.4063e-06	2.1985e-06	1607.3	517.48	4.9011e-06	5.1844e-06	573.28	177.21	154.25	49.199	6.4398e-06	66.681	4.7949e-05	3.8866e-05	1.1322e-05	1305.1	4.4972e-07	4.3873e-07	1402.9	448.87	4.6241e-07	4.3018e-07	486.14	150.7	130.56	41.632	4.6049e-07	55.675	202.520	52.160	62.734	31.254	146.184	130.434	30.470	34.760	166.801	156.644	33.312	37.528	38.834	42.852	132.985	41.334	-8191	255	
44524.586	1	1	0	0	0.077912	0.20376	0.053249	0.29624	0.073549	0.08126	0.22041	0.08378	0.058194	0.067251	0.074159	0.25053	0.091262	0.40516	0.18176	0.22378	-3.7062	-4.6708	-4.575	-4.2312	-4.8688	-4.1792	-4.3083	-5.1146	-3.9667	-4.5958	-4.6438	-4.0292	-4.9021	-4.4146	-4.2188	-4.9854	160.843	362.719	243.896	321.712	61.585	67.735	336.163	366.340	241.316	235.648	163.828	368.064	309.051	28.901	150.762	356.910	0.00029348	0.00063601	0.00020292	1497.2	4.0775e-06	2.1755e-06	1604	515.71	6.2481e-06	5.2264e-06	567.58	173.37	152.43	48.241	5.355e-06	65.545	4.9677e-05	4.0605e-05	1.1237e-05	1311.8	4.5412e-07	4.4117e-07	1402.2	448.07	4.6965e-07	4.2566e-07	480.38	148.53	128.89	40.995	4.3759e-07	54.605	192.042	24.888	67.918	31.342	159.019	159.309	30.549	34.806	180.085	105.095	33.319	37.183	38.571	42.766	154.585	41.370	-8191	255	
44524.684	1	1	0	0	0.25552	0.065395	0.10054	0.31006	0.18581	0.13123	0.35352	0.25417	0.21675	0.31629	0.12024	0.10049	0.13897	0.33274	0.23648	0.069856	-3.8375	-4.5583	-4.6604	-4.1438	-4.9354	-4.2729	-4.3688	-5.1312	-3.9604	-4.5667	-4.8938	-3.9646	-4.8729	-4.5708	-4.0229	-5.075	252.067	42.584	72.813	372.183	282.103	179.484	27.047	322.947	61.680	26.381	356.613	308.477	345.164	325.733	344.946	293.052	0.00030712	0.00041688	6.0425e-05	1469.2	2.9522e-06	3.4669e-06	1578.1	507.6	4.5302e-06	3.3468e-06	563.33	172.93	150.96	48.112	4.2614e-06	65.536	4.9465e-05	3.896e-05	1.0782e-05	1290.4	4.4746e-07	4.3865e-07	1379.1	442.21	4.6135e-07	4.4153e-07	476.37	147.82	128.43	40.858	4.4181e-07	54.595	201.105	101.416	88.434	31.314	174.145	134.173	30.352	34.724	192.214	122.657	33.212	37.550	38.805	42.870	111.818	41.212	-8191	255	
44524.777	1	1	0	0	0.074469	0.22852	0.18315	0.10237	0.095094	0.14213	0.37213	0.35019	0.13251	0.18575	0.28037	0.1846	0.4131	0.2815	0.18511	0.12355	-3.8271	-4.4375	-4.7188	-4.1104	-4.8667	-4.4354	-4.3	-5.175	-4.1188	-4.2667	-4.9042	-3.9083	-4.7271	-4.5417	-3.9667	-5.1979	76.438	315.602	174.202	350.828	38.677	51.139	295.357	323.735	225.299	59.500	293.148	41.214	375.370	314.446	173.749	302.730	0.00036836	0.00044374	0.00011854	1488.2	3.4755e-06	3.9e-06	1592	513.46	3.3142e-06	4.0915e-06	565.42	174.74	153.7	48.59	4.9931e-06	66.304	5.0147e-05	4.0187e-05	1.1024e-05	1301.1	4.4866e-07	4.3346e-07	1390.3	446.59	4.5779e-07	4.5628e-07	480.45	149.51	129.87	41.21	4.4927e-07	55.21	200.119	71.459	23.330	31.211	146.389	135.023	30.434	34.580	192.398	100.445	33.284	37.370	38.684	42.353	149.714	40.963	-8191	255	
44524.875	1	1	0	0	0.24871	0.2488	0.056849	0.2288	0.17866	0.074232	0.39707	0.1729	0.048235	0.12486	0.22075	0.29116	0.16716	0.2469	0.13578	0.22323	-3.8979	-4.1146	-4.9021	-4.125	-4.6354	-4.6479	-4.125	-5.0333	-4.4437	-4.1729	-5.0583	-4.0437	-4.65	-4.7063	-3.8937	-4.7917	26.799	345.432	301.512	315.100	52.519	22.216	347.709	308.255	249.383	271.380	323.013	289.079	239.505	319.090	228.539	293.510	0.00035407	0.00021815	0.00019626	1483.9	4.6511e-06	6.1796e-06	1590.1	512.88	4.0527e-06	5.4758e-06	570.56	175.2	152.75	49.285	4.8432e-06	66.674	5.017e-05	3.9855e-05	1.1144e-05	1301.5	4.5497e-07	4.3595e-07	1396.1	446.6	4.6921e-07	4.4138e-07	482.19	149.8	129.51	41.531	4.4463e-07	55.859	191.610	91.575	49.259	31.368	145.625	171.846	30.490	34.675	146.262	88.872	33.243	37.209	38.488	42.949	109.409	41.294	-8191	255	
44524.996	1	1	0	0	0.050111	0.17838	0.12188	0.18086	0.18433	0.093144	0.20002	0.26786	0.23543	0.095065	0.042624	0.28296	0.24109	0.25155	0.10972	0.22594	-4	-4.2646	-4.7896	-4.1896	-4.3812	-4.5979	-4.025	-4.9979	-4.3438	-4.1188	-4.9625	-4.2	-4.3042	-4.9771	-3.7854	-4.7875	188.990	195.035	269.307	349.368	202.424	130.164	292.327	325.587	197.278	94.671	93.340	34.772	321.112	360.922	138.492	278.975	0.00032984	0.00022679	0.00020538	1495.4	5.1482e-06	3.9061e-06	1609.8	517.96	4.9258e-06	7.2253e-06	576.15	178.18	154.49	49.563	1.9424e-06	67.554	5.2044e-05	4.0405e-05	1.1002e-05	1306.8	4.592e-07	4.4134e-07	1408.4	449.13	4.6297e-07	4.5171e-07	487.94	152.25	130.83	42.09	4.6116e-07	56.445	187.062	82.600	89.297	31.249	133.461	131.128	30.569	34.865	162.519	128.870	33.038	37.643	38.604	43.034	119.095	41.235	-8191	255	
44525.094	1	1	0	0	0.045667	0.091389	0.30083	0.061146	0.18106	0.062389	0.15712	0.44384	0.11894	0.14991	0.21614	0.12295	0.39131	0.16917	0.090899	0.291	-4.0042	-3.9875	-4.75	-4.0917	-4.3875	-4.6833	-4.1333	-4.775	-4.4938	-4.0292	-5.0396	-4.1417	-4.25	-4.7771	-3.775	-4.775	345.983	204.929	79.786	30.982	50.857	116.543	283.416	285.408	375.195	323.885	301.559	314.476	353.885	362.565	351.248	309.211	0.00034143	0.00041854	0.00014705	1497.3	3.3072e-06	3.8721e-06	1606.9	515.5	7.3483e-06	4.994e-06	571.86	176.51	152.92	49.442	2.3954e-06	67.769	4.9205e-05	4.065e-05	1.1028e-05	1311	4.5326e-07	4.4592e-07	1408	447.64	4.7019e-07	4.4097e-07	484.72	151.19	129.65	41.92	4.5573e-07	56.213	196.858	75.440	57.838	31.382	168.752	146.450	30.583	34.928	174.409	132.825	33.348	37.584	38.881	43.135	117.956	41.210	-8191	255	
44525.188	1	1	0	0	0.18434	0.086282	0.12578	0.26691	0.13192	0.033628	0.35287	0.25277	0.14662	0.32957	0.039093	0.25172	0.18283	0.065484	0.16988	0.31973	-4.2562	-3.8354	-4.8979	-4.3792	-4.0125	-4.7625	-4.2417	-4.6438	-4.4313	-4.0021	-5.0208	-4.3688	-4.2729	-5.0083	-3.9479	-4.4187	262.466	231.246	27.371	335.033	211.101	59.478	265.184	276.098	104.873	29.381	236.461	342.945	33.565	218.160	204.159	296.410	0.00034401	0.00058946	0.00019502	1464.5	4.565e-06	3.3204e-06	1570.6	506.15	4.8181e-06	3.6824e-06	565.2	173.57	151.72	48.959	3.5185e-06	66.102	4.9247e-05	4.0345e-05	1.141e-05	1284.6	4.6487e-07	4.3515e-07	1377.1	440.17	4.6172e-07	4.3014e-07	476.26	148.37	128.49	41.399	4.6252e-07	55.183	192.188	70.288	54.119	31.408	140.889	200.478	30.643	34.581	160.333	137.922	33.195	37.258	38.974	42.793	157.929	41.518	-8191	255	
44525.281	1	1	0	0	0.091056	0.21212	0.17772	0.047736	0.23781	0.19004	0.31494	0.31709	0.12681	0.12877	0.14771	0.072753	0.47527	0.23654	0.084753	0.23889	-4.3771	-3.9979	-4.7729	-4.4521	-3.9958	-4.8187	-4.2542	-4.6	-4.6771	-3.9917	-4.9125	-4.575	-4.1729	-4.9979	-4.1	-4.4146	256.759	268.339	124.519	213.297	204.932	37.600	366.967	295.022	265.790	375.865	215.163	79.592	264.513	267.608	303.846	278.908	0.0003262	0.00052188	0.00020717	1465.9	1.7098e-06	4.6425e-06	1580.2	508.9	5.5966e-06	3.871e-06	564	174.21	151.81	49.053	2.3973e-06	65.946	4.8321e-05	4.0585e-05	1.1091e-05	1287.1	4.4966e-07	4.2042e-07	1379.3	441.5	4.583e-07	4.4845e-07	477.1	148.83	128.7	41.499	4.3872e-07	55.29	196.924	82.015	75.875	31.371	146.508	140.103	30.497	34.474	217.842	123.602	33.310	37.693	38.682	42.483	127.926	41.231	-8191	255	
44525.402	1	1	0	0	0.32133	0.1252	0.13073	0.38423	0.050887	0.0082183	0.1815	0.5191	0.21219	0.20285	0.0733	0.10062	0.29886	0.066452	0.1541	0.13124	-4.4396	-3.8563	-4.7271	-4.8688	-3.8771	-4.8375	-4.3375	-4.4563	-4.7458	-3.9604	-4.6479	-4.6083	-4.0792	-5.0146	-4.3292	-4.2417	362.196	329.972	184.458	348.142	302.389	30.855	325.342	296.254	314.325	154.887	321.711	58.858	297.535	157.546	106.707	46.359	0.00037174	0.00047578	0.00020215	1464.2	5.5611e-06	4.1315e-06	1577.9	507.84	8.8585e-06	2.957e-06	565.55	175.95	153.85	49.249	4.6112e-06	66.605	4.9136e-05	4.1268e-05	1.1213e-05	1285.1	4.6314e-07	4.3758e-07	1380.7	441.23	4.6399e-07	4.4822e-07	477.91	149.77	129.57	41.647	4.601e-07	55.643	192.565	96.995	78.520	31.349	144.605	160.414	30.572	34.597	181.372	134.282	33.251	37.383	38.585	42.717	139.967	41.273	-8191	255	
44525.473	1	1	0	0	0.3699	0.14571	0.3261	0.072368	0.058084	0.15927	0.20794	0.10833	0.031892	0.14827	0.13724	0.13311	0.13326	0.079086	0.011685	0.17476	-4.6792	-3.9604	-4.4958	-4.65	-3.8417	-4.8438	-4.4833	-4.2063	-4.9625	-4.1813	-4.6542	-4.7333	-3.9125	-4.8667	-4.2854	-4.2417	191.978	152.076	182.208	67.606	188.562	221.114	341.375	281.449	228.771	141.608	249.855	317.821	134.371	260.391	332.983	286.583	0.00037128	0.00050247	5.9255e-05	1470.7	6.2434e-06	1.8903e-06	1585	508.99	4.6368e-06	6.6707e-06	567.79	174.3	150.52	49.136	5.6224e-06	66.773	4.9721e-05	4.0804e-05	1.1414e-05	1292.1	4.6254e-07	4.2499e-07	1386.5	442.79	4.5352e-07	4.3417e-07	479.08	149.24	127.81	41.533	4.3487e-07	56.046	197.105	71.913	23.402	31.451	140.802	56.552	30.799	34.516	170.359	144.684	33.526	37.399	38.789	43.306	140.110	41.722	-8191	255	
44525.570	1	1	0	0	0.12662	0.19276	0.112	0.07811	0.020105	0.090032	0.28294	0.27685	0.19258	0.15587	0.43465	0.14397	0.11991	0.055298	0.10051	0.15205	-4.5208	-3.9938	-4.3021	-4.9	-3.7604	-4.7875	-4.7083	-3.95	-4.8438	-4.0042	-4.2958	-4.8688	-3.9375	-4.7833	-4.5104	-4.275	348.230	191.420	188.436	46.788	135.993	273.368	309.390	310.214	147.933	73.343	344.829	310.323	311.409	373.716	365.793	304.639	0.0003525	0.00051168	0.00014747	1447.4	3.8919e-06	4.1799e-06	1568.3	499.57	6.3699e-06	4.3283e-06	559.7	172.52	150.76	48.779	3.1073e-06	66.406	4.8749e-05	4.0158e-05	1.1158e-05	1266.5	4.5705e-07	4.2091e-07	1371.5	434.2	4.626e-07	4.3733e-07	474.32	148.15	127.22	41.27	4.389e-07	55.423	181.367	69.119	95.113	31.746	148.018	162.371	30.657	34.564	189.244	165.265	33.312	37.798	38.977	43.055	112.108	41.767	-8191	255	
44525.668	1	1	0	0	0.17773	0.26675	0.25299	0.179	0.10539	0.24012	0.13866	0.15283	0.32486	0.1428	0.11769	0.24007	0.29052	0.24644	0.18828	0.060279	-4.5	-4.2542	-4.0833	-4.9021	-4.0167	-4.6062	-4.7479	-4.0833	-4.7917	-4.3208	-4.2646	-4.9771	-4.1521	-4.5271	-4.6438	-3.9604	321.194	242.889	351.768	36.605	111.730	304.447	341.599	319.722	104.976	347.968	60.815	355.673	340.104	20.544	43.470	354.489	0.00035582	0.0003245	0.00015418	1450.5	4.0253e-06	7.3957e-07	1550.8	498.14	3.8591e-06	4.2128e-06	549.49	172.66	149.39	48.055	4.6318e-06	65.018	4.9375e-05	3.9211e-05	1.1195e-05	1273.1	4.6014e-07	4.2927e-07	1359.2	433.04	4.5533e-07	4.3325e-07	467.43	146.5	126.2	40.741	4.5068e-07	54.626	194.223	31.987	57.099	31.389	161.171	144.486	30.817	34.514	160.470	124.713	33.273	37.705	38.662	42.584	114.699	41.171	-8191	255	
44525.785	1	1	0	0	0.12407	0.10008	0.20702	0.11276	0.042764	0.12954	0.17069	0.24174	0.20959	0.13181	0.33368	0.10617	0.064385	0.10445	0.27733	0.048261	-4.5604	-4.2542	-4.0375	-5.0208	-3.8333	-4.3375	-4.8917	-4.0646	-4.5479	-4.3938	-4.1438	-5.0104	-4.0833	-4.4292	-4.8625	-3.9479	248.236	345.578	108.265	314.243	252.951	248.771	350.779	27.124	303.307	275.106	341.422	251.174	109.012	135.563	116.252	153.612	0.00037342	0.00038194	0.00011897	1438.3	3.2804e-06	3.5036e-06	1549.9	494.76	5.2572e-06	3.9622e-06	552.64	172.65	149.28	48.293	4.5723e-06	66.081	4.8335e-05	3.9746e-05	1.1105e-05	1261.9	4.5653e-07	4.3021e-07	1355.5	430.96	4.5282e-07	4.3339e-07	468.62	146.98	126.52	40.949	4.4373e-07	55.162	194.017	53.636	75.276	31.342	152.886	165.403	30.892	34.428	155.838	111.933	33.165	37.650	38.918	43.009	126.917	41.150	-8191	255	
44525.883	1	1	0	0	0.33918	0.051503	0.11078	0.23645	0.21654	0.15578	0.2631	0.33336	0.010828	0.29478	0.064679	0.18537	0.22181	0.1567	0.18732	0.036438	-4.3833	-4.4479	-3.8917	-5.125	-4.1375	-4.225	-4.9521	-4.1813	-4.5854	-4.4396	-4.0062	-5.0333	-4.35	-4.3979	-4.8458	-4.15	130.794	155.021	88.003	363.591	268.721	301.975	306.815	363.141	52.417	353.658	339.877	375.186	361.289	249.466	88.072	373.340	0.00031749	0.00029716	0.0001541	1440.5	4.9509e-06	3.4184e-06	1559.4	498.02	2.5132e-06	5.359e-06	560.37	173.23	149.92	48.497	4.6497e-06	66.171	4.7811e-05	4.0213e-05	1.0896e-05	1266.3	4.5956e-07	4.4143e-07	1365	432.65	4.584e-07	4.3177e-07	473.26	147.84	126.67	41.185	4.3521e-07	55.662	189.488	63.608	54.593	31.523	151.153	140.311	30.862	34.672	167.544	134.203	33.151	37.678	38.970	42.830	156.517	41.220	-8191	255	
44525.977	1	1	0	0	0.26411	0.080751	0.046639	0.39228	0.10716	0.14977	0.42373	0.12209	0.13113	0.045409	0.24361	0.22495	0.16727	0.15444	0.11845	0.10876	-4.2667	-4.6146	-3.9021	-5.0417	-4.1333	-4.0896	-5	-4.1521	-4.55	-4.5062	-4.0167	-4.7729	-4.4062	-4.0813	-4.9125	-4.2104	372.738	301.180	328.639	330.373	43.704	335.493	294.475	369.556	82.753	359.917	299.817	344.802	341.413	52.728	175.311	314.712	0.00035065	0.00055119	0.00017668	1455.2	5.9456e-06	4.1467e-06	1577.5	504.45	4.2248e-06	3.5246e-06	562.08	174.99	150.89	48.807	4.776e-06	67.016	4.9745e-05	3.998e-05	1.1547e-05	1275.1	4.6219e-07	4.349e-07	1379.6	437.14	4.7433e-07	4.2944e-07	476.23	149.04	127.53	41.394	4.5172e-07	56.188	196.745	57.526	74.064	31.527	168.372	105.092	30.648	35.024	168.695	126.242	33.315	37.181	39.013	42.773	114.674	41.078	-8191	255	
44526.074	1	1	0	0	0.24638	0.41866	0.20186	0.32554	0.12546	0.12436	0.15452	0.11915	0.1791	0.17171	0.18322	0.011895	0.11808	0.066367	0.063502	0.078762	-4.1687	-4.6271	-3.9104	-4.8833	-4.3187	-4.0208	-5.0938	-4.2604	-4.3604	-4.6833	-4.0146	-4.8208	-4.5667	-4.0375	-4.8146	-4.2021	144.073	305.126	327.567	301.601	77.229	319.271	325.116	360.937	171.316	62.798	346.322	197.895	52.183	262.055	93.750	324.694	0.00035975	0.00029823	0.00015422	1451.7	3.8969e-06	4.4031e-06	1583.8	502.51	5.6886e-06	4.0691e-06	563.65	174.64	151.01	48.938	4.6953e-06	66.736	4.9129e-05	4.0275e-05	1.1229e-05	1276.4	4.5604e-07	4.3727e-07	1385	437.65	4.6021e-07	4.3411e-07	478.04	149.29	128.02	41.42	4.5765e-07	55.931	196.909	74.437	82.690	31.185	135.514	163.134	30.888	34.928	183.412	100.180	33.151	37.804	39.090	42.589	114.532	41.435	-8191	255	
44526.172	1	1	0	0	0.21448	0.26177	0.097086	0.19944	0.0033737	0.1297	0.37852	0.33346	0.16896	0.077718	0.22909	0.36769	0.064903	0.09833	0.16616	0.20573	-4.0938	-4.8771	-3.9646	-4.8	-4.6167	-3.9958	-5.1438	-4.2438	-4.0958	-4.8625	-4.1396	-4.6958	-4.5833	-3.9313	-4.9313	-4.3771	233.762	298.205	199.352	325.954	22.313	343.420	337.815	323.410	260.144	194.696	324.681	364.700	209.216	135.803	73.460	300.968	0.00035996	0.00049614	4.6352e-05	1462.1	4.2418e-06	5.3893e-06	1565.7	503.87	6.4664e-06	5.1182e-06	555.01	172.57	149.44	48.114	4.2898e-06	64.867	4.897e-05	3.9927e-05	1.1378e-05	1281	4.588e-07	4.3724e-07	1374.1	437.65	4.5595e-07	4.2391e-07	471.83	147.39	126.83	40.723	4.402e-07	54.407	201.401	99.447	111.773	31.334	150.587	138.340	30.892	34.775	188.628	119.660	33.348	37.641	38.766	42.398	153.207	41.469	-8191	255	
44526.266	1	1	0	0	0.099746	0.043226	0.14661	0.31917	0.079721	0.066081	0.30929	0.29212	0.069274	0.087892	0.28103	0.25531	0.099973	0.10234	0.080771	0.083868	-3.875	-4.6937	-3.8063	-4.5188	-4.5542	-3.7146	-5.1229	-4.4979	-4.1042	-4.9792	-4.075	-4.5854	-4.9938	-3.9417	-4.8667	-4.3313	52.044	179.915	78.154	322.026	79.643	311.287	311.613	323.956	183.240	269.385	294.655	335.642	316.537	73.640	306.413	30.092	0.0003427	0.00052498	0.00013934	1438.8	2.3505e-06	5.0577e-06	1541.7	496.48	3.1064e-06	4.5465e-06	551.19	170.62	148.53	48.14	4.6321e-06	64.903	4.9599e-05	3.9564e-05	1.1189e-05	1260.3	4.5099e-07	4.4926e-07	1351.8	430.39	4.4592e-07	4.4484e-07	465.82	145.74	125.69	40.532	4.4542e-07	54.297	198.695	84.765	74.023	31.315	114.244	131.493	30.978	34.666	118.049	108.827	33.318	37.546	38.800	43.033	115.818	41.506	-8191	255	
44526.363	1	1	0	0	0.1466	0.15148	0.33325	0.081268	0.04368	0.11743	0.31637	0.27396	0.11249	0.10576	0.041197	0.069728	0.016864	0.027572	0.2302	0.12162	-3.8375	-4.875	-3.9479	-4.5333	-4.7417	-3.8667	-4.9021	-4.5604	-4	-4.7604	-4.2583	-4.4042	-4.7729	-3.9208	-4.6542	-4.5521	106.664	195.289	276.755	281.127	146.613	122.466	291.851	301.638	223.395	276.514	66.714	66.405	64.010	91.118	59.443	84.827	0.00035226	0.00031065	0.00018165	1442.1	4.2714e-06	2.9783e-06	1551.7	496.27	4.6879e-06	3.6063e-06	552.49	171.49	148.43	47.8	6.927e-06	65.358	4.9692e-05	3.8701e-05	1.1438e-05	1261.1	4.4988e-07	4.4378e-07	1355.9	431.28	4.6493e-07	4.2356e-07	466.37	146.29	125.96	40.56	4.4546e-07	54.735	196.938	86.992	99.207	31.174	159.726	167.964	30.722	34.719	174.497	129.130	33.176	37.312	38.791	42.731	127.422	41.334	-8191	255	
44526.484	1	1	0	0	0.13771	0.04321	0.2107	0.12546	0.086481	0.10052	0.29646	0.17034	0.11859	0.2655	0.17677	0.28645	0.10635	0.21519	0.29517	0.13783	-3.7417	-4.7396	-3.9917	-4.2562	-4.8104	-3.8583	-4.8146	-4.7396	-4.0188	-4.9104	-4.2646	-4.2542	-4.9875	-4.0563	-4.5375	-4.7542	249.577	191.678	168.337	296.866	321.123	142.015	270.298	276.903	348.932	309.291	341.213	278.878	334.268	208.199	34.822	115.620	0.00037914	0.00021448	0.00016027	1439.6	4.3513e-06	3.8154e-06	1552.7	496.78	4.3147e-06	5.4658e-06	551.67	170.2	148.46	48.157	5.2088e-06	66.293	5.0093e-05	4.1039e-05	1.1138e-05	1259.5	4.6158e-07	4.4625e-07	1355.8	430.84	4.5833e-07	4.2299e-07	469.11	146.34	125.9	40.912	4.4591e-07	55.363	191.536	103.707	98.338	31.235	160.632	165.293	30.504	34.955	172.559	146.513	33.453	37.568	38.994	42.547	124.837	41.267	-8191	255	
44526.578	1	1	0	0	0.28971	0.12671	0.19176	0.50712	0.03957	0.26548	0.32181	0.24082	0.15814	0.1181	0.18543	0.14612	0.16879	0.11412	0.058521	0.10433	-3.6333	-4.7104	-4.3271	-4.175	-4.7458	-3.9688	-4.4354	-4.9104	-3.9396	-4.8458	-4.4125	-4.0375	-4.9271	-4.1354	-4.3146	-4.8458	86.995	309.687	74.335	332.367	243.742	368.801	280.367	330.996	103.621	348.764	368.998	63.027	339.548	165.729	171.725	268.111	0.00031966	0.00040742	0.00014452	1432.2	4.8779e-06	3.748e-06	1547.1	495.05	4.9638e-06	6.4251e-06	554.68	171.39	149.45	48.374	3.4592e-06	65.826	5.1006e-05	4.0158e-05	1.1624e-05	1258.8	4.6672e-07	4.5071e-07	1359.9	431.63	4.5481e-07	4.4319e-07	469.1	146.82	126.06	40.832	4.4899e-07	55.021	197.625	81.218	96.735	31.293	154.218	124.385	30.753	34.853	210.964	132.262	33.478	38.019	38.705	42.875	151.497	41.570	-8191	255	
44526.676	1	1	0	0	0.16497	0.18263	0.25339	0.26289	0.13294	0.03987	0.11064	0.25372	0.062043	0.055592	0.097812	0.17997	0.16546	0.10146	0.15594	0.068236	-3.5771	-4.8958	-4.5375	-4.1229	-4.7292	-4.1083	-4.425	-4.9896	-3.7771	-4.6979	-4.6188	-4.1042	-4.8021	-4.275	-4.1583	-4.7937	362.234	155.927	138.469	306.890	113.022	311.520	315.035	280.870	367.992	272.409	225.832	337.326	251.051	278.560	145.629	281.094	0.00034497	0.0003054	4.8025e-05	1421.8	4.7689e-06	6.7354e-06	1523	485.28	4.1051e-06	3.8764e-06	538.09	167.32	145.49	47.101	3.5383e-06	63.745	4.8246e-05	4.0518e-05	1.101e-05	1245.5	4.4923e-07	4.3982e-07	1329.9	422.28	4.5767e-07	4.185e-07	455.11	143.11	122.97	39.794	4.3424e-07	53.437	193.235	107.357	273.332	31.198	143.756	152.818	30.681	34.825	189.581	135.574	32.983	37.977	38.805	43.037	138.029	41.498	-8191	255	
44526.773	1	1	0	0	0.10966	0.13798	0.1888	0.22358	0.060349	0.087257	0.1738	0.14558	0.022001	0.23945	0.14833	0.11145	0.1202	0.309	0.041352	0.21447	-3.575	-4.6312	-4.5521	-4.0354	-4.9479	-4.2771	-4.4208	-5.0729	-3.9354	-4.5417	-4.7792	-4.0646	-4.7646	-4.3375	-3.9833	-4.9375	112.042	157.280	339.127	38.015	239.143	234.895	368.043	320.818	340.670	225.170	267.997	104.005	363.510	279.085	85.190	318.159	0.00035188	0.00045763	8.4056e-05	1389.2	7.6289e-06	2.7549e-06	1486.3	480.07	5.7399e-06	4.3179e-06	533.36	166.25	143.84	46.571	6.6536e-06	64.331	4.8903e-05	3.8495e-05	1.0746e-05	1218	4.4188e-07	4.2773e-07	1301.8	415.8	4.4595e-07	4.3015e-07	449.94	141.53	121.93	39.561	4.2904e-07	53.497	187.877	61.728	87.701	31.453	163.849	137.492	30.299	34.586	169.677	138.015	33.429	37.599	38.934	43.047	128.046	41.203	-8191	255	
44526.867	1	1	0	0	0.11306	0.41826	0.1603	0.40955	0.19378	0.10857	0.033869	0.018657	0.1897	0.03587	0.064152	0.40719	0.24939	0.32352	0.17401	0.18922	-3.5375	-4.4208	-4.4771	-4.0354	-4.7937	-4.3646	-4.3063	-5.1042	-3.9417	-4.325	-4.8313	-4	-4.7479	-4.4979	-4.0271	-4.9729	299.665	122.893	56.294	335.067	341.450	374.293	353.197	241.403	260.100	368.515	53.120	370.138	85.865	25.050	136.366	339.236	0.00037829	0.00057411	0.00015468	1396.6	4.1226e-06	5.7505e-06	1500.3	482.36	5.4885e-06	5.8564e-06	539.54	167.33	145.31	47.034	5.3357e-06	64.563	4.8418e-05	3.9004e-05	1.0932e-05	1226.8	4.5004e-07	4.2984e-07	1318.8	420.88	4.4928e-07	4.2812e-07	455.79	142.89	123.2	39.955	4.4172e-07	53.943	198.133	78.814	80.035	31.189	180.305	146.084	30.831	35.000	136.665	130.694	33.540	37.382	38.879	42.994	136.870	41.351	-8191	255	
44526.965	1	1	0	0	0.13768	0.073668	0.10172	0.10775	0.22642	0.052734	0.24161	0.22749	0.21215	0.06005	0.25726	0.2215	0.081019	0.12202	0.25559	0.14666	-3.7708	-4.2875	-4.6979	-4.1396	-4.6875	-4.6479	-4.0542	-5.1	-4.2646	-4.2167	-4.7958	-3.9958	-4.5563	-4.6021	-3.875	-5.0563	101.396	265.193	253.625	372.553	146.728	350.910	335.939	313.281	353.444	340.872	309.090	370.950	187.050	333.324	43.413	218.193	0.00034801	0.00025937	0.00018673	1407.7	3.598e-06	4.6006e-06	1517	489.79	4.9907e-06	4.4324e-06	544.66	170.38	146.82	47.972	3.5239e-06	65.694	4.966e-05	3.9368e-05	1.0648e-05	1236.4	4.3861e-07	4.2975e-07	1334.8	424.73	4.4913e-07	4.3785e-07	461.62	144.83	124.35	40.481	4.4447e-07	54.649	196.443	44.828	53.036	31.176	143.307	175.159	30.901	34.644	181.781	143.179	33.392	37.423	38.858	43.061	121.580	41.041	-8191	255	
44527.059	1	1	0	0	0.098279	0.08656	0.39649	0.13601	0.063451	0.047742	0.34297	0.19798	0.3407	0.086646	0.088362	0.18358	0.2588	0.17524	0.15979	0.067223	-3.8917	-4.1354	-4.775	-4.2458	-4.5708	-4.7729	-4.1937	-4.9938	-4.2854	-4.1375	-4.9979	-4.1521	-4.6021	-4.8479	-3.8875	-4.8396	325.754	231.446	341.954	335.729	235.889	57.520	358.421	313.342	131.877	54.003	50.422	326.138	300.452	98.423	272.562	75.960	0.00033784	0.00023538	0.00021411	1424.5	5.6834e-06	6.1052e-06	1535.9	490.6	5.8541e-06	5.577e-06	551.25	171.17	148.84	48.06	2.2588e-06	65.996	4.8927e-05	4.0667e-05	1.0774e-05	1247.2	4.4436e-07	4.3398e-07	1346.8	427.34	4.5296e-07	4.4032e-07	466.59	146.57	125.55	40.718	4.4224e-07	55.146	197.243	81.226	49.841	31.379	139.722	156.341	30.548	34.672	208.785	121.922	33.162	37.777	38.439	43.017	150.991	41.189	-8191	255	
44527.180	1	1	0	0	0.12405	0.060276	0.01701	0.16277	0.13154	0.079529	0.34993	0.2897	0.026596	0.18717	0.305	0.086651	0.11354	0.097104	0.16822	0.14736	-4.2146	-4.0875	-4.9229	-4.1542	-4.2417	-4.7708	-4.2417	-4.9313	-4.4208	-4.0938	-4.9688	-4.3375	-4.3063	-4.8292	-3.9417	-4.7083	97.103	18.930	286.795	341.993	298.238	359.986	270.774	240.399	133.760	269.071	93.467	308.694	294.711	257.962	365.064	249.958	0.00034897	0.00081112	0.00017383	1437.3	4.91e-06	2.3027e-06	1542.2	493.4	6.2699e-06	3.3905e-06	545.54	170	148.8	47.53	3.1798e-06	64.838	4.8309e-05	4.0236e-05	1.1164e-05	1258.3	4.6492e-07	4.3997e-07	1351	429.61	4.6333e-07	4.3696e-07	464.11	145.16	124.81	40.285	4.3607e-07	54.05	199.752	79.173	86.016	31.533	168.263	214.062	30.502	34.846	182.427	147.663	33.292	37.581	38.974	42.693	155.095	41.813	-8191	255	
44527.273	1	1	0	0	0.35832	0.14611	0.18364	0.30216	0.10013	0.16783	0.18708	0.2226	0.053782	0.25864	0.24493	0.30058	0.36005	0.4187	0.24521	0.13869	-4.3396	-3.7958	-4.8417	-4.2729	-4.0896	-4.75	-4.0479	-4.7333	-4.5687	-4.0271	-4.925	-4.3958	-4.2104	-4.9583	-3.8021	-4.5833	139.457	26.048	72.586	300.341	307.278	90.273	242.798	296.042	331.873	290.225	312.336	17.077	354.566	329.251	160.460	58.689	0.00037562	0.0002648	0.0001506	1410.2	3.2868e-06	3.5844e-06	1501	483.57	6.0132e-06	6.4346e-07	537.17	165.49	144.73	46.739	2.4956e-06	63.489	4.9061e-05	4.0482e-05	1.0835e-05	1236.9	4.482e-07	4.2374e-07	1314.5	419.49	4.48e-07	4.36e-07	453.74	142.08	122.74	39.741	4.4004e-07	53.45	203.222	66.596	75.883	31.410	166.922	216.884	30.392	34.691	182.541	175.263	33.321	37.527	38.669	42.447	137.137	41.380	-8191	255	
44527.348	1	1	0	0	0.2025	0.13848	0.10536	0.33968	0.067393	0.27341	0.18819	0.17652	0.17825	0.0986	0.046077	0.21265	0.23689	0.13611	0.23162	0.12413	-4.3354	-3.8792	-4.8063	-4.6042	-4.0771	-4.8688	-4.2354	-4.5833	-4.6979	-3.9479	-4.8562	-4.3063	-4.0188	-4.9187	-4.0188	-4.5	246.902	194.390	376.351	313.261	265.650	305.895	297.998	289.573	356.646	156.039	86.455	370.731	25.550	200.422	311.006	366.017	0.00034488	0.00031049	0.00019078	1405.8	5.2044e-06	6.1495e-06	1515.1	487.3	6.0913e-06	3.851e-06	538.42	168.73	146.69	47.39	2.8255e-06	65.086	4.9048e-05	4.0254e-05	1.0629e-05	1234	4.5702e-07	4.1761e-07	1324.6	422.77	4.4956e-07	4.2345e-07	458.02	143.64	123.95	40.177	4.3806e-07	54.094	190.128	95.734	80.654	31.673	127.004	154.481	30.533	34.959	153.475	113.825	33.433	37.764	38.694	43.211	136.677	41.298	-8191	255	
44527.469	1	1	0	0	0.10808	0.39768	0.14623	0.14377	0.24673	0.45288	0.36798	0.089717	0.066384	0.089421	0.2046	0.1221	0.090006	0.13974	0.17738	0.064831	-4.3063	-3.925	-4.7292	-4.5625	-3.9729	-4.7812	-4.3812	-4.4625	-4.7729	-3.8771	-4.6687	-4.8021	-4.2229	-4.8167	-4.1896	-4.425	339.174	340.815	366.283	42.676	112.998	106.888	286.245	340.200	56.866	174.911	241.818	321.156	314.879	325.152	185.766	297.097	0.00033821	0.00037892	0.00021556	1424	5.0118e-06	2.3704e-06	1536.8	492.76	4.3552e-06	4.2721e-06	549.48	170.7	147.99	48.144	2.6058e-06	65.326	4.7467e-05	3.9838e-05	1.1005e-05	1246.9	4.5745e-07	4.2994e-07	1340.6	427.71	4.4349e-07	4.2474e-07	465.41	145.63	125.37	40.548	4.5001e-07	54.716	193.860	82.187	116.659	31.257	155.446	126.126	30.762	34.569	177.645	136.155	33.242	37.661	38.760	42.699	140.318	41.305	-8191	255	
44527.562	1	1	0	0	0.17191	0.11342	0.21171	0.15576	0.21012	0.29237	0.068624	0.21669	0.27741	0.14318	0.14369	0.20457	0.13487	0.39986	0.1069	0.14382	-4.6875	-3.8896	-4.5542	-4.8438	-3.8896	-4.8854	-4.5333	-4.25	-4.7542	-3.9896	-4.5625	-4.7083	-4.2146	-4.8125	-4.5	-4.2312	22.813	122.972	239.346	271.444	103.663	32.186	159.511	353.784	356.746	178.627	172.696	193.392	24.127	351.057	138.473	312.044	0.00036756	0.00030088	0.00016271	1441.1	6.2705e-06	4.8806e-06	1549.2	494.85	1.1554e-06	5.8872e-06	552.98	170.78	148.22	48.391	4.8642e-06	65.891	4.9465e-05	4.0627e-05	1.0942e-05	1262.3	4.5374e-07	4.2107e-07	1358.6	431.55	4.4711e-07	4.4011e-07	467.99	146.31	125.81	40.814	4.4631e-07	55.232	205.094	83.903	85.797	31.573	138.984	154.198	30.604	34.721	130.789	149.451	33.192	37.810	38.591	42.703	113.155	41.149	-8191	255	
44527.660	1	1	0	0	0.13959	0.26128	0.21925	0.14364	0.20827	0.10003	0.2414	0.081572	0.15553	0.26818	0.37293	0.26247	0.21962	0.072329	0.063009	0.22599	-4.725	-4.0062	-4.5479	-5.1042	-4.2	-4.8042	-4.5312	-4.1896	-4.8146	-4.0062	-4.5083	-4.8729	-4.0687	-4.7646	-4.4479	-4	161.108	349.393	282.499	293.040	301.622	183.830	359.517	321.044	69.917	61.234	361.072	302.408	315.435	20.195	90.969	328.062	0.00033276	0.00023065	0.00013506	1437.5	4.3165e-06	3.408e-06	1548.9	493.54	5.3166e-06	7.5427e-06	544.85	170.42	147.14	47.785	4.6854e-06	64.992	4.9247e-05	3.9176e-05	1.0986e-05	1257.7	4.4841e-07	4.3381e-07	1351.3	428.01	4.5567e-07	4.387e-07	463.53	145.37	124.59	40.416	4.3563e-07	54.332	196.837	67.588	53.185	31.539	163.528	169.849	30.412	34.585	164.611	120.086	33.173	37.252	38.624	42.728	117.837	41.420	-8191	255	
44527.758	1	1	0	0	0.1313	0.31216	0.18545	0.07719	0.2902	0.10337	0.095911	0.54316	0.10079	0.036433	0.095506	0.15948	0.27205	0.21596	0.01432	0.25369	-4.4688	-4	-4.3125	-5.0083	-4.1917	-4.6708	-4.8875	-4.2771	-4.7708	-4.2688	-4.5188	-4.9313	-4.1292	-4.6833	-4.7271	-4.1458	97.585	60.620	48.246	328.746	48.641	374.790	21.535	334.879	287.291	162.435	59.537	25.564	336.686	315.951	164.578	326.492	0.00034954	0.00032669	0.000111	1408.3	4.6505e-06	3.7281e-06	1514.6	486.5	5.8607e-06	3.7297e-06	533.35	167.27	144.95	47.242	5.0553e-06	64.478	4.8137e-05	3.8845e-05	1.0797e-05	1235.9	4.5614e-07	4.3079e-07	1323.5	421.25	4.4052e-07	4.364e-07	455.19	143.2	123.13	40.007	4.3374e-07	53.836	188.251	121.124	40.580	31.413	155.401	175.686	30.656	34.377	174.402	95.214	33.107	37.681	38.967	43.082	144.670	41.402	-8191	255	
44527.875	1	1	0	0	0.27302	0.079602	0.21325	0.089419	0.4069	0.08641	0.24873	0.063959	0.084826	0.24167	0.14321	0.082783	0.14918	0.19113	0.076169	0.18726	-4.6479	-4.2771	-4.2937	-5.0083	-4.0792	-4.4625	-4.8271	-4.05	-4.7354	-4.2812	-4.2375	-5.025	-4.0583	-4.5437	-4.7188	-4.0563	155.576	143.745	56.576	350.073	149.185	196.581	44.651	70.017	23.546	114.459	351.681	24.800	371.189	187.443	139.757	364.044	0.0003164	0.00039001	0.00018282	1397.1	7.3348e-06	2.7405e-06	1521.2	486.31	3.5461e-06	3.1127e-06	542.37	168.69	146.49	47.841	5.2505e-06	64.448	4.7875e-05	3.993e-05	1.1041e-05	1232.4	4.4967e-07	4.3555e-07	1333	423.13	4.4239e-07	4.2711e-07	460.64	144.2	124.24	40.375	4.4267e-07	54.119	199.933	83.432	78.409	31.153	145.184	134.824	30.819	34.711	152.362	116.731	33.166	37.472	39.066	42.911	131.216	41.425	-8191	255	
44527.949	1	1	0	0	0.056899	0.15706	0.013482	0.27415	0.16727	0.25025	0.3576	0.10806	0.10422	0.136	0.037921	0.25095	0.10346	0.064397	0.054664	0.2789	-4.5167	-4.3688	-3.9667	-4.9667	-3.9708	-4.4604	-4.9167	-4.025	-4.7667	-4.5021	-4.1813	-5.0375	-4.0854	-4.1833	-4.7104	-4.0854	283.567	206.445	276.117	353.277	141.015	370.743	311.060	53.365	220.463	56.249	283.130	124.578	89.970	295.444	360.504	54.623	0.00031837	0.00047463	0.00014048	1428.6	3.3352e-06	1.7869e-06	1546.5	493.69	5.8371e-06	6.1968e-06	548.97	170.4	147.24	48.084	5.2676e-06	65.174	4.8046e-05	3.9667e-05	1.1178e-05	1252.3	4.428e-07	4.1187e-07	1349.1	428.4	4.437e-07	4.2874e-07	466.1	145.7	125.3	40.606	4.4254e-07	54.654	196.793	81.237	82.273	31.415	158.160	159.049	30.840	34.341	196.695	128.589	33.133	37.664	39.108	42.875	114.480	40.872	-8191	255	
44528.043	1	1	0	0	0.11813	0.165	0.06902	0.073271	0.050194	0.049474	0.30435	0.10342	0.13374	0.16604	0.061879	0.16955	0.14289	0.10881	0.16733	0.28768	-4.2583	-4.65	-3.9688	-5.05	-4.25	-4.2458	-4.9938	-4.0938	-4.5271	-4.7083	-3.9667	-4.8187	-4.3979	-4.2875	-4.9062	-4.2083	76.513	136.432	223.281	317.110	191.051	139.786	339.733	327.430	78.526	294.808	21.238	338.819	36.915	280.114	87.292	314.945	0.00033356	0.00046808	7.5951e-05	1443	3.4012e-06	5.3178e-06	1556	497.93	3.7909e-06	1.0973e-06	554.03	171.42	149.3	48.436	4.3436e-06	66.36	4.8982e-05	3.9851e-05	1.1076e-05	1261.7	4.5239e-07	4.4595e-07	1365.8	432.17	4.4819e-07	4.202e-07	471.26	146.94	126.46	40.957	4.3237e-07	55.406	195.123	95.056	72.098	31.523	164.794	133.662	30.822	34.330	176.054	124.284	33.144	37.395	38.823	42.654	142.761	41.362	-8191	255	
44528.164	1	1	0	0	0.1321	0.093932	0.3329	0.23539	0.2582	0.23973	0.23819	0.30735	0.10576	0.1772	0.13011	0.17582	0.25453	0.16088	0.12338	0.11562	-4.1917	-4.5979	-3.9938	-5.0208	-4.3271	-4.0396	-5.1104	-4.2583	-4.3958	-4.8229	-4.1208	-4.7958	-4.4167	-4.0292	-4.9208	-4.2146	298.241	329.389	37.793	352.301	192.676	129.775	309.356	340.545	178.440	151.091	115.701	137.859	216.433	117.640	295.313	303.784	0.00035072	0.00047673	9.5195e-05	1446.3	5.5651e-06	3.1628e-06	1567.4	495.2	4.2564e-06	2.1061e-06	555.4	173.19	147.56	48.696	3.2914e-06	65.213	4.7222e-05	3.9581e-05	1.1178e-05	1268.6	4.5166e-07	4.2232e-07	1370.8	432.28	4.4619e-07	4.2122e-07	470.48	147.01	125.21	40.824	4.339e-07	54.688	185.110	66.209	94.977	31.478	139.913	164.897	30.744	34.801	153.519	118.631	33.139	37.871	39.033	42.805	130.974	41.512	-8191	255	
44528.258	1	1	0	0	0.2063	0.19943	0.27802	0.25908	0.14621	0.084994	0.23252	0.094355	0.17398	0.050509	0.13838	0.14286	0.16004	0.21243	0.013283	0.14121	-3.925	-4.7583	-3.8917	-4.8771	-4.5396	-4.1312	-5.1458	-4.3479	-4.3771	-4.7854	-4.1479	-4.8208	-4.5896	-4.0687	-4.8104	-4.4271	206.847	238.958	219.174	371.395	215.630	292.047	329.561	353.473	232.594	345.218	19.176	309.263	273.578	343.661	32.635	292.199	0.00036068	0.00060512	0.00021148	1415.6	3.2262e-06	2.9631e-06	1526.4	484.93	4.5759e-06	3.818e-06	543.84	167.87	145.49	47.528	3.2581e-06	65.178	4.8724e-05	3.8409e-05	1.0942e-05	1238.9	4.3456e-07	4.2146e-07	1338.7	422.18	4.4253e-07	4.1745e-07	460.98	143.75	123.18	40.281	4.1815e-07	54.232	195.893	107.465	60.350	31.504	198.078	161.850	30.487	34.770	190.180	140.248	33.268	37.413	38.973	43.107	115.613	41.738	-8191	255	
44528.355	1	1	0	0	0.089418	0.19678	0.1073	0.20392	0.04785	0.15249	0.26595	0.1994	0.12225	0.090359	0.21453	0.14281	0.26469	0.22696	0.29708	0.079654	-3.8146	-4.7479	-4.0312	-4.8396	-4.6833	-4.0563	-4.9729	-4.5417	-4.075	-4.9125	-4.1208	-4.6	-4.7562	-3.8729	-4.7521	-4.4354	39.777	315.435	244.156	340.324	142.800	275.435	309.785	236.069	58.576	114.597	351.799	301.715	335.053	336.240	175.078	339.641	0.00032422	0.00020635	0.00010855	1400.8	3.9852e-06	4.8634e-06	1533.7	486.75	4.4066e-06	4.3513e-06	548.78	169.91	147.68	47.864	4.1326e-06	65.082	4.7678e-05	3.7567e-05	1.0844e-05	1232.2	4.3407e-07	4.0554e-07	1338.8	422.71	4.3511e-07	4.1442e-07	465.21	145.43	124.84	40.484	4.2297e-07	54.457	192.323	61.095	359.925	31.395	127.599	160.955	30.542	34.862	187.004	105.011	32.953	37.700	38.734	42.852	135.876	41.493	-8191	255	
44528.477	1	1	0	0	0.19601	0.04895	0.073755	0.13083	0.038256	0.39404	0.17482	0.052041	0.1591	0.20051	0.046853	0.14508	0.10481	0.19246	0.11686	0.23145	-3.9083	-4.825	-4.0354	-4.5396	-4.8375	-3.9458	-4.9354	-4.5729	-3.825	-4.8917	-4.2979	-4.1917	-4.7875	-4.0667	-4.6292	-4.6271	175.245	365.052	162.783	19.747	187.313	322.192	365.865	342.672	356.684	282.848	34.155	330.169	337.608	335.517	320.582	42.428	0.00031877	0.00023943	0.00013633	1432.9	3.3654e-06	4.1342e-06	1561.3	499.22	5.6746e-06	4.8497e-06	557.08	173.49	150.25	48.551	4.1293e-06	65.897	4.9016e-05	3.859e-05	1.0923e-05	1258.7	4.3062e-07	4.2705e-07	1364.8	433.67	4.4014e-07	4.3152e-07	473.69	147.95	126.92	40.984	4.3352e-07	55.084	189.616	44.302	106.436	31.255	112.727	155.267	30.662	34.921	182.219	102.571	33.479	37.304	38.650	42.556	176.824	41.323	-8191	255	
44528.570	1	1	0	0	0.024955	0.36966	0.0333	0.12484	0.13912	0.14136	0.42823	0.26342	0.057014	0.067114	0.16404	0.18848	0.2032	0.37534	0.25033	0.2625	-3.6646	-4.9333	-4.3083	-4.6146	-4.8688	-4.0833	-4.9125	-4.525	-4.0458	-4.825	-4.1917	-4.4479	-5.0062	-4.0104	-4.6875	-4.6583	20.351	375.440	229.704	135.648	217.023	22.307	342.359	376.638	247.038	29.250	336.859	318.219	20.944	322.907	213.793	330.207	0.00030956	0.00041612	0.00018996	1448.8	4.3166e-06	7.5663e-06	1581.6	504.64	4.9643e-06	4.916e-06	571.56	176.23	151.73	49.09	5.1438e-06	66.886	4.809e-05	4.0089e-05	1.1042e-05	1269.8	4.3744e-07	4.5235e-07	1383.7	437.73	4.5721e-07	4.2987e-07	482.56	150.63	128.93	41.514	4.4747e-07	55.775	192.463	60.705	61.857	31.074	146.899	147.331	30.578	34.808	170.546	105.938	33.222	37.497	38.729	42.762	129.213	41.727	-8191	255	
44528.645	1	1	0	0	0.33521	0.18366	0.23464	0.23571	0.21171	0.17413	0.18063	0.044121	0.10253	0.042539	0.088211	0.21379	0.11937	0.12421	0.096352	0.18164	-3.4729	-4.7917	-4.2042	-4.3479	-4.9396	-4.0188	-4.6667	-4.8354	-3.8292	-4.875	-4.5708	-4.175	-4.9125	-4.0896	-4.5062	-5.0312	33.714	255.331	110.228	343.642	270.708	217.357	294.025	354.542	318.359	216.618	145.189	325.894	359.770	342.743	171.624	319.412	0.00034943	0.00040891	0.00013759	1476.6	4.9144e-06	4.1984e-06	1619.8	517.54	5.2471e-06	5.483e-06	578.06	180.76	156.11	49.868	5.4431e-06	66.895	4.9765e-05	3.9997e-05	1.1339e-05	1293.7	4.6073e-07	4.5033e-07	1414	448.67	4.5736e-07	4.3848e-07	491.57	153.42	132.01	42.09	4.6186e-07	55.776	193.372	76.302	79.271	31.315	167.705	148.072	30.671	34.747	171.531	124.226	33.277	37.372	39.057	42.892	137.493	41.281	-8191	255	
44528.738	1	1	0	0	0.017002	0.061543	0.011285	0.33879	0.17289	0.10133	0.20444	0.1496	0.079324	0.029973	0.35023	0.23537	0.093199	0.23947	0.095235	0.1581	-3.4792	-4.7333	-4.3604	-4.3458	-4.9042	-4.1479	-4.4708	-4.9146	-3.9708	-4.7917	-4.6125	-4.05	-4.9833	-4.375	-4.25	-4.9938	119.691	181.096	141.773	317.533	243.961	127.391	340.447	350.545	285.129	149.052	295.783	334.406	365.298	356.573	209.694	338.804	0.00038562	0.00063013	0.0001991	1475.6	5.0694e-06	3.5995e-06	1613	515.67	7.2456e-06	4.2644e-06	574.22	177.63	155.61	49.15	3.1444e-06	65.662	5.0982e-05	4.0073e-05	1.162e-05	1298.4	4.7251e-07	4.4347e-07	1406.8	448.4	4.789e-07	4.3816e-07	488.06	151.94	132.03	41.692	4.6936e-07	54.893	193.441	78.513	67.119	31.355	148.927	147.715	30.796	34.601	179.372	161.188	33.261	37.431	38.863	42.925	105.643	41.394	-8191	255	
44528.859	1	1	0	0	0.040177	0.21984	0.16053	0.13534	0.13693	0.057916	0.38274	0.30596	0.10491	0.17037	0.2502	0.19146	0.21948	0.10557	0.085772	0.10435	-3.5646	-4.6208	-4.5354	-4.1792	-5.0458	-4.4604	-4.4333	-5.0375	-3.9917	-4.4958	-4.8604	-4.0271	-4.9354	-4.3146	-4.05	-5.0708	286.506	187.557	246.271	272.299	274.003	195.717	347.265	285.963	127.028	373.980	271.123	260.083	28.729	130.480	291.975	341.784	0.00036247	0.00035651	0.00021863	1481.6	3.2881e-06	3.0328e-06	1603.1	519.49	2.684e-06	4.5696e-06	578.22	178.45	156.46	49.687	5.9233e-06	66.533	5.0771e-05	4.0643e-05	1.1247e-05	1299.1	4.633e-07	4.6258e-07	1406.9	451.29	4.8119e-07	4.4957e-07	489.84	152.41	131.81	41.786	4.6832e-07	55.38	187.406	64.045	77.740	31.158	135.093	163.452	30.481	34.739	195.713	137.048	33.192	37.262	38.662	42.765	141.439	41.269	-8191	255	
44528.957	1	1	0	0	0.23388	0.0052668	0.041065	0.12874	0.072143	0.055649	0.34595	0.40493	0.066719	0.28334	0.21298	0.21323	0.12876	0.14737	0.16659	0.22312	-3.6729	-4.4563	-4.7771	-4.1542	-4.8125	-4.4	-4.2792	-5.0479	-3.95	-4.2792	-4.8979	-3.8937	-4.7854	-4.4396	-3.8604	-5.0312	245.910	287.594	240.961	281.661	189.945	30.230	347.081	347.947	171.064	67.852	35.898	125.869	52.909	141.887	341.530	355.098	0.0003739	0.00049314	0.00016611	1472.5	4.7763e-06	4.631e-06	1603.4	517.01	5.5436e-06	1.8265e-06	580.31	177.81	155.34	49.512	5.2057e-06	66.803	5.006e-05	4.151e-05	1.1114e-05	1295.4	4.4879e-07	4.3858e-07	1403.5	448.45	4.5468e-07	4.2082e-07	491.75	152.71	131.38	41.933	4.5753e-07	55.644	196.513	103.256	95.415	31.543	164.566	138.222	30.495	34.711	157.745	83.238	32.975	37.646	38.649	42.816	105.833	41.005	-8191	255	
44529.051	1	1	0	0	0.13931	0.094091	0.065272	0.17577	0.23123	0.16054	0.34672	0.22243	0.10339	0.14659	0.059757	0.33727	0.20863	0.10968	0.13349	0.15147	-3.6958	-4.0625	-4.8688	-3.9896	-4.5958	-4.4292	-4.2729	-4.9917	-4.0687	-4.2646	-5.0667	-4.2458	-4.6396	-4.7771	-3.9562	-4.9938	162.376	286.302	293.370	324.820	188.459	272.572	290.626	359.413	176.780	342.968	266.231	274.144	336.240	365.802	340.665	275.160	0.00035492	0.0003014	0.00019059	1494.6	2.0819e-06	4.844e-06	1627.1	522.38	7.1597e-06	2.5089e-06	585.29	181.87	158.28	50.136	3.7706e-06	68.027	4.9862e-05	4.0432e-05	1.098e-05	1307.6	4.5414e-07	4.4095e-07	1422.4	453.97	4.6429e-07	4.3135e-07	497.31	155.06	133.56	42.449	4.4952e-07	56.434	183.600	44.053	49.811	31.405	173.947	158.696	30.409	34.788	181.216	184.622	33.431	37.703	38.854	42.880	141.457	41.190	-8191	255	
44529.172	1	1	0	0	0.27078	0.10519	0.16238	0.32874	0.07463	0.28111	0.27816	0.24387	0.14728	0.22527	0.18777	0.076499	0.12232	0.051576	0.2715	0.18847	-4.0333	-4.175	-4.8313	-4.1833	-4.4375	-4.6312	-4.0896	-4.9979	-4.3812	-4.1813	-4.9771	-4.0042	-4.3938	-4.6646	-3.8375	-4.9563	75.054	152.408	183.939	277.405	362.346	310.226	279.376	344.200	244.740	233.768	349.814	71.348	37.043	53.806	90.526	299.187	0.00038063	0.00055464	9.3225e-05	1503	7.2261e-06	5.8509e-06	1641.6	523.82	5.9595e-06	5.1799e-06	592.22	181.64	156.71	50.174	3.6138e-06	67.593	5.1515e-05	4.1333e-05	1.1353e-05	1315.8	4.7019e-07	4.4724e-07	1433.4	455.3	4.9475e-07	4.7142e-07	499.58	155.04	132.92	42.416	4.5917e-07	56.135	192.818	77.714	64.576	31.493	163.297	162.972	30.680	34.657	174.574	125.631	33.375	37.507	38.594	42.777	159.505	41.181	-8191	255	
44529.242	1	1	0	0	0.30148	0.22899	0.14954	0.38257	0.12847	0.14869	0.14389	0.37329	0.020824	0.23341	0.28378	0.16906	0.15297	0.16281	0.21064	0.22637	-4.0375	-4.0312	-4.8521	-4.2708	-4.3667	-4.7708	-4.0917	-4.9146	-4.525	-4.1917	-5.05	-4.2937	-4.2688	-4.7333	-3.8146	-4.8	223.009	339.631	93.245	356.341	152.449	353.818	341.935	271.626	324.320	101.453	347.309	19.724	309.455	298.145	285.337	333.748	0.00038347	0.00036664	0.00012677	1480	6.5276e-06	2.8605e-06	1602.2	517.49	5.2413e-06	4.2145e-06	577.78	177.22	154.1	49.554	5.1189e-06	66.378	5.1599e-05	4.0131e-05	1.1284e-05	1297.6	4.5145e-07	4.5202e-07	1407.7	448.15	4.5138e-07	4.5137e-07	488.56	151.45	130.36	41.682	4.4951e-07	54.963	192.221	59.578	102.123	31.160	162.827	121.752	30.507	34.758	171.883	116.181	33.192	37.720	38.893	42.884	131.127	40.905	-8191	255	
44529.340	1	1	0	0	0.20451	0.29645	0.153	0.43894	0.18445	0.080054	0.20634	0.17993	0.07151	0.16278	0.3946	0.020971	0.20118	0.089604	0.12655	0.041415	-4.0938	-3.9833	-4.8604	-4.2354	-4.0771	-4.8583	-4.1479	-4.6479	-4.7458	-3.9458	-4.9042	-4.4187	-4.2042	-4.9125	-4.0167	-4.5062	371.109	44.073	316.229	328.681	306.962	135.562	320.905	284.160	173.968	279.556	347.741	104.398	335.507	175.808	57.382	197.908	0.00035966	0.00061097	3.8383e-05	1462.1	5.0238e-06	6.4546e-06	1585.1	508.82	4.9609e-06	4.5543e-06	569.4	177.1	153.48	49.149	3.467e-06	65.89	4.8268e-05	3.9065e-05	1.1302e-05	1281.2	4.527e-07	4.3095e-07	1389.4	443.25	4.4754e-07	4.4281e-07	484.01	150.79	129.93	41.544	4.4481e-07	55.16	198.742	77.068	356.706	31.474	163.514	157.022	30.771	34.819	156.697	115.838	33.154	37.360	38.452	43.222	126.853	41.312	-8191	255	
44529.438	1	1	0	0	0.1686	0.25115	0.085158	0.061509	0.21752	0.17734	0.35492	0.18508	0.079384	0.23988	0.29558	0.18008	0.2296	0.035251	0.16956	0.21276	-4.3875	-3.8708	-4.8042	-4.3542	-4.0437	-4.7667	-4.3021	-4.7	-4.7562	-3.9667	-4.9437	-4.5458	-4.2875	-4.9437	-4.0396	-4.4625	143.137	221.331	22.100	309.546	165.796	52.429	333.238	352.112	292.109	216.382	278.889	24.847	338.611	71.105	153.644	19.510	0.00034696	0.000395	0.00017038	1458.8	2.4208e-06	2.9211e-06	1594.2	507.94	6.775e-06	5.1871e-06	575.22	176.44	155.23	49.456	3.2435e-06	66.378	4.9535e-05	3.9832e-05	1.1272e-05	1283.1	4.5858e-07	4.2465e-07	1394.6	444.46	4.614e-07	4.4524e-07	488.71	151.7	130.79	42.013	4.538e-07	55.554	196.808	89.631	70.773	31.451	181.978	151.132	30.414	34.940	177.294	135.091	33.385	37.551	38.814	43.071	117.652	40.819	-8191	255	
44529.555	1	1	0	0	0.1812	0.095499	0.1487	0.22078	0.20559	0.37179	0.29803	0.15914	0.13387	0.22524	0.31473	0.15994	0.092374	0.2447	0.12255	0.1321	-4.4271	-3.7354	-4.7312	-4.6021	-4.1	-4.7604	-4.3917	-4.3417	-4.6208	-3.8167	-4.7542	-4.6479	-4.0333	-4.9146	-4.1833	-4.3	330.730	277.736	106.501	364.696	140.190	233.455	346.162	332.880	124.375	172.461	294.815	21.355	86.358	265.632	222.592	45.124	0.00042748	0.00060688	0.00024778	1478	6.6847e-06	2.5447e-06	1610.5	516.42	2.6985e-06	6.0676e-06	582.1	179.77	155.93	50.011	2.7093e-06	67.745	4.9335e-05	4.056e-05	1.1007e-05	1297.7	4.6572e-07	4.297e-07	1409.2	448.14	4.5542e-07	4.4367e-07	493.35	153.35	131.48	42.316	4.5548e-07	56.127	193.096	94.763	96.946	31.769	145.324	158.681	30.616	34.925	180.523	145.754	33.294	37.721	38.669	42.720	160.716	41.334	-8191	255	
44529.652	1	1	0	0	0.11643	0.21151	0.13313	0.24117	0.010974	0.15531	0.33008	0.41309	0.1536	0.30528	0.39845	0.18662	0.069	0.12275	0.10081	0.39754	-4.3583	-3.8812	-4.4646	-4.9292	-3.9542	-4.8833	-4.4458	-4.1604	-4.8396	-3.9729	-4.6562	-4.6792	-4.0188	-4.7875	-4.2354	-4.0687	183.849	370.141	216.170	309.197	257.845	135.085	268.542	329.296	130.210	339.225	283.644	345.556	21.048	29.252	336.887	301.475	0.00036253	0.00014048	0.00018383	1479.8	3.4274e-06	4.2879e-06	1617.3	517.09	3.4511e-06	4.6476e-06	583.78	179.81	155.89	49.977	4.6504e-06	67.329	4.9412e-05	3.9976e-05	1.1253e-05	1300.1	4.6542e-07	4.3497e-07	1416.5	449.99	4.6163e-07	4.5649e-07	495.48	154.07	132.37	42.385	4.5174e-07	56.183	200.055	81.929	43.704	31.492	156.278	171.408	30.603	34.598	196.026	90.165	33.200	37.881	38.911	42.918	129.144	41.205	-8191	255	
44529.750	1	1	0	0	0.12721	0.24141	0.043781	0.30803	0.1201	0.082903	0.50459	0.027838	0.064126	0.060067	0.14713	0.050229	0.081242	0.24403	0.048052	0.1961	-4.5833	-3.9792	-4.4896	-4.9271	-3.7979	-4.6458	-4.6771	-4.3229	-4.9583	-3.9938	-4.4062	-4.8187	-3.9437	-4.7479	-4.4062	-4.1687	261.456	114.646	374.660	324.732	310.395	332.820	311.178	120.456	371.144	95.418	59.700	301.723	322.600	332.333	229.914	60.325	0.00035618	0.00036902	0.00012288	1487.3	5.1425e-06	4.3431e-06	1604.7	514.38	6.3844e-06	5.1109e-06	577.79	176.49	155.27	49.14	4.4766e-06	65.853	4.9716e-05	4.0429e-05	1.1402e-05	1300.4	4.569e-07	4.3143e-07	1407.1	447.62	4.5236e-07	4.3851e-07	488.8	151.63	131.08	41.644	4.4398e-07	54.823	189.369	78.299	64.347	31.363	155.215	154.957	30.698	34.522	190.087	128.295	33.088	37.655	38.790	43.032	137.273	41.236	-8191	255	
44529.844	1	1	0	0	0.19897	0.051754	0.098429	0.27111	0.063307	0.15733	0.098846	0.34083	0.068415	0.084098	0.23973	0.14613	0.24567	0.1524	0.070927	0.087708	-4.7229	-4.1042	-4.3083	-5.0333	-3.9354	-4.6188	-4.6271	-4.0625	-4.8604	-4.1188	-4.425	-4.8042	-4.0167	-4.5854	-4.5813	-3.9604	307.383	134.206	83.653	306.145	279.704	216.164	291.268	326.548	42.450	246.046	351.673	337.574	45.398	357.320	212.356	135.158	0.00033557	0.00045125	0.00026032	1466.6	5.2031e-06	4.6181e-06	1581.6	509.65	5.0977e-06	1.6901e-06	573.18	175.77	154.72	48.485	4.9576e-06	65.437	4.7398e-05	4.0371e-05	1.1077e-05	1282.5	4.5022e-07	4.2876e-07	1385	442.55	4.4687e-07	4.3284e-07	483.71	150.24	130.19	41.291	4.4508e-07	54.649	201.233	80.599	75.646	31.456	183.942	132.358	30.485	34.390	168.527	171.919	33.216	37.457	38.613	42.781	129.607	40.994	-8191	255	
44529.941	1	1	0	0	0.16446	0.16879	0.1742	0.16844	0.10025	0.12615	0.2198	0.34549	0.15968	0.096146	0.16959	0.087417	0.017056	0.1642	0.11699	0.22568	-4.4083	-4.1646	-4.0958	-4.8688	-3.9542	-4.4792	-4.8938	-4.075	-4.7417	-4.3229	-4.2667	-4.9292	-4.1146	-4.4771	-4.6604	-3.9854	134.838	356.012	344.555	324.938	241.819	162.437	314.418	332.710	375.712	273.037	289.039	284.627	54.580	26.126	75.603	358.002	0.00039161	0.00048195	0.00020925	1463.3	2.6423e-06	3.3582e-06	1589.6	511.37	4.9209e-06	2.7016e-06	570.01	177.32	154.44	49.301	4.3657e-06	65.675	4.9157e-05	3.9034e-05	1.13e-05	1284.7	4.4623e-07	4.2978e-07	1393	445.56	4.4545e-07	4.2754e-07	486.17	151.7	130.68	41.662	4.3255e-07	54.946	188.068	65.019	58.838	31.055	109.941	170.401	30.836	34.686	179.781	121.034	33.081	37.585	38.696	42.736	134.818	41.507	-8191	255	
44530.035	1	1	0	0	0.175	0.16445	0.047878	0.31345	0.076679	0.16034	0.51937	0.2499	0.038117	0.18344	0.23349	0.10726	0.085623	0.10057	0.21656	0.065837	-4.5833	-4.4729	-3.9354	-4.9083	-3.9792	-4.3938	-4.9604	-4.0667	-4.5396	-4.4979	-4.1417	-4.9313	-4.3271	-4.5333	-4.775	-3.9958	301.057	50.930	217.333	311.553	83.820	30.503	335.202	288.110	124.206	118.814	303.820	337.014	47.434	313.666	46.406	124.372	0.00038442	0.00028676	0.00012734	1475.1	7.4515e-06	5.8716e-06	1606.2	518.68	6.5094e-06	4.5445e-06	581.47	179.93	156.99	49.589	3.2974e-06	66.003	4.8769e-05	4.0349e-05	1.0643e-05	1295.9	4.634e-07	4.4163e-07	1409.4	450.44	4.5509e-07	4.376e-07	492.76	153.4	133.1	41.982	4.3747e-07	55.275	196.122	82.564	66.174	31.423	175.796	179.656	30.689	34.474	179.293	137.473	33.183	37.418	38.867	42.699	143.999	41.112	-8191	255	
44530.156	1	1	0	0	0.16901	0.26862	0.042495	0.27949	0.085212	0.12443	0.071193	0.33357	0.22166	0.10789	0.067775	0.18602	0.21391	0.085423	0.31518	0.054297	-4.325	-4.5271	-4.0167	-4.8917	-4.3354	-4.1479	-5.075	-3.9333	-4.525	-4.6167	-4.0667	-4.9708	-4.3333	-4.2417	-4.8875	-3.9813	109.593	341.816	270.209	331.855	349.331	226.565	358.052	308.539	325.001	291.430	298.823	289.771	78.787	320.721	213.400	54.336	0.00034745	0.00022112	0.00013871	1501.2	5.8996e-06	3.8351e-06	1631.7	527.83	3.4268e-06	4.3837e-06	587.81	182.46	159.21	50.365	2.5678e-06	66.972	4.9712e-05	3.9283e-05	1.1916e-05	1316.4	4.6948e-07	4.3749e-07	1432	458.32	4.6393e-07	4.559e-07	499.02	155.74	134.97	42.43	4.5952e-07	55.651	187.258	102.673	96.062	31.415	137.148	158.372	30.738	34.613	183.502	139.204	33.361	37.415	38.872	42.610	131.366	41.471	-8191	255	
44530.254	1	1	0	0	0.050901	0.073367	0.12618	0.20516	0.15542	0.12477	0.13183	0.30231	0.11248	0.15588	0.26146	0.2032	0.17786	0.1244	0.079096	0.10953	-4.0813	-4.5521	-3.8833	-4.8667	-4.3708	-4.0417	-5.0167	-4.1417	-4.4333	-4.6917	-4.0521	-4.8229	-4.5292	-4.0625	-4.7583	-4.2896	30.187	295.053	174.738	325.742	296.472	221.766	236.725	288.109	123.387	270.963	337.003	326.205	245.272	139.773	92.253	39.637	0.00040951	0.00053131	0.00017986	1501.9	4.6342e-06	7.9792e-06	1629.4	523.65	4.2257e-06	5.3289e-06	584.03	180.23	157.8	49.378	2.9821e-06	65.099	5.0604e-05	4.1118e-05	1.156e-05	1318.8	4.5568e-07	4.5101e-07	1423.4	455.54	4.5539e-07	4.2753e-07	493.94	153.73	133	41.667	4.4395e-07	54.232	200.681	83.158	36.049	31.341	141.120	168.244	30.588	34.591	179.231	128.027	33.203	37.387	38.604	42.517	108.920	41.341	-8191	255	
44530.348	1	1	0	0	0.10398	0.034059	0.055196	0.145	0.095141	0.10407	0.11085	0.2278	0.16037	0.12105	0.22877	0.088939	0.23288	0.2663	0.067059	0.2465	-4.0188	-4.7875	-4.0917	-4.9167	-4.4812	-3.9333	-5.0771	-4.3375	-4.2188	-4.95	-4.0938	-4.6813	-4.6792	-3.9125	-4.8875	-4.2521	43.231	247.216	364.369	320.667	267.635	188.237	214.439	334.796	97.061	338.846	375.959	351.105	303.288	294.525	140.996	300.727	0.00035113	0.00034476	0.00012434	1482.6	6.9814e-06	3.4528e-06	1600.4	518.3	4.6271e-06	4.0653e-06	574.19	178.73	156.46	48.53	3.6384e-06	65.105	4.998e-05	3.9399e-05	1.1215e-05	1299.1	4.7611e-07	4.4289e-07	1398.8	449.75	4.5609e-07	4.4248e-07	487.2	151.94	132.06	41.347	4.5676e-07	54.152	191.708	32.440	49.428	31.379	149.991	156.093	30.727	34.835	157.119	112.899	32.934	37.103	38.669	42.498	154.252	40.968	-8191	255	
44530.445	1	1	0	0	0.073019	0.087179	0.17222	0.36594	0.16997	0.065454	0.33251	0.21465	0.30456	0.025844	0.19982	0.066402	0.24361	0.043989	0.15646	0.34503	-3.8542	-4.8542	-3.9146	-4.6833	-4.5021	-3.9271	-4.8021	-4.4875	-4.1875	-4.8396	-4.1312	-4.6146	-4.6854	-4.0021	-4.9187	-4.4167	105.962	282.659	145.663	342.834	53.958	35.696	300.583	270.588	143.149	227.523	366.498	289.470	298.363	127.897	224.537	303.712	0.00030467	0.00032894	0.00022714	1476.8	4.594e-06	2.478e-06	1603	517.94	3.7955e-06	4.4314e-06	578.23	179.02	156.37	49.094	3.4273e-06	64.547	4.9765e-05	3.9949e-05	1.1572e-05	1297.9	4.5619e-07	4.3969e-07	1402.5	449.61	4.549e-07	4.3351e-07	488.89	152.77	132.55	41.455	4.4431e-07	54.064	191.794	54.647	67.021	31.225	151.887	160.076	30.402	34.383	159.064	159.120	33.348	37.023	38.659	42.579	154.167	41.271	-8191	255	
44530.539	1	1	0	0	0.089209	0.051519	0.080124	0.34649	0.067334	0.088501	0.18243	0.11188	0.12585	0.1793	0.15906	0.34606	0.018383	0.11209	0.048445	0.15368	-3.9083	-4.8479	-4.0167	-4.675	-4.5813	-3.9354	-5.0229	-4.4688	-4.0521	-4.8917	-3.9813	-4.2562	-4.8292	-3.9708	-4.4021	-4.4917	181.098	317.814	207.703	360.864	246.954	255.613	304.298	23.268	222.221	132.172	27.743	366.961	100.741	17.551	246.670	19.391	0.00034734	0.00059007	0.00013929	1488.6	3.4602e-06	3.5903e-06	1607.1	521.58	5.0198e-06	3.3211e-06	582.44	179.74	158.57	49.568	3.2349e-06	65.503	4.9296e-05	4.1229e-05	1.1248e-05	1302.3	4.6349e-07	4.4212e-07	1409.1	451.91	4.716e-07	4.3023e-07	491.93	153.36	133.58	41.68	4.5255e-07	54.636	194.233	71.665	83.966	31.138	123.684	137.535	30.689	34.772	163.502	139.016	33.199	37.443	38.497	42.769	141.800	41.327	-8191	255	
#DATA ENDS
