BOXY.EXE: ISS Imagent and Oximeter Data Acquisition Program Version 0.80
Ascii Record File

#ACQ INFORMATION
2  Detector Channels 
16  External MUX Channels 
1  Auxiliary Channels 
5000  Waveform (CCF) Frequency (Hz)
1  Waveforms Skipped 
30  Waveforms Averaged 
1  Cycles Averaged 
16  Acquisitions per Waveform 
10.0806  Updata Rate (Hz) 

#FILE INFORMATION
TRUE -- External MUX Channel results are PARSED.
FALSE -- AC DC and Phase are NOT grouped.
TRUE -- Companion Program Settings File CREATED.
FALSE -- AC data not excluded
FALSE -- DC data not excluded
FALSE -- Phase data not excluded
FALSE -- Auxillary Chn. data not excluded
Tab delimiters

#CALIBRATION STATE
TRUE -- Waveform Calibration Values APPLIED.


#AUX CALIBRATION VALUES
Val Type	aux-1	

Term	1.0000e+00	
Factor	0.0000e+00	


#WF CALIBRATION VALUES
A = Detector Channel
Val Type	A-AC1	A-AC2	A-AC3	A-AC4	A-AC5	A-AC6	A-AC7	A-AC8	A-AC9	A-AC10	A-AC11	A-AC12	A-AC13	A-AC14	A-AC15	A-AC16	A-DC1	A-DC2	A-DC3	A-DC4	A-DC5	A-DC6	A-DC7	A-DC8	A-DC9	A-DC10	A-DC11	A-DC12	A-DC13	A-DC14	A-DC15	A-DC16	A-Ph1	A-Ph2	A-Ph3	A-Ph4	A-Ph5	A-Ph6	A-Ph7	A-Ph8	A-Ph9	A-Ph10	A-Ph11	A-Ph12	A-Ph13	A-Ph14	A-Ph15	A-Ph16	

Term	0.00000e+00	0.00000e+00	0.00000e+00	0.00000e+00	0.00000e+00	0.00000e+00	0.00000e+00	0.00000e+00	0.00000e+00	0.00000e+00	0.00000e+00	0.00000e+00	0.00000e+00	0.00000e+00	0.00000e+00	0.00000e+00	0.00000e+00	0.00000e+00	0.00000e+00	0.00000e+00	0.00000e+00	0.00000e+00	0.00000e+00	0.00000e+00	0.00000e+00	0.00000e+00	0.00000e+00	0.00000e+00	0.00000e+00	0.00000e+00	0.00000e+00	0.00000e+00	0.00000e+00	0.00000e+00	0.00000e+00	0.00000e+00	0.00000e+00	0.00000e+00	0.00000e+00	0.00000e+00	0.00000e+00	0.00000e+00	0.00000e+00	0.00000e+00	0.00000e+00	0.00000e+00	0.00000e+00	0.00000e+00	
Factor	1.00000e+00	1.00000e+00	1.00000e+00	1.00000e+00	1.00000e+00	1.00000e+00	1.00000e+00	1.00000e+00	1.00000e+00	1.00000e+00	1.00000e+00	1.00000e+00	1.00000e+00	1.00000e+00	1.00000e+00	1.00000e+00	1.00000e+00	1.00000e+00	1.00000e+00	1.00000e+00	1.00000e+00	1.00000e+00	1.00000e+00	1.00000e+00	1.00000e+00	1.00000e+00	1.00000e+00	1.00000e+00	1.00000e+00	1.00000e+00	1.00000e+00	1.00000e+00	X	X	X	X	X	X	X	X	X	X	X	X	X	X	X	X	

B = Detector Channel
Val Type	B-AC1	B-AC2	B-AC3	B-AC4	B-AC5	B-AC6	B-AC7	B-AC8	B-AC9	B-AC10	B-AC11	B-AC12	B-AC13	B-AC14	B-AC15	B-AC16	B-DC1	B-DC2	B-DC3	B-DC4	B-DC5	B-DC6	B-DC7	B-DC8	B-DC9	B-DC10	B-DC11	B-DC12	B-DC13	B-DC14	B-DC15	B-DC16	B-Ph1	B-Ph2	B-Ph3	B-Ph4	B-Ph5	B-Ph6	B-Ph7	B-Ph8	B-Ph9	B-Ph10	B-Ph11	B-Ph12	B-Ph13	B-Ph14	B-Ph15	B-Ph16	

Term	0.00000e+00	0.00000e+00	0.00000e+00	0.00000e+00	0.00000e+00	0.00000e+00	0.00000e+00	0.00000e+00	0.00000e+00	0.00000e+00	0.00000e+00	0.00000e+00	0.00000e+00	0.00000e+00	0.00000e+00	0.00000e+00	0.00000e+00	0.00000e+00	0.00000e+00	0.00000e+00	0.00000e+00	0.00000e+00	0.00000e+00	0.00000e+00	0.00000e+00	0.00000e+00	0.00000e+00	0.00000e+00	0.00000e+00	0.00000e+00	0.00000e+00	0.00000e+00	-7.80260e+01	-1.58627e+02	-1.69044e+02	-1.83775e+02	-9.56680e+01	-8.10641e+01	-1.58123e+02	-1.62015e+02	-7.06761e+01	-1.03333e+02	-1.70742e+02	-1.70756e+02	-1.78698e+02	-1.77014e+02	-1.06885e+02	-1.49823e+02	
Factor	1.89549e-05	9.66343e-05	3.90588e-05	1.69121e-01	1.09656e-06	1.06494e-06	1.87830e-01	6.00408e-02	1.11570e-06	1.14070e-06	9.95031e-02	3.37985e-02	3.11028e-02	1.10307e-02	1.00689e-06	1.56862e-02	6.37178e-07	6.49506e-07	1.80709e-07	7.65429e-02	7.12655e-09	7.12169e-09	7.97188e-02	2.69659e-02	7.12101e-09	7.12221e-09	4.22235e-02	1.44095e-02	1.37016e-02	4.81339e-03	7.13314e-09	6.55754e-03	X	X	X	X	X	X	X	X	X	X	X	X	X	X	X	X	



#DISTANCE SETTINGS
A = Detector Channel
A-1	A-2	A-3	A-4	A-5	A-6	A-7	A-8	A-9	A-10	A-11	A-12	A-13	A-14	A-15	A-16	

2.5000e+00	3.0000e+00	2.5000e+00	3.0000e+00	2.0000e+00	3.0000e+00	1.5000e+00	3.0000e+00	3.0000e+00	3.0000e+00	3.0000e+00	3.0000e+00	3.0000e+00	3.0000e+00	1.5000e+00	3.0000e+00	

B = Detector Channel
B-1	B-2	B-3	B-4	B-5	B-6	B-7	B-8	B-9	B-10	B-11	B-12	B-13	B-14	B-15	B-16	

1.0000e+01	1.0000e+01	1.0000e+01	1.4400e+00	1.0000e+01	1.0000e+01	1.5100e+00	1.9400e+00	1.0000e+01	1.0000e+01	1.9900e+00	2.4900e+00	2.4100e+00	2.9000e+00	1.0000e+01	2.9800e+00	




#DATA BEGINS
time	group	step	mark	flag	A-AC1	A-AC2	A-AC3	A-AC4	A-AC5	A-AC6	A-AC7	A-AC8	A-AC9	A-AC10	A-AC11	A-AC12	A-AC13	A-AC14	A-AC15	A-AC16	A-DC1	A-DC2	A-DC3	A-DC4	A-DC5	A-DC6	A-DC7	A-DC8	A-DC9	A-DC10	A-DC11	A-DC12	A-DC13	A-DC14	A-DC15	A-DC16	A-Ph1	A-Ph2	A-Ph3	A-Ph4	A-Ph5	A-Ph6	A-Ph7	A-Ph8	A-Ph9	A-Ph10	A-Ph11	A-Ph12	A-Ph13	A-Ph14	A-Ph15	A-Ph16	B-AC1	B-AC2	B-AC3	B-AC4	B-AC5	B-AC6	B-AC7	B-AC8	B-AC9	B-AC10	B-AC11	B-AC12	B-AC13	B-AC14	B-AC15	B-AC16	B-DC1	B-DC2	B-DC3	B-DC4	B-DC5	B-DC6	B-DC7	B-DC8	B-DC9	B-DC10	B-DC11	B-DC12	B-DC13	B-DC14	B-DC15	B-DC16	B-Ph1	B-Ph2	B-Ph3	B-Ph4	B-Ph5	B-Ph6	B-Ph7	B-Ph8	B-Ph9	B-Ph10	B-Ph11	B-Ph12	B-Ph13	B-Ph14	B-Ph15	B-Ph16	aux-1	digaux	

44553.574	1	1	0	768	0.18233	0.096654	0.078559	0.27958	0.063633	0.20799	0.32471	0.14375	0.060605	0.14143	0.30162	0.2948	0.38516	0.14958	0.0803	0.044133	-4.6708	-4.3417	-4.4042	-4.9812	-3.9667	-4.7333	-4.9104	-4.2688	-4.8708	-4.2583	-4.4812	-5.0875	-4.0437	-4.75	-4.5646	-4.2	386.075	240.503	482.543	449.109	170.240	496.022	444.553	489.975	378.337	386.636	411.343	408.392	151.112	277.495	187.639	403.166	0.00058761	0.0003503	0.00014419	1483.7	3.3213e-06	5.7176e-06	1628.7	496.51	5.2575e-06	3.4686e-06	563.02	174.69	151.56	47.732	4.8421e-06	61.264	4.9499e-05	3.9256e-05	1.0436e-05	1328.5	4.4397e-07	4.123e-07	1452.5	438.12	4.2876e-07	4.1868e-07	484.12	151.49	129.93	41.012	4.26e-07	51.924	242.730	216.695	166.338	156.246	258.050	287.426	155.192	159.241	277.017	281.830	157.768	161.335	163.106	167.142	243.449	165.520	-8191	255	
44553.668	1	1	0	0	0.21556	0.11784	0.051664	0.14716	0.18446	0.12154	0.24467	0.24718	0.12308	0.10594	0.096683	0.18625	0.28038	0.06791	0.10121	0.15498	-4.6333	-4.4208	-4.2792	-5.2083	-3.9521	-4.5125	-5.0125	-4.2542	-4.9042	-4.4479	-4.3333	-4.9875	-4.1271	-4.5938	-4.8125	-4.0792	301.886	356.368	391.501	471.310	294.441	189.070	445.702	488.967	222.090	295.100	419.132	498.659	159.220	370.412	415.147	240.503	0.00051337	0.00040741	0.00023738	1466.1	4.1811e-06	3.963e-06	1599.1	488.25	6.5109e-06	3.5886e-06	549.88	171.36	149.01	46.263	5.2154e-06	59.165	4.9692e-05	3.7302e-05	1.0602e-05	1315.8	4.3825e-07	4.0927e-07	1426.5	430.91	4.175e-07	3.9608e-07	474	148.11	127.63	39.957	4.3106e-07	50.546	243.092	184.739	187.371	156.366	250.753	248.868	155.112	159.081	273.201	235.229	157.882	161.580	162.896	167.175	267.140	165.506	-8191	255	
44553.766	1	1	0	0	0.099749	0.16506	0.14316	0.38267	0.14655	0.084598	0.3775	0.031308	0.055023	0.085323	0.24645	0.29434	0.14378	0.1758	0.22533	0.15864	-4.4708	-4.6042	-4.1521	-5.2896	-4.2063	-4.4479	-4.8313	-4.1854	-4.8354	-4.5771	-4.2792	-5	-4.3688	-4.4021	-4.9021	-3.9813	201.039	177.890	451.284	141.393	427.020	180.144	413.117	169.422	210.658	338.100	427.305	499.174	294.745	142.423	473.916	427.925	0.00057148	0.00033157	0.00013724	1462	3.6735e-06	4.1527e-06	1596.2	487.29	3.8706e-06	1.7573e-06	548.77	171.18	147.65	46.172	3.0042e-06	59.409	5.0453e-05	3.8455e-05	1.0841e-05	1307.2	4.311e-07	4.0061e-07	1421.6	429.92	4.2791e-07	3.9818e-07	472.89	147.2	126.89	39.767	4.143e-07	50.64	244.176	166.800	185.275	156.108	213.431	281.253	155.100	159.218	268.788	261.800	157.721	161.840	162.896	167.364	237.567	165.686	-8191	255	
44553.863	1	1	0	0	0.15439	0.19947	0.34224	0.17839	0.22015	0.15092	0.15229	0.22729	0.098626	0.17399	0.23347	0.08186	0.2179	0.34042	0.13969	0.12405	-4.3208	-4.5458	-4.1125	-5.0854	-4.2021	-4.2667	-5.0854	-4.425	-4.5167	-4.6562	-4.0938	-5.1188	-4.4021	-4.3604	-4.9917	-4.1354	269.622	437.792	381.103	148.892	380.136	217.666	385.538	433.836	217.680	402.496	484.398	481.965	450.265	454.691	245.283	203.263	0.00057647	0.00038317	0.00022225	1462.7	7.3921e-06	3.3779e-06	1595	485.16	3.9682e-06	2.9404e-06	546.14	169.1	146.11	45.825	2.3026e-06	59.405	4.9503e-05	3.7169e-05	1.0491e-05	1309.5	4.307e-07	4.0819e-07	1423.7	428.91	4.2397e-07	3.9916e-07	471.68	146.51	125.29	39.416	3.9944e-07	50.592	241.054	199.272	217.818	156.166	243.791	276.816	155.094	159.412	283.927	269.649	158.030	161.651	162.826	167.529	253.239	165.652	-8191	255	
44553.957	1	1	0	0	0.058667	0.043031	0.010177	0.21508	0.05301	0.28184	0.26459	0.098539	0.084482	0.25434	0.1081	0.107	0.15945	0.23625	0.15648	0.09121	-4.1417	-4.6292	-4.1396	-4.9187	-4.3604	-4.0521	-5.2104	-4.2688	-4.4917	-4.7833	-4.0146	-5.0104	-4.675	-4.2854	-4.9042	-4.4042	439.699	158.716	375.041	142.878	192.097	220.246	448.015	469.128	257.691	409.831	367.968	359.349	331.947	466.561	424.544	353.889	0.00055934	0.00033975	0.00011292	1444.8	3.9983e-06	5.0288e-06	1581.2	475.77	7.3896e-06	4.2174e-06	542.37	168.1	144.24	45.238	5.3e-06	59.363	4.7492e-05	3.5765e-05	1.014e-05	1292.6	4.0425e-07	3.9294e-07	1413.6	420.62	4.059e-07	3.8243e-07	468.03	144.99	123.24	39.003	3.7948e-07	50.716	242.061	213.356	184.568	156.221	225.818	247.596	155.254	159.336	269.501	286.678	157.978	161.813	163.277	167.528	216.706	165.856	-8191	255	
44554.051	1	1	0	0	0.31652	0.098637	0.26895	0.28705	0.19087	0.16617	0.25872	0.42337	0.070259	0.19457	0.36463	0.089442	0.20077	0.064184	0.089497	0.16554	-4.1604	-4.7604	-3.9354	-5.0604	-4.5687	-4.2063	-5.2104	-4.2438	-4.2458	-4.8125	-4.2063	-4.8625	-4.7438	-4.0813	-4.9833	-4.3313	500.679	330.501	458.228	481.659	412.447	250.095	472.910	444.370	450.973	331.581	443.291	466.238	473.714	191.379	234.592	406.793	0.00057628	0.0003556	0.00013382	1456.3	4.7632e-06	5.0229e-06	1604.2	482.59	7.9469e-06	3.6972e-06	547.6	169.29	145.01	45.295	4.8651e-06	59.251	4.7317e-05	3.4636e-05	9.9638e-06	1302.3	4.1012e-07	3.9095e-07	1431.3	426.13	4.0797e-07	3.9012e-07	473.33	146.3	124.28	39.097	3.9739e-07	50.42	244.333	200.442	194.003	156.190	243.053	272.221	155.128	159.392	265.285	295.071	157.966	161.678	163.020	167.279	269.923	165.853	-8191	255	
44554.172	1	1	0	0	0.19018	0.052839	0.34698	0.18107	0.21666	0.13767	0.19716	0.16843	0.099536	0.15119	0.12354	0.21466	0.15641	0.13727	0.11594	0.27029	-4.0375	-4.8438	-3.9938	-4.8583	-4.5667	-4.0312	-5.225	-4.4938	-4.2104	-5.0833	-4.2833	-4.6333	-4.7854	-4.0021	-4.7937	-4.4083	261.822	235.387	195.145	457.466	488.780	264.934	173.481	452.588	398.254	164.557	184.244	469.733	338.076	460.129	175.340	452.062	0.00057588	0.00024979	0.00011905	1451.6	4.5888e-06	5.6198e-06	1581.6	478.97	5.2936e-06	5.8744e-06	540.21	167.79	144.23	44.851	2.9353e-06	58.513	4.7609e-05	3.6205e-05	9.8204e-06	1296.3	4.1647e-07	3.9304e-07	1412.4	423.71	4.1113e-07	3.8764e-07	467.1	144.39	123.62	38.74	3.9317e-07	49.753	238.858	214.715	218.396	156.092	244.031	286.513	155.143	159.384	278.125	269.201	157.428	161.621	163.147	167.433	208.458	165.991	-8191	255	
44554.270	1	1	0	0	0.16797	0.21042	0.086071	0.25497	0.091503	0.10433	0.18579	0.39747	0.064397	0.1391	0.18011	0.11727	0.30785	0.1878	0.13256	0.18768	-3.9479	-4.9625	-3.8958	-4.5563	-4.8354	-4.05	-5.1167	-4.5938	-3.9104	-4.8958	-4.1854	-4.4208	-5.0687	-3.9708	-4.8667	-4.7333	303.743	174.733	351.869	458.417	194.791	414.554	467.087	412.367	339.186	493.246	358.260	366.610	486.445	253.162	384.985	390.030	0.00057093	0.00028261	0.00015656	1448.2	5.0435e-06	2.4705e-06	1582.7	479.28	6.2932e-06	4.6401e-06	542.56	168.31	144.8	45.306	4.5623e-06	58.443	4.8696e-05	3.5673e-05	1.0216e-05	1295.7	4.0863e-07	3.8211e-07	1413.2	424.25	4.1096e-07	3.7951e-07	470.18	145.46	124.18	39.046	3.9418e-07	50.099	246.522	189.749	220.846	155.925	272.678	293.208	155.102	159.313	292.112	276.536	157.675	161.495	163.196	167.109	249.494	166.128	-8191	255	
44554.363	1	1	0	0	0.12225	0.14698	0.14987	0.078713	0.18653	0.037893	0.16949	0.25304	0.10041	0.064654	0.092487	0.47112	0.22581	0.16133	0.10004	0.19521	-3.6937	-4.8083	-4.0292	-4.5354	-4.9083	-3.9208	-4.7271	-4.8292	-4.1583	-4.7292	-4.2542	-4.3625	-4.9729	-4.1854	-4.7396	-4.6771	411.794	463.229	458.148	194.017	387.744	300.084	453.662	401.236	364.834	183.515	435.879	464.337	456.163	476.328	263.024	428.835	0.00052882	0.00039626	0.00014681	1452.3	6.0486e-06	7.8808e-07	1595.2	483.19	3.7025e-06	2.4362e-06	549.51	169.24	146.88	45.686	2.5993e-06	59.442	4.7756e-05	3.5022e-05	9.9352e-06	1302.2	4.092e-07	3.9263e-07	1425.3	427.64	4.0516e-07	3.8625e-07	473.72	146.56	125.58	39.374	3.9965e-07	50.71	241.108	180.981	158.785	156.167	246.981	253.422	155.272	159.540	299.729	291.273	157.921	161.857	163.089	167.490	276.814	165.912	-8191	255	
44554.461	1	1	0	0	0.18976	0.12286	0.037274	0.090663	0.054627	0.16279	0.25823	0.092397	0.11865	0.14795	0.16989	0.19173	0.12053	0.21676	0.055975	0.12161	-3.6833	-4.9125	-4.35	-4.3083	-5.025	-4.0375	-4.8458	-4.8625	-4.0646	-4.7875	-4.4	-4.1792	-4.9479	-4.2125	-4.4521	-4.8167	200.436	156.747	483.222	404.450	356.994	439.309	420.586	438.266	445.626	187.043	481.528	493.872	424.714	155.090	238.161	497.874	0.00051619	0.00028476	0.00017977	1464.8	5.4609e-06	3.0558e-06	1614.2	487.14	5.798e-06	2.2932e-06	554.36	170.8	146.62	46.212	2.9264e-06	60.695	4.7561e-05	3.4462e-05	9.7319e-06	1304.9	3.9736e-07	3.9146e-07	1436.3	430.28	4.1192e-07	3.6121e-07	479.4	147.98	126.14	39.745	3.917e-07	51.592	237.739	175.657	173.544	156.076	252.168	294.602	154.732	159.289	259.565	231.289	158.070	161.933	163.127	167.208	256.256	165.867	-8191	255	
44554.559	1	1	0	0	0.1824	0.21479	0.19437	0.25026	0.16382	0.1786	0.34671	0.13452	0.10017	0.19626	0.22837	0.084195	0.061583	0.14966	0.11955	0.12131	-3.7979	-4.7604	-4.425	-4.1396	-4.9771	-4.2792	-4.7021	-5.1562	-4.0521	-4.8667	-4.6458	-4.3708	-4.9667	-4.3354	-4.3812	-4.9313	407.071	430.526	367.307	461.646	447.943	433.620	467.842	418.776	152.802	397.143	477.483	274.096	154.478	393.965	227.668	364.923	0.00058574	0.00052964	0.00015202	1462.8	3.2854e-06	4.1381e-06	1617.5	489.01	6.6774e-06	5.7324e-06	555.22	169.18	144.84	45.732	3.5761e-06	59.576	4.9081e-05	3.441e-05	9.9842e-06	1312.1	3.9079e-07	3.9475e-07	1446	430.82	4.1392e-07	3.7671e-07	478.95	146.72	124.39	39.264	3.8243e-07	50.857	243.423	203.630	199.488	156.030	245.565	310.578	155.104	159.596	279.414	255.400	158.119	162.111	163.427	167.533	254.108	166.363	-8191	255	
44554.652	1	1	0	0	0.20585	0.14574	0.056114	0.13346	0.16125	0.16052	0.29805	0.25463	0.11277	0.1038	0.074291	0.14564	0.13369	0.21214	0.10491	0.12633	-3.8708	-4.6458	-4.6646	-4.2792	-5.1312	-4.2792	-4.3896	-4.9437	-3.9771	-4.6375	-4.7229	-4.1396	-4.9833	-4.4833	-4.1062	-4.9292	153.734	358.746	444.290	403.947	269.032	384.053	459.251	430.554	261.340	185.980	198.449	398.438	487.587	491.175	223.542	356.784	0.00061488	0.00045474	0.00014423	1436.5	5.5162e-06	2.9966e-06	1578.6	476.06	5.277e-06	2.1686e-06	540.96	165.55	142.36	44.538	5.7465e-06	58.751	4.8581e-05	3.334e-05	9.4168e-06	1285.7	3.8889e-07	3.6967e-07	1407.9	419.99	4.0054e-07	3.7254e-07	467.38	143.27	122.11	38.497	3.7844e-07	49.989	241.772	209.658	187.145	156.059	242.649	310.081	155.241	159.548	282.344	254.852	158.081	161.720	163.227	167.408	236.741	166.138	-8191	255	
44554.773	1	1	0	0	0.09548	0.20929	0.15369	0.14759	0.075736	0.25095	0.35957	0.19943	0.15391	0.20884	0.18951	0.13903	0.19418	0.30309	0.18962	0.18353	-3.7333	-4.3125	-4.7271	-4.1667	-4.9042	-4.35	-4.35	-5.0479	-4.0687	-4.4792	-5.0312	-4.0271	-4.775	-4.5833	-4.0062	-5.0417	476.074	380.865	419.442	468.628	385.994	447.882	456.121	384.476	180.523	306.584	388.420	446.422	168.658	453.431	150.086	172.105	0.00057214	0.00025897	0.0001934	1438.1	5.3147e-06	3.6211e-06	1580.3	477.94	5.5617e-06	3.6379e-06	540.27	166.64	143.81	44.95	4.8391e-06	58.77	4.6783e-05	3.4425e-05	9.4338e-06	1284.4	3.9518e-07	3.7672e-07	1406.7	422.02	3.9304e-07	3.5961e-07	467.25	144.25	123.35	38.78	3.8828e-07	50.114	246.899	191.688	181.759	155.981	267.893	272.309	154.807	159.275	271.203	271.328	157.663	161.593	163.247	167.495	217.104	165.959	-8191	255	
44554.867	1	1	0	0	0.25281	0.18978	0.14864	0.24725	0.29396	0.13527	0.15191	0.30407	0.211	0.18395	0.1724	0.045023	0.25982	0.092239	0.10124	0.30017	-3.8771	-4.3187	-4.6813	-4.1896	-4.65	-4.5938	-4.1562	-5.0583	-4.0938	-4.2604	-4.9375	-4.0417	-4.7896	-4.7937	-4.0729	-5	443.514	387.072	451.541	494.886	152.423	171.708	337.252	462.225	163.434	364.390	342.174	164.708	185.934	307.388	276.119	458.343	0.00054276	0.00038013	0.00019035	1444.1	4.5272e-06	2.5772e-06	1585	482.57	5.6598e-06	2.7515e-06	545.93	167.92	143.47	45.468	3.0793e-06	59.953	4.7191e-05	3.4663e-05	9.4669e-06	1291	3.9251e-07	3.7702e-07	1412.7	424.82	4.0774e-07	3.7611e-07	470.55	145.56	123.63	39.118	3.9574e-07	50.801	242.762	195.169	156.658	156.152	240.719	246.925	154.894	159.242	290.887	228.911	157.857	162.020	163.076	167.771	215.698	165.642	-8191	255	
44554.965	1	1	0	0	0.16636	0.071695	0.095649	0.29496	0.18094	0.051011	0.20217	0.31121	0.24186	0.019912	0.14055	0.1119	0.10661	0.21553	0.083223	0.1114	-4.1417	-4.3063	-4.8542	-4.1271	-4.6896	-4.7833	-4.0833	-5.0479	-4.325	-3.9875	-4.8854	-4.0312	-4.7417	-4.8854	-4.1125	-4.9021	488.229	290.067	189.802	485.929	193.908	256.860	419.255	421.685	453.555	156.869	205.588	451.436	333.480	454.819	473.335	442.765	0.00059499	0.00043901	0.0001152	1444.5	4.7649e-06	4.0429e-06	1579.7	476.09	5.5807e-06	1.2155e-06	547.03	168.02	143.48	45.367	6.009e-06	60.078	4.6858e-05	3.459e-05	9.5433e-06	1290	4.0572e-07	3.7779e-07	1410.8	421.13	4.0993e-07	3.7582e-07	471.26	145.5	123.06	39.176	3.9099e-07	51.268	243.816	182.268	210.491	156.022	252.888	313.982	155.127	159.366	287.766	206.848	157.678	161.927	163.094	167.979	251.787	165.999	-8191	255	
44555.062	1	1	0	0	0.16338	0.13762	0.27473	0.24809	0.18027	0.22009	0.13383	0.17649	0.22802	0.21754	0.2038	0.33657	0.11762	0.1398	0.058758	0.30862	-4.1167	-4.1333	-4.9646	-4.2688	-4.5083	-4.7167	-4.0979	-4.8792	-4.4563	-4.0479	-5.0292	-4.3271	-4.4396	-5.0625	-4.0083	-4.8167	481.584	313.157	190.184	205.118	142.354	149.708	248.745	484.990	451.847	329.505	491.876	468.633	454.852	469.626	222.505	232.421	0.00062749	0.00032262	0.00017283	1445.4	2.8194e-06	4.0494e-06	1608.3	482.61	4.1975e-06	3.9045e-06	553.91	170.42	145.03	45.781	4.9499e-06	59.44	4.7288e-05	3.5877e-05	9.7361e-06	1294.7	3.9113e-07	3.7349e-07	1431	427.31	4.0686e-07	3.8378e-07	476.88	147.16	124.47	39.411	3.9562e-07	50.879	241.937	205.979	201.859	155.926	251.816	300.201	155.188	159.197	280.442	219.664	157.862	162.145	162.837	167.625	231.947	166.116	-8191	255	
44555.156	1	1	0	0	0.12556	0.060801	0.095841	0.27247	0.14591	0.14383	0.082833	0.16015	0.13942	0.15552	0.27958	0.10598	0.036932	0.0924	0.13958	0.18588	-4.2646	-4.125	-5.0167	-4.3625	-4.325	-4.6625	-4.2271	-4.875	-4.7896	-4.0729	-5.2896	-4.3833	-4.3479	-5.0292	-4.0854	-4.8167	445.454	350.483	229.288	497.232	382.499	365.423	434.793	450.617	336.506	328.904	471.661	479.465	198.952	450.444	359.826	478.822	0.00055351	0.00036668	0.00016639	1448.5	2.8794e-06	4.7993e-06	1573.6	475.2	5.4174e-06	5.817e-06	540.94	166.72	142.48	45.039	3.353e-06	58.705	4.794e-05	3.444e-05	9.6013e-06	1291.8	3.9226e-07	3.6629e-07	1408.4	419.68	3.9784e-07	3.8754e-07	466.71	144.15	122.13	38.782	3.8601e-07	50.016	240.553	221.460	191.345	156.130	251.186	282.587	155.214	159.404	292.652	258.964	158.086	162.192	162.939	167.349	254.146	165.775	-8191	255	
44555.254	1	1	0	0	0.11037	0.065619	0.10711	0.30275	0.29569	0.16102	0.080732	0.16854	0.18539	0.37412	0.21734	0.16955	0.24627	0.25845	0.043965	0.12069	-4.4604	-3.9729	-4.8979	-4.4125	-4.1167	-4.8667	-4.3187	-4.7375	-4.9479	-4.1438	-5.2	-4.5188	-4.2625	-5.025	-4.0312	-4.6021	173.396	261.355	235.581	458.407	475.818	356.512	188.035	458.572	323.236	451.957	414.442	490.850	443.143	485.088	500.030	459.144	0.00054925	0.00041915	0.00013302	1431.7	5.3107e-06	2.7277e-06	1573.6	472.89	7.3322e-06	5.1456e-06	543.2	167.06	143.93	45.124	1.7909e-06	58.903	4.6794e-05	3.4263e-05	9.8276e-06	1278.5	3.9085e-07	3.7163e-07	1401.8	418.54	3.8654e-07	3.8239e-07	467.57	144.36	123.21	38.828	4.0738e-07	50.236	242.338	208.385	186.150	156.270	258.835	259.273	155.199	159.150	265.223	244.711	157.833	161.668	163.212	167.761	213.316	165.815	-8191	255	
44555.348	1	1	0	0	0.11794	0.03295	0.22343	0.26174	0.0022979	0.14725	0.1234	0.17483	0.26063	0.45675	0.21261	0.096782	0.35492	0.23076	0.19796	0.11834	-4.5437	-3.8479	-4.9313	-4.6438	-3.9938	-4.9458	-4.4229	-4.6229	-4.8146	-4.0896	-4.8708	-4.5792	-3.9667	-4.9792	-4.175	-4.5271	185.162	153.398	410.531	495.157	180.000	469.366	313.744	383.882	411.000	465.899	404.539	391.913	450.736	482.455	243.226	189.662	0.00057423	0.00045055	0.00017379	1444.4	4.2115e-06	5.3494e-06	1580.8	476.35	3.2308e-06	5.0334e-06	546.62	166.53	143.01	45.242	5.1865e-06	59.546	4.6653e-05	3.4214e-05	9.6156e-06	1291.6	3.9653e-07	3.6757e-07	1411.8	421.48	3.7899e-07	3.8605e-07	470	144.79	122.85	38.942	3.8575e-07	50.589	240.820	192.393	185.661	156.255	243.593	281.717	155.152	159.510	255.795	226.124	157.832	162.126	163.254	167.667	249.465	165.826	-8191	255	
44555.445	1	1	0	0	0.24844	0.30572	0.028081	0.13663	0.15448	0.069201	0.40974	0.23384	0.21137	0.11988	0.06192	0.12784	0.081426	0.21943	0.29758	0.19671	-4.5125	-4.0729	-4.7083	-4.7063	-4.0813	-4.8187	-4.4083	-4.4583	-4.9896	-4.2042	-4.75	-4.7792	-4.1438	-4.8458	-4.4	-4.1604	272.401	350.226	309.344	168.611	384.082	149.458	414.378	317.489	484.605	238.689	426.409	379.595	147.609	173.742	425.729	498.070	0.00054945	0.00035253	0.00010531	1444.5	4.8248e-06	4.1898e-06	1596.9	481.84	5.1329e-06	1.8718e-06	549.36	169.61	144.45	46.005	3.5495e-06	60.043	4.632e-05	3.4417e-05	9.7071e-06	1291.2	3.9962e-07	3.6258e-07	1422	425.07	4.0661e-07	3.7728e-07	474.33	146.76	124	39.422	4.0047e-07	51.26	241.982	201.953	190.891	156.195	275.614	250.053	155.280	159.440	265.450	235.563	158.073	161.697	163.147	167.573	236.735	166.116	-8191	255	
44555.566	1	1	0	0	0.084586	0.067596	0.084023	0.25213	0.1618	0.16458	0.2969	0.4337	0.10798	0.23161	0.066739	0.20244	0.2436	0.050112	0.15405	0.078262	-4.5375	-3.9979	-4.3938	-4.8667	-3.8875	-4.8542	-4.6062	-4.2875	-4.9563	-4.0563	-4.5563	-4.8708	-4.1021	-4.9229	-4.4625	-4.3104	470.513	205.377	242.599	446.681	393.713	284.215	462.370	475.062	248.427	152.006	158.997	252.712	475.508	169.865	298.758	462.299	0.00052121	0.00035641	0.00018893	1464.8	4.8541e-06	2.9736e-06	1615.4	485.54	5.0195e-06	7.8379e-07	557.17	170.94	146.7	46.1	3.9758e-06	60.705	4.7455e-05	3.5592e-05	9.8166e-06	1308.2	4.0124e-07	3.7899e-07	1439.6	429.48	3.9332e-07	3.8932e-07	480.37	148.34	125.24	39.603	4.0766e-07	51.565	241.524	223.894	194.074	156.427	276.738	259.136	155.242	159.295	239.747	257.000	157.930	162.007	162.859	167.629	243.839	165.541	-8191	255	
44555.660	1	1	0	0	0.11707	0.23464	0.24224	0.14123	0.23146	0.058449	0.25298	0.11017	0.092674	0.31845	0.19588	0.29313	0.35099	0.17216	0.12487	0.23449	-4.7667	-4.0104	-4.3542	-4.9458	-4.0104	-4.7271	-4.7375	-3.9938	-4.9583	-4.1083	-4.4625	-4.9938	-3.9167	-4.7958	-4.45	-4.1312	494.456	345.101	234.304	159.835	256.250	469.292	464.618	438.604	394.570	462.010	332.497	389.423	148.236	149.800	426.067	479.444	0.00059587	0.00037662	0.00012365	1449	1.9376e-06	4.478e-06	1595.2	482.54	2.8474e-06	5.1722e-06	546.31	167.89	143.77	45.448	3.8226e-06	59.473	4.6899e-05	3.5334e-05	9.7858e-06	1299	3.9806e-07	3.7936e-07	1425.3	426.15	3.9507e-07	3.8214e-07	473.5	145.85	123.76	39.086	3.9326e-07	50.418	242.276	150.703	199.140	156.205	246.903	254.865	155.305	159.157	298.566	264.859	157.955	162.017	162.952	167.478	264.847	165.903	-8191	255	
44555.734	1	1	0	0	0.085549	0.069015	0.15218	0.2745	0.17086	0.21982	0.24238	0.073392	0.08038	0.3185	0.23191	0.099265	0.14949	0.15127	0.23074	0.16699	-4.5	-4.3458	-4.1708	-5.0896	-4.0687	-4.7042	-4.9688	-4.1771	-4.8729	-4.2917	-4.3187	-5.1125	-4.2333	-4.7396	-4.675	-4.25	286.616	304.080	246.057	431.312	493.372	184.767	443.891	250.015	188.636	397.400	434.921	142.924	494.244	487.881	369.384	479.322	0.00056404	0.00029155	0.00017815	1446.1	5.8077e-06	3.7614e-06	1576.7	477.78	4.5464e-06	5.2945e-06	539.48	167.35	143.05	45.159	4.8051e-06	58.786	4.7195e-05	3.4021e-05	9.5245e-06	1288.7	4.0348e-07	3.6919e-07	1408.4	422.27	3.9873e-07	3.7455e-07	468.39	144.58	122.95	38.864	3.9888e-07	50.195	242.838	183.694	161.852	156.155	223.874	306.593	155.305	159.268	282.031	241.991	157.688	162.145	163.120	167.435	242.971	165.901	-8191	255	
44555.852	1	1	0	0	0.23981	0.28877	0.12561	0.31554	0.059498	0.18044	0.26072	0.28966	0.12751	0.15399	0.16726	0.26485	0.032826	0.076995	0.0466	0.17597	-4.625	-4.4208	-4.025	-4.9688	-3.9833	-4.5125	-5.1	-4.0938	-4.9021	-4.6667	-4.3542	-5.0875	-4.1687	-4.3729	-4.9187	-3.8	362.281	368.972	476.332	471.631	393.531	290.702	448.562	419.812	169.524	183.196	152.898	475.224	446.944	202.052	466.047	352.397	0.00058275	0.0002457	0.00010469	1439.2	3.8845e-06	3.8418e-06	1581	477.15	5.7268e-06	2.195e-06	542.46	168.88	144.91	45.416	5.5216e-06	59.499	4.7372e-05	3.5417e-05	9.7063e-06	1284.3	3.9398e-07	3.6663e-07	1410.5	422.1	3.8943e-07	3.8199e-07	470.02	145.52	124.14	39.112	3.9498e-07	50.724	241.132	183.233	148.686	156.155	256.762	295.953	155.148	159.465	253.960	238.124	157.900	161.660	163.013	167.309	247.242	165.932	-8191	255	
44555.949	1	1	0	0	0.14128	0.10038	0.26676	0.14348	0.057935	0.2122	0.18145	0.20341	0.154	0.17621	0.040681	0.038258	0.27852	0.11803	0.046794	0.13763	-4.4938	-4.6542	-3.9813	-5.0604	-4.0979	-4.2542	-5.2042	-4.2562	-4.6188	-4.5604	-4.1958	-5.1687	-4.3187	-4.2958	-4.9271	-4.0167	176.542	369.153	340.402	475.173	355.042	435.185	356.838	475.232	288.165	199.737	475.387	268.305	460.500	464.149	437.739	422.116	0.00061715	0.00047364	0.00017042	1454.6	3.1419e-06	3.0057e-06	1599.5	480.02	6.5851e-06	3.9704e-06	551.26	170.69	145.07	45.8	3.2652e-06	59.94	4.7742e-05	3.5426e-05	9.7127e-06	1297.7	4.0011e-07	3.8423e-07	1424	424.71	4.021e-07	3.845e-07	475.3	147.14	124.59	39.477	3.7895e-07	51.279	242.099	169.649	184.817	156.397	211.624	291.767	155.536	159.181	292.300	222.848	157.590	161.836	163.193	167.633	271.013	165.653	-8191	255	
44556.047	1	1	0	0	0.067157	0.097124	0.044967	0.25533	0.30342	0.20211	0.39716	0.15454	0.052419	0.12586	0.25624	0.30594	0.16681	0.051547	0.14482	0.19125	-4.4021	-4.6458	-3.9229	-5.0437	-4.1083	-4.1333	-5.0625	-4.25	-4.5958	-4.7188	-4.1562	-5.0083	-4.5375	-4.4354	-5.0042	-4.175	465.606	380.338	312.095	466.448	448.039	367.412	425.376	389.314	325.139	197.903	479.044	448.175	463.980	239.664	160.069	454.234	0.00056764	0.0002505	0.0001918	1460.1	4.5312e-06	6.1928e-06	1606.5	484.69	4.8331e-06	3.8426e-06	555.09	171.01	146.33	46.072	4.2347e-06	60.869	4.676e-05	3.5793e-05	9.7767e-06	1303.3	4.0964e-07	3.9419e-07	1434.9	427.68	4.1038e-07	3.9169e-07	479.17	148.09	125.79	39.895	3.9373e-07	51.705	242.856	203.498	198.936	156.206	267.755	289.142	155.187	159.454	278.330	239.224	157.865	161.874	163.347	167.405	239.339	165.506	-8191	255	
44556.141	1	1	0	0	0.14669	0.20564	0.12759	0.22132	0.18771	0.095966	0.22166	0.31485	0.28332	0.20925	0.31793	0.05495	0.14884	0.27921	0.17268	0.12383	-4.175	-4.6667	-3.8229	-4.9229	-4.5563	-4.1125	-5.1729	-4.2479	-4.2854	-4.8313	-4.0417	-4.8917	-4.6292	-4.0979	-4.9917	-4.3708	492.629	273.222	437.171	361.085	143.615	173.005	486.568	422.156	293.299	322.110	432.250	407.383	157.082	482.354	338.541	385.425	0.00057944	0.00033691	9.0495e-05	1469	1.4058e-06	2.3758e-06	1605.3	481.05	6.9827e-06	3.87e-06	549.59	169.75	145.14	45.588	3.1877e-06	58.915	4.8638e-05	3.5152e-05	1.032e-05	1310.1	4.0133e-07	3.8947e-07	1429	427.21	4.1194e-07	3.812e-07	473.16	146.44	124.5	39.128	3.8235e-07	50.265	237.351	220.426	497.653	156.112	281.139	289.104	155.228	159.375	275.958	267.491	157.839	161.889	163.341	167.522	257.775	165.983	-8191	255	
44556.262	1	1	0	0	0.21049	0.061998	0.20663	0.22265	0.097509	0.16992	0.25763	0.14126	0.12805	0.064972	0.13618	0.15201	0.19141	0.057618	0.064989	0.056414	-4.1188	-4.7854	-3.8896	-4.8708	-4.5604	-4.1021	-5.2812	-4.4542	-4.2292	-4.9583	-3.9792	-4.6729	-4.8792	-3.8708	-4.8854	-4.4563	172.050	433.204	342.482	442.909	347.856	283.540	435.692	411.079	302.474	179.503	485.225	445.215	480.076	392.398	161.015	418.351	0.00055918	0.00019682	6.5097e-05	1437.4	4.7892e-06	4.4823e-06	1571.5	475.19	5.3975e-06	4.7582e-06	541.76	166.92	142.94	44.99	4.3152e-06	58.889	4.6464e-05	3.5372e-05	9.7677e-06	1284.6	4.1243e-07	3.7993e-07	1402.2	420.77	3.9774e-07	3.7101e-07	468.09	144.35	122.71	38.839	3.8791e-07	50.201	246.101	220.915	218.786	156.162	255.554	276.147	155.314	159.208	272.041	291.312	158.194	161.545	163.509	167.243	248.175	166.103	-8191	255	
44556.359	1	1	0	0	0.22078	0.053687	0.17982	0.093713	0.16893	0.32387	0.16798	0.18997	0.21244	0.26926	0.31222	0.087629	0.42398	0.27799	0.20098	0.26724	-3.9083	-5.0125	-4.0188	-4.7875	-4.7937	-3.7917	-4.9187	-4.2458	-3.9375	-4.8542	-4.1542	-4.6438	-4.8604	-4.0896	-4.6333	-4.4229	452.419	454.385	484.461	165.549	209.883	143.796	309.619	443.172	411.835	315.633	421.798	411.277	463.053	401.657	161.244	195.343	0.00055016	0.00036113	0.0001581	1436.2	4.1655e-06	3.2777e-06	1575.4	477.57	5.451e-06	2.1079e-06	544.94	168.26	143.06	45.377	3.925e-06	59.618	4.6924e-05	3.4348e-05	1.0009e-05	1284.3	3.8325e-07	3.6767e-07	1406.4	421.44	4.1286e-07	3.7503e-07	470.48	145	123.32	39.059	3.8345e-07	50.672	244.132	192.027	201.589	155.967	275.792	300.598	155.210	159.527	277.207	239.940	158.163	161.752	163.416	167.297	237.907	165.994	-8191	255	
44556.430	1	1	0	0	0.31979	0.17657	0.1814	0.26786	0.14528	0.033935	0.18453	0.045242	0.061066	0.2135	0.057835	0.12211	0.16936	0.25006	0.13757	0.084094	-3.8438	-4.9729	-4.0083	-4.4979	-4.7312	-3.8021	-4.9854	-4.6521	-4.0437	-4.8479	-4.4396	-4.4792	-4.9792	-3.9813	-4.6958	-4.7542	466.100	272.835	224.925	434.101	386.004	189.888	454.137	476.408	449.293	266.108	212.693	189.511	500.094	422.258	307.327	202.162	0.00054773	0.00020785	6.4643e-05	1445.6	5.159e-06	2.8944e-06	1592.9	481.78	2.9531e-06	4.4601e-06	550.35	170.31	144.79	45.975	2.6063e-06	60.102	4.5999e-05	3.5233e-05	1.0105e-05	1291.3	3.9705e-07	3.8512e-07	1421.7	425.76	4.0249e-07	3.8135e-07	475.68	146.96	124.8	39.457	3.9516e-07	51.363	241.454	191.561	209.520	156.318	255.754	273.977	155.011	159.326	278.099	243.325	157.822	161.693	163.228	167.549	210.859	166.024	-8191	255	
44556.551	1	1	0	0	0.21049	0.22671	0.078441	0.19067	0.016962	0.15516	0.18066	0.17237	0.10147	0.15835	0.25557	0.19555	0.23596	0.11501	0.14238	0.22374	-3.6667	-4.7625	-4.2083	-4.425	-4.9792	-3.8563	-4.8063	-4.7104	-4.0375	-4.9042	-4.325	-4.2375	-5.2354	-4.0292	-4.5896	-4.8833	324.993	486.778	348.698	155.522	404.858	157.767	478.193	449.942	467.270	305.596	471.891	487.922	446.090	344.226	145.094	424.830	0.00054052	0.00029019	0.00018613	1467.3	4.374e-06	3.428e-06	1628.5	489.11	5.1617e-06	2.3973e-06	562.02	173.6	149.42	46.535	5.5044e-06	60.653	4.7632e-05	3.5449e-05	9.9725e-06	1313.5	4.0054e-07	3.8723e-07	1450.3	433.17	4.2176e-07	3.8981e-07	485.24	149.96	127.83	40.123	3.9691e-07	51.875	245.318	165.941	193.365	155.935	260.315	297.905	155.123	159.236	267.434	240.355	158.058	161.535	163.283	167.370	244.314	166.157	-8191	255	
44556.645	1	1	0	0	0.033902	0.17823	0.25797	0.19796	0.11425	0.16425	0.2259	0.26557	0.031467	0.089998	0.2781	0.22744	0.037254	0.17727	0.076507	0.18882	-3.7375	-4.8479	-4.3792	-4.3896	-4.9917	-4.2375	-4.5938	-5.0917	-4	-4.6792	-4.5979	-4.3479	-5.0312	-4.2396	-4.3542	-4.9	418.059	466.280	321.520	413.146	436.799	195.976	454.261	438.015	185.071	476.127	476.929	147.250	419.119	425.217	275.225	425.402	0.00063034	0.00016482	0.00018783	1474.2	6.5145e-06	4.719e-06	1615.2	490.39	4.8138e-06	5.9157e-06	551.83	170.62	145.85	45.745	4.2352e-06	59.165	5.0094e-05	3.6311e-05	1.0579e-05	1319.6	4.1465e-07	4.1092e-07	1441.9	431.76	4.1656e-07	3.8807e-07	476.14	146.91	125.06	39.352	3.9671e-07	50.484	242.728	240.397	206.814	155.957	277.830	296.579	154.994	159.263	270.503	239.339	158.018	161.391	163.317	167.595	247.841	166.275	-8191	255	
44556.742	1	1	0	0	0.13525	0.038454	0.065689	0.19696	0.16335	0.21752	0.083588	0.30942	0.082616	0.18463	0.18383	0.22865	0.075769	0.25312	0.13029	0.14693	-3.625	-4.7854	-4.7375	-4.2458	-4.8812	-4.0229	-4.4021	-4.9958	-3.8104	-4.6792	-4.6625	-4.1625	-4.8625	-4.1583	-4.2292	-4.9437	250.549	233.762	310.664	471.020	264.103	474.457	470.055	480.954	168.969	227.848	463.203	499.125	371.637	449.162	380.382	418.955	0.00059264	0.00037912	0.00011479	1444.5	3.624e-06	5.3914e-06	1573.3	480.36	6.8792e-06	4.0848e-06	544.2	167.49	144.31	45.232	4.1272e-06	59.178	4.8177e-05	3.5583e-05	1.0358e-05	1291.4	4.0419e-07	3.9395e-07	1407.1	425.01	4.1106e-07	3.8843e-07	470.69	144.93	124.28	39.077	3.9472e-07	50.244	242.297	203.643	175.696	155.707	241.960	263.136	154.953	159.100	297.725	257.752	158.036	161.535	163.350	167.565	245.888	165.762	-8191	255	
44556.836	1	1	0	0	0.18276	0.19726	0.19877	0.37674	0.24065	0.32129	0.27691	0.19663	0.17549	0.1478	0.10036	0.12032	0.11474	0.15325	0.20693	0.055504	-3.5375	-4.5062	-4.7208	-4.0979	-4.7708	-4.25	-4.4229	-5.0437	-4.1792	-4.6062	-4.8083	-4.0312	-4.9458	-4.4083	-4.0417	-5.0687	228.304	245.179	448.580	493.146	385.718	478.798	406.479	440.903	215.769	310.426	391.504	478.892	480.699	145.458	157.272	360.643	0.00057067	0.00040768	0.00014041	1449.2	3.1194e-06	5.6057e-06	1578.8	480.76	5.7619e-06	6.5848e-06	548.93	169.43	144.99	45.163	5.3732e-06	59.149	4.8679e-05	3.5444e-05	9.9985e-06	1293.6	4.0795e-07	3.9166e-07	1410.7	425.3	4.0443e-07	3.8921e-07	472.21	145.76	124.67	39.23	4.0145e-07	50.619	241.613	214.378	212.249	156.043	270.393	276.596	155.375	159.184	268.629	269.456	158.043	161.884	163.304	167.360	235.147	165.619	-8191	255	
44556.957	1	1	0	0	0.1167	0.14379	0.065891	0.16532	0.054999	0.27914	0.21334	0.30654	0.02021	0.059367	0.040472	0.29805	0.21188	0.25768	0.050541	0.18576	-3.7292	-4.2208	-4.7417	-4.0333	-4.7063	-4.4458	-4.4229	-5.2042	-3.9646	-4.4396	-4.9833	-3.9875	-4.7937	-4.6917	-3.85	-4.9792	246.743	247.681	500.058	408.861	195.710	361.328	361.947	442.858	275.989	338.883	477.982	448.286	457.036	475.616	315.828	143.155	0.00060599	0.00037183	0.00010857	1452.9	7.0099e-06	3.4871e-06	1586.6	482.99	4.9144e-06	2.2114e-06	550.04	168.98	146.33	46.161	3.952e-06	60.265	4.78e-05	3.5232e-05	9.6378e-06	1294.5	3.9977e-07	3.8789e-07	1415.2	426.6	4.1754e-07	3.8188e-07	474.75	146.88	125.24	39.755	3.9917e-07	51.2	243.162	205.830	190.801	155.879	238.868	275.763	155.095	159.304	274.100	278.487	158.021	161.355	163.043	167.607	275.056	165.991	-8191	255	
44557.027	1	1	0	0	0.14284	0.18926	0.11431	0.078267	0.17894	0.21273	0.22797	0.086349	0.20354	0.097226	0.094565	0.23078	0.080731	0.069381	0.077602	0.23937	-3.9167	-4.1917	-4.8313	-4.1229	-4.6708	-4.6646	-4.1021	-5.1188	-4.3021	-4.1417	-4.8812	-4.1417	-4.7708	-4.7021	-3.9062	-5.0396	176.695	430.928	314.133	200.203	147.205	145.655	473.812	428.020	223.428	207.146	199.141	401.159	486.916	210.043	168.417	399.837	0.00057559	0.00038094	0.00014669	1464.1	3.6118e-06	3.6725e-06	1607.4	488.66	5.4596e-06	3.3654e-06	554.94	172.18	146.47	46.437	3.6204e-06	60.866	4.7763e-05	3.6362e-05	9.7794e-06	1308.6	4.1771e-07	3.8786e-07	1432.8	430.38	4.1382e-07	3.8349e-07	478.99	148.3	126.2	40.014	4.0244e-07	51.728	243.623	205.372	194.340	156.077	209.798	275.447	155.049	159.176	270.883	235.375	157.772	161.609	163.152	167.885	244.990	165.914	-8191	255	
44557.125	1	1	0	0	0.059027	0.058054	0.13973	0.31406	0.17819	0.038791	0.25906	0.17666	0.13873	0.15437	0.15673	0.058348	0.14939	0.20814	0.059635	0.23328	-4.0667	-4.0958	-4.8729	-4.1417	-4.5083	-4.6417	-4.1646	-5.0729	-4.2688	-4.1333	-4.9542	-4.0771	-4.5583	-4.8938	-3.85	-4.8833	435.772	327.429	176.915	488.948	500.791	222.416	442.076	429.785	316.795	489.566	430.446	321.213	466.822	454.069	312.524	411.454	0.00057824	0.00037027	0.00014445	1458.9	4.6617e-06	4.0206e-06	1600.2	486.42	6.5062e-06	1.4184e-06	549.05	169.63	145.48	46.164	3.3165e-06	59.286	4.8814e-05	3.6326e-05	9.904e-06	1305.2	3.9548e-07	3.9858e-07	1428.6	429.8	4.1876e-07	3.8708e-07	475.27	146.77	125.03	39.582	3.9225e-07	50.603	240.006	188.954	178.356	156.221	222.257	304.960	154.977	159.435	280.179	229.095	158.125	161.797	162.665	167.665	255.514	166.048	-8191	255	
44557.223	1	1	0	0	0.10341	0.15027	0.15328	0.31683	0.071403	0.29223	0.3115	0.035888	0.15195	0.14805	0.37253	0.16788	0.059075	0.19212	0.13964	0.16487	-4.1625	-4.1104	-4.8688	-4.1583	-4.4646	-4.8167	-3.9208	-4.7792	-4.5271	-3.9354	-5.0167	-4.2479	-4.3583	-4.9542	-3.8979	-4.6604	157.214	369.180	341.312	472.957	258.944	409.670	430.321	397.916	467.148	176.331	159.566	437.353	299.648	325.427	386.714	497.719	0.00055458	0.00033934	0.00019876	1430.9	3.4545e-06	4.9841e-06	1572.3	475.68	6.1951e-06	3.2367e-06	540.18	166.72	143.82	45.366	4.7868e-06	58.918	4.7796e-05	3.5238e-05	9.7583e-06	1281.5	3.9999e-07	3.7815e-07	1400.3	420.8	4.1998e-07	3.8332e-07	465.36	144.24	123.29	39.136	3.9779e-07	50.181	244.954	176.678	183.701	156.176	252.747	257.737	155.139	159.338	263.853	242.278	157.879	161.466	163.170	167.494	258.076	165.355	-8191	255	
44557.344	1	1	0	0	0.1279	0.023223	0.1638	0.44612	0.19184	0.17655	0.38568	0.13551	0.061054	0.22101	0.17283	0.21917	0.059705	0.10631	0.062111	0.085829	-4.2042	-4.0188	-4.7812	-4.4437	-4.2354	-4.9583	-4.2583	-4.8104	-4.5792	-4.0125	-4.9938	-4.3042	-4.2667	-4.9083	-4.0854	-4.5042	431.308	317.924	281.000	499.045	202.952	402.307	413.423	445.867	426.707	387.023	493.309	485.716	191.191	400.114	276.511	390.198	0.00055214	0.00036889	0.00015062	1437.5	3.7866e-06	2.0231e-06	1576.3	478.6	4.608e-06	2.9347e-06	546.21	168.35	145.79	46.202	3.3998e-06	60.003	4.6533e-05	3.5634e-05	9.7169e-06	1284.2	4.0835e-07	3.6727e-07	1404.4	423.33	4.0443e-07	3.9037e-07	470.68	145.91	125.15	39.638	3.9697e-07	50.978	240.009	212.922	186.523	156.194	248.482	313.455	154.818	159.060	293.089	241.941	157.982	161.529	163.054	167.804	231.950	165.925	-8191	255	
44557.438	1	1	0	0	0.24572	0.12039	0.2475	0.36641	0.25478	0.098703	0.40048	0.29922	0.2432	0.051795	0.065951	0.096348	0.11445	0.22706	0.024516	0.069468	-4.5333	-3.8458	-4.8667	-4.5333	-4.2146	-4.9375	-4.2688	-4.3688	-4.9271	-3.8042	-4.8208	-4.4167	-4.0708	-5.0437	-4.0458	-4.5729	403.266	453.361	459.253	490.235	312.846	401.357	431.811	424.352	429.298	446.295	212.184	164.223	213.245	179.675	378.096	234.566	0.00054899	0.00038905	0.00015214	1455.6	5.0361e-06	4.6761e-06	1595.9	488.82	6.1581e-06	4.6345e-06	552.05	171.53	148.49	46.598	5.4232e-06	61.185	4.7207e-05	3.6344e-05	1.008e-05	1303	4.1578e-07	3.8009e-07	1427.4	431.2	4.1775e-07	3.9401e-07	477.55	148.46	127.15	40.247	4.0229e-07	51.794	240.814	256.264	159.147	156.240	253.780	294.490	155.090	159.322	280.213	260.574	157.931	161.632	162.808	167.366	247.401	165.689	-8191	255	
44557.535	1	1	0	0	0.056277	0.2337	0.11135	0.24492	0.10812	0.21567	0.10899	0.08839	0.13723	0.092213	0.019854	0.13278	0.28147	0.26815	0.11137	0.19143	-4.4854	-4.1667	-4.7667	-4.7604	-4.0604	-4.8417	-4.4417	-4.3583	-4.8208	-4.0167	-4.8708	-4.6396	-4.075	-5.0229	-4.1542	-4.4521	496.188	171.501	433.246	444.807	361.971	255.042	379.382	470.290	316.154	294.737	384.077	153.433	491.567	425.532	205.254	374.185	0.00058216	0.00011544	0.00010107	1466.5	5.8122e-06	4.6893e-06	1607.7	492.37	5.6947e-06	2.9725e-06	559.21	173.2	148.92	47.155	4.9988e-06	61.183	4.8667e-05	3.5981e-05	1.0081e-05	1310.1	4.0808e-07	3.8267e-07	1435.4	433.67	4.1001e-07	3.9282e-07	481.81	149.81	127.84	40.625	4.0708e-07	52.336	242.536	148.730	212.276	156.046	239.114	276.191	155.114	159.162	266.453	257.445	157.866	161.695	163.028	167.203	240.733	165.600	-8191	255	
44557.633	1	1	0	0	0.059354	0.11736	0.23284	0.18928	0.10753	0.21208	0.24711	0.36888	0.014546	0.053391	0.037912	0.17001	0.17671	0.25316	0.30392	0.038834	-4.5667	-3.9542	-4.5792	-4.8625	-3.85	-4.8271	-4.5229	-4.4208	-4.6854	-4.0167	-4.7104	-5.0437	-4.0458	-4.8729	-4.4125	-4.2021	427.636	222.262	484.176	349.992	295.002	333.177	414.334	429.326	400.340	217.108	395.654	457.557	471.450	487.452	303.184	424.394	0.00059092	0.00043391	0.00017862	1473.9	5.0261e-06	3.6404e-06	1603.7	488.29	4.8609e-06	3.798e-06	552.86	171.29	147.37	46.546	4.1709e-06	60.123	4.653e-05	3.4916e-05	9.7511e-06	1313.6	4.0687e-07	3.7472e-07	1436.3	432.02	4.0247e-07	3.9878e-07	476.78	148.32	126.5	40.002	4.0059e-07	51.259	241.651	182.261	171.743	156.206	252.543	225.141	155.128	159.234	293.081	253.465	157.770	161.861	162.804	167.302	264.683	165.827	-8191	255	
44557.727	1	1	0	0	0.26473	0.26007	0.10054	0.16053	0.17482	0.071842	0.29361	0.19758	0.096018	0.12409	0.23803	0.23201	0.27717	0.099554	0.13197	0.27983	-4.7188	-4.0667	-4.3958	-4.9271	-3.9688	-4.7917	-4.8604	-4.1708	-4.8396	-4.0687	-4.475	-4.8417	-4.0104	-4.8063	-4.2896	-4.1729	332.180	442.719	274.580	428.839	405.915	468.628	427.257	464.749	324.505	188.994	479.282	465.380	170.103	435.694	271.594	420.782	0.00054268	0.00051758	0.00013547	1445.2	2.6401e-06	4.2305e-06	1573.8	477.8	5.242e-06	5.5815e-06	540.41	167.71	144.84	45.681	2.5896e-06	59.145	4.5594e-05	3.5205e-05	9.7643e-06	1289.9	4.0379e-07	3.6105e-07	1400.7	422.15	3.8628e-07	3.7855e-07	467.11	144.73	124.2	39.334	3.8289e-07	50.375	241.157	188.044	204.105	155.908	256.008	278.373	155.318	159.356	253.670	260.810	157.989	161.799	163.024	167.463	253.781	165.944	-8191	255	
44557.824	1	1	0	0	0.07255	0.24008	0.22356	0.042013	0.1704	0.099245	0.20402	0.20016	0.31264	0.037508	0.17146	0.078794	0.30957	0.18281	0.11039	0.163	-4.5458	-4.0917	-4.1896	-4.9437	-3.8771	-4.8229	-4.7042	-4.1333	-4.9854	-4.1708	-4.2312	-4.8396	-4.1271	-4.6875	-4.8083	-3.9958	403.416	264.173	343.333	149.297	263.947	364.112	477.240	403.144	477.208	375.609	448.607	189.625	144.775	271.881	219.720	150.502	0.00054546	0.00025867	0.00016892	1419.2	5.0632e-06	2.3532e-06	1564.4	472.95	4.8136e-06	5.5803e-06	537.51	167.62	142.72	45.421	4.9939e-06	59.201	4.6343e-05	3.4984e-05	9.4548e-06	1274.7	3.9719e-07	3.6037e-07	1389.5	418.65	3.8734e-07	3.7457e-07	463.76	144.11	122.83	39.112	3.8155e-07	50.522	245.346	178.233	192.162	156.324	262.200	280.696	155.124	159.158	282.059	251.232	157.810	161.378	162.817	167.524	257.193	165.791	-8191	255	
44557.941	1	1	0	0	0.18463	0.081452	0.099925	0.078441	0.22261	0.092642	0.1106	0.11334	0.25214	0.10694	0.26077	0.04119	0.20029	0.32026	0.038045	0.10928	-4.5062	-4.1958	-4.1104	-5.0563	-4.0208	-4.475	-4.7833	-4.2625	-4.7917	-4.5	-4.15	-4.8229	-4.0687	-4.5271	-4.775	-4.0354	346.289	458.373	160.385	151.379	388.043	428.835	431.902	165.311	218.602	276.646	467.583	414.055	208.344	142.254	263.874	434.767	0.00054795	0.00028081	0.00015976	1426.4	3.7648e-06	3.1004e-06	1554.3	473.92	4.7703e-06	2.6861e-06	539.05	166.64	144.69	45.692	6.284e-06	59.831	4.5593e-05	3.3708e-05	9.5652e-06	1273.8	4.0526e-07	3.7328e-07	1390.4	418.73	3.8799e-07	3.6527e-07	465.8	144.35	123.48	39.272	3.6956e-07	50.949	238.702	229.664	194.115	155.862	289.683	307.405	155.164	159.465	291.857	266.527	157.660	162.077	163.266	167.289	245.601	165.955	-8191	255	
44558.039	1	1	0	0	0.11906	0.16264	0.16714	0.12543	0.17817	0.23156	0.085717	0.14733	0.075381	0.07612	0.042192	0.10276	0.20094	0.39125	0.2078	0.23532	-4.4625	-4.3208	-3.9104	-5.0875	-4.1458	-4.2	-4.8417	-3.9292	-4.625	-4.4042	-4.1438	-5.0792	-4.1792	-4.2542	-4.6896	-4.0125	245.540	499.804	230.362	384.374	314.752	275.398	342.930	202.983	141.764	389.225	434.410	467.336	280.884	146.783	313.327	460.616	0.00057271	0.0002784	0.00013735	1428.9	5.312e-06	4.0596e-06	1570.9	473.11	6.5317e-06	4.0322e-06	541.13	168.16	143.79	46.1	3.3062e-06	60.597	4.5574e-05	3.4655e-05	9.5908e-06	1277.1	3.9196e-07	3.718e-07	1401.7	419.91	3.9096e-07	3.6979e-07	467.8	145.36	123.54	39.602	3.7257e-07	51.523	244.340	199.375	157.859	156.412	247.632	285.519	155.353	159.305	259.897	272.163	157.892	161.875	163.153	167.731	240.430	166.217	-8191	255	
44558.133	1	1	0	0	0.10935	0.085529	0.21751	0.14563	0.039995	0.073149	0.17488	0.31892	0.21604	0.12545	0.03411	0.27398	0.33448	0.25481	0.16511	0.16656	-4.3667	-4.5875	-3.8958	-4.9396	-4.3104	-4.2896	-5.1146	-4.0208	-4.7104	-4.5729	-4.1771	-4.9104	-4.4437	-4.3542	-4.8208	-4.0396	355.655	284.442	466.105	144.708	458.379	429.426	430.106	477.959	170.755	319.595	300.708	452.479	498.849	275.282	470.131	187.703	0.0005844	0.00041204	0.00021879	1437.7	4.0774e-06	4.7277e-06	1577.2	478.2	5.7353e-06	4.2148e-06	544.32	168.61	143.31	45.805	4.8939e-06	59.772	4.584e-05	3.4083e-05	9.5998e-06	1285.5	3.9778e-07	3.708e-07	1409.4	422.5	4.005e-07	3.5159e-07	469.5	145.2	123.28	39.459	3.703e-07	50.771	239.685	213.233	172.660	156.283	262.650	256.492	155.476	159.623	297.669	270.660	157.629	162.095	163.164	167.612	227.623	165.929	-8191	255	
44558.254	1	1	0	0	0.077939	0.23281	0.23994	0.2514	0.13078	0.24582	0.31538	0.14853	0.083183	0.18683	0.23604	0.25219	0.11202	0.10693	0.28574	0.22226	-4.2021	-4.7417	-3.925	-5.0042	-4.3375	-4.0021	-4.9958	-4.2604	-4.1833	-4.6979	-4.0417	-4.8021	-4.5354	-4.1771	-4.875	-4.3021	152.520	383.403	300.308	434.695	488.629	395.519	441.764	494.696	360.361	256.579	446.779	462.164	187.839	145.236	396.175	319.988	0.00061246	0.00031501	9.528e-05	1409.2	5.4253e-06	2.7259e-06	1542.5	467	4.322e-06	5.3354e-06	529.19	163.83	141.37	45.217	4.4905e-06	58.594	4.6039e-05	3.3029e-05	9.1559e-06	1262.6	3.8629e-07	3.6838e-07	1376.1	412.77	3.8962e-07	3.5976e-07	457.72	141.85	121.14	38.806	3.6605e-07	49.953	243.313	187.044	191.907	155.871	246.680	251.574	155.293	159.402	293.081	254.894	157.961	161.757	163.066	167.736	249.241	165.905	-8191	255	
44558.324	1	1	0	0	0.21624	0.15922	0.36204	0.078914	0.11752	0.061804	0.1905	0.15517	0.039991	0.12358	0.12571	0.21336	0.2169	0.16235	0.2158	0.20863	-4.0125	-4.8125	-3.8896	-4.8771	-4.5458	-3.9771	-5.1146	-4.45	-4.1917	-4.8396	-4.0417	-4.6312	-4.6	-3.9479	-4.8938	-4.2562	491.546	486.454	469.553	456.125	342.374	280.381	455.337	464.451	412.692	404.656	425.461	417.021	492.541	435.187	330.347	383.700	0.00056957	0.00033812	0.00012849	1402.6	2.9668e-06	3.5423e-06	1535.3	464.14	7.0514e-06	4.3688e-06	530.95	164.53	141.18	45.205	5.295e-06	59.548	4.4417e-05	3.3636e-05	9.1973e-06	1253.3	3.8507e-07	3.6178e-07	1372.7	412.17	3.9682e-07	3.5325e-07	458.22	142.35	121.06	38.909	3.7844e-07	50.371	240.455	177.437	210.639	156.077	250.755	237.737	155.097	159.377	292.088	290.424	157.791	162.047	162.960	167.586	237.035	166.025	-8191	255	
44558.422	1	1	0	0	0.070443	0.19065	0.14932	0.17757	0.18717	0.082915	0.39276	0.14238	0.13952	0.20538	0.14025	0.35348	0.17212	0.24418	0.20431	0.21972	-3.9604	-4.8625	-3.7667	-4.6542	-4.5646	-3.8021	-5.0417	-4.3438	-4.3479	-4.9708	-4.2083	-4.5417	-4.8333	-4.1458	-4.7375	-4.4792	475.996	393.394	254.534	198.855	347.403	346.612	471.549	427.295	208.441	190.552	154.959	165.827	162.146	421.411	185.295	253.939	0.00053153	0.00035973	8.4064e-05	1407.5	7.4479e-06	2.7614e-06	1554	467.58	6.8679e-06	3.6518e-06	532.18	165.18	140.26	45.116	2.7562e-06	59.781	4.6237e-05	3.2866e-05	9.1687e-06	1258.8	3.7768e-07	3.6564e-07	1381.6	412.64	3.9111e-07	3.5366e-07	461.12	142.76	120.8	39.036	3.6363e-07	50.883	244.684	194.584	207.494	156.057	238.486	295.491	155.084	159.622	279.901	265.334	157.964	161.976	163.501	167.694	259.054	166.153	-8191	255	
44558.520	1	1	0	0	0.29376	0.18031	0.14115	0.12004	0.11119	0.18838	0.21208	0.25559	0.079783	0.36091	0.1125	0.033047	0.16246	0.23016	0.066363	0.061816	-3.6729	-4.8583	-4.0417	-4.5104	-4.6917	-3.8479	-5.0521	-4.5208	-4.0875	-4.9146	-4.3979	-4.55	-5.0125	-4.0271	-4.6292	-4.7562	402.430	318.884	494.613	468.578	427.988	366.687	147.797	451.478	427.976	499.214	152.511	306.347	162.572	177.195	198.009	203.848	0.00053384	0.00031483	7.0967e-05	1412.6	4.6244e-06	4.0604e-06	1556	468.47	5.8036e-06	3.2246e-06	541.7	165.67	142.42	45.873	3.9522e-06	60.316	4.5145e-05	3.2521e-05	9.206e-06	1258.7	3.8691e-07	3.7058e-07	1388.1	414.2	3.8703e-07	3.5504e-07	464.74	143.55	121.62	39.369	3.791e-07	51.453	241.436	213.116	186.889	155.925	262.920	271.596	155.471	159.397	269.888	239.612	157.917	161.889	163.284	167.440	250.981	166.232	-8191	255	
44558.637	1	1	0	0	0.23013	0.1087	0.11945	0.29424	0.1063	0.047937	0.14826	0.0617	0.22953	0.13693	0.086462	0.16392	0.32398	0.15353	0.066915	0.067721	-3.8792	-4.7188	-4.1542	-4.3	-4.8479	-3.8854	-4.9958	-4.6375	-3.9542	-4.9563	-4.3854	-4.2646	-4.7708	-3.9979	-4.5687	-4.8146	201.405	201.493	452.740	413.970	305.928	376.646	186.024	435.264	443.426	225.709	222.131	447.069	432.214	500.902	324.537	495.926	0.00055187	0.00015618	0.00021946	1417.3	4.1389e-06	4.2094e-06	1569.2	467.61	5.1586e-06	3.5153e-06	543.44	166.06	141.01	45.78	5.2195e-06	59.365	4.5696e-05	3.3797e-05	9.2625e-06	1269.7	3.8497e-07	3.7398e-07	1400.9	414.67	3.924e-07	3.5233e-07	466.14	143.87	121.49	39.39	3.8858e-07	50.891	240.074	221.044	197.265	156.024	232.593	278.217	155.127	159.661	271.222	244.353	157.948	161.884	163.249	167.525	240.815	166.306	-8191	255	
44558.734	1	1	0	0	0.15624	0.17253	0.096796	0.090161	0.098193	0.058823	0.075088	0.12894	0.1968	0.10648	0.11161	0.15724	0.15971	0.284	0.12989	0.2675	-3.7687	-4.8396	-4.3208	-4.3271	-4.8375	-4.0167	-4.6771	-4.9187	-3.75	-4.875	-4.5542	-4.2229	-5.1146	-4.0312	-4.3979	-4.7396	384.028	377.485	493.333	297.725	162.944	212.086	226.441	457.973	409.655	404.848	422.308	144.134	454.990	444.063	373.028	482.053	0.00055461	0.00035464	0.00020231	1392	8.346e-06	2.5728e-06	1535.2	462.29	5.167e-06	3.3102e-06	528.02	162.21	138.67	44.879	4.1245e-06	58.619	4.602e-05	3.2241e-05	9.3363e-06	1249.9	3.8256e-07	3.6086e-07	1369.6	408.3	3.9579e-07	3.5773e-07	454.98	140.75	119.41	38.611	3.5847e-07	49.932	241.765	208.054	181.837	156.011	266.855	261.467	155.209	159.398	264.015	270.782	158.011	161.995	163.423	167.708	272.967	165.656	-8191	255	
44558.828	1	1	0	0	0.17915	0.10568	0.099697	0.21934	0.039826	0.13427	0.10765	0.18943	0.036343	0.2199	0.30546	0.22476	0.15165	0.28739	0.13708	0.2686	-3.7458	-4.8063	-4.3604	-4.1771	-4.8875	-4.1479	-4.5188	-4.9563	-3.8104	-4.7146	-4.6167	-4.0125	-4.8479	-4.1917	-4.3396	-4.9979	472.410	450.336	397.950	462.369	148.195	410.492	188.160	163.220	479.253	470.244	419.298	439.820	431.895	477.091	454.841	145.044	0.00056978	0.00031543	0.000154	1384.7	4.2071e-06	2.5832e-06	1529.8	460.24	5.479e-06	3.429e-06	525.58	163.06	139.3	44.965	3.6056e-06	58.812	4.604e-05	3.2383e-05	9.1676e-06	1240.9	3.8151e-07	3.676e-07	1363.2	406.08	3.7651e-07	3.4565e-07	453.51	140.55	119.63	38.631	3.6438e-07	50.084	246.375	203.008	194.609	155.958	243.763	256.895	155.072	159.662	290.580	259.815	158.025	161.782	163.228	167.682	239.289	166.178	-8191	255	
44558.902	1	1	0	0	0.10487	0.29292	0.14185	0.16388	0.085616	0.18959	0.038333	0.29759	0.17562	0.18088	0.19711	0.12421	0.28188	0.035058	0.11133	0.21975	-3.625	-4.5833	-4.5979	-4.1417	-4.8854	-4.2667	-4.3313	-5.1375	-4.0021	-4.5271	-4.7458	-4.2146	-4.9146	-4.3146	-4.1021	-4.8917	256.683	382.971	204.585	488.891	328.959	285.435	288.194	452.434	248.063	379.177	414.617	470.953	454.450	227.049	200.734	470.431	0.00059061	0.00042483	0.00011255	1396.3	3.2155e-06	3.3746e-06	1535.5	466.07	6.0681e-06	1.8451e-06	531.31	164.26	140.79	45.454	5.3787e-06	59.418	4.5311e-05	3.3529e-05	8.9692e-06	1249.9	3.6951e-07	3.727e-07	1372.9	411.97	3.8317e-07	3.5627e-07	459.45	142.27	121.03	39.15	3.7494e-07	50.674	239.447	168.378	186.382	156.234	222.640	305.149	155.119	159.417	268.931	290.548	158.068	161.962	163.231	167.625	232.653	165.871	-8191	255	
44559.023	1	1	0	0	0.12856	0.15639	0.057313	0.29987	0.2223	0.27695	0.27403	0.21385	0.32999	0.20759	0.021987	0.11794	0.25257	0.24404	0.088372	0.13844	-3.7188	-4.5375	-4.7438	-4.0604	-4.7063	-4.5333	-4.1896	-4.9167	-3.9958	-4.3125	-5.1021	-3.8958	-4.9458	-4.4083	-4.0479	-4.9521	423.561	352.089	201.269	486.936	320.065	155.095	488.365	354.365	415.129	270.756	472.427	293.912	493.846	145.474	440.013	422.435	0.00053312	0.0003542	8.8578e-05	1410.8	3.9462e-06	4.657e-06	1556.2	470.43	5.6593e-06	5.5546e-06	536.57	166.63	142.55	45.844	1.3943e-06	59.981	4.548e-05	3.2559e-05	9.2022e-06	1261.4	3.8366e-07	3.6733e-07	1386.5	415.24	4.0041e-07	3.5029e-07	464.24	143.89	122.13	39.345	3.667e-07	51.117	237.757	184.501	160.935	156.078	255.411	262.643	154.964	159.609	272.969	231.382	157.961	161.900	163.611	167.577	204.330	165.803	-8191	255	
44559.117	1	1	0	0	0.18325	0.050056	0.15926	0.30119	0.15112	0.15045	0.23666	0.33766	0.10086	0.21799	0.1027	0.038027	0.10822	0.25565	0.16934	0.16544	-3.7562	-4.3271	-4.8688	-4.0667	-4.6604	-4.4646	-4.1667	-5.0833	-3.9625	-4.2917	-4.9479	-4.0729	-4.6188	-4.6062	-3.8146	-4.9563	364.963	397.728	270.162	448.300	230.579	446.082	456.583	485.400	312.598	424.760	492.074	397.768	384.829	476.748	306.819	379.272	0.00060887	0.00043116	6.7838e-05	1422.5	5.3431e-06	3.9565e-06	1562.5	469.06	5.0795e-06	6.4138e-06	535.87	165.58	141.87	45.503	2.3408e-06	59.488	4.6322e-05	3.2912e-05	9.2128e-06	1266.8	3.817e-07	3.5896e-07	1392.8	415.3	3.8204e-07	3.6257e-07	464.16	143.48	121.6	39.253	3.7332e-07	50.893	244.479	191.299	193.784	156.277	244.298	256.007	155.187	159.312	286.739	256.467	157.972	161.670	163.022	167.463	244.430	165.789	-8191	255	
44559.215	1	1	0	0	0.15581	0.14509	0.014268	0.10902	0.17231	0.23537	0.067861	0.19141	0.10547	0.20936	0.11202	0.28045	0.29056	0.080288	0.13696	0.019414	-4.1	-4.3396	-4.8271	-4.0792	-4.5542	-4.7646	-4.1458	-5.0979	-4.3688	-4.1271	-5.0188	-4.0437	-4.6417	-4.7	-4.0292	-5.075	240.743	263.768	454.893	433.927	306.027	457.724	494.139	420.287	374.393	236.691	494.435	456.184	153.700	438.526	239.502	166.253	0.00056351	0.00047131	0.0001444	1403.2	2.0817e-06	5.1401e-06	1537	463.46	4.7451e-06	4.5837e-06	527.04	162.72	139.57	44.847	4.664e-06	58.677	4.5257e-05	3.3792e-05	8.9696e-06	1252.6	3.727e-07	3.6398e-07	1369.6	409.77	3.8318e-07	3.6595e-07	454.98	140.7	119.66	38.674	3.8324e-07	49.826	237.878	202.775	164.807	156.190	263.983	291.633	155.091	159.091	284.169	240.665	158.114	161.715	163.018	167.812	213.667	165.947	-8191	255	
44559.336	1	1	0	0	0.12146	0.042264	0.11476	0.28325	0.16157	0.15624	0.11058	0.12859	0.20522	0.097666	0.08987	0.2278	0.20544	0.30128	0.03322	0.19058	-4.0896	-3.9854	-4.8583	-4.2417	-4.3625	-4.7417	-4.225	-4.9854	-4.3354	-4.0604	-5.1104	-4.2146	-4.3854	-4.8604	-3.9417	-4.6042	446.168	365.172	359.536	452.437	335.572	201.651	235.673	465.088	240.830	308.568	446.669	454.673	407.497	460.765	204.619	445.543	0.00057973	0.0004214	0.00012665	1379.6	4.0046e-06	4.7207e-06	1510.2	456.09	5.0093e-06	5.1808e-06	518.05	161.25	138.42	44.949	4.0714e-06	58.763	4.4037e-05	3.3276e-05	8.6338e-06	1233.3	3.6812e-07	3.4436e-07	1348.3	402.16	3.7402e-07	3.5724e-07	450.18	139.42	118.41	38.584	3.7135e-07	50.03	241.240	225.113	170.290	155.915	239.534	316.180	155.200	159.596	272.531	256.378	157.901	162.040	163.011	167.897	246.448	166.037	-8191	255	
44559.430	1	1	0	0	0.07631	0.051394	0.086981	0.19596	0.036103	0.10721	0.057698	0.019154	0.10992	0.11402	0.083793	0.26513	0.080206	0.062127	0.19458	0.0487	-4.1917	-3.9396	-4.8792	-4.2292	-4.2979	-4.7229	-4.0104	-4.7917	-4.5771	-4.0312	-4.9875	-4.2125	-4.2312	-4.9958	-3.6562	-4.6771	155.809	357.441	449.994	435.246	293.838	244.448	208.518	166.279	384.089	165.585	179.048	467.805	293.899	337.529	154.866	213.528	0.00053308	0.00049786	0.00011269	1384.9	4.9291e-06	3.6312e-06	1530.2	462.92	6.9731e-06	3.5282e-06	528.1	163.94	141.33	45.227	3.2109e-06	59.495	4.3783e-05	3.3114e-05	8.8111e-06	1240.1	3.7509e-07	3.4965e-07	1365	409.03	3.8419e-07	3.5559e-07	458.29	142.1	120.84	39.091	3.8278e-07	50.697	239.682	174.927	180.608	156.132	249.076	268.427	155.339	159.234	289.796	286.967	157.884	161.836	163.396	167.598	286.448	165.960	-8191	255	
44559.527	1	1	0	0	0.15177	0.074196	0.11121	0.27487	0.078523	0.30607	0.129	0.089175	0.064658	0.11291	0.33774	0.26461	0.13414	0.25603	0.30569	0.091476	-4.3333	-3.8688	-4.6937	-4.4229	-4.0875	-4.8146	-4.425	-4.6396	-4.6958	-3.9625	-4.8	-4.4021	-4.1146	-4.9333	-4.0104	-4.5146	206.408	471.398	236.494	458.599	254.869	419.496	143.368	474.190	308.850	331.865	468.695	486.929	465.714	194.758	314.901	326.237	0.00059969	0.00032585	0.00017801	1418	3.8951e-06	3.287e-06	1561.1	473.5	4.3627e-06	3.0124e-06	542.16	166.81	143.32	45.853	4.4987e-06	60.084	4.4844e-05	3.4324e-05	9.267e-06	1267.6	3.9156e-07	3.568e-07	1392.4	417.71	3.868e-07	3.712e-07	467.35	144.6	123.01	39.681	3.7329e-07	51.282	245.904	195.888	189.493	156.387	264.211	273.200	155.156	159.557	276.371	231.263	158.024	161.767	163.020	167.692	253.278	166.094	-8191	255	
44559.625	1	1	0	0	0.24717	0.17603	0.1907	0.19992	0.064521	0.13133	0.15024	0.35637	0.17808	0.26448	0.15731	0.23824	0.078164	0.1491	0.17773	0.12197	-4.4896	-3.8438	-4.7146	-4.5292	-4.0062	-4.9625	-4.3875	-4.4458	-4.6292	-3.9521	-4.8958	-4.5458	-4.1167	-5.0271	-4.2646	-4.3333	164.533	163.479	268.574	438.910	467.372	386.036	466.441	453.883	465.396	345.843	439.850	381.792	358.722	438.336	413.192	447.782	0.00057621	0.00019696	8.8486e-05	1427.7	3.4356e-06	5.0662e-06	1573	471.88	4.9637e-06	4.4749e-06	542.14	166.39	141.55	45.657	3.6139e-06	60.117	4.604e-05	3.4004e-05	9.3125e-06	1276.2	3.9704e-07	3.5927e-07	1400.6	417.42	3.8749e-07	3.6096e-07	465.97	143.91	121.89	39.315	3.7523e-07	50.97	240.579	174.451	176.505	156.277	240.255	279.423	155.207	159.379	267.269	262.000	157.549	161.938	163.308	167.691	246.829	165.859	-8191	255	
44559.719	1	1	0	0	0.11761	0.088249	0.096481	0.12724	0.18531	0.20086	0.1113	0.1542	0.036289	0.10498	0.17802	0.1788	0.16094	0.022557	0.13788	0.20319	-4.5042	-3.9062	-4.7833	-4.8313	-3.9562	-4.8104	-4.4938	-4.3875	-4.9833	-4.0646	-4.6646	-4.675	-4.1375	-5.0167	-4.35	-4.2188	175.769	386.752	490.230	436.431	268.659	226.061	382.865	390.268	250.137	159.754	148.959	486.442	435.809	405.041	302.109	176.888	0.00055288	0.00047253	0.00017623	1406.7	3.76e-06	3.2534e-06	1543	463.96	4.9876e-06	4.2409e-06	525.18	163.15	140.61	45.076	4.2583e-06	57.972	4.5597e-05	3.4247e-05	8.982e-06	1254.3	3.8256e-07	3.4505e-07	1373.1	410.76	3.7827e-07	3.6647e-07	455.17	141.14	120.37	38.718	3.7654e-07	49.541	242.343	214.757	164.392	156.027	239.043	268.334	155.429	159.109	243.488	253.106	157.818	161.984	163.299	167.854	269.549	166.056	-8191	255	
44559.812	1	1	0	0	0.18756	0.10725	0.12265	0.34739	0.060691	0.20459	0.063735	0.2605	0.12271	0.17734	0.22908	0.077099	0.20184	0.18388	0.40426	0.19392	-4.5646	-3.9521	-4.4812	-4.8604	-3.9188	-4.8854	-4.6396	-4.3167	-4.8688	-4.0625	-4.5354	-4.7708	-3.9437	-4.7771	-4.5312	-4.25	251.475	443.216	341.110	481.661	270.506	369.050	456.688	402.009	464.096	461.347	160.293	383.107	180.882	179.767	497.678	235.858	0.00058984	0.00038205	0.00016764	1399.9	5.5349e-06	5.0296e-06	1525.3	463.86	5.8281e-06	2.0141e-06	527.35	162.73	141.58	45.133	3.3876e-06	58.754	4.4411e-05	3.39e-05	9.2305e-06	1247.7	3.8215e-07	3.6273e-07	1361.5	410.2	3.8016e-07	3.5145e-07	454.55	141.25	120.89	38.899	3.6837e-07	50.033	240.701	211.943	196.839	156.389	251.633	241.406	155.378	159.221	273.476	261.030	157.821	162.087	163.188	167.412	256.393	166.202	-8191	255	
44559.934	1	1	0	0	0.27444	0.12936	0.096991	0.1246	0.11751	0.21263	0.30638	0.22725	0.022785	0.055953	0.23096	0.26444	0.14565	0.3002	0.19294	0.2702	-4.6417	-4.0396	-4.2792	-4.8375	-4.0479	-4.825	-4.5729	-4.3667	-5.0687	-4.1396	-4.3146	-4.7896	-3.8208	-4.7292	-4.5083	-3.9396	162.680	408.826	477.435	426.388	427.859	193.457	456.144	493.336	185.675	233.371	468.627	490.045	495.751	174.355	376.079	327.343	0.0005825	0.00045057	0.00017789	1398.5	4.7541e-06	2.897e-06	1530.8	465.47	4.6691e-06	3.2488e-06	531.44	164.4	141.63	45.861	3.8271e-06	59.599	4.501e-05	3.3057e-05	9.247e-06	1247.7	3.7999e-07	3.4785e-07	1368.3	411.93	3.6906e-07	3.5752e-07	459.62	142.59	121.73	39.383	3.6648e-07	50.652	242.747	191.077	206.188	156.199	277.036	268.227	155.213	159.354	303.399	271.656	157.766	161.806	163.163	167.751	264.007	166.074	-8191	255	
44560.031	1	1	0	0	0.044602	0.15582	0.061032	0.27349	0.11959	0.12616	0.16597	0.3673	0.18348	0.24052	0.22604	0.1694	0.39542	0.11096	0.02189	0.12415	-4.4917	-4.2375	-4.25	-5.1021	-4.0271	-4.4979	-4.8646	-4.15	-4.7812	-4.3313	-4.2646	-5.1354	-4.1062	-4.5896	-4.7583	-3.9604	272.973	317.653	448.612	476.374	369.469	329.098	149.601	452.332	213.141	269.321	479.302	428.284	493.055	389.135	282.900	400.247	0.00058118	0.00041551	0.00013127	1398.5	4.1117e-06	3.5883e-06	1541.7	469.31	5.3483e-06	7.3889e-06	533.01	165.1	140.44	45.464	4.5338e-06	59.758	4.5132e-05	3.3015e-05	9.0964e-06	1253.8	3.6668e-07	3.5559e-07	1375.3	412.4	3.6259e-07	3.5089e-07	459.44	142.37	120.77	39.233	3.5822e-07	50.974	238.436	200.091	143.517	156.233	273.424	270.689	155.080	159.369	280.817	253.117	157.934	161.753	163.323	167.453	227.945	165.900	-8191	255	
44560.129	1	1	0	0	0.038119	0.043994	0.14517	0.154	0.25884	0.13963	0.23958	0.14587	0.28033	0.054333	0.24298	0.034766	0.28126	0.14058	0.12007	0.16376	-4.6042	-4.4625	-4.0875	-5.1604	-4.0312	-4.4062	-4.9938	-4.2042	-4.7562	-4.3708	-4.1937	-5.125	-4.2958	-4.5292	-4.7979	-3.9146	163.121	418.498	404.299	142.458	351.591	435.159	398.448	379.109	493.319	293.753	436.791	488.538	469.040	456.784	480.264	249.567	0.00058026	0.00039505	0.00013216	1389.4	5.4245e-06	4.223e-06	1549.6	462.65	6.9281e-06	4.1092e-06	533.84	165.01	140.39	45.58	5.2909e-06	59.42	4.4026e-05	3.1937e-05	8.758e-06	1246.5	3.6919e-07	3.4892e-07	1377.8	409.61	3.7369e-07	3.4672e-07	459.73	142.25	120.22	39.163	3.6886e-07	50.774	242.013	198.142	187.890	156.362	266.306	252.787	155.462	159.459	274.131	239.684	157.648	162.252	163.075	167.775	244.621	166.232	-8191	255	
44560.199	1	1	0	0	0.058303	0.11612	0.13328	0.35385	0.27498	0.060016	0.26125	0.21862	0.072493	0.15108	0.17536	0.21445	0.04469	0.28477	0.1119	0.11886	-4.3646	-4.5083	-3.9375	-5.1271	-4.05	-4.3396	-4.9688	-4.0979	-4.6375	-4.6	-4.0604	-5.0458	-4.2292	-4.1937	-4.8083	-3.9896	431.805	464.101	304.056	482.745	448.554	287.400	401.905	432.575	181.752	330.547	367.548	184.767	488.945	436.782	237.254	261.178	0.00053708	0.00041332	0.00016034	1405.6	6.4364e-06	1.3921e-06	1541.9	463.95	4.9539e-06	3.1074e-06	529.76	163.47	140.12	44.562	6.0743e-06	57.813	4.362e-05	3.232e-05	8.9801e-06	1252.8	3.7452e-07	3.5193e-07	1371.7	411.47	3.7166e-07	3.4679e-07	457.01	140.96	120.3	38.447	3.6007e-07	49.387	245.600	176.386	177.503	156.147	249.489	331.313	155.103	159.356	258.929	236.405	158.169	161.828	163.219	167.616	227.005	166.292	-8191	255	
44560.320	1	1	0	0	0.15422	0.20012	0.085706	0.22292	0.10984	0.26832	0.22596	0.16612	0.090707	0.083616	0.31353	0.15482	0.049376	0.042236	0.2374	0.20235	-4.3167	-4.5563	-3.9104	-4.9042	-4.2854	-4.2188	-5.1583	-4.1792	-4.5104	-4.5604	-4.0312	-5.0354	-4.7271	-4.1917	-4.85	-4.1375	346.392	413.135	482.359	459.970	429.542	346.541	461.843	411.229	377.217	258.112	479.047	484.061	481.442	183.782	149.074	483.648	0.00052111	0.00028408	0.00014529	1386	3.5382e-06	4.6747e-06	1508.7	461.93	4.4892e-06	3.8152e-06	520.86	160.97	139.71	44.716	4.1223e-06	58.091	4.3945e-05	3.1152e-05	8.6978e-06	1237.9	3.5036e-07	3.4042e-07	1348.4	407.57	3.5831e-07	3.3713e-07	450.5	139.92	119.68	38.415	3.4284e-07	49.363	244.076	170.978	182.101	156.063	259.730	288.393	155.294	159.517	265.778	242.483	157.797	161.713	163.298	167.624	245.378	165.961	-8191	255	
44560.414	1	1	0	0	0.18578	0.18348	0.28194	0.086184	0.23213	0.15182	0.15258	0.084756	0.078655	0.16852	0.11511	0.22091	0.17986	0.12394	0.047604	0.2553	-4.1229	-4.775	-3.925	-5.1104	-4.4396	-3.9125	-5.0583	-4.1813	-4.2958	-4.7396	-4.075	-4.7438	-4.6292	-3.9146	-4.8333	-4.1917	164.477	354.561	383.448	408.747	420.542	336.705	467.081	144.573	481.448	240.919	441.167	488.201	476.876	214.757	181.271	307.181	0.00054762	0.00045159	0.00020586	1392.2	5.431e-06	4.4713e-06	1524.1	461.05	5.1426e-06	2.9104e-06	526.88	162.44	140.59	44.938	4.7208e-06	58.277	4.3774e-05	3.1769e-05	9.0603e-06	1243.4	3.7238e-07	3.4579e-07	1357.7	409.99	3.6166e-07	3.4169e-07	455.31	140.94	120.65	38.66	3.575e-07	49.762	238.433	170.840	183.124	156.097	242.511	256.306	155.308	159.356	258.302	250.093	158.077	161.756	163.002	167.489	257.536	166.060	-8191	255	
44560.512	1	1	0	0	0.13341	0.079392	0.17341	0.11337	0.18949	0.43603	0.17277	0.34272	0.095605	0.18209	0.16083	0.035733	0.20413	0.21403	0.26874	0.18534	-4.0062	-4.7979	-3.8792	-4.6896	-4.4917	-4.0417	-5.2125	-4.2979	-4.0542	-4.8042	-4.1646	-4.5271	-4.8396	-3.9313	-4.7833	-4.3562	415.014	340.324	156.726	191.777	306.750	141.800	424.627	458.034	276.547	282.551	465.536	389.047	483.491	356.151	435.689	352.182	0.00056289	0.00027427	0.00016799	1401.3	4.3142e-06	5.2037e-06	1541.4	469.22	5.7576e-06	2.8451e-06	530.06	166.19	141.35	45.307	3.4889e-06	59.752	4.5015e-05	3.0998e-05	8.5536e-06	1253.8	3.647e-07	3.4933e-07	1374.2	414.02	3.7502e-07	3.4572e-07	459.25	142.85	121.82	39.096	3.4868e-07	50.624	242.264	191.783	179.811	156.017	210.686	277.641	154.994	159.370	263.389	257.644	157.917	161.937	163.061	167.442	213.931	165.764	-8191	255	
44560.609	1	1	0	0	0.31974	0.17545	0.26088	0.14539	0.35079	0.16805	0.14608	0.1753	0.13025	0.32969	0.20549	0.13155	0.19396	0.055085	0.17685	0.15293	-3.875	-4.7458	-3.9771	-4.7979	-4.6771	-3.8875	-4.8854	-4.3917	-4.0833	-4.8271	-4.3104	-4.4812	-4.7854	-3.8688	-4.7188	-4.3979	185.128	226.085	328.288	161.177	391.176	472.881	435.534	404.766	328.285	482.002	421.799	144.496	144.067	366.939	391.156	192.998	0.00058526	0.00043961	0.00015536	1413.1	5.2386e-06	4.1131e-06	1559.2	471.26	5.7563e-06	3.6187e-06	538	166.65	142.59	45.59	4.0145e-06	59.944	4.5574e-05	3.2646e-05	9.1665e-06	1266	3.7934e-07	3.447e-07	1388.8	417.63	3.8298e-07	3.5357e-07	464.94	143.99	122.51	39.302	3.6538e-07	50.981	239.303	205.347	172.558	155.952	260.880	281.438	155.453	159.157	271.928	247.112	157.887	161.789	163.056	167.698	248.770	165.842	-8191	255	
44560.727	1	1	0	0	0.10134	0.11959	0.14823	0.14311	0.12759	0.17799	0.29125	0.14348	0.1909	0.079375	0.36192	0.10223	0.21597	0.093925	0.033874	0.088728	-3.5938	-4.8833	-4.0042	-4.4938	-4.6625	-3.9125	-4.9729	-4.6458	-3.9354	-4.8104	-4.3104	-4.3688	-4.9313	-4.0021	-4.6583	-4.6104	402.092	455.237	488.398	472.437	231.460	201.860	362.854	154.926	355.230	244.763	361.396	408.592	488.029	220.657	491.342	425.513	0.00060739	0.00024546	0.00013589	1407.4	3.6839e-06	5.2087e-06	1544.3	467.36	4.8144e-06	5.2664e-06	532.56	164.76	140.11	44.835	4.024e-06	58.257	4.5963e-05	3.1692e-05	9.1036e-06	1262.2	3.7239e-07	3.7187e-07	1377.4	414.03	3.69e-07	3.4141e-07	459.35	141.98	120.46	38.665	3.6117e-07	49.758	244.381	182.632	210.214	156.070	265.305	289.062	155.384	159.240	282.175	238.766	157.482	161.711	163.353	167.585	267.350	165.587	-8191	255	
44560.797	1	1	0	0	0.076958	0.16531	0.097777	0.21779	0.095578	0.15091	0.11411	0.043224	0.081844	0.09871	0.19495	0.10871	0.41204	0.13614	0.1464	0.26807	-3.5479	-4.8083	-4.2083	-4.45	-4.9354	-3.9396	-4.6354	-4.7896	-3.8729	-4.8187	-4.3354	-4.1	-4.9854	-3.8958	-4.3771	-4.775	284.696	205.040	379.133	487.658	303.114	501.347	433.177	258.196	385.927	483.325	436.819	468.306	211.575	151.469	219.286	385.647	0.00055276	0.00025635	8.6845e-05	1388.7	4.4883e-06	3.2913e-06	1519.3	460.86	5.703e-06	4.4422e-06	526.05	162.1	139.73	44.668	3.6604e-06	58.69	4.4336e-05	3.1271e-05	9.0588e-06	1242.1	3.5747e-07	3.4702e-07	1354.3	408.3	3.7934e-07	3.4454e-07	453.38	140.18	119.5	38.577	3.5394e-07	49.843	244.914	169.177	163.496	156.099	261.444	255.848	155.035	159.561	284.135	273.710	158.007	161.923	163.578	167.819	239.842	166.041	-8191	255	
44560.895	1	1	0	0	0.13313	0.12453	0.35943	0.09989	0.17613	0.15244	0.080924	0.065602	0.15494	0.032176	0.33692	0.20069	0.21257	0.17408	0.17587	0.21844	-3.7708	-4.9313	-4.3708	-4.25	-4.8604	-3.9521	-4.6792	-4.8521	-3.9062	-4.8083	-4.5292	-4.0188	-4.9313	-4.1917	-4.2125	-4.7646	164.570	315.392	430.295	450.400	264.061	233.479	351.413	455.956	163.897	462.141	377.938	203.185	476.431	487.884	178.156	377.879	0.00059549	0.00059587	0.00015529	1389.3	4.1895e-06	3.0623e-06	1524	464.18	4.6694e-06	2.7595e-06	530.57	164.04	140.61	45.204	4.0717e-06	59.076	4.4094e-05	3.1543e-05	8.8393e-06	1241.5	3.6185e-07	3.4426e-07	1362.4	410.37	3.7362e-07	3.39e-07	457.79	141.82	120.72	38.908	3.5547e-07	50.422	243.801	232.393	195.221	155.998	246.194	256.549	155.078	159.419	280.721	236.473	157.791	161.947	163.318	167.454	248.532	165.922	-8191	255	
44561.016	1	1	0	0	0.10824	0.085525	0.15497	0.19532	0.1284	0.074018	0.17394	0.23525	0.23588	0.29584	0.1201	0.13242	0.16627	0.24458	0.089289	0.092034	-3.6208	-4.6687	-4.5813	-4.1375	-4.8917	-4.1354	-4.45	-4.9229	-3.8812	-4.7271	-4.725	-4.025	-4.9979	-4.2417	-4.1354	-4.9833	498.935	340.729	147.323	464.992	237.082	431.888	395.666	469.691	142.004	148.754	393.934	224.458	383.424	201.721	240.734	388.344	0.00057319	0.0003903	0.00013738	1406.7	3.3871e-06	2.2982e-06	1548.7	468.51	6.9923e-06	4.7367e-06	540.15	165.21	141.4	45.713	4.7103e-06	60.191	4.4894e-05	3.1699e-05	8.79e-06	1255.4	3.6331e-07	3.5356e-07	1377.6	413.46	3.8649e-07	3.4663e-07	463.79	143.21	121.68	39.291	3.6208e-07	51.275	244.440	202.189	214.086	155.977	226.182	272.063	154.873	159.514	272.108	240.827	158.297	161.823	163.149	167.646	262.204	166.288	-8191	255	
44561.109	1	1	0	0	0.29438	0.35606	0.074325	0.082542	0.14139	0.11429	0.18519	0.054224	0.0030556	0.14095	0.25793	0.15555	0.14976	0.19442	0.18135	0.1943	-3.6063	-4.5396	-4.6146	-4.1375	-4.9667	-4.2188	-4.4167	-5.1146	-4.0229	-4.3896	-4.925	-4.075	-4.9333	-4.5062	-4.1042	-4.8938	352.013	348.452	155.092	468.841	248.659	494.985	397.582	467.304	200.499	306.479	169.826	454.911	436.891	488.794	462.933	465.789	0.00059719	0.00030826	0.00016831	1418	3.9897e-06	2.1634e-06	1559.3	472.32	5.5008e-06	3.8516e-06	540.6	167.32	143.25	45.65	4.5337e-06	60.646	4.5569e-05	3.1692e-05	9.0004e-06	1263.8	3.6491e-07	3.6413e-07	1394.4	417.38	3.7568e-07	3.5875e-07	467.46	144.74	122.7	39.507	3.7592e-07	51.692	244.024	183.547	185.734	156.182	245.316	297.268	154.868	159.536	277.051	254.089	158.147	162.126	162.782	167.242	246.118	165.952	-8191	255	
44561.207	1	1	0	0	0.085067	0.066399	0.12169	0.37631	0.22004	0.12922	0.20465	0.14708	0.048417	0.14012	0.36157	0.16676	0.36586	0.061974	0.24053	0.093601	-3.8167	-4.3896	-4.5813	-4.1646	-4.7688	-4.5021	-4.2688	-5.0458	-4.0271	-4.4333	-4.8562	-4.1375	-4.7604	-4.5458	-4.0687	-4.9625	344.989	455.168	444.011	471.114	456.015	373.310	393.437	181.201	321.401	425.654	401.136	340.779	407.285	171.897	456.076	287.340	0.00058241	0.00033255	0.0001435	1417.5	3.3214e-06	4.8595e-06	1556.5	471.65	5.9409e-06	4.7303e-06	533.4	164.57	140.96	45.611	5.289e-06	59.589	4.4533e-05	3.2593e-05	9.0957e-06	1264.8	3.6096e-07	3.5123e-07	1388.1	416.17	3.6976e-07	3.5117e-07	463.48	142.77	120.92	39.142	3.6584e-07	50.599	237.175	218.883	194.331	155.815	274.694	291.769	155.032	159.203	299.551	249.662	158.025	161.744	163.288	167.736	260.221	166.427	-8191	255	
44561.305	1	1	0	0	0.18892	0.079994	0.10708	0.27153	0.080635	0.21463	0.22687	0.19669	0.19392	0.1186	0.36126	0.19816	0.1033	0.10884	0.062211	0.065751	-3.9479	-4.1104	-4.9083	-4.0875	-4.6479	-4.5875	-4.2167	-4.95	-4.1417	-4.2146	-5.0167	-3.9562	-4.4708	-4.5917	-3.8563	-4.9708	249.222	486.298	458.921	435.478	286.873	158.754	387.854	484.958	168.300	496.260	424.883	179.144	145.613	425.440	316.090	169.506	0.0005612	0.00046149	0.00011574	1385.4	5.4859e-06	2.8679e-06	1526.9	462.08	5.8923e-06	6.3166e-06	526.33	161.56	138.95	45.214	4.137e-06	58.715	4.3694e-05	3.303e-05	8.9319e-06	1240.7	3.6362e-07	3.4776e-07	1357.6	408.04	3.6954e-07	3.448e-07	454.59	140.11	119.67	38.775	3.6822e-07	50.146	243.468	199.130	198.611	155.940	222.296	273.829	155.095	159.527	287.715	247.312	157.979	161.885	163.092	167.677	247.055	165.906	-8191	255	
44561.426	1	1	0	0	0.13428	0.19879	0.13771	0.058004	0.11973	0.048422	0.097142	0.1131	0.10978	0.20176	0.11799	0.23954	0.12934	0.083613	0.24013	0.10634	-3.8563	-4.1521	-5.0271	-4.1625	-4.3833	-4.6479	-4.1542	-4.7792	-4.3042	-3.9875	-4.9563	-4.0104	-4.5312	-4.7812	-3.8688	-4.8146	327.823	181.246	469.804	424.577	198.166	347.477	492.270	404.998	206.494	283.981	157.427	434.779	205.373	462.122	275.183	415.556	0.00054142	0.00038133	0.00017691	1386.3	4.3695e-06	4.4542e-06	1527.8	463.43	3.403e-06	3.8177e-06	530.65	163.21	140.39	45.217	4.0707e-06	59.149	4.4597e-05	3.2869e-05	8.7934e-06	1241.1	3.7275e-07	3.5021e-07	1360.6	409.73	3.7152e-07	3.4872e-07	457.77	141.22	120.56	39.038	3.7954e-07	50.502	238.745	168.641	185.063	156.209	274.167	259.682	155.010	159.437	270.747	244.694	157.955	161.834	163.195	167.456	228.830	165.990	-8191	255	
44561.496	1	1	0	0	0.11705	0.12672	0.13099	0.11412	0.14887	0.13806	0.21827	0.016276	0.16371	0.09278	0.19909	0.22783	0.11156	0.36366	0.23642	0.11981	-4.325	-4.1062	-4.8479	-4.3375	-4.3771	-4.7542	-4.0542	-4.8667	-4.3812	-4.0271	-4.9896	-4.3187	-4.3646	-4.7333	-3.8458	-4.8	500.369	155.648	143.297	423.500	173.437	336.116	420.539	288.216	497.994	280.681	458.612	154.050	272.342	173.846	453.011	476.955	0.00058082	0.00043412	9.0545e-05	1393.4	5.4639e-06	4.6476e-06	1539.2	466.9	5.9783e-06	2.6754e-06	533.4	165.65	141.71	45.593	4.4976e-06	60.472	4.5597e-05	3.2765e-05	8.9839e-06	1250.2	3.6944e-07	3.5687e-07	1369.9	412.39	3.7703e-07	3.5202e-07	460.82	142.61	121.43	39.335	3.5652e-07	51.17	240.777	195.180	202.376	156.134	255.986	279.728	154.941	159.117	292.037	259.329	157.849	161.946	163.167	167.741	230.609	165.954	-8191	255	
44561.617	1	1	0	0	0.034277	0.10563	0.13783	0.057377	0.15831	0.12556	0.31085	0.18323	0.30476	0.16124	0.3201	0.20754	0.13462	0.24187	0.020439	0.16546	-4.2104	-3.9792	-4.8708	-4.4458	-4.1667	-4.8333	-4.1708	-4.6521	-4.7479	-3.9979	-4.8521	-4.3417	-4.2708	-5.0792	-3.8875	-4.5188	160.373	393.163	405.133	441.383	289.547	376.622	480.341	433.795	463.386	474.891	493.902	444.336	158.693	407.309	243.366	433.780	0.00057228	0.00051407	0.00017545	1413.1	4.6987e-06	3.405e-06	1563.7	473.23	4.254e-06	3.5551e-06	537.81	167.87	143.29	46.081	4.3242e-06	60.583	4.5541e-05	3.3814e-05	9.1668e-06	1262.1	3.8537e-07	3.4746e-07	1389.1	417.62	3.7921e-07	3.6472e-07	466.34	144.85	123.38	39.794	3.703e-07	51.627	240.795	202.516	197.885	156.132	237.820	297.766	155.429	159.308	296.755	252.519	157.686	161.720	163.036	167.665	255.964	165.778	-8191	255	
44561.711	1	1	0	0	0.080095	0.16035	0.058455	0.10314	0.13291	0.23727	0.33051	0.2527	0.161	0.14256	0.16198	0.19178	0.27578	0.20639	0.071765	0.11277	-4.4563	-4.0333	-4.8688	-4.5708	-4.1146	-4.9583	-4.3104	-4.5021	-4.7583	-3.9979	-4.8208	-4.4458	-4.0938	-4.9688	-3.9271	-4.4042	466.754	404.866	396.986	280.695	498.141	383.517	499.244	483.883	498.342	330.445	429.930	393.927	494.078	400.652	451.319	465.281	0.00054407	0.00042275	6.0031e-05	1427.3	5.0939e-06	3.7883e-06	1558.1	473.87	6.9828e-06	5.6147e-06	535.48	165.39	141.44	45.541	5.0645e-06	59.007	4.5618e-05	3.4027e-05	8.7682e-06	1272.8	3.8005e-07	3.5212e-07	1391.5	417.79	3.814e-07	3.6599e-07	462.38	143	121.54	39.183	3.5802e-07	50.285	240.738	184.537	251.458	156.137	217.004	294.338	155.297	159.554	275.664	261.880	158.014	161.794	163.140	167.520	240.973	165.624	-8191	255	
44561.809	1	1	0	0	0.19089	0.24174	0.18083	0.23965	0.16131	0.13484	0.18806	0.39733	0.2182	0.221	0.060973	0.03614	0.073197	0.16335	0.23338	0.18177	-4.4479	-3.8063	-4.6521	-4.7312	-4.0354	-4.8521	-4.3333	-4.3583	-4.7958	-3.8729	-4.7604	-4.65	-4.1396	-4.8458	-4.2271	-4.3125	476.837	215.325	280.237	479.076	403.852	304.226	441.170	420.433	397.376	150.019	297.335	452.943	362.935	422.258	288.684	178.412	0.00055053	0.00048951	0.00013124	1391.1	5.8852e-06	3.6418e-06	1519.3	462.57	4.7415e-06	2.9009e-06	521.96	162.8	139.06	44.655	4.2062e-06	58.185	4.3732e-05	3.3613e-05	8.8849e-06	1242.1	3.6467e-07	3.4929e-07	1350.3	408.12	3.555e-07	3.4537e-07	451.52	140.34	119.78	38.588	3.6296e-07	49.734	243.270	174.761	166.799	156.263	259.495	267.635	155.121	159.420	275.726	244.583	157.800	161.797	162.884	167.720	242.549	165.634	-8191	255	
44561.902	1	1	0	0	0.057564	0.18688	0.051664	0.24092	0.14759	0.067983	0.29341	0.28562	0.15249	0.090135	0.30091	0.1459	0.037615	0.26429	0.05025	0.42524	-4.4479	-4.0062	-4.6083	-4.8792	-4.0083	-4.8042	-4.45	-4.4062	-4.9083	-4.0167	-4.7208	-4.8833	-4.0625	-4.9229	-4.4146	-4.2833	290.975	498.438	293.218	471.726	169.534	418.805	387.451	451.614	222.441	498.564	478.542	150.031	420.974	180.580	308.512	457.895	0.00055043	0.00033026	0.00013075	1384.7	5.689e-06	5.0116e-06	1513.9	460.44	6.4418e-06	2.3557e-06	523.58	163.1	140.33	45.032	5.8942e-06	59.133	4.308e-05	3.3379e-05	8.9428e-06	1238.8	3.6907e-07	3.484e-07	1351.7	407.39	3.6908e-07	3.6222e-07	452.54	140.38	120.04	38.775	3.6792e-07	50.048	243.505	212.498	181.564	156.293	265.944	271.173	155.418	159.334	273.713	292.122	157.641	162.221	163.097	167.680	226.877	165.853	-8191	255	
44562.023	1	1	0	0	0.14601	0.19432	0.15003	0.36403	0.23111	0.018839	0.19156	0.21509	0.3035	0.24647	0.34522	0.34466	0.14148	0.16023	0.16632	0.11104	-4.6687	-4.2146	-4.2521	-4.7937	-3.9417	-4.7958	-4.7104	-4.2562	-4.9625	-4.0396	-4.4667	-4.95	-4.15	-4.6854	-4.5188	-4.1188	400.195	212.368	467.412	490.798	209.382	163.971	453.237	456.930	266.146	369.827	452.853	470.585	402.192	446.683	193.633	341.850	0.00054148	0.0003642	0.00016756	1399.7	3.511e-06	4.6767e-06	1531	463.91	7.484e-06	2.7932e-06	530.38	164.94	142.23	45.433	4.9869e-06	59.377	4.4833e-05	3.2412e-05	9.0426e-06	1247.2	3.7318e-07	3.4689e-07	1366.9	411.07	3.7034e-07	3.521e-07	458.58	142.25	121.28	39.043	3.5544e-07	50.556	238.905	203.536	186.069	156.234	261.475	282.034	155.437	159.436	267.852	215.366	157.656	161.864	162.598	166.755	251.448	165.933	-8191	255	
44562.094	1	1	0	0	0.27445	0.13153	0.19055	0.090357	0.060465	0.14129	0.34047	0.17627	0.2282	0.14694	0.3367	0.078307	0.22086	0.16552	0.11675	0.30369	-4.7146	-4.2417	-4.2167	-4.9271	-3.8917	-4.7063	-4.8104	-4.0896	-4.7104	-4.2312	-4.2292	-4.9417	-4.0771	-4.5854	-4.6583	-3.9437	409.781	235.634	237.873	390.180	353.521	411.417	405.012	402.525	375.829	243.208	497.268	184.141	376.249	399.190	144.390	405.358	0.00056489	0.00042828	0.00011019	1404.6	3.1152e-06	3.5741e-06	1546	468.27	8.4467e-06	3.1587e-06	540.03	166.68	142.55	45.814	4.6674e-06	59.89	4.4281e-05	3.3778e-05	9.0249e-06	1257.5	3.7665e-07	3.4758e-07	1378.2	413.33	3.5866e-07	3.4798e-07	461.93	143.17	121.65	39.314	3.6508e-07	51.039	243.110	176.179	188.122	156.271	226.921	285.765	155.307	158.972	275.113	237.538	157.510	161.391	162.490	166.979	239.054	165.244	-8191	255	
44562.191	1	1	0	0	0.15226	0.042097	0.06698	0.10393	0.16147	0.23443	0.21501	0.40752	0.11103	0.11858	0.15274	0.36154	0.20244	0.15265	0.16982	0.09534	-4.5437	-4.4	-4.1083	-4.9833	-3.9229	-4.5979	-4.9042	-4.0375	-4.7688	-4.3667	-4.0979	-4.9771	-4.0292	-4.5021	-4.7542	-3.95	478.275	161.135	360.856	483.307	224.688	439.702	375.226	455.944	264.983	151.891	409.428	417.656	166.540	439.602	159.848	369.162	0.00057215	0.00037842	0.00015106	1420	3.4274e-06	3.5428e-06	1559.7	471.73	5.3266e-06	3.7997e-06	537.76	166	143.13	45.459	5.6969e-06	59.197	4.5598e-05	3.2956e-05	9.0001e-06	1265.1	3.8403e-07	3.587e-07	1384.7	416.19	3.6915e-07	3.5353e-07	462	142.89	121.8	39.063	3.6458e-07	50.215	245.913	187.359	178.896	155.671	228.091	271.829	154.723	158.650	268.795	267.457	157.220	161.584	162.455	166.910	260.585	165.260	-8191	255	
44562.289	1	1	0	0	0.18596	0.35549	0.15944	0.14003	0.14997	0.1766	0.15087	0.22534	0.19168	0.11016	0.17994	0.18888	0.1636	0.026359	0.066443	0.068786	-4.1771	-4.3208	-4.0062	-5.0354	-4.1667	-4.35	-4.9104	-4.0854	-4.5646	-4.6625	-4.0312	-5.1854	-4.2417	-4.3187	-4.8063	-4.0375	317.247	200.015	166.489	458.666	215.766	141.643	494.110	477.989	325.858	171.523	492.746	151.474	447.698	257.896	142.677	442.874	0.00057802	0.00042907	0.00015737	1402.2	5.2458e-06	6.6934e-07	1533.6	467.06	3.2666e-06	5.4737e-06	530.92	163.52	140.97	44.911	4.1041e-06	58.513	4.4591e-05	3.2678e-05	9.3167e-06	1251.1	3.6167e-07	3.3838e-07	1363.8	411.15	3.6827e-07	3.4893e-07	455.48	140.76	120.59	38.638	3.6146e-07	49.786	241.575	198.820	206.238	155.794	253.163	298.417	154.607	158.765	278.998	240.294	157.805	161.404	162.505	167.001	252.702	165.448	-8191	255	
44562.383	1	1	0	0	0.20116	0.10142	0.23208	0.29681	0.15392	0.29811	0.25613	0.12775	0.093421	0.16882	0.17934	0.27413	0.47601	0.13625	0.058153	0.23472	-4.2937	-4.4896	-3.9562	-5.1333	-4.3125	-4.0813	-5.2333	-4.2479	-4.4917	-4.7333	-3.9854	-4.8292	-4.2729	-4.0687	-4.7542	-4.0312	335.373	141.764	320.979	147.239	381.368	433.223	427.580	464.224	395.025	340.232	382.067	463.228	467.629	345.814	257.572	474.869	0.0005225	0.0004169	0.00017638	1401.3	4.9131e-06	4.3317e-06	1530.6	466.72	5.9737e-06	2.5986e-06	527.78	163.81	141.66	45.053	4.6242e-06	59.158	4.4037e-05	3.214e-05	9.1296e-06	1248.9	3.7658e-07	3.5825e-07	1364.4	411.39	3.7651e-07	3.3737e-07	456.8	141.39	120.98	38.824	3.6167e-07	50.292	239.727	172.334	179.130	155.868	282.794	277.382	154.981	159.063	289.253	302.593	157.861	161.592	163.185	167.555	254.555	165.943	-8191	255	
44562.504	1	1	0	0	0.049602	0.23396	0.18757	0.25478	0.12937	0.16994	0.29141	0.2612	0.17937	0.15306	0.35197	0.078853	0.22491	0.1198	0.0057102	0.15025	-4.1333	-4.7729	-3.8	-4.8208	-4.4187	-3.9958	-5.0542	-4.2583	-4.3812	-4.8354	-4.0646	-4.7833	-4.5083	-4.2896	-5.0792	-4.2438	370.944	191.635	163.468	424.802	488.991	492.128	463.424	481.053	369.557	409.402	166.093	159.615	467.858	346.692	461.072	455.001	0.0005683	0.00021868	0.0001136	1398.2	5.6223e-06	2.0792e-06	1543.1	468.78	5.568e-06	5.1574e-06	532.19	164.81	142.98	45.784	3.0429e-06	59.723	4.4727e-05	3.1701e-05	8.9474e-06	1254.7	3.7025e-07	3.5037e-07	1375.2	414.1	3.7492e-07	3.5191e-07	461.16	142.85	121.81	39.252	3.4499e-07	50.932	241.103	161.418	155.212	156.080	261.270	310.789	155.308	159.235	245.454	248.668	157.912	161.535	162.957	167.309	244.930	165.726	-8191	255	
44562.602	1	1	0	0	0.21991	0.28919	0.18738	0.23985	0.054209	0.15162	0.43383	0.13919	0.084964	0.21259	0.38137	0.14778	0.29384	0.12393	0.022453	0.17056	-4.1083	-4.7354	-3.8958	-4.7146	-4.475	-3.8979	-5.0938	-4.4146	-4.3438	-4.85	-4.1625	-4.7167	-4.7667	-4.0833	-4.7188	-4.3333	366.185	417.610	231.712	149.567	249.595	336.044	440.814	492.712	462.197	480.093	389.255	455.958	447.796	232.336	244.442	292.882	0.00059547	0.00050549	0.00013604	1411.7	4.9259e-06	5.7344e-06	1560.3	471.49	7.7694e-06	4.0233e-06	541.62	167.98	143.35	46.384	4.7745e-06	60.237	4.4585e-05	3.1678e-05	9.3031e-06	1263.8	3.8225e-07	3.6227e-07	1391.7	416.97	3.809e-07	3.5104e-07	466.67	144.78	122.87	39.737	3.6281e-07	51.595	241.686	198.805	199.639	156.082	240.660	288.962	155.260	159.261	278.003	272.702	157.865	161.848	162.963	167.704	244.428	166.158	-8191	255	
44562.695	1	1	0	0	0.19913	0.15186	0.098004	0.19376	0.079609	0.14759	0.45607	0.31244	0.041301	0.016489	0.25334	0.28835	0.097745	0.25554	0.12422	0.16795	-3.7958	-4.7958	-4.0292	-4.5979	-4.5646	-3.9938	-4.95	-4.4083	-4.0833	-4.8292	-4.2229	-4.5708	-4.7396	-4.0687	-4.7854	-4.4604	336.765	328.478	435.846	390.563	219.565	472.636	460.187	418.969	416.348	419.311	337.984	476.372	425.672	177.555	187.079	145.352	0.00060933	0.0003732	0.00012765	1421.9	5.838e-06	3.4455e-06	1571.3	473.32	6.7605e-06	1.5707e-06	537.4	165.65	141.68	45.742	3.0712e-06	59.959	4.5035e-05	3.3059e-05	9.101e-06	1270.5	3.7003e-07	3.5702e-07	1394.9	417.5	3.7562e-07	3.5044e-07	463.91	143.78	121.81	39.287	3.6034e-07	50.928	240.330	215.452	145.681	156.014	274.493	276.356	155.052	159.177	287.965	260.291	158.102	161.765	163.274	167.447	248.282	166.309	-8191	255	
44562.789	1	1	0	0	0.22412	0.053119	0.26363	0.15615	0.089529	0.031396	0.064506	0.35424	0.17921	0.14596	0.21143	0.083294	0.23657	0.1995	0.13779	0.17792	-3.7167	-4.8583	-4.0083	-4.475	-4.7917	-3.9854	-4.8833	-4.5687	-3.9896	-4.9396	-4.2333	-4.5333	-4.8938	-3.9667	-4.5854	-4.5229	170.412	383.366	292.356	148.971	431.874	239.468	471.704	467.262	357.339	264.236	479.076	192.744	185.273	147.937	253.194	429.314	0.00055099	0.00041459	0.00014762	1403	4.1036e-06	2.9881e-06	1530.7	466.06	6.1246e-06	4.4865e-06	528.36	163.44	140.27	45.031	3.7601e-06	58.899	4.5295e-05	3.2049e-05	9.1977e-06	1251	3.7449e-07	3.5111e-07	1364.6	410.78	3.8074e-07	3.5164e-07	454.2	140.82	120.18	38.783	3.6278e-07	50.113	242.306	188.668	180.039	155.940	244.587	259.791	154.976	159.556	278.860	240.714	157.834	161.720	163.261	167.744	237.843	166.085	-8191	255	
44562.887	1	1	0	0	0.11947	0.17407	0.10621	0.24926	0.15313	0.036232	0.04825	0.21698	0.24408	0.14735	0.14699	0.070005	0.20691	0.1931	0.20103	0.19449	-3.6854	-4.8229	-4.2396	-4.4396	-4.8958	-3.9771	-4.8542	-4.7104	-3.9104	-4.9187	-4.2979	-4.3083	-5.0771	-3.9729	-4.5271	-4.7896	155.453	193.411	320.578	478.053	159.276	393.051	153.467	471.228	355.120	303.929	488.828	456.179	455.984	435.687	359.812	417.451	0.00056037	0.00040207	0.00018703	1387.2	3.1829e-06	4.6058e-06	1513.2	459.69	7.8051e-06	2.7335e-06	525.62	162.01	139.31	45.249	4.5324e-06	58.934	4.4666e-05	3.2049e-05	9.1055e-06	1237.1	3.6878e-07	3.5421e-07	1350.6	406.87	3.7675e-07	3.4731e-07	453.12	140.07	119.61	38.942	3.5747e-07	50.186	238.340	214.840	178.628	156.126	248.247	267.100	155.151	159.518	269.800	258.429	158.167	161.695	163.367	167.402	243.069	165.764	-8191	255	
44562.984	1	1	0	0	0.050505	0.1177	0.20115	0.09415	0.10582	0.13896	0.15727	0.30866	0.036071	0.17893	0.2874	0.11024	0.19175	0.14656	0.11866	0.1126	-3.4208	-4.8146	-4.3083	-4.2896	-4.7958	-4.0917	-4.5896	-5.1208	-4.0687	-4.7958	-4.7521	-4.2458	-4.9667	-4.1	-4.2125	-4.8396	310.841	192.163	333.488	168.593	351.458	321.599	405.712	142.346	203.689	296.877	482.887	328.101	481.197	483.952	281.958	205.994	0.00058746	0.0003854	0.00016582	1375.1	4.0663e-06	5.3793e-06	1519.1	461.1	3.6264e-06	3.0056e-06	527.73	163.16	139.84	45.551	3.1938e-06	59.286	4.4612e-05	3.1432e-05	9.0855e-06	1234.9	3.556e-07	3.4841e-07	1357.7	408.24	3.8692e-07	3.563e-07	455.89	141.07	120.11	39.188	3.6764e-07	50.774	245.849	195.320	161.314	156.177	237.744	284.384	155.095	159.428	258.062	254.445	158.038	161.795	163.353	167.357	233.128	166.084	-8191	255	
44563.105	1	1	0	0	0.21877	0.080596	0.1381	0.30291	0.26642	0.10705	0.47634	0.035869	0.047503	0.16053	0.030474	0.23359	0.26575	0.069952	0.16716	0.17194	-3.55	-4.775	-4.5687	-4.1896	-4.6979	-4.1458	-4.55	-5.0333	-4.0458	-4.7875	-4.7562	-4.0458	-4.9458	-4.3229	-4.3521	-4.9708	318.168	474.094	291.931	461.071	382.985	388.859	445.744	402.300	383.706	315.677	456.766	446.171	455.341	344.229	300.726	428.964	0.00050205	0.00035399	0.00013084	1408.7	5e-06	3.9146e-06	1542.2	467.87	4.3971e-06	4.4925e-06	532.28	165.63	141.75	46.055	4.1378e-06	60.674	4.4962e-05	3.0977e-05	8.9154e-06	1253	3.6985e-07	3.5825e-07	1375	413.12	3.7163e-07	3.4406e-07	459.85	142.79	121.48	39.594	3.5777e-07	51.632	246.390	205.165	193.915	155.802	230.841	290.667	154.927	159.364	294.040	261.941	157.933	161.823	163.198	167.583	238.414	166.091	-8191	255	
44563.199	1	1	0	0	0.30407	0.18195	0.42886	0.11977	0.20099	0.37692	0.079744	0.18054	0.14719	0.15148	0.086659	0.289	0.16857	0.058722	0.20208	0.25581	-3.7062	-4.625	-4.6208	-4.1896	-4.9333	-4.3167	-4.4938	-5.0646	-4.0687	-4.5729	-4.7063	-4.0604	-4.9979	-4.475	-4.1875	-5.0312	495.719	269.888	355.508	149.646	232.469	193.012	397.710	479.281	410.852	200.980	399.388	480.381	443.247	462.532	256.721	379.692	0.00055457	0.00041799	0.00012102	1405.3	4.0195e-06	3.8809e-06	1560	470.43	4.5665e-06	4.0388e-06	537.33	165.52	142.78	45.784	3.7132e-06	59.586	4.5139e-05	3.2013e-05	8.9816e-06	1260.1	3.7293e-07	3.6988e-07	1387.5	416.08	3.751e-07	3.6883e-07	463.46	143.43	122.01	39.46	3.7424e-07	50.8	241.377	213.238	198.240	156.168	242.129	260.451	154.956	159.338	276.751	254.594	158.003	161.665	163.231	167.513	256.445	165.599	-8191	255	
44563.297	1	1	0	0	0.14811	0.17634	0.14056	0.11232	0.071745	0.16058	0.14101	0.11718	0.10221	0.085286	0.098964	0.12845	0.075512	0.18699	0.21755	0.15954	-3.7479	-4.4104	-4.6771	-4.1396	-4.6646	-4.5583	-4.325	-5.2	-3.8417	-4.3083	-4.9854	-4.2312	-4.7583	-4.5354	-4.0875	-4.9333	185.179	247.155	267.498	492.182	176.169	155.429	423.872	390.868	207.814	329.430	162.755	329.893	452.059	225.112	341.901	292.675	0.00050537	0.0005591	0.00016367	1384.4	3.8422e-06	4.2578e-06	1514.1	461.17	7.537e-06	2.3774e-06	521.54	161.48	138.31	44.679	5.5334e-06	58.507	4.4257e-05	3.2e-05	9.1416e-06	1239.3	3.6549e-07	3.3917e-07	1346.8	405.77	3.7704e-07	3.3985e-07	449.05	139.3	118.86	38.599	3.6217e-07	49.649	242.959	194.988	223.631	156.002	255.844	281.385	154.930	159.272	270.461	270.970	158.041	161.653	163.289	167.474	234.237	166.084	-8191	255	
44563.395	1	1	0	0	0.12178	0.067116	0.15693	0.14318	0.055508	0.12566	0.17868	0.14739	0.10839	0.1476	0.034041	0.046921	0.16748	0.29539	0.096787	0.099494	-3.7562	-4.2708	-4.8167	-4.1562	-4.7375	-4.5	-4.2833	-5.0771	-4.1958	-4.1417	-4.9542	-4.2229	-4.8333	-4.8938	-3.9958	-5.0646	218.810	214.802	416.540	401.059	254.124	454.178	450.490	428.109	150.618	424.103	315.575	150.871	472.420	487.459	446.150	482.032	0.00055422	0.0004898	0.00014307	1377.1	4.2262e-06	3.1123e-06	1506.5	457.5	2.6985e-06	4.0182e-06	519.23	160.86	138.88	45.076	5.1083e-06	58.302	4.4365e-05	3.1846e-05	8.8514e-06	1228.8	3.7008e-07	3.4855e-07	1340.5	404.13	3.6827e-07	3.5267e-07	448.56	138.99	118.81	38.703	3.5892e-07	49.874	245.228	217.441	178.440	156.029	260.784	265.884	154.978	159.357	290.514	275.485	157.728	161.773	162.889	167.798	230.137	165.827	-8191	255	
#DATA ENDS
