BOXY.EXE: ISS Imagent and Oximeter Data Acquisition Program Version 0.80
Ascii Record File

#ACQ INFORMATION
2  Detector Channels 
16  External MUX Channels 
1  Auxiliary Channels 
5000  Waveform (CCF) Frequency (Hz)
1  Waveforms Skipped 
30  Waveforms Averaged 
1  Cycles Averaged 
16  Acquisitions per Waveform 
10.0806  Updata Rate (Hz) 

#FILE INFORMATION
TRUE -- External MUX Channel results are PARSED.
FALSE -- AC DC and Phase are NOT grouped.
TRUE -- Companion Program Settings File CREATED.
FALSE -- AC data not excluded
FALSE -- DC data not excluded
FALSE -- Phase data not excluded
FALSE -- Auxillary Chn. data not excluded
Tab delimiters

#CALIBRATION STATE
TRUE -- Waveform Calibration Values APPLIED.


#AUX CALIBRATION VALUES
Val Type	aux-1	

Term	1.0000e+00	
Factor	0.0000e+00	


#WF CALIBRATION VALUES
A = Detector Channel
Val Type	A-AC1	A-AC2	A-AC3	A-AC4	A-AC5	A-AC6	A-AC7	A-AC8	A-AC9	A-AC10	A-AC11	A-AC12	A-AC13	A-AC14	A-AC15	A-AC16	A-DC1	A-DC2	A-DC3	A-DC4	A-DC5	A-DC6	A-DC7	A-DC8	A-DC9	A-DC10	A-DC11	A-DC12	A-DC13	A-DC14	A-DC15	A-DC16	A-Ph1	A-Ph2	A-Ph3	A-Ph4	A-Ph5	A-Ph6	A-Ph7	A-Ph8	A-Ph9	A-Ph10	A-Ph11	A-Ph12	A-Ph13	A-Ph14	A-Ph15	A-Ph16	

Term	0.00000e+00	0.00000e+00	0.00000e+00	0.00000e+00	0.00000e+00	0.00000e+00	0.00000e+00	0.00000e+00	0.00000e+00	0.00000e+00	0.00000e+00	0.00000e+00	0.00000e+00	0.00000e+00	0.00000e+00	0.00000e+00	0.00000e+00	0.00000e+00	0.00000e+00	0.00000e+00	0.00000e+00	0.00000e+00	0.00000e+00	0.00000e+00	0.00000e+00	0.00000e+00	0.00000e+00	0.00000e+00	0.00000e+00	0.00000e+00	0.00000e+00	0.00000e+00	0.00000e+00	0.00000e+00	0.00000e+00	0.00000e+00	0.00000e+00	0.00000e+00	0.00000e+00	0.00000e+00	0.00000e+00	0.00000e+00	0.00000e+00	0.00000e+00	0.00000e+00	0.00000e+00	0.00000e+00	0.00000e+00	
Factor	1.00000e+00	1.00000e+00	1.00000e+00	1.00000e+00	1.00000e+00	1.00000e+00	1.00000e+00	1.00000e+00	1.00000e+00	1.00000e+00	1.00000e+00	1.00000e+00	1.00000e+00	1.00000e+00	1.00000e+00	1.00000e+00	1.00000e+00	1.00000e+00	1.00000e+00	1.00000e+00	1.00000e+00	1.00000e+00	1.00000e+00	1.00000e+00	1.00000e+00	1.00000e+00	1.00000e+00	1.00000e+00	1.00000e+00	1.00000e+00	1.00000e+00	1.00000e+00	X	X	X	X	X	X	X	X	X	X	X	X	X	X	X	X	

B = Detector Channel
Val Type	B-AC1	B-AC2	B-AC3	B-AC4	B-AC5	B-AC6	B-AC7	B-AC8	B-AC9	B-AC10	B-AC11	B-AC12	B-AC13	B-AC14	B-AC15	B-AC16	B-DC1	B-DC2	B-DC3	B-DC4	B-DC5	B-DC6	B-DC7	B-DC8	B-DC9	B-DC10	B-DC11	B-DC12	B-DC13	B-DC14	B-DC15	B-DC16	B-Ph1	B-Ph2	B-Ph3	B-Ph4	B-Ph5	B-Ph6	B-Ph7	B-Ph8	B-Ph9	B-Ph10	B-Ph11	B-Ph12	B-Ph13	B-Ph14	B-Ph15	B-Ph16	

Term	0.00000e+00	0.00000e+00	0.00000e+00	0.00000e+00	0.00000e+00	0.00000e+00	0.00000e+00	0.00000e+00	0.00000e+00	0.00000e+00	0.00000e+00	0.00000e+00	0.00000e+00	0.00000e+00	0.00000e+00	0.00000e+00	0.00000e+00	0.00000e+00	0.00000e+00	0.00000e+00	0.00000e+00	0.00000e+00	0.00000e+00	0.00000e+00	0.00000e+00	0.00000e+00	0.00000e+00	0.00000e+00	0.00000e+00	0.00000e+00	0.00000e+00	0.00000e+00	-2.91036e+01	-1.30727e+02	-1.25827e+02	-1.83848e+02	-4.53590e+01	-6.39396e+01	-1.58330e+02	-1.62015e+02	-4.04028e+01	-6.93137e+01	-1.70849e+02	-1.70812e+02	-1.78650e+02	-1.77103e+02	-5.65599e+01	-1.50176e+02	
Factor	2.48695e-05	1.25508e-04	3.68752e-05	1.52866e-01	1.67459e-06	1.76788e-06	1.70140e-01	5.22108e-02	1.64632e-06	1.54420e-06	8.69566e-02	2.95778e-02	2.73539e-02	9.37122e-03	1.62419e-06	1.32152e-02	8.28636e-06	1.10554e-05	3.07181e-06	7.48206e-02	1.15288e-07	1.22545e-07	7.80540e-02	2.56305e-02	1.14741e-07	1.21952e-07	4.13475e-02	1.40655e-02	1.35687e-02	4.64103e-03	1.17712e-07	6.32584e-03	X	X	X	X	X	X	X	X	X	X	X	X	X	X	X	X	



#DISTANCE SETTINGS
A = Detector Channel
A-1	A-2	A-3	A-4	A-5	A-6	A-7	A-8	A-9	A-10	A-11	A-12	A-13	A-14	A-15	A-16	

2.5000e+00	3.0000e+00	2.5000e+00	3.0000e+00	2.0000e+00	3.0000e+00	1.5000e+00	3.0000e+00	3.0000e+00	3.0000e+00	3.0000e+00	3.0000e+00	3.0000e+00	3.0000e+00	1.5000e+00	3.0000e+00	

B = Detector Channel
B-1	B-2	B-3	B-4	B-5	B-6	B-7	B-8	B-9	B-10	B-11	B-12	B-13	B-14	B-15	B-16	

1.0000e+01	1.0000e+01	1.0000e+01	1.4400e+00	1.0000e+01	1.0000e+01	1.5100e+00	1.9400e+00	1.0000e+01	1.0000e+01	1.9900e+00	2.4900e+00	2.4100e+00	2.9000e+00	1.0000e+01	2.9800e+00	




#DATA BEGINS
time	group	step	mark	flag	A-AC1	A-AC2	A-AC3	A-AC4	A-AC5	A-AC6	A-AC7	A-AC8	A-AC9	A-AC10	A-AC11	A-AC12	A-AC13	A-AC14	A-AC15	A-AC16	A-DC1	A-DC2	A-DC3	A-DC4	A-DC5	A-DC6	A-DC7	A-DC8	A-DC9	A-DC10	A-DC11	A-DC12	A-DC13	A-DC14	A-DC15	A-DC16	A-Ph1	A-Ph2	A-Ph3	A-Ph4	A-Ph5	A-Ph6	A-Ph7	A-Ph8	A-Ph9	A-Ph10	A-Ph11	A-Ph12	A-Ph13	A-Ph14	A-Ph15	A-Ph16	B-AC1	B-AC2	B-AC3	B-AC4	B-AC5	B-AC6	B-AC7	B-AC8	B-AC9	B-AC10	B-AC11	B-AC12	B-AC13	B-AC14	B-AC15	B-AC16	B-DC1	B-DC2	B-DC3	B-DC4	B-DC5	B-DC6	B-DC7	B-DC8	B-DC9	B-DC10	B-DC11	B-DC12	B-DC13	B-DC14	B-DC15	B-DC16	B-Ph1	B-Ph2	B-Ph3	B-Ph4	B-Ph5	B-Ph6	B-Ph7	B-Ph8	B-Ph9	B-Ph10	B-Ph11	B-Ph12	B-Ph13	B-Ph14	B-Ph15	B-Ph16	aux-1	digaux	

50826.113	1	1	0	256	0.12249	0.20064	0.25379	0.31076	0.20552	0.19061	0.090877	0.079988	0.026067	0.2027	0.167	0.1178	0.45155	0.16536	0.19667	0.078806	-4.525	-4.8417	-4.1583	-5.1667	-4.5208	-4.3688	-5.2542	-4.3167	-4.6792	-5.0104	-4.1021	-5.1667	-4.5729	-4.2292	-5.1396	-4.3583	135.692	133.460	146.328	400.433	404.463	391.517	299.539	360.732	184.001	308.671	397.962	238.468	373.302	244.952	183.631	135.587	0.0003139	8.2216e-05	5.4795e-05	983.06	3.7288e-06	2.8579e-06	1072.6	200.03	3.1433e-06	1.4335e-06	255.03	70.678	55.314	15.637	3.7433e-06	21.706	0.00017032	0.00012799	3.6587e-05	975.46	1.7867e-06	1.5599e-06	1060.4	200.45	1.5758e-06	1.4378e-06	255.36	70.623	54.867	15.858	1.4447e-06	22.091	276.131	155.668	204.438	110.780	271.532	219.683	110.578	118.308	284.988	256.567	117.543	124.919	125.111	132.041	254.595	131.383	-8191	255	
50826.234	1	1	0	0	0.103	0.12504	0.15467	0.12414	0.075356	0.26403	0.30119	0.31628	0.29347	0.016815	0.084485	0.1374	0.083889	0.055676	0.18607	0.10488	-4.2771	-5.0646	-4.0292	-5.0625	-4.8	-4.225	-5.2833	-4.4229	-4.6188	-5.1667	-4.2729	-4.8438	-4.6771	-4.1	-5.0771	-4.2646	197.801	242.241	116.523	346.199	402.565	190.381	419.136	408.591	257.842	319.370	261.021	228.192	457.240	355.043	257.144	234.091	0.00032999	0.00028845	5.2618e-05	988.46	4.0188e-06	2.5841e-06	1078	202.23	3.2691e-06	2.2242e-06	257.95	70.689	55.34	15.698	2.0025e-06	21.954	0.00017933	0.00013667	3.9902e-05	977.07	1.6443e-06	1.5152e-06	1060.6	200.57	1.5158e-06	1.388e-06	256.06	70.537	54.996	15.872	1.4381e-06	22.131	272.108	213.159	223.728	110.011	275.149	262.526	109.729	117.595	239.899	274.450	117.108	124.759	125.079	131.852	271.077	131.079	-8191	255	
50826.328	1	1	0	0	0.098042	0.18345	0.089364	0.13968	0.16107	0.078873	0.33073	0.15752	0.42843	0.20042	0.17246	0.1076	0.4467	0.055664	0.32828	0.25011	-4.1042	-4.9229	-4.1667	-5.15	-4.7667	-4.0667	-5.3917	-4.4167	-4.4563	-5.0417	-4.1687	-4.8417	-4.8958	-4.25	-5.0396	-4.5687	456.578	221.709	304.455	407.338	177.353	224.115	383.834	338.997	239.990	171.367	421.405	387.672	106.778	433.876	431.715	137.958	0.00030464	0.00014223	3.0048e-05	987.64	3.4549e-06	3.594e-06	1077.6	202	3.3276e-06	2.5882e-06	255.56	70.971	55.81	15.646	2.6243e-06	21.967	0.00018492	0.00012675	4.0126e-05	976.6	1.5809e-06	1.4261e-06	1064.3	200.33	1.6035e-06	1.3407e-06	254.93	70.491	55.142	15.906	1.465e-06	22.162	279.601	191.653	208.136	109.885	258.144	218.439	109.973	117.853	285.753	239.605	116.958	124.627	124.618	132.422	250.792	130.840	-8191	255	
50826.398	1	1	0	0	0.054693	0.32016	0.1351	0.089182	0.054156	0.094614	0.24735	0.15045	0.090972	0.25137	0.044994	0.20971	0.24319	0.16228	0.090584	0.23145	-4.025	-5.1042	-4.2125	-4.8229	-4.9396	-4.0917	-5.1854	-4.5354	-4.2604	-5.275	-4.3375	-4.7125	-4.8521	-4.1417	-4.9812	-4.6396	260.763	339.030	409.753	221.234	112.169	379.908	377.364	314.348	316.548	385.563	415.450	340.411	149.632	209.279	334.618	141.788	0.00030012	0.00026009	7.0445e-05	986.64	2.5885e-06	3.176e-06	1079.7	200.7	5.4502e-06	1.987e-06	257.25	71.081	55.276	15.622	2.6007e-06	22.124	0.00017301	0.00012764	4.1207e-05	976.19	1.6861e-06	1.517e-06	1063.6	200.1	1.6262e-06	1.4723e-06	255.3	70.537	54.908	15.846	1.5538e-06	22.2	280.400	187.337	209.007	109.853	278.384	275.346	109.994	117.855	273.257	253.844	117.321	124.910	125.093	131.788	236.894	131.106	-8191	255	
50826.496	1	1	0	0	0.14591	0.21384	0.20451	0.077236	0.03525	0.10593	0.33466	0.27592	0.16664	0.016395	0.056548	0.14176	0.10989	0.091874	0.069919	0.085361	-3.7833	-5.1729	-4.2542	-4.7021	-5.05	-4.0521	-5.1896	-4.9125	-4.0583	-5.0833	-4.5521	-4.5125	-5.1	-4.2188	-4.7167	-4.7375	431.888	234.830	408.713	379.936	237.916	285.327	443.787	410.684	137.468	412.330	435.515	446.934	410.644	110.370	222.209	454.305	0.00032178	0.00018259	5.1224e-05	984.79	4.5692e-06	3.916e-06	1068.5	201.48	4.1315e-06	1.2619e-06	253.35	70.049	54.736	15.521	4.0564e-06	21.775	0.00018164	0.00013379	3.7137e-05	974.98	1.6573e-06	1.6424e-06	1058.9	200.57	1.63e-06	1.4116e-06	254.85	70.385	54.821	15.851	1.4305e-06	22.149	275.035	206.466	189.104	110.628	264.327	250.834	110.679	118.223	301.659	287.223	117.771	124.935	125.208	132.523	247.200	131.524	-8191	255	
50826.617	1	1	0	0	0.12029	0.11731	0.1052	0.36679	0.15001	0.14546	0.21676	0.24505	0.17695	0.10097	0.10053	0.1311	0.16012	0.19909	0.25751	0.1201	-3.9562	-5.0167	-4.4229	-4.3396	-4.9563	-4.0583	-4.8688	-4.9979	-4.0062	-5.05	-4.7146	-4.3792	-5.2542	-4.4604	-4.6208	-4.9146	259.908	362.299	455.505	455.458	190.088	386.607	401.008	381.713	391.220	292.376	385.078	349.911	431.422	155.536	278.483	310.057	0.00030747	0.00012852	5.561e-05	981.63	3.7671e-06	4.1464e-06	1065.6	200.81	3.7709e-06	3.6833e-06	256.28	70.032	54.605	15.57	2.9186e-06	21.767	0.00017919	0.00012414	3.6555e-05	974.11	1.6092e-06	1.5696e-06	1060.5	200.54	1.6202e-06	1.4271e-06	255.42	70.222	54.896	15.817	1.4346e-06	22.126	276.589	219.468	210.656	110.565	269.355	247.427	110.721	118.462	275.231	279.870	117.655	124.905	126.062	132.749	262.171	131.709	-8191	255	
50826.715	1	1	0	0	0.23662	0.013025	0.20162	0.25385	0.079819	0.064619	0.21399	0.052357	0.35815	0.17102	0.24759	0.038509	0.10789	0.19572	0.0627	0.31765	-3.7917	-4.9833	-4.6438	-4.5021	-5.125	-4.3562	-4.5625	-5.0125	-4.1854	-4.925	-4.6958	-4.4229	-5.2104	-4.3063	-4.4854	-5.1646	361.408	452.702	113.457	295.708	305.420	165.932	373.227	180.458	427.379	381.916	444.700	216.832	100.980	347.394	281.670	376.094	0.0003112	0.00016935	4.0273e-05	979.19	5.0047e-06	3.0799e-06	1067.9	200.47	2.7062e-06	1.8633e-06	255.19	70.237	55.375	15.599	3.1799e-06	21.73	0.0001755	0.00012407	3.7668e-05	974.39	1.5511e-06	1.4213e-06	1060.7	200.01	1.6432e-06	1.4197e-06	254.9	70.422	54.873	15.834	1.5136e-06	22.131	275.218	188.403	210.263	110.394	273.767	240.798	110.457	118.517	238.163	291.794	117.932	125.131	125.291	132.708	252.139	132.015	-8191	255	
50826.809	1	1	0	0	0.13278	0.095324	0.028127	0.11431	0.077856	0.077918	0.24133	0.067929	0.19179	0.21143	0.11221	0.041542	0.12002	0.026236	0.079229	0.13445	-3.8063	-4.8292	-4.8896	-4.2833	-5.0667	-4.3979	-4.5792	-5.1292	-4.1021	-4.9125	-5.0208	-4.275	-5.0771	-4.4479	-4.3354	-5.1604	327.061	384.302	204.603	305.337	267.408	214.741	408.402	409.558	417.492	202.167	406.792	349.004	424.855	460.060	337.792	384.115	0.00029451	0.0002548	5.6912e-05	974.25	3.9421e-06	2.792e-06	1063.1	200.05	4.2407e-06	1.7716e-06	255.43	70.212	55.108	15.473	2.5568e-06	21.793	0.00017237	0.00013633	3.226e-05	971.56	1.5427e-06	1.4723e-06	1057.7	200.11	1.6178e-06	1.4555e-06	255.39	70.322	54.999	15.775	1.623e-06	22.099	280.897	156.892	179.934	110.587	251.630	261.777	110.470	118.325	250.488	255.081	117.867	125.303	125.258	132.302	278.248	131.719	-8191	255	
50826.930	1	1	0	0	0.11561	0.10949	0.12786	0.157	0.1766	0.31051	0.1935	0.36552	0.086675	0.095829	0.17956	0.051168	0.073407	0.091793	0.082152	0.12828	-3.9	-4.6729	-4.8771	-4.2417	-4.9083	-4.5687	-4.4208	-5.0938	-4.1625	-4.5167	-5.0062	-4.1542	-5.075	-4.7042	-4.2562	-5.1396	402.807	362.458	393.168	116.039	175.040	125.489	377.222	350.802	425.673	214.191	405.759	429.463	426.028	383.081	184.414	333.391	0.00033278	0.00020398	5.8426e-05	978.64	3.972e-06	3.0733e-06	1068.2	200.34	1.9506e-06	1.8062e-06	253.57	70.288	55.041	15.536	3.5104e-06	21.615	0.00018311	0.00013462	3.5364e-05	972.98	1.5252e-06	1.4808e-06	1058.1	200.24	1.6389e-06	1.4581e-06	254.97	70.307	54.902	15.816	1.5558e-06	22.103	281.623	183.840	157.242	110.437	256.631	238.665	110.691	118.304	264.865	258.196	117.678	125.280	125.303	132.774	245.182	131.607	-8191	255	
50827.023	1	1	0	0	0.046846	0.07107	0.10104	0.17542	0.19902	0.043203	0.15775	0.21011	0.091976	0.14019	0.029233	0.08297	0.20618	0.16003	0.1124	0.02196	-3.9854	-4.5042	-4.9917	-4.3042	-4.8417	-4.6042	-4.3229	-5.3292	-4.3792	-4.5583	-5.0771	-4.0167	-4.7896	-4.7479	-4.15	-5.2208	400.689	353.726	289.651	346.817	377.446	387.585	359.033	450.858	205.506	419.566	271.512	108.953	430.101	292.044	171.330	335.558	0.00033714	0.00034993	7.9567e-05	983.33	3.5265e-06	2.0185e-06	1066.8	200.37	4.1213e-06	2.6052e-06	254.85	70.452	54.908	15.498	2.1764e-06	21.599	0.0001793	0.00013624	3.3636e-05	972.91	1.566e-06	1.3569e-06	1056.7	199.85	1.6061e-06	1.3222e-06	255.39	70.284	54.714	15.833	1.4653e-06	22.09	277.073	230.503	222.230	110.353	244.089	252.203	110.494	118.265	256.661	279.940	118.034	125.132	125.224	132.681	258.395	132.038	-8191	255	
50827.098	1	1	0	0	0.096161	0.068765	0.15638	0.14036	0.14171	0.091514	0.10763	0.10318	0.13939	0.11152	0.1362	0.15278	0.22221	0.10182	0.18533	0.049985	-4.1312	-4.3229	-5.05	-4.1583	-4.7854	-4.8125	-4.3438	-5.1375	-4.4604	-4.4792	-5.2583	-4.375	-4.7167	-4.9396	-4.2063	-5.0521	105.979	187.521	148.408	381.467	340.407	220.477	402.415	348.513	141.579	326.005	376.110	100.596	319.347	324.707	137.473	129.892	0.0003447	0.00024953	6.0512e-05	976.79	4.6097e-06	1.0973e-06	1069.8	200.42	4.2877e-06	1.8252e-06	254.46	70.708	55.112	15.458	4.4428e-06	21.797	0.00018118	0.0001405	3.37e-05	971.94	1.6683e-06	1.3357e-06	1057.9	200	1.647e-06	1.4858e-06	255.49	70.365	54.813	15.766	1.5886e-06	22.148	279.789	175.060	207.585	110.440	279.989	285.881	110.476	118.446	301.380	247.152	117.799	125.115	125.546	132.745	265.023	131.856	-8191	255	
50827.219	1	1	0	0	0.098177	0.041333	0.014184	0.10899	0.14	0.05642	0.12882	0.10795	0.16108	0.20711	0.14413	0.12448	0.042615	0.18408	0.026276	0.26721	-4.2792	-4.2521	-5.1146	-4.6	-4.5687	-5.0604	-4.3104	-5.0625	-4.6146	-4.1896	-5.2375	-4.2854	-4.625	-5.0813	-4.0563	-4.9229	219.046	244.494	411.241	298.108	191.299	348.094	446.549	161.495	418.503	374.858	415.827	350.450	187.213	172.598	428.622	447.446	0.00030312	0.00020851	4.7469e-05	976.76	3.2352e-06	5.3118e-06	1069.4	200.97	3.5246e-06	1.8797e-06	254.12	69.639	54.765	15.631	3.2736e-06	21.589	0.00016675	0.00013964	3.7591e-05	970.79	1.6176e-06	1.3748e-06	1057.9	200.18	1.57e-06	1.4632e-06	255.03	70.381	54.603	15.827	1.5141e-06	22.123	280.135	165.282	171.466	110.636	251.658	255.681	110.401	118.198	282.853	239.501	117.897	125.266	125.597	131.992	270.981	131.317	-8191	255	
50827.312	1	1	0	0	0.12089	0.20434	0.097642	0.1186	0.14448	0.10637	0.27012	0.15224	0.24011	0.17446	0.026778	0.042442	0.03655	0.17146	0.26147	0.089815	-4.4729	-4.1292	-5.0437	-4.4521	-4.4375	-5.0437	-4.2792	-4.8542	-4.8646	-4.1396	-5.1083	-4.4583	-4.4104	-5.0792	-4.2125	-4.9125	420.140	393.369	252.264	110.726	402.524	446.175	416.596	103.158	415.577	220.391	409.884	426.887	445.686	402.573	347.096	377.671	0.0003507	0.00038461	6.1368e-05	976.04	4.8472e-06	2.5689e-06	1066.5	200.83	3.8956e-06	4.0496e-06	255.57	70.17	54.573	15.525	3.1206e-06	21.846	0.00017068	0.00012603	3.5479e-05	972.24	1.5965e-06	1.4468e-06	1057.8	200.03	1.5583e-06	1.5475e-06	255.39	70.263	54.705	15.799	1.5504e-06	22.146	279.371	199.464	211.800	110.683	278.526	317.250	110.665	118.250	270.893	245.701	117.919	125.086	125.414	133.099	250.855	131.419	-8191	255	
50827.410	1	1	0	0	0.19599	0.081616	0.19875	0.19382	0.24945	0.21983	0.31163	0.23899	0.15933	0.029237	0.1415	0.34091	0.18354	0.12704	0.13842	0.091496	-4.7333	-4.2271	-5.0687	-4.6917	-4.3167	-5.1438	-4.3542	-4.7042	-4.9479	-4.0958	-5.1583	-4.65	-4.4479	-5.3063	-4.2417	-4.5917	448.107	328.983	180.344	405.576	260.285	156.163	414.288	112.264	422.559	430.795	437.189	308.484	270.115	448.985	113.650	394.854	0.00033857	0.00024843	3.92e-05	977.58	3.866e-06	1.261e-06	1068.2	199.82	4.1826e-06	3.5636e-06	256.15	69.856	54.786	15.564	2.4358e-06	21.724	0.00017054	0.00013925	3.6849e-05	971.47	1.6813e-06	1.4427e-06	1058.4	200.34	1.5294e-06	1.6499e-06	256.01	70.291	54.922	15.829	1.6004e-06	22.122	280.072	196.931	185.562	110.557	286.582	255.826	110.598	118.686	273.320	257.520	117.824	125.569	125.635	132.249	290.998	131.361	-8191	255	
50827.531	1	1	0	0	0.23776	0.21911	0.2623	0.1383	0.17182	0.16561	0.10824	0.060657	0.10305	0.019388	0.22627	0.18658	0.20218	0.13604	0.14224	0.15125	-4.7063	-4.025	-5.0667	-4.6833	-4.0771	-5.2021	-4.5167	-4.7854	-4.9042	-4.0792	-4.9938	-4.8896	-4.3313	-5.0938	-4.5042	-4.575	414.152	141.040	142.322	424.966	164.392	235.729	386.893	288.519	427.836	221.247	154.136	424.722	119.757	433.077	348.479	151.114	0.00031685	0.00023645	6.7286e-05	980.99	4.5031e-06	4.1891e-06	1065.4	200.94	5.5171e-06	3.5726e-06	255.46	70.608	54.29	15.558	3.3551e-06	21.598	0.00017118	0.00014388	3.4532e-05	972.76	1.7147e-06	1.3648e-06	1058	200.34	1.4804e-06	1.5579e-06	254.93	70.446	54.672	15.819	1.581e-06	22.09	276.992	194.400	200.319	110.461	265.538	231.800	110.566	118.139	269.883	267.761	117.977	125.584	125.239	132.582	237.490	131.498	-8191	255	
50827.625	1	1	0	0	0.18656	0.098463	0.18037	0.33879	0.051179	0.27465	0.12873	0.27411	0.067375	0.15644	0.16179	0.17662	0.1109	0.19489	0.15229	0.14225	-4.9729	-4.1292	-4.9104	-4.8583	-4.0771	-5.1333	-4.6667	-4.5062	-5.1417	-4.0708	-4.6708	-4.9417	-4.1771	-5.0521	-4.5188	-4.3104	353.430	443.675	417.905	406.777	108.788	181.982	456.645	360.644	245.993	401.963	151.709	382.757	413.520	223.133	148.314	424.859	0.00032159	0.00013984	0.00011199	976.72	4.2819e-06	3.7267e-06	1067	200.88	2.911e-06	1.7306e-06	254.41	70.561	54.621	15.643	1.9681e-06	21.798	0.00016673	0.00014229	3.9063e-05	972.52	1.6798e-06	1.4598e-06	1058.3	200.31	1.5669e-06	1.592e-06	254.54	70.47	54.778	15.873	1.5943e-06	22.124	279.646	190.709	185.360	110.545	282.490	240.170	110.618	118.669	267.124	268.467	117.452	125.036	125.307	132.614	302.846	131.717	-8191	255	
50827.699	1	1	0	0	0.16579	0.044792	0.096517	0.16573	0.1595	0.18002	0.18684	0.12347	0.21604	0.066443	0.060113	0.084129	0.26916	0.18551	0.22642	0.075668	-4.8896	-4.2167	-4.7063	-5.1271	-4.2667	-4.9042	-4.9146	-4.35	-5.0396	-4.2438	-4.6417	-5.1	-4.2438	-4.8313	-4.7958	-4.2125	246.851	218.667	119.840	447.889	288.200	350.690	434.460	378.176	449.111	335.754	132.803	431.918	424.915	400.833	224.924	245.370	0.00031222	0.00022296	4.3528e-05	981.43	2.7107e-06	4.2567e-06	1069	201.56	3.1706e-06	2.525e-06	254.21	70.43	54.769	15.607	1.9858e-06	21.716	0.00017337	0.00015204	3.9479e-05	973.52	1.7918e-06	1.5453e-06	1061	200.17	1.4983e-06	1.5488e-06	254.94	70.403	54.809	15.853	1.5266e-06	22.082	280.107	159.586	217.640	110.385	286.139	238.432	110.893	118.584	268.038	259.188	117.198	125.284	125.986	132.570	281.510	131.320	-8191	255	
50827.793	1	1	0	0	0.25999	0.076296	0.086514	0.10408	0.052133	0.1035	0.20427	0.047264	0.13501	0.036798	0.071557	0.34402	0.10134	0.08344	0.10466	0.26509	-4.9104	-4.5271	-4.3542	-5.1958	-4.1062	-4.9	-4.8438	-4.2917	-5.0375	-4.4688	-4.5333	-5.1021	-4.1896	-4.9458	-4.8708	-4.2604	198.140	318.436	280.902	400.412	101.360	261.278	426.072	174.317	390.640	298.969	124.076	150.403	350.900	282.459	459.621	221.922	0.00030858	0.00015556	0.00010473	978.27	4.3346e-06	3.2271e-06	1069.3	199.99	5.322e-06	2.0915e-06	253.7	70.287	54.854	15.561	2.709e-06	21.569	0.00017382	0.00014176	3.8225e-05	971.76	1.7219e-06	1.4703e-06	1059.8	200.03	1.4978e-06	1.5541e-06	254.45	70.391	54.722	15.894	1.4241e-06	22.088	280.447	170.981	215.484	110.765	272.968	282.287	110.530	118.230	262.264	237.519	117.572	125.578	125.354	132.593	254.704	131.367	-8191	255	
50827.891	1	1	0	0	0.1384	0.19222	0.15008	0.13918	0.095785	0.27854	0.31957	0.14828	0.17912	0.042347	0.10913	0.083473	0.18122	0.17798	0.02958	0.25139	-4.7167	-4.5708	-4.2958	-5.2708	-4.1792	-4.6729	-5.0896	-4.1771	-5.1208	-4.5437	-4.4437	-5.1917	-4.1896	-4.6104	-4.9083	-4.1979	300.755	199.471	422.709	437.188	301.018	141.646	408.232	375.592	417.092	279.972	109.766	132.569	140.986	167.461	120.136	366.605	0.00033892	0.00026392	7.7862e-05	978.14	3.8578e-06	1.7899e-06	1071.9	200.38	4.9359e-06	1.8492e-06	254.08	70.783	55.064	15.44	3.6333e-06	21.706	0.00017512	0.00013955	3.9479e-05	974.41	1.7168e-06	1.4981e-06	1061.9	200.03	1.5853e-06	1.5455e-06	255.03	70.395	54.807	15.802	1.4346e-06	22.08	280.609	218.581	213.232	110.756	262.363	230.129	110.834	118.435	295.081	236.802	117.607	125.074	125.814	132.363	279.600	131.288	-8191	255	
50828.008	1	1	0	0	0.14804	0.091435	0.21189	0.060112	0.071915	0.014439	0.018305	0.032908	0.17527	0.12429	0.082732	0.075478	0.22731	0.12257	0.1295	0.15552	-4.75	-4.525	-4.2688	-5.2729	-4.2042	-4.6458	-5.1771	-4.2937	-4.8729	-4.6687	-4.1937	-5.0312	-4.2438	-4.4104	-5.0396	-4.3208	150.628	333.830	456.646	419.271	233.916	409.176	332.766	343.541	135.030	239.360	458.780	367.168	118.855	254.215	325.539	448.801	0.00033154	0.00033452	6.9664e-05	982.87	4.687e-06	2.2229e-06	1069	200.48	2.7936e-06	2.4738e-06	253.96	70.766	54.859	15.512	4.3475e-06	21.512	0.00017296	0.00013248	3.7988e-05	974.28	1.6897e-06	1.4741e-06	1059.9	200.01	1.5148e-06	1.4731e-06	254.62	70.461	54.864	15.797	1.4331e-06	22.056	280.423	207.967	198.298	110.647	274.388	261.096	110.611	118.234	283.604	232.739	117.584	125.160	125.670	132.455	270.966	131.598	-8191	255	
50828.105	1	1	0	0	0.078099	0.19462	0.17205	0.24099	0.18431	0.14069	0.11942	0.11707	0.22539	0.077552	0.062604	0.037062	0.26665	0.24442	0.20686	0.24026	-4.5583	-4.6646	-4.1708	-5.3313	-4.3604	-4.3917	-5.3375	-4.2125	-4.8313	-4.9854	-4.1875	-5.0708	-4.5563	-4.4375	-5.15	-4.3292	312.060	460.184	336.732	366.922	142.713	432.624	375.674	383.074	295.074	145.954	422.517	397.268	457.421	121.943	155.478	306.399	0.00028972	0.00033593	6.1255e-05	982.16	5.0513e-06	1.3762e-06	1069.7	200.2	3.3209e-06	1.9984e-06	257.39	70.123	54.736	15.536	2.6143e-06	21.708	0.00017287	0.00012914	3.6068e-05	975.39	1.7365e-06	1.4649e-06	1060.1	200.27	1.499e-06	1.392e-06	255.55	70.428	54.811	15.888	1.477e-06	22.108	274.887	181.582	195.720	110.607	285.548	229.584	110.754	118.486	293.048	261.948	117.941	125.134	125.535	132.441	298.765	131.571	-8191	255	
50828.199	1	1	0	0	0.18797	0.29104	0.094615	0.38865	0.14856	0.11154	0.22892	0.14492	0.048715	0.21	0.11908	0.18095	0.19538	0.22855	0.1358	0.01523	-4.3479	-5.1083	-4.2583	-5.2083	-4.6625	-4.3167	-5.2833	-4.4042	-4.4375	-5.0833	-4.2333	-4.9187	-4.7833	-4.2646	-5.15	-4.3917	396.879	205.674	158.288	454.092	288.787	120.059	402.003	367.135	131.545	458.497	449.014	360.436	438.701	321.677	145.415	363.792	0.00036964	0.00017216	3.8418e-05	977.35	2.2803e-06	2.8737e-06	1069.8	199.5	3.3207e-06	2.6393e-06	257.28	70.493	55.211	15.585	3.9711e-06	21.718	0.00018561	0.00012893	3.8321e-05	973.72	1.6625e-06	1.493e-06	1059.8	199.86	1.5858e-06	1.326e-06	255.75	70.45	55.017	15.854	1.5759e-06	22.086	280.828	178.653	243.767	110.592	298.046	249.248	110.366	118.524	284.250	229.235	117.637	124.917	125.593	132.616	274.633	131.697	-8191	255	
50828.297	1	1	0	0	0.27972	0.050058	0.057075	0.20572	0.11461	0.28069	0.1934	0.16011	0.15931	0.076245	0.24479	0.057118	0.19206	0.044919	0.23392	0.14219	-4.1146	-4.9042	-4.1146	-5.0104	-4.7708	-4.2812	-5.3688	-4.4938	-4.4229	-5.1417	-4.2917	-4.8792	-4.8104	-4.2104	-5.2271	-4.5167	299.034	409.035	329.758	169.626	437.130	328.029	378.564	412.913	420.507	348.844	168.894	409.684	408.420	115.098	294.903	197.853	0.0003223	0.00023739	0.00011018	980.34	3.4642e-06	3.329e-06	1068.9	200.84	3.8425e-06	3.0794e-06	254.88	70.409	54.189	15.613	2.9943e-06	21.683	0.00017683	0.00012479	3.722e-05	974.25	1.6503e-06	1.5081e-06	1060.8	199.77	1.5755e-06	1.4192e-06	255.27	70.421	54.749	15.861	1.4859e-06	22.031	274.467	161.119	189.437	110.893	259.212	267.117	110.670	118.602	296.162	251.041	117.881	124.962	125.968	132.561	281.876	131.120	-8191	255	
50828.395	1	1	0	0	0.34002	0.15368	0.27175	0.087557	0.070006	0.026424	0.099533	0.20298	0.071423	0.050222	0.094268	0.10227	0.040651	0.18278	0.014806	0.024784	-4.1208	-5.1354	-4.1188	-4.6687	-4.9667	-4.0625	-5.0646	-4.6146	-4.2937	-5.1	-4.4042	-4.6292	-4.8958	-3.9792	-4.9542	-4.5167	252.087	183.946	315.453	347.041	152.807	210.719	315.001	365.113	253.727	202.823	173.391	224.701	240.097	411.823	427.210	397.679	0.00033369	0.00026909	7.7994e-05	978.96	4.3222e-06	1.5446e-06	1071.6	200.64	2.7604e-06	2.0685e-06	255.95	69.944	54.831	15.665	3.602e-06	21.546	0.00018555	0.00013522	4.1252e-05	976.53	1.8004e-06	1.6699e-06	1062.9	200.34	1.608e-06	1.4456e-06	255.14	70.176	54.892	15.828	1.6239e-06	22.032	274.644	170.713	191.680	110.696	264.476	280.626	110.702	118.337	256.559	228.454	117.862	125.483	125.357	132.481	257.499	131.773	-8191	255	
50828.488	1	1	0	0	0.13318	0.27306	0.13997	0.34397	0.047867	0.22646	0.0838	0.22417	0.16805	0.09595	0.20659	0.0049283	0.16116	0.32331	0.07623	0.027815	-4.0563	-5.1146	-4.2583	-4.4583	-4.8792	-4.0062	-5.1167	-4.7646	-4.1646	-5.2333	-4.3375	-4.5833	-4.9354	-4.1292	-4.8083	-4.8875	231.242	259.677	385.874	406.217	164.625	338.075	449.576	119.663	405.925	374.093	379.331	233.882	270.724	249.873	408.119	368.608	0.00032134	8.8371e-05	7.7761e-05	987.71	5.0359e-06	3.0708e-06	1071.6	201.81	5.247e-06	4.1242e-08	256.03	69.946	54.918	15.507	4.3373e-06	21.79	0.00019314	0.00014635	4.2583e-05	979.36	1.8177e-06	1.6669e-06	1065.7	200.87	1.7684e-06	1.6009e-06	255.44	70.308	55.081	15.836	1.5962e-06	22.185	281.452	177.760	191.821	110.344	264.466	244.120	110.620	118.398	272.955	154.136	117.839	125.188	125.793	132.336	259.053	131.697	-8191	255	
50828.609	1	1	0	0	0.29906	0.16668	0.14088	0.18589	0.091277	0.054459	0.18007	0.068922	0.22556	0.12179	0.17469	0.05103	0.16356	0.25388	0.16893	0.23724	-3.9333	-5.1438	-4.4667	-4.4896	-5.0375	-4.1562	-4.9625	-4.9396	-4.1625	-5.0188	-4.6062	-4.3146	-5.1417	-4.1708	-4.6792	-4.9146	295.494	113.993	112.711	421.677	206.728	444.191	391.975	143.530	165.680	456.422	201.823	192.778	110.825	393.873	252.126	398.766	0.00030618	0.00024357	6.5391e-05	988.21	3.0059e-06	2.5771e-06	1076.6	200.62	5.2113e-06	2.1228e-06	255.69	70.125	55.462	15.469	3.2443e-06	21.843	0.00020219	0.00014766	4.1649e-05	980.47	1.7262e-06	1.7256e-06	1067.7	200.37	1.8244e-06	1.6024e-06	256.57	70.488	55.158	15.842	1.6033e-06	22.168	275.307	195.110	245.577	110.530	273.197	223.303	110.741	118.199	265.405	281.824	117.789	124.996	125.387	132.618	264.993	131.575	-8191	255	
50828.707	1	1	0	0	0.14969	0.24692	0.114	0.059446	0.22917	0.14587	0.23207	0.062738	0.2388	0.062085	0.24505	0.1157	0.054531	0.077856	0.090843	0.020685	-3.85	-4.9688	-4.5062	-4.2812	-5.1875	-4.275	-4.7292	-5.1	-4.1	-4.8958	-4.7604	-4.1333	-5.1479	-4.1396	-4.5229	-5.0104	245.113	430.599	108.988	162.184	393.061	301.990	385.016	262.829	252.992	262.185	355.156	302.045	366.896	245.950	356.685	398.023	0.00033026	0.00025436	6.3813e-05	987.43	3.3526e-06	3.1413e-06	1080.1	201.37	3.3706e-06	5.4574e-06	256.66	70.4	55.023	15.75	2.1961e-06	21.665	0.00018786	0.00015332	4.3287e-05	979.25	1.7156e-06	1.5992e-06	1067.3	201.23	1.8074e-06	1.545e-06	256.96	70.547	55.077	15.89	1.5869e-06	22.146	280.680	205.636	207.495	110.437	304.668	242.752	110.642	118.541	300.990	237.768	118.034	125.262	125.439	132.133	273.536	132.045	-8191	255	
50828.801	1	1	0	0	0.17935	0.099616	0.13835	0.23468	0.12818	0.20624	0.033286	0.1104	0.057949	0.13044	0.14883	0.13685	0.076919	0.093356	0.12578	0.094841	-3.8042	-4.9437	-4.8729	-4.1917	-5.1458	-4.3604	-4.6146	-5.0938	-3.9875	-4.9812	-4.8271	-4.0792	-4.9333	-4.5458	-4.3229	-5.1167	390.839	116.637	450.511	376.495	139.890	177.235	442.993	119.223	140.902	302.672	416.116	369.438	193.366	352.387	226.643	313.095	0.00031809	0.00019241	4.5254e-05	988.68	3.8181e-06	3.7721e-06	1079.1	200.28	4.4539e-06	2.7358e-06	254.86	70.544	54.771	15.586	2.0032e-06	21.765	0.00018957	0.00014423	4.0798e-05	979.86	1.7423e-06	1.6613e-06	1067.2	200.48	1.8963e-06	1.5328e-06	255.46	70.626	55.013	15.908	1.6669e-06	22.14	275.378	187.220	208.770	110.496	272.993	262.802	110.740	118.653	283.806	229.150	118.203	125.121	125.678	132.105	275.955	131.693	-8191	255	
50828.898	1	1	0	0	0.1	0.14458	0.07469	0.13489	0.073257	0.28723	0.28587	0.26739	0.35107	0.004125	0.090892	0.055282	0.26799	0.1504	0.15193	0.071068	-3.7958	-4.7375	-4.9062	-4.425	-5.0062	-4.4854	-4.4292	-5.2438	-4.125	-4.5917	-4.9688	-4.2229	-4.8917	-4.75	-4.1542	-5.1083	272.509	223.979	229.937	351.503	188.055	404.365	386.782	367.875	292.817	301.313	135.264	456.329	348.101	284.953	159.512	431.633	0.00033812	0.00034385	4.0279e-05	984.53	4.1116e-06	4.2597e-06	1075.5	201.74	2.5586e-06	2.7655e-06	255.87	70.023	55.263	15.591	3.7884e-06	21.825	0.00018798	0.00015185	4.154e-05	979.34	1.6967e-06	1.71e-06	1068.3	201.1	1.783e-06	1.6065e-06	256.24	70.567	55.158	15.891	1.699e-06	22.234	280.530	185.557	191.601	110.341	260.597	243.880	110.622	118.461	283.336	248.951	117.777	124.979	125.506	132.810	261.074	131.416	-8191	255	
50828.992	1	1	0	0	0.11219	0.21095	0.13977	0.1916	0.09007	0.063346	0.39067	0.13356	0.22011	0.14169	0.24513	0.14935	0.084782	0.13171	0.10797	0.14317	-4.0333	-4.6687	-4.9833	-4.1875	-5.0896	-4.6604	-4.4667	-5.1229	-4.2438	-4.3625	-5.2979	-4.2271	-4.7833	-4.8479	-4.1667	-5.1188	148.154	332.186	399.275	416.659	169.036	322.068	359.235	343.783	245.276	272.912	205.327	273.611	279.611	427.893	201.424	198.809	0.00033825	0.00027347	3.0628e-05	987.97	3.2839e-06	2.1297e-06	1068	201.99	5.006e-06	2.3825e-06	255.16	70.597	55.126	15.542	3.0243e-06	21.864	0.00019815	0.00013944	3.8641e-05	979.49	1.6832e-06	1.4621e-06	1064.3	201.24	1.685e-06	1.6184e-06	255.71	70.605	55.166	15.887	1.6364e-06	22.131	277.164	185.271	161.067	110.461	269.469	245.903	110.719	118.458	249.826	242.306	117.778	125.028	125.721	132.143	244.145	131.599	-8191	255	
50829.090	1	1	0	0	0.087493	0.10354	0.13412	0.0033141	0.19911	0.14924	0.26162	0.060427	0.25767	0.16469	0.15306	0.17312	0.08136	0.2405	0.18029	0.14428	-4.1583	-4.3146	-5.0708	-4.2271	-4.8625	-4.8104	-4.4375	-5.1708	-4.3313	-4.4104	-5.2167	-4.2396	-4.9292	-4.8646	-4.1667	-5.0979	415.734	159.281	436.591	155.371	338.142	440.099	285.228	188.079	350.375	130.072	444.416	306.957	459.358	425.662	226.424	146.515	0.00032135	0.00032563	7.4322e-05	982.92	3.7038e-06	1.7735e-06	1081.2	201.84	3.0187e-06	1.9053e-06	256.48	69.96	54.739	15.522	1.9682e-06	21.75	0.00017294	0.00014202	3.6561e-05	979.36	1.6661e-06	1.4838e-06	1065.7	200.98	1.6618e-06	1.5943e-06	256.3	70.393	54.906	15.847	1.5418e-06	22.174	279.469	169.938	172.057	110.621	251.961	238.729	110.372	118.163	284.257	238.399	117.898	124.828	125.376	132.520	282.390	131.698	-8191	255	
50829.184	1	1	0	0	0.29542	0.11795	0.062736	0.13894	0.19283	0.10872	0.19029	0.18004	0.19924	0.17445	0.16229	0.34677	0.17227	0.21874	0.093073	0.24585	-4.4021	-4.3521	-5.0667	-4.35	-4.6562	-4.8708	-4.3375	-5.05	-4.775	-4.3521	-5.2625	-4.3063	-4.7042	-5.0083	-4.0042	-4.9646	217.203	276.654	242.670	293.361	421.369	219.955	373.707	335.232	233.890	292.378	387.547	393.830	371.781	368.466	287.000	149.219	0.00031442	0.00029444	9.3149e-05	979.38	4.4841e-06	1.1756e-06	1072.6	201.13	4.1658e-06	3.0737e-06	255.73	70.396	54.955	15.595	3.6091e-06	21.772	0.000179	0.00014973	3.763e-05	976.86	1.6791e-06	1.4422e-06	1064.4	200.69	1.603e-06	1.5333e-06	255.76	70.592	55.128	15.866	1.6563e-06	22.121	280.932	188.015	177.556	110.481	276.817	396.290	110.224	118.696	282.987	249.650	117.906	125.249	125.032	132.569	259.942	131.785	-8191	255	
50829.305	1	1	0	0	0.21519	0.2251	0.10188	0.073494	0.081065	0.11695	0.20979	0.33927	0.13865	0.098471	0.13281	0.17412	0.19577	0.17305	0.099061	0.12787	-4.3792	-4.2042	-5.1604	-4.4812	-4.4104	-5.1417	-4.1917	-4.8792	-4.7854	-4.2396	-5.175	-4.525	-4.5917	-5.0125	-4.2438	-4.8792	431.796	284.507	409.756	174.175	196.524	395.064	371.671	357.533	346.503	344.130	248.811	181.013	367.848	160.658	382.621	288.059	0.00033126	0.0001474	9.8713e-05	985.28	2.9904e-06	1.8624e-06	1073.2	200.61	3.038e-06	3.73e-06	256.52	70.302	55.165	15.486	3.2401e-06	21.761	0.00017139	0.00015028	3.8673e-05	976.99	1.7046e-06	1.3409e-06	1063.4	200.63	1.5834e-06	1.6779e-06	255.98	70.453	54.87	15.85	1.5364e-06	22.189	280.761	203.350	227.277	110.631	277.438	247.444	110.891	118.521	228.884	230.407	117.733	125.344	125.581	132.265	254.310	131.681	-8191	255	
50829.402	1	1	0	0	0.041963	0.083658	0.014402	0.12892	0.19987	0.080644	0.064729	0.083218	0.14106	0.075664	0.29358	0.14364	0.13781	0.094843	0.24082	0.10406	-4.55	-4.15	-5.0021	-4.5625	-4.2604	-5.2833	-4.4542	-4.7479	-5.0417	-4.1083	-5.1271	-4.7583	-4.3833	-5.2104	-4.1792	-4.4354	355.485	254.468	291.842	413.677	330.787	156.950	352.139	369.142	173.186	393.724	126.344	438.630	451.827	413.028	133.074	366.463	0.0003353	0.00023244	3.2005e-05	978.89	3.6355e-06	1.6193e-06	1070.2	200.51	4.1329e-06	2.6704e-06	254.46	70.044	54.981	15.602	2.8338e-06	21.692	0.00017527	0.00014519	3.6497e-05	976.87	1.7058e-06	1.4468e-06	1062.6	200.56	1.5803e-06	1.5244e-06	255.52	70.546	55.036	15.903	1.6163e-06	22.167	283.043	229.948	193.580	110.600	270.193	266.024	110.646	118.362	307.733	219.588	117.851	125.334	125.288	132.546	260.072	131.497	-8191	255	
50829.496	1	1	0	0	0.12071	0.16988	0.17422	0.12463	0.067536	0.11226	0.15987	0.33086	0.064881	0.12006	0.19984	0.13037	0.026385	0.18197	0.31626	0.13737	-4.7438	-4.1813	-4.9292	-4.7812	-4.275	-5.0958	-4.5146	-4.6083	-4.9125	-4.1854	-4.9187	-4.8896	-4.2458	-5.0104	-4.3458	-4.5458	187.526	199.977	286.509	450.494	216.595	386.973	374.808	406.804	364.635	203.928	431.032	255.572	298.636	333.137	387.394	424.574	0.0003391	0.00031554	4.7765e-05	984.86	4.3206e-06	3.3762e-06	1062.5	202.18	3.9402e-06	2.6558e-06	254.74	70.411	55.056	15.48	3.4747e-06	21.708	0.00017971	0.00014858	3.3739e-05	977.64	1.6534e-06	1.555e-06	1060.6	200.89	1.6102e-06	1.5468e-06	255.99	70.359	55.051	15.897	1.6656e-06	22.138	280.709	220.815	217.423	110.609	271.970	220.302	110.533	118.004	279.363	261.582	118.038	125.410	125.828	132.957	273.106	131.929	-8191	255	
50829.570	1	1	0	0	0.092496	0.17948	0.085114	0.2147	0.090279	0.086589	0.3494	0.014634	0.24617	0.078637	0.12501	0.12649	0.082826	0.35477	0.15906	0.10014	-4.6875	-4.0188	-4.9187	-5.1062	-4.1792	-5.1521	-4.575	-4.4917	-5.0792	-4.1396	-4.95	-4.9604	-4.0854	-5.2833	-4.5708	-4.3583	394.487	406.603	291.247	417.751	146.072	162.429	345.637	456.895	195.000	180.939	347.004	257.481	319.282	373.706	389.914	361.946	0.00029981	0.00017266	7.1395e-05	985.2	3.7617e-06	2.4961e-06	1072.3	200.7	3.5617e-06	1.6282e-06	255.56	70.37	55.189	15.453	2.7428e-06	21.743	0.00016764	0.00014918	3.8167e-05	978.39	1.7603e-06	1.4098e-06	1063.4	200.47	1.5543e-06	1.5691e-06	256.15	70.475	55.172	15.851	1.5464e-06	22.136	279.653	219.376	194.969	110.588	253.036	236.071	110.652	118.126	260.090	267.665	117.898	125.222	125.117	132.491	289.618	130.847	-8191	255	
50829.691	1	1	0	0	0.14715	0.045108	0.039695	0.071422	0.086568	0.19048	0.19324	0.081929	0.14019	0.19959	0.14949	0.29199	0.086296	0.042423	0.14634	0.03264	-4.8896	-4.2479	-4.7396	-5.2583	-4.1604	-5.0604	-4.8146	-4.3208	-5.1667	-4.325	-4.7854	-5.1542	-3.9938	-4.9313	-4.8229	-4.2479	359.632	427.058	236.454	173.331	416.246	414.884	309.384	315.665	395.805	408.316	371.404	426.703	315.248	181.487	420.052	263.458	0.0003322	0.00012767	8.6536e-05	984.21	5.1926e-06	1.1965e-06	1080.9	200.91	4.5947e-06	1.1582e-06	256.55	69.752	54.853	15.702	3.7941e-06	21.641	0.00017757	0.00013856	4.058e-05	978.93	1.8172e-06	1.4282e-06	1067.1	200.51	1.6169e-06	1.5526e-06	255.7	70.455	54.964	15.938	1.5102e-06	22.231	282.203	221.053	191.722	110.768	270.317	277.287	110.837	118.145	262.510	191.965	117.713	125.273	125.287	132.745	249.628	131.816	-8191	255	
50829.785	1	1	0	0	0.20992	0.14443	0.24383	0.31837	0.089024	0.14583	0.23019	0.27992	0.16222	0.16091	0.13778	0.11374	0.23864	0.21237	0.15418	0.062452	-4.9521	-4.3729	-4.5229	-5.2771	-4.2229	-5.0583	-4.8375	-4.5083	-5.1979	-4.4333	-4.6125	-5.1667	-4.2562	-5	-4.6958	-4.3771	392.931	117.147	286.604	438.525	127.384	345.106	429.035	408.418	420.377	235.942	335.093	370.496	416.384	174.283	425.727	378.585	0.0003439	0.00020915	7.5338e-05	988.82	4.7482e-06	1.7397e-06	1078.7	201.18	3.7477e-06	1.9112e-06	255.49	70.549	54.68	15.658	1.3672e-06	21.7	0.00018249	0.00014674	4.0036e-05	979.29	1.9383e-06	1.5813e-06	1065.5	200.69	1.565e-06	1.4733e-06	255.07	70.642	55.088	15.936	1.5572e-06	22.119	280.371	180.180	204.546	110.740	273.118	282.433	110.799	118.352	246.215	259.140	117.902	125.402	125.807	132.534	234.121	131.500	-8191	255	
50829.883	1	1	0	0	0.10978	0.090701	0.072233	0.14277	0.17698	0.18161	0.19117	0.14091	0.037451	0.10286	0.2763	0.039758	0.056082	0.28653	0.18919	0.016201	-4.8417	-4.3729	-4.45	-5.3542	-4.0896	-4.7146	-4.95	-4.3354	-4.9667	-4.6646	-4.3375	-5.2562	-4.2458	-4.6271	-5.1479	-4.125	299.092	278.630	117.667	318.530	284.570	131.435	417.814	134.236	305.364	287.276	421.237	124.286	361.186	166.061	318.598	284.327	0.00032086	0.00015619	9.7384e-05	982.39	3.1357e-06	3.4642e-06	1072.1	200.88	1.8238e-06	2.2998e-06	255.81	70.607	54.388	15.45	2.5588e-06	21.719	0.00018109	0.00013773	3.9434e-05	977.72	1.9801e-06	1.5499e-06	1064	200.25	1.6824e-06	1.6143e-06	256.41	70.634	54.782	15.869	1.5258e-06	22.06	275.657	223.311	206.940	110.550	275.803	223.101	110.830	118.301	278.940	310.290	118.066	125.200	125.856	132.155	231.469	131.271	-8191	255	
50829.980	1	1	0	0	0.090229	0.11501	0.17665	0.23538	0.16456	0.16027	0.22701	0.22992	0.23154	0.18435	0.13882	0.35426	0.16506	0.17579	0.20966	0.178	-4.8542	-4.8542	-4.3604	-5.2729	-4.2708	-4.5354	-5.0979	-4.1438	-4.9271	-4.7396	-4.1937	-5.0854	-4.4292	-4.5354	-5.1292	-4.2562	284.962	456.785	414.179	452.698	315.019	457.129	425.724	358.711	419.192	347.326	406.050	127.284	142.169	219.062	139.171	165.364	0.00032071	0.00027086	5.5931e-05	986.75	5.4529e-06	1.8923e-06	1079.9	200.4	3.096e-06	2.2992e-06	255.66	70.729	55.071	15.564	2.8212e-06	21.986	0.00017899	0.00014305	3.9511e-05	979.59	1.8139e-06	1.5701e-06	1067	200.58	1.6214e-06	1.4759e-06	255.92	70.644	55.155	15.926	1.5251e-06	22.205	275.482	220.309	193.764	110.487	248.724	290.120	110.714	118.540	275.185	267.271	118.065	124.902	125.347	132.124	277.889	131.310	-8191	255	
50830.098	1	1	0	0	0.21374	0.19041	0.096806	0.27855	0.15036	0.10776	0.12475	0.10188	0.088302	0.11036	0.10366	0.20479	0.16353	0.13928	0.084976	0.040694	-4.6208	-4.8812	-4.1458	-5.3104	-4.3333	-4.4688	-5.3521	-4.3896	-4.8792	-4.9187	-4.3771	-5.1167	-4.5437	-4.3583	-5.1813	-4.4292	403.906	381.743	168.668	106.373	349.508	286.782	324.505	157.634	308.340	120.081	116.956	105.436	351.547	384.363	156.673	424.966	0.0003113	4.7269e-05	0.00010236	987.74	3.4125e-06	3.455e-06	1078.3	201.55	3.5174e-06	3.387e-06	254.6	70.907	54.736	15.769	2.3274e-06	21.718	0.00017747	0.0001445	4.2698e-05	979.77	1.7346e-06	1.5946e-06	1067.6	201.08	1.603e-06	1.4629e-06	255.55	70.795	55.146	15.986	1.4827e-06	22.161	278.857	280.175	184.159	110.345	263.972	261.136	110.580	118.249	254.414	258.379	117.809	125.034	125.430	132.625	252.246	131.757	-8191	255	
50830.195	1	1	0	0	0.31537	0.159	0.12594	0.14089	0.080578	0.21905	0.12586	0.2977	0.039781	0.11095	0.21532	0.14419	0.22988	0.1444	0.080766	0.18417	-4.5083	-4.9625	-4.1479	-5.1542	-4.7292	-4.4042	-5.3187	-4.5333	-4.625	-5.0042	-4.2729	-4.9896	-4.8271	-4.3021	-5.1625	-4.5062	187.030	128.518	173.326	282.663	345.832	199.156	101.600	434.876	405.500	408.279	403.698	316.006	122.327	445.768	377.138	195.010	0.00033209	0.00016162	5.8573e-05	985.57	3.2381e-06	3.6073e-06	1070.5	200.75	5.5668e-06	2.6838e-06	256.16	70.311	55.282	15.637	2.9681e-06	21.91	0.00018123	0.0001425	4.097e-05	979.51	1.6914e-06	1.5367e-06	1064.7	200.64	1.6418e-06	1.4779e-06	255.65	70.492	55.047	15.908	1.5462e-06	22.187	278.955	161.287	165.479	110.765	269.470	249.180	110.505	118.446	290.436	253.796	117.705	125.174	125.713	132.496	266.170	131.716	-8191	255	
50830.289	1	1	0	0	0.26986	0.12984	0.15137	0.20902	0.25109	0.30865	0.16055	0.21303	0.10475	0.18999	0.11174	0.028297	0.15128	0.072716	0.19422	0.15057	-4.3146	-5.0958	-4.175	-5.2312	-4.9458	-4.3125	-5.4417	-4.5479	-4.4896	-5.2479	-4.3625	-4.9542	-4.7812	-4.2812	-5.2625	-4.4688	214.329	129.775	288.011	123.730	212.475	255.250	393.932	455.189	343.708	141.587	413.805	362.079	458.323	189.844	410.068	133.506	0.00032792	0.00015993	0.00010312	988.54	3.4813e-06	3.9982e-06	1070.4	200.06	3.0227e-06	2.6928e-06	254.86	70.814	55.153	15.701	4.5348e-06	21.617	0.00018542	0.00013524	4.3524e-05	978.98	1.7776e-06	1.661e-06	1063.8	200.57	1.6953e-06	1.4347e-06	255.45	70.529	55.074	15.913	1.4797e-06	22.162	278.473	178.160	193.081	110.818	250.648	261.041	110.612	118.395	275.058	255.804	117.428	125.006	125.895	132.219	250.972	131.216	-8191	255	
50830.387	1	1	0	0	0.20769	0.096214	0.11789	0.34187	0.14695	0.14163	0.21619	0.064434	0.26312	0.060978	0.071026	0.16814	0.1583	0.21654	0.28299	0.1954	-4.2729	-5.1292	-4.2292	-4.9917	-4.8833	-4.2979	-5.2792	-4.6896	-4.3854	-5.1708	-4.3354	-4.6813	-4.9563	-4.1708	-5.0104	-4.5854	416.002	160.213	411.018	442.244	195.967	112.470	318.401	320.770	141.174	290.352	224.569	314.736	449.271	149.104	256.259	130.753	0.00028938	0.0002431	7.4759e-05	988.39	3.1402e-06	3.1616e-06	1074.6	201.26	4.2094e-06	3.608e-06	255.07	70.107	55.133	15.462	2.3552e-06	21.842	0.00017997	0.00013743	3.9697e-05	980.29	1.6849e-06	1.6378e-06	1067.1	200.87	1.6649e-06	1.4682e-06	255.6	70.532	55.154	15.889	1.379e-06	22.154	273.781	218.127	165.547	110.429	276.246	262.095	110.502	118.293	282.257	233.753	118.113	124.751	125.840	132.435	245.254	131.446	-8191	255	
50830.480	1	1	0	0	0.064904	0.10199	0.1401	0.060974	0.16477	0.15706	0.20471	0.33681	0.19016	0.15629	0.16517	0.21122	0.19292	0.12783	0.13889	0.17722	-4.1542	-5.1167	-4.1583	-4.7333	-5.0854	-4.3167	-5.2729	-4.7896	-4.3083	-5.2292	-4.5312	-4.6	-5.1167	-4.2063	-5.05	-4.9062	373.975	179.114	278.456	338.497	305.927	366.143	415.048	420.602	281.225	358.707	411.549	170.492	138.398	199.978	138.743	341.440	0.00033656	0.00031859	8.2551e-05	982.84	4.592e-06	3.6253e-06	1080.3	201.82	4.3908e-06	2.1343e-06	255.82	70.467	55.152	15.675	2.3952e-06	21.859	0.00017678	0.00014798	3.9793e-05	979.44	1.7649e-06	1.5757e-06	1067.3	200.93	1.6637e-06	1.423e-06	255.89	70.664	55.099	15.923	1.4925e-06	22.161	286.212	180.221	175.917	110.660	264.992	249.459	110.729	118.710	295.501	247.957	117.748	125.022	125.615	132.200	248.071	131.913	-8191	255	
50830.578	1	1	0	0	0.036883	0.13086	0.092185	0.1693	0.070216	0.12173	0.14658	0.27853	0.13683	0.075766	0.17426	0.14126	0.11486	0.11393	0.1382	0.14213	-4.0479	-5.3042	-4.4521	-4.4729	-5.1	-4.3167	-4.9812	-5.0021	-4.1396	-5.0687	-4.5062	-4.5354	-5.2146	-4.2292	-4.8063	-5.0437	456.545	405.945	436.700	388.846	444.863	283.732	265.940	104.695	392.571	311.638	376.380	263.060	439.126	106.859	307.304	405.059	0.00031797	0.00021631	4.405e-05	981.07	3.7551e-06	2.0676e-06	1070.1	200.96	4.339e-06	1.7004e-06	254.07	70.284	54.939	15.754	2.4825e-06	21.659	0.00018586	0.00014411	3.6446e-05	978.93	1.7689e-06	1.5732e-06	1064.2	200.9	1.7694e-06	1.4621e-06	255.81	70.49	55.135	15.953	1.5452e-06	22.105	280.628	190.959	172.610	110.669	256.553	271.546	110.713	118.397	294.555	205.466	117.537	125.402	125.095	132.250	253.627	131.635	-8191	255	
50830.699	1	1	0	0	0.1849	0.18254	0.21915	0.029617	0.3145	0.14081	0.32115	0.11316	0.1016	0.065703	0.17104	0.060413	0.19438	0.22524	0.1936	0.19135	-3.9542	-5.0708	-4.7229	-4.5687	-5.1896	-4.2708	-4.9125	-5.1104	-4.1062	-5.1354	-4.6562	-4.2042	-5.1896	-4.4146	-4.5708	-5.0938	142.241	340.540	455.408	291.748	338.945	114.041	371.548	389.717	397.036	372.810	125.259	127.802	359.620	403.984	306.472	430.971	0.00036245	0.00020893	5.1867e-05	984.64	4.5061e-06	1.7832e-06	1073.1	200.72	4.6165e-06	2.7495e-06	256.58	70.48	54.963	15.62	2.878e-06	21.948	0.00019276	0.00013633	3.7406e-05	978.75	1.7596e-06	1.5211e-06	1065	200.46	1.6943e-06	1.5653e-06	256.11	70.551	55.105	15.944	1.5813e-06	22.215	279.803	144.263	236.296	110.812	277.729	290.732	110.572	118.040	271.078	275.853	117.945	125.138	125.568	132.304	249.905	131.732	-8191	255	
50830.793	1	1	0	0	0.16059	0.10029	0.26711	0.21892	0.13972	0.070065	0.15728	0.17005	0.14475	0.27018	0.022467	0.07505	0.10031	0.18686	0.20622	0.25885	-3.9188	-4.8604	-4.7396	-4.3771	-5.1646	-4.3938	-4.75	-5.125	-4.1208	-4.9021	-4.8854	-4.2708	-5.125	-4.4604	-4.4479	-5.0312	402.449	374.978	156.131	451.089	276.209	375.213	146.821	108.610	210.510	361.348	439.617	380.001	409.837	348.708	296.138	229.214	0.00033172	0.00011129	5.946e-05	988.72	3.3668e-06	2.9594e-06	1073.3	200.99	4.0688e-06	4.0523e-06	254.25	70.439	54.806	15.663	2.1202e-06	21.787	0.00018332	0.00014082	3.7898e-05	979.86	1.6955e-06	1.7067e-06	1065.2	200.71	1.6934e-06	1.5612e-06	255.26	70.526	55.083	15.918	1.6507e-06	22.179	276.833	182.244	153.978	110.406	263.782	264.873	110.498	118.513	286.347	283.175	118.389	125.085	125.434	132.738	294.218	130.995	-8191	255	
50830.867	1	1	0	0	0.086197	0.21648	0.044704	0.28038	0.093436	0.077153	0.078264	0.13949	0.1149	0.11738	0.33071	0.23326	0.083751	0.10764	0.096603	0.063805	-3.8271	-4.8	-4.9479	-4.2333	-5.0938	-4.5875	-4.4354	-5.0792	-4.1917	-4.6417	-4.9604	-4.1687	-5.15	-4.6312	-4.4208	-5.1271	385.584	151.906	450.408	407.294	296.250	439.257	425.874	355.104	367.894	405.040	112.197	425.828	459.777	244.735	209.837	310.393	0.00035191	0.00018737	6.554e-05	986.76	3.2116e-06	3.7548e-06	1073.4	200.75	5.0717e-06	2.2342e-06	253.62	70.343	55.403	15.745	3.8243e-06	21.732	0.00018679	0.00013914	3.7771e-05	979.75	1.6894e-06	1.5392e-06	1066.3	200.88	1.7084e-06	1.5374e-06	255.15	70.575	55.155	15.979	1.6105e-06	22.137	281.637	164.117	224.470	110.522	280.067	257.525	110.534	118.453	281.695	261.793	117.808	125.357	125.289	132.981	277.042	131.077	-8191	255	
50830.984	1	1	0	0	0.076653	0.26578	0.080785	0.11092	0.30065	0.042786	0.32322	0.097709	0.10506	0.15876	0.12461	0.10293	0.21961	0.12915	0.030552	0.089555	-3.8604	-4.5188	-5.0458	-4.2875	-5.0229	-4.7354	-4.4812	-5.2875	-4.2708	-4.5354	-5.2229	-4.1687	-5.1417	-4.8146	-4.2688	-5.1667	250.963	140.759	183.944	287.888	353.264	116.921	387.149	367.844	127.689	288.768	111.268	407.327	341.440	112.226	277.776	109.023	0.00034358	0.00027295	5.5963e-05	984.46	3.2803e-06	3.5035e-06	1080.7	202.29	3.569e-06	2.0508e-06	256.42	70.851	54.96	15.619	1.7481e-06	21.677	0.00019347	0.00014241	3.7553e-05	978.31	1.7079e-06	1.5658e-06	1065.4	200.89	1.6931e-06	1.5762e-06	256.16	70.751	54.969	15.931	1.6257e-06	22.172	273.711	210.183	225.879	110.813	278.125	231.265	110.592	118.227	295.719	223.429	117.729	125.081	125.514	132.302	263.595	131.474	-8191	255	
50831.082	1	1	0	0	0.21551	0.0982	0.12665	0.33927	0.20502	0.27789	0.20279	0.20486	0.14745	0.04198	0.18728	0.085583	0.19824	0.2172	0.067901	0.20763	-4.1937	-4.4396	-5.0396	-4.1354	-4.8396	-4.825	-4.5354	-5.0542	-4.4125	-4.4396	-5.2875	-4.1167	-4.8354	-4.9688	-4.1813	-5.3479	310.245	216.209	302.469	400.690	455.630	201.546	372.585	343.329	201.775	458.251	112.163	144.099	250.875	380.720	216.227	336.643	0.0003559	0.00030805	6.4099e-05	979.53	4.5108e-06	3.2704e-06	1069.5	200.96	3.1122e-06	4.1035e-06	255.6	69.904	54.904	15.668	4.1525e-06	21.776	0.00018789	0.00014966	3.6491e-05	975.85	1.6188e-06	1.5535e-06	1062.2	200.81	1.7032e-06	1.6037e-06	256.34	70.447	54.983	15.923	1.644e-06	22.211	280.346	172.443	197.359	110.560	267.386	280.390	110.743	118.359	266.854	252.619	117.585	125.272	125.824	132.408	287.569	132.084	-8191	255	
50831.180	1	1	0	0	0.0058821	0.15767	0.33494	0.12172	0.12977	0.11975	0.097203	0.052288	0.08453	0.027826	0.14339	0.040451	0.19072	0.065534	0.050248	0.15228	-4.2354	-4.3083	-5.2396	-4.3479	-4.65	-5.025	-4.3521	-5.1146	-4.6875	-4.2937	-5.2917	-4.2875	-4.6958	-5.0771	-4.1833	-5.1167	235.505	324.150	146.096	441.119	374.739	437.139	300.329	225.799	272.488	243.604	190.505	400.058	310.143	154.240	199.223	304.679	0.00032843	0.00023452	7.0148e-05	977.73	4.2993e-06	1.2576e-06	1073.5	199.95	3.5207e-06	2.1883e-06	255.06	69.899	55.241	15.811	3.8612e-06	21.846	0.00019002	0.00015908	3.7572e-05	974.44	1.7519e-06	1.4922e-06	1060.7	200.17	1.7297e-06	1.5595e-06	255.52	70.547	54.994	15.933	1.6534e-06	22.216	277.853	190.226	231.857	110.478	257.569	281.747	110.524	118.455	232.400	269.167	117.863	125.300	126.024	132.494	251.888	131.863	-8191	255	
50831.273	1	1	0	0	0.13607	0.18037	0.060102	0.37301	0.15251	0.19121	0.29194	0.2302	0.12208	0.21052	0.12077	0.10172	0.13552	0.19034	0.06513	0.11803	-4.3479	-4.1062	-5.1521	-4.4833	-4.4646	-5.1813	-4.4792	-4.8812	-4.6125	-4.2833	-5.1729	-4.6396	-4.55	-5.1	-4.0667	-4.7729	136.350	444.064	245.587	399.304	283.416	390.216	110.456	412.796	241.433	193.655	378.581	384.552	154.595	415.504	127.606	383.872	0.00033878	0.0002623	8.4911e-05	980.96	3.5355e-06	3.3995e-06	1065.7	199.6	5.4836e-06	2.4824e-06	253.57	70.328	54.68	15.589	2.3734e-06	21.784	0.00018767	0.00016498	3.834e-05	975.66	1.8571e-06	1.6166e-06	1059.7	200.24	1.6934e-06	1.6794e-06	255.74	70.475	54.761	15.926	1.7892e-06	22.158	278.350	173.549	229.456	110.504	281.094	220.570	110.806	118.363	264.147	261.711	117.571	125.037	125.352	133.063	269.456	131.466	-8191	255	
50831.395	1	1	0	0	0.043888	0.25467	0.10913	0.25163	0.20413	0.18237	0.11808	0.24356	0.28755	0.14171	0.13879	0.33678	0.13453	0.18995	0.068828	0.084781	-4.5	-4.1771	-4.9417	-4.4833	-4.2979	-5.2354	-4.3667	-4.9958	-5.0979	-4.1375	-5.175	-4.4521	-4.3792	-5.2063	-4.2396	-4.7417	144.457	204.276	404.207	304.685	309.568	387.554	417.527	412.976	154.403	378.946	141.818	455.921	291.966	292.814	395.355	112.562	0.00032695	0.00019375	3.9028e-05	979.56	4.6324e-06	2.5416e-06	1068.4	201.47	3.194e-06	1.2808e-06	253.83	70.819	54.935	15.626	4.2792e-06	22.009	0.00017974	0.00015227	3.8865e-05	975.11	1.9529e-06	1.6293e-06	1061.7	200.78	1.6845e-06	1.622e-06	254.89	70.435	54.77	15.928	1.8103e-06	22.218	277.582	182.490	219.347	110.726	290.782	274.863	110.523	118.408	274.121	309.757	117.685	125.299	124.928	132.640	258.937	131.196	-8191	255	
50831.492	1	1	0	0	0.061593	0.33173	0.11196	0.1256	0.13744	0.2108	0.028087	0.28376	0.037618	0.22761	0.11874	0.1902	0.24641	0.15355	0.199	0.0066472	-4.7792	-4.2083	-5.1521	-4.6438	-4.3438	-4.9958	-4.2979	-4.6771	-5.0958	-4.1188	-4.9833	-4.6792	-4.2229	-5.4104	-4.2937	-4.7021	104.433	289.048	253.796	130.515	459.222	406.588	379.667	432.306	284.712	408.938	399.862	251.732	255.955	218.173	137.253	459.339	0.0003394	0.00022632	8.773e-05	987.46	5.4772e-06	2.5141e-06	1078.4	200.6	4.4237e-06	2.5405e-06	256.43	70.534	55.126	15.673	3.0893e-06	21.72	0.00018907	0.00015982	4.2225e-05	978.4	1.8905e-06	1.5428e-06	1064.3	200.45	1.7596e-06	1.6507e-06	256.62	70.472	55.016	15.926	1.7176e-06	22.185	276.086	218.125	165.936	110.486	266.014	283.329	110.689	118.261	281.827	237.125	117.760	124.934	125.276	132.544	275.618	131.553	-8191	255	
50831.562	1	1	0	0	0.082645	0.25864	0.1296	0.21074	0.12001	0.085642	0.23472	0.17185	0.033587	0.1327	0.065595	0.25142	0.17031	0.21873	0.20527	0.16227	-4.9292	-4.3729	-4.9625	-5.0458	-4.1771	-5.3625	-4.5312	-4.4375	-5.1875	-4.1667	-4.9917	-4.9646	-4.3063	-5.1562	-4.5458	-4.325	185.813	235.291	260.087	432.705	406.366	312.734	376.386	113.540	402.159	313.306	429.834	301.997	212.853	313.561	263.574	227.383	0.00031548	0.00022678	6.1204e-05	985.46	4.5642e-06	1.4351e-06	1076.6	201.82	2.9001e-06	3.4928e-06	256.14	69.939	54.741	15.628	2.9731e-06	21.888	0.000189	0.00016364	4.2289e-05	978.75	1.879e-06	1.5954e-06	1063.8	200.92	1.7797e-06	1.8112e-06	255.97	70.437	54.92	15.948	1.6372e-06	22.189	277.206	180.356	240.964	110.471	271.725	362.181	110.728	118.608	288.554	255.499	117.951	125.556	124.787	132.677	273.902	131.385	-8191	255	
50831.660	1	1	0	0	0.227	0.2542	0.052772	0.049038	0.09762	0.27509	0.12172	0.18697	0.015488	0.34571	0.02011	0.20614	0.13229	0.15174	0.24543	0.10999	-4.8042	-4.2354	-4.8313	-5.1125	-4.0708	-5.1188	-4.825	-4.3562	-5.1625	-4.2667	-4.8917	-5.025	-4.2792	-5	-4.7396	-4.4417	448.555	457.595	155.229	350.260	259.046	295.761	430.286	394.586	413.723	177.386	421.710	216.244	354.708	108.510	405.206	289.046	0.00033183	0.00016869	4.7641e-05	984.7	3.4968e-06	2.674e-06	1075.9	200.69	3.5058e-06	3.0221e-06	255.56	69.97	55.055	15.743	3.4014e-06	21.644	0.00019078	0.00015485	4.337e-05	978.54	1.8809e-06	1.6521e-06	1066.1	200.51	1.6723e-06	1.8229e-06	255.79	70.332	54.937	15.941	1.7022e-06	22.252	276.936	189.122	167.020	110.725	292.024	268.215	110.622	118.361	280.821	276.167	117.520	124.652	125.626	132.381	254.760	131.876	-8191	255	
50831.777	1	1	0	0	0.061091	0.20944	0.13919	0.047455	0.34768	0.10668	0.17133	0.067283	0.1226	0.041798	0.01629	0.083491	0.14545	0.1289	0.21521	0.06312	-4.8979	-4.1958	-4.5542	-5.2375	-4.05	-4.8854	-5.0021	-4.4354	-5.35	-4.3729	-4.5333	-5.2479	-4.2312	-4.95	-4.6833	-4.3667	276.074	236.692	126.262	390.862	268.678	310.345	432.924	108.292	102.549	423.796	185.212	455.920	433.460	151.394	298.456	187.021	0.00031956	0.00017746	5.8333e-05	983.8	4.9684e-06	4.4828e-06	1069.3	200.59	4.4329e-06	1.9102e-06	254.74	70.25	54.84	15.66	2.66e-06	21.744	0.00018239	0.00016952	4.1105e-05	976.78	1.9558e-06	1.6776e-06	1063	200.53	1.8184e-06	1.7416e-06	255.58	70.453	54.898	15.889	1.6617e-06	22.165	283.253	160.965	203.667	110.481	273.464	273.781	110.463	118.419	274.346	269.884	117.831	125.661	125.583	132.339	255.888	131.203	-8191	255	
50831.875	1	1	0	0	0.19132	0.062693	0.036527	0.077702	0.068699	0.1278	0.28352	0.11655	0.16442	0.31313	0.24721	0.26395	0.07011	0.12496	0.029783	0.068594	-4.9771	-4.4417	-4.5062	-5.2604	-4.2542	-4.9521	-5.025	-4.2792	-5.0583	-4.7	-4.3958	-5.1333	-4.1312	-4.7521	-5.1125	-4.2792	404.782	390.416	351.061	334.014	424.038	210.753	380.382	426.463	137.414	163.968	451.277	134.650	241.817	285.973	295.698	377.628	0.0003131	0.00017471	7.5053e-05	986.79	4.5445e-06	3.8049e-06	1073.6	200.39	4.8529e-06	1.7641e-06	254.02	71.104	54.375	15.658	2.8359e-06	21.687	0.00018492	0.00015346	4.4189e-05	979.71	1.9075e-06	1.6847e-06	1065.6	200.2	1.7457e-06	1.7124e-06	255.45	70.687	54.796	15.922	1.6973e-06	22.145	273.662	193.559	245.381	110.632	270.545	269.287	110.469	118.218	265.941	276.574	118.056	125.336	125.844	132.419	295.343	132.411	-8191	255	
50831.973	1	1	0	0	0.2292	0.05903	0.061475	0.17169	0.015265	0.066163	0.096398	0.30259	0.18985	0.087505	0.28635	0.32157	0.05433	0.14975	0.17091	0.27414	-4.8521	-4.6021	-4.3229	-5.2542	-4.3479	-4.7625	-5.2333	-4.3042	-5.0917	-4.5875	-4.3708	-5.2958	-4.2312	-4.5979	-4.9688	-4.1458	406.420	225.659	318.200	403.736	230.369	317.806	357.145	450.312	344.759	401.296	411.663	400.392	265.930	385.798	445.349	104.553	0.00032059	0.00014099	8.3198e-05	983.15	3.4304e-06	4.0865e-06	1071.2	201.75	4.0159e-06	1.9114e-06	254.09	71.229	55.101	15.628	1.0851e-06	22	0.00018541	0.00015157	4.4516e-05	979.69	1.9176e-06	1.6656e-06	1067.8	201.03	1.7068e-06	1.654e-06	255.82	70.711	54.925	15.895	1.621e-06	22.302	278.978	170.577	192.672	110.620	267.650	251.183	110.823	118.266	257.461	227.884	117.612	125.058	125.431	132.201	283.005	131.883	-8191	255	
50832.090	1	1	0	0	0.11016	0.11041	0.11301	0.099703	0.04316	0.13338	0.13192	0.17419	0.1208	0.1158	0.11957	0.15035	0.17335	0.17644	0.19426	0.10376	-4.5312	-4.7167	-4.0771	-5.3	-4.175	-4.3979	-5.1729	-4.15	-4.8688	-4.8562	-4.2667	-5.1521	-4.4437	-4.5521	-5.0833	-4.3375	193.783	346.197	205.069	398.815	273.162	242.344	438.881	426.364	442.462	345.926	433.148	189.118	340.807	111.165	395.805	365.301	0.00031017	0.00031804	5.7352e-05	984.03	4.884e-06	2.8903e-06	1074.3	201.52	4.1338e-06	2.8394e-06	256.5	69.922	54.768	15.606	2.9445e-06	21.82	0.00019278	0.00015342	4.3594e-05	980.01	1.9376e-06	1.7041e-06	1065.9	200.87	1.7947e-06	1.5943e-06	256.19	70.506	54.876	15.931	1.6666e-06	22.206	282.634	218.359	194.330	110.778	256.578	209.776	110.807	118.242	279.636	277.835	117.644	124.851	125.501	132.070	271.866	131.986	-8191	255	
50832.160	1	1	0	0	0.17308	0.36966	0.25072	0.43681	0.29993	0.20969	0.2239	0.12854	0.085958	0.20762	0.25355	0.10341	0.089688	0.09529	0.20959	0.27153	-4.5875	-4.8875	-4.1937	-5.3292	-4.6396	-4.325	-5.1687	-4.3042	-4.6521	-5.0083	-4.1813	-5.0521	-4.7771	-4.2083	-5.05	-4.3	103.844	267.763	348.345	116.226	117.938	164.616	377.918	122.318	111.596	253.866	104.399	386.460	306.393	348.103	120.551	399.790	0.00035469	0.00020745	6.4156e-05	987.15	5.8496e-06	3.4608e-06	1078.1	201.21	2.5061e-06	1.7104e-06	256.74	70.787	54.88	15.699	2.7307e-06	21.648	0.00019835	0.00014743	4.33e-05	982.28	1.9027e-06	1.6845e-06	1068.4	200.99	1.8471e-06	1.6047e-06	256.61	70.718	54.971	15.955	1.6955e-06	22.218	273.280	164.023	164.093	110.492	266.452	241.269	110.483	118.008	288.218	265.014	117.463	125.287	125.835	132.559	255.804	131.414	-8191	255	
50832.258	1	1	0	0	0.14372	0.25415	0.23145	0.11516	0.14678	0.19252	0.045795	0.28467	0.019121	0.30515	0.055963	0.10479	0.098385	0.038733	0.13218	0.068374	-4.35	-5.0104	-4.0625	-5.0604	-4.5479	-4.3208	-5.3187	-4.3917	-4.6396	-5.1208	-4.3229	-4.775	-4.8063	-4.1188	-5.0292	-4.5458	335.273	435.271	181.948	460.059	163.007	261.059	228.858	413.860	181.523	289.621	345.846	101.902	318.853	390.321	399.577	279.731	0.00028474	0.00018715	2.776e-05	989.65	3.8538e-06	4.2444e-06	1082.8	201.93	1.6898e-06	3.5334e-06	255.25	70.336	55.11	15.668	2.3901e-06	21.764	0.0001875	0.00016272	4.7722e-05	983.2	1.95e-06	1.7935e-06	1070.7	201.5	1.8098e-06	1.6873e-06	256.07	70.624	55.272	15.94	1.6799e-06	22.224	286.391	168.824	200.794	110.572	267.481	242.694	110.797	118.513	278.101	254.043	117.854	124.880	125.624	132.540	273.186	131.862	-8191	255	
50832.379	1	1	0	0	0.37141	0.17771	0.16916	0.12387	0.12657	0.048112	0.24674	0.14741	0.23059	0.094002	0.087374	0.13268	0.16334	0.17736	0.16023	0.14082	-4.1854	-5.1354	-4.1667	-5.0417	-4.8208	-4.2708	-5.1667	-4.5708	-4.4479	-5.1333	-4.3708	-4.9771	-4.9708	-4.0542	-5.0333	-4.5354	293.483	442.013	301.818	409.099	456.212	310.887	386.950	172.415	182.665	392.440	113.763	362.158	429.871	259.488	173.981	182.813	0.00030887	0.00018515	7.837e-05	989.84	3.6089e-06	2.2818e-06	1080.8	201.58	3.994e-06	1.7699e-06	257.61	70.564	55.06	15.709	3.9019e-06	21.89	0.00018929	0.00015579	4.6922e-05	984.25	1.8919e-06	1.7378e-06	1070.8	201.55	1.843e-06	1.6146e-06	257.28	70.609	55.212	15.99	1.7267e-06	22.287	279.855	212.368	196.475	110.578	209.279	237.206	110.921	118.112	272.069	236.180	118.086	124.756	125.342	132.057	278.095	131.750	-8191	255	
50832.477	1	1	0	0	0.1198	0.044519	0.061698	0.11642	0.11209	0.13535	0.15175	0.26731	0.07924	0.16201	0.028564	0.28863	0.18379	0.074966	0.17937	0.077482	-3.9875	-5.1271	-4.2771	-4.8729	-4.9021	-4.0979	-5.1542	-4.8458	-4.2875	-5.2208	-4.3458	-4.6292	-5.1896	-4.1542	-4.925	-4.7667	245.666	400.460	309.732	107.287	458.388	434.753	435.674	445.704	124.046	457.219	251.744	359.035	232.361	402.274	209.675	330.930	0.00028395	0.00019385	5.4813e-05	993.16	3.3615e-06	3.3951e-06	1086	201.59	2.9421e-06	1.9939e-06	258.36	70.782	55.431	15.648	3.0315e-06	21.94	0.00019941	0.00014724	4.4164e-05	987.27	1.8343e-06	1.8721e-06	1073.1	201.46	1.9049e-06	1.6047e-06	257.12	70.75	55.371	16.002	1.7132e-06	22.29	283.437	192.339	185.758	110.500	284.675	249.432	110.590	118.193	291.514	277.368	117.617	125.107	125.303	132.479	241.444	131.667	-8191	255	
50832.570	1	1	0	0	0.19647	0.19765	0.15604	0.10317	0.064961	0.1497	0.16145	0.16884	0.16905	0.16224	0.30639	0.059823	0.24609	0.17152	0.038233	0.070543	-4.0646	-5.1146	-4.5437	-4.7375	-5.2	-4.1771	-5.1562	-4.775	-4.0687	-5.1854	-4.5271	-4.3187	-5.15	-4.1479	-4.9187	-4.8292	182.213	172.667	283.794	126.566	309.876	275.379	384.987	381.932	325.588	444.338	412.411	427.677	338.380	359.700	420.707	134.747	0.00034011	0.00030136	7.9641e-05	989.69	4.353e-06	3.6278e-06	1083.3	200.98	2.1715e-06	1.7328e-06	256.94	69.81	55.233	15.738	2.6405e-06	22.055	0.00020756	0.00016804	4.4548e-05	987.32	1.7735e-06	1.7976e-06	1075.3	201.28	1.8932e-06	1.6461e-06	257.3	70.694	55.368	15.996	1.8476e-06	22.27	277.483	192.206	197.459	110.554	275.882	272.884	110.516	118.301	271.349	249.332	118.014	125.189	125.082	132.411	244.338	131.780	-8191	255	
50832.691	1	1	0	0	0.096731	0.19787	0.27773	0.10142	0.13843	0.16613	0.073617	0.060535	0.044854	0.31521	0.33117	0.1989	0.044048	0.12714	0.20511	0.32262	-4.0021	-5.1562	-4.6292	-4.4167	-5.0604	-4.1188	-4.8542	-5.0708	-4.1333	-5.025	-4.7104	-4.3854	-5.3292	-4.3667	-4.7104	-4.9604	224.982	460.006	213.365	151.964	143.866	249.514	345.667	117.100	195.415	296.260	429.721	411.063	307.357	392.376	361.352	412.242	0.00035021	0.00036135	1.2104e-05	1000.4	3.9931e-06	3.9898e-06	1079.2	201.41	4.8808e-06	3.4208e-06	256.7	70.591	55.171	15.48	2.472e-06	21.946	0.00019773	0.0001682	4.2353e-05	988.38	1.8388e-06	1.8262e-06	1073.4	201.99	1.8633e-06	1.6667e-06	257.19	70.87	55.326	15.952	1.7142e-06	22.292	281.337	153.083	128.606	110.291	256.566	257.393	110.518	118.656	273.919	245.548	117.832	125.165	125.376	132.186	319.625	131.952	-8191	255	
50832.766	1	1	0	0	0.29357	0.054982	0.1003	0.18703	0.2039	0.26044	0.13408	0.11967	0.20801	0.10609	0.18737	0.071614	0.078963	0.17195	0.18886	0.1598	-3.6813	-4.8313	-4.625	-4.4875	-5.15	-4.1562	-4.6562	-5.1396	-4.1771	-4.9333	-4.9458	-4.3146	-5.3313	-4.5333	-4.4583	-5.15	235.152	409.295	435.027	385.444	310.045	412.570	442.082	117.705	331.192	139.493	443.101	230.249	283.798	231.205	410.244	413.175	0.00030935	0.00020718	2.9187e-05	988.34	3.8867e-06	2.7219e-06	1084.3	202.59	4.0827e-06	2.5632e-06	256.2	70.518	55.484	15.853	4.6033e-06	21.686	0.00019779	0.0001603	4.4125e-05	985.61	1.86e-06	1.7705e-06	1075.4	201.85	1.8954e-06	1.6014e-06	257.46	70.653	55.311	16.078	1.7466e-06	22.242	281.682	189.553	150.007	110.564	255.014	297.837	110.763	118.571	274.565	302.679	117.733	125.580	125.613	132.275	246.871	131.673	-8191	255	
50832.859	1	1	0	0	0.16948	0.086728	0.039608	0.10988	0.15258	0.25669	0.22125	0.12323	0.14137	0.10586	0.11571	0.078672	0.24276	0.13494	0.14224	0.11809	-3.7958	-4.8458	-4.9187	-4.2312	-5.2229	-4.4042	-4.4146	-5.2312	-4.0917	-4.8125	-4.9187	-4.2562	-5.025	-4.3854	-4.2188	-5.0917	285.698	284.464	115.306	319.861	455.273	342.615	428.938	329.763	401.050	171.849	394.678	347.997	394.515	108.595	312.531	356.267	0.00031257	0.00027913	7.4767e-05	992.96	5.6988e-06	3.0583e-06	1087.2	201.57	2.3306e-06	1.9521e-06	258.2	70.865	55.564	15.592	4.1366e-06	21.687	0.00020631	0.00015392	4.3709e-05	988.68	1.9066e-06	1.7636e-06	1074.8	201.86	1.9389e-06	1.6936e-06	257.51	70.924	55.437	16.043	1.7838e-06	22.263	281.896	182.732	198.123	110.534	241.704	262.858	110.469	118.244	252.813	278.818	117.731	125.026	125.545	132.695	279.006	131.515	-8191	255	
50832.953	1	1	0	0	0.17201	0.14716	0.23085	0.21736	0.21962	0.12138	0.19275	0.16431	0.063469	0.077152	0.051262	0.16059	0.097721	0.10498	0.10942	0.35048	-3.8438	-4.65	-4.8271	-4.2188	-5.0667	-4.6125	-4.4104	-5.3521	-4.2667	-4.7542	-5.0667	-4.1896	-4.9167	-4.7021	-4.2688	-5.1333	210.217	221.338	453.310	357.755	247.182	171.634	384.904	364.274	244.115	200.687	228.226	120.308	154.978	151.843	379.614	433.889	0.00032739	0.00023906	7.2469e-05	990.05	4.5919e-06	3.6426e-06	1086.6	201.53	3.5951e-06	3.1949e-06	255.36	71.105	54.811	15.794	3.4607e-06	21.581	0.0002051	0.00016549	4.0874e-05	987.05	1.852e-06	1.7838e-06	1075	201.81	1.893e-06	1.7177e-06	256.91	71.014	55.171	15.999	1.89e-06	22.186	281.724	203.093	179.920	110.296	255.432	295.410	110.626	118.634	260.140	268.814	117.608	125.325	125.324	133.010	237.045	131.603	-8191	255	
50833.074	1	1	0	0	0.016175	0.12193	0.13595	0.41448	0.2179	0.080898	0.25273	0.29795	0.094891	0.11325	0.088005	0.087105	0.18121	0.073531	0.1257	0.097166	-4.0917	-4.4417	-5.1479	-4.3083	-4.8438	-4.7479	-4.4458	-5.3042	-4.4021	-4.5521	-5.1354	-4.3354	-4.9042	-4.9292	-4.125	-5.15	452.526	165.361	317.700	358.384	208.847	455.931	431.608	304.466	113.706	126.724	166.900	297.126	391.301	200.256	305.340	109.582	0.0003326	0.0001861	0.00010113	998.51	5.5798e-06	3.3892e-06	1086.4	202.08	3.4229e-06	2.8037e-06	258.84	70.442	55.683	15.622	1.041e-06	21.807	0.0002026	0.00016166	4.2039e-05	990	1.8571e-06	1.7115e-06	1076.3	202.11	1.9341e-06	1.6692e-06	257.76	70.982	55.449	15.958	1.7929e-06	22.278	271.056	156.488	213.533	110.547	276.007	214.704	110.563	118.608	262.615	265.311	118.037	124.928	125.457	132.151	235.228	131.588	-8191	255	
50833.172	1	1	0	0	0.11974	0.16187	0.15086	0.12462	0.071661	0.10187	0.12292	0.16886	0.32959	0.24732	0.12226	0.27616	0.028351	0.096022	0.24064	0.081025	-4.1687	-4.3688	-5.0354	-4.2854	-4.6875	-4.8646	-4.2396	-5.0312	-4.4792	-4.3229	-5.2063	-4.3167	-4.8354	-5.125	-4.0312	-5.0875	347.308	384.154	157.803	119.153	185.184	444.039	359.764	414.640	409.548	246.248	193.262	388.827	305.335	353.800	123.692	345.630	0.00032667	0.00014789	7.8328e-05	998.75	2.4518e-06	2.3775e-06	1085.8	202.53	4.1128e-06	3.8441e-06	256.24	70.203	55.366	15.796	1.9002e-06	21.841	0.00020448	0.00016507	4.1181e-05	992.22	1.9781e-06	1.7636e-06	1078.3	202.34	1.9413e-06	1.8636e-06	257.2	70.967	55.465	16.046	1.8949e-06	22.299	276.999	182.674	172.121	110.527	288.083	291.203	110.597	118.341	279.385	235.728	117.236	125.191	125.192	132.132	220.503	131.358	-8191	255	
50833.266	1	1	0	0	0.15202	0.088343	0.10177	0.19152	0.2352	0.080148	0.42878	0.19322	0.22208	0.066158	0.032756	0.31542	0.15311	0.09092	0.10492	0.1061	-4.3458	-4.2604	-5.0687	-4.3562	-4.4708	-4.9583	-4.4229	-5.0375	-4.7292	-4.3938	-5.1958	-4.3375	-4.3333	-5.0021	-4.2188	-4.9313	392.997	261.836	379.712	121.370	411.005	320.992	380.369	357.760	434.823	155.567	435.278	101.200	185.480	393.171	339.781	412.837	0.00031502	0.00024868	9.8149e-05	1000.2	4.8354e-06	4.9209e-07	1091.3	203.21	3.9792e-06	4.2572e-06	256.73	71.541	55.488	15.784	2.8562e-06	22.033	0.00020547	0.00018276	4.5098e-05	993.34	2.1412e-06	1.7769e-06	1081.2	202.58	1.9915e-06	2.0432e-06	257.65	71.368	55.554	16.049	1.8726e-06	22.405	278.570	181.611	211.832	110.759	265.277	194.742	110.529	118.212	276.119	227.156	117.799	125.024	125.254	132.510	264.671	131.709	-8191	255	
50833.363	1	1	0	0	0.066106	0.070917	0.059912	0.20779	0.19138	0.13656	0.34446	0.31746	0.11839	0.14171	0.20258	0.067561	0.033373	0.32191	0.15784	0.078685	-4.6188	-4.2521	-5.1521	-4.4104	-4.3896	-5.1375	-4.2875	-4.8146	-4.7292	-4.1083	-5.2458	-4.6521	-4.375	-5.0188	-4.2021	-4.8896	315.983	184.196	144.613	405.093	295.383	278.688	378.281	406.879	240.820	316.211	110.245	402.468	304.430	428.644	429.384	374.244	0.00034172	0.00023526	7.1915e-05	1000.1	4.2048e-06	2.78e-06	1087.8	205.12	2.6282e-06	2.4633e-06	258.07	70.513	55.296	15.793	2.3447e-06	22.066	0.00019665	0.00017521	4.8765e-05	996.52	2.1756e-06	1.7302e-06	1082.4	203.17	1.8574e-06	1.8074e-06	258.94	71.087	55.748	16.126	1.8216e-06	22.402	279.806	172.158	185.642	110.422	256.052	254.325	110.433	118.177	263.961	232.441	118.022	125.074	125.651	132.379	270.119	131.490	-8191	255	
50833.461	1	1	0	0	0.17149	0.057937	0.14433	0.1932	0.27238	0.081403	0.31767	0.11335	0.24195	0.11778	0.034855	0.16047	0.1145	0.16595	0.18257	0.043233	-4.7688	-4.1354	-4.9771	-4.7104	-4.3896	-5.0375	-4.4396	-4.8438	-4.9062	-4.1792	-5.2417	-4.6646	-4.2688	-5.1813	-4.1583	-4.6021	384.635	373.803	352.925	338.661	108.744	191.708	144.232	138.708	345.979	406.467	111.148	370.359	441.196	406.180	127.253	243.810	0.00035635	0.00022857	5.3542e-05	1004.2	4.2874e-06	1.8248e-06	1096.1	203.79	4.3164e-06	2.6373e-06	257.93	71.18	55.56	15.879	3.1307e-06	22.022	0.00020676	0.00017196	4.4375e-05	996.64	2.0341e-06	1.6914e-06	1082.9	203.24	1.8239e-06	1.8054e-06	258.82	71.212	55.519	16.117	1.8905e-06	22.358	280.050	204.752	186.383	110.578	266.169	258.303	110.478	118.468	275.529	246.862	117.593	125.406	125.578	132.589	294.533	131.274	-8191	255	
50833.555	1	1	0	0	0.11375	0.19037	0.23762	0.06159	0.19492	0.15595	0.12104	0.14533	0.19262	0.098749	0.081286	0.091495	0.2188	0.13305	0.14431	0.11533	-4.8208	-4.1208	-4.8417	-4.9375	-4.1188	-5.1604	-4.5417	-4.6583	-5.0646	-4.1438	-4.9563	-4.7417	-4.4271	-5.1521	-4.3667	-4.4375	342.699	194.698	428.826	132.867	349.555	458.387	418.359	450.376	139.215	421.896	407.903	296.724	436.729	238.930	383.866	149.243	0.00031353	0.0002442	7.0156e-05	1000.9	3.9212e-06	4.0472e-06	1084.7	203.25	3.1734e-06	2.3619e-06	258.49	70.659	55.193	15.717	3.3869e-06	21.919	0.00018919	0.00015807	4.1809e-05	993.84	1.9875e-06	1.5423e-06	1079	202.73	1.6795e-06	1.7851e-06	258.12	71.076	55.468	16.061	1.6982e-06	22.268	277.641	224.080	192.052	110.349	260.949	227.100	110.711	118.231	274.754	240.509	117.705	125.312	125.127	132.682	252.826	131.370	-8191	255	
50833.652	1	1	0	0	0.099051	0.23123	0.17963	0.207	0.066264	0.23995	0.11076	0.058919	0.26695	0.13338	0.24054	0.019804	0.093543	0.19837	0.11286	0.096934	-4.7646	-4.2625	-4.925	-5.0229	-4.2562	-5.0854	-4.8417	-4.4083	-5.1896	-4.0271	-4.7937	-5.0021	-4.1375	-5.2333	-4.6583	-4.2375	459.685	429.270	377.244	449.825	116.233	390.470	376.963	215.566	401.676	453.891	296.869	234.464	150.982	372.880	118.311	385.248	0.00035754	0.00026187	6.5311e-05	1002.8	5.5238e-06	4.2909e-06	1084.8	202.01	3.7149e-06	1.8651e-06	255.33	70.884	55.391	15.689	3.4208e-06	21.984	0.00018618	0.00014757	4.0887e-05	993.01	1.7805e-06	1.5954e-06	1078.9	202.31	1.7316e-06	1.6865e-06	257.81	71.164	55.352	16.054	1.609e-06	22.352	272.659	169.236	192.303	110.465	271.967	242.635	110.664	118.253	273.015	191.378	117.215	124.602	125.063	132.051	252.306	131.138	-8191	255	
50833.773	1	1	0	0	0.14458	0.19683	0.26844	0.30967	0.089311	0.026905	0.36304	0.21101	0.04137	0.14227	0.19171	0.052905	0.19097	0.31829	0.15354	0.062535	-4.8646	-4.05	-4.5188	-5.0833	-4.0813	-4.9917	-4.8	-4.1125	-5.075	-4.3667	-4.6333	-5.1438	-4.2562	-5.0042	-4.7438	-4.2042	197.935	152.910	100.948	415.516	438.071	308.635	394.609	277.995	257.807	290.421	262.628	358.610	327.249	367.058	192.384	283.712	0.00031638	0.00013689	3.6319e-05	995.82	2.6432e-06	4.2824e-06	1087.4	203.95	4.0036e-06	2.8668e-06	255.02	70.98	55.139	15.736	4.7565e-06	21.861	0.00018334	0.00015273	4.09e-05	991.1	1.8172e-06	1.4861e-06	1077.1	202.6	1.5308e-06	1.5582e-06	257.06	71.174	55.36	16.023	1.7041e-06	22.273	275.963	176.872	188.966	110.736	273.764	253.723	110.967	117.859	275.484	237.095	117.821	125.570	125.500	132.924	254.730	131.555	-8191	255	
50833.867	1	1	0	0	0.16593	0.12414	0.10751	0.2433	0.15419	0.091278	0.20371	0.20038	0.13691	0.21674	0.14412	0.12285	0.23536	0.05995	0.16183	0.22437	-4.9187	-4.4104	-4.5396	-5.1542	-4.2521	-4.7937	-5.075	-4.2979	-5.2812	-4.3646	-4.5875	-5.1125	-4.3562	-4.7646	-4.8313	-4.1937	352.152	103.592	199.325	426.162	253.673	352.992	420.796	208.461	368.873	358.775	328.229	173.572	456.182	155.739	447.702	426.466	0.00032195	0.00027024	5.7809e-05	1001.3	3.9184e-06	3.7248e-06	1086.1	202.29	3.4073e-06	3.2855e-06	257.84	70.96	55.178	15.718	2.8797e-06	21.706	0.00018548	0.00015376	4.0215e-05	992.91	1.8607e-06	1.5466e-06	1077.3	202.29	1.7106e-06	1.533e-06	257.81	71.162	55.414	16.029	1.6396e-06	22.259	271.165	185.501	163.042	110.398	272.471	269.391	110.623	118.301	278.966	259.561	117.293	125.399	125.451	132.324	259.722	131.401	-8191	255	
50833.965	1	1	0	0	0.083462	0.18181	0.058608	0.19079	0.21848	0.09354	0.30303	0.15388	0.065856	0.21503	0.29303	0.20066	0.17551	0.10275	0.15527	0.082126	-4.8604	-4.5667	-4.2812	-5.25	-4.3646	-4.6708	-5.2312	-4.175	-4.9021	-4.6354	-4.2646	-5.1687	-4.2958	-4.6854	-4.9104	-4.2812	220.065	458.648	276.116	390.661	359.129	131.959	441.341	191.863	156.242	388.362	440.785	281.665	279.864	119.885	174.374	226.344	0.00031407	0.00022428	7.9187e-05	999.9	3.4202e-06	2.6494e-06	1089	202.89	3.2057e-06	2.1275e-06	256.69	70.817	55.18	15.678	4.4828e-06	22.026	0.00017869	0.00014796	4.1866e-05	991.35	1.9063e-06	1.5525e-06	1077.5	202.59	1.6401e-06	1.546e-06	256.85	71.058	55.478	16.021	1.5013e-06	22.343	280.260	188.853	189.199	110.491	300.872	241.003	110.934	118.148	275.185	237.365	117.771	124.894	125.631	132.338	235.076	131.830	-8191	255	
50834.059	1	1	0	0	0.078113	0.26953	0.197	0.10456	0.13101	0.10717	0.17118	0.21627	0.040667	0.063459	0.11535	0.026132	0.013071	0.2733	0.12944	0.07758	-4.8208	-4.6083	-4.2958	-5.3021	-4.2021	-4.5167	-5.1917	-4.1729	-4.9167	-4.7604	-4.1937	-5.1813	-4.3479	-4.5625	-5.1417	-4.1771	193.306	223.185	302.564	103.823	285.804	155.527	455.001	449.926	295.129	300.355	350.026	303.487	244.981	310.098	264.463	256.269	0.00035836	0.00027528	7.4557e-05	1001.1	4.4054e-06	3.9898e-06	1084.2	201.1	5.2991e-06	1.9323e-06	256.5	70.675	55.607	15.758	8.1825e-07	21.917	0.00018363	0.00015088	4.2327e-05	991.48	1.7992e-06	1.5568e-06	1077.8	201.78	1.7123e-06	1.5066e-06	257.78	70.905	55.325	16.02	1.4601e-06	22.296	276.737	203.851	141.824	110.763	273.887	251.838	110.667	118.302	253.274	221.859	117.401	125.295	124.975	131.363	279.695	131.292	-8191	255	
50834.156	1	1	0	0	0.14566	0.038624	0.13375	0.23784	0.047625	0.1152	0.089661	0.12571	0.22527	0.063088	0.16284	0.18154	0.31614	0.16469	0.15486	0.2961	-4.5563	-5.0167	-4.2417	-5.2979	-4.4146	-4.2208	-5.175	-4.2292	-4.7562	-4.8208	-4.125	-5.1979	-4.4625	-4.4708	-5.1604	-4.2833	293.435	222.985	366.127	144.074	123.283	201.484	453.704	448.862	340.098	107.363	339.274	365.876	404.111	351.106	309.060	111.516	0.000304	0.00024298	7.1506e-05	1002.4	2.2112e-06	3.1408e-06	1098.2	202.21	4.4856e-06	3.022e-06	258.18	71.312	55.35	15.781	4.4723e-06	22.032	0.00019026	0.00014828	4.3101e-05	994.57	1.8331e-06	1.6153e-06	1081.1	202.35	1.7359e-06	1.5887e-06	257.61	71.212	55.392	16.064	1.6203e-06	22.345	280.965	217.337	183.976	110.107	265.594	294.529	110.092	117.803	294.394	255.641	116.861	124.362	124.872	131.846	234.669	130.526	-8191	255	
50834.250	1	1	0	0	0.21269	0.1587	0.21403	0.24222	0.14663	0.10378	0.11445	0.08055	0.14123	0.088586	0.051271	0.24934	0.33656	0.16988	0.20597	0.084724	-4.3542	-4.9167	-4.1062	-5.1917	-4.7312	-4.2542	-5.2479	-4.3167	-4.6396	-5.0437	-4.2188	-4.8125	-4.8167	-4.1208	-5.1417	-4.4708	137.703	432.697	308.834	379.490	183.456	124.041	399.450	344.167	358.338	432.695	164.357	311.516	288.818	107.282	112.855	459.573	0.00031191	0.00035165	0.00011591	1006.8	4.7152e-06	2.0323e-06	1096.2	204.63	5.3771e-06	3.5329e-06	258.08	71.704	55.853	15.806	1.6444e-06	22.013	0.00018161	0.0001501	4.2045e-05	994.4	1.7646e-06	1.5885e-06	1080.9	202.61	1.6943e-06	1.4888e-06	257.85	71.229	55.575	16.038	1.556e-06	22.378	285.673	212.204	202.323	109.919	270.056	215.920	110.066	118.299	255.711	240.648	117.007	124.584	124.822	131.781	264.661	131.528	-8191	255	
50834.371	1	1	0	0	0.3026	0.19258	0.1446	0.30102	0.1874	0.14046	0.096936	0.073811	0.16254	0.10742	0.08096	0.22996	0.18595	0.25635	0.13513	0.17909	-4.1813	-5.0354	-4.1292	-4.9292	-4.7229	-4.2208	-5.2625	-4.5625	-4.2562	-4.9771	-4.3313	-4.8583	-4.8833	-4.1167	-5.0771	-4.4729	201.599	166.923	267.998	106.637	170.452	237.150	399.094	414.307	124.605	109.964	362.847	417.551	282.123	221.344	232.784	247.949	0.00036419	0.00035148	9.4053e-05	1008.8	3.5227e-06	2.6171e-06	1095.1	203.54	5.3653e-06	1.5091e-06	258.13	71.383	56.011	15.657	2.7914e-06	21.953	0.00019758	0.00015961	4.5789e-05	996.03	1.8631e-06	1.7613e-06	1082.5	202.98	1.7608e-06	1.5587e-06	258.4	71.049	55.585	16.022	1.5979e-06	22.367	280.933	216.801	153.470	109.970	283.915	248.767	110.147	117.603	264.009	280.373	117.143	124.506	124.957	132.215	235.475	131.118	-8191	255	
50834.469	1	1	0	0	0.25411	0.084439	0.12379	0.15088	0.1503	0.044973	0.21987	0.028209	0.1898	0.058618	0.11124	0.16918	0.13079	0.24905	0.13691	0.13088	-4.1	-4.9812	-4.1896	-4.925	-4.9833	-4.0604	-5.1542	-4.5625	-4.2854	-5.0687	-4.3187	-4.7146	-4.9604	-4.0729	-4.8667	-4.7229	427.197	379.554	427.315	444.424	434.636	383.336	395.917	403.335	207.654	209.924	342.964	451.982	438.544	292.442	388.750	328.619	0.00034108	0.00010631	8.8116e-05	1004.2	4.7202e-06	3.1159e-06	1102.6	204.81	2.4001e-06	1.8438e-06	258.06	70.861	55.826	15.756	4.5737e-06	21.982	0.00019558	0.00014407	4.7364e-05	995.77	1.8499e-06	1.7547e-06	1083.8	202.91	1.7151e-06	1.6311e-06	257.71	70.995	55.705	16.012	1.6161e-06	22.359	275.059	180.080	170.503	110.035	254.214	231.496	109.957	117.315	229.318	232.470	116.774	124.419	124.916	132.124	259.880	131.270	-8191	255	
50834.562	1	1	0	0	0.13063	0.027067	0.20935	0.18529	0.023332	0.13165	0.099113	0.057696	0.078692	0.2182	0.28081	0.18195	0.16684	0.092334	0.13293	0.075097	-3.9542	-5.1146	-4.1458	-4.6417	-5.1333	-4.0625	-5.0354	-4.775	-4.0896	-5.0417	-4.3896	-4.5021	-5.175	-4.0042	-4.7896	-4.8208	298.651	114.349	177.941	367.834	413.682	279.220	356.735	232.232	338.546	269.087	456.840	266.681	426.196	247.747	386.613	426.343	0.00034617	0.0001923	7.1143e-05	1008.8	3.7463e-06	4.3965e-06	1096.6	203.42	4.18e-06	1.6542e-06	259.59	71.393	55.494	15.737	2.4925e-06	22.066	0.00019609	0.00014554	4.5719e-05	997.84	1.738e-06	1.7509e-06	1083.6	202.41	1.8421e-06	1.5785e-06	258.17	71.212	55.611	16.045	1.7529e-06	22.386	274.125	199.491	218.112	109.926	266.992	230.494	109.980	117.799	280.293	278.673	117.143	124.353	124.725	131.886	271.727	131.243	-8191	255	
50834.660	1	1	0	0	0.18498	0.32205	0.29916	0.2071	0.044739	0.15325	0.077162	0.17807	0.24013	0.021895	0.11889	0.25668	0.14268	0.088024	0.092687	0.19532	-3.8646	-5.0146	-4.4417	-4.375	-5.0687	-4.125	-4.9042	-4.8771	-4	-5.1188	-4.5521	-4.3812	-5.2208	-4.2354	-4.6958	-5.0437	247.726	371.222	190.205	417.169	112.847	243.965	404.581	448.644	276.310	381.994	297.488	294.253	403.200	169.504	207.033	191.294	0.00035165	0.00030595	7.4401e-05	1000.6	3.165e-06	3.0506e-06	1095.4	204.75	4.8503e-06	3.1872e-06	257.66	70.975	56.194	15.792	4.5475e-06	22.075	0.00019887	0.00015381	4.3652e-05	994.48	1.616e-06	1.7279e-06	1086.2	202.95	1.8944e-06	1.6108e-06	258.02	71.177	55.918	16.118	1.7223e-06	22.394	277.941	212.270	201.939	110.104	299.254	259.481	110.165	118.118	276.380	267.919	117.155	124.041	124.997	131.575	240.640	131.208	-8191	255	
50834.730	1	1	0	0	0.078949	0.18619	0.17072	0.13957	0.11842	0.042526	0.24049	0.22746	0.068643	0.14507	0.37742	0.28057	0.2108	0.07294	0.25949	0.18147	-3.6854	-5.0208	-4.7	-4.3417	-5.0896	-4.3417	-4.6	-5.0875	-4.1937	-4.8271	-4.6896	-4.3375	-5.1729	-4.4083	-4.4875	-5.15	216.147	412.103	384.435	119.850	455.908	300.193	355.716	386.474	243.201	245.770	444.583	402.550	445.434	349.283	442.323	449.248	0.00028633	0.00018433	8.7688e-05	999.99	2.737e-06	2.1537e-06	1096.4	202.11	3.5999e-06	2.3554e-06	258.14	70.248	55.264	15.724	3.9388e-06	21.848	0.00019261	0.00015187	4.3684e-05	996	1.7567e-06	1.7376e-06	1083.8	202.59	1.8502e-06	1.5795e-06	258.47	71.122	55.526	16.061	1.765e-06	22.358	279.694	199.524	182.648	110.655	252.846	311.742	110.588	118.318	293.524	250.102	117.884	125.001	125.338	132.519	253.612	131.745	-8191	255	
50834.852	1	1	0	0	0.13557	0.063047	0.1994	0.22772	0.15556	0.11074	0.15114	0.11703	0.031618	0.077322	0.25985	0.22665	0.10242	0.16948	0.30872	0.13372	-3.7125	-4.9042	-4.7479	-4.325	-5.0229	-4.3417	-4.6125	-4.9771	-4.2937	-4.6708	-5.0125	-4.2688	-5.0458	-4.3333	-4.3438	-5.2167	331.561	444.925	229.254	410.084	251.072	230.769	326.657	220.220	272.648	384.195	367.894	274.627	359.111	269.719	356.534	401.945	0.00032524	0.00018786	5.4733e-05	1002.9	4.6876e-06	2.5914e-06	1098.4	203.47	4.3488e-06	3.2777e-06	259.59	70.996	55.926	15.825	2.7468e-06	21.992	0.00019946	0.00015397	4.2333e-05	997.02	1.9063e-06	1.7805e-06	1086.8	202.86	1.8437e-06	1.7612e-06	259.37	71.35	55.751	16.131	1.7402e-06	22.392	278.520	193.984	210.981	110.409	270.344	267.697	110.912	118.314	284.044	262.063	117.884	125.244	125.934	132.443	247.267	131.612	-8191	255	
50834.945	1	1	0	0	0.26578	0.065149	0.1475	0.16244	0.16461	0.1705	0.073518	0.12223	0.18219	0.22597	0.23912	0.10735	0.10942	0.13337	0.15819	0.055111	-3.7062	-4.6208	-4.7167	-4.2854	-5.0437	-4.5792	-4.6521	-5.1583	-4.2896	-4.6396	-5.0104	-4.2146	-5.1479	-4.6708	-4.2354	-5.2979	397.081	316.819	441.215	370.739	240.299	451.631	370.400	420.498	366.220	416.269	424.894	150.111	188.666	431.492	168.763	211.747	0.00035746	0.00014706	7.1412e-05	1006.5	4.8827e-06	2.7738e-06	1093.2	203.51	4.0273e-06	2.8372e-06	258.41	71.338	55.96	15.814	2.9653e-06	21.811	0.00020067	0.00015072	4.1802e-05	1002.3	1.8492e-06	1.6694e-06	1088.7	203.58	1.9769e-06	1.7292e-06	259.21	71.591	55.893	16.138	1.7664e-06	22.391	272.845	187.825	193.797	110.597	268.926	226.776	110.498	118.279	260.187	248.647	117.803	125.104	125.633	132.716	221.439	131.432	-8191	255	
50835.043	1	1	0	0	0.06994	0.092478	0.033646	0.12505	0.052413	0.16101	0.19736	0.16796	0.022245	0.14932	0.23704	0.16667	0.29678	0.28412	0.17635	0.113	-4.1146	-4.6792	-5.0958	-4.2354	-4.9125	-4.8292	-4.3	-5.2438	-4.2396	-4.4354	-5.1083	-4.0958	-4.8	-4.7958	-4.1479	-5.0875	393.901	394.957	243.884	377.516	113.478	310.087	114.436	398.362	396.611	236.917	406.341	440.697	256.932	302.658	307.082	128.582	0.00032213	0.00020636	4.8523e-05	1009	4.5979e-06	2.6897e-06	1101.8	204.34	4.59e-06	3.7723e-06	259.05	71.277	56.225	15.924	2.8485e-06	22.19	0.00019875	0.00016215	4.2705e-05	1004.8	1.8926e-06	1.7424e-06	1093	203.88	1.9721e-06	1.8054e-06	260.08	71.582	56.156	16.204	1.7507e-06	22.508	282.837	203.923	252.761	110.688	280.668	239.037	110.559	118.300	253.905	260.964	117.557	124.961	125.203	131.965	290.107	131.262	-8191	255	
50835.141	1	1	0	0	0.095037	0.052608	0.07667	0.11126	0.23485	0.13489	0.12854	0.25896	0.073153	0.32145	0.049036	0.11709	0.060816	0.25452	0.18575	0.037903	-4.1896	-4.3063	-5.1542	-4.3917	-4.6562	-4.8938	-4.3167	-5.1396	-4.4833	-4.2229	-5.1854	-4.2688	-4.675	-5.0396	-4.0417	-5.0417	227.430	450.304	338.343	407.536	429.592	405.613	426.901	424.649	390.816	223.105	192.539	353.468	391.347	424.158	201.190	358.205	0.00033457	0.00033845	7.629e-05	1014.3	4.5733e-06	2.1767e-06	1105.2	204.85	3.8981e-06	1.3779e-06	260.32	71.381	56.26	15.915	3.3323e-06	22.037	0.00019756	0.00016477	4.4484e-05	1008.7	1.9347e-06	1.8152e-06	1096.2	204.22	1.8325e-06	1.7299e-06	260.48	71.629	56.251	16.187	1.8348e-06	22.447	276.068	198.148	188.738	110.416	272.441	218.644	110.540	118.387	267.513	228.477	117.864	125.227	125.479	131.956	274.704	131.762	-8191	255	
50835.262	1	1	0	0	0.14746	0.089163	0.11419	0.26618	0.33169	0.16311	0.081785	0.23088	0.087935	0.022406	0.14193	0.18027	0.093688	0.174	0.21822	0.084229	-4.1625	-4.2854	-5.2812	-4.3396	-4.675	-4.9062	-4.2896	-4.9688	-4.5687	-4.1854	-5.1896	-4.3771	-4.5708	-4.9896	-4.1646	-4.9396	255.683	377.955	316.538	366.071	304.039	173.909	363.433	443.284	270.540	336.697	395.084	135.694	317.058	200.483	229.615	224.177	0.00035681	0.00010566	8.1493e-05	1011.5	5.6889e-06	3.511e-06	1104.7	204.57	4.5282e-06	1.5831e-06	258.76	71.618	56.051	15.968	3.5755e-06	22.243	0.00020257	0.00016424	4.4548e-05	1006.9	1.9061e-06	1.6069e-06	1096.4	204.32	1.8612e-06	1.7266e-06	260.18	71.707	56.146	16.286	1.7596e-06	22.588	273.664	167.384	197.846	110.246	268.426	253.676	110.678	118.337	285.398	252.967	117.781	124.969	125.387	132.733	242.122	132.061	-8191	255	
50835.332	1	1	0	0	0.14817	0.2296	0.098811	0.2354	0.16729	0.074616	0.084326	0.18964	0.066501	0.19931	0.089624	0.080497	0.31997	0.16598	0.14359	0.037462	-4.4062	-4.2771	-4.9875	-4.3458	-4.3604	-5.0583	-4.2625	-4.9708	-4.8938	-4.2521	-5.4437	-4.6854	-4.3812	-4.8625	-4.0938	-4.9437	399.984	345.178	287.430	404.815	213.217	356.311	383.614	400.251	317.121	209.040	248.149	160.293	108.248	400.755	313.920	135.667	0.00032212	0.00026473	7.9651e-05	1017.9	4.885e-06	3.9147e-06	1109.8	205.93	3.4805e-06	2.3394e-06	260.99	71.448	56.12	15.855	3.8417e-06	22.019	0.00019081	0.00015482	4.1034e-05	1010.1	1.9935e-06	1.6306e-06	1097.1	204.65	1.7998e-06	1.7686e-06	260.42	71.737	56.063	16.201	1.8179e-06	22.518	277.989	183.421	179.726	110.611	281.791	239.790	110.492	118.111	280.040	280.547	117.524	124.991	125.361	132.280	248.570	131.611	-8191	255	
50835.453	1	1	0	0	0.14514	0.19979	0.061142	0.097001	0.29835	0.26383	0.19861	0.20971	0.078902	0.18832	0.070442	0.14981	0.1881	0.11008	0.10785	0.15461	-4.7542	-4.2229	-5.1583	-4.5729	-4.2125	-5.1146	-4.3333	-4.6854	-4.9812	-4.15	-5.0375	-4.6333	-4.5167	-5.1729	-4.1083	-4.7104	176.212	230.761	177.858	424.618	346.854	414.967	387.338	180.442	219.210	184.120	159.043	373.250	348.145	419.749	422.289	423.438	0.00032085	0.00035453	5.2211e-05	1009.9	4.6907e-06	2.6468e-06	1104.6	203.52	3.6593e-06	4.0719e-06	258.99	71.286	55.708	15.915	1.9569e-06	22.252	0.00019438	0.00016908	4.4445e-05	1007.9	1.9402e-06	1.5829e-06	1095.7	204.36	1.7641e-06	1.7901e-06	259.63	71.699	56.005	16.247	1.8329e-06	22.549	282.002	212.935	179.213	110.950	263.965	265.068	110.642	118.410	276.822	233.666	117.773	125.295	125.433	132.395	327.995	131.466	-8191	255	
50835.551	1	1	0	0	0.17143	0.074673	0.059758	0.13079	0.13694	0.02793	0.22972	0.43451	0.29126	0.068216	0.10417	0.169	0.019561	0.084858	0.1025	0.071967	-4.8271	-4.2042	-5.0083	-4.8208	-4.1917	-5.2083	-4.4479	-4.4833	-5.0979	-4.05	-5.1021	-4.6958	-4.1979	-5.2271	-4.3917	-4.6646	265.411	222.486	191.145	336.123	439.988	334.910	400.804	433.864	165.005	396.517	236.827	391.473	398.426	273.969	278.622	182.926	0.00031299	0.00032488	7.7503e-05	1018.5	2.5562e-06	1.651e-06	1106.1	204.47	3.9578e-06	3.3005e-06	258.61	71.366	55.768	16.001	4.9986e-06	22.045	0.00018876	0.00016203	4.1482e-05	1008.2	1.9842e-06	1.6099e-06	1094	204.08	1.7376e-06	1.7993e-06	259.92	71.603	55.995	16.232	1.8525e-06	22.563	278.196	194.220	179.863	110.601	323.917	243.968	110.538	118.474	261.418	225.949	117.760	125.328	125.478	132.276	279.386	131.312	-8191	255	
50835.645	1	1	0	0	0.013293	0.3009	0.084661	0.42544	0.17053	0.054589	0.25005	0.17349	0.095962	0.13783	0.068237	0.36954	0.15429	0.085135	0.067178	0.28634	-4.8438	-4.0271	-4.8938	-4.9792	-4.0646	-5.1208	-4.6833	-4.45	-5.0917	-4.15	-4.8854	-5.0104	-4.2542	-5.1479	-4.5292	-4.4938	248.617	458.716	271.780	430.728	101.774	187.326	387.946	214.794	194.958	314.774	122.462	415.540	422.573	246.338	215.891	283.586	0.00033535	0.00016475	8.7761e-05	1012.5	4.6971e-06	2.6451e-06	1096.6	204.28	2.8299e-06	3.6404e-06	259.13	71.235	55.693	15.962	2.423e-06	22.02	0.00018316	0.00016878	4.3159e-05	1006.5	2.0519e-06	1.5622e-06	1091.7	204.03	1.7445e-06	1.7165e-06	259.37	71.525	56.09	16.252	1.7824e-06	22.522	278.948	192.379	159.411	110.480	273.462	241.235	110.528	118.337	291.729	255.858	117.697	125.022	125.552	132.635	238.338	131.144	-8191	255	
50835.742	1	1	0	0	0.12789	0.055327	0.13183	0.15209	0.19402	0.061982	0.28359	0.26207	0.062729	0.42634	0.20543	0.057299	0.080212	0.14137	0.11781	0.13581	-4.8396	-4.1917	-4.6583	-5.1562	-3.975	-5.0813	-4.9021	-4.3604	-5.1021	-4.2958	-4.825	-5.0104	-4.2833	-5.0583	-4.6042	-4.3021	321.420	174.868	159.440	459.489	354.247	102.363	426.381	163.502	443.955	148.182	425.649	331.094	170.005	359.792	409.336	248.570	0.00032251	0.00021313	6.587e-05	1010.7	6.3134e-06	3.809e-06	1103.5	204.61	4.9257e-06	8.4504e-07	258.69	71.688	55.699	15.878	2.6898e-06	22.083	0.00018504	0.00016613	4.5092e-05	1007.1	1.902e-06	1.6715e-06	1094	203.71	1.7453e-06	1.8107e-06	259.92	71.804	56.023	16.249	1.6472e-06	22.517	277.873	238.608	211.685	110.769	289.727	288.578	110.585	117.956	292.307	236.091	117.655	125.019	125.747	132.685	247.422	131.865	-8191	255	
50835.863	1	1	0	0	0.14153	0.1993	0.34207	0.19903	0.24142	0.060175	0.30945	0.090577	0.13275	0.17512	0.082426	0.23471	0.082223	0.12033	0.053215	0.21378	-4.8083	-4.4896	-4.4417	-5.1167	-4.0833	-4.825	-5.0792	-4.3833	-4.9854	-4.3167	-4.4042	-5.1042	-4.1917	-4.8208	-4.8063	-4.0958	380.409	352.833	416.162	369.357	265.243	326.851	424.703	205.444	101.928	195.746	316.864	381.029	365.395	300.663	203.449	151.688	0.00034982	0.00023177	5.423e-05	1015.9	4.3192e-06	1.5764e-06	1103.9	204.66	4.0511e-06	2.3493e-06	259.54	71.653	55.726	15.916	2.2349e-06	22.13	0.00019357	0.00016286	4.2775e-05	1007.2	1.9457e-06	1.7251e-06	1093.4	204.11	1.7029e-06	1.6773e-06	259.88	71.875	56.037	16.292	1.7017e-06	22.561	281.610	203.201	186.284	110.593	282.131	228.348	110.746	118.229	271.064	222.459	117.702	125.202	125.350	132.546	252.787	131.612	-8191	255	
50835.934	1	1	0	0	0.28178	0.080048	0.072981	0.22	0.3194	0.12441	0.076377	0.049975	0.19141	0.20692	0.22102	0.026709	0.12931	0.057215	0.22948	0.19082	-4.8854	-4.4771	-4.2521	-5.2229	-4.1021	-4.7146	-5.2208	-4.2271	-5.0292	-4.5	-4.5146	-5.0729	-4.3458	-4.6771	-4.9	-4.1396	433.469	121.294	207.271	428.455	184.866	217.862	384.220	422.105	435.408	339.199	394.447	139.562	409.367	278.092	423.139	297.590	0.00031308	0.00018496	8.8833e-05	1012.7	3.6689e-06	3.7306e-06	1105.4	203.43	4.8246e-06	4.1185e-07	259.68	70.983	55.412	15.945	2.3226e-06	22.083	0.00019133	0.00015399	4.2673e-05	1006.6	1.9097e-06	1.6283e-06	1094.1	203.95	1.6836e-06	1.6662e-06	260.18	71.658	55.854	16.235	1.5884e-06	22.576	278.385	206.479	193.394	110.872	299.669	254.631	110.695	118.127	278.985	238.210	117.516	124.654	125.657	132.440	294.636	131.440	-8191	255	
#DATA ENDS
