BOXY.EXE: ISS Imagent and Oximeter Data Acquisition Program Version 0.80
Ascii Record File

#ACQ INFORMATION
2  Detector Channels 
16  External MUX Channels 
1  Auxiliary Channels 
5000  Waveform (CCF) Frequency (Hz)
1  Waveforms Skipped 
30  Waveforms Averaged 
1  Cycles Averaged 
16  Acquisitions per Waveform 
10.0806  Updata Rate (Hz) 

#FILE INFORMATION
TRUE -- External MUX Channel results are PARSED.
FALSE -- AC DC and Phase are NOT grouped.
TRUE -- Companion Program Settings File CREATED.
FALSE -- AC data not excluded
FALSE -- DC data not excluded
FALSE -- Phase data not excluded
FALSE -- Auxillary Chn. data not excluded
Tab delimiters

#CALIBRATION STATE
TRUE -- Waveform Calibration Values APPLIED.


#AUX CALIBRATION VALUES
Val Type	aux-1	

Term	1.0000e+00	
Factor	0.0000e+00	


#WF CALIBRATION VALUES
A = Detector Channel
Val Type	A-AC1	A-AC2	A-AC3	A-AC4	A-AC5	A-AC6	A-AC7	A-AC8	A-AC9	A-AC10	A-AC11	A-AC12	A-AC13	A-AC14	A-AC15	A-AC16	A-DC1	A-DC2	A-DC3	A-DC4	A-DC5	A-DC6	A-DC7	A-DC8	A-DC9	A-DC10	A-DC11	A-DC12	A-DC13	A-DC14	A-DC15	A-DC16	A-Ph1	A-Ph2	A-Ph3	A-Ph4	A-Ph5	A-Ph6	A-Ph7	A-Ph8	A-Ph9	A-Ph10	A-Ph11	A-Ph12	A-Ph13	A-Ph14	A-Ph15	A-Ph16	

Term	0.00000e+00	0.00000e+00	0.00000e+00	0.00000e+00	0.00000e+00	0.00000e+00	0.00000e+00	0.00000e+00	0.00000e+00	0.00000e+00	0.00000e+00	0.00000e+00	0.00000e+00	0.00000e+00	0.00000e+00	0.00000e+00	0.00000e+00	0.00000e+00	0.00000e+00	0.00000e+00	0.00000e+00	0.00000e+00	0.00000e+00	0.00000e+00	0.00000e+00	0.00000e+00	0.00000e+00	0.00000e+00	0.00000e+00	0.00000e+00	0.00000e+00	0.00000e+00	0.00000e+00	0.00000e+00	0.00000e+00	0.00000e+00	0.00000e+00	0.00000e+00	0.00000e+00	0.00000e+00	0.00000e+00	0.00000e+00	0.00000e+00	0.00000e+00	0.00000e+00	0.00000e+00	0.00000e+00	0.00000e+00	
Factor	1.00000e+00	1.00000e+00	1.00000e+00	1.00000e+00	1.00000e+00	1.00000e+00	1.00000e+00	1.00000e+00	1.00000e+00	1.00000e+00	1.00000e+00	1.00000e+00	1.00000e+00	1.00000e+00	1.00000e+00	1.00000e+00	1.00000e+00	1.00000e+00	1.00000e+00	1.00000e+00	1.00000e+00	1.00000e+00	1.00000e+00	1.00000e+00	1.00000e+00	1.00000e+00	1.00000e+00	1.00000e+00	1.00000e+00	1.00000e+00	1.00000e+00	1.00000e+00	X	X	X	X	X	X	X	X	X	X	X	X	X	X	X	X	

B = Detector Channel
Val Type	B-AC1	B-AC2	B-AC3	B-AC4	B-AC5	B-AC6	B-AC7	B-AC8	B-AC9	B-AC10	B-AC11	B-AC12	B-AC13	B-AC14	B-AC15	B-AC16	B-DC1	B-DC2	B-DC3	B-DC4	B-DC5	B-DC6	B-DC7	B-DC8	B-DC9	B-DC10	B-DC11	B-DC12	B-DC13	B-DC14	B-DC15	B-DC16	B-Ph1	B-Ph2	B-Ph3	B-Ph4	B-Ph5	B-Ph6	B-Ph7	B-Ph8	B-Ph9	B-Ph10	B-Ph11	B-Ph12	B-Ph13	B-Ph14	B-Ph15	B-Ph16	

Term	0.00000e+00	0.00000e+00	0.00000e+00	0.00000e+00	0.00000e+00	0.00000e+00	0.00000e+00	0.00000e+00	0.00000e+00	0.00000e+00	0.00000e+00	0.00000e+00	0.00000e+00	0.00000e+00	0.00000e+00	0.00000e+00	0.00000e+00	0.00000e+00	0.00000e+00	0.00000e+00	0.00000e+00	0.00000e+00	0.00000e+00	0.00000e+00	0.00000e+00	0.00000e+00	0.00000e+00	0.00000e+00	0.00000e+00	0.00000e+00	0.00000e+00	0.00000e+00	-2.91036e+01	-1.30727e+02	-1.25827e+02	-1.83848e+02	-4.53590e+01	-6.39396e+01	-1.58330e+02	-1.62015e+02	-4.04028e+01	-6.93137e+01	-1.70849e+02	-1.70812e+02	-1.78650e+02	-1.77103e+02	-5.65599e+01	-1.50176e+02	
Factor	2.48695e-05	1.25508e-04	3.68752e-05	1.52866e-01	1.67459e-06	1.76788e-06	1.70140e-01	5.22108e-02	1.64632e-06	1.54420e-06	8.69566e-02	2.95778e-02	2.73539e-02	9.37122e-03	1.62419e-06	1.32152e-02	8.28636e-06	1.10554e-05	3.07181e-06	7.48206e-02	1.15288e-07	1.22545e-07	7.80540e-02	2.56305e-02	1.14741e-07	1.21952e-07	4.13475e-02	1.40655e-02	1.35687e-02	4.64103e-03	1.17712e-07	6.32584e-03	X	X	X	X	X	X	X	X	X	X	X	X	X	X	X	X	



#DISTANCE SETTINGS
A = Detector Channel
A-1	A-2	A-3	A-4	A-5	A-6	A-7	A-8	A-9	A-10	A-11	A-12	A-13	A-14	A-15	A-16	

2.5000e+00	3.0000e+00	2.5000e+00	3.0000e+00	2.0000e+00	3.0000e+00	1.5000e+00	3.0000e+00	3.0000e+00	3.0000e+00	3.0000e+00	3.0000e+00	3.0000e+00	3.0000e+00	1.5000e+00	3.0000e+00	

B = Detector Channel
B-1	B-2	B-3	B-4	B-5	B-6	B-7	B-8	B-9	B-10	B-11	B-12	B-13	B-14	B-15	B-16	

1.0000e+01	1.0000e+01	1.0000e+01	1.4400e+00	1.0000e+01	1.0000e+01	1.5100e+00	1.9400e+00	1.0000e+01	1.0000e+01	1.9900e+00	2.4900e+00	2.4100e+00	2.9000e+00	1.0000e+01	2.9800e+00	




#DATA BEGINS
time	group	step	mark	flag	A-AC1	A-AC2	A-AC3	A-AC4	A-AC5	A-AC6	A-AC7	A-AC8	A-AC9	A-AC10	A-AC11	A-AC12	A-AC13	A-AC14	A-AC15	A-AC16	A-DC1	A-DC2	A-DC3	A-DC4	A-DC5	A-DC6	A-DC7	A-DC8	A-DC9	A-DC10	A-DC11	A-DC12	A-DC13	A-DC14	A-DC15	A-DC16	A-Ph1	A-Ph2	A-Ph3	A-Ph4	A-Ph5	A-Ph6	A-Ph7	A-Ph8	A-Ph9	A-Ph10	A-Ph11	A-Ph12	A-Ph13	A-Ph14	A-Ph15	A-Ph16	B-AC1	B-AC2	B-AC3	B-AC4	B-AC5	B-AC6	B-AC7	B-AC8	B-AC9	B-AC10	B-AC11	B-AC12	B-AC13	B-AC14	B-AC15	B-AC16	B-DC1	B-DC2	B-DC3	B-DC4	B-DC5	B-DC6	B-DC7	B-DC8	B-DC9	B-DC10	B-DC11	B-DC12	B-DC13	B-DC14	B-DC15	B-DC16	B-Ph1	B-Ph2	B-Ph3	B-Ph4	B-Ph5	B-Ph6	B-Ph7	B-Ph8	B-Ph9	B-Ph10	B-Ph11	B-Ph12	B-Ph13	B-Ph14	B-Ph15	B-Ph16	aux-1	digaux	

50786.523	1	1	0	256	0.22057	0.088582	0.17356	0.23437	0.13701	0.053708	0.27224	0.24684	0.13237	0.049075	0.081153	0.11597	0.075001	0.24939	0.026841	0.21843	-4.2833	-5.2146	-4.0896	-5.0354	-4.7688	-4.2396	-5.3042	-4.5437	-4.2792	-5.1854	-4.3125	-4.8812	-5.0125	-4.15	-4.9187	-4.6312	280.872	426.360	228.795	427.908	314.207	144.606	430.583	363.142	205.652	156.817	318.735	437.759	447.184	97.364	330.003	342.060	0.00073914	0.00032209	0.00014306	1449.9	5.312e-06	6.5713e-06	1440.5	376.95	6.1919e-06	3.5841e-06	426.34	140.24	118.97	39.441	4.9086e-06	49.153	0.00045865	0.00037766	0.00011045	1470	4.3735e-06	4.3001e-06	1459.5	383.67	4.3688e-06	4.0122e-06	435.36	142.63	120.78	40.534	4.1226e-06	50.253	273.536	192.565	180.062	108.088	279.646	250.322	107.949	112.897	268.209	241.049	112.361	117.064	117.910	121.773	246.806	120.812	-8191	255	
50786.617	1	1	0	0	0.18103	0.055601	0.067379	0.34689	0.17624	0.10036	0.24658	0.30243	0.059657	0.22552	0.12869	0.085749	0.15089	0.1438	0.12786	0.19643	-3.9896	-5.1562	-4.1479	-4.8562	-4.9271	-4.2229	-5.2833	-4.9646	-4.2063	-5.2562	-4.3792	-4.7229	-5.1479	-4.3562	-4.9583	-4.8438	410.215	439.917	236.442	443.384	429.070	398.885	365.119	415.837	237.575	451.974	349.319	303.068	436.581	451.597	318.527	182.711	0.00070042	0.00047372	0.00012755	1444.7	6.6125e-06	7.2115e-06	1440.9	375.21	6.869e-06	4.5887e-06	424.94	140.28	118.15	39.115	6.7173e-06	48.761	0.00045363	0.00037218	0.00010653	1470.9	4.3026e-06	4.1637e-06	1461	383.24	4.1615e-06	4.0287e-06	435.74	142.19	120.44	40.365	4.1445e-06	50.104	272.666	166.472	189.946	108.023	255.418	248.076	108.020	113.119	265.342	252.379	112.747	117.281	117.942	122.148	241.183	121.131	-8191	255	
50786.715	1	1	0	0	0.21101	0.10051	0.2193	0.28825	0.31981	0.10936	0.22626	0.08214	0.25491	0.15635	0.093164	0.12802	0.16902	0.17486	0.084441	0.0088508	-3.9792	-5.1083	-4.3542	-4.8083	-5.1958	-4.125	-5.2354	-4.9208	-4.0875	-5.0771	-4.5521	-4.4833	-5.1875	-4.3313	-4.9062	-4.9354	211.679	360.437	293.447	278.938	182.089	453.659	315.894	297.282	333.065	255.446	401.880	371.430	213.378	393.360	402.975	227.262	0.00071923	0.00063702	0.00013545	1445.7	6.5963e-06	7.1532e-06	1439.2	375.63	8.6113e-06	4.8862e-06	426.93	140.18	119.09	39.228	7.1637e-06	48.72	0.00044758	0.00037489	0.00010615	1471.3	4.1938e-06	4.3312e-06	1462.4	382.77	4.3052e-06	3.9594e-06	435.52	142.45	120.79	40.365	4.1528e-06	50.068	274.294	205.462	200.853	108.121	291.800	255.739	108.052	112.952	275.362	236.357	112.481	117.152	117.922	121.752	242.049	120.842	-8191	255	
50786.812	1	1	0	0	0.2801	0.14562	0.085308	0.29586	0.37821	0.067032	0.15739	0.15579	0.080093	0.027347	0.15673	0.32719	0.18775	0.23571	0.21613	0.16735	-3.7938	-5.1542	-4.45	-4.65	-5.0667	-4.2833	-4.7667	-4.9917	-4.1208	-5.0458	-4.7854	-4.4437	-5.2083	-4.4979	-4.6229	-5.2583	371.350	211.400	268.362	423.780	199.863	263.392	439.268	356.615	256.465	430.636	123.801	260.038	447.254	102.464	395.936	403.012	0.00070249	0.00033398	0.00013871	1445.1	8.6405e-06	4.7176e-06	1440.7	376.12	7.9508e-06	3.8538e-06	427.43	140.47	118.29	39.434	4.4997e-06	48.995	0.00045872	0.00037552	0.00010682	1472.8	4.2745e-06	4.4341e-06	1464.9	383.59	4.3477e-06	4.2399e-06	435.04	142.44	120.6	40.465	4.1543e-06	50.068	275.084	212.095	191.793	108.264	247.515	233.979	108.085	113.127	256.484	272.466	112.199	116.879	117.736	121.928	254.173	120.735	-8191	255	
50786.930	1	1	0	0	0.32351	0.35743	0.098415	0.22219	0.1081	0.063016	0.25851	0.32836	0.15641	0.058921	0.10417	0.24823	0.27375	0.044283	0.14804	0.33704	-3.8292	-4.9479	-4.6813	-4.4583	-5.0792	-4.2396	-4.7729	-5.0708	-4.0208	-4.9458	-4.9583	-4.2375	-5.15	-4.5896	-4.4958	-5.2312	339.877	341.812	425.072	379.612	187.189	291.398	418.384	414.866	243.817	361.067	422.919	424.306	112.910	317.517	113.163	95.673	0.00069941	0.00033391	9.6933e-05	1447.2	6.6638e-06	6.0815e-06	1443.4	375.68	6.2668e-06	4.5336e-06	429.24	139.81	118.9	39.436	6.6061e-06	48.642	0.00044315	0.00038183	0.0001046	1471.5	4.1247e-06	4.3759e-06	1463.1	382.76	4.3195e-06	4.1354e-06	435.75	142.2	120.76	40.389	4.0366e-06	49.873	274.295	176.905	170.644	108.114	272.313	264.058	107.969	112.801	263.948	243.559	112.460	116.844	117.661	121.838	246.772	121.020	-8191	255	
50787.027	1	1	0	0	0.1297	0.10514	0.12652	0.18433	0.055521	0.12518	0.11366	0.16812	0.10245	0.17018	0.19972	0.22565	0.17391	0.22634	0.12968	0.034681	-3.7792	-4.6583	-4.7292	-4.3875	-5.1958	-4.3979	-4.6771	-5.1875	-4.2792	-4.85	-5.05	-4.225	-5.0188	-4.4104	-4.3458	-5.1104	270.403	345.519	384.635	452.027	448.191	204.846	411.178	439.943	148.419	351.589	430.148	357.126	106.088	435.181	154.895	370.191	0.00067042	0.00046787	0.00011156	1446	5.7275e-06	6.3068e-06	1442.8	376.87	9.3908e-06	5.0119e-06	428.09	140.14	118.68	39.164	6.1907e-06	48.608	0.00043852	0.0003737	0.0001044	1472.6	4.1813e-06	4.1681e-06	1463.4	383.17	4.3614e-06	4.0003e-06	435.68	142.24	120.48	40.334	4.1979e-06	49.946	272.192	187.581	198.750	107.880	252.795	246.477	108.117	113.030	281.204	244.248	112.339	117.219	117.646	121.911	270.592	120.927	-8191	255	
50787.121	1	1	0	0	0.26884	0.16001	0.28714	0.30275	0.064339	0.17635	0.3799	0.14739	0.059577	0.050032	0.063872	0.2798	0.38633	0.11506	0.078686	0.17279	-3.7604	-4.6125	-4.8375	-4.2958	-5.0625	-4.4875	-4.6417	-5.3104	-4.1542	-4.5813	-5.125	-4.0125	-4.9396	-4.8458	-4.2771	-5.2104	179.002	126.651	298.147	447.445	266.388	396.674	411.478	395.690	232.308	271.350	129.715	146.663	390.126	381.809	365.742	376.405	0.00073596	0.00024557	0.00015157	1457.3	8.2176e-06	5.2273e-06	1449.3	376.13	7.6649e-06	5.0792e-06	426.67	139.7	118.38	39.125	6.1317e-06	48.143	0.00045956	0.00037577	0.00010609	1477.4	4.2469e-06	4.2477e-06	1465.7	383.89	4.4476e-06	4.1624e-06	434.87	141.96	120.62	40.291	4.3806e-06	49.756	274.594	193.002	192.061	108.041	252.925	255.291	107.885	112.808	275.916	231.516	112.321	117.250	117.764	122.058	251.981	121.074	-8191	255	
50787.219	1	1	0	0	0.042888	0.17836	0.022924	0.30064	0.046378	0.057801	0.16816	0.1562	0.20267	0.22041	0.24824	0.075006	0.18409	0.10609	0.26455	0.2219	-3.8438	-4.3583	-5.1312	-4.5	-4.85	-4.8354	-4.3729	-5.2312	-4.3187	-4.3917	-5.1771	-4.275	-4.8917	-4.9354	-4.1208	-5.2333	275.367	224.417	437.548	453.808	403.125	310.271	425.983	379.367	333.764	352.945	428.073	429.055	448.586	348.281	387.748	406.428	0.00070426	0.0006004	0.00015507	1452.7	6.7453e-06	5.3146e-06	1447.4	376.91	7.3598e-06	6.1068e-06	427.72	140.01	118.2	39.273	8.5702e-06	48.44	0.0004573	0.00038422	0.00010052	1474.8	4.3017e-06	4.2587e-06	1467.3	383.91	4.4323e-06	4.1916e-06	435.9	142.33	120.69	40.362	4.2246e-06	49.863	276.517	155.711	180.853	108.109	250.739	254.624	108.073	113.007	267.396	239.532	112.421	117.383	117.539	121.766	252.528	120.976	-8191	255	
50787.312	1	1	0	0	0.1217	0.07223	0.12139	0.20088	0.20386	0.18225	0.34039	0.15892	0.19736	0.27597	0.10682	0.045623	0.29604	0.16557	0.11279	0.16813	-4.1208	-4.2896	-5.0979	-4.4708	-4.7979	-4.9354	-4.3208	-5.1875	-4.3854	-4.2229	-5.2542	-4.4146	-4.6708	-4.9563	-4.0708	-5.2896	387.837	222.021	411.484	419.174	416.547	287.904	397.370	385.715	422.245	253.711	425.007	136.232	444.418	422.327	248.066	343.831	0.00070396	0.00039885	0.0001426	1451.5	7.5974e-06	4.6868e-06	1452.7	375.38	7.9519e-06	4.0148e-06	427.22	139.81	118.54	39.138	6.8828e-06	48.405	0.00046469	0.00038047	0.00010608	1476.5	4.3524e-06	4.1985e-06	1467.8	383.33	4.4166e-06	4.1314e-06	435.97	142.39	120.75	40.284	4.308e-06	49.797	274.701	182.159	186.223	108.009	271.763	229.643	108.073	112.959	266.732	249.936	112.331	117.169	117.757	122.152	251.384	120.836	-8191	255	
50787.410	1	1	0	0	0.14028	0.091155	0.061825	0.37894	0.10776	0.19242	0.41197	0.28517	0.26337	0.3139	0.18228	0.15798	0.22373	0.14823	0.053234	0.16531	-4.2292	-4.3146	-5.2854	-4.5354	-4.6292	-4.9667	-4.3208	-5.0917	-4.7833	-4.1875	-5.3875	-4.4167	-4.6521	-5.1562	-4.1667	-4.9437	418.237	427.691	426.466	401.212	186.926	96.749	396.150	380.936	293.206	361.326	126.855	257.884	101.106	395.783	383.716	437.741	0.0006495	0.00035855	6.8454e-05	1450.6	7.1337e-06	4.7628e-06	1451.6	376.81	8.8884e-06	6.3511e-06	428.53	139.5	118.71	39.243	6.168e-06	48.62	0.00045637	0.00039443	0.00010435	1479.4	4.3797e-06	3.9963e-06	1469.2	383.7	4.359e-06	4.185e-06	436.71	142.27	120.66	40.349	4.2288e-06	49.896	274.945	178.127	210.545	108.336	263.927	249.710	107.821	112.887	271.921	247.768	112.282	116.866	117.542	121.841	261.618	120.459	-8191	255	
50787.531	1	1	0	0	0.060707	0.20273	0.21261	0.21869	0.047842	0.1939	0.26448	0.26141	0.20053	0.12522	0.27295	0.26447	0.2489	0.17227	0.25151	0.16234	-4.4833	-4.2708	-5.0792	-4.575	-4.5417	-5.0896	-4.2708	-5.0042	-4.8646	-3.9708	-5.2542	-4.7063	-4.5021	-5.1833	-4.1083	-4.7229	191.049	232.401	117.331	376.487	206.991	287.566	423.546	387.170	139.736	325.599	397.574	440.778	446.929	395.872	215.958	402.441	0.00067438	0.0002947	8.7471e-05	1453.3	9.6024e-06	6.6887e-06	1452.3	377.66	1.0244e-05	3.0549e-06	428.43	139.82	118.04	39.267	5.6979e-06	48.699	0.0004557	0.00039274	0.00010266	1480.2	4.5145e-06	4.2319e-06	1469.8	383.99	4.2916e-06	4.3448e-06	436.53	142.08	120.46	40.329	4.3639e-06	49.911	272.593	179.739	201.675	108.322	259.530	234.498	108.169	112.981	275.173	239.862	112.605	117.211	117.591	122.010	258.457	120.660	-8191	255	
50787.625	1	1	0	0	0.20957	0.23859	0.1006	0.29897	0.096201	0.11646	0.22538	0.33391	0.22413	0.14693	0.31133	0.21237	0.10299	0.2859	0.35918	0.02944	-4.4708	-4.1875	-5.0854	-4.7854	-4.4104	-5.1792	-4.5437	-4.8875	-5.0604	-4.1	-5.05	-4.8021	-4.3021	-5.2083	-4.1312	-4.7438	337.972	430.265	135.770	450.400	136.857	451.262	400.795	408.112	130.428	329.108	380.711	410.594	364.491	422.725	353.019	324.542	0.00070328	0.00035643	0.00015027	1453.1	9.0059e-06	5.2275e-06	1450.1	377.63	6.9337e-06	5.5904e-06	430.02	140.13	119.11	39.282	6.1344e-06	48.473	0.00045188	0.00039067	0.00010651	1479.5	4.4403e-06	3.9715e-06	1471.5	383.49	4.2284e-06	4.2965e-06	436.75	142.13	120.59	40.295	4.3666e-06	49.743	275.790	177.488	189.853	108.260	266.400	235.479	108.056	113.085	266.194	248.211	112.388	117.035	117.580	121.865	242.644	120.975	-8191	255	
50787.723	1	1	0	0	0.20514	0.17301	0.13289	0.38768	0.19065	0.40877	0.17912	0.1066	0.12244	0.15457	0.36844	0.22926	0.085389	0.25456	0.19837	0.19392	-4.7604	-4.0104	-5.0583	-4.8417	-4.1854	-5.1417	-4.6125	-4.6188	-5.1896	-4.0646	-5.1188	-4.7792	-4.4187	-5.3021	-4.5	-4.4583	165.926	297.910	403.338	424.922	348.524	277.572	384.543	286.431	162.362	430.906	400.376	422.501	450.586	383.626	136.184	446.011	0.00067275	0.00047564	6.4727e-05	1453	6.1343e-06	6.2778e-06	1454.6	376.93	6.5652e-06	4.0674e-06	429.46	140.32	118.57	38.987	7.2683e-06	48.394	0.00044228	0.00038864	0.00010656	1480.5	4.3555e-06	4.0759e-06	1471.8	383.65	4.1718e-06	4.2759e-06	436.15	142.24	120.34	40.149	4.3411e-06	49.831	280.405	169.634	172.447	108.087	268.738	236.235	107.882	112.690	281.232	264.692	111.793	116.958	117.616	122.105	258.860	120.459	-8191	255	
50787.820	1	1	0	0	0.20337	0.28467	0.18092	0.19319	0.11533	0.11116	0.11229	0.2718	0.27774	0.091256	0.099553	0.23638	0.14587	0.17968	0.27975	0.081294	-4.7625	-4.0979	-4.6854	-5.0792	-4.3042	-5.0083	-4.7833	-4.4271	-5.2688	-4.3438	-4.7604	-4.9958	-4.1729	-5.2146	-4.4021	-4.3812	208.038	421.368	106.194	103.861	313.472	199.947	300.697	359.279	341.821	196.467	114.074	434.835	419.381	307.772	144.555	285.772	0.00071587	0.00045652	0.00013556	1462.9	7.1902e-06	6.346e-06	1450.5	375.61	9.3659e-06	5.7189e-06	423.63	138.65	117.89	38.813	7.3175e-06	48.008	0.0004461	0.00039572	0.00010489	1483.6	4.3548e-06	4.2051e-06	1469.6	382.72	4.1957e-06	4.2457e-06	435.06	141.76	120.36	40.173	4.1739e-06	49.602	277.007	192.735	171.658	107.851	265.069	242.767	108.059	113.439	269.333	232.814	113.081	117.602	118.041	122.375	269.685	121.081	-8191	255	
50787.914	1	1	0	0	0.097021	0.13801	0.073369	0.15009	0.15176	0.032023	0.26711	0.18888	0.2686	0.11767	0.12466	0.017369	0.13394	0.23125	0.19956	0.18186	-4.875	-4.225	-4.8396	-5.275	-4.025	-5.0167	-4.9563	-4.5646	-5.1646	-4.4125	-4.6771	-5.1271	-4.0979	-5.0521	-4.8458	-4.3479	113.102	373.406	419.175	424.691	363.045	305.278	381.126	379.934	439.820	334.374	427.742	154.909	375.227	413.954	298.580	247.156	0.00070675	0.00033484	0.00017246	1446.1	7.7187e-06	4.1921e-06	1442.5	374.05	9.7425e-06	3.9299e-06	425.21	138.13	117.98	39.079	6.1959e-06	48.116	0.00044197	0.00037823	0.00010446	1479	4.3432e-06	4.0014e-06	1468.9	382.5	4.1598e-06	4.1751e-06	435.89	141.49	120.14	40.106	4.0856e-06	49.619	273.758	176.741	186.639	108.696	264.330	265.319	108.478	113.262	264.713	223.296	112.831	117.780	117.828	122.092	256.983	121.200	-8191	255	
50788.012	1	1	0	0	0.12383	0.099932	0.18751	0.24456	0.11315	0.35409	0.24124	0.041451	0.28729	0.14831	0.21285	0.22664	0.14632	0.10908	0.1537	0.076969	-4.7396	-4.3333	-4.3917	-5.2729	-4.0208	-4.7625	-4.9708	-4.3375	-5.0188	-4.5563	-4.4563	-5.1854	-4.1062	-4.8542	-4.875	-4.2688	323.610	246.650	248.039	418.666	328.730	397.760	430.636	349.613	249.576	422.263	130.632	95.415	102.417	362.347	381.871	267.272	0.00069728	0.0005603	0.00010277	1458.2	6.4805e-06	6.4538e-06	1447.2	374.6	5.7292e-06	4.7299e-06	426.14	139.48	117.49	38.76	4.8165e-06	48.184	0.00043534	0.00038618	0.00010516	1483.9	4.4174e-06	4.0871e-06	1469.8	382.49	4.1799e-06	4.1547e-06	434.77	141.9	119.96	40.077	4.2752e-06	49.643	273.518	169.363	184.171	108.514	265.957	260.734	108.467	113.195	277.112	227.274	112.472	117.394	117.983	122.243	240.863	121.311	-8191	255	
50788.133	1	1	0	0	0.20077	0.072261	0.12632	0.36952	0.074565	0.069789	0.3508	0.11317	0.089601	0.15418	0.032579	0.15748	0.090553	0.20885	0.12196	0.10215	-4.6667	-4.6292	-4.3354	-5.2625	-4.1667	-4.7479	-5.2771	-4.4229	-5.0458	-4.6188	-4.4104	-5.3333	-4.4208	-4.5542	-5.1062	-4.2042	421.946	296.930	236.104	399.235	377.703	263.699	100.400	412.684	308.106	371.266	386.469	365.670	190.008	434.251	426.351	438.728	0.00068174	0.00037909	0.00019121	1453.9	7.8188e-06	4.0545e-06	1445.2	374.38	8.8163e-06	3.3221e-06	424.89	138.36	118.12	38.864	5.5166e-06	48.004	0.00043331	0.00038024	0.00010248	1481.3	4.5159e-06	4.1265e-06	1469.7	382.21	4.1579e-06	4.1222e-06	433.62	141.39	119.89	40.055	3.9954e-06	49.428	272.956	202.254	196.697	108.434	254.533	258.475	108.646	113.182	256.157	256.783	112.635	117.527	117.881	122.484	222.645	121.373	-8191	255	
50788.227	1	1	0	0	0.043504	0.4054	0.29676	0.32864	0.059305	0.14962	0.24027	0.26339	0.18179	0.24748	0.24194	0.22673	0.050126	0.28264	0.093712	0.10443	-4.75	-4.5479	-4.3313	-5.3187	-4.2604	-4.5875	-5.1937	-4.2917	-5.0813	-4.8271	-4.2333	-5.1208	-4.5604	-4.6021	-5.2083	-4.2646	155.999	109.527	423.748	414.007	98.281	433.695	413.713	410.239	279.526	205.591	366.498	394.959	137.486	323.427	305.615	335.516	0.00071618	0.00043758	0.00016016	1453.1	9.1943e-06	7.6123e-06	1450.5	374.35	6.7808e-06	4.3978e-06	423.25	138.9	117.54	38.65	7.3158e-06	48.054	0.0004486	0.0003743	0.00010365	1479.8	4.3399e-06	4.0016e-06	1471	381.84	4.1378e-06	4.0221e-06	433.54	141.53	119.67	39.965	4.1594e-06	49.499	273.793	198.126	165.607	108.461	266.094	235.986	108.576	113.268	288.184	251.898	112.991	118.151	118.066	122.370	249.742	121.524	-8191	255	
50788.301	1	1	0	0	0.061802	0.20789	0.24187	0.22287	0.16457	0.085352	0.23756	0.32808	0.097318	0.16275	0.11282	0.22696	0.31841	0.163	0.090817	0.20166	-4.5854	-4.8417	-4.1896	-5.2917	-4.3771	-4.3562	-5.45	-4.2896	-4.7292	-4.9667	-4.1562	-5.1375	-4.5125	-4.35	-5.1229	-4.3792	405.443	157.074	203.824	411.213	362.078	216.166	425.565	433.653	206.567	199.892	275.472	360.878	370.466	272.814	384.486	435.175	0.00068425	0.00038846	7.7175e-05	1456.6	6.3545e-06	5.1496e-06	1455.3	374.38	7.349e-06	4.1406e-06	425.26	138.68	117.21	38.738	7.5105e-06	48.225	0.0004466	0.00039023	0.00010608	1485.1	4.4304e-06	4.1931e-06	1476.7	382.13	4.238e-06	3.986e-06	434.04	141.38	119.94	40.004	4.0599e-06	49.554	272.756	174.053	217.657	108.625	262.445	237.256	108.638	113.388	265.735	241.320	112.651	117.615	118.182	122.349	256.357	121.569	-8191	255	
50788.395	1	1	0	0	0.11533	0.26869	0.23136	0.33011	0.12869	0.14144	0.14575	0.39887	0.068205	0.23932	0.25404	0.24464	0.14663	0.21936	0.17486	0.2942	-4.1917	-4.9938	-4.1021	-5.1354	-4.6542	-4.2646	-5.3521	-4.4458	-4.5396	-4.9292	-4.2229	-4.9125	-4.8833	-4.2	-5.1042	-4.4104	353.589	211.654	421.009	404.095	366.052	112.954	348.045	388.387	350.402	423.827	361.151	441.694	425.342	187.607	95.990	435.923	0.00067129	0.000443	0.00018298	1466.2	6.2994e-06	6.9761e-06	1451.7	375.37	7.4771e-06	3.176e-06	425.71	138.5	118.35	38.715	6.5442e-06	48.483	0.0004538	0.00038263	0.00011329	1488.2	4.4631e-06	4.2832e-06	1478.7	383.53	4.5471e-06	4.1939e-06	435.52	141.93	120.44	40.143	4.616e-06	49.91	275.444	188.121	180.190	108.431	265.123	264.828	108.541	113.269	270.415	271.900	112.648	117.745	118.160	122.266	265.202	121.304	-8191	255	
50788.492	1	1	0	0	0.22665	0.12582	0.066182	0.22358	0.26475	0.14773	0.12003	0.32178	0.078215	0.11282	0.11154	0.1323	0.23756	0.16954	0.072192	0.22389	-4.3042	-4.9437	-4.0375	-5.05	-4.6771	-4.1167	-5.3812	-4.4708	-4.4646	-5.2875	-4.1896	-4.9771	-4.8208	-4.2854	-5.0396	-4.6229	206.900	236.134	413.171	409.065	99.240	371.598	388.587	422.626	109.575	105.867	432.363	346.439	444.058	337.143	341.597	126.698	0.000702	0.00034974	0.00013584	1477	8.671e-06	2.9067e-06	1471.1	377.61	8.831e-06	5.5664e-06	429.41	140.43	119.16	39.117	6.5034e-06	48.689	0.00049575	0.00042024	0.00012395	1507.4	4.905e-06	4.8799e-06	1496.6	386.69	4.8139e-06	4.6794e-06	439.83	143	121.37	40.378	4.8397e-06	49.982	275.139	215.888	211.181	108.510	244.553	176.197	108.531	113.624	281.355	243.143	112.567	117.324	118.106	122.003	240.634	121.413	-8191	255	
50788.613	1	1	0	0	0.034629	0.068134	0.060857	0.33079	0.041374	0.20961	0.2324	0.2855	0.0081355	0.24826	0.20695	0.061351	0.18379	0.29861	0.20898	0.17894	-3.9375	-5.0563	-4.2333	-4.775	-4.9062	-4.1229	-5.2833	-4.5687	-4.3104	-5.0687	-4.5083	-4.7063	-5.1438	-4.1604	-4.9146	-4.8417	409.727	304.561	396.196	446.777	323.895	382.597	398.086	397.564	328.840	101.419	428.504	372.610	407.489	442.770	436.692	421.530	0.0006529	0.0004312	0.00015314	1486.3	6.3996e-06	5.6256e-06	1474.3	378.1	7.3105e-06	4.5345e-06	430.05	140.1	118.73	39.162	7.1653e-06	48.338	0.00048197	0.00043609	0.00012444	1514.8	4.7811e-06	4.8347e-06	1499.5	386.71	4.8712e-06	4.5958e-06	439.69	142.84	121.15	40.48	4.9572e-06	49.846	277.289	191.367	206.975	108.278	262.283	251.117	108.626	113.282	259.618	224.738	112.782	117.613	117.983	122.251	264.711	121.362	-8191	255	
50788.707	1	1	0	0	0.10728	0.19376	0.058927	0.19809	0.097006	0.087248	0.25534	0.1357	0.22125	0.24315	0.092098	0.017342	0.055256	0.17318	0.069905	0.14611	-3.7854	-4.9104	-4.3708	-4.7979	-4.9729	-4.0125	-5.1188	-4.8458	-4.2667	-5.0896	-4.6208	-4.5292	-5.0958	-4.1625	-4.7708	-4.7417	292.030	118.526	99.069	443.669	371.995	323.018	351.351	386.373	350.657	276.932	105.787	202.279	210.380	168.009	199.809	157.960	0.00068013	0.00042214	0.00012765	1482.5	6.4149e-06	5.4313e-06	1473.4	378.69	1.0122e-05	4.8655e-06	427.45	139.66	118.76	39.08	5.974e-06	48.557	0.00048399	0.00042384	0.00012274	1514.6	4.7463e-06	4.7494e-06	1500.8	387.77	4.8108e-06	4.6558e-06	439.1	142.85	121.09	40.351	4.5606e-06	49.928	274.797	188.651	183.331	108.415	264.002	255.419	108.434	113.293	270.803	226.975	112.612	117.608	118.040	122.195	225.218	121.125	-8191	255	
50788.805	1	1	0	0	0.19461	0.11206	0.13684	0.35669	0.1276	0.11714	0.11486	0.18523	0.17308	0.10981	0.075045	0.18851	0.1389	0.043842	0.16633	0.040932	-3.8438	-5.0979	-4.4521	-4.5958	-5.1625	-4.2167	-5.125	-5.0437	-4.1188	-5.0896	-4.6625	-4.3688	-5.2771	-4.3	-4.6188	-4.9896	123.904	147.607	309.851	440.422	176.531	426.062	396.123	104.706	131.038	328.759	226.757	379.168	429.366	390.209	157.042	122.526	0.00067857	0.00040597	0.00011818	1488.1	7.9266e-06	2.5792e-06	1479.2	378.88	5.3139e-06	4.1102e-06	431.74	139.96	118.91	39.139	6.2025e-06	48.268	0.00048724	0.00042225	0.00012031	1516.1	4.8366e-06	4.7803e-06	1503.4	387.87	4.8124e-06	4.5864e-06	439.86	142.81	121.29	40.333	4.5199e-06	49.865	279.401	188.122	197.573	108.423	265.841	241.814	108.357	113.292	274.479	237.538	112.808	117.516	118.154	122.298	233.079	121.256	-8191	255	
50788.922	1	1	0	0	0.29103	0.23954	0.03874	0.18672	0.048028	0.0696	0.38674	0.47488	0.19923	0.19053	0.057788	0.26972	0.25346	0.14093	0.28149	0.19257	-3.8875	-4.9187	-4.5938	-4.4083	-5.05	-4.3208	-4.8354	-5.2854	-4.0167	-4.9062	-4.7875	-4.3521	-5.2875	-4.2854	-4.4062	-5.1208	324.963	397.875	332.653	119.671	382.651	238.548	409.297	407.312	212.116	351.284	373.170	428.494	125.047	145.380	454.266	119.550	0.00071031	0.00057816	0.00017726	1486.2	5.1392e-06	5.9153e-06	1478.4	377.89	5.9558e-06	4.9919e-06	430.31	139.92	118.9	39.147	3.5707e-06	48.564	0.000489	0.00042978	0.00011603	1517.5	4.7194e-06	4.8579e-06	1502.2	387.5	4.6683e-06	4.6639e-06	440.1	142.83	121.24	40.382	4.4535e-06	49.923	273.101	168.927	174.513	108.498	260.793	247.856	108.286	113.361	279.721	231.156	112.634	117.283	118.193	122.332	244.064	121.177	-8191	255	
50788.992	1	1	0	0	0.10829	0.17277	0.1542	0.020585	0.1375	0.28561	0.078225	0.15907	0.14879	0.1313	0.16049	0.026098	0.12881	0.027968	0.16635	0.10167	-3.7604	-4.8646	-4.7542	-4.2583	-4.9896	-4.3979	-4.5792	-5.2417	-4.2188	-4.7958	-4.9958	-4.1646	-5.1333	-4.8438	-4.3187	-5.2021	250.171	97.903	193.198	436.158	356.887	445.302	378.982	440.030	313.071	406.357	125.792	274.504	407.621	201.865	115.530	185.681	0.00068052	0.000513	0.00017475	1483.8	8.0693e-06	6.1766e-06	1479	378.47	8.6009e-06	4.3599e-06	429.81	139.67	118.58	39.044	5.1036e-06	48.376	0.0004857	0.00041559	0.0001185	1516.1	4.6483e-06	4.8339e-06	1500.9	387.12	4.7407e-06	4.4345e-06	439.78	142.54	121.16	40.287	4.4223e-06	49.925	273.512	178.342	188.427	108.334	257.590	229.424	108.473	113.373	257.055	236.883	112.738	117.677	118.112	122.028	271.115	121.345	-8191	255	
50789.090	1	1	0	0	0.10976	0.11475	0.025371	0.50913	0.075522	0.21659	0.20956	0.26552	0.19394	0.073728	0.1986	0.052808	0.3735	0.33856	0.14093	0.25146	-3.9437	-4.7375	-4.9292	-4.3583	-5.0417	-4.6583	-4.5583	-5.2646	-4.1687	-4.7604	-4.8521	-4.1417	-4.9354	-4.7229	-4.2792	-5.2562	121.407	418.761	345.956	451.224	104.667	135.620	384.185	333.004	311.574	392.305	109.946	154.946	440.216	377.739	286.045	327.332	0.00073889	0.00040044	0.00015951	1488.1	8.2163e-06	3.9481e-06	1481.8	379.57	7.6948e-06	5.7504e-06	427.26	139.93	118.71	39.036	8.1207e-06	48.398	0.00048373	0.00041004	0.0001188	1517.4	4.7705e-06	4.6807e-06	1503.6	387.44	4.7192e-06	4.466e-06	438.8	142.69	121.36	40.293	4.6266e-06	49.968	277.627	169.303	185.412	108.588	250.706	243.869	108.344	113.433	276.802	236.567	112.743	117.352	117.903	122.324	243.311	121.209	-8191	255	
50789.211	1	1	0	0	0.1552	0.15936	0.20419	0.23572	0.075654	0.12123	0.20046	0.05542	0.066923	0.094559	0.0897	0.4588	0.15727	0.11041	0.14341	0.13739	-3.9104	-4.5958	-4.9333	-4.3292	-4.8542	-4.6062	-4.4646	-5.3271	-4.4271	-4.3688	-5.0333	-4.1375	-4.925	-4.7458	-4.1521	-5.1021	411.718	164.486	224.726	427.635	320.794	158.574	411.648	452.397	237.164	230.547	396.958	391.270	421.362	446.113	418.753	429.079	0.00070258	0.00055457	0.00016171	1489.5	8.5863e-06	4.3785e-06	1477.1	378.96	9.3257e-06	4.2911e-06	429.28	139.15	118.6	39.032	5.5912e-06	48.512	0.00047933	0.00041006	0.00011058	1516.6	4.5942e-06	4.404e-06	1502.4	386.76	4.6499e-06	4.3522e-06	439.04	142.34	121.15	40.321	4.5702e-06	49.89	275.707	159.372	185.386	108.406	251.431	267.704	108.228	113.330	259.665	217.477	112.881	117.563	118.018	122.422	257.892	121.189	-8191	255	
50789.309	1	1	0	0	0.3668	0.17315	0.11323	0.1641	0.078263	0.11358	0.45897	0.19983	0.06312	0.13195	0.16395	0.10446	0.0073422	0.10707	0.14012	0.12769	-4.0417	-4.4604	-5.125	-4.3	-4.7271	-4.7208	-4.3542	-5.1125	-4.5458	-4.4667	-5.2312	-4.1854	-4.8562	-4.9896	-4.0542	-5.0333	431.640	193.155	233.409	449.326	320.172	150.527	367.875	412.688	408.287	183.575	453.139	266.143	223.272	270.409	409.960	105.091	0.00067841	0.00045394	0.00011855	1492.2	7.0751e-06	7.4125e-06	1485.3	381.01	9.4468e-06	5.8697e-06	429.03	139.6	118.94	39.039	5.4777e-06	48.398	0.00047823	0.00041594	0.00011331	1520.8	4.6492e-06	4.5186e-06	1506.1	388.51	4.5452e-06	4.4932e-06	439.75	142.64	121.38	40.325	4.6518e-06	49.948	272.729	170.420	202.971	108.362	247.452	227.338	108.300	113.298	270.339	261.373	112.936	117.609	118.039	122.357	265.658	121.150	-8191	255	
50789.402	1	1	0	0	0.25554	0.12269	0.26143	0.20333	0.20826	0.054474	0.31238	0.18694	0.21254	0.10932	0.22382	0.084763	0.14139	0.13703	0.15347	0.24661	-4.0979	-4.2208	-5.0292	-4.4208	-4.6208	-4.8292	-4.275	-5.1188	-4.5833	-4.1229	-5.2812	-4.3396	-4.6521	-5.1583	-4.15	-4.9542	103.143	331.435	154.433	424.094	220.835	134.706	374.320	449.406	433.299	299.176	439.689	373.798	454.171	141.006	266.781	282.840	0.00069111	0.00035284	0.00017335	1497	6.9876e-06	5.1924e-06	1492.2	380.3	5.5211e-06	2.7981e-06	431.56	140.15	118.94	38.96	5.8985e-06	48.545	0.00048361	0.00043224	0.00011461	1526.8	4.8094e-06	4.5753e-06	1511.9	388.84	4.7252e-06	4.4606e-06	440.68	143.17	121.61	40.442	4.6138e-06	50.014	275.917	166.864	189.684	108.516	263.127	223.951	108.318	113.317	275.990	210.199	112.613	117.697	117.864	122.359	251.295	121.298	-8191	255	
50789.523	1	1	0	0	0.14156	0.16716	0.2087	0.2724	0.1218	0.32099	0.30215	0.13505	0.16607	0.077082	0.19011	0.35313	0.10861	0.1113	0.042414	0.20538	-4.3833	-4.1146	-4.9979	-4.725	-4.2896	-5.0521	-4.2896	-4.9458	-4.7021	-4.175	-5.2083	-4.5146	-4.3979	-5.0813	-4.1562	-4.85	279.192	334.167	338.600	444.234	205.368	368.847	402.979	450.909	265.826	137.231	441.996	398.417	188.879	315.141	278.040	438.961	0.00068642	0.00060634	0.00016053	1502.1	5.2816e-06	5.173e-06	1491.2	381.75	8.3025e-06	5.2997e-06	433.5	139.56	119.09	39.302	5.424e-06	48.743	0.00048121	0.00043098	0.00011663	1529.2	4.8137e-06	4.5615e-06	1513.8	390.02	4.6434e-06	4.5374e-06	441.49	142.7	121.55	40.51	4.7021e-06	50.132	273.224	181.957	179.877	108.333	290.861	220.425	108.410	113.264	279.850	231.237	112.786	117.507	118.069	122.518	261.814	121.379	-8191	255	
50789.598	1	1	0	0	0.085601	0.21455	0.15788	0.057805	0.18878	0.09785	0.352	0.13593	0.1557	0.085736	0.23509	0.10085	0.13377	0.11628	0.16678	0.0031371	-4.525	-3.9958	-4.9771	-4.5479	-4.1646	-5.1562	-4.2583	-4.6708	-4.9167	-4.1958	-5.2021	-4.7396	-4.3354	-5.1896	-4.1958	-4.65	418.439	425.744	311.780	432.754	294.964	375.496	374.723	435.362	187.280	190.004	362.896	419.000	442.419	389.966	126.414	274.543	0.00068509	0.0004793	9.9502e-05	1503.2	7.6459e-06	6.6086e-06	1488.6	380.67	7.0582e-06	4.0157e-06	430.29	140.22	118.56	39.273	7.1879e-06	48.501	0.0004725	0.00043335	0.00011517	1529.7	4.661e-06	4.3473e-06	1512.5	389.2	4.5834e-06	4.5694e-06	441.03	142.94	121.39	40.458	4.8039e-06	49.969	278.328	174.907	176.260	108.518	267.279	262.014	108.366	113.248	267.178	241.766	112.827	117.481	118.108	122.275	262.178	121.453	-8191	255	
50789.691	1	1	0	0	0.14706	0.3293	0.050905	0.24555	0.28812	0.009797	0.30774	0.21347	0.11962	0.065177	0.29941	0.13802	0.10258	0.067492	0.040984	0.070027	-4.7646	-4.0354	-4.9208	-4.9938	-4.1292	-5.1146	-4.5917	-4.6021	-4.9854	-4.0563	-5.1042	-4.9458	-4.2208	-5.1208	-4.4313	-4.45	340.825	223.912	186.388	413.830	307.975	288.711	366.611	428.755	391.650	400.345	349.209	100.873	163.226	449.519	431.622	318.366	0.00067759	0.00047209	6.4825e-05	1497.9	7.7709e-06	4.1744e-06	1487.4	380.4	7.8001e-06	4.8343e-06	430.99	139.65	118.76	39.292	3.9395e-06	48.604	0.00047172	0.00043065	0.00011129	1528.2	4.7342e-06	4.4318e-06	1513.2	388.66	4.4955e-06	4.7005e-06	440.91	142.74	121.38	40.48	4.4544e-06	50.066	277.471	183.085	134.871	108.564	261.904	252.419	108.450	113.358	272.003	245.395	112.723	117.599	118.023	122.253	260.008	121.065	-8191	255	
50789.812	1	1	0	0	0.13037	0.10824	0.089893	0.26841	0.054959	0.08141	0.24397	0.21581	0.20693	0.30843	0.15703	0.18771	0.129	0.12389	0.14882	0.07692	-4.7229	-4.0896	-4.7937	-5.2021	-4.2937	-5.1208	-4.7833	-4.55	-5.1208	-4.1229	-4.8646	-4.9354	-4.3938	-5.0625	-4.5292	-4.4104	235.578	101.825	431.728	435.337	268.143	196.520	371.363	390.613	176.460	166.789	373.674	435.334	360.563	106.977	315.904	314.761	0.00071929	0.00050864	0.00011759	1499.8	5.6255e-06	7.3385e-06	1479.9	381.1	6.414e-06	4.7277e-06	431.91	139.79	118.86	39.297	6.5557e-06	48.546	0.00046616	0.00042153	0.00011385	1529.9	4.5743e-06	4.3654e-06	1510.3	389.12	4.4617e-06	4.5313e-06	440.57	142.48	121.31	40.421	4.3799e-06	50.026	272.217	185.163	187.792	108.428	271.186	245.481	108.486	113.155	267.224	237.370	112.697	117.411	117.807	122.580	260.841	121.234	-8191	255	
50789.906	1	1	0	0	0.20805	0.13046	0.19185	0.40956	0.16239	0.30129	0.29561	0.067868	0.16657	0.22814	0.142	0.1167	0.070627	0.20347	0.17421	0.15627	-4.8458	-4.3083	-4.4563	-5.0312	-4.0771	-5.0479	-4.8562	-4.3229	-5.1292	-4.3521	-4.5958	-5.0104	-4.2167	-5.0479	-4.5854	-4.2271	243.814	150.604	392.331	446.543	270.411	207.307	445.122	362.499	224.404	274.633	422.462	395.927	137.492	385.712	297.298	105.211	0.00069594	0.00067685	8.4992e-05	1498.9	9.3557e-06	5.1796e-06	1489	381.62	8.362e-06	5.8967e-06	432.62	140.35	119.28	39.111	7.9991e-06	48.48	0.00046426	0.00042038	0.00010795	1528.4	4.6543e-06	4.3767e-06	1512.5	388.96	4.5127e-06	4.3824e-06	440.78	142.82	121.37	40.464	4.3311e-06	49.909	278.268	191.569	194.058	108.571	268.623	281.219	108.425	113.358	268.988	240.365	113.027	117.529	117.990	122.441	261.827	120.859	-8191	255	
50790.004	1	1	0	0	0.012998	0.23953	0.091265	0.3589	0.10264	0.13103	0.28762	0.20926	0.21809	0.071375	0.15992	0.096994	0.13346	0.27977	0.10288	0.062735	-4.9333	-4.3958	-4.4646	-5.3458	-4.0917	-4.7708	-4.9917	-4.5271	-5.0813	-4.5917	-4.45	-5.1792	-4.2	-4.8771	-4.6917	-4.3021	251.387	373.058	249.331	412.700	101.166	211.153	392.719	378.214	250.761	224.562	405.687	128.576	101.143	98.906	103.698	203.197	0.00072127	0.00051887	9.5133e-05	1497.9	7.7428e-06	3.3571e-06	1491.9	381.36	7.7933e-06	4.421e-06	432.07	139.91	118.74	39.191	6.0971e-06	48.652	0.00046026	0.00040583	0.00010844	1528.1	4.6893e-06	4.2996e-06	1512.2	388.82	4.4041e-06	4.4134e-06	440.56	142.74	121.36	40.495	4.3814e-06	50.078	274.646	173.770	171.439	108.483	280.767	251.891	108.489	113.041	257.840	240.120	112.548	117.380	118.043	122.019	269.921	121.158	-8191	255	
50790.098	1	1	0	0	0.17851	0.062012	0.14926	0.15746	0.19802	0.28411	0.20712	0.31998	0.1457	0.084488	0.064722	0.019782	0.083048	0.20584	0.19411	0.16995	-4.7396	-4.2562	-4.3708	-5.3479	-4.1458	-4.6771	-5.0854	-4.2375	-4.9771	-4.5479	-4.475	-5.2208	-4.3708	-4.7271	-4.825	-4.3187	254.221	361.138	292.493	370.807	118.368	258.459	333.209	405.786	392.708	207.229	104.032	333.067	332.407	106.472	155.332	212.936	0.00073714	0.00024657	0.00014504	1495.9	8.259e-06	3.36e-06	1489.6	380.43	9.9965e-06	4.8076e-06	429.95	139.45	119.09	39.157	6.8842e-06	48.407	0.00046032	0.00040836	0.00011027	1525.3	4.5805e-06	4.2661e-06	1510.7	388.68	4.4405e-06	4.2198e-06	440.02	142.35	121.4	40.437	4.2168e-06	49.995	274.379	174.482	171.990	108.417	269.798	250.479	108.584	113.314	272.210	253.925	112.612	117.545	118.025	121.931	254.482	121.477	-8191	255	
50790.195	1	1	0	0	0.17344	0.17113	0.20186	0.20634	0.1618	0.18854	0.26303	0.16262	0.047653	0.034794	0.25023	0.18126	0.13045	0.046836	0.1256	0.13007	-4.7854	-4.6354	-4.25	-5.3104	-4.2937	-4.3604	-5.1604	-4.3021	-4.8708	-4.6625	-4.2333	-5.2458	-4.4646	-4.5458	-4.8958	-4.1958	305.604	110.196	250.895	409.853	349.620	355.147	366.376	363.627	408.247	147.308	383.516	427.660	361.778	320.336	171.462	347.284	0.00069833	0.00045223	0.00012748	1496.2	6.4451e-06	4.546e-06	1484.4	380.58	7.1991e-06	4.8311e-06	429.66	139.74	118.84	38.981	7.053e-06	48.769	0.00045433	0.00040297	0.00011126	1524.7	4.5332e-06	4.3585e-06	1508.4	387.95	4.3138e-06	4.2759e-06	439.69	142.28	121.38	40.352	4.2107e-06	49.997	272.742	176.137	188.130	108.431	251.659	243.573	108.693	113.231	269.617	251.800	112.578	117.490	118.221	121.973	250.269	121.270	-8191	255	
50790.293	1	1	0	0	0.093006	0.16406	0.076873	0.26981	0.012132	0.19621	0.27736	0.13755	0.12252	0.19142	0.045403	0.17784	0.21119	0.132	0.084164	0.18624	-4.5583	-4.8229	-4.0312	-5.1729	-4.3438	-4.4021	-5.2604	-4.3896	-4.6875	-5.0312	-4.1687	-5.1417	-4.6167	-4.4521	-5.1729	-4.3667	181.170	398.513	374.909	433.857	247.346	202.208	399.737	372.983	396.516	444.370	433.905	412.151	432.630	356.182	230.701	150.182	0.00072599	0.00057475	0.00014699	1495.7	8.2759e-06	4.521e-06	1487.4	381.17	8.1608e-06	4.2424e-06	429.35	140.31	119.07	39.038	4.632e-06	48.575	0.00046298	0.00039104	0.00011364	1525.5	4.5102e-06	4.3136e-06	1508.5	388.27	4.336e-06	4.2269e-06	439.19	142.75	121.39	40.418	4.209e-06	49.98	274.030	175.929	205.153	108.571	278.542	239.943	108.580	113.367	266.403	231.575	112.488	117.588	118.223	122.523	268.007	121.130	-8191	255	
50790.387	1	1	0	0	0.10874	0.10897	0.022636	0.24986	0.1474	0.22035	0.33234	0.32052	0.20884	0.076173	0.3151	0.16276	0.34754	0.095507	0.2449	0.064826	-4.4396	-4.9667	-4.1104	-5.3562	-4.5563	-4.3083	-5.5021	-4.3542	-4.7146	-4.9688	-4.1375	-4.9542	-4.7271	-4.2	-5.1562	-4.5062	165.764	339.147	204.543	430.371	107.485	110.963	395.692	409.712	400.259	280.472	428.706	397.528	390.647	395.338	235.845	348.945	0.00071656	0.00057222	0.00010755	1497.9	1.0439e-05	5.754e-06	1491.4	380.98	1.0862e-05	4.0823e-06	429.69	139.81	119.32	39.393	4.8314e-06	48.552	0.00044864	0.00038266	0.00010979	1524.2	4.4126e-06	4.3361e-06	1511.2	388.03	4.4051e-06	4.1502e-06	439.35	142.18	121.47	40.514	4.1967e-06	50.016	275.235	156.843	186.759	108.556	255.188	238.392	108.593	113.064	265.018	248.752	112.549	117.338	117.941	121.968	244.555	121.484	-8191	255	
50790.484	1	1	0	0	0.12533	0.19709	0.15827	0.19618	0.07735	0.19456	0.32352	0.12953	0.16708	0.062867	0.33358	0.16037	0.29189	0.053406	0.083124	0.22382	-4.25	-5.0479	-4.1083	-4.8604	-4.625	-4.0625	-5.2854	-4.4333	-4.1875	-5.1042	-4.2021	-5.0021	-4.9271	-4.1188	-5.1208	-4.7688	447.442	193.483	108.898	110.785	283.795	337.491	393.385	442.472	140.267	374.506	358.989	314.344	119.505	432.483	290.030	143.489	0.0006878	0.00057421	0.00014427	1493.9	8.5707e-06	7.8913e-06	1485.6	377.73	7.9165e-06	3.7157e-06	427.59	139.19	118.99	39.233	4.2408e-06	48.724	0.00045685	0.00038975	0.00011184	1525.1	4.4086e-06	4.2465e-06	1510	387.49	4.3922e-06	4.0562e-06	439.3	142.17	121.19	40.431	4.2332e-06	50.072	276.937	191.835	176.782	108.525	269.570	241.351	108.316	113.105	269.711	237.463	112.780	117.362	117.958	122.307	246.849	121.313	-8191	255	
50790.605	1	1	0	0	0.048559	0.22365	0.20101	0.10582	0.30727	0.066488	0.078949	0.10478	0.13406	0.03667	0.054782	0.31684	0.16715	0.11804	0.1496	0.038166	-4.0479	-5.1062	-4.1687	-5	-4.9563	-4.1479	-5.2292	-4.5375	-4.1417	-5.0563	-4.2833	-4.5938	-5.1417	-4.2417	-4.8333	-4.7562	392.743	386.322	96.410	404.954	342.447	190.874	396.298	382.391	225.469	154.086	178.948	433.422	358.812	288.110	161.718	310.934	0.00074575	0.00047554	0.00013276	1496.5	7.8114e-06	5.9858e-06	1485.7	379.71	7.0426e-06	3.2782e-06	429.52	139.27	118.76	38.988	4.1539e-06	48.165	0.00046253	0.00039353	0.00011165	1522.8	4.4035e-06	4.2807e-06	1509.6	387.69	4.4603e-06	4.1725e-06	439.03	142.16	120.99	40.274	4.1543e-06	49.918	275.301	212.140	186.477	108.455	266.880	261.010	108.346	113.168	259.912	229.646	112.815	117.442	118.281	121.994	270.283	121.108	-8191	255	
50790.699	1	1	0	0	0.14369	0.17413	0.13607	0.30346	0.20269	0.15377	0.14892	0.1661	0.12783	0.20349	0.051176	0.1713	0.14125	0.1572	0.1182	0.24439	-3.9271	-4.8938	-4.2625	-4.7438	-5.0813	-4.25	-5.1375	-4.9938	-4.0646	-4.9854	-4.5813	-4.6979	-4.9854	-4.1042	-4.8104	-4.9563	361.628	356.458	351.178	401.792	266.820	417.463	383.306	442.867	194.893	419.413	102.521	419.405	446.659	137.850	444.119	431.687	0.00068069	0.00031937	7.6128e-05	1493.5	8.9766e-06	5.3687e-06	1487.5	378.28	7.67e-06	6.6522e-06	430.43	139.68	118.58	39.078	6.6977e-06	48.562	0.00045009	0.00037254	0.00011035	1521.9	4.3749e-06	4.2567e-06	1509.6	387.63	4.3159e-06	4.1362e-06	438.91	142.31	121.01	40.396	4.1628e-06	49.945	275.034	155.824	194.836	108.385	263.192	243.336	108.526	113.013	278.799	247.742	112.755	117.474	117.910	122.235	261.502	121.250	-8191	255	
50790.797	1	1	0	0	0.16831	0.079096	0.11294	0.23461	0.14261	0.089864	0.16706	0.34692	0.13418	0.11041	0.3096	0.32617	0.21098	0.27602	0.20102	0.18895	-3.8104	-5.1229	-4.3833	-4.5771	-5.1479	-4.1458	-5	-5.1	-4.0563	-5.05	-4.5979	-4.4688	-5.225	-4.3875	-4.625	-4.9708	329.938	418.540	244.458	410.345	223.567	440.779	343.476	382.043	186.042	188.900	374.717	339.751	386.691	389.563	210.760	392.792	0.00070617	0.00043014	9.2114e-05	1489.5	6.0522e-06	5.9639e-06	1483.6	379.82	5.7674e-06	3.516e-06	430.22	139.8	118.36	39.052	8.0633e-06	48.457	0.00046947	0.00037492	0.00011046	1520.5	4.2825e-06	4.3652e-06	1509.4	387.69	4.3831e-06	4.1065e-06	439.63	142.06	121.27	40.342	4.2766e-06	50.058	275.419	186.853	182.892	108.341	255.723	259.302	108.426	113.494	261.958	244.445	112.544	117.368	117.868	122.248	266.262	121.321	-8191	255	
50790.895	1	1	0	0	0.24573	0.13557	0.13442	0.26708	0.15894	0.10994	0.12016	0.051515	0.062182	0.17885	0.27771	0.19155	0.18647	0.22749	0.14856	0.24637	-3.7854	-5.0188	-4.7625	-4.3875	-5.3083	-4.4208	-4.8	-5.0167	-3.9875	-4.9208	-4.7625	-4.3646	-5.1354	-4.4542	-4.5542	-5.0687	132.870	282.971	338.706	404.061	282.383	108.166	317.224	356.551	416.884	385.770	430.579	432.471	441.677	372.748	340.164	428.361	0.00071142	0.00056986	0.00013989	1493	7.1936e-06	4.0879e-06	1481.8	380.6	8.2878e-06	3.5583e-06	429.4	138.68	118.89	39.119	5.8382e-06	48.534	0.00046804	0.00037506	0.00010782	1521.4	4.3351e-06	4.3756e-06	1506.9	387.46	4.3953e-06	3.9464e-06	438.86	142.02	121.3	40.432	4.2967e-06	49.993	276.713	197.977	177.231	108.132	267.675	242.794	108.211	113.434	264.220	211.601	112.623	117.329	118.022	122.224	269.777	121.509	-8191	255	
50790.988	1	1	0	0	0.06915	0.14705	0.069629	0.19465	0.14304	0.27012	0.12463	0.14388	0.25778	0.043556	0.29149	0.13017	0.18814	0.18424	0.058154	0.15162	-3.9292	-4.8708	-4.8125	-4.2854	-4.9771	-4.5417	-4.6042	-5.4313	-4.2354	-4.75	-4.8979	-4.2479	-5.2958	-4.55	-4.2438	-5.2792	115.211	311.062	125.116	445.682	214.650	408.272	370.883	337.131	203.649	203.503	427.160	409.140	444.273	414.780	217.740	390.657	0.0007195	0.00045409	0.00015827	1491.8	7.6839e-06	5.6488e-06	1488	379.5	8.5123e-06	2.7381e-06	431.76	139.66	118.96	39.009	6.8215e-06	48.461	0.00046502	0.00037383	0.00011041	1523.5	4.495e-06	4.2485e-06	1509.7	387.59	4.5495e-06	4.0239e-06	439.51	142.26	121.2	40.378	4.232e-06	50.017	275.473	178.046	185.947	108.481	253.636	278.344	108.435	113.396	274.716	269.332	112.885	117.424	117.950	122.377	262.990	121.261	-8191	255	
50791.086	1	1	0	0	0.084015	0.14575	0.13878	0.13764	0.16574	0.2095	0.26308	0.31338	0.062794	0.1198	0.20753	0.20615	0.19374	0.31015	0.16165	0.15703	-3.8417	-4.7208	-4.8833	-4.3313	-5.0625	-4.5021	-4.5479	-5.1937	-4.1375	-4.5521	-5.1813	-4.3896	-4.8521	-4.7771	-4.0458	-5.3104	354.962	414.516	248.827	320.878	142.373	316.017	380.387	416.837	423.868	105.220	401.473	415.171	412.569	445.542	299.001	138.638	0.000739	0.00033313	0.00017254	1493.3	7.3553e-06	4.5805e-06	1485.5	380.93	7.8085e-06	7.071e-06	429.91	139.25	119.3	38.972	4.3257e-06	48.484	0.00046284	0.00037763	0.00010804	1524.6	4.3764e-06	4.2378e-06	1508.6	388.11	4.4445e-06	4.296e-06	439.67	142.17	121.33	40.38	4.4262e-06	49.992	276.759	166.168	192.760	108.574	268.960	242.474	108.443	113.326	276.688	244.205	112.615	117.437	118.057	122.116	267.494	121.069	-8191	255	
50791.203	1	1	0	0	0.16589	0.2858	0.10103	0.2104	0.099967	0.14194	0.22615	0.15935	0.020761	0.18536	0.18577	0.226	0.16804	0.20999	0.26087	0.12617	-4.0146	-4.4604	-5.0417	-4.0771	-4.7896	-4.7479	-4.4667	-5.2146	-4.3208	-4.3958	-4.9583	-4.3917	-4.7729	-4.7	-4.0417	-5.0917	232.939	331.654	211.948	367.538	248.458	431.393	434.282	440.492	277.834	139.744	193.747	414.167	115.553	132.526	184.906	346.248	0.00067595	0.00033721	0.00014756	1500.1	6.5055e-06	6.3736e-06	1485.4	378.88	8.8749e-06	4.6133e-06	431.69	139.18	118.8	39.056	8.366e-06	48.537	0.0004615	0.00039081	0.00010656	1525.5	4.4484e-06	4.2541e-06	1509.1	387.38	4.5347e-06	4.1626e-06	440.2	142.08	121.19	40.403	4.3848e-06	50.12	273.270	172.034	184.264	108.316	269.648	260.257	108.304	113.320	271.008	247.556	112.437	117.585	118.022	122.248	256.354	121.476	-8191	255	
50791.301	1	1	0	0	0.02915	0.11393	0.12146	0.23786	0.1319	0.15431	0.11839	0.1943	0.35482	0.086882	0.19911	0.1725	0.031309	0.21524	0.10592	0.079708	-4.0917	-4.4271	-5	-4.2854	-4.725	-4.6833	-4.4042	-5.1854	-4.475	-4.2375	-5.1417	-4.175	-4.8604	-4.85	-4.1958	-5.0354	135.306	180.029	237.045	443.462	417.744	318.951	342.716	97.321	237.135	367.772	382.814	340.815	446.230	339.843	438.186	348.204	0.00068979	0.00045867	0.00010054	1495.4	6.4606e-06	5.3829e-06	1481.4	379.15	7.214e-06	5.4243e-06	431.36	139.34	119.28	39.279	4.4411e-06	49.014	0.00045587	0.00037978	0.00010442	1525.1	4.2882e-06	4.235e-06	1509.3	388.27	4.5265e-06	4.1812e-06	439.04	142.06	121.34	40.505	4.2452e-06	50.208	277.935	187.099	173.464	108.586	258.102	272.163	108.263	113.319	274.908	229.544	112.613	117.125	117.350	121.753	234.155	120.571	-8191	255	
50791.395	1	1	0	0	0.14204	0.1195	0.08457	0.22182	0.042907	0.070196	0.20026	0.17925	0.074202	0.29946	0.11017	0.16727	0.39	0.079974	0.27833	0.095518	-4.3458	-4.325	-5.0667	-4.5729	-4.525	-4.975	-4.3146	-5.1604	-4.8979	-4.1146	-5.1854	-4.3521	-4.6917	-5.0312	-4.0083	-4.9583	388.687	329.281	339.106	439.951	303.141	312.133	393.864	402.254	136.828	431.812	167.057	447.929	398.710	312.441	124.598	442.814	0.00073607	0.00044044	0.00011809	1507	6.1318e-06	3.4954e-06	1492.6	382.73	8.8086e-06	5.0172e-06	432.59	139.65	118.86	39.458	6.0735e-06	48.565	0.00047025	0.00038973	0.00010591	1527.5	4.2423e-06	4.3177e-06	1511	388.57	4.3683e-06	4.2805e-06	440.27	142.1	121.25	40.583	4.3899e-06	50.032	275.722	182.046	185.503	107.792	272.085	235.961	107.629	112.839	283.010	226.102	112.281	117.101	117.213	121.625	263.457	121.294	-8191	255	
50791.469	1	1	0	0	0.060767	0.16337	0.063735	0.34692	0.06129	0.059814	0.17271	0.015664	0.098962	0.062249	0.13523	0.097934	0.25548	0.17296	0.26674	0.1859	-4.3875	-4.1292	-5.1417	-4.5146	-4.4542	-5.0229	-4.1542	-4.9625	-4.9417	-4.2396	-5.0542	-4.5958	-4.6562	-5.0375	-4.1146	-4.75	249.089	122.916	98.100	435.163	165.054	105.822	423.444	357.487	362.964	112.370	190.411	214.479	372.408	446.945	357.593	367.818	0.00070412	0.00047013	0.00014632	1492.5	5.5972e-06	3.8923e-06	1490.7	379.59	6.9883e-06	3.8367e-06	432.05	139.21	118.95	39.295	6.2716e-06	48.965	0.00045799	0.00041389	0.00010394	1525.7	4.4309e-06	4.1188e-06	1512.3	387.86	4.342e-06	4.4314e-06	440.19	142.15	121.22	40.461	4.5187e-06	50.214	274.799	178.783	214.582	108.483	258.974	225.787	108.372	113.339	273.774	219.791	112.314	117.469	117.942	122.148	267.182	120.980	-8191	255	
50791.590	1	1	0	0	0.24129	0.056891	0.069549	0.26524	0.14643	0.10058	0.36138	0.11952	0.15377	0.11677	0.26034	0.11084	0.24068	0.18266	0.21226	0.1008	-4.5917	-4.0938	-5.0354	-4.7396	-4.3333	-5.1854	-4.4646	-5.0021	-4.8979	-4.1375	-5.2188	-4.6917	-4.3	-5.2833	-4.2146	-4.575	435.042	359.583	416.159	434.357	99.298	318.676	377.232	383.727	396.813	137.047	424.270	175.393	416.277	427.943	440.165	127.435	0.00072535	0.00035165	0.00010886	1491.6	5.6269e-06	3.9782e-06	1484.8	378.97	8.0492e-06	2.6234e-06	429.77	139.67	119.03	39.27	6.1373e-06	48.603	0.00045259	0.00039537	0.0001037	1525.6	4.417e-06	4.1852e-06	1511.1	388.16	4.2509e-06	4.3941e-06	440.09	142.56	121.26	40.481	4.4363e-06	50.151	274.412	178.668	190.950	108.440	260.623	233.361	108.567	113.317	275.450	232.375	112.796	117.393	117.633	122.063	259.068	121.286	-8191	255	
50791.684	1	1	0	0	0.19612	0.17565	0.067263	0.3578	0.21032	0.17891	0.13481	0.08114	0.16436	0.23378	0.17951	0.18466	0.14048	0.17946	0.09719	0.068447	-4.7	-3.9417	-4.8896	-4.8917	-4.1687	-4.9437	-4.5167	-4.6146	-4.9583	-3.9875	-4.9958	-4.8375	-4.2583	-5.1604	-4.4854	-4.4875	103.851	202.779	402.289	430.836	392.791	110.450	372.017	380.945	106.490	112.728	156.627	421.237	410.695	155.513	411.393	346.970	0.0006982	0.00060702	0.00015734	1495.6	6.1734e-06	5.2816e-06	1488.2	380.39	5.1113e-06	5.2098e-06	428.32	139.54	118.45	39.293	6.8214e-06	48.611	0.00045637	0.00039963	0.00010298	1527.5	4.5579e-06	4.417e-06	1513.2	388.82	4.2927e-06	4.3806e-06	439.47	142.09	121.21	40.578	4.3075e-06	50.133	274.030	171.110	187.590	108.516	256.100	268.885	108.568	113.118	260.368	251.253	112.505	117.242	118.038	122.055	261.106	121.281	-8191	255	
50791.777	1	1	0	0	0.014227	0.10836	0.11573	0.36138	0.27669	0.19756	0.25084	0.17428	0.18831	0.0077635	0.020327	0.12761	0.17365	0.050144	0.094543	0.11315	-4.775	-4.0708	-4.7479	-4.9938	-4.0667	-5.1021	-4.625	-4.475	-5.1458	-4.1188	-4.8896	-5.0479	-4.0813	-5.0167	-4.4667	-4.3708	386.204	159.615	421.672	423.811	360.037	310.151	402.813	317.897	392.443	430.795	112.746	109.507	360.585	370.213	299.673	118.067	0.00073734	0.00035879	0.00014856	1500.5	7.2203e-06	3.6931e-06	1487.9	382.06	7.4682e-06	2.1122e-06	430.8	139.05	119.26	39.249	7.5567e-06	48.49	0.00046322	0.00040203	0.00010883	1528.9	4.5421e-06	4.238e-06	1515.2	389.21	4.4596e-06	4.3613e-06	440.62	142.3	121.64	40.538	4.3232e-06	50.124	278.712	171.441	181.363	108.299	267.818	262.379	108.475	113.228	250.973	246.762	112.472	117.608	118.009	122.342	259.567	121.356	-8191	255	
50791.875	1	1	0	0	0.35191	0.11474	0.21733	0.26511	0.26942	0.13035	0.032963	0.21313	0.17631	0.18149	0.22617	0.17624	0.17745	0.28903	0.094232	0.099702	-4.7562	-4.1438	-4.5437	-5.1458	-4.1292	-5.125	-4.7792	-4.4313	-5.1667	-4.3417	-4.5458	-5.0979	-4.2375	-5.0042	-4.7562	-4.2271	451.636	403.659	388.667	433.307	134.344	405.615	349.839	448.867	272.656	337.725	448.690	303.958	103.999	366.157	109.732	311.029	0.00068887	0.00056089	0.00014881	1503.7	5.9436e-06	7.9455e-06	1496.8	380.77	6.2743e-06	5.2445e-06	431.81	139.55	119.61	39.478	1.3405e-06	48.72	0.0004549	0.00041902	0.00011195	1532.6	4.4391e-06	4.2447e-06	1515.7	389.29	4.374e-06	4.4911e-06	441.22	142.37	121.7	40.623	4.4682e-06	50.202	273.525	162.057	184.890	108.569	280.239	232.690	108.388	113.310	289.542	251.444	112.438	117.752	117.763	121.989	253.470	121.315	-8191	255	
50791.996	1	1	0	0	0.19513	0.21756	0.1894	0.26562	0.27114	0.18201	0.091732	0.14548	0.1979	0.084877	0.1441	0.16054	0.25134	0.22001	0.073425	0.25308	-4.7979	-4.3208	-4.4042	-5.2604	-4.0354	-4.8375	-5.0563	-4.3313	-5.1896	-4.4792	-4.3792	-5.0979	-4.275	-4.975	-4.7937	-4.2688	453.057	411.288	433.694	97.602	415.464	107.043	408.987	407.431	114.220	282.837	385.030	334.938	413.457	426.950	307.191	394.007	0.00068582	0.00042525	0.0001692	1505.9	7.167e-06	5.0395e-06	1499	381.73	6.7951e-06	5.4358e-06	432.47	140.06	119.46	39.469	5.8075e-06	48.716	0.00045958	0.00041532	0.00010966	1535.7	4.6941e-06	4.3424e-06	1520	389.46	4.3996e-06	4.3651e-06	441.8	142.96	121.78	40.684	4.4324e-06	50.296	276.386	173.524	177.130	108.626	265.518	260.143	108.523	113.264	280.840	249.512	112.554	117.835	118.082	122.252	269.474	120.858	-8191	255	
50792.094	1	1	0	0	0.12905	0.11294	0.054049	0.11787	0.083549	0.1934	0.19999	0.11207	0.093768	0.15426	0.075915	0.068002	0.12742	0.1708	0.21809	0.15692	-4.8313	-4.5188	-4.4062	-5.3854	-4.2229	-4.675	-5.2771	-4.3	-4.9667	-4.5417	-4.3854	-5.2125	-4.3083	-4.675	-4.9417	-4.1188	135.701	158.416	231.938	392.267	146.994	316.326	416.138	399.796	344.575	385.404	440.430	133.228	403.935	408.017	453.372	306.549	0.00070745	0.00045041	0.00014177	1506.5	6.5896e-06	4.6197e-06	1492.5	382.08	5.1625e-06	6.0745e-06	433.17	139.96	119.54	39.156	3.9095e-06	49.222	0.00046155	0.0004044	0.0001127	1536	4.7133e-06	4.2796e-06	1521.4	389.73	4.4756e-06	4.4378e-06	441.65	142.6	121.87	40.546	4.412e-06	50.401	275.360	205.707	175.959	108.568	265.369	224.281	108.577	113.155	276.555	251.040	112.584	117.399	117.964	122.186	268.516	120.994	-8191	255	
50792.164	1	1	0	0	0.13672	0.15202	0.31674	0.24167	0.202	0.14494	0.22892	0.2666	0.18684	0.13507	0.19093	0.17022	0.30855	0.044382	0.079195	0.14676	-4.7146	-4.6521	-4.1	-5.3479	-4.1396	-4.5292	-5.1396	-4.2063	-4.8583	-4.9	-4.3125	-5.3292	-4.5083	-4.6292	-5.0292	-4.15	367.035	197.013	361.541	425.997	420.876	371.272	372.506	316.895	214.577	444.669	420.568	378.347	446.699	333.162	352.868	337.301	0.00071741	0.00037954	0.00012359	1507.1	7.0554e-06	5.8223e-06	1496	381.15	6.1931e-06	3.9204e-06	431.64	139.53	119.27	39.554	6.035e-06	48.781	0.00045609	0.00040829	0.00011691	1539.5	4.6302e-06	4.3621e-06	1523.6	389.83	4.3645e-06	4.4205e-06	441.64	142.56	121.87	40.69	4.4611e-06	50.377	274.018	170.841	161.230	108.498	260.248	252.962	108.484	113.097	276.779	216.440	112.506	117.585	117.984	122.025	229.545	121.174	-8191	255	
50792.285	1	1	0	0	0.16696	0.11399	0.22507	0.16086	0.133	0.1062	0.31526	0.13393	0.034284	0.023047	0.20407	0.075931	0.19946	0.099368	0.093908	0.14814	-4.4	-4.8583	-4.0875	-5.4167	-4.4042	-4.4083	-5.325	-4.3271	-4.7125	-4.8271	-4.1958	-5.1562	-4.6667	-4.4854	-5.1333	-4.3021	253.181	171.993	105.393	318.626	219.031	340.383	340.073	447.311	296.314	135.297	414.772	365.814	113.158	355.829	96.078	437.103	0.00070914	0.00060412	0.00012353	1508.4	5.3483e-06	3.8523e-06	1499.9	382.5	7.2639e-06	5.922e-06	431.78	140.56	119.53	39.514	6.8581e-06	48.952	0.00046951	0.00041175	0.00011668	1537.7	4.709e-06	4.4226e-06	1522	389.96	4.4503e-06	4.4583e-06	441.73	142.75	121.97	40.761	4.3534e-06	50.424	278.237	187.425	192.674	108.430	260.704	244.427	108.334	113.048	265.677	260.892	112.416	117.550	118.200	121.921	257.547	121.224	-8191	255	
50792.383	1	1	0	0	0.13011	0.13933	0.10349	0.43212	0.20137	0.22265	0.19522	0.17355	0.25402	0.1295	0.25486	0.13316	0.17837	0.067591	0.22555	0.064141	-4.2708	-5.0229	-4.1021	-5.1771	-4.4396	-4.2542	-5.4292	-4.3167	-4.5062	-5.1229	-4.2896	-5.0021	-4.8625	-4.3083	-5.1188	-4.2271	326.060	383.040	130.257	380.779	96.431	447.824	367.484	384.535	453.278	215.542	440.393	145.616	213.997	334.880	388.764	344.549	0.00068572	0.00044842	0.00016351	1515.1	8.1469e-06	4.4767e-06	1498.3	382.82	6.875e-06	5.5935e-06	429.65	139.79	119.21	39.473	6.616e-06	48.73	0.00046219	0.00040461	0.00011306	1538.8	4.5584e-06	4.4272e-06	1523.9	390.42	4.4938e-06	4.3539e-06	441.99	142.72	122.02	40.747	4.2744e-06	50.286	274.459	194.465	178.430	108.358	260.415	230.095	108.581	113.365	257.910	227.959	112.518	117.587	117.934	122.190	247.175	121.207	-8191	255	
50792.477	1	1	0	0	0.1953	0.16441	0.17583	0.029798	0.15049	0.1321	0.12784	0.04738	0.085692	0.03889	0.31662	0.078934	0.23832	0.16608	0.094795	0.20418	-4.0792	-5.0146	-4.025	-5.0104	-4.8042	-4.2	-5.4854	-4.4958	-4.475	-4.9729	-4.0938	-4.9812	-4.8896	-4.2229	-5.0229	-4.6646	427.674	299.194	189.785	186.524	307.087	149.136	402.342	408.428	309.728	373.696	453.749	110.860	420.528	137.747	361.414	450.160	0.00068683	0.00036214	0.00014327	1504.9	8.4255e-06	6.1848e-06	1494.2	382.11	8.395e-06	3.4447e-06	431.9	139.5	119.27	39.514	6.0879e-06	48.975	0.00046265	0.00040693	0.00011255	1534.6	4.5202e-06	4.5408e-06	1521.6	389.77	4.4935e-06	4.5046e-06	440.99	142.52	121.95	40.708	4.2384e-06	50.412	275.620	177.132	198.536	108.369	269.171	237.957	108.399	113.303	268.115	241.922	112.458	117.554	118.239	121.984	250.730	121.270	-8191	255	
50792.574	1	1	0	0	0.10223	0.20798	0.11605	0.32121	0.11333	0.17177	0.2021	0.20515	0.14437	0.074821	0.20192	0.10625	0.23546	0.14744	0.1327	0.039319	-4.2792	-5.1813	-4.1583	-5.025	-4.9396	-4.0813	-5.4917	-4.7396	-4.1479	-5.1438	-4.3292	-4.7	-5.1062	-4.3146	-4.9563	-4.6104	232.712	113.941	390.236	425.299	421.747	421.631	400.864	428.488	412.693	322.279	412.908	312.531	405.257	332.702	293.372	438.421	0.00071488	0.00034802	0.0001246	1503	8.553e-06	5.8687e-06	1501.4	381.44	8.7888e-06	3.7733e-06	431.51	139.99	119.17	39.399	6.8967e-06	48.892	0.00046652	0.00040366	0.00011259	1534.6	4.5154e-06	4.5559e-06	1521.8	389.99	4.5703e-06	4.3549e-06	441.12	142.63	121.78	40.719	4.323e-06	50.352	277.052	159.807	207.266	108.365	264.570	226.983	108.241	113.149	274.743	251.704	112.931	117.464	117.930	122.421	243.107	121.239	-8191	255	
50792.695	1	1	0	0	0.074069	0.1615	0.20862	0.17439	0.18321	0.1058	0.23109	0.12423	0.12384	0.097846	0.26331	0.083342	0.055127	0.015322	0.11181	0.041739	-3.8917	-5.0208	-4.35	-4.8708	-4.9542	-4.1708	-5.0396	-4.8917	-4.2	-5.0917	-4.425	-4.4896	-5.0646	-4.1792	-4.8854	-4.725	410.453	319.893	350.514	443.740	224.859	147.473	405.262	160.529	427.766	269.926	426.814	261.618	341.285	297.382	132.755	352.525	0.00071779	0.00046473	0.00012075	1507	7.1109e-06	3.8059e-06	1494.3	382.93	7.5315e-06	5.8814e-06	432.56	139.99	119.56	39.338	6.479e-06	48.617	0.00048111	0.00040364	0.00011104	1534.4	4.464e-06	4.4241e-06	1519.7	389.77	4.6114e-06	4.1779e-06	441.49	142.48	121.83	40.667	4.3524e-06	50.332	274.304	185.582	196.558	108.293	287.170	237.471	108.206	113.312	249.886	243.085	112.580	117.275	118.353	122.130	218.759	121.450	-8191	255	
50792.766	1	1	0	0	0.14584	0.19956	0.26317	0.30559	0.087383	0.07839	0.30515	0.327	0.19393	0.085452	0.10385	0.21497	0.19956	0.11746	0.20299	0.14172	-3.8646	-5.0729	-4.4125	-4.7125	-5.1542	-4.0437	-4.9896	-5.0396	-4.0396	-5.1292	-4.7	-4.4729	-5.0813	-4.3063	-4.5042	-5.0583	256.096	193.451	99.945	431.589	453.167	441.491	397.088	377.961	276.374	100.363	377.985	443.361	425.335	392.253	216.011	437.074	0.00070726	0.00048563	0.00013255	1505.4	8.5577e-06	6.0943e-06	1493.8	380.49	6.6486e-06	4.9253e-06	430.98	139.72	119.55	39.472	4.8021e-06	49.052	0.00047969	0.00040827	0.00011096	1533.5	4.515e-06	4.4397e-06	1517.5	389.26	4.576e-06	4.2759e-06	441.23	142.33	122.03	40.678	4.4127e-06	50.378	273.257	167.646	178.030	108.419	245.924	225.590	108.371	113.242	271.372	270.763	112.492	117.412	118.104	122.097	246.985	121.144	-8191	255	
50792.883	1	1	0	0	0.080544	0.15205	0.060715	0.19505	0.16625	0.11807	0.14584	0.13326	0.15603	0.21242	0.030957	0.24624	0.03077	0.14344	0.1509	0.20258	-3.7125	-4.975	-4.4	-4.4396	-4.9583	-4.2438	-4.7125	-5.0229	-4.1271	-4.8688	-4.6646	-4.1917	-5.1104	-4.3438	-4.2542	-5.1542	113.799	117.248	343.516	397.743	371.614	231.852	371.753	382.797	336.458	126.073	113.516	401.304	107.945	393.807	152.478	397.242	0.00070586	0.00059091	0.00011695	1574.6	7.978e-06	5.3249e-06	1565.5	399.44	1.0239e-05	4.0029e-06	452.32	146.35	124.99	41.303	4.5547e-06	51.25	0.00046956	0.00039263	0.00011281	1550.1	4.5455e-06	4.5056e-06	1534.4	393.77	4.6167e-06	4.3273e-06	445.73	144.03	123	41.013	4.3875e-06	50.858	273.038	180.846	163.032	104.106	276.797	259.339	103.919	109.025	267.082	255.571	108.237	112.886	113.905	117.842	264.321	117.079	-8191	255	
50792.980	1	1	0	0	0.28614	0.031915	0.20453	0.16019	0.086847	0.10392	0.3267	0.10101	0.017298	0.063248	0.11372	0.15753	0.32858	0.13059	0.11657	0.13744	-3.7458	-4.775	-4.6875	-4.4104	-5.0833	-4.2958	-4.6562	-5.1687	-4.1792	-4.8438	-5.0563	-4.2729	-5.2	-4.4812	-4.4187	-5.1208	197.598	185.014	382.466	340.024	256.260	173.757	410.564	110.346	360.162	203.142	270.869	399.243	428.203	375.435	163.617	331.378	0.00073047	0.00042107	0.00012727	1509.4	8.3863e-06	3.6717e-06	1503.2	383.89	1.0014e-05	4.3871e-06	435.01	140.94	119.7	39.593	6.9243e-06	48.938	0.00047346	0.00039622	0.00011004	1533	4.2762e-06	4.4091e-06	1520.2	389.98	4.5258e-06	4.2056e-06	441.43	142.73	121.79	40.764	4.3389e-06	50.324	273.363	169.480	203.222	107.875	266.729	245.930	107.776	112.600	263.003	222.804	112.105	117.017	117.195	121.284	233.037	121.341	-8191	255	
50793.074	1	1	0	0	0.040294	0.094167	0.12562	0.33737	0.18922	0.12934	0.33146	0.11921	0.16832	0.17649	0.15269	0.17044	0.18459	0.10646	0.13837	0.15525	-3.9521	-4.8625	-4.8417	-4.2792	-4.9563	-4.35	-4.4833	-5.4583	-4.1521	-4.6521	-5.0708	-4.1271	-5.1458	-4.5646	-4.2896	-5.1021	126.866	185.272	159.962	416.750	159.153	350.793	402.192	418.619	124.209	236.815	412.895	196.749	441.305	430.013	109.893	387.923	0.00070051	0.00030304	7.0954e-05	1497.7	8.9727e-06	5.1747e-06	1493.4	381.48	6.6664e-06	5.9634e-06	432.49	139.27	119.1	39.515	4.1136e-06	48.962	0.00047217	0.00039486	0.00010638	1532.1	4.3202e-06	4.26e-06	1517	389.39	4.4895e-06	4.4446e-06	441.27	142.31	121.74	40.673	4.3789e-06	50.299	275.206	194.685	217.803	107.987	269.966	240.754	108.112	113.116	279.518	228.442	112.675	117.353	118.045	122.180	243.555	121.423	-8191	255	
50793.172	1	1	0	0	0.12082	0.10058	0.080504	0.37834	0.21666	0.014567	0.09461	0.13922	0.11968	0.17883	0.14366	0.2793	0.20053	0.082545	0.10498	0.11657	-3.975	-4.5917	-5.0646	-4.3688	-4.8521	-4.6771	-4.4417	-5.3417	-4.3396	-4.6792	-5.1562	-4.2854	-4.9521	-4.8417	-4.1958	-5.25	342.262	132.906	359.865	444.500	361.934	353.409	253.577	354.763	378.198	344.982	312.849	433.411	447.850	304.381	425.660	347.784	0.0007261	0.00057931	0.00013513	1502.4	7.0988e-06	4.1057e-06	1492.6	380.95	7.679e-06	5.2809e-06	431.48	139.3	119.74	39.495	6.6857e-06	48.924	0.00047123	0.00039226	0.00010831	1531	4.3648e-06	4.3261e-06	1518	389.65	4.6468e-06	4.2416e-06	441.88	142.48	121.79	40.746	4.4299e-06	50.289	274.169	164.377	180.837	108.222	257.592	226.906	108.325	112.957	260.894	255.191	112.333	117.278	117.817	122.190	266.500	121.254	-8191	255	
50793.293	1	1	0	0	0.25476	0.050107	0.020648	0.26995	0.31668	0.018548	0.22328	0.17822	0.1757	0.17764	0.37658	0.15068	0.054719	0.20651	0.23766	0.26661	-4.0771	-4.4167	-5.0521	-4.3479	-4.7833	-4.7333	-4.1937	-5.2583	-4.3604	-4.3521	-5.2312	-4.2042	-4.8	-4.9792	-4.1687	-5.05	165.447	368.096	161.381	425.872	387.810	449.203	384.527	424.276	224.203	296.770	148.002	423.898	390.670	97.587	386.665	412.236	0.0006233	0.00027368	0.00013968	1502.6	5.733e-06	5.7884e-06	1498.5	382.1	7.6417e-06	3.2452e-06	432.52	139.38	120	39.296	6.707e-06	48.997	0.00046638	0.00040283	0.00011051	1532.3	4.5313e-06	4.4096e-06	1518.9	389.7	4.5122e-06	4.4355e-06	441.5	142.22	121.88	40.596	4.4294e-06	50.386	274.672	156.539	175.685	108.440	268.716	252.041	108.332	113.188	270.643	210.880	112.350	117.224	117.915	122.129	239.404	121.278	-8191	255	
50793.391	1	1	0	0	0.20543	0.15789	0.22899	0.14788	0.25206	0.26961	0.20104	0.19839	0.095425	0.030571	0.055765	0.097809	0.22518	0.1556	0.046662	0.098644	-4.1667	-4.2708	-5.1125	-4.4354	-4.5125	-5.0542	-4.3208	-5.0854	-4.6083	-4.3354	-5.1917	-4.3917	-4.7167	-5.0229	-4.0646	-5.0813	304.820	309.045	254.947	98.562	397.806	385.609	399.194	380.277	117.477	342.683	338.157	408.432	117.704	109.832	399.617	341.284	0.00069375	0.00041634	9.8165e-05	1503.6	4.9077e-06	5.213e-06	1490	379.96	6.5525e-06	4.4469e-06	432.76	140.32	118.61	39.228	5.5659e-06	48.862	0.00045756	0.00039912	0.00010566	1534.8	4.4626e-06	4.3133e-06	1515.2	388.87	4.4926e-06	4.3412e-06	441.36	142.48	121.53	40.558	4.426e-06	50.281	276.654	189.711	199.132	108.372	288.628	227.261	108.258	113.136	279.257	254.943	112.802	117.345	118.145	122.283	251.110	121.239	-8191	255	
50793.461	1	1	0	0	0.14698	0.13923	0.34972	0.28755	0.27884	0.20313	0.33603	0.2062	0.29257	0.085829	0.14114	0.15374	0.17752	0.10286	0.10595	0.1247	-4.3313	-4.2833	-5.0646	-4.6188	-4.5125	-5.1333	-4.2417	-4.9979	-4.6604	-4.2375	-5.2521	-4.5062	-4.5396	-5.0542	-4.0833	-4.9563	227.239	346.529	356.410	420.331	316.755	119.375	388.823	386.916	403.263	443.906	235.858	368.903	406.739	173.158	333.787	208.725	0.00067776	0.00038569	6.8407e-05	1497.3	8.7689e-06	5.9802e-06	1493	381.66	8.2896e-06	5.5884e-06	432.18	139.69	119.09	39.344	6.3362e-06	48.845	0.00046918	0.00040659	0.00010607	1531.6	4.5659e-06	4.3139e-06	1516	389.81	4.5208e-06	4.3981e-06	441.05	142.35	121.63	40.56	4.5135e-06	50.345	276.605	185.038	208.160	108.405	253.980	250.208	108.319	113.139	262.419	245.341	112.433	117.725	118.000	122.215	262.203	121.034	-8191	255	
50793.559	1	1	0	0	0.12511	0.19696	0.14105	0.31531	0.26539	0.044452	0.1341	0.28451	0.094737	0.21882	0.11042	0.20984	0.11468	0.13679	0.12601	0.31174	-4.4604	-4.1083	-5.0604	-4.6396	-4.2875	-5.0708	-4.4833	-4.8979	-4.9708	-4.1417	-5.1417	-4.6375	-4.3854	-5.175	-4.1125	-4.7937	208.182	136.202	383.202	382.437	266.053	148.436	447.451	438.621	126.562	445.146	402.540	386.653	108.915	426.402	254.799	387.114	0.00071267	0.00050776	9.3761e-05	1499.7	9.1267e-06	5.0828e-06	1493.3	381.47	9.093e-06	2.7597e-06	432.42	139.88	119.15	39.208	5.5445e-06	49.138	0.00046761	0.00041877	0.00010857	1531.5	4.5325e-06	4.2255e-06	1516.4	389.31	4.3974e-06	4.5094e-06	440.97	142.66	121.63	40.606	4.4493e-06	50.232	276.833	178.818	166.698	108.361	248.962	260.464	108.198	113.112	275.835	281.658	112.553	117.414	117.967	122.248	266.353	121.313	-8191	255	
50793.680	1	1	0	0	0.15914	0.1537	0.097274	0.10081	0.056686	0.082909	0.33427	0.19985	0.10988	0.14545	0.13459	0.14602	0.030339	0.14633	0.11148	0.19392	-4.6562	-4.2104	-5.0208	-4.9313	-4.375	-5.1312	-4.45	-4.6646	-5.0521	-4.2708	-4.9375	-4.7479	-4.2688	-5.1958	-4.3354	-4.6458	447.396	113.174	367.931	159.939	220.851	182.227	454.520	382.041	163.681	225.035	430.794	385.718	417.568	410.202	96.903	430.560	0.00072109	0.00022842	0.0001294	1508.1	5.9389e-06	3.2593e-06	1491.7	381.4	9.0672e-06	4.2247e-06	432.54	139.29	118.87	39.337	5.1048e-06	49.027	0.0004682	0.00039251	0.00010428	1533.8	4.6768e-06	4.2186e-06	1514.7	388.53	4.3064e-06	4.4787e-06	441	142.26	121.41	40.616	4.4324e-06	50.231	275.008	177.155	177.148	108.349	274.091	235.748	108.266	113.165	265.207	235.416	112.449	117.462	117.725	122.112	246.426	121.141	-8191	255	
50793.773	1	1	0	0	0.086367	0.069977	0.19462	0.18123	0.038609	0.16304	0.29073	0.16052	0.20973	0.097236	0.20515	0.20241	0.046393	0.16917	0.11934	0.26287	-4.75	-4.1937	-4.8562	-5.0667	-4.0646	-5.0563	-4.6354	-4.3979	-5.1458	-4.1208	-4.7792	-4.9583	-4.2125	-5.1188	-4.4917	-4.3562	287.628	351.190	253.548	119.514	353.288	155.958	375.331	346.334	437.947	401.588	421.154	325.118	445.819	392.572	329.998	326.262	0.00070828	0.00040735	9.9955e-05	1500.4	6.1613e-06	5.3508e-06	1495.6	381.38	5.5956e-06	6.5588e-06	432.58	139.36	119.42	39.441	5.3066e-06	48.957	0.00045772	0.00039482	0.00010609	1531.4	4.325e-06	4.1987e-06	1517	388.84	4.3078e-06	4.3448e-06	440.97	142.18	121.43	40.642	4.4169e-06	50.299	274.697	211.485	187.171	108.503	257.729	242.846	108.085	113.097	253.333	248.792	112.577	117.419	117.871	122.201	244.791	121.177	-8191	255	
50793.867	1	1	0	0	0.20916	0.10313	0.11821	0.21585	0.10104	0.13333	0.13718	0.16249	0.092568	0.12762	0.25225	0.28013	0.21101	0.083989	0.086053	0.11516	-4.7646	-4.3542	-4.5833	-5.0458	-4.1354	-4.9812	-4.7396	-4.3479	-5.1167	-4.1937	-4.7146	-4.9979	-4.2188	-5.0687	-4.5729	-4.3479	264.908	148.315	344.320	96.677	117.882	281.827	321.229	439.232	336.478	354.100	360.320	398.847	454.492	350.097	161.423	427.532	0.00065931	0.00047524	0.00010131	1501.3	6.8791e-06	5.4098e-06	1497.2	379.8	8.2454e-06	2.8042e-06	431.83	140.04	119.66	39.316	7.6402e-06	48.933	0.00045078	0.00039666	0.00011087	1530.2	4.568e-06	4.283e-06	1515.3	388.59	4.2777e-06	4.247e-06	440.75	142.3	121.83	40.58	4.4436e-06	50.302	275.750	181.501	153.039	108.527	265.686	270.389	108.275	113.152	286.787	243.365	112.452	117.397	117.783	122.140	258.866	121.366	-8191	255	
50793.965	1	1	0	0	0.062364	0.1771	0.21778	0.070839	0.20407	0.13859	0.12811	0.13152	0.098693	0.11593	0.38187	0.073368	0.16447	0.15795	0.18419	0.16607	-4.75	-4.2604	-4.4437	-5.2667	-4.1042	-4.7854	-4.8958	-4.2812	-5.0729	-4.2562	-4.5146	-5.2646	-4.1542	-4.8521	-4.8646	-4.2771	125.553	254.328	259.724	433.079	318.718	349.101	439.205	310.374	108.000	343.309	365.089	261.614	184.092	96.674	335.053	384.744	0.00069652	0.00039339	0.00011522	1504.4	7.8284e-06	4.5434e-06	1495.7	380.41	5.8525e-06	4.8805e-06	433.57	139.94	118.64	39.305	6.9874e-06	48.774	0.00045428	0.00040829	0.00010959	1533.6	4.5916e-06	4.3813e-06	1517.6	389.08	4.4352e-06	4.3793e-06	441.28	142.5	121.52	40.596	4.3875e-06	50.313	275.438	178.012	190.639	108.416	265.284	252.237	108.337	113.075	278.980	247.232	112.692	117.254	117.825	122.123	261.036	121.000	-8191	255	
50794.062	1	1	0	0	0.15024	0.075496	0.10196	0.082931	0.16198	0.040826	0.3628	0.12029	0.17285	0.19776	0.089822	0.1149	0.14603	0.17841	0.075399	0.2952	-4.6625	-4.5292	-4.2333	-5.2125	-3.9813	-4.5938	-5.0167	-4.4146	-5.0833	-4.5604	-4.5271	-5.2458	-4.1813	-4.6875	-4.9646	-4.0854	142.193	268.435	193.406	422.115	149.218	248.571	388.006	424.621	334.796	324.281	438.815	195.225	422.863	116.210	429.344	322.245	0.00068592	0.00030085	8.3546e-05	1503	8.0794e-06	7.4077e-06	1492.1	381	8.9342e-06	4.7204e-06	431.42	140.33	119.26	39.316	5.335e-06	49.106	0.00046409	0.00039724	0.00010879	1532.7	4.5563e-06	4.2171e-06	1516.5	388.98	4.3747e-06	4.2155e-06	440.58	142.64	121.57	40.637	4.272e-06	50.283	274.438	167.039	166.741	108.259	264.515	256.498	108.231	113.254	270.031	243.546	112.663	117.366	117.901	121.815	263.803	121.204	-8191	255	
50794.156	1	1	0	0	0.20705	0.10371	0.17716	0.21341	0.17969	0.11426	0.21459	0.12042	0.14097	0.15393	0.082934	0.22915	0.12739	0.070452	0.095622	0.11807	-4.5813	-4.4812	-4.2646	-5.4104	-4.275	-4.4437	-5.325	-4.2708	-4.8729	-4.6917	-4.3646	-5.0604	-4.2021	-4.35	-4.8187	-4.0938	212.121	186.933	384.872	385.908	130.786	202.513	420.731	398.182	326.889	193.023	123.031	179.388	167.793	294.746	327.785	285.969	0.00072132	0.00020179	0.00010924	1507.1	6.217e-06	7.4734e-06	1492.5	381.65	7.7994e-06	2.9907e-06	430.79	139.23	118.89	39.031	7.5476e-06	49.109	0.00046065	0.00037489	0.00010954	1532.1	4.4403e-06	4.2503e-06	1515.4	389.15	4.1668e-06	4.1756e-06	439.99	141.98	121.57	40.526	4.2359e-06	50.377	277.834	187.458	193.060	108.422	251.709	227.192	108.486	113.029	269.550	222.709	112.485	117.304	117.981	122.131	243.052	121.127	-8191	255	
50794.254	1	1	0	0	0.11789	0.053497	0.063412	0.31375	0.12608	0.1251	0.19548	0.17526	0.15914	0.087895	0.3628	0.22879	0.11594	0.41855	0.049441	0.05733	-4.5625	-4.7667	-4.1188	-5.3604	-4.2917	-4.4313	-5.0958	-4.4	-4.6708	-4.7937	-4.1521	-5.0854	-4.4667	-4.4062	-5.1	-4.1958	331.542	96.241	219.205	395.047	286.384	446.981	380.274	381.865	291.162	304.464	393.176	385.575	133.662	388.392	376.769	453.702	0.00072622	0.00042229	0.00016598	1499.9	7.9622e-06	6.2323e-06	1498.5	381.37	6.294e-06	5.173e-06	431.37	139.75	119.51	39.43	5.8389e-06	48.612	0.00046233	0.00038795	0.0001113	1529	4.4177e-06	4.2924e-06	1517.7	388.91	4.3016e-06	4.3196e-06	440.38	142.36	121.72	40.601	4.0881e-06	50.116	275.896	174.270	196.420	108.292	271.915	247.928	108.549	113.050	266.124	232.250	112.464	117.331	117.953	122.068	266.362	121.025	-8191	255	
50794.375	1	1	0	0	0.10513	0.010755	0.23057	0.2955	0.21038	0.28639	0.18706	0.369	0.21873	0.13917	0.19256	0.23129	0.068279	0.13538	0.046455	0.087663	-4.4021	-4.8146	-3.9667	-5.1062	-4.6021	-4.2812	-5.2771	-4.5125	-4.5896	-4.8688	-4.225	-5.0583	-4.8313	-4.1792	-5.0542	-4.4729	233.590	305.945	245.207	406.183	202.684	343.498	367.598	410.225	266.332	246.427	374.946	374.021	344.322	161.983	191.795	341.589	0.00066538	0.00041428	8.0049e-05	1502.4	7.7312e-06	6.543e-06	1495.1	380.29	6.8736e-06	5.4751e-06	427.88	139.23	119.41	39.405	5.2111e-06	48.881	0.0004476	0.00039717	0.00011169	1532.2	4.5745e-06	4.3751e-06	1515.4	388.47	4.3088e-06	4.3699e-06	439.59	142.11	121.46	40.528	4.1616e-06	50.261	274.260	174.018	162.441	108.128	283.875	263.329	108.349	113.387	271.087	245.912	112.455	117.097	117.992	122.147	244.241	121.068	-8191	255	
50794.469	1	1	0	0	0.24141	0.28283	0.048833	0.089273	0.27615	0.081793	0.31929	0.21076	0.043146	0.10128	0.13531	0.27282	0.19025	0.22673	0.12995	0.14125	-4.2937	-4.8771	-3.9938	-4.9187	-4.7542	-4.1583	-5.3667	-4.3729	-4.325	-5.1396	-4.3396	-4.8958	-4.7312	-4.2188	-5.0479	-4.5833	132.029	317.153	336.668	134.177	249.526	182.519	387.559	117.611	313.073	122.748	118.311	391.895	102.028	403.678	103.019	369.921	0.00068751	0.00043926	0.00011729	1500.5	1.046e-05	6.3354e-06	1492.7	380.78	8.2387e-06	4.9151e-06	432.14	139.95	119.43	39.221	5.5735e-06	48.732	0.00045584	0.00038977	0.00011287	1530.7	4.5582e-06	4.199e-06	1514.4	388.48	4.4594e-06	4.1997e-06	440.47	142.29	121.65	40.521	4.1033e-06	50.239	276.323	185.234	173.884	108.383	271.456	254.941	108.371	113.309	280.432	225.915	112.600	117.213	117.805	122.044	259.283	121.115	-8191	255	
50794.566	1	1	0	0	0.3021	0.13388	0.078136	0.19618	0.12103	0.21041	0.21995	0.15559	0.20097	0.10011	0.31836	0.072045	0.11551	0.4031	0.23431	0.080784	-4.1813	-5.0833	-3.9167	-4.9	-4.8792	-4.1292	-5.3063	-4.7604	-4.1667	-5.3438	-4.1813	-4.7771	-5.0354	-4.1583	-4.9062	-4.6417	188.310	188.977	431.568	452.702	439.717	445.861	313.929	383.266	277.465	424.750	412.457	281.473	265.840	99.356	231.725	454.742	0.00069351	0.00050681	8.1731e-05	1502.2	6.9896e-06	5.2969e-06	1489.8	380.78	6.3773e-06	5.3011e-06	429.43	139.74	119.26	39.178	4.4207e-06	48.615	0.00046476	0.00038337	0.00011173	1531.9	4.5053e-06	4.3713e-06	1514.8	388.83	4.4338e-06	4.0114e-06	440.85	142.41	121.67	40.595	4.3549e-06	50.143	272.424	175.427	205.610	108.308	275.797	251.298	108.331	113.123	287.028	229.476	112.279	117.493	118.037	121.958	273.650	121.391	-8191	255	
50794.660	1	1	0	0	0.16265	0.12545	0.12123	0.39705	0.21849	0.091293	0.19265	0.080815	0.065348	0.12304	0.28213	0.10313	0.14077	0.067401	0.10555	0.074126	-4.0896	-4.9479	-4.1417	-4.7	-5.0083	-4.0875	-5.1521	-4.7833	-4.0479	-5.2292	-4.3792	-4.6375	-5.0271	-4.0354	-4.9563	-4.9938	341.386	442.562	209.459	420.801	206.009	354.836	329.630	446.476	306.821	400.495	392.133	410.951	101.189	102.092	202.337	165.056	0.00069662	0.0004469	0.000108	1505.7	7.8072e-06	8.5892e-06	1497.1	380.92	8.0025e-06	5.4252e-06	432.79	140.29	119.24	39.503	6.3525e-06	48.774	0.0004634	0.00038362	0.00010755	1531.3	4.4984e-06	4.4785e-06	1518.4	389.13	4.5229e-06	4.1387e-06	440.78	142.56	121.56	40.612	4.3196e-06	50.188	272.790	189.541	181.780	108.403	289.550	261.103	108.079	113.160	273.190	237.935	112.588	117.150	117.603	122.303	244.363	121.083	-8191	255	
50794.758	1	1	0	0	0.27052	0.10337	0.13141	0.37897	0.11132	0.2141	0.11917	0.34082	0.21441	0.10825	0.2499	0.19102	0.026745	0.13288	0.11559	0.22983	-3.9729	-5.1854	-4.4187	-4.6625	-5.0479	-4.0333	-5.1521	-4.9729	-4.1208	-5.0771	-4.7625	-4.5563	-5.1438	-4.2104	-4.6729	-4.9708	391.001	262.730	450.266	438.295	419.820	293.950	393.647	423.723	361.784	205.812	122.470	146.529	237.724	110.651	96.329	435.276	0.00070024	0.00055445	0.00017957	1503.5	6.8894e-06	5.7328e-06	1491.8	380.96	6.5879e-06	5.5541e-06	432.63	139.73	118.45	39.302	5.3901e-06	48.618	0.00046483	0.00039516	0.00011377	1530.7	4.3663e-06	4.4663e-06	1515.3	389.24	4.4094e-06	4.2762e-06	440.6	142.33	121.4	40.557	4.311e-06	50.197	274.503	175.412	174.167	108.168	263.194	265.098	108.427	113.268	281.015	235.812	112.838	117.296	117.959	122.411	245.090	121.297	-8191	255	
50794.852	1	1	0	0	0.16498	0.15808	0.26397	0.17998	0.021386	0.1312	0.031727	0.16155	0.14274	0.1238	0.33277	0.052341	0.097004	0.16866	0.18029	0.20769	-3.8792	-5.0938	-4.5979	-4.5771	-5.1854	-4.0958	-4.7688	-5.0625	-4.1583	-4.9812	-4.8542	-4.3646	-5.3021	-4.2979	-4.4208	-4.9917	397.506	230.628	180.642	455.170	210.514	263.376	314.425	396.508	419.723	436.212	411.162	175.432	186.988	409.608	434.506	316.429	0.00070649	0.0004527	0.00016249	1501.1	8.1294e-06	5.5926e-06	1489.9	379.12	7.817e-06	5.4092e-06	432.4	139.46	118.95	39.271	6.4895e-06	48.839	0.00045975	0.0003856	0.00011556	1531.5	4.4998e-06	4.3396e-06	1513	388.4	4.4123e-06	4.2853e-06	440.32	142.16	121.3	40.536	4.3426e-06	50.071	277.057	181.253	174.059	108.084	261.847	250.852	108.461	113.281	273.085	243.588	112.473	117.474	117.725	122.124	263.034	121.322	-8191	255	
50794.949	1	1	0	0	0.13144	0.17605	0.19545	0.10058	0.072935	0.24933	0.25704	0.12856	0.34873	0.11212	0.15733	0.088685	0.15011	0.068815	0.22374	0.026697	-3.85	-4.8833	-4.5229	-4.4354	-5.1979	-4.5	-4.575	-5.2125	-3.9958	-4.9688	-4.9229	-4.1458	-5.2229	-4.4062	-4.3083	-5.0792	360.015	354.392	432.430	408.163	207.741	193.032	358.441	281.344	150.043	151.198	387.409	97.795	360.273	279.484	187.946	314.328	0.00068687	0.00031702	0.00010631	1497.8	8.1297e-06	5.3745e-06	1488.9	380.72	6.3495e-06	6.3644e-06	431	139.3	118.61	39.308	5.5938e-06	48.705	0.00047032	0.00038015	0.00010982	1529.1	4.3992e-06	4.4504e-06	1512.1	388.93	4.4687e-06	4.2305e-06	439.99	142.22	121.41	40.579	4.2585e-06	50.261	274.288	179.820	179.306	108.342	250.935	241.580	108.209	113.192	268.368	258.858	112.582	117.371	117.914	121.978	257.741	121.366	-8191	255	
50795.070	1	1	0	0	0.29637	0.10798	0.060769	0.0727	0.14019	0.16549	0.38043	0.09932	0.335	0.09388	0.38889	0.078395	0.22196	0.12327	0.11739	0.20149	-3.8708	-4.7208	-4.9292	-4.3	-5	-4.5396	-4.5	-5.3167	-4.1354	-4.6396	-4.9104	-4.2979	-5.1	-4.6937	-4.3417	-5.1167	395.221	301.597	432.013	373.507	196.410	176.362	396.736	349.695	435.464	123.067	432.077	205.208	101.919	369.225	417.188	374.234	0.00071655	0.00050151	8.1359e-05	1499.9	6.7296e-06	3.9697e-06	1485.2	380.37	5.2709e-06	3.1527e-06	427.16	139.04	118.36	39.111	6.7706e-06	48.807	0.00047315	0.00038963	0.00011034	1526.2	4.3238e-06	4.5143e-06	1510.8	387.61	4.4711e-06	4.4373e-06	439.55	141.76	120.98	40.487	4.3335e-06	50.13	273.484	186.460	196.374	108.224	264.112	261.541	108.083	113.356	255.757	210.669	112.353	117.305	117.735	121.902	244.134	121.072	-8191	255	
50795.164	1	1	0	0	0.10763	0.075134	0.12563	0.14949	0.069378	0.19271	0.33292	0.2436	0.024314	0.016503	0.075791	0.23931	0.13723	0.12633	0.18204	0.021766	-3.9083	-4.7167	-4.8917	-4.3896	-4.9396	-4.5896	-4.3688	-5.3167	-4.2271	-4.6562	-5.0917	-4.1292	-5.0188	-4.7625	-4.0458	-5.1292	168.517	372.600	426.280	447.993	200.927	268.218	314.327	395.543	270.306	205.233	352.760	409.796	137.593	123.860	167.043	206.550	0.0007488	0.0003284	0.00015308	1492.4	7.3945e-06	5.376e-06	1476.9	379.01	4.5454e-06	3.5951e-06	430.8	138.95	118.19	39.006	7.8496e-06	48.501	0.00047023	0.00040025	0.00010701	1520.1	4.3781e-06	4.4824e-06	1502.4	387.15	4.505e-06	4.2576e-06	438.28	141.51	120.59	40.423	4.3993e-06	50	277.581	178.666	204.173	108.361	261.421	231.272	108.180	113.010	258.411	255.960	113.010	117.665	117.845	122.420	253.094	121.354	-8191	255	
50795.262	1	1	0	0	0.15544	0.11719	0.2331	0.13757	0.2612	0.17127	0.3401	0.098477	0.097014	0.14415	0.0793	0.078953	0.16478	0.18746	0.05099	0.17937	-3.9083	-4.3958	-5.1021	-4.3958	-4.8313	-4.8104	-4.375	-5.2125	-4.2479	-4.4271	-5.1458	-4.225	-4.8083	-4.9125	-3.8646	-5.1167	427.366	273.622	210.956	351.306	158.177	438.655	380.475	299.050	332.483	110.624	120.588	452.626	295.134	377.299	433.994	379.494	0.00065973	0.00055025	6.958e-05	1489.5	7.2203e-06	6.0822e-06	1475.5	378.58	5.8778e-06	4.0322e-06	429.02	139.11	118.1	39.195	6.6789e-06	48.409	0.00046229	0.00040304	0.00010498	1515.8	4.2044e-06	4.31e-06	1500.3	385.97	4.1579e-06	4.2493e-06	437.61	141.68	120.7	40.315	4.349e-06	49.979	277.003	178.922	153.001	108.454	269.147	245.760	108.316	113.052	275.099	235.693	112.715	117.369	118.120	122.469	239.693	121.145	-8191	255	
50795.332	1	1	0	0	0.25489	0.12255	0.16839	0.37352	0.015437	0.24385	0.27789	0.14783	0.063785	0.039651	0.2883	0.25677	0.1231	0.27289	0.08423	0.1058	-4.0813	-4.2063	-5.1521	-4.4146	-4.6062	-4.9563	-4.3521	-5.2083	-4.5312	-4.4187	-5.15	-4.3854	-4.7292	-5.0146	-3.9938	-4.9833	303.575	439.654	201.047	429.904	451.199	347.043	371.108	416.001	336.208	147.259	134.984	126.996	450.007	449.075	143.447	120.491	0.0007051	0.00043949	0.00010595	1487.2	7.1968e-06	5.8546e-06	1474.2	378.24	7.4779e-06	4.4605e-06	427.45	138.42	118.36	39.06	7.3374e-06	48.288	0.00045908	0.00039413	0.00010633	1513.4	4.4095e-06	4.1946e-06	1495.4	385.42	4.3138e-06	4.2828e-06	435.94	141.21	120.49	40.297	4.3333e-06	49.755	270.262	169.419	176.348	108.336	274.101	244.635	108.146	113.149	266.820	264.039	112.525	117.520	117.903	122.311	251.984	121.291	-8191	255	
50795.453	1	1	0	0	0.11422	0.21967	0.071887	0.27793	0.11871	0.08363	0.41332	0.196	0.035156	0.032633	0.22132	0.46159	0.18305	0.14253	0.065205	0.42113	-4.2729	-4.1979	-5.1292	-4.5792	-4.4021	-4.9833	-4.2417	-5.1021	-4.7583	-4.1417	-5.3875	-4.5604	-4.6125	-5.2021	-4.2229	-4.8562	212.474	162.826	220.636	422.591	368.527	390.898	410.692	113.419	260.140	339.595	372.850	421.397	114.673	176.980	452.687	385.128	0.00073128	0.00040333	0.00011766	1478.8	5.6241e-06	5.1242e-06	1465.5	376.24	8.4424e-06	6.0315e-06	424.92	137.85	116.93	38.918	5.3534e-06	48.23	0.00046312	0.00039528	0.00010297	1505.9	4.2556e-06	4.0657e-06	1485.8	384.07	4.3047e-06	4.174e-06	434.44	140.82	119.95	40.197	4.2445e-06	49.622	276.996	185.684	206.674	108.445	249.560	245.252	108.350	113.352	256.249	209.640	112.634	117.572	117.969	122.769	267.209	121.313	-8191	255	
50795.551	1	1	0	0	0.15822	0.088619	0.24769	0.024012	0.12821	0.17536	0.16146	0.2903	0.092533	0.16828	0.19623	0.23297	0.15963	0.10063	0.10054	0.25647	-4.65	-4.275	-5.1958	-4.6937	-4.3646	-5.0042	-4.4	-4.8708	-4.8792	-4.2917	-5.1125	-4.75	-4.4021	-5.1646	-4.1521	-4.7063	241.700	227.299	359.748	380.489	381.672	115.583	383.693	375.976	386.508	344.078	398.244	381.071	340.952	364.318	333.816	432.930	0.00071471	0.00050607	8.9148e-05	1465.1	8.3333e-06	3.9571e-06	1456.2	375.31	8.6331e-06	5.3306e-06	425.1	138.4	117.35	38.911	6.0241e-06	48.346	0.0004452	0.00039272	0.0001034	1497.6	4.3363e-06	4.0062e-06	1481.4	382.91	4.1766e-06	4.0328e-06	434.07	140.61	119.68	40.066	4.1896e-06	49.614	273.607	182.583	191.082	108.494	271.654	258.648	108.450	113.324	260.226	264.184	112.440	117.470	117.951	122.473	245.997	120.989	-8191	255	
50795.645	1	1	0	0	0.32375	0.036766	0.067543	0.31171	0.17189	0.23356	0.162	0.21169	0.081333	0.076015	0.16503	0.19082	0.18163	0.20899	0.082419	0.35044	-4.6042	-3.9833	-4.825	-4.85	-4.3333	-4.9875	-4.5729	-4.8146	-5.0687	-4.1125	-5.0958	-4.925	-4.375	-5.2021	-4.2521	-4.6562	187.212	339.278	207.629	411.170	258.432	114.940	412.102	406.905	295.663	209.323	164.214	345.464	137.357	345.263	298.501	333.132	0.00068497	0.00052554	0.00011175	1463.7	6.7204e-06	4.4242e-06	1455.1	374.64	9.0636e-06	4.9343e-06	426.15	137.38	117.06	38.703	6.8657e-06	48.009	0.00044142	0.00037105	0.00010171	1496.6	4.305e-06	4.0039e-06	1479.8	382.17	4.222e-06	4.3372e-06	433.6	140.38	119.54	40.068	4.2261e-06	49.497	272.502	208.525	228.059	108.510	268.692	293.253	108.306	113.179	276.509	255.977	112.654	117.442	117.938	122.110	237.790	121.256	-8191	255	
50795.766	1	1	0	0	0.20346	0.21489	0.034296	0.27762	0.096268	0.16863	0.11149	0.26303	0.052928	0.11887	0.21053	0.11297	0.16784	0.11901	0.089394	0.12535	-4.8792	-4.0813	-4.9042	-5.0188	-4.1854	-5.1438	-4.6771	-4.7021	-5.1167	-4.1854	-4.9333	-4.9729	-4.2708	-5.075	-4.55	-4.4625	363.170	204.136	155.552	103.418	210.321	278.955	359.980	345.952	344.811	428.505	442.855	434.117	184.923	429.304	192.707	379.066	0.00067142	0.0004982	0.00012212	1469.6	8.0828e-06	3.7298e-06	1453.9	374.06	7.1191e-06	5.2265e-06	424.74	138.2	118.23	38.827	5.6752e-06	48.045	0.00044118	0.0003842	0.00010015	1496.4	4.2877e-06	3.9158e-06	1479.3	382.42	3.9612e-06	4.1113e-06	433.62	140.77	119.67	40.044	4.1555e-06	49.538	277.513	174.018	202.229	108.518	270.845	249.973	108.529	113.382	257.299	254.733	112.556	117.316	117.862	121.884	257.905	121.280	-8191	255	
50795.859	1	1	0	0	0.085959	0.081257	0.16971	0.21585	0.10948	0.11365	0.29719	0.22056	0.032948	0.017705	0.14748	0.13836	0.28343	0.087777	0.11185	0.11596	-4.7833	-4.1104	-4.7042	-5.1396	-4.1	-5.0979	-4.7458	-4.4792	-5.1354	-4.1188	-4.6708	-5.1188	-4.3458	-5.1917	-4.6167	-4.2854	384.231	370.254	329.385	104.508	408.779	252.912	440.578	113.926	205.421	132.371	391.043	234.304	430.173	357.736	276.354	247.259	0.00067723	0.00048794	0.00010574	1468.1	5.2515e-06	5.026e-06	1457.4	375.17	7.7677e-06	2.1056e-06	425.86	137.92	116.79	38.831	6.2765e-06	48.267	0.00043255	0.00038993	0.00010362	1494.3	4.1456e-06	3.8173e-06	1478.8	382.98	4.0542e-06	4.048e-06	433.63	140.52	119.12	39.991	4.1852e-06	49.555	277.401	184.542	200.860	108.455	266.149	238.482	108.392	113.105	263.359	253.273	112.455	117.626	117.873	121.960	263.026	121.134	-8191	255	
50795.934	1	1	0	0	0.13817	0.17671	0.10451	0.30071	0.17587	0.10971	0.15269	0.20119	0.021977	0.048416	0.15465	0.25422	0.11802	0.30208	0.11359	0.17056	-4.8833	-4.2708	-4.5708	-5.3375	-4.25	-5.075	-5.0062	-4.3292	-5.2083	-4.4271	-4.5125	-5.2646	-4.3187	-4.9688	-4.8167	-4.1708	127.474	131.383	119.897	391.320	154.466	249.788	399.987	396.309	114.107	392.553	397.322	383.650	413.078	454.007	233.204	368.032	0.00067362	0.00049934	0.00013145	1468.5	1.1019e-05	4.4132e-06	1455.5	373.35	8.0662e-06	4.7328e-06	425.07	138.69	117.53	38.783	3.4144e-06	48.35	0.00043251	0.00038236	0.00010472	1497.2	4.349e-06	3.9023e-06	1480.4	381.95	4.1957e-06	4.2073e-06	433.5	140.89	119.61	40.05	4.1268e-06	49.566	276.235	178.555	184.639	108.620	269.055	261.039	108.369	113.108	268.853	246.468	112.485	117.651	118.116	122.282	287.502	121.216	-8191	255	
50796.055	1	1	0	0	0.24166	0.0075892	0.066425	0.24047	0.18131	0.048555	0.49379	0.18487	0.20642	0.21815	0.24014	0.030533	0.016206	0.089862	0.064431	0.1347	-4.7354	-4.5417	-4.1854	-5.4854	-4.2583	-4.8333	-5.1188	-4.4062	-4.9542	-4.5979	-4.4042	-5.1729	-4.325	-4.8958	-4.9917	-4.1521	443.345	451.208	226.109	450.974	206.958	124.658	400.961	449.995	286.185	155.829	317.465	297.273	228.233	285.801	245.121	437.625	0.00067351	0.00038207	9.9021e-05	1468.7	4.7383e-06	5.2682e-06	1459	375.63	8.6614e-06	8.0292e-06	423.25	137.98	117.19	38.878	6.3922e-06	47.879	0.00043455	0.00038754	0.00010509	1498.5	4.3228e-06	4.0767e-06	1481.1	382.77	4.2131e-06	4.1824e-06	433.18	140.58	119.66	40.008	4.1432e-06	49.531	273.363	180.199	200.046	108.502	280.082	233.752	108.611	113.047	272.342	243.417	112.369	117.731	117.793	122.130	251.315	120.970	-8191	255	
50796.148	1	1	0	0	0.14672	0.070982	0.27883	0.11061	0.11154	0.038527	0.29349	0.14929	0.035526	0.18347	0.35561	0.090195	0.25575	0.12145	0.20123	0.10338	-4.6687	-4.6438	-4.0521	-5.2979	-4.2896	-4.6896	-5.2833	-4.2875	-4.8562	-4.7646	-4.2688	-5.3417	-4.4833	-4.4521	-4.8625	-4.1479	296.132	224.201	172.945	437.302	147.312	133.016	404.039	382.865	332.317	396.908	388.252	229.709	113.211	386.205	342.171	363.347	0.00070083	0.00055023	0.00014049	1468.2	6.8962e-06	5.5768e-06	1460.2	374.73	9.8401e-06	3.3773e-06	422.82	137.86	117.11	38.867	5.2821e-06	48.086	0.00044061	0.00037955	0.00010241	1497.9	4.3728e-06	3.9763e-06	1482	382.71	4.2449e-06	4.2731e-06	432.87	140.56	119.55	40.101	3.9519e-06	49.514	275.010	197.008	190.456	108.570	267.632	247.025	108.294	113.255	262.933	247.860	112.211	117.547	117.963	122.228	266.163	121.021	-8191	255	
50796.246	1	1	0	0	0.20094	0.11771	0.29682	0.2613	0.076649	0.12921	0.19641	0.16841	0.16543	0.23064	0.031722	0.16159	0.036126	0.20176	0.25851	0.15866	-4.5729	-4.7417	-4.0792	-5.3	-4.3583	-4.3292	-5.3729	-4.2479	-4.8146	-4.9833	-4.3313	-5.2729	-4.5437	-4.5729	-5.1271	-4.3438	242.481	420.784	190.233	422.733	327.538	259.518	368.427	404.176	266.147	455.107	223.478	98.110	379.039	438.995	440.865	360.896	0.00073581	0.00051043	0.00010168	1470.8	7.2306e-06	5.103e-06	1469.8	375.91	6.9736e-06	4.4725e-06	425.58	138.35	117.63	38.857	5.8693e-06	48.082	0.00044639	0.00037501	0.00010936	1501.6	4.4112e-06	4.1762e-06	1487.9	383.57	4.217e-06	4.1578e-06	434.63	140.76	119.96	40.107	4.0476e-06	49.595	275.159	189.380	198.094	108.410	242.246	259.428	108.404	113.125	253.919	228.857	112.494	117.379	117.816	122.483	275.956	120.977	-8191	255	
50796.367	1	1	0	0	0.072153	0.095937	0.085438	0.16053	0.065192	0.16481	0.10703	0.28554	0.26502	0.26641	0.17998	0.23115	0.26167	0.18278	0.163	0.067705	-4.4542	-4.8583	-4.1687	-5.2271	-4.5729	-4.3375	-5.3792	-4.5437	-4.7375	-4.9958	-4.1833	-5.0333	-4.6375	-4.2438	-5.175	-4.4125	418.801	316.868	186.854	387.076	428.371	202.132	414.789	407.387	318.877	204.550	393.763	407.396	135.143	332.712	219.046	437.152	0.00069516	0.00054073	0.00013851	1474.7	6.9329e-06	5.5392e-06	1467.4	375.98	8.2589e-06	6.3913e-06	427.26	137.39	118.12	38.756	3.9257e-06	47.84	0.00045915	0.00038567	0.00010479	1503.3	4.3696e-06	4.141e-06	1487.8	383.15	4.2208e-06	4.0681e-06	434.79	140.51	119.9	40.044	4.1194e-06	49.543	274.538	190.743	186.796	108.370	278.989	259.012	108.212	113.125	266.044	248.849	112.518	117.564	117.942	122.269	271.848	121.292	-8191	255	
#DATA ENDS
