BOXY.EXE: ISS Imagent and Oximeter Data Acquisition Program Version 0.80
Ascii Record File

#ACQ INFORMATION
2  Detector Channels 
16  External MUX Channels 
1  Auxiliary Channels 
5000  Waveform (CCF) Frequency (Hz)
1  Waveforms Skipped 
30  Waveforms Averaged 
1  Cycles Averaged 
16  Acquisitions per Waveform 
10.0806  Updata Rate (Hz) 

#FILE INFORMATION
TRUE -- External MUX Channel results are PARSED.
FALSE -- AC DC and Phase are NOT grouped.
TRUE -- Companion Program Settings File CREATED.
FALSE -- AC data not excluded
FALSE -- DC data not excluded
FALSE -- Phase data not excluded
FALSE -- Auxillary Chn. data not excluded
Tab delimiters

#CALIBRATION STATE
TRUE -- Waveform Calibration Values APPLIED.


#AUX CALIBRATION VALUES
Val Type	aux-1	

Term	1.0000e+00	
Factor	0.0000e+00	


#WF CALIBRATION VALUES
A = Detector Channel
Val Type	A-AC1	A-AC2	A-AC3	A-AC4	A-AC5	A-AC6	A-AC7	A-AC8	A-AC9	A-AC10	A-AC11	A-AC12	A-AC13	A-AC14	A-AC15	A-AC16	A-DC1	A-DC2	A-DC3	A-DC4	A-DC5	A-DC6	A-DC7	A-DC8	A-DC9	A-DC10	A-DC11	A-DC12	A-DC13	A-DC14	A-DC15	A-DC16	A-Ph1	A-Ph2	A-Ph3	A-Ph4	A-Ph5	A-Ph6	A-Ph7	A-Ph8	A-Ph9	A-Ph10	A-Ph11	A-Ph12	A-Ph13	A-Ph14	A-Ph15	A-Ph16	

Term	0.00000e+00	0.00000e+00	0.00000e+00	0.00000e+00	0.00000e+00	0.00000e+00	0.00000e+00	0.00000e+00	0.00000e+00	0.00000e+00	0.00000e+00	0.00000e+00	0.00000e+00	0.00000e+00	0.00000e+00	0.00000e+00	0.00000e+00	0.00000e+00	0.00000e+00	0.00000e+00	0.00000e+00	0.00000e+00	0.00000e+00	0.00000e+00	0.00000e+00	0.00000e+00	0.00000e+00	0.00000e+00	0.00000e+00	0.00000e+00	0.00000e+00	0.00000e+00	0.00000e+00	0.00000e+00	0.00000e+00	0.00000e+00	0.00000e+00	0.00000e+00	0.00000e+00	0.00000e+00	0.00000e+00	0.00000e+00	0.00000e+00	0.00000e+00	0.00000e+00	0.00000e+00	0.00000e+00	0.00000e+00	
Factor	1.00000e+00	1.00000e+00	1.00000e+00	1.00000e+00	1.00000e+00	1.00000e+00	1.00000e+00	1.00000e+00	1.00000e+00	1.00000e+00	1.00000e+00	1.00000e+00	1.00000e+00	1.00000e+00	1.00000e+00	1.00000e+00	1.00000e+00	1.00000e+00	1.00000e+00	1.00000e+00	1.00000e+00	1.00000e+00	1.00000e+00	1.00000e+00	1.00000e+00	1.00000e+00	1.00000e+00	1.00000e+00	1.00000e+00	1.00000e+00	1.00000e+00	1.00000e+00	X	X	X	X	X	X	X	X	X	X	X	X	X	X	X	X	

B = Detector Channel
Val Type	B-AC1	B-AC2	B-AC3	B-AC4	B-AC5	B-AC6	B-AC7	B-AC8	B-AC9	B-AC10	B-AC11	B-AC12	B-AC13	B-AC14	B-AC15	B-AC16	B-DC1	B-DC2	B-DC3	B-DC4	B-DC5	B-DC6	B-DC7	B-DC8	B-DC9	B-DC10	B-DC11	B-DC12	B-DC13	B-DC14	B-DC15	B-DC16	B-Ph1	B-Ph2	B-Ph3	B-Ph4	B-Ph5	B-Ph6	B-Ph7	B-Ph8	B-Ph9	B-Ph10	B-Ph11	B-Ph12	B-Ph13	B-Ph14	B-Ph15	B-Ph16	

Term	0.00000e+00	0.00000e+00	0.00000e+00	0.00000e+00	0.00000e+00	0.00000e+00	0.00000e+00	0.00000e+00	0.00000e+00	0.00000e+00	0.00000e+00	0.00000e+00	0.00000e+00	0.00000e+00	0.00000e+00	0.00000e+00	0.00000e+00	0.00000e+00	0.00000e+00	0.00000e+00	0.00000e+00	0.00000e+00	0.00000e+00	0.00000e+00	0.00000e+00	0.00000e+00	0.00000e+00	0.00000e+00	0.00000e+00	0.00000e+00	0.00000e+00	0.00000e+00	-1.19857e+02	-1.24507e+02	-1.35452e+02	-1.83472e+02	-6.00384e+01	-4.75453e+01	-1.57982e+02	-1.62015e+02	-6.06145e+01	-8.17819e+01	-1.70621e+02	-1.71027e+02	-1.79027e+02	-1.76789e+02	-5.07464e+01	-1.49691e+02	
Factor	1.74378e-05	1.02985e-04	3.40426e-05	1.56174e-01	9.33459e-07	1.34348e-06	1.70957e-01	5.49417e-02	8.43037e-07	1.23105e-06	9.08538e-02	2.97122e-02	2.77676e-02	9.37205e-03	9.74277e-07	1.31938e-02	1.29289e-06	1.35560e-06	3.76670e-07	7.60921e-02	1.47965e-08	1.48193e-08	7.83401e-02	2.67541e-02	1.47987e-08	1.48410e-08	4.23708e-02	1.39488e-02	1.35316e-02	4.53434e-03	1.47790e-08	6.16309e-03	X	X	X	X	X	X	X	X	X	X	X	X	X	X	X	X	



#DISTANCE SETTINGS
A = Detector Channel
A-1	A-2	A-3	A-4	A-5	A-6	A-7	A-8	A-9	A-10	A-11	A-12	A-13	A-14	A-15	A-16	

2.5000e+00	3.0000e+00	2.5000e+00	3.0000e+00	2.0000e+00	3.0000e+00	1.5000e+00	3.0000e+00	3.0000e+00	3.0000e+00	3.0000e+00	3.0000e+00	3.0000e+00	3.0000e+00	1.5000e+00	3.0000e+00	

B = Detector Channel
B-1	B-2	B-3	B-4	B-5	B-6	B-7	B-8	B-9	B-10	B-11	B-12	B-13	B-14	B-15	B-16	

1.0000e+01	1.0000e+01	1.0000e+01	1.4400e+00	1.0000e+01	1.0000e+01	1.5100e+00	1.9400e+00	1.0000e+01	1.0000e+01	1.9900e+00	2.4900e+00	2.4100e+00	2.9000e+00	1.0000e+01	2.9800e+00	




#DATA BEGINS
time	group	step	mark	flag	A-AC1	A-AC2	A-AC3	A-AC4	A-AC5	A-AC6	A-AC7	A-AC8	A-AC9	A-AC10	A-AC11	A-AC12	A-AC13	A-AC14	A-AC15	A-AC16	A-DC1	A-DC2	A-DC3	A-DC4	A-DC5	A-DC6	A-DC7	A-DC8	A-DC9	A-DC10	A-DC11	A-DC12	A-DC13	A-DC14	A-DC15	A-DC16	A-Ph1	A-Ph2	A-Ph3	A-Ph4	A-Ph5	A-Ph6	A-Ph7	A-Ph8	A-Ph9	A-Ph10	A-Ph11	A-Ph12	A-Ph13	A-Ph14	A-Ph15	A-Ph16	B-AC1	B-AC2	B-AC3	B-AC4	B-AC5	B-AC6	B-AC7	B-AC8	B-AC9	B-AC10	B-AC11	B-AC12	B-AC13	B-AC14	B-AC15	B-AC16	B-DC1	B-DC2	B-DC3	B-DC4	B-DC5	B-DC6	B-DC7	B-DC8	B-DC9	B-DC10	B-DC11	B-DC12	B-DC13	B-DC14	B-DC15	B-DC16	B-Ph1	B-Ph2	B-Ph3	B-Ph4	B-Ph5	B-Ph6	B-Ph7	B-Ph8	B-Ph9	B-Ph10	B-Ph11	B-Ph12	B-Ph13	B-Ph14	B-Ph15	B-Ph16	aux-1	digaux	

36117.055	1	1	0	768	0.38005	0.036916	0.32273	0.093153	0.074476	0.33196	0.31874	0.07087	0.15933	0.12291	0.15143	0.13768	0.099134	0.051565	0.10319	0.33428	-2.4646	-3.4146	-2.5333	-3.0938	-3.1396	-2.5458	-3.5958	-3.0729	-2.8563	-3.45	-2.9083	-3.1729	-3.2771	-2.6813	-3.3271	-3.1354	30.867	188.404	48.353	80.300	96.292	67.424	131.672	89.542	-159.185	-125.540	-11.446	-40.102	6.760	152.508	70.130	65.911	0.00015792	0.0001969	4.458e-05	714.67	9.5822e-07	2.2257e-06	778.22	157.36	6.9669e-07	2.2075e-06	198.91	52.264	40.678	11.515	2.0482e-07	16.32	8.0453e-05	7.8819e-05	2.1774e-05	710.92	8.5576e-07	8.577e-07	779.77	157.78	8.5385e-07	8.2055e-07	197.98	53.448	41.138	11.802	8.5269e-07	16.497	-151.991	-90.595	-94.858	-154.142	-62.756	-1.104	-154.332	-146.859	-36.706	21.157	-147.314	-140.811	-140.302	-132.411	97.872	-133.191	-8191	255	
36117.152	1	1	0	0	0.1554	0.17443	0.099168	0.10372	0.12767	0.19856	0.18545	0.21635	0.074034	0.11738	0.17959	0.18691	0.22822	0.078779	0.034064	0.25245	-2.4979	-3.4625	-2.675	-3.0083	-3.3292	-2.7083	-3.4979	-3.2729	-2.7396	-3.4875	-2.7625	-2.8646	-3.3521	-2.7208	-3.2	-3.1479	95.331	141.871	-99.869	-66.508	191.712	17.512	103.010	184.089	73.100	-79.626	-147.051	187.592	171.056	74.671	-82.485	-26.507	0.00010284	0.00026192	6.3587e-06	709.99	1.1551e-07	3.0156e-06	777.02	155.75	1.5992e-06	1.2814e-06	197.27	52.731	40.775	11.71	1.8859e-06	16.247	8.1277e-05	7.6634e-05	2.1399e-05	709.18	8.5342e-07	8.5328e-07	779.91	156.85	8.758e-07	8.5645e-07	198.01	53.399	41.219	11.823	8.3729e-07	16.485	-152.247	-100.828	-145.369	-154.084	192.178	3.530	-154.006	-146.911	-69.557	-69.596	-147.570	-140.946	-140.094	-133.011	25.178	-133.607	-8191	255	
36117.246	1	1	0	0	0.11997	0.014248	0.26745	0.33854	0.069493	0.21609	0.093845	0.1151	0.13801	0.14546	0.21569	0.13976	0.14862	0.16919	0.014094	0.10276	-2.3563	-3.3604	-2.8063	-2.9917	-3.1813	-2.6104	-3.2104	-3.3792	-2.5312	-3.4437	-2.8104	-2.9083	-3.4604	-2.5167	-3.2042	-3.2458	174.860	-46.596	144.347	144.868	-133.432	-26.717	-34.580	4.473	155.740	-63.690	-88.968	51.320	181.114	97.948	-103.347	182.202	0.00012626	7.502e-05	2.6623e-05	711.32	2.8087e-06	8.9827e-07	769.35	156.5	9.0565e-07	4.8305e-07	198.05	52.488	40.899	11.616	2.1573e-06	16.246	8.0771e-05	7.7839e-05	2.175e-05	709.46	8.4562e-07	8.3584e-07	777.72	157.07	8.7642e-07	8.2556e-07	197.43	53.212	41.179	11.786	8.3455e-07	16.432	-137.319	122.258	-104.812	-153.972	1.569	86.955	-154.201	-146.828	-78.493	51.308	-147.216	-141.368	-140.050	-132.588	-35.585	-133.035	-8191	255	
36117.344	1	1	0	0	0.29491	0.067477	0.20596	0.12146	0.12289	0.083051	0.092345	0.19545	0.14558	0.035918	0.13641	0.10683	0.04589	0.44247	0.16676	0.15936	-2.1813	-3.4042	-2.9313	-2.7854	-3.4021	-2.7604	-3.2021	-3.3646	-2.7188	-3.4021	-3.1458	-2.75	-3.4146	-2.9188	-3.0625	-3.6312	-7.303	-38.019	79.114	70.363	-48.759	24.444	72.799	97.918	-133.395	-84.895	112.436	88.953	70.390	14.503	183.589	-16.639	0.0001101	0.0002102	2.4889e-05	711.01	1.6916e-06	3.5709e-06	773.96	156.09	1.173e-06	3.0749e-06	197.06	52.79	40.874	11.615	2.1458e-06	16.158	7.9513e-05	7.5284e-05	2.1234e-05	709.29	8.6088e-07	8.5569e-07	777.96	156.71	8.6122e-07	8.4439e-07	197.29	53.218	41.112	11.819	8.493e-07	16.43	-152.212	-27.660	-4.554	-154.280	-3.665	20.481	-154.515	-146.593	38.539	-132.446	-147.059	-140.844	-140.432	-132.843	8.984	-133.487	-8191	255	
36117.441	1	1	0	0	0.17082	0.16142	0.2632	0.28527	0.24477	0.24104	0.044814	0.098398	0.093826	0.24512	0.15669	0.070948	0.19253	0.18081	0.0056019	0.14561	-2.2729	-3.3833	-3.1708	-2.8271	-3.5	-2.7875	-3.1417	-3.3688	-2.8458	-3.25	-3.2687	-2.8458	-3.4021	-2.8792	-2.8167	-3.375	-75.260	50.286	-130.930	195.152	-76.237	91.758	-2.651	164.138	-97.652	104.175	129.974	-91.665	195.035	30.579	-52.247	-157.561	8.9204e-05	0.00015446	9.6641e-05	708.81	9.411e-07	2.3885e-06	775.34	155.54	6.9916e-07	2.4312e-06	195.83	52.677	40.558	11.673	2.2209e-06	16.108	8.1711e-05	7.8212e-05	2.1003e-05	709.3	8.6177e-07	8.6823e-07	778.07	156.59	8.8197e-07	8.8579e-07	197.16	53.212	41.077	11.824	8.941e-07	16.442	-146.523	-119.496	-145.059	-154.185	37.875	51.589	-154.318	-146.709	-14.639	-41.460	-147.167	-141.219	-139.797	-132.132	18.611	-132.730	-8191	255	
36117.535	1	1	0	0	0.032036	0.063156	0.11206	0.34561	0.059998	0.1154	0.19623	0.31039	0.36426	0.12346	0.06347	0.13247	0.13051	0.29976	0.17666	0.070284	-2.3354	-3.1688	-3.4104	-2.7875	-3.6188	-3.0667	-2.8646	-3.3021	-2.6771	-3.0229	-3.1854	-2.8937	-3.3396	-3.0771	-2.825	-3.5542	57.617	-11.708	-107.452	158.567	-152.207	190.652	188.065	-79.418	126.617	70.652	96.360	191.244	61.148	122.600	150.619	-21.742	0.00010173	0.00014746	6.6716e-05	707.54	1.9669e-06	1.052e-06	780.18	155.22	6.9145e-07	1.5596e-06	194.58	52.69	40.617	11.494	2.4473e-06	16.265	8.8108e-05	8.3403e-05	2.2847e-05	707.98	9.0949e-07	8.9345e-07	778.36	156.25	9.2414e-07	9.258e-07	196.39	53.206	41.123	11.783	9.1113e-07	16.483	-134.462	-73.324	-105.812	-154.250	-53.275	-65.152	-154.182	-147.001	-0.430	50.312	-146.933	-141.186	-140.306	-132.522	-7.955	-133.389	-8191	255	
36117.656	1	1	0	0	0.19751	0.12703	0.12918	0.15183	0.1341	0.14163	0.17684	0.13837	0.23481	0.10403	0.073825	0.11901	0.10543	0.075793	0.13238	0.068514	-2.3521	-3.2354	-3.4292	-2.8	-3.4625	-3.0771	-2.9396	-3.6167	-2.725	-3.0229	-3.5125	-2.3667	-3.3333	-3.3229	-2.8167	-3.5667	-65.406	14.740	111.651	37.637	-13.318	40.136	163.624	-36.090	-21.989	48.679	118.129	-143.422	-58.523	-26.229	124.177	-6.881	0.00012155	0.00017144	3.3591e-05	708.79	1.2194e-06	3.3676e-06	774.59	155.55	1.6178e-06	9.288e-07	197.42	52.094	41.034	11.595	1.0321e-06	16.09	8.5687e-05	8.3606e-05	2.2677e-05	707.1	9.3252e-07	8.8317e-07	777.89	156.59	9.173e-07	8.9287e-07	196.86	53.006	41.311	11.768	9.0725e-07	16.438	-161.448	-70.265	-74.824	-154.158	-99.692	10.151	-154.496	-147.033	-47.241	-96.023	-147.426	-141.089	-140.484	-132.007	-45.975	-133.350	-8191	255	
36117.754	1	1	0	0	0.13151	0.096116	0.1425	0.30345	0.077631	0.094473	0.4054	0.19169	0.1309	0.20728	0.18292	0.16959	0.063341	0.17123	0.31951	0.13121	-2.4833	-2.8583	-3.3146	-2.6917	-3.2938	-3.1604	-2.7313	-3.4437	-2.725	-3.0271	-3.275	-2.6646	-3.2458	-3.1542	-2.5979	-3.4292	-61.238	122.712	-77.111	177.565	-61.890	47.053	143.601	-140.748	104.750	-6.526	159.517	70.741	-74.532	117.032	7.101	7.140	0.00011193	0.00017698	4.0358e-05	706.1	2.8702e-07	2.743e-06	770.78	154.68	3.7556e-07	2.1354e-06	197.44	52.18	40.579	11.577	1.3811e-06	16.1	8.8965e-05	8.3332e-05	2.3416e-05	707.68	9.2799e-07	9.1621e-07	777.05	156.31	9.2899e-07	9.1999e-07	197.5	53.109	40.868	11.78	9.2452e-07	16.413	-154.016	-36.178	-62.237	-153.814	11.577	-17.740	-154.184	-146.844	-62.304	31.126	-147.028	-141.327	-140.143	-132.416	-50.071	-133.785	-8191	255	
36117.848	1	1	0	0	0.19381	0.14922	0.16819	0.25188	0.34869	0.17198	0.12275	0.11286	0.20408	0.034642	0.3995	0.18193	0.041395	0.14785	0.11899	0.13405	-2.525	-2.6521	-3.325	-2.9896	-3.0646	-3.35	-2.7375	-3.4167	-3.275	-2.7729	-3.5729	-2.7792	-2.9417	-3.4729	-2.6458	-3.3688	-139.533	38.381	-69.245	-146.136	65.076	166.672	-158.149	152.962	-93.014	39.344	92.433	59.116	77.177	-1.939	-130.529	-25.074	0.00010492	0.00014149	8.1162e-05	707.45	8.2872e-07	1.1432e-06	777.37	156.84	1.7205e-06	2.2532e-06	197.46	52.31	40.76	11.501	3.5794e-06	16.206	8.8421e-05	8.3855e-05	2.3604e-05	707.8	9.18e-07	9.1213e-07	778.14	156.87	9.1394e-07	9.113e-07	196.77	53.003	41.131	11.783	9.0882e-07	16.438	-159.073	-55.712	-97.373	-153.921	-53.113	-142.170	-154.288	-146.985	-53.729	3.819	-147.474	-140.719	-140.388	-132.495	33.101	-133.777	-8191	255	
36117.945	1	1	0	0	0.15839	0.086929	0.097196	0.05709	0.12509	0.062087	0.17328	0.15588	0.16259	0.034392	0.082851	0.1483	0.26486	0.079267	0.036323	0.12715	-2.7625	-2.725	-3.3375	-2.9958	-2.9292	-3.3083	-2.925	-3.2333	-3.0229	-2.8042	-3.4896	-3.0938	-2.8563	-3.45	-2.8083	-3.2375	5.602	-47.003	-122.928	173.477	-69.974	2.551	24.203	133.958	-97.730	-88.330	-79.626	45.260	142.565	171.184	-74.107	112.651	0.00011972	9.7785e-05	3.5573e-05	707.3	3.7766e-06	1.3417e-06	777.89	156.08	1.2539e-06	1.1525e-06	198.52	52.195	40.539	11.543	6.1931e-07	16.138	8.6347e-05	8.1759e-05	2.2764e-05	708.06	9.2312e-07	9.1222e-07	778.58	156.36	9.0904e-07	9.0654e-07	197.08	52.884	40.993	11.771	9.0703e-07	16.38	-146.519	-58.046	-42.503	-154.157	-80.938	43.163	-154.684	-146.738	0.613	9.699	-147.250	-141.021	-140.057	-132.523	-17.976	-133.471	-8191	255	
36118.039	1	1	0	0	0.041226	0.10766	0.053756	0.29775	0.26247	0.19848	0.20533	0.10562	0.093124	0.061393	0.1396	0.21052	0.15618	0.20696	0.060683	0.15055	-2.7354	-2.5708	-3.3708	-2.9229	-2.975	-3.3812	-2.6792	-3.1208	-3.3167	-2.6146	-3.3958	-2.9	-2.9021	-3.2708	-2.6667	-2.8583	138.203	11.987	-164.188	71.963	-114.611	100.533	185.806	129.115	-136.966	68.820	-49.145	-25.339	143.018	-131.004	-96.772	-90.703	0.00014542	0.00018548	3.2602e-05	707.33	1.2361e-06	2.0528e-06	775.92	155.43	1.0127e-06	2.0895e-06	196.82	51.924	40.195	11.597	1.0871e-06	16.143	8.4625e-05	8.375e-05	2.3166e-05	708.7	9.0548e-07	8.9141e-07	777.35	155.93	9.0636e-07	9.3195e-07	196.85	52.918	40.711	11.759	8.9989e-07	16.393	-136.324	-107.345	-106.784	-153.854	-42.641	37.260	-153.948	-146.690	-68.418	-109.305	-147.470	-141.200	-140.390	-132.464	53.753	-132.517	-8191	255	
36118.137	1	1	0	0	0.33897	0.11523	0.17375	0.19798	0.15104	0.058196	0.23824	0.023867	0.18378	0.20639	0.13173	0.037967	0.15805	0.12964	0.055298	0.23314	-2.9021	-2.6583	-3.2792	-2.9938	-2.7792	-3.4729	-2.9896	-2.9604	-3.4104	-2.5375	-3.3375	-3.2188	-2.7021	-3.4542	-2.8208	-3.0542	104.825	-157.958	69.883	121.975	180.892	109.800	84.654	25.174	-89.079	-70.127	78.650	5.178	-134.993	180.404	76.392	-83.328	0.0001238	0.00040175	1.757e-05	710.23	4.0824e-07	9.1334e-07	775.85	155.14	7.5614e-07	1.7828e-06	195.34	51.776	40.195	11.461	2.7891e-06	16.179	8.3545e-05	8.1494e-05	2.2198e-05	707.35	9.0955e-07	8.7663e-07	775.14	155.56	8.9168e-07	8.8434e-07	195.89	52.826	40.769	11.698	8.6965e-07	16.373	-145.662	-80.709	-77.691	-153.784	-119.573	19.172	-154.004	-147.022	-38.911	-78.828	-147.350	-140.871	-140.484	-132.223	7.839	-132.898	-8191	255	
36118.234	1	1	0	0	0.17896	0.25461	0.083836	0.073711	0.2488	0.12767	0.087195	0.25884	0.16276	0.030369	0.16926	0.14007	0.20926	0.092837	0.17381	0.20871	-3.0083	-2.5292	-3.1021	-3.2729	-2.7313	-3.4667	-2.8875	-2.9021	-3.4958	-2.7208	-3.1875	-3.1229	-2.7313	-3.2396	-3.0729	-2.8896	181.172	93.231	-109.688	-23.638	167.313	-7.859	72.375	-153.076	80.688	122.657	151.210	-156.162	187.900	55.657	183.782	-145.211	0.00012715	0.0001393	6.2834e-05	708.7	4.0631e-07	1.8373e-07	773.13	154.41	3.2653e-06	3.6993e-06	194.71	52.126	40.381	11.468	2.3418e-06	16.003	8.1638e-05	8.0138e-05	2.1695e-05	706.76	8.8492e-07	8.401e-07	774.9	155.38	8.6279e-07	8.5262e-07	194.88	52.643	40.695	11.684	8.4237e-07	16.278	-148.955	-9.343	8.730	-153.988	100.292	-149.486	-154.270	-146.979	-9.511	-51.363	-147.382	-141.171	-140.006	-131.910	14.104	-132.904	-8191	255	
36118.352	1	1	0	0	0.083241	0.1992	0.081966	0.10797	0.15309	0.098103	0.11305	0.18331	0.15907	0.4504	0.12207	0.16965	0.1028	0.079859	0.2498	0.15833	-2.9562	-2.8479	-3.0083	-3.3833	-2.5312	-3.3396	-3.125	-2.8396	-3.3542	-2.8625	-3.075	-3.4083	-2.625	-3.3063	-3.0042	-2.7188	131.681	91.620	18.050	-129.816	156.327	60.233	-102.528	189.205	97.828	96.592	95.317	-142.975	188.984	-102.022	62.852	141.759	0.00010937	0.00017678	8.8627e-05	704.03	3.6076e-06	2.2701e-06	774.03	153.15	2.1007e-06	1.1297e-06	195.72	51.891	40.269	11.413	4.3843e-06	16.039	7.8444e-05	7.8997e-05	2.105e-05	704.76	8.6661e-07	8.3124e-07	774.96	154.61	8.5169e-07	8.294e-07	195.11	52.584	40.75	11.67	8.5752e-07	16.311	-151.989	-110.021	-64.216	-153.845	42.711	27.291	-153.983	-146.808	-55.508	-97.604	-147.621	-141.223	-140.340	-131.961	4.156	-133.409	-8191	255	
36118.449	1	1	0	0	0.1084	0.263	0.11012	0.14351	0.099585	0.12037	0.21519	0.1352	0.21992	0.26113	0.15092	0.14586	0.086109	0.24824	0.12924	0.047482	-3.0208	-2.8333	-2.9479	-3.4688	-2.6229	-3.1229	-3.125	-2.8271	-3.3208	-2.9417	-2.9708	-3.4208	-2.8083	-3.2146	-3.2646	-2.7	-141.380	55.573	133.232	123.707	-3.637	120.128	-140.124	126.198	27.696	-158.833	-86.134	58.433	-54.246	101.893	175.461	-43.381	9.1156e-05	0.00030335	6.9381e-05	702.87	1.9734e-06	2.3653e-06	768.01	154.66	1.1322e-06	2.4678e-06	195.52	51.418	39.754	11.463	1.9272e-06	15.933	7.9109e-05	7.5289e-05	2.147e-05	704.79	8.6754e-07	8.1979e-07	772.25	155.01	8.3236e-07	8.31e-07	194.87	52.512	40.435	11.639	8.2972e-07	16.245	-151.245	-95.836	-51.195	-154.057	-96.703	-6.141	-153.961	-146.887	-57.228	-68.839	-147.444	-141.263	-139.780	-131.962	-27.738	-133.470	-8191	255	
36118.547	1	1	0	0	0.14226	0.35188	0.17939	0.078784	0.087733	0.2138	0.23814	0.083719	0.12616	0.10993	0.20739	0.17227	0.27388	0.081517	0.13492	0.14433	-2.9688	-2.8312	-2.7625	-3.4917	-2.6667	-3.1708	-3.225	-2.725	-3.3937	-3.0479	-2.8896	-3.3812	-2.8208	-3.1312	-3.2875	-2.8125	39.557	29.988	145.305	187.443	35.621	21.217	142.225	89.960	-7.615	-105.232	79.721	113.449	146.803	131.340	72.039	-94.608	0.00012605	0.00010379	1.8835e-05	705.01	7.6368e-07	2.3611e-06	770.59	153.29	1.6348e-06	2.7499e-06	194.72	51.908	39.802	11.453	8.4265e-07	15.9	8.0106e-05	7.6142e-05	2.1149e-05	704.3	8.4858e-07	8.1787e-07	771.49	154.44	8.5154e-07	8.2677e-07	194.72	52.563	40.605	11.646	8.3375e-07	16.252	-146.461	-65.362	-136.678	-153.656	4.561	-58.043	-153.935	-146.709	-22.286	-24.824	-146.641	-140.628	-140.104	-132.207	89.919	-133.243	-8191	255	
36118.617	1	1	0	0	0.085263	0.12898	0.12254	0.25993	0.11524	0.052322	0.25927	0.11876	0.19744	0.12221	0.15237	0.072224	0.2935	0.019608	0.11677	0.20163	-2.9729	-3.0125	-2.6917	-3.5583	-2.8083	-3.1208	-3.3229	-2.6854	-3.0729	-3.2708	-2.8625	-3.5125	-2.9667	-2.7354	-3.3146	-2.6583	39.017	163.308	152.843	-107.816	-88.853	-66.991	129.901	116.872	-18.768	53.214	-78.786	24.942	64.703	-102.732	170.696	120.008	0.00010366	0.00023414	9.9784e-05	700.79	2.4389e-06	2.1499e-06	771.15	153.62	1.714e-06	3.2514e-06	194.37	51.541	40.256	11.478	2.4275e-06	15.873	7.9392e-05	7.5682e-05	2.0928e-05	702.83	8.5181e-07	8.2463e-07	772.21	154.37	8.208e-07	8.1524e-07	194.45	52.453	40.519	11.642	8.1469e-07	16.234	-158.075	-53.942	-37.468	-153.758	18.915	-6.428	-154.182	-146.540	-52.934	-28.822	-147.045	-140.959	-140.508	-132.335	-8.490	-132.825	-8191	255	
36118.734	1	1	0	0	0.255	0.067269	0.14602	0.13777	0.15024	0.061771	0.12552	0.10682	0.16537	0.093481	0.041301	0.068345	0.24045	0.36744	0.06526	0.16616	-3.0187	-3.3042	-2.7604	-3.4896	-2.8271	-2.85	-3.4292	-2.7042	-3.1729	-3.3583	-2.8479	-3.175	-3.0125	-2.7687	-3.5042	-2.8688	-65.698	-123.429	-49.898	111.475	150.511	81.542	-158.396	-100.245	-98.979	-31.715	-51.974	-110.987	127.766	-83.218	179.558	92.366	0.00012034	5.4356e-05	6.8172e-05	702.8	1.7966e-06	1.7996e-06	767.28	153.33	1.6237e-06	1.9131e-06	195.92	52.012	39.966	11.45	1.6517e-06	15.981	7.8869e-05	7.3075e-05	2.0828e-05	702.56	8.5209e-07	8.3473e-07	769	154.12	8.4346e-07	8.1208e-07	194.18	52.533	40.471	11.664	8.2645e-07	16.253	-152.954	-25.640	-80.704	-154.152	-12.324	81.702	-154.018	-147.095	-30.627	30.549	-147.364	-141.196	-140.619	-132.528	-36.156	-133.153	-8191	255	
36118.832	1	1	0	0	0.21486	0.19832	0.23986	0.34113	0.075871	0.19659	0.073867	0.12107	0.092746	0.11893	0.20711	0.27632	0.084338	0.075103	0.047022	0.23312	-2.6688	-3.3312	-2.5062	-3.3021	-3.1208	-2.6521	-3.5292	-2.8146	-2.8458	-3.3833	-2.6688	-3.3458	-3.1479	-2.7646	-3.4021	-2.5979	10.545	34.096	-55.123	-98.256	-133.565	-13.173	-156.778	118.060	60.172	174.902	-128.343	-67.119	-12.309	-49.223	-21.425	-161.457	0.00012709	0.00010286	5.2288e-05	702.22	3.4115e-07	3.2679e-06	766.49	154.13	1.3638e-06	3.3894e-06	195.6	51.079	40.05	11.365	1.5484e-06	15.866	7.8398e-05	7.6295e-05	2.055e-05	701.89	8.4636e-07	8.213e-07	768.6	153.97	8.0372e-07	8.1174e-07	193.96	52.236	40.426	11.613	8.3292e-07	16.193	-160.673	-109.515	84.556	-153.904	176.758	20.632	-154.249	-146.680	22.294	-14.120	-147.229	-141.084	-139.950	-132.320	-16.884	-132.907	-8191	255	
36118.930	1	1	0	0	0.045107	0.086577	0.033251	0.20703	0.24777	0.063594	0.28645	0.22412	0.13038	0.26506	0.23228	0.043425	0.10024	0.2483	0.11227	0.20894	-2.5292	-3.3167	-2.7646	-3.3583	-3.1875	-2.8292	-3.5292	-2.725	-2.9813	-3.3458	-2.6896	-3.3083	-3.275	-2.6958	-3.4208	-3.1792	-9.588	-142.181	-92.251	174.879	129.424	50.213	97.017	-104.757	84.425	-100.174	-15.120	14.152	23.335	33.902	72.753	-81.095	0.00012373	0.00023825	4.1048e-06	696.92	2.0201e-06	2.3338e-06	764.1	153.42	1.3999e-06	1.1496e-06	194.14	51.276	40.055	11.448	2.2307e-06	16.008	7.731e-05	7.2855e-05	1.981e-05	698.37	8.1183e-07	8.0383e-07	766.85	153.58	7.9549e-07	8.059e-07	193.99	52.114	40.316	11.611	8.0327e-07	16.167	-144.387	9.148	160.023	-153.884	-51.307	-38.345	-154.103	-146.868	-26.247	5.671	-147.588	-140.413	-140.240	-132.176	-11.072	-133.314	-8191	255	
36119.051	1	1	0	0	0.36559	0.11179	0.065354	0.16545	0.053553	0.15879	0.15619	0.14475	0.088323	0.17172	0.078061	0.066187	0.11567	0.20688	0.1283	0.3639	-2.5312	-3.3563	-2.6958	-3.1063	-3.25	-2.6813	-3.3146	-2.9917	-3.0042	-3.3396	-3.0187	-3.2521	-3.2979	-2.7271	-3.3438	-3.05	-147.816	-142.742	-147.774	183.621	-157.395	132.475	14.444	98.564	95.632	-17.858	-95.321	142.149	-159.806	118.654	131.428	158.907	0.00014505	0.00021684	2.8509e-05	702.45	2.3635e-06	3.4497e-06	762.65	153.17	9.2613e-07	3.4251e-06	193.84	51.731	39.855	11.373	1.4156e-06	16.007	7.724e-05	7.1657e-05	2.0381e-05	699.87	7.9146e-07	7.9249e-07	766.85	153.43	8.0138e-07	7.9579e-07	193.48	52.323	40.351	11.63	8.1663e-07	16.194	-149.899	-77.584	-62.536	-154.324	18.812	-42.125	-154.109	-146.662	-47.903	-41.019	-147.266	-140.799	-140.147	-132.829	-54.649	-133.157	-8191	255	
36119.145	1	1	0	0	0.13549	0.1639	0.083206	0.32045	0.28176	0.22972	0.29259	0.19799	0.12646	0.031751	0.14904	0.20434	0.051869	0.054456	0.24388	0.31128	-2.3958	-3.5083	-2.5104	-3.0292	-3.2771	-2.8208	-3.4313	-3.2271	-2.725	-3.5458	-2.8312	-2.7687	-3.3354	-2.6833	-3.2792	-3.2583	132.934	-67.596	32.361	191.310	163.658	39.964	119.447	193.451	175.140	-43.368	46.379	-139.174	-26.160	79.431	-116.251	105.261	0.00014734	0.00018447	2.0365e-05	700.65	1.7948e-06	1.8071e-06	765.73	152.98	6.7248e-07	2.8078e-06	192.65	51.577	39.99	11.425	5.0374e-07	15.929	7.6329e-05	7.3397e-05	2.0305e-05	698.65	8.2715e-07	8.0447e-07	766.75	153.45	8.1519e-07	8.0333e-07	192.83	52.193	40.268	11.576	8.1355e-07	16.152	-148.613	-79.283	-76.422	-154.228	-52.827	40.196	-154.420	-146.681	-33.245	3.008	-147.435	-141.084	-140.269	-132.612	-52.345	-132.690	-8191	255	
36119.219	1	1	0	0	0.097573	0.24745	0.073161	0.17779	0.21649	0.12065	0.22707	0.076718	0.1761	0.14378	0.055549	0.26711	0.069861	0.086164	0.066822	0.25412	-2.1813	-3.4229	-2.6188	-2.9313	-3.2292	-2.6833	-3.225	-3.2646	-2.5187	-3.5687	-2.725	-2.8646	-3.3688	-2.8479	-3.0521	-3.4875	32.131	2.356	-57.459	175.318	-156.000	-13.998	66.361	91.281	5.487	33.865	151.829	-117.563	80.333	112.732	60.189	78.600	0.00014609	0.00021132	2.556e-05	696.63	1.2992e-06	2.4182e-06	765.58	152.68	1.1487e-06	2.616e-06	192.39	51.149	39.673	11.333	1.5226e-06	15.815	7.8452e-05	7.4027e-05	2.0715e-05	698.44	8.1001e-07	8.029e-07	768.63	153.1	8.4617e-07	8.016e-07	192.93	52.068	40.311	11.563	8.3778e-07	16.1	-151.626	-68.085	-97.406	-154.176	-34.693	9.172	-153.970	-146.703	-40.697	-89.548	-147.211	-140.465	-140.315	-132.484	-30.188	-132.887	-8191	255	
36119.336	1	1	0	0	0.15294	0.11506	0.14897	0.18629	0.16599	0.15099	0.21747	0.13996	0.14526	0.10661	0.31425	0.18579	0.079068	0.14142	0.091839	0.25212	-2.2021	-3.2104	-3.1208	-2.8208	-3.2896	-2.9167	-3.1646	-3.4146	-2.5417	-3.2542	-3.1479	-2.8354	-3.425	-2.8229	-2.9042	-3.4021	97.060	-138.818	-110.555	149.496	-128.229	-95.257	-160.056	65.169	-115.391	147.348	128.691	79.586	4.460	123.431	-1.194	140.722	9.8836e-05	0.00022259	7.9652e-05	694.61	9.512e-07	2.8996e-06	759.43	151.35	9.4442e-07	1.0988e-06	192.86	51.519	39.91	11.338	2.8022e-06	15.832	8.1528e-05	7.4448e-05	2.1187e-05	697.55	8.3027e-07	8.2463e-07	765.07	152.79	8.3939e-07	8.0423e-07	192.86	52.189	40.358	11.554	8.0001e-07	16.148	-138.807	-135.012	-77.516	-153.973	-36.554	-5.299	-154.235	-146.623	14.035	176.146	-147.185	-141.341	-139.757	-132.315	20.171	-133.235	-8191	255	
36119.434	1	1	0	0	0.04891	0.1073	0.22695	0.10676	0.13729	0.11756	0.2033	0.19757	0.23519	0.10788	0.053062	0.39796	0.11462	0.31336	0.082515	0.17821	-2.2687	-3.1813	-3.1646	-2.6854	-3.3333	-2.9354	-3.0083	-3.2708	-2.6979	-3.1875	-3.25	-2.7271	-3.5229	-2.7625	-2.9104	-3.4667	160.590	-46.004	-18.545	24.092	-10.810	74.557	181.545	171.713	-121.987	-102.139	50.340	90.324	53.651	114.942	124.274	194.255	0.00014608	0.00020179	3.8556e-05	698.08	1.9441e-06	3.788e-06	764.56	151.42	1.997e-06	7.1456e-07	192.95	51.266	39.758	11.342	9.8178e-07	15.93	7.7474e-05	7.4761e-05	2.0055e-05	697.35	8.1707e-07	7.9086e-07	763.82	152.63	8.853e-07	8.3001e-07	192.37	52.031	40.293	11.591	8.4089e-07	16.154	-150.535	-76.999	-50.695	-153.923	-13.364	-10.979	-154.432	-146.921	-56.482	-94.834	-147.223	-140.543	-140.192	-132.674	41.994	-132.940	-8191	255	
36119.531	1	1	0	0	0.18442	0.17604	0.15963	0.35747	0.12889	0.045725	0.046329	0.14301	0.14171	0.11097	0.061275	0.099026	0.21699	0.29583	0.25682	0.21214	-2.4625	-3.075	-3.2146	-2.5854	-3.3771	-3.0375	-2.7583	-3.3812	-2.6854	-2.9333	-3.3604	-2.7771	-3.2771	-3.0938	-2.6896	-3.3125	-135.051	-3.079	-82.917	175.058	115.193	-64.056	156.076	-118.844	-125.579	156.619	140.897	168.699	92.738	189.464	94.357	191.650	0.00012895	0.00018047	0.00013022	701.34	5.0812e-07	2.4142e-06	767.6	152.53	1.2117e-06	1.9344e-06	191.88	51.466	39.686	11.336	7.8552e-07	15.816	8.17e-05	7.9269e-05	2.2218e-05	699.2	8.9392e-07	8.7826e-07	767.81	153.35	8.947e-07	8.7927e-07	192.36	52.099	40.189	11.589	8.344e-07	16.153	-146.314	-113.877	-88.085	-154.143	-123.673	-27.375	-154.487	-146.784	-20.733	-72.242	-147.741	-140.343	-140.226	-131.993	17.869	-132.796	-8191	255	
36119.648	1	1	0	0	0.056435	0.09164	0.061111	0.0028937	0.25149	0.18005	0.22269	0.10588	0.09863	0.12422	0.11434	0.13635	0.14895	0.088126	0.056133	0.16236	-2.4021	-3.0167	-3.1021	-2.6208	-3.3083	-3.1792	-2.7146	-3.4396	-2.8979	-2.9229	-3.2771	-2.5167	-3.2479	-3.0667	-2.8417	-3.3333	100.149	-7.465	-156.873	147.187	119.335	71.218	102.286	69.753	-154.325	3.217	23.491	-49.003	14.927	141.401	-11.641	-147.226	0.00015567	0.00020356	2.5427e-05	696.32	3.3182e-07	2.8651e-06	759.85	151.78	1.1923e-06	3.1727e-07	192.82	51.35	39.912	11.349	4.5196e-07	15.784	7.7695e-05	7.4603e-05	1.9907e-05	697.32	8.164e-07	7.8197e-07	762.69	152.57	8.0492e-07	7.9681e-07	192.22	52.03	40.293	11.555	8.6937e-07	16.164	-137.494	-121.881	-34.673	-153.902	-122.031	33.817	-154.202	-146.531	-47.506	5.911	-147.402	-140.796	-139.780	-132.346	12.901	-132.831	-8191	255	
36119.746	1	1	0	0	0.1421	0.11062	0.066225	0.1916	0.063219	0.15602	0.11839	0.31093	0.1206	0.085519	0.27765	0.078406	0.17303	0.3654	0.24074	0.2199	-2.5292	-2.7396	-3.2958	-2.9083	-3.2125	-3.3875	-2.7854	-3.4917	-2.925	-2.7604	-3.4333	-2.7271	-3.1146	-3.0979	-2.5333	-3.3167	67.039	51.327	-8.821	188.338	1.059	-158.114	58.713	179.183	190.001	-50.520	114.185	-129.303	66.718	50.736	164.217	-43.802	0.00014943	0.0002082	7.6984e-06	693.33	8.9521e-07	2.7422e-06	764.14	151.4	1.8216e-06	8.4049e-07	192.57	51.307	39.852	11.527	3.9084e-07	15.859	8.365e-05	8.1855e-05	2.2813e-05	697.21	9.3631e-07	8.9694e-07	766.17	152.65	8.8576e-07	8.8499e-07	192.67	52.007	40.191	11.615	8.6226e-07	16.103	-157.393	-25.950	-56.313	-154.096	-58.652	-33.628	-154.110	-146.920	-11.044	-85.943	-147.680	-140.693	-140.307	-132.438	-92.951	-133.409	-8191	255	
36119.840	1	1	0	0	0.073116	0.13402	0.088107	0.16973	0.17481	0.11824	0.17563	0.14092	0.10252	0.23426	0.086768	0.27433	0.3055	0.17498	0.16809	0.21165	-2.6792	-2.6917	-3.3542	-2.9792	-2.8958	-3.4604	-2.6896	-3.3167	-3.1146	-2.85	-3.4146	-2.8021	-3.0979	-3.3229	-2.7062	-3.2333	-144.380	190.136	7.963	162.635	-147.669	135.487	118.806	110.222	-150.510	1.375	44.826	47.036	-164.420	-35.178	153.351	-151.755	0.00014363	8.2494e-05	3.4233e-05	699.38	1.1339e-06	1.1436e-06	764.09	151.23	1.6429e-06	1.5384e-06	193.54	50.804	39.357	11.359	8.3294e-07	15.854	7.9572e-05	7.854e-05	2.1163e-05	697.15	8.5773e-07	8.5183e-07	764.9	152.45	8.721e-07	8.6378e-07	192.71	51.9	40.203	11.615	9.0078e-07	16.154	-139.942	160.917	-137.950	-154.090	-87.874	-115.332	-154.337	-146.687	-83.598	-15.981	-147.085	-140.798	-140.153	-132.107	-27.208	-133.008	-8191	255	
36119.914	1	1	0	0	0.06422	0.23099	0.098173	0.02379	0.03497	0.12992	0.11569	0.098479	0.19807	0.10577	0.047836	0.24484	0.1898	0.15257	0.17942	0.19964	-2.7542	-2.7292	-3.3688	-2.8125	-2.7833	-3.3146	-2.8125	-3.3146	-3.1437	-2.8646	-3.375	-2.9437	-3.0167	-3.4688	-2.8396	-3.3042	-115.516	-141.860	-15.098	192.569	-147.623	-94.534	86.641	78.116	93.802	-131.384	57.723	135.932	186.153	-107.358	13.257	143.951	0.00010583	0.00028469	1.4986e-05	698.43	2.745e-06	3.2063e-06	765.18	151	5.1382e-07	2.5633e-06	192.56	50.826	39.895	11.415	1.0596e-07	15.715	8.4329e-05	8.1929e-05	2.2059e-05	697.82	9.0052e-07	8.5298e-07	766.23	152.68	8.9572e-07	8.7924e-07	192.05	51.933	40.157	11.559	8.469e-07	16.12	-144.575	-100.151	167.046	-154.161	-91.059	-34.879	-154.396	-146.853	33.448	-48.478	-147.193	-140.916	-139.673	-132.145	81.035	-133.213	-8191	255	
36120.012	1	1	0	0	0.10382	0.2403	0.09687	0.037701	0.082267	0.083843	0.1335	0.1445	0.099191	0.35876	0.29084	0.18391	0.24624	0.17847	0.11243	0.23917	-2.7687	-2.6042	-3.2479	-2.8604	-2.9833	-3.5062	-2.9771	-3.0792	-3.1042	-2.6958	-3.4167	-3.0792	-2.8125	-3.4458	-2.7062	-2.9875	-32.018	-97.194	-17.498	103.633	148.354	-109.136	7.573	-39.592	-47.535	-140.700	0.885	104.292	-161.543	-46.173	-146.988	-47.740	0.00012978	7.8185e-05	6.9928e-05	698.15	2.3265e-07	5.7913e-07	756.99	152.06	1.6002e-06	7.0002e-07	192.04	51.356	39.669	11.303	1.1843e-06	15.749	8.0836e-05	7.8608e-05	2.1148e-05	696.59	8.5776e-07	8.2291e-07	762.16	152.44	8.4109e-07	8.2368e-07	192.43	51.892	40.098	11.503	7.6564e-07	16.104	-143.749	115.211	-48.071	-154.024	59.813	17.687	-154.314	-146.855	-30.481	-125.792	-147.349	-140.695	-139.936	-131.845	3.790	-132.848	-8191	255	
36120.129	1	1	0	0	0.15719	0.25444	0.076863	0.16192	0.054526	0.2506	0.32977	0.06216	0.079743	0.24048	0.17181	0.18977	0.05653	0.13509	0.37332	0.1654	-3.0167	-2.6188	-3.1813	-3.0875	-2.7	-3.3854	-2.7438	-2.9167	-3.3604	-2.5833	-3.2125	-3.1104	-2.5521	-3.35	-2.7521	-2.9229	158.186	144.302	7.920	139.700	154.285	-24.544	105.726	66.257	170.309	119.848	-104.840	172.874	87.746	10.588	-16.650	-49.603	0.00011684	0.00013638	2.345e-05	697.07	2.4828e-06	3.7942e-06	760.71	151.59	1.665e-06	3.0193e-06	192.13	50.899	39.919	11.284	1.55e-06	15.941	7.6389e-05	7.4049e-05	1.9715e-05	695.68	8.0607e-07	7.7567e-07	764.04	152.08	8.1177e-07	8.1706e-07	191.92	51.832	40.172	11.55	8.7316e-07	16.164	-160.653	-125.434	144.353	-153.668	-51.635	-6.633	-154.212	-146.906	62.995	55.540	-147.288	-140.556	-140.011	-132.207	11.527	-132.640	-8191	255	
36120.227	1	1	0	0	0.053761	0.1869	0.1849	0.022697	0.13459	0.19028	0.01938	0.063863	0.38232	0.15216	0.1501	0.19468	0.078066	0.13309	0.11849	0.26124	-3.0729	-2.725	-3.2479	-3.2875	-2.8937	-3.4417	-3.1083	-2.8667	-3.1917	-2.5521	-3.2292	-3.3063	-2.8063	-3.4333	-3.0792	-2.8625	-105.053	8.022	-88.416	110.808	78.507	91.623	-142.086	-118.110	119.638	-153.718	-147.900	-153.171	102.941	135.581	91.828	124.950	0.00015093	0.00014618	5.0352e-05	696.69	8.8692e-07	3.692e-06	761.8	151.44	2.1283e-06	1.0343e-06	194.31	50.72	39.322	11.268	3.4901e-06	15.821	8.4151e-05	8.0282e-05	2.226e-05	697.02	8.9534e-07	8.6551e-07	762.68	152.22	9.1083e-07	8.8888e-07	192.59	51.739	40.046	11.551	8.6854e-07	16.109	-144.186	-67.447	-33.290	-154.209	-42.730	44.407	-154.086	-146.888	-23.537	-28.094	-147.424	-140.658	-140.055	-131.952	19.772	-133.127	-8191	255	
36120.320	1	1	0	0	0.21397	0.095391	0.20561	0.085631	0.19838	0.25131	0.15452	0.28089	0.1727	0.21924	0.17013	0.16066	0.19938	0.19577	0.13255	0.082963	-3.1937	-2.7771	-2.9062	-3.4562	-2.5229	-3.4313	-3.2604	-2.6458	-3.3708	-2.6667	-2.8812	-3.3104	-2.5729	-3.3125	-3.3292	-2.6979	14.665	-111.713	-94.269	8.446	1.235	96.015	45.036	77.165	76.169	-70.854	1.955	117.562	149.598	-83.682	-147.857	171.961	0.00010936	0.00016702	4.2376e-05	698.43	2.6049e-06	1.8661e-06	762.3	151.73	2.0932e-06	1.4303e-06	193.06	51.124	39.59	11.44	6.2471e-07	15.842	8.2756e-05	8.0777e-05	2.2669e-05	697.32	8.9278e-07	8.5267e-07	763.82	152.32	8.5209e-07	8.3713e-07	192.43	51.871	39.988	11.568	8.2439e-07	16.114	-143.205	-116.631	-6.188	-153.911	-26.227	-83.626	-154.047	-147.060	6.411	45.796	-147.285	-140.614	-140.569	-132.842	78.902	-132.210	-8191	255	
36120.441	1	1	0	0	0.1137	0.095116	0.10349	0.14797	0.17564	0.3017	0.18944	0.30821	0.038666	0.13278	0.13866	0.20984	0.14934	0.14014	0.28914	0.03281	-2.9958	-2.8354	-2.9979	-3.3333	-2.8438	-3.3042	-3.2917	-2.7396	-3.4125	-2.8187	-2.9396	-3.1375	-2.8521	-3.1396	-3.2146	-2.6063	-51.411	153.077	-140.427	114.623	121.681	-138.066	85.957	0.690	31.030	-0.441	116.336	62.922	32.513	117.040	-107.634	-65.975	0.00012003	4.3613e-05	5.5851e-05	697.82	2.0443e-06	3.0526e-06	763.77	150.84	7.786e-07	3.8496e-06	192.42	51.087	39.535	11.295	2.0539e-06	15.793	7.8037e-05	7.4724e-05	2.1016e-05	697.18	8.1689e-07	7.9333e-07	763.72	152.03	8.0841e-07	7.8821e-07	191.56	51.829	40.088	11.549	7.892e-07	16.069	-155.627	-80.152	-90.391	-154.146	-1.877	-14.586	-154.359	-146.682	-44.426	-68.924	-146.891	-140.906	-140.104	-132.210	98.663	-132.537	-8191	255	
36120.516	1	1	0	0	0.18278	0.037042	0.016897	0.13313	0.18389	0.12689	0.2835	0.10262	0.17085	0.17259	0.0804	0.16317	0.12293	0.22669	0.13987	0.24633	-3.175	-3.0271	-2.7271	-3.4833	-2.8312	-3.0833	-3.225	-2.65	-3.3563	-3.0667	-2.7396	-3.2479	-2.9771	-2.9792	-3.4521	-2.6875	-71.633	28.490	151.402	173.661	-125.710	32.146	125.971	21.126	-103.525	71.971	-2.061	26.385	22.497	144.653	82.895	164.163	0.00010388	0.00012861	0.00010522	694.97	1.5425e-06	6.0379e-07	757.78	151.03	9.2101e-07	1.0674e-06	191.83	51.359	39.581	11.343	7.5008e-07	15.764	7.8169e-05	7.6619e-05	2.0879e-05	694.77	8.4362e-07	8.2741e-07	762.66	151.79	8.1843e-07	8.2182e-07	191.8	52.036	40.066	11.536	8.1614e-07	16.088	-137.736	-48.539	-105.294	-154.239	44.008	-7.254	-154.377	-146.946	-7.222	-37.064	-147.399	-140.514	-140.308	-132.298	-126.878	-133.943	-8191	255	
36120.609	1	1	0	0	0.21147	0.076767	0.065138	0.1759	0.19004	0.09566	0.16159	0.12889	0.28593	0.12747	0.084574	0.22528	0.30813	0.12876	0.11705	0.20078	-2.9688	-3.1021	-2.7792	-3.5729	-2.8104	-3.0396	-3.4833	-2.4688	-3.1188	-3.1458	-2.6021	-3.5854	-2.8854	-2.8042	-3.3438	-2.6833	67.237	136.572	-28.845	174.587	188.222	61.056	97.912	88.189	-98.567	54.143	-21.183	131.335	153.415	59.968	-50.707	-53.239	0.00013478	0.00031256	3.2144e-05	695.23	7.0461e-07	1.5844e-06	763.47	150.83	1.1777e-06	2.5593e-06	192.1	50.778	39.931	11.31	2.0142e-06	15.726	7.926e-05	7.3346e-05	2.0948e-05	695.88	8.6606e-07	8.2294e-07	762.57	152.16	8.2971e-07	8.2204e-07	191.9	51.754	40.164	11.53	8.5142e-07	16.106	-118.050	-42.937	-99.715	-154.123	-14.621	-5.744	-153.985	-146.759	-76.330	20.467	-146.986	-140.627	-140.197	-132.117	9.973	-133.011	-8191	255	
36120.730	1	1	0	0	0.16962	0.2102	0.11447	0.14694	0.25414	0.13057	0.083166	0.2155	0.12948	0.14353	0.080077	0.065823	0.082358	0.16355	0.075459	0.13717	-2.6417	-3.1937	-2.4458	-3.5208	-2.8417	-2.8792	-3.35	-2.7708	-3.0854	-3.3146	-2.5396	-3.2812	-2.9437	-2.7812	-3.2729	-2.7583	82.161	-26.301	170.291	-58.960	76.971	190.964	-81.299	179.997	-122.247	-150.032	-141.859	149.183	-58.289	157.596	127.273	-146.243	0.00013104	0.00010552	5.3674e-05	699.71	1.2198e-06	2.8262e-06	762.18	151.59	1.1695e-06	2.8371e-07	192.59	51.207	39.66	11.403	1.4203e-06	15.744	8.2611e-05	8.0195e-05	2.2651e-05	697.21	8.9673e-07	8.9379e-07	763.92	152.09	8.9236e-07	8.7686e-07	191.96	51.979	40.217	11.58	8.5503e-07	16.059	-152.281	-72.568	-44.172	-154.021	0.624	22.115	-153.902	-146.664	6.241	11.886	-147.234	-140.651	-140.147	-132.092	18.838	-133.358	-8191	255	
36120.824	1	1	0	0	0.043953	0.08478	0.19429	0.15958	0.15842	0.1275	0.02383	0.2088	0.12026	0.23577	0.066684	0.078285	0.27433	0.22619	0.018543	0.12304	-2.8688	-3.2042	-2.5708	-3.5604	-3.1271	-2.6729	-3.4896	-2.8208	-2.8604	-3.3021	-2.6604	-3.3583	-3.1646	-2.7542	-3.4771	-2.9271	131.185	123.893	92.291	-150.512	125.040	53.164	173.501	26.422	-159.719	188.582	-48.707	181.658	161.851	-88.642	28.898	131.730	8.953e-05	0.00011758	0.00012984	697.36	3.1413e-07	1.7216e-06	761.59	150.93	2.2775e-06	2.8858e-06	193.79	50.78	39.782	11.243	6.3229e-07	15.822	8.1323e-05	8.0664e-05	2.2003e-05	696.66	8.942e-07	8.6406e-07	763.78	152.18	9.0229e-07	8.874e-07	192.54	51.993	40.143	11.54	8.8532e-07	16.123	-147.959	-109.028	-10.091	-153.838	108.116	-125.893	-154.092	-146.788	-73.379	-59.275	-147.390	-140.791	-140.495	-132.309	-65.320	-133.262	-8191	255	
36120.922	1	1	0	0	0.18491	0.23153	0.10624	0.11829	0.23543	0.073618	0.16743	0.046039	0.01759	0.10683	0.3129	0.16614	0.15222	0.084694	0.16916	0.020149	-2.4313	-3.3354	-2.6521	-3.3479	-3.0667	-2.5667	-3.6208	-2.8708	-3.0083	-3.5104	-2.8187	-3.25	-3.2062	-2.7292	-3.4583	-2.9083	-78.355	-50.663	157.806	95.030	-107.155	62.503	101.861	60.004	-101.942	71.621	-79.734	55.862	-87.368	-69.750	-80.015	-109.324	0.00013886	0.00011658	4.1511e-05	699.35	2.2989e-06	2.937e-06	760.68	150.92	2.1737e-06	2.2432e-06	192.07	51.148	39.586	11.276	2.096e-06	15.828	8.4421e-05	7.976e-05	2.2701e-05	696.79	8.9405e-07	8.6486e-07	764.37	152.19	8.6572e-07	8.75e-07	191.93	51.973	40.117	11.494	8.5524e-07	16.108	-123.128	39.795	-101.671	-154.161	-27.843	87.794	-154.313	-146.466	-22.954	-40.204	-147.719	-140.383	-140.520	-132.754	7.160	-133.050	-8191	255	
36121.016	1	1	0	0	0.13764	0.24027	0.26742	0.25994	0.18079	0.18362	0.13201	0.31287	0.15105	0.21447	0.3795	0.2541	0.14005	0.040537	0.09903	0.24035	-2.3875	-3.4354	-2.7083	-3.1958	-3.1271	-2.6063	-3.4	-2.7917	-2.7812	-3.3979	-2.9292	-2.9125	-3.1521	-2.6583	-3.1937	-3.1312	112.901	83.732	129.922	188.330	-0.446	99.136	111.591	150.380	-84.099	-137.227	120.945	-129.384	-83.126	52.114	-2.311	-141.659	0.0001588	0.00015528	0.00010206	696.56	2.2101e-06	2.705e-06	760.2	150.9	1.3773e-06	2.9262e-06	192.11	51.264	39.57	11.455	9.5308e-07	15.866	8.0547e-05	7.6416e-05	2.1225e-05	695.66	8.5616e-07	8.4807e-07	762.98	151.97	8.5512e-07	8.4733e-07	192.09	51.936	40.091	11.57	8.6657e-07	16.096	-151.750	-150.481	-29.566	-154.307	-13.352	-28.380	-154.289	-146.758	-39.390	-27.626	-147.527	-140.716	-139.913	-132.162	-18.527	-133.074	-8191	255	
36121.113	1	1	0	0	0.13882	0.15367	0.083826	0.15602	0.10754	0.21374	0.12156	0.21493	0.19088	0.21309	0.15705	0.11382	0.13822	0.18257	0.17249	0.27231	-2.275	-3.3063	-2.8875	-3.2062	-3.2917	-2.5958	-3.4417	-3.1604	-2.6437	-3.4229	-2.9479	-2.9667	-3.4062	-2.5375	-3.2333	-3.1625	163.076	132.499	100.849	187.886	70.120	-15.809	-29.054	169.873	115.105	-71.415	63.334	-158.525	181.480	-92.517	91.101	-77.749	0.00012761	0.00019244	6.9337e-05	693.21	1.44e-06	8.8858e-07	758.79	150.9	9.6624e-07	6.4022e-07	192.76	51.133	39.763	11.305	9.54e-07	15.777	8.3262e-05	7.6608e-05	2.1719e-05	694.72	8.4929e-07	8.6128e-07	762.58	151.78	8.5064e-07	8.2439e-07	192.02	51.902	40.108	11.531	8.6593e-07	16.115	-130.960	-46.931	-75.038	-153.987	-80.743	37.050	-154.297	-146.771	-29.230	107.506	-147.109	-140.672	-139.942	-132.620	41.930	-133.443	-8191	255	
36121.211	1	1	0	0	0.065988	0.11106	0.11713	0.063277	0.13163	0.12333	0.070746	0.19954	0.16897	0.029439	0.19061	0.21708	0.070586	0.16302	0.17526	0.17174	-2.2167	-3.3479	-2.7812	-2.8875	-3.4	-2.6375	-3.0667	-3.1188	-2.7479	-3.3688	-2.9583	-2.8187	-3.3875	-2.8354	-2.8812	-3.3979	159.804	180.320	166.730	147.951	116.797	58.036	51.717	100.860	-103.734	-59.770	94.629	121.625	-153.662	-90.227	-40.648	56.522	0.00010173	0.0001596	4.5548e-05	693.66	1.4436e-06	1.7895e-07	758.34	150.02	8.5781e-07	1.6761e-06	192.17	50.931	39.858	11.223	7.6208e-07	15.854	8.2357e-05	7.7119e-05	2.1219e-05	694.82	8.4229e-07	8.3911e-07	762.29	151.81	8.5259e-07	8.3886e-07	192	51.723	40.055	11.531	8.2165e-07	16.076	-138.538	-42.632	20.503	-154.139	19.714	-49.986	-154.256	-146.466	-9.368	39.678	-147.487	-140.322	-139.860	-132.217	21.247	-133.210	-8191	255	
36121.328	1	1	0	0	0.060239	0.22927	0.075491	0.17996	0.13725	0.21559	0.18688	0.13567	0.20702	0.038006	0.22994	0.11777	0.2947	0.17034	0.30653	0.079084	-2.1708	-3.2	-3.0917	-2.8063	-3.3937	-2.8438	-3.1042	-3.2812	-2.6354	-3.375	-3.2062	-2.7	-3.4562	-2.8771	-2.8833	-3.4813	30.514	-78.187	-48.278	64.810	-144.292	-89.678	168.526	28.032	-125.784	-74.640	163.684	88.064	169.446	9.669	123.405	157.891	0.00014402	0.00015773	2.6245e-05	695.44	1.6927e-06	2.6305e-06	759.28	151.37	2.4112e-06	2.7589e-06	191.65	51.478	39.203	11.269	8.4504e-07	15.835	7.9298e-05	7.5671e-05	2.0656e-05	695.98	8.3335e-07	8.163e-07	761.94	151.95	8.212e-07	7.9137e-07	191.27	51.874	39.769	11.499	8.0727e-07	16.005	-146.663	-121.638	-86.515	-154.201	-27.513	16.741	-154.193	-146.667	-10.792	-46.006	-147.233	-140.961	-140.059	-131.710	-32.857	-132.734	-8191	255	
36121.426	1	1	0	0	0.11387	0.19689	0.076616	0.27263	0.039454	0.16253	0.21628	0.090808	0.046639	0.15948	0.13753	0.086355	0.16522	0.058016	0.11774	0.13059	-2.3208	-3.025	-3.1875	-2.7271	-3.4562	-2.7583	-2.9583	-3.4646	-2.4125	-3.2438	-3.1854	-2.6958	-3.2646	-3.0292	-2.8875	-3.4479	152.971	-123.957	45.595	156.942	-68.445	77.536	99.464	-11.493	14.888	72.882	-52.206	19.256	105.346	145.829	-116.176	29.375	0.00013203	0.00021159	6.8857e-05	694.44	2.8355e-06	1.3917e-06	759.78	150.63	8.3169e-07	2.3759e-06	191.59	51.099	39.613	11.215	7.2442e-07	15.767	7.7574e-05	7.1722e-05	2.0496e-05	694.59	8.1942e-07	7.8376e-07	762.78	151.71	8.2459e-07	8.0512e-07	191.56	51.669	40.006	11.472	8.0081e-07	16.085	-152.388	-123.716	-52.692	-154.063	9.266	-10.257	-154.348	-146.936	-78.559	-52.778	-146.819	-140.836	-139.889	-132.555	6.445	-132.662	-8191	255	
36121.523	1	1	0	0	0.10332	0.22495	0.15189	0.12137	0.37874	0.12691	0.12609	0.036176	0.18532	0.13856	0.062839	0.28959	0.15635	0.22071	0.019323	0.20392	-2.3646	-3.2125	-3.0854	-2.9313	-3.3292	-3.0375	-2.9688	-3.4396	-2.8333	-3.0479	-3.2542	-2.45	-3.4062	-3.0792	-2.8479	-3.4417	-134.142	187.731	146.418	26.480	-111.477	-10.481	-30.615	-82.952	194.901	-37.468	-41.634	-110.553	77.119	184.452	-112.277	128.333	9.5252e-05	0.00018877	2.0048e-05	694.71	9.6235e-07	2.3093e-06	760.84	151.71	2.4414e-06	9.9452e-07	192.22	50.546	39.416	11.275	2.7082e-06	15.446	7.7531e-05	7.4448e-05	2.0844e-05	694.65	8.3431e-07	8.1707e-07	762.52	151.84	8.3193e-07	8.0336e-07	191.76	51.671	39.978	11.532	8.2938e-07	15.986	-152.974	-51.460	-101.336	-153.934	-27.631	31.355	-154.236	-146.917	14.321	10.984	-147.226	-140.223	-140.019	-132.318	1.320	-133.121	-8191	255	
36121.617	1	1	0	0	0.045294	0.031553	0.068405	0.044761	0.16551	0.16854	0.076769	0.22151	0.19242	0.11496	0.2228	0.14503	0.080506	0.1779	0.13866	0.012321	-2.5354	-3.0708	-3.2708	-2.6104	-3.3	-3.2562	-2.7938	-3.4458	-2.8146	-3.0042	-3.3583	-2.425	-3.3667	-3.2625	-2.8833	-3.4688	171.001	-75.619	121.608	-115.461	88.583	81.645	178.639	19.671	136.758	-111.786	134.217	194.319	-4.263	-138.752	-127.630	-25.620	0.00012125	8.8921e-05	0.00012711	695.45	7.9475e-07	2.0445e-06	760.13	150.82	9.7053e-07	1.4769e-06	192.13	51.134	39.295	11.246	6.5903e-07	15.643	7.8802e-05	7.6495e-05	2.0324e-05	694.09	8.2423e-07	8.1077e-07	761.29	151.58	8.4556e-07	8.1217e-07	191.51	51.677	39.917	11.498	8.2002e-07	16.021	-137.220	-111.040	-91.317	-154.201	-110.819	16.968	-154.077	-146.666	-30.104	-62.885	-147.513	-140.660	-140.527	-131.927	-10.615	-132.732	-8191	255	
36121.715	1	1	0	0	0.074226	0.058897	0.20152	0.061589	0.15504	0.1729	0.0992	0.12727	0.11097	0.16592	0.11913	0.0098255	0.22611	0.19432	0.11936	0.1364	-2.6729	-2.9083	-3.4	-2.8458	-3.1917	-3.3521	-2.9729	-3.5438	-3.0521	-2.8542	-3.4979	-2.7458	-3.2375	-3.2938	-2.6813	-3.5333	0.100	45.514	-38.467	34.466	24.648	88.923	169.914	112.386	75.636	143.586	62.931	-33.660	169.903	-90.778	63.492	120.229	0.00013031	0.00029858	9.8797e-05	694.7	2.3778e-06	2.2169e-06	759.45	151.22	1.7295e-06	2.1273e-06	192.57	50.864	39.82	11.342	1.9189e-06	15.731	8.0558e-05	7.6162e-05	2.0545e-05	693.81	8.5003e-07	7.9404e-07	760.37	151.74	8.3575e-07	8.1128e-07	191.91	51.668	40.039	11.488	8.1562e-07	16.024	-135.137	-67.752	-81.057	-153.902	-35.315	-112.646	-154.012	-146.883	-25.010	3.553	-146.668	-140.883	-140.355	-132.219	40.816	-133.035	-8191	255	
36121.809	1	1	0	0	0.13549	0.087195	0.11203	0.061369	0.11958	0.071899	0.23759	0.21395	0.060231	0.079141	0.25727	0.26671	0.18071	0.035894	0.23044	0.20037	-2.6979	-2.8187	-3.3521	-2.9521	-2.95	-3.4104	-2.7625	-3.1813	-3.1771	-2.8417	-3.5646	-2.9083	-3.0042	-3.3521	-2.5875	-3.3333	179.234	40.243	170.179	-105.028	190.880	-21.011	100.072	-40.984	-47.186	141.997	147.077	97.907	160.253	175.288	140.297	91.196	0.00012051	0.00015788	6.6493e-05	694.6	1.7887e-06	1.9608e-06	756.61	150.98	1.026e-06	1.6687e-06	192.03	50.728	39.201	11.37	2.1516e-06	15.617	7.686e-05	7.355e-05	2.0377e-05	693.73	8.4741e-07	8.1923e-07	760.19	151.83	8.1892e-07	8.0107e-07	191.68	51.651	39.809	11.54	8.4625e-07	15.991	-154.575	-8.497	-106.723	-154.039	-43.102	30.240	-154.193	-147.204	-3.401	-55.926	-147.394	-140.436	-140.246	-132.436	8.424	-132.735	-8191	255	
36121.906	1	1	0	0	0.14531	0.15659	0.18178	0.18054	0.266	0.088146	0.083724	0.097052	0.11987	0.033315	0.088447	0.098245	0.3294	0.21831	0.10975	0.1437	-2.6937	-2.5521	-3.3875	-2.9208	-2.9021	-3.3833	-2.7083	-3.1292	-3.2542	-2.6083	-3.3479	-3.0167	-2.8333	-3.1625	-2.6188	-3.0687	61.108	-134.635	-13.766	-162.700	-110.978	188.715	131.614	193.162	-83.292	-78.115	-119.360	24.298	41.228	92.323	-20.952	108.124	0.00014276	0.0003279	8.4167e-05	694.76	1.6598e-06	5.1522e-06	756.82	151.44	1.3756e-06	4.6331e-07	191.23	51.101	39.644	11.376	7.375e-07	15.67	7.9351e-05	7.5374e-05	2.1017e-05	693.91	8.4568e-07	8.3362e-07	761.08	151.86	8.4691e-07	8.2779e-07	191.33	51.811	39.933	11.529	8.4376e-07	16.064	-146.522	-60.974	-53.440	-154.028	21.105	12.073	-154.026	-146.954	-75.058	174.742	-147.455	-140.564	-139.846	-132.431	56.336	-132.964	-8191	255	
36122.004	1	1	0	0	0.14578	0.44929	0.24353	0.32264	0.091441	0.11136	0.055528	0.13999	0.15263	0.080808	0.10715	0.19451	0.17935	0.073166	0.21212	0.1596	-2.8792	-2.725	-3.3208	-3.1562	-2.6667	-3.3042	-2.8667	-3.0563	-3.4583	-2.6833	-3.3979	-3.0563	-2.6167	-3.4625	-2.7958	-2.9688	148.873	94.234	-92.546	64.365	69.197	86.372	145.919	-142.981	-159.560	32.537	-68.271	118.296	-81.138	-137.375	66.604	-43.890	0.0001078	0.00020443	2.6529e-05	693.8	2.8793e-07	1.087e-06	757.87	150.33	2.298e-06	3.0579e-06	191.93	51.127	39.441	11.295	1.498e-06	15.757	7.8328e-05	7.5775e-05	2.1371e-05	694.39	8.6547e-07	8.2392e-07	760.2	151.38	8.417e-07	8.3784e-07	191.42	51.716	39.973	11.48	8.5376e-07	16.093	-149.188	-30.425	-59.146	-154.213	-117.146	16.119	-154.088	-146.666	41.391	-12.060	-147.420	-140.724	-140.178	-131.963	30.054	-132.937	-8191	255	
36122.098	1	1	0	0	0.28738	0.035488	0.13844	0.1872	0.14038	0.083127	0.18177	0.22924	0.11194	0.14608	0.27806	0.14687	0.14955	0.28613	0.22115	0.080075	-2.9437	-2.4062	-3.2833	-3.2229	-2.7354	-3.1833	-2.9896	-2.8167	-3.3375	-2.5292	-3.1437	-3.1625	-2.9208	-3.2687	-2.8604	-2.9271	58.825	168.525	-67.084	-129.503	-137.248	-81.334	-85.047	168.811	32.975	43.014	-76.593	-52.566	-120.473	38.433	186.013	113.306	0.00015077	0.00018215	6.5758e-05	694.54	8.5934e-07	4.4353e-06	760.97	150.59	9.8774e-07	1.9064e-06	191.58	50.304	39.744	11.356	6.2224e-07	15.754	7.9634e-05	7.6828e-05	2.0867e-05	694.26	8.3616e-07	8.1531e-07	762.37	151.87	8.5126e-07	8.4414e-07	191.63	51.662	40.113	11.581	8.3976e-07	16.026	-141.894	-34.988	-69.558	-154.039	-32.486	44.908	-154.286	-146.937	9.672	-62.796	-147.571	-140.804	-140.394	-131.889	-60.022	-133.356	-8191	255	
36122.219	1	1	0	0	0.089444	0.13996	0.13765	0.17124	0.21204	0.036193	0.27366	0.25305	0.144	0.16737	0.22911	0.17443	0.3025	0.033373	0.16551	0.024625	-3.0271	-2.5542	-3.0667	-3.2583	-2.6021	-3.4146	-3.0396	-2.9208	-3.2979	-2.8292	-2.9854	-3.1063	-2.7042	-3.325	-3	-2.6979	42.567	66.245	141.456	-61.458	-31.333	-14.025	-140.433	57.470	-83.503	-105.554	46.520	166.386	1.691	65.981	107.792	-66.716	0.00011164	0.0001068	1.8222e-05	693.93	2.0322e-06	2.1942e-06	759.29	150.46	2.4926e-06	1.445e-06	191.78	50.514	39.552	11.393	1.4493e-06	15.704	8.0138e-05	7.7814e-05	2.0689e-05	695.21	8.7792e-07	8.0941e-07	763.29	151.4	8.4556e-07	8.101e-07	191.37	51.677	39.869	11.554	8.3711e-07	15.995	-160.478	-45.103	-136.549	-153.989	7.791	68.725	-154.094	-146.859	-39.295	130.133	-147.226	-140.975	-139.913	-132.381	34.910	-132.464	-8191	255	
36122.316	1	1	0	0	0.17193	0.11182	0.098794	0.15978	0.18716	0.16243	0.010289	0.15975	0.073286	0.117	0.21165	0.13128	0.09444	0.12046	0.28008	0.20358	-3.0354	-2.5812	-2.9979	-3.4125	-2.6229	-3.2042	-3.0729	-2.7583	-3.4792	-2.8271	-2.9125	-3.2708	-2.6104	-3.2167	-3.0917	-2.7	23.657	115.205	-28.245	169.626	-147.246	37.355	64.728	-34.979	165.471	12.169	120.489	92.119	155.306	-25.334	-61.193	-68.884	0.00014797	0.00014767	1.1277e-05	695.47	1.851e-06	1.1509e-06	754.63	151.99	4.8821e-07	1.3132e-06	192.01	50.637	39.481	11.298	1.4623e-06	15.744	7.8347e-05	7.7193e-05	2.1031e-05	695.44	8.5428e-07	8.3356e-07	761.09	151.58	8.4639e-07	8.2612e-07	191.36	51.601	39.89	11.503	8.4831e-07	16.038	-158.675	-45.745	-103.782	-154.039	-0.721	98.801	-154.171	-146.700	-67.459	92.932	-147.385	-140.932	-140.057	-132.351	-29.752	-133.520	-8191	255	
36122.410	1	1	0	0	0.1636	0.13781	0.1767	0.33165	0.21876	0.1717	0.11727	0.23829	0.086975	0.02801	0.1108	0.2106	0.16834	0.14396	0.32269	0.1498	-3.0396	-3.0104	-2.7208	-3.3792	-2.5583	-3.0917	-3.3396	-2.6521	-3.3979	-2.8604	-2.8896	-3.3896	-2.5938	-3.0729	-3.2396	-2.6083	-35.733	45.127	-37.408	62.812	164.694	-27.023	94.440	-62.453	-131.390	188.077	145.089	166.311	142.560	-141.762	-132.861	-51.634	0.00010736	0.00023546	3.9315e-05	693.56	6.6484e-07	1.9803e-06	757.44	150.93	1.927e-06	1.2828e-06	192.5	50.794	39.34	11.299	1.0041e-06	15.763	7.9799e-05	7.7656e-05	2.0967e-05	693.96	8.4975e-07	8.2402e-07	761.71	151.8	8.343e-07	8.3861e-07	191.61	51.687	39.917	11.548	8.1737e-07	16.059	-157.846	-71.774	133.564	-153.979	-140.977	-50.856	-154.118	-146.479	-46.045	-130.075	-147.390	-140.476	-140.778	-132.247	30.181	-133.017	-8191	255	
36122.508	1	1	0	0	0.09003	0.02624	0.06041	0.10514	0.15904	0.12097	0.1883	0.094772	0.080954	0.14215	0.26054	0.15485	0.24005	0.11085	0.046482	0.20775	-2.9479	-3.0125	-2.7583	-3.5229	-2.7812	-3.1708	-3.2625	-2.6667	-3.2583	-2.9396	-2.5896	-3.5	-2.7438	-2.9667	-3.3667	-2.5542	-45.635	147.865	153.882	47.658	-25.846	61.113	33.894	-139.189	64.303	-42.053	-42.067	148.938	137.963	-109.533	155.509	-73.679	0.00013093	8.6149e-05	3.1125e-05	693.97	4.7374e-07	7.4936e-07	757.13	151.42	2.5709e-06	2.806e-06	191.72	51.169	39.495	11.287	1.8969e-06	15.655	8.1213e-05	7.7712e-05	2.1721e-05	694.14	8.4966e-07	8.3825e-07	761.21	151.92	8.458e-07	8.2779e-07	191.25	51.73	39.927	11.466	7.9616e-07	16.022	-143.311	-14.056	-100.018	-153.942	-161.641	122.159	-154.031	-146.942	-19.371	35.099	-147.088	-141.074	-140.412	-131.947	-1.065	-133.279	-8191	255	
36122.602	1	1	0	0	0.032074	0.16358	0.24068	0.20609	0.085452	0.25746	0.127	0.20102	0.34505	0.10385	0.078859	0.087352	0.070133	0.15552	0.078037	0.094874	-2.8708	-3.0042	-2.9375	-3.5167	-2.7417	-2.9229	-3.3521	-2.5354	-3.0875	-3.3708	-2.8708	-3.2562	-2.9667	-2.9958	-3.4792	-2.7938	16.190	11.621	-5.234	173.641	129.338	123.734	185.087	158.117	54.732	13.036	100.332	-6.983	179.122	16.717	46.822	84.348	0.00013406	9.0746e-05	3.7089e-05	695.32	1.9571e-06	1.2616e-06	759.32	151.05	1.5783e-06	2.1641e-06	192	51.141	39.846	11.345	2.1409e-06	15.757	7.8667e-05	7.5151e-05	2.1044e-05	694.36	8.5521e-07	8.3661e-07	761.68	151.69	8.5579e-07	8.2671e-07	191.32	51.672	40.017	11.493	8.2707e-07	16.072	-141.990	-91.836	-41.904	-153.883	-40.471	27.282	-154.229	-147.098	-19.188	-27.058	-147.719	-140.600	-140.035	-132.405	0.803	-132.833	-8191	255	
36122.699	1	1	0	0	0.25946	0.24615	0.13328	0.28419	0.1351	0.025325	0.25976	0.23876	0.12815	0.16345	0.1283	0.11957	0.14574	0.12951	0.10627	0.17987	-2.7438	-3.2188	-2.6917	-3.3458	-2.8208	-2.7938	-3.55	-2.7708	-3.025	-3.3458	-2.4729	-3.5146	-3.0729	-2.9875	-3.4188	-2.7771	-102.035	32.153	-114.226	-44.064	-78.069	8.306	118.926	86.871	137.361	5.297	105.492	36.357	-113.379	-156.432	-31.990	123.031	0.00013083	0.00023078	3.687e-05	697.25	1.5368e-06	1.6579e-06	759.85	151.29	6.2724e-07	1.1629e-06	190.67	51.048	39.228	11.227	1.9326e-06	15.743	8.0825e-05	7.5272e-05	2.0935e-05	695.02	8.7071e-07	8.3087e-07	762.88	151.6	8.4732e-07	8.2358e-07	191.12	51.838	39.87	11.511	8.2039e-07	16.064	-158.526	-33.341	-18.888	-154.267	25.155	34.804	-154.231	-146.677	-21.319	137.699	-147.186	-140.467	-139.400	-132.401	8.283	-133.096	-8191	255	
36122.816	1	1	0	0	0.24304	0.27238	0.0095602	0.11273	0.051665	0.1991	0.066733	0.10785	0.16171	0.2288	0.10234	0.20993	0.35675	0.0078522	0.24498	0.28715	-2.6417	-3.3063	-2.6083	-3.3937	-3.1354	-2.7875	-3.5771	-2.8229	-2.9229	-3.4146	-2.7021	-3.5375	-3.1042	-2.6021	-3.45	-2.8917	-153.568	-133.443	39.940	128.530	91.369	82.413	-46.157	-129.917	82.866	-24.504	14.011	-158.225	96.000	62.591	59.875	112.357	0.00013471	0.00013405	8.8575e-05	693.99	4.1091e-07	1.5246e-06	762.52	150.48	9.651e-07	8.3385e-07	190.14	50.692	39.739	11.278	2.8488e-06	15.651	7.9683e-05	7.7396e-05	2.1582e-05	693.95	8.5499e-07	8.1917e-07	761.78	151.66	8.3582e-07	8.1573e-07	190.89	51.535	39.923	11.496	8.2987e-07	16.056	-139.221	-103.489	-40.021	-154.094	-39.974	15.345	-154.194	-146.422	1.929	18.452	-147.100	-140.570	-140.041	-132.155	-7.604	-132.875	-8191	255	
36122.914	1	1	0	0	0.18555	0.18574	0.11948	0.10087	0.29748	0.10478	0.15226	0.094614	0.16355	0.039036	0.18786	0.12402	0.1447	0.06109	0.10671	0.10527	-2.3625	-3.2479	-2.8229	-3.0979	-3.125	-2.6375	-3.325	-2.8021	-2.9167	-3.5062	-2.7438	-3.2021	-3.2542	-2.6	-3.3208	-2.8	170.475	48.130	-81.315	167.717	-56.154	103.962	81.971	173.927	127.743	23.315	186.370	115.483	-119.542	152.201	-64.603	-162.120	0.00014974	0.00011677	9.7874e-05	694.89	1.5381e-06	1.7718e-06	757.76	149.9	9.2232e-07	1.7028e-06	191.26	50.433	39.584	11.411	4.5973e-07	15.777	8.0162e-05	7.6399e-05	2.1487e-05	694.37	8.4898e-07	8.3677e-07	760.09	151.19	8.3748e-07	8.1762e-07	190.91	51.52	40.039	11.54	8.3027e-07	16.053	-145.477	-83.992	-73.072	-154.045	-57.250	56.951	-154.243	-146.842	-54.552	-42.391	-147.129	-140.833	-139.860	-132.068	-86.233	-132.737	-8191	255	
36123.012	1	1	0	0	0.046605	0.071143	0.18447	0.10866	0.18166	0.21763	0.14715	0.28933	0.099457	0.35764	0.10965	0.04267	0.27362	0.15115	0.035838	0.11656	-2.4958	-3.3875	-2.65	-3.0646	-3.1583	-2.6958	-3.3375	-3.1271	-2.7188	-3.4021	-2.8625	-2.9625	-3.3417	-2.5687	-3.2833	-3.0604	55.368	-16.676	-97.341	179.182	136.913	71.720	143.460	79.287	173.698	-79.161	-93.506	-14.610	90.941	121.189	-119.785	128.550	0.00014994	0.00013013	5.4615e-05	695.68	3.1335e-06	1.8211e-06	761.49	150.59	1.616e-06	5.3405e-07	192.9	50.727	39.752	11.244	2.3306e-06	15.712	8.1751e-05	7.5507e-05	2.109e-05	694.96	8.5561e-07	8.2642e-07	761.17	151.69	8.434e-07	8.3641e-07	191.53	51.713	39.999	11.486	8.2639e-07	16.07	-151.246	-66.276	-83.056	-153.890	-41.288	10.669	-154.173	-146.486	-18.707	156.551	-147.590	-140.940	-140.091	-132.364	-32.320	-132.353	-8191	255	
36123.105	1	1	0	0	0.2032	0.21836	0.13792	0.21668	0.21985	0.2429	0.15555	0.25082	0.25032	0.23471	0.13522	0.26773	0.16655	0.21553	0.2313	0.21395	-2.4083	-3.3312	-2.7438	-2.8229	-3.2938	-2.8542	-3.3	-3.1208	-2.6042	-3.3771	-2.7979	-2.7979	-3.4729	-2.6437	-3.075	-3.3333	-26.086	65.664	-2.872	-136.201	96.661	-139.847	-34.731	128.843	53.588	93.839	-138.610	-136.437	-66.545	-103.121	-27.709	78.756	0.00013464	0.00011176	4.6453e-05	694.24	3.5099e-07	2.3229e-06	758.47	150.04	2.7169e-06	1.2405e-06	191.04	50.674	39.607	11.227	2.0851e-06	15.617	7.8533e-05	7.3417e-05	2.0794e-05	692.53	8.4516e-07	8.0342e-07	760.61	151.24	8.2826e-07	8.1023e-07	190.95	51.625	39.96	11.497	8.4117e-07	16.023	-130.959	-54.429	-131.406	-154.500	-32.637	-27.590	-154.358	-146.862	-41.016	20.999	-147.524	-140.621	-140.225	-132.333	49.933	-133.177	-8191	255	
36123.203	1	1	0	0	0.16577	0.30169	0.12494	0.15135	0.07491	0.1738	0.25526	0.09091	0.077971	0.33241	0.17632	0.091098	0.16438	0.15902	0.24542	0.31374	-2.2167	-3.3312	-2.75	-2.8625	-3.2583	-2.7604	-3.3187	-3.3333	-2.6854	-3.3208	-3.0625	-2.7917	-3.3167	-2.7687	-3.05	-3.2229	-117.291	-92.887	25.348	176.812	-120.481	-51.774	52.631	-115.477	87.924	-65.809	96.512	-82.224	85.712	-126.274	-123.445	192.260	0.00013214	0.00012062	9.552e-06	690.33	1.3929e-06	1.8153e-06	759.34	150.45	1.9467e-06	3.3071e-06	192.21	50.458	39.46	11.239	7.7041e-07	15.58	7.9944e-05	7.2894e-05	2.0887e-05	691.46	8.1982e-07	8.0216e-07	760.78	151.6	8.5619e-07	7.8685e-07	191.33	51.506	39.879	11.458	8.2159e-07	16.003	-143.129	42.815	97.561	-153.842	-48.707	-79.644	-154.384	-146.928	-39.680	15.364	-146.901	-140.741	-139.853	-132.482	100.695	-133.116	-8191	255	
36123.301	1	1	0	0	0.083368	0.22313	0.15225	0.19807	0.074338	0.1719	0.25077	0.27885	0.19031	0.31304	0.093065	0.26656	0.020429	0.14644	0.10181	0.22092	-2.0729	-3.2438	-3.1333	-2.7458	-3.3458	-2.8438	-2.9854	-3.3792	-2.6625	-3.2021	-3.2021	-2.6312	-3.5187	-2.85	-2.8167	-3.3875	-16.320	-162.575	-49.749	-116.228	145.922	160.113	18.219	176.995	-153.288	-124.021	-13.754	-129.670	-49.115	-34.620	-40.389	84.560	0.0001312	0.00026204	6.7242e-05	692.25	2.3178e-06	2.3265e-06	756.61	151.14	1.8351e-07	2.6672e-06	191.51	50.929	39.388	11.18	2.2309e-06	15.691	7.9314e-05	7.5157e-05	2.0711e-05	693.35	8.3819e-07	8.1769e-07	760.16	151.62	8.2792e-07	8.362e-07	190.64	51.657	39.862	11.467	8.3936e-07	16.059	-148.062	-104.874	-152.383	-153.896	-46.378	-7.252	-154.177	-146.668	102.971	-18.997	-147.128	-141.003	-140.185	-131.948	-35.809	-132.624	-8191	255	
36123.395	1	1	0	0	0.23581	0.052327	0.060168	0.046854	0.12568	0.24876	0.072006	0.080115	0.064733	0.14456	0.21144	0.10941	0.14488	0.069511	0.13721	0.18697	-2.4542	-3.1896	-3.1333	-2.6625	-3.4583	-2.7479	-2.9292	-3.3563	-2.4854	-3.1333	-3.275	-2.45	-3.2646	-2.9625	-2.7271	-3.4104	194.306	146.818	-56.377	-81.258	162.345	165.660	55.983	62.359	115.892	22.998	104.636	176.768	-133.816	-79.188	-136.570	117.796	0.00012158	0.00010561	4.2797e-05	692.88	2.7982e-06	3.5636e-06	759.13	150.33	1.2968e-06	3.4133e-06	191.11	50.94	39.583	11.22	2.4676e-06	15.909	7.8279e-05	7.486e-05	2.1102e-05	692.54	8.3252e-07	8.389e-07	760.74	151.44	8.6073e-07	8.1431e-07	191.1	51.627	39.942	11.457	8.3911e-07	16.021	-156.858	-44.489	-126.969	-154.167	-9.437	-31.450	-154.398	-147.052	-95.938	17.486	-147.148	-140.945	-140.330	-132.261	-109.619	-132.726	-8191	255	
36123.516	1	1	0	0	0.19556	0.29506	0.13548	0.11036	0.30499	0.086108	0.39342	0.060921	0.2096	0.12409	0.0092888	0.21614	0.17209	0.14837	0.097087	0.099953	-2.1875	-3.0771	-3.1958	-2.7313	-3.3458	-2.8146	-2.7958	-3.6146	-2.7188	-3.05	-3.5062	-2.7021	-3.2542	-3.1458	-2.7229	-3.5042	37.000	138.154	-90.583	-163.892	-122.625	-102.533	85.816	130.389	35.575	-23.382	26.608	-148.861	181.420	71.723	54.870	173.840	0.00013084	0.00010226	6.9604e-05	695.71	1.019e-06	1.7567e-06	760.36	150.3	2.3339e-06	1.9354e-06	191.6	50.63	39.453	11.19	1.2562e-06	15.914	7.8406e-05	7.5154e-05	2.0746e-05	693.87	8.4331e-07	8.2071e-07	759.57	151.18	8.3995e-07	8.3849e-07	190.92	51.552	39.872	11.462	8.2806e-07	16.025	-148.891	-1.694	-75.767	-153.832	56.639	7.660	-154.406	-146.382	-66.901	-31.644	-147.334	-140.825	-139.790	-132.257	-40.937	-133.406	-8191	255	
36123.613	1	1	0	0	0.14684	0.13684	0.11665	0.29	0.096082	0.19354	0.18986	0.095825	0.1177	0.11035	0.096621	0.13518	0.13949	0.25482	0.097615	0.15153	-2.3771	-2.7646	-3.3229	-2.4521	-3.3229	-3.1562	-2.7771	-3.4562	-2.6625	-2.9396	-3.3917	-2.6063	-3.1292	-3.1229	-2.5938	-3.3646	169.093	-52.205	-158.931	148.113	-52.936	91.868	-122.859	104.000	81.087	166.807	29.982	-30.311	153.484	55.808	-134.888	-69.270	0.0001339	0.00013217	4.8915e-05	693.71	9.4693e-07	1.6391e-06	757.45	150.41	2.1093e-06	4.5891e-07	192.11	50.635	39.661	11.304	4.5969e-07	15.512	7.6663e-05	7.3242e-05	2.0054e-05	693.35	8.3936e-07	8.0611e-07	759.51	150.94	8.2829e-07	7.9486e-07	191.09	51.454	39.901	11.521	8.0247e-07	15.942	-147.958	-101.242	48.036	-154.144	90.864	94.494	-154.128	-146.586	-102.457	49.619	-147.287	-140.809	-140.296	-132.593	64.878	-132.917	-8191	255	
36123.684	1	1	0	0	0.12191	0.081919	0.15324	0.23452	0.18645	0.19373	0.14702	0.11692	0.16404	0.19728	0.12083	0.18175	0.1968	0.24127	0.05543	0.20815	-2.525	-2.7083	-3.35	-2.7458	-3.1937	-3.1104	-2.525	-3.4271	-2.9583	-2.7812	-3.5271	-2.7375	-2.9979	-3.4792	-2.6542	-3.4437	-121.683	-116.936	-74.199	162.023	41.207	120.008	187.091	74.659	-85.357	185.887	-17.599	159.675	-11.732	165.325	94.935	-131.982	0.00012198	0.00017297	2.3277e-05	693.09	2.1482e-06	1.9295e-06	758.81	150.25	9.8109e-07	1.512e-06	191.68	50.809	39.235	11.276	1.5139e-06	15.733	7.791e-05	7.3535e-05	1.9665e-05	692.52	8.3945e-07	7.9916e-07	760.08	151.32	8.3332e-07	8.2463e-07	190.68	51.465	39.849	11.483	8.1084e-07	16.01	-143.150	-44.279	-34.645	-154.019	-65.356	-124.488	-154.453	-146.700	-6.529	-8.310	-146.976	-140.992	-140.185	-131.917	-35.945	-133.171	-8191	255	
36123.781	1	1	0	0	0.0214	0.020668	0.25418	0.026599	0.099289	0.12567	0.068886	0.32921	0.19311	0.11568	0.31072	0.094851	0.023393	0.14453	0.19879	0.26009	-2.625	-2.775	-3.4458	-2.9062	-3.0083	-3.3667	-2.8479	-3.4688	-3.2583	-2.7396	-3.4458	-2.8812	-3.0062	-3.2625	-2.5958	-3.1583	-123.194	-58.408	19.802	3.995	-61.640	60.684	69.634	-163.215	-116.012	163.240	175.447	-102.693	168.562	55.370	9.570	193.784	0.00011314	0.00019443	5.871e-05	694.1	7.9281e-07	2.7994e-06	756.12	150.47	5.8109e-07	5.4856e-07	190.01	51.17	39.403	11.261	4.9569e-07	15.739	7.8112e-05	7.3519e-05	2.058e-05	692.06	8.0246e-07	8.2173e-07	759.67	151.49	8.1975e-07	8.0624e-07	190.39	51.661	39.82	11.476	8.2556e-07	16.006	-148.984	-91.794	-74.264	-153.766	3.865	-7.665	-154.352	-146.907	-30.213	50.179	-147.229	-140.761	-140.004	-132.410	-44.975	-132.755	-8191	255	
36123.898	1	1	0	0	0.088553	0.15761	0.11036	0.33463	0.16129	0.22003	0.01569	0.17908	0.096826	0.23308	0.26056	0.3397	0.34441	0.31181	0.17045	0.056704	-2.6813	-2.6937	-3.4396	-2.8458	-2.7188	-3.3312	-2.6542	-3.1583	-3.2875	-2.6896	-3.2229	-2.8167	-2.8146	-3.3458	-2.5917	-3.0687	-120.736	98.672	74.091	126.875	-104.541	-108.309	-61.851	-50.329	75.743	-88.611	-81.985	-61.897	-161.460	151.160	96.957	43.758	0.00011319	0.00011266	2.1164e-05	690.37	2.2005e-06	3.4086e-06	758.11	150.27	4.4491e-07	2.4333e-06	191.14	51.147	39.46	11.117	1.4047e-06	15.635	7.7498e-05	7.46e-05	2.0485e-05	690.85	8.5678e-07	8.2417e-07	759.04	151.49	8.3483e-07	8.3076e-07	191.25	51.695	39.88	11.423	8.0786e-07	15.989	-146.973	-91.687	26.458	-154.009	6.963	-18.929	-154.063	-146.728	-103.924	-65.661	-147.026	-140.776	-140.143	-132.282	-24.728	-133.382	-8191	255	
36123.996	1	1	0	0	0.10771	0.19313	0.12548	0.25643	0.18166	0.22945	0.18609	0.28866	0.19903	0.14645	0.12951	0.089645	0.24461	0.24058	0.19705	0.076554	-2.8604	-2.5667	-3.1708	-2.9771	-2.7521	-3.3958	-2.7229	-2.9604	-3.1833	-2.6521	-3.3167	-2.925	-2.7021	-3.3271	-2.8146	-2.9479	-148.007	118.309	-27.779	146.429	-136.281	187.082	33.155	174.419	48.023	7.452	17.130	56.132	117.173	36.370	39.763	-37.825	0.00014122	0.00010526	7.6475e-05	692.13	9.6127e-07	2.4604e-06	757	150.48	9.9388e-07	2.3309e-06	190.62	50.804	39.58	11.248	1.0721e-06	15.689	7.7267e-05	7.3869e-05	1.9845e-05	691.16	8.2882e-07	7.8502e-07	759.52	151.1	8.1269e-07	8.0865e-07	190.62	51.482	39.759	11.467	7.9834e-07	15.989	-148.561	-137.375	-19.908	-154.102	49.292	48.689	-154.232	-146.655	-39.950	-65.916	-147.584	-140.470	-140.066	-132.187	73.122	-132.941	-8191	255	
36124.090	1	1	0	0	0.10462	0.15052	0.2327	0.097158	0.19443	0.1536	0.19646	0.27112	0.21726	0.1251	0.20517	0.030763	0.12767	0.035265	0.11842	0.24691	-2.9813	-2.6104	-3.1667	-3.0542	-2.6729	-3.5	-2.8688	-2.7708	-3.3	-2.6688	-3.3604	-3.1771	-2.775	-3.2229	-2.8958	-2.8229	11.374	75.978	-156.074	184.021	190.646	73.696	106.002	183.379	-75.755	130.767	-4.787	27.593	-22.015	149.897	128.780	165.588	0.00010902	0.00028217	7.2591e-05	694.77	1.6271e-06	1.4537e-06	758.84	150.13	6.5573e-07	1.4049e-06	192.95	50.639	39.13	11.237	3.0708e-06	15.712	7.5502e-05	7.501e-05	2.0372e-05	692.48	8.3048e-07	8.1948e-07	759.05	150.92	8.2647e-07	7.9795e-07	191.06	51.386	39.759	11.492	8.037e-07	15.991	-146.929	-49.826	-74.886	-153.953	189.057	-88.246	-154.315	-146.327	-103.655	-122.015	-147.383	-140.850	-140.239	-132.071	-7.350	-133.303	-8191	255	
36124.211	1	1	0	0	0.25422	0.30789	0.092507	0.22881	0.14642	0.041755	0.13705	0.11267	0.1435	0.2016	0.023338	0.041257	0.19665	0.070889	0.11512	0.10407	-3.05	-2.7313	-2.9938	-3.2354	-2.6917	-3.2771	-3.0833	-2.525	-3.3625	-2.6104	-3.1063	-3.4146	-2.6813	-3.4417	-2.8396	-2.6688	-48.525	106.757	44.856	140.284	179.527	-77.175	36.807	-156.934	-66.039	-114.772	-160.629	169.787	-95.215	14.260	-33.034	23.412	0.00014442	0.00012427	3.5017e-05	692.11	8.328e-07	2.1745e-06	755.89	150.07	1.0344e-06	1.7659e-06	192.08	50.48	39.11	11.212	6.7804e-07	15.609	7.6731e-05	7.5905e-05	2.0555e-05	692.29	8.2413e-07	7.9385e-07	759.06	151.08	8.2096e-07	8.1613e-07	190.66	51.455	39.699	11.443	7.9523e-07	15.944	-135.404	-81.748	-25.959	-154.108	-14.596	101.256	-154.298	-146.775	22.151	-101.555	-147.150	-140.403	-140.245	-132.593	-47.124	-133.993	-8191	255	
36124.281	1	1	0	0	0.18757	0.21601	0.06123	0.1729	0.15204	0.28382	0.34178	0.44153	0.26535	0.18143	0.11252	0.19938	0.14235	0.068931	0.039973	0.091227	-2.9375	-2.6708	-2.9104	-3.3063	-2.7104	-3.3042	-3.0521	-2.7083	-3.3646	-2.7104	-2.8646	-3.275	-2.575	-3.2083	-2.9354	-2.8271	-67.406	58.629	-14.167	-135.889	-133.984	-9.002	104.903	68.113	125.182	17.672	-155.427	-132.021	190.402	-148.899	77.349	-118.231	0.00013178	0.0002799	4.1375e-05	692.21	1.0401e-06	1.2394e-06	757.71	149.75	1.3221e-06	1.4395e-06	190.34	50.536	39.416	11.255	1.1677e-06	15.653	7.6205e-05	7.4188e-05	2.0622e-05	691.43	8.2432e-07	7.8891e-07	759.24	150.88	8.0477e-07	7.9322e-07	190.55	51.327	39.662	11.435	7.9736e-07	15.983	-150.647	-54.406	-119.151	-153.764	-25.639	43.030	-154.213	-146.976	-48.960	-110.572	-146.934	-140.845	-140.362	-131.721	-4.848	-133.300	-8191	255	
36124.379	1	1	0	0	0.17123	0.15212	0.13633	0.079386	0.24593	0.13124	0.12211	0.12447	0.036695	0.18545	0.16572	0.22234	0.19233	0.066985	0.084984	0.24176	-3.0729	-2.775	-2.725	-3.5104	-2.4875	-3.2188	-3.2729	-2.5708	-3.2562	-2.7646	-2.8875	-3.2938	-2.6625	-3.0563	-3.1729	-2.6583	-61.991	36.760	-68.424	118.679	75.773	127.943	114.526	-31.838	111.356	-59.848	-73.284	191.945	-39.612	-127.291	-73.466	97.457	0.00013006	0.00017678	9.939e-05	689.29	5.4983e-07	2.0255e-06	755.51	150.58	2.3884e-06	2.2344e-06	190.46	50.868	38.954	11.274	1.1066e-06	15.618	7.7617e-05	7.4397e-05	2.0765e-05	690.29	8.4362e-07	7.9734e-07	758.2	150.85	8.3976e-07	8.2618e-07	190.45	51.571	39.633	11.442	8.1913e-07	15.985	-141.425	-11.717	-112.182	-154.042	50.035	9.440	-154.261	-146.752	-31.903	-5.692	-147.685	-140.925	-140.404	-132.078	70.578	-132.891	-8191	255	
36124.500	1	1	0	0	0.078836	0.30832	0.15806	0.090364	0.10421	0.21551	0.20907	0.078334	0.079727	0.07896	0.2717	0.43679	0.067774	0.26765	0.30215	0.25107	-2.9875	-2.8292	-2.5208	-3.4083	-2.6292	-3.1562	-3.4792	-2.6875	-3.2646	-2.9771	-2.525	-3.4208	-2.5604	-2.8688	-3.2542	-2.525	116.813	141.468	-6.681	43.216	149.321	-106.359	-21.305	-54.713	108.933	81.336	145.071	105.229	192.021	39.926	-141.315	136.841	0.00011977	0.00015978	5.4458e-05	695.83	1.3439e-06	2.6981e-06	755.02	150.58	1.9862e-06	2.326e-06	190.81	51.183	39.357	11.239	1.673e-06	15.735	7.6246e-05	7.3694e-05	2.0205e-05	691.99	8.3301e-07	8e-07	758.62	151.01	8.2059e-07	7.9062e-07	190.43	51.479	39.76	11.462	8.013e-07	15.956	-152.134	-128.474	-14.275	-154.284	-41.719	-19.929	-154.365	-146.773	18.034	-49.654	-147.258	-140.974	-139.880	-132.886	-24.961	-132.450	-8191	255	
36124.598	1	1	0	0	0.09131	0.35283	0.17538	0.54177	0.13224	0.052509	0.11336	0.085795	0.11554	0.090907	0.1093	0.15697	0.24149	0.46559	0.14752	0.11845	-2.9479	-3.1042	-2.6333	-3.4021	-2.7917	-2.9292	-3.4083	-2.6396	-3.2708	-3.0104	-2.5333	-3.3563	-2.8667	-2.7458	-3.1437	-2.6833	-101.640	-14.743	22.559	148.770	32.280	-67.389	188.161	191.894	-116.021	-57.981	-137.117	-64.423	-110.829	-68.152	-28.383	110.760	0.00012093	2.6935e-05	1.4568e-05	690.77	2.0834e-06	4.0511e-07	755.68	150.78	1.0642e-06	4.3073e-06	189.77	50.522	39.383	11.248	1.5879e-06	15.726	7.6758e-05	7.3335e-05	2.1277e-05	691.25	8.2059e-07	8.0463e-07	758.27	151.37	8.1306e-07	8.0049e-07	190.24	51.428	39.702	11.449	8.0179e-07	16.003	-153.932	93.989	-146.158	-154.116	-67.881	63.366	-153.972	-146.672	-76.225	-26.168	-146.792	-140.362	-140.131	-132.500	-14.736	-132.877	-8191	255	
36124.691	1	1	0	0	0.2937	0.089409	0.15038	0.1227	0.051595	0.14491	0.10746	0.13145	0.20943	0.10528	0.092101	0.098363	0.043886	0.17128	0.093035	0.011188	-2.7562	-3.2417	-2.6396	-3.4708	-2.8792	-2.7375	-3.6479	-2.7583	-3.1292	-3.2438	-2.6521	-3.1896	-3.0312	-2.7458	-3.4104	-2.6792	19.549	116.766	156.536	80.869	54.243	-63.190	168.881	124.791	-154.878	148.213	-82.721	-140.721	133.058	-108.554	-30.879	153.511	0.00012711	4.8665e-05	5.1428e-05	693.84	1.8795e-06	2.2121e-06	753.35	150.68	8.1962e-07	1.6454e-06	190.47	50.668	39.534	11.221	1.8611e-06	15.598	7.7539e-05	7.323e-05	2.0793e-05	692.95	8.2188e-07	8.0744e-07	756.97	151.33	8.0711e-07	7.9189e-07	190.22	51.308	39.795	11.432	7.9379e-07	15.954	-145.137	-145.214	-49.933	-154.037	27.412	-36.802	-154.070	-146.818	-33.057	15.672	-147.262	-140.458	-140.545	-132.397	74.665	-132.983	-8191	255	
36124.812	1	1	0	0	0.053798	0.093568	0.31391	0.074504	0.025289	0.1563	0.14157	0.018272	0.19764	0.18942	0.096612	0.11345	0.12726	0.16961	0.060304	0.10547	-2.6396	-3.1833	-2.4875	-3.45	-3.0687	-2.5187	-3.3792	-2.9062	-2.8583	-3.2667	-2.4667	-3.2125	-3.0354	-2.6958	-3.4542	-2.8708	-8.742	22.348	162.589	88.993	-38.611	-30.020	117.210	95.316	125.538	76.590	69.566	152.485	-72.506	-74.842	-160.491	177.156	0.00012249	0.0004017	4.0308e-05	690.43	2.6075e-06	2.45e-06	760.99	150.03	2.279e-06	2.8499e-06	190.72	50.902	39.334	11.216	6.4817e-07	15.717	7.8853e-05	7.6077e-05	2.0987e-05	692.01	8.4143e-07	8.3569e-07	759.16	151.19	8.3492e-07	8.1054e-07	190.53	51.563	39.679	11.427	8.2756e-07	15.998	-141.401	-118.071	-131.199	-154.112	28.406	189.554	-154.209	-146.549	7.958	-26.162	-147.303	-141.003	-140.243	-132.009	-44.292	-132.998	-8191	255	
36124.906	1	1	0	0	0.25506	0.22698	0.35594	0.15451	0.10873	0.11424	0.27203	0.0304	0.083906	0.12156	0.22159	0.17966	0.11902	0.17042	0.11576	0.071226	-2.5583	-3.2292	-2.6688	-3.1813	-3.125	-2.6396	-3.45	-2.8875	-2.6646	-3.2958	-2.5604	-3.0646	-3.2167	-2.6229	-3.3646	-3.0354	149.883	56.231	-132.646	-80.532	-155.444	77.902	69.428	151.660	16.423	96.689	40.628	-30.662	92.104	181.543	21.301	140.450	0.0001159	0.00018818	6.1077e-05	693.15	1.4237e-06	1.2517e-06	758.07	150.94	1.2708e-06	2.7622e-06	191.59	50.707	39.632	11.291	1.6475e-06	15.683	7.8767e-05	7.4835e-05	2.1283e-05	691.63	8.581e-07	8.4251e-07	759.51	151.16	8.7232e-07	8.3348e-07	190.8	51.481	39.865	11.465	8.3936e-07	15.993	-161.049	-13.494	-100.883	-154.018	174.519	4.944	-154.337	-146.535	-31.549	-30.002	-146.907	-140.670	-139.653	-132.020	15.556	-133.102	-8191	255	
36124.980	1	1	0	0	0.10896	0.18847	0.18926	0.3264	0.10651	0.14276	0.13935	0.068599	0.24576	0.08004	0.16555	0.097321	0.20892	0.061924	0.30154	0.072734	-2.2958	-3.3979	-2.6146	-3.0417	-3.2521	-2.6312	-3.3333	-3.0646	-2.5625	-3.4104	-2.7208	-2.9729	-3.2417	-2.775	-3.1958	-3.0479	133.158	-111.461	-73.297	169.320	47.726	190.068	-25.300	5.418	3.851	-3.970	-50.742	-102.616	53.600	-124.223	85.275	-110.805	0.00013067	0.0002571	3.6751e-05	695.81	1.3231e-06	7.3941e-07	757.09	149.03	8.7487e-07	1.718e-06	191.58	50.515	39.217	11.219	8.8356e-07	15.81	8.0857e-05	7.5617e-05	2.0951e-05	692.81	8.3058e-07	8.3266e-07	759.32	150.84	8.3545e-07	8.2164e-07	190.35	51.441	39.732	11.466	8.2239e-07	16.02	-144.480	-94.306	-73.178	-153.971	23.711	183.211	-154.393	-146.821	-49.538	-32.571	-147.397	-140.408	-140.113	-132.321	66.108	-133.284	-8191	255	
36125.074	1	1	0	0	0.13587	0.16278	0.17168	0.24367	0.20197	0.24345	0.25827	0.10041	0.046052	0.098116	0.26456	0.050527	0.17532	0.096109	0.073645	0.2046	-2.3937	-3.3708	-2.9208	-3.0187	-3.2042	-2.7854	-3.2375	-3.1813	-2.7667	-3.2646	-2.925	-2.7396	-3.3146	-2.5458	-3.1208	-3.1958	-107.554	-58.349	129.106	-157.283	-46.717	-73.800	129.910	96.087	17.288	19.394	59.424	-83.161	-5.491	-163.954	110.217	80.678	0.00013436	0.00020086	3.2898e-05	689.06	1.5196e-06	1.3559e-06	758.05	149.68	1.1006e-06	2.1377e-06	191.11	50.936	39.408	11.256	4.9942e-07	15.709	8.0496e-05	7.5202e-05	2.1108e-05	690.51	8.3757e-07	8.0981e-07	758.96	150.82	8.3252e-07	7.9897e-07	190.89	51.491	39.589	11.45	8.1115e-07	15.988	-152.888	10.188	-146.153	-154.175	-25.432	-9.390	-154.073	-146.389	-37.840	-5.223	-147.570	-140.714	-139.532	-132.021	-6.794	-133.405	-8191	255	
36125.195	1	1	0	0	0.045871	0.063218	0.13947	0.1505	0.22871	0.15445	0.14041	0.078278	0.21557	0.07421	0.084401	0.082731	0.10908	0.036908	0.071414	0.27973	-2.2521	-3.3875	-2.8583	-3.0021	-3.5583	-2.775	-3.2917	-3.2271	-2.6042	-3.4542	-3.0854	-2.6479	-3.3875	-2.7708	-3.1021	-3.4083	100.725	74.071	-56.813	183.898	21.256	116.176	-103.667	16.067	-148.529	-132.275	-127.671	149.849	3.212	-76.387	82.213	142.550	0.00015692	0.00013901	5.224e-05	693.16	7.8325e-07	2.1881e-06	756.43	149.66	1.7727e-06	1.2056e-06	190.03	50.801	39.021	11.245	2.4328e-07	15.5	7.8937e-05	7.5281e-05	2.1137e-05	691.8	8.3128e-07	8.2133e-07	757.49	150.6	8.4386e-07	8.0936e-07	190.25	51.338	39.744	11.429	8.3782e-07	15.916	-158.128	-142.464	-76.046	-154.231	5.481	-56.884	-154.394	-146.975	9.434	-53.057	-147.017	-140.896	-139.804	-132.026	-34.365	-132.527	-8191	255	
36125.293	1	1	0	0	0.093978	0.28832	0.16181	0.2526	0.1632	0.082421	0.1103	0.27638	0.021782	0.22216	0.031244	0.10246	0.23055	0.21422	0.1109	0.15848	-2.2687	-3.2313	-3.1229	-2.8292	-3.3479	-2.6875	-3.1104	-3.2083	-2.5333	-3.2146	-3.2542	-2.7708	-3.3646	-2.8583	-3.0958	-3.4083	-9.067	-67.882	18.407	164.257	13.051	89.817	122.692	31.801	57.308	-164.112	183.535	21.136	-61.155	47.304	-24.827	189.290	0.00015781	0.00010624	1.102e-05	690.66	8.3753e-07	2.7607e-06	759.33	148.87	1.941e-06	2.631e-06	188.93	50.772	39.425	11.261	2.0238e-06	15.817	7.9341e-05	7.4391e-05	2.0761e-05	690.41	8.3455e-07	8.272e-07	758.51	150.68	8.3233e-07	8.1174e-07	190.26	51.381	39.782	11.456	8.3677e-07	15.979	-139.230	167.434	7.015	-154.298	-40.090	-16.263	-154.327	-147.051	-96.966	7.819	-147.162	-141.134	-140.107	-131.839	-9.405	-132.657	-8191	255	
36125.387	1	1	0	0	0.13125	0.073676	0.042877	0.1306	0.27441	0.081579	0.097904	0.15834	0.17628	0.20938	0.40692	0.059841	0.20114	0.10581	0.10715	0.085958	-2.3875	-3.2667	-3.0896	-2.7479	-3.3542	-2.9167	-2.8937	-3.4729	-2.4771	-3.2	-3.1646	-2.4979	-3.2229	-2.8833	-2.6562	-3.5229	-106.474	68.258	-89.980	95.902	-28.506	-107.584	-136.238	-67.081	122.906	-25.276	-153.379	-99.292	-147.777	130.155	62.742	156.743	0.00013391	0.00020773	3.9946e-05	688.81	1.1213e-06	3.765e-06	756.57	150.65	1.5829e-06	3.5901e-06	190.27	50.53	39.401	11.208	9.4999e-07	15.762	7.933e-05	7.5286e-05	2.0211e-05	690.51	8.2521e-07	8.318e-07	759.13	151.11	8.5003e-07	7.952e-07	190.54	51.235	39.756	11.434	7.8652e-07	16.033	-148.372	-92.712	-63.960	-154.038	-11.865	11.553	-154.194	-146.850	-34.746	-65.035	-147.358	-140.793	-140.499	-132.233	53.373	-133.053	-8191	255	
36125.484	1	1	0	0	0.18548	0.14043	0.24828	0.15777	0.12971	0.093154	0.30422	0.19112	0.04719	0.063639	0.048758	0.10081	0.051809	0.42257	0.033248	0.11242	-2.3021	-3.0354	-3.3	-2.7687	-3.2521	-3.0771	-2.8937	-3.4437	-2.7062	-3.0312	-3.4854	-2.5479	-3.2396	-3.0417	-2.6188	-3.3625	-150.269	-150.315	-6.947	105.897	-11.693	117.553	169.862	145.368	-107.921	-123.154	96.833	39.524	20.316	-136.749	-79.804	82.743	0.00013391	7.6626e-05	3.1969e-05	691.89	1.0302e-06	1.2413e-06	753.6	149.62	1.341e-06	2.1877e-06	190.21	50.824	39.177	11.208	4.2318e-06	15.729	7.8584e-05	7.2245e-05	2.0325e-05	691.58	8.0983e-07	8.0707e-07	757.77	150.57	8.2444e-07	8.1539e-07	190.85	51.44	39.762	11.443	8.5223e-07	16.005	-144.690	-28.124	-57.239	-154.136	-39.979	111.266	-154.160	-146.811	-28.789	-92.649	-146.943	-140.945	-140.535	-131.851	-8.532	-132.678	-8191	255	
36125.578	1	1	0	0	0.12552	0.17127	0.13461	0.20676	0.097854	0.16894	0.099944	0.11619	0.12042	0.25353	0.18516	0.18695	0.22327	0.034672	0.11361	0.058332	-2.475	-2.8604	-3.4417	-2.6562	-2.9813	-3.0521	-2.7854	-3.3792	-2.9875	-2.9437	-3.3417	-2.6146	-3.1937	-3.2208	-2.6396	-3.4167	-137.394	-31.177	161.118	157.952	57.356	-82.843	-87.256	13.433	7.376	-47.374	91.672	18.777	32.313	-156.834	-67.886	-7.604	0.00011807	0.00034604	7.9707e-05	691.3	9.2113e-07	2.6519e-06	754.86	151.35	2.7042e-06	2.5537e-06	191.19	50.808	39.151	11.186	2.1683e-06	15.677	7.8885e-05	7.6487e-05	2.0051e-05	691.52	8.4127e-07	8.3041e-07	758.02	151.39	8.3427e-07	8.2949e-07	190.71	51.384	39.81	11.429	8.489e-07	16.028	-149.484	-77.269	-63.891	-153.849	10.867	46.774	-154.296	-146.626	-47.498	-28.643	-147.145	-141.068	-140.425	-132.265	-21.685	-133.331	-8191	255	
36125.676	1	1	0	0	0.22173	0.28291	0.19369	0.21165	0.059978	0.09853	0.25448	0.21495	0.20461	0.18955	0.22236	0.096796	0.30435	0.2409	0.14876	0.065259	-2.6083	-2.7792	-3.4667	-2.5958	-3.1063	-3.3333	-2.7354	-3.3854	-3.1	-2.6833	-3.2625	-2.7604	-2.9062	-3.3833	-2.4917	-3.2313	-0.407	-155.495	-146.418	172.405	180.283	-46.242	-153.999	167.883	1.609	-77.021	176.083	57.730	102.369	-151.641	160.907	82.583	0.0001328	0.00017506	2.9317e-05	688.17	1.2599e-06	1.5482e-06	753.21	150.02	1.0275e-06	2.309e-06	190.03	50.34	39.543	11.331	1.1839e-06	15.655	7.8667e-05	7.6176e-05	2.0729e-05	691.26	8.4759e-07	8.0089e-07	757.74	150.77	8.5028e-07	8.4331e-07	190.03	51.431	39.676	11.434	8.2756e-07	15.962	-158.315	-117.400	193.973	-154.049	-74.139	-57.188	-154.188	-146.781	-30.321	-39.972	-147.366	-140.525	-140.220	-131.981	-44.799	-133.470	-8191	255	
36125.773	1	1	0	0	0.10199	0.08743	0.073741	0.1734	0.093826	0.15527	0.16296	0.13603	0.14594	0.28509	0.12813	0.14489	0.071714	0.096201	0.07686	0.18716	-2.5687	-2.8208	-3.4771	-2.8417	-3.0042	-3.2438	-2.65	-3.2875	-2.9104	-2.5833	-3.4208	-2.9146	-3.0792	-3.3917	-2.4938	-3.0417	-89.396	135.040	166.415	171.323	-121.163	181.807	17.807	-61.554	-43.511	68.992	20.457	-155.586	-96.556	-54.543	34.071	-13.040	0.00015187	0.00017537	3.9899e-05	694.98	9.0002e-07	2.7133e-06	756.97	149.99	1.3681e-06	2.5695e-06	190.7	50.541	39.192	11.311	1.6286e-06	15.734	7.8395e-05	7.5402e-05	2.0514e-05	690.69	8.2666e-07	8.0592e-07	757.67	151.09	8.1229e-07	8.2312e-07	190.28	51.216	39.652	11.428	8.203e-07	15.961	-141.583	-39.060	-123.256	-153.940	159.821	95.760	-154.061	-146.881	-59.971	54.071	-147.375	-140.807	-140.225	-132.218	-8.989	-133.422	-8191	255	
36125.891	1	1	0	0	0.47231	0.31565	0.16216	0.18822	0.055611	0.21131	0.33465	0.11993	0.25629	0.11315	0.06385	0.18153	0.20688	0.042499	0.030496	0.34265	-2.8292	-2.7271	-3.4479	-2.9729	-2.7229	-3.1229	-2.775	-3.2625	-3.2	-2.6333	-3.3563	-2.9875	-2.7083	-3.3292	-2.6667	-2.9771	26.891	-13.720	138.325	-144.048	157.914	-49.429	182.767	66.398	124.684	74.833	83.915	174.170	-160.032	-121.849	193.395	-36.384	0.00013221	0.00019622	6.8203e-05	692.38	1.3855e-06	9.5538e-07	758.86	149.92	3.484e-06	1.9725e-07	191.01	50.6	39.049	11.257	2.4536e-06	15.577	7.8907e-05	7.7066e-05	2.0364e-05	690.35	8.508e-07	8.0268e-07	758.28	150.99	8.1803e-07	8.0785e-07	190.12	51.199	39.615	11.445	8.2719e-07	15.899	-136.921	-115.606	-160.399	-153.862	51.267	-0.951	-154.171	-146.654	-19.790	61.312	-147.340	-141.231	-139.608	-132.036	-13.711	-132.844	-8191	255	
36125.988	1	1	0	0	0.17266	0.043278	0.2122	0.50132	0.20809	0.34125	0.11331	0.11752	0.19535	0.11109	0.10586	0.29285	0.10883	0.11431	0.1793	0.20602	-2.8104	-2.6167	-3.3375	-2.9	-2.5042	-3.4167	-2.7958	-3.025	-3.3563	-2.6458	-3.3417	-2.9896	-2.7438	-3.4062	-2.9542	-2.8333	77.003	76.091	107.053	143.424	-95.762	65.919	133.085	53.836	-95.861	172.567	22.013	-103.567	169.158	5.283	-71.190	-61.979	0.00014117	8.6956e-05	3.9475e-05	693.49	2.1756e-06	3.2988e-06	754.69	150.64	1.671e-06	1.5504e-06	191.34	50.578	39.457	11.252	1.651e-06	15.765	7.8554e-05	7.621e-05	2.0801e-05	691.37	8.34e-07	7.7805e-07	757.14	151	8.1127e-07	8.0506e-07	190.72	51.267	39.631	11.459	8.0832e-07	15.965	-147.718	-92.049	-64.743	-153.951	-43.585	-17.718	-154.163	-146.771	-56.780	-16.477	-147.323	-140.595	-140.250	-132.016	-126.395	-133.099	-8191	255	
36126.086	1	1	0	0	0.29025	0.052526	0.13844	0.15209	0.023258	0.13583	0.19513	0.031476	0.10788	0.1462	0.10762	0.12215	0.22161	0.099579	0.12421	0.18461	-2.9688	-2.5729	-3.0125	-3.025	-2.6167	-3.4417	-2.8354	-2.7958	-3.2354	-2.775	-3.125	-3.25	-2.5521	-3.4437	-3.0229	-3.0417	57.169	163.951	-85.547	-1.601	87.362	92.605	183.399	-127.482	126.467	50.799	-30.471	-134.563	50.295	-164.463	-85.642	170.057	0.00015874	0.00026461	2.0848e-05	691.46	1.8675e-06	2.0656e-06	757.15	149.07	1.9517e-06	1.8302e-06	189.87	50.147	39.348	11.19	9.5909e-07	15.614	7.9483e-05	7.3891e-05	2.0047e-05	689.89	8.0977e-07	7.9821e-07	757.71	150.52	8.3569e-07	8.025e-07	189.65	51.213	39.67	11.412	8.0275e-07	15.931	-140.179	-56.829	-161.395	-154.217	-28.096	4.757	-153.986	-146.552	-46.441	-44.293	-147.093	-140.768	-140.547	-132.482	12.110	-133.041	-8191	255	
36126.180	1	1	0	0	0.10132	0.21669	0.25394	0.22017	0.10683	0.26664	0.16505	0.26529	0.19884	0.18094	0.078117	0.093532	0.27527	0.074597	0.17752	0.16824	-3.1396	-2.7021	-3.1854	-3.4167	-2.7229	-3.4917	-3.1604	-2.7833	-3.3375	-2.8479	-3.1375	-3.1729	-2.6521	-3.4271	-3.1125	-2.8125	-79.513	-47.951	-39.520	95.318	-23.949	-110.503	186.134	22.435	157.172	-83.985	153.126	-122.183	153.702	61.175	27.335	77.904	0.00011503	0.0001151	7.3673e-05	694.27	1.2284e-06	7.1266e-07	756.06	150.11	7.9589e-07	2.0094e-07	189.14	50.703	39.142	11.301	3.5696e-07	15.736	7.7644e-05	7.499e-05	2.0043e-05	691.38	8.2176e-07	8.0345e-07	757.05	150.67	8.2792e-07	8.1029e-07	189.73	51.443	39.656	11.454	8.0817e-07	15.989	-136.509	-39.314	-139.111	-154.084	24.610	-113.496	-154.326	-146.864	-40.214	144.489	-147.131	-140.694	-140.035	-132.813	-32.834	-132.901	-8191	255	
36126.277	1	1	0	0	0.271	0.10544	0.21407	0.1631	0.1528	0.079962	0.21721	0.19016	0.086675	0.073974	0.3284	0.24704	0.24815	0.067094	0.2419	0.20653	-3.2021	-2.7438	-2.9833	-3.4125	-2.6813	-3.3771	-3.1208	-2.8063	-3.3708	-3.0021	-3.3625	-3.3375	-2.6646	-3.4167	-3.2021	-2.6833	-71.905	143.976	-127.382	170.382	-42.304	-73.847	76.191	-101.078	118.461	74.055	27.500	68.877	-154.901	153.205	7.052	-69.278	0.00012492	0.00022141	5.1661e-05	693.62	5.5343e-07	1.057e-06	756.5	149.65	8.422e-07	2.1412e-07	191.99	50.124	39.426	11.219	2.5662e-06	15.717	7.9028e-05	7.5526e-05	2.1232e-05	692.17	8.5283e-07	8.1732e-07	757.26	150.86	8.3717e-07	8.5744e-07	190.23	51.377	39.739	11.428	8.8027e-07	15.979	-157.366	-74.284	43.843	-153.997	-88.640	-99.920	-154.060	-146.823	-58.766	111.835	-146.879	-140.660	-140.338	-132.370	-20.049	-132.905	-8191	255	
36126.371	1	1	0	0	0.26655	0.26628	0.070532	0.12416	0.30366	0.22809	0.10439	0.28271	0.075791	0.05286	0.26479	0.28444	0.15246	0.086589	0.14661	0.097624	-3.1188	-3.0958	-2.775	-3.4437	-2.9521	-3.2604	-3.2583	-2.7729	-3.4667	-2.9792	-2.8	-3.3896	-2.8187	-3.2396	-3.2917	-2.8208	-121.719	-23.422	151.713	-123.208	174.741	-76.120	31.273	164.157	-151.938	-25.834	-44.582	6.366	-41.148	30.810	-79.270	194.666	0.00012308	0.00019619	2.0762e-05	690.46	8.9802e-07	2.1099e-06	754.53	150.38	1.4972e-06	3.3157e-07	189.68	50.566	39.43	11.192	8.3951e-07	15.597	8.3376e-05	7.906e-05	2.1895e-05	690.65	9.1353e-07	8.7125e-07	758.4	150.98	9.0451e-07	8.7454e-07	190.05	51.383	39.774	11.398	8.6947e-07	15.905	-140.190	-104.935	-97.887	-153.750	47.749	-97.539	-154.685	-147.060	-11.028	178.706	-147.635	-140.736	-139.830	-132.560	95.122	-132.945	-8191	255	
36126.492	1	1	0	0	0.12673	0.064507	0.22641	0.18159	0.21377	0.087108	0.17617	0.16532	0.21491	0.14783	0.027656	0.32769	0.10679	0.093585	0.066858	0.11504	-3.0729	-3.1583	-2.8958	-3.6375	-2.7562	-3.2042	-3.5062	-2.8375	-3.2625	-3.2062	-2.8271	-3.4313	-2.9167	-3.1063	-3.4958	-2.8312	182.457	166.331	87.110	165.787	-55.174	-71.175	127.430	146.985	-136.860	142.953	-28.095	-46.798	165.269	167.178	189.717	163.395	0.00013433	8.7667e-05	4.9102e-05	691.26	1.345e-06	2.0984e-06	753.53	149.59	1.9736e-06	2.7709e-06	190.98	50.467	39.331	11.218	1.7546e-06	15.691	8.2088e-05	8.0008e-05	2.212e-05	691.65	8.7722e-07	8.4748e-07	756.94	150.73	8.4522e-07	8.2565e-07	190.23	51.277	39.705	11.41	8.1398e-07	15.99	-138.611	-92.426	-98.033	-153.941	40.649	-6.955	-154.152	-147.045	-27.889	-42.112	-147.117	-140.689	-140.308	-133.075	28.592	-132.994	-8191	255	
36126.590	1	1	0	0	0.054921	0.053762	0.16483	0.23594	0.18336	0.099508	0.15163	0.22411	0.16416	0.25034	0.20933	0.096031	0.29659	0.12315	0.25933	0.29456	-2.9396	-3.225	-2.7146	-3.6167	-2.8896	-3.1292	-3.5604	-2.6979	-3.0938	-3.0958	-2.6375	-3.5438	-2.9062	-2.8646	-3.4938	-2.825	73.265	-2.352	162.945	154.839	176.726	168.894	-60.900	177.174	-14.065	54.632	-33.953	-85.402	0.629	-136.972	167.652	116.995	0.0001081	0.00026464	1.5392e-05	691.91	1.9504e-06	2.1892e-06	756.51	149.47	8.2015e-07	3.1407e-06	191.64	49.919	39.237	11.299	9.5098e-07	15.721	7.9246e-05	7.3247e-05	2.0953e-05	690.95	8.4251e-07	8.0778e-07	757.79	150.4	8.3316e-07	8.0958e-07	190.39	51.052	39.591	11.454	8.1774e-07	15.939	-140.374	-63.535	25.027	-153.944	-15.167	-25.612	-153.827	-146.607	-121.570	-69.324	-147.507	-140.830	-140.259	-132.469	32.293	-133.578	-8191	255	
36126.684	1	1	0	0	0.082938	0.28544	0.32958	0.15983	0.15704	0.21867	0.098193	0.11917	0.21383	0.1381	0.11293	0.094577	0.20924	0.15191	0.15781	0.073381	-2.8021	-3.1229	-2.6542	-3.5021	-2.9792	-2.8542	-3.5771	-2.7812	-3	-3.4208	-2.8354	-3.4375	-3.2167	-2.8104	-3.4604	-2.9521	3.087	37.929	-59.849	84.479	-69.733	143.541	144.580	114.238	-148.114	-87.458	133.621	-7.545	7.467	-164.316	109.305	-61.063	0.00014728	0.00042155	5.8354e-05	691.67	4.751e-07	1.6049e-06	754.86	150.22	9.8878e-07	4.8585e-06	190.62	50.676	39.348	11.197	1.8811e-06	15.516	8.0485e-05	7.7752e-05	2.1057e-05	690.8	8.4019e-07	8.4347e-07	757.2	150.58	8.5419e-07	8.3468e-07	189.64	51.347	39.636	11.454	8.7008e-07	15.907	-158.636	-61.180	-81.666	-153.878	-19.209	14.164	-154.117	-146.920	-61.270	17.220	-147.314	-140.951	-140.178	-132.273	181.648	-133.540	-8191	255	
36126.777	1	1	0	0	0.21157	0.25923	0.13477	0.25983	0.12196	0.10967	0.23395	0.088882	0.17057	0.31997	0.024316	0.2793	0.1474	0.17835	0.18568	0.13799	-2.7146	-3.4375	-2.6583	-3.3958	-3.1896	-2.7542	-3.5125	-2.7562	-2.8979	-3.2958	-2.7458	-3.275	-3.1125	-2.6521	-3.3833	-2.8063	-122.142	-65.544	-103.466	168.246	-122.988	146.650	175.488	-132.503	136.734	77.068	128.754	186.936	-116.418	-37.870	48.031	102.423	0.00010063	0.00024918	4.2456e-05	691.66	4.1005e-07	2.545e-06	754.36	149.99	3.7183e-07	9.1796e-07	191.77	50.509	39.728	11.133	2.1254e-06	15.743	8.0714e-05	7.7277e-05	2.1474e-05	691.03	8.5724e-07	8.3488e-07	757.81	150.81	8.7448e-07	8.2142e-07	190.63	51.461	39.642	11.431	8.2415e-07	15.984	-134.588	-101.521	-120.322	-153.821	-132.249	13.110	-154.041	-146.675	-50.483	-15.941	-147.169	-140.672	-139.840	-132.255	-14.011	-132.862	-8191	255	
36126.875	1	1	0	0	0.1559	0.22723	0.070219	0.24792	0.23511	0.10853	0.23488	0.07454	0.064656	0.14737	0.1211	0.13146	0.18207	0.056503	0.11672	0.17202	-2.4292	-3.4958	-2.7854	-3.4375	-3.2729	-2.6292	-3.5167	-3.0375	-2.9104	-3.4354	-2.675	-3.1542	-3.3083	-2.7583	-3.4313	-3.0438	-16.497	-82.300	53.977	189.276	126.828	55.833	188.861	-29.972	-149.201	21.945	35.926	75.991	-45.990	187.859	-50.313	19.148	0.00013692	4.1732e-05	7.0647e-05	694.2	2.727e-06	1.9664e-06	756.54	149.33	1.334e-06	2.4927e-06	189.77	50.866	39.241	11.251	1.7162e-06	15.752	8.076e-05	7.6972e-05	2.2123e-05	691.02	8.6029e-07	8.5745e-07	758.9	150.58	8.6396e-07	8.4872e-07	190.02	51.428	39.665	11.454	8.3612e-07	15.984	-153.272	-143.056	-73.905	-154.276	9.370	147.985	-154.289	-146.768	-44.441	62.314	-147.249	-139.964	-139.860	-132.118	-23.621	-132.416	-8191	255	
#DATA ENDS
