BOXY.EXE: ISS Imagent and Oximeter Data Acquisition Program Version 0.80
Ascii Record File

#ACQ INFORMATION
2  Detector Channels 
16  External MUX Channels 
1  Auxiliary Channels 
5000  Waveform (CCF) Frequency (Hz)
1  Waveforms Skipped 
30  Waveforms Averaged 
1  Cycles Averaged 
16  Acquisitions per Waveform 
10.0806  Updata Rate (Hz) 

#FILE INFORMATION
TRUE -- External MUX Channel results are PARSED.
FALSE -- AC DC and Phase are NOT grouped.
TRUE -- Companion Program Settings File CREATED.
FALSE -- AC data not excluded
FALSE -- DC data not excluded
FALSE -- Phase data not excluded
FALSE -- Auxillary Chn. data not excluded
Tab delimiters

#CALIBRATION STATE
TRUE -- Waveform Calibration Values APPLIED.


#AUX CALIBRATION VALUES
Val Type	aux-1	

Term	1.0000e+00	
Factor	0.0000e+00	


#WF CALIBRATION VALUES
A = Detector Channel
Val Type	A-AC1	A-AC2	A-AC3	A-AC4	A-AC5	A-AC6	A-AC7	A-AC8	A-AC9	A-AC10	A-AC11	A-AC12	A-AC13	A-AC14	A-AC15	A-AC16	A-DC1	A-DC2	A-DC3	A-DC4	A-DC5	A-DC6	A-DC7	A-DC8	A-DC9	A-DC10	A-DC11	A-DC12	A-DC13	A-DC14	A-DC15	A-DC16	A-Ph1	A-Ph2	A-Ph3	A-Ph4	A-Ph5	A-Ph6	A-Ph7	A-Ph8	A-Ph9	A-Ph10	A-Ph11	A-Ph12	A-Ph13	A-Ph14	A-Ph15	A-Ph16	

Term	0.00000e+00	0.00000e+00	0.00000e+00	0.00000e+00	0.00000e+00	0.00000e+00	0.00000e+00	0.00000e+00	0.00000e+00	0.00000e+00	0.00000e+00	0.00000e+00	0.00000e+00	0.00000e+00	0.00000e+00	0.00000e+00	0.00000e+00	0.00000e+00	0.00000e+00	0.00000e+00	0.00000e+00	0.00000e+00	0.00000e+00	0.00000e+00	0.00000e+00	0.00000e+00	0.00000e+00	0.00000e+00	0.00000e+00	0.00000e+00	0.00000e+00	0.00000e+00	0.00000e+00	0.00000e+00	0.00000e+00	0.00000e+00	0.00000e+00	0.00000e+00	0.00000e+00	0.00000e+00	0.00000e+00	0.00000e+00	0.00000e+00	0.00000e+00	0.00000e+00	0.00000e+00	0.00000e+00	0.00000e+00	
Factor	1.00000e+00	1.00000e+00	1.00000e+00	1.00000e+00	1.00000e+00	1.00000e+00	1.00000e+00	1.00000e+00	1.00000e+00	1.00000e+00	1.00000e+00	1.00000e+00	1.00000e+00	1.00000e+00	1.00000e+00	1.00000e+00	1.00000e+00	1.00000e+00	1.00000e+00	1.00000e+00	1.00000e+00	1.00000e+00	1.00000e+00	1.00000e+00	1.00000e+00	1.00000e+00	1.00000e+00	1.00000e+00	1.00000e+00	1.00000e+00	1.00000e+00	1.00000e+00	X	X	X	X	X	X	X	X	X	X	X	X	X	X	X	X	

B = Detector Channel
Val Type	B-AC1	B-AC2	B-AC3	B-AC4	B-AC5	B-AC6	B-AC7	B-AC8	B-AC9	B-AC10	B-AC11	B-AC12	B-AC13	B-AC14	B-AC15	B-AC16	B-DC1	B-DC2	B-DC3	B-DC4	B-DC5	B-DC6	B-DC7	B-DC8	B-DC9	B-DC10	B-DC11	B-DC12	B-DC13	B-DC14	B-DC15	B-DC16	B-Ph1	B-Ph2	B-Ph3	B-Ph4	B-Ph5	B-Ph6	B-Ph7	B-Ph8	B-Ph9	B-Ph10	B-Ph11	B-Ph12	B-Ph13	B-Ph14	B-Ph15	B-Ph16	

Term	0.00000e+00	0.00000e+00	0.00000e+00	0.00000e+00	0.00000e+00	0.00000e+00	0.00000e+00	0.00000e+00	0.00000e+00	0.00000e+00	0.00000e+00	0.00000e+00	0.00000e+00	0.00000e+00	0.00000e+00	0.00000e+00	0.00000e+00	0.00000e+00	0.00000e+00	0.00000e+00	0.00000e+00	0.00000e+00	0.00000e+00	0.00000e+00	0.00000e+00	0.00000e+00	0.00000e+00	0.00000e+00	0.00000e+00	0.00000e+00	0.00000e+00	0.00000e+00	-1.19857e+02	-1.24507e+02	-1.35452e+02	-1.83472e+02	-6.00384e+01	-4.75453e+01	-1.57982e+02	-1.62015e+02	-6.06145e+01	-8.17819e+01	-1.70621e+02	-1.71027e+02	-1.79027e+02	-1.76789e+02	-5.07464e+01	-1.49691e+02	
Factor	1.74378e-05	1.02985e-04	3.40426e-05	1.56174e-01	9.33459e-07	1.34348e-06	1.70957e-01	5.49417e-02	8.43037e-07	1.23105e-06	9.08538e-02	2.97122e-02	2.77676e-02	9.37205e-03	9.74277e-07	1.31938e-02	1.29289e-06	1.35560e-06	3.76670e-07	7.60921e-02	1.47965e-08	1.48193e-08	7.83401e-02	2.67541e-02	1.47987e-08	1.48410e-08	4.23708e-02	1.39488e-02	1.35316e-02	4.53434e-03	1.47790e-08	6.16309e-03	X	X	X	X	X	X	X	X	X	X	X	X	X	X	X	X	



#DISTANCE SETTINGS
A = Detector Channel
A-1	A-2	A-3	A-4	A-5	A-6	A-7	A-8	A-9	A-10	A-11	A-12	A-13	A-14	A-15	A-16	

2.5000e+00	3.0000e+00	2.5000e+00	3.0000e+00	2.0000e+00	3.0000e+00	1.5000e+00	3.0000e+00	3.0000e+00	3.0000e+00	3.0000e+00	3.0000e+00	3.0000e+00	3.0000e+00	1.5000e+00	3.0000e+00	

B = Detector Channel
B-1	B-2	B-3	B-4	B-5	B-6	B-7	B-8	B-9	B-10	B-11	B-12	B-13	B-14	B-15	B-16	

1.0000e+01	1.0000e+01	1.0000e+01	1.4400e+00	1.0000e+01	1.0000e+01	1.5100e+00	1.9400e+00	1.0000e+01	1.0000e+01	1.9900e+00	2.4900e+00	2.4100e+00	2.9000e+00	1.0000e+01	2.9800e+00	




#DATA BEGINS
time	group	step	mark	flag	A-AC1	A-AC2	A-AC3	A-AC4	A-AC5	A-AC6	A-AC7	A-AC8	A-AC9	A-AC10	A-AC11	A-AC12	A-AC13	A-AC14	A-AC15	A-AC16	A-DC1	A-DC2	A-DC3	A-DC4	A-DC5	A-DC6	A-DC7	A-DC8	A-DC9	A-DC10	A-DC11	A-DC12	A-DC13	A-DC14	A-DC15	A-DC16	A-Ph1	A-Ph2	A-Ph3	A-Ph4	A-Ph5	A-Ph6	A-Ph7	A-Ph8	A-Ph9	A-Ph10	A-Ph11	A-Ph12	A-Ph13	A-Ph14	A-Ph15	A-Ph16	B-AC1	B-AC2	B-AC3	B-AC4	B-AC5	B-AC6	B-AC7	B-AC8	B-AC9	B-AC10	B-AC11	B-AC12	B-AC13	B-AC14	B-AC15	B-AC16	B-DC1	B-DC2	B-DC3	B-DC4	B-DC5	B-DC6	B-DC7	B-DC8	B-DC9	B-DC10	B-DC11	B-DC12	B-DC13	B-DC14	B-DC15	B-DC16	B-Ph1	B-Ph2	B-Ph3	B-Ph4	B-Ph5	B-Ph6	B-Ph7	B-Ph8	B-Ph9	B-Ph10	B-Ph11	B-Ph12	B-Ph13	B-Ph14	B-Ph15	B-Ph16	aux-1	digaux	

36383.031	1	1	0	768	0.35158	0.10571	0.15473	0.21371	0.090508	0.18665	0.18356	0.29957	0.11155	0.066826	0.14178	0.15092	0.21823	0.24521	0.07782	0.25311	-3.4917	-3.2354	-3.9333	-3.7208	-3.4437	-4.0417	-3.5104	-3.8417	-3.9854	-3.3417	-3.95	-3.7958	-3.3521	-4.1896	-3.4313	-3.6333	145.770	170.576	-39.485	232.175	-63.177	149.934	236.944	154.645	23.015	-64.088	263.767	266.475	245.828	-69.537	149.883	-71.464	0.00016996	0.00040855	3.3133e-05	1120.7	9.4027e-06	3.1206e-06	1309	308.67	2.7251e-06	8.3458e-06	456.81	134.86	80.282	24.895	8.7216e-06	55.529	0.00099504	0.0010357	0.00028088	1074.4	1.1137e-05	1.114e-05	1255	300.35	1.1083e-05	1.113e-05	440.3	133.94	82.543	25.861	1.1139e-05	54.673	174.581	207.827	138.387	-72.765	78.078	30.343	-73.233	-69.760	-78.228	37.619	-70.217	-65.688	-65.484	-60.341	257.262	-61.572	-8191	255	
36383.125	1	1	0	0	0.16014	0.20352	0.047163	0.38981	0.062848	0.19088	0.11804	0.17465	0.22249	0.21717	0.072068	0.13674	0.05016	0.068046	0.12026	0.16145	-3.7188	-3.1979	-3.8854	-4.1229	-3.3042	-3.9521	-3.6792	-3.6583	-4.2562	-3.3396	-3.8417	-3.8833	-3.4083	-4.1333	-3.5667	-3.6396	109.915	159.976	124.844	255.658	-49.092	-47.397	187.705	178.119	35.654	7.734	205.194	-60.661	243.158	155.898	-2.625	233.481	0.00027825	0.00099192	0.00038981	1131.6	7.5618e-06	9.8645e-06	1324.8	314.48	8.5002e-06	1.2254e-05	464.86	137.81	81.208	25.227	4.0261e-06	56.699	0.00099619	0.0010341	0.00028426	1085.5	1.1153e-05	1.1146e-05	1271.2	305.34	1.1292e-05	1.1425e-05	447.98	135.9	84.029	26.268	1.1334e-05	55.484	244.763	269.362	-85.672	-73.249	-55.332	-20.650	-73.459	-69.565	10.034	12.911	-70.344	-65.710	-65.219	-59.867	51.089	-61.836	-8191	255	
36383.223	1	1	0	0	0.080277	0.19699	0.12309	0.060108	0.2426	0.24411	0.38499	0.10773	0.066806	0.062581	0.2308	0.20556	0.2139	0.10769	0.17978	0.23983	-3.7125	-3.2771	-3.7104	-4.2063	-3.2896	-4.1042	-3.7062	-3.4688	-4.1583	-3.3333	-3.7729	-3.8979	-3.3021	-3.8563	-3.7875	-3.3583	102.652	3.505	213.285	-26.299	190.678	154.456	200.077	-83.705	195.340	137.136	219.831	269.354	-29.901	250.503	65.003	268.536	0.00021345	0.00062034	5.6928e-05	1140.3	5.4642e-06	6.9652e-06	1337.7	314.46	3.1623e-06	7.7511e-06	465.48	138.84	81.988	25.562	5.2043e-06	57.017	0.0010112	0.0010379	0.00028875	1099.1	1.147e-05	1.1286e-05	1283.1	306.82	1.1433e-05	1.1538e-05	449.31	137.37	84.881	26.463	1.1443e-05	56.055	204.024	24.944	-61.542	-73.369	103.407	125.912	-73.471	-69.642	-36.447	38.194	-70.102	-65.648	-65.518	-60.562	-23.986	-61.513	-8191	255	
36383.320	1	1	0	0	0.34078	0.15806	0.15358	0.2028	0.04175	0.25759	0.26972	0.36301	0.23516	0.23482	0.28493	0.20616	0.12497	0.15684	0.20136	0.040837	-3.8146	-3.5104	-3.5833	-4.1208	-3.2875	-3.825	-3.7917	-3.4333	-4.2333	-3.5729	-3.6042	-3.9021	-3.3479	-3.8208	-3.7292	-3.425	-21.073	133.478	215.271	232.107	64.140	50.733	227.658	177.644	217.717	49.649	-54.241	208.321	213.635	228.924	234.228	75.352	0.00025364	0.00077831	0.00029614	1160	2.4572e-06	1.0556e-05	1354.5	318.14	3.9994e-06	9.8582e-06	473.33	142.05	83.66	26.033	3.9151e-06	58.234	0.0010156	0.0010472	0.00028992	1110.4	1.1479e-05	1.1365e-05	1298.7	310.5	1.1449e-05	1.1538e-05	456.66	139.7	86.176	26.935	1.1528e-05	57.105	134.480	24.061	-34.817	-72.950	150.322	80.524	-73.043	-69.617	-44.359	245.841	-70.171	-65.603	-65.045	-60.097	212.069	-61.402	-8191	255	
36383.414	1	1	0	0	0.19206	0.23174	0.25362	0.19086	0.18811	0.18169	0.27902	0.28351	0.21123	0.19709	0.2475	0.20722	0.13744	0.17023	0.30223	0.099945	-3.8229	-3.5563	-3.475	-4.1958	-3.4979	-3.7667	-4.1625	-3.3417	-3.9708	-3.7104	-3.6479	-4.1229	-3.325	-3.8479	-4.0479	-3.4354	51.928	-43.496	14.283	202.644	68.296	171.740	225.436	-60.653	77.691	218.885	7.676	-18.495	-59.100	-29.108	117.655	168.311	0.00014704	0.00047866	0.00045948	1165.9	1.0295e-05	1.5293e-05	1358.1	317.22	4.6388e-06	1.5178e-05	462.08	137.23	80.621	24.813	1.0908e-05	55.153	0.0010228	0.0010626	0.00029252	1120.3	1.1621e-05	1.1408e-05	1300.2	309.32	1.1395e-05	1.1382e-05	446.49	135.3	83.334	25.73	1.1065e-05	53.949	169.515	16.872	-1.224	-73.386	9.144	33.239	-73.218	-69.471	78.821	-0.913	-70.028	-65.572	-65.406	-60.096	183.324	-61.671	-8191	255	
36383.512	1	1	0	0	0.15164	0.051282	0.15714	0.17606	0.19144	0.066245	0.38324	0.21875	0.078507	0.060615	0.20671	0.069963	0.19165	0.19078	0.17748	0.22827	-3.6	-3.6	-3.4083	-4	-3.3729	-3.6604	-4.2979	-3.0938	-3.8833	-3.7271	-3.4875	-4.1479	-3.4396	-3.4688	-3.9958	-3.2313	130.263	96.640	-32.533	223.225	76.942	168.420	242.742	214.622	256.163	254.710	193.896	250.392	-42.984	254.314	255.760	42.721	0.00023202	0.0010009	0.00024903	1120.4	4.1131e-06	7.7555e-06	1300.3	302.14	2.7684e-06	1.057e-05	444.93	133.96	79.009	24.41	2.68e-06	54.636	0.0009889	0.0010314	0.00028227	1074.3	1.1111e-05	1.1098e-05	1246.4	295.38	1.1089e-05	1.1181e-05	431.12	132.22	81.576	25.316	1.1071e-05	53.795	160.666	-41.094	10.836	-73.503	-77.406	78.188	-73.706	-69.544	171.265	-60.922	-69.925	-66.215	-65.494	-60.572	206.275	-61.411	-8191	255	
36383.629	1	1	0	0	0.19612	0.09148	0.054062	0.13763	0.10999	0.11665	0.14546	0.12822	0.12346	0.20794	0.10402	0.17725	0.023244	0.049225	0.19257	0.1897	-3.6292	-3.7646	-3.1167	-4.1854	-3.6146	-3.4208	-4.2292	-3.3521	-3.7375	-3.9021	-3.3625	-4.1604	-3.3667	-3.5708	-4.1062	-3.3292	-33.585	222.414	91.328	228.037	31.222	-48.326	236.767	133.169	204.527	241.295	235.754	159.218	176.710	-13.547	18.977	198.591	0.00024947	0.00062183	0.00040909	1123.4	3.6305e-06	1.7507e-06	1302	303.43	4.0654e-06	9.4643e-06	449.61	135.69	81.002	24.676	3.8601e-06	54.9	0.00098213	0.0010183	0.00028134	1076.7	1.1064e-05	1.1037e-05	1255.1	296.69	1.1075e-05	1.1159e-05	437.08	134.2	82.797	25.698	1.1235e-05	54.277	210.647	62.575	4.687	-72.990	154.326	88.331	-73.247	-69.455	0.418	195.439	-70.224	-65.842	-65.418	-60.649	149.776	-61.417	-8191	255	
36383.727	1	1	0	0	0.098325	0.082507	0.1841	0.17826	0.16337	0.12418	0.076815	0.43161	0.11168	0.38189	0.19953	0.18881	0.25517	0.063348	0.17601	0.17145	-3.3625	-3.9333	-3.2542	-4.0958	-3.55	-3.1667	-4.2375	-3.3646	-3.6854	-4.0333	-3.2938	-4.075	-3.7042	-3.4042	-4.1354	-3.5938	-31.399	178.776	-23.888	267.000	94.076	-20.406	95.017	226.680	63.955	184.795	210.832	267.466	195.988	-30.299	239.060	-6.010	0.00024419	0.00084066	0.00011838	1137.3	1.6619e-06	1.3312e-06	1323.3	306.35	2.4053e-06	1.8163e-05	449.98	135.5	80.64	24.849	3.9816e-06	55.341	0.00099992	0.001042	0.00029278	1089.8	1.1323e-05	1.1449e-05	1269.8	297.93	1.1366e-05	1.1699e-05	437.18	134.52	83.307	25.803	1.1565e-05	54.592	182.022	12.390	263.999	-73.190	64.389	44.096	-73.342	-69.965	10.407	-3.007	-70.214	-65.379	-65.141	-60.239	11.531	-61.603	-8191	255	
36383.820	1	1	0	0	0.21876	0.17026	0.097012	0.083227	0.017061	0.16963	0.1711	0.39262	0.1513	0.099504	0.12775	0.2464	0.22968	0.15649	0.10494	0.060872	-3.3833	-3.9542	-3.1896	-3.9646	-3.7542	-3.3958	-4.1792	-3.6437	-3.5958	-4.0188	-3.275	-4.0167	-3.8958	-3.1854	-4.0917	-3.5812	114.160	150.657	-3.930	269.290	70.914	214.002	206.931	209.715	15.653	52.815	271.236	-70.021	186.043	20.825	263.579	41.225	0.00010785	0.00085383	0.00014197	1146.9	3.7677e-06	6.3757e-06	1335.4	305.2	9.6972e-06	6.8965e-06	456.39	138.09	81.525	25.152	1.1286e-05	56.579	0.0010237	0.001079	0.00029884	1101.1	1.183e-05	1.1911e-05	1282.5	298.85	1.1821e-05	1.1746e-05	441.63	136.67	84.887	26.413	1.1853e-05	55.969	-57.357	-6.708	24.479	-73.282	145.693	101.322	-73.415	-69.614	41.549	38.894	-69.993	-65.872	-65.140	-60.207	73.834	-61.429	-8191	255	
36383.918	1	1	0	0	0.15015	0.31168	0.068595	0.087178	0.072473	0.19674	0.36303	0.15111	0.1774	0.14921	0.2661	0.13338	0.15209	0.13322	0.095892	0.10062	-3.1083	-3.8458	-3.2687	-3.9333	-3.8458	-3.2417	-4.2333	-3.6125	-3.5292	-3.9729	-3.3292	-3.8438	-3.8646	-3.3292	-3.8271	-3.775	185.230	244.854	-71.616	234.386	60.832	162.397	198.456	248.075	22.361	270.106	-6.791	186.812	170.416	-65.846	-1.217	196.663	0.00020135	0.00048881	0.00028141	1148	6.5789e-06	9.5774e-06	1333.9	308.5	1.3022e-06	9.6568e-06	447.17	135.5	79.641	24.316	3.9797e-06	54.351	0.0010393	0.0010793	0.0003016	1104	1.1727e-05	1.1823e-05	1282.5	300.51	1.1604e-05	1.1587e-05	436.84	133.94	82.619	25.4	1.136e-05	53.586	190.573	27.560	-39.826	-73.099	222.891	96.919	-73.602	-69.636	204.597	163.499	-70.106	-66.067	-64.773	-59.628	245.352	-60.778	-8191	255	
36384.016	1	1	0	0	0.041959	0.050385	0.085355	0.27515	0.12048	0.17137	0.17709	0.055443	0.18904	0.22826	0.33153	0.10767	0.29114	0.097827	0.1651	0.062052	-2.9062	-3.9938	-3.3521	-3.7667	-3.9625	-3.2667	-3.9958	-3.8479	-3.1437	-3.9833	-3.4896	-3.6896	-3.8896	-3.2083	-3.7708	-3.9354	32.924	169.434	-32.603	219.946	161.500	-52.627	-26.481	270.171	107.278	97.888	208.438	150.045	262.269	58.521	-60.183	187.986	0.00021736	0.00050621	6.5322e-05	1107	5.0354e-06	7.1186e-06	1297.3	297.57	6.9785e-06	3.4746e-06	440.79	132.54	77.859	23.915	2.9975e-06	54.378	0.00099896	0.0010372	0.00028725	1062.4	1.1365e-05	1.1254e-05	1241.2	290.08	1.1272e-05	1.1333e-05	427.14	130.96	80.552	24.982	1.121e-05	53.23	204.575	-13.517	177.100	-73.445	-4.903	14.645	-73.449	-69.603	-63.377	119.823	-70.532	-66.205	-64.817	-60.118	163.665	-61.607	-8191	255	
36384.109	1	1	0	0	0.124	0.062102	0.053822	0.062949	0.14191	0.02072	0.22181	0.22579	0.14874	0.041133	0.16394	0.16915	0.21347	0.22508	0.16973	0.072222	-2.7125	-4.0042	-3.2958	-3.5667	-4.0375	-3.2729	-3.8375	-3.9042	-3.2792	-3.8396	-3.6625	-3.5604	-4.0667	-3.4562	-3.725	-3.975	189.813	-68.648	197.532	-80.582	270.373	105.103	228.214	158.397	158.049	-47.050	108.605	190.839	168.347	-54.358	97.598	255.921	0.00013857	0.00038678	0.00027668	1110.4	1.0434e-05	1.9686e-06	1301.1	300.31	2.401e-06	4.1304e-06	443.15	135.35	79.005	24.436	1.1791e-06	55.198	0.0010148	0.0010466	0.00029063	1066.3	1.1387e-05	1.152e-05	1249.2	292.73	1.1358e-05	1.1437e-05	432.15	133.17	82.174	25.509	1.1238e-05	54.503	166.008	58.662	34.488	-73.493	89.231	162.761	-73.294	-69.696	102.054	146.230	-70.205	-65.870	-65.026	-59.912	170.176	-61.132	-8191	255	
36384.230	1	1	0	0	0.24842	0.24505	0.2238	0.14283	0.21535	0.055229	0.2474	0.077389	0.10736	0.15455	0.29276	0.081023	0.10227	0.17687	0.22765	0.10149	-2.8104	-3.8271	-3.6437	-3.5396	-4.0167	-3.5	-3.9625	-3.9437	-3.4833	-3.9604	-3.8	-3.3521	-4.1333	-3.4229	-3.55	-4.0646	-80.965	191.841	102.112	244.087	-39.639	110.143	222.985	-5.214	-61.308	-81.760	217.767	169.908	162.002	182.949	13.034	222.696	9.4282e-05	0.0010478	0.00029769	1122	3.1232e-06	9.6358e-06	1318.5	304.93	1.0247e-05	7.1893e-06	451.63	135.44	80.154	24.675	1.0288e-05	55.814	0.0010111	0.0010454	0.00028743	1076.5	1.1354e-05	1.1478e-05	1262.9	297.5	1.1439e-05	1.1573e-05	439.37	134.82	82.8	25.799	1.1552e-05	55.098	212.154	46.195	28.256	-73.375	131.859	5.555	-73.306	-69.520	127.646	6.142	-70.008	-65.751	-65.616	-59.990	-48.652	-61.188	-8191	255	
36384.324	1	1	0	0	0.22005	0.13606	0.13773	0.18144	0.14522	0.10082	0.30741	0.1584	0.051532	0.087458	0.16484	0.17491	0.22507	0.15551	0.27683	0.041415	-2.8833	-3.8542	-3.6437	-3.4417	-3.9292	-3.4271	-3.7708	-4.0708	-3.1083	-3.8812	-4.0458	-3.3458	-4.1021	-3.4521	-3.5062	-4.1042	49.725	208.713	-31.605	220.753	239.168	134.633	194.966	-24.762	-3.996	-84.252	116.208	179.972	265.437	148.305	158.001	185.959	0.00013234	0.00084945	0.00016811	1132.5	2.6568e-06	1.2322e-06	1336.3	309.68	8.45e-06	1.404e-05	455.59	138.1	81.687	24.849	9.8327e-06	56.488	0.0010242	0.0010656	0.00029505	1091	1.1695e-05	1.171e-05	1279.9	301.18	1.1674e-05	1.165e-05	444.16	136.56	84.135	26.134	1.1727e-05	55.737	250.808	77.252	-35.746	-73.302	37.160	148.399	-73.397	-69.976	-20.802	136.730	-70.159	-65.739	-65.581	-59.863	4.268	-61.451	-8191	255	
36384.422	1	1	0	0	0.21826	0.17132	0.10959	0.22574	0.15204	0.11418	0.29678	0.11853	0.13287	0.084116	0.26186	0.20318	0.28426	0.23355	0.15602	0.13092	-2.775	-3.7625	-3.7854	-3.3875	-3.9292	-3.5875	-3.5292	-4.0167	-3.3479	-3.5875	-4.0813	-3.4458	-3.8563	-3.5042	-3.1521	-4.0646	61.556	36.910	-82.666	249.896	120.095	260.710	176.980	198.888	79.215	94.253	222.494	201.631	220.731	13.295	-26.592	230.307	0.00029988	0.0011139	0.00016468	1145.3	9.8209e-06	5.0918e-06	1333.8	307.76	6.515e-06	8.7903e-06	452.19	134.94	78.262	24.273	4.3696e-06	54.193	0.0010485	0.0010694	0.00029909	1101.7	1.182e-05	1.1803e-05	1281.3	301.42	1.1694e-05	1.1514e-05	440.11	133.77	81.66	25.26	1.1453e-05	53.428	198.217	-22.979	-0.002	-73.419	143.308	264.709	-73.509	-69.427	197.326	61.242	-70.164	-65.650	-65.010	-60.295	62.191	-61.239	-8191	255	
36384.520	1	1	0	0	0.022646	0.2455	0.072572	0.20378	0.26679	0.12809	0.23287	0.23068	0.30065	0.02809	0.2799	0.10807	0.28768	0.18534	0.08202	0.11157	-2.9833	-3.5708	-3.8125	-3.3125	-3.9229	-3.6479	-3.4125	-4.2146	-3.4979	-3.5792	-4.0792	-3.1708	-3.7271	-3.6458	-3.3625	-4.1417	2.797	261.940	269.854	224.639	222.579	42.247	243.265	212.567	108.306	-55.133	-61.026	238.875	246.043	204.654	190.281	218.842	0.0001696	0.00051192	0.00027349	1098.1	1.7931e-06	8.5847e-06	1282.7	296.31	1.3298e-06	5.3908e-06	440.6	131.61	76.978	23.563	6.4912e-06	54.161	0.001008	0.0010416	0.00029084	1054.5	1.1288e-05	1.1286e-05	1234.5	289.85	1.1254e-05	1.132e-05	428.01	130.25	79.881	24.769	1.1373e-05	53.238	271.047	248.504	32.172	-73.499	26.572	127.765	-73.488	-69.344	85.267	81.815	-69.822	-66.192	-65.060	-60.258	67.743	-61.614	-8191	255	
36384.590	1	1	0	0	0.037557	0.11659	0.16237	0.11576	0.14477	0.17587	0.1138	0.11151	0.13906	0.046053	0.053086	0.084295	0.074955	0.17948	0.33297	0.065737	-2.9938	-3.425	-4.0167	-3.3604	-3.8771	-3.7021	-3.4604	-4.2396	-3.6562	-3.5167	-3.9083	-3.325	-3.6854	-3.9896	-3.2979	-4.1146	164.521	240.600	-28.020	263.565	-25.352	-34.363	49.328	80.205	95.423	-34.461	247.575	167.030	85.229	224.371	226.820	223.105	0.0001318	9.2375e-05	0.00021758	1105.8	5.8022e-06	6.7416e-06	1303.9	303.08	5.5167e-06	5.6853e-06	449.74	134.16	78.474	24.266	2.291e-06	54.994	0.0010058	0.0010574	0.00029037	1061.9	1.1221e-05	1.1429e-05	1249	294.45	1.1443e-05	1.1533e-05	436.91	133.01	81.618	25.372	1.1552e-05	54.135	168.330	9.917	104.228	-73.466	126.770	48.266	-73.690	-69.444	116.959	91.357	-70.257	-65.503	-65.521	-60.141	108.248	-60.798	-8191	255	
36384.711	1	1	0	0	0.056314	0.15259	0.17751	0.26468	0.15127	0.092234	0.21816	0.14625	0.0089284	0.18664	0.32228	0.18763	0.15155	0.063363	0.16029	0.10538	-3.2021	-3.3104	-4.0083	-3.4708	-3.4792	-4.0563	-3.5417	-4.2146	-3.6396	-3.5021	-4.0417	-3.3229	-3.625	-3.9583	-3.2708	-3.975	231.705	147.872	175.021	-42.550	74.039	94.053	231.547	151.690	199.452	26.835	230.368	145.129	260.775	-75.598	-14.806	31.551	0.00026393	0.00082077	8.2966e-05	1120.7	3.5609e-06	3.1351e-06	1320.9	307.83	3.9364e-06	1.9557e-05	459.54	136.03	80.155	24.521	8.9863e-06	55.774	0.0010115	0.0010535	0.00028936	1076.4	1.1336e-05	1.1494e-05	1266.7	300.68	1.1446e-05	1.1622e-05	445.57	135.05	82.739	25.646	1.1615e-05	54.958	204.440	208.454	202.827	-73.407	-79.039	48.240	-73.164	-69.745	-51.034	27.505	-70.169	-65.364	-65.495	-60.100	85.699	-61.140	-8191	255	
36384.805	1	1	0	0	0.11936	0.0079004	0.36647	0.138	0.2819	0.13158	0.18136	0.30226	0.31368	0.11023	0.18184	0.082084	0.13552	0.055219	0.19289	0.2264	-3.4958	-3.2167	-3.925	-3.6604	-3.3646	-4.0208	-3.4521	-3.8854	-3.6396	-3.2167	-4.0146	-3.6646	-3.5479	-3.9854	-3.125	-3.9042	-54.978	-16.981	159.168	-5.908	76.105	-35.275	203.998	268.281	122.334	233.843	-78.151	-81.493	265.801	167.681	218.795	149.225	0.00011099	0.0010094	0.00037832	1143.4	5.4103e-06	2.1451e-05	1330.6	312.9	5.1756e-06	5.3782e-06	465.78	138.54	80.923	24.926	3.4254e-06	56.483	0.0010318	0.001074	0.00029872	1096.7	1.18e-05	1.1833e-05	1283.7	305.01	1.1766e-05	1.1891e-05	452.49	137.08	83.944	26.113	1.1845e-05	55.961	164.399	-3.517	-38.438	-73.441	188.854	105.230	-73.617	-69.623	126.034	109.459	-70.110	-65.807	-65.445	-60.524	153.525	-61.516	-8191	255	
36384.902	1	1	0	0	0.05659	0.11494	0.16143	0.17736	0.1366	0.15056	0.20802	0.14618	0.2233	0.15841	0.16842	0.31011	0.10657	0.072613	0.19336	0.034849	-3.5771	-3.2854	-4.0375	-3.5312	-3.3917	-4.1229	-3.5187	-3.7062	-3.8146	-3.2771	-4.0521	-3.8021	-3.3979	-4.0979	-3.2167	-3.6354	16.737	262.288	66.752	223.561	-26.208	80.924	216.772	251.799	-81.666	265.160	-58.203	218.054	261.834	87.346	-20.686	30.123	0.00011461	0.00039997	0.00013995	1143.9	5.9905e-06	6.0316e-06	1341.2	315.45	1.1864e-05	1.1428e-05	462.28	135.64	78.477	23.964	3.1436e-06	54.544	0.0010521	0.0010857	0.00030063	1104.7	1.1866e-05	1.1903e-05	1291.6	307.28	1.1808e-05	1.1774e-05	446.1	134.28	81.777	25.187	1.1496e-05	53.607	184.270	258.403	50.364	-73.070	50.307	17.090	-73.272	-69.722	121.702	193.893	-70.198	-65.809	-65.291	-59.961	241.533	-61.484	-8191	255	
36385.023	1	1	0	0	0.19655	0.20852	0.0093687	0.23339	0.088234	0.015449	0.3108	0.2111	0.046297	0.21587	0.12217	0.22844	0.22715	0.11216	0.17937	0.17697	-3.7104	-3.2313	-3.8708	-3.9667	-3.2396	-4.1	-3.5792	-3.7146	-3.9583	-3.2938	-4.0083	-4.0062	-3.2708	-4.2021	-3.4167	-3.4979	196.124	146.364	214.300	255.909	27.309	-65.079	222.848	94.943	59.438	176.191	186.969	250.090	186.151	224.614	96.755	238.728	0.00025442	0.00039491	0.00019691	1102	4.7457e-06	5.8574e-06	1287.6	301.48	3.6198e-06	5.8293e-06	444.7	132.18	76.886	23.413	6.0214e-07	53.618	0.001017	0.0010569	0.00028989	1060.2	1.1376e-05	1.1478e-05	1239.4	293.33	1.1397e-05	1.1515e-05	431.13	130.45	79.783	24.641	1.1534e-05	53.041	168.420	257.073	-44.307	-73.310	54.950	-23.429	-73.455	-69.719	68.668	4.023	-69.968	-65.886	-65.548	-60.024	270.888	-61.371	-8191	255	
36385.117	1	1	0	0	0.027371	0.19628	0.16949	0.1553	0.048003	0.084631	0.22977	0.16045	0.1002	0.15668	0.16004	0.20283	0.1782	0.062154	0.12113	0.14184	-3.4604	-3.3021	-3.7292	-3.975	-3.3187	-4.0667	-3.8229	-3.6813	-4.0521	-3.4208	-3.85	-3.8396	-3.2521	-3.9375	-3.5187	-3.4667	53.903	53.859	162.815	242.636	36.310	155.718	214.767	73.761	-72.989	-2.891	261.636	-84.901	256.721	176.212	271.297	188.104	0.00016811	0.00017627	0.00052228	1098.4	7.002e-06	2.1465e-06	1297.3	302.48	1.0325e-05	8.1878e-06	450.92	134.72	78.861	24.095	6.5166e-06	54.948	0.0010212	0.0010575	0.00029236	1061.9	1.1572e-05	1.1472e-05	1250.3	295.44	1.1576e-05	1.1563e-05	437.67	133.07	81.696	25.258	1.154e-05	54.363	201.327	44.918	-54.158	-72.982	85.680	-23.139	-73.183	-69.696	52.052	266.358	-70.486	-65.630	-65.287	-59.787	32.171	-61.512	-8191	255	
36385.191	1	1	0	0	0.097026	0.37048	0.19198	0.16079	0.26102	0.15774	0.20581	0.20725	0.37716	0.134	0.44333	0.17285	0.22434	0.21149	0.21096	0.15323	-3.6688	-3.1229	-3.6292	-4.1562	-3.2062	-3.9167	-3.9833	-3.2958	-3.8875	-3.4125	-3.6521	-4.05	-3.2812	-4	-3.8042	-3.4646	114.969	36.324	179.334	176.842	29.368	200.718	243.566	247.468	-86.157	47.783	272.029	134.716	-72.507	-66.455	2.419	173.342	0.00017671	0.00049403	0.00041747	1124	3.2605e-06	1.3732e-05	1325.9	308.31	1.2928e-06	1.1711e-05	459.06	136.38	80.589	25.122	7.5524e-06	56.669	0.0010407	0.0010677	0.00029677	1079	1.1767e-05	1.1643e-05	1269.7	300.91	1.1704e-05	1.168e-05	448.21	135.55	83.269	25.974	1.1811e-05	55.908	222.160	-77.361	-30.510	-72.955	149.749	60.235	-73.044	-69.696	100.869	21.224	-70.105	-65.514	-65.007	-59.969	-44.410	-61.505	-8191	255	
36385.312	1	1	0	0	0.22891	0.15794	0.11931	0.15032	0.03264	0.21097	0.14134	0.14973	0.23824	0.10668	0.11417	0.12417	0.091081	0.0084471	0.32419	0.033919	-3.6937	-3.4813	-3.5146	-4.2167	-3.2771	-3.7042	-3.9938	-3.3729	-3.9646	-3.4146	-3.4583	-4.0583	-3.3521	-3.7667	-3.8583	-3.4271	44.273	214.686	-22.589	176.574	-59.774	163.527	139.815	-39.724	213.141	-50.524	196.913	172.545	232.768	181.287	128.160	166.890	0.00020345	0.00050675	0.0001556	1150.2	5.6848e-06	4.0381e-06	1360.8	318.35	6.7331e-06	6.3669e-06	475.48	142.1	81.951	25.579	5.1977e-06	58.583	0.0010459	0.0010816	0.00030366	1105.4	1.188e-05	1.1966e-05	1306.8	311.09	1.2046e-05	1.2137e-05	461.28	140.25	85.497	26.78	1.2287e-05	57.621	147.827	-10.578	57.116	-73.362	40.281	122.293	-73.545	-69.822	154.045	48.940	-70.346	-66.018	-65.318	-60.657	56.563	-61.515	-8191	255	
36385.406	1	1	0	0	0.1421	0.15924	0.090221	0.11411	0.049304	0.23295	0.15162	0.22019	0.11893	0.15905	0.035791	0.24491	0.099056	0.033763	0.1815	0.043894	-3.5667	-3.6188	-3.25	-4.0646	-3.2625	-3.6521	-4.0667	-3.4062	-3.9958	-3.5917	-3.3167	-4.0771	-3.3792	-3.6479	-3.8187	-3.1833	1.611	268.826	262.826	89.162	221.058	57.076	-73.593	254.020	74.768	114.653	219.721	200.318	207.270	245.328	53.330	140.375	0.00020585	0.00081132	9.5073e-05	1183.8	6.6354e-06	3.5887e-06	1395.9	327.22	2.1438e-06	5.1412e-06	479.94	141.45	82.668	25.403	1.263e-05	56.242	0.0010856	0.0011347	0.00031455	1140.1	1.2405e-05	1.24e-05	1344.9	319.6	1.2202e-05	1.2338e-05	466.9	139.7	85.444	26.434	1.2015e-05	55.699	225.417	-24.335	262.285	-73.078	64.009	13.841	-73.390	-69.751	239.224	-6.748	-70.306	-65.440	-65.290	-60.811	-1.133	-61.485	-8191	255	
36385.504	1	1	0	0	0.18664	0.016241	0.075805	0.15839	0.14784	0.051876	0.24954	0.05184	0.12449	0.16136	0.23684	0.10158	0.14642	0.077929	0.1996	0.19827	-3.5396	-3.7083	-3.3958	-4.1208	-3.3021	-3.6354	-4.075	-3.3812	-3.9542	-3.775	-3.5042	-4.1583	-3.4188	-3.3792	-3.975	-3.2646	-71.767	-86.791	-78.187	-36.725	175.864	39.471	229.624	94.604	83.456	117.020	186.668	26.003	174.171	195.664	108.697	230.661	0.00033462	0.000685	0.00029936	1143.6	4.7993e-06	3.7799e-06	1349.2	311.98	1.8801e-06	6.4862e-06	458.96	134.34	79.558	24.419	1.4643e-05	55.208	0.0010575	0.001096	0.00030359	1101.3	1.1806e-05	1.184e-05	1290.7	306.04	1.1745e-05	1.1884e-05	447.18	134.12	82.606	25.669	1.1828e-05	54.868	185.944	88.635	46.546	-73.055	182.124	269.391	-73.366	-69.534	238.672	64.708	-70.383	-65.699	-65.140	-60.169	91.962	-61.497	-8191	255	
36385.621	1	1	0	0	0.097287	0.13466	0.13989	0.12905	0.053643	0.11511	0.14585	0.11935	0.11404	0.085842	0.22137	0.19115	0.20222	0.17196	0.15284	0.36837	-3.4958	-3.7938	-3.1375	-4.2312	-3.4771	-3.575	-4.1542	-3.35	-3.7562	-3.8125	-3.4437	-4.0542	-3.6625	-3.4021	-4.0417	-3.5438	177.255	224.279	200.794	195.531	-55.265	207.981	218.442	-39.655	-63.153	-61.014	157.844	153.691	-51.293	260.896	-41.567	193.109	0.00023805	0.0007756	0.0003998	1152.8	8.1647e-06	6.5403e-06	1370	317.62	2.5587e-06	8.1234e-06	472.6	140.5	81.884	25.582	3.1968e-06	58.062	0.001048	0.0010932	0.00030452	1108.7	1.1925e-05	1.2029e-05	1310.1	311.59	1.202e-05	1.2066e-05	459.24	138.96	85.133	26.72	1.1913e-05	57.337	194.671	-82.770	35.723	-73.299	58.892	-76.295	-73.385	-69.977	145.217	59.349	-70.378	-66.015	-65.041	-59.955	-2.591	-61.184	-8191	255	
36385.719	1	1	0	0	0.16933	0.13827	0.05039	0.070586	0.070427	0.17172	0.10197	0.041131	0.083002	0.087463	0.25736	0.042425	0.17278	0.18555	0.22783	0.043172	-3.1458	-4.0396	-3.3208	-4.1	-3.5896	-3.1583	-4.1792	-3.4188	-3.4375	-3.9833	-3.1813	-4.0354	-3.7292	-3.2375	-3.9125	-3.5146	137.521	170.221	253.717	214.008	80.343	264.900	-49.479	96.252	10.200	-39.952	204.828	-71.682	241.960	126.557	94.581	223.085	6.8632e-05	0.0014215	0.00016851	1173.5	9.1303e-06	1.7206e-06	1394.2	329.86	7.0851e-06	6.2976e-06	488.97	145.16	84.992	26.763	4.6871e-06	60.01	0.0010744	0.0011048	0.00030968	1127.5	1.212e-05	1.2254e-05	1334.8	320.92	1.2159e-05	1.2244e-05	475.05	143.63	87.878	27.721	1.2316e-05	59.141	138.635	51.218	22.698	-73.210	21.444	182.086	-73.274	-69.329	-2.859	146.518	-69.981	-65.432	-65.001	-60.028	216.564	-61.262	-8191	255	
36385.816	1	1	0	0	0.05424	0.058511	0.089364	0.30256	0.11788	0.16826	0.37305	0.10705	0.13433	0.10104	0.17141	0.30653	0.11504	0.19665	0.11131	0.29997	-3.0062	-3.9437	-3.325	-3.8875	-3.6583	-3.2521	-4.0604	-3.4542	-3.3708	-4.125	-3.3854	-3.8083	-3.9354	-3.375	-3.9062	-3.6021	109.865	191.453	66.952	-77.956	-81.433	-51.553	240.090	176.072	237.016	28.088	144.245	253.362	250.496	271.112	270.349	214.463	3.8394e-05	0.00099492	5.4653e-05	1201.8	6.572e-07	3.9218e-06	1428.9	338.62	8.7475e-06	6.0494e-06	500.39	148.35	86.938	26.883	3.6362e-06	60.669	0.0011001	0.0011392	0.00032037	1158.1	1.2632e-05	1.251e-05	1370.2	329.8	1.2521e-05	1.2563e-05	485.91	146.76	90.086	28.102	1.2624e-05	59.824	239.995	-8.411	264.232	-73.308	6.347	80.452	-73.383	-69.719	135.613	93.432	-70.191	-65.597	-64.950	-60.007	194.380	-61.291	-8191	255	
36385.887	1	1	0	0	0.05687	0.088716	0.022929	0.14301	0.21516	0.037809	0.19232	0.1634	0.14252	0.12144	0.15798	0.33361	0.092565	0.16874	0.027614	0.076426	-2.9708	-4.2104	-3.3646	-3.875	-3.8229	-3.3625	-3.8667	-3.6896	-3.1542	-4.1604	-3.5542	-3.6063	-3.9042	-3.2958	-3.7687	-3.825	-85.743	223.304	267.070	-58.770	-40.156	102.673	175.464	-44.002	35.303	-55.437	187.021	-63.550	-19.576	260.996	243.843	-70.140	0.00011985	0.00077107	0.00043914	1221.1	3.0775e-06	1.2409e-05	1448.8	337.58	6.3763e-06	5.5577e-06	486.95	141.77	83.075	25.277	2.8114e-06	55.768	0.0011201	0.0011544	0.00031963	1178.1	1.2651e-05	1.2502e-05	1381.6	328.36	1.2205e-05	1.2185e-05	473.01	140.41	86.041	26.266	1.1707e-05	55.067	112.213	225.989	111.781	-73.415	240.154	103.507	-73.274	-69.404	97.105	-6.905	-70.097	-65.520	-64.703	-60.889	-64.347	-61.226	-8191	255	
36386.008	1	1	0	0	0.17757	0.22645	0.29875	0.29788	0.14024	0.073199	0.27381	0.089522	0.15955	0.11911	0.12303	0.12585	0.15621	0.17683	0.10193	0.14077	-2.9354	-3.9271	-3.4188	-3.6333	-3.85	-2.9938	-3.9167	-3.9292	-3.2583	-4.0333	-3.5292	-3.4896	-3.9833	-3.1188	-3.6958	-3.7854	-58.439	-66.572	-73.489	233.654	67.629	158.814	-81.650	219.919	264.155	158.895	25.816	271.220	-58.436	262.436	-46.923	209.118	0.00019846	0.00033464	0.00017683	1152.8	1.1184e-05	7.7407e-06	1347.5	316.17	1.0981e-05	6.7323e-06	460.7	134.87	79.894	24.206	2.9265e-06	54.728	0.0010499	0.0010634	0.0002997	1108	1.1622e-05	1.1584e-05	1291.1	307.82	1.1591e-05	1.1435e-05	445.77	133.07	82.636	25.481	1.1396e-05	53.975	179.018	201.081	20.587	-73.245	-69.032	117.458	-73.481	-69.605	-77.487	26.074	-70.196	-65.969	-65.305	-59.689	186.681	-61.452	-8191	255	
36386.105	1	1	0	0	0.10709	0.23046	0.14234	0.1437	0.056824	0.11955	0.27809	0.24694	0.15405	0.07728	0.32241	0.066285	0.092168	0.073625	0.11993	0.22215	-2.8354	-4.0167	-3.4667	-3.5208	-4.0229	-3.2771	-3.7375	-3.9938	-3.1771	-3.9437	-3.7146	-3.5187	-4.0292	-3.3229	-3.4917	-4.0729	13.734	-16.236	174.169	-46.014	-11.171	41.698	-73.954	262.408	-61.507	-83.060	200.546	-40.968	142.734	160.034	-82.898	223.972	0.00024481	0.00063874	0.00015808	1138	3.0674e-06	9.1667e-06	1341.2	319.67	6.907e-06	6.4055e-06	467.9	136.53	80.876	25.262	8.1681e-06	56.905	0.0010231	0.0010525	0.00029263	1091.5	1.1576e-05	1.1416e-05	1286.6	310.61	1.1493e-05	1.1566e-05	453.17	136.12	84.141	26.279	1.1563e-05	55.891	148.000	-9.960	4.111	-73.342	155.936	123.183	-73.540	-69.503	-56.466	219.963	-69.923	-65.681	-65.213	-60.007	80.000	-61.495	-8191	255	
36386.199	1	1	0	0	0.13613	0.08118	0.13474	0.22671	0.20156	0.10715	0.4327	0.20769	0.073524	0.29965	0.41607	0.07961	0.18638	0.23766	0.11158	0.058726	-2.9313	-3.7125	-3.625	-3.5146	-3.9792	-3.4604	-3.6396	-4.1167	-3.1271	-3.8042	-3.9208	-3.4667	-4.0188	-3.4229	-3.5271	-4.1562	71.048	238.867	203.181	234.374	234.719	-35.584	203.636	229.993	115.700	-74.800	-60.576	-48.154	-52.664	-77.347	268.904	-65.577	0.0002251	0.0006202	0.0003811	1148.2	5.7218e-06	4.5785e-06	1361.5	323.18	2.1362e-06	1.1812e-06	471.42	139.47	82.395	25.428	5.0926e-06	57.317	0.0010204	0.0010591	0.00029298	1104.9	1.1476e-05	1.1668e-05	1303.9	314.98	1.1598e-05	1.1712e-05	457.43	138.02	85.103	26.525	1.1691e-05	56.255	207.525	230.114	-75.843	-73.383	118.748	48.880	-73.417	-69.275	121.854	143.054	-70.003	-66.125	-65.588	-59.913	86.788	-61.414	-8191	255	
36386.297	1	1	0	0	0.1374	0.013345	0.066701	0.31932	0.26831	0.17688	0.26516	0.16359	0.10388	0.041929	0.17842	0.18588	0.23093	0.10662	0.22527	0.11556	-2.8583	-3.75	-3.6813	-3.35	-4.0417	-3.5229	-3.6229	-4.1167	-3.4125	-3.7208	-3.9667	-3.4646	-4.0167	-3.8146	-3.2854	-4.0792	-27.703	170.829	-83.720	220.210	268.617	69.361	173.332	55.510	232.888	211.418	-71.800	238.633	-41.884	226.349	9.155	-53.013	0.0002443	0.00037886	0.00036321	1164.4	5.7506e-06	6.7854e-06	1382.7	325.12	2.702e-06	4.1465e-06	478.46	140.59	83.264	25.737	9.0835e-06	57.044	0.0010355	0.0010666	0.00030039	1119.9	1.1594e-05	1.1602e-05	1322.1	316.76	1.1755e-05	1.1765e-05	461.59	138.86	85.956	26.721	1.1826e-05	56.262	226.003	-62.778	-14.908	-73.262	-2.803	47.787	-73.358	-69.661	75.660	10.651	-70.455	-65.687	-65.110	-60.406	-5.068	-61.391	-8191	255	
36386.414	1	1	0	0	0.22353	0.16417	0.11906	0.11959	0.12842	0.058923	0.37001	0.075112	0.15359	0.076022	0.17693	0.059066	0.15486	0.28566	0.05545	0.088126	-2.9688	-3.6042	-3.9396	-3.45	-3.8812	-3.7604	-3.6437	-4.1375	-3.2875	-3.4833	-3.9771	-3.3688	-3.9167	-3.7146	-3.2417	-4.0458	233.042	-18.001	215.193	234.295	-60.949	154.769	224.061	256.168	-12.235	93.694	129.942	50.447	129.713	264.374	-14.969	177.371	0.00018764	0.0009653	0.0004881	1178.2	3.2319e-06	5.8373e-06	1385.5	325.3	5.7047e-06	4.6047e-06	474.96	137.79	81.868	24.773	7.0127e-06	54.856	0.0010455	0.0010821	0.00030393	1133	1.1791e-05	1.1835e-05	1328.9	317.45	1.1742e-05	1.1686e-05	456.72	135.99	84.102	25.801	1.1365e-05	53.891	196.169	91.910	-4.546	-73.379	12.253	-79.572	-73.364	-69.687	-57.817	-79.535	-70.280	-65.749	-65.241	-60.125	5.822	-61.059	-8191	255	
36386.484	1	1	0	0	0.073776	0.11739	0.1032	0.35642	0.068323	0.027721	0.32078	0.15692	0.28435	0.20789	0.092876	0.10959	0.24784	0.051794	0.22354	0.22535	-3.0583	-3.4062	-3.9354	-3.3396	-3.6604	-3.7479	-3.6146	-4.2417	-3.3312	-3.5021	-4.1062	-3.3896	-3.875	-3.6771	-3.2583	-4.0042	15.881	-85.551	64.470	248.726	-9.200	31.528	264.180	239.688	-48.648	42.333	92.726	-80.271	247.015	185.276	21.461	140.990	0.00030685	0.00048733	6.5078e-05	1132.7	5.0508e-06	4.8512e-06	1316.8	310.4	4.4108e-06	1.1088e-05	455.71	133.46	78.495	24.278	1.1629e-05	54.247	0.0010093	0.0010314	0.00028625	1088.9	1.1136e-05	1.1226e-05	1268.6	302.96	1.1201e-05	1.1214e-05	439.88	131.88	81.632	25.372	1.1235e-05	53.433	241.304	-73.875	263.747	-73.392	-41.248	109.447	-73.604	-69.665	153.617	77.999	-70.258	-65.544	-65.352	-59.673	83.389	-61.488	-8191	255	
36386.586	1	1	0	0	0.25181	0.06246	0.15954	0.2233	0.16795	0.090642	0.23554	0.19885	0.14857	0.15555	0.028685	0.2031	0.33854	0.061964	0.17371	0.13755	-3.2229	-3.2625	-3.8708	-3.3208	-3.6708	-3.5896	-3.4604	-3.9625	-3.6083	-3.1771	-4.0521	-3.2438	-3.6083	-3.8667	-3.2438	-4.0563	89.434	149.123	3.725	230.607	-39.348	257.961	-77.044	211.507	212.603	-48.161	77.795	-61.768	-73.682	-83.188	268.021	19.291	0.00020809	0.00076236	0.00030516	1122.3	2.8863e-06	9.1286e-06	1327.5	314.36	7.7611e-06	5.5282e-06	464.03	135.49	80.994	25.022	7.5796e-06	55.811	0.00098749	0.0010252	0.00028731	1081.3	1.1255e-05	1.1296e-05	1269.1	306.01	1.1325e-05	1.1342e-05	446.6	133.93	83.3	25.926	1.1436e-05	54.697	213.272	38.623	91.288	-73.347	117.249	256.709	-73.458	-69.788	71.548	91.338	-70.275	-65.627	-65.065	-59.976	-32.825	-61.379	-8191	255	
36386.703	1	1	0	0	0.16715	0.077319	0.27406	0.35475	0.1698	0.26074	0.20157	0.16448	0.39052	0.036645	0.098658	0.11089	0.13976	0.23859	0.072827	0.17552	-3.35	-3.3917	-3.9646	-3.6813	-3.4104	-3.7687	-3.2062	-3.8896	-3.8229	-3.3208	-4.0479	-3.6396	-3.4458	-4.0437	-3.2229	-3.6542	111.996	21.902	97.427	253.732	-54.060	139.828	223.940	175.050	137.934	180.964	166.081	246.907	-40.356	203.669	-36.966	142.322	0.00015457	0.00072438	1.3124e-05	1145.6	1.1001e-05	1.951e-05	1345.8	318.07	1.9122e-06	2.1868e-06	464.63	137.33	81.268	25.217	1.2092e-05	56.178	0.0010126	0.001044	0.0002898	1098.4	1.1377e-05	1.1549e-05	1283.5	309.02	1.1439e-05	1.1584e-05	449.68	135.75	84.106	26.355	1.1468e-05	55.423	125.388	-23.720	11.828	-73.400	84.184	103.491	-73.713	-69.740	130.815	42.182	-70.066	-65.755	-65.064	-59.894	53.615	-61.529	-8191	255	
36386.801	1	1	0	0	0.28603	0.2347	0.11288	0.19721	0.14157	0.24641	0.23536	0.18062	0.12423	0.146	0.18371	0.032803	0.11513	0.21652	0.12956	0.078192	-3.2792	-3.125	-3.8146	-3.6208	-3.2021	-4.0229	-3.3854	-3.8208	-3.8458	-3.1729	-4.1438	-3.4562	-3.4437	-4.0375	-3.2896	-3.7021	90.284	93.949	-48.064	-74.586	111.003	81.762	153.971	190.105	7.924	52.002	97.051	130.462	145.621	7.376	-80.119	218.300	0.00023041	0.00031277	0.00045696	1155.8	7.2357e-06	6.8248e-06	1353.8	322.59	4.3715e-06	2.7017e-06	468.15	138.54	82.117	25.891	1.6406e-06	56.776	0.001023	0.0010616	0.00029032	1110.2	1.1532e-05	1.1608e-05	1299.3	313.71	1.1687e-05	1.1772e-05	454.89	137.67	85.291	26.693	1.1549e-05	55.987	204.683	135.398	21.024	-73.145	61.340	218.578	-73.279	-69.498	92.389	106.271	-70.559	-65.636	-65.281	-60.624	-53.212	-61.632	-8191	255	
36386.895	1	1	0	0	0.14868	0.061406	0.13252	0.20322	0.11383	0.043726	0.058915	0.066626	0.16709	0.13816	0.18906	0.09123	0.19753	0.29093	0.31669	0.18523	-3.6417	-3.2521	-3.7146	-3.7229	-3.3396	-4.1792	-3.6312	-3.5396	-3.8771	-3.2729	-4.1021	-3.7417	-3.3396	-3.9479	-3.3854	-3.5729	209.744	-68.433	40.932	200.284	19.402	-29.998	155.426	192.580	28.432	24.078	182.200	216.069	189.663	-59.501	-73.749	218.443	0.0002213	0.0010864	0.00027029	1167	1.782e-06	4.1682e-06	1366.8	323.72	2.3243e-06	1.0178e-05	469.38	137.84	80.379	24.797	1.5266e-06	54.564	0.0010341	0.0010652	0.00029434	1125.9	1.1716e-05	1.1574e-05	1309.9	314.86	1.1566e-05	1.1462e-05	453.43	136.01	83.555	25.869	1.1224e-05	53.844	220.971	42.347	-72.788	-73.468	175.331	182.572	-73.280	-69.867	195.667	188.288	-70.056	-65.804	-65.784	-60.593	160.339	-61.310	-8191	255	
36386.992	1	1	0	0	0.18013	0.045148	0.12543	0.16462	0.064117	0.1022	0.30592	0.25035	0.18431	0.10925	0.042861	0.11063	0.15616	0.24492	0.053512	0.15583	-3.7146	-3.2188	-3.8063	-3.7625	-3.1458	-3.9292	-3.5563	-3.4854	-3.9146	-3.2292	-3.8333	-3.9042	-3.1333	-3.9417	-3.4229	-3.475	23.443	195.155	41.531	190.698	173.074	114.268	38.560	-80.208	121.941	73.637	-72.052	17.704	177.866	189.999	148.599	237.049	0.00030889	0.00039512	0.00045357	1121.4	3.0167e-06	1.0205e-05	1303	308.72	6.4587e-06	1.3976e-05	448.77	131.76	78.281	24.114	4.4801e-06	53.58	0.00099569	0.0010191	0.0002809	1080.2	1.1203e-05	1.1186e-05	1253.7	300.21	1.1168e-05	1.1113e-05	435.04	130.79	81.274	25.173	1.1132e-05	52.936	228.255	-12.896	-44.796	-73.154	-47.029	98.435	-73.405	-69.816	82.602	76.938	-70.205	-65.457	-65.577	-60.101	136.926	-61.490	-8191	255	
36387.090	1	1	0	0	0.22089	0.10953	0.16452	0.066737	0.28335	0.31132	0.15423	0.18171	0.17705	0.31649	0.15166	0.25558	0.10702	0.13907	0.1006	0.1277	-3.5625	-3.175	-3.6146	-4.1146	-3.2188	-3.9729	-3.8333	-3.5062	-4.0188	-3.4771	-3.7	-3.9313	-3.3125	-3.7833	-3.7292	-3.4833	114.318	229.157	233.499	204.313	272.413	161.326	210.414	159.654	16.095	218.461	83.377	182.290	-57.578	-21.582	148.287	-81.363	0.00016948	0.00091085	6.7342e-05	1129	7.8825e-06	3.967e-06	1313.6	313.07	2.0594e-06	1.2411e-05	453.83	134.73	79.917	24.76	7.919e-06	55.113	0.00099159	0.00103	0.00028577	1080.7	1.1329e-05	1.1154e-05	1259.7	303.56	1.134e-05	1.1323e-05	441.1	133.39	82.595	25.779	1.1342e-05	54.2	185.718	242.858	44.872	-73.128	-29.834	43.168	-73.740	-69.478	-5.202	36.970	-70.265	-65.867	-64.952	-59.356	-50.246	-61.533	-8191	255	
36387.184	1	1	0	0	0.13214	0.1209	0.10976	0.23412	0.24867	0.25457	0.22523	0.089049	0.13863	0.09734	0.18245	0.029235	0.06884	0.13899	0.082636	0.020335	-3.675	-3.4458	-3.4208	-4.1083	-3.0375	-3.9979	-4.0771	-3.4042	-3.9792	-3.55	-3.5208	-4.1083	-3.1833	-3.8271	-3.8896	-3.3729	16.003	41.642	245.185	193.170	214.025	207.011	-86.853	115.741	190.633	-8.247	265.990	81.939	59.381	-66.930	160.316	154.489	0.00017552	0.00029812	0.00023417	1139.5	6.574e-06	1.1611e-05	1329.9	313.38	6.4359e-06	1.5614e-05	459.66	136.17	80.747	25.147	6.5003e-07	55.231	0.00099652	0.001039	0.00028889	1096.5	1.1244e-05	1.1303e-05	1273.9	306.26	1.1342e-05	1.1409e-05	444.48	134.53	83.361	26.068	1.1512e-05	54.612	165.470	-10.149	84.486	-72.896	-59.864	62.317	-73.366	-69.655	77.723	17.659	-70.198	-65.887	-65.470	-60.160	-30.876	-61.377	-8191	255	
36387.305	1	1	0	0	0.064699	0.2628	0.05798	0.080406	0.29527	0.11407	0.33744	0.27439	0.12703	0.22527	0.14877	0.22376	0.23458	0.15741	0.18242	0.093575	-3.5583	-3.3083	-3.3833	-4.0521	-3.0104	-3.6292	-3.9167	-3.1792	-4.1125	-3.6229	-3.5271	-4.1833	-3.3979	-3.6667	-3.9417	-3.3104	71.459	66.991	190.360	233.001	100.643	139.785	150.738	230.150	49.662	108.953	265.056	198.550	259.205	231.541	8.988	175.813	0.00026175	0.00033068	0.00019985	1151.4	1.8777e-06	8.5589e-06	1337.9	317.47	8.8866e-06	2.4038e-06	465.27	137.01	81.69	25.544	6.7114e-06	56.721	0.0010112	0.001052	0.00029401	1102.7	1.1446e-05	1.1524e-05	1284.5	307.55	1.1435e-05	1.1533e-05	449.35	136.05	84.65	26.499	1.1665e-05	55.715	192.387	13.442	265.179	-72.932	-3.769	35.312	-73.301	-69.705	71.818	0.323	-70.433	-65.379	-65.520	-60.061	126.493	-61.361	-8191	255	
36387.402	1	1	0	0	0.10692	0.13207	0.075334	0.50982	0.10338	0.12698	0.1283	0.23575	0.19198	0.12717	0.093314	0.29315	0.043576	0.14387	0.14159	0.041706	-3.6521	-3.4333	-3.2083	-4.2063	-3.3604	-3.5729	-4.2229	-3.3708	-3.8	-3.8	-3.3771	-4.0833	-3.4125	-3.75	-4.1813	-3.2958	178.995	145.697	83.885	257.509	49.422	67.652	24.339	137.252	179.399	47.490	134.617	-69.882	158.295	240.336	147.647	157.580	0.00017107	0.0012764	0.00027108	1163.1	5.0948e-06	7.036e-06	1346.3	319.67	6.5681e-06	2.1742e-06	465.22	136.36	81.027	24.805	8.2747e-06	54.499	0.0010236	0.0010693	0.00029429	1114.5	1.1487e-05	1.166e-05	1296.5	311.28	1.145e-05	1.1553e-05	449.69	134.93	83.319	25.871	1.1206e-05	53.79	182.253	-13.115	59.448	-73.367	-83.506	57.215	-73.118	-69.862	-1.220	217.482	-70.372	-65.656	-65.178	-60.027	31.800	-61.608	-8191	255	
36387.496	1	1	0	0	0.066361	0.30531	0.23113	0.21047	0.11828	0.14941	0.071341	0.3987	0.14348	0.090496	0.21718	0.27267	0.26685	0.15102	0.1093	0.16502	-3.3875	-3.8688	-3.1833	-4.0229	-3.4646	-3.4042	-4.0646	-3.375	-3.4792	-3.8812	-3.3667	-4.0167	-3.7417	-3.4146	-4.0021	-3.4708	75.214	133.835	13.182	253.239	-81.728	196.957	-67.681	197.936	269.673	-53.452	-80.734	228.963	238.604	243.218	47.897	240.619	0.00019525	0.0013561	0.00024609	1112.8	6.6592e-06	2.4241e-05	1293.7	303.95	8.8165e-06	4.2219e-06	450.78	130.76	78.315	24.324	9.7299e-06	54.139	0.00098983	0.001028	0.00028287	1067.1	1.11e-05	1.1096e-05	1241	297.86	1.1043e-05	1.1175e-05	434.14	130.22	80.865	25.346	1.1023e-05	53.35	185.825	13.796	-11.603	-73.450	74.543	154.731	-73.395	-69.732	66.786	96.959	-70.087	-65.294	-65.158	-60.641	-56.801	-61.713	-8191	255	
36387.590	1	1	0	0	0.12027	0.20365	0.17169	0.38297	0.23159	0.19958	0.11366	0.14736	0.12406	0.22127	0.17928	0.25561	0.16379	0.12103	0.12419	0.14378	-3.2229	-3.8688	-3.1354	-3.9437	-3.5042	-3.4521	-4.125	-3.3333	-3.6354	-4.1125	-3.5667	-3.925	-3.7229	-3.3125	-3.8375	-3.4396	125.550	167.651	184.487	234.119	114.627	-79.555	204.126	-53.867	130.605	250.450	209.241	220.096	221.479	233.114	172.494	155.954	0.00010628	0.00053783	0.00017371	1127.4	4.1372e-06	1.1682e-05	1317.5	312.56	1.9481e-06	4.2408e-06	455.56	134.54	79.252	24.903	9.6463e-06	55.013	0.00098675	0.0010171	0.00028279	1076.8	1.1177e-05	1.1161e-05	1258.1	302.71	1.1257e-05	1.1166e-05	440.23	132.89	82.129	25.814	1.1202e-05	54.31	269.769	129.585	2.252	-73.435	99.813	95.175	-73.436	-69.707	206.287	122.460	-69.929	-65.976	-65.196	-59.941	-10.964	-61.662	-8191	255	
36387.711	1	1	0	0	0.11486	0.030453	0.35768	0.15454	0.23842	0.17143	0.10959	0.14534	0.11931	0.07693	0.25567	0.16862	0.1178	0.1534	0.15231	0.12042	-3.2438	-3.8708	-3.1958	-3.9188	-3.7229	-3.4292	-4.1562	-3.5729	-3.5083	-3.8896	-3.3271	-3.8417	-3.7875	-3.0792	-3.9979	-3.6458	32.826	121.709	188.159	-33.033	167.015	-14.166	222.341	234.185	117.339	145.618	170.033	-81.683	238.834	87.195	105.753	-15.591	0.00010965	0.00097612	0.00014071	1131.5	1.0147e-05	1.8609e-05	1319	315.77	4.4647e-06	1.0152e-05	459.63	135.92	80.67	25.105	1.4558e-06	55.735	0.0010056	0.0010353	0.00028195	1087	1.1311e-05	1.1199e-05	1268.3	306.49	1.133e-05	1.1301e-05	443.89	133.67	83.575	26.011	1.1268e-05	54.931	173.353	17.527	-13.169	-73.500	56.069	138.547	-73.326	-69.348	198.532	92.813	-70.327	-65.794	-65.166	-60.444	108.223	-61.468	-8191	255	
36387.785	1	1	0	0	0.066654	0.14374	0.040499	0.067379	0.078301	0.078098	0.2787	0.20949	0.17842	0.13703	0.13801	0.1836	0.023345	0.11264	0.21899	0.16872	-3.0583	-3.8479	-3.1937	-3.8875	-3.7771	-3.3146	-4.1667	-3.7708	-3.1979	-3.9583	-3.3708	-3.5792	-3.9	-3.0896	-3.6875	-3.8125	-37.519	260.238	77.799	240.845	184.878	-39.048	223.896	194.879	78.726	123.002	-83.771	229.446	-7.494	-22.162	-59.805	-46.580	0.00026993	0.0017173	0.00018326	1149.3	1.3475e-05	1.7319e-05	1341.1	317.34	6.7962e-07	1.1577e-05	464.63	137.37	81.707	25.584	3.1107e-06	56.334	0.001019	0.0010509	0.00029129	1101.3	1.157e-05	1.1414e-05	1286.8	308.59	1.1616e-05	1.1414e-05	449.3	135.8	84.541	26.418	1.1583e-05	55.695	201.628	-43.804	0.667	-73.355	81.450	87.302	-73.143	-69.548	113.277	74.493	-70.147	-65.733	-65.336	-60.061	2.203	-60.838	-8191	255	
36387.879	1	1	0	0	0.19977	0.051193	0.13411	0.12477	0.022005	0.2367	0.13244	0.14807	0.16126	0.16348	0.2207	0.13701	0.075719	0.10907	0.079115	0.067375	-2.9521	-3.8271	-3.4396	-3.7542	-3.9979	-3.2458	-4.0208	-3.8771	-3.3667	-3.9479	-3.4854	-3.5729	-3.9917	-3.2375	-3.7667	-3.85	74.269	158.211	29.542	202.966	209.606	190.825	192.595	175.644	24.555	253.548	213.823	190.859	141.824	250.666	155.565	231.899	0.00022512	0.0015952	0.00031555	1162.8	1.9763e-06	1.7323e-06	1347.4	323.02	2.6293e-06	1.053e-05	465.82	136.59	80.475	24.916	6.9438e-06	54.974	0.00103	0.0010631	0.00029747	1115.8	1.1485e-05	1.1555e-05	1297.6	312.39	1.1403e-05	1.1484e-05	450.39	134.97	83.37	25.849	1.1186e-05	54.046	188.542	107.346	73.326	-73.264	11.651	218.717	-73.324	-69.387	167.977	264.194	-69.871	-65.982	-65.239	-60.079	112.620	-61.291	-8191	255	
36387.977	1	1	0	0	0.054697	0.098033	0.13348	0.3427	0.04491	0.080259	0.11419	0.023723	0.21362	0.073967	0.10997	0.27843	0.13626	0.39769	0.13457	0.081174	-2.9646	-3.8979	-3.3812	-3.6312	-4.0833	-3.3187	-3.9313	-3.8833	-3.1521	-3.925	-3.6396	-3.475	-4.0104	-3.3583	-3.6104	-4.1396	-42.268	16.127	88.200	-64.671	42.555	93.337	-61.810	-60.750	111.590	233.456	4.693	-48.688	255.824	184.852	-74.608	118.398	9.5891e-05	0.00052762	0.00016305	1111.3	9.1502e-06	1.2466e-05	1300.8	305.73	3.2943e-06	1.1184e-05	448.27	131.84	78.094	24.258	8.0687e-06	54.345	0.00098794	0.0010015	0.00028313	1069	1.0986e-05	1.1097e-05	1243.1	298.37	1.0993e-05	1.1095e-05	434.03	130.09	80.814	25.181	1.1138e-05	53.402	226.133	-18.966	83.722	-73.244	77.779	25.381	-73.635	-69.496	-12.704	103.890	-70.169	-66.192	-65.361	-59.981	123.840	-61.537	-8191	255	
36388.098	1	1	0	0	0.10661	0.30036	0.26497	0.30752	0.16268	0.058824	0.19238	0.1969	0.044916	0.22939	0.097721	0.37722	0.029523	0.1564	0.15581	0.092643	-2.6458	-3.8563	-3.6354	-3.5125	-4.0312	-3.2958	-3.7917	-3.9688	-3.2146	-3.8958	-3.8563	-3.5042	-4.1125	-3.5021	-3.4688	-4.1417	178.236	-27.582	99.985	208.114	226.750	162.493	183.589	210.904	151.986	172.923	8.386	233.443	95.532	183.373	-41.036	225.040	0.00013663	0.00042604	0.00020558	1121.8	7.646e-06	6.8881e-06	1319	311.84	2.9892e-06	1.1893e-05	458.35	134.29	79.808	24.724	4.7896e-06	54.836	0.00096849	0.0010088	0.00028483	1077.2	1.1059e-05	1.1235e-05	1262.2	303.66	1.1129e-05	1.118e-05	442.16	132.68	82.15	25.579	1.1253e-05	54.047	134.602	-29.586	-49.808	-73.387	102.874	105.325	-73.552	-69.359	200.560	54.631	-70.034	-65.971	-65.834	-60.119	48.809	-61.202	-8191	255	
36388.191	1	1	0	0	0.20601	0.14313	0.25388	0.34912	0.14789	0.099673	0.17672	0.080737	0.085178	0.20915	0.2773	0.29697	0.12099	0.016237	0.15909	0.12986	-2.8333	-3.7125	-3.8125	-3.2188	-3.9938	-3.3958	-3.7229	-4.1125	-3.3438	-3.9437	-4.0062	-3.3146	-3.9708	-3.7021	-3.4771	-4.0667	-82.655	166.271	158.692	-65.231	152.706	45.906	241.555	189.194	175.102	-44.666	198.000	271.853	212.637	225.673	269.191	209.160	8.8786e-05	0.00034632	0.00026402	1135.1	4.1978e-06	8.2917e-06	1319.1	312.41	7.8244e-06	1.108e-05	458.93	135.64	80.864	24.873	1.4238e-06	55.494	0.00099466	0.0010292	0.00028719	1089.9	1.1317e-05	1.124e-05	1269.4	304.75	1.1244e-05	1.1246e-05	444.89	134.03	83.111	25.926	1.1312e-05	54.761	258.847	95.558	24.968	-73.425	230.682	-33.487	-73.646	-69.757	128.319	-62.971	-70.053	-65.444	-64.743	-59.878	186.226	-61.497	-8191	255	
36388.289	1	1	0	0	0.10333	0.19018	0.17693	0.044361	0.144	0.17037	0.36699	0.038963	0.21626	0.29142	0.15537	0.099666	0.21922	0.12241	0.098459	0.20024	-2.8875	-3.8208	-3.9271	-3.5042	-3.8604	-3.6771	-3.4313	-4.2542	-3.2646	-3.6896	-4.0604	-3.1521	-3.9562	-3.6833	-3.3396	-4.025	188.951	-54.454	-48.994	139.452	-21.940	190.888	207.825	33.414	-6.046	207.652	88.201	7.479	215.232	-46.269	227.681	230.320	0.00025716	0.00045045	0.00037142	1149.2	3.7485e-06	1.5468e-05	1343.3	318.55	2.5339e-06	1.4803e-05	471.38	138.54	82.551	25.639	1.5876e-05	57.293	0.0010069	0.0010339	0.00029063	1100.2	1.1189e-05	1.14e-05	1286.3	310.49	1.1435e-05	1.1459e-05	455.42	137.33	85.071	26.6	1.1411e-05	56.226	216.427	-1.816	63.101	-73.503	20.941	64.423	-73.401	-69.598	250.859	51.290	-70.140	-65.601	-65.295	-59.805	8.984	-61.216	-8191	255	
36388.387	1	1	0	0	0.19981	0.09958	0.19447	0.24337	0.098678	0.046959	0.23091	0.2278	0.027499	0.048319	0.20841	0.17711	0.14061	0.072305	0.37806	0.10354	-3.075	-3.5979	-3.7417	-3.3042	-3.8229	-3.7812	-3.4667	-4.1104	-3.3312	-3.5729	-4.1312	-3.325	-3.8125	-3.9521	-3.325	-4.1042	96.221	-48.891	25.754	218.271	171.009	238.301	195.691	-39.618	196.891	166.991	206.187	260.267	234.915	226.153	225.279	211.199	7.5495e-05	0.0010908	0.00014778	1168.7	2.8683e-06	1.5258e-05	1370.3	322.12	5.1364e-06	5.2325e-06	468.49	137.5	81.049	24.833	3.8964e-06	54.57	0.0010134	0.0010524	0.00029302	1122.6	1.1514e-05	1.1549e-05	1306.7	314.18	1.151e-05	1.1375e-05	452.89	135.84	83.398	25.884	1.1064e-05	53.828	151.638	147.703	19.944	-73.241	42.316	110.945	-73.404	-69.479	179.192	42.405	-70.065	-65.682	-65.236	-60.411	-23.455	-61.299	-8191	255	
36388.480	1	1	0	0	0.36318	0.18968	0.11571	0.079873	0.082409	0.099531	0.1584	0.11392	0.17251	0.064567	0.1306	0.13682	0.10847	0.098868	0.074896	0.26356	-3.2125	-3.4708	-4.0583	-3.3021	-3.8063	-3.7854	-3.4125	-4.1729	-3.7521	-3.4479	-4.3125	-3.3937	-3.7188	-3.9833	-3.2958	-4.1813	164.259	253.355	221.213	228.400	135.938	146.407	209.606	-81.219	108.414	-51.032	230.789	261.281	157.744	173.903	170.455	216.407	0.00024877	0.0010463	0.00014966	1115.2	5.2329e-06	1.0818e-05	1296.9	306.2	7.4788e-06	9.8911e-06	450.11	131.79	77.949	23.923	4.7052e-06	54.257	0.00097388	0.001008	0.00027917	1070.6	1.0967e-05	1.0955e-05	1243.7	297.8	1.1014e-05	1.0941e-05	434.85	130.28	80.35	24.992	1.0851e-05	53.231	210.355	126.103	5.036	-73.413	256.302	124.039	-73.662	-69.747	-60.209	99.326	-69.800	-66.043	-64.940	-60.668	25.548	-61.521	-8191	255	
36388.574	1	1	0	0	0.1047	0.038741	0.1554	0.044301	0.14459	0.090771	0.30981	0.05727	0.10817	0.11273	0.3404	0.076965	0.1955	0.11096	0.14625	0.1543	-3.1437	-3.3583	-4.0896	-3.5167	-3.5896	-4.0854	-3.3812	-3.9875	-3.4854	-3.4125	-4.0625	-3.5458	-3.7083	-3.85	-3.4083	-3.8563	215.769	-48.055	186.852	83.301	37.533	-26.343	187.131	147.180	253.178	217.852	231.650	228.917	225.151	51.098	260.423	176.455	0.00013676	0.0010217	0.00045042	1119	1.094e-06	6.5475e-07	1315.9	310.44	9.1742e-06	2.234e-06	454.3	134.51	79.474	24.662	1.2903e-05	55.501	0.00097015	0.001008	0.00027983	1072.2	1.1045e-05	1.1103e-05	1257.1	301.53	1.0965e-05	1.104e-05	441.83	133.08	82.123	25.601	1.1062e-05	54.415	223.575	-86.963	-19.899	-73.196	113.810	-20.345	-73.649	-69.390	77.300	197.109	-70.089	-65.591	-65.463	-60.287	50.053	-61.673	-8191	255	
36388.672	1	1	0	0	0.037652	0.13433	0.050663	0.095086	0.22277	0.11228	0.10499	0.36643	0.14962	0.067848	0.14554	0.30462	0.28661	0.13554	0.14166	0.083202	-3.425	-3.0521	-4.1125	-3.6937	-3.4896	-4.0271	-3.3625	-3.9042	-3.9042	-3.2625	-4.0333	-3.5208	-3.525	-3.9229	-3.1813	-3.8333	36.385	236.548	72.541	204.240	-48.546	128.263	-63.027	242.864	48.518	264.119	-71.477	166.689	222.240	219.672	52.274	59.203	0.00015428	0.00069565	0.00032768	1133.7	5.6502e-06	3.1339e-06	1325	315.07	7.5817e-06	7.6838e-06	465.13	135.07	81.064	25.244	6.1396e-06	56.385	0.00098095	0.0010117	0.00028225	1086.6	1.1076e-05	1.1223e-05	1270.8	306.54	1.114e-05	1.1176e-05	447.79	134.97	83.286	26.034	1.1273e-05	55.395	-85.115	35.828	28.912	-73.472	186.743	183.380	-73.544	-69.790	224.824	9.583	-70.178	-65.539	-64.941	-60.212	131.910	-61.146	-8191	255	
36388.793	1	1	0	0	0.11774	0.23648	0.11082	0.10473	0.038922	0.27392	0.12163	0.19725	0.09194	0.11054	0.18986	0.21278	0.060184	0.31476	0.11506	0.32823	-3.5271	-3.1833	-3.8833	-3.6208	-3.5042	-3.9688	-3.6188	-3.55	-3.9188	-3.2729	-4.0979	-3.7938	-3.5042	-4.0625	-3.4437	-3.725	148.599	197.946	256.741	-64.708	12.194	175.612	271.781	159.955	-47.672	159.024	244.543	165.027	62.475	197.443	124.508	212.802	8.3734e-05	0.00095602	0.00023994	1139	7.6619e-06	3.4616e-06	1340.3	318.78	1.9793e-06	6.4764e-06	467.29	138.06	81.26	25.487	2.3646e-06	57.224	0.0010048	0.0010412	0.00028884	1095.6	1.1379e-05	1.1311e-05	1286	310.32	1.1409e-05	1.1463e-05	453.18	136.84	84.174	26.419	1.1458e-05	56.283	228.401	21.245	-70.072	-73.230	88.036	22.064	-73.380	-69.585	111.195	168.475	-69.939	-65.704	-65.353	-60.123	59.101	-61.442	-8191	255	
36388.887	1	1	0	0	0.24295	0.01977	0.10175	0.10847	0.11739	0.20879	0.19804	0.096977	0.24169	0.0047237	0.03758	0.11882	0.28087	0.20806	0.13619	0.051376	-3.6937	-3.2125	-3.7854	-3.925	-3.2146	-4.0208	-3.6875	-3.5125	-3.9688	-3.3688	-4.1375	-3.9354	-3.4	-4.1312	-3.4667	-3.5312	-21.601	162.568	10.071	121.601	238.359	132.841	231.487	-64.011	58.678	-11.083	-15.640	230.770	-30.241	94.689	-26.891	153.088	0.00026934	0.00058776	9.5732e-05	1159.7	6.3171e-06	4.462e-06	1361.5	322.34	3.2001e-06	3.8605e-06	467.96	137.66	81.218	24.896	5.2918e-06	54.954	0.0010138	0.001042	0.00028955	1113.5	1.1439e-05	1.1273e-05	1305	313.54	1.125e-05	1.1267e-05	452.27	136.12	83.405	25.796	1.0931e-05	53.98	208.955	105.564	20.206	-73.174	270.031	-0.216	-73.493	-69.437	-53.335	155.980	-70.373	-65.763	-65.150	-60.608	19.147	-61.644	-8191	255	
36388.984	1	1	0	0	0.10099	0.18314	0.19484	0.24963	0.13585	0.10184	0.21463	0.11652	0.10408	0.19	0.23276	0.25161	0.20817	0.07604	0.37249	0.16727	-3.6375	-3.0875	-3.7333	-3.9854	-3.2542	-4.0125	-3.7771	-3.4854	-3.9167	-3.3521	-3.8271	-4.0021	-3.2479	-3.9271	-3.675	-3.5229	48.326	-8.034	-55.684	-49.826	-17.939	105.085	181.436	-24.649	15.846	187.324	254.023	240.157	-44.317	172.898	152.457	144.926	7.735e-05	0.00059463	0.00039297	1121.4	5.9427e-06	7.3329e-06	1307.2	308.51	9.3123e-06	6.5185e-06	449.18	131.82	77.033	23.89	7.9475e-06	53.47	0.00095611	0.00098683	0.00027334	1075.6	1.0669e-05	1.0722e-05	1251.2	298.47	1.062e-05	1.084e-05	434.48	130.3	80.001	24.795	1.0944e-05	52.678	127.918	-22.620	22.803	-73.329	30.576	-70.057	-73.284	-69.827	132.007	76.797	-70.178	-65.768	-65.123	-60.326	130.872	-62.076	-8191	255	
36389.082	1	1	0	0	0.049821	0.2405	0.23155	0.17024	0.095599	0.21342	0.085399	0.20783	0.27115	0.077007	0.28201	0.35741	0.11392	0.29949	0.18184	0.31764	-3.5896	-3.2833	-3.5875	-4.0062	-3.3875	-3.8563	-3.9333	-3.4292	-4.0125	-3.3125	-3.5396	-4.0708	-3.3417	-3.9688	-3.7479	-3.4854	144.463	79.655	57.781	-56.656	213.411	-82.035	268.011	194.943	200.059	142.560	214.901	205.245	130.529	243.187	90.651	129.817	0.00023442	0.00016469	3.0719e-05	1115.4	1.0845e-05	9.3228e-07	1314.9	306.24	5.4442e-06	1.1911e-05	451.71	132.76	78.499	24.117	2.7225e-06	54.322	0.00095348	0.00099561	0.00027761	1072.3	1.0836e-05	1.0842e-05	1257.3	298.37	1.0965e-05	1.1038e-05	436.75	131.56	81.223	25.06	1.1035e-05	53.284	144.316	-80.411	63.060	-73.624	10.980	95.809	-73.384	-69.476	39.572	71.337	-70.410	-65.716	-65.108	-60.147	-42.829	-61.578	-8191	255	
36389.176	1	1	0	0	0.27282	0.21238	0.31669	0.17453	0.15424	0.077789	0.19698	0.043237	0.1061	0.081898	0.031737	0.11609	0.16437	0.34503	0.075281	0.2237	-3.5771	-3.6042	-3.3417	-4.0646	-3.2375	-3.8854	-4.1146	-3.4062	-3.9813	-3.5271	-3.475	-4.1604	-3.2812	-3.8271	-3.8917	-3.2479	206.446	165.928	29.870	-77.092	189.368	36.318	207.840	240.361	70.455	223.403	-57.610	269.016	-49.326	220.414	144.231	161.344	0.00017696	0.00045448	7.8976e-05	1124.4	2.5974e-06	4.6127e-06	1322.9	307.28	8.8249e-06	1.0513e-05	455.5	135.36	80.092	24.667	1.0329e-05	54.913	0.00096939	0.001006	0.00028057	1078.1	1.1067e-05	1.0977e-05	1265.2	299.96	1.0988e-05	1.1034e-05	440.8	133.44	82.329	25.567	1.1055e-05	54.131	204.442	100.749	171.363	-73.374	71.748	56.595	-73.410	-69.840	260.398	60.464	-70.424	-66.081	-65.550	-60.079	-36.915	-61.348	-8191	255	
36389.273	1	1	0	0	0.1207	0.114	0.15268	0.18726	0.02761	0.23049	0.32085	0.12162	0.2522	0.12301	0.21382	0.4475	0.098188	0.27301	0.11859	0.17283	-3.6479	-3.5812	-3.3833	-4.1104	-3.3646	-3.7812	-4.2021	-3.4729	-3.7812	-3.7438	-3.3979	-4.125	-3.55	-3.6	-3.9167	-3.2687	-0.943	242.537	136.468	223.250	44.431	67.174	201.091	144.528	249.071	-45.260	250.693	218.184	247.545	170.474	67.585	234.556	0.00012112	0.00096135	0.00019956	1145.6	9.336e-06	1.0735e-05	1342.3	314.61	7.4835e-06	1.161e-05	461.6	139.4	82.298	25.252	5.6502e-06	56.791	0.00099047	0.0010236	0.00028477	1096.5	1.1245e-05	1.1304e-05	1284.4	306.73	1.128e-05	1.1469e-05	448.84	136.97	84.577	26.218	1.1406e-05	55.685	195.602	2.613	-42.936	-73.033	200.342	113.916	-73.430	-69.603	74.852	-21.829	-70.391	-65.634	-65.090	-60.462	80.991	-61.512	-8191	255	
36389.367	1	1	0	0	0.27741	0.18905	0.15544	0.1653	0.25718	0.067907	0.090131	0.24092	0.11104	0.28613	0.19301	0.23274	0.17638	0.21485	0.19454	0.18305	-3.6188	-3.6333	-3.35	-4.1979	-3.4	-3.4104	-4.1896	-3.3958	-3.8917	-3.6292	-3.3937	-4.0417	-3.6354	-3.3646	-4.0167	-3.3812	-20.064	217.955	80.026	-78.073	147.099	-12.279	46.053	264.022	17.911	159.801	209.688	260.381	241.840	-68.312	25.220	175.840	0.0001246	0.0010763	0.000142	1158	8.13e-06	6.6243e-06	1357.3	320.26	3.4415e-06	1.1821e-05	469.39	139.88	81.131	25.563	6.5446e-06	56.791	0.0010216	0.0010577	0.00029345	1112.2	1.1627e-05	1.1708e-05	1299.8	312.12	1.1578e-05	1.1619e-05	455.11	138.09	84.294	26.511	1.1328e-05	55.815	178.834	-61.312	128.063	-73.667	258.086	140.075	-73.359	-69.595	-52.758	112.046	-70.351	-65.791	-65.141	-59.967	61.602	-61.440	-8191	255	
36389.488	1	1	0	0	0.094954	0.066992	0.10994	0.12956	0.24478	0.20058	0.15918	0.087061	0.28565	0.081648	0.22724	0.17206	0.057401	0.134	0.092121	0.11563	-3.4313	-3.9542	-3.3354	-4.1083	-3.5792	-3.2708	-4.2458	-3.4125	-3.6792	-3.7687	-3.2292	-3.9042	-3.6813	-3.325	-3.9188	-3.4562	-57.889	-17.762	-51.966	210.878	82.047	-52.241	220.857	171.988	-22.250	-17.604	206.093	-74.134	26.907	-67.475	-31.223	-28.927	0.00015925	0.0005631	0.00021956	1120.6	7.182e-06	7.9724e-06	1310.2	310.55	2.2896e-06	1.5102e-05	458.62	133.52	78.832	24.375	1.0327e-05	55.253	0.00099979	0.0010359	0.00028557	1076.4	1.1331e-05	1.1122e-05	1261	302.46	1.1199e-05	1.1329e-05	442.25	132.48	81.657	25.557	1.1132e-05	54.431	172.029	264.495	111.025	-73.053	95.283	82.067	-73.347	-69.793	188.543	41.444	-70.032	-65.681	-64.780	-60.643	73.283	-61.359	-8191	255	
36389.586	1	1	0	0	0.029585	0.092114	0.19545	0.15372	0.047828	0.056759	0.12388	0.21756	0.1157	0.10101	0.16617	0.26842	0.092356	0.27214	0.14662	0.084947	-3.1896	-3.9958	-3.3333	-3.9979	-3.6063	-3.3896	-4.1104	-3.6125	-3.5375	-4.0958	-3.4667	-3.9625	-3.7604	-3.3146	-3.9271	-3.7292	156.264	117.718	189.890	-85.819	90.790	-44.703	229.158	215.002	170.369	142.580	17.474	12.209	28.165	112.917	251.357	-7.271	0.00025459	0.00074015	0.00041915	1122.3	9.6878e-06	1.0462e-05	1333.7	313.87	6.8218e-06	1.38e-06	464.15	137.52	80.309	25.454	8.6722e-06	57.069	0.0010049	0.0010456	0.00028917	1079.8	1.1486e-05	1.1439e-05	1279.5	306.52	1.1546e-05	1.146e-05	449.92	136.05	83.787	26.267	1.1445e-05	56.142	216.563	-70.697	-17.382	-73.474	84.949	-67.945	-73.528	-69.435	47.068	122.832	-70.166	-65.473	-64.907	-59.807	24.856	-61.396	-8191	255	
36389.656	1	1	0	0	0.042253	0.072498	0.14941	0.076582	0.067403	0.22723	0.35051	0.19468	0.1863	0.1448	0.20717	0.24478	0.12498	0.1899	0.13283	0.22739	-3.0771	-3.9917	-3.1813	-3.8833	-3.7625	-3.2896	-4.0604	-3.6188	-3.2333	-4.05	-3.3667	-3.7188	-3.8521	-3.3083	-3.9625	-3.7396	265.211	105.844	187.392	-49.791	88.667	-58.093	246.161	182.779	247.063	227.559	245.918	190.432	63.919	185.585	14.850	133.435	0.00015915	0.0014415	5.2786e-05	1152.9	1.3837e-06	5.6245e-06	1361.5	321.1	3.4405e-06	4.5102e-06	477.63	141.82	82.492	26.113	9.5406e-07	58.476	0.0010217	0.0010567	0.00029505	1104.1	1.1616e-05	1.1591e-05	1305.2	313.13	1.1798e-05	1.1628e-05	460.63	139.57	85.937	27.039	1.1726e-05	57.727	168.499	-49.572	133.694	-73.332	-82.455	150.031	-73.677	-69.751	91.720	37.057	-70.077	-65.939	-65.321	-60.081	109.091	-61.403	-8191	255	
36389.777	1	1	0	0	0.06608	0.038534	0.35626	0.17863	0.05409	0.13	0.24653	0.27448	0.2174	0.19604	0.14243	0.18849	0.16757	0.20966	0.14585	0.35846	-3.05	-3.9917	-3.1188	-3.7042	-3.9188	-3.2812	-4.0521	-3.6458	-3.3667	-4.1146	-3.6125	-3.6562	-4.0104	-3.1625	-3.8146	-3.8312	0.929	96.355	89.560	-78.752	98.115	67.131	227.096	-22.983	13.280	198.127	213.169	216.150	180.344	147.869	64.836	177.374	0.00024917	0.0010313	0.00010764	1174.1	7.0046e-07	1.5418e-05	1387.8	331.39	5.3583e-06	9.57e-06	489.77	146.68	85.882	27.418	5.3e-06	60.968	0.0010517	0.0010612	0.00029873	1125.7	1.1713e-05	1.1649e-05	1334	321.96	1.1787e-05	1.1724e-05	473.6	144.23	88.415	28.119	1.1805e-05	59.944	169.914	35.138	14.374	-73.455	161.597	-80.974	-73.377	-69.516	88.414	-23.036	-70.159	-65.716	-65.364	-59.986	150.167	-61.061	-8191	255	
36389.871	1	1	0	0	0.01922	0.13875	0.081646	0.27086	0.11064	0.15849	0.14462	0.1788	0.19086	0.30439	0.11145	0.15402	0.34865	0.23282	0.3482	0.2288	-2.9313	-4.0437	-3.4604	-3.7083	-4.0021	-3.3104	-3.925	-4.0875	-3.275	-4.0833	-3.5125	-3.7667	-4.175	-3.3917	-3.7021	-3.9062	129.179	157.993	-39.400	139.675	133.950	-87.318	244.768	-37.991	68.626	42.238	235.557	228.091	-15.189	7.013	189.697	204.027	0.00024365	0.00031055	0.00029616	1197.9	1.088e-05	2.547e-06	1413.5	336.75	3.6317e-06	9.0267e-06	498.27	147.93	87.363	27.413	7.3237e-06	61.597	0.0010647	0.0010895	0.00030561	1151.6	1.1807e-05	1.1978e-05	1361.4	328.88	1.1961e-05	1.2066e-05	482.5	146.28	89.924	28.369	1.1955e-05	60.496	145.521	32.928	122.017	-73.266	61.082	117.735	-73.392	-69.464	16.569	55.050	-70.112	-65.585	-65.275	-60.055	62.986	-61.353	-8191	255	
36389.969	1	1	0	0	0.14291	0.2071	0.23042	0.28033	0.19027	0.18033	0.13656	0.29547	0.046372	0.22353	0.21662	0.26246	0.11613	0.038032	0.25198	0.093754	-2.9604	-4.0354	-3.5812	-3.4896	-4.0563	-3.2521	-3.9042	-3.9771	-3.0833	-4	-3.7021	-3.4667	-4.2	-3.3958	-3.5417	-4.0146	255.339	-44.909	172.387	220.170	-66.512	103.625	143.390	199.097	228.053	-0.387	220.044	243.542	258.042	80.129	89.336	245.061	8.4979e-05	0.00028949	0.00037353	1210.3	9.6275e-06	1.4838e-05	1442.2	340.77	3.3315e-06	5.8437e-06	506.93	150.27	87.817	28.123	5.5169e-06	63.111	0.0010684	0.0010929	0.00030827	1165	1.1957e-05	1.212e-05	1379.1	333.35	1.1917e-05	1.2145e-05	489.66	148.57	90.863	28.915	1.2056e-05	61.717	166.361	3.358	0.406	-73.535	127.563	102.146	-73.498	-69.558	-26.312	67.963	-70.170	-65.850	-65.708	-60.065	208.646	-61.429	-8191	255	
36390.066	1	1	0	0	0.13292	0.17889	0.25861	0.27258	0.1143	0.063616	0.11445	0.087365	0.25555	0.13731	0.15895	0.15193	0.25337	0.13097	0.0346	0.085605	-2.7917	-3.9125	-3.5417	-3.2313	-4.0521	-3.4896	-3.7021	-3.9062	-3.0979	-3.8729	-3.9875	-3.6	-4.0833	-3.3146	-3.3729	-4.15	-11.201	60.103	-55.146	238.200	-34.945	82.462	180.208	249.690	64.850	106.356	200.867	136.910	-78.866	114.572	214.274	-3.864	7.654e-05	0.0016834	0.00034281	1234.1	2.0789e-06	1.0963e-05	1465	352.4	6.7812e-06	5.2102e-06	519.3	155.7	91.295	28.535	4.093e-06	64.297	0.0010608	0.0011056	0.0003044	1185.8	1.1835e-05	1.2068e-05	1399.4	340.77	1.209e-05	1.2152e-05	500.57	153.02	93.531	29.563	1.2104e-05	62.965	-84.660	136.541	-83.479	-73.447	-6.563	229.335	-73.492	-69.650	1.757	86.014	-70.100	-65.363	-65.205	-60.315	114.730	-60.901	-8191	255	
36390.188	1	1	0	0	0.041255	0.020958	0.071684	0.051059	0.22293	0.23651	0.34081	0.24822	0.23633	0.25065	0.17295	0.24144	0.12339	0.039396	0.12687	0.17026	-2.8875	-3.7687	-3.9167	-3.4833	-4.0708	-3.6437	-3.4229	-4.0792	-3.1479	-3.6688	-4.175	-3.3396	-3.9333	-3.6396	-3.3875	-4.1854	-60.124	59.319	127.443	-80.109	261.015	230.161	181.331	200.235	34.753	15.176	228.127	-84.401	-87.266	58.323	-32.472	253.830	0.00017522	0.00086565	0.00011538	1253.6	3.5993e-06	7.3588e-06	1488.6	356.35	3.7244e-06	1.6465e-06	522.55	157.64	93.036	29.156	4.4431e-06	64.778	0.0010699	0.0011102	0.00031065	1204.1	1.2128e-05	1.2348e-05	1420.2	345.9	1.2231e-05	1.222e-05	506.01	154.34	94.753	29.807	1.2152e-05	63.209	216.482	-27.958	23.454	-73.332	-42.815	106.371	-73.384	-69.673	166.122	85.706	-69.814	-65.175	-65.210	-59.968	157.960	-61.378	-8191	255	
36390.258	1	1	0	0	0.15379	0.053991	0.060728	0.15754	0.13645	0.1233	0.24023	0.17678	0.11872	0.10491	0.21301	0.32924	0.079904	0.35501	0.24673	0.13778	-3.0271	-3.5771	-3.8979	-3.4125	-4.0604	-3.6813	-3.4813	-3.9542	-3.35	-3.5187	-4.1646	-3.3563	-3.9729	-3.7562	-3.3229	-4.1979	227.566	89.786	209.949	252.566	71.352	240.143	209.710	213.894	259.102	253.634	179.091	256.449	77.527	33.366	75.809	187.403	0.0001953	0.00062439	0.00020904	1262.6	4.6734e-06	6.5405e-06	1495.4	357.38	5.8702e-06	6.4729e-06	528.55	156.68	91.651	28.746	6.9658e-06	63.384	0.0010941	0.0011283	0.0003157	1209.9	1.2281e-05	1.2415e-05	1430.1	347.15	1.2427e-05	1.2291e-05	508.27	154.23	94.164	29.568	1.1963e-05	62.005	246.075	0.420	29.788	-73.360	-45.022	55.441	-73.399	-69.543	30.825	25.530	-70.004	-65.371	-65.358	-60.198	21.985	-61.376	-8191	255	
36390.352	1	1	0	0	0.16986	0.30444	0.049969	0.43305	0.05469	0.085964	0.13397	0.071066	0.20799	0.35411	0.039356	0.30027	0.11689	0.10597	0.073758	0.13807	-3.0125	-3.4708	-4.0042	-3.2958	-3.5479	-3.9125	-3.425	-4.0083	-3.5396	-3.5	-4.35	-3.4562	-3.8333	-4.0188	-3.2833	-4.1937	-64.616	-84.663	-71.350	212.493	237.153	182.290	241.200	264.456	254.883	-81.733	198.853	154.720	261.335	24.239	134.938	176.949	0.00012963	0.00019991	0.00015677	1225.2	5.7555e-06	5.3872e-06	1424.3	338.71	2.2619e-06	4.771e-06	485.45	144.49	84.045	25.714	8.3534e-06	57.507	0.0010685	0.0010826	0.00029682	1175.8	1.1664e-05	1.1529e-05	1366.2	327.42	1.1369e-05	1.1201e-05	471.27	141.19	86	26.844	1.1167e-05	56.461	202.730	173.300	-19.184	-73.113	51.085	76.826	-73.150	-69.584	180.922	117.631	-69.696	-65.815	-65.210	-59.890	227.156	-61.334	-8191	255	
36390.473	1	1	0	0	0.14458	0.13603	0.073998	0.16442	0.035447	0.17185	0.049159	0.35692	0.32413	0.14333	0.084317	0.21888	0.15517	0.087364	0.14982	0.091839	-3.2271	-3.4604	-4.0521	-3.4625	-3.8125	-3.8833	-3.4021	-4.0021	-3.7708	-3.3333	-4.1729	-3.5396	-3.7417	-4.175	-3.2042	-3.9354	61.121	46.638	212.511	165.619	95.612	-65.995	235.477	230.494	238.917	-69.194	-54.954	235.909	223.688	210.023	-2.774	258.645	0.00013253	0.00064019	0.00023958	1153.3	8.6051e-06	2.331e-06	1359	322.4	8.6061e-06	8.77e-06	473.37	139.48	82.179	25.738	4.1082e-06	57.157	0.00098203	0.0010114	0.00028076	1105.7	1.1156e-05	1.1061e-05	1302.2	313.64	1.1051e-05	1.1089e-05	456.79	137.04	84.678	26.497	1.1075e-05	56.164	190.242	-34.961	-37.105	-73.022	-20.471	-21.277	-73.203	-69.513	135.978	86.512	-70.274	-65.649	-64.647	-60.327	247.675	-61.157	-8191	255	
36390.566	1	1	0	0	0.127	0.15173	0.083985	0.45892	0.085617	0.0048581	0.12911	0.078476	0.068353	0.047056	0.28457	0.09604	0.29062	0.20156	0.11134	0.42098	-3.5187	-3.2938	-3.9583	-3.6604	-3.4854	-4.0625	-3.6937	-4.0083	-3.8542	-3.2792	-4.0563	-3.5083	-3.5167	-4.0188	-3.1542	-3.7271	224.258	-48.443	133.070	250.757	266.157	161.284	159.022	169.735	250.703	-28.576	267.748	23.431	-38.287	126.309	239.881	181.625	0.00030734	0.00083703	0.00015085	1163	7.8561e-06	1.1912e-05	1376	327.86	2.5012e-06	6.1248e-06	481.22	142.39	83.598	25.972	8.2114e-06	58.309	0.0009877	0.0010245	0.00028265	1114.1	1.1196e-05	1.1141e-05	1315.2	317.32	1.1143e-05	1.1137e-05	463.37	139.81	85.87	26.908	1.1228e-05	57.111	241.807	0.794	-83.634	-73.148	73.392	-0.543	-73.253	-69.710	82.788	37.147	-70.225	-65.599	-65.245	-59.657	173.331	-61.488	-8191	255	
36390.664	1	1	0	0	0.12393	0.31924	0.12764	0.22794	0.082931	0.046343	0.18483	0.15591	0.22075	0.12662	0.3809	0.11063	0.11503	0.071954	0.036181	0.10251	-3.4875	-3.3125	-3.9292	-3.55	-3.3896	-4.0729	-3.5021	-3.8042	-3.9062	-3.3542	-4.0229	-3.7479	-3.6333	-4.1479	-3.5	-3.8208	204.740	1.056	-25.268	55.276	71.456	137.652	184.625	-57.845	255.079	180.924	222.260	171.829	-1.095	15.528	-33.760	-41.548	0.000236	0.0011721	0.00025585	1177.4	2.4132e-06	1.7264e-05	1391.3	330.11	1.8098e-06	1.4337e-05	486.3	143.41	83.896	26.193	5.1773e-06	58.834	0.0010039	0.0010267	0.00028657	1127.5	1.1316e-05	1.1244e-05	1332	321.1	1.1383e-05	1.1453e-05	468.96	141.09	86.42	27.106	1.1457e-05	57.712	185.678	21.679	3.390	-73.448	166.508	-16.746	-73.450	-69.917	-14.247	40.432	-70.055	-65.331	-64.840	-59.979	97.543	-61.234	-8191	255	
36390.785	1	1	0	0	0.41231	0.40487	0.12489	0.29049	0.089751	0.25417	0.13187	0.16017	0.18582	0.17263	0.063788	0.258	0.14026	0.13509	0.1004	0.31866	-3.7479	-3.2625	-3.9833	-3.8958	-3.3667	-4.0813	-3.6417	-3.8625	-4.1167	-3.225	-3.9458	-4.0333	-3.2854	-3.9271	-3.5146	-3.4375	101.922	175.152	-36.501	241.983	90.090	266.609	197.757	200.278	243.947	-16.138	107.426	254.301	-22.234	160.211	13.696	231.108	0.00012281	0.00023718	0.0002767	1187.5	3.9023e-06	7.6179e-06	1401.8	332.23	7.8426e-06	4.6234e-06	489.49	145.11	85.379	26.669	3.4615e-06	59.857	0.0010213	0.0010523	0.00029362	1139.4	1.1577e-05	1.1524e-05	1343.6	323.67	1.1562e-05	1.1575e-05	472.98	142.78	87.665	27.509	1.1592e-05	58.436	168.591	199.712	44.398	-73.416	213.138	-47.121	-73.692	-69.560	-81.146	12.400	-69.955	-65.487	-66.001	-59.647	62.706	-61.557	-8191	255	
36390.883	1	1	0	0	0.099421	0.088817	0.39373	0.15118	0.19223	0.12276	0.060705	0.11675	0.067969	0.24932	0.18317	0.12665	0.17136	0.14781	0.098281	0.21056	-3.8021	-3.3	-3.6854	-4.0854	-3.2167	-3.9917	-3.7771	-3.5104	-4.0958	-3.3417	-3.8771	-4.0333	-3.3083	-4.1958	-3.7896	-3.5438	91.816	156.956	113.898	232.274	20.860	51.202	-17.221	185.396	-5.492	259.146	-2.025	189.808	115.800	165.701	270.645	-0.189	0.00018843	0.0013236	8.4434e-05	1195.5	3.9324e-06	1.1338e-05	1403.6	333.31	7.9257e-06	9.5526e-06	485.73	141.53	82.982	25.505	1.4761e-06	56.838	0.0010231	0.0010596	0.00029469	1147.4	1.1432e-05	1.1412e-05	1344.6	323.78	1.1299e-05	1.1315e-05	467.58	139.76	85.548	26.562	1.1136e-05	55.683	212.004	85.358	-31.069	-73.005	61.026	80.048	-73.288	-69.395	-28.422	204.331	-70.253	-65.315	-65.352	-59.796	188.178	-61.171	-8191	255	
36390.953	1	1	0	0	0.054367	0.044043	0.18804	0.10704	0.17859	0.12136	0.10382	0.25512	0.14601	0.13046	0.087006	0.18047	0.12098	0.22159	0.16086	0.14198	-3.7896	-3.4333	-3.6479	-3.8625	-3.2604	-3.9792	-3.8792	-3.4479	-4.0604	-3.4271	-3.8438	-4.0563	-3.2938	-3.9313	-3.8187	-3.25	233.428	229.936	-73.588	230.176	4.872	102.269	-75.715	184.401	43.455	201.062	167.433	-43.518	170.073	-71.481	20.046	261.810	0.00017479	0.00091173	0.00051203	1145.3	7.9311e-06	8.121e-06	1342	317.67	6.2054e-06	3.5516e-06	466.95	136.03	81.009	24.988	3.1997e-06	55.875	0.00098628	0.0010104	0.00027997	1100.4	1.1082e-05	1.0973e-05	1286.8	309.59	1.0935e-05	1.1088e-05	450.87	134.68	83.372	25.95	1.1182e-05	54.963	186.169	21.867	-6.685	-73.311	110.715	20.273	-73.159	-69.549	-14.116	268.107	-70.597	-65.816	-65.426	-60.130	79.732	-61.582	-8191	255	
36391.074	1	1	0	0	0.17421	0.074996	0.15212	0.20516	0.015181	0.043647	0.09077	0.12403	0.11597	0.16741	0.043635	0.28151	0.20075	0.09259	0.15594	0.32105	-3.7229	-3.2021	-3.5563	-4.1167	-3.3292	-3.7604	-3.8583	-3.3729	-4.0083	-3.4021	-3.4792	-4.1312	-3.425	-3.6458	-3.9021	-3.2396	251.716	67.222	-50.001	228.633	-72.063	2.100	207.604	234.803	167.332	-52.199	3.004	-80.279	251.284	33.545	58.124	207.444	0.00022317	0.00052296	0.00022086	1157.2	8.6706e-06	2.7653e-06	1358.3	323.04	2.1023e-06	1.3036e-05	472.33	138.89	82.05	25.451	5.1548e-06	57.226	0.00098277	0.0010246	0.00028302	1108.5	1.1146e-05	1.118e-05	1301.7	313.71	1.1129e-05	1.1259e-05	456.02	137.1	84.435	26.344	1.1215e-05	55.713	187.599	95.449	-11.374	-73.083	186.204	206.461	-73.667	-69.813	84.688	142.032	-70.205	-65.796	-65.473	-60.154	261.758	-61.419	-8191	255	
36391.172	1	1	0	0	0.088703	0.073249	0.02583	0.37434	0.085877	0.13916	0.21834	0.087421	0.37087	0.11518	0.21008	0.26054	0.18151	0.19724	0.14866	0.24316	-3.5917	-3.5271	-3.4437	-3.9938	-3.3479	-3.7146	-3.9646	-3.4958	-3.9479	-3.5958	-3.4958	-4.1813	-3.4958	-3.6417	-3.9958	-3.3292	32.189	-57.216	188.756	219.967	230.822	203.134	221.988	-70.369	246.777	137.119	200.713	257.935	-39.580	-87.395	109.325	-18.861	0.00019255	0.00055911	0.00030763	1162.1	3.3063e-06	5.6431e-06	1373	326	2.6745e-06	9.4693e-06	477.78	141.32	83.294	25.778	9.1135e-06	58.466	0.0009896	0.001034	0.00028325	1116.1	1.1231e-05	1.1248e-05	1312.9	316.12	1.1096e-05	1.1206e-05	461.96	139.42	85.794	26.865	1.1148e-05	56.828	177.145	-23.354	25.533	-73.415	138.812	126.860	-73.399	-69.626	40.441	35.633	-70.331	-65.400	-64.988	-60.350	110.989	-61.150	-8191	255	
36391.266	1	1	0	0	0.13726	0.28392	0.12554	0.25259	0.21113	0.23928	0.14144	0.21521	0.15384	0.10959	0.38376	0.22516	0.078829	0.14655	0.31967	0.15661	-3.6208	-3.6542	-3.2229	-4.1146	-3.4583	-3.5875	-4.1875	-3.425	-3.6958	-3.8625	-3.3312	-4.1604	-3.5604	-3.4854	-4.0312	-3.4792	257.999	180.308	-61.673	214.248	175.834	44.441	237.548	135.281	-48.662	236.921	242.361	241.536	-16.599	208.070	207.033	224.579	0.00010728	0.00030252	0.00032555	1178.6	5.6249e-06	8.1592e-06	1385.4	333.1	9.0862e-06	3.4924e-06	485.73	143.34	84.74	26.41	9.2377e-06	59.305	0.0009965	0.0010405	0.00028522	1127	1.1262e-05	1.1301e-05	1329.1	322.02	1.1397e-05	1.1451e-05	469.16	141.55	87.38	27.296	1.1264e-05	57.895	136.393	-37.485	-32.288	-73.263	39.014	61.852	-73.292	-69.699	33.689	51.511	-69.990	-65.632	-65.344	-60.216	12.351	-60.963	-8191	255	
36391.363	1	1	0	0	0.090066	0.12856	0.04957	0.05344	0.21337	0.17772	0.36751	0.33551	0.26857	0.048126	0.20247	0.10587	0.14337	0.049528	0.082498	0.12774	-3.4542	-3.7708	-3.3021	-4.0938	-3.55	-3.3187	-4.2708	-3.4375	-3.6833	-4.0875	-3.2042	-4.1542	-3.6375	-3.3521	-4.1625	-3.4604	80.384	45.587	169.758	258.414	13.322	-78.241	245.178	214.525	257.890	169.150	179.808	240.727	192.652	-58.910	94.823	250.153	0.00031998	0.0018835	7.0307e-05	1189	9.6126e-06	9.0531e-06	1395.2	330.92	2.5531e-06	4.6332e-06	476.65	139.95	82.837	25.637	3.1434e-06	56.326	0.0010157	0.001057	0.0002907	1139.5	1.1411e-05	1.1336e-05	1333.2	320.65	1.119e-05	1.1153e-05	460.16	137.9	84.508	26.209	1.0835e-05	55.185	222.338	51.766	-34.977	-73.166	95.013	125.323	-73.151	-69.717	-18.561	134.762	-70.332	-65.927	-65.138	-60.191	265.102	-61.398	-8191	255	
36391.457	1	1	0	0	0.066901	0.060685	0.044593	0.50625	0.088196	0.23408	0.30596	0.29395	0.19225	0.047841	0.13367	0.16763	0.14098	0.24968	0.29628	0.07849	-3.3146	-3.8833	-3.2438	-4.0354	-3.7062	-3.4396	-4.225	-3.4979	-3.4021	-3.9313	-3.4562	-3.9313	-3.8125	-3.2104	-4.0417	-3.3458	250.687	40.517	248.236	257.401	18.905	155.716	193.373	226.232	-78.602	189.901	185.674	201.744	201.104	237.695	-64.882	250.400	0.00020595	0.00017827	0.00023793	1139	1.0215e-05	1.0711e-05	1326.5	315.42	6.9484e-06	5.003e-06	461.04	135.29	80.244	24.904	1.1241e-05	55.064	0.00096343	0.00099081	0.000273	1086.2	1.0817e-05	1.0694e-05	1269.7	306.73	1.0714e-05	1.07e-05	444.74	133.59	82.329	25.697	1.0671e-05	54.295	161.651	-55.644	-19.958	-73.346	150.489	-23.095	-73.365	-69.512	57.820	-27.811	-70.315	-65.862	-65.334	-60.125	114.278	-61.612	-8191	255	
36391.555	1	1	0	0	0.12705	0.029719	0.18462	0.19091	0.11718	0.35344	0.21289	0.11342	0.17464	0.12947	0.19824	0.086267	0.063675	0.21367	0.13531	0.11658	-3.0563	-4.0104	-3.1625	-3.9688	-3.7708	-3.1854	-4.2417	-3.5521	-3.5146	-4.2188	-3.5917	-3.7438	-3.9062	-3.4146	-4.0292	-3.8833	41.261	270.753	241.217	-35.485	144.325	187.720	187.933	186.454	267.358	112.223	-66.747	208.012	264.961	-79.369	76.134	-80.878	0.00023794	0.00025936	0.00025731	1142.7	1.1062e-05	7.3341e-06	1343.2	317.62	5.0101e-07	5.3973e-06	463.05	136.22	80.915	25.018	1.3092e-06	55.989	0.00096812	0.00098801	0.00027631	1095.6	1.0945e-05	1.0833e-05	1286.3	308.96	1.0942e-05	1.0906e-05	449.36	135.15	83.322	25.984	1.0993e-05	55.048	185.051	-9.746	-37.003	-73.250	94.690	121.518	-73.346	-69.375	46.483	27.076	-70.131	-66.029	-64.678	-60.430	150.314	-61.385	-8191	255	
36391.648	1	1	0	0	0.22578	0.073262	0.155	0.22876	0.057908	0.1778	0.031401	0.032842	0.21912	0.173	0.30968	0.17401	0.059891	0.20781	0.028142	0.097778	-3.2208	-3.9854	-3.4396	-3.7646	-3.8979	-3.3146	-4.1438	-3.6354	-3.45	-4.0854	-3.4688	-3.7021	-4.0896	-3.3292	-3.8875	-3.7125	-23.045	32.426	-82.013	240.203	65.541	187.467	151.642	246.899	6.662	155.194	220.001	237.027	235.422	248.858	238.067	207.599	0.0002441	0.00083263	0.00044506	1146.8	5.1052e-06	1.3224e-05	1349.9	320.03	5.2004e-06	1.9275e-06	469.89	138.62	82.207	25.381	5.4111e-06	57.017	0.00098106	0.0010136	0.00028176	1100.7	1.1073e-05	1.1039e-05	1293.2	311.23	1.11e-05	1.1057e-05	454.51	136.73	84.418	26.383	1.1148e-05	55.939	195.254	249.856	10.374	-73.465	131.706	38.886	-73.515	-69.804	192.736	46.425	-69.948	-65.806	-64.842	-60.320	-86.040	-61.297	-8191	255	
36391.746	1	1	0	0	0.2614	0.11571	0.1808	0.38137	0.31041	0.073378	0.22759	0.27685	0.091005	0.097334	0.086557	0.13496	0.13633	0.18395	0.20169	0.028888	-2.8729	-4.0687	-3.3521	-3.6437	-4.0646	-3.1917	-3.9188	-3.7104	-3.2417	-4.0542	-3.5729	-3.4313	-4.0167	-3.1354	-3.7417	-4.0083	188.181	-47.055	-44.916	-71.645	63.176	202.773	214.961	125.790	202.194	149.126	121.470	-76.033	192.567	103.755	98.724	-36.368	0.00015424	0.00093031	7.3157e-05	1165	2.4914e-06	2.0436e-05	1364.4	322.58	2.0942e-06	4.9362e-06	480.78	141.27	83.344	25.928	7.5321e-06	58.593	0.00098998	0.0010229	0.00028947	1114.7	1.1136e-05	1.1365e-05	1306.9	314.61	1.1192e-05	1.1429e-05	462.41	139.2	85.654	26.94	1.1426e-05	57.28	151.634	264.298	137.813	-73.199	-24.319	237.673	-73.413	-69.952	-73.108	43.618	-70.013	-65.822	-65.220	-59.947	78.501	-61.218	-8191	255	
36391.867	1	1	0	0	0.19762	0.15891	0.35724	0.15333	0.049931	0.17002	0.068675	0.070765	0.25513	0.077895	0.071343	0.14416	0.20601	0.23839	0.15214	0.17985	-2.7792	-4.1562	-3.5563	-3.5271	-3.925	-3.4521	-3.8583	-4.0146	-3.1292	-4.1292	-3.8021	-3.5687	-4.2	-3.5208	-3.4146	-4.0229	241.406	195.878	270.325	250.998	-40.138	218.586	-26.408	166.759	-67.225	98.998	148.572	57.199	110.067	153.216	8.079	-63.837	0.00012078	0.00089127	0.00015859	1167.1	1.0779e-05	6.0213e-06	1371.1	326.64	9.1736e-06	5.7334e-06	471.81	137.14	81.097	25.159	2.2606e-06	55.317	0.0010038	0.0010525	0.00028954	1123.3	1.1425e-05	1.1479e-05	1312.1	315.79	1.1175e-05	1.1209e-05	454.68	136.07	83.172	26.048	1.1e-05	54.507	228.412	-18.218	254.094	-73.027	119.759	110.137	-73.785	-69.436	92.496	-11.451	-69.928	-65.850	-64.801	-60.425	236.118	-61.395	-8191	255	
36391.961	1	1	0	0	0.064394	0.059594	0.28913	0.33052	0.19867	0.22487	0.21029	0.08295	0.042355	0.097952	0.18598	0.2674	0.28496	0.2444	0.10194	0.17681	-2.9062	-3.8292	-3.7021	-3.5542	-4.0396	-3.5146	-3.6292	-4.2021	-3.2125	-3.8438	-3.7938	-3.1833	-4.0979	-3.6271	-3.4062	-4.1104	158.202	164.925	61.718	238.317	70.212	33.736	207.146	-64.031	71.598	15.871	174.756	244.041	72.891	-12.134	-19.674	210.211	0.00016062	0.00065503	7.9453e-05	1124.1	3.3657e-06	1.8339e-06	1316.7	312.09	5.372e-06	6.6082e-06	453.92	133.83	79.027	24.51	2.6455e-06	55.434	0.00096951	0.0010168	0.00027871	1074.8	1.079e-05	1.1053e-05	1258.4	303.01	1.0975e-05	1.111e-05	441.09	132.31	81.385	25.511	1.0997e-05	54.468	181.652	-32.302	210.474	-73.478	20.656	63.186	-73.626	-69.376	-45.727	118.310	-70.415	-65.509	-65.268	-59.619	2.745	-61.468	-8191	255	
36392.059	1	1	0	0	0.15066	0.050013	0.11	0.38685	0.041297	0.054908	0.41568	0.26029	0.079889	0.14121	0.14038	0.16493	0.1108	0.10131	0.21741	0.055566	-2.9	-3.7854	-3.9417	-3.4	-4.0875	-3.5771	-3.5854	-4.3292	-3.2542	-3.8104	-3.8875	-3.2	-4.0188	-3.6708	-3.2583	-4.2396	43.585	-54.750	155.142	230.371	26.741	-68.013	177.640	239.269	231.596	-82.917	-82.523	72.957	104.716	159.827	-48.302	100.655	0.00017602	0.00057185	0.00024209	1128.5	2.4694e-06	3.647e-06	1324.1	313.86	1.7146e-06	1.0989e-05	467.09	138.14	81.874	25.606	7.0229e-06	56.873	0.00098184	0.0010127	0.00028073	1079.6	1.1151e-05	1.1154e-05	1271.6	306.41	1.1051e-05	1.1243e-05	450.22	135.86	83.443	26.377	1.0996e-05	55.926	200.842	17.805	18.285	-73.580	15.509	248.609	-73.344	-69.309	247.265	121.542	-69.807	-65.792	-64.983	-59.567	93.988	-61.212	-8191	255	
36392.152	1	1	0	0	0.14984	0.089668	0.23403	0.40366	0.15626	0.052213	0.32553	0.15539	0.089077	0.099999	0.24147	0.072434	0.11387	0.12377	0.10709	0.17919	-3.0417	-3.7729	-4.0042	-3.5979	-3.8625	-3.7938	-3.575	-4.2625	-3.4125	-3.7854	-4.0833	-3.5167	-3.9	-3.7792	-3.2792	-4.1625	-0.424	24.385	-87.545	245.243	93.402	-78.109	208.089	249.099	64.131	148.040	79.717	40.800	203.774	22.647	270.517	201.835	3.0528e-05	0.00090815	0.00032387	1142.6	6.7326e-06	1.2313e-05	1341.7	320.04	2.8929e-06	1.4611e-05	469.2	139.28	81.749	25.392	1.0099e-05	57.389	0.00099575	0.0010304	0.00028347	1093.3	1.1263e-05	1.1228e-05	1286.9	310.55	1.1357e-05	1.1272e-05	453.75	137.31	84.387	26.45	1.141e-05	56.34	257.688	159.651	-5.997	-73.328	269.851	33.867	-73.399	-69.642	-52.844	37.753	-70.317	-65.544	-65.441	-59.909	91.802	-61.048	-8191	255	
36392.250	1	1	0	0	0.052759	0.15782	0.2082	0.20027	0.27119	0.091365	0.22166	0.18198	0.076351	0.1565	0.21686	0.15888	0.14847	0.19663	0.096674	0.18854	-3.025	-3.5771	-3.8875	-3.4437	-3.7833	-3.9271	-3.475	-4.2542	-3.4083	-3.5938	-4.2021	-3.3667	-3.7854	-3.9167	-3.1875	-4.1604	224.918	183.208	-73.211	213.557	256.521	2.177	238.705	254.910	186.103	-3.079	168.432	101.805	-73.818	231.856	104.185	249.432	8.1747e-05	0.00060712	0.00022081	1153.7	4.4831e-06	6.1365e-06	1357.2	324.01	3.2459e-06	5.691e-06	480.24	140.43	83.368	26.042	8.9309e-06	58.578	0.0010192	0.0010495	0.00029019	1105.8	1.1493e-05	1.1578e-05	1301.5	313.96	1.1671e-05	1.1487e-05	460.77	139.2	85.69	26.886	1.1551e-05	57.353	185.724	210.678	-12.609	-73.414	38.760	166.688	-73.516	-69.860	112.818	191.481	-70.313	-65.522	-65.390	-59.853	128.254	-61.300	-8191	255	
36392.348	1	1	0	0	0.13678	0.22001	0.15182	0.096079	0.25584	0.13956	0.12475	0.051152	0.23406	0.19428	0.040362	0.14246	0.071808	0.1439	0.098865	0.25252	-3.2146	-3.3708	-3.9271	-3.4104	-3.7646	-3.9875	-3.3563	-4.0771	-3.7521	-3.4583	-4.3146	-3.4813	-3.7354	-4.0521	-3.3021	-4.0563	204.895	230.188	102.714	-3.201	244.549	214.777	-84.288	-65.241	147.522	-25.319	162.195	225.546	75.226	180.663	100.691	74.999	6.4489e-05	0.0016844	0.00016338	1177.6	9.2161e-06	7.6091e-06	1371.5	324.99	3.209e-06	1.0224e-05	470.13	137.16	80.297	25.042	5.3449e-06	55.286	0.001032	0.0010539	0.00029463	1124.7	1.1657e-05	1.1498e-05	1311.1	315.73	1.1406e-05	1.1263e-05	454.99	136.52	83.209	25.971	1.1193e-05	54.688	214.420	17.987	138.733	-73.404	125.297	65.380	-73.428	-69.540	182.434	57.350	-70.231	-65.353	-65.440	-59.875	69.895	-61.442	-8191	255	
36392.465	1	1	0	0	0.14306	0.28836	0.10111	0.30013	0.14133	0.18297	0.24349	0.24392	0.15703	0.1208	0.11397	0.038983	0.31491	0.15015	0.17423	0.058942	-3.4104	-3.3458	-4.0917	-3.6813	-3.4771	-3.9833	-3.5521	-3.9562	-3.8563	-3.3229	-4.2792	-3.5146	-3.5583	-4.0167	-3.2438	-3.9417	142.713	213.565	211.734	185.277	21.983	195.569	190.805	256.178	-28.294	-16.830	137.017	226.377	16.948	111.701	-50.105	16.422	0.00012787	0.00099995	0.00028628	1116.7	5.436e-06	1.2276e-05	1306.7	306.41	1.9613e-06	5.2356e-06	455.24	133.77	78.681	24.403	7.6564e-06	55.404	0.0009964	0.0010105	0.00028097	1070.4	1.1086e-05	1.1073e-05	1256.5	300.91	1.1177e-05	1.1189e-05	440.4	132.38	81.229	25.394	1.1258e-05	54.362	143.277	-20.776	-34.797	-73.451	-16.989	264.211	-73.432	-69.424	256.020	43.112	-70.145	-65.686	-65.554	-59.750	44.096	-61.030	-8191	255	
36392.562	1	1	0	0	0.075303	0.14655	0.099369	0.18279	0.11228	0.19292	0.21752	0.059533	0.25361	0.14555	0.12178	0.22932	0.27827	0.1238	0.091713	0.21001	-3.5708	-3.1396	-3.9292	-3.6646	-3.5687	-4.0708	-3.5521	-3.7854	-4.1	-3.325	-4.2271	-3.6063	-3.5583	-4.1333	-3.2938	-3.7521	-63.070	122.121	44.195	12.530	226.136	74.728	211.044	-50.640	133.728	173.431	258.182	-72.011	213.496	254.135	-37.764	172.488	0.00014538	0.0010298	0.00037034	1120.8	3.1782e-06	6.7935e-06	1320.2	314.78	7.0439e-06	1.2464e-05	467.06	136.76	81.069	25.072	4.4842e-06	56.348	0.0009867	0.0010306	0.00028237	1077.3	1.1176e-05	1.1179e-05	1268	305.46	1.1134e-05	1.1363e-05	449.63	135.56	83.11	26.047	1.1201e-05	55.368	203.710	61.495	245.992	-73.170	191.863	-15.065	-73.469	-69.744	194.940	-2.797	-70.041	-65.826	-65.572	-60.153	143.105	-61.575	-8191	255	
36392.656	1	1	0	0	0.1087	0.11224	0.16169	0.32507	0.22149	0.21563	0.11396	0.28597	0.12288	0.038029	0.068598	0.20183	0.050575	0.087332	0.089867	0.22199	-3.5458	-3.375	-3.8833	-3.8375	-3.2167	-4.0708	-3.5271	-3.6542	-4.0417	-3.2292	-3.9542	-3.9354	-3.3167	-3.9375	-3.3229	-3.3542	19.563	-80.303	110.604	248.797	60.855	-16.168	187.667	244.965	85.847	221.181	-66.682	187.165	-62.531	153.864	209.077	222.782	8.6625e-05	0.00062521	0.00029406	1134.8	6.4443e-06	1.7122e-05	1338.2	315.88	7.2207e-06	1.9948e-06	470.14	138.57	80.721	25.3	8.2683e-06	56.806	0.00099288	0.0010427	0.0002885	1090.6	1.1332e-05	1.1376e-05	1282.3	308.37	1.1363e-05	1.1512e-05	453.26	136.71	83.677	26.272	1.1684e-05	55.93	159.405	233.698	154.509	-73.270	-78.615	108.030	-73.234	-69.598	29.205	-21.520	-70.388	-65.312	-65.223	-60.258	60.531	-61.423	-8191	255	
36392.754	1	1	0	0	0.13471	0.043458	0.05653	0.33651	0.11986	0.09501	0.22723	0.35335	0.05545	0.1453	0.29035	0.081097	0.31049	0.3798	0.1125	0.1484	-3.8125	-3.4146	-3.7687	-3.8563	-3.2375	-4.0792	-3.6083	-3.4917	-3.9062	-3.2479	-3.8542	-3.8917	-3.2792	-3.9938	-3.4354	-3.3542	130.499	134.793	81.229	271.675	243.135	244.252	214.619	242.207	-14.776	231.833	-81.589	56.340	-71.838	200.501	179.184	-69.755	0.00022899	0.0003633	3.2748e-05	1143.1	2.4238e-06	6.31e-06	1354.2	320.55	2.1392e-06	6.7206e-06	473.36	140.46	82.625	25.747	1.1328e-05	58.617	0.0010179	0.0010658	0.00029457	1101.1	1.1539e-05	1.1645e-05	1296.7	311.9	1.1529e-05	1.1713e-05	458.73	139.03	85.172	26.885	1.1736e-05	57.573	212.937	-63.606	-6.271	-73.421	8.665	57.710	-73.218	-70.187	241.374	208.234	-70.177	-65.252	-65.677	-59.991	20.156	-61.288	-8191	255	
36392.852	1	1	0	0	0.17025	0.12228	0.14782	0.19146	0.2449	0.16339	0.11219	0.091585	0.22385	0.15655	0.3305	0.093331	0.041823	0.24699	0.10572	0.31251	-3.7333	-3.3438	-3.7396	-4.2937	-3.1188	-4.075	-3.6437	-3.5854	-4.1292	-3.3375	-3.8833	-4.0354	-3.2812	-3.9667	-3.7271	-3.3229	77.286	144.948	-67.793	223.240	96.582	-56.355	169.327	-44.120	-78.980	109.149	211.490	234.308	233.305	253.962	88.770	267.314	0.00025045	0.00013243	0.00061597	1159.6	5.5077e-06	2.3026e-05	1358.2	322.13	3.8907e-06	8.4688e-06	472.01	139.27	80.356	25.021	1.1076e-05	55.936	0.0010392	0.0010688	0.00029834	1113.9	1.1678e-05	1.1547e-05	1304.1	313.43	1.1368e-05	1.1544e-05	455.65	137.13	83.036	26.069	1.1207e-05	55.179	249.983	-51.844	-2.826	-73.054	134.054	98.993	-73.395	-69.626	107.124	92.355	-70.031	-65.750	-65.533	-60.029	46.053	-61.749	-8191	255	
#DATA ENDS
