BOXY.EXE: ISS Imagent and Oximeter Data Acquisition Program Version 0.80
Ascii Record File

#ACQ INFORMATION
2  Detector Channels 
16  External MUX Channels 
1  Auxiliary Channels 
5000  Waveform (CCF) Frequency (Hz)
1  Waveforms Skipped 
30  Waveforms Averaged 
1  Cycles Averaged 
16  Acquisitions per Waveform 
10.0806  Updata Rate (Hz) 

#FILE INFORMATION
TRUE -- External MUX Channel results are PARSED.
FALSE -- AC DC and Phase are NOT grouped.
TRUE -- Companion Program Settings File CREATED.
FALSE -- AC data not excluded
FALSE -- DC data not excluded
FALSE -- Phase data not excluded
FALSE -- Auxillary Chn. data not excluded
Tab delimiters

#CALIBRATION STATE
TRUE -- Waveform Calibration Values APPLIED.


#AUX CALIBRATION VALUES
Val Type	aux-1	

Term	1.0000e+00	
Factor	0.0000e+00	


#WF CALIBRATION VALUES
A = Detector Channel
Val Type	A-AC1	A-AC2	A-AC3	A-AC4	A-AC5	A-AC6	A-AC7	A-AC8	A-AC9	A-AC10	A-AC11	A-AC12	A-AC13	A-AC14	A-AC15	A-AC16	A-DC1	A-DC2	A-DC3	A-DC4	A-DC5	A-DC6	A-DC7	A-DC8	A-DC9	A-DC10	A-DC11	A-DC12	A-DC13	A-DC14	A-DC15	A-DC16	A-Ph1	A-Ph2	A-Ph3	A-Ph4	A-Ph5	A-Ph6	A-Ph7	A-Ph8	A-Ph9	A-Ph10	A-Ph11	A-Ph12	A-Ph13	A-Ph14	A-Ph15	A-Ph16	

Term	0.00000e+00	0.00000e+00	0.00000e+00	0.00000e+00	0.00000e+00	0.00000e+00	0.00000e+00	0.00000e+00	0.00000e+00	0.00000e+00	0.00000e+00	0.00000e+00	0.00000e+00	0.00000e+00	0.00000e+00	0.00000e+00	0.00000e+00	0.00000e+00	0.00000e+00	0.00000e+00	0.00000e+00	0.00000e+00	0.00000e+00	0.00000e+00	0.00000e+00	0.00000e+00	0.00000e+00	0.00000e+00	0.00000e+00	0.00000e+00	0.00000e+00	0.00000e+00	0.00000e+00	0.00000e+00	0.00000e+00	0.00000e+00	0.00000e+00	0.00000e+00	0.00000e+00	0.00000e+00	0.00000e+00	0.00000e+00	0.00000e+00	0.00000e+00	0.00000e+00	0.00000e+00	0.00000e+00	0.00000e+00	
Factor	1.00000e+00	1.00000e+00	1.00000e+00	1.00000e+00	1.00000e+00	1.00000e+00	1.00000e+00	1.00000e+00	1.00000e+00	1.00000e+00	1.00000e+00	1.00000e+00	1.00000e+00	1.00000e+00	1.00000e+00	1.00000e+00	1.00000e+00	1.00000e+00	1.00000e+00	1.00000e+00	1.00000e+00	1.00000e+00	1.00000e+00	1.00000e+00	1.00000e+00	1.00000e+00	1.00000e+00	1.00000e+00	1.00000e+00	1.00000e+00	1.00000e+00	1.00000e+00	X	X	X	X	X	X	X	X	X	X	X	X	X	X	X	X	

B = Detector Channel
Val Type	B-AC1	B-AC2	B-AC3	B-AC4	B-AC5	B-AC6	B-AC7	B-AC8	B-AC9	B-AC10	B-AC11	B-AC12	B-AC13	B-AC14	B-AC15	B-AC16	B-DC1	B-DC2	B-DC3	B-DC4	B-DC5	B-DC6	B-DC7	B-DC8	B-DC9	B-DC10	B-DC11	B-DC12	B-DC13	B-DC14	B-DC15	B-DC16	B-Ph1	B-Ph2	B-Ph3	B-Ph4	B-Ph5	B-Ph6	B-Ph7	B-Ph8	B-Ph9	B-Ph10	B-Ph11	B-Ph12	B-Ph13	B-Ph14	B-Ph15	B-Ph16	

Term	0.00000e+00	0.00000e+00	0.00000e+00	0.00000e+00	0.00000e+00	0.00000e+00	0.00000e+00	0.00000e+00	0.00000e+00	0.00000e+00	0.00000e+00	0.00000e+00	0.00000e+00	0.00000e+00	0.00000e+00	0.00000e+00	0.00000e+00	0.00000e+00	0.00000e+00	0.00000e+00	0.00000e+00	0.00000e+00	0.00000e+00	0.00000e+00	0.00000e+00	0.00000e+00	0.00000e+00	0.00000e+00	0.00000e+00	0.00000e+00	0.00000e+00	0.00000e+00	2.30140e+01	-1.20181e+02	-1.19907e+02	-1.83653e+02	-6.30298e+01	-5.18358e+01	-1.58195e+02	-1.62015e+02	-5.19289e+01	-7.20987e+01	-1.70726e+02	-1.70915e+02	-1.78976e+02	-1.76655e+02	-6.37239e+01	-1.49757e+02	
Factor	5.08546e-05	1.47758e-04	3.78023e-05	1.55087e-01	1.88521e-06	1.77159e-06	1.71671e-01	5.62650e-02	2.22537e-06	1.53002e-06	9.34834e-02	3.14727e-02	2.91465e-02	9.72571e-03	2.02248e-06	1.39640e-02	4.02956e-06	4.41231e-06	1.22925e-06	7.62458e-02	4.73918e-08	4.85632e-08	7.91440e-02	2.76715e-02	4.75700e-08	4.85441e-08	4.45230e-02	1.49399e-02	1.44346e-02	4.81122e-03	4.80407e-08	6.69290e-03	X	X	X	X	X	X	X	X	X	X	X	X	X	X	X	X	



#DISTANCE SETTINGS
A = Detector Channel
A-1	A-2	A-3	A-4	A-5	A-6	A-7	A-8	A-9	A-10	A-11	A-12	A-13	A-14	A-15	A-16	

2.5000e+00	3.0000e+00	2.5000e+00	3.0000e+00	2.0000e+00	3.0000e+00	1.5000e+00	3.0000e+00	3.0000e+00	3.0000e+00	3.0000e+00	3.0000e+00	3.0000e+00	3.0000e+00	1.5000e+00	3.0000e+00	

B = Detector Channel
B-1	B-2	B-3	B-4	B-5	B-6	B-7	B-8	B-9	B-10	B-11	B-12	B-13	B-14	B-15	B-16	

1.0000e+01	1.0000e+01	1.0000e+01	1.4400e+00	1.0000e+01	1.0000e+01	1.5100e+00	1.9400e+00	1.0000e+01	1.0000e+01	1.9900e+00	2.4900e+00	2.4100e+00	2.9000e+00	1.0000e+01	2.9800e+00	




#DATA BEGINS
time	group	step	mark	flag	A-AC1	A-AC2	A-AC3	A-AC4	A-AC5	A-AC6	A-AC7	A-AC8	A-AC9	A-AC10	A-AC11	A-AC12	A-AC13	A-AC14	A-AC15	A-AC16	A-DC1	A-DC2	A-DC3	A-DC4	A-DC5	A-DC6	A-DC7	A-DC8	A-DC9	A-DC10	A-DC11	A-DC12	A-DC13	A-DC14	A-DC15	A-DC16	A-Ph1	A-Ph2	A-Ph3	A-Ph4	A-Ph5	A-Ph6	A-Ph7	A-Ph8	A-Ph9	A-Ph10	A-Ph11	A-Ph12	A-Ph13	A-Ph14	A-Ph15	A-Ph16	B-AC1	B-AC2	B-AC3	B-AC4	B-AC5	B-AC6	B-AC7	B-AC8	B-AC9	B-AC10	B-AC11	B-AC12	B-AC13	B-AC14	B-AC15	B-AC16	B-DC1	B-DC2	B-DC3	B-DC4	B-DC5	B-DC6	B-DC7	B-DC8	B-DC9	B-DC10	B-DC11	B-DC12	B-DC13	B-DC14	B-DC15	B-DC16	B-Ph1	B-Ph2	B-Ph3	B-Ph4	B-Ph5	B-Ph6	B-Ph7	B-Ph8	B-Ph9	B-Ph10	B-Ph11	B-Ph12	B-Ph13	B-Ph14	B-Ph15	B-Ph16	aux-1	digaux	

28919.318	1	1	0	256	0.067245	0.1909	0.087972	0.3054	0.062567	0.10824	0.29766	0.05395	0.15168	0.31568	0.26964	0.10964	0.12942	0.16739	0.28195	0.066863	-4.5792	-4.2542	-4.3333	-4.9167	-4.0292	-4.7375	-4.5667	-4.0583	-4.8042	-4.15	-4.2729	-4.8562	-3.8167	-4.6229	-4.6188	-4.0271	494.319	422.871	282.949	462.464	450.269	256.727	475.854	307.283	211.115	209.716	446.368	247.096	185.008	183.322	338.294	394.326	0.0005718	0.00025452	7.1659e-05	951.75	5.9789e-06	5.112e-06	1045.6	197.73	4.1285e-06	3.2304e-06	254.55	70.636	54.89	15.772	2.6167e-06	22.222	0.00025326	0.00024739	6.7657e-05	942.73	2.7766e-06	2.6267e-06	1038.1	197.24	2.6233e-06	2.6177e-06	254.3	70.923	54.975	16.18	2.5961e-06	22.869	346.918	301.264	307.799	174.812	354.200	334.204	174.616	182.087	326.600	299.016	181.920	188.881	189.201	196.483	268.711	195.512	-8191	255	
28919.414	1	1	0	0	0.15267	0.20907	0.1164	0.31782	0.071211	0.16407	0.18878	0.27137	0.091778	0.10693	0.13147	0.1351	0.022454	0.14535	0.26195	0.15857	-4.4688	-4.3708	-4.1479	-4.9979	-3.9021	-4.4812	-4.9333	-4.0854	-4.7708	-4.3479	-4.225	-4.9354	-3.9375	-4.5021	-4.6667	-3.7396	196.624	411.034	365.235	512.651	514.639	477.394	440.465	422.014	402.118	381.388	175.662	522.512	215.850	445.143	216.677	252.686	0.00061563	0.00016164	2.6926e-05	945.96	3.4133e-06	1.9364e-06	1047.8	198.19	7.9774e-06	1.6045e-06	252.64	71.207	55.115	15.831	4.4086e-06	22.311	0.000251	0.00024512	6.7222e-05	942.46	2.7356e-06	2.6123e-06	1036.9	197.36	2.7277e-06	2.6372e-06	254.15	71.044	55.173	16.205	2.5272e-06	22.957	347.373	315.592	241.558	174.682	266.602	303.220	174.707	182.173	271.943	298.469	181.684	188.373	189.051	196.863	351.130	195.578	-8191	255	
28919.533	1	1	0	0	0.25557	0.10919	0.15604	0.019965	0.1728	0.18293	0.24126	0.39223	0.086944	0.21749	0.13724	0.139	0.2697	0.072344	0.11549	0.17709	-4.3313	-4.2979	-4.0125	-5.1021	-3.9688	-4.3229	-4.9292	-4.0292	-4.5875	-4.5188	-3.8812	-5.0729	-4.0813	-4.1896	-4.6167	-3.925	363.282	475.147	394.805	479.541	462.582	504.883	466.487	477.804	170.433	378.707	186.020	347.438	190.299	315.567	432.695	418.851	0.00050923	0.00026815	2.2144e-05	945.56	2.6873e-06	3.2134e-06	1049.4	198.58	4.1219e-06	3.9275e-06	254.6	70.882	54.738	15.898	4.9855e-06	22.629	0.00024806	0.0002415	6.6956e-05	941.39	2.6997e-06	2.6451e-06	1038.8	197.12	2.6263e-06	2.58e-06	253.73	71.175	55.135	16.211	2.614e-06	23.08	346.122	275.930	299.326	174.596	278.969	299.228	174.461	182.072	309.118	314.880	181.749	188.500	189.070	196.361	297.605	195.429	-8191	255	
28919.605	1	1	0	0	0.1466	0.12172	0.21762	0.25711	0.29896	0.072872	0.096998	0.1375	0.03887	0.0050358	0.073123	0.051366	0.21876	0.11206	0.14411	0.16445	-4.35	-4.3438	-3.9437	-4.8417	-4.1625	-4.2188	-5.0396	-3.8521	-4.4437	-4.6771	-3.9896	-4.8875	-4.2	-4.1354	-4.8229	-4.1562	278.120	411.249	419.401	510.230	416.819	404.104	497.408	431.615	381.927	488.607	263.749	293.015	241.550	443.590	193.089	314.565	0.00063403	0.00034102	0.00010797	949.14	6.4834e-06	2.2859e-06	1046.9	198.71	2.0814e-06	2.9941e-06	252.68	70.559	54.797	15.898	4.5192e-06	22.572	0.00025073	0.00023952	6.6812e-05	941.93	2.6653e-06	2.5906e-06	1039.9	197.65	2.6247e-06	2.6022e-06	254.02	71.093	55.099	16.254	2.6847e-06	23.062	351.083	266.086	254.429	174.589	278.111	293.457	174.574	181.991	298.183	321.855	181.665	188.886	189.040	196.162	344.909	195.915	-8191	255	
28919.701	1	1	0	0	0.17421	0.26369	0.20453	0.2317	0.18351	0.14061	0.10533	0.01177	0.043666	0.11864	0.20844	0.12882	0.051396	0.11524	0.047932	0.032117	-4.1396	-4.6667	-3.7646	-4.8875	-4.1312	-3.9979	-4.95	-4.0104	-4.3417	-4.7625	-3.9292	-4.7854	-4.3167	-4.0417	-4.8562	-4.0563	214.758	467.019	199.516	473.730	362.832	341.801	317.370	460.306	435.055	446.282	513.733	495.377	384.862	491.875	278.537	186.454	0.00063428	0.00032503	9.3772e-06	953.03	3.8389e-06	4.1335e-06	1053.1	198.78	4.3519e-06	3.0093e-06	253.67	70.957	54.578	15.999	2.9644e-06	22.419	0.0002573	0.00023701	6.8134e-05	946.12	2.7097e-06	2.6586e-06	1042.9	197.95	2.6966e-06	2.652e-06	254.69	71.386	55.22	16.337	2.7055e-06	23.062	349.617	262.176	360.897	174.598	250.662	374.805	174.670	182.273	292.961	308.153	181.595	188.525	189.015	196.509	275.180	195.738	-8191	255	
28919.799	1	1	0	0	0.061384	0.081963	0.17614	0.32451	0.10136	0.17095	0.089569	0.040885	0.25928	0.10061	0.089274	0.094661	0.071591	0.095065	0.24261	0.15129	-4.0333	-4.7208	-3.8479	-4.8917	-4.4354	-3.9979	-5.1208	-4.1062	-4.2937	-4.8562	-4.0104	-4.7083	-4.5312	-3.9583	-4.9021	-4.2875	297.154	424.627	409.676	167.024	424.685	296.256	466.772	452.107	362.135	419.150	176.128	294.561	381.814	366.007	169.374	468.737	0.00055975	0.00047723	8.0901e-05	959.17	4.8237e-06	1.9864e-06	1050.2	197.78	7.0829e-06	5.8266e-06	254.55	70.96	55.01	15.884	3.1314e-06	22.592	0.00025237	0.00024403	7.0951e-05	949.04	2.7049e-06	2.7145e-06	1043.5	198.05	2.75e-06	2.612e-06	255.1	71.199	55.352	16.217	2.6065e-06	23.114	355.490	269.475	263.366	174.459	313.747	344.815	174.482	182.419	333.169	323.987	181.758	188.465	188.998	196.112	224.434	195.803	-8191	255	
28919.920	1	1	0	0	0.10112	0.067486	0.26092	0.069586	0.15782	0.036967	0.23431	0.24914	0.096629	0.32182	0.066171	0.054596	0.14382	0.064064	0.19662	0.16951	-4.025	-4.7729	-3.9479	-4.7021	-4.4417	-3.9458	-4.9458	-4.1979	-4.0333	-4.9167	-3.9813	-4.4729	-4.6333	-4.0292	-4.6979	-4.3313	333.477	405.512	218.838	173.341	359.018	233.974	475.832	397.069	328.977	409.139	499.149	178.987	434.641	414.283	418.921	397.634	0.00058062	0.00028155	6.5978e-05	958.14	8.3103e-07	4.6338e-06	1048.2	199.58	6.6685e-06	2.7547e-06	255.19	71.157	55.23	15.847	5.1483e-06	22.719	0.00025196	0.00023832	6.8761e-05	949.33	2.7494e-06	2.729e-06	1044.1	197.94	2.6963e-06	2.5839e-06	255.13	71.365	55.415	16.284	2.6129e-06	23.15	350.768	228.262	311.735	174.587	270.090	387.997	174.643	181.942	330.057	337.703	181.896	188.475	189.083	196.314	365.175	195.639	-8191	255	
28920.016	1	1	0	0	0.24143	0.046366	0.035874	0.15342	0.17491	0.23022	0.094135	0.15523	0.1069	0.1511	0.13899	0.1338	0.15845	0.083696	0.04383	0.043822	-3.7542	-4.8917	-4.0312	-4.6354	-4.6667	-3.8875	-5.0521	-4.2917	-4.0229	-4.8	-4.1813	-4.2583	-4.6229	-3.9146	-4.7625	-4.4187	342.538	248.933	325.365	519.067	513.019	405.523	217.077	451.711	326.804	176.291	394.317	427.592	256.989	357.776	460.955	486.046	0.00052862	0.00015535	0.00011427	958.67	6.0559e-06	4.2141e-06	1054.4	198.67	2.8407e-06	2.1568e-06	255.82	70.792	54.961	15.969	5.5996e-06	22.491	0.00025575	0.00023986	6.883e-05	950.72	2.7016e-06	2.6836e-06	1045.1	198.12	2.6913e-06	2.7271e-06	255.27	71.362	55.294	16.318	2.6783e-06	23.147	355.132	297.545	309.110	174.830	331.664	366.091	174.461	182.345	294.755	298.949	181.606	188.712	189.247	196.247	324.307	195.384	-8191	255	
28920.111	1	1	0	0	0.16818	0.046106	0.21952	0.33269	0.20184	0.15749	0.18183	0.24835	0.087196	0.22498	0.30376	0.17439	0.20282	0.2265	0.060269	0.19473	-3.7396	-4.8396	-3.9146	-4.3417	-4.6125	-4.0146	-4.7125	-4.5312	-3.8563	-4.8958	-4.3458	-4.2083	-4.8333	-4.0167	-4.5458	-4.7083	209.164	232.383	410.668	494.762	403.581	234.479	475.679	343.762	365.158	504.054	501.376	303.154	522.211	252.625	518.790	229.165	0.00062888	0.00017957	4.7336e-05	956.39	4.001e-06	2.2348e-06	1054.1	199.16	5.0764e-06	1.1076e-06	254.57	70.983	55.452	16.003	5.1197e-06	22.405	0.00025789	0.00023956	6.6267e-05	951.08	2.6223e-06	2.694e-06	1047.1	198.18	2.6842e-06	2.6122e-06	255.23	71.316	55.362	16.278	2.5802e-06	23.1	353.573	308.617	262.056	174.890	326.201	353.632	174.512	182.243	321.263	463.326	181.893	188.747	188.859	196.418	342.509	195.588	-8191	255	
28920.207	1	1	0	0	0.060622	0.2119	0.14236	0.17986	0.10582	0.097299	0.18261	0.25206	0.25863	0.15649	0.1557	0.10081	0.17756	0.21566	0.10916	0.01865	-3.6833	-4.925	-4.1813	-4.2229	-4.85	-4.0521	-4.6458	-4.7271	-4.0479	-4.8812	-4.3	-4.0292	-4.7729	-3.9458	-4.3292	-4.6813	317.648	427.364	405.321	442.214	479.158	452.845	167.370	182.120	481.929	465.522	487.817	400.260	418.238	473.757	297.098	436.910	0.00056852	0.00045268	8.4869e-05	953.27	6.2205e-06	1.2128e-06	1053.6	199.33	2.2897e-06	1.8767e-06	256.31	71.152	54.47	15.997	3.6904e-06	22.783	0.00024844	0.00023714	6.5734e-05	948.7	2.5827e-06	2.6129e-06	1045.4	198.46	2.593e-06	2.5334e-06	255.34	71.3	55.243	16.312	2.5377e-06	23.187	348.962	264.098	287.404	174.747	309.148	337.546	174.495	182.399	284.483	267.956	181.535	188.634	189.276	196.270	356.101	195.692	-8191	255	
28920.303	1	1	0	0	0.07537	0.050534	0.096248	0.18641	0.2221	0.23578	0.15649	0.0090104	0.21946	0.20609	0.11013	0.047018	0.10176	0.057498	0.055982	0.19769	-3.5396	-4.6896	-4.3667	-4.2438	-4.8083	-4.0146	-4.3854	-4.7167	-3.65	-4.5375	-4.65	-4.0792	-4.8938	-4.2458	-4.2417	-4.8354	480.648	496.273	402.283	523.526	507.663	251.511	412.881	176.967	367.079	509.627	184.840	207.214	202.381	476.621	351.815	371.659	0.00068208	0.00037251	9.044e-05	963.82	4.587e-06	3.0508e-06	1052.5	199.72	2.7962e-06	3.2974e-06	256.14	71.343	55.516	16.149	3.8766e-06	22.859	0.0002502	0.000227	6.3309e-05	951.48	2.5616e-06	2.5012e-06	1044.1	198.17	2.5396e-06	2.4434e-06	255.15	71.385	55.521	16.346	2.43e-06	23.261	352.902	199.941	310.432	174.587	269.237	348.966	174.540	182.075	318.754	307.983	181.978	188.593	189.315	196.705	281.396	195.707	-8191	255	
28920.398	1	1	0	0	0.14298	0.14219	0.05216	0.1075	0.16674	0.1747	0.13341	0.20381	0.12349	0.20692	0.13685	0.044975	0.070803	0.12951	0.30174	0.23707	-3.5938	-4.6687	-4.5104	-4.1	-4.7979	-4.1417	-4.4125	-4.8812	-3.9042	-4.5833	-4.6687	-3.9042	-4.8729	-4.3542	-4.0708	-4.8083	438.827	243.320	205.393	172.588	494.860	510.103	474.552	429.893	484.341	236.279	195.251	400.783	415.028	192.906	199.926	481.330	0.00056206	0.00039632	9.1602e-05	956.87	2.5333e-06	2.8088e-06	1052.1	198.86	6.1792e-06	1.9739e-07	255.16	70.911	55.104	16.036	4.8548e-06	22.694	0.00023701	0.00022143	5.9603e-05	947.67	2.4461e-06	2.4293e-06	1042.3	197.81	2.4752e-06	2.3784e-06	254.69	71.294	55.281	16.309	2.454e-06	23.217	346.194	280.604	238.753	174.525	284.428	314.761	174.435	182.421	330.137	318.129	181.724	188.452	189.156	196.364	285.058	195.837	-8191	255	
28920.494	1	1	0	0	0.10796	0.092181	0.052256	0.23352	0.13576	0.20232	0.089124	0.03043	0.21431	0.057995	0.33343	0.11892	0.21824	0.081758	0.16498	0.14116	-3.575	-4.4604	-4.6521	-3.9625	-4.8104	-4.1979	-4.2583	-5.0458	-3.9896	-4.5146	-4.6542	-3.8729	-4.7542	-4.3833	-3.95	-5.0021	515.028	349.729	478.123	491.388	483.558	266.422	468.586	427.278	361.431	515.391	462.775	458.414	288.121	389.394	363.798	474.278	0.00059536	0.00045267	4.4711e-05	955.38	3.5246e-06	4.8887e-06	1052.1	199.09	3.4816e-06	3.995e-06	255.44	71.407	55.161	16.114	1.8145e-06	22.675	0.00024246	0.0002223	6.0727e-05	947.95	2.5009e-06	2.5221e-06	1043.9	198.15	2.6256e-06	2.4573e-06	255.58	71.468	55.409	16.469	2.3846e-06	23.274	352.016	231.380	292.466	174.563	306.133	240.848	174.512	182.140	288.172	336.514	181.710	188.813	189.207	196.876	281.694	195.149	-8191	255	
28920.615	1	1	0	0	0.1449	0.084823	0.03311	0.30487	0.11718	0.088037	0.15486	0.16698	0.29368	0.18637	0.12832	0.075246	0.065347	0.32494	0.14466	0.16302	-3.8708	-4.2188	-4.7083	-4.0104	-4.7083	-4.5625	-4.0188	-5.0104	-4.0646	-4.4437	-4.8063	-3.9938	-4.6229	-4.5917	-4.0125	-5.0771	501.435	409.270	180.455	463.832	191.156	356.419	520.851	501.011	474.746	217.873	413.976	384.491	465.844	516.491	312.418	203.823	0.00063115	0.00034495	9.0931e-05	959.33	2.101e-06	3.0293e-06	1052.1	199.04	5.2546e-06	1.6463e-06	255.5	71.226	54.93	15.988	2.0343e-06	22.985	0.00024103	0.00022014	5.9519e-05	950.52	2.3713e-06	2.3599e-06	1044.5	198.41	2.3866e-06	2.4166e-06	255.55	71.43	55.404	16.332	2.3544e-06	23.403	349.840	288.163	252.923	174.300	323.181	278.484	174.827	181.939	355.005	398.304	181.922	188.528	189.024	196.739	378.806	195.940	-8191	255	
28920.711	1	1	0	0	0.12842	0.18747	0.10202	0.037671	0.13227	0.059623	0.11472	0.2632	0.030444	0.52376	0.13598	0.15836	0.17638	0.18637	0.11174	0.22802	-3.8646	-4.3208	-4.7646	-3.925	-4.6208	-4.6	-4.1562	-4.9958	-4.1771	-4.1354	-4.9146	-3.9271	-4.5375	-4.8292	-3.775	-4.7083	373.659	209.084	381.114	238.219	277.937	413.121	479.141	417.761	381.959	499.744	449.955	439.268	295.880	397.404	356.836	391.844	0.00064246	0.00010235	6.4112e-05	956.72	2.316e-06	4.9234e-06	1056	199.2	2.8514e-06	1.9033e-06	255.29	71.413	55.603	16.093	4.217e-06	22.969	0.00023581	0.00021617	5.9852e-05	949.92	2.4272e-06	2.3415e-06	1045.5	198.49	2.4156e-06	2.3949e-06	256.27	71.574	55.513	16.381	2.4505e-06	23.426	355.332	232.562	270.594	174.524	309.204	332.196	174.426	182.185	307.127	325.927	182.100	188.974	188.947	196.780	308.059	195.895	-8191	255	
28920.807	1	1	0	0	0.18896	0.3018	0.03213	0.15696	0.11811	0.21995	0.1666	0.159	0.17021	0.22217	0.26614	0.15807	0.11626	0.050689	0.1665	0.15241	-3.9792	-3.9313	-4.9771	-3.9458	-4.4062	-4.5146	-4.0854	-4.7729	-4.4458	-3.9979	-4.9812	-4.0938	-4.3521	-4.7917	-3.8854	-4.7312	228.056	321.393	419.417	472.050	289.126	418.030	439.070	375.266	435.981	403.107	364.483	402.570	520.923	384.118	522.758	305.420	0.00054821	0.00029724	5.7172e-05	960.8	6.0694e-06	3.7253e-06	1056.8	199.63	6.3756e-06	2.0209e-06	256.96	71.685	55.484	16.23	2.8872e-06	22.826	0.00023632	0.00022988	6.1101e-05	953.26	2.4635e-06	2.4529e-06	1047.5	199.16	2.4648e-06	2.352e-06	257.22	71.48	55.664	16.434	2.4372e-06	23.444	347.425	278.994	277.476	174.570	296.879	280.784	174.252	182.324	341.511	346.704	181.846	188.499	188.975	196.166	278.271	195.237	-8191	255	
28920.902	1	1	0	0	0.24023	0.1933	0.35777	0.21742	0.13007	0.047306	0.064784	0.2073	0.24599	0.39603	0.2243	0.21416	0.24012	0.39086	0.11946	0.091447	-4.1542	-3.875	-4.825	-4.1375	-4.2854	-4.7896	-4.025	-4.5396	-4.4646	-4.1208	-5	-4.2042	-4.1771	-4.7812	-3.7333	-4.6021	325.087	221.704	335.106	487.183	191.687	294.563	482.957	510.105	395.728	518.759	453.209	487.313	253.261	325.247	449.168	231.661	0.0006469	0.0002367	1.931e-05	959.96	2.5857e-06	1.8998e-06	1057.9	200.68	5.4975e-06	3.3438e-06	257.14	71.673	55.364	16.212	1.3989e-06	22.794	0.00023052	0.00021831	5.9905e-05	953.16	2.4187e-06	2.3726e-06	1049.3	199.5	2.3077e-06	2.3319e-06	257.09	71.596	55.568	16.434	2.3244e-06	23.389	349.060	280.941	522.958	174.612	359.948	307.354	174.254	181.702	319.575	303.331	181.661	188.497	188.967	196.360	326.653	195.405	-8191	255	
28920.998	1	1	0	0	0.13522	0.048295	0.24702	0.20202	0.15807	0.19978	0.29001	0.11119	0.10798	0.18577	0.18671	0.11532	0.077993	0.07985	0.096313	0.18363	-4.3417	-3.9167	-4.8167	-4.3313	-4.15	-4.9313	-4.1417	-4.3458	-4.6979	-3.85	-4.8375	-4.3521	-4.1312	-4.8729	-3.9125	-4.4812	458.428	267.258	412.707	507.941	494.301	463.694	503.196	339.019	508.904	347.487	188.015	477.808	406.868	405.962	327.288	339.988	0.00059683	0.00037003	8.1379e-05	959.26	3.7003e-06	2.0465e-06	1050.8	198.16	6.7489e-06	5.3498e-06	254.1	70.946	54.856	16.086	9.6178e-07	22.866	0.00021612	0.00020394	5.5034e-05	948.94	2.2428e-06	2.0979e-06	1042.2	198.25	2.2298e-06	2.2217e-06	254.85	71.307	55.346	16.332	2.2418e-06	23.3	347.564	281.565	295.803	174.662	280.286	337.382	174.383	182.424	330.496	343.759	181.581	188.230	189.058	196.273	246.956	195.401	-8191	255	
28921.096	1	1	0	0	0.063874	0.11414	0.27806	0.18322	0.27599	0.057195	0.24223	0.094121	0.1512	0.049354	0.097212	0.1817	0.1142	0.27492	0.12366	0.10988	-4.3208	-3.9146	-4.7	-4.5104	-3.9188	-4.9021	-4.1312	-4.3979	-4.6583	-3.7938	-4.7604	-4.5458	-4.0938	-4.9187	-4.1	-4.3438	304.917	292.750	495.338	293.175	371.868	519.869	216.281	328.711	489.710	457.605	212.289	490.476	259.403	401.862	358.763	511.604	0.00058353	0.00023916	5.2334e-05	951.31	4.0247e-06	2.6592e-06	1050.9	199.36	5.7356e-06	3.0845e-06	255.44	71.689	55.51	16.246	1.4088e-06	22.875	0.00022345	0.00020358	5.5431e-05	946.26	2.3573e-06	2.2078e-06	1040.7	198.36	2.2759e-06	2.3002e-06	255.51	71.61	55.564	16.439	2.2835e-06	23.347	351.982	514.507	276.423	174.677	244.341	363.854	174.320	181.999	280.345	306.045	181.762	188.172	189.220	196.759	269.130	195.458	-8191	255	
28921.217	1	1	0	0	0.11423	0.27189	0.021088	0.20411	0.11167	0.072891	0.25542	0.075156	0.16556	0.021155	0.04428	0.22042	0.22575	0.23642	0.25522	0.3373	-4.5417	-3.8479	-4.7667	-4.6708	-3.9375	-4.7937	-4.3208	-4.2083	-4.6833	-3.8896	-4.6083	-4.4833	-3.975	-4.9375	-4.0875	-4.1271	403.295	228.450	456.368	520.516	449.935	449.673	466.462	482.946	469.548	403.270	514.366	473.257	252.112	338.643	464.250	458.152	0.00063328	0.00012264	8.588e-05	961.57	4.242e-06	3.6192e-06	1057.2	200.15	3.8151e-06	1.7442e-06	256.22	71.719	55.623	16.153	2.9106e-06	22.783	0.00022665	0.00020867	5.7219e-05	950.43	2.3994e-06	2.2766e-06	1045.7	199.52	2.3153e-06	2.3372e-06	255.62	71.761	55.63	16.443	2.3302e-06	23.411	355.571	311.946	283.193	174.558	338.372	284.048	174.621	182.176	289.004	329.179	181.693	188.183	188.836	196.467	327.239	195.401	-8191	255	
28921.311	1	1	0	0	0.41619	0.177	0.083489	0.10549	0.19649	0.15731	0.44837	0.21625	0.15277	0.017312	0.22207	0.26831	0.20724	0.25928	0.085968	0.31931	-4.5104	-3.8708	-4.4062	-4.8271	-3.85	-4.9208	-4.2875	-4.075	-4.8896	-3.8854	-4.4917	-4.7	-3.7583	-4.7521	-4.3375	-4.1625	459.439	254.360	241.953	195.426	400.139	316.977	474.449	443.495	468.258	180.129	307.286	429.123	398.345	498.752	452.297	190.246	0.00070229	0.00056763	6.8083e-05	962.61	4.9612e-07	4.2139e-06	1059.1	200.45	4.0522e-06	9.4266e-07	255.67	71.413	55.977	16.254	2.3126e-06	23.017	0.00022419	0.00021165	5.5931e-05	954.9	2.347e-06	2.2572e-06	1052.4	200.22	2.2721e-06	2.3077e-06	256.05	71.938	56.148	16.529	2.3198e-06	23.607	357.990	251.101	275.831	174.824	202.575	305.481	174.617	181.945	292.417	430.066	181.785	188.232	188.636	196.387	296.076	195.433	-8191	255	
28921.406	1	1	0	0	0.12828	0.24897	0.16025	0.27443	0.37268	0.1509	0.07316	0.12371	0.091492	0.075171	0.10822	0.084567	0.034535	0.16516	0.19826	0.14854	-4.5729	-4.1062	-4.3583	-4.8542	-4.0104	-4.6333	-4.5354	-4.1354	-4.8583	-4.1104	-4.2917	-4.8917	-3.9688	-4.7646	-4.5604	-3.9292	205.197	333.211	273.414	168.643	238.125	190.349	441.349	207.679	190.314	244.621	375.969	229.046	484.349	251.542	454.761	270.425	0.00060668	0.00029764	7.4587e-05	970.6	4.64e-07	5.6744e-06	1071.3	203.1	5.5601e-06	1.9146e-06	257.61	72.059	55.948	16.351	4.716e-06	23.144	0.00023286	0.00022749	6.2179e-05	963.75	2.5099e-06	2.4252e-06	1059.8	202.09	2.5024e-06	2.5577e-06	257.69	72.623	56.405	16.666	2.5243e-06	23.708	353.010	285.214	254.108	174.752	450.352	402.927	174.479	181.919	351.988	332.663	181.976	188.825	188.514	195.703	333.680	195.562	-8191	255	
28921.479	1	1	0	0	0.016528	0.17405	0.082677	0.33868	0.1519	0.097749	0.14363	0.27205	0.19575	0.069179	0.14242	0.13759	0.16514	0.14634	0.17537	0.16033	-4.6542	-4.0417	-4.0833	-5.0042	-3.9833	-4.5542	-4.6896	-3.9604	-4.825	-4.3187	-4.2833	-4.9125	-4.0979	-4.5292	-4.675	-3.975	241.746	223.924	502.212	518.856	218.380	472.984	461.282	503.084	171.540	255.861	505.023	426.696	454.078	516.169	237.768	196.860	0.0006906	0.00029067	5.4448e-05	981.88	3.9638e-06	3.1573e-06	1077.1	205.39	6.9196e-06	3.4077e-06	258	72.841	56.368	16.478	5.0779e-06	23.233	0.0002395	0.00022505	6.1014e-05	972.75	2.5817e-06	2.4903e-06	1066.8	203.9	2.4701e-06	2.4604e-06	258.07	73.065	56.669	16.759	2.4828e-06	23.769	355.913	328.151	314.951	174.783	298.600	339.696	174.268	182.065	288.846	316.353	181.572	188.409	188.585	196.430	329.354	195.551	-8191	255	
28921.600	1	1	0	0	0.10885	0.11636	0.19961	0.14847	0.21405	0.026267	0.35547	0.10479	0.021933	0.12582	0.14759	0.19203	0.1555	0.096736	0.14104	0.09186	-4.4042	-4.4021	-4.0188	-4.8458	-3.9437	-4.3729	-5.0146	-3.9146	-4.9646	-4.2167	-4.1562	-4.9833	-4.0667	-4.3063	-4.8708	-3.8958	474.248	357.500	451.648	502.242	306.949	336.164	483.584	365.280	384.026	413.306	453.305	171.619	301.877	240.261	430.910	166.340	0.00054725	0.00031732	8.1515e-05	980.14	2.371e-06	4.5202e-06	1081.8	203.03	6.5584e-06	2.4985e-06	259.06	73.183	57.136	16.454	6.044e-06	23.362	0.00024288	0.00022627	6.4108e-05	974.41	2.6835e-06	2.5164e-06	1071.9	203.73	2.4814e-06	2.4623e-06	259.9	73.429	57.012	16.783	2.4547e-06	23.839	347.802	247.130	213.168	174.653	285.485	372.251	174.387	181.780	277.004	327.932	181.504	188.078	188.791	195.829	318.940	195.701	-8191	255	
28921.695	1	1	0	0	0.094666	0.18529	0.2826	0.30933	0.079709	0.19368	0.29325	0.16759	0.23092	0.01747	0.26488	0.26252	0.10963	0.10575	0.19623	0.16461	-4.4125	-4.5417	-3.9417	-5.025	-4.0375	-4.2917	-4.9604	-3.9417	-4.4917	-4.3979	-4.2771	-4.9417	-4.175	-4.3	-4.7625	-3.9688	400.699	429.602	349.036	486.778	164.592	469.130	448.311	463.009	368.244	496.819	487.706	476.314	437.517	493.310	177.363	325.731	0.00063035	0.0003585	7.0775e-05	980.97	2.984e-06	3.5234e-06	1076.6	203.69	3.6905e-06	2.6242e-06	261.03	72.985	56.456	16.426	2.3727e-06	23.287	0.00023889	0.00022248	6.2535e-05	973.18	2.489e-06	2.4072e-06	1068.5	203.58	2.402e-06	2.3645e-06	260.17	73.148	56.854	16.752	2.3619e-06	23.801	351.403	241.289	262.847	174.428	240.870	322.077	174.367	181.882	309.879	293.586	181.655	188.756	189.183	196.248	322.991	195.260	-8191	255	
28921.791	1	1	0	0	0.14527	0.13446	0.11909	0.2112	0.16227	0.20376	0.089653	0.19816	0.084309	0.072187	0.15693	0.18137	0.23314	0.31249	0.20764	0.10409	-4.3396	-4.6813	-4.0125	-4.9437	-4.3479	-3.9375	-5.0333	-4.0146	-4.5021	-4.7271	-4.1	-4.8854	-4.4479	-4.0854	-4.6917	-4.1354	197.872	461.728	309.806	181.222	379.971	444.897	429.747	366.208	473.293	204.395	252.354	375.582	407.533	283.883	500.816	283.117	0.00059493	0.00040518	2.7618e-05	983.07	2.8871e-06	4.2341e-06	1078	204.2	2.8945e-06	2.7088e-06	258.75	73.305	56.756	16.431	4.9893e-06	23.516	0.00024028	0.00022227	6.0904e-05	975.8	2.5196e-06	2.4017e-06	1070.4	204.19	2.4119e-06	2.3581e-06	260.44	73.316	56.92	16.809	2.3498e-06	23.88	348.077	259.351	504.200	174.575	295.023	283.669	174.358	181.896	316.558	325.746	181.505	188.421	189.158	196.536	316.948	195.440	-8191	255	
28921.887	1	1	0	0	0.25066	0.28166	0.1724	0.10653	0.18021	0.13514	0.2756	0.18221	0.15051	0.083101	0.20267	0.015357	0.063359	0.058264	0.085603	0.073738	-4.2208	-4.6625	-3.8271	-4.8271	-4.3625	-4.0979	-5.05	-4.1208	-4.4021	-4.7521	-3.8458	-4.7125	-4.4958	-4.0875	-4.8083	-4.1833	322.229	323.796	270.855	175.752	468.956	279.333	521.151	164.902	481.781	275.790	423.759	477.941	192.493	353.226	240.423	199.463	0.00057925	0.00040173	0.0001037	982.69	2.4878e-06	5.1943e-06	1078.6	205.54	2.7423e-06	2.485e-06	259.25	73.466	56.896	16.57	4.0289e-06	23.272	0.00022993	0.0002103	6.061e-05	973.43	2.4351e-06	2.3838e-06	1067.9	204.01	2.4385e-06	2.303e-06	260.74	73.226	56.954	16.781	2.3878e-06	23.782	347.556	266.129	296.093	174.575	287.483	307.268	174.251	182.146	343.255	327.584	181.342	188.265	189.292	196.283	291.289	194.992	-8191	255	
28922.008	1	1	0	0	0.084035	0.10649	0.13475	0.15024	0.13495	0.070308	0.12993	0.16159	0.16916	0.091945	0.04236	0.063652	0.19547	0.10093	0.19868	0.11819	-4.0563	-4.7438	-3.6646	-4.7896	-4.6021	-4	-5.0083	-4.2604	-4.1167	-4.7188	-3.9875	-4.5938	-4.6271	-3.9896	-4.8708	-4.3958	402.204	253.189	498.727	178.320	193.491	226.865	381.180	371.521	409.587	263.865	305.755	446.411	500.817	468.295	281.766	209.563	0.00066385	0.00041883	8.842e-05	984.2	7.3681e-06	2.4817e-06	1082.6	205.55	8.8285e-06	2.9835e-06	259.55	73.625	56.622	16.53	4.2677e-06	23.556	0.0002413	0.00022301	6.3178e-05	977.67	2.5168e-06	2.5702e-06	1072.3	204.78	2.5598e-06	2.4765e-06	260.94	73.364	56.958	16.831	2.3968e-06	23.855	356.653	244.602	292.435	174.594	305.136	292.018	174.236	182.029	293.353	330.567	181.555	188.399	188.656	196.187	337.201	195.660	-8191	255	
28922.080	1	1	0	0	0.20115	0.11398	0.20106	0.188	0.15073	0.10236	0.23488	0.043724	0.15377	0.1121	0.096733	0.053931	0.17095	0.088273	0.16001	0.24537	-3.7667	-4.7708	-3.9125	-4.5833	-4.7833	-3.95	-4.9187	-4.3792	-4.2104	-4.9083	-3.9688	-4.2917	-4.9062	-3.8729	-4.6813	-4.4604	373.224	279.252	457.465	164.393	208.099	323.640	476.746	231.551	327.613	189.422	280.889	327.111	465.431	414.999	328.551	402.755	0.00062504	0.00024877	3.5445e-05	985.54	4.1576e-06	4.5162e-06	1087.5	205.7	5.6214e-06	2.7297e-06	260.78	73.933	56.954	16.551	3.1008e-06	23.284	0.00024361	0.0002231	6.3199e-05	978.67	2.4833e-06	2.5158e-06	1073.9	204.65	2.4761e-06	2.428e-06	261.28	73.532	57.143	16.846	2.3566e-06	23.91	350.837	233.408	290.525	174.533	336.831	320.426	174.392	181.932	327.742	345.346	181.651	188.263	188.940	196.018	338.765	195.249	-8191	255	
28922.176	1	1	0	0	0.14889	0.21166	0.060863	0.1747	0.1093	0.061795	0.25263	0.10145	0.19806	0.1398	0.18432	0.095841	0.36268	0.20258	0.14407	0.056809	-3.7271	-4.8542	-3.825	-4.4646	-4.6521	-3.8187	-4.6583	-4.5292	-3.95	-4.8604	-4.1521	-4.1104	-4.8146	-3.8167	-4.5042	-4.4938	523.286	234.980	275.352	465.965	407.071	421.587	466.746	434.037	329.947	358.398	258.156	417.232	495.715	507.625	240.611	415.449	0.00060353	0.0002698	7.3949e-05	985.64	3.9296e-06	2.9679e-06	1084.3	204.42	1.6895e-06	1.3065e-06	260.41	73.185	57.589	16.552	4.8253e-06	23.215	0.00023723	0.00020985	6.1483e-05	978.84	2.3727e-06	2.3743e-06	1075.4	204.44	2.4443e-06	2.4068e-06	261.34	73.393	57.292	16.835	2.3663e-06	23.889	349.538	303.895	245.439	174.313	327.986	261.354	174.458	182.236	357.606	283.104	181.638	188.244	188.662	196.299	292.157	195.434	-8191	255	
28922.297	1	1	0	0	0.18103	0.11175	0.15274	0.20569	0.25447	0.04738	0.20903	0.3052	0.22771	0.16768	0.22682	0.082215	0.061256	0.16749	0.010898	0.044629	-3.6771	-4.6396	-4.0375	-4.275	-4.6958	-3.8312	-4.7667	-4.7417	-3.7333	-4.7729	-4.2438	-4.0521	-4.8	-3.9562	-4.4875	-4.7354	358.899	316.848	445.229	458.182	339.959	362.054	508.215	410.008	502.751	406.215	513.417	392.144	492.009	516.662	405.492	339.953	0.0006741	0.00031902	0.00010256	982.33	2.5272e-06	3.5534e-06	1085.5	205.1	5.6425e-06	3.5463e-06	261.14	72.905	56.972	16.411	1.0726e-06	23.396	0.00023037	0.00021064	6.0033e-05	978.24	2.4184e-06	2.368e-06	1073	204.57	2.3058e-06	2.3056e-06	261.84	73.349	57.211	16.809	2.2443e-06	23.906	347.543	221.221	259.212	174.334	285.699	394.884	174.123	182.132	344.861	311.561	181.990	188.654	188.923	196.066	392.863	195.308	-8191	255	
28922.391	1	1	0	0	0.13591	0.095833	0.061566	0.16005	0.20365	0.11311	0.19785	0.16328	0.12324	0.17947	0.15241	0.19339	0.034383	0.19598	0.15793	0.066219	-3.6312	-4.7896	-4.2771	-4.0646	-4.8292	-3.9146	-4.6208	-4.8438	-3.8167	-4.8083	-4.5292	-3.9333	-4.9437	-3.9833	-4.2917	-4.7833	339.132	180.822	391.135	478.550	391.098	513.814	507.436	476.649	472.627	247.007	442.706	217.331	231.574	496.553	196.515	397.046	0.0005457	0.00020154	5.7233e-05	987.17	6.3985e-06	2.1301e-06	1088.9	205.91	8.5229e-06	2.1492e-06	263.57	73.418	56.702	16.412	5.0873e-06	23.443	0.00022037	0.000204	5.5664e-05	977.84	2.3099e-06	2.2347e-06	1075.1	204.71	2.3068e-06	2.1711e-06	262.55	73.53	57.074	16.793	2.2133e-06	23.942	351.268	300.655	259.681	174.621	280.993	346.582	174.394	182.355	326.977	281.286	181.398	188.262	188.937	196.107	303.701	195.504	-8191	255	
28922.486	1	1	0	0	0.18737	0.22951	0.050202	0.1758	0.11815	0.17537	0.16698	0.21309	0.18202	0.1879	0.049586	0.25048	0.072373	0.11721	0.14232	0.18864	-3.4833	-4.7146	-4.525	-4.2146	-4.7792	-4.1542	-4.4083	-4.825	-3.7771	-4.5188	-4.675	-4.1	-4.9604	-4.2333	-4.1188	-4.95	321.645	292.378	433.962	211.501	504.480	389.342	494.592	447.073	373.065	174.459	382.803	339.774	310.561	445.197	301.668	403.970	0.00059503	0.00032139	5.3848e-05	988.34	2.2528e-06	4.6679e-06	1081.4	205.02	7.3911e-06	2.7922e-06	262.82	73.3	57.52	16.434	4.9036e-06	23.42	0.00022259	0.00020037	5.5631e-05	979.49	2.1924e-06	2.2747e-06	1072.9	204.45	2.2169e-06	2.205e-06	262.29	73.376	57.312	16.838	2.2189e-06	23.909	339.556	204.359	380.705	174.422	292.677	363.183	174.375	182.232	305.903	322.145	181.688	188.611	188.836	196.439	347.902	195.464	-8191	255	
28922.607	1	1	0	0	0.038048	0.32377	0.17513	0.023098	0.081546	0.11867	0.2309	0.080448	0.19355	0.35225	0.21594	0.10038	0.26785	0.14938	0.17113	0.060968	-3.6771	-4.4125	-4.5958	-4.2479	-4.8479	-4.2833	-4.2208	-4.8542	-3.9229	-4.5188	-4.8708	-3.8479	-4.7396	-4.4187	-4.0521	-4.9146	517.072	441.747	348.514	269.502	482.931	328.964	496.202	238.499	497.964	279.703	255.906	385.597	492.307	174.885	340.225	508.275	0.00056952	0.00021649	5.0479e-05	987.41	3.4065e-06	4.2398e-06	1084.8	205.4	3.3334e-06	8.2038e-07	262.63	73.296	57.153	16.537	3.6213e-06	23.311	0.00021896	0.00020058	5.3792e-05	977.74	2.2127e-06	2.2026e-06	1074.2	204.74	2.2366e-06	2.2375e-06	262.73	73.389	57.334	16.846	2.1559e-06	23.919	362.369	285.986	272.900	174.460	258.053	298.567	174.238	182.267	335.983	359.364	181.807	188.807	188.760	196.478	312.020	195.819	-8191	255	
28922.703	1	1	0	0	0.23008	0.036249	0.09587	0.070081	0.22197	0.18161	0.36142	0.14145	0.026244	0.17679	0.1646	0.051552	0.23986	0.16455	0.073397	0.11431	-3.7333	-4.5146	-4.775	-4.1333	-4.6021	-4.3562	-4.2375	-4.9604	-3.8646	-4.3667	-4.9	-3.8812	-4.7854	-4.3833	-3.8833	-5.1229	432.634	416.987	292.293	416.943	211.117	429.068	453.201	170.894	344.938	196.182	461.805	286.929	414.590	164.407	167.683	308.788	0.00055983	0.00014363	7.6515e-05	989.61	2.8553e-06	4.7225e-06	1081.5	205.11	5.8516e-06	3.0835e-06	262.14	73.593	56.727	16.474	4.4067e-06	23.261	0.00021547	0.00019769	5.3406e-05	978.85	2.1788e-06	2.1364e-06	1072.8	204.45	2.2196e-06	2.1117e-06	262.39	73.549	57.065	16.829	2.1777e-06	23.896	344.602	282.123	229.463	174.710	271.303	302.829	174.499	182.005	304.615	364.026	181.262	188.489	188.577	196.378	305.023	195.372	-8191	255	
28922.775	1	1	0	0	0.20466	0.28866	0.16839	0.099346	0.030323	0.20043	0.14962	0.25196	0.08215	0.21423	0.080738	0.092527	0.12238	0.20951	0.10008	0.22134	-3.7792	-4.1292	-4.8604	-3.9771	-4.6813	-4.5875	-3.9458	-4.9667	-4.2458	-4.25	-4.8458	-3.9896	-4.6021	-4.8125	-3.9708	-5.0417	454.588	478.825	315.054	461.054	451.061	190.268	475.510	490.713	198.350	359.098	224.713	183.774	259.478	433.515	219.841	167.524	0.00063219	0.00017054	5.2335e-05	991.18	3.8724e-06	2.6036e-06	1087.2	206.7	4.3609e-06	7.7751e-07	263.56	72.988	56.934	16.427	2.6507e-06	23.504	0.00021779	0.00019387	5.2858e-05	979.57	2.1702e-06	2.0728e-06	1072.8	204.83	2.1831e-06	2.0943e-06	262.91	73.395	57.235	16.763	2.1618e-06	23.95	346.927	190.839	273.119	174.560	274.990	368.880	174.392	182.031	314.740	296.420	181.674	188.293	188.729	196.366	298.867	195.329	-8191	255	
28922.896	1	1	0	0	0.13631	0.068759	0.20493	0.090709	0.21265	0.31043	0.27358	0.035319	0.17154	0.097733	0.18796	0.24216	0.22244	0.19938	0.13635	0.19811	-3.9167	-4.2896	-4.9146	-4.05	-4.4375	-4.7063	-4.1208	-4.9938	-4.2792	-4.1646	-5.0854	-4.0062	-4.5604	-4.8375	-3.8792	-4.7833	225.919	417.768	442.117	427.825	469.391	361.150	458.162	199.046	216.572	173.006	517.852	178.897	238.115	451.749	281.441	348.987	0.00061363	0.00019231	5.3194e-05	985.41	3.0598e-06	3.4842e-06	1083.2	206.36	8.4076e-07	2.3993e-06	263.24	73.334	57.241	16.606	5.7734e-06	23.408	0.00021391	0.00018535	5.192e-05	977.81	2.1875e-06	2.096e-06	1073	204.66	2.09e-06	2.0777e-06	262.8	73.416	57.272	16.777	2.0688e-06	23.904	347.565	267.708	337.886	174.310	313.458	304.939	174.207	182.259	217.950	308.360	181.614	188.337	188.216	196.721	345.174	195.239	-8191	255	
28922.992	1	1	0	0	0.18956	0.22591	0.19003	0.2051	0.098964	0.2254	0.090385	0.14367	0.074007	0.066482	0.27322	0.16653	0.11526	0.098422	0.16266	0.036333	-4.2479	-3.9271	-5.0917	-4.2333	-4.3562	-4.7292	-4.1458	-4.7188	-4.5146	-4.0333	-4.9271	-4.1083	-4.4625	-4.8146	-4.0146	-4.5771	226.001	426.060	299.773	172.890	434.831	236.825	432.803	403.242	350.885	295.099	523.887	462.900	174.966	397.474	495.414	496.262	0.00061579	0.00039687	0.00010799	989.55	3.5126e-06	2.7578e-06	1082.9	205.84	9.1486e-06	1.5176e-06	262.72	73.287	57.098	16.502	4.4879e-06	23.399	0.00020489	0.00019791	5.2983e-05	978.57	2.1585e-06	2.0213e-06	1074	204.67	2.0755e-06	2.0457e-06	262.58	73.587	57.107	16.772	2.1073e-06	23.957	347.859	246.532	261.218	174.511	299.574	375.996	174.296	182.038	314.539	353.209	181.547	188.698	189.010	196.244	264.350	195.499	-8191	255	
28923.088	1	1	0	0	0.027829	0.12371	0.19425	0.075406	0.28519	0.072111	0.26496	0.14514	0.095058	0.12663	0.20989	0.055483	0.12951	0.15469	0.10217	0.12435	-4.3896	-3.8	-4.8458	-4.3292	-4.1854	-4.8063	-4.075	-4.6271	-4.7438	-3.975	-4.8875	-4.3521	-4.3417	-4.9229	-4.0771	-4.35	255.602	165.192	434.247	462.068	326.286	332.082	464.301	286.883	255.369	307.682	506.243	197.180	483.697	168.967	484.660	330.949	0.00062602	0.00036784	1.3376e-05	982.72	4.3885e-06	5.1197e-06	1082	205.39	5.59e-06	3.3319e-06	262.12	73.959	57.465	16.518	5.3041e-06	23.399	0.00020633	0.00019191	5.1879e-05	976.44	2.1316e-06	2.1114e-06	1073	204.85	2.1225e-06	2.1333e-06	262.55	73.518	57.381	16.811	2.1716e-06	23.908	349.958	238.925	236.772	174.691	314.965	354.107	174.023	181.919	297.893	291.334	181.871	188.771	188.544	196.345	340.010	195.057	-8191	255	
28923.186	1	1	0	0	0.11789	0.19656	0.077609	0.35336	0.031698	0.21285	0.13273	0.20009	0.073549	0.19734	0.15509	0.13832	0.12872	0.19938	0.041652	0.18212	-4.4021	-3.8833	-4.7812	-4.3583	-4.1708	-4.85	-4.0062	-4.4812	-4.7125	-3.9375	-4.8917	-4.4938	-4.1042	-4.8833	-4.1042	-4.3021	437.290	199.024	287.877	481.353	496.156	312.939	409.494	327.613	369.229	283.714	338.762	343.538	244.886	445.845	496.229	306.257	0.00057714	0.0003208	6.0209e-05	987.02	5.0266e-06	1.822e-06	1082.9	205.75	3.8458e-06	3.0115e-06	263.52	73.752	57.071	16.511	4.1914e-06	23.271	0.00020882	0.00019577	5.4876e-05	978.03	2.2054e-06	2.1894e-06	1072.6	204.75	2.1637e-06	2.1817e-06	262.63	73.683	57.244	16.834	2.2262e-06	23.849	351.291	278.498	280.638	174.886	285.588	294.549	174.395	182.118	319.960	306.566	181.777	188.431	188.705	196.712	288.734	195.337	-8191	255	
28923.303	1	1	0	0	0.17546	0.16358	0.12129	0.22007	0.13416	0.12335	0.18956	0.073951	0.29943	0.22102	0.16221	0.16285	0.25412	0.14795	0.10139	0.038184	-4.6021	-3.8771	-4.7188	-4.5458	-3.8438	-4.8458	-4.2417	-4.4104	-4.8229	-3.8833	-4.6646	-4.675	-3.9458	-4.9229	-4.0875	-4.2688	379.004	230.616	229.304	519.886	334.245	453.375	472.228	349.733	406.307	364.273	311.244	512.034	452.819	317.785	368.775	218.854	0.00065917	0.00055133	7.1142e-05	985.49	3.28e-06	4.0641e-06	1087.3	205.76	4.9955e-06	4.7631e-06	261.33	73.293	57.307	16.577	5.9336e-06	23.32	0.00022021	0.0002044	5.4371e-05	976.64	2.2849e-06	2.1332e-06	1074.2	204.96	2.2917e-06	2.2386e-06	262.93	73.413	57.403	16.874	2.254e-06	23.9	352.353	291.188	306.355	174.709	327.275	341.381	174.505	182.068	310.781	303.495	182.016	188.205	188.773	196.282	277.985	195.343	-8191	255	
28923.375	1	1	0	0	0.06914	0.18975	0.045568	0.059007	0.16395	0.17773	0.34815	0.22362	0.0015662	0.20674	0.05687	0.066615	0.11536	0.19733	0.14617	0.23067	-4.5833	-3.9146	-4.6188	-4.6667	-4.1	-5.0333	-4.4437	-4.1937	-4.8167	-3.9583	-4.6687	-4.6833	-4.0479	-4.8604	-4.4667	-4.3271	323.314	386.377	353.003	178.940	188.184	404.708	495.279	516.880	180.000	341.206	364.658	404.688	397.521	425.787	477.835	330.320	0.00059327	0.00015396	3.0846e-05	985.97	3.5706e-06	4.3171e-06	1088.1	205.34	3.273e-06	2.311e-06	262.9	73.238	57.213	16.532	3.1001e-06	23.429	0.00021781	0.00020383	5.4801e-05	978.78	2.3807e-06	2.1936e-06	1074.5	204.98	2.2456e-06	2.2554e-06	263.17	73.547	57.363	16.87	2.3483e-06	23.918	353.514	311.202	258.884	174.682	282.849	311.067	174.492	182.042	314.014	313.811	182.101	188.538	188.847	196.283	320.283	195.004	-8191	255	
28923.471	1	1	0	0	0.073558	0.20558	0.2034	0.17944	0.080078	0.2303	0.13494	0.03494	0.20711	0.036266	0.039446	0.046044	0.1327	0.12584	0.094755	0.17182	-4.6271	-3.925	-4.375	-4.8083	-3.7896	-4.8292	-4.6271	-4.1208	-4.6875	-4.1604	-4.4125	-4.6813	-3.8937	-4.7125	-4.4396	-3.9396	423.999	355.692	257.002	480.957	408.272	392.165	254.604	304.645	448.492	228.536	270.191	231.735	209.727	280.881	506.067	406.790	0.0006853	0.00025764	4.4326e-05	992.19	3.3381e-06	2.8186e-06	1084.1	206.48	7.1662e-06	3.0709e-06	264.17	73.477	56.994	16.48	3.4802e-06	23.463	0.0002213	0.00021522	5.7972e-05	981.49	2.4266e-06	2.3659e-06	1075	205.08	2.3733e-06	2.3839e-06	263.86	73.744	57.3	16.843	2.3632e-06	23.945	351.264	303.472	252.679	174.648	313.854	331.083	174.606	182.153	316.169	417.717	181.723	188.375	188.761	196.163	339.349	195.466	-8191	255	
28923.566	1	1	0	0	0.2702	0.0999	0.07309	0.19449	0.30475	0.071011	0.21834	0.070643	0.13549	0.12579	0.11265	0.141	0.13605	0.42705	0.065503	0.10393	-4.6854	-4.1562	-4.2542	-4.9625	-3.7792	-4.6937	-4.7542	-4.0708	-4.7562	-4.2562	-4.2812	-4.8958	-3.9958	-4.4792	-4.6833	-3.9437	200.702	480.758	277.789	180.914	301.394	221.032	386.846	477.967	325.590	296.804	454.576	388.545	363.568	242.363	491.610	291.353	0.00060081	0.00031056	7.7168e-05	986.83	4.3468e-06	4.6121e-06	1088.2	205.35	4.0393e-06	1.6652e-06	263.29	73.53	57.277	16.621	6.5676e-06	23.364	0.0002225	0.0002169	5.9977e-05	981.54	2.4157e-06	2.3845e-06	1076.4	204.69	2.4249e-06	2.3924e-06	263.36	73.712	57.425	16.888	2.3752e-06	23.961	349.218	288.420	279.084	174.439	289.585	325.836	174.531	181.982	316.480	316.689	181.354	188.275	189.080	196.524	308.492	194.691	-8191	255	
28923.688	1	1	0	0	0.17367	0.048016	0.3216	0.19303	0.16852	0.042362	0.077456	0.090287	0.11451	0.12938	0.16452	0.10757	0.17058	0.092065	0.19453	0.32298	-4.4833	-4.2354	-4.1333	-4.9125	-4.0062	-4.5208	-4.9729	-4.0062	-4.5896	-4.2708	-4.1333	-4.9062	-4.0917	-4.4563	-4.8646	-3.9375	226.598	416.876	443.890	184.991	317.992	401.975	403.166	176.288	174.906	197.484	215.495	351.241	499.515	271.783	395.681	475.451	0.00070533	7.4078e-05	4.8366e-05	990.84	6.364e-06	3.1669e-06	1082.9	204.97	3.4792e-06	1.3149e-06	263.12	73.665	57.199	16.63	1.2286e-06	23.46	0.00023724	0.00022129	6.0704e-05	982.38	2.513e-06	2.3842e-06	1075.9	204.85	2.3065e-06	2.4337e-06	263.53	73.78	57.386	16.922	2.3831e-06	23.966	344.058	164.480	289.445	174.599	318.206	322.853	174.442	181.807	308.447	354.954	181.453	188.455	188.549	196.286	309.069	195.211	-8191	255	
28923.783	1	1	0	0	0.084235	0.2075	0.075807	0.31408	0.061356	0.13201	0.021749	0.040093	0.086665	0.17016	0.097244	0.17771	0.081058	0.14254	0.17866	0.09816	-4.4625	-4.3833	-4.0729	-5.1312	-4.0583	-4.4292	-4.8646	-4.1146	-4.6583	-4.5042	-4.05	-4.8333	-4.2083	-4.2146	-4.8021	-4.0458	188.345	377.805	237.772	188.638	388.363	496.712	189.801	344.042	397.929	165.010	339.727	392.353	247.664	265.041	209.727	474.446	0.00060084	0.00036463	6.086e-05	991.21	3.9955e-06	4.2721e-06	1091.2	205.72	5.4515e-06	4.6366e-06	263.79	73.069	57.352	16.683	5.556e-06	23.385	0.00023397	0.00022021	6.1987e-05	983.7	2.4784e-06	2.4218e-06	1078.7	205.09	2.4774e-06	2.393e-06	263.47	73.545	57.477	16.937	2.4359e-06	23.967	354.836	292.910	215.666	174.474	251.491	414.791	174.480	181.800	299.047	329.643	181.805	188.433	188.900	196.567	302.039	195.211	-8191	255	
28923.881	1	1	0	0	0.14619	0.13212	0.094041	0.051614	0.11156	0.34614	0.12716	0.25317	0.13486	0.25236	0.079832	0.23103	0.10474	0.16455	0.11514	0.16992	-4.4187	-4.4958	-3.8917	-5.0083	-4.1875	-4.2021	-4.9021	-3.9729	-4.5604	-4.8292	-4.0042	-4.7167	-4.2167	-4.2146	-4.6937	-3.9604	398.975	350.881	484.857	463.812	458.737	517.733	185.821	449.897	422.101	174.452	229.875	472.723	342.536	473.771	413.258	230.603	0.00066784	0.00026879	6.119e-05	990.03	2.7352e-06	8.1032e-07	1085.8	206.76	6.2363e-06	2.4067e-06	264.76	73.488	56.828	16.662	4.6686e-06	23.323	0.00023374	0.00022237	6.1808e-05	981.49	2.5041e-06	2.4147e-06	1077	205.59	2.4518e-06	2.3968e-06	264.08	73.757	57.391	16.936	2.479e-06	23.994	354.218	271.893	260.213	174.695	322.727	374.788	174.638	181.873	315.755	343.230	181.468	188.366	188.962	196.035	309.347	195.207	-8191	255	
28923.977	1	1	0	0	0.063467	0.072649	0.14572	0.18179	0.14933	0.18876	0.11465	0.18012	0.085753	0.21315	0.18776	0.16147	0.14169	0.14316	0.12961	0.065008	-4.1542	-4.6146	-3.8604	-4.8333	-4.2688	-4.1521	-4.8646	-4.075	-4.3292	-4.725	-3.9417	-4.8042	-4.3792	-4.0021	-4.8396	-4.2646	488.426	211.979	286.045	487.092	300.087	422.357	459.818	504.388	240.857	462.862	244.830	503.280	439.429	518.391	353.799	372.950	0.00055493	0.00028799	5.6529e-05	992.53	3.4168e-06	3.5968e-06	1090.4	205.29	4.5314e-06	2.531e-06	264.89	73.136	57.531	16.569	3.1079e-06	23.505	0.00024156	0.0002198	6.283e-05	984.29	2.5201e-06	2.4158e-06	1079.9	205.07	2.4403e-06	2.3162e-06	264.41	73.733	57.531	16.895	2.3773e-06	23.978	351.399	274.952	276.659	174.360	327.619	327.923	174.452	182.279	280.316	305.174	181.774	188.410	189.171	196.025	316.168	195.364	-8191	255	
28924.072	1	1	0	0	0.19756	0.23116	0.12672	0.19524	0.19545	0.28377	0.23896	0.080042	0.081336	0.097123	0.1468	0.13878	0.11879	0.023221	0.10164	0.19644	-4.075	-4.7812	-3.9938	-4.7688	-4.4812	-3.9604	-4.9563	-4.3104	-4.3042	-4.8083	-4.125	-4.5875	-4.5396	-4.0417	-4.9521	-4.1271	485.348	263.789	348.902	518.662	498.606	449.335	436.577	379.875	492.856	488.006	193.066	186.428	210.859	519.876	338.290	446.269	0.00055806	5.6162e-05	2.7631e-05	988.4	2.1349e-06	1.9172e-06	1084.3	206.34	3.4368e-06	4.6231e-06	263.9	73.655	57.139	16.562	3.9934e-06	23.464	0.00023567	0.00021931	6.1798e-05	982.21	2.4231e-06	2.4152e-06	1077.9	205.51	2.417e-06	2.3532e-06	263.64	73.766	57.416	16.906	2.4123e-06	24.002	347.666	175.717	235.198	174.420	344.606	359.552	174.341	182.245	294.594	348.176	181.645	188.108	189.025	196.233	343.242	195.179	-8191	255	
28924.170	1	1	0	0	0.066268	0.10567	0.069768	0.048441	0.076649	0.25434	0.17122	0.11141	0.23281	0.044004	0.11151	0.26092	0.16892	0.063518	0.11653	0.15997	-3.8875	-4.8042	-4	-4.6167	-4.6625	-3.9417	-5.0188	-4.4062	-4.0292	-4.8063	-4.0125	-4.3479	-4.6375	-4.05	-4.9271	-4.5042	396.377	350.409	521.533	351.522	211.995	217.198	395.643	464.304	210.464	458.521	490.313	289.242	461.012	236.576	352.980	315.639	0.00060308	0.00038905	2.4528e-05	992.14	4.0562e-06	4.9149e-06	1083.8	206.37	3.6211e-06	1.6466e-06	264.39	73.829	57.51	16.758	6.4498e-06	23.354	0.00023882	0.00021361	6.0174e-05	983.12	2.447e-06	2.3981e-06	1077	205.26	2.4203e-06	2.3281e-06	264.15	73.889	57.615	16.925	2.3445e-06	23.937	351.093	218.501	304.799	174.733	297.227	368.838	174.360	181.722	307.922	369.673	181.534	188.273	188.977	196.016	320.456	195.652	-8191	255	
28924.287	1	1	0	0	0.15791	0.10514	0.22741	0.2283	0.14946	0.20755	0.096203	0.10103	0.23153	0.22732	0.20084	0.094561	0.34817	0.18056	0.13622	0.20935	-3.7292	-4.9292	-4.0563	-4.4271	-4.6979	-3.8708	-4.8812	-4.3625	-3.9333	-5.0729	-4.1813	-4.2958	-4.7979	-3.9333	-4.5833	-4.5938	193.009	320.635	431.162	424.090	222.749	232.306	332.507	410.635	235.905	518.413	350.617	293.070	458.660	488.328	209.243	471.254	0.00060643	0.00020565	3.814e-05	991.28	6.0678e-06	3.3032e-06	1082.6	204.96	5.6555e-06	3.2725e-06	262.61	73.421	57.391	16.579	5.407e-06	23.289	0.00022705	0.00020915	5.9818e-05	981.97	2.3765e-06	2.3727e-06	1074.6	204.53	2.392e-06	2.3017e-06	264.18	73.562	57.312	16.911	2.4269e-06	23.915	350.804	238.848	190.434	174.522	272.216	308.143	174.286	182.172	295.893	299.687	181.472	188.122	189.008	196.458	299.258	195.485	-8191	255	
28924.385	1	1	0	0	0.11692	0.038661	0.30253	0.15941	0.20724	0.18831	0.21201	0.077054	0.34639	0.20747	0.045028	0.34168	0.11288	0.3216	0.048457	0.18447	-3.6646	-4.7979	-4.0417	-4.4938	-4.8313	-3.9125	-4.8354	-4.6042	-4.0354	-4.8542	-4.2979	-4.1979	-4.9229	-3.8542	-4.5083	-4.8063	187.694	385.408	448.500	424.987	177.405	500.120	467.167	497.426	323.348	361.570	411.438	497.987	487.348	412.203	468.526	492.192	0.00059869	0.00033461	0.00010893	986.72	4.6554e-06	1.5079e-06	1080.4	205.5	6.9851e-06	5.7629e-07	262.4	73.821	57.484	16.525	2.7553e-06	23.546	0.00023526	0.00021543	6.096e-05	981.02	2.4232e-06	2.4064e-06	1075.1	205.19	2.4314e-06	2.4367e-06	263.74	73.809	57.429	16.898	2.3993e-06	23.963	355.361	272.878	232.680	174.690	316.230	180.223	174.341	182.121	326.903	308.365	181.440	188.335	189.044	196.607	324.697	196.106	-8191	255	
28924.480	1	1	0	0	0.076994	0.12975	0.026282	0.082643	0.24002	0.060401	0.24754	0.22366	0.051366	0.1042	0.1546	0.12746	0.18667	0.064412	0.10933	0.15018	-3.5104	-4.6479	-4.2958	-4.2438	-4.7167	-3.9667	-4.7229	-4.825	-3.7583	-4.725	-4.2979	-4.2104	-4.9271	-4.1125	-4.3375	-4.9292	358.398	433.120	449.637	197.512	250.403	435.235	355.841	495.687	331.173	481.624	495.147	485.183	510.660	491.845	420.795	198.132	0.00057554	0.00035481	7.0817e-05	988.77	5.8e-06	2.4694e-06	1081.6	206.3	2.151e-06	3.9468e-06	264.38	73.439	57.405	16.387	4.5005e-06	23.498	0.00023618	0.0002201	6.0197e-05	980.61	2.4096e-06	2.3843e-06	1075	205.21	2.3969e-06	2.4218e-06	263.81	73.826	57.3	16.846	2.3853e-06	24.006	349.090	300.423	249.005	174.503	324.105	404.450	174.338	181.844	261.523	322.118	181.486	188.504	188.795	196.371	341.160	195.519	-8191	255	
28924.576	1	1	0	0	0.19247	0.15446	0.22315	0.098497	0.22916	0.084207	0.31539	0.18293	0.11588	0.17827	0.15667	0.15117	0.1428	0.25527	0.15211	0.13523	-3.5729	-4.6646	-4.3438	-4.3938	-4.9437	-4.1042	-4.3292	-4.8125	-3.9167	-4.6813	-4.6729	-4.025	-4.9458	-4.1188	-4.1583	-4.85	244.416	263.308	276.983	241.799	331.225	264.147	482.539	443.388	385.572	466.977	463.974	481.262	342.369	391.533	376.570	418.331	0.0006548	0.00015836	3.8039e-05	987.83	3.1038e-06	5.401e-06	1087.5	206.74	3.2758e-06	4.3154e-06	263.57	73.946	57.249	16.624	4.1202e-06	23.362	0.00023286	0.00020939	5.8937e-05	981.03	2.3971e-06	2.3553e-06	1076.3	205.38	2.3236e-06	2.2979e-06	263.71	73.795	57.423	16.883	2.3278e-06	23.903	350.854	276.846	194.862	174.296	269.433	338.405	174.183	182.154	248.394	355.655	181.670	188.274	188.900	196.255	306.570	195.549	-8191	255	
28924.672	1	1	0	0	0.11175	0.078365	0.14155	0.28009	0.093571	0.10856	0.39708	0.14348	0.10392	0.15542	0.15065	0.23041	0.098798	0.10989	0.16172	0.17133	-3.6937	-4.6312	-4.4229	-4.1604	-4.9083	-4.1729	-4.2312	-5	-3.8917	-4.4396	-4.7104	-4.0625	-4.725	-4.2688	-4.1792	-4.9646	252.777	418.773	517.564	511.656	258.052	179.553	430.177	444.466	350.790	172.268	377.594	416.347	198.290	176.451	422.870	364.998	0.00069824	0.00017904	6.8027e-05	989.45	3.1674e-06	1.0296e-06	1082.6	205.69	3.0884e-06	5.2575e-06	264.68	73.47	56.926	16.524	2.4494e-06	23.455	0.0002256	0.00020299	5.8061e-05	980.07	2.3007e-06	2.32e-06	1075.7	205.32	2.3636e-06	2.304e-06	264.07	73.782	57.416	16.84	2.3496e-06	23.978	341.904	252.378	258.653	174.316	274.737	291.254	174.268	182.067	308.168	305.714	181.863	188.330	188.605	196.375	310.053	195.283	-8191	255	
28924.768	1	1	0	0	0.077498	0.28892	0.028073	0.33396	0.15876	0.25749	0.37746	0.1331	0.22808	0.15953	0.21636	0.082859	0.062967	0.088131	0.26198	0.13935	-3.6917	-4.4958	-4.7979	-3.9437	-4.7667	-4.4062	-4.2812	-4.9979	-3.9938	-4.2188	-4.775	-3.8792	-4.5729	-4.5854	-4.0208	-4.9375	450.620	458.853	506.854	228.988	204.709	446.862	166.096	298.418	432.228	448.111	502.312	347.483	253.470	191.102	476.503	193.631	0.00058459	0.00027006	8.2215e-05	993.11	9.6177e-07	1.7993e-06	1088.5	207.25	6.8914e-06	2.9265e-06	263.87	73.497	57.469	16.627	3.1054e-06	23.303	0.00022397	0.0002108	5.8545e-05	982	2.2666e-06	2.3386e-06	1076.5	205.25	2.3263e-06	2.2965e-06	264.04	73.694	57.413	16.856	2.3272e-06	23.893	347.502	231.677	311.778	174.582	376.496	333.764	174.496	181.851	309.105	349.307	181.664	188.407	188.669	196.440	313.322	195.917	-8191	255	
28924.865	1	1	0	0	0.16439	0.090209	0.11897	0.36332	0.065947	0.2923	0.16979	0.044869	0.20169	0.14349	0.26694	0.095935	0.2081	0.116	0.13232	0.04284	-3.8146	-4.3854	-4.7417	-4.1562	-4.6813	-4.4375	-4.1	-4.9	-4.1687	-4.2604	-5.0312	-3.9979	-4.7896	-4.4417	-3.8438	-4.8479	176.885	188.070	264.390	466.184	389.223	495.332	499.900	400.473	493.408	291.746	441.105	201.743	221.804	168.672	393.345	315.625	0.00055724	0.00052817	4.9635e-05	989.75	4.9407e-06	5.2072e-06	1082.5	204.87	3.0134e-06	4.9951e-06	261.93	73.03	57.264	16.504	4.0834e-06	23.458	0.0002238	0.00020652	5.8604e-05	980.47	2.3027e-06	2.2821e-06	1074.4	205	2.2523e-06	2.3019e-06	263.08	73.411	57.381	16.855	2.2915e-06	23.983	351.270	261.703	304.507	174.352	342.303	318.976	174.373	182.135	288.409	292.446	181.860	187.768	188.773	196.166	328.235	195.433	-8191	255	
28924.984	1	1	0	0	0.22441	0.21539	0.22227	0.24265	0.077542	0.1935	0.14594	0.11859	0.061887	0.10129	0.088005	0.23206	0.34619	0.32108	0.1566	0.092769	-3.9771	-4.0229	-4.7063	-4.0292	-4.5917	-4.5792	-4.2583	-4.8979	-4.2	-4.0375	-4.7937	-3.9542	-4.5083	-4.6083	-3.7729	-4.9271	391.802	333.125	420.683	507.851	493.234	427.414	422.377	404.778	324.310	365.649	467.760	458.498	175.732	398.514	211.408	281.558	0.00065059	1.6184e-05	0.00014472	991.92	5.0319e-06	2.0636e-06	1085	205.92	7.0638e-06	4.4652e-06	263.86	73.765	57.58	16.521	7.4485e-06	23.52	0.00022937	0.00020845	5.6269e-05	980.98	2.3215e-06	2.1987e-06	1076	205.01	2.3212e-06	2.2553e-06	263.64	73.652	57.482	16.875	2.3258e-06	23.988	353.210	242.039	266.351	174.620	309.486	423.656	174.268	182.181	323.351	311.865	181.636	188.539	188.423	196.364	334.113	195.368	-8191	255	
28925.080	1	1	0	0	0.1617	0.28003	0.18108	0.16335	0.12811	0.1435	0.11286	0.28019	0.26473	0.10839	0.21194	0.20766	0.18578	0.088217	0.16125	0.090365	-4.0083	-4.025	-4.8604	-4.0583	-4.3333	-4.8208	-3.9562	-4.9896	-4.3708	-4.2292	-4.9708	-4.1958	-4.3875	-4.7771	-3.8417	-4.7354	407.141	276.578	181.510	437.931	374.511	433.096	395.072	461.068	220.903	347.265	486.735	306.571	305.708	253.042	278.239	393.840	0.00068586	0.00013129	2.641e-05	989.3	7.2231e-06	2.3076e-06	1087.7	206.94	6.393e-06	1.4725e-06	264.79	73.63	57.606	16.43	4.0027e-06	23.337	0.00022492	0.00021504	5.7519e-05	980.16	2.3275e-06	2.3327e-06	1076.7	205.26	2.2864e-06	2.3035e-06	264.37	73.74	57.511	16.834	2.3006e-06	23.979	347.326	302.902	321.929	174.570	287.494	381.316	174.367	181.760	326.484	358.709	181.551	188.452	188.887	196.061	325.244	195.312	-8191	255	
28925.176	1	1	0	0	0.14823	0.1254	0.15303	0.047035	0.22213	0.11014	0.087361	0.12802	0.12165	0.091589	0.12709	0.15234	0.14518	0.064815	0.16695	0.073707	-4.2125	-4.0813	-4.7625	-4.2167	-4.0417	-4.8667	-4.0396	-4.7063	-4.4833	-3.9062	-4.8208	-4.2708	-4.2833	-4.9167	-3.9562	-4.5708	399.258	189.808	411.741	250.839	377.781	427.429	407.092	263.859	460.608	179.353	285.885	514.490	369.171	233.506	326.336	369.629	0.00065694	0.0001492	5.9414e-05	989.68	2.1281e-06	3.4234e-06	1086.8	205.8	5.0584e-06	3.7405e-06	265.23	73.182	57.146	16.641	3.3485e-06	23.538	0.00021969	0.00020836	5.6853e-05	980.98	2.2881e-06	2.1805e-06	1076.4	204.92	2.2744e-06	2.3015e-06	264.34	73.692	57.392	16.871	2.2515e-06	23.967	346.391	207.033	355.234	174.584	271.416	326.412	174.556	182.014	306.540	256.428	182.044	188.518	188.745	196.110	314.103	195.568	-8191	255	
28925.248	1	1	0	0	0.14506	0.13881	0.30299	0.17145	0.1823	0.18086	0.16145	0.079148	0.3619	0.16417	0.3246	0.14372	0.063264	0.25883	0.041671	0.20909	-4.2812	-3.9104	-4.9313	-4.4333	-4.1729	-5.0333	-4.1125	-4.6729	-4.7667	-3.8187	-4.7979	-4.4208	-4.0271	-5.1167	-4.0146	-4.3229	359.328	383.443	248.433	174.669	243.444	452.287	487.679	248.311	327.960	242.089	496.671	195.737	262.013	506.430	324.879	199.994	0.00067158	0.00016597	8.151e-05	983.97	4.1169e-06	2.9467e-06	1084.8	205.93	6.2943e-06	3.1298e-06	263.01	73.476	57.1	16.515	2.7958e-06	23.41	0.00022081	0.00020357	5.5255e-05	977.98	2.2875e-06	2.1955e-06	1074.4	204.83	2.2867e-06	2.2621e-06	263.93	73.674	57.304	16.854	2.2345e-06	23.886	348.399	306.970	268.350	174.472	264.971	372.568	174.242	181.889	350.393	289.271	181.571	188.235	188.499	196.555	308.660	195.184	-8191	255	
28925.367	1	1	0	0	0.044066	0.21361	0.096653	0.1392	0.1371	0.11432	0.20981	0.12351	0.16549	0.065158	0.28764	0.13995	0.08469	0.075776	0.24266	0.18711	-4.5188	-4.0083	-4.6229	-4.5021	-3.9979	-4.8438	-4.2396	-4.3417	-4.9	-3.9104	-4.9	-4.6188	-4.0208	-4.9563	-4.1479	-4.2958	339.643	410.631	416.896	490.028	415.602	279.112	459.711	468.213	463.919	175.850	430.626	381.370	488.212	220.777	324.405	502.413	0.00060532	0.00040204	6.4417e-05	987.4	6.5824e-06	4.0418e-07	1081.6	205.34	3.3949e-06	1.8062e-06	263.98	73.766	57.924	16.554	5.448e-06	23.375	0.00021666	0.00020867	5.6394e-05	979.26	2.3309e-06	2.1678e-06	1074.2	204.76	2.1661e-06	2.2682e-06	263.99	73.539	57.588	16.875	2.2821e-06	23.934	351.784	246.846	242.040	174.679	287.290	284.871	174.239	182.012	331.853	324.022	181.626	188.264	188.611	196.250	323.410	195.427	-8191	255	
28925.465	1	1	0	0	0.095373	0.17981	0.12854	0.10036	0.058389	0.14952	0.042177	0.037937	0.21797	0.23223	0.17365	0.14815	0.075678	0.22142	0.15826	0.32345	-4.4979	-3.8917	-4.675	-4.8104	-3.8542	-4.8417	-4.3438	-4.0792	-4.9396	-3.9708	-4.5667	-4.7271	-4.0208	-5.0771	-4.2521	-4.0542	324.679	175.915	185.626	358.595	318.339	319.153	521.580	447.957	271.038	407.656	352.129	180.838	282.864	443.916	511.173	489.866	0.00061214	0.00017155	9.4132e-05	987.57	6.4531e-06	2.9349e-06	1081.3	205.31	2.7915e-06	2.6852e-06	262.4	73.993	57.283	16.525	5.3834e-06	23.476	0.00021369	0.00021316	5.589e-05	979.26	2.257e-06	2.2095e-06	1073.2	204.97	2.2065e-06	2.2432e-06	263.92	73.625	57.332	16.836	2.221e-06	23.944	351.747	246.411	245.107	174.638	316.295	358.824	174.480	181.861	326.803	309.959	181.208	188.370	188.472	196.303	291.788	195.553	-8191	255	
28925.561	1	1	0	0	0.062953	0.086617	0.21248	0.18278	0.086742	0.1382	0.12576	0.25514	0.13261	0.1454	0.061021	0.13138	0.052231	0.10559	0.098867	0.11004	-4.6	-3.95	-4.3562	-4.9333	-3.9083	-4.6438	-4.6083	-4.1354	-4.9833	-4.0917	-4.4292	-4.7583	-4.1	-4.7583	-4.4688	-3.8854	362.458	209.122	349.178	410.431	513.511	304.242	458.864	514.045	421.588	275.621	444.326	503.963	252.291	493.690	418.060	500.769	0.00064492	0.00017994	7.5949e-05	988.25	4.2344e-06	4.9505e-06	1080.8	205.64	5.2063e-06	2.6474e-06	263.68	73.529	56.68	16.594	4.4703e-06	23.286	0.00021669	0.00020377	5.6e-05	979.71	2.256e-06	2.1529e-06	1073	204.78	2.1417e-06	2.2233e-06	263.97	73.724	57.144	16.871	2.1885e-06	23.879	341.201	280.519	280.524	174.749	250.483	295.439	174.508	181.720	321.324	347.415	181.470	188.598	188.669	196.411	314.560	195.486	-8191	255	
28925.656	1	1	0	0	0.034744	0.2228	0.18429	0.25553	0.17713	0.12638	0.32103	0.26385	0.09815	0.18042	0.24408	0.10538	0.084373	0.10232	0.048998	0.072257	-4.6438	-4.0667	-4.2604	-4.9354	-3.8521	-4.8604	-4.6312	-4.1021	-4.8646	-4.2208	-4.3292	-4.7729	-4.0188	-4.7375	-4.4104	-4.1229	458.979	473.261	450.441	468.060	471.637	519.738	428.094	230.804	369.304	189.533	426.310	484.338	421.236	452.735	497.585	297.740	0.00059115	0.00038441	0.0001229	988.74	5.9116e-06	3.7423e-06	1080.9	205.84	5.7082e-06	3.1575e-06	264.18	73.751	57.161	16.594	6.2629e-06	23.454	0.00021901	0.0002024	5.526e-05	979.65	2.2751e-06	2.2112e-06	1071.2	204.69	2.1709e-06	2.1407e-06	264.12	73.543	57.115	16.822	2.1248e-06	23.926	348.283	244.901	258.803	174.511	348.256	404.461	174.331	182.057	336.236	294.569	181.657	188.493	188.571	196.560	284.382	195.217	-8191	255	
28925.777	1	1	0	0	0.17181	0.076426	0.072779	0.083324	0.17878	0.15162	0.057479	0.082697	0.12635	0.13857	0.068691	0.18641	0.10045	0.12447	0.11314	0.012607	-4.5437	-4.2875	-4.1583	-5.0896	-3.9271	-4.6042	-4.8875	-4.0104	-4.8625	-4.3833	-4.1979	-4.9417	-3.9562	-4.4375	-4.6604	-4.05	508.898	323.420	521.594	437.185	464.342	344.021	181.481	490.054	511.604	405.468	308.800	468.083	403.914	168.590	488.693	345.673	0.00071596	0.00042643	7.3318e-05	971.48	4.8433e-06	4.6382e-06	1071.5	205.12	6.0181e-06	3.1186e-06	262.35	73.497	56.909	16.433	2.629e-06	23.105	0.00021156	0.00019877	5.4328e-05	969.11	2.2535e-06	2.0761e-06	1063.7	203.52	2.2448e-06	2.13e-06	262.32	73.37	56.943	16.744	2.2557e-06	23.772	355.525	249.967	226.413	174.576	289.944	314.551	174.496	182.105	307.852	334.495	181.377	188.571	188.847	196.798	255.865	195.403	-8191	255	
28925.873	1	1	0	0	0.19172	0.17166	0.22084	0.12094	0.031284	0.114	0.19764	0.19449	0.26961	0.13438	0.13081	0.10995	0.14168	0.26198	0.12958	0.11399	-4.5833	-4.4875	-4.3458	-4.9437	-3.9208	-4.4875	-4.9958	-3.8833	-4.875	-4.525	-3.9771	-5.0813	-4.225	-4.4708	-4.8104	-4.025	369.354	460.335	353.183	318.999	430.947	504.023	466.444	244.278	283.745	441.508	353.260	296.812	414.617	269.910	459.718	187.293	0.00072538	0.00034016	9.195e-05	983.24	4.263e-06	5.1361e-06	1081.5	205.82	7.3009e-06	3.7572e-06	263.7	73.155	57.024	16.422	2.5912e-06	23.293	0.00022277	0.0002067	5.9362e-05	974.75	2.4526e-06	2.4753e-06	1071.8	204.58	2.5885e-06	2.6228e-06	263.91	73.561	57.194	16.807	2.7674e-06	23.881	345.628	247.128	272.721	174.551	325.640	346.546	174.538	182.115	307.833	249.715	181.741	188.157	188.765	196.200	310.972	195.276	-8191	255	
28925.969	1	1	0	0	0.11414	0.10042	0.11363	0.24422	0.22127	0.22002	0.23481	0.15024	0.056757	0.28688	0.070758	0.11358	0.17926	0.033707	0.081198	0.17715	-4.3729	-4.4917	-4.0062	-5.1292	-4.0792	-4.325	-4.975	-3.9583	-4.55	-4.6833	-3.975	-4.8604	-4.2562	-4.0646	-4.8042	-4.0125	166.612	214.076	484.443	522.462	302.068	477.705	394.265	425.238	271.421	422.079	483.359	253.579	230.691	510.217	334.052	394.624	0.00069727	0.0001533	6.4009e-05	991.69	4.627e-06	3.3944e-06	1087.2	206.13	8.0123e-06	2.407e-06	265.7	73.775	57.529	16.504	2.8211e-06	23.406	0.00027141	0.00025527	7.1645e-05	983.96	2.9583e-06	2.8395e-06	1080.8	205.79	2.8179e-06	2.7449e-06	265.12	73.762	57.45	16.876	2.6746e-06	23.971	343.879	219.329	335.079	174.432	262.211	314.392	174.507	182.092	357.855	299.549	182.136	188.237	188.794	196.025	359.300	195.423	-8191	255	
28926.066	1	1	0	0	0.37153	0.18276	0.20806	0.27749	0.28446	0.26669	0.25942	0.11983	0.10337	0.079637	0.3954	0.16787	0.14243	0.11861	0.044579	0.17975	-4.2688	-4.5479	-3.9688	-4.9062	-4.2937	-4.0083	-5.0146	-3.8583	-4.2354	-4.6188	-3.9562	-4.85	-4.3229	-3.9917	-4.7521	-3.9188	318.486	289.859	319.190	470.287	463.467	167.919	473.201	479.605	459.062	234.291	444.423	511.559	191.864	234.224	498.805	396.100	0.0006388	0.00029273	2.1979e-05	988.34	5.8075e-06	4.6129e-06	1081.6	206.59	8.4579e-06	1.7367e-06	263.58	73.33	57.06	16.488	2.5934e-06	23.135	0.0002473	0.00024077	6.7711e-05	982.36	2.6028e-06	2.5645e-06	1074.3	205.05	2.5253e-06	2.4822e-06	264.08	73.358	57.186	16.787	2.3297e-06	23.769	353.919	300.317	204.495	174.492	322.764	331.414	174.458	182.092	307.898	327.425	181.400	188.405	189.127	196.086	342.069	194.983	-8191	255	
28926.162	1	1	0	0	0.17167	0.17891	0.14338	0.24326	0.13381	0.11958	0.20814	0.057069	0.018256	0.10511	0.14543	0.09265	0.14559	0.031086	0.18205	0.2324	-4.0792	-4.7812	-3.6813	-4.7646	-4.2208	-3.9271	-4.8938	-4.1813	-4.4896	-4.8167	-3.8375	-4.5708	-4.55	-3.9604	-4.7438	-4.2312	406.874	302.005	281.121	186.927	517.456	167.062	457.836	183.599	272.044	511.805	491.379	495.141	448.298	169.921	272.397	341.884	0.00067376	0.00040359	8.1071e-05	975.69	4.0375e-06	2.8712e-06	1077	203.62	8.217e-06	1.2154e-06	261	72.787	56.659	16.354	3.6491e-06	23.165	0.00022102	0.00020236	5.6064e-05	969.92	2.1974e-06	2.1253e-06	1063.4	202.57	2.1241e-06	2.0572e-06	260.87	72.785	56.591	16.627	2.0584e-06	23.577	351.225	279.492	268.027	174.632	315.739	300.278	174.242	181.993	317.565	283.221	181.740	188.113	188.178	196.542	317.518	195.258	-8191	255	
28926.258	1	1	0	0	0.21708	0.13441	0.13826	0.15274	0.077927	0.15098	0.1253	0.034933	0.059533	0.42338	0.045045	0.17996	0.24495	0.076904	0.19565	0.046708	-3.9437	-4.8021	-3.6792	-4.6604	-4.5125	-4.05	-4.8979	-4.2729	-4.1167	-4.8458	-4.0792	-4.4521	-4.6813	-3.7667	-4.7188	-4.2792	330.050	509.254	289.764	457.366	420.064	244.150	458.512	482.463	235.872	301.143	405.911	486.044	281.382	366.550	207.028	257.913	0.00055509	0.00020644	9.5479e-05	970.71	3.9803e-06	4.8987e-06	1066.8	203.68	9.2899e-07	2.6042e-06	260.32	72.938	57.04	16.343	2.8288e-06	23.066	0.00020861	0.00018727	5.4112e-05	962.23	2.144e-06	2.1984e-06	1056.7	202.46	2.1745e-06	2.1705e-06	261.15	72.7	56.655	16.642	2.153e-06	23.605	345.357	264.264	237.364	174.574	300.083	322.717	174.386	182.356	184.511	341.085	181.654	187.970	188.753	196.138	351.471	195.374	-8191	255	
28926.377	1	1	0	0	0.19519	0.11945	0.18498	0.18964	0.22837	0.12675	0.25715	0.045494	0.033626	0.083035	0.13425	0.17704	0.20703	0.15965	0.12148	0.20904	-3.7229	-4.9021	-3.9979	-4.4021	-4.5729	-3.7958	-4.7792	-4.2125	-3.9833	-4.8375	-4.1104	-4.475	-4.6438	-4.0417	-4.7188	-4.4229	259.792	293.093	211.538	498.660	451.501	495.449	468.987	436.984	337.064	177.414	486.621	451.784	504.194	392.067	318.573	343.100	0.00060836	0.00036348	9.1033e-05	974.11	4.7069e-06	2.7449e-06	1071.7	202.94	4.1062e-06	3.3324e-06	259.59	72.669	56.369	16.373	4.9688e-06	23.248	0.00022006	0.00020027	5.6218e-05	966.92	2.2413e-06	2.2025e-06	1060.6	202.52	2.2407e-06	2.185e-06	260.86	72.862	56.574	16.63	2.2456e-06	23.665	348.882	266.376	244.566	174.323	310.264	331.663	174.492	182.383	327.603	378.419	181.592	188.216	188.836	196.553	269.986	195.766	-8191	255	
28926.473	1	1	0	0	0.19037	0.21869	0.1637	0.20022	0.023735	0.34671	0.11873	0.057234	0.20827	0.15191	0.071354	0.24997	0.056226	0.34687	0.18576	0.13651	-3.85	-4.9021	-4.0708	-4.2542	-4.9104	-3.9229	-4.8313	-4.625	-3.8354	-4.9479	-4.2708	-4.1604	-4.7479	-4.0792	-4.5708	-4.5729	519.718	277.871	259.400	165.608	513.165	190.941	511.999	248.428	199.716	445.601	458.557	178.055	390.258	270.444	392.503	468.414	0.000628	0.0004412	5.6587e-05	970.28	4.7797e-06	3.4529e-06	1075.5	204.05	9.8103e-06	2.0896e-06	260.82	72.952	56.855	16.39	3.8516e-06	23.205	0.00023077	0.00020001	5.6658e-05	967.48	2.2451e-06	2.3624e-06	1064.1	203.13	2.3405e-06	2.2352e-06	261.75	73.13	56.926	16.683	2.2652e-06	23.679	352.031	259.771	223.854	174.361	294.910	279.257	174.383	181.958	318.750	302.009	181.936	188.263	189.010	196.466	354.603	195.375	-8191	255	
28926.545	1	1	0	0	0.11253	0.11248	0.23903	0.12088	0.036508	0.10983	0.28106	0.11118	0.10748	0.11918	0.17302	0.15198	0.21535	0.18473	0.19814	0.082734	-3.6521	-4.8833	-4.1438	-4.175	-4.6979	-3.8458	-4.7979	-4.7604	-3.9229	-4.6854	-4.3021	-4.0125	-4.9167	-3.9979	-4.5521	-4.8625	222.477	475.270	342.897	481.888	508.115	439.689	471.083	308.672	194.885	260.144	506.824	462.947	361.867	431.471	385.177	510.709	0.00060234	0.00034525	9.1465e-05	979.32	3.5486e-06	2.3861e-06	1076.2	203.56	5.3351e-06	6.2481e-07	262.77	73.233	57.096	16.41	3.0681e-06	23.036	0.00022637	0.00020804	5.6689e-05	969.61	2.2865e-06	2.2373e-06	1063.7	203.17	2.3126e-06	2.2838e-06	261.65	73.173	56.965	16.702	2.2676e-06	23.703	347.303	213.033	256.923	174.481	337.504	380.588	174.414	181.823	318.469	248.300	181.673	188.163	189.061	196.647	297.596	195.609	-8191	255	
28926.641	1	1	0	0	0.14214	0.28886	0.17827	0.20507	0.15048	0.091042	0.2078	0.19874	0.097294	0.27259	0.1362	0.15132	0.052184	0.31378	0.10601	0.061489	-3.6437	-4.6583	-4.4854	-4.0479	-4.9021	-3.9729	-4.6312	-4.8771	-3.8771	-4.6813	-4.4396	-4.1562	-4.7708	-4.0521	-4.2146	-4.7708	484.347	308.277	512.548	217.603	252.555	201.994	398.023	473.111	391.425	409.787	198.662	448.211	488.042	479.065	400.394	325.630	0.00057328	0.00025673	8.5211e-05	973.19	3.1677e-06	3.8534e-06	1074.1	204.44	5.7965e-06	4.3415e-06	262.79	72.412	56.677	16.437	1.7369e-06	23.037	0.00022275	0.00020064	5.5903e-05	969.65	2.1774e-06	2.2604e-06	1064	203.28	2.266e-06	2.195e-06	262.35	72.78	56.757	16.722	2.2143e-06	23.736	343.896	224.388	230.713	174.419	355.054	279.686	174.546	182.299	303.448	310.932	181.360	188.566	189.211	196.331	292.287	195.864	-8191	255	
28926.762	1	1	0	0	0.16822	0.1474	0.26531	0.22109	0.077258	0.42789	0.21607	0.16151	0.25252	0.13864	0.12535	0.15755	0.079586	0.12339	0.039929	0.30702	-3.5146	-4.6458	-4.575	-4.1562	-4.7417	-4.0854	-4.4417	-4.9854	-3.9313	-4.5292	-4.5729	-3.9854	-4.7896	-4.2104	-4.1896	-4.825	514.145	249.683	409.617	523.320	297.055	523.306	449.181	490.525	517.710	210.313	459.742	398.258	326.397	516.599	469.316	509.535	0.00069729	0.00017388	0.00010332	976.47	4.2246e-06	1.6806e-06	1074.9	204.15	5.9226e-06	3.7772e-06	262.15	72.884	56.537	16.427	1.0655e-06	23.258	0.00022657	0.00020606	5.9086e-05	969.69	2.3141e-06	2.2984e-06	1064.9	203.43	2.3708e-06	2.3033e-06	261.58	72.944	56.983	16.693	2.2604e-06	23.778	346.518	229.968	271.908	174.630	368.177	313.044	174.183	182.143	296.571	299.062	181.672	188.375	188.852	196.440	342.389	195.408	-8191	255	
28926.857	1	1	0	0	0.038887	0.034618	0.027904	0.30171	0.28199	0.12638	0.16556	0.18798	0.13698	0.042469	0.021829	0.30389	0.2028	0.03904	0.09963	0.063318	-3.5167	-4.4833	-4.3854	-3.9854	-4.7708	-4.1687	-4.2208	-4.8187	-3.9083	-4.5896	-4.8646	-3.9458	-4.6979	-4.2375	-3.8604	-4.7792	518.331	303.183	293.549	511.608	282.417	285.166	229.170	442.697	441.940	314.451	496.842	230.375	174.754	175.598	231.597	241.394	0.00052501	0.00042131	5.1645e-05	986.17	2.8811e-06	3.6342e-06	1071.8	203.79	7.6803e-06	1.0175e-06	262	73.605	56.613	16.542	3.9095e-06	23.388	0.00022597	0.00020913	5.8497e-05	973.52	2.3315e-06	2.2109e-06	1064.2	203.22	2.2942e-06	2.2591e-06	261.99	73.219	56.79	16.736	2.2809e-06	23.772	349.550	310.192	230.206	174.511	322.387	318.716	174.240	182.110	309.080	380.731	181.995	188.545	188.559	196.732	274.811	195.933	-8191	255	
28926.953	1	1	0	0	0.31036	0.095498	0.063382	0.12185	0.16248	0.11232	0.096547	0.12804	0.052787	0.093877	0.098875	0.14436	0.020484	0.26861	0.26414	0.13117	-3.5771	-4.4271	-4.5896	-3.9813	-4.6833	-4.3708	-4.0521	-4.9458	-3.9417	-4.3542	-4.7604	-3.7604	-4.4479	-4.5687	-3.8604	-4.8708	179.977	425.916	394.644	468.429	178.366	396.140	477.791	444.840	476.639	426.912	285.251	252.464	255.836	171.833	414.869	188.305	0.00066017	0.00039879	8.5962e-05	978.04	3.5325e-06	2.7467e-06	1072.3	204.53	4.6453e-06	3.1635e-06	263.71	73.188	56.63	16.424	6.8469e-06	23.363	0.00022095	0.00020489	5.622e-05	969.22	2.2963e-06	2.1941e-06	1063.4	203.51	2.3033e-06	2.2897e-06	261.96	73.042	56.824	16.726	2.2541e-06	23.744	350.495	226.636	233.946	174.713	321.653	331.485	174.427	182.195	315.422	318.542	181.765	188.200	189.141	196.206	349.478	195.953	-8191	255	
28927.051	1	1	0	0	0.25002	0.2201	0.08208	0.11839	0.10761	0.13977	0.25357	0.020298	0.30014	0.112	0.1125	0.05739	0.15531	0.10567	0.1202	0.08376	-3.8958	-4.2417	-4.7125	-3.8833	-4.5479	-4.5312	-4.0042	-4.8167	-4.2333	-4.0458	-4.9479	-3.9	-4.6917	-4.5792	-3.9188	-4.7438	523.498	256.587	460.377	490.383	416.057	262.735	464.649	398.676	375.334	409.634	447.767	267.321	509.898	486.714	471.181	295.475	0.00062974	0.000314	0.00013144	976.38	4.6477e-06	4.6582e-06	1073.3	203.37	5.846e-06	1.5841e-06	263.56	72.745	56.683	16.425	3.2511e-06	23.097	0.00022646	0.00021149	5.683e-05	971.42	2.3284e-06	2.3384e-06	1065	203.76	2.3348e-06	2.3047e-06	262.52	73.041	56.929	16.682	2.3336e-06	23.719	352.741	282.920	240.049	174.409	312.749	323.205	174.315	182.239	333.536	311.479	181.724	188.246	188.950	196.060	309.114	195.447	-8191	255	
28927.146	1	1	0	0	0.24835	0.036701	0.10071	0.20366	0.23402	0.17873	0.25961	0.29948	0.14887	0.027687	0.089543	0.22978	0.15078	0.15608	0.078757	0.30058	-3.8479	-4.0604	-4.9042	-4.0167	-4.2708	-4.625	-4.0896	-4.7708	-4.2312	-3.9854	-4.8771	-3.7854	-4.225	-4.6583	-3.9208	-4.7521	438.669	472.436	201.749	436.315	241.827	417.288	397.263	206.587	510.771	255.762	479.678	252.500	372.031	202.234	459.595	264.457	0.00063043	0.00018095	7.3144e-05	977.81	2.7896e-06	4.1569e-06	1074.9	204.45	3.6579e-06	2.2162e-06	262.7	73.455	56.719	16.451	4.4048e-06	23.246	0.00022699	0.0002146	5.7959e-05	970.96	2.3378e-06	2.2914e-06	1066.8	203.71	2.2944e-06	2.2888e-06	262.4	73.216	56.891	16.708	2.349e-06	23.759	346.356	284.164	284.362	174.545	283.709	332.106	174.255	182.058	298.224	189.405	181.139	188.408	188.756	196.247	303.288	195.508	-8191	255	
28927.242	1	1	0	0	0.093138	0.24623	0.056483	0.32824	0.037788	0.050696	0.22093	0.22679	0.16503	0.28935	0.19182	0.033493	0.084365	0.15798	0.09967	0.13449	-4.0583	-3.9042	-4.7812	-4.1813	-4.0979	-4.8125	-4.0542	-4.7146	-4.3646	-3.9708	-4.9854	-4.0333	-4.0354	-4.8042	-3.7729	-4.7083	350.315	511.499	338.224	514.576	179.407	343.032	506.131	495.515	495.450	338.407	519.422	473.136	443.893	446.007	446.379	339.655	0.00065396	0.00031427	0.00011641	979.85	2.2898e-06	3.7428e-06	1080.3	204.65	3.5242e-06	1.6013e-06	264.09	72.895	56.786	16.495	2.2596e-07	23.174	0.00022599	0.00021584	5.7818e-05	972.53	2.3484e-06	2.2844e-06	1068.9	204.07	2.3103e-06	2.2813e-06	262.94	73.122	57.064	16.775	2.2637e-06	23.801	354.811	275.706	252.942	174.895	382.793	343.337	174.423	182.023	324.111	258.512	181.706	188.823	188.487	196.334	433.710	195.850	-8191	255	
28927.338	1	1	0	0	0.12846	0.09122	0.12598	0.023551	0.1698	0.11969	0.37211	0.17042	0.057198	0.10625	0.11507	0.065224	0.25538	0.22215	0.26417	0.061469	-4.2729	-3.675	-4.7125	-4.1896	-4.1312	-4.8604	-4.075	-4.4688	-4.6167	-3.8563	-4.7354	-4.1312	-3.8958	-4.9396	-4.1104	-4.4146	475.042	490.978	452.513	261.645	457.250	434.960	487.462	459.763	394.227	517.785	496.220	168.778	420.543	487.784	463.060	306.726	0.00069459	0.00018602	2.5793e-05	978.67	4.7084e-06	1.4227e-06	1075.7	204.76	7.0968e-06	1.5084e-06	261.88	73.191	56.504	16.39	5.14e-06	23.399	0.00022285	0.00021296	5.644e-05	974.31	2.2613e-06	2.2375e-06	1067.7	203.72	2.2509e-06	2.1756e-06	262.33	73.202	57.037	16.748	2.3134e-06	23.815	352.083	328.223	198.419	174.540	282.640	362.767	174.592	181.860	315.588	308.562	181.372	188.433	188.568	196.242	307.983	195.414	-8191	255	
28927.457	1	1	0	0	0.23087	0.11433	0.11631	0.10059	0.094085	0.011487	0.095531	0.076503	0.059084	0.11989	0.22757	0.1772	0.11303	0.10095	0.1844	0.29156	-4.4667	-3.8063	-4.7958	-4.4042	-3.8479	-4.8708	-4.1896	-4.2417	-4.725	-3.9229	-4.6667	-4.5188	-4.0521	-4.8938	-4.2063	-4.1771	305.110	374.269	362.650	477.129	228.088	464.629	173.293	227.521	472.435	266.594	185.979	194.400	436.728	204.208	196.585	445.281	0.00065522	0.0004523	8.8249e-05	982.19	4.8295e-06	4.5468e-06	1078.3	204.34	4.7828e-06	4.1842e-06	263.87	72.525	56.922	16.553	5.9397e-06	23.346	0.00022352	0.00020717	5.7165e-05	974.42	2.2841e-06	2.2157e-06	1069.3	203.77	2.2889e-06	2.2372e-06	262.9	73.067	56.833	16.787	2.3099e-06	23.806	351.559	271.941	270.237	174.458	300.464	318.899	174.513	181.937	328.651	330.339	181.928	188.666	189.144	196.705	341.919	195.202	-8191	255	
28927.553	1	1	0	0	0.055405	0.08927	0.15993	0.1212	0.032316	0.16763	0.2578	0.078199	0.10479	0.15434	0.13982	0.17841	0.10106	0.090897	0.23761	0.079141	-4.5396	-3.9875	-4.5854	-4.65	-4.0125	-4.7729	-4.3313	-4.3021	-4.8646	-3.8583	-4.5979	-4.525	-3.8917	-4.8604	-4.325	-4.175	249.520	428.532	325.853	464.378	197.801	414.309	446.392	431.867	232.603	251.432	398.720	212.533	367.207	462.673	462.100	384.059	0.00068162	0.00028094	0.00015753	983.91	5.3051e-06	4.616e-06	1074.2	204.12	2.0481e-06	9.9215e-07	262.83	73.319	56.765	16.425	5.7484e-06	23.115	0.0002217	0.00020305	5.5296e-05	973.62	2.2639e-06	2.1736e-06	1065.4	203.78	2.2331e-06	2.1912e-06	262.29	73.165	56.874	16.704	2.1064e-06	23.716	347.040	273.544	268.066	174.469	312.029	348.559	174.359	181.888	277.159	265.165	181.534	188.578	188.814	196.785	354.803	195.318	-8191	255	
28927.648	1	1	0	0	0.084931	0.23164	0.068656	0.26433	0.086436	0.11228	0.29655	0.20462	0.22435	0.067756	0.053343	0.13403	0.29678	0.12656	0.060532	0.051196	-4.6479	-3.9188	-4.4521	-4.6125	-3.7438	-4.6813	-4.4563	-4.0813	-4.8438	-3.9354	-4.5396	-4.7667	-3.8312	-4.8667	-4.2729	-4.0125	289.218	323.326	374.249	455.630	313.562	345.272	448.149	425.216	415.598	307.414	243.445	489.333	177.525	292.944	387.960	427.155	0.00058186	0.00037781	9.3362e-06	976.43	3.8352e-06	2.2189e-06	1072.6	205.56	3.6424e-06	2.7496e-06	261.09	72.757	57.094	16.409	3.339e-06	23.088	0.00021509	0.000197	5.347e-05	971.3	2.237e-06	2.0706e-06	1065.7	204.16	2.1232e-06	2.1616e-06	261.98	72.97	56.919	16.704	2.0174e-06	23.694	358.091	279.427	281.273	174.608	302.030	308.259	174.590	182.250	280.509	330.043	181.461	188.512	188.824	196.543	309.503	195.271	-8191	255	
28927.770	1	1	0	0	0.28766	0.15263	0.21259	0.17222	0.12514	0.22265	0.28312	0.27694	0.16054	0.11841	0.21858	0.016611	0.049114	0.051957	0.093609	0.02086	-4.5896	-4.0854	-4.3458	-4.9979	-3.6146	-4.6542	-4.7083	-4.0729	-4.8583	-4.0583	-4.2833	-4.7771	-3.8187	-4.5437	-4.4896	-3.8354	458.381	488.056	243.539	434.535	245.830	245.792	503.868	443.533	231.583	187.810	409.962	486.961	480.363	229.744	308.127	420.736	0.00066681	0.00040832	4.8955e-05	981.02	6.3259e-06	5.2316e-06	1069.8	204.47	5.4695e-06	2.8865e-06	262.12	72.42	56.791	16.304	1.5014e-06	23.044	0.00020604	0.00018451	5.1841e-05	972.21	2.1119e-06	1.9725e-06	1059.2	202.62	2.0187e-06	1.9659e-06	260.87	72.764	56.648	16.601	1.8863e-06	23.618	352.445	294.582	239.034	174.750	340.679	293.812	174.318	182.121	340.837	337.685	181.686	188.588	188.892	196.385	386.049	195.239	-8191	255	
28927.842	1	1	0	0	0.14647	0.10219	0.1801	0.093331	0.099004	0.059261	0.25101	0.062881	0.23923	0.21753	0.1125	0.11497	0.060133	0.19401	0.21187	0.21131	-4.55	-4.1479	-4.1	-4.8438	-4.0208	-4.5917	-4.5708	-4.1167	-4.7	-4.2271	-4.2562	-4.8896	-3.8104	-4.4792	-4.6583	-3.8563	339.579	333.941	329.689	503.213	402.474	446.349	489.669	460.876	307.799	284.496	312.348	395.246	519.510	492.936	324.905	497.005	0.00068092	0.00017937	7.6574e-05	971.78	4.4059e-06	5.089e-06	1062.6	202.49	6.5193e-06	1.833e-06	260.96	72.566	56.056	16.248	4.3037e-06	23.105	0.00019674	0.00017767	4.825e-05	960.89	1.9957e-06	1.9494e-06	1053.8	202	1.9501e-06	2.0259e-06	260.49	72.517	56.309	16.589	1.9494e-06	23.623	348.102	312.076	298.413	174.474	312.995	357.766	174.603	181.750	323.752	321.974	181.105	188.154	188.785	196.476	331.753	195.257	-8191	255	
28927.938	1	1	0	0	0.19191	0.14766	0.13141	0.10731	0.30436	0.15858	0.22755	0.070999	0.07341	0.12873	0.089908	0.069942	0.20482	0.11093	0.20171	0.21147	-4.5062	-4.325	-3.9375	-5.0312	-3.9604	-4.4375	-4.8854	-3.975	-4.7188	-4.4583	-4.0938	-4.7396	-3.9792	-4.1667	-4.8792	-3.9417	253.524	200.425	469.259	460.062	190.552	272.297	458.444	425.937	481.828	205.171	219.985	382.143	503.166	428.587	465.756	437.089	0.00068143	0.00017016	6.2387e-05	973.74	4.5559e-06	5.4658e-06	1068.7	203.13	5.1315e-06	2.1505e-06	261.67	72.561	56.577	16.283	3.6358e-06	23.233	0.00020338	0.00018743	5.266e-05	963.81	2.1997e-06	2.0945e-06	1059.6	202.19	2.1498e-06	2.1713e-06	260.98	72.756	56.679	16.59	2.175e-06	23.602	346.263	292.432	234.203	174.734	278.426	317.937	174.677	182.094	342.765	301.793	181.302	188.479	188.915	196.041	282.316	195.799	-8191	255	
28928.059	1	1	0	0	0.16757	0.14789	0.23374	0.075955	0.083795	0.29297	0.28171	0.20411	0.1626	0.19175	0.2575	0.083953	0.25022	0.066519	0.048441	0.26004	-4.2604	-4.3417	-3.8646	-4.9208	-4.0125	-4.2083	-4.8583	-3.925	-4.5625	-4.5354	-3.8438	-4.8333	-4.1083	-4.2354	-4.7896	-3.9042	339.922	444.630	178.118	491.288	250.398	493.841	446.430	418.782	384.961	224.257	355.942	497.910	485.939	187.939	197.363	229.055	0.00066734	0.00025191	9.4785e-05	975.16	3.1641e-06	1.3843e-06	1073.8	203.03	4.123e-06	2.1032e-06	261.6	72.801	56.274	16.339	7.0707e-06	23.031	0.00021643	0.00019995	5.7027e-05	966.24	2.2661e-06	2.2162e-06	1061.7	202.53	2.1945e-06	2.1449e-06	260.83	72.789	56.599	16.631	2.1918e-06	23.717	354.320	265.898	295.710	174.539	299.915	352.461	174.556	182.117	314.937	295.012	181.259	188.445	188.903	195.814	289.130	195.365	-8191	255	
28928.152	1	1	0	0	0.17541	0.047502	0.14969	0.25494	0.20887	0.15835	0.072321	0.067688	0.024777	0.30554	0.47584	0.017895	0.42669	0.29411	0.088505	0.13639	-4.3625	-4.5854	-3.9208	-5.1208	-4.0979	-4.0646	-4.9812	-4.0396	-4.4167	-4.575	-3.8833	-4.9167	-4.2708	-3.9729	-4.95	-3.9708	210.542	391.641	512.580	487.642	440.229	406.105	268.718	259.524	212.078	346.284	512.371	383.453	439.356	195.698	455.757	513.755	0.00066042	0.00015935	9.5156e-05	976.08	3.1777e-06	5.7437e-06	1067.3	204.33	3.8395e-06	4.6497e-06	260.68	72.422	56.636	16.369	3.7901e-06	23.159	0.00021676	0.00019871	5.7941e-05	967.4	2.243e-06	2.1716e-06	1061.1	202.74	2.2678e-06	2.2216e-06	261.3	72.66	56.673	16.659	2.243e-06	23.623	348.400	278.286	263.234	174.613	337.831	346.892	174.462	182.099	292.311	313.454	181.757	188.790	188.789	196.442	307.720	194.729	-8191	255	
28928.248	1	1	0	0	0.012715	0.074563	0.17555	0.16061	0.20189	0.051895	0.15425	0.16105	0.035411	0.075449	0.11557	0.043022	0.20899	0.25687	0.1763	0.13376	-4.0396	-4.4938	-3.9292	-4.8521	-4.3938	-4.0583	-5.2021	-4.1479	-4.3479	-4.7188	-4.1333	-4.7083	-4.4437	-4.1188	-4.6958	-4.1958	495.355	415.852	187.376	495.036	437.820	414.856	442.299	448.629	231.104	443.059	229.765	452.772	484.823	205.930	437.211	449.816	0.00055492	0.00012668	0.00010694	983.34	2.5805e-06	3.2045e-06	1076.1	204.74	7.2376e-06	4.9526e-07	261.91	73.247	56.698	16.562	1.7994e-06	23.275	0.00022811	0.00020655	5.9831e-05	971.99	2.4376e-06	2.3494e-06	1066.9	203.37	2.4484e-06	2.3128e-06	262.51	73.128	56.912	16.788	2.3941e-06	23.803	346.962	253.104	295.208	174.800	292.740	303.409	174.487	181.955	327.527	289.845	181.841	188.156	188.696	195.862	326.025	195.362	-8191	255	
28928.346	1	1	0	0	0.29283	0.12565	0.15244	0.2449	0.14829	0.11986	0.096443	0.11857	0.085322	0.10171	0.34105	0.0876	0.10157	0.36399	0.2877	0.10942	-3.8646	-4.6417	-3.8896	-4.7396	-4.4583	-3.9792	-4.9583	-4.1917	-4.075	-4.7771	-3.9104	-4.5854	-4.5521	-4.0271	-4.7104	-4.1854	261.704	471.028	285.129	198.072	269.543	172.749	406.247	484.271	243.997	507.064	389.092	506.750	177.561	200.683	479.813	470.473	0.00057187	0.00025996	0.00011306	983.4	5.8608e-06	3.5933e-06	1083.8	206.37	3.668e-06	2.4296e-06	263.63	73.613	56.953	16.533	5.8254e-06	23.313	0.00023821	0.00021744	6.0584e-05	979.12	2.4254e-06	2.3443e-06	1073.5	204.79	2.515e-06	2.3492e-06	263.94	73.514	57.173	16.819	2.2824e-06	23.851	347.611	289.773	280.366	174.306	294.504	421.476	174.480	182.345	288.961	366.362	181.605	188.533	189.210	195.899	346.553	195.461	-8191	255	
28928.441	1	1	0	0	0.15664	0.11676	0.073891	0.24325	0.18818	0.034762	0.19078	0.069692	0.20652	0.02862	0.3133	0.14698	0.17798	0.27234	0.1486	0.17096	-3.7896	-4.7083	-3.8812	-4.7042	-4.5563	-3.8375	-4.9833	-4.2875	-3.9146	-4.9125	-4.0521	-4.45	-4.7229	-3.7687	-4.6583	-4.3646	385.727	180.436	394.765	442.075	501.643	458.185	378.539	436.990	277.891	505.773	413.678	234.949	380.004	183.443	319.122	309.954	0.00062611	0.00016851	5.7593e-05	988.82	5.4371e-06	4.1106e-06	1088.9	205.55	5.8699e-06	2.7995e-06	262.85	73.555	57.155	16.792	6.1722e-06	23.476	0.00022968	0.00020471	5.8901e-05	982.09	2.3174e-06	2.3069e-06	1078.2	204.69	2.3843e-06	2.3498e-06	264.01	73.982	57.393	16.909	2.32e-06	23.892	346.637	335.275	275.819	174.561	331.139	344.144	174.438	182.366	279.161	354.216	181.364	188.026	188.839	196.240	319.905	194.959	-8191	255	
28928.537	1	1	0	0	0.23283	0.2666	0.065218	0.16575	0.11261	0.14718	0.42451	0.16021	0.20473	0.073524	0.18498	0.05566	0.15241	0.12508	0.064758	0.29622	-3.6167	-4.8375	-3.9146	-4.3812	-4.6354	-3.8479	-4.7917	-4.4375	-4.0188	-4.9458	-4.0146	-4.2979	-4.7812	-3.8021	-4.6521	-4.4354	230.373	212.022	290.992	449.557	366.772	218.509	428.870	366.284	288.567	260.185	363.851	469.468	494.082	266.210	510.733	395.252	0.00069395	0.00036821	8.4969e-05	995.92	3.9881e-06	1.1245e-06	1095.6	206.96	8.2312e-06	1.3205e-06	265.96	73.855	57.888	16.739	5.895e-06	23.712	0.00023536	0.000213	5.9434e-05	986.06	2.4076e-06	2.3905e-06	1083.1	206.14	2.4182e-06	2.3635e-06	265.74	73.939	57.728	16.923	2.3648e-06	24.089	346.547	299.214	279.903	174.263	333.978	284.263	174.315	182.156	269.518	245.431	181.585	188.131	188.961	196.088	303.505	194.923	-8191	255	
28928.635	1	1	0	0	0.03683	0.023307	0.12869	0.134	0.073584	0.2899	0.23418	0.12418	0.22042	0.18287	0.040021	0.11468	0.22628	0.3063	0.19643	0.11295	-3.6833	-4.9375	-4.1083	-4.2417	-4.7438	-3.8354	-4.4521	-4.5563	-3.9313	-4.6917	-4.2083	-4.0646	-4.575	-3.9083	-4.3187	-4.6667	259.684	453.695	484.713	384.564	257.586	473.439	313.264	495.740	329.196	389.203	262.861	507.315	436.197	480.156	228.500	230.648	0.00062169	0.00049525	7.8356e-05	996.39	4.6449e-06	3.8806e-06	1091	207.64	3.0448e-06	1.6433e-06	266.66	74.026	57.886	16.535	7.4363e-06	23.548	0.00023714	0.00022256	6.0364e-05	987.58	2.4453e-06	2.4248e-06	1083	206.69	2.4362e-06	2.3493e-06	265.96	74.056	57.81	16.899	2.4876e-06	24.051	343.763	273.696	241.336	174.369	291.601	303.108	174.404	181.917	336.502	350.195	181.347	188.200	188.994	196.229	273.752	195.217	-8191	255	
28928.730	1	1	0	0	0.09531	0.086034	0.12593	0.19206	0.068887	0.20427	0.23258	0.099482	0.09352	0.088732	0.20514	0.049174	0.085947	0.053951	0.34052	0.21865	-3.5833	-4.6917	-4.1792	-4.1729	-4.7271	-3.9562	-4.4417	-4.7667	-3.8896	-4.7354	-4.3604	-3.95	-4.9729	-4.1667	-4.1	-4.7917	282.201	265.602	180.433	470.011	273.401	468.466	433.018	340.148	196.691	508.109	491.483	473.192	244.408	203.349	341.631	391.669	0.0006771	0.00039129	4.4498e-05	999.46	9.8484e-06	3.1832e-06	1095.1	209.52	5.0486e-06	4.0379e-06	267.24	74.363	57.513	16.673	5.5399e-06	23.514	0.00023307	0.00021832	5.9311e-05	990.3	2.4211e-06	2.3234e-06	1086	207.62	2.3758e-06	2.2555e-06	267.22	74.132	57.886	16.992	2.3702e-06	24.057	356.451	264.392	260.646	174.381	300.563	386.505	174.398	181.848	356.331	346.686	181.757	188.144	188.367	196.237	298.468	195.358	-8191	255	
28928.850	1	1	0	0	0.15849	0.20795	0.1711	0.16565	0.11171	0.10852	0.0058506	0.20086	0.2386	0.21048	0.052764	0.20683	0.13343	0.15721	0.2497	0.05734	-3.475	-4.7021	-4.2812	-3.9875	-4.775	-4.0729	-4.2646	-4.7208	-3.9646	-4.5167	-4.5396	-3.8167	-4.7083	-4.1312	-4.0333	-4.7896	331.757	506.237	441.443	169.696	326.148	399.852	488.862	199.751	476.291	425.657	240.962	354.034	304.022	498.121	452.333	469.901	0.00063332	3.2774e-05	6.4465e-05	996.4	2.4074e-06	1.2061e-06	1091.9	208.75	5.4578e-06	1.1973e-06	265.39	74.384	58.017	16.72	4.5957e-06	23.566	0.00023122	0.00020809	5.8789e-05	987.91	2.325e-06	2.2961e-06	1086	207.85	2.2816e-06	2.2412e-06	267.23	74.341	57.921	17.011	2.3154e-06	24.076	342.813	371.375	326.820	174.553	327.639	266.374	174.255	181.891	335.312	313.977	181.455	188.189	188.517	196.569	322.177	195.346	-8191	255	
28928.947	1	1	0	0	0.19303	0.059295	0.065921	0.12287	0.067539	0.14847	0.088457	0.041331	0.22305	0.28672	0.31625	0.071312	0.11106	0.13105	0.10519	0.2933	-3.4729	-4.4792	-4.5146	-4.1396	-4.7937	-4.2104	-4.4083	-4.8896	-3.9146	-4.4187	-4.7271	-3.8271	-4.775	-4.1125	-3.8229	-4.8917	426.240	304.642	244.591	496.012	282.579	464.783	380.660	395.064	514.270	212.628	485.818	424.742	387.942	357.494	502.829	197.271	0.00059959	0.00044559	6.3178e-05	996.39	4.2612e-06	1.9864e-06	1093.3	208.72	6.4819e-06	1.0908e-06	268.57	74.437	57.904	16.678	3.0908e-06	23.675	0.00022299	0.0002135	5.853e-05	988.51	2.3522e-06	2.3914e-06	1085.6	208.21	2.379e-06	2.3598e-06	268.16	74.66	57.765	17.04	2.401e-06	24.148	342.478	316.565	253.290	174.331	336.061	429.591	174.216	181.821	290.810	288.115	181.530	188.135	188.790	196.089	511.295	195.134	-8191	255	
28929.043	1	1	0	0	0.17244	0.2256	0.075943	0.091423	0.23358	0.10064	0.28153	0.21158	0.15657	0.1526	0.23276	0.22163	0.15868	0.1591	0.050302	0.20222	-3.5896	-4.2583	-4.4458	-3.8542	-4.5188	-4.2	-4.0437	-4.8812	-4.0375	-4.1708	-4.8667	-3.9604	-4.7	-4.3854	-4.0146	-4.7458	441.995	422.890	352.608	182.582	168.817	185.838	165.872	489.095	399.165	503.790	206.016	249.702	357.729	493.234	170.413	249.908	0.00065872	0.00019646	1.4357e-05	1001.7	1.8383e-06	4.5669e-06	1098.8	209.86	3.5782e-06	3.3394e-06	270.6	74.875	57.98	16.715	5.1965e-06	23.818	0.00024504	0.00022476	6.0635e-05	993.63	2.4519e-06	2.4772e-06	1089.6	209.13	2.4266e-06	2.4294e-06	269.87	74.619	58.138	17.101	2.4148e-06	24.184	343.946	279.531	337.307	174.598	336.111	348.204	174.203	182.131	354.134	364.421	181.612	188.273	188.981	196.454	349.924	195.269	-8191	255	
28929.139	1	1	0	0	0.19183	0.17202	0.20885	0.15453	0.10493	0.16689	0.087535	0.054254	0.093838	0.044003	0.1584	0.16025	0.066235	0.18899	0.28524	0.16331	-3.7521	-4.0625	-4.7271	-3.95	-4.6167	-4.4021	-3.95	-4.8292	-4.0333	-4.2229	-4.7542	-3.8083	-4.4167	-4.4688	-3.8229	-4.9062	207.365	285.524	433.935	315.064	333.278	199.267	325.050	409.032	289.092	319.095	464.222	504.369	417.666	215.246	425.885	512.707	0.00060067	0.00010884	7.8495e-05	1003.3	3.1625e-06	5.4218e-06	1097.6	211.22	4.8501e-06	9.1614e-07	269.93	74.45	58.232	16.756	3.2652e-06	23.726	0.00024395	0.00022313	6.0679e-05	993.16	2.3741e-06	2.3985e-06	1091.1	210.26	2.4125e-06	2.3985e-06	269.93	74.824	58.341	17.109	2.4292e-06	24.28	352.659	283.627	295.365	174.546	277.152	301.086	174.316	182.162	291.430	391.480	181.628	188.421	188.711	196.840	276.720	195.355	-8191	255	
#DATA ENDS
