BOXY.EXE: ISS Imagent and Oximeter Data Acquisition Program Version 0.80
Ascii Record File

#ACQ INFORMATION
2  Detector Channels 
16  External MUX Channels 
1  Auxiliary Channels 
5000  Waveform (CCF) Frequency (Hz)
1  Waveforms Skipped 
30  Waveforms Averaged 
1  Cycles Averaged 
16  Acquisitions per Waveform 
10.0806  Updata Rate (Hz) 

#FILE INFORMATION
TRUE -- External MUX Channel results are PARSED.
FALSE -- AC DC and Phase are NOT grouped.
TRUE -- Companion Program Settings File CREATED.
FALSE -- AC data not excluded
FALSE -- DC data not excluded
FALSE -- Phase data not excluded
FALSE -- Auxillary Chn. data not excluded
Tab delimiters

#CALIBRATION STATE
TRUE -- Waveform Calibration Values APPLIED.


#AUX CALIBRATION VALUES
Val Type	aux-1	

Term	1.0000e+00	
Factor	0.0000e+00	


#WF CALIBRATION VALUES
A = Detector Channel
Val Type	A-AC1	A-AC2	A-AC3	A-AC4	A-AC5	A-AC6	A-AC7	A-AC8	A-AC9	A-AC10	A-AC11	A-AC12	A-AC13	A-AC14	A-AC15	A-AC16	A-DC1	A-DC2	A-DC3	A-DC4	A-DC5	A-DC6	A-DC7	A-DC8	A-DC9	A-DC10	A-DC11	A-DC12	A-DC13	A-DC14	A-DC15	A-DC16	A-Ph1	A-Ph2	A-Ph3	A-Ph4	A-Ph5	A-Ph6	A-Ph7	A-Ph8	A-Ph9	A-Ph10	A-Ph11	A-Ph12	A-Ph13	A-Ph14	A-Ph15	A-Ph16	

Term	0.00000e+00	0.00000e+00	0.00000e+00	0.00000e+00	0.00000e+00	0.00000e+00	0.00000e+00	0.00000e+00	0.00000e+00	0.00000e+00	0.00000e+00	0.00000e+00	0.00000e+00	0.00000e+00	0.00000e+00	0.00000e+00	0.00000e+00	0.00000e+00	0.00000e+00	0.00000e+00	0.00000e+00	0.00000e+00	0.00000e+00	0.00000e+00	0.00000e+00	0.00000e+00	0.00000e+00	0.00000e+00	0.00000e+00	0.00000e+00	0.00000e+00	0.00000e+00	0.00000e+00	0.00000e+00	0.00000e+00	0.00000e+00	0.00000e+00	0.00000e+00	0.00000e+00	0.00000e+00	0.00000e+00	0.00000e+00	0.00000e+00	0.00000e+00	0.00000e+00	0.00000e+00	0.00000e+00	0.00000e+00	
Factor	1.00000e+00	1.00000e+00	1.00000e+00	1.00000e+00	1.00000e+00	1.00000e+00	1.00000e+00	1.00000e+00	1.00000e+00	1.00000e+00	1.00000e+00	1.00000e+00	1.00000e+00	1.00000e+00	1.00000e+00	1.00000e+00	1.00000e+00	1.00000e+00	1.00000e+00	1.00000e+00	1.00000e+00	1.00000e+00	1.00000e+00	1.00000e+00	1.00000e+00	1.00000e+00	1.00000e+00	1.00000e+00	1.00000e+00	1.00000e+00	1.00000e+00	1.00000e+00	X	X	X	X	X	X	X	X	X	X	X	X	X	X	X	X	

B = Detector Channel
Val Type	B-AC1	B-AC2	B-AC3	B-AC4	B-AC5	B-AC6	B-AC7	B-AC8	B-AC9	B-AC10	B-AC11	B-AC12	B-AC13	B-AC14	B-AC15	B-AC16	B-DC1	B-DC2	B-DC3	B-DC4	B-DC5	B-DC6	B-DC7	B-DC8	B-DC9	B-DC10	B-DC11	B-DC12	B-DC13	B-DC14	B-DC15	B-DC16	B-Ph1	B-Ph2	B-Ph3	B-Ph4	B-Ph5	B-Ph6	B-Ph7	B-Ph8	B-Ph9	B-Ph10	B-Ph11	B-Ph12	B-Ph13	B-Ph14	B-Ph15	B-Ph16	

Term	0.00000e+00	0.00000e+00	0.00000e+00	0.00000e+00	0.00000e+00	0.00000e+00	0.00000e+00	0.00000e+00	0.00000e+00	0.00000e+00	0.00000e+00	0.00000e+00	0.00000e+00	0.00000e+00	0.00000e+00	0.00000e+00	0.00000e+00	0.00000e+00	0.00000e+00	0.00000e+00	0.00000e+00	0.00000e+00	0.00000e+00	0.00000e+00	0.00000e+00	0.00000e+00	0.00000e+00	0.00000e+00	0.00000e+00	0.00000e+00	0.00000e+00	0.00000e+00	2.30140e+01	-1.20181e+02	-1.19907e+02	-1.83653e+02	-6.30298e+01	-5.18358e+01	-1.58195e+02	-1.62015e+02	-5.19289e+01	-7.20987e+01	-1.70726e+02	-1.70915e+02	-1.78976e+02	-1.76655e+02	-6.37239e+01	-1.49757e+02	
Factor	5.08546e-05	1.47758e-04	3.78023e-05	1.55087e-01	1.88521e-06	1.77159e-06	1.71671e-01	5.62650e-02	2.22537e-06	1.53002e-06	9.34834e-02	3.14727e-02	2.91465e-02	9.72571e-03	2.02248e-06	1.39640e-02	4.02956e-06	4.41231e-06	1.22925e-06	7.62458e-02	4.73918e-08	4.85632e-08	7.91440e-02	2.76715e-02	4.75700e-08	4.85441e-08	4.45230e-02	1.49399e-02	1.44346e-02	4.81122e-03	4.80407e-08	6.69290e-03	X	X	X	X	X	X	X	X	X	X	X	X	X	X	X	X	



#DISTANCE SETTINGS
A = Detector Channel
A-1	A-2	A-3	A-4	A-5	A-6	A-7	A-8	A-9	A-10	A-11	A-12	A-13	A-14	A-15	A-16	

2.5000e+00	3.0000e+00	2.5000e+00	3.0000e+00	2.0000e+00	3.0000e+00	1.5000e+00	3.0000e+00	3.0000e+00	3.0000e+00	3.0000e+00	3.0000e+00	3.0000e+00	3.0000e+00	1.5000e+00	3.0000e+00	

B = Detector Channel
B-1	B-2	B-3	B-4	B-5	B-6	B-7	B-8	B-9	B-10	B-11	B-12	B-13	B-14	B-15	B-16	

1.0000e+01	1.0000e+01	1.0000e+01	1.4400e+00	1.0000e+01	1.0000e+01	1.5100e+00	1.9400e+00	1.0000e+01	1.0000e+01	1.9900e+00	2.4900e+00	2.4100e+00	2.9000e+00	1.0000e+01	2.9800e+00	




#DATA BEGINS
time	group	step	mark	flag	A-AC1	A-AC2	A-AC3	A-AC4	A-AC5	A-AC6	A-AC7	A-AC8	A-AC9	A-AC10	A-AC11	A-AC12	A-AC13	A-AC14	A-AC15	A-AC16	A-DC1	A-DC2	A-DC3	A-DC4	A-DC5	A-DC6	A-DC7	A-DC8	A-DC9	A-DC10	A-DC11	A-DC12	A-DC13	A-DC14	A-DC15	A-DC16	A-Ph1	A-Ph2	A-Ph3	A-Ph4	A-Ph5	A-Ph6	A-Ph7	A-Ph8	A-Ph9	A-Ph10	A-Ph11	A-Ph12	A-Ph13	A-Ph14	A-Ph15	A-Ph16	B-AC1	B-AC2	B-AC3	B-AC4	B-AC5	B-AC6	B-AC7	B-AC8	B-AC9	B-AC10	B-AC11	B-AC12	B-AC13	B-AC14	B-AC15	B-AC16	B-DC1	B-DC2	B-DC3	B-DC4	B-DC5	B-DC6	B-DC7	B-DC8	B-DC9	B-DC10	B-DC11	B-DC12	B-DC13	B-DC14	B-DC15	B-DC16	B-Ph1	B-Ph2	B-Ph3	B-Ph4	B-Ph5	B-Ph6	B-Ph7	B-Ph8	B-Ph9	B-Ph10	B-Ph11	B-Ph12	B-Ph13	B-Ph14	B-Ph15	B-Ph16	aux-1	digaux	

28897.686	1	1	0	768	0.12685	0.09206	0.26729	0.21434	0.10383	0.13865	0.083385	0.24128	0.037924	0.063933	0.090507	0.17804	0.33527	0.12446	0.36933	0.17105	-4.2708	-3.925	-4.7604	-4.4458	-4.1667	-4.7771	-4.2604	-4.6896	-4.725	-3.9979	-4.9729	-4.4313	-4.1979	-4.9875	-3.9	-4.7438	495.749	226.556	335.217	502.208	348.387	504.785	201.867	401.179	309.865	313.858	495.688	456.781	502.018	465.428	216.883	239.352	0.0014732	0.00048892	0.00016965	1361.3	7.0201e-06	7.7746e-06	1360.7	368.38	7.1576e-06	3.54e-06	419.03	140.96	121.95	41.713	1.0441e-05	51.512	0.00058907	0.00055628	0.00015138	1388.9	6.0444e-06	5.9831e-06	1384.6	376.24	6.0102e-06	6.0588e-06	429.34	143.82	124.92	43.102	5.9479e-06	53.32	349.170	242.635	292.167	172.396	307.536	331.562	171.920	176.824	300.644	315.049	176.179	180.430	181.041	185.626	293.679	184.661	-8191	255	
28897.781	1	1	0	0	0.076596	0.10798	0.29627	0.36898	0.053073	0.129	0.16232	0.16902	0.18449	0.20544	0.089098	0.20596	0.13125	0.2845	0.20974	0.21705	-4.5667	-3.9354	-4.9458	-4.6042	-4.1	-4.8479	-4.3208	-4.525	-4.7104	-4.0542	-4.775	-4.4938	-4.1208	-4.9583	-4.0458	-4.4958	360.611	381.613	492.189	414.953	290.163	259.654	483.109	467.885	193.953	380.514	400.646	468.961	424.512	159.486	185.018	464.097	0.0014416	0.00047819	0.00011114	1361.8	1.2431e-05	4.7028e-06	1362.5	368.29	1.1787e-05	3.5127e-06	419.54	140.89	122.41	41.758	9.3155e-06	51.236	0.00057315	0.00054479	0.00014885	1389.7	5.9093e-06	5.9026e-06	1388.4	376.21	5.8438e-06	5.864e-06	429.65	143.97	125.11	43.184	5.8713e-06	53.314	346.281	221.406	246.260	172.177	324.570	292.605	171.925	176.824	319.379	266.192	176.221	180.498	181.247	186.138	267.485	184.777	-8191	255	
28897.879	1	1	0	0	0.16125	0.19059	0.1241	0.27449	0.29559	0.099834	0.10844	0.32582	0.21256	0.091991	0.11347	0.05634	0.21809	0.049521	0.11036	0.30897	-4.4938	-3.8958	-4.6521	-4.7458	-3.7896	-4.875	-4.4688	-4.3917	-4.9208	-3.9688	-4.8042	-4.7729	-4.075	-4.8938	-4.1729	-4.1917	205.553	472.015	455.253	496.504	260.341	275.610	357.874	494.264	471.454	275.234	422.941	424.516	443.587	494.353	162.144	373.883	0.0014215	0.00058295	0.00011373	1358.5	4.5536e-06	7.6534e-06	1358	368.24	5.4523e-06	1.7275e-06	420.26	141.05	122.84	41.827	8.7589e-06	51.55	0.00056028	0.00053483	0.00014939	1389.5	5.9012e-06	5.8996e-06	1389.7	376.48	5.8523e-06	5.8762e-06	430.45	144.27	125.2	43.229	5.8576e-06	53.384	348.448	279.180	250.144	172.377	295.636	371.137	172.113	176.696	289.878	395.212	176.302	180.525	181.336	185.836	289.312	184.719	-8191	255	
28897.975	1	1	0	0	0.083934	0.20193	0.062453	0.20904	0.17516	0.16444	0.15478	0.1484	0.18089	0.16292	0.26518	0.29747	0.094976	0.15812	0.059892	0.14895	-4.5833	-3.9958	-4.4458	-4.7792	-3.85	-4.9125	-4.5208	-4.2667	-4.7937	-4.0667	-4.7312	-4.9625	-3.9021	-4.8583	-4.3833	-4.25	278.730	473.908	218.796	429.083	517.860	385.094	436.895	436.873	198.267	187.303	442.164	503.452	275.027	455.478	311.153	166.902	0.0014236	0.00052597	0.00012586	1364.3	5.5318e-06	5.3778e-06	1360.7	370.49	9.802e-06	5.3277e-06	419.3	141.34	122.37	41.935	6.7607e-06	51.643	0.00056862	0.00054293	0.00014974	1392.8	5.9432e-06	5.9095e-06	1388.3	376.99	5.8152e-06	5.9342e-06	429.3	144.09	125.43	43.194	5.9268e-06	53.476	352.376	252.313	244.284	172.363	282.359	362.595	171.936	176.731	321.989	289.334	176.165	180.614	181.040	185.770	299.630	184.640	-8191	255	
28898.070	1	1	0	0	0.138	0.045657	0.24236	0.075918	0.096155	0.053396	0.33685	0.15581	0.037639	0.15894	0.22513	0.14427	0.10977	0.24164	0.14884	0.18124	-4.6146	-4.0188	-4.4354	-4.9458	-3.9354	-4.6813	-4.7	-4.15	-5.025	-4.2479	-4.4146	-4.8688	-4.0042	-4.8521	-4.4542	-4.1854	290.974	395.949	513.882	440.803	281.265	420.535	411.479	190.623	165.189	392.768	181.391	503.704	172.112	222.734	447.189	460.618	0.0014791	0.00056873	6.3012e-05	1365.4	5.1325e-06	6.2136e-06	1364.7	370.01	8.0877e-06	3.8304e-06	420.02	141.36	122.74	41.983	4.8543e-06	51.502	0.00056985	0.00053941	0.00015147	1393.9	5.9447e-06	5.8266e-06	1390.1	377.12	5.8385e-06	5.9462e-06	429.68	144.27	125.44	43.35	5.8656e-06	53.436	343.225	234.863	316.573	172.232	281.161	340.632	172.197	176.550	341.010	305.739	176.359	180.704	181.116	185.902	353.661	184.806	-8191	255	
28898.166	1	1	0	0	0.23318	0.082315	0.13716	0.15094	0.14074	0.058731	0.18068	0.19631	0.085629	0.032524	0.16615	0.10882	0.35907	0.28588	0.22112	0.29586	-4.5625	-4.2583	-4.3792	-5.2521	-3.8979	-4.5771	-4.8854	-4.1167	-4.8771	-4.2458	-4.1937	-5.0792	-4.1146	-4.5833	-4.6583	-3.9667	398.511	379.830	164.427	182.881	364.403	160.041	449.457	499.843	372.565	303.469	275.095	420.629	497.961	164.423	343.669	506.038	0.0014517	0.00039053	0.00013715	1362.6	1.1092e-05	5.8152e-06	1364.8	368.68	7.8939e-06	4.7094e-06	419.45	141.12	122.89	41.806	3.0125e-06	51.632	0.00056885	0.00054143	0.00015102	1392.8	5.9245e-06	5.861e-06	1390.5	376.99	5.9498e-06	5.9595e-06	430.63	144.31	125.59	43.296	5.9035e-06	53.469	347.354	307.598	275.353	172.452	280.799	303.533	171.945	176.568	271.799	294.486	176.226	180.643	181.122	185.611	321.711	184.821	-8191	255	
28898.287	1	1	0	0	0.27206	0.16351	0.04815	0.057845	0.12337	0.16551	0.3214	0.22573	0.29535	0.13768	0.086164	0.21103	0.31898	0.0046748	0.21079	0.089314	-4.4604	-4.1896	-4.1417	-5.1312	-4.0354	-4.3792	-4.9333	-3.9771	-4.8833	-4.3229	-4.1062	-5.0542	-4.0583	-4.3958	-4.7	-4.0375	424.733	446.121	308.944	477.979	341.303	166.137	470.095	194.742	333.388	213.370	510.281	499.339	199.532	169.079	184.644	193.239	0.0015087	0.00037091	0.00010615	1366.5	8.2022e-06	7.1571e-06	1361.5	369.73	1.0721e-05	6.3081e-06	420.13	141.64	123	41.994	3.4086e-06	51.447	0.00057203	0.00055238	0.00015077	1394.8	5.9872e-06	5.8835e-06	1392.1	377.66	5.8461e-06	5.8481e-06	430.05	144.5	125.63	43.349	5.9063e-06	53.46	350.585	253.011	260.330	172.229	339.234	301.804	172.159	176.889	318.923	346.360	176.225	180.601	181.234	185.620	289.386	184.682	-8191	255	
28898.383	1	1	0	0	0.17298	0.01783	0.2032	0.22247	0.11814	0.20121	0.30012	0.096689	0.093657	0.22402	0.14298	0.11023	0.1939	0.21781	0.10241	0.24324	-4.5687	-4.5792	-4.0146	-5.0729	-4.0208	-4.2542	-4.9167	-4.0292	-4.7646	-4.6104	-3.9708	-4.9229	-4.2604	-4.5021	-4.8917	-3.9938	165.237	191.979	364.560	455.673	392.827	320.799	462.269	510.115	373.154	259.904	397.216	247.377	409.058	477.534	505.450	342.671	0.0014637	0.00038818	0.00010977	1368.3	5.518e-06	9.4268e-06	1366	369.31	1.2863e-05	4.5954e-06	420.48	142.31	123.35	42.282	1.0936e-05	51.525	0.00057864	0.00054528	0.00015229	1394.6	6.0104e-06	5.9149e-06	1394.5	377.37	6.0367e-06	5.9317e-06	430.53	144.87	126.01	43.563	6.0264e-06	53.585	345.907	222.828	238.941	172.412	294.552	320.961	172.061	176.756	296.188	309.686	176.295	180.708	181.210	185.882	320.240	184.663	-8191	255	
28898.479	1	1	0	0	0.055935	0.040674	0.048708	0.099549	0.20054	0.11078	0.26462	0.25991	0.0049572	0.040794	0.2939	0.02719	0.19283	0.13663	0.065971	0.34467	-4.2688	-4.5083	-3.9313	-5.1625	-4.2771	-4.2208	-5.1146	-4.0875	-4.4125	-4.6896	-4.1125	-4.9187	-4.4042	-4.3562	-4.8063	-3.9167	508.353	516.243	322.888	477.330	374.005	280.366	518.694	168.582	386.776	443.767	485.150	387.682	440.243	444.355	313.186	479.620	0.0014253	0.00048771	0.0001361	1368.5	9.2258e-06	6.6317e-06	1369.3	370.84	4.3769e-06	2.754e-06	421.82	142.17	122.68	42.002	8.7682e-06	51.995	0.00058725	0.00055694	0.00015311	1397.5	6.0412e-06	6.1685e-06	1398.4	378.19	6.1093e-06	6.0598e-06	431.55	145.12	125.98	43.5	6.1361e-06	53.688	348.414	280.074	266.185	172.620	312.275	317.536	171.851	176.873	289.088	353.080	176.098	180.684	181.130	185.803	324.285	184.650	-8191	255	
28898.574	1	1	0	0	0.12429	0.029494	0.1821	0.35121	0.088316	0.088408	0.22584	0.11746	0.34353	0.044129	0.074516	0.1948	0.10029	0.10579	0.086145	0.25468	-4.2167	-4.6813	-3.9604	-5.2167	-4.2875	-3.9854	-4.9542	-4.1604	-4.3792	-4.8521	-4.2458	-4.8958	-4.65	-4.1292	-4.9125	-4.1833	400.709	417.988	269.177	479.623	190.358	167.822	172.190	426.755	322.818	224.048	401.127	416.417	179.029	164.327	249.707	462.906	0.0012974	0.00084507	0.00012143	1374.3	8.3437e-06	5.199e-06	1371	371.26	9.6941e-06	3.575e-06	421.74	142.04	123.61	42.195	1.1297e-05	51.741	0.00058797	0.00055732	0.00015659	1402.6	6.1442e-06	6.1534e-06	1398.4	378.92	6.0926e-06	6.0182e-06	432.19	145.25	126.36	43.581	6.1349e-06	53.708	345.625	285.142	244.007	172.430	328.838	361.154	172.052	176.788	309.198	314.383	176.363	180.406	181.230	185.737	283.534	184.774	-8191	255	
28898.672	1	1	0	0	0.033049	0.11876	0.1262	0.2719	0.26671	0.081415	0.24578	0.18045	0.075007	0.078316	0.22117	0.3064	0.057614	0.136	0.14659	0.085013	-4.0687	-4.8125	-4.0083	-5.0771	-4.5521	-4.0896	-5.1229	-4.3812	-4.2688	-4.7979	-4.2063	-4.825	-4.5542	-4.1312	-4.9917	-4.4625	410.565	168.644	190.487	488.703	317.085	280.229	433.894	396.401	254.315	465.908	425.023	419.061	456.737	244.365	224.949	437.870	0.0015134	0.00042825	0.00018549	1371.2	8.5946e-06	6.3272e-06	1373.7	372.15	9.4287e-06	4.2998e-06	419.69	142.55	123.79	42.599	1.1153e-05	52.149	0.00059182	0.00055956	0.00015758	1401.9	6.2588e-06	6.1868e-06	1400.6	379.41	6.2413e-06	6.0494e-06	431.73	145.62	126.68	43.841	6.1609e-06	54.039	344.869	249.403	255.491	172.284	306.714	333.470	171.945	176.824	319.170	292.640	176.364	180.436	181.174	185.687	307.545	184.899	-8191	255	
28898.766	1	1	0	0	0.17546	0.14196	0.043969	0.17788	0.28532	0.25508	0.26533	0.14775	0.14262	0.10032	0.13234	0.018069	0.093003	0.2358	0.14841	0.11379	-4.0854	-4.8208	-4.1438	-4.8187	-4.7125	-3.9813	-5.1417	-4.625	-4.0854	-4.9271	-4.1062	-4.4979	-4.7312	-4.0146	-4.7375	-4.575	181.865	255.080	391.418	427.589	270.710	238.478	419.845	166.745	385.873	220.623	485.420	341.041	386.808	174.320	213.658	507.002	0.001637	0.00061766	0.00011891	1375.2	8.9308e-06	7.774e-06	1375.8	371.94	9.0017e-06	1.32e-06	423.45	142.9	124.61	42.406	9.8073e-06	51.94	0.00060496	0.00056026	0.00015726	1403.6	6.2152e-06	6.1818e-06	1403.8	380.18	6.0966e-06	6.2118e-06	433.36	145.96	127.07	43.808	6.2689e-06	53.919	345.098	231.651	256.819	172.381	282.488	356.944	172.091	176.899	306.863	293.864	176.190	180.532	180.978	185.468	327.445	184.809	-8191	255	
28898.887	1	1	0	0	0.17385	0.049815	0.052429	0.019354	0.069738	0.045176	0.1557	0.21793	0.052653	0.065519	0.25496	0.17527	0.043111	0.10282	0.15563	0.10569	-3.8271	-4.7979	-4.0646	-4.5917	-4.7042	-3.9521	-5.0125	-4.5542	-4.0208	-5.0396	-4.1333	-4.4417	-4.775	-4.0458	-4.6854	-4.7854	462.618	503.439	223.930	309.598	330.238	268.658	504.189	497.351	344.092	217.797	426.969	186.478	190.164	253.169	204.205	511.218	0.0013841	0.00032884	9.0334e-05	1373.6	8.1806e-06	1.0388e-06	1376.6	371.36	1.0971e-05	6.5438e-06	423.47	143.16	124.52	42.343	3.0157e-06	52.165	0.00060509	0.00057218	0.00016036	1403.3	6.1803e-06	6.2335e-06	1402.9	379.85	6.281e-06	6.218e-06	433.71	146.25	127.36	43.931	6.3258e-06	54.101	348.638	257.798	218.489	172.161	296.568	312.358	171.897	176.842	312.144	302.794	176.444	180.424	181.250	185.823	275.492	184.860	-8191	255	
28898.982	1	1	0	0	0.014301	0.05021	0.1426	0.3589	0.09612	0.11713	0.21025	0.16799	0.16371	0.26707	0.16577	0.10569	0.29097	0.27674	0.07612	0.080372	-3.7104	-4.8208	-4.1813	-4.5646	-4.7729	-3.825	-4.6583	-4.7875	-4.0708	-4.8729	-4.3625	-4.25	-4.9146	-4.0146	-4.5729	-4.7771	429.869	449.770	247.552	163.503	449.535	224.734	447.523	417.067	276.812	313.297	168.804	448.160	419.462	508.195	254.057	349.788	0.0014659	0.00040398	0.00014218	1374.4	8.0699e-06	7.7756e-06	1375.4	371.97	1.2297e-05	5.0244e-06	423.05	142.68	124.06	42.493	3.9397e-06	52.376	0.00059959	0.00055962	0.00015882	1404.9	6.1432e-06	6.2185e-06	1404.1	380.71	6.1395e-06	6.1909e-06	433.74	146.06	127.19	43.964	6.2374e-06	54.251	347.959	265.574	236.865	172.359	312.725	308.763	172.199	176.802	298.167	334.745	176.191	180.546	181.138	185.941	321.199	185.010	-8191	255	
28899.078	1	1	0	0	0.30642	0.073402	0.15616	0.15733	0.038874	0.007305	0.081189	0.26702	0.042201	0.13537	0.13706	0.12569	0.16539	0.23234	0.091889	0.085862	-3.6521	-4.7208	-4.1729	-4.2604	-4.9125	-4.075	-4.7833	-4.925	-3.7229	-4.7979	-4.6979	-4.2896	-4.8938	-4.1104	-4.2688	-4.9479	196.368	456.927	265.876	502.464	252.542	252.497	314.218	406.834	426.187	402.692	434.140	507.973	398.013	185.359	437.067	463.014	0.0014339	0.00045489	0.00011196	1374.5	9.008e-06	3.5671e-06	1375.8	371.66	8.7644e-06	3.4976e-06	422.04	143.39	124.25	42.454	9.826e-06	52.38	0.00060832	0.00056968	0.00015978	1405.4	6.2936e-06	6.3841e-06	1402.2	380.59	6.3531e-06	6.1711e-06	433.69	146.22	127.19	43.976	6.3633e-06	54.2	346.255	275.952	266.474	172.290	277.951	345.641	171.979	176.902	316.357	287.550	176.247	180.376	181.081	185.747	325.179	184.889	-8191	255	
28899.176	1	1	0	0	0.15317	0.16736	0.15652	0.26609	0.094384	0.22415	0.24996	0.16133	0.12303	0.20265	0.14315	0.21582	0.10755	0.2805	0.055232	0.20017	-3.6937	-4.7792	-4.5167	-4.2688	-4.8625	-4.0687	-4.6021	-4.9708	-3.9688	-4.6667	-4.7312	-4.0875	-5.0813	-4.1896	-4.2229	-5.0854	243.010	508.945	262.031	166.290	171.099	310.679	424.378	389.677	440.878	241.015	266.724	508.974	227.095	494.986	325.897	161.511	0.0014863	0.00082212	0.00020288	1377.5	7.0073e-06	1.7427e-06	1373.5	372.17	9.7926e-06	1.8047e-06	423.2	143.24	124.79	42.618	5.4245e-06	52.488	0.00060772	0.00058211	0.00016016	1405.4	6.3461e-06	6.3119e-06	1402.5	380.52	6.3529e-06	6.2191e-06	433.14	146.29	127.49	44.082	6.3861e-06	54.351	346.565	242.114	275.885	172.169	271.252	368.707	171.861	176.867	312.931	364.660	176.162	180.378	180.974	185.324	276.524	184.980	-8191	255	
28899.246	1	1	0	0	0.038997	0.19054	0.055192	0.49923	0.022581	0.16515	0.15583	0.18672	0.1712	0.2604	0.1141	0.22803	0.03166	0.1302	0.10126	0.058203	-3.5792	-4.6604	-4.5875	-4.2396	-4.7708	-4.1188	-4.4208	-5.0875	-4.0125	-4.6729	-4.7729	-4.1333	-5.0437	-4.5271	-4.0854	-5.0167	255.475	322.808	425.742	498.692	231.129	478.278	419.874	414.394	192.113	488.602	463.031	461.545	264.185	203.108	399.916	367.459	0.001485	0.00035546	0.00017105	1376.9	4.8826e-06	1.2216e-05	1379.9	373.13	1.1859e-05	3.7673e-06	423.02	143.49	124.25	42.9	8.5976e-06	52.334	0.00060716	0.00057581	0.00015923	1406.8	6.2867e-06	6.3609e-06	1406.6	381.63	6.3239e-06	6.3286e-06	434.36	146.79	127.74	44.271	6.4254e-06	54.369	346.410	241.953	256.201	172.355	308.360	351.312	171.810	176.741	293.644	302.445	176.587	180.339	181.104	185.525	329.089	184.686	-8191	255	
28899.367	1	1	0	0	0.019961	0.030476	0.11611	0.13497	0.17936	0.26671	0.21691	0.0086182	0.1209	0.30131	0.10505	0.034502	0.044908	0.31047	0.18498	0.24889	-3.7875	-4.3479	-4.8604	-4.2292	-4.8354	-4.4604	-4.3833	-5.0354	-3.9896	-4.3958	-4.8812	-4.0312	-4.7896	-4.4833	-3.9875	-5.2188	273.276	411.956	256.824	479.452	178.394	315.832	165.324	321.503	259.907	279.339	481.634	502.196	314.837	518.489	369.408	385.572	0.0014654	0.0003668	0.00014711	1381.4	4.6272e-06	6.3807e-06	1383.2	372.46	7.7913e-06	4.8526e-06	424.07	144.25	124.7	42.837	1.1274e-05	52.419	0.00061314	0.0005745	0.0001609	1408.2	6.3376e-06	6.2834e-06	1408.1	381.71	6.4201e-06	6.3942e-06	435.67	147.36	128.1	44.377	6.4469e-06	54.594	349.645	245.203	194.230	172.237	301.242	313.540	171.916	176.832	296.096	304.663	176.417	180.476	181.264	185.521	260.233	184.728	-8191	255	
28899.463	1	1	0	0	0.1347	0.27151	0.0753	0.23561	0.13833	0.22442	0.058023	0.15973	0.11337	0.24179	0.21675	0.33283	0.041946	0.085238	0.23548	0.036657	-3.7438	-4.4292	-4.7271	-4.1021	-4.6083	-4.3917	-4.2958	-5.0458	-4.2021	-4.15	-5.1937	-4.1333	-4.8354	-4.7646	-3.9	-5.1479	223.847	240.745	280.777	405.245	277.196	221.760	389.462	485.161	402.395	219.605	163.082	185.925	182.230	498.881	437.581	490.578	0.0015467	0.0005059	0.00021399	1379.6	9.6347e-06	7.7086e-06	1378.6	373.26	1.0067e-05	4.3598e-06	424.5	143.99	125.26	43.08	9.0094e-06	52.689	0.00061783	0.0005808	0.00016023	1410.9	6.3368e-06	6.4211e-06	1409.4	381.91	6.4112e-06	6.447e-06	435.62	147.01	128.12	44.423	6.4047e-06	54.608	347.608	251.283	233.786	172.371	290.108	290.148	171.863	176.676	317.868	258.338	176.326	180.298	180.930	185.753	282.673	184.609	-8191	255	
28899.561	1	1	0	0	0.090544	0.24396	0.13419	0.43187	0.12272	0.077139	0.3805	0.0081261	0.26331	0.046644	0.19047	0.22621	0.11152	0.19735	0.088262	0.17614	-4.0729	-4.1542	-4.8167	-4.2562	-4.5042	-4.6521	-4.1312	-5.0312	-4.2875	-4.1188	-5.0333	-4.3	-4.5792	-4.8792	-3.8708	-4.8771	392.913	424.204	205.590	489.876	488.111	258.183	437.537	272.217	431.256	297.173	167.951	466.907	499.762	498.511	514.867	484.317	0.0014377	0.00035018	0.0001425	1377.3	4.1711e-06	5.2568e-06	1381.4	373.41	6.8872e-06	3.339e-06	425.03	143.6	125.78	42.862	7.1283e-06	52.795	0.00060568	0.00058866	0.00016137	1409.5	6.4283e-06	6.4335e-06	1409.3	382.41	6.3863e-06	6.403e-06	436.22	147.08	128.41	44.455	6.3374e-06	54.642	344.664	236.602	299.226	172.119	342.541	373.893	171.957	176.834	272.495	330.405	176.423	180.363	180.811	185.822	343.413	184.729	-8191	255	
28899.656	1	1	0	0	0.11337	0.22941	0.14984	0.2023	0.09496	0.13466	0.098293	0.31519	0.24491	0.23329	0.014262	0.15729	0.097078	0.35879	0.23228	0.10617	-4.1562	-4.0771	-5.0083	-4.4333	-4.3562	-4.6792	-4.1792	-4.8438	-4.4875	-3.9417	-5.1125	-4.2729	-4.4479	-5.0583	-4.0042	-4.7146	211.076	466.481	383.796	412.440	314.186	180.721	505.403	517.432	229.638	458.955	266.018	396.445	353.281	190.431	238.979	487.685	0.0014013	0.00037043	0.0001139	1382.5	4.5246e-06	8.573e-06	1381.4	376.53	1.1196e-05	7.2633e-06	424.6	144.38	125.74	43.176	7.3023e-06	52.853	0.00061533	0.00057708	0.00015855	1412.6	6.2473e-06	6.2225e-06	1411.9	383.65	6.3024e-06	6.1743e-06	436.55	147.55	128.55	44.586	6.2574e-06	54.743	347.870	280.100	237.911	172.325	280.831	313.774	171.925	176.713	332.461	250.439	176.354	180.478	180.988	185.702	294.276	184.825	-8191	255	
28899.775	1	1	0	0	0.20836	0.15906	0.20952	0.19858	0.15668	0.24037	0.10192	0.13869	0.09019	0.12601	0.23609	0.20664	0.26047	0.10683	0.23431	0.11037	-4.1729	-4.0229	-4.8375	-4.4583	-4.3042	-4.9125	-4.1854	-4.6875	-4.5479	-4.0312	-4.8833	-4.3083	-4.1896	-4.9875	-3.9292	-4.5542	388.373	375.487	380.103	517.339	334.332	319.253	457.724	430.688	178.994	198.106	486.768	469.929	516.351	506.979	190.595	447.836	0.0013784	0.00027604	0.00016128	1381.1	6.6357e-06	1.6522e-06	1384.3	374.3	9.3364e-06	3.1467e-06	424.43	144.3	125.31	42.935	8.077e-06	52.718	0.00059694	0.00056377	0.00015691	1411.7	6.2242e-06	6.1247e-06	1410.5	383.5	6.1271e-06	6.0579e-06	436.72	147.56	128.45	44.484	6.1413e-06	54.664	346.348	282.154	245.460	172.363	272.282	354.170	171.818	176.710	306.657	296.607	176.130	180.429	180.855	185.667	321.214	184.860	-8191	255	
28899.848	1	1	0	0	0.19459	0.089221	0.12165	0.30205	0.024586	0.11577	0.32397	0.075565	0.10174	0.11273	0.1782	0.074741	0.14401	0.25468	0.1293	0.26741	-4.3479	-3.9104	-4.8292	-4.6792	-4.1854	-5.0062	-4.2771	-4.6562	-4.7688	-3.9083	-5.0083	-4.5	-4.1021	-5.0958	-3.925	-4.5771	479.957	209.422	229.962	489.603	241.457	174.222	468.035	225.226	177.956	303.246	356.199	428.013	490.685	168.076	456.421	487.450	0.0014748	0.00029901	0.00019124	1382.1	1.1898e-05	7.2248e-06	1379.1	373.86	7.3402e-06	2.8502e-06	425.6	144.32	125.33	43.226	7.926e-06	52.467	0.00058963	0.00055564	0.00015473	1409.9	6.058e-06	6.095e-06	1408.5	382.35	6.0304e-06	5.9589e-06	435.87	147.4	128.08	44.445	6.0464e-06	54.526	344.723	228.448	249.327	172.479	314.254	338.625	171.990	176.701	292.045	328.275	176.234	180.502	181.096	185.696	282.457	184.871	-8191	255	
28899.967	1	1	0	0	0.16118	0.26885	0.085592	0.033016	0.14761	0.16454	0.20586	0.1528	0.15864	0.15915	0.045694	0.14863	0.38596	0.034493	0.13817	0.15707	-4.3667	-3.8812	-4.8354	-4.5917	-4.0729	-5.1021	-4.4396	-4.4646	-4.8938	-4.2125	-4.8021	-4.8229	-4.1229	-4.8854	-4.1813	-4.3521	487.183	162.926	218.690	164.499	311.823	243.554	511.993	161.529	397.392	311.341	203.731	502.820	488.318	170.078	176.537	402.153	0.0014117	0.00066167	0.00010236	1378.7	6.9001e-06	2.7036e-06	1381	374.7	9.9935e-06	4.4822e-06	425.15	144.25	125.68	42.978	6.1622e-06	52.712	0.00058753	0.0005528	0.00015276	1408.5	6.0455e-06	5.9208e-06	1408.7	382.81	6.0328e-06	6.0568e-06	435.87	147.38	128.46	44.439	6.053e-06	54.643	343.006	262.656	239.703	172.272	282.410	396.678	171.992	176.776	342.137	252.569	176.116	180.521	181.177	185.889	321.775	184.643	-8191	255	
28900.062	1	1	0	0	0.11447	0.15231	0.09274	0.08585	0.23965	0.13777	0.17367	0.20802	0.15071	0.11562	0.18001	0.041108	0.11294	0.11683	0.096131	0.28866	-4.5312	-3.9813	-4.7167	-4.8458	-4.0896	-4.9042	-4.5208	-4.3396	-4.9167	-4.0521	-4.6271	-4.8354	-4.1438	-4.8354	-4.5021	-4.2167	482.177	509.503	464.966	168.493	382.302	494.950	416.600	454.394	297.031	276.490	168.586	298.922	265.531	170.486	169.525	464.351	0.0015497	0.00059191	0.00013709	1380.4	7.2502e-06	6.9781e-06	1379.3	373.76	8.4371e-06	6.247e-06	424.2	144.74	125.73	43.033	1.215e-05	52.741	0.00058757	0.00054907	0.0001529	1409.8	6.0306e-06	6.0285e-06	1406.4	382.35	5.9807e-06	6.1507e-06	436.06	147.5	128.35	44.374	6.0696e-06	54.623	348.670	227.099	254.272	172.329	300.226	310.395	171.735	176.880	291.312	259.664	176.083	180.468	180.912	185.229	294.133	184.667	-8191	255	
28900.158	1	1	0	0	0.26975	0.0317	0.16346	0.1522	0.091317	0.1334	0.1513	0.12534	0.25104	0.16805	0.19042	0.42098	0.19939	0.05384	0.10129	0.2193	-4.6958	-4.1417	-4.5271	-5.0396	-4.0833	-4.8771	-4.6438	-4.1104	-4.9042	-4.1188	-4.5667	-4.8125	-3.9792	-5.0521	-4.5854	-4.1562	356.569	252.811	312.528	476.741	373.669	512.128	477.905	182.774	444.257	386.223	481.643	414.871	457.833	423.283	388.006	499.979	0.0014268	0.00050526	0.00016248	1379.3	8.1851e-06	3.6538e-06	1381.9	373.59	7.0429e-06	4.9431e-06	424.9	143.58	125.14	42.97	8.6101e-06	52.575	0.00058021	0.00055296	0.00015337	1409.8	6.0241e-06	6.0286e-06	1408.9	382.3	5.9953e-06	5.956e-06	435.85	146.99	127.99	44.363	5.9759e-06	54.571	345.600	259.008	232.800	172.450	274.934	285.349	172.021	176.786	314.854	324.931	176.303	180.323	181.074	185.755	296.501	184.649	-8191	255	
28900.256	1	1	0	0	0.22744	0.2321	0.2035	0.22645	0.054927	0.33693	0.36593	0.12887	0.17735	0.11183	0.19479	0.19994	0.1443	0.10401	0.053232	0.2427	-4.5563	-4.2729	-4.5667	-4.9229	-3.9625	-4.7229	-4.825	-4.2708	-4.7604	-4.2479	-4.5375	-5.0729	-4.0583	-4.7104	-4.6312	-4.0958	228.470	456.107	380.195	477.846	497.505	261.074	460.932	280.197	300.579	260.432	396.707	449.362	212.152	164.588	185.221	394.311	0.0014667	0.00051266	0.00012937	1379.9	1.1705e-05	7.4419e-06	1381.5	375.19	7.3226e-06	7.5742e-06	427.36	144.35	125.41	42.86	1.2291e-05	52.619	0.00057575	0.00053996	0.00015121	1410.4	5.9935e-06	6.0185e-06	1406.6	382.47	5.8842e-06	5.7574e-06	436.44	147.41	128.04	44.396	5.7934e-06	54.538	343.866	254.124	294.033	172.282	300.894	347.501	172.036	176.649	315.209	293.509	176.098	180.541	181.184	185.834	283.182	184.650	-8191	255	
28900.377	1	1	0	0	0.14664	0.11691	0.24533	0.16215	0.19287	0.082439	0.18957	0.17169	0.07829	0.31385	0.2548	0.22171	0.1768	0.094911	0.16174	0.014213	-4.775	-4.4	-4.25	-5.1875	-4.0479	-4.5729	-4.9313	-4.1375	-4.8625	-4.3083	-4.3083	-5	-4.175	-4.6042	-4.7479	-4.1646	321.646	165.634	344.365	474.197	474.654	175.871	438.321	328.631	339.182	504.026	434.294	445.334	507.054	515.543	444.595	342.007	0.0015617	0.00029986	0.00012304	1374.2	4.9423e-06	9.1266e-06	1381.8	374.32	7.2384e-06	5.6976e-06	427.06	144.77	124.94	42.718	9.715e-06	52.975	0.0005572	0.00053799	0.00014828	1408.1	5.7701e-06	5.7866e-06	1407.3	382.34	5.7257e-06	5.7543e-06	435.78	147.11	127.93	44.331	5.814e-06	54.489	348.658	279.322	272.831	172.264	275.416	321.462	172.066	176.766	292.664	290.359	176.121	180.410	181.119	185.663	320.011	184.848	-8191	255	
28900.473	1	1	0	0	0.086426	0.2395	0.072744	0.15789	0.16894	0.074941	0.025879	0.357	0.073091	0.20038	0.051095	0.18981	0.14211	0.060396	0.25454	0.30023	-4.45	-4.4792	-4.2521	-5.1604	-4.0958	-4.4521	-5.0583	-3.9979	-4.6167	-4.6583	-4.2	-5.1625	-4.2271	-4.4479	-4.6146	-4.0375	418.914	221.519	213.060	447.836	329.558	333.411	471.322	472.459	248.232	518.362	186.786	234.814	485.974	229.335	358.862	457.571	0.0014603	0.00030334	0.00014972	1378.9	7.881e-06	6.7405e-06	1382.9	373.86	7.2044e-06	4.7434e-06	424.27	143.18	124.95	42.864	9.5539e-06	52.823	0.00056952	0.00053447	0.00014586	1408.3	5.8865e-06	5.827e-06	1407	381.05	5.7555e-06	5.8643e-06	434.55	146.37	127.79	44.174	5.8127e-06	54.316	346.806	257.501	271.846	172.186	343.125	322.758	172.073	176.832	282.404	301.170	176.244	180.612	181.158	185.676	322.725	184.616	-8191	255	
28900.545	1	1	0	0	0.23728	0.10797	0.22898	0.25127	0.059634	0.33827	0.30316	0.24002	0.1308	0.30692	0.25238	0.14301	0.15613	0.18686	0.072708	0.08048	-4.3458	-4.5	-3.8667	-5.0042	-4.1875	-4.3708	-4.95	-4.1583	-4.6312	-4.8104	-4.0479	-4.9104	-4.55	-4.3979	-4.8667	-3.9979	245.407	505.780	355.893	471.354	169.440	359.304	442.135	411.658	307.956	454.738	493.597	499.525	488.487	478.883	255.395	348.712	0.0013908	0.00050734	0.00017186	1379.4	8.0635e-06	2.3405e-06	1375.5	373.55	6.8954e-06	5.2696e-06	423.64	143.78	124.7	42.642	4.6608e-06	52.794	0.00056491	0.00053365	0.00014759	1407.4	5.8064e-06	5.8811e-06	1404.3	381	5.9096e-06	5.8031e-06	434.32	146.71	127.62	44.138	5.7943e-06	54.465	345.401	273.667	262.655	172.437	312.984	342.328	171.969	176.753	280.004	332.702	176.162	180.630	181.272	185.507	341.077	184.657	-8191	255	
28900.664	1	1	0	0	0.18546	0.04477	0.0078174	0.21777	0.13497	0.13194	0.17745	0.29054	0.11791	0.2226	0.19291	0.18547	0.27274	0.16119	0.2075	0.142	-4.3917	-4.6646	-3.9792	-4.9437	-4.1896	-4.0458	-5.0396	-4.2042	-4.4688	-4.6958	-4.0667	-4.9583	-4.5375	-4.1583	-4.8458	-4.2438	358.159	361.297	206.408	506.090	434.330	329.378	459.865	491.103	325.803	511.732	483.587	496.667	449.313	240.775	342.440	449.085	0.0014754	0.00051588	0.00013075	1381	8.5832e-06	5.9766e-06	1378.5	373.52	9.4073e-06	8.6377e-06	425.05	144.18	125.1	42.653	8.794e-06	52.365	0.00056404	0.00052572	0.00014758	1408.5	5.74e-06	5.8155e-06	1405.5	381.81	5.8102e-06	5.7519e-06	435.54	147.03	127.87	44.21	5.8145e-06	54.307	348.804	212.425	252.664	172.447	276.644	303.890	172.229	176.772	311.124	300.671	176.174	180.642	181.032	185.807	305.743	184.578	-8191	255	
28900.760	1	1	0	0	0.097162	0.049399	0.12138	0.10966	0.077649	0.084334	0.16522	0.18779	0.17282	0.16753	0.16576	0.21165	0.20545	0.10406	0.028398	0.21936	-4.0708	-4.9521	-3.7917	-4.9812	-4.275	-4.0062	-5.0333	-4.15	-4.2854	-4.8958	-4.0479	-4.9104	-4.7438	-4.0958	-4.8479	-4.4104	507.652	344.717	358.591	159.692	378.301	401.934	483.975	179.349	207.413	505.712	512.034	277.197	217.936	403.434	364.076	412.359	0.0014067	0.00052374	0.00012691	1376.9	1.1885e-05	7.1155e-06	1379.6	373.91	1.3045e-05	4.7163e-06	422.47	143.76	124.49	42.706	5.3001e-06	52.478	0.00056452	0.00052399	0.00014732	1407.5	5.7379e-06	5.7566e-06	1405.3	381.76	5.8364e-06	5.7591e-06	434.15	146.71	127.67	44.203	5.8252e-06	54.502	344.386	253.244	254.832	172.315	308.515	329.554	171.773	176.872	318.712	297.929	176.292	180.517	181.120	185.726	269.380	184.895	-8191	255	
28900.855	1	1	0	0	0.16764	0.18246	0.083111	0.23216	0.10137	0.17227	0.092785	0.11351	0.04556	0.10659	0.25113	0.12837	0.10979	0.095506	0.10874	0.29789	-4.0333	-4.8229	-3.9229	-4.9167	-4.6708	-4.0437	-5.1729	-4.4646	-4.2958	-4.8667	-4.1646	-4.7354	-4.9646	-4.1167	-4.8688	-4.5479	400.356	385.554	384.755	494.913	471.077	343.573	468.880	496.910	377.821	203.721	470.078	492.881	492.314	319.521	311.969	436.406	0.0014471	0.00055636	8.5949e-05	1373.9	9.726e-06	5.6931e-06	1377.4	373.74	8.0367e-06	5.3166e-06	423.74	143.17	125.43	42.778	6.7961e-06	52.484	0.00055854	0.00052418	0.00014744	1405	5.7778e-06	5.7817e-06	1404.6	380.88	5.7342e-06	5.7287e-06	434.6	146.52	127.86	44.138	5.7276e-06	54.447	344.539	278.455	244.900	172.194	312.102	304.256	171.887	176.759	305.392	309.221	176.329	180.240	180.994	185.692	307.099	184.781	-8191	255	
28900.951	1	1	0	0	0.18682	0.069923	0.11397	0.2989	0.18479	0.062068	0.16105	0.23289	0.094139	0.081087	0.18602	0.15858	0.18612	0.27766	0.13667	0.082317	-3.8458	-5.0437	-4.0542	-4.8063	-4.7229	-3.8646	-4.9229	-4.7208	-4.0729	-5.025	-4.3125	-4.6604	-4.9771	-4.0833	-4.8542	-4.7333	306.765	183.348	158.847	201.081	471.056	268.712	436.377	464.899	192.776	277.095	450.479	309.977	515.598	468.447	371.958	191.013	0.0015149	0.00043903	0.00012987	1374.7	4.3752e-06	5.3171e-06	1378.3	375.06	5.6708e-06	6.173e-06	424.28	144.49	125.79	43.244	1.1512e-05	52.854	0.0005565	0.00052127	0.00014631	1404.9	5.6537e-06	5.7083e-06	1405.5	382.34	5.7071e-06	5.5515e-06	435.26	147.52	128.5	44.546	5.5456e-06	54.812	343.693	250.554	275.804	172.296	325.003	364.773	171.901	176.760	279.518	321.664	176.269	180.378	180.873	185.688	301.044	184.586	-8191	255	
28901.072	1	1	0	0	0.1321	0.15457	0.23454	0.033536	0.12583	0.068552	0.090897	0.22204	0.11966	0.2614	0.044308	0.11949	0.29435	0.16891	0.11564	0.21229	-3.85	-5.0271	-4.3063	-4.4917	-4.8229	-3.9479	-4.9104	-4.8167	-4.0583	-4.9396	-4.6062	-4.3313	-4.9833	-4.0958	-4.7979	-4.8083	257.062	224.820	465.415	392.722	394.372	500.550	488.751	467.046	340.699	253.990	453.887	423.377	200.993	471.600	390.411	493.458	0.0015001	0.00065929	0.00010887	1382.3	7.2032e-06	3.0506e-06	1380	373.6	5.9024e-06	4.5975e-06	425.16	145.2	125.88	43.088	8.3048e-06	52.612	0.00054931	0.00050327	0.00014273	1408.4	5.487e-06	5.5559e-06	1407.8	382.43	5.6132e-06	5.5042e-06	436.08	147.89	128.51	44.562	5.5468e-06	54.756	349.016	224.218	249.856	172.134	286.696	265.039	171.833	176.978	338.974	299.285	176.205	180.647	180.883	185.501	288.730	184.788	-8191	255	
28901.143	1	1	0	0	0.17458	0.22446	0.073816	0.11453	0.03855	0.25824	0.11921	0.099524	0.29138	0.11389	0.10002	0.031493	0.093854	0.17169	0.18556	0.23898	-3.6729	-5.0042	-4.2875	-4.3438	-4.8792	-4.1146	-4.7833	-4.9604	-3.9583	-4.8208	-4.5437	-4.2458	-5.1375	-4.2896	-4.4542	-4.9479	486.615	477.825	385.679	222.231	167.562	482.488	451.504	496.787	272.567	451.136	515.664	381.990	516.809	450.697	335.591	434.851	0.0014857	0.00034124	0.00010544	1381.6	4.8462e-06	6.5245e-06	1380.4	376.21	1.3459e-05	3.4124e-06	424.8	144.76	125.75	43.178	5.8033e-06	52.998	0.00054944	0.00050442	0.00014303	1407.5	5.6308e-06	5.6751e-06	1407.1	383.18	5.6133e-06	5.7161e-06	435.77	147.55	128.65	44.577	5.6589e-06	54.819	345.126	267.341	231.225	172.347	330.000	329.001	171.949	176.781	309.853	309.787	176.158	180.461	180.861	185.543	315.601	184.694	-8191	255	
28901.240	1	1	0	0	0.060475	0.067291	0.27048	0.19079	0.16929	0.1878	0.35118	0.17735	0.27841	0.0077482	0.067813	0.050448	0.087776	0.10097	0.17736	0.13767	-3.7375	-4.6167	-4.5667	-4.325	-4.9729	-4.0917	-4.5188	-4.8229	-3.9958	-4.7583	-4.7354	-4.1208	-5.0083	-4.2937	-4.2958	-4.8208	422.560	273.522	193.598	475.442	334.252	323.454	475.993	162.947	439.924	174.347	324.616	197.720	492.738	230.040	299.077	189.284	0.0014836	0.00059466	0.00010209	1382.1	4.994e-06	4.469e-06	1378.6	374.69	1.2651e-05	7.4543e-06	425.07	145.19	126	43.364	6.1134e-06	52.818	0.0005561	0.00051227	0.00014292	1407.7	5.5664e-06	5.6226e-06	1405.4	382.29	5.678e-06	5.6404e-06	435.12	147.66	128.5	44.583	5.6045e-06	54.743	346.376	268.850	241.109	172.326	275.472	295.324	171.885	176.888	320.723	287.557	176.517	180.420	180.942	185.592	295.880	184.672	-8191	255	
28901.336	1	1	0	0	0.15389	0.0062998	0.022195	0.058572	0.14081	0.10476	0.27243	0.33874	0.17424	0.015755	0.28263	0.18738	0.16518	0.15996	0.19499	0.063717	-3.6354	-4.6625	-4.6375	-4.3438	-4.9646	-4.3042	-4.4563	-5.0375	-3.8854	-4.6271	-4.6729	-4.05	-5.0542	-4.2562	-4.1562	-5.1417	184.140	325.753	266.487	217.015	443.405	432.099	361.971	460.715	335.653	211.430	512.918	177.130	507.811	515.679	185.097	197.892	0.0014708	0.00036856	0.00014653	1376.6	6.0663e-06	4.1799e-06	1379	373.9	5.7199e-06	5.3578e-06	424.88	144.02	125.48	42.934	8.902e-06	52.713	0.00054387	0.00051771	0.00014436	1405.6	5.631e-06	5.6417e-06	1406.9	382.36	5.7241e-06	5.5627e-06	435.29	147	128.18	44.311	5.7014e-06	54.506	346.044	289.504	252.789	172.315	279.802	374.915	171.701	176.935	324.196	285.179	176.492	180.637	181.094	185.700	335.691	184.922	-8191	255	
28901.455	1	1	0	0	0.075109	0.12136	0.20031	0.11294	0.16753	0.15634	0.18984	0.18094	0.19032	0.085428	0.28152	0.14671	0.1066	0.23392	0.010518	0.12576	-3.6917	-4.5333	-4.6771	-4.2604	-4.875	-4.4667	-4.4688	-4.9688	-4.1021	-4.6312	-4.8667	-3.9792	-4.8542	-4.5854	-4.1146	-5.0792	186.281	388.867	265.452	212.776	492.141	318.025	475.035	411.660	492.571	168.088	396.461	481.211	216.872	464.237	245.378	399.766	0.001394	0.0005198	0.00011688	1380	5.936e-06	9.6673e-06	1378.7	373.25	9.7627e-06	5.8602e-06	423.92	143.53	125.21	42.913	7.5321e-06	52.566	0.0005654	0.00052015	0.00014595	1405.2	5.6903e-06	5.7897e-06	1404.5	381.26	5.7913e-06	5.682e-06	434.95	146.65	127.88	44.245	5.7424e-06	54.401	348.476	265.223	289.499	172.297	316.333	321.199	171.775	176.952	344.003	309.956	176.250	180.588	181.127	185.643	336.968	184.897	-8191	255	
28901.553	1	1	0	0	0.17225	0.18886	0.16616	0.19178	0.14051	0.22882	0.21863	0.20587	0.091101	0.084024	0.21884	0.098073	0.046612	0.026028	0.090583	0.14304	-3.9562	-4.4437	-4.8396	-4.1104	-4.7271	-4.6458	-4.4042	-4.9563	-4.4229	-4.4646	-5.0833	-4.225	-4.8417	-4.6271	-3.9313	-5.075	169.023	414.756	488.356	500.034	166.012	344.813	468.835	410.117	243.164	347.650	461.035	465.262	436.149	283.676	159.196	381.806	0.0013857	0.00035634	1.8747e-05	1374.4	4.8042e-06	6.4621e-06	1378.1	373.68	9.1779e-06	4.4588e-06	423.5	144.13	125.4	42.844	8.8608e-06	52.826	0.00056409	0.00052394	0.000146	1404.4	5.7449e-06	5.765e-06	1404.1	381.09	5.7327e-06	5.765e-06	434.29	147.08	127.97	44.26	5.6603e-06	54.531	346.230	237.405	193.272	172.325	325.344	321.065	171.945	176.833	311.309	293.409	176.190	180.422	181.104	185.685	285.697	184.666	-8191	255	
28901.648	1	1	0	0	0.12119	0.13399	0.13923	0.35517	0.056105	0.15895	0.11714	0.051434	0.14607	0.027329	0.07596	0.17716	0.21823	0.074817	0.14054	0.056136	-3.7313	-4.1521	-4.8	-4.1937	-4.6479	-4.7646	-4.0646	-5.0271	-4.3313	-4.1583	-5.0958	-4.2396	-4.6854	-4.7937	-4.0271	-5.0021	307.350	245.197	322.719	471.902	231.628	483.038	492.203	353.367	509.994	242.288	192.007	171.197	358.435	498.361	231.423	488.448	0.0014915	0.00060004	0.00012748	1381.3	5.2754e-06	6.086e-06	1379.8	373.19	8.6173e-06	2.0634e-06	424.92	143.46	125.33	42.812	3.255e-06	52.747	0.00055181	0.00052147	0.00014433	1406.6	5.763e-06	5.6349e-06	1403.8	381.67	5.6632e-06	5.6963e-06	435.03	146.81	128.1	44.33	5.5867e-06	54.603	342.193	276.704	296.780	172.225	283.574	339.266	171.981	176.871	321.734	322.567	176.440	180.654	180.767	185.677	326.379	184.590	-8191	255	
28901.744	1	1	0	0	0.11292	0.27423	0.1259	0.21775	0.28638	0.049778	0.26246	0.010708	0.072574	0.15354	0.26941	0.22357	0.17505	0.21046	0.13638	0.13778	-4.0917	-4.1896	-5	-4.1771	-4.2958	-4.7396	-4.3729	-5.0417	-4.2417	-4.1062	-5.0771	-4.2333	-4.3917	-4.925	-3.9833	-4.975	168.809	468.923	447.813	460.628	331.723	244.164	418.286	352.570	451.126	243.277	472.742	468.432	491.633	219.135	482.448	446.021	0.0015077	0.00052183	0.00010602	1378.9	1.007e-05	6.2221e-06	1378.7	374.31	9.5209e-06	5.7526e-06	423.98	143.47	125.34	42.691	7.7495e-06	52.722	0.00055275	0.0005146	0.00014296	1405.8	5.6472e-06	5.6216e-06	1405	381.71	5.7013e-06	5.7575e-06	434.64	146.65	127.88	44.154	5.7781e-06	54.359	349.323	288.662	233.791	172.227	300.662	360.642	171.887	176.739	308.160	312.926	176.203	180.323	180.890	185.678	313.842	184.596	-8191	255	
28901.840	1	1	0	0	0.23333	0.087016	0.20803	0.22838	0.28086	0.033043	0.091138	0.32794	0.14655	0.091128	0.035101	0.076928	0.09865	0.11146	0.10103	0.10065	-4.0792	-4.0167	-4.875	-4.3562	-4.1875	-4.85	-4.1813	-4.8771	-4.4333	-3.9271	-4.8729	-4.2667	-4.2792	-4.8104	-3.9979	-4.7354	464.908	224.893	225.054	502.198	206.613	419.025	400.030	484.029	230.643	419.496	502.050	417.004	445.495	479.499	393.499	315.950	0.0014518	0.00066673	0.00013346	1374.7	6.8838e-06	6.9213e-06	1375.9	371.64	1.1732e-05	5.3187e-06	422.71	143.62	124.16	42.584	9.8498e-06	52.621	0.00056057	0.00051983	0.00014544	1401.4	5.7359e-06	5.6279e-06	1402.5	380.26	5.6895e-06	5.7613e-06	434.18	146.44	127.43	44.072	5.8585e-06	54.264	348.924	219.943	226.283	172.325	291.766	329.136	171.900	176.902	305.449	298.666	176.290	180.438	180.964	185.773	321.628	184.608	-8191	255	
28901.938	1	1	0	0	0.15467	0.17741	0.15274	0.29359	0.089396	0.10629	0.20409	0.083917	0.093335	0.04523	0.11284	0.046837	0.15938	0.03943	0.20203	0.049022	-4.2896	-3.9458	-4.9396	-4.5583	-4.2771	-4.8146	-3.9375	-4.6271	-4.5	-4.0625	-4.8854	-4.4625	-4.1167	-4.9083	-4.0729	-4.4521	222.943	241.753	383.961	462.984	287.745	259.556	435.017	386.385	221.149	478.877	355.479	324.415	478.416	439.103	358.319	330.114	0.0014725	0.00045609	0.00012134	1371.2	8.3013e-06	2.4493e-06	1376.2	374.7	1.0842e-05	5.2859e-06	422.73	143.14	123.94	42.476	1.2265e-05	52.39	0.00055693	0.00052496	0.00014701	1403.4	5.7158e-06	5.653e-06	1401.7	380.62	5.7915e-06	5.7569e-06	433.87	145.97	126.81	43.86	5.9357e-06	53.964	347.197	217.217	271.618	172.374	279.597	316.942	171.931	176.736	322.917	276.869	176.298	180.519	180.888	185.813	319.564	184.567	-8191	255	
28902.057	1	1	0	0	0.098246	0.17925	0.073979	0.083583	0.23587	0.097661	0.24292	0.2422	0.043573	0.14401	0.2152	0.30645	0.27679	0.094417	0.10048	0.06327	-4.5333	-3.9958	-4.6479	-4.6417	-3.8708	-4.8438	-4.075	-4.4313	-4.8708	-3.8854	-4.7688	-4.4979	-4.0792	-4.9396	-3.8438	-4.3583	182.576	193.017	412.292	445.852	371.012	246.412	434.574	451.930	320.650	382.716	423.378	403.739	504.551	425.519	370.332	477.634	0.0015446	0.0004171	0.00016164	1371.8	8.9986e-06	4.2229e-06	1374	370.25	1.0382e-05	3.5576e-06	418.72	140.59	122.26	41.696	7.6147e-06	51.325	0.00056983	0.00054457	0.00015172	1401.2	5.9964e-06	6.0906e-06	1396.9	377.39	6.3239e-06	6.272e-06	430.03	143.99	125.18	43.036	6.4667e-06	53.137	352.137	290.960	262.678	172.316	293.000	327.374	172.015	176.715	321.483	353.949	176.486	180.479	180.895	185.917	317.888	185.083	-8191	255	
28902.152	1	1	0	0	0.065135	0.098879	0.015541	0.030416	0.036728	0.1984	0.18726	0.13327	0.10727	0.061901	0.10578	0.35157	0.078237	0.075479	0.077287	0.1586	-4.5167	-3.9062	-4.6521	-4.7458	-4.0188	-4.9396	-4.4563	-4.2812	-4.8313	-3.7875	-4.5854	-4.6354	-4.0146	-4.95	-4.2625	-4.1833	362.622	479.887	477.511	455.112	417.910	428.499	173.617	161.203	323.692	486.914	451.584	165.598	237.423	409.010	178.374	204.251	0.0015406	0.00070953	0.00014629	1364.2	7.7277e-06	4.0609e-06	1360.3	366.83	5.5762e-06	7.8272e-06	417.59	140.25	121.63	41.637	8.4207e-06	51.215	0.00060992	0.00059541	0.00016393	1394.3	6.4885e-06	6.5629e-06	1388.9	375.38	6.4188e-06	6.5778e-06	428.99	143.23	124.65	42.944	6.3146e-06	53.103	346.301	241.811	221.793	172.429	323.311	363.302	171.957	176.745	320.524	276.501	176.194	180.642	181.182	185.798	311.138	184.551	-8191	255	
28902.248	1	1	0	0	0.057394	0.10057	0.17371	0.14448	0.13209	0.11141	0.16247	0.16562	0.022302	0.11948	0.19678	0.26057	0.14712	0.052334	0.23889	0.050375	-4.4354	-3.9667	-4.4771	-4.7583	-3.9104	-4.8125	-4.5979	-4.1646	-4.9	-4.1104	-4.4563	-4.8271	-3.8667	-4.8458	-4.5542	-4.0208	344.811	448.143	445.495	474.423	358.972	307.118	453.757	395.115	380.911	394.513	489.921	173.722	488.101	329.602	375.271	429.349	0.0015272	0.00059435	0.00018355	1365.4	1.119e-05	8.6577e-06	1365.8	367.76	9.9093e-06	4.8351e-06	418.82	141.35	123.01	41.949	6.4496e-06	51.613	0.0006106	0.00057548	0.00016063	1394.3	6.2374e-06	6.1319e-06	1394.3	376.61	5.9792e-06	6.0422e-06	429.97	144.26	125.73	43.322	5.8389e-06	53.56	348.254	297.075	275.942	172.549	338.759	321.674	171.962	176.765	330.077	317.313	176.501	180.827	180.974	185.971	320.036	184.583	-8191	255	
28902.369	1	1	0	0	0.0059506	0.19113	0.10592	0.25481	0.2819	0.020835	0.060028	0.089686	0.072942	0.11265	0.19407	0.044714	0.18792	0.22529	0.34372	0.16755	-4.7438	-4.1042	-4.2688	-4.8938	-3.9521	-4.7021	-4.625	-4.2146	-4.8187	-4.2521	-4.3417	-4.8083	-3.9125	-4.6625	-4.5083	-3.975	295.531	218.465	367.854	488.504	236.533	430.485	328.160	494.393	270.822	444.509	444.860	444.038	329.898	493.379	262.985	480.423	0.0014971	0.00059578	0.00016438	1366.1	7.4787e-06	2.7366e-06	1370.8	371.47	5.8951e-06	4.8977e-06	420.14	142.41	123.19	42.184	7.7385e-06	51.963	0.00055953	0.00053122	0.00014768	1397.1	5.7588e-06	5.8097e-06	1395.3	378.41	5.7508e-06	5.8386e-06	431.06	145.04	126.12	43.42	5.7396e-06	53.707	344.637	262.886	248.811	172.424	294.663	424.612	171.935	176.875	341.372	272.480	176.297	180.632	181.114	185.895	309.925	184.835	-8191	255	
28902.441	1	1	0	0	0.23028	0.19061	0.10767	0.27366	0.11406	0.23275	0.21374	0.055836	0.1523	0.10084	0.33704	0.22207	0.22265	0.060507	0.082622	0.21057	-4.5354	-4.1521	-4.2229	-5.0083	-3.9354	-4.65	-4.7083	-4.0729	-4.7458	-4.2562	-4.1479	-4.8104	-4.0625	-4.6292	-4.6687	-4.0708	465.431	513.058	483.931	467.328	335.532	476.799	442.898	451.519	503.820	177.809	499.481	445.417	426.367	507.398	289.917	183.338	0.0014315	0.00061549	0.00017867	1364.9	1.5284e-06	5.9702e-06	1368.3	368.63	7.5117e-06	4.4907e-06	419.31	141.53	123.19	41.851	1.1212e-05	51.487	0.00055371	0.00052741	0.00014829	1396	5.8206e-06	5.831e-06	1394	377.66	5.9454e-06	5.9722e-06	430.22	144.31	125.9	43.368	6.0209e-06	53.515	347.128	267.585	248.276	172.480	341.734	359.807	172.130	176.825	321.684	313.552	176.409	180.533	181.035	185.733	300.717	184.776	-8191	255	
28902.537	1	1	0	0	0.10646	0.016702	0.18921	0.14032	0.15031	0.10004	0.17498	0.28007	0.10027	0.16447	0.2218	0.084279	0.16503	0.042267	0.093596	0.15503	-4.5604	-4.2729	-4.0896	-4.9313	-3.9188	-4.2438	-5.0125	-4.1229	-4.6687	-4.2958	-4.225	-4.8542	-4.0104	-4.4479	-4.8063	-4.0667	253.636	414.447	439.876	471.465	518.363	255.465	192.177	442.939	494.596	380.459	160.798	440.721	166.187	190.467	260.983	430.077	0.0014089	0.00083144	7.254e-05	1365	4.5445e-06	1.036e-05	1361.4	369.61	1.3289e-05	7.6943e-06	420.44	141.53	123.24	41.888	6.8703e-06	51.747	0.00057864	0.00054964	0.00015528	1396.4	6.1007e-06	6.0221e-06	1394.5	377.64	6.1069e-06	6.0746e-06	430.47	144.61	125.8	43.357	5.9452e-06	53.626	340.860	241.218	234.981	172.221	261.804	325.783	171.926	176.869	309.962	319.162	176.154	180.710	181.311	185.689	270.904	184.600	-8191	255	
28902.633	1	1	0	0	0.31274	0.23882	0.10436	0.12715	0.16224	0.21278	0.43912	0.024461	0.072448	0.083303	0.14591	0.19334	0.23676	0.01568	0.095483	0.087103	-4.2771	-4.6	-4.0021	-5	-4.125	-4.2021	-4.95	-3.9417	-4.5396	-4.5625	-4.1292	-4.8896	-4.2667	-4.3292	-4.8313	-4.1312	160.554	475.941	501.535	204.513	204.259	174.543	478.788	278.945	517.361	319.357	509.637	483.310	165.044	326.599	270.755	480.571	0.001415	0.00077877	0.00015091	1362.9	2.8393e-06	6.752e-06	1365.5	369.39	8.6475e-06	3.2604e-06	417.92	140.26	121.99	41.531	4.0843e-06	51.153	0.00057658	0.00056018	0.0001534	1395.6	6.119e-06	6.0761e-06	1392.9	376.67	6.1533e-06	6.1799e-06	429.06	143.78	124.85	42.95	6.3129e-06	53.129	348.093	225.966	266.517	172.372	257.822	322.484	172.150	176.840	327.217	344.806	176.125	180.290	180.915	185.993	284.875	184.976	-8191	255	
28902.752	1	1	0	0	0.16297	0.27333	0.091505	0.23971	0.24171	0.065943	0.54377	0.1429	0.14592	0.031006	0.24086	0.20274	0.084206	0.031597	0.29953	0.045207	-4.1	-4.5354	-3.9208	-5.0292	-4.3708	-3.9062	-5.0333	-4.15	-4.4646	-4.7021	-3.9542	-4.8604	-4.3333	-4.1646	-4.7229	-4.0062	374.491	297.326	388.524	473.332	394.476	457.873	424.435	411.745	484.083	426.550	479.818	495.192	326.228	420.449	188.485	198.035	0.001552	0.00037382	0.00013884	1361.5	7.083e-06	1.4597e-06	1361.3	365.07	1.0401e-05	3.0581e-06	417.47	139.57	120.65	41.182	4.5803e-06	50.773	0.00060848	0.00058304	0.00016387	1390.9	6.3656e-06	6.3208e-06	1387	374.67	6.4543e-06	6.4301e-06	428.22	142.79	123.99	42.599	6.5076e-06	52.699	347.535	250.189	250.676	172.362	294.669	316.074	172.009	176.757	319.889	294.750	176.229	180.359	181.216	185.506	301.705	185.081	-8191	255	
28902.848	1	1	0	0	0.10133	0.089791	0.16511	0.27674	0.13938	0.11676	0.255	0.22432	0.10477	0.29611	0.21591	0.19312	0.26223	0.12368	0.3114	0.12645	-4.2354	-4.7396	-3.8625	-4.925	-4.45	-4.0646	-5.0625	-4.075	-4.3208	-4.8542	-4.0271	-4.8167	-4.5375	-4.0563	-4.8896	-4.3417	235.445	258.571	197.378	466.486	303.061	201.004	486.396	481.530	427.866	278.561	481.870	366.847	453.266	417.553	468.421	430.231	0.0012282	0.0003151	0.00011482	1364	7.2058e-06	6.0309e-06	1359.5	366.98	3.0923e-06	1.4824e-06	417.92	139.15	121.25	41.247	6.9674e-06	51.113	0.00061949	0.00058591	0.00016893	1391.2	6.4558e-06	6.4376e-06	1386.2	375.14	6.4529e-06	6.3842e-06	428.04	142.66	124.33	42.646	6.28e-06	52.883	346.202	260.543	252.931	172.278	278.580	280.741	172.002	176.956	388.606	289.387	176.439	180.505	181.358	185.803	277.673	184.920	-8191	255	
28902.943	1	1	0	0	0.05838	0.1808	0.10205	0.066855	0.13207	0.084868	0.10272	0.10902	0.11054	0.055115	0.099724	0.16487	0.22929	0.22122	0.19189	0.31458	-3.8896	-4.8896	-3.8	-4.8313	-4.5583	-3.9854	-4.95	-4.2833	-4.1479	-4.8208	-4.0458	-4.5458	-4.6229	-4.0125	-4.6917	-4.3083	447.266	469.275	362.110	397.664	253.314	186.843	411.645	469.407	218.282	415.133	197.909	163.455	515.900	200.830	246.063	462.581	0.0014154	0.00038057	0.00014954	1363	7.8042e-06	2.863e-06	1358	365.55	1.1952e-05	2.4024e-07	415.99	139.46	121.25	41.309	9.0344e-06	51.086	0.00060866	0.00058448	0.00016302	1391.3	6.3341e-06	6.3809e-06	1386.6	374.55	6.3054e-06	6.3031e-06	427.26	142.67	124.16	42.695	6.3436e-06	52.9	349.658	274.697	243.770	172.381	318.408	313.850	171.981	176.738	317.641	411.677	176.139	180.502	181.197	185.933	330.954	184.982	-8191	255	
28903.018	1	1	0	0	0.019409	0.15646	0.12435	0.15143	0.1193	0.1763	0.17379	0.27485	0.097751	0.20675	0.047186	0.25907	0.27597	0.2073	0.21244	0.07032	-3.9083	-4.8187	-3.8688	-4.7562	-4.5479	-4.0167	-4.9917	-4.4292	-4.1083	-4.9167	-4.1333	-4.5062	-4.7854	-3.9875	-4.6083	-4.4458	173.863	160.428	240.099	428.879	345.885	479.791	225.249	488.838	496.763	453.922	503.159	175.401	198.731	517.587	490.208	450.981	0.0014358	0.0004354	3.8836e-05	1363.8	1.6113e-06	9.1533e-06	1357.8	367	1.1058e-05	5.9929e-06	415.53	139.81	121.19	41.281	1.6572e-06	50.72	0.00059637	0.000572	0.0001588	1391	6.1928e-06	6.1816e-06	1384.9	375.12	6.178e-06	6.0927e-06	426.98	142.87	123.94	42.61	5.9899e-06	52.742	346.304	267.145	287.191	172.286	260.338	338.276	172.066	176.885	312.964	321.466	176.247	180.620	181.256	186.063	303.762	184.895	-8191	255	
28903.137	1	1	0	0	0.19021	0.054138	0.038735	0.15818	0.14584	0.39179	0.28506	0.19477	0.21346	0.21651	0.05884	0.17926	0.19408	0.097892	0.1974	0.13476	-3.5521	-4.8771	-4.0271	-4.5229	-4.675	-3.8792	-4.8875	-4.5458	-3.8458	-4.8521	-4.1937	-4.4	-4.8708	-3.85	-4.6271	-4.6792	480.796	295.890	509.231	430.065	340.601	246.238	475.076	449.267	397.947	393.295	234.802	518.022	448.050	422.038	257.769	412.136	0.0014718	0.00021458	0.00016889	1351.6	7.4147e-06	2.9049e-06	1349.9	365.19	9.0973e-06	4.7375e-06	415.23	139.39	120.99	41.134	1.3834e-06	51.189	0.00059525	0.00056175	0.00015635	1381.4	6.0777e-06	6.0696e-06	1379.3	373.79	6.1911e-06	6.0325e-06	426.37	142.54	123.99	42.597	6.1132e-06	52.898	347.555	222.326	269.735	172.277	309.807	320.830	171.943	176.943	297.717	328.695	176.572	180.283	181.285	185.752	275.518	184.938	-8191	255	
28903.232	1	1	0	0	0.11954	0.084463	0.048462	0.19456	0.08654	0.09973	0.16252	0.12477	0.13214	0.094019	0.2411	0.13813	0.18755	0.13716	0.061182	0.21874	-3.5542	-4.7979	-4.2208	-4.1521	-4.8167	-4.0375	-4.8396	-4.8208	-3.9417	-4.7667	-4.3354	-4.1979	-5.0896	-3.9688	-4.4583	-4.775	376.378	382.608	207.884	464.300	430.054	497.870	418.182	464.021	324.691	382.346	471.618	187.088	177.224	393.899	301.570	354.054	0.0012981	2.9333e-05	0.00018623	1355.8	7.0033e-06	3.6685e-06	1353.7	364.49	1.149e-05	2.948e-06	416.52	139.02	121.22	41.176	5.7615e-06	50.76	0.00058471	0.00055733	0.00015588	1383.7	6.0864e-06	6.096e-06	1379.3	373.64	6.1278e-06	6.051e-06	427.36	142.38	124.18	42.639	6.1276e-06	52.854	353.326	418.622	272.047	172.260	320.489	379.126	171.983	177.094	299.257	289.960	176.318	180.812	180.952	186.161	301.558	184.943	-8191	255	
28903.328	1	1	0	0	0.072669	0.043157	0.20999	0.23016	0.19713	0.046432	0.35518	0.14095	0.19695	0.13302	0.10695	0.083399	0.19129	0.25491	0.093361	0.20171	-3.5938	-4.8417	-4.35	-4.3042	-4.8187	-4.1229	-4.5646	-4.8438	-3.8792	-4.7458	-4.6125	-3.9875	-4.9437	-4.15	-4.3229	-4.9792	352.893	222.056	478.578	465.935	378.093	460.727	460.313	179.829	462.193	307.932	497.370	310.992	444.380	262.474	221.718	444.322	0.0013473	0.00058214	0.00014935	1354.1	5.0819e-06	5.4696e-06	1356.7	366.58	1.0527e-05	4.7132e-06	416	140.4	121.69	41.452	2.591e-06	51.189	0.00058462	0.00056183	0.00015518	1384.1	6.0032e-06	6.087e-06	1381.4	374.46	6.1011e-06	6.053e-06	427.52	143.04	124.3	42.737	5.9765e-06	52.991	343.039	258.611	286.502	172.313	323.277	346.550	172.018	176.865	290.158	267.390	176.441	180.426	181.155	185.901	255.107	185.020	-8191	255	
28903.449	1	1	0	0	0.12416	0.031469	0.034897	0.21568	0.20274	0.16171	0.38576	0.24023	0.12493	0.074155	0.29772	0.1438	0.036071	0.099037	0.063609	0.048087	-3.6375	-4.7458	-4.5958	-4.1208	-4.8792	-4.1354	-4.4854	-4.9667	-3.8208	-4.6583	-4.825	-3.975	-4.8104	-4.2729	-4.1583	-4.9375	459.988	187.013	285.323	463.707	380.330	433.016	471.922	407.286	503.621	209.657	182.161	174.030	188.448	394.585	327.891	374.942	0.0012931	0.00039967	0.00010592	1359.7	8.4061e-06	7.483e-06	1357.6	367.15	9.9724e-06	2.3529e-06	419.07	140.6	122.32	41.495	6.0811e-06	51.275	0.00058345	0.00054681	0.0001521	1387.5	5.9068e-06	5.8939e-06	1383.6	375.37	5.8101e-06	5.8429e-06	428.14	143.63	124.64	42.906	5.9165e-06	53.194	346.218	236.445	272.446	172.334	304.492	327.891	172.011	176.806	299.674	236.391	176.386	180.527	181.086	186.101	316.699	184.914	-8191	255	
28903.545	1	1	0	0	0.22786	0.20511	0.24715	0.1881	0.20466	0.20048	0.22424	0.30901	0.1259	0.26374	0.030864	0.29594	0.10263	0.25223	0.22752	0.13563	-3.6792	-4.5583	-4.4958	-4.1854	-4.8292	-4.2583	-4.3562	-4.8	-4.0083	-4.5604	-4.8375	-4.0729	-4.8812	-4.6083	-4.0563	-5.0042	505.420	246.229	504.765	450.784	221.812	518.448	450.264	169.479	471.258	322.819	242.205	421.921	427.293	443.891	197.581	317.683	0.00139	0.00038859	8.2912e-05	1355.3	9.3462e-06	6.7228e-06	1361.3	365.97	1.2008e-05	6.8674e-06	416.77	140.11	121.45	41.39	6.9269e-06	50.945	0.00058157	0.0005377	0.00015198	1384.4	5.9637e-06	5.9973e-06	1384	374.55	6.0413e-06	5.9842e-06	427.52	143.24	124.39	42.827	6.0922e-06	53.022	349.765	238.555	282.943	172.224	301.680	317.634	171.989	176.952	297.144	295.376	176.389	180.371	181.328	186.181	294.984	184.870	-8191	255	
28903.641	1	1	0	0	0.033478	0.081221	0.090887	0.22506	0.1632	0.06596	0.28921	0.1321	0.068358	0.13719	0.1262	0.06954	0.16304	0.11245	0.13762	0.10935	-3.7562	-4.2875	-4.7875	-4.025	-4.8688	-4.3646	-4.2438	-4.9792	-4.0938	-4.4583	-5.0146	-4.0229	-4.8271	-4.6875	-3.9604	-5.0917	412.676	163.067	496.333	447.479	215.100	282.958	514.191	411.261	480.812	518.896	481.081	371.515	427.471	499.181	245.510	311.355	0.0014533	0.0005899	0.00014525	1355.9	9.0067e-06	6.3734e-06	1357.1	364.87	8.8423e-06	3.8227e-06	417.11	140.21	121.09	41.703	6.3295e-06	51.304	0.00058377	0.00055089	0.0001541	1384.9	6.0867e-06	6.0655e-06	1384	374.3	5.992e-06	6.0758e-06	427.72	143.44	124.25	42.949	6.0496e-06	53.153	346.677	236.765	277.939	172.342	313.714	325.839	171.858	176.895	287.598	293.106	176.552	180.356	181.315	185.949	282.934	184.733	-8191	255	
28903.738	1	1	0	0	0.12435	0.25494	0.15463	0.26642	0.11786	0.14543	0.24251	0.43121	0.13087	0.070013	0.22469	0.31377	0.20717	0.11973	0.10756	0.24461	-3.8729	-4.1813	-4.8479	-4.2625	-4.5208	-4.4958	-4.1438	-4.9667	-4.2125	-4.1208	-5.0354	-3.9854	-4.4958	-4.775	-3.8063	-5.0458	161.795	287.609	364.136	476.717	428.870	507.585	490.915	474.507	275.795	424.554	506.858	517.155	174.633	258.902	396.969	160.728	0.001477	0.00057251	0.00021578	1355	7.8279e-06	4.8623e-06	1355.5	367.17	7.8887e-06	1.6618e-06	419.12	140.48	121.66	41.139	5.3607e-06	51.396	0.00057998	0.0005484	0.00015373	1383.4	5.9787e-06	5.9978e-06	1382.3	374.91	5.9832e-06	6.0024e-06	428.63	143.38	124.45	42.788	6.0323e-06	53.129	341.927	259.441	281.104	172.257	281.416	343.670	171.931	176.876	305.469	296.925	176.375	180.600	181.238	185.824	334.887	184.877	-8191	255	
28903.832	1	1	0	0	0.15281	0.078263	0.12736	0.15596	0.22613	0.21478	0.22037	0.19694	0.12827	0.17843	0.28037	0.12972	0.1284	0.051706	0.26079	0.098084	-4.025	-4.0042	-4.8104	-4.3438	-4.4604	-4.6521	-4.1937	-4.9167	-4.3958	-4.0354	-4.8729	-3.975	-4.3646	-4.7417	-3.8563	-4.8375	490.959	510.470	446.027	510.746	308.978	379.532	498.873	456.427	312.595	390.855	204.975	462.862	186.300	493.636	391.573	184.962	0.0013773	0.00042192	0.00010352	1352.1	9.5344e-06	6.7919e-06	1350.1	366.66	5.249e-06	2.5849e-06	417.21	140.16	121.68	41.264	7.7353e-06	51.345	0.00056253	0.00054574	0.00015101	1381.1	5.9362e-06	6.0083e-06	1380.2	374.12	6.0293e-06	5.9655e-06	427.3	143.12	124.47	42.788	6.007e-06	52.994	342.664	247.324	224.961	172.292	289.206	322.261	171.918	176.709	311.844	340.305	176.336	180.734	181.203	185.774	322.792	185.020	-8191	255	
28903.928	1	1	0	0	0.23017	0.12143	0.11973	0.36022	0.13839	0.22016	0.31384	0.18702	0.16239	0.12212	0.1944	0.29378	0.16329	0.12889	0.076288	0.15558	-4.1042	-3.8063	-4.9396	-4.2333	-4.3438	-4.8292	-3.9938	-4.8604	-4.5583	-3.9313	-4.9292	-4.2083	-4.2792	-4.9542	-3.6229	-4.6417	294.106	364.219	344.268	507.856	414.681	411.062	490.706	339.082	168.501	335.569	479.302	430.925	505.416	495.451	185.107	214.218	0.0014329	0.00051777	0.00018799	1356.2	6.227e-06	2.6667e-06	1356.5	365.77	8.3323e-06	5.4787e-06	416.71	140.3	121.87	41.194	8.3965e-06	51.118	0.00057902	0.00055191	0.00015129	1384.3	6.0179e-06	5.9917e-06	1381.3	373.98	6.0197e-06	6.094e-06	427.13	142.98	124.52	42.696	6.0702e-06	52.98	342.696	295.052	238.957	172.217	339.629	299.641	171.732	176.934	316.058	281.172	176.075	180.752	180.981	186.100	277.641	184.952	-8191	255	
28904.049	1	1	0	0	0.16526	0.10627	0.16312	0.28893	0.26359	0.1025	0.23708	0.10555	0.08662	0.060312	0.13218	0.12328	0.18303	0.092452	0.24013	0.17326	-4.3125	-3.9792	-4.7604	-4.4938	-4.1083	-4.7375	-4.1021	-4.5979	-4.6229	-3.8125	-4.8792	-4.1396	-4.2812	-5.0646	-4.0333	-4.5021	403.260	294.432	253.987	415.363	228.386	249.542	454.578	498.981	206.919	440.084	270.509	164.749	212.363	227.566	297.614	424.013	0.0014645	0.00041491	7.0163e-05	1358.6	7.0496e-06	3.8787e-06	1353.7	366.87	1.1654e-05	6.7498e-06	417.33	139.66	121.9	41.309	4.1008e-06	51.344	0.00058535	0.00054968	0.00015561	1386.1	6.0846e-06	6.1413e-06	1383	374.92	6.1257e-06	6.1046e-06	427.38	143	124.32	42.734	6.1699e-06	53.022	346.019	232.375	262.258	172.478	323.987	302.724	171.912	176.809	306.842	302.460	176.194	180.724	181.125	186.021	317.343	184.985	-8191	255	
28904.145	1	1	0	0	0.34179	0.19893	0.10004	0.34244	0.19011	0.27565	0.2349	0.17484	0.13127	0.066973	0.23636	0.1101	0.14655	0.15605	0.099971	0.064074	-4.3979	-3.8833	-4.8646	-4.4896	-4.0646	-5.0354	-4.1667	-4.4875	-4.85	-3.8583	-4.9292	-4.5917	-4.1354	-4.8438	-4.0396	-4.4167	463.844	185.495	442.126	471.154	301.223	184.505	456.647	491.598	474.836	460.743	398.610	495.963	422.866	462.777	426.118	418.425	0.0014533	0.00045862	0.00015367	1357.7	7.0657e-06	6.425e-06	1350.4	366.03	1.0859e-05	5.5064e-06	415.17	139.9	121.37	41.333	1.0305e-05	51.168	0.00058094	0.0005566	0.00015626	1385.8	6.0967e-06	6.0113e-06	1380.7	373.76	6.0723e-06	6.1327e-06	426.88	143.04	124.26	42.785	6.1748e-06	52.93	346.361	269.149	268.495	172.495	290.612	299.914	171.985	176.649	290.511	329.656	176.239	180.474	181.210	185.867	309.345	184.937	-8191	255	
28904.240	1	1	0	0	0.21158	0.060433	0.1314	0.44207	0.11981	0.12106	0.4797	0.17252	0.18313	0.1231	0.24653	0.041801	0.15536	0.11963	0.091425	0.21883	-4.525	-3.8917	-4.7958	-4.6042	-3.9708	-4.7333	-4.3313	-4.3646	-4.9854	-3.8583	-4.6438	-4.7333	-4.0146	-4.875	-4.0813	-4.2021	432.852	506.405	180.691	484.917	368.041	247.179	470.230	205.045	239.368	160.886	166.670	302.001	463.860	441.842	260.457	399.543	0.0014335	0.00052702	0.00012709	1357.9	9.7457e-06	5.5026e-06	1354.2	365.86	9.6916e-06	4.1047e-06	417.42	139.81	121.52	41.251	5.7047e-06	51.076	0.00059044	0.00056331	0.00015355	1385.2	6.0351e-06	6.1134e-06	1380.9	373.92	6.0808e-06	6.1268e-06	426.48	142.62	124.16	42.666	6.0458e-06	52.931	340.997	270.427	269.348	172.272	273.047	348.868	171.833	176.834	339.754	260.060	176.214	180.966	181.020	186.004	309.871	185.043	-8191	255	
28904.312	1	1	0	0	0.25127	0.07872	0.1545	0.21013	0.28502	0.037115	0.29433	0.27627	0.19718	0.069161	0.092911	0.25722	0.2191	0.12543	0.18423	0.17079	-4.4292	-3.9125	-4.4313	-4.8354	-3.9417	-4.8458	-4.4875	-4.2125	-4.8646	-4.0208	-4.5125	-4.725	-3.9896	-4.8542	-4.2625	-4.0854	174.175	263.012	310.088	476.040	441.493	363.220	441.439	439.797	304.202	417.442	464.823	497.995	429.659	312.552	335.418	297.825	0.0013692	0.00043872	8.2301e-05	1358.6	5.456e-06	3.8855e-06	1353.4	367.07	8.0959e-06	6.3713e-06	416.52	140.13	121.4	41.292	4.3203e-06	51.25	0.00059118	0.00055453	0.00015496	1385.3	6.1266e-06	6.2006e-06	1381	374.61	6.061e-06	6.2078e-06	427.17	142.86	124.17	42.715	6.1668e-06	52.958	346.476	242.109	319.769	172.423	304.754	234.188	172.171	176.772	285.483	309.333	176.099	180.976	181.060	186.011	286.237	184.805	-8191	255	
28904.434	1	1	0	0	0.09084	0.29751	0.098295	0.24628	0.095784	0.16358	0.2393	0.23963	0.15861	0.10366	0.32799	0.056129	0.26647	0.23262	0.17685	0.057989	-4.6354	-3.9292	-4.4083	-4.7625	-3.8854	-4.7354	-4.6479	-4.1229	-4.8125	-4.0521	-4.3562	-4.9354	-3.9021	-4.7521	-4.2875	-3.9938	422.194	292.816	248.071	471.620	437.469	169.653	482.383	170.097	251.709	452.552	466.230	485.674	162.645	517.438	380.643	284.842	0.0014154	0.00038016	0.00013857	1358.1	9.8095e-06	4.766e-06	1351.3	365.93	5.9125e-06	3.7693e-06	417.67	140.5	120.57	41.193	1.0438e-05	50.757	0.00058844	0.0005675	0.0001558	1385.5	6.1806e-06	6.1407e-06	1381.6	374.06	6.1263e-06	6.1868e-06	427.04	142.88	123.81	42.618	6.1758e-06	52.759	345.683	234.417	265.450	172.425	316.947	297.087	172.077	176.904	299.411	320.394	176.182	180.772	181.271	185.831	286.696	184.678	-8191	255	
28904.529	1	1	0	0	0.23164	0.10376	0.13463	0.27061	0.19172	0.033874	0.27142	0.073285	0.044117	0.27774	0.18923	0.17281	0.19039	0.1754	0.10284	0.15046	-4.6479	-4.1771	-4.2854	-5.1813	-3.925	-4.5708	-4.9604	-3.9396	-4.8542	-4.3208	-4.2937	-4.8	-4.1	-4.8	-4.5938	-4.0125	335.515	228.952	493.353	450.754	246.753	409.597	406.321	362.358	511.761	505.615	496.585	460.162	327.677	446.684	437.551	340.203	0.0014978	0.00064578	0.0001473	1355.5	1.098e-05	4.4819e-06	1352.8	365.79	4.078e-06	2.7943e-06	416.63	139.32	120.48	41.223	5.7743e-06	50.951	0.00059654	0.00055621	0.00015583	1383.9	6.1735e-06	6.2271e-06	1380.8	373.3	6.147e-06	6.202e-06	427.38	142.37	123.73	42.527	6.2315e-06	52.731	342.057	281.778	258.345	172.307	333.241	338.272	172.036	176.834	302.131	296.104	176.093	180.829	181.029	185.778	307.185	184.809	-8191	255	
28904.627	1	1	0	0	0.13056	0.16094	0.14099	0.27738	0.13991	0.17006	0.051515	0.30651	0.21308	0.2057	0.20515	0.20379	0.11291	0.21229	0.066411	0.19142	-4.5729	-4.3083	-4.0521	-4.9375	-3.975	-4.4333	-4.7312	-3.9292	-4.6896	-4.2271	-4.0458	-4.8938	-4.1521	-4.4104	-4.8229	-4.1062	313.196	329.401	496.715	419.197	483.790	454.376	198.470	302.639	380.545	348.711	448.855	419.354	265.063	397.896	369.730	426.882	0.0015361	0.00022236	0.00018926	1352.8	4.5655e-06	5.5259e-06	1351.4	365.82	9.3335e-06	5.2922e-06	416.23	138.99	120.37	40.988	8.9679e-06	51.119	0.00060083	0.0005655	0.00015898	1383	6.2091e-06	6.2076e-06	1379	373.39	6.1819e-06	6.2521e-06	426.15	142.01	123.76	42.467	6.1123e-06	52.76	349.344	242.479	212.127	172.405	278.036	287.954	171.982	176.789	290.821	297.525	176.423	180.558	181.216	185.631	288.420	184.932	-8191	255	
28904.723	1	1	0	0	0.26003	0.12604	0.087618	0.054997	0.19688	0.10761	0.14668	0.082416	0.17779	0.080046	0.092265	0.15715	0.25178	0.31462	0.10794	0.12788	-4.4208	-4.45	-4.0708	-5.2083	-3.8396	-4.2792	-5.0938	-3.9	-4.5646	-4.4688	-3.9979	-4.9688	-4.225	-4.3417	-4.8833	-4.05	435.394	490.561	423.239	396.444	200.929	206.463	517.068	397.253	366.203	229.210	472.913	502.651	488.911	235.401	390.766	206.938	0.0014163	0.0005204	0.00014428	1352.7	5.7746e-06	4.9323e-06	1348.9	364.21	9.7044e-06	7.73e-06	415.33	138.98	121.02	40.929	1.1308e-05	50.637	0.000596	0.00057181	0.00015803	1382.9	6.2559e-06	6.2072e-06	1378.7	372.46	6.3244e-06	6.412e-06	426.12	142.02	123.59	42.418	6.2899e-06	52.56	350.413	260.275	278.226	172.301	319.429	281.100	172.145	176.696	318.962	326.102	176.034	180.311	181.227	185.858	311.561	184.853	-8191	255	
28904.818	1	1	0	0	0.17678	0.099091	0.13436	0.30011	0.12602	0.14696	0.24465	0.12909	0.10539	0.1665	0.20392	0.15138	0.20775	0.31761	0.073727	0.13516	-4.3729	-4.4396	-3.8771	-5.1562	-4.2333	-3.9396	-5.0479	-3.8479	-4.5854	-4.5208	-4.1042	-4.8583	-4.3396	-4.2271	-4.9146	-3.9979	202.362	165.413	438.570	496.729	479.519	282.210	407.727	428.302	257.127	499.297	197.310	395.682	375.425	449.104	503.589	414.389	0.0014523	0.00086606	8.6034e-05	1351.3	5.4144e-06	5.6414e-06	1350.7	364.85	1.444e-05	3.8209e-06	416.24	139.2	120.11	41.036	2.2247e-06	50.845	0.00060495	0.0005818	0.00016253	1383.1	6.3315e-06	6.3175e-06	1376.9	372.9	6.3947e-06	6.3678e-06	426.12	142.13	123.45	42.44	6.331e-06	52.677	343.943	256.620	308.802	172.474	323.190	322.822	172.088	176.893	308.959	320.468	176.248	180.551	181.156	185.906	310.116	185.018	-8191	255	
28904.912	1	1	0	0	0.074985	0.1926	0.14104	0.09689	0.071571	0.10255	0.21005	0.30094	0.16503	0.12705	0.11984	0.099601	0.12399	0.13657	0.12653	0.17002	-4.2146	-4.6417	-3.9021	-5.0188	-4.4521	-3.9104	-5.1854	-4.1854	-4.3125	-4.7188	-3.9333	-4.7271	-4.5479	-4.0896	-4.9167	-4.1583	397.920	516.816	430.285	472.518	279.180	419.433	390.335	411.056	169.221	396.431	501.793	248.672	380.667	392.308	328.501	454.186	0.0015098	0.00038638	0.00013174	1354.2	7.7782e-06	2.449e-06	1354.3	364.25	8.8895e-06	3.803e-06	417.18	138.94	120.44	40.845	2.0968e-06	50.607	0.00060415	0.00057357	0.00015921	1383.1	6.3006e-06	6.38e-06	1378	372.67	6.3983e-06	6.4202e-06	426.11	141.81	123.27	42.319	6.4041e-06	52.498	347.873	186.601	220.757	172.394	297.637	260.301	171.950	176.937	302.619	297.184	176.087	180.711	181.113	185.768	299.549	184.888	-8191	255	
28905.010	1	1	0	0	0.16968	0.19137	0.15237	0.059901	0.088573	0.072312	0.20166	0.11779	0.033894	0.15223	0.21177	0.12561	0.027738	0.14673	0.19403	0.26559	-3.9583	-4.8521	-3.8646	-4.9042	-4.5521	-3.9979	-5.2125	-4.4208	-4.2063	-4.7979	-4.05	-4.7479	-4.725	-4.0521	-4.9187	-4.3229	255.035	516.423	224.008	462.089	285.199	345.285	429.115	460.619	189.896	221.118	451.615	463.753	472.322	381.652	388.980	185.494	0.0014718	0.00048404	8.8879e-05	1353.2	1.7972e-06	3.6479e-06	1348.6	363.88	5.9019e-06	4.0637e-06	416.17	138.77	120.22	40.686	7.4598e-06	50.533	0.0006208	0.00059235	0.00016486	1382.7	6.4526e-06	6.5496e-06	1377.8	372.6	6.4782e-06	6.4982e-06	425.92	141.81	123.24	42.326	6.3722e-06	52.56	348.165	279.290	312.034	172.239	241.295	303.038	172.122	176.693	286.743	306.760	176.170	180.494	181.368	186.030	299.648	185.211	-8191	255	
28905.129	1	1	0	0	0.25453	0.059966	0.05874	0.23991	0.1331	0.15536	0.18816	0.12559	0.13909	0.2341	0.1415	0.065048	0.26696	0.25579	0.16126	0.090516	-4.0042	-4.8979	-3.9938	-4.6521	-4.7896	-3.8708	-5.0771	-4.3354	-4.2688	-5.0042	-3.9854	-4.5729	-4.6813	-3.9917	-4.8396	-4.5479	419.519	185.775	194.221	491.385	493.963	483.491	324.826	277.889	385.419	466.653	477.591	413.030	453.322	159.707	321.328	416.109	0.0014186	0.00028519	2.6583e-05	1353.1	8.7275e-06	3.8414e-06	1349.9	364.06	1.077e-05	6.1767e-06	414.44	138.35	119.94	40.75	8.6898e-06	50.405	0.00060769	0.00057824	0.00016373	1382.4	6.3704e-06	6.4419e-06	1376.8	372.04	6.4387e-06	6.3773e-06	425.25	141.71	122.94	42.19	6.4491e-06	52.413	353.282	214.021	219.486	172.133	309.143	362.408	172.163	176.978	298.705	307.118	176.138	180.442	181.221	185.757	259.419	185.022	-8191	255	
28905.227	1	1	0	0	0.2969	0.09443	0.13599	0.12949	0.12783	0.089709	0.095748	0.25825	0.10784	0.11659	0.10175	0.20417	0.19103	0.28454	0.043525	0.12807	-3.7146	-4.7812	-3.9729	-4.5667	-4.8875	-4.0687	-5.0979	-4.5771	-3.9417	-4.9437	-4.2521	-4.3812	-4.95	-4.0771	-4.6542	-4.7479	415.062	212.277	333.896	464.026	355.812	386.951	417.345	507.812	195.670	246.380	487.266	386.170	495.635	186.260	283.259	193.684	0.0013587	0.00032989	0.00015688	1353.2	4.3549e-06	3.7518e-06	1351.3	362.67	1.2028e-05	1.7384e-06	415	138.26	120.07	40.794	6.2059e-06	50.241	0.00062352	0.00059734	0.00016356	1382.3	6.5106e-06	6.6641e-06	1379.2	372.3	6.5678e-06	6.6129e-06	425.16	141.33	123.09	42.272	6.5186e-06	52.371	346.770	285.947	233.920	172.122	279.229	330.786	171.956	176.954	322.981	237.304	176.262	180.553	181.342	185.820	321.776	185.017	-8191	255	
28905.322	1	1	0	0	0.067507	0.09022	0.18443	0.18026	0.079277	0.21529	0.28058	0.25896	0.02628	0.1819	0.17235	0.28634	0.33333	0.22276	0.028983	0.29142	-3.6333	-5.0208	-4.1438	-4.2583	-4.9375	-4.0958	-4.8729	-4.9875	-4.1562	-4.85	-4.2729	-4.2854	-4.9667	-4.3	-4.4542	-4.8354	464.138	268.910	235.277	172.346	440.842	286.310	436.482	485.526	171.715	495.727	414.270	496.906	186.023	493.360	308.974	445.245	0.0013234	0.0004011	0.00022542	1352.3	8.0905e-06	4.5641e-06	1353	365.08	9.3462e-06	4.2914e-06	416.13	138.33	120.42	40.935	5.765e-06	50.82	0.00061876	0.00058808	0.00016349	1382.3	6.4506e-06	6.5535e-06	1379.3	372.8	6.409e-06	6.3409e-06	425.69	141.65	123.45	42.325	6.3936e-06	52.584	346.786	214.146	251.307	172.478	314.882	379.376	171.875	176.686	299.709	312.558	176.222	180.607	181.101	186.020	284.186	184.695	-8191	255	
28905.418	1	1	0	0	0.073876	0.12024	0.20946	0.25972	0.05721	0.098379	0.089678	0.23103	0.10381	0.21234	0.088279	0.17383	0.044128	0.14168	0.14478	0.25617	-3.6688	-4.7875	-4.4187	-4.3313	-4.7396	-4.1687	-4.7063	-4.8812	-4.0208	-4.9375	-4.5146	-4.2854	-4.9625	-4.2542	-4.3812	-4.9292	306.859	214.075	344.131	159.413	455.583	301.305	489.685	440.394	200.186	215.937	421.001	191.968	400.292	294.125	349.745	508.972	0.0014566	0.00033732	0.00012707	1348.8	9.4842e-06	4.7211e-06	1348.9	363.92	1.1629e-05	5.9576e-06	415.44	138.68	120.31	40.822	6.4108e-06	50.627	0.00061738	0.0005824	0.00016128	1379.3	6.3432e-06	6.3937e-06	1376.6	372.56	6.3802e-06	6.33e-06	425.14	141.51	123.14	42.208	6.4106e-06	52.472	347.335	270.278	273.078	172.183	288.067	300.003	171.901	177.085	291.967	287.255	176.182	180.756	181.319	185.926	329.725	184.619	-8191	255	
28905.537	1	1	0	0	0.018775	0.19335	0.17529	0.10747	0.062819	0.17806	0.26672	0.13701	0.11819	0.29312	0.099369	0.11102	0.034955	0.14842	0.1373	0.12359	-3.675	-4.7625	-4.3729	-4.1625	-4.9958	-4.2708	-4.5208	-5.0312	-3.9729	-4.7229	-4.6458	-4.1729	-5.0333	-4.2708	-4.2438	-4.9187	409.371	370.884	314.084	461.692	442.283	195.072	396.227	510.694	217.093	273.018	210.353	351.936	405.890	277.010	439.832	210.300	0.001346	0.00023484	0.00016448	1350.5	5.2419e-06	3.6986e-06	1348.8	362.11	1.0553e-05	3.172e-06	414.97	138.1	119.92	40.544	4.6592e-06	50.483	0.00060124	0.00057942	0.00016138	1380.1	6.4328e-06	6.4364e-06	1374.1	371.24	6.5654e-06	6.4829e-06	424.93	140.95	122.8	42.004	6.5766e-06	52.306	346.963	252.405	289.218	172.201	306.188	307.655	171.943	176.998	295.468	322.207	176.220	180.675	181.021	186.186	314.819	184.817	-8191	255	
28905.609	1	1	0	0	0.15098	0.31261	0.18541	0.15118	0.099619	0.14721	0.1015	0.012501	0.10754	0.089662	0.052962	0.060321	0.16612	0.25243	0.19184	0.1338	-3.7354	-4.5938	-4.5854	-4.1854	-4.7646	-4.2688	-4.4646	-5.1083	-4.0896	-4.5312	-4.9458	-3.9188	-4.8562	-4.5042	-4.1458	-5.0042	318.199	193.872	241.980	500.401	368.165	468.598	471.271	462.832	377.603	493.897	321.785	509.244	421.966	441.227	240.591	424.340	0.0014755	0.00029409	0.00012992	1347.9	9.5943e-06	4.1195e-06	1348.7	363.04	1.0391e-05	8.1447e-06	415.16	137.8	120.1	40.842	9.7875e-07	50.38	0.00063202	0.0006016	0.0001659	1378.9	6.4506e-06	6.5972e-06	1374.2	371.89	6.4659e-06	6.4725e-06	425.04	141.02	123.06	42.202	6.3328e-06	52.303	345.952	249.959	261.875	172.303	316.065	357.743	171.664	176.917	290.969	326.676	176.153	180.421	181.220	185.834	388.551	184.962	-8191	255	
28905.730	1	1	0	0	0.076406	0.12906	0.25427	0.23105	0.17942	0.30768	0.36728	0.18014	0.083125	0.16181	0.16983	0.23028	0.051037	0.19938	0.078614	0.2765	-3.7062	-4.3792	-4.7958	-3.9917	-4.8979	-4.3875	-4.2625	-5.0229	-3.9792	-4.3646	-4.9083	-4.0542	-4.8458	-4.4167	-3.9833	-5.0646	235.445	384.560	203.287	505.620	340.137	420.032	415.701	456.719	405.304	359.576	162.762	308.124	239.926	194.499	516.953	450.617	0.0014282	0.0005497	8.0844e-05	1353.2	9.4424e-06	6.5763e-06	1346.9	364.14	1.0558e-05	4.8604e-06	413.76	137.75	119.09	40.665	1.0291e-05	50.572	0.00059631	0.00056106	0.00015459	1378.1	6.0978e-06	6.1854e-06	1372.1	371.73	6.2413e-06	6.2416e-06	423.8	140.91	122.71	42.062	6.3931e-06	52.284	344.471	237.580	279.572	172.336	278.839	307.229	171.885	176.878	314.344	297.601	176.238	180.658	181.265	186.404	295.945	184.763	-8191	255	
28905.824	1	1	0	0	0.07615	0.19237	0.15136	0.23565	0.075744	0.16222	0.23881	0.17366	0.14915	0.05562	0.093196	0.08799	0.055606	0.20917	0.067524	0.029053	-3.8917	-4.3	-4.7188	-4.0104	-4.7188	-4.4563	-4.1438	-5.025	-4.3292	-4.2562	-4.9313	-4.1	-4.7937	-4.75	-4.025	-4.9354	304.242	517.769	167.363	477.917	359.231	454.798	473.904	468.624	326.466	220.884	460.430	299.997	503.410	450.890	269.220	409.520	0.0014894	0.00059865	5.305e-05	1340.4	7.9733e-06	5.1868e-06	1341.5	361.91	6.6951e-06	6.0828e-06	411.06	137.16	119.49	40.587	5.3852e-06	50.34	0.00061068	0.00057638	0.0001634	1371.4	6.3095e-06	6.384e-06	1367.1	369.6	6.3548e-06	6.2653e-06	422.29	140.52	122.23	41.982	6.2614e-06	52.133	348.299	269.052	224.847	172.331	300.415	292.365	172.096	177.044	319.810	287.231	176.243	180.424	181.232	185.902	241.071	185.046	-8191	255	
28905.922	1	1	0	0	0.12341	0.13328	0.17019	0.028398	0.035535	0.22119	0.21892	0.12118	0.096254	0.11239	0.18818	0.13821	0.13043	0.23833	0.10225	0.11904	-3.9313	-4.1167	-4.8417	-4.0938	-4.5292	-4.7562	-4.1438	-5.1542	-4.2667	-4.0479	-5.1229	-4.1833	-4.6687	-4.8271	-4.0583	-4.8104	173.867	379.771	179.270	394.956	365.601	490.055	405.738	413.491	416.647	186.782	439.067	202.633	489.458	513.955	296.907	378.710	0.0013992	0.00055576	0.00013815	1336	3.8328e-06	4.1561e-06	1336.3	360.73	1.0974e-05	2.912e-06	410.29	137.06	118.9	40.329	6.5359e-06	50.076	0.00060501	0.0005686	0.00015994	1365.8	6.2575e-06	6.2448e-06	1361.9	369.1	6.3658e-06	6.3163e-06	421.86	140.2	122.05	41.88	6.2911e-06	52.054	347.955	247.023	258.507	172.456	294.300	387.679	172.045	176.935	297.276	309.271	176.397	180.692	181.259	185.918	354.444	185.028	-8191	255	
28906.018	1	1	0	0	0.04952	0.1548	0.13231	0.12813	0.13777	0.14341	0.51491	0.23397	0.19567	0.13644	0.15952	0.057687	0.34311	0.18184	0.097146	0.30601	-3.9771	-4.1104	-4.9792	-4.2521	-4.3146	-4.7833	-4.1646	-4.9104	-4.4062	-3.9875	-5.0521	-4.2562	-4.3667	-4.8729	-3.9583	-4.5729	396.318	419.060	343.705	377.069	330.437	508.389	463.683	445.543	422.335	246.671	362.176	222.487	160.297	412.871	185.414	515.343	0.0013408	0.00062016	0.00010048	1335.9	3.0639e-06	5.3326e-06	1333.9	361.06	1.4342e-05	5.6001e-06	411.68	137	119.21	40.574	6.7378e-06	50.471	0.00060129	0.00057512	0.00015904	1363.6	6.2463e-06	6.3143e-06	1360.5	369.1	6.302e-06	6.2216e-06	422.12	140.12	122.29	42.016	6.277e-06	52.212	349.637	252.175	281.259	172.371	234.132	316.748	172.109	176.930	319.132	256.257	176.505	180.625	181.096	186.070	310.872	185.181	-8191	255	
28906.139	1	1	0	0	0.1561	0.32091	0.088875	0.15433	0.10264	0.24956	0.19497	0.20869	0.15113	0.031718	0.17091	0.21377	0.2191	0.16191	0.10201	0.20846	-4.0938	-4	-4.85	-4.3625	-4.2021	-4.7958	-3.9167	-4.8771	-4.6479	-3.8708	-4.8333	-4.3521	-4.1062	-5.0375	-3.9521	-4.6042	411.300	505.360	204.209	494.348	472.086	498.526	460.550	161.276	475.968	389.993	409.364	478.158	165.151	499.623	351.351	405.863	0.0015188	0.00041055	0.00011515	1341.2	4.9055e-06	5.0428e-06	1338.6	361.82	1.1712e-05	9.0489e-06	412.38	138.59	119.55	40.602	7.8759e-06	50.564	0.0005895	0.00056573	0.00015545	1367.3	6.1045e-06	6.0231e-06	1363.3	369.87	6.0057e-06	6.0844e-06	422.73	140.86	122.38	41.954	6.0565e-06	52.215	342.919	279.964	230.935	172.326	293.598	330.450	171.981	176.829	328.602	311.142	176.341	180.396	181.369	185.973	306.819	184.879	-8191	255	
28906.211	1	1	0	0	0.24315	0.089029	0.14258	0.50223	0.30363	0.17155	0.23749	0.22484	0.16988	0.16078	0.035174	0.15809	0.15773	0.056671	0.19862	0.21189	-4.3729	-3.9896	-4.8063	-4.5687	-4	-4.925	-4.2583	-4.6479	-4.6062	-3.9271	-4.9625	-4.3979	-4.1146	-5.0208	-3.9354	-4.4854	491.049	493.835	436.243	491.461	400.048	193.323	488.059	461.750	402.814	418.698	387.567	483.760	326.131	414.473	369.412	508.956	0.0013043	0.0002325	0.00016027	1336.5	1.1367e-05	3.8042e-06	1342.3	362.53	8.0481e-06	7.1103e-06	412.93	138.14	119.37	40.657	5.4576e-06	50.481	0.00057526	0.0005486	0.00015076	1366.9	5.9473e-06	5.8789e-06	1364.3	370.23	6.0028e-06	5.9106e-06	422.89	141.01	122.32	42.114	6.0752e-06	52.297	350.562	230.350	269.704	172.354	273.452	357.036	172.244	176.732	318.386	318.973	176.277	180.688	181.308	185.845	296.019	184.920	-8191	255	
28906.307	1	1	0	0	0.12413	0.1907	0.08075	0.26902	0.12454	0.11112	0.46739	0.26729	0.18037	0.20744	0.21144	0.23264	0.12003	0.12273	0.16103	0.40787	-4.575	-3.8354	-4.8167	-4.6583	-4.05	-4.9646	-4.2812	-4.4313	-4.7792	-3.9313	-4.8438	-4.8333	-4.1292	-5.0417	-4.1813	-4.2042	307.196	262.516	301.189	514.775	178.137	177.568	461.744	413.197	501.271	289.260	450.751	491.008	179.454	170.166	182.374	177.948	0.0014035	0.00024798	0.00011215	1336.9	6.8338e-06	6.264e-06	1343	361.08	1.4664e-05	4.4918e-06	412.36	137.69	119.19	40.55	6.4211e-06	50.367	0.00057876	0.0005473	0.00015331	1365.9	5.9727e-06	5.9539e-06	1364.1	369.08	5.9e-06	6.0101e-06	422.56	140.69	122.18	41.992	6.0444e-06	52.207	346.805	236.138	269.444	172.424	280.049	397.239	171.920	176.756	323.977	274.321	176.166	180.736	181.120	185.899	301.969	184.747	-8191	255	
28906.402	1	1	0	0	0.19613	0.21929	0.17061	0.2836	0.057961	0.1261	0.30835	0.32998	0.055595	0.25431	0.20057	0.38108	0.1413	0.14416	0.1918	0.081057	-4.7125	-4.025	-4.6229	-4.7771	-3.7438	-4.9771	-4.5188	-4.3604	-4.9854	-3.9437	-4.6646	-4.9375	-3.8542	-4.8146	-4.3646	-4.1958	438.539	437.102	331.059	467.669	486.255	487.383	473.911	423.005	159.963	169.070	209.010	196.561	240.901	200.943	472.305	400.269	0.0013762	0.00058972	0.0001858	1334	7.634e-06	5.5405e-06	1333.2	362.41	5.6211e-06	4.3426e-06	410.5	138.05	119.75	40.731	8.3253e-06	50.263	0.00057163	0.00054374	0.00014918	1363.9	5.9339e-06	5.8901e-06	1361.8	369.52	5.8467e-06	5.9396e-06	421.82	140.78	122.56	42.071	5.9109e-06	52.218	347.090	278.245	277.543	172.552	304.245	359.271	171.939	176.759	322.534	345.970	176.152	180.513	181.197	185.848	282.710	185.027	-8191	255	
28906.498	1	1	0	0	0.22048	0.12243	0.1123	0.38532	0.14172	0.25689	0.11655	0.060621	0.25976	0.19322	0.172	0.33701	0.10013	0.16086	0.10739	0.097912	-4.6042	-3.85	-4.45	-4.9875	-3.7604	-4.6167	-4.8542	-4.1687	-4.8417	-4.0813	-4.5583	-4.8375	-4.0896	-4.85	-4.4375	-4.2104	243.132	382.426	381.267	484.970	320.224	234.394	432.555	218.042	305.066	222.004	439.427	481.039	451.958	424.716	474.472	412.366	0.0013069	0.0006194	0.00013507	1339.8	7.9113e-06	5.1043e-06	1337.2	361.53	1.072e-05	2.1683e-06	411.53	137.83	120.04	40.703	6.1593e-06	50.51	0.00055776	0.0005294	0.00014535	1366	5.7908e-06	5.7097e-06	1361.3	370.04	5.7757e-06	5.8674e-06	422.41	141.19	122.49	42.097	5.7815e-06	52.311	345.282	272.682	256.613	172.473	302.947	332.102	172.227	176.775	317.774	296.622	176.178	180.588	181.192	185.948	279.203	184.775	-8191	255	
28906.619	1	1	0	0	0.19685	0.12847	0.063008	0.27019	0.20623	0.14025	0.18657	0.39665	0.035378	0.17579	0.080639	0.22553	0.24104	0.18129	0.28214	0.046448	-4.5771	-4.2625	-4.1396	-5.0354	-3.6958	-4.5646	-4.9042	-4.1896	-4.7292	-4.2667	-4.3313	-4.9854	-4.0875	-4.7042	-4.7479	-4.1396	385.222	167.289	390.032	470.338	408.642	305.603	427.579	458.337	484.623	428.393	337.681	461.639	404.030	459.597	508.085	173.947	0.0013203	0.00034791	0.00010873	1335.2	8.9019e-06	7.3856e-06	1331.1	359.58	7.8261e-06	3.5227e-06	410.7	138.69	119.8	40.568	6.1692e-06	50.266	0.00055286	0.00053443	0.00014634	1364.2	5.8644e-06	5.7205e-06	1358.6	368.26	5.7594e-06	5.688e-06	421.93	140.92	122.38	42.124	5.694e-06	52.24	349.365	232.009	236.547	172.476	289.376	295.129	171.930	176.875	301.834	304.751	176.399	180.814	181.407	186.034	294.593	184.884	-8191	255	
28906.713	1	1	0	0	0.11852	0.12897	0.097202	0.27675	0.026408	0.28691	0.1831	0.23495	0.16012	0.17759	0.24085	0.23225	0.26808	0.24412	0.15624	0.023384	-4.6937	-4.2729	-4.0583	-5.2521	-3.9021	-4.6937	-4.9521	-4.1562	-4.8063	-4.3854	-4.1375	-5.0708	-4.15	-4.4938	-4.8104	-4.2312	251.794	245.024	517.125	487.485	319.646	447.739	428.125	474.098	179.923	306.025	416.833	451.010	183.661	161.658	242.318	265.161	0.001319	0.00052368	8.7895e-05	1335.7	8.5407e-06	3.2e-06	1332.1	361.26	1.0288e-05	2.9313e-06	411.35	138.52	119.46	40.774	4.7979e-06	50.569	0.00055518	0.00051767	0.00014616	1362.8	5.7897e-06	5.6553e-06	1358.9	369.48	5.7045e-06	5.6483e-06	422.09	141.29	122.48	42.153	5.7407e-06	52.314	345.188	261.181	247.190	172.461	309.929	295.156	172.063	176.781	294.480	294.714	176.149	180.712	181.289	186.025	262.665	185.022	-8191	255	
28906.811	1	1	0	0	0.14506	0.11484	0.17591	0.29086	0.15561	0.1319	0.30662	0.09101	0.20432	0.13602	0.1718	0.35225	0.023487	0.26139	0.19904	0.21918	-4.5146	-4.3833	-3.9792	-5.0437	-4.1562	-4.3438	-5.1438	-4.1083	-4.7438	-4.4437	-4.0979	-5.0563	-4.1312	-4.3083	-4.8854	-3.9646	314.391	255.264	406.771	456.962	469.654	255.114	472.713	352.803	275.741	303.019	368.276	474.007	481.445	188.752	394.634	467.295	0.0013272	0.00058559	4.1752e-05	1336.8	5.7527e-06	7.3728e-06	1334.5	362.98	8.4309e-06	4.6967e-06	411.31	138.62	119.05	40.762	6.3552e-06	50.566	0.0005604	0.00052847	0.00014607	1364.5	5.8026e-06	5.7002e-06	1362.8	369.76	5.8305e-06	5.8074e-06	422.07	141.06	122.31	42.128	5.8783e-06	52.33	345.377	263.500	338.411	172.382	306.062	287.340	172.123	176.817	289.539	301.872	176.068	180.738	181.337	185.998	286.008	184.782	-8191	255	
28906.906	1	1	0	0	0.046735	0.14837	0.085552	0.33357	0.19154	0.030727	0.11857	0.24987	0.1284	0.02711	0.085089	0.13424	0.050262	0.11494	0.27247	0.058704	-4.4708	-4.5917	-4.0229	-4.9833	-4.1062	-4.1396	-5.0833	-3.9208	-4.6292	-4.6771	-3.9729	-4.9792	-4.3729	-4.3063	-4.9313	-3.95	413.632	269.294	422.846	490.201	240.500	498.631	463.106	497.356	476.835	459.183	476.338	162.181	175.162	168.265	510.192	462.784	0.0013733	0.00075273	5.6995e-05	1338.5	5.6564e-06	3.6591e-06	1339.1	362.26	9.8268e-06	3.836e-06	412.48	138.5	120.04	40.814	8.5118e-06	50.577	0.0005649	0.00053612	0.00015018	1364.1	5.8828e-06	5.7761e-06	1362.7	369.52	5.7815e-06	5.7874e-06	422.6	141.23	122.48	42.178	5.8465e-06	52.311	348.273	236.813	248.021	172.436	290.358	304.033	171.981	176.885	303.100	285.474	176.326	180.879	181.268	186.008	324.559	185.142	-8191	255	
28907.002	1	1	0	0	0.16983	0.23696	0.15823	0.025806	0.18662	0.14508	0.23868	0.2259	0.10328	0.13913	0.15797	0.21226	0.39118	0.08446	0.097607	0.17152	-4.2312	-4.7875	-3.8958	-5.0417	-4.3833	-4.0792	-5.1604	-4.2438	-4.5	-4.7604	-3.8917	-4.6937	-4.5167	-4.05	-4.8271	-4.0979	446.418	388.135	484.129	200.534	205.451	427.324	501.660	441.247	405.152	442.058	300.601	187.727	171.669	457.725	293.306	448.186	0.0014061	0.00046279	0.00013381	1339.1	5.5784e-06	6.4159e-06	1336.1	361.85	7.1789e-06	4.4309e-06	409.72	137.98	119.94	40.954	9.2283e-06	50.747	0.00055745	0.00053404	0.0001491	1365.9	5.8637e-06	5.762e-06	1363.2	370.01	5.8321e-06	5.75e-06	422.11	141.06	123.03	42.227	5.7746e-06	52.432	349.863	223.101	258.904	172.483	298.074	341.636	171.995	177.054	316.148	303.047	176.178	180.484	181.042	185.807	328.743	184.728	-8191	255	
28907.098	1	1	0	0	0.16228	0.13017	0.077578	0.2755	0.24955	0.09365	0.16353	0.21622	0.076745	0.073774	0.14356	0.066355	0.089848	0.13922	0.14303	0.11339	-4.0875	-4.8667	-3.7625	-4.9708	-4.5958	-4.0333	-5.2625	-4.3375	-4.2104	-4.8583	-4.0312	-4.6188	-4.5938	-3.9292	-4.9021	-4.3292	304.732	412.534	253.994	484.545	364.639	341.587	453.925	429.734	249.762	268.161	444.747	517.441	449.877	246.231	200.807	448.134	0.0014544	0.00041922	3.8315e-05	1338.4	6.9761e-06	2.6679e-06	1340	361.66	1.0687e-05	7.015e-06	410.38	138.12	119.78	40.736	6.4677e-06	50.691	0.00055621	0.00052507	0.00014858	1365.3	5.7594e-06	5.8067e-06	1363.2	369.77	5.8008e-06	5.7104e-06	421.95	140.97	122.64	42.241	5.8364e-06	52.348	344.894	298.400	274.507	172.413	272.538	291.629	171.939	176.709	322.726	312.491	176.225	180.626	181.045	186.417	296.985	185.075	-8191	255	
28907.219	1	1	0	0	0.075256	0.11781	0.10616	0.35639	0.046548	0.32399	0.1474	0.48939	0.15286	0.14317	0.10966	0.15949	0.075283	0.28621	0.13108	0.13502	-4.0521	-4.7792	-4.0208	-4.7688	-4.7271	-3.8812	-5.0854	-4.4292	-4.1021	-4.9833	-3.9542	-4.6771	-4.6667	-3.9625	-4.6146	-4.5312	496.731	392.654	256.871	444.358	431.312	268.645	517.560	460.038	486.859	464.633	307.499	452.673	255.057	426.638	435.707	212.510	0.0016123	0.00054983	0.00014916	1342.4	9.6324e-06	6.2916e-06	1337.2	361.79	7.5116e-06	5.2996e-06	413.17	138.45	119.61	40.912	7.3434e-06	50.826	0.00056394	0.0005304	0.00014836	1367.5	5.8475e-06	5.7898e-06	1362.6	369.57	5.7996e-06	5.7581e-06	422.32	141.32	122.59	42.231	5.768e-06	52.509	343.475	272.787	263.815	172.429	289.777	336.304	171.911	177.158	309.677	276.027	176.289	180.590	181.109	185.948	341.575	184.955	-8191	255	
28907.314	1	1	0	0	0.076082	0.074964	0.21446	0.24543	0.095382	0.091827	0.06962	0.087805	0.10373	0.15253	0.22627	0.15461	0.13831	0.043802	0.18481	0.052059	-3.7771	-4.9688	-3.8521	-4.4958	-4.7354	-4.0104	-4.9625	-4.6417	-4.0021	-4.9938	-4.2167	-4.5479	-4.7417	-4.0854	-4.8417	-4.6562	263.901	385.194	218.388	202.606	483.922	285.925	170.630	187.062	252.763	402.779	224.603	233.369	423.303	338.329	196.652	322.121	0.0014771	0.00057597	0.00011371	1335.1	8.6265e-06	5.4918e-06	1336.5	362.56	1.1012e-05	5.8249e-06	413.1	138.97	119.79	41.095	1.1192e-05	50.699	0.00055411	0.00052792	0.00014628	1365.9	5.7591e-06	5.7776e-06	1362.5	369.83	5.788e-06	5.7716e-06	422.35	141.38	122.61	42.321	5.8439e-06	52.495	343.181	273.364	259.263	172.294	305.414	301.207	171.962	176.788	278.724	304.635	176.277	180.767	181.195	186.182	315.357	185.239	-8191	255	
28907.410	1	1	0	0	0.081127	0.14139	0.15995	0.077794	0.16077	0.12687	0.19314	0.16817	0.077887	0.19777	0.31547	0.20759	0.17894	0.13669	0.1551	0.22337	-3.6125	-4.8083	-4.1479	-4.5062	-4.7854	-3.6979	-4.8333	-4.75	-3.9875	-4.9521	-4.2625	-4.1208	-4.8688	-3.875	-4.4521	-4.5625	315.513	417.264	242.471	442.908	298.692	454.549	475.561	467.965	193.174	232.175	165.401	420.714	191.478	509.107	222.127	461.542	0.0014075	0.00061868	9.5977e-05	1338.2	2.8601e-06	7.3189e-06	1336.6	361.16	1.284e-05	6.4981e-06	411.22	138.57	120.19	40.926	7.8757e-06	50.697	0.00055626	0.00051776	0.00014839	1366.4	5.7709e-06	5.7847e-06	1362.9	369.75	5.7125e-06	5.7479e-06	422.19	141.51	123.03	42.308	5.7578e-06	52.564	348.146	250.142	261.616	172.283	274.950	298.471	171.934	176.662	309.272	308.502	176.057	180.733	181.311	185.518	291.312	185.111	-8191	255	
28907.508	1	1	0	0	0.1947	0.06017	0.1626	0.49203	0.082973	0.076637	0.087711	0.17673	0.084954	0.13741	0.056955	0.15983	0.070819	0.2188	0.51219	0.12068	-3.6458	-4.7083	-4.3083	-4.3833	-4.7063	-4.0938	-4.7354	-4.8896	-3.9333	-4.7542	-4.4417	-4.1687	-5.0354	-4.1083	-4.3313	-4.825	448.036	328.740	445.303	501.957	230.215	346.836	471.748	425.870	408.973	224.552	420.331	381.064	439.232	382.937	455.983	266.235	0.0014809	0.0005521	0.00017538	1342.1	8.2009e-06	4.3297e-06	1337.2	363.08	1.075e-05	6.7976e-06	411.55	138.3	120.14	41.053	5.4309e-06	50.764	0.00056566	0.00052628	0.00014589	1368.3	5.7377e-06	5.6996e-06	1364.4	370.5	5.7206e-06	5.6843e-06	423.1	141.53	123.21	42.435	5.7133e-06	52.699	343.547	277.151	267.487	172.162	274.583	345.665	171.944	177.091	329.534	295.552	176.326	180.712	181.279	185.905	322.751	184.801	-8191	255	
#DATA ENDS
