BOXY.EXE: ISS Imagent and Oximeter Data Acquisition Program Version 0.80
Ascii Record File

#ACQ INFORMATION
2  Detector Channels 
16  External MUX Channels 
1  Auxiliary Channels 
5000  Waveform (CCF) Frequency (Hz)
1  Waveforms Skipped 
30  Waveforms Averaged 
1  Cycles Averaged 
16  Acquisitions per Waveform 
10.0806  Updata Rate (Hz) 

#FILE INFORMATION
TRUE -- External MUX Channel results are PARSED.
FALSE -- AC DC and Phase are NOT grouped.
TRUE -- Companion Program Settings File CREATED.
FALSE -- AC data not excluded
FALSE -- DC data not excluded
FALSE -- Phase data not excluded
FALSE -- Auxillary Chn. data not excluded
Tab delimiters

#CALIBRATION STATE
TRUE -- Waveform Calibration Values APPLIED.


#AUX CALIBRATION VALUES
Val Type	aux-1	

Term	1.0000e+00	
Factor	0.0000e+00	


#WF CALIBRATION VALUES
A = Detector Channel
Val Type	A-AC1	A-AC2	A-AC3	A-AC4	A-AC5	A-AC6	A-AC7	A-AC8	A-AC9	A-AC10	A-AC11	A-AC12	A-AC13	A-AC14	A-AC15	A-AC16	A-DC1	A-DC2	A-DC3	A-DC4	A-DC5	A-DC6	A-DC7	A-DC8	A-DC9	A-DC10	A-DC11	A-DC12	A-DC13	A-DC14	A-DC15	A-DC16	A-Ph1	A-Ph2	A-Ph3	A-Ph4	A-Ph5	A-Ph6	A-Ph7	A-Ph8	A-Ph9	A-Ph10	A-Ph11	A-Ph12	A-Ph13	A-Ph14	A-Ph15	A-Ph16	

Term	0.00000e+00	0.00000e+00	0.00000e+00	0.00000e+00	0.00000e+00	0.00000e+00	0.00000e+00	0.00000e+00	0.00000e+00	0.00000e+00	0.00000e+00	0.00000e+00	0.00000e+00	0.00000e+00	0.00000e+00	0.00000e+00	0.00000e+00	0.00000e+00	0.00000e+00	0.00000e+00	0.00000e+00	0.00000e+00	0.00000e+00	0.00000e+00	0.00000e+00	0.00000e+00	0.00000e+00	0.00000e+00	0.00000e+00	0.00000e+00	0.00000e+00	0.00000e+00	0.00000e+00	0.00000e+00	0.00000e+00	0.00000e+00	0.00000e+00	0.00000e+00	0.00000e+00	0.00000e+00	0.00000e+00	0.00000e+00	0.00000e+00	0.00000e+00	0.00000e+00	0.00000e+00	0.00000e+00	0.00000e+00	
Factor	1.00000e+00	1.00000e+00	1.00000e+00	1.00000e+00	1.00000e+00	1.00000e+00	1.00000e+00	1.00000e+00	1.00000e+00	1.00000e+00	1.00000e+00	1.00000e+00	1.00000e+00	1.00000e+00	1.00000e+00	1.00000e+00	1.00000e+00	1.00000e+00	1.00000e+00	1.00000e+00	1.00000e+00	1.00000e+00	1.00000e+00	1.00000e+00	1.00000e+00	1.00000e+00	1.00000e+00	1.00000e+00	1.00000e+00	1.00000e+00	1.00000e+00	1.00000e+00	X	X	X	X	X	X	X	X	X	X	X	X	X	X	X	X	

B = Detector Channel
Val Type	B-AC1	B-AC2	B-AC3	B-AC4	B-AC5	B-AC6	B-AC7	B-AC8	B-AC9	B-AC10	B-AC11	B-AC12	B-AC13	B-AC14	B-AC15	B-AC16	B-DC1	B-DC2	B-DC3	B-DC4	B-DC5	B-DC6	B-DC7	B-DC8	B-DC9	B-DC10	B-DC11	B-DC12	B-DC13	B-DC14	B-DC15	B-DC16	B-Ph1	B-Ph2	B-Ph3	B-Ph4	B-Ph5	B-Ph6	B-Ph7	B-Ph8	B-Ph9	B-Ph10	B-Ph11	B-Ph12	B-Ph13	B-Ph14	B-Ph15	B-Ph16	

Term	0.00000e+00	0.00000e+00	0.00000e+00	0.00000e+00	0.00000e+00	0.00000e+00	0.00000e+00	0.00000e+00	0.00000e+00	0.00000e+00	0.00000e+00	0.00000e+00	0.00000e+00	0.00000e+00	0.00000e+00	0.00000e+00	0.00000e+00	0.00000e+00	0.00000e+00	0.00000e+00	0.00000e+00	0.00000e+00	0.00000e+00	0.00000e+00	0.00000e+00	0.00000e+00	0.00000e+00	0.00000e+00	0.00000e+00	0.00000e+00	0.00000e+00	0.00000e+00	-7.80260e+01	-1.58627e+02	-1.69044e+02	-1.83775e+02	-9.56680e+01	-8.10641e+01	-1.58123e+02	-1.62015e+02	-7.06761e+01	-1.03333e+02	-1.70742e+02	-1.70756e+02	-1.78698e+02	-1.77014e+02	-1.06885e+02	-1.49823e+02	
Factor	1.89549e-05	9.66343e-05	3.90588e-05	1.69121e-01	1.09656e-06	1.06494e-06	1.87830e-01	6.00408e-02	1.11570e-06	1.14070e-06	9.95031e-02	3.37985e-02	3.11028e-02	1.10307e-02	1.00689e-06	1.56862e-02	6.37178e-07	6.49506e-07	1.80709e-07	7.65429e-02	7.12655e-09	7.12169e-09	7.97188e-02	2.69659e-02	7.12101e-09	7.12221e-09	4.22235e-02	1.44095e-02	1.37016e-02	4.81339e-03	7.13314e-09	6.55754e-03	X	X	X	X	X	X	X	X	X	X	X	X	X	X	X	X	



#DISTANCE SETTINGS
A = Detector Channel
A-1	A-2	A-3	A-4	A-5	A-6	A-7	A-8	A-9	A-10	A-11	A-12	A-13	A-14	A-15	A-16	

2.5000e+00	3.0000e+00	2.5000e+00	3.0000e+00	2.0000e+00	3.0000e+00	1.5000e+00	3.0000e+00	3.0000e+00	3.0000e+00	3.0000e+00	3.0000e+00	3.0000e+00	3.0000e+00	1.5000e+00	3.0000e+00	

B = Detector Channel
B-1	B-2	B-3	B-4	B-5	B-6	B-7	B-8	B-9	B-10	B-11	B-12	B-13	B-14	B-15	B-16	

1.0000e+01	1.0000e+01	1.0000e+01	1.4400e+00	1.0000e+01	1.0000e+01	1.5100e+00	1.9400e+00	1.0000e+01	1.0000e+01	1.9900e+00	2.4900e+00	2.4100e+00	2.9000e+00	1.0000e+01	2.9800e+00	




#DATA BEGINS
time	group	step	mark	flag	A-AC1	A-AC2	A-AC3	A-AC4	A-AC5	A-AC6	A-AC7	A-AC8	A-AC9	A-AC10	A-AC11	A-AC12	A-AC13	A-AC14	A-AC15	A-AC16	A-DC1	A-DC2	A-DC3	A-DC4	A-DC5	A-DC6	A-DC7	A-DC8	A-DC9	A-DC10	A-DC11	A-DC12	A-DC13	A-DC14	A-DC15	A-DC16	A-Ph1	A-Ph2	A-Ph3	A-Ph4	A-Ph5	A-Ph6	A-Ph7	A-Ph8	A-Ph9	A-Ph10	A-Ph11	A-Ph12	A-Ph13	A-Ph14	A-Ph15	A-Ph16	B-AC1	B-AC2	B-AC3	B-AC4	B-AC5	B-AC6	B-AC7	B-AC8	B-AC9	B-AC10	B-AC11	B-AC12	B-AC13	B-AC14	B-AC15	B-AC16	B-DC1	B-DC2	B-DC3	B-DC4	B-DC5	B-DC6	B-DC7	B-DC8	B-DC9	B-DC10	B-DC11	B-DC12	B-DC13	B-DC14	B-DC15	B-DC16	B-Ph1	B-Ph2	B-Ph3	B-Ph4	B-Ph5	B-Ph6	B-Ph7	B-Ph8	B-Ph9	B-Ph10	B-Ph11	B-Ph12	B-Ph13	B-Ph14	B-Ph15	B-Ph16	aux-1	digaux	

44483.758	1	1	0	256	0.11711	0.12377	0.021772	0.412	0.095077	0.092263	0.25646	0.30444	0.22418	0.03337	0.23843	0.2471	0.12729	0.15485	0.17681	0.15183	-4.4354	-3.8708	-4.3729	-4.9708	-3.8708	-4.7708	-4.4604	-4.1042	-4.8938	-4.0687	-4.4563	-4.7562	-3.9667	-4.7438	-4.3604	-4.1083	-27.403	47.406	128.460	300.135	179.511	290.502	216.558	247.338	240.866	48.537	226.065	237.220	0.640	265.466	235.540	204.426	0.00024034	0.00024988	0.00023281	1763.4	8.5694e-07	3.2054e-06	1757.5	579.38	1.5633e-06	2.3247e-06	620.85	181.81	164.39	58.946	5.7314e-06	77.878	5.9859e-05	5.1862e-05	1.4423e-05	1494.7	5.7859e-07	5.5764e-07	1492.5	488.1	5.9045e-07	5.6674e-07	510.73	151.03	135.5	48.105	5.8056e-07	63.077	188.311	2.770	-9.965	-33.884	21.629	66.622	-34.346	-30.414	53.170	62.869	-31.731	-27.136	-26.488	-22.176	79.995	-23.662	-8191	255	
44483.852	1	1	0	0	0.039176	0.20532	0.23415	0.21178	0.16093	0.06509	0.26235	0.16178	0.16434	0.17189	0.15857	0.18631	0.10367	0.36517	0.054239	0.0097282	-4.7229	-4.0458	-4.1833	-4.8979	-3.8688	-4.5125	-4.6792	-4.0604	-4.8646	-4.0646	-4.2312	-4.9125	-4.0583	-4.4938	-4.5646	-3.8937	91.675	32.335	182.513	280.569	-41.828	70.550	213.244	147.415	140.163	47.798	-33.367	248.449	310.342	257.431	116.199	225.727	0.00020878	0.00059029	0.00025718	1749.6	6.192e-07	5.3485e-06	1744.3	576.59	9.848e-07	5.2228e-06	623.27	179.94	164.04	58.592	4.2709e-06	78.515	5.99e-05	5.282e-05	1.4448e-05	1485.6	5.8693e-07	5.8098e-07	1482.8	485.54	5.975e-07	5.9156e-07	509.53	149.98	135.19	48.13	5.867e-07	63.296	171.709	46.350	2.358	-33.743	115.208	45.972	-34.164	-30.665	137.404	84.197	-31.650	-27.627	-26.538	-22.111	79.106	-23.706	-8191	255	
44483.949	1	1	0	0	0.041758	0.20645	0.03852	0.31407	0.10555	0.08172	0.23488	0.35315	0.15074	0.16211	0.13241	0.23776	0.27295	0.13532	0.11527	0.05352	-4.5208	-4.225	-3.9583	-4.9833	-3.8646	-4.5292	-4.9708	-4.1146	-4.7604	-4.1979	-4.2229	-4.9333	-4.0188	-4.4271	-4.6708	-4.0229	41.795	133.912	191.699	286.948	203.172	-37.786	298.987	288.984	82.950	137.371	68.164	-46.788	245.134	241.680	89.307	8.977	0.00019788	0.00037275	0.00026181	1751.4	3.3184e-06	2.3106e-06	1746.9	579.47	5.4715e-06	2.6116e-06	621.21	181.65	165.17	58.581	5.529e-06	78.161	6.025e-05	5.3264e-05	1.5164e-05	1489.2	6.2883e-07	5.762e-07	1484.8	486.17	6.1407e-07	5.8821e-07	509.45	150.58	135.82	47.93	5.873e-07	63.129	181.958	-0.499	2.218	-33.928	88.986	75.613	-34.200	-30.478	126.076	111.321	-32.022	-27.560	-26.421	-21.687	87.268	-23.750	-8191	255	
44484.070	1	1	0	0	0.056962	0.021899	0.10155	0.21429	0.10094	0.16858	0.11436	0.075342	0.11747	0.21709	0.34596	0.17613	0.13425	0.27021	0.050737	0.10368	-4.2521	-4.2167	-4.0312	-5.0708	-4.0042	-4.2063	-4.9479	-4.0083	-4.4896	-4.5875	-4.0854	-4.7458	-4.2875	-4.3875	-4.6229	-4.0292	233.726	201.900	-34.225	235.946	279.528	210.177	233.169	307.376	-18.589	276.654	250.321	234.545	-25.839	278.185	196.532	-22.318	0.00022422	0.00065519	0.00023174	1756	4.7036e-06	4.2445e-06	1750.4	578.34	3.0905e-06	6.5156e-06	620.18	182.63	164.99	58.893	3.6884e-06	78.703	6.0771e-05	5.3644e-05	1.4692e-05	1488.5	6.287e-07	5.7497e-07	1488.4	486.12	6.077e-07	5.8527e-07	511.06	151.34	135.41	48.239	5.882e-07	63.785	192.262	38.637	-34.124	-33.811	81.175	76.040	-34.363	-30.619	124.011	47.980	-31.741	-27.121	-26.394	-22.220	118.541	-23.391	-8191	255	
44484.141	1	1	0	0	0.14395	0.11645	0.30648	0.15017	0.077543	0.13541	0.31781	0.20869	0.12034	0.076561	0.35082	0.071304	0.2281	0.4317	0.030164	0.048056	-4.2708	-4.4458	-3.7938	-5.0687	-4.0979	-4.1771	-4.9875	-4.0583	-4.5417	-4.5312	-3.9562	-4.8792	-4.1646	-4.0271	-4.7771	-4.075	3.597	111.243	145.219	254.640	155.616	256.461	278.796	245.173	215.992	9.591	241.909	227.234	252.096	262.201	35.857	-39.780	0.00020223	0.00044222	0.00019777	1748.2	2.362e-06	2.5706e-06	1759.5	578.98	3.8374e-06	8.0099e-06	624.07	182.93	166.17	58.847	3.414e-06	78.853	6.077e-05	5.4688e-05	1.4852e-05	1488.7	5.9701e-07	5.7582e-07	1493.8	486.43	5.906e-07	5.8237e-07	513.05	151.8	136.39	48.274	5.9122e-07	63.834	209.765	37.249	-5.025	-33.748	50.019	49.654	-34.268	-30.491	155.621	50.882	-31.588	-27.396	-26.187	-22.037	80.074	-23.516	-8191	255	
44484.238	1	1	0	0	0.10933	0.099579	0.16158	0.15972	0.015641	0.092704	0.23699	0.14307	0.25648	0.19233	0.17053	0.18466	0.17465	0.29574	0.14996	0.096074	-3.8917	-4.5958	-3.7354	-4.9688	-4.4771	-3.9604	-4.9938	-4.2375	-4.3125	-4.8292	-4.0083	-4.7208	-4.5479	-4.1375	-4.775	-4.2479	273.735	178.243	-22.582	258.447	-34.739	127.608	227.422	270.871	26.050	134.387	228.009	-15.654	-41.562	-42.815	307.678	31.870	0.0002406	0.00026927	0.00024024	1772.7	6.1043e-06	7.0046e-06	1768.8	589.33	2.7856e-06	1.5541e-06	628.21	182.43	166.16	58.221	3.2643e-06	77.582	6.022e-05	5.5094e-05	1.529e-05	1507	6.0331e-07	5.8564e-07	1503.5	494.46	6.014e-07	5.6988e-07	515.01	151.72	136.84	47.678	5.7331e-07	62.61	193.613	287.496	25.412	-33.986	89.858	92.199	-34.365	-30.484	112.524	24.657	-32.037	-27.450	-26.162	-22.247	83.493	-23.711	-8191	255	
44484.332	1	1	0	0	0.18039	0.1412	0.099477	0.28458	0.17384	0.24713	0.25754	0.15344	0.22871	0.22841	0.23069	0.10452	0.1537	0.25943	0.11856	0.36914	-4.0917	-4.6229	-3.6896	-4.7438	-4.3562	-3.8958	-5.0167	-4.2396	-4.1667	-4.5708	-3.9146	-4.6854	-4.6	-4.0625	-4.6896	-4.0875	102.401	193.548	279.618	294.838	286.622	298.712	221.264	252.868	273.343	3.613	-47.807	279.143	-22.696	246.665	144.266	302.772	0.00018765	0.00063734	0.00016086	1775.1	5.097e-06	5.2816e-06	1748.9	583.1	2.2838e-06	4.611e-06	616.58	180.53	165.78	57.875	5.6457e-06	76.505	6.1431e-05	5.3941e-05	1.4847e-05	1500.2	5.9352e-07	5.8473e-07	1484	490.1	6.16e-07	5.6574e-07	507.45	149.59	135.97	47.268	5.9282e-07	61.832	184.466	19.493	22.966	-33.894	104.183	63.317	-34.391	-30.467	91.258	63.751	-31.880	-27.489	-26.393	-22.009	67.193	-23.502	-8191	255	
44484.453	1	1	0	0	0.08132	0.20565	0.17645	0.31985	0.18483	0.24911	0.28484	0.20976	0.12284	0.031603	0.18561	0.20334	0.15336	0.13127	0.073677	0.21164	-3.6854	-4.6021	-3.9771	-4.7188	-4.6188	-3.8021	-5.0667	-4.3688	-4.1167	-4.65	-4.0604	-4.35	-4.6	-3.8604	-4.7167	-4.3938	33.346	112.557	258.588	244.053	286.157	197.432	203.465	276.328	308.678	39.438	16.223	287.951	283.608	283.766	92.540	283.976	0.00024249	0.00042868	0.0001793	1757.5	1.2659e-06	1.8142e-06	1738.9	579.63	3.0891e-06	4.3214e-06	617.41	180.6	166.26	57.843	5.8769e-06	76.819	5.9479e-05	5.2951e-05	1.5013e-05	1487.6	5.8932e-07	5.8187e-07	1476.6	487.77	5.892e-07	5.8091e-07	506.62	150.34	136.16	47.427	5.9022e-07	62.22	210.158	3.960	-37.098	-33.970	99.106	89.276	-34.713	-30.552	106.711	78.969	-31.628	-27.161	-26.364	-21.972	77.622	-23.303	-8191	255	
44484.551	1	1	0	0	0.1033	0.21606	0.15017	0.2842	0.11979	0.12973	0.30731	0.064785	0.11878	0.041091	0.088889	0.076212	0.23513	0.11692	0.18546	0.10554	-3.7062	-4.6833	-3.975	-4.4313	-4.6896	-3.8042	-4.8625	-4.4771	-3.9583	-4.8375	-4.2604	-4.4208	-4.7521	-3.925	-4.5854	-4.5125	199.705	269.619	133.150	282.323	34.200	143.225	258.622	-23.904	107.826	83.839	182.743	112.218	272.557	276.126	276.177	23.433	0.00020003	0.00048628	0.00021229	1759	4.7366e-06	6.2792e-06	1756.5	585.61	4.4054e-06	4.5669e-06	622.79	183.4	167.49	58.531	3.8409e-06	77.443	5.8557e-05	5.3349e-05	1.4505e-05	1494.6	6.092e-07	5.9094e-07	1491.2	491.9	6.0127e-07	5.9199e-07	512.88	151.53	137.74	47.753	5.7961e-07	62.764	182.142	32.769	17.977	-34.028	110.521	68.314	-34.501	-30.587	124.937	27.419	-31.744	-27.320	-26.159	-22.435	26.691	-23.749	-8191	255	
44484.645	1	1	0	0	0.2976	0.18869	0.018625	0.21425	0.14839	0.11821	0.18546	0.14555	0.14218	0.10521	0.23606	0.21299	0.38249	0.11658	0.044321	0.12551	-3.6104	-4.6312	-4.0479	-4.3542	-4.6729	-3.9104	-4.675	-4.7729	-3.6937	-4.7167	-4.2604	-4.1375	-4.8625	-3.9813	-4.45	-4.7833	134.601	162.003	145.348	250.079	261.885	173.084	238.218	252.123	86.185	112.418	47.195	249.745	279.706	244.775	218.487	285.023	0.0002312	0.00049459	0.00022458	1768	5.0779e-06	2.1753e-06	1764.4	588.48	5.1112e-06	4.1911e-06	630.48	184.29	168.16	58.731	6.9169e-06	78.533	6.2364e-05	5.407e-05	1.4894e-05	1498.2	5.8608e-07	5.6337e-07	1496.4	493.04	6.1548e-07	5.8355e-07	516.64	153.26	138.06	48.106	5.9545e-07	63.591	189.647	-28.755	41.682	-34.093	85.068	122.003	-34.511	-30.488	139.939	78.717	-31.972	-27.506	-26.307	-22.028	75.956	-23.594	-8191	255	
44484.742	1	1	0	0	0.18966	0.077773	0.29817	0.041617	0.091977	0.16086	0.095101	0.019721	0.10087	0.19669	0.11059	0.27043	0.18956	0.18274	0.12791	0.16888	-3.6354	-4.6417	-4.3167	-4.2208	-4.8417	-3.8542	-4.525	-4.8938	-3.7833	-4.75	-4.5625	-4.1229	-5.0479	-4.2042	-4.2667	-4.7667	118.300	-8.370	11.569	242.778	97.946	151.066	234.363	88.221	47.618	241.847	284.078	294.210	206.983	280.791	35.136	287.787	0.0001609	0.00045804	0.00018471	1776.7	4.903e-06	5.0591e-06	1775.9	592.96	2.2444e-06	6.1396e-06	634.14	186.59	171.01	59.288	3.7441e-06	79.148	6.118e-05	5.4239e-05	1.5222e-05	1509.2	5.9104e-07	6.0672e-07	1511	497.8	6.1965e-07	5.8561e-07	520.9	154.64	140.08	48.469	6.1834e-07	63.961	200.069	6.729	7.635	-33.997	84.898	104.201	-34.625	-30.365	117.581	102.870	-31.793	-27.020	-26.500	-21.719	41.622	-23.673	-8191	255	
44484.836	1	1	0	0	0.077685	0.14457	0.041742	0.13023	0.22625	0.028347	0.29149	0.3665	0.075216	0.25697	0.38862	0.080236	0.31652	0.14097	0.11048	0.11863	-3.6083	-4.5229	-4.1125	-4.0229	-4.6833	-3.925	-4.2562	-5.0271	-3.7375	-4.5229	-4.4042	-3.9333	-4.9417	-4.1708	-4.1188	-4.8479	140.125	165.428	206.623	250.303	-46.017	278.509	252.761	209.406	187.007	137.043	195.005	239.719	282.321	247.946	249.322	308.368	0.00019383	0.00077702	9.5143e-05	1803.6	2.3242e-06	4.1653e-06	1797.6	601.08	4.7204e-06	4.2027e-06	640.78	189.13	172.86	60.239	4.9271e-06	79.348	6.285e-05	5.2889e-05	1.5115e-05	1528.8	6.069e-07	6.1546e-07	1523	504.7	6.5792e-07	5.8539e-07	524.98	156.55	142.78	49.197	6.27e-07	64.276	205.223	3.128	-1.587	-33.972	108.150	106.445	-34.657	-30.610	73.590	33.329	-31.628	-27.280	-26.852	-22.333	72.242	-23.567	-8191	255	
44484.934	1	1	0	131072	0.069775	0.08184	0.13346	0.36831	0.075598	0.1387	0.30796	0.28937	0.037001	0.13827	0.19901	0.20288	0.012893	0.1383	0.11404	0.32087	-3.5646	-4.2667	-4.4958	-4.075	-4.7125	-4.1521	-4.4417	-4.8583	-3.9229	-4.1396	-4.8375	-3.8542	-4.8417	-4.2896	-4.0208	-4.8875	217.732	65.795	64.737	258.905	206.111	224.415	226.006	225.027	280.392	259.996	-25.031	12.922	135.589	211.947	304.030	238.831	0.00022854	0.00059469	0.00014465	1816.2	2.5462e-06	3.3307e-06	1807.5	608.42	1.8163e-06	4.9812e-06	648.08	191	176.08	61.283	5.4367e-06	80.684	6.5199e-05	5.8683e-05	1.5556e-05	1540.2	6.2384e-07	6.2273e-07	1531.8	511.41	6.446e-07	6.038e-07	530.77	158.81	144.63	50.007	6.1119e-07	65.287	187.997	-19.653	10.353	-34.064	79.971	71.562	-34.520	-30.388	160.376	76.132	-32.042	-27.247	-26.699	-22.071	86.068	-23.529	-8191	255	
44485.027	1	1	0	0	0.22755	0.060921	0.19715	0.14373	0.19027	0.14391	0.06868	0.41118	0.0087334	0.3384	0.18592	0.039501	0.23754	0.24713	0.028137	0.28286	-3.5521	-4.2312	-4.5687	-4.05	-4.6917	-4.3646	-4.2042	-4.9958	-4.0375	-4.3667	-4.7562	-4.0625	-4.7729	-4.5312	-3.9604	-5.0583	-35.383	175.347	198.607	284.527	47.346	280.353	94.465	291.497	226.875	-42.680	241.337	49.447	260.529	308.629	106.548	-41.819	0.00021587	0.00068621	0.00014992	1773.8	6.8147e-06	7.0279e-06	1771.7	591.41	4.2408e-06	3.0748e-06	640.43	190.09	173.33	60.868	6.3805e-06	81.063	6.4932e-05	5.492e-05	1.5123e-05	1508.8	6.098e-07	5.8413e-07	1504.5	499.28	6.2908e-07	5.9257e-07	524.63	158.18	141.96	49.863	5.8767e-07	66.022	185.197	22.189	-13.691	-33.893	93.047	120.948	-34.966	-30.489	75.770	39.313	-31.808	-27.318	-26.137	-22.188	58.928	-23.757	-8191	255	
44485.148	1	1	0	0	0.052619	0.113	0.17765	0.15734	0.22518	0.23107	0.18601	0.20421	0.14619	0.39097	0.026483	0.35496	0.28131	0.20415	0.20314	0.11565	-3.8333	-4.1833	-4.6542	-4.0271	-4.3729	-4.5292	-4.1292	-4.9042	-4.0271	-4.1833	-5.0854	-4.0646	-4.5708	-4.7146	-3.9125	-4.8688	217.064	235.167	169.470	249.090	119.243	160.976	251.147	168.790	203.890	237.252	248.000	239.846	176.328	-43.468	124.413	-39.240	0.00021764	0.00048147	0.00016256	1770	3.4871e-06	4.9287e-06	1784.4	597.29	5.8431e-06	5.5433e-06	650.58	191.12	174.67	61.226	8.5255e-06	81.484	6.4027e-05	5.4918e-05	1.5396e-05	1508.4	6.2864e-07	6.1109e-07	1517	503.27	6.2224e-07	5.9945e-07	531.5	158.58	143.44	50.015	6.3709e-07	66.089	208.138	-38.489	13.266	-33.936	47.461	81.529	-34.603	-30.383	145.903	25.455	-31.621	-27.309	-26.417	-21.967	62.263	-23.834	-8191	255	
44485.246	1	1	0	0	0.15137	0.22387	0.12665	0.32599	0.051073	0.14658	0.24857	0.27942	0.18817	0.20262	0.20672	0.073405	0.20076	0.051404	0.010609	0.16964	-3.9104	-4.0437	-4.725	-4.0667	-4.5312	-4.6875	-4.125	-4.9083	-4.2583	-4.0396	-5.0062	-4.1521	-4.275	-4.7771	-3.7687	-4.8167	124.775	106.191	123.297	285.776	73.607	82.309	196.281	277.005	39.476	-36.458	248.120	300.979	259.334	188.234	200.181	289.751	0.0001802	0.00050169	0.00014108	1788	3.9112e-06	4.5065e-06	1788	595.32	1.9523e-06	5.6581e-06	641.9	188.61	172.38	60.362	4.387e-06	80.584	6.2247e-05	5.5016e-05	1.5259e-05	1516.9	6.1272e-07	5.7876e-07	1517	501.23	6.2278e-07	5.8215e-07	527.34	157.13	141.19	49.625	6.1743e-07	65.565	207.530	44.606	-37.671	-33.864	84.873	65.476	-34.543	-30.558	80.401	73.344	-31.678	-27.432	-26.278	-21.789	42.311	-23.705	-8191	255	
44485.340	1	1	0	0	0.1413	0.088955	0.1108	0.24597	0.19248	0.24687	0.27347	0.093143	0.085093	0.098659	0.30488	0.21291	0.15759	0.13364	0.15241	0.24565	-3.9458	-3.9125	-4.7125	-4.2562	-4.3	-4.7917	-4.0417	-4.9292	-4.5771	-3.8937	-4.9104	-4.1583	-4.3063	-4.8083	-3.7938	-4.5958	208.432	40.256	49.768	269.048	282.584	118.807	271.634	269.744	77.539	173.720	289.813	278.146	-38.275	-37.797	103.773	268.425	0.00022529	0.0003824	0.00021252	1784.1	5.5522e-06	6.0627e-06	1800.3	592.96	2.7715e-06	2.9429e-06	639.26	186.54	170.47	60.064	3.1863e-06	79.988	6.1854e-05	5.4871e-05	1.527e-05	1513.7	6.1812e-07	5.9146e-07	1520.4	501.11	6.088e-07	5.9858e-07	524.93	155.75	140.59	49.085	6.1234e-07	64.756	190.431	-12.987	-5.078	-34.114	111.257	65.536	-34.468	-30.311	66.979	40.824	-31.850	-27.444	-26.381	-21.703	134.442	-23.298	-8191	255	
44485.438	1	1	0	0	0.14778	0.12653	0.26446	0.28413	0.13241	0.2937	0.24116	0.16981	0.047598	0.15407	0.20269	0.18972	0.062233	0.085793	0.078252	0.29247	-4.1312	-3.8729	-4.7042	-4.2917	-4.025	-4.6937	-4.2167	-4.7083	-4.4979	-3.8979	-5.0938	-4.2896	-4.0854	-4.8792	-3.8812	-4.2979	-4.740	222.138	135.815	244.658	-28.992	139.225	225.851	239.100	-3.385	250.867	228.497	159.931	271.309	98.483	229.893	237.607	0.00019463	0.00042059	0.00013556	1773.4	7.8626e-06	3.3079e-06	1767.3	592.87	3.8004e-06	2.4295e-06	633.33	186.51	170.83	59.845	2.0698e-06	80.078	6.1346e-05	5.1824e-05	1.4152e-05	1506.7	5.9948e-07	5.5754e-07	1502.8	497.8	5.7099e-07	5.6187e-07	520.84	155.57	140.42	48.975	5.6925e-07	64.633	201.486	34.808	-20.408	-33.914	113.298	45.885	-34.333	-30.481	141.526	73.013	-31.854	-27.357	-26.688	-21.642	113.284	-23.735	-8191	255	
44485.535	1	1	0	0	0.23611	0.15387	0.31518	0.19797	0.20285	0.12678	0.22966	0.4056	0.10565	0.10089	0.30103	0.016495	0.03891	0.032107	0.094547	0.24281	-4.175	-3.875	-4.6104	-4.3458	-3.9104	-4.7229	-4.2042	-4.3229	-4.7354	-3.7167	-4.6479	-4.6354	-4.0188	-4.9396	-4.05	-4.3042	207.910	131.320	-40.373	281.347	-40.928	184.294	222.468	-43.682	135.597	206.174	275.227	16.632	265.497	-7.421	266.079	287.379	0.00019526	0.00057583	7.3978e-05	1767.7	3.9782e-06	1.5385e-06	1771	587.62	5.298e-06	4.7337e-06	635.15	186.89	170.55	59.761	5.0485e-06	80.067	5.8675e-05	5.2418e-05	1.3919e-05	1500.7	5.8233e-07	5.4683e-07	1503.6	495.73	5.8941e-07	5.5881e-07	520.27	154.93	139.83	48.933	5.9251e-07	64.668	190.429	-4.132	-38.496	-33.781	93.987	83.032	-34.514	-30.616	108.819	106.393	-31.740	-27.213	-26.508	-21.944	100.402	-23.826	-8191	255	
44485.629	1	1	0	0	0.089318	0.13343	0.076775	0.28043	0.08936	0.13108	0.31757	0.43468	0.12872	0.1217	0.22903	0.16012	0.12326	0.042108	0.089083	0.0076698	-4.3333	-3.7792	-4.4313	-4.5083	-3.8146	-4.8	-4.2833	-4.3229	-4.825	-3.7833	-4.7562	-4.6333	-3.9354	-4.8104	-4.2146	-4.1292	199.954	-29.270	249.012	268.287	267.733	102.942	248.675	224.742	157.085	98.108	285.262	-17.531	289.701	279.333	22.253	308.631	0.00021985	0.00051964	0.00015946	1770.4	4.5569e-06	2.1538e-06	1780.4	589.19	1.5568e-06	3.4021e-06	635.19	187.67	170.54	59.86	4.6664e-06	80.062	6.1655e-05	5.2561e-05	1.422e-05	1502.2	5.8479e-07	5.554e-07	1508.4	495.93	5.9575e-07	5.9821e-07	523.08	155.82	140.45	49.033	6.03e-07	64.867	211.616	12.127	0.269	-33.966	76.039	94.796	-34.744	-30.525	49.029	32.944	-31.964	-27.429	-26.238	-22.196	64.214	-23.379	-8191	255	
44485.750	1	1	0	0	0.16183	0.12141	0.02365	0.22563	0.10484	0.25599	0.34652	0.43905	0.1238	0.14379	0.10461	0.07606	0.20604	0.11419	0.31681	0.37841	-4.5542	-3.7854	-4.45	-4.7125	-3.7333	-4.6771	-4.3812	-4.1646	-4.8812	-3.9875	-4.5208	-4.7917	-4.0458	-4.7083	-4.2521	-4.1	74.156	128.271	0.394	11.959	-8.497	169.060	268.147	255.483	1.579	217.779	285.690	33.700	283.555	309.150	68.787	261.634	0.00016235	0.00027667	0.0002154	1800.2	4.9644e-06	7.4676e-06	1812.7	605.42	2.9378e-06	2.7954e-06	648.29	189.98	174.19	60.333	3.3033e-06	80.192	6.1705e-05	5.3393e-05	1.4931e-05	1526.8	6.0763e-07	5.9324e-07	1538	507.27	6.0063e-07	5.8389e-07	533.27	158.08	143.32	49.412	5.9797e-07	65.068	195.145	46.455	-4.003	-33.703	50.334	96.025	-34.632	-30.563	104.915	40.114	-31.774	-27.586	-26.709	-22.111	81.457	-23.745	-8191	255	
44485.844	1	1	0	0	0.33811	0.16493	0.12436	0.31355	0.25002	0.10985	0.15936	0.42407	0.20071	0.19262	0.24913	0.48188	0.31517	0.04197	0.32084	0.08938	-4.5792	-3.925	-4.1375	-4.7125	-3.625	-4.6292	-4.6062	-4.0938	-4.7542	-4.1667	-4.3292	-4.7312	-3.9688	-4.5354	-4.3292	-4.0312	64.373	77.073	48.581	252.991	-25.624	71.996	299.902	264.769	-14.869	84.429	260.489	255.359	249.021	52.786	159.811	203.676	0.00019297	0.00052342	0.00021324	1814.5	4.6103e-06	7.8471e-06	1821.4	605.32	6.4041e-06	6.9699e-06	646.85	190.21	172.05	60.291	8.7955e-07	80.014	6.1693e-05	5.4349e-05	1.5163e-05	1540.9	6.1265e-07	5.8626e-07	1541.5	508.09	5.9772e-07	5.8279e-07	530.57	157.48	141.84	49.249	6.0049e-07	64.918	190.660	20.784	3.183	-33.782	107.249	84.182	-34.587	-30.642	63.576	84.123	-31.941	-27.358	-26.781	-22.235	64.261	-23.738	-8191	255	
44485.941	1	1	0	0	0.027344	0.12328	0.20539	0.36577	0.22932	0.12702	0.33444	0.20129	0.15115	0.10382	0.14179	0.29056	0.06418	0.22329	0.18604	0.18482	-4.6167	-4.0021	-4.1771	-4.8063	-3.9646	-4.4729	-4.5979	-4.0375	-4.7458	-4.2812	-4.0833	-4.9146	-3.8792	-4.4917	-4.5292	-3.7938	-43.133	204.713	285.093	265.525	140.100	-47.268	232.257	-47.529	231.711	-46.388	227.944	309.307	298.998	257.422	149.340	257.396	0.00016675	0.00027656	0.00022782	1791	6.6662e-06	3.8106e-06	1781.1	590.15	6.6703e-06	6.4965e-06	632.6	186.58	168.83	59.64	2.82e-06	79.434	6.1651e-05	5.39e-05	1.4935e-05	1513.3	6.0821e-07	5.7868e-07	1507.1	496.55	6.127e-07	5.9134e-07	519.85	154.88	139.47	48.714	5.9379e-07	64.118	192.725	15.283	-21.050	-34.112	84.317	40.826	-34.390	-30.661	57.093	27.582	-31.923	-27.458	-26.474	-22.043	35.332	-23.635	-8191	255	
44486.012	1	1	0	0	0.20143	0.062198	0.33032	0.15643	0.10637	0.1329	0.29399	0.2092	0.048591	0.20369	0.11784	0.26879	0.12252	0.24887	0.16368	0.067128	-4.3313	-4.1687	-3.9417	-4.7875	-3.8708	-4.2562	-4.7667	-3.9229	-4.5938	-4.2021	-3.9542	-4.8729	-4.0708	-4.3542	-4.65	-4.0062	263.195	67.260	188.229	233.902	141.587	269.913	281.854	293.971	189.145	142.537	193.042	-46.138	311.015	18.982	265.336	-28.765	0.00018145	0.00040439	0.00022486	1755.4	1.0832e-06	1.7178e-06	1756.6	579.15	7.5836e-07	4.0092e-06	628.09	185.51	168.07	59.206	3.0821e-06	79.252	6.0991e-05	5.254e-05	1.4964e-05	1490.2	6.1287e-07	5.6327e-07	1488.8	488.05	5.922e-07	5.6601e-07	513.64	153.44	137.51	48.58	5.8111e-07	64.153	209.411	-16.942	25.272	-33.978	45.235	183.058	-34.343	-30.705	267.753	49.209	-31.794	-27.348	-26.680	-22.272	51.720	-23.680	-8191	255	
44486.133	1	1	0	0	0.17572	0.093081	0.18063	0.15719	0.21869	0.24348	0.09632	0.16124	0.12017	0.16773	0.28068	0.28645	0.16278	0.20047	0.14122	0.19996	-4.3854	-4.2792	-3.95	-4.8354	-3.9729	-4.1521	-4.9479	-4.1375	-4.5188	-4.4667	-3.9062	-4.9396	-4.0604	-4.1917	-4.6771	-3.8854	76.466	8.935	287.147	278.341	200.141	273.537	269.098	310.188	-47.353	85.922	272.215	-25.715	-9.181	237.634	213.583	267.375	0.0002222	0.00034186	0.00014023	1744.2	3.3859e-06	5.7651e-06	1748.6	578.94	4.8132e-07	6.7743e-06	623.67	184.91	166.11	59.674	6.3653e-06	80.026	6.0886e-05	5.2793e-05	1.479e-05	1476.7	5.9823e-07	5.7352e-07	1482.6	485.41	5.9134e-07	5.8031e-07	511.84	153.28	136.88	48.752	5.863e-07	64.79	194.246	-13.215	7.180	-33.903	120.252	78.963	-34.189	-30.681	-1.761	102.551	-31.939	-27.680	-26.096	-22.132	91.980	-23.704	-8191	255	
44486.230	1	1	0	0	0.25368	0.089382	0.13425	0.39337	0.056614	0.065419	0.2075	0.086695	0.12106	0.10496	0.22646	0.041896	0.082883	0.2348	0.24144	0.22144	-4.1271	-4.4854	-3.9042	-4.8896	-4.1333	-3.8958	-5.0604	-4.2375	-4.3375	-4.55	-4.0292	-4.75	-4.3104	-4.0083	-4.6104	-4.0375	70.228	-46.153	230.282	288.775	124.658	151.149	234.380	300.119	177.247	54.841	-46.921	-0.090	121.079	40.834	18.762	285.006	0.00021607	0.00046033	0.0001706	1741.5	2.5747e-06	4.185e-06	1753.5	574.95	5.6187e-06	7.7905e-06	624.47	184.68	165.7	59.497	6.3753e-06	80.037	6.138e-05	5.1514e-05	1.4793e-05	1473.9	6.0343e-07	5.6202e-07	1489	483.98	6.0517e-07	5.7396e-07	514.04	153.33	136.66	48.649	5.7093e-07	64.874	196.087	-10.136	33.818	-33.899	66.559	135.739	-34.375	-30.338	136.119	73.693	-31.818	-27.259	-26.306	-22.057	41.518	-23.465	-8191	255	
44486.324	1	1	0	0	0.15823	0.062689	0.10919	0.19339	0.083718	0.10474	0.061946	0.21745	0.091081	0.20471	0.13231	0.33834	0.037963	0.40317	0.17596	0.13405	-3.9792	-4.4396	-3.7812	-5.05	-4.2688	-3.9375	-4.8938	-4.1792	-4.2021	-4.5813	-4.0875	-4.6354	-4.4833	-3.9208	-4.6917	-4.0958	208.966	88.801	222.222	-39.096	224.052	256.541	192.357	296.610	44.624	62.634	273.347	237.013	37.642	232.734	160.197	20.297	0.00022225	0.00035268	0.0001599	1733.8	5.9286e-06	6.2485e-06	1760.9	577.57	4.3126e-06	5.1261e-06	626.96	184.41	164.17	58.831	5.8122e-06	79.75	6.1137e-05	5.36e-05	1.4701e-05	1472.3	6.0585e-07	5.7343e-07	1492	483.07	6.0259e-07	5.7683e-07	515.11	152.78	135.33	48.136	5.7686e-07	64.549	200.350	36.391	20.257	-33.840	47.961	78.129	-34.453	-30.440	68.806	46.940	-31.715	-27.345	-25.925	-21.765	65.329	-23.436	-8191	255	
44486.422	1	1	0	0	0.11216	0.29853	0.21651	0.15409	0.1738	0.14232	0.13581	0.12691	0.053582	0.12395	0.26765	0.23179	0.24394	0.11019	0.10577	0.21849	-3.8375	-4.6542	-3.7167	-4.6229	-4.4208	-3.8479	-4.925	-4.2833	-4.0917	-4.6958	-4.0729	-4.6646	-4.6417	-3.8208	-4.7771	-4.2479	-47.665	179.904	-16.262	261.888	5.642	296.418	292.200	216.801	296.723	19.597	-26.282	301.684	227.506	292.572	283.244	254.291	0.0002158	0.00031294	0.00016345	1727.9	6.4004e-06	4.7634e-06	1741.1	569.08	9.1237e-07	4.8111e-06	618.57	180.46	161.46	57.174	3.7875e-06	76.951	6.1303e-05	5.3094e-05	1.4709e-05	1464.6	6.0479e-07	5.8258e-07	1481.6	477.85	6.0217e-07	5.6895e-07	507.52	149.82	132.55	46.969	5.9322e-07	62.539	195.712	10.679	-4.344	-34.057	89.332	64.578	-34.340	-30.295	267.284	18.227	-31.944	-27.501	-26.198	-21.923	36.120	-23.647	-8191	255	
44486.539	1	1	0	0	0.13457	0.064207	0.20314	0.18292	0.11869	0.089443	0.11215	0.14664	0.15949	0.17848	0.18859	0.2194	0.10205	0.24356	0.12189	0.056738	-3.7313	-4.8104	-3.7104	-4.5437	-4.7625	-3.8917	-4.8646	-4.3417	-3.9688	-4.7542	-4.2229	-4.3292	-4.6354	-3.8833	-4.6562	-4.4667	240.770	167.304	0.280	284.474	245.040	175.807	129.752	228.017	-1.035	21.805	244.513	309.144	237.194	216.414	69.602	190.173	0.00021503	0.00025212	0.00010731	1696.4	3.4771e-06	4.0521e-06	1699.6	552.48	4.9225e-06	3.6885e-06	606.42	177.06	158.01	56.627	5.7319e-06	76.172	6.1058e-05	5.1935e-05	1.4636e-05	1439.3	5.9652e-07	5.7226e-07	1447.3	466.45	6.0453e-07	5.6944e-07	496.86	146.77	129.6	46.355	5.8782e-07	61.707	187.934	43.309	27.759	-33.726	20.121	152.619	-34.670	-30.443	112.488	32.227	-31.673	-27.383	-26.094	-21.555	59.538	-23.463	-8191	255	
44486.613	1	1	0	0	0.048009	0.25917	0.28114	0.34369	0.21977	0.17221	0.16008	0.32023	0.13805	0.21861	0.24363	0.16811	0.019673	0.37801	0.15738	0.11068	-3.7271	-4.7417	-3.9625	-4.5708	-4.6438	-3.8792	-4.775	-4.4229	-3.7687	-4.7	-4.2646	-4.2896	-4.8812	-3.95	-4.5021	-4.5708	156.583	12.924	289.984	290.432	91.921	129.481	268.103	276.132	92.670	177.434	215.800	225.905	280.015	277.867	30.857	225.113	0.00016164	0.00057642	0.00021016	1682.4	5.7071e-06	6.19e-06	1698.3	552.99	5.5102e-06	3.8926e-06	602.75	176.65	158.74	56.892	3.5802e-06	77.178	6.0643e-05	5.2862e-05	1.4679e-05	1430.7	5.9577e-07	5.7745e-07	1443.5	464.02	5.8932e-07	5.8031e-07	496.74	147.3	130.33	46.57	5.9149e-07	62.387	190.435	15.424	43.206	-34.064	96.440	71.235	-34.487	-30.256	70.582	17.600	-31.591	-27.212	-26.094	-22.326	36.404	-23.238	-8191	255	
44486.711	1	1	0	0	0.10122	0.049134	0.1106	0.074563	0.18012	0.14798	0.24387	0.18052	0.21933	0.14421	0.17682	0.45218	0.33818	0.14686	0.25771	0.21166	-3.6167	-4.6438	-4.2729	-4.2917	-4.725	-3.9125	-4.6854	-4.7104	-3.95	-4.7271	-4.3333	-4.1417	-4.9104	-4.1125	-4.3	-4.6937	210.134	-9.896	155.243	209.692	28.419	125.780	271.398	284.353	299.536	207.709	202.543	292.765	-23.720	292.356	226.648	169.238	0.00017093	0.00024907	0.00015772	1703.1	4.3639e-06	4.755e-06	1733.4	561.96	2.0906e-06	4.4681e-06	615.78	179.88	162.01	57.39	4.5343e-06	77.775	6.2471e-05	5.2578e-05	1.4754e-05	1445.7	5.9909e-07	5.714e-07	1466.1	472.12	6.1082e-07	5.761e-07	503.77	148.98	132.64	47.128	5.759e-07	62.891	204.622	27.908	47.258	-33.966	105.620	49.384	-34.493	-30.262	11.461	68.715	-31.640	-27.097	-26.297	-22.206	73.047	-23.253	-8191	255	
44486.832	1	1	0	0	0.08994	0.17828	0.21617	0.23346	0.059875	0.14702	0.21898	0.11046	0.2211	0.15589	0.29674	0.18797	0.19499	0.14354	0.10097	0.12144	-3.5042	-4.6979	-4.0938	-4.1208	-4.8417	-3.9458	-4.625	-4.7312	-3.7021	-4.6729	-4.4688	-3.9125	-4.9875	-4.1479	-4.0979	-4.8	46.403	162.898	193.199	296.011	119.854	92.967	236.712	240.145	126.929	-13.300	278.269	227.920	261.803	276.091	201.428	267.392	0.00018457	0.00079543	0.0001103	1720	6.6119e-06	7.9263e-06	1743.1	565.85	4.4877e-06	8.4825e-06	617.08	182.03	163.16	58.172	4.8882e-06	78.541	6.1196e-05	5.5005e-05	1.4502e-05	1457.5	5.764e-07	5.7629e-07	1478.2	477.36	5.9796e-07	5.8249e-07	507.6	151.06	134.14	47.645	5.7576e-07	63.592	191.158	34.219	17.771	-34.212	89.800	83.315	-34.488	-30.404	139.111	48.986	-31.850	-27.099	-26.090	-21.913	63.066	-23.370	-8191	255	
44486.926	1	1	0	0	0.18308	0.17178	0.146	0.147	0.12875	0.24069	0.1658	0.16249	0.095796	0.070823	0.11692	0.18765	0.24078	0.14902	0.088883	0.28708	-3.5354	-4.4625	-4.5188	-4.2125	-4.8521	-4.0188	-4.425	-4.9729	-3.7542	-4.5542	-4.6646	-4.0042	-4.8104	-4.2521	-4.1333	-4.8542	33.757	52.729	73.001	180.592	221.106	104.345	301.522	189.065	28.797	253.421	222.209	88.389	228.200	275.872	71.506	238.457	0.00018824	0.00055652	6.9497e-05	1730.6	4.652e-06	6.0804e-06	1761.4	573.6	9.5561e-07	4.1576e-06	627.89	182.56	163.97	58.107	4.1683e-06	78.249	6.1326e-05	5.377e-05	1.475e-05	1470.1	6.035e-07	5.9417e-07	1492.5	482.36	6.169e-07	5.9233e-07	512.33	151.77	134.97	47.593	5.9906e-07	63.135	213.103	6.783	-11.890	-33.858	63.257	56.409	-34.567	-30.372	154.983	79.890	-31.740	-27.428	-26.317	-22.166	43.018	-23.240	-8191	255	
44487.023	1	1	0	0	0.080198	0.081228	0.04648	0.29287	0.2556	0.32064	0.24458	0.25844	0.1415	0.20959	0.24791	0.2707	0.15006	0.21423	0.068093	0.019174	-3.3688	-4.3604	-4.5417	-4.1417	-4.8292	-4.0771	-4.2063	-4.8667	-3.8854	-4.4979	-4.675	-3.8792	-4.7771	-4.5542	-3.9958	-4.9563	144.611	-18.157	284.345	253.887	-40.134	7.295	277.016	286.859	-26.330	205.649	261.771	261.580	217.799	287.271	113.348	69.971	0.00014782	0.0003967	0.00021213	1732.4	4.6375e-06	6.0916e-06	1739.7	569.35	3.819e-06	7.4938e-06	611.64	179.81	162.06	57.633	4.8412e-06	76.858	6.2382e-05	5.338e-05	1.4506e-05	1468.9	5.9394e-07	5.8393e-07	1474.2	479	6.1543e-07	5.7073e-07	504.17	149.4	133.41	47.243	6.0682e-07	62.514	203.679	18.194	-14.210	-33.866	159.012	101.474	-34.683	-30.542	108.972	75.737	-31.614	-27.180	-26.022	-21.949	48.775	-23.816	-8191	255	
44487.141	1	1	0	0	0.19736	0.064129	0.15829	0.34377	0.19647	0.12907	0.30193	0.16101	0.12699	0.038523	0.0091723	0.12925	0.24694	0.074502	0.25125	0.15662	-3.5812	-4.1312	-4.7917	-4.0375	-4.6562	-4.4083	-4.1083	-5.0062	-3.9708	-4.2438	-4.9167	-4.0875	-4.6604	-4.5396	-3.6729	-4.8	125.893	57.324	150.699	232.541	-48.056	307.146	251.551	-42.491	38.786	18.086	137.158	285.094	-33.770	82.255	179.982	-46.478	0.00023723	0.00042473	0.00010835	1719.1	4.273e-06	5.9511e-06	1732.7	568.22	5.1254e-06	5.8171e-06	614.18	180.27	163.04	58.028	5.0709e-06	77.414	6.0435e-05	5.4245e-05	1.4597e-05	1458.4	5.9991e-07	5.8463e-07	1468.9	478.03	6.1704e-07	5.8092e-07	505.61	149.93	134.12	47.493	6.0645e-07	62.752	179.480	6.383	0.430	-34.094	55.531	89.084	-34.642	-30.351	102.263	80.168	-31.752	-27.289	-26.169	-22.231	63.325	-23.627	-8191	255	
44487.238	1	1	0	0	0.12802	0.11388	0.32958	0.32381	0.048361	0.13629	0.27085	0.20765	0.070881	0.038362	0.30132	0.078612	0.078356	0.13888	0.04639	0.13294	-3.7771	-3.9958	-4.7854	-4.0542	-4.525	-4.5708	-4.1687	-4.9417	-4.1042	-4.1229	-4.8979	-3.9146	-4.4917	-4.7479	-3.7583	-4.8208	24.552	-29.174	231.364	274.816	9.650	301.524	202.000	264.009	147.440	50.601	307.748	205.916	271.998	222.057	263.759	221.261	0.00021253	0.00067198	0.00021016	1729.7	5.1346e-06	6.1607e-06	1738.8	572.56	4.2826e-06	5.6531e-06	621.83	181.41	164.36	58.531	3.3439e-06	78.505	6.2662e-05	5.325e-05	1.5096e-05	1466.9	5.7928e-07	5.8573e-07	1474.9	480.58	5.9796e-07	5.7685e-07	508.44	150.93	134.95	47.727	5.8935e-07	63.276	195.853	-8.232	12.309	-34.090	53.674	125.054	-34.520	-30.422	108.125	18.292	-31.454	-27.301	-26.145	-22.233	50.390	-23.610	-8191	255	
44487.309	1	1	0	0	0.11731	0.17846	0.045548	0.23436	0.17302	0.15297	0.20103	0.047384	0.096822	0.16361	0.26437	0.16218	0.26074	0.3065	0.19153	0.29556	-3.9688	-3.9521	-4.7021	-4.1625	-4.3042	-4.7063	-4.175	-4.8896	-4.4521	-3.8187	-5.025	-4.1646	-4.4	-4.7333	-3.8958	-4.7	287.007	-46.295	101.361	292.112	149.216	144.857	216.285	246.155	30.165	80.116	280.308	279.551	211.316	289.947	64.255	268.231	0.00023271	0.00037662	0.00017033	1743.3	3.4995e-06	6.3109e-06	1750.7	574.42	1.8833e-06	4.6758e-06	625.12	182.21	166.49	58.324	2.9304e-06	78.67	6.1781e-05	5.2653e-05	1.4547e-05	1476.6	6.16e-07	5.9706e-07	1487	483.83	6.029e-07	6.0591e-07	512.86	151.74	135.98	47.821	6.066e-07	63.589	193.825	64.132	-9.696	-33.944	110.539	93.656	-34.580	-30.442	122.617	86.240	-31.642	-27.344	-26.252	-21.906	110.333	-23.684	-8191	255	
44487.430	1	1	0	0	0.094129	0.1295	0.13032	0.28031	0.13717	0.042851	0.37311	0.15788	0.19691	0.049041	0.11243	0.15228	0.14651	0.087989	0.16686	0.15884	-4.125	-3.8875	-4.825	-4.4271	-4.1479	-4.6813	-4.0708	-4.9667	-4.4458	-3.9208	-5.0563	-4.3042	-4.2875	-4.7854	-3.7792	-4.6562	97.322	-33.236	59.665	289.510	35.404	54.631	264.938	276.647	-9.645	113.781	143.146	242.040	271.645	-20.856	-12.795	200.049	0.0002708	0.00050797	7.3353e-05	1758.5	3.8766e-06	7.8558e-06	1781.9	584.05	4.4171e-06	4.8977e-06	630.08	185.17	166.58	58.615	1.9726e-06	79.461	6.2495e-05	5.3381e-05	1.4788e-05	1490.3	6.1499e-07	5.8643e-07	1510.7	490.16	6.1417e-07	5.842e-07	517.7	153.74	137.13	48.234	5.8868e-07	64.039	196.730	31.827	-20.268	-33.822	102.476	57.804	-34.385	-30.484	112.698	56.567	-31.575	-27.394	-26.545	-21.862	105.171	-23.746	-8191	255	
44487.527	1	1	0	0	0.050732	0.22559	0.24304	0.20071	0.065349	0.014012	0.18069	0.25183	0.058105	0.1904	0.13114	0.29421	0.16047	0.26209	0.13076	0.28061	-4.2208	-4.1292	-4.6771	-4.3708	-4.0479	-4.7833	-4.2104	-4.4396	-4.4938	-3.7708	-4.8229	-4.3042	-4.175	-4.8729	-3.7771	-4.4792	109.341	225.224	-35.401	193.466	43.001	5.409	240.304	234.864	207.312	120.818	281.874	275.344	-3.142	306.815	82.886	280.392	0.00018517	0.00047945	0.00013416	1754.8	5.9203e-06	4.1447e-06	1770.9	577.1	5.127e-06	4.4613e-06	623.67	182.81	165.45	58.569	4.8136e-06	78.426	6.1988e-05	5.5092e-05	1.486e-05	1487.8	6.0454e-07	5.9721e-07	1498.6	485.37	6.1655e-07	5.8861e-07	513.59	152.25	136.21	47.96	5.9673e-07	63.613	180.336	22.327	-14.128	-34.078	81.785	88.177	-34.606	-30.626	75.214	12.628	-31.873	-27.285	-26.483	-21.819	72.747	-23.690	-8191	255	
44487.621	1	1	0	0	0.11862	0.20533	0.059065	0.26611	0.18433	0.12852	0.19653	0.33362	0.13395	0.09386	0.16963	0.25786	0.13531	0.1597	0.11533	0.18736	-4.3958	-3.7208	-4.6333	-4.6	-4.0271	-4.6729	-4.2875	-4.4146	-4.7229	-3.8771	-4.6	-4.5604	-3.9813	-4.8979	-4.1208	-4.3271	259.200	0.816	126.295	271.642	124.646	-40.442	254.166	237.397	65.291	-0.331	294.369	254.004	282.828	-24.023	132.351	240.460	0.00017472	0.00027884	0.0002376	1746.3	1.5571e-06	4.2377e-06	1754.7	576.51	5.1255e-06	6.695e-06	621.76	182.42	165.81	59.016	6.3688e-06	78	6.0666e-05	5.5652e-05	1.5195e-05	1484.3	6.0392e-07	5.7724e-07	1486.2	485.17	6.0695e-07	6.0423e-07	511.67	152.01	136.62	48.228	6.1901e-07	63.46	206.012	56.476	-19.930	-34.094	131.342	98.043	-34.513	-30.671	84.755	48.649	-31.819	-27.293	-26.573	-22.106	71.608	-23.592	-8191	255	
44487.719	1	1	0	0	0.019119	0.099346	0.10692	0.25819	0.16029	0.26148	0.10317	0.2728	0.11662	0.17569	0.29203	0.056652	0.25635	0.20797	0.19491	0.15744	-4.6062	-3.7479	-4.4458	-4.4542	-3.8271	-4.7292	-4.1771	-4.1729	-4.625	-3.8396	-4.6	-4.5833	-3.8	-4.9375	-4.1583	-4.1146	7.825	50.280	102.916	289.236	176.750	127.761	48.661	290.218	262.357	209.460	-14.413	99.985	242.734	13.181	286.212	300.327	0.00016731	0.00044617	9.498e-05	1756.3	5.6939e-06	4.6854e-06	1758.4	580.06	9.0877e-07	2.2208e-06	626.26	183.68	167.22	58.595	3.09e-06	78.789	6.3086e-05	5.3392e-05	1.5268e-05	1487.4	6.4771e-07	5.9533e-07	1490.9	488.29	6.2657e-07	5.9557e-07	515.28	152.63	137.19	48.051	6.1381e-07	63.633	197.627	13.946	309.293	-33.970	86.181	132.533	-34.418	-30.468	-40.817	89.101	-31.735	-27.418	-26.548	-21.815	60.678	-23.348	-8191	255	
44487.840	1	1	0	0	0.11413	0.16911	0.12425	0.056812	0.08185	0.02092	0.21811	0.16116	0.12745	0.11371	0.18294	0.094171	0.049291	0.023326	0.030649	0.19397	-4.3958	-3.8812	-4.1937	-4.7833	-3.8333	-4.6396	-4.5396	-4.2896	-4.8729	-3.9188	-4.5146	-4.8021	-4.0583	-4.5625	-4.1104	-3.9083	-46.523	154.783	-47.705	264.331	73.128	111.204	232.658	272.049	163.803	293.246	273.020	-33.656	213.726	34.027	0.980	-21.487	0.0001737	0.00038997	0.00023123	1756.5	4.3812e-06	4.0184e-06	1774.8	583.77	6.3339e-06	4.2178e-06	633.04	184.48	167.44	58.693	4.6636e-06	79.027	6.2343e-05	5.6826e-05	1.5433e-05	1495.3	6.4185e-07	6.1775e-07	1502.2	490.72	6.3794e-07	6.0407e-07	517.9	153.22	137.7	48.178	6.1935e-07	63.671	202.315	0.578	6.936	-33.844	35.426	97.921	-34.404	-30.587	79.994	89.524	-31.975	-27.310	-26.477	-21.926	86.560	-24.001	-8191	255	
44487.910	1	1	0	0	0.20487	0.067543	0.026192	0.038425	0.15257	0.0082346	0.35548	0.33788	0.24016	0.15	0.19572	0.28476	0.23058	0.046024	0.18245	0.1781	-4.3167	-3.9354	-4.3688	-4.9313	-3.9583	-4.475	-4.6292	-3.9208	-4.6562	-3.9208	-4.2958	-4.8604	-3.7792	-4.4979	-4.5167	-4.0542	-24.531	76.965	36.616	130.636	149.858	122.451	286.046	243.247	32.547	115.547	35.082	277.363	-19.356	286.074	214.654	274.798	0.00026799	0.00033282	0.00020558	1755.3	6.7399e-06	7.0229e-06	1764.4	581.14	3.282e-06	6.9011e-06	632.43	185.45	167.97	58.812	2.8393e-06	79.189	6.4237e-05	5.5667e-05	1.5856e-05	1493.3	6.5858e-07	6.0816e-07	1501.2	490.11	6.501e-07	6.0396e-07	517.97	153.98	137.93	48.313	6.0785e-07	64.176	198.007	1.816	37.417	-33.657	101.652	99.613	-34.564	-30.648	36.227	58.214	-31.976	-27.244	-26.193	-22.218	87.739	-23.505	-8191	255	
44488.008	1	1	0	0	0.19332	0.22087	0.030542	0.30001	0.1096	0.1802	0.088137	0.26747	0.18871	0.13537	0.34916	0.26271	0.23965	0.056802	0.12603	0.27545	-4.4729	-4.1125	-3.9875	-4.9437	-3.9792	-4.4583	-4.7542	-4.1271	-4.5458	-4.0875	-4.15	-4.8375	-3.8521	-4.4958	-4.4729	-3.825	-2.577	131.245	22.679	275.304	106.195	-19.259	278.176	299.046	255.917	298.922	255.071	-14.024	240.396	250.592	-39.044	310.072	0.00016597	0.00060629	0.00011058	1758.8	4.6767e-06	7.332e-06	1772	582.1	3.5117e-06	2.9552e-06	630.82	185.42	167.77	59.08	5.8058e-06	78.332	6.3163e-05	5.7814e-05	1.6061e-05	1496.8	6.2467e-07	6.0665e-07	1504.9	490.12	6.1957e-07	5.9024e-07	516.38	153.61	137.76	48.188	6.3639e-07	63.469	186.031	-14.534	10.727	-33.705	30.784	91.653	-34.330	-30.468	122.209	78.883	-32.287	-27.357	-26.568	-22.270	83.621	-23.752	-8191	255	
44488.102	1	1	0	0	0.19033	0.072046	0.30887	0.3141	0.08362	0.038604	0.11378	0.15568	0.11681	0.16814	0.084147	0.06023	0.25023	0.15705	0.23335	0.21962	-4.2438	-4.3104	-3.9354	-4.9792	-3.9	-4.2708	-4.9396	-4.1167	-4.5729	-4.4	-4.1167	-4.9542	-4.0646	-4.3562	-4.6479	-3.9083	-14.657	189.542	111.617	300.051	2.801	133.568	224.330	239.688	70.210	110.669	153.039	239.209	285.756	-3.088	87.778	305.346	0.00020589	0.00057466	0.00013532	1742.8	3.0845e-06	5.6469e-06	1731.2	573.63	3.9916e-06	6.1371e-06	613.99	182.05	165.32	58.074	2.9047e-06	77.185	6.2171e-05	5.6711e-05	1.5264e-05	1477.6	6.3891e-07	5.9744e-07	1469.9	482.16	6.2356e-07	6.0745e-07	504.16	150.44	135.46	47.42	6.0437e-07	62.431	195.380	21.268	-15.413	-33.906	127.467	74.138	-34.497	-30.608	114.046	24.665	-32.089	-27.473	-26.704	-22.445	89.063	-23.942	-8191	255	
44488.223	1	1	0	0	0.073058	0.13721	0.17382	0.17046	0.23136	0.12245	0.21459	0.35006	0.21125	0.21196	0.32443	0.20272	0.11663	0.097048	0.10273	0.20034	-4.3375	-4.4021	-3.8021	-4.9458	-4.2125	-4.1708	-4.9292	-4.1188	-4.4771	-4.5979	-3.9938	-4.8896	-4.225	-4.1375	-4.9062	-3.8563	228.894	14.630	85.839	-36.633	51.707	113.658	-17.263	279.993	-8.003	248.908	294.334	188.343	21.262	14.444	197.691	262.891	0.00018486	0.00072994	0.0003118	1719	1.6237e-06	3.1261e-06	1716.2	570.21	6.8339e-06	5.1191e-06	610.47	180.18	164.85	57.822	3.5258e-06	76.715	6.15e-05	5.7047e-05	1.5273e-05	1459.9	6.1342e-07	5.7785e-07	1454.7	478.76	6.2036e-07	5.9711e-07	501.17	149.35	135.13	47.187	6.0718e-07	61.942	190.507	8.873	6.663	-34.026	104.094	55.225	-34.476	-30.599	174.195	61.175	-31.749	-27.384	-26.388	-22.112	-2.299	-23.579	-8191	255	
44488.320	1	1	0	0	0.069878	0.097702	0.095849	0.42587	0.072067	0.09364	0.23403	0.26318	0.10611	0.079828	0.20808	0.35586	0.11975	0.21843	0.18471	0.23469	-4.1625	-4.6292	-3.6625	-4.7521	-4.2104	-4.0042	-4.7812	-4.1708	-4.5104	-4.5604	-3.8458	-4.8625	-4.4333	-4.0521	-4.7083	-4.1438	-16.137	-33.754	245.288	275.962	73.929	63.350	261.052	280.235	7.355	193.908	204.620	301.647	279.569	266.236	243.943	254.851	0.00023654	0.00056212	0.0001281	1720.7	5.3858e-06	3.9346e-06	1708.4	567.42	5.2235e-06	3.2719e-06	611.15	179.33	164.59	57.524	6.9655e-06	77.339	6.1652e-05	5.5004e-05	1.5288e-05	1460.2	6.3449e-07	6.1359e-07	1450.7	478.18	6.0585e-07	5.888e-07	500.7	149.36	135.09	47.258	6.3194e-07	62.412	191.875	10.005	16.484	-34.040	101.158	128.481	-34.577	-30.363	74.275	32.779	-31.950	-27.636	-26.615	-22.222	61.626	-24.132	-8191	255	
44488.414	1	1	0	0	0.15987	0.062033	0.020577	0.15667	0.11364	0.16321	0.10695	0.035124	0.18051	0.053306	0.22519	0.25511	0.18425	0.062166	0.12301	0.094236	-4.0229	-4.5792	-3.8458	-4.6771	-4.2521	-3.9021	-5.0563	-4.2458	-4.1583	-4.6937	-3.9625	-4.6875	-4.6021	-4.3104	-4.8354	-4.0917	284.641	206.598	147.791	210.719	62.842	126.936	177.387	289.576	273.221	-0.146	175.028	268.929	-21.473	155.738	202.118	188.150	0.00021541	0.00055412	0.00013169	1723.8	3.3843e-06	5.6719e-06	1728.7	571.77	8.2513e-06	6.5232e-06	616.24	181.04	164.18	57.946	1.2856e-06	77.859	6.313e-05	5.5073e-05	1.5437e-05	1460.7	6.185e-07	5.9626e-07	1463	479.93	5.9784e-07	5.7853e-07	506.21	150.45	135.32	47.561	5.7703e-07	62.965	206.713	19.193	-10.027	-33.819	126.361	72.895	-34.612	-30.599	53.274	72.670	-31.638	-27.572	-26.335	-22.111	-1.272	-23.601	-8191	255	
44488.512	1	1	0	0	0.020183	0.12413	0.17165	0.20124	0.2794	0.21298	0.1829	0.028297	0.044538	0.10715	0.20426	0.21498	0.12644	0.022743	0.11774	0.12712	-3.975	-4.8917	-3.9083	-4.6521	-4.4833	-3.8208	-4.9729	-4.4083	-3.9979	-4.925	-4.0563	-4.5125	-4.5729	-4.0292	-4.7479	-4.2063	118.178	-25.720	98.700	269.398	6.386	135.050	275.670	222.323	42.095	293.227	288.815	248.171	274.907	-9.741	156.555	231.215	0.00017677	0.00057236	0.00017435	1735.2	2.3088e-06	9.405e-06	1738.8	573.21	2.5981e-06	3.8652e-06	624.36	183.31	165.27	58.456	6.1719e-06	77.663	6.2712e-05	5.3936e-05	1.5035e-05	1473	6.061e-07	6.0939e-07	1478.2	483.68	6.207e-07	5.8002e-07	510.04	151.88	135.92	47.803	5.9731e-07	63.049	192.627	5.162	45.275	-34.102	59.438	91.054	-34.342	-30.863	147.001	53.843	-31.883	-27.480	-26.248	-22.319	49.754	-23.678	-8191	255	
44488.605	1	1	0	0	0.1583	0.11969	0.14478	0.28748	0.24512	0.070143	0.15341	0.056866	0.2416	0.21315	0.11088	0.31597	0.16662	0.1551	0.10248	0.22211	-3.5083	-4.8354	-3.9875	-4.5958	-4.5646	-3.8312	-4.8313	-4.4479	-3.8458	-4.7625	-4.0938	-4.3396	-4.6562	-3.8312	-4.3917	-4.5042	-47.153	289.789	231.533	233.365	280.923	194.767	230.359	258.035	307.949	170.788	18.425	243.923	266.179	287.488	146.591	204.691	9.2474e-05	0.00038757	9.9711e-05	1732.2	3.5819e-06	6.3579e-06	1728.6	572.71	6.336e-06	4.5619e-06	612.44	179.52	164.12	57.492	1.2152e-06	77.077	6.1874e-05	5.5111e-05	1.5275e-05	1469.1	6.2013e-07	6.0336e-07	1469.5	481.32	6.1899e-07	5.7607e-07	503.85	149.68	134.82	47.16	5.8458e-07	62.223	201.959	-4.479	-14.649	-34.076	1.518	92.894	-34.616	-30.535	120.710	78.220	-31.694	-27.557	-26.148	-21.914	94.042	-23.465	-8191	255	
44488.703	1	1	0	0	0.16282	0.091528	0.14205	0.15745	0.090788	0.095355	0.11426	0.14202	0.14276	0.03192	0.30602	0.37	0.16053	0.24853	0.12699	0.16671	-3.6312	-4.6229	-3.7917	-4.4229	-4.6917	-3.8104	-4.9083	-4.7729	-3.9	-4.7625	-4.3063	-4.2167	-4.9417	-3.95	-4.5	-4.5896	-0.827	-37.196	203.914	282.490	25.779	262.030	270.968	310.618	256.806	300.072	-45.806	278.243	228.816	-41.203	236.097	118.143	0.00020275	0.00049947	0.00022404	1700.4	2.7858e-06	3.6442e-06	1697.4	562.32	5.3822e-06	2.7754e-06	605.05	178.12	162.73	56.894	7.6131e-06	76.004	6.1855e-05	5.3254e-05	1.5008e-05	1442	6.2176e-07	5.9198e-07	1440	473.5	6.1772e-07	5.766e-07	495.6	148.13	133.79	46.624	5.8166e-07	61.554	177.368	6.876	-19.108	-34.150	125.030	85.059	-34.529	-30.514	106.998	42.196	-32.001	-27.780	-26.472	-22.267	55.665	-23.360	-8191	255	
44488.820	1	1	0	0	0.17545	0.12979	0.17477	0.16093	0.065345	0.23777	0.083079	0.12761	0.25036	0.15237	0.23897	0.12622	0.16472	0.18085	0.3355	0.20751	-3.5687	-4.7167	-4.0917	-4.3938	-4.8313	-3.8896	-4.6687	-4.7167	-3.7687	-4.6562	-4.2792	-4.1583	-4.9146	-3.9854	-4.2396	-4.825	-23.351	9.584	165.817	266.517	-35.051	94.502	218.053	288.516	-11.444	274.657	308.197	151.070	293.611	281.730	9.193	206.978	0.00019898	0.00033584	0.0002363	1702.8	7.8486e-06	4.7876e-06	1700.4	565.28	5.1446e-06	5.5458e-06	605.84	178.14	162.4	57.244	4.9272e-06	76.127	6.2998e-05	5.3759e-05	1.5202e-05	1442.2	5.9216e-07	5.9629e-07	1441.9	474.23	6.13e-07	5.7116e-07	497.49	148.22	133.6	46.869	6.1308e-07	61.743	185.629	15.390	26.031	-33.975	74.151	29.332	-34.605	-30.559	122.605	15.154	-31.992	-27.719	-26.178	-22.448	67.756	-23.587	-8191	255	
44488.918	1	1	0	0	0.091076	0.12576	0.1932	0.26477	0.037541	0.17492	0.18512	0.2512	0.20142	0.21835	0.32749	0.16986	0.16939	0.044656	0.066835	0.19978	-3.525	-4.8146	-4.1396	-4.1667	-4.7375	-4.0854	-4.4833	-4.6687	-3.7146	-4.5354	-4.5625	-4.0521	-5.0083	-4.1521	-4.1937	-4.8667	128.630	275.128	17.175	305.072	50.226	257.811	232.115	304.627	290.358	219.273	279.102	-46.179	269.960	-8.551	137.413	-31.648	0.00017719	0.00028524	0.0001339	1714.2	4.5612e-06	8.2395e-06	1710.3	565.83	4.4095e-06	5.3846e-06	611.91	179.05	163.67	57.398	4.277e-06	77.071	6.1539e-05	5.3646e-05	1.4984e-05	1451.9	6.2086e-07	5.8969e-07	1451.4	476.99	6.2143e-07	6.0054e-07	502.45	149.3	134.44	47.074	6.0559e-07	62.419	192.748	16.346	14.800	-34.194	127.184	92.457	-34.692	-30.347	72.895	30.501	-31.544	-27.444	-26.225	-21.749	57.844	-23.502	-8191	255	
44489.016	1	1	0	0	0.15281	0.15165	0.20641	0.16678	0.11901	0.039797	0.37018	0.11492	0.16897	0.22888	0.12394	0.21552	0.18049	0.20603	0.1428	0.069932	-3.4188	-4.4708	-4.3896	-4.0583	-4.6521	-4.0813	-4.3021	-4.9604	-3.85	-4.5021	-4.5333	-3.9875	-5.1167	-4.3958	-4.0792	-4.9313	120.315	239.543	150.114	49.205	175.226	150.294	242.142	213.983	185.873	-40.520	273.797	245.923	172.071	-14.485	310.591	91.160	0.00020515	0.00044543	0.00010185	1711.9	6.3082e-06	7.1517e-06	1727	569.51	1.5097e-06	1.6806e-06	617.91	181.35	164.69	58.001	4.671e-06	77.759	6.1461e-05	5.4885e-05	1.5331e-05	1457.6	6.3223e-07	5.9414e-07	1464.3	480.23	6.2002e-07	5.769e-07	507.46	150.87	135.3	47.417	6.1076e-07	62.966	189.668	22.496	308.187	-34.104	39.631	78.300	-34.532	-30.544	66.927	66.351	-31.941	-27.395	-26.489	-22.352	38.225	-23.526	-8191	255	
44489.109	1	1	0	0	0.18366	0.090925	0.073539	0.25895	0.14504	0.30183	0.24891	0.22675	0.18037	0.041697	0.22658	0.28343	0.055549	0.13424	0.097299	0.2548	-3.5479	-4.4833	-4.5292	-4.0708	-4.7271	-4.2042	-4.2604	-5.0292	-4.0208	-4.3792	-4.7812	-3.8542	-4.8646	-4.4062	-3.8604	-4.9458	231.693	277.796	66.479	223.950	125.839	35.262	232.664	255.296	80.553	-36.183	277.779	280.581	162.795	7.719	250.664	237.209	0.00017777	0.00038006	8.356e-05	1732.2	5.1116e-06	2.4719e-06	1739.6	573.13	3.0892e-06	4.16e-06	618.01	180.97	163.71	58.222	2.7534e-06	77.928	6.3078e-05	5.3951e-05	1.5317e-05	1466.2	6.0574e-07	5.7721e-07	1478	481.78	6.2025e-07	5.7623e-07	508.39	150.96	134.89	47.584	6.1045e-07	62.943	174.699	19.763	15.774	-33.966	101.443	114.866	-34.599	-30.536	89.272	40.498	-31.548	-27.490	-26.247	-21.978	31.412	-23.502	-8191	255	
44489.207	1	1	0	0	0.10166	0.072371	0.20169	0.2667	0.14906	0.33439	0.10957	0.13078	0.063902	0.12201	0.066629	0.16091	0.17984	0.14996	0.17439	0.15712	-3.7729	-4.2229	-4.7083	-3.9083	-4.6146	-4.4146	-4.0646	-4.9396	-3.9792	-4.1438	-4.7458	-3.9	-4.6958	-4.5792	-3.8479	-4.8917	126.613	121.364	289.985	306.213	271.427	-13.850	217.744	1.383	304.539	105.394	192.490	255.661	288.686	221.676	4.952	263.238	0.00019729	0.00018641	5.9977e-05	1700	1.5816e-06	2.9172e-06	1707.6	565.53	7.0926e-06	2.7459e-06	610.14	178.86	160.88	57.548	4.2314e-06	76.542	6.1857e-05	5.2841e-05	1.4875e-05	1445.4	6.0068e-07	5.7838e-07	1449.2	474.91	6.2086e-07	5.7249e-07	499.94	148.79	132.6	47.039	6.0132e-07	62.219	196.130	-0.662	32.096	-34.369	115.739	121.274	-34.757	-30.419	127.107	90.014	-31.785	-27.570	-26.244	-22.019	83.687	-23.171	-8191	255	
44489.305	1	1	0	0	0.093924	0.16025	0.068867	0.33661	0.32267	0.17549	0.21671	0.095539	0.094136	0.086222	0.32896	0.2274	0.26111	0.42331	0.16469	0.15397	-3.8	-4	-4.7688	-3.9208	-4.425	-4.4667	-3.9229	-4.8458	-4.1604	-4.0458	-4.7833	-3.9625	-4.3833	-4.5292	-3.7729	-4.8729	260.936	69.712	233.284	276.605	-26.297	55.636	250.972	150.319	-4.753	185.870	277.272	240.227	201.865	310.951	204.682	196.375	0.00018948	0.00048118	0.00018744	1697	3.6128e-06	4.0574e-06	1707.2	557.32	2.948e-06	5.7203e-06	605.88	179.45	160.81	57.239	4.7363e-06	77.379	6.1607e-05	5.5805e-05	1.5395e-05	1435	6.1308e-07	5.8208e-07	1442.2	470.13	6.1021e-07	5.8723e-07	497.86	148.28	132.14	46.964	5.7728e-07	62.463	189.589	9.501	-4.385	-34.163	89.936	12.056	-34.776	-30.490	107.231	95.855	-31.876	-27.353	-26.524	-21.853	87.413	-23.825	-8191	255	
44489.398	1	1	0	0	0.36323	0.21257	0.15924	0.26347	0.16941	0.071914	0.25429	0.30753	0.098169	0.14524	0.16614	0.092225	0.26033	0.18945	0.12081	0.10662	-3.9167	-4.0146	-4.7479	-3.9292	-4.1479	-4.4833	-3.9646	-4.8354	-4.3229	-3.9667	-4.8812	-4.0396	-4.3208	-4.6958	-3.8333	-4.6292	90.413	26.354	-47.275	275.895	281.239	-37.677	214.338	251.922	267.039	5.562	239.851	238.674	272.762	-30.316	114.234	218.150	0.00018656	0.00051177	0.00013437	1711.2	4.0262e-06	3.1349e-06	1715.4	564.43	6.893e-06	1.3943e-06	613.1	180.52	163.03	57.592	6.8942e-06	77.616	5.9758e-05	5.322e-05	1.4738e-05	1447.1	6.0568e-07	5.7468e-07	1455.1	475.81	5.9311e-07	5.799e-07	502.73	150.25	134.02	47.138	6.1002e-07	62.62	205.589	5.968	-1.157	-34.154	83.098	39.898	-34.713	-30.597	116.400	31.419	-32.267	-27.525	-26.090	-22.284	55.539	-23.736	-8191	255	
44489.520	1	1	0	0	0.12216	0.024962	0.10366	0.20868	0.14483	0.088851	0.1861	0.15874	0.089539	0.10716	0.19202	0.08448	0.17618	0.13207	0.1005	0.024754	-4.0396	-3.8688	-4.8125	-4.2042	-4.1542	-4.7479	-4.225	-4.7354	-4.4854	-4.0792	-4.9708	-4.2729	-4.1813	-4.8646	-3.8604	-4.6104	283.830	242.904	-33.208	174.230	46.440	53.230	279.147	295.659	67.190	305.566	237.532	4.857	-7.032	-23.203	300.274	202.515	0.00019438	0.00043038	0.00022709	1730.4	4.4308e-06	4.3801e-06	1735.1	572.17	1.9985e-06	5.3732e-06	619.63	181.22	164.8	58.194	6.0476e-06	77.796	6.1716e-05	5.5337e-05	1.4661e-05	1462.7	6.2417e-07	5.8472e-07	1470.8	481.22	6.0853e-07	5.9672e-07	508.04	151.14	135.16	47.532	6.1896e-07	63.08	200.580	-25.107	-5.635	-33.932	103.166	113.047	-34.516	-30.679	150.835	102.396	-31.872	-27.416	-26.305	-22.350	49.942	-23.588	-8191	255	
44489.613	1	1	0	0	0.11993	0.10473	0.15764	0.16553	0.11369	0.19677	0.20274	0.31537	0.22871	0.063696	0.18532	0.10312	0.15553	0.12674	0.1084	0.1475	-4.4333	-3.9333	-4.6708	-4.4271	-4.0604	-4.7375	-4.2167	-4.5708	-4.6667	-3.8625	-4.8417	-4.2479	-4.1958	-4.9688	-3.9042	-4.3417	134.074	244.036	-34.126	270.720	-40.399	-3.115	240.291	235.840	-0.851	33.717	82.649	71.155	259.582	209.523	9.471	141.696	0.00015215	0.00068147	0.00018362	1728.1	5.272e-06	3.1726e-06	1748.2	578.17	6.5297e-06	5.1841e-06	626.43	184.85	165.87	58.087	4.5349e-06	78.717	6.2722e-05	5.5609e-05	1.4526e-05	1469.7	6.2188e-07	5.8944e-07	1483.2	485.54	6.2653e-07	5.9154e-07	513.62	153.03	136.45	47.782	6.2073e-07	63.516	190.074	10.016	-1.272	-34.129	62.559	77.763	-34.491	-30.389	89.059	69.573	-32.036	-26.998	-26.269	-22.316	89.418	-23.452	-8191	255	
44489.711	1	1	0	0	0.18741	0.12787	0.16576	0.19197	0.26719	0.16292	0.38499	0.35853	0.23898	0.098587	0.14544	0.075501	0.22083	0.2612	0.19266	0.16062	-4.325	-3.6146	-4.5583	-4.7021	-3.9042	-4.9042	-4.2354	-4.3417	-4.6542	-3.7896	-4.7771	-4.4187	-3.8625	-4.9667	-3.9792	-4.1104	67.907	-34.568	224.980	248.313	281.295	185.878	228.268	250.974	8.872	-46.707	224.157	133.225	278.513	258.086	67.792	245.260	0.00016783	0.00016515	0.00024543	1752.1	3.87e-06	2.4716e-06	1752.5	578.31	8.9018e-07	7.6846e-06	621.46	182.42	165.01	58.262	1.2548e-06	77.762	6.3776e-05	5.5684e-05	1.5234e-05	1484.5	6.185e-07	5.8313e-07	1488.4	485.27	6.0974e-07	5.8151e-07	510.38	151.84	135.39	47.51	6.1659e-07	62.905	196.930	310.819	15.289	-34.011	61.039	14.661	-34.572	-30.585	153.576	49.665	-31.637	-27.584	-26.632	-22.147	73.987	-23.709	-8191	255	
44489.785	1	1	0	0	0.14434	0.12871	0.031257	0.24677	0.14454	0.061571	0.10032	0.17867	0.071994	0.28188	0.26226	0.11858	0.12951	0.1354	0.099085	0.17369	-4.2438	-3.8021	-4.4333	-4.6646	-3.9042	-4.7354	-4.4167	-4.0479	-4.7583	-3.8187	-4.4771	-4.7292	-4.0563	-4.8979	-4.1646	-4.1438	290.501	82.330	112.932	297.509	140.026	110.402	-38.985	220.551	6.262	79.604	256.257	9.216	232.100	-16.295	219.936	-41.058	0.00021778	0.00061211	0.00015444	1718.2	5.474e-06	7.8599e-07	1724	570.83	3.748e-06	2.9362e-06	620.3	180.35	164.5	58.028	5.0018e-06	77.622	6.3061e-05	5.2791e-05	1.428e-05	1461.5	6.1392e-07	5.8457e-07	1461.5	479.63	6.0529e-07	5.8539e-07	507.96	150.9	134.95	47.49	6.0496e-07	62.699	181.543	-1.072	-1.862	-33.986	28.114	162.182	-34.648	-30.895	88.878	96.483	-31.569	-27.373	-26.426	-22.154	39.252	-24.095	-8191	255	
44489.902	1	1	0	0	0.068717	0.20244	0.046877	0.089288	0.13472	0.076732	0.030709	0.30208	0.11188	0.1725	0.26068	0.13648	0.21107	0.20615	0.088358	0.15908	-4.4833	-3.6875	-4.3667	-4.6896	-3.7125	-4.6896	-4.5708	-4.075	-4.75	-3.9229	-4.5146	-4.775	-3.9875	-4.7083	-4.4	-4.0292	267.587	157.721	44.320	0.881	219.585	-19.848	216.089	232.221	187.728	61.691	242.694	245.209	299.542	258.313	163.380	-20.094	0.000195	0.00015362	0.00022951	1717.3	6.9472e-06	7.2693e-06	1732.7	572.6	5.3789e-06	3.9786e-06	619.64	181.83	164.52	58.179	3.9044e-06	78.086	6.0434e-05	5.2611e-05	1.4791e-05	1461.4	6.0864e-07	5.8134e-07	1468.6	481.2	5.8934e-07	5.9442e-07	509.09	151.31	134.96	47.614	6.0743e-07	63.24	184.995	-46.352	-29.446	-33.982	92.010	60.004	-34.279	-30.562	75.405	59.547	-31.632	-27.522	-26.577	-22.104	77.958	-23.573	-8191	255	
44490.000	1	1	0	0	0.12683	0.11721	0.12074	0.4003	0.10495	0.044277	0.1662	0.19598	0.055603	0.15946	0.32852	0.29756	0.39028	0.14827	0.14903	0.18334	-4.4333	-3.8479	-4.2042	-5.0229	-3.7833	-4.5062	-4.5979	-4.0292	-4.8021	-4.1312	-4.2438	-4.9229	-3.9125	-4.7104	-4.4854	-3.8958	202.561	284.917	138.557	268.837	254.267	116.376	283.144	249.814	216.049	167.836	234.270	222.594	264.779	299.488	23.206	244.191	0.00023242	0.00059841	6.6127e-05	1720.6	4.9894e-06	7.9774e-06	1742.5	571.7	4.3522e-06	5.5549e-06	621.64	182.02	165.9	58.069	2.9609e-06	78.848	6.0853e-05	5.376e-05	1.4771e-05	1461.3	6.0368e-07	5.8775e-07	1474.7	481.77	6.2068e-07	6.0914e-07	511.33	152.19	136.02	47.788	6.1376e-07	63.586	199.921	-4.089	270.761	-34.121	102.644	60.268	-34.253	-30.513	122.955	58.084	-31.789	-27.327	-26.291	-21.855	93.479	-23.459	-8191	255	
44490.094	1	1	0	0	0.16777	0.12057	0.055201	0.13112	0.15031	0.18168	0.43601	0.072545	0.19958	0.20077	0.069165	0.092288	0.22044	0.03372	0.08648	0.20507	-4.4875	-4.0354	-3.8354	-4.9146	-3.9437	-4.4	-4.7937	-4.1042	-4.6979	-4.2375	-4.2979	-4.8271	-3.95	-4.4604	-4.6021	-3.9125	184.988	142.234	98.202	286.734	299.450	-44.244	262.820	48.604	-14.783	89.218	-2.720	205.389	261.889	111.230	203.185	285.044	0.00020224	0.00048743	0.00013837	1744.3	4.8437e-06	2.996e-06	1769.7	581	3.8276e-06	4.1492e-06	628.91	184.73	166	58.752	5.362e-06	79.196	6.0073e-05	5.4258e-05	1.5163e-05	1484.6	6.372e-07	6.0428e-07	1498.8	488.05	6.315e-07	6.0068e-07	517.28	153.67	137.12	48.187	6.2791e-07	63.966	197.100	7.468	13.014	-33.779	67.066	96.938	-34.230	-30.628	57.644	82.072	-31.711	-27.459	-26.397	-22.122	68.558	-23.627	-8191	255	
44490.191	1	1	0	0	0.18882	0.10903	0.1236	0.055984	0.13537	0.12708	0.20279	0.33071	0.12481	0.055989	0.19452	0.22498	0.22922	0.19389	0.13435	0.40343	-4.3042	-4.2188	-3.7771	-4.9313	-3.9125	-4.1729	-4.8146	-3.9354	-4.6021	-4.2667	-4.1875	-4.8	-4.0979	-4.3187	-4.6146	-3.8208	239.035	135.518	266.666	-4.581	204.600	143.448	254.380	263.833	294.732	209.787	274.703	290.415	112.535	212.147	32.693	161.211	0.00019962	0.00041872	7.9214e-05	1755.5	5.9834e-06	5.8259e-06	1771	581.04	1.5694e-06	5.0264e-06	631.63	184.8	167.66	59.131	4.6937e-06	79.02	6.254e-05	5.5932e-05	1.5663e-05	1488.9	6.4853e-07	6.1233e-07	1499.1	488.03	6.4601e-07	6.1601e-07	518.26	153.94	137.79	48.587	6.3469e-07	63.858	202.699	-0.785	33.603	-34.028	84.871	67.194	-34.400	-30.528	109.646	101.164	-32.272	-28.064	-26.483	-22.132	69.243	-23.903	-8191	255	
44490.312	1	1	0	0	0.076038	0.10309	0.26966	0.085632	0.2552	0.1989	0.26606	0.21049	0.090732	0.037314	0.043183	0.086598	0.015176	0.082083	0.04461	0.14359	-4.1083	-4.3854	-3.8063	-5.0188	-4.0687	-4.1854	-4.9979	-4.0333	-4.4437	-4.7354	-4.0458	-4.8479	-4.3729	-4.1229	-4.7479	-3.7854	230.820	49.737	66.991	286.377	150.304	174.167	257.188	251.680	45.211	149.932	-43.195	96.577	224.091	158.055	117.191	266.994	0.00018817	0.00067989	0.00017356	1736.1	3.0191e-06	6.5041e-06	1740.7	577.13	4.4848e-06	4.349e-06	630.82	185.62	172.05	59.18	3.1817e-06	77.56	6.5762e-05	5.8457e-05	1.6241e-05	1473.1	6.6702e-07	6.5206e-07	1480.9	485.76	6.6472e-07	6.4705e-07	519.33	154.91	142.1	48.68	6.8917e-07	62.561	194.936	-16.061	12.417	-34.125	89.746	92.462	-34.210	-30.795	149.381	62.898	-31.887	-27.704	-27.145	-22.556	123.891	-23.870	-8191	255	
44490.406	1	1	0	0	0.20096	0.17804	0.017679	0.3015	0.19066	0.16238	0.20218	0.22181	0.23965	0.017857	0.24815	0.015342	0.26687	0.15807	0.22804	0.12778	-4.0604	-4.5958	-3.7062	-4.9313	-4.0167	-3.925	-4.9938	-4.1	-4.2812	-4.6875	-3.9917	-4.7792	-4.3792	-4.1375	-4.5729	-4.0375	267.063	95.078	154.766	260.626	62.360	258.716	287.936	262.117	51.143	236.325	304.403	187.711	280.341	232.419	229.821	-45.001	0.00016413	0.00055986	0.0001511	1805.8	4.3466e-06	6.6368e-06	1784.8	616.1	5.7544e-06	6.072e-06	634.36	186.31	179.24	59.571	2.4684e-06	74.302	7.2638e-05	6.8074e-05	1.8852e-05	1532.1	7.7206e-07	7.5672e-07	1520.3	517.05	8.968e-07	9.0525e-07	523.44	155.67	147.66	48.99	9.2009e-07	60.562	196.663	28.856	50.971	-34.310	55.388	94.742	-34.280	-30.632	103.385	67.418	-31.732	-27.848	-26.984	-22.852	61.830	-24.158	-8191	255	
44490.504	1	1	0	0	0.13985	0.17751	0.039011	0.33252	0.17104	0.11969	0.19578	0.14159	0.11891	0.090867	0.15679	0.20566	0.10788	0.27907	0.066829	0.11732	-3.9458	-4.6521	-3.8542	-4.7104	-4.3625	-3.9479	-5.0021	-4.2729	-4.1292	-4.6771	-3.8146	-4.6562	-4.3938	-3.9708	-4.6542	-4.1667	150.654	235.590	242.978	308.989	156.166	223.565	206.371	298.080	160.697	241.116	298.954	265.722	55.312	239.220	2.672	306.966	0.00019302	0.00028814	0.0003533	1794.7	4.6867e-06	1.6677e-06	1726.2	591.98	2.851e-06	3.8884e-06	619.82	186.97	174.06	60.525	1.9737e-06	77.756	9.0988e-05	8.2278e-05	2.2375e-05	1524.6	8.5942e-07	8.2721e-07	1467.3	498.26	8.031e-07	7.5727e-07	508.75	155.33	143.12	49.55	7.8806e-07	62.845	185.641	38.669	3.667	-34.330	64.521	159.365	-34.660	-30.542	153.365	64.794	-32.232	-27.861	-26.449	-22.222	8.527	-23.801	-8191	255	
44490.602	1	1	0	0	0.21198	0.2152	0.14844	0.3707	0.060621	0.12167	0.15427	0.26467	0.14295	0.40096	0.19937	0.19563	0.091814	0.19774	0.13266	0.2307	-3.8521	-4.7458	-3.8125	-4.6479	-4.475	-3.8187	-4.9417	-4.2937	-4.0229	-4.8646	-3.9729	-4.5563	-4.6625	-3.8417	-4.5896	-4.3854	270.764	157.096	2.145	286.858	54.424	237.950	179.945	217.371	24.147	292.185	157.089	125.693	134.717	-47.820	-35.401	215.679	9.9741e-05	0.00050743	0.00025424	1795.8	4.8886e-06	4.9306e-06	1777	620.49	1.6103e-06	3.6798e-06	647.86	196.11	184.29	62.717	3.8377e-06	80.072	7.9548e-05	7.1773e-05	2.062e-05	1526.6	8.7547e-07	8.4597e-07	1514.3	522.46	8.9194e-07	8.7474e-07	532.86	163.55	152	51.826	8.6911e-07	64.59	194.333	-9.677	4.043	-34.060	47.754	62.328	-34.609	-30.599	113.579	110.409	-32.322	-27.892	-26.624	-22.867	11.542	-24.446	-8191	255	
44490.695	1	1	0	0	0.086572	0.17601	0.12128	0.038647	0.10606	0.24927	0.23753	0.24534	0.078445	0.040567	0.061976	0.21238	0.12664	0.05151	0.15866	0.20385	-3.7375	-4.7063	-3.7417	-4.4812	-4.6708	-3.7354	-4.8083	-4.4938	-3.95	-4.7458	-4.1021	-4.2229	-4.9458	-3.8583	-4.65	-4.5104	109.088	125.230	248.549	-38.682	100.032	239.045	257.112	272.498	-6.388	-33.255	26.603	-8.043	68.876	10.371	211.465	144.172	0.00024507	0.00033762	0.00016491	1781.4	5.6912e-06	1.9807e-06	1763.7	606.49	1.8508e-06	5.3327e-06	641.25	196.58	182.85	63.572	6.6538e-06	80.273	8.5744e-05	7.8482e-05	2.2092e-05	1518	8.5976e-07	8.6037e-07	1491.5	512.33	8.6407e-07	8.3413e-07	528.14	162.61	150.7	51.974	9.0121e-07	65.239	206.081	5.398	307.870	-34.094	93.691	272.385	-34.651	-30.713	104.652	62.634	-31.808	-28.015	-26.634	-23.094	96.096	-24.091	-8191	255	
44490.789	1	1	0	0	0.19152	0.069285	0.066391	0.29767	0.17473	0.14577	0.287	0.31342	0.14033	0.31294	0.38329	0.0054746	0.17636	0.083063	0.19901	0.1119	-3.4062	-4.6542	-3.9313	-4.2812	-4.6542	-3.8375	-4.5687	-4.6521	-3.8063	-4.9187	-4.2208	-3.9	-4.9104	-3.9979	-4.4229	-4.4854	171.502	148.396	114.360	267.230	242.442	293.856	229.230	242.366	64.853	217.110	-31.671	47.417	293.634	174.844	289.367	128.107	0.00017374	0.00029559	0.00027369	1806.7	7.727e-06	8.2074e-06	1785.4	620.44	2.4269e-06	4.2442e-06	645.79	196.25	182.69	62.953	3.1661e-06	80.304	8.9992e-05	8.0403e-05	2.3712e-05	1538.3	9.2047e-07	9.2086e-07	1514.8	521.66	9.1667e-07	9.063e-07	533.18	163.44	151.16	51.794	8.7081e-07	65.156	204.531	9.373	-4.472	-33.896	76.697	92.572	-34.810	-30.692	118.160	40.205	-31.795	-27.743	-27.046	-22.883	-14.334	-24.127	-8191	255	
44490.910	1	1	0	0	0.052546	0.1682	0.10325	0.13149	0.098547	0.11073	0.43598	0.11522	0.095161	0.14185	0.40814	0.20968	0.1728	0.067909	0.15583	0.076923	-3.5479	-4.6646	-4.1604	-4.1729	-4.8167	-3.7896	-4.4	-4.7875	-3.8583	-4.6937	-4.2083	-4.0458	-4.8729	-4	-4.225	-4.6521	298.045	131.478	-5.275	-10.122	-41.496	58.687	253.208	-40.592	131.461	227.713	243.570	-34.226	259.019	147.712	151.448	263.512	0.00013151	0.00041404	0.00027366	1796.4	6.1619e-06	6.1837e-06	1761.6	609.42	2.5649e-06	3.061e-06	637.98	195.26	182.24	63.058	5.3586e-06	80.065	9.0765e-05	8.07e-05	2.2365e-05	1529.5	8.9616e-07	8.6956e-07	1504.3	514.74	8.9567e-07	8.6296e-07	527.92	162.89	150.19	51.844	8.8362e-07	65.266	187.437	1.120	33.545	-34.086	98.169	105.478	-34.502	-30.643	118.990	86.120	-32.256	-28.279	-26.938	-22.624	70.049	-23.861	-8191	255	
44491.008	1	1	0	0	0.059563	0.30953	0.13861	0.38696	0.16151	0.13192	0.24207	0.1753	0.018539	0.054066	0.12795	0.27412	0.22105	0.071891	0.094077	0.19293	-3.4562	-4.7271	-4.4	-4.1604	-4.7083	-4.1083	-4.4708	-4.8375	-3.7687	-4.6062	-4.5021	-3.9146	-4.8958	-4.1146	-4.0625	-4.7729	-10.318	254.138	195.960	239.037	61.104	-14.614	223.200	182.784	50.156	32.477	299.490	285.132	278.453	163.747	50.925	275.873	0.00016341	0.00038541	0.00016586	1800.5	7.6655e-06	4.8125e-06	1771.5	612.83	9.6482e-07	9.4496e-06	643.29	195.52	182.82	63.453	7.2006e-06	80.905	9.1369e-05	8.3171e-05	2.3391e-05	1529.5	9.352e-07	9.2414e-07	1505.8	516.53	9.4033e-07	9.1357e-07	530.09	163.16	150.33	52.107	9.2408e-07	65.732	177.508	-14.729	-23.897	-34.182	63.043	14.135	-34.599	-30.468	91.288	45.559	-31.734	-28.214	-26.843	-22.539	111.269	-24.016	-8191	255	
44491.078	1	1	0	0	0.083527	0.10048	0.049873	0.28337	0.062999	0.16224	0.33585	0.34747	0.119	0.17264	0.2068	0.03283	0.088868	0.22802	0.10094	0.18576	-3.5396	-4.4437	-4.4187	-4.1333	-4.7063	-4.1062	-4.2833	-4.8583	-3.825	-4.4771	-4.4958	-3.8125	-4.7146	-4.225	-3.9313	-4.9	274.326	239.727	121.337	201.505	-42.784	191.695	242.579	202.068	292.768	129.671	191.537	118.208	3.533	281.747	121.476	-5.897	0.00020193	0.00025868	8.4993e-05	1801.2	1.038e-06	3.6916e-06	1778.2	611.92	8.0365e-06	3.0944e-06	645.12	195.88	180.57	63.718	3.6693e-06	82.132	9.124e-05	8.5613e-05	2.3163e-05	1532	9.4853e-07	9.2987e-07	1507.5	515.05	9.6438e-07	9.0103e-07	531.64	163.28	149.6	52.354	9.1433e-07	66.516	200.324	50.101	37.212	-34.059	142.201	97.294	-34.751	-30.759	94.431	51.133	-31.903	-27.831	-26.525	-22.517	68.447	-23.898	-8191	255	
44491.176	1	1	0	0	0.24559	0.092692	0.27667	0.23673	0.067676	0.11198	0.26629	0.29894	0.19445	0.066525	0.017025	0.37455	0.13941	0.12603	0.079452	0.19164	-3.5563	-4.3854	-4.6354	-4	-4.5563	-4.2	-4.1937	-4.9396	-3.8354	-4.3292	-4.5854	-3.8688	-4.7125	-4.4	-3.8875	-4.8625	-29.019	286.991	84.666	234.832	303.073	248.998	289.645	228.823	101.393	142.884	213.704	311.395	-16.419	181.019	89.068	236.764	0.00018502	0.00025231	0.00027094	1803.8	8.2994e-06	6.6768e-06	1787	613.26	2.4942e-06	5.1195e-06	649.34	196.55	182.8	63.856	2.7575e-06	81.694	9.1377e-05	8.2306e-05	2.2559e-05	1527.7	9.2601e-07	9.185e-07	1518.6	516.1	9.1895e-07	9.1274e-07	536.53	164.55	150.47	52.599	9.3462e-07	66.758	194.420	-5.865	-6.330	-34.039	73.037	94.081	-34.684	-30.422	152.166	97.080	-32.183	-27.762	-26.794	-22.507	56.303	-24.014	-8191	255	
44491.297	1	1	0	0	0.063285	0.15493	0.37064	0.20578	0.031548	0.12529	0.42397	0.22822	0.13875	0.19164	0.30665	0.42016	0.27022	0.20904	0.036058	0.2344	-3.5833	-4.0521	-4.6813	-3.6604	-4.625	-4.3812	-3.9562	-4.9917	-4.05	-4.0604	-4.875	-3.6521	-4.5083	-4.6562	-3.9062	-4.7604	239.483	236.252	186.661	239.733	-47.371	2.380	261.546	296.171	-32.647	230.881	212.517	283.563	250.312	249.584	-5.128	307.126	8.2483e-05	0.00071619	0.00015974	1805.5	5.2182e-06	5.1749e-06	1779.2	607.24	2.7659e-06	5.6551e-06	633.48	192.38	178.04	62.715	3.8534e-06	79.931	9.3355e-05	8.433e-05	2.3344e-05	1534.1	9.2486e-07	9.2506e-07	1511.4	513.73	9.5564e-07	9.143e-07	524.39	161.04	147.59	51.394	9.2056e-07	64.826	190.772	17.908	8.391	-34.008	21.992	83.657	-34.508	-30.686	52.233	86.634	-32.022	-27.506	-26.326	-22.246	26.683	-24.044	-8191	255	
44491.391	1	1	0	0	0.23874	0.21962	0.15761	0.29618	0.076086	0.11758	0.19728	0.15818	0.12311	0.16174	0.19671	0.20029	0.10464	0.084347	0.082744	0.20932	-3.8187	-4.1021	-4.8354	-3.9208	-4.3208	-4.4833	-4.125	-4.9375	-4.1438	-4.0729	-4.7417	-3.8646	-4.4437	-4.6708	-3.8	-4.6937	136.836	292.316	60.390	265.632	-18.738	140.001	232.962	259.619	125.081	43.797	253.050	264.192	240.301	214.662	221.027	293.361	0.00014298	0.00050358	0.00025813	1720.5	3.9294e-06	5.4592e-06	1681	580.57	5.2855e-06	1.8975e-06	615.67	186.47	174.21	61.286	1.8642e-06	78.355	8.9477e-05	8.2256e-05	2.2607e-05	1464.7	9.19e-07	8.7963e-07	1432.4	490.69	9.2809e-07	8.9324e-07	505.98	155.95	143.75	50.243	9.1591e-07	63.402	177.679	31.557	16.008	-33.852	97.407	125.889	-34.529	-30.570	42.219	38.673	-31.983	-27.554	-26.900	-22.442	147.818	-24.177	-8191	255	
44491.488	1	1	0	0	0.047039	0.10885	0.19946	0.26655	0.19143	0.10358	0.26878	0.3999	0.15149	0.16099	0.12349	0.27306	0.22318	0.14583	0.17726	0.11093	-3.8625	-4.1042	-4.7417	-4.0625	-4.1125	-4.5729	-4.0333	-4.7208	-4.2896	-3.9354	-4.7917	-4.0542	-4.2667	-4.7583	-3.7979	-4.5792	284.607	294.577	40.518	240.353	58.658	-15.231	214.619	232.751	209.490	165.901	275.711	-45.371	224.398	261.966	90.127	297.147	0.0001612	0.00013109	0.00024908	1701.8	5.5665e-06	3.8358e-06	1667.6	575.27	2.8388e-06	3.513e-06	604.08	182.96	171.05	60.422	2.5116e-06	77.156	8.8832e-05	8.3052e-05	2.349e-05	1448.7	9.3192e-07	8.9131e-07	1417.5	484.6	9.0057e-07	8.8645e-07	498.19	152.84	141.05	49.588	9.0221e-07	62.561	181.277	-9.089	-28.770	-33.705	71.382	132.910	-34.685	-30.352	146.110	33.070	-31.696	-27.873	-26.754	-22.514	97.765	-23.982	-8191	255	
44491.586	1	1	0	0	0.057057	0.19826	0.091666	0.13345	0.04692	0.067049	0.17163	0.036751	0.21894	0.12275	0.021754	0.21127	0.22044	0.14215	0.24493	0.25707	-4.0104	-3.6896	-4.7104	-4.275	-4.0417	-4.675	-4.0938	-4.7146	-4.5062	-3.6729	-4.9187	-4.2583	-4.2979	-4.8313	-3.6854	-4.4604	141.284	8.167	215.214	248.658	-8.575	183.221	250.087	-11.275	125.548	15.666	161.123	301.352	-0.538	1.924	-36.929	271.172	0.00020624	0.00082006	0.00011614	1687.9	4.3892e-06	7.4663e-06	1656.1	571.7	4.5899e-06	3.8512e-06	606.17	182.28	168.42	59.53	2.0576e-06	77.599	8.7694e-05	8.215e-05	2.2381e-05	1437.6	8.9331e-07	8.7663e-07	1408	480.23	8.8944e-07	8.921e-07	496.57	152.07	138.85	49.194	8.8843e-07	62.993	209.854	4.001	-6.501	-34.051	99.155	84.987	-34.599	-30.615	56.304	99.680	-31.795	-27.514	-26.700	-22.127	78.268	-23.632	-8191	255	
44491.680	1	1	0	0	0.20921	0.18281	0.13886	0.071827	0.21105	0.25009	0.31848	0.16493	0.21276	0.11086	0.12957	0.16441	0.1945	0.13927	0.2035	0.25914	-4.3104	-3.7875	-4.7125	-4.3521	-3.8229	-4.5667	-4.1125	-4.6875	-4.5521	-3.8646	-5.0021	-4.4	-4.0437	-5.0354	-3.9625	-4.4292	217.434	44.630	294.034	296.175	301.289	101.280	264.958	295.574	152.426	292.231	232.219	-23.781	49.861	304.283	194.986	229.097	0.00015272	0.00038883	0.00019578	1677	1.2037e-06	2.1102e-06	1643.2	564.75	1.0914e-05	4.4181e-06	600.03	183.64	167.14	60.082	4.1162e-06	78.371	8.7035e-05	7.9022e-05	2.1553e-05	1426.2	8.4172e-07	8.1199e-07	1404.1	475.41	8.7082e-07	8.345e-07	495.7	152.39	138.59	49.416	8.3678e-07	63.716	192.266	77.141	-3.419	-33.804	47.792	57.574	-34.449	-30.477	120.461	77.463	-31.786	-27.550	-26.494	-22.697	49.888	-24.090	-8191	255	
44491.777	1	1	0	0	0.16382	0.081458	0.26897	0.040172	0.27044	0.10019	0.096444	0.19165	0.1531	0.12055	0.096421	0.249	0.34499	0.094126	0.12331	0.19769	-4.4125	-3.8646	-4.5604	-4.4729	-3.8104	-4.7646	-4.0896	-4.3354	-4.6708	-3.7604	-4.6375	-4.5188	-4.1021	-4.8417	-4.0479	-4.3333	157.301	249.190	10.182	222.718	-27.637	199.889	155.579	286.838	86.871	240.765	288.640	-40.932	204.157	266.175	76.049	240.830	0.00018879	0.00061558	0.00020577	1677.5	5.8686e-06	6.4667e-06	1662.6	561.52	2.8252e-06	6.8171e-06	605.49	183.76	166.74	59.902	8.2251e-06	79.507	8.2969e-05	7.6096e-05	2.0665e-05	1423.5	8.5176e-07	7.945e-07	1413.9	472.23	8.135e-07	7.8883e-07	499.05	152.71	137.34	49.353	8.273e-07	64.559	194.839	20.336	1.923	-33.797	68.882	94.608	-34.590	-30.735	141.995	76.755	-31.820	-27.335	-26.580	-22.408	14.661	-23.887	-8191	255	
44491.871	1	1	0	0	0.090109	0.196	0.077946	0.10998	0.31354	0.099147	0.17042	0.38245	0.15337	0.062396	0.15875	0.28643	0.25338	0.15313	0.12506	0.21148	-4.5271	-3.9458	-4.5417	-4.6167	-3.6854	-4.85	-4.3292	-4.3979	-4.7417	-3.9458	-4.3625	-4.7021	-3.9562	-4.8979	-4.3229	-4.1375	-20.697	128.638	189.360	258.550	150.618	-36.030	206.297	245.803	46.827	-5.194	264.296	289.028	241.385	274.476	45.301	255.125	0.00022884	0.00033497	8.1456e-05	1675.6	2.7984e-06	1.99e-06	1689.1	564.01	6.9603e-06	3.8592e-06	609.33	183.78	166	60.027	7.3945e-06	79.05	7.8772e-05	7.2849e-05	2.0501e-05	1428.5	8.0148e-07	7.7748e-07	1429.2	475.36	8.1049e-07	7.7232e-07	500.9	153.22	137.19	49.321	7.8386e-07	64.134	191.643	-28.911	303.788	-34.000	41.743	121.466	-34.315	-30.348	121.173	62.668	-31.935	-27.161	-26.286	-22.554	84.348	-24.090	-8191	255	
44491.992	1	1	0	0	0.10537	0.13709	0.28492	0.074963	0.026177	0.12947	0.12881	0.12652	0.086135	0.22508	0.33703	0.14869	0.22483	0.19205	0.24384	0.046977	-4.6188	-4.0333	-4.4625	-4.7333	-3.8146	-4.6729	-4.5521	-4.225	-4.9125	-3.9583	-4.3479	-4.8229	-3.8812	-4.6479	-4.3646	-4.0312	226.897	121.728	260.124	198.503	215.218	63.580	207.772	229.676	137.578	-3.594	218.114	253.294	278.396	231.320	7.761	104.555	0.00016166	0.00046206	0.00013579	1662.9	2.8694e-06	7.9996e-06	1667.3	557.29	2.9009e-06	7.7947e-06	606.63	184.38	165.49	60.324	6.0287e-06	79.814	7.7794e-05	7.0586e-05	1.9498e-05	1414.4	7.8673e-07	7.7395e-07	1418.1	468.84	7.8404e-07	7.6702e-07	498.94	153.2	136.66	49.48	7.6295e-07	64.846	177.704	3.404	16.950	-33.964	129.962	114.846	-34.309	-30.498	89.029	64.824	-31.647	-27.540	-26.570	-22.127	77.273	-23.514	-8191	255	
44492.090	1	1	0	0	0.16574	0.10152	0.11709	0.16817	0.040592	0.078492	0.037546	0.13178	0.088688	0.050496	0.26708	0.27372	0.23139	0.071427	0.17253	0.29468	-4.4854	-3.9542	-4.1312	-4.9875	-3.8083	-4.4896	-4.7688	-4.1792	-4.8063	-4.1375	-4.3375	-4.975	-3.9188	-4.6104	-4.3958	-3.95	81.147	107.217	57.325	274.735	42.911	95.729	295.025	-25.023	231.432	42.234	262.852	2.371	139.196	-42.118	213.748	-5.127	0.00021585	0.00057686	0.00012882	1668.6	4.6145e-06	5.4141e-06	1681.5	559.52	7.0813e-06	4.7608e-06	611.95	186.27	167.15	60.785	4.2461e-06	81.086	7.7191e-05	6.9021e-05	1.8857e-05	1418.6	7.8474e-07	7.7129e-07	1429	471.21	7.7242e-07	7.6709e-07	505.07	154.91	138.08	49.959	8.1942e-07	65.667	202.793	-10.454	41.059	-33.910	89.721	75.955	-34.194	-30.831	106.009	45.064	-31.714	-27.512	-26.351	-22.754	47.431	-23.929	-8191	255	
44492.184	1	1	0	0	0.2085	0.11771	0.090277	0.21927	0.048556	0.19782	0.046867	0.018016	0.26665	0.33659	0.19022	0.2478	0.06702	0.1733	0.38947	0.22059	-4.6479	-4.2125	-3.9021	-5.0604	-3.7583	-4.5	-4.7667	-4.0188	-4.6146	-4.3271	-4.0646	-4.9167	-3.9583	-4.4104	-4.5354	-3.8542	-44.432	269.106	91.083	247.865	22.292	42.512	129.248	120.779	237.773	84.538	8.088	297.397	186.638	269.923	44.134	309.616	0.00014684	0.00049321	0.00012232	1715.8	3.5331e-06	6.5356e-06	1729.8	579.41	2.8861e-06	5.855e-06	627.54	188.89	172.36	62.105	1.697e-06	82.109	8.0299e-05	7.3475e-05	2.0047e-05	1455.6	8.1451e-07	8.087e-07	1471.7	487.32	8.3308e-07	8.3161e-07	518.42	158.47	142.28	51.001	8.2785e-07	66.593	201.682	18.095	12.025	-34.099	121.715	114.844	-34.297	-30.476	117.049	52.546	-32.175	-27.343	-26.427	-22.323	8.473	-23.979	-8191	255	
44492.305	1	1	0	0	0.16826	0.23306	0.18198	0.30486	0.22848	0.10346	0.052937	0.20905	0.1124	0.2221	0.26954	0.16687	0.14611	0.14261	0.081061	0.34587	-4.5167	-4.4688	-3.9062	-5.0312	-4.0188	-4.1542	-4.9458	-4.0667	-4.6146	-4.5292	-4.0458	-4.9104	-4.2042	-4.3417	-4.6958	-3.9313	150.930	86.394	247.201	274.104	107.888	228.604	232.043	282.946	-17.243	260.689	289.226	282.356	277.286	266.072	268.153	228.218	0.00018601	0.00039226	0.00017403	1743.3	2.1425e-06	5.7948e-06	1756	585.39	3.0858e-06	4.1785e-06	638.56	192.9	173.21	62.819	6.5704e-06	83.095	8.4129e-05	7.5151e-05	2.1716e-05	1485	8.5856e-07	8.2896e-07	1488.6	494.46	8.5006e-07	8.3217e-07	524.44	160.12	143.13	51.366	8.4774e-07	67.334	194.001	-24.358	-16.917	-33.903	12.853	104.153	-34.530	-30.488	98.036	62.454	-31.928	-27.422	-26.654	-22.544	81.496	-24.120	-8191	255	
44492.375	1	1	0	0	0.12689	0.14528	0.18048	0.39774	0.20101	0.14959	0.25042	0.1281	0.094943	0.085588	0.34505	0.12095	0.023372	0.12311	0.16061	0.1495	-4.2667	-4.3812	-3.8854	-4.8479	-3.9958	-4.0604	-4.925	-4.1458	-4.3229	-4.4542	-4.05	-4.9104	-4.2396	-4.2583	-4.7521	-3.9833	176.866	29.106	114.107	261.490	138.227	122.882	238.462	246.105	293.640	134.073	288.711	229.136	26.394	-34.888	60.452	275.972	0.00026051	0.00034724	0.00013075	1745.6	9.2572e-06	4.7957e-06	1764.2	589.7	8.198e-07	6.1496e-06	640.85	193.34	172.82	62.498	2.6136e-06	82.236	8.4261e-05	7.7011e-05	2.1193e-05	1491.7	8.5909e-07	8.2582e-07	1501.5	496.87	8.4998e-07	8.1766e-07	524.78	160.42	143.02	51.384	8.2073e-07	66.915	192.862	33.126	140.796	-33.792	56.496	103.720	-34.447	-30.473	16.016	82.295	-31.872	-27.359	-26.423	-22.507	86.444	-23.842	-8191	255	
44492.473	1	1	0	0	0.29726	0.056671	0.080343	0.2364	0.076314	0.19229	0.20087	0.18178	0.13513	0.04974	0.085247	0.22736	0.21149	0.069811	0.22352	0.22554	-4.0312	-4.6104	-3.8354	-4.7375	-4.0542	-4.0021	-5.0667	-4.1646	-4.3208	-4.5833	-3.7625	-4.8854	-4.3708	-4.0563	-4.8708	-4.2771	29.261	282.604	93.744	224.546	-38.777	272.073	248.020	218.073	281.954	108.866	306.909	258.334	7.788	253.704	10.606	199.268	0.0001913	0.00061177	0.00022634	1715.6	6.681e-06	4.1823e-06	1708.2	569.72	3.3126e-06	7.2009e-06	621.54	188.7	169.61	61.815	5.5669e-06	82.192	8.1641e-05	7.4402e-05	2.0335e-05	1457	8.3687e-07	8.0702e-07	1456.9	481.33	8.0773e-07	7.8957e-07	512.46	156.9	139.65	50.668	7.9579e-07	66.427	182.608	-13.594	-29.238	-33.913	94.869	84.124	-34.353	-30.501	98.363	59.613	-31.872	-27.680	-26.390	-22.579	57.302	-23.710	-8191	255	
44492.594	1	1	0	0	0.19133	0.16973	0.12753	0.29949	0.20385	0.10702	0.26191	0.10253	0.058711	0.15099	0.11344	0.18077	0.25707	0.16978	0.2367	0.1764	-3.8312	-4.5938	-3.725	-4.7771	-4.4396	-3.9271	-4.9354	-4.1708	-4.2958	-4.7354	-3.9521	-4.5771	-4.6917	-4.0938	-4.7604	-4.2667	303.866	50.710	102.921	258.364	226.181	136.558	264.721	238.077	135.987	233.953	61.650	232.457	308.431	-46.154	240.540	144.743	0.00018131	0.00024991	0.00025513	1683.1	1.9704e-06	2.2073e-06	1700.6	566.74	7.0867e-06	4.8069e-06	619.96	186.55	170.78	61.832	6.0738e-06	81.98	8.1552e-05	7.2252e-05	2.0169e-05	1436.8	8.0775e-07	8.1436e-07	1446.6	478.43	8.4489e-07	8.026e-07	510.24	155.85	140.28	50.711	8.1107e-07	66.4	206.757	-24.450	-13.023	-33.946	64.386	54.263	-34.171	-30.398	125.060	29.096	-32.072	-27.623	-26.103	-22.529	79.141	-23.899	-8191	255	
44492.688	1	1	0	0	0.28252	0.20705	0.050536	0.3597	0.15966	0.12885	0.07526	0.080197	0.05131	0.1754	0.078391	0.1455	0.31648	0.33921	0.11576	0.22306	-3.6375	-4.6271	-3.8042	-4.6062	-4.4729	-3.8937	-4.8646	-4.3938	-4.0437	-4.7042	-4.0229	-4.5583	-4.625	-3.9083	-4.7229	-4.3146	-6.479	46.048	186.925	241.952	-12.772	227.738	203.012	256.845	297.175	113.352	-6.381	236.162	277.668	260.742	151.279	194.513	0.00023403	0.00047012	5.7974e-05	1717.3	2.7543e-06	5.2069e-06	1715.5	574.9	2.3842e-06	6.4678e-06	627.04	188.56	170.26	61.484	5.1973e-06	81.812	8.3258e-05	7.3701e-05	2.1147e-05	1453.3	8.3834e-07	8.1905e-07	1457.9	483.98	8.2848e-07	8.0632e-07	515.19	157.38	140.52	50.643	8.2847e-07	66.324	185.720	22.628	-5.927	-33.937	-2.217	111.154	-34.776	-30.029	145.064	71.986	-31.780	-27.617	-26.685	-22.633	68.018	-23.637	-8191	255	
44492.781	1	1	0	0	0.18527	0.22093	0.17159	0.24959	0.03295	0.094691	0.11647	0.1664	0.021808	0.064138	0.11663	0.36105	0.19017	0.16875	0.37043	0.29325	-3.7917	-4.8354	-3.9083	-4.6271	-4.7312	-3.8042	-4.9792	-4.525	-3.9688	-4.7833	-4.125	-4.2167	-4.7396	-3.8854	-4.7604	-4.4833	1.532	302.604	195.493	279.623	283.893	178.360	267.814	256.261	292.719	7.034	279.348	311.005	241.690	303.732	267.396	230.865	0.00021934	0.0004437	0.0002659	1724.4	7.4873e-06	3.5421e-06	1739.1	580.77	5.612e-06	4.3443e-06	631.18	190.99	172.42	62.122	3.0351e-06	82.37	8.2367e-05	7.5577e-05	2.1228e-05	1466.4	8.4519e-07	8.4444e-07	1474.2	490.13	8.7234e-07	8.2725e-07	519.27	158.8	142.1	51.006	8.563e-07	66.694	190.836	12.284	-9.247	-34.051	76.205	12.254	-34.731	-30.437	42.162	75.459	-32.065	-27.677	-26.769	-22.318	45.364	-24.029	-8191	255	
44492.879	1	1	0	0	0.10132	0.10111	0.17817	0.24664	0.13702	0.16666	0.12509	0.23676	0.19265	0.14862	0.19037	0.033448	0.067742	0.21095	0.19667	0.068396	-3.6083	-4.7708	-3.9583	-4.2333	-4.8	-4.0146	-4.6375	-4.7875	-3.775	-4.8646	-4.15	-4.2646	-4.95	-3.8521	-4.4083	-4.8438	282.162	94.807	179.601	271.006	-11.080	30.135	272.170	248.733	272.455	-35.805	296.809	98.435	247.274	310.480	-12.308	106.671	0.00022419	0.00084258	0.00012849	1743.2	4.9301e-06	6.3749e-06	1745.1	585.09	2.645e-06	2.4202e-06	637.36	191.7	173.01	62.312	5.3438e-06	82.547	8.3474e-05	7.6636e-05	2.1423e-05	1478.5	8.5528e-07	8.6609e-07	1482.3	492.83	8.8456e-07	8.2538e-07	523.66	159.46	142.85	51.087	8.7099e-07	66.85	212.642	0.700	-9.114	-33.949	91.799	59.774	-34.469	-30.491	108.308	105.264	-31.673	-27.406	-26.483	-22.406	96.453	-24.034	-8191	255	
44492.977	1	1	0	0	0.17465	0.14259	0.11226	0.38979	0.084212	0.31856	0.23479	0.14054	0.20106	0.33481	0.088985	0.19603	0.21715	0.12688	0.092438	0.32899	-3.5833	-4.6104	-4.1042	-4.2937	-4.7375	-3.8937	-4.5104	-4.7771	-3.7583	-4.6521	-4.4646	-3.9813	-4.7958	-3.9562	-4.1438	-4.7833	-19.169	309.600	-27.373	298.278	299.015	308.258	291.994	259.085	254.347	199.481	293.249	299.800	197.948	9.878	210.134	272.438	0.0001754	0.00051632	0.00018499	1740.8	4.8685e-06	2.8928e-06	1728.5	578.51	4.8377e-06	4.6686e-06	626.72	189.23	170.35	61.278	2.5573e-06	80.297	8.6829e-05	7.8858e-05	2.1425e-05	1476.4	8.6568e-07	8.4423e-07	1471.5	488.71	8.733e-07	8.498e-07	516.34	156.87	141.17	50.338	8.6821e-07	65.133	192.251	-13.265	35.447	-34.077	116.040	72.662	-34.477	-30.430	73.881	11.902	-31.913	-28.050	-26.419	-22.465	70.963	-23.812	-8191	255	
44493.070	1	1	0	0	0.081576	0.21065	0.13298	0.26393	0.15688	0.18367	0.26934	0.013683	0.22026	0.019106	0.15778	0.20316	0.2073	0.16276	0.14045	0.12857	-3.3396	-4.6687	-4.3396	-3.95	-4.7417	-4.1208	-4.5437	-4.9229	-3.8187	-4.5583	-4.6667	-4.0333	-4.9354	-4.2646	-4.0521	-4.8354	119.137	-13.448	46.357	221.875	285.508	274.488	292.489	58.986	-24.410	-6.831	35.763	262.835	-11.447	-5.716	37.077	293.642	0.00018446	0.0007538	0.0002425	1687.8	3.1907e-06	4.9195e-06	1674.8	567.93	5.123e-06	2.0139e-06	606.87	183.2	166.82	60.259	3.8709e-06	78.14	8.7815e-05	7.9632e-05	2.2282e-05	1438.8	8.7317e-07	8.7539e-07	1422.9	477.96	9.1637e-07	8.7945e-07	500.58	152.49	138.15	49.41	8.8175e-07	63.522	204.895	33.615	-12.340	-34.110	87.275	24.169	-34.796	-30.541	115.704	114.062	-31.727	-27.597	-25.959	-22.762	73.905	-23.626	-8191	255	
44493.168	1	1	0	0	0.071852	0.067905	0.038611	0.21794	0.11753	0.10957	0.24846	0.37964	0.2423	0.23672	0.091282	0.14125	0.23898	0.41983	0.13389	0.026094	-3.5312	-4.5687	-4.4917	-3.9042	-4.7542	-4.2271	-4.3458	-4.95	-3.875	-4.4042	-4.775	-3.8646	-4.8313	-4.3125	-4.05	-5.0042	105.698	-36.663	98.854	309.126	-20.774	299.885	268.439	284.830	224.809	240.507	42.229	254.175	305.672	254.170	91.668	58.323	0.00018062	0.00061048	0.00024556	1670.8	6.1024e-06	4.105e-06	1652.6	562.33	4.0938e-06	3.7538e-06	600.75	182.07	166.76	59.693	6.2155e-06	78.35	8.782e-05	8.0482e-05	2.2263e-05	1422.2	8.8601e-07	8.685e-07	1407.6	473.3	8.9447e-07	8.7317e-07	496.55	151.64	137.2	49.108	8.8235e-07	63.563	189.294	23.972	7.252	-33.997	55.810	115.044	-34.561	-30.509	54.081	57.869	-31.726	-27.772	-26.582	-22.387	61.114	-24.192	-8191	255	
44493.266	1	1	0	0	0.19132	0.19222	0.12251	0.20962	0.047103	0.19382	0.2918	0.24042	0.020796	0.16331	0.096231	0.12567	0.26448	0.17513	0.14086	0.1345	-3.5417	-4.3125	-4.4792	-3.9688	-4.7229	-4.2333	-4.1813	-4.7979	-3.875	-4.2688	-4.8354	-3.8937	-4.6958	-4.4667	-3.8875	-4.9333	251.226	167.276	267.170	270.574	19.024	154.461	251.927	214.635	42.437	291.528	277.995	-11.133	-35.466	78.207	32.286	289.759	0.00015827	0.00060278	0.00024506	1671.6	2.6293e-06	3.3447e-06	1665.8	564.02	3.4947e-06	3.3011e-06	604.88	184.58	167.16	60.11	3.1368e-06	79.036	8.6733e-05	7.5999e-05	2.203e-05	1426.1	8.5639e-07	8.2261e-07	1418.5	474.8	8.8002e-07	8.3855e-07	500.69	152.89	137.82	49.451	8.5827e-07	64.399	197.724	12.803	5.683	-34.132	119.491	90.288	-34.618	-30.646	91.581	65.398	-31.933	-27.619	-26.551	-22.648	74.820	-23.946	-8191	255	
44493.387	1	1	0	0	0.12944	0.2204	0.17223	0.31408	0.072203	0.22238	0.024699	0.1405	0.1674	0.15317	0.11063	0.31665	0.11457	0.18884	0.19382	0.12091	-3.5667	-4.275	-4.6333	-3.9313	-4.5375	-4.3896	-4.1771	-5.0625	-4.1625	-4.0167	-4.85	-3.7646	-4.5563	-4.6417	-3.7438	-4.8187	81.102	186.401	11.849	272.509	78.850	232.226	308.813	250.192	-46.415	-47.951	253.242	163.188	-41.061	212.871	154.655	-32.936	0.00015816	0.00041892	0.00012643	1678.9	4.8599e-06	8.9629e-06	1685.7	566.63	2.5606e-06	4.1607e-06	613.94	185.31	167.39	60.345	2.5679e-06	80.828	8.4417e-05	7.565e-05	2.1088e-05	1432.6	8.4502e-07	8.2214e-07	1433.3	476.65	8.3202e-07	8.1555e-07	505.84	154.53	137.99	49.716	8.3207e-07	65.572	182.215	69.590	3.193	-33.945	62.928	120.980	-34.549	-30.418	7.206	47.521	-31.901	-27.096	-26.695	-22.167	52.222	-23.304	-8191	255	
44493.480	1	1	0	0	0.10366	0.058029	0.075261	0.41994	0.07251	0.021001	0.26552	0.18115	0.076272	0.15909	0.16364	0.2666	0.23596	0.23872	0.18266	0.089167	-3.7771	-4.0667	-4.6646	-3.9333	-4.5229	-4.5208	-3.9875	-4.9104	-4.1958	-4.1146	-4.8812	-3.9104	-4.3917	-4.875	-3.9208	-4.7021	126.138	100.396	88.011	292.267	136.264	13.521	239.233	228.614	-6.214	149.258	272.159	236.680	262.536	3.738	282.845	238.588	0.00024489	0.00020633	0.00022345	1681.7	4.4236e-06	8.5057e-07	1693	561.74	6.4286e-06	3.8733e-06	615.64	184.98	167.02	60.58	4.411e-06	80.644	7.9434e-05	7.4904e-05	2.0704e-05	1428.2	8.2665e-07	8.1712e-07	1437.6	473.97	8.0636e-07	8.0046e-07	506.75	154.39	137.16	49.793	7.9887e-07	65.58	196.617	277.520	-25.394	-33.862	51.881	181.357	-34.761	-30.287	148.216	104.731	-31.918	-27.483	-26.422	-22.150	77.558	-23.921	-8191	255	
44493.578	1	1	0	0	0.088347	0.28802	0.19305	0.097963	0.034962	0.21048	0.25581	0.20607	0.16334	0.18851	0.2993	0.17159	0.27077	0.23219	0.061076	0.11716	-3.975	-3.7833	-4.9	-4.0667	-4.1646	-4.7229	-3.925	-4.7354	-4.2896	-3.9667	-4.9625	-4.0625	-4.3583	-4.7562	-3.7396	-4.6729	156.730	128.042	186.317	240.302	22.163	165.772	235.751	278.199	136.987	-21.925	-40.273	194.285	13.325	272.303	295.353	296.460	0.00021707	0.00065042	0.00013076	1676.1	7.2844e-06	4.3784e-06	1684	560.94	4.8333e-06	4.8426e-06	615.51	185.03	167.42	60.704	2.4294e-06	80.7	8.055e-05	7.1479e-05	2.0655e-05	1421.5	8.1005e-07	7.7494e-07	1431.8	472.87	7.9855e-07	7.768e-07	505.86	154.01	137.18	49.675	8.0276e-07	65.381	189.038	18.464	5.814	-33.927	53.335	93.186	-34.763	-30.224	136.753	77.234	-31.774	-27.432	-26.491	-22.233	135.238	-23.910	-8191	255	
#DATA ENDS
