BOXY.EXE: ISS Imagent and Oximeter Data Acquisition Program Version 0.80
Ascii Record File

#ACQ INFORMATION
2  Detector Channels 
16  External MUX Channels 
1  Auxiliary Channels 
5000  Waveform (CCF) Frequency (Hz)
1  Waveforms Skipped 
30  Waveforms Averaged 
1  Cycles Averaged 
16  Acquisitions per Waveform 
10.0806  Updata Rate (Hz) 

#FILE INFORMATION
TRUE -- External MUX Channel results are PARSED.
FALSE -- AC DC and Phase are NOT grouped.
TRUE -- Companion Program Settings File CREATED.
FALSE -- AC data not excluded
FALSE -- DC data not excluded
FALSE -- Phase data not excluded
FALSE -- Auxillary Chn. data not excluded
Tab delimiters

#CALIBRATION STATE
TRUE -- Waveform Calibration Values APPLIED.


#AUX CALIBRATION VALUES
Val Type	aux-1	

Term	1.0000e+00	
Factor	0.0000e+00	


#WF CALIBRATION VALUES
A = Detector Channel
Val Type	A-AC1	A-AC2	A-AC3	A-AC4	A-AC5	A-AC6	A-AC7	A-AC8	A-AC9	A-AC10	A-AC11	A-AC12	A-AC13	A-AC14	A-AC15	A-AC16	A-DC1	A-DC2	A-DC3	A-DC4	A-DC5	A-DC6	A-DC7	A-DC8	A-DC9	A-DC10	A-DC11	A-DC12	A-DC13	A-DC14	A-DC15	A-DC16	A-Ph1	A-Ph2	A-Ph3	A-Ph4	A-Ph5	A-Ph6	A-Ph7	A-Ph8	A-Ph9	A-Ph10	A-Ph11	A-Ph12	A-Ph13	A-Ph14	A-Ph15	A-Ph16	

Term	0.00000e+00	0.00000e+00	0.00000e+00	0.00000e+00	0.00000e+00	0.00000e+00	0.00000e+00	0.00000e+00	0.00000e+00	0.00000e+00	0.00000e+00	0.00000e+00	0.00000e+00	0.00000e+00	0.00000e+00	0.00000e+00	0.00000e+00	0.00000e+00	0.00000e+00	0.00000e+00	0.00000e+00	0.00000e+00	0.00000e+00	0.00000e+00	0.00000e+00	0.00000e+00	0.00000e+00	0.00000e+00	0.00000e+00	0.00000e+00	0.00000e+00	0.00000e+00	0.00000e+00	0.00000e+00	0.00000e+00	0.00000e+00	0.00000e+00	0.00000e+00	0.00000e+00	0.00000e+00	0.00000e+00	0.00000e+00	0.00000e+00	0.00000e+00	0.00000e+00	0.00000e+00	0.00000e+00	0.00000e+00	
Factor	1.00000e+00	1.00000e+00	1.00000e+00	1.00000e+00	1.00000e+00	1.00000e+00	1.00000e+00	1.00000e+00	1.00000e+00	1.00000e+00	1.00000e+00	1.00000e+00	1.00000e+00	1.00000e+00	1.00000e+00	1.00000e+00	1.00000e+00	1.00000e+00	1.00000e+00	1.00000e+00	1.00000e+00	1.00000e+00	1.00000e+00	1.00000e+00	1.00000e+00	1.00000e+00	1.00000e+00	1.00000e+00	1.00000e+00	1.00000e+00	1.00000e+00	1.00000e+00	X	X	X	X	X	X	X	X	X	X	X	X	X	X	X	X	

B = Detector Channel
Val Type	B-AC1	B-AC2	B-AC3	B-AC4	B-AC5	B-AC6	B-AC7	B-AC8	B-AC9	B-AC10	B-AC11	B-AC12	B-AC13	B-AC14	B-AC15	B-AC16	B-DC1	B-DC2	B-DC3	B-DC4	B-DC5	B-DC6	B-DC7	B-DC8	B-DC9	B-DC10	B-DC11	B-DC12	B-DC13	B-DC14	B-DC15	B-DC16	B-Ph1	B-Ph2	B-Ph3	B-Ph4	B-Ph5	B-Ph6	B-Ph7	B-Ph8	B-Ph9	B-Ph10	B-Ph11	B-Ph12	B-Ph13	B-Ph14	B-Ph15	B-Ph16	

Term	0.00000e+00	0.00000e+00	0.00000e+00	0.00000e+00	0.00000e+00	0.00000e+00	0.00000e+00	0.00000e+00	0.00000e+00	0.00000e+00	0.00000e+00	0.00000e+00	0.00000e+00	0.00000e+00	0.00000e+00	0.00000e+00	0.00000e+00	0.00000e+00	0.00000e+00	0.00000e+00	0.00000e+00	0.00000e+00	0.00000e+00	0.00000e+00	0.00000e+00	0.00000e+00	0.00000e+00	0.00000e+00	0.00000e+00	0.00000e+00	0.00000e+00	0.00000e+00	-1.19857e+02	-1.24507e+02	-1.35452e+02	-1.83472e+02	-6.00384e+01	-4.75453e+01	-1.57982e+02	-1.62015e+02	-6.06145e+01	-8.17819e+01	-1.70621e+02	-1.71027e+02	-1.79027e+02	-1.76789e+02	-5.07464e+01	-1.49691e+02	
Factor	1.74378e-05	1.02985e-04	3.40426e-05	1.56174e-01	9.33459e-07	1.34348e-06	1.70957e-01	5.49417e-02	8.43037e-07	1.23105e-06	9.08538e-02	2.97122e-02	2.77676e-02	9.37205e-03	9.74277e-07	1.31938e-02	1.29289e-06	1.35560e-06	3.76670e-07	7.60921e-02	1.47965e-08	1.48193e-08	7.83401e-02	2.67541e-02	1.47987e-08	1.48410e-08	4.23708e-02	1.39488e-02	1.35316e-02	4.53434e-03	1.47790e-08	6.16309e-03	X	X	X	X	X	X	X	X	X	X	X	X	X	X	X	X	



#DISTANCE SETTINGS
A = Detector Channel
A-1	A-2	A-3	A-4	A-5	A-6	A-7	A-8	A-9	A-10	A-11	A-12	A-13	A-14	A-15	A-16	

2.5000e+00	3.0000e+00	2.5000e+00	3.0000e+00	2.0000e+00	3.0000e+00	1.5000e+00	3.0000e+00	3.0000e+00	3.0000e+00	3.0000e+00	3.0000e+00	3.0000e+00	3.0000e+00	1.5000e+00	3.0000e+00	

B = Detector Channel
B-1	B-2	B-3	B-4	B-5	B-6	B-7	B-8	B-9	B-10	B-11	B-12	B-13	B-14	B-15	B-16	

1.0000e+01	1.0000e+01	1.0000e+01	1.4400e+00	1.0000e+01	1.0000e+01	1.5100e+00	1.9400e+00	1.0000e+01	1.0000e+01	1.9900e+00	2.4900e+00	2.4100e+00	2.9000e+00	1.0000e+01	2.9800e+00	




#DATA BEGINS
time	group	step	mark	flag	A-AC1	A-AC2	A-AC3	A-AC4	A-AC5	A-AC6	A-AC7	A-AC8	A-AC9	A-AC10	A-AC11	A-AC12	A-AC13	A-AC14	A-AC15	A-AC16	A-DC1	A-DC2	A-DC3	A-DC4	A-DC5	A-DC6	A-DC7	A-DC8	A-DC9	A-DC10	A-DC11	A-DC12	A-DC13	A-DC14	A-DC15	A-DC16	A-Ph1	A-Ph2	A-Ph3	A-Ph4	A-Ph5	A-Ph6	A-Ph7	A-Ph8	A-Ph9	A-Ph10	A-Ph11	A-Ph12	A-Ph13	A-Ph14	A-Ph15	A-Ph16	B-AC1	B-AC2	B-AC3	B-AC4	B-AC5	B-AC6	B-AC7	B-AC8	B-AC9	B-AC10	B-AC11	B-AC12	B-AC13	B-AC14	B-AC15	B-AC16	B-DC1	B-DC2	B-DC3	B-DC4	B-DC5	B-DC6	B-DC7	B-DC8	B-DC9	B-DC10	B-DC11	B-DC12	B-DC13	B-DC14	B-DC15	B-DC16	B-Ph1	B-Ph2	B-Ph3	B-Ph4	B-Ph5	B-Ph6	B-Ph7	B-Ph8	B-Ph9	B-Ph10	B-Ph11	B-Ph12	B-Ph13	B-Ph14	B-Ph15	B-Ph16	aux-1	digaux	

36097.156	1	1	0	256	0.057547	0.049614	0.08646	0.26513	0.060393	0.23182	0.48053	0.13112	0.17865	0.26558	0.22675	0.16832	0.14529	0.11734	0.1491	0.065024	-2.9625	-2.9667	-3.5479	-3.1875	-3.0375	-3.5438	-3.0792	-3.5812	-3.4542	-3.0521	-3.7458	-3.3063	-3.1375	-3.7771	-2.7396	-3.3292	307.725	324.859	342.724	325.631	154.866	159.015	364.360	333.691	22.913	53.934	64.096	330.378	23.803	105.197	369.119	273.880	0.00025836	0.00027065	0.00016318	1305	4.5579e-06	4.0566e-06	1302	359.7	5.4472e-06	4.6404e-06	412.29	133.46	112.86	38.289	3.3589e-06	47.091	0.00018057	0.00016893	4.7395e-05	1296	1.8896e-06	1.8128e-06	1295.2	357.9	1.8722e-06	1.8486e-06	405.56	132.93	112.28	37.949	1.8426e-06	46.71	149.057	115.142	75.888	33.522	172.683	170.709	33.500	38.172	202.798	163.541	37.329	42.084	42.608	47.243	203.697	46.141	-8191	255	
36097.254	1	1	0	0	0.10209	0.059102	0.18393	0.25433	0.12627	0.111	0.20869	0.23771	0.21106	0.26837	0.18831	0.14403	0.16495	0.222	0.099928	0.29547	-3.1562	-2.8583	-3.6083	-3.2687	-2.7667	-3.5083	-3.0563	-3.2979	-3.5833	-2.7208	-3.6604	-3.2125	-3.0625	-3.6604	-2.8312	-3.2479	165.994	144.709	249.372	45.555	55.028	205.620	330.310	320.285	184.001	355.646	344.293	102.226	274.628	109.493	76.223	317.086	0.00029342	0.00042484	0.00012214	1298.4	4.7227e-06	5.421e-06	1291.4	357.8	3.4453e-06	4.7795e-06	409.58	133.12	113.09	37.811	3.5402e-06	46.801	0.00017421	0.0001642	4.5752e-05	1287.4	1.8265e-06	1.7509e-06	1284.6	355.43	1.7543e-06	1.7404e-06	403.21	132.08	111.69	37.652	1.7113e-06	46.407	159.637	91.323	80.119	33.403	198.242	133.002	33.643	38.216	212.182	131.625	37.582	42.164	42.784	47.375	193.168	46.419	-8191	255	
36097.352	1	1	0	0	0.34058	0.17199	0.28758	0.13435	0.18358	0.16841	0.30491	0.15365	0.15503	0.12715	0.15543	0.24037	0.30131	0.11804	0.15454	0.13273	-3.0917	-2.7062	-3.55	-3.2875	-2.9771	-3.6708	-2.9542	-3.2188	-3.4833	-2.7458	-3.4792	-3.1854	-2.8521	-3.6229	-3.0187	-3.1562	124.149	146.849	164.396	342.838	231.535	35.371	278.086	301.094	126.433	115.352	298.147	322.213	343.937	210.827	22.329	209.847	0.00027976	0.0007788	9.3802e-05	1287.8	4.4607e-06	6.4248e-06	1282.2	355.28	2.1712e-06	7.4439e-06	408.2	131.86	112.2	37.814	5.9449e-06	46.669	0.0001672	0.00015595	4.2831e-05	1278.8	1.7278e-06	1.6573e-06	1277.2	353.06	1.7066e-06	1.6833e-06	400.51	131.14	111.03	37.546	1.6484e-06	46.179	157.305	130.214	131.087	33.721	184.746	217.593	33.895	38.163	167.848	154.928	37.620	42.434	42.700	47.469	186.114	46.696	-8191	255	
36097.445	1	1	0	0	0.17601	0.072203	0.13285	0.22979	0.093434	0.17423	0.22057	0.083827	0.28709	0.32254	0.14429	0.082383	0.10845	0.31123	0.15552	0.024497	-3.2313	-2.8729	-3.3917	-3.575	-2.8563	-3.5396	-3.2708	-3.0687	-3.6583	-3.0021	-3.2917	-3.7313	-2.8521	-3.55	-3.3229	-3.0771	205.534	240.619	232.076	346.459	68.372	148.573	339.002	359.088	28.741	201.262	342.798	31.153	346.524	24.819	343.553	321.393	0.00030601	0.00027426	0.00013334	1279	3.8105e-06	5.4899e-06	1275.5	351.24	1.8223e-06	2.2957e-06	404.06	130.93	111.98	37.875	2.396e-06	46.541	0.00016098	0.00015064	4.1369e-05	1272.3	1.6452e-06	1.6303e-06	1268.4	351.05	1.6289e-06	1.595e-06	397.8	130.55	110.68	37.506	1.6086e-06	46.173	159.822	111.735	110.085	33.542	230.034	180.891	33.421	38.052	183.218	190.070	37.622	42.397	42.823	47.366	152.284	46.149	-8191	255	
36097.543	1	1	0	0	0.18451	0.091501	0.10162	0.34993	0.21062	0.038528	0.23765	0.33503	0.071894	0.079209	0.37236	0.069275	0.056779	0.22494	0.052047	0.17155	-3.3438	-2.7687	-3.1646	-3.7542	-2.7771	-3.5854	-3.4375	-3.1979	-3.6542	-2.9021	-3.3333	-3.6333	-2.8604	-3.4771	-3.3125	-3.0229	279.497	46.895	319.941	315.550	51.315	20.461	250.707	320.476	54.623	172.322	354.400	166.406	55.619	37.774	138.523	340.997	0.00029252	0.00046558	0.0001171	1282.2	2.1067e-06	3.7171e-06	1275.1	353.2	1.5401e-06	4.3645e-06	401.91	130.76	111.01	37.672	5.6731e-06	46.677	0.00015679	0.00014417	4.0851e-05	1269	1.6404e-06	1.5496e-06	1266.5	350.42	1.6119e-06	1.5974e-06	397.49	130.35	110.25	37.443	1.579e-06	46.082	158.581	134.640	100.429	33.621	190.396	170.003	33.735	38.200	203.611	153.551	37.547	42.104	42.908	47.424	191.051	46.694	-8191	255	
36097.641	1	1	0	0	0.093262	0.20864	0.029243	0.41217	0.18755	0.053998	0.23977	0.25778	0.17863	0.3073	0.32866	0.1337	0.28009	0.22778	0.1293	0.25259	-3.4625	-3.1396	-3.0354	-3.5438	-2.8396	-3.3542	-3.5896	-2.8896	-3.5646	-3.0125	-3.1479	-3.5354	-2.9	-3.4833	-3.6146	-2.9292	100.535	158.139	280.658	341.393	235.715	207.680	319.398	372.240	215.835	332.402	277.941	27.506	30.441	312.480	22.163	373.339	0.00028878	0.00023874	7.7138e-05	1272.4	2.8902e-06	4.5871e-06	1274.8	351.56	2.9494e-06	4.9799e-06	402.56	131.27	111.99	37.741	3.9727e-06	46.596	0.00015761	0.00014393	4.0533e-05	1264.9	1.6359e-06	1.5704e-06	1266.1	350.42	1.6081e-06	1.5918e-06	397.55	130.31	110.51	37.443	1.6191e-06	46.072	162.919	57.592	88.422	33.792	180.932	194.495	33.628	38.171	200.653	159.428	37.698	42.225	42.914	46.946	184.135	46.600	-8191	255	
36097.734	1	1	0	0	0.082207	0.12414	0.073188	0.11589	0.10114	0.25235	0.073505	0.14284	0.1251	0.18601	0.22482	0.11937	0.24871	0.064463	0.1032	0.19071	-3.1375	-3.1542	-2.8104	-3.7208	-2.875	-3.2062	-3.5271	-2.9396	-3.6125	-3.1729	-3.0979	-3.5896	-3.1083	-3.3042	-3.4396	-2.7125	321.860	303.768	265.195	37.664	197.916	109.879	299.578	333.168	250.101	112.344	367.675	369.512	256.764	273.948	361.033	332.139	0.00033555	0.00035525	6.7613e-05	1278.5	2.5957e-06	5.3358e-06	1270.2	351.41	1.9699e-06	4.6867e-06	404.78	131.41	111.47	37.706	5.3185e-06	46.512	0.00015808	0.0001472	4.1037e-05	1266.3	1.643e-06	1.6352e-06	1265.9	350.37	1.6469e-06	1.6049e-06	398.29	130.66	110.35	37.465	1.6356e-06	46.057	152.676	126.135	110.304	33.704	233.954	157.317	33.851	38.136	130.189	142.117	37.643	42.170	42.476	47.467	204.200	46.458	-8191	255	
36097.832	1	1	0	0	0.18365	0.099555	0.13984	0.092869	0.095785	0.15184	0.50094	0.080806	0.21182	0.19422	0.44766	0.20699	0.19677	0.10204	0.22429	0.059411	-3.0333	-3.2604	-2.9146	-3.8063	-2.8417	-2.9333	-3.6771	-2.8125	-3.3833	-3.3229	-3.1604	-3.5771	-3.0667	-3.05	-3.5896	-2.8875	214.764	92.641	261.385	323.264	374.793	185.476	357.470	149.931	316.870	312.546	23.699	379.501	365.946	335.200	287.311	282.389	0.00026024	0.00014319	6.114e-05	1282.8	3.867e-06	5.2316e-06	1274.4	352.39	2.9006e-06	3.8766e-06	405.18	130.92	110.92	37.62	3.0734e-06	46.418	0.00016282	0.00014891	4.1363e-05	1269.6	1.6426e-06	1.6342e-06	1266.4	350.52	1.6337e-06	1.6073e-06	397.76	130.56	110.39	37.422	1.6373e-06	46.064	152.261	88.435	41.297	33.673	186.624	198.255	33.705	38.389	220.783	268.955	37.603	42.247	42.759	47.143	182.900	46.188	-8191	255	
36097.949	1	1	0	0	0.18579	0.083197	0.16955	0.039891	0.3211	0.13326	0.064125	0.2707	0.10948	0.16332	0.12434	0.063668	0.053126	0.103	0.14368	0.21751	-2.8729	-3.5021	-2.8104	-3.7062	-3.05	-2.8875	-3.5563	-2.9604	-3.4833	-3.6292	-3.0021	-3.6729	-3.1625	-2.9875	-3.6583	-3.0667	332.624	283.575	236.842	191.311	36.661	105.582	300.843	354.510	269.472	168.061	245.069	338.050	98.256	303.869	378.630	57.381	0.00029426	0.00011407	0.00020428	1275.8	3.8354e-06	3.719e-06	1279.4	350.52	3.9409e-06	7.4811e-06	405.17	130.65	111.2	37.699	3.62e-06	46.598	0.00015962	0.00014673	4.1083e-05	1264.5	1.6555e-06	1.603e-06	1268	350.25	1.655e-06	1.6244e-06	397.85	130.38	110.33	37.41	1.6617e-06	46.117	159.118	87.145	104.845	33.769	199.202	155.572	33.771	38.206	170.843	134.813	37.370	42.279	42.821	47.143	205.065	46.378	-8191	255	
36098.047	1	1	0	0	0.072721	0.16737	0.11935	0.096708	0.1891	0.07461	0.25047	0.18488	0.30202	0.057408	0.12438	0.28542	0.10083	0.20646	0.041018	0.17562	-2.8063	-3.4708	-2.9042	-3.7167	-3.1792	-3.0292	-3.7083	-3.1021	-3.0125	-3.5833	-3.1	-3.55	-3.3187	-2.9333	-3.5167	-3.0104	344.501	41.685	172.414	128.284	360.388	350.583	318.938	49.532	214.279	185.909	228.423	342.245	179.545	278.588	213.915	346.060	0.00026124	0.00026554	0.00011844	1278.5	4.4851e-06	6.9783e-06	1274.8	353.49	2.4725e-06	4.5005e-06	404.31	131.3	111.4	37.793	1.914e-06	46.536	0.00016199	0.00014984	4.2545e-05	1266.3	1.6772e-06	1.6488e-06	1267.5	350.63	1.707e-06	1.6502e-06	398.53	130.56	110.36	37.474	1.7229e-06	46.223	161.202	130.176	72.178	33.629	207.462	194.635	33.476	38.286	197.754	116.251	37.937	42.229	42.915	47.060	172.791	46.252	-8191	255	
36098.117	1	1	0	0	0.18274	0.08765	0.19317	0.085587	0.24765	0.18442	0.22365	0.32984	0.15976	0.075237	0.13547	0.13714	0.4364	0.22034	0.071764	0.18991	-2.7667	-3.3771	-2.8167	-3.5229	-3.4292	-2.8604	-3.8646	-3.1333	-3.0354	-3.5958	-3	-3.5167	-3.4625	-2.8604	-3.5271	-3.1042	209.459	20.633	78.052	304.035	79.212	352.781	141.752	330.614	248.415	326.354	315.688	73.672	348.376	57.791	228.788	317.117	0.00027775	0.00046165	8.263e-05	1277.3	5.4376e-06	2.9828e-06	1276.5	353.04	4.6014e-06	5.2372e-06	404.64	131.63	110.84	37.65	3.0224e-06	46.635	0.00016686	0.00015393	4.3052e-05	1268.3	1.7362e-06	1.7023e-06	1268	351.07	1.7136e-06	1.6993e-06	398.18	130.53	110.37	37.407	1.7134e-06	46.144	153.697	131.556	111.845	33.682	206.430	166.409	33.624	38.065	189.893	132.041	37.668	42.321	43.076	47.511	206.574	46.331	-8191	255	
36098.238	1	1	0	0	0.1337	0.16087	0.29727	0.15055	0.14967	0.16648	0.13486	0.052151	0.14409	0.18685	0.32683	0.25262	0.19249	0.04791	0.19466	0.038153	-2.7	-3.5979	-2.6146	-3.4833	-3.4562	-2.9188	-3.8854	-3.5229	-3.1188	-3.6521	-3.0729	-3.3563	-3.6312	-2.9375	-3.4875	-3.4625	230.354	286.968	251.206	374.570	169.126	328.294	233.672	296.619	300.852	195.601	22.475	343.053	363.486	168.761	203.489	94.864	0.00028551	0.00055639	4.9094e-05	1275	3.5823e-06	8.7916e-06	1273.7	351.32	2.3134e-06	1.6916e-06	405.37	130.71	111.53	37.551	4.0186e-06	46.555	0.00016871	0.00015596	4.3651e-05	1267.4	1.7091e-06	1.6832e-06	1268.5	349.89	1.7344e-06	1.6459e-06	398.25	130.17	110.4	37.293	1.7156e-06	46.063	159.257	125.251	99.255	33.562	199.389	185.565	33.684	38.312	193.024	146.508	37.827	42.119	42.709	47.233	158.257	46.260	-8191	255	
36098.336	1	1	0	0	0.05408	0.3216	0.11593	0.22294	0.10017	0.19011	0.30171	0.03724	0.1112	0.23189	0.090713	0.095301	0.19148	0.17606	0.23281	0.14132	-2.5729	-3.5958	-2.9062	-3.1688	-3.2875	-2.7875	-3.5667	-3.4771	-2.6979	-3.6333	-3.0375	-3.2583	-3.4396	-2.8688	-3.4562	-3.4688	168.639	351.398	145.526	31.582	99.643	223.412	331.273	74.382	38.090	278.840	278.422	373.995	367.967	350.645	60.265	307.957	0.00025122	0.00050461	9.8576e-05	1276.1	4.2591e-06	5.8998e-06	1269.7	349.21	4.2769e-06	7.0754e-06	404.56	130.39	110.29	37.691	3.0578e-06	46.499	0.00016825	0.00015857	4.4292e-05	1264.9	1.7603e-06	1.706e-06	1264.5	349.52	1.7465e-06	1.6953e-06	397.27	130.09	110.02	37.377	1.728e-06	46.052	147.901	100.399	97.547	33.396	219.951	170.807	33.608	38.528	181.677	166.612	37.687	42.541	43.051	47.316	165.671	46.648	-8191	255	
36098.430	1	1	0	0	0.15096	0.18718	0.21024	0.30023	0.090415	0.10269	0.065793	0.19318	0.051872	0.14491	0.33789	0.18815	0.11722	0.060531	0.065807	0.18722	-2.5917	-3.6333	-3.0104	-3.0854	-3.6167	-2.7917	-3.3625	-3.6583	-2.7729	-3.6312	-3.2417	-2.9708	-3.6896	-2.975	-3.2271	-3.5271	357.195	59.356	65.052	302.615	280.646	305.912	327.925	356.593	140.088	125.115	323.998	322.371	313.794	146.652	108.330	81.764	0.0002881	0.00039848	9.7217e-05	1269.1	2.8102e-06	4.1821e-06	1271.6	351.07	2.8951e-06	4.4995e-06	401.49	130.49	110.99	37.432	1.6746e-06	46.456	0.00016847	0.00015787	4.3004e-05	1261.6	1.699e-06	1.6847e-06	1265.2	349.38	1.7115e-06	1.6899e-06	396.18	130.04	109.81	37.253	1.6995e-06	45.94	154.515	93.353	113.594	33.758	195.758	129.703	33.603	38.290	212.078	140.162	37.553	42.259	42.961	47.338	264.269	46.508	-8191	255	
36098.551	1	1	0	0	0.1136	0.32757	0.32455	0.17614	0.17958	0.18882	0.10329	0.07455	0.15464	0.11972	0.16628	0.15657	0.26596	0.1561	0.13636	0.31027	-2.2229	-3.3396	-3.1396	-2.9021	-3.6792	-2.9729	-3.3958	-3.7146	-2.7667	-3.35	-3.3833	-3.0229	-3.7792	-2.9	-3.0563	-3.6479	61.504	61.339	177.509	352.924	181.137	235.944	375.211	333.006	328.557	151.096	63.521	279.472	361.414	352.999	191.821	359.768	0.00029552	0.00032228	0.00015804	1272.9	1.3652e-06	3.2993e-06	1264.7	351.07	2.6678e-06	5.1691e-06	401.44	130.35	110.96	37.532	3.3758e-06	46.245	0.00016583	0.00015277	4.3094e-05	1260.7	1.7337e-06	1.7377e-06	1260.9	349.11	1.7359e-06	1.6888e-06	395.86	130	109.9	37.221	1.7164e-06	45.885	147.993	98.741	144.995	33.492	223.676	197.565	33.488	38.338	207.224	158.938	37.607	41.889	42.833	47.297	172.977	46.451	-8191	255	
36098.645	1	1	0	0	0.12428	0.09769	0.2345	0.18455	0.17102	0.27166	0.18091	0.21013	0.09519	0.015837	0.18378	0.082836	0.03994	0.065564	0.1042	0.17759	-2.2958	-3.3375	-3.3042	-2.8521	-3.5604	-3.0542	-3.1229	-3.6292	-2.8521	-3.2646	-3.5208	-2.8937	-3.5667	-3.1542	-2.8896	-3.6542	342.696	294.450	355.116	330.263	296.465	146.733	282.402	276.917	99.226	354.918	38.942	250.657	50.925	268.138	346.771	310.445	0.00029933	0.00068776	0.00011169	1270.6	2.3831e-06	2.7705e-06	1265.3	350.66	4.9496e-06	3.5235e-06	401.1	129.88	111.03	37.435	3.669e-06	46.519	0.0001686	0.00015675	4.3397e-05	1260.4	1.7302e-06	1.6837e-06	1259	348.6	1.7416e-06	1.6667e-06	395.89	129.58	109.8	37.229	1.7061e-06	45.879	145.710	142.753	110.973	33.578	210.364	172.883	33.596	38.266	201.486	100.015	37.984	42.246	42.990	47.521	185.917	46.620	-8191	255	
36098.719	1	1	0	0	0.21206	0.17971	0.069696	0.32646	0.15309	0.24113	0.1708	0.10044	0.076713	0.079717	0.11275	0.22532	0.018615	0.12096	0.047042	0.056541	-2.4062	-3.2958	-3.5521	-2.9437	-3.4583	-3.1083	-3.1583	-3.7188	-2.9771	-3.2125	-3.5312	-3	-3.4875	-3.3896	-2.875	-3.7667	249.817	48.344	35.454	364.289	112.968	243.781	56.743	74.479	245.096	335.166	377.252	373.356	368.967	313.632	333.072	316.247	0.00030579	0.00028308	5.4495e-05	1262.9	3.2375e-06	4.8786e-06	1264.1	350.62	1.4842e-06	6.327e-06	402.39	130.37	110.07	37.458	5.3967e-06	46.343	0.00016473	0.00015365	4.2572e-05	1255.3	1.7118e-06	1.6934e-06	1256.5	348.62	1.7259e-06	1.7226e-06	394.5	129.49	109.32	37.183	1.682e-06	45.777	155.201	125.350	133.867	33.534	162.601	211.571	33.694	38.454	131.821	139.689	37.523	42.043	42.992	47.217	167.125	46.673	-8191	255	
36098.840	1	1	0	0	0.21813	0.056394	0.19658	0.21238	0.12515	0.17057	0.1865	0.1039	0.022831	0.17406	0.092077	0.215	0.078748	0.3038	0.093822	0.24338	-2.7021	-3.0771	-3.4146	-2.9729	-3.3458	-3.2896	-3.1292	-3.8229	-2.8563	-2.95	-3.6667	-2.9354	-3.4375	-3.4542	-2.8646	-3.5583	121.617	310.227	44.938	27.735	320.099	42.315	324.630	337.425	323.391	79.759	304.068	301.957	283.003	70.779	276.979	330.306	0.00026824	0.00035345	9.1113e-05	1259.7	5.1775e-06	7.3125e-06	1259.8	348.54	2.4552e-06	3.0091e-06	400.77	129.81	110.13	37.206	2.7905e-06	46.383	0.00016679	0.00015466	4.258e-05	1254	1.6823e-06	1.6913e-06	1255.3	347.45	1.7125e-06	1.6888e-06	394.95	129.45	109.21	37.072	1.6953e-06	45.734	153.522	77.307	78.569	33.776	207.477	162.725	33.582	38.280	175.131	137.266	37.548	42.050	42.726	47.278	170.982	46.386	-8191	255	
36098.934	1	1	0	0	0.045954	0.21887	0.18987	0.23149	0.2823	0.14735	0.30495	0.24286	0.11312	0.17568	0.12314	0.1601	0.087946	0.1344	0.164	0.094061	-2.7125	-3.0396	-3.6521	-3.1188	-3.2958	-3.4854	-2.8792	-3.725	-3.0292	-3.1375	-3.7188	-2.925	-3.2396	-3.6604	-2.7292	-3.6396	169.774	228.927	366.856	331.664	217.829	349.962	336.505	309.425	215.750	229.262	310.373	357.129	306.745	272.006	361.508	364.447	0.00029771	0.00070229	7.6408e-05	1261.7	3.4444e-06	5.5866e-06	1261	348.09	3.1953e-06	2.3477e-06	401.09	130.11	110.1	37.382	4.1728e-06	45.929	0.00016552	0.000154	4.3735e-05	1254.5	1.6963e-06	1.67e-06	1255.5	347.23	1.7387e-06	1.6726e-06	395.26	129.38	109.17	37.102	1.7109e-06	45.724	152.218	124.769	111.596	33.651	180.554	193.204	33.572	38.414	206.569	153.059	37.888	42.251	42.788	47.479	210.064	46.232	-8191	255	
36099.031	1	1	0	0	0.17892	0.20446	0.087373	0.21685	0.29946	0.11724	0.34251	0.19707	0.11525	0.16096	0.14555	0.28787	0.11434	0.1697	0.14236	0.25604	-2.8292	-2.8833	-3.5854	-2.9875	-3.1937	-3.4521	-3.0375	-3.6542	-3.3729	-2.8833	-3.7583	-3.025	-3.1688	-3.5708	-2.9688	-3.5667	294.103	125.869	128.220	317.100	358.390	87.844	50.687	317.490	218.094	239.497	331.388	365.472	309.922	54.036	164.826	283.282	0.00028907	0.0002918	0.00014012	1259.6	5.6387e-07	3.7588e-06	1257.5	348.28	3.8706e-06	5.6634e-06	400.16	129.78	110.18	37.187	3.601e-06	46.152	0.00016633	0.00015835	4.3092e-05	1253.1	1.7047e-06	1.703e-06	1254.7	347.08	1.7208e-06	1.721e-06	394.69	129.17	109.22	37.032	1.7304e-06	45.733	162.052	132.492	119.895	33.604	126.871	219.970	33.373	38.176	223.408	152.282	37.625	42.419	42.946	47.343	187.909	46.366	-8191	255	
36099.129	1	1	0	0	0.41934	0.11019	0.052965	0.19712	0.068405	0.1138	0.23795	0.4269	0.25982	0.082818	0.059	0.14597	0.18496	0.2376	0.27714	0.34173	-3.0104	-2.6833	-3.6896	-3.0917	-2.8271	-3.5521	-3.0729	-3.4083	-3.2854	-2.7354	-3.4854	-3.1688	-2.9875	-3.8125	-2.9083	-3.3021	26.757	125.951	302.491	369.732	295.894	135.711	320.467	317.021	132.079	305.145	270.159	61.298	21.033	96.576	296.513	47.766	0.00027926	0.00017097	2.6188e-05	1260.5	4.5063e-06	3.5567e-06	1262.8	348.58	2.9273e-06	2.194e-06	401.33	129.46	110.26	37.071	2.0446e-06	45.985	0.00016489	0.00015742	4.2767e-05	1253	1.6964e-06	1.6867e-06	1254.3	347.09	1.7105e-06	1.7062e-06	393.48	128.99	109.02	36.966	1.7127e-06	45.594	162.375	100.791	190.402	33.754	212.378	210.038	33.622	38.337	202.222	147.468	37.483	42.135	42.711	47.347	184.274	46.345	-8191	255	
36099.223	1	1	0	0	0.22902	0.47126	0.15258	0.19693	0.25451	0.076811	0.19092	0.058784	0.28226	0.25716	0.2839	0.1768	0.11573	0.25035	0.19565	0.18026	-2.9646	-2.6646	-3.5687	-3.125	-2.8125	-3.6063	-3.0083	-3.3396	-3.425	-2.7167	-3.5771	-3.35	-2.8	-3.775	-2.7979	-3.1937	119.166	92.798	157.775	372.125	199.871	169.623	317.194	141.986	154.748	226.737	330.040	181.910	37.457	323.665	85.192	198.059	0.00027411	0.00043201	0.00013708	1256.8	7.5745e-06	7.3236e-06	1259.3	348.42	3.0587e-06	2.1424e-06	400.17	129.73	109.81	37.312	3.4044e-06	46.261	0.00016765	0.00015652	4.3104e-05	1250	1.7311e-06	1.7053e-06	1252	346.66	1.7222e-06	1.6994e-06	393.32	128.81	108.87	37.019	1.7456e-06	45.593	158.911	91.075	81.126	33.676	190.726	197.937	33.585	38.207	179.795	149.682	37.491	41.911	42.881	47.195	170.832	46.173	-8191	255	
36099.344	1	1	0	0	0.1018	0.072321	0.14912	0.09803	0.19775	0.15935	0.31173	0.12242	0.094744	0.065179	0.27549	0.11748	0.051117	0.1059	0.11435	0.23821	-2.8833	-2.8458	-3.35	-3.3708	-2.8083	-3.4396	-3.2042	-3.1333	-3.3708	-2.9292	-3.5187	-3.3063	-2.7979	-3.5604	-2.9833	-3.1333	160.449	130.889	151.649	369.874	67.117	334.213	345.851	43.100	247.665	78.326	275.204	174.302	44.407	35.726	29.582	43.126	0.00028384	0.00036948	0.0001323	1258.7	2.2342e-06	4.7748e-06	1258.5	346.5	1.8753e-06	3.5941e-06	398.48	129.94	110.04	37.356	1.1055e-06	46.083	0.00016314	0.00015618	4.3006e-05	1250	1.7142e-06	1.684e-06	1251.3	345.37	1.7227e-06	1.7186e-06	393.04	128.79	108.83	37.02	1.7421e-06	45.527	166.096	110.290	82.036	33.804	199.575	209.591	33.593	38.243	206.291	171.381	37.624	42.180	42.506	47.235	245.881	46.221	-8191	255	
36099.414	1	1	0	0	0.21259	0.15676	0.20021	0.11891	0.24733	0.11806	0.096417	0.15582	0.21965	0.21919	0.090054	0.20321	0.33595	0.2581	0.25787	0.18151	-3.3125	-2.8458	-3.4688	-3.5833	-2.8542	-3.375	-3.2938	-3.2229	-3.5292	-2.7521	-3.0229	-3.5417	-2.9042	-3.6562	-3.1917	-3.0104	137.856	26.124	215.187	213.421	166.855	76.101	322.018	265.428	272.154	349.068	364.032	47.291	317.330	366.353	335.257	256.661	0.00027175	0.00018432	0.00010245	1254	3.9565e-06	2.7133e-06	1258.8	347.18	2.3123e-06	4.4343e-06	398.3	129.93	109.6	37.275	2.9111e-06	46.045	0.00016539	0.00015701	4.3561e-05	1250.2	1.7527e-06	1.6929e-06	1250.1	345.87	1.695e-06	1.6906e-06	392.56	128.8	108.75	36.956	1.7175e-06	45.462	142.177	84.771	93.849	33.610	201.385	250.340	33.500	38.089	177.618	148.887	37.577	42.098	42.557	47.037	204.971	46.654	-8191	255	
36099.512	1	1	0	0	0.28733	0.11165	0.053248	0.19839	0.023403	0.14839	0.089846	0.16952	0.28436	0.1451	0.31517	0.13523	0.14162	0.15175	0.15356	0.21963	-3.4062	-2.9479	-3.1958	-3.6312	-2.8333	-3.6229	-3.3312	-3.0042	-3.6271	-2.9896	-3.1312	-3.3563	-2.8083	-3.4604	-3.4437	-2.8667	32.766	358.269	326.288	300.853	322.162	21.744	294.629	289.610	254.124	349.960	362.924	257.904	37.592	27.786	250.268	182.066	0.00030066	0.00054515	0.00014404	1255.4	6.3088e-06	2.5997e-06	1258.2	346.78	3.1376e-06	3.7788e-06	398.9	129.31	109.38	37.066	5.3608e-06	45.854	0.0001636	0.00015476	4.3957e-05	1248.6	1.7301e-06	1.664e-06	1248.6	345.13	1.6941e-06	1.7037e-06	392.94	128.71	108.3	36.973	1.6994e-06	45.444	154.575	103.653	86.092	33.698	227.842	255.784	33.732	38.125	150.341	159.242	37.379	42.374	42.731	47.112	163.343	46.511	-8191	255	
36099.629	1	1	0	0	0.2281	0.15368	0.12557	0.099385	0.094551	0.11029	0.11683	0.15475	0.27421	0.15226	0.1908	0.2226	0.067566	0.074249	0.13101	0.19502	-3.2083	-3.1521	-2.9542	-3.6083	-2.8729	-3.3958	-3.3312	-3.0896	-3.6375	-3.0896	-3.1667	-3.65	-2.9208	-3.4	-3.3583	-2.875	129.128	367.924	114.299	356.852	229.363	153.933	244.431	109.517	327.821	319.311	332.364	342.251	186.281	317.862	26.933	91.231	0.00029596	0.00047843	8.2043e-05	1263.1	3.4318e-06	4.3526e-06	1257.5	348.02	9.4877e-07	4.7245e-06	397.77	129.19	109.05	37.137	1.2588e-06	45.976	0.00016631	0.00015949	4.3527e-05	1250.8	1.7783e-06	1.7131e-06	1248.5	345.47	1.7377e-06	1.7259e-06	393.05	128.74	108.42	36.947	1.7373e-06	45.496	161.127	102.127	116.804	33.654	184.654	185.208	33.531	38.185	189.868	145.304	37.825	42.384	42.786	47.142	178.161	46.418	-8191	255	
36099.727	1	1	0	0	0.12313	0.046334	0.14396	0.082955	0.029799	0.16577	0.034338	0.35168	0.048961	0.12272	0.12112	0.065897	0.13669	0.084907	0.23857	0.092056	-3.2292	-3.3083	-2.9708	-3.725	-2.8896	-3.2729	-3.8312	-2.8875	-3.45	-3.2042	-2.9771	-3.7042	-3.0354	-3.2167	-3.7	-2.7646	323.936	111.481	279.705	338.568	167.488	244.082	246.272	378.792	165.824	260.066	271.141	57.763	196.967	291.582	211.566	200.686	0.00025578	0.00056626	0.00011248	1257.7	2.7197e-06	3.1072e-06	1252.5	346.59	2.0766e-06	4.4763e-06	398.38	128.93	109.01	37.045	3.2032e-06	45.592	0.00016602	0.00015636	4.3476e-05	1249.9	1.7558e-06	1.7085e-06	1249.1	345.62	1.7627e-06	1.7169e-06	392.32	128.56	108.57	36.884	1.738e-06	45.377	158.398	105.647	111.116	33.655	215.205	171.159	33.413	38.379	199.637	156.093	37.663	42.170	42.860	47.313	211.083	46.310	-8191	255	
36099.820	1	1	0	0	0.053716	0.29379	0.17657	0.04187	0.24835	0.040199	0.15798	0.16435	0.22873	0.18211	0.33181	0.28822	0.21226	0.058292	0.1124	0.15484	-3.0917	-3.2396	-2.6771	-3.8542	-2.9479	-3.1562	-3.6917	-2.8271	-3.4167	-3.3083	-2.9313	-3.6875	-2.9333	-3.1833	-3.5604	-2.9708	43.762	112.756	69.200	305.618	138.171	300.895	157.491	293.356	285.385	147.255	342.455	336.813	314.861	310.218	35.140	291.971	0.00028984	0.0001532	0.00011542	1260.4	4.9488e-06	5.0768e-06	1288.3	353.7	2.9301e-06	2.2895e-06	409.93	133.72	112.85	38.189	4.0858e-06	47.482	0.00016882	0.0001599	4.452e-05	1250.8	1.8239e-06	1.7588e-06	1258.2	346.44	1.7626e-06	1.7485e-06	394.75	129.66	109.46	37.11	1.727e-06	45.757	159.823	134.804	67.781	33.554	171.077	173.291	32.096	36.839	177.674	181.057	35.513	40.167	41.053	45.455	202.074	44.617	-8191	255	
36099.918	1	1	0	0	0.15584	0.15976	0.023607	0.27425	0.19165	0.18268	0.17834	0.31743	0.15538	0.16902	0.028366	0.28891	0.047699	0.31642	0.15263	0.16033	-2.8604	-3.3646	-2.7792	-3.6771	-3.1229	-3.0854	-3.6937	-2.9625	-3.2542	-3.5187	-2.8521	-3.5792	-3.3917	-2.9375	-3.6042	-3.0104	171.893	265.395	74.524	25.109	148.686	175.840	358.023	347.313	85.738	286.912	323.263	357.475	333.052	319.700	47.432	66.189	0.00031998	0.00030852	0.00010788	1295.1	4.5647e-06	2.1872e-06	1293.5	357.78	2.9472e-06	2.4184e-06	409.53	132.23	112.52	38.22	3.3584e-06	47.425	0.00016691	0.00015606	4.4008e-05	1258.6	1.7899e-06	1.7663e-06	1259.3	347.43	1.7751e-06	1.7702e-06	394.66	129.2	109.15	37.06	1.716e-06	45.694	159.618	129.617	76.427	31.638	187.808	227.593	31.709	36.230	229.729	189.135	35.498	40.173	40.814	45.033	241.942	44.379	-8191	255	
36100.016	1	1	0	0	0.20019	0.24532	0.1776	0.33641	0.06879	0.11716	0.022175	0.28631	0.18035	0.10659	0.24687	0.23489	0.1954	0.090779	0.2412	0.098653	-2.8333	-3.4354	-2.6708	-3.4417	-3.2417	-2.8063	-3.8667	-3.1958	-3.0729	-3.5542	-2.7021	-3.4354	-3.1979	-3.0125	-3.6646	-3.1562	291.481	185.763	213.730	350.308	131.008	31.878	355.917	300.601	281.315	25.368	293.207	350.870	136.987	372.181	254.695	25.857	0.00030373	0.00036599	6.0774e-05	1295.6	1.5259e-06	4.1575e-06	1290.9	355.36	2.9141e-06	3.7226e-06	409.5	132.92	112.68	38.299	3.4078e-06	47.291	0.00016855	0.00015663	4.4661e-05	1256.8	1.7597e-06	1.7247e-06	1256.2	346.72	1.7591e-06	1.7197e-06	394.61	129.13	109.21	37.077	1.7246e-06	45.67	157.553	109.626	118.926	31.655	165.342	190.032	31.953	36.393	247.978	158.672	36.047	40.255	41.137	45.168	190.781	44.138	-8191	255	
36100.109	1	1	0	0	0.14554	0.17182	0.18605	0.16839	0.23676	0.25051	0.22507	0.23496	0.024522	0.17079	0.27422	0.28027	0.26078	0.24734	0.22816	0.22841	-2.6667	-3.6562	-2.6479	-3.4792	-3.2333	-2.8875	-3.7042	-3.1354	-2.9833	-3.5271	-2.9646	-3.3458	-3.4729	-2.9396	-3.4708	-3.225	226.887	234.465	227.667	315.137	301.706	173.707	306.193	328.042	157.133	226.466	354.151	290.863	99.569	321.399	228.133	56.821	0.00029354	0.00061478	6.0384e-05	1292.9	2.0976e-06	3.7052e-06	1299.5	356.65	2.2567e-06	3.052e-06	407.1	132.5	112.39	38.199	2.8101e-06	47.028	0.00016685	0.00015579	4.383e-05	1256.4	1.7578e-06	1.7233e-06	1256.9	346.58	1.779e-06	1.712e-06	392.79	128.87	109.32	36.991	1.743e-06	45.623	151.447	119.020	32.877	31.832	202.716	214.919	31.633	36.608	209.011	167.789	35.595	40.310	41.148	45.477	161.411	44.707	-8191	255	
36100.230	1	1	0	0	0.064899	0.22416	0.48347	0.26274	0.1364	0.2148	0.24362	0.16979	0.14471	0.21546	0.33549	0.21515	0.20551	0.21844	0.15101	0.18944	-2.4583	-3.4021	-2.9313	-3.3688	-3.4771	-2.6771	-3.7396	-3.2625	-2.9	-3.625	-3.0833	-3.3375	-3.5083	-3.0354	-3.3792	-3.3937	178.110	158.737	162.069	293.261	323.852	249.727	312.545	336.362	314.010	202.805	276.897	306.069	108.014	336.354	364.723	273.873	0.00029601	0.00042796	9.2852e-05	1290.4	3.5599e-06	7.3644e-06	1294	355.79	2.5989e-06	6.1672e-06	408.7	132.7	112.28	38.204	2.1769e-06	47.058	0.00016827	0.00015505	4.3407e-05	1253.1	1.7204e-06	1.7046e-06	1255.2	346.76	1.7611e-06	1.7052e-06	393.93	128.93	108.96	37.036	1.6891e-06	45.511	154.974	133.233	93.175	31.632	148.405	197.345	31.911	36.471	206.183	113.296	35.915	40.076	41.033	45.574	181.822	44.452	-8191	255	
36100.328	1	1	0	0	0.071928	0.19893	0.17113	0.090354	0.065001	0.15932	0.12624	0.22933	0.093701	0.18708	0.29362	0.2148	0.32331	0.14522	0.05314	0.16871	-2.6396	-3.6937	-2.9792	-3.3312	-3.4208	-2.8937	-3.7167	-3.3729	-2.9104	-3.7417	-3.2083	-2.9875	-3.5479	-2.8229	-3.275	-3.4354	187.221	170.732	41.157	235.004	127.316	279.103	367.019	296.793	212.320	214.557	310.383	61.998	307.184	56.055	235.303	277.714	0.00031141	0.00018745	0.00011533	1287.8	1.6869e-06	6.1824e-06	1286.1	355.32	3.5373e-06	1.7549e-06	407.49	131.72	112.02	38.066	3.4585e-06	47.095	0.00016684	0.00015389	4.3353e-05	1253.1	1.7436e-06	1.6818e-06	1253.8	345.79	1.7385e-06	1.6798e-06	393.46	128.75	108.64	36.927	1.7248e-06	45.492	157.478	139.105	96.190	31.705	221.700	157.646	31.685	36.674	99.278	163.019	35.969	40.279	41.376	45.598	190.064	44.531	-8191	255	
36100.426	1	1	0	0	0.021459	0.24833	0.17709	0.044244	0.19115	0.14638	0.26435	0.27629	0.11446	0.060683	0.20249	0.27083	0.1139	0.1269	0.33751	0.071157	-2.6063	-3.6063	-3.2125	-3.1833	-3.5958	-2.8688	-3.3542	-3.5708	-2.5938	-3.4167	-3.3021	-2.9667	-3.6604	-3.0146	-3.1958	-3.6479	247.532	74.865	261.858	360.734	127.857	59.753	322.345	337.559	173.686	214.807	282.522	312.902	76.574	67.293	351.804	200.182	0.00029346	0.00026927	7.5229e-05	1285	2.6216e-06	5.3331e-06	1287.2	356.38	2.5842e-06	5.1346e-06	407.79	132.2	112.2	38.04	1.9229e-06	47.141	0.00016704	0.00015607	4.2932e-05	1250.6	1.7102e-06	1.6798e-06	1251.8	346.34	1.7158e-06	1.6623e-06	393.18	128.86	108.68	36.897	1.6754e-06	45.489	148.233	114.578	114.484	31.633	187.670	177.334	31.632	36.520	207.964	148.618	35.890	40.054	40.972	45.603	230.313	44.618	-8191	255	
36100.520	1	1	0	0	0.083191	0.15378	0.097721	0.22763	0.18893	0.059046	0.10314	0.19579	0.22665	0.040524	0.086558	0.14708	0.28223	0.28517	0.060423	0.035006	-2.4167	-3.6229	-3.0167	-3.0333	-3.6625	-3.0062	-3.2667	-3.7583	-2.8229	-3.5833	-3.4479	-2.9938	-3.5875	-2.9354	-2.9813	-3.6646	30.082	316.898	307.030	359.118	309.179	319.787	299.854	334.380	260.836	279.197	278.551	271.547	314.190	370.824	94.892	359.150	0.00028719	0.00033224	0.00010833	1282.6	2.106e-06	4.8747e-06	1288.2	354.8	4.6639e-06	6.3268e-06	409.77	132.02	112.25	38.049	2.7254e-06	47.371	0.00016541	0.00015364	4.305e-05	1249.1	1.7179e-06	1.6826e-06	1250.7	345.83	1.7525e-06	1.682e-06	392.92	128.4	108.69	36.891	1.6822e-06	45.641	158.789	107.455	117.968	31.653	159.181	168.170	31.777	36.514	171.195	91.097	35.994	40.055	41.029	45.643	237.678	44.561	-8191	255	
36100.641	1	1	0	0	0.16039	0.0003322	0.13712	0.39471	0.1579	0.17161	0.10029	0.06822	0.23603	0.19217	0.18126	0.15136	0.22964	0.18367	0.10245	0.30776	-2.6063	-3.225	-3.2313	-2.8937	-3.5375	-3.1521	-3.1771	-3.6833	-2.8125	-3.1937	-3.5104	-2.9813	-3.7	-3.2917	-2.9688	-3.8063	360.693	180.000	222.174	342.482	316.677	297.357	300.913	225.082	126.371	235.638	245.668	352.145	331.298	20.675	333.940	291.380	0.0002753	0.00046544	0.0002367	1287	2.6873e-06	6.6396e-06	1288.3	354.86	3.0463e-06	5.5096e-06	408.49	131.64	111.75	37.993	3.5633e-06	46.841	0.0001672	0.00015271	4.2597e-05	1250.8	1.7153e-06	1.6769e-06	1251.4	345.56	1.7153e-06	1.7174e-06	392.9	128.34	108.65	36.891	1.6816e-06	45.435	161.010	65.688	90.932	31.757	199.726	171.679	31.694	36.245	236.835	138.188	35.812	40.392	41.124	45.609	184.667	44.577	-8191	255	
36100.711	1	1	0	0	0.077278	0.32248	0.20702	0.0048433	0.25536	0.17065	0.054313	0.19597	0.25335	0.29752	0.42367	0.29242	0.26309	0.14595	0.25201	0.19911	-2.5125	-3.1375	-3.4375	-3.0938	-3.6208	-3.3167	-3.0729	-3.625	-2.8208	-3.2562	-3.6125	-2.7604	-3.5958	-3.3271	-2.9104	-3.5854	318.451	373.335	345.736	266.911	276.666	257.218	305.752	341.864	243.015	123.485	369.013	275.770	318.901	224.447	31.754	221.223	0.00029167	0.00040946	0.00011192	1282.8	3.8904e-06	4.822e-06	1284.6	354.94	3.9848e-06	3.4442e-06	406.43	131.5	111.78	37.92	2.4641e-06	46.813	0.00016375	0.00015751	4.2397e-05	1247.7	1.6782e-06	1.6479e-06	1249.7	345.54	1.7538e-06	1.675e-06	392.47	128.47	108.56	36.93	1.6782e-06	45.405	150.533	112.104	123.780	32.097	184.229	143.890	31.762	36.567	207.666	158.555	35.914	40.519	41.056	45.705	218.955	44.853	-8191	255	
36100.809	1	1	0	0	0.04122	0.057611	0.14817	0.31105	0.10045	0.25961	0.33618	0.14079	0.15102	0.16837	0.17397	0.056821	0.23548	0.17154	0.09715	0.28295	-2.7021	-3.1562	-3.55	-3.1292	-3.4938	-3.2854	-3.0396	-3.7438	-3.1167	-3.0042	-3.7542	-2.6396	-3.4625	-3.4979	-2.8125	-3.7188	139.484	262.919	93.894	21.266	71.825	180.963	340.129	309.419	90.078	67.687	29.326	230.496	155.446	350.994	191.636	315.399	0.00026012	0.00046955	7.6935e-05	1283.9	3.1617e-06	2.9884e-06	1281.3	353.42	3.5216e-06	3.1474e-06	405.93	131.48	111.47	38.027	4.7232e-06	46.929	0.00016729	0.00015577	4.2712e-05	1249	1.7182e-06	1.692e-06	1249.9	345	1.7206e-06	1.6888e-06	392.34	128.4	108.39	36.901	1.7111e-06	45.525	157.639	111.496	54.145	31.688	165.761	207.204	31.982	36.608	199.737	194.241	35.693	40.507	40.955	45.522	213.530	44.822	-8191	255	
36100.902	1	1	0	0	0.17436	0.08478	0.09511	0.085657	0.24781	0.19726	0.18615	0.32134	0.19779	0.14341	0.32329	0.21493	0.1869	0.15874	0.4345	0.038376	-2.5854	-2.9229	-3.5542	-2.9792	-3.1896	-3.55	-2.8979	-3.6521	-3.2646	-3.0354	-3.7562	-3.0208	-3.4562	-3.7167	-2.4833	-3.4979	236.857	73.766	173.984	45.054	369.875	225.759	35.326	287.872	173.021	304.606	29.651	83.707	355.232	341.838	57.721	339.231	0.00026548	0.00038107	0.00011638	1279.9	4.0898e-06	5.6159e-06	1283.7	353.52	3.5787e-06	2.1538e-06	407.29	131.66	111.9	37.834	5.7625e-06	46.791	0.00016665	0.00015499	4.2659e-05	1248.9	1.7379e-06	1.6817e-06	1250.2	344.7	1.7277e-06	1.7293e-06	392.33	128.37	108.52	36.873	1.7241e-06	45.446	159.867	126.850	107.819	32.068	190.936	156.425	31.743	36.539	165.027	178.677	35.706	40.597	41.051	45.456	227.815	44.613	-8191	255	
36101.023	1	1	0	0	0.034685	0.2672	0.1479	0.34101	0.14007	0.17996	0.2758	0.030174	0.1536	0.25772	0.14127	0.11549	0.26904	0.17543	0.21839	0.056681	-2.7854	-2.8792	-3.6417	-3.0229	-3.1833	-3.5583	-3.0021	-3.4417	-3.2604	-2.6583	-3.7646	-3.0375	-3.1604	-3.6125	-2.8417	-3.4062	273.981	64.100	37.703	355.867	68.141	26.760	334.619	121.721	293.668	252.575	292.617	371.485	87.006	306.051	215.551	130.837	0.0002802	0.00028052	4.5365e-05	1286.9	6.1069e-06	3.1904e-06	1281.5	354.67	1.5041e-06	3.7687e-06	408.39	132.25	111.53	37.746	3.2288e-06	46.927	0.00016995	0.00015763	4.2992e-05	1248.6	1.7347e-06	1.6888e-06	1251.3	345.23	1.7545e-06	1.725e-06	392.26	128.48	108.38	36.785	1.74e-06	45.526	152.711	85.191	118.475	31.940	163.918	220.037	31.677	36.318	195.493	121.769	35.587	40.395	40.806	45.503	223.207	44.766	-8191	255	
36101.121	1	1	0	0	0.10832	0.34298	0.12078	0.18107	0.29616	0.11563	0.13799	0.20501	0.10308	0.16825	0.11929	0.33363	0.15879	0.062246	0.21854	0.095545	-3.1354	-2.8563	-3.5938	-3.1104	-3.1354	-3.5208	-3.1562	-3.5146	-3.4562	-2.8187	-3.7458	-3.2438	-3.1354	-3.6312	-2.9375	-3.4729	194.218	338.177	256.673	48.100	228.761	108.663	348.999	266.576	79.653	223.626	102.304	59.975	335.095	370.485	98.870	268.298	0.00031505	0.00059126	0.00016012	1288	4.4524e-06	2.5869e-06	1280	354.52	3.4247e-06	2.4055e-06	406.4	131.13	111.32	37.818	2.7801e-06	47.105	0.00016796	0.00015642	4.3408e-05	1250.6	1.7466e-06	1.7283e-06	1250.5	345.55	1.7513e-06	1.7099e-06	392.72	128.22	108.43	36.878	1.7437e-06	45.467	149.465	110.275	84.958	31.922	165.937	177.686	31.948	36.446	197.321	61.161	36.155	40.606	40.907	45.629	165.455	44.792	-8191	255	
36101.215	1	1	0	0	0.30994	0.1202	0.24155	0.30079	0.12312	0.16885	0.055277	0.21019	0.20462	0.24129	0.17435	0.13911	0.074523	0.22505	0.12301	0.31362	-3.1167	-2.6417	-3.6396	-3.3812	-2.7208	-3.65	-3.1437	-3.4125	-3.6229	-2.8021	-3.5146	-3.1625	-2.9771	-3.725	-2.7708	-2.9646	71.688	315.171	153.323	348.831	145.315	198.098	261.106	314.147	48.638	208.691	249.037	214.082	371.800	212.692	44.129	73.235	0.00028352	0.00034754	8.6133e-05	1285.3	4.6499e-06	2.2807e-06	1282.2	353.76	2.9376e-06	2.1458e-06	406.84	131.91	111.21	37.763	2.891e-06	46.932	0.00016748	0.00015855	4.4163e-05	1251.7	1.7686e-06	1.7005e-06	1250.6	345.42	1.7264e-06	1.7143e-06	392.36	128.4	108.36	36.814	1.745e-06	45.433	146.113	104.925	101.133	31.984	197.321	169.775	31.713	36.434	203.677	185.966	36.078	40.444	41.062	45.601	184.486	44.598	-8191	255	
36101.312	1	1	0	0	0.098893	0.25817	0.11489	0.24581	0.2022	0.041231	0.13536	0.0078433	0.12316	0.12142	0.13931	0.14519	0.44899	0.3151	0.026245	0.2598	-3.0042	-2.9208	-3.3625	-3.5563	-3.1417	-3.6333	-3.3667	-3.3583	-3.5625	-3.0062	-3.4875	-3.6292	-2.75	-3.6792	-3.2854	-3.0333	240.800	202.314	110.356	344.432	26.194	148.971	31.560	293.277	30.569	199.182	314.700	312.356	355.696	320.149	47.708	329.373	0.00032164	0.00048953	0.00015487	1280.5	3.02e-06	8.2404e-06	1283.6	352.42	2.5262e-06	5.6357e-06	406.6	131.46	111.32	37.935	2.1481e-06	46.857	0.00016736	0.00015695	4.4394e-05	1248.5	1.7595e-06	1.6999e-06	1250.8	344.68	1.7455e-06	1.731e-06	392.76	128.27	108.31	36.841	1.7259e-06	45.399	155.741	77.355	101.554	32.184	217.564	223.781	31.949	36.712	206.945	149.066	36.028	40.743	40.851	45.440	226.871	44.666	-8191	255	
36101.406	1	1	0	0	0.12444	0.14809	0.18443	0.14966	0.15045	0.063643	0.13584	0.1417	0.063468	0.22057	0.11283	0.24953	0.32809	0.27434	0.23802	0.088394	-3.3271	-2.8354	-3.1937	-3.6	-2.8146	-3.5542	-3.3521	-3.0708	-3.8896	-2.8	-3.3708	-3.5833	-2.7542	-3.5771	-3.3167	-3.0458	72.409	20.297	235.716	302.226	289.471	375.003	271.745	135.176	192.435	135.263	318.438	366.882	39.305	350.247	339.583	155.548	0.00031591	0.00057059	7.1302e-05	1291	5.8503e-06	4.7698e-06	1284.8	354.05	3.1114e-06	3.9195e-07	408.53	131.23	111.31	37.723	1.4501e-06	46.964	0.00016852	0.00016281	4.45e-05	1251.8	1.7985e-06	1.7537e-06	1252.5	344.87	1.7523e-06	1.7571e-06	392.78	128.26	108.43	36.796	1.8027e-06	45.42	150.643	108.811	126.512	31.999	194.950	156.397	31.928	36.412	147.972	173.161	36.052	40.374	41.118	45.969	191.988	44.650	-8191	255	
36101.504	1	1	0	0	0.025751	0.12544	0.14382	0.26836	0.065387	0.10511	0.30065	0.32092	0.17298	0.070447	0.084758	0.14743	0.086378	0.35122	0.19214	0.16194	-3.2917	-2.8187	-2.9896	-3.6479	-2.7625	-3.5583	-3.5792	-2.7667	-3.5833	-3.0458	-3.1229	-3.8146	-2.7458	-3.4583	-3.3333	-3.0792	358.207	27.794	224.220	325.929	214.621	107.562	263.890	355.396	167.829	49.060	36.791	22.956	110.177	373.805	281.872	326.095	0.00029189	0.00043569	0.00012199	1283	3.3454e-06	5.358e-06	1288.9	353.57	3.1499e-06	1.1446e-06	406.41	131.49	111.33	37.922	5.2072e-06	46.985	0.00017341	0.0001637	4.5712e-05	1249.8	1.8392e-06	1.7959e-06	1253.4	345.16	1.8288e-06	1.8015e-06	392.69	128.5	108.28	36.827	1.8207e-06	45.443	158.255	112.663	118.524	31.728	192.242	188.449	31.909	36.710	168.770	262.144	35.907	40.615	41.093	45.579	202.051	44.863	-8191	255	
36101.602	1	1	0	0	0.050675	0.041091	0.29603	0.20372	0.21084	0.058413	0.12502	0.23837	0.22359	0.10316	0.19733	0.22636	0.13471	0.23833	0.10692	0.32992	-3.3396	-3.1021	-3.1417	-3.7562	-2.9354	-3.4333	-3.5833	-2.9896	-3.5875	-3.1979	-3.1333	-3.8042	-2.9354	-3.3271	-3.4062	-3.0104	289.379	160.564	127.434	375.196	97.909	85.856	204.384	319.540	271.866	171.482	22.319	262.227	293.065	70.594	292.024	269.020	0.00028868	0.00043015	0.00012137	1291	4.4998e-06	5.565e-06	1282.4	354.33	5.5132e-06	2.9783e-06	406.77	131.19	111.52	37.86	2.8266e-07	46.647	0.00017569	0.00016512	4.6334e-05	1254	1.8609e-06	1.8041e-06	1250.8	345.23	1.8501e-06	1.8056e-06	392.2	128.34	108.51	36.781	1.7897e-06	45.3	156.668	140.878	81.809	32.062	181.225	185.783	31.975	36.627	168.319	172.724	35.671	40.848	40.988	45.689	116.209	44.812	-8191	255	
36101.723	1	1	0	0	0.10564	0.22507	0.17197	0.24004	0.080686	0.088857	0.064639	0.33723	0.13609	0.069943	0.097569	0.10274	0.12209	0.21603	0.16664	0.222	-3.3333	-3.1063	-3.0938	-3.8479	-2.8	-3.2708	-3.7729	-2.9458	-3.3167	-3.4188	-3.0229	-3.6146	-3.0417	-3.1292	-3.6208	-2.9521	109.016	231.487	347.624	347.745	29.650	316.544	85.275	337.631	228.617	134.967	84.872	330.560	376.621	350.645	323.689	286.675	0.00028692	0.00020913	0.00013614	1281.3	2.974e-06	3.9073e-06	1286.5	352.56	3.9185e-06	4.1015e-06	402.58	131	111.2	37.616	1.4388e-06	46.425	0.00017893	0.00016836	4.6085e-05	1250.3	1.8277e-06	1.8469e-06	1251.3	344.25	1.8225e-06	1.8109e-06	391.06	128.15	108.28	36.716	1.8273e-06	45.212	156.945	49.347	107.614	31.880	161.254	246.379	32.083	36.691	177.323	119.049	35.830	40.484	41.234	45.714	207.825	44.664	-8191	255	
36101.816	1	1	0	0	0.22298	0.14603	0.25484	0.36767	0.33563	0.068388	0.24364	0.19761	0.14657	0.088652	0.32884	0.16983	0.2228	0.042381	0.1455	0.15575	-3.0417	-3.2229	-2.7917	-3.7833	-3.0146	-3.2042	-3.6375	-2.9333	-3.3625	-3.4562	-2.975	-3.6875	-3.0396	-3.0563	-3.5875	-2.8771	138.042	167.038	29.811	334.186	61.169	340.319	285.938	333.369	315.742	78.207	294.538	302.377	210.213	373.062	156.045	104.971	0.00031405	0.00033908	0.00016382	1282.8	5.1221e-06	5.97e-06	1279	353.09	3.1672e-06	3.4091e-06	405.74	131.75	111.01	37.727	4.3173e-06	46.722	0.00017732	0.0001702	4.6694e-05	1251	1.8691e-06	1.8161e-06	1249.9	344.63	1.8626e-06	1.8357e-06	392.21	128.13	108.23	36.716	1.834e-06	45.341	152.430	149.034	59.801	32.041	182.987	176.073	32.042	36.455	182.661	114.495	35.674	40.886	41.385	45.317	205.901	44.614	-8191	255	
36101.910	1	1	0	0	0.26558	0.26325	0.11295	0.20584	0.12043	0.19572	0.086785	0.32245	0.18071	0.02456	0.075014	0.24404	0.3087	0.22312	0.24859	0.08179	-2.9021	-3.3167	-2.8	-3.6542	-3.1479	-2.9771	-3.725	-2.9771	-3.1396	-3.3937	-2.9167	-3.6792	-3.3604	-3.0187	-3.5729	-3.2333	198.429	205.442	259.551	352.133	267.114	317.902	348.070	351.608	83.817	32.616	42.043	340.531	283.638	37.033	73.595	348.042	0.00032274	0.00033433	0.00017468	1286.5	3.3964e-06	5.5767e-06	1282.1	352.39	3.3238e-06	2.1417e-06	406.5	131.11	110.94	37.453	3.9414e-06	46.699	0.00017637	0.00016784	4.7316e-05	1252	1.891e-06	1.8684e-06	1251	344.44	1.8703e-06	1.8628e-06	391.19	128.2	108.03	36.669	1.8662e-06	45.318	148.781	86.814	74.522	32.018	177.134	186.176	31.965	36.646	156.968	150.020	35.919	40.698	41.384	45.760	219.339	45.058	-8191	255	
36102.008	1	1	0	0	0.14491	0.010435	0.29311	0.21879	0.21936	0.081618	0.088782	0.39194	0.19286	0.028604	0.036761	0.17163	0.12827	0.10333	0.10165	0.14367	-2.7875	-3.4208	-2.8292	-3.675	-3.2562	-2.8958	-3.7479	-3.1792	-3.1271	-3.4667	-2.9083	-3.5042	-3.4604	-2.9667	-3.7146	-3.2458	256.298	106.520	215.870	356.233	68.485	207.250	314.615	300.713	177.261	260.500	98.670	358.340	327.968	255.398	52.041	349.185	0.00026203	0.00046163	8.9874e-05	1280.7	3.2235e-06	3.2812e-06	1281.1	352.06	2.6978e-06	2.0466e-06	406.23	130.34	111.18	37.565	4.6291e-06	46.58	0.00018027	0.0001691	4.7879e-05	1248.8	1.8821e-06	1.8614e-06	1251	344.39	1.9261e-06	1.8507e-06	390.89	128.09	108.23	36.59	1.8651e-06	45.274	157.808	113.810	71.332	31.983	197.854	173.481	31.835	36.714	172.038	154.335	36.009	40.667	41.450	45.586	212.915	44.606	-8191	255	
36102.105	1	1	0	0	0.16168	0.25005	0.061918	0.27061	0.26315	0.22072	0.14546	0.27284	0.072817	0.091379	0.17396	0.2309	0.38097	0.12439	0.091992	0.26893	-2.7042	-3.7313	-2.8354	-3.6	-3.3417	-2.8167	-3.8375	-3.1042	-2.9417	-3.5146	-3.125	-3.3229	-3.4271	-2.7917	-3.6604	-3.2854	270.561	39.387	303.171	357.160	113.932	280.464	265.220	286.677	279.330	135.588	50.941	325.579	317.944	180.171	117.030	283.884	0.00026498	0.00021425	0.00013504	1282.2	1.9124e-06	5.2038e-06	1274.9	352.02	4.4628e-06	2.6784e-06	404.35	130.89	111.14	37.655	6.5907e-06	46.554	0.00018135	0.0001686	4.7755e-05	1249.1	1.8505e-06	1.8462e-06	1247.8	343.63	1.8972e-06	1.8205e-06	391.13	128.15	108.16	36.704	1.8572e-06	45.292	161.416	169.092	106.056	31.986	226.171	176.013	32.039	36.581	163.547	191.478	36.253	40.191	41.294	45.415	193.958	44.851	-8191	255	
36102.199	1	1	0	0	0.33916	0.1509	0.1392	0.53321	0.20439	0.18594	0.06232	0.18608	0.17835	0.19782	0.19523	0.21132	0.14085	0.16026	0.13364	0.085072	-2.6208	-3.5375	-2.8729	-3.4354	-3.6	-2.7604	-3.4854	-3.2729	-2.8896	-3.6312	-3.1708	-3.3896	-3.4875	-2.9042	-3.3729	-3.4854	114.610	192.661	175.201	349.350	29.041	59.357	228.233	286.603	306.907	231.637	47.922	239.278	102.152	361.059	342.523	290.326	0.00029592	0.00039763	0.00015507	1284	3.0024e-06	5.9507e-06	1282.6	352.16	2.7686e-06	5.7741e-06	405.34	130.72	110.98	37.668	3.8475e-06	46.74	0.0001817	0.00016797	4.6793e-05	1249.6	1.873e-06	1.8641e-06	1249.5	344.12	1.8895e-06	1.8602e-06	391.77	128.1	108.19	36.716	1.8474e-06	45.341	155.920	128.132	103.006	31.825	190.784	193.872	31.857	36.415	189.783	147.600	36.061	40.478	41.305	45.742	225.630	44.927	-8191	255	
36102.320	1	1	0	0	0.15795	0.14668	0.18142	0.25839	0.15094	0.1929	0.22164	0.074918	0.31167	0.18715	0.17429	0.090806	0.27139	0.082089	0.20772	0.28011	-2.5396	-3.6917	-2.8708	-3.2583	-3.6146	-2.8104	-3.3479	-3.6146	-2.8208	-3.5896	-3.1188	-3.2167	-3.8125	-2.7938	-3.2125	-3.5396	207.206	357.902	321.870	343.552	96.806	106.137	273.447	272.323	252.914	226.565	230.836	290.944	306.299	74.418	279.628	43.727	0.00030234	0.00011068	5.6808e-05	1283.4	1.0922e-06	5.4784e-06	1282.1	351.94	1.6074e-06	3.2024e-06	406.4	130.87	110.92	37.652	2.9193e-06	46.773	0.00017945	0.00017041	4.7323e-05	1250.2	1.8877e-06	1.8561e-06	1249.8	344.07	1.897e-06	1.8451e-06	391.68	127.83	108.15	36.733	1.8417e-06	45.25	152.803	166.849	71.332	32.027	208.669	188.591	31.741	36.812	155.029	134.447	36.097	40.426	41.254	45.825	202.794	44.834	-8191	255	
36102.418	1	1	0	0	0.32445	0.15852	0.13127	0.1821	0.28947	0.25521	0.30053	0.045976	0.1771	0.10558	0.37282	0.30447	0.22614	0.18672	0.11651	0.37661	-2.3438	-3.4583	-3.0208	-3.1229	-3.7125	-2.8875	-3.5062	-3.6667	-2.8271	-3.5354	-3.4521	-3.0146	-3.6312	-2.9917	-3.1583	-3.6792	218.575	248.573	339.331	369.855	25.974	130.544	306.565	126.355	96.472	282.576	371.769	27.409	279.555	40.389	302.507	280.580	0.00027358	0.00042216	0.0001174	1276.2	1.5698e-06	2.5475e-06	1284.9	354.23	2.1862e-06	4.4556e-06	404.72	130.75	111.49	37.66	1.5603e-06	46.496	0.0001784	0.00016749	4.6855e-05	1245.4	1.8604e-06	1.8262e-06	1248.6	344.68	1.8526e-06	1.7882e-06	390.93	127.57	108.16	36.701	1.8474e-06	45.288	162.837	125.810	92.189	31.947	199.016	134.828	32.023	36.398	141.022	154.525	36.100	40.531	41.372	45.988	133.832	44.850	-8191	255	
36102.512	1	1	0	0	0.23577	0.11487	0.20814	0.14937	0.12034	0.16445	0.10782	0.068555	0.30537	0.26785	0.33232	0.13128	0.24329	0.32742	0.095275	0.1037	-2.5	-3.3937	-3.0042	-3.0333	-3.6646	-2.8729	-3.1042	-3.5958	-2.6958	-3.5563	-3.3833	-2.9562	-3.7583	-3.1146	-3.0896	-3.6167	171.803	170.656	221.133	319.547	280.912	126.735	258.025	153.532	42.592	105.379	284.913	343.302	322.092	62.312	288.423	369.313	0.00031702	0.00038017	7.8746e-05	1280.2	2.2093e-06	8.0075e-06	1280.4	351.6	3.928e-06	2.7975e-06	404.87	129.78	110.75	37.606	4.7583e-06	46.588	0.00017918	0.00016524	4.6133e-05	1245.2	1.8492e-06	1.804e-06	1247.9	343.79	1.8519e-06	1.8482e-06	391.32	127.63	107.76	36.727	1.8466e-06	45.263	157.317	125.802	53.389	31.821	185.852	178.871	31.823	36.635	220.020	173.858	36.073	40.595	41.073	45.709	198.429	44.780	-8191	255	
36102.586	1	1	0	0	0.090422	0.39572	0.042028	0.18458	0.13539	0.2275	0.14945	0.16745	0.19925	0.10844	0.14504	0.27958	0.054569	0.12964	0.12866	0.17306	-2.4208	-3.2167	-3.2521	-2.9104	-3.5563	-3.1354	-3.2208	-3.7417	-2.9354	-3.2354	-3.5125	-2.8021	-3.7062	-3.3146	-2.9	-3.6229	127.560	223.243	341.315	246.148	295.575	99.174	204.597	275.073	85.792	247.048	254.785	340.910	33.903	313.193	189.040	273.054	0.00027386	0.00025186	0.00014071	1277.2	2.2529e-06	5.7919e-06	1275.5	351.85	2.9204e-06	3.6142e-06	402.19	131.68	111.51	37.411	2.4876e-06	46.433	0.0001777	0.00016522	4.6717e-05	1246.3	1.8586e-06	1.8193e-06	1245.3	343.49	1.8187e-06	1.7915e-06	390.17	127.82	108.15	36.605	1.8209e-06	45.189	164.103	96.999	64.122	31.946	185.904	195.067	32.017	36.636	202.191	140.595	36.244	40.680	41.233	45.759	235.597	45.021	-8191	255	
36102.703	1	1	0	0	0.21252	0.18242	0.063406	0.36783	0.11325	0.085683	0.094317	0.048997	0.097481	0.10216	0.17954	0.20381	0.29024	0.072364	0.089059	0.21954	-2.5917	-3.2188	-3.4229	-3.0521	-3.4813	-3.2271	-3.1063	-3.7438	-3.0729	-3.0687	-3.7917	-2.875	-3.5229	-3.3937	-2.8854	-3.6875	333.204	174.198	69.006	368.469	147.383	269.438	44.935	119.528	370.590	105.447	325.697	47.765	45.375	336.369	169.532	314.907	0.00028684	0.00038743	0.00015833	1276.4	4.0482e-06	3.1359e-06	1277.3	349.82	3.127e-06	2.5707e-06	401.48	130.42	110.35	37.515	5.249e-06	46.295	0.00017526	0.00016731	4.6142e-05	1245.6	1.8164e-06	1.8236e-06	1245	342.58	1.848e-06	1.7918e-06	390	127.54	107.88	36.679	1.8151e-06	45.214	160.466	114.246	76.640	32.132	186.874	162.287	32.006	36.736	180.397	154.105	35.963	40.350	41.316	45.772	197.507	44.923	-8191	255	
36102.801	1	1	0	0	0.24939	0.19685	0.086842	0.12563	0.21623	0.11161	0.27842	0.27647	0.20736	0.22215	0.3213	0.19896	0.2384	0.35696	0.12983	0.038957	-2.6813	-3.0271	-3.6708	-2.9542	-3.4208	-3.5208	-2.9688	-3.7667	-3.0167	-2.8271	-3.8021	-2.7479	-3.2896	-3.4083	-2.8625	-3.7625	192.811	146.150	236.079	287.035	130.138	235.599	317.812	346.812	146.190	123.849	311.344	286.171	274.242	290.146	293.175	343.840	0.00031134	0.00060272	9.5689e-05	1272.9	4.8435e-06	2.2594e-06	1275.1	351.74	3.7322e-06	3.3276e-06	404.26	131.1	110.9	37.511	3.3511e-06	46.606	0.00017583	0.00016328	4.5991e-05	1244.3	1.8241e-06	1.8332e-06	1244	343.16	1.8428e-06	1.8068e-06	390.2	127.65	107.94	36.656	1.8267e-06	45.149	156.870	124.934	123.641	32.117	175.111	120.134	31.877	36.624	226.241	110.393	35.855	40.434	41.190	45.408	159.879	44.891	-8191	255	
36102.895	1	1	0	0	0.19659	0.17353	0.089863	0.085605	0.065169	0.049116	0.43339	0.18422	0.20067	0.1644	0.31852	0.037817	0.2708	0.13754	0.13528	0.065331	-2.9042	-2.9188	-3.5792	-3.0854	-3.2313	-3.4667	-2.9688	-3.7667	-3.0917	-2.8667	-3.8854	-3.0312	-3.2438	-3.5021	-2.8229	-3.5438	110.579	116.743	105.253	360.821	291.230	145.349	359.580	351.538	252.370	111.642	41.252	298.843	364.295	22.238	51.582	373.258	0.00024754	0.00012723	0.00013687	1277.7	4.8633e-06	7.8081e-06	1278.1	351.07	1.4382e-06	1.4314e-06	402.85	130.48	111.25	37.807	5.0882e-06	46.568	0.00017741	0.00016755	4.5852e-05	1244.7	1.8052e-06	1.801e-06	1243.9	343.21	1.8559e-06	1.8114e-06	390.41	127.61	107.85	36.762	1.8481e-06	45.21	156.953	108.082	76.039	31.922	204.484	181.804	31.998	36.530	205.816	162.056	35.955	40.599	41.380	46.030	185.930	44.709	-8191	255	
36102.992	1	1	0	0	0.20572	0.077719	0.33362	0.3542	0.073231	0.28971	0.20176	0.22978	0.1162	0.090185	0.15684	0.3772	0.2502	0.049606	0.11333	0.024734	-2.8438	-2.9042	-3.6833	-3.3625	-3.1229	-3.5917	-2.925	-3.4958	-3.275	-2.8625	-3.5687	-3.2146	-3.2458	-3.6125	-2.7542	-3.4979	187.882	318.576	59.991	324.411	196.933	31.741	343.481	319.856	155.308	103.580	288.982	337.809	348.918	365.227	49.284	317.200	0.00026382	0.00058576	5.7847e-05	1276	4.2227e-06	2.1665e-06	1273.9	349.81	1.0621e-06	4.7936e-06	402.2	130.92	110.03	37.785	2.2127e-06	46.477	0.00017705	0.00016775	4.61e-05	1243.9	1.8501e-06	1.8172e-06	1244.5	343.25	1.889e-06	1.807e-06	389.99	127.71	107.78	36.7	1.8365e-06	45.244	154.721	123.807	45.169	32.061	174.169	95.926	32.005	36.825	175.791	162.731	36.115	40.681	41.294	45.715	159.688	44.988	-8191	255	
36103.113	1	1	0	0	0.25479	0.15062	0.12254	0.19838	0.10337	0.19071	0.29901	0.20328	0.090934	0.13296	0.049936	0.13015	0.12119	0.26146	0.12961	0.069246	-2.9104	-2.8167	-3.6396	-3.1625	-2.8729	-3.6208	-2.8833	-3.4583	-3.6146	-2.9062	-3.8104	-3.2729	-3.0687	-3.6333	-2.8729	-3.3896	86.259	41.991	116.464	343.532	148.794	53.895	325.425	328.677	284.624	346.782	373.370	329.315	286.319	71.779	293.192	263.741	0.00031834	0.00025592	0.00015306	1278	2.7724e-06	2.0155e-06	1273.3	351.58	3.0244e-06	4.7237e-06	401.19	130.55	110.5	37.607	3.1691e-06	46.632	0.00017704	0.00016706	4.6413e-05	1244.4	1.8376e-06	1.8284e-06	1243.9	343.04	1.849e-06	1.849e-06	389.84	127.37	107.82	36.72	1.8226e-06	45.201	158.453	104.357	104.346	32.237	175.883	198.130	31.931	36.644	166.365	90.198	35.896	40.685	41.221	45.514	152.541	44.694	-8191	255	
36103.184	1	1	0	0	0.049213	0.24518	0.087107	0.088085	0.039572	0.097374	0.12338	0.27893	0.25176	0.042171	0.24353	0.20589	0.25514	0.18709	0.050947	0.078837	-3.2313	-2.7146	-3.4167	-3.4104	-2.9229	-3.7396	-3.0396	-3.3083	-3.4688	-2.7208	-3.7646	-3.3917	-2.9104	-3.6271	-3.0938	-3.3875	86.674	371.257	355.440	333.464	122.259	374.711	37.197	301.969	93.201	313.352	290.830	340.573	355.606	313.754	77.282	344.935	0.0002639	0.000489	0.00016512	1270.5	3.2743e-06	7.5541e-06	1271.2	348.91	2.5177e-06	4.1353e-06	401	130.9	109.83	37.739	2.096e-06	46.653	0.00017714	0.00016959	4.5178e-05	1242.8	1.8575e-06	1.797e-06	1243.8	342.49	1.8452e-06	1.8345e-06	389.82	127.56	107.5	36.725	1.7832e-06	45.278	149.749	114.612	118.065	32.061	161.080	185.932	32.298	36.773	198.888	107.802	35.983	40.945	41.127	45.822	251.802	44.791	-8191	255	
36103.281	1	1	0	0	0.11896	0.13035	0.11531	0.35502	0.13384	0.21042	0.037155	0.13118	0.11999	0.097876	0.25638	0.21174	0.053691	0.071813	0.17974	0.19198	-3.4146	-2.9458	-3.2979	-3.5646	-3.0187	-3.3688	-3.2042	-3.0417	-3.4146	-2.8792	-3.3438	-3.6021	-2.7667	-3.6333	-3.125	-3.1083	65.035	164.616	223.486	18.891	30.094	78.532	219.675	250.302	327.267	114.955	199.610	56.391	318.371	316.133	144.687	46.354	0.00029032	0.00041664	0.00015748	1273.4	5.6462e-06	7.4042e-06	1274.8	349.8	4.6416e-06	2.4535e-06	403.11	129.86	110.24	37.817	3.903e-06	46.677	0.00017428	0.00016597	4.6019e-05	1244.2	1.8388e-06	1.8158e-06	1243.5	342.88	1.8254e-06	1.8188e-06	389.41	127.4	107.62	36.724	1.8581e-06	45.245	154.996	94.691	94.325	32.165	143.582	181.635	31.946	36.542	198.445	153.846	36.137	40.747	41.080	45.503	165.540	45.028	-8191	255	
36103.402	1	1	0	0	0.44147	0.23233	0.12558	0.16381	0.15249	0.1007	0.18904	0.23677	0.085341	0.069551	0.31163	0.18882	0.20085	0.14064	0.047274	0.18384	-3.1562	-2.7562	-3.3021	-3.5917	-2.8771	-3.5833	-3.4271	-3.0812	-3.4667	-2.9167	-3.3479	-3.4854	-2.8125	-3.5438	-3.1125	-3.0646	57.673	236.248	281.600	59.312	202.551	286.818	285.530	372.091	233.959	191.924	360.769	59.607	102.287	328.907	285.514	260.582	0.00023534	0.000244	0.00011908	1278.3	3.4268e-06	4.3052e-06	1270.9	351.59	3.544e-06	3.1346e-06	402.2	130.59	109.89	37.47	3.6991e-06	46.106	0.00017493	0.0001675	4.6793e-05	1244.8	1.8534e-06	1.8104e-06	1243.6	342.83	1.8599e-06	1.8159e-06	389.97	127.5	107.57	36.586	1.8679e-06	45.085	163.916	150.196	65.804	31.898	211.831	184.916	31.931	36.334	153.877	158.545	35.849	40.747	41.258	45.530	204.140	44.847	-8191	255	
36103.496	1	1	0	0	0.14346	0.1971	0.17054	0.23652	0.118	0.091329	0.08931	0.20924	0.14543	0.15356	0.13851	0.24319	0.044618	0.080191	0.064935	0.013224	-3.1708	-2.9333	-3.2542	-3.7875	-2.875	-3.4792	-3.4292	-3.0542	-3.7604	-3.0167	-3.3333	-3.8125	-2.7833	-3.4708	-3.3792	-2.9021	299.605	179.594	35.843	27.069	191.174	237.314	342.003	338.506	315.305	33.688	95.533	300.415	155.935	265.374	309.770	131.638	0.00028386	0.00049911	0.00014778	1272.7	3.7721e-06	4.9984e-06	1269.4	350.17	1.85e-06	4.5162e-06	403.85	129.44	110.53	37.702	2.1157e-06	46.353	0.00017581	0.00016788	4.7734e-05	1243.6	1.8882e-06	1.8124e-06	1243.4	342.7	1.8393e-06	1.8236e-06	389.24	127.24	107.66	36.653	1.8246e-06	45.113	143.340	91.633	133.494	32.108	166.510	240.332	32.023	36.658	149.320	201.039	36.094	40.707	40.989	45.558	101.753	44.809	-8191	255	
36103.594	1	1	0	0	0.14604	0.033986	0.1146	0.22522	0.11681	0.084405	0.15942	0.31121	0.17602	0.28607	0.24776	0.10708	0.27031	0.13032	0.21519	0.14987	-3.2313	-3.1021	-2.8688	-3.8812	-2.8729	-3.3458	-3.5292	-3.0583	-3.5333	-3.0896	-3.2167	-3.5812	-3.0625	-3.2854	-3.5104	-3.0854	184.484	42.506	22.011	288.134	162.886	209.527	354.946	320.399	162.615	154.358	264.730	213.462	375.640	345.229	198.805	260.600	0.00027461	0.00038295	8.8975e-05	1271	4.0905e-06	2.0655e-06	1269.3	347.99	2.3654e-06	1.8893e-06	401.29	129.55	109.66	37.181	2.2811e-06	46.324	0.00017717	0.00016916	4.6681e-05	1243	1.8959e-06	1.8113e-06	1243.1	341.78	1.8316e-06	1.8198e-06	389.47	127.2	107.35	36.521	1.8372e-06	45.086	151.919	125.059	105.003	32.291	204.942	188.367	32.150	36.864	178.461	174.583	36.149	41.055	41.322	46.121	160.588	44.949	-8191	255	
36103.711	1	1	0	0	0.12139	0.17411	0.16314	0.26665	0.040404	0.15699	0.31515	0.22531	0.099675	0.16813	0.29577	0.25876	0.10786	0.19218	0.083066	0.12805	-3.2167	-3.3083	-2.8521	-3.8333	-3.0333	-3.2917	-3.6833	-3.0583	-3.4542	-3.2375	-2.9625	-3.8063	-3.0604	-3.2125	-3.6292	-2.9667	87.759	130.041	278.538	354.657	304.233	43.718	301.197	349.941	240.307	203.555	67.690	326.759	367.382	309.352	279.610	367.318	0.00033923	0.00023707	8.7349e-05	1264.7	3.2723e-06	3.7416e-06	1271.2	347.39	5.0546e-06	1.773e-06	401.45	129.47	109.57	37.461	3.2746e-06	45.876	0.00017733	0.0001683	4.6475e-05	1239.6	1.87e-06	1.826e-06	1242.7	341.61	1.8676e-06	1.8409e-06	389.13	127.32	107.33	36.629	1.8282e-06	44.975	159.234	94.185	140.605	32.436	156.653	158.797	32.108	36.763	177.947	212.769	36.037	41.062	41.540	45.816	199.423	45.063	-8191	255	
36103.809	1	1	0	0	0.18062	0.15079	0.17418	0.11004	0.13887	0.10555	0.21238	0.12394	0.069814	0.2883	0.32409	0.11849	0.04155	0.19087	0.15279	0.088734	-3.125	-3.2938	-2.8625	-3.8333	-3.0792	-2.9104	-3.8729	-3.1208	-3.3271	-3.5687	-2.9667	-3.7083	-3.1604	-3.2042	-3.7229	-2.8729	235.075	377.432	232.569	331.247	201.254	293.714	318.589	343.351	349.233	56.508	374.988	117.423	319.195	219.991	120.905	305.698	0.00027204	0.0004801	9.067e-05	1263.9	2.9401e-06	4.109e-06	1263.9	348.19	3.1016e-06	5.9431e-06	398.44	129.75	109.79	37.188	3.8162e-06	45.911	0.00017813	0.00016794	4.708e-05	1240.9	1.8683e-06	1.8274e-06	1241.5	341.65	1.8403e-06	1.7873e-06	388.11	127.41	107.31	36.562	1.8442e-06	44.991	160.890	134.765	99.079	32.284	179.102	209.697	32.466	37.144	186.599	112.056	36.166	40.669	41.667	46.202	198.287	45.154	-8191	255	
36103.879	1	1	0	0	0.18476	0.13412	0.16062	0.20617	0.1418	0.14492	0.28199	0.063047	0.21369	0.11206	0.036723	0.16834	0.17435	0.22901	0.13742	0.20017	-2.9688	-3.575	-2.8729	-3.7729	-3.1521	-2.9458	-3.8375	-3.0479	-3.2583	-3.5167	-2.9875	-3.7104	-3.3104	-3.0042	-3.5417	-3.0062	64.601	126.776	247.957	329.975	264.653	65.035	285.017	364.289	202.078	144.692	46.966	91.438	24.202	45.711	78.444	317.499	0.0002443	0.00027261	0.00017978	1268.1	3.3289e-06	4.8873e-06	1265.2	348.02	1.4122e-06	6.096e-06	399.94	129.87	110.21	37.358	3.7829e-06	46.082	0.00017515	0.0001652	4.6311e-05	1241.3	1.8601e-06	1.8467e-06	1241.4	341.83	1.8294e-06	1.8269e-06	388.08	127.33	107.51	36.558	1.8265e-06	45.07	154.633	98.109	92.772	32.297	174.556	174.399	32.442	37.148	191.273	122.761	36.176	40.795	41.570	45.649	199.506	44.984	-8191	255	
36104.000	1	1	0	0	0.0684	0.11376	0.18745	0.20997	0.15421	0.21743	0.39353	0.13884	0.059667	0.073019	0.22528	0.20593	0.10756	0.16556	0.13763	0.22411	-2.8229	-3.4188	-2.7729	-3.4792	-3.3625	-3.0042	-3.6896	-3.1437	-3.0979	-3.6771	-2.9396	-3.6042	-3.5479	-2.9167	-3.7438	-3.2042	98.015	112.177	56.212	361.414	65.410	335.178	317.428	369.772	214.720	54.757	294.121	361.279	54.852	172.568	293.663	342.889	0.00030473	0.00025507	0.00010051	1261.1	3.1145e-06	5.7516e-06	1260.5	346.04	3.6855e-06	1.0115e-06	397.83	129.27	109.44	37.124	4.3833e-06	46.071	0.00017344	0.00016438	4.6724e-05	1239	1.8185e-06	1.8057e-06	1239.6	341.31	1.848e-06	1.7841e-06	388.06	127.15	107.22	36.433	1.8165e-06	45.083	158.258	106.939	123.817	32.371	164.537	201.749	32.587	37.099	197.515	137.928	36.509	41.366	41.640	46.038	224.344	45.039	-8191	255	
36104.098	1	1	0	0	0.081153	0.17577	0.18802	0.18915	0.16893	0.083899	0.18027	0.053768	0.10919	0.071556	0.20355	0.18728	0.067596	0.22923	0.17672	0.027682	-2.6396	-3.5312	-2.8354	-3.4083	-3.3146	-2.8771	-3.7042	-3.3167	-3.0333	-3.6792	-3.0333	-3.4062	-3.6063	-2.9875	-3.4917	-3.2188	170.216	247.238	226.443	345.439	93.321	273.303	19.892	40.855	72.948	336.970	342.841	31.706	292.418	308.425	210.082	354.231	0.00024954	0.00042651	0.00013573	1269.9	6.0822e-06	3.749e-06	1267.2	347.35	4.6567e-06	7.6057e-07	398.56	129.78	109.56	37.147	2.2467e-06	45.943	0.00017406	0.00016739	4.5988e-05	1241.9	1.861e-06	1.8e-06	1242.2	341.12	1.825e-06	1.8077e-06	387.54	127.11	107.32	36.445	1.8111e-06	45.094	159.278	103.383	92.567	32.024	176.095	243.999	32.449	37.061	182.014	299.932	36.350	40.651	41.493	45.841	219.190	45.037	-8191	255	
36104.191	1	1	0	0	0.19448	0.13198	0.037539	0.13179	0.16418	0.13326	0.26376	0.34837	0.25524	0.036503	0.2423	0.054756	0.1915	0.094007	0.11548	0.18383	-2.625	-3.6521	-3.0083	-3.5146	-3.5938	-2.8604	-3.75	-3.3104	-2.8125	-3.6542	-3.0687	-3.3063	-3.7521	-2.9542	-3.4771	-3.4667	375.985	56.961	63.335	279.882	85.648	173.451	317.540	319.768	225.329	58.477	24.736	52.583	21.451	222.393	195.142	123.545	0.00027635	0.00038348	0.00026058	1268.2	5.8166e-06	4.8586e-06	1268.1	347.37	2.8673e-06	3.0165e-06	400.37	128.79	109.74	37.182	2.9177e-06	46.487	0.00017344	0.00016382	4.5809e-05	1239.9	1.8273e-06	1.7922e-06	1241.9	341.3	1.8477e-06	1.7648e-06	388.19	126.96	107.49	36.442	1.8164e-06	45.082	164.685	96.283	115.834	32.123	197.670	224.656	32.266	36.780	186.761	186.489	36.216	40.998	41.570	45.590	181.899	45.244	-8191	255	
36104.289	1	1	0	0	0.11132	0.032224	0.18664	0.20421	0.16261	0.18467	0.1386	0.20839	0.1101	0.10167	0.19113	0.27068	0.073874	0.26084	0.16018	0.03316	-2.2542	-3.6333	-3.1042	-3.2062	-3.5542	-2.95	-3.5292	-3.6542	-2.9042	-3.6208	-3.2229	-3.025	-3.7917	-2.8958	-3.2708	-3.4896	313.373	81.603	237.467	36.989	22.423	21.303	252.939	351.801	85.729	186.531	306.872	235.628	94.134	343.846	366.694	285.298	0.00027026	0.00050766	0.00013183	1262	1.5107e-06	2.4711e-06	1270.6	349.02	4.7038e-06	1.3507e-06	400.75	129.75	109.39	37.33	3.387e-06	46.287	0.00017503	0.00016267	4.5801e-05	1237.2	1.8143e-06	1.8236e-06	1242.3	341.99	1.8468e-06	1.7812e-06	388.49	127.28	107.17	36.536	1.8086e-06	45.147	157.250	84.842	92.098	31.987	230.799	213.082	31.899	36.969	178.108	149.212	36.528	40.654	41.241	45.861	182.460	45.309	-8191	255	
36104.410	1	1	0	0	0.16919	0.1919	0.15499	0.32839	0.38765	0.17941	0.24976	0.19569	0.016255	0.017191	0.16755	0.13232	0.17674	0.27259	0.14162	0.20603	-2.5229	-3.6354	-3.3583	-3.2188	-3.6542	-3.0542	-3.4833	-3.7583	-2.9	-3.5187	-3.4229	-3.2375	-3.6875	-3.1771	-3.2062	-3.7	87.911	202.463	51.976	317.173	377.113	126.645	350.483	369.061	210.828	265.816	318.838	260.270	364.850	302.856	62.279	358.856	0.0002812	0.00035688	0.00016105	1265.2	2.4287e-06	4.3817e-06	1267.9	348.1	4.8712e-06	1.8348e-06	400.56	129.02	109.8	37.107	4.1902e-06	46.275	0.00017675	0.00016281	4.6008e-05	1237.9	1.8201e-06	1.8012e-06	1242.5	342.09	1.8159e-06	1.7922e-06	388.39	126.93	107.29	36.402	1.7863e-06	45.08	154.178	86.096	101.204	32.212	161.164	238.446	32.358	37.010	191.439	108.907	36.492	41.074	41.637	45.794	183.948	45.197	-8191	255	
36104.480	1	1	0	0	0.031871	0.050879	0.10118	0.1676	0.14208	0.12901	0.18055	0.086738	0.22436	0.16103	0.10734	0.15187	0.37285	0.089685	0.068141	0.3047	-2.4792	-3.5979	-3.2833	-3.0875	-3.7396	-3.0312	-3.3958	-3.7521	-2.85	-3.3896	-3.4292	-3.0062	-3.5729	-3.0375	-3.1688	-3.7167	231.737	104.034	20.355	329.580	285.239	366.845	333.538	248.952	83.748	88.911	72.660	51.439	341.771	80.685	251.928	26.467	0.00031623	0.00022376	5.7065e-05	1262.2	5.1749e-06	6.0044e-06	1271.4	349.38	9.3284e-07	4.5194e-06	400.44	129.41	109.29	37.347	4.8723e-06	46.294	0.00017326	0.0001644	4.5794e-05	1238.7	1.801e-06	1.7874e-06	1240.9	342.04	1.8122e-06	1.8046e-06	388.64	127.13	107.27	36.472	1.7952e-06	45.066	159.736	91.590	138.137	32.449	193.313	181.467	32.132	37.034	223.988	136.039	36.110	40.862	41.482	45.575	180.280	45.183	-8191	255	
36104.578	1	1	0	0	0.098401	0.24847	0.12884	0.14294	0.12621	0.15449	0.16912	0.17938	0.15904	0.20258	0.12349	0.32944	0.20322	0.26831	0.12354	0.1312	-2.525	-3.3583	-3.475	-3.0646	-3.5771	-3.2479	-3.275	-3.7896	-2.9271	-3.5563	-3.7104	-3.0167	-3.7875	-3.2708	-2.9125	-3.7104	287.396	104.839	42.234	366.243	319.817	129.489	247.324	365.922	302.073	372.294	233.068	30.938	30.024	316.033	252.281	358.144	0.000259	0.00046927	9.8208e-05	1270.7	4.0699e-06	7.0277e-06	1265.4	348.97	5.0625e-06	5.1215e-06	401.13	129.56	110.24	37.339	3.9265e-06	46.212	0.00017433	0.00016461	4.5116e-05	1240.9	1.8025e-06	1.8139e-06	1241.5	341.69	1.8002e-06	1.7883e-06	388.81	127.12	107.59	36.544	1.8012e-06	45.019	155.683	110.664	99.014	32.366	179.558	161.123	32.246	36.976	184.917	97.571	36.455	41.050	41.465	46.216	190.218	45.198	-8191	255	
36104.676	1	1	0	0	0.18845	0.11583	0.075429	0.076258	0.11617	0.039262	0.33506	0.12357	0.019618	0.18704	0.059238	0.13976	0.030914	0.1146	0.11869	0.19063	-2.7708	-3.2958	-3.5187	-2.8375	-3.625	-3.3625	-3.2375	-3.8438	-3.0021	-3.0062	-3.3812	-2.7146	-3.1083	-3.2062	-2.6417	-3.5104	311.438	179.569	149.612	355.598	377.323	206.467	347.187	355.414	275.190	372.356	238.513	319.633	118.515	365.665	135.378	22.131	0.00030156	0.0004379	0.00010052	1268.9	3.5189e-06	3.0803e-06	1271.8	347.62	5.9422e-06	4.5839e-06	400.13	129.22	109.1	37.351	2.7739e-06	46.272	0.00017059	0.00016167	4.5104e-05	1239.5	1.8011e-06	1.7782e-06	1242.7	341.52	1.8195e-06	1.7629e-06	388.15	126.97	107.33	36.478	1.7875e-06	45.038	156.711	145.135	92.267	32.052	206.490	233.966	31.968	36.995	202.421	146.266	36.419	40.777	41.439	45.748	205.400	44.809	-8191	255	
36104.793	1	1	0	0	0.084562	0.13656	0.11574	0.16188	0.17924	0.13845	0.069717	0.26026	0.076732	0.17257	0.23934	0.093245	0.31382	0.044419	0.20255	0.080584	-2.4146	-2.7792	-3.2125	-2.7083	-3.2896	-3.1813	-2.8125	-3.5479	-2.9708	-2.8833	-3.3063	-2.8875	-3.2042	-3.2292	-2.6021	-3.4	227.272	375.435	222.079	311.100	277.153	119.658	358.537	376.976	219.338	364.180	317.324	224.519	329.274	232.370	163.200	336.685	0.00029455	0.00015051	9.9349e-05	1267.7	3.6481e-06	3.6364e-06	1275.6	349.99	4.877e-06	2.1806e-06	404.1	129.94	109.52	37.486	2.9495e-06	46.532	0.00016932	0.00016117	4.4058e-05	1239.6	1.7544e-06	1.7209e-06	1242.1	341.64	1.7637e-06	1.7504e-06	389.76	127.03	107.11	36.477	1.7583e-06	45.107	160.353	104.503	143.362	32.062	185.683	201.748	32.038	36.653	191.834	202.047	36.168	40.728	41.193	45.647	171.120	44.548	-8191	255	
36104.891	1	1	0	0	0.11429	0.10564	0.05583	0.42988	0.35225	0.081445	0.28457	0.11482	0.16456	0.057789	0.12704	0.31356	0.23039	0.28013	0.06503	0.39167	-2.5396	-2.8875	-3.35	-2.9813	-3.0354	-3.3917	-2.9083	-3.3042	-2.9667	-2.7417	-3.6437	-2.9375	-2.9313	-3.3667	-2.6271	-3.3333	219.625	165.089	181.719	329.837	172.618	94.851	309.697	177.764	136.642	113.571	354.045	334.911	344.827	341.347	69.593	304.246	0.00032296	0.00030731	0.00018084	1268.2	4.5621e-06	4.3036e-06	1269.2	349.14	1.7312e-06	2.4038e-06	401.49	130.26	110.46	37.263	1.6001e-06	46.204	0.00016776	0.00015895	4.3462e-05	1239.8	1.7761e-06	1.6922e-06	1240.2	341.47	1.7382e-06	1.735e-06	388.65	126.84	107.44	36.458	1.715e-06	44.999	147.055	71.242	89.853	32.014	161.487	158.327	31.898	36.817	188.385	164.327	35.765	40.544	41.218	45.764	212.077	44.920	-8191	255	
36104.984	1	1	0	0	0.1248	0.17313	0.28743	0.21543	0.16485	0.35425	0.32242	0.32615	0.081718	0.34093	0.11206	0.29362	0.047029	0.25563	0.16176	0.14071	-2.7917	-2.6458	-3.5375	-3.0187	-2.9667	-3.35	-2.9417	-3.3229	-3.1708	-2.8625	-3.5875	-3.0938	-3.0479	-3.4292	-2.6208	-3.3	364.233	255.844	228.261	356.031	334.104	157.083	53.702	347.558	174.433	174.544	94.118	356.119	112.121	272.100	356.699	282.202	0.00030885	0.00032856	9.4232e-05	1270.9	3.3895e-06	1.0202e-06	1275.8	349.86	3.936e-06	6.1976e-06	400.92	130.3	110.04	37.428	5.1341e-06	46.32	0.00016379	0.00015648	4.3017e-05	1240.4	1.7325e-06	1.6692e-06	1241.3	341.7	1.7229e-06	1.6431e-06	387.79	127	107.18	36.49	1.6991e-06	44.932	159.534	375.401	112.516	32.020	205.996	258.944	32.055	36.547	175.640	170.034	36.190	40.685	41.345	45.655	207.065	44.685	-8191	255	
36105.082	1	1	0	0	0.28963	0.11855	0.11211	0.2799	0.11547	0.090872	0.28073	0.14824	0.064822	0.18363	0.24037	0.31392	0.15306	0.013388	0.29873	0.19947	-3.0146	-2.6021	-3.3146	-3.1667	-2.9104	-3.3979	-2.8292	-3.1667	-3.1937	-2.5458	-3.4229	-3.0458	-2.7604	-3.4021	-2.7333	-3.1833	133.938	73.193	371.741	266.308	271.224	94.612	44.558	378.389	170.181	112.994	55.556	354.283	318.444	101.685	122.089	320.573	0.00027554	0.00020822	0.00011302	1269.4	3.2889e-06	5.0621e-06	1273.8	350.23	3.1859e-06	3.3977e-06	403.14	130.36	109.89	37.301	2.5293e-06	46.211	0.00016531	0.00015464	4.2153e-05	1239.7	1.7011e-06	1.6405e-06	1240.7	341.7	1.6845e-06	1.6681e-06	388.57	127.24	107.24	36.439	1.6558e-06	45.008	156.223	103.022	85.485	32.136	203.047	210.767	31.753	36.465	188.968	144.417	35.955	40.837	41.297	45.538	204.686	44.816	-8191	255	
36105.176	1	1	0	0	0.28257	0.12143	0.0726	0.23309	0.19707	0.13462	0.11844	0.12566	0.12541	0.22219	0.078037	0.085911	0.091723	0.26132	0.22793	0.067018	-2.9833	-2.6458	-3.2771	-3.0729	-2.7917	-3.4167	-2.8937	-3.1437	-3.4646	-2.7208	-3.3771	-3.3208	-2.6562	-3.4542	-2.8146	-3.0083	38.805	170.947	276.619	283.622	211.398	234.609	196.947	255.861	190.986	63.286	366.419	133.981	33.403	343.972	112.142	358.774	0.00027547	0.00025441	4.605e-05	1275.9	3.173e-06	2.3076e-06	1270.7	351.35	3.9611e-06	2.9218e-06	403.96	130.21	110.02	37.492	2.8775e-06	46.366	0.00016096	0.0001519	4.2273e-05	1240.7	1.692e-06	1.6366e-06	1241.1	342.11	1.6461e-06	1.6216e-06	388.42	126.66	106.86	36.514	1.6371e-06	44.958	157.345	124.150	70.083	31.952	209.937	166.126	32.120	36.579	198.960	97.714	35.867	40.447	41.236	45.613	187.137	44.763	-8191	255	
36105.273	1	1	0	0	0.21988	0.19851	0.11454	0.19015	0.16094	0.11153	0.041775	0.049653	0.13574	0.15935	0.073736	0.25501	0.2352	0.09733	0.076534	0.1762	-3.0771	-2.5167	-3.3208	-3.4875	-2.7125	-3.4021	-2.9917	-3.0083	-3.4021	-2.6083	-3.2458	-3.3354	-2.9896	-3.4729	-2.9958	-2.8187	227.870	248.510	32.501	374.840	284.596	71.202	43.875	82.949	100.547	77.893	298.960	253.554	48.626	292.978	331.874	20.052	0.00028406	0.00032734	0.00012564	1270.7	2.8331e-06	7.5672e-06	1280.2	350.66	3.926e-06	2.9315e-06	403.6	130.25	110.22	37.465	1.3206e-06	46.45	0.00015934	0.00015106	4.0626e-05	1239.6	1.6562e-06	1.6164e-06	1241	341.68	1.6608e-06	1.6223e-06	388.22	126.98	107.21	36.36	1.6359e-06	44.984	148.009	113.784	121.737	31.990	209.307	176.157	31.946	36.698	203.681	153.680	35.856	40.687	41.217	45.567	217.371	44.691	-8191	255	
36105.395	1	1	0	0	0.083929	0.23696	0.37822	0.25229	0.34971	0.10496	0.2605	0.30372	0.14601	0.127	0.26336	0.26662	0.27197	0.14927	0.22658	0.38775	-2.8937	-2.5583	-3.1625	-3.4646	-2.6458	-3.2292	-3.2271	-2.9896	-3.4729	-2.6562	-3.1125	-3.4375	-2.7146	-3.2979	-3.05	-2.8563	347.477	194.094	318.755	344.030	181.967	43.196	377.859	328.697	89.475	137.870	329.396	272.483	56.481	353.446	118.672	336.833	0.00026572	0.00031608	0.00013183	1272.5	4.2165e-06	3.6849e-06	1271.3	347.81	5.7116e-06	2.8784e-06	402.18	130.06	110.17	37.32	3.9785e-06	46.494	0.0001564	0.00014778	4.0568e-05	1240.1	1.6285e-06	1.5679e-06	1240	341.48	1.6171e-06	1.5747e-06	388.13	126.91	107.01	36.417	1.5806e-06	44.943	156.102	140.117	100.386	32.143	182.466	186.831	32.149	36.440	192.511	153.900	35.679	40.634	40.949	45.545	227.853	44.629	-8191	255	
36105.488	1	1	0	0	0.019192	0.08195	0.09861	0.13398	0.24103	0.089099	0.30822	0.34772	0.1946	0.024276	0.18107	0.13701	0.28131	0.10812	0.21794	0.18338	-3.0583	-2.7542	-2.9813	-3.3771	-2.5042	-3.1729	-3.3333	-2.775	-3.525	-2.8333	-2.9375	-3.3854	-2.7812	-3.1479	-3.3875	-2.825	260.471	177.981	150.292	345.058	84.977	244.374	336.378	341.626	360.173	346.601	307.888	278.153	55.376	208.786	79.432	223.243	0.00026961	0.00018294	0.00010363	1272.1	3.5719e-06	5.6788e-06	1267	349.21	2.0314e-06	2.2019e-06	400.99	129.85	110.06	37.429	4.7109e-06	46.18	0.00015398	0.00014402	3.9726e-05	1239.3	1.6263e-06	1.5923e-06	1240.6	341.09	1.6073e-06	1.5604e-06	387.78	126.74	106.92	36.385	1.5734e-06	44.877	161.011	151.880	95.854	31.998	194.365	195.674	32.181	36.509	189.441	233.819	36.084	40.767	41.169	45.753	180.414	44.815	-8191	255	
36105.586	1	1	0	0	0.13017	0.16334	0.090027	0.26388	0.19048	0.081178	0.20795	0.11048	0.14578	0.10423	0.088568	0.038716	0.098968	0.34081	0.21853	0.26797	-2.9062	-2.8312	-2.8854	-3.4562	-2.5083	-3.1375	-3.2604	-2.5875	-3.2792	-3.0167	-2.7896	-3.4979	-2.9792	-3.1875	-3.4188	-2.7438	347.017	123.927	271.655	301.730	51.562	170.526	250.382	306.872	70.911	219.609	347.092	34.215	68.713	22.485	151.321	353.011	0.00028244	0.00022949	0.00016784	1266.2	2.6667e-06	7.6906e-06	1260.1	345.02	8.7099e-07	3.5994e-06	392.86	127.91	107.96	37.417	3.87e-06	46.313	0.00015165	0.00014044	3.9391e-05	1238.2	1.5807e-06	1.55e-06	1238	339.89	1.5355e-06	1.5512e-06	385.2	126.61	106.59	36.422	1.5541e-06	44.926	160.251	124.155	119.222	32.276	196.197	184.391	32.679	37.502	111.383	135.023	37.415	41.644	42.044	45.856	209.342	44.580	-8191	255	
36105.680	1	1	0	0	0.22793	0.15829	0.16681	0.17357	0.038953	0.31977	0.25183	0.19603	0.072727	0.27332	0.2927	0.10853	0.013661	0.12704	0.028288	0.13497	-2.9917	-2.9542	-2.4417	-3.5833	-2.7458	-2.9375	-3.625	-2.7188	-3.3729	-3.1521	-2.9437	-3.6021	-2.8917	-3.0292	-3.4042	-2.8229	58.426	303.999	316.159	295.931	350.511	184.164	347.956	354.884	216.598	207.063	65.041	122.599	374.510	58.226	224.687	256.876	0.00027729	0.00028726	0.00013229	1274.6	5.7441e-06	4.9543e-06	1276.7	350.66	2.2277e-06	3.9949e-06	400.85	130.28	110.12	37.575	5.7041e-06	46.324	0.00015043	0.00014204	3.9147e-05	1243.3	1.5888e-06	1.5267e-06	1243.1	341.38	1.5632e-06	1.5176e-06	387.47	127.12	107.17	36.45	1.5431e-06	44.812	153.202	95.280	103.545	31.884	185.137	183.883	31.758	36.455	151.116	145.829	35.454	40.737	41.064	45.576	190.449	44.781	-8191	255	
36105.777	1	1	0	0	0.22837	0.2413	0.23499	0.36999	0.20358	0.11535	0.24648	0.15608	0.14854	0.072026	0.35746	0.20029	0.21027	0.088878	0.27921	0.064701	-2.8792	-3.2167	-2.7021	-3.4188	-3.125	-2.95	-3.6688	-2.825	-3.0687	-3.2833	-2.6188	-3.4875	-3.0667	-2.8688	-3.2896	-2.8208	179.541	53.916	307.881	338.325	74.616	50.274	360.910	47.535	317.981	145.199	265.940	314.816	47.326	271.733	231.245	284.427	0.0002569	0.0003389	0.00013817	1278.4	1.3395e-06	3.5728e-06	1275.2	350.84	3.8508e-06	3.4079e-06	404.55	130.34	110.01	37.359	5.0811e-06	46.509	0.00014847	0.0001398	3.9094e-05	1242.9	1.5484e-06	1.5212e-06	1241.7	341.06	1.5795e-06	1.5136e-06	387.89	127.06	106.91	36.383	1.5201e-06	44.916	163.726	142.758	122.252	31.901	178.141	198.941	31.920	36.473	167.182	192.391	35.448	40.728	41.337	45.353	162.477	44.415	-8191	255	
36105.871	1	1	0	0	0.10851	0.067474	0.17343	0.11851	0.29916	0.095724	0.26231	0.35085	0.18503	0.1617	0.08027	0.086813	0.34046	0.12559	0.05779	0.33208	-2.7562	-3.1833	-2.6021	-3.5104	-3.0812	-2.9	-3.4958	-2.9604	-2.9646	-3.1854	-2.6917	-3.4396	-3.2125	-2.9271	-3.5042	-2.8875	349.238	264.656	51.843	314.199	247.885	82.064	361.565	298.891	243.533	304.829	49.839	324.515	227.438	339.912	62.796	53.778	0.00032979	0.00045227	5.2235e-05	1276.7	4.1779e-06	2.153e-06	1279.8	350.19	3.5136e-06	4.1623e-06	403.09	130.3	109.82	37.253	1.9109e-06	46.071	0.00014954	0.00013969	3.8736e-05	1240.2	1.5532e-06	1.534e-06	1243.2	341.7	1.569e-06	1.4968e-06	387.32	126.87	106.72	36.207	1.5426e-06	44.769	152.304	94.193	123.217	31.955	232.363	126.955	31.809	36.461	165.664	161.449	35.795	40.199	41.134	45.812	148.848	44.690	-8191	255	
36105.969	1	1	0	0	0.18191	0.060309	0.16013	0.11357	0.25039	0.30071	0.2225	0.13487	0.14902	0.067667	0.2299	0.31189	0.093485	0.46391	0.02938	0.20965	-2.7083	-3.2896	-2.6042	-3.2729	-3.1688	-2.7354	-3.6333	-3.0375	-2.8187	-3.2729	-2.8458	-3.3563	-3.3125	-2.6813	-3.2625	-3.1813	357.259	197.204	238.917	69.707	375.553	271.200	289.096	109.264	287.293	176.667	343.186	22.276	178.735	344.919	80.566	369.420	0.00027224	0.00022729	9.2149e-05	1276.2	3.4287e-06	4.5571e-06	1280.4	351.77	4.4172e-06	3.9757e-06	405.1	130.74	110.7	37.676	4.6511e-06	46.825	0.00015082	0.00014114	4.0458e-05	1240.7	1.6077e-06	1.6328e-06	1245.5	342.15	1.6801e-06	1.668e-06	390.13	127.69	107.55	36.605	1.7855e-06	45.287	156.833	113.857	86.111	31.833	211.582	164.126	31.844	36.380	189.478	143.194	36.063	40.201	41.022	45.590	182.415	44.579	-8191	255	
36106.090	1	1	0	0	0.25063	0.097422	0.094758	0.21032	0.096387	0.24629	0.1975	0.16579	0.042598	0.16419	0.05602	0.1099	0.16091	0.2019	0.16731	0.14077	-2.5833	-3.3688	-2.6917	-3.225	-3.3729	-2.6979	-3.3812	-3.075	-2.7958	-3.35	-2.7458	-3.025	-3.3563	-2.7562	-3.5375	-3.2188	145.733	71.046	349.723	357.178	133.618	117.628	304.153	351.556	308.329	329.546	145.169	319.593	358.751	351.814	210.035	254.622	0.00027247	0.00060005	3.4029e-05	1294.4	5.0196e-06	4.5778e-06	1303.9	356.08	1.6977e-06	2.0252e-06	408.15	132.47	111.74	37.994	5.839e-06	47.225	0.00017444	0.00016972	4.7831e-05	1259.7	1.9419e-06	1.923e-06	1267.3	347.13	1.9759e-06	1.914e-06	395.34	129.01	108.78	37.017	1.9748e-06	45.828	161.969	123.491	204.377	31.913	184.400	224.064	31.746	36.483	207.768	128.097	35.489	40.478	41.056	45.331	176.546	44.844	-8191	255	
36106.188	1	1	0	0	0.12954	0.032631	0.15921	0.19889	0.12011	0.19549	0.14295	0.25737	0.28734	0.0078062	0.15192	0.27568	0.11131	0.16195	0.098892	0.13564	-2.3167	-3.2708	-2.8229	-3.1125	-3.2583	-2.6792	-3.5771	-3.2625	-2.6271	-3.3146	-2.9688	-3.0312	-3.375	-2.7146	-3.2188	-3.3563	35.696	257.545	258.876	349.654	222.599	42.766	261.791	302.873	336.727	195.511	355.969	131.614	287.018	358.025	340.356	351.708	0.00025836	0.00032471	0.00015903	1304.4	5.566e-06	4.3939e-06	1308.8	360.99	1.1497e-06	3.4354e-06	412.1	132.94	112.82	38.33	2.9512e-06	47.709	0.00018754	0.00017968	5.0712e-05	1271.5	2.0115e-06	2.0043e-06	1276.8	350.41	2.0579e-06	2.0681e-06	399.21	130.18	110.08	37.433	2.135e-06	46.285	158.979	135.909	61.548	31.775	187.719	165.703	31.392	36.381	211.748	130.785	35.898	40.273	41.107	45.286	166.228	44.299	-8191	255	
36106.281	1	1	0	0	0.26458	0.13423	0.12354	0.24036	0.15276	0.13676	0.2754	0.28247	0.24729	0.082883	0.17513	0.42549	0.38401	0.25184	0.16433	0.24728	-2.4437	-3.35	-2.9292	-3.0542	-3.4313	-2.7375	-3.3375	-3.4792	-2.7062	-3.5896	-3.0625	-2.9208	-3.5229	-2.9188	-3.1604	-3.4354	324.092	54.834	189.801	302.828	106.944	109.749	333.486	363.188	102.411	373.627	101.434	310.951	71.603	276.033	70.601	285.559	0.00030811	0.00041793	7.6818e-05	1322.4	3.1641e-06	2.4806e-06	1320.4	360.51	3.6292e-06	4.0155e-06	416.2	134.25	114.42	38.44	1.8581e-06	47.882	0.00020896	0.0001976	5.6067e-05	1289.6	2.1919e-06	2.1827e-06	1292	353.07	2.2139e-06	2.1566e-06	402.34	131.29	110.94	37.552	2.1305e-06	46.468	153.396	114.890	145.297	31.669	125.324	257.901	31.634	36.418	216.398	150.046	35.680	40.137	40.964	45.189	185.230	44.734	-8191	255	
36106.355	1	1	0	0	0.13248	0.086976	0.03065	0.082437	0.16151	0.025014	0.48269	0.17651	0.2247	0.093369	0.14982	0.080691	0.035944	0.088184	0.11472	0.073932	-2.3146	-3.3104	-3.1521	-2.8583	-3.4833	-2.9271	-3.1521	-3.4813	-2.5729	-3.325	-3.3125	-2.7083	-3.4833	-2.9313	-2.9688	-3.4604	150.065	365.480	274.763	349.766	267.638	114.705	321.134	218.591	82.030	182.653	306.604	298.789	117.630	375.678	291.110	267.892	0.00029134	0.00034786	9.3935e-05	1326	2.137e-06	7.4757e-06	1332.1	362.34	1.3002e-06	5.0327e-06	417.04	134.13	114.22	38.598	4.1032e-06	47.858	0.00020634	0.00019235	5.3011e-05	1291.2	2.096e-06	2.1058e-06	1295.5	353.7	2.0819e-06	2.0695e-06	403.1	131.15	110.96	37.654	2.0653e-06	46.548	151.743	100.444	107.430	31.585	215.995	153.862	31.688	36.340	214.687	136.675	35.776	40.099	40.971	45.317	226.665	44.600	-8191	255	
36106.473	1	1	0	0	0.14273	0.025058	0.085001	0.18359	0.050846	0.12619	0.2769	0.21027	0.35486	0.32264	0.37823	0.22682	0.161	0.072544	0.11714	0.30483	-2.2812	-3.2271	-3.0708	-3.0521	-3.5292	-2.8083	-3.025	-3.4896	-2.7667	-3.3	-3.4	-2.7562	-3.3646	-2.9625	-3.0271	-3.5583	357.352	348.956	137.782	328.523	119.939	270.620	309.474	248.284	135.683	142.866	341.939	28.450	326.666	283.463	148.629	326.385	0.00028017	0.00030838	8.6577e-05	1335	3.7413e-06	4.9265e-06	1331.3	365	2.4394e-06	4.0486e-06	417.98	134.55	113.75	38.662	3.621e-06	47.922	0.00020062	0.00019446	5.3456e-05	1298.4	2.1316e-06	2.0922e-06	1299.6	355.38	2.1246e-06	2.1304e-06	403.98	131.66	111.21	37.72	2.1161e-06	46.641	153.602	116.339	91.906	31.687	170.858	204.751	31.530	36.225	163.580	171.312	35.733	40.431	40.917	45.762	185.215	44.712	-8191	255	
36106.570	1	1	0	0	0.045952	0.16141	0.083335	0.40022	0.098743	0.18927	0.34328	0.12361	0.27269	0.21153	0.3318	0.40203	0.2914	0.015175	0.23244	0.027482	-2.4292	-3.0542	-3.2229	-2.9104	-3.3979	-2.9021	-2.9417	-3.4958	-2.7417	-3.1437	-3.2708	-3.0083	-3.2208	-3.1854	-2.7562	-3.6229	212.297	216.098	345.291	271.823	344.811	101.709	301.555	303.688	82.100	222.304	345.720	353.821	371.434	266.596	73.007	326.202	0.0002995	0.00048684	6.5599e-05	1331.9	5.1492e-06	7.7329e-06	1336.3	363.91	2.3492e-06	4.724e-06	418.33	135.5	114.39	38.605	5.6997e-06	48.295	0.00020204	0.00019466	5.4277e-05	1301.7	2.2416e-06	2.2266e-06	1302.1	356.59	2.35e-06	2.25e-06	406.37	132.2	111.72	37.771	2.3242e-06	46.843	147.724	91.740	60.562	31.816	224.082	159.457	31.522	36.600	147.362	121.898	35.919	40.423	41.005	45.788	177.877	44.917	-8191	255	
36106.668	1	1	0	0	0.056593	0.03017	0.34476	0.14799	0.041434	0.13092	0.15441	0.18126	0.22558	0.074556	0.2473	0.11592	0.034335	0.17303	0.13104	0.14297	-2.3521	-3.05	-3.3125	-2.7792	-3.25	-2.9104	-2.825	-3.5792	-2.85	-2.9125	-3.4917	-2.7917	-3.4583	-3.375	-2.6813	-3.4417	276.276	261.516	79.731	359.896	343.660	171.131	240.004	362.813	72.894	152.307	72.072	317.351	259.526	42.215	109.262	167.959	0.00027207	0.00030325	0.00014514	1337.7	3.255e-06	2.2056e-06	1330.3	365.73	4.1457e-06	6.0169e-06	418.32	134.57	114.51	38.86	5.1337e-06	48.06	0.00021843	0.00020887	5.7717e-05	1304.5	2.2742e-06	2.2549e-06	1303.8	357.35	2.2584e-06	2.2108e-06	405.79	132.02	111.82	37.886	2.1924e-06	46.746	161.950	158.113	126.433	31.702	183.262	243.803	31.728	36.567	214.865	119.477	35.866	40.369	41.074	45.504	167.300	44.702	-8191	255	
36106.762	1	1	0	0	0.20317	0.28723	0.11777	0.1642	0.2671	0.16565	0.22811	0.16611	0.15183	0.1203	0.061956	0.18664	0.19727	0.055701	0.1661	0.115	-2.5542	-2.7917	-3.3875	-2.9125	-3.1	-3.2792	-2.825	-3.4188	-3.1042	-2.7125	-3.5354	-2.7208	-3.2542	-3.2812	-2.6042	-3.4417	367.568	237.886	162.723	363.403	223.444	136.133	350.443	347.816	284.041	276.795	51.449	310.669	369.313	348.280	194.602	346.586	0.00022027	0.00056509	9.3949e-05	1336.5	2.4981e-06	2.771e-06	1334.2	365.8	2.9385e-06	5.8323e-06	420.83	135.02	114.28	38.652	2.1028e-06	47.961	0.00020384	0.00020148	5.4972e-05	1304	2.1874e-06	2.1096e-06	1304.6	357.69	2.1601e-06	2.1358e-06	406.5	131.93	111.74	37.792	2.117e-06	46.659	163.691	113.156	121.403	31.905	164.531	204.629	31.805	36.548	226.664	153.365	36.022	40.064	40.996	45.499	140.778	44.561	-8191	255	
36106.883	1	1	0	0	0.12899	0.078576	0.26087	0.12742	0.25484	0.070707	0.35745	0.13993	0.034418	0.2448	0.14526	0.022635	0.29143	0.13223	0.25337	0.1691	-2.5125	-2.8729	-3.2958	-2.9042	-2.9938	-3.4479	-2.7938	-3.5792	-2.95	-2.9042	-3.625	-2.8354	-3.0542	-3.4917	-2.8167	-3.3292	231.565	172.767	163.486	308.843	320.718	279.706	278.947	329.492	167.979	300.106	204.732	29.070	344.688	344.291	169.395	196.106	0.0003091	0.00053026	0.00017447	1334.1	4.757e-06	3.2273e-06	1334.6	364.62	1.9133e-06	4.531e-06	420.61	134.71	114.55	38.824	4.0765e-06	47.849	0.00019963	0.00019255	5.2949e-05	1303.2	2.1176e-06	2.0604e-06	1302.9	356.48	2.0862e-06	2.0547e-06	405.81	131.85	111.55	37.831	2.102e-06	46.692	152.419	108.569	112.732	31.734	181.684	187.569	31.768	36.284	161.461	226.024	36.073	40.409	40.967	45.331	197.268	44.454	-8191	255	
36106.977	1	1	0	0	0.082269	0.094959	0.17966	0.25792	0.085547	0.27053	0.080698	0.17156	0.096693	0.24774	0.082125	0.18362	0.22578	0.046913	0.24718	0.2055	-2.7479	-2.5646	-3.4854	-3.2104	-2.9896	-3.3396	-2.7354	-3.2854	-3.1458	-2.6875	-3.6063	-3.0312	-2.8771	-3.4646	-2.6979	-3.275	143.274	357.380	71.872	310.681	213.636	154.762	171.225	299.452	169.625	60.308	54.072	111.868	37.908	36.516	237.926	288.081	0.00033448	0.00054815	4.1321e-05	1338.7	3.4853e-06	6.5615e-06	1330.7	365.14	3.5615e-06	2.4397e-06	417.61	134.72	114.49	38.654	1.555e-06	48.143	0.0001971	0.00019074	5.2937e-05	1303	2.0933e-06	2.0633e-06	1302.1	356.83	2.0935e-06	2.0754e-06	405.85	131.83	111.74	37.843	2.1359e-06	46.77	147.293	110.452	87.280	31.942	175.286	182.541	31.759	36.428	173.074	175.921	35.907	40.326	41.000	45.411	172.076	44.344	-8191	255	
#DATA ENDS
