BOXY.EXE: ISS Imagent and Oximeter Data Acquisition Program Version 0.80
Ascii Record File

#ACQ INFORMATION
2  Detector Channels 
16  External MUX Channels 
1  Auxiliary Channels 
5000  Waveform (CCF) Frequency (Hz)
1  Waveforms Skipped 
30  Waveforms Averaged 
1  Cycles Averaged 
16  Acquisitions per Waveform 
10.0806  Updata Rate (Hz) 

#FILE INFORMATION
TRUE -- External MUX Channel results are PARSED.
FALSE -- AC DC and Phase are NOT grouped.
TRUE -- Companion Program Settings File CREATED.
FALSE -- AC data not excluded
FALSE -- DC data not excluded
FALSE -- Phase data not excluded
FALSE -- Auxillary Chn. data not excluded
Tab delimiters

#CALIBRATION STATE
TRUE -- Waveform Calibration Values APPLIED.


#AUX CALIBRATION VALUES
Val Type	aux-1	

Term	1.0000e+00	
Factor	0.0000e+00	


#WF CALIBRATION VALUES
A = Detector Channel
Val Type	A-AC1	A-AC2	A-AC3	A-AC4	A-AC5	A-AC6	A-AC7	A-AC8	A-AC9	A-AC10	A-AC11	A-AC12	A-AC13	A-AC14	A-AC15	A-AC16	A-DC1	A-DC2	A-DC3	A-DC4	A-DC5	A-DC6	A-DC7	A-DC8	A-DC9	A-DC10	A-DC11	A-DC12	A-DC13	A-DC14	A-DC15	A-DC16	A-Ph1	A-Ph2	A-Ph3	A-Ph4	A-Ph5	A-Ph6	A-Ph7	A-Ph8	A-Ph9	A-Ph10	A-Ph11	A-Ph12	A-Ph13	A-Ph14	A-Ph15	A-Ph16	

Term	0.00000e+00	0.00000e+00	0.00000e+00	0.00000e+00	0.00000e+00	0.00000e+00	0.00000e+00	0.00000e+00	0.00000e+00	0.00000e+00	0.00000e+00	0.00000e+00	0.00000e+00	0.00000e+00	0.00000e+00	0.00000e+00	0.00000e+00	0.00000e+00	0.00000e+00	0.00000e+00	0.00000e+00	0.00000e+00	0.00000e+00	0.00000e+00	0.00000e+00	0.00000e+00	0.00000e+00	0.00000e+00	0.00000e+00	0.00000e+00	0.00000e+00	0.00000e+00	0.00000e+00	0.00000e+00	0.00000e+00	0.00000e+00	0.00000e+00	0.00000e+00	0.00000e+00	0.00000e+00	0.00000e+00	0.00000e+00	0.00000e+00	0.00000e+00	0.00000e+00	0.00000e+00	0.00000e+00	0.00000e+00	
Factor	1.00000e+00	1.00000e+00	1.00000e+00	1.00000e+00	1.00000e+00	1.00000e+00	1.00000e+00	1.00000e+00	1.00000e+00	1.00000e+00	1.00000e+00	1.00000e+00	1.00000e+00	1.00000e+00	1.00000e+00	1.00000e+00	1.00000e+00	1.00000e+00	1.00000e+00	1.00000e+00	1.00000e+00	1.00000e+00	1.00000e+00	1.00000e+00	1.00000e+00	1.00000e+00	1.00000e+00	1.00000e+00	1.00000e+00	1.00000e+00	1.00000e+00	1.00000e+00	X	X	X	X	X	X	X	X	X	X	X	X	X	X	X	X	

B = Detector Channel
Val Type	B-AC1	B-AC2	B-AC3	B-AC4	B-AC5	B-AC6	B-AC7	B-AC8	B-AC9	B-AC10	B-AC11	B-AC12	B-AC13	B-AC14	B-AC15	B-AC16	B-DC1	B-DC2	B-DC3	B-DC4	B-DC5	B-DC6	B-DC7	B-DC8	B-DC9	B-DC10	B-DC11	B-DC12	B-DC13	B-DC14	B-DC15	B-DC16	B-Ph1	B-Ph2	B-Ph3	B-Ph4	B-Ph5	B-Ph6	B-Ph7	B-Ph8	B-Ph9	B-Ph10	B-Ph11	B-Ph12	B-Ph13	B-Ph14	B-Ph15	B-Ph16	

Term	0.00000e+00	0.00000e+00	0.00000e+00	0.00000e+00	0.00000e+00	0.00000e+00	0.00000e+00	0.00000e+00	0.00000e+00	0.00000e+00	0.00000e+00	0.00000e+00	0.00000e+00	0.00000e+00	0.00000e+00	0.00000e+00	0.00000e+00	0.00000e+00	0.00000e+00	0.00000e+00	0.00000e+00	0.00000e+00	0.00000e+00	0.00000e+00	0.00000e+00	0.00000e+00	0.00000e+00	0.00000e+00	0.00000e+00	0.00000e+00	0.00000e+00	0.00000e+00	2.30140e+01	-1.20181e+02	-1.19907e+02	-1.83653e+02	-6.30298e+01	-5.18358e+01	-1.58195e+02	-1.62015e+02	-5.19289e+01	-7.20987e+01	-1.70726e+02	-1.70915e+02	-1.78976e+02	-1.76655e+02	-6.37239e+01	-1.49757e+02	
Factor	5.08546e-05	1.47758e-04	3.78023e-05	1.55087e-01	1.88521e-06	1.77159e-06	1.71671e-01	5.62650e-02	2.22537e-06	1.53002e-06	9.34834e-02	3.14727e-02	2.91465e-02	9.72571e-03	2.02248e-06	1.39640e-02	4.02956e-06	4.41231e-06	1.22925e-06	7.62458e-02	4.73918e-08	4.85632e-08	7.91440e-02	2.76715e-02	4.75700e-08	4.85441e-08	4.45230e-02	1.49399e-02	1.44346e-02	4.81122e-03	4.80407e-08	6.69290e-03	X	X	X	X	X	X	X	X	X	X	X	X	X	X	X	X	



#DISTANCE SETTINGS
A = Detector Channel
A-1	A-2	A-3	A-4	A-5	A-6	A-7	A-8	A-9	A-10	A-11	A-12	A-13	A-14	A-15	A-16	

2.5000e+00	3.0000e+00	2.5000e+00	3.0000e+00	2.0000e+00	3.0000e+00	1.5000e+00	3.0000e+00	3.0000e+00	3.0000e+00	3.0000e+00	3.0000e+00	3.0000e+00	3.0000e+00	1.5000e+00	3.0000e+00	

B = Detector Channel
B-1	B-2	B-3	B-4	B-5	B-6	B-7	B-8	B-9	B-10	B-11	B-12	B-13	B-14	B-15	B-16	

1.0000e+01	1.0000e+01	1.0000e+01	1.4400e+00	1.0000e+01	1.0000e+01	1.5100e+00	1.9400e+00	1.0000e+01	1.0000e+01	1.9900e+00	2.4900e+00	2.4100e+00	2.9000e+00	1.0000e+01	2.9800e+00	




#DATA BEGINS
time	group	step	mark	flag	A-AC1	A-AC2	A-AC3	A-AC4	A-AC5	A-AC6	A-AC7	A-AC8	A-AC9	A-AC10	A-AC11	A-AC12	A-AC13	A-AC14	A-AC15	A-AC16	A-DC1	A-DC2	A-DC3	A-DC4	A-DC5	A-DC6	A-DC7	A-DC8	A-DC9	A-DC10	A-DC11	A-DC12	A-DC13	A-DC14	A-DC15	A-DC16	A-Ph1	A-Ph2	A-Ph3	A-Ph4	A-Ph5	A-Ph6	A-Ph7	A-Ph8	A-Ph9	A-Ph10	A-Ph11	A-Ph12	A-Ph13	A-Ph14	A-Ph15	A-Ph16	B-AC1	B-AC2	B-AC3	B-AC4	B-AC5	B-AC6	B-AC7	B-AC8	B-AC9	B-AC10	B-AC11	B-AC12	B-AC13	B-AC14	B-AC15	B-AC16	B-DC1	B-DC2	B-DC3	B-DC4	B-DC5	B-DC6	B-DC7	B-DC8	B-DC9	B-DC10	B-DC11	B-DC12	B-DC13	B-DC14	B-DC15	B-DC16	B-Ph1	B-Ph2	B-Ph3	B-Ph4	B-Ph5	B-Ph6	B-Ph7	B-Ph8	B-Ph9	B-Ph10	B-Ph11	B-Ph12	B-Ph13	B-Ph14	B-Ph15	B-Ph16	aux-1	digaux	

30005.939	1	1	0	256	0.11756	0.21598	0.08329	0.1728	0.11564	0.20055	0.14138	0.1596	0.16068	0.32796	0.085233	0.22756	0.076925	0.048614	0.18221	0.13814	-4.2396	-4.9688	-3.8979	-4.9958	-4.6042	-4.1979	-5.2479	-4.2937	-4.4563	-4.8792	-3.9896	-4.8167	-4.75	-4.05	-4.9375	-4.5021	-52.196	181.706	233.497	259.053	231.304	125.703	216.128	254.228	193.963	15.623	200.940	209.404	-30.484	114.300	231.616	216.320	0.00025647	0.00067516	0.00024079	985.8	6.4979e-06	1.4334e-05	1136.3	329.42	1.2013e-05	4.634e-06	416.19	142.39	104	39.833	1.1496e-05	57.599	0.0028417	0.0031117	0.00085877	932.08	3.3096e-05	3.3976e-05	1069	314.46	3.2708e-05	3.3954e-05	400.76	137.72	102.51	39.42	3.3411e-05	56.352	34.801	123.052	33.342	-87.918	48.103	-81.250	-88.333	-82.819	188.792	97.613	-84.677	-79.795	-77.958	-72.827	-4.785	-75.161	-8191	255	
30006.033	1	1	0	0	0.066721	0.18936	0.27213	0.21376	0.13502	0.13117	0.10727	0.31733	0.12467	0.026663	0.0857	0.1516	0.078466	0.1779	0.10839	0.30657	-4.1104	-4.9375	-3.875	-4.7229	-4.5813	-4.0167	-5.1958	-4.4125	-4.2771	-4.9958	-4.0458	-4.775	-4.8688	-4.1937	-4.8229	-4.5062	150.613	12.341	108.876	238.046	164.154	216.421	-90.475	188.351	-19.161	226.742	85.389	-72.768	-31.872	154.014	48.893	204.038	0.00057387	0.00046638	0.00012961	978.22	2.0691e-05	2.0423e-05	1137.9	328.77	1.5501e-05	1.0847e-05	413	142.17	103.52	40.136	1.5188e-05	58.159	0.0028295	0.0031325	0.00086897	924.17	3.2765e-05	3.4196e-05	1060.8	312.12	3.3008e-05	3.354e-05	397.93	137.04	102.27	39.277	3.3125e-05	56.581	6.826	46.253	-6.068	-87.645	-36.924	-18.294	-88.053	-82.925	48.263	177.342	-84.365	-79.146	-77.667	-72.642	70.827	-75.108	-8191	255	
30006.131	1	1	0	0	0.07487	0.040163	0.27288	0.30153	0.16699	0.2303	0.23403	0.28353	0.15662	0.21055	0.21648	0.13176	0.12087	0.1327	0.11098	0.14397	-3.825	-4.9521	-4.2333	-4.7312	-4.825	-4.0625	-5.0583	-4.5958	-3.9146	-4.925	-4.0771	-4.5875	-4.9271	-3.9833	-4.7333	-4.675	-98.083	125.861	-35.984	161.306	-100.546	93.598	172.194	114.330	130.717	95.294	-44.601	183.265	150.756	188.891	252.575	-64.694	0.0008563	0.00071213	0.00016379	983.69	1.392e-05	4.2621e-06	1127.1	329.56	2.7423e-05	3.1563e-06	418.03	142.28	104.23	40.405	2.702e-05	58.235	0.0028399	0.0030927	0.00085754	927.74	3.3562e-05	3.4111e-05	1066.3	313.7	3.3385e-05	3.3986e-05	402.05	138.37	103.21	39.698	3.3754e-05	57.103	-40.850	212.796	16.156	-87.945	230.378	50.478	-88.609	-83.022	257.790	41.411	-84.139	-79.361	-77.551	-72.728	33.207	-75.231	-8191	255	
30006.227	1	1	0	0	0.20244	0.066476	0.056121	0.16276	0.17784	0.31384	0.29412	0.052435	0.14046	0.078038	0.1636	0.072371	0.20916	0.23299	0.1155	0.14329	-3.8229	-5.0125	-4	-4.4	-4.8292	-3.9042	-4.7833	-4.8208	-3.8896	-4.9812	-4.2458	-4.5	-4.9167	-4.0833	-4.6625	-4.6062	-90.542	156.384	229.045	171.001	182.151	-22.266	188.443	223.176	106.445	-27.886	242.114	147.639	202.962	232.229	189.544	74.266	0.00030371	0.00090269	0.00035238	984.25	7.5164e-06	9.1835e-06	1138.4	330.58	1.8646e-05	1.1379e-05	417.28	144.88	104.3	40.894	1.8535e-05	59.684	0.0028643	0.0031111	0.00086891	929.96	3.3268e-05	3.4214e-05	1068.8	315.19	3.3787e-05	3.3886e-05	404.38	139.63	103.58	40.059	3.3794e-05	57.941	-13.269	-94.213	-82.215	-87.877	-56.771	187.947	-88.423	-82.761	53.823	52.659	-84.543	-79.311	-77.909	-72.649	166.757	-75.494	-8191	255	
30006.322	1	1	0	0	0.18979	0.15195	0.31386	0.099432	0.15733	0.12087	0.12717	0.13516	0.077284	0.058127	0.16968	0.17473	0.20816	0.21633	0.10245	0.076013	-3.8563	-4.9271	-4.3417	-4.3875	-4.9375	-4.175	-4.8083	-4.8396	-4.1042	-4.8875	-4.5333	-4.2583	-4.9396	-4.05	-4.2167	-4.8854	101.697	110.138	93.735	246.462	111.105	-86.070	208.413	253.439	-20.615	183.200	158.040	201.610	-84.715	217.239	127.869	142.345	0.00059297	0.0018915	0.00010531	985.68	6.2571e-06	1.9379e-05	1150.2	335.33	7.8466e-06	8.5066e-06	423.08	146.56	105.03	40.896	5.685e-06	59.264	0.0029056	0.0030892	0.0008633	930.38	3.3369e-05	3.4278e-05	1077.3	317.7	3.3269e-05	3.388e-05	407.6	140.89	103.76	40.095	3.3067e-05	57.891	-23.078	-43.882	195.719	-88.139	164.380	44.729	-88.746	-82.945	-86.288	206.063	-84.353	-79.223	-77.506	-72.405	-84.308	-75.171	-8191	255	
30006.418	1	1	0	0	0.13466	0.09545	0.26891	0.015016	0.10706	0.064279	0.049995	0.14307	0.12438	0.11188	0.052844	0.2105	0.039478	0.19436	0.154	0.09587	-3.7125	-4.7	-4.5042	-4.1646	-4.9917	-4.0667	-4.6438	-4.8854	-3.9813	-4.6271	-4.7625	-4.2208	-4.9875	-4.325	-4.3875	-5.175	193.709	-82.459	128.576	245.745	242.184	82.059	-95.523	-47.944	182.325	-91.789	-4.572	111.502	43.099	237.166	-54.123	144.673	0.00067017	0.0005927	0.00021105	979.89	2.2666e-05	7.5518e-06	1120.4	329.02	6.8261e-06	8.4422e-06	412.59	142.42	102.36	40.356	2.0408e-05	58.162	0.0028534	0.0030647	0.00086164	923.12	3.2934e-05	3.4282e-05	1059.3	312	3.3196e-05	3.3451e-05	397.29	137.32	101.65	39.567	3.3027e-05	56.826	-8.278	88.927	-90.506	-87.929	160.049	48.931	-88.440	-82.774	-9.713	14.105	-84.282	-79.225	-77.442	-72.434	91.974	-75.361	-8191	255	
30006.516	1	1	0	0	0.17957	0.12021	0.091042	0.25755	0.15498	0.1358	0.20533	0.28723	0.057777	0.080584	0.13839	0.25362	0.058506	0.17972	0.025516	0.42775	-3.6396	-4.8187	-4.6021	-4.0563	-4.9396	-4.1542	-4.4958	-5.1875	-4.0896	-4.6687	-4.7312	-4.1271	-5.025	-4.4563	-4.2542	-4.9688	195.037	38.455	117.535	-41.119	24.568	193.105	21.696	197.432	143.701	117.745	157.610	158.439	248.400	238.993	226.081	166.010	0.00092017	0.00080006	0.00016239	951.95	5.0741e-06	8.7905e-06	1116.1	322.38	8.1405e-06	5.0891e-06	408.97	141.45	102.15	40.001	2.0961e-05	58.285	0.0028308	0.0030511	0.00085219	905.41	3.3137e-05	3.4031e-05	1046.7	307.06	3.3816e-05	3.4132e-05	394.75	137.07	101.36	39.422	3.367e-05	56.973	-15.148	-66.072	3.803	-87.797	63.920	189.227	-88.417	-82.934	-30.620	116.633	-84.048	-79.927	-77.551	-72.324	87.623	-75.201	-8191	255	
30006.611	1	1	0	0	0.22014	0.17402	0.20128	0.025009	0.13897	0.20552	0.015162	0.26254	0.14042	0.12952	0.22946	0.22662	0.11376	0.22619	0.17359	0.12835	-3.8	-4.5813	-4.7438	-4.2188	-4.9583	-4.5104	-4.3833	-5.0563	-4.1333	-4.425	-4.8125	-3.9229	-4.9875	-4.6292	-4.1062	-5.1583	84.441	183.087	95.802	160.148	-5.045	123.642	81.888	196.554	-53.244	114.802	-23.356	249.420	207.217	217.442	193.098	159.940	0.00050345	0.00077876	0.00018718	956.2	9.8115e-06	1.2119e-05	1116.4	325.57	2.0199e-05	5.463e-06	414.81	143.87	102.63	40.34	1.5114e-05	58.785	0.0029228	0.0030902	0.00086629	909.18	3.304e-05	3.3976e-05	1051	309.18	3.3915e-05	3.422e-05	398.57	138.83	101.9	39.56	3.4402e-05	57.561	-20.844	43.531	219.727	-87.793	17.974	57.815	-88.325	-83.028	125.933	30.895	-84.214	-79.437	-77.406	-72.912	-33.114	-75.006	-8191	255	
30006.730	1	1	0	0	0.034598	0.12822	0.03695	0.11946	0.060275	0.20809	0.15105	0.26249	0.042649	0.11706	0.078039	0.047011	0.10429	0.14647	0.024893	0.074958	-4	-4.5062	-4.7521	-4.0708	-4.7312	-4.4875	-4.0396	-5.1396	-4.3271	-4.2167	-5.0125	-4.1312	-4.6479	-4.6646	-4.0271	-5.0354	109.697	149.441	35.442	231.624	21.317	211.282	239.359	204.248	28.370	-50.532	203.522	117.769	225.959	-82.781	163.269	-92.453	0.00023637	0.0016059	0.00024333	973.53	3.4296e-06	1.2563e-05	1135.2	330.56	1.2337e-05	7.7223e-06	419.36	145.57	104.07	40.865	7.5648e-06	59.261	0.0029054	0.0031363	0.00086924	921.36	3.3583e-05	3.4835e-05	1069.6	313.59	3.3642e-05	3.4435e-05	405.07	141.22	103.8	40.02	3.3882e-05	57.878	-7.123	-32.925	194.426	-87.986	-72.766	65.845	-88.415	-82.890	256.730	-25.339	-84.528	-79.163	-77.574	-72.204	90.105	-74.818	-8191	255	
30006.803	1	1	0	0	0.29754	0.2035	0.077859	0.11028	0.084789	0.067696	0.28794	0.097636	0.21177	0.11561	0.15687	0.051449	0.14208	0.144	0.061194	0.13979	-4.0271	-4.2958	-4.8771	-4.1813	-4.6583	-4.8167	-4.2292	-4.8979	-4.3667	-4.1958	-5.0417	-4.1375	-4.5021	-4.8646	-3.9562	-4.9729	87.884	62.683	-99.195	181.788	-51.985	-64.877	202.100	-36.224	115.866	178.942	228.479	15.613	128.575	-81.601	-73.154	193.918	0.00051946	0.0011667	0.00029919	982.96	1.39e-05	1.0813e-05	1142.1	329.72	9.4796e-06	1.9069e-05	420.79	145.32	104.11	40.794	1.703e-05	58.912	0.0028913	0.0031198	0.00086673	927.96	3.342e-05	3.4332e-05	1073.9	314.48	3.366e-05	3.4445e-05	405.8	141.27	102.87	39.929	3.3744e-05	57.623	-63.133	43.053	-49.177	-88.015	54.000	107.372	-88.722	-82.853	-10.387	181.795	-84.321	-79.204	-77.522	-72.750	42.736	-74.959	-8191	255	
30006.898	1	1	0	0	0.12656	0.092115	0.16015	0.15321	0.10974	0.11221	0.24401	0.23051	0.26322	0.09667	0.25049	0.16489	0.20222	0.18129	0.14607	0.031439	-3.9833	-4.15	-4.8187	-4.3542	-4.4917	-4.8604	-4.0667	-4.6729	-4.4083	-4.0229	-5.0021	-4.2229	-4.3854	-5.075	-4.0229	-4.7562	135.423	-79.872	-89.607	202.466	-66.427	207.286	-89.848	202.606	-83.963	-88.276	194.223	-40.915	216.957	249.328	104.947	195.023	0.00028617	0.00026314	0.0001088	962.82	1.6601e-05	8.4633e-06	1119.4	322.53	1.0305e-05	1.323e-05	407.69	142.88	102.22	40.165	1.3734e-05	58.832	0.0028613	0.0030691	0.00085602	911.87	3.2807e-05	3.3626e-05	1055	306.82	3.2978e-05	3.3111e-05	394.91	137.72	101.17	39.267	3.241e-05	56.779	2.787	-79.898	112.129	-87.731	-68.067	137.455	-88.476	-83.165	47.111	83.608	-84.272	-79.444	-77.559	-73.165	193.850	-74.666	-8191	255	
30007.020	1	1	0	0	0.17856	0.087056	0.19228	0.10684	0.035639	0.40416	0.20939	0.21705	0.17073	0.072745	0.32351	0.051427	0.20069	0.28675	0.11293	0.13723	-4.4167	-3.9229	-4.9792	-4.25	-4.2438	-4.9479	-4.2271	-5	-4.6604	-3.8563	-5.0229	-4.4146	-4.2958	-4.9229	-3.9458	-4.6958	94.224	157.644	84.720	-37.243	-29.040	98.843	181.800	224.989	220.906	248.975	165.927	97.935	231.620	225.674	-1.278	230.921	0.00070655	0.0010895	0.00012676	963.14	6.4307e-06	1.2998e-05	1123.3	324.63	2.0346e-05	6.6037e-06	412.04	142.86	103.02	40.345	2.82e-05	58.406	0.0027609	0.0029939	0.00082443	911.06	3.1822e-05	3.2635e-05	1057.6	307.8	3.2277e-05	3.2817e-05	396.32	138.25	101.6	39.275	3.274e-05	57.026	5.459	-51.348	31.762	-87.754	127.381	-18.231	-88.613	-82.688	10.649	85.845	-84.510	-78.922	-77.901	-72.513	32.920	-75.264	-8191	255	
30007.113	1	1	0	0	0.076247	0.26132	0.053314	0.061753	0.060494	0.1225	0.269	0.14084	0.0066558	0.10905	0.11205	0.21336	0.17074	0.22021	0.20806	0.21489	-4.5167	-3.8937	-4.9	-4.5479	-4.1375	-5.1125	-4.2625	-4.6208	-4.8562	-3.9396	-5.1104	-4.6896	-4.0854	-4.8708	-4.3042	-4.4625	-40.570	98.721	73.581	-96.982	41.911	118.673	229.013	201.151	31.254	-53.340	200.100	61.620	-89.140	232.167	-3.109	202.089	0.00022537	0.0007672	0.00038101	974.13	6.1627e-06	7.8157e-06	1134.6	327.93	2.5733e-06	1.6827e-06	418.53	145.53	104.18	40.345	1.4064e-06	58.744	0.0027756	0.0030024	0.00081744	918.26	3.1959e-05	3.255e-05	1064.7	310.04	3.2052e-05	3.2491e-05	401.72	139.83	102.79	39.487	3.2803e-05	57.27	-12.845	239.767	-54.810	-87.619	49.265	99.485	-88.468	-83.018	234.899	237.551	-83.934	-78.899	-77.868	-72.502	149.411	-75.364	-8191	255	
30007.213	1	1	0	0	0.13978	0.37084	0.1016	0.2597	0.12347	0.048246	0.12296	0.35221	0.044409	0.26998	0.054605	0.14712	0.13634	0.17387	0.12045	0.14816	-4.6354	-3.9896	-4.6687	-4.8125	-4.1083	-4.8708	-4.3479	-4.3271	-4.7458	-3.9646	-4.825	-4.85	-4.1583	-5.0625	-4.2958	-4.3542	103.577	80.472	102.192	-94.477	225.742	-24.121	138.727	233.663	164.591	232.301	-43.679	212.459	72.532	192.184	122.219	-85.616	0.00086669	0.0010409	0.00034549	986.55	1.7095e-05	1.2598e-05	1147.2	333.38	1.1281e-05	2.8413e-06	422.85	147.07	104.55	40.717	2.1463e-05	59.802	0.0027832	0.0030219	0.00083477	929.96	3.2401e-05	3.3064e-05	1076.3	314.61	3.2644e-05	3.3457e-05	407.3	141.84	104.08	40.053	3.309e-05	58.252	-37.354	89.002	-6.918	-87.591	24.135	-61.649	-88.239	-83.139	-4.164	124.594	-84.794	-78.964	-77.133	-72.725	17.333	-75.532	-8191	255	
30007.330	1	1	0	0	0.13977	0.13779	0.075664	0.097345	0.20081	0.18557	0.29012	0.29242	0.1606	0.25704	0.22191	0.072371	0.13812	0.17479	0.099357	0.057865	-4.6312	-3.9104	-4.6	-4.8167	-3.975	-4.7667	-4.65	-4.2771	-4.9083	-4.2	-4.5437	-4.6729	-3.9562	-4.8688	-4.4646	-4.1458	250.458	258.790	-85.981	258.409	-11.370	232.521	213.073	176.695	102.419	-73.542	175.081	171.427	245.278	220.373	22.448	113.403	0.00054201	0.00078332	0.00041885	984.13	5.7253e-06	1.2483e-05	1150.4	330.96	2.1099e-05	1.7989e-05	422.69	146.6	104.75	40.836	2.3088e-05	59.392	0.0028086	0.0030318	0.00083558	933.31	3.2547e-05	3.2552e-05	1078.9	314.43	3.2027e-05	3.2978e-05	405.53	141.23	103.51	39.915	3.2347e-05	57.643	13.911	-15.077	24.555	-87.706	-88.924	32.978	-88.294	-83.037	33.897	79.827	-84.742	-79.268	-77.440	-72.433	77.840	-75.440	-8191	255	
30007.428	1	1	0	0	0.065455	0.19717	0.20921	0.16158	0.014601	0.079594	0.26217	0.14145	0.11375	0.055041	0.20442	0.052438	0.11079	0.13497	0.10955	0.1621	-4.7646	-4.1375	-4.4062	-5.0354	-3.9938	-4.8438	-4.7354	-4.1271	-4.8479	-4.2875	-4.4833	-5.0687	-4.1375	-4.7438	-4.6521	-4.2042	239.558	222.254	28.891	-61.075	5.901	93.822	133.363	176.718	210.170	82.271	196.859	21.517	136.461	230.928	38.214	173.162	0.00038055	0.00039665	0.00025427	966.98	2.495e-06	1.7925e-06	1117.4	325.37	1.7519e-05	1.5276e-05	410.07	144.07	102.9	40.137	1.0447e-05	58.67	0.0027334	0.0029994	0.00082661	913.44	3.1807e-05	3.2246e-05	1053.2	308.89	3.1575e-05	3.2314e-05	395.66	138.2	101.77	39.334	3.1932e-05	57.043	-8.679	-75.181	174.156	-87.553	73.785	103.063	-88.572	-83.019	107.369	28.064	-84.898	-79.452	-77.536	-72.962	38.518	-75.575	-8191	255	
30007.498	1	1	0	0	0.10257	0.13494	0.1863	0.14867	0.17256	0.031619	0.29797	0.067256	0.11138	0.087631	0.2904	0.097896	0.074807	0.23121	0.074418	0.15762	-4.8396	-4.0625	-4.3375	-5.0167	-4.0167	-4.6687	-4.9479	-4.0896	-4.9104	-4.225	-4.3187	-5.05	-4.1271	-4.5958	-4.8583	-4.0375	165.688	192.852	-78.864	206.442	151.405	119.344	224.938	-7.698	115.906	-97.051	241.974	206.026	131.471	169.898	205.824	243.889	0.00059654	0.00054041	0.00027792	963.22	7.4783e-06	1.1767e-05	1124.8	326.36	4.6096e-06	1.8079e-06	411.65	143.83	102.54	40.328	2.0265e-05	58.788	0.0027116	0.0029383	0.00081498	912.42	3.179e-05	3.2314e-05	1058.6	309.11	3.1959e-05	3.3068e-05	396.94	138.56	102.19	39.4	3.2641e-05	57.055	-13.346	44.905	50.015	-87.539	115.076	63.223	-88.413	-83.265	16.460	-37.233	-84.698	-79.243	-77.891	-72.517	-14.204	-75.311	-8191	255	
30007.619	1	1	0	0	0.11596	0.21712	0.097042	0.15831	0.14169	0.044647	0.2078	0.037887	0.11091	0.046327	0.046099	0.098851	0.11239	0.24319	0.084949	0.04123	-4.7417	-4.4208	-4.0667	-5.2167	-4.2937	-4.6479	-5.0979	-4.2854	-4.7312	-4.5979	-4.1062	-4.9812	-4.2854	-4.5896	-4.7	-3.9146	233.109	-96.319	138.441	228.440	165.260	79.694	178.768	90.286	141.024	128.570	34.969	238.120	-55.376	-89.884	166.109	-78.045	0.00058154	0.0015078	0.0002638	971.45	1.7985e-05	8.8628e-06	1122	326.4	1.1254e-05	1.3227e-05	416.26	145.97	104.19	40.407	2.3733e-05	59.12	0.0027786	0.0030079	0.00084332	915.78	3.224e-05	3.3172e-05	1060.6	310.27	3.2053e-05	3.3183e-05	400.5	140.19	102.69	39.727	3.2911e-05	57.643	-55.625	1.271	18.152	-87.791	110.765	3.934	-88.238	-82.940	55.113	-29.421	-84.547	-79.360	-77.497	-72.718	137.939	-75.479	-8191	255	
30007.717	1	1	0	0	0.2131	0.040172	0.1145	0.068142	0.20408	0.035858	0.19829	0.2831	0.19618	0.31734	0.12667	0.073078	0.15637	0.16309	0.24693	0.2115	-4.5417	-4.6458	-4.0979	-5.0229	-4.1646	-4.3875	-5.1896	-4.1687	-4.75	-4.7021	-4.3083	-4.9854	-4.3208	-4.4563	-4.8688	-4.2208	-17.705	-78.256	-65.917	170.786	166.998	184.351	202.890	164.067	46.845	52.623	186.487	143.938	197.112	257.009	100.398	7.135	0.00047809	0.001078	0.00015459	977.08	3.4878e-06	3.2163e-05	1137.6	331.35	1.3577e-05	1.4931e-05	423.13	146.09	104.75	41.487	4.5362e-06	60.185	0.0027943	0.0030241	0.0008389	919.37	3.2025e-05	3.2753e-05	1068.6	313.63	3.1509e-05	3.2954e-05	405.53	141.6	103.49	40.131	3.2677e-05	58.416	32.626	-86.443	40.472	-87.691	83.576	-5.045	-88.178	-82.896	129.934	220.335	-84.099	-79.446	-77.560	-72.837	-58.095	-75.725	-8191	255	
30007.812	1	1	0	0	0.22642	0.088686	0.23279	0.33552	0.23507	0.14914	0.094757	0.29944	0.12017	0.32092	0.15237	0.076269	0.097928	0.086489	0.060922	0.030123	-4.4229	-4.8063	-4.0583	-4.9437	-4.3604	-4.2771	-5.1042	-4.1813	-4.6542	-4.7875	-4.0229	-5.0917	-4.4625	-4.2042	-4.9896	-4.2771	175.032	16.567	198.473	211.194	130.761	-29.064	102.426	167.185	31.104	163.953	211.892	93.146	12.703	-90.548	-82.118	13.552	0.00055508	0.00066808	0.00032428	970.6	7.9589e-06	6.7871e-06	1136	328.22	3.7379e-05	8.9495e-06	419.09	145.54	104.28	40.42	5.596e-06	58.984	0.0028754	0.0030817	0.00085263	918.59	3.3098e-05	3.3891e-05	1068.7	313.12	3.2473e-05	3.352e-05	404.62	139.94	102.6	39.616	3.2538e-05	57.421	-2.803	-21.171	-5.102	-87.744	169.415	20.499	-88.096	-83.276	-9.920	11.175	-84.557	-79.168	-77.422	-72.466	-52.387	-75.526	-8191	255	
30007.932	1	1	0	0	0.095888	0.21815	0.23388	0.11661	0.096596	0.1122	0.17972	0.18341	0.14759	0.24944	0.20742	0.15713	0.15162	0.20365	0.23742	0.3776	-4.1354	-4.7333	-3.9042	-4.9083	-4.4979	-4.0563	-5.1625	-4.25	-4.4583	-4.8854	-4.1125	-4.8688	-4.7479	-4.1937	-5.0979	-4.4958	256.956	246.148	150.020	200.585	-46.431	88.782	255.567	-87.276	-55.661	93.023	-84.854	225.167	-75.242	-94.850	226.469	191.742	0.00076797	0.00072004	0.00047175	966.47	6.3956e-06	8.6761e-06	1121.4	324.82	1.5784e-05	1.4989e-05	409.95	143.01	102.1	39.84	2.0006e-05	58.608	0.0028063	0.0030562	0.00085389	909.7	3.3018e-05	3.3796e-05	1053.5	308.47	3.2751e-05	3.3774e-05	396.7	137.79	101.14	39.114	3.2996e-05	56.958	-53.463	-80.862	46.011	-87.870	99.499	108.828	-88.282	-82.800	52.166	85.489	-84.251	-79.254	-77.306	-72.739	-39.740	-75.217	-8191	255	
30008.027	1	1	0	0	0.22568	0.1424	0.17366	0.23937	0.17465	0.16662	0.19176	0.043193	0.25899	0.20818	0.19253	0.067013	0.097854	0.15127	0.081207	0.074905	-3.9667	-4.8917	-4.0479	-4.8708	-4.7021	-4.0167	-5.0792	-4.375	-4.3042	-4.7271	-4.0229	-4.65	-4.6937	-4.05	-4.9729	-4.5646	43.599	253.617	-88.065	-95.457	-67.964	5.747	206.685	174.240	188.244	-51.416	190.474	239.264	-4.951	19.061	56.251	71.338	0.00044162	0.00062663	0.00024892	951.68	1.1143e-05	1.4422e-05	1115.4	321.96	2.226e-05	1.5815e-05	412.49	141.97	102.38	40.163	8.2081e-06	58.564	0.0028187	0.0030131	0.00085017	899.31	3.2778e-05	3.3632e-05	1048.1	307.12	3.3336e-05	3.3999e-05	396.57	138.02	101.61	39.463	3.3934e-05	57.318	-40.315	70.050	-50.926	-87.586	173.144	94.172	-88.325	-83.100	39.661	127.462	-84.433	-79.274	-77.466	-72.563	84.803	-75.627	-8191	255	
30008.100	1	1	0	0	0.034223	0.16256	0.066679	0.25703	0.16825	0.038405	0.11065	0.27126	0.078806	0.13111	0.051393	0.08073	0.29366	0.18682	0.14509	0.26511	-3.9333	-5.0146	-4.1375	-4.7708	-4.975	-4.1146	-5.0875	-4.7625	-4.1479	-4.85	-4.3896	-4.5813	-4.7875	-4.0375	-4.675	-4.7812	-41.784	110.360	99.276	222.066	52.955	0.449	240.820	179.207	101.370	183.615	250.725	161.987	-89.088	149.229	27.882	199.734	0.00069051	0.00094725	0.00043598	958.88	2.2066e-05	1.6186e-05	1123.2	325.49	1.2247e-05	5.0227e-06	416.53	145.37	103.07	40.48	1.0606e-05	58.834	0.0028629	0.003071	0.00086012	905.35	3.2551e-05	3.339e-05	1056.3	309.51	3.2401e-05	3.3297e-05	399.99	139.04	102.2	39.35	3.3239e-05	57.416	-47.339	-10.791	171.359	-87.841	220.614	100.794	-88.142	-82.722	-86.415	13.980	-84.453	-79.213	-77.840	-72.419	-17.577	-74.934	-8191	255	
30008.195	1	1	0	0	0.24419	0.11705	0.13173	0.088818	0.082919	0.11267	0.083782	0.04194	0.16808	0.12234	0.21754	0.21045	0.13452	0.19262	0.12527	0.28649	-3.7562	-5.0646	-4.1146	-4.3562	-4.8896	-3.9854	-4.9125	-4.5479	-4.1333	-5.0437	-4.3812	-4.1896	-4.9062	-4.0167	-4.6583	-4.7354	95.592	26.829	-30.324	-93.388	-47.846	88.675	258.012	111.435	-31.789	-4.914	179.246	14.809	152.993	220.314	84.391	239.670	0.0008011	0.0012991	0.00014868	962.98	1.396e-05	1.0974e-05	1136.2	328.54	1.5195e-05	7.2953e-06	417.92	144.63	104.36	40.321	1.639e-05	59.101	0.0028909	0.0031416	0.00088825	912.24	3.4433e-05	3.538e-05	1065.9	312.91	3.4512e-05	3.497e-05	405.52	140.47	103.36	39.776	3.4475e-05	57.786	9.652	72.118	31.920	-87.822	-32.285	70.717	-88.616	-82.830	23.614	2.261	-84.391	-79.117	-77.304	-72.563	36.544	-74.981	-8191	255	
30008.293	1	1	0	0	0.20151	0.14132	0.15503	0.21946	0.13674	0.25574	0.041382	0.10434	0.11781	0.10865	0.1344	0.17688	0.058489	0.074635	0.24564	0.16651	-3.6688	-4.9792	-4.3708	-4.3208	-4.8667	-3.9938	-4.7375	-4.7688	-3.9979	-4.8562	-4.4083	-4.2021	-5.2	-4.0354	-4.4042	-4.8792	178.167	219.492	226.798	214.463	-5.521	102.139	191.438	213.822	30.874	9.344	93.905	165.879	180.518	-76.215	91.163	161.173	0.00055211	0.0020274	0.00024565	960.71	1.2391e-05	1.2339e-05	1123.2	324.87	6.715e-06	1.0183e-05	410.49	142.41	101.67	40.008	2.996e-06	57.964	0.0029649	0.0031823	0.00090354	911.1	3.4503e-05	3.5753e-05	1060.8	311.77	3.497e-05	3.5284e-05	399.66	138.31	101.7	39.454	3.4174e-05	56.891	-41.965	9.920	14.285	-87.943	104.930	185.520	-88.462	-82.515	148.828	91.397	-84.437	-78.889	-76.889	-72.876	243.762	-75.376	-8191	255	
30008.410	1	1	0	0	0.25432	0.29515	0.088328	0.23559	0.12262	0.14808	0.14953	0.21697	0.083176	0.13512	0.19587	0.11897	0.1252	0.15356	0.043727	0.32933	-3.5438	-4.7729	-4.4896	-4.3083	-4.9792	-4.1208	-4.4479	-5.0125	-4.1729	-4.8917	-4.6625	-4.0896	-5.1208	-4.4208	-4.3729	-4.9604	25.426	13.601	245.091	-57.816	-66.552	210.423	194.640	113.983	57.450	43.741	227.517	-20.432	251.446	119.400	222.403	-97.170	0.000184	0.00034058	0.00028625	947.04	6.7202e-06	7.3405e-06	1106.1	324.1	5.678e-06	9.8209e-06	409.15	140.27	101.71	39.754	5.352e-06	57.765	0.0028923	0.0030837	0.00086263	900.43	3.2701e-05	3.4134e-05	1041.4	308.03	3.2929e-05	3.3628e-05	394.13	135.82	101.04	39.086	3.3781e-05	56.487	-58.472	25.475	-100.035	-87.546	-24.055	51.883	-88.700	-82.934	82.052	57.738	-84.379	-79.310	-77.434	-72.574	84.815	-74.661	-8191	255	
30008.508	1	1	0	0	0.12422	0.15907	0.15733	0.15079	0.2341	0.19355	0.11139	0.2175	0.24866	0.18386	0.16915	0.027032	0.3048	0.12107	0.28441	0.31715	-3.6917	-4.8083	-4.6167	-4.1042	-4.8396	-4.3833	-4.475	-5.0437	-3.9	-4.5687	-5.0104	-4.1021	-5.1167	-4.4667	-4.2312	-5.0479	-30.639	208.787	57.796	249.997	100.577	-59.481	-53.002	124.244	-72.871	0.747	18.003	107.036	-75.740	143.771	79.888	225.651	0.00021928	0.0012516	0.0003495	955.8	8.0136e-06	9.8729e-06	1114.5	325.9	1.2237e-05	7.5846e-06	409.7	141.18	102.45	39.578	9.9128e-06	57.959	0.0028849	0.0030289	0.00086671	906.89	3.3001e-05	3.4166e-05	1052.3	310.43	3.3387e-05	3.4121e-05	396.09	136.55	101.44	39.171	3.396e-05	56.553	-94.685	57.000	-2.732	-87.604	-4.626	-45.427	-88.349	-83.012	-94.320	-44.688	-84.132	-79.307	-77.714	-72.842	257.855	-75.492	-8191	255	
30008.604	1	1	0	0	0.063992	0.18358	0.077375	0.1764	0.1252	0.1916	0.032723	0.11975	0.20473	0.22481	0.092108	0.16715	0.39702	0.15252	0.17275	0.22288	-3.8937	-4.6354	-4.7479	-4.0729	-4.8583	-4.3792	-4.3979	-5.3333	-4.1958	-4.4854	-5.0271	-4.225	-4.9	-4.7333	-3.8438	-5.125	-25.870	-51.244	220.983	195.040	-42.032	193.937	-33.589	-62.728	130.778	233.250	106.603	196.320	239.623	230.516	16.130	178.912	0.00072315	0.00088238	0.00023013	961.82	1.1888e-05	1.8282e-05	1117.5	326.91	1.8507e-05	1.7004e-05	414.92	143.31	102.76	40.254	1.2167e-05	58.352	0.002895	0.0031209	0.00088035	910.54	3.3274e-05	3.4913e-05	1056.7	312.2	3.4607e-05	3.5534e-05	401.77	139.58	102.81	39.739	3.6307e-05	57.362	9.099	-59.417	53.020	-87.909	-0.338	137.231	-88.209	-83.243	-35.639	92.938	-84.362	-79.518	-77.811	-72.747	71.684	-75.020	-8191	255	
30008.699	1	1	0	0	0.14184	0.12049	0.19539	0.23417	0.16893	0.089184	0.23262	0.38294	0.20446	0.14489	0.052035	0.15291	0.05236	0.32287	0.15342	0.1149	-3.9	-4.3646	-4.8604	-4.0729	-4.5646	-4.6833	-4.1792	-5.1417	-4.3333	-4.3354	-4.9583	-4.1771	-4.4938	-4.6667	-3.9938	-5.1042	-58.170	25.488	104.923	-77.623	58.969	-82.660	171.567	192.419	-43.343	205.844	77.355	233.528	-29.588	-81.816	-53.606	193.656	0.00067781	0.00081255	0.0003903	966.87	1.2775e-05	9.0506e-06	1129.9	334.12	3.7886e-05	1.2164e-05	422	146.87	105.24	40.827	2.2547e-05	58.812	0.0031148	0.0033428	0.00094146	919.68	3.6434e-05	3.751e-05	1070.8	318.14	3.6624e-05	3.7458e-05	410.92	142.69	105.37	40.165	3.6621e-05	57.889	5.756	212.650	59.446	-87.907	-18.616	43.155	-88.916	-83.142	56.254	20.910	-84.044	-79.490	-77.606	-72.625	-2.003	-75.526	-8191	255	
30008.797	1	1	0	0	0.066225	0.086368	0.21396	0.18543	0.12006	0.066696	0.0082637	0.12195	0.34563	0.098809	0.18602	0.28786	0.28516	0.090216	0.13066	0.099348	-3.9958	-4.1687	-4.8896	-4.1583	-4.5917	-4.7688	-4.0646	-5.1146	-4.4479	-4.125	-5.1021	-4.1562	-4.5125	-5.0292	-3.9021	-4.8812	111.153	195.338	72.057	-27.172	117.657	46.071	185.009	145.269	125.740	39.879	-66.501	115.483	230.907	169.324	153.145	201.919	0.00021223	0.0019434	9.1958e-05	981.45	1.6498e-05	1.1856e-05	1143.3	334.41	1.3409e-05	2.197e-05	418.63	145.35	104.36	40.004	3.644e-06	57.978	0.0031122	0.0033571	0.00092076	929.15	3.5433e-05	3.6324e-05	1075.2	318.87	3.5906e-05	3.6134e-05	404.17	140.36	104.37	39.539	3.5458e-05	56.925	-63.490	-37.439	-21.184	-87.975	139.453	150.763	-88.782	-83.036	126.207	54.509	-84.363	-79.162	-78.082	-72.690	-58.527	-75.658	-8191	255	
30008.893	1	1	0	0	0.14848	0.15186	0.16535	0.12435	0.043215	0.057255	0.27342	0.097092	0.36012	0.12744	0.1802	0.14191	0.18748	0.049335	0.10066	0.093646	-4.2917	-4.1458	-5.0458	-4.1021	-4.3521	-4.8646	-4.1396	-4.9688	-4.5437	-4.0938	-5.1312	-4.3896	-4.3375	-4.8771	-3.9271	-4.7958	-27.719	103.434	19.333	126.340	94.075	124.917	204.189	255.444	195.451	245.984	223.786	-91.996	181.192	-96.771	139.003	192.390	0.00053773	0.00050511	9.576e-05	975.61	1.5733e-05	7.871e-06	1128.9	331.23	1.4989e-05	7.3181e-06	411.98	142.8	104.39	39.729	5.8029e-06	57.753	0.0030477	0.0032823	0.00091164	922.45	3.472e-05	3.6039e-05	1063.5	316.29	3.5121e-05	3.5326e-05	400.71	139.23	104	39.411	3.5272e-05	56.812	7.272	-64.388	133.206	-87.683	39.492	-69.234	-88.340	-82.975	21.976	106.740	-84.454	-79.678	-77.844	-72.780	-24.493	-75.144	-8191	255	
30009.014	1	1	0	0	0.11185	0.2844	0.15059	0.098323	0.13216	0.08641	0.13866	0.13377	0.045739	0.14379	0.081635	0.17841	0.056822	0.051284	0.19018	0.20327	-4.3542	-4.1104	-4.9688	-4.5854	-4.2646	-4.9729	-4.25	-4.7792	-4.8021	-4.0083	-4.9583	-4.4187	-4.2312	-4.9083	-4.0542	-4.75	31.763	30.384	-38.730	-86.489	-71.167	13.599	45.769	224.740	100.471	162.365	-29.055	49.784	210.730	-79.465	244.793	221.218	0.00091639	0.00087031	0.00026159	982.37	3.4339e-05	1.4122e-05	1127.1	333.61	1.5466e-05	5.8732e-06	419.11	144.73	104.53	39.988	2.0045e-05	57.801	0.0030584	0.0032556	0.00090496	927.88	3.547e-05	3.6118e-05	1068.6	317.88	3.5815e-05	3.6369e-05	404.49	140.03	104.29	39.656	3.5681e-05	56.911	-17.883	-92.120	23.564	-87.869	26.308	29.499	-88.408	-83.029	69.572	216.525	-84.329	-79.347	-77.128	-72.979	251.536	-75.552	-8191	255	
30009.107	1	1	0	0	0.066214	0.068737	0.13251	0.067318	0.096137	0.22322	0.25262	0.066261	0.26284	0.052628	0.15383	0.19237	0.068439	0.10349	0.05874	0.081946	-4.5104	-3.9938	-4.9812	-4.6375	-4.1125	-5.0396	-4.2833	-4.7229	-4.7438	-4.0437	-5.0104	-4.6771	-4.175	-5.1312	-4.1146	-4.6104	82.012	-84.716	73.621	222.057	-1.408	-17.483	223.993	170.721	90.995	166.766	213.905	225.457	-54.506	61.390	-38.964	202.095	0.00059878	0.0017236	0.00042513	985.95	2.1366e-05	1.4748e-05	1137.6	336.46	2.2645e-05	1.3568e-05	420.13	145.25	105.08	40.565	1.1257e-05	58.812	0.0030157	0.0032645	0.0008885	930.53	3.4579e-05	3.5473e-05	1072.3	320.02	3.532e-05	3.5798e-05	407.5	140.75	105.3	39.93	3.5942e-05	57.534	-7.315	-33.227	13.697	-87.799	-17.607	42.698	-88.574	-83.327	60.228	158.536	-84.475	-79.260	-77.951	-72.844	-24.044	-75.239	-8191	255	
30009.203	1	1	0	0	0.070235	0.09904	0.17939	0.12746	0.23187	0.12389	0.064173	0.13663	0.073312	0.09637	0.25128	0.016662	0.16477	0.060677	0.066173	0.081374	-4.5917	-4.0437	-4.7646	-4.6396	-4.0437	-4.9875	-4.3604	-4.4062	-4.9292	-4.0875	-4.7521	-4.8354	-4.2396	-5.0833	-4.225	-4.4146	-46.321	93.713	-48.564	-98.684	29.997	172.934	1.257	199.986	-50.522	102.206	126.592	6.801	159.908	243.446	38.587	104.038	0.00079242	0.00079767	0.00017485	978.66	4.8686e-06	5.999e-07	1144.4	338.58	1.5225e-05	1.9877e-06	422.89	147.33	106.31	40.597	1.4098e-05	59.176	0.0030489	0.0032537	0.00090703	928.3	3.5023e-05	3.5673e-05	1079.2	321.86	3.5261e-05	3.6277e-05	411.26	143.04	105.78	40.003	3.5677e-05	57.657	7.647	-79.362	199.013	-87.743	-82.997	-51.360	-88.312	-83.394	-26.967	59.669	-84.593	-79.442	-77.831	-72.741	99.882	-75.793	-8191	255	
30009.301	1	1	0	0	0.36741	0.17039	0.055287	0.41458	0.095182	0.038986	0.17392	0.080062	0.19633	0.34941	0.27987	0.10845	0.070126	0.063686	0.032073	0.34673	-4.6937	-3.9083	-4.6792	-4.8667	-4.0229	-4.7896	-4.4667	-4.3438	-5.0521	-4.0771	-4.75	-4.8979	-3.8937	-4.825	-4.4979	-4.1229	-19.715	98.945	-31.241	239.972	61.349	90.675	146.526	247.295	55.991	242.101	251.130	-35.692	212.704	235.775	146.928	173.515	0.00059943	0.0013824	0.00028266	979.8	4.8452e-06	1.2404e-05	1133.5	334.62	9.0936e-06	1.2367e-05	414.86	142.3	104.17	39.949	4.8599e-06	57.423	0.0029911	0.0032703	0.00090797	930.16	3.4973e-05	3.6407e-05	1073.6	318.96	3.5292e-05	3.6115e-05	402.9	139.5	104.04	39.391	3.5629e-05	56.267	-23.734	240.933	19.217	-87.659	-46.576	153.226	-88.745	-83.416	53.718	75.130	-84.661	-79.688	-77.521	-72.836	174.467	-75.374	-8191	255	
30009.396	1	1	0	0	0.098228	0.21554	0.097138	0.1212	0.25833	0.024178	0.03217	0.16451	0.16006	0.24561	0.24247	0.11001	0.29671	0.093292	0.080566	0.097713	-4.6604	-4.025	-4.3375	-5.0771	-3.8833	-4.9104	-4.7333	-4.2479	-4.8917	-4.1229	-4.4625	-4.9083	-4.0104	-4.8313	-4.6792	-4.1458	-11.669	251.916	-18.859	189.172	1.580	207.477	-25.177	256.455	-48.400	15.085	224.303	226.415	-97.316	215.615	193.678	162.094	0.00047547	0.00066379	0.00048245	970.65	1.3336e-05	1.5203e-05	1117.8	331.59	1.4e-05	7.8295e-06	409.44	142.46	104.12	39.941	7.8327e-06	56.983	0.0029795	0.0032741	0.00090346	919.46	3.4984e-05	3.5907e-05	1061.3	315.07	3.5352e-05	3.6496e-05	399.21	138.47	103.66	39.275	3.6022e-05	56.154	-38.287	91.743	-17.397	-87.837	92.815	79.148	-88.247	-83.293	98.072	47.886	-84.886	-79.015	-77.629	-72.443	43.862	-75.224	-8191	255	
30009.492	1	1	0	0	0.22676	0.1341	0.11605	0.13255	0.1054	0.09751	0.3306	0.16788	0.19353	0.16334	0.10771	0.13285	0.19351	0.22306	0.155	0.16047	-4.5938	-4.3542	-4.2417	-5.1583	-4.0375	-4.6417	-5.1	-4.2521	-4.8396	-4.2979	-4.2562	-5.0604	-4.2229	-4.6417	-4.7688	-4.025	10.753	52.594	32.245	98.632	134.860	159.929	130.781	231.057	56.572	236.440	33.264	11.087	216.182	187.554	51.250	246.466	0.00037244	0.00083501	0.00038909	966.86	5.4345e-06	1.0488e-05	1123.8	330.97	1.2985e-05	6.7644e-06	414.83	143.47	104.75	39.831	5.1031e-06	57.753	0.0030418	0.003343	0.00092775	919.58	3.511e-05	3.596e-05	1064.7	315.8	3.5073e-05	3.6458e-05	401.8	139.62	104.44	39.434	3.6299e-05	56.892	77.046	22.792	54.275	-87.790	222.745	22.885	-88.418	-83.292	147.118	28.286	-84.671	-79.350	-77.783	-72.417	227.865	-75.131	-8191	255	
30009.588	1	1	0	0	0.084365	0.27332	0.14649	0.36051	0.13704	0.13323	0.18314	0.073962	0.10486	0.1882	0.090198	0.1536	0.10644	0.21385	0.19563	0.1174	-4.5687	-4.3938	-3.9854	-4.8771	-4.1646	-4.5104	-4.9167	-4.1417	-4.7917	-4.5188	-4.2063	-5.0687	-4.3229	-4.3604	-4.9396	-4.0667	56.988	161.780	-15.023	205.945	77.939	241.480	202.152	203.217	183.075	122.589	195.741	216.904	258.740	-59.933	242.476	101.317	0.00073582	0.0010708	0.00030262	970.55	1.1117e-05	7.3907e-06	1132.2	335.36	1.7407e-05	1.0879e-05	417.46	147.48	106.03	40.376	2.1577e-05	58.101	0.0030643	0.0033315	0.0009286	923.36	3.6372e-05	3.6849e-05	1072.2	320.09	3.5884e-05	3.7082e-05	407.22	142.3	105.97	39.835	3.6698e-05	57.325	-15.892	-37.520	-54.300	-87.470	-42.382	36.856	-88.823	-83.069	209.606	249.654	-84.305	-79.281	-77.406	-72.907	-4.944	-75.299	-8191	255	
30009.707	1	1	0	0	0.088625	0.15238	0.0865	0.23504	0.12602	0.085443	0.11987	0.062752	0.1798	0.13927	0.12501	0.13291	0.12289	0.14376	0.05122	0.15642	-4.3396	-4.6	-3.9958	-5.1562	-4.2042	-4.3167	-5.1458	-4.1333	-4.6646	-4.7083	-4.2104	-5.1271	-4.1771	-4.3479	-4.9333	-4.0625	64.426	169.677	81.680	-85.669	118.486	14.886	119.024	142.568	123.663	227.392	216.414	-63.597	-73.553	-68.593	-42.565	157.364	0.00042644	0.00060016	0.00038618	978.45	8.0248e-06	8.2452e-06	1133.6	335.53	1.1511e-05	1.3216e-05	422.89	147.36	105.96	40.449	1.327e-05	57.988	0.0031245	0.0034179	0.00095186	925.93	3.707e-05	3.769e-05	1075.2	321.03	3.7031e-05	3.7869e-05	410.82	143.59	106.13	39.874	3.6946e-05	57.29	23.771	124.389	53.580	-87.741	-98.185	-33.223	-88.218	-83.470	204.495	54.483	-84.423	-79.181	-77.764	-72.799	227.707	-75.334	-8191	255	
30009.805	1	1	0	0	0.27117	0.089633	0.13964	0.2773	0.21564	0.095154	0.17	0.37695	0.10059	0.16634	0.17939	0.29502	0.20061	0.2034	0.13255	0.14993	-4.1896	-4.625	-3.9688	-5.1042	-4.4021	-4.0437	-5.1188	-4.0396	-4.4313	-4.6458	-4.0563	-4.9187	-4.4458	-4.0583	-5.0604	-4.2208	-77.759	145.510	129.639	-89.240	209.139	211.419	202.886	-97.684	-50.262	23.104	253.570	118.099	91.758	99.945	171.357	-54.801	0.00031012	0.0002248	0.00043902	969.29	8.0361e-06	2.952e-05	1123.1	328.09	1.8094e-05	8.2831e-06	410.34	144.3	103.94	39.529	2.022e-05	57.047	0.0031513	0.0034427	0.00094565	918.13	3.6555e-05	3.6946e-05	1063.5	314.31	3.6502e-05	3.7293e-05	399.54	139.99	103.76	39.106	3.6029e-05	55.942	7.890	-97.917	-44.115	-87.792	109.736	104.040	-88.533	-83.051	57.671	-32.171	-84.973	-79.324	-77.848	-72.754	69.354	-75.521	-8191	255	
30009.900	1	1	0	0	0.17564	0.22905	0.08007	0.12214	0.04368	0.15237	0.089238	0.033483	0.34264	0.11785	0.028743	0.28647	0.12162	0.24331	0.12666	0.1415	-4.1271	-4.9187	-4.1708	-4.95	-4.5292	-4.2646	-5.2208	-4.3458	-4.3271	-4.9187	-4.0667	-4.8333	-4.8271	-4.1625	-4.8562	-4.2312	174.768	72.325	213.674	173.817	45.759	220.661	95.107	229.752	-66.696	220.227	199.563	224.939	75.632	187.342	6.583	145.872	0.0008188	0.00061072	0.00015013	961.61	1.23e-05	1.0458e-05	1117.5	327.74	3.4097e-05	7.6462e-06	407.88	142	103.63	39.318	1.0078e-05	56.215	0.0031033	0.0033201	0.00092512	913.6	3.5982e-05	3.6598e-05	1055.1	313.62	3.5306e-05	3.5898e-05	397.18	138.78	103.39	38.797	3.5914e-05	55.646	-1.691	5.423	97.306	-87.757	-19.785	103.195	-88.022	-83.188	31.925	30.754	-84.776	-79.180	-77.859	-72.576	203.272	-75.391	-8191	255	
30009.973	1	1	0	0	0.27388	0.10024	0.19985	0.18562	0.16064	0.26048	0.35384	0.077009	0.24366	0.3788	0.084334	0.028261	0.11549	0.28532	0.053115	0.10243	-4.0229	-4.9	-3.9688	-4.8063	-4.6562	-4.1583	-5.1583	-4.4812	-4.3375	-4.8958	-4.075	-4.6604	-4.8479	-4.15	-4.8479	-4.4479	61.693	-84.675	38.071	217.013	107.749	252.732	246.978	-100.162	45.886	137.924	51.176	-43.295	-22.468	-62.096	-82.079	239.895	0.00050303	0.00045249	0.00015243	958.4	1.2981e-05	9.0434e-06	1120.1	327.64	2.6717e-05	6.1469e-06	408.08	143.05	103.34	38.91	1.1719e-05	56.005	0.0031036	0.0033638	0.00094446	914.3	3.6547e-05	3.7196e-05	1061.3	314.12	3.6622e-05	3.7132e-05	400.49	139.64	103.72	38.731	3.7932e-05	55.617	-12.320	47.271	-68.443	-87.716	-5.177	17.024	-88.445	-82.984	52.686	113.403	-84.590	-79.176	-77.338	-72.780	198.106	-75.384	-8191	255	
30010.094	1	1	0	0	0.25682	0.056152	0.10588	0.13616	0.30614	0.13019	0.10297	0.091753	0.209	0.26719	0.13563	0.03378	0.37864	0.1846	0.28738	0.070061	-3.7729	-4.9708	-4.1583	-4.6438	-4.7312	-4.0312	-5.0188	-4.5167	-4.2375	-5.0375	-4.2417	-4.5437	-4.9979	-4.0437	-4.7688	-4.5687	211.171	87.017	58.673	-100.263	-0.126	-45.617	246.018	-9.781	32.111	-63.731	257.223	195.151	219.798	239.322	220.603	239.838	0.00060257	0.00089363	0.00017453	950.22	1.5861e-05	1.415e-05	1121.1	327.79	2.3263e-05	1.1921e-05	412.3	144.7	103.57	39.657	9.5338e-06	56.625	0.0032467	0.0035445	0.0010018	913.5	3.8154e-05	3.9926e-05	1063.3	314.71	3.8571e-05	3.9151e-05	404.12	141.15	104.15	39.007	3.7603e-05	56.342	-42.907	70.327	245.964	-87.610	-52.141	-100.346	-88.611	-82.814	215.265	-19.655	-84.235	-79.442	-77.563	-72.851	5.093	-75.373	-8191	255	
30010.189	1	1	0	0	0.068706	0.056498	0.09105	0.087591	0.17503	0.10612	0.058422	0.30458	0.08208	0.16261	0.19174	0.11742	0.07447	0.13241	0.10581	0.23558	-3.9062	-4.9812	-4.1229	-4.4979	-4.8167	-3.8583	-4.8396	-4.8812	-4.0042	-4.9354	-4.2354	-4.0896	-4.9667	-3.9917	-4.5583	-4.9667	-88.629	220.735	-41.710	-76.810	240.581	46.990	43.389	228.912	164.389	238.793	-88.605	190.256	-95.620	202.756	242.458	184.760	0.00047234	0.00027714	0.00058142	963.54	6.7724e-06	2.0301e-05	1128	327.74	1.4191e-05	1.8159e-05	413.1	145.35	103.21	39.089	1.5149e-05	56.27	0.003259	0.0035323	0.00099067	917.28	3.8355e-05	3.9447e-05	1070.5	316.05	3.8918e-05	3.9598e-05	405.88	141.64	104.29	39.017	3.9326e-05	56.146	-34.458	68.782	-25.078	-87.807	-68.267	-14.373	-88.622	-82.908	-29.930	44.424	-84.452	-79.122	-77.093	-72.840	-61.570	-75.092	-8191	255	
30010.283	1	1	0	0	0.09608	0.17862	0.13891	0.037063	0.13761	0.090721	0.11448	0.2472	0.24227	0.11415	0.060746	0.0080679	0.14467	0.32723	0.039819	0.15057	-3.6729	-4.8729	-4.4187	-4.2271	-4.7937	-3.9729	-4.7458	-4.8792	-3.9938	-4.8125	-4.6271	-4.3271	-4.9646	-4.2208	-4.5104	-4.9875	190.346	124.851	-72.669	-41.613	128.627	159.171	101.964	202.901	129.867	119.319	-9.672	55.722	218.807	-78.357	-39.736	-66.055	0.00060255	0.001605	0.00033759	953.8	2.324e-05	9.1977e-06	1109.1	322.9	1.9373e-05	1.1867e-05	405.14	141.35	101.99	38.434	5.0042e-06	54.982	0.0033117	0.0035663	0.00099746	907.69	3.8078e-05	3.894e-05	1052.9	309.31	3.7749e-05	3.8837e-05	396.13	138.11	102.57	38.39	3.853e-05	54.86	20.763	47.046	-12.878	-87.858	103.760	47.820	-88.770	-82.856	-26.902	1.603	-84.363	-79.384	-77.710	-72.654	22.072	-75.517	-8191	255	
30010.383	1	1	0	0	0.1139	0.13931	0.17924	0.17166	0.11263	0.185	0.11543	0.22248	0.14543	0.11665	0.19535	0.098913	0.31948	0.27827	0.20135	0.020949	-3.7042	-4.8833	-4.5813	-4.2479	-4.9479	-4.1979	-4.4479	-5.0125	-3.8625	-4.7896	-4.5854	-4.0188	-5.0583	-4.2083	-4.2167	-5.025	231.654	58.918	-45.807	192.624	193.351	197.589	180.357	188.454	73.081	35.336	143.156	224.928	-62.205	97.730	59.672	178.072	0.00069927	0.00033142	2.2902e-05	946.85	4.9546e-06	1.5207e-05	1108.3	320.35	6.3857e-06	4.8415e-06	403.15	139.95	100.86	38.459	1.3936e-05	55.421	0.0032723	0.0035238	0.0009967	903.17	3.8256e-05	3.9354e-05	1051.3	308.13	3.8653e-05	3.9251e-05	395.42	137.83	102.37	38.39	3.8376e-05	55.062	-26.386	-98.913	-98.961	-87.916	42.111	130.351	-88.536	-82.971	214.387	213.890	-84.556	-79.236	-77.348	-72.678	90.237	-74.991	-8191	255	
30010.500	1	1	0	0	0.10987	0.068109	0.052405	0.091674	0.043482	0.22452	0.34131	0.037208	0.18349	0.066491	0.079522	0.27034	0.14263	0.15823	0.047599	0.10945	-3.7542	-4.6312	-4.6917	-4.1625	-5.1042	-4.2521	-4.3438	-5.1208	-4.0083	-4.625	-4.8021	-4.0417	-4.9146	-4.4229	-4.1937	-5.0708	138.341	190.106	186.204	191.822	-30.435	136.001	237.547	7.648	174.893	223.963	243.231	-54.645	-18.609	221.452	16.827	156.675	0.00019315	0.0011535	8.9597e-05	948.35	3.9811e-05	2.3881e-05	1117.2	322.86	4.6435e-06	5.8784e-06	408.1	142.35	102.61	39.036	1.8219e-05	56.488	0.0032681	0.0035135	0.00099661	903.92	3.7829e-05	3.956e-05	1053.8	309.38	3.8503e-05	3.8759e-05	397.84	139.28	103.56	38.864	3.8495e-05	55.854	42.356	233.181	6.208	-87.650	129.659	79.725	-88.747	-82.705	163.653	183.017	-84.455	-79.557	-78.001	-72.319	-48.137	-75.398	-8191	255	
30010.598	1	1	0	0	0.11841	0.23361	0.17198	0.20738	0.078024	0.12967	0.23723	0.19674	0.10837	0.073979	0.050794	0.10212	0.13181	0.22246	0.081988	0.095774	-3.9042	-4.4854	-4.9417	-4.2167	-4.7812	-4.475	-4.225	-5.1625	-4.225	-4.5	-5.0729	-4.0354	-4.8521	-4.5625	-4.0417	-5.0917	209.974	182.476	245.981	-44.931	34.353	198.847	225.145	210.066	248.987	175.054	253.119	164.372	-84.901	245.065	249.581	191.186	0.00043877	0.0012138	0.00016873	949.89	1.6062e-05	2.3624e-05	1120.2	324.57	2.6157e-05	3.7063e-06	414.07	144.77	104.77	39.368	1.9009e-05	57.232	0.0032686	0.0035228	0.00098452	906.79	3.7872e-05	3.9181e-05	1061.6	311.9	3.8714e-05	3.922e-05	404.48	141.92	105.16	39.244	3.9133e-05	56.481	-2.003	242.599	209.904	-87.970	-9.884	174.910	-88.378	-83.222	67.919	-11.887	-84.759	-79.611	-77.827	-72.698	51.021	-75.268	-8191	255	
30010.693	1	1	0	0	0.094432	0.11011	0.034144	0.2129	0.13545	0.077587	0.43177	0.11403	0.35676	0.04099	0.12946	0.22608	0.30843	0.14287	0.028633	0.081429	-3.8312	-4.3708	-4.9396	-4.0729	-4.7958	-4.7729	-4.0729	-4.9688	-4.3542	-4.2167	-5.15	-4.1854	-4.7771	-4.7875	-4.0521	-4.9708	17.462	-19.188	199.564	228.939	-1.299	177.715	190.870	83.434	204.593	253.912	163.521	238.657	248.279	168.667	211.810	-44.109	0.0009864	0.0013739	0.00020461	960	5.8281e-06	1.0686e-05	1132.1	328.79	2.1703e-05	9.517e-06	414.52	145.11	104.08	39.065	9.2959e-06	56.121	0.0033506	0.0035548	0.00099213	915.79	3.8191e-05	3.8992e-05	1072.3	315.69	3.8337e-05	3.9197e-05	404.43	141.28	104.23	38.744	3.8441e-05	55.624	-15.450	7.328	248.732	-88.158	137.512	245.828	-88.269	-83.224	66.211	92.865	-83.925	-79.542	-77.780	-72.398	-98.241	-75.530	-8191	255	
30010.789	1	1	0	0	0.13966	0.26745	0.028863	0.27277	0.1003	0.24542	0.12571	0.19106	0.15889	0.20318	0.29196	0.085266	0.16697	0.19662	0.083409	0.035305	-3.9375	-4.2271	-4.9062	-4.1396	-4.6146	-4.8333	-4.2	-5.0312	-4.3604	-4.1813	-5.0958	-4.1792	-4.5854	-4.9292	-3.9542	-4.9458	-82.049	257.434	20.955	254.866	0.033	239.490	208.197	202.120	134.977	4.239	169.234	131.764	-62.496	154.710	200.894	110.758	0.0010711	0.00041212	9.108e-05	952.51	2.4618e-05	1.0448e-05	1117.6	320.09	9.4993e-06	8.7088e-06	403.97	138.88	102.07	37.956	2.1752e-05	54.708	0.0032693	0.0035274	0.00097415	911.27	3.7861e-05	3.8785e-05	1057.8	308.89	3.779e-05	3.8597e-05	393.74	137.16	102.15	37.981	3.8223e-05	54.445	-48.529	135.532	42.113	-87.779	19.671	-33.837	-88.585	-83.090	121.472	-2.513	-84.175	-79.321	-77.839	-72.388	73.028	-74.896	-8191	255	
30010.885	1	1	0	0	0.16582	0.29388	0.057918	0.35559	0.076143	0.1398	0.14779	0.22664	0.056721	0.24336	0.13845	0.21231	0.19529	0.16741	0.23398	0.074107	-4.2458	-4.1271	-4.9104	-4.3604	-4.5229	-4.8042	-4.0479	-4.7646	-4.5542	-4.1292	-4.9062	-4.2833	-4.4083	-4.975	-3.9792	-4.9229	73.096	15.339	-50.939	258.293	-74.403	212.939	241.237	212.975	161.518	146.954	-13.068	215.098	251.633	187.329	17.781	225.617	0.00058533	0.001405	0.00029033	947.25	6.0223e-06	1.1057e-05	1110.6	320.3	3.2297e-05	8.3263e-06	402.01	139.63	101.41	38.148	1.17e-05	54.73	0.0032887	0.0035321	0.00097351	904.29	3.7797e-05	3.9049e-05	1050.3	307.17	3.8311e-05	3.8446e-05	392.76	137.12	101.99	38.148	3.8891e-05	54.494	-55.432	85.895	2.794	-87.886	-10.537	161.625	-88.185	-83.009	69.751	-9.569	-84.125	-79.418	-77.625	-72.548	-46.221	-75.355	-8191	255	
30010.980	1	1	0	0	0.3373	0.30656	0.035762	0.20397	0.060617	0.057983	0.48266	0.19481	0.15199	0.19359	0.17218	0.18138	0.25106	0.15847	0.20315	0.099118	-4.4313	-4.0771	-5.0021	-4.4083	-4.2021	-4.8104	-4.1875	-4.8063	-4.6958	-4.0146	-4.9583	-4.4062	-4.2312	-5.0687	-3.9958	-4.5625	74.079	141.909	-31.750	-24.387	180.350	158.384	207.049	195.298	150.185	-24.472	222.039	-95.696	-87.945	138.880	-34.493	115.937	0.00029287	0.0012659	0.00035676	949.58	1.6987e-05	1.5722e-05	1113.1	323.59	4.0034e-05	8.3405e-06	407.73	142.03	102.18	38.575	1.0782e-05	55.797	0.0032775	0.0035516	0.00098776	908.63	3.8087e-05	3.8795e-05	1057	310.15	3.839e-05	3.8627e-05	397.16	138.94	102.83	38.433	3.8493e-05	54.991	-5.494	-35.835	-70.558	-87.669	65.943	85.554	-88.336	-83.165	28.154	3.347	-84.753	-79.093	-77.430	-72.229	157.023	-75.194	-8191	255	
30011.102	1	1	0	0	0.04064	0.11026	0.18687	0.20977	0.17903	0.14343	0.11202	0.18931	0.17889	0.022195	0.25084	0.10753	0.094343	0.1671	0.14556	0.1437	-4.6708	-4.0271	-4.8313	-4.6021	-4.2375	-5.0896	-4.2917	-4.6333	-4.8333	-3.8187	-5.0771	-4.6167	-4.1292	-5.0833	-4.3333	-4.5021	30.853	40.555	8.735	179.097	-71.498	185.295	214.171	98.510	-28.333	211.033	216.134	237.656	218.721	92.549	52.421	192.416	0.00026101	0.00031337	0.00030964	960.38	1.7502e-05	3.4517e-05	1126.9	326.24	1.0523e-05	1.9066e-05	413.52	144.67	104.45	38.905	1.2307e-05	56.442	0.0032624	0.0035717	0.00099108	915.87	3.7999e-05	3.9055e-05	1066.7	313.5	3.85e-05	3.8857e-05	404.33	141.11	104.61	38.844	3.8522e-05	55.803	-37.666	126.888	0.964	-87.968	174.090	45.092	-88.732	-83.417	59.287	19.485	-84.483	-79.529	-77.829	-72.274	3.004	-75.029	-8191	255	
30011.195	1	1	0	0	0.12192	0.14696	0.05339	0.17067	0.07837	0.010689	0.056543	0.049301	0.19881	0.11171	0.1108	0.36829	0.078162	0.28593	0.076742	0.08544	-4.7	-3.9042	-4.9375	-4.8354	-4.0708	-5.1083	-4.3812	-4.2833	-4.9563	-4.1021	-4.7479	-4.8708	-4.1833	-5.1292	-4.3521	-4.3562	152.488	217.656	74.696	220.260	-37.055	183.491	-5.001	35.079	105.327	33.937	247.271	196.605	-26.303	231.406	109.169	209.332	0.00019463	0.00088868	0.00048941	967.41	2.7987e-05	1.0497e-05	1130.9	329.36	1.3576e-05	1.094e-05	411.78	143.78	103.16	38.677	2.683e-05	55.274	0.0032614	0.0035374	0.00098434	922.19	3.797e-05	3.9167e-05	1070.9	314.27	3.8011e-05	3.9305e-05	400.42	140.19	103.96	38.592	3.8384e-05	54.957	71.573	164.436	11.331	-87.756	45.678	130.796	-88.386	-83.073	246.825	48.474	-84.339	-79.516	-77.865	-72.392	48.774	-75.563	-8191	255	
30011.270	1	1	0	0	0.11154	0.20509	0.034329	0.27827	0.16262	0.20855	0.2479	0.38605	0.10926	0.15718	0.052655	0.129	0.057082	0.19597	0.065178	0.084437	-4.8646	-3.9688	-4.4458	-4.8854	-3.7771	-5.0062	-4.5958	-4.1875	-4.95	-4.0042	-4.5188	-4.9396	-4.0875	-4.9208	-4.5896	-4.1083	-31.199	-44.293	251.106	226.560	-96.313	-15.893	245.214	220.910	210.663	176.740	-78.058	169.305	-66.191	-30.567	150.228	204.817	0.00071922	0.0014616	0.00013879	944.29	2.0364e-05	4.2079e-06	1106.6	317.96	1.2828e-05	1.8241e-05	400.83	139.98	100.8	37.654	8.0214e-06	54.615	0.0032418	0.0035571	0.00098653	904.8	3.8187e-05	3.8533e-05	1051.3	306.5	3.8236e-05	3.9402e-05	391.46	137.81	102.07	37.969	3.9705e-05	54.34	-48.443	58.977	49.355	-88.112	19.346	139.417	-88.287	-83.108	-58.441	18.409	-84.814	-79.073	-77.768	-72.714	125.459	-75.132	-8191	255	
30011.389	1	1	0	0	0.25877	0.25286	0.21522	0.1332	0.17073	0.1997	0.28152	0.21064	0.22426	0.20124	0.3611	0.28037	0.21413	0.094479	0.10247	0.070586	-4.7333	-4.2	-4.325	-4.975	-3.9521	-4.7562	-4.8417	-4.1375	-5.0271	-4.1562	-4.3583	-5.1	-4.1021	-4.7208	-4.7812	-3.9542	43.859	173.165	-46.716	241.490	-78.153	116.345	188.207	255.043	-50.944	228.283	194.095	225.149	168.858	233.256	70.459	127.614	0.0008158	0.00054534	0.0002761	945.58	1.9601e-05	1.3745e-05	1103.2	318.49	9.1286e-06	1.3876e-05	402.37	140.83	101.2	38.083	3.8412e-06	54.765	0.0033379	0.0036821	0.0010125	904.61	3.9202e-05	3.9719e-05	1053.1	306.22	3.8501e-05	3.9805e-05	393.78	138.35	102.54	38.157	3.9825e-05	54.64	-0.935	-79.931	-39.762	-87.930	25.247	-10.051	-88.491	-83.171	-56.282	91.615	-84.537	-79.446	-77.747	-72.878	133.380	-75.502	-8191	255	
30011.484	1	1	0	0	0.17081	0.099536	0.15756	0.1761	0.11823	0.12094	0.28574	0.24313	0.083679	0.045827	0.11397	0.22245	0.089326	0.10519	0.06655	0.28339	-4.6583	-4.3042	-4.1833	-5.2271	-4.1167	-4.5542	-4.8	-4.0208	-4.9083	-4.5042	-4.3625	-4.9042	-3.9896	-4.7625	-4.6729	-4.1542	-65.597	-100.538	242.882	215.744	-95.477	3.202	137.025	244.512	248.391	117.358	199.295	122.839	-46.091	246.817	224.752	220.113	0.00071328	0.00050613	0.00015243	943.55	1.0011e-05	9.0899e-06	1110.3	320.05	1.064e-05	3.529e-06	404.54	142.39	102.52	38.437	1.2754e-05	55.307	0.0033833	0.0036898	0.001017	900.84	3.9353e-05	4.0198e-05	1057.4	307.77	3.9326e-05	4.0598e-05	398.99	139.88	103.45	38.448	4.0244e-05	55.168	22.281	17.948	79.175	-87.749	242.317	-54.239	-88.575	-83.258	-8.996	-87.300	-84.193	-78.994	-77.927	-72.636	75.886	-75.249	-8191	255	
30011.580	1	1	0	0	0.13878	0.17454	0.063315	0.19639	0.16067	0.14691	0.11741	0.18903	0.10413	0.17133	0.063594	0.16954	0.19842	0.19407	0.17672	0.15036	-4.525	-4.5292	-4.1562	-5.0958	-4.1042	-4.2917	-5.0542	-4.0583	-4.8313	-4.5667	-4.3229	-4.9479	-4.2063	-4.3313	-4.7958	-3.8646	-65.250	158.323	227.053	-95.987	224.195	257.534	152.902	170.522	183.078	-94.969	256.322	-56.966	241.315	212.480	189.647	87.737	0.00076893	0.0024187	0.00030939	944.48	1.5266e-05	1.6702e-05	1124.5	318.2	1.2284e-05	1.4906e-05	411.59	143.65	102.7	38.368	1.239e-05	55.709	0.0034167	0.0037515	0.0010275	903.64	4.052e-05	4.0967e-05	1064.6	308.06	3.9523e-05	4.0947e-05	403.93	141.29	103.83	38.497	4.0129e-05	55.644	-1.086	-3.096	-21.838	-87.577	226.508	84.262	-88.744	-83.005	84.408	61.829	-84.502	-79.285	-77.664	-72.645	-46.370	-75.203	-8191	255	
30011.678	1	1	0	0	0.10489	0.13968	0.25143	0.21579	0.24455	0.13717	0.22632	0.11904	0.12122	0.17058	0.074554	0.094645	0.11061	0.21227	0.21256	0.20717	-4.4896	-4.6417	-4.1375	-5.0729	-4.2729	-4.325	-5.05	-4.1271	-4.5375	-4.6708	-4.2583	-4.9146	-4.3521	-4.4354	-4.8333	-4.1937	133.615	-34.182	192.363	216.599	158.563	66.234	224.118	-23.834	49.701	-29.512	-81.779	201.716	-91.895	214.670	92.785	194.785	0.00082857	0.0014175	0.00029658	938.74	6.7595e-06	1.3384e-05	1111.9	313.57	9.7164e-06	5.8705e-06	398.63	141.1	100.43	37.58	1.3731e-05	53.755	0.003395	0.003651	0.0010239	898.5	3.9858e-05	4.005e-05	1058.6	303.2	3.9393e-05	4.048e-05	391.54	138.47	101.38	37.657	3.9819e-05	54.069	-62.205	-11.112	-25.689	-87.530	180.299	88.499	-88.179	-82.803	-52.296	-34.918	-84.644	-79.594	-77.105	-72.860	165.445	-75.087	-8191	255	
30011.773	1	1	0	0	0.0079835	0.08638	0.090505	0.13947	0.1752	0.11819	0.088543	0.28007	0.051123	0.12022	0.19583	0.24881	0.0588	0.15001	0.095591	0.21583	-4.2896	-4.8042	-3.8292	-5.0667	-4.5771	-4.2417	-4.9875	-4.3438	-4.5333	-4.7917	-4.1396	-4.925	-4.5625	-4.0708	-4.8146	-4.2438	158.814	242.103	-10.002	-62.366	232.949	39.756	122.855	174.865	204.122	232.737	189.480	203.363	76.030	-83.021	147.562	217.512	0.00070732	0.0012262	0.00038685	919.61	1.6596e-05	1.0968e-05	1088.3	310.11	2.6549e-05	1.18e-05	391.7	136.76	98.586	37.21	2.2877e-06	53.174	0.0033676	0.0036432	0.0010096	884.23	3.9026e-05	3.9518e-05	1039.1	298.2	3.8636e-05	3.9171e-05	384.29	135.5	100.16	37.2	3.8725e-05	53.244	-13.856	37.673	-83.792	-87.850	145.403	101.142	-88.562	-83.036	0.308	74.357	-84.753	-79.225	-77.911	-72.643	121.451	-75.479	-8191	255	
30011.895	1	1	0	0	0.1721	0.091818	0.1174	0.13826	0.10568	0.15444	0.10608	0.21552	0.13707	0.13359	0.1429	0.035039	0.095541	0.26398	0.045305	0.3115	-4.0854	-4.8708	-3.9542	-4.8063	-4.5583	-4.0854	-5.0125	-4.2812	-4.1917	-4.9792	-4.1083	-4.8771	-4.6958	-4.1396	-5	-4.5125	-43.803	200.170	127.739	-25.725	23.133	186.139	252.324	180.999	-88.688	78.509	196.108	232.362	-51.183	-74.204	-10.123	194.293	0.00041407	0.001176	0.00051858	928.15	1.1903e-05	7.3599e-06	1097.9	309.52	1.2852e-05	1.8501e-05	394.71	139.27	99.416	37.108	2.0029e-05	53.778	0.0033127	0.0036367	0.0010056	888.78	3.9485e-05	4.0022e-05	1041.4	299.36	3.9041e-05	3.9682e-05	388.03	136.38	100.42	37.295	3.9013e-05	53.922	-49.934	65.869	-1.548	-87.996	57.535	111.402	-88.640	-83.012	226.317	-39.448	-84.606	-79.391	-77.754	-72.839	238.551	-75.826	-8191	255	
30011.965	1	1	0	0	0.10756	0.081258	0.049912	0.18195	0.13552	0.11143	0.22979	0.075254	0.040043	0.10635	0.037504	0.17539	0.1227	0.085886	0.052625	0.011227	-3.9021	-4.9125	-3.9646	-4.6687	-4.6062	-3.9417	-5.075	-4.4271	-4.3042	-4.9104	-4.1292	-4.7083	-4.8938	-4.1167	-4.8354	-4.4563	236.191	251.070	-39.577	239.682	52.274	126.018	177.526	49.653	-41.035	113.846	208.299	203.020	229.943	244.201	257.385	208.963	0.00026256	0.00049741	0.00015638	929.83	2.1224e-05	1.991e-05	1101.3	311.52	1.5475e-05	7.7262e-06	394.97	140.12	100.12	37.566	2.8648e-06	54.589	0.0033602	0.003664	0.0010245	890.59	4.0052e-05	4.1041e-05	1047.9	302.24	4.0614e-05	4.1435e-05	391.49	137.97	101.81	37.867	4.0861e-05	54.675	-36.737	14.564	36.791	-87.545	-43.101	50.107	-88.139	-82.731	256.454	224.909	-84.347	-79.263	-77.462	-72.773	165.952	-75.400	-8191	255	
30012.062	1	1	0	0	0.12929	0.13531	0.18007	0.25541	0.16014	0.16803	0.15475	0.21179	0.10488	0.1373	0.20195	0.33803	0.095424	0.2567	0.075785	0.17014	-3.8375	-4.9833	-4.15	-4.7104	-4.6979	-3.9354	-4.8792	-4.6604	-4.0333	-4.9854	-4.1667	-4.6167	-4.9521	-3.9979	-4.775	-4.6208	203.902	-52.855	18.442	118.925	253.563	9.020	153.815	139.650	192.485	39.347	220.762	215.303	78.307	177.606	181.454	-47.454	0.0011859	0.00057451	0.00013192	937.85	9.5448e-06	1.5679e-05	1112.7	313.53	1.851e-05	2.118e-05	404.66	142.45	101.14	38.104	8.8704e-06	55.145	0.0034724	0.0037837	0.0010604	896.53	4.0375e-05	4.1694e-05	1057.8	304.61	4.1287e-05	4.2093e-05	398.47	140.18	103.12	38.342	4.1806e-05	55.307	21.684	-59.938	3.696	-87.855	179.018	155.002	-88.575	-82.719	46.242	104.421	-84.324	-79.236	-77.255	-72.799	-34.255	-75.107	-8191	255	
30012.180	1	1	0	0	0.2705	0.19082	0.15634	0.2201	0.18441	0.14592	0.10789	0.31512	0.18375	0.070275	0.13244	0.19609	0.04464	0.24423	0.19129	0.07627	-3.8333	-4.9417	-4.0833	-4.5333	-5.0813	-3.9688	-4.8333	-4.7104	-3.8792	-4.825	-4.4375	-4.2375	-5.0229	-4.2396	-4.5146	-4.7708	242.815	235.580	26.077	234.778	25.329	-25.162	233.084	203.449	133.978	190.630	190.159	-89.327	-6.306	228.528	-77.413	123.020	0.00075652	0.0012485	0.00025076	931.72	1.5336e-05	3.5461e-05	1106.7	313.1	1.276e-05	1.8978e-05	398.97	140.12	99.987	37.214	8.5954e-06	53.076	0.0035236	0.0038123	0.0010806	894.12	4.024e-05	4.1846e-05	1054.8	302.62	4.0659e-05	4.1101e-05	391.48	137.58	101.28	37.635	4.0855e-05	53.727	-4.351	10.223	34.761	-87.743	38.589	28.559	-88.218	-82.705	-19.859	-27.830	-84.166	-79.030	-77.438	-72.670	250.729	-75.048	-8191	255	
30012.277	1	1	0	0	0.06245	0.13651	0.25937	0.18931	0.12185	0.057578	0.22439	0.159	0.049304	0.086288	0.22522	0.17982	0.29117	0.01208	0.05881	0.15199	-3.8042	-4.8979	-4.425	-4.2917	-4.9271	-4.1479	-4.5875	-4.9271	-4.0792	-4.7271	-4.4062	-4.1375	-5.1188	-4.1792	-4.3292	-4.8354	216.566	116.414	-94.609	258.494	-63.802	255.381	163.521	148.400	-55.212	53.882	127.705	200.981	246.443	160.174	168.301	246.117	0.00013763	0.0017422	0.00017055	922.87	1.6476e-05	8.8439e-06	1085.7	307.24	6.4377e-06	9.7023e-06	391.1	137.61	98.79	36.821	1.2549e-05	53.426	0.0034527	0.0037264	0.0010562	887.26	4.0327e-05	4.1547e-05	1038.6	298.78	4.0258e-05	4.1153e-05	386.58	135.48	100.47	37.234	4.0532e-05	53.645	-34.261	64.654	136.697	-87.701	-3.407	86.716	-88.672	-82.777	240.130	106.501	-84.315	-79.530	-77.899	-72.257	96.384	-75.456	-8191	255	
30012.373	1	1	0	0	0.35746	0.081444	0.17392	0.16081	0.22695	0.19737	0.13179	0.054163	0.1742	0.23418	0.15002	0.03854	0.052692	0.16672	0.078416	0.17804	-3.7708	-4.5771	-4.6104	-4.1333	-5.1208	-4.2604	-4.4083	-4.975	-4.0896	-4.7979	-4.7562	-4.1854	-5.1292	-4.3375	-4.2042	-4.9479	-64.929	148.983	72.597	208.968	-33.786	111.519	51.261	-51.279	189.084	224.470	198.582	-35.805	94.789	188.756	-62.755	244.224	0.0005915	0.00099952	0.00012232	914.96	1.0179e-05	1.5168e-05	1087.8	308.71	1.3582e-05	6.0961e-06	390.19	137.92	98.889	37.106	1.6574e-05	53.959	0.0035108	0.0037658	0.0010628	884.3	4.1456e-05	4.3215e-05	1041.4	299.86	4.2754e-05	4.3693e-05	388.15	136.85	101.36	37.752	4.3006e-05	54.334	-39.368	106.661	223.939	-87.916	-47.498	200.315	-88.300	-82.372	236.315	62.066	-84.182	-79.546	-77.598	-72.386	53.451	-75.605	-8191	255	
30012.492	1	1	0	0	0.16771	0.12247	0.20841	0.020055	0.21851	0.15479	0.11282	0.2565	0.054328	0.2168	0.068574	0.046948	0.20213	0.086183	0.10628	0.18971	-3.4396	-4.6188	-4.6562	-4.1479	-4.9062	-4.2896	-4.4083	-5.0583	-3.9833	-4.4625	-4.7125	-4.1438	-4.7063	-4.2688	-4.1229	-4.9125	-38.916	109.792	122.959	-45.297	83.734	-2.106	174.540	214.533	-91.567	-43.638	213.515	255.295	184.916	99.754	13.168	-83.315	0.00044315	0.00077142	0.00060013	912.03	1.1176e-05	7.7346e-06	1095.6	311.37	2.7955e-06	9.1631e-06	399.15	139.45	100.21	37.777	1.986e-05	55.284	0.0036688	0.0039191	0.001089	881.21	4.1088e-05	4.2709e-05	1042.5	302.1	4.1426e-05	4.2117e-05	393.2	138.33	102.06	38.144	4.1144e-05	54.987	-23.030	-72.185	-7.797	-87.558	27.243	107.960	-88.483	-82.529	107.745	-86.243	-84.254	-79.787	-77.889	-72.514	21.609	-75.056	-8191	255	
30012.564	1	1	0	0	0.15594	0.16647	0.0499	0.26061	0.064493	0.12768	0.099579	0.27217	0.19831	0.2242	0.14415	0.14394	0.083093	0.18719	0.2229	0.30239	-3.7479	-4.4625	-4.7333	-4.2188	-4.8125	-4.45	-4.1937	-5.0521	-4.1021	-4.2625	-4.9146	-4.1188	-4.6062	-4.5479	-4.0833	-5.0833	173.274	77.897	-7.861	-89.888	11.598	54.061	-80.653	221.082	202.426	236.314	-82.862	41.174	225.497	-17.724	37.812	213.578	0.00084882	0.00040512	0.00021473	927.93	1.4483e-05	1.5703e-05	1111.3	318.16	2.6535e-05	7.5312e-06	405.8	142.89	102.03	38.726	1.5018e-05	55.466	0.003481	0.0037143	0.0010314	891.75	3.8981e-05	3.9918e-05	1052.5	306.1	3.8625e-05	3.8986e-05	397.35	139.95	102.81	38.401	3.7989e-05	55.184	-21.434	128.000	6.468	-88.094	3.402	23.467	-88.777	-83.136	117.028	178.906	-84.399	-79.709	-77.363	-72.411	192.410	-75.482	-8191	255	
30012.660	1	1	0	0	0.11406	0.14801	0.039535	0.058182	0.16556	0.12768	0.26019	0.15022	0.15549	0.058146	0.07291	0.21874	0.29951	0.27865	0.21036	0.17852	-4.0729	-4.2604	-4.9042	-4.1312	-4.5896	-4.5958	-4.2458	-4.9667	-4.3729	-4.2688	-4.975	-4.1875	-4.7375	-4.7083	-4.0687	-5.1146	-43.048	204.832	85.931	133.654	-14.306	163.146	124.801	211.512	146.663	145.353	74.224	37.913	-54.247	208.203	62.099	18.742	0.00081561	0.00076748	0.00017269	933.11	1.7555e-05	1.8921e-05	1103.2	316.22	1.4243e-05	1.1853e-05	400.08	140.62	101.3	38.239	7.0791e-06	55.25	0.0032158	0.0034362	0.00094107	889.94	3.5911e-05	3.6893e-05	1044.5	302.6	3.4746e-05	3.4734e-05	388.28	136.07	100.42	37.788	3.2176e-05	53.99	1.359	120.499	99.562	-87.520	127.591	163.865	-88.579	-82.995	88.300	81.380	-84.449	-79.011	-77.785	-72.694	-90.309	-75.369	-8191	255	
30012.781	1	1	0	0	0.12306	0.10421	0.075018	0.22543	0.066283	0.25835	0.094947	0.1971	0.13527	0.16216	0.11752	0.1185	0.037764	0.064028	0.17519	0.11244	-4.1813	-4.2667	-4.9396	-4.2042	-4.6562	-4.8875	-4.0833	-5.1292	-4.4875	-4.0771	-5.1125	-4.3104	-4.5375	-4.9083	-4.0542	-4.75	57.051	229.752	208.871	235.935	116.143	-30.269	197.328	186.402	133.628	212.166	176.834	253.938	1.937	136.888	-6.717	150.377	0.00036773	0.00090465	0.00019246	930.38	1.921e-05	1.137e-05	1101.8	318.92	6.3237e-06	2.0774e-05	398.64	139.64	101.33	38.597	1.3825e-05	55.102	0.0027255	0.0028997	0.00080632	880.5	3.0946e-05	3.16e-05	1032.4	301.09	3.1535e-05	3.1998e-05	384.77	135.37	100.27	37.77	3.2794e-05	54.025	10.155	87.462	45.676	-87.639	68.377	52.556	-88.584	-83.446	-101.162	165.378	-84.392	-79.646	-77.533	-72.803	-61.257	-75.566	-8191	255	
30012.879	1	1	0	0	0.088915	0.22708	0.16485	0.14275	0.20346	0.254	0.10185	0.23131	0.14559	0.099067	0.093808	0.14009	0.14747	0.2035	0.14921	0.21688	-4.3833	-4.0938	-4.95	-4.225	-4.4437	-4.9437	-4.2167	-4.7792	-4.5292	-3.95	-5.0771	-4.4521	-4.4938	-5.0687	-3.9354	-4.8354	220.104	92.966	139.364	91.403	37.364	-52.163	184.145	-52.963	120.336	113.334	115.845	254.233	198.123	-74.484	-34.272	4.702	0.00071838	0.00095757	0.00019922	933.92	4.3505e-06	6.2168e-06	1107.6	319.45	3.5445e-05	9.9637e-06	404.55	141.37	102.36	38.63	2.0522e-05	55.522	0.0027811	0.0029548	0.00083615	886.74	3.1608e-05	3.2552e-05	1041	304.24	3.1524e-05	3.2146e-05	387.63	136.32	100.87	37.968	3.2437e-05	54.416	19.319	-46.163	109.151	-87.318	36.590	241.079	-88.384	-83.060	96.285	251.022	-84.562	-79.279	-77.677	-72.334	74.023	-75.488	-8191	255	
30012.975	1	1	0	0	0.13068	0.11281	0.1122	0.12223	0.11836	0.25581	0.20628	0.18522	0.090909	0.025234	0.069592	0.21992	0.19843	0.13635	0.17829	0.23207	-4.6	-4.1333	-5.1438	-4.4646	-4.2229	-4.9938	-4.2812	-4.8	-4.8958	-3.9833	-4.8396	-4.6	-4.5292	-5.3375	-4.1979	-4.7167	200.092	226.436	8.736	-23.712	-94.186	173.000	182.875	151.211	197.114	101.768	79.723	-97.742	-39.119	55.091	52.558	-71.898	0.00043475	0.00089593	0.00046229	936.55	5.6676e-06	1.3506e-05	1108.9	320.12	9.9945e-06	1.9476e-05	405.07	142.92	102.47	38.938	1.4481e-05	56.739	0.002752	0.0029938	0.00083268	890.82	3.2124e-05	3.294e-05	1042.5	304.89	3.2749e-05	3.3399e-05	391.74	138.01	101.86	38.335	3.3346e-05	55.34	-73.495	79.183	-39.188	-87.536	50.553	94.432	-88.708	-82.409	81.064	63.624	-84.573	-78.972	-77.467	-72.534	155.827	-75.532	-8191	255	
30013.096	1	1	0	0	0.095991	0.11083	0.19432	0.096165	0.15127	0.13426	0.14194	0.35404	0.098458	0.14264	0.12163	0.24384	0.42839	0.18129	0.22793	0.22874	-4.6542	-4.1458	-4.9458	-4.6625	-4.3	-5.1333	-4.2729	-4.8333	-4.8812	-4.0542	-4.8667	-4.475	-4.0813	-5.1521	-4.3688	-4.6646	144.037	59.381	-43.181	184.270	97.798	215.408	163.721	220.121	93.855	199.757	-76.855	-76.001	181.854	-97.820	43.411	104.378	0.00064505	0.0010989	0.00019297	935.78	9.1486e-06	1.7193e-05	1111.9	322.8	9.4817e-06	6.1168e-06	409.28	143.82	102.11	39.033	1.592e-05	55.998	0.00281	0.0030526	0.00084892	888.93	3.29e-05	3.4148e-05	1049.6	307.17	3.3736e-05	3.4892e-05	397.23	139.87	102.5	38.65	3.5976e-05	55.274	-0.712	-51.367	-90.382	-87.562	-81.178	109.906	-88.375	-83.595	-92.697	-100.526	-84.583	-78.908	-77.360	-72.747	125.618	-75.167	-8191	255	
30013.166	1	1	0	0	0.12406	0.18877	0.13635	0.15998	0.33279	0.16356	0.16913	0.18423	0.037391	0.029645	0.03456	0.077762	0.14915	0.051906	0.27642	0.12723	-4.5604	-4.0667	-4.8146	-4.6687	-4.0667	-4.9667	-4.4542	-4.4	-4.9187	-4.1396	-4.7729	-4.9333	-4.0833	-5.05	-4.3292	-4.2208	147.540	-35.924	217.194	175.432	71.015	90.363	-77.801	224.015	74.820	195.207	106.482	-68.844	176.363	224.947	80.861	228.329	0.00059293	0.00078557	0.00016398	925.57	8.1313e-06	1.0727e-05	1098.3	312.06	2.6612e-05	5.9889e-06	392.43	138.5	99.507	37.913	1.3174e-05	53.873	0.0030593	0.0033363	0.0009268	883.96	3.6233e-05	3.7097e-05	1039.8	299.39	3.7191e-05	3.8771e-05	384.65	135.65	100.32	37.78	3.9119e-05	53.741	3.666	-90.898	51.628	-87.489	89.817	-10.452	-88.468	-82.990	80.698	-27.895	-84.909	-79.447	-77.676	-72.431	147.567	-75.218	-8191	255	
30013.262	1	1	0	0	0.22842	0.17933	0.066287	0.15901	0.076603	0.26462	0.13622	0.29426	0.30782	0.077176	0.34211	0.11744	0.25524	0.044968	0.171	0.10339	-4.5958	-4.2292	-4.5625	-4.9062	-4.0021	-4.8271	-4.7146	-4.2729	-4.8021	-4.1792	-4.55	-4.8979	-4.0479	-5.0417	-4.575	-4.3396	-93.719	-68.479	140.018	245.489	168.128	256.759	140.013	254.561	214.307	251.150	219.585	117.539	248.252	-82.901	219.215	151.426	0.00069427	0.00097209	0.00026642	913.83	1.459e-05	9.2633e-06	1078.8	307.66	1.8246e-05	5.4377e-06	388.41	137.82	98.768	37.378	1.3614e-05	53.902	0.0033199	0.0036255	0.0009893	875.13	3.8808e-05	3.9844e-05	1029.2	297.34	3.9388e-05	4.0741e-05	382.65	135.49	100.01	37.565	4.0565e-05	53.713	-41.440	-55.387	246.164	-87.538	133.355	107.732	-88.466	-82.992	169.739	36.867	-84.484	-79.098	-77.583	-72.353	-29.514	-75.560	-8191	255	
30013.357	1	1	0	0	0.1882	0.09839	0.17277	0.21987	0.15716	0.13975	0.13194	0.096575	0.16485	0.15473	0.097758	0.16548	0.050568	0.070723	0.06306	0.15785	-4.6833	-4.1188	-4.4458	-4.8187	-4.0542	-4.7479	-4.7979	-4.2937	-4.9833	-4.2833	-4.5458	-4.9938	-4.2333	-4.7417	-4.6521	-4.2333	204.276	-29.027	-42.448	237.381	-35.342	246.507	135.038	252.151	161.419	48.982	57.313	22.207	219.933	82.825	23.248	133.012	0.00027836	0.00011542	0.00015694	914.16	9.1557e-06	5.8592e-06	1084.5	308.5	1.0467e-05	7.4827e-06	392.2	138.85	98.715	37.437	7.6065e-06	54.098	0.0033824	0.0037069	0.0010184	879.12	3.9909e-05	4.0227e-05	1031.5	297.65	3.9498e-05	4.086e-05	386.97	136.79	100.95	37.914	4.0132e-05	54.31	-17.885	-21.483	152.395	-87.685	-27.135	60.255	-88.546	-83.197	11.119	102.249	-84.331	-79.331	-76.978	-72.819	132.584	-75.497	-8191	255	
30013.479	1	1	0	0	0.16102	0.026114	0.048429	0.16426	0.15794	0.078238	0.17083	0.13794	0.12688	0.12973	0.36144	0.10024	0.080142	0.034976	0.19033	0.2504	-4.7937	-4.3271	-4.1687	-5.2354	-4.1188	-4.6792	-4.9729	-4.0813	-4.8125	-4.3729	-4.3604	-5.1771	-4.1146	-4.6	-4.7396	-3.9292	105.092	130.339	190.144	177.181	226.462	24.192	149.689	-96.779	11.377	36.147	152.008	93.849	49.938	-65.760	192.355	109.256	0.00040898	0.0022024	0.0003545	908.62	1.5682e-05	4.7447e-06	1097.9	311.68	1.3003e-05	1.4949e-05	396.94	141.81	100.97	38.131	1.3703e-05	55.316	0.0034167	0.0037092	0.0010204	878.18	3.9634e-05	4.0332e-05	1040.9	300.94	3.9567e-05	4.069e-05	390	138.68	102.07	38.31	4.0847e-05	54.984	23.112	26.276	-4.579	-87.537	173.145	141.298	-88.289	-83.103	33.982	-18.517	-84.830	-78.994	-77.555	-72.487	6.795	-75.543	-8191	255	
30013.574	1	1	0	0	0.15779	0.2902	0.21004	0.1585	0.093065	0.0040593	0.27076	0.03261	0.17717	0.19905	0.14567	0.21059	0.14018	0.28317	0.14031	0.36899	-4.6021	-4.4417	-4.0896	-5.1292	-4.0792	-4.4479	-5.0771	-4.1292	-4.8021	-4.5667	-4.1542	-4.9875	-4.2188	-4.3354	-4.8417	-4.0687	-78.903	93.000	3.188	-76.749	145.733	227.094	175.716	153.917	185.645	-62.501	150.957	208.867	177.195	201.783	-38.706	249.742	0.00090525	0.00058189	0.0002954	917.89	8.5633e-06	1.429e-05	1100.6	314.25	5.253e-06	1.6612e-05	399.6	140.36	100.47	38.02	1.8303e-05	54.37	0.0035252	0.0038464	0.0010568	884.58	4.1216e-05	4.2112e-05	1049.5	303.7	4.1063e-05	4.188e-05	393.14	138.66	102.45	38.201	4.1263e-05	54.619	22.105	33.145	250.629	-87.496	80.937	137.455	-88.325	-83.206	126.255	-17.088	-84.366	-79.096	-77.342	-72.358	23.204	-75.040	-8191	255	
30013.670	1	1	0	0	0.062998	0.14568	0.042556	0.28497	0.12004	0.060942	0.14574	0.055402	0.097904	0.069384	0.12809	0.16031	0.043296	0.1236	0.26198	0.23075	-4.5	-4.5667	-4.0083	-4.9979	-4.3479	-4.2458	-5.2188	-4.1438	-4.6625	-4.8125	-4.1271	-4.9667	-4.3854	-4.2688	-4.9833	-3.9604	82.088	-100.858	98.034	245.216	-39.886	-70.754	168.020	157.569	215.001	148.298	202.433	109.026	186.470	27.434	36.194	226.490	0.0013545	0.00067201	0.0002393	918.41	1.6749e-05	7.5514e-06	1083.2	307.71	1.2457e-05	2.1951e-05	384.56	136.84	98.349	36.96	7.8343e-06	53.408	0.0035143	0.0037954	0.0010543	884.13	4.1287e-05	4.1508e-05	1034	298.06	4.0966e-05	4.1383e-05	380.66	134.86	100.19	37.169	4.0769e-05	53.16	-32.344	24.547	223.777	-87.808	169.077	244.268	-88.527	-82.952	204.981	23.655	-84.610	-79.471	-76.915	-72.506	245.883	-75.236	-8191	255	
30013.766	1	1	0	0	0.033082	0.17972	0.075766	0.20595	0.13468	0.17661	0.19937	0.28184	0.14265	0.2702	0.12949	0.034246	0.081253	0.061623	0.059299	0.045752	-4.175	-4.7354	-3.7938	-4.7229	-4.5667	-4.1167	-5.1458	-4.3438	-4.4688	-4.7396	-3.9917	-4.9167	-4.4104	-4.0979	-5.025	-4.1979	90.341	22.927	-98.695	-88.867	257.095	-86.018	-93.406	-70.496	-96.805	8.418	-64.343	194.781	217.865	173.514	21.007	159.873	0.00034691	0.0009214	0.00024264	902.59	1.7077e-05	7.4008e-06	1070.2	302.84	3.1162e-05	6.0915e-06	382.56	136.27	97.983	36.809	5.885e-06	53.013	0.0034583	0.003736	0.0010474	873.37	4.084e-05	4.1759e-05	1024.3	294.87	4.1003e-05	4.2105e-05	380.01	134.7	100.21	37.264	4.2075e-05	53.291	-24.718	-26.046	133.341	-87.582	169.509	-34.521	-88.507	-82.922	-15.683	149.877	-84.439	-79.053	-76.867	-72.590	40.810	-75.330	-8191	255	
30013.861	1	1	0	0	0.10858	0.089066	0.19237	0.2259	0.10833	0.26507	0.12884	0.18689	0.27137	0.2913	0.01329	0.10347	0.19503	0.21222	0.26959	0.081606	-3.9542	-4.8917	-3.9396	-4.8646	-4.5375	-4.0083	-5.0437	-4.2937	-4.3146	-4.8833	-4.1	-4.6625	-4.7729	-4.2312	-4.9458	-4.2875	188.757	242.284	-25.562	127.288	37.678	165.610	199.112	206.196	21.167	138.370	175.147	227.687	36.656	-33.601	53.841	113.466	0.00084337	0.00034475	0.00019301	904.46	1.4644e-05	1.8222e-05	1077.5	299.53	1.1809e-05	3.5453e-06	383.44	134.71	97.201	36.873	9.933e-06	53.048	0.003648	0.0039764	0.001118	874.4	4.3153e-05	4.4104e-05	1025.5	294.02	4.3184e-05	4.3562e-05	381.26	135.02	99.906	37.509	4.2824e-05	53.692	-49.224	73.766	-80.741	-87.630	-3.356	18.076	-88.265	-82.504	217.121	77.327	-84.703	-79.490	-77.767	-72.647	57.750	-75.643	-8191	255	
30013.957	1	1	0	0	0.1619	0.20235	0.15906	0.05616	0.021536	0.099126	0.080908	0.13763	0.11233	0.2018	0.24704	0.17994	0.10369	0.097445	0.12641	0.26978	-3.9667	-4.8854	-3.9	-4.6562	-4.7771	-3.95	-5.1729	-4.4729	-4.0417	-4.9354	-4.2292	-4.6562	-4.8708	-4.1354	-4.9187	-4.4563	155.710	-74.103	5.911	-1.466	0.961	-48.684	227.857	231.259	-26.859	256.010	-63.815	245.668	152.425	213.671	143.558	253.131	0.00035176	0.0012637	0.00040123	894.83	2.4244e-05	1.5909e-05	1072.9	302.5	1.3181e-05	4.4058e-06	383.98	137	98.076	36.962	1.2574e-05	53.992	0.0036209	0.0039676	0.0011102	870.81	4.2789e-05	4.3703e-05	1027.5	296.26	4.3206e-05	4.4544e-05	383.95	136.49	100.98	37.776	4.3981e-05	54.513	9.025	38.521	52.140	-87.778	78.143	189.951	-88.309	-82.927	156.689	171.276	-84.081	-79.591	-77.333	-72.589	2.258	-75.513	-8191	255	
30014.055	1	1	0	0	0.22064	0.10357	0.1151	0.18209	0.1728	0.29481	0.1758	0.16409	0.16627	0.13586	0.087089	0.12136	0.22642	0.13021	0.071108	0.059416	-3.8937	-4.9896	-4.0167	-4.5729	-4.8833	-3.9292	-4.9708	-4.7937	-4.0146	-4.8646	-4.3375	-4.3104	-4.9958	-4.1188	-4.7083	-4.6042	-22.618	138.309	136.980	-28.273	222.328	251.031	-68.351	-21.260	91.019	-18.188	246.815	237.053	156.070	247.260	174.054	210.084	0.00078892	0.0013052	0.00024186	895.19	1.305e-05	1.9638e-05	1074.9	304.85	1.0322e-05	1.1521e-05	389.52	138.24	97.672	37.041	9.1922e-06	53.112	0.003753	0.0040779	0.0011517	869.5	4.3522e-05	4.4898e-05	1033.8	297.75	4.3255e-05	4.4326e-05	387.48	137.01	100.95	37.813	4.4088e-05	53.932	1.772	-45.625	18.289	-87.905	-11.889	163.689	-88.600	-82.702	36.448	48.637	-83.570	-79.345	-76.943	-72.757	202.556	-74.772	-8191	255	
30014.176	1	1	0	0	0.31598	0.13167	0.21961	0.064267	0.14702	0.11288	0.06639	0.20431	0.28443	0.049955	0.071326	0.19572	0.1405	0.36196	0.070787	0.10984	-3.7771	-4.9271	-4.3479	-4.4062	-4.8208	-4.0396	-4.8063	-4.6583	-3.9125	-4.9167	-4.4396	-4.25	-4.9812	-3.9479	-4.5875	-4.8354	-70.309	-93.468	222.962	-88.248	218.904	209.696	127.924	-63.048	219.492	23.653	244.617	-31.632	-85.749	256.704	-93.993	-33.222	0.00027934	0.0017367	0.00042759	889.26	1.7176e-05	1.2409e-05	1046.7	297.02	4.6132e-06	1.2985e-05	376.43	134.2	95.82	36.401	1.1782e-05	52.306	0.0037158	0.0040656	0.0011395	860.07	4.3858e-05	4.5268e-05	1009.2	290.03	4.4863e-05	4.5813e-05	375.98	133.53	99.171	37.187	4.3468e-05	53.127	-56.274	0.149	-54.280	-87.700	197.636	78.506	-88.212	-82.542	-5.175	49.515	-83.949	-79.046	-77.221	-72.653	236.099	-74.909	-8191	255	
30014.270	1	1	0	0	0.10068	0.095604	0.20961	0.21632	0.14717	0.18299	0.13085	0.13131	0.089323	0.16548	0.29043	0.061535	0.21055	0.096137	0.23912	0.111	-3.7979	-4.6271	-4.4104	-4.2354	-4.95	-4.0958	-4.5687	-4.8729	-4.1167	-4.8063	-4.6333	-4.2583	-4.9208	-4.2021	-4.3521	-4.9854	173.951	174.966	239.780	210.522	215.226	-38.374	174.146	224.281	208.497	8.254	107.980	-28.861	-100.234	-70.879	-87.787	114.731	0.00080066	0.00049292	0.00025558	883.14	1.2336e-05	1.0285e-05	1058.7	299.62	1.3586e-05	9.4894e-06	382.51	135.28	96.443	36.946	9.1326e-06	53.205	0.0036126	0.0038734	0.0010783	855.53	4.0378e-05	4.1795e-05	1010.4	290.87	4.087e-05	4.1552e-05	378.2	133.85	98.909	37.313	4.0333e-05	53.511	-39.275	-13.229	46.283	-87.903	22.206	103.131	-88.289	-82.846	-2.721	31.921	-84.559	-79.158	-77.274	-72.374	-1.475	-75.407	-8191	255	
30014.365	1	1	0	0	0.10069	0.17016	0.22686	0.17643	0.16788	0.15025	0.45134	0.14321	0.2236	0.070219	0.074723	0.16947	0.21113	0.27639	0.15692	0.019799	-3.6354	-4.6021	-4.6062	-4.2063	-4.9417	-4.1521	-4.5896	-4.9604	-4.0271	-4.7604	-4.7896	-4.1604	-5.0104	-4.5792	-4.2438	-5.0083	208.246	26.210	-42.701	153.935	106.915	27.604	230.370	70.082	-78.672	249.140	113.098	-76.286	206.402	-34.507	28.067	128.384	0.0005342	0.0011265	0.00016566	892.11	1.4443e-05	1.6586e-05	1076.9	305.09	1.1825e-05	3.1913e-06	388.93	137.96	98.646	37.598	2.5708e-05	54.456	0.003472	0.0037402	0.0010461	862.75	4.0281e-05	4.1481e-05	1021.1	294.76	3.9318e-05	3.9458e-05	382.35	135.51	99.876	37.816	3.814e-05	54.181	-30.218	-31.212	-15.205	-87.920	178.736	59.968	-88.762	-82.655	-56.421	81.711	-84.021	-79.150	-77.302	-72.276	-29.340	-75.389	-8191	255	
30014.463	1	1	0	0	0.21238	0.23175	0.035842	0.23527	0.072388	0.18824	0.062656	0.19525	0.35849	0.10589	0.10513	0.14311	0.28165	0.26139	0.20349	0.27058	-3.8354	-4.5479	-4.7312	-4.1	-4.85	-4.5125	-4.4479	-5.0312	-4.0312	-4.5167	-4.8	-4.2208	-5.0333	-4.6562	-4.2521	-4.9625	94.747	167.964	201.533	196.202	-14.730	-67.581	238.475	87.954	118.929	60.697	247.721	128.024	255.641	142.369	174.910	-56.564	0.00053709	0.00096984	8.9011e-05	906.78	2.1196e-05	1.577e-05	1088.7	308.82	2.2797e-05	9.8751e-06	397.42	139.86	100.79	38.07	1.0994e-05	55.506	0.0032876	0.003521	0.0009885	871.15	3.8155e-05	3.9227e-05	1034	298.53	3.8572e-05	3.8836e-05	389.53	137.81	101.73	38.319	3.8501e-05	55.181	-53.269	8.214	195.255	-87.482	13.771	78.781	-88.430	-82.636	50.114	-24.367	-83.982	-79.271	-77.202	-72.060	55.417	-75.514	-8191	255	
30014.559	1	1	0	0	0.24423	0.18993	0.080366	0.10773	0.029423	0.093074	0.21737	0.17564	0.35318	0.077265	0.11179	0.12938	0.039094	0.13321	0.15093	0.040214	-3.9688	-4.4958	-4.9271	-4.0375	-4.8646	-4.6479	-4.2417	-5.0917	-4.1375	-4.3812	-5.0687	-4.0667	-4.8146	-4.625	-4.1458	-4.9708	93.677	165.163	137.604	135.704	-41.100	212.154	181.076	219.363	197.649	56.755	245.295	-49.087	245.319	71.107	-42.379	182.424	0.00082265	0.0012743	0.00014315	915.62	2.0308e-05	1.7492e-05	1089.9	308.85	1.5495e-05	1.7555e-05	400.17	139.5	99.445	38.319	8.032e-06	54.304	0.0032987	0.0035111	0.00097391	875.24	3.7164e-05	3.816e-05	1037.6	298.76	3.7557e-05	3.8468e-05	387.75	137.14	100.74	38.114	3.8535e-05	54.24	-4.317	47.706	-12.086	-87.699	-25.215	244.400	-88.725	-82.694	83.593	38.788	-84.404	-79.448	-77.185	-72.605	108.251	-75.392	-8191	255	
30014.654	1	1	0	0	0.036057	0.10746	0.15501	0.19578	0.019637	0.17005	0.079437	0.22863	0.091447	0.30512	0.054628	0.081904	0.15352	0.23839	0.1182	0.16006	-4.0208	-4.3667	-4.8917	-4.1708	-4.5563	-4.6271	-4.1604	-5.0833	-4.4583	-4.2792	-5.15	-4.2396	-4.6458	-4.8521	-4.0188	-4.9042	4.269	-19.774	27.310	256.562	-24.711	191.869	148.493	-93.322	40.627	130.435	223.389	224.618	210.286	257.214	-38.325	225.104	0.00042407	0.0015557	0.00017349	904.5	1.285e-05	1.321e-05	1070.1	305.89	2.6949e-06	1.3151e-05	383.88	135.72	97.597	37.15	1.8977e-05	53.085	0.0033242	0.0035459	0.00099443	869.01	3.782e-05	3.8432e-05	1018.6	294.51	3.7791e-05	3.8043e-05	377.13	133.66	98.794	37.258	3.8237e-05	53.206	-37.430	3.585	13.229	-87.949	42.894	138.706	-88.434	-82.994	30.524	-63.013	-84.527	-79.250	-77.292	-71.999	-58.157	-75.636	-8191	255	
30014.750	1	1	0	0	0.1692	0.34119	0.13522	0.29635	0.17955	0.044536	0.14296	0.17836	0.019529	0.16654	0.11614	0.34361	0.096665	0.030274	0.19115	0.14195	-4.0687	-4.125	-4.9208	-4.2875	-4.5271	-4.7854	-4.1542	-5.0583	-4.4625	-4.1958	-5.2292	-4.2729	-4.5021	-4.8604	-3.8438	-4.8104	204.146	200.024	210.692	-74.227	-48.184	18.373	90.279	86.339	-56.737	119.811	153.000	-85.048	208.401	224.670	-2.881	124.837	0.0007307	0.00033477	0.00038264	893.08	5.8255e-06	9.3151e-06	1059	301.34	1.1118e-05	3.4353e-06	382.49	135.71	97.079	37.164	1.6328e-05	52.741	0.0032916	0.0036021	0.00099849	858.33	3.8694e-05	4.0101e-05	1011.1	291.09	3.9653e-05	4.0138e-05	377.26	133.58	98.803	37.348	3.9661e-05	53.37	-0.859	-21.871	-34.730	-87.809	170.666	-81.926	-88.539	-82.889	-69.148	-95.587	-84.679	-79.171	-77.352	-72.595	176.150	-75.494	-8191	255	
30014.871	1	1	0	0	0.058928	0.090448	0.054787	0.11901	0.13568	0.16144	0.27617	0.26545	0.18038	0.16058	0.13469	0.086602	0.054434	0.11477	0.087079	0.12872	-4.2229	-4.1833	-5.0104	-4.2917	-4.425	-4.9583	-4.0979	-4.8479	-4.6687	-4.0896	-5.05	-4.4458	-4.3667	-4.9896	-4.0354	-4.6396	174.292	85.796	-84.994	-60.842	-54.065	-75.524	176.475	203.128	5.470	72.975	246.981	184.451	13.509	117.217	148.241	-89.428	0.00076306	0.0013293	0.00036461	895.84	1.7463e-05	1.0214e-05	1069.6	302.1	1.0451e-05	1.0542e-05	387.16	137.6	97.837	37.813	1.1184e-05	54.197	0.0033884	0.0036001	0.0010063	857.38	3.9222e-05	4.0456e-05	1018	293.26	3.9786e-05	4.0867e-05	381.91	135.76	100.08	37.886	4.1337e-05	54.142	-2.914	2.887	11.186	-87.639	134.929	196.928	-88.619	-82.739	17.671	64.515	-84.736	-79.303	-78.025	-72.610	-9.584	-75.292	-8191	255	
30014.967	1	1	0	0	0.32436	0.19584	0.092825	0.27895	0.10129	0.11268	0.21479	0.1869	0.13101	0.14199	0.045582	0.14173	0.23719	0.070632	0.18247	0.098719	-4.3854	-4.1021	-4.8292	-4.5771	-4.1438	-5.0312	-4.15	-4.6229	-4.8938	-4.0375	-4.8812	-4.6125	-4.3229	-4.9396	-4.0021	-4.6562	-89.875	184.978	235.175	181.844	93.684	138.734	164.337	250.463	-8.244	-73.322	244.921	-39.252	253.752	-8.092	-85.827	163.345	0.00045381	0.00089948	0.00023862	903.6	2.5588e-05	1.6386e-05	1078.9	307.09	1.9134e-05	5.7471e-06	397.52	139.43	99.092	38.147	2.9999e-05	54.551	0.003504	0.0037869	0.0010582	870.16	4.0707e-05	4.1648e-05	1029.5	297.85	4.0812e-05	4.1948e-05	389.2	138.18	101.47	38.162	4.2129e-05	54.915	9.670	4.830	45.302	-87.386	8.169	188.516	-88.758	-82.898	58.866	22.681	-84.172	-79.067	-77.477	-72.583	47.356	-75.457	-8191	255	
30015.061	1	1	0	0	0.16346	0.1638	0.22938	0.058183	0.1325	0.075415	0.14077	0.21681	0.19866	0.097563	0.20072	0.048969	0.15027	0.15594	0.15136	0.18343	-4.4417	-4.075	-4.7604	-4.6542	-4.0083	-4.8333	-4.2646	-4.6292	-4.7333	-4.0542	-4.8958	-4.7937	-4.3042	-4.9146	-4.3896	-4.4083	-93.896	156.283	1.243	60.753	-8.484	236.739	-85.940	190.708	-81.311	107.876	210.897	-90.141	-47.214	176.949	119.428	-87.362	0.00037728	0.00088031	0.00064829	911.77	2.1288e-05	3.6534e-05	1084	308.62	9.5699e-06	9.854e-06	388.78	138.06	98.568	37.245	3.6191e-06	53.583	0.003535	0.0038785	0.0010614	876.7	4.1331e-05	4.2004e-05	1036.4	297.75	4.0978e-05	4.2396e-05	384.79	136.44	100.99	37.67	4.1597e-05	53.712	-16.928	-1.309	-16.683	-87.607	9.480	65.329	-88.590	-82.878	167.007	117.195	-84.341	-78.899	-77.770	-72.314	-2.323	-75.751	-8191	255	
30015.135	1	1	0	0	0.30107	0.19169	0.14954	0.11407	0.011745	0.21432	0.20743	0.20537	0.15093	0.0098507	0.19697	0.13831	0.17193	0.17465	0.22844	0.17196	-4.5813	-4.1312	-4.6833	-4.7875	-3.9542	-5.0917	-4.4292	-4.3313	-4.9812	-4.1583	-4.7438	-4.9292	-4.0938	-4.9958	-4.3667	-4.3292	41.133	123.575	-32.533	132.826	-81.784	90.475	216.181	249.902	32.588	-50.499	221.958	90.176	-24.369	-75.336	52.013	-7.341	0.00046027	0.0010891	0.00053722	895.55	1.3833e-05	8.1208e-06	1063.4	302.93	1.1588e-05	1.0564e-05	380.83	136.16	98.326	37.149	1.2487e-05	53.091	0.0035447	0.0038832	0.0010757	866.25	4.1858e-05	4.2953e-05	1019.9	294.09	4.2635e-05	4.3975e-05	381.23	134.83	100.62	37.495	4.2415e-05	53.418	-25.740	163.924	-27.388	-87.639	166.045	-38.111	-88.606	-82.846	251.882	14.224	-84.200	-79.312	-77.776	-72.924	91.720	-75.584	-8191	255	
30015.254	1	1	0	0	0.15804	0.13053	0.1936	0.16792	0.081032	0.097877	0.14193	0.30244	0.2037	0.015956	0.078892	0.24417	0.11176	0.15446	0.22404	0.4214	-4.7146	-4.3146	-4.5729	-4.9875	-4.05	-4.9688	-4.6521	-4.0875	-4.9729	-4.2312	-4.4771	-4.9979	-4.0521	-4.8417	-4.575	-4.05	-67.784	171.265	-74.462	221.129	11.039	213.900	77.725	-82.707	7.531	84.225	117.521	-75.394	118.810	-2.505	25.057	144.257	5.9296e-05	0.00052834	0.00031831	902.51	6.5321e-06	1.2117e-05	1074.9	304.48	1.381e-05	5.8068e-06	386.25	137.74	98.916	37.13	1.6894e-05	53.494	0.0036466	0.0039599	0.001088	872.44	4.2233e-05	4.3145e-05	1030.2	296.68	4.2135e-05	4.2983e-05	382.78	136.13	101.08	37.529	4.2305e-05	53.597	-45.644	-47.318	-50.386	-87.562	124.145	1.387	-88.248	-82.872	45.623	121.374	-84.781	-79.128	-77.527	-72.400	-3.246	-75.619	-8191	255	
30015.350	1	1	0	0	0.10484	0.091365	0.011423	0.19827	0.28352	0.060909	0.24391	0.054964	0.13461	0.18827	0.18044	0.40533	0.31192	0.11426	0.14543	0.21319	-4.6458	-4.3333	-4.2854	-5.0917	-3.9896	-4.8271	-4.8708	-4.0042	-5.075	-4.1813	-4.4979	-4.9396	-4.0792	-4.9333	-4.8979	-4.15	198.819	35.651	-86.306	155.753	18.262	209.331	203.038	52.828	116.392	29.876	226.895	180.187	184.483	178.239	51.823	185.650	0.00052837	0.0010085	0.00031768	908.6	8.6331e-06	1.022e-05	1084.9	306.76	1.1347e-05	1.2907e-05	391.03	138.71	99.307	37.447	1.3793e-06	54.393	0.0035734	0.0039133	0.0010719	875.21	4.1819e-05	4.2451e-05	1035.7	297.87	4.0956e-05	4.2339e-05	386.45	137.56	101.73	37.934	4.2546e-05	54.484	-33.390	-94.218	-26.777	-87.557	58.191	37.617	-88.296	-83.208	-40.423	136.308	-84.628	-79.486	-77.097	-72.763	170.813	-75.305	-8191	255	
30015.445	1	1	0	0	0.072651	0.060509	0.14548	0.16279	0.13326	0.10946	0.30892	0.27134	0.051608	0.18458	0.067454	0.10228	0.22936	0.19263	0.094454	0.15486	-4.7396	-4.3438	-4.2042	-5.1396	-4.175	-4.5208	-5.0292	-4.1833	-4.9938	-4.4771	-4.3104	-5.2104	-4.2792	-4.7312	-4.9021	-4.1208	216.480	64.555	-51.380	228.504	150.082	106.371	157.119	177.924	24.411	89.090	-7.755	245.373	-78.455	249.485	-24.620	240.869	0.00027679	0.001079	0.00021474	903.54	9.903e-06	1.7806e-05	1074.7	305.51	1.9987e-05	9.5266e-06	394.67	141.44	99.904	38.134	1.1981e-05	55.056	0.0035699	0.0039214	0.0010883	869.89	4.2611e-05	4.3144e-05	1032.1	297.47	4.2813e-05	4.3865e-05	391.26	139.37	102.29	38.355	4.2895e-05	55.264	27.255	124.431	43.693	-87.280	102.331	97.768	-88.229	-82.963	68.860	-99.028	-84.477	-79.005	-76.924	-72.556	-95.733	-75.357	-8191	255	
30015.543	1	1	0	0	0.12927	0.17527	0.07276	0.20109	0.36501	0.093036	0.20548	0.35255	0.23774	0.13426	0.1073	0.18343	0.1016	0.34617	0.16243	0.074536	-4.5708	-4.5771	-4.0792	-5.1146	-4.2958	-4.3271	-4.8771	-4.0604	-4.9833	-4.7208	-4.1542	-5.0583	-4.3854	-4.4125	-4.8646	-4.2625	196.795	151.870	177.861	192.004	126.182	217.094	223.258	203.674	-4.176	254.887	-99.302	183.282	-83.704	-98.638	-32.159	-42.948	0.0010144	0.00072719	9.5364e-05	901.19	1.5001e-05	5.3627e-06	1070.6	302.47	1.0575e-05	4.512e-06	384.22	137.27	98.028	37.139	9.0574e-06	53.035	0.003656	0.003971	0.0010964	868.09	4.2891e-05	4.2941e-05	1026.7	294.5	4.2301e-05	4.3533e-05	380.89	135.72	100.09	37.493	4.2683e-05	53.498	-37.058	-34.949	33.225	-87.507	75.250	-8.257	-88.154	-82.863	199.956	207.961	-84.496	-78.957	-77.209	-72.635	145.869	-75.306	-8191	255	
30015.662	1	1	0	0	0.11149	0.13527	0.2766	0.11172	0.067856	0.15879	0.035519	0.11071	0.16098	0.15676	0.12856	0.25524	0.21923	0.13018	0.0662	0.10674	-4.5062	-4.5896	-4.1896	-5.0437	-4.3917	-4.3896	-5.0938	-4.1042	-4.6896	-4.6687	-4.0813	-5.0604	-4.4896	-4.175	-5.0521	-4.2729	70.139	179.951	43.649	228.726	8.405	-94.364	151.267	-55.874	162.372	168.142	-20.641	-76.602	177.692	171.657	94.010	224.641	0.00068751	0.0011037	0.0002514	886.47	4.0666e-06	1.8497e-05	1059.9	296.91	3.1156e-06	7.892e-06	378.54	135.49	96.271	36.546	1.8108e-05	52.142	0.0035922	0.0039214	0.0010864	857.45	4.181e-05	4.2748e-05	1016.3	290.76	4.158e-05	4.2647e-05	375.6	133.93	99.261	37.059	4.2366e-05	53.011	42.306	-77.594	35.684	-87.393	230.112	104.547	-88.433	-82.949	68.380	82.663	-84.454	-79.304	-77.359	-72.318	-36.903	-75.436	-8191	255	
30015.734	1	1	0	0	0.14466	0.035016	0.16281	0.26542	0.12632	0.083042	0.11279	0.094574	0.043345	0.23606	0.072849	0.084126	0.24558	0.13512	0.057663	0.12918	-4.4292	-5.0813	-3.9625	-5.0312	-4.4396	-4.1375	-5.1125	-4.2917	-4.5354	-5.0521	-4.1375	-4.9	-4.6708	-4.1854	-4.9187	-4.225	58.435	220.637	30.082	229.164	163.617	182.833	209.659	215.136	174.423	8.804	243.710	203.583	138.761	244.369	258.092	162.279	0.00039346	0.00085013	0.00044337	894.37	1.03e-05	1.8688e-05	1061.7	302.27	2.2392e-05	1.0063e-05	384.57	135.21	98.221	36.784	1.9475e-05	52.745	0.0036193	0.003915	0.0010985	862.86	4.2e-05	4.2997e-05	1020.6	293.66	4.1685e-05	4.2803e-05	379.52	134.41	100.15	37.239	4.1794e-05	53.282	-10.579	249.939	-19.716	-87.731	-90.252	66.914	-87.999	-83.199	206.748	51.963	-84.636	-79.761	-77.125	-72.637	16.890	-75.018	-8191	255	
#DATA ENDS
