BOXY.EXE: ISS Imagent and Oximeter Data Acquisition Program Version 0.80
Ascii Record File

#ACQ INFORMATION
2  Detector Channels 
16  External MUX Channels 
1  Auxiliary Channels 
5000  Waveform (CCF) Frequency (Hz)
1  Waveforms Skipped 
30  Waveforms Averaged 
1  Cycles Averaged 
16  Acquisitions per Waveform 
10.0806  Updata Rate (Hz) 

#FILE INFORMATION
TRUE -- External MUX Channel results are PARSED.
FALSE -- AC DC and Phase are NOT grouped.
TRUE -- Companion Program Settings File CREATED.
FALSE -- AC data not excluded
FALSE -- DC data not excluded
FALSE -- Phase data not excluded
FALSE -- Auxillary Chn. data not excluded
Tab delimiters

#CALIBRATION STATE
TRUE -- Waveform Calibration Values APPLIED.


#AUX CALIBRATION VALUES
Val Type	aux-1	

Term	1.0000e+00	
Factor	0.0000e+00	


#WF CALIBRATION VALUES
A = Detector Channel
Val Type	A-AC1	A-AC2	A-AC3	A-AC4	A-AC5	A-AC6	A-AC7	A-AC8	A-AC9	A-AC10	A-AC11	A-AC12	A-AC13	A-AC14	A-AC15	A-AC16	A-DC1	A-DC2	A-DC3	A-DC4	A-DC5	A-DC6	A-DC7	A-DC8	A-DC9	A-DC10	A-DC11	A-DC12	A-DC13	A-DC14	A-DC15	A-DC16	A-Ph1	A-Ph2	A-Ph3	A-Ph4	A-Ph5	A-Ph6	A-Ph7	A-Ph8	A-Ph9	A-Ph10	A-Ph11	A-Ph12	A-Ph13	A-Ph14	A-Ph15	A-Ph16	

Term	0.00000e+00	0.00000e+00	0.00000e+00	0.00000e+00	0.00000e+00	0.00000e+00	0.00000e+00	0.00000e+00	0.00000e+00	0.00000e+00	0.00000e+00	0.00000e+00	0.00000e+00	0.00000e+00	0.00000e+00	0.00000e+00	0.00000e+00	0.00000e+00	0.00000e+00	0.00000e+00	0.00000e+00	0.00000e+00	0.00000e+00	0.00000e+00	0.00000e+00	0.00000e+00	0.00000e+00	0.00000e+00	0.00000e+00	0.00000e+00	0.00000e+00	0.00000e+00	0.00000e+00	0.00000e+00	0.00000e+00	0.00000e+00	0.00000e+00	0.00000e+00	0.00000e+00	0.00000e+00	0.00000e+00	0.00000e+00	0.00000e+00	0.00000e+00	0.00000e+00	0.00000e+00	0.00000e+00	0.00000e+00	
Factor	1.00000e+00	1.00000e+00	1.00000e+00	1.00000e+00	1.00000e+00	1.00000e+00	1.00000e+00	1.00000e+00	1.00000e+00	1.00000e+00	1.00000e+00	1.00000e+00	1.00000e+00	1.00000e+00	1.00000e+00	1.00000e+00	1.00000e+00	1.00000e+00	1.00000e+00	1.00000e+00	1.00000e+00	1.00000e+00	1.00000e+00	1.00000e+00	1.00000e+00	1.00000e+00	1.00000e+00	1.00000e+00	1.00000e+00	1.00000e+00	1.00000e+00	1.00000e+00	X	X	X	X	X	X	X	X	X	X	X	X	X	X	X	X	

B = Detector Channel
Val Type	B-AC1	B-AC2	B-AC3	B-AC4	B-AC5	B-AC6	B-AC7	B-AC8	B-AC9	B-AC10	B-AC11	B-AC12	B-AC13	B-AC14	B-AC15	B-AC16	B-DC1	B-DC2	B-DC3	B-DC4	B-DC5	B-DC6	B-DC7	B-DC8	B-DC9	B-DC10	B-DC11	B-DC12	B-DC13	B-DC14	B-DC15	B-DC16	B-Ph1	B-Ph2	B-Ph3	B-Ph4	B-Ph5	B-Ph6	B-Ph7	B-Ph8	B-Ph9	B-Ph10	B-Ph11	B-Ph12	B-Ph13	B-Ph14	B-Ph15	B-Ph16	

Term	0.00000e+00	0.00000e+00	0.00000e+00	0.00000e+00	0.00000e+00	0.00000e+00	0.00000e+00	0.00000e+00	0.00000e+00	0.00000e+00	0.00000e+00	0.00000e+00	0.00000e+00	0.00000e+00	0.00000e+00	0.00000e+00	0.00000e+00	0.00000e+00	0.00000e+00	0.00000e+00	0.00000e+00	0.00000e+00	0.00000e+00	0.00000e+00	0.00000e+00	0.00000e+00	0.00000e+00	0.00000e+00	0.00000e+00	0.00000e+00	0.00000e+00	0.00000e+00	-7.23465e+01	-1.49617e+02	-1.26872e+02	-1.83762e+02	-5.18693e+01	-6.06153e+01	-1.58526e+02	-1.62015e+02	-4.81224e+01	-7.56965e+01	-1.70957e+02	-1.70833e+02	-1.76992e+02	-1.76825e+02	-4.67194e+01	-1.50028e+02	
Factor	1.63432e-05	1.10510e-04	3.48016e-05	1.52478e-01	1.22918e-06	1.22249e-06	1.63273e-01	5.15583e-02	9.18127e-07	1.18410e-06	8.55517e-02	2.92432e-02	2.25317e-02	9.04730e-03	1.05066e-06	1.29668e-02	1.38578e-06	1.45995e-06	4.07899e-07	7.71863e-02	1.59237e-08	1.59708e-08	7.76724e-02	2.61251e-02	1.59683e-08	1.59842e-08	4.15537e-02	1.42499e-02	1.15109e-02	4.55475e-03	1.60640e-08	6.29093e-03	X	X	X	X	X	X	X	X	X	X	X	X	X	X	X	X	



#DISTANCE SETTINGS
A = Detector Channel
A-1	A-2	A-3	A-4	A-5	A-6	A-7	A-8	A-9	A-10	A-11	A-12	A-13	A-14	A-15	A-16	

2.5000e+00	3.0000e+00	2.5000e+00	3.0000e+00	2.0000e+00	3.0000e+00	1.5000e+00	3.0000e+00	3.0000e+00	3.0000e+00	3.0000e+00	3.0000e+00	3.0000e+00	3.0000e+00	1.5000e+00	3.0000e+00	

B = Detector Channel
B-1	B-2	B-3	B-4	B-5	B-6	B-7	B-8	B-9	B-10	B-11	B-12	B-13	B-14	B-15	B-16	

1.0000e+01	1.0000e+01	1.0000e+01	1.4400e+00	1.0000e+01	1.0000e+01	1.5100e+00	1.9400e+00	1.0000e+01	1.0000e+01	1.9900e+00	2.4900e+00	2.4100e+00	2.9000e+00	1.0000e+01	2.9800e+00	




#DATA BEGINS
time	group	step	mark	flag	A-AC1	A-AC2	A-AC3	A-AC4	A-AC5	A-AC6	A-AC7	A-AC8	A-AC9	A-AC10	A-AC11	A-AC12	A-AC13	A-AC14	A-AC15	A-AC16	A-DC1	A-DC2	A-DC3	A-DC4	A-DC5	A-DC6	A-DC7	A-DC8	A-DC9	A-DC10	A-DC11	A-DC12	A-DC13	A-DC14	A-DC15	A-DC16	A-Ph1	A-Ph2	A-Ph3	A-Ph4	A-Ph5	A-Ph6	A-Ph7	A-Ph8	A-Ph9	A-Ph10	A-Ph11	A-Ph12	A-Ph13	A-Ph14	A-Ph15	A-Ph16	B-AC1	B-AC2	B-AC3	B-AC4	B-AC5	B-AC6	B-AC7	B-AC8	B-AC9	B-AC10	B-AC11	B-AC12	B-AC13	B-AC14	B-AC15	B-AC16	B-DC1	B-DC2	B-DC3	B-DC4	B-DC5	B-DC6	B-DC7	B-DC8	B-DC9	B-DC10	B-DC11	B-DC12	B-DC13	B-DC14	B-DC15	B-DC16	B-Ph1	B-Ph2	B-Ph3	B-Ph4	B-Ph5	B-Ph6	B-Ph7	B-Ph8	B-Ph9	B-Ph10	B-Ph11	B-Ph12	B-Ph13	B-Ph14	B-Ph15	B-Ph16	aux-1	digaux	

3573.838	1	1	0	768	0.2479	0.17568	0.097342	0.43027	0.033669	0.33967	0.20662	0.29974	0.14221	0.065891	0.13862	0.092533	0.25479	0.078446	0.31709	0.14389	-1.9479	-2.9896	-2.7438	-2.4333	-2.8979	-2.5583	-2.6188	-3.1771	-2.45	-2.6354	-2.8604	-2.3563	-3.0854	-2.7833	-2.3958	-3.1813	269.637	466.188	200.084	494.006	312.783	401.597	433.749	453.834	163.160	401.769	492.647	446.338	149.693	164.228	356.378	475.549	0.00056712	0.00071006	6.3974e-05	1034.8	9.1702e-06	2.5228e-06	845.27	426.28	6.1388e-06	6.1358e-06	360.36	140.95	178.28	75.412	3.9744e-06	56.324	0.00076263	0.00067984	0.00018201	1062.7	8.1581e-06	7.4934e-06	863.16	434.95	8.1464e-06	7.2275e-06	370.38	145.32	182.06	76.883	6.9408e-06	57.96	254.575	183.301	250.715	155.868	366.717	367.145	153.391	161.167	309.709	262.617	157.853	161.784	165.986	170.749	299.097	165.465	-8191	255	
3573.934	1	1	0	0	0.17874	0.22947	0.21734	0.27456	0.31613	0.12512	0.35595	0.52601	0.043699	0.071695	0.10398	0.27533	0.24393	0.12466	0.23087	0.27619	-2.0271	-2.5729	-2.8458	-2.5208	-2.8542	-2.575	-2.3625	-3.3833	-2.4229	-2.5875	-3.0875	-2.1917	-3	-2.8708	-2.2854	-3.0104	204.387	418.737	255.882	449.190	333.430	214.092	428.771	437.331	304.666	411.016	420.854	471.665	463.740	415.439	354.202	189.610	0.00059784	0.00097793	0.00027178	1033.6	5.3613e-06	3.2132e-06	845.91	427.46	2.099e-06	6.6552e-06	365.06	142.85	179.61	76.042	8.4041e-06	56.99	0.00073284	0.00066124	0.0001864	1064.1	7.8199e-06	7.3334e-06	870.55	437.53	8.0849e-06	7.2412e-06	375.59	146.9	183.03	77.543	7.5301e-06	58.819	245.957	212.256	259.764	155.791	324.676	202.677	153.652	161.236	313.809	359.693	157.830	161.920	165.575	170.655	253.082	165.141	-8191	255	
3574.030	1	1	0	0	0.099376	0.083798	0.069461	0.12417	0.10516	0.20978	0.3458	0.28005	0.19018	0.16163	0.12326	0.15414	0.32997	0.24048	0.24233	0.15992	-2.1458	-2.4167	-2.9375	-2.5333	-2.7125	-2.9396	-2.4167	-3.1458	-2.3292	-2.3875	-3.0625	-2.4417	-2.8438	-2.9542	-2.2417	-2.9333	381.694	417.833	149.435	239.972	314.773	175.296	430.898	469.160	212.310	390.028	153.477	453.777	145.526	445.545	213.674	442.974	0.00050161	0.00027234	0.00014415	1049.1	6.5846e-06	8.2629e-06	862.78	431.29	4.5804e-06	7.8487e-06	368.87	143.82	180.25	76.425	8.1418e-06	57.31	0.00072898	0.00066569	0.00019984	1079.4	7.8397e-06	7.4602e-06	882.41	441.22	8.0286e-06	7.2494e-06	380.11	148.3	183.83	77.796	8.1859e-06	59.142	252.110	238.449	181.562	155.802	361.317	329.011	153.527	160.812	374.498	350.554	157.608	161.781	165.707	170.641	282.389	165.159	-8191	255	
3574.126	1	1	0	0	0.11273	0.31278	0.1439	0.23058	0.30477	0.045019	0.09444	0.34107	0.15119	0.27244	0.20169	0.11314	0.27237	0.27749	0.05987	0.18771	-2.1917	-2.275	-2.7583	-2.4729	-2.5021	-2.7729	-2.4729	-3.0167	-2.7208	-2.3708	-3.0646	-2.5125	-2.5542	-2.9271	-2.3458	-2.9625	472.296	474.599	322.599	433.225	491.159	502.015	187.150	444.162	174.240	326.778	413.876	473.433	188.318	430.420	486.449	499.751	0.00063406	0.00049428	0.00046227	1056.2	3.8947e-06	2.9083e-06	860.63	430.93	6.6363e-06	2.1686e-06	368.52	144.82	180.39	76.366	7.2677e-06	57.011	0.00070605	0.00066178	0.00020892	1080.3	7.437e-06	7.2256e-06	886.1	439.6	7.5004e-06	7.0335e-06	380.17	147.78	182.99	77.448	8.2738e-06	58.539	253.050	218.364	206.692	156.126	346.783	304.288	153.814	161.075	294.690	279.913	157.624	161.722	165.615	170.487	296.611	164.941	-8191	255	
3574.222	1	1	0	0	0.096195	0.21412	0.14263	0.15982	0.14463	0.21527	0.15391	0.27274	0.14022	0.21192	0.093271	0.18942	0.10019	0.081077	0.093019	0.081607	-2.3104	-2.2354	-2.8333	-2.4813	-2.5167	-2.8312	-2.3167	-2.9729	-2.7104	-2.4	-3.0729	-2.5	-2.7896	-3.1229	-2.2708	-3.05	286.998	223.438	293.152	413.007	329.846	394.586	404.616	465.574	353.149	244.516	203.038	252.079	154.358	488.722	493.642	267.182	0.00057174	0.00042689	0.00016424	1048.6	5.8486e-06	2.965e-06	857.12	427.51	6.9147e-06	1.0427e-05	367.84	142.73	179.12	75.578	8.9762e-06	56.532	0.00066482	0.00064964	0.00021136	1068.9	7.0187e-06	7.2675e-06	879.21	434.79	7.1634e-06	7.243e-06	377.32	145.43	181.11	76.757	8.5473e-06	57.833	243.467	214.128	236.057	155.656	317.982	300.000	153.512	160.633	294.125	223.273	157.167	161.414	165.467	170.545	291.723	164.925	-8191	255	
3574.319	1	1	0	0	0.1076	0.32542	0.036956	0.37134	0.20072	0.21881	0.22911	0.086147	0.1808	0.052945	0.22861	0.05431	0.33087	0.33763	0.085738	0.03582	-2.4896	-2.3688	-2.9208	-2.75	-2.4729	-3.0104	-2.55	-2.7208	-2.7812	-2.2333	-2.9604	-2.6208	-2.6125	-3.2083	-2.4313	-2.7188	356.600	155.636	372.738	476.409	230.684	425.972	386.862	438.608	324.658	303.587	431.646	161.646	149.106	499.308	336.542	446.309	0.00059948	0.00029839	0.00010191	1048.7	8.5492e-06	4.9538e-06	859.12	427.7	4.7849e-06	1.132e-05	367.69	141.9	178.4	75.082	5.9939e-06	56.125	0.00066442	0.0007119	0.00021672	1070.8	7.1419e-06	7.9778e-06	882.91	434.99	7.3569e-06	8.1354e-06	377.83	145.18	180.54	76.629	8.4922e-06	57.657	245.016	165.658	167.349	155.508	245.768	302.843	153.399	160.645	309.046	252.081	157.604	161.641	165.584	170.694	330.827	165.045	-8191	255	
3574.439	1	1	0	0	0.17735	0.27126	0.13557	0.12988	0.14375	0.27141	0.52621	0.29163	0.13457	0.010191	0.34181	0.11942	0.26242	0.41714	0.25384	0.041861	-2.5229	-2.1542	-2.8521	-2.6979	-2.4792	-2.8937	-2.6	-2.7812	-2.7854	-2.1896	-2.8042	-2.8542	-2.5896	-3.2812	-2.2083	-2.6312	200.443	494.805	284.997	158.869	501.153	236.684	427.743	156.490	192.548	272.813	156.043	262.401	167.820	438.853	358.379	295.334	0.00053397	0.00095935	0.00025157	1047.4	4.835e-06	6.4903e-06	858.92	426.48	3.0692e-06	7.7808e-06	368.1	143.07	177.91	75.591	8.4939e-06	56.826	0.00067141	0.00076313	0.0002102	1072.7	7.1919e-06	8.441e-06	885.24	434.3	7.4932e-06	8.5791e-06	378.15	145.29	180.69	77.083	8.165e-06	58.039	244.955	212.581	242.135	155.855	268.305	297.745	153.501	160.920	275.654	256.304	157.440	162.007	165.683	170.515	326.610	165.012	-8191	255	
3574.535	1	1	0	0	0.19972	0.17224	0.10031	0.15991	0.12002	0.15063	0.097021	0.14917	0.3362	0.043871	0.18901	0.18621	0.23123	0.33056	0.12626	0.1207	-2.45	-2.2938	-2.6937	-2.6667	-2.4542	-2.8688	-2.6104	-2.7792	-2.9354	-2.2938	-2.7792	-2.95	-2.45	-3.1646	-2.4542	-2.4792	468.698	368.023	303.761	440.851	218.371	349.695	380.594	446.269	425.024	223.081	460.322	422.202	402.731	161.550	316.297	359.739	0.00065548	0.00088029	3.3781e-05	1056.9	6.7966e-06	6.8069e-06	869.38	428.47	1.0431e-05	1.0702e-05	367.85	141.51	177.4	74.891	8.0802e-07	56.059	0.00069373	0.00079187	0.00019717	1079	7.479e-06	8.3568e-06	889.06	435.29	7.6052e-06	8.4145e-06	375.6	144.62	180.49	76.441	7.6102e-06	57.107	243.257	160.237	154.672	155.833	271.121	279.091	153.458	160.785	249.980	297.259	157.535	161.789	165.679	170.341	359.399	165.170	-8191	255	
3574.630	1	1	0	0	0.06802	0.12046	0.17003	0.26732	0.050468	0.33068	0.15165	0.28654	0.12531	0.12162	0.069937	0.16669	0.14142	0.30817	0.17901	0.14968	-2.4333	-2.4375	-2.8396	-2.9792	-2.1792	-3.1188	-2.6021	-2.7104	-2.9083	-2.3604	-2.8375	-2.9833	-2.55	-3.1292	-2.7333	-2.3396	306.027	368.940	198.426	434.759	404.759	166.242	373.897	470.855	402.822	202.791	403.604	399.296	168.799	147.405	418.861	484.966	0.00065892	0.00064796	0.00013911	1060.2	8.7261e-06	5.6098e-06	860.2	427.15	1.325e-05	3.0214e-06	364.35	139.6	175.56	73.824	3.7449e-06	55.184	0.00072481	0.00076353	0.00019154	1077.5	8.0674e-06	8.2507e-06	883.01	434.64	8.2895e-06	8.3159e-06	373.95	143.24	180.25	75.841	7.7628e-06	56.578	242.797	203.253	253.348	155.607	316.083	357.883	153.513	161.260	273.904	377.800	157.470	161.967	165.797	170.969	346.727	165.003	-8191	255	
3574.728	1	1	0	0	0.20359	0.24953	0.35007	0.23604	0.2129	0.21511	0.21265	0.31093	0.15183	0.054664	0.1078	0.51476	0.22834	0.4115	0.12846	0.31313	-2.5667	-2.3667	-2.4354	-3.0771	-2.2167	-2.7146	-2.9042	-2.7313	-3.025	-2.5979	-2.6229	-3.0646	-2.3792	-2.9979	-2.6958	-2.4354	350.706	179.347	433.532	454.667	472.226	462.219	352.886	444.653	454.430	457.524	298.020	427.691	448.114	497.141	383.245	439.155	0.00061589	0.00090406	0.00023672	1066.4	8.7383e-06	7.1766e-06	871.28	427.64	1.4076e-06	1.0164e-05	367.28	140.55	176.85	74.418	6.5963e-06	55.458	0.00077303	0.00076251	0.00019168	1088	8.6313e-06	8.099e-06	891.07	436.64	8.806e-06	8.2825e-06	376.3	144.57	181.44	76.111	7.9072e-06	57.259	249.122	290.848	234.825	155.834	301.490	395.243	153.643	161.239	307.316	360.116	157.899	161.831	166.002	170.761	306.950	165.346	-8191	255	
3574.822	1	1	0	0	0.056411	0.039438	0.037448	0.071996	0.065165	0.06735	0.064801	0.41617	0.21364	0.19503	0.12803	0.29248	0.20242	0.09578	0.1989	0.046929	-2.5812	-2.5438	-2.4833	-3.0458	-2.1292	-2.6125	-2.8208	-2.5833	-2.8604	-2.4375	-2.4854	-3.125	-2.4708	-3.0438	-2.7125	-2.2917	383.743	416.236	305.381	281.828	488.948	378.209	182.432	441.646	312.523	257.609	341.418	467.695	172.149	443.997	408.707	261.043	0.0006027	0.00080554	0.00024442	1072.5	6.0926e-06	5.5758e-06	879.68	433.38	2.5359e-06	5.0015e-06	368.93	141.85	177.2	74.402	4.1051e-06	55.847	0.00081439	0.00076778	0.0001946	1100.9	9.0925e-06	8.2352e-06	901.96	442.18	9.1945e-06	8.4633e-06	379.45	146.26	182.07	76.297	8.0707e-06	57.861	241.695	246.591	243.999	155.711	307.978	376.233	153.829	160.683	284.354	293.453	157.393	161.795	165.632	170.937	293.512	165.237	-8191	255	
3574.918	1	1	0	0	0.15332	0.14641	0.13167	0.24009	0.050052	0.26366	0.20008	0.16116	0.041677	0.056049	0.17593	0.10723	0.32881	0.16332	0.23091	0.23407	-2.3937	-2.5979	-2.2313	-3.1729	-2.2	-2.6708	-2.9646	-2.4354	-2.6771	-2.5083	-2.2812	-2.9292	-2.3979	-2.8875	-2.8563	-2.4542	366.173	421.791	203.056	440.109	316.356	435.215	450.102	462.409	416.735	457.317	457.856	455.822	144.970	476.077	184.861	432.306	0.00051939	0.00064998	0.0002608	1073.2	9.7017e-06	1.8898e-06	873.96	429.85	7.3221e-06	3.8645e-06	367.26	140.34	175.87	73.834	5.0447e-06	54.463	0.00082238	0.0007716	0.00020026	1103.9	9.1155e-06	8.2061e-06	897.95	441.43	8.959e-06	8.3224e-06	376.85	145.03	180.54	75.295	8.2873e-06	56.836	241.233	177.831	264.478	155.587	306.484	208.774	153.721	160.966	308.375	330.620	157.434	161.770	165.685	170.558	268.128	165.263	-8191	255	
3575.039	1	1	0	0	0.069677	0.22822	0.35624	0.10784	0.16252	0.14564	0.15022	0.13861	0.17391	0.22237	0.12107	0.15648	0.23578	0.17435	0.12765	0.24739	-2.2583	-2.8646	-2.0687	-3.1333	-2.3583	-2.5062	-3.0312	-2.4792	-2.7521	-2.7562	-2.4396	-3.0479	-2.7062	-2.7083	-2.8438	-2.5521	213.773	194.200	162.214	190.130	221.454	428.375	417.736	491.661	305.209	444.116	380.175	430.789	426.564	146.749	188.620	426.015	0.00054119	0.00029268	0.00026508	1073.2	4.1719e-06	8.1067e-06	869.67	427.92	8.8531e-06	6.5045e-06	362.93	138.84	174.98	73.546	7.9896e-06	54.702	0.0007838	0.00075019	0.00020879	1103.3	8.792e-06	8.0223e-06	895.31	439.75	8.6227e-06	8.1862e-06	375.06	143.91	179.5	75.085	9.0513e-06	56.971	256.121	176.730	199.960	155.921	351.985	337.241	153.852	161.009	308.059	304.793	157.649	161.820	165.777	170.634	305.828	165.374	-8191	255	
3575.135	1	1	0	0	0.11759	0.052913	0.22356	0.2946	0.29895	0.2975	0.11275	0.087959	0.12056	0.099048	0.085435	0.17139	0.14006	0.11744	0.22674	0.22127	-2.1937	-3.0208	-2.1104	-3.1479	-2.475	-2.4542	-3.1042	-2.5458	-2.7042	-2.675	-2.5271	-2.8958	-2.7896	-2.6333	-2.8833	-2.4896	161.638	328.339	148.667	170.173	387.155	341.579	442.971	405.727	248.965	384.368	464.559	211.234	449.882	162.836	194.818	491.291	0.00050894	0.00030988	0.00035136	1073.4	6.4103e-06	2.8302e-06	868.94	427.72	6.7886e-06	6.472e-06	364.54	140.06	175.84	74.043	3.0856e-06	54.996	0.00078908	0.00076627	0.00023329	1106.5	8.8836e-06	8.2204e-06	900.42	439.99	8.699e-06	8.3691e-06	378.54	144.62	179.77	75.457	9.573e-06	57.177	253.525	488.395	220.376	155.700	281.849	434.018	153.616	161.214	346.527	278.826	157.763	161.853	165.760	170.469	307.700	165.261	-8191	255	
3575.231	1	1	0	0	0.13046	0.083906	0.16103	0.23818	0.16789	0.031039	0.094233	0.37017	0.24639	0.14871	0.098944	0.23721	0.10706	0.22709	0.18886	0.099394	-2.1042	-2.7812	-2.2958	-3.0167	-2.6604	-2.3833	-2.9979	-2.575	-2.4896	-2.9813	-2.2938	-2.9375	-3.025	-2.4771	-2.9979	-2.5458	154.169	249.312	199.816	494.918	360.383	215.326	460.175	462.711	178.339	233.451	420.235	386.626	483.060	445.222	315.899	479.322	0.00056754	0.00019924	0.00020114	1066.9	5.3914e-06	6.7853e-06	868.28	426.3	3.5941e-06	4.8878e-06	366.55	140.93	177.04	74.527	6.5137e-06	55.56	0.00075699	0.00075879	0.00024217	1098.3	8.4228e-06	8.0954e-06	900.11	437.95	8.2336e-06	8.3923e-06	380.14	144.39	179.64	75.842	9.6112e-06	57.203	247.808	187.222	206.741	155.868	300.647	250.775	154.157	161.277	390.647	244.470	157.463	161.668	165.457	170.441	279.712	165.207	-8191	255	
3575.327	1	1	0	0	0.15131	0.21748	0.10255	0.04968	0.10755	0.10984	0.08249	0.42835	0.10932	0.18297	0.2465	0.26538	0.15527	0.095755	0.16141	0.26056	-2.1542	-2.8146	-2.3063	-2.7667	-2.7208	-2.4021	-3.0833	-2.7292	-2.4208	-3.0958	-2.35	-2.8042	-2.9208	-2.6271	-3.0062	-2.5458	328.277	436.383	363.201	161.172	455.989	247.152	373.140	435.597	395.702	254.376	365.723	386.373	152.699	460.054	353.999	439.118	0.00060727	0.0011275	0.00010488	1062.2	1.1751e-05	7.3574e-06	864.48	428.5	5.0313e-06	4.1578e-06	362.94	138.82	174.85	73.358	4.0363e-06	53.968	0.00072656	0.00078725	0.00024379	1093.7	8.1107e-06	8.5019e-06	895.2	436.93	7.893e-06	8.8519e-06	376.36	142.25	177.98	74.962	9.4308e-06	55.917	242.394	178.234	194.769	155.785	244.219	215.746	153.795	160.992	277.176	210.388	157.208	161.686	165.767	170.508	317.732	165.133	-8191	255	
3575.399	1	1	0	0	0.18429	0.091966	0.1371	0.22366	0.20979	0.17085	0.10931	0.066913	0.09341	0.13304	0.12433	0.23174	0.29034	0.31473	0.2879	0.15918	-2.1104	-3.0396	-2.2792	-2.8771	-2.6667	-2.4479	-2.9479	-3.0417	-2.3625	-3.1396	-2.3833	-2.7917	-3.0917	-2.5792	-2.8125	-2.8542	400.809	176.310	217.335	489.507	400.712	383.860	475.913	481.731	243.445	329.430	454.606	442.873	482.550	437.841	461.389	407.375	0.00058678	9.1577e-05	0.00025683	1071.9	1.0841e-05	1.193e-05	865.12	425.67	6.6355e-06	8.2581e-06	361.11	137.83	174.23	72.909	5.0721e-06	54.318	0.00072241	0.00083527	0.00024132	1093.9	8.1433e-06	9.2798e-06	893.08	435.16	8.0461e-06	9.3885e-06	374.25	141.43	177.74	75.109	9.0506e-06	56.135	246.412	242.010	300.851	155.588	279.590	295.664	153.392	161.061	245.518	266.077	157.318	161.660	165.850	170.809	452.806	165.430	-8191	255	
3575.520	1	1	0	0	0.1447	0.032488	0.17667	0.11201	0.040637	0.16955	0.18146	0.15484	0.040846	0.272	0.13446	0.31304	0.19482	0.071235	0.09996	0.26827	-1.9771	-2.9667	-2.5083	-2.4583	-2.8833	-2.3646	-2.9771	-2.6771	-2.3792	-2.9313	-2.6437	-2.5146	-3.0646	-2.6271	-2.875	-2.9938	156.084	488.919	431.838	493.477	161.734	420.836	472.277	420.345	251.898	159.067	180.845	175.976	453.276	175.454	384.853	149.764	0.00063346	0.0006087	0.00020155	1059.9	9.4213e-06	1.0688e-05	862.46	423.94	1.0019e-05	2.4643e-06	361.4	138.7	174.23	73.715	7.4083e-06	55.018	0.00074012	0.00086917	0.00023138	1087.7	8.4383e-06	9.6314e-06	891.26	435.52	8.5632e-06	9.6121e-06	375.02	142.01	178.65	75.825	8.8735e-06	56.664	236.890	184.599	269.904	155.893	240.862	291.610	153.611	161.257	260.399	381.266	157.984	161.685	166.157	170.707	312.264	165.539	-8191	255	
3575.616	1	1	0	0	0.047496	0.13425	0.17005	0.17943	0.3054	0.16985	0.13665	0.32408	0.011322	0.14954	0.11828	0.16918	0.26168	0.15124	0.11896	0.045654	-2	-2.9771	-2.3229	-2.5729	-3.0542	-2.3187	-2.7708	-2.9229	-2.3708	-2.9292	-2.6375	-2.5312	-3.2562	-2.5396	-2.6813	-3.0625	318.211	416.368	356.393	423.174	348.917	448.277	410.735	439.061	195.500	348.905	214.530	252.572	438.076	158.533	201.898	472.742	0.0006082	0.00054983	8.2207e-05	1068.1	1.3241e-05	6.1442e-06	871.02	430.2	7.8664e-06	5.419e-06	363.27	138.55	174.5	73.579	4.6676e-06	54.851	0.00080737	0.00088645	0.00022583	1093	9.1309e-06	9.7189e-06	896.83	437.66	9.3432e-06	9.5849e-06	377.14	142.29	179.25	75.622	8.6425e-06	56.529	240.467	231.283	176.396	155.613	280.472	268.514	153.490	160.959	273.532	348.107	157.611	161.728	165.646	170.669	226.272	165.342	-8191	255	
3575.712	1	1	0	0	0.16865	0.20597	0.22046	0.22024	0.16659	0.14773	0.1886	0.26853	0.14706	0.094104	0.12929	0.21529	0.55248	0.1843	0.054582	0.33158	-1.9167	-2.8729	-2.2833	-2.6229	-3.0708	-2.4354	-2.6312	-3.1375	-2.3146	-2.9875	-2.7417	-2.4917	-3.0812	-2.5708	-2.5083	-3.0021	374.249	481.266	268.255	476.840	243.534	475.231	243.676	296.519	236.534	413.204	148.086	474.561	462.831	451.427	496.072	417.227	0.00059177	0.0010076	0.00013781	1066.6	6.4218e-06	5.2963e-06	861.55	426.67	6.2877e-06	7.8671e-06	355.99	136.63	172.86	72.545	3.2327e-06	53.714	0.00086999	0.00087086	0.0002276	1093.6	9.7775e-06	9.4196e-06	887.85	435.71	9.7865e-06	9.1094e-06	370.59	140.74	178.25	74.63	8.3673e-06	55.773	234.516	270.002	373.869	155.610	213.772	272.623	153.351	161.158	310.106	297.539	157.526	161.956	165.984	170.974	262.369	165.557	-8191	255	
3575.808	1	1	0	0	0.30353	0.28616	0.10532	0.29095	0.059511	0.15042	0.3093	0.20908	0.13649	0.091961	0.16894	0.035224	0.22879	0.33254	0.21078	0.13519	-1.7729	-2.675	-2.4875	-2.5333	-3	-2.45	-2.6437	-3.1833	-2.2687	-2.8187	-2.9375	-2.4625	-3.1771	-2.6521	-2.4729	-3.0792	263.807	225.845	145.407	394.074	202.316	456.975	451.213	429.082	328.409	348.503	441.882	442.715	175.446	492.852	196.745	378.304	0.00054504	0.00034906	0.0001909	1057.7	4.2824e-06	5.5784e-06	856.02	425.96	8.6312e-06	1.1279e-05	360.52	139.19	174.44	73.862	6.9735e-06	55.071	0.00087659	0.00081407	0.00021593	1089.8	9.5413e-06	8.8101e-06	882.18	436.78	9.5699e-06	8.5747e-06	372.88	143.32	180.29	75.932	8.0738e-06	57.188	240.695	213.147	205.514	155.618	286.915	281.032	153.776	161.289	328.186	311.968	157.807	162.177	166.163	171.020	322.992	165.291	-8191	255	
3575.927	1	1	0	0	0.090759	0.30243	0.32553	0.16789	0.20592	0.28418	0.3506	0.080159	0.17229	0.33197	0.16914	0.17137	0.081536	0.31748	0.11051	0.18615	-1.7938	-2.6833	-2.6979	-2.35	-3.05	-2.5271	-2.6813	-3.25	-2.2875	-2.7167	-2.8292	-2.3063	-2.9938	-2.8375	-2.4354	-3.1479	350.701	230.921	451.413	308.938	324.836	466.956	359.462	441.136	178.271	178.810	498.962	164.830	392.572	473.061	487.206	303.748	0.00054737	0.00058804	0.00017149	1053.5	2.5602e-06	1.2325e-05	861.51	429.05	2.0537e-06	2.6632e-06	362.58	138.03	175.77	73.671	9.8365e-06	55.197	0.00085188	0.00078241	0.00020986	1090.2	9.4021e-06	8.8067e-06	885.75	440	9.6354e-06	8.7435e-06	375.03	144.07	181.01	75.99	8.5661e-06	57.703	242.934	261.599	201.975	155.974	297.786	305.969	153.677	161.162	297.949	225.699	157.810	162.021	166.245	171.110	285.754	165.398	-8191	255	
3576.000	1	1	0	0	0.23817	0.18956	0.021118	0.15973	0.22014	0.22416	0.34491	0.31822	0.11159	0.1496	0.18832	0.050272	0.072356	0.19235	0.077844	0.1721	-1.8458	-2.5542	-2.8729	-2.325	-2.9833	-2.5917	-2.575	-3.0792	-2.3	-2.4146	-2.75	-2.3937	-3.0625	-2.6937	-2.4562	-3.0812	326.350	166.097	319.150	482.503	193.513	354.399	190.690	425.143	340.328	472.687	467.573	172.816	423.063	191.672	236.539	198.674	0.00056466	0.00063119	0.00038331	1072	1.8364e-06	3.3445e-06	867.14	430.7	3.2349e-06	6.4491e-06	361.92	138.67	174.11	73.734	4.8134e-06	54.59	0.00087677	0.00080076	0.00022627	1107.2	9.4997e-06	8.8343e-06	894.11	442.45	9.4424e-06	8.5488e-06	375.81	144.66	179.85	75.7	9.0153e-06	57.185	242.604	247.439	210.195	155.607	282.384	271.365	153.586	161.196	354.487	338.647	157.830	162.054	166.220	170.882	254.960	165.478	-8191	255	
3576.119	1	1	0	0	0.0043335	0.14014	0.27412	0.18972	0.23019	0.2965	0.32058	0.1946	0.25869	0.064488	0.1575	0.2643	0.25682	0.43465	0.26406	0.17454	-2.1875	-2.4813	-2.8	-2.4542	-2.7562	-2.6625	-2.5458	-3.1771	-2.3438	-2.4208	-2.9083	-2.5417	-2.7896	-3.0021	-2.15	-3.0312	466.807	159.445	337.156	382.715	496.103	502.377	434.153	185.094	396.297	196.823	218.041	451.528	470.010	484.635	354.463	403.568	0.00064865	0.00070133	0.00015436	1056.1	1.3876e-06	6.2511e-06	850.86	423.51	5.2714e-06	4.3725e-06	357.64	136.29	173.3	72.99	1.1038e-05	53.625	0.00082158	0.00076222	0.00023339	1096.4	8.728e-06	8.4465e-06	884.99	437.43	8.9587e-06	8.0642e-06	373.14	142.4	178.58	74.829	9.4535e-06	56.17	238.865	195.077	194.091	155.971	197.677	273.467	153.825	161.333	290.425	334.462	158.099	162.219	165.984	171.028	290.054	165.388	-8191	255	
3576.215	1	1	0	0	0.40164	0.12348	0.18319	0.3029	0.20049	0.08171	0.19061	0.24205	0.029856	0.22794	0.19277	0.21477	0.13536	0.21466	0.18095	0.04787	-2.2812	-2.5417	-2.9062	-2.5542	-2.3521	-2.975	-2.5042	-2.9375	-2.6208	-2.3958	-3.1437	-2.6	-2.6875	-2.925	-2.1333	-3.1708	478.052	212.696	406.020	410.443	385.715	251.000	414.576	448.361	299.911	239.996	428.487	482.266	182.446	148.145	154.645	393.504	0.0005689	6.3422e-05	0.00025105	1065.3	5.6514e-06	6.4795e-06	860.68	427.12	4.5708e-06	5.5346e-06	358.81	136.95	174.66	73.507	6.1772e-06	54.39	0.00080234	0.00075305	0.00024661	1099.9	8.6539e-06	8.5264e-06	892.68	439.23	8.8596e-06	8.4201e-06	376.07	142.4	178.8	75.154	9.922e-06	56.428	239.595	201.073	194.175	156.130	321.951	328.477	153.692	161.153	299.002	280.923	157.684	162.249	165.876	170.853	294.882	165.078	-8191	255	
3576.311	1	1	0	0	0.021024	0.097267	0.18736	0.16066	0.18141	0.23557	0.21176	0.25756	0.25783	0.19346	0.075845	0.45725	0.21281	0.34532	0.20962	0.14092	-2.2646	-2.4917	-2.9854	-2.8104	-2.3229	-2.8771	-2.5292	-3.0167	-2.9167	-2.4833	-3.1229	-2.5542	-2.7375	-3.0458	-2.4479	-2.7396	211.875	249.690	279.981	441.121	469.249	456.297	167.039	466.457	400.982	361.992	387.455	470.327	492.166	151.395	323.911	450.440	0.00059725	0.00090874	0.00017625	1073.6	4.7914e-06	7.3817e-06	865.45	427.72	4.6596e-06	5.3278e-06	363.98	139.1	175.66	73.797	5.98e-06	54.951	0.00078669	0.00078712	0.00025146	1103.9	8.2639e-06	8.7366e-06	898.36	438.92	8.4345e-06	8.688e-06	378.25	143.28	179.02	75.593	9.6398e-06	56.73	247.520	167.567	231.989	155.816	316.609	287.673	153.583	160.895	258.868	280.172	157.640	161.710	165.741	170.726	421.705	165.051	-8191	255	
3576.408	1	1	0	0	0.2324	0.11677	0.08504	0.090391	0.14018	0.11875	0.1254	0.075305	0.154	0.20136	0.26512	0.23886	0.42948	0.17417	0.046092	0.041494	-2.3896	-2.3208	-2.8	-2.6396	-2.45	-3.0563	-2.4875	-2.8417	-2.8812	-2.2313	-3.0229	-2.6917	-2.7042	-3.0563	-2.3438	-2.6354	444.257	413.763	237.939	447.414	408.317	254.834	439.671	485.606	143.649	485.079	474.247	479.809	453.983	487.039	455.065	447.307	0.00057712	0.00095399	6.6672e-05	1067.1	3.3863e-06	5.7554e-06	870.05	427.06	5.7041e-06	7.821e-06	362.82	137.62	173.49	72.986	1.0447e-05	53.596	0.00074084	0.00080972	0.0002397	1098.1	7.9354e-06	8.9671e-06	897.81	437.52	8.191e-06	9.1133e-06	376.8	141.96	178.12	75.138	9.2496e-06	55.702	247.280	199.137	386.792	155.747	238.353	287.672	153.444	160.921	342.211	256.754	157.409	162.006	165.764	171.266	353.904	165.537	-8191	255	
3576.528	1	1	0	0	0.17606	0.25162	0.15479	0.65024	0.14094	0.26506	0.098709	0.088995	0.22422	0.19769	0.082572	0.26723	0.28936	0.16343	0.1672	0.2498	-2.3771	-2.1562	-2.9646	-2.7521	-2.4146	-2.9437	-2.5521	-2.8333	-2.9688	-2.1167	-2.9979	-2.7354	-2.4583	-3.125	-2.4688	-2.6458	214.700	334.211	406.683	441.895	500.658	161.810	346.112	359.562	446.529	199.051	452.555	146.835	459.954	171.490	454.182	389.051	0.0005518	7.5954e-05	2.6981e-05	1063.7	5.3301e-06	7.9312e-06	862.26	425.29	6.8608e-06	7.9802e-06	359.14	137.42	173.94	73.117	4.5131e-06	53.895	0.00074902	0.00085521	0.00022867	1094.6	8.1556e-06	9.5187e-06	891.44	435.84	8.4104e-06	9.6408e-06	372.73	141.17	178.15	75.074	9.035e-06	55.6	242.096	444.154	296.737	156.023	280.721	218.025	153.689	160.891	269.355	304.313	157.925	161.783	165.976	170.590	366.848	165.026	-8191	255	
3576.623	1	1	0	0	0.17302	0.050447	0.25222	0.41843	0.14554	0.12609	0.11351	0.19376	0.1317	0.042676	0.27647	0.065579	0.30131	0.059578	0.17727	0.080954	-2.4896	-2.3896	-2.6437	-2.8521	-2.3125	-2.9375	-2.625	-2.7229	-2.8979	-2.35	-2.9313	-2.8333	-2.3875	-3.1396	-2.6188	-2.5583	412.538	500.715	315.904	465.884	327.927	306.221	489.906	458.531	359.970	312.602	425.490	475.712	494.120	277.319	262.769	166.565	0.0005959	0.00036958	0.00030975	1072.1	7.7604e-06	9.9339e-06	866.45	427	1.2272e-05	3.353e-06	360.13	137.59	175.11	73.311	4.9733e-06	54.042	0.00079205	0.00090233	0.00022591	1099.2	8.871e-06	9.7606e-06	893.75	437.76	9.2518e-06	9.9349e-06	374.54	141.8	179.45	75.361	9.2101e-06	55.809	247.655	145.184	266.856	155.661	273.509	263.179	153.486	161.088	276.440	253.252	157.749	161.939	165.806	170.647	328.478	165.190	-8191	255	
3576.721	1	1	0	0	0.15045	0.12586	0.104	0.26625	0.18662	0.20397	0.37469	0.14459	0.14195	0.37256	0.26135	0.26197	0.15517	0.11873	0.062536	0.17876	-2.6208	-2.3604	-2.5208	-2.7521	-2.225	-2.9104	-2.6646	-2.3917	-2.9625	-2.3125	-2.625	-3.0729	-2.3312	-2.9125	-2.6188	-2.6562	390.187	291.764	234.788	488.199	429.394	236.941	433.979	397.499	383.865	179.880	215.592	410.935	332.753	338.130	260.398	150.376	0.00055668	0.00047339	0.00039662	1071.2	4.0607e-06	5.7545e-06	868.22	430.07	7.8431e-06	1.1644e-05	365.95	139.05	176.06	74.106	6.7343e-06	54.482	0.00087458	0.00091341	0.00022871	1103.8	9.8816e-06	9.8756e-06	900.7	439.83	1.0127e-05	9.9955e-06	378.23	143.6	181.33	75.908	9.3254e-06	56.637	251.019	168.578	284.537	156.004	214.171	313.225	153.946	160.891	270.934	332.658	157.467	161.913	165.739	170.476	360.002	165.273	-8191	255	
3576.815	1	1	0	0	0.28835	0.070248	0.31325	0.43282	0.35384	0.12939	0.081653	0.26569	0.025077	0.31674	0.096807	0.2526	0.30677	0.05184	0.26644	0.23842	-2.6604	-2.6375	-2.4583	-3.0687	-2.2438	-2.8583	-2.8563	-2.4083	-2.975	-2.4771	-2.6042	-2.9271	-2.4875	-3.05	-2.7833	-2.3563	367.286	213.186	392.151	456.104	204.354	478.166	440.833	443.687	451.345	338.465	330.229	471.306	458.749	384.810	229.824	413.155	0.00051618	0.00067582	0.00022104	1072.7	4.5904e-06	3.5012e-06	870.35	430.59	6.5697e-06	4.8349e-06	360.22	138.31	174.65	72.769	1.086e-05	53.487	0.00092638	0.00090238	0.00022742	1105.8	1.0368e-05	9.5138e-06	899.43	440.31	1.0346e-05	9.5926e-06	374.15	142.85	180.31	74.94	8.9701e-06	55.732	239.534	199.082	222.757	155.800	277.855	353.684	153.765	160.820	308.551	387.322	157.675	161.785	165.938	170.664	347.259	165.136	-8191	255	
3576.911	1	1	0	0	0.27485	0.064201	0.31937	0.20859	0.051236	0.18379	0.33623	0.25974	0.066677	0.1317	0.13306	0.12929	0.30335	0.27681	0.21643	0.41946	-2.4958	-2.3833	-2.4167	-2.9667	-2.4417	-2.7458	-2.9208	-2.4313	-2.6896	-2.5458	-2.5854	-3.0292	-2.4417	-2.8	-2.9417	-2.1771	276.900	226.071	241.931	439.566	378.287	294.814	426.764	375.117	283.197	188.904	145.220	475.457	171.030	495.025	333.024	167.388	0.00050075	0.00081412	0.00021905	1069.7	4.5279e-06	4.9289e-06	865.2	427.43	6.3046e-06	1.0896e-05	360.14	137.13	174.56	72.581	6.0685e-06	53.551	0.00091762	0.00085403	0.00021771	1104.4	1.0047e-05	8.9734e-06	891.62	439.14	9.8624e-06	9.092e-06	371.74	142.59	179.69	74.651	8.6522e-06	56.079	245.445	249.363	189.984	155.998	321.011	318.560	153.602	161.145	299.664	262.068	157.712	161.777	166.152	170.957	324.785	165.499	-8191	255	
3577.007	1	1	0	0	0.29895	0.26709	0.085259	0.13814	0.14913	0.14925	0.1753	0.40746	0.019554	0.2239	0.092278	0.25393	0.27793	0.28528	0.027452	0.2142	-2.4729	-2.4417	-2.3646	-3.1042	-2.4917	-2.5146	-2.9604	-2.3083	-2.8542	-2.6042	-2.4	-3.0458	-2.4958	-2.7917	-2.8333	-2.425	432.076	234.013	395.983	482.444	201.488	463.521	342.172	439.737	491.815	441.676	442.997	474.369	436.922	212.605	454.931	407.736	0.00051875	0.00065626	0.00020103	1070.5	8.5325e-06	2.9705e-06	867.62	429.07	8.7968e-06	1.1377e-05	360.81	137.94	175.34	73.45	1.7217e-06	53.983	0.00086264	0.00081938	0.00021346	1110.4	9.5667e-06	8.6733e-06	894.47	441.55	9.3537e-06	8.7445e-06	374.13	143.48	179.76	74.98	8.8739e-06	56.64	260.860	213.690	215.084	156.058	355.604	306.233	153.875	161.309	349.861	254.500	157.615	161.721	165.634	170.583	198.840	165.175	-8191	255	
3577.103	1	1	0	0	0.14775	0.22748	0.069732	0.21232	0.099451	0.018893	0.21402	0.15163	0.1223	0.21734	0.051796	0.17304	0.21421	0.22546	0.25882	0.21861	-2.3083	-2.5917	-2.1375	-2.9229	-2.5708	-2.5708	-3.0521	-2.4042	-2.7604	-2.6562	-2.3021	-3.0104	-2.6708	-2.5833	-3.025	-2.4688	213.546	349.626	378.886	449.181	487.158	265.536	366.631	459.766	463.199	196.030	443.513	359.393	422.492	493.121	328.589	147.475	0.00058894	0.00054655	0.00038508	1079.7	6.0458e-06	5.9716e-06	873.05	431.62	6.4312e-06	6.2205e-06	365.23	140.43	176.28	74.082	1.0679e-05	54.878	0.0008182	0.00078852	0.00022437	1112.3	9.0573e-06	8.2309e-06	899.18	442.84	8.7414e-06	8.3547e-06	376.57	144.38	180.37	75.441	9.1255e-06	57.007	236.164	249.022	192.300	155.416	271.097	319.779	153.711	160.763	317.906	280.190	157.460	161.970	165.590	170.597	294.338	165.176	-8191	255	
3577.224	1	1	0	0	0.18819	0.23359	0.13259	0.097551	0.14086	0.11496	0.22783	0.28546	0.064541	0.048952	0.18811	0.14413	0.16034	0.20439	0.11694	0.16116	-2.1458	-2.5187	-2.3375	-2.9125	-2.5271	-2.2708	-3.1167	-2.475	-2.7583	-2.7354	-2.6271	-2.8708	-2.7542	-2.6271	-2.9062	-2.4667	250.365	378.053	342.668	438.454	151.140	395.324	429.478	451.220	381.742	320.037	454.514	497.163	489.643	454.195	231.072	366.024	0.00053197	0.00075514	0.00023984	1075.2	5.8417e-06	8.8628e-06	867.11	428.54	3.4005e-06	5.9543e-06	359.12	137.73	174.99	72.827	3.5061e-06	53.492	0.0007684	0.00075268	0.00023032	1104.8	8.5936e-06	7.9935e-06	896.96	439.35	8.4135e-06	8.1679e-06	374.62	142.58	178.87	74.529	9.6325e-06	55.803	246.974	269.712	178.190	155.636	354.699	245.157	153.602	161.071	404.884	341.186	157.398	161.836	165.769	170.655	289.849	165.516	-8191	255	
3577.296	1	1	0	0	0.20331	0.24119	0.23964	0.13915	0.13815	0.097382	0.26678	0.32675	0.058671	0.032745	0.10004	0.25049	0.39166	0.22012	0.18509	0.55913	-2.0604	-2.8125	-2.1354	-3.1083	-2.7292	-2.3729	-3.125	-2.3958	-2.5208	-2.8563	-2.4688	-2.925	-2.9521	-2.4688	-3.1333	-2.5979	301.126	226.473	289.968	220.277	175.241	254.164	178.083	449.085	374.987	322.933	454.678	496.557	425.943	480.045	240.017	458.466	0.00057576	0.00039535	0.0002242	1063.8	3.5612e-06	6.7423e-06	857.39	425.05	3.8196e-06	8.1873e-06	360.09	137.55	173.78	72.83	4.6485e-06	53.931	0.00075795	0.00077411	0.00024832	1092.5	8.5917e-06	8.4955e-06	890.64	435.92	8.4371e-06	8.8867e-06	375.24	141.86	178.1	74.809	1.003e-05	56.091	244.305	210.114	185.542	155.668	391.167	260.437	153.562	161.199	368.784	294.470	157.424	161.741	165.963	170.865	320.904	165.241	-8191	255	
3577.392	1	1	0	0	0.080194	0.12434	0.22953	0.19329	0.2458	0.11943	0.29012	0.4048	0.13508	0.01695	0.21975	0.20786	0.45238	0.12217	0.22967	0.17497	-2.1146	-2.875	-2.1479	-2.8979	-2.775	-2.1562	-3.0687	-2.7062	-2.2646	-3.0583	-2.4437	-2.9437	-2.9958	-2.4396	-2.8208	-2.7562	367.194	454.772	297.554	264.843	500.476	298.812	385.357	434.677	282.205	386.931	457.355	430.564	146.099	476.386	199.098	427.529	0.00049084	0.00062076	0.00035038	1056.6	3.1784e-06	1.3626e-05	858.73	425.5	4.982e-06	3.639e-06	361.74	138.15	173.82	73.578	8.4718e-06	54.603	0.00075053	0.0008365	0.00025294	1088.2	8.405e-06	9.0837e-06	893.44	435.18	8.1236e-06	9.2529e-06	376.81	142.4	177.65	75.349	9.4225e-06	56.575	259.562	225.497	246.147	155.908	391.542	272.393	153.811	161.012	291.229	244.285	157.684	161.811	165.771	170.589	329.048	165.250	-8191	255	
3577.488	1	1	0	0	0.078346	0.29339	0.27153	0.26419	0.052905	0.087231	0.27525	0.25044	0.25312	0.10913	0.31185	0.12313	0.21056	0.44387	0.12664	0.36927	-2.1125	-3.0896	-2.2458	-2.8354	-2.7729	-2.3396	-2.9188	-2.8688	-2.4333	-3.0312	-2.5	-2.7313	-3.0854	-2.4542	-2.8625	-2.7479	232.554	328.887	179.732	424.640	342.925	382.796	465.162	405.098	185.749	411.636	501.725	490.796	379.492	148.783	447.228	397.123	0.00056656	0.00041073	0.00042052	1055.2	4.3547e-06	5.3641e-06	859.87	423.02	9.2986e-06	2.9382e-06	363.51	138.37	174.36	72.899	6.8412e-06	54.749	0.0007346	0.0008598	0.00023805	1081.5	8.1602e-06	9.3177e-06	891.01	433.47	8.0199e-06	9.3514e-06	376.58	142.71	177.83	75.173	8.579e-06	56.344	241.912	474.791	276.628	155.898	206.844	216.427	153.862	161.180	264.237	254.889	157.837	162.031	165.981	170.916	348.824	165.345	-8191	255	
3577.607	1	1	0	0	0.040028	0.095684	0.038927	0.27341	0.039743	0.10807	0.059923	0.19158	0.14213	0.079488	0.070589	0.19205	0.18219	0.13676	0.096588	0.055924	-2.0375	-2.925	-2.4854	-2.5	-3.0687	-2.3125	-3.0583	-2.7854	-2.2729	-3.0438	-2.5229	-2.6708	-2.8854	-2.4729	-2.6729	-3.0312	170.463	382.407	425.166	472.198	235.176	378.337	387.917	481.970	383.781	209.626	295.141	183.971	404.368	391.916	393.367	317.010	0.00055435	0.00042548	0.00015341	1056.1	6.3997e-06	5.7618e-06	871.37	426.03	4.8818e-06	2.4528e-06	363.95	138.34	174.89	73.335	7.6106e-06	54.038	0.00072091	0.00084087	0.00021715	1077.3	8.1555e-06	9.1129e-06	887.5	432.22	8.0789e-06	8.9938e-06	372.14	140.99	177.46	74.576	7.9237e-06	55.249	239.418	175.810	336.119	155.479	230.636	300.625	153.126	160.791	291.918	314.573	157.416	161.187	165.574	170.349	322.220	164.892	-8191	255	
3577.703	1	1	0	0	0.14388	0.19798	0.16662	0.2786	0.16881	0.20663	0.028061	0.1149	0.067664	0.027022	0.22133	0.10982	0.22322	0.17383	0.1086	0.10906	-1.9604	-2.9896	-2.375	-2.6229	-3.0417	-2.3417	-3.0083	-3.0354	-2.3042	-2.9875	-2.5625	-2.5583	-3.1958	-2.5125	-2.7146	-3.0146	421.343	293.876	162.427	429.404	443.341	249.718	398.774	332.452	266.278	457.309	205.089	500.720	438.493	437.194	502.667	151.241	0.00050656	0.00064459	0.00026177	1063.2	8.2064e-06	4.6463e-06	873.51	429.21	2.7456e-06	2.043e-06	365.87	139.1	174.81	72.924	6.0355e-06	54.606	0.00074084	0.00078913	0.00020001	1080.9	8.2062e-06	8.4934e-06	888.54	434.09	8.1522e-06	8.1735e-06	373.27	141.19	177.89	74.372	7.3332e-06	55.513	244.417	269.149	236.265	155.342	297.918	278.966	153.409	160.762	239.021	368.570	157.424	161.629	165.449	170.478	361.498	165.153	-8191	255	
3577.801	1	1	0	0	0.30798	0.12237	0.3084	0.15889	0.1414	0.038889	0.042592	0.22907	0.28526	0.18771	0.27035	0.18848	0.21572	0.3693	0.028376	0.34133	-1.6479	-2.7979	-2.6	-2.5396	-2.9875	-2.3583	-2.8688	-2.9562	-2.3833	-2.9833	-2.8729	-2.3333	-3.2875	-2.6521	-2.4479	-3.0479	161.402	281.350	200.283	433.956	471.041	489.174	320.785	441.481	432.958	302.709	432.257	477.563	469.539	468.955	371.861	451.847	0.0005553	0.0011356	0.00025145	1066.1	9.7711e-06	3.6717e-06	879.81	429.4	3.8226e-06	6.9023e-06	368.87	140.79	176.36	73.328	5.1712e-06	54.947	0.00075708	0.00072955	0.00019012	1085.5	8.54e-06	8.0597e-06	894.81	435.76	8.6833e-06	8.1136e-06	376.69	143.08	179.39	74.589	7.8792e-06	56.314	253.510	213.179	266.197	155.363	281.474	298.185	153.326	160.733	310.604	306.412	157.237	161.659	165.748	170.501	311.501	165.096	-8191	255	
3577.895	1	1	0	0	0.30903	0.16958	0.088012	0.36268	0.18784	0.18575	0.15317	0.095454	0.13753	0.27158	0.12827	0.26	0.37912	0.19015	0.051938	0.054825	-1.7167	-2.9188	-2.7396	-2.3417	-2.9021	-2.5271	-2.3563	-3.1521	-2.2979	-2.8208	-2.9354	-2.4208	-2.925	-2.6021	-2.6021	-2.9979	446.095	340.929	358.775	494.012	460.853	269.534	314.050	469.001	482.048	500.553	351.203	413.016	450.062	374.005	400.782	186.108	0.00050891	0.0005594	0.00013927	1073	1.1917e-05	5.9666e-06	883.92	430.61	3.7578e-06	1.6987e-06	372.14	140.94	176.7	73.022	6.5247e-06	54.591	0.00083297	0.00076151	0.00020177	1094.3	9.134e-06	8.3626e-06	902.6	438.72	9.1155e-06	8.0897e-06	379.21	144.23	179.36	74.285	7.666e-06	56.175	239.446	226.297	284.187	155.234	358.817	253.041	153.219	160.671	324.795	168.122	157.515	161.474	165.507	170.605	296.761	165.069	-8191	255	
3577.991	1	1	0	0	0.31104	0.16382	0.3054	0.20992	0.1452	0.12251	0.12738	0.10599	0.21855	0.10103	0.016592	0.25421	0.51056	0.25315	0.11322	0.112	-2.1896	-2.5854	-2.7458	-2.5917	-2.6354	-2.7458	-2.425	-3.0958	-2.3688	-2.8604	-2.9417	-2.4417	-3.1167	-2.6542	-2.2271	-2.7896	460.496	449.631	349.201	395.343	144.428	346.949	457.732	495.636	431.865	194.658	352.897	487.127	144.457	482.475	436.833	405.429	0.00059725	0.00018057	0.00036284	1076	8.1541e-06	8.6207e-06	882.29	430.94	7.3855e-06	9.4006e-06	368.15	139.26	174.51	72.08	3.8914e-06	53.545	0.00080781	0.00072849	0.0001988	1096.5	8.7918e-06	8.0571e-06	899.92	437.74	8.6767e-06	7.8634e-06	376.25	142.83	177.59	73.416	7.8787e-06	55.347	237.291	197.363	218.818	155.337	359.868	329.343	153.245	160.686	368.225	274.279	157.340	161.293	165.543	170.448	260.365	165.049	-8191	255	
3578.088	1	1	0	0	0.26933	0.057721	0.04351	0.17569	0.2368	0.12223	0.37079	0.31829	0.16328	0.32097	0.13743	0.2493	0.23522	0.30445	0.12856	0.27883	-2.025	-2.475	-2.9458	-2.5604	-2.7438	-2.7646	-2.4729	-3.0438	-2.6917	-2.3979	-3.1292	-2.2938	-2.9625	-3.1292	-2.2604	-3.1875	257.639	301.207	369.204	154.317	390.348	448.397	483.473	477.746	281.864	324.459	382.508	428.304	490.402	145.934	454.626	449.251	0.00043616	0.00034101	9.3502e-05	1076.9	3.6783e-06	5.0326e-06	885.59	431.02	7.6562e-06	7.3777e-07	369.2	140.41	174.7	72.106	2.4936e-06	53.838	0.00077992	0.00071856	0.00020572	1101.5	8.3936e-06	7.9077e-06	905.84	439.31	8.1998e-06	7.4195e-06	377.79	143.52	177.19	73.393	7.7443e-06	55.495	254.210	411.077	257.044	155.238	336.599	317.493	153.089	160.652	314.147	252.885	157.527	161.399	165.574	170.231	295.560	165.042	-8191	255	
3578.208	1	1	0	0	0.1051	0.048867	0.18701	0.28457	0.22872	0.0071865	0.087493	0.049511	0.15708	0.30032	0.0935	0.19305	0.21646	0.27393	0.10262	0.15742	-2.0771	-2.3625	-2.9375	-2.4313	-2.8792	-2.6625	-2.2812	-3.1729	-2.5312	-2.4604	-3.2479	-2.4729	-2.8646	-3.0229	-2.3104	-2.8917	491.292	245.233	261.263	441.107	262.371	339.249	334.823	376.942	367.964	384.464	491.260	153.236	405.557	484.825	302.227	266.699	0.00052805	0.00017148	0.00011923	1079.2	6.9707e-06	8.8315e-06	894.79	429.09	3.9382e-06	6.8919e-06	369.99	140.47	174.54	72.475	8.4077e-06	54.112	0.00069543	0.00064424	0.00019896	1100.3	7.3196e-06	7.0776e-06	910.91	438.56	7.5058e-06	6.8925e-06	380.24	143.6	177.39	73.502	7.9675e-06	55.614	247.538	258.655	215.648	155.513	333.207	271.433	153.303	160.879	175.361	317.408	157.566	161.766	165.542	170.684	278.133	165.043	-8191	255	
3578.304	1	1	0	0	0.15042	0.18637	0.03151	0.22694	0.057585	0.070291	0.19353	0.32106	0.07013	0.23591	0.20224	0.28889	0.46122	0.31229	0.142	0.1486	-2.25	-2.2208	-2.9958	-2.3	-2.7917	-2.7812	-2.5375	-3.0104	-2.6646	-2.5021	-3.1958	-2.5333	-2.825	-3.1979	-2.2729	-2.8958	425.056	363.278	454.382	430.700	247.852	345.789	203.851	409.003	293.157	319.008	499.873	181.610	461.939	484.885	496.876	328.993	0.00054247	0.0011767	0.00017301	1079.5	8.7444e-06	8.5364e-06	888.11	430.96	7.2068e-06	6.3913e-06	370.18	139.9	174.64	71.909	7.153e-06	53.55	0.00067661	0.00063739	0.00020814	1104	7.1665e-06	7.1648e-06	914.73	438.72	7.3014e-06	7.0269e-06	381	143.29	176.81	73.165	8.1353e-06	54.887	250.395	185.370	189.765	155.401	281.867	278.414	153.505	160.729	350.702	199.918	157.604	161.658	165.553	170.574	335.884	165.152	-8191	255	
3578.401	1	1	0	0	0.18954	0.22958	0.12376	0.10804	0.25744	0.054545	0.37481	0.16813	0.2265	0.19023	0.16394	0.059952	0.34993	0.17802	0.013686	0.11094	-2.2292	-2.2771	-2.8542	-2.6562	-2.5187	-2.9688	-2.4792	-3.1667	-2.9146	-2.4146	-3.05	-2.6104	-2.6021	-3.2625	-2.3792	-2.9208	243.413	209.133	282.910	442.879	350.627	255.125	439.497	455.201	295.258	374.691	181.282	262.612	495.276	184.096	359.123	344.539	0.00052639	0.0003622	0.00029776	1079.3	4.3568e-06	3.9399e-06	882.34	427.51	7.363e-06	4.0576e-06	366.7	138.33	173.14	71.507	1.012e-05	52.894	0.00064937	0.00065928	0.00020521	1096.9	6.861e-06	7.3961e-06	906.51	434.42	6.9566e-06	7.3495e-06	377.12	141.31	175.61	72.831	7.9599e-06	54.324	245.362	150.152	238.793	155.701	297.457	222.677	153.442	160.821	269.649	291.528	157.474	161.384	165.758	170.575	388.900	165.011	-8191	255	
3578.521	1	1	0	0	0.19779	0.061099	0.2986	0.11483	0.30073	0.23594	0.14862	0.48536	0.20263	0.093025	0.23055	0.24251	0.17295	0.2677	0.18571	0.22966	-2.5042	-2.2896	-2.9958	-2.9688	-2.2208	-3.1833	-2.5792	-2.8771	-2.9479	-2.3187	-3.0875	-2.725	-2.675	-3.1667	-2.4958	-2.5229	156.410	295.503	365.885	386.124	386.756	256.935	352.031	479.740	212.727	361.777	302.729	425.385	482.445	499.700	448.418	173.241	0.00055739	0.00071868	0.00017745	1060.7	4.8293e-06	5.9264e-06	884.3	425.44	5.73e-06	2.0766e-06	364.43	138.73	172.65	71.859	4.5673e-06	53.254	0.00061771	0.0006881	0.00019595	1085.6	6.6276e-06	7.576e-06	904.34	432.27	6.7926e-06	7.6372e-06	375.35	141.21	175.11	73.123	7.5113e-06	54.598	247.684	146.755	222.453	155.773	258.270	258.586	153.457	161.093	296.691	251.788	157.351	162.002	165.813	170.721	349.717	165.219	-8191	255	
3578.593	1	1	0	0	0.078115	0.34598	0.20397	0.21369	0.46678	0.03888	0.29973	0.18219	0.14269	0.16865	0.3696	0.16055	0.34111	0.26684	0.12314	0.16978	-2.5229	-2.3021	-2.9708	-2.8812	-2.5125	-2.9688	-2.5458	-2.6917	-2.7938	-2.2542	-2.7021	-2.7313	-2.5	-2.9708	-2.3521	-2.5458	177.317	271.966	431.309	486.737	181.785	497.484	458.236	385.220	176.450	457.350	471.564	163.121	429.903	470.193	271.547	350.717	0.00055492	0.0005291	0.00018088	1060	3.7561e-06	6.6767e-06	879.41	423.67	8.5056e-06	2.8757e-06	366.48	138.34	171.83	71.918	4.9317e-06	54.085	0.00062237	0.0006996	0.00018266	1081.8	6.7219e-06	7.7298e-06	900.19	430.56	6.8379e-06	7.6091e-06	375.51	141.75	175.03	73.186	7.0656e-06	55.087	248.273	276.398	234.191	155.661	240.494	241.621	153.679	161.051	285.263	473.034	157.496	161.762	165.814	170.943	272.647	165.431	-8191	255	
3578.689	1	1	0	0	0.17318	0.12859	0.19157	0.24437	0.20643	0.19448	0.21156	0.13991	0.30447	0.072713	0.28524	0.20776	0.37429	0.21403	0.14407	0.27065	-2.4667	-2.1958	-2.6604	-2.8083	-2.3583	-2.9167	-2.8083	-2.8125	-3.0104	-2.4021	-2.6708	-3.1042	-2.4896	-2.7854	-2.5521	-2.5208	443.157	228.712	500.768	492.873	393.322	170.155	499.720	447.908	196.522	236.023	447.484	425.905	500.357	468.331	202.321	208.532	0.00053931	0.0007515	0.00029063	1050.2	1.1268e-05	6.9528e-06	880.19	422.22	2.8819e-06	4.6976e-06	365.55	138.93	171.87	71.121	2.4555e-06	53.145	0.00064333	0.00069017	0.00017325	1072.9	6.9481e-06	7.4151e-06	897.96	427.85	7.208e-06	7.3663e-06	373.33	141.11	174.58	72.368	6.7075e-06	54.137	249.269	217.904	257.137	155.780	265.741	365.370	153.938	160.990	282.014	299.396	157.510	161.909	165.465	170.710	343.052	165.395	-8191	255	
3578.783	1	1	0	0	0.13511	0.10694	0.31006	0.23673	0.042819	0.35103	0.16805	0.10017	0.11846	0.10521	0.28613	0.23977	0.24332	0.27138	0.1952	0.1666	-2.7375	-2.4979	-2.2938	-2.8375	-2.2229	-2.7667	-2.8229	-2.4458	-2.9583	-2.6167	-2.4958	-2.9688	-2.4875	-3.1229	-2.6458	-2.4188	392.303	415.596	275.847	455.521	324.378	241.178	325.062	469.144	255.313	225.293	230.759	494.960	444.123	181.069	176.909	451.613	0.00057538	0.00052038	0.00012547	1048.9	8.0968e-06	7.4397e-06	870.31	416.93	9.6794e-06	5.2992e-06	362.3	138.8	170.89	71.068	6.6902e-06	52.916	0.00065759	0.00065425	0.00016465	1065.4	7.1473e-06	6.9916e-06	887.22	425.03	7.4411e-06	7.0978e-06	369.8	140.29	174.45	72.348	6.7038e-06	54.176	238.346	206.935	316.884	155.701	279.577	335.435	153.396	160.849	256.958	363.978	157.786	161.849	165.590	170.733	321.440	165.574	-8191	255	
3578.904	1	1	0	0	0.14131	0.26717	0.086254	0.22023	0.32001	0.10081	0.32291	0.1478	0.23053	0.3087	0.064049	0.30704	0.21693	0.26014	0.09861	0.18102	-2.6104	-2.5167	-2.5708	-2.9458	-2.3333	-2.925	-2.875	-2.5333	-3.075	-2.5604	-2.5417	-3.0042	-2.6458	-2.6458	-2.7687	-2.5292	340.310	334.225	366.497	151.356	374.808	432.045	442.861	441.853	337.767	344.062	209.177	476.042	156.087	172.716	319.251	433.325	0.00056628	0.00033094	0.00019533	1054.9	6.0845e-06	5.2701e-06	873.55	421.28	5.0334e-06	6.2896e-06	367.7	140.22	173.45	72.153	8.7451e-06	54.215	0.00069401	0.00065416	0.000166	1075.7	7.7436e-06	6.9884e-06	893.34	428.84	7.735e-06	7.0446e-06	373.42	142.08	175.8	72.91	6.7113e-06	55.082	252.508	250.647	250.863	155.463	326.813	314.934	153.725	160.772	263.905	324.184	157.009	161.287	165.355	170.222	306.025	164.934	-8191	255	
3579.000	1	1	0	0	0.13901	0.084012	0.2329	0.052407	0.19083	0.09468	0.17272	0.16212	0.047662	0.13852	0.17999	0.31493	0.34905	0.25205	0.17437	0.19073	-2.5104	-2.6354	-2.1958	-2.9604	-2.6708	-2.6479	-2.8854	-2.2521	-3.175	-2.5542	-2.5187	-3.2333	-2.5333	-2.5458	-2.875	-2.3167	392.506	463.064	349.765	214.493	190.371	320.659	207.040	216.100	195.759	484.042	470.450	439.015	499.376	493.985	358.559	181.695	0.00054182	0.00042994	8.8539e-05	1063.6	8.0101e-06	4.1038e-06	884.67	425.64	6.544e-06	4.6517e-06	370.03	140.73	172.7	72.15	5.8239e-06	54.314	0.00068904	0.00064548	0.0001659	1082.2	7.6387e-06	6.7831e-06	897.68	430.94	7.4348e-06	6.9141e-06	373.6	142.66	175.42	72.936	6.6665e-06	55.451	248.637	182.780	308.049	155.316	314.930	450.765	153.489	160.558	311.640	294.536	156.923	161.668	165.346	170.289	289.323	164.828	-8191	255	
3579.096	1	1	0	0	0.27278	0.024498	0.12469	0.43827	0.071117	0.0089783	0.44401	0.23846	0.20812	0.1691	0.21101	0.18114	0.21918	0.23817	0.073587	0.10292	-2.3792	-2.6917	-2.2979	-3.0229	-2.5	-2.5646	-2.8	-2.6312	-2.6104	-2.8771	-2.5104	-2.95	-2.5896	-2.7083	-2.95	-2.225	153.229	307.664	291.313	459.284	194.079	420.530	158.487	477.385	200.622	255.634	397.177	344.672	502.200	444.155	443.123	482.605	0.00050692	0.00018364	0.00010972	1052.9	7.1005e-06	2.3747e-06	879.14	420.54	5.6868e-06	2.6439e-06	366.17	139.41	172.04	71.034	9.4703e-06	53.013	0.00065297	0.00061274	0.00016525	1071.4	7.1512e-06	6.4648e-06	891.35	426.57	6.9178e-06	6.5692e-06	371.52	141.87	174.01	71.886	6.8913e-06	54.332	247.399	326.715	214.513	155.353	252.206	356.252	153.382	160.426	306.392	228.655	157.123	161.572	165.543	170.363	305.861	164.991	-8191	255	
3579.168	1	1	0	0	0.22176	0.19049	0.069502	0.092479	0.16394	0.066247	0.27221	0.097363	0.15378	0.080464	0.21409	0.20704	0.16439	0.40573	0.13561	0.08786	-2.1542	-2.7958	-2.2292	-3.0458	-2.5729	-2.6562	-3.0042	-2.3458	-2.9437	-2.6542	-2.3875	-2.925	-2.9688	-2.5542	-3.1375	-2.5604	485.323	356.291	239.909	398.580	348.562	461.442	459.314	470.266	389.099	447.591	421.911	234.365	148.903	469.276	217.190	340.159	0.00056183	0.0010266	0.00020814	1057.7	2.0825e-06	4.5501e-06	878.44	423.89	6.3569e-06	5.2635e-06	365.38	138.72	172.51	71.071	1.163e-05	53.389	0.00062274	0.00059795	0.00017563	1074.1	6.951e-06	6.3588e-06	893.51	428.98	6.867e-06	6.6176e-06	372.59	141.07	174.28	71.979	7.4883e-06	54.622	250.719	265.057	204.113	155.330	272.827	324.260	153.253	160.521	374.641	385.122	157.281	161.524	165.642	170.193	284.264	165.150	-8191	255	
3579.289	1	1	0	0	0.26467	0.20809	0.040564	0.082635	0.15057	0.23056	0.076019	0.37953	0.14657	0.11938	0.2322	0.25243	0.42632	0.081054	0.12492	0.19112	-2.1729	-2.8458	-2.0708	-3.0604	-2.6833	-2.4625	-3.25	-2.4833	-2.4792	-2.8021	-2.2687	-2.9688	-2.8	-2.7188	-2.8438	-2.425	284.060	394.360	383.568	207.237	224.191	261.545	150.626	472.363	173.084	376.454	462.362	481.373	442.701	456.978	215.305	147.837	0.00059035	0.00046833	0.00025409	1061.6	6.017e-06	1.0237e-05	881.65	422.79	6.4325e-06	4.5134e-06	368.23	139.67	173.69	71.619	5.1564e-06	54.135	0.00061863	0.00061313	0.00019201	1081.2	6.9614e-06	6.619e-06	898.13	429.69	6.8106e-06	6.7378e-06	374.74	141.64	174.95	72.535	7.7574e-06	54.988	242.759	210.044	245.028	155.467	307.051	301.602	153.239	160.615	271.625	303.662	157.363	161.618	165.414	170.347	289.554	165.006	-8191	255	
3579.385	1	1	0	0	0.13984	0.15073	0.10026	0.21635	0.26261	0.14577	0.080607	0.32855	0.26345	0.17306	0.16136	0.10437	0.3596	0.18969	0.19889	0.13544	-2.2458	-2.7021	-2.3937	-2.8542	-2.7729	-2.2562	-2.9917	-2.625	-2.4104	-2.8125	-2.325	-2.9396	-3.1771	-2.4396	-3.1104	-2.6417	300.179	204.864	371.112	439.881	266.275	240.332	143.568	434.816	346.934	173.236	474.512	415.768	149.196	442.472	371.726	333.990	0.00060569	0.00055174	0.00015461	1059.2	2.5273e-06	2.9069e-06	889.05	426.09	7.9865e-06	5.5568e-06	369.37	140.32	173.33	71.893	1.9225e-06	53.939	0.00061221	0.00063273	0.00019899	1076.7	6.8201e-06	6.8712e-06	903.58	430.24	6.6833e-06	7.0604e-06	378.2	142.54	175.38	72.872	7.7679e-06	55.192	244.140	171.313	235.450	155.240	310.718	283.949	153.428	160.563	286.637	231.102	157.489	161.519	165.721	170.248	237.264	165.157	-8191	255	
3579.481	1	1	0	0	0.1089	0.21321	0.4186	0.1253	0.12282	0.32546	0.22077	0.29748	0.11289	0.026705	0.37921	0.22223	0.1004	0.12809	0.17356	0.10676	-2.0583	-3.0667	-2.3604	-2.8312	-2.8104	-2.3	-3.1813	-2.7417	-2.45	-2.9938	-2.2375	-2.8729	-2.8542	-2.4854	-2.9875	-2.7083	369.242	238.126	405.507	488.268	502.074	298.818	390.691	476.066	306.135	386.304	449.553	437.989	445.433	155.859	464.630	151.655	0.00056873	0.0011416	0.00019948	1060.2	1.0743e-05	4.9246e-06	882.64	422.84	3.5476e-06	9.5362e-06	369.18	139.89	173.2	71.298	3.3929e-06	53.139	0.00059726	0.00066523	0.00019734	1074.5	6.721e-06	7.3099e-06	899.04	428.93	6.5774e-06	7.5245e-06	376.26	141.72	175.38	72.587	7.5735e-06	54.254	236.069	210.728	309.184	155.416	334.857	281.053	153.243	160.819	330.438	259.954	157.321	161.293	165.404	170.429	258.821	165.138	-8191	255	
3579.602	1	1	0	0	0.10128	0.34834	0.16239	0.35199	0.15138	0.17988	0.13182	0.33336	0.15695	0.16589	0.086213	0.12899	0.22623	0.36472	0.15869	0.20574	-2.2375	-2.9875	-2.45	-2.6896	-2.8104	-2.4292	-3.0417	-2.7333	-2.5625	-2.925	-2.6042	-2.5167	-3.2583	-2.4417	-2.675	-2.8354	205.842	229.324	240.142	183.018	412.630	421.940	489.860	441.993	224.232	240.006	302.429	468.442	452.028	158.356	390.023	451.867	0.00052434	0.00039359	0.00019255	1059.4	6.9611e-06	6.7411e-07	880.17	422.96	9.1715e-06	5.7512e-06	366.56	139.91	172.93	71.689	5.7626e-06	53.579	0.00061097	0.00070988	0.00019211	1075.8	6.8805e-06	7.7779e-06	897.76	429.17	6.8409e-06	7.7831e-06	374.83	141.54	175.28	72.831	7.2429e-06	54.57	247.134	277.451	203.073	155.441	274.507	456.939	153.363	160.652	261.817	262.119	157.766	161.341	165.552	170.285	353.808	165.192	-8191	255	
3579.696	1	1	0	0	0.17785	0.18655	0.058649	0.054358	0.041076	0.09898	0.2232	0.33185	0.19244	0.28812	0.39995	0.21323	0.3365	0.35333	0.2125	0.21847	-1.9729	-2.9979	-2.3542	-2.6083	-3.1396	-2.3	-3.0771	-2.9958	-2.4104	-3.0521	-2.6479	-2.5792	-3.2375	-2.4125	-2.6625	-2.8521	268.537	496.099	147.980	319.583	215.860	350.530	423.449	405.453	154.086	469.310	424.301	428.079	496.073	463.248	275.568	153.974	0.00057859	0.00052986	0.00011977	1059	6.5505e-06	7.6069e-06	879.21	424.02	1.7087e-06	6.9965e-06	368.03	139.99	173.61	72.069	9.5987e-06	54.156	0.00063881	0.00071787	0.00018581	1073.3	7.2393e-06	7.8971e-06	896.35	428.81	7.2994e-06	7.8028e-06	374.76	141.98	176.18	73.172	7.1323e-06	55.019	236.836	243.073	248.737	155.422	268.692	310.623	153.164	160.767	218.272	370.911	157.538	161.411	165.427	170.467	265.543	165.259	-8191	255	
3579.792	1	1	0	0	0.20558	0.1472	0.16599	0.22073	0.11823	0.12115	0.13416	0.14336	0.09414	0.51745	0.0036612	0.070851	0.1707	0.16452	0.17275	0.046764	-1.9708	-3.0458	-2.4562	-2.7208	-3	-2.3875	-2.8417	-2.8896	-2.525	-2.7896	-2.7667	-2.35	-3.2188	-2.3812	-2.5187	-3.0792	166.051	236.922	311.062	315.035	365.869	205.525	167.269	440.110	179.869	390.948	436.361	398.084	413.199	485.355	326.163	175.914	0.00055505	0.00035591	0.00020006	1055.4	7.4557e-06	8.0611e-06	888.04	424.6	4.0582e-06	6.4312e-06	367.59	141.08	173.19	71.524	6.5311e-06	53.757	0.00067706	0.00069678	0.00018277	1072.1	7.6443e-06	7.6014e-06	899.36	429.14	7.6408e-06	7.4092e-06	375.8	142.38	176.15	72.805	6.8674e-06	54.813	244.761	250.835	223.423	155.390	193.524	347.284	153.198	160.794	295.321	230.890	157.447	161.292	165.498	170.389	336.791	165.356	-8191	255	
3579.888	1	1	0	0	0.13958	0.093779	0.318	0.31755	0.14784	0.27427	0.15126	0.26743	0.14007	0.14892	0.13963	0.20848	0.20544	0.19405	0.17885	0.28438	-1.6375	-2.7667	-2.7396	-2.5417	-3.0187	-2.4313	-2.6063	-3.2104	-2.0333	-2.7438	-2.7729	-2.4938	-3.0792	-2.5938	-2.4896	-3	183.149	344.072	245.581	420.128	420.762	206.653	327.785	410.476	422.719	369.575	465.871	499.045	380.408	143.381	437.931	489.309	0.00059682	0.00052688	3.8427e-05	1055.8	3.8336e-06	4.5863e-06	879.62	423.72	5.6435e-06	1.0294e-05	364.24	139.01	171.32	70.546	3.8287e-06	52.738	0.0007092	0.00067206	0.00017907	1074.4	7.9403e-06	7.543e-06	895.96	429.3	8.275e-06	7.5522e-06	372.83	141.38	175.07	71.869	7.1537e-06	54.305	248.581	248.111	492.858	155.311	239.934	282.172	153.307	160.777	287.105	324.049	157.592	161.411	165.642	170.768	333.944	165.004	-8191	255	
3579.984	1	1	0	0	0.29832	0.061576	0.17676	0.2721	0.19166	0.1385	0.067104	0.51346	0.071294	0.11994	0.10898	0.2353	0.3005	0.37924	0.31314	0.26921	-1.7729	-2.7167	-3.0042	-2.425	-2.9688	-2.5771	-2.4771	-3.0708	-2.2542	-2.5396	-2.9604	-2.3438	-3.0833	-2.7438	-2.5125	-3.1167	437.540	425.445	278.679	426.948	184.004	218.175	475.104	479.010	157.559	186.637	489.401	437.215	494.737	442.216	221.672	335.799	0.00062646	0.00067405	0.00018828	1044.8	7.5171e-06	1.0327e-05	872.44	418.98	3.2897e-06	1.9553e-06	364.05	138.3	170.42	70.011	4.2928e-06	53.422	0.00076858	0.00069414	0.00018332	1069.9	8.4313e-06	7.7111e-06	892.72	427.54	8.5217e-06	7.5297e-06	373.16	142.68	174.89	71.905	7.2124e-06	54.994	241.411	203.649	262.763	155.663	298.906	301.788	153.684	160.624	266.671	277.200	157.468	161.444	165.634	170.894	250.927	165.188	-8191	255	
3580.081	1	1	0	0	0.25623	0.17306	0.15696	0.24184	0.095231	0.090728	0.25866	0.23073	0.27674	0.37919	0.23607	0.22036	0.084693	0.17436	0.12091	0.31842	-1.9708	-2.7042	-2.6542	-2.3896	-2.7458	-2.6312	-2.4313	-3.1	-2.3083	-2.6	-3.0187	-2.1729	-3.1063	-2.775	-2.2667	-3.0771	459.780	224.072	293.619	419.429	464.418	202.802	147.347	467.847	362.119	327.066	382.122	425.101	203.254	444.259	410.287	492.803	0.00056646	0.00073272	0.00031354	1046.1	7.9899e-06	5.5497e-06	881.6	419.6	5.0807e-06	6.4375e-06	370.17	140.44	172.31	71.292	2.9571e-06	53.941	0.00075504	0.00068587	0.00018933	1073.3	8.236e-06	7.6212e-06	898.53	428.47	8.2512e-06	7.4532e-06	376.88	144.31	175.58	72.478	7.6269e-06	55.882	250.101	245.399	224.500	155.472	330.191	302.128	153.209	160.728	273.124	232.973	157.657	161.297	165.417	170.584	298.763	165.256	-8191	255	
3580.201	1	1	0	0	0.20953	0.11348	0.28325	0.31529	0.14369	0.15468	0.096505	0.14835	0.084723	0.19229	0.27995	0.25153	0.32617	0.21535	0.21672	0.17531	-2.1042	-2.625	-2.8063	-2.4604	-2.8021	-2.6937	-2.6229	-3.0062	-2.3729	-2.4271	-2.9813	-2.6021	-2.7979	-3.1104	-2.2458	-3.0979	327.488	432.584	382.185	487.630	327.197	348.489	400.960	162.272	379.581	272.999	389.675	151.485	478.860	454.759	186.073	456.724	0.00052973	0.0004564	0.00023286	1055.5	1.2216e-05	5.0801e-06	890.57	423.9	1.2295e-06	3.5784e-06	370.34	141.63	172.82	71.337	5.574e-06	53.621	0.00073359	0.0006771	0.00019955	1082.7	7.9484e-06	7.5088e-06	909.5	432.62	8.0104e-06	7.3642e-06	380.96	145.78	176.58	72.498	8.2439e-06	55.655	245.019	270.799	223.545	155.533	329.338	291.258	153.379	160.789	283.528	263.503	157.392	161.678	165.548	170.612	264.897	165.493	-8191	255	
3580.297	1	1	0	0	0.2209	0.2299	0.049969	0.088626	0.20937	0.30014	0.119	0.19723	0.10066	0.1706	0.24766	0.1576	0.089475	0.18054	0.1157	0.15778	-2.0875	-2.3542	-2.9146	-2.4979	-2.6792	-2.825	-2.5521	-3.0583	-2.7083	-2.4604	-2.9813	-2.1854	-2.7313	-3.0917	-2.1896	-2.9896	363.081	449.213	213.057	444.570	220.583	289.833	424.327	326.978	385.584	145.591	501.837	224.056	427.626	469.580	366.777	423.003	0.00055751	0.00039516	0.00035991	1054.3	5.8427e-06	1.3531e-06	884.27	419.37	7.8289e-06	6.4427e-06	367.44	140.07	172.04	70.288	5.9156e-06	52.894	0.00071544	0.0006599	0.00021141	1081.7	7.6244e-06	7.3376e-06	908.73	429.76	7.6437e-06	7.1977e-06	379.56	143.91	175.23	71.793	8.5928e-06	54.836	251.766	165.585	200.059	155.734	344.002	366.906	153.569	160.759	330.956	311.771	157.391	161.579	165.465	170.530	279.758	165.289	-8191	255	
3580.393	1	1	0	0	0.021427	0.12603	0.098287	0.26577	0.12323	0.13312	0.02246	0.2368	0.076499	0.074144	0.15075	0.37405	0.23044	0.12992	0.23535	0.21957	-2.2104	-2.4333	-3.0708	-2.4854	-2.5625	-2.725	-2.3563	-3.1479	-2.7625	-2.5312	-3.1063	-2.4708	-2.6646	-3.0729	-2.2292	-2.9208	280.722	191.276	317.841	461.910	341.533	289.516	479.975	469.441	204.745	421.619	238.482	454.539	460.568	498.122	399.356	288.074	0.0005238	0.00074022	0.00032032	1047.1	4.1754e-06	6.7667e-06	884.79	420.36	3.0562e-06	9.686e-06	368.65	140.23	171.82	70.526	5.55e-06	53.104	0.00069495	0.00067354	0.00022007	1080	7.4191e-06	7.5616e-06	913.43	431.09	7.6787e-06	7.6929e-06	382.12	144.1	175.74	72.362	8.9263e-06	55.066	247.301	174.196	246.657	155.672	286.377	317.795	153.435	161.091	298.841	263.742	157.770	161.814	165.886	170.689	321.909	165.167	-8191	255	
3580.465	1	1	0	0	0.30934	0.23642	0.11509	0.18527	0.26413	0.14406	0.31847	0.048663	0.11534	0.044164	0.064197	0.48968	0.25018	0.26404	0.17707	0.085853	-2.2938	-2.3708	-2.85	-2.7021	-2.5104	-2.9625	-2.4417	-2.8208	-2.9917	-2.1854	-2.9958	-2.5625	-2.3792	-3.0312	-2.4271	-2.8208	315.088	199.937	369.127	423.985	278.550	437.535	455.196	300.611	223.670	378.863	439.115	473.814	480.433	468.712	398.511	475.115	0.00056711	0.00092496	0.00019058	1055.7	6.6406e-06	4.3287e-06	892.85	423.59	6.8482e-06	7.1626e-06	372.76	141.03	171.85	70.748	1.5018e-06	53.792	0.00068965	0.00073679	0.00022761	1088.7	7.4469e-06	8.3327e-06	922.55	433.92	7.6965e-06	8.4163e-06	385.91	145.41	176.61	72.932	8.9707e-06	55.674	244.934	180.191	241.199	155.612	319.490	241.337	153.371	160.828	329.318	305.521	157.596	161.906	165.808	170.746	329.546	165.653	-8191	255	
3580.586	1	1	0	0	0.21187	0.10847	0.13235	0.28072	0.12504	0.13521	0.4541	0.35771	0.30838	0.062622	0.13628	0.20269	0.11134	0.058189	0.2225	0.04646	-2.4458	-2.2604	-2.9021	-2.7167	-2.2812	-2.8604	-2.5917	-2.7708	-2.8896	-2.2438	-2.9625	-2.85	-2.5812	-3.0479	-2.2896	-2.7396	160.294	461.055	494.169	462.668	323.766	169.077	434.450	482.453	316.028	223.418	379.340	423.164	400.082	200.519	391.584	423.929	0.0006232	0.0007106	0.00016267	1072.9	9.8134e-06	3.8938e-06	898.87	428.15	7.3307e-06	8.6183e-06	371.39	141.42	174.39	71.111	1.1414e-06	53.12	0.00070302	0.00080901	0.00022508	1103.6	7.6417e-06	8.9602e-06	929.82	438.37	7.9451e-06	9.108e-06	387.17	145.49	178.2	73.079	8.823e-06	55.014	249.137	145.696	263.798	155.846	247.260	181.968	153.550	160.994	294.421	242.196	157.738	161.964	165.797	170.602	436.926	165.170	-8191	255	
3580.680	1	1	0	0	0.29757	0.060783	0.14152	0.21423	0.037168	0.043282	0.12901	0.094807	0.20303	0.048437	0.12515	0.19819	0.28006	0.24092	0.24306	0.30339	-2.6729	-2.2896	-2.8	-2.7604	-2.4104	-2.9042	-2.5521	-2.5375	-3.0333	-2.1562	-2.8583	-2.8292	-2.475	-3.1208	-2.4667	-2.7062	195.092	244.742	436.670	488.990	467.950	203.411	446.947	158.497	416.913	432.351	459.281	497.818	174.798	470.839	444.452	396.979	0.00062776	0.00029574	9.045e-05	1076.3	9.9627e-06	6.7472e-06	893.24	429.39	1.0287e-05	5.2373e-06	373.93	141.73	175.66	70.988	9.8749e-06	53.216	0.00074418	0.00085427	0.00021921	1107	8.2711e-06	9.4728e-06	925.64	440.12	8.7452e-06	9.5399e-06	384.94	145.43	179.91	73.289	8.7816e-06	55.005	244.567	340.754	266.273	155.759	275.304	254.427	153.954	161.217	299.308	214.552	157.345	161.481	165.447	170.756	330.613	165.118	-8191	255	
3580.776	1	1	0	0	0.16434	0.28042	0.058282	0.25611	0.081253	0.18682	0.2533	0.28051	0.054827	0.030621	0.21135	0.33376	0.19906	0.16654	0.19605	0.17207	-2.7208	-2.0729	-2.8625	-2.9708	-2.2938	-3.1667	-2.4771	-2.7938	-2.8979	-2.3083	-2.7208	-3	-2.6188	-3.0062	-2.6583	-2.3354	374.035	469.054	395.960	461.313	416.943	430.674	433.317	444.864	264.997	315.630	435.479	426.880	164.281	402.080	197.096	468.724	0.00062816	0.00010702	0.00019321	1082.1	8.0779e-06	1.5116e-06	897.45	431.98	5.1391e-06	4.4009e-06	373.05	143.12	177.16	72.417	8.0609e-06	53.998	0.00080858	0.00087325	0.0002182	1109.5	9.0963e-06	9.4582e-06	925.04	441.17	9.3265e-06	9.4431e-06	386.55	146.89	182.01	74.179	8.8212e-06	55.839	249.374	196.672	266.728	155.793	266.029	431.171	153.617	160.816	244.258	269.637	157.653	161.712	165.412	170.254	312.232	165.265	-8191	255	
3580.872	1	1	0	0	0.25196	0.096195	0.12475	0.073127	0.16086	0.32779	0.21303	0.15726	0.22656	0.055541	0.11073	0.17199	0.12148	0.18571	0.1628	0.20288	-2.6729	-2.5542	-2.4813	-2.85	-2.2938	-2.8396	-2.8104	-2.5896	-2.9375	-2.3417	-2.6125	-3.0458	-2.5354	-2.9667	-2.7125	-2.6125	289.514	357.401	270.138	185.931	443.025	360.310	477.230	409.920	150.621	456.424	318.531	429.180	442.493	475.784	365.109	155.614	0.00057461	0.0011362	8.8359e-05	1089.3	6.1317e-06	5.4589e-06	903.82	435.54	7.6913e-06	5.0562e-06	377.75	143.68	177.31	72.509	4.9924e-06	54.381	0.0008743	0.00086421	0.0002194	1118.6	9.8011e-06	9.2704e-06	930.23	444.56	9.8949e-06	9.1639e-06	388.34	148.1	182.83	74.378	8.6476e-06	56.518	250.775	251.658	248.384	155.637	215.562	411.770	153.476	160.412	293.552	373.428	157.517	161.674	165.427	170.597	223.020	165.198	-8191	255	
3580.969	1	1	0	0	0.13384	0.17935	0.36493	0.038653	0.11437	0.1562	0.21955	0.19163	0.060834	0.22868	0.12192	0.019132	0.17567	0.17261	0.20875	0.29262	-2.4771	-2.3187	-2.3854	-3.1437	-2.4292	-2.85	-2.9375	-2.4313	-2.9021	-2.5604	-2.4458	-3.1604	-2.4583	-2.8333	-2.9042	-2.2417	364.941	219.907	210.374	231.620	475.884	177.121	402.396	374.987	402.036	399.466	390.351	471.400	462.411	386.324	478.652	334.062	0.00056331	0.0011157	0.00018108	1084.2	6.2885e-06	4.8968e-06	895.46	431.57	7.1559e-06	8.654e-06	373.56	142.38	175.14	71.313	1.0799e-05	53.064	0.00089094	0.00082728	0.00020979	1117.4	9.764e-06	8.751e-06	925.33	443.63	9.6634e-06	8.8176e-06	385.03	147.28	180.89	73.32	8.2652e-06	55.513	250.039	208.320	254.294	155.841	272.920	350.374	153.719	160.860	305.922	292.636	157.589	161.692	165.730	170.847	269.890	165.345	-8191	255	
3581.065	1	1	0	0	0.01383	0.058775	0.33987	0.13241	0.11744	0.093355	0.26757	0.35642	0.28497	0.22246	0.18866	0.14797	0.25115	0.51854	0.10946	0.26808	-2.55	-2.5292	-2.2875	-3.0521	-2.175	-2.6354	-2.9813	-2.55	-2.8438	-2.8354	-2.4521	-3.1125	-2.5271	-2.6625	-3.0958	-2.1521	241.829	415.475	487.569	176.121	260.852	245.171	371.990	476.815	346.111	347.005	386.380	447.927	429.657	457.960	448.160	478.835	0.00062266	0.00013657	0.00032753	1070.9	5.9264e-06	8.4041e-06	890.9	428.25	4.6731e-06	4.2242e-06	372.81	141.1	174.75	71.386	5.291e-06	53.46	0.00084778	0.00078158	0.00020456	1108.8	9.2208e-06	8.3534e-06	917.42	440.03	9.1111e-06	8.4043e-06	383.05	146.13	179.39	73.043	8.4482e-06	55.601	249.769	250.480	201.132	155.650	339.232	368.520	153.722	160.885	350.223	258.814	157.363	161.463	165.497	170.665	302.591	165.119	-8191	255	
3581.161	1	1	0	0	0.041374	0.028123	0.32249	0.22869	0.20766	0.090387	0.12804	0.35764	0.21429	0.26965	0.16919	0.20088	0.37501	0.3502	0.10026	0.28761	-2.4396	-2.7521	-2.0021	-3.2687	-2.3937	-2.5812	-3.0854	-2.5438	-2.8063	-2.7875	-2.3354	-3.0479	-2.8333	-2.5938	-3.1562	-2.3396	251.613	254.835	312.896	463.274	192.348	279.036	440.754	486.466	331.333	258.767	301.040	431.350	439.447	205.993	225.260	442.860	0.00056484	0.00057646	0.00021527	1076.2	1.0943e-05	1.8854e-06	896.37	429.4	6.4649e-07	1.0003e-05	371.83	140.98	174.71	71.113	8.515e-06	53.24	0.00080947	0.00076769	0.00021585	1112.9	8.9864e-06	8.205e-06	925.36	442.18	8.8824e-06	8.4045e-06	384.96	146.79	179.53	73.13	9.076e-06	55.998	251.057	236.722	165.744	155.515	339.780	271.871	153.763	160.679	382.179	304.692	157.465	161.757	165.869	170.675	273.198	165.587	-8191	255	
3581.282	1	1	0	0	0.20984	0.32607	0.23595	0.14931	0.20569	0.080977	0.1321	0.070795	0.17345	0.1076	0.24867	0.30447	0.36294	0.21197	0.16597	0.15966	-2.4917	-2.7375	-2.1813	-3.1333	-2.6688	-2.4458	-2.9542	-2.5979	-2.5687	-2.7562	-2.5521	-3.1396	-2.65	-2.3375	-2.9958	-2.5146	225.356	258.635	479.877	278.867	496.888	203.719	195.998	404.483	481.930	408.188	278.129	251.815	502.447	456.499	197.220	254.140	0.00048422	0.00026115	0.00013743	1083.1	4.9009e-06	2.3597e-06	900.18	428.46	3.9214e-06	6.404e-06	373.31	142.17	175.58	71.928	7.4826e-06	54.04	0.00079602	0.00075679	0.00023337	1118.2	8.8335e-06	8.1587e-06	931.09	442.85	8.7373e-06	8.3665e-06	388.65	147.39	179.97	73.736	9.7245e-06	56.456	237.659	260.461	185.599	155.744	288.372	393.441	153.817	160.932	329.600	285.832	157.790	161.862	165.582	170.385	312.446	164.943	-8191	255	
3581.378	1	1	0	0	0.14669	0.14841	0.21983	0.268	0.20333	0.2054	0.22093	0.31321	0.17357	0.24356	0.11108	0.21578	0.40553	0.25583	0.2987	0.083984	-2.275	-2.6729	-2.2708	-3.0312	-2.475	-2.5	-3.1229	-2.6083	-2.7083	-2.9875	-2.1979	-2.8875	-2.95	-2.5229	-3.0458	-2.5083	318.086	232.306	374.591	156.259	458.299	287.553	437.049	450.386	382.316	211.712	416.007	426.849	473.330	204.542	356.184	301.689	0.00062016	0.00054343	8.0479e-05	1078.5	8.567e-06	5.6682e-06	896.82	430.14	4.5192e-06	8.2706e-06	372.48	140.72	174.03	71.543	4.7285e-06	52.801	0.00078435	0.00077181	0.00024771	1116.3	8.5909e-06	8.331e-06	931.33	442.02	8.4305e-06	8.5447e-06	387.79	145.72	178.86	73.16	9.8899e-06	55.219	240.980	166.915	193.530	155.601	287.298	313.696	153.971	161.024	311.025	254.549	157.424	161.682	165.645	170.456	245.205	165.564	-8191	255	
3581.474	1	1	0	0	0.21084	0.11579	0.40961	0.05589	0.17117	0.29495	0.13675	0.2335	0.23085	0.084387	0.30265	0.18328	0.14758	0.2284	0.22553	0.0575	-2.0125	-2.9083	-2.3229	-2.8583	-2.7375	-2.0854	-2.9146	-2.7833	-2.4583	-2.9771	-2.375	-2.6813	-3.1437	-2.4042	-2.7625	-2.5917	257.608	265.645	224.904	274.204	432.324	479.796	284.792	478.860	284.705	448.812	148.338	424.046	391.288	474.402	360.886	446.665	0.00059724	0.0012442	0.00013476	1083.8	7.8824e-07	7.7718e-06	895.82	430.38	7.6191e-06	1.1458e-05	370.51	140.53	175.2	71.784	5.1606e-06	53.372	0.00075532	0.00080336	0.00025293	1110.5	8.4518e-06	8.9067e-06	926.93	440.72	8.2638e-06	9.1485e-06	385.56	144.74	179.01	73.569	9.7212e-06	55.202	247.013	228.989	310.800	155.539	354.580	279.338	153.468	160.683	274.219	241.496	157.377	161.539	165.574	170.422	321.398	165.084	-8191	255	
3581.570	1	1	0	0	0.079333	0.075201	0.13738	0.22388	0.21929	0.38492	0.15548	0.28549	0.10116	0.1104	0.26458	0.074916	0.22132	0.32568	0.18244	0.074004	-1.9125	-2.6771	-2.3	-2.8563	-2.6354	-2.2917	-2.8708	-2.7229	-2.2458	-3.0167	-2.4854	-2.5771	-3.0146	-2.1063	-2.8958	-2.6854	210.282	283.401	396.023	488.088	247.962	396.605	477.972	444.285	259.910	349.698	331.270	282.079	477.889	405.586	351.251	332.004	0.00059622	0.00080398	4.6341e-05	1086.4	1.1171e-05	1.3645e-05	898.09	432.23	8.2216e-06	7.2572e-06	373.39	141.47	176.24	72.395	5.9854e-06	54.261	0.00074706	0.00087658	0.00025039	1118.1	8.5175e-06	9.5603e-06	928.78	442.68	8.3605e-06	9.667e-06	386.82	145.47	180	74.257	9.2931e-06	55.933	254.581	170.881	267.988	155.452	317.691	285.143	153.406	160.873	302.088	211.490	157.368	161.139	165.647	170.345	297.388	165.060	-8191	255	
3581.691	1	1	0	0	0.094564	0.10853	0.049674	0.15904	0.43604	0.25936	0.038962	0.14742	0.14501	0.29634	0.16133	0.17782	0.081261	0.38413	0.1801	0.23449	-1.6896	-2.9146	-2.2188	-2.775	-2.9375	-2.2229	-3.0375	-2.9188	-2.4437	-2.95	-2.4979	-2.7854	-3.2667	-2.5625	-2.6958	-2.8292	161.296	393.770	416.457	339.853	457.885	223.619	432.053	473.930	463.066	150.126	389.601	456.380	153.084	455.259	419.355	457.100	0.00064374	0.00048731	0.00025869	1088.2	5.9421e-06	1.2414e-05	901.24	435.99	5.9063e-06	5.6192e-06	372.75	142.09	176.42	72.865	8.7556e-06	54.063	0.00076427	0.00089953	0.00023644	1116.6	8.6253e-06	9.9105e-06	928.96	445.61	8.7573e-06	1.003e-05	386.86	146.07	181.28	74.899	9.0014e-06	56	249.082	255.764	219.426	155.620	150.994	262.022	153.467	160.885	257.049	310.234	157.370	161.736	165.762	170.454	316.599	165.168	-8191	255	
3581.762	1	1	0	0	0.46032	0.11726	0.10777	0.36027	0.083937	0.27389	0.24421	0.35299	0.071621	0.17174	0.28435	0.07297	0.087467	0.37044	0.084809	0.33846	-1.8625	-2.9771	-2.3688	-2.6667	-3.0271	-2.2604	-2.8812	-2.7979	-2.2062	-2.8479	-2.775	-2.4313	-3.1875	-2.4917	-2.6604	-2.9062	170.104	441.670	417.952	489.930	427.635	348.626	165.170	457.595	236.285	434.189	453.506	184.839	415.569	439.451	476.704	450.698	0.00051376	0.00062458	0.00029978	1087.9	9.4009e-06	1.0195e-05	897.76	435.64	5.5869e-06	6.5226e-06	370.74	140.46	176.58	72.236	3.5916e-06	53.025	0.00080433	0.00088837	0.00022759	1115.6	9.1115e-06	9.736e-06	923.04	443.4	9.2439e-06	9.61e-06	382.73	144.28	180.86	73.999	8.8236e-06	54.944	245.438	204.975	285.296	155.421	283.352	288.940	153.354	160.543	236.595	319.309	157.793	161.494	165.521	170.562	224.150	165.112	-8191	255	
3581.881	1	1	0	0	0.093774	0.057871	0.17388	0.27869	0.066927	0.15265	0.11504	0.32992	0.29473	0.079595	0.072838	0.15822	0.13834	0.14381	0.27161	0.16284	-2.0062	-2.7604	-2.5354	-2.5542	-2.9813	-2.2958	-2.7479	-3.0396	-2.2771	-2.9333	-2.8396	-2.5083	-3.2125	-2.6625	-2.5646	-2.9562	199.143	300.291	283.470	459.617	169.088	292.833	167.374	461.109	210.877	146.902	485.088	496.104	469.791	489.353	379.044	426.191	0.00052834	0.00013326	0.0003059	1084.6	8.9063e-06	3.6078e-06	889.61	431.21	3.9548e-06	5.0926e-06	368.57	139.57	175.55	72.042	4.5062e-06	53.649	0.00086709	0.00087129	0.00022579	1115.1	9.7051e-06	9.4879e-06	917.77	443.09	9.8279e-06	9.3629e-06	381.83	144.31	180.89	74.064	8.5931e-06	55.561	248.768	239.784	214.621	155.610	287.576	284.390	153.861	161.092	288.382	403.032	157.645	161.742	165.994	170.554	317.144	164.988	-8191	255	
3581.977	1	1	0	0	0.14353	0.31872	0.089642	0.25549	0.23514	0.26061	0.24626	0.21229	0.19733	0.26524	0.095777	0.25693	0.20313	0.10892	0.20907	0.18099	-1.8333	-2.7146	-2.4562	-2.6083	-2.8271	-2.4167	-2.7188	-2.8854	-2.3833	-2.75	-2.9333	-2.4167	-3.0333	-2.6167	-2.3271	-3.2521	384.429	261.528	261.275	500.295	266.177	270.042	164.704	165.722	415.603	203.992	197.842	491.942	474.784	163.336	356.573	408.714	0.00058175	0.00076731	9.0947e-05	1093.3	2.9575e-06	1.0146e-05	899.56	435.28	1.1006e-06	3.3218e-06	371.32	141.64	177.14	72.567	6.2173e-06	54.377	0.00090948	0.00084656	0.0002258	1123.9	1.0233e-05	9.2923e-06	923.01	445.11	1.0149e-05	9.0298e-06	383.56	145.73	181.74	74.477	8.4681e-06	56.234	245.626	253.804	211.303	155.567	367.478	281.041	153.557	160.615	168.993	293.584	157.399	161.305	165.509	170.487	333.277	165.166	-8191	255	
3582.073	1	1	0	0	0.23519	0.18954	0.19697	0.28026	0.31149	0.15056	0.20126	0.16256	0.13201	0.23859	0.080581	0.17188	0.11168	0.35286	0.12167	0.11338	-1.8167	-2.5812	-2.8896	-2.4146	-2.9083	-2.5563	-2.4625	-3.0646	-2.3063	-2.525	-3.0479	-2.3417	-3.0375	-2.9292	-2.3083	-3.0729	308.547	436.126	209.468	406.572	201.350	310.163	313.099	412.745	161.857	347.020	398.130	430.778	391.605	404.637	455.454	460.116	0.00057379	0.00035192	0.00016109	1097.2	1.1896e-05	4.127e-06	901.68	438.3	3.1599e-06	4.0262e-06	373.24	142.24	177.93	72.431	4.2402e-06	54.214	0.00090209	0.00081045	0.00022136	1128.6	9.8355e-06	9.0807e-06	923.03	447.46	9.8524e-06	8.7841e-06	384.1	146.69	181.79	74.287	8.5647e-06	56.27	243.520	477.385	179.436	155.289	354.218	286.300	153.313	160.503	324.020	278.140	157.090	161.207	165.439	170.460	283.195	165.014	-8191	255	
3582.170	1	1	0	0	0.21337	0.23094	0.0083359	0.10447	0.064992	0.093319	0.085462	0.18646	0.28955	0.12396	0.18454	0.085879	0.24341	0.27147	0.15761	0.13874	-1.8167	-2.5729	-2.75	-2.4604	-2.775	-2.7875	-2.3854	-3.2313	-2.2583	-2.4313	-2.9	-2.2125	-2.7396	-2.8083	-2.5542	-2.9979	345.410	249.822	164.411	145.140	233.993	388.801	415.089	381.209	387.838	481.140	267.076	492.902	375.653	497.103	265.006	470.445	0.00058504	0.00034679	0.00018678	1094.1	7.2081e-06	1.5864e-05	893.59	434.42	4.4409e-06	3.7034e-06	367.93	140.14	175.79	71.954	3.7892e-06	53.045	0.00086762	0.00079528	0.00022468	1124.2	9.4437e-06	8.8434e-06	915.83	445.21	9.5486e-06	8.5886e-06	379.89	144.89	180	73.534	9.0037e-06	55.416	238.209	276.321	202.030	155.226	317.823	257.482	153.181	160.656	253.565	278.725	157.300	161.491	165.607	170.483	306.240	165.084	-8191	255	
3582.266	1	1	0	0	0.038216	0.11977	0.28782	0.26398	0.22114	0.11126	0.13492	0.2437	0.094307	0.21451	0.20101	0.15707	0.13335	0.23103	0.073831	0.19364	-2.0604	-2.4229	-2.8729	-2.3375	-2.9042	-2.6458	-2.5062	-3.0563	-2.275	-2.4667	-2.8688	-2.4208	-3.0771	-2.9667	-2.1667	-3.1458	248.087	410.124	250.869	445.823	422.757	354.368	388.046	444.852	342.263	445.393	149.985	251.892	199.360	482.527	395.492	229.299	0.00042594	0.001002	0.00018795	1085.3	6.115e-06	3.1357e-06	888.25	430.59	6.5838e-06	1.0505e-05	365.23	138.98	174.11	71.646	1.0737e-05	53.101	0.00083062	0.00076935	0.0002342	1116.9	8.9607e-06	8.5558e-06	916.23	442.64	8.9906e-06	8.1772e-06	381.43	144.68	178.73	73.492	9.2934e-06	55.533	245.964	262.790	200.073	155.567	269.905	289.788	153.413	161.015	327.781	281.284	157.676	161.737	165.771	170.815	255.220	165.595	-8191	255	
3582.362	1	1	0	0	0.069007	0.041134	0.12806	0.31001	0.18622	0.29482	0.1324	0.050031	0.24482	0.10941	0.076119	0.066291	0.30426	0.29478	0.29449	0.15561	-2.1833	-2.3458	-2.9813	-2.4125	-2.6125	-2.8312	-2.4354	-2.9604	-2.6083	-2.35	-2.9688	-2.5625	-2.6312	-2.8771	-2.2875	-2.9417	204.989	411.144	405.824	155.347	325.116	161.261	382.271	370.784	329.778	296.146	501.851	273.930	440.380	463.739	304.629	451.547	0.00052381	0.00056714	3.1041e-05	1076	5.4952e-06	9.929e-06	884.35	427.88	5.8687e-06	7.5043e-06	369.5	139.84	173.71	71.815	6.2176e-06	53.635	0.00078132	0.00072735	0.00023734	1105.6	8.2213e-06	8.0106e-06	914.46	438.44	8.2704e-06	7.864e-06	383.23	144.39	177.72	73.447	9.1935e-06	55.657	249.362	230.406	299.265	155.553	314.445	293.913	153.677	160.622	338.264	304.158	157.677	161.609	165.831	170.843	259.026	165.274	-8191	255	
3582.458	1	1	0	0	0.064707	0.14966	0.052883	0.056963	0.17565	0.22116	0.27722	0.10294	0.0787	0.12303	0.3264	0.13831	0.079447	0.29343	0.2175	0.28897	-2.2313	-2.4208	-3.0896	-2.4813	-2.6375	-2.7667	-2.1875	-3.0021	-2.6167	-2.1604	-3.0854	-2.4292	-2.5146	-3.0125	-2.3812	-2.5917	413.159	177.292	165.741	463.080	322.491	401.406	400.962	472.226	356.287	248.674	450.244	457.079	158.777	480.302	300.403	478.134	0.0004422	0.00037507	3.4198e-05	1065.3	6.0496e-06	1.114e-05	881.01	424.38	4.7548e-06	7.8511e-06	364.93	138.93	172.55	71.202	2.7146e-06	53.064	0.00073063	0.00072501	0.00023435	1093.5	7.6965e-06	8.1142e-06	914.43	434.59	7.87e-06	8.12e-06	381.14	143.48	176.59	73.075	8.9566e-06	54.921	248.184	183.481	456.265	155.821	339.067	263.674	153.681	160.890	358.590	219.059	157.530	161.784	165.687	170.774	332.091	165.362	-8191	255	
3582.554	1	1	0	0	0.21394	0.11533	0.13523	0.26568	0.22156	0.17774	0.18592	0.26651	0.097379	0.26124	0.10935	0.13826	0.16473	0.25218	0.096917	0.16307	-2.4938	-2.3458	-3.0125	-2.7708	-2.4854	-2.7396	-2.5208	-2.7229	-2.9771	-2.3042	-2.8917	-2.5958	-2.3688	-3.0333	-2.2667	-2.7354	354.955	269.504	203.882	470.512	426.882	263.768	394.543	490.319	154.275	486.061	474.265	238.204	440.522	454.765	431.301	397.805	0.00050711	0.00029494	0.00037981	1052.1	6.8169e-06	8.8214e-06	869.91	419.35	6.267e-06	1.52e-06	360.33	137.26	171.38	71.187	9.0203e-06	52.684	0.00069695	0.00075713	0.00022258	1080.2	7.4613e-06	8.4311e-06	900.1	429.72	7.6333e-06	8.5425e-06	375.6	141.99	175.49	72.831	8.9007e-06	54.438	243.986	160.662	258.604	155.827	303.935	231.921	153.437	160.750	295.806	454.673	157.683	161.865	165.612	170.570	330.904	165.359	-8191	255	
3582.650	1	1	0	0	0.1745	0.17246	0.27907	0.17062	0.13115	0.081172	0.1331	0.24782	0.16396	0.04	0.33936	0.17479	0.18375	0.28	0.067538	0.13184	-2.4833	-2.1188	-2.7958	-2.7771	-2.5104	-3.0167	-2.4188	-2.8917	-2.6354	-2.2146	-3.0708	-2.6688	-2.5042	-3.35	-2.1708	-2.5687	273.058	225.168	469.617	164.738	399.742	301.358	489.447	450.260	407.926	475.052	496.199	502.504	500.956	498.902	394.082	354.435	0.00051244	0.00031444	9.409e-05	1061.2	1.605e-05	7.0244e-06	877.63	421.43	9.9161e-06	4.0534e-06	365.08	138.46	173.26	71.5	6.3685e-06	53.044	0.0007187	0.00082342	0.00022364	1087.4	7.9495e-06	9.2577e-06	905.19	432.13	8.2197e-06	9.3945e-06	378.01	142.87	176.78	73.46	8.8307e-06	54.856	243.456	267.233	246.703	155.745	282.598	192.175	153.683	160.943	261.618	223.242	157.582	161.644	165.660	170.458	273.910	165.266	-8191	255	
3582.769	1	1	0	0	0.11477	0.12157	0.11228	0.17605	0.14972	0.21299	0.10334	0.17213	0.14866	0.0075911	0.13992	0.20327	0.13315	0.061083	0.25643	0.22075	-2.5521	-2.225	-2.8792	-2.8667	-2.1542	-2.9437	-2.4938	-2.6125	-2.8771	-2.3646	-2.7583	-2.7917	-2.525	-2.9896	-2.3	-2.5979	362.124	255.504	438.867	376.005	298.007	434.783	455.817	405.212	478.521	197.785	389.885	161.894	486.057	153.897	373.511	454.312	0.00052595	0.00022246	0.00015466	1067.7	8.988e-06	1.0507e-05	883.53	425.97	4.9925e-06	2.3417e-06	366.58	139.69	173.75	71.812	9.4594e-06	53.721	0.00078132	0.00088283	0.0002242	1093.1	8.803e-06	9.7549e-06	910.91	434.36	9.2584e-06	9.9043e-06	380.18	143.38	177.89	73.71	9.0502e-06	55.365	241.299	273.087	291.663	155.396	271.230	313.946	153.398	160.674	259.103	357.965	157.426	161.576	165.437	170.636	317.389	165.162	-8191	255	
3582.865	1	1	0	0	0.13984	0.084373	0.36018	0.21538	0.093142	0.13955	0.18831	0.11971	0.055548	0.20268	0.10353	0.069521	0.40817	0.30544	0.21437	0.064325	-2.4708	-2.2313	-2.5625	-2.9833	-2.1917	-2.675	-2.7875	-2.4062	-2.9375	-2.2521	-2.6896	-3.0229	-2.4792	-2.7104	-2.7542	-2.3083	309.364	400.180	273.775	445.997	478.369	178.220	161.334	473.527	446.078	240.573	408.620	170.505	492.172	160.451	244.763	268.182	0.00054272	0.00090607	0.00014953	1070	9.1389e-06	4.484e-06	889.61	426.61	8.1635e-06	7.5833e-06	368.36	139.11	172.34	71.093	2.5737e-06	52.796	0.00086584	0.00089044	0.00022141	1097.2	9.4139e-06	9.3849e-06	914.02	433.97	9.535e-06	9.3135e-06	378.81	142.52	176.84	72.708	8.5287e-06	54.37	240.547	209.620	232.989	155.473	287.090	250.558	153.621	160.567	304.327	279.961	157.244	161.578	165.546	170.454	269.653	165.117	-8191	255	
3582.962	1	1	0	0	0.17129	0.070786	0.098655	0.29192	0.26986	0.15373	0.10671	0.1963	0.06878	0.22714	0.172	0.084824	0.16205	0.10581	0.16033	0.30097	-2.6375	-2.4333	-2.7271	-2.8646	-2.1188	-2.8187	-2.7438	-2.6125	-2.8896	-2.5292	-2.5042	-3.0833	-2.3937	-2.775	-2.8333	-2.3208	318.493	228.943	487.249	263.342	432.447	302.137	180.353	491.193	255.691	310.294	381.206	476.768	447.489	182.003	205.017	170.140	0.00058682	0.00046105	0.00013303	1069.3	6.7109e-06	6.8893e-06	878.93	423	5.7769e-06	9.342e-06	364.78	137.63	171.53	70.754	8.5559e-06	52.143	0.00086084	0.00082924	0.00020977	1094	9.5076e-06	8.7807e-06	905.42	432.03	9.5743e-06	8.703e-06	375.45	141.87	176.17	72.296	8.0648e-06	54.333	248.280	241.428	277.614	155.627	231.332	311.214	153.440	160.567	279.824	329.852	157.238	161.756	165.787	170.317	355.668	165.110	-8191	255	
3583.058	1	1	0	0	0.17774	0.18245	0.20046	0.088515	0.04193	0.1539	0.32651	0.25716	0.30318	0.065658	0.33125	0.12587	0.27359	0.15801	0.076781	0.45342	-2.5625	-2.4125	-2.4146	-3.1271	-2.3333	-2.8479	-2.7458	-2.45	-2.7438	-2.5542	-2.4417	-3.05	-2.3625	-2.7458	-2.7438	-2.3375	442.169	170.554	299.110	414.390	353.767	261.860	371.604	485.576	323.494	308.848	473.185	465.595	451.304	484.111	264.954	400.526	0.00057641	0.00092916	9.7591e-05	1073.7	7.6654e-06	2.9662e-06	880.05	425.27	4.8697e-06	4.5021e-06	366.78	138.77	171.71	70.702	1.1916e-05	52.639	0.00084142	0.00078035	0.00019936	1099.3	9.3014e-06	8.2026e-06	908.47	435.11	9.0795e-06	8.3912e-06	376.77	143.17	177.07	72.674	7.9635e-06	55.031	243.618	240.919	288.182	155.673	318.116	305.621	153.844	160.992	287.144	318.779	157.382	161.706	165.825	170.770	284.471	165.299	-8191	255	
3583.154	1	1	0	0	0.15431	0.20517	0.1884	0.12213	0.17866	0.23613	0.18898	0.33394	0.087022	0.085894	0.30355	0.29392	0.28949	0.38604	0.14443	0.10333	-2.5833	-2.6042	-2.2896	-3.0438	-2.1104	-2.6813	-2.9542	-2.3729	-2.8646	-2.7479	-2.3229	-2.9896	-2.5125	-2.6417	-2.8646	-2.2083	204.967	301.202	463.566	197.592	487.736	448.318	423.634	464.879	343.358	214.096	473.759	447.836	496.366	475.869	152.469	409.071	0.00055616	0.00032351	0.00014175	1074.1	6.0501e-06	5.5298e-06	887.55	424.86	5.9175e-06	2.9619e-06	370.47	139.3	172.52	71.148	1.0781e-05	53.393	0.00080483	0.00075409	0.00020091	1106.4	8.802e-06	7.9895e-06	916.22	437.95	8.6881e-06	8.1897e-06	380.79	144.54	177.33	73.01	8.3282e-06	55.765	253.251	394.588	259.272	155.580	307.646	289.649	153.751	160.816	333.873	400.832	157.562	161.976	165.846	170.774	261.394	165.388	-8191	255	
3583.250	1	1	0	0	0.13181	0.15987	0.11914	0.071007	0.17173	0.28494	0.081625	0.18441	0.19178	0.090339	0.024366	0.24546	0.20608	0.34365	0.20326	0.14693	-2.2167	-2.6312	-2.2854	-3.2021	-2.3438	-2.3958	-3.0667	-2.3604	-2.6708	-2.9146	-2.2542	-3.0083	-2.8	-2.5125	-2.9771	-2.5521	460.844	275.338	201.513	220.545	447.658	358.051	432.743	433.605	192.701	337.364	340.195	452.475	259.118	496.097	373.314	248.718	0.00053945	0.00052745	0.00018227	1087.9	6.6056e-06	8.116e-06	899.44	429.48	7.1586e-06	4.1208e-06	370.41	140.19	173.61	71.187	6.2383e-06	53.056	0.00077842	0.00073972	0.00021302	1116.2	8.6701e-06	7.9271e-06	921.53	439.39	8.4219e-06	7.9922e-06	381.1	144.41	177.1	72.408	8.6888e-06	54.875	247.406	195.761	171.526	155.631	332.337	373.559	153.121	160.650	312.848	324.671	157.202	161.567	165.580	170.374	298.067	165.230	-8191	255	
3583.371	1	1	0	0	0.12402	0.091823	0.22971	0.02017	0.14747	0.044326	0.16264	0.3504	0.1083	0.13879	0.31896	0.24917	0.33778	0.24793	0.22246	0.28591	-2.4083	-2.9625	-2.2313	-3.1208	-2.5083	-2.6042	-3.3292	-2.3833	-2.9125	-2.8458	-2.225	-3.0938	-2.6604	-2.5625	-2.9708	-2.5146	443.104	202.475	369.021	188.659	274.143	307.765	152.409	461.052	207.071	174.716	451.667	467.572	465.737	151.600	182.554	371.468	0.00054016	0.0003496	0.00021567	1068.8	6.7744e-06	6.7838e-06	888.69	424.29	4.4383e-06	8.3383e-06	368.13	139.38	173.06	71.184	5.0281e-06	53.245	0.00072553	0.00069813	0.00021667	1097.2	7.9423e-06	7.3697e-06	910.43	432.96	7.7321e-06	7.4885e-06	378.87	142.81	175.81	72.317	8.699e-06	54.823	238.009	143.934	467.817	155.300	311.070	251.772	153.238	160.623	271.935	304.556	156.983	161.499	165.318	170.490	245.715	165.041	-8191	255	
3583.467	1	1	0	0	0.24498	0.046713	0.26835	0.12015	0.14566	0.2983	0.15858	0.33866	0.11182	0.041497	0.28065	0.02205	0.1843	0.13011	0.063478	0.17874	-2.3208	-2.8917	-2.2667	-2.8083	-2.7667	-2.4042	-3.0479	-2.5958	-2.4396	-3.025	-2.4625	-2.9042	-3.1188	-2.4208	-2.8521	-2.4813	500.301	394.102	220.480	385.517	422.677	485.882	337.086	413.091	199.464	193.517	401.317	179.212	481.298	463.412	455.031	376.605	0.00061204	0.00060255	0.00036939	1072.2	7.0664e-06	8.5769e-06	891.19	424.32	6.6541e-06	7.7533e-06	369.91	140.3	173.46	71.206	7.8246e-06	53.578	0.00068367	0.00069423	0.00022083	1091	7.6596e-06	7.5269e-06	914.55	432.79	7.4713e-06	7.7605e-06	381.13	143.24	176.13	72.72	8.7406e-06	55.13	251.030	252.423	212.940	155.314	377.972	243.828	153.177	160.666	288.222	207.995	157.389	161.560	165.601	170.260	368.401	164.852	-8191	255	
3583.563	1	1	0	0	0.29269	0.079784	0.18552	0.20922	0.15408	0.14934	0.17653	0.15324	0.14097	0.1476	0.11012	0.10398	0.044118	0.32585	0.24497	0.15313	-2.2146	-2.8917	-2.3875	-3.0958	-2.7208	-2.4688	-2.9125	-2.6479	-2.3688	-3.0646	-2.6292	-2.9729	-2.9	-2.525	-2.9521	-2.5583	402.810	478.882	239.680	156.622	247.118	341.445	480.538	459.389	217.872	161.166	484.814	463.758	377.690	463.782	234.929	242.734	0.00053299	0.00079119	0.00028448	1070.3	5.6964e-06	4.6109e-06	894.88	426.97	2.6565e-06	8.8451e-06	375.29	141.44	173.8	71.984	3.7897e-06	54.041	0.00067722	0.0007508	0.00022473	1095.6	7.6194e-06	8.1832e-06	920.91	435.7	7.5445e-06	8.4653e-06	385.31	144.34	176.85	73.389	8.6816e-06	55.509	245.322	193.852	249.898	155.217	287.169	355.980	153.357	160.687	334.081	268.143	157.177	161.538	165.660	170.330	224.603	165.167	-8191	255	
3583.659	1	1	0	0	0.15134	0.19837	0.34232	0.19988	0.085465	0.10942	0.095945	0.36182	0.26576	0.15513	0.17427	0.40256	0.36469	0.29274	0.1715	0.15667	-2.0667	-2.8896	-2.1708	-2.7354	-2.8563	-2.3229	-2.9583	-2.8167	-2.5187	-2.8688	-2.5563	-2.7396	-3.1458	-2.4354	-2.8063	-2.6208	499.967	282.045	278.802	493.322	162.593	482.042	443.010	391.675	464.354	371.786	466.056	406.837	437.937	476.066	143.820	403.817	0.00060856	0.00038536	0.00013683	1074.8	8.9813e-06	6.2762e-06	890.34	427.53	4.7273e-06	4.8028e-06	369.05	139.33	173.44	71.262	6.3062e-06	53.126	0.00067992	0.00078574	0.00021936	1095.2	7.618e-06	8.6507e-06	914.64	434	7.5153e-06	8.7027e-06	379.34	142.58	176.42	72.802	8.1378e-06	54.502	249.427	288.119	309.577	155.315	278.336	219.911	153.253	160.712	277.782	295.825	157.415	161.754	165.717	170.591	326.814	165.308	-8191	255	
#DATA ENDS
