BOXY.EXE: ISS Imagent and Oximeter Data Acquisition Program Version 0.80
Ascii Record File

#ACQ INFORMATION
2  Detector Channels 
16  External MUX Channels 
1  Auxiliary Channels 
5000  Waveform (CCF) Frequency (Hz)
1  Waveforms Skipped 
30  Waveforms Averaged 
1  Cycles Averaged 
16  Acquisitions per Waveform 
10.0806  Updata Rate (Hz) 

#FILE INFORMATION
TRUE -- External MUX Channel results are PARSED.
FALSE -- AC DC and Phase are NOT grouped.
TRUE -- Companion Program Settings File CREATED.
FALSE -- AC data not excluded
FALSE -- DC data not excluded
FALSE -- Phase data not excluded
FALSE -- Auxillary Chn. data not excluded
Tab delimiters

#CALIBRATION STATE
TRUE -- Waveform Calibration Values APPLIED.


#AUX CALIBRATION VALUES
Val Type	aux-1	

Term	1.0000e+00	
Factor	0.0000e+00	


#WF CALIBRATION VALUES
A = Detector Channel
Val Type	A-AC1	A-AC2	A-AC3	A-AC4	A-AC5	A-AC6	A-AC7	A-AC8	A-AC9	A-AC10	A-AC11	A-AC12	A-AC13	A-AC14	A-AC15	A-AC16	A-DC1	A-DC2	A-DC3	A-DC4	A-DC5	A-DC6	A-DC7	A-DC8	A-DC9	A-DC10	A-DC11	A-DC12	A-DC13	A-DC14	A-DC15	A-DC16	A-Ph1	A-Ph2	A-Ph3	A-Ph4	A-Ph5	A-Ph6	A-Ph7	A-Ph8	A-Ph9	A-Ph10	A-Ph11	A-Ph12	A-Ph13	A-Ph14	A-Ph15	A-Ph16	

Term	0.00000e+00	0.00000e+00	0.00000e+00	0.00000e+00	0.00000e+00	0.00000e+00	0.00000e+00	0.00000e+00	0.00000e+00	0.00000e+00	0.00000e+00	0.00000e+00	0.00000e+00	0.00000e+00	0.00000e+00	0.00000e+00	0.00000e+00	0.00000e+00	0.00000e+00	0.00000e+00	0.00000e+00	0.00000e+00	0.00000e+00	0.00000e+00	0.00000e+00	0.00000e+00	0.00000e+00	0.00000e+00	0.00000e+00	0.00000e+00	0.00000e+00	0.00000e+00	0.00000e+00	0.00000e+00	0.00000e+00	0.00000e+00	0.00000e+00	0.00000e+00	0.00000e+00	0.00000e+00	0.00000e+00	0.00000e+00	0.00000e+00	0.00000e+00	0.00000e+00	0.00000e+00	0.00000e+00	0.00000e+00	
Factor	1.00000e+00	1.00000e+00	1.00000e+00	1.00000e+00	1.00000e+00	1.00000e+00	1.00000e+00	1.00000e+00	1.00000e+00	1.00000e+00	1.00000e+00	1.00000e+00	1.00000e+00	1.00000e+00	1.00000e+00	1.00000e+00	1.00000e+00	1.00000e+00	1.00000e+00	1.00000e+00	1.00000e+00	1.00000e+00	1.00000e+00	1.00000e+00	1.00000e+00	1.00000e+00	1.00000e+00	1.00000e+00	1.00000e+00	1.00000e+00	1.00000e+00	1.00000e+00	X	X	X	X	X	X	X	X	X	X	X	X	X	X	X	X	

B = Detector Channel
Val Type	B-AC1	B-AC2	B-AC3	B-AC4	B-AC5	B-AC6	B-AC7	B-AC8	B-AC9	B-AC10	B-AC11	B-AC12	B-AC13	B-AC14	B-AC15	B-AC16	B-DC1	B-DC2	B-DC3	B-DC4	B-DC5	B-DC6	B-DC7	B-DC8	B-DC9	B-DC10	B-DC11	B-DC12	B-DC13	B-DC14	B-DC15	B-DC16	B-Ph1	B-Ph2	B-Ph3	B-Ph4	B-Ph5	B-Ph6	B-Ph7	B-Ph8	B-Ph9	B-Ph10	B-Ph11	B-Ph12	B-Ph13	B-Ph14	B-Ph15	B-Ph16	

Term	0.00000e+00	0.00000e+00	0.00000e+00	0.00000e+00	0.00000e+00	0.00000e+00	0.00000e+00	0.00000e+00	0.00000e+00	0.00000e+00	0.00000e+00	0.00000e+00	0.00000e+00	0.00000e+00	0.00000e+00	0.00000e+00	0.00000e+00	0.00000e+00	0.00000e+00	0.00000e+00	0.00000e+00	0.00000e+00	0.00000e+00	0.00000e+00	0.00000e+00	0.00000e+00	0.00000e+00	0.00000e+00	0.00000e+00	0.00000e+00	0.00000e+00	0.00000e+00	-7.80260e+01	-1.58627e+02	-1.69044e+02	-1.83775e+02	-9.56680e+01	-8.10641e+01	-1.58123e+02	-1.62015e+02	-7.06761e+01	-1.03333e+02	-1.70742e+02	-1.70756e+02	-1.78698e+02	-1.77014e+02	-1.06885e+02	-1.49823e+02	
Factor	1.89549e-05	9.66343e-05	3.90588e-05	1.69121e-01	1.09656e-06	1.06494e-06	1.87830e-01	6.00408e-02	1.11570e-06	1.14070e-06	9.95031e-02	3.37985e-02	3.11028e-02	1.10307e-02	1.00689e-06	1.56862e-02	6.37178e-07	6.49506e-07	1.80709e-07	7.65429e-02	7.12655e-09	7.12169e-09	7.97188e-02	2.69659e-02	7.12101e-09	7.12221e-09	4.22235e-02	1.44095e-02	1.37016e-02	4.81339e-03	7.13314e-09	6.55754e-03	X	X	X	X	X	X	X	X	X	X	X	X	X	X	X	X	



#DISTANCE SETTINGS
A = Detector Channel
A-1	A-2	A-3	A-4	A-5	A-6	A-7	A-8	A-9	A-10	A-11	A-12	A-13	A-14	A-15	A-16	

2.5000e+00	3.0000e+00	2.5000e+00	3.0000e+00	2.0000e+00	3.0000e+00	1.5000e+00	3.0000e+00	3.0000e+00	3.0000e+00	3.0000e+00	3.0000e+00	3.0000e+00	3.0000e+00	1.5000e+00	3.0000e+00	

B = Detector Channel
B-1	B-2	B-3	B-4	B-5	B-6	B-7	B-8	B-9	B-10	B-11	B-12	B-13	B-14	B-15	B-16	

1.0000e+01	1.0000e+01	1.0000e+01	1.4400e+00	1.0000e+01	1.0000e+01	1.5100e+00	1.9400e+00	1.0000e+01	1.0000e+01	1.9900e+00	2.4900e+00	2.4100e+00	2.9000e+00	1.0000e+01	2.9800e+00	




#DATA BEGINS
time	group	step	mark	flag	A-AC1	A-AC2	A-AC3	A-AC4	A-AC5	A-AC6	A-AC7	A-AC8	A-AC9	A-AC10	A-AC11	A-AC12	A-AC13	A-AC14	A-AC15	A-AC16	A-DC1	A-DC2	A-DC3	A-DC4	A-DC5	A-DC6	A-DC7	A-DC8	A-DC9	A-DC10	A-DC11	A-DC12	A-DC13	A-DC14	A-DC15	A-DC16	A-Ph1	A-Ph2	A-Ph3	A-Ph4	A-Ph5	A-Ph6	A-Ph7	A-Ph8	A-Ph9	A-Ph10	A-Ph11	A-Ph12	A-Ph13	A-Ph14	A-Ph15	A-Ph16	B-AC1	B-AC2	B-AC3	B-AC4	B-AC5	B-AC6	B-AC7	B-AC8	B-AC9	B-AC10	B-AC11	B-AC12	B-AC13	B-AC14	B-AC15	B-AC16	B-DC1	B-DC2	B-DC3	B-DC4	B-DC5	B-DC6	B-DC7	B-DC8	B-DC9	B-DC10	B-DC11	B-DC12	B-DC13	B-DC14	B-DC15	B-DC16	B-Ph1	B-Ph2	B-Ph3	B-Ph4	B-Ph5	B-Ph6	B-Ph7	B-Ph8	B-Ph9	B-Ph10	B-Ph11	B-Ph12	B-Ph13	B-Ph14	B-Ph15	B-Ph16	aux-1	digaux	

44462.219	1	1	0	768	0.21491	0.063924	0.17239	0.094511	0.082607	0.084428	0.15654	0.15997	0.080465	0.14649	0.076996	0.25645	0.32005	0.10203	0.11275	0.093538	-3.6208	-4.8458	-4.3021	-4.3	-4.95	-4.0604	-4.5792	-4.9917	-3.9813	-4.7	-4.7521	-4.1167	-5.0458	-4.2771	-4.4458	-5.0958	145.910	151.953	87.018	-37.751	0.513	269.875	-26.766	197.970	-17.219	0.322	280.719	289.676	279.357	20.362	-18.599	239.440	0.0001179	0.00016921	0.00018982	1421	5.4309e-06	2.5106e-06	1397.6	448.29	4.4152e-06	7.4336e-06	495.97	142.54	124.17	48.183	3.2286e-06	65.82	7.7714e-05	7.3017e-05	2.0251e-05	1201.5	7.8382e-07	7.8861e-07	1187.6	376.39	8.2423e-07	7.7847e-07	408.52	118.88	102.49	39.42	7.952e-07	53.822	180.453	-24.664	13.115	-33.817	183.856	37.805	-34.151	-29.530	94.197	65.578	-31.075	-26.630	-25.309	-20.754	91.146	-22.561	-8191	255	
44462.316	1	1	0	0	0.12213	0.14851	0.23021	0.13676	0.060159	0.033522	0.12252	0.13561	0.21466	0.10668	0.15971	0.17367	0.062746	0.25128	0.21889	0.17344	-3.6979	-4.6771	-4.6771	-4.2438	-4.9437	-4.1792	-4.4	-4.9979	-3.8292	-4.7021	-4.7937	-4.0646	-4.9208	-4.3729	-4.3375	-4.9062	231.266	137.485	-35.053	-35.708	287.514	87.619	209.179	303.195	195.655	75.984	-33.677	-37.880	225.376	254.404	-7.593	264.535	0.00016018	0.00021976	0.00016799	1427.8	3.0427e-06	4.8093e-06	1417	451.46	7.0527e-06	5.9904e-06	507.55	145.3	126.03	48.502	5.9562e-07	68.316	8.0919e-05	7.2797e-05	1.9948e-05	1214.5	7.8737e-07	7.9235e-07	1210.6	381.79	8.1344e-07	7.9089e-07	416.86	121.52	104.25	40.043	7.9823e-07	55.411	217.241	8.391	-22.183	-33.643	85.510	64.622	-34.042	-29.684	104.214	28.189	-31.220	-26.157	-25.247	-20.449	270.604	-22.492	-8191	255	
44462.410	1	1	0	0	0.31375	0.097927	0.050061	0.21323	0.19964	0.097117	0.13861	0.10417	0.19682	0.083213	0.15981	0.081353	0.17571	0.16068	0.084384	0.13214	-3.8271	-4.4875	-4.7021	-4.0458	-4.8938	-4.425	-4.3917	-5.1958	-4.1417	-4.5458	-5.0833	-4.0521	-4.8667	-4.575	-4.1521	-5.0458	307.559	165.340	172.037	238.576	190.842	37.961	189.688	285.182	117.426	-12.544	22.044	80.585	234.392	-47.004	257.866	286.990	0.0001398	0.00056653	0.00017826	1463.3	4.6973e-06	3.5996e-06	1461.5	462.05	6.6561e-06	4.528e-06	515.56	148.46	128.36	49.897	5.0244e-06	69.644	8.0703e-05	7.3986e-05	2.0219e-05	1239.3	8.2435e-07	8.122e-07	1237.7	389.57	8.2276e-07	7.9245e-07	426.28	124.13	106.32	41.022	8.2046e-07	56.652	189.066	8.652	-7.697	-33.803	32.473	222.372	-34.041	-29.465	123.044	101.982	-30.796	-26.639	-25.108	-20.484	93.352	-22.442	-8191	255	
44462.508	1	1	0	0	0.18835	0.15287	0.069457	0.052028	0.053032	0.16028	0.12073	0.25305	0.1367	0.14664	0.021174	0.012645	0.20656	0.16422	0.029888	0.20991	-3.7583	-4.5521	-4.5875	-4.2188	-4.7354	-4.4104	-4.2812	-5.0687	-4.1667	-4.3104	-4.9792	-4.0125	-4.7958	-4.6542	-3.9729	-4.9313	277.556	184.949	263.969	124.758	260.490	52.961	235.796	222.637	230.209	125.933	186.231	-11.644	241.761	-30.080	273.343	-14.804	0.00017735	0.0005632	0.00020512	1471	5.688e-06	1.9574e-06	1474.6	464.74	9.2412e-07	7.6437e-06	522.14	149.63	128.76	49.999	4.0377e-06	69.573	8.166e-05	7.3996e-05	2.0453e-05	1249.4	8.1817e-07	8.0238e-07	1254.3	392.74	8.3252e-07	8.0888e-07	431.03	125.86	106.66	41.102	8.2336e-07	56.711	202.832	6.729	-2.526	-33.472	76.599	58.157	-34.057	-29.656	5.409	64.631	-31.099	-26.264	-24.998	-20.282	91.826	-22.564	-8191	255	
44462.605	1	1	0	0	0.10407	0.085777	0.22757	0.13633	0.12805	0.26547	0.26288	0.21829	0.0543	0.078566	0.2666	0.039486	0.16165	0.23012	0.13284	0.07299	-4.075	-4.3479	-4.9104	-4.0854	-4.7104	-4.6083	-4.1583	-4.9521	-4.3	-4.1792	-5.0188	-4.0646	-4.7375	-4.8021	-4.0188	-5.0437	-4.284	198.434	144.570	265.759	114.882	100.592	250.235	238.512	290.357	183.144	219.347	26.598	-18.554	-44.481	113.739	295.313	0.00021511	0.00034295	0.00016176	1456.9	6.5452e-06	6.4903e-06	1443.1	454.13	4.4693e-06	1.7679e-06	510.09	146.78	125.59	48.608	3.8234e-06	68.569	7.9953e-05	7.1596e-05	2.0003e-05	1238.4	8.1341e-07	7.8347e-07	1231.1	384.11	7.9883e-07	7.8482e-07	420.55	123.13	104.2	40.398	7.9454e-07	55.822	207.025	52.790	3.443	-33.284	112.187	78.056	-33.870	-29.234	106.733	30.309	-30.812	-26.567	-24.719	-20.938	132.907	-22.815	-8191	255	
44462.699	1	1	0	0	0.10845	0.13907	0.14097	0.074342	0.17726	0.20625	0.17537	0.076864	0.088783	0.25057	0.29166	0.25388	0.17794	0.25221	0.20158	0.093173	-4.1062	-4.1583	-4.9396	-4.2896	-4.4938	-4.6937	-4.1729	-4.8917	-4.3771	-4.2292	-5.0771	-4.2875	-4.5062	-4.9479	-3.9	-4.8042	234.023	173.365	-38.940	217.608	103.849	-17.265	244.980	307.503	248.153	-25.473	228.375	-0.713	109.393	305.333	273.898	43.851	0.00019343	0.00082501	0.00012817	1424.3	1.0765e-06	5.5223e-06	1419.1	450.42	2.3214e-06	6.6703e-06	505.58	145.4	125.32	48.692	5.3916e-06	68.225	7.8613e-05	7.1355e-05	2.0023e-05	1211.9	8.1152e-07	7.4484e-07	1203.4	379.26	7.8337e-07	7.8852e-07	415.62	121.81	103.9	40.173	8.227e-07	55.602	168.388	33.737	18.864	-33.572	113.783	74.343	-34.174	-29.707	75.647	56.880	-30.833	-26.297	-25.006	-20.814	17.978	-22.529	-8191	255	
44462.820	1	1	0	0	0.11486	0.32272	0.11562	0.17947	0.058732	0.1089	0.19957	0.22363	0.22033	0.10622	0.23195	0.13448	0.076088	0.20425	0.13285	0.10231	-4.2458	-4.0062	-5.0542	-4.4062	-4.3104	-4.9437	-4.2688	-4.8	-4.5646	-3.9958	-4.9437	-4.2833	-4.3792	-4.8688	-4	-4.8125	97.181	12.930	-40.257	55.798	106.834	1.485	187.572	277.824	127.615	39.855	230.074	208.432	205.290	-47.273	94.324	180.451	0.00011481	0.00026144	0.00020539	1426	4.2743e-06	2.6448e-06	1426.1	453.19	6.5353e-06	4.1054e-06	505.02	147.3	125.64	49.356	1.4064e-06	69.238	7.8361e-05	7.2252e-05	1.9672e-05	1212.2	7.913e-07	7.8506e-07	1209.7	380.75	8.0681e-07	8.0463e-07	417.49	122.96	104.41	40.462	8.0646e-07	56.157	169.148	18.951	12.057	-33.362	90.255	74.172	-33.935	-29.520	69.183	50.331	-31.095	-26.224	-25.395	-20.589	20.231	-22.467	-8191	255	
44462.918	1	1	0	0	0.096259	0.11167	0.17646	0.29535	0.19873	0.12788	0.091681	0.22747	0.042533	0.055033	0.17673	0.086382	0.028957	0.076025	0.15289	0.10607	-4.5104	-4.0813	-5.0062	-4.5021	-3.9813	-4.9437	-4.2312	-4.6771	-4.5458	-4.1292	-4.9979	-4.6104	-4.2812	-5.0854	-4.1083	-4.5479	125.439	129.365	199.649	289.564	198.516	55.187	-15.031	269.494	-26.559	-9.225	302.087	263.800	252.649	237.064	258.847	219.079	0.00013931	0.00022139	0.00019828	1439.2	5.5076e-06	4.7721e-06	1439.8	454.92	3.5108e-06	4.6344e-07	513.83	149.27	127.36	49.455	1.4035e-06	69.734	7.8478e-05	7.2661e-05	2.0099e-05	1227.9	8.227e-07	7.8227e-07	1228.2	385.79	8.0859e-07	8.0091e-07	423.58	124.4	105.44	40.769	8.0209e-07	56.884	179.941	71.504	309.948	-33.501	139.887	92.545	-34.160	-29.476	135.045	-32.474	-30.947	-26.326	-24.907	-20.299	238.690	-22.415	-8191	255	
44463.016	1	1	0	0	0.22968	0.21216	0.020655	0.14492	0.16363	0.15423	0.053331	0.093516	0.19178	0.11873	0.19469	0.26223	0.17611	0.27149	0.12433	0.037341	-4.5042	-3.8292	-4.975	-4.7208	-4.2271	-5.1042	-4.3667	-4.6083	-4.8229	-3.9938	-4.9375	-4.6625	-4.0875	-4.8438	-4.1917	-4.5458	43.428	125.975	47.010	294.936	-45.820	279.880	71.048	211.283	107.856	156.309	299.943	-46.991	226.304	46.565	59.016	234.103	0.00015469	0.00052272	0.00014172	1457.1	5.2563e-06	3.0104e-06	1463	465.01	4.9893e-07	4.5601e-06	521.91	150.93	128.18	49.978	2.5568e-06	69.656	7.8149e-05	7.252e-05	1.977e-05	1237.4	7.8011e-07	7.7482e-07	1244.3	390.2	8.127e-07	7.7619e-07	429.88	125.95	106.19	40.821	8.1186e-07	56.869	197.904	4.842	14.636	-33.093	106.083	165.676	-33.830	-29.476	32.393	24.174	-31.086	-26.365	-25.275	-20.297	78.007	-22.420	-8191	255	
44463.109	1	1	0	0	0.12469	0.18655	0.11165	0.26529	0.17845	0.095487	0.29402	0.14616	0.0833	0.062213	0.094836	0.081523	0.44023	0.15007	0.14633	0.25415	-4.5979	-3.9646	-4.6208	-4.6937	-4.05	-4.7167	-4.5125	-4.4812	-4.8812	-4.0521	-4.7604	-4.6958	-4.1854	-5.1104	-4.3771	-4.3979	279.796	71.275	-32.071	284.314	40.458	-40.233	213.550	264.969	261.434	289.794	70.280	142.461	-35.937	236.282	19.684	267.169	0.00019102	0.00023063	9.037e-06	1478.3	4.8586e-06	4.901e-06	1479.6	468.37	4.0156e-06	3.5558e-06	526.3	151.83	130.26	49.852	4.4337e-06	70.507	7.6988e-05	7.4727e-05	2.0091e-05	1258.4	8.237e-07	8.026e-07	1262.6	395.08	8.0788e-07	8.1478e-07	434.41	127.23	107.73	41.071	8.0972e-07	57.431	206.777	4.207	25.067	-33.455	76.855	123.250	-33.815	-29.518	145.429	110.713	-30.926	-26.070	-24.884	-20.804	42.134	-22.370	-8191	255	
44463.207	1	1	0	0	0.15269	0.2719	0.15196	0.08483	0.056944	0.033113	0.32763	0.28201	0.20471	0.13078	0.30664	0.13907	0.12341	0.221	0.14308	0.34086	-4.6375	-4.0312	-4.4896	-4.8146	-3.9688	-4.8792	-4.6583	-4.1917	-5.0104	-4.0146	-4.5896	-4.9458	-3.9458	-4.7875	-4.4979	-4.1813	137.446	111.609	246.070	-44.291	218.707	281.849	279.135	267.748	-23.323	58.807	186.784	214.977	28.582	183.430	255.325	243.520	0.00021485	0.00056652	0.00019388	1491.6	3.4026e-06	4.2541e-06	1497.2	471.45	5.968e-06	4.6365e-06	535.1	153.33	130.74	50.022	6.0802e-06	71.529	7.7829e-05	7.4953e-05	2.0536e-05	1270.3	8.2373e-07	8.0566e-07	1277.1	398.68	8.17e-07	8.0166e-07	440.76	128.45	108.62	41.256	8.1316e-07	58.11	186.328	31.150	9.657	-33.431	114.871	83.002	-33.754	-29.521	144.340	92.176	-30.710	-26.333	-24.651	-20.697	49.029	-22.547	-8191	255	
44463.301	1	1	0	0	0.090706	0.28803	0.1537	0.15753	0.070069	0.057438	0.2002	0.36689	0.35947	0.1487	0.23739	0.12572	0.079897	0.26503	0.045201	0.25486	-4.575	-4.2729	-4.4646	-5.0188	-3.9854	-4.6125	-4.8187	-4.2188	-4.9125	-4.2104	-4.4875	-4.7688	-3.975	-4.8125	-4.5229	-4.0875	-17.773	251.524	148.481	280.566	106.590	74.840	270.600	285.681	310.169	217.645	267.186	-47.489	34.214	309.600	14.458	225.580	0.00013258	0.00034333	0.00014338	1499.9	4.7463e-06	5.7222e-06	1515.1	475.94	1.9325e-06	2.0964e-06	537.43	154.8	133.36	50.514	2.9731e-06	72.079	7.9294e-05	7.37e-05	2.0285e-05	1275.1	8.1174e-07	7.8595e-07	1289.3	401.46	8.0352e-07	8.2441e-07	444.5	129.62	109.53	41.645	8.2095e-07	58.886	206.870	7.275	-20.059	-33.497	91.245	71.567	-33.245	-29.570	113.652	93.950	-30.913	-26.231	-25.211	-20.640	86.197	-22.755	-8191	255	
44463.422	1	1	0	0	0.11445	0.033579	0.081821	0.281	0.27562	0.20524	0.10331	0.16767	0.063894	0.12432	0.019801	0.11259	0.15156	0.2432	0.13985	0.090819	-4.6188	-4.2646	-4.2708	-5.2458	-3.9167	-4.5312	-5.0375	-4.0604	-4.9396	-4.3604	-4.3271	-4.9812	-4.1354	-4.5417	-4.8229	-4.1375	11.566	18.411	53.473	220.331	151.419	145.394	123.926	248.786	79.512	116.524	-37.796	-6.386	215.918	288.997	233.317	269.406	0.00016882	0.00040708	0.00018429	1503.9	5.4847e-06	2.7337e-06	1519.1	476.14	3.3181e-06	6.3365e-06	540.68	156.42	132.69	50.479	3.7563e-06	72.554	8.0486e-05	7.5206e-05	2.0732e-05	1277.6	8.5268e-07	7.9993e-07	1292.4	401.69	8.2203e-07	8.1404e-07	445.73	130.86	109.74	41.789	8.1973e-07	59.161	196.482	39.375	29.036	-33.438	57.364	53.853	-33.438	-29.295	167.630	22.442	-30.885	-26.206	-24.952	-20.636	60.046	-22.430	-8191	255	
44463.516	1	1	0	0	0.14241	0.22281	0.24031	0.11696	0.05903	0.13554	0.026039	0.094843	0.1725	0.1611	0.36941	0.13649	0.038246	0.15807	0.090565	0.12317	-4.6708	-4.3417	-4.0604	-5.0938	-4.0854	-4.4208	-4.8854	-4.1104	-4.7542	-4.6396	-4.2583	-5.0042	-4.175	-4.6292	-4.8313	-4.1792	70.149	65.775	246.861	224.273	147.539	187.669	188.577	174.217	-38.931	119.764	233.151	215.848	305.301	-31.074	172.582	155.080	0.0002041	0.00052778	0.00028962	1520.1	2.0912e-06	3.0139e-06	1532.3	483.25	5.0477e-06	4.175e-06	538.97	154.62	131.77	49.679	4.3021e-06	71.057	7.8455e-05	7.4916e-05	2.056e-05	1292.5	8.3767e-07	8.1442e-07	1307.4	406.61	8.2929e-07	7.9417e-07	445.74	129.22	109.37	41.161	8.3273e-07	57.425	202.625	8.508	21.647	-33.443	71.421	73.948	-33.515	-29.628	114.344	128.507	-31.160	-26.348	-24.906	-20.272	83.994	-22.351	-8191	255	
44463.613	1	1	0	0	0.062483	0.27577	0.14984	0.26048	0.16166	0.12106	0.26743	0.14756	0.26181	0.03336	0.034198	0.21521	0.15209	0.14034	0.27371	0.11344	-4.3812	-4.5604	-4.0021	-5.0833	-4.3083	-4.4375	-5.0854	-4.1188	-4.5042	-4.6562	-4.2042	-4.9979	-4.2958	-4.3042	-4.9042	-4.1271	142.273	238.152	29.078	264.207	261.174	46.361	255.413	280.867	58.496	93.739	311.647	308.952	300.051	-2.895	57.370	19.794	0.00019785	0.00029247	7.8054e-05	1499.9	3.5484e-06	3.846e-06	1481.3	469.95	3.3801e-06	9.6148e-06	521.45	148.89	128.11	48.606	2.6218e-06	68.833	7.9497e-05	7.3477e-05	2.0784e-05	1272.5	8.1514e-07	7.827e-07	1264.3	395.64	8.0361e-07	7.8064e-07	429.77	124.83	106.3	40.116	7.9468e-07	55.946	202.425	258.782	-36.337	-33.691	88.245	64.005	-33.850	-29.544	121.489	69.389	-31.339	-26.352	-25.217	-21.056	-30.091	-22.538	-8191	255	
44463.711	1	1	0	0	0.05373	0.1268	0.11941	0.15434	0.0027091	0.11884	0.08503	0.25007	0.11782	0.11632	0.16816	0.097451	0.26376	0.29792	0.12695	0.11713	-4.425	-4.8833	-3.9104	-4.8917	-4.3938	-4.1312	-5.0625	-4.3063	-4.4833	-4.7979	-4.0938	-4.8417	-4.5229	-4.1146	-5.0104	-4.0854	29.127	191.051	202.850	282.675	-29.148	4.692	236.464	281.274	85.477	218.482	233.207	23.979	-30.200	275.607	-14.025	232.696	0.00017183	0.00031022	0.00021606	1454.6	5.0744e-06	4.346e-06	1447	461.98	4.5968e-06	3.0584e-06	515.04	148.18	127.88	48.279	3.633e-06	68.137	7.9045e-05	7.2111e-05	2.0992e-05	1240.1	8.1967e-07	8.0318e-07	1234.4	389.09	8.1178e-07	8.0144e-07	424.72	123.82	105.55	39.784	7.8849e-07	55.622	205.425	12.419	-14.090	-33.433	102.395	61.586	-33.446	-29.544	109.575	128.776	-30.989	-26.356	-25.213	-20.757	140.719	-22.592	-8191	255	
44463.781	1	1	0	0	0.12488	0.13379	0.14398	0.26387	0.34411	0.10491	0.20834	0.23758	0.065948	0.11481	0.16886	0.15663	0.20448	0.17637	0.064189	0.055902	-4.2708	-4.9688	-3.9104	-4.8667	-4.6458	-4.0646	-5.1625	-4.3042	-4.3396	-4.7979	-4.225	-4.7542	-4.6104	-3.9896	-4.9104	-4.3313	195.816	113.980	90.961	256.376	42.225	226.634	250.620	-6.771	105.008	-1.087	270.992	285.494	167.083	20.719	240.176	-36.895	0.0001783	0.00022732	0.00018254	1445.4	7.2142e-06	6.9777e-06	1455.3	462.32	5.7405e-06	6.4501e-06	515.53	149.74	128.75	48.965	2.7597e-06	69.446	7.7598e-05	7.1685e-05	2.0174e-05	1238	8.2025e-07	8.1214e-07	1238.4	389.74	8.0648e-07	7.8968e-07	426.09	124.69	106.17	40.105	7.9591e-07	56.368	216.696	40.956	31.814	-33.434	77.469	80.291	-33.800	-29.448	81.045	60.866	-31.098	-26.225	-24.953	-20.516	39.041	-22.632	-8191	255	
44463.902	1	1	0	0	0.13098	0.2892	0.28071	0.22147	0.048073	0.053557	0.13141	0.12694	0.1927	0.01653	0.14763	0.27365	0.10742	0.24056	0.21494	0.26392	-3.9854	-4.875	-4.0229	-4.9938	-4.7354	-4.0292	-5.0833	-4.3875	-4.0833	-4.9	-4.1896	-4.6958	-4.6271	-4.025	-4.6896	-4.4667	116.409	309.616	-37.795	-36.612	180.659	97.241	171.856	238.702	87.164	-7.137	273.824	270.936	228.325	300.363	-28.500	235.089	0.00017441	0.00039742	0.00018335	1472.8	6.9926e-06	5.2894e-06	1483.2	467.67	1.7483e-06	4.9498e-06	522.83	149.96	129.55	48.958	3.7216e-06	69.746	7.7097e-05	7.4516e-05	2.0718e-05	1250	8.132e-07	7.9643e-07	1254.7	394.09	8.197e-07	8.2548e-07	430.96	125.96	107.1	40.336	8.1946e-07	56.867	222.800	43.901	10.360	-33.713	73.290	32.693	-33.899	-29.466	93.249	31.096	-31.353	-26.684	-24.965	-21.096	63.886	-22.502	-8191	255	
44463.996	1	1	0	0	0.33207	0.23222	0.11525	0.25498	0.19483	0.086018	0.12834	0.37078	0.15973	0.18522	0.062747	0.11902	0.10442	0.11375	0.15431	0.17325	-3.7271	-5.0083	-4.0458	-4.6396	-4.6562	-3.9562	-5.1958	-4.6625	-4.0521	-4.8688	-4.2688	-4.4646	-4.9563	-4.0979	-4.775	-4.5979	86.368	139.103	-18.996	291.844	-2.182	111.956	-4.164	246.791	266.174	171.736	-40.652	198.560	226.927	273.670	266.196	52.750	0.00019444	8.4026e-05	0.00019817	1481.5	4.0778e-06	5.3468e-06	1491.5	471.37	9.4952e-06	6.6181e-06	528.93	151.57	130.06	49.375	4.175e-06	69.963	8.1285e-05	7.3195e-05	2.057e-05	1259.8	8.2025e-07	8.2052e-07	1265.9	396.96	8.3021e-07	8.0693e-07	435	127.2	107.55	40.806	8.0386e-07	57.253	195.672	-18.714	2.330	-33.449	54.283	124.949	-34.018	-29.396	84.464	37.531	-30.939	-26.495	-24.958	-20.518	77.217	-22.555	-8191	255	
44464.094	1	1	0	0	0.19484	0.090145	0.23105	0.042116	0.29279	0.21225	0.35257	0.13635	0.048882	0.12894	0.13614	0.26349	0.17944	0.1743	0.022874	0.13814	-3.7583	-4.8125	-4.2229	-4.5104	-4.8313	-4.0083	-4.8417	-4.6562	-3.9958	-4.8021	-4.3729	-4.4375	-4.9792	-4.0979	-4.7396	-4.6417	307.917	136.861	34.642	205.401	188.407	55.899	218.915	-3.873	21.070	223.772	29.783	218.028	186.237	225.025	129.480	163.433	0.00022959	0.00038953	8.6866e-05	1473.6	1.6773e-06	4.8078e-06	1471.6	461.32	2.6951e-06	3.913e-06	513.84	148.36	127.72	47.772	4.7887e-06	67.305	8.0769e-05	7.3726e-05	2.0328e-05	1251.6	8.0048e-07	8.0631e-07	1251.2	390.98	8.3814e-07	7.9821e-07	424.58	123.89	105.43	39.488	7.9891e-07	54.818	186.350	7.664	-33.692	-33.385	43.447	38.031	-33.935	-29.422	166.181	99.876	-31.042	-26.546	-24.490	-20.875	12.342	-22.414	-8191	255	
44464.215	1	1	0	0	0.13806	0.14374	0.16217	0.19027	0.25295	0.29535	0.22741	0.081582	0.10076	0.15526	0.15511	0.082547	0.10395	0.13643	0.17575	0.11289	-3.6937	-4.8083	-4.15	-4.3604	-4.875	-4.1271	-4.6833	-4.7896	-4.0271	-4.9667	-4.5813	-4.2792	-5.0854	-4.3833	-4.475	-4.9396	58.281	267.419	77.572	-33.042	172.733	197.443	297.259	-14.311	-24.646	33.927	229.349	16.920	27.967	16.491	-33.791	256.180	0.0002128	0.00041212	0.00010343	1435	2.5989e-06	2.7103e-06	1414.9	450.92	1.8928e-06	2.5894e-06	505.62	143.79	126.23	47.2	1.4931e-06	66.488	7.8656e-05	7.2485e-05	1.9947e-05	1220.8	7.9598e-07	8.0521e-07	1204.9	381.76	8.3645e-07	7.9471e-07	414.41	120.67	103.87	38.942	7.8893e-07	54.323	183.326	19.132	34.633	-33.679	137.506	94.545	-33.800	-29.447	190.370	-40.019	-30.812	-26.541	-24.937	-21.068	59.825	-22.663	-8191	255	
44464.309	1	1	0	0	0.14052	0.22332	0.31551	0.35397	0.1289	0.16939	0.30776	0.12609	0.14276	0.094285	0.051432	0.20774	0.27272	0.10244	0.068085	0.18148	-3.7687	-5.0167	-4.4021	-4.2229	-4.7063	-4.0646	-4.425	-4.8792	-4.0146	-4.75	-4.6979	-4.0896	-4.9375	-4.2521	-4.2167	-4.9625	291.043	229.245	108.077	260.264	-43.623	94.331	305.875	67.796	90.796	140.193	123.364	295.430	299.462	110.801	297.441	296.597	0.00016705	0.00023683	0.00031621	1436.4	1.2943e-06	3.1131e-06	1427.8	455.34	4.4436e-07	4.1169e-06	505.77	146.29	127.86	47.642	3.8277e-06	67.604	7.816e-05	7.2328e-05	2.069e-05	1222.7	8.2004e-07	8.0531e-07	1214.9	383.93	8.1252e-07	7.9211e-07	417.12	122.02	104.8	39.205	8.0703e-07	55.064	196.990	33.470	-23.981	-33.722	127.652	62.114	-33.995	-29.430	275.656	77.147	-31.064	-26.321	-24.915	-20.621	37.840	-22.523	-8191	255	
44464.383	1	1	0	0	0.23108	0.10897	0.15638	0.10392	0.11289	0.16099	0.36791	0.12346	0.1225	0.063287	0.034243	0.28232	0.091513	0.19068	0.2014	0.35934	-3.725	-4.7646	-4.5417	-4.0521	-4.8812	-4.2625	-4.5188	-4.9854	-3.875	-4.5833	-4.6917	-3.9688	-5.0563	-4.3396	-4.2	-4.9396	20.850	17.117	2.551	129.766	83.683	203.897	250.962	175.866	106.588	59.514	204.754	266.837	200.560	263.698	243.233	198.326	0.00023226	0.0002304	0.00015675	1453.5	2.207e-06	5.0469e-06	1442.7	460.98	9.4963e-07	5.9916e-06	513.41	147.71	128.48	48.189	3.2746e-06	68.019	8.1094e-05	7.2475e-05	2.0837e-05	1235.4	8.1887e-07	8.0905e-07	1230.9	389.75	8.4133e-07	8.2521e-07	423.4	123.8	106.26	39.612	8.1781e-07	55.234	194.368	18.970	40.505	-33.382	60.617	138.177	-33.916	-29.300	258.810	77.891	-30.896	-26.430	-25.303	-20.615	58.009	-22.743	-8191	255	
44464.500	1	1	0	0	0.12051	0.16858	0.10843	0.12434	0.036162	0.18753	0.34186	0.10185	0.094623	0.15412	0.22012	0.14862	0.082691	0.2083	0.19619	0.162	-3.6333	-4.4479	-4.6062	-3.9375	-4.875	-4.4583	-4.2104	-4.8812	-3.9958	-4.3896	-4.8958	-4.0771	-4.7167	-4.6312	-3.9042	-4.9479	-15.263	-32.892	149.107	235.667	92.042	53.990	189.467	203.863	310.973	278.400	228.146	253.571	272.420	206.096	-41.253	264.380	0.00018874	0.00055042	0.00017967	1471.3	1.179e-06	2.1726e-06	1469	467.59	1.1256e-06	4.8179e-06	520.39	149.16	128.65	48.733	4.939e-06	68.801	7.9301e-05	7.4835e-05	2.0673e-05	1251.9	8.3651e-07	8.0984e-07	1246.3	393.36	8.2283e-07	8.0214e-07	428.33	124.77	106.78	40.119	8.0713e-07	56.109	188.866	20.161	1.729	-33.368	150.852	141.496	-34.210	-29.409	57.821	-9.253	-31.112	-26.645	-25.136	-21.081	74.855	-22.435	-8191	255	
44464.598	1	1	0	0	0.15237	0.215	0.10925	0.30946	0.19893	0.11045	0.25404	0.17805	0.052188	0.080292	0.10859	0.21372	0.1705	0.064888	0.23874	0.23832	-3.8438	-4.3292	-4.7333	-3.9062	-4.5729	-4.3625	-4.0875	-4.975	-4.1479	-4.3271	-5.0188	-4.0396	-4.8104	-4.6521	-3.9542	-5.0521	-16.231	296.657	198.006	-25.426	156.437	255.211	-38.787	306.864	5.408	76.026	-8.834	264.969	-25.440	308.281	178.060	-3.815	0.00020587	0.00028804	0.00010961	1469.5	1.9604e-06	2.9138e-06	1457.9	461.39	5.0842e-07	6.545e-06	509.8	147.63	128.19	47.949	3.849e-06	67.53	8.2796e-05	7.305e-05	2.026e-05	1250.1	8.0175e-07	8.0672e-07	1241.2	390.81	8.3627e-07	7.7782e-07	423.45	123.61	105.71	39.646	7.9032e-07	55.398	197.040	11.232	21.481	-33.282	7.354	202.342	-33.705	-29.643	214.712	67.733	-30.879	-26.488	-25.258	-20.819	74.760	-22.643	-8191	255	
44464.695	1	1	0	0	0.022662	0.14861	0.094709	0.13166	0.23227	0.072157	0.26976	0.22166	0.1509	0.076814	0.094963	0.17531	0.17195	0.21882	0.15082	0.18114	-3.825	-4.1167	-4.8771	-4.2125	-4.5917	-4.6354	-4.0687	-4.8479	-4.1521	-4.1521	-4.9979	-4.0167	-4.4979	-4.7125	-3.8063	-4.9125	101.998	49.562	16.579	-25.636	255.977	295.508	208.119	281.755	147.544	53.814	133.345	67.973	125.900	267.967	299.598	237.989	0.00017198	0.00062646	0.00011444	1438.1	2.311e-06	6.1284e-06	1415.8	453.11	4.6987e-06	3.6095e-06	498.14	144.29	126.15	47.164	1.2593e-06	66.374	7.6777e-05	7.2623e-05	1.9563e-05	1222.5	7.7617e-07	7.6242e-07	1203.2	382.74	7.8433e-07	7.62e-07	413.04	120.73	104.13	38.861	7.8722e-07	53.982	211.899	-16.833	3.659	-33.380	129.595	73.346	-34.334	-29.505	64.458	115.298	-30.966	-26.538	-25.328	-20.644	123.886	-22.521	-8191	255	
44464.812	1	1	0	0	0.078356	0.093805	0.1204	0.13442	0.20079	0.15752	0.12973	0.15263	0.24225	0.13472	0.040318	0.052257	0.11572	0.15073	0.21726	0.31254	-3.9646	-4.0917	-4.9021	-4.1875	-4.4208	-4.7562	-3.9958	-4.8688	-4.4292	-4.0729	-4.9729	-4.1375	-4.3875	-4.9104	-3.8104	-4.8104	157.967	18.739	205.585	255.266	73.918	157.690	255.617	270.155	171.991	277.562	-8.492	114.869	249.095	132.947	260.649	-42.961	0.00013291	0.00046339	0.00020553	1430.2	3.5071e-06	3.5087e-06	1415.7	454.7	5.0117e-06	7.9245e-06	501.2	144.65	125.25	47.242	6.4119e-06	66.662	7.865e-05	7.0513e-05	1.8829e-05	1216.9	7.8025e-07	7.6011e-07	1202.7	382.9	7.9972e-07	7.7706e-07	412.01	120.74	103.86	38.961	7.8901e-07	54.612	177.242	21.829	-12.856	-33.545	46.195	44.435	-34.105	-29.750	134.506	76.839	-30.518	-26.513	-25.041	-20.652	36.163	-22.773	-8191	255	
44464.910	1	1	0	0	0.11709	0.20198	0.092474	0.24557	0.083008	0.12211	0.21541	0.16053	0.08746	0.10103	0.12408	0.08386	0.16675	0.10649	0.18103	0.29787	-4.3458	-3.85	-4.9292	-4.6042	-4.1146	-4.8521	-4.1917	-4.775	-4.4042	-3.7875	-4.9021	-4.2063	-4.2812	-4.9833	-3.8854	-4.7167	266.161	230.296	134.267	-13.799	290.094	222.619	274.444	49.858	18.457	-13.454	291.812	45.533	277.814	-31.470	18.618	223.646	0.00014621	0.00027823	0.00012925	1431.8	2.7066e-06	3.6942e-06	1417.1	453.3	4.0082e-06	4.6774e-06	507.13	146.71	126.58	48.103	3.1087e-06	69.282	7.7827e-05	7.1059e-05	1.9547e-05	1218.9	7.8888e-07	7.8948e-07	1207.1	382.04	8.1138e-07	8.1404e-07	417.19	122.63	104.5	39.779	7.8607e-07	56.201	172.181	45.799	54.666	-33.209	91.588	79.878	-33.947	-29.543	151.585	76.203	-31.068	-26.253	-25.186	-20.760	107.250	-22.779	-8191	255	
44465.008	1	1	0	0	0.14277	0.043972	0.22926	0.17669	0.16859	0.070321	0.096705	0.18493	0.21157	0.12727	0.21147	0.13841	0.35507	0.14678	0.17895	0.053098	-4.3479	-3.8729	-4.6917	-4.3313	-4.0687	-4.7812	-4.2333	-4.775	-4.6917	-3.9646	-4.9187	-4.4271	-4.1625	-4.9021	-4.0458	-4.3896	234.825	158.406	219.922	-34.535	215.968	288.897	258.837	278.273	84.208	75.423	299.447	209.743	281.922	280.650	119.808	232.024	0.00015062	0.00050575	9.8297e-05	1435.2	4.9355e-06	1.3711e-06	1439.1	458.04	3.8482e-06	3.4313e-06	516.71	149.02	129.11	48.983	4.0337e-06	70.289	7.9568e-05	7.1432e-05	1.9499e-05	1221.5	7.7742e-07	7.7615e-07	1224.6	385.92	7.9497e-07	7.6134e-07	424.59	124.37	105.76	40.369	7.8404e-07	57.343	200.147	65.165	43.615	-33.568	113.073	117.947	-34.037	-29.435	96.560	65.665	-31.279	-26.021	-25.091	-20.684	54.639	-23.153	-8191	255	
44465.078	1	1	0	0	0.39459	0.11803	0.099675	0.21336	0.035504	0.20569	0.1978	0.22391	0.15156	0.25704	0.32111	0.009851	0.14853	0.20739	0.068331	0.19708	-4.5083	-3.8771	-4.5938	-4.6896	-4.0563	-4.8375	-4.1167	-4.4437	-4.8208	-3.8812	-4.7188	-4.675	-4.1188	-4.8896	-4.1104	-4.3562	311.564	154.087	235.579	236.859	-16.419	278.709	143.318	250.819	178.848	131.344	-46.155	306.246	281.352	-14.082	296.339	193.115	0.00011967	0.00037328	7.3029e-05	1456.8	6.6485e-06	4.2347e-06	1453.8	463.03	1.4201e-06	6.2307e-06	515.21	148.97	127.39	49.151	1.8527e-06	69.321	7.7231e-05	7.2891e-05	1.966e-05	1241.4	8.0359e-07	7.8396e-07	1243.4	389.73	8.0648e-07	7.9577e-07	426.29	124.68	105.51	40.43	8.0275e-07	56.554	181.003	34.495	-6.612	-33.342	104.057	90.020	-33.858	-29.633	174.078	66.149	-30.888	-25.993	-25.213	-21.115	119.233	-22.439	-8191	255	
44465.195	1	1	0	0	0.13685	0.10863	0.18924	0.3614	0.083079	0.057378	0.24633	0.135	0.17009	0.10642	0.20298	0.17843	0.32039	0.25291	0.10148	0.14237	-4.5333	-3.7521	-4.4854	-4.6875	-3.9396	-4.8625	-4.2729	-4.3063	-4.8896	-3.9062	-4.6042	-4.7063	-3.9021	-4.7875	-4.2667	-4.2167	269.999	115.175	7.774	-42.405	302.544	70.491	249.353	177.100	-14.139	158.286	247.110	259.016	292.326	-5.995	0.720	265.050	0.00015033	0.00057247	0.00019335	1440.7	1.9452e-06	4.47e-06	1423.8	454.84	4.6095e-06	3.3376e-06	504.83	144.63	125.38	48.263	5.0745e-06	68.167	7.6988e-05	7.1448e-05	1.945e-05	1226.9	8.054e-07	7.634e-07	1214.6	382.96	7.6778e-07	7.7469e-07	416.77	121.5	103.81	39.663	7.8016e-07	55.48	195.947	7.637	6.846	-33.348	67.279	79.017	-33.542	-29.599	150.038	60.721	-30.990	-26.249	-24.924	-20.936	81.988	-22.641	-8191	255	
44465.293	1	1	0	0	0.095882	0.17681	0.13386	0.13614	0.19403	0.032964	0.13507	0.29777	0.082362	0.32188	0.3231	0.22791	0.090663	0.039043	0.075346	0.15242	-4.5167	-4.1062	-4.4417	-4.9521	-3.8375	-4.6771	-4.5	-4.1521	-4.9396	-4.0354	-4.525	-4.9104	-3.9729	-4.7375	-4.5583	-4.0563	103.318	147.903	-36.971	-42.905	202.354	187.606	-36.008	290.248	27.932	19.944	309.892	-39.159	208.417	-42.658	-0.521	180.653	0.0001757	0.00057868	0.00013941	1430.1	1.8401e-06	2.0549e-06	1427.2	452.09	6.4312e-06	3.7878e-06	507.83	146.57	125.72	48.599	7.6124e-06	69.881	7.5626e-05	7.1565e-05	1.9618e-05	1217.1	8.0667e-07	7.6159e-07	1213.6	382.03	7.9651e-07	7.7043e-07	418.84	122.9	104.34	40.113	7.6983e-07	56.482	196.696	55.843	48.362	-33.503	39.233	45.613	-33.726	-29.680	95.670	2.153	-30.844	-26.184	-24.926	-21.080	29.479	-22.777	-8191	255	
44465.391	1	1	0	0	0.073811	0.065511	0.1336	0.23244	0.14594	0.15684	0.19548	0.2126	0.20226	0.23417	0.26705	0.15027	0.2239	0.17733	0.22511	0.25061	-4.6646	-4.1396	-4.2	-4.9396	-3.8229	-4.6625	-4.7104	-4.1917	-4.9667	-4.275	-4.3438	-4.8333	-3.9646	-4.6625	-4.475	-4.1188	41.095	58.287	162.008	306.427	305.894	288.017	30.741	199.055	180.178	235.320	285.742	270.233	310.319	-46.489	271.193	202.955	0.00014282	0.00037958	0.00015549	1433.5	6.9149e-06	6.0912e-06	1448.1	458.18	3.5196e-06	4.8387e-06	517.38	149.66	126.59	49.315	2.7098e-06	70.278	7.7708e-05	6.9189e-05	1.9587e-05	1220.8	7.9486e-07	7.7201e-07	1227.2	386.01	8.0439e-07	7.7294e-07	425.4	124.97	104.99	40.561	7.7716e-07	57.083	174.167	74.529	45.989	-33.238	88.459	132.893	-33.992	-29.535	151.962	-13.902	-31.350	-26.097	-25.196	-20.744	107.186	-22.398	-8191	255	
44465.484	1	1	0	0	0.25428	0.33062	0.2314	0.098568	0.22991	0.15307	0.21403	0.068133	0.21056	0.076452	0.21768	0.26028	0.097475	0.092713	0.23986	0.12236	-4.625	-4.2521	-4.2583	-5.0479	-3.7062	-4.5125	-4.85	-4.0687	-4.7812	-4.2875	-4.1646	-5.0042	-4.1479	-4.4771	-4.7375	-4.2625	206.016	160.322	165.839	23.565	-44.561	264.272	310.010	286.369	-30.282	98.626	-6.646	266.683	202.538	115.757	121.146	113.947	0.00015618	0.00036671	8.7615e-05	1457.2	4.4388e-07	3.7303e-06	1463.3	466.19	3.2259e-06	6.9516e-06	521.87	150.77	129.86	49.731	3.6967e-06	71.7	7.453e-05	6.9498e-05	1.9716e-05	1242.8	7.9464e-07	7.7534e-07	1248	392.81	8.0769e-07	7.8925e-07	430.71	125.96	106.74	40.812	7.7797e-07	58.046	207.666	-29.513	34.571	-33.547	175.750	91.531	-33.903	-29.644	159.819	56.608	-31.001	-26.248	-25.282	-20.969	122.627	-22.522	-8191	255	
44465.605	1	1	0	0	0.090632	0.36694	0.14125	0.085188	0.22122	0.1533	0.11047	0.22915	0.086073	0.16323	0.26389	0.050949	0.19623	0.24556	0.053373	0.08311	-4.4187	-4.3542	-4.1417	-4.9917	-4.025	-4.3729	-4.8479	-4.1354	-4.5958	-4.4187	-4.2667	-4.9521	-4.3063	-4.4021	-4.6625	-4.0104	-9.808	119.926	7.875	207.914	249.127	246.663	296.772	248.324	138.933	146.317	235.227	295.811	267.522	234.992	186.783	169.673	0.00017937	0.00050499	0.00021445	1468.4	3.898e-06	8.0603e-06	1479.7	465.9	2.4814e-06	6.505e-06	525.19	151.05	127.69	48.935	4.4672e-06	70.224	7.6781e-05	7.001e-05	2.0026e-05	1252.9	8.1687e-07	7.8199e-07	1260.1	393.91	7.8641e-07	7.8113e-07	432.64	126.32	106.26	40.451	7.7955e-07	56.99	195.104	7.071	2.719	-33.223	18.229	80.541	-33.685	-29.702	152.705	46.320	-31.079	-26.431	-25.243	-21.149	103.007	-22.499	-8191	255	
44465.680	1	1	0	0	0.054872	0.13684	0.13642	0.31356	0.2621	0.10493	0.075187	0.19426	0.055165	0.12713	0.19399	0.073734	0.020444	0.25073	0.16586	0.22951	-4.2562	-4.5417	-3.9417	-4.9125	-4.1583	-4.3021	-4.9729	-4.1792	-4.5917	-4.5771	-3.9938	-5.1021	-4.2042	-4.2542	-4.8167	-4.0437	94.199	197.043	277.311	283.490	183.864	0.190	288.491	257.232	-3.927	125.312	-44.957	253.302	227.259	239.164	176.836	223.403	0.0001774	0.0004881	0.00016542	1447.1	4.7278e-06	5.0285e-06	1432	452.02	3.1999e-06	4.9773e-06	500.79	144.67	124.19	47.34	2.9019e-06	66.787	7.633e-05	7.1829e-05	2.0117e-05	1235.3	8.026e-07	7.6925e-07	1224.4	383.4	7.8591e-07	7.6435e-07	414.16	121.1	103.04	39.128	7.5794e-07	54.681	192.017	-19.748	38.763	-33.637	70.816	97.636	-33.705	-29.906	75.295	9.813	-31.223	-26.425	-25.135	-20.560	67.267	-22.384	-8191	255	
44465.773	1	1	0	0	0.23279	0.11485	0.088347	0.054891	0.2286	0.23626	0.21795	0.27392	0.16599	0.1865	0.22219	0.1075	0.066778	0.11146	0.047648	0.043502	-4.1896	-4.7979	-3.8	-4.8771	-4.3771	-4.1583	-4.8604	-4.1458	-4.3187	-4.7125	-4.075	-4.7562	-4.3313	-4.0146	-4.9354	-4.2438	56.238	-5.332	0.708	-7.258	203.730	183.333	305.070	162.693	156.419	201.949	186.461	263.999	4.277	-21.239	-0.523	202.702	0.00011223	0.00057209	0.00022873	1413.9	4.1113e-06	2.1849e-06	1399.3	445.95	2.4164e-06	3.4202e-06	496.73	143.64	123.39	47.435	4.1755e-06	66.725	7.6187e-05	6.858e-05	1.9337e-05	1203.1	7.6342e-07	7.4435e-07	1187.5	376.62	7.6902e-07	7.6669e-07	409.37	119.75	102.32	38.946	7.673e-07	54.499	191.966	63.111	-6.293	-33.429	72.560	17.829	-33.901	-29.685	120.562	14.675	-31.049	-26.393	-25.034	-20.737	81.606	-22.734	-8191	255	
44465.895	1	1	0	0	0.15431	0.20761	0.17527	0.14984	0.19288	0.041005	0.034424	0.15534	0.18446	0.26002	0.087029	0.086274	0.18909	0.26986	0.11346	0.10241	-3.9	-4.7354	-3.8458	-4.8625	-4.45	-3.8167	-5.0938	-4.0396	-4.2	-4.7438	-3.9646	-4.7271	-4.4729	-3.9104	-4.8042	-4.2292	39.164	162.016	146.253	245.306	234.247	168.915	195.440	234.697	87.708	1.254	298.345	46.818	308.398	190.182	130.936	262.737	0.00016405	0.00050346	0.00019982	1409.1	2.9997e-06	3.7282e-06	1394.7	447.64	4.7762e-06	7.0697e-06	501.25	145.33	124.05	47.869	2.7e-06	67.921	7.451e-05	6.9009e-05	1.9488e-05	1202	7.607e-07	7.3463e-07	1189.1	378.02	7.8057e-07	7.551e-07	412.25	121.2	103.19	39.351	7.6549e-07	55.357	182.573	28.636	18.232	-33.567	102.321	130.671	-33.529	-29.383	130.355	85.812	-31.070	-26.016	-24.932	-20.967	22.757	-22.461	-8191	255	
44465.992	1	1	0	0	0.050721	0.19989	0.22435	0.26344	0.060469	0.028239	0.25495	0.38903	0.00446	0.10124	0.069498	0.36907	0.10955	0.1139	0.20845	0.13288	-3.9562	-4.8646	-3.8979	-4.6188	-4.4875	-4.0417	-4.9812	-4.3646	-4.05	-4.8021	-3.9562	-4.7	-4.7229	-4.1792	-4.825	-4.3458	154.669	133.216	249.372	-37.132	255.054	238.017	282.309	236.098	165.268	292.005	-39.375	266.046	234.944	264.892	-0.502	242.282	0.0001758	0.00032231	0.00026925	1435.2	6.3102e-06	2.917e-06	1423	456	1.9579e-06	2.9334e-06	512.12	147.76	126.61	48.399	3.7474e-06	69.8	7.6306e-05	6.9703e-05	1.9144e-05	1218.3	7.7331e-07	7.6285e-07	1212.1	383.84	7.7925e-07	7.2727e-07	420.64	123.65	104.8	39.881	7.7169e-07	56.64	193.664	12.228	-23.583	-33.621	58.258	51.044	-33.801	-29.527	162.586	163.289	-30.777	-26.178	-25.092	-20.893	66.152	-22.923	-8191	255	
44466.086	1	1	0	0	0.11751	0.059652	0.087035	0.26352	0.1309	0.2107	0.23807	0.054987	0.22957	0.37867	0.029132	0.080396	0.25101	0.24675	0.040373	0.15549	-3.8292	-4.8417	-4.0583	-4.5813	-4.7229	-3.7729	-4.7812	-4.45	-3.95	-4.9646	-4.0917	-4.3854	-4.925	-3.9354	-4.55	-4.4875	272.685	178.229	174.419	285.367	89.133	8.988	312.050	98.676	-36.885	77.678	-42.079	206.924	-36.380	252.704	-44.970	268.898	0.00014449	0.00044168	0.00017117	1452.7	5.1558e-06	6.1256e-06	1451.9	460.81	3.1482e-06	2.0989e-06	517.09	150.4	127.15	48.658	5.8995e-06	69.26	7.8026e-05	6.9095e-05	1.9915e-05	1235.7	7.7818e-07	7.8742e-07	1236.8	388.78	7.6305e-07	7.5343e-07	427.36	125.08	105.4	40.105	7.7068e-07	56.583	216.645	-34.254	6.192	-33.569	97.130	108.353	-33.671	-29.211	53.860	29.561	-31.128	-26.684	-25.198	-20.819	84.070	-22.491	-8191	255	
44466.184	1	1	0	0	0.076944	0.14701	0.19538	0.12746	0.053205	0.10669	0.3388	0.1886	0.14913	0.084614	0.14624	0.22171	0.31434	0.08307	0.20235	0.18877	-3.6937	-4.7688	-4.0604	-4.3417	-4.9021	-3.8479	-4.6167	-4.5229	-3.8521	-4.7417	-4.4167	-4.1604	-5.0375	-4.0708	-4.5625	-4.6188	181.425	-45.721	-17.147	285.912	86.421	195.534	263.647	281.250	105.528	148.041	249.789	300.522	258.041	154.587	73.422	183.430	0.00012732	0.00018235	2.5751e-05	1442.7	2.1252e-06	4.0805e-06	1418.5	454.2	5.504e-06	4.0734e-06	498.86	144.04	123.4	47.291	5.5192e-06	67.006	7.636e-05	6.9313e-05	1.9256e-05	1225.2	7.6857e-07	7.6054e-07	1206.5	381.05	7.7358e-07	7.4335e-07	411.41	120.44	102.19	39.003	7.5935e-07	54.621	213.687	41.324	149.629	-33.353	112.125	102.717	-34.055	-29.485	132.486	31.791	-30.847	-26.841	-25.041	-20.841	73.918	-22.443	-8191	255	
44466.277	1	1	0	0	0.19922	0.23049	0.24066	0.16234	0.21601	0.13987	0.27729	0.12882	0.071831	0.027116	0.18581	0.22182	0.21286	0.15223	0.12106	0.34584	-3.6417	-4.7188	-4.2688	-4.175	-4.6979	-4.0292	-4.6125	-4.7833	-3.875	-4.8792	-4.5354	-4.0833	-5.075	-4.0479	-4.5146	-4.7812	-2.440	87.732	77.073	304.972	166.312	122.499	292.243	243.662	229.143	269.296	92.897	284.503	266.727	272.342	60.673	230.356	0.00017987	0.00031115	0.0002951	1389.2	3.6501e-06	3.5181e-06	1379.2	441.35	6.5017e-06	5.7652e-06	490.8	141.87	122.91	46.862	4.5621e-06	66.275	7.4683e-05	6.8624e-05	1.8656e-05	1184.1	7.5656e-07	7.3763e-07	1171.5	371.74	7.7729e-07	7.5945e-07	404.71	118.86	101.43	38.532	7.6134e-07	53.893	175.752	34.137	-8.572	-33.663	34.354	64.787	-33.991	-29.537	81.037	55.721	-31.174	-26.251	-25.295	-20.652	67.618	-22.636	-8191	255	
44466.375	1	1	0	0	0.20736	0.23064	0.14475	0.39882	0.065302	0.046874	0.16421	0.30774	0.19325	0.15851	0.054704	0.252	0.14655	0.17345	0.031936	0.097447	-3.5646	-4.6125	-4.3667	-4.0729	-4.8313	-4.0188	-4.4875	-4.7063	-3.9729	-4.6958	-4.4833	-4.1646	-4.9062	-4.1104	-4.1708	-4.8292	-16.009	281.283	32.156	250.405	39.207	91.688	305.575	233.487	-27.499	212.899	279.313	200.030	-1.026	25.957	251.237	216.153	0.00023472	0.00018267	0.00026282	1402.7	4.2974e-06	5.5378e-06	1391.7	447.53	3.9635e-06	5.9458e-06	498.61	144.45	123.25	47.295	4.2563e-07	68.456	7.4469e-05	6.7484e-05	1.8793e-05	1193.3	7.536e-07	7.4499e-07	1185.3	376.59	7.6213e-07	7.4289e-07	409.83	120.22	102.23	39.058	7.5466e-07	55.293	202.115	83.166	10.755	-33.371	75.858	89.502	-33.976	-29.338	166.794	86.385	-31.321	-26.602	-24.776	-20.923	120.376	-22.232	-8191	255	
44466.492	1	1	0	0	0.12146	0.059643	0.10333	0.25944	0.065213	0.13873	0.30158	0.17755	0.26621	0.12658	0.26533	0.18863	0.015539	0.088063	0.28497	0.17037	-3.6979	-4.5563	-4.4729	-3.9437	-4.925	-4.2375	-4.2792	-4.9333	-3.8688	-4.5292	-4.7708	-4.0458	-4.9417	-4.4104	-4.1729	-4.9	7.624	182.910	56.319	-38.580	220.804	169.539	253.523	210.645	18.940	-31.411	237.823	286.393	274.124	-37.944	57.175	277.163	0.00019068	0.00033396	0.00013822	1425	7.1874e-07	2.5714e-06	1425.6	453.91	6.3886e-06	4.8581e-06	511.54	146.55	126.3	48.297	1.8913e-06	69.554	7.4144e-05	7.0221e-05	1.9163e-05	1209.7	7.5368e-07	7.5393e-07	1210.8	382.07	7.8347e-07	7.4157e-07	419.72	122.89	104.21	39.815	7.5036e-07	56.654	203.618	-18.115	3.266	-33.765	97.760	-10.702	-33.738	-29.354	90.451	100.134	-30.610	-26.662	-25.255	-20.550	66.172	-22.277	-8191	255	
44466.590	1	1	0	0	0.15584	0.14708	0.081592	0.31579	0.075304	0.11783	0.42505	0.23669	0.097218	0.13933	0.14165	0.13212	0.27925	0.29683	0.068513	0.17433	-3.6375	-4.3604	-4.6542	-4.1062	-4.7063	-4.3125	-4.1625	-5.1354	-4.0583	-4.4146	-4.8208	-3.8875	-4.6917	-4.4771	-3.9792	-4.8625	99.405	244.918	210.916	253.472	20.742	82.992	266.978	278.991	140.165	-17.854	303.101	128.330	285.071	267.637	129.888	48.728	0.00019325	0.00058516	0.00016151	1444.9	5.7755e-06	2.9402e-06	1447.4	458.91	3.054e-06	3.5977e-06	521.99	150.43	127.19	48.375	3.458e-06	69.106	7.4701e-05	6.8965e-05	1.9401e-05	1226.9	7.8466e-07	7.5782e-07	1232	387.45	7.9046e-07	7.8013e-07	428.82	124.91	105.29	39.99	7.8634e-07	56.511	192.446	25.206	25.465	-33.455	48.892	131.449	-33.835	-29.388	28.978	123.271	-30.709	-26.042	-25.221	-20.382	52.542	-22.410	-8191	255	
44466.688	1	1	0	0	0.13133	0.17894	0.1238	0.014846	0.23141	0.03113	0.34654	0.042415	0.2548	0.19636	0.22708	0.09161	0.15978	0.030064	0.22689	0.019437	-3.8208	-4.3187	-4.7375	-3.9875	-4.5833	-4.5021	-4.1729	-4.8542	-4.1896	-4.2875	-4.8917	-3.8458	-4.6146	-4.6062	-3.9417	-4.9083	31.930	-37.757	198.021	134.437	-21.357	218.858	208.354	247.828	305.822	41.103	251.801	224.060	-39.409	44.826	-23.176	255.956	0.0001834	0.00047904	6.9988e-05	1454	6.7047e-06	2.0028e-06	1439.1	454.38	3.4523e-06	1.0429e-06	503.31	144.28	124.58	46.836	5.0993e-06	66.548	7.8167e-05	6.986e-05	1.9744e-05	1236.5	7.6854e-07	7.7588e-07	1225.4	384.13	7.6551e-07	7.5037e-07	415.14	120.87	102.64	38.647	7.6845e-07	53.827	182.910	9.489	20.566	-33.297	96.557	87.837	-33.737	-29.656	88.237	9.414	-30.770	-26.537	-25.129	-21.155	68.830	-22.708	-8191	255	
44466.781	1	1	0	0	0.067223	0.20083	0.3139	0.19035	0.07566	0.032755	0.14428	0.43342	0.064628	0.15744	0.25071	0.064534	0.050594	0.052725	0.088854	0.29126	-3.8417	-4.0312	-4.7167	-4.0042	-4.4917	-4.4396	-3.9917	-4.9812	-4.4104	-4.0417	-4.8187	-4.0188	-4.5	-4.7604	-3.8979	-4.9062	270.722	7.799	109.150	265.458	206.004	65.781	305.031	265.375	159.182	86.042	-14.238	85.002	229.180	17.305	145.409	141.438	0.00017909	0.00028069	0.00015827	1388	2.3615e-06	4.5184e-06	1355.7	435.46	5.1222e-06	1.6049e-06	483.15	139.5	121.09	45.619	3.0165e-06	65.479	7.4498e-05	6.786e-05	1.8619e-05	1179.2	7.5225e-07	7.5606e-07	1155.6	366.98	7.5285e-07	7.4438e-07	398.52	116.98	99.67	37.758	7.4763e-07	53.22	200.436	-11.868	5.504	-33.628	183.461	104.587	-34.414	-29.494	127.358	-6.645	-30.966	-26.631	-25.024	-20.673	75.597	-22.496	-8191	255	
44466.902	1	1	0	0	0.057896	0.12676	0.12019	0.24941	0.038584	0.14764	0.1861	0.31888	0.38103	0.24667	0.20275	0.17964	0.3514	0.13138	0.046904	0.040402	-4.0062	-3.8229	-4.6896	-4.1521	-4.1062	-4.5917	-3.9437	-4.8042	-4.3771	-3.9854	-4.8667	-4.1396	-4.2458	-4.8083	-3.875	-4.7292	282.446	214.888	148.599	274.467	236.796	172.899	168.117	207.746	195.159	211.239	242.968	289.642	306.785	257.624	65.757	200.924	0.00017454	0.00042111	0.00020057	1377.5	7.3929e-06	4.3056e-06	1359.1	437.47	5.3826e-06	2.6823e-06	488.31	141.36	122.36	46.38	3.276e-06	66.478	7.3759e-05	6.6059e-05	1.8368e-05	1173.8	7.4121e-07	7.2135e-07	1159.7	369.13	7.4974e-07	7.3912e-07	402.43	118.15	100.5	38.306	7.4941e-07	54.123	205.760	-31.868	-20.924	-33.405	86.127	104.664	-33.782	-29.588	119.006	40.225	-31.026	-26.223	-25.247	-20.626	78.556	-22.657	-8191	255	
44466.977	1	1	0	0	0.068547	0.20128	0.18959	0.33622	0.13107	0.18519	0.32216	0.23896	0.17905	0.057893	0.22451	0.20166	0.16446	0.17923	0.30265	0.19598	-4.2396	-3.8937	-4.7083	-4.2	-4.25	-4.8125	-3.9729	-4.7125	-4.7146	-3.7938	-5.0729	-4.3063	-4.2625	-4.9229	-3.9771	-4.5167	-42.289	112.321	199.842	307.813	48.114	-35.723	311.695	296.362	-46.904	71.784	285.128	33.129	185.377	56.301	193.813	155.545	0.00012015	0.0005858	0.00014344	1396.2	4.9798e-06	3.6221e-06	1389	444.18	4.0399e-06	3.4067e-06	495.01	144.18	124.18	47.45	6.9906e-06	68.104	7.5202e-05	6.6689e-05	1.8825e-05	1186.4	7.6247e-07	7.5327e-07	1177.5	373.44	7.4655e-07	7.4765e-07	409.25	120.54	102.25	39.123	7.569e-07	55.338	171.075	20.380	-26.261	-33.494	162.276	80.538	-34.206	-29.544	103.939	-26.118	-30.812	-26.412	-25.516	-20.684	116.578	-22.705	-8191	255	
44467.070	1	1	0	0	0.19295	0.15219	0.22561	0.11996	0.12092	0.042142	0.35394	0.27786	0.073332	0.10707	0.24314	0.12826	0.19031	0.060801	0.060907	0.21061	-4.3667	-3.8125	-4.8479	-4.3083	-3.9896	-4.7812	-4.1792	-4.6583	-4.6854	-3.9667	-4.8521	-4.3792	-4.0854	-5.0417	-4.0854	-4.3542	65.864	298.490	65.357	-27.371	19.591	53.556	216.826	207.054	60.723	87.812	291.428	4.550	274.521	208.915	51.535	228.446	9.3925e-05	0.00049786	4.86e-05	1416.2	7.2061e-06	2.3164e-06	1423.3	449.92	5.6721e-06	3.5766e-06	504.47	146.65	125.17	48.284	2.9291e-06	68.84	7.4012e-05	6.7515e-05	1.907e-05	1204.4	7.874e-07	7.2551e-07	1206.3	380.45	7.8686e-07	7.7076e-07	418.43	123.05	103.46	39.65	7.7082e-07	56.027	196.213	-16.959	36.281	-33.495	105.681	52.277	-33.554	-29.541	159.452	57.153	-31.285	-26.108	-25.391	-20.356	311.993	-22.483	-8191	255	
44467.168	1	1	0	0	0.087589	0.14363	0.15682	0.10657	0.035063	0.090611	0.15107	0.024583	0.21899	0.28117	0.051823	0.092479	0.086318	0.21102	0.17688	0.18228	-4.4479	-3.8729	-4.8479	-4.6896	-4.1083	-4.775	-4.2208	-4.4229	-4.9896	-3.9813	-4.6021	-4.7063	-4.0167	-4.8792	-4.2042	-4.1333	244.465	311.410	63.213	225.236	4.408	83.860	227.506	4.436	104.289	89.920	93.499	85.303	249.036	-41.997	23.548	160.694	0.00012541	0.00023639	0.00020193	1435.1	3.4016e-06	4.271e-06	1433.6	449.76	1.6225e-06	2.4095e-06	504.08	144.19	123.43	47.075	4.1259e-06	66.761	7.636e-05	6.998e-05	1.9273e-05	1218.9	7.879e-07	7.5387e-07	1215.5	379.62	7.7282e-07	7.9382e-07	414.43	120.8	101.91	38.811	7.7023e-07	54.339	199.823	-4.758	28.456	-33.360	87.294	79.050	-33.986	-29.843	90.373	168.517	-31.194	-26.631	-24.906	-20.783	27.892	-22.707	-8191	255	
44467.285	1	1	0	0	0.18808	0.13804	0.064197	0.040448	0.34128	0.12702	0.29646	0.39601	0.25064	0.25037	0.10755	0.12459	0.18975	0.17567	0.33192	0.24941	-4.5625	-3.8667	-4.4625	-4.7312	-3.8187	-4.7958	-4.3688	-4.3521	-4.9187	-3.8771	-4.5833	-4.6417	-3.95	-4.7833	-4.3313	-4.1687	-9.142	144.183	10.974	268.046	77.749	111.783	270.093	236.998	249.545	111.808	225.407	54.487	217.049	164.604	85.791	-15.418	0.00016245	0.00039749	0.00017925	1388.7	5.042e-06	2.7071e-07	1356.6	432.89	2.9816e-06	5.0171e-06	480.61	139.12	119.21	45.783	6.2281e-06	65.078	7.4835e-05	6.9021e-05	1.9108e-05	1181.3	7.6806e-07	7.503e-07	1155.1	365.25	7.5462e-07	7.4062e-07	394.5	116.23	98.682	37.812	7.418e-07	52.929	200.808	35.750	-2.594	-33.528	109.771	86.211	-33.944	-29.530	165.436	102.907	-30.922	-26.140	-25.028	-20.610	90.419	-22.577	-8191	255	
44467.383	1	1	0	0	0.096934	0.18248	0.18257	0.22843	0.019757	0.21545	0.15941	0.18118	0.074335	0.15056	0.11261	0.12549	0.21576	0.17892	0.26733	0.20779	-4.6125	-3.8917	-4.3833	-4.8604	-3.8563	-4.6896	-4.55	-4.1875	-4.7312	-3.9208	-4.5188	-4.8	-3.8458	-4.7229	-4.3604	-3.9271	220.351	128.771	14.189	271.039	92.265	155.968	311.674	123.022	254.685	-6.425	27.088	82.275	265.000	-39.325	225.442	169.621	0.00016669	0.00073136	7.7646e-05	1372.7	1.5744e-06	2.6662e-06	1351.5	433.31	2.0018e-06	1.2976e-06	483.38	139.53	120.08	46.199	1.4047e-06	66.036	7.3761e-05	6.9471e-05	1.8572e-05	1166.3	7.5751e-07	7.3097e-07	1149.8	364.63	7.4701e-07	7.3871e-07	397.23	117.01	99.483	38.029	7.5026e-07	53.631	201.011	6.293	10.425	-33.451	18.264	181.704	-34.080	-29.591	63.418	60.695	-31.095	-26.183	-25.249	-21.135	98.912	-22.781	-8191	255	
44467.477	1	1	0	0	0.048954	0.06243	0.22732	0.20674	0.215	0.17852	0.26613	0.16502	0.13941	0.045495	0.23165	0.044852	0.22589	0.24051	0.13191	0.090661	-4.5792	-4.0771	-4.3	-5.0417	-3.7146	-4.7042	-4.6354	-4.0854	-4.8542	-4.325	-4.2188	-4.9437	-4.0542	-4.5771	-4.5479	-3.9688	241.398	189.034	80.413	291.508	18.813	-45.741	286.833	292.808	200.232	290.875	14.266	193.594	263.058	234.653	54.304	-29.082	0.00013048	0.00052124	0.00012796	1390.2	5.6716e-06	5.0987e-06	1373.8	439.37	6.0703e-06	5.9572e-06	497.39	142.8	122.73	47.403	4.307e-06	67.465	7.2662e-05	6.7821e-05	1.8942e-05	1181.2	7.621e-07	7.4005e-07	1172.1	369.92	7.5269e-07	7.496e-07	408.68	119.3	101.41	39	7.4684e-07	54.871	183.179	28.434	17.455	-33.441	58.241	95.506	-33.698	-29.491	78.537	93.962	-31.290	-26.381	-25.048	-20.967	53.417	-23.000	-8191	255	
44467.574	1	1	0	0	0.17553	0.09413	0.17934	0.20277	0.19539	0.21829	0.13037	0.30758	0.17919	0.087427	0.20515	0.17119	0.038737	0.18489	0.24635	0.17569	-4.6396	-4.1833	-3.9062	-4.9167	-4.0417	-4.3792	-4.8667	-4.0687	-4.7604	-4.2188	-4.0542	-5.0271	-4.0104	-4.425	-4.5542	-3.8063	291.008	137.501	-31.384	213.029	311.934	131.364	236.141	275.283	25.549	118.552	304.485	-13.447	301.790	17.615	-42.690	288.031	0.00017775	0.00050464	0.00018341	1417.7	3.0097e-06	4.253e-06	1413.8	448.97	5.4186e-06	2.2017e-06	504.02	146.82	124.82	48.061	2.9384e-06	69.847	7.4827e-05	6.8773e-05	1.9374e-05	1207	7.6668e-07	7.4488e-07	1204.7	378.57	7.8643e-07	7.4629e-07	415.83	122.7	103.44	39.756	7.734e-07	56.488	196.347	38.730	15.480	-33.237	155.181	114.360	-33.698	-29.531	96.808	100.165	-30.953	-26.197	-25.143	-20.631	26.866	-22.306	-8191	255	
44467.672	1	1	0	0	0.040027	0.0336	0.11434	0.20315	0.031678	0.21985	0.20082	0.23837	0.091935	0.10154	0.16182	0.12072	0.061847	0.24699	0.10033	0.18251	-4.5083	-4.325	-3.8979	-4.9938	-3.8604	-4.4479	-5.1208	-4.1312	-4.6687	-4.3792	-4.1188	-4.8896	-4.1458	-4.3063	-4.7833	-3.7625	97.650	23.534	238.681	247.175	232.937	99.604	241.676	232.675	90.046	36.407	292.964	286.662	259.154	-12.623	106.240	191.962	0.00016005	0.00018214	0.00018544	1437.6	5.5484e-06	4.5824e-06	1431.6	453.97	4.6567e-06	4.3694e-06	507.93	147.35	125.41	48.042	1.8261e-06	68.011	7.6392e-05	7.0461e-05	1.9851e-05	1221.5	7.8765e-07	7.8086e-07	1224.7	382.66	7.985e-07	7.8049e-07	419.91	123.31	103.85	39.511	7.6537e-07	55.404	201.645	57.788	305.943	-33.450	110.235	93.662	-33.837	-29.493	65.045	44.902	-31.000	-26.677	-24.967	-21.164	42.587	-22.822	-8191	255	
44467.766	1	1	0	0	0.20651	0.12153	0.23536	0.2487	0.099998	0.19193	0.13946	0.13439	0.1084	0.045723	0.23642	0.27522	0.15829	0.13918	0.037325	0.10142	-4.1646	-4.4875	-3.7979	-4.9083	-4.2646	-4.2604	-5.0188	-3.9396	-4.4792	-4.6562	-3.9542	-4.9021	-4.3396	-4.1333	-4.8167	-3.9479	-39.763	264.524	286.103	-36.428	149.351	73.579	175.421	269.778	286.864	177.643	-45.486	257.901	293.674	276.134	-35.084	-27.807	0.00013707	0.00070299	0.00010347	1407.7	1.6794e-06	7.0481e-06	1388.2	439.62	5.2e-06	2.0599e-06	486.73	141.12	121.13	46.589	9.2067e-07	65.501	7.5989e-05	6.9229e-05	1.9683e-05	1200.2	7.8218e-07	7.5988e-07	1180.9	370.96	7.6864e-07	7.4316e-07	400.89	117.72	100.25	38.299	7.511e-07	53.387	205.376	-17.880	212.344	-33.508	233.630	72.010	-33.713	-29.715	128.969	12.120	-31.221	-26.654	-25.095	-20.783	305.739	-22.778	-8191	255	
44467.863	1	1	0	0	0.2526	0.20615	0.17402	0.3279	0.19443	0.3477	0.33976	0.26735	0.18249	0.10655	0.24882	0.23829	0.26866	0.25703	0.17542	0.044639	-4.1458	-4.6667	-3.9854	-4.975	-4.2875	-3.9833	-4.9375	-4.0896	-4.3854	-4.7812	-4.0521	-4.7688	-4.4229	-3.9417	-4.8063	-4.2833	142.126	146.842	128.593	234.571	-35.824	124.150	281.405	308.680	64.958	209.797	237.066	241.199	277.853	189.991	170.801	225.818	0.00017341	0.00026934	0.00015884	1378.2	2.4874e-06	6.4407e-06	1364.3	434.91	5.2271e-06	2.9028e-06	484.86	139.83	121.15	46.369	1.1981e-06	65.443	7.5561e-05	6.8569e-05	1.8862e-05	1172.8	7.5501e-07	7.5672e-07	1159.6	367.01	7.7683e-07	7.4473e-07	398.58	117.37	100.14	38.202	7.6117e-07	53.251	214.010	-22.819	-2.868	-33.598	102.305	106.036	-33.937	-29.505	84.814	43.996	-30.806	-26.362	-24.970	-20.707	273.485	-22.789	-8191	255	
44467.984	1	1	0	0	0.25383	0.082403	0.14118	0.24851	0.11171	0.17791	0.22117	0.34098	0.041781	0.16342	0.21359	0.29818	0.10818	0.10538	0.18333	0.14171	-4.0333	-4.7312	-3.8812	-4.7833	-4.3812	-4.0271	-5.0208	-4.2	-4.1667	-4.7375	-3.8812	-4.5208	-4.6792	-3.975	-4.7229	-4.3479	211.939	151.176	286.298	206.012	10.140	57.665	284.083	-16.390	218.979	186.302	220.092	-38.073	197.360	74.411	276.072	186.472	0.00010371	0.00058494	0.00033551	1395.7	4.2659e-06	4.1987e-06	1375.3	440.04	4.5374e-06	4.0644e-06	487.9	142.34	121.97	46.883	2.1132e-06	66.06	7.4827e-05	6.9976e-05	1.8887e-05	1182.7	7.7423e-07	7.4718e-07	1172.9	371.48	7.7653e-07	7.3087e-07	402.53	118.66	101.19	38.541	7.6403e-07	53.94	165.076	2.783	-7.211	-33.686	99.917	83.046	-33.769	-29.550	130.413	89.960	-31.076	-26.515	-25.285	-20.663	70.167	-22.744	-8191	255	
44468.078	1	1	0	0	0.023667	0.28587	0.15857	0.33206	0.13919	0.089967	0.069715	0.1263	0.15203	0.32472	0.12457	0.16853	0.317	0.096877	0.12436	0.10946	-3.9625	-4.6813	-3.7313	-4.6229	-4.5042	-3.9458	-5.05	-4.3958	-4.1104	-4.7438	-3.9708	-4.5687	-4.7083	-3.8417	-4.8458	-4.4542	-4.163	3.312	54.653	254.694	37.192	137.331	232.383	308.971	-39.822	132.090	-17.358	245.325	299.286	61.985	211.529	204.209	0.00023992	0.00025915	0.00019351	1413.2	3.381e-06	1.1015e-06	1409.1	449.13	2.5601e-06	6.898e-06	501.15	145.19	123.87	47.243	2.5879e-06	68.211	7.6086e-05	6.7331e-05	1.9476e-05	1202.1	8.0195e-07	7.634e-07	1197	377.95	7.8092e-07	7.5647e-07	413.61	121.09	103.04	39.215	7.8717e-07	55.36	198.237	10.332	-5.695	-33.536	102.276	-5.043	-33.813	-29.426	112.150	68.497	-30.820	-26.727	-25.283	-20.506	12.598	-22.892	-8191	255	
44468.176	1	1	0	0	0.076778	0.10076	0.069848	0.17555	0.062575	0.062788	0.37101	0.23176	0.24915	0.12367	0.20757	0.18775	0.15733	0.137	0.11637	0.22075	-3.5812	-4.7562	-4.0167	-4.4458	-4.6354	-4.0208	-4.8875	-4.5958	-3.9542	-4.7458	-4.1521	-4.4521	-4.8729	-4.0208	-4.6667	-4.6146	1.326	15.503	81.727	253.037	124.076	-12.909	242.143	282.363	205.352	60.906	299.975	237.367	-30.522	225.214	199.181	277.700	0.0001765	0.00036758	6.33e-05	1438.3	2.6038e-06	4.1085e-06	1434	454.89	8.1795e-07	3.7508e-06	510.7	145.98	125.8	47.996	4.1357e-06	67.62	7.7205e-05	7.1359e-05	2e-05	1221.3	7.9999e-07	7.9245e-07	1223.1	383.95	8.0424e-07	7.7966e-07	420.98	122.76	104.33	39.487	8.0144e-07	55.061	186.264	2.907	-5.728	-33.856	53.115	97.053	-34.054	-29.572	65.366	91.112	-31.256	-26.679	-25.183	-20.984	82.933	-22.671	-8191	255	
44468.273	1	1	0	0	0.062018	0.10723	0.065014	0.28758	0.10247	0.12171	0.047183	0.02897	0.080002	0.10752	0.22974	0.35528	0.14517	0.14774	0.04667	0.24707	-3.625	-4.8708	-4.1167	-4.3688	-4.8438	-4.0125	-4.7771	-4.7063	-3.9021	-4.775	-4.4146	-4.3083	-4.9229	-4	-4.45	-4.6729	227.738	149.243	-17.055	231.655	44.803	30.610	-10.164	239.554	155.159	224.990	295.379	210.129	234.778	295.553	-1.375	124.239	0.0001901	0.00073395	0.0001303	1429.9	2.943e-06	2.1578e-06	1404.8	446.01	2.6482e-06	3.4842e-06	482.6	140.77	122.01	46.538	3.6144e-06	64.315	7.7052e-05	7.1498e-05	2.0349e-05	1216.3	7.9577e-07	7.7097e-07	1197.7	376.28	7.8497e-07	7.5663e-07	402.85	117.88	100.8	38.186	7.6143e-07	52.648	202.195	308.167	-15.177	-33.653	85.945	106.479	-34.036	-29.272	168.851	52.768	-31.257	-26.941	-25.109	-21.071	111.608	-22.678	-8191	255	
44468.367	1	1	0	0	0.23259	0.02171	0.11455	0.39179	0.26864	0.14231	0.16841	0.1197	0.10854	0.089155	0.18756	0.13325	0.076325	0.16126	0.20084	0.16997	-3.6917	-4.7708	-4.2896	-4.1104	-4.8458	-3.8187	-4.5771	-4.8708	-3.8854	-4.7646	-4.5479	-4.1937	-5.1104	-4.1396	-4.4375	-4.9104	152.539	66.976	106.449	-34.538	73.446	93.913	308.385	263.029	1.270	246.973	264.126	264.623	36.074	167.001	284.672	249.472	0.00017613	0.00049644	6.7112e-05	1373.3	1.1505e-06	3.1142e-06	1357.9	432.62	3.4971e-06	4.9043e-06	480.49	138.69	120.8	46.263	5.605e-06	64.686	7.5295e-05	6.9195e-05	1.9308e-05	1170.1	7.6996e-07	7.6956e-07	1152.5	365.87	7.6977e-07	7.3267e-07	394.96	116	99.983	37.902	7.6916e-07	52.551	213.353	-42.163	91.638	-33.719	272.985	77.972	-34.279	-29.473	33.993	62.587	-30.974	-26.710	-25.045	-20.721	41.741	-22.607	-8191	255	
44468.465	1	1	0	0	0.10975	0.14831	0.1171	0.26127	0.11516	0.1045	0.2349	0.19335	0.33302	0.15697	0.13657	0.20473	0.23923	0.26087	0.19442	0.17934	-3.7729	-4.7833	-4.3167	-4.1188	-4.8187	-4.0917	-4.3042	-4.8479	-3.8208	-4.8063	-4.675	-4.0938	-4.7188	-4.2896	-4.1667	-4.8313	-19.250	247.285	17.739	-24.599	125.684	81.850	250.088	232.818	184.050	298.109	236.456	67.409	284.708	-12.798	299.794	140.475	0.0001299	0.00016591	0.00022875	1384.6	6.6842e-06	2.6563e-06	1375.1	440.66	7.9176e-06	2.4571e-06	488.14	141.35	121.52	46.901	4.4752e-06	65.484	7.591e-05	6.7685e-05	1.8996e-05	1175.2	7.4095e-07	7.4166e-07	1163.9	370.23	7.6828e-07	7.4596e-07	401.55	117.93	100.83	38.405	7.629e-07	53.492	192.984	-15.218	12.747	-33.506	76.254	63.392	-34.009	-29.426	127.684	15.414	-30.988	-26.825	-24.979	-20.429	73.010	-22.593	-8191	255	
44468.582	1	1	0	0	0.19388	0.10284	0.13488	0.30412	0.096029	0.14739	0.16732	0.24066	0.048351	0.10127	0.33023	0.19749	0.18906	0.26121	0.025201	0.070158	-3.4917	-4.6188	-4.5625	-4.1104	-4.7708	-4.275	-4.3271	-5.0042	-4.0417	-4.5479	-4.7729	-3.9688	-4.9021	-4.4854	-4.0333	-5.1104	183.781	266.574	74.993	308.503	66.440	78.728	266.868	237.961	273.417	-31.023	238.656	240.201	187.018	273.757	-22.908	228.217	0.00014756	0.00057518	4.0123e-05	1390.6	6.3489e-06	3.2871e-06	1391.2	444.87	3.726e-06	5.6158e-06	493.21	143.56	123.85	47.096	6.7863e-06	66.39	7.4644e-05	6.831e-05	1.9452e-05	1187.5	7.8201e-07	7.6508e-07	1182.5	374.99	7.8209e-07	7.635e-07	408.09	120.19	102.33	38.777	8.0359e-07	54.123	184.901	21.005	200.739	-33.496	61.176	100.840	-33.896	-29.307	83.505	77.913	-31.180	-26.564	-25.110	-21.150	47.502	-22.217	-8191	255	
44468.680	1	1	0	0	0.086254	0.2062	0.14432	0.38541	0.20016	0.11031	0.30615	0.21799	0.047754	0.21688	0.1387	0.07828	0.13004	0.20292	0.16048	0.24545	-3.5458	-4.3771	-4.6458	-3.9333	-4.7479	-4.4354	-4.0125	-4.9729	-3.9938	-4.2417	-4.9458	-4.0062	-4.7979	-4.6312	-3.9354	-5.1708	42.318	28.756	222.471	248.431	141.946	59.666	258.975	268.517	-38.402	238.621	294.374	292.928	299.641	29.989	169.490	271.073	0.00020324	0.0003814	0.00013901	1420	4.1486e-06	6.3191e-06	1424.5	453.17	5.6282e-06	2.5651e-06	507.81	147.3	125.71	48.072	1.2398e-06	67.987	7.7072e-05	6.8896e-05	1.959e-05	1210.8	7.8417e-07	7.6785e-07	1210.7	381.94	8.0688e-07	7.6491e-07	418.82	122.7	104.13	39.576	7.7904e-07	55.202	199.605	13.940	-11.030	-33.383	60.270	43.992	-34.168	-29.596	75.705	35.058	-31.254	-26.724	-25.232	-20.625	172.995	-22.736	-8191	255	
44468.777	1	1	0	0	0.11503	0.047038	0.12732	0.38295	0.028439	0.17731	0.26476	0.25978	0.27456	0.16324	0.27265	0.07457	0.1137	0.10432	0.069331	0.299	-3.9208	-4.25	-4.7979	-4.0604	-4.6896	-4.4313	-4.0125	-5.0854	-4.1417	-4.2083	-4.8625	-4.0458	-4.5604	-4.6125	-4.0125	-4.9833	151.822	38.108	-23.233	267.431	16.909	93.009	244.898	254.190	146.085	201.682	205.543	292.701	263.694	171.634	266.937	-35.600	0.00018216	0.00066452	0.00020415	1432.7	4.3088e-06	5.9321e-06	1428.2	448.92	4.0685e-06	2.7378e-06	499.88	143.66	123.77	46.842	2.719e-06	65.875	7.9942e-05	6.9967e-05	1.9535e-05	1218.9	7.7227e-07	7.9251e-07	1211.5	380.26	7.9849e-07	7.8383e-07	412.67	120.19	102.51	38.646	7.7739e-07	53.507	201.649	43.647	290.382	-33.524	65.801	56.420	-34.165	-29.634	98.310	36.720	-30.891	-26.457	-25.112	-21.113	67.650	-22.791	-8191	255	
44468.848	1	1	0	0	0.083257	0.075043	0.10761	0.38579	0.16945	0.25644	0.27324	0.095693	0.088547	0.34765	0.19237	0.25822	0.11126	0.15219	0.036354	0.168	-3.9021	-4.2354	-4.9062	-4.075	-4.525	-4.5375	-4.1792	-4.9229	-4.1687	-4.1583	-4.9625	-4.2	-4.4313	-4.7479	-3.8542	-4.8229	167.620	-32.341	101.543	288.350	254.397	30.738	242.243	234.243	260.677	195.354	214.813	248.888	6.469	302.121	68.264	-39.738	0.00015561	0.00016456	0.00011822	1401.7	1.9609e-06	4.922e-06	1377.9	439.69	3.3879e-06	3.536e-06	484.33	141.01	123.02	46.659	2.5724e-06	65.127	7.6505e-05	6.9996e-05	1.9218e-05	1190.2	7.6615e-07	7.4168e-07	1170.4	371.56	7.7031e-07	7.3475e-07	401.55	117.86	101.68	38.486	7.4714e-07	53.158	183.554	22.458	-38.294	-33.589	130.812	83.434	-34.112	-29.720	151.163	78.612	-31.014	-26.515	-25.464	-20.587	78.130	-23.007	-8191	255	
44468.969	1	1	0	0	0.15763	0.13029	0.19823	0.15817	0.01098	0.16325	0.27628	0.19174	0.11516	0.13815	0.020252	0.35733	0.26838	0.123	0.18667	0.22272	-3.9521	-4.0479	-4.8438	-4.2625	-4.3583	-4.8125	-4.1542	-4.8792	-4.6021	-4.025	-5.0604	-4.3146	-4.2292	-5.0437	-3.8896	-4.6708	125.515	246.647	50.809	221.175	197.650	294.499	252.996	296.970	213.864	57.329	43.957	-31.306	238.148	139.474	112.784	-29.516	0.00019014	0.00039156	0.00011214	1402.9	8.223e-07	5.2671e-06	1396.5	444.06	3.4072e-07	2.0725e-06	498.55	143.34	125.18	47.382	2.0983e-06	66.745	7.5074e-05	6.7572e-05	1.8694e-05	1193.7	7.6186e-07	7.5534e-07	1186.4	376.53	7.7172e-07	7.4866e-07	409.69	120.06	103.23	39.042	7.6088e-07	54.312	188.231	40.638	-28.511	-33.786	87.814	130.590	-33.929	-29.669	9.338	90.606	-31.202	-26.930	-25.321	-20.907	136.850	-22.890	-8191	255	
44469.062	1	1	0	0	0.05084	0.12755	0.11679	0.26887	0.14172	0.18453	0.19017	0.16319	0.071404	0.24677	0.29939	0.10532	0.1908	0.127	0.16189	0.1371	-4.2771	-3.9479	-4.8521	-4.3396	-4.2125	-4.8229	-4.2	-4.7917	-4.6146	-3.9417	-4.8812	-4.4042	-4.1542	-4.9042	-4.0042	-4.5104	191.065	46.966	87.214	306.825	170.705	52.995	242.797	226.310	-40.278	132.880	261.811	266.318	-11.675	224.213	214.185	251.812	0.00019401	0.00068087	0.00022052	1421	5.2793e-06	7.9187e-06	1418.5	453.73	4.0359e-06	6.5295e-06	508.44	146.4	127.08	48.229	6.7684e-06	67.509	7.6432e-05	6.8995e-05	1.9441e-05	1209.2	7.6726e-07	7.5025e-07	1207	382.41	7.727e-07	7.7068e-07	418.1	122.3	105.18	39.627	7.7335e-07	55.046	194.525	-5.651	16.353	-33.538	45.600	106.925	-33.852	-29.651	132.673	47.058	-30.893	-26.416	-25.331	-20.521	69.417	-22.775	-8191	255	
44469.160	1	1	0	0	0.21936	0.088236	0.12098	0.18328	0.16149	0.12991	0.34993	0.51289	0.12308	0.018854	0.29227	0.14185	0.081809	0.11006	0.20296	0.18594	-4.3354	-3.9292	-4.6354	-4.4792	-4.0375	-4.8958	-4.0625	-4.4729	-4.4792	-3.875	-4.6771	-4.3396	-3.9792	-4.9979	-4.075	-4.5417	232.874	308.293	211.646	296.439	120.502	142.210	277.856	255.738	-12.199	22.074	225.447	304.008	40.054	298.318	11.244	5.746	0.00013252	0.00018481	0.00011549	1445.2	3.3358e-06	3.937e-06	1437.1	458.47	6.2774e-06	2.8464e-06	514.38	148.98	128.01	48.521	1.9556e-06	68.628	7.4477e-05	6.9466e-05	1.9098e-05	1228	7.9736e-07	7.684e-07	1224.8	387.54	7.9229e-07	7.6737e-07	423.24	124.09	105.83	40.063	7.9506e-07	55.784	204.597	-39.998	-6.985	-33.426	104.245	-43.114	-34.245	-29.811	97.265	28.350	-31.159	-26.526	-25.449	-20.699	30.308	-22.642	-8191	255	
44469.258	1	1	0	0	0.1896	0.16323	0.053973	0.30793	0.11182	0.32251	0.27856	0.24903	0.11574	0.026283	0.13332	0.45147	0.2283	0.01508	0.19492	0.18977	-4.5375	-3.8104	-4.7042	-4.7625	-4.0917	-4.7208	-4.2729	-4.3479	-4.7729	-3.9417	-4.5417	-4.6292	-4.0542	-4.9437	-4.1458	-4.3417	180.406	124.757	284.680	302.059	267.283	171.038	263.320	216.354	7.245	169.738	232.765	306.578	-43.616	201.991	246.186	252.585	0.00016664	0.00052314	0.00025422	1454.6	3.9669e-06	3.4321e-06	1457.4	465.54	5.7974e-06	3.8575e-06	517.67	149.4	128.7	48.333	2.7029e-06	68.324	7.7957e-05	7.1225e-05	2.0321e-05	1238.6	8.0578e-07	7.7696e-07	1235.8	390.81	7.9816e-07	7.8858e-07	425.42	124.1	106.19	39.833	7.8786e-07	55.101	200.178	17.802	-4.682	-33.594	46.808	96.188	-33.914	-29.860	105.289	105.560	-30.949	-26.331	-25.060	-20.872	85.677	-22.585	-8191	255	
44469.375	1	1	0	0	0.026032	0.14503	0.033045	0.32535	0.12519	0.025798	0.17444	0.1006	0.22723	0.041195	0.036448	0.087285	0.32294	0.17273	0.10083	0.4292	-4.6417	-3.9729	-4.4604	-4.7937	-3.8521	-4.8167	-4.4313	-4.1146	-4.7729	-4.0042	-4.4729	-4.7708	-3.8375	-4.75	-4.3542	-4.1562	63.047	166.151	164.599	262.026	282.736	100.882	104.152	209.104	297.403	205.711	133.171	-47.176	298.642	303.576	-27.920	265.849	0.00018962	0.00044506	7.4336e-05	1437.2	4.9556e-06	5.7633e-06	1416	450.65	3.1823e-06	4.3582e-06	497.92	141.84	124.47	46.665	3.964e-06	64.805	7.7472e-05	7.1577e-05	1.9849e-05	1221.4	8.0698e-07	7.6632e-07	1204.2	380.26	7.839e-07	7.9422e-07	408.29	118.95	102.76	38.643	7.5983e-07	52.896	178.333	66.914	-29.353	-33.452	91.998	65.708	-33.966	-29.686	62.188	43.450	-30.855	-26.215	-25.563	-21.291	77.454	-22.909	-8191	255	
44469.445	1	1	0	0	0.09724	0.17643	0.1242	0.16549	0.22015	0.017356	0.28509	0.082939	0.096505	0.10245	0.13019	0.18106	0.1972	0.41531	0.030021	0.2313	-4.5062	-3.8479	-4.3688	-4.8	-4.0042	-4.7979	-4.4146	-4.0813	-4.8812	-4.0208	-4.4479	-4.8063	-4.0854	-4.85	-4.575	-3.9979	33.102	118.206	301.911	221.541	145.694	144.831	264.007	270.689	48.065	90.441	283.663	100.245	8.293	293.975	227.096	245.498	0.00013004	0.00052523	0.00016878	1400.9	9.9227e-07	5.4144e-06	1376.7	444.5	3.8156e-06	3.7628e-06	489.77	141.11	124.52	47.13	3.3628e-06	65.404	7.4841e-05	7.0515e-05	1.9767e-05	1191.2	7.8474e-07	7.4564e-07	1171.7	374.51	7.6604e-07	7.7846e-07	404.97	118.2	102.78	38.718	7.9744e-07	53.202	174.919	4.083	7.358	-33.554	307.122	28.760	-33.804	-29.833	123.500	298.423	-30.919	-26.345	-25.400	-21.084	39.955	-22.874	-8191	255	
44469.543	1	1	0	0	0.22186	0.27518	0.030718	0.14349	0.19625	0.13123	0.26438	0.17349	0.10327	0.099377	0.31739	0.23051	0.10008	0.12402	0.072028	0.19277	-4.5979	-4.1646	-4.1167	-4.9437	-3.8458	-4.6917	-4.7667	-4.0771	-4.9313	-4.2646	-4.3479	-4.9604	-4.0208	-4.7	-4.7125	-4.0604	15.060	160.154	269.375	265.146	272.800	157.385	227.787	-7.795	206.387	-32.168	257.194	252.772	276.551	292.267	112.259	15.793	0.00018863	0.00057271	0.00024459	1411.2	1.4686e-06	2.1723e-06	1395	447.13	6.5179e-07	4.9123e-06	498.12	143.35	124.6	47.531	4.5229e-06	66.621	7.5791e-05	7.2217e-05	1.926e-05	1199.8	7.9219e-07	7.4705e-07	1185.7	377.89	7.8392e-07	7.9174e-07	408.98	120.06	102.99	39.18	7.8618e-07	54.253	199.879	11.461	14.214	-33.353	284.394	97.382	-33.981	-29.546	134.943	80.863	-31.165	-26.369	-25.313	-21.005	73.551	-23.076	-8191	255	
44469.664	1	1	0	0	0.27444	0.11404	0.22268	0.38356	0.16724	0.050453	0.3142	0.19776	0.12707	0.1759	0.35724	0.21892	0.23768	0.34135	0.23562	0.12317	-4.4479	-4.2771	-4.1396	-4.9938	-4.0583	-4.45	-4.8542	-3.9354	-4.8167	-4.2937	-4.1875	-4.9042	-4.0583	-4.4104	-4.6396	-3.7104	45.960	249.693	-35.704	258.883	194.502	10.914	218.241	206.886	-4.017	214.347	282.969	272.970	305.562	284.265	311.083	-25.561	0.00015429	0.0005463	0.00019848	1424.7	5.0789e-06	1.7944e-06	1416.4	453.29	3.7484e-06	5.0307e-06	505.22	146.45	125.95	48.242	4.6107e-06	67.887	7.7138e-05	6.9999e-05	1.9451e-05	1211.8	7.9428e-07	7.495e-07	1205.7	381.88	7.7072e-07	7.657e-07	415.58	122.42	104.52	39.692	7.9861e-07	55.32	203.448	6.872	-15.393	-33.525	86.048	112.977	-33.543	-29.702	133.836	77.890	-31.060	-26.193	-25.414	-20.956	66.787	-22.757	-8191	255	
44469.762	1	1	0	0	0.11733	0.20452	0.078631	0.15316	0.051012	0.078355	0.13182	0.39179	0.27167	0.16159	0.10856	0.19409	0.077365	0.1629	0.28284	0.22561	-4.3833	-4.425	-3.9313	-5.0354	-4.0813	-4.4125	-4.9521	-4.2042	-4.6375	-4.5896	-3.9979	-5.0396	-4.2979	-4.2604	-4.7958	-4.0042	273.046	32.071	238.706	-25.433	91.681	221.626	275.314	237.780	39.528	47.273	101.678	279.132	86.156	100.310	-8.409	308.791	0.00020725	0.00041402	0.00023402	1436.2	4.6464e-06	3.7499e-06	1435.5	454.54	2.5486e-06	4.0217e-06	508.13	146.84	125.86	48.201	3.8783e-06	68.372	7.7016e-05	7.1209e-05	2.036e-05	1220.4	8.0052e-07	7.6491e-07	1221.6	384.75	8.1721e-07	7.7755e-07	420.61	123.3	105.06	39.841	7.7118e-07	55.606	192.962	-24.297	35.288	-33.211	28.810	87.796	-33.830	-29.680	188.704	54.986	-31.166	-26.510	-25.233	-20.889	96.763	-23.159	-8191	255	
44469.855	1	1	0	0	0.12831	0.062163	0.14084	0.44515	0.11376	0.052885	0.33102	0.17076	0.066685	0.14413	0.11849	0.09818	0.063492	0.11611	0.14861	0.15947	-4.2771	-4.7333	-3.8604	-4.9375	-4.2583	-4.0979	-5.0458	-4.0437	-4.4917	-4.6083	-4.0542	-4.9146	-4.4	-4.3938	-4.7792	-3.9021	44.061	214.612	59.070	272.197	-19.080	252.894	228.835	248.883	292.364	87.315	-43.824	-35.415	101.614	230.120	294.654	26.327	0.00017999	0.00025353	3.4215e-05	1436.9	6.6633e-06	5.0986e-06	1412	450	1.4875e-06	2.882e-06	494.97	143.16	123.71	47.313	2.9592e-06	65.604	7.6187e-05	7.0327e-05	2.0172e-05	1217.3	7.9924e-07	7.735e-07	1202.8	379.62	7.6511e-07	7.572e-07	409.1	119.69	102.81	39.029	7.8468e-07	53.41	204.517	58.736	18.001	-33.634	80.177	52.846	-33.869	-29.638	228.520	43.438	-31.118	-26.612	-24.934	-21.199	134.057	-23.291	-8191	255	
44469.977	1	1	0	0	0.2435	0.25619	0.15282	0.078258	0.066443	0.22891	0.13819	0.17383	0.21151	0.060093	0.10454	0.11483	0.21532	0.18635	0.22775	0.19773	-4.0979	-4.7208	-3.8812	-4.9229	-4.35	-4.0813	-4.9667	-4.1208	-4.2958	-4.7646	-3.8937	-4.6729	-4.4208	-3.85	-4.8625	-4.1542	250.168	267.527	43.312	11.092	13.396	215.036	243.211	209.765	-47.618	-11.128	251.987	199.751	263.503	57.355	231.099	140.637	0.00020104	0.0005104	0.00010193	1390.2	3.6706e-06	4.4111e-06	1362.6	441.51	2.1895e-06	2.0954e-06	485.58	139.75	122.46	46.641	1.4691e-06	65.06	7.6521e-05	6.9218e-05	1.9648e-05	1182	7.6847e-07	7.5877e-07	1164	372.12	7.4817e-07	7.4578e-07	400.64	117.21	101.59	38.607	7.6018e-07	53.112	199.820	-38.031	27.907	-33.699	122.675	39.164	-34.110	-29.667	97.654	66.966	-30.998	-26.565	-24.981	-21.069	178.406	-22.882	-8191	255	
44470.074	1	1	0	0	0.085883	0.28041	0.068972	0.17841	0.281	0.1304	0.13223	0.17719	0.04673	0.15969	0.20898	0.34114	0.26419	0.26864	0.094298	0.10733	-4.0062	-4.6271	-3.8708	-4.7417	-4.4125	-3.7875	-5.1354	-4.3063	-4.2083	-4.8229	-3.9542	-4.6792	-4.5042	-3.9562	-4.9229	-4.2292	176.599	4.173	300.301	242.013	-7.062	48.827	274.799	258.482	32.412	186.575	-12.452	289.047	289.115	-46.712	220.064	-4.639	0.00012492	0.00034841	0.00018319	1399.8	2.2041e-06	3.5104e-06	1382.1	443.76	2.3209e-06	3.229e-06	494.31	141.94	124.83	47.182	1.2704e-06	65.801	7.5565e-05	6.9218e-05	1.9532e-05	1189	7.875e-07	7.6198e-07	1178.7	375.25	7.6299e-07	7.5479e-07	406.77	119.14	103.32	38.975	7.7458e-07	53.803	197.644	17.274	4.803	-33.555	305.346	17.029	-34.184	-29.505	60.845	58.529	-31.234	-26.478	-25.130	-21.151	128.146	-22.796	-8191	255	
44470.145	1	1	0	0	0.097559	0.067522	0.10296	0.31603	0.21183	0.12207	0.15119	0.14827	0.24256	0.21384	0.17009	0.069843	0.17535	0.18999	0.067928	0.075878	-3.9604	-4.8083	-3.9938	-4.5521	-4.6708	-3.9813	-4.9729	-4.3688	-4.0333	-4.9625	-4.1042	-4.4354	-4.6375	-3.8083	-4.8354	-4.4229	282.580	-27.105	37.356	289.113	-20.655	282.075	-43.857	226.969	107.202	52.343	292.766	267.984	285.007	295.910	40.971	270.747	0.00015471	0.00023419	0.00010746	1422.3	4.3771e-06	2.248e-06	1418.1	452.45	2.9438e-06	1.2817e-06	502.39	144.55	126.47	48.19	5.4916e-06	66.885	7.5803e-05	7.0443e-05	1.9812e-05	1207.1	7.8192e-07	7.8281e-07	1202.9	382.31	7.8473e-07	7.593e-07	414.43	121.12	104.56	39.541	7.7857e-07	54.598	162.520	83.052	-6.771	-33.545	80.381	18.509	-34.234	-29.591	96.877	281.201	-30.851	-26.618	-25.065	-21.081	49.051	-23.067	-8191	255	
44470.266	1	1	0	0	0.21247	0.18791	0.09351	0.15189	0.20834	0.13006	0.085977	0.24208	0.13822	0.094858	0.041701	0.14826	0.091372	0.22485	0.15566	0.074556	-3.6813	-4.9375	-4	-4.525	-4.8812	-4.0854	-4.7521	-4.6854	-3.9854	-4.9208	-4.2896	-4.3521	-4.8688	-3.8312	-4.5354	-4.6625	97.588	97.328	100.103	246.605	138.056	215.234	284.768	-28.781	-20.238	281.184	234.115	288.653	76.691	-28.280	292.326	-19.529	0.00014867	0.00037788	0.00012565	1440.2	3.902e-06	6.112e-06	1430.5	457.66	5.8492e-07	7.4514e-06	508.1	145.51	127.71	48.509	6.8874e-06	68.223	7.7945e-05	7.1931e-05	2.0334e-05	1224.8	8.0665e-07	7.7815e-07	1220.6	386.09	8.0938e-07	7.773e-07	419.48	122.15	105.37	39.965	7.7968e-07	55.331	180.642	24.607	-18.472	-33.676	98.996	72.755	-33.903	-29.594	306.067	86.139	-30.903	-26.828	-25.476	-20.658	59.847	-22.662	-8191	255	
44470.359	1	1	0	0	0.25663	0.084871	0.15875	0.27051	0.37954	0.23066	0.31488	0.052844	0.083304	0.19197	0.09332	0.14981	0.13793	0.27251	0.05775	0.12535	-3.5646	-4.6729	-4.1083	-4.2771	-4.8896	-3.9521	-4.7521	-4.725	-3.8937	-4.875	-4.2875	-4.1583	-4.7937	-4.1042	-4.3333	-4.6958	265.991	11.738	21.641	268.489	74.292	271.924	243.315	244.711	35.174	25.829	213.993	-2.742	189.583	-16.376	42.962	112.131	0.00020527	0.00052366	0.00013465	1445.9	5.2748e-06	5.4251e-06	1441.9	457.12	1.7011e-06	4.7616e-06	503.04	145.2	126.31	48.038	5.2689e-06	66.43	7.8608e-05	7.3137e-05	2.0288e-05	1229	7.8838e-07	7.8485e-07	1224.1	385.17	8.0657e-07	7.6899e-07	415.78	121.1	104.51	39.497	8.1352e-07	53.924	170.625	23.019	-2.856	-33.666	85.607	106.128	-33.862	-29.449	130.139	81.046	-30.967	-26.877	-25.676	-20.911	87.663	-23.012	-8191	255	
44470.457	1	1	0	0	0.072289	0.19852	0.062201	0.061585	0.049339	0.16059	0.13686	0.11775	0.22354	0.20679	0.13635	0.201	0.22879	0.083737	0.21947	0.12782	-3.6667	-4.6312	-4.3146	-4.0958	-4.8417	-3.8021	-4.5208	-4.8271	-3.8271	-4.6042	-4.5604	-4.2812	-4.8958	-4.1146	-4.1458	-4.7979	147.263	273.488	6.351	278.513	-26.667	-21.808	285.875	242.198	106.845	241.923	270.588	271.571	16.785	87.165	183.943	281.751	0.00017564	0.00087612	0.0001369	1422.5	2.3699e-06	5.086e-06	1387.9	446.1	6.0901e-06	3.7634e-06	485.68	141.55	123.34	47.243	2.4939e-06	65.267	7.7176e-05	7.17e-05	1.9788e-05	1206.1	8.0722e-07	7.6413e-07	1181.7	376.12	7.8159e-07	7.6711e-07	402.87	118.03	102.4	38.876	7.8607e-07	53	197.358	-30.754	9.379	-33.677	73.257	83.069	-34.008	-29.625	133.350	45.709	-31.049	-26.183	-25.405	-21.205	41.540	-22.958	-8191	255	
44470.551	1	1	0	0	0.083368	0.17373	0.023436	0.2045	0.10133	0.13548	0.16416	0.34516	0.16569	0.03956	0.13543	0.098958	0.080072	0.12426	0.21947	0.22033	-3.5292	-4.6917	-4.4313	-4.1062	-4.7458	-4.15	-4.5	-4.8771	-3.9896	-4.6917	-4.7146	-3.8521	-4.9167	-4.2854	-4.2229	-4.875	149.259	157.488	-31.522	-3.203	116.067	-17.653	212.620	238.964	108.916	162.676	-8.345	64.652	264.473	159.934	267.772	296.643	0.00013275	0.00050578	0.0001533	1399.3	3.0597e-06	6.1263e-06	1379.4	446.65	3.0245e-06	4.5931e-06	492.19	142	123.96	47.18	3.7851e-06	65.769	7.6897e-05	6.9653e-05	1.9232e-05	1193.1	7.8312e-07	7.8376e-07	1177.2	376.28	7.9331e-07	7.9129e-07	405.93	118.33	102.93	39.037	7.9965e-07	53.464	179.142	-3.210	-37.021	-33.642	110.490	37.038	-34.431	-29.267	141.722	40.153	-31.090	-26.776	-25.508	-21.279	58.022	-22.851	-8191	255	
44470.672	1	1	0	0	0.063955	0.10806	0.18942	0.27856	0.0933	0.14163	0.16497	0.047292	0.015367	0.11925	0.13629	0.24307	0.016562	0.057554	0.20933	0.32405	-3.6063	-4.4625	-4.6208	-3.9583	-4.8063	-4.35	-4.3063	-5.1042	-4.0583	-4.3604	-4.8708	-4.0208	-4.7604	-4.6042	-4.0521	-4.7979	-1.804	286.411	31.110	310.185	-7.036	131.371	248.667	122.709	137.524	309.864	237.292	234.044	292.857	44.987	141.743	-4.202	0.00020096	0.00040789	0.00035602	1419.4	5.6017e-06	4.948e-06	1405.4	450.2	1.8833e-06	5.3242e-06	498.18	143.09	126.11	48.312	4.1694e-06	66.56	7.9213e-05	7.155e-05	1.9902e-05	1204.8	8.0291e-07	7.7255e-07	1196.2	380.39	8.163e-07	7.8741e-07	409.87	119.77	104.09	39.616	8.0463e-07	54.276	203.463	2.931	0.195	-33.561	47.848	90.967	-34.143	-29.769	171.136	99.435	-31.093	-26.395	-24.875	-21.366	76.674	-22.787	-8191	255	
44470.742	1	1	0	0	0.18399	0.17781	0.15577	0.070094	0.019023	0.087752	0.10788	0.19525	0.17049	0.2655	0.097457	0.031735	0.21182	0.072812	0.24789	0.14833	-3.6833	-4.3833	-4.6833	-3.9146	-4.8083	-4.5542	-4.0604	-5.0625	-4.0958	-4.3625	-4.9396	-4.0292	-4.7854	-4.5896	-3.8146	-5.1167	197.975	144.417	-26.480	26.965	196.920	105.300	-25.950	284.354	41.178	273.729	274.922	-43.569	-36.968	121.226	1.065	262.055	0.00013455	0.00061468	8.6556e-05	1443.5	1.7877e-06	4.7397e-06	1429.3	458.9	6.5335e-06	5.4492e-06	505.83	145.67	128.06	48.216	5.7211e-06	67.027	8.1102e-05	7.337e-05	2.1238e-05	1226.1	8.3039e-07	7.9307e-07	1218.8	387.04	8.1372e-07	7.9012e-07	418.34	121.86	105.9	39.779	8.3657e-07	54.692	201.950	-10.199	17.606	-33.578	172.943	105.211	-33.729	-29.310	75.378	44.164	-31.043	-26.425	-25.394	-21.058	75.882	-22.903	-8191	255	
44470.840	1	1	0	0	0.34323	0.03574	0.16417	0.096585	0.076013	0.13713	0.30168	0.12175	0.08449	0.077957	0.29442	0.12738	0.19318	0.34628	0.077228	0.076596	-3.8167	-4.2104	-4.7479	-4.0208	-4.5292	-4.525	-3.9313	-4.9292	-4.1125	-4.0188	-4.8833	-4.0062	-4.6062	-4.7104	-3.7271	-4.825	300.375	-42.614	126.851	151.343	173.496	273.603	251.858	-37.979	45.066	137.066	302.468	208.655	236.184	-22.626	259.132	257.473	0.00016511	0.00076501	0.00021485	1457.3	2.7803e-06	5.5864e-06	1445.6	462	2.0317e-06	3.5048e-06	507.26	146.05	127.87	48.143	4.4422e-06	67	8.1219e-05	7.4044e-05	2.1044e-05	1241.5	8.284e-07	8.1401e-07	1233.6	391.24	8.3599e-07	8.3211e-07	420.13	122.31	106.03	39.799	8.2423e-07	54.332	205.060	11.556	-14.567	-33.477	104.562	85.569	-33.771	-29.318	128.169	52.085	-30.793	-26.842	-25.441	-20.929	44.004	-22.880	-8191	255	
44470.938	1	1	0	0	0.069546	0.24554	0.11633	0.22274	0.16802	0.17326	0.18076	0.33353	0.064769	0.061424	0.060058	0.034941	0.24073	0.19419	0.13446	0.10925	-3.8146	-3.9688	-4.9208	-4.1312	-4.3125	-4.6813	-4.0458	-4.8562	-4.2812	-3.9333	-5.0208	-4.0813	-4.3646	-4.8833	-3.8229	-4.7375	-43.426	215.044	-42.778	197.735	293.448	-20.525	296.559	-33.705	236.477	184.048	48.199	250.090	274.390	277.848	29.894	-38.960	0.00019449	0.0006397	0.00026879	1445.5	3.0545e-06	6.0334e-06	1400.4	453.03	2.3476e-06	4.8045e-06	486.25	139.29	123.6	46.839	5.831e-06	63.562	8.173e-05	7.387e-05	2.0947e-05	1225.4	8.1299e-07	8.0537e-07	1193	381.36	8.1277e-07	7.9931e-07	403.17	116.96	102.52	38.585	8.1251e-07	51.619	177.721	23.667	-43.020	-33.764	38.188	67.906	-34.012	-29.658	58.182	121.177	-31.024	-26.366	-25.203	-20.877	103.612	-23.269	-8191	255	
44471.059	1	1	0	0	0.1397	0.062701	0.2225	0.15982	0.083406	0.060377	0.22069	0.22194	0.16715	0.060978	0.32533	0.2093	0.12669	0.069694	0.16741	0.061243	-4.0625	-3.9729	-4.7812	-4.1542	-4.2375	-4.7146	-4.0437	-4.8771	-4.4146	-3.9854	-4.95	-4.1542	-4.2417	-4.8583	-4.0896	-4.7146	101.479	217.195	198.051	258.776	212.819	283.448	218.205	245.211	-43.062	36.657	-15.519	300.990	261.236	126.207	21.342	291.512	0.000156	0.00020023	0.00022392	1398.4	4.9284e-06	2.2422e-06	1370.6	445.07	2.0955e-06	6.1982e-06	484.29	138.14	124.08	46.786	2.8995e-06	63.845	7.8037e-05	7.2113e-05	2.0408e-05	1190.9	8.1694e-07	7.9258e-07	1161.8	374.17	8.2037e-07	7.8132e-07	398.2	115.76	102.13	38.634	8.2169e-07	51.908	171.501	95.643	22.812	-33.533	126.357	139.488	-34.141	-29.573	181.784	73.468	-30.960	-26.759	-25.347	-21.034	54.653	-22.990	-8191	255	
44471.152	1	1	0	0	0.15522	0.076135	0.17644	0.15265	0.32103	0.14786	0.42658	0.27484	0.15467	0.16746	0.15203	0.11892	0.20555	0.12512	0.049647	0.26834	-4.2625	-3.8979	-4.8396	-4.2438	-4.0708	-4.8479	-3.85	-4.7625	-4.6333	-3.9604	-4.85	-4.4167	-4.1021	-5.0396	-3.975	-4.4896	68.737	279.057	191.556	-42.492	240.544	306.294	246.545	265.595	-43.601	78.980	242.995	182.029	-0.614	132.074	88.917	270.593	0.00019042	0.00040513	0.00023863	1407.3	9.2463e-06	3.1665e-06	1371.5	448.46	1.7886e-06	3.5599e-06	484.54	139.15	124.62	47.064	6.7275e-06	64.376	7.8105e-05	7.2079e-05	1.989e-05	1195.8	8.4242e-07	8.133e-07	1170.9	377.19	8.2329e-07	8.2045e-07	401.34	116.86	103.41	38.806	8.1688e-07	52.363	193.424	26.323	-13.940	-33.697	110.151	119.274	-33.727	-29.940	-21.410	46.103	-31.246	-26.379	-25.354	-21.052	82.179	-23.111	-8191	255	
44471.246	1	1	0	0	0.1051	0.18722	0.14889	0.21404	0.14829	0.12734	0.36769	0.14902	0.21723	0.25823	0.13886	0.082324	0.15694	0.17454	0.097643	0.17569	-4.3604	-3.8625	-4.7792	-4.3625	-3.8979	-4.8187	-4.175	-4.4583	-4.6	-3.8	-4.7375	-4.4729	-4.0125	-4.8792	-3.9396	-4.2417	215.376	77.130	118.803	279.464	141.476	135.908	241.822	265.649	159.349	24.680	242.694	252.755	281.633	-14.814	92.387	231.380	0.00020544	0.00017178	0.00011196	1415.7	4.3736e-06	5.1073e-06	1394	453.07	4.0093e-06	7.2899e-06	495.59	142.01	126.18	47.847	2.1321e-06	64.994	7.9092e-05	7.4267e-05	2.0788e-05	1204.4	8.4858e-07	7.9865e-07	1184.4	381.59	8.2886e-07	8.1171e-07	407.89	118.78	104.27	39.198	8.5054e-07	53.03	202.586	281.402	19.595	-33.468	83.045	58.585	-33.991	-29.486	70.435	29.680	-31.054	-26.485	-25.497	-20.991	294.058	-23.240	-8191	255	
44471.344	1	1	0	0	0.15998	0.017294	0.17346	0.15449	0.13122	0.10178	0.28158	0.10613	0.22031	0.082448	0.27061	0.066163	0.15462	0.18165	0.073696	0.14598	-4.4042	-3.8125	-4.6021	-4.6125	-4.075	-4.7771	-4.2688	-4.3208	-4.7063	-3.8688	-4.5792	-4.6062	-3.9104	-4.8354	-4.0104	-4.1896	13.098	152.207	300.527	308.695	247.789	149.632	276.743	66.940	209.664	54.859	273.000	254.432	196.564	-23.064	103.769	48.348	0.00017936	0.00052739	0.00011406	1428.5	2.5403e-06	6.0123e-06	1405.1	453.76	6.6075e-06	4.8395e-06	499.76	143.9	127.96	48.315	2.9178e-06	65.391	7.9933e-05	7.5956e-05	2.0531e-05	1216.5	8.272e-07	8.1018e-07	1199.1	383.75	8.185e-07	8.3913e-07	411.56	120.26	105.55	39.744	8.4101e-07	53.5	213.355	-14.883	-42.771	-33.337	77.103	102.303	-33.799	-29.603	99.696	23.691	-31.066	-26.775	-25.781	-20.838	61.389	-22.758	-8191	255	
44471.441	1	1	0	0	0.10046	0.156	0.062792	0.28094	0.13572	0.24691	0.21474	0.079201	0.12348	0.054049	0.15774	0.19636	0.27962	0.13461	0.059074	0.14215	-4.5375	-3.8542	-4.4021	-4.7646	-3.9625	-4.8208	-4.5	-4.1	-4.8542	-3.8604	-4.5208	-4.8063	-3.8	-4.7333	-4.4021	-4.2042	12.644	309.770	32.381	297.866	156.406	18.150	288.105	177.457	231.386	189.564	19.616	291.562	-15.174	219.591	251.268	233.016	0.00017217	0.00046611	0.00017624	1428	8.7365e-06	2.8252e-06	1388	448.44	5.417e-06	5.8557e-06	485.47	139.54	123.89	46.923	1.871e-06	63.223	7.9302e-05	7.5995e-05	2.0821e-05	1213.5	8.3657e-07	8.0273e-07	1183.9	379.48	8.2751e-07	7.9721e-07	400.93	116.94	102.92	38.624	8.1453e-07	51.604	190.846	26.639	24.142	-33.634	57.006	97.424	-33.876	-29.703	50.350	27.835	-31.020	-26.882	-25.438	-20.649	87.567	-23.214	-8191	255	
44471.535	1	1	0	0	0.138	0.28912	0.22849	0.088626	0.13343	0.24304	0.073117	0.033032	0.085648	0.18383	0.14859	0.30703	0.073549	0.31075	0.18671	0.14565	-4.5479	-4.0687	-4.1438	-4.9104	-3.9479	-4.7333	-4.5271	-3.9271	-4.8479	-4.0958	-4.325	-4.8042	-4.0604	-4.6562	-4.4	-4.1125	37.221	75.764	194.804	149.686	231.015	192.794	305.778	118.931	190.496	276.743	-10.315	234.449	260.205	274.515	291.345	215.681	0.0002022	0.0004034	0.00026793	1381.7	5.8021e-06	3.248e-07	1357.7	440.71	2.0647e-06	5.2882e-06	479.45	137.74	123	46.641	4.4844e-06	63.48	7.869e-05	7.3148e-05	1.9531e-05	1179.5	8.2604e-07	7.7344e-07	1151.8	371.25	7.9246e-07	7.945e-07	393.78	115.39	101.76	38.4	8.0807e-07	51.721	185.325	-37.911	18.723	-33.187	23.433	104.080	-33.537	-29.741	106.566	19.305	-31.619	-26.169	-25.479	-21.092	65.398	-23.289	-8191	255	
44471.656	1	1	0	0	0.08856	0.068042	0.093995	0.254	0.12152	0.13607	0.1948	0.16301	0.095846	0.11839	0.0056033	0.20698	0.099593	0.2057	0.064696	0.068358	-4.4854	-4.2312	-4.1646	-4.975	-3.9604	-4.2354	-4.7479	-4.1479	-4.6625	-4.3271	-4.2583	-4.875	-3.9333	-4.4437	-4.4437	-4.1937	153.012	226.241	15.884	263.205	252.389	268.153	267.047	282.253	-18.674	122.168	102.897	255.985	41.164	138.231	275.193	140.212	0.00020795	0.00037698	0.00011427	1387.5	3.7893e-06	2.6899e-06	1356.5	442.49	5.9462e-06	4.9433e-06	481.76	139.4	123.79	47.063	3.6628e-06	64.225	7.5819e-05	7.0885e-05	2.0422e-05	1184.4	8.1063e-07	7.7997e-07	1156.7	372.94	8.0564e-07	7.9448e-07	397.48	116.76	102.45	38.904	7.8983e-07	52.494	206.527	38.464	-4.306	-33.516	97.617	288.565	-33.809	-29.759	91.362	27.088	-31.200	-26.508	-25.095	-21.239	12.718	-23.142	-8191	255	
44471.754	1	1	0	0	0.16246	0.090029	0.092173	0.048024	0.09379	0.2527	0.12058	0.23543	0.24631	0.072099	0.040713	0.12313	0.029735	0.3345	0.036992	0.043037	-4.4625	-4.3896	-3.9292	-5.0354	-3.9417	-4.3958	-4.9375	-3.8625	-4.7208	-4.4	-4.0563	-4.8396	-4.1167	-4.3104	-4.7604	-3.9792	291.318	305.843	-27.031	279.837	300.190	264.025	298.264	-25.511	271.891	211.816	201.267	275.681	299.243	255.096	74.515	-8.652	0.00022127	0.00038975	0.00012982	1402.9	4.9147e-06	4.4379e-06	1397.6	447.59	4.9773e-06	6.0105e-06	496.28	142.52	126.13	48.3	5.1303e-06	66.734	7.6854e-05	7.349e-05	2.0197e-05	1194	8.2778e-07	7.935e-07	1179.5	377.77	7.9899e-07	7.9579e-07	407.36	119.39	104.24	39.697	8.0545e-07	54.152	183.382	-5.037	5.415	-33.431	55.155	70.569	-33.656	-29.811	96.999	82.656	-31.615	-26.552	-25.131	-21.126	82.476	-23.257	-8191	255	
44471.848	1	1	0	0	0.26291	0.096958	0.085706	0.25033	0.10205	0.12207	0.27372	0.27435	0.13981	0.090248	0.18743	0.075578	0.23368	0.1591	0.2049	0.28097	-4.4479	-4.3792	-4.0208	-5.0396	-3.9729	-4.225	-4.8625	-4.0458	-4.7771	-4.6813	-3.9271	-4.8896	-4.375	-4.3208	-4.7979	-4.0646	106.906	30.327	192.135	265.948	78.037	251.229	195.260	195.322	310.815	144.352	206.360	127.921	287.495	291.629	116.712	194.161	0.00019983	0.00024953	0.00012243	1430.4	4.9294e-06	5.2203e-06	1410.8	454.8	3.1082e-06	2.4136e-06	501.97	145.39	127.93	48.712	5.3785e-06	67.271	7.8956e-05	7.4681e-05	2.0827e-05	1217.3	8.3559e-07	7.8901e-07	1201.3	383.42	8.2156e-07	8.0612e-07	414.45	121.41	105.75	40.132	8.2256e-07	54.798	199.222	301.141	-27.224	-33.398	40.466	110.841	-33.614	-29.471	112.421	-6.183	-31.203	-26.514	-25.432	-21.187	88.151	-23.061	-8191	255	
44471.945	1	1	0	0	0.071568	0.24473	0.17088	0.34301	0.051361	0.27447	0.099591	0.1968	0.064708	0.04409	0.17237	0.29438	0.055485	0.14055	0.15845	0.23213	-4.2104	-4.6312	-3.8208	-4.9104	-4.0958	-4.0896	-4.9646	-4.1062	-4.4313	-4.9125	-4.0292	-4.7917	-4.3542	-4.0792	-4.8146	-3.9667	-19.538	248.080	301.029	-28.582	190.202	239.565	280.524	285.400	190.234	170.590	310.276	303.595	175.078	-42.142	210.787	189.832	0.00015431	0.00029094	2.7698e-05	1441	5.0649e-06	3.4844e-06	1419.2	456.13	2.7746e-06	3.872e-06	497.08	144.52	126.45	48.042	3.2848e-06	65.733	8.0286e-05	7.3715e-05	2.0838e-05	1228.2	8.2713e-07	8.2402e-07	1209.9	385.32	8.1822e-07	8.0585e-07	411.41	120.18	104.51	39.723	7.9765e-07	53.642	212.871	10.231	22.368	-33.385	54.603	90.144	-33.779	-29.576	141.505	15.357	-31.328	-26.901	-25.276	-21.124	64.151	-22.875	-8191	255	
44472.039	1	1	0	0	0.12496	0.14874	0.11154	0.19264	0.16089	0.30377	0.26128	0.20812	0.20531	0.13153	0.12656	0.082647	0.12479	0.21563	0.068271	0.17518	-4.05	-4.8479	-3.9271	-4.8229	-4.4458	-4.0333	-4.9708	-4.3271	-4.3187	-4.725	-4.0854	-4.6729	-4.5958	-3.9375	-4.8458	-4.1396	196.425	120.140	224.990	245.802	303.204	77.407	268.902	240.044	257.010	268.552	268.556	264.776	269.353	231.930	3.575	108.419	0.00015871	0.00062281	8.5404e-05	1399.5	1.8143e-06	2.8006e-06	1365	439.64	2.2171e-06	7.7021e-06	477.64	138.8	122.55	46.803	2.8141e-06	63.359	8.0282e-05	7.2446e-05	2.0542e-05	1191.7	8.2429e-07	7.8965e-07	1158.9	372.06	8.1914e-07	7.995e-07	393.14	115.76	101.57	38.526	7.7154e-07	51.729	199.129	12.728	49.297	-33.739	63.100	131.089	-34.026	-29.485	84.855	54.930	-31.286	-26.735	-24.785	-21.192	23.819	-23.173	-8191	255	
#DATA ENDS
