BOXY.EXE: ISS Imagent and Oximeter Data Acquisition Program Version 0.80
Ascii Record File

#ACQ INFORMATION
2  Detector Channels 
16  External MUX Channels 
1  Auxiliary Channels 
5000  Waveform (CCF) Frequency (Hz)
1  Waveforms Skipped 
30  Waveforms Averaged 
1  Cycles Averaged 
16  Acquisitions per Waveform 
10.0806  Updata Rate (Hz) 

#FILE INFORMATION
TRUE -- External MUX Channel results are PARSED.
FALSE -- AC DC and Phase are NOT grouped.
TRUE -- Companion Program Settings File CREATED.
FALSE -- AC data not excluded
FALSE -- DC data not excluded
FALSE -- Phase data not excluded
FALSE -- Auxillary Chn. data not excluded
Tab delimiters

#CALIBRATION STATE
TRUE -- Waveform Calibration Values APPLIED.


#AUX CALIBRATION VALUES
Val Type	aux-1	

Term	1.0000e+00	
Factor	0.0000e+00	


#WF CALIBRATION VALUES
A = Detector Channel
Val Type	A-AC1	A-AC2	A-AC3	A-AC4	A-AC5	A-AC6	A-AC7	A-AC8	A-AC9	A-AC10	A-AC11	A-AC12	A-AC13	A-AC14	A-AC15	A-AC16	A-DC1	A-DC2	A-DC3	A-DC4	A-DC5	A-DC6	A-DC7	A-DC8	A-DC9	A-DC10	A-DC11	A-DC12	A-DC13	A-DC14	A-DC15	A-DC16	A-Ph1	A-Ph2	A-Ph3	A-Ph4	A-Ph5	A-Ph6	A-Ph7	A-Ph8	A-Ph9	A-Ph10	A-Ph11	A-Ph12	A-Ph13	A-Ph14	A-Ph15	A-Ph16	

Term	0.00000e+00	0.00000e+00	0.00000e+00	0.00000e+00	0.00000e+00	0.00000e+00	0.00000e+00	0.00000e+00	0.00000e+00	0.00000e+00	0.00000e+00	0.00000e+00	0.00000e+00	0.00000e+00	0.00000e+00	0.00000e+00	0.00000e+00	0.00000e+00	0.00000e+00	0.00000e+00	0.00000e+00	0.00000e+00	0.00000e+00	0.00000e+00	0.00000e+00	0.00000e+00	0.00000e+00	0.00000e+00	0.00000e+00	0.00000e+00	0.00000e+00	0.00000e+00	0.00000e+00	0.00000e+00	0.00000e+00	0.00000e+00	0.00000e+00	0.00000e+00	0.00000e+00	0.00000e+00	0.00000e+00	0.00000e+00	0.00000e+00	0.00000e+00	0.00000e+00	0.00000e+00	0.00000e+00	0.00000e+00	
Factor	1.00000e+00	1.00000e+00	1.00000e+00	1.00000e+00	1.00000e+00	1.00000e+00	1.00000e+00	1.00000e+00	1.00000e+00	1.00000e+00	1.00000e+00	1.00000e+00	1.00000e+00	1.00000e+00	1.00000e+00	1.00000e+00	1.00000e+00	1.00000e+00	1.00000e+00	1.00000e+00	1.00000e+00	1.00000e+00	1.00000e+00	1.00000e+00	1.00000e+00	1.00000e+00	1.00000e+00	1.00000e+00	1.00000e+00	1.00000e+00	1.00000e+00	1.00000e+00	X	X	X	X	X	X	X	X	X	X	X	X	X	X	X	X	

B = Detector Channel
Val Type	B-AC1	B-AC2	B-AC3	B-AC4	B-AC5	B-AC6	B-AC7	B-AC8	B-AC9	B-AC10	B-AC11	B-AC12	B-AC13	B-AC14	B-AC15	B-AC16	B-DC1	B-DC2	B-DC3	B-DC4	B-DC5	B-DC6	B-DC7	B-DC8	B-DC9	B-DC10	B-DC11	B-DC12	B-DC13	B-DC14	B-DC15	B-DC16	B-Ph1	B-Ph2	B-Ph3	B-Ph4	B-Ph5	B-Ph6	B-Ph7	B-Ph8	B-Ph9	B-Ph10	B-Ph11	B-Ph12	B-Ph13	B-Ph14	B-Ph15	B-Ph16	

Term	0.00000e+00	0.00000e+00	0.00000e+00	0.00000e+00	0.00000e+00	0.00000e+00	0.00000e+00	0.00000e+00	0.00000e+00	0.00000e+00	0.00000e+00	0.00000e+00	0.00000e+00	0.00000e+00	0.00000e+00	0.00000e+00	0.00000e+00	0.00000e+00	0.00000e+00	0.00000e+00	0.00000e+00	0.00000e+00	0.00000e+00	0.00000e+00	0.00000e+00	0.00000e+00	0.00000e+00	0.00000e+00	0.00000e+00	0.00000e+00	0.00000e+00	0.00000e+00	-7.80260e+01	-1.58627e+02	-1.69044e+02	-1.83775e+02	-9.56680e+01	-8.10641e+01	-1.58123e+02	-1.62015e+02	-7.06761e+01	-1.03333e+02	-1.70742e+02	-1.70756e+02	-1.78698e+02	-1.77014e+02	-1.06885e+02	-1.49823e+02	
Factor	1.89549e-05	9.66343e-05	3.90588e-05	1.69121e-01	1.09656e-06	1.06494e-06	1.87830e-01	6.00408e-02	1.11570e-06	1.14070e-06	9.95031e-02	3.37985e-02	3.11028e-02	1.10307e-02	1.00689e-06	1.56862e-02	6.37178e-07	6.49506e-07	1.80709e-07	7.65429e-02	7.12655e-09	7.12169e-09	7.97188e-02	2.69659e-02	7.12101e-09	7.12221e-09	4.22235e-02	1.44095e-02	1.37016e-02	4.81339e-03	7.13314e-09	6.55754e-03	X	X	X	X	X	X	X	X	X	X	X	X	X	X	X	X	



#DISTANCE SETTINGS
A = Detector Channel
A-1	A-2	A-3	A-4	A-5	A-6	A-7	A-8	A-9	A-10	A-11	A-12	A-13	A-14	A-15	A-16	

2.5000e+00	3.0000e+00	2.5000e+00	3.0000e+00	2.0000e+00	3.0000e+00	1.5000e+00	3.0000e+00	3.0000e+00	3.0000e+00	3.0000e+00	3.0000e+00	3.0000e+00	3.0000e+00	1.5000e+00	3.0000e+00	

B = Detector Channel
B-1	B-2	B-3	B-4	B-5	B-6	B-7	B-8	B-9	B-10	B-11	B-12	B-13	B-14	B-15	B-16	

1.0000e+01	1.0000e+01	1.0000e+01	1.4400e+00	1.0000e+01	1.0000e+01	1.5100e+00	1.9400e+00	1.0000e+01	1.0000e+01	1.9900e+00	2.4900e+00	2.4100e+00	2.9000e+00	1.0000e+01	2.9800e+00	




#DATA BEGINS
time	group	step	mark	flag	A-AC1	A-AC2	A-AC3	A-AC4	A-AC5	A-AC6	A-AC7	A-AC8	A-AC9	A-AC10	A-AC11	A-AC12	A-AC13	A-AC14	A-AC15	A-AC16	A-DC1	A-DC2	A-DC3	A-DC4	A-DC5	A-DC6	A-DC7	A-DC8	A-DC9	A-DC10	A-DC11	A-DC12	A-DC13	A-DC14	A-DC15	A-DC16	A-Ph1	A-Ph2	A-Ph3	A-Ph4	A-Ph5	A-Ph6	A-Ph7	A-Ph8	A-Ph9	A-Ph10	A-Ph11	A-Ph12	A-Ph13	A-Ph14	A-Ph15	A-Ph16	B-AC1	B-AC2	B-AC3	B-AC4	B-AC5	B-AC6	B-AC7	B-AC8	B-AC9	B-AC10	B-AC11	B-AC12	B-AC13	B-AC14	B-AC15	B-AC16	B-DC1	B-DC2	B-DC3	B-DC4	B-DC5	B-DC6	B-DC7	B-DC8	B-DC9	B-DC10	B-DC11	B-DC12	B-DC13	B-DC14	B-DC15	B-DC16	B-Ph1	B-Ph2	B-Ph3	B-Ph4	B-Ph5	B-Ph6	B-Ph7	B-Ph8	B-Ph9	B-Ph10	B-Ph11	B-Ph12	B-Ph13	B-Ph14	B-Ph15	B-Ph16	aux-1	digaux	

44266.277	1	1	0	256	0.11059	0.026339	0.054459	0.14256	0.18784	0.10314	0.068879	0.16034	0.23471	0.13551	0.093503	0.24764	0.10718	0.25034	0.22314	0.13336	-3.8917	-4.1542	-4.7729	-3.925	-4.3167	-4.6729	-4.2354	-4.8063	-4.3167	-4.1104	-4.7667	-3.8479	-4.4979	-4.6312	-3.7646	-4.8	306.451	96.560	264.042	5.121	246.059	58.728	22.408	286.171	103.740	325.912	285.788	125.179	98.761	221.426	27.947	202.192	0.00011025	0.00017881	4.7158e-05	1156	1.5102e-06	1.7049e-06	1243.9	241.78	1.5348e-06	9.4877e-07	305.83	83.969	66.44	19.979	2.2875e-06	27.584	2.7298e-05	2.4209e-05	6.5838e-06	1080.7	2.7571e-07	2.5009e-07	1163.8	226.42	2.6833e-07	2.5842e-07	277.41	77.946	61.065	18.354	2.6757e-07	25.17	202.001	28.761	-4.118	-10.570	163.094	136.795	-10.035	-2.759	134.131	82.338	-3.171	4.238	4.185	11.410	112.047	11.065	-8191	255	
44266.348	1	1	0	0	0.11552	0.159	0.10076	0.12974	0.13311	0.17267	0.19669	0.071094	0.21721	0.35785	0.12657	0.032498	0.16763	0.13433	0.10922	0.030436	-4.0188	-3.9625	-4.8208	-4.0146	-4.1833	-4.7167	-4.1375	-4.6208	-4.3313	-4.0208	-4.9667	-4.1042	-4.2792	-4.7438	-3.7062	-4.8146	250.498	-6.092	182.302	337.058	170.885	147.545	-20.803	-3.091	332.952	215.196	132.455	152.582	96.423	174.463	134.209	107.961	0.00015073	0.00024642	7.3783e-05	1157.4	1.3389e-06	1.2327e-06	1243.5	243.1	3.2039e-06	2.1616e-06	304.06	84.195	66.818	19.852	2.0249e-06	27.743	2.7603e-05	2.444e-05	6.5661e-06	1079.3	2.771e-07	2.5156e-07	1164	227.04	2.6802e-07	2.6425e-07	277.77	78.12	61.032	18.364	2.724e-07	25.185	194.411	52.605	27.961	-10.532	144.075	148.337	-10.061	-2.975	174.547	89.728	-3.162	3.846	4.379	11.099	114.548	9.782	-8191	255	
44266.445	1	1	0	0	0.076854	0.13984	0.14662	0.21509	0.075903	0.24422	0.10006	0.34459	0.036834	0.06415	0.059211	0.041614	0.073477	0.23228	0.17385	0.24068	-4.0583	-3.9667	-4.7937	-4.2458	-4.3042	-4.8271	-4.1271	-4.6792	-4.3688	-3.9417	-4.8917	-4.1312	-4.2167	-4.9062	-3.8688	-4.5792	-8.426	49.714	302.675	-14.516	137.415	-16.506	257.390	255.843	231.112	1.648	258.005	276.851	147.264	119.714	265.156	226.406	0.00010934	0.00020381	6.8127e-05	1153.9	4.872e-07	2.8396e-06	1239.3	242.22	1.4883e-06	3.1945e-06	303.44	84.145	66.314	20.071	1.4615e-06	27.67	2.7707e-05	2.4079e-05	6.4363e-06	1080.4	2.8346e-07	2.619e-07	1161.5	226.61	2.7404e-07	2.6336e-07	277.71	78.07	60.942	18.414	2.7058e-07	25.177	206.341	324.847	47.380	-10.429	55.664	116.800	-10.109	-2.951	113.224	91.226	-2.937	4.104	4.431	10.871	80.994	10.336	-8191	255	
44266.566	1	1	0	0	0.10511	0.17024	0.17292	0.24814	0.08705	0.071269	0.25837	0.16729	0.19706	0.15733	0.11401	0.095441	0.28065	0.033943	0.16847	0.25881	-4.2458	-3.9979	-4.7833	-4.2875	-4.0312	-4.7667	-3.975	-4.4979	-4.4917	-3.8438	-4.8208	-4.4458	-4.0938	-4.8667	-3.9188	-4.4646	191.884	274.748	43.901	319.791	132.150	66.629	298.571	280.065	190.064	270.834	-7.425	196.420	321.198	-14.121	-1.575	25.301	0.0001064	9.2851e-05	7.1944e-05	1155.8	1.5902e-06	1.4803e-06	1244.7	242.4	2.4399e-06	9.2057e-07	304.21	84.054	66.117	19.974	1.7286e-06	27.783	2.7703e-05	2.4143e-05	6.5379e-06	1081.1	2.8496e-07	2.5996e-07	1164.1	226.79	2.7027e-07	2.7091e-07	277.5	78.091	61.072	18.39	2.6091e-07	25.145	179.661	334.727	38.045	-10.337	164.624	123.008	-9.967	-2.860	156.091	112.662	-2.991	4.044	4.460	11.003	142.258	10.541	-8191	255	
44266.660	1	1	0	0	0.066123	0.12265	0.085127	0.32942	0.10413	0.06205	0.04359	0.2167	0.028223	0.10392	0.19327	0.22074	0.10378	0.16897	0.0070423	0.11397	-4.3125	-3.8854	-4.6542	-4.4062	-4.0417	-4.7312	-4.225	-4.4875	-4.7521	-3.8083	-4.7958	-4.4146	-4	-4.8771	-3.9479	-4.1312	197.794	78.449	10.784	265.916	155.796	254.099	99.923	291.784	194.417	93.444	2.136	233.482	284.435	40.158	277.063	119.286	9.4175e-05	0.00015204	7.3362e-05	1152.3	7.8721e-07	2.2643e-06	1237.7	242.13	1.3994e-06	8.5678e-07	302.67	84.34	66.586	19.89	2.4578e-06	27.607	2.7484e-05	2.4776e-05	6.7284e-06	1079.8	2.8969e-07	2.5841e-07	1161.6	225.84	2.6965e-07	2.641e-07	277.11	77.998	60.905	18.376	2.7425e-07	25.081	185.010	104.620	6.656	-10.415	127.878	136.294	-10.078	-3.000	186.355	148.851	-3.201	3.895	4.120	10.754	95.274	10.576	-8191	255	
44266.754	1	1	0	0	0.075534	0.22934	0.29177	0.20822	0.049746	0.12054	0.2024	0.26366	0.084558	0.13047	0.14086	0.11803	0.27336	0.1835	0.11518	0.083262	-4.3208	-3.7687	-4.65	-4.6854	-3.8479	-4.8167	-4.1687	-4.3604	-4.85	-3.9188	-4.4688	-4.5354	-3.9437	-4.7021	-4.1208	-4.1562	189.255	303.608	167.510	290.006	171.742	262.033	2.345	284.601	6.577	185.200	-2.021	164.797	13.767	332.388	127.810	77.804	0.00013625	9.8333e-05	1.5132e-05	1150.6	1.6215e-06	2.4266e-06	1246.4	242.49	1.6955e-06	6.9229e-07	303.16	83.321	66.189	19.945	3.1903e-07	27.348	2.7918e-05	2.5484e-05	6.8007e-06	1079.3	2.8456e-07	2.5921e-07	1163.8	226.27	2.7217e-07	2.7211e-07	276.7	77.861	60.849	18.328	2.7367e-07	25.097	182.407	35.691	313.335	-10.184	99.599	111.737	-10.223	-2.750	165.762	226.437	-3.302	3.973	4.588	10.712	278.703	10.347	-8191	255	
44266.852	1	1	0	0	0.050844	0.1957	0.019405	0.24533	0.15397	0.11772	0.051215	0.18595	0.0626	0.1394	0.24096	0.01882	0.2864	0.24942	0.21606	0.15927	-4.3521	-3.9646	-4.425	-4.675	-3.65	-4.7854	-4.5708	-4.0854	-4.7688	-4.0062	-4.3042	-4.5062	-3.8396	-4.675	-4.5646	-3.9792	298.972	95.081	220.866	-5.892	88.395	231.462	273.024	71.161	85.030	90.767	304.836	156.032	-10.600	217.972	173.477	197.602	0.00010569	0.00022834	7.2232e-05	1149.7	1.907e-06	2.6266e-06	1238.7	242.04	2.1024e-06	3.3303e-06	304.72	83.377	66.18	19.797	1.3206e-06	27.616	2.7708e-05	2.4582e-05	7.0627e-06	1079.2	2.9133e-07	2.722e-07	1160.8	226.21	2.7727e-07	2.7351e-07	276.9	77.67	60.882	18.384	2.7636e-07	25.075	187.321	337.859	23.998	-10.113	98.242	90.440	-9.984	-2.765	172.328	101.245	-3.241	3.961	4.048	10.793	79.111	10.189	-8191	255	
44266.945	1	1	0	0	0.042529	0.098935	0.23431	0.13795	0.21129	0.12213	0.32017	0.27859	0.09079	0.15355	0.17361	0.1263	0.2916	0.033578	0.238	0.26042	-4.4646	-4.1	-4.1604	-4.7063	-3.8729	-4.5354	-4.6104	-3.9417	-4.7708	-4.1167	-4.3646	-4.875	-3.8979	-4.5167	-4.6208	-4.0583	161.997	15.006	57.104	284.917	6.575	113.828	-6.440	289.337	143.984	336.716	17.881	284.214	-16.062	311.311	277.037	325.468	9.177e-05	0.00024482	6.0702e-05	1156.2	1.9052e-06	1.7617e-06	1241.5	241.63	2.0576e-06	3.5476e-06	304	83.856	66.138	20.149	9.436e-07	27.479	2.8281e-05	2.5455e-05	7.0409e-06	1080.7	2.9252e-07	2.6871e-07	1162.1	226.06	2.7303e-07	2.76e-07	276.79	77.718	60.973	18.447	2.7148e-07	25.071	180.236	12.419	30.214	-10.236	97.685	138.729	-10.025	-2.699	149.989	93.575	-3.143	4.057	4.447	10.757	139.492	10.084	-8191	255	
44267.043	1	1	0	0	0.12926	0.13687	0.18687	0.16054	0.0558	0.14107	0.38885	0.09124	0.1826	0.22483	0.23446	0.20486	0.11129	0.12799	0.042912	0.2299	-4.7188	-4.1937	-4.125	-4.9042	-3.8771	-4.5146	-4.8458	-3.9958	-4.7688	-4.1917	-4.0542	-4.7833	-3.875	-4.375	-4.5833	-4.1542	42.593	181.545	21.784	286.443	46.071	33.899	316.285	308.577	267.750	92.952	275.220	-19.441	2.045	336.822	-7.273	248.411	0.0001042	0.00034412	6.0981e-05	1154.7	1.3618e-06	2.0745e-06	1243	240.56	3.199e-06	1.4505e-06	304.41	84.257	66.382	19.948	2.284e-06	27.541	2.8726e-05	2.4769e-05	6.9309e-06	1080.9	2.8886e-07	2.6347e-07	1163.1	225.62	2.7813e-07	2.6161e-07	277.18	78.044	60.88	18.416	2.6457e-07	25.114	196.141	46.189	55.849	-10.523	68.735	124.564	-9.949	-2.782	152.048	122.421	-3.225	3.737	4.516	10.740	80.203	10.855	-8191	255	
44267.141	1	1	0	0	0.17758	0.1018	0.11712	0.10238	0.10789	0.17377	0.13036	0.055465	0.042899	0.084582	0.15198	0.14975	0.045607	0.055063	0.13579	0.079274	-4.4396	-4.3417	-4.0396	-4.9771	-3.8937	-4.3708	-4.8708	-3.9417	-4.6833	-4.2937	-3.9688	-4.7625	-4.1125	-4.1625	-4.8375	-3.925	283.386	127.537	278.122	-1.100	125.522	263.871	248.851	281.046	-11.934	128.051	9.780	304.632	253.682	2.339	17.181	209.838	0.00013197	0.00017497	2.5832e-05	1154	9.5956e-07	1.719e-06	1238.1	241.12	1.0664e-06	1.2474e-06	303.68	83.953	66.353	19.959	3.1013e-06	27.626	2.7855e-05	2.532e-05	7.0507e-06	1082	2.9106e-07	2.6696e-07	1162.3	225.83	2.7653e-07	2.7207e-07	276.55	77.821	60.937	18.358	2.7156e-07	25.081	193.298	34.358	42.884	-10.301	29.115	193.575	-9.852	-2.897	181.512	122.685	-3.482	4.116	4.122	10.682	71.433	10.235	-8191	255	
44267.234	1	1	0	0	0.10882	0.1281	0.18947	0.13743	0.2909	0.12661	0.030588	0.093387	0.3918	0.15659	0.064208	0.081307	0.27197	0.16103	0.11885	0.14902	-4.2771	-4.5312	-4.0458	-4.9979	-4.1937	-4.3438	-4.8667	-3.9479	-4.4958	-4.4458	-4.0896	-4.9479	-4.1896	-4.1604	-4.8104	-3.8458	285.224	130.874	310.967	309.997	267.951	296.945	126.014	271.767	325.607	237.019	4.978	297.662	-0.332	-12.176	247.565	156.049	0.00010964	6.18e-05	4.5075e-05	1152.5	1.7388e-06	1.6806e-06	1241.1	239.64	1.7738e-06	1.5805e-06	302.27	82.995	65.991	19.967	1.4466e-06	27.479	2.88e-05	2.4887e-05	6.8323e-06	1079.2	2.9718e-07	2.7475e-07	1161.7	224.94	2.8023e-07	2.7216e-07	275.45	77.367	60.667	18.298	2.7975e-07	24.978	201.794	33.587	32.687	-10.529	104.844	92.867	-9.949	-2.848	137.520	89.367	-3.225	4.066	4.609	10.973	112.522	10.818	-8191	255	
44267.355	1	1	0	0	0.17086	0.053127	0.22645	0.37107	0.17914	0.10353	0.29292	0.075464	0.11563	0.15068	0.12558	0.031884	0.18462	0.080561	0.073047	0.11948	-4.1813	-4.4625	-3.9083	-4.8063	-4.2375	-4.1667	-5.1104	-4.0563	-4.3917	-4.5875	-3.8312	-4.8812	-4.2562	-3.9792	-4.6521	-3.9729	112.675	197.982	57.188	300.275	171.857	17.771	261.952	76.256	253.188	46.401	248.187	90.178	320.978	272.960	318.835	204.257	9.7427e-05	0.00024471	4.0306e-05	1153.4	2.4853e-06	6.7924e-07	1235.8	239.35	1.6822e-06	2.967e-06	299.38	83.099	65.974	19.958	2.2604e-06	27.421	2.8616e-05	2.4051e-05	7.0812e-06	1078.9	2.9847e-07	2.7956e-07	1161.1	224.25	2.7775e-07	2.7251e-07	275.24	77.525	60.663	18.315	2.7048e-07	24.986	182.604	44.873	25.502	-10.272	104.699	132.964	-9.984	-2.878	129.586	81.401	-3.402	3.516	4.384	10.585	72.611	10.143	-8191	255	
44267.453	1	1	0	0	0.20668	0.058253	0.17111	0.1914	0.29656	0.098454	0.057966	0.15574	0.24684	0.10397	0.23671	0.032726	0.17823	0.33234	0.05897	0.31605	-4.0125	-4.6125	-3.6979	-4.7438	-4.3208	-4.0437	-5.0333	-4.0875	-4.275	-4.7833	-3.975	-4.6771	-4.3958	-3.9479	-4.8396	-4.2438	-4.867	-0.638	59.830	337.549	107.497	105.807	115.820	319.447	82.704	172.016	58.611	119.297	22.112	173.302	31.598	302.260	8.8262e-05	0.00026035	8.3193e-05	1151.7	2.1001e-06	2.3252e-06	1239.6	239.07	8.1529e-07	1.2809e-06	300.79	82.96	65.688	19.858	3.6838e-06	27.159	2.8049e-05	2.4539e-05	7.0864e-06	1076.5	2.9113e-07	2.8045e-07	1159.4	223.83	2.8815e-07	2.7655e-07	275.01	77.28	60.516	18.245	2.7596e-07	24.891	185.405	55.040	12.372	-10.380	149.737	149.515	-9.938	-2.830	175.755	78.543	-3.151	3.933	4.240	11.146	99.336	10.274	-8191	255	
44267.551	1	1	0	0	0.22521	0.09359	0.053664	0.023569	0.10972	0.31505	0.26041	0.085575	0.15448	0.15954	0.10757	0.086993	0.1962	0.22506	0.13004	0.074729	-3.7438	-4.7396	-3.7687	-4.6854	-4.6813	-3.9771	-4.8063	-4.25	-3.9354	-4.8375	-3.9958	-4.5042	-4.6396	-3.9771	-4.6667	-4.3313	155.908	225.882	278.839	163.567	197.281	231.280	303.922	337.873	9.513	147.794	18.711	269.051	43.218	29.065	188.591	71.484	0.00011499	0.00029549	4.3612e-05	1145.5	2.243e-06	2.7971e-06	1235.8	237.62	1.7117e-06	1.1746e-06	301.32	82.792	65.986	19.779	2.5602e-06	27.323	2.9832e-05	2.4343e-05	6.7954e-06	1074.1	2.975e-07	2.7592e-07	1158.7	222.65	2.9055e-07	2.7269e-07	274.26	77.15	60.551	18.251	2.887e-07	24.957	188.922	58.476	35.559	-10.198	135.153	114.603	-9.809	-2.849	156.254	122.000	-3.113	4.307	4.453	10.759	107.630	10.515	-8191	255	
44267.645	1	1	0	0	0.29989	0.047217	0.10907	0.14499	0.17881	0.25471	0.22724	0.077588	0.31083	0.21694	0.16538	0.13922	0.19365	0.099456	0.027183	0.11936	-3.7604	-4.8083	-3.9146	-4.5479	-4.7417	-3.8187	-4.9625	-4.5062	-4.0125	-4.9	-4.0917	-4.4563	-4.8708	-3.8729	-4.6333	-4.4688	258.181	327.439	50.431	288.602	87.031	66.295	222.507	239.810	212.664	268.685	-16.087	51.571	316.206	337.819	91.587	19.324	0.00012237	0.00015607	8.681e-05	1141.9	2.4431e-06	2.0705e-06	1234.8	237.57	2.3585e-06	2.6452e-06	300.48	82.688	65.467	19.642	1.8166e-07	27.256	2.8163e-05	2.5436e-05	7.1293e-06	1071.4	2.8255e-07	2.7678e-07	1156.7	223.16	2.798e-07	2.632e-07	274.35	77.209	60.219	18.195	2.7654e-07	24.912	186.350	45.433	34.052	-10.436	129.854	107.733	-10.010	-2.316	169.492	90.583	-3.223	4.360	4.177	10.723	133.105	10.627	-8191	255	
44267.738	1	1	0	0	0.1524	0.084259	0.21066	0.095912	0.1214	0.10276	0.1217	0.091026	0.11682	0.24284	0.016559	0.1128	0.22357	0.19068	0.14539	0.11744	-3.7625	-4.8521	-4.0979	-4.3896	-4.5687	-3.9437	-4.9271	-4.4083	-3.9125	-4.8646	-4.1646	-4.125	-4.6583	-3.9104	-4.5458	-4.5854	138.717	71.424	128.711	64.268	41.277	216.548	337.814	12.742	88.905	64.166	18.576	205.135	298.792	126.749	182.291	48.888	0.00013537	0.00013961	0.00010997	1141.7	5.9328e-07	2.6743e-06	1231.8	237.59	1.6067e-06	6.9758e-07	301.42	82.399	65.358	19.723	2.147e-06	27.409	2.9266e-05	2.4922e-05	7.356e-06	1072.3	2.8904e-07	2.7407e-07	1155.6	222.89	2.8603e-07	2.6987e-07	274.14	77.035	60.283	18.189	2.7974e-07	24.904	186.829	36.613	19.664	-10.185	145.490	139.591	-9.988	-2.636	200.092	122.385	-2.755	3.813	4.476	11.006	74.224	11.092	-8191	255	
44267.836	1	1	0	0	0.10205	0.15546	0.14999	0.28132	0.12462	0.11856	0.24251	0.18228	0.15661	0.13206	0.032655	0.16061	0.031958	0.052774	0.13328	0.12692	-3.6208	-4.7646	-4.0896	-4.1167	-4.9062	-4.0146	-4.6146	-4.65	-3.9354	-4.8458	-4.3146	-4.0188	-4.7854	-3.9354	-4.5167	-4.7729	95.505	69.970	41.775	268.629	230.466	230.761	317.202	-3.266	68.826	190.484	110.427	296.399	15.818	39.505	266.589	66.478	0.00010506	0.00017658	0.00011314	1144.7	1.6837e-06	2.3537e-06	1228.8	238.92	3.4371e-06	1.7952e-06	300.89	83.763	65.955	19.68	7.4745e-07	27.273	2.8353e-05	2.5504e-05	7.0808e-06	1073	2.9589e-07	2.7508e-07	1155.3	222.93	3.0048e-07	2.7725e-07	273.89	77.342	60.471	18.18	2.9176e-07	24.936	203.843	27.625	32.121	-10.362	152.886	106.133	-10.105	-2.542	150.356	127.904	-3.069	3.832	4.730	11.239	45.631	10.689	-8191	255	
44267.957	1	1	0	0	0.20536	0.065255	0.19624	0.31499	0.21658	0.27675	0.049386	0.1941	0.1698	0.13828	0.13227	0.1564	0.20533	0.1457	0.16056	0.27201	-3.4604	-4.8479	-4.3	-4.0687	-4.8708	-4.1125	-4.5646	-4.7833	-3.8187	-4.7208	-4.575	-4.0188	-4.775	-4.0437	-4.2771	-4.8917	55.943	182.442	232.602	275.009	-1.116	68.425	-14.683	290.851	263.625	237.218	14.691	20.980	16.072	324.682	127.418	9.544	0.00011961	7.8374e-05	4.3915e-05	1144.1	3.4565e-07	1.4287e-06	1229.2	237.07	1.8624e-06	2.2671e-06	299.51	83.078	65.61	19.597	2.1004e-06	27.22	2.873e-05	2.5612e-05	6.9219e-06	1071	2.9103e-07	2.826e-07	1152.8	222.54	2.937e-07	2.707e-07	273.72	77.142	60.347	18.162	2.9227e-07	24.863	178.317	38.914	-13.299	-10.484	173.080	140.391	-10.226	-2.644	152.882	66.732	-3.127	3.985	4.333	10.752	99.877	11.077	-8191	255	
44268.051	1	1	0	0	0.35842	0.1711	0.14377	0.24188	0.17301	0.15898	0.032932	0.046519	0.1343	0.2902	0.33605	0.11854	0.1073	0.047304	0.099435	0.14702	-3.4854	-4.6271	-4.4854	-4.0146	-4.6229	-4.15	-4.2729	-4.9208	-3.7812	-4.5604	-4.4479	-3.9875	-4.7917	-4.2979	-4.0292	-4.7937	63.683	269.853	206.153	324.962	252.508	249.034	222.085	71.879	120.518	3.560	0.841	232.934	213.409	3.014	281.909	215.307	0.00010622	0.00020419	7.6271e-05	1143.3	1.0926e-06	1.2835e-06	1227.9	237.02	3.2513e-06	3.0489e-06	300.45	82.815	65.148	19.624	8.1632e-07	27.225	2.9783e-05	2.5796e-05	7.0435e-06	1070.9	3.0125e-07	2.847e-07	1152.7	222.36	2.985e-07	2.8705e-07	274.03	77.068	60.181	18.155	2.8969e-07	24.868	187.790	44.575	66.720	-10.526	102.149	95.310	-10.067	-2.754	163.241	138.605	-2.975	4.057	4.479	11.280	204.692	10.664	-8191	255	
44268.148	1	1	0	0	0.11352	0.087831	0.18976	0.057881	0.24802	0.019624	0.25045	0.081997	0.17666	0.096314	0.14498	0.28798	0.11746	0.16604	0.19075	0.14406	-3.6229	-4.4729	-4.7021	-4.0188	-4.8146	-4.3583	-4.1479	-4.8688	-3.9542	-4.2625	-4.7542	-3.8729	-4.6771	-4.3042	-4.0125	-4.6813	232.420	318.900	337.973	262.415	271.223	60.366	313.236	291.127	123.018	283.186	-19.653	275.300	302.334	231.826	94.714	236.873	0.00013223	0.00013415	0.00010194	1145.1	1.0045e-06	2.2091e-06	1228.9	235.85	1.6438e-06	1.6047e-06	298.67	82.592	65.667	19.536	1.2147e-06	27.042	3.0595e-05	2.6723e-05	7.4275e-06	1071.1	3.0993e-07	2.9353e-07	1152.2	221.98	3.0669e-07	2.9553e-07	273.27	76.955	60.303	18.122	2.9623e-07	24.771	188.927	21.737	58.981	-10.250	115.651	106.556	-10.110	-2.642	132.284	27.452	-3.252	3.955	4.557	11.187	101.653	10.691	-8191	255	
44268.246	1	1	0	0	0.031493	0.057888	0.11628	0.19633	0.037655	0.2139	0.11568	0.019704	0.2758	0.17142	0.14922	0.19459	0.21031	0.071789	0.077231	0.18496	-3.875	-4.2688	-4.7396	-3.9146	-4.6625	-4.3125	-3.9354	-4.9854	-4.1396	-4.1896	-4.7771	-3.9979	-4.6729	-4.6229	-3.9688	-4.8542	189.965	38.778	75.296	332.218	282.031	164.100	255.967	219.481	194.238	246.371	147.163	17.618	-19.347	31.248	-7.412	293.996	0.00011869	0.00022028	0.00010824	1145.3	2.5935e-06	1.1928e-06	1229	237.06	1.4677e-06	2.7165e-06	299.34	83.209	65.691	19.508	1.3401e-06	27.144	3.0027e-05	2.6846e-05	7.4441e-06	1071.4	3.1137e-07	2.869e-07	1152.1	222.32	3.1151e-07	2.9378e-07	273.43	77.069	60.291	18.139	2.9501e-07	24.858	180.033	62.978	34.579	-10.618	99.865	114.857	-10.196	-2.794	138.182	115.495	-3.187	4.315	4.101	11.407	58.075	10.654	-8191	255	
44268.340	1	1	0	0	0.23582	0.1911	0.06529	0.20166	0.13736	0.19535	0.22673	0.15627	0.38226	0.19634	0.21774	0.13404	0.18539	0.11739	0.12311	0.21728	-3.85	-4.0875	-4.6708	-4.0813	-4.6229	-4.4771	-3.9542	-4.8812	-4.0813	-4.2604	-4.8396	-4.0042	-4.4771	-4.5458	-3.7271	-4.9125	102.050	96.242	324.994	263.101	304.905	239.672	255.492	257.210	125.442	138.603	15.465	316.903	265.256	112.635	172.513	278.906	0.00013676	0.0001666	7.9236e-05	1144.3	2.2072e-06	1.0961e-06	1227.4	237.12	1.5293e-06	2.1795e-06	299.4	82.455	65.791	19.556	1.1803e-06	27.174	3.0727e-05	2.6094e-05	7.3342e-06	1070.9	3.0894e-07	2.9344e-07	1150.4	222.09	3.0778e-07	3.005e-07	273.82	76.952	60.215	18.151	3.0574e-07	24.888	188.997	29.043	45.287	-10.264	116.192	108.306	-10.001	-2.625	188.149	66.882	-2.913	4.296	4.083	11.159	-0.454	10.768	-8191	255	
44268.438	1	1	0	0	0.13427	0.11204	0.17403	0.1508	0.17767	0.2145	0.27094	0.12075	0.094765	0.17307	0.037036	0.064626	0.10914	0.078302	0.10856	0.31159	-3.9167	-4.0979	-4.7375	-4.0146	-4.2812	-4.8604	-4.0146	-4.7188	-4.35	-4.0208	-4.9229	-4.2646	-4.3313	-4.8625	-3.9562	-4.7	104.659	134.999	2.900	197.773	336.859	16.156	308.730	299.765	79.301	234.245	260.865	224.950	185.778	153.521	186.705	313.650	0.00012608	0.00011983	6.0078e-05	1141.9	2.4339e-06	1.4297e-06	1224.5	237.17	3.4797e-06	2.4387e-06	298.53	82.665	65.601	19.726	1.8461e-06	27.14	3.0156e-05	2.7155e-05	7.5736e-06	1068.6	3.076e-07	2.9829e-07	1151	222.34	3.0867e-07	2.8882e-07	273.76	76.798	60.28	18.163	2.9803e-07	24.824	194.779	325.318	9.541	-10.419	160.171	103.559	-10.054	-2.765	125.832	108.176	-3.257	3.824	4.261	11.332	104.293	10.550	-8191	255	
44268.531	1	1	0	0	0.24203	0.25387	0.047426	0.12019	0.085517	0.060215	0.14071	0.15601	0.15136	0.18831	0.18064	0.1424	0.12905	0.24561	0.18769	0.25306	-4.2562	-4.0062	-4.8542	-4.2667	-4.0542	-4.7125	-3.9292	-4.7667	-4.5375	-3.9167	-4.9292	-4.0417	-4.0833	-4.8313	-3.8583	-4.6438	329.756	191.243	143.206	85.312	-11.446	190.836	257.148	282.155	9.156	49.601	316.102	300.651	213.008	318.434	23.595	18.965	0.00012204	0.00014598	7.9957e-05	1138.8	2.6714e-06	1.8471e-06	1227.8	235.72	2.2484e-06	1.9933e-06	299.61	82.309	65.499	19.689	2.0817e-06	27.322	3.0431e-05	2.7375e-05	7.4554e-06	1067.4	3.1268e-07	2.9205e-07	1149.6	221.82	3.1034e-07	2.9216e-07	273.72	76.997	60.245	18.208	3.0527e-07	24.881	190.921	25.068	21.687	-10.250	147.557	98.716	-10.115	-2.943	120.382	97.506	-2.958	3.993	4.248	11.085	65.277	10.860	-8191	255	
44268.652	1	1	0	0	0.057923	0.10415	0.14427	0.14827	0.132	0.10804	0.39479	0.20549	0.22371	0.19336	0.25181	0.14399	0.26138	0.14814	0.1236	0.10012	-4.1771	-3.9062	-4.825	-4.1896	-3.9938	-4.7771	-4.1042	-4.6604	-4.4437	-3.9667	-4.7562	-4.3667	-4.1813	-4.9104	-4.0354	-4.3542	182.347	147.987	231.148	-12.480	266.502	270.730	260.858	127.551	57.864	279.441	308.951	254.358	231.167	144.806	258.325	314.974	9.4336e-05	0.00031128	3.9429e-05	1139.9	3.2203e-06	1.7123e-06	1229.3	236.24	2.0225e-06	1.7453e-06	300.64	82.815	65.341	19.779	9.6029e-07	27.102	2.9758e-05	2.7728e-05	7.5454e-06	1068.9	3.1912e-07	2.9346e-07	1151.4	221.73	3.0077e-07	2.9416e-07	273.18	77.093	60.245	18.17	3.0864e-07	24.885	190.011	18.537	64.452	-10.458	150.345	141.807	-9.963	-2.802	171.166	39.455	-3.354	4.123	4.451	11.403	138.871	11.161	-8191	255	
44268.746	1	1	0	0	0.12495	0.13888	0.2426	0.10285	0.27245	0.12505	0.12217	0.23537	0.095037	0.07009	0.20012	0.049077	0.25254	0.26983	0.10278	0.14819	-4.4333	-4.0563	-4.8063	-4.5938	-4.0104	-4.9042	-4.1813	-4.2812	-4.7875	-3.8438	-4.6813	-4.4042	-3.9125	-5.0292	-4.1896	-4.2979	84.967	139.581	144.849	330.729	274.383	-14.480	286.164	305.796	30.897	64.184	307.105	54.352	1.111	261.046	4.968	332.411	0.00010942	0.00022771	7.1034e-05	1140.7	2.5493e-06	1.8501e-06	1229.4	236.63	1.8502e-06	1.2148e-06	297.64	82.7	65.082	19.579	2.7808e-06	27.259	3.0263e-05	2.7915e-05	7.6007e-06	1069.2	3.198e-07	2.9019e-07	1150.3	222.02	3.1251e-07	3.012e-07	272.97	76.807	60.133	18.122	3.0695e-07	24.85	185.936	25.046	75.116	-10.292	139.086	64.297	-10.101	-2.626	155.170	127.273	-2.803	4.163	4.160	11.527	90.565	10.585	-8191	255	
44268.820	1	1	0	0	0.095657	0.072818	0.17167	0.13402	0.26439	0.067259	0.18596	0.32231	0.24524	0.12196	0.10971	0.054327	0.17655	0.084792	0.11365	0.22914	-4.3313	-3.9271	-4.6646	-4.7	-3.9375	-4.775	-4.3729	-4.1	-4.6771	-3.8458	-4.4854	-4.4812	-4.0437	-4.9146	-4.1312	-4.1896	31.035	-8.140	194.436	204.872	15.089	170.747	206.361	212.720	-11.262	231.137	76.077	92.120	6.032	309.395	307.183	239.841	8.4369e-05	0.00017403	5.3928e-05	1143.4	2.2547e-06	1.3591e-06	1229	237.16	1.4089e-06	2.4813e-06	299.04	82.349	65.18	19.556	2.8839e-06	27.279	3.0595e-05	2.6885e-05	7.5627e-06	1069.5	3.1704e-07	2.842e-07	1151.8	222.31	2.961e-07	2.928e-07	273.16	76.78	60.096	18.119	3.0316e-07	24.838	189.715	45.879	25.937	-10.216	165.055	110.445	-9.761	-2.677	172.686	60.098	-3.065	4.002	4.105	11.233	120.136	10.617	-8191	255	
44268.918	1	1	0	0	0.092217	0.12305	0.12474	0.23468	0.14108	0.36629	0.11643	0.33578	0.13305	0.28787	0.18023	0.12929	0.19817	0.18624	0.13945	0.30349	-4.4375	-3.9333	-4.4521	-4.6854	-3.7521	-4.7063	-4.4896	-4.1167	-4.8375	-3.8979	-4.4417	-4.7708	-3.8771	-4.8042	-4.3083	-3.8979	137.419	309.724	39.439	310.664	252.623	269.843	237.796	297.247	56.155	52.566	26.975	161.141	238.892	187.349	58.411	34.225	0.00012836	0.00046103	6.0894e-05	1137.8	2.2061e-06	1.9428e-06	1230.2	236.47	1.9477e-06	9.63e-07	299.03	82.828	65.445	19.636	1.3024e-06	27.4	3e-05	2.8145e-05	7.4576e-06	1066.4	3.193e-07	2.9168e-07	1151.4	222.04	3.0752e-07	2.9342e-07	273.73	77.033	60.174	18.118	3.0441e-07	24.919	190.234	-3.969	0.524	-10.234	120.025	82.504	-9.938	-2.940	207.599	114.229	-3.083	4.598	4.355	10.899	143.490	10.637	-8191	255	
44269.035	1	1	0	0	0.092474	0.25237	0.30926	0.30481	0.26122	0.24443	0.3743	0.12123	0.12033	0.090905	0.2201	0.080462	0.094544	0.10899	0.23505	0.14112	-4.7771	-4.1	-4.3083	-5.0021	-3.6375	-4.5354	-4.5667	-4.0563	-4.7792	-3.9521	-4.3417	-4.7312	-3.8854	-4.5896	-4.5354	-3.9417	46.537	217.784	271.197	19.610	52.794	44.622	247.037	-16.958	23.287	148.076	255.751	210.781	78.786	231.818	167.575	23.916	0.00012996	9.4813e-05	4.5158e-05	1141.1	2.4413e-06	2.0506e-06	1233.8	237.76	2.5398e-06	1.2008e-06	300.38	83.287	65.463	19.663	1.681e-06	27.188	3.0068e-05	2.709e-05	7.4313e-06	1069.8	3.2032e-07	2.9332e-07	1151.7	221.93	3.0886e-07	3.0063e-07	273.9	77.113	60.133	18.134	3.0418e-07	24.877	180.619	66.939	50.005	-10.348	112.883	100.877	-9.820	-2.841	135.617	133.843	-3.038	3.841	4.758	11.226	35.365	10.579	-8191	255	
44269.133	1	1	0	0	0.05962	0.26054	0.23659	0.3202	0.045014	0.054359	0.1127	0.24739	0.13659	0.13148	0.13732	0.11762	0.01365	0.30228	0.10214	0.06188	-4.6083	-4.1625	-4.175	-4.9104	-3.8146	-4.3958	-4.7688	-3.8583	-4.8354	-4.2208	-4.2958	-4.8333	-3.9208	-4.5729	-4.6479	-3.8458	21.566	238.526	232.841	233.373	-14.534	159.741	260.478	211.789	114.454	50.844	334.769	126.578	223.031	202.236	252.183	71.521	0.00014355	0.00012419	9.9156e-05	1142.1	1.6818e-06	2.192e-06	1231.2	236.82	7.9434e-07	2.6225e-06	299.6	82.219	65.563	19.563	2.9728e-06	27.242	3.027e-05	2.7236e-05	7.595e-06	1069.1	3.2294e-07	2.947e-07	1151.7	222.04	3.0947e-07	3.0304e-07	273.52	76.913	60.096	18.136	3.0148e-07	24.876	197.800	76.619	10.134	-10.209	79.949	113.877	-9.731	-2.816	86.150	87.269	-2.997	4.055	4.403	10.895	116.972	10.576	-8191	255	
44269.230	1	1	0	0	0.27259	0.20296	0.14816	0.18934	0.078588	0.1225	0.19674	0.17686	0.11043	0.16532	0.09197	0.079592	0.17301	0.18996	0.040411	0.25859	-4.5167	-4.2229	-4.0271	-4.8438	-3.975	-4.3438	-4.8354	-3.8438	-4.6646	-4.4375	-4.075	-4.8771	-3.9729	-4.3812	-4.7854	-3.9354	120.744	148.490	126.132	-12.929	220.712	113.066	306.362	231.032	173.675	320.116	100.340	-6.104	260.998	254.865	146.928	83.114	8.7821e-05	0.00017116	2.5421e-05	1142.9	4.8214e-06	1.7793e-06	1227.6	237.45	3.3574e-06	2.6925e-06	300.5	82.597	65.803	19.613	1.1912e-06	27.383	3.1122e-05	2.8285e-05	7.8526e-06	1069.6	3.2809e-07	2.9472e-07	1150.4	222.29	3.1723e-07	3.0655e-07	273.57	76.931	60.112	18.121	2.9993e-07	24.944	197.456	22.873	39.785	-10.232	136.226	89.146	-10.090	-2.831	149.388	88.494	-3.320	3.986	4.642	11.251	148.353	10.609	-8191	255	
44269.324	1	1	0	0	0.16331	0.10465	0.034822	0.12111	0.099266	0.052389	0.22378	0.18624	0.10266	0.12778	0.32339	0.27392	0.1391	0.17313	0.21214	0.14322	-4.5125	-4.5771	-3.9521	-4.8542	-4.0312	-4.2146	-5.0312	-4.0708	-4.4917	-4.55	-3.9646	-4.9792	-4.1979	-4.2646	-4.8688	-3.9104	148.317	181.994	-14.094	279.846	218.509	288.928	314.550	313.575	61.704	-12.158	-13.714	327.565	96.459	47.340	46.860	222.098	0.0001408	0.00019763	8.7953e-05	1138.5	2.6746e-06	1.5025e-06	1229.7	236.96	2.1856e-06	3.0835e-06	297.55	82.824	65.94	19.614	2.6803e-06	27.153	3.1134e-05	2.6992e-05	7.772e-06	1066.9	3.251e-07	3.0723e-07	1150.4	221.78	3.0441e-07	3.0308e-07	272.97	76.861	60.188	18.131	3.0264e-07	24.799	189.734	44.611	29.206	-10.228	168.445	136.964	-9.957	-2.792	141.863	91.626	-3.158	4.145	4.880	10.704	117.411	10.509	-8191	255	
44269.445	1	1	0	0	0.22341	0.10544	0.15014	0.20405	0.13709	0.16806	0.10994	0.1366	0.043921	0.088717	0.19008	0.1588	0.1535	0.10744	0.099159	0.41203	-4.1583	-4.4875	-3.8021	-4.9479	-4.2375	-4.0563	-4.7708	-3.8812	-4.3646	-4.6583	-4.0208	-4.8208	-4.2646	-4.1833	-4.875	-4.1208	233.051	261.234	274.582	-5.810	130.319	-8.301	248.550	298.249	316.206	221.122	184.521	16.246	-11.163	234.033	190.387	-3.647	0.00010108	0.00014608	8.4058e-05	1137.2	5.4629e-07	1.2495e-06	1223.3	237.42	1.1483e-06	2.5293e-06	301.08	82.271	64.877	19.814	2.2758e-06	27.171	3.1372e-05	2.6996e-05	7.6165e-06	1067.6	3.1691e-07	2.9611e-07	1149.4	221.78	3.1427e-07	3.0207e-07	273.56	76.74	60.072	18.174	2.9035e-07	24.828	198.635	327.473	32.286	-10.285	198.832	134.835	-10.045	-2.659	50.755	151.395	-3.563	4.282	4.618	10.938	97.050	10.347	-8191	255	
44269.516	1	1	0	0	0.030201	0.035759	0.097951	0.14941	0.10491	0.14104	0.12678	0.066489	0.18565	0.13426	0.13628	0.20414	0.1408	0.16616	0.068742	0.071759	-4.0062	-4.675	-3.8583	-4.8313	-4.3333	-3.9396	-4.8854	-4.1708	-4.2271	-4.6875	-3.9562	-4.7083	-4.5542	-3.8688	-4.8708	-4.2625	129.401	209.766	220.041	285.168	299.713	193.951	5.147	323.152	40.022	110.088	328.815	256.068	338.759	74.235	180.353	10.084	0.00010595	0.00022226	4.6118e-05	1141.9	2.4193e-06	1.3514e-06	1224	237.3	3.0418e-06	3.6501e-06	299.57	83.019	65.246	19.646	1.2805e-06	27.441	3.1348e-05	2.654e-05	7.6312e-06	1067.2	3.246e-07	2.9892e-07	1150.1	222.21	3.1067e-07	2.9832e-07	273.42	76.965	60.147	18.097	2.9546e-07	24.94	181.242	24.608	51.450	-10.404	124.860	106.342	-10.334	-2.666	120.748	103.350	-3.410	4.082	4.699	10.871	79.214	10.746	-8191	255	
44269.637	1	1	0	0	0.066298	0.16818	0.18171	0.12108	0.074207	0.15039	0.15658	0.10214	0.15791	0.15057	0.13753	0.10101	0.056394	0.023759	0.25769	0.32991	-3.9333	-4.85	-3.9792	-4.6958	-4.4187	-3.9542	-4.9396	-4.2042	-4.1958	-4.8229	-4.0542	-4.5896	-4.6229	-3.9646	-4.8146	-4.3271	291.804	252.897	202.279	296.584	37.948	35.334	227.859	302.945	160.619	111.249	45.073	62.425	231.238	229.068	222.686	-0.075	9.1695e-05	0.00029285	3.5823e-05	1143.2	4.207e-06	2.7671e-06	1231	235.59	1.8229e-06	1.3512e-06	297.13	82.639	65.456	19.593	1.0052e-06	27.31	3.0197e-05	2.6731e-05	7.5209e-06	1068.1	3.1778e-07	2.953e-07	1150.6	221.52	3.0889e-07	2.9985e-07	272.52	76.678	60.014	18.155	2.9909e-07	24.772	184.048	33.627	49.796	-10.480	127.474	127.234	-9.877	-2.586	90.752	172.829	-3.211	4.422	4.801	11.290	8.672	10.917	-8191	255	
44269.730	1	1	0	0	0.087331	0.20888	0.20065	0.25423	0.15333	0.15055	0.1192	0.28667	0.16345	0.16985	0.098969	0.082711	0.12863	0.020344	0.014671	0.1713	-3.7812	-4.8938	-3.9729	-4.4625	-4.5146	-3.8354	-4.8771	-4.3375	-4.0271	-4.7792	-3.9667	-4.5	-4.8625	-3.9479	-4.6854	-4.5396	312.266	293.979	101.766	311.140	113.979	219.048	80.860	323.638	121.190	204.243	241.157	142.726	243.383	212.162	169.685	112.446	0.0001181	0.00015656	9.8689e-05	1139.5	3.5193e-06	2.8098e-06	1227.8	236.68	1.1608e-06	1.2636e-06	299.1	81.82	65.307	19.739	3.0181e-06	27.253	3.0703e-05	2.7535e-05	7.7837e-06	1065.1	3.1015e-07	3.0267e-07	1149.9	221.46	3.093e-07	2.9155e-07	273.58	76.76	60.008	18.159	3.0343e-07	24.906	187.031	82.200	-11.734	-10.273	165.483	102.989	-9.938	-2.640	166.892	44.377	-3.241	4.240	4.501	11.009	90.392	10.746	-8191	255	
44269.828	1	1	0	0	0.20243	0.01567	0.013427	0.063036	0.12247	0.16624	0.11735	0.14911	0.11828	0.15989	0.040122	0.15708	0.14305	0.095031	0.08185	0.070833	-3.7604	-4.8146	-4.0833	-4.2896	-4.6667	-3.7354	-4.6771	-4.4812	-3.9167	-4.8438	-4.2063	-4.2667	-4.9375	-4.0333	-4.6042	-4.6937	283.086	304.480	264.251	281.157	68.257	33.979	187.848	243.516	37.127	-18.405	54.277	33.880	285.070	311.253	93.506	165.322	0.00013712	0.00010626	9.66e-05	1137.5	2.2127e-06	3.9973e-07	1225.7	235.74	1.8021e-06	2.4162e-06	300.13	82.363	65.348	19.541	2.0891e-06	27.287	3.0377e-05	2.7765e-05	7.6455e-06	1066.2	3.1265e-07	2.9721e-07	1149.1	221.42	3.0567e-07	3.0062e-07	273.14	76.715	59.879	18.075	3.082e-07	24.816	186.826	38.366	34.580	-10.215	164.354	6.383	-10.009	-2.672	107.615	133.471	-2.974	3.751	3.972	11.391	85.536	10.560	-8191	255	
44269.926	1	1	0	0	0.21515	0.11783	0.037548	0.091991	0.26037	0.27323	0.19835	0.067854	0.074294	0.15734	0.23031	0.11691	0.043558	0.034646	0.087007	0.10515	-3.625	-4.7438	-4.2479	-4.325	-4.7	-4.0625	-4.7	-4.7729	-3.9229	-4.9667	-4.2	-4.2354	-4.9146	-4.0229	-4.4854	-4.7708	223.066	106.433	-5.804	256.882	172.909	217.796	262.536	86.358	56.419	73.773	295.611	287.287	22.854	9.960	6.135	114.757	0.00010544	0.00025478	0.00013521	1138.6	2.2351e-06	2.3428e-06	1220.5	236.9	2.1171e-06	2.9195e-06	298.26	82.798	65.088	19.54	1.4895e-06	26.965	3.16e-05	2.778e-05	7.7592e-06	1066.8	3.1447e-07	3.1194e-07	1147.2	221.76	3.0919e-07	2.9364e-07	272.72	76.634	60.019	18.148	3.0754e-07	24.817	201.175	43.023	48.122	-10.556	157.797	131.477	-9.944	-2.817	138.797	129.090	-2.874	4.128	4.377	11.419	114.063	10.774	-8191	255	
44270.047	1	1	0	0	0.20697	0.11324	0.017526	0.058161	0.16964	0.10182	0.088166	0.27181	0.12723	0.10711	0.12043	0.27916	0.29353	0.16122	0.10193	0.10497	-3.6292	-4.7937	-4.3	-4.1604	-4.7583	-4.0188	-4.6417	-4.7729	-3.9021	-4.8	-4.4812	-3.9854	-4.8562	-4.0417	-4.3333	-4.8271	105.540	99.170	59.437	25.092	114.762	27.469	31.283	272.049	148.817	233.703	69.557	288.279	234.369	245.282	93.188	277.929	9.5859e-05	0.00011698	0.00010707	1137.6	3.2677e-06	2.2821e-06	1227.8	236.52	2.6507e-06	2.3819e-06	300.08	81.896	65.251	19.715	2.9929e-06	26.845	3.0862e-05	2.7416e-05	7.676e-06	1065.1	3.1208e-07	3.0435e-07	1149	221.74	3.1551e-07	3.0042e-07	272.78	76.565	59.971	18.118	3.1111e-07	24.754	189.855	65.147	43.148	-10.213	150.395	145.657	-9.966	-2.884	143.022	97.435	-3.259	4.066	4.209	10.921	112.036	10.575	-8191	255	
44270.117	1	1	0	0	0.10645	0.056323	0.23688	0.1137	0.22616	0.050486	0.13537	0.23699	0.085876	0.27896	0.22978	0.10854	0.37924	0.082486	0.21329	0.15864	-3.5563	-4.825	-4.4875	-4.0083	-4.8	-4.1438	-4.3083	-4.6792	-3.8646	-4.5708	-4.5938	-3.9583	-4.8104	-4.2396	-4.2312	-4.6521	162.421	-19.206	24.723	263.339	249.008	307.495	139.507	286.927	173.031	127.059	162.161	250.594	-8.427	191.260	238.323	-14.778	0.00013095	0.00014735	8.5774e-05	1136	1.7912e-06	1.099e-06	1222.4	235.88	2.0156e-06	1.6201e-06	298.72	82.013	65.544	19.55	1.3096e-06	27.152	3.2002e-05	2.7312e-05	7.6903e-06	1063.2	3.212e-07	2.9638e-07	1146.1	221.8	3.1396e-07	2.9845e-07	272.41	76.645	60.21	18.106	3.1282e-07	24.819	196.116	9.105	44.871	-10.364	140.396	137.031	-10.176	-2.630	168.067	148.709	-3.166	4.131	4.633	11.220	65.975	11.400	-8191	255	
44270.215	1	1	0	0	0.064795	0.10628	0.055611	0.17054	0.18306	0.064398	0.18526	0.18317	0.14432	0.1567	0.22718	0.048923	0.20133	0.18372	0.016305	0.2605	-3.6292	-4.4938	-4.6708	-4.0687	-4.7833	-4.25	-4.2417	-4.975	-3.9896	-4.4833	-4.7396	-3.9271	-4.775	-4.3688	-4.0437	-4.9167	57.817	32.872	175.750	319.556	27.383	18.257	301.913	338.168	250.323	120.519	167.968	136.728	32.674	314.652	92.003	166.749	0.00012836	2.4997e-05	5.1021e-05	1132.3	2.9688e-06	1.6592e-06	1221.7	236.06	6.9965e-07	2.9559e-06	298	82.629	65.543	19.734	1.1656e-06	27.104	3.0781e-05	2.691e-05	7.4697e-06	1063.9	3.1568e-07	2.9959e-07	1147.1	221.12	3.2356e-07	3.0025e-07	272.34	76.831	59.954	18.183	3.1615e-07	24.854	188.856	273.391	31.403	-10.385	152.706	93.904	-10.031	-2.443	182.764	101.781	-3.355	3.884	4.831	11.399	73.258	10.885	-8191	255	
44270.309	1	1	0	0	0.3629	0.19924	0.3142	0.049131	0.22583	0.16194	0.49127	0.13362	0.28979	0.071136	0.15602	0.15503	0.24366	0.091379	0.19262	0.22575	-3.6833	-4.2792	-4.6396	-4.0125	-4.6854	-4.5	-4.1396	-4.9729	-4.0292	-4.2354	-4.8625	-4.0813	-4.6312	-4.475	-3.7833	-4.7688	287.958	195.928	196.916	92.360	172.730	200.672	247.678	235.018	302.892	172.336	293.111	285.020	305.193	225.175	82.404	244.411	0.00015635	0.00017919	0.00011197	1138.7	1.8003e-06	2.644e-06	1225.8	235.98	6.0637e-07	4.2478e-06	299.14	82.654	64.986	19.755	2.107e-06	27.206	3.1603e-05	2.7838e-05	7.74e-06	1066.5	3.2368e-07	3.061e-07	1148.1	221.19	3.2172e-07	3.1127e-07	273.43	76.667	59.976	18.165	3.1845e-07	24.826	194.470	80.750	38.644	-10.352	129.770	143.197	-10.101	-2.475	199.817	52.659	-3.117	3.911	4.494	11.065	136.902	10.641	-8191	255	
44270.430	1	1	0	0	0.22759	0.25471	0.175	0.24977	0.068677	0.10993	0.074609	0.26281	0.16965	0.1371	0.069789	0.18243	0.1541	0.22729	0.18978	0.205	-3.9062	-4.1229	-4.7354	-3.9917	-4.5708	-4.6458	-4.0875	-5.0062	-4.1813	-4.1646	-4.8688	-3.9354	-4.4708	-4.6146	-3.8896	-4.7479	254.682	116.614	211.067	15.596	122.661	121.619	-18.011	299.955	122.742	42.083	-0.783	202.841	300.658	253.205	82.596	265.683	9.9013e-05	0.00029184	1.5345e-05	1136.1	2.0273e-06	1.2559e-06	1223.3	235.41	2.2327e-06	1.1302e-06	299.07	81.828	65.403	19.729	2.4849e-06	27.277	3.143e-05	2.8023e-05	7.7392e-06	1064.7	3.1893e-07	3.0822e-07	1146.9	221.31	3.1941e-07	3.1025e-07	273.19	76.54	60.082	18.12	3.1026e-07	24.793	206.918	45.908	50.937	-10.333	120.856	153.097	-10.070	-2.569	175.801	89.868	-3.065	4.165	4.578	11.019	114.796	10.649	-8191	255	
44270.527	1	1	0	0	0.055487	0.054038	0.26395	0.17971	0.18757	0.05367	0.27769	0.18387	0.14867	0.05175	0.23039	0.11503	0.27354	0.13094	0.12422	0.20955	-3.9521	-4.1854	-4.9667	-4.125	-4.3104	-4.5979	-4.0042	-4.7104	-4.2604	-3.9896	-4.7875	-4.0667	-4.35	-4.6375	-3.8542	-4.65	303.894	138.182	109.898	291.584	102.171	125.870	273.607	314.930	11.201	191.258	330.573	337.091	235.078	138.003	12.670	227.574	0.00010531	0.00026604	0.00010724	1135.4	2.293e-06	2.3452e-06	1218.6	235.78	1.3687e-06	3.6896e-06	298.52	82.337	65.261	19.623	2.0694e-06	27.237	3.1534e-05	2.9249e-05	7.5717e-06	1064.7	3.2766e-07	3.008e-07	1147.5	221.22	3.1892e-07	3.1047e-07	273.55	76.793	60.129	18.165	3.1384e-07	24.857	184.134	11.215	56.433	-10.616	131.547	101.278	-9.843	-2.868	127.652	98.516	-2.902	3.929	4.760	10.972	69.462	10.772	-8191	255	
44270.621	1	1	0	0	0.26933	0.20436	0.18026	0.14421	0.20836	0.37516	0.34631	0.21643	0.085602	0.090362	0.09118	0.030727	0.27196	0.11402	0.26857	0.092204	-4.0521	-4.0125	-4.7479	-4.3042	-4.2396	-4.6917	-3.9896	-4.7292	-4.5417	-3.8208	-4.7292	-4.0917	-4.2646	-4.8771	-3.7583	-4.5792	130.198	201.812	38.397	308.710	36.975	250.393	257.241	328.833	27.924	147.400	10.583	308.150	224.435	58.740	215.019	-19.719	0.00012002	0.00027267	0.00012712	1143.7	3.4278e-06	1.227e-06	1223.2	236.6	3.7649e-06	1.92e-06	300.83	82.26	65.175	19.868	1.7015e-06	27.345	3.1773e-05	2.7964e-05	7.9147e-06	1066.6	3.198e-07	3.0435e-07	1146.7	221.4	3.1825e-07	3.0759e-07	273.84	76.654	59.941	18.217	3.1343e-07	24.918	183.791	36.074	32.772	-10.305	109.714	84.639	-10.251	-2.703	132.959	89.132	-2.826	4.093	4.260	11.169	85.340	10.732	-8191	255	
44270.719	1	1	0	0	0.17018	0.045658	0.11036	0.18824	0.034516	0.18147	0.042694	0.20086	0.14132	0.037664	0.16094	0.19826	0.1888	0.15367	0.13198	0.093302	-4.1937	-4.0167	-4.775	-4.2083	-4.0958	-4.7646	-4.0292	-4.5	-4.4833	-4.0312	-4.9458	-3.9542	-4.1083	-4.7958	-3.7583	-4.3375	83.481	256.192	44.885	196.371	330.949	-19.496	171.465	321.951	-3.551	111.084	18.213	147.358	34.855	240.715	124.018	161.004	0.00011436	0.00021646	0.0001161	1139.3	1.9154e-06	1.651e-06	1224.1	237.61	4.0074e-07	3.0214e-06	299.3	83.073	65.077	19.624	1.5975e-06	27.297	3.1167e-05	2.8377e-05	7.7415e-06	1065	3.213e-07	2.9785e-07	1147.5	222.24	3.1926e-07	3.0605e-07	273	76.809	59.988	18.16	3.2196e-07	24.886	183.952	98.817	23.010	-10.234	104.765	102.122	-9.989	-2.655	284.512	50.406	-2.922	4.201	4.497	10.858	72.367	10.511	-8191	255	
44270.812	1	1	0	0	0.23676	0.16052	0.12272	0.15936	0.18229	0.14795	0.11667	0.15976	0.29277	0.18858	0.19982	0.10312	0.099352	0.14438	0.045333	0.16132	-4.2208	-3.8104	-4.7146	-4.45	-3.9938	-4.5938	-4.0521	-4.3771	-4.7562	-3.9646	-4.8438	-4.4146	-4.075	-4.8187	-4.0708	-4.2792	86.650	181.463	335.688	257.739	150.260	148.635	204.423	-10.513	161.929	17.692	112.574	51.416	261.155	124.457	18.626	254.082	0.0001293	0.00019958	7.9489e-05	1138.8	2.3317e-06	3.4249e-06	1226	235.51	1.8875e-06	5.3824e-07	297.92	82.386	65.549	19.543	2.7162e-06	27.307	3.08e-05	2.8392e-05	7.8081e-06	1065.7	3.2787e-07	3.0752e-07	1148.2	221.3	3.0883e-07	2.9915e-07	273.22	76.784	59.957	18.161	3.1332e-07	24.88	209.412	72.662	35.072	-10.246	134.114	132.151	-10.322	-2.648	107.979	81.453	-3.089	4.367	4.084	11.011	96.105	10.678	-8191	255	
44270.910	1	1	0	0	0.16624	0.15575	0.24048	0.20629	0.13315	0.14667	0.21778	0.084654	0.14186	0.17914	0.2384	0.15453	0.085877	0.10499	0.028737	0.30006	-4.4604	-3.8375	-4.6438	-4.5542	-4.075	-4.8646	-4.1083	-4.2125	-4.6562	-3.7354	-4.6208	-4.6583	-3.9583	-4.8104	-4.15	-4.1833	-2.006	-17.059	33.745	308.570	34.547	26.233	313.356	31.313	-15.048	110.643	265.053	204.654	305.364	118.650	127.868	283.720	9.8388e-05	0.00020712	0.00013691	1139.6	2.7209e-06	3.5374e-06	1225.9	235.82	1.9386e-06	7.9961e-07	297.86	82.508	65.095	19.653	1.528e-06	26.922	3.1507e-05	2.9274e-05	7.717e-06	1066	3.2353e-07	2.9558e-07	1148.3	221.46	3.2442e-07	3.1017e-07	272.9	76.735	60.072	18.138	3.1503e-07	24.821	198.155	38.072	9.328	-10.070	105.121	141.181	-10.088	-2.695	133.976	139.592	-3.096	3.764	4.381	11.088	104.774	10.803	-8191	255	
44271.027	1	1	0	0	0.19801	0.21311	0.03208	0.084594	0.040238	0.13604	0.22743	0.14245	0.26812	0.063256	0.13144	0.24468	0.073485	0.15846	0.20856	0.18778	-4.5167	-3.9313	-4.5938	-4.7979	-3.7583	-4.7	-4.375	-4.2396	-4.7188	-3.6104	-4.5125	-4.7208	-3.8438	-4.7688	-4.3313	-4.0125	-20.448	31.979	119.913	218.429	167.278	49.614	262.857	293.416	43.232	72.279	264.153	300.363	79.169	321.676	240.814	167.298	0.00013325	0.00016406	6.891e-05	1133.7	2.2435e-06	1.8241e-06	1232.3	237.29	1.4143e-06	4.081e-06	300.19	82.26	65.451	19.603	2.5483e-06	27.37	3.1203e-05	2.827e-05	7.9535e-06	1065.9	3.2813e-07	3.0197e-07	1151.9	221.77	3.1929e-07	3.0597e-07	273.84	76.867	59.986	18.175	3.115e-07	24.873	195.181	78.571	26.927	-10.156	127.959	55.262	-10.450	-3.102	160.331	101.615	-3.740	3.866	4.308	11.053	118.031	10.864	-8191	255	
44271.125	1	1	0	0	0.24976	0.21697	0.14307	0.097309	0.060266	0.076246	0.17269	0.29309	0.055362	0.28856	0.034215	0.10691	0.071011	0.055521	0.19215	0.17007	-4.5771	-4.1396	-4.4271	-4.8146	-3.8125	-4.9708	-4.55	-4.0292	-4.9417	-4.0437	-4.4187	-4.9875	-3.8854	-4.7458	-4.6062	-3.9625	-14.812	30.522	180.584	146.196	100.434	264.248	202.495	213.691	105.789	162.754	321.266	170.574	189.724	174.496	338.189	226.127	0.0001157	0.00031782	2.7718e-05	1142.5	1.5326e-06	2.6972e-06	1228.6	236.71	8.5988e-07	3.3979e-06	298.01	83.132	65.441	19.776	2.007e-07	27.428	3.1697e-05	2.8474e-05	7.7566e-06	1067	3.3042e-07	3.1263e-07	1151.2	221.09	3.1657e-07	3.0933e-07	272.96	77.069	60.016	18.212	3.1323e-07	24.877	187.274	74.450	39.136	-10.663	109.404	146.930	-10.335	-2.978	184.231	79.694	-3.202	3.723	4.420	11.081	-15.266	10.070	-8191	255	
44271.219	1	1	0	0	0.18171	0.30888	0.15576	0.13696	0.14091	0.11723	0.1081	0.23663	0.08701	0.1432	0.021676	0.10276	0.13398	0.12438	0.13563	0.18965	-4.5042	-4.0687	-4.0938	-4.9625	-3.9104	-4.375	-4.7708	-4.0146	-4.8771	-4.1833	-4.25	-4.9542	-4.0333	-4.5458	-4.6271	-3.9167	149.737	48.440	211.583	219.771	75.094	9.768	211.361	251.711	337.824	96.632	205.246	289.810	244.715	269.128	296.654	232.725	0.00010312	0.00039337	8.8493e-05	1143	1.2238e-06	2.9054e-06	1228.6	237.43	2.3722e-06	3.8507e-07	299.32	82.744	65.229	19.68	1.4665e-06	27.53	3.1789e-05	2.8298e-05	7.9614e-06	1067.7	3.3248e-07	3.0473e-07	1148.5	221.92	3.223e-07	2.9447e-07	273.79	76.896	60.039	18.218	3.0974e-07	24.973	197.584	22.498	62.113	-10.547	129.611	137.832	-10.036	-3.216	171.432	279.160	-3.444	3.883	3.833	10.897	64.282	10.600	-8191	255	
44271.316	1	1	0	0	0.05272	0.1172	0.057778	0.27158	0.17601	0.0715	0.051741	0.32909	0.10008	0.14542	0.22823	0.098239	0.17386	0.079769	0.19929	0.11856	-4.4375	-4.2708	-4.1146	-4.9521	-3.9896	-4.3313	-4.8	-3.8104	-4.7146	-4.2979	-4.2188	-4.9292	-4.0979	-4.4042	-4.7	-3.9604	188.201	161.164	-20.339	262.452	265.488	240.106	303.767	302.246	42.776	-2.020	223.455	330.870	222.841	147.653	291.498	295.464	0.00013978	0.00032201	9.0616e-05	1142.6	3.0385e-06	2.8917e-06	1227	237.17	2.2227e-06	1.0318e-06	299.84	83.081	65.23	19.786	1.3669e-06	27.305	3.1373e-05	2.837e-05	7.7773e-06	1070	3.3196e-07	2.9834e-07	1149.4	222.09	3.1361e-07	3.0565e-07	273.62	76.916	60.141	18.207	3.0989e-07	24.928	200.380	39.021	18.979	-10.123	155.514	121.009	-9.834	-2.360	144.812	172.216	-3.173	4.395	4.613	10.690	27.847	10.258	-8191	255	
44271.410	1	1	0	0	0.20545	0.38328	0.057123	0.11993	0.19861	0.25069	0.24347	0.050194	0.11189	0.038019	0.016388	0.22383	0.054729	0.20914	0.23023	0.0091398	-4.4542	-4.5271	-4.0667	-4.9542	-4.1542	-4.3479	-5.0167	-3.9313	-4.6104	-4.4854	-3.9667	-4.8583	-4.2063	-4.2667	-4.7833	-3.8937	329.122	-16.908	210.344	-20.048	23.662	167.140	304.998	127.575	305.180	314.354	242.900	305.867	309.459	25.903	338.150	189.497	0.00010661	0.000124	2.5628e-05	1136.8	1.7481e-06	2.8826e-06	1226.3	236.57	3.0323e-06	1.8072e-06	297.86	82.358	65.497	19.742	2.4111e-06	27.526	3.2065e-05	2.7389e-05	7.7513e-06	1067	3.2807e-07	3.0249e-07	1150.4	221.85	3.1193e-07	3.1354e-07	273.32	76.947	60.085	18.184	3.1011e-07	24.957	189.299	17.710	40.895	-10.523	147.151	152.493	-10.048	-2.772	115.613	65.322	-3.027	4.254	4.242	10.881	139.053	10.872	-8191	255	
44271.508	1	1	0	0	0.14817	0.069379	0.092071	0.24788	0.095361	0.06347	0.11069	0.27165	0.12103	0.1239	0.0017414	0.17966	0.14964	0.20998	0.04858	0.25464	-4.275	-4.6062	-4.1	-5.0708	-4.1875	-4.1521	-4.9479	-4.0396	-4.4292	-4.6646	-3.9229	-4.8167	-4.2583	-4.0917	-4.9333	-4.1438	81.572	266.371	224.645	-18.411	4.915	239.627	35.211	321.515	-7.979	98.851	180.000	202.216	292.916	243.910	331.440	37.942	9.6693e-05	9.8757e-05	3.7365e-05	1138.2	1.4514e-06	2.1117e-06	1227	235.5	2.0122e-06	1.3812e-06	298.41	82.453	65.081	19.505	2.5048e-06	27.522	3.1185e-05	2.7992e-05	7.7675e-06	1068.8	3.2052e-07	3.0782e-07	1150.8	221.78	3.2168e-07	3.0569e-07	273	76.654	60.062	18.127	3.0447e-07	24.946	189.186	149.281	24.516	-10.460	113.650	99.904	-10.071	-2.647	128.271	103.281	-3.028	4.339	4.664	11.051	112.550	10.564	-8191	255	
44271.605	1	1	0	0	0.1208	0.14483	0.08295	0.28907	0.092544	0.17591	0.026254	0.095122	0.12145	0.13146	0.01948	0.065545	0.12985	0.15627	0.28467	0.092116	-4.3187	-4.675	-3.9729	-4.925	-4.3896	-4.1271	-4.9417	-3.9542	-4.3313	-4.6354	-3.8875	-4.6042	-4.3625	-4.0563	-4.8	-4.175	143.903	78.462	259.072	269.316	119.960	331.654	113.673	278.990	129.873	8.148	202.476	179.748	188.549	289.726	112.298	161.241	0.00011353	0.00034137	9.9184e-05	1140	2.5761e-06	1.3838e-06	1223.2	236.37	9.2933e-07	1.6069e-06	296.95	82.448	65.2	19.687	2.0705e-06	27.316	3.1451e-05	2.7841e-05	8.0879e-06	1068.1	3.2075e-07	3.0421e-07	1149.7	221.58	3.2123e-07	3.1218e-07	272.51	76.857	59.979	18.186	3.1083e-07	24.86	191.709	48.140	36.550	-10.247	102.349	95.442	-9.816	-2.368	102.074	43.468	-2.982	4.304	4.759	10.834	113.198	10.772	-8191	255	
44271.727	1	1	0	0	0.12697	0.20989	0.087544	0.19314	0.2969	0.11384	0.33202	0.24927	0.081429	0.066623	0.1342	0.10702	0.17467	0.028867	0.080439	0.1376	-3.9813	-4.5958	-3.9729	-4.6729	-4.4854	-4.0104	-4.9417	-4.2458	-4.1312	-4.7583	-3.9688	-4.8187	-4.7083	-3.9417	-4.9792	-4.2	256.765	297.810	155.301	335.316	289.535	159.946	260.911	307.790	149.480	59.654	330.499	288.625	268.949	318.310	14.328	241.198	0.00011635	0.00019068	7.037e-05	1139.4	1.2519e-06	2.0719e-06	1226.9	236.73	3.2099e-06	1.221e-06	298.68	82.833	65.423	19.84	9.6106e-07	27.213	3.215e-05	2.7369e-05	7.8661e-06	1067.9	3.276e-07	3.1116e-07	1150.6	221.68	3.2731e-07	3.0547e-07	273.15	76.971	60.184	18.249	3.0349e-07	24.879	187.109	38.751	47.404	-10.360	132.922	146.302	-9.861	-2.710	177.475	86.095	-2.826	4.129	4.310	10.744	30.719	10.731	-8191	255	
44271.820	1	1	0	0	0.2144	0.11096	0.20998	0.19609	0.089246	0.16383	0.10928	0.011532	0.13492	0.11905	0.17702	0.3272	0.10534	0.30187	0.082425	0.093677	-3.8458	-4.8	-3.9188	-4.6958	-4.6646	-3.8333	-4.9292	-4.3938	-4.1417	-4.9208	-3.9792	-4.5479	-4.5625	-3.9271	-4.7125	-4.2604	231.995	232.017	205.688	318.939	278.605	224.829	260.317	94.887	28.099	308.759	247.832	296.339	16.318	246.153	244.428	89.051	0.00011189	0.00020511	3.5824e-05	1139.2	1.3669e-06	9.5124e-07	1222.7	236.19	1.9992e-06	2.6034e-06	298.07	82.566	65.35	19.768	1.1357e-06	27.307	3.1331e-05	2.731e-05	7.8804e-06	1068.3	3.2151e-07	3.0506e-07	1149.4	221.71	3.1702e-07	3.0136e-07	273.39	76.772	60.204	18.161	3.0647e-07	24.891	201.288	28.368	-8.355	-10.376	116.205	133.121	-9.837	-2.463	122.811	91.907	-3.378	4.534	4.226	11.048	121.425	10.810	-8191	255	
44271.918	1	1	0	0	0.17446	0.0059399	0.24976	0.066576	0.035248	0.20409	0.11896	0.12136	0.13371	0.047617	0.052441	0.16169	0.07206	0.093971	0.082172	0.043595	-3.8125	-4.7688	-4.075	-4.5938	-4.7833	-3.7833	-4.8688	-4.5021	-3.9667	-4.7917	-4.2104	-4.3354	-4.8021	-4.0792	-4.6146	-4.4625	95.075	225.609	36.422	329.168	88.284	203.882	292.149	207.093	221.184	176.579	157.813	7.630	261.087	237.974	254.587	327.416	0.00010883	9.4515e-05	4.8666e-05	1137.5	3.0549e-06	1.868e-06	1230	236.64	1.6582e-06	1.3258e-06	297.82	82.53	65.076	19.726	3.4517e-06	27.389	3.1357e-05	2.7226e-05	7.8601e-06	1067.7	3.2187e-07	3.0473e-07	1150.3	221.85	3.1324e-07	3.045e-07	273.25	77.008	60.072	18.173	3.1536e-07	24.857	185.564	334.958	71.959	-10.185	179.619	104.563	-10.010	-2.604	181.904	119.189	-3.387	4.027	4.794	10.980	96.036	10.618	-8191	255	
44271.988	1	1	0	0	0.12187	0.093567	0.15105	0.052909	0.11452	0.096593	0.12491	0.049679	0.20886	0.097492	0.07781	0.14489	0.16765	0.34338	0.031565	0.16286	-3.6917	-4.9896	-4.1979	-4.3938	-4.8125	-3.7979	-4.7729	-4.5896	-3.8667	-5.0396	-4.3708	-4.3604	-4.8458	-3.9708	-4.3458	-4.7125	-5.749	189.982	3.540	44.570	101.803	316.406	235.280	-12.613	307.369	101.137	45.888	196.648	307.968	290.882	271.457	197.843	0.0001306	0.00011273	7.5797e-05	1141.4	2.1322e-06	1.812e-06	1228.8	235.35	3.2821e-06	3.4321e-06	299.32	82.751	65.351	19.547	1.2071e-06	27.096	3.1288e-05	2.8083e-05	7.9275e-06	1068.9	3.2469e-07	3.0785e-07	1149.9	221.4	3.2166e-07	3.0002e-07	273.05	76.966	60.082	18.136	3.0334e-07	24.884	189.273	36.056	41.519	-10.351	131.775	145.208	-9.991	-2.410	127.769	113.569	-3.145	4.217	4.519	11.442	86.073	10.348	-8191	255	
44272.109	1	1	0	0	0.12975	0.2419	0.1639	0.47749	0.084885	0.18874	0.38702	0.043246	0.20182	0.11011	0.045973	0.34239	0.12901	0.33079	0.12676	0.14979	-3.6125	-4.9583	-4.2729	-4.2958	-4.7979	-4.0479	-4.5563	-4.7417	-3.8937	-4.8479	-4.275	-4.2104	-4.8896	-3.975	-4.3396	-4.8542	289.163	288.353	186.771	321.691	228.508	327.706	254.048	28.913	17.526	165.559	131.316	283.208	257.213	314.300	326.234	99.843	0.00012493	0.00013755	7.427e-05	1140.8	1.9286e-06	2.9543e-06	1228.3	236.72	8.4733e-07	2.2768e-06	297.02	82.593	65.326	19.643	2.1816e-06	27.131	3.1471e-05	2.7297e-05	7.6331e-06	1068.2	3.1982e-07	3.1056e-07	1150.5	221.86	3.2377e-07	3.0114e-07	272.75	76.833	60.206	18.207	3.0811e-07	24.94	195.448	8.605	60.239	-10.545	167.198	153.484	-10.063	-2.763	155.010	74.919	-3.231	4.131	4.621	11.575	91.465	10.766	-8191	255	
44272.203	1	1	0	0	0.23269	0.023988	0.088694	0.16929	0.048288	0.2627	0.33543	0.079015	0.21741	0.16145	0.21537	0.077071	0.11394	0.15317	0.18237	0.19838	-3.5542	-4.8479	-4.4229	-4.0833	-4.9313	-4.0687	-4.4979	-4.9229	-3.7062	-4.675	-4.5083	-3.9583	-4.9333	-4.1271	-4.0396	-4.8812	263.152	171.793	238.111	1.967	213.627	208.314	252.369	220.208	273.454	63.746	227.900	96.293	194.324	327.533	76.737	74.335	0.00011401	0.0002479	7.5709e-05	1137.1	2.9658e-06	2.0953e-06	1227.1	236.93	2.2357e-06	2.7531e-06	298.65	82.872	65.279	19.795	7.4785e-07	27.061	3.1966e-05	2.7282e-05	7.6357e-06	1067.4	3.1729e-07	3.0987e-07	1150.3	221.8	3.2171e-07	3.0188e-07	273.69	76.809	60.041	18.246	3.1141e-07	24.833	193.482	30.034	37.115	-10.278	105.769	113.328	-9.973	-2.690	139.266	85.850	-3.012	4.421	4.285	11.132	139.224	10.854	-8191	255	
44272.301	1	1	0	0	0.12468	0.17178	0.077927	0.17475	0.23638	0.11327	0.13429	0.092842	0.20695	0.11794	0.16224	0.062304	0.14807	0.041619	0.25321	0.055586	-3.6104	-4.5125	-4.6438	-3.8125	-4.7562	-4.0604	-4.2042	-4.9542	-3.9083	-4.3875	-4.7271	-3.9021	-4.75	-4.2833	-4.0833	-4.8229	317.213	1.773	254.437	277.192	33.124	306.306	269.532	156.851	220.472	189.822	127.149	259.574	166.943	5.316	258.181	256.150	0.00012088	0.00016445	5.6737e-05	1135.8	1.7983e-06	2.8932e-06	1224.7	237.55	1.8342e-06	1.6544e-06	299.23	82.915	65.094	19.592	1.0575e-06	27.387	3.1231e-05	2.7925e-05	7.8119e-06	1065.4	3.2132e-07	3.053e-07	1150.6	222.08	3.1985e-07	3.072e-07	273.09	76.92	60.106	18.157	3.1257e-07	24.972	171.219	42.696	51.544	-10.273	92.690	102.550	-10.205	-2.499	114.511	61.415	-3.036	3.693	4.524	10.491	70.589	10.766	-8191	255	
44272.398	1	1	0	0	0.24874	0.28828	0.18348	0.19342	0.19296	0.019888	0.055006	0.16194	0.20371	0.2078	0.18236	0.18758	0.13083	0.093209	0.1862	0.19256	-3.5375	-4.4542	-4.4625	-4.0667	-4.8	-4.2604	-4.2146	-4.8688	-3.8646	-4.3708	-4.9104	-3.8604	-4.6333	-4.3646	-4.0687	-4.8542	207.207	270.181	233.365	17.541	117.483	226.842	332.659	255.029	137.365	-7.879	56.216	244.189	278.646	310.872	12.683	20.785	0.000149	0.00012717	6.4161e-05	1139.7	1.5778e-06	2.3541e-06	1229.7	236.53	9.1734e-07	1.859e-06	297.6	82.858	65.185	19.664	9.1954e-07	27.096	3.2071e-05	2.7596e-05	7.6914e-06	1067.4	3.3173e-07	3.088e-07	1149	221.56	3.1536e-07	3.0961e-07	273.01	76.89	60.157	18.159	3.115e-07	24.845	188.573	53.822	91.433	-10.276	128.806	131.169	-10.265	-2.739	238.889	118.755	-2.719	3.934	4.238	11.033	125.063	10.602	-8191	255	
44272.516	1	1	0	0	0.076932	0.27489	0.11591	0.097857	0.1208	0.10125	0.13506	0.32459	0.092321	0.093969	0.33719	0.098454	0.15188	0.19497	0.17579	0.07994	-3.75	-4.3583	-4.7063	-4.025	-4.6021	-4.5687	-4.0583	-4.9708	-4.2375	-4.125	-4.8938	-4.1042	-4.7021	-4.6188	-3.8417	-5.0062	331.845	200.101	112.242	192.799	203.657	309.871	281.560	75.181	215.043	254.204	258.509	19.705	246.718	292.735	234.266	295.649	9.4082e-05	0.00022168	7.8133e-05	1137.5	1.4119e-06	6.4654e-07	1228.2	237.62	1.6895e-06	8.4246e-07	298.99	82.5	65.674	19.635	1.1547e-07	26.97	3.169e-05	2.8198e-05	7.7136e-06	1068.8	3.0947e-07	3.0634e-07	1148.8	222.09	3.17e-07	3.1249e-07	273.38	76.767	60.293	18.176	3.1303e-07	24.848	184.651	28.508	50.512	-10.122	141.973	95.705	-10.080	-2.862	159.918	90.540	-2.992	4.030	4.375	10.816	327.657	10.593	-8191	255	
44272.613	1	1	0	0	0.005628	0.14555	0.16719	0.21348	0.20489	0.087766	0.025078	0.10976	0.1452	0.05935	0.21239	0.18263	0.18793	0.33026	0.025218	0.12388	-4.05	-4.0625	-4.8812	-4.0292	-4.4812	-4.575	-3.9813	-4.9125	-4.3646	-3.9625	-5.0604	-4.0771	-4.3792	-4.7604	-4.0604	-4.8063	9.743	121.688	138.165	7.249	27.150	42.054	39.116	66.270	144.825	96.378	235.411	28.446	287.834	123.561	-0.274	75.450	0.00012716	0.00020516	7.4471e-05	1143.3	3.0903e-06	2.1316e-06	1227.6	237.09	1.0339e-06	1.8151e-06	299.17	82.106	65.633	19.63	1.3568e-06	27.419	3.1506e-05	2.7607e-05	7.6914e-06	1069.6	3.2083e-07	2.9783e-07	1150.8	221.64	3.1862e-07	3.0974e-07	273.23	76.688	60.087	18.166	3.1585e-07	24.897	184.015	17.078	16.884	-10.313	133.652	76.683	-9.999	-2.579	210.914	65.046	-3.377	4.018	4.112	11.086	85.062	10.854	-8191	255	
44272.711	1	1	0	0	0.12426	0.12782	0.26408	0.19188	0.022416	0.19829	0.15781	0.058593	0.17508	0.26372	0.039948	0.062203	0.14333	0.045413	0.1206	0.21554	-4.05	-4.225	-4.6479	-4.1208	-4.3646	-4.7625	-3.9062	-4.8375	-4.4583	-4.0083	-4.8646	-4.1	-4.4771	-4.7792	-3.7562	-4.6708	197.567	270.658	131.649	300.617	277.648	286.426	277.409	96.120	36.797	122.857	4.500	104.768	311.505	270.978	92.076	307.587	0.00014077	0.00027015	8.4104e-05	1143	2.4167e-06	1.454e-06	1226.3	236.92	1.5093e-06	2.1695e-06	300.37	82.775	65.083	19.738	2.347e-06	27.256	3.0889e-05	2.9258e-05	7.7031e-06	1069.6	3.2656e-07	3.0401e-07	1150.5	221.81	3.2415e-07	3.024e-07	274.04	76.831	60.111	18.17	3.1213e-07	24.858	193.571	23.612	19.035	-10.348	125.587	23.329	-10.045	-2.911	195.516	81.193	-3.037	3.616	4.390	11.327	134.740	10.415	-8191	255	
44272.805	1	1	0	0	0.19349	0.18076	0.21336	0.10487	0.13893	0.24481	0.087052	0.28115	0.078984	0.21768	0.22399	0.11781	0.18746	0.13744	0.078916	0.27756	-4.2333	-3.8146	-4.8438	-4.2625	-4.0583	-4.8396	-3.9813	-4.6188	-4.6792	-3.975	-5.0312	-4.2958	-4.0875	-4.8625	-3.8146	-4.5167	194.583	244.936	310.700	-8.597	96.402	238.836	270.089	310.263	45.366	323.563	265.583	330.524	149.117	134.794	250.717	236.336	0.00011526	0.00040687	9.9517e-05	1138.9	2.2747e-06	2.2506e-06	1226.3	237.2	2.6581e-06	1.8011e-06	299.74	82.727	65.789	19.73	2.4091e-06	27.227	3.1514e-05	2.7979e-05	7.6399e-06	1068	3.2053e-07	3.0462e-07	1150.7	221.99	3.0739e-07	3.0716e-07	273.58	77.004	60.124	18.193	3.1839e-07	24.838	181.945	62.498	17.026	-10.157	134.165	128.417	-9.788	-2.843	96.161	178.636	-3.181	3.959	4.586	10.762	144.961	11.164	-8191	255	
44272.902	1	1	0	0	0.14729	0.18518	0.17153	0.15982	0.22307	0.035318	0.25861	0.11786	0.11873	0.026769	0.1906	0.24348	0.08389	0.27167	0.054634	0.12515	-4.3354	-3.7042	-4.7271	-4.4667	-4.0333	-4.8667	-4.0604	-4.5	-4.7812	-3.8833	-4.8667	-4.5271	-4.0083	-4.9146	-3.9792	-4.4646	22.590	205.785	159.760	195.151	-4.107	245.767	298.284	237.913	122.142	279.903	-10.706	285.367	209.458	337.355	139.886	289.509	7.701e-05	0.00033618	6.1692e-05	1139.8	3.5153e-06	2.342e-06	1226	236.51	1.6462e-06	3.8915e-06	298.74	83.032	65.482	19.677	1.1089e-06	27.193	3.216e-05	2.8528e-05	7.7355e-06	1066.9	3.2681e-07	3.0444e-07	1149.8	221.91	3.1131e-07	2.9918e-07	273.58	76.705	60.063	18.19	3.128e-07	24.907	205.181	57.105	-4.689	-10.392	118.052	139.153	-9.970	-2.604	148.406	92.670	-3.119	4.085	4.228	11.355	120.282	11.143	-8191	255	
44272.996	1	1	0	0	0.086746	0.18819	0.18434	0.12287	0.23289	0.18512	0.13267	0.044785	0.1299	0.20013	0.078327	0.18248	0.23285	0.048366	0.38114	0.17559	-4.4896	-3.8812	-4.7625	-4.6687	-4.0167	-4.8958	-4.2562	-4.4292	-4.8167	-3.8063	-4.6188	-4.5958	-4.0062	-4.8125	-4.1292	-4.2354	240.569	107.437	88.088	285.722	81.075	315.547	279.330	296.561	214.922	255.963	45.451	198.385	91.914	179.591	275.651	46.026	0.00012713	8.7415e-05	0.00010695	1137.9	1.9745e-06	2.6821e-07	1225.8	237.69	3.2708e-06	1.9843e-06	298.97	82.145	65.152	19.733	1.2918e-06	27.384	3.0841e-05	2.8214e-05	7.6425e-06	1066.6	3.1243e-07	2.9143e-07	1150	221.8	3.1444e-07	3.1409e-07	273.41	76.77	60.013	18.183	3.0751e-07	24.904	182.723	337.520	24.988	-10.309	101.868	126.205	-9.798	-3.109	166.560	103.133	-2.902	4.225	4.723	10.955	105.009	10.537	-8191	255	
44273.117	1	1	0	0	0.084206	0.093871	0.098777	0.10468	0.10659	0.14935	0.25052	0.17505	0.13313	0.089497	0.088753	0.17053	0.10001	0.13758	0.29623	0.05643	-4.5813	-4.0167	-4.4708	-4.7208	-3.7438	-4.9167	-4.2375	-4.175	-4.85	-4.0792	-4.4938	-4.7312	-3.7896	-4.8875	-4.225	-4.1292	298.353	241.612	150.381	228.892	311.519	30.967	285.007	-4.046	241.926	215.455	119.637	173.294	42.778	263.393	110.605	-12.958	0.00012137	0.00026645	0.00013165	1136.5	1.6591e-06	8.1307e-07	1229	237.28	1.5973e-06	2.9746e-06	298.57	82.783	65.527	19.649	3.046e-06	27.249	3.0952e-05	2.8908e-05	7.6655e-06	1068.3	3.2856e-07	3.0005e-07	1150.4	221.76	3.1181e-07	3.1532e-07	272.9	76.807	60.098	18.199	3.1359e-07	24.846	192.180	18.581	65.666	-10.224	114.210	70.595	-9.833	-2.689	148.998	120.968	-3.323	3.848	4.530	11.219	146.255	10.628	-8191	255	
44273.215	1	1	0	0	0.19451	0.129	0.13443	0.12934	0.03665	0.11235	0.29131	0.23433	0.21691	0.091184	0.22403	0.26494	0.075412	0.1814	0.18645	0.12621	-4.5396	-3.8146	-4.4062	-4.7875	-3.8229	-4.7917	-4.4021	-4.1062	-5	-4.1521	-4.3354	-4.8021	-4.0396	-4.7562	-4.3479	-4.0229	126.985	225.322	235.884	266.384	321.353	16.899	270.571	163.768	238.617	124.933	301.624	293.153	177.811	13.406	279.763	167.649	0.00011129	0.00032124	7.4972e-05	1140.2	2.0904e-06	1.8765e-06	1223.7	235.38	3.0345e-06	3.4496e-07	299.68	82.667	65.196	19.604	2.7442e-06	27.401	3.1877e-05	2.7475e-05	7.7468e-06	1068.3	3.265e-07	3.0138e-07	1148.9	221.78	3.1522e-07	3.1216e-07	273.08	76.87	60.031	18.179	3.076e-07	24.94	190.686	-5.985	63.385	-10.201	93.711	106.407	-10.009	-2.698	117.641	195.025	-3.019	3.997	4.402	10.786	53.945	10.625	-8191	255	
44273.285	1	1	0	0	0.087707	0.068637	0.034631	0.033569	0.14333	0.095781	0.17719	0.12046	0.041714	0.18596	0.14471	0.065888	0.046108	0.17893	0.12543	0.25857	-4.5146	-3.9083	-4.2292	-5.0292	-3.7979	-4.6458	-4.6646	-4.0062	-4.7625	-4.0563	-4.25	-4.8958	-3.8312	-4.6062	-4.5104	-3.9562	237.202	33.722	55.334	280.883	197.584	238.573	-16.390	-8.683	58.782	34.987	140.856	48.570	133.053	-11.036	316.047	332.042	0.00012458	6.2633e-05	6.8363e-05	1142.5	1.3738e-06	6.5907e-07	1226.9	237.38	2.1243e-06	2.8487e-06	297.35	82.235	65.234	19.79	2.1562e-06	27.38	3.0936e-05	2.7821e-05	7.9117e-06	1069.3	3.2548e-07	3.0309e-07	1150.7	222	3.1116e-07	2.9821e-07	272.58	76.789	60.113	18.218	3.0598e-07	24.867	173.291	36.913	332.367	-10.244	99.638	131.268	-10.011	-2.834	180.134	82.291	-3.848	4.036	4.164	11.234	115.360	10.894	-8191	255	
44273.406	1	1	0	0	0.16287	0.12909	0.20341	0.12355	0.359	0.20773	0.20466	0.20131	0.10904	0.10998	0.32787	0.23316	0.28282	0.086854	0.15207	0.17708	-4.6396	-4.0833	-4.1229	-4.9333	-3.8542	-4.4021	-4.7292	-4.0813	-4.8021	-4.2354	-4.1104	-4.9875	-4.1208	-4.5687	-4.7667	-3.9604	1.608	5.498	66.895	310.226	124.298	265.685	-5.743	251.557	81.841	260.693	212.011	109.878	81.422	14.872	85.094	180.168	0.00013259	0.00010241	6.9463e-05	1141	2.1866e-06	2.9183e-06	1225.4	236.66	1.3443e-06	1.8317e-06	297.68	83.021	65.146	19.853	2.0801e-06	27.208	3.1309e-05	2.9267e-05	7.9474e-06	1068.7	3.2291e-07	2.9991e-07	1150.1	222.09	3.1608e-07	3.1084e-07	273.1	77.003	60.12	18.178	3.1604e-07	24.823	185.456	28.464	63.437	-10.237	128.267	139.310	-10.208	-2.484	164.739	85.400	-3.077	4.115	3.861	11.404	129.650	10.858	-8191	255	
44273.500	1	1	0	0	0.035217	0.041373	0.18314	0.29924	0.2377	0.21696	0.28841	0.15014	0.17887	0.097332	0.28109	0.10613	0.18055	0.092151	0.19687	0.20131	-4.4708	-4.4458	-3.95	-4.9771	-3.9313	-4.225	-4.9021	-3.9042	-4.6917	-4.3896	-4.0542	-5.0229	-4.1625	-4.3125	-4.775	-3.8125	41.710	217.147	125.348	334.973	170.988	156.034	311.091	294.343	195.489	95.360	98.032	42.296	1.377	233.063	107.777	17.627	0.00010875	0.00018566	3.7073e-05	1141.3	6.8814e-07	1.9762e-06	1221.8	234.82	2.8414e-06	1.1082e-06	300.25	82.247	64.962	19.747	2.088e-06	27.124	3.091e-05	2.8194e-05	7.7174e-06	1068.8	3.2764e-07	3.0709e-07	1150	221.35	3.1117e-07	3.0363e-07	273.73	76.839	60.13	18.2	3.0533e-07	24.779	175.061	33.317	91.102	-10.259	45.731	154.589	-9.907	-2.941	158.432	117.431	-3.038	4.442	4.684	10.594	126.021	10.540	-8191	255	
44273.598	1	1	0	0	0.033362	0.089144	0.025898	0.11539	0.20098	0.091417	0.098403	0.0041267	0.37095	0.1702	0.18596	0.09984	0.06818	0.11483	0.20318	0.12683	-4.375	-4.6	-3.9417	-4.9229	-4.1479	-4.1917	-4.9958	-3.9667	-4.5104	-4.5938	-4.0521	-4.8063	-4.1417	-4.1458	-4.8021	-4.0208	294.689	53.449	1.550	243.513	17.049	160.845	290.870	213.405	315.527	10.039	134.221	89.385	169.322	291.639	231.625	301.183	0.0001192	0.00014934	9.7276e-05	1140.3	1.6249e-06	1.212e-06	1226	237.37	2.1609e-06	1.7842e-06	298.23	83.124	65.073	19.665	9.1709e-07	27.115	3.1223e-05	2.7838e-05	7.7957e-06	1070.8	3.2585e-07	3.1303e-07	1150.6	222.03	3.1223e-07	3.047e-07	273.43	76.904	60.069	18.165	3.0716e-07	24.843	192.857	65.525	70.976	-10.244	90.574	137.507	-10.204	-2.773	159.071	74.943	-3.179	4.086	4.353	11.400	106.575	10.439	-8191	255	
44273.695	1	1	0	0	0.025628	0.11674	0.049049	0.051562	0.053442	0.059223	0.09996	0.22078	0.15249	0.14126	0.10088	0.34704	0.12068	0.17337	0.067852	0.1774	-4.2542	-4.6375	-3.8646	-4.8854	-4.3125	-4.0729	-5.0104	-4.0729	-4.3854	-4.6708	-3.9542	-4.8	-4.2958	-4.1104	-4.8	-4.0083	53.062	321.621	161.291	256.108	137.245	105.083	260.755	11.710	-7.178	226.384	245.457	271.371	26.856	25.816	293.888	191.409	0.00013102	0.00016424	3.387e-05	1137.4	1.111e-06	1.9588e-06	1229.7	237.35	1.7042e-06	2.5138e-06	298.22	83.214	65.355	19.59	2.94e-06	27.255	3.0748e-05	2.8082e-05	7.7946e-06	1068.7	3.2439e-07	3.1056e-07	1152.3	221.8	3.2301e-07	3.0906e-07	272.44	76.943	60.145	18.146	3.0447e-07	24.775	197.813	42.331	93.205	-10.208	103.991	153.199	-10.041	-2.410	115.573	85.751	-3.099	3.863	4.527	11.232	72.039	10.639	-8191	255	
44273.812	1	1	0	0	0.12848	0.25126	0.2617	0.24233	0.16901	0.18946	0.067223	0.16529	0.080042	0.30768	0.0096433	0.22123	0.31278	0.061311	0.22996	0.19619	-4.0771	-4.6479	-3.9	-4.9792	-4.3938	-4.0354	-5.0708	-4.2104	-4.1958	-4.7375	-3.9396	-4.6979	-4.4896	-3.9792	-4.8208	-4.2104	72.841	261.150	180.871	304.287	260.387	309.242	134.826	245.589	75.456	16.608	76.654	15.843	316.882	292.373	3.369	-4.276	0.00012022	0.00014836	0.000112	1135.6	1.9619e-06	2.3254e-06	1224.6	236.27	1.7304e-06	1.779e-06	298.77	82.246	65.232	19.669	1.8158e-06	27.151	3.1893e-05	2.8635e-05	8.0687e-06	1066.8	3.2986e-07	3.0745e-07	1149.7	221.58	3.191e-07	3.0427e-07	272.93	76.718	60.179	18.179	3.1627e-07	24.787	194.484	63.606	60.291	-10.491	137.026	110.095	-9.628	-2.605	192.365	127.544	-3.075	4.193	4.423	10.985	120.306	10.880	-8191	255	
44273.910	1	1	0	0	0.23525	0.21925	0.28027	0.22248	0.23407	0.095688	0.36797	0.10323	0.072927	0.24224	0.17442	0.088239	0.16172	0.093511	0.082127	0.23037	-3.8937	-4.9292	-3.9021	-4.6917	-4.4729	-3.9979	-4.9667	-4.2417	-4.0521	-4.7958	-4.0292	-4.4708	-4.6229	-3.9625	-4.6875	-4.5062	-6.964	270.948	95.636	299.853	191.077	90.379	270.726	300.718	223.231	231.697	169.572	-10.871	292.993	322.841	205.008	57.384	0.00011976	0.00015022	8.0266e-05	1141.4	2.0954e-06	9.0492e-07	1227.9	235.81	1.9479e-06	3.3708e-06	298.43	82.354	65.031	19.624	2.4567e-06	27.064	3.1648e-05	2.7658e-05	7.7886e-06	1067.9	3.2386e-07	3.1187e-07	1149.1	221.16	3.2326e-07	3.0446e-07	273.14	76.803	60.023	18.133	3.1683e-07	24.808	194.524	124.393	332.451	-10.409	162.446	104.751	-9.975	-2.704	146.559	127.771	-2.810	4.457	4.118	10.790	129.535	10.961	-8191	255	
44273.980	1	1	0	0	0.063891	0.17567	0.14086	0.24123	0.24976	0.026233	0.063327	0.23423	0.23437	0.097571	0.11279	0.051575	0.11431	0.11758	0.077744	0.15838	-3.6708	-4.8604	-3.8375	-4.5854	-4.5833	-3.9958	-4.8979	-4.4417	-4.1208	-4.8187	-4.1792	-4.3438	-4.7833	-3.7938	-4.7479	-4.575	73.078	300.305	36.525	274.843	173.441	270.910	232.528	-16.289	227.146	151.587	213.128	15.342	245.644	272.807	99.497	186.645	0.00010695	0.00031349	7.7867e-05	1137.1	5.4668e-07	1.5096e-06	1223.7	235.67	1.4529e-06	1.7181e-06	299.08	82.601	65.262	19.675	1.1549e-06	27.165	3.2223e-05	2.8022e-05	7.9666e-06	1067.6	3.2665e-07	3.1648e-07	1147.9	221.58	3.2524e-07	3.1099e-07	273.13	76.78	60.039	18.144	3.0375e-07	24.868	201.355	22.770	21.676	-10.129	66.567	82.837	-9.921	-2.888	171.868	132.098	-2.971	3.924	4.554	11.168	66.562	10.429	-8191	255	
44274.078	1	1	0	0	0.18719	0.2042	0.12976	0.32086	0.20702	0.11922	0.06514	0.06668	0.2008	0.30274	0.27406	0.11956	0.069485	0.037813	0.16224	0.24267	-3.7396	-4.8187	-4.1417	-4.4292	-4.8375	-3.9521	-4.7146	-4.5708	-3.8396	-4.8458	-4.1521	-4.3125	-4.9062	-3.975	-4.5021	-4.6	3.776	157.964	-9.692	262.319	184.218	218.874	268.145	209.096	139.895	116.748	336.101	-0.368	209.483	155.440	265.695	213.826	0.00010072	0.00026056	0.00013792	1134	2.2068e-06	1.9255e-06	1228.7	235.17	9.5473e-07	1.7837e-06	297.66	83.026	65.158	19.657	1.5856e-06	27.231	3.2195e-05	2.7539e-05	7.9456e-06	1065.2	3.2763e-07	3.0729e-07	1149.1	221.23	3.2451e-07	3.0041e-07	272.89	76.652	59.931	18.155	3.1103e-07	24.894	181.311	45.056	34.926	-10.399	108.386	96.309	-9.980	-2.669	323.373	100.492	-3.315	3.933	4.837	10.714	157.926	10.836	-8191	255	
44274.195	1	1	0	0	0.13254	0.14642	0.14573	0.07354	0.18019	0.17454	0.34967	0.14045	0.25192	0.17243	0.084989	0.13154	0.12975	0.16752	0.16113	0.11029	-3.7542	-4.8125	-4.3479	-4.1708	-4.8229	-3.8208	-4.6771	-4.7833	-3.8688	-4.8	-4.2667	-4.0417	-5.025	-3.8708	-4.4771	-4.8333	232.069	328.982	76.616	237.282	37.418	283.434	247.013	271.591	113.841	160.952	188.068	108.621	65.258	302.019	14.780	294.918	0.00010392	0.00018179	0.0001375	1141	2.3055e-07	2.1371e-06	1225.1	236.01	2.2757e-06	3.1504e-06	297.49	82.523	65.637	19.699	2.8344e-06	27.139	3.252e-05	2.808e-05	7.8898e-06	1068.2	3.2787e-07	3.1272e-07	1148.7	221.55	3.2402e-07	3.0397e-07	272.99	76.792	60.287	18.176	3.1616e-07	24.832	197.923	42.183	44.072	-10.036	41.314	116.298	-10.184	-2.557	96.020	139.089	-3.111	3.780	4.647	11.329	104.732	11.048	-8191	255	
44274.293	1	1	0	0	0.099762	0.054016	0.22486	0.31011	0.21791	0.28901	0.12109	0.17706	0.18016	0.11277	0.15932	0.158	0.16086	0.085366	0.048559	0.15905	-3.5938	-4.7063	-4.4083	-4.1271	-4.8021	-3.9938	-4.4646	-4.7854	-3.8312	-4.6792	-4.4812	-4.0729	-5.0062	-4.1312	-4.1917	-4.6687	221.034	49.169	12.042	2.277	147.718	273.663	297.955	84.242	124.183	30.048	280.016	331.194	214.356	136.208	176.444	181.437	0.00011119	0.00015656	4.0021e-05	1136.7	7.0849e-07	1.9591e-06	1227.6	235.86	2.5832e-06	4.0794e-06	298.97	82.304	65.327	19.615	1.8594e-06	27.163	3.1556e-05	2.789e-05	7.9015e-06	1066.8	3.2387e-07	3.0513e-07	1151.7	221.67	3.205e-07	3.0228e-07	273.92	76.747	60.122	18.205	3.132e-07	24.806	187.939	39.016	54.457	-10.201	54.784	85.917	-9.924	-2.300	112.108	90.115	-3.103	4.297	4.371	11.539	75.324	10.655	-8191	255	
44274.391	1	1	0	0	0.17803	0.081796	0.050266	0.13279	0.029	0.13906	0.16261	0.17563	0.14743	0.18994	0.18477	0.14141	0.43083	0.10085	0.24555	0.036824	-3.6354	-4.6458	-4.5333	-4.0813	-4.8708	-4.1188	-4.4646	-4.8792	-3.8979	-4.5583	-4.7521	-3.9458	-4.8333	-4.4646	-4.1333	-4.8958	168.318	46.518	168.265	293.124	99.773	135.896	9.765	-19.855	257.934	165.044	317.727	255.755	2.280	7.481	193.932	3.341	9.8133e-05	0.00021987	2.9225e-05	1140.9	2.9398e-06	2.3463e-06	1228.5	238.32	7.3775e-07	1.7855e-06	298.06	81.912	65.072	19.642	2.9151e-06	27.073	3.1483e-05	2.8651e-05	7.8511e-06	1068	3.2252e-07	3.0604e-07	1150.1	222.03	3.2696e-07	3.1068e-07	273.12	76.595	59.997	18.156	3.0906e-07	24.792	174.038	36.328	73.933	-10.506	122.178	110.906	-9.990	-2.738	160.714	61.622	-3.219	3.932	4.641	11.316	108.732	10.411	-8191	255	
44274.512	1	1	0	0	0.068616	0.22131	0.1135	0.1395	0.16647	0.12765	0.11773	0.16014	0.11668	0.14778	0.15585	0.082074	0.16283	0.033144	0.24134	0.13216	-3.7062	-4.4667	-4.625	-4.0708	-4.8708	-4.2542	-4.2292	-4.9521	-3.9938	-4.3604	-4.7188	-3.9813	-4.6396	-4.4354	-3.9271	-4.9396	64.885	23.528	294.194	281.866	204.315	182.614	296.910	235.234	2.139	328.498	63.274	336.919	294.315	232.869	-15.069	295.744	0.00011581	0.00017254	9.0339e-05	1139.8	6.1447e-07	1.7603e-06	1229.8	236.87	2.5157e-06	4.1033e-07	296.93	82.702	65.176	19.737	1.5531e-06	27.1	3.2361e-05	2.8436e-05	7.6048e-06	1068.9	3.2092e-07	2.9972e-07	1150.3	221.63	3.2458e-07	2.9354e-07	273.11	76.676	60.014	18.138	3.1056e-07	24.826	204.501	16.018	22.994	-10.271	206.141	157.891	-10.274	-2.757	121.436	11.163	-3.192	3.749	4.554	10.796	80.782	10.676	-8191	255	
44274.582	1	1	0	0	0.26903	0.15419	0.11669	0.073498	0.043492	0.093115	0.27735	0.12364	0.035625	0.24818	0.14484	0.072497	0.14365	0.075623	0.15079	0.059743	-3.7396	-4.3958	-4.6979	-3.8854	-4.6083	-4.4417	-4.125	-4.725	-4.0479	-4.2208	-4.8125	-4.0396	-4.5333	-4.4583	-3.8729	-4.9333	70.764	138.109	162.687	332.758	285.269	301.149	297.228	29.435	227.612	171.013	336.611	112.610	258.131	208.237	227.396	15.227	0.00011414	0.0001961	0.00012012	1137.8	1.2403e-06	6.1366e-07	1230	237.31	2.8811e-06	3.8987e-06	299.08	82.681	65.503	19.635	1.5345e-06	26.896	3.1463e-05	2.7922e-05	7.7743e-06	1068.5	3.1927e-07	3.0935e-07	1151.9	222.12	3.2361e-07	2.9827e-07	273.44	76.939	60.159	18.174	3.2377e-07	24.774	178.353	51.930	52.288	-10.298	64.536	121.651	-10.000	-2.735	139.862	45.636	-3.022	4.022	4.599	11.123	101.175	10.473	-8191	255	
44274.680	1	1	0	0	0.24381	0.07537	0.1551	0.27154	0.25269	0.098502	0.17765	0.15917	0.11398	0.11184	0.21032	0.03324	0.15873	0.027333	0.038019	0.11749	-3.8396	-4.1354	-4.7042	-4.1687	-4.5792	-4.675	-4.0437	-4.8375	-4.225	-4.2688	-4.9354	-3.9396	-4.5229	-4.5896	-3.7542	-4.8896	193.090	282.289	48.924	323.179	218.813	157.814	257.675	324.984	-1.518	315.189	272.603	213.519	291.023	75.630	96.049	204.329	0.00010711	0.00012676	9.7468e-05	1140.1	2.9475e-06	1.0812e-06	1223.9	235.13	2.7264e-06	3.5121e-06	298.49	82.269	65.605	19.695	1.0486e-06	27.342	3.1701e-05	2.8485e-05	7.6681e-06	1070.6	3.2625e-07	3.0767e-07	1151.3	221.36	3.2635e-07	3.1529e-07	273.53	76.639	60.281	18.189	3.2139e-07	24.87	198.855	32.744	65.915	-10.240	137.205	141.635	-10.085	-2.533	108.455	112.394	-3.096	4.001	4.259	10.777	9.938	10.712	-8191	255	
44274.801	1	1	0	0	0.16066	0.12553	0.18753	0.16262	0.16827	0.1744	0.19808	0.26812	0.12985	0.14034	0.23808	0.091127	0.14909	0.12102	0.19068	0.26936	-3.8917	-4.0687	-4.8333	-4.0833	-4.35	-4.7396	-4.2021	-4.7792	-4.2542	-4.1333	-4.9125	-4.125	-4.3313	-4.7292	-3.8229	-4.675	124.929	115.682	-6.800	241.929	146.850	173.796	264.684	278.883	69.150	280.553	241.215	303.984	245.629	263.283	336.946	179.007	0.00012984	0.00020047	0.00011735	1146.6	2.6524e-06	9.2397e-07	1232.5	237.28	1.3143e-06	1.1696e-06	299.23	82.891	65.672	19.751	8.3302e-07	27.404	3.2236e-05	2.881e-05	7.7381e-06	1073.1	3.3248e-07	3.0732e-07	1156.5	222.4	3.2061e-07	3.2329e-07	273.63	77.146	60.505	18.248	3.1154e-07	24.966	193.370	60.676	60.598	-10.218	118.855	133.060	-9.994	-2.791	239.311	54.022	-3.087	4.048	4.488	10.960	204.138	10.376	-8191	255	
44274.895	1	1	0	0	0.05505	0.14422	0.26484	0.25463	0.014695	0.18155	0.11161	0.28056	0.19617	0.17941	0.090073	0.1443	0.29809	0.071876	0.10762	0.34384	-4.1729	-4.0271	-4.6792	-4.1708	-4.1042	-4.8271	-4.1438	-4.5979	-4.5687	-4.075	-4.8417	-4.3625	-4.2792	-4.8187	-3.7542	-4.5188	292.417	90.616	66.337	18.238	166.120	-10.360	39.969	308.978	96.593	240.818	-0.862	142.806	283.469	272.937	216.091	263.044	0.00012678	0.00022369	7.0857e-05	1146.9	3.4187e-06	3.6645e-07	1233.2	238.11	2.9067e-06	2.0142e-06	299.34	82.645	65.137	19.614	2.079e-06	27.296	3.1427e-05	2.9182e-05	7.6786e-06	1075.5	3.3853e-07	3.1157e-07	1156.7	222.62	3.3243e-07	3.2068e-07	273.87	76.968	60.268	18.233	3.2734e-07	25.003	201.709	20.476	27.175	-10.288	93.773	122.229	-10.134	-2.676	138.264	109.042	-3.110	4.097	4.786	11.305	140.999	10.632	-8191	255	
44274.992	1	1	0	0	0.12534	0.08821	0.10528	0.17289	0.12869	0.11806	0.25347	0.26483	0.15179	0.22528	0.12297	0.14789	0.092794	0.25325	0.12932	0.15939	-4.2667	-4.0083	-4.8604	-4.3354	-4.0083	-4.9187	-4.1979	-4.5708	-4.8104	-4.0958	-4.8979	-4.3667	-4.125	-4.9229	-3.9542	-4.4938	137.099	285.095	166.130	10.712	230.944	71.879	271.332	277.519	179.571	316.826	-14.729	287.647	326.780	278.928	203.616	148.971	0.00010955	0.00017945	8.7587e-05	1153.1	2.6284e-06	1.2764e-06	1233.6	237.21	2.3607e-06	1.2085e-06	302.08	82.343	65.336	19.908	1.529e-06	27.392	3.1794e-05	2.8842e-05	7.9489e-06	1077.2	3.33e-07	3.0785e-07	1157.3	222.42	3.1485e-07	3.273e-07	274.64	77.112	60.211	18.271	3.2549e-07	24.984	191.691	7.809	1.372	-10.212	149.504	136.285	-10.056	-2.651	140.941	19.197	-3.293	4.312	4.176	11.160	149.353	10.703	-8191	255	
44275.109	1	1	0	0	0.10596	0.11083	0.23881	0.15775	0.12254	0.080127	0.13237	0.16111	0.10593	0.21332	0.058665	0.20559	0.080762	0.16887	0.071991	0.2477	-4.4187	-3.9229	-4.8521	-4.5521	-4.0979	-4.8979	-4.2271	-4.4542	-4.7521	-3.7542	-4.7812	-4.5208	-3.8563	-4.9062	-4.2479	-4.3604	41.024	138.742	159.680	79.473	-14.552	33.043	39.588	199.442	236.342	91.056	79.499	274.679	325.193	312.228	231.698	331.163	0.0001068	0.00012109	4.2772e-05	1151.8	5.277e-07	2.7384e-06	1238.2	237.26	1.4421e-06	1.3972e-06	300.58	83.024	65.318	19.749	1.6675e-06	27.55	3.1443e-05	2.9014e-05	8.1138e-06	1076.2	3.3395e-07	3.1605e-07	1158.7	222.66	3.2481e-07	3.2179e-07	274.58	77.177	60.322	18.24	3.1774e-07	25.015	194.432	63.264	2.959	-10.341	-8.729	117.254	-10.133	-2.687	100.269	96.274	-3.081	4.091	4.212	11.347	92.595	10.922	-8191	255	
44275.184	1	1	0	0	0.10386	0.21947	0.1175	0.41895	0.2873	0.20519	0.23045	0.21435	0.129	0.2093	0.082146	0.097253	0.13593	0.24635	0.0075137	0.14897	-4.4521	-4.0021	-4.6896	-4.5271	-3.9833	-4.8562	-4.275	-4.5125	-4.7979	-3.9854	-4.8021	-4.6312	-3.9625	-4.7958	-4.1104	-4.1042	259.351	9.104	164.046	310.552	309.804	-19.379	81.204	9.140	18.648	190.275	206.914	215.424	36.020	268.858	108.134	95.599	0.00013726	0.00021191	8.0231e-05	1148	2.7601e-06	6.6022e-07	1235.9	238.17	1.4457e-06	3.7744e-06	298.64	82.799	65.412	19.762	2.0184e-06	27.261	3.1649e-05	2.8889e-05	8.0589e-06	1075.4	3.321e-07	3.1061e-07	1156.5	222.88	3.2418e-07	3.1869e-07	274.01	77.141	60.279	18.249	3.1884e-07	24.992	182.100	45.394	32.374	-10.126	146.289	47.216	-10.055	-2.744	173.819	85.840	-3.002	3.667	4.068	11.130	96.181	11.105	-8191	255	
44275.277	1	1	0	0	0.13232	0.20006	0.11603	0.20729	0.22274	0.10008	0.15756	0.16845	0.11514	0.07007	0.17845	0.077875	0.055558	0.24733	0.059316	0.095435	-4.3833	-3.8854	-4.4667	-4.7167	-3.8417	-4.8438	-4.3375	-4.1333	-4.7833	-4.0667	-4.4396	-4.7271	-4.0229	-4.6625	-4.1917	-4.0229	238.335	94.397	67.621	301.346	7.491	89.541	261.057	285.427	11.039	246.133	224.431	234.558	0.233	194.457	321.584	6.993	9.6928e-05	0.00025757	0.00013002	1145	9.5898e-07	2.5941e-06	1239.3	238.52	1.6075e-06	1.9902e-06	299.74	82.528	65.561	19.86	3.0587e-06	27.19	3.1803e-05	2.929e-05	7.8699e-06	1074	3.3835e-07	3.2031e-07	1158.7	222.74	3.215e-07	3.2118e-07	274	77.017	60.299	18.293	3.1952e-07	24.978	189.176	37.248	17.577	-10.136	139.106	96.664	-10.008	-2.719	215.535	121.388	-3.354	4.189	4.336	11.106	90.002	10.574	-8191	255	
44275.375	1	1	0	0	0.13402	0.070287	0.10152	0.10668	0.22359	0.3031	0.25234	0.21068	0.10086	0.043081	0.049901	0.19486	0.18135	0.22115	0.2386	0.19043	-4.6646	-3.8646	-4.35	-4.8562	-3.9292	-4.5437	-4.7708	-3.8958	-4.775	-4.0729	-4.325	-4.7375	-3.9146	-4.6312	-4.5062	-3.9562	-9.687	54.284	136.479	210.318	-9.198	295.619	259.266	296.704	91.369	70.501	86.291	42.331	283.421	42.092	252.102	11.843	9.25e-05	0.00018495	9.243e-05	1148.5	2.1847e-06	6.9145e-07	1238.8	236.56	2.4057e-06	1.3103e-06	300.07	83.045	65.435	19.888	3.7436e-06	27.513	3.2777e-05	2.9661e-05	8.0088e-06	1076.2	3.4052e-07	3.1102e-07	1157.7	222.29	3.2417e-07	3.221e-07	274.55	77.015	60.245	18.276	3.2937e-07	24.954	183.565	83.000	-9.525	-10.551	75.387	73.642	-10.171	-2.939	100.882	73.110	-3.087	4.282	4.440	10.905	94.167	10.150	-8191	255	
44275.492	1	1	0	0	0.28381	0.082655	0.05808	0.22549	0.26428	0.20466	0.19484	0.10495	0.21943	0.092576	0.07296	0.15828	0.26261	0.12346	0.19107	0.21993	-4.6229	-4.1104	-4.1896	-4.9104	-3.9771	-4.4917	-4.6917	-3.9708	-4.8646	-4.1562	-4.3063	-4.8438	-3.8708	-4.6167	-4.4958	-3.9104	15.179	36.798	210.570	239.262	209.424	237.357	255.132	12.071	113.816	53.334	254.294	217.921	248.313	219.375	99.049	155.818	9.7182e-05	0.00015253	0.00010815	1149.7	2.7344e-06	1.9597e-06	1232.1	236.06	1.9495e-06	2.6544e-06	300.42	83.423	65.034	19.757	1.229e-06	27.304	3.1985e-05	2.9327e-05	8.1391e-06	1076.1	3.3718e-07	3.1959e-07	1156.4	222.19	3.2349e-07	3.17e-07	273.72	77.165	60.168	18.232	3.2316e-07	24.998	179.981	71.949	44.152	-10.145	141.575	98.114	-10.091	-2.780	130.914	73.934	-3.079	4.479	4.596	10.578	75.692	10.649	-8191	255	
44275.590	1	1	0	0	0.10514	0.16886	0.25247	0.18266	0.21735	0.18314	0.22344	0.31396	0.19185	0.046665	0.17459	0.2244	0.031197	0.056241	0.11504	0.16434	-4.4646	-4.2542	-4.0083	-4.9667	-3.9688	-4.4146	-4.8479	-3.9354	-4.7521	-4.2729	-4.0854	-4.9292	-4.1979	-4.3125	-4.7042	-3.9188	97.911	58.955	271.390	53.495	227.421	130.306	282.694	222.171	69.006	70.657	-19.600	282.717	190.127	273.232	23.479	60.107	7.2253e-05	0.00020383	5.8896e-05	1142.7	1.1761e-06	1.2321e-06	1238.6	236.29	1.6291e-06	2.93e-06	300.56	82.676	65.728	19.799	1.8793e-06	27.339	3.1831e-05	2.8689e-05	8.1018e-06	1073.4	3.4371e-07	3.1687e-07	1158.2	222.3	3.2663e-07	3.2025e-07	273.79	77.156	60.325	18.227	3.1842e-07	24.984	207.347	73.568	58.435	-10.325	113.086	155.853	-9.911	-2.608	198.723	76.710	-3.154	3.909	4.305	10.871	109.945	10.510	-8191	255	
44275.688	1	1	0	0	0.075875	0.02341	0.17998	0.25221	0.1986	0.26752	0.24668	0.12561	0.085979	0.12278	0.21437	0.19623	0.091347	0.2425	0.18394	0.085999	-4.4375	-4.2396	-3.9688	-4.9604	-4.1375	-4.3083	-4.7562	-3.95	-4.65	-4.4354	-3.9229	-4.7875	-4.1708	-4.0542	-4.7896	-4.0354	180.371	111.119	295.274	292.912	53.501	38.668	320.610	266.825	37.247	32.509	4.311	-5.326	89.286	166.046	209.473	60.668	0.00012933	0.0001394	6.9379e-05	1147.5	3.2549e-06	1.3929e-06	1236.2	237.51	1.8223e-06	1.4174e-06	298.42	82.202	65.898	19.737	2.8444e-06	27.397	3.2953e-05	2.9274e-05	8.3548e-06	1075.5	3.4169e-07	3.23e-07	1156.2	222.3	3.2993e-07	3.29e-07	273.89	76.904	60.494	18.224	3.248e-07	25.013	197.015	40.328	48.143	-10.428	101.607	90.556	-10.104	-2.634	122.742	68.032	-2.813	4.480	4.343	11.024	92.929	11.010	-8191	255	
44275.781	1	1	0	0	0.15512	0.20289	0.29008	0.32522	0.088156	0.16945	0.30278	0.12366	0.12241	0.082273	0.05458	0.15268	0.12512	0.26314	0.12072	0.20258	-4.2688	-4.5729	-4.0396	-4.9833	-4.1833	-4.1167	-5.0875	-4.0479	-4.5167	-4.5729	-3.9979	-4.7833	-4.1729	-4.0563	-4.9125	-3.9833	13.964	158.307	-16.527	-14.478	83.767	308.384	312.508	83.971	102.250	182.065	273.017	13.006	30.500	-17.944	273.489	88.960	0.00011032	0.00014354	0.00010361	1143.5	3.3353e-06	3.3805e-06	1233.4	236.74	2.9414e-06	2.0391e-06	300.73	82.957	65.67	19.662	1.2621e-06	27.358	3.2935e-05	2.8927e-05	8.1963e-06	1074	3.4482e-07	3.2493e-07	1156.1	221.95	3.2869e-07	3.2307e-07	273.76	77.02	60.29	18.193	3.2329e-07	24.952	183.052	73.426	56.926	-10.253	81.507	136.942	-10.109	-2.595	134.910	84.606	-3.481	4.190	4.233	10.944	74.552	10.986	-8191	255	
44275.879	1	1	0	0	0.13908	0.11451	0.0475	0.037604	0.14083	0.16136	0.26285	0.13834	0.16961	0.23324	0.15891	0.19283	0.065301	0.13174	0.070364	0.069846	-4.275	-4.7604	-3.8583	-4.9563	-4.3812	-4.1396	-4.9604	-4.1854	-4.3125	-4.8	-3.8812	-4.5458	-4.4187	-4.0813	-4.8229	-3.9146	78.894	233.739	8.300	3.359	84.996	2.696	305.244	302.762	296.237	147.262	57.783	227.452	72.914	119.445	-13.377	336.971	0.0001198	2.1644e-05	5.1955e-05	1145.2	1.414e-06	2.3053e-06	1228.9	237.23	3.276e-06	2.832e-06	300	82.514	65.601	19.716	3.5938e-06	27.281	3.3482e-05	2.9701e-05	8.4015e-06	1073.8	3.4957e-07	3.2134e-07	1155.7	222.47	3.4478e-07	3.2876e-07	274.33	76.893	60.354	18.189	3.2373e-07	24.943	185.797	9.263	50.400	-10.404	159.806	70.542	-9.689	-2.603	120.667	73.629	-3.125	4.032	4.297	10.502	76.825	10.650	-8191	255	
44275.977	1	1	0	0	0.041353	0.21533	0.17142	0.15996	0.16988	0.30862	0.11224	0.42438	0.22109	0.123	0.064976	0.20221	0.10032	0.26315	0.13781	0.038762	-3.9708	-4.8021	-4.0604	-4.9062	-4.6021	-4.0083	-4.9563	-4.2167	-3.9646	-4.7833	-3.975	-4.6979	-4.5875	-3.9354	-4.75	-4.2167	245.335	44.625	162.678	-3.066	240.289	11.293	335.382	21.971	168.156	57.898	52.178	210.883	168.549	333.602	-6.184	92.555	0.00012921	0.00026284	7.3038e-05	1145.7	5.1257e-06	1.1176e-06	1229	237.16	1.7997e-06	1.1518e-06	300.19	82.564	65.234	19.599	1.4842e-06	27.163	3.305e-05	2.9385e-05	8.2652e-06	1074.2	3.4121e-07	3.3505e-07	1155.1	222.37	3.38e-07	3.3146e-07	273.59	77.062	60.126	18.182	3.3151e-07	24.896	187.093	31.691	44.145	-10.377	129.518	131.227	-9.994	-2.561	143.282	96.837	-3.046	3.831	4.471	10.723	107.447	10.545	-8191	255	
44276.070	1	1	0	0	0.1131	0.13796	0.095239	0.10531	0.21664	0.12726	0.17836	0.13713	0.0874	0.13794	0.10117	0.10352	0.21985	0.12077	0.071931	0.031327	-3.8542	-5.0042	-3.875	-4.5458	-4.525	-3.9604	-4.9417	-4.1292	-4.0333	-4.9333	-4.025	-4.2833	-4.8187	-3.7938	-4.5271	-4.4146	97.645	148.576	-0.018	-16.690	122.056	112.418	245.759	282.959	319.555	16.458	330.566	-13.375	7.879	230.792	-16.535	167.613	9.9893e-05	0.00023425	5.4939e-05	1147.3	2.6258e-06	2.5413e-06	1233.2	236.49	2.0524e-06	3.7427e-07	299.06	82.952	65.139	19.873	2.689e-06	27.14	3.4783e-05	2.9701e-05	8.5118e-06	1073.1	3.446e-07	3.3018e-07	1155.6	222.13	3.367e-07	3.2525e-07	273.76	76.983	60.309	18.237	3.3468e-07	24.883	197.933	-15.735	13.669	-10.383	157.275	130.977	-9.848	-2.519	111.587	206.718	-3.000	4.041	4.754	11.126	94.725	10.555	-8191	255	
#DATA ENDS
