BOXY.EXE: ISS Imagent and Oximeter Data Acquisition Program Version 0.80
Ascii Record File

#ACQ INFORMATION
2  Detector Channels 
16  External MUX Channels 
1  Auxiliary Channels 
5000  Waveform (CCF) Frequency (Hz)
1  Waveforms Skipped 
30  Waveforms Averaged 
1  Cycles Averaged 
16  Acquisitions per Waveform 
10.0806  Updata Rate (Hz) 

#FILE INFORMATION
TRUE -- External MUX Channel results are PARSED.
FALSE -- AC DC and Phase are NOT grouped.
TRUE -- Companion Program Settings File CREATED.
FALSE -- AC data not excluded
FALSE -- DC data not excluded
FALSE -- Phase data not excluded
FALSE -- Auxillary Chn. data not excluded
Tab delimiters

#CALIBRATION STATE
TRUE -- Waveform Calibration Values APPLIED.


#AUX CALIBRATION VALUES
Val Type	aux-1	

Term	1.0000e+00	
Factor	0.0000e+00	


#WF CALIBRATION VALUES
A = Detector Channel
Val Type	A-AC1	A-AC2	A-AC3	A-AC4	A-AC5	A-AC6	A-AC7	A-AC8	A-AC9	A-AC10	A-AC11	A-AC12	A-AC13	A-AC14	A-AC15	A-AC16	A-DC1	A-DC2	A-DC3	A-DC4	A-DC5	A-DC6	A-DC7	A-DC8	A-DC9	A-DC10	A-DC11	A-DC12	A-DC13	A-DC14	A-DC15	A-DC16	A-Ph1	A-Ph2	A-Ph3	A-Ph4	A-Ph5	A-Ph6	A-Ph7	A-Ph8	A-Ph9	A-Ph10	A-Ph11	A-Ph12	A-Ph13	A-Ph14	A-Ph15	A-Ph16	

Term	0.00000e+00	0.00000e+00	0.00000e+00	0.00000e+00	0.00000e+00	0.00000e+00	0.00000e+00	0.00000e+00	0.00000e+00	0.00000e+00	0.00000e+00	0.00000e+00	0.00000e+00	0.00000e+00	0.00000e+00	0.00000e+00	0.00000e+00	0.00000e+00	0.00000e+00	0.00000e+00	0.00000e+00	0.00000e+00	0.00000e+00	0.00000e+00	0.00000e+00	0.00000e+00	0.00000e+00	0.00000e+00	0.00000e+00	0.00000e+00	0.00000e+00	0.00000e+00	0.00000e+00	0.00000e+00	0.00000e+00	0.00000e+00	0.00000e+00	0.00000e+00	0.00000e+00	0.00000e+00	0.00000e+00	0.00000e+00	0.00000e+00	0.00000e+00	0.00000e+00	0.00000e+00	0.00000e+00	0.00000e+00	
Factor	1.00000e+00	1.00000e+00	1.00000e+00	1.00000e+00	1.00000e+00	1.00000e+00	1.00000e+00	1.00000e+00	1.00000e+00	1.00000e+00	1.00000e+00	1.00000e+00	1.00000e+00	1.00000e+00	1.00000e+00	1.00000e+00	1.00000e+00	1.00000e+00	1.00000e+00	1.00000e+00	1.00000e+00	1.00000e+00	1.00000e+00	1.00000e+00	1.00000e+00	1.00000e+00	1.00000e+00	1.00000e+00	1.00000e+00	1.00000e+00	1.00000e+00	1.00000e+00	X	X	X	X	X	X	X	X	X	X	X	X	X	X	X	X	

B = Detector Channel
Val Type	B-AC1	B-AC2	B-AC3	B-AC4	B-AC5	B-AC6	B-AC7	B-AC8	B-AC9	B-AC10	B-AC11	B-AC12	B-AC13	B-AC14	B-AC15	B-AC16	B-DC1	B-DC2	B-DC3	B-DC4	B-DC5	B-DC6	B-DC7	B-DC8	B-DC9	B-DC10	B-DC11	B-DC12	B-DC13	B-DC14	B-DC15	B-DC16	B-Ph1	B-Ph2	B-Ph3	B-Ph4	B-Ph5	B-Ph6	B-Ph7	B-Ph8	B-Ph9	B-Ph10	B-Ph11	B-Ph12	B-Ph13	B-Ph14	B-Ph15	B-Ph16	

Term	0.00000e+00	0.00000e+00	0.00000e+00	0.00000e+00	0.00000e+00	0.00000e+00	0.00000e+00	0.00000e+00	0.00000e+00	0.00000e+00	0.00000e+00	0.00000e+00	0.00000e+00	0.00000e+00	0.00000e+00	0.00000e+00	0.00000e+00	0.00000e+00	0.00000e+00	0.00000e+00	0.00000e+00	0.00000e+00	0.00000e+00	0.00000e+00	0.00000e+00	0.00000e+00	0.00000e+00	0.00000e+00	0.00000e+00	0.00000e+00	0.00000e+00	0.00000e+00	-8.19876e+01	-1.12488e+02	-1.32334e+02	-1.83765e+02	-5.47796e+01	-7.96704e+01	-1.58050e+02	-1.62015e+02	-4.66416e+01	-8.78703e+01	-1.70682e+02	-1.70765e+02	-1.77608e+02	-1.76832e+02	-7.22374e+01	-1.49734e+02	
Factor	1.97146e-05	1.23164e-04	3.32636e-05	1.69880e-01	1.09298e-06	1.11543e-06	1.82340e-01	6.04400e-02	9.77201e-07	1.31635e-06	1.00421e-01	3.42866e-02	2.87001e-02	1.09200e-02	1.35373e-06	1.56389e-02	8.88536e-07	9.06807e-07	2.53891e-07	8.32282e-02	9.95797e-09	9.96105e-09	8.40902e-02	2.94902e-02	9.96807e-09	9.92728e-09	4.65780e-02	1.59708e-02	1.39218e-02	5.21665e-03	9.98655e-09	7.18501e-03	X	X	X	X	X	X	X	X	X	X	X	X	X	X	X	X	



#DISTANCE SETTINGS
A = Detector Channel
A-1	A-2	A-3	A-4	A-5	A-6	A-7	A-8	A-9	A-10	A-11	A-12	A-13	A-14	A-15	A-16	

2.5000e+00	3.0000e+00	2.5000e+00	3.0000e+00	2.0000e+00	3.0000e+00	1.5000e+00	3.0000e+00	3.0000e+00	3.0000e+00	3.0000e+00	3.0000e+00	3.0000e+00	3.0000e+00	1.5000e+00	3.0000e+00	

B = Detector Channel
B-1	B-2	B-3	B-4	B-5	B-6	B-7	B-8	B-9	B-10	B-11	B-12	B-13	B-14	B-15	B-16	

1.0000e+01	1.0000e+01	1.0000e+01	1.4400e+00	1.0000e+01	1.0000e+01	1.5100e+00	1.9400e+00	1.0000e+01	1.0000e+01	1.9900e+00	2.4900e+00	2.4100e+00	2.9000e+00	1.0000e+01	2.9800e+00	




#DATA BEGINS
time	group	step	mark	flag	A-AC1	A-AC2	A-AC3	A-AC4	A-AC5	A-AC6	A-AC7	A-AC8	A-AC9	A-AC10	A-AC11	A-AC12	A-AC13	A-AC14	A-AC15	A-AC16	A-DC1	A-DC2	A-DC3	A-DC4	A-DC5	A-DC6	A-DC7	A-DC8	A-DC9	A-DC10	A-DC11	A-DC12	A-DC13	A-DC14	A-DC15	A-DC16	A-Ph1	A-Ph2	A-Ph3	A-Ph4	A-Ph5	A-Ph6	A-Ph7	A-Ph8	A-Ph9	A-Ph10	A-Ph11	A-Ph12	A-Ph13	A-Ph14	A-Ph15	A-Ph16	B-AC1	B-AC2	B-AC3	B-AC4	B-AC5	B-AC6	B-AC7	B-AC8	B-AC9	B-AC10	B-AC11	B-AC12	B-AC13	B-AC14	B-AC15	B-AC16	B-DC1	B-DC2	B-DC3	B-DC4	B-DC5	B-DC6	B-DC7	B-DC8	B-DC9	B-DC10	B-DC11	B-DC12	B-DC13	B-DC14	B-DC15	B-DC16	B-Ph1	B-Ph2	B-Ph3	B-Ph4	B-Ph5	B-Ph6	B-Ph7	B-Ph8	B-Ph9	B-Ph10	B-Ph11	B-Ph12	B-Ph13	B-Ph14	B-Ph15	B-Ph16	aux-1	digaux	

7823.213	1	1	0	768	0.18427	0.20865	0.15738	0.24307	0.29295	0.17605	0.28374	0.085658	0.10219	0.30423	0.12967	0.21908	0.20657	0.10718	0.077085	0.23574	-1.9	-2.7875	-2.2271	-2.5417	-2.7375	-2.2167	-2.6958	-2.4729	-2.2604	-2.7438	-2.1208	-2.3708	-2.5854	-2.2542	-2.5896	-2.6813	74.141	305.669	22.219	16.527	255.862	210.677	-10.095	299.957	164.359	204.175	312.541	28.573	255.747	293.474	-21.816	276.388	4.4797e-05	0.0026161	0.00054146	483.4	1.8887e-05	3.1171e-05	543.27	193.59	5.5097e-06	3.6905e-05	250.31	102.78	82.13	38.74	2.7867e-05	48.697	0.0036232	0.0040809	0.0012366	834.35	4.1498e-05	4.4577e-05	926.03	319.9	3.9999e-05	4.586e-05	461.06	167.4	136.23	61.321	4.6749e-05	77.281	322.341	154.295	-1.516	-13.920	103.723	228.730	-15.478	-7.953	-4.907	167.199	-10.229	-5.525	-2.276	2.369	90.989	-1.610	-8191	255	
7823.309	1	1	0	0	0.18403	0.26937	0.25833	0.11565	0.21066	0.21743	0.035388	0.1194	0.14992	0.27408	0.28206	0.13819	0.16869	0.22841	0.055519	0.12986	-1.45	-2.8771	-2.3479	-2.3333	-2.8771	-2.0854	-2.5958	-2.7812	-2.1104	-2.9125	-2.4938	-2.1792	-2.8896	-1.9875	-2.5417	-2.525	88.354	58.523	90.125	167.754	7.429	89.097	-2.064	239.598	26.912	117.025	94.146	113.347	311.310	316.235	264.975	293.903	0.0005701	0.0025798	0.00046115	483.53	6.4129e-06	2.0846e-05	542.48	193.07	1.8538e-05	2.7998e-05	249.48	102.36	81.108	38.757	5.2935e-05	48.769	0.0035675	0.0042798	0.001195	819.67	4.1316e-05	4.692e-05	906.65	313.99	4.0265e-05	4.7226e-05	450.28	164.32	136.28	61.972	4.4352e-05	75.973	200.002	176.504	8.799	-14.175	-17.387	193.189	-14.426	-7.919	249.268	141.153	-10.907	-5.243	-1.922	2.513	41.680	-1.662	-8191	255	
7823.405	1	1	0	0	0.21547	0.17441	0.078851	0.42707	0.047122	0.24619	0.16966	0.24478	0.053067	0.02181	0.15547	0.16508	0.053936	0.2436	0.041019	0.14998	-1.6729	-2.8167	-2.4146	-2.4562	-2.9333	-2.3333	-2.5708	-2.6708	-2.2042	-2.7229	-2.6813	-2.3583	-2.8063	-2.3458	-2.4562	-2.8292	3.659	141.010	217.484	-21.194	45.627	244.627	226.003	219.399	41.278	262.479	232.252	253.878	277.131	-5.450	144.318	331.912	0.00048553	0.0013947	0.00041901	481.45	1.0198e-05	7.7343e-06	538.01	191.9	1.8739e-05	1.1447e-05	250.67	103.53	81.789	38.861	1.3595e-05	48.703	0.0037002	0.0043657	0.0011489	805.94	4.3027e-05	4.8058e-05	892.54	309.67	4.2553e-05	4.7279e-05	444.51	162.57	140.31	62.28	4.3254e-05	75.797	184.557	243.743	291.561	-14.297	306.057	183.529	-14.852	-7.826	217.796	-5.338	-10.047	-5.180	-1.956	2.385	308.613	-2.136	-8191	255	
7823.502	1	1	0	0	0.059035	0.27238	0.15221	0.16773	0.089215	0.10302	0.24181	0.22252	0.19949	0.056563	0.33325	0.14092	0.06208	0.32717	0.044397	0.21372	-1.7542	-2.7562	-2.3833	-2.1417	-2.6646	-2.3833	-2.3417	-2.7938	-2.1833	-2.6854	-2.7458	-2.1688	-2.8958	-2.3896	-2.275	-2.9521	66.491	60.326	1.996	261.665	173.689	224.468	160.276	301.489	-20.308	232.955	6.283	-12.905	218.014	121.524	121.526	234.645	0.0007565	0.0017505	0.0005196	480.76	1.0308e-05	1.037e-05	546.12	193.4	2.0113e-05	9.0566e-06	250.23	102.83	81.791	38.682	2.4618e-05	48.894	0.0039606	0.0043023	0.0011248	801.29	4.5783e-05	4.7552e-05	889.22	309.14	4.5981e-05	4.6464e-05	442.97	162.99	144.57	61.773	4.2393e-05	75.841	184.090	16.319	25.887	-14.148	255.657	327.857	-14.462	-7.611	219.763	29.652	-10.095	-4.695	-1.910	2.340	76.246	-1.367	-8191	255	
7823.598	1	1	0	0	0.088219	0.063827	0.16967	0.16208	0.21253	0.20017	0.1111	0.27338	0.15194	0.17633	0.11412	0.17841	0.23138	0.27764	0.10715	0.11047	-1.7604	-2.5208	-2.6083	-2.1021	-2.8417	-2.4	-2.2854	-2.8542	-2.2208	-2.6312	-2.7146	-2.1625	-2.7313	-2.3396	-2.2229	-2.9146	59.651	330.618	-17.239	280.872	80.985	309.060	151.194	249.051	256.010	201.242	260.109	307.243	30.337	273.032	-0.799	224.412	0.00039429	0.001121	0.00044894	474.53	1.0035e-05	6.6866e-06	537.36	189.52	1.6957e-05	3.1438e-05	249.4	101.77	80.681	38.11	3.1009e-06	47.602	0.0042403	0.004141	0.0011003	806.28	4.7691e-05	4.5968e-05	871.63	310.01	4.7784e-05	4.452e-05	432.39	164.06	144.92	60.407	4.068e-05	76.398	214.531	319.304	304.678	-13.658	130.714	57.720	-14.632	-7.364	262.995	101.794	-9.682	-4.853	-1.713	2.586	20.047	-1.366	-8191	255	
7823.694	1	1	0	0	0.13747	0.1011	0.11295	0.31097	0.10304	0.19767	0.17671	0.30802	0.12925	0.23658	0.12809	0.13294	0.099132	0.11789	0.29576	0.10217	-1.7792	-2.4896	-2.8146	-2.2812	-2.7708	-2.5083	-2.0604	-2.8333	-2.2854	-2.475	-2.7729	-2.2812	-2.7458	-2.4125	-2.1833	-2.6667	-6.320	193.318	19.189	287.587	130.635	231.141	183.818	140.845	319.268	216.300	296.038	77.997	153.359	225.747	290.865	199.596	0.00045881	0.00055284	0.00069743	475.11	8.3439e-06	1.0758e-05	539.44	189.92	2.2279e-05	1.7379e-05	248.93	101.65	81.777	38.451	7.7593e-06	48.538	0.0043068	0.0039916	0.0010625	827.57	4.7853e-05	4.4782e-05	862.51	318.3	4.8232e-05	4.3258e-05	429.96	170.13	144.69	60.281	4.002e-05	79.009	144.098	126.112	-16.268	-13.112	47.305	290.827	-14.903	-7.369	96.807	301.853	-10.326	-4.699	-2.171	2.564	192.823	-1.154	-8191	255	
7823.815	1	1	0	0	0.093673	0.15877	0.089671	0.091287	0.0066732	0.15126	0.20628	0.27975	0.19706	0.21927	0.072517	0.27572	0.17782	0.20178	0.088677	0.40539	-2.1146	-2.3688	-2.7333	-2.375	-2.7062	-2.5083	-2.0667	-2.8896	-2.3229	-2.2792	-2.7083	-1.9854	-2.3917	-2.6229	-2.0187	-2.9813	43.108	324.261	-2.684	242.199	333.035	175.994	261.268	194.148	240.325	256.457	296.878	274.692	328.683	58.470	313.190	269.721	7.5453e-05	0.0037832	0.00084764	483.31	9.0364e-06	1.4984e-05	537.62	192.69	1.4007e-05	2.666e-05	252.32	103.88	81.491	38.959	7.3372e-06	49.395	0.0042568	0.0038952	0.0010513	855.95	4.6457e-05	4.3854e-05	865.11	328.23	4.7039e-05	4.2223e-05	435.02	176.07	143.35	60.225	4.0988e-05	81.394	42.519	40.860	27.277	-13.268	73.075	42.497	-14.588	-7.261	155.343	7.249	-10.001	-4.890	-2.420	2.849	192.999	-0.505	-8191	255	
7823.911	1	1	0	0	0.13662	0.15783	0.13822	0.080678	0.12629	0.11134	0.20332	0.16006	0.10333	0.031371	0.1822	0.15332	0.27525	0.26993	0.040368	0.11105	-2.0938	-2.3542	-2.8396	-2.175	-2.5521	-2.9396	-2.2875	-2.5312	-2.4896	-2.2562	-2.8312	-2.2917	-2.5354	-2.7188	-2.0792	-2.5542	177.272	314.211	212.941	44.338	79.797	90.087	-7.978	302.765	10.945	251.665	248.990	40.337	242.245	308.071	153.239	156.682	0.00021747	0.0015719	0.00092073	481.73	2.4225e-05	7.164e-06	543.04	193.6	1.2332e-05	1.5478e-05	249.5	103.65	82.257	38.851	4.5683e-05	49.187	0.0041588	0.0038119	0.0010838	877.41	4.5273e-05	4.2944e-05	883.94	333.02	4.585e-05	4.0933e-05	443.38	177.9	140.69	59.235	4.3256e-05	81.108	73.957	16.585	156.083	-13.599	96.584	19.177	-14.121	-7.519	61.114	-10.797	-9.649	-4.564	-2.566	2.396	202.363	-1.487	-8191	255	
7824.005	1	1	0	0	0.10246	0.21573	0.10145	0.2697	0.13613	0.089787	0.11315	0.053268	0.15666	0.11303	0.2149	0.25614	0.27189	0.11797	0.16456	0.22635	-2.1813	-2.0854	-2.7062	-2.3167	-2.3771	-2.6292	-2.0917	-2.5708	-2.5917	-2.1917	-2.7917	-2.2167	-2.4708	-2.8208	-2.2854	-2.6917	145.145	176.130	131.132	7.835	217.403	154.948	104.253	278.310	164.722	108.077	288.455	241.103	262.195	264.258	33.599	-1.150	0.00031273	0.0026634	0.00024644	483.77	5.7272e-06	4.4234e-06	539.92	193.06	7.9582e-06	1.8142e-05	247.82	102.51	81.091	38.393	1.6669e-05	48.403	0.0040118	0.0036805	0.0011435	877.04	4.3614e-05	4.1693e-05	907.96	327.56	4.4429e-05	3.9922e-05	452.01	175.07	137.52	58.213	4.6076e-05	78.954	185.899	52.191	146.346	-13.729	79.899	1.034	-14.207	-7.307	107.556	60.774	-9.605	-5.573	-2.570	2.763	177.779	-1.240	-8191	255	
7824.103	1	1	0	0	0.21466	0.16916	0.070821	0.080309	0.17094	0.071206	0.22612	0.11307	0.089923	0.090631	0.31897	0.20762	0.13354	0.18876	0.079701	0.1477	-2.0396	-2.0479	-2.6729	-2.2396	-2.3542	-2.6958	-2.0979	-2.4104	-2.6188	-2.1896	-2.6708	-2.4583	-2.2313	-2.7687	-2.0812	-2.5208	260.864	18.904	251.675	143.000	327.242	152.199	323.331	82.460	81.788	300.488	21.468	30.732	328.425	185.452	112.957	124.373	0.00017151	0.00061893	0.00080277	480.18	2.6939e-05	1.0455e-05	536.8	189.4	9.309e-06	2.5942e-05	248.28	102.55	80.676	38.258	3.6316e-05	48.047	0.0038927	0.0036139	0.0011915	858.06	4.1919e-05	4.1219e-05	921.61	320.14	4.2853e-05	4.0279e-05	457.81	171.77	135.18	58.583	4.7967e-05	77.583	40.277	236.840	172.407	-14.471	44.727	246.926	-14.038	-8.004	117.859	182.098	-10.065	-5.349	-2.288	2.580	258.047	-1.859	-8191	255	
7824.197	1	1	0	0	0.19421	0.026669	0.28601	0.078866	0.28614	0.17372	0.066222	0.068032	0.25351	0.13953	0.23251	0.176	0.19261	0.092045	0.051783	0.21821	-2.2458	-2.05	-2.6542	-2.5479	-2.0896	-2.7854	-2.2521	-2.5563	-2.6521	-2.0667	-2.5896	-2.5187	-2.2	-2.95	-2.2687	-2.2958	109.477	47.022	118.833	160.788	118.350	113.384	309.717	205.694	116.097	247.567	204.686	22.312	297.335	18.404	112.583	277.956	0.00019013	0.0012975	0.00019657	480.05	7.1516e-06	1.6634e-05	532.88	189.03	6.1169e-06	4.6168e-05	246.64	102.21	80.662	38.26	1.0161e-05	48.142	0.0037787	0.0037676	0.0012212	844.81	4.0541e-05	4.3159e-05	931.83	314.86	4.194e-05	4.2736e-05	459.5	169.48	133.71	59.942	4.8326e-05	76.553	266.909	153.452	325.148	-13.912	57.271	188.059	-14.186	-7.592	97.762	185.529	-9.999	-4.814	-2.408	2.840	-8.700	-1.404	-8191	255	
7824.294	1	1	0	0	0.1207	0.20648	0.088222	0.20521	0.094935	0.11941	0.041032	0.12302	0.10262	0.059236	0.19113	0.24201	0.073484	0.22137	0.11956	0.13635	-2.3104	-1.9896	-2.5396	-2.5333	-2.1021	-2.6917	-2.2417	-2.3229	-2.5375	-2.0271	-2.5667	-2.4688	-2.1604	-2.7875	-2.3333	-2.1646	310.781	21.454	90.952	-5.341	161.026	49.218	288.985	249.489	20.291	131.825	260.827	304.413	212.255	325.603	65.341	152.878	0.0001377	0.0038117	0.00069588	482.71	6.3012e-06	7.8923e-06	541.38	189.7	1.3037e-06	4.8608e-05	249.64	102.22	80.056	38.1	2.5895e-05	48.181	0.0037043	0.0040662	0.0012105	837.43	3.9814e-05	4.5927e-05	930.91	311.81	4.1335e-05	4.5965e-05	454.26	167.9	132.63	61.07	4.6759e-05	75.539	-21.796	146.598	302.216	-14.147	284.192	147.727	-15.029	-7.747	177.868	182.664	-10.240	-5.059	-2.132	3.096	12.553	-1.638	-8191	255	
7824.414	1	1	0	0	0.23652	0.082924	0.21986	0.11632	0.2346	0.22028	0.15544	0.29331	0.11413	0.17669	0.15297	0.16211	0.17606	0.1164	0.069031	0.42569	-2.3854	-2.0062	-2.6208	-2.6083	-2.0354	-2.6813	-2.3083	-2.1792	-2.7979	-2.1813	-2.6729	-2.5375	-2.2333	-2.5896	-2.2771	-2.1792	199.864	160.858	21.735	19.126	23.110	-21.063	59.142	234.248	42.120	75.055	25.659	296.021	322.433	-23.455	236.558	227.122	0.00031115	0.0032721	0.00076217	483.2	1.5483e-05	2.3108e-05	539.18	188.51	1.8508e-05	1.2084e-05	244.95	100.94	79.216	37.683	1.5128e-05	47.78	0.0036568	0.0042543	0.00115	823.19	3.9765e-05	4.6821e-05	910.51	303.87	4.1287e-05	4.7056e-05	439.01	164.24	133.66	61.099	4.4632e-05	73.808	260.260	145.009	11.521	-13.776	229.543	153.145	-14.313	-7.991	-21.117	166.302	-10.662	-5.094	-1.603	2.795	20.076	-1.544	-8191	255	
7824.510	1	1	0	0	0.22368	0.14539	0.16275	0.058849	0.28742	0.21681	0.1032	0.20715	0.072786	0.066625	0.077733	0.48963	0.11234	0.17017	0.15665	0.050215	-2.4229	-2.225	-2.4583	-2.8812	-2.2354	-2.7854	-2.6104	-2.1083	-2.875	-2.0896	-2.4104	-2.6833	-2.1479	-2.5687	-2.225	-2.1625	-7.430	10.980	-6.606	0.089	106.476	92.937	-21.204	95.734	-22.399	136.700	165.370	216.330	307.135	222.073	270.898	302.770	0.00086215	0.0014325	0.0007639	476.66	4.3913e-05	1.7971e-05	534.37	188.65	2.5417e-05	2.4505e-05	242.12	100.29	78.718	37.495	2.9832e-05	47.087	0.0037838	0.0043141	0.0011019	806.78	4.2223e-05	4.7099e-05	889.2	299.26	4.3646e-05	4.7093e-05	429.12	161.27	137.57	60.509	4.3369e-05	72.643	182.082	74.493	310.994	-13.769	237.827	25.411	-14.317	-7.616	213.244	78.234	-10.478	-4.872	-1.410	2.818	21.011	-1.888	-8191	255	
7824.606	1	1	0	0	0.055109	0.14411	0.10629	0.13505	0.11206	0.032207	0.17119	0.099967	0.12216	0.38322	0.11964	0.25969	0.27333	0.23169	0.057317	0.34871	-2.3667	-2.2729	-2.1583	-2.9354	-2.0708	-2.6875	-2.6354	-2.2375	-2.7292	-2.2542	-2.2229	-2.7667	-2.2333	-2.6458	-2.5604	-2.025	104.076	124.830	145.010	266.577	299.905	136.000	-3.853	258.583	100.385	291.587	245.231	-1.411	313.699	299.892	206.123	310.305	0.00060548	0.0024652	0.00019827	475.17	3.3899e-05	2.6275e-05	536.91	186.91	3.4305e-05	2.062e-05	244.77	99.87	79.413	37.803	2.1751e-05	47.283	0.0040204	0.0042793	0.0010726	802.11	4.5306e-05	4.5782e-05	882.9	298.1	4.6157e-05	4.6247e-05	426.5	162.37	142.03	60.159	4.3129e-05	73.857	184.981	-15.119	11.100	-13.495	221.176	71.083	-14.573	-7.060	258.369	-12.703	-9.628	-4.942	-1.197	2.225	47.967	-1.405	-8191	255	
7824.703	1	1	0	0	0.12349	0.11205	0.32024	0.20442	0.12752	0.086548	0.15742	0.19632	0.090625	0.16423	0.29281	0.01651	0.16273	0.060026	0.19246	0.079388	-2.4104	-2.175	-2.0896	-2.6583	-2.1146	-2.4542	-2.7708	-2.0146	-2.7083	-2.4104	-2.0875	-2.8125	-2.0979	-2.5396	-2.5833	-2.1292	250.904	109.647	300.379	149.950	64.008	324.413	319.452	71.387	95.806	28.599	211.989	12.285	202.623	254.289	105.060	178.887	0.00057535	0.0018801	0.00074836	475.95	1.3486e-05	1.9626e-05	537.13	187.49	9.0555e-06	3.7505e-05	248.05	101.46	80.49	37.931	3.5471e-05	48.455	0.0042441	0.0041882	0.0010528	816.39	4.7906e-05	4.4772e-05	879.96	306.56	4.7986e-05	4.5029e-05	423.91	167.03	144.99	59.751	4.2128e-05	76.925	205.965	51.839	324.200	-13.216	213.172	68.172	-14.127	-7.099	122.774	43.139	-10.765	-4.559	-2.193	2.511	79.786	-1.143	-8191	255	
7824.774	1	1	0	0	0.1703	0.31539	0.13305	0.086295	0.3019	0.10726	0.22863	0.20877	0.090079	0.16219	0.12065	0.14425	0.26326	0.33116	0.34365	0.27579	-2.3375	-2.3063	-2.0792	-2.8083	-2.2146	-2.3104	-2.85	-1.9688	-2.5333	-2.3396	-2.1521	-2.7167	-2.3479	-2.5396	-2.8583	-2.2208	236.533	101.188	322.670	-9.085	4.095	263.006	215.844	262.398	267.931	98.130	11.313	15.268	113.346	327.790	137.858	-14.626	0.000182	0.0023927	0.00058213	477.9	1.1388e-05	1.3065e-05	543.8	187.86	1.1654e-05	1.5414e-05	249.74	102.27	80.261	38.58	1.4432e-05	48.181	0.0042744	0.0040693	0.0010213	839.46	4.8075e-05	4.3356e-05	874.63	316.68	4.7231e-05	4.4028e-05	421.59	171.79	144.05	59.154	4.0889e-05	78.854	7.491	26.229	295.116	-13.195	-23.275	298.239	-14.359	-7.154	36.175	280.332	-10.406	-4.102	-2.689	2.240	97.179	-1.069	-8191	255	
7824.895	1	1	0	0	0.24055	0.090784	0.082657	0.092471	0.069413	0.12085	0.17519	0.20015	0.11043	0.25897	0.18297	0.23532	0.093017	0.073293	0.15097	0.21212	-2.0687	-2.5229	-2.0396	-2.6896	-2.475	-2.0812	-2.9104	-1.95	-2.6917	-2.5875	-1.9583	-2.6667	-2.2667	-2.1854	-2.6625	-2.1854	97.846	268.719	146.301	294.520	29.600	57.395	72.231	-2.236	-8.804	71.219	16.735	23.431	287.877	227.668	115.704	71.734	0.00043016	0.0020231	0.00038245	477.24	3.0494e-05	1.0862e-05	534.89	188.71	2.5379e-05	1.3599e-05	243.84	101.71	80.372	38.179	2.0591e-05	48.172	0.0041555	0.0039627	0.0010092	854.74	4.6316e-05	4.1669e-05	865.89	322.44	4.5271e-05	4.2619e-05	419.69	173.15	141.25	58.14	4.1918e-05	79.945	21.127	69.693	136.371	-13.496	55.549	47.169	-14.074	-7.298	102.486	12.403	-10.155	-4.841	-2.679	2.260	187.528	-1.478	-8191	255	
7824.991	1	1	0	0	0.20763	0.13995	0.18017	0.10155	0.13778	0.10827	0.42761	0.19886	0.23577	0.17341	0.27537	0.30525	0.23794	0.058391	0.088442	0.25329	-2.1042	-2.4958	-1.9875	-2.6146	-2.5771	-1.9937	-2.9292	-2.1979	-2.4625	-2.6729	-2.05	-2.7229	-2.4313	-2.225	-2.8	-2.3667	209.398	184.643	193.544	211.824	-20.463	157.835	228.479	238.051	303.323	62.456	-16.195	305.062	30.670	205.414	181.651	315.047	0.00015051	0.0013318	0.0009601	478.16	1.1733e-05	8.5534e-06	534.05	188.32	1.2833e-05	2.036e-06	245.69	100.82	80.559	37.967	3.7945e-05	48.379	0.0039913	0.0038584	0.0010516	865.19	4.4912e-05	4.0475e-05	881.93	325.7	4.3725e-05	4.163e-05	433.36	174.35	139.75	57.577	4.4426e-05	80.612	-9.701	4.648	152.118	-13.392	175.461	309.389	-14.317	-7.632	72.546	264.531	-10.149	-5.330	-2.095	1.712	214.111	-1.570	-8191	255	
7825.085	1	1	0	0	0.10849	0.10425	0.11099	0.14124	0.15	0.09451	0.15058	0.27149	0.19696	0.062787	0.37155	0.10208	0.34204	0.18439	0.047409	0.19867	-2.0417	-2.6688	-1.9	-2.5667	-2.4646	-2.0625	-2.7021	-2.4479	-2.2917	-2.6146	-2.0833	-2.7562	-2.4771	-2.2042	-2.7562	-2.4458	304.273	174.108	82.916	94.619	78.478	95.168	261.373	252.271	74.442	97.411	7.819	310.574	-19.326	325.478	171.062	262.964	0.00010127	0.0014712	0.00088922	477.75	2.3109e-05	1.2524e-05	533.79	191.2	2.3927e-05	1.4311e-05	242.74	102.91	80.674	38.43	1.4497e-05	48.716	0.003883	0.0037915	0.0011378	865.1	4.4329e-05	3.992e-05	909.99	326.72	4.2997e-05	4.126e-05	450.3	173.74	139.03	57.866	4.7218e-05	80.215	-3.029	16.809	160.460	-13.906	-18.889	217.150	-14.031	-7.875	64.156	69.357	-9.971	-5.307	-2.166	2.648	208.119	-1.396	-8191	255	
7825.183	1	1	0	0	0.2159	0.15159	0.061573	0.36259	0.24142	0.068944	0.25432	0.26577	0.055086	0.2303	0.18105	0.12325	0.21504	0.21213	0.15012	0.129	-1.8521	-2.5375	-2.0417	-2.7104	-2.4542	-2.0271	-2.9104	-2.3708	-2.2062	-2.8417	-2.0917	-2.4813	-2.6854	-2.1958	-2.6542	-2.5083	201.556	305.956	295.146	260.094	131.763	96.023	270.611	-20.952	199.271	58.030	300.771	27.576	45.693	89.343	59.374	149.250	0.00031951	0.0018018	0.00080714	480.53	8.014e-06	1.9615e-05	538.66	192.66	1.0167e-05	1.8597e-05	251.85	103.94	80.561	38.768	1.6533e-05	49.388	0.0037916	0.0038048	0.0012154	854.03	4.3489e-05	4.0974e-05	935.81	324.63	4.1727e-05	4.2371e-05	465.08	172.1	138.34	59.245	4.8603e-05	79.547	133.417	109.755	132.103	-13.954	124.184	174.545	-14.261	-7.742	36.672	182.872	-9.701	-5.239	-2.678	2.795	316.968	-1.631	-8191	255	
7825.302	1	1	0	0	0.26602	0.09126	0.1233	0.06181	0.1944	0.16148	0.05483	0.23646	0.18056	0.15594	0.10287	0.095012	0.21987	0.039112	0.2182	0.23024	-1.8271	-2.4729	-2.1562	-2.5896	-2.7458	-2.1312	-2.7542	-2.2958	-2.2875	-2.7313	-2.3875	-2.425	-2.6271	-1.9771	-2.5687	-2.4292	262.698	109.591	45.774	50.965	179.984	247.129	221.383	218.119	195.655	179.160	-22.707	291.874	40.736	214.434	292.866	15.760	0.00026343	0.0028367	0.00087555	476.95	5.8557e-06	3.3778e-05	546.69	190.57	2.0007e-05	2.1214e-05	251.92	103.51	81.747	38.816	1.0086e-05	49.363	0.0036698	0.0039521	0.0012434	838.32	4.2216e-05	4.3334e-05	938.11	320.3	4.0532e-05	4.4551e-05	464.23	169.2	136.56	60.787	4.8049e-05	78.326	28.905	131.827	117.596	-14.177	312.397	202.921	-14.725	-7.553	60.383	168.673	-10.088	-5.149	-2.674	3.057	36.073	-1.889	-8191	255	
7825.376	1	1	0	0	0.10273	0.14354	0.19879	0.18226	0.10223	0.30408	0.20799	0.28754	0.13223	0.27936	0.24104	0.15807	0.11371	0.31293	0.097894	0.18796	-1.6104	-2.6146	-2.3021	-2.5	-2.7708	-2.1729	-2.7083	-2.5438	-1.9188	-2.8896	-2.4896	-2.4021	-2.7938	-2.1292	-2.65	-2.6229	201.578	309.497	-25.263	279.752	-18.383	-17.844	5.608	261.301	230.433	116.622	-9.219	221.771	11.463	182.635	112.157	143.796	0.00024892	0.0024539	0.00022222	479.48	9.0219e-06	3.966e-05	544.37	192.13	1.3274e-05	3.475e-05	250.99	103.78	81.448	39.071	1.9203e-05	49.584	0.00359	0.004207	0.0012225	828.42	4.1553e-05	4.6606e-05	926	318.09	4.0357e-05	4.7281e-05	458.93	167.54	137.18	62.598	4.6451e-05	78.102	168.242	203.813	1.965	-14.049	22.925	188.445	-14.641	-8.045	155.843	139.207	-10.229	-5.261	-2.027	2.977	74.215	-1.434	-8191	255	
7825.495	1	1	0	0	0.28803	0.20235	0.18601	0.19551	0.050985	0.18087	0.13082	0.1673	0.13527	0.036196	0.11745	0.17211	0.27471	0.23299	0.19621	0.13013	-1.6833	-2.5438	-2.2938	-2.2625	-2.6583	-2.1083	-2.7354	-2.7583	-2.2229	-2.7375	-2.4083	-2.2021	-2.7354	-2.3396	-2.3937	-2.5646	311.845	55.972	131.475	234.748	215.601	129.751	294.151	315.631	223.381	5.372	257.385	32.408	172.671	257.559	-14.283	232.308	0.00062042	0.00097264	0.00040569	483.01	1.7803e-05	4.547e-06	545.07	194.58	1.3309e-05	2.2439e-05	252.32	104.61	83.179	39.495	4.9164e-05	50.237	0.0036657	0.0044053	0.001187	819.29	4.2415e-05	4.8532e-05	911.66	316.61	4.1983e-05	4.8657e-05	455.02	166.44	140.67	63.625	4.4549e-05	77.837	184.820	201.316	-25.565	-14.176	205.713	121.285	-14.713	-7.683	156.656	165.270	-10.276	-4.781	-1.611	2.745	31.589	-1.141	-8191	255	
7825.591	1	1	0	0	0.25191	0.20085	0.062134	0.065028	0.10309	0.09949	0.15182	0.13366	0.06933	0.20623	0.20565	0.18568	0.4489	0.090713	0.13427	0.06596	-1.6771	-2.6437	-2.4417	-2.2604	-2.7521	-2.1979	-2.5604	-2.825	-2.2188	-2.7521	-2.5479	-2.1083	-2.7875	-2.1396	-2.2854	-2.7	283.662	145.479	105.811	-13.690	77.424	132.860	236.031	79.337	124.879	285.335	42.646	155.832	281.353	298.502	184.986	66.520	0.0010185	0.0012204	0.00047805	479.2	2.9982e-05	1.2898e-05	546.01	195.59	1.4204e-05	2.6591e-05	255.02	104.31	82.844	39.337	7.8085e-06	49.962	0.003894	0.0044281	0.0011523	807.59	4.4665e-05	4.859e-05	902.12	313.58	4.5164e-05	4.8177e-05	453.06	166.19	145.81	63.513	4.4064e-05	77.701	201.340	26.227	263.349	-14.090	249.443	2.071	-14.900	-7.522	206.366	37.580	-9.947	-5.304	-1.539	2.224	53.469	-1.413	-8191	255	
7825.687	1	1	0	0	0.096006	0.11818	0.1449	0.13365	0.17113	0.086907	0.21487	0.13578	0.29555	0.14609	0.20807	0.095408	0.096133	0.1884	0.41337	0.31424	-1.5771	-2.75	-2.3833	-2.0292	-2.9354	-2.275	-2.2812	-2.75	-1.9729	-2.4062	-2.6667	-2.2062	-2.9062	-2.4458	-2.325	-2.9229	93.062	243.714	21.824	314.410	272.369	154.079	17.876	301.568	120.155	129.839	247.069	181.516	142.479	136.513	-8.404	230.702	0.00065144	0.0026419	0.00038395	482.3	2.391e-05	2.9396e-05	547.41	192.54	1.2257e-05	2.617e-05	250.03	102.85	81.583	38.985	3.2369e-05	48.755	0.0042333	0.0043705	0.0011459	811.65	4.7987e-05	4.7914e-05	893.7	312.94	4.8099e-05	4.6727e-05	445.45	165.75	146.9	61.924	4.2217e-05	77.119	190.654	-17.800	0.293	-13.750	191.740	-19.295	-14.749	-7.510	256.125	36.792	-10.450	-4.967	-1.878	2.354	-21.760	-1.262	-8191	255	
7825.783	1	1	0	0	0.27102	0.31189	0.044665	0.16598	0.26205	0.21998	0.19171	0.23389	0.055336	0.18633	0.21021	0.15206	0.16498	0.1064	0.020355	0.047451	-1.7375	-2.5354	-2.725	-2.1354	-2.7333	-2.4667	-2.5479	-2.8271	-2.0062	-2.4333	-2.6917	-2.3458	-2.8083	-2.7167	-2.1771	-2.8917	70.482	53.826	74.909	33.488	140.041	300.787	247.759	-3.347	2.707	74.539	51.380	17.374	221.953	214.848	120.736	15.986	0.00045596	0.0031334	8.3044e-05	479.36	1.168e-05	1.4618e-05	539.22	191.05	7.7641e-06	2.3482e-05	249.14	102.12	81.617	38.519	2.3414e-05	48.216	0.0043606	0.0041529	0.0011046	820.46	4.9037e-05	4.6161e-05	873.95	316.75	4.9298e-05	4.4947e-05	435.56	168.86	146.97	61.01	4.1219e-05	78.474	207.058	-10.754	82.029	-13.268	163.745	-22.520	-14.558	-7.600	87.736	291.703	-10.345	-4.910	-2.456	2.935	103.435	-0.847	-8191	255	
7825.904	1	1	0	0	0.068998	0.17856	0.17809	0.18226	0.11226	0.21067	0.10059	0.24218	0.078841	0.090024	0.061909	0.22372	0.081126	0.093819	0.17522	0.078145	-1.9062	-2.4333	-2.7854	-2	-2.7646	-2.5708	-2.1792	-2.7354	-2.3458	-2.3063	-2.7771	-2.1667	-2.5896	-2.6958	-2.3167	-2.875	-2.183	80.843	99.455	300.724	86.899	160.346	179.237	301.786	130.558	22.242	-11.113	246.507	318.426	226.480	111.560	237.935	0.00024937	0.0020492	0.00033111	480.23	2.5038e-05	5.3821e-06	537.56	189.51	3.0868e-05	1.7237e-05	247.95	102.08	81.467	38.672	1.537e-05	49.258	0.0043819	0.0040303	0.0010792	846.52	4.8538e-05	4.5408e-05	866.94	325.39	4.8854e-05	4.3653e-05	432.68	174.31	145.4	60.727	4.1233e-05	81.234	317.672	27.919	262.628	-13.114	119.465	229.813	-14.837	-6.834	80.455	-3.273	-9.835	-4.497	-2.432	2.373	277.243	-1.521	-8191	255	
7825.998	1	1	0	0	0.13471	0.3539	0.16436	0.32097	0.21431	0.085886	0.079319	0.2016	0.114	0.39969	0.20498	0.061909	0.14264	0.29957	0.18575	0.22775	-1.8396	-2.3	-2.7104	-2.2938	-2.4729	-2.4938	-2.2333	-2.6813	-2.2125	-2.3438	-2.8937	-2.1083	-2.7313	-2.5292	-2.0896	-2.7	95.652	9.642	-18.009	271.946	-8.688	278.313	267.079	289.239	78.006	321.640	38.079	316.657	6.852	277.813	-5.084	261.632	0.00012497	0.0010713	0.00024457	481.72	1.2729e-05	9.1783e-06	543.03	191.71	1.0702e-05	4.46e-05	249.84	103.7	82.765	39.108	2.8158e-05	49.919	0.0043163	0.0039632	0.0010837	876.52	4.7254e-05	4.4551e-05	879.51	333.97	4.7482e-05	4.2485e-05	441.09	179.31	143.98	60.447	4.2922e-05	82.818	169.042	-19.881	170.023	-13.347	23.612	140.643	-14.859	-7.676	84.562	39.610	-10.009	-4.915	-2.321	2.338	180.621	-1.766	-8191	255	
7826.071	1	1	0	0	0.2096	0.18443	0.28114	0.12083	0.13904	0.094797	0.15633	0.2488	0.15183	0.21745	0.3297	0.22763	0.071191	0.26263	0.22405	0.24229	-2.0542	-2.2042	-2.7208	-2.1958	-2.6583	-2.6	-2.1917	-2.7417	-2.6125	-2.0854	-2.6333	-2.4729	-2.3292	-2.7979	-2.2938	-2.6312	175.907	126.653	212.133	52.430	280.411	64.675	221.128	170.794	179.716	-2.523	326.854	328.964	198.691	11.900	138.011	282.599	0.00020989	0.001594	0.00061312	483.45	2.7028e-05	2.6921e-05	541.04	194.53	7.2741e-06	3.037e-05	251.36	104.14	82.29	39.069	2.2411e-05	49.914	0.0042071	0.0038524	0.0011334	889.43	4.5598e-05	4.3429e-05	903.98	336.06	4.6235e-05	4.1477e-05	453.03	179.44	141.4	59.748	4.5789e-05	81.941	291.537	29.312	148.748	-14.222	80.289	24.717	-14.271	-7.444	307.413	98.249	-10.010	-5.392	-2.722	2.294	231.876	-1.522	-8191	255	
7826.190	1	1	0	0	0.12968	0.26181	0.057114	0.16518	0.15677	0.090197	0.12199	0.15119	0.14157	0.19225	0.12362	0.10533	0.21312	0.076539	0.17423	0.047466	-2.0792	-1.9271	-2.5979	-2.4062	-2.2417	-2.7521	-2.0521	-2.6708	-2.4771	-2.1521	-2.9604	-2.3792	-2.3333	-3.0187	-2.0229	-2.7875	317.702	133.180	91.624	332.344	330.487	205.613	291.288	223.906	49.250	200.061	327.189	88.183	300.620	235.777	182.204	7.406	0.00027966	0.0018951	0.00063133	483.96	1.7684e-05	1.7722e-05	540.41	195.03	8.6974e-06	1.5751e-05	249.97	104.51	82.905	39.058	2.8305e-05	49.303	0.0040714	0.0037368	0.0012005	878.86	4.386e-05	4.2143e-05	924.37	329.95	4.4767e-05	4.0445e-05	461.96	176.02	139.18	59.252	4.7935e-05	79.959	83.570	281.794	146.335	-14.557	77.825	103.297	-14.305	-7.974	218.496	211.762	-9.745	-5.397	-2.988	2.322	186.414	-2.016	-8191	255	
7826.286	1	1	0	0	0.26975	0.065961	0.20411	0.096412	0.056435	0.065475	0.16131	0.30991	0.35924	0.12231	0.13282	0.17103	0.17162	0.10937	0.17524	0.24965	-2.1625	-2.0312	-2.55	-2.3521	-2.2188	-2.6625	-2.3958	-2.6146	-2.5167	-2.0312	-2.8375	-2.2188	-2.1583	-2.7833	-2.2625	-2.5792	149.363	9.569	152.406	-17.864	252.875	22.267	238.385	311.592	16.000	95.833	-18.500	307.844	273.918	14.282	19.407	332.594	3.7175e-05	0.0013425	0.00077742	479.86	2.0095e-05	1.8345e-05	542.4	195.91	1.9179e-05	2.2683e-05	252.78	103	82.452	39.072	1.7599e-05	49.694	0.003925	0.0037522	0.0012352	860.15	4.2207e-05	4.2463e-05	935.52	323.48	4.3063e-05	4.1813e-05	465.79	172.06	135.92	59.662	4.7824e-05	77.66	-25.497	165.087	81.705	-14.606	76.031	182.687	-14.619	-8.019	50.631	179.163	-10.386	-5.677	-2.913	2.334	113.774	-2.359	-8191	255	
7826.383	1	1	0	0	0.01457	0.051358	0.05083	0.11671	0.14494	0.16395	0.1326	0.11729	0.088795	0.11589	0.10182	0.16388	0.2908	0.045276	0.077625	0.30421	-2.2729	-2.0312	-2.4875	-2.4333	-2.3167	-2.8625	-2.2854	-2.575	-2.575	-2.1292	-2.7375	-2.6	-2.2375	-2.7917	-2.2333	-2.4333	166.587	229.970	149.825	19.910	96.451	32.908	151.230	-5.553	106.424	133.151	229.478	208.948	-18.993	198.209	279.819	76.395	8.2539e-05	0.0047143	0.0001296	483.74	7.4468e-06	1.8943e-05	547.42	195.42	1.4558e-05	4.2179e-05	254.62	104.53	82.737	39.359	4.4189e-06	49.774	0.0037068	0.0038753	0.0012219	842.34	4.0142e-05	4.4221e-05	933.52	317.48	4.1176e-05	4.4128e-05	462.18	170.79	134.98	61.524	4.7697e-05	77.651	42.017	175.723	323.150	-14.226	212.366	142.941	-15.016	-8.337	315.469	189.185	-10.530	-5.549	-2.771	2.651	9.676	-1.887	-8191	255	
7826.479	1	1	0	0	0.48258	0.18077	0.079767	0.28297	0.12057	0.21821	0.10443	0.28597	0.26431	0.081027	0.11513	0.077487	0.063945	0.12457	0.10543	0.1418	-2.1979	-2.1896	-2.5354	-2.5104	-2.1354	-2.8583	-2.3563	-2.1708	-2.775	-2.0021	-2.375	-2.6188	-2.1417	-2.8771	-2.3354	-2.3333	78.814	231.697	246.907	294.643	230.792	101.574	-23.832	297.768	294.135	321.535	248.394	64.462	314.758	297.029	307.088	276.374	0.00024859	0.0027767	0.00023876	487.09	5.9451e-06	3.4933e-05	551.84	195.95	4.1872e-06	1.312e-05	255.39	104.6	82.164	39.49	3.1494e-05	50.266	0.0036516	0.0041688	0.001194	835.54	3.9997e-05	4.6894e-05	927.35	315.35	4.1128e-05	4.6871e-05	455.58	169.44	135.87	62.666	4.6211e-05	76.972	203.304	130.466	295.694	-14.296	261.163	200.375	-14.745	-7.739	202.679	139.287	-10.801	-5.417	-2.531	2.053	69.519	-1.825	-8191	255	
7826.599	1	1	0	0	0.098856	0.16554	0.17935	0.071523	0.03568	0.1304	0.13233	0.016655	0.31086	0.29456	0.035132	0.10644	0.28457	0.14989	0.10653	0.18677	-2.3042	-2.1042	-2.65	-2.6042	-1.9417	-2.8833	-2.2667	-2.25	-2.8542	-2.1708	-2.2333	-2.5187	-2.1188	-2.7188	-2.5667	-2.2812	-10.503	161.451	12.985	175.737	326.959	114.505	233.155	44.245	112.674	324.603	-14.233	165.330	-25.143	277.282	219.634	298.937	0.00032856	0.0014793	0.00038285	484.44	1.5205e-05	1.5741e-05	551.87	198.86	1.7568e-05	2.067e-05	255.96	104.32	82.246	39.235	2.9141e-05	49.884	0.0037125	0.0043419	0.001144	824.38	4.1322e-05	4.8087e-05	911.75	310.91	4.268e-05	4.7789e-05	444.65	166.04	138.62	62.448	4.4245e-05	75.248	243.545	235.335	324.616	-14.515	204.819	107.296	-15.395	-8.047	226.971	208.409	-10.795	-5.348	-2.405	2.175	52.302	-1.857	-8191	255	
7826.671	1	1	0	0	0.050194	0.063491	0.2054	0.084001	0.060665	0.27514	0.29383	0.094452	0.22768	0.16952	0.23199	0.13728	0.16044	0.24867	0.25766	0.30795	-2.2438	-2.2229	-2.3354	-2.7625	-2.0604	-2.7583	-2.3937	-2.2542	-2.7458	-2.2979	-2.2792	-2.6958	-2.1396	-2.6312	-2.4792	-2.1292	273.001	202.525	200.774	295.415	83.218	9.687	262.958	220.764	299.831	54.162	28.260	71.236	259.444	279.751	108.277	202.835	0.00067758	0.00074172	0.00059784	483.93	3.6453e-05	1.2232e-05	547.57	196.53	2.3474e-05	1.6186e-05	253.19	104.4	82.76	39.591	2.4747e-05	49.544	0.0039057	0.004328	0.0010942	812.24	4.3768e-05	4.7235e-05	898.8	305.94	4.5365e-05	4.7213e-05	438.09	165.17	142.94	61.982	4.3439e-05	75.033	182.959	94.105	5.845	-14.047	254.826	22.900	-14.851	-8.043	265.566	31.758	-10.848	-5.370	-2.682	2.106	93.677	-1.815	-8191	255	
7826.767	1	1	0	0	0.052438	0.10848	0.13099	0.16317	0.2373	0.15955	0.17304	0.2799	0.24539	0.051676	0.2815	0.33412	0.15726	0.050829	0.12448	0.25582	-2.2583	-2.3	-2.3083	-2.8563	-2.0458	-2.3937	-2.6792	-2.2458	-2.6792	-2.45	-2.2083	-2.8083	-2.2	-2.5625	-2.7708	-2.075	-22.045	205.669	243.855	316.343	157.216	96.755	148.188	280.723	138.098	140.009	64.662	296.051	51.214	-15.656	79.795	37.557	0.00038511	0.00067124	0.00030063	485.29	1.8617e-05	2.1016e-05	549.62	195.43	2.8275e-05	3.2963e-05	256.59	104.85	83.236	39.617	2.2785e-05	50.45	0.0041444	0.0042517	0.001071	812.98	4.665e-05	4.5569e-05	892.14	308.23	4.7583e-05	4.5954e-05	434.74	167.64	146.75	61.304	4.2517e-05	77.1	220.366	39.100	325.916	-13.596	208.050	2.946	-14.769	-7.578	225.008	47.797	-10.625	-4.841	-2.368	1.918	26.888	-1.585	-8191	255	
7826.863	1	1	0	0	0.17716	0.16475	0.22763	0.30077	0.15912	0.41519	0.27838	0.059683	0.11373	0.11007	0.084923	0.21926	0.18549	0.14723	0.10121	0.16123	-2.2938	-2.3958	-2.1833	-2.7521	-2.1521	-2.2687	-2.7104	-2.1	-2.6417	-2.3833	-2.0396	-2.7583	-2.2625	-2.3396	-2.6396	-2.2479	134.282	222.357	221.426	83.345	100.139	-3.710	321.716	310.322	234.507	299.998	248.066	82.500	-17.618	178.912	257.199	165.009	0.00034813	0.00052376	0.00069783	482.81	2.9277e-05	1.9155e-05	548.77	195.39	6.6797e-06	1.8783e-05	257.4	106.18	83.777	39.918	2.4138e-05	50.052	0.0042997	0.0041353	0.0010448	832.47	4.8456e-05	4.4457e-05	888.61	319.59	4.8802e-05	4.5194e-05	434.28	173.36	148.68	61.23	4.1842e-05	79.915	211.257	-8.155	40.951	-13.668	189.134	42.761	-14.899	-7.523	260.429	295.274	-10.227	-4.281	-2.528	2.115	49.335	-1.365	-8191	255	
7826.984	1	1	0	0	0.34135	0.22481	0.36538	0.10665	0.14788	0.13455	0.25499	0.089845	0.16978	0.1627	0.20113	0.13293	0.39896	0.13292	0.21082	0.19563	-2.1042	-2.35	-2.1292	-2.9125	-2.2458	-2.425	-2.6792	-2.0396	-2.7938	-2.5917	-2.2812	-2.7938	-2.4854	-2.45	-2.7833	-2.1875	137.137	97.381	190.288	107.092	207.549	256.510	129.735	67.159	176.188	174.285	334.281	312.981	319.756	253.318	180.410	275.712	0.00030533	0.00081301	0.00035187	488.83	2.2529e-05	1.601e-05	551.94	197.14	2.0594e-05	1.4042e-05	257.1	105.56	83.785	39.8	2.991e-05	50.506	0.0043203	0.0040761	0.0010288	860.64	4.8383e-05	4.3537e-05	884.31	328.93	4.7681e-05	4.4441e-05	431.51	177.79	147.27	60.49	4.1838e-05	81.686	123.988	84.882	160.039	-13.295	99.307	11.758	-14.149	-7.417	49.454	323.346	-10.474	-4.537	-2.251	2.585	169.971	-1.437	-8191	255	
7827.078	1	1	0	0	0.063183	0.12765	0.018842	0.095328	0.061982	0.27631	0.10532	0.08983	0.30535	0.14526	0.32288	0.21599	0.079587	0.075415	0.10199	0.22755	-2.1479	-2.5292	-2.175	-2.8229	-2.2062	-2.2021	-2.8688	-2.1896	-2.4917	-2.6583	-2.1708	-2.7438	-2.3167	-2.325	-2.6937	-2.4083	303.719	-6.180	91.789	279.867	2.144	41.763	294.154	113.313	272.407	97.673	190.532	161.908	8.766	-7.572	126.159	245.704	0.00019012	0.00064457	0.00017776	489.39	8.9327e-06	6.7096e-06	543.3	195.89	2.4271e-05	7.5163e-06	252.83	104.99	84.163	39.783	2.7025e-05	50.369	0.0041354	0.0039711	0.0010415	875.37	4.6559e-05	4.1911e-05	884.87	332.9	4.5209e-05	4.2586e-05	434.26	178.15	143.8	59.277	4.2948e-05	82.194	-22.792	238.776	300.920	-13.647	9.204	141.704	-14.982	-8.087	33.093	248.081	-9.775	-5.194	-2.776	1.979	235.522	-1.508	-8191	255	
7827.176	1	1	0	0	0.17213	0.29379	0.041587	0.28528	0.25816	0.11162	0.29963	0.094262	0.34368	0.18994	0.17565	0.12351	0.092632	0.095389	0.060643	0.14153	-2.0625	-2.7708	-2.0083	-2.7104	-2.2583	-2.2396	-2.8438	-2.3479	-2.5375	-2.9	-2.0729	-2.7687	-2.6437	-1.9417	-2.7938	-2.275	193.479	11.592	280.982	2.867	196.747	-3.495	-22.180	235.995	185.180	293.397	279.815	212.604	282.454	254.441	299.748	-21.381	0.00018323	0.0018578	0.00083243	487.23	1.5837e-05	2.6847e-05	541.05	196.13	1.3337e-05	2.2052e-05	255.67	105.98	83.228	39.803	4.4838e-05	50.986	0.0039404	0.003819	0.0010852	874.33	4.4662e-05	4.0382e-05	903.81	333.9	4.3682e-05	4.1465e-05	450.05	178.18	142.79	59.171	4.6166e-05	82.624	143.194	-1.225	165.201	-13.847	10.627	51.956	-14.033	-7.679	133.686	10.512	-9.828	-5.379	-2.585	2.412	220.597	-1.357	-8191	255	
7827.271	1	1	0	0	0.19284	0.14518	0.091026	0.11203	0.10264	0.19052	0.18651	0.10311	0.11886	0.31119	0.07797	0.13474	0.077898	0.15985	0.21992	0.1383	-1.8188	-2.6688	-1.9312	-2.6562	-2.7417	-2.0104	-2.8146	-2.2458	-2.3958	-2.7833	-2.1396	-2.7354	-2.6688	-2.2562	-2.6667	-2.3583	98.959	206.531	106.961	173.641	222.739	172.597	45.385	115.333	95.649	53.032	216.098	200.070	27.172	55.047	134.426	-22.141	0.00037447	0.0017694	0.0014025	488.74	1.4635e-05	1.3292e-05	545.23	198.13	1.7464e-05	1.3695e-05	254.65	107.04	84.143	39.877	2.3217e-05	51.036	0.0038933	0.0037927	0.0011772	871.6	4.425e-05	4.0492e-05	935.81	332.76	4.2959e-05	4.1771e-05	466.68	177.01	142.28	59.774	4.8559e-05	82.129	48.000	183.995	120.202	-14.350	79.781	82.806	-14.328	-8.082	45.627	191.764	-9.752	-5.542	-2.670	2.291	292.587	-2.010	-8191	255	
7827.367	1	1	0	0	0.33304	0.30132	0.20108	0.30429	0.14062	0.080431	0.26576	0.070028	0.22291	0.24444	0.19413	0.16641	0.065774	0.15129	0.02497	0.1618	-1.6646	-2.5979	-2.2146	-2.5875	-2.6833	-2.1125	-2.7021	-2.6562	-2.1083	-2.6458	-2.2229	-2.6167	-2.8292	-2.05	-2.775	-2.4062	276.467	237.179	-0.853	282.824	111.113	149.551	47.859	267.457	220.297	46.647	191.744	206.574	143.181	210.437	91.584	274.170	0.00015613	0.0027492	0.00083913	484.35	9.7053e-06	9.7486e-06	557.38	198.44	7.0196e-06	3.0485e-05	257.47	106.46	84.314	39.892	1.7185e-05	51.258	0.0038028	0.0038923	0.0012494	858.95	4.3503e-05	4.2279e-05	953.83	328.91	4.2104e-05	4.3832e-05	475.84	174.67	140.83	61.132	4.9467e-05	80.959	123.152	142.882	141.251	-14.085	330.376	237.364	-14.354	-8.037	153.493	171.675	-10.870	-5.311	-2.562	2.295	94.076	-1.728	-8191	255	
7827.463	1	1	0	0	0.19528	0.17059	0.046892	0.084452	0.20718	0.2339	0.27467	0.30838	0.23751	0.25394	0.1177	0.33282	0.17544	0.097597	0.18833	0.39467	-1.825	-2.7229	-2.2354	-2.2604	-2.6896	-2.1521	-2.6771	-2.4875	-1.9771	-2.7458	-2.275	-2.425	-2.7104	-2.2917	-2.5146	-2.6604	74.294	221.034	243.822	193.790	164.346	138.128	207.719	258.698	302.556	247.847	-8.565	326.431	229.671	322.655	138.462	235.244	0.00020645	0.0032188	0.00033403	490.32	8.5097e-06	2.8289e-05	549.57	196.34	7.3521e-06	4.8361e-05	254.29	104.52	83.173	39.54	2.2568e-05	50.3	0.0037206	0.0041247	0.0012631	847.68	4.2531e-05	4.5059e-05	944.05	324.4	4.0901e-05	4.6317e-05	469.63	170.85	138.67	62.341	4.8107e-05	79.512	302.461	179.584	320.355	-14.310	15.523	164.920	-15.125	-7.581	218.893	182.355	-10.767	-5.281	-2.503	2.891	105.934	-1.895	-8191	255	
7827.584	1	1	0	0	0.10522	0.097692	0.03819	0.10685	0.063882	0.30227	0.23027	0.11837	0.084204	0.23477	0.31075	0.11015	0.31727	0.20021	0.24519	0.048408	-1.7979	-2.8708	-2.2667	-2.4146	-2.7875	-2.15	-2.6667	-2.6833	-2.1521	-2.7604	-2.4333	-2.3063	-2.9354	-2.2083	-2.5833	-2.7167	26.799	182.221	320.958	212.402	150.058	81.439	301.169	242.507	293.016	10.240	274.862	167.185	311.677	260.666	-18.549	216.498	0.00025935	0.0020316	0.00067362	486.5	2.3022e-05	1.9487e-05	547.24	196.32	1.7911e-05	1.4089e-05	256.98	104.49	83.564	39.614	2.9085e-05	50.977	0.0036507	0.0043381	0.0012309	833.63	4.2138e-05	4.7854e-05	926.64	320.67	4.1108e-05	4.8473e-05	463.63	169.31	139.8	63.796	4.6278e-05	79.151	220.720	145.526	332.431	-14.036	255.961	230.803	-14.093	-7.787	169.064	109.988	-10.246	-5.575	-2.112	2.829	-6.472	-2.007	-8191	255	
7827.680	1	1	0	0	0.097266	0.11528	0.041636	0.10782	0.16922	0.24087	0.11928	0.33423	0.19227	0.21175	0.05289	0.15474	0.28562	0.14503	0.16856	0.051475	-1.4896	-2.5354	-2.2938	-2.3063	-2.8104	-2.1792	-2.6167	-2.9167	-2.0271	-2.8146	-2.2708	-2.3333	-2.8042	-2.3167	-2.3354	-2.8229	12.136	20.220	78.610	76.915	208.216	146.959	27.743	331.918	205.696	222.543	229.423	-1.107	235.559	177.967	74.914	285.796	0.00035402	0.002096	0.00081505	487.15	3.3422e-05	4.9778e-06	554.02	196.24	1.2006e-05	2.7595e-05	256.54	105.6	83.293	40.22	2.5635e-05	51.206	0.0037618	0.0044939	0.0011888	822.78	4.3754e-05	4.9451e-05	917.39	318.32	4.348e-05	4.9191e-05	457.44	167.51	143.56	64.176	4.4698e-05	78.453	216.816	179.048	-13.075	-14.445	196.879	292.435	-14.750	-7.752	213.182	202.116	-10.740	-5.319	-1.774	2.311	62.887	-1.742	-8191	255	
7827.776	1	1	0	0	0.17827	0.18562	0.27704	0.15317	0.094213	0.11398	0.20988	0.17002	0.1529	0.01922	0.25135	0.17446	0.34205	0.28276	0.069427	0.27457	-1.7812	-2.4604	-2.3667	-1.9917	-2.7104	-2.2875	-2.4375	-2.7146	-2	-2.5521	-2.5354	-2.0833	-2.7521	-2.3396	-2.3375	-2.9083	181.613	211.196	44.832	32.434	-10.943	237.728	282.504	190.673	-5.513	3.911	175.480	8.937	-3.399	323.637	242.120	285.006	0.00063171	0.0017521	0.00038805	487.24	2.317e-05	1.1669e-05	554.15	199.4	3.733e-05	2.5835e-05	259.52	106.51	84.607	39.947	2.5137e-05	50.731	0.0040353	0.0044584	0.0011619	818.96	4.6892e-05	4.9723e-05	912.61	318.15	4.7415e-05	4.8679e-05	457.55	168.33	148.91	64.091	4.4263e-05	78.892	197.758	37.730	304.261	-14.068	236.408	-17.284	-15.269	-7.810	245.158	-15.470	-10.520	-5.188	-2.042	2.138	33.719	-1.478	-8191	255	
7827.897	1	1	0	0	0.26129	0.1106	0.098937	0.11408	0.18412	0.064184	0.071031	0.21693	0.29623	0.18531	0.14829	0.13742	0.11643	0.30323	0.40288	0.078013	-1.575	-2.6229	-2.6583	-2.0375	-2.6937	-2.3354	-2.2812	-2.7458	-2.1542	-2.5833	-2.5979	-2.0833	-2.5792	-2.525	-2.1271	-2.7062	312.667	41.226	99.180	145.960	46.514	219.109	157.588	298.682	119.168	101.754	15.472	324.717	89.197	242.163	209.854	0.879	0.00061249	0.00163	0.00039991	483.92	2.1755e-05	2.8447e-05	544.82	194.47	2.4148e-05	2.0776e-05	254.33	103.16	82.797	39.444	1.4406e-05	49.254	0.0043873	0.0044024	0.0011533	824.39	4.976e-05	4.8455e-05	896.85	319.34	4.9826e-05	4.6906e-05	447.14	168.29	149.39	62.247	4.261e-05	78.337	194.604	25.807	53.064	-13.820	230.421	14.193	-14.762	-7.428	230.538	25.446	-10.952	-4.784	-2.002	2.306	-8.255	-0.998	-8191	255	
7827.968	1	1	0	0	0.077044	0.11984	0.10963	0.13982	0.2569	0.21422	0.13264	0.13168	0.10145	0.14367	0.13454	0.041985	0.12326	0.16709	0.17889	0.34947	-1.7604	-2.4208	-2.7458	-2.0375	-2.5708	-2.4313	-2.3208	-2.7438	-2.2687	-2.5229	-2.8729	-2.1937	-2.725	-2.5917	-2.1208	-2.8	76.300	283.668	133.076	204.323	81.135	292.697	299.005	179.247	160.811	-3.606	196.543	77.822	95.138	297.406	-24.953	218.600	0.0003365	0.004086	0.0005943	483.22	2.9919e-06	7.0952e-06	539.15	192.48	2.0048e-05	2.1727e-05	250.22	101.73	81.107	38.386	2.0994e-05	48.262	0.0044694	0.0041889	0.0011109	838.66	5.0009e-05	4.6486e-05	878.67	322.33	5.0109e-05	4.5061e-05	436.66	170.95	146.81	60.599	4.1102e-05	79.362	146.200	318.593	-15.575	-13.319	44.396	90.105	-14.278	-7.343	21.759	53.464	-10.743	-4.743	-2.362	2.519	85.246	-1.308	-8191	255	
7828.064	1	1	0	0	0.10987	0.19514	0.11212	0.19551	0.11062	0.1825	0.11487	0.24278	0.10089	0.10623	0.083318	0.34101	0.29887	0.22542	0.074298	0.10565	-1.9104	-2.2375	-2.5958	-2.0792	-2.7208	-2.5104	-2.1875	-2.875	-2.4479	-2.3875	-2.8125	-2.2333	-2.5604	-2.7729	-2.1125	-2.9625	185.138	56.862	-16.406	103.530	303.441	20.861	241.089	255.802	251.333	73.966	323.675	303.877	41.401	331.180	154.884	308.780	0.0003665	0.0023646	0.00038684	484.22	2.2207e-05	1.6828e-05	542.35	190.5	2.832e-05	1.5027e-05	248.83	102.29	81.136	38.766	1.696e-05	48.991	0.0043778	0.0040072	0.001072	857.66	4.7933e-05	4.4972e-05	870.64	327.37	4.8444e-05	4.3749e-05	434.52	176.25	145.12	60.466	4.1892e-05	82.11	298.124	13.528	289.948	-13.751	-1.789	326.961	-14.549	-7.166	110.798	32.215	-10.259	-4.837	-2.412	2.462	128.080	-1.106	-8191	255	
7828.159	1	1	0	0	0.20552	0.25693	0.26844	0.12117	0.25179	0.21314	0.056252	0.42073	0.26715	0.10071	0.033327	0.27355	0.084649	0.23926	0.11023	0.098033	-1.9042	-2.1437	-2.8438	-2.2938	-2.4583	-2.6042	-2.3375	-2.8271	-2.4021	-2.2271	-2.5854	-2.2854	-2.525	-2.6083	-2.2021	-2.6021	139.526	201.342	319.504	278.809	7.669	25.185	314.480	278.696	109.197	170.997	275.757	-1.326	69.320	-13.565	100.025	284.755	0.00010074	0.0017568	0.0010422	485.41	7.5409e-06	2.22e-05	542.02	195.3	1.1471e-05	7.4307e-06	255.68	105.1	83.528	39.333	4.2719e-05	49.623	0.004327	0.0039852	0.0011112	891.19	4.7681e-05	4.5077e-05	898.59	340.56	4.8441e-05	4.3815e-05	454.71	184.04	146.45	61.19	4.5711e-05	84.7	240.699	15.323	133.245	-13.986	78.050	55.602	-14.485	-7.263	57.268	58.708	-9.887	-5.099	-2.708	2.226	197.831	-1.343	-8191	255	
7828.279	1	1	0	0	0.26812	0.071425	0.11631	0.13686	0.11134	0.051195	0.046845	0.20909	0.12148	0.3925	0.28031	0.043445	0.23249	0.32008	0.21044	0.094063	-1.825	-2.2438	-2.6604	-2.2333	-2.25	-2.5854	-1.9438	-2.6104	-2.3521	-2.2542	-2.7979	-2.175	-2.3396	-2.675	-2.1771	-2.7875	0.890	229.980	310.335	166.088	42.647	97.693	5.461	17.332	164.757	10.028	280.776	98.095	-16.763	325.030	7.895	238.141	2.8272e-05	0.0019498	0.00044781	484.81	1.393e-05	1.0474e-05	541.02	197.18	1.7307e-05	9.4266e-06	255.25	105.7	85.268	40.245	1.6375e-05	50.909	0.0043113	0.003983	0.0012154	915.42	4.7595e-05	4.5566e-05	940.24	348.31	4.8517e-05	4.37e-05	476.01	185.78	147.09	61.93	4.9804e-05	85.118	-24.781	60.665	135.580	-13.661	180.747	9.141	-14.146	-7.897	149.633	230.914	-9.663	-4.919	-2.290	2.456	143.483	-2.079	-8191	255	
7828.376	1	1	0	0	0.27423	0.046682	0.10587	0.35689	0.15473	0.078956	0.090272	0.11821	0.24574	0.36708	0.10242	0.22299	0.21413	0.11033	0.15811	0.091347	-2	-2.0333	-2.7771	-2.225	-2.2812	-2.6208	-2.2354	-2.5458	-2.6542	-2.1729	-2.8792	-2.2104	-2.3208	-2.8812	-2.2021	-2.5354	7.234	-9.240	103.703	-21.461	293.604	10.240	313.372	49.086	15.495	73.549	252.433	22.721	236.119	332.188	304.975	282.178	0.00012741	0.0012485	0.0010096	489.69	2.7093e-05	1.1046e-05	547.75	200.32	8.7077e-06	4.8629e-06	257.45	107.59	84.897	40.453	3.0962e-05	51.225	0.004264	0.0039674	0.0012957	911.74	4.6666e-05	4.518e-05	968.87	346.34	4.79e-05	4.436e-05	492.76	185.64	147.33	63.148	5.3125e-05	85.059	159.922	129.782	125.547	-14.086	21.157	260.935	-14.246	-7.915	115.365	87.166	-10.231	-5.113	-2.511	2.375	184.564	-2.238	-8191	255	
7828.472	1	1	0	0	0.28349	0.027432	0.057637	0.16897	0.063681	0.09327	0.19159	0.040238	0.21673	0.13351	0.13606	0.12835	0.1384	0.044998	0.22087	0.083103	-2.1167	-2.1271	-2.7417	-2.2417	-2.1396	-2.8167	-2.2583	-2.4688	-2.8021	-2.2833	-2.9292	-2.4292	-2.4333	-2.7583	-2.2854	-2.3833	237.497	324.766	16.314	11.611	322.427	226.471	62.147	315.494	11.866	267.401	241.252	298.306	82.794	71.848	67.091	271.177	0.00027508	0.0026634	0.0006513	493.53	3.8742e-06	3.3635e-05	555.34	202.32	1.4967e-05	3.8519e-05	264.07	108.9	86.511	41.219	3.1823e-05	52.329	0.0042461	0.004158	0.0013685	905.22	4.5907e-05	4.7567e-05	995.61	344.22	4.6951e-05	4.7302e-05	502.87	185.14	146.65	65.348	5.4365e-05	84.562	120.343	182.330	124.499	-14.069	49.046	186.050	-14.394	-8.118	20.762	190.265	-10.133	-5.582	-2.459	2.863	73.327	-2.069	-8191	255	
7828.543	1	1	0	0	0.12896	0.18182	0.053737	0.17663	0.13401	0.16967	0.30816	0.11622	0.14825	0.18991	0.21729	0.084575	0.37555	0.11536	0.10592	0.22502	-2.4375	-1.9292	-2.6667	-2.4292	-2.0042	-2.6958	-2.3	-2.4813	-2.7729	-2.0208	-2.3812	-2.6542	-2.0021	-2.9958	-2.3063	-2.2146	320.834	255.047	13.827	250.410	210.955	76.227	221.797	58.615	209.432	-15.043	316.320	4.579	312.246	-6.362	58.661	-25.815	0.00010972	0.0025914	0.00043586	495.15	1.4833e-05	2.9787e-05	556.86	202.22	1.5004e-05	3.749e-05	265.22	107.87	86.347	41.182	7.0254e-06	52.257	0.0041483	0.0044799	0.0013722	896.45	4.4907e-05	5.0697e-05	996.55	340.74	4.6178e-05	5.0704e-05	500	183.15	145.55	66.818	5.307e-05	83.508	106.817	115.817	65.796	-13.539	20.842	194.166	-14.161	-7.967	90.884	157.060	-10.560	-5.353	-2.521	2.572	13.421	-1.778	-8191	255	
7828.664	1	1	0	0	0.21531	0.098402	0.23737	0.16546	0.19325	0.16216	0.24177	0.018754	0.32148	0.1017	0.085228	0.21644	0.13204	0.04473	0.11646	0.16858	-2.3583	-2.0333	-2.4896	-2.7042	-2.0438	-2.6188	-2.4729	-2.3208	-2.8563	-2.275	-2.6125	-2.6042	-2.0854	-2.8229	-2.2271	-2.1208	48.056	173.303	43.686	206.757	73.966	257.552	188.787	278.187	311.210	325.566	281.595	31.533	210.969	114.818	45.228	62.211	8.6223e-05	0.0022072	0.00077488	493.26	4.4424e-05	1.5569e-05	561.76	205.65	2.5377e-05	3.9434e-05	264.96	109.07	87.656	41.372	3.4933e-05	52.782	0.0040903	0.0047325	0.0013164	882	4.4735e-05	5.2715e-05	978.54	336.19	4.6068e-05	5.2717e-05	485.49	180.43	147.21	67.707	5.0574e-05	82.219	215.106	145.422	-2.108	-13.798	207.958	238.001	-14.647	-7.920	254.469	211.452	-10.458	-4.924	-2.212	2.613	60.790	-2.066	-8191	255	
7828.760	1	1	0	0	0.13098	0.12315	0.048231	0.07512	0.090319	0.2066	0.17297	0.36089	0.19526	0.076206	0.033962	0.12297	0.10413	0.13176	0.072536	0.22959	-2.3625	-2.2021	-2.3937	-2.8	-2.1562	-2.5896	-2.425	-2.1479	-2.7771	-2.2042	-2.4437	-2.6729	-2.05	-2.6417	-2.5083	-2.1833	328.699	172.617	32.906	97.059	113.066	260.362	-23.678	302.898	72.795	129.872	277.225	331.510	-8.299	229.350	188.064	266.114	0.00047787	0.0011735	0.00046812	491.36	3.5481e-05	9.5125e-06	553.26	203.53	2.1105e-05	2.0239e-05	261.01	108.36	85.656	41.205	3.7908e-06	52.183	0.0041913	0.0048563	0.0012519	867.87	4.6512e-05	5.3169e-05	955.03	330.14	4.8082e-05	5.3106e-05	473.3	177.08	150.23	67.16	4.8684e-05	80.623	184.635	42.749	2.128	-13.837	204.931	260.089	-14.375	-7.715	238.931	129.883	-10.143	-5.017	-1.986	2.185	157.537	-1.845	-8191	255	
7828.856	1	1	0	0	0.1497	0.1579	0.14532	0.13467	0.16641	0.13929	0.22517	0.017401	0.083299	0.10193	0.11469	0.15756	0.10816	0.20913	0.012553	0.26522	-2.4354	-2.2062	-2.1646	-2.7667	-2.0458	-2.6625	-2.4437	-2.2292	-2.7167	-2.2854	-2.4188	-2.9062	-1.9625	-2.65	-2.5208	-2.2396	33.616	67.503	262.743	313.982	308.169	140.711	113.952	89.668	135.950	300.726	316.156	245.351	266.000	311.394	59.341	239.665	0.00078125	0.0025741	0.00011282	492	4.72e-05	2.8055e-05	550.91	201.24	2.8695e-05	2.4322e-05	260.69	107.19	86.016	40.885	3.843e-06	51.526	0.004401	0.0047845	0.0012054	853.57	4.9254e-05	5.1597e-05	938.54	324.75	5.0269e-05	5.1354e-05	464.33	174.71	153.52	65.782	4.7254e-05	80.288	191.713	72.971	225.770	-13.516	212.254	26.249	-14.640	-7.918	244.650	18.668	-10.239	-4.952	-2.033	2.190	89.947	-1.558	-8191	255	
7828.977	1	1	0	0	0.15694	0.19495	0.030587	0.18217	0.070492	0.26037	0.054391	0.27237	0.046379	0.038125	0.10521	0.083073	0.20666	0.2976	0.065072	0.18079	-2.3208	-2.1813	-2.2667	-2.6208	-2.1937	-2.5	-2.8208	-1.9958	-2.7438	-2.2375	-2.1208	-2.7333	-2.2167	-2.5938	-2.6979	-2.025	112.887	290.355	2.413	253.914	276.221	116.723	175.669	300.765	23.107	305.479	325.246	98.327	56.751	276.514	112.376	228.291	0.00045235	0.002563	0.00027734	487.61	2.6467e-05	2.4844e-05	548.04	200.03	1.1768e-05	1.6544e-05	259.26	106	85.121	40.561	2.4208e-05	50.958	0.0046015	0.0046167	0.0011633	854.16	5.1815e-05	4.95e-05	927.21	325.83	5.2142e-05	4.9288e-05	454.43	175.84	155.16	64.182	4.5693e-05	81.331	180.811	36.646	323.230	-13.208	241.999	47.841	-14.509	-7.198	129.627	43.301	-10.779	-4.624	-2.258	2.111	59.974	-1.369	-8191	255	
7829.071	1	1	0	0	0.35068	0.093522	0.12763	0.33706	0.15929	0.17827	0.048576	0.24803	0.31327	0.06	0.28749	0.20658	0.17622	0.11355	0.16148	0.29047	-2.3396	-2.5333	-2.0083	-2.7271	-2.2812	-2.2917	-2.775	-2.2396	-2.8083	-2.3583	-2.2479	-2.8521	-2.2229	-2.2812	-2.8271	-1.9625	305.786	134.373	97.214	290.453	159.383	108.937	-16.074	266.293	-24.844	70.241	174.314	28.015	-10.579	152.560	-18.995	280.205	0.00012684	0.0018226	0.00032831	483.97	1.7873e-05	3.3311e-05	551.33	197.38	1.3259e-05	3.1216e-06	257.64	105.67	83.922	39.9	1.3709e-05	50.043	0.0046768	0.0044354	0.0011213	871.46	5.2422e-05	4.7695e-05	915.34	333.89	5.2163e-05	4.8073e-05	447.04	180.01	154.2	62.833	4.479e-05	82.89	-7.201	326.349	-15.751	-13.080	69.124	45.636	-14.766	-7.091	75.172	279.855	-10.004	-4.074	-2.573	2.266	162.291	-0.731	-8191	255	
7829.167	1	1	0	0	0.058327	0.18897	0.26658	0.14249	0.13324	0.13951	0.15695	0.09467	0.20402	0.11238	0.35189	0.45676	0.11741	0.094937	0.013371	0.15709	-2.1479	-2.4708	-1.9125	-2.7396	-2.1604	-2.475	-2.8667	-2.1292	-2.7417	-2.6083	-2.2083	-3	-2.3125	-2.35	-2.6562	-2.2146	288.923	152.473	159.387	283.383	221.298	79.220	54.447	278.510	262.709	140.681	310.553	259.623	170.818	221.289	127.049	277.431	0.00015916	0.0012619	0.00014302	484.41	1.4437e-05	3.072e-05	540.21	194.67	2.394e-05	6.4268e-06	250.37	103.19	82.832	39.245	1.4033e-05	49.596	0.0045948	0.0043383	0.0010988	894.52	5.1203e-05	4.6064e-05	904.53	339.97	5.0351e-05	4.684e-05	442.15	182.34	150.49	61.512	4.4932e-05	84.144	66.099	-5.153	274.370	-13.432	96.128	38.011	-14.243	-6.548	81.510	327.794	-9.855	-4.750	-2.660	2.282	155.213	-1.266	-8191	255	
7829.264	1	1	0	0	0.1631	0.2443	0.27863	0.089219	0.23455	0.27054	0.1458	0.11113	0.32412	0.11357	0.10275	0.057818	0.25491	0.19131	0.16166	0.15914	-2.1937	-2.5938	-1.9937	-2.575	-2.2062	-2.2375	-2.6708	-2.2938	-2.4688	-2.8167	-1.9271	-2.8354	-2.3958	-2.2708	-2.7167	-2.1854	15.825	151.959	49.324	314.361	17.912	242.107	6.347	51.635	3.591	-7.351	253.073	160.274	257.712	332.361	34.675	230.518	0.00028383	0.0016451	0.00079241	487.03	2.1099e-05	2.406e-05	532.37	191.93	5.7895e-06	1.7742e-05	248.52	103.52	82.464	39.059	3.1347e-05	49.734	0.0044142	0.0042231	0.0011262	910.14	4.9593e-05	4.457e-05	913.55	345.02	4.8224e-05	4.5482e-05	450.93	183.75	147.73	60.544	4.7227e-05	84.756	58.534	326.342	133.378	-13.528	11.767	60.169	-13.828	-6.864	40.199	62.607	-9.957	-4.745	-2.183	2.010	208.040	-1.825	-8191	255	
7829.360	1	1	0	0	0.1355	0.16373	0.1593	0.18077	0.094222	0.10477	0.1897	0.087355	0.25942	0.10177	0.14956	0.015853	0.094238	0.20244	0.30283	0.25278	-2.0146	-2.5792	-2.0771	-2.7542	-2.4229	-2.2667	-2.8	-2.3833	-2.1937	-2.5938	-2.2562	-2.6604	-2.5687	-2.2021	-2.6646	-2.3917	217.090	73.640	-8.826	303.389	45.598	25.035	235.928	96.177	93.126	60.855	310.015	63.377	194.815	317.375	216.436	180.414	0.00026596	0.0015053	0.00032847	485.12	2.2104e-05	3.1973e-05	544.35	196.1	1.4528e-05	1.1661e-05	251.19	104.09	82.836	39.198	5.0967e-05	50.35	0.0042501	0.0041155	0.0012043	911.79	4.8158e-05	4.3364e-05	938.64	344.62	4.6776e-05	4.4359e-05	467.41	182.44	146.34	60.276	5.0216e-05	84.45	9.541	-15.999	138.268	-13.459	308.692	82.085	-14.378	-7.832	56.967	241.335	-9.482	-5.111	-2.259	2.455	225.538	-1.984	-8191	255	
7829.456	1	1	0	0	0.25099	0.07825	0.055085	0.14183	0.009226	0.068053	0.1769	0.14992	0.24387	0.26541	0.32423	0.12373	0.23432	0.070859	0.085807	0.24549	-1.9333	-2.5042	-2.3063	-2.6667	-2.4375	-2.3542	-2.8167	-2.3104	-2.3375	-2.7188	-2.0938	-2.6521	-2.4979	-2.2396	-2.8104	-2.4854	33.567	71.922	234.253	15.444	132.137	285.241	139.149	286.395	259.362	83.778	224.572	255.641	287.475	232.839	84.405	232.663	0.00023525	0.00021568	0.001124	489.03	3.146e-06	7.5037e-06	544.22	196.21	8.7082e-06	1.0705e-05	255.41	104.25	83.226	39.375	1.6156e-05	50.15	0.0041344	0.0040658	0.0012853	897.26	4.7518e-05	4.3371e-05	967.1	341.44	4.5473e-05	4.4639e-05	482.57	179.69	144.82	60.926	5.1935e-05	83.122	143.207	139.148	171.111	-14.348	275.050	258.055	-14.108	-7.886	176.517	112.458	-9.878	-5.717	-2.996	2.479	176.582	-1.871	-8191	255	
7829.577	1	1	0	0	0.14381	0.21912	0.24355	0.16323	0.14967	0.073807	0.06685	0.072926	0.26782	0.10554	0.3135	0.079335	0.15297	0.076378	0.24521	0.35219	-1.9667	-2.7604	-2.1375	-2.6521	-2.7042	-2.125	-2.8688	-2.5646	-2.0812	-2.8312	-2.225	-2.4562	-2.6958	-2.1	-2.7875	-2.4917	135.252	34.404	4.925	304.895	64.066	200.556	120.434	20.494	172.670	119.486	289.738	31.891	107.191	23.110	247.867	308.249	0.00023199	0.002969	0.00046478	492.47	1.5773e-05	3.3642e-05	548.1	195.48	4.1513e-06	4.1181e-05	251.34	104.59	82.964	39.743	2.7267e-05	51.025	0.0039943	0.0041503	0.0013323	878.11	4.5547e-05	4.5277e-05	970.44	334.24	4.379e-05	4.6389e-05	482.62	175.68	142.45	62.308	5.2291e-05	81.9	-22.664	172.655	225.435	-14.318	106.231	210.645	-14.328	-8.165	120.078	173.773	-10.220	-5.197	-2.930	2.445	139.015	-2.389	-8191	255	
7829.673	1	1	0	0	0.29041	0.22106	0.10358	0.12617	0.16746	0.11759	0.13999	0.080025	0.27748	0.2353	0.26818	0.46049	0.19068	0.12562	0.075713	0.25057	-1.7583	-2.6979	-2.4146	-2.5396	-2.85	-2.0687	-2.6833	-2.5833	-2.1875	-2.8292	-2.2375	-2.275	-2.6792	-1.9979	-2.7167	-2.6396	311.212	213.152	-19.319	309.061	298.220	70.873	244.444	241.267	44.126	105.984	184.546	265.540	36.222	-20.728	268.285	43.271	0.00045679	0.0032571	0.00011963	494.58	8.4341e-06	3.9228e-05	553.07	198.53	1.9751e-05	6.3048e-05	256.68	106.58	83.816	39.819	2.789e-05	50.848	0.0038913	0.0044203	0.0013321	866.58	4.471e-05	4.8712e-05	966.5	331.69	4.3118e-05	4.9703e-05	482.51	174.52	141.98	64.241	5.0768e-05	81.276	215.424	157.655	259.338	-14.909	279.305	180.247	-15.327	-8.238	39.659	197.653	-11.062	-6.356	-3.080	1.588	22.386	-2.172	-8191	255	
7829.769	1	1	0	0	0.15056	0.13869	0.19463	0.14228	0.055984	0.13919	0.31158	0.11948	0.18714	0.066566	0.14316	0.20891	0.37847	0.18976	0.01444	0.12848	-1.6375	-2.6625	-2.3333	-2.3063	-2.825	-2.1417	-2.5021	-2.5729	-2.1562	-2.6958	-2.45	-2.3854	-2.825	-2.2125	-2.5687	-2.6458	250.620	40.606	163.322	278.435	242.054	115.956	193.569	297.819	103.317	27.290	73.505	300.198	292.496	310.565	138.240	320.409	0.00035062	0.0033608	3.2423e-05	491.79	1.3085e-05	2.416e-05	556.3	197.4	2.3487e-05	1.782e-05	258.31	106.83	83.021	40.132	2.2236e-05	51.184	0.0038916	0.004671	0.0013014	856.56	4.5141e-05	5.1802e-05	956.27	330.93	4.4588e-05	5.2648e-05	479.65	173.63	145.01	65.897	4.9561e-05	81.11	178.427	137.469	22.902	-14.434	179.138	160.000	-15.338	-8.251	245.771	226.799	-11.403	-5.940	-2.471	1.769	75.435	-2.614	-8191	255	
7829.841	1	1	0	0	0.08917	0.19223	0.041394	0.25824	0.0695	0.088115	0.033524	0.1304	0.1589	0.065174	0.050276	0.16009	0.22205	0.12897	0.10888	0.16862	-1.7083	-2.7333	-2.4417	-2.3688	-2.7896	-2.3083	-2.5875	-2.7479	-2.0417	-2.775	-2.5417	-2.2625	-2.7646	-2.1292	-2.1854	-2.5542	-17.954	99.831	322.032	282.314	55.796	102.603	-14.402	92.429	57.354	151.353	330.019	123.929	28.121	-4.270	128.345	166.177	0.00065643	0.00060658	0.00017679	493.12	2.5285e-05	7.6582e-06	562.23	202.03	3.5564e-05	6.1927e-06	262.96	107.45	84.57	40.367	1.6326e-05	51.125	0.0041105	0.004842	0.001265	848.62	4.7296e-05	5.2968e-05	943.34	326.8	4.7258e-05	5.2503e-05	471	171.5	148.79	65.576	4.735e-05	79.767	206.906	117.814	310.513	-15.257	244.866	219.341	-15.816	-8.564	227.782	30.171	-11.476	-6.262	-2.570	1.494	104.769	-2.589	-8191	255	
7829.961	1	1	0	0	0.062783	0.13867	0.16703	0.10041	0.21985	0.035526	0.050601	0.38527	0.14731	0.060195	0.17889	0.30247	0.26927	0.30899	0.13502	0.25612	-1.6187	-2.5917	-2.6188	-2.2188	-2.8021	-2.3187	-2.5333	-2.7021	-2.0563	-2.5417	-2.5583	-2.2792	-2.8167	-2.3771	-2.2542	-2.8667	190.904	70.624	180.556	174.564	53.778	3.697	314.180	98.417	266.877	322.251	215.925	330.958	187.230	46.292	241.904	310.765	0.00081595	0.0013569	0.00056247	496.07	3.2521e-05	1.7002e-05	555.78	197.12	1.8655e-05	2.8261e-05	255.61	105.02	83.497	39.581	6.5652e-06	49.748	0.0043665	0.0047308	0.0012306	837.92	5.0014e-05	5.1808e-05	922.32	320.76	4.9909e-05	5.0363e-05	458.43	168.14	150.01	63.721	4.537e-05	78.343	204.560	66.533	32.413	-15.068	229.923	23.573	-15.144	-8.693	202.400	6.509	-11.690	-5.903	-2.779	1.636	58.500	-2.123	-8191	255	
7830.057	1	1	0	0	0.28114	0.19153	0.080795	0.15252	0.065015	0.26837	0.062675	0.23579	0.3592	0.097204	0.31076	0.33556	0.069763	0.1241	0.20908	0.087125	-1.7479	-2.4771	-2.4604	-2.1063	-2.4708	-2.2979	-2.2646	-2.7208	-2.225	-2.5583	-2.8729	-2.0542	-3.0417	-2.5042	-2.2729	-2.9167	-7.337	247.451	32.848	238.325	209.697	97.811	259.777	256.761	287.753	263.937	303.487	-9.460	193.891	53.120	140.223	235.374	0.00039937	0.0030553	0.0006854	489.13	2.2974e-05	1.6136e-05	551.2	196.16	1.8563e-05	3.3511e-05	253.82	104.56	83.009	39.884	1.1297e-05	49.912	0.0045421	0.0044939	0.0011899	838.41	5.1852e-05	4.9885e-05	907.72	323.4	5.1991e-05	4.8458e-05	453.55	171.65	152.64	63.144	4.4462e-05	80.471	201.712	-9.204	273.100	-14.385	233.399	6.228	-15.342	-8.273	144.768	328.282	-11.508	-5.627	-2.873	1.365	89.755	-1.778	-8191	255	
7830.152	1	1	0	0	0.0086112	0.40594	0.14273	0.19618	0.12294	0.17338	0.10276	0.22144	0.32769	0.28091	0.094726	0.21397	0.016261	0.13218	0.066899	0.216	-1.7417	-2.4813	-2.8417	-2.1562	-2.5458	-2.4208	-2.3604	-2.8417	-2.1708	-2.3854	-2.6667	-2.3021	-2.7833	-2.65	-2.1167	-2.8646	46.541	140.913	76.316	30.037	194.324	43.023	223.497	246.829	315.976	59.761	154.956	294.640	24.641	328.437	64.953	18.773	0.0001657	0.0016486	0.00037753	488.28	2.4943e-05	2.1295e-05	554.3	196.2	1.1294e-05	1.5087e-05	255.69	104.84	82.883	39.91	3.6916e-06	50.15	0.0047019	0.0043687	0.0011661	864.48	5.2585e-05	4.8967e-05	904.05	334.43	5.3035e-05	4.7705e-05	452.74	179.1	153.19	63.374	4.4547e-05	83.63	264.949	300.380	86.615	-14.124	88.762	39.388	-15.421	-7.888	60.178	40.781	-10.908	-5.266	-3.292	1.713	28.919	-1.613	-8191	255	
7830.248	1	1	0	0	0.087994	0.26086	0.15418	0.42641	0.072637	0.15511	0.082791	0.26779	0.068752	0.13627	0.20202	0.075482	0.14996	0.26327	0.12907	0.21046	-1.8271	-2.2229	-2.6417	-2.1729	-2.6667	-2.6292	-2.1854	-2.9	-2.4	-2.2333	-2.8438	-2.1208	-2.6208	-2.6188	-2.1792	-2.65	72.142	78.252	172.644	-14.950	238.294	61.427	138.851	-8.291	31.236	80.333	68.627	226.127	38.558	299.840	269.723	181.006	0.00041239	0.0018737	0.00031007	493.92	1.8856e-05	2.2116e-06	553.84	197.43	8.0249e-06	2.9113e-05	258	105.75	84.256	39.912	2.0385e-05	50.675	0.0047213	0.0043158	0.0011594	898.66	5.1472e-05	4.8174e-05	904.67	343.4	5.1548e-05	4.5982e-05	450.6	182.41	149.02	62.263	4.4117e-05	84.516	114.021	-21.419	97.237	-14.143	79.994	-13.701	-15.574	-7.462	290.401	331.037	-10.300	-5.483	-3.206	1.239	226.800	-2.862	-8191	255	
7830.344	1	1	0	0	0.15948	0.23565	0.20164	0.13676	0.073158	0.28569	0.17325	0.2016	0.13871	0.11536	0.11533	0.08245	0.15882	0.18602	0.23421	0.17023	-2.0667	-2.1792	-2.7354	-2.2542	-2.5812	-2.6646	-2.0208	-2.6042	-2.3854	-2.2146	-2.7938	-2.2521	-2.6292	-2.7438	-2.0312	-2.8625	31.135	203.343	186.537	254.121	143.371	85.938	-21.360	207.053	260.615	260.831	161.424	-4.592	314.594	254.477	93.536	277.542	0.00026049	0.00094054	0.00048894	496.82	3.5942e-05	2.0966e-05	554.79	198.21	1.0298e-05	1.3024e-05	256.98	105.76	84.026	39.95	5.3858e-05	50.342	0.0044702	0.0041045	0.0011597	909.01	4.8453e-05	4.594e-05	910.69	343.7	4.8392e-05	4.3448e-05	453.19	181.8	144.15	60.562	4.4967e-05	83.055	313.285	14.784	101.324	-14.237	48.432	-2.032	-15.167	-7.999	-7.968	65.328	-10.557	-5.939	-3.324	1.724	173.462	-2.399	-8191	255	
7830.440	1	1	0	0	0.16514	0.26148	0.18155	0.28384	0.093267	0.20931	0.07355	0.14131	0.11185	0.13141	0.37673	0.23821	0.0641	0.2545	0.23254	0.12931	-2.1021	-2.1542	-2.7729	-2.2	-2.4042	-2.6333	-2.2292	-2.6146	-2.6354	-2.1437	-2.8729	-2.3646	-2.3792	-2.8125	-2.075	-2.7521	45.987	210.608	193.816	40.096	216.676	234.943	68.839	286.009	-11.608	5.143	234.472	-1.312	166.607	3.936	15.023	235.976	0.00027083	0.0019685	0.00089036	491.41	6.5453e-06	2.4174e-05	550.3	200.11	3.2281e-06	1.2175e-05	256.73	105.74	84.351	39.949	3.4761e-05	50.643	0.0041797	0.0038308	0.0011817	893.35	4.5275e-05	4.29e-05	919.94	337.02	4.599e-05	4.1266e-05	461.95	179.26	141.83	59.913	4.7397e-05	81.838	319.586	25.183	161.833	-14.344	38.357	2.411	-15.117	-8.868	2.614	12.324	-10.500	-6.259	-3.514	1.457	197.317	-2.895	-8191	255	
7830.536	1	1	0	0	0.17841	0.15827	0.098948	0.2284	0.2957	0.04926	0.050094	0.20696	0.16064	0.20178	0.24376	0.0051595	0.37065	0.23301	0.18901	0.14291	-2.2438	-2.0521	-2.6458	-2.3479	-2.3896	-2.7438	-2.1542	-2.5083	-2.7146	-2.2271	-2.8438	-2.3854	-2.2604	-2.675	-2.1688	-2.4521	58.531	-6.402	68.427	16.030	257.049	91.667	326.200	322.592	214.788	254.610	230.951	274.307	265.359	296.012	177.343	292.242	0.00012044	0.00078447	0.00035759	494.94	1.0726e-05	1.2539e-05	556.51	200.79	1.181e-05	1.0745e-05	262	107.27	85.318	40.579	2.7989e-05	51.186	0.0040555	0.0037528	0.0012367	881.71	4.3645e-05	4.2529e-05	943.96	331.23	4.4739e-05	4.1465e-05	471.64	177.27	140.53	60.754	4.9639e-05	80.875	137.134	126.190	130.030	-14.962	115.068	211.767	-15.562	-8.529	62.089	165.892	-11.048	-5.973	-3.722	1.754	177.169	-2.755	-8191	255	
7830.657	1	1	0	0	0.18099	0.23337	0.31288	0.11288	0.23602	0.23306	0.2352	0.052819	0.072304	0.21946	0.16063	0.013927	0.011742	0.1304	0.31447	0.13793	-2.1458	-1.8917	-2.5687	-2.3521	-2.2396	-2.6521	-2.1917	-2.4062	-2.7271	-1.9188	-2.6708	-2.5917	-2.0104	-2.7375	-2.3479	-2.4333	106.178	62.817	149.373	233.144	121.544	183.740	288.539	75.886	2.535	313.139	284.206	325.206	3.968	68.171	102.025	41.411	0.00014464	0.0032398	0.00067497	498.4	1.5636e-05	1.5898e-05	564.68	204.58	1.6742e-05	3.7948e-05	267.3	109.1	86.12	41.19	2.59e-05	52.905	0.0039377	0.0039058	0.0012683	867.63	4.2094e-05	4.3936e-05	953.41	325.84	4.2618e-05	4.3262e-05	474.49	175.41	138.95	62.394	4.868e-05	80.276	89.013	151.610	273.510	-14.875	88.871	132.045	-15.274	-8.562	34.199	183.186	-11.311	-6.338	-3.503	1.982	178.009	-2.449	-8191	255	
7830.753	1	1	0	0	0.44765	0.10267	0.027111	0.22788	0.1511	0.1895	0.048235	0.19587	0.079196	0.12453	0.10114	0.31447	0.19863	0.22983	0.13639	0.34885	-2.3667	-2.1292	-2.4729	-2.4792	-2.1688	-2.7417	-2.1396	-2.2979	-2.7771	-2.0083	-2.7583	-2.5167	-2.1437	-2.8271	-2.2042	-2.4104	169.317	152.809	209.131	318.439	28.486	301.358	247.888	141.883	30.410	59.089	160.879	-18.672	323.670	18.802	122.687	-7.604	0.00018641	0.0028452	0.00058772	500.04	8.1414e-06	2.3407e-05	571.85	204.91	1.8399e-05	4.072e-05	264.32	110.43	87.538	41.96	1.2447e-05	53.233	0.0037139	0.0040546	0.0012246	853.05	4.025e-05	4.5848e-05	946.02	323.78	4.1237e-05	4.5528e-05	466.54	173.87	138.19	63.725	4.6942e-05	79.269	228.864	151.699	11.105	-14.912	248.798	231.459	-15.476	-8.777	187.745	208.610	-11.492	-6.066	-3.646	1.319	38.033	-2.720	-8191	255	
7830.849	1	1	0	0	0.21256	0.25897	0.061226	0.015746	0.078167	0.20688	0.15154	0.11454	0.067629	0.1309	0.34028	0.25486	0.14832	0.24198	0.2297	0.12065	-2.2146	-1.9312	-2.6042	-2.5021	-2.05	-2.6333	-2.2792	-2.3583	-2.7708	-2.3604	-2.6063	-2.5021	-2.0167	-2.8917	-2.45	-2.2604	300.753	138.376	164.992	287.952	116.941	270.863	304.814	251.475	329.305	226.202	260.324	242.540	53.967	325.185	64.255	-20.381	0.00040567	0.0015142	0.00021	498.9	7.249e-06	1.8121e-05	566.66	207.27	5.4349e-06	1.9081e-05	265.83	111.05	88.563	42.603	1.5176e-05	53.692	0.0036492	0.0042138	0.001154	832.4	3.9517e-05	4.6741e-05	920.42	317.55	4.0916e-05	4.6805e-05	453.16	170.95	140.09	64.641	4.4307e-05	78.086	187.171	143.459	88.272	-14.601	234.964	242.976	-15.365	-8.913	322.339	143.043	-11.510	-6.035	-3.108	1.620	123.775	-2.734	-8191	255	
7830.945	1	1	0	0	0.27246	0.32725	0.097207	0.22936	0.16038	0.20731	0.23061	0.20831	0.088466	0.20668	0.11951	0.23997	0.17157	0.31364	0.12861	0.066846	-2.4479	-2.1854	-2.2562	-2.8083	-2.1292	-2.8667	-2.6375	-2.2	-2.6042	-2.1333	-2.5312	-2.7583	-2.0958	-2.6875	-2.5146	-2.1521	282.398	84.873	94.785	282.269	301.226	331.968	236.211	204.051	179.408	76.093	233.039	13.290	310.467	295.240	10.791	175.960	0.000525	0.0014138	0.00063473	502.6	3.602e-05	4.4187e-06	567.76	206.18	1.7046e-05	1.314e-05	269.01	111.18	88.629	42.401	1.2896e-05	53.98	0.0037167	0.0042372	0.0010889	815.82	4.0816e-05	4.6118e-05	900.37	310.92	4.1747e-05	4.5281e-05	440.91	166.41	140.77	63.322	4.1449e-05	76.474	187.834	48.036	303.083	-14.809	224.104	319.067	-15.437	-8.813	209.198	299.531	-11.031	-5.842	-2.975	1.164	286.580	-2.762	-8191	255	
7831.064	1	1	0	0	0.18011	0.14737	0.11762	0.19899	0.083832	0.14521	0.078558	0.28676	0.2415	0.15045	0.23421	0.18917	0.20699	0.32838	0.19823	0.26001	-2.5729	-2.1667	-2.2958	-2.7646	-2.1063	-2.55	-2.5896	-2.1188	-2.6937	-2.1854	-2.3146	-2.7479	-2.0646	-2.4292	-2.6	-2.2687	171.877	194.799	265.603	60.995	79.318	83.432	226.372	217.606	-23.592	228.483	77.048	245.361	265.217	17.822	-4.830	319.260	0.00046349	0.0018272	0.00021112	500.35	1.7681e-05	1.7695e-05	569.16	206.38	2.4038e-05	1.5413e-05	268.9	112.9	88.871	42.967	1.0981e-05	53.977	0.0037746	0.0040326	0.0010213	797.86	4.2129e-05	4.3413e-05	885.2	306.68	4.3128e-05	4.3463e-05	434.9	167.01	144.66	62.637	4.0401e-05	77.11	189.387	2.919	299.489	-14.905	194.133	-14.944	-15.005	-8.505	243.345	-14.073	-11.445	-5.914	-2.398	1.367	161.286	-2.406	-8191	255	
7831.138	1	1	0	0	0.17876	0.05238	0.10053	0.047752	0.30685	0.24774	0.075859	0.1623	0.22207	0.28659	0.23174	0.15346	0.22929	0.19756	0.23628	0.45565	-2.1979	-2.2646	-2.1354	-2.7917	-2.1771	-2.425	-2.5229	-2.0771	-2.6292	-2.2104	-2.15	-2.9167	-1.9479	-2.4854	-2.6958	-2.1271	258.091	105.427	313.831	296.632	224.762	261.282	-2.327	171.930	180.306	301.358	233.276	157.099	314.027	331.481	307.924	271.461	0.00069901	0.0017177	0.00042302	503.03	5.0303e-06	8.2056e-06	568.79	206.88	2.0838e-05	2.8274e-05	270.34	111.65	89.11	42.72	6.8974e-06	53.559	0.003981	0.0039562	0.00099977	809.34	4.5006e-05	4.2638e-05	884.01	312.86	4.5522e-05	4.3133e-05	432.33	170.17	148.03	62.156	3.9948e-05	78.674	180.486	18.180	-2.345	-14.841	38.169	96.076	-15.466	-8.462	156.062	276.252	-11.384	-5.675	-3.300	1.383	94.867	-1.977	-8191	255	
7831.257	1	1	0	0	0.13231	0.26851	0.34591	0.19346	0.083924	0.073435	0.081697	0.14871	0.45628	0.20001	0.21574	0.40677	0.048091	0.076716	0.076903	0.029348	-2.1417	-2.4104	-2.0979	-2.8875	-2.0896	-2.3125	-2.7417	-2.1583	-2.6937	-2.4208	-2.2583	-2.6604	-2.1	-2.3063	-2.7125	-2.1167	286.955	190.675	312.335	178.084	331.759	-13.499	233.391	273.290	2.111	141.836	35.152	241.553	116.118	13.504	157.466	250.771	0.00017272	0.0026899	0.00057362	501.15	8.5105e-06	4.8493e-06	564.67	206.45	9.3208e-06	2.3898e-05	265.31	110.83	88.45	42.191	1.5617e-05	52.725	0.0040708	0.0038829	0.00097623	827.73	4.5573e-05	4.1586e-05	870.62	321.38	4.5353e-05	4.2295e-05	427.94	174.48	147.96	61.645	3.9886e-05	80.887	142.488	-17.411	329.656	-14.229	14.537	302.569	-15.561	-8.033	169.801	32.352	-11.388	-5.569	-2.896	1.361	-24.068	-1.792	-8191	255	
7831.353	1	1	0	0	0.26334	0.12057	0.16636	0.083481	0.11711	0.086588	0.10218	0.21212	0.26898	0.062188	0.2635	0.1818	0.11214	0.20373	0.087615	0.20583	-2.0146	-2.4625	-2.1167	-2.6292	-2.3292	-2.4042	-2.6937	-2.1667	-2.6333	-2.6021	-2.1229	-2.8187	-2.1437	-2.0625	-2.7375	-2.1542	261.347	18.275	282.995	96.139	44.552	244.372	321.684	298.059	20.353	118.012	-17.062	316.977	31.334	310.196	304.307	-7.592	0.00020523	0.0013578	0.00031135	502.39	1.9595e-05	2.013e-05	567.57	206.45	2.8191e-06	7.3834e-06	269.01	111.21	88.949	42.19	3.2187e-05	53.134	0.004079	0.0039073	0.00099967	862.07	4.6525e-05	4.1975e-05	884.76	335.02	4.617e-05	4.3316e-05	438.21	181.76	149.58	61.988	4.2565e-05	84.218	167.147	-17.250	112.541	-14.126	6.998	26.723	-15.714	-8.389	-8.106	-16.231	-11.180	-6.212	-3.565	1.125	196.093	-2.283	-8191	255	
7831.449	1	1	0	0	0.049038	0.21416	0.09811	0.11328	0.09707	0.095946	0.080786	0.25688	0.19546	0.22079	0.15871	0.031462	0.40666	0.29108	0.069857	0.19824	-1.9958	-2.4625	-1.9083	-2.7333	-2.2208	-2.3104	-2.8667	-2.1042	-2.5208	-2.7875	-2.0896	-2.7729	-2.1708	-2.1188	-2.6437	-2.1583	111.694	229.971	28.535	114.591	8.003	33.741	193.461	295.287	316.505	302.959	312.148	82.628	316.641	281.162	148.075	299.556	0.0001879	0.0024428	0.00086385	502.57	5.5855e-06	9.4225e-06	563.21	207.48	3.5287e-05	2.2347e-05	267.64	110.13	88.172	42.434	3.0713e-05	53.135	0.0041215	0.0039815	0.0010732	894.06	4.718e-05	4.2607e-05	915.21	345.69	4.6309e-05	4.3854e-05	456.26	185.14	149.11	61.819	4.6408e-05	85.732	122.210	-22.644	148.015	-14.861	87.484	84.535	-15.137	-8.287	56.339	26.115	-10.462	-6.125	-3.577	0.848	183.815	-2.806	-8191	255	
7831.545	1	1	0	0	0.19605	0.18308	0.11622	0.13567	0.15482	0.11866	0.12811	0.19244	0.068254	0.11283	0.056397	0.10813	0.39422	0.16364	0.055091	0.13679	-2.0563	-2.6312	-1.9125	-2.7562	-2.6792	-2.2917	-2.8167	-2.1896	-2.3312	-2.6333	-2.0917	-2.7021	-2.5312	-2.1437	-2.7229	-2.2896	51.837	92.128	280.005	266.305	247.372	317.257	237.441	261.821	168.020	92.829	202.317	300.636	24.344	306.721	276.442	263.220	0.00020195	0.00078819	0.0012521	503.55	1.6425e-05	2.4549e-05	563.65	203.8	1.1147e-05	7.6847e-06	265.28	110.2	87.888	41.676	4.7384e-05	52.249	0.0041112	0.0039835	0.0011683	897.69	4.6304e-05	4.1743e-05	940.19	343.53	4.4881e-05	4.2556e-05	467.97	181.73	146.23	60.923	4.8513e-05	83.915	-6.530	5.649	135.808	-15.183	102.849	4.503	-15.111	-8.759	15.224	156.121	-10.616	-6.267	-3.575	1.545	209.839	-2.614	-8191	255	
7831.666	1	1	0	0	0.1739	0.18679	0.1821	0.20904	0.19037	0.29842	0.19082	0.18315	0.14082	0.020048	0.17256	0.26458	0.21928	0.35458	0.13708	0.075739	-1.9854	-2.6896	-1.9813	-2.5417	-2.6063	-2.1917	-2.6875	-2.3167	-2.2583	-2.7104	-2.0687	-2.7	-2.6479	-2.3229	-2.7188	-2.4917	54.032	95.275	207.843	216.081	50.295	167.638	207.593	145.902	14.283	92.324	268.417	196.455	16.349	316.571	67.274	309.602	0.00014517	0.0010595	0.00073013	496.82	5.9739e-06	2.1168e-05	562.35	202.62	1.9062e-05	7.8679e-06	262.59	108.69	86.534	41.298	1.2068e-05	51.761	0.0039546	0.003897	0.0012378	877.09	4.4771e-05	4.1458e-05	949.42	335.51	4.2937e-05	4.2616e-05	472.15	176.39	142.95	60.765	4.9178e-05	81.492	-12.077	202.960	159.164	-15.331	136.032	207.621	-14.590	-8.621	75.656	241.835	-10.915	-6.171	-3.630	1.873	81.692	-2.574	-8191	255	
7831.737	1	1	0	0	0.20815	0.17787	0.22291	0.16878	0.10109	0.22356	0.14346	0.13653	0.29302	0.16385	0.28304	0.11707	0.068195	0.14652	0.068397	0.32578	-1.8146	-2.575	-1.9646	-2.4896	-2.6729	-2.1375	-2.675	-2.6188	-2.1958	-2.7396	-2.2167	-2.4021	-2.6917	-2.1333	-2.7	-2.6312	75.836	229.569	311.151	-13.515	292.483	227.270	217.974	308.264	190.885	176.425	279.528	134.659	321.435	21.422	197.997	83.961	0.00035038	0.0041634	0.00024242	500.39	1.4378e-05	4.7953e-05	561.38	203.01	2.1992e-05	2.7274e-05	261.93	108.66	85.982	41.185	2.1465e-05	52.179	0.0037806	0.0039704	0.0012629	859.63	4.3285e-05	4.3345e-05	950.86	329.85	4.1701e-05	4.4744e-05	474.92	173.96	141.09	62.369	4.9212e-05	80.671	70.891	163.792	91.082	-15.285	8.363	200.942	-15.644	-8.376	90.134	164.722	-11.162	-6.341	-3.231	1.654	81.174	-2.824	-8191	255	
7831.833	1	1	0	0	0.06969	0.071756	0.35894	0.18319	0.21741	0.10146	0.091168	0.073775	0.21987	0.33067	0.23136	0.1894	0.22741	0.19269	0.20979	0.20901	-1.7396	-2.7167	-2.2833	-2.3187	-2.8083	-2.0417	-2.7167	-2.5104	-2.0083	-2.6917	-2.3521	-2.2896	-2.7646	-2.1625	-2.5792	-2.7	23.584	327.433	0.356	64.840	12.924	228.376	260.810	100.929	300.518	314.356	-16.718	231.462	-10.994	266.898	288.085	319.859	0.00034431	0.0029681	0.00045946	498.23	1.3814e-05	1.4794e-05	567.79	202.83	5.4553e-06	4.7205e-05	263.37	108.65	85.85	41.273	4.5225e-05	51.774	0.0036723	0.0042201	0.0012586	848.53	4.2279e-05	4.657e-05	947.74	327.54	4.1118e-05	4.7905e-05	474.34	173.1	141.2	64.371	4.8285e-05	80.511	145.095	193.391	227.367	-15.167	92.159	209.462	-15.359	-8.508	136.080	179.515	-11.073	-6.065	-2.877	1.900	48.159	-2.312	-8191	255	
7831.930	1	1	0	0	0.096685	0.46146	0.2479	0.10824	0.076003	0.23699	0.24758	0.22094	0.31672	0.15822	0.1467	0.11271	0.11598	0.018955	0.11074	0.22381	-1.7354	-2.7021	-2.3583	-2.2687	-2.7438	-2.1771	-2.6688	-2.6771	-2.0271	-2.8771	-2.4833	-2.4188	-2.9938	-2.1979	-2.5083	-2.7771	327.296	263.734	241.215	106.154	316.587	87.444	279.207	66.978	324.154	32.722	-12.172	165.403	191.413	65.639	91.079	320.235	0.00033489	0.0042398	0.0004308	498.76	2.2562e-05	2.5237e-05	566.39	202.26	1.4182e-05	1.0611e-05	264.76	108.73	86.608	41.536	1.4557e-05	52.238	0.0037437	0.0044907	0.0012407	842.32	4.357e-05	4.9911e-05	939.17	326.38	4.282e-05	5.0132e-05	469.62	171.59	144.3	65.681	4.6919e-05	80.101	174.243	143.453	317.371	-14.916	214.577	183.510	-15.726	-8.498	158.712	188.497	-11.469	-6.149	-2.927	1.177	4.161	-3.104	-8191	255	
7832.026	1	1	0	0	0.14857	0.10055	0.089392	0.17705	0.25124	0.31071	0.14799	0.1532	0.087442	0.20598	0.25065	0.06093	0.089305	0.24495	0.33914	0.13472	-1.8833	-2.5563	-2.4354	-2.325	-2.8646	-2.2188	-2.3542	-2.5521	-2.1854	-2.6979	-2.4437	-2.2979	-2.7438	-1.9792	-2.4333	-2.7062	-21.140	317.963	78.707	275.433	143.415	104.441	72.072	123.558	237.672	81.515	200.969	287.054	0.024	55.020	1.079	89.624	0.00044003	0.002413	0.00067292	495.66	1.7409e-05	2.0651e-05	563.47	203.07	2.0619e-05	1.2431e-05	261.67	107.77	85.927	41.087	1.1408e-05	51.518	0.0039686	0.0046284	0.0012107	832.81	4.6013e-05	5.1037e-05	924.24	323.99	4.5638e-05	5.0065e-05	459.88	168.06	146.97	64.897	4.4954e-05	78.027	199.360	59.874	-6.933	-14.885	230.694	57.481	-15.529	-8.196	256.501	-3.651	-11.627	-6.209	-2.682	1.281	21.984	-2.986	-8191	255	
7832.145	1	1	0	0	0.26278	0.21457	0.046005	0.17215	0.1477	0.31524	0.1139	0.30608	0.12659	0.16247	0.17511	0.078892	0.10162	0.091558	0.24605	0.057732	-1.6	-2.6604	-2.4083	-2.0792	-2.8563	-2.3604	-2.4229	-2.7562	-2.0938	-2.5104	-2.5646	-2.2167	-2.9313	-2.4729	-2.2958	-2.6042	17.975	265.540	245.203	43.118	114.302	25.947	174.854	262.975	3.597	276.352	-8.568	289.301	315.654	7.423	288.612	302.095	0.00085046	0.00022234	0.00032105	494.28	1.2184e-05	2.1764e-05	561.93	201.68	3.4189e-05	4.6197e-05	258.47	106.41	85.531	41.015	1.4094e-05	51.052	0.0041765	0.0044364	0.0011562	816.71	4.769e-05	4.8908e-05	904.24	318.1	4.8223e-05	4.7914e-05	453.49	167.56	149.85	63.84	4.3655e-05	78.315	207.195	302.640	79.204	-14.771	234.670	224.499	-15.097	-8.394	237.953	10.526	-11.406	-6.173	-2.488	1.288	70.502	-2.462	-8191	255	
7832.241	1	1	0	0	0.26565	0.18458	0.18602	0.16036	0.15049	0.25275	0.2499	0.076864	0.13594	0.082034	0.2093	0.11931	0.074936	0.36433	0.30168	0.12016	-1.6167	-2.5875	-2.6521	-2.1625	-2.5687	-2.3604	-2.2271	-2.7875	-2.1188	-2.5083	-2.9	-2.1729	-2.8167	-2.5375	-2.2	-2.8708	24.920	261.761	115.502	-10.453	64.213	86.516	304.255	-17.598	225.885	-9.339	-10.751	181.651	313.334	114.739	206.904	217.608	0.00074976	0.0012014	0.00026359	491.5	1.063e-05	2.7618e-05	558.57	201.54	1.876e-05	3.2576e-05	260.59	106.85	85.831	41.056	2.0377e-05	50.956	0.004409	0.004293	0.0011348	826.48	4.9537e-05	4.7465e-05	893.37	322.96	5.0076e-05	4.6272e-05	447.28	171.19	150.89	62.979	4.2086e-05	79.904	154.391	79.404	1.628	-14.228	231.982	-14.159	-15.739	-7.968	211.301	1.733	-10.984	-5.525	-3.651	1.341	70.584	-2.182	-8191	255	
7832.337	1	1	0	0	0.075184	0.20737	0.19655	0.2227	0.14492	0.11688	0.13837	0.28018	0.18355	0.40937	0.28575	0.20705	0.11664	0.21609	0.27334	0.11612	-1.875	-2.4458	-2.5729	-2.0354	-2.6896	-2.6229	-2.2687	-2.8	-2.3021	-2.2938	-2.7167	-2.1083	-2.7875	-2.7562	-2.1562	-2.9021	58.763	156.854	300.962	-18.947	44.341	187.546	218.205	287.945	179.948	80.703	312.936	268.508	253.771	323.770	116.330	-10.843	0.00015425	0.0024027	0.00037412	496.56	2.2813e-05	1.477e-05	560.4	202.05	1.4065e-05	1.3609e-05	259.66	107.29	85.323	40.955	6.2832e-06	50.788	0.0044776	0.0041376	0.0010995	852.54	4.9481e-05	4.59e-05	880.81	329.16	4.957e-05	4.4543e-05	440.84	175.54	148.8	62.255	4.095e-05	81.512	25.759	11.223	10.832	-14.054	-5.433	318.284	-15.887	-7.953	96.716	308.169	-11.422	-5.502	-3.126	1.488	20.180	-2.434	-8191	255	
7832.433	1	1	0	0	0.21376	0.13485	0.1123	0.13868	0.32319	0.10386	0.088296	0.13073	0.24241	0.24086	0.10708	0.19325	0.051501	0.15151	0.097044	0.232	-1.825	-2.2458	-2.6833	-1.9937	-2.5229	-2.6708	-2.2146	-2.7854	-2.4667	-2.2542	-2.7729	-2.0583	-2.7208	-2.6604	-2.1104	-2.9667	48.848	229.956	140.258	4.360	31.540	76.845	-11.040	332.122	128.901	-15.007	281.034	234.167	254.121	127.153	12.420	230.801	0.00039265	0.0025834	0.00028311	493.91	2.7726e-05	6.3951e-06	551.05	199.42	1.2527e-05	1.6822e-05	256.09	106.31	84.785	40.116	2.0771e-05	49.727	0.0043575	0.0040006	0.0010786	873.2	4.7634e-05	4.4683e-05	876.37	333.28	4.749e-05	4.2835e-05	436.5	177.31	144.91	60.912	4.1761e-05	81.738	327.651	47.843	244.223	-13.747	69.968	114.958	-15.115	-7.985	108.208	83.302	-11.139	-5.685	-3.502	1.527	193.317	-2.409	-8191	255	
7832.529	1	1	0	0	0.22124	0.12214	0.25311	0.14358	0.24954	0.14693	0.23888	0.051847	0.18568	0.093729	0.073487	0.091128	0.16998	0.11706	0.3754	0.066897	-1.9062	-2.2687	-2.6271	-2.1271	-2.6271	-2.8458	-2.2625	-2.6271	-2.5062	-2.3708	-2.9333	-2.1646	-2.4292	-2.7583	-2.1625	-2.7708	113.844	35.204	262.492	169.423	75.939	-7.194	241.247	35.719	105.556	193.980	221.478	315.400	29.880	29.598	157.863	258.624	0.00042095	0.0015958	0.00050801	492.76	1.1961e-05	2.6542e-05	550.95	199.38	1.2739e-05	8.0759e-06	253.79	106.15	83.804	40.445	2.4354e-05	50.29	0.0041885	0.0038538	0.0011062	884.96	4.5851e-05	4.3465e-05	890.91	336.1	4.6026e-05	4.1331e-05	444.42	178.92	142.22	60.074	4.4197e-05	81.69	315.810	16.746	149.110	-14.909	20.854	60.332	-14.825	-8.483	74.248	98.577	-10.466	-6.174	-3.795	1.312	198.074	-2.644	-8191	255	
7832.625	1	1	0	0	0.045236	0.40613	0.039304	0.21197	0.24725	0.018896	0.34156	0.1316	0.15608	0.19928	0.13318	0.13702	0.078134	0.016106	0.21671	0.070237	-1.9458	-2.0687	-2.7562	-2.3104	-2.2104	-2.8208	-2.05	-2.5792	-2.4542	-2.2875	-2.8688	-2.3042	-2.5333	-2.825	-2.1667	-2.7938	117.973	-9.223	241.420	277.935	103.419	186.986	324.773	321.578	97.293	33.315	307.088	-10.402	216.516	316.615	137.726	317.637	0.00026161	0.0016294	0.0010253	494.98	9.9285e-06	6.186e-06	553.16	199.15	8.1543e-06	1.8296e-05	256.18	106.18	84.789	40.47	4.2579e-05	51.031	0.0040583	0.0037195	0.0011602	880.36	4.4222e-05	4.2246e-05	919.38	333.73	4.5221e-05	4.0693e-05	460.9	177.91	141.49	60.078	4.7732e-05	81.481	243.002	175.388	174.616	-15.057	112.111	-15.331	-14.832	-8.400	109.694	82.893	-10.617	-6.354	-3.230	1.977	168.899	-2.716	-8191	255	
7832.746	1	1	0	0	0.24086	0.29484	0.1398	0.17778	0.13721	0.19333	0.085348	0.056939	0.14756	0.087163	0.18836	0.039342	0.045665	0.098056	0.169	0.11964	-2.3125	-2.3375	-2.8187	-2.4354	-2.5187	-2.8896	-2.2729	-2.725	-2.7417	-2.1854	-2.85	-2.4021	-2.3563	-2.9146	-2.1125	-2.5708	215.164	72.818	227.468	269.656	159.307	55.949	248.196	181.718	108.963	245.388	243.183	303.760	177.367	302.258	207.677	301.160	0.00036448	0.00089003	0.00087982	495.44	2.1281e-05	7.1846e-06	560.88	201.12	1.2822e-05	1.5543e-05	260.08	107.31	86.277	40.469	1.8437e-05	50.874	0.0040003	0.0037533	0.0012346	873.92	4.3188e-05	4.2549e-05	946.16	330.48	4.419e-05	4.1729e-05	473.39	176.75	140.09	60.969	4.9651e-05	80.455	313.887	224.503	107.583	-15.068	61.032	226.222	-15.408	-8.786	12.341	194.724	-10.751	-6.251	-3.638	2.133	207.506	-2.507	-8191	255	
7832.842	1	1	0	0	0.048022	0.080591	0.10013	0.3328	0.058394	0.15206	0.17088	0.097626	0.063278	0.32285	0.21861	0.084641	0.02341	0.19757	0.084174	0.097191	-2.4229	-1.9375	-2.6667	-2.5292	-2.1625	-2.8083	-2.3271	-2.5271	-2.625	-2.1312	-2.6521	-2.6021	-2.2083	-2.7062	-2.1104	-2.4938	181.109	140.754	19.116	297.377	48.569	95.110	123.118	185.953	52.446	204.142	177.896	40.981	227.969	32.802	183.097	262.940	0.0001226	0.0042621	0.00045381	497.35	5.9703e-06	6.6017e-06	558.61	199.32	2.0541e-05	1.575e-05	258.22	106.64	84.888	40.522	2.4012e-05	50.46	0.0039122	0.0039287	0.0012668	861.78	4.1728e-05	4.4404e-05	952.84	324.34	4.2722e-05	4.3845e-05	469.62	172.92	137.04	61.84	4.8576e-05	78.185	130.207	168.138	-18.854	-14.776	10.024	315.739	-15.410	-8.546	70.501	196.520	-11.480	-5.704	-3.672	1.678	27.325	-2.762	-8191	255	
7832.938	1	1	0	0	0.041799	0.28933	0.16608	0.11654	0.23301	0.11082	0.13109	0.31589	0.10852	0.077223	0.27567	0.18165	0.19641	0.05221	0.16613	0.33706	-2.5312	-2.1042	-2.6063	-2.5687	-2.2271	-2.7771	-2.5021	-2.3563	-2.775	-2.0729	-2.5125	-2.6375	-2.0854	-2.8229	-2.3792	-2.225	45.742	80.612	200.552	196.044	28.683	233.646	283.920	289.312	181.691	282.532	179.556	28.363	116.789	75.449	176.481	213.848	0.00019567	0.0044757	0.00064911	495.73	3.6384e-06	1.4379e-05	556.67	199.27	1.2887e-05	2.6366e-05	257.81	105.25	83.606	40.134	2.1688e-05	50.189	0.0037355	0.004116	0.0012231	846.61	4.0311e-05	4.6508e-05	936.52	318.72	4.167e-05	4.668e-05	460.47	170.74	136	62.957	4.7424e-05	77.199	166.470	159.067	302.781	-14.923	103.460	154.870	-15.472	-9.332	44.450	191.316	-11.205	-6.289	-3.297	1.724	12.175	-2.633	-8191	255	
7833.034	1	1	0	0	0.17265	0.12201	0.076065	0.18256	0.17069	0.056073	0.098005	0.29841	0.30855	0.26946	0.24909	0.12658	0.059625	0.15174	0.36321	0.23003	-2.3146	-2.0625	-2.5792	-2.6146	-2.1417	-2.8833	-2.4271	-2.3333	-2.6729	-2.1437	-2.5208	-2.7521	-2.2	-2.9292	-2.3917	-2.2146	308.709	277.606	39.572	0.980	73.207	151.128	21.450	-12.799	330.881	195.187	272.548	210.691	35.512	34.176	214.224	258.522	0.00057511	0.0030553	0.00077662	493.64	8.6186e-06	2.4345e-05	554.48	199.38	1.2757e-05	2.2161e-05	258.57	105.78	84.218	40.198	1.7593e-05	50.161	0.0037489	0.0043656	0.0011827	836.53	4.1323e-05	4.8509e-05	926.19	314.3	4.2805e-05	4.8967e-05	453.56	169.17	139.22	63.856	4.6693e-05	76.455	185.805	162.433	315.011	-14.674	227.904	186.383	-15.104	-8.665	182.475	121.623	-10.998	-5.910	-2.338	1.333	70.647	-2.665	-8191	255	
#DATA ENDS
