BOXY.EXE: ISS Imagent and Oximeter Data Acquisition Program Version 0.80
Ascii Record File

#ACQ INFORMATION
2  Detector Channels 
16  External MUX Channels 
1  Auxiliary Channels 
5000  Waveform (CCF) Frequency (Hz)
1  Waveforms Skipped 
30  Waveforms Averaged 
1  Cycles Averaged 
16  Acquisitions per Waveform 
10.0806  Updata Rate (Hz) 

#FILE INFORMATION
TRUE -- External MUX Channel results are PARSED.
FALSE -- AC DC and Phase are NOT grouped.
TRUE -- Companion Program Settings File CREATED.
FALSE -- AC data not excluded
FALSE -- DC data not excluded
FALSE -- Phase data not excluded
FALSE -- Auxillary Chn. data not excluded
Tab delimiters

#CALIBRATION STATE
TRUE -- Waveform Calibration Values APPLIED.


#AUX CALIBRATION VALUES
Val Type	aux-1	

Term	1.0000e+00	
Factor	0.0000e+00	


#WF CALIBRATION VALUES
A = Detector Channel
Val Type	A-AC1	A-AC2	A-AC3	A-AC4	A-AC5	A-AC6	A-AC7	A-AC8	A-AC9	A-AC10	A-AC11	A-AC12	A-AC13	A-AC14	A-AC15	A-AC16	A-DC1	A-DC2	A-DC3	A-DC4	A-DC5	A-DC6	A-DC7	A-DC8	A-DC9	A-DC10	A-DC11	A-DC12	A-DC13	A-DC14	A-DC15	A-DC16	A-Ph1	A-Ph2	A-Ph3	A-Ph4	A-Ph5	A-Ph6	A-Ph7	A-Ph8	A-Ph9	A-Ph10	A-Ph11	A-Ph12	A-Ph13	A-Ph14	A-Ph15	A-Ph16	

Term	0.00000e+00	0.00000e+00	0.00000e+00	0.00000e+00	0.00000e+00	0.00000e+00	0.00000e+00	0.00000e+00	0.00000e+00	0.00000e+00	0.00000e+00	0.00000e+00	0.00000e+00	0.00000e+00	0.00000e+00	0.00000e+00	0.00000e+00	0.00000e+00	0.00000e+00	0.00000e+00	0.00000e+00	0.00000e+00	0.00000e+00	0.00000e+00	0.00000e+00	0.00000e+00	0.00000e+00	0.00000e+00	0.00000e+00	0.00000e+00	0.00000e+00	0.00000e+00	0.00000e+00	0.00000e+00	0.00000e+00	0.00000e+00	0.00000e+00	0.00000e+00	0.00000e+00	0.00000e+00	0.00000e+00	0.00000e+00	0.00000e+00	0.00000e+00	0.00000e+00	0.00000e+00	0.00000e+00	0.00000e+00	
Factor	1.00000e+00	1.00000e+00	1.00000e+00	1.00000e+00	1.00000e+00	1.00000e+00	1.00000e+00	1.00000e+00	1.00000e+00	1.00000e+00	1.00000e+00	1.00000e+00	1.00000e+00	1.00000e+00	1.00000e+00	1.00000e+00	1.00000e+00	1.00000e+00	1.00000e+00	1.00000e+00	1.00000e+00	1.00000e+00	1.00000e+00	1.00000e+00	1.00000e+00	1.00000e+00	1.00000e+00	1.00000e+00	1.00000e+00	1.00000e+00	1.00000e+00	1.00000e+00	X	X	X	X	X	X	X	X	X	X	X	X	X	X	X	X	

B = Detector Channel
Val Type	B-AC1	B-AC2	B-AC3	B-AC4	B-AC5	B-AC6	B-AC7	B-AC8	B-AC9	B-AC10	B-AC11	B-AC12	B-AC13	B-AC14	B-AC15	B-AC16	B-DC1	B-DC2	B-DC3	B-DC4	B-DC5	B-DC6	B-DC7	B-DC8	B-DC9	B-DC10	B-DC11	B-DC12	B-DC13	B-DC14	B-DC15	B-DC16	B-Ph1	B-Ph2	B-Ph3	B-Ph4	B-Ph5	B-Ph6	B-Ph7	B-Ph8	B-Ph9	B-Ph10	B-Ph11	B-Ph12	B-Ph13	B-Ph14	B-Ph15	B-Ph16	

Term	0.00000e+00	0.00000e+00	0.00000e+00	0.00000e+00	0.00000e+00	0.00000e+00	0.00000e+00	0.00000e+00	0.00000e+00	0.00000e+00	0.00000e+00	0.00000e+00	0.00000e+00	0.00000e+00	0.00000e+00	0.00000e+00	0.00000e+00	0.00000e+00	0.00000e+00	0.00000e+00	0.00000e+00	0.00000e+00	0.00000e+00	0.00000e+00	0.00000e+00	0.00000e+00	0.00000e+00	0.00000e+00	0.00000e+00	0.00000e+00	0.00000e+00	0.00000e+00	-7.23465e+01	-1.49617e+02	-1.26872e+02	-1.83762e+02	-5.18693e+01	-6.06153e+01	-1.58526e+02	-1.62015e+02	-4.81224e+01	-7.56965e+01	-1.70957e+02	-1.70833e+02	-1.76992e+02	-1.76825e+02	-4.67194e+01	-1.50028e+02	
Factor	1.63432e-05	1.10510e-04	3.48016e-05	1.52478e-01	1.22918e-06	1.22249e-06	1.63273e-01	5.15583e-02	9.18127e-07	1.18410e-06	8.55517e-02	2.92432e-02	2.25317e-02	9.04730e-03	1.05066e-06	1.29668e-02	1.38578e-06	1.45995e-06	4.07899e-07	7.71863e-02	1.59237e-08	1.59708e-08	7.76724e-02	2.61251e-02	1.59683e-08	1.59842e-08	4.15537e-02	1.42499e-02	1.15109e-02	4.55475e-03	1.60640e-08	6.29093e-03	X	X	X	X	X	X	X	X	X	X	X	X	X	X	X	X	



#DISTANCE SETTINGS
A = Detector Channel
A-1	A-2	A-3	A-4	A-5	A-6	A-7	A-8	A-9	A-10	A-11	A-12	A-13	A-14	A-15	A-16	

2.5000e+00	3.0000e+00	2.5000e+00	3.0000e+00	2.0000e+00	3.0000e+00	1.5000e+00	3.0000e+00	3.0000e+00	3.0000e+00	3.0000e+00	3.0000e+00	3.0000e+00	3.0000e+00	1.5000e+00	3.0000e+00	

B = Detector Channel
B-1	B-2	B-3	B-4	B-5	B-6	B-7	B-8	B-9	B-10	B-11	B-12	B-13	B-14	B-15	B-16	

1.0000e+01	1.0000e+01	1.0000e+01	1.4400e+00	1.0000e+01	1.0000e+01	1.5100e+00	1.9400e+00	1.0000e+01	1.0000e+01	1.9900e+00	2.4900e+00	2.4100e+00	2.9000e+00	1.0000e+01	2.9800e+00	




#DATA BEGINS
time	group	step	mark	flag	A-AC1	A-AC2	A-AC3	A-AC4	A-AC5	A-AC6	A-AC7	A-AC8	A-AC9	A-AC10	A-AC11	A-AC12	A-AC13	A-AC14	A-AC15	A-AC16	A-DC1	A-DC2	A-DC3	A-DC4	A-DC5	A-DC6	A-DC7	A-DC8	A-DC9	A-DC10	A-DC11	A-DC12	A-DC13	A-DC14	A-DC15	A-DC16	A-Ph1	A-Ph2	A-Ph3	A-Ph4	A-Ph5	A-Ph6	A-Ph7	A-Ph8	A-Ph9	A-Ph10	A-Ph11	A-Ph12	A-Ph13	A-Ph14	A-Ph15	A-Ph16	B-AC1	B-AC2	B-AC3	B-AC4	B-AC5	B-AC6	B-AC7	B-AC8	B-AC9	B-AC10	B-AC11	B-AC12	B-AC13	B-AC14	B-AC15	B-AC16	B-DC1	B-DC2	B-DC3	B-DC4	B-DC5	B-DC6	B-DC7	B-DC8	B-DC9	B-DC10	B-DC11	B-DC12	B-DC13	B-DC14	B-DC15	B-DC16	B-Ph1	B-Ph2	B-Ph3	B-Ph4	B-Ph5	B-Ph6	B-Ph7	B-Ph8	B-Ph9	B-Ph10	B-Ph11	B-Ph12	B-Ph13	B-Ph14	B-Ph15	B-Ph16	aux-1	digaux	

3633.851	1	1	0	256	0.086987	0.11091	0.26018	0.22697	0.11971	0.22118	0.2344	0.13397	0.24104	0.21301	0.25145	0.20024	0.18273	0.12352	0.20402	0.13096	-1.9125	-2.4708	-2.6917	-2.3729	-2.5646	-2.6875	-2.2375	-3.0687	-2.5208	-2.5479	-3.1625	-2.5312	-2.8104	-2.9771	-2.4125	-2.9833	125.557	191.090	213.920	383.714	383.796	221.939	244.818	106.754	63.023	281.603	327.799	260.885	360.099	335.718	110.205	333.974	0.00029499	0.0015117	0.00061011	1145.4	1.5921e-05	6.5114e-06	964.32	448.97	9.6784e-06	1.5013e-05	395.41	167.21	195.93	76.92	1.6192e-05	60.699	0.0027348	0.0026005	0.00083691	1280.2	3.0313e-05	2.9093e-05	1088.8	492.41	3.0923e-05	2.8938e-05	465.61	191.52	212.36	83.427	3.4766e-05	71.645	202.587	86.999	160.178	55.713	174.064	173.276	53.812	60.340	373.285	164.431	57.273	61.313	64.707	69.750	240.678	64.954	-8191	255	
3633.947	1	1	0	0	0.17467	0.22507	0.20058	0.12022	0.16686	0.14458	0.17138	0.34772	0.05495	0.23543	0.075519	0.22769	0.085768	0.26348	0.10438	0.32577	-2.2354	-2.1	-2.725	-2.6375	-2.7188	-2.8979	-2.425	-2.9729	-2.4188	-2.2854	-3.2083	-2.6625	-2.75	-2.8438	-2.0333	-2.7979	318.324	261.808	203.332	293.322	133.507	287.543	318.803	364.997	126.552	271.594	138.724	401.618	171.207	392.818	85.628	330.997	0.00042218	0.00025256	0.00069515	1146.2	5.3564e-06	1.3348e-05	966.07	444.94	5.5658e-06	1.8847e-05	392.93	166.49	194.91	76.916	6.2206e-06	60.927	0.0027506	0.0027332	0.00091006	1282.2	3.0629e-05	3.0985e-05	1104.4	489.79	3.1106e-05	3.0784e-05	469.14	190.03	211.61	83.98	3.5535e-05	71.231	214.566	394.653	152.195	55.776	318.769	180.882	54.113	60.695	258.395	266.594	57.389	61.740	64.954	69.455	275.818	65.077	-8191	255	
3634.044	1	1	0	0	0.053328	0.11661	0.096104	0.43576	0.18828	0.25971	0.21951	0.37982	0.029653	0.19247	0.19572	0.31058	0.32948	0.40921	0.16083	0.088466	-2.0708	-2.0417	-2.975	-2.7375	-2.4792	-2.9688	-2.4708	-2.7625	-2.7792	-2.3958	-3.1667	-2.7479	-2.6354	-3.1771	-2.2313	-2.7375	112.415	162.060	229.599	343.701	109.486	72.066	391.345	346.054	105.808	271.867	386.040	312.177	399.314	373.464	341.084	347.245	0.00044058	0.0024184	0.00042283	1143.1	4.6422e-06	1.4948e-05	953.82	444.98	8.3492e-06	6.7407e-06	389.45	165.68	193.68	75.696	8.4631e-06	60.486	0.0026418	0.002868	0.0009038	1271.8	2.9601e-05	3.2728e-05	1101.8	487.37	3.0545e-05	3.3434e-05	467.62	189.89	211.06	84.33	3.6725e-05	70.988	191.526	152.954	52.392	55.593	115.301	239.533	54.174	60.765	290.078	66.711	57.623	61.689	65.207	69.760	243.796	65.528	-8191	255	
3634.140	1	1	0	0	0.12987	0.2529	0.085664	0.2553	0.076877	0.16863	0.1726	0.20469	0.13831	0.1481	0.27985	0.31211	0.48263	0.29926	0.2889	0.17102	-2.3208	-2.1583	-2.7458	-2.7313	-2.5021	-3.0146	-2.2854	-2.85	-2.8271	-2.1312	-2.9437	-2.7542	-2.5875	-3.1688	-2.3521	-2.6208	223.560	365.757	313.900	359.369	57.982	158.245	278.769	353.392	193.734	78.720	378.898	338.849	324.972	81.304	149.607	187.832	0.00049026	0.002907	0.00030067	1142.9	7.7709e-06	1.7903e-05	950.67	439.75	1.3846e-05	1.3694e-05	383.15	163.34	191.94	75.182	1.4723e-05	59.103	0.0027367	0.0032186	0.00091809	1274.3	3.0481e-05	3.6124e-05	1098.5	484.7	3.186e-05	3.7102e-05	464.41	188.61	211.27	84.7	3.7502e-05	70.36	218.720	150.700	249.224	56.041	248.474	208.944	54.312	61.077	220.043	216.575	57.741	62.037	65.284	69.833	352.408	65.408	-8191	255	
3634.260	1	1	0	0	0.02866	0.20306	0.20267	0.2032	0.22086	0.066129	0.37095	0.23761	0.11992	0.12271	0.063253	0.33081	0.24593	0.22816	0.17761	0.11966	-2.5396	-2.0833	-2.7292	-2.7542	-2.2438	-2.9083	-2.6667	-2.7146	-2.8563	-2.3167	-2.9167	-2.9229	-2.375	-3.0958	-2.3271	-2.4062	294.977	255.985	363.724	377.871	365.747	198.638	331.276	336.200	325.111	252.169	79.711	372.368	335.364	70.903	165.006	51.851	0.00037018	0.002319	0.00033653	1134.5	2.5101e-05	9.8786e-06	948.65	442.95	1.5564e-05	3.437e-06	386.66	165.06	195.24	76.228	7.2701e-06	60.365	0.0029747	0.0036066	0.00093552	1275	3.3362e-05	3.8895e-05	1094.8	485.12	3.3677e-05	3.7963e-05	460.24	188.59	213.56	85.19	3.4021e-05	70.205	206.610	118.801	154.905	56.088	231.563	128.961	54.220	60.734	239.930	231.783	57.387	61.553	64.982	69.525	248.722	65.065	-8191	255	
3634.355	1	1	0	0	0.18292	0.073065	0.12892	0.12945	0.065917	0.17565	0.15225	0.12556	0.1622	0.21979	0.40988	0.13971	0.32821	0.319	0.21049	0.16128	-2.5917	-2.3042	-2.6375	-2.8375	-2.3583	-2.9125	-2.6104	-2.6125	-2.9104	-2.2167	-2.6729	-2.8312	-2.4042	-3.0208	-2.5042	-2.5521	77.155	182.569	79.306	366.763	172.850	191.594	76.685	97.594	228.574	107.642	386.529	353.998	387.624	360.829	362.788	110.504	0.00064289	0.00011365	0.00026153	1147.3	2.9158e-05	1.638e-05	955.69	442.95	2.7832e-05	1.7162e-05	387.55	166.03	195.31	75.688	9.5933e-06	60.306	0.0029989	0.0034381	0.00085727	1269	3.4805e-05	3.7939e-05	1096	485.56	3.6717e-05	3.8831e-05	462.75	190.08	217.56	85.174	3.5385e-05	70.897	215.675	240.916	324.769	55.828	242.680	302.312	53.920	60.706	241.400	150.738	57.427	61.954	65.096	69.666	353.077	65.658	-8191	255	
3634.426	1	1	0	0	0.1152	0.15771	0.15815	0.095549	0.18765	0.18645	0.1976	0.1614	0.12847	0.049026	0.15921	0.14584	0.25617	0.24479	0.01704	0.39133	-2.4354	-2.3042	-2.5896	-2.9521	-2.175	-2.8667	-2.5	-2.7375	-2.8646	-2.2583	-2.5938	-2.875	-2.3771	-3.0896	-2.5667	-2.3646	158.843	141.373	233.022	88.760	352.360	219.203	369.732	308.775	321.894	256.030	372.958	349.007	357.693	76.360	87.261	281.243	0.00067571	0.00013978	0.00029978	1149.3	2.2936e-05	1.6538e-05	956.18	443.77	1.6791e-05	6.5528e-06	390.47	167.6	195.87	75.997	5.4434e-06	60.418	0.0033783	0.0035196	0.00087889	1282.2	3.8742e-05	3.7862e-05	1098.6	488.98	3.9636e-05	3.8242e-05	463.35	192.25	219.74	84.883	3.4892e-05	71.63	186.761	170.705	340.598	55.998	240.093	101.213	54.062	60.872	193.179	279.428	57.522	61.928	64.931	69.402	96.554	65.244	-8191	255	
3634.523	1	1	0	0	0.12342	0.21698	0.11149	0.14357	0.1142	0.091971	0.29939	0.4062	0.11809	0.2301	0.090979	0.24792	0.0061974	0.1999	0.20738	0.26174	-2.5417	-2.3354	-2.6792	-3.0104	-2.2646	-2.6833	-2.7708	-2.3854	-2.9896	-2.25	-2.5458	-3.1562	-2.3	-2.7354	-2.8104	-2.2792	43.497	57.435	186.704	56.218	299.438	125.051	353.159	352.507	376.096	311.596	280.249	338.023	188.432	361.901	198.608	329.160	0.00039412	0.00071319	0.00059514	1144.9	1.4111e-05	1.7427e-05	949.56	444.95	6.6129e-06	1.1358e-05	388.55	166.52	195.9	75.465	1.2082e-05	60.182	0.0034958	0.0033617	0.00084696	1284.5	3.9063e-05	3.5031e-05	1085.3	490.49	3.8346e-05	3.4802e-05	455.49	192.11	218.11	83.992	3.2373e-05	71.733	194.161	314.538	71.900	55.869	200.277	105.413	53.935	61.007	49.227	202.752	57.594	61.996	64.985	69.535	220.851	65.468	-8191	255	
3634.643	1	1	0	0	0.057294	0.18199	0.2882	0.040675	0.2725	0.16578	0.26889	0.30243	0.17796	0.23744	0.40083	0.21962	0.44036	0.14613	0.097806	0.20642	-2.7167	-2.4062	-2.3729	-3.1667	-2.2542	-2.6208	-2.9708	-2.2917	-2.8937	-2.4208	-2.5021	-3.025	-2.4396	-2.6417	-2.7604	-2.4917	322.986	134.466	203.734	359.930	151.222	196.726	364.112	350.027	137.564	214.317	371.549	374.839	379.939	370.405	60.521	344.971	0.00029879	0.0014353	0.00050192	1144	1.6094e-05	1.3219e-05	949.04	443.26	4.8722e-06	8.8947e-06	389.33	166.57	195.06	75.153	1.2157e-05	59.559	0.0033074	0.0031702	0.00081663	1296.9	3.8757e-05	3.4965e-05	1088.7	496.89	3.9148e-05	3.6222e-05	459.96	196.43	218.8	83.856	3.4961e-05	73.361	207.552	329.167	96.521	56.066	311.111	197.560	54.150	61.040	214.895	381.461	57.680	61.967	65.044	69.470	235.137	65.470	-8191	255	
3634.739	1	1	0	0	0.13677	0.20427	0.054957	0.34183	0.037403	0.20435	0.40347	0.20607	0.20291	0.13753	0.018967	0.24638	0.35725	0.19074	0.071293	0.067883	-2.3354	-2.5271	-2.3396	-3.0229	-2.3521	-2.4396	-2.8917	-2.2729	-2.9542	-2.6875	-2.5687	-2.8875	-2.6542	-2.8521	-2.9417	-2.3771	201.685	159.350	239.220	402.330	117.130	290.588	312.741	393.471	61.094	121.316	172.666	394.205	342.802	104.160	237.641	286.492	0.00034719	0.0008796	0.00060045	1137.4	1.1475e-05	1.1469e-05	956.17	442.48	3.6174e-06	6.3826e-06	386.67	166.19	194.29	75.058	1.1413e-05	60.001	0.0034132	0.0032884	0.00087747	1316.4	3.9001e-05	3.5462e-05	1103	502.85	3.8898e-05	3.6494e-05	465.83	198.82	218.81	84.056	3.7762e-05	74.679	197.088	251.695	172.277	56.126	170.274	51.617	54.299	60.700	121.590	161.575	57.699	61.952	65.302	69.717	240.013	65.430	-8191	255	
3634.836	1	1	0	0	0.10235	0.17095	0.1487	0.061435	0.099598	0.085257	0.066885	0.43633	0.1073	0.12679	0.12909	0.048652	0.24974	0.31744	0.14332	0.26991	-2.3479	-2.6833	-2.4083	-3.1271	-2.3854	-2.3312	-3.1667	-2.4208	-2.8563	-2.6417	-2.4167	-2.9292	-2.6063	-2.6167	-2.8333	-2.2667	314.515	387.339	276.879	310.305	291.942	334.977	50.483	363.355	329.573	186.299	60.604	382.469	339.438	380.195	56.870	334.423	0.00022193	0.00062321	0.00048767	1131.5	2.2023e-06	1.6836e-05	956.59	444.4	2.2176e-06	3.7712e-06	389.41	167.11	194.73	75.725	1.4418e-05	59.814	0.0033549	0.0033018	0.00094688	1318.2	3.7778e-05	3.4253e-05	1110.4	502.11	3.6498e-05	3.4621e-05	471.57	197.54	216.63	83.771	3.9447e-05	74.125	190.831	105.491	180.436	56.239	190.433	169.525	54.739	60.741	224.090	91.897	57.519	61.760	64.889	69.420	237.572	65.373	-8191	255	
3634.932	1	1	0	0	0.030102	0.17296	0.16763	0.26485	0.2913	0.20764	0.2649	0.26002	0.023415	0.038761	0.13381	0.18821	0.18207	0.11529	0.20525	0.31233	-2.1917	-2.7521	-2.1167	-3.1562	-2.5896	-2.4167	-3.0062	-2.6417	-2.6875	-2.8083	-2.5125	-2.9125	-2.75	-2.5729	-3.0812	-2.4292	93.017	146.619	322.141	343.477	189.697	319.284	334.587	389.384	324.954	278.329	82.992	400.905	395.549	320.436	164.352	248.622	0.00033024	0.001291	0.00071712	1141	5.0517e-06	5.879e-06	943.33	438.2	9.3007e-06	2.092e-05	383.07	163.69	193.01	74.27	1.9814e-05	58.912	0.0032292	0.0032506	0.0010287	1320.1	3.7967e-05	3.5698e-05	1128.9	500.2	3.8186e-05	3.7397e-05	481.23	196.42	217.2	83.571	4.4575e-05	73.693	221.810	180.626	129.452	55.887	354.649	99.041	54.358	60.851	293.629	238.961	58.080	61.911	65.277	69.935	210.418	65.262	-8191	255	
3635.028	1	1	0	0	0.02261	0.34924	0.1657	0.13783	0.12206	0.17738	0.15445	0.35099	0.30153	0.19801	0.48794	0.17181	0.20762	0.33528	0.16214	0.14663	-2.3375	-2.8333	-2.0833	-3.0438	-2.5292	-2.3917	-3.1063	-2.6354	-2.4083	-2.8958	-2.2521	-2.8312	-2.8521	-2.4625	-3.0625	-2.5833	330.790	306.864	87.882	77.041	321.487	62.951	341.182	371.504	401.417	307.404	256.391	347.257	93.495	387.382	397.796	277.325	0.00036501	0.00068072	0.00045933	1130.1	8.3509e-06	2.7435e-05	944.72	437.53	1.5221e-05	2.232e-05	381.93	163.4	192.04	74.175	6.3652e-06	59.044	0.0033395	0.0035152	0.0011345	1316.7	3.8457e-05	3.8136e-05	1142.6	498.8	3.7496e-05	3.9624e-05	485.95	194.85	215.32	83.852	4.5038e-05	72.981	207.340	80.728	176.484	56.156	76.778	234.496	54.483	60.855	94.404	232.325	57.855	61.715	65.083	69.841	133.787	64.884	-8191	255	
3635.124	1	1	0	0	0.035654	0.16932	0.084432	0.27598	0.27203	0.14691	0.037196	0.16704	0.18466	0.05406	0.29809	0.28138	0.058272	0.38919	0.2122	0.22894	-1.9708	-2.8479	-2.2562	-2.8875	-2.7562	-2.2417	-3.0021	-2.6417	-2.5312	-3.0083	-2.4896	-2.9146	-3.0479	-2.4729	-2.8063	-2.75	158.901	167.868	339.670	253.659	271.630	79.052	253.133	313.777	251.579	219.799	304.315	388.230	92.323	400.303	141.870	367.429	0.00032567	0.0021614	0.00052176	1145.1	1.1221e-05	2.9747e-05	952.73	442	1.858e-05	2.8069e-05	385.96	165.62	194.14	75.105	2.7736e-06	59.581	0.0032759	0.0037622	0.0011636	1316.1	3.8212e-05	4.1634e-05	1147.8	499.55	3.7485e-05	4.3099e-05	489.48	195.87	217.14	85.696	4.4763e-05	73.272	225.647	146.224	251.705	55.597	148.261	244.078	53.506	60.611	230.072	215.068	57.421	61.631	65.012	69.639	221.668	65.062	-8191	255	
3635.220	1	1	0	0	0.04752	0.11208	0.14792	0.26734	0.24856	0.22954	0.2719	0.38237	0.0159	0.27698	0.053833	0.13678	0.42238	0.43312	0.29849	0.11476	-2.0521	-2.8583	-2.1646	-2.8625	-2.8438	-2.2604	-2.8708	-2.6771	-2.2938	-2.9083	-2.4021	-2.6063	-3.1979	-2.4	-2.9292	-2.7292	328.112	197.432	133.027	287.507	114.019	103.218	348.451	362.097	185.336	369.914	196.165	379.394	50.005	61.140	306.794	382.960	0.000376	0.00041719	0.00013181	1152.4	1.0815e-05	2.5271e-05	957.95	445.29	1.3167e-05	1.5302e-05	388.09	167.42	195	75.361	1.0202e-05	60.351	0.0032775	0.0040208	0.0011258	1312.1	3.7785e-05	4.3518e-05	1135.8	498.06	3.6763e-05	4.3727e-05	483.85	194.45	217.11	86.194	4.0313e-05	72.508	209.497	294.161	61.412	55.573	144.914	162.289	53.743	60.717	260.310	206.605	57.221	61.503	64.756	69.665	54.401	65.364	-8191	255	
3635.341	1	1	0	0	0.10365	0.20525	0.19137	0.52556	0.17088	0.14121	0.2908	0.096749	0.13852	0.32414	0.11736	0.27733	0.21254	0.36	0.11168	0.24564	-1.925	-3.0417	-2.4146	-2.6833	-2.6937	-2.2042	-2.9313	-2.5083	-2.2354	-3.0271	-2.4375	-2.6375	-2.9958	-2.4313	-2.8229	-2.8812	362.975	385.252	96.623	348.472	349.246	70.735	332.162	245.435	154.995	178.978	109.387	280.238	57.888	343.980	278.368	344.775	0.00066449	0.0010714	0.00013536	1139.3	2.2532e-05	1.4602e-05	954.02	442.3	2.222e-05	1.3292e-05	386.07	163.8	192.54	75.54	6.2746e-06	60.223	0.003198	0.003908	0.0010148	1291.4	3.7456e-05	4.2831e-05	1116.1	492.79	3.7727e-05	4.2969e-05	473.34	190.65	216.44	86.037	3.7825e-05	71.765	206.368	402.595	377.019	55.806	240.914	268.480	54.085	60.903	230.694	79.616	57.681	61.636	65.230	69.576	126.972	65.325	-8191	255	
3635.435	1	1	0	0	0.25727	0.16871	0.12277	0.20644	0.25319	0.046369	0.34177	0.35387	0.23334	0.2096	0.23762	0.21794	0.18649	0.21267	0.21134	0.059405	-1.8563	-2.9771	-2.5417	-2.5563	-3.0187	-2.3563	-2.8229	-3.0771	-2.1688	-2.9771	-2.5021	-2.4875	-3.1417	-2.7417	-2.6271	-2.9583	367.373	308.329	102.985	369.683	347.756	151.279	244.225	365.050	279.031	320.043	345.513	305.138	66.352	361.012	43.830	395.067	0.00067507	0.00090893	0.00018547	1141.7	2.4447e-05	1.1927e-05	952.36	445.18	1.7391e-05	1.4294e-05	397.17	168.67	196.81	77.891	1.1633e-05	63.196	0.0033004	0.003695	0.00091854	1264.2	3.5772e-05	3.6985e-05	1081.1	484.16	3.3781e-05	3.4345e-05	457.33	186.9	214.72	85.414	2.91e-05	71.599	199.552	75.967	307.748	55.556	240.178	61.063	53.912	60.604	230.163	375.595	57.445	61.543	65.002	69.587	388.156	65.504	-8191	255	
3635.531	1	1	0	0	0.19573	0.37267	0.17668	0.16201	0.24633	0.18881	0.20105	0.18903	0.11889	0.089439	0.13738	0.17915	0.25748	0.13204	0.22196	0.16145	-2.0229	-2.7208	-2.5187	-2.3458	-3.0396	-2.4229	-2.8375	-3.0021	-2.2396	-2.75	-2.7333	-2.6271	-3.1729	-2.5542	-2.45	-3.0687	104.453	332.045	282.143	370.617	231.832	89.731	399.400	266.434	325.825	208.337	380.999	321.449	347.253	53.944	303.899	261.046	0.0004668	0.00069487	0.00049274	1147.2	2.1353e-05	1.0195e-05	969.14	451.03	7.4369e-06	1.8176e-05	402.26	171.43	199.33	78.61	4.4591e-06	63.642	0.0028511	0.0029044	0.00075371	1251.7	3.3417e-05	3.2559e-05	1083.1	489.59	3.4367e-05	3.2343e-05	462.53	190.87	218.58	85.731	2.9161e-05	72.678	200.396	293.532	101.682	55.611	238.276	393.372	53.676	60.904	173.349	364.996	57.749	61.704	65.006	69.615	242.982	65.419	-8191	255	
3635.652	1	1	0	0	0.10316	0.089283	0.27811	0.30621	0.10718	0.3505	0.31899	0.1361	0.013855	0.22878	0.1389	0.11067	0.054828	0.38805	0.15951	0.18286	-1.7125	-2.6521	-2.7146	-2.4062	-3.0833	-2.3958	-2.7521	-3.1562	-2.4292	-2.6833	-2.8312	-2.4083	-3.1479	-2.6979	-2.4167	-2.9979	358.926	307.663	167.510	360.125	215.908	357.104	45.306	345.572	380.392	386.811	309.954	104.986	155.658	312.502	244.240	366.088	0.00038045	0.00058112	0.00018004	1157.9	1.2198e-05	5.3927e-06	973.67	454.63	7.9506e-06	3.5488e-07	399.01	171.48	198.79	78.349	8.1282e-06	63.202	0.0030495	0.0029212	0.00077085	1275.8	3.5753e-05	3.3076e-05	1092.2	498.18	3.7572e-05	3.3969e-05	466.64	195.75	220.73	86.007	3.1091e-05	73.987	200.031	326.429	330.335	55.932	135.663	216.093	53.910	60.853	278.909	234.911	57.270	61.734	64.686	69.350	257.981	64.888	-8191	255	
3635.724	1	1	0	0	0.078741	0.13176	0.21152	0.27406	0.14858	0.02384	0.15092	0.18925	0.16418	0.30974	0.22546	0.19877	0.13119	0.28728	0.37232	0.19779	-1.9208	-2.5938	-2.7479	-2.3896	-2.7979	-2.775	-2.5542	-3.0833	-2.3083	-2.5417	-2.8396	-2.4813	-3.0146	-2.7104	-2.3646	-3.1	307.699	57.434	88.953	386.958	196.135	203.326	344.970	351.458	327.572	132.972	341.898	249.008	196.927	340.561	136.707	57.954	0.00047979	0.00048942	0.00036705	1150.8	1.165e-05	1.5063e-05	965.89	452.96	8.5559e-06	7.4866e-06	401.42	170.37	198.64	78.553	5.5779e-06	63.267	0.003185	0.0029604	0.00077734	1279.8	3.4369e-05	3.1137e-05	1073.7	495.51	3.3382e-05	2.9886e-05	457.69	194.4	217.27	85.363	2.9059e-05	74.07	181.645	117.245	144.473	55.768	133.739	103.844	53.531	60.646	105.100	65.055	57.567	61.548	64.748	69.485	186.516	65.220	-8191	255	
3635.820	1	1	0	0	0.21406	0.12089	0.022719	0.096319	0.13819	0.068556	0.15386	0.22397	0.11912	0.19234	0.24534	0.34825	0.39761	0.2908	0.21935	0.14573	-1.8854	-2.575	-2.9104	-2.2396	-2.8458	-2.8563	-2.5833	-3.0979	-2.5312	-2.4938	-3.2417	-2.4458	-2.9313	-2.8292	-2.2229	-3.2	89.053	365.177	376.903	62.599	364.896	206.863	47.578	385.929	383.283	114.977	332.277	330.428	362.172	368.298	209.217	364.544	0.00038461	0.00088309	0.00023821	1148.8	9.458e-06	9.429e-07	965.21	451.66	7.7055e-06	1.7145e-05	396.94	168.76	196.68	77.89	2.4622e-05	62.303	0.0029335	0.0027688	0.00077862	1290.3	3.2889e-05	3.086e-05	1084.2	499.36	3.3455e-05	3.0423e-05	464.27	196.35	216.39	85.122	3.3584e-05	75.026	198.434	71.608	122.071	55.545	73.743	234.443	54.192	60.800	347.572	169.839	57.870	61.802	64.835	69.443	215.784	65.283	-8191	255	
3635.940	1	1	0	0	0.021957	0.22468	0.16565	0.2785	0.23046	0.072164	0.043088	0.11927	0.15731	0.19694	0.1279	0.11228	0.26	0.23908	0.31982	0.26089	-2.0479	-2.5521	-2.8312	-2.4146	-2.5479	-2.8083	-2.4771	-3.0708	-2.5062	-2.4729	-3.1604	-2.4396	-2.8104	-3.0062	-2.4104	-2.8417	132.426	55.510	250.702	52.726	393.400	251.221	245.959	233.867	162.392	291.230	234.325	227.303	382.502	328.718	172.872	365.576	0.00041519	0.0010856	0.00074403	1150.4	1.1653e-05	1.8329e-05	964.69	446.13	3.0175e-06	6.3374e-06	391.89	165.97	194.44	76.045	3.3202e-05	60.736	0.0031304	0.003016	0.00093571	1320.4	3.6519e-05	3.4812e-05	1117.4	504.17	3.7333e-05	3.4286e-05	478.44	198.24	216.5	84.57	3.9173e-05	74.518	188.313	100.859	160.874	55.684	285.805	200.294	53.884	60.794	295.318	277.552	57.951	61.517	64.761	69.730	221.844	65.247	-8191	255	
3636.037	1	1	0	0	0.28155	0.064905	0.069134	0.21722	0.11722	0.094919	0.24166	0.25552	0.19801	0.066917	0.28395	0.1326	0.14134	0.19123	0.20682	0.21748	-2.0958	-2.4	-2.9604	-2.4542	-2.6813	-2.7729	-2.4479	-2.9771	-2.6083	-2.3875	-3.1583	-2.5375	-2.7354	-3.2646	-2.2938	-3.1792	81.191	202.990	236.053	97.030	140.226	114.762	364.877	340.696	379.447	153.157	392.985	358.942	59.285	51.481	209.217	381.751	0.00037185	0.0020982	0.00081114	1150.1	2.8718e-06	2.5644e-05	965.84	444.89	7.484e-06	8.8374e-06	393.11	165.08	193.54	74.9	1.4522e-05	59.525	0.0032309	0.0031275	0.0010307	1323.3	3.7161e-05	3.6709e-05	1145	505.71	4.0247e-05	3.859e-05	495.02	200.51	218.29	85.12	4.8025e-05	74.932	218.753	119.508	151.475	55.775	156.439	196.276	53.997	60.755	100.577	178.063	57.810	61.376	64.678	69.758	201.915	65.119	-8191	255	
3636.133	1	1	0	0	0.1659	0.16066	0.15285	0.22331	0.19816	0.066755	0.1988	0.18123	0.025972	0.20547	0.22392	0.11752	0.25405	0.11591	0.35952	0.11887	-2.1479	-2.5042	-2.9813	-2.4958	-2.6833	-2.8458	-2.3979	-3.0979	-2.8583	-2.2771	-3.0896	-2.7188	-2.5854	-2.9688	-2.2521	-2.625	162.895	369.091	179.044	332.894	360.024	300.965	402.330	337.241	371.686	333.094	348.396	345.384	348.970	367.588	88.480	237.235	0.000324	0.0013531	0.00068052	1144.3	6.7421e-06	2.3181e-05	956.18	440.32	9.926e-06	2.4219e-05	384.96	163.72	192.66	74.477	1.1819e-05	58.907	0.0037048	0.0038071	0.0012604	1340.8	4.1363e-05	4.3612e-05	1169.5	504.22	4.2043e-05	4.2895e-05	497.12	198.06	216.7	85.391	4.8537e-05	73.815	223.750	157.553	125.466	55.430	228.419	262.015	53.840	60.620	139.073	215.465	57.478	61.502	64.978	69.600	295.137	65.252	-8191	255	
3636.252	1	1	0	0	0.13869	0.091822	0.043634	0.14698	0.15438	0.041414	0.068948	0.18377	0.1915	0.28924	0.13722	0.11346	0.31227	0.23765	0.19978	0.076267	-2.5875	-2.3521	-2.8021	-2.5292	-2.5	-2.875	-2.4208	-3.0312	-2.7854	-2.2792	-3.025	-2.6292	-2.4188	-3.1229	-2.3208	-2.6792	251.473	338.673	130.588	305.242	364.815	145.335	315.974	385.413	257.184	193.758	264.916	159.643	318.946	330.103	357.147	57.733	0.00033643	0.002327	0.00031601	1136.4	1.1686e-05	2.092e-05	952.02	436.25	7.0144e-06	1.4937e-05	381.9	162.77	191.46	74.539	1.7466e-06	59.356	0.0035948	0.0040512	0.0012384	1330.5	4.0226e-05	4.6194e-05	1163.1	498.78	4.1042e-05	4.5803e-05	489.28	195.54	215.22	85.767	4.5316e-05	72.928	223.284	138.852	96.149	56.012	190.784	255.837	54.096	60.918	111.127	222.184	57.794	61.978	64.921	69.625	134.374	65.124	-8191	255	
3636.323	1	1	0	0	0.16955	0.11371	0.27888	0.25621	0.09498	0.13207	0.26124	0.41472	0.10597	0.13715	0.041715	0.12482	0.029045	0.066682	0.048916	0.27657	-2.4271	-2.2708	-2.7167	-2.8667	-2.3667	-3.15	-2.4208	-2.6688	-2.9146	-2.2521	-2.8604	-2.6917	-2.4938	-3.1813	-2.4	-2.6104	375.140	286.640	342.164	384.580	248.486	300.695	388.685	326.707	74.433	81.003	64.550	352.605	176.709	73.819	294.950	343.514	0.0004123	0.0029248	0.00066676	1143.2	1.4565e-05	7.3297e-06	956.91	443.12	1.6063e-05	1.2199e-05	390.3	167.97	195.25	76.418	9.134e-06	60.482	0.0033818	0.0040323	0.0010931	1309.3	3.6514e-05	4.2832e-05	1129.7	494.65	3.5974e-05	4.1167e-05	476.57	193.24	215.39	86.426	3.7438e-05	71.85	219.823	135.714	291.369	55.935	168.934	179.721	54.038	61.170	224.114	198.933	57.618	61.696	64.852	69.535	290.826	65.386	-8191	255	
3636.419	1	1	0	0	0.053356	0.19041	0.060132	0.13211	0.31065	0.13793	0.14871	0.12282	0.11718	0.16194	0.1244	0.034035	0.37727	0.18563	0.29686	0.14278	-2.6021	-2.2833	-2.7188	-2.8229	-2.2896	-3	-2.6437	-2.6583	-2.7729	-2.3479	-2.8104	-2.8417	-2.8021	-3.1188	-2.4708	-2.5479	301.590	390.342	213.148	251.416	60.840	297.149	52.708	361.974	85.668	288.049	44.955	189.464	368.545	308.580	264.688	360.237	0.00060991	0.00074633	0.00031219	1141.7	2.2755e-05	1.4016e-05	957.23	443.19	1.3093e-05	6.7606e-06	387.33	166.11	194.87	76.287	7.9917e-06	60.273	0.0030859	0.0037167	0.00095462	1285.4	3.6466e-05	4.219e-05	1114.5	490.19	3.865e-05	4.308e-05	473.48	192.9	218.15	86.811	4.0356e-05	72.233	212.537	168.644	265.019	56.025	226.875	259.089	53.756	60.761	244.892	88.670	57.335	61.500	64.804	69.261	231.547	64.932	-8191	255	
3636.516	1	1	0	0	0.20762	0.12501	0.10578	0.18141	0.19521	0.2446	0.1064	0.61319	0.2041	0.20966	0.10398	0.26906	0.39306	0.15583	0.18829	0.29132	-2.4521	-2.2146	-2.6312	-2.8292	-2.2979	-2.9458	-2.8167	-2.6188	-2.8979	-2.2938	-2.6771	-3.0292	-2.3833	-3.0625	-2.5563	-2.4625	110.924	369.312	286.195	378.372	104.747	266.420	230.998	384.711	83.380	336.874	380.048	327.870	50.160	52.483	71.082	383.009	0.00067637	0.00032594	0.0005868	1151.2	2.3875e-05	1.2008e-05	957.52	441.37	1.2629e-05	1.5514e-05	384.46	165.76	193.72	75.723	8.1345e-06	60.59	0.0036679	0.0041035	0.0010286	1302.4	4.3306e-05	4.4844e-05	1122.6	491.36	4.3757e-05	4.4042e-05	469.81	191.96	218.89	85.66	3.8509e-05	71.92	205.144	232.996	376.387	55.527	220.237	347.629	53.709	60.371	212.643	85.736	56.936	61.810	64.707	69.480	100.116	65.012	-8191	255	
3636.612	1	1	0	0	0.12013	0.16564	0.16418	0.28234	0.23798	0.11422	0.27093	0.22797	0.05333	0.1199	0.18229	0.15901	0.56976	0.27334	0.15336	0.24942	-2.65	-2.2875	-2.5396	-2.9417	-2.2021	-3.025	-2.7875	-2.5083	-2.9313	-2.325	-2.6271	-2.9333	-2.3333	-3.0521	-2.5792	-2.4771	139.920	382.800	255.422	398.701	292.155	234.171	373.640	327.757	324.543	118.195	355.417	65.687	347.419	362.201	371.580	269.212	0.0005338	0.0013345	0.00030371	1153.5	2.7439e-05	8.4806e-06	958.65	444.54	8.7092e-06	1.8821e-06	389.23	166.85	195.77	76.287	2.7005e-06	61.484	0.0037063	0.0037293	0.00093712	1292.1	4.1944e-05	3.9548e-05	1105.2	490.7	4.1692e-05	3.8518e-05	462.08	191.39	217.82	84.673	3.3609e-05	71.901	195.269	325.022	381.040	55.570	234.394	397.283	53.922	60.565	229.878	44.569	57.309	61.833	64.866	69.383	166.417	64.960	-8191	255	
3636.732	1	1	0	0	0.15088	0.21919	0.14121	0.16092	0.039047	0.14723	0.40691	0.43454	0.033693	0.060752	0.16924	0.26936	0.41447	0.29767	0.072606	0.31635	-2.5396	-2.3583	-2.5167	-3.1292	-2.2896	-2.65	-2.9646	-2.4771	-2.8063	-2.5833	-2.6437	-3.0062	-2.5187	-2.7958	-2.8396	-2.3479	323.025	90.557	149.219	53.337	177.465	144.293	325.088	316.851	317.554	91.442	339.811	372.886	381.426	43.645	191.812	291.739	0.00037941	0.0012824	0.00014582	1151.3	1.076e-05	3.7511e-06	963.47	446.66	1.5962e-05	8.2627e-07	393.01	168.24	194.37	76.821	1.0947e-05	61.787	0.003309	0.0031311	0.00079368	1277.7	3.6803e-05	3.2871e-05	1083.3	489.93	3.6759e-05	3.3604e-05	456.94	192.49	216.3	84.361	3.1938e-05	72.873	201.665	141.526	272.804	55.611	132.855	98.082	53.917	60.545	60.958	323.027	57.473	61.663	64.990	69.545	167.068	65.576	-8191	255	
3636.828	1	1	0	0	0.18514	0.14336	0.13579	0.25899	0.10692	0.17903	0.072085	0.35035	0.17246	0.11136	0.32686	0.30243	0.22187	0.27983	0.055352	0.17415	-2.5042	-2.4479	-2.4375	-2.8729	-2.15	-2.5396	-3.0271	-2.2958	-2.8375	-2.5542	-2.4271	-3.1125	-2.5062	-2.9062	-2.9125	-2.2146	160.171	288.915	341.988	359.129	344.101	181.027	290.314	350.423	203.537	279.569	269.089	341.081	57.645	376.018	214.206	61.375	0.00031018	0.00086304	0.00014211	1151.1	8.4596e-06	1.6291e-05	965.06	445.67	1.5694e-05	6.8307e-06	396	167.86	193.91	76.528	1.4167e-05	61.291	0.0032047	0.0030535	0.00078709	1293.3	3.6033e-05	3.2262e-05	1085.9	493.73	3.5075e-05	3.2178e-05	456.06	193.52	214.75	83.886	3.0886e-05	73.106	212.035	323.139	254.577	55.505	291.365	150.127	54.019	60.865	374.356	71.360	57.924	61.777	65.115	69.567	239.251	65.396	-8191	255	
3636.925	1	1	0	0	0.17692	0.15302	0.25132	0.2681	0.15618	0.096997	0.14238	0.29281	0.23677	0.11468	0.066681	0.13512	0.075929	0.47022	0.087783	0.31895	-2.5125	-2.7021	-2.1646	-3.0229	-2.4188	-2.5167	-3.2062	-2.5146	-2.8375	-2.6896	-2.4792	-3.025	-2.3729	-2.6937	-2.9604	-2.375	193.982	172.010	349.606	366.304	296.384	231.724	350.310	258.864	352.190	256.494	177.938	307.791	339.834	396.637	240.462	361.522	0.00035505	0.00078262	0.00085642	1139.8	1.4137e-05	9.0524e-06	961.06	444.09	1.4404e-05	6.5199e-06	396.31	169.1	195.44	77.388	1.5401e-05	62.996	0.0029519	0.0028737	0.000781	1292	3.3475e-05	3.0102e-05	1081.9	492.05	3.1126e-05	2.9207e-05	456.7	193.17	212.82	83.652	2.9227e-05	73.128	204.469	367.862	138.679	55.925	402.596	83.938	54.196	60.933	140.552	187.008	57.549	62.121	65.104	69.636	198.837	65.287	-8191	255	
3637.021	1	1	0	0	0.23882	0.15529	0.17538	0.086677	0.1968	0.14774	0.29928	0.30849	0.11877	0.16588	0.22212	0.14733	0.26679	0.23693	0.16972	0.19562	-2.275	-2.6375	-2.35	-3.0312	-2.7687	-2.4542	-3.0938	-2.5979	-2.8063	-2.7667	-2.1729	-3.2313	-2.9188	-2.5604	-3.1271	-2.4	176.319	378.827	92.896	374.443	194.756	358.647	332.681	324.742	278.543	207.658	312.269	285.508	348.665	334.794	157.628	258.168	0.00031321	0.0010339	0.00048788	1149.1	1.5165e-05	1.1e-05	971.82	448.12	4.5891e-06	5.1627e-06	397.38	170.35	196.49	77.662	1.2055e-05	62.949	0.0025481	0.002534	0.00076081	1280.2	3.004e-05	2.7669e-05	1097.1	494.39	2.9973e-05	2.8653e-05	467.44	195.08	214.71	84.367	3.3396e-05	73.854	225.168	224.171	102.153	55.755	195.367	99.991	54.215	60.611	391.042	116.617	58.033	62.092	65.278	69.657	231.551	65.308	-8191	255	
3637.117	1	1	0	0	0.14746	0.22105	0.32678	0.30304	0.15635	0.16674	0.26017	0.45547	0.18923	0.14096	0.043957	0.049292	0.25094	0.069713	0.033542	0.29772	-2.1437	-2.7771	-2.2271	-3.0271	-2.4958	-2.375	-3.2479	-2.6146	-2.5833	-2.8958	-2.4208	-3.1208	-2.7396	-2.5771	-2.8646	-2.4375	80.562	402.079	71.909	51.894	184.450	327.854	392.465	318.202	132.729	359.570	261.436	66.901	361.518	396.798	270.808	81.862	0.00051151	0.00069932	0.00043789	1151.2	1.0074e-05	8.8484e-06	975.49	449.59	6.5346e-06	1.1212e-05	399.81	170.28	196.26	77.64	1.0848e-05	62.809	0.0026229	0.0026502	0.0008444	1284.1	2.976e-05	2.8138e-05	1112	493.51	2.8855e-05	2.8837e-05	473.75	194.02	214.16	84.492	3.4997e-05	73.503	194.694	108.125	186.973	55.963	265.334	209.893	54.484	60.862	113.048	246.659	57.895	61.984	65.346	69.977	144.689	65.125	-8191	255	
3637.213	1	1	0	0	0.13303	0.098827	0.094266	0.37873	0.098526	0.1173	0.26185	0.42426	0.085251	0.11312	0.25369	0.22276	0.20176	0.39752	0.10804	0.20439	-2.15	-2.8771	-2.2042	-2.7604	-2.7208	-2.3896	-3.1729	-2.6229	-2.5521	-2.9167	-2.3812	-3.0479	-2.8271	-2.2271	-2.9437	-2.6437	251.586	284.327	178.161	390.152	282.175	114.047	345.885	337.792	241.128	98.898	360.330	129.890	58.811	344.109	392.167	381.735	0.0004274	0.0015262	0.00059054	1152.3	3.3997e-06	1.9201e-05	975.98	447.61	1.0683e-06	2.9762e-05	400.13	169.92	196.59	77.239	9.6597e-06	62.546	0.002619	0.0028401	0.00091348	1285	3.0722e-05	3.1406e-05	1121.8	491.61	2.9532e-05	3.1682e-05	473.52	191.27	212.4	84.51	3.4363e-05	72.118	211.914	110.908	176.405	55.886	190.233	205.574	54.144	60.732	390.686	169.740	57.592	61.652	64.945	69.507	182.177	65.277	-8191	255	
3637.334	1	1	0	0	0.058823	0.23732	0.057121	0.3294	0.43928	0.29734	0.39851	0.10227	0.40558	0.23112	0.18252	0.07884	0.21594	0.039729	0.30783	0.18126	-1.975	-2.8604	-2.225	-2.9042	-2.7542	-2.325	-3.0229	-2.7917	-2.1896	-2.9271	-2.3438	-2.7646	-2.9688	-2.5354	-2.8667	-2.5875	210.050	217.225	305.238	47.368	359.932	244.121	268.312	338.028	402.677	264.783	323.242	345.964	51.445	325.368	195.877	277.527	0.00051494	0.0019204	0.00012991	1153.6	1.5535e-05	2.0202e-05	980.36	451.88	6.605e-06	1.1704e-05	404.16	173.13	198.42	78.3	1.0087e-05	63.284	0.0024823	0.0029075	0.00086062	1268.5	2.8204e-05	3.1629e-05	1108.5	490.82	2.7485e-05	3.2172e-05	473.63	193.26	214.71	85.748	3.3235e-05	72.725	203.750	139.824	92.071	55.610	205.156	224.407	54.119	60.684	227.653	180.272	57.183	61.548	64.990	69.784	397.984	65.068	-8191	255	
3637.428	1	1	0	0	0.2237	0.10427	0.076038	0.377	0.20583	0.25844	0.035021	0.36493	0.15582	0.064276	0.047544	0.18635	0.38844	0.23601	0.16177	0.2407	-1.8937	-2.7875	-2.4167	-2.6479	-2.7042	-2.1896	-2.8354	-2.7062	-2.3396	-3.0354	-2.5875	-2.5771	-2.9542	-2.4479	-2.7958	-2.7521	202.911	255.908	332.883	355.240	212.489	184.285	74.338	351.542	264.234	50.813	114.512	50.711	358.449	390.283	385.502	329.882	0.00063867	0.0010352	0.00017169	1159.6	9.4504e-06	2.0442e-05	984.42	453.05	1.7608e-05	1.1252e-05	405.23	173.37	199.93	78.338	1.2219e-05	63.622	0.002571	0.0032099	0.00087991	1279.7	3.0996e-05	3.6426e-05	1119.6	494.6	3.1531e-05	3.7021e-05	475.48	193.98	216.72	86.698	3.3116e-05	72.886	216.745	122.366	50.760	55.696	188.308	194.416	53.779	60.476	254.831	241.025	57.355	61.163	64.829	69.462	82.020	65.066	-8191	255	
3637.524	1	1	0	0	0.08018	0.11187	0.33057	0.29802	0.07256	0.10192	0.20081	0.19193	0.090665	0.17764	0.2816	0.13781	0.12365	0.22924	0.23126	0.33137	-2.0146	-2.8229	-2.4146	-2.5333	-2.8354	-2.3312	-2.8271	-2.8979	-2.2625	-3.0042	-2.6708	-2.7458	-2.9646	-2.525	-2.4938	-2.9417	243.565	55.032	183.079	394.732	396.681	322.931	333.876	377.219	332.642	337.759	354.599	130.790	316.737	51.492	50.127	322.743	0.00072698	0.0015608	0.00018066	1168.1	1.2259e-05	4.2358e-06	982.55	454.62	1.6578e-05	3.5412e-06	404.18	173.85	199.34	78.589	5.8238e-06	64.366	0.0027354	0.00324	0.00082538	1270.3	3.107e-05	3.4509e-05	1101.6	489.81	3.0628e-05	3.3911e-05	469.12	192.25	216.85	86.485	3.0029e-05	72.747	201.810	111.506	319.717	55.575	208.513	79.776	53.705	60.714	258.498	99.899	57.767	61.539	65.187	69.467	390.191	65.314	-8191	255	
3637.620	1	1	0	0	0.11508	0.19116	0.040899	0.43294	0.09478	0.074116	0.21262	0.34412	0.11068	0.084565	0.075802	0.26923	0.22125	0.10247	0.097783	0.35031	-1.9083	-3.025	-2.5979	-2.4875	-2.7896	-2.3667	-2.7188	-3.0292	-2.1375	-2.8417	-2.5312	-2.5167	-3.0771	-2.525	-2.5958	-2.9896	196.818	256.332	178.169	378.432	340.143	300.600	234.426	362.902	167.305	91.313	348.171	297.480	358.078	321.518	226.864	357.983	0.00065949	0.00057209	0.00034352	1150.6	2.0973e-05	1.7245e-05	975.64	453.19	1.4447e-05	1.3208e-05	405.51	172.56	198	78.371	9.111e-06	63.655	0.0027934	0.003065	0.00078593	1261.6	3.2804e-05	3.3613e-05	1096.7	489.1	3.2924e-05	3.2763e-05	467.81	191.78	217.91	86.106	2.9243e-05	72.531	215.611	223.029	106.653	55.774	251.648	289.540	54.176	60.916	201.937	387.111	57.602	61.679	65.206	69.872	187.332	65.497	-8191	255	
3637.717	1	1	0	0	0.14214	0.13578	0.14675	0.21991	0.056493	0.28533	0.094141	0.56375	0.069871	0.099926	0.2538	0.21333	0.18774	0.364	0.059494	0.26825	-1.8521	-2.8375	-2.5417	-2.5167	-3.1458	-2.3896	-2.5438	-3.1417	-2.3646	-2.8479	-2.7375	-2.5521	-3.0208	-2.5167	-2.4938	-3.0563	216.262	197.250	288.440	388.528	395.013	295.357	204.304	374.832	122.967	108.801	366.119	343.196	331.003	50.922	137.050	361.099	0.00049648	0.00062143	0.00029981	1160.9	1.3738e-05	1.7825e-05	982.02	453.41	7.1472e-06	1.3047e-05	406.24	172.55	198.75	78.382	6.9388e-06	64.2	0.0029327	0.0028981	0.00075653	1265.9	3.3542e-05	3.1809e-05	1095	491.94	3.3805e-05	3.1014e-05	466.47	193.38	218.96	85.781	2.894e-05	73.684	219.321	300.963	357.700	55.911	258.245	402.852	54.215	60.876	216.721	78.068	58.127	61.697	65.160	69.808	187.520	65.718	-8191	255	
3637.813	1	1	0	0	0.18219	0.16161	0.16546	0.091473	0.096023	0.11178	0.38522	0.23698	0.14586	0.19023	0.24509	0.37244	0.41357	0.35766	0.12933	0.16466	-1.7646	-2.5687	-2.7729	-2.3917	-2.9979	-2.2042	-2.4792	-3.1333	-2.1688	-2.7396	-2.9292	-2.4437	-3.0958	-2.6792	-2.6292	-3.0104	137.115	331.132	102.993	86.428	205.962	365.116	300.993	324.358	402.168	73.051	304.469	328.876	370.355	356.913	291.907	384.983	0.00035201	0.00065432	0.00016949	1166.3	9.1421e-06	4.3099e-06	992.33	458.82	6.9728e-06	6.1604e-06	406.01	174.43	199.67	79.36	1.6881e-05	64.498	0.003063	0.0028545	0.00076009	1286.3	3.5126e-05	3.2168e-05	1102.2	499.27	3.5552e-05	3.1776e-05	469.03	198.45	220.14	86.275	3.0111e-05	75.447	227.040	351.916	108.209	55.908	253.381	220.926	53.925	60.650	161.087	239.932	57.380	61.607	64.751	69.410	224.269	65.210	-8191	255	
3637.909	1	1	0	0	0.035241	0.29269	0.10209	0.54719	0.12215	0.10503	0.28014	0.23911	0.12449	0.046763	0.11196	0.14303	0.10255	0.10512	0.25611	0.19737	-1.9312	-2.7083	-2.8729	-2.375	-2.9042	-2.6188	-2.5604	-3.0604	-2.2583	-2.6437	-2.9229	-2.4625	-2.9583	-2.8187	-2.2854	-3.1833	81.603	340.037	149.436	389.613	373.185	291.905	309.145	332.741	393.924	349.059	271.513	45.087	378.815	355.311	300.046	235.828	0.00033609	0.00082953	0.0002033	1169.8	7.1284e-06	4.6591e-06	988.4	457.69	4.9309e-06	9.9179e-06	409.68	175.55	200.67	79.57	1.702e-05	64.705	0.0031313	0.0029217	0.00078857	1305.3	3.4665e-05	3.2053e-05	1103.6	502.64	3.417e-05	3.0682e-05	469.73	199.46	218.64	86.054	3.0063e-05	75.97	192.058	357.512	165.030	55.663	389.786	48.544	53.860	60.764	176.612	56.440	57.741	61.635	64.834	69.472	206.240	65.045	-8191	255	
3638.029	1	1	0	0	0.3834	0.29693	0.065938	0.15836	0.050888	0.057273	0.26934	0.34971	0.11742	0.1591	0.38548	0.34127	0.34494	0.20659	0.24169	0.083358	-1.9	-2.675	-2.8333	-2.3646	-2.8771	-2.8792	-2.5375	-3.0062	-2.4	-2.4938	-3.1104	-2.3979	-2.8625	-2.9458	-2.3937	-3.0771	239.247	211.497	328.967	61.947	203.491	55.401	394.289	358.519	52.673	158.446	308.995	390.806	376.633	390.712	176.658	198.520	0.00033174	0.00056584	0.00027127	1168.3	7.6199e-06	9.7386e-06	1000.1	460.39	1.6024e-05	1.4795e-06	411.26	175.72	200.24	79.256	8.309e-06	64.231	0.0029037	0.0027268	0.00078763	1305.4	3.2209e-05	3.0798e-05	1111.9	505.19	3.2936e-05	3.0122e-05	476.08	200.81	217.99	85.622	3.278e-05	75.767	212.390	297.468	140.296	55.525	98.139	149.086	53.764	60.483	207.526	137.498	57.470	61.598	64.558	69.498	291.853	65.284	-8191	255	
3638.126	1	1	0	0	0.1114	0.25768	0.34499	0.1556	0.15734	0.057886	0.28935	0.37537	0.12092	0.13503	0.25327	0.4054	0.15517	0.28054	0.11228	0.044255	-1.9562	-2.2729	-2.9688	-2.3167	-2.6521	-2.8917	-2.5542	-2.9562	-2.3937	-2.3604	-3.0479	-2.3125	-2.7208	-2.9437	-2.2313	-2.9708	298.174	95.849	153.233	64.715	353.679	347.946	330.603	363.489	378.688	321.664	347.801	339.807	349.070	54.640	342.730	54.790	0.00033749	0.0010534	0.00048203	1173.5	1.1277e-05	3.1275e-06	1001.2	458.79	8.3634e-06	4.3253e-06	411.96	175.78	200.72	79.48	3.2047e-05	65.127	0.0029004	0.0027782	0.00086978	1314	3.2328e-05	3.0811e-05	1128.4	504.79	3.2199e-05	2.9726e-05	483.12	200.36	217.5	85.802	3.4349e-05	75.708	209.392	310.073	143.347	55.388	90.577	179.689	53.992	60.390	90.768	164.799	57.600	61.846	64.799	69.635	236.822	64.889	-8191	255	
3638.197	1	1	0	0	0.22394	0.22279	0.1919	0.4081	0.22379	0.12482	0.26301	0.15242	0.099563	0.21626	0.074768	0.04989	0.16803	0.42322	0.29169	0.036636	-2.3208	-2.3396	-3.1396	-2.5625	-2.725	-2.8875	-2.6354	-3.0104	-2.6146	-2.5125	-3.0938	-2.5062	-2.7083	-3.0604	-2.2104	-2.9167	281.210	273.075	332.346	385.312	86.740	394.072	318.562	231.928	329.855	287.088	329.489	92.619	55.074	344.351	250.331	376.214	0.00040118	0.00065939	0.00024429	1166.2	1.6203e-05	5.3953e-06	1002.3	459.18	2.098e-06	1.8501e-05	414.94	176.62	201.83	80.066	5.4576e-06	65.596	0.002726	0.0026637	0.00088347	1300	2.9968e-05	2.9854e-05	1136	501.48	3.0406e-05	2.9775e-05	487.01	199.19	217.64	86.557	3.5241e-05	75.603	183.505	128.993	207.508	55.506	181.539	259.210	54.004	60.510	295.507	171.264	57.566	61.662	64.730	69.622	355.741	65.260	-8191	255	
3638.293	1	1	0	0	0.083048	0.19268	0.1472	0.25623	0.10697	0.098069	0.16115	0.22929	0.16513	0.1152	0.37429	0.18496	0.53486	0.2299	0.13326	0.26201	-2.3063	-2.3292	-3.0083	-2.4479	-2.7458	-3.1	-2.4521	-3.0292	-2.7771	-2.2438	-2.9271	-2.5542	-2.6271	-3.0833	-2.3646	-2.9667	374.070	294.497	82.248	319.524	364.101	365.090	334.278	351.182	276.865	252.747	350.817	331.571	70.605	359.210	222.371	313.361	0.00055543	0.00193	0.0001641	1168.6	2.7738e-06	2.6306e-05	1000.2	460.45	8.3279e-06	2.3384e-05	414.36	176.93	201.33	80.112	6.0516e-06	65.48	0.0026683	0.0028099	0.00090606	1297	2.9467e-05	3.1722e-05	1142.4	499.83	2.9868e-05	3.1686e-05	488.38	198.85	217.11	87.31	3.5155e-05	75.102	206.353	141.905	207.481	55.742	100.495	180.583	54.056	60.586	205.228	221.016	57.545	61.617	64.823	69.523	307.763	64.962	-8191	255	
3638.412	1	1	0	0	0.12783	0.21452	0.089329	0.21203	0.23969	0.069782	0.16399	0.18854	0.18139	0.20172	0.24002	0.17905	0.17901	0.27886	0.20558	0.31733	-2.3063	-2.2625	-2.9979	-2.5271	-2.4208	-3.0625	-2.4604	-2.8896	-2.8646	-2.1604	-2.9354	-2.5417	-2.6	-3.2792	-2.4417	-2.8312	148.650	94.674	256.828	379.408	123.225	105.303	224.585	357.807	215.355	220.251	115.567	89.900	360.161	42.910	164.799	260.355	0.00057062	0.0017279	0.00013979	1172.6	1.2707e-05	9.8136e-06	1004.4	461.21	1.6437e-05	1.1809e-05	413.15	176.41	201.19	79.415	8.5316e-06	64.831	0.0026255	0.0030175	0.00088929	1294.5	2.9255e-05	3.3912e-05	1136.9	499.55	2.9881e-05	3.4177e-05	485.17	198.25	217.22	87.646	3.4802e-05	74.529	216.972	128.933	366.723	55.673	236.652	151.268	53.901	60.599	237.295	141.010	57.387	61.818	64.835	69.602	289.449	64.997	-8191	255	
3638.508	1	1	0	0	0.21181	0.46631	0.17374	0.16556	0.36992	0.26566	0.13941	0.18392	0.21396	0.34655	0.11148	0.21115	0.044147	0.21488	0.099157	0.076813	-2.3063	-2.1229	-2.8542	-2.5146	-2.2042	-2.8812	-2.6229	-2.7375	-2.6958	-2.1813	-3.0229	-2.7708	-2.4083	-3.1667	-2.275	-2.7229	348.064	294.206	170.362	332.824	370.503	125.311	168.028	348.133	77.076	298.348	323.542	295.697	401.323	77.417	167.322	123.788	0.00062418	0.0012854	0.00026866	1168.7	1.37e-05	1.3996e-05	1005.5	458.31	2.0246e-05	4.5677e-06	408.39	174.87	200.06	78.472	4.9021e-06	64.46	0.0027299	0.0033029	0.00088431	1295	3.1392e-05	3.7258e-05	1142.7	499.46	3.3498e-05	3.8756e-05	486.23	198.51	219.43	87.863	3.6803e-05	74.718	204.061	69.668	391.593	55.676	246.370	216.198	53.721	60.660	236.594	182.486	57.728	61.565	64.685	69.687	46.044	64.921	-8191	255	
3638.605	1	1	0	0	0.14674	0.28408	0.25651	0.24093	0.29071	0.13776	0.38776	0.33603	0.26849	0.074067	0.2576	0.323	0.30211	0.048652	0.26544	0.26988	-2.5167	-2.1292	-2.7833	-2.6479	-2.1458	-2.9646	-2.4896	-2.7208	-2.9458	-2.3667	-2.8167	-2.8979	-2.4229	-3.0396	-2.475	-2.4562	117.383	83.914	153.159	337.846	396.991	302.176	381.782	310.662	149.404	230.278	270.777	378.424	367.565	351.376	295.038	402.444	0.00076531	0.00074973	0.00017909	1166.6	2.3924e-05	4.7355e-06	992.74	455.6	1.7857e-05	1.4724e-05	406.75	174.63	199.73	77.8	1.1385e-05	63.774	0.0031479	0.0036858	0.00092442	1302.3	3.6031e-05	3.9894e-05	1137.6	498.25	3.755e-05	4.0788e-05	484.18	198.64	221.93	87.846	3.744e-05	74.814	200.848	236.922	177.166	55.769	247.800	76.847	53.800	60.486	224.229	385.068	57.345	61.671	64.684	69.577	206.357	65.309	-8191	255	
3638.701	1	1	0	0	0.16189	0.029908	0.07301	0.1902	0.24165	0.12219	0.16873	0.044553	0.12334	0.27123	0.19304	0.13697	0.21553	0.21922	0.20075	0.21247	-2.4667	-2.3063	-2.5854	-2.8021	-2.3479	-2.8646	-2.7438	-2.8042	-3.0417	-2.4021	-2.6083	-3.0771	-2.3979	-2.9604	-2.7417	-2.5167	386.543	158.344	242.195	380.739	334.759	366.829	263.535	301.512	99.425	225.983	295.867	74.910	363.683	345.191	278.424	340.398	0.00065677	0.0011464	9.0002e-05	1168.4	2.4793e-05	6.853e-06	986.6	453.27	1.4163e-05	4.2971e-06	405.56	174.35	199.48	77.879	3.2157e-06	64.007	0.0035193	0.0037821	0.00094994	1311.3	4.0794e-05	4.0645e-05	1138.2	499.58	4.0817e-05	3.9875e-05	482.45	199.25	223.77	87.284	3.5255e-05	74.758	191.905	381.419	165.250	55.475	254.212	56.494	53.826	60.452	262.745	87.560	57.612	61.908	64.908	69.743	241.581	65.385	-8191	255	
3638.821	1	1	0	0	0.18764	0.2766	0.20219	0.19367	0.2185	0.23826	0.42134	0.10421	0.14955	0.25671	0.064966	0.39254	0.061676	0.068674	0.17671	0.23044	-2.5021	-2.4437	-2.5729	-2.9708	-2.3646	-2.8	-2.6396	-2.5667	-2.975	-2.6292	-2.525	-2.9208	-2.3667	-2.9042	-2.7375	-2.3688	210.703	80.884	380.269	357.166	393.668	203.764	364.962	305.693	119.902	158.172	197.326	339.944	148.593	87.942	257.532	335.798	0.00053111	0.00071483	0.00037191	1164.3	1.7634e-05	8.6487e-06	980.27	453.56	7.4619e-06	1.2498e-05	405.88	175.12	199.32	77.632	1.0858e-05	63.572	0.0034812	0.0034577	0.00086383	1302.1	3.9629e-05	3.6545e-05	1121.4	501.03	3.9828e-05	3.6986e-05	477.19	200.94	224.72	86.723	3.5364e-05	75.674	221.754	366.562	108.700	55.885	301.415	302.855	53.926	60.834	210.140	273.054	57.373	61.900	64.902	69.698	185.471	65.368	-8191	255	
3638.893	1	1	0	0	0.15234	0.28422	0.13566	0.29105	0.074677	0.36341	0.33291	0.36997	0.093939	0.107	0.23327	0.18139	0.29705	0.21809	0.33004	0.027314	-2.6479	-2.4875	-2.4646	-3.0187	-2.2792	-2.6229	-2.7	-2.4729	-2.9625	-2.3958	-2.4521	-3.2854	-2.4042	-2.7229	-2.7771	-2.3312	297.933	97.768	393.140	355.978	76.929	272.313	326.949	338.308	348.332	110.700	402.211	313.699	389.673	88.047	50.216	154.777	0.00038404	0.0016899	0.00030276	1157.5	2.1289e-05	1.0392e-05	983.06	451.27	4.8635e-07	1.1935e-05	404.43	174.35	199.97	77.372	9.5527e-06	63.539	0.0036318	0.0034819	0.00088888	1320.5	4.1695e-05	3.7428e-05	1126.6	506.55	4.1192e-05	3.762e-05	478.3	203.9	224.81	86.493	3.5506e-05	77.065	179.819	329.276	254.427	55.932	210.114	242.294	54.327	60.821	249.048	307.814	57.474	61.908	64.993	69.817	221.271	65.633	-8191	255	
3639.014	1	1	0	0	0.38382	0.22577	0.19647	0.16653	0.28352	0.18199	0.10024	0.17377	0.089739	0.085977	0.26097	0.15768	0.18618	0.43149	0.048117	0.075792	-2.3396	-2.4604	-2.2292	-2.8979	-2.2479	-2.5375	-2.9813	-2.4125	-2.9021	-2.6562	-2.4938	-3.1167	-2.5021	-2.8042	-2.8458	-2.5292	296.961	246.196	180.078	109.890	371.502	332.926	292.016	344.896	326.207	169.030	384.421	323.741	346.286	346.501	378.241	365.377	0.00023857	0.00058834	0.00019549	1152.5	4.5349e-06	9.2633e-06	983.34	452.83	1.5846e-05	8.1771e-06	404.9	175.79	199.86	77.68	1.6611e-05	63.992	0.0035218	0.0033882	0.00088559	1330.4	4.0176e-05	3.6191e-05	1127.9	511.37	3.9137e-05	3.6408e-05	480.82	206.03	223.84	86.336	3.594e-05	78.027	223.257	111.896	189.495	56.311	168.646	139.416	54.495	60.674	170.242	87.758	57.755	61.843	65.156	69.616	204.571	65.431	-8191	255	
3639.110	1	1	0	0	0.14169	0.36074	0.19175	0.2761	0.11951	0.15741	0.23122	0.25201	0.21866	0.11651	0.26638	0.12788	0.34805	0.30969	0.12337	0.15231	-2.3958	-2.4	-2.4125	-3.2646	-2.5583	-2.65	-3.1479	-2.3583	-2.6042	-2.9104	-2.4437	-2.9271	-2.5875	-2.7896	-2.8521	-2.2792	338.999	263.907	364.951	363.345	209.085	338.990	294.985	274.965	212.689	282.256	303.772	358.191	369.657	358.392	156.500	382.737	0.00019984	0.00087174	0.00054119	1162.5	1.6001e-05	9.6145e-06	990.17	452.25	1.0329e-05	6.9872e-06	405.33	174.68	199.66	77.55	2.5616e-05	63.731	0.0033455	0.0032851	0.00091943	1337.1	3.8506e-05	3.5087e-05	1140.8	512.6	3.7719e-05	3.5616e-05	485.77	205.42	221.53	85.68	3.7757e-05	77.281	214.373	53.133	157.141	55.755	297.064	57.368	54.491	60.775	237.218	237.490	57.925	61.699	64.934	69.673	239.010	65.181	-8191	255	
3639.206	1	1	0	0	0.13114	0.11713	0.25188	0.21477	0.13477	0.091402	0.26047	0.25531	0.11805	0.10303	0.19889	0.19462	0.43621	0.1941	0.25661	0.18106	-2.4188	-2.8042	-2.125	-3.1688	-2.5167	-2.2667	-3.0521	-2.5208	-2.6479	-2.7438	-2.1688	-3.0292	-2.6417	-2.6813	-3	-2.4437	344.346	256.264	154.727	327.816	133.318	185.590	304.419	284.946	44.683	302.962	313.710	309.837	337.996	48.564	131.517	360.489	0.0004903	0.00040338	0.00074622	1155.2	8.2679e-06	1.5797e-06	976.4	449.87	9.734e-06	8.2982e-06	403.69	173.12	199.36	77.112	2.3796e-05	63.479	0.0031393	0.0031108	0.00095651	1319.8	3.5563e-05	3.2747e-05	1136.2	506.75	3.5141e-05	3.3843e-05	489.68	202.92	220.72	85.511	3.9951e-05	76.905	191.321	126.970	124.033	55.793	60.515	76.608	54.670	61.057	374.126	378.444	58.202	61.917	65.200	69.755	219.363	65.526	-8191	255	
3639.302	1	1	0	0	0.347	0.1697	0.15046	0.15645	0.13874	0.22163	0.081032	0.13564	0.11733	0.067293	0.079807	0.044586	0.15719	0.28873	0.14772	0.40163	-2.2375	-2.8438	-2.2646	-2.975	-2.6	-2.3521	-3.0854	-2.6813	-2.6604	-2.8875	-2.3021	-3.0563	-2.7854	-2.4104	-3	-2.4854	273.969	403.013	121.261	69.909	348.007	227.144	67.191	399.804	169.641	378.168	196.329	64.592	388.846	356.236	232.364	350.059	0.00038344	0.00090624	0.0006247	1144.7	1.313e-05	2.3832e-05	977.16	448.79	3.4352e-06	5.1937e-06	404.57	173.55	200.13	78.984	4.7338e-06	64.931	0.0031125	0.0032234	0.0010432	1317.5	3.607e-05	3.4747e-05	1152.2	505.66	3.4838e-05	3.5473e-05	495.87	202.07	220.11	86.588	3.8529e-05	76.208	227.061	113.374	166.189	56.262	142.998	253.580	54.550	61.234	197.325	173.839	58.481	61.758	65.173	69.534	273.539	65.258	-8191	255	
3639.421	1	1	0	0	0.064941	0.1506	0.06344	0.13658	0.083066	0.076621	0.10296	0.17516	0.093877	0.20251	0.046588	0.098139	0.20021	0.21802	0.057038	0.33273	-1.9583	-2.6354	-2.2562	-2.9604	-2.7313	-2.325	-3.0792	-2.4646	-2.4458	-2.8438	-2.3042	-2.8708	-2.925	-2.4604	-2.9208	-2.4417	256.314	261.551	71.782	74.830	381.451	397.635	110.836	329.704	270.026	220.674	195.542	86.620	328.213	373.036	174.677	385.621	0.00059105	0.0018839	0.00013247	1170.6	6.617e-06	2.4192e-05	994.4	461.34	1.1452e-05	1.9318e-05	416.76	179.13	203.37	80.33	1.5474e-06	66.484	0.0027552	0.0030169	0.00093281	1288.8	3.0342e-05	3.189e-05	1133.6	502.22	2.8894e-05	3.2242e-05	490.62	200.73	219.81	87.792	3.5401e-05	76.507	202.875	134.488	64.104	55.619	135.626	211.541	53.977	60.704	94.125	184.697	57.613	61.350	65.024	69.580	322.399	65.100	-8191	255	
3639.493	1	1	0	0	0.20462	0.19333	0.039545	0.18192	0.046547	0.17916	0.21936	0.33711	0.17989	0.36103	0.35367	0.14029	0.34621	0.22832	0.22451	0.21344	-2.025	-2.9833	-2.1667	-2.8312	-2.7438	-2.2438	-3.0271	-2.7146	-2.3438	-2.8167	-2.4562	-2.6688	-2.9938	-2.4	-2.8146	-2.6688	381.725	288.982	159.657	391.932	189.526	375.087	329.183	341.111	296.799	334.020	342.657	231.479	383.980	343.993	130.578	368.108	0.00045966	0.0012096	0.00026624	1163.2	1.5434e-05	3.3025e-05	994.57	457.17	1.4104e-05	8.2422e-06	411.92	176.53	202.52	79.407	1.6179e-06	65.549	0.0026408	0.0032052	0.00093075	1293.4	3.1383e-05	3.5961e-05	1140	501.65	3.1023e-05	3.6378e-05	489.66	200.39	220.44	88.238	3.5141e-05	75.94	212.528	144.090	93.050	55.557	245.163	195.527	54.313	60.665	218.106	180.799	57.586	61.908	65.149	69.776	389.614	65.447	-8191	255	
3639.589	1	1	0	0	0.22966	0.26235	0.15804	0.3472	0.037116	0.14753	0.28806	0.26158	0.15007	0.088567	0.47949	0.086735	0.25192	0.26525	0.14094	0.42072	-1.9833	-2.9313	-2.2875	-2.7104	-2.9	-2.1583	-2.9771	-2.7125	-2.375	-3.0062	-2.5625	-2.3979	-2.9271	-2.4188	-2.6979	-2.9042	243.130	379.485	314.867	74.587	58.112	148.467	313.617	354.255	215.824	286.979	383.844	367.576	44.438	91.178	121.604	341.286	0.00050403	0.00068997	7.1379e-05	1153.4	1.0887e-05	1.3223e-05	980.11	458.62	1.3942e-05	9.3434e-06	410.38	177.26	201.88	79.563	7.1547e-06	66.014	0.0027174	0.0033047	0.00087668	1280.7	3.1422e-05	3.6178e-05	1122.9	499.45	3.1127e-05	3.5779e-05	482.98	199.11	220.7	88.382	3.1796e-05	75.451	212.325	402.797	294.504	56.175	194.660	276.075	54.674	61.007	223.063	327.148	58.363	61.953	65.536	69.855	139.762	65.467	-8191	255	
3639.685	1	1	0	0	0.18973	0.078728	0.094098	0.20029	0.11325	0.24087	0.013341	0.44543	0.012556	0.055809	0.27777	0.20202	0.22877	0.22569	0.27568	0.15644	-2.025	-2.9188	-2.6688	-2.725	-2.8396	-2.2896	-2.9417	-2.7792	-2.3521	-2.8792	-2.8521	-2.5875	-3.0938	-2.5479	-2.7271	-2.8792	147.475	54.301	352.618	363.937	170.295	120.540	274.477	333.776	44.302	198.904	395.215	78.544	343.863	387.704	334.269	332.716	0.00066227	0.00099014	0.00045192	1156.6	2.3203e-05	1.1546e-05	997.28	462.57	1.2981e-05	2.5857e-06	420.6	181.08	204.34	81.476	9.9496e-06	67.889	0.0027281	0.003144	0.00079619	1266.9	3.1067e-05	3.3531e-05	1113.6	497.93	3.0894e-05	3.27e-05	480.15	198.95	221.88	88.791	2.8887e-05	76.106	214.493	91.803	53.624	55.833	208.596	82.361	54.247	60.865	198.522	400.764	57.651	61.549	65.025	69.657	370.332	65.375	-8191	255	
3639.806	1	1	0	0	0.19382	0.10611	0.25606	0.03808	0.11862	0.02764	0.20953	0.3613	0.090649	0.19876	0.35451	0.18526	0.076131	0.1603	0.076597	0.17512	-1.9021	-2.6792	-2.6167	-2.4938	-3.0938	-2.3604	-2.7313	-3.0458	-2.1562	-2.9396	-2.7896	-2.6958	-3.1063	-2.5521	-2.5167	-2.8458	237.937	232.804	382.447	54.445	290.911	385.788	229.395	299.895	150.551	179.702	46.602	365.893	110.972	53.773	277.949	306.593	0.00070067	0.00063656	0.00025198	1162	1.9674e-05	5.1542e-06	1003.2	464.34	1.0768e-05	8.9807e-06	422.03	182.6	205.41	81.887	2.6074e-07	69.019	0.0027658	0.0029193	0.00074835	1264.8	3.1882e-05	3.1516e-05	1109.9	498.48	3.1481e-05	3.0234e-05	478.68	200.02	223.2	88.838	2.6972e-05	77.066	219.078	273.010	345.269	55.734	251.312	194.844	53.891	60.786	223.358	74.011	57.801	62.015	65.076	69.781	358.056	65.753	-8191	255	
3639.902	1	1	0	0	0.25432	0.18377	0.15611	0.26367	0.03214	0.16712	0.14201	0.23342	0.1249	0.1857	0.21212	0.33354	0.35919	0.42667	0.14385	0.24331	-1.9104	-2.9333	-2.7917	-2.4542	-2.8604	-2.4375	-2.6479	-3.1875	-2.2958	-2.8958	-2.7646	-2.2833	-3.1167	-2.6188	-2.55	-3.1063	92.132	378.437	153.479	334.933	98.116	196.817	301.976	354.798	386.886	379.045	297.419	321.139	336.257	375.171	125.995	350.419	0.0007158	0.00094038	0.00017618	1165.7	1.6419e-05	1.0294e-05	1007.6	466.9	1.1937e-05	7.2472e-06	423.95	183.81	206.06	82.401	7.6454e-06	68.783	0.0027816	0.0026839	0.00070817	1269.3	3.2087e-05	2.9803e-05	1108.7	503.39	3.2727e-05	2.961e-05	480.06	203.03	224.47	88.793	2.7103e-05	77.766	206.852	376.373	71.479	56.091	156.585	375.701	54.195	60.908	140.128	363.653	57.643	61.898	64.956	69.536	226.735	65.353	-8191	255	
3639.998	1	1	0	0	0.17714	0.19918	0.17645	0.23694	0.11463	0.25906	0.23179	0.26988	0.083344	0.092437	0.17054	0.54503	0.41383	0.2578	0.17904	0.073236	-1.8771	-2.6375	-2.8229	-2.4083	-2.9042	-2.6562	-2.5833	-3.3042	-2.2438	-2.6875	-2.9562	-2.4708	-2.9688	-2.8063	-2.3	-3.2771	312.512	243.547	363.680	309.863	372.105	177.012	349.744	322.744	161.137	134.747	399.728	367.862	370.698	325.256	399.379	71.259	0.00032832	0.00089628	0.0004865	1168.9	5.3666e-06	1.4756e-06	1005.6	465.85	6.7365e-06	1.4476e-05	421.83	180.5	203.07	80.641	8.7688e-06	66.973	0.0028584	0.0026562	0.00070617	1285.7	3.2281e-05	2.9797e-05	1110.4	506.23	3.3275e-05	3.0037e-05	478.99	204.05	223.15	87.802	2.883e-05	77.877	226.876	131.699	125.288	55.717	175.315	87.782	54.023	60.879	322.065	147.990	57.537	61.755	65.133	69.768	251.173	65.218	-8191	255	
3640.094	1	1	0	0	0.20199	0.20319	0.07767	0.16745	0.0058686	0.17364	0.39006	0.072644	0.29839	0.31401	0.34037	0.14243	0.17066	0.29308	0.084895	0.045188	-1.9542	-2.7	-2.7896	-2.3771	-2.9521	-2.4479	-2.6479	-3.275	-2.3812	-2.5646	-2.9875	-2.3292	-2.9521	-2.7542	-2.3292	-3.2542	164.100	243.888	290.829	379.911	200.717	321.461	339.722	314.013	104.738	351.419	325.927	326.380	391.051	372.905	348.707	268.699	0.0004474	0.0012568	0.00044099	1169.7	6.7104e-06	7.6208e-06	998.07	461.69	7.898e-06	1.2979e-05	417.24	180.5	203.69	80.739	2.2317e-05	67.209	0.0029204	0.002743	0.00075443	1305.2	3.2792e-05	3.0664e-05	1116.4	509.8	3.2668e-05	2.9639e-05	481.37	206.11	222.85	87.955	3.0156e-05	78.75	192.233	127.515	67.941	55.688	352.435	122.803	54.178	61.149	64.753	343.108	58.224	62.283	65.149	70.084	235.534	65.651	-8191	255	
3640.188	1	1	0	0	0.094246	0.29409	0.13538	0.32404	0.048839	0.057587	0.35718	0.19326	0.10431	0.25992	0.33102	0.25645	0.33561	0.17487	0.12856	0.069276	-1.9229	-2.4479	-2.8438	-2.5333	-2.775	-2.7354	-2.5	-3.1063	-2.4729	-2.3021	-3.0375	-2.4771	-2.8563	-2.9625	-2.3208	-3.1104	277.585	268.594	163.292	377.655	85.740	44.623	308.652	388.827	241.956	179.305	343.145	340.311	46.746	372.038	377.795	308.068	0.00058012	0.00091464	0.00030257	1160.7	1.3129e-05	1.4378e-05	995.45	459.11	4.1166e-06	3.6122e-06	420.44	179.85	202.49	80.1	2.7154e-05	67.578	0.0027942	0.0026615	0.00078634	1306.4	3.1104e-05	2.9643e-05	1122.5	507.88	3.1184e-05	2.8509e-05	485.52	205.09	220.28	87.34	3.1756e-05	78.5	207.262	147.104	157.059	56.014	376.741	118.488	54.742	61.255	241.770	96.330	58.153	61.544	65.201	70.319	227.323	65.972	-8191	255	
3640.285	1	1	0	0	0.060603	0.084218	0.064951	0.14165	0.15153	0.20501	0.23381	0.10609	0.16828	0.012672	0.24361	0.26732	0.194	0.25267	0.30797	0.31341	-1.9708	-2.4208	-2.8146	-2.4875	-2.8167	-2.9688	-2.2875	-2.9833	-2.4917	-2.4104	-3.1188	-2.4979	-2.9292	-3.1667	-2.1625	-2.8521	230.486	235.981	211.781	380.289	100.337	78.311	394.464	61.223	385.194	198.312	364.619	335.286	351.307	75.183	355.247	389.377	0.00047575	0.00057068	0.00056291	1154.7	4.6445e-06	8.4376e-06	999.22	458.34	4.1157e-06	5.7567e-06	421.34	180.18	202.68	80.959	1.2237e-05	67.45	0.0027075	0.0025817	0.00083209	1300.6	3.0234e-05	2.9381e-05	1136.5	506.33	3.1088e-05	2.9064e-05	491.51	203.97	219.22	87.351	3.4392e-05	77.539	192.624	339.553	146.444	56.194	132.911	210.937	54.366	61.027	46.341	221.437	57.750	61.760	64.900	69.646	261.449	65.324	-8191	255	
3640.381	1	1	0	0	0.19295	0.11444	0.11601	0.25246	0.13676	0.12769	0.25336	0.23909	0.098116	0.13945	0.30416	0.13526	0.46977	0.3782	0.10967	0.33689	-2.1396	-2.4042	-2.9521	-2.5167	-2.5521	-2.925	-2.3583	-2.9521	-2.5396	-2.4333	-3.1333	-2.4229	-2.525	-3.1521	-2.1583	-2.9354	347.967	60.691	156.450	354.089	162.465	221.744	387.449	359.046	336.468	106.144	349.169	387.349	389.738	387.575	352.782	311.645	0.00036404	0.0011861	0.00028918	1168.8	4.5699e-06	6.603e-06	1004.8	460.61	1.3656e-05	1.7773e-05	413.44	178.58	201.33	79.945	7.7582e-06	66.443	0.0026852	0.0026726	0.00088479	1294.6	2.9465e-05	3.0244e-05	1142.8	502.82	3.0688e-05	3.0898e-05	493.27	202.32	218.64	87.286	3.6834e-05	76.786	212.618	95.779	156.172	55.645	297.493	198.825	54.137	60.512	272.089	204.136	58.141	61.976	64.879	70.001	213.658	65.202	-8191	255	
3640.501	1	1	0	0	0.3134	0.22283	0.1564	0.33793	0.14003	0.070174	0.298	0.12093	0.21074	0.29221	0.2776	0.12743	0.37781	0.097642	0.13834	0.29891	-2.2771	-2.2583	-3.0875	-2.525	-2.3271	-2.9313	-2.5083	-3.025	-2.75	-2.4646	-3	-2.6375	-2.6396	-3.0604	-2.3667	-2.7875	116.630	321.506	391.419	350.255	295.168	86.368	349.157	310.332	196.320	169.591	381.173	369.061	387.645	373.764	171.086	338.341	0.00018795	0.00076898	0.0001965	1164.2	6.3676e-06	6.996e-06	1001.1	458.17	7.339e-06	1.075e-05	416.57	178.31	201.09	79.906	5.0353e-06	66.232	0.0027781	0.0030142	0.00094078	1296.6	3.023e-05	3.3694e-05	1145.8	501.47	3.0755e-05	3.3737e-05	493.77	201.94	218.44	88.144	3.6404e-05	76.732	217.366	142.818	248.694	56.034	223.245	287.369	54.200	60.784	222.893	129.680	57.801	62.165	65.143	69.753	69.730	65.457	-8191	255	
3640.598	1	1	0	0	0.077123	0.16845	0.1024	0.29797	0.43497	0.13309	0.179	0.15014	0.17021	0.095666	0.081965	0.16172	0.42662	0.19587	0.16013	0.042163	-2.3104	-2.0875	-2.8917	-2.8292	-2.4646	-2.9479	-2.4167	-2.8312	-2.6917	-2.1708	-2.9708	-2.6979	-2.6396	-3.0458	-2.3292	-2.7271	247.375	156.861	220.946	305.094	344.978	112.633	168.044	366.312	96.806	333.829	246.073	47.020	47.860	346.170	235.502	117.546	0.0006946	0.0030094	0.00027854	1158.8	1.8228e-05	1.523e-05	992	457.07	1.4573e-05	1.799e-05	409.97	176.44	199.05	79.501	5.9884e-06	66.329	0.0027813	0.0033032	0.00094208	1300.9	3.1799e-05	3.7568e-05	1148.5	501.09	3.2578e-05	3.7542e-05	491.2	201.1	218.06	88.404	3.5409e-05	76.298	210.815	128.225	383.745	55.899	204.000	175.068	54.292	60.997	229.751	213.998	57.841	62.325	65.292	70.038	249.302	65.288	-8191	255	
3640.694	1	1	0	0	0.065929	0.18676	0.2795	0.068667	0.14758	0.058442	0.17079	0.16097	0.24125	0.084931	0.13766	0.17459	0.50658	0.23775	0.086231	0.15537	-2.6021	-2.1229	-2.8625	-2.7854	-2.1667	-2.8667	-2.5625	-2.5292	-2.9542	-2.2521	-2.7979	-2.8438	-2.4417	-3.2167	-2.6521	-2.6125	251.930	227.456	259.537	152.200	281.576	52.233	299.713	210.310	237.251	304.448	390.858	362.862	373.413	368.418	65.840	372.077	0.0006681	0.00034934	3.8583e-05	1164.8	2.4855e-05	3.2483e-06	992.1	455.91	2.1526e-05	6.7359e-06	414.12	177.54	200.52	79.593	8.6074e-06	66.181	0.0027705	0.0033365	0.00086434	1289.8	3.1229e-05	3.6455e-05	1134	497.44	3.2185e-05	3.6492e-05	486.05	199.95	219.56	88.446	3.3792e-05	75.726	212.727	226.621	46.548	56.093	232.573	366.065	54.392	60.945	259.232	319.070	57.835	62.092	65.165	69.824	46.669	65.739	-8191	255	
3640.790	1	1	0	0	0.14882	0.19594	0.094954	0.17921	0.30523	0.15691	0.29342	0.28551	0.30537	0.39577	0.21206	0.12744	0.2475	0.13584	0.23196	0.25502	-2.4146	-2.2062	-2.6833	-3.0667	-2.3146	-2.9437	-2.625	-2.6312	-2.9979	-2.2833	-2.6583	-2.9729	-2.4437	-3.2833	-2.4625	-2.7229	166.869	251.549	353.021	401.607	336.147	118.038	353.318	335.939	362.997	238.760	328.118	353.315	313.589	120.107	55.826	315.885	0.00069038	0.0010366	0.00045092	1155.8	8.5758e-06	5.1994e-06	993.14	452.98	1.815e-05	9.7622e-06	414.16	178.17	199.17	78.993	1.2973e-05	65.967	0.0029606	0.0033725	0.00084298	1284.9	3.4283e-05	3.6587e-05	1127.8	495.38	3.4743e-05	3.6185e-05	481.73	199.66	220.69	87.758	3.2747e-05	75.519	209.061	82.158	274.685	55.981	208.057	91.669	54.215	61.060	224.535	56.806	57.621	61.844	65.268	69.980	274.173	65.621	-8191	255	
3640.884	1	1	0	0	0.19962	0.096283	0.13595	0.26274	0.14576	0.012682	0.20736	0.18823	0.27752	0.16512	0.23232	0.28048	0.099082	0.17931	0.3671	0.13733	-2.6125	-2.2771	-2.6875	-2.9979	-2.2479	-2.8167	-2.8063	-2.5646	-2.9771	-2.5375	-2.8708	-3.0062	-2.5125	-2.9458	-2.725	-2.4521	384.651	262.421	183.667	314.861	94.046	125.267	288.119	386.800	261.369	96.056	386.674	98.894	368.312	59.694	197.108	398.367	0.00068702	0.00027656	0.00028015	1158.1	1.9662e-05	8.4982e-06	997.16	455.09	1.2129e-05	2.1568e-06	414.74	178.74	200.86	79.284	9.2833e-06	66.117	0.0031007	0.0032318	0.00081023	1283.2	3.5732e-05	3.4742e-05	1128.3	497.73	3.6283e-05	3.4901e-05	481.56	200.82	222.83	87.535	3.2073e-05	76.432	209.907	229.151	72.758	56.359	219.349	89.205	54.354	60.922	243.678	387.853	57.790	61.889	65.135	69.831	134.798	65.662	-8191	255	
3640.980	1	1	0	0	0.13045	0.092556	0.24649	0.35475	0.044333	0.19787	0.43319	0.60711	0.11329	0.16346	0.098367	0.1994	0.016372	0.14458	0.18533	0.038482	-2.5896	-2.4	-2.3771	-3.1292	-2.4542	-2.8875	-2.8292	-2.4458	-2.8854	-2.4771	-2.5771	-3.0708	-2.5958	-2.9188	-2.5958	-2.3729	100.369	88.126	180.738	378.125	231.314	318.961	319.001	366.310	142.630	72.705	330.733	283.420	162.227	373.768	240.586	80.723	0.00054641	0.00059216	0.00029419	1165.5	4.5712e-06	1.0609e-05	1013.8	460.75	1.1088e-05	2.5648e-06	422.26	180.8	203.12	80.174	5.4952e-06	67.269	0.0032299	0.0031218	0.00079518	1296.6	3.6866e-05	3.3621e-05	1133.5	503.44	3.7467e-05	3.4404e-05	483.47	204.73	223.98	87.562	3.1971e-05	77.985	198.702	316.704	401.472	56.118	59.262	389.285	54.034	60.618	245.864	227.505	57.444	61.709	64.644	69.361	260.644	65.014	-8191	255	
3641.101	1	1	0	0	0.14563	0.074014	0.057183	0.31275	0.15152	0.06939	0.46123	0.25358	0.20914	0.25335	0.37379	0.39536	0.39223	0.13372	0.1985	0.069221	-2.6188	-2.5312	-2.3083	-2.9958	-2.3146	-2.6229	-3.125	-2.325	-2.8792	-2.5708	-2.5438	-2.9583	-2.4958	-2.9146	-2.8333	-2.4021	296.137	151.281	210.584	354.626	226.926	375.714	353.174	360.121	46.570	105.902	360.931	372.272	388.707	371.004	130.550	170.636	0.0002742	0.00044057	0.00026716	1179.1	3.5407e-06	1.0459e-05	1011.4	461.97	3.3822e-06	9.2961e-06	419.82	179.85	202.44	79.78	1.5597e-05	66.946	0.0032504	0.0031213	0.00079805	1313.8	3.7248e-05	3.3123e-05	1132.3	507.78	3.6242e-05	3.345e-05	482.35	206.29	223.35	87.114	3.2145e-05	78.614	203.008	160.075	111.499	55.743	343.087	265.962	53.563	60.641	368.472	81.283	57.516	61.772	64.736	69.400	199.256	65.116	-8191	255	
3641.197	1	1	0	0	0.1999	0.086842	0.19057	0.16139	0.11381	0.11175	0.1411	0.48316	0.091859	0.21109	0.29063	0.12478	0.21196	0.19471	0.16473	0.27496	-2.3396	-2.5646	-2.2833	-3.1688	-2.4521	-2.5979	-3.1562	-2.3958	-2.8708	-2.6667	-2.5729	-3.1188	-2.7333	-2.5708	-2.8333	-2.3917	305.205	180.622	380.861	350.659	257.494	143.257	68.453	361.016	304.587	351.242	106.555	59.118	401.914	401.636	54.699	363.813	0.00035186	0.0012598	0.00033468	1171.5	1.0393e-05	1.2509e-05	1008.3	458.45	5.7854e-06	9.1083e-06	415.45	178.46	200.37	78.878	2.9019e-05	66.176	0.0031637	0.0030817	0.00082361	1323.8	3.6774e-05	3.3551e-05	1134.6	510.58	3.6053e-05	3.3919e-05	485.14	206.64	221.44	86.43	3.4673e-05	78.703	234.099	398.163	127.238	55.632	125.399	116.357	54.271	60.735	364.745	386.317	57.350	61.895	64.873	69.388	254.176	65.178	-8191	255	
3641.293	1	1	0	0	0.19632	0.097582	0.095824	0.45315	0.24217	0.11581	0.042666	0.085817	0.047748	0.1281	0.077385	0.16554	0.20917	0.16921	0.18381	0.32936	-2.6063	-2.6792	-2.1583	-3.3021	-2.2854	-2.4979	-3.0979	-2.4979	-2.6583	-2.7292	-2.3375	-3.0604	-2.7896	-2.5687	-2.9667	-2.4958	222.612	77.606	390.229	394.359	197.032	200.799	186.434	362.719	100.767	77.855	261.241	367.797	358.439	352.581	43.539	77.697	0.00027244	0.00066355	0.00073422	1172	1.1776e-05	1.3432e-05	1006.7	457.55	1.0071e-05	5.6977e-06	416.45	177.74	199.83	79.163	1.4741e-05	66.521	0.0031019	0.0030588	0.00088491	1327.9	3.5361e-05	3.2283e-05	1145.4	510.1	3.4284e-05	3.2653e-05	490.87	205.47	220.02	86.068	3.5913e-05	78.412	172.343	234.212	129.990	55.958	109.227	87.924	54.446	60.727	174.800	154.842	57.899	61.699	64.986	69.702	247.484	65.345	-8191	255	
3641.365	1	1	0	0	0.15484	0.036274	0.086295	0.24553	0.19729	0.12466	0.21079	0.27664	0.037968	0.21372	0.1413	0.34087	0.26842	0.32654	0.2144	0.093015	-2.3708	-2.9042	-2.3312	-3.1458	-2.6271	-2.6542	-3.3	-2.5542	-2.8083	-2.9688	-2.4104	-2.9583	-2.6854	-2.5333	-2.8812	-2.5354	294.597	299.182	123.492	361.371	161.128	385.614	357.122	320.522	151.033	355.619	326.269	351.999	99.658	372.797	186.221	235.340	0.00025147	0.00096672	0.00061913	1167.4	7.7735e-06	1.9684e-05	1004.1	455.43	3.5045e-06	6.4834e-06	417.69	179.19	200.42	79.142	1.5807e-05	66.972	0.0029051	0.0028884	0.00090554	1312.3	3.2879e-05	3.0446e-05	1150.3	505.99	3.1979e-05	3.1033e-05	494.22	204.35	218.82	86.25	3.5788e-05	78.049	195.954	117.707	118.567	55.715	314.527	226.744	54.372	60.909	162.936	141.255	57.886	61.889	65.270	69.973	201.727	65.410	-8191	255	
3641.486	1	1	0	0	0.17283	0.071843	0.14679	0.21471	0.13806	0.067547	0.21612	0.26096	0.43177	0.066607	0.11308	0.23257	0.25067	0.34791	0.065695	0.10463	-2.1167	-2.8229	-2.2792	-3.0875	-2.6063	-2.2792	-3.1083	-2.6229	-2.5521	-2.9604	-2.3625	-2.8875	-2.9646	-2.6083	-2.9062	-2.6312	235.175	306.976	234.763	302.188	131.525	138.875	316.505	331.919	216.900	43.538	357.110	387.755	341.236	338.446	185.806	346.519	0.00038047	0.00089759	0.00024997	1166.5	1.485e-05	1.775e-05	1009.7	457.26	1.0683e-05	1.6714e-05	417.85	178.75	199.27	78.971	1.8121e-05	66.318	0.0027202	0.002855	0.00092018	1303.5	3.1389e-05	3.1239e-05	1158.9	504.22	3.0703e-05	3.2171e-05	498.06	202.63	217.32	86.659	3.6509e-05	77.195	214.713	82.028	122.098	55.837	377.310	205.643	54.409	61.025	194.402	234.779	57.603	61.850	65.051	69.900	182.812	65.563	-8191	255	
3641.582	1	1	0	0	0.36916	0.13604	0.062992	0.30333	0.068239	0.13665	0.063109	0.2094	0.098987	0.094586	0.13909	0.13238	0.22527	0.29735	0.11299	0.32226	-1.9958	-2.85	-2.3417	-3.0104	-2.8271	-2.2625	-3.2396	-2.6937	-2.3833	-3.0208	-2.1937	-2.7729	-2.9979	-2.3875	-2.9958	-2.5917	220.245	46.604	165.085	325.643	79.508	307.425	329.227	361.479	79.628	335.605	372.572	54.362	370.095	372.133	75.048	358.684	0.00023375	0.0018046	7.2741e-05	1160.4	8.3202e-06	2.1686e-05	1004.6	453.95	9.396e-06	2.9517e-05	414.53	178.73	198.81	78.978	6.2461e-06	66.132	0.002651	0.0030147	0.00092544	1292.9	3.0497e-05	3.2981e-05	1152.1	500.37	2.9891e-05	3.4295e-05	495.63	200.94	216.65	87.194	3.5988e-05	76.735	202.937	148.361	208.643	56.036	217.915	236.839	54.411	60.954	254.382	223.331	57.921	61.893	65.053	69.852	221.140	66.086	-8191	255	
3641.678	1	1	0	0	0.12769	0.29037	0.088224	0.16364	0.079325	0.15843	0.39546	0.46035	0.16523	0.075634	0.30195	0.12553	0.25958	0.27423	0.16036	0.13827	-1.8292	-2.9833	-2.3542	-2.7687	-2.7854	-2.1958	-3.025	-2.8708	-2.3563	-2.7938	-2.5417	-2.6396	-2.9708	-2.4667	-2.7729	-2.8854	186.521	106.307	157.535	367.669	126.477	108.414	342.951	387.550	272.320	270.823	376.455	324.913	56.080	398.477	79.272	74.701	0.00047094	0.0012952	0.0002822	1161.4	1.6496e-05	2.3974e-05	1004.3	456.09	1.1971e-05	1.0569e-05	414.79	177.15	198.24	78.769	1.066e-05	66.523	0.0026719	0.0032905	0.00092495	1294.4	3.1373e-05	3.6069e-05	1150.4	501.28	3.1025e-05	3.6697e-05	492.6	200.32	217.79	87.795	3.4139e-05	76.66	206.265	167.562	382.820	55.910	268.683	242.918	54.144	61.088	171.338	198.559	58.071	62.229	65.537	69.772	177.948	65.714	-8191	255	
3641.774	1	1	0	0	0.13693	0.14535	0.2763	0.18618	0.11767	0.13629	0.17177	0.093111	0.18671	0.31328	0.30499	0.15963	0.25504	0.35737	0.21101	0.16853	-2.0125	-2.9083	-2.3688	-2.7562	-2.9896	-2.2833	-2.8771	-3.0396	-2.4083	-3.1521	-2.4104	-2.6479	-3.2479	-2.4917	-2.7938	-3.1667	198.921	157.752	127.140	350.866	51.119	61.778	101.095	360.873	326.048	55.449	349.886	372.816	351.080	350.189	62.258	388.962	0.00055925	0.0011681	0.00044371	1151.3	4.7794e-06	1.7568e-05	1008.9	456.7	2.3393e-05	1.4106e-06	418.87	178.27	199.87	79.038	1.7914e-05	66.944	0.0027321	0.003307	0.00085787	1279.8	3.1738e-05	3.6325e-05	1139.9	499.33	3.1999e-05	3.6408e-05	490.95	200.85	219.64	88.218	3.2973e-05	76.772	206.659	67.256	393.951	55.919	193.291	166.778	54.437	61.111	233.189	317.249	57.978	62.078	65.309	69.658	232.128	65.617	-8191	255	
3641.893	1	1	0	0	0.13496	0.149	0.093656	0.13054	0.22102	0.1091	0.25615	0.1979	0.24662	0.062789	0.46685	0.32929	0.39291	0.39294	0.051382	0.30301	-1.7437	-2.9188	-2.5792	-2.7167	-2.9833	-2.5563	-2.8917	-3.0021	-2.3667	-2.9521	-2.7292	-2.5271	-3.2104	-2.7708	-2.7104	-2.9833	317.719	62.614	172.056	154.439	366.046	249.742	357.390	376.301	288.101	277.585	379.445	401.641	382.151	365.840	360.956	334.693	0.00058789	0.0011206	0.00042818	1168.9	2.1496e-05	1.0646e-05	1012.2	459.58	1.6182e-05	2.0091e-05	419.37	179.53	199.59	79.033	6.7699e-06	66.898	0.0029479	0.0033375	0.00084934	1284.9	3.4237e-05	3.5942e-05	1135.9	498.31	3.3555e-05	3.4522e-05	486.38	199.65	220.2	87.677	3.1152e-05	76.303	205.167	296.649	293.763	55.631	219.645	144.392	54.074	60.907	257.204	356.047	57.766	61.839	65.428	70.084	113.145	65.876	-8191	255	
3641.989	1	1	0	0	0.05313	0.41848	0.084096	0.169	0.19646	0.064539	0.12055	0.11981	0.11809	0.21728	0.32439	0.036827	0.072191	0.27329	0.068489	0.25308	-1.8417	-2.775	-2.5979	-2.5604	-2.9667	-2.2521	-2.6813	-3.0229	-2.1542	-2.975	-2.7812	-2.6104	-3.1937	-2.6271	-2.5625	-3.2104	246.972	245.444	159.549	87.994	126.932	211.108	202.385	318.944	107.225	59.952	392.209	292.073	323.686	319.211	126.266	353.979	0.00052703	0.0015888	0.00019261	1153.6	2.0286e-05	4.6939e-06	1000.3	455.26	1.0571e-05	5.0138e-06	419.36	180.04	200.85	79.764	7.5048e-06	67.649	0.0030235	0.003088	0.00079551	1275.8	3.4629e-05	3.3485e-05	1126.6	497.48	3.4642e-05	3.2374e-05	484.23	200.87	221.35	87.441	2.968e-05	76.963	209.894	190.323	312.122	56.078	256.913	382.295	54.414	61.193	229.211	92.067	58.290	62.050	65.504	69.600	236.525	65.736	-8191	255	
3642.063	1	1	0	0	0.1684	0.24992	0.05163	0.17651	0.17211	0.31474	0.1591	0.41097	0.11698	0.10855	0.21285	0.12987	0.24942	0.15895	0.19828	0.12356	-1.9271	-2.8104	-2.7729	-2.425	-3.0208	-2.2917	-2.6104	-3.2083	-2.1583	-2.7667	-2.8396	-2.5146	-3.2146	-2.7146	-2.5312	-3.0812	319.585	51.892	287.685	354.356	225.969	218.254	391.222	381.526	52.642	198.758	194.051	89.397	88.113	80.418	293.539	50.567	0.00027202	0.0016594	0.00016623	1161.4	7.4795e-06	1.2084e-05	1007.4	456.66	6.5261e-06	5.901e-06	418.47	179.97	199.13	79.592	1.2887e-05	67.623	0.0030503	0.0028878	0.00075676	1283.8	3.4299e-05	3.1464e-05	1121.5	500.5	3.4066e-05	3.0684e-05	481.81	202.25	220.01	86.957	2.8137e-05	77.812	211.512	336.813	83.396	56.002	235.426	125.244	54.492	61.331	396.501	390.919	58.302	62.342	65.316	70.059	288.244	65.800	-8191	255	
3642.181	1	1	0	0	0.17179	0.078253	0.16225	0.1669	0.10935	0.12122	0.35257	0.13779	0.040145	0.20687	0.11328	0.3791	0.094927	0.23308	0.18365	0.035267	-2.1292	-2.75	-2.7771	-2.5729	-2.9604	-2.5458	-2.5979	-3.3042	-2.5	-2.7354	-2.9333	-2.3896	-3.0792	-2.8375	-2.3208	-3.2521	133.822	195.289	368.284	342.383	62.784	330.574	330.956	61.550	339.470	338.908	349.268	324.265	286.497	355.020	348.316	126.431	0.00036361	0.00062672	0.00019882	1162.2	9.3433e-06	8.2624e-06	1006.8	461	4.6731e-06	4.0373e-06	425.79	181	200.48	80.094	1.3207e-05	67.918	0.0029089	0.0027117	0.00072305	1288.9	3.2283e-05	2.9903e-05	1119.9	503.42	3.2194e-05	2.8916e-05	482.33	204	218.93	86.884	2.7769e-05	78.625	180.156	71.868	92.430	56.004	199.132	229.478	54.572	61.046	371.762	63.005	58.200	62.223	65.254	69.907	156.959	65.876	-8191	255	
3642.278	1	1	0	0	0.14542	0.083179	0.23676	0.17198	0.05604	0.1725	0.13889	0.39722	0.18325	0.044883	0.21285	0.15628	0.27111	0.24278	0.24769	0.099603	-2.0375	-2.6604	-2.9	-2.5229	-3.0625	-2.6604	-2.5729	-3.1	-2.5167	-2.525	-3.0042	-2.4583	-2.8812	-2.9542	-2.3375	-3.1542	169.019	348.525	233.524	380.167	306.562	260.116	305.037	360.606	381.396	291.525	220.284	318.983	64.009	339.288	366.265	327.228	0.00021942	0.00073739	0.00044417	1162.4	3.3349e-06	9.0912e-06	1018	461.85	8.8525e-06	6.8844e-06	423.57	181.25	200.76	80.376	1.3867e-05	68.596	0.0027622	0.0026031	0.00072919	1292.6	3.0695e-05	2.8738e-05	1122.5	503.95	3.0639e-05	2.7716e-05	482.77	203.78	217.1	86.561	2.8493e-05	78.587	188.337	294.439	192.437	55.864	56.589	141.090	54.027	60.853	125.824	387.624	58.047	62.029	64.970	69.808	244.719	65.637	-8191	255	
3642.374	1	1	0	0	0.11981	0.082851	0.18465	0.035132	0.15898	0.079501	0.24801	0.042685	0.26453	0.26213	0.029738	0.17561	0.12606	0.16077	0.23004	0.10144	-2.0542	-2.425	-2.9583	-2.5646	-2.9396	-2.9	-2.6125	-3.1479	-2.5687	-2.2792	-3.0167	-2.4792	-2.9979	-2.7458	-2.4417	-3.0687	153.365	104.017	90.203	162.456	142.710	225.928	354.660	111.160	256.279	125.277	347.423	360.704	244.975	54.373	380.918	325.328	0.0004205	0.00099462	0.00056183	1158	9.5024e-06	1.5097e-05	1011.9	459.32	3.9343e-06	9.1241e-06	421.4	178.93	198.9	79.348	2.0467e-05	67.727	0.0026057	0.0024823	0.00075	1290.9	2.9129e-05	2.7496e-05	1128.7	503.26	2.9388e-05	2.7073e-05	486.87	203.37	216.3	86.134	3.0751e-05	77.846	197.009	186.203	164.608	55.967	174.627	133.697	54.793	61.169	101.408	299.216	58.250	62.249	65.453	70.156	215.519	65.736	-8191	255	
3642.494	1	1	0	0	0.079135	0.22182	0.26771	0.37249	0.07365	0.16047	0.21641	0.39763	0.23833	0.016498	0.18174	0.15191	0.24744	0.43962	0.32744	0.11292	-1.8917	-2.3021	-2.9417	-2.5792	-2.7792	-2.95	-2.375	-3.1042	-2.6396	-2.3958	-3.1708	-2.5771	-2.8083	-3.0854	-2.2229	-2.9479	176.769	331.373	138.744	366.975	333.339	118.214	318.519	336.355	201.841	280.457	362.279	284.034	329.616	346.004	257.539	301.618	0.00046998	0.0010433	0.00053879	1161.4	5.6173e-06	1.2732e-05	1025	462.22	6.292e-06	8.8248e-06	426.75	181.59	200.57	80.493	1.1516e-05	68.762	0.002568	0.0024666	0.00080536	1291	2.8598e-05	2.7743e-05	1145.9	502.06	2.8933e-05	2.7442e-05	493.91	203.28	216.39	86.629	3.2525e-05	78.192	219.887	177.020	157.134	55.747	152.214	145.045	54.091	60.829	292.149	181.480	57.685	61.463	65.099	69.771	212.773	65.422	-8191	255	
3642.590	1	1	0	0	0.28495	0.36609	0.20415	0.26051	0.21943	0.054034	0.28458	0.034003	0.33017	0.032838	0.26706	0.12352	0.40139	0.19818	0.083416	0.35311	-2.3187	-2.3125	-2.9938	-2.4437	-2.4771	-3.0479	-2.5917	-2.9896	-2.6813	-2.3917	-3.0896	-2.6458	-2.7438	-3.1583	-2.3667	-2.7687	103.609	55.972	310.330	384.960	181.294	67.556	388.501	77.329	44.409	372.285	249.356	319.361	349.265	371.884	321.910	319.938	0.0004046	0.0012744	0.00016873	1167.2	1.1143e-05	2.6545e-05	1027.3	463.51	8.1578e-06	1.8943e-05	427.02	181.28	200.16	80.22	1.1879e-05	68.505	0.0025148	0.002569	0.00083672	1289.3	2.8163e-05	2.9225e-05	1156.2	502.2	2.8991e-05	2.9377e-05	496.42	202.63	215.63	87.091	3.3442e-05	77.716	197.344	93.665	107.436	55.736	230.226	207.122	53.852	60.473	230.544	201.481	57.807	61.561	65.055	69.844	319.315	65.526	-8191	255	
3642.662	1	1	0	0	0.19827	0.1032	0.0069691	0.18762	0.2033	0.35966	0.16778	0.27388	0.14045	0.075838	0.21103	0.12867	0.15635	0.34503	0.40849	0.12731	-2.2625	-2.2104	-2.8667	-2.4729	-2.3417	-2.95	-2.7146	-3.0042	-2.8896	-2.3187	-3.0854	-2.8167	-2.5938	-3.1979	-2.4271	-2.7021	51.359	379.584	320.609	62.172	308.688	322.003	308.957	378.601	169.993	208.072	391.511	373.172	391.726	100.429	303.460	361.075	0.00034278	0.0028519	0.00013478	1158.1	6.5256e-06	2.6698e-05	1017.1	458.21	3.2434e-06	1.8807e-05	425.31	180.79	199.21	79.908	3.3146e-06	67.999	0.002505	0.0027768	0.00084458	1281.7	2.7622e-05	3.1419e-05	1152.6	498.62	2.8307e-05	3.1505e-05	494.26	201.47	215.05	87.278	3.2685e-05	76.741	224.794	132.786	201.830	56.152	126.620	228.742	54.292	60.897	332.059	171.691	57.884	62.070	65.051	70.010	296.691	65.168	-8191	255	
3642.783	1	1	0	0	0.056153	0.15533	0.099824	0.26752	0.056168	0.017959	0.068494	0.093189	0.11722	0.15541	0.23903	0.12869	0.08709	0.1717	0.093081	0.18459	-2.4479	-2.1042	-2.9292	-2.6271	-2.3979	-3.1083	-2.6583	-2.9583	-2.7208	-2.3854	-3.1188	-2.7708	-2.5167	-3.0271	-2.4854	-2.7208	168.201	174.863	381.472	285.302	185.377	260.499	210.351	85.130	204.864	135.687	49.473	327.894	399.307	166.811	347.831	390.144	0.00041174	0.0020683	0.00021155	1167.3	2.0449e-05	2.6048e-05	1019.3	460.27	1.4691e-05	6.8984e-06	421.76	179.38	199.29	79.072	5.5368e-06	67.951	0.0025078	0.0029823	0.00082275	1281.9	2.766e-05	3.3042e-05	1144.9	496.96	2.873e-05	3.3133e-05	488.99	200.03	215.33	87.434	3.1396e-05	76.503	201.433	80.324	266.393	55.639	214.607	199.714	54.285	60.419	200.239	271.117	57.738	62.324	65.085	69.750	80.424	65.617	-8191	255	
3642.877	1	1	0	0	0.19337	0.11513	0.3445	0.1952	0.092658	0.23787	0.16332	0.22619	0.16845	0.20392	0.07136	0.33883	0.098745	0.29594	0.33896	0.24767	-2.4771	-2.3417	-2.7062	-2.9583	-2.2771	-2.9625	-2.6	-2.6042	-2.8833	-2.5417	-3.0021	-2.9667	-2.4896	-3.2208	-2.5396	-2.5104	217.643	216.068	314.357	317.584	54.972	361.880	205.542	52.265	336.123	107.179	326.580	54.252	287.721	371.374	400.258	296.456	0.00065021	0.00077397	0.00021403	1168.7	1.6369e-05	4.7029e-06	1024.8	462.8	1.5087e-05	1.0425e-05	422.55	180.75	200.86	80.047	5.5689e-06	68.045	0.002582	0.0030759	0.0007851	1278	2.9471e-05	3.3645e-05	1141.1	496.2	3.0403e-05	3.377e-05	486.36	200.31	217.48	87.647	3.0452e-05	76.257	208.848	198.867	77.206	55.868	179.590	71.550	53.922	60.766	218.661	154.667	57.403	62.222	64.823	69.692	230.998	65.469	-8191	255	
3642.973	1	1	0	0	0.21037	0.19962	0.18956	0.041223	0.25128	0.19585	0.21728	0.17315	0.23245	0.045658	0.19937	0.19766	0.12957	0.4092	0.14438	0.094115	-2.5792	-2.2917	-2.7833	-2.9229	-2.3708	-3.0042	-2.7562	-2.8083	-3.1083	-2.3688	-2.7646	-3.0021	-2.6312	-3.1542	-2.625	-2.6208	169.413	340.995	189.979	155.477	73.368	339.114	340.189	401.271	101.934	155.436	95.121	47.107	309.626	346.306	351.702	378.070	0.0007401	0.0013535	0.00040185	1164.1	2.5799e-05	8.1364e-06	1019.3	459.27	1.3592e-05	1.284e-05	424.94	181.3	199.47	79.578	5.7335e-06	67.62	0.0027407	0.0030301	0.00075788	1273.1	3.1272e-05	3.2761e-05	1134.8	494.54	3.1997e-05	3.2792e-05	485.51	200.7	219.42	87.343	2.9952e-05	76.317	205.044	349.741	205.933	55.816	226.631	341.625	54.251	60.685	244.303	192.112	57.871	62.055	65.099	69.684	212.863	65.832	-8191	255	
3643.069	1	1	0	0	0.19073	0.19793	0.13447	0.13241	0.083664	0.058969	0.17377	0.32029	0.061754	0.1582	0.097901	0.13656	0.32526	0.079756	0.19045	0.14902	-2.4729	-2.4292	-2.7792	-2.9896	-2.4729	-3.0125	-2.9083	-2.6625	-3.0208	-2.4813	-2.5458	-3.025	-2.6042	-3.05	-2.525	-2.5708	248.081	351.826	155.432	296.535	345.322	265.112	284.986	321.281	356.397	252.176	365.586	335.658	349.220	64.230	134.198	140.500	0.00050984	0.00095663	0.00013262	1161.8	2.3926e-05	1.0956e-05	1016.1	459.05	1.8804e-06	1.3945e-05	423.98	179.59	199.35	79.174	4.0319e-06	67.254	0.0029067	0.0029742	0.00074579	1278.9	3.3492e-05	3.2109e-05	1132.8	496.74	3.3949e-05	3.22e-05	483.44	200.68	219.92	86.688	2.9699e-05	76.573	209.990	369.645	299.149	55.963	210.890	319.873	54.191	60.943	344.654	384.194	57.704	62.239	65.188	69.675	341.152	65.523	-8191	255	
3643.190	1	1	0	0	0.045695	0.18419	0.17397	0.34468	0.27572	0.1929	0.15271	0.096555	0.20816	0.063045	0.12035	0.22503	0.41325	0.15268	0.25067	0.2434	-2.5458	-2.2729	-2.5042	-3.0708	-2.3771	-2.6708	-3.0729	-2.5167	-2.8333	-2.5875	-2.5979	-3.0812	-2.4542	-2.8021	-2.6688	-2.2542	183.834	185.623	129.458	397.749	160.608	168.245	302.559	51.396	198.805	183.727	370.171	371.391	375.322	52.632	68.318	228.733	0.0004758	0.00037722	0.00025138	1167.2	1.7942e-06	1.2437e-05	1020.3	461.13	9.4505e-06	8.4217e-06	422.05	181	199.62	78.773	1.2334e-05	67.171	0.0029999	0.0028907	0.00074011	1289	3.4548e-05	3.1567e-05	1132.8	501.46	3.5186e-05	3.2266e-05	482.11	203.75	220.66	86.225	3.0879e-05	77.816	209.174	79.899	66.831	55.825	163.991	58.351	54.190	60.713	129.969	156.017	57.342	61.787	64.779	69.447	337.904	65.255	-8191	255	
3643.286	1	1	0	0	0.12956	0.071741	0.16246	0.12539	0.13235	0.15801	0.1864	0.2354	0.23565	0.24023	0.074913	0.11341	0.14645	0.23201	0.071664	0.217	-2.6562	-2.4083	-2.3208	-3.2042	-2.2458	-2.7229	-3.0938	-2.5125	-2.9833	-2.5354	-2.5542	-3.2708	-2.5833	-2.8979	-2.9083	-2.4542	376.293	164.145	124.590	252.992	143.584	155.233	278.474	48.546	217.014	401.151	320.466	310.184	44.983	356.868	270.687	349.598	0.0005119	0.0011815	8.8e-05	1172.7	6.5196e-06	8.2733e-06	1020.6	457.67	7.1044e-07	1.8681e-05	420.25	179.42	199.55	78.621	1.1771e-05	67.034	0.0030948	0.0029596	0.00076212	1306.3	3.4818e-05	3.1371e-05	1135.8	504.31	3.3977e-05	3.1656e-05	481.44	205.04	219.52	86.051	3.1153e-05	78.524	227.133	102.990	341.214	55.671	191.587	322.010	54.158	60.909	189.734	51.164	58.030	62.222	65.110	69.809	264.670	65.691	-8191	255	
3643.358	1	1	0	0	0.10838	0.10334	0.081539	0.27755	0.28508	0.10335	0.1663	0.34709	0.049365	0.10468	0.24224	0.24527	0.32016	0.18776	0.10973	0.085292	-2.2938	-2.7083	-2.3396	-3.1354	-2.4167	-2.4938	-3.0792	-2.5812	-2.7021	-2.8	-2.5375	-3.1583	-2.7083	-2.8396	-2.9521	-2.4562	165.586	236.485	185.782	335.417	244.740	354.665	121.497	345.736	312.830	369.039	339.239	342.828	61.434	379.376	69.367	239.612	0.00033567	0.00035845	0.00034278	1161.9	1.005e-05	1.6951e-05	1009.4	454.17	3.1983e-06	1.274e-05	419.12	177.9	196.27	77.879	3.0818e-05	66.651	0.0030049	0.0029222	0.00079809	1314.9	3.4279e-05	3.1124e-05	1142.2	506.67	3.3722e-05	3.193e-05	488.37	206.03	218	85.511	3.3145e-05	78.84	200.708	350.983	123.791	56.076	158.183	55.845	54.368	61.043	338.759	189.365	58.013	61.992	65.406	70.045	218.032	65.827	-8191	255	
3643.454	1	1	0	0	0.198	0.19589	0.24198	0.29058	0.12263	0.23421	0.21595	0.10748	0.12443	0.20345	0.14045	0.29778	0.39557	0.17902	0.11375	0.2996	-2.3063	-2.8187	-2.2604	-3.1583	-2.5062	-2.4354	-2.9792	-2.3792	-2.6688	-2.9396	-2.5458	-3.1708	-2.9104	-2.7729	-3.0917	-2.5083	394.441	191.290	332.280	374.240	273.000	58.953	329.388	314.046	400.407	64.500	318.652	342.366	390.978	343.975	218.504	247.174	0.00044862	0.00025448	0.0010205	1164.4	4.1603e-06	1.0035e-05	1012.5	453.9	1.8904e-05	1.9306e-06	413.35	176.21	196.98	77.457	2.1876e-05	64.786	0.0029026	0.0028889	0.00085091	1316	3.3321e-05	3.0617e-05	1150.7	506.05	3.2981e-05	3.1695e-05	491.75	204.48	217.07	84.893	3.614e-05	77.659	192.048	396.484	167.918	55.798	247.564	217.141	54.560	60.813	382.197	250.219	58.052	62.032	65.169	69.876	250.581	65.611	-8191	255	
3643.575	1	1	0	0	0.1934	0.29249	0.17595	0.12023	0.14554	0.21702	0.16393	0.25025	0.37628	0.034592	0.29715	0.24141	0.1249	0.13657	0.15019	0.24741	-2.4208	-2.8833	-2.3063	-3.1833	-2.8042	-2.4458	-3.2188	-2.4583	-2.5563	-2.9542	-2.4667	-3.025	-2.9083	-2.725	-3.025	-2.5458	364.936	363.461	266.254	105.061	208.953	81.443	327.253	47.501	385.107	370.545	349.798	371.923	57.929	385.068	95.403	83.861	0.0004668	0.0017277	0.0012703	1154	1.7373e-05	1.2996e-05	1001.3	450.24	3.6132e-06	1.3156e-05	411.9	175.27	196.67	77.16	2.2019e-05	65.427	0.0029015	0.0029297	0.00093251	1307.2	3.343e-05	3.1441e-05	1155.7	501.69	3.2621e-05	3.2661e-05	496.54	202.71	216.63	85.007	3.8774e-05	77.404	215.836	115.954	152.361	55.930	112.360	228.894	54.640	61.166	328.138	203.120	57.910	61.689	65.204	69.876	242.376	65.467	-8191	255	
3643.671	1	1	0	0	0.16129	0.14405	0.072961	0.26016	0.095767	0.17617	0.17921	0.37164	0.23042	0.34695	0.053846	0.063197	0.17882	0.232	0.30145	0.18338	-2.1208	-2.9104	-2.0979	-2.9667	-2.9	-2.4479	-2.9396	-2.5729	-2.6104	-2.8563	-2.3458	-2.7104	-2.8083	-2.4688	-2.7896	-2.4729	393.103	363.434	121.109	328.119	250.083	77.753	337.156	371.122	263.938	198.677	129.806	387.010	80.327	44.365	242.905	387.758	0.00034385	0.0013455	0.00081572	1159	4.9021e-06	3.343e-05	1004.5	451.31	3.8312e-06	2.5597e-05	417.94	177.3	196.18	77.739	9.6006e-06	66.085	0.0028972	0.0031373	0.001005	1305.6	3.3541e-05	3.3756e-05	1165.8	500.33	3.172e-05	3.3943e-05	499.28	201.82	215.53	85.822	3.739e-05	77.003	186.677	143.865	122.927	55.825	147.170	210.454	54.255	60.911	246.953	208.509	57.878	61.769	65.317	69.912	366.403	65.189	-8191	255	
#DATA ENDS
