BOXY.EXE: ISS Imagent and Oximeter Data Acquisition Program Version 0.80
Ascii Record File

#ACQ INFORMATION
2  Detector Channels 
16  External MUX Channels 
1  Auxiliary Channels 
5000  Waveform (CCF) Frequency (Hz)
1  Waveforms Skipped 
30  Waveforms Averaged 
1  Cycles Averaged 
16  Acquisitions per Waveform 
10.0806  Updata Rate (Hz) 

#FILE INFORMATION
TRUE -- External MUX Channel results are PARSED.
FALSE -- AC DC and Phase are NOT grouped.
TRUE -- Companion Program Settings File CREATED.
FALSE -- AC data not excluded
FALSE -- DC data not excluded
FALSE -- Phase data not excluded
FALSE -- Auxillary Chn. data not excluded
Tab delimiters

#CALIBRATION STATE
TRUE -- Waveform Calibration Values APPLIED.


#AUX CALIBRATION VALUES
Val Type	aux-1	

Term	1.0000e+00	
Factor	0.0000e+00	


#WF CALIBRATION VALUES
A = Detector Channel
Val Type	A-AC1	A-AC2	A-AC3	A-AC4	A-AC5	A-AC6	A-AC7	A-AC8	A-AC9	A-AC10	A-AC11	A-AC12	A-AC13	A-AC14	A-AC15	A-AC16	A-DC1	A-DC2	A-DC3	A-DC4	A-DC5	A-DC6	A-DC7	A-DC8	A-DC9	A-DC10	A-DC11	A-DC12	A-DC13	A-DC14	A-DC15	A-DC16	A-Ph1	A-Ph2	A-Ph3	A-Ph4	A-Ph5	A-Ph6	A-Ph7	A-Ph8	A-Ph9	A-Ph10	A-Ph11	A-Ph12	A-Ph13	A-Ph14	A-Ph15	A-Ph16	

Term	0.00000e+00	0.00000e+00	0.00000e+00	0.00000e+00	0.00000e+00	0.00000e+00	0.00000e+00	0.00000e+00	0.00000e+00	0.00000e+00	0.00000e+00	0.00000e+00	0.00000e+00	0.00000e+00	0.00000e+00	0.00000e+00	0.00000e+00	0.00000e+00	0.00000e+00	0.00000e+00	0.00000e+00	0.00000e+00	0.00000e+00	0.00000e+00	0.00000e+00	0.00000e+00	0.00000e+00	0.00000e+00	0.00000e+00	0.00000e+00	0.00000e+00	0.00000e+00	0.00000e+00	0.00000e+00	0.00000e+00	0.00000e+00	0.00000e+00	0.00000e+00	0.00000e+00	0.00000e+00	0.00000e+00	0.00000e+00	0.00000e+00	0.00000e+00	0.00000e+00	0.00000e+00	0.00000e+00	0.00000e+00	
Factor	1.00000e+00	1.00000e+00	1.00000e+00	1.00000e+00	1.00000e+00	1.00000e+00	1.00000e+00	1.00000e+00	1.00000e+00	1.00000e+00	1.00000e+00	1.00000e+00	1.00000e+00	1.00000e+00	1.00000e+00	1.00000e+00	1.00000e+00	1.00000e+00	1.00000e+00	1.00000e+00	1.00000e+00	1.00000e+00	1.00000e+00	1.00000e+00	1.00000e+00	1.00000e+00	1.00000e+00	1.00000e+00	1.00000e+00	1.00000e+00	1.00000e+00	1.00000e+00	X	X	X	X	X	X	X	X	X	X	X	X	X	X	X	X	

B = Detector Channel
Val Type	B-AC1	B-AC2	B-AC3	B-AC4	B-AC5	B-AC6	B-AC7	B-AC8	B-AC9	B-AC10	B-AC11	B-AC12	B-AC13	B-AC14	B-AC15	B-AC16	B-DC1	B-DC2	B-DC3	B-DC4	B-DC5	B-DC6	B-DC7	B-DC8	B-DC9	B-DC10	B-DC11	B-DC12	B-DC13	B-DC14	B-DC15	B-DC16	B-Ph1	B-Ph2	B-Ph3	B-Ph4	B-Ph5	B-Ph6	B-Ph7	B-Ph8	B-Ph9	B-Ph10	B-Ph11	B-Ph12	B-Ph13	B-Ph14	B-Ph15	B-Ph16	

Term	0.00000e+00	0.00000e+00	0.00000e+00	0.00000e+00	0.00000e+00	0.00000e+00	0.00000e+00	0.00000e+00	0.00000e+00	0.00000e+00	0.00000e+00	0.00000e+00	0.00000e+00	0.00000e+00	0.00000e+00	0.00000e+00	0.00000e+00	0.00000e+00	0.00000e+00	0.00000e+00	0.00000e+00	0.00000e+00	0.00000e+00	0.00000e+00	0.00000e+00	0.00000e+00	0.00000e+00	0.00000e+00	0.00000e+00	0.00000e+00	0.00000e+00	0.00000e+00	-8.19876e+01	-1.12488e+02	-1.32334e+02	-1.83765e+02	-5.47796e+01	-7.96704e+01	-1.58050e+02	-1.62015e+02	-4.66416e+01	-8.78703e+01	-1.70682e+02	-1.70765e+02	-1.77608e+02	-1.76832e+02	-7.22374e+01	-1.49734e+02	
Factor	1.97146e-05	1.23164e-04	3.32636e-05	1.69880e-01	1.09298e-06	1.11543e-06	1.82340e-01	6.04400e-02	9.77201e-07	1.31635e-06	1.00421e-01	3.42866e-02	2.87001e-02	1.09200e-02	1.35373e-06	1.56389e-02	8.88536e-07	9.06807e-07	2.53891e-07	8.32282e-02	9.95797e-09	9.96105e-09	8.40902e-02	2.94902e-02	9.96807e-09	9.92728e-09	4.65780e-02	1.59708e-02	1.39218e-02	5.21665e-03	9.98655e-09	7.18501e-03	X	X	X	X	X	X	X	X	X	X	X	X	X	X	X	X	



#DISTANCE SETTINGS
A = Detector Channel
A-1	A-2	A-3	A-4	A-5	A-6	A-7	A-8	A-9	A-10	A-11	A-12	A-13	A-14	A-15	A-16	

2.5000e+00	3.0000e+00	2.5000e+00	3.0000e+00	2.0000e+00	3.0000e+00	1.5000e+00	3.0000e+00	3.0000e+00	3.0000e+00	3.0000e+00	3.0000e+00	3.0000e+00	3.0000e+00	1.5000e+00	3.0000e+00	

B = Detector Channel
B-1	B-2	B-3	B-4	B-5	B-6	B-7	B-8	B-9	B-10	B-11	B-12	B-13	B-14	B-15	B-16	

1.0000e+01	1.0000e+01	1.0000e+01	1.4400e+00	1.0000e+01	1.0000e+01	1.5100e+00	1.9400e+00	1.0000e+01	1.0000e+01	1.9900e+00	2.4900e+00	2.4100e+00	2.9000e+00	1.0000e+01	2.9800e+00	




#DATA BEGINS
time	group	step	mark	flag	A-AC1	A-AC2	A-AC3	A-AC4	A-AC5	A-AC6	A-AC7	A-AC8	A-AC9	A-AC10	A-AC11	A-AC12	A-AC13	A-AC14	A-AC15	A-AC16	A-DC1	A-DC2	A-DC3	A-DC4	A-DC5	A-DC6	A-DC7	A-DC8	A-DC9	A-DC10	A-DC11	A-DC12	A-DC13	A-DC14	A-DC15	A-DC16	A-Ph1	A-Ph2	A-Ph3	A-Ph4	A-Ph5	A-Ph6	A-Ph7	A-Ph8	A-Ph9	A-Ph10	A-Ph11	A-Ph12	A-Ph13	A-Ph14	A-Ph15	A-Ph16	B-AC1	B-AC2	B-AC3	B-AC4	B-AC5	B-AC6	B-AC7	B-AC8	B-AC9	B-AC10	B-AC11	B-AC12	B-AC13	B-AC14	B-AC15	B-AC16	B-DC1	B-DC2	B-DC3	B-DC4	B-DC5	B-DC6	B-DC7	B-DC8	B-DC9	B-DC10	B-DC11	B-DC12	B-DC13	B-DC14	B-DC15	B-DC16	B-Ph1	B-Ph2	B-Ph3	B-Ph4	B-Ph5	B-Ph6	B-Ph7	B-Ph8	B-Ph9	B-Ph10	B-Ph11	B-Ph12	B-Ph13	B-Ph14	B-Ph15	B-Ph16	aux-1	digaux	

8048.859	1	1	0	512	0.35861	0.13011	0.29764	0.098034	0.1057	0.2757	0.21584	0.21428	0.070685	0.12879	0.20562	0.096651	0.27593	0.046311	0.12873	0.054445	-2.4333	-2.375	-2.2188	-2.9062	-2.0896	-2.4854	-2.8875	-2.2229	-2.8208	-2.5687	-2.3979	-2.8875	-2.2542	-2.4833	-2.7896	-2.3396	72.558	142.381	47.652	-34.660	-46.816	29.172	195.800	8.533	224.657	24.939	296.822	111.184	281.442	235.429	61.380	17.099	0.00046785	0.0027845	0.00016004	649.57	5.7161e-06	1.8591e-05	849.65	235.58	5.1788e-06	2.6327e-05	368.44	155.24	97.86	42.072	1.3762e-05	74.445	0.002827	0.0027088	0.0006908	847.11	3.2759e-05	3.0526e-05	1040.5	309.52	3.4292e-05	3.1383e-05	473.33	194.99	140.04	55.556	3.0461e-05	91.852	216.248	-24.958	-23.725	-38.459	118.940	36.391	-38.967	-32.794	127.402	49.870	-34.056	-28.956	-27.693	-23.518	112.894	-24.953	-8191	255	
8048.955	1	1	0	0	0.18464	0.15773	0.11365	0.13582	0.14623	0.18105	0.030703	0.29576	0.096459	0.1818	0.16392	0.20455	0.28013	0.13021	0.24673	0.13425	-2.3375	-2.5271	-2.3688	-2.7562	-2.1292	-2.4542	-2.7458	-2.2521	-2.5917	-2.6312	-2.2604	-2.925	-2.4479	-2.3812	-2.8604	-2.0083	263.471	160.511	237.750	296.868	-3.296	19.695	295.965	274.199	192.858	222.789	270.730	-28.221	-11.177	286.828	251.055	94.126	0.00043435	0.0010941	0.00033807	656.89	8.3965e-06	6.7313e-06	858.74	237.93	9.2096e-06	2.8355e-05	368.84	154.48	97.935	41.841	7.6265e-06	74.435	0.0032348	0.0029658	0.00076644	905.97	3.627e-05	3.2498e-05	1068.6	327.89	3.6883e-05	3.3385e-05	484.41	203.82	143.22	56.311	3.3249e-05	96.199	117.887	-31.809	-28.727	-38.589	57.246	1.408	-38.599	-32.920	39.205	87.234	-34.074	-28.888	-27.558	-23.303	277.662	-25.166	-8191	255	
8049.051	1	1	0	0	0.12003	0.098922	0.091734	0.34415	0.065045	0.099185	0.15157	0.27793	0.094747	0.16697	0.17842	0.34537	0.1699	0.14359	0.10372	0.086424	-2.3146	-2.6583	-2.2958	-2.9708	-2.4667	-2.4021	-2.8208	-2.1854	-2.6833	-2.875	-2.1542	-3.0187	-2.7333	-2.2042	-2.7125	-2.4	241.209	71.286	228.806	228.044	159.536	111.301	9.417	220.213	76.011	18.038	292.177	294.860	277.929	254.007	91.664	-31.692	0.00014712	0.0015517	0.0001063	666.4	1.262e-05	1.025e-05	864.49	241.02	1.9176e-05	1.2946e-05	370.35	156.67	98.737	41.896	4.1945e-05	74.342	0.0034579	0.0032572	0.00087122	970.66	3.9537e-05	3.5717e-05	1111.5	348.71	3.9063e-05	3.6402e-05	507.88	213.72	146.71	57.53	3.7869e-05	99.312	267.245	57.966	-12.316	-38.565	70.368	63.196	-38.596	-33.119	110.378	-31.327	-34.221	-29.466	-27.601	-23.287	190.860	-24.904	-8191	255	
8049.170	1	1	0	0	0.068866	0.16832	0.22173	0.20611	0.15302	0.27841	0.19793	0.17502	0.14174	0.35652	0.32531	0.10043	0.18741	0.17459	0.080747	0.12605	-2.125	-2.6562	-2.0938	-3.0479	-2.5729	-2.3479	-3.1104	-2.4854	-2.6021	-2.6312	-2.0938	-2.6562	-2.5271	-2.2979	-2.7687	-2.625	-49.323	36.522	299.073	-20.861	213.134	302.607	281.055	203.938	-1.635	92.197	175.506	212.728	239.809	-0.100	204.630	256.787	0.00014449	0.0026488	0.00081808	670.82	2.1461e-05	1.1819e-05	865	242.6	5.5854e-06	1.3538e-05	367.48	157.08	98.709	41.963	3.2438e-05	74.582	0.0035071	0.0033789	0.00096939	997.07	3.9381e-05	3.5843e-05	1146.8	353.98	3.8433e-05	3.6257e-05	524.23	214.46	145.14	57.14	4.0616e-05	98.775	-49.753	-7.773	136.081	-38.922	25.234	18.493	-38.483	-33.390	87.159	81.834	-34.054	-29.022	-27.958	-23.264	244.123	-25.022	-8191	255	
8049.241	1	1	0	0	0.12624	0.17293	0.077922	0.16336	0.12641	0.053883	0.33351	0.15243	0.35	0.08997	0.10685	0.44322	0.09644	0.22692	0.2625	0.41246	-2.0771	-2.7646	-2.0354	-2.7812	-2.7333	-2.0729	-2.9354	-2.4021	-2.2104	-2.8021	-2.2146	-2.675	-2.85	-2.1333	-2.8042	-2.4333	51.075	257.913	234.208	188.792	293.841	160.667	272.223	266.571	56.952	176.131	127.116	255.618	152.257	-50.665	70.842	219.048	0.00011701	0.0011662	0.00034008	674.61	1.0152e-05	9.9053e-06	864.61	241.17	1.6402e-05	1.5396e-05	370.88	158.13	98.387	41.561	1.9219e-05	74.7	0.003369	0.0032905	0.0010463	983.08	3.8078e-05	3.5558e-05	1174.7	350.25	3.7596e-05	3.6635e-05	541.4	212.32	144.47	57.511	4.3477e-05	97.624	215.611	137.557	178.536	-39.091	136.878	204.650	-38.432	-33.253	80.756	102.402	-34.017	-29.107	-28.245	-23.212	192.533	-25.072	-8191	255	
8049.338	1	1	0	0	0.1869	0.11587	0.041281	0.17176	0.10851	0.15814	0.24564	0.35362	0.066886	0.064232	0.28505	0.049221	0.080203	0.13601	0.16403	0.17843	-2.0187	-2.6854	-2.1917	-2.6771	-2.6188	-2.2083	-3.0062	-2.5292	-2.2313	-2.8708	-2.1542	-2.6688	-2.7479	-2.3458	-2.8396	-2.6375	83.015	124.897	288.101	272.328	28.161	129.510	271.600	-34.477	276.238	300.005	252.938	195.355	278.735	287.773	51.002	82.465	8.946e-05	0.0029214	5.0651e-05	675.45	1.6335e-05	2.021e-05	864.59	241.99	5.8805e-06	2.5605e-05	373.59	156.42	98.201	41.131	2.7955e-05	73.846	0.0033124	0.0034559	0.0011215	975.46	3.8561e-05	3.8583e-05	1204.7	350.2	3.8234e-05	4.0681e-05	556.49	212.27	145.96	60.109	4.6951e-05	97.829	277.914	121.061	138.285	-38.985	35.425	191.486	-38.584	-33.329	81.020	195.579	-34.423	-29.430	-28.017	-23.264	46.577	-24.992	-8191	255	
8049.458	1	1	0	0	0.20984	0.17492	0.25891	0.34045	0.13778	0.18369	0.12391	0.16419	0.14782	0.10095	0.22349	0.11783	0.15865	0.15501	0.11712	0.37988	-1.8	-2.7896	-2.2667	-2.5542	-2.7521	-2.2833	-2.8375	-2.6458	-2.2208	-2.9708	-2.5854	-2.4938	-2.9042	-2.1958	-2.6917	-2.6854	300.016	234.044	221.243	285.501	-4.197	143.173	150.160	201.377	154.420	65.841	250.092	70.487	230.117	86.548	71.190	212.214	0.00015009	0.0024154	0.00081448	673.97	8.5576e-06	3.3389e-05	875.66	239.83	1.9005e-05	2.9468e-05	372.67	155.79	97.281	40.694	3.0765e-05	72.677	0.0034842	0.0039697	0.0012031	986.13	4.0329e-05	4.5089e-05	1226.3	355.2	4.0396e-05	4.6787e-05	565.27	213.66	148.57	62.797	4.7613e-05	97.988	225.723	201.382	-30.280	-39.004	123.025	196.916	-38.827	-33.036	155.164	174.808	-34.529	-29.352	-27.851	-23.255	75.974	-25.176	-8191	255	
8049.554	1	1	0	0	0.059272	0.15981	0.14703	0.018094	0.086201	0.45738	0.21354	0.20875	0.20905	0.088282	0.3121	0.12145	0.11331	0.15949	0.11534	0.26418	-1.6146	-2.775	-2.2583	-2.3604	-2.8	-2.275	-2.7375	-2.8521	-2.2104	-2.6375	-2.5833	-2.4562	-3.0667	-2.4646	-2.625	-2.8312	206.378	268.429	88.569	60.653	307.717	9.542	196.385	99.304	94.076	271.643	-27.145	24.739	206.400	285.584	-49.517	302.300	0.00047905	0.002344	0.00076855	676.41	1.0087e-05	2.3227e-05	874.48	241.57	2.0809e-05	1.2029e-05	374.03	156.26	97.465	41.29	4.5987e-05	73.604	0.0036665	0.0044592	0.0012181	996.06	4.2957e-05	4.9984e-05	1227.8	358.26	4.364e-05	5.1836e-05	568.73	215.97	154.95	65.585	4.7935e-05	99.424	196.020	187.674	301.210	-38.956	226.809	187.369	-38.880	-32.988	230.768	185.330	-34.523	-29.408	-27.673	-22.981	45.780	-25.061	-8191	255	
8049.650	1	1	0	0	0.085951	0.23081	0.13755	0.17769	0.48658	0.099847	0.31251	0.16854	0.12817	0.070482	0.10338	0.18585	0.2114	0.208	0.17996	0.049511	-1.7208	-2.8292	-2.5896	-2.4208	-2.8396	-2.3146	-2.5458	-2.7188	-2.175	-2.7896	-2.4833	-2.3229	-2.8458	-2.4313	-2.3917	-2.9708	-43.989	-33.520	-5.316	7.057	189.641	151.114	207.912	290.644	54.033	30.794	78.287	265.034	294.760	-40.680	224.103	-38.032	0.0011651	0.0017169	0.00066575	677.87	3.0874e-05	7.7452e-06	882.19	243.06	4.4136e-05	2.9172e-05	373.68	156.39	98.621	41.164	2.5465e-05	73.184	0.0040696	0.004778	0.0012046	997.78	4.6923e-05	5.1768e-05	1213	356.53	4.6656e-05	5.1213e-05	558.72	214.45	160.1	64.996	4.5673e-05	98.577	204.739	214.101	-40.299	-38.933	223.801	23.661	-39.216	-32.844	234.162	21.985	-34.644	-29.343	-27.846	-23.431	14.057	-24.879	-8191	255	
8049.771	1	1	0	0	0.27361	0.053975	0.17725	0.16494	0.41808	0.16595	0.22809	0.22216	0.060365	0.21706	0.23371	0.17778	0.14962	0.22654	0.14218	0.41887	-1.7479	-2.675	-2.5667	-2.3458	-2.9667	-2.2604	-2.4375	-2.8812	-2.1083	-2.6813	-2.8771	-2.45	-2.8187	-2.5271	-2.425	-2.7667	-6.490	124.827	96.207	307.770	151.051	20.087	248.069	-38.905	127.005	97.555	87.546	90.651	211.297	-45.067	153.714	289.404	0.00076129	0.0042262	0.00022765	680.37	3.1394e-05	2.646e-05	873.21	241.65	1.1955e-05	3.5014e-05	373.35	156.87	98.429	41.347	2.5548e-05	73.487	0.0043485	0.0045999	0.0011748	995.34	5.0293e-05	5.0298e-05	1205.2	358.86	5.0886e-05	4.9852e-05	556.57	215.95	164.61	63.938	4.4391e-05	99.22	186.185	14.808	257.256	-38.723	218.092	24.166	-38.927	-33.164	173.054	13.680	-34.736	-29.133	-28.059	-23.639	35.533	-25.084	-8191	255	
8049.867	1	1	0	0	0.061038	0.13267	0.15947	0.07716	0.28096	0.14066	0.23603	0.34008	0.11071	0.15938	0.03929	0.19536	0.29847	0.24263	0.17906	0.23848	-1.7542	-2.5375	-2.75	-2.1937	-2.7562	-2.4458	-2.4125	-2.8354	-2.2792	-2.6437	-2.9125	-2.2729	-2.7604	-2.7979	-2.3187	-2.8917	44.782	48.647	162.058	-36.727	-23.514	93.667	242.615	254.133	108.983	34.797	59.246	268.601	-36.276	236.194	175.908	255.086	0.00045766	0.0026228	0.00041387	680.74	3.1836e-06	3.29e-05	880.15	241.63	1.9271e-05	3.6073e-05	373.54	156.54	99.425	41.389	1.6653e-05	73.354	0.0045846	0.0043528	0.001133	1009.8	5.1642e-05	4.7464e-05	1191.1	363.24	5.1048e-05	4.5756e-05	544.03	218.63	163.11	62.002	4.1507e-05	100.31	211.029	-47.683	12.388	-38.638	201.856	44.316	-38.599	-33.155	-8.029	41.033	-34.540	-29.091	-27.977	-23.345	31.770	-25.159	-8191	255	
8049.939	1	1	0	0	0.070496	0.12088	0.12185	0.05188	0.17565	0.15169	0.062382	0.085689	0.29489	0.08798	0.1091	0.26911	0.23636	0.26571	0.14096	0.10847	-1.7083	-2.2854	-2.6771	-2.0687	-2.6625	-2.7396	-2.3125	-2.95	-2.3792	-2.3458	-2.9521	-2.3292	-2.7792	-2.7875	-2.1833	-3.0542	-39.009	280.548	-4.542	163.992	253.850	25.646	159.959	271.813	-11.275	133.072	-15.537	14.648	281.016	308.641	140.364	60.468	2.781e-05	0.0011429	0.00067635	681.04	2.6595e-05	2.2396e-05	872.34	242.07	6.0486e-06	7.1335e-06	370.45	157.43	99.638	41.423	2.217e-05	73.666	0.0043934	0.0039647	0.0010528	1019.4	4.8157e-05	4.3582e-05	1160.7	366.68	4.7404e-05	4.2144e-05	531.85	221.29	157.92	60.629	4.0019e-05	101.91	67.513	81.973	261.491	-38.442	53.249	10.170	-38.942	-32.817	73.476	218.745	-33.968	-29.228	-28.306	-23.164	158.884	-24.838	-8191	255	
8050.035	1	1	0	0	0.23082	0.088199	0.23409	0.21588	0.2124	0.037301	0.17086	0.21842	0.26796	0.15312	0.23048	0.29755	0.22596	0.14884	0.054158	0.18517	-1.825	-2.0146	-2.9562	-2.2771	-2.4667	-2.7229	-2.4479	-2.6604	-2.3854	-2.3021	-2.9437	-2.4021	-2.7146	-2.6562	-2.3167	-2.9167	-12.703	-28.979	47.982	-8.815	130.083	-18.272	243.773	243.767	4.893	88.751	295.768	292.114	288.629	66.137	120.683	225.903	3.7642e-05	0.00079537	0.00062516	677.67	2.774e-05	1.0898e-05	874.88	243.51	1.9189e-05	1.495e-05	368.59	157.4	98.8	41.471	4.1115e-05	73.951	0.0041357	0.0037726	0.0010374	1030.9	4.434e-05	4.0923e-05	1156	366.46	4.3242e-05	3.8934e-05	526.81	219.34	150.25	58.594	3.9437e-05	100.58	-14.770	-2.494	120.907	-38.798	78.060	-36.575	-38.602	-32.980	27.329	-39.808	-33.751	-29.124	-28.053	-23.109	205.598	-25.015	-8191	255	
8050.154	1	1	0	0	0.17501	0.093984	0.097143	0.1515	0.11466	0.11977	0.23579	0.12197	0.065907	0.11967	0.13283	0.16887	0.073985	0.084577	0.048507	0.065385	-2.0083	-2.3208	-2.9021	-2.2542	-2.6979	-2.5708	-2.3	-2.775	-2.5083	-2.4625	-2.9437	-2.5167	-2.45	-2.8021	-2.2146	-2.8	177.622	81.144	88.229	290.482	286.536	215.775	176.382	305.906	281.599	197.167	-17.719	200.275	130.884	188.528	230.903	257.954	0.0004603	0.0019543	0.0002215	675.15	1.5778e-05	1.0222e-05	869.46	242.33	1.2019e-05	1.0184e-05	369.95	158.07	98.24	40.311	2.314e-05	73.08	0.0037105	0.0034621	0.001049	1016.9	4.0683e-05	3.8506e-05	1165.1	361.29	4.0443e-05	3.6844e-05	535.01	215.66	145.36	56.955	4.0565e-05	97.516	20.596	-46.663	197.352	-38.488	61.872	19.857	-38.662	-33.003	58.454	-50.907	-33.587	-28.969	-27.731	-21.949	173.844	-24.633	-8191	255	
8050.250	1	1	0	0	0.2578	0.25936	0.22494	0.11479	0.011663	0.22569	0.07826	0.24136	0.2051	0.12547	0.065017	0.046455	0.26768	0.15809	0.043806	0.12847	-2.2208	-2.275	-2.8042	-2.3958	-2.4771	-2.8479	-2.3729	-2.7771	-2.7708	-2.1833	-2.9208	-2.6188	-2.3833	-2.8271	-2.3521	-2.7479	289.258	108.164	141.694	286.581	147.600	27.102	255.662	216.482	59.948	149.971	-45.511	-36.999	300.631	207.564	183.725	250.481	0.00028219	0.0010988	0.00051754	655.33	1.2539e-05	2.9839e-06	829.64	233.79	3.8181e-06	7.8818e-06	356.61	150.36	94.596	39.385	7.8376e-06	71.293	0.0033766	0.0031467	0.0010351	965.41	3.5861e-05	3.4731e-05	1145.1	341.06	3.5902e-05	3.3843e-05	527.28	205.85	138.71	55.892	3.9782e-05	93.68	200.606	162.884	144.515	-37.176	63.511	213.660	-36.928	-31.642	260.754	259.458	-32.032	-27.306	-26.505	-21.135	175.644	-23.392	-8191	255	
8050.346	1	1	0	0	0.33728	0.013031	0.081482	0.27405	0.16418	0.044913	0.20672	0.17111	0.33506	0.044604	0.074286	0.30343	0.21811	0.057904	0.077943	0.15951	-2.1292	-2.2542	-2.7104	-2.7792	-2.3875	-2.9313	-2.4708	-2.5938	-2.5958	-2.2667	-2.875	-2.6208	-2.2229	-2.9083	-2.2875	-2.4354	125.906	79.436	184.906	268.337	266.892	56.310	246.497	225.518	191.933	199.986	177.028	-48.921	12.117	-41.971	244.159	193.817	0.00027308	0.0035569	0.00022996	647.41	3.3066e-06	9.821e-06	832.34	233.49	1.3012e-05	2.1922e-05	361.02	151.89	95.437	40.469	3.6102e-05	72.559	0.0030614	0.003057	0.0010038	923.92	3.2353e-05	3.392e-05	1129.8	326.13	3.224e-05	3.2948e-05	514.07	197.98	133.3	55.695	3.6532e-05	90.778	184.819	204.286	34.454	-37.295	100.268	208.986	-36.896	-31.940	-12.370	179.056	-32.837	-27.641	-26.309	-21.662	50.255	-23.978	-8191	255	
8050.442	1	1	0	0	0.2941	0.18766	0.20592	0.22826	0.34145	0.0036511	0.25759	0.16413	0.085375	0.27676	0.29777	0.42942	0.1979	0.24138	0.18444	0.17079	-2.2792	-2.225	-2.7479	-2.5583	-2.1708	-2.7292	-2.4729	-2.3583	-2.7417	-2.0542	-2.5062	-2.6188	-2.1958	-2.7396	-2.4604	-2.3104	180.350	186.895	270.146	293.044	-1.521	125.811	-44.401	65.320	-10.667	21.685	209.756	300.776	3.419	-3.918	220.929	284.523	0.00051388	0.0026409	0.00060672	649.26	1.7309e-05	1.7121e-05	845.46	234.41	1.5254e-05	2.8918e-05	361.49	151.95	94.869	40.403	1.4517e-05	72.627	0.0027492	0.0030341	0.0009135	893.31	2.9525e-05	3.4256e-05	1108.6	317.21	3.0125e-05	3.3973e-05	500.07	194.45	130.9	56.14	3.3269e-05	89.069	188.729	169.646	6.114	-37.708	131.350	199.600	-37.498	-32.065	309.800	171.389	-33.202	-27.530	-26.359	-21.466	12.941	-23.666	-8191	255	
8050.539	1	1	0	0	0.076747	0.27119	0.17512	0.17011	0.057245	0.071486	0.15419	0.18344	0.11502	0.2187	0.2596	0.15163	0.23418	0.23838	0.18938	0.25142	-2.2583	-2.1875	-2.6417	-2.7521	-2.0917	-2.7687	-2.6312	-2.2687	-2.8229	-2.2292	-2.4333	-3	-2.2646	-2.7979	-2.5917	-2.4042	69.689	0.464	105.504	100.284	106.403	18.952	45.783	175.830	11.882	251.042	99.144	-38.863	201.963	277.616	-37.109	145.986	0.00040536	0.0013492	0.00081404	637.33	2.7633e-05	3.0661e-06	840.23	234.88	6.9996e-06	1.8311e-05	363.89	152.3	94.476	40.48	3.0533e-05	72.708	0.002583	0.0030311	0.00081069	860.32	2.8222e-05	3.3784e-05	1070	308	2.9134e-05	3.3463e-05	483.16	190.38	130.73	55.913	3.0637e-05	87.561	169.249	106.342	-20.117	-37.041	211.805	233.342	-37.054	-31.923	254.974	151.440	-32.930	-27.724	-26.382	-21.662	37.112	-23.550	-8191	255	
8050.635	1	1	0	0	0.0041744	0.27061	0.25923	0.29138	0.13565	0.066626	0.11921	0.29476	0.23715	0.22626	0.053358	0.28535	0.28367	0.1184	0.19886	0.1724	-2.3854	-2.3125	-2.5292	-2.8438	-2.0583	-2.9417	-2.8333	-2.4958	-2.9333	-2.3625	-2.7042	-2.7333	-2.1333	-2.7271	-2.7167	-2.3125	183.664	117.763	31.154	-8.468	122.860	28.504	252.827	162.902	21.483	25.868	36.267	304.451	-47.782	125.650	143.311	274.378	0.00057783	0.0012091	0.00064393	641.54	2.3952e-05	1.1465e-05	831.98	233.67	5.3583e-06	1.9656e-05	360.06	152.79	95.052	40.92	1.306e-05	72.697	0.0026761	0.0030459	0.00075984	851.08	2.9731e-05	3.326e-05	1053.9	304.26	3.0827e-05	3.2888e-05	473.99	188.44	133.44	55.227	2.8978e-05	86.938	225.843	-48.648	295.152	-37.534	223.901	293.811	-37.355	-31.541	204.013	101.324	-33.314	-27.837	-26.745	-22.279	117.249	-24.110	-8191	255	
8050.731	1	1	0	0	0.17246	0.1606	0.078696	0.18557	0.13456	0.1287	0.19425	0.16003	0.3481	0.25376	0.19296	0.18478	0.091476	0.37965	0.15239	0.24092	-2.4771	-2.1396	-2.2854	-2.9167	-2.1375	-2.8667	-2.6208	-2.2208	-2.7792	-2.3812	-2.2833	-2.8708	-2.1583	-2.6542	-2.6292	-2.3833	-37.319	98.358	284.390	-13.525	2.487	-46.141	288.836	298.806	96.149	108.427	-18.767	-5.141	184.512	267.279	137.805	211.037	0.00037054	0.00093173	0.00047932	640.07	2.3604e-05	2.5074e-05	836.71	233.3	1.5507e-05	3.1809e-05	359.19	151.43	94.541	40.696	2.3138e-05	72.762	0.0027884	0.0028529	0.00071199	837.86	3.0717e-05	3.0564e-05	1033.9	301.03	3.1304e-05	3.0044e-05	463.74	187.42	134.18	53.883	2.7525e-05	87.363	216.622	38.781	20.012	-37.590	181.306	72.254	-37.530	-31.937	247.362	41.392	-32.450	-27.340	-26.075	-21.718	25.353	-23.647	-8191	255	
8050.851	1	1	0	0	0.026655	0.28474	0.29112	0.35996	0.056007	0.05774	0.3486	0.19222	0.15211	0.32943	0.11708	0.19291	0.36848	0.14952	0.15536	0.38689	-2.2958	-2.375	-2.4125	-2.7042	-2.2667	-2.5771	-2.7208	-2.1271	-2.6208	-2.5354	-2.3458	-2.7354	-2.2812	-2.5646	-2.6833	-2.2208	194.476	102.821	24.976	232.774	139.248	32.675	160.563	52.562	86.409	164.242	241.092	173.457	-33.185	194.213	167.101	208.719	0.00035608	0.0018059	0.00069672	636.54	6.4313e-06	2.2242e-05	825.27	228.76	6.5443e-06	1.686e-05	356.91	151.2	94.842	40.757	1.171e-05	72.939	0.0028552	0.0026836	0.0006796	843.35	3.159e-05	2.8778e-05	1020.7	303.32	3.178e-05	2.8707e-05	458.93	190.7	134.56	53.255	2.6881e-05	89.231	175.104	-7.493	-9.782	-37.128	85.575	34.664	-37.282	-31.530	127.943	6.441	-32.571	-27.791	-26.112	-22.196	56.371	-23.861	-8191	255	
8050.946	1	1	0	0	0.21427	0.28125	0.11703	0.17139	0.13114	0.23297	0.15614	0.42601	0.045877	0.1271	0.078089	0.17783	0.25309	0.18743	0.16882	0.22949	-2.2	-2.5958	-1.9312	-2.9562	-2.325	-2.4646	-2.9125	-2.2229	-2.8521	-2.6396	-2.3375	-2.8625	-2.4167	-2.4875	-2.9396	-2.1063	166.951	117.964	-48.029	260.114	131.347	266.325	287.624	205.542	105.647	102.761	242.283	191.142	229.329	207.836	115.599	82.089	0.00013033	0.00091762	0.00015363	634.94	1.4667e-05	6.7981e-07	827.95	231.24	1.7069e-05	1.113e-05	359.69	151.61	94.788	40.858	6.7028e-06	72.612	0.0028253	0.0025652	0.00065447	855.53	3.0539e-05	2.7037e-05	1010.5	307.35	2.9672e-05	2.6742e-05	452.56	191.54	130.28	51.978	2.5279e-05	89.275	124.118	-42.994	1.334	-37.207	78.094	8.093	-37.206	-31.899	83.872	55.816	-32.983	-27.102	-26.438	-21.932	280.130	-23.339	-8191	255	
8051.042	1	1	0	0	0.078423	0.13874	0.27706	0.29482	0.19663	0.22673	0.044282	0.20138	0.078646	0.090307	0.15632	0.14895	0.11467	0.34464	0.11408	0.21898	-2.175	-2.6646	-1.9396	-2.8104	-2.5167	-2.3708	-2.9542	-2.2521	-2.6292	-2.8604	-2.1583	-2.9896	-2.4646	-2.3208	-2.7854	-2.4229	59.240	248.467	39.435	255.635	99.781	73.850	280.692	227.211	29.160	277.462	7.041	299.232	31.296	309.835	21.326	208.735	0.0001773	7.6338e-05	0.00028356	630.73	1.0481e-05	5.0114e-06	822.39	229.3	1.3299e-05	1.6527e-05	357.54	152.51	95.03	40.935	8.1226e-06	73.614	0.0025503	0.0023792	0.00064129	856.94	2.8414e-05	2.5634e-05	1010.3	309.5	2.7741e-05	2.5912e-05	456.35	193.02	128.41	51.539	2.6785e-05	90.054	130.731	64.322	-21.919	-37.193	18.944	53.720	-37.100	-31.364	65.666	103.017	-32.963	-27.631	-26.840	-22.045	145.359	-24.003	-8191	255	
8051.138	1	1	0	0	0.079856	0.13178	0.19612	0.15302	0.14034	0.38269	0.26582	0.29223	0.08	0.18717	0.19057	0.1181	0.18854	0.23277	0.14044	0.19368	-2.1063	-2.75	-1.9604	-2.8187	-2.4583	-2.2208	-2.9583	-2.2229	-2.3875	-2.6958	-2.3688	-2.7375	-2.6292	-2.2292	-2.8604	-2.3729	175.629	-44.350	12.874	5.408	52.010	92.504	232.472	-20.726	133.959	36.046	275.092	294.266	185.462	221.081	95.539	6.572	7.3785e-05	0.0006348	0.00074266	634.01	1.173e-05	1.5997e-05	826.25	232.89	1.2109e-05	4.1904e-06	362.84	154.04	95.201	40.813	2.9698e-05	73.819	0.0024377	0.0023225	0.00068496	858.14	2.6965e-05	2.4526e-05	1024.8	308.73	2.6031e-05	2.458e-05	464.79	190.85	126.52	51.003	2.8175e-05	88.902	178.796	-26.247	150.806	-37.611	-31.771	-13.893	-36.926	-32.329	5.557	147.924	-33.093	-28.208	-26.854	-22.216	194.550	-24.199	-8191	255	
8051.234	1	1	0	0	0.18299	0.14353	0.29104	0.13355	0.24197	0.10637	0.1671	0.2637	0.31917	0.093532	0.1021	0.27017	0.38041	0.077521	0.21515	0.087392	-1.8563	-2.775	-2.1229	-2.6375	-2.7146	-2.2229	-3.0979	-2.2729	-2.5146	-2.7271	-2.2479	-2.5979	-2.7646	-2.3292	-2.8604	-2.6604	171.346	22.449	295.555	259.616	285.343	39.207	184.227	289.493	37.511	159.679	249.372	-30.518	-48.793	263.765	308.311	159.452	0.00020534	0.0019279	0.000341	641.74	8.5632e-06	5.3019e-06	832.02	233.75	1.2986e-05	6.9438e-06	362.71	153.2	95.2	40.742	2.7209e-06	74.414	0.0022996	0.0022574	0.00072384	846.03	2.5884e-05	2.4373e-05	1040.9	305.18	2.5146e-05	2.4958e-05	473.27	188.67	125.23	51.318	2.9204e-05	88.103	191.411	104.971	62.459	-38.094	210.799	150.532	-37.594	-31.980	5.095	240.849	-32.694	-28.024	-26.513	-21.706	297.253	-24.134	-8191	255	
8051.330	1	1	0	0	0.25464	0.36293	0.2418	0.14671	0.15737	0.032496	0.2507	0.23054	0.26496	0.086054	0.16096	0.19629	0.27607	0.064557	0.10376	0.24956	-1.8312	-2.6437	-2.1792	-2.7833	-2.6562	-2.2292	-2.7958	-2.4833	-2.3125	-2.7583	-2.4229	-2.6667	-2.9604	-2.3375	-2.7917	-2.7938	177.204	11.873	77.676	306.032	20.214	40.205	141.964	292.523	44.216	37.706	82.592	252.438	235.621	193.260	91.007	-47.656	0.0001598	0.0021678	0.00043997	634.14	1.2412e-05	1.4786e-05	832.08	232.18	1.5922e-05	1.8171e-05	360.53	153.25	95.912	40.862	6.5152e-06	73.913	0.0021769	0.0022923	0.00072861	822.6	2.4305e-05	2.4669e-05	1032.7	297.43	2.3531e-05	2.5541e-05	469.92	185.12	123.16	51.924	2.8139e-05	86.489	217.544	168.764	103.365	-37.659	37.909	211.493	-37.138	-31.516	81.466	190.874	-32.915	-28.206	-26.734	-21.781	50.137	-23.911	-8191	255	
8051.451	1	1	0	0	0.088534	0.11684	0.15883	0.19176	0.059579	0.17361	0.15771	0.24024	0.26446	0.10417	0.21169	0.30798	0.25583	0.046497	0.22465	0.045412	-1.8667	-3.0167	-2.4479	-2.5563	-2.7938	-1.9937	-2.7979	-2.6354	-2.2812	-2.8771	-2.5458	-2.3792	-3.0042	-2.0625	-2.6	-2.6896	-45.890	185.582	301.076	248.352	16.086	283.838	204.137	157.115	58.226	20.314	304.815	156.860	287.594	89.511	299.095	245.767	0.00010892	0.0014452	0.00031682	633.7	1.4559e-05	3.4541e-06	832.22	232.54	2.8044e-06	1.0062e-05	363.01	153.61	95.018	41.209	2.4113e-05	73.886	0.0020583	0.0023834	0.0006991	807.66	2.3034e-05	2.6012e-05	1020	293.07	2.237e-05	2.6471e-05	461.54	182.73	122.02	52.534	2.582e-05	85.559	197.277	237.778	-3.410	-37.723	180.530	202.484	-37.916	-31.344	259.606	156.994	-32.606	-27.684	-26.128	-21.642	87.030	-23.605	-8191	255	
8051.547	1	1	0	0	0.13931	0.2436	0.28348	0.035483	0.16212	0.096372	0.15765	0.15094	0.046667	0.11878	0.14087	0.20733	0.47031	0.21944	0.094861	0.12957	-1.8396	-2.7396	-2.2583	-2.3417	-2.7229	-2.4167	-2.6312	-2.7542	-2.3708	-2.9813	-2.575	-2.2062	-2.8917	-2.3208	-2.5646	-2.8812	4.213	171.801	3.383	140.018	108.449	291.323	-38.953	77.204	233.944	47.427	61.145	-31.076	289.810	295.411	153.900	287.415	0.00046478	0.0011547	0.00025084	628.76	1.3402e-05	1.9164e-05	827.23	231.46	3.0897e-06	8.7397e-06	361.3	153.1	95.362	41.054	7.8863e-06	74.046	0.0020132	0.0024572	0.00065557	797.19	2.3501e-05	2.7259e-05	1008.4	291.91	2.357e-05	2.781e-05	458.05	182.41	124.84	53.264	2.5198e-05	85.838	190.822	-8.435	31.283	-37.468	187.767	192.498	-37.480	-31.497	168.527	-25.361	-32.903	-27.805	-26.074	-22.171	32.042	-24.076	-8191	255	
8051.643	1	1	0	0	0.14642	0.23468	0.21509	0.15058	0.20635	0.15585	0.078909	0.093445	0.2759	0.12561	0.17712	0.14005	0.30168	0.33781	0.25369	0.24371	-1.8271	-2.7146	-2.5771	-2.1688	-2.7896	-2.3187	-2.6208	-2.8083	-2.1083	-2.7229	-2.5583	-2.3646	-2.8917	-2.5208	-2.4021	-2.9208	21.433	107.741	280.202	91.596	46.282	202.672	-43.745	246.156	130.619	160.389	236.928	268.919	231.279	-3.558	23.649	173.081	0.00056581	0.00085311	0.00014209	635	1.3433e-05	6.9478e-06	829.26	231.28	2.2253e-05	2.0809e-05	360.56	151.87	94.21	40.936	1.4445e-05	73.935	0.0022035	0.0025294	0.00063696	794.18	2.5304e-05	2.7316e-05	996.74	290.23	2.5196e-05	2.6985e-05	451.98	180.69	126.73	52.617	2.3689e-05	85.264	204.643	23.208	-7.491	-37.873	203.023	36.540	-37.367	-31.447	215.757	75.090	-32.748	-27.462	-25.885	-22.024	37.631	-23.630	-8191	255	
8051.740	1	1	0	0	0.26747	0.22827	0.16506	0.042319	0.22542	0.14986	0.16151	0.06568	0.16235	0.2745	0.21332	0.36787	0.13099	0.26214	0.44491	0.22404	-1.6354	-2.6688	-2.6708	-2.3729	-2.6417	-2.4313	-2.4	-2.8417	-2.1562	-2.5125	-2.9188	-2.1125	-3.075	-2.5125	-2.2229	-2.8896	269.319	90.933	54.552	293.772	77.435	141.438	224.607	-3.106	14.783	232.051	-24.686	162.678	271.126	251.054	97.501	299.970	0.00042987	0.0019211	0.00022842	631.78	1.6601e-05	6.6176e-06	836.25	232.59	1.7093e-05	1.8197e-05	364.7	154.28	95.365	41.156	3.5451e-06	74.326	0.0023116	0.0023665	0.00060656	789.67	2.6678e-05	2.615e-05	992.55	290.91	2.7042e-05	2.5782e-05	451.98	183.2	129.29	52.248	2.3101e-05	86.402	219.113	27.044	233.699	-37.890	165.452	21.801	-37.520	-31.796	235.312	58.766	-33.100	-27.555	-26.433	-22.038	150.578	-23.555	-8191	255	
8051.836	1	1	0	0	0.074011	0.17606	0.18179	0.22704	0.086021	0.080558	0.33617	0.16692	0.16741	0.038962	0.22295	0.133	0.11212	0.17552	0.0265	0.21333	-1.9167	-2.6375	-2.55	-2.3146	-2.8083	-2.6542	-2.5083	-2.9583	-2.3312	-2.5896	-2.6229	-2.4646	-2.7604	-2.625	-2.1604	-2.9813	-42.147	269.543	19.602	-14.538	162.247	278.005	215.946	256.943	-31.778	253.050	94.195	192.016	-7.410	247.360	218.029	240.711	0.00024178	0.0012695	0.00028725	628.37	1.49e-05	7.0034e-06	830.01	231.06	1.1989e-05	2.6711e-05	360.68	153.26	95.969	41.308	2.1729e-05	75.161	0.002441	0.0022654	0.00058833	801.56	2.7175e-05	2.4694e-05	985.36	295.31	2.7159e-05	2.414e-05	446.97	185.72	129.1	51.611	2.2379e-05	87.972	176.348	9.218	31.850	-37.037	196.459	43.621	-37.298	-31.309	-17.397	37.874	-32.314	-27.333	-26.463	-21.948	106.219	-23.663	-8191	255	
8051.930	1	1	0	0	0.066767	0.23358	0.1614	0.10883	0.03878	0.24972	0.42008	0.13	0.045127	0.070014	0.080976	0.044066	0.26136	0.13632	0.38945	0.088987	-1.8104	-2.2708	-2.6229	-2.3292	-2.7521	-2.675	-2.4146	-2.85	-2.3438	-2.4458	-2.8292	-2.1854	-2.6917	-2.7562	-2.2313	-2.9333	214.153	277.081	-20.042	224.232	17.447	140.994	258.180	226.177	304.905	40.927	279.034	280.050	136.898	289.590	85.016	226.061	0.00015102	0.0019345	0.00029093	636.99	1.5427e-05	7.6981e-06	833.35	232.19	8.615e-06	1.2394e-05	365.35	154.98	96.421	41.339	4.0524e-06	75.295	0.0023874	0.0021492	0.00057428	816.86	2.6154e-05	2.384e-05	981.43	300.8	2.6187e-05	2.3281e-05	447.15	189.47	127.52	51.472	2.2841e-05	89.481	172.529	9.896	22.496	-37.492	4.285	43.953	-37.191	-31.714	5.552	19.777	-33.082	-27.893	-26.576	-22.265	224.862	-23.831	-8191	255	
8052.026	1	1	0	0	0.24165	0.15821	0.053923	0.06799	0.068461	0.1101	0.16449	0.34817	0.19158	0.15658	0.15902	0.046879	0.39769	0.2592	0.092303	0.09953	-1.8062	-2.2104	-2.7333	-2.3542	-2.6437	-2.7333	-2.4313	-2.7542	-2.3812	-2.3354	-3.1146	-2.4062	-2.4167	-2.7458	-2.2417	-2.9979	268.010	39.362	118.938	295.888	44.871	199.028	224.374	257.748	61.930	287.854	46.367	204.438	-20.523	260.510	35.516	-46.065	0.00011253	0.00056831	0.00081295	635.84	5.677e-06	1.2881e-05	821.81	231.91	1.0643e-05	1.5845e-05	363.74	155.28	97.437	41.471	3.5657e-05	75.438	0.0023385	0.0021363	0.00060094	839.25	2.5594e-05	2.3934e-05	997.97	307.23	2.6013e-05	2.3581e-05	458.96	192.77	127.62	51.81	2.5334e-05	90.564	147.190	7.199	122.409	-37.314	33.805	45.282	-37.018	-31.462	5.341	30.068	-32.675	-27.565	-26.639	-22.051	206.839	-24.156	-8191	255	
8052.122	1	1	0	0	0.1252	0.11467	0.32125	0.21847	0.25492	0.19399	0.19303	0.36179	0.42152	0.035143	0.19156	0.32539	0.33472	0.3615	0.25814	0.17298	-2.1354	-2.3063	-2.7062	-2.2042	-2.4188	-2.7521	-2.4062	-2.7167	-2.4	-2.3625	-3.0146	-2.4521	-2.4042	-2.8208	-2.1854	-2.7854	14.005	175.041	103.413	175.324	-17.766	243.636	128.052	249.813	92.944	52.496	114.591	10.094	-31.927	-42.565	48.603	257.656	2.9523e-05	0.000987	0.00046441	641.95	9.4483e-06	4.6887e-06	838.84	236.92	4.7378e-06	1.1399e-05	367.52	156.95	98.254	41.732	1.56e-05	75.948	0.0023198	0.0021543	0.00066979	850.86	2.5337e-05	2.409e-05	1026.5	309.46	2.5609e-05	2.3396e-05	470.71	193.11	126.86	51.809	2.7354e-05	90.265	267.053	122.961	129.382	-37.853	204.595	87.880	-37.523	-31.829	124.285	-43.282	-33.116	-27.748	-26.899	-22.289	153.014	-23.993	-8191	255	
8052.243	1	1	0	0	0.08615	0.058112	0.1069	0.19362	0.073509	0.083885	0.15981	0.15902	0.28943	0.10449	0.042379	0.19378	0.13478	0.084726	0.046496	0.094162	-2.3208	-2.4396	-2.7417	-2.4437	-2.3937	-2.7958	-2.3854	-2.5979	-2.7146	-2.3771	-2.9354	-2.6771	-2.3375	-3.0083	-2.275	-2.8542	84.478	184.446	92.515	160.590	-43.562	189.692	225.878	307.645	-37.458	222.255	222.831	232.199	-25.689	17.176	17.542	284.492	0.00013614	0.0010326	0.00051738	643.51	1.2641e-05	1.1324e-05	833.9	233.89	1.4019e-05	1.832e-05	367.5	155.72	96.477	41.622	1.1956e-05	75.878	0.0022497	0.0021446	0.00071448	841.51	2.4767e-05	2.4447e-05	1041	304.6	2.4911e-05	2.3833e-05	478.19	191.1	125.76	52.398	2.8719e-05	89.701	229.734	213.842	165.210	-37.528	69.598	200.516	-37.092	-31.852	67.915	144.765	-32.889	-27.722	-26.345	-21.526	36.145	-23.864	-8191	255	
8052.339	1	1	0	0	0.12291	0.18224	0.25696	0.19892	0.1311	0.25133	0.25599	0.13466	0.0516	0.16118	0.30486	0.26551	0.12127	0.18014	0.15073	0.18106	-2.4521	-2.1583	-2.5917	-2.5479	-2.225	-3.1625	-2.6188	-2.5687	-2.8333	-2.3208	-2.8	-2.7771	-2.3625	-2.8396	-2.3292	-2.4437	170.586	-44.892	112.834	235.553	207.655	30.780	262.144	240.189	174.617	-26.282	245.380	283.440	143.679	-8.520	84.556	40.299	0.00028744	0.001461	0.00029006	638.39	5.8315e-06	4.7811e-06	837.95	236.84	1.2319e-05	1.3815e-05	367.59	157.72	97.593	42.229	2.5161e-05	76.645	0.0022154	0.0022714	0.00074268	830.3	2.4084e-05	2.5716e-05	1044.6	300.65	2.4187e-05	2.5473e-05	476.72	189.19	124.61	53.404	2.8169e-05	88.819	260.030	200.010	140.496	-37.875	214.757	195.291	-37.199	-31.667	107.976	196.861	-32.992	-27.784	-26.877	-21.998	43.698	-24.281	-8191	255	
8052.411	1	1	0	0	0.21576	0.12455	0.23289	0.12415	0.20594	0.16024	0.051766	0.11713	0.11473	0.26591	0.31574	0.29067	0.38363	0.21573	0.055239	0.19473	-2.3708	-1.9521	-2.5854	-2.8021	-2.1063	-2.8896	-2.4208	-2.5125	-2.8792	-2.3	-2.7083	-2.7271	-2.4188	-2.8125	-2.4625	-2.35	-48.749	299.812	268.071	10.767	289.115	223.726	223.893	233.990	136.608	45.003	-28.782	231.285	0.198	301.523	36.951	213.708	0.00022262	0.0025101	0.00074206	641.2	5.9968e-06	1.586e-05	844.14	237.09	3.5542e-06	1.534e-05	371.63	157.86	97.791	42.773	2.6867e-05	77.235	0.0021238	0.0024112	0.00070604	816.19	2.2974e-05	2.6871e-05	1029.4	294.94	2.3054e-05	2.6327e-05	466.41	186.73	123.24	53.753	2.5223e-05	87.451	175.531	147.170	-8.435	-37.567	15.780	175.487	-37.829	-32.099	245.256	252.584	-33.502	-27.750	-26.842	-22.013	14.777	-24.278	-8191	255	
8052.531	1	1	0	0	0.24382	0.083482	0.18491	0.18115	0.074414	0.12658	0.20829	0.21322	0.12283	0.12989	0.33104	0.23399	0.1272	0.11732	0.044566	0.25962	-2.4854	-2.1229	-2.6771	-2.7479	-2.2021	-2.6875	-2.6604	-2.3812	-2.7625	-2.3708	-2.7354	-2.9042	-2.15	-2.7188	-2.5146	-2.2604	37.740	166.794	293.186	65.524	177.528	0.810	190.152	283.495	17.671	36.232	234.534	121.359	302.193	196.038	137.945	194.589	0.00056458	0.0020098	0.00012004	634.53	1.8572e-05	1.0708e-05	835.38	236.47	1.3137e-05	2.2806e-06	368.44	158.5	97.683	42.816	3.5636e-06	78.092	0.0019921	0.0023416	0.00061496	787.53	2.1563e-05	2.5471e-05	992.4	285.99	2.1987e-05	2.4872e-05	450.35	182.99	122.87	53.196	2.2507e-05	86.587	191.816	171.696	19.646	-37.671	213.332	104.397	-37.407	-32.255	200.171	88.740	-33.117	-28.136	-26.616	-22.392	192.398	-24.299	-8191	255	
8052.628	1	1	0	0	0.076469	0.12091	0.16871	0.088402	0.21845	0.18745	0.12675	0.030939	0.076318	0.050451	0.12787	0.30926	0.21127	0.33371	0.13075	0.17424	-2.5187	-2.3479	-2.4604	-2.85	-2.1937	-2.8021	-2.7375	-2.2604	-2.9958	-2.2771	-2.5187	-2.6708	-2.0312	-2.6375	-2.7771	-2.1625	122.568	61.526	229.460	245.241	-37.701	-49.032	78.804	-43.630	256.061	282.994	240.365	245.142	309.543	190.553	275.589	258.454	0.00065437	0.00045961	0.00033554	632.65	2.053e-05	8.5274e-06	840.6	236.2	7.874e-06	1.0481e-05	372.02	159.22	97.405	42.998	9.9049e-06	78.198	0.0020132	0.0022359	0.00055271	770.19	2.1828e-05	2.353e-05	970.47	279.67	2.1871e-05	2.226e-05	437.31	179.62	121.84	51.37	1.9435e-05	85.323	197.825	177.088	36.131	-38.024	214.622	158.716	-37.904	-31.884	226.807	15.261	-33.132	-27.747	-26.110	-22.284	87.767	-24.387	-8191	255	
8052.724	1	1	0	0	0.14854	0.072186	0.18427	0.060113	0.2645	0.22871	0.26099	0.20676	0.088793	0.10087	0.18101	0.25899	0.109	0.12502	0.14756	0.29737	-2.3646	-2.4583	-2.4208	-2.7792	-2.1479	-2.5271	-2.5104	-2.1625	-2.7979	-2.3563	-2.4708	-2.9313	-2.1625	-2.525	-2.7646	-2.2812	152.594	54.683	268.983	160.026	104.675	183.489	239.798	284.719	-43.362	159.811	217.587	12.931	282.710	-31.911	191.342	272.934	0.00039678	0.00099659	0.00024605	623.88	1.0943e-05	1.3509e-05	828.44	230.74	3.9674e-06	1.4942e-05	369.64	158.66	97.487	43.41	2.5779e-05	78.849	0.0019204	0.0019192	0.00047778	746.35	2.1154e-05	2.0345e-05	946.35	273.89	2.0985e-05	1.9529e-05	425.26	177.88	120.42	50.024	1.7182e-05	84.71	182.383	-26.509	288.151	-37.353	223.485	62.775	-37.338	-31.430	125.224	17.670	-32.621	-27.945	-26.605	-22.327	58.398	-24.075	-8191	255	
8052.820	1	1	0	0	0.149	0.14856	0.049818	0.21812	0.22605	0.26062	0.13663	0.18501	0.035827	0.22555	0.18491	0.10358	0.16295	0.16871	0.19661	0.24566	-2.3375	-2.2583	-2.3458	-2.9458	-2.2625	-2.5187	-2.8354	-2.2792	-2.8917	-2.6854	-2.1854	-2.7396	-2.2313	-2.3417	-2.6292	-2.3604	54.525	2.163	102.972	228.337	170.984	27.922	174.734	298.379	87.236	266.766	305.962	-32.652	103.289	221.438	300.510	167.087	0.00034784	0.0011892	9.2227e-05	618.18	6.3358e-06	2.6755e-06	829.87	234.83	3.7929e-06	1.7018e-05	373.83	161.29	99.333	43.851	9.187e-06	79.743	0.0017716	0.0016248	0.00040883	730.26	1.9157e-05	1.7088e-05	921.06	271.76	1.8926e-05	1.6917e-05	416.21	178.22	118.11	49.231	1.5649e-05	85.572	199.253	0.238	25.474	-37.640	112.522	-8.418	-37.524	-32.248	80.312	27.017	-33.258	-28.018	-26.984	-23.103	56.018	-24.412	-8191	255	
8052.941	1	1	0	0	0.15899	0.24326	0.14028	0.11662	0.038332	0.177	0.1564	0.17612	0.22175	0.099144	0.1384	0.28286	0.16762	0.37999	0.34451	0.28055	-2.2875	-2.4771	-2.1396	-2.8083	-2.2875	-2.3104	-3.0125	-2.2229	-2.6188	-2.6375	-2.4667	-2.8812	-2.4437	-2.2708	-2.7687	-2.2979	158.483	34.298	43.533	-49.456	9.237	178.526	166.344	20.382	-23.922	203.793	191.584	290.123	245.968	6.448	44.617	234.059	3.8621e-05	0.00085342	0.0002334	632.01	5.7485e-06	9.6008e-06	843.17	235.84	1.2808e-05	9.6469e-06	375.71	162.19	99.104	44.407	5.2937e-06	80.334	0.0016407	0.001502	0.00038721	741.94	1.8098e-05	1.6039e-05	921.46	274.98	1.7629e-05	1.616e-05	415.47	179.48	116.26	48.892	1.5667e-05	86.201	144.107	120.706	241.940	-37.773	232.397	47.646	-38.019	-32.290	119.654	43.225	-33.410	-28.493	-27.370	-23.181	133.816	-24.584	-8191	255	
8053.035	1	1	0	0	0.17915	0.055077	0.089965	0.17779	0.11822	0.22081	0.21198	0.14904	0.25928	0.28239	0.35751	0.042258	0.29211	0.28479	0.24253	0.18868	-2.0896	-2.6479	-2.2375	-2.8667	-2.4854	-2.2417	-3.1	-2.2396	-2.4313	-2.5792	-2.2458	-2.8	-2.4479	-2.4062	-2.8167	-2.2854	254.472	186.018	71.000	126.515	243.523	159.642	188.918	65.416	304.208	178.709	279.866	43.221	-48.121	244.182	281.006	28.888	0.00014824	0.00036822	0.00035546	633.47	1.216e-05	8.9896e-06	843.08	236.35	3.4239e-06	6.1739e-06	375.79	162.1	99.427	44.095	8.4627e-06	80.442	0.0015494	0.0014489	0.00039798	745.65	1.7127e-05	1.5479e-05	927.26	276.89	1.696e-05	1.5877e-05	421.87	180.15	115.42	48.536	1.7105e-05	86.619	150.225	94.207	101.627	-38.155	32.747	54.391	-38.173	-32.423	136.347	-22.920	-33.507	-28.545	-27.413	-23.229	254.734	-25.024	-8191	255	
8053.131	1	1	0	0	0.17836	0.37767	0.23751	0.087368	0.30837	0.091097	0.084114	0.21318	0.14812	0.17988	0.21702	0.45553	0.060825	0.24455	0.17822	0.10367	-1.9646	-2.7438	-2.0396	-2.7	-2.6208	-2.1188	-2.7354	-2.1667	-2.3458	-2.7104	-2.3042	-2.6625	-2.6583	-2.2833	-2.8604	-2.3688	60.363	147.761	23.158	105.866	69.476	53.379	113.656	122.231	258.971	101.885	-46.206	299.240	21.729	204.572	50.482	0.265	0.00013304	0.00098725	0.00045492	633.08	1.5646e-05	1.0472e-05	844.76	236.95	1.3332e-05	5.8661e-06	376.3	162.14	99.451	43.755	1.268e-05	80.176	0.0015023	0.001432	0.00043727	749.14	1.6875e-05	1.545e-05	943.63	277.43	1.6764e-05	1.6055e-05	430.21	179.9	115.59	48.595	1.8932e-05	86.099	140.465	22.186	155.040	-38.300	107.225	37.905	-38.140	-32.523	31.931	307.300	-33.677	-28.714	-27.657	-23.120	210.594	-24.863	-8191	255	
8053.227	1	1	0	0	0.12611	0.1332	0.23477	0.01224	0.074515	0.15892	0.094234	0.48575	0.26573	0.17375	0.069197	0.36463	0.23197	0.15766	0.11969	0.076847	-1.9646	-2.7104	-2.2583	-2.6583	-2.6396	-2.0896	-2.8625	-2.3812	-2.3021	-2.675	-2.2729	-2.6604	-2.7292	-2.1833	-2.6104	-2.3104	81.884	138.033	134.209	-37.538	277.336	217.910	306.454	253.637	5.048	120.015	268.935	235.949	223.600	-2.616	255.781	163.150	0.00013196	0.00057912	0.00018266	637.62	6.4734e-06	1.1534e-05	852.26	239.4	6.9555e-06	9.1789e-06	376.95	161.48	99.429	43.465	2.8096e-06	79.522	0.0015127	0.0015046	0.0004908	753.73	1.7297e-05	1.6511e-05	967.59	279.7	1.7089e-05	1.7498e-05	441.39	179.87	116.7	49.353	2.0893e-05	85.972	213.544	149.352	120.328	-38.338	135.277	187.813	-38.304	-32.816	170.837	199.044	-33.755	-28.730	-27.677	-23.069	118.648	-24.957	-8191	255	
8053.323	1	1	0	0	0.11324	0.17776	0.052401	0.13763	0.098276	0.12172	0.4381	0.098353	0.13404	0.048249	0.38233	0.22475	0.17748	0.29041	0.12242	0.41704	-1.9083	-2.625	-2.225	-2.4417	-2.7125	-2.3958	-2.8563	-2.4792	-2.3042	-2.775	-2.3729	-2.5875	-2.6729	-2.2188	-2.7875	-2.5812	170.009	162.639	74.034	249.814	100.916	217.102	221.197	54.707	-6.417	149.951	-44.698	287.104	245.525	286.011	210.314	248.963	0.0002494	0.0023106	0.00019439	646.99	1.3261e-05	3.1884e-06	860.19	240.66	1.4086e-05	2.0242e-05	380.53	162.13	100.02	43.379	5.392e-06	78.874	0.0015678	0.0017076	0.00054305	767.12	1.8133e-05	1.9159e-05	991.12	283.77	1.7949e-05	2.0226e-05	451.26	181.67	118.99	50.892	2.223e-05	86.292	145.706	179.361	97.205	-38.668	49.118	229.475	-38.436	-32.886	98.849	201.920	-33.645	-28.761	-27.373	-23.152	40.953	-24.811	-8191	255	
8053.420	1	1	0	0	0.10816	0.26652	0.11486	0.24813	0.037078	0.11334	0.10847	0.22023	0.096861	0.14221	0.15192	0.080577	0.18103	0.24506	0.11589	0.076261	-1.8396	-2.6021	-2.2167	-2.3646	-2.8375	-2.2229	-2.8042	-2.6896	-2.2333	-2.7979	-2.4833	-2.4333	-2.7062	-2.3333	-2.5625	-2.85	202.005	250.880	-14.876	45.876	300.922	103.290	248.054	156.213	78.143	171.492	181.406	221.694	27.019	300.948	170.243	234.144	0.0001675	0.0024374	0.00027878	654.85	1.2427e-05	6.8516e-06	868.49	241.95	9.9796e-06	2.6146e-05	383.32	161.84	99.604	43.395	1.142e-05	78.025	0.0016743	0.0019891	0.00057287	784.11	1.9694e-05	2.2697e-05	1005.5	289.63	2.0054e-05	2.4176e-05	460.42	184.05	122.7	52.945	2.3982e-05	87.161	222.374	157.644	12.183	-38.755	153.330	191.429	-38.498	-32.578	207.024	146.518	-33.997	-29.340	-27.457	-23.005	97.266	-25.032	-8191	255	
8053.540	1	1	0	0	0.18737	0.1807	0.18935	0.16242	0.15608	0.15748	0.15045	0.23763	0.098444	0.093796	0.14939	0.18144	0.07363	0.11851	0.24504	0.18157	-1.6917	-2.7979	-2.3125	-2.2958	-2.7188	-2.0958	-2.45	-2.7313	-2.1562	-2.8021	-2.5438	-2.1729	-2.8771	-2.2979	-2.5187	-2.7104	71.621	287.961	264.763	267.595	-50.148	-29.418	300.924	-32.168	257.052	141.018	239.571	182.920	68.416	252.447	193.334	135.403	0.00030174	0.00084496	0.00066644	659.63	1.1389e-05	1.3683e-05	872.06	241.78	1.7239e-05	1.0224e-05	379.65	159.07	99.825	42.671	2.6482e-05	76.804	0.0019446	0.002365	0.00062412	804.09	2.3072e-05	2.6756e-05	1025.4	296.05	2.3938e-05	2.8133e-05	468.11	186.44	128.9	54.579	2.6298e-05	88.007	178.894	79.802	30.167	-38.806	219.791	112.635	-38.422	-32.927	223.858	43.556	-34.171	-29.176	-27.329	-23.256	48.452	-24.922	-8191	255	
8053.636	1	1	0	0	0.042031	0.25139	0.12473	0.21989	0.28042	0.1254	0.23614	0.42814	0.16493	0.19377	0.26809	0.20759	0.15775	0.46814	0.097326	0.095184	-1.7396	-2.6979	-2.5771	-2.2938	-2.7375	-2.1521	-2.7083	-2.6562	-2.1042	-2.8458	-2.7646	-2.175	-2.9167	-2.5438	-2.2938	-3.0167	232.726	-31.287	13.250	268.559	166.149	34.491	-49.904	241.192	94.901	38.901	277.265	292.994	17.061	247.699	83.175	143.638	0.00076286	0.0010121	0.00038809	666.99	2.7884e-05	2.6345e-05	873.35	243.88	2.4546e-05	1.6298e-05	379.19	159.44	99.763	42.367	7.6589e-06	76.402	0.0024123	0.0027097	0.00068573	830.82	2.8139e-05	2.9781e-05	1042.2	302.51	2.8255e-05	2.9238e-05	472.46	187.61	133.11	54.41	2.6091e-05	88.078	187.721	-44.055	-7.492	-38.731	201.333	70.922	-38.544	-33.098	238.721	19.441	-34.027	-29.069	-27.336	-23.160	-17.947	-25.171	-8191	255	
8053.708	1	1	0	0	0.29078	0.085099	0.19939	0.10697	0.17248	0.22409	0.30694	0.21266	0.10215	0.23499	0.19967	0.13406	0.27744	0.048373	0.20518	0.10388	-1.5792	-2.4625	-2.4833	-2.1688	-2.7396	-2.4875	-2.3708	-2.6854	-2.1354	-2.4458	-2.8229	-2.2771	-2.75	-2.45	-2.2667	-2.8646	177.387	175.431	47.233	77.858	282.213	-40.149	-40.855	-38.563	305.736	200.095	128.956	2.469	-18.366	85.783	-24.295	115.026	0.00044507	0.00070778	0.0002959	660.58	1.3898e-05	1.0882e-05	870.26	241.83	8.2304e-06	2.3909e-05	379.98	160.19	100.12	42.744	1.9107e-05	76.801	0.002614	0.0026066	0.00066642	831.53	2.9612e-05	2.8187e-05	1034.7	302.84	2.934e-05	2.7272e-05	466.95	189.38	134.31	53.654	2.4852e-05	89.033	199.835	21.491	-31.900	-38.859	172.863	38.084	-38.576	-32.901	210.577	43.913	-34.081	-28.910	-27.735	-23.352	-15.153	-24.854	-8191	255	
8053.804	1	1	0	0	0.094626	0.29138	0.19418	0.20913	0.04057	0.19525	0.11498	0.20794	0.093917	0.13095	0.11252	0.16578	0.18091	0.1352	0.22726	0.1096	-1.6583	-2.3021	-2.6437	-2.3563	-2.6312	-2.4625	-2.3563	-3.0604	-1.9604	-2.3812	-2.6875	-2.3604	-2.6125	-2.5458	-2.0708	-2.9188	65.276	105.131	9.865	234.228	261.389	-38.562	83.402	88.207	34.916	249.487	-34.685	301.767	206.986	-49.838	48.438	204.645	0.0003391	0.0019761	0.00030895	667.99	3.2753e-06	1.3249e-05	878.14	242.32	4.3637e-06	7.3741e-06	379.52	160.94	100.12	42.625	1.1292e-05	76.783	0.0026565	0.0024338	0.0006373	842.54	2.9379e-05	2.658e-05	1025.1	307.37	2.8842e-05	2.5413e-05	460.99	192.02	132.39	52.683	2.3098e-05	89.808	203.717	-6.058	2.727	-38.634	137.811	133.353	-38.586	-32.596	37.542	26.853	-34.083	-28.884	-27.703	-23.420	149.146	-24.887	-8191	255	
8053.923	1	1	0	0	0.090689	0.30319	0.056654	0.34254	0.28471	0.011355	0.073199	0.21222	0.080031	0.10095	0.31361	0.14846	0.24692	0.25012	0.27305	0.43648	-1.7854	-2.2042	-2.6104	-1.9708	-2.5792	-2.7208	-2.1292	-3.0292	-2.1708	-2.3563	-2.6688	-2.3146	-2.4792	-2.6979	-2.0792	-3.0021	99.295	37.056	243.663	-18.740	155.758	239.646	-27.741	205.917	-22.022	37.561	-40.683	206.316	291.012	-18.216	134.774	264.854	0.0003403	0.0014659	0.00038569	660.37	9.6025e-06	1.9055e-05	864.4	243.28	1.5014e-05	2.2851e-06	377.89	160.55	100.04	42.771	1.2692e-05	77.443	0.0024706	0.0022379	0.00060015	844.59	2.7137e-05	2.4647e-05	1010.5	309.05	2.7026e-05	2.4245e-05	458.69	193.69	129.88	52.211	2.3652e-05	90.846	194.570	71.561	-49.497	-38.847	57.216	42.782	-38.599	-32.561	48.207	39.222	-34.252	-28.627	-27.663	-23.161	256.656	-25.045	-8191	255	
8054.019	1	1	0	0	0.21372	0.050266	0.17641	0.1118	0.26832	0.10879	0.20137	0.45575	0.094017	0.12804	0.16712	0.21697	0.1024	0.21008	0.18571	0.075189	-1.9688	-2.2812	-2.6521	-2.2667	-2.4708	-2.6813	-2.1229	-2.5792	-2.3521	-2.1854	-2.7938	-2.4313	-2.3	-2.7625	-2.1208	-2.7958	95.899	18.995	23.470	-8.619	156.988	46.672	252.216	199.310	68.792	227.937	249.681	-32.275	256.811	237.501	123.191	216.385	2.5949e-05	0.0015667	0.00071105	656.24	1.1997e-05	1.9955e-05	860.8	241.91	7.1075e-06	3.9593e-06	379.33	160.91	99.445	42.809	3.2848e-05	77.757	0.0023437	0.0021477	0.00061392	848.54	2.5479e-05	2.3548e-05	1010.7	308.79	2.5191e-05	2.2869e-05	462.44	193.21	126.65	51.577	2.4831e-05	90.403	195.051	37.376	153.739	-38.610	28.731	81.715	-38.367	-32.724	104.912	-49.818	-33.938	-29.178	-27.798	-23.210	207.649	-24.918	-8191	255	
8054.115	1	1	0	0	0.090117	0.1453	0.23102	0.27019	0.073547	0.15432	0.23596	0.18532	0.10612	0.29724	0.2297	0.32645	0.11572	0.21514	0.28734	0.074423	-2.0187	-2.0875	-2.8021	-2.3958	-2.4729	-2.8833	-2.1021	-2.5604	-2.4979	-2.1771	-2.8292	-2.275	-2.2646	-2.8729	-2.325	-2.8458	-7.690	-29.199	-9.254	215.091	49.033	2.612	202.230	-47.732	194.258	-26.383	273.555	266.836	245.488	286.715	44.569	187.770	0.00023603	0.00048292	0.00043289	655.31	5.8712e-06	1.7232e-05	853.23	241.24	1.7932e-05	1.723e-05	377.78	160	99.484	42.793	1.4502e-05	77.956	0.0022102	0.0020675	0.000651	838.36	2.4017e-05	2.2759e-05	1019.5	302.66	2.3666e-05	2.1778e-05	465.8	189.77	124.19	51.063	2.5689e-05	89.069	174.858	-1.929	109.335	-38.613	196.828	71.046	-38.664	-32.237	98.628	117.985	-33.505	-28.572	-27.840	-22.809	196.010	-25.138	-8191	255	
8054.211	1	1	0	0	0.17981	0.18356	0.061265	0.19379	0.15509	0.05877	0.11381	0.13227	0.19993	0.087229	0.14757	0.16773	0.26743	0.30893	0.079092	0.19532	-1.9875	-2.2271	-2.6167	-2.3312	-2.0875	-2.7458	-2.5396	-2.5958	-2.5312	-2.2542	-2.8104	-2.275	-2.1813	-2.9333	-2.1833	-2.5438	23.342	189.546	-7.704	3.118	10.443	2.955	282.624	108.624	304.278	162.553	285.114	207.360	152.134	275.766	181.919	301.072	0.00015886	0.00038836	0.00019402	652.42	1.2217e-05	8.8866e-06	838.56	235.63	6.8861e-06	7.3296e-06	373.83	158.47	97.576	42.314	1.0085e-05	76.315	0.0020735	0.0020012	0.00066909	820.24	2.2628e-05	2.2584e-05	1024	296.48	2.2668e-05	2.228e-05	468.51	186.98	122.25	51.302	2.5951e-05	87.519	159.033	-9.160	194.636	-38.483	96.283	102.726	-37.894	-32.064	49.975	222.483	-33.197	-27.889	-26.695	-22.314	65.628	-23.999	-8191	255	
8054.332	1	1	0	0	0.10439	0.044454	0.19951	0.22169	0.087288	0.23854	0.15419	0.15144	0.22751	0.12752	0.47406	0.24007	0.25701	0.12912	0.1197	0.19956	-2.4458	-2.0125	-2.6229	-2.6063	-2.1083	-2.7667	-2.3292	-2.2208	-2.7062	-1.8646	-2.8104	-2.5417	-2.3729	-2.7146	-2.1896	-2.3375	212.566	255.906	-2.872	161.473	145.615	101.588	212.712	94.863	264.727	58.612	280.559	274.085	307.590	63.659	63.823	216.094	0.00022147	0.0018008	0.00021207	658.13	4.9255e-06	2.4598e-05	861.56	243.35	4.086e-06	1.4611e-05	380.9	160.46	99.325	42.434	1.4231e-05	76.915	0.0019849	0.0021032	0.00067906	816.54	2.2281e-05	2.4626e-05	1041.3	299.35	2.3268e-05	2.5263e-05	478.72	188.99	124.63	53.205	2.7869e-05	87.823	201.802	160.366	39.902	-38.334	-25.741	212.098	-38.283	-32.726	111.832	154.689	-33.985	-29.267	-27.758	-22.920	229.918	-25.168	-8191	255	
8054.404	1	1	0	0	0.21101	0.2633	0.17048	0.2227	0.077115	0.12806	0.20387	0.18238	0.22024	0.23514	0.25699	0.17379	0.2266	0.094204	0.12889	0.15059	-2.4521	-2.0958	-2.7771	-2.5896	-2.0042	-2.8229	-2.4708	-2.4271	-2.8417	-2.3312	-2.5542	-2.9667	-2.1396	-2.9437	-2.3875	-2.4958	35.910	65.332	57.438	-26.688	283.301	299.493	282.379	212.419	13.734	179.445	202.859	215.254	187.112	254.059	-40.470	143.094	0.00016662	0.0011028	0.0002261	661.45	5.6044e-06	7.9377e-06	867.01	241.95	6.939e-06	6.4884e-06	381.9	160.72	98.738	42.261	1.9697e-05	76.605	0.0021181	0.0024397	0.00069806	828.06	2.3198e-05	2.7588e-05	1046.4	299.96	2.4201e-05	2.8188e-05	477.3	189.84	127.17	54.852	2.8541e-05	88.2	76.715	139.467	272.933	-39.068	87.669	158.183	-38.873	-33.321	59.385	152.777	-34.352	-29.279	-27.945	-23.217	46.804	-25.278	-8191	255	
8054.500	1	1	0	0	0.12312	0.24868	0.17893	0.33806	0.23782	0.17697	0.068343	0.020799	0.26374	0.20832	0.22109	0.037018	0.073933	0.05078	0.10882	0.39608	-2.4854	-2.025	-2.4417	-2.7417	-1.95	-2.9125	-2.5187	-2.0833	-2.8438	-2.3438	-2.4562	-2.7188	-2.1104	-2.7562	-2.3708	-2.3542	-10.573	6.371	253.202	299.019	253.836	259.323	258.724	139.472	79.930	213.092	77.184	-36.471	222.242	245.485	79.495	196.733	0.00044093	0.00051432	0.00041576	667.55	5.6017e-06	3.1245e-06	877.01	242.15	2.2174e-05	1.8582e-05	381.09	160.18	99.456	42.529	1.7512e-05	76.862	0.0023781	0.0028069	0.00072953	849.98	2.6912e-05	3.1542e-05	1064.7	305.91	2.7947e-05	3.1404e-05	480.52	191.45	132.1	55.741	2.8453e-05	88.69	214.247	161.938	-11.643	-38.799	178.569	69.306	-38.776	-33.217	212.887	186.674	-34.525	-29.239	-27.440	-23.063	35.543	-25.291	-8191	255	
8054.621	1	1	0	0	0.08164	0.15143	0.16005	0.09909	0.12421	0.35826	0.17355	0.27152	0.068498	0.18335	0.24408	0.13914	0.28278	0.12907	0.102	0.074721	-2.2583	-2.2687	-2.4979	-2.925	-2.3208	-2.5	-2.6146	-2.2854	-2.7896	-2.1354	-2.4688	-2.6875	-2.2313	-2.5938	-2.5521	-2.2625	297.911	253.936	-43.052	279.629	61.385	192.895	212.918	306.548	126.549	35.986	276.648	15.320	194.686	-40.341	225.258	10.776	0.00066708	0.0010502	0.00022519	663.81	2.533e-05	1.8798e-05	871.27	241.14	1.6125e-05	2.5291e-05	382.31	161.11	99.638	42.413	1.6546e-05	77.153	0.0026208	0.0028729	0.00072164	845.06	3.0078e-05	3.2101e-05	1063	307.63	3.1839e-05	3.2463e-05	484.93	194.8	138.58	56.226	2.9759e-05	90.506	202.103	296.502	2.737	-38.563	222.216	61.413	-38.785	-33.238	292.634	25.960	-34.364	-29.076	-27.884	-23.207	-12.262	-25.269	-8191	255	
8054.717	1	1	0	0	0.1898	0.2122	0.12514	0.25028	0.078064	0.11081	0.054466	0.056827	0.26764	0.16988	0.22551	0.1345	0.17251	0.13773	0.1031	0.28821	-2.4	-2.4458	-2.2854	-2.7229	-2.1542	-2.4	-2.7875	-2.1604	-2.9542	-2.4479	-2.4604	-2.8771	-2.1792	-2.5979	-2.6271	-2.2438	168.039	270.225	65.673	227.063	301.059	144.569	207.199	80.344	237.407	13.715	266.439	293.686	213.416	249.053	21.530	203.562	0.00050079	0.0028482	0.00034961	669	9.1955e-06	1.363e-05	881.04	242.96	5.6666e-06	3.7907e-05	381.36	161.28	101.21	42.712	6.8405e-06	75.814	0.0030109	0.0029867	0.00075295	873.57	3.4372e-05	3.2835e-05	1082	316.66	3.5536e-05	3.2973e-05	489.77	199.81	143.16	56.048	3.0419e-05	92.139	210.266	-4.581	9.406	-38.348	234.276	36.748	-38.849	-32.874	192.897	55.855	-34.315	-29.337	-28.148	-23.727	40.253	-25.367	-8191	255	
8054.813	1	1	0	0	0.16636	0.067975	0.21589	0.31036	0.27123	0.16921	0.2525	0.12474	0.087354	0.1943	0.20697	0.2594	0.16049	0.24246	0.23378	0.10111	-2.1375	-2.3187	-2.0458	-2.9729	-2.1604	-2.3812	-2.8083	-2.0687	-2.5729	-2.4208	-2.2042	-2.9208	-2.1667	-2.4792	-2.6583	-2.2562	214.781	266.176	182.072	302.516	-20.661	-11.360	152.144	64.596	-37.241	97.317	259.908	8.239	-2.866	221.656	182.153	254.260	0.00051689	0.0018802	0.00040288	672.51	4.242e-06	9.3912e-06	881.52	244.61	2.3139e-05	1.9152e-05	379.83	161.18	100.46	42.014	2.1574e-05	76.345	0.0031911	0.0029435	0.00075207	899.8	3.5417e-05	3.1914e-05	1079.4	325.42	3.5692e-05	3.2066e-05	487.82	204.39	142.89	55.431	3.0341e-05	94.278	161.836	45.106	31.221	-38.785	116.374	25.782	-38.681	-32.993	89.142	-16.700	-34.111	-28.827	-28.441	-23.443	244.027	-24.973	-8191	255	
8054.932	1	1	0	0	0.42369	0.15764	0.18335	0.16812	0.11719	0.16257	0.11466	0.2491	0.079502	0.22483	0.26317	0.19233	0.13541	0.035394	0.095331	0.091364	-2.1562	-2.6188	-2.0729	-2.7292	-2.2188	-2.1583	-2.7771	-2.1813	-2.5812	-2.5771	-2.2167	-2.9417	-2.3563	-2.2938	-2.6813	-2.2396	14.710	227.365	33.543	0.170	120.161	131.680	-24.979	212.373	-30.598	263.231	267.393	-9.693	242.485	73.817	286.741	247.816	0.00018038	0.0023769	0.00072434	675.48	1.7538e-05	1.6167e-05	877.46	244.65	1.7839e-05	1.6885e-05	379.25	161.76	99.918	42.211	3.2683e-05	76.289	0.0031496	0.0029138	0.00075834	928.75	3.4808e-05	3.1145e-05	1083	333.52	3.4054e-05	3.1086e-05	489.02	207.55	139.98	54.86	3.061e-05	95.358	-30.187	-3.688	87.244	-38.932	59.347	25.974	-38.633	-33.281	48.069	21.186	-34.557	-29.126	-27.874	-23.537	177.751	-24.864	-8191	255	
8055.003	1	1	0	0	0.26718	0.34999	0.050213	0.16515	0.17923	0.16505	0.15694	0.26806	0.091024	0.062797	0.23641	0.11701	0.071411	0.52682	0.11369	0.1765	-2.0083	-2.4729	-1.9729	-2.5583	-2.4562	-2.1583	-2.8167	-2.225	-2.4208	-2.6917	-2.1104	-2.7062	-2.4792	-2.2687	-2.8667	-2.3042	36.264	111.971	39.042	285.599	47.014	101.789	227.382	200.079	116.739	130.968	242.337	-22.354	-49.648	-42.959	25.434	279.894	0.0002486	0.00031312	0.00081878	676.26	2.2918e-05	2.1843e-05	877.73	245.86	2.0119e-05	1.5036e-05	380.87	161.97	100.58	42.085	4.1133e-05	77.079	0.0029349	0.0027728	0.00077581	931.42	3.2402e-05	2.9644e-05	1093.1	335.7	3.1878e-05	2.9863e-05	496.9	207.31	137.42	53.959	3.2011e-05	94.862	226.588	28.215	117.701	-38.737	105.051	43.609	-38.941	-33.556	70.086	47.718	-34.290	-29.396	-27.680	-23.589	212.448	-25.065	-8191	255	
8055.100	1	1	0	0	0.19509	0.093877	0.044649	0.21579	0.17204	0.14525	0.15604	0.031269	0.18327	0.30304	0.22139	0.2105	0.046985	0.15886	0.20376	0.15308	-2.0792	-2.6708	-1.9729	-2.7333	-2.3667	-2.1208	-2.8042	-2.3958	-2.3458	-2.9	-2.2417	-2.6583	-2.5271	-2.1146	-2.7417	-2.3167	188.982	-8.337	41.799	265.695	137.724	54.239	259.338	174.299	302.723	126.133	137.896	230.639	305.532	241.272	254.753	114.774	0.00023866	0.0018444	0.00065119	676.5	3.9646e-06	1.3794e-05	877.54	246.16	1.4709e-05	2.735e-06	381.22	161.35	100.44	42.317	1.9497e-05	77.163	0.002741	0.0026407	0.00081176	919.07	3.0391e-05	2.8059e-05	1104.4	329.13	2.9868e-05	2.8551e-05	504.64	203.02	134.76	53.645	3.326e-05	93.335	115.923	-35.520	126.932	-39.148	148.353	244.225	-38.426	-32.965	71.217	287.351	-34.073	-29.516	-28.004	-23.554	211.215	-25.100	-8191	255	
8055.220	1	1	0	0	0.047974	0.094748	0.2209	0.25916	0.16445	0.020056	0.19948	0.1658	0.15733	0.098546	0.067974	0.14639	0.1099	0.10027	0.10396	0.16134	-1.7771	-2.7042	-2.1771	-2.4667	-2.6021	-1.9625	-2.6729	-2.2438	-2.1688	-2.6813	-2.1917	-2.575	-2.6521	-2.2313	-2.7188	-2.5771	-46.772	256.996	114.066	16.892	148.516	181.936	-4.579	71.104	19.753	-29.213	-42.731	267.719	301.803	77.593	140.037	183.362	0.00015014	0.00019928	0.00056071	671.18	9.0894e-06	8.591e-06	877.01	245.56	5.1738e-06	9.4357e-06	382.26	161.82	100.83	42.209	1.5711e-05	77.055	0.0025775	0.0025735	0.00083555	890.9	2.8585e-05	2.7772e-05	1104.4	320.24	2.7779e-05	2.8502e-05	505.44	199.12	133.63	54.648	3.4598e-05	92.487	142.111	140.036	123.555	-39.140	-15.973	182.184	-38.740	-33.034	-34.730	255.144	-34.693	-29.177	-28.189	-23.488	-0.126	-25.370	-8191	255	
8055.316	1	1	0	0	0.11355	0.16994	0.097684	0.19181	0.03624	0.25785	0.22345	0.076803	0.12079	0.17666	0.39105	0.13712	0.090866	0.20361	0.30662	0.18824	-1.825	-2.7396	-2.0396	-2.5292	-2.6375	-2.0708	-2.7708	-2.4229	-2.0938	-2.8271	-2.3729	-2.4583	-2.7812	-2.1542	-2.4917	-2.5187	41.264	82.186	113.086	195.295	82.985	256.001	233.274	221.054	197.202	136.727	262.646	143.476	104.630	44.343	102.961	194.381	0.00025163	0.0020611	0.00053728	672.48	2.2892e-05	2.5406e-05	883.15	244.73	2.5905e-06	4.2695e-05	383.64	162.14	100.46	42.238	2.825e-05	76.968	0.0025194	0.0027689	0.00085949	879.58	2.7901e-05	2.9902e-05	1104.3	315.93	2.6596e-05	2.9929e-05	496.64	194.47	129.68	54.463	3.0324e-05	89.771	206.583	122.432	293.078	-38.654	23.836	182.497	-38.700	-33.201	151.753	169.881	-34.086	-29.074	-27.796	-23.294	27.549	-25.070	-8191	255	
8055.412	1	1	0	0	0.059252	0.070384	0.09292	0.33181	0.020235	0.064714	0.082948	0.16525	0.15793	0.20196	0.12323	0.13032	0.1299	0.10694	0.33224	0.12553	-1.9042	-2.7729	-2.2	-2.1667	-2.8667	-2.0792	-2.6354	-2.7042	-2.2854	-2.6917	-2.4542	-2.3542	-2.8354	-2.1708	-2.5708	-2.7292	301.913	34.928	241.413	295.800	-11.693	5.556	260.723	-50.041	228.277	249.604	81.620	81.000	67.490	303.666	182.673	304.150	0.00042447	0.0023865	0.00045063	671.79	6.3767e-06	1.5744e-05	875.1	244.01	1.3279e-05	8.5623e-06	382.36	161.88	100.29	42.669	2.1189e-05	77.844	0.0022352	0.002679	0.0007505	846.56	2.5298e-05	2.9152e-05	1063.5	305.19	2.4368e-05	2.9038e-05	478.74	189.57	127.75	54.305	2.6259e-05	88.223	193.253	139.879	-16.044	-39.074	257.360	140.299	-38.651	-33.235	247.613	251.587	-34.301	-29.191	-27.524	-23.164	29.938	-25.119	-8191	255	
8055.509	1	1	0	0	0.030445	0.083767	0.18505	0.14044	0.22663	0.32492	0.23899	0.26607	0.081326	0.17804	0.076873	0.10854	0.17199	0.03505	0.094288	0.21628	-1.5292	-2.7854	-2.2521	-2.2792	-2.6625	-2.2292	-2.6875	-2.6688	-2.2229	-2.6917	-2.525	-2.2812	-2.9021	-2.4	-2.4625	-2.7167	-47.559	57.714	121.470	199.001	106.003	103.618	240.115	285.297	171.555	36.296	303.653	67.930	-45.974	246.198	125.716	300.656	0.00045131	0.0013305	0.00038175	663.79	1.6806e-05	6.8876e-06	881.17	244.2	2.0711e-05	1.3366e-05	385.57	162.39	100.56	43.027	9.387e-06	78.189	0.0021382	0.0025453	0.00065225	816.87	2.4558e-05	2.7947e-05	1037.7	298.71	2.4672e-05	2.7843e-05	467.88	187.26	128.53	53.819	2.4107e-05	87.443	220.019	9.712	-3.072	-38.908	218.591	113.215	-38.604	-33.281	239.870	24.815	-34.310	-29.374	-27.625	-23.543	61.273	-24.755	-8191	255	
8055.580	1	1	0	0	0.10094	0.22107	0.10586	0.080851	0.10817	0.14138	0.15216	0.1007	0.27521	0.3908	0.27867	0.23323	0.09523	0.36399	0.33608	0.084583	-1.5312	-2.775	-2.4208	-2.0146	-2.7917	-2.3021	-2.3875	-2.7542	-2.0333	-2.7062	-2.7146	-2.2667	-2.7625	-2.4562	-2.1875	-2.8458	214.515	2.718	109.463	249.424	-5.166	70.776	-31.789	185.098	56.760	222.729	182.361	249.848	179.297	-32.125	89.819	267.621	0.00063852	0.0018509	0.00034403	663.72	3.5565e-06	2.0331e-05	880.67	244.87	7.6055e-06	5.5519e-06	381.3	161.24	100.46	42.54	1.909e-05	76.703	0.0022409	0.0024368	0.00061424	810.2	2.5752e-05	2.6457e-05	1024	296.27	2.5914e-05	2.6325e-05	461.4	186.14	131.02	53.009	2.3619e-05	86.7	192.912	-28.446	-6.242	-38.808	226.152	36.638	-38.751	-33.120	195.491	-5.222	-33.923	-28.826	-27.532	-23.345	42.103	-25.115	-8191	255	
8055.701	1	1	0	0	0.12262	0.16103	0.013852	0.09149	0.12658	0.26743	0.17992	0.28016	0.10682	0.31799	0.13414	0.37864	0.072926	0.29053	0.1749	0.11186	-1.7771	-2.5604	-2.6958	-2.1708	-2.7125	-2.4417	-2.3104	-2.8604	-1.9292	-2.3625	-2.8604	-2.0667	-2.7375	-2.3833	-2.0062	-2.8521	16.869	286.567	209.858	28.689	83.957	274.365	223.320	269.541	18.144	24.750	-21.809	203.114	223.918	257.680	80.108	246.828	0.00071258	0.0012785	0.00020993	669.39	3.481e-06	9.6939e-06	878.83	244.15	1.3764e-05	9.28e-06	379.63	159.37	99.88	42.238	8.4165e-06	76.143	0.0024097	0.002357	0.00060966	821.51	2.7683e-05	2.5933e-05	1021.3	300.14	2.7734e-05	2.5392e-05	459.93	186.96	131.57	52.047	2.2814e-05	87.395	208.209	8.939	65.032	-38.494	-37.052	19.400	-38.443	-32.862	272.020	49.940	-34.193	-29.029	-27.808	-23.135	62.394	-24.851	-8191	255	
8055.797	1	1	0	0	0.15895	0.066617	0.08832	0.067984	0.27032	0.011322	0.36826	0.27744	0.1408	0.061509	0.14948	0.25243	0.12476	0.10824	0.32986	0.14566	-1.8396	-2.4479	-2.6667	-2.1125	-2.45	-2.5	-2.1021	-2.7896	-2.3271	-2.3771	-2.75	-2.1437	-2.6979	-2.6375	-1.8729	-2.9604	305.336	-1.561	160.446	186.496	235.691	12.706	236.277	245.797	-27.317	53.670	276.441	308.912	140.722	21.057	6.980	191.683	0.00020726	0.0017092	0.00015671	666.63	1.5837e-05	2.9173e-06	881.2	242.8	7.726e-06	1.8642e-05	381.14	160.21	99.809	42.181	1.1077e-05	76.776	0.0024414	0.002219	0.00058205	830.77	2.6905e-05	2.3981e-05	1008.6	301.13	2.5947e-05	2.2826e-05	451.33	188.4	128.41	51.02	2.1421e-05	88.334	277.786	51.858	239.735	-38.553	38.405	45.618	-38.722	-32.850	131.029	-42.941	-34.206	-29.111	-28.058	-23.091	88.016	-25.025	-8191	255	
8055.893	1	1	0	0	0.12661	0.049835	0.21165	0.14882	0.21278	0.067308	0.075993	0.28401	0.076287	0.16355	0.14099	0.15423	0.094831	0.048076	0.22006	0.098087	-1.8083	-2.35	-2.5854	-2.1354	-2.7687	-2.6333	-2.1104	-2.7833	-2.3063	-2.2917	-2.8521	-2.2458	-2.4667	-2.7271	-2.2062	-2.9125	43.919	108.078	91.575	267.673	54.044	221.506	237.265	257.420	106.732	212.130	292.477	-7.477	101.147	-8.131	231.736	202.435	0.00018616	0.00077254	0.0001295	669.41	7.5329e-06	1.0132e-05	875.76	243.05	8.5228e-06	1.7186e-05	382.01	161.6	100.22	42.42	3.2774e-05	77.185	0.0022602	0.0020431	0.00055256	835.02	2.4537e-05	2.239e-05	1003.7	304.14	2.432e-05	2.1921e-05	454.03	191.22	126.64	50.787	2.2104e-05	89.23	162.153	5.568	133.307	-38.872	48.663	16.595	-38.699	-32.830	102.057	14.993	-33.595	-29.070	-27.964	-23.322	201.942	-24.790	-8191	255	
8056.012	1	1	0	0	0.21091	0.16405	0.054904	0.30008	0.23613	0.040841	0.076371	0.28006	0.23723	0.14351	0.23666	0.1748	0.30852	0.20025	0.21505	0.095908	-2.1188	-2.0083	-2.5312	-1.9979	-2.5125	-2.4854	-2.1813	-2.7646	-2.4188	-2.1792	-2.8583	-2.3375	-2.2604	-2.6229	-1.9583	-2.7292	209.209	153.576	156.772	287.632	258.014	275.432	252.745	289.139	9.724	76.226	272.676	-38.171	-39.666	274.928	167.408	-19.625	0.00018281	0.0011907	0.00055316	667.71	7.6889e-06	7.6708e-06	875.83	245.37	1.6367e-05	1.3859e-05	380.72	162.22	100.51	42.555	1.5636e-05	77.463	0.002149	0.0019942	0.00058292	847.55	2.3578e-05	2.1946e-05	1019.1	306.42	2.3311e-05	2.114e-05	459.52	190.75	124.59	50.38	2.3525e-05	88.591	66.436	14.689	164.231	-38.839	28.461	30.809	-38.758	-32.756	4.839	40.286	-33.593	-28.676	-27.451	-23.078	214.342	-24.979	-8191	255	
8056.108	1	1	0	0	0.28041	0.10409	0.057913	0.32456	0.30019	0.10794	0.069071	0.083605	0.09329	0.34845	0.061822	0.23858	0.12068	0.14894	0.27009	0.14356	-2.0604	-2.0958	-2.8458	-2.3688	-2.1375	-2.6229	-2.1937	-2.6479	-2.3958	-2.0792	-2.7542	-2.3354	-2.225	-2.7062	-2.0854	-2.5938	296.542	92.129	231.294	228.272	185.162	161.954	-7.283	234.511	-33.179	197.220	8.361	237.107	238.429	257.929	229.256	244.883	0.00040338	0.00022683	0.00051561	673.91	1.203e-05	1.5035e-05	881.85	244.38	1.0945e-05	1.2953e-05	381.04	162.35	99.812	42.053	2.1374e-05	77.074	0.0020464	0.0019141	0.00062105	840.37	2.2352e-05	2.1347e-05	1033	302.88	2.2437e-05	2.0797e-05	466.76	189.11	123.17	50.225	2.5249e-05	87.367	204.787	115.495	90.543	-38.880	14.575	41.028	-38.650	-33.032	57.212	267.145	-34.056	-29.146	-27.868	-23.151	228.285	-25.119	-8191	255	
8056.204	1	1	0	0	0.10989	0.16351	0.092651	0.19583	0.21589	0.22936	0.075121	0.11638	0.086162	0.14457	0.081857	0.11293	0.089878	0.13031	0.08496	0.11912	-2.1167	-2.1542	-2.6875	-2.3438	-2.1917	-2.8187	-2.2729	-2.6979	-2.575	-2.1792	-2.6604	-2.375	-2.1458	-2.7687	-2.0396	-2.4896	120.763	-37.106	47.392	263.951	250.253	201.041	284.834	250.921	201.464	-32.277	213.022	-21.417	298.716	-40.941	141.306	58.845	2.2499e-05	0.00092691	0.00054663	673.15	9.4295e-06	1.7878e-05	881.91	244.74	6.6474e-06	1.2291e-05	381.62	161.06	99.155	41.779	6.685e-06	76.417	0.0020293	0.0019978	0.00067358	836.77	2.2502e-05	2.2951e-05	1053.9	302.11	2.2909e-05	2.29e-05	476.64	188.28	123.31	51.15	2.6689e-05	86.755	233.654	143.795	132.985	-38.679	97.041	217.631	-38.504	-33.341	-2.962	162.977	-33.605	-28.797	-27.980	-22.689	300.618	-24.767	-8191	255	
8056.301	1	1	0	0	0.18286	0.067886	0.18762	0.11904	0.16781	0.16021	0.29259	0.15711	0.16767	0.25771	0.27666	0.19089	0.30114	0.072308	0.12853	0.048163	-2.2958	-1.9979	-2.6	-2.4896	-2.0687	-2.8187	-2.3021	-2.3625	-2.625	-2.1125	-2.6292	-2.4021	-2.0375	-2.7146	-2.5146	-2.3458	297.287	257.218	225.735	56.949	-13.732	280.370	-46.630	230.971	109.204	268.582	294.902	253.882	-17.395	139.799	192.376	44.899	0.00016791	0.00092388	0.00013669	671.36	8.059e-06	1.0902e-05	883.38	244.35	1.2128e-05	2.6934e-05	379.44	159.15	98.236	41.331	4.9051e-06	75.271	0.0020261	0.0021921	0.00069179	837.07	2.2558e-05	2.5533e-05	1067.9	303.04	2.3565e-05	2.6303e-05	480.57	189.23	124.75	52.834	2.7852e-05	87.042	272.019	149.751	95.718	-38.068	76.544	136.458	-38.269	-32.543	266.920	185.927	-33.826	-28.656	-27.061	-22.318	91.192	-24.332	-8191	255	
8056.397	1	1	0	0	0.059667	0.2581	0.17439	0.29409	0.31838	0.019905	0.35426	0.13504	0.20365	0.073426	0.20302	0.27942	0.13213	0.23927	0.34055	0.31957	-2.2687	-2.0187	-2.4688	-2.5917	-2.0542	-2.6792	-2.2375	-2.2083	-2.7562	-2.2625	-2.5375	-2.7979	-2.125	-2.8083	-2.3125	-2.2396	22.654	34.002	93.980	247.976	18.758	10.654	245.835	239.029	28.670	-47.724	221.046	259.681	-10.473	214.032	179.768	206.514	0.00024223	0.00216	0.00055792	672.17	8.9174e-06	1.4196e-05	880.62	243.48	2.4744e-05	1.4649e-05	379.17	158.92	97.704	40.699	1.558e-05	73.83	0.0021813	0.0025658	0.00071888	852.08	2.4777e-05	2.9786e-05	1079.4	308.29	2.635e-05	3.0887e-05	489.62	193.11	130.2	55.4	3.0707e-05	88.467	174.424	201.577	-1.704	-37.817	286.533	165.791	-37.800	-32.189	249.524	201.103	-33.632	-28.380	-27.080	-22.119	64.511	-24.287	-8191	255	
8056.493	1	1	0	0	0.1307	0.049206	0.22387	0.15016	0.11035	0.32044	0.056097	0.17715	0.19571	0.12768	0.082856	0.089385	0.14913	0.054304	0.16869	0.13483	-2.2917	-2.2917	-2.4458	-2.6312	-1.9729	-2.8583	-2.4417	-2.1813	-2.625	-2.1875	-2.4854	-2.7	-2.2083	-2.7667	-2.6125	-2.5229	138.113	276.659	-21.232	93.669	34.178	224.660	247.830	169.409	40.205	89.911	7.536	162.051	-43.353	217.639	93.564	228.474	0.00056941	6.7678e-05	0.00054396	668.23	2.6058e-05	1.6737e-05	871.65	240.78	1.7146e-05	1.2778e-05	374.16	156.88	96.03	40.372	1.2524e-05	73.247	0.0026231	0.0030907	0.00079912	885.48	3.0645e-05	3.5352e-05	1104.6	315.86	3.1253e-05	3.3675e-05	488.76	193.77	136.1	56.435	3.2222e-05	89.607	195.417	1.438	-11.043	-37.566	209.690	139.574	-37.397	-31.933	235.201	4.376	-33.629	-27.812	-26.577	-22.247	223.214	-24.315	-8191	255	
8056.613	1	1	0	0	0.22197	0.025354	0.17442	0.032034	0.19926	0.011744	0.057064	0.12235	0.18823	0.14954	0.27571	0.15848	0.14158	0.19434	0.29755	0.07785	-2.45	-2.3271	-2.1208	-2.8312	-2.1604	-2.7208	-2.7083	-2.3021	-2.6958	-2.4292	-2.4062	-3.0208	-2.2375	-2.55	-2.55	-2.1167	271.623	142.225	69.609	107.774	-31.428	228.533	276.188	112.306	252.543	197.522	-38.514	280.563	292.094	286.031	106.410	132.988	0.00063733	0.0014915	0.00071625	673.45	2.3388e-05	1.7517e-05	869.56	240.05	1.7843e-05	3.0054e-05	374.27	156.35	97.256	40.04	2.0387e-05	71.988	0.0031065	0.0033353	0.00083929	906.81	3.5845e-05	3.7131e-05	1121.4	323.41	3.7239e-05	3.6958e-05	505.36	200.83	145.57	57.055	3.3981e-05	90.937	213.882	-8.330	-48.738	-37.885	212.988	3.114	-37.189	-32.365	236.102	50.509	-33.566	-27.577	-26.705	-21.909	29.257	-23.926	-8191	255	
8056.710	1	1	0	0	0.093156	0.26342	0.24769	0.096127	0.23112	0.12038	0.17847	0.015181	0.15049	0.17404	0.068651	0.25499	0.21301	0.1697	0.068539	0.18558	-2.2313	-2.3563	-2.4333	-2.8187	-2.0979	-2.5479	-2.7979	-2.1312	-2.8729	-2.5167	-2.4458	-2.7562	-2.3542	-2.4437	-2.6417	-2.2062	150.258	269.306	278.594	303.114	68.904	302.840	267.170	73.092	250.083	106.687	283.805	264.292	195.340	178.578	41.535	215.750	0.00060061	0.00070656	0.00050254	675.89	5.657e-06	2.0575e-05	890.88	242.98	1.8115e-06	3.5712e-05	373.31	156.89	96.925	39.56	1.4705e-05	71.671	0.0035147	0.0034014	0.00086581	936.97	4.0332e-05	3.781e-05	1146	337.44	4.1867e-05	3.8372e-05	515.35	209.7	152.62	57.716	3.665e-05	95.027	199.044	6.926	306.781	-37.517	-1.029	4.008	-38.181	-31.981	-23.655	13.375	-33.077	-27.953	-26.859	-22.507	17.549	-23.868	-8191	255	
8056.806	1	1	0	0	0.19609	0.24819	0.21587	0.28556	0.11295	0.13625	0.27325	0.18916	0.047826	0.017419	0.28779	0.17004	0.24443	0.16439	0.050766	0.25563	-2.1333	-2.4125	-2.0521	-2.7687	-2.1833	-2.4271	-2.8292	-2.1021	-2.7708	-2.3229	-2.1646	-2.7875	-2.4896	-2.3542	-2.7062	-2.0396	201.265	244.557	199.838	226.567	291.756	116.125	284.567	-48.578	48.380	69.511	213.953	224.191	260.795	299.870	215.716	218.889	0.00029399	0.0012635	0.00066944	677.21	1.3546e-05	2.5553e-05	891.32	243.3	2.6852e-05	8.3353e-06	370.32	156.1	97.95	39.408	1.9061e-05	71.356	0.0039075	0.0035912	0.00093477	994.57	4.4039e-05	3.9207e-05	1162.8	354.98	4.3623e-05	3.9112e-05	519.75	217.66	153.31	57.562	3.7425e-05	97.969	-35.623	78.071	47.880	-37.488	27.613	33.923	-37.661	-32.085	75.393	75.737	-33.103	-27.677	-26.542	-22.311	306.354	-24.218	-8191	255	
8056.902	1	1	0	0	0.11393	0.21377	0.19921	0.19884	0.17521	0.13736	0.11441	0.13277	0.22182	0.11108	0.03745	0.45948	0.12016	0.15183	0.10391	0.094014	-2.2542	-2.5333	-2	-2.8333	-2.3688	-2.3042	-2.8667	-2.3625	-2.5792	-2.6979	-2.0187	-2.6542	-2.5625	-2.1458	-2.8271	-2.1625	-39.813	133.587	129.353	121.918	-25.565	307.436	282.177	251.941	241.234	306.244	155.779	-48.494	305.754	13.707	-19.363	59.298	2.8072e-05	0.0013058	0.0001905	676.38	7.4632e-06	8.0084e-06	876.79	240.18	2.7749e-05	2.3612e-05	372.84	157.7	98.575	39.294	2.0286e-05	70.996	0.00389	0.0036466	0.00097056	1035.6	4.4717e-05	4.0549e-05	1191.4	372.2	4.5115e-05	4.181e-05	541.07	228.13	156.28	58.642	4.2537e-05	101.48	140.252	273.584	159.776	-37.163	94.822	57.757	-37.386	-31.698	83.621	39.398	-33.329	-27.889	-26.991	-22.769	240.202	-24.099	-8191	255	
8056.996	1	1	0	0	0.1859	0.12211	0.20529	0.31754	0.093196	0.26475	0.16225	0.079802	0.19989	0.30047	0.06813	0.27262	0.17743	0.059991	0.23698	0.25261	-2.025	-2.6542	-2.0104	-2.8125	-2.5292	-2.1167	-3.0646	-2.4021	-2.3917	-2.6771	-2.0854	-2.6771	-2.6354	-2.1708	-2.9688	-2.3563	156.044	299.912	297.494	292.677	35.629	16.485	7.566	2.668	135.694	105.075	23.937	273.544	-11.039	-33.923	75.970	240.805	0.00026944	0.0016491	0.00080186	688.13	2.171e-05	1.7131e-05	880.38	243.01	5.5903e-06	1.7416e-05	370.34	157.67	98.013	39.303	3.3257e-05	71.658	0.0039491	0.0037566	0.0010723	1063	4.3902e-05	4.0185e-05	1218.7	375.52	4.3109e-05	4.0638e-05	554.8	227.35	153.5	58.122	4.5715e-05	101.47	39.338	12.013	129.242	-37.826	46.538	89.241	-37.840	-31.996	68.274	-18.458	-33.229	-28.094	-27.145	-22.677	184.575	-24.183	-8191	255	
8057.092	1	1	0	0	0.06649	0.36996	0.11039	0.025031	0.10478	0.10349	0.24035	0.27228	0.38993	0.16472	0.13719	0.28831	0.25809	0.039698	0.12923	0.10912	-1.8771	-2.7375	-2.0792	-2.6312	-2.5271	-2.1417	-2.8833	-2.3167	-2.2083	-2.6521	-2.3125	-2.5729	-2.7625	-2.2354	-2.85	-2.5	266.321	-32.004	119.054	91.664	23.516	143.990	235.713	218.514	-26.817	84.524	59.456	256.661	300.263	303.162	193.637	116.812	9.2617e-05	0.0013862	0.0013455	677.94	5.4764e-06	1.8465e-05	880.56	243.02	2.0441e-05	1.1829e-05	374.75	157.92	98.135	39.755	3.1709e-05	71.358	0.0038456	0.0037408	0.0011813	1058.4	4.3796e-05	4.085e-05	1260.4	374.49	4.3205e-05	4.1751e-05	577.62	225.19	153.09	58.635	4.9049e-05	100.19	127.071	79.764	135.308	-37.417	61.807	134.971	-37.624	-32.220	45.130	286.320	-33.143	-28.662	-27.098	-22.448	167.360	-24.245	-8191	255	
8057.189	1	1	0	0	0.048327	0.11331	0.12414	0.089353	0.23997	0.10444	0.36446	0.35709	0.17966	0.061112	0.040725	0.091461	0.29811	0.31475	0.10142	0.26748	-1.7833	-2.7208	-2.2417	-2.6917	-2.5521	-2.2271	-2.9604	-2.4458	-2.2562	-2.9708	-2.2917	-2.7021	-2.7938	-2.275	-2.5354	-2.6833	306.677	226.405	81.578	272.798	263.273	89.618	194.299	296.234	-20.854	94.004	33.918	157.602	266.055	232.560	-1.288	265.075	0.00018019	0.0035922	0.00019764	690.12	2.2825e-05	1.5913e-05	893.33	243.52	2.1923e-06	3.1904e-05	374.85	158.55	97.834	39.036	1.0143e-05	71.992	0.0037682	0.0038705	0.001254	1039.6	4.2604e-05	4.2367e-05	1277	367.14	4.1533e-05	4.36e-05	584.04	222.02	151.48	60.144	5.0157e-05	99.226	220.330	164.089	189.590	-38.044	71.550	253.603	-37.643	-32.039	60.921	172.472	-33.198	-28.637	-27.386	-21.946	-9.771	-24.579	-8191	255	
8057.309	1	1	0	0	0.059759	0.035486	0.063956	0.075297	0.32849	0.18382	0.35348	0.16868	0.11814	0.083614	0.28819	0.10329	0.061309	0.24713	0.20382	0.046205	-1.7625	-2.8688	-2.3292	-2.4979	-2.8063	-2.3021	-2.7562	-2.6583	-2.3563	-2.8563	-2.4479	-2.3229	-2.9208	-2.2542	-2.5708	-2.6417	261.033	40.979	206.509	227.490	117.368	69.706	294.182	270.825	115.080	89.921	269.622	138.773	-24.957	294.887	100.306	193.791	0.00042576	0.0051234	0.0008173	692.34	6.9782e-06	2.8324e-05	901.75	244.27	4.9774e-06	4.4842e-05	375.48	159.13	98.16	38.92	1.0015e-05	71.206	0.003723	0.0042153	0.0012861	1033.2	4.2576e-05	4.6911e-05	1283.6	366.9	4.1709e-05	4.818e-05	584.55	220.88	152.23	62.42	4.8908e-05	98.184	221.475	155.185	3.804	-38.046	237.247	170.205	-37.961	-32.272	-4.686	168.412	-33.707	-28.468	-26.919	-22.345	14.627	-24.352	-8191	255	
8057.405	1	1	0	0	0.21771	0.15997	0.18378	0.19825	0.2152	0.08188	0.12513	0.075542	0.038583	0.065656	0.21837	0.060658	0.049159	0.11092	0.16006	0.067651	-1.7083	-2.7938	-2.3	-2.2604	-2.7667	-2.3375	-2.6625	-2.7104	-2.1813	-2.7812	-2.3604	-2.3875	-2.9083	-2.1875	-2.5	-2.8937	269.169	137.744	127.481	-32.587	208.206	12.534	-30.341	30.974	224.195	285.379	162.017	275.747	256.352	263.649	43.395	247.838	0.0003232	0.0022304	0.00031599	685.07	1.5407e-05	1.642e-05	896.15	242.5	1.9902e-05	2.0306e-05	376.41	158.91	97.583	39.183	2.4605e-05	70.965	0.003689	0.0044461	0.0012158	1014.3	4.2093e-05	4.9289e-05	1258.1	361.6	4.2169e-05	5.0194e-05	573.36	219.23	154.48	63.594	4.5946e-05	97.354	248.066	170.433	-49.207	-38.235	185.063	184.952	-37.837	-32.534	220.183	144.748	-33.305	-28.527	-26.735	-21.894	33.966	-24.123	-8191	255	
8057.502	1	1	0	0	0.18648	0.11886	0.017693	0.16925	0.064832	0.082573	0.14078	0.17621	0.0048619	0.19904	0.11377	0.35252	0.06417	0.31994	0.09758	0.1956	-1.6333	-2.6625	-2.4062	-1.975	-2.7146	-2.1771	-2.6083	-2.7083	-2.0292	-2.6125	-2.6	-2.2646	-2.9625	-2.3042	-2.3792	-2.8417	104.405	99.381	154.046	11.469	139.931	24.580	167.344	255.663	66.967	169.676	159.859	281.578	270.771	276.341	216.322	290.430	0.00072568	0.0007112	0.0011866	675.92	2.1648e-05	4.5588e-06	886.15	241.35	2.7265e-05	5.4671e-06	371.56	158.85	98.473	39.879	3.2784e-05	72.288	0.003848	0.0045165	0.0011412	997.53	4.3429e-05	4.867e-05	1223.7	354.84	4.3899e-05	4.8738e-05	557.54	215.62	158	62.967	4.3125e-05	96.476	206.983	201.333	-2.372	-37.879	186.291	268.671	-37.221	-31.880	271.236	62.067	-32.711	-28.139	-27.104	-22.712	57.497	-24.115	-8191	255	
8057.573	1	1	0	0	0.066073	0.12629	0.083965	0.089829	0.29379	0.25097	0.24032	0.092431	0.12174	0.088864	0.18386	0.1041	0.16978	0.15163	0.18797	0.047675	-1.6833	-2.6229	-2.3438	-2.3063	-2.8417	-2.3917	-2.4979	-2.9979	-2.0729	-2.6354	-2.9104	-2.2208	-2.7125	-2.4021	-2.2542	-2.8438	111.725	-49.449	-15.187	46.895	192.988	49.907	236.879	-41.220	-0.735	119.337	264.290	283.439	244.191	122.993	32.059	119.528	0.00080472	0.0021532	0.00067042	687.24	1.7255e-05	2.4656e-05	897.13	245.67	1.4623e-05	1.8373e-05	380.42	159.17	99.319	40.088	1.7557e-05	72.527	0.0040482	0.004304	0.0010888	988.84	4.664e-05	4.7354e-05	1216.1	354.39	4.6857e-05	4.6184e-05	552.09	216.34	161.34	61.491	4.1121e-05	97.106	172.103	304.180	-8.585	-37.961	297.537	37.293	-37.688	-32.094	236.684	-2.130	-33.168	-28.101	-26.665	-22.608	105.240	-23.858	-8191	255	
8057.694	1	1	0	0	0.18534	0.19975	0.24045	0.050154	0.33695	0.12198	0.14357	0.24989	0.21145	0.10325	0.1391	0.31534	0.24064	0.16368	0.29628	0.16401	-1.6896	-2.4583	-2.6604	-2.2521	-2.7792	-2.5417	-2.3229	-2.8667	-2.3208	-2.5146	-2.7875	-2.2438	-2.8396	-2.4875	-2.3	-3.0062	-26.946	58.642	-16.877	-45.156	227.665	8.043	-39.352	-45.948	-44.902	249.067	-47.052	277.132	237.667	9.954	154.275	-32.718	0.00039377	0.0034902	0.00036528	683.95	8.6e-06	8.1593e-06	894.5	244.48	1.1651e-05	1.489e-05	378.23	160.24	99.629	40.203	1.5581e-05	72.256	0.0042426	0.0040628	0.0010481	994.16	4.7721e-05	4.4013e-05	1192.2	357.12	4.744e-05	4.2808e-05	542.29	218.72	160.6	60.038	3.9267e-05	98.851	232.999	-43.077	27.735	-37.807	-27.354	71.043	-37.985	-31.866	126.666	21.242	-33.166	-27.913	-27.315	-22.744	300.857	-23.854	-8191	255	
8057.790	1	1	0	0	0.16087	0.15168	0.074328	0.13052	0.10999	0.084964	0.38587	0.40538	0.17319	0.29015	0.089798	0.14548	0.17283	0.082922	0.15734	0.31452	-1.75	-2.4104	-2.7833	-2.3479	-2.7625	-2.5292	-2.2562	-2.8708	-2.4167	-2.3958	-2.6979	-2.0375	-2.5896	-2.4979	-2.1354	-2.9208	174.429	93.972	140.879	-19.811	42.260	269.443	275.132	200.209	231.229	239.969	122.067	174.248	279.881	128.913	12.185	247.877	0.00029355	0.00085305	0.00043907	679.46	2.0144e-05	2.4328e-05	894.8	242.12	1.7254e-05	1.9443e-05	374.19	158.62	98.986	39.732	2.5132e-05	72.128	0.0042192	0.0038196	0.0010003	1009.6	4.5631e-05	4.077e-05	1170.4	361.28	4.4113e-05	3.9066e-05	527.64	219.33	154.08	57.999	3.6359e-05	98.802	156.178	-6.779	-28.393	-37.669	19.184	90.453	-37.825	-31.806	125.625	28.127	-33.071	-27.766	-26.949	-21.791	173.900	-23.968	-8191	255	
8057.886	1	1	0	0	0.040997	0.12828	0.21321	0.22589	0.16468	0.16357	0.27903	0.21704	0.13184	0.20389	0.096715	0.045132	0.077283	0.25212	0.044122	0.20468	-1.8896	-2.3354	-2.7313	-2.3667	-2.5771	-2.8	-2.3083	-2.7792	-2.3604	-2.3146	-2.9146	-2.25	-2.6104	-2.7875	-2.0917	-2.9646	152.434	217.653	160.265	-40.403	46.892	-36.740	294.107	235.280	222.914	262.683	48.882	31.420	307.890	73.397	137.837	0.719	7.1623e-05	0.0028905	0.0002321	681.15	1.2136e-05	2.2607e-05	872.47	241.09	1.319e-05	2.1438e-05	373.36	159.92	98.576	39.991	2.2925e-05	72.315	0.0037762	0.0034621	0.0009497	1016.8	4.1609e-05	3.8359e-05	1163	365.12	4.163e-05	3.7604e-05	532.07	222.62	150.77	57.439	3.7825e-05	99.621	219.940	-46.232	152.608	-37.173	0.564	64.426	-37.586	-31.649	87.934	69.390	-32.943	-27.920	-27.573	-22.501	209.830	-23.667	-8191	255	
8057.982	1	1	0	0	0.17176	0.15255	0.24829	0.10188	0.13169	0.24853	0.13	0.04909	0.16503	0.19673	0.20106	0.19379	0.31143	0.28504	0.032975	0.31225	-2.0521	-2.2438	-2.6979	-2.3354	-2.5021	-2.8042	-2.3187	-2.7854	-2.5354	-2.1937	-2.8667	-2.4437	-2.3521	-2.7917	-2.075	-2.8521	219.416	130.502	99.341	293.014	304.098	82.368	-11.654	21.644	30.457	78.103	295.410	292.397	0.770	234.207	80.069	-49.113	0.00022436	0.0014387	0.0006572	675.09	2.4884e-05	3.9125e-06	875.72	241.88	1.8379e-05	2.6992e-05	368.12	158.19	98.231	39.538	3.0765e-05	72.421	0.0035451	0.0032726	0.00097719	1010.1	3.8162e-05	3.5771e-05	1172.6	358.77	3.7661e-05	3.4503e-05	532.9	217.59	144.55	55.773	3.8323e-05	97.191	228.120	-3.450	147.917	-37.374	71.646	7.002	-37.361	-31.719	72.326	21.144	-32.004	-27.994	-26.958	-22.086	174.564	-23.740	-8191	255	
8058.101	1	1	0	0	0.23446	0.14732	0.10092	0.13952	0.44677	0.12558	0.093891	0.084317	0.13578	0.10932	0.081919	0.36762	0.36401	0.16972	0.11942	0.17859	-2.1021	-2.1188	-2.6396	-2.4875	-2.5146	-2.7979	-2.4792	-2.7354	-2.5625	-2.1688	-2.95	-2.4896	-2.55	-2.9417	-2.1833	-2.6771	-11.915	-35.035	211.132	168.745	244.252	131.935	-22.556	-4.968	238.768	159.859	-38.464	-47.613	241.963	212.983	162.554	208.325	0.00010515	0.0018335	0.0010277	676.14	4.0903e-06	1.9819e-05	879.14	241.9	1.3293e-05	7.8038e-06	371.24	157.4	98.13	39.638	3.4592e-05	72.959	0.0032572	0.0030673	0.0010081	986.98	3.5686e-05	3.4411e-05	1184.7	347.15	3.4712e-05	3.2908e-05	537.89	211.91	141.1	55.35	3.8968e-05	94.334	210.576	269.694	155.453	-37.592	65.662	195.559	-37.403	-31.784	48.353	177.665	-32.488	-27.383	-26.991	-21.647	247.886	-23.566	-8191	255	
8058.173	1	1	0	0	0.25347	0.29124	0.17054	0.049954	0.31436	0.14487	0.29855	0.26464	0.37139	0.28993	0.13651	0.16448	0.076212	0.22207	0.060591	0.049831	-2.2917	-2.1604	-2.8312	-2.4021	-2.2687	-3.0458	-2.4542	-2.3438	-2.5917	-2.0729	-2.8021	-2.6312	-2.125	-3.0083	-2.1875	-2.4875	260.614	-44.233	108.465	85.428	78.708	184.213	217.550	274.703	269.766	277.305	258.656	267.857	25.271	-7.157	121.918	115.895	0.00028796	0.00077194	0.00042675	681.82	1.0835e-05	1.2005e-05	890.09	245.46	1.7495e-05	1.7645e-05	378.59	158.88	98.467	39.605	2.5404e-05	72.562	0.0030247	0.0030199	0.0010084	959.53	3.358e-05	3.5219e-05	1197.6	343.32	3.4776e-05	3.594e-05	548.66	212.13	141.61	57.479	4.1491e-05	94.521	154.615	141.941	34.654	-37.897	11.188	166.566	-37.763	-32.287	129.308	213.210	-32.865	-28.179	-26.773	-21.842	29.646	-23.578	-8191	255	
8058.293	1	1	0	0	0.18683	0.089956	0.13155	0.019519	0.17518	0.32377	0.1624	0.096658	0.22	0.23065	0.33038	0.19048	0.11271	0.15107	0.30784	0.1836	-2.4083	-1.9875	-2.6229	-2.6792	-2.2104	-2.8792	-2.5396	-2.4062	-2.8583	-2.0542	-2.8146	-2.7438	-2.2854	-2.8063	-2.525	-2.2917	295.935	269.901	273.337	95.669	26.633	270.728	221.942	27.676	-42.271	52.530	188.122	251.178	260.103	221.682	195.744	18.282	0.00019261	0.002842	0.0005975	672.95	1.7064e-05	2.27e-05	887.48	241.25	1.5302e-06	2.3385e-05	374.99	159.33	98.622	39.869	4.6455e-05	72.408	0.003117	0.0034318	0.0010523	959.67	3.3927e-05	3.8894e-05	1199.5	340.91	3.4823e-05	3.94e-05	545.29	211.35	142.37	59.588	4.151e-05	94.952	208.464	164.986	-22.063	-37.619	178.971	194.941	-37.407	-32.163	168.784	196.610	-33.195	-28.023	-26.714	-21.846	37.081	-24.162	-8191	255	
8058.390	1	1	0	0	0.13296	0.14282	0.15307	0.31762	0.2228	0.044559	0.17653	0.082559	0.091784	0.15204	0.062988	0.090816	0.091269	0.10463	0.1584	0.099566	-2.525	-2.0542	-2.6937	-2.6271	-2.0958	-2.9	-2.6208	-2.3229	-2.7042	-1.9125	-2.5542	-2.9958	-2.125	-2.725	-2.3583	-2.2146	168.121	294.395	220.583	299.800	127.460	201.276	232.384	213.169	226.845	190.720	274.697	191.930	130.024	163.992	7.861	242.998	0.00038098	0.00059046	0.00055818	674.98	1.6814e-05	2.4679e-05	887.79	242.37	1.3251e-05	1.726e-05	377.47	159.1	98.807	39.778	3.6959e-05	72.695	0.003262	0.0038199	0.0010326	960.75	3.5568e-05	4.2512e-05	1194.5	340.47	3.6778e-05	4.2236e-05	537.33	209.51	144.67	60.179	3.8792e-05	93.396	187.996	88.971	2.652	-37.258	295.126	225.279	-37.428	-32.099	236.844	94.136	-33.405	-27.996	-26.546	-21.710	36.126	-23.951	-8191	255	
8058.486	1	1	0	0	0.25295	0.18829	0.16705	0.27518	0.060926	0.12979	0.055398	0.17259	0.33467	0.31572	0.088538	0.27907	0.16725	0.12146	0.098218	0.18821	-2.3688	-2.4625	-2.5312	-2.7458	-2.2479	-2.7521	-2.5312	-2.3312	-2.8146	-2.3292	-2.5563	-2.9667	-2.3271	-2.6792	-2.6208	-2.4333	-31.622	-20.220	271.867	211.960	305.848	40.735	186.008	287.465	37.144	92.292	13.858	274.588	-23.289	292.354	167.585	197.072	0.00069501	0.0035115	0.0004647	678.38	1.6013e-05	2.172e-05	890.17	241.61	2.276e-05	9.8284e-06	379.5	160.72	98.648	40.449	9.3502e-06	73.701	0.003366	0.0038659	0.00097663	954.71	3.773e-05	4.2347e-05	1175.2	335.53	3.8352e-05	4.105e-05	525.05	206.81	147.12	59.006	3.6026e-05	91.984	203.921	-7.382	-23.323	-37.784	196.000	75.699	-37.485	-32.149	247.436	72.711	-33.413	-28.270	-26.915	-22.278	-1.420	-24.368	-8191	255	
8058.582	1	1	0	0	0.090586	0.10738	0.32735	0.13006	0.19928	0.29544	0.23848	0.26393	0.25498	0.3535	0.16733	0.25387	0.22857	0.20613	0.1436	0.20478	-2.3292	-2.2521	-2.2687	-2.7896	-2.1	-2.8458	-2.7271	-2.3604	-2.9021	-2.4292	-2.3458	-2.8208	-2.325	-2.6646	-2.5729	-2.1917	260.455	19.316	303.543	-11.864	115.626	260.322	200.607	62.175	41.726	69.727	272.270	275.260	-49.974	272.458	-1.426	270.467	0.00068949	0.0030743	0.00029498	683.79	2.6323e-05	1.8302e-05	900.32	246.71	3.1259e-05	1.7738e-05	379.65	161.49	99.709	40.381	2.5111e-05	73.016	0.0034464	0.0035695	0.00089204	935.02	3.8488e-05	3.8282e-05	1151.4	331.72	3.9215e-05	3.809e-05	516.14	208.09	150.53	57.824	3.5321e-05	92.713	185.077	2.683	-27.161	-38.176	231.150	38.499	-38.021	-32.478	222.870	101.065	-33.371	-28.132	-26.621	-22.579	12.402	-24.118	-8191	255	
8058.703	1	1	0	0	0.081125	0.29604	0.29227	0.16929	0.19497	0.089685	0.19032	0.11532	0.1333	0.15618	0.11571	0.16634	0.14182	0.22612	0.11803	0.12635	-2.4083	-2.3458	-2.35	-2.8729	-2.1604	-2.6813	-2.8729	-2.2396	-2.8375	-2.425	-2.2958	-3.0312	-2.2875	-2.6583	-2.65	-2.1937	304.950	281.295	99.490	-17.492	16.264	10.009	269.418	278.399	86.401	154.283	242.298	298.189	252.996	27.094	115.141	302.546	0.00033309	0.0027379	0.0002866	684.06	3.2573e-06	2.7123e-05	901.38	243.63	9.5962e-06	2.22e-06	379.07	161.36	99.694	39.971	1.3022e-05	72.295	0.0036405	0.003467	0.00087876	954.1	4.0907e-05	3.7432e-05	1157.4	340.79	4.1684e-05	3.7566e-05	516.88	214.12	153.48	57.544	3.5922e-05	95.723	125.583	-9.012	-40.292	-37.646	83.767	34.375	-37.519	-32.287	240.277	117.703	-33.584	-27.883	-26.922	-22.542	8.324	-23.949	-8191	255	
#DATA ENDS
