BOXY.EXE: ISS Imagent and Oximeter Data Acquisition Program Version 0.80
Ascii Record File

#ACQ INFORMATION
2  Detector Channels 
16  External MUX Channels 
1  Auxiliary Channels 
5000  Waveform (CCF) Frequency (Hz)
1  Waveforms Skipped 
30  Waveforms Averaged 
1  Cycles Averaged 
16  Acquisitions per Waveform 
10.0806  Updata Rate (Hz) 

#FILE INFORMATION
TRUE -- External MUX Channel results are PARSED.
FALSE -- AC DC and Phase are NOT grouped.
TRUE -- Companion Program Settings File CREATED.
FALSE -- AC data not excluded
FALSE -- DC data not excluded
FALSE -- Phase data not excluded
FALSE -- Auxillary Chn. data not excluded
Tab delimiters

#CALIBRATION STATE
TRUE -- Waveform Calibration Values APPLIED.


#AUX CALIBRATION VALUES
Val Type	aux-1	

Term	1.0000e+00	
Factor	0.0000e+00	


#WF CALIBRATION VALUES
A = Detector Channel
Val Type	A-AC1	A-AC2	A-AC3	A-AC4	A-AC5	A-AC6	A-AC7	A-AC8	A-AC9	A-AC10	A-AC11	A-AC12	A-AC13	A-AC14	A-AC15	A-AC16	A-DC1	A-DC2	A-DC3	A-DC4	A-DC5	A-DC6	A-DC7	A-DC8	A-DC9	A-DC10	A-DC11	A-DC12	A-DC13	A-DC14	A-DC15	A-DC16	A-Ph1	A-Ph2	A-Ph3	A-Ph4	A-Ph5	A-Ph6	A-Ph7	A-Ph8	A-Ph9	A-Ph10	A-Ph11	A-Ph12	A-Ph13	A-Ph14	A-Ph15	A-Ph16	

Term	0.00000e+00	0.00000e+00	0.00000e+00	0.00000e+00	0.00000e+00	0.00000e+00	0.00000e+00	0.00000e+00	0.00000e+00	0.00000e+00	0.00000e+00	0.00000e+00	0.00000e+00	0.00000e+00	0.00000e+00	0.00000e+00	0.00000e+00	0.00000e+00	0.00000e+00	0.00000e+00	0.00000e+00	0.00000e+00	0.00000e+00	0.00000e+00	0.00000e+00	0.00000e+00	0.00000e+00	0.00000e+00	0.00000e+00	0.00000e+00	0.00000e+00	0.00000e+00	0.00000e+00	0.00000e+00	0.00000e+00	0.00000e+00	0.00000e+00	0.00000e+00	0.00000e+00	0.00000e+00	0.00000e+00	0.00000e+00	0.00000e+00	0.00000e+00	0.00000e+00	0.00000e+00	0.00000e+00	0.00000e+00	
Factor	1.00000e+00	1.00000e+00	1.00000e+00	1.00000e+00	1.00000e+00	1.00000e+00	1.00000e+00	1.00000e+00	1.00000e+00	1.00000e+00	1.00000e+00	1.00000e+00	1.00000e+00	1.00000e+00	1.00000e+00	1.00000e+00	1.00000e+00	1.00000e+00	1.00000e+00	1.00000e+00	1.00000e+00	1.00000e+00	1.00000e+00	1.00000e+00	1.00000e+00	1.00000e+00	1.00000e+00	1.00000e+00	1.00000e+00	1.00000e+00	1.00000e+00	1.00000e+00	X	X	X	X	X	X	X	X	X	X	X	X	X	X	X	X	

B = Detector Channel
Val Type	B-AC1	B-AC2	B-AC3	B-AC4	B-AC5	B-AC6	B-AC7	B-AC8	B-AC9	B-AC10	B-AC11	B-AC12	B-AC13	B-AC14	B-AC15	B-AC16	B-DC1	B-DC2	B-DC3	B-DC4	B-DC5	B-DC6	B-DC7	B-DC8	B-DC9	B-DC10	B-DC11	B-DC12	B-DC13	B-DC14	B-DC15	B-DC16	B-Ph1	B-Ph2	B-Ph3	B-Ph4	B-Ph5	B-Ph6	B-Ph7	B-Ph8	B-Ph9	B-Ph10	B-Ph11	B-Ph12	B-Ph13	B-Ph14	B-Ph15	B-Ph16	

Term	0.00000e+00	0.00000e+00	0.00000e+00	0.00000e+00	0.00000e+00	0.00000e+00	0.00000e+00	0.00000e+00	0.00000e+00	0.00000e+00	0.00000e+00	0.00000e+00	0.00000e+00	0.00000e+00	0.00000e+00	0.00000e+00	0.00000e+00	0.00000e+00	0.00000e+00	0.00000e+00	0.00000e+00	0.00000e+00	0.00000e+00	0.00000e+00	0.00000e+00	0.00000e+00	0.00000e+00	0.00000e+00	0.00000e+00	0.00000e+00	0.00000e+00	0.00000e+00	-7.80260e+01	-1.58627e+02	-1.69044e+02	-1.83775e+02	-9.56680e+01	-8.10641e+01	-1.58123e+02	-1.62015e+02	-7.06761e+01	-1.03333e+02	-1.70742e+02	-1.70756e+02	-1.78698e+02	-1.77014e+02	-1.06885e+02	-1.49823e+02	
Factor	1.89549e-05	9.66343e-05	3.90588e-05	1.69121e-01	1.09656e-06	1.06494e-06	1.87830e-01	6.00408e-02	1.11570e-06	1.14070e-06	9.95031e-02	3.37985e-02	3.11028e-02	1.10307e-02	1.00689e-06	1.56862e-02	6.37178e-07	6.49506e-07	1.80709e-07	7.65429e-02	7.12655e-09	7.12169e-09	7.97188e-02	2.69659e-02	7.12101e-09	7.12221e-09	4.22235e-02	1.44095e-02	1.37016e-02	4.81339e-03	7.13314e-09	6.55754e-03	X	X	X	X	X	X	X	X	X	X	X	X	X	X	X	X	



#DISTANCE SETTINGS
A = Detector Channel
A-1	A-2	A-3	A-4	A-5	A-6	A-7	A-8	A-9	A-10	A-11	A-12	A-13	A-14	A-15	A-16	

2.5000e+00	3.0000e+00	2.5000e+00	3.0000e+00	2.0000e+00	3.0000e+00	1.5000e+00	3.0000e+00	3.0000e+00	3.0000e+00	3.0000e+00	3.0000e+00	3.0000e+00	3.0000e+00	1.5000e+00	3.0000e+00	

B = Detector Channel
B-1	B-2	B-3	B-4	B-5	B-6	B-7	B-8	B-9	B-10	B-11	B-12	B-13	B-14	B-15	B-16	

1.0000e+01	1.0000e+01	1.0000e+01	1.4400e+00	1.0000e+01	1.0000e+01	1.5100e+00	1.9400e+00	1.0000e+01	1.0000e+01	1.9900e+00	2.4900e+00	2.4100e+00	2.9000e+00	1.0000e+01	2.9800e+00	




#DATA BEGINS
time	group	step	mark	flag	A-AC1	A-AC2	A-AC3	A-AC4	A-AC5	A-AC6	A-AC7	A-AC8	A-AC9	A-AC10	A-AC11	A-AC12	A-AC13	A-AC14	A-AC15	A-AC16	A-DC1	A-DC2	A-DC3	A-DC4	A-DC5	A-DC6	A-DC7	A-DC8	A-DC9	A-DC10	A-DC11	A-DC12	A-DC13	A-DC14	A-DC15	A-DC16	A-Ph1	A-Ph2	A-Ph3	A-Ph4	A-Ph5	A-Ph6	A-Ph7	A-Ph8	A-Ph9	A-Ph10	A-Ph11	A-Ph12	A-Ph13	A-Ph14	A-Ph15	A-Ph16	B-AC1	B-AC2	B-AC3	B-AC4	B-AC5	B-AC6	B-AC7	B-AC8	B-AC9	B-AC10	B-AC11	B-AC12	B-AC13	B-AC14	B-AC15	B-AC16	B-DC1	B-DC2	B-DC3	B-DC4	B-DC5	B-DC6	B-DC7	B-DC8	B-DC9	B-DC10	B-DC11	B-DC12	B-DC13	B-DC14	B-DC15	B-DC16	B-Ph1	B-Ph2	B-Ph3	B-Ph4	B-Ph5	B-Ph6	B-Ph7	B-Ph8	B-Ph9	B-Ph10	B-Ph11	B-Ph12	B-Ph13	B-Ph14	B-Ph15	B-Ph16	aux-1	digaux	

44667.734	1	1	0	256	0.095728	0.13979	0.2999	0.22086	0.11978	0.072847	0.20226	0.22604	0.04422	0.0909	0.20253	0.24423	0.39846	0.22363	0.062909	0.21545	-3.6937	-4.725	-4.3812	-4.1937	-4.8458	-4.2042	-4.5271	-5.0792	-4.0583	-4.8896	-4.7792	-4.225	-5.0125	-4.2646	-4.5042	-5.1417	70.017	289.130	132.356	317.181	146.734	108.916	268.169	220.468	102.173	66.452	313.899	251.924	243.846	243.725	218.714	304.071	0.00030908	0.00066863	0.00017708	1464	7.0323e-06	7.4703e-06	1569.2	522.61	3.1373e-06	7.8494e-06	652.82	234.81	169.06	59.674	4.1685e-06	105.47	4.2756e-05	3.0925e-05	8.2919e-06	1227.3	3.5707e-07	3.4554e-07	1312.1	433.46	3.6534e-07	3.3875e-07	525.48	191.68	136.69	48.119	3.4674e-07	83.883	189.179	15.344	4.565	-25.803	77.552	97.009	-26.325	-21.810	119.269	70.729	-23.035	-18.874	-17.969	-13.718	67.461	-15.114	-8191	255	
44667.828	1	1	0	0	0.25219	0.16034	0.14784	0.273	0.12018	0.20262	0.20395	0.036206	0.18246	0.18192	0.20357	0.096986	0.0093823	0.23752	0.063826	0.31178	-3.7458	-4.6708	-4.5625	-4.0542	-5.1042	-4.4396	-4.5771	-5.1583	-4.0188	-4.7854	-4.9021	-4.1813	-5.0125	-4.4187	-4.2354	-5.1188	-1.934	71.562	-22.063	280.330	171.206	23.758	233.129	-11.770	269.101	226.226	266.203	272.052	240.579	279.312	40.876	-24.334	0.00024928	0.00031284	0.00021619	1475	5.3138e-06	5.1572e-06	1588.1	529.48	5.2673e-06	5.2695e-06	657.8	237.78	170.59	61.032	2.7187e-06	107.43	4.2801e-05	2.9547e-05	8.6582e-06	1236.5	3.3876e-07	3.3696e-07	1325.1	437.95	3.6549e-07	3.3118e-07	530.73	194.35	138.19	49.208	3.5056e-07	85.598	199.580	-12.062	22.759	-26.033	78.089	96.250	-26.289	-22.001	119.032	46.356	-22.999	-18.902	-17.698	-14.053	92.158	-14.973	-8191	255	
44667.926	1	1	0	0	0.23491	0.20359	0.22715	0.26596	0.041026	0.1455	0.19984	0.21071	0.068076	0.11422	0.17277	0.21974	0.15784	0.30007	0.18936	0.13205	-3.7438	-4.7	-4.8562	-4.2	-4.8271	-4.3042	-4.2562	-5.2917	-3.9667	-4.5583	-4.8458	-4.1667	-4.9083	-4.5271	-4.1062	-5.1292	145.471	314.770	270.384	296.923	3.940	254.349	266.776	296.641	141.140	153.902	238.709	-32.958	278.070	25.317	200.966	182.011	0.00033663	0.00057723	0.00020114	1490.9	6.873e-06	5.7399e-06	1599.1	532.22	1.4616e-06	6.5288e-06	663.67	241.47	173.28	61.843	3.9965e-06	110.56	4.309e-05	3.0653e-05	8.7264e-06	1245.6	3.3476e-07	3.3591e-07	1336.6	442.74	3.5405e-07	3.432e-07	537.69	197.54	140.21	50.073	3.3313e-07	87.757	196.265	-3.614	33.104	-25.940	114.813	112.181	-25.952	-22.001	72.150	64.399	-22.965	-18.603	-17.847	-13.514	52.462	-15.090	-8191	255	
44668.023	1	1	0	0	0.26843	0.16549	0.13816	0.42149	0.046214	0.10673	0.30127	0.24877	0.10666	0.081697	0.23111	0.13364	0.21756	0.23922	0.20143	0.19723	-3.8771	-4.4146	-4.9437	-4.2542	-4.8667	-4.5792	-4.3208	-5.2354	-4.2625	-4.4146	-4.9646	-4.2375	-4.8125	-4.7104	-4.2354	-5.1292	10.044	291.578	-19.583	289.473	35.761	22.219	180.537	237.772	-29.688	319.582	267.764	291.026	-29.102	-23.495	6.633	241.620	0.00031233	0.00070705	0.00012861	1511.2	3.6346e-06	4.9284e-06	1631	536.7	7.8373e-06	5.1593e-06	672.18	244.06	174.18	62.358	3.039e-06	110.68	4.2672e-05	3.06e-05	8.5227e-06	1261.8	3.5585e-07	3.304e-07	1357.9	447.27	3.6644e-07	3.4283e-07	542.93	200.02	141.54	50.551	3.3805e-07	88.159	193.507	1.399	-8.270	-25.746	94.708	120.168	-26.309	-21.932	85.738	74.899	-23.255	-18.613	-17.945	-13.674	81.127	-15.029	-8191	255	
44668.141	1	1	0	0	0.1892	0.029519	0.044039	0.38533	0.12883	0.085682	0.25316	0.1682	0.12556	0.23651	0.18024	0.35728	0.1671	0.24453	0.081344	0.095527	-4.1188	-4.1396	-5.1375	-4.1687	-4.625	-4.8146	-4.3313	-5.1333	-4.3896	-4.4208	-5.1	-4.2354	-4.6562	-4.8875	-3.9521	-5.0604	144.021	51.021	48.643	261.675	275.357	250.386	309.020	236.709	300.465	271.195	277.985	246.997	302.351	238.370	91.399	153.369	0.00031037	0.00047443	0.00024347	1511.5	2.575e-06	5.7161e-06	1601.4	532.22	4.2967e-06	6.4766e-06	662.17	241.26	171.99	61.335	5.7585e-06	107.39	4.2139e-05	3.0383e-05	8.0758e-06	1258.7	3.469e-07	3.2386e-07	1339.9	443.48	3.5308e-07	3.2522e-07	533.38	196.47	139.42	49.499	3.5233e-07	85.962	197.221	17.629	1.695	-25.829	96.174	107.255	-26.203	-22.171	113.658	89.581	-22.759	-18.770	-17.717	-13.745	69.390	-14.810	-8191	255	
44668.238	1	1	0	0	0.13523	0.085863	0.039795	0.17529	0.046006	0.11387	0.061624	0.1907	0.062172	0.070193	0.24462	0.23596	0.15792	0.18624	0.27864	0.32148	-4.1771	-4.2479	-5.0583	-4.1687	-4.5208	-4.9354	-4.1646	-4.8417	-4.4958	-4.1229	-5.2354	-4.3625	-4.6146	-4.8688	-4.0146	-4.975	-11.388	219.817	4.491	287.986	57.791	20.732	-0.031	288.536	180.802	-11.439	308.970	235.920	214.722	21.826	126.276	243.215	0.0003437	0.00049166	0.00015848	1492.4	4.9672e-06	5.9848e-06	1597.8	531.1	4.3658e-06	4.8259e-06	658.56	239.95	172.15	61.47	4.6886e-06	108.48	4.2688e-05	2.909e-05	7.9644e-06	1243.3	3.4222e-07	3.1536e-07	1331.1	440.62	3.5833e-07	3.2186e-07	532.93	195.83	139.43	49.617	3.4896e-07	86.442	191.247	28.076	-7.364	-25.963	79.392	123.613	-26.263	-21.927	109.386	80.613	-22.812	-18.784	-17.783	-13.482	82.972	-15.150	-8191	255	
44668.336	1	1	0	0	0.13768	0.26751	0.083979	0.13624	0.18439	0.069967	0.35331	0.098847	0.21935	0.13425	0.21814	0.19709	0.28657	0.11468	0.028528	0.068408	-4.2042	-4.0375	-4.8958	-4.3771	-4.2896	-4.8917	-4.2375	-4.7896	-4.7229	-3.9792	-5.1083	-4.525	-4.25	-5.1062	-4.1542	-4.8042	212.359	269.922	26.380	244.283	-37.079	77.790	278.523	63.763	293.721	1.919	283.791	244.221	266.620	211.644	59.576	285.464	0.00034654	0.00076369	0.00023594	1496.7	4.4081e-06	5.2442e-06	1603.9	534.53	5.5046e-06	3.9131e-06	669.07	241.11	172.91	61.553	3.1541e-06	110.07	4.2739e-05	2.8513e-05	8.354e-06	1249.5	3.4498e-07	3.1794e-07	1339	443.29	3.49e-07	3.2405e-07	538.6	197.54	140.11	49.774	3.486e-07	87.253	186.051	17.290	-10.956	-25.691	83.511	53.881	-26.340	-21.842	135.473	95.579	-22.904	-18.648	-17.661	-13.510	64.756	-15.073	-8191	255	
44668.430	1	1	0	0	0.28366	0.16014	0.085297	0.22046	0.233	0.14917	0.21571	0.31375	0.2145	0.21242	0.23564	0.092972	0.2467	0.062669	0.10106	0.22908	-4.6542	-3.925	-4.9396	-4.5083	-4.3708	-4.9979	-4.2438	-4.8167	-4.7271	-3.9958	-4.925	-4.7604	-4.2479	-5.175	-4.2271	-4.6854	77.475	7.422	111.309	278.607	146.551	259.477	291.991	263.902	236.197	27.049	277.264	108.387	289.131	31.286	188.895	191.338	0.00030318	0.00055787	0.00021076	1501.3	3.6301e-06	5.5953e-06	1610.1	539.2	3.1965e-06	4.4663e-06	671.83	243.84	175.39	62.481	3.8304e-06	110.74	4.2289e-05	3.1293e-05	8.5426e-06	1257.5	3.5199e-07	3.2778e-07	1348.5	446.27	3.4074e-07	3.1537e-07	541.53	199.11	141.7	50.391	3.4998e-07	88.297	190.520	12.742	15.445	-26.044	105.534	74.405	-26.108	-21.786	126.892	45.836	-23.241	-18.549	-17.660	-13.272	92.547	-15.211	-8191	255	
44668.523	1	1	0	0	0.089581	0.16619	0.17065	0.17625	0.23872	0.21581	0.18848	0.22186	0.087868	0.084274	0.19025	0.24502	0.13488	0.26924	0.078711	0.22889	-4.7083	-3.9667	-4.8792	-4.7625	-4.1896	-4.875	-4.3	-4.6708	-4.9354	-4.1583	-5.0125	-4.5708	-4.2312	-5.1792	-4.2417	-4.6104	-32.343	162.340	269.524	118.514	289.947	195.230	300.244	273.447	72.808	98.511	310.156	289.959	-1.484	-34.195	-12.976	260.312	0.00032191	0.00029393	0.00022625	1513.3	4.7278e-06	5.9106e-06	1627.9	543.63	2.9934e-06	6.023e-06	680.92	245.96	176.23	63.013	3.444e-06	111.55	4.0608e-05	3.0271e-05	8.5758e-06	1264.4	3.4579e-07	3.2378e-07	1361.5	448.78	3.5658e-07	3.3329e-07	547.17	201.46	142.21	50.811	3.4435e-07	88.805	195.773	9.249	2.450	-25.890	70.624	101.030	-26.114	-22.117	99.592	51.016	-22.877	-18.576	-17.777	-13.637	82.927	-14.969	-8191	255	
44668.621	1	1	0	0	0.12945	0.096063	0.16033	0.23431	0.036358	0.10688	0.16179	0.30808	0.024756	0.045828	0.26838	0.27963	0.2802	0.2953	0.14788	0.22402	-4.6854	-4.0708	-4.6958	-4.8979	-4.1333	-4.9333	-4.4938	-4.575	-5.0375	-3.9854	-4.6667	-5.125	-4.1896	-5.1729	-4.4396	-4.3979	154.863	33.448	143.354	274.265	191.807	194.015	302.712	264.576	174.442	251.792	217.516	308.961	274.729	-10.986	161.519	277.265	0.00027441	0.00061755	0.0001935	1502.8	6.2546e-06	4.8579e-06	1602.3	534.05	3.6192e-06	4.6435e-06	662.68	240.15	172.49	60.736	6.1274e-06	107.91	4.0444e-05	3.2213e-05	8.5242e-06	1258.9	3.5838e-07	3.2577e-07	1341.4	442.32	3.3871e-07	3.3216e-07	534.63	196.65	139.57	49.261	3.3761e-07	86.077	180.515	27.251	-11.245	-26.037	67.301	87.892	-25.985	-22.267	163.599	106.717	-23.148	-18.472	-17.866	-13.278	78.172	-15.338	-8191	255	
44668.742	1	1	0	0	0.05857	0.12651	0.077326	0.37136	0.20033	0.26663	0.1621	0.095572	0.055433	0.15495	0.36808	0.37454	0.15874	0.25499	0.13497	0.18659	-4.7854	-4.1813	-4.5896	-5.0792	-4.2208	-4.9938	-4.6667	-4.2812	-5.0771	-3.9688	-4.7562	-5.0813	-4.3271	-4.85	-4.5667	-4.2146	64.218	235.786	111.365	300.341	276.338	235.023	173.016	224.262	231.807	282.242	228.652	283.771	13.411	250.123	74.556	32.095	0.00031143	0.00043381	0.00018511	1480.9	3.743e-06	4.2847e-06	1602.2	530.79	3.084e-06	4.265e-06	657.77	238.29	170.41	60.785	4.1305e-06	107.87	4.1105e-05	3.0141e-05	8.3201e-06	1242.1	3.4902e-07	3.1782e-07	1332.7	439.74	3.5041e-07	3.3028e-07	533.32	195.34	138.54	49.121	3.313e-07	86.359	186.491	0.658	-13.102	-25.907	115.282	97.475	-26.417	-22.276	145.552	74.724	-23.432	-18.516	-18.116	-13.463	62.178	-15.052	-8191	255	
44668.840	1	1	0	0	0.11128	0.059635	0.076509	0.13904	0.22422	0.31597	0.077208	0.33232	0.19204	0.2103	0.18585	0.35282	0.18067	0.069958	0.17695	0.099357	-4.675	-4.3104	-4.4792	-5	-3.9417	-4.6542	-4.8292	-4.2312	-4.9146	-4.3938	-4.4896	-5.0458	-4.275	-4.7646	-4.5646	-4.3146	201.406	308.844	51.887	294.680	68.280	-10.992	241.652	233.249	266.371	98.954	289.427	280.489	-10.767	128.258	155.763	266.860	0.00028864	0.00034625	0.00020765	1494.5	7.6113e-06	5.0596e-06	1599.8	531.99	7.649e-06	7.125e-06	665.12	241.76	173.08	61.354	4.6735e-06	109.43	4.0343e-05	2.9312e-05	8.2324e-06	1251.8	3.4555e-07	3.0708e-07	1338.9	441.58	3.4506e-07	3.2725e-07	536.88	197.21	139.56	49.495	3.4145e-07	86.873	195.985	12.701	5.262	-25.676	96.154	124.779	-26.295	-22.105	85.143	58.547	-23.168	-18.765	-18.023	-13.890	68.783	-15.318	-8191	255	
44668.934	1	1	0	0	0.16182	0.16625	0.080764	0.24098	0.29416	0.14255	0.1584	0.29701	0.19135	0.094757	0.22472	0.34342	0.20508	0.40843	0.075289	0.1838	-4.7521	-4.2292	-4.2167	-4.9792	-4.0417	-4.65	-5.0458	-4.0687	-4.8646	-4.4062	-4.4104	-5.2104	-4.2208	-4.8146	-4.8271	-4.225	164.126	116.086	31.232	304.223	-15.556	49.992	298.518	207.398	258.217	114.318	226.761	311.143	203.660	249.063	289.028	-33.357	0.00031741	0.00058329	0.00018667	1506.3	5.8025e-06	5.0856e-06	1606.6	535.84	8.0596e-06	4.7652e-06	670.03	243.27	172.69	62.022	3.5227e-06	110.46	4.1014e-05	2.9459e-05	8.1376e-06	1256.3	3.7068e-07	3.1932e-07	1344.4	444	3.3205e-07	3.1786e-07	540.26	198.98	140.15	49.947	3.3645e-07	87.775	199.404	36.939	15.958	-25.637	83.697	77.346	-26.064	-22.108	115.837	79.890	-23.441	-18.590	-17.708	-13.791	70.513	-15.299	-8191	255	
44669.031	1	1	0	0	0.10991	0.22599	0.15998	0.29224	0.039689	0.21797	0.065904	0.2903	0.1814	0.20013	0.29769	0.23599	0.1458	0.20323	0.0732	0.30829	-4.5396	-4.4	-4.2354	-5.2125	-4.1708	-4.4479	-5.0125	-4.0938	-4.7667	-4.5938	-4.2042	-5.0917	-4.2958	-4.5667	-4.8292	-4.1646	81.205	93.162	-0.024	285.690	-37.048	38.764	207.420	243.185	43.963	21.620	281.684	270.837	315.659	-27.268	159.127	233.041	0.00034368	0.00053677	0.00018431	1503.5	5.3713e-06	5.5658e-06	1631.8	536.77	3.7457e-06	7.4784e-06	672.56	245.72	174.16	62.172	4.6609e-06	111.33	4.2145e-05	3.04e-05	8.1797e-06	1261.4	3.5423e-07	3.1242e-07	1360	446.7	3.6049e-07	3.2519e-07	543.75	200.66	141.52	50.46	3.352e-07	88.71	188.468	14.938	9.963	-25.976	94.992	98.812	-26.229	-22.010	134.855	73.810	-23.185	-18.673	-17.891	-13.636	107.291	-15.227	-8191	255	
44669.125	1	1	0	0	0.32141	0.12784	0.14772	0.18954	0.044932	0.14168	0.21575	0.14067	0.20465	0.08332	0.13633	0.16769	0.21229	0.3089	0.040824	0.25714	-4.5917	-4.6562	-4.0021	-5.1604	-4.3042	-4.3667	-5.2042	-4.3271	-4.6708	-4.7833	-4.1896	-5.0104	-4.5208	-4.2625	-4.8292	-4.2479	-3.938	100.075	221.474	-25.434	-10.041	311.274	289.793	212.887	184.446	184.780	257.372	234.432	262.573	293.468	269.080	231.509	0.00030982	0.00040045	0.00017673	1496	6.3075e-06	5.5813e-06	1608.5	534.7	4.908e-06	5.1981e-06	660.42	241.13	172.11	61.144	4.1451e-06	108.47	4.208e-05	2.8857e-05	8.3198e-06	1258.6	3.5256e-07	3.2058e-07	1346	442.03	3.4074e-07	3.2284e-07	534.13	196.51	139.17	49.34	3.2019e-07	86.688	199.163	18.526	17.203	-25.829	74.418	113.201	-25.788	-22.147	132.368	40.980	-23.178	-18.272	-17.788	-13.579	85.537	-14.952	-8191	255	
44669.223	1	1	0	0	0.073672	0.22475	0.15017	0.24317	0.14073	0.17463	0.15648	0.35296	0.14675	0.020275	0.11903	0.11283	0.049971	0.15212	0.20866	0.2317	-4.1729	-4.8104	-4.0542	-4.9771	-4.3667	-4.1958	-5.1354	-4.2562	-4.45	-4.9125	-4.1833	-4.9729	-4.6021	-4.1167	-5.0896	-4.4375	237.650	61.935	296.181	-35.883	271.346	59.216	-11.232	261.096	234.745	280.073	-23.923	-1.221	-1.815	295.268	152.405	264.944	0.00030716	0.00066878	0.00016592	1499.2	3.9026e-06	4.9536e-06	1601.5	528.47	4.3685e-06	7.0291e-06	655.87	239.86	172.89	60.671	3.5571e-06	108.49	4.034e-05	2.957e-05	8.2565e-06	1247.1	3.3461e-07	3.1798e-07	1335.1	438.27	3.3682e-07	3.1099e-07	531.72	196.68	139.07	49.097	3.1933e-07	86.633	201.161	24.453	38.968	-26.017	105.912	101.232	-26.154	-22.051	119.722	87.426	-22.763	-18.983	-17.486	-13.587	67.071	-14.923	-8191	255	
44669.320	1	1	0	0	0.16833	0.061971	0.18454	0.24982	0.11622	0.093745	0.25975	0.19777	0.17387	0.12479	0.2744	0.20843	0.25107	0.25917	0.12698	0.19161	-4.125	-4.8771	-4.075	-4.9542	-4.6292	-4.0708	-5.1958	-4.3688	-4.4833	-4.9917	-4.2188	-4.9667	-4.7937	-4.1833	-4.9479	-4.5292	187.139	205.257	295.311	273.559	297.403	56.505	247.170	236.227	114.303	289.080	269.454	265.693	275.256	285.418	31.645	301.170	0.00024132	0.00047305	0.00017137	1493.3	8.4936e-06	3.9171e-06	1599.5	532.44	2.4843e-06	3.441e-06	660.77	241.28	172.69	61.11	5.3409e-06	109.95	4.1812e-05	2.8758e-05	8.4237e-06	1250.8	3.2931e-07	3.1482e-07	1341	440.59	3.3309e-07	3.1548e-07	534.58	196.85	139.22	49.295	3.2857e-07	87.45	196.504	31.660	7.113	-26.024	61.178	102.745	-25.852	-21.925	119.492	80.873	-22.942	-18.600	-17.496	-14.131	103.481	-14.932	-8191	255	
44669.414	1	1	0	0	0.14667	0.07701	0.047492	0.37825	0.11771	0.15024	0.31072	0.12607	0.064607	0.051191	0.12521	0.1107	0.28137	0.20508	0.14888	0.14886	-4.0771	-5.0437	-4.0542	-4.7917	-4.8917	-4.0792	-5.0646	-4.3521	-4.225	-5	-4.2042	-4.8229	-4.9833	-4.15	-4.7417	-4.5479	116.263	12.499	3.293	-33.990	111.311	186.510	-29.376	301.929	98.597	246.217	256.576	-8.498	299.616	271.997	196.180	223.365	0.00027296	0.00058727	0.00020083	1497	3.6785e-06	3.9463e-06	1611.3	532.94	5.7586e-06	7.2055e-06	669.63	243.52	172.99	62.116	2.8526e-06	111.07	4.0917e-05	2.8291e-05	8.2938e-06	1251.4	3.4616e-07	3.1444e-07	1350.1	442.28	3.5246e-07	3.0308e-07	539.99	198.88	140.22	49.973	3.3276e-07	88.583	196.861	47.655	12.657	-25.771	93.953	122.035	-26.445	-22.169	90.415	59.349	-23.201	-18.534	-17.681	-14.019	55.506	-15.074	-8191	255	
44669.535	1	1	0	0	0.3711	0.14115	0.084773	0.31265	0.25709	0.16307	0.27187	0.33412	0.19276	0.086108	0.1426	0.12203	0.097963	0.24891	0.092258	0.011217	-3.9396	-4.8729	-4.1458	-4.5437	-4.9	-4.0833	-5.0167	-4.7792	-4.1021	-4.8854	-4.3375	-4.5458	-5.0271	-4.0979	-4.9292	-4.9417	192.083	76.347	183.443	286.188	313.770	174.505	249.743	304.059	236.502	13.544	225.413	257.295	-1.264	120.122	254.834	284.070	0.0002613	0.00050248	0.0002806	1503.8	5.4827e-06	4.3839e-06	1630	536.77	4.3998e-06	7.058e-06	673.53	246.34	174.97	62.795	6.0398e-06	111.9	4.1498e-05	2.8382e-05	8.6955e-06	1261.9	3.2839e-07	3.1856e-07	1363.4	445.73	3.5173e-07	3.2154e-07	544.19	201.22	141.41	50.55	3.3937e-07	89.321	198.254	20.318	-7.842	-25.910	71.178	64.054	-25.899	-21.731	104.979	55.403	-23.261	-18.707	-17.522	-13.535	85.783	-14.883	-8191	255	
44669.629	1	1	0	0	0.23452	0.10195	0.18764	0.12454	0.066048	0.042804	0.24579	0.2977	0.080184	0.21471	0.14018	0.26457	0.19109	0.076385	0.17905	0.17276	-3.8104	-5.1208	-4.1917	-4.4333	-4.8958	-4.0083	-5.0542	-4.9187	-3.9667	-5	-4.5437	-4.1625	-5	-4.0167	-4.6188	-4.9146	239.012	61.574	245.745	208.471	7.040	-14.504	252.473	259.580	155.561	196.797	30.084	257.020	-13.219	9.947	43.605	252.988	0.00028523	0.00050445	0.00025655	1503.6	4.9436e-06	4.6746e-06	1612.4	532.82	4.0244e-06	4.9632e-06	658.65	240.53	171.08	60.641	5.2378e-06	109	4.2772e-05	2.8987e-05	8.3823e-06	1259.2	3.4846e-07	3.1389e-07	1347.2	441.16	3.4378e-07	3.0884e-07	534.62	196.61	138.76	48.964	3.1787e-07	86.775	196.090	5.119	23.727	-25.949	81.626	81.338	-26.159	-21.835	140.265	70.503	-23.058	-18.517	-17.594	-13.950	112.952	-15.127	-8191	255	
44669.703	1	1	0	0	0.17029	0.28778	0.13907	0.18	0.18693	0.13961	0.16964	0.2263	0.12999	0.032687	0.079959	0.1008	0.081407	0.05803	0.22172	0.088446	-3.675	-5.0021	-4.3958	-4.4083	-5.0271	-4.15	-4.7625	-4.925	-3.9333	-4.9313	-4.8938	-4.2458	-4.9938	-4.2958	-4.5	-4.9917	110.682	316.556	307.700	256.778	156.820	31.855	290.964	296.984	6.724	302.214	286.517	275.812	310.395	250.130	-37.311	293.874	0.00028997	0.00045299	0.00022682	1478.1	3.9961e-06	4.9861e-06	1602	525.69	2.8858e-06	7.1498e-06	659.14	240.4	172.38	61.024	1.9834e-06	108.88	4.1442e-05	2.7643e-05	8.1643e-06	1239.5	3.2554e-07	3.1751e-07	1334.6	437.44	3.3924e-07	3.0725e-07	532.92	196.28	138.47	49.009	3.1319e-07	86.828	179.341	-1.737	22.084	-25.729	82.809	120.020	-26.223	-21.691	125.850	67.579	-22.982	-18.785	-17.965	-13.603	72.934	-15.041	-8191	255	
44669.820	1	1	0	0	0.10452	0.27578	0.21588	0.42328	0.10926	0.15917	0.32384	0.19365	0.10299	0.20681	0.1746	0.13002	0.1411	0.14417	0.23382	0.093189	-3.725	-4.8167	-4.5396	-4.1917	-5.0521	-4.3	-4.5042	-5.2125	-3.9604	-4.8708	-4.9125	-4.1292	-5.0396	-4.4021	-4.2354	-5.1625	236.335	167.484	30.980	290.514	123.302	40.216	257.691	-19.683	280.756	175.712	45.494	291.154	255.684	58.644	7.638	287.740	0.00025258	0.00071711	0.00023761	1483.3	5.6087e-06	6.2891e-06	1606.1	528.12	2.6811e-06	6.5331e-06	657.88	241.06	171.03	60.983	5.4511e-06	109.5	4e-05	2.8879e-05	8.4933e-06	1245.3	3.2481e-07	3.2318e-07	1342.5	438.83	3.5819e-07	3.1262e-07	532.94	196.54	138.37	49.2	3.3744e-07	87.138	190.440	13.778	6.405	-26.161	77.750	97.967	-26.278	-21.818	90.083	67.441	-22.777	-18.935	-17.854	-13.817	66.064	-14.824	-8191	255	
44669.918	1	1	0	0	0.15622	0.064794	0.056377	0.18337	0.096834	0.26509	0.46666	0.22458	0.14684	0.17224	0.29532	0.17042	0.1145	0.059378	0.098238	0.086679	-3.8667	-4.5875	-4.7771	-4.2292	-4.9542	-4.4354	-4.5354	-5.1396	-4.1604	-4.6521	-5.0042	-4.0813	-4.9479	-4.6062	-4.1312	-5.0292	179.048	144.524	180.747	292.873	129.477	187.694	230.535	274.952	212.521	215.009	290.848	-29.642	315.836	246.655	163.708	23.356	0.00026512	0.00041014	0.00027966	1498.3	5.5328e-06	5.5951e-06	1617.5	533.16	3.4392e-06	6.1215e-06	664.79	243.55	171.31	61.404	4.013e-06	111.38	4.0876e-05	2.9113e-05	7.5442e-06	1250.1	3.2665e-07	3.1736e-07	1349.7	441.65	3.4139e-07	3.3792e-07	538.15	198.69	138.99	49.608	3.3004e-07	88.681	190.458	20.989	7.104	-26.094	81.081	86.253	-25.995	-22.030	143.027	68.782	-23.224	-18.805	-18.002	-13.807	84.468	-15.127	-8191	255	
44670.016	1	1	0	0	0.061135	0.20579	0.07302	0.046474	0.17304	0.1368	0.16291	0.30289	0.038672	0.063484	0.13335	0.14585	0.19378	0.18691	0.13174	0.039704	-3.9396	-4.3	-4.9604	-4.2396	-4.8167	-4.4437	-4.2333	-5.0875	-4.2646	-4.5292	-4.9437	-4.1521	-4.9167	-4.8187	-3.9625	-5.2	134.040	32.781	17.210	307.868	-29.008	121.396	261.596	262.440	220.498	83.338	318.577	176.533	318.471	268.877	241.696	252.780	0.00028924	0.00043909	0.00012256	1505.1	4.9078e-06	4.0607e-06	1633.6	534.91	4.6439e-06	5.2254e-06	668.03	245.31	173.41	62.265	1.4809e-06	112	4.1592e-05	2.9659e-05	8.1989e-06	1259.9	3.2298e-07	3.1629e-07	1360.3	443.43	3.4222e-07	3.0857e-07	541.95	200.31	140.23	50.053	3.2861e-07	89.243	196.743	14.058	63.509	-25.772	77.291	130.234	-26.017	-22.070	117.341	69.182	-22.762	-18.815	-17.692	-13.565	90.713	-15.127	-8191	255	
44670.137	1	1	0	0	0.08869	0.15937	0.25825	0.34148	0.11833	0.12679	0.25657	0.18433	0.068027	0.13882	0.17011	0.26383	0.12514	0.24083	0.21958	0.19507	-4.0458	-4.3042	-4.8229	-4.1396	-4.6417	-4.8458	-4.325	-5.2021	-4.2208	-4.1625	-5.2271	-4.2688	-4.7208	-4.9146	-3.9417	-5.0792	82.112	153.498	268.522	317.326	-9.759	282.500	235.053	298.571	30.442	280.901	279.826	246.402	260.236	285.168	40.540	243.017	0.00029281	0.00028925	0.00029954	1499.5	3.4052e-06	3.7145e-06	1607.7	530.31	4.1513e-06	5.4849e-06	661.07	241.81	170.71	60.26	4.1551e-06	108.62	4.205e-05	2.9624e-05	7.7995e-06	1257.7	3.4044e-07	3.0217e-07	1347.1	439.84	3.4141e-07	3.0401e-07	533.58	197.09	138.1	48.919	3.268e-07	86.833	191.019	22.843	-9.190	-25.726	104.130	80.516	-26.043	-22.013	98.901	84.375	-22.978	-18.623	-17.916	-13.884	39.030	-14.807	-8191	255	
44670.230	1	1	0	0	0.089372	0.22795	0.17848	0.35533	0.066515	0.074912	0.014717	0.29444	0.1208	0.11844	0.042318	0.066531	0.20853	0.30276	0.15641	0.23482	-4.0729	-4.0188	-4.8604	-4.2937	-4.4542	-4.7438	-4.1646	-4.8917	-4.5958	-4.1896	-5.0417	-4.3187	-4.5604	-4.8625	-4.0854	-4.9104	-38.077	-33.276	303.302	273.420	133.119	23.024	184.364	262.506	79.380	57.745	277.654	298.110	-27.039	-34.338	229.212	248.973	0.0002804	0.00056373	0.0002137	1477	5.7069e-06	4.8933e-06	1589.2	526.43	3.9164e-06	6.6498e-06	655.77	240.43	169.44	60.609	3.7082e-06	108.48	4.0892e-05	2.9444e-05	8.0171e-06	1235.5	3.4307e-07	3.1835e-07	1334.5	435.06	3.4915e-07	3.164e-07	531.67	195.92	137.2	48.728	3.2714e-07	86.731	198.549	-16.179	7.504	-25.964	120.755	108.411	-26.531	-21.983	115.618	91.820	-23.356	-18.847	-18.147	-13.655	76.378	-15.143	-8191	255	
44670.305	1	1	0	0	0.2655	0.076062	0.052087	0.21493	0.097554	0.16682	0.39488	0.33709	0.14292	0.057541	0.19537	0.18918	0.34384	0.010886	0.25231	0.10669	-4.2083	-4.0271	-5.075	-4.3583	-4.3708	-4.8562	-4.0958	-4.8833	-4.5604	-4.0625	-5.1375	-4.3792	-4.3833	-4.9208	-3.9688	-4.8375	219.626	208.604	150.115	-36.964	202.446	195.180	253.301	274.521	127.449	101.547	178.198	268.573	312.287	34.441	204.348	272.558	0.00029677	0.00043195	0.00020814	1488.2	7.81e-06	3.8124e-06	1609.1	528.58	6.5359e-06	4.1463e-06	660.58	241.64	170.9	60.864	4.6107e-06	111.58	4.0852e-05	2.8557e-05	8.1586e-06	1241	3.5581e-07	3.2629e-07	1343.8	437.06	3.2433e-07	3.1571e-07	534.96	197.85	138.13	49.145	3.4514e-07	88.164	198.323	28.042	-8.046	-26.046	101.884	105.942	-25.941	-22.095	108.104	79.009	-22.720	-18.764	-17.964	-13.408	85.180	-14.917	-8191	255	
44670.398	1	1	0	0	0.12587	0.21354	0.059099	0.16565	0.21519	0.10437	0.12637	0.25022	0.039126	0.13483	0.049235	0.32273	0.24826	0.10605	0.18223	0.11186	-4.4292	-3.9042	-4.8479	-4.4771	-4.2396	-5.0792	-4.0979	-4.8917	-4.7688	-3.9833	-4.8729	-4.6042	-4.2917	-4.9708	-4.0625	-4.6521	180.424	19.252	89.887	318.251	243.384	36.822	-20.338	264.182	-5.613	168.050	282.227	285.062	313.211	3.180	305.211	264.460	0.00028012	0.00033158	0.00018404	1497.1	4.4606e-06	5.9701e-06	1625.3	533.24	3.5966e-06	5.4279e-06	668.28	244.47	172.38	61.774	4.831e-06	112.1	4.0388e-05	2.883e-05	7.8473e-06	1249.8	3.4485e-07	3.0737e-07	1355.8	441.94	3.3071e-07	3.2142e-07	541.18	200.18	139.77	50.012	3.3157e-07	89.409	199.216	-16.383	-6.329	-25.829	85.225	74.151	-26.172	-21.829	94.575	48.026	-23.210	-18.400	-18.088	-13.791	81.961	-14.976	-8191	255	
44670.520	1	1	0	0	0.15219	0.2305	0.2955	0.080432	0.12584	0.21945	0.2626	0.11536	0.21406	0.23415	0.24345	0.25044	0.36435	0.05209	0.19438	0.28554	-4.4021	-3.9896	-4.9313	-4.5042	-4.0958	-5.0917	-4.4958	-4.6458	-4.8854	-3.9146	-4.9771	-4.8313	-4.2646	-5.0354	-4.2562	-4.5062	214.981	206.385	247.692	173.015	209.908	-16.928	272.967	209.670	-27.890	36.974	237.624	259.498	292.199	268.590	142.803	262.144	0.00027211	0.00053928	0.00025942	1509.9	5.11e-06	6.4353e-06	1629.7	536.51	6.6144e-06	3.1632e-06	678.32	247.9	174.65	62.641	4.6364e-06	114.15	4.0616e-05	2.9741e-05	7.8838e-06	1261.8	3.458e-07	3.3519e-07	1365.9	444.98	3.5528e-07	3.2813e-07	548.36	202.89	141.77	50.616	3.5458e-07	90.807	202.827	29.848	10.290	-26.142	81.997	101.971	-26.087	-22.117	95.759	63.954	-22.619	-18.522	-17.600	-14.087	86.809	-14.836	-8191	255	
44670.613	1	1	0	0	0.042289	0.24321	0.0955	0.304	0.20531	0.18797	0.24893	0.10675	0.15127	0.19834	0.27554	0.05684	0.051894	0.2363	0.06263	0.08881	-4.6604	-3.9771	-4.6292	-4.9521	-3.9688	-4.7958	-4.5083	-4.4375	-4.8771	-4.2125	-4.7812	-4.9125	-4.1583	-5.0875	-4.4583	-4.4625	282.228	279.344	188.542	309.180	306.373	47.194	273.442	248.005	11.211	26.364	-26.657	-32.746	265.004	254.898	270.743	209.632	0.00029745	0.00061798	0.00020269	1513	3.3306e-06	6.254e-06	1625.6	534.05	5.3253e-06	4.9946e-06	670.11	245.84	172.79	61.805	4.7821e-06	111.96	4.1022e-05	2.9764e-05	8.1515e-06	1268.9	3.4683e-07	3.2648e-07	1364.2	443.56	3.3782e-07	3.3323e-07	542.76	200.71	139.78	49.883	3.4071e-07	88.855	199.199	-3.631	-11.287	-26.035	72.520	117.916	-26.196	-21.965	119.621	42.164	-23.183	-18.484	-18.178	-13.801	85.874	-14.867	-8191	255	
44670.711	1	1	0	0	0.16226	0.039371	0.096028	0.28897	0.23849	0.14336	0.19666	0.22294	0.054781	0.20409	0.34817	0.063187	0.22154	0.19565	0.096191	0.32887	-4.6583	-4.0687	-4.6458	-5.0375	-3.975	-4.7208	-4.6396	-4.5875	-5.0146	-4.2021	-4.7271	-5.1188	-4.1604	-5.0771	-4.525	-4.3958	166.533	165.236	116.870	308.734	209.499	170.171	-14.374	252.553	-18.464	18.652	243.096	196.995	-17.449	282.655	31.654	289.007	0.00031571	0.00040228	0.00020156	1499.7	1.412e-06	4.8568e-06	1622.1	530.51	4.2968e-06	4.5353e-06	669.45	245.19	174.26	61.913	4.9209e-06	112.82	4.2307e-05	3.0508e-05	8.0299e-06	1252.6	3.4144e-07	3.1783e-07	1356.4	440.24	3.3805e-07	3.3967e-07	541.63	200.9	140.45	49.987	3.4367e-07	89.726	195.255	-4.747	7.848	-25.650	77.450	72.580	-25.993	-22.009	63.142	62.370	-23.228	-18.522	-18.148	-13.842	57.198	-15.311	-8191	255	
44670.832	1	1	0	0	0.097379	0.11963	0.075989	0.34377	0.20256	0.097394	0.24694	0.26627	0.12368	0.10238	0.22675	0.16931	0.19033	0.16746	0.048685	0.28708	-4.6583	-4.3146	-4.5333	-5.0729	-4.1354	-4.8292	-5.0271	-4.2958	-5.0208	-4.3458	-4.5771	-4.9625	-4.1667	-4.7562	-4.6438	-4.1479	258.140	40.105	67.423	302.802	221.464	33.522	262.192	250.459	67.382	242.480	306.755	229.542	262.224	-36.495	207.900	312.396	0.00029701	0.0006912	0.00019593	1510	4.9396e-06	4.3258e-06	1639.1	536.75	2.975e-06	4.4758e-06	676.48	248.75	174.62	62.604	6.0963e-06	113.98	4.1559e-05	3.2713e-05	8.6552e-06	1262.9	3.553e-07	3.2767e-07	1371	445.12	3.652e-07	3.3969e-07	547.55	202.69	141.52	50.537	3.6667e-07	90.933	188.990	23.253	0.313	-25.585	65.962	75.598	-26.195	-22.074	135.661	76.589	-23.024	-18.608	-17.650	-14.079	84.016	-15.021	-8191	255	
44670.926	1	1	0	0	0.11951	0.094828	0.12366	0.24483	0.032311	0.029432	0.24762	0.27742	0.057022	0.23907	0.019452	0.13389	0.077385	0.10135	0.12006	0.1121	-4.5708	-4.4875	-4.4292	-5.1375	-3.95	-4.6479	-5.1083	-4.1979	-4.8875	-4.3896	-4.3104	-5.1708	-4.2333	-4.6771	-4.8125	-4.0458	104.483	-21.625	124.303	264.090	153.179	44.662	221.380	286.268	209.709	55.600	47.283	254.952	252.339	-33.443	56.580	190.292	0.00028955	0.00051734	0.00018747	1526.9	7.7974e-06	3.5951e-06	1662.6	546.11	5.4717e-06	6.301e-06	692.43	253.38	178.47	63.982	5.0565e-06	116.89	4.3426e-05	3.1195e-05	8.7282e-06	1276.2	3.7955e-07	3.4419e-07	1389.2	451.77	3.8373e-07	3.5623e-07	557.99	207.32	144.26	51.605	3.651e-07	92.763	196.369	31.104	-33.407	-25.961	95.897	69.134	-25.938	-22.355	118.398	63.623	-22.884	-18.558	-17.861	-13.939	96.498	-15.088	-8191	255	
44671.000	1	1	0	0	0.1423	0.09795	0.22978	0.25405	0.28964	0.16214	0.16151	0.23331	0.07821	0.054617	0.078839	0.16154	0.18097	0.083629	0.19172	0.059564	-4.6208	-4.4333	-4.1125	-5.3063	-4.2604	-4.3521	-5.0021	-4.3875	-4.7583	-4.6521	-4.175	-5.1937	-4.2167	-4.3812	-4.9208	-4.0833	120.437	39.454	220.891	267.526	78.905	168.229	270.209	235.556	191.387	157.757	263.810	204.046	319.463	9.186	58.234	267.571	0.00033158	0.00051535	0.00018885	1537	5.375e-06	7.0137e-06	1674	551.43	3.0022e-06	7.5689e-06	697.55	256.37	179.38	64.517	4.3296e-06	117.8	4.539e-05	3.1743e-05	9.3619e-06	1289.8	3.8771e-07	3.4804e-07	1404.2	457.34	3.6339e-07	3.6705e-07	564.38	210.48	145.36	52.167	3.6611e-07	93.867	196.641	19.329	3.264	-25.654	124.088	87.122	-26.019	-22.110	104.466	63.509	-22.596	-18.588	-17.974	-13.837	71.148	-14.900	-8191	255	
44671.094	1	1	0	0	0.2537	0.097397	0.17946	0.21312	0.23334	0.08992	0.46699	0.26692	0.079612	0.10412	0.21088	0.46949	0.19626	0.11498	0.14551	0.22372	-4.5667	-4.4958	-4.0354	-5.05	-4.1917	-4.4146	-5.0771	-4.0958	-4.6667	-4.7188	-4.1146	-5.1208	-4.4854	-4.3354	-5.0104	-4.2604	215.308	112.546	-30.513	310.558	281.306	78.546	245.864	287.745	53.044	306.917	276.231	284.357	5.110	291.690	-12.580	285.817	0.00031208	0.00041157	0.00023357	1523.8	6.3682e-06	4.8334e-06	1647.8	537.82	4.6258e-06	6.3911e-06	670.46	245.98	172.07	61.723	2.4849e-06	111.52	4.5104e-05	3.3241e-05	9.0595e-06	1276.4	3.7097e-07	3.5068e-07	1378.4	446.15	3.5384e-07	3.3845e-07	543.83	201.61	139.93	49.945	3.7064e-07	88.883	190.616	30.695	13.405	-26.083	41.195	97.072	-25.782	-22.013	124.191	47.947	-22.818	-18.648	-17.631	-14.170	52.289	-14.778	-8191	255	
44671.215	1	1	0	0	0.26411	0.18576	0.17699	0.20592	0.054255	0.12618	0.042439	0.45933	0.095572	0.19114	0.095448	0.24147	0.15425	0.27384	0.16533	0.080412	-4.35	-4.6521	-4.0958	-5.1208	-4.5396	-4.2333	-5.4125	-4.3729	-4.6	-4.8063	-4.1937	-5.0292	-4.525	-4.4104	-5.05	-4.2208	111.985	243.516	120.610	245.261	14.333	43.260	102.912	294.180	-30.876	163.555	211.899	234.423	64.149	-38.540	70.752	259.072	0.0002911	0.00036611	0.000149	1484	3.2597e-06	5.4013e-06	1605	525.97	2.3057e-06	5.6554e-06	656.4	240.68	171.48	60.423	5.903e-06	109.29	4.3478e-05	3.282e-05	8.9048e-06	1240.9	3.7413e-07	3.4086e-07	1341.9	435.97	3.5313e-07	3.4955e-07	533.62	196.98	138.29	48.916	3.5168e-07	87.332	191.955	38.483	26.177	-26.061	85.066	74.735	-25.667	-21.751	115.880	79.696	-23.411	-18.613	-17.687	-13.614	70.298	-14.838	-8191	255	
44671.309	1	1	0	0	0.12273	0.045955	0.30918	0.42858	0.10207	0.04452	0.30826	0.19079	0.14808	0.11165	0.31826	0.11076	0.33568	0.25599	0.17399	0.093978	-4.1479	-4.9479	-4.0146	-4.975	-4.5542	-4.1687	-5.1583	-4.3958	-4.375	-5.1208	-4.0125	-5.0167	-4.8667	-4.2042	-4.8667	-4.4479	65.852	172.549	274.664	311.056	52.489	57.175	270.622	215.189	15.232	28.515	304.959	215.556	-34.733	-38.480	74.693	245.844	0.00026865	0.00047652	0.00022462	1483.2	5.5365e-06	4.1035e-06	1603.4	524.83	2.6961e-06	4.0491e-06	662.33	240.28	170.77	60.797	7.2739e-06	109.7	4.3736e-05	3.2071e-05	9.2828e-06	1241.3	3.6449e-07	3.391e-07	1341.8	436.84	3.627e-07	3.4037e-07	535.06	197.6	138.19	49.093	3.6612e-07	87.551	184.919	34.463	-1.550	-25.918	109.416	105.078	-26.093	-21.948	120.105	71.591	-23.211	-18.873	-17.624	-13.916	81.040	-14.683	-8191	255	
44671.406	1	1	0	0	0.092628	0.23194	0.17779	0.40156	0.32275	0.088265	0.15746	0.12624	0.087222	0.31284	0.22142	0.21939	0.073806	0.13427	0.11446	0.090878	-4.0396	-5.0938	-4.0708	-4.6667	-4.6646	-3.9896	-5.0396	-4.5646	-4.1458	-4.9521	-4.3104	-4.7354	-4.7417	-4.1958	-4.8917	-4.6458	-31.925	124.864	111.008	300.998	36.876	28.826	224.571	248.603	30.026	-37.524	264.133	271.222	262.952	-35.225	311.679	124.625	0.00027237	0.00069853	0.0001769	1479	3.4911e-06	4.8867e-06	1605.9	528.18	3.4062e-06	6.3037e-06	665.77	243.54	171.66	61.077	3.5138e-06	111.32	4.3088e-05	3.182e-05	9.0042e-06	1239.4	3.7667e-07	3.4505e-07	1349.1	439.16	3.7096e-07	3.4546e-07	537.7	198.72	138.93	49.305	3.5908e-07	88.512	203.012	35.009	16.118	-25.876	104.029	118.590	-26.033	-22.067	118.403	77.212	-23.402	-18.746	-17.558	-13.918	88.186	-15.065	-8191	255	
44671.504	1	1	0	0	0.1595	0.11309	0.18468	0.19617	0.10052	0.086676	0.16979	0.22079	0.053252	0.090224	0.14662	0.2404	0.17731	0.34457	0.1432	0.34069	-3.9125	-5.1167	-4.0875	-4.7958	-4.7312	-4.0563	-5.1792	-4.5917	-4.1438	-4.95	-4.2792	-4.6146	-4.9625	-4.1625	-4.6646	-4.6667	223.797	173.570	118.257	304.807	-20.440	232.674	218.317	256.184	159.572	-2.086	206.106	-37.077	263.476	242.848	151.562	289.282	0.00027307	0.00029935	0.00022023	1506.2	6.3165e-06	6.1807e-06	1620.8	531.01	2.6619e-06	4.4963e-06	671.04	244.1	172.11	61.583	5.1954e-06	111.99	4.3222e-05	3.0226e-05	9.2877e-06	1252.9	3.7242e-07	3.4947e-07	1359.7	440.67	3.8176e-07	3.3581e-07	542.41	200.11	139.8	49.873	3.6164e-07	89.263	192.383	39.786	32.247	-25.883	44.438	94.850	-25.925	-21.632	127.767	87.632	-23.029	-18.743	-17.763	-13.303	84.370	-15.107	-8191	255	
44671.598	1	1	0	0	0.12434	0.14883	0.18947	0.39183	0.17107	0.068706	0.16025	0.24342	0.097385	0.16225	0.10099	0.21672	0.36451	0.23167	0.068272	0.069247	-3.5521	-4.8396	-4.3208	-4.4708	-4.6875	-3.9396	-4.95	-4.7104	-4.1333	-4.8417	-4.4187	-4.3208	-4.9792	-4.1375	-4.5646	-4.8333	-7.631	276.145	159.680	265.584	73.605	-25.277	200.152	246.342	219.998	30.152	190.936	289.277	-27.118	279.549	-12.786	-22.448	0.00027641	0.00031603	0.00034719	1498.4	3.938e-06	5.4247e-06	1618.8	526.49	6.1371e-06	7.5416e-06	659.08	240.05	169.18	60.353	3.8702e-06	108.18	4.3396e-05	3.0337e-05	9.328e-06	1250.4	3.6258e-07	3.5189e-07	1348.4	437.51	3.6431e-07	3.271e-07	532.53	195.67	137.06	48.586	3.5303e-07	85.877	182.605	25.304	22.673	-25.965	86.499	103.532	-26.037	-22.066	128.062	105.777	-22.888	-18.575	-17.867	-13.769	64.781	-15.071	-8191	255	
44671.695	1	1	0	0	0.19713	0.16003	0.28176	0.30837	0.054092	0.14077	0.068647	0.23813	0.085981	0.12968	0.011923	0.26557	0.034486	0.12418	0.077518	0.083315	-3.6083	-4.8521	-4.3562	-4.2146	-5.0604	-3.9083	-4.7646	-4.7792	-3.9396	-4.8021	-4.4729	-4.4437	-5.1833	-4.2854	-4.4792	-5.0625	263.770	193.923	201.910	278.055	263.113	36.077	307.712	-37.792	66.633	164.293	94.063	267.934	276.386	283.359	278.128	99.957	0.00031685	0.00062019	0.00012016	1461.6	4.9997e-06	2.8013e-06	1584.1	520.01	5.3931e-06	5.1694e-06	650.29	236.76	167.74	58.909	2.9312e-06	106.19	4.2317e-05	3.0806e-05	8.2147e-06	1225	3.5518e-07	3.2767e-07	1322.3	431.2	3.7627e-07	3.1952e-07	523.94	193.18	135.84	47.807	3.4367e-07	84.79	196.914	28.062	3.413	-25.938	118.257	164.341	-26.179	-21.821	107.267	42.011	-22.996	-18.726	-17.960	-13.653	67.964	-14.802	-8191	255	
44671.816	1	1	0	0	0.26737	0.13983	0.094665	0.2113	0.086222	0.19231	0.1391	0.20043	0.34925	0.046416	0.25247	0.11085	0.19561	0.30838	0.22961	0.13792	-3.7167	-4.7937	-4.4354	-4.3479	-4.9104	-4.2417	-4.7208	-5.0833	-3.8875	-4.8375	-4.7146	-4.2583	-4.9479	-4.3625	-4.3875	-4.975	83.700	-0.287	248.139	311.180	308.280	224.945	227.280	267.485	238.208	110.635	310.367	131.293	237.861	291.356	69.336	220.236	0.00032735	0.00037836	0.00019791	1473.7	5.3217e-06	7.2003e-06	1580.4	519.76	4.9917e-06	5.5633e-06	646.13	236.14	168.55	59.39	2.521e-06	106.62	4.2936e-05	3.091e-05	8.5897e-06	1230	3.4105e-07	3.5288e-07	1324.7	431.88	3.6845e-07	3.2774e-07	524.59	193.13	136.31	48.027	3.3386e-07	85.065	193.277	-3.051	20.276	-25.986	95.948	100.394	-26.169	-21.853	91.377	57.742	-23.123	-18.511	-17.390	-13.970	82.779	-14.942	-8191	255	
44671.910	1	1	0	0	0.13498	0.092006	0.20077	0.25423	0.19499	0.40886	0.31828	0.24821	0.20249	0.25275	0.37774	0.25362	0.073868	0.063626	0.048264	0.13481	-3.6562	-4.6479	-4.6396	-4.4083	-4.8396	-4.5229	-4.5271	-4.9771	-4.0312	-4.8313	-5.0625	-4.1333	-5.0083	-4.5292	-4.3	-5.1917	311.398	244.810	80.134	280.856	62.987	102.846	265.123	316.032	-21.748	314.273	259.373	234.730	225.798	17.179	181.771	279.903	0.00024648	0.00036366	0.00023602	1470.4	4.0457e-06	3.7667e-06	1594.4	525.9	4.5247e-06	7.2348e-06	654.42	236.81	169.23	59.551	2.9189e-06	108.04	4.2352e-05	2.9731e-05	8.4658e-06	1230	3.4405e-07	3.4252e-07	1331.7	434.63	3.5161e-07	3.4332e-07	528.63	194.37	137.1	48.255	3.2719e-07	86.104	194.130	14.693	24.808	-26.050	68.168	98.277	-26.018	-22.016	100.538	72.714	-22.971	-19.038	-18.013	-13.922	100.157	-15.038	-8191	255	
44672.008	1	1	0	0	0.065994	0.10314	0.077124	0.20677	0.15897	0.15644	0.1342	0.20983	0.076905	0.07346	0.19119	0.090019	0.27245	0.17111	0.088258	0.13189	-3.7354	-4.5833	-4.7312	-4.2083	-4.9771	-4.5208	-4.3833	-5.2333	-4.1562	-4.5646	-4.8792	-4.3104	-5.0229	-4.6083	-4.1604	-5.1396	280.159	116.268	-27.175	250.332	-31.926	316.872	276.991	297.378	116.293	262.092	254.784	-7.081	-0.484	253.848	187.321	224.772	0.00024473	0.00029708	0.00029603	1490.1	5.4361e-06	4.0992e-06	1597	525.34	6.2404e-06	3.6827e-06	662.44	240.36	170.87	60.335	4.7501e-06	108.35	4.1788e-05	2.9216e-05	8.5366e-06	1240.8	3.4939e-07	3.3967e-07	1340	437.31	3.6305e-07	3.2375e-07	535.48	196.79	138.16	48.959	3.455e-07	86.737	191.072	15.301	24.502	-25.869	86.087	105.061	-26.370	-22.062	100.406	73.375	-22.949	-18.724	-17.344	-13.758	48.729	-14.773	-8191	255	
44672.105	1	1	0	0	0.1498	0.17364	0.26501	0.14746	0.15709	0.15893	0.15907	0.42869	0.01231	0.053504	0.14205	0.13192	0.081498	0.12658	0.09158	0.29264	-3.8583	-4.3458	-4.9625	-4.1958	-4.7125	-4.7438	-4.2354	-5.0042	-4.3583	-4.2146	-4.7708	-4.0833	-4.7604	-4.75	-4.0625	-5.0542	239.594	8.274	141.226	211.871	259.433	115.336	212.538	250.876	72.119	144.420	-24.369	43.507	28.171	285.784	22.270	272.241	0.00026785	0.00063699	0.00019265	1484.6	4.6318e-06	5.8813e-06	1602.4	523.8	3.9967e-06	6.838e-06	653.49	235.95	168.06	58.85	5.2455e-06	105.7	4.2449e-05	3.029e-05	8.5088e-06	1244.1	3.4784e-07	3.3197e-07	1335.7	435.22	3.6194e-07	3.3375e-07	527.32	192.66	136.38	47.725	3.4489e-07	84.379	197.522	2.905	-2.826	-26.073	81.853	84.828	-26.375	-21.845	103.210	55.674	-22.869	-18.904	-18.123	-13.944	47.887	-14.967	-8191	255	
44672.223	1	1	0	0	0.19566	0.21083	0.08859	0.31048	0.18595	0.11956	0.083754	0.24719	0.22495	0.10605	0.15565	0.16448	0.14698	0.20232	0.27326	0.16438	-3.9542	-4.0979	-4.8458	-4.2083	-4.5437	-4.7021	-4.2729	-5.0375	-4.2	-4.0813	-5.1021	-4.1438	-4.6937	-4.8292	-4.0042	-5.0167	289.613	313.066	311.699	300.517	35.651	115.949	137.232	267.096	42.428	107.008	260.131	284.638	-34.778	-33.086	-37.485	-30.452	0.00024811	0.00019139	0.00017874	1473.3	4.5103e-06	2.6888e-06	1566.3	516.39	5.0794e-06	7.2462e-06	641.11	233.71	166.84	59.102	4.0458e-06	104.79	4.0795e-05	3.1271e-05	8.0777e-06	1226.7	3.5227e-07	3.3021e-07	1314.2	429.97	3.7118e-07	3.2465e-07	520.84	191.3	135.17	47.567	3.4927e-07	83.658	194.281	14.981	14.853	-25.918	70.499	77.795	-26.142	-21.981	132.790	82.836	-23.170	-18.755	-18.239	-13.934	81.806	-15.349	-8191	255	
44672.297	1	1	0	0	0.10735	0.26227	0.17428	0.27366	0.1258	0.10762	0.27936	0.18153	0.19649	0.18858	0.15099	0.046461	0.10781	0.033876	0.19069	0.085694	-4.05	-4.0854	-4.9875	-4.4313	-4.5146	-4.8896	-4.0646	-4.9521	-4.6312	-4.1146	-5.1354	-4.1937	-4.5167	-5.0521	-3.9125	-4.8542	33.241	40.759	117.224	191.920	132.186	-21.809	248.211	14.617	1.218	216.928	314.561	273.951	35.240	177.354	156.284	318.710	0.00027499	0.00073857	0.00021655	1458.7	7.152e-06	3.2465e-06	1573.8	521.87	4.6468e-06	5.3774e-06	645.53	234.9	169.45	59.083	4.2657e-06	105.87	4.1058e-05	3.0657e-05	8.0958e-06	1225	3.4084e-07	3.2295e-07	1316.5	432.17	3.4129e-07	3.2416e-07	523.41	192.1	136.11	47.711	3.463e-07	84.253	195.193	-5.131	4.510	-26.085	88.792	131.775	-26.343	-22.040	122.313	67.168	-23.227	-18.738	-18.098	-13.788	102.938	-14.828	-8191	255	
44672.391	1	1	0	0	0.090288	0.1042	0.17762	0.35934	0.20971	0.096351	0.28387	0.26592	0.11644	0.042987	0.10428	0.17476	0.18585	0.17786	0.28776	0.063106	-4.3333	-3.9729	-5.1	-4.4354	-4.2063	-4.9229	-4.3042	-4.7917	-4.7583	-4.0188	-5.1021	-4.5083	-4.3604	-4.9625	-4.1479	-4.8	316.173	67.288	241.792	280.396	164.333	99.362	239.484	288.248	-14.595	51.040	-10.565	238.492	307.124	-17.286	42.733	287.940	0.00031303	0.00050406	0.00023147	1464.5	5.0386e-06	6.8804e-06	1577.7	519.49	3.7457e-06	4.8672e-06	649.26	237	169.04	59.307	3.3932e-06	106.56	4.0457e-05	3.0142e-05	7.6225e-06	1227.5	3.2839e-07	3.218e-07	1322.4	431.76	3.4335e-07	3.3801e-07	527.22	193.57	136.71	47.916	3.3896e-07	84.998	198.044	22.671	7.314	-26.023	116.785	86.691	-25.776	-22.000	129.059	101.738	-22.741	-18.761	-17.692	-13.567	81.136	-15.078	-8191	255	
44672.484	1	1	0	0	0.092092	0.084102	0.38685	0.13249	0.042064	0.1554	0.35215	0.25181	0.22312	0.25874	0.25865	0.312	0.20666	0.20306	0.14034	0.23894	-4.4125	-3.9021	-4.8458	-4.5875	-4.1	-5.0208	-4.3854	-4.7833	-4.8125	-4.0563	-5.0167	-4.7188	-4.15	-5.1625	-4.1396	-4.7521	147.782	81.580	302.315	-17.457	-28.088	223.560	237.653	262.972	139.752	319.535	247.840	-36.946	303.840	276.218	271.444	269.809	0.00034542	0.00041213	0.00018483	1481.4	4.7386e-06	6.139e-06	1592.7	526.31	5.1558e-06	5.2064e-06	658.02	238.27	170.37	59.969	6.524e-06	107.39	4.1455e-05	3.0872e-05	8.1112e-06	1239	3.5232e-07	3.3291e-07	1334.3	436.07	3.4326e-07	3.3141e-07	530.58	195.54	137.71	48.528	3.4275e-07	85.881	206.613	16.675	15.698	-25.969	89.159	70.130	-25.831	-22.178	111.652	100.817	-23.108	-18.702	-17.853	-13.770	60.148	-15.002	-8191	255	
44672.605	1	1	0	0	0.041729	0.077592	0.16438	0.079747	0.10885	0.1295	0.048982	0.15036	0.10839	0.15931	0.19449	0.11179	0.17227	0.24574	0.073263	0.24156	-4.5833	-4.1479	-4.7188	-4.6667	-4.0021	-4.9688	-4.6708	-4.6604	-5.0813	-3.9542	-5.0792	-4.8708	-4.1667	-5.0813	-4.2875	-4.3396	68.471	169.394	154.528	231.289	-14.136	72.045	169.407	292.161	317.446	219.163	269.917	-0.226	189.799	283.178	254.701	295.952	0.00032654	0.00047334	0.0002447	1482.9	7.4296e-06	6.5165e-06	1597.4	523.53	3.7137e-06	4.3175e-06	646.72	234.7	168.88	59	3.7208e-06	105.38	4.19e-05	3.0405e-05	8.2701e-06	1242.7	3.5809e-07	3.188e-07	1332.6	433.88	3.3877e-07	3.2934e-07	524.07	192.17	135.96	47.572	3.3756e-07	83.777	196.364	42.142	10.874	-25.822	103.665	118.625	-26.223	-22.180	115.947	85.598	-23.350	-18.408	-17.490	-13.827	75.775	-15.040	-8191	255	
44672.703	1	1	0	0	0.19225	0.068433	0.058707	0.10579	0.11127	0.14175	0.18351	0.19804	0.071733	0.20926	0.37152	0.20178	0.038763	0.18262	0.10516	0.1567	-4.6583	-4.0521	-4.7438	-4.9229	-4.0375	-4.9062	-4.5083	-4.4688	-4.9833	-4.1	-4.8083	-4.9646	-3.9667	-4.9187	-4.4	-4.3208	279.939	232.536	54.490	300.924	157.048	18.695	232.184	295.863	31.996	255.975	239.774	276.458	232.677	251.185	54.908	-33.670	0.00029838	0.00044523	0.00024162	1454.5	6.1099e-06	5.5514e-06	1562	517.17	5.471e-06	8.2089e-06	641.42	232.55	167.91	58.525	6.8128e-06	104.55	3.8955e-05	2.955e-05	8.1225e-06	1220	3.598e-07	3.1522e-07	1307.5	428.44	3.3942e-07	3.1881e-07	518.29	190.47	134.95	47.18	3.3713e-07	83.271	196.080	28.502	21.462	-25.945	109.535	99.587	-25.926	-22.234	97.816	64.211	-23.085	-18.772	-18.164	-13.488	58.982	-15.153	-8191	255	
44672.801	1	1	0	0	0.09209	0.15521	0.34723	0.089702	0.23026	0.019704	0.17706	0.29106	0.16704	0.042414	0.089593	0.16828	0.34776	0.25594	0.19744	0.24887	-4.6167	-4.2042	-4.4625	-5.1583	-3.9437	-4.8292	-4.8583	-4.1438	-5.0062	-4.1312	-4.5896	-5.1687	-4.2188	-4.8167	-4.6312	-4.2167	277.239	302.489	161.951	237.344	149.047	121.210	21.966	237.322	298.695	18.151	276.633	318.849	310.305	-17.224	109.177	284.181	0.00026128	0.00040917	0.00017588	1454.3	2.9539e-06	6.9697e-06	1572.3	519.05	6.5536e-06	6.1136e-06	648.63	233.17	166.34	58.432	4.6085e-06	105.75	4.1336e-05	2.9934e-05	8.2215e-06	1222	3.4544e-07	3.0338e-07	1316.3	429.76	3.369e-07	3.1633e-07	522.44	191.14	134.99	47.306	3.4208e-07	83.937	197.756	26.271	20.551	-25.968	121.692	83.350	-26.209	-22.207	99.108	25.340	-23.256	-18.507	-18.103	-13.998	66.955	-15.164	-8191	255	
44672.895	1	1	0	0	0.16109	0.12352	0.15631	0.14101	0.10736	0.26535	0.25582	0.030421	0.17378	0.21121	0.13701	0.31695	0.28462	0.18114	0.18553	0.18054	-4.5563	-4.2	-4.2354	-5.1438	-4.0292	-4.5583	-4.9271	-4.1667	-5.075	-4.3083	-4.3938	-5.0563	-4.2646	-4.7271	-4.8479	-4.1562	161.123	148.853	94.298	21.790	19.963	275.805	223.498	290.977	266.646	36.263	294.709	316.671	294.078	217.533	32.027	173.583	0.0002572	0.00035872	0.00023944	1468.7	3.7202e-06	6.6673e-06	1576.3	517.97	3.4328e-06	6.4335e-06	643.27	235.23	166.86	58.629	4.8059e-06	106.31	4.0117e-05	2.9613e-05	8.0758e-06	1227.9	3.5276e-07	3.1742e-07	1319	429.9	3.4857e-07	3.1397e-07	523.37	192.58	135.36	47.561	3.3824e-07	84.556	206.358	11.486	8.116	-26.036	112.935	103.019	-26.351	-22.028	123.209	70.864	-23.118	-18.497	-17.796	-13.765	69.187	-14.896	-8191	255	
44672.992	1	1	0	0	0.20333	0.15386	0.053371	0.35668	0.036563	0.12915	0.252	0.084815	0.1048	0.055835	0.19495	0.16669	0.30891	0.24796	0.082958	0.11134	-4.6979	-4.3479	-4.2583	-5.1542	-4.1521	-4.8187	-4.9542	-4.175	-4.8375	-4.3187	-4.2583	-5.2104	-3.9729	-4.5938	-4.8708	-4.0687	219.487	231.531	260.081	253.917	299.554	312.392	253.699	277.354	268.761	276.428	243.850	248.167	291.567	312.570	55.173	175.125	0.00027985	0.00048641	0.00025121	1462.2	5.2889e-06	5.4405e-06	1585.8	521.31	1.9205e-06	6.3052e-06	650.79	237.17	168.76	59.252	4.3183e-06	107.11	4.0004e-05	2.9603e-05	8.7821e-06	1228.3	3.431e-07	3.1008e-07	1329.5	433.07	3.3445e-07	3.3428e-07	528.91	194.35	136.42	47.955	3.2686e-07	85.367	187.523	30.657	3.585	-25.925	78.727	82.716	-26.107	-22.172	62.260	68.782	-23.144	-18.932	-18.145	-14.112	63.065	-14.845	-8191	255	
44673.090	1	1	0	0	0.19451	0.10322	0.24816	0.07522	0.23465	0.19717	0.12259	0.23172	0.21499	0.36259	0.1461	0.36957	0.073752	0.11838	0.1661	0.057192	-4.4042	-4.6417	-4.1562	-5.2229	-4.0833	-4.3854	-4.9104	-4.2521	-4.6562	-4.3875	-4.1833	-5.0542	-4.2667	-4.4021	-4.8063	-4.1396	34.569	17.037	-2.399	-29.828	-9.944	227.795	216.975	294.854	195.848	-11.785	264.384	316.295	-22.101	-17.926	173.168	146.276	0.00030187	0.00062455	0.00025413	1474.5	2.6555e-06	2.9903e-06	1576.5	516.7	4.6592e-06	4.2565e-06	642.56	235.28	166.12	58.009	4.8077e-06	104.41	4.1395e-05	3.099e-05	8.0528e-06	1234	3.4825e-07	3.1838e-07	1324.9	429.71	3.4433e-07	3.2246e-07	521.58	191.68	134.91	47.038	3.1135e-07	83.313	197.825	-2.469	-12.739	-25.791	68.856	101.343	-26.396	-22.029	122.268	75.839	-23.145	-18.436	-17.932	-14.137	79.519	-14.755	-8191	255	
44673.184	1	1	0	0	0.11215	0.15582	0.093012	0.054666	0.11144	0.030452	0.12492	0.31242	0.076428	0.1546	0.044249	0.20855	0.24762	0.11573	0.18226	0.3063	-4.3479	-4.6438	-4.0375	-5.1188	-4.3583	-4.2708	-5.1208	-4.2438	-4.5042	-4.7292	-4.2354	-5.0396	-4.3042	-4.2896	-5.0542	-4.2771	209.235	120.889	314.055	55.058	-1.636	246.986	299.621	240.360	243.889	210.719	217.785	319.581	317.689	251.900	67.840	236.375	0.00025665	0.0006078	0.00014738	1449.5	5.9455e-06	3.6842e-06	1556.8	516.69	6.349e-06	6.3731e-06	638.88	232.63	165.19	58.424	6.7415e-06	103.91	3.8797e-05	3.0378e-05	8.5664e-06	1214.8	3.385e-07	3.1743e-07	1305.6	426.05	3.3909e-07	3.1721e-07	517.64	190.33	133.94	46.818	3.2483e-07	82.968	193.207	12.387	10.052	-25.932	95.078	91.714	-26.008	-22.070	100.603	88.363	-23.382	-18.449	-17.768	-13.999	78.985	-15.134	-8191	255	
44673.305	1	1	0	0	0.13794	0.085771	0.071636	0.1955	0.08559	0.19547	0.14928	0.11768	0.14464	0.1489	0.18788	0.27666	0.28119	0.22476	0.21284	0.23112	-4.1792	-4.8542	-4.1188	-5.0417	-4.5	-4.1125	-5.0896	-4.3667	-4.5437	-4.9042	-3.9854	-5.0312	-4.6771	-4.2792	-5.0437	-4.375	-5.512	220.380	301.314	-23.605	-14.689	-38.396	285.981	128.788	181.337	219.056	309.811	314.561	-27.035	314.522	277.235	250.816	0.00027519	0.00065219	0.00025395	1454.3	3.3006e-06	4.2302e-06	1570.1	513.71	2.0769e-06	5.268e-06	643.09	233.28	165.45	58.291	3.6471e-06	105.48	4.0442e-05	2.9535e-05	8.2863e-06	1215.3	3.3118e-07	3.2631e-07	1311.9	426.54	3.2409e-07	2.9855e-07	521.2	191.08	134.61	47.181	3.2129e-07	84.14	203.729	23.419	2.677	-26.164	87.988	91.495	-26.294	-22.178	127.821	89.522	-22.731	-19.048	-17.621	-13.834	59.627	-15.000	-8191	255	
44673.398	1	1	0	0	0.19384	0.068595	0.040618	0.12618	0.1519	0.046249	0.40081	0.18871	0.075022	0.25308	0.071323	0.29437	0.0073402	0.32716	0.13318	0.18886	-4.2146	-4.9021	-4.0021	-4.8958	-4.7063	-4.0792	-5.1104	-4.4688	-4.2	-4.8917	-4.1375	-4.9042	-4.9083	-3.9604	-4.9458	-4.4125	239.274	-14.737	147.521	11.886	101.604	24.067	255.738	258.428	308.671	136.675	238.147	280.456	-10.062	288.069	37.052	261.188	0.0002246	0.00033199	0.00019979	1452.3	4.5644e-06	4.4851e-06	1583.5	520.31	2.3805e-06	3.2695e-06	647.58	235.2	166.67	58.611	6.1905e-06	106.31	4.1322e-05	2.8118e-05	8.2678e-06	1220.7	3.299e-07	3.226e-07	1323	429.53	3.4647e-07	3.0327e-07	525.6	192.88	135.17	47.42	3.2047e-07	84.984	184.578	30.609	11.881	-25.967	107.038	66.201	-26.085	-22.215	93.416	91.309	-23.216	-18.817	-18.039	-13.989	65.939	-14.932	-8191	255	
44673.496	1	1	0	0	0.037873	0.21597	0.032002	0.16651	0.16857	0.052951	0.15581	0.18373	0.057064	0.054023	0.15089	0.1312	0.051544	0.058685	0.21413	0.32697	-3.9021	-4.9729	-4.0625	-4.8083	-4.8417	-4.0062	-4.9313	-4.475	-4.2688	-5.0062	-4.3313	-4.6583	-4.8	-4.1417	-4.8604	-4.6479	0.923	157.514	86.546	278.227	269.469	295.000	259.114	257.340	174.635	209.719	318.194	173.457	224.266	288.990	-15.762	299.227	0.0003206	0.00061791	0.00018633	1482.6	3.2064e-06	7.509e-06	1596.2	523.72	5.2737e-06	6.4116e-06	655.34	239.73	170.32	59.597	3.8825e-06	108.3	4.1839e-05	2.9347e-05	8.6206e-06	1234.9	3.383e-07	3.2218e-07	1334.5	434.57	3.5497e-07	3.1191e-07	531.23	195.88	137.49	48.043	3.415e-07	86.482	199.835	27.041	11.093	-25.974	85.636	75.685	-25.966	-22.177	105.467	58.941	-22.690	-18.521	-17.654	-13.726	106.049	-14.912	-8191	255	
44673.590	1	1	0	0	0.020699	0.12948	0.10713	0.30886	0.11496	0.11642	0.10299	0.057704	0.17398	0.13017	0.24027	0.11217	0.32676	0.15431	0.060801	0.21749	-3.7021	-4.9812	-4.1333	-4.6146	-4.8583	-4.1854	-4.9667	-4.5917	-4.0479	-5.0167	-4.4771	-4.4625	-5.0062	-4.0854	-4.6229	-4.6417	184.914	221.242	76.021	283.124	300.206	298.494	283.163	228.347	124.359	75.892	30.303	174.482	319.076	292.787	280.801	239.281	0.00031782	0.00052205	0.00017129	1487.3	5.5309e-06	5.4858e-06	1608	527.62	6.0519e-06	3.7721e-06	654.56	236.79	167.3	58.651	3.9539e-06	106.31	4.4575e-05	2.9266e-05	8.8205e-06	1245.4	3.4533e-07	3.3819e-07	1341.2	435.32	3.6773e-07	3.1878e-07	529.2	194.14	135.41	47.477	3.3413e-07	84.742	186.879	25.058	12.076	-25.791	98.282	74.928	-26.151	-21.953	139.642	67.858	-23.153	-18.512	-17.690	-13.861	70.004	-15.114	-8191	255	
44673.688	1	1	0	0	0.13821	0.082221	0.18093	0.20183	0.15592	0.075728	0.15372	0.10267	0.18077	0.076288	0.28711	0.30849	0.34131	0.1361	0.087431	0.24557	-3.7583	-4.9083	-4.2688	-4.3729	-4.8479	-4.0625	-4.8229	-4.8708	-3.9	-4.9	-4.45	-4.2479	-5.1562	-4.2271	-4.5083	-4.9958	80.381	313.762	263.216	290.278	237.535	250.062	246.893	223.945	296.844	27.390	269.307	255.196	273.420	24.273	317.972	257.998	0.00030689	0.00049178	0.00015162	1463.9	4.0983e-06	6.0345e-06	1577.7	518.14	5.598e-06	4.3569e-06	644.56	234.93	166.75	58.57	4.1977e-06	106.63	4.2542e-05	2.9715e-05	8.3747e-06	1220.9	3.396e-07	3.2875e-07	1317.3	428.19	3.5592e-07	3.331e-07	522.03	192.76	134.98	47.319	3.5438e-07	84.984	190.333	30.072	-8.523	-26.328	74.570	94.904	-25.895	-21.975	102.060	66.906	-22.595	-18.613	-17.591	-13.939	76.667	-15.022	-8191	255	
44673.785	1	1	0	0	0.194	0.33801	0.083561	0.19074	0.20081	0.12926	0.07942	0.16149	0.065907	0.094978	0.037521	0.35273	0.10541	0.17073	0.13	0.24528	-3.7458	-5.0083	-4.55	-4.3313	-4.9646	-4.1104	-4.7542	-5.0375	-4.0167	-4.775	-4.7937	-4.0896	-5.025	-4.2937	-4.4583	-5.0542	32.463	45.373	121.876	268.365	215.123	21.370	62.368	316.399	22.010	-34.784	137.865	246.626	5.928	304.713	294.568	233.940	0.0003017	0.00044921	0.0002673	1466.1	2.5997e-06	5.4459e-06	1593.5	520.73	4.632e-06	6.97e-06	654.78	237.02	168.68	59.203	4.9163e-06	107.93	4.2132e-05	3.1605e-05	8.6484e-06	1225.2	3.4834e-07	3.3994e-07	1327.3	431.64	3.5739e-07	3.417e-07	530.42	194.93	136.72	48.019	3.6184e-07	86.445	198.544	-6.811	40.749	-26.304	88.418	94.456	-25.959	-21.713	72.157	67.745	-22.750	-18.539	-17.643	-13.959	63.048	-14.732	-8191	255	
44673.902	1	1	0	0	0.17163	0.091992	0.1366	0.34946	0.17663	0.23361	0.20899	0.43804	0.14236	0.25393	0.15752	0.28665	0.024006	0.10544	0.28088	0.12785	-3.6667	-4.8042	-4.6188	-4.4083	-5.0896	-4.1646	-4.4646	-5.1708	-4.0479	-4.7333	-4.6729	-4.0687	-4.9938	-4.4563	-4.2542	-5.0563	-17.025	61.408	299.960	260.304	35.551	106.185	262.599	215.341	231.201	18.119	265.704	277.190	136.730	290.478	198.235	234.012	0.00030211	0.00041655	0.00018613	1473.2	4.7193e-06	4.4274e-06	1603.3	528.19	3.4667e-06	1.5441e-06	662.24	243.32	170.08	60.195	5.809e-06	111.19	4.2716e-05	3.0084e-05	8.7983e-06	1235.4	3.5603e-07	3.499e-07	1343.6	437.2	3.783e-07	3.4231e-07	536.73	198.35	137.77	48.764	3.6245e-07	88.261	192.053	46.505	21.941	-25.887	100.126	100.107	-26.095	-21.931	76.356	59.546	-23.036	-18.798	-17.977	-13.879	50.589	-15.016	-8191	255	
44674.000	1	1	0	0	0.20551	0.13313	0.18376	0.26063	0.10406	0.21508	0.28575	0.022954	0.14925	0.096666	0.25879	0.12638	0.011512	0.031084	0.033713	0.33074	-3.7729	-4.5854	-4.8187	-4.1896	-4.8167	-4.5104	-4.3938	-5.0958	-4.0208	-4.5417	-5.0667	-4.0979	-4.9542	-4.65	-4.175	-5.0833	69.759	252.281	137.778	-30.743	33.827	-21.822	255.153	306.637	142.675	209.156	-35.182	241.277	261.215	187.452	245.878	-38.439	0.00031456	0.00028181	0.00016852	1487.4	3.9072e-06	4.5943e-06	1614.1	531.1	5.3954e-06	7.0674e-06	676.11	246.82	171.87	61.429	5.9282e-06	112.03	4.2635e-05	3.1121e-05	8.8404e-06	1243.6	3.6718e-07	3.4714e-07	1355.5	440.24	3.782e-07	3.5099e-07	545.25	201.66	139.33	49.62	3.7079e-07	89.423	191.466	21.014	11.527	-26.390	76.090	113.052	-26.488	-22.018	127.763	69.005	-23.065	-18.623	-17.848	-13.668	84.209	-14.731	-8191	255	
44674.098	1	1	0	0	0.18176	0.0851	0.19416	0.21663	0.094907	0.15231	0.17713	0.32073	0.10891	0.06146	0.18938	0.14805	0.13295	0.13919	0.13405	0.24095	-3.9813	-4.5188	-4.8021	-4.1125	-5.025	-4.6417	-4.3042	-5.1479	-4.3458	-4.4021	-4.9625	-4.1417	-4.8229	-4.75	-4.0083	-5.0604	8.732	-29.563	245.426	-29.446	104.649	131.495	-35.608	262.718	301.124	275.378	251.713	279.247	276.159	258.751	89.376	263.791	0.00029787	0.000636	0.0001888	1487.5	5.2874e-06	6.9723e-06	1616.6	523.76	5.4507e-06	2.5813e-06	653.44	238.7	168.3	59.1	3.7265e-06	107.95	4.5672e-05	3.1736e-05	9.1985e-06	1244.7	3.7259e-07	3.454e-07	1345.7	434.63	3.8324e-07	3.3065e-07	530.34	195.32	136.08	47.852	3.6366e-07	85.831	197.682	22.977	-7.991	-25.915	78.130	98.821	-26.166	-21.994	90.328	34.842	-22.732	-18.635	-17.990	-13.824	76.916	-14.750	-8191	255	
44674.168	1	1	0	0	0.050492	0.040832	0.080209	0.22742	0.26714	0.10439	0.085421	0.16862	0.092947	0.14088	0.10458	0.033733	0.13848	0.21928	0.20141	0.19905	-3.9813	-4.3063	-4.9458	-4.2188	-4.4187	-4.8021	-4.0708	-5.0458	-4.3479	-4.275	-4.9812	-4.175	-4.8042	-4.8771	-3.9562	-5.1104	25.235	242.698	285.874	-3.370	281.595	2.063	126.356	301.556	135.946	16.349	314.043	242.915	11.374	269.560	318.481	302.074	0.0002897	0.00028486	0.0002168	1447.1	5.0959e-06	5.8986e-06	1566.3	515.86	4.2355e-06	4.7081e-06	641.15	233.81	164.9	57.885	6.0293e-06	105.51	4.3771e-05	3.1371e-05	8.6718e-06	1208.5	3.4249e-07	3.1668e-07	1308.3	425.49	3.7136e-07	3.2396e-07	519.92	191.45	133.65	46.811	3.422e-07	84.148	195.383	46.186	-2.616	-25.978	92.604	125.373	-26.068	-21.869	131.507	77.710	-23.126	-18.500	-17.737	-13.873	104.560	-15.168	-8191	255	
44674.289	1	1	0	0	0.052828	0.070794	0.070903	0.034491	0.20006	0.16136	0.22124	0.11321	0.20526	0.12032	0.27724	0.1582	0.21092	0.096696	0.2398	0.19112	-4.2042	-4.0583	-5.1479	-4.2583	-4.5333	-4.5604	-4.0875	-5.0542	-4.4479	-4.2	-5.15	-4.2583	-4.5437	-5.0271	-4.0979	-4.8187	-14.329	228.235	-16.839	38.299	113.368	-23.841	264.294	268.811	181.008	-2.297	256.576	274.945	252.298	173.110	196.845	-5.783	0.00030628	0.00023743	9.2308e-05	1441.4	5.7876e-06	4.0339e-06	1566.2	510.59	1.5893e-06	4.7783e-06	642.94	234.19	164.63	57.963	3.7148e-06	105.58	4.2663e-05	3.0642e-05	8.3111e-06	1201.8	3.666e-07	3.3055e-07	1309.9	423.87	3.69e-07	3.4016e-07	520.99	191.54	133.7	46.809	3.5529e-07	84.126	186.817	39.580	19.597	-25.895	80.638	80.553	-26.007	-22.051	81.676	77.006	-22.823	-18.928	-17.834	-13.927	55.583	-15.240	-8191	255	
44674.383	1	1	0	0	0.092094	0.053627	0.060629	0.24414	0.047136	0.18732	0.24715	0.31447	0.14449	0.15716	0.15944	0.2753	0.081702	0.23545	0.13455	0.30034	-4.2646	-3.8646	-5.0396	-4.3708	-4.3812	-4.9208	-4.3271	-4.8187	-4.5375	-4.0188	-5.1417	-4.4771	-4.4458	-4.9604	-4.0396	-4.7708	2.100	58.094	104.477	273.935	134.879	28.706	269.944	274.897	107.450	1.106	290.502	282.018	318.907	315.200	268.177	259.780	0.00024552	0.00017078	0.00025039	1442.8	3.8737e-06	3.1925e-06	1568.6	513.27	4.8607e-06	6.0132e-06	645.3	235.37	166.36	58.628	3.6881e-06	106.92	4.1385e-05	3.29e-05	8.2268e-06	1209.5	3.4579e-07	3.3849e-07	1311.6	424.51	3.4653e-07	3.5259e-07	523.25	192.57	134.54	47.183	3.433e-07	84.95	203.048	62.758	26.186	-25.900	75.806	88.036	-26.236	-21.772	76.902	67.936	-22.985	-18.731	-17.905	-13.489	74.974	-15.095	-8191	255	
44674.480	1	1	0	0	0.2189	0.1046	0.13571	0.25902	0.069762	0.042803	0.1791	0.39321	0.12401	0.14341	0.015853	0.30441	0.39846	0.23638	0.092316	0.16374	-4.5229	-3.9625	-4.7771	-4.5896	-4.1271	-5.0875	-4.2521	-4.7354	-4.6979	-3.9062	-5.1438	-4.6771	-4.475	-5.1208	-4.1604	-4.5958	42.800	165.708	283.536	275.255	91.474	263.815	299.317	282.093	53.164	317.280	-8.075	299.778	317.015	307.584	229.189	247.194	0.00024226	0.00048531	0.00020279	1449.8	7.4746e-06	2.9729e-06	1579.2	515.9	3.6956e-06	4.9592e-06	648.43	236.79	167.53	58.723	5.6574e-06	107.77	4.1642e-05	3.1842e-05	8.5754e-06	1213.8	3.6028e-07	3.2088e-07	1321	428.39	3.4228e-07	3.3719e-07	526.67	194.16	135.55	47.617	3.5909e-07	85.889	184.480	21.776	11.784	-25.779	80.387	109.574	-25.834	-22.373	85.270	70.744	-23.025	-18.689	-17.833	-13.889	69.280	-15.312	-8191	255	
44674.578	1	1	0	0	0.13332	0.06007	0.048576	0.27138	0.086153	0.1722	0.083954	0.10137	0.15059	0.14486	0.076604	0.18826	0.41925	0.071831	0.27715	0.11235	-4.6583	-4.0167	-4.7688	-4.6354	-4.1229	-4.9792	-4.2812	-4.5542	-4.8354	-4.1208	-4.9167	-4.7729	-4.0854	-5.0854	-4.1937	-4.3271	36.165	191.697	-12.514	263.253	177.362	92.380	152.111	290.169	119.027	149.738	84.883	300.571	316.253	289.752	47.486	256.333	0.00029682	0.00044187	0.00020426	1455.8	6.7035e-06	3.7608e-06	1584.6	513.52	2.8319e-06	5.8197e-06	643.78	234.37	164.36	57.732	4.4941e-06	104.79	4.2533e-05	3.0869e-05	8.2501e-06	1220.3	3.4531e-07	3.2447e-07	1322.4	426.96	3.5347e-07	3.2746e-07	520.92	191.98	133.12	46.626	3.3695e-07	83.752	189.359	40.446	38.887	-26.067	84.816	93.575	-26.313	-22.087	170.776	86.853	-22.964	-18.744	-17.966	-13.881	65.288	-15.287	-8191	255	
44674.695	1	1	0	0	0.18619	0.13205	0.2225	0.21256	0.082251	0.031721	0.18579	0.18175	0.031661	0.094761	0.31994	0.29967	0.089806	0.10591	0.16105	0.21317	-4.7979	-3.8896	-4.7021	-4.8583	-3.9854	-5.0708	-4.4042	-4.4583	-5.1208	-4.0083	-4.7208	-4.7583	-4.1667	-5.1771	-4.3521	-4.3	9.341	172.521	254.457	313.778	-30.528	312.079	218.578	37.475	123.800	254.795	230.637	232.884	-22.177	304.138	233.938	213.644	0.00026642	0.00053293	0.00013705	1420.7	3.3814e-06	5.0793e-06	1543.7	508.43	2.4944e-06	4.6782e-06	639.93	231.01	163.16	57.103	6.092e-06	103.96	3.9898e-05	2.9248e-05	8.0035e-06	1192.9	3.4942e-07	3.0898e-07	1296.4	420.54	3.311e-07	3.039e-07	515.82	189.15	131.87	46.082	3.4606e-07	82.833	193.079	24.531	312.117	-25.638	57.910	97.085	-25.802	-22.087	123.951	86.277	-23.192	-18.527	-17.996	-13.768	89.706	-14.960	-8191	255	
44674.770	1	1	0	0	0.1057	0.21514	0.13493	0.16356	0.028953	0.23548	0.28738	0.091946	0.13635	0.21843	0.057926	0.20352	0.16371	0.11239	0.12903	0.080076	-4.6583	-4.0396	-4.4896	-4.9354	-3.9583	-4.9583	-4.6083	-4.2958	-4.9604	-4.0479	-4.5312	-4.85	-4.2	-4.8562	-4.5333	-4.2833	184.252	133.446	-16.616	302.462	16.615	119.200	191.235	256.123	-37.642	216.206	304.809	256.761	-6.328	172.563	292.972	106.684	0.00030023	0.000491	0.00021732	1428.6	6.128e-06	6.8163e-06	1556.6	508.42	4.4403e-06	6.181e-06	640.73	232.37	164.06	57.018	7.8175e-06	104.11	4.203e-05	3.0413e-05	8.4741e-06	1195.5	3.4338e-07	3.197e-07	1298.5	420.85	3.5182e-07	3.4035e-07	516.76	189.73	132.42	46.119	3.2985e-07	82.923	190.226	25.488	-4.988	-25.855	86.116	90.545	-26.041	-22.072	128.383	79.417	-22.984	-18.794	-17.918	-14.143	94.988	-15.054	-8191	255	
44674.863	1	1	0	0	0.20209	0.13798	0.077196	0.1269	0.13462	0.218	0.073775	0.14377	0.17333	0.065188	0.26314	0.20064	0.16172	0.26845	0.13471	0.20621	-4.7542	-4.2104	-4.3979	-5.0563	-3.9396	-4.7979	-4.85	-4.1708	-5.0396	-4.3521	-4.5646	-5.0167	-4.2271	-4.8313	-4.6104	-4.2854	44.131	127.782	192.166	294.768	315.683	157.235	220.901	246.436	29.806	-15.727	273.874	-33.286	-10.249	279.668	70.844	212.665	0.00030972	0.00062936	0.00031393	1430.3	4.6442e-06	5.3426e-06	1558.1	511.23	3.5008e-06	5.2989e-06	643.92	233.44	164.6	57.553	5.3548e-06	105.37	4.0008e-05	3.0668e-05	8.2584e-06	1201	3.404e-07	3.1567e-07	1304.3	421.69	3.2909e-07	3.2341e-07	519.47	190.84	132.75	46.437	3.3665e-07	83.75	200.730	12.122	22.042	-25.912	96.377	94.759	-25.864	-22.254	117.094	59.221	-23.556	-18.381	-17.918	-13.787	40.559	-14.840	-8191	255	
44674.984	1	1	0	0	0.10789	0.042462	0.14119	0.21439	0.10226	0.26949	0.13632	0.089575	0.033365	0.25171	0.22554	0.27987	0.3401	0.23792	0.21394	0.28238	-4.5083	-4.2917	-4.2396	-4.9563	-4.0208	-4.5167	-5.0521	-4.0938	-4.8208	-4.4167	-4.4146	-5.2438	-4.2833	-4.7292	-4.7083	-4.1375	-29.161	289.271	114.808	260.140	267.218	186.518	234.044	219.528	143.672	311.467	192.791	86.974	305.010	22.091	-10.960	308.901	0.00029222	0.00039415	0.00017423	1441.6	3.001e-06	4.0176e-06	1571.3	512.96	2.6435e-06	4.2035e-06	647.12	235.9	165.65	58.071	4.8511e-06	105.81	4.0412e-05	3.1197e-05	8.1044e-06	1204.8	3.4441e-07	3.2005e-07	1315.6	425.09	3.3221e-07	3.2106e-07	523.32	192.28	133.93	46.718	3.3205e-07	84.325	195.513	16.003	-24.543	-26.161	89.752	88.341	-26.059	-22.357	92.813	24.246	-23.055	-18.564	-18.174	-14.134	61.527	-14.858	-8191	255	
44675.082	1	1	0	0	0.17437	0.12882	0.10299	0.22595	0.19517	0.056417	0.087406	0.049433	0.094899	0.012605	0.31506	0.084299	0.12892	0.46947	0.12241	0.12189	-4.4688	-4.4	-4.1771	-5.1896	-4.0396	-4.4958	-5.1021	-4.2188	-4.8375	-4.5729	-4.2937	-5.1854	-4.225	-4.5083	-4.9167	-4.2729	241.206	262.526	147.843	290.995	28.137	162.973	227.882	11.846	167.567	19.653	252.300	220.798	257.902	-26.766	149.381	-13.643	0.0002992	0.00059789	9.8272e-05	1451.9	3.1487e-06	7.2943e-06	1572.8	510.34	4.7992e-06	4.4319e-06	636.98	232.55	163.14	57.081	7.2759e-06	102.75	4.1589e-05	3.1661e-05	8.1918e-06	1211.8	3.3755e-07	3.2856e-07	1316.8	423.16	3.4466e-07	3.228e-07	517.95	190.03	131.91	46.009	3.2658e-07	82.282	193.911	4.742	6.844	-25.900	95.997	105.951	-26.145	-22.081	99.521	95.610	-22.676	-18.764	-17.807	-13.638	90.107	-14.713	-8191	255	
44675.176	1	1	0	0	0.021225	0.21405	0.19424	0.30615	0.26477	0.25374	0.18225	0.21249	0.018589	0.11414	0.15607	0.094301	0.087718	0.13938	0.21466	0.2386	-4.425	-4.6354	-3.8396	-5.0479	-4.2396	-4.3896	-5.1333	-4.0104	-4.6417	-4.7667	-4.2021	-5.225	-4.4854	-4.2646	-4.9208	-4.2458	14.821	-2.632	-4.421	243.099	67.013	19.310	243.937	286.941	292.325	38.352	-15.627	211.620	265.782	293.854	254.938	285.058	0.00028532	0.00050685	0.00022943	1428	5.031e-06	2.6063e-06	1550.1	503.81	4.0109e-06	4.8493e-06	634.48	230.08	162.73	56.082	3.5587e-06	101.67	4.0039e-05	3.0153e-05	8.0532e-06	1192.4	3.4193e-07	3.1359e-07	1295.4	417.01	3.4194e-07	2.9869e-07	512.97	187.8	131.2	45.48	3.1631e-07	81.64	195.306	42.451	34.902	-25.979	71.660	111.529	-25.959	-22.332	134.084	44.439	-23.500	-18.834	-17.602	-13.803	92.488	-15.029	-8191	255	
44675.297	1	1	0	0	0.24177	0.13614	0.067408	0.1819	0.01982	0.043282	0.021119	0.32505	0.081058	0.1946	0.23667	0.20251	0.16016	0.017631	0.11849	0.033455	-4.25	-4.6792	-4.075	-5.1167	-4.4542	-4.25	-5.2083	-4.3083	-4.6958	-4.7125	-3.9792	-4.9771	-4.6208	-4.2208	-4.95	-4.3042	-21.856	143.444	148.268	245.523	116.848	34.507	1.087	319.939	111.491	-14.207	215.098	273.269	80.523	247.248	-11.221	20.025	0.00032327	0.00048732	0.00027438	1426.5	5.8629e-06	5.9687e-06	1546.3	502.66	3.1786e-06	5.5131e-06	635.77	229.85	163.14	56.765	4.7141e-06	103.24	4.0467e-05	2.8788e-05	8.1978e-06	1192.6	3.2794e-07	3.0782e-07	1296.8	419	3.3844e-07	3.0201e-07	514.67	188.82	131.8	45.87	3.0539e-07	82.428	199.831	5.046	14.115	-25.977	90.963	97.105	-25.695	-21.914	128.008	87.502	-23.342	-18.582	-17.775	-13.962	62.898	-14.992	-8191	255	
44675.391	1	1	0	0	0.14052	0.086423	0.181	0.15888	0.23494	0.078729	0.20051	0.19753	0.17421	0.094485	0.24094	0.28222	0.22046	0.16529	0.32234	0.13997	-4.0125	-4.825	-3.9833	-4.9563	-4.5875	-4.1438	-5.1854	-4.5437	-4.2979	-4.8542	-4.3021	-4.8271	-4.8104	-4.3333	-5.1333	-4.5563	268.112	74.903	283.890	308.382	141.615	-20.487	298.462	279.845	-10.682	300.167	235.515	259.539	-24.602	262.957	84.370	153.544	0.00028238	0.00054028	0.00019733	1434	4.0999e-06	3.7277e-06	1552.1	505.77	4.6972e-06	5.0872e-06	638.34	232.54	163.4	57.114	5.7563e-06	104.22	4.0644e-05	2.8856e-05	8.403e-06	1199.5	3.5361e-07	3.2227e-07	1303.4	420.03	3.5323e-07	3.0403e-07	517.87	190.14	132.49	46.173	3.2905e-07	83.127	199.946	29.014	13.538	-25.886	93.175	81.100	-26.119	-22.173	108.751	80.189	-23.004	-18.445	-17.974	-13.837	88.841	-14.898	-8191	255	
44675.465	1	1	0	0	0.039265	0.057489	0.11591	0.31422	0.07993	0.096495	0.13983	0.24969	0.26867	0.10308	0.092518	0.28846	0.1084	0.24287	0.015482	0.071857	-3.9104	-5.0563	-4.0208	-4.7833	-4.8396	-3.9375	-5.0771	-4.6771	-4.2042	-5.0875	-4.2542	-4.7396	-4.8708	-4.1854	-4.7312	-4.4437	0.322	306.721	106.633	261.183	7.270	62.966	279.063	267.382	-16.995	-9.208	264.833	317.221	311.093	316.363	-9.072	-9.042	0.0002793	0.00036582	0.00026978	1442.8	4.6052e-06	3.7013e-06	1564.3	505.63	3.4116e-06	6.3683e-06	642.82	232.99	165.12	57.248	3.8841e-06	104.56	4.1985e-05	2.895e-05	8.5999e-06	1205.6	3.239e-07	3.1574e-07	1309.6	422.2	3.44e-07	3.1581e-07	521.43	190.66	133.07	46.332	3.2692e-07	83.287	196.925	1.249	2.703	-26.093	102.394	82.674	-25.976	-22.119	106.375	52.034	-22.950	-19.025	-18.089	-13.827	118.129	-15.011	-8191	255	
44675.586	1	1	0	0	0.17533	0.24977	0.23725	0.28724	0.043085	0.059676	0.34301	0.061619	0.15335	0.18072	0.070266	0.20516	0.23325	0.13786	0.21023	0.15146	-3.9146	-4.9708	-4.1333	-4.6583	-4.7875	-4.0542	-5.0792	-4.6542	-4.0833	-5.0813	-4.4917	-4.5229	-4.9854	-4.0708	-4.7333	-4.6104	-2.515	-33.067	256.713	316.884	114.033	49.206	267.844	258.051	294.309	20.657	-13.335	17.629	304.815	276.606	239.324	283.171	0.00024631	0.00035645	0.00019807	1440.9	5.0919e-06	4.644e-06	1567.6	509.03	5.0708e-06	5.6418e-06	635.84	230.33	162.22	56.505	4.7883e-06	101.59	4.0563e-05	2.8826e-05	8.5389e-06	1208.6	3.2916e-07	3.0892e-07	1311.3	422.71	3.2678e-07	3.1267e-07	515.25	188.05	131.65	45.482	3.1952e-07	80.942	189.466	9.595	-16.086	-26.240	70.705	102.493	-25.891	-22.313	141.358	63.062	-22.775	-18.728	-18.155	-13.759	83.589	-14.940	-8191	255	
44675.680	1	1	0	0	0.11652	0.078987	0.1294	0.12502	0.056814	0.028154	0.32679	0.08534	0.32452	0.034929	0.087377	0.030326	0.26292	0.012796	0.13408	0.234	-3.7438	-4.7854	-4.1125	-4.5792	-4.9542	-3.8812	-5.0021	-4.9313	-4.1042	-4.9521	-4.4458	-4.65	-5.0563	-4.25	-4.7583	-4.8333	136.280	64.625	221.076	251.634	78.773	56.218	260.709	212.333	105.892	264.281	-11.944	181.733	224.401	44.861	-4.929	282.381	0.00025629	0.00047928	0.00021505	1423.8	4.7114e-06	5.2818e-06	1532.8	503.77	6.7904e-06	6.5191e-06	628.24	227.44	160.76	55.468	4.9138e-06	100.03	4.0499e-05	2.7858e-05	7.8556e-06	1190.1	3.2605e-07	3.2945e-07	1284.1	416.71	3.4664e-07	3.0817e-07	508.55	186.05	130.19	44.851	3.0534e-07	79.716	189.672	16.515	23.083	-26.076	110.938	91.205	-25.881	-22.074	115.954	79.420	-22.602	-18.683	-17.757	-13.918	74.942	-15.214	-8191	255	
44675.777	1	1	0	0	0.10301	0.19264	0.17305	0.35388	0.23183	0.23365	0.23754	0.18184	0.095061	0.30319	0.035097	0.18641	0.1663	0.30985	0.22956	0.13049	-3.5125	-4.9042	-4.3354	-4.2229	-4.9896	-4.0563	-4.8375	-4.8812	-3.9979	-4.8083	-4.4708	-4.2604	-5.0583	-4.0854	-4.5083	-5.15	-7.831	67.203	88.541	258.544	29.851	141.182	230.131	262.207	79.933	219.459	308.534	319.533	27.118	269.065	225.419	292.903	0.00028967	0.00042718	0.00020035	1423.1	4.7187e-06	4.7279e-06	1532.5	501.22	4.959e-06	5.4291e-06	625.68	225.8	160.46	55.014	7.4552e-06	100.45	3.9379e-05	2.713e-05	8.0656e-06	1187.1	3.0424e-07	3.2163e-07	1282	414.86	3.2412e-07	3.0879e-07	505.6	184.64	129.64	44.682	3.1011e-07	79.697	189.072	3.960	-4.178	-26.289	101.530	84.698	-26.352	-22.118	110.352	88.026	-22.903	-19.289	-17.644	-13.941	83.374	-15.129	-8191	255	
44675.871	1	1	0	0	0.13935	0.14493	0.30351	0.068048	0.033283	0.037006	0.26819	0.33276	0.17809	0.062334	0.063448	0.29933	0.10906	0.1015	0.057607	0.28252	-3.8583	-4.9021	-4.4375	-4.1312	-5.0271	-4.1958	-4.6542	-5.0021	-3.9771	-4.8063	-4.8229	-4.2625	-5.075	-4.6042	-4.3208	-5.0687	297.048	73.827	258.668	-17.388	201.490	263.505	251.859	311.736	258.932	184.878	310.634	282.379	297.494	69.959	257.247	238.050	0.00028907	0.00039951	0.0002037	1419.1	5.4053e-06	5.005e-06	1544.1	500.47	3.5999e-06	5.9363e-06	625.75	227.03	160.91	55.738	3.3782e-06	102.14	3.7887e-05	2.7839e-05	7.8921e-06	1188.5	3.1894e-07	3.0186e-07	1290.9	416.1	3.4369e-07	3.0753e-07	508.77	186	130.28	45.039	3.0916e-07	81.149	192.555	66.278	9.714	-26.395	108.539	73.410	-25.867	-22.078	127.811	84.081	-23.036	-18.926	-17.828	-14.166	38.458	-14.908	-8191	255	
44675.992	1	1	0	0	0.18875	0.042065	0.081013	0.21551	0.04437	0.13101	0.26944	0.35896	0.1506	0.17299	0.15843	0.22376	0.074853	0.17028	0.18336	0.080463	-3.5854	-4.7104	-4.7479	-4.3625	-5.0271	-4.3875	-4.5625	-4.9979	-3.9938	-4.675	-4.875	-4.1188	-5.0583	-4.5958	-4.275	-5.1375	122.893	74.130	102.229	314.458	240.000	237.719	254.550	280.270	140.025	-33.382	262.608	301.332	141.940	247.457	292.418	294.865	0.00029848	0.0003649	0.00014233	1431.7	4.536e-06	4.6248e-06	1563.7	505.63	3.4045e-06	5.5893e-06	643.02	232.27	162.94	56.351	4.4174e-07	104.69	3.9728e-05	2.9057e-05	7.6048e-06	1198	3.2577e-07	2.981e-07	1306.7	420.48	3.3751e-07	2.9605e-07	518.97	190.33	132.15	45.822	3.1912e-07	83.52	189.735	17.519	-11.369	-26.101	79.561	94.613	-26.146	-22.422	120.068	80.594	-22.995	-18.822	-18.147	-13.874	114.090	-14.723	-8191	255	
44676.066	1	1	0	0	0.12625	0.11998	0.18013	0.058389	0.21913	0.15855	0.23723	0.17786	0.34004	0.13709	0.2135	0.078015	0.155	0.26861	0.17885	0.4088	-3.7792	-4.6771	-4.8438	-4.0729	-4.8167	-4.4729	-4.2583	-5.1208	-4.1562	-4.3	-4.9271	-4.1396	-4.8208	-4.7229	-3.9792	-5.1958	188.698	83.278	231.117	292.525	308.722	102.358	274.942	212.033	66.630	209.248	287.054	-35.386	45.123	298.614	268.025	246.021	0.0002865	0.00060206	0.00028788	1444.8	5.213e-06	4.0799e-06	1572.3	511.3	4.8331e-06	5.5687e-06	638.73	232.14	162.63	57.138	3.8845e-06	103.76	4.068e-05	2.7961e-05	7.9787e-06	1208	3.1704e-07	3.1019e-07	1316	423.77	3.451e-07	3.0366e-07	517.95	189.49	131.74	45.915	3.1025e-07	82.543	198.561	2.386	19.018	-25.835	96.232	83.443	-26.251	-22.070	110.271	65.552	-22.867	-18.387	-18.122	-13.883	94.491	-15.266	-8191	255	
44676.160	1	1	0	0	0.24015	0.11772	0.08328	0.18414	0.20506	0.18746	0.22354	0.14052	0.21769	0.1084	0.064423	0.19049	0.2856	0.17496	0.066919	0.31575	-3.8083	-4.25	-4.9583	-4.1729	-4.8583	-4.7896	-4.1333	-5.1917	-4.3604	-4.325	-5.1875	-4.175	-4.6917	-4.7708	-3.9813	-5.0417	212.707	198.586	263.563	251.081	309.502	172.850	236.757	215.873	268.976	206.263	295.275	241.820	268.546	248.633	279.266	248.625	0.00026826	0.00045943	0.0001069	1421.5	5.3785e-06	4.7053e-06	1540.2	507.84	3.6041e-06	7.2382e-06	631.03	229.27	161.57	56.384	4.4261e-06	101.95	3.9731e-05	2.8339e-05	7.9655e-06	1190.5	3.3458e-07	2.9959e-07	1290.6	419.57	3.2862e-07	3.0462e-07	511.51	187.32	130.48	45.469	3.1677e-07	81.807	189.351	38.884	-8.018	-26.091	84.471	89.958	-26.471	-22.012	88.373	68.057	-22.868	-18.710	-17.880	-13.563	59.771	-15.203	-8191	255	
44676.258	1	1	0	0	0.15123	0.20555	0.29248	0.23551	0.13464	0.088253	0.19678	0.20916	0.28061	0.25249	0.15435	0.21538	0.22014	0.075077	0.19233	0.14207	-4.1937	-4.3292	-4.8896	-4.1833	-4.5708	-4.8896	-4.2063	-5.175	-4.2542	-4.2021	-5.2417	-4.2646	-4.6438	-4.7917	-3.9667	-5.0563	171.138	41.619	10.169	277.337	129.399	143.885	240.229	265.839	111.337	149.469	304.201	213.750	-20.309	306.639	290.191	-22.433	0.00030627	0.00056208	0.00015666	1426.4	5.8882e-06	4.7392e-06	1552.3	504.99	5.1483e-06	3.7291e-06	634.85	229.27	161.37	56.185	8.3949e-06	102.93	3.8722e-05	2.8439e-05	7.2713e-06	1188	3.2116e-07	2.9818e-07	1295.4	419.22	3.1818e-07	3.0372e-07	513.7	187.71	131	45.428	3.2297e-07	81.871	189.854	27.728	14.925	-25.950	65.800	94.331	-26.278	-22.132	125.253	30.778	-23.159	-18.830	-17.958	-13.855	79.248	-15.115	-8191	255	
44676.375	1	1	0	0	0.037871	0.10117	0.057359	0.25144	0.17972	0.32104	0.35592	0.13462	0.05637	0.08359	0.21302	0.013747	0.22033	0.14199	0.1153	0.37551	-4.1979	-4.3646	-5.1271	-4.5125	-4.3875	-4.8542	-4.0813	-4.9	-4.6687	-4.0271	-5.175	-4.4396	-4.325	-5.0062	-4.0333	-4.8792	6.517	-21.001	307.088	284.326	275.414	267.961	249.585	261.802	26.330	-36.651	234.926	240.229	291.951	221.404	241.545	226.545	0.0002435	0.00037396	0.00015664	1422.1	4.4994e-06	4.8735e-06	1554.4	507.85	5.8234e-06	6.3577e-06	639.32	233.03	162.96	56.85	3.9092e-06	104.71	3.9221e-05	2.7946e-05	7.3082e-06	1191.3	3.1125e-07	3.1085e-07	1299	421.81	3.2126e-07	3.0134e-07	516.19	190.16	131.69	46.046	3.2056e-07	83.253	190.045	12.959	25.349	-25.816	109.810	122.677	-26.307	-22.026	106.719	79.196	-23.151	-18.530	-18.119	-13.662	77.098	-15.200	-8191	255	
44676.473	1	1	0	0	0.18401	0.01384	0.048622	0.24018	0.17807	0.033386	0.043321	0.22051	0.079978	0.15881	0.05399	0.23387	0.098966	0.16664	0.090274	0.25105	-4.425	-3.9792	-4.9542	-4.6521	-4.2875	-4.8333	-4.3146	-4.7875	-4.6687	-4.1021	-5.0521	-4.5687	-4.1562	-4.9187	-3.8958	-4.7021	133.318	35.022	28.897	-6.305	243.481	203.453	283.225	250.135	102.700	-28.718	-11.262	268.066	295.531	282.684	80.256	257.738	0.00024479	0.00059927	0.0001571	1438.7	6.2327e-06	4.8292e-06	1562.6	511.87	2.4453e-06	5.596e-06	644.98	232.83	163.95	57.072	5.7787e-06	104.84	3.8778e-05	2.9581e-05	7.6892e-06	1200.3	3.2922e-07	3.0877e-07	1309	423.31	3.4197e-07	3.0246e-07	520.74	190.87	132.62	46.219	3.3239e-07	83.532	183.594	21.989	18.486	-26.017	99.330	92.358	-25.941	-22.436	106.331	72.427	-23.159	-18.820	-18.353	-13.839	72.605	-15.246	-8191	255	
44676.566	1	1	0	0	0.12665	0.18759	0.073383	0.27144	0.26997	0.13618	0.0042034	0.16628	0.14911	0.26622	0.083883	0.29945	0.20345	0.090973	0.29542	0.19505	-4.6958	-4.0646	-5.0042	-4.6	-4.075	-4.8292	-4.3229	-4.6438	-4.8688	-4.1083	-4.9833	-4.7479	-4.2542	-5.0354	-4.1062	-4.6354	12.618	-21.797	286.048	250.593	170.229	55.111	290.188	270.470	252.754	-30.781	203.778	259.206	262.679	-11.939	63.855	181.837	0.00025952	0.00061297	0.00023642	1437	3.2378e-06	3.4958e-06	1566.7	510.8	3.4899e-06	7.2368e-06	640.38	231.4	163.44	56.7	4.4717e-06	103.55	3.8874e-05	2.8213e-05	7.8014e-06	1205.1	3.2025e-07	2.9334e-07	1311.6	424.41	3.2105e-07	3.1256e-07	518.21	189.86	131.69	45.899	3.109e-07	82.526	204.044	-0.626	7.245	-25.873	89.410	85.702	-26.174	-22.151	110.428	96.384	-23.288	-18.126	-17.987	-13.920	55.040	-14.862	-8191	255	
44676.664	1	1	0	0	0.29863	0.18273	0.091938	0.28875	0.16591	0.02072	0.15811	0.11861	0.084657	0.055207	0.081504	0.16945	0.17307	0.084366	0.10818	0.23156	-4.5167	-4.0542	-4.8771	-4.8271	-4.0667	-5.05	-4.5312	-4.5354	-4.9833	-4.1604	-4.8646	-4.8771	-4.0563	-5.0437	-4.3187	-4.4313	219.427	130.621	315.660	-25.274	279.913	191.391	243.418	229.975	138.353	211.297	178.097	270.789	217.209	-32.831	8.853	251.420	0.00028584	0.00056104	0.00015418	1419.9	6.3636e-06	3.9048e-06	1536.8	504.02	3.204e-06	4.4891e-06	636.92	229.33	161.25	56.408	6.0082e-06	103.17	3.8377e-05	2.9515e-05	7.9745e-06	1186.6	3.3483e-07	3.0056e-07	1286.1	417.4	3.2694e-07	3.2321e-07	512.92	188.07	130.98	45.463	3.1888e-07	81.908	197.034	38.837	-0.840	-25.944	83.590	109.152	-26.106	-22.071	148.792	56.097	-22.897	-18.643	-18.326	-13.945	78.172	-15.223	-8191	255	
44676.762	1	1	0	0	0.072762	0.252	0.1198	0.38368	0.19137	0.16617	0.28669	0.18025	0.078215	0.090449	0.25558	0.32684	0.18918	0.043483	0.13308	0.24954	-4.5958	-3.9792	-4.5625	-4.8479	-3.9625	-4.8438	-4.5458	-4.3646	-5.0708	-4.0417	-4.6729	-4.9792	-4.2875	-4.9646	-4.4104	-4.2792	74.967	307.065	307.490	293.744	294.368	-30.531	237.134	244.547	62.651	286.025	282.441	-25.910	319.132	50.452	-5.465	283.836	0.0003065	0.00064306	0.0002546	1417.1	2.0878e-06	4.4665e-06	1547.6	503.86	3.8143e-06	3.4136e-06	639.49	231.27	161.88	56.508	4.2789e-06	103.85	3.8316e-05	2.8212e-05	7.6602e-06	1186.7	3.4519e-07	2.9312e-07	1292.4	418.47	3.2475e-07	2.96e-07	515.26	188.99	131.34	45.881	3.0659e-07	82.678	189.905	24.091	8.489	-26.171	97.998	76.515	-25.978	-22.065	125.357	84.281	-23.144	-18.250	-17.984	-14.123	120.893	-15.314	-8191	255	
44676.855	1	1	0	0	0.13099	0.038464	0.24102	0.21865	0.15582	0.38317	0.17697	0.068186	0.20549	0.10085	0.30504	0.13255	0.056092	0.097989	0.19204	0.12092	-4.6375	-4.225	-4.5083	-4.9583	-4.1646	-4.9042	-4.8187	-4.2667	-4.9604	-4.35	-4.6375	-5.2	-4.0437	-4.8771	-4.6813	-4.2688	56.750	68.944	317.952	-33.882	222.204	24.091	217.959	260.815	103.396	240.228	316.829	229.523	298.242	-37.826	81.421	247.282	0.0003243	0.00057287	0.00018081	1428.9	4.1612e-06	4.1371e-06	1555.1	510.83	5.2789e-06	4.7562e-06	637.21	233.6	163.93	57.731	5.5301e-06	105.85	3.8932e-05	2.8259e-05	7.865e-06	1195.9	3.3474e-07	2.9275e-07	1302.1	421.92	3.1976e-07	3.1163e-07	517.54	191.59	132.71	46.603	3.223e-07	84.274	197.049	33.281	4.123	-25.977	100.142	109.176	-26.054	-22.347	102.727	48.158	-23.209	-18.730	-18.121	-13.990	69.711	-15.078	-8191	255	
44676.977	1	1	0	0	0.078258	0.12402	0.27738	0.30773	0.1089	0.14652	0.14433	0.17537	0.14276	0.17673	0.28523	0.22589	0.15728	0.29751	0.19786	0.28386	-4.7667	-4.1208	-4.2167	-5.2958	-4.175	-4.5458	-4.8875	-4.2021	-4.9875	-4.4521	-4.4625	-5.1167	-4.1875	-4.7333	-4.675	-4.2729	208.591	118.813	158.550	256.770	30.659	310.944	248.456	297.713	247.937	275.797	239.906	246.082	286.551	-5.794	206.606	281.164	0.00031106	0.00048679	0.00029979	1442	4.6277e-06	5.98e-06	1581	515.33	4.0951e-06	3.335e-06	656.3	238.55	167.67	58.841	4.2222e-06	108.45	3.8947e-05	2.8543e-05	7.9474e-06	1206	3.151e-07	3.0459e-07	1322.6	427.44	3.334e-07	3.1615e-07	528.78	195.15	135.27	47.469	3.267e-07	86.354	189.882	18.652	45.843	-25.906	109.950	71.661	-26.137	-22.034	128.235	88.522	-23.379	-18.493	-17.850	-13.550	91.809	-14.973	-8191	255	
44677.074	1	1	0	0	0.21481	0.11799	0.21208	0.14465	0.069563	0.10871	0.19408	0.16542	0.087089	0.2521	0.20132	0.25812	0.17844	0.060218	0.10927	0.18443	-4.7438	-4.5312	-4.1771	-5.225	-4.1042	-4.525	-4.8958	-4.2604	-4.8	-4.6479	-4.3333	-5.0854	-4.2917	-4.5854	-4.6813	-4.2104	-39.887	64.758	268.786	250.860	250.140	196.645	225.257	311.606	293.823	185.033	261.513	299.074	298.470	66.373	162.593	278.791	0.0003062	0.00061894	0.00018447	1466.7	4.7247e-06	5.6819e-06	1610.5	522.62	7.7065e-06	6.0246e-06	657.16	239.23	166.61	58.173	6.1145e-06	106.32	4.1393e-05	2.9608e-05	8.1248e-06	1228.6	3.465e-07	3.1602e-07	1345.2	432.94	3.3608e-07	3.2922e-07	530.15	195.46	134.43	47.067	3.1533e-07	84.98	195.964	46.355	3.660	-25.972	75.955	100.284	-26.027	-22.246	107.291	88.950	-23.128	-18.571	-18.166	-13.860	82.030	-15.322	-8191	255	
44677.172	1	1	0	0	0.16823	0.074666	0.32326	0.17459	0.14343	0.074739	0.22519	0.17211	0.18225	0.17466	0.086583	0.23785	0.23232	0.016783	0.059224	0.18579	-4.4125	-4.6792	-4.1646	-5.1958	-4.1083	-4.4542	-5.1062	-4.2583	-4.8063	-4.7083	-4.1583	-5.1792	-4.2917	-4.2104	-4.9979	-4.2708	-15.225	51.866	98.057	-39.637	-13.620	48.030	232.161	199.830	55.610	-10.277	203.905	297.537	317.315	251.899	283.226	302.069	0.00026564	0.00049012	9.6971e-05	1437.7	3.2908e-06	5.0197e-06	1568.9	513.66	4.771e-06	7.4704e-06	646.81	234.34	164.59	58.016	4.4068e-06	106.37	3.9818e-05	2.9309e-05	8.2512e-06	1201.7	3.4004e-07	3.2377e-07	1311.7	425.89	3.3694e-07	3.2332e-07	522.45	192.76	133.25	46.667	3.3863e-07	84.74	195.639	11.613	22.667	-25.992	102.708	100.338	-25.800	-22.066	106.512	70.641	-23.251	-18.531	-17.980	-13.933	66.096	-14.718	-8191	255	
44677.266	1	1	0	0	0.18358	0.12618	0.11569	0.18777	0.24369	0.035901	0.055844	0.060289	0.4448	0.053693	0.1516	0.18183	0.20663	0.30069	0.07816	0.14195	-4.3333	-4.6271	-4.1271	-5.0333	-4.3375	-4.3083	-5.1937	-4.2562	-4.5271	-4.675	-4.1146	-5.0896	-4.5771	-4.1083	-4.9688	-4.3208	75.676	317.697	269.096	309.835	64.724	319.095	264.118	-14.884	196.433	241.344	-28.441	242.450	227.984	304.451	250.244	278.350	0.00027297	0.00053085	0.00015873	1440.6	2.589e-06	1.6864e-06	1590.5	518.65	3.7486e-06	5.4516e-06	650.39	239.74	167.1	59.355	4.0296e-06	109.8	4.0336e-05	2.8448e-05	8.2061e-06	1207.4	3.4896e-07	3.0881e-07	1327.1	429.81	3.5031e-07	3.1066e-07	529.67	195.92	135.6	47.936	3.5052e-07	87.502	181.894	4.749	-19.614	-26.056	111.639	76.027	-25.967	-22.280	156.254	91.091	-23.144	-18.426	-18.029	-13.857	51.648	-15.190	-8191	255	
44677.359	1	1	0	0	0.13096	0.25088	0.069484	0.35545	0.20927	0.15813	0.27466	0.23251	0.22475	0.13714	0.14645	0.29448	0.14417	0.18763	0.10865	0.26443	-3.9729	-4.9187	-3.9062	-4.9521	-4.5125	-3.9229	-5.0979	-4.2521	-4.4958	-4.9104	-4.0687	-4.8458	-4.6104	-4	-4.8667	-4.4104	264.145	197.447	125.821	18.473	-15.287	94.570	239.479	315.732	134.737	274.172	265.532	277.587	-1.933	311.218	309.227	257.824	0.00032205	0.00047736	0.00021701	1462.7	4.2579e-06	4.025e-06	1600	523.67	4.573e-06	6.1161e-06	670.99	246.06	169.9	60.211	5.4178e-06	112.12	4.3649e-05	3.0523e-05	8.8175e-06	1219.7	3.5648e-07	3.4202e-07	1344.5	435.29	3.7516e-07	3.4565e-07	541.01	200.55	137.85	48.814	3.5059e-07	89.174	199.120	-7.872	46.596	-25.866	79.849	96.908	-25.889	-22.122	126.867	87.716	-22.948	-18.531	-17.797	-14.010	76.282	-14.753	-8191	255	
44677.457	1	1	0	0	0.15714	0.28752	0.18876	0.19327	0.087757	0.34223	0.26146	0.22697	0.24587	0.074276	0.10514	0.15382	0.28117	0.18144	0.087765	0.12336	-3.9396	-4.8938	-3.7708	-4.7854	-4.7542	-3.9958	-5.1042	-4.5667	-4.2812	-5.0188	-4.1542	-4.8187	-4.8938	-4.2833	-4.8333	-4.5333	-9.477	-37.671	124.038	261.359	164.526	-9.812	310.652	299.480	169.931	32.136	263.243	272.496	287.274	293.609	181.225	70.212	0.00033953	0.00031005	0.0001491	1467.7	5.8169e-06	5.96e-06	1626.2	531.8	3.5043e-06	4.769e-06	676.68	248.45	172.56	61.722	4.4552e-06	114.66	4.5063e-05	3.1163e-05	9.0644e-06	1232.7	3.5872e-07	3.4197e-07	1362.4	441.29	3.677e-07	3.4568e-07	548.1	204.38	140.22	49.749	3.4661e-07	91.54	196.882	27.217	-3.404	-25.922	124.806	89.670	-26.099	-22.008	153.942	120.249	-22.569	-18.762	-17.725	-14.205	96.368	-15.105	-8191	255	
44677.555	1	1	0	0	0.23202	0.051225	0.10122	0.044616	0.058228	0.13424	0.30044	0.25741	0.053483	0.1033	0.1366	0.31807	0.29613	0.061469	0.24597	0.08138	-3.7313	-5.1062	-4.1104	-4.7667	-4.7688	-4.0437	-5.0792	-4.5542	-4.1479	-4.8688	-4.1792	-4.5458	-4.9917	-4.1292	-4.6979	-4.6438	-11.589	57.604	182.238	-19.860	52.819	13.259	249.946	270.061	274.787	-14.659	264.381	280.682	294.810	-30.768	132.204	-2.253	0.00029455	0.00032982	0.00023505	1495.5	4.2178e-06	7.9621e-06	1639.9	533.54	3.0469e-06	5.2922e-06	671.55	247.06	171.42	61.138	6.0015e-06	112.36	4.3069e-05	3.3061e-05	9.2941e-06	1253.3	3.6521e-07	3.6042e-07	1374	443.57	3.7663e-07	3.5004e-07	544.46	202.23	138.42	49.135	3.6584e-07	89.392	204.565	10.185	-4.879	-26.093	34.971	110.959	-25.950	-21.981	111.857	74.505	-22.644	-18.875	-17.757	-14.146	108.849	-15.087	-8191	255	
#DATA ENDS
