BOXY.EXE: ISS Imagent and Oximeter Data Acquisition Program Version 0.80
Ascii Record File

#ACQ INFORMATION
2  Detector Channels 
16  External MUX Channels 
1  Auxiliary Channels 
5000  Waveform (CCF) Frequency (Hz)
1  Waveforms Skipped 
30  Waveforms Averaged 
1  Cycles Averaged 
16  Acquisitions per Waveform 
10.0806  Updata Rate (Hz) 

#FILE INFORMATION
TRUE -- External MUX Channel results are PARSED.
FALSE -- AC DC and Phase are NOT grouped.
TRUE -- Companion Program Settings File CREATED.
FALSE -- AC data not excluded
FALSE -- DC data not excluded
FALSE -- Phase data not excluded
FALSE -- Auxillary Chn. data not excluded
Tab delimiters

#CALIBRATION STATE
TRUE -- Waveform Calibration Values APPLIED.


#AUX CALIBRATION VALUES
Val Type	aux-1	

Term	1.0000e+00	
Factor	0.0000e+00	


#WF CALIBRATION VALUES
A = Detector Channel
Val Type	A-AC1	A-AC2	A-AC3	A-AC4	A-AC5	A-AC6	A-AC7	A-AC8	A-AC9	A-AC10	A-AC11	A-AC12	A-AC13	A-AC14	A-AC15	A-AC16	A-DC1	A-DC2	A-DC3	A-DC4	A-DC5	A-DC6	A-DC7	A-DC8	A-DC9	A-DC10	A-DC11	A-DC12	A-DC13	A-DC14	A-DC15	A-DC16	A-Ph1	A-Ph2	A-Ph3	A-Ph4	A-Ph5	A-Ph6	A-Ph7	A-Ph8	A-Ph9	A-Ph10	A-Ph11	A-Ph12	A-Ph13	A-Ph14	A-Ph15	A-Ph16	

Term	0.00000e+00	0.00000e+00	0.00000e+00	0.00000e+00	0.00000e+00	0.00000e+00	0.00000e+00	0.00000e+00	0.00000e+00	0.00000e+00	0.00000e+00	0.00000e+00	0.00000e+00	0.00000e+00	0.00000e+00	0.00000e+00	0.00000e+00	0.00000e+00	0.00000e+00	0.00000e+00	0.00000e+00	0.00000e+00	0.00000e+00	0.00000e+00	0.00000e+00	0.00000e+00	0.00000e+00	0.00000e+00	0.00000e+00	0.00000e+00	0.00000e+00	0.00000e+00	0.00000e+00	0.00000e+00	0.00000e+00	0.00000e+00	0.00000e+00	0.00000e+00	0.00000e+00	0.00000e+00	0.00000e+00	0.00000e+00	0.00000e+00	0.00000e+00	0.00000e+00	0.00000e+00	0.00000e+00	0.00000e+00	
Factor	1.00000e+00	1.00000e+00	1.00000e+00	1.00000e+00	1.00000e+00	1.00000e+00	1.00000e+00	1.00000e+00	1.00000e+00	1.00000e+00	1.00000e+00	1.00000e+00	1.00000e+00	1.00000e+00	1.00000e+00	1.00000e+00	1.00000e+00	1.00000e+00	1.00000e+00	1.00000e+00	1.00000e+00	1.00000e+00	1.00000e+00	1.00000e+00	1.00000e+00	1.00000e+00	1.00000e+00	1.00000e+00	1.00000e+00	1.00000e+00	1.00000e+00	1.00000e+00	X	X	X	X	X	X	X	X	X	X	X	X	X	X	X	X	

B = Detector Channel
Val Type	B-AC1	B-AC2	B-AC3	B-AC4	B-AC5	B-AC6	B-AC7	B-AC8	B-AC9	B-AC10	B-AC11	B-AC12	B-AC13	B-AC14	B-AC15	B-AC16	B-DC1	B-DC2	B-DC3	B-DC4	B-DC5	B-DC6	B-DC7	B-DC8	B-DC9	B-DC10	B-DC11	B-DC12	B-DC13	B-DC14	B-DC15	B-DC16	B-Ph1	B-Ph2	B-Ph3	B-Ph4	B-Ph5	B-Ph6	B-Ph7	B-Ph8	B-Ph9	B-Ph10	B-Ph11	B-Ph12	B-Ph13	B-Ph14	B-Ph15	B-Ph16	

Term	0.00000e+00	0.00000e+00	0.00000e+00	0.00000e+00	0.00000e+00	0.00000e+00	0.00000e+00	0.00000e+00	0.00000e+00	0.00000e+00	0.00000e+00	0.00000e+00	0.00000e+00	0.00000e+00	0.00000e+00	0.00000e+00	0.00000e+00	0.00000e+00	0.00000e+00	0.00000e+00	0.00000e+00	0.00000e+00	0.00000e+00	0.00000e+00	0.00000e+00	0.00000e+00	0.00000e+00	0.00000e+00	0.00000e+00	0.00000e+00	0.00000e+00	0.00000e+00	-1.19857e+02	-1.24507e+02	-1.35452e+02	-1.83472e+02	-6.00384e+01	-4.75453e+01	-1.57982e+02	-1.62015e+02	-6.06145e+01	-8.17819e+01	-1.70621e+02	-1.71027e+02	-1.79027e+02	-1.76789e+02	-5.07464e+01	-1.49691e+02	
Factor	1.74378e-05	1.02985e-04	3.40426e-05	1.56174e-01	9.33459e-07	1.34348e-06	1.70957e-01	5.49417e-02	8.43037e-07	1.23105e-06	9.08538e-02	2.97122e-02	2.77676e-02	9.37205e-03	9.74277e-07	1.31938e-02	1.29289e-06	1.35560e-06	3.76670e-07	7.60921e-02	1.47965e-08	1.48193e-08	7.83401e-02	2.67541e-02	1.47987e-08	1.48410e-08	4.23708e-02	1.39488e-02	1.35316e-02	4.53434e-03	1.47790e-08	6.16309e-03	X	X	X	X	X	X	X	X	X	X	X	X	X	X	X	X	



#DISTANCE SETTINGS
A = Detector Channel
A-1	A-2	A-3	A-4	A-5	A-6	A-7	A-8	A-9	A-10	A-11	A-12	A-13	A-14	A-15	A-16	

2.5000e+00	3.0000e+00	2.5000e+00	3.0000e+00	2.0000e+00	3.0000e+00	1.5000e+00	3.0000e+00	3.0000e+00	3.0000e+00	3.0000e+00	3.0000e+00	3.0000e+00	3.0000e+00	1.5000e+00	3.0000e+00	

B = Detector Channel
B-1	B-2	B-3	B-4	B-5	B-6	B-7	B-8	B-9	B-10	B-11	B-12	B-13	B-14	B-15	B-16	

1.0000e+01	1.0000e+01	1.0000e+01	1.4400e+00	1.0000e+01	1.0000e+01	1.5100e+00	1.9400e+00	1.0000e+01	1.0000e+01	1.9900e+00	2.4900e+00	2.4100e+00	2.9000e+00	1.0000e+01	2.9800e+00	




#DATA BEGINS
time	group	step	mark	flag	A-AC1	A-AC2	A-AC3	A-AC4	A-AC5	A-AC6	A-AC7	A-AC8	A-AC9	A-AC10	A-AC11	A-AC12	A-AC13	A-AC14	A-AC15	A-AC16	A-DC1	A-DC2	A-DC3	A-DC4	A-DC5	A-DC6	A-DC7	A-DC8	A-DC9	A-DC10	A-DC11	A-DC12	A-DC13	A-DC14	A-DC15	A-DC16	A-Ph1	A-Ph2	A-Ph3	A-Ph4	A-Ph5	A-Ph6	A-Ph7	A-Ph8	A-Ph9	A-Ph10	A-Ph11	A-Ph12	A-Ph13	A-Ph14	A-Ph15	A-Ph16	B-AC1	B-AC2	B-AC3	B-AC4	B-AC5	B-AC6	B-AC7	B-AC8	B-AC9	B-AC10	B-AC11	B-AC12	B-AC13	B-AC14	B-AC15	B-AC16	B-DC1	B-DC2	B-DC3	B-DC4	B-DC5	B-DC6	B-DC7	B-DC8	B-DC9	B-DC10	B-DC11	B-DC12	B-DC13	B-DC14	B-DC15	B-DC16	B-Ph1	B-Ph2	B-Ph3	B-Ph4	B-Ph5	B-Ph6	B-Ph7	B-Ph8	B-Ph9	B-Ph10	B-Ph11	B-Ph12	B-Ph13	B-Ph14	B-Ph15	B-Ph16	aux-1	digaux	

36460.301	1	1	0	768	0.10947	0.16832	0.096174	0.22254	0.10046	0.22462	0.16168	0.11856	0.26173	0.094827	0.12355	0.12704	0.19721	0.20462	0.21549	0.21941	-3.8771	-3.4979	-3.6208	-4.3729	-3.3083	-4.0625	-4.025	-3.6083	-4.1271	-3.7354	-3.7167	-4.3583	-3.3854	-4.0687	-3.8083	-3.5833	213.556	380.906	523.326	496.360	461.857	355.795	434.467	261.901	369.559	494.012	293.241	484.048	277.272	196.967	368.598	514.466	0.00035198	0.0014195	5.3716e-05	1087.2	4.2486e-06	5.8433e-06	1239.2	269.59	5.0827e-06	8.1757e-06	369.24	104.79	64.659	20.624	8.0906e-06	43.886	0.0012822	0.001335	0.00037183	1071	1.4585e-05	1.4439e-05	1212.4	270.01	1.4302e-05	1.445e-05	375.79	108.95	71.04	23.033	1.4505e-05	45.904	197.443	210.044	275.169	189.527	218.587	269.960	189.370	192.887	258.660	355.844	192.522	197.538	197.644	202.730	400.430	201.094	-8191	255	
36460.395	1	1	0	0	0.11375	0.09773	0.46595	0.16234	0.26049	0.15609	0.10471	0.14461	0.036531	0.33735	0.31606	0.19885	0.25919	0.11555	0.20248	0.10493	-3.7708	-3.4229	-3.5563	-4.2833	-3.2917	-3.6958	-4.1104	-3.5083	-4.0312	-3.875	-3.5229	-4.1229	-3.5375	-3.7687	-3.9729	-3.4	519.581	254.039	201.639	490.992	461.248	286.646	450.793	487.738	294.340	509.855	499.510	528.393	219.315	395.494	196.552	448.981	0.00040776	0.0014654	0.00025177	1096.9	1.122e-05	1.0523e-05	1242.3	272.81	1.1748e-06	1.1713e-05	378.64	105.49	65.793	20.473	9.4547e-06	43.213	0.0012813	0.0013361	0.00037409	1073.2	1.4782e-05	1.4923e-05	1222.6	275.67	1.4889e-05	1.5221e-05	383.93	110.04	73.319	23.12	1.5285e-05	45.598	221.005	301.553	393.331	189.553	512.388	438.273	189.144	193.110	471.373	300.755	192.571	197.107	197.666	202.435	297.650	201.316	-8191	255	
36460.492	1	1	0	0	0.10187	0.13594	0.066065	0.15545	0.1711	0.29068	0.16729	0.06303	0.25832	0.13659	0.0077664	0.25892	0.3388	0.16391	0.15817	0.19958	-3.6562	-3.8292	-3.3625	-4.4146	-3.7604	-3.8812	-4.3896	-3.4021	-3.95	-3.8438	-3.4792	-4.2562	-3.6479	-3.6	-4.1354	-3.6333	399.075	304.218	197.143	484.792	449.739	226.043	499.834	371.530	432.457	326.365	218.980	200.747	480.432	231.056	517.247	478.095	0.00048521	0.00093284	0.00044062	1101.1	3.7203e-06	1.0292e-05	1254.2	281.02	7.5963e-06	9.0601e-06	382.38	107.67	67.127	20.634	2.6861e-06	43.92	0.0013412	0.001377	0.00038303	1085.8	1.4836e-05	1.4836e-05	1229.8	281.3	1.4538e-05	1.4722e-05	388.57	111.34	73.912	23.092	1.4612e-05	45.85	212.761	297.205	176.235	189.408	333.952	359.981	189.287	193.152	267.281	520.881	192.669	197.045	197.324	202.912	275.163	201.650	-8191	255	
36460.590	1	1	0	0	0.32738	0.040497	0.051028	0.34825	0.058152	0.099929	0.19254	0.021605	0.079567	0.1045	0.13521	0.15313	0.28492	0.1251	0.2227	0.18524	-3.475	-3.9083	-3.6292	-4.2708	-3.6437	-3.6125	-4.3104	-3.3396	-3.8021	-3.9688	-3.5604	-4.2229	-3.6125	-3.4562	-4.1167	-3.5521	344.801	524.759	211.080	502.420	461.227	398.488	492.539	390.613	324.625	312.444	487.590	506.842	501.565	187.826	376.691	214.217	0.000141	0.0018871	0.00027454	1090.9	9.648e-06	8.2005e-06	1240.1	274.36	1.1896e-05	1.4139e-05	375.97	106.61	66.592	20.845	5.4516e-06	44.905	0.0012928	0.0013465	0.00037379	1073.8	1.4731e-05	1.4729e-05	1216.4	277	1.4732e-05	1.4845e-05	384.01	110.82	73.114	23.327	1.4537e-05	46.523	236.390	269.799	340.627	189.754	346.773	398.352	189.263	193.516	277.638	353.176	192.554	197.353	197.544	202.949	303.049	201.191	-8191	255	
36460.684	1	1	0	0	0.10127	0.22386	0.061884	0.22524	0.16273	0.097922	0.10959	0.11464	0.15457	0.1408	0.25924	0.11966	0.17229	0.14426	0.1921	0.09526	-3.475	-3.9375	-3.3333	-4.1521	-3.7292	-3.5187	-4.4083	-3.5146	-3.8063	-4.1125	-3.4437	-4.1854	-3.8104	-3.4521	-4.1958	-3.5563	470.098	379.713	503.062	506.517	388.698	193.884	473.752	375.366	278.776	290.999	531.471	223.451	354.706	290.128	451.280	443.217	0.00040875	0.00067453	0.00012755	1086.7	9.5803e-06	2.7122e-06	1235.8	272.36	4.3639e-06	1.3228e-05	376.02	105.19	64.374	20.226	4.0757e-06	43.551	0.0012952	0.0013482	0.00036683	1065.5	1.4497e-05	1.4548e-05	1210.8	272.52	1.4288e-05	1.4312e-05	378.49	108.77	70.907	22.651	1.398e-05	45.327	195.442	234.706	486.843	189.172	338.438	207.125	189.215	192.974	355.464	269.884	192.743	197.298	196.793	202.304	276.457	201.549	-8191	255	
36460.781	1	1	0	0	0.18924	0.1091	0.23474	0.30861	0.12713	0.099618	0.16321	0.053472	0.10886	0.15158	0.073142	0.38418	0.13753	0.18467	0.061176	0.051588	-3.3354	-4.0667	-3.4271	-4.0938	-3.7479	-3.4604	-4.3938	-3.7687	-3.4146	-4.0542	-3.4208	-3.8417	-3.8667	-3.3667	-3.9729	-3.6083	488.732	360.117	440.812	485.503	396.502	230.316	451.725	520.365	360.591	447.264	453.379	519.190	393.328	497.929	228.800	309.072	0.00049097	0.00032597	0.00028485	1079.6	7.6581e-06	8.5793e-06	1219.4	268.02	5.1795e-06	7.0732e-06	369.73	103.75	63.645	19.752	3.6232e-06	43.055	0.0012533	0.0012931	0.00035774	1057.3	1.4057e-05	1.4057e-05	1196.5	269.31	1.398e-05	1.4086e-05	373.49	107.36	70.293	22.292	1.3899e-05	44.712	192.756	419.486	259.774	189.646	465.043	264.818	189.032	193.218	303.409	318.104	192.949	196.661	197.340	202.927	282.608	201.477	-8191	255	
36460.898	1	1	0	0	0.090929	0.12401	0.12066	0.065862	0.14043	0.15212	0.28906	0.27348	0.10277	0.032315	0.1484	0.12247	0.25718	0.21741	0.15924	0.07632	-3.1792	-4.2271	-3.2729	-3.8396	-3.8937	-3.3125	-4.3521	-3.7062	-3.5333	-4.3854	-3.5271	-3.8667	-4.0396	-3.2083	-3.9437	-3.7771	511.261	328.663	401.052	204.571	182.425	343.397	513.384	520.849	434.418	459.671	189.725	247.222	497.172	490.496	303.019	517.388	0.00040191	0.00072708	0.0002158	1083.5	8.9765e-06	1.3658e-05	1219.2	268.18	1.0825e-05	4.8268e-06	372.18	104.29	64.603	20.142	6.5929e-06	43.925	0.0012441	0.0012741	0.0003511	1059.7	1.3788e-05	1.3772e-05	1197.5	269.9	1.3604e-05	1.3701e-05	373.91	107.65	70.627	22.408	1.3442e-05	45.08	222.627	528.748	182.893	189.374	282.597	472.434	189.049	193.076	296.908	372.610	192.635	196.782	197.122	202.578	250.873	201.664	-8191	255	
36460.996	1	1	0	0	0.16461	0.12706	0.11174	0.01148	0.36969	0.26997	0.3635	0.36786	0.14388	0.28657	0.1793	0.11793	0.21567	0.16673	0.15286	0.10385	-2.9437	-4.0542	-3.45	-3.825	-4.0687	-3.3646	-4.2063	-3.8604	-3.3063	-4.1646	-3.7021	-3.725	-3.9938	-3.3979	-3.8021	-4.0396	441.816	201.429	479.013	191.132	191.207	214.412	527.880	425.538	211.688	484.302	398.444	244.520	514.183	498.327	459.928	368.033	0.00030937	0.00036633	0.0001919	1084.2	1.3453e-05	2.2731e-05	1225.8	271.56	4.8197e-06	5.2819e-06	379.5	105.64	65.931	20.388	3.6501e-06	43.816	0.0011861	0.0012291	0.00033811	1060.8	1.3432e-05	1.3211e-05	1202.5	271.55	1.3247e-05	1.3121e-05	378.01	108.38	71.223	22.476	1.3036e-05	45.236	225.348	401.493	297.100	189.476	209.612	319.906	189.121	193.110	203.835	394.652	192.894	197.191	197.287	203.075	337.912	200.794	-8191	255	
36461.094	1	1	0	0	0.10856	0.18149	0.31809	0.03102	0.0083119	0.063538	0.32814	0.10827	0.079851	0.19968	0.091327	0.35555	0.0419	0.1079	0.056765	0.20436	-3.1042	-4.1083	-3.45	-3.8563	-4.0708	-3.4	-4.0396	-4.0292	-3.5729	-4.0354	-3.5479	-3.5333	-4.1438	-3.3292	-3.8688	-3.9854	334.478	461.684	295.815	260.592	180.273	469.264	475.982	452.988	317.948	322.034	455.871	525.637	392.661	226.170	210.391	443.751	0.00049823	0.00076639	0.00024251	1095.3	4.8942e-06	1.4267e-05	1244.3	278.49	5.2645e-06	6.5114e-06	386.05	107.42	67.586	20.713	1.5452e-05	44.018	0.0011663	0.0011899	0.00033629	1070.9	1.3016e-05	1.313e-05	1217.8	276.95	1.3129e-05	1.3147e-05	384.5	109.74	72.681	22.602	1.2766e-05	45.313	208.004	199.610	254.589	189.484	248.354	364.532	189.088	192.901	203.878	342.324	192.832	196.969	197.778	202.696	299.668	201.553	-8191	255	
36461.188	1	1	0	0	0.037215	0.13963	0.12727	0.13718	0.15295	0.064861	0.1747	0.38085	0.14732	0.075081	0.20956	0.085561	0.21949	0.2431	0.17208	0.20061	-3.1083	-4.0938	-3.8812	-3.4896	-4.1	-3.4458	-4.0479	-4.1083	-3.4667	-3.9938	-3.9188	-3.5792	-4.2438	-3.4854	-3.6083	-4.1312	406.759	343.316	294.583	207.541	289.366	474.669	513.868	499.877	276.756	201.621	529.384	461.639	308.175	483.744	421.497	390.236	0.0003134	0.00045827	0.00015396	1116.6	2.8145e-06	1.8279e-05	1264.1	286.3	3.9314e-06	6.8988e-06	387.99	107.92	68.005	20.097	4.4759e-06	42.62	0.001126	0.0011487	0.00032342	1082.6	1.2301e-05	1.2377e-05	1227.5	282.85	1.2168e-05	1.1999e-05	385.6	109.09	72.121	21.947	1.1899e-05	43.546	534.429	218.520	249.217	189.318	473.899	419.928	189.189	193.040	421.961	307.863	192.916	197.282	197.739	202.552	381.696	201.463	-8191	255	
36461.285	1	1	0	0	0.053144	0.077721	0.15894	0.10966	0.11664	0.06009	0.26066	0.076704	0.23229	0.098569	0.28918	0.199	0.26729	0.10086	0.23357	0.14742	-3.1437	-3.7812	-3.8917	-3.5021	-4.0646	-3.5521	-3.8646	-4.0667	-3.475	-3.8042	-4.0667	-3.4896	-4.0583	-3.6417	-3.5187	-4.2125	272.185	260.763	210.686	244.486	431.775	527.711	446.113	510.588	245.829	442.500	445.019	307.180	219.961	194.757	329.275	399.422	0.00057802	0.00058078	0.00038513	1095.6	8.3214e-06	4.0391e-06	1240.1	281.51	1.2568e-05	9.2696e-06	386.75	105.68	66.812	19.693	3.1235e-06	41.954	0.0010504	0.0010815	0.00030068	1060.8	1.1682e-05	1.1751e-05	1201.1	277.87	1.1754e-05	1.1782e-05	382.76	107.35	71.476	21.569	1.1755e-05	42.945	193.728	458.562	347.360	189.506	258.824	311.590	189.164	192.838	278.095	275.813	192.735	196.735	197.674	202.829	395.949	201.567	-8191	255	
36461.383	1	1	0	0	0.25399	0.11105	0.079772	0.31005	0.20798	0.16962	0.27638	0.21792	0.19577	0.1079	0.23202	0.18699	0.061418	0.057895	0.17757	0.50037	-3.0542	-3.6375	-3.9792	-3.3104	-4.1125	-3.7375	-3.8063	-4.2729	-3.4771	-3.7146	-4.0958	-3.4583	-4.0125	-3.825	-3.2958	-4.1958	278.624	430.288	411.999	488.042	461.249	481.450	517.651	501.010	425.604	204.718	479.389	424.875	301.552	371.554	292.828	502.591	0.00049351	0.00032624	0.00022191	1098.7	1.2886e-06	8.6564e-06	1242.8	283.52	1.0894e-05	3.6993e-06	387.91	106.64	68.252	20.28	4.5483e-06	42.563	0.0010559	0.0010918	0.00030477	1063.9	1.1681e-05	1.18e-05	1201.5	279.92	1.1576e-05	1.1714e-05	383.11	107.85	72.221	21.729	1.1495e-05	43.324	198.539	380.888	232.233	189.500	486.199	398.520	188.772	192.854	215.814	344.556	192.284	196.969	196.536	202.287	534.606	201.396	-8191	255	
36461.500	1	1	0	0	0.063904	0.28303	0.14186	0.25856	0.098954	0.15581	0.21256	0.17237	0.14155	0.10623	0.11668	0.2444	0.062312	0.14503	0.060288	0.19451	-3.1771	-3.6604	-4.0188	-3.4437	-3.8812	-3.8667	-3.4896	-4.2646	-3.5646	-3.7729	-4.1854	-3.3583	-3.9979	-3.9396	-3.5062	-4.2479	422.215	344.896	424.702	438.794	337.028	362.213	413.396	449.525	395.179	322.881	427.687	431.655	236.424	348.907	335.225	490.707	0.00033288	0.00053739	0.00027979	1102.5	4.6958e-06	4.3863e-06	1242.1	284.17	1.7305e-06	9.4136e-06	384.82	107.12	68.761	20.29	3.6889e-06	43.468	0.0010206	0.001063	0.00029237	1057.7	1.1608e-05	1.1698e-05	1194.5	278.76	1.1521e-05	1.1828e-05	381.62	108.34	72.123	21.887	1.1567e-05	43.877	214.000	511.661	179.559	188.776	285.924	292.683	188.630	192.557	393.027	390.284	191.925	196.756	196.580	202.645	415.501	201.158	-8191	255	
36461.598	1	1	0	0	0.05405	0.20392	0.022719	0.32949	0.25548	0.060493	0.41827	0.12446	0.10822	0.15985	0.16955	0.1936	0.20929	0.17789	0.27735	0.17046	-3.3083	-3.5583	-4.0021	-3.6333	-3.8771	-4.0521	-3.4771	-4.1479	-3.5875	-3.6625	-4.1687	-3.5042	-3.8021	-3.9875	-3.2854	-4.1937	292.227	514.529	465.740	224.709	356.728	215.667	438.950	185.434	351.618	352.891	515.520	471.908	410.965	505.839	248.804	478.641	0.00021592	0.0012251	0.00010881	1097.3	4.9364e-06	1.0243e-05	1238.5	282.42	8.1204e-07	1.2849e-05	388.23	107.7	68.033	20.355	7.6126e-06	44.078	0.0010457	0.001067	0.00029421	1056.4	1.1646e-05	1.175e-05	1193.2	277.08	1.1849e-05	1.1734e-05	380.62	108.14	71.724	22.016	1.1582e-05	44.484	221.199	285.391	284.842	189.028	470.563	263.769	188.647	192.670	210.434	315.958	192.472	196.692	197.006	202.650	423.485	201.104	-8191	255	
36461.691	1	1	0	0	0.22757	0.1148	0.053964	0.24232	0.10145	0.023738	0.37612	0.32081	0.14607	0.13947	0.14806	0.21264	0.24875	0.17714	0.16673	0.15696	-3.4333	-3.4417	-4.1271	-3.5083	-3.7083	-4.0333	-3.4833	-4.1042	-3.8771	-3.5104	-4.1188	-3.5479	-3.625	-4.1854	-3.3146	-4.1521	265.516	241.233	233.037	178.017	293.860	229.078	447.385	458.667	275.078	286.257	486.512	452.818	480.826	249.514	442.185	517.060	0.00046569	0.0014863	0.00014844	1099.7	2.4124e-06	2.2981e-05	1235.1	280.69	8.1685e-06	1.2531e-05	385.14	105.43	66.812	19.751	1.038e-06	42.231	0.0010421	0.001062	0.00029492	1058.8	1.1656e-05	1.1586e-05	1193.3	275.5	1.1662e-05	1.1607e-05	376.22	106.22	70.129	21.404	1.1425e-05	42.913	212.495	256.128	480.684	189.021	432.806	313.088	188.612	192.670	342.031	261.245	192.018	196.475	196.858	202.499	447.090	201.907	-8191	255	
36461.789	1	1	0	0	0.10537	0.21964	0.17779	0.19403	0.21011	0.1846	0.29259	0.11177	0.024469	0.23372	0.07492	0.092832	0.074019	0.14736	0.20492	0.052013	-3.5104	-3.3208	-4.1583	-3.7583	-3.525	-3.9333	-3.4833	-4.0771	-4.0771	-3.4021	-4.2396	-3.6604	-3.55	-4.0542	-3.5208	-4.0354	251.565	357.474	256.893	175.318	495.517	351.207	475.495	429.260	263.949	497.939	424.038	213.202	279.385	533.059	324.229	211.968	0.00037551	0.0005872	1.0225e-05	1082	5.4266e-06	6.6203e-06	1228.4	275.25	3.567e-06	8.9962e-06	379.49	103.43	64.948	19.63	4.5513e-06	41.752	0.0010145	0.0010392	0.000285	1047.7	1.1225e-05	1.1131e-05	1186.5	271.56	1.1113e-05	1.1077e-05	373.02	104.16	68.785	21.029	1.0936e-05	42.405	218.186	202.996	194.927	189.621	387.808	196.174	189.278	193.197	470.063	290.809	192.815	197.171	196.612	203.331	334.453	201.380	-8191	255	
36461.859	1	1	0	0	0.12855	0.11003	0.094348	0.2318	0.082777	0.051245	0.36986	0.34825	0.13872	0.14809	0.29084	0.070145	0.19492	0.28236	0.11378	0.17042	-3.625	-3.3146	-4.2354	-3.925	-3.5167	-4.1479	-3.4688	-3.8271	-4.0833	-3.3271	-4.1417	-3.8625	-3.4604	-4.2875	-3.4375	-3.7667	235.137	473.846	471.069	405.986	180.705	413.230	498.654	450.666	326.616	314.379	467.847	449.121	386.164	486.787	497.659	285.489	0.00040768	0.00050596	8.54e-05	1090.7	5.6974e-06	8.9167e-06	1236.8	280.34	5.7787e-06	1.0313e-05	379.23	105.41	66.784	19.945	5.0335e-06	42.998	0.00097461	0.00098837	0.00027335	1052.7	1.0751e-05	1.056e-05	1188.9	272.82	1.0581e-05	1.0508e-05	373.29	105.38	69.375	21.174	1.0323e-05	42.982	179.132	203.096	226.723	189.578	475.123	296.072	189.039	193.090	228.010	329.415	192.440	197.538	197.851	202.377	456.850	201.452	-8191	255	
36461.980	1	1	0	0	0.26189	0.22713	0.08827	0.27379	0.11714	0.18391	0.23527	0.048932	0.11855	0.12111	0.2834	0.19422	0.11831	0.29756	0.08165	0.1233	-3.8812	-3.2146	-4	-3.8167	-3.4688	-4.2958	-3.7562	-3.6813	-4.1021	-3.3542	-4.0042	-4.075	-3.3937	-4.1438	-3.5833	-3.6333	317.430	458.266	293.918	476.894	386.395	364.343	469.228	233.848	212.535	337.377	455.566	426.645	233.982	217.451	344.269	407.520	0.00041838	0.00060854	0.00023774	1095.1	4.1215e-06	1.9164e-05	1245.1	281.23	4.9687e-06	4.9703e-06	383.05	105.67	66.648	20.206	5.7352e-06	43.204	0.00090572	0.00093554	0.00025781	1051.9	1.012e-05	1.0025e-05	1191.6	273.21	9.9396e-06	1.0057e-05	374.22	105.82	69.209	21.302	9.9497e-06	43.311	210.121	340.206	264.914	189.636	466.807	349.715	189.105	192.657	272.526	190.128	192.363	197.330	196.939	202.268	465.290	201.703	-8191	255	
36462.074	1	1	0	0	0.066787	0.077881	0.099105	0.20873	0.047528	0.22185	0.19767	0.14472	0.33337	0.23778	0.16618	0.28579	0.19463	0.15614	0.19498	0.10176	-3.6646	-3.1813	-3.9562	-4.1167	-3.5292	-3.975	-3.8458	-3.6271	-4.0083	-3.325	-3.8104	-3.9688	-3.3458	-4.0979	-3.5479	-3.4229	370.496	461.265	408.985	514.477	183.620	427.583	494.493	399.122	380.506	424.130	397.804	501.192	449.321	246.799	277.948	509.249	0.00035912	0.00095988	0.00019471	1114.1	3.8273e-06	1.0657e-05	1253.5	285.82	4.9677e-06	5.8543e-06	391.94	107.13	68.332	20.675	5.9513e-06	43.628	0.00087346	0.00089348	0.00024881	1069.1	9.7122e-06	9.5819e-06	1207.9	278.21	9.6476e-06	9.6284e-06	381.35	107.29	70.51	21.368	9.6564e-06	43.426	220.383	530.653	254.565	189.761	311.241	513.955	188.951	193.038	248.994	288.887	192.643	197.374	197.515	202.743	317.585	201.290	-8191	255	
36462.172	1	1	0	0	0.27216	0.065622	0.038652	0.20128	0.090398	0.23445	0.13093	0.099498	0.073123	0.061817	0.31669	0.15914	0.13654	0.226	0.17033	0.38412	-3.7604	-3.3146	-3.7896	-4.3208	-3.3354	-3.8646	-3.8521	-3.7062	-4.0833	-3.4917	-3.7042	-4.1292	-3.3729	-4.0104	-3.8833	-3.5187	244.928	182.037	527.735	210.747	294.961	498.526	199.575	221.121	349.032	430.300	509.137	467.805	221.509	336.436	453.080	446.078	0.00046194	0.0009471	7.8814e-05	1113.1	3.9839e-06	3.2607e-06	1252.6	285.37	4.885e-06	9.7127e-06	386.83	106.03	66.428	19.758	7.7995e-06	42.244	0.00084874	0.00088133	0.00024354	1068.5	9.4784e-06	9.4769e-06	1202.2	275.74	9.3905e-06	9.5272e-06	375.3	104.82	68.636	20.757	9.3363e-06	42.016	212.335	404.075	180.221	189.577	469.476	246.941	189.032	192.525	213.090	280.159	192.537	196.575	197.081	202.670	373.034	201.395	-8191	255	
36462.293	1	1	0	0	0.093412	0.078728	0.15092	0.094027	0.18732	0.10878	0.078357	0.17028	0.098171	0.24174	0.13679	0.14636	0.11202	0.20892	0.10836	0.19033	-3.9938	-3.5979	-3.6188	-4.225	-3.1875	-4.0312	-4.1708	-3.4917	-4.1896	-3.5667	-3.7229	-4.3021	-3.3771	-3.8354	-3.9271	-3.5833	402.280	498.977	420.953	456.599	399.625	523.264	472.162	453.628	361.789	349.356	231.597	191.974	434.064	478.972	409.393	432.185	0.00031347	0.0007207	0.00024462	1101.4	2.5863e-06	1.1107e-06	1241.6	281.92	6.6979e-06	8.0547e-06	381.61	105.14	66.243	19.577	4.6106e-06	42.213	0.00082205	0.00085197	0.00023619	1050.9	9.1729e-06	9.233e-06	1186.7	272.44	9.195e-06	9.3282e-06	371.4	103.8	68.043	20.606	9.31e-06	41.893	198.351	298.305	262.837	189.364	356.592	450.186	189.126	193.010	321.813	235.321	192.603	197.147	196.990	202.542	430.241	201.447	-8191	255	
36462.391	1	1	0	0	0.075878	0.14458	0.074158	0.14847	0.02688	0.15011	0.21462	0.36224	0.04048	0.048222	0.063329	0.24637	0.18849	0.16092	0.159	0.16573	-3.8854	-3.6479	-3.475	-4.4646	-3.4813	-3.8312	-4.1354	-3.4208	-4.0646	-3.8438	-3.4604	-4.3042	-3.6333	-3.7979	-4.0083	-3.3604	300.977	203.741	325.316	186.847	251.771	334.949	488.913	411.094	267.761	183.195	425.588	187.376	429.040	516.221	465.476	451.384	0.00030557	0.00025465	0.00013599	1107.5	4.827e-06	1.2687e-05	1250.1	284.74	7.686e-07	7.6261e-06	388.16	106.24	67.494	19.771	5.8758e-06	42.387	0.00082837	0.00085373	0.00023604	1057.2	9.4267e-06	9.3354e-06	1198.3	275.39	9.3753e-06	9.505e-06	376.41	105.02	69.113	20.908	9.4557e-06	42.509	224.518	214.511	518.253	189.689	392.411	362.447	188.918	193.214	379.281	256.561	192.349	196.561	197.151	202.649	355.827	201.234	-8191	255	
36462.461	1	1	0	0	0.072867	0.31924	0.11809	0.091024	0.070129	0.091844	0.20949	0.09687	0.16439	0.16681	0.21432	0.14779	0.10387	0.046597	0.11981	0.20923	-3.7333	-3.6542	-3.3333	-4.1875	-3.4646	-3.7458	-4.1583	-3.4854	-3.9375	-3.7562	-3.3958	-4.0813	-3.6042	-3.5854	-4.1521	-3.4688	500.716	257.132	362.634	443.343	368.943	183.521	423.455	191.568	295.200	386.234	427.679	188.610	313.358	240.744	431.739	191.098	0.0004813	0.00045249	5.7898e-05	1108.3	3.7975e-06	6.7831e-06	1259.9	286.75	3.3959e-06	6.1529e-06	391.41	107.86	68.309	20.133	5.8859e-06	43.335	0.00084036	0.00088981	0.0002441	1065.7	9.6147e-06	9.7203e-06	1209.1	278.22	9.8059e-06	9.7913e-06	380.63	106.83	70.373	21.139	9.8354e-06	43.265	214.248	293.982	386.505	189.385	208.427	393.252	188.944	192.982	409.319	257.802	192.440	197.166	197.264	202.563	509.361	201.367	-8191	255	
36462.582	1	1	0	0	0.039215	0.080226	0.15919	0.063786	0.06288	0.14109	0.18422	0.24992	0.21285	0.12793	0.36111	0.092959	0.16056	0.22892	0.21553	0.18874	-3.4375	-3.9104	-3.3229	-4.2979	-3.5458	-3.6146	-4.3063	-3.6333	-3.8583	-4.0292	-3.4729	-4.2042	-3.6979	-3.4313	-4.1896	-3.6042	199.392	217.669	238.708	457.970	223.226	500.902	438.485	213.796	295.780	180.920	477.477	193.407	337.260	499.380	510.664	522.302	0.00033437	0.00090331	0.00028946	1135.6	2.6049e-06	1.0452e-05	1286.1	290.65	6.4439e-06	7.4009e-06	396.18	108.02	68.816	20.231	4.0574e-06	43.546	0.00088819	0.00091371	0.00025396	1088.1	1.0178e-05	1.0125e-05	1233.9	283.05	1.0331e-05	1.0332e-05	387.03	108.19	71.409	21.641	1.0323e-05	43.932	210.741	532.654	239.092	189.296	221.682	424.558	189.008	193.028	334.829	517.937	192.648	196.877	197.518	202.647	454.130	201.315	-8191	255	
36462.676	1	1	0	0	0.22203	0.42584	0.20614	0.23164	0.30106	0.20469	0.16155	0.098432	0.10678	0.21792	0.012459	0.10083	0.19069	0.16218	0.29956	0.17446	-3.125	-4.1062	-3.3417	-4.1438	-3.8771	-3.4771	-4.3938	-3.7604	-3.6	-4.1604	-3.4583	-4.0792	-3.8667	-3.3021	-4.0542	-3.6958	292.865	451.135	419.816	502.340	196.828	438.905	414.235	178.856	525.756	416.906	271.645	231.249	352.247	318.100	520.652	283.005	0.00030662	0.00030588	0.00017017	1150.1	9.9931e-07	6.6877e-06	1306.4	292.96	2.754e-06	1.454e-05	394.49	107.07	67.558	19.958	1.6479e-06	42.696	0.00093707	0.00095854	0.00026426	1104.2	1.046e-05	1.0323e-05	1247.2	284.81	1.0257e-05	1.0277e-05	385.88	107.09	70.589	21.191	1.0074e-05	42.906	199.519	321.311	304.861	189.386	473.977	523.537	189.200	192.959	314.823	371.077	192.540	196.823	197.097	202.618	420.557	201.878	-8191	255	
36462.773	1	1	0	0	0.13491	0.08402	0.30334	0.046787	0.19625	0.11125	0.23447	0.47521	0.063747	0.17668	0.17708	0.14492	0.2429	0.06504	0.089548	0.29038	-3.1	-4.2042	-3.2812	-4	-3.8479	-3.3104	-4.2979	-3.5021	-3.4146	-3.9458	-3.3979	-3.9854	-4.1062	-3.4458	-4.0271	-3.875	243.289	409.426	280.461	398.325	465.996	532.671	504.107	431.696	502.615	283.670	484.122	413.881	520.484	215.975	521.227	472.397	0.00038044	0.0011301	0.00015629	1126.2	1.4376e-06	4.6279e-06	1279.1	287.45	3.0728e-06	1.3319e-05	390.6	106.29	67.81	19.956	3.7144e-06	42.86	0.00091762	0.00093975	0.00026318	1086.8	1.0335e-05	1.0444e-05	1228.7	281.11	1.0516e-05	1.0246e-05	381.7	106.08	70.461	21.142	1.0466e-05	43.009	207.585	344.460	274.658	189.197	456.153	353.251	188.996	193.101	334.244	273.289	192.589	196.689	197.010	203.080	305.914	201.413	-8191	255	
36462.895	1	1	0	0	0.23689	0.023762	0.082789	0.12197	0.13526	0.18635	0.10568	0.063733	0.15463	0.11032	0.13135	0.054543	0.32258	0.19995	0.1496	0.20264	-3.1646	-4.1583	-3.3229	-3.9042	-4.0958	-3.4688	-4.3271	-3.9104	-3.5646	-4.2625	-3.6083	-3.7229	-4.1479	-3.3729	-3.8979	-3.975	423.710	419.611	268.848	482.473	418.729	361.840	200.916	523.123	482.664	283.964	190.683	439.282	500.412	397.188	495.601	457.591	0.00034845	0.00047753	0.00014075	1127.4	8.9134e-06	1.0393e-05	1274.7	288.26	7.353e-06	1.4079e-05	395.74	107.6	67.73	20.247	5.6852e-06	43.344	0.00092726	0.00096134	0.00026693	1084.6	1.0583e-05	1.0522e-05	1231.2	281.7	1.0524e-05	1.0507e-05	385.67	107.36	71.059	21.551	1.0568e-05	43.759	218.269	519.535	515.110	189.364	265.544	479.276	189.217	192.893	318.853	326.345	192.401	196.906	197.365	202.313	183.277	201.832	-8191	255	
36462.988	1	1	0	0	0.025318	0.10781	0.13507	0.10419	0.14114	0.11437	0.20862	0.14439	0.043081	0.22945	0.13483	0.012974	0.12749	0.080667	0.049215	0.26697	-3.1167	-4.1083	-3.4167	-3.575	-3.9271	-3.2771	-4.1854	-3.9688	-3.4083	-4.125	-3.6937	-3.425	-4.2292	-3.3312	-3.8896	-4.1292	378.703	425.209	504.966	453.190	228.483	337.654	444.789	485.156	190.159	191.543	473.259	177.358	422.299	212.308	410.042	435.243	0.00038273	0.0012196	0.00013888	1140.5	1.2054e-06	6.2844e-06	1295.8	293.32	2.4414e-06	2.4138e-06	397.55	109.2	68.91	20.554	6.0751e-06	44.052	0.00094019	0.00095545	0.00027032	1094.1	1.0481e-05	1.0696e-05	1242.6	285.74	1.0649e-05	1.0738e-05	389.6	108.96	71.931	21.906	1.0564e-05	44.439	219.719	269.908	193.400	189.445	438.773	240.036	189.040	192.992	318.060	446.111	192.447	196.959	198.039	203.028	365.214	201.665	-8191	255	
36463.086	1	1	0	0	0.14655	0.2057	0.17231	0.20493	0.18216	0.15162	0.25515	0.13354	0.13367	0.062054	0.2658	0.21295	0.18398	0.12113	0.07508	0.20039	-2.8208	-4.0437	-3.5354	-3.6896	-3.9979	-3.5687	-3.775	-4.0542	-3.3896	-4.1771	-3.8854	-3.425	-4.2604	-3.4125	-3.6708	-4.0667	261.413	530.270	386.810	499.684	322.648	276.164	430.827	450.726	439.640	478.722	511.313	522.460	356.416	328.086	327.927	262.582	0.00034087	0.00075704	0.00029899	1152.3	5.4668e-06	1.0442e-05	1303.8	296.03	2.3377e-06	1.4232e-05	401.37	110.85	70.078	20.587	3.7069e-06	44.629	0.0009489	0.00097267	0.00027237	1108.7	1.064e-05	1.0869e-05	1257.7	289.18	1.0839e-05	1.0728e-05	394.98	110.52	72.839	22.018	1.0648e-05	44.495	189.105	251.303	315.050	189.527	305.313	328.886	189.203	192.943	386.579	306.871	192.824	197.023	197.189	202.355	402.481	201.391	-8191	255	
36463.156	1	1	0	0	0.11586	0.14061	0.16898	0.26324	0.47541	0.081109	0.23554	0.23904	0.046227	0.084823	0.20138	0.13406	0.14396	0.041724	0.043382	0.15416	-2.9021	-4.0729	-3.7812	-3.4375	-4.2021	-3.3563	-3.7833	-4.0375	-3.2521	-3.9479	-3.9583	-3.2979	-4.1083	-3.5458	-3.5938	-4.05	394.184	288.346	191.111	490.056	328.524	440.600	437.191	451.635	233.089	377.930	435.396	216.219	219.612	516.750	479.846	243.882	0.00048674	0.00073631	7.4989e-05	1150.8	1.0541e-05	4.8052e-06	1304.9	293.71	5.5013e-06	6.075e-06	398.12	106.93	68.357	19.724	2.8622e-06	42.031	0.00095004	0.00096193	0.00026936	1108.7	1.038e-05	1.058e-05	1247.8	286.4	1.0471e-05	1.0404e-05	387.87	106.67	70.794	21.079	1.0333e-05	42.291	205.776	209.792	218.866	189.275	353.128	472.292	188.595	193.146	252.178	365.927	192.484	196.932	197.472	202.798	366.985	201.601	-8191	255	
36463.277	1	1	0	0	0.33226	0.13349	0.15764	0.17629	0.10025	0.15164	0.15461	0.25627	0.19318	0.03574	0.21836	0.13998	0.16121	0.22104	0.11259	0.03168	-3.0042	-3.85	-3.8271	-3.4458	-3.9521	-3.625	-3.7125	-4.0792	-3.3896	-3.8375	-3.9583	-3.3083	-4.1729	-3.6562	-3.3438	-4.4104	222.199	491.086	376.902	453.596	376.612	426.368	471.392	500.162	351.026	379.338	189.747	490.074	487.967	255.890	275.629	529.897	0.00045844	0.00083839	0.00016719	1134.3	5.8402e-06	5.2475e-06	1276.3	290.59	4.8259e-06	6.3227e-06	390.97	105.48	67.895	19.623	2.9812e-06	41.59	0.00091914	0.00094155	0.00026319	1086.8	1.024e-05	1.0354e-05	1228.2	282.41	1.0236e-05	1.0221e-05	383.32	105.32	70.352	20.867	1.0345e-05	41.821	228.388	268.528	224.326	189.170	399.765	365.995	189.218	193.058	234.885	293.535	192.576	196.912	197.354	202.650	257.220	201.607	-8191	255	
36463.371	1	1	0	0	0.084112	0.12456	0.35937	0.082933	0.22993	0.12206	0.26604	0.31691	0.15209	0.15748	0.095187	0.16134	0.085991	0.11086	0.13831	0.17687	-3.0563	-3.7896	-4.0333	-3.5083	-4.1854	-3.7458	-3.6479	-4.2958	-3.6417	-3.7479	-4.0708	-3.4417	-3.9396	-3.8438	-3.4125	-4.2979	285.361	247.124	456.409	522.161	524.086	330.664	175.553	469.136	297.697	281.132	523.299	188.079	293.393	226.607	499.217	405.721	0.00038072	0.00052208	5.21e-05	1134	8.6782e-06	1.4781e-05	1282.5	290.88	8.4101e-06	2.2459e-06	393.61	104.87	67.773	19.645	6.2909e-06	41.748	0.00091804	0.00094365	0.00026223	1088.5	1.0258e-05	1.0434e-05	1228.6	283.7	1.0296e-05	1.0304e-05	385.02	105.71	70.7	20.947	1.027e-05	42.029	196.208	267.943	265.095	189.221	339.166	288.305	188.887	192.979	283.589	492.624	192.218	197.054	197.531	202.854	279.879	201.573	-8191	255	
36463.469	1	1	0	0	0.13318	0.26193	0.061699	0.078369	0.17337	0.22811	0.2639	0.22489	0.075914	0.07695	0.2996	0.13106	0.090005	0.086372	0.15008	0.16561	-3.1417	-3.5917	-4.0938	-3.3271	-3.8167	-3.8333	-3.4896	-4.1083	-3.5938	-3.5229	-4.2458	-3.5271	-3.8667	-3.9021	-3.3479	-3.9938	191.732	329.052	226.391	516.691	403.944	401.043	453.842	487.115	411.966	208.280	480.333	459.098	470.477	534.852	340.082	441.299	0.00033681	0.00095493	0.00025048	1133.9	9.3248e-06	1.4295e-05	1282.1	291.2	3.5804e-06	1.0349e-06	393.97	106.75	68.114	19.79	7.0432e-06	42.256	0.00092044	0.00095219	0.00025913	1087.1	1.0309e-05	1.0351e-05	1228.8	284.11	1.0431e-05	1.0317e-05	385.9	106.72	71.306	21.126	1.0436e-05	42.537	217.617	364.566	295.831	189.499	353.367	386.839	189.130	193.041	320.157	355.406	192.519	196.740	196.779	202.898	259.707	201.607	-8191	255	
36463.566	1	1	0	0	0.094825	0.11804	0.46194	0.035028	0.17487	0.060727	0.24554	0.29345	0.23684	0.19232	0.14863	0.084265	0.12438	0.0391	0.19611	0.30145	-3.3021	-3.5312	-4.1542	-3.4125	-3.7	-4.0604	-3.5271	-3.8792	-3.8396	-3.3812	-4.3562	-3.5812	-3.7229	-4.0583	-3.3896	-4.1354	466.411	418.155	175.966	475.240	499.879	446.559	177.028	495.486	239.044	244.271	284.238	512.289	235.971	296.603	211.605	417.722	0.00032295	0.00032157	0.00020011	1126.3	5.9129e-06	1.4871e-05	1277.5	294.8	3.7785e-06	8.2762e-06	398.65	107.23	68.519	20.018	5.5303e-06	42.314	0.00093831	0.00095941	0.00026389	1083.4	1.049e-05	1.0419e-05	1231.9	286.12	1.0506e-05	1.0443e-05	389.96	107.57	71.922	21.249	1.0412e-05	42.583	194.222	349.907	250.258	189.381	277.756	267.597	189.196	192.956	289.386	498.922	192.299	197.238	197.333	203.050	288.235	201.483	-8191	255	
36463.684	1	1	0	0	0.076222	0.062631	0.13457	0.25013	0.092295	0.060293	0.19849	0.3375	0.11478	0.20032	0.10528	0.17975	0.14847	0.11521	0.13178	0.26766	-3.3646	-3.4417	-4.0667	-3.5854	-3.6063	-4.1542	-3.5521	-4.0917	-3.7479	-3.5729	-4.1729	-3.5187	-3.5521	-4.0979	-3.4062	-3.9896	206.469	485.922	262.963	487.298	247.570	413.508	456.442	494.505	323.620	343.416	475.307	516.116	482.988	531.263	389.705	443.757	0.00031747	0.00060544	3.7488e-05	1131.2	8.7269e-06	4.6968e-06	1273.7	290.54	1.9563e-06	2.2476e-06	391.41	105.48	68.165	19.24	3.1956e-06	40.647	0.00093057	0.000939	0.0002612	1084.4	1.0374e-05	1.0202e-05	1221.7	284.14	1.0128e-05	1.0131e-05	383.32	105.42	70.573	20.46	1.0089e-05	40.973	226.991	526.981	410.289	189.387	347.953	370.531	188.994	192.903	397.519	252.673	192.576	196.531	197.422	202.843	510.762	201.028	-8191	255	
36463.758	1	1	0	0	0.22176	0.11707	0.17027	0.36679	0.032612	0.039587	0.071777	0.15579	0.053433	0.066369	0.10589	0.17163	0.16564	0.23911	0.19716	0.15445	-3.475	-3.5354	-4.1396	-3.6875	-3.6104	-4.2312	-3.7479	-3.9	-3.9562	-3.4229	-4.15	-3.9396	-3.4375	-3.9833	-3.3896	-3.7	321.439	237.634	312.904	495.513	238.181	405.271	533.984	478.319	344.353	386.947	460.847	230.423	519.232	267.221	439.890	518.531	0.00045021	0.00038285	0.00014089	1114.6	9.3912e-06	1.3356e-05	1258.1	292.68	4.7846e-06	5.0266e-06	393.23	105.71	68.284	19.089	1.0427e-05	40.681	0.00090612	0.00092591	0.00025714	1073.4	1.0127e-05	1.0011e-05	1212.6	284.29	1.0078e-05	1.0038e-05	383.48	105.02	70.777	20.423	1.0113e-05	40.947	209.900	391.571	369.312	189.408	307.891	237.732	189.118	192.953	449.400	462.742	192.248	196.779	197.149	203.439	446.867	201.000	-8191	255	
36463.855	1	1	0	0	0.067513	0.18708	0.11767	0.059903	0.14675	0.099198	0.27842	0.04743	0.068468	0.26404	0.19454	0.19395	0.36704	0.23249	0.23676	0.20478	-3.5292	-3.45	-4.0625	-3.7917	-3.2979	-4.1521	-3.5021	-3.7458	-3.9792	-3.2667	-3.9125	-3.8583	-3.5167	-4.2146	-3.5271	-3.7458	513.248	272.953	282.879	483.835	283.423	359.320	439.112	345.948	393.062	321.406	414.300	468.065	183.269	314.383	178.762	329.969	0.00037559	0.00036516	8.0303e-05	1110.7	6.1721e-06	6.6723e-06	1262.4	292.62	2.4017e-06	8.3353e-06	395.34	105.32	68.33	19.334	1.2466e-05	41.123	0.00090037	0.00092902	0.0002575	1070.8	1.0141e-05	1.0111e-05	1213.4	283.87	1.0182e-05	1.022e-05	386.13	105.6	71.064	20.646	1.0358e-05	41.179	202.430	289.853	237.688	189.676	283.608	331.462	189.278	193.034	406.211	404.736	192.571	196.863	197.378	202.673	250.887	201.507	-8191	255	
36463.973	1	1	0	0	0.071022	0.18088	0.2972	0.095795	0.20274	0.20572	0.33139	0.30892	0.21722	0.18248	0.073845	0.099725	0.32928	0.13161	0.11452	0.21093	-3.675	-3.3854	-3.8396	-3.9083	-3.3667	-4.0229	-3.7667	-3.7729	-4.0292	-3.4542	-3.8187	-3.8312	-3.4292	-4.1062	-3.6167	-3.5687	371.632	442.451	393.577	496.040	371.528	404.903	461.099	466.046	477.963	268.705	206.194	445.552	434.430	412.933	408.485	494.676	0.00040039	0.00073692	0.00030232	1110.7	9.6355e-06	1.1511e-06	1264.8	293.73	1.0254e-05	1.3454e-06	395.3	106.62	69.291	19.65	2.4934e-06	41.231	0.00090869	0.00094185	0.00026409	1072	1.0279e-05	1.032e-05	1218.3	285.87	1.0237e-05	1.0434e-05	386.77	106.5	71.746	20.848	1.0499e-05	41.716	215.235	386.372	223.264	189.851	326.101	181.197	189.229	192.715	326.530	444.586	192.332	196.853	196.756	202.834	478.422	201.406	-8191	255	
36464.070	1	1	0	0	0.087872	0.14014	0.10816	0.15584	0.15764	0.092167	0.2249	0.16785	0.14246	0.17844	0.20178	0.15881	0.085705	0.18166	0.044296	0.053611	-3.7938	-3.2917	-3.6833	-4.1813	-3.3625	-4.1479	-3.8187	-3.4313	-4.125	-3.5	-3.7333	-4.1083	-3.3583	-4	-3.7896	-3.3875	501.913	241.032	529.572	519.427	430.008	321.948	521.671	434.422	204.648	330.302	456.315	174.925	439.272	206.934	213.960	276.468	0.00027452	0.00087693	9.5531e-05	1123	4.5392e-06	1.1573e-05	1273.8	293.86	9.2578e-06	7.3234e-06	398.93	107.63	68.774	19.542	4.2931e-06	41.707	0.00092079	0.00096675	0.00026536	1077.9	1.0504e-05	1.056e-05	1224.4	285.24	1.0405e-05	1.058e-05	390.17	107.45	71.757	21.016	1.049e-05	41.988	197.429	203.244	190.074	189.335	325.621	328.265	189.290	192.370	337.402	368.527	192.329	196.980	196.537	202.976	305.087	201.671	-8191	255	
36464.164	1	1	0	0	0.06488	0.08497	0.16523	0.23198	0.1814	0.16695	0.16236	0.057848	0.24575	0.063024	0.2047	0.12525	0.24353	0.11895	0.16654	0.076331	-3.8021	-3.4313	-3.6	-4.2063	-3.2313	-3.9792	-3.8958	-3.375	-4.2208	-3.4667	-3.5979	-4.1354	-3.4	-3.7792	-3.725	-3.3458	372.029	464.846	530.219	523.474	186.362	461.355	478.780	256.999	416.624	504.277	449.779	215.208	527.386	267.755	242.742	514.725	0.00034623	0.0011959	0.00024897	1116.5	2.0125e-06	1.19e-05	1252.5	288.17	5.4473e-06	4.2531e-06	385.39	105.13	67.219	19.316	4.0452e-06	40.29	0.00092948	0.00095941	0.00026415	1072.5	1.0411e-05	1.044e-05	1206.7	281.02	1.0266e-05	1.0331e-05	378.26	104.43	69.979	20.56	1.0195e-05	40.723	198.877	205.134	207.493	189.362	391.238	310.935	188.981	192.939	471.896	239.749	192.266	196.458	196.843	202.464	204.287	201.302	-8191	255	
36464.262	1	1	0	0	0.13823	0.083801	0.2208	0.057674	0.097186	0.086232	0.11438	0.20081	0.14744	0.13882	0.12816	0.2422	0.2612	0.17385	0.30214	0.19248	-3.7438	-3.6375	-3.5167	-4.2604	-3.3667	-3.8854	-4.125	-3.2833	-4.2521	-3.6875	-3.5354	-3.9896	-3.3667	-3.6667	-3.9604	-3.3771	214.728	237.273	498.644	518.387	532.477	513.322	504.170	469.462	175.621	434.333	513.093	487.162	451.279	387.890	523.176	500.305	0.00040188	0.00078078	0.00027668	1099.3	5.3516e-06	6.1217e-06	1241.1	285.82	2.2409e-06	2.6218e-06	387.02	104.32	67.692	19.382	2.7208e-06	41.087	0.00090545	0.00093568	0.00025745	1055.4	1.0087e-05	1.0155e-05	1194.8	279.11	1.0034e-05	1.0236e-05	379.01	104.5	70.131	20.557	1.0017e-05	41.156	216.836	360.110	334.472	189.156	260.451	353.010	189.070	192.962	333.070	408.228	192.563	197.114	196.700	202.581	288.969	201.559	-8191	255	
36464.359	1	1	0	0	0.12024	0.16628	0.1957	0.25357	0.1049	0.13077	0.24793	0.31013	0.069537	0.2	0.085955	0.061706	0.14405	0.26216	0.098995	0.11766	-3.6042	-3.6521	-3.35	-4.2875	-3.35	-3.6479	-4.1479	-3.4771	-4.0708	-3.8271	-3.35	-4.1	-3.4813	-3.5542	-4.1125	-3.3104	460.421	212.795	292.882	519.394	384.478	398.355	395.896	483.615	266.700	516.830	532.496	504.965	341.092	230.855	444.327	318.382	0.00038664	0.00048686	0.0001424	1098.3	9.111e-06	2.8957e-06	1248.4	288.01	2.3541e-06	2.1644e-06	388.82	104.91	67.814	19.404	8.0224e-06	41.096	0.00090703	0.00093133	0.00025689	1058.7	1.0236e-05	1.0204e-05	1199.9	280.66	1.0206e-05	1.0261e-05	380.34	104.99	70.606	20.639	1.0153e-05	41.461	187.180	281.974	188.009	189.257	272.926	400.556	188.920	193.051	259.765	238.183	192.489	197.139	196.817	202.353	302.823	201.480	-8191	255	
36464.453	1	1	0	0	0.1758	0.16583	0.050958	0.21578	0.19608	0.014596	0.16896	0.18215	0.12797	0.068953	0.062128	0.12312	0.073029	0.11446	0.13165	0.13057	-3.6396	-3.8312	-3.4896	-4.1917	-3.5542	-3.4604	-4.3	-3.3792	-3.8375	-3.8937	-3.4625	-4.1125	-3.6271	-3.5667	-4.1625	-3.4646	457.154	422.613	208.880	186.710	494.582	367.291	514.042	533.449	338.283	202.174	242.054	525.655	322.527	291.791	411.264	529.247	0.00045592	0.00030136	0.00023019	1108.1	4.4667e-06	8.7386e-06	1248.2	288.8	4.0469e-06	8.885e-06	392.99	105.54	68.512	19.468	1.0139e-05	41.695	0.00091386	0.00093804	0.00025952	1063.4	1.0255e-05	1.0118e-05	1201.7	282.22	1.0194e-05	1.0264e-05	381.87	105.64	71.139	20.768	1.0172e-05	41.898	228.440	261.601	365.080	189.385	353.594	492.621	188.878	192.786	339.886	362.213	192.173	196.739	197.255	202.323	311.109	201.259	-8191	255	
36464.574	1	1	0	0	0.13224	0.25451	0.17085	0.21367	0.10753	0.19145	0.27956	0.24767	0.1833	0.21968	0.029328	0.19205	0.072288	0.19007	0.1195	0.25683	-3.4854	-3.9188	-3.3083	-4.1479	-3.7917	-3.4354	-4.3313	-3.5521	-3.7	-4.0167	-3.3146	-4.0687	-3.9104	-3.4562	-4.125	-3.4542	224.067	505.465	513.143	180.602	223.366	209.675	459.991	462.089	308.556	469.476	350.752	478.464	480.981	462.044	431.650	532.043	0.00033188	0.00026247	0.00012446	1106.9	9.2637e-06	4.0696e-06	1262.2	292.43	4.7552e-06	2.8758e-06	391.71	105.99	68.509	19.606	6.701e-06	41.049	0.00091745	0.00094253	0.00026249	1067.9	1.0472e-05	1.0342e-05	1211.7	283.94	1.0355e-05	1.028e-05	384.67	106.29	71.264	20.789	1.012e-05	41.438	226.133	184.631	322.812	189.489	376.897	287.461	189.234	192.823	403.946	379.233	192.581	197.079	196.957	203.092	348.883	201.494	-8191	255	
36464.672	1	1	0	0	0.23298	0.047771	0.10135	0.27958	0.11823	0.1127	0.12604	0.14333	0.17262	0.10416	0.34738	0.17839	0.16631	0.15487	0.099555	0.25044	-3.2542	-4.0229	-3.3479	-4.15	-3.8646	-3.3688	-4.0813	-3.6875	-3.6896	-3.9729	-3.3542	-3.8208	-3.7104	-3.4375	-4.25	-3.6917	281.701	336.499	332.794	517.129	283.660	503.050	408.650	494.057	427.318	221.006	516.267	470.837	367.162	190.388	317.141	460.501	0.00027876	0.00049353	0.0001565	1106	4.0106e-06	3.7637e-06	1247.9	288.78	9.0832e-07	3.55e-06	389.81	104.52	68.068	19.097	6.333e-06	40.114	0.00089009	0.00090049	0.00025174	1060.1	9.6517e-06	9.7293e-06	1198	280	9.6023e-06	9.4725e-06	379.69	103.55	70.033	20.279	9.5808e-06	40.514	214.128	318.273	476.351	189.536	231.911	255.336	189.384	192.834	364.541	380.327	191.968	196.820	197.387	202.402	350.206	201.983	-8191	255	
36464.766	1	1	0	0	0.21388	0.17438	0.16598	0.15591	0.14798	0.28546	0.11286	0.0501	0.21247	0.29832	0.15046	0.075992	0.12215	0.12648	0.27085	0.11918	-3.1292	-3.9354	-3.275	-3.7979	-3.8063	-3.2938	-4.1042	-3.6896	-3.4583	-4.1396	-3.5687	-3.9875	-4.0458	-3.3792	-4.1125	-3.8021	220.824	377.422	236.935	496.254	264.493	291.763	367.011	473.632	291.622	202.807	450.686	271.384	510.659	245.945	249.108	439.002	0.00038695	0.001166	0.00016453	1103.7	6.8013e-06	1.3245e-05	1243	287.57	7.8314e-06	8.1801e-06	392.09	105.07	67.962	19.264	7.8659e-06	40.388	0.00085491	0.00087529	0.00024526	1056.1	9.6861e-06	9.642e-06	1195.4	280.93	9.7094e-06	9.6527e-06	382.16	104.57	70.399	20.436	9.7009e-06	40.863	225.932	267.190	422.959	189.174	376.954	427.056	188.953	192.850	324.962	216.995	192.753	196.829	197.329	202.689	264.910	201.562	-8191	255	
36464.859	1	1	0	0	0.13037	0.16521	0.19375	0.11646	0.15891	0.093028	0.2289	0.091162	0.056179	0.16965	0.25996	0.086411	0.04742	0.058137	0.16805	0.21453	-3.0479	-3.9521	-3.2375	-3.7729	-3.8688	-3.1917	-4.0542	-3.75	-3.4667	-4.0979	-3.6042	-3.5625	-4.0958	-3.0271	-3.8792	-3.8271	390.604	339.307	264.055	455.799	243.946	347.788	468.787	392.236	471.410	481.636	189.349	227.411	452.379	503.675	222.382	432.830	0.00039213	0.00066341	0.00011167	1110.9	3.1961e-06	1.8612e-05	1261.9	292.98	6.4998e-06	7.5298e-06	394.81	106.21	68.317	19.365	4.8823e-06	40.938	0.00086754	0.00089906	0.00024587	1067.5	9.6961e-06	9.6601e-06	1206.2	284.38	9.7382e-06	9.744e-06	384.38	105.13	70.876	20.483	9.6724e-06	41.254	202.164	252.388	339.321	189.476	298.179	357.102	188.753	192.806	296.884	219.128	191.749	196.622	197.419	202.701	438.907	201.156	-8191	255	
36464.980	1	1	0	0	0.1289	0.096528	0.11729	0.31538	0.11381	0.15786	0.20976	0.10922	0.17352	0.058386	0.082637	0.080996	0.2009	0.10762	0.16404	0.095185	-2.9771	-4.1146	-3.3854	-3.6562	-4.0854	-3.3896	-4.0208	-3.9083	-3.2125	-4.1292	-3.7292	-3.3937	-4.1083	-3.4083	-3.6521	-4.0479	357.234	533.789	490.893	466.832	517.269	409.329	484.608	329.922	530.132	222.973	478.253	219.127	196.460	512.831	308.217	533.692	0.00043529	0.00040253	0.00021812	1117.7	2.6868e-06	1.2631e-06	1260	293.29	5.8568e-06	3.8283e-06	394.61	105.86	69.122	19.791	6.6408e-06	41.822	0.00086457	0.0008855	0.00024916	1067.5	9.6191e-06	9.6512e-06	1207.2	283.97	9.6373e-06	9.59e-06	385.34	105.74	71.163	20.828	9.6877e-06	41.739	204.383	477.798	411.952	189.261	407.467	394.897	189.037	192.882	299.044	383.393	192.611	196.962	197.181	203.024	523.544	201.588	-8191	255	
36465.055	1	1	0	0	0.12659	0.12404	0.18643	0.087796	0.10378	0.15906	0.083423	0.17718	0.16422	0.16043	0.15108	0.2461	0.16423	0.15214	0.16952	0.091618	-3.1562	-4.0792	-3.6937	-3.65	-4.1354	-3.2708	-3.9188	-4.0875	-3.225	-3.9604	-3.7771	-3.3979	-4.1062	-3.35	-3.7083	-4.0375	525.591	454.695	366.271	183.379	483.032	221.311	209.042	216.315	211.457	334.103	450.252	452.445	192.414	501.234	181.958	222.013	0.0004179	0.0009855	0.0002527	1116.7	6.8508e-06	1.6649e-05	1266.4	292.98	3.1234e-06	4.4714e-06	398.41	107.36	69.008	19.798	1.9524e-06	41.586	0.00087053	0.00088255	0.00025115	1073.1	9.6705e-06	9.8641e-06	1215.8	285.5	9.8059e-06	9.8749e-06	387.96	106.64	71.305	20.888	9.7105e-06	41.664	194.850	295.161	292.018	189.550	285.557	317.268	188.891	192.952	266.801	440.668	192.421	196.959	197.013	203.285	448.525	201.539	-8191	255	
36465.148	1	1	0	0	0.14408	0.19492	0.10831	0.13793	0.11132	0.14301	0.21776	0.17243	0.22046	0.18973	0.14144	0.17689	0.22099	0.1163	0.029921	0.16814	-2.9979	-3.825	-3.7313	-3.5438	-4.1792	-3.5375	-3.7604	-4.1438	-3.2646	-3.9292	-3.9625	-3.4625	-4.1271	-3.5812	-3.5417	-4.1667	351.542	373.760	377.050	483.349	490.337	408.129	437.976	484.200	467.492	328.632	380.900	507.464	231.000	460.835	534.051	426.341	0.00036023	0.00086295	0.00023866	1111.4	3.4788e-06	4.0239e-06	1263.5	289.38	9.297e-06	9.6193e-06	390.21	104.32	66.294	18.979	3.6245e-06	40.418	0.00087817	0.00089457	0.00024885	1066.5	9.7849e-06	9.927e-06	1202	280.72	9.9162e-06	9.8602e-06	379.6	103.51	69.343	20.335	9.8593e-06	40.647	203.494	266.336	347.069	189.496	320.052	500.582	188.745	193.039	321.267	276.230	192.024	196.897	197.119	202.412	484.597	201.432	-8191	255	
36465.246	1	1	0	0	0.27426	0.083903	0.20306	0.3667	0.15735	0.11564	0.27203	0.29006	0.261	0.11615	0.078316	0.058451	0.27779	0.19273	0.033689	0.16452	-3.0271	-3.8167	-4.0312	-3.4562	-4.0979	-3.6937	-3.5812	-4.4062	-3.3854	-3.8917	-4.0167	-3.2958	-3.9854	-3.7021	-3.475	-4.2	286.814	413.636	275.784	489.451	397.828	283.679	497.259	494.582	527.621	176.447	356.822	343.484	505.508	397.233	177.676	245.520	0.0005219	0.001128	0.00028978	1104.2	4.2564e-06	3.8446e-06	1249.4	290.12	6.6496e-06	6.2533e-06	388.82	104.17	67.821	19.375	9.6299e-06	41.179	0.00090352	0.00091615	0.00025565	1059.4	1.0059e-05	1.0173e-05	1196.4	280.88	1.0168e-05	1.0118e-05	380.69	104.56	70.135	20.616	1.0094e-05	41.456	210.610	304.117	244.099	189.369	396.924	343.555	188.868	192.896	244.098	437.137	192.526	196.618	197.547	202.812	291.339	201.686	-8191	255	
36465.367	1	1	0	0	0.029158	0.10702	0.11134	0.26114	0.018279	0.099012	0.16829	0.13495	0.11101	0.12602	0.14913	0.15127	0.23809	0.18667	0.27749	0.39514	-3.0917	-3.6437	-3.9188	-3.5187	-3.9313	-3.825	-3.7021	-4.0917	-3.525	-3.4833	-4.0479	-3.4917	-3.825	-3.7479	-3.325	-4.225	342.378	261.556	367.762	523.641	355.971	422.904	507.070	397.663	528.943	287.365	366.709	484.605	202.060	520.368	520.968	436.203	0.00030048	0.00031431	0.00010689	1109.8	4.1879e-06	1.3473e-06	1257.9	290.23	8.7085e-06	1.0766e-05	392.92	106.28	68.756	19.585	3.4451e-06	41.412	0.00091261	0.00093384	0.00025827	1066.9	1.0182e-05	1.0275e-05	1205.5	283.24	1.0355e-05	1.0244e-05	384.38	106.17	71.503	20.877	1.0302e-05	41.912	218.682	374.919	278.243	189.375	464.811	188.401	188.931	193.080	276.183	379.011	192.556	196.662	197.017	202.103	175.342	201.113	-8191	255	
36465.465	1	1	0	0	0.15038	0.15209	0.16415	0.17511	0.012355	0.24256	0.27564	0.24482	0.084575	0.16161	0.037352	0.063487	0.063018	0.165	0.29209	0.202	-3.1312	-3.4229	-3.9938	-3.5479	-3.7333	-3.7438	-3.4417	-4.2312	-3.5229	-3.6333	-4.1979	-3.3625	-3.8	-3.8833	-3.5062	-4.1083	206.271	207.859	301.236	515.586	363.167	299.718	458.624	501.541	437.129	177.668	217.635	451.568	460.652	331.482	387.017	460.522	0.00046661	0.00068583	0.00025151	1127.5	8.0275e-06	5.9646e-06	1270.7	293.79	8.916e-06	1.422e-06	397.42	107.6	69.328	19.929	7.2276e-06	41.94	0.00093441	0.0009559	0.00026619	1079.4	1.0472e-05	1.0485e-05	1219.9	287.98	1.0509e-05	1.0533e-05	390.91	107.88	72.694	21.221	1.0656e-05	42.489	214.637	192.368	506.325	189.547	323.190	478.370	188.766	193.110	295.344	469.322	192.445	196.590	196.854	202.360	319.738	201.732	-8191	255	
36465.559	1	1	0	0	0.22824	0.1194	0.29014	0.19871	0.18145	0.26682	0.14472	0.24706	0.086529	0.1081	0.17618	0.15262	0.10343	0.15058	0.24736	0.056688	-3.45	-3.3458	-4.0271	-3.5771	-3.6562	-3.8021	-3.4354	-4.0521	-3.6521	-3.3708	-4.1562	-3.5667	-3.7917	-4.0792	-3.3479	-3.9313	497.277	398.659	468.506	464.930	458.857	529.677	488.260	511.077	519.717	325.102	446.636	504.726	534.076	324.927	403.286	262.830	0.00038104	0.00069812	0.00029196	1139.9	3.2554e-06	1.051e-05	1289.7	299.89	5.5933e-06	8.6409e-06	403.12	109.26	70.576	19.931	8.6349e-06	41.908	0.00095861	0.00097379	0.00027348	1097.2	1.0817e-05	1.0794e-05	1242.6	293.13	1.0898e-05	1.0886e-05	397.55	109.36	73.586	21.381	1.0902e-05	42.433	193.304	298.899	246.788	189.297	393.913	293.825	189.033	192.765	342.980	343.534	192.289	196.356	197.255	202.328	218.635	200.928	-8191	255	
36465.656	1	1	0	0	0.20911	0.25418	0.1186	0.22689	0.06477	0.11954	0.11398	0.17685	0.10021	0.23118	0.13417	0.28052	0.19527	0.016114	0.040492	0.18587	-3.3396	-3.4188	-4.0312	-3.6104	-3.5146	-3.9917	-3.4917	-3.9167	-3.8187	-3.4167	-4.2479	-3.6625	-3.4771	-4.0167	-3.2646	-3.8167	461.396	347.861	500.382	459.601	274.574	186.616	400.127	199.065	517.674	177.653	521.548	479.803	460.830	465.736	513.948	510.715	0.00046114	0.00036093	0.00024851	1136.7	6.5118e-06	5.191e-06	1289.1	301.24	5.111e-06	5.8374e-06	400.61	106.2	69.93	19.281	1.6848e-06	40.198	0.00096495	0.00098628	0.00027468	1098.9	1.0812e-05	1.0894e-05	1240	292.51	1.085e-05	1.094e-05	392.51	106.9	72.774	20.796	1.0923e-05	41.037	191.642	207.801	284.194	189.384	301.508	258.847	189.056	192.714	219.420	338.506	192.140	196.625	197.180	202.411	452.255	202.081	-8191	255	
36465.750	1	1	0	0	0.34452	0.056061	0.24423	0.16972	0.039636	0.16716	0.34647	0.21119	0.14496	0.12468	0.037218	0.087781	0.34709	0.16453	0.14209	0.11674	-3.7125	-3.4458	-4.1021	-3.7313	-3.4917	-4.0625	-3.3021	-3.7708	-3.9354	-3.3479	-4.1229	-3.6813	-3.2771	-4.0271	-3.3563	-3.8604	305.228	351.118	181.150	527.495	178.052	253.593	481.540	463.284	175.226	416.292	437.166	424.476	181.751	178.452	226.184	459.581	0.0004709	0.0011833	0.00015716	1131.5	1.0492e-05	1.6022e-05	1276.7	297.05	2.8157e-06	5.8082e-06	398.9	106.67	69.799	19.503	7.9088e-06	41.086	0.00096529	0.0010014	0.0002787	1090.6	1.0939e-05	1.0937e-05	1231.1	290.85	1.1031e-05	1.0938e-05	392.01	107.55	72.644	20.993	1.1009e-05	41.717	197.660	293.201	303.065	189.821	388.721	301.182	188.918	192.981	388.225	213.869	192.733	197.121	196.598	202.126	430.773	201.839	-8191	255	
36465.844	1	1	0	0	0.11079	0.057142	0.15518	0.1532	0.17691	0.074709	0.15115	0.16255	0.022871	0.090923	0.15255	0.19152	0.1407	0.24653	0.2417	0.09928	-3.6854	-3.1542	-3.8792	-3.7604	-3.35	-4.1354	-3.6792	-3.7396	-4.0417	-3.3042	-4.0312	-3.8646	-3.35	-4.2063	-3.6729	-3.6229	431.034	350.997	180.377	474.314	269.044	195.304	460.396	424.010	426.100	313.009	369.536	366.264	529.444	313.366	202.452	289.479	0.00041378	0.00056758	0.00031117	1133.1	2.9453e-06	3.5299e-06	1278.6	296.17	1.0292e-05	4.5858e-06	401.56	106.5	69.445	19.839	3.1877e-06	42.218	0.00097669	0.0010127	0.00028022	1092.9	1.0985e-05	1.1023e-05	1233	290.25	1.0951e-05	1.1117e-05	393.38	107.98	72.975	21.454	1.1218e-05	42.663	215.530	459.220	195.097	189.397	380.963	310.834	188.998	192.880	228.200	307.585	192.531	196.896	196.449	203.107	300.824	201.244	-8191	255	
36465.941	1	1	0	0	0.17116	0.25442	0.28354	0.17202	0.21349	0.12373	0.25166	0.048493	0.20929	0.11369	0.052086	0.069331	0.071079	0.096459	0.15066	0.066172	-3.7542	-3.1354	-3.9083	-3.9458	-3.2458	-4.1062	-3.8646	-3.5042	-4.0333	-3.3	-3.7646	-4.0604	-3.3021	-4.2083	-3.6729	-3.4958	336.916	302.833	321.879	466.453	349.015	268.271	489.000	178.114	193.633	320.070	197.324	403.743	362.872	497.459	187.376	387.194	0.00039136	0.00075598	0.00011764	1135.4	7.8816e-07	3.8526e-06	1291.3	298.97	6.7769e-06	6.0202e-06	403.57	109.59	70.149	20.041	7.7496e-06	42.962	0.00097872	0.0010192	0.00028442	1099	1.1113e-05	1.1143e-05	1244.8	292.1	1.1148e-05	1.1224e-05	396.52	110.03	74.147	21.752	1.127e-05	43.552	218.323	426.284	181.719	189.557	494.725	519.378	189.163	192.753	267.966	405.555	192.432	196.828	196.939	202.701	281.799	201.458	-8191	255	
36466.062	1	1	0	0	0.032747	0.12211	0.15379	0.10414	0.15555	0.14828	0.18091	0.23727	0.10108	0.073578	0.15965	0.11449	0.24354	0.14796	0.10672	0.16524	-3.8979	-3.3542	-3.6271	-4.0083	-3.2104	-4.1375	-3.9229	-3.4417	-4.0833	-3.4562	-3.6417	-4.1292	-3.3542	-3.8063	-3.7271	-3.3958	233.424	316.326	282.039	489.301	474.384	203.157	526.656	178.014	498.316	400.709	504.560	449.643	459.254	484.018	233.290	343.887	0.00048513	0.00037482	0.00027674	1160.2	2.6911e-06	5.508e-06	1309.4	305.03	4.7179e-06	1.3642e-05	408.28	108.85	71.051	19.831	4.0958e-06	41.59	0.00099844	0.0010415	0.00028896	1116.5	1.1348e-05	1.1348e-05	1263.5	297.23	1.1253e-05	1.1201e-05	399.94	109.24	74.2	21.332	1.0973e-05	42.254	210.368	518.338	232.407	189.496	301.110	259.052	188.986	192.633	531.766	352.073	192.871	196.932	197.191	202.611	228.615	201.435	-8191	255	
36466.156	1	1	0	0	0.31683	0.15748	0.085094	0.28679	0.071554	0.09393	0.14509	0.20297	0.17515	0.14909	0.23222	0.035729	0.14686	0.083796	0.092134	0.24415	-3.7396	-3.3375	-3.6958	-4.2542	-3.2771	-3.9062	-4.0146	-3.4062	-4.1208	-3.5833	-3.675	-4.1813	-3.4479	-3.8542	-3.9	-3.5833	345.449	408.009	479.822	518.207	207.642	184.839	437.786	452.214	457.174	233.424	475.888	352.662	225.627	508.469	323.518	499.763	0.00034857	0.00071682	0.00030248	1143.4	3.4759e-06	1.4686e-05	1285	296.57	7.5164e-06	1.2128e-05	396.03	105.59	69.694	19.13	9.7932e-06	40.573	0.00096901	0.0010017	0.00027708	1101.6	1.0924e-05	1.0827e-05	1234.9	289.86	1.0809e-05	1.094e-05	388.56	106.35	72.344	20.732	1.0695e-05	41.095	200.658	532.916	329.202	189.331	263.295	325.210	188.972	192.972	180.183	260.075	192.363	196.728	197.228	202.275	358.041	200.877	-8191	255	
36466.254	1	1	0	0	0.043779	0.086469	0.085909	0.46812	0.079178	0.10919	0.069742	0.31641	0.27634	0.16499	0.18435	0.022818	0.11375	0.10341	0.2482	0.17466	-3.7271	-3.675	-3.5896	-4.0708	-3.2313	-3.8354	-4.1167	-3.2208	-3.9125	-3.8125	-3.3688	-4.15	-3.3646	-3.6083	-3.9625	-3.4188	518.036	532.453	388.956	525.306	210.332	324.585	430.757	474.626	418.705	492.258	179.553	522.074	516.869	259.287	185.228	396.368	0.00047558	0.00017852	0.00011273	1125.5	5.6838e-06	1.2991e-05	1269.7	295.71	6.6058e-06	9.0243e-06	398.62	105.61	69.368	19.469	6.3012e-06	40.822	0.0009649	0.00099101	0.00027202	1083.7	1.0849e-05	1.0829e-05	1222.6	288.11	1.082e-05	1.0889e-05	388.14	106.41	72.278	20.885	1.0813e-05	41.562	200.313	380.889	190.299	189.438	332.847	326.287	189.105	192.907	336.401	278.455	192.610	196.960	197.765	202.740	323.595	201.127	-8191	255	
36466.352	1	1	0	0	0.045001	0.25997	0.16447	0.23781	0.064639	0.12024	0.20051	0.12135	0.064914	0.1716	0.22095	0.1707	0.10321	0.15458	0.13574	0.20721	-3.7729	-3.5083	-3.2854	-4.1667	-3.4729	-3.7729	-4.225	-3.4042	-4.025	-3.7729	-3.3396	-4.1125	-3.4042	-3.6167	-4.0125	-3.4667	357.371	411.393	183.618	486.046	260.412	351.730	465.089	409.980	279.747	398.262	508.990	420.652	248.136	197.638	434.124	485.629	0.00046883	0.0017868	0.00033048	1125.1	6.7504e-06	1.5674e-05	1272.6	292.64	7.1906e-06	1.2847e-05	397.52	107.59	69.52	19.471	1.0128e-05	41.221	0.00096244	0.00099037	0.0002745	1083.8	1.0895e-05	1.0739e-05	1223.4	287.49	1.0906e-05	1.0872e-05	389.51	107.36	72.706	20.976	1.084e-05	41.918	207.730	267.264	301.496	189.730	291.410	299.831	189.081	193.010	292.839	251.840	192.157	196.974	196.866	202.512	451.905	201.500	-8191	255	
36466.445	1	1	0	0	0.14612	0.19643	0.17315	0.12819	0.11133	0.30074	0.30214	0.39091	0.085782	0.10687	0.1268	0.21192	0.12342	0.051073	0.079137	0.292	-3.5312	-3.825	-3.3271	-4.1562	-3.4938	-3.3771	-4.1625	-3.3229	-3.7896	-3.9583	-3.275	-4.0604	-3.5208	-3.3333	-4.1062	-3.5396	290.402	343.358	379.671	459.632	399.421	474.083	496.501	525.775	458.495	495.072	422.532	458.773	498.650	221.046	255.876	463.016	0.00050142	0.00024323	0.00018286	1121.1	2.1893e-06	1.6736e-05	1267	294.42	4.0865e-06	8.8048e-06	397.21	107.61	69.755	19.977	3.2075e-06	41.5	0.00097229	0.00099424	0.00027447	1083	1.0916e-05	1.0771e-05	1223.5	288.53	1.0869e-05	1.0861e-05	391.43	107.87	72.958	21.392	1.0854e-05	42.482	224.937	275.912	248.079	189.546	267.384	274.974	189.067	192.895	488.953	219.210	192.419	196.736	197.270	202.090	354.980	201.192	-8191	255	
36466.543	1	1	0	0	0.255	0.28254	0.017443	0.064987	0.18399	0.24446	0.26247	0.23257	0.29785	0.041958	0.091332	0.1661	0.10847	0.12274	0.23224	0.20515	-3.15	-3.9458	-3.2188	-4.1833	-3.5896	-3.3208	-4.2271	-3.5021	-3.4271	-4.1125	-3.4396	-4.0167	-3.8042	-3.4708	-4.1083	-3.7417	269.246	207.273	352.411	256.671	391.681	192.034	496.198	471.039	222.045	417.524	445.568	509.527	444.884	293.719	315.812	465.060	0.00039054	0.00073137	0.00025936	1128.4	7.8483e-06	5.5181e-06	1278.2	296.65	2.3828e-06	2.0363e-05	398.21	106.53	69.643	19.567	4.9853e-06	40.75	0.00096529	0.0010035	0.00027899	1088.1	1.0921e-05	1.091e-05	1229.3	290.76	1.078e-05	1.0851e-05	389.88	107.08	72.323	20.964	1.0557e-05	41.445	194.457	502.968	185.337	189.525	373.467	438.810	189.242	192.849	355.882	348.386	192.157	196.855	196.933	202.722	406.722	201.524	-8191	255	
36466.664	1	1	0	0	0.21443	0.13816	0.23706	0.022259	0.16684	0.096116	0.42837	0.22912	0.33447	0.015099	0.18171	0.1583	0.11307	0.23177	0.30689	0.29081	-3.2292	-3.9875	-3.45	-3.9125	-3.9167	-3.35	-4.1417	-3.6271	-3.6	-4.1813	-3.3333	-3.9417	-3.8396	-3.4188	-4.0875	-3.4667	303.192	372.385	243.324	408.935	421.837	360.696	489.988	433.509	181.397	359.768	515.590	286.471	219.468	218.065	278.989	411.584	0.00055436	0.00082921	0.00034147	1110.2	5.6435e-06	8.7991e-06	1257.5	289.04	1.1657e-05	1.3202e-05	392.14	104.25	69.022	19.155	4.6129e-06	40.111	0.0009453	0.00096668	0.0002697	1069.6	1.0447e-05	1.0513e-05	1207.5	283.41	1.0542e-05	1.0651e-05	383.69	104.83	71.543	20.521	1.0683e-05	40.792	216.905	530.452	237.945	189.048	298.140	366.381	188.797	192.920	334.370	329.239	192.347	196.984	197.266	202.077	348.515	201.046	-8191	255	
36466.758	1	1	0	0	0.17595	0.11282	0.12563	0.30355	0.10425	0.10202	0.14567	0.45289	0.11609	0.052837	0.14637	0.093403	0.19617	0.13797	0.0399	0.16396	-3.1021	-4.0208	-3.3396	-3.7917	-3.8854	-3.2146	-4.2125	-3.9083	-3.4208	-4.025	-3.6271	-3.7375	-3.9562	-3.35	-3.8937	-3.8417	264.181	247.761	532.044	431.191	436.589	288.833	475.757	471.981	290.391	341.622	530.201	211.249	490.547	447.660	187.547	226.592	0.00028403	0.00038812	0.00016813	1100.3	9.36e-06	5.7501e-06	1246.8	291.78	2.523e-06	1.389e-05	391.64	104.86	69.403	19.386	5.8566e-06	40.775	0.00094083	0.00096855	0.000274	1065.1	1.061e-05	1.0544e-05	1205.9	285.44	1.0466e-05	1.0665e-05	384.48	105.49	71.99	20.842	1.059e-05	41.092	215.076	417.526	304.697	189.402	272.933	283.520	189.076	192.958	515.616	314.494	192.036	196.338	197.056	201.528	332.728	202.056	-8191	255	
36466.855	1	1	0	0	0.10449	0.17346	0.089965	0.23246	0.15959	0.064354	0.15737	0.20927	0.34238	0.18723	0.074579	0.0598	0.2395	0.17229	0.10801	0.32321	-3.1167	-4.0917	-3.3542	-3.7125	-4.0208	-3.2438	-4.1667	-3.7292	-3.2729	-4.2146	-3.6208	-3.6896	-4.0833	-3.3208	-3.8375	-3.9167	507.497	530.122	470.946	240.486	481.499	235.174	476.286	478.219	375.170	401.098	481.893	479.246	501.440	483.771	491.428	498.313	0.00030348	0.00080211	8.3541e-05	1103.4	2.0793e-06	6.1934e-06	1253.7	291.17	6.7917e-06	1.4368e-05	393.89	105.55	69.596	19.561	3.9608e-06	40.682	0.00093987	0.00097385	0.00027231	1063.9	1.0527e-05	1.0693e-05	1204.9	285.6	1.0511e-05	1.0677e-05	386.72	106.07	72.407	20.947	1.0709e-05	41.43	193.348	230.030	195.992	189.450	216.225	337.866	188.855	192.881	247.553	287.361	192.501	196.613	197.004	202.469	179.955	201.790	-8191	255	
36466.926	1	1	0	0	0.10353	0.077941	0.16643	0.095475	0.094108	0.1045	0.19069	0.21267	0.18286	0.26737	0.16667	0.11995	0.32881	0.17581	0.25499	0.096452	-2.9854	-4.0104	-3.4333	-3.4271	-4.0354	-3.3958	-3.8292	-3.8979	-3.2979	-3.9875	-3.6104	-3.4396	-4.2312	-3.5563	-3.6396	-4.0229	313.431	516.079	203.910	218.969	191.116	412.228	214.866	391.444	289.942	192.094	499.157	278.525	476.149	209.276	386.696	228.743	0.00038007	0.00085121	0.0002414	1112.5	8.7298e-06	1.0293e-05	1257.3	294.34	5.01e-06	1.3853e-05	397.29	106.13	70.213	19.563	8.2661e-06	41.116	0.00095522	0.00098294	0.00027679	1069.9	1.075e-05	1.0903e-05	1209.8	287.23	1.0719e-05	1.0798e-05	388.8	106.92	72.988	21.191	1.0727e-05	41.956	217.435	226.649	241.733	189.295	297.870	357.107	188.706	192.844	355.692	250.520	192.721	196.495	197.424	202.479	377.089	201.224	-8191	255	
36467.023	1	1	0	0	0.2171	0.17851	0.10046	0.16914	0.10548	0.22841	0.27344	0.23256	0.25904	0.071635	0.074745	0.12974	0.15604	0.17221	0.10573	0.18271	-2.8208	-4.1354	-3.7667	-3.4313	-4.1292	-3.4	-3.8917	-4.1354	-3.4417	-4.0188	-3.8937	-3.4354	-4.2021	-3.6063	-3.5521	-4.0083	300.073	397.874	512.925	515.499	358.669	476.235	478.893	451.780	476.279	353.873	447.596	529.647	492.635	469.251	232.914	508.640	0.00040498	0.00010681	0.00039021	1110.9	8.0389e-06	3.3254e-06	1255.3	292.11	5.2966e-06	4.0654e-06	392.99	104.35	69.257	19.365	4.6131e-06	40.661	0.00096814	0.00099636	0.00027547	1070.7	1.081e-05	1.0794e-05	1206	285.71	1.0727e-05	1.0779e-05	384.18	105.41	71.549	20.813	1.0459e-05	41.32	204.085	323.413	246.638	189.438	306.416	410.725	188.854	193.036	352.586	395.764	192.124	196.855	197.024	202.945	420.757	201.340	-8191	255	
36467.145	1	1	0	0	0.22828	0.23124	0.20283	0.23562	0.29811	0.20842	0.084365	0.43219	0.096358	0.20813	0.14741	0.21553	0.17673	0.05803	0.21249	0.25292	-3.0125	-3.9375	-3.6437	-3.4938	-3.9229	-3.7188	-3.6562	-4.0458	-3.4062	-3.9708	-3.9062	-3.4958	-3.9813	-3.6604	-3.5	-4.1667	382.754	263.682	471.470	496.247	418.407	485.752	212.905	511.756	278.634	216.315	390.108	532.819	532.710	257.584	366.763	431.140	0.00037008	0.00036484	4.3665e-05	1092.7	7.4046e-06	8.2723e-06	1228.1	286.54	1.3561e-06	5.447e-06	391.48	105.01	68.832	19.438	6.5877e-06	40.452	0.00092503	0.00095778	0.00026314	1047.9	1.0348e-05	1.0432e-05	1181.9	280.8	1.0507e-05	1.0346e-05	380.56	105.01	71.668	20.832	1.052e-05	41.089	197.844	250.700	332.107	189.504	355.581	205.446	188.818	192.916	254.631	212.242	192.304	196.611	196.996	202.721	323.077	200.828	-8191	255	
36467.238	1	1	0	0	0.018001	0.24108	0.22596	0.11484	0.27705	0.083332	0.24675	0.0053175	0.16038	0.12802	0.16176	0.098253	0.30807	0.20495	0.04608	0.091876	-2.9271	-3.6562	-3.8083	-3.3354	-3.9542	-3.6729	-3.5021	-4.3438	-3.3229	-3.6437	-3.9146	-3.3083	-4.0729	-3.7542	-3.3688	-4.2792	175.671	355.964	449.414	422.830	246.124	509.853	479.538	348.125	195.236	300.659	197.362	334.745	193.106	451.250	429.049	282.605	0.00044814	0.0012027	0.00040349	1107.4	1.1187e-05	2.6365e-06	1253.5	298.91	1.1443e-05	5.2446e-06	400.14	104.63	69.273	18.72	7.6924e-06	39.279	0.00095425	0.00096481	0.00027049	1065.7	1.0698e-05	1.0702e-05	1208.2	289.76	1.073e-05	1.0787e-05	389.7	105.28	72.478	20.227	1.0866e-05	39.943	213.364	314.171	411.721	189.411	305.402	464.231	188.821	193.225	291.861	403.330	192.337	196.853	197.224	202.485	348.591	201.650	-8191	255	
36467.336	1	1	0	0	0.19319	0.28479	0.10836	0.18869	0.1732	0.17512	0.32568	0.10036	0.16678	0.081432	0.20815	0.098351	0.033836	0.083699	0.10253	0.053391	-3.0292	-3.4771	-3.9542	-3.3292	-3.7771	-3.9813	-3.6063	-4.125	-3.2854	-3.425	-4.2208	-3.3542	-3.9125	-3.8625	-3.5062	-4.1021	439.860	408.049	364.296	183.245	262.928	283.363	458.008	466.393	419.532	500.157	507.221	187.192	523.440	208.994	362.801	303.334	0.00042989	0.0008484	0.00050026	1109.8	3.1005e-06	1.4696e-05	1249	293.14	4.8005e-06	8.02e-06	389.95	102.8	68.442	18.777	7.7067e-06	39.961	0.00097903	0.0010057	0.0002779	1068.3	1.0977e-05	1.088e-05	1206	285.98	1.0927e-05	1.0817e-05	383.16	104.59	71.378	20.496	1.105e-05	40.773	198.291	313.121	274.619	189.658	242.034	468.190	188.859	192.685	372.393	325.571	192.215	196.287	197.406	202.514	269.085	201.231	-8191	255	
36467.453	1	1	0	0	0.10744	0.13425	0.2	0.48296	0.07359	0.12467	0.12426	0.18419	0.011502	0.066127	0.17077	0.3134	0.20822	0.13763	0.20132	0.058469	-3.2542	-3.6583	-4.0687	-3.4958	-3.7104	-3.9271	-3.4792	-4.0979	-3.6021	-3.5104	-4.1729	-3.5083	-3.7354	-3.7271	-3.3833	-4.0146	268.355	288.999	296.552	501.690	288.978	311.164	441.508	331.929	224.032	314.970	215.217	498.771	499.916	219.985	231.065	468.773	0.00034381	0.00010362	7.7996e-05	1083.1	1.0673e-05	5.8931e-06	1215.3	280.96	3.5065e-06	9.0786e-06	378.07	102.19	66.237	19.165	1.7953e-06	40.805	0.00099161	0.0010153	0.00028106	1045.6	1.0994e-05	1.1031e-05	1177.7	275.79	1.1044e-05	1.1115e-05	375.39	103.93	69.978	20.834	1.1312e-05	41.703	235.464	421.852	415.900	189.351	305.011	314.491	188.897	192.732	341.387	424.730	192.416	196.925	197.233	203.290	270.355	201.270	-8191	255	
36467.527	1	1	0	0	0.096069	0.10803	0.40732	0.16462	0.10994	0.1042	0.15311	0.090489	0.22926	0.19027	0.073957	0.15211	0.11961	0.066982	0.13494	0.1043	-3.2604	-3.4771	-4.1167	-3.4375	-3.5646	-4.2354	-3.6312	-4.075	-3.6958	-3.3604	-4.0312	-3.4479	-3.7146	-4.0729	-3.225	-3.9396	505.818	280.865	423.764	506.401	363.874	296.800	192.688	460.470	303.956	386.687	280.368	416.227	336.376	398.762	251.018	238.500	0.00034397	0.00041958	0.00030805	1072.1	6.621e-06	1.0546e-05	1218.1	277	4.0011e-06	1.0526e-05	372.51	102.96	65.201	19.024	6.9278e-06	40.101	0.0010024	0.0010328	0.00028903	1036.8	1.1113e-05	1.1224e-05	1175.9	272.66	1.1119e-05	1.1192e-05	369.14	103.03	68.609	20.6	1.1126e-05	40.834	204.376	487.215	475.751	189.575	326.304	252.291	188.792	192.916	356.167	199.297	192.475	196.821	197.050	202.496	335.893	201.054	-8191	255	
36467.621	1	1	0	0	0.18653	0.020556	0.063841	0.20347	0.14917	0.10857	0.2824	0.20169	0.14477	0.12942	0.20775	0.23877	0.21631	0.17405	0.20872	0.17586	-3.5417	-3.1813	-3.9875	-3.7313	-3.4583	-4.0917	-3.4458	-3.8271	-3.9229	-3.3312	-4.1729	-3.6292	-3.4437	-4.1083	-3.4021	-3.9979	525.238	326.460	185.205	467.880	306.910	213.918	448.698	525.369	432.805	225.417	227.313	209.060	265.932	235.833	493.359	466.806	0.00019437	0.00067864	6.1831e-05	1060.3	2.4201e-06	3.5347e-06	1188	267.78	3.1164e-06	7.7091e-06	364.93	99.435	63.143	18.846	6.882e-06	40.622	0.00097809	0.0010122	0.00028303	1020.1	1.095e-05	1.1059e-05	1148.1	264.1	1.1023e-05	1.1225e-05	361.16	101.31	66.981	20.585	1.1097e-05	41.298	189.965	462.351	404.370	189.521	468.965	244.521	189.057	192.957	450.790	510.954	192.214	197.184	197.223	202.783	456.884	201.064	-8191	255	
36467.742	1	1	0	0	0.098512	0.081724	0.15508	0.045274	0.041718	0.37293	0.26798	0.19019	0.17124	0.10117	0.14266	0.14814	0.24873	0.18588	0.27673	0.30759	-3.6312	-3.3271	-4.075	-3.6792	-3.3146	-4.0521	-3.4417	-3.6958	-3.8563	-3.2979	-4.2125	-3.725	-3.4562	-4.2396	-3.4333	-3.7354	501.911	229.391	492.069	522.349	264.349	343.030	484.354	471.872	372.278	296.668	427.348	517.055	484.530	236.063	274.509	409.211	0.00034812	0.00021047	0.00020952	1051.4	5.3299e-06	1.2929e-05	1199.2	270.65	4.1371e-06	6.9015e-06	369.61	101.39	64.923	19.467	4.585e-06	41.619	0.0009875	0.0010323	0.00028354	1022.7	1.106e-05	1.121e-05	1157.1	266.25	1.1177e-05	1.1268e-05	365.13	102.8	68.567	21.055	1.1129e-05	42.293	245.358	273.626	428.648	189.477	488.759	320.973	188.902	192.814	197.330	522.481	192.487	197.213	197.705	202.928	479.682	201.233	-8191	255	
36467.840	1	1	0	0	0.10409	0.21988	0.25328	0.19602	0.094326	0.34717	0.21989	0.14947	0.020128	0.098034	0.1571	0.1326	0.027919	0.25741	0.24431	0.1613	-3.7271	-3.3604	-3.75	-4.0479	-3.2458	-4.2021	-3.5958	-3.6292	-4.1333	-3.4125	-3.9979	-3.9042	-3.3563	-4.1292	-3.5625	-3.6792	283.607	313.521	352.780	355.051	297.457	275.157	458.943	433.498	357.308	239.067	475.778	341.444	433.302	465.632	505.039	496.731	0.00033454	0.00075159	0.00022341	1071.6	1.0931e-05	9.6973e-06	1211.2	277.36	3.0317e-06	7.423e-06	376.66	103.49	66.271	20.087	6.7794e-06	42.466	0.00098748	0.0010171	0.00028118	1037.7	1.1139e-05	1.111e-05	1170.5	271.4	1.1044e-05	1.1073e-05	371.28	104.85	69.659	21.476	1.0994e-05	43.007	181.373	494.697	221.703	189.535	370.523	465.305	188.656	193.005	410.005	298.094	192.710	196.893	196.964	202.739	439.239	201.265	-8191	255	
36467.934	1	1	0	0	0.14557	0.069134	0.2824	0.17755	0.094516	0.12851	0.18146	0.17803	0.16261	0.22336	0.3246	0.035482	0.054242	0.21792	0.16644	0.12715	-3.7833	-3.3021	-3.6125	-4.2292	-3.2708	-3.9854	-3.8958	-3.2729	-4.0542	-3.4083	-3.7542	-3.9125	-3.3396	-4.0583	-3.6688	-3.4854	522.701	530.662	493.742	477.778	354.775	463.127	244.635	293.480	275.038	251.556	472.812	507.482	225.259	181.149	302.996	247.812	0.00038616	0.00078832	0.00044898	1111.1	4.859e-06	5.643e-06	1249.8	284.92	5.6593e-06	1.8801e-06	388.55	105.14	67.886	19.953	7.5502e-06	42.322	0.00098872	0.0010139	0.00028149	1073.2	1.1097e-05	1.1149e-05	1208.7	278.7	1.1177e-05	1.1212e-05	381.84	105.99	71.319	21.492	1.1158e-05	43.015	223.838	229.664	268.218	189.723	332.727	429.467	189.153	192.807	324.137	285.317	192.562	196.861	197.494	202.045	270.140	201.616	-8191	255	
36468.055	1	1	0	0	0.070222	0.1676	0.19599	0.21025	0.024921	0.14809	0.32703	0.098528	0.16702	0.10267	0.15115	0.15482	0.31509	0.10271	0.15891	0.18475	-3.7333	-3.3104	-3.5104	-4.1146	-3.1958	-3.9792	-3.7458	-3.3771	-3.8854	-3.3521	-3.6333	-4.0396	-3.4333	-3.8688	-3.8	-3.3208	308.490	226.283	263.891	189.477	364.464	371.487	491.804	203.629	378.530	233.312	289.817	460.514	253.749	446.724	484.002	510.398	0.00032317	0.00097471	0.00028685	1138.7	2.5438e-06	9.0085e-06	1276.2	290.71	1.3077e-05	7.833e-06	390.04	105.31	67.9	19.287	4.1996e-06	41.127	0.0010003	0.0010355	0.00028559	1100	1.1303e-05	1.1263e-05	1231.9	285.19	1.1088e-05	1.1148e-05	383.54	105.86	71.019	20.97	1.1077e-05	41.898	212.661	269.968	232.053	189.354	333.309	417.098	188.978	192.522	303.056	408.953	192.405	196.920	196.859	202.856	394.243	201.564	-8191	255	
36468.152	1	1	0	0	0.15979	0.087387	0.22238	0.30022	0.10096	0.29955	0.23619	0.13097	0.26847	0.095817	0.21924	0.12963	0.16125	0.39639	0.10584	0.29598	-3.6125	-3.4979	-3.5021	-4.0708	-3.3187	-3.6667	-4.1625	-3.4271	-4.1458	-3.4708	-3.6229	-4.2792	-3.3375	-3.7313	-3.6333	-3.2125	184.834	534.992	272.347	522.728	398.524	214.171	476.849	461.862	265.638	199.441	513.487	247.990	508.469	234.230	514.438	504.798	0.00032621	0.00023362	0.00012244	1122.1	1.8353e-06	3.5905e-06	1249.9	284.02	4.664e-06	9.4023e-06	382.28	103.1	65.294	19.024	5.7986e-06	40.447	0.00098613	0.0010047	0.00028204	1083.1	1.0987e-05	1.1064e-05	1207.2	277.8	1.0919e-05	1.0927e-05	374.26	102.79	68.948	20.485	1.0683e-05	41.089	231.474	233.149	307.612	189.460	321.912	320.853	189.099	193.021	277.485	264.192	192.023	196.858	197.708	202.820	185.322	201.483	-8191	255	
36468.223	1	1	0	0	0.35072	0.11476	0.088439	0.22251	0.027651	0.13565	0.28316	0.042371	0.10435	0.17562	0.22853	0.32056	0.14332	0.20305	0.14616	0.31378	-3.8	-3.7438	-3.4979	-4.0563	-3.3438	-3.7375	-4	-3.2542	-3.9271	-3.8917	-3.4583	-4.1771	-3.4833	-3.7417	-3.9542	-3.3979	332.444	506.592	477.909	500.844	504.116	305.842	202.939	351.048	492.809	259.576	532.581	498.008	529.052	280.067	390.672	415.647	0.00034828	0.00088471	0.00039193	1124.2	3.787e-06	1.3401e-05	1260.3	283.55	2.1254e-06	3.5222e-06	382.03	101.87	65.426	18.907	7.7317e-06	40.157	0.00095408	0.00098458	0.0002722	1082.6	1.0671e-05	1.075e-05	1214.8	277.38	1.0778e-05	1.0794e-05	376.06	102.37	69.078	20.37	1.0884e-05	40.884	202.379	475.685	267.404	189.642	394.575	321.324	189.140	192.901	314.319	328.099	192.377	197.232	196.817	202.282	293.888	201.297	-8191	255	
36468.344	1	1	0	0	0.073943	0.10665	0.22652	0.079848	0.14875	0.092445	0.23643	0.11092	0.18672	0.32442	0.1114	0.35777	0.15151	0.17833	0.084659	0.36297	-3.475	-3.6417	-3.35	-4.1375	-3.5542	-3.6021	-4.3167	-3.4229	-3.9	-3.8021	-3.2979	-3.9583	-3.6354	-3.5167	-4.025	-3.2708	462.161	390.738	261.225	485.289	431.149	300.470	474.708	490.650	201.812	483.825	442.959	432.966	491.464	520.568	479.069	175.070	0.00022617	0.00087383	0.00016237	1137.6	9.7548e-06	5.0696e-06	1283.6	289.95	6.2775e-06	6.783e-06	388.93	102.16	66.17	18.744	1.1052e-05	39.612	0.00097115	0.0010023	0.00028012	1097.9	1.1063e-05	1.1094e-05	1235.6	283.11	1.1149e-05	1.1139e-05	383.32	103.7	70.183	20.395	1.136e-05	40.659	200.301	532.482	234.163	189.478	312.154	451.012	189.302	192.765	349.487	233.246	192.607	196.969	197.423	202.675	186.630	201.487	-8191	255	
36468.441	1	1	0	0	0.28373	0.033171	0.18483	0.23822	0.12072	0.12211	0.42316	0.17458	0.1257	0.20942	0.21769	0.18492	0.1511	0.14117	0.28467	0.21158	-3.3937	-3.825	-3.25	-4.1687	-3.5521	-3.3979	-4.2542	-3.4667	-3.8458	-4.0375	-3.3729	-4.1583	-3.7708	-3.5583	-3.925	-3.5708	192.214	534.307	340.821	512.168	198.759	447.181	429.301	504.841	189.265	523.952	496.851	390.159	212.427	508.167	179.483	336.743	0.00051667	0.00063299	0.00012063	1152.2	7.1074e-06	1.4744e-05	1295.5	293.83	3.2897e-06	7.2531e-06	392.69	102.79	67.207	18.861	7.4147e-06	39.627	0.00099729	0.001038	0.00028804	1111.3	1.1405e-05	1.1402e-05	1248.3	287.18	1.1268e-05	1.1308e-05	387.24	104.32	70.728	20.408	1.1313e-05	40.727	211.875	283.557	229.175	189.177	202.152	402.781	189.045	192.785	441.252	299.305	192.065	196.829	197.472	202.497	293.640	200.958	-8191	255	
36468.535	1	1	0	0	0.19223	0.12263	0.17749	0.37675	0.22134	0.15623	0.21013	0.087888	0.24539	0.088552	0.22478	0.12982	0.1491	0.11817	0.19899	0.17686	-3.2833	-4.0042	-3.325	-4.3417	-3.6125	-3.4	-4.2833	-3.6937	-3.8146	-4.1896	-3.2396	-3.95	-3.7167	-3.3979	-4.2625	-3.5646	394.063	309.916	430.514	501.485	365.989	263.198	456.557	494.465	444.799	446.061	487.114	175.869	429.094	295.887	407.864	241.463	0.00028761	0.00039341	8.0344e-05	1155.7	7.5056e-06	6.1784e-06	1295.8	292.4	3.5785e-06	2.682e-06	388.18	100.32	66.356	18.036	4.3587e-06	38.03	0.00099668	0.0010324	0.00028858	1116.1	1.1141e-05	1.1276e-05	1248.6	286.58	1.1045e-05	1.1178e-05	382.88	101.81	69.627	19.654	1.098e-05	38.829	198.174	228.726	345.103	189.196	343.963	248.576	189.033	193.027	355.060	299.538	192.209	196.600	197.638	202.270	295.119	201.672	-8191	255	
36468.633	1	1	0	0	0.23915	0.19818	0.17864	0.14416	0.1379	0.11136	0.21039	0.25453	0.24147	0.11843	0.067929	0.090302	0.067258	0.04777	0.074046	0.14824	-3.175	-4.0542	-3.0833	-4.0083	-3.9917	-3.4313	-4.3688	-3.6854	-3.4104	-3.9708	-3.4688	-3.8333	-3.8271	-3.4271	-4.1271	-3.6229	339.009	497.446	225.368	489.718	458.487	363.714	503.163	426.791	407.206	181.275	198.048	200.087	489.443	278.164	516.084	250.698	0.00028737	0.00077329	0.00022567	1131.1	4.9827e-06	1.0189e-05	1267.4	288.47	7.4767e-06	1.0256e-05	382.5	99.564	65.059	17.732	5.8851e-06	37.716	0.00097634	0.0010032	0.00028179	1091.1	1.0871e-05	1.1023e-05	1220.5	281.82	1.0845e-05	1.0917e-05	375.94	100.23	68.441	19.356	1.0537e-05	38.494	220.842	272.327	271.206	189.112	394.944	350.925	188.811	192.500	484.332	321.781	192.158	196.484	197.351	202.015	331.322	201.699	-8191	255	
36468.750	1	1	0	0	0.18415	0.15707	0.14561	0.11375	0.013794	0.027087	0.072396	0.22052	0.2665	0.13308	0.21588	0.25222	0.22215	0.22656	0.17686	0.10988	-3.1625	-4.2042	-3.5167	-3.8125	-4	-3.1958	-4.0979	-3.7562	-3.4313	-4.1271	-3.5521	-3.8063	-4.0146	-3.3542	-3.8688	-3.8479	195.014	532.153	421.002	532.666	378.856	427.909	491.550	460.859	529.135	328.613	419.856	442.646	426.006	487.972	262.312	399.581	0.00040082	0.00076434	0.00025598	1119.1	8.0236e-06	1.2968e-05	1249.5	284.74	7.292e-07	3.3581e-06	378.39	99.045	64.123	17.796	6.7647e-06	37.883	0.00094328	0.00097217	0.00027172	1080.8	1.0637e-05	1.0725e-05	1208.5	278.3	1.0792e-05	1.086e-05	372.95	100.07	67.735	19.542	1.0938e-05	39.021	219.209	312.872	523.445	189.200	361.486	217.162	188.774	192.999	288.782	420.043	192.320	196.857	197.157	202.417	323.104	201.810	-8191	255	
36468.824	1	1	0	0	0.03002	0.1764	0.14079	0.075188	0.16844	0.059176	0.15434	0.307	0.4129	0.06078	0.071789	0.14045	0.068493	0.32411	0.23373	0.075462	-2.9167	-4.0625	-3.4979	-3.7646	-4.0292	-3.2979	-3.8979	-3.9229	-3.2687	-4.1021	-3.6521	-3.7167	-4.0979	-3.3521	-3.9042	-4.1042	449.901	394.438	285.405	182.511	339.812	324.109	455.806	484.492	521.573	463.021	367.840	197.833	500.400	415.217	472.200	441.860	0.00040986	0.0011474	0.00014775	1107.1	4.7871e-06	1.0345e-05	1247	280.3	5.3746e-06	6.6486e-06	374.3	98.224	63.869	17.812	5.7893e-06	38.072	0.00098362	0.0010147	0.00028199	1068.2	1.1182e-05	1.1221e-05	1201.7	275.34	1.1364e-05	1.1277e-05	370.95	100.41	68.179	19.732	1.1352e-05	39.372	223.018	445.769	196.727	189.358	278.161	273.823	188.812	192.815	273.751	375.852	192.419	196.730	197.645	202.947	383.369	201.744	-8191	255	
36468.918	1	1	0	0	0.28908	0.10795	0.22627	0.39601	0.15713	0.16218	0.15516	0.2342	0.19056	0.16704	0.24764	0.16187	0.17535	0.11791	0.11123	0.12103	-2.9542	-4.125	-3.7875	-3.7208	-4.1021	-3.5521	-4.0667	-4.1521	-3.35	-4.1312	-3.8667	-3.6083	-4.2479	-3.5271	-3.775	-4.2833	375.217	520.025	534.645	515.904	476.205	395.017	428.574	438.256	409.541	207.682	456.023	486.131	425.193	338.327	456.950	465.705	0.00042616	0.00015497	0.00044736	1111.3	2.492e-06	7.2368e-06	1255	282.19	4.6944e-06	5.9697e-06	380.84	100.33	65.27	18.324	3.5021e-06	38.515	0.0010261	0.0010522	0.00029299	1079.2	1.1375e-05	1.1648e-05	1211.4	278.45	1.1422e-05	1.1407e-05	376.31	101.58	69.14	19.999	1.1123e-05	39.826	207.086	198.518	254.489	189.276	283.793	391.842	189.029	192.759	489.616	305.793	192.590	196.776	197.666	202.684	263.843	202.153	-8191	255	
36469.016	1	1	0	0	0.050085	0.16457	0.11691	0.33356	0.054514	0.048655	0.38898	0.10938	0.097893	0.18999	0.18757	0.028758	0.10487	0.09904	0.21845	0.1436	-3.1708	-4.0979	-3.8896	-3.8187	-4.2937	-3.7458	-3.8958	-4.225	-3.5667	-4.2167	-3.9917	-3.4708	-4.4	-3.5792	-3.675	-4.2708	213.612	357.397	264.432	516.302	338.231	490.215	467.697	497.345	304.033	332.335	485.145	483.366	513.366	452.817	217.128	476.065	0.00051139	0.00098407	0.00011459	1132.9	9.0953e-06	1.6471e-05	1253.2	286.21	1.029e-05	1.1421e-05	382.56	100.02	64.568	17.82	7.6787e-06	37.199	0.0010033	0.0010196	0.00028322	1090	1.1032e-05	1.1201e-05	1214.2	280.22	1.1102e-05	1.094e-05	374.87	100.29	68.177	19.474	1.0897e-05	38.51	179.910	276.739	469.204	189.231	317.255	431.496	188.751	193.042	441.542	447.708	192.689	196.635	197.548	202.536	383.705	201.509	-8191	255	
36469.137	1	1	0	0	0.18389	0.19967	0.24632	0.20351	0.30489	0.14124	0.30375	0.18064	0.14863	0.182	0.28596	0.097303	0.091251	0.14267	0.14923	0.27798	-3.1208	-3.7917	-3.9271	-3.6417	-4.3187	-3.6021	-3.6625	-4.3271	-3.5625	-4.0729	-4.0021	-3.5229	-4.2333	-3.8125	-3.5062	-4.3333	251.088	361.518	376.148	486.758	464.669	272.785	436.409	500.201	473.824	239.476	523.543	432.001	465.461	506.307	380.752	424.276	0.00039023	0.00039751	0.00014405	1105.2	7.4041e-06	9.9858e-06	1227.5	278.9	5.1226e-06	9.4324e-06	372.51	98.074	63.685	17.743	2.766e-06	37.551	0.00097646	0.00099823	0.00027763	1064.5	1.0906e-05	1.0799e-05	1187.9	273.79	1.0788e-05	1.0787e-05	367.31	98.898	67.355	19.355	1.0699e-05	38.548	202.232	312.515	228.366	189.074	403.384	318.352	189.008	192.788	353.545	285.378	192.483	196.675	197.237	202.031	341.485	201.452	-8191	255	
36469.230	1	1	0	0	0.31632	0.10299	0.04066	0.25666	0.21228	0.094413	0.31376	0.016699	0.23485	0.020131	0.08379	0.071853	0.042139	0.06006	0.19192	0.02649	-3.3063	-3.7833	-4.0792	-3.5833	-4.2188	-3.925	-3.7104	-4.325	-3.5958	-3.7792	-4.35	-3.6229	-4.2104	-4.0229	-3.5896	-4.2896	280.362	393.417	531.299	508.175	462.916	504.946	436.217	524.533	444.183	193.478	176.774	496.891	404.886	505.741	503.563	252.365	0.00035098	0.00049305	0.00021146	1099.1	6.0791e-06	1.5145e-05	1233.8	281.61	3.8729e-06	1.1732e-06	376.91	99.041	65.215	18.182	3.4355e-06	38.39	0.00096856	0.00098116	0.00027416	1057.8	1.0777e-05	1.0814e-05	1190.7	274.64	1.0939e-05	1.0863e-05	370.79	100.29	68.364	19.738	1.0867e-05	39.361	211.668	311.799	267.006	189.050	239.082	395.437	188.610	192.997	213.144	235.129	192.514	196.702	197.121	202.833	511.684	201.519	-8191	255	
36469.328	1	1	0	0	0.31226	0.27043	0.11608	0.08909	0.098674	0.23713	0.29543	0.15661	0.29016	0.16789	0.079122	0.17755	0.13575	0.04356	0.12008	0.18318	-3.4333	-3.6979	-4.0917	-3.5708	-3.9562	-4.1625	-3.6937	-4.25	-3.9792	-3.6854	-4.4187	-3.5229	-4.0979	-4.0312	-3.4417	-4.3958	433.186	502.066	457.513	329.632	182.967	175.129	460.063	509.511	219.925	527.396	438.927	276.862	336.197	424.922	202.404	197.909	0.00038931	0.00071112	0.00020438	1098.8	5.166e-06	9.2151e-06	1237.6	279.49	1.0671e-05	1.6188e-05	378.21	100.75	65.651	18.497	9.5171e-07	39.532	0.00096173	0.00098958	0.00027425	1061.5	1.0634e-05	1.0728e-05	1189.5	275.38	1.0712e-05	1.0661e-05	372.75	101.82	68.661	19.991	1.0783e-05	40.142	203.300	217.379	506.558	189.136	377.013	308.978	188.797	192.716	340.951	388.824	192.076	196.823	196.932	202.516	289.311	201.517	-8191	255	
36469.426	1	1	0	0	0.038066	0.17528	0.19037	0.61428	0.068064	0.18295	0.18002	0.1214	0.11547	0.021453	0.04366	0.30099	0.035303	0.15002	0.055699	0.1987	-3.3417	-3.5208	-4.2667	-3.725	-3.9854	-4.0229	-3.6271	-4.2229	-3.7938	-3.5938	-4.4375	-3.4437	-3.8125	-4.1083	-3.2812	-3.9917	455.524	309.825	502.391	508.574	205.103	191.146	446.671	525.086	177.864	181.141	454.990	435.874	511.478	246.999	464.726	505.808	0.00031439	0.00036519	0.00013652	1106.2	2.9455e-06	1.3734e-05	1249.1	284.74	4.5434e-06	3.6939e-06	384.31	102.05	66.038	18.635	3.3911e-06	39.536	0.0009681	0.00097857	0.00027269	1069.4	1.0622e-05	1.0837e-05	1200.1	278.35	1.0762e-05	1.0855e-05	377.17	102.62	69.403	20.227	1.0904e-05	40.307	198.201	236.319	267.350	188.923	313.245	229.966	188.859	193.023	325.436	309.552	192.174	196.359	196.850	203.012	185.879	201.674	-8191	255	
36469.520	1	1	0	0	0.017148	0.064031	0.19366	0.07251	0.057485	0.083222	0.24839	0.11515	0.14273	0.11963	0.28667	0.18943	0.15037	0.19289	0.20809	0.32079	-3.4062	-3.4062	-4.0333	-3.6667	-3.6813	-4.0083	-3.5375	-3.9396	-3.8021	-3.3521	-4.0563	-3.4188	-3.5625	-3.9938	-3.3	-3.9625	497.373	265.355	324.594	300.967	505.375	354.423	518.638	184.800	326.107	465.244	192.564	448.003	190.461	223.487	177.794	393.935	0.00024937	0.00023579	0.00020163	1119	2.8559e-06	6.2655e-06	1249.8	283.84	5.8179e-06	2.7526e-06	378.67	99.64	65.774	18.261	4.0524e-06	38.002	0.00096315	0.0010025	0.00027628	1078.1	1.0699e-05	1.0831e-05	1200.3	278.68	1.0745e-05	1.0885e-05	373.05	100.53	68.419	19.72	1.0611e-05	38.952	192.476	273.264	190.679	189.212	431.954	382.932	188.891	193.075	368.723	198.833	192.568	197.071	196.935	202.339	486.109	201.751	-8191	255	
36469.617	1	1	0	0	0.3157	0.083022	0.19258	0.15354	0.27309	0.12205	0.28816	0.15705	0.15625	0.088379	0.17813	0.19409	0.26398	0.083883	0.029441	0.073355	-3.6375	-3.4667	-4.1542	-3.6167	-3.5271	-3.9708	-3.7042	-4.0458	-4.0479	-3.3937	-3.9854	-3.5917	-3.4896	-4.2208	-3.3583	-3.7979	351.764	283.729	218.531	531.980	454.504	319.301	514.918	454.777	264.611	316.288	287.066	525.273	347.307	461.498	360.406	244.913	0.00033934	0.00092822	0.00036192	1101.2	2.2374e-06	1.4369e-05	1227.7	282.6	4.5793e-06	3.8392e-06	376.96	99.46	64.713	18.036	1.5162e-06	38.129	0.00094329	0.00096169	0.00026819	1062.9	1.0447e-05	1.0572e-05	1187	277.11	1.0618e-05	1.0581e-05	371.32	100.19	68.11	19.577	1.0484e-05	38.745	197.051	265.924	234.859	189.361	179.171	308.700	189.004	192.533	247.751	190.668	192.167	196.464	197.107	202.490	363.131	201.087	-8191	255	
36469.738	1	1	0	0	0.079134	0.32775	0.078334	0.11056	0.26777	0.20921	0.039547	0.35873	0.092607	0.16422	0.20314	0.090913	0.093069	0.17019	0.14297	0.22559	-3.5604	-3.2896	-4	-3.8417	-3.5312	-4.1479	-3.6562	-3.7854	-3.9896	-3.3354	-4.1042	-3.8	-3.3063	-4.1396	-3.4292	-3.5625	286.085	183.620	445.699	475.032	178.263	342.522	433.520	501.838	198.920	452.557	182.397	466.259	513.945	230.438	287.605	380.068	0.00034202	0.00059139	0.0001902	1094.8	4.5603e-06	8.6373e-06	1234.7	284.09	5.9869e-06	6.7264e-06	380.94	100.13	64.775	18.101	3.4894e-06	38.261	0.00093085	0.00095293	0.00026495	1058.3	1.0419e-05	1.0264e-05	1190.3	277.42	1.0328e-05	1.0283e-05	373.16	100.62	68.32	19.597	1.0179e-05	38.884	199.092	307.414	277.346	189.481	227.592	329.103	189.169	192.916	487.090	472.770	192.106	196.499	196.865	202.602	304.098	201.366	-8191	255	
36469.832	1	1	0	0	0.16867	0.19656	0.16604	0.17273	0.08992	0.077343	0.21527	0.48872	0.092147	0.16601	0.29043	0.23137	0.21729	0.086221	0.28968	0.076608	-3.6521	-3.3396	-3.8458	-3.9021	-3.1479	-4.2875	-3.7646	-3.6021	-4.0687	-3.3438	-3.8312	-4.0167	-3.3583	-4.0542	-3.5604	-3.5	292.148	482.251	224.975	231.343	372.689	487.492	465.189	497.652	254.856	402.020	511.608	491.707	534.212	298.044	437.459	430.094	0.00037037	0.00068051	0.0001542	1111.4	1.7413e-06	5.1742e-07	1250.3	286.36	4.912e-06	1.4832e-05	387.14	101.27	66.435	18.2	5.8823e-06	38.533	0.00091451	0.00094581	0.00025781	1067.1	1.0197e-05	1.0168e-05	1200.7	280.07	1.027e-05	1.035e-05	376.74	101.3	69.013	19.656	1.0241e-05	39.19	214.777	309.880	183.315	189.468	228.703	423.864	189.080	192.656	252.301	212.442	192.413	196.259	197.143	202.495	353.250	201.155	-8191	255	
36469.926	1	1	0	0	0.14235	0.08863	0.080725	0.18853	0.10718	0.034648	0.40322	0.11841	0.035603	0.20395	0.063591	0.12486	0.25512	0.13141	0.05667	0.092005	-3.6354	-3.3667	-3.8625	-3.925	-3.3	-4.0375	-3.8646	-3.3729	-4.0958	-3.4375	-3.6083	-4.1104	-3.2604	-4.0042	-3.6521	-3.4354	437.546	181.805	452.740	201.654	423.706	451.430	501.215	463.413	205.421	383.158	315.721	237.800	225.495	183.856	459.564	433.522	0.00045695	0.00039526	0.00034608	1123.4	2.1342e-06	7.3734e-06	1260.3	292.63	4.0997e-06	1.177e-05	390.68	101.18	66.481	18.374	6.8212e-06	39.195	0.00091699	0.00093202	0.00026161	1080.3	1.0311e-05	1.0325e-05	1213.4	283.83	1.0314e-05	1.0352e-05	381.32	102.28	69.63	19.851	1.0313e-05	39.701	209.892	456.208	265.341	189.396	428.779	219.066	188.990	192.334	373.717	309.357	192.360	196.491	196.986	203.131	345.987	201.632	-8191	255	
36470.023	1	1	0	0	0.21493	0.044975	0.10005	0.22407	0.17016	0.22544	0.13556	0.16959	0.31934	0.10149	0.072538	0.10286	0.11719	0.12264	0.12998	0.10214	-3.6292	-3.3729	-3.5146	-4.1771	-3.3	-3.9792	-4.0125	-3.5396	-3.9688	-3.4917	-3.625	-3.9646	-3.3833	-4.0083	-3.9604	-3.3021	454.018	504.057	483.675	491.476	340.881	291.172	474.479	489.097	428.849	186.029	195.072	204.952	303.107	516.251	408.096	393.634	0.00044768	0.00056681	0.00021985	1123.5	1.002e-05	1.0466e-05	1255.5	287.34	1.0614e-05	1.8523e-06	382.91	99.899	65.392	18.071	4.4732e-06	38.09	0.00090103	0.00093299	0.00025692	1078.2	1.0015e-05	9.8182e-06	1203.4	280.78	9.9023e-06	9.9122e-06	373.33	100.41	68.193	19.353	9.8552e-06	38.306	211.101	281.375	503.960	189.307	245.260	397.348	189.016	192.811	267.581	413.393	192.219	196.562	197.356	202.753	212.117	201.692	-8191	255	
36470.121	1	1	0	0	0.09634	0.080825	0.15134	0.1264	0.16962	0.025123	0.10735	0.21331	0.16065	0.085541	0.31557	0.076689	0.079887	0.076299	0.15711	0.14598	-3.7604	-3.6229	-3.4417	-4.1417	-3.1646	-3.8312	-4.0437	-3.4479	-4.1813	-3.6625	-3.4667	-4.0146	-3.4146	-3.8521	-3.8896	-3.2646	271.187	515.944	432.452	403.176	331.411	215.760	208.809	461.955	180.254	333.216	524.036	412.491	334.621	222.188	354.116	486.087	0.00032326	0.00023264	0.00028092	1108.6	6.9987e-06	5.9601e-06	1243.7	285.56	2.2697e-06	1.0976e-05	380.88	100.05	65.893	18.107	7.7812e-06	37.761	0.00086904	0.00089793	0.00024947	1062.8	9.8472e-06	9.7307e-06	1192.2	278.44	9.9856e-06	9.9264e-06	372.7	100.28	68.284	19.332	9.9004e-06	38.336	534.726	260.723	294.858	189.759	329.208	180.295	189.242	193.083	316.937	327.134	192.235	196.748	197.037	202.144	352.847	201.312	-8191	255	
#DATA ENDS
