BOXY.EXE: ISS Imagent and Oximeter Data Acquisition Program Version 0.80
Ascii Record File

#ACQ INFORMATION
2  Detector Channels 
16  External MUX Channels 
1  Auxiliary Channels 
5000  Waveform (CCF) Frequency (Hz)
1  Waveforms Skipped 
30  Waveforms Averaged 
1  Cycles Averaged 
16  Acquisitions per Waveform 
10.0806  Updata Rate (Hz) 

#FILE INFORMATION
TRUE -- External MUX Channel results are PARSED.
FALSE -- AC DC and Phase are NOT grouped.
TRUE -- Companion Program Settings File CREATED.
FALSE -- AC data not excluded
FALSE -- DC data not excluded
FALSE -- Phase data not excluded
FALSE -- Auxillary Chn. data not excluded
Tab delimiters

#CALIBRATION STATE
TRUE -- Waveform Calibration Values APPLIED.


#AUX CALIBRATION VALUES
Val Type	aux-1	

Term	1.0000e+00	
Factor	0.0000e+00	


#WF CALIBRATION VALUES
A = Detector Channel
Val Type	A-AC1	A-AC2	A-AC3	A-AC4	A-AC5	A-AC6	A-AC7	A-AC8	A-AC9	A-AC10	A-AC11	A-AC12	A-AC13	A-AC14	A-AC15	A-AC16	A-DC1	A-DC2	A-DC3	A-DC4	A-DC5	A-DC6	A-DC7	A-DC8	A-DC9	A-DC10	A-DC11	A-DC12	A-DC13	A-DC14	A-DC15	A-DC16	A-Ph1	A-Ph2	A-Ph3	A-Ph4	A-Ph5	A-Ph6	A-Ph7	A-Ph8	A-Ph9	A-Ph10	A-Ph11	A-Ph12	A-Ph13	A-Ph14	A-Ph15	A-Ph16	

Term	0.00000e+00	0.00000e+00	0.00000e+00	0.00000e+00	0.00000e+00	0.00000e+00	0.00000e+00	0.00000e+00	0.00000e+00	0.00000e+00	0.00000e+00	0.00000e+00	0.00000e+00	0.00000e+00	0.00000e+00	0.00000e+00	0.00000e+00	0.00000e+00	0.00000e+00	0.00000e+00	0.00000e+00	0.00000e+00	0.00000e+00	0.00000e+00	0.00000e+00	0.00000e+00	0.00000e+00	0.00000e+00	0.00000e+00	0.00000e+00	0.00000e+00	0.00000e+00	0.00000e+00	0.00000e+00	0.00000e+00	0.00000e+00	0.00000e+00	0.00000e+00	0.00000e+00	0.00000e+00	0.00000e+00	0.00000e+00	0.00000e+00	0.00000e+00	0.00000e+00	0.00000e+00	0.00000e+00	0.00000e+00	
Factor	1.00000e+00	1.00000e+00	1.00000e+00	1.00000e+00	1.00000e+00	1.00000e+00	1.00000e+00	1.00000e+00	1.00000e+00	1.00000e+00	1.00000e+00	1.00000e+00	1.00000e+00	1.00000e+00	1.00000e+00	1.00000e+00	1.00000e+00	1.00000e+00	1.00000e+00	1.00000e+00	1.00000e+00	1.00000e+00	1.00000e+00	1.00000e+00	1.00000e+00	1.00000e+00	1.00000e+00	1.00000e+00	1.00000e+00	1.00000e+00	1.00000e+00	1.00000e+00	X	X	X	X	X	X	X	X	X	X	X	X	X	X	X	X	

B = Detector Channel
Val Type	B-AC1	B-AC2	B-AC3	B-AC4	B-AC5	B-AC6	B-AC7	B-AC8	B-AC9	B-AC10	B-AC11	B-AC12	B-AC13	B-AC14	B-AC15	B-AC16	B-DC1	B-DC2	B-DC3	B-DC4	B-DC5	B-DC6	B-DC7	B-DC8	B-DC9	B-DC10	B-DC11	B-DC12	B-DC13	B-DC14	B-DC15	B-DC16	B-Ph1	B-Ph2	B-Ph3	B-Ph4	B-Ph5	B-Ph6	B-Ph7	B-Ph8	B-Ph9	B-Ph10	B-Ph11	B-Ph12	B-Ph13	B-Ph14	B-Ph15	B-Ph16	

Term	0.00000e+00	0.00000e+00	0.00000e+00	0.00000e+00	0.00000e+00	0.00000e+00	0.00000e+00	0.00000e+00	0.00000e+00	0.00000e+00	0.00000e+00	0.00000e+00	0.00000e+00	0.00000e+00	0.00000e+00	0.00000e+00	0.00000e+00	0.00000e+00	0.00000e+00	0.00000e+00	0.00000e+00	0.00000e+00	0.00000e+00	0.00000e+00	0.00000e+00	0.00000e+00	0.00000e+00	0.00000e+00	0.00000e+00	0.00000e+00	0.00000e+00	0.00000e+00	2.30140e+01	-1.20181e+02	-1.19907e+02	-1.83653e+02	-6.30298e+01	-5.18358e+01	-1.58195e+02	-1.62015e+02	-5.19289e+01	-7.20987e+01	-1.70726e+02	-1.70915e+02	-1.78976e+02	-1.76655e+02	-6.37239e+01	-1.49757e+02	
Factor	5.08546e-05	1.47758e-04	3.78023e-05	1.55087e-01	1.88521e-06	1.77159e-06	1.71671e-01	5.62650e-02	2.22537e-06	1.53002e-06	9.34834e-02	3.14727e-02	2.91465e-02	9.72571e-03	2.02248e-06	1.39640e-02	4.02956e-06	4.41231e-06	1.22925e-06	7.62458e-02	4.73918e-08	4.85632e-08	7.91440e-02	2.76715e-02	4.75700e-08	4.85441e-08	4.45230e-02	1.49399e-02	1.44346e-02	4.81122e-03	4.80407e-08	6.69290e-03	X	X	X	X	X	X	X	X	X	X	X	X	X	X	X	X	



#DISTANCE SETTINGS
A = Detector Channel
A-1	A-2	A-3	A-4	A-5	A-6	A-7	A-8	A-9	A-10	A-11	A-12	A-13	A-14	A-15	A-16	

2.5000e+00	3.0000e+00	2.5000e+00	3.0000e+00	2.0000e+00	3.0000e+00	1.5000e+00	3.0000e+00	3.0000e+00	3.0000e+00	3.0000e+00	3.0000e+00	3.0000e+00	3.0000e+00	1.5000e+00	3.0000e+00	

B = Detector Channel
B-1	B-2	B-3	B-4	B-5	B-6	B-7	B-8	B-9	B-10	B-11	B-12	B-13	B-14	B-15	B-16	

1.0000e+01	1.0000e+01	1.0000e+01	1.4400e+00	1.0000e+01	1.0000e+01	1.5100e+00	1.9400e+00	1.0000e+01	1.0000e+01	1.9900e+00	2.4900e+00	2.4100e+00	2.9000e+00	1.0000e+01	2.9800e+00	




#DATA BEGINS
time	group	step	mark	flag	A-AC1	A-AC2	A-AC3	A-AC4	A-AC5	A-AC6	A-AC7	A-AC8	A-AC9	A-AC10	A-AC11	A-AC12	A-AC13	A-AC14	A-AC15	A-AC16	A-DC1	A-DC2	A-DC3	A-DC4	A-DC5	A-DC6	A-DC7	A-DC8	A-DC9	A-DC10	A-DC11	A-DC12	A-DC13	A-DC14	A-DC15	A-DC16	A-Ph1	A-Ph2	A-Ph3	A-Ph4	A-Ph5	A-Ph6	A-Ph7	A-Ph8	A-Ph9	A-Ph10	A-Ph11	A-Ph12	A-Ph13	A-Ph14	A-Ph15	A-Ph16	B-AC1	B-AC2	B-AC3	B-AC4	B-AC5	B-AC6	B-AC7	B-AC8	B-AC9	B-AC10	B-AC11	B-AC12	B-AC13	B-AC14	B-AC15	B-AC16	B-DC1	B-DC2	B-DC3	B-DC4	B-DC5	B-DC6	B-DC7	B-DC8	B-DC9	B-DC10	B-DC11	B-DC12	B-DC13	B-DC14	B-DC15	B-DC16	B-Ph1	B-Ph2	B-Ph3	B-Ph4	B-Ph5	B-Ph6	B-Ph7	B-Ph8	B-Ph9	B-Ph10	B-Ph11	B-Ph12	B-Ph13	B-Ph14	B-Ph15	B-Ph16	aux-1	digaux	

28981.430	1	1	0	256	0.28782	0.19844	0.19595	0.2171	0.30424	0.21484	0.22087	0.28205	0.12973	0.0445	0.13499	0.33036	0.17953	0.033844	0.31259	0.07116	-3.4979	-4.8313	-4.3021	-4.125	-4.7542	-4.0375	-4.4979	-4.8958	-3.8812	-4.5354	-4.5854	-4.1229	-4.8708	-4.1667	-4.4208	-4.7812	225.534	272.451	212.056	486.190	221.908	226.707	406.485	458.535	518.956	289.916	470.602	450.758	429.075	245.232	277.975	451.272	0.0013454	0.00040612	0.00014487	1313.3	4.3693e-06	8.715e-06	1318.9	357.07	8.7521e-06	2.2643e-06	408.23	133.2	115.25	39.1	6.897e-06	49.253	0.00084783	0.00084603	0.00023486	1351	9.2412e-06	9.3064e-06	1352.8	366.73	9.2443e-06	9.2733e-06	422.78	137.13	119.4	40.672	9.2859e-06	51.219	346.998	235.921	262.512	172.603	299.410	302.049	172.362	177.065	299.214	290.749	176.505	181.003	181.686	186.436	295.616	185.101	-8191	255	
28981.551	1	1	0	0	0.31388	0.19225	0.064671	0.087658	0.20712	0.080202	0.11684	0.21539	0.35869	0.1001	0.18673	0.16848	0.26906	0.21756	0.16478	0.086359	-3.5833	-4.7542	-4.4229	-3.9417	-4.7458	-4.2917	-4.2833	-4.9938	-3.9104	-4.675	-4.7688	-4.0375	-4.9167	-4.2083	-4.1167	-4.8396	192.241	250.787	203.245	182.747	330.122	487.716	205.075	454.391	248.453	383.764	389.314	345.560	517.185	477.166	242.037	463.298	0.0014023	0.00045451	2.4397e-05	1317.1	5.7748e-06	4.0801e-06	1318	356.92	9.4375e-06	3.6438e-06	407.62	132.8	115.17	39.157	8.107e-06	48.745	0.00085692	0.00086041	0.00023815	1351.6	9.239e-06	9.3539e-06	1352.9	367.12	9.3166e-06	9.3417e-06	421.83	137.09	119.23	40.731	9.3175e-06	51.138	344.131	204.612	318.590	172.469	253.473	322.521	172.271	177.187	367.092	311.075	176.860	180.600	181.534	186.559	347.591	185.323	-8191	255	
28981.646	1	1	0	0	0.068389	0.15057	0.2119	0.14732	0.29317	0.19709	0.10299	0.16134	0.16481	0.14697	0.29306	0.18986	0.093562	0.13815	0.16124	0.18876	-3.6583	-4.4833	-4.5833	-3.9646	-4.7229	-4.2396	-4.3604	-4.9542	-3.7125	-4.3458	-4.5938	-3.9771	-4.7688	-4.4938	-3.9167	-4.9812	454.573	455.625	193.142	164.334	285.982	278.229	458.531	505.718	252.804	412.594	455.695	512.075	476.160	195.815	228.214	510.947	0.0014677	0.00037638	7.1305e-05	1317.9	4.7194e-06	4.5211e-06	1319.4	357.96	1.1932e-05	4.8788e-06	407.99	133.34	115.11	38.935	4.4111e-06	49.039	0.00086358	0.0008599	0.00023796	1350.8	9.3097e-06	9.3412e-06	1353.8	367.65	9.3129e-06	9.362e-06	422.81	137.42	119.46	40.729	9.3155e-06	51.263	347.946	210.738	264.688	172.348	256.678	302.943	172.187	177.246	301.121	295.681	176.740	181.139	181.571	186.514	334.451	185.382	-8191	255	
28981.740	1	1	0	0	0.17518	0.076799	0.15418	0.2288	0.076588	0.11187	0.27731	0.22824	0.29498	0.24431	0.1517	0.063063	0.2315	0.21556	0.070917	0.14114	-3.5979	-4.1687	-4.6583	-4.1083	-4.7875	-4.5417	-4.0229	-4.925	-4.0146	-4.1854	-4.7896	-3.825	-4.6542	-4.4417	-4.0167	-4.9708	206.087	416.088	252.642	475.600	499.236	410.510	484.508	179.881	337.268	192.631	395.974	473.061	189.636	431.420	209.501	462.595	0.0013474	0.00038983	0.00010465	1319.9	8.1601e-06	1.0053e-05	1320.7	358.1	8.4468e-06	6.5267e-06	408.16	133.77	115.56	39.168	8.3921e-06	48.907	0.00086731	0.00086169	0.00023725	1355.5	9.3098e-06	9.5491e-06	1356.3	368.01	9.4586e-06	9.4936e-06	423.41	137.76	119.54	40.927	9.6555e-06	51.323	341.769	272.981	207.158	172.776	292.945	329.101	172.161	176.958	286.590	320.776	176.619	180.762	181.671	186.346	316.707	185.243	-8191	255	
28981.814	1	1	0	0	0.089292	0.14574	0.075573	0.11381	0.27637	0.1257	0.11637	0.10651	0.12432	0.18576	0.1356	0.15539	0.11901	0.17489	0.32025	0.21147	-3.7104	-4.2542	-4.7562	-4.0646	-4.4688	-4.55	-4.0917	-4.9771	-4.2917	-4.0563	-4.9646	-3.9604	-4.5604	-4.6146	-3.7917	-4.9437	338.434	426.332	319.534	165.512	224.392	335.915	417.300	468.713	460.122	459.903	504.444	468.481	440.391	433.800	225.093	504.029	0.0013027	0.00027819	0.0001599	1325.5	8.7223e-06	3.2753e-06	1330	358.82	8.392e-06	2.5375e-06	410.06	133.4	115.99	39.198	1.0131e-05	49.091	0.00088294	0.0008721	0.00024524	1360.1	9.5164e-06	9.5797e-06	1361.1	368.98	9.5763e-06	9.5759e-06	424.87	137.67	120.01	40.959	9.5851e-06	51.395	346.184	338.366	238.436	172.517	230.266	343.931	172.345	177.157	287.818	301.955	176.593	181.014	181.813	186.270	311.349	185.583	-8191	255	
28981.932	1	1	0	0	0.33341	0.18123	0.19929	0.036315	0.15974	0.040478	0.2889	0.15577	0.047934	0.26314	0.095941	0.27119	0.074911	0.23273	0.11852	0.032494	-3.9333	-4.0104	-4.7479	-4.0146	-4.3229	-4.8708	-4.0125	-4.8792	-4.2958	-3.9479	-4.8229	-4.0813	-4.3271	-4.6646	-3.7333	-4.8	392.010	163.039	228.483	386.702	285.115	184.015	429.628	446.292	183.051	317.392	344.049	512.494	334.853	294.066	322.510	187.634	0.0014051	0.00063646	0.00019526	1324.1	7.7444e-06	5.2379e-06	1326.5	358.2	1.1134e-05	7.4684e-06	409.76	133.36	115.87	39.294	2.4002e-06	49.105	0.00088928	0.00088189	0.00024732	1360.9	9.6085e-06	9.6995e-06	1362.5	369.13	9.6166e-06	9.7341e-06	424.58	138.03	120.13	41.019	9.6491e-06	51.501	339.630	253.983	251.184	172.432	310.115	328.381	172.138	177.138	293.032	301.204	176.674	180.803	181.340	186.179	329.408	185.458	-8191	255	
28982.029	1	1	0	0	0.041957	0.10794	0.17996	0.28236	0.18828	0.23847	0.099657	0.21384	0.11916	0.19692	0.10548	0.086341	0.17694	0.054741	0.0030403	0.093014	-4.1125	-3.9562	-4.8979	-4.2167	-4.2271	-4.7333	-4.0896	-4.9062	-4.2937	-3.9208	-4.9354	-4.1854	-4.2604	-4.8688	-3.9208	-4.6875	346.278	213.832	468.439	178.320	517.102	500.133	355.037	462.794	469.145	231.219	253.789	248.615	504.642	396.397	484.404	407.085	0.0013105	0.00044172	0.00024347	1325.1	9.1921e-06	3.7178e-06	1332.3	359.45	9.8966e-06	5.0239e-06	411.51	133.49	116.12	39.357	9.1606e-06	49.143	0.00089852	0.00088938	0.00024876	1362.9	9.7201e-06	9.8175e-06	1365	369.91	9.7039e-06	9.8913e-06	426.3	138.23	120.37	41.15	9.9422e-06	51.569	351.345	219.499	258.571	172.706	273.048	240.791	172.300	176.960	346.540	297.866	176.364	180.928	181.422	186.359	311.569	185.363	-8191	255	
28982.125	1	1	0	0	0.059304	0.12413	0.24277	0.37996	0.18865	0.22085	0.12865	0.35711	0.085621	0.0081387	0.080479	0.073114	0.18153	0.19928	0.1882	0.20731	-4.1667	-3.7833	-4.775	-4.3854	-3.95	-4.8	-4.0521	-4.5563	-4.7271	-3.9313	-4.9667	-4.2958	-4.0687	-4.9792	-3.9396	-4.3979	477.785	512.153	289.133	486.278	350.276	240.863	483.123	466.332	491.835	451.855	510.710	441.265	461.853	168.717	220.456	328.497	0.0015511	0.00049315	8.2527e-05	1333.9	6.6741e-06	5.9458e-06	1337	361.25	8.4181e-06	5.778e-06	412.69	134.73	116.12	39.428	5.4634e-06	49.192	0.00090631	0.00091762	0.00025176	1367.7	9.9442e-06	9.9846e-06	1370.9	371.1	1.0003e-05	1.0126e-05	426.91	138.87	120.53	41.26	1.0135e-05	51.62	349.701	262.563	284.298	172.606	305.036	302.644	172.198	177.036	298.967	287.857	176.592	181.292	181.494	186.465	299.260	185.033	-8191	255	
28982.221	1	1	0	0	0.11372	0.089132	0.24713	0.3646	0.075531	0.18344	0.24803	0.11746	0.079817	0.060875	0.091178	0.056087	0.16331	0.2291	0.15473	0.23927	-4.3438	-3.7188	-4.7375	-4.3292	-3.9437	-4.7562	-4.2438	-4.4292	-4.7396	-3.7458	-4.6771	-4.4083	-3.9354	-4.8938	-3.9875	-4.2021	172.067	273.034	232.359	506.325	264.437	300.521	419.101	513.365	247.733	340.720	461.723	494.649	283.809	224.228	430.622	479.878	0.0015027	0.00090962	0.00019315	1338.6	7.6129e-06	5.7084e-06	1338.2	361	8.2887e-06	3.0219e-06	412.71	133.84	116.91	39.401	8.0418e-06	49.405	0.00091532	0.00093885	0.00025741	1369.2	1.0012e-05	1.0142e-05	1370.3	371.14	1.0125e-05	1.0156e-05	427.34	138.68	120.78	41.236	1.0326e-05	51.858	351.724	241.334	261.993	172.683	311.396	297.649	172.376	177.064	316.926	322.634	176.521	180.899	181.555	186.477	322.653	185.096	-8191	255	
28982.342	1	1	0	0	0.15477	0.14482	0.14564	0.10386	0.30973	0.26062	0.30622	0.31847	0.29844	0.21986	0.097056	0.17652	0.046009	0.15437	0.14755	0.15545	-4.6167	-3.8021	-4.5875	-4.6687	-3.85	-4.8521	-4.425	-4.3542	-4.7937	-3.9333	-4.5333	-4.6917	-4.0833	-5.0667	-4.1104	-4.3	219.486	423.988	418.920	162.345	197.671	422.789	472.720	399.907	392.710	404.043	481.309	491.810	456.941	413.402	383.110	304.744	0.0013446	0.00055535	0.00021676	1335.4	2.2168e-06	5.2568e-06	1337.3	361.51	2.3462e-06	6.5643e-06	414.94	134.81	117.19	39.634	1.386e-05	49.532	0.00092325	0.0009502	0.00026175	1371.4	1.0279e-05	1.0231e-05	1373.9	373.08	1.0377e-05	1.0675e-05	429.03	139.5	121.48	41.439	1.0888e-05	51.99	351.986	259.172	255.201	172.628	221.116	345.790	172.164	177.066	283.193	339.696	176.418	181.016	181.605	186.372	308.482	184.879	-8191	255	
28982.412	1	1	0	0	0.028421	0.21238	0.039518	0.19376	0.19482	0.10291	0.22874	0.23511	0.10619	0.20322	0.32344	0.044253	0.17344	0.11641	0.1082	0.047136	-4.3729	-3.9354	-4.3958	-4.9521	-3.8292	-4.5521	-4.4854	-4.1167	-4.8938	-3.9021	-4.4625	-4.9104	-3.85	-4.8187	-4.375	-4.0437	490.490	373.800	384.143	490.826	466.923	160.275	400.778	421.560	339.952	343.514	478.885	498.252	495.099	496.128	368.037	418.430	0.0013812	0.00018675	0.00012374	1350.2	9.6813e-06	2.3981e-06	1352.5	364.37	6.692e-06	2.4089e-06	418.12	135.95	117.94	40.287	7.56e-06	50.017	0.0009992	0.0010169	0.00028134	1386.3	1.122e-05	1.1445e-05	1389.1	376.39	1.1366e-05	1.1647e-05	434	141.05	122.94	42.155	1.1432e-05	52.582	344.253	251.963	282.394	172.720	292.446	246.602	172.390	176.963	346.481	234.846	176.518	180.859	181.156	186.258	297.938	185.194	-8191	255	
28982.510	1	1	0	0	0.12192	0.094883	0.11905	0.20976	0.16534	0.038143	0.12327	0.33237	0.063498	0.05246	0.061674	0.1455	0.1484	0.18413	0.01966	0.25372	-4.3583	-3.8896	-4.3229	-4.8396	-3.9042	-4.5833	-4.6521	-4.0813	-4.8104	-4.025	-4.4333	-4.9208	-4.0563	-4.7271	-4.6458	-3.9854	482.203	297.126	434.572	481.352	447.277	281.853	471.001	369.572	353.676	193.581	165.530	342.279	359.961	415.588	271.081	484.160	0.0013038	0.00043358	5.0853e-05	1355.6	7.4811e-06	7.3509e-06	1362.4	367.59	1.4156e-05	1.9446e-06	421.11	137.28	119.29	40.378	6.426e-06	50.171	0.0010175	0.0010388	0.00028669	1395.5	1.1246e-05	1.1391e-05	1399.5	379.19	1.119e-05	1.1265e-05	436.76	142.03	123.93	42.27	1.1221e-05	52.887	345.420	222.067	317.885	172.507	286.785	366.339	172.249	176.793	333.515	363.905	176.623	180.822	181.258	185.999	331.466	185.130	-8191	255	
28982.631	1	1	0	0	0.041142	0.26771	0.26598	0.055758	0.04897	0.088522	0.29654	0.21837	0.10296	0.16015	0.037104	0.06869	0.23314	0.11671	0.1438	0.27583	-4.5687	-3.9188	-4.2104	-5.1146	-3.9833	-4.4583	-4.7854	-4.0833	-4.825	-4.3417	-4.2188	-4.9042	-3.9417	-4.4854	-4.6604	-3.9021	372.519	176.143	238.029	179.218	217.654	326.474	444.910	488.641	316.010	463.378	511.687	423.718	370.941	200.091	193.745	230.270	0.0014987	0.00026752	0.00012246	1356	6.8765e-06	3.0242e-06	1365	368.91	1.035e-05	8.4267e-06	421.46	137.42	120.41	40.441	2.9607e-06	50.263	0.0010138	0.0010408	0.00028692	1398.9	1.137e-05	1.1589e-05	1404.6	380.76	1.1583e-05	1.1782e-05	438.27	142.52	124.4	42.496	1.1871e-05	53.005	344.458	373.428	275.710	172.756	354.713	356.841	172.307	177.077	318.934	279.978	176.244	180.949	181.570	186.081	396.109	185.075	-8191	255	
28982.727	1	1	0	0	0.12973	0.16071	0.22295	0.13963	0.045785	0.2404	0.28831	0.1546	0.1563	0.23783	0.078199	0.14957	0.11493	0.10854	0.17376	0.1874	-4.4	-4.1271	-3.9125	-4.9875	-4.0458	-4.2458	-5.1125	-3.975	-4.7625	-4.3667	-4.1479	-5.0396	-4.1854	-4.2521	-4.8396	-3.9583	496.530	468.463	427.808	496.832	182.164	468.388	493.205	314.788	374.302	264.129	413.045	170.036	492.155	185.754	420.186	372.554	0.0013159	0.00049975	5.3236e-05	1365.9	3.9577e-06	1.3681e-06	1372.1	369.78	8.0454e-06	6.6535e-06	421.65	137.5	120.14	40.801	1.3024e-05	50.24	0.0010794	0.0010999	0.00030076	1405.9	1.1582e-05	1.1795e-05	1407.7	381.87	1.1458e-05	1.1655e-05	437.67	142.85	124.42	42.581	1.1779e-05	53.079	350.399	304.988	255.717	172.480	300.793	379.664	172.390	176.980	326.765	302.248	176.299	181.129	181.363	186.186	324.738	185.017	-8191	255	
28982.822	1	1	0	0	0.23235	0.11361	0.1374	0.2267	0.1109	0.28035	0.12979	0.32758	0.19837	0.13861	0.14879	0.14433	0.11277	0.19795	0.15506	0.045598	-4.3292	-4.4313	-3.7792	-5.1604	-3.9062	-4.2375	-4.9333	-3.9708	-4.4938	-4.5146	-3.9875	-4.9083	-4.2021	-4.2521	-4.5875	-3.8958	486.471	161.871	367.963	446.875	197.371	218.622	398.414	447.169	215.990	517.714	414.298	477.593	462.719	464.906	276.723	456.972	0.0013592	0.00053331	4.307e-05	1368.7	1.5537e-05	1.2065e-05	1373.9	370.51	5.6214e-06	4.3218e-06	421.88	137.98	120.62	40.625	5.6454e-06	50.121	0.00106	0.0010796	0.0003011	1406.2	1.165e-05	1.1708e-05	1409.9	381.81	1.1631e-05	1.1604e-05	438.19	142.7	124.54	42.528	1.1455e-05	52.948	352.793	240.207	278.775	172.434	265.319	327.661	172.390	176.922	295.672	282.198	176.349	181.141	181.252	186.101	273.001	185.224	-8191	255	
28982.941	1	1	0	0	0.1355	0.18797	0.12607	0.1722	0.23064	0.13549	0.18833	0.26339	0.26475	0.12177	0.16673	0.083051	0.13995	0.26	0.055165	0.087751	-4.2167	-4.5375	-4.0917	-4.8833	-4.3688	-3.9833	-5.1375	-3.9875	-4.3521	-4.8688	-3.875	-4.7667	-4.4354	-4.0979	-4.8042	-4.1312	185.589	375.662	447.683	507.635	238.976	276.779	483.908	421.608	350.504	349.297	480.066	458.891	509.317	510.426	414.623	249.380	0.0013541	0.0001282	0.00013485	1366	5.189e-06	6.9537e-06	1372	370.22	1.4773e-05	4.8831e-06	422.23	138.78	120.04	40.575	9.7584e-06	50.487	0.0010356	0.0010451	0.00029316	1406.2	1.1499e-05	1.1737e-05	1410.7	381.54	1.172e-05	1.1711e-05	438.77	143.16	124.67	42.593	1.1694e-05	53.135	344.639	219.087	280.686	172.607	337.850	293.478	172.289	176.972	322.572	215.365	176.395	180.874	181.604	186.090	301.673	185.131	-8191	255	
28983.037	1	1	0	0	0.15881	0.1752	0.14834	0.15444	0.15344	0.20699	0.20377	0.23965	0.049227	0.14973	0.13022	0.069463	0.224	0.047322	0.16844	0.19696	-4.0521	-4.5208	-3.65	-4.7521	-4.4667	-4.0188	-5.1146	-4.0833	-4.1646	-4.6188	-4.0833	-4.6521	-4.5229	-4.0292	-4.7542	-4.1021	274.338	479.777	203.565	510.302	327.485	357.537	516.886	478.060	258.582	255.807	423.347	194.251	428.807	202.797	392.031	515.559	0.0013428	0.0004694	0.0001732	1373	4.7111e-06	2.6674e-06	1372.9	372.29	9.4815e-06	3.118e-06	423.9	138.76	120.06	40.872	6.4608e-06	50.567	0.0010539	0.001079	0.00030202	1410.4	1.1684e-05	1.1776e-05	1412.8	383.08	1.1693e-05	1.1737e-05	439.77	143.6	125.08	42.726	1.1741e-05	53.255	345.469	274.805	298.719	172.443	305.173	333.425	172.368	177.062	303.195	316.982	176.448	180.965	181.465	186.256	299.549	185.121	-8191	255	
28983.109	1	1	0	0	0.063414	0.20316	0.1861	0.097804	0.38041	0.1506	0.3349	0.12149	0.1828	0.087057	0.12125	0.2046	0.017903	0.12022	0.16473	0.35753	-3.7479	-4.7937	-3.8854	-4.7042	-4.6021	-3.9688	-4.9354	-4.0792	-4.075	-4.7438	-4.0167	-4.4792	-4.6417	-3.9625	-4.8	-4.4354	426.048	286.233	324.991	506.987	391.967	441.642	459.825	207.567	194.018	473.324	407.526	497.080	381.448	463.729	216.006	505.006	0.0014356	0.00028255	7.0573e-05	1377.3	1.259e-05	9.232e-06	1379	371.89	5.7896e-06	5.3911e-06	424.28	139.19	120.22	40.671	1.1163e-05	50.473	0.0010757	0.0010849	0.00030453	1414.6	1.1727e-05	1.2046e-05	1415.6	383.69	1.186e-05	1.1995e-05	440.48	143.94	125.32	42.762	1.1766e-05	53.257	345.461	244.347	271.597	172.407	267.454	326.879	172.140	177.104	320.205	321.879	176.266	180.601	181.537	186.020	287.359	185.087	-8191	255	
28983.230	1	1	0	0	0.095743	0.054691	0.21051	0.22955	0.29913	0.1769	0.12583	0.12649	0.1729	0.18112	0.15978	0.12565	0.26955	0.1846	0.2247	0.22996	-3.6625	-4.9104	-4.0188	-4.625	-4.6438	-3.8667	-4.9167	-4.325	-3.9979	-4.9104	-4.0417	-4.2562	-4.8021	-4.0563	-4.4958	-4.4958	267.743	384.433	191.255	431.613	407.570	324.903	391.852	365.021	381.608	462.177	466.578	484.770	160.853	402.318	159.467	467.968	0.0014949	0.00084419	0.00017569	1377.2	1.0642e-05	7.1248e-06	1381.8	371.98	1.4751e-06	2.8692e-06	424.11	138.71	119.63	40.864	3.0302e-06	50.797	0.0010458	0.0010733	0.00029988	1413.1	1.1674e-05	1.1745e-05	1417	383.88	1.1652e-05	1.1751e-05	440.45	143.3	125.23	42.799	1.1701e-05	53.281	348.781	266.458	283.662	172.437	279.754	316.069	172.208	177.003	184.595	419.132	176.502	180.782	181.555	185.996	299.204	185.137	-8191	255	
28983.326	1	1	0	0	0.10555	0.064432	0.15358	0.21222	0.11696	0.081355	0.11883	0.15762	0.09844	0.34859	0.073766	0.41208	0.19785	0.09417	0.13734	0.30507	-3.5104	-4.7854	-4.0375	-4.2771	-4.7354	-3.925	-4.7792	-4.6625	-3.8542	-4.8417	-4.2792	-4.2708	-4.8229	-3.9667	-4.6125	-4.7083	506.759	281.563	285.760	482.628	284.960	472.843	175.449	441.514	390.350	480.658	386.551	492.553	470.124	256.060	396.910	483.510	0.0012749	0.00038858	6.8803e-05	1377	9.7077e-06	1.0307e-05	1380.3	372.15	9.7138e-06	6.7738e-06	421.43	138.7	120.42	40.621	7.0056e-06	50.484	0.0010558	0.0010652	0.00030288	1415.7	1.1684e-05	1.1817e-05	1415.8	383.78	1.1598e-05	1.1596e-05	440.03	143.71	125.38	42.776	1.1718e-05	53.338	342.653	275.546	286.560	172.498	304.480	315.044	172.117	176.986	307.564	320.123	176.507	180.894	181.334	186.357	252.449	185.068	-8191	255	
28983.422	1	1	0	0	0.20979	0.24465	0.11738	0.25891	0.044526	0.12829	0.13777	0.051344	0.030763	0.044599	0.12742	0.028594	0.071984	0.15556	0.05777	0.062772	-3.6417	-4.8083	-4.1521	-4.25	-4.7479	-3.8812	-4.6167	-4.8438	-3.7458	-4.7708	-4.4271	-4.1354	-4.925	-3.9854	-4.4521	-4.9437	208.976	222.594	250.778	506.127	160.521	380.577	171.928	459.051	504.587	215.094	503.003	270.801	445.073	455.097	260.483	343.319	0.0014094	0.00091331	0.00013347	1372.7	1.0075e-05	7.8458e-06	1380.7	370.21	6.137e-06	8.5632e-06	424.98	138.52	120.92	40.719	6.0877e-06	50.782	0.0010466	0.0010594	0.00029521	1412.9	1.1457e-05	1.1724e-05	1417.7	383.18	1.1612e-05	1.1638e-05	440.94	143.62	125.37	42.729	1.171e-05	53.434	350.632	273.269	222.971	172.441	313.528	304.820	172.166	176.916	391.244	292.761	176.653	180.813	181.379	186.115	292.909	185.132	-8191	255	
28983.518	1	1	0	0	0.17056	0.17381	0.16209	0.11632	0.031917	0.092384	0.25483	0.006738	0.11261	0.20827	0.33101	0.13273	0.037824	0.12118	0.064577	0.1367	-3.5604	-4.6125	-4.2688	-4.3458	-4.7792	-4.1833	-4.6062	-4.8063	-3.7812	-4.7854	-4.6875	-3.9979	-4.8125	-4.3354	-4.3104	-4.8625	187.487	399.576	310.020	376.680	450.114	208.403	501.041	473.017	243.115	395.339	469.265	345.962	438.854	474.760	476.129	377.038	0.001396	0.00027863	0.00018576	1371.9	4.8512e-06	3.5663e-06	1377.7	371.32	1.3855e-05	5.8167e-06	423.7	138.29	120.83	40.745	2.2301e-06	50.755	0.0010539	0.0010717	0.0002985	1412.7	1.1699e-05	1.1764e-05	1417.6	384.28	1.1712e-05	1.1747e-05	440.83	143.83	125.53	42.867	1.1826e-05	53.316	349.493	298.984	278.777	172.293	274.663	280.275	172.111	177.039	289.272	274.387	176.572	180.701	181.464	186.538	323.425	185.268	-8191	255	
28983.639	1	1	0	0	0.073848	0.325	0.16436	0.20628	0.14106	0.26395	0.25448	0.16632	0.027191	0.04049	0.10563	0.098432	0.11901	0.06614	0.069378	0.12135	-3.4896	-4.5542	-4.4979	-4.0687	-4.8667	-4.2396	-4.45	-4.9667	-3.7583	-4.5062	-4.8354	-3.9146	-4.8979	-4.35	-4.0042	-4.8125	244.128	339.025	424.724	389.620	171.833	426.521	184.967	184.231	232.419	460.777	380.625	174.204	508.862	194.402	479.854	163.787	0.0013895	0.0010126	0.00016265	1379.2	1.2298e-05	6.2278e-06	1384.9	373.12	6.8138e-06	8.5557e-06	423.73	139.31	120.76	40.793	8.4228e-06	50.961	0.0010659	0.0010858	0.00030412	1415.8	1.181e-05	1.2121e-05	1419.4	384.74	1.1835e-05	1.184e-05	441.14	144.04	125.64	42.88	1.1846e-05	53.537	349.611	205.950	282.742	172.674	278.497	357.282	172.134	176.993	285.228	282.394	176.501	180.565	181.439	186.233	302.307	184.967	-8191	255	
28983.711	1	1	0	0	0.11279	0.10183	0.16919	0.18605	0.13006	0.058585	0.28279	0.070835	0.055332	0.019351	0.17576	0.20598	0.16035	0.24885	0.13799	0.034681	-3.6417	-4.4688	-4.625	-4.0917	-4.8458	-4.2167	-4.3562	-5.0542	-4.0667	-4.3938	-4.9354	-3.9896	-4.8104	-4.4854	-3.9667	-5.0083	297.755	164.822	327.350	432.857	414.388	449.262	470.802	381.995	231.621	336.991	359.600	471.193	481.946	190.634	333.658	263.722	0.0014688	0.00047106	0.00022993	1369.1	3.0172e-06	7.1146e-06	1381.1	371.02	1.1978e-05	7.2579e-06	425.08	138.77	120.73	40.872	1.1053e-05	50.758	0.0010593	0.0010723	0.00030061	1414.9	1.1567e-05	1.1778e-05	1417.9	384.49	1.1744e-05	1.1835e-05	441.32	144.07	125.65	42.848	1.1725e-05	53.399	341.584	242.173	270.274	172.403	354.024	349.911	171.883	177.008	303.552	286.431	176.700	180.737	181.401	186.230	326.248	185.162	-8191	255	
28983.807	1	1	0	0	0.1006	0.22533	0.1704	0.32465	0.3398	0.15503	0.39201	0.14571	0.15591	0.15838	0.11985	0.17444	0.15876	0.14729	0.057517	0.11696	-3.7708	-4.1854	-4.7917	-3.9646	-4.5458	-4.425	-4.0771	-5.0771	-4.0792	-4.1708	-4.9958	-4.0375	-4.8292	-4.6458	-3.8958	-4.9479	427.206	418.837	280.183	506.309	389.276	408.572	498.157	441.038	401.205	181.369	386.606	394.493	517.133	177.691	365.792	421.750	0.001343	0.0010673	9.7838e-05	1372.6	8.0674e-06	2.6869e-06	1380	373.51	8.526e-06	2.6776e-06	423.15	139.03	121.43	40.931	7.478e-06	50.631	0.0010613	0.0010734	0.00029533	1416.4	1.1616e-05	1.1725e-05	1418	385.09	1.1912e-05	1.1878e-05	441.23	144.24	125.86	42.919	1.1991e-05	53.503	350.770	262.817	295.492	172.429	285.335	344.303	171.995	176.896	283.994	244.683	176.576	180.706	181.374	186.297	296.195	185.347	-8191	255	
28983.902	1	1	0	0	0.21805	0.067643	0.14018	0.037444	0.19001	0.13344	0.23322	0.36167	0.021491	0.115	0.1454	0.21672	0.14068	0.2377	0.23697	0.16997	-3.8375	-4.0771	-4.7271	-4.0854	-4.5	-4.6979	-4.0563	-4.7104	-4.3167	-4.1125	-4.95	-4.1438	-4.5896	-4.7375	-3.7458	-4.6396	460.909	426.330	351.235	345.947	469.864	247.676	366.209	480.596	278.460	353.979	513.242	477.480	492.856	471.569	282.542	169.661	0.0014815	0.00033299	0.00010789	1378.9	9.7377e-06	6.1401e-06	1380.3	373.01	1.0903e-05	1.1388e-05	425.57	139.28	121.05	41.031	6.2283e-06	50.676	0.0010844	0.0010946	0.00030312	1417.3	1.1956e-05	1.2085e-05	1420.2	385.54	1.1995e-05	1.2164e-05	442.4	144.32	126.04	42.985	1.2051e-05	53.663	340.347	325.806	265.106	172.534	277.945	288.457	172.083	176.820	323.728	316.414	176.352	180.985	181.348	186.044	266.201	185.201	-8191	255	
28984.021	1	1	0	0	0.14143	0.28463	0.14768	0.17759	0.05515	0.1214	0.27308	0.29631	0.20852	0.13191	0.086201	0.22819	0.24915	0.061594	0.147	0.024706	-4.0437	-3.8604	-4.6979	-4.3938	-4.3083	-4.6729	-3.9271	-4.8104	-4.4812	-3.9083	-4.9938	-4.2896	-4.3875	-4.9375	-3.8521	-4.6896	415.471	229.036	210.762	449.618	196.368	455.858	435.759	463.895	460.103	215.797	174.135	218.587	185.184	223.442	482.439	312.071	0.0014888	0.00055929	0.00014059	1379.5	1.2101e-05	4.1964e-06	1384	372.99	1.2141e-05	6.3582e-06	426.46	139.29	120.96	41.006	8.9842e-06	50.806	0.0010902	0.0011005	0.00030474	1419.2	1.1903e-05	1.2059e-05	1421.3	385.35	1.184e-05	1.1921e-05	442.82	144.35	125.79	42.938	1.2045e-05	53.563	345.895	241.407	254.221	172.493	269.634	231.810	172.086	176.983	289.833	300.659	176.557	180.712	181.091	185.933	305.021	185.078	-8191	255	
28984.117	1	1	0	0	0.12021	0.29249	0.17052	0.26614	0.22287	0.10368	0.065627	0.15473	0.12122	0.082534	0.21321	0.1973	0.079446	0.12163	0.062265	0.066195	-4.1083	-4.0521	-4.875	-4.4104	-4.0062	-4.6312	-4.0583	-4.7021	-4.4896	-3.7958	-5.0104	-4.2812	-4.1104	-4.9917	-4.0042	-4.6687	242.263	327.642	336.028	462.654	443.420	180.977	369.925	490.573	159.717	181.190	265.522	434.616	240.124	179.311	315.139	274.237	0.0014671	0.0006527	0.00026827	1377	7.3863e-06	1.9415e-06	1376.1	373.47	5.0683e-06	5.4498e-06	425.11	139.13	121.42	40.815	8.4049e-06	51.075	0.0010704	0.0010969	0.00030781	1413.8	1.1727e-05	1.184e-05	1418.7	385.07	1.1839e-05	1.1909e-05	441.06	144.26	125.95	42.934	1.17e-05	53.478	340.989	269.828	253.575	172.466	332.809	255.065	172.359	176.919	343.699	338.406	176.572	181.016	181.255	186.200	311.114	185.032	-8191	255	
28984.215	1	1	0	0	0.080593	0.0052357	0.25623	0.1563	0.26138	0.095761	0.32243	0.092451	0.20469	0.091223	0.074917	0.29842	0.26203	0.17384	0.049135	0.20658	-4.3625	-3.8063	-4.5563	-4.5792	-3.8208	-4.9542	-4.2208	-4.5146	-4.7021	-3.9	-4.7229	-4.4812	-3.9542	-4.9458	-4.0667	-4.4	214.486	304.886	386.824	505.289	288.938	335.584	456.521	206.770	492.011	254.000	197.634	471.955	474.835	508.127	194.820	428.214	0.0014589	0.00036075	0.00026209	1380.4	2.1621e-06	6.419e-06	1382.6	372.16	6.3532e-06	5.1294e-06	424.76	139.06	121.28	41.119	8.9015e-06	51.014	0.0010541	0.0010649	0.00029457	1415.9	1.1367e-05	1.144e-05	1418	384.39	1.1323e-05	1.1605e-05	441.02	144.26	125.94	42.947	1.1395e-05	53.518	345.122	299.776	221.656	172.498	202.035	383.193	172.072	176.896	297.080	298.937	176.665	180.746	181.280	186.177	287.258	184.918	-8191	255	
28984.311	1	1	0	0	0.24112	0.15409	0.28826	0.28727	0.12552	0.22304	0.12309	0.15978	0.24728	0.13754	0.32285	0.019575	0.037626	0.090064	0.079269	0.098854	-4.4708	-3.6479	-4.5813	-4.5646	-3.775	-4.9062	-4.2104	-4.2979	-4.8313	-3.8542	-4.8	-4.5062	-3.975	-4.8604	-4.0146	-4.2625	395.661	336.703	261.762	439.031	185.133	272.812	382.884	426.663	473.506	508.898	448.421	210.956	400.858	280.678	287.626	473.346	0.0015068	0.00056653	0.00015086	1377.4	5.3579e-06	6.9418e-06	1377	373.7	7.4925e-06	5.2292e-06	424.76	139.37	121.36	41.05	5.0564e-06	51.086	0.0010313	0.0010563	0.00029188	1414.2	1.1468e-05	1.1612e-05	1415.7	385.03	1.1242e-05	1.1512e-05	442.04	144.24	125.94	43	1.1446e-05	53.548	350.518	264.397	275.033	172.341	283.434	351.974	172.228	176.993	267.378	279.319	176.261	180.876	181.100	186.124	297.387	184.833	-8191	255	
28984.406	1	1	0	0	0.19573	0.16504	0.072341	0.087697	0.12702	0.19953	0.24279	0.47602	0.19308	0.066199	0.1222	0.1042	0.082354	0.13654	0.13085	0.10165	-4.5833	-3.8104	-4.5229	-4.7063	-3.7938	-4.7104	-4.5229	-4.1125	-4.7229	-3.8021	-4.4771	-4.7042	-3.9792	-4.7208	-4.1833	-4.0792	282.494	231.429	328.350	495.717	220.386	184.903	479.564	495.492	344.938	512.107	201.700	161.290	413.945	221.436	486.132	375.680	0.0014226	0.00020283	0.00021614	1379.1	5.5278e-06	6.5741e-06	1378.5	372.95	1.6599e-05	7.913e-06	426.28	140.09	121.72	41.096	6.8583e-06	50.743	0.0010279	0.0010493	0.00029412	1417	1.1466e-05	1.1577e-05	1418.3	384.89	1.1647e-05	1.1975e-05	442.45	144.93	126.4	43.209	1.2749e-05	53.826	347.965	207.610	274.232	172.398	309.817	381.364	172.154	176.974	327.262	289.680	176.249	180.966	181.242	186.365	333.441	185.011	-8191	255	
28984.502	1	1	0	0	0.1288	0.10763	0.080641	0.36639	0.10251	0.050173	0.1596	0.028411	0.18076	0.31652	0.095768	0.24552	0.13416	0.15421	0.15871	0.16284	-4.4125	-3.8646	-4.2375	-4.8458	-3.7521	-4.4729	-4.6375	-4.0479	-4.7812	-4.0083	-4.1312	-4.7188	-3.7417	-4.6708	-4.4583	-3.9604	485.142	504.926	466.135	478.698	500.998	487.288	420.069	432.625	498.036	325.795	487.435	431.033	349.683	453.477	449.591	408.089	0.0015292	0.00050738	3.062e-05	1385.2	5.1559e-06	5.4638e-06	1385.1	375.53	1.3626e-05	5.9047e-06	429.06	140.28	121.75	41.11	1.2384e-05	51.096	0.0011886	0.0012494	0.00035258	1426.9	1.4087e-05	1.4486e-05	1430.3	388.01	1.4379e-05	1.448e-05	447.11	145.88	127.16	43.367	1.3972e-05	54.05	345.913	299.455	246.598	172.608	285.359	333.924	172.496	176.659	303.607	312.807	176.246	180.891	181.279	186.150	306.999	185.052	-8191	255	
28984.623	1	1	0	0	0.060882	0.21715	0.1533	0.17362	0.11285	0.30226	0.34384	0.19861	0.32555	0.02514	0.19141	0.049621	0.22083	0.1226	0.11184	0.14531	-4.4896	-4.075	-4.1854	-5.0062	-3.8146	-4.4771	-4.7417	-4.05	-4.85	-4.1646	-4.1188	-4.9688	-4.0979	-4.5563	-4.5958	-3.8729	493.288	208.676	314.324	384.204	196.222	467.313	387.476	178.716	343.943	204.844	486.616	425.370	483.214	439.473	397.686	440.106	0.0015113	0.00017764	0.00010439	1386.8	7.4674e-06	2.9552e-06	1390.4	374.78	1.3818e-05	2.0829e-06	426.93	140.24	121.48	41.28	7.7154e-06	51.232	0.0012185	0.0012473	0.00034361	1429.5	1.3368e-05	1.3416e-05	1432.1	388.34	1.2993e-05	1.3159e-05	445.11	145.6	127.09	43.433	1.2954e-05	53.991	349.285	292.642	181.565	172.301	246.250	337.268	172.342	176.897	299.671	370.101	176.397	180.764	181.318	186.314	290.648	184.931	-8191	255	
28984.717	1	1	0	0	0.1778	0.13601	0.073977	0.26414	0.10868	0.21098	0.21176	0.1948	0.22455	0.30183	0.071875	0.21505	0.1542	0.098332	0.20642	0.32088	-4.5396	-4.2063	-4.0729	-4.9792	-3.8187	-4.3792	-4.7604	-3.9229	-4.6917	-4.0458	-4.3125	-4.8917	-3.9146	-4.4417	-4.7063	-3.8542	305.140	405.721	460.402	440.334	331.887	419.110	448.447	458.142	399.952	451.374	476.855	196.622	500.398	443.016	455.779	473.375	0.0012199	0.00052891	8.1061e-05	1384	1.0404e-05	2.8686e-06	1392.4	375.89	4.6834e-06	5.7456e-06	428.23	139.78	121.54	41.248	5.5805e-06	50.966	0.0011552	0.0011894	0.00033176	1426.9	1.298e-05	1.3099e-05	1428.8	387.91	1.2852e-05	1.3008e-05	444.79	145.4	126.78	43.416	1.294e-05	53.995	351.231	240.048	205.060	172.462	324.032	263.715	172.221	176.892	332.822	339.042	176.191	181.012	181.106	185.929	349.787	184.934	-8191	255	
28984.812	1	1	0	0	0.18512	0.063641	0.28222	0.1398	0.084586	0.087726	0.1607	0.10877	0.22335	0.33596	0.14292	0.18644	0.28731	0.07912	0.18609	0.10573	-4.4083	-4.2771	-3.7542	-5.0687	-4.0667	-4.2271	-5.0083	-3.9938	-4.4729	-4.4479	-4.0521	-4.9625	-4.1833	-4.25	-4.7625	-4.0229	318.610	240.976	299.282	208.594	401.838	504.115	494.198	475.369	504.777	492.537	478.016	427.932	398.222	472.619	497.654	165.924	0.0016604	0.00067283	0.00018859	1387.6	5.7187e-06	6.9722e-06	1389	376.73	7.8204e-06	7.4307e-06	428.4	140.96	122.4	41.318	6.5019e-06	51.223	0.0011704	0.0012053	0.00033696	1428.6	1.3255e-05	1.3442e-05	1431.3	389.17	1.3497e-05	1.3869e-05	446.07	146.12	127.52	43.507	1.355e-05	54.173	347.622	271.232	253.038	172.621	284.277	317.727	172.198	176.961	323.791	290.101	176.138	180.922	181.081	185.949	289.467	185.307	-8191	255	
28984.934	1	1	0	0	0.20111	0.14108	0.19355	0.31661	0.17126	0.11646	0.17583	0.12575	0.0046687	0.18296	0.13738	0.16171	0.1438	0.10188	0.11098	0.048996	-4.3042	-4.4792	-4.0125	-4.9771	-4.3187	-4.2396	-5.0875	-4.125	-4.4375	-4.5687	-4.0375	-4.8104	-4.2125	-4.1396	-4.8167	-4.0813	239.930	269.943	371.627	467.540	450.887	277.915	501.618	210.630	248.085	179.502	510.153	298.989	207.559	510.927	475.860	272.288	0.0015018	0.00046509	0.00012112	1390	9.8157e-06	4.9808e-06	1394.3	375.44	8.4785e-06	4.6464e-06	429.32	141.44	122.62	41.378	1.0345e-05	51.346	0.0012058	0.0012284	0.00034313	1432.6	1.3222e-05	1.3474e-05	1433.7	388.98	1.3255e-05	1.3508e-05	446.87	146.43	127.92	43.659	1.3573e-05	54.158	341.495	182.401	244.222	172.577	274.502	280.982	172.175	176.749	289.886	333.741	176.304	180.673	181.243	185.451	305.067	184.854	-8191	255	
28985.006	1	1	0	0	0.14907	0.13308	0.15414	0.2083	0.057784	0.18868	0.25418	0.22654	0.050196	0.043723	0.059127	0.21223	0.15673	0.036362	0.16095	0.12068	-3.925	-4.5521	-3.8312	-4.9021	-4.2542	-3.8646	-5.0667	-4.125	-4.3208	-4.7188	-3.9292	-4.6958	-4.5271	-3.925	-4.9437	-4.175	483.703	182.917	210.363	165.709	460.070	379.361	165.726	474.944	354.471	466.573	334.810	454.446	514.872	230.981	493.853	296.066	0.0012901	0.00070327	0.0001395	1389.2	8.8981e-06	6.902e-06	1398.3	375.89	2.0991e-05	3.0716e-06	426.38	141.53	122.9	41.377	9.6187e-06	51.632	0.0012084	0.001239	0.00034832	1432.4	1.368e-05	1.3858e-05	1439.4	389.81	1.377e-05	1.3763e-05	447.15	146.73	128.27	43.712	1.3711e-05	54.377	346.204	266.070	251.248	172.537	347.390	382.132	172.186	176.953	311.303	308.171	176.722	180.812	181.379	185.923	285.736	184.980	-8191	255	
28985.102	1	1	0	0	0.15841	0.18938	0.3576	0.16704	0.087051	0.36948	0.2186	0.15493	0.16962	0.24056	0.22187	0.010515	0.14333	0.12471	0.18886	0.25802	-3.8396	-4.6062	-3.7208	-4.6417	-4.5042	-4.025	-5.0938	-4.4125	-4.2146	-4.7937	-4.0771	-4.3854	-5.0042	-4.0167	-4.9104	-4.3729	185.486	252.309	518.151	184.801	495.118	273.506	173.375	449.149	197.237	299.038	409.042	282.287	507.652	304.453	346.793	474.112	0.0014581	0.00033709	0.00021381	1393.1	4.0124e-06	7.4251e-06	1397.1	377.04	1.1512e-05	4.8236e-06	428.95	141.16	123.47	41.603	5.4121e-06	51.728	0.0012189	0.0012384	0.00034469	1436.9	1.3303e-05	1.3546e-05	1440.9	390.11	1.3088e-05	1.3163e-05	447.56	146.58	128.41	43.782	1.2753e-05	54.456	351.541	298.823	246.494	172.391	362.441	342.873	172.105	176.902	279.820	325.411	176.466	180.615	181.358	185.902	395.328	184.811	-8191	255	
28985.197	1	1	0	0	0.080773	0.22529	0.12878	0.1109	0.11052	0.066028	0.13582	0.30474	0.28929	0.027272	0.19015	0.16734	0.026959	0.19373	0.20608	0.10487	-3.6562	-4.7542	-3.8812	-4.6396	-4.825	-3.9188	-4.9125	-4.4313	-4.0458	-4.7312	-3.9792	-4.4458	-4.8167	-3.8646	-4.7646	-4.3146	277.475	278.478	192.226	416.875	396.116	161.126	422.668	464.175	212.535	173.364	459.047	422.964	352.667	464.194	423.695	180.143	0.0013028	0.0005307	0.00022288	1396.9	1.0858e-05	6.6204e-06	1395.8	377.73	1.0698e-05	4.2453e-06	431.47	140.62	123.32	41.846	1.1514e-05	51.514	0.0011476	0.0011725	0.00032497	1436.9	1.2621e-05	1.275e-05	1438.1	389.95	1.2724e-05	1.2797e-05	447.29	146.36	128.31	43.744	1.2568e-05	54.267	344.869	282.170	238.838	172.468	300.054	393.082	172.275	176.902	282.840	264.294	176.518	180.808	181.377	185.963	293.525	185.149	-8191	255	
28985.318	1	1	0	0	0.19262	0.18326	0.20152	0.15154	0.21839	0.054809	0.17786	0.29686	0.17274	0.2205	0.13427	0.13173	0.12299	0.080092	0.093165	0.044045	-3.6833	-4.8333	-3.925	-4.3667	-4.6312	-3.7542	-4.7354	-4.5479	-4.0312	-4.9208	-4.1354	-4.325	-4.9125	-3.9375	-4.525	-4.5563	376.197	304.942	513.298	464.266	348.848	229.523	505.435	429.318	316.129	274.539	281.963	441.367	263.211	491.637	284.822	256.102	0.0014815	5.4598e-05	0.00021921	1393.6	5.0127e-06	5.4417e-06	1401.2	377.86	9.4869e-06	7.0681e-06	430.83	141.71	123.17	41.684	8.9815e-06	51.614	0.0011332	0.0011649	0.00032234	1434.4	1.25e-05	1.2806e-05	1438.3	390.22	1.2672e-05	1.2801e-05	447.31	146.71	128.32	43.822	1.2838e-05	54.357	343.280	359.013	290.631	172.446	304.426	305.627	172.051	177.071	305.972	352.099	176.462	180.716	181.405	185.940	291.545	185.260	-8191	255	
28985.412	1	1	0	0	0.070285	0.18113	0.237	0.28662	0.099394	0.092099	0.29134	0.10934	0.14379	0.065336	0.2147	0.11476	0.083348	0.11194	0.037137	0.13414	-3.5271	-4.6937	-4.0333	-4.3417	-4.6958	-3.9083	-4.6937	-4.7063	-3.8833	-4.7396	-4.5104	-4.1958	-4.9625	-4.1542	-4.2812	-4.7542	431.921	342.473	516.654	499.716	378.038	482.894	445.260	218.279	221.026	443.944	499.493	503.905	196.664	484.284	514.108	507.061	0.001568	0.00059738	0.00013187	1394	5.2271e-06	9.0278e-06	1404.4	377.82	5.1766e-06	6.4354e-06	431.04	141.88	123.21	41.924	7.1735e-06	51.329	0.0011663	0.0011741	0.00032884	1435.6	1.2897e-05	1.3223e-05	1441.6	391.21	1.3107e-05	1.3263e-05	447.55	146.93	128.53	43.932	1.3445e-05	54.367	345.994	229.559	266.993	172.399	299.234	336.162	171.936	176.918	322.426	301.423	176.611	180.389	181.497	186.055	322.171	185.124	-8191	255	
28985.510	1	1	0	0	0.064788	0.050151	0.19878	0.30496	0.069557	0.16079	0.43825	0.2799	0.10749	0.051868	0.18285	0.13557	0.18554	0.15802	0.040215	0.20905	-3.4875	-4.6875	-4.35	-4.2646	-4.8521	-3.9104	-4.4708	-4.8875	-3.6833	-4.5542	-4.4854	-3.9833	-5.0333	-4.1687	-4.1771	-4.9062	470.191	238.926	368.394	470.679	268.714	417.076	451.789	433.225	472.803	336.041	507.779	309.048	405.683	375.855	269.719	468.789	0.001518	0.00069572	0.00019884	1396.4	6.6412e-06	9.1359e-06	1399.3	377.72	9.2098e-06	7.0038e-06	428.29	141.14	123.07	41.597	7.3843e-06	51.41	0.0012052	0.0012386	0.00034572	1437.8	1.3715e-05	1.3981e-05	1441.3	390.51	1.4475e-05	1.4698e-05	448.43	147.25	128.77	43.892	1.5297e-05	54.556	347.599	244.796	376.850	172.324	295.215	278.823	171.931	176.818	277.850	364.162	176.464	180.887	181.460	185.814	335.112	185.066	-8191	255	
28985.582	1	1	0	0	0.11983	0.17518	0.26971	0.2427	0.17012	0.10266	0.35823	0.10159	0.12634	0.048627	0.30594	0.13912	0.1994	0.26795	0.091789	0.26928	-3.5458	-4.6417	-4.3812	-4.0792	-4.8313	-4.1	-4.2917	-4.8812	-4.0354	-4.7937	-4.6062	-3.9417	-4.8375	-4.2729	-4.0667	-4.9729	370.209	202.897	244.212	438.485	287.896	272.907	442.091	328.410	185.049	216.815	432.656	507.173	186.774	161.428	205.315	473.894	0.0015992	0.00071531	0.0001154	1399.7	5.3119e-06	1.8876e-06	1405.4	378.31	1.0468e-05	4.8299e-06	430.63	141.67	124.15	41.59	6.865e-06	51.726	0.0013447	0.0013927	0.00038435	1443.8	1.4855e-05	1.4965e-05	1446.5	391.9	1.4356e-05	1.4452e-05	448.94	147.04	128.89	43.802	1.3748e-05	54.529	349.347	296.029	270.627	172.352	246.208	290.885	172.003	176.726	339.141	308.706	176.547	180.769	181.094	185.900	337.137	185.120	-8191	255	
28985.701	1	1	0	0	0.14469	0.063791	0.081821	0.30046	0.13495	0.16724	0.1529	0.11058	0.078897	0.13048	0.13633	0.28497	0.17484	0.029977	0.16168	0.14286	-3.7083	-4.3646	-4.5854	-4.0208	-4.7104	-4.3792	-4.3646	-4.8812	-4.1208	-4.4646	-4.8646	-3.9688	-4.9375	-4.5188	-4.1333	-4.9208	260.121	449.253	344.613	461.326	229.114	459.274	480.939	504.164	263.738	423.383	422.977	436.865	424.051	166.890	278.800	472.425	0.001409	0.00058953	6.4545e-05	1400.6	6.4923e-06	4.2065e-06	1401.6	377.59	8.5267e-06	2.162e-06	430.78	140.95	123.19	41.432	8.0693e-06	51.341	0.001219	0.0012405	0.0003417	1441	1.3171e-05	1.3421e-05	1443.8	390.65	1.3318e-05	1.3358e-05	448.21	146.58	128.2	43.665	1.3614e-05	54.328	349.920	239.374	285.881	172.205	286.426	325.075	172.068	176.959	273.444	279.297	176.554	180.659	181.311	186.164	320.275	185.057	-8191	255	
28985.799	1	1	0	0	0.030967	0.079689	0.084699	0.25868	0.2057	0.16074	0.071142	0.18998	0.2311	0.14858	0.13674	0.11439	0.11571	0.17425	0.1038	0.12141	-3.8458	-4.3354	-4.6937	-3.9771	-4.55	-4.5563	-4.3292	-5.0417	-4.1833	-4.2792	-4.8729	-3.975	-4.6813	-4.6729	-3.8583	-4.75	227.863	393.694	466.370	181.773	517.246	364.469	467.891	415.430	224.858	262.436	334.977	407.216	507.335	436.728	200.280	427.706	0.0013573	0.00032429	0.00017303	1394.1	1.2357e-05	7.4158e-06	1400.6	377.73	7.1505e-06	4.6274e-06	430.57	141.22	123	41.338	8.5765e-06	51.178	0.0012297	0.0012711	0.00035195	1437.9	1.3811e-05	1.4016e-05	1442.3	390.99	1.3884e-05	1.3923e-05	448.6	146.68	128.34	43.682	1.3922e-05	54.285	347.397	293.397	271.348	172.387	236.915	313.850	172.181	176.964	281.348	303.031	176.332	180.770	181.272	185.992	294.704	184.973	-8191	255	
28985.895	1	1	0	0	0.11419	0.25229	0.080161	0.12961	0.23254	0.093872	0.19549	0.093455	0.035742	0.11821	0.20237	0.18975	0.34001	0.12413	0.17283	0.18383	-3.9292	-4.1438	-4.7042	-4.1396	-4.5958	-4.6771	-4.1146	-4.8896	-4.3063	-4.0542	-4.9833	-4.0604	-4.4646	-4.6937	-3.8229	-4.8958	497.322	425.937	325.917	483.047	417.601	285.304	454.359	506.437	514.882	379.289	457.260	215.356	486.741	159.154	370.312	391.730	0.0015507	0.00046482	0.00014239	1396.6	7.0648e-06	5.5474e-06	1399.8	377.4	1.0194e-05	5.184e-06	430.24	140.92	122.44	41.455	9.7958e-06	51.542	0.0012303	0.0012677	0.00034808	1437.7	1.3632e-05	1.3839e-05	1441	390.77	1.3457e-05	1.364e-05	448.46	146.61	128.1	43.675	1.3497e-05	54.415	348.607	178.786	267.016	172.391	351.099	323.667	171.939	176.951	254.154	293.449	176.529	180.682	181.079	185.901	308.706	185.025	-8191	255	
28986.014	1	1	0	0	0.1026	0.10885	0.11578	0.26339	0.17402	0.074535	0.30362	0.041625	0.11747	0.15447	0.24866	0.18742	0.29291	0.1046	0.059593	0.1133	-3.95	-4.0437	-4.8979	-4.1417	-4.3979	-4.6375	-4.1146	-4.8292	-4.3146	-4.0333	-5.0271	-4.2562	-4.0938	-4.9396	-3.8312	-4.7375	340.840	506.425	190.276	436.212	375.336	218.558	486.572	359.265	415.088	182.362	497.505	468.050	185.693	221.429	211.080	508.878	0.0015316	0.00037855	0.00025265	1393.5	1.4202e-05	1.4207e-06	1397.1	378.23	1.0661e-05	7.0442e-06	430.53	141.31	123.11	41.536	6.6291e-06	51.275	0.0012016	0.0012199	0.00033544	1436.9	1.2987e-05	1.3145e-05	1439.2	390.28	1.2844e-05	1.2929e-05	447.49	146.49	127.9	43.611	1.284e-05	54.171	347.193	274.639	240.106	172.426	301.055	369.863	172.090	176.892	273.071	295.475	176.522	180.841	181.212	185.930	272.299	185.062	-8191	255	
28986.111	1	1	0	0	0.079024	0.14503	0.19446	0.27706	0.068844	0.15464	0.29563	0.22265	0.064202	0.16925	0.18322	0.071767	0.1029	0.11256	0.20494	0.084604	-4.1562	-3.9333	-4.775	-4.15	-4.1771	-4.7271	-4.0479	-4.6312	-4.5521	-3.8646	-4.7667	-4.2271	-4.1312	-4.8125	-3.8688	-4.5854	321.372	232.002	214.565	486.400	330.810	268.406	458.990	475.445	226.374	240.405	423.173	168.054	390.586	426.646	407.723	358.983	0.0013811	0.00053647	0.00016742	1397.6	7.0756e-06	4.2781e-06	1402.4	376.49	8.6643e-06	7.44e-06	429.66	141.12	122.55	41.33	5.2659e-06	51.421	0.0011463	0.0011798	0.00032223	1437	1.2524e-05	1.2739e-05	1439.9	389.77	1.2467e-05	1.2693e-05	446.81	146.1	127.79	43.539	1.269e-05	54.292	349.224	260.507	295.689	172.507	330.443	256.458	172.132	176.992	305.852	243.438	176.601	180.902	181.142	186.041	294.927	184.688	-8191	255	
28986.205	1	1	0	0	0.23581	0.16883	0.19662	0.1138	0.20363	0.25424	0.1686	0.11884	0.12105	0.14932	0.013809	0.19424	0.073795	0.20613	0.19433	0.16934	-4.3667	-3.8229	-4.5396	-4.3375	-3.9917	-4.7562	-4.2063	-4.5479	-4.7667	-3.8479	-4.8458	-4.2271	-4.1875	-5.0437	-3.9083	-4.4771	456.924	218.847	365.589	445.103	339.192	178.501	448.537	195.632	491.323	437.936	381.975	470.227	361.676	487.800	190.516	373.749	0.0013225	0.00076908	0.00010604	1397	8.6486e-06	5.2113e-06	1399.9	377.1	8.7324e-06	3.5518e-06	428.47	140.97	123.04	41.507	4.3048e-06	51.356	0.0011303	0.0011647	0.00032437	1437.8	1.2576e-05	1.2715e-05	1439.6	389.77	1.2612e-05	1.2963e-05	447.27	146.82	127.95	43.771	1.3007e-05	54.298	349.992	215.995	282.819	172.445	306.272	319.096	171.987	176.783	289.349	374.397	176.274	180.741	181.075	185.962	288.363	185.086	-8191	255	
28986.303	1	1	0	0	0.20066	0.24379	0.056288	0.38004	0.30537	0.063373	0.18276	0.11772	0.18455	0.20198	0.24865	0.13955	0.3746	0.055243	0.071516	0.20972	-4.3375	-3.9521	-4.5833	-4.6917	-3.9542	-4.8625	-4.2	-4.4062	-4.7625	-3.8583	-4.7396	-4.7375	-4.1458	-4.7479	-4.1625	-4.2271	310.673	256.249	282.724	484.733	465.709	455.177	482.130	333.170	171.033	375.164	518.344	450.213	489.637	480.738	485.299	398.061	0.0014565	0.00017483	7.6172e-05	1396.2	1.1493e-05	6.7642e-06	1403.2	377.84	8.3049e-06	8.4676e-06	428.98	140.93	122.51	41.559	8.7005e-06	51.528	0.001181	0.0011975	0.00033432	1440.2	1.3036e-05	1.3294e-05	1441.1	390.62	1.3245e-05	1.3525e-05	447.48	146.47	128.02	43.687	1.3522e-05	54.32	344.117	461.011	219.957	172.418	253.036	364.974	172.168	176.759	335.243	301.247	176.305	180.873	181.097	186.296	292.432	184.819	-8191	255	
28986.396	1	1	0	0	0.22897	0.0481	0.16763	0.23857	0.14187	0.061983	0.24649	0.26656	0.090833	0.13139	0.21477	0.2726	0.13607	0.20607	0.15097	0.2147	-4.4083	-3.8604	-4.5521	-4.6562	-3.7938	-4.8417	-4.2896	-4.3396	-4.8792	-4	-4.475	-4.7667	-3.9	-4.8688	-4.2583	-4.2688	501.493	518.535	336.016	464.462	511.845	428.965	454.696	444.880	375.533	385.811	429.357	468.045	313.283	186.637	389.067	477.323	0.0014218	0.00051346	6.202e-05	1394.9	5.3929e-06	2.4288e-06	1404	377.68	8.0224e-06	8.6233e-06	431.19	140.78	122.9	41.474	5.4784e-06	51.336	0.001212	0.001258	0.00034939	1438.7	1.3749e-05	1.4078e-05	1445.3	390.87	1.395e-05	1.4276e-05	449.38	146.74	128.5	43.775	1.3858e-05	54.44	348.170	274.920	292.130	172.561	341.811	221.473	172.121	176.839	334.922	318.296	176.246	180.777	181.348	185.995	284.258	184.923	-8191	255	
28986.492	1	1	0	0	0.15944	0.15487	0.32289	0.31168	0.12134	0.060728	0.2828	0.35543	0.21033	0.042604	0.2321	0.27241	0.052208	0.15254	0.12792	0.11503	-4.4833	-3.8979	-4.2875	-4.7854	-3.8708	-4.6292	-4.55	-4.1125	-4.7812	-4.1604	-4.4729	-4.75	-3.9188	-4.6875	-4.4708	-4.325	187.000	289.465	286.608	479.765	483.465	411.996	475.236	470.010	164.860	158.993	401.233	478.111	398.596	469.042	506.244	271.307	0.0014703	0.00082518	0.00013605	1396.8	6.9935e-06	7.0526e-06	1407.4	378.8	1.2313e-05	5.113e-06	429.94	140.83	123.22	41.423	1.0114e-05	51.447	0.0012271	0.0012554	0.00034795	1441.4	1.3498e-05	1.3659e-05	1445.4	391.2	1.365e-05	1.367e-05	448.42	146.68	128.45	43.705	1.3481e-05	54.314	344.619	239.830	293.351	172.488	286.891	348.796	171.949	176.652	271.428	290.339	176.312	180.783	181.142	185.826	329.751	185.207	-8191	255	
28986.590	1	1	0	0	0.25691	0.092663	0.17728	0.089096	0.086331	0.11164	0.30618	0.079544	0.15121	0.14244	0.27212	0.20499	0.13404	0.2379	0.14491	0.060215	-4.5437	-3.9625	-4.2708	-4.8354	-3.725	-4.5729	-4.4979	-4.1167	-4.7792	-4.0958	-4.3021	-4.9062	-3.9437	-4.5667	-4.4667	-4.1083	186.774	252.517	300.961	453.554	422.755	468.295	503.902	449.771	465.970	470.264	507.695	160.136	436.522	512.735	349.475	166.080	0.0013548	0.00033131	0.00020641	1401.2	4.823e-06	1.5238e-06	1400.6	378.15	6.8895e-06	4.936e-06	430.17	141.06	122.94	41.771	8.9028e-06	51.5	0.0011994	0.0012276	0.00034175	1441.6	1.3243e-05	1.3369e-05	1443.1	390.36	1.3068e-05	1.3212e-05	448.23	146.63	127.95	43.745	1.2715e-05	54.233	344.168	303.891	239.977	172.577	281.788	177.935	172.124	176.839	300.145	256.071	176.188	180.967	181.218	186.068	313.532	184.696	-8191	255	
28986.711	1	1	0	0	0.0074179	0.21673	0.11995	0.094941	0.18951	0.065563	0.17161	0.16586	0.19927	0.1183	0.16051	0.078885	0.28143	0.39118	0.23241	0.081305	-4.625	-4.1854	-4.05	-5.0667	-4.0083	-4.4021	-4.9187	-4	-4.6937	-4.1854	-4.1813	-5	-4.125	-4.2833	-4.6271	-3.9188	453.676	321.815	248.446	502.998	381.994	370.818	490.435	489.494	194.123	358.128	496.653	327.397	485.656	492.271	393.448	424.106	0.0014644	0.00047506	0.0001671	1398	1.542e-05	8.188e-06	1401.7	376.58	7.4979e-06	4.9474e-06	428.77	140.49	122.96	41.58	9.5519e-06	51.141	0.0011427	0.0011682	0.00032355	1438.6	1.2533e-05	1.2579e-05	1441.8	389.86	1.2455e-05	1.2707e-05	446.9	146.33	127.74	43.591	1.2602e-05	54.137	343.557	251.235	228.346	172.525	297.121	319.707	172.077	176.689	250.147	285.107	176.410	180.828	181.450	186.031	318.270	184.869	-8191	255	
28986.807	1	1	0	0	0.12105	0.1676	0.041918	0.23569	0.11115	0.011937	0.33466	0.19495	0.079265	0.085804	0.087647	0.17412	0.42553	0.27112	0.13784	0.081854	-4.4542	-4.3479	-4.0437	-4.9667	-4	-4.1208	-5.0062	-4.0729	-4.6687	-4.5917	-4.0979	-4.9854	-4.2292	-4.2771	-4.7125	-3.8937	420.384	180.286	493.442	500.337	380.049	202.627	399.802	407.523	225.790	175.577	484.194	174.336	485.342	448.593	340.007	174.817	0.0014495	0.00065171	0.00011067	1395.8	6.8749e-06	5.4677e-06	1398.2	378.03	1.2818e-05	5.0636e-06	428.79	141.35	122.89	41.589	6.3391e-06	51.166	0.0011218	0.0011425	0.00031998	1435.1	1.2444e-05	1.2581e-05	1438.6	389.55	1.2237e-05	1.2354e-05	446.07	146.32	127.96	43.557	1.2211e-05	54.199	346.986	274.204	298.084	172.416	269.380	315.338	172.277	176.778	325.671	295.701	176.480	180.709	181.334	185.793	275.450	184.989	-8191	255	
28986.879	1	1	0	0	0.10408	0.15201	0.28426	0.15756	0.075701	0.15859	0.27361	0.17299	0.15648	0.097792	0.14274	0.27472	0.038161	0.14141	0.17116	0.34596	-4.4146	-4.4854	-3.8812	-5.075	-4.0917	-4.0458	-5.0167	-4.0708	-4.6167	-4.5333	-3.95	-4.8396	-4.3896	-4.2667	-4.9062	-4.0854	311.522	370.726	511.858	491.392	226.142	439.383	454.297	370.490	336.474	352.952	513.080	163.642	422.774	171.575	172.676	343.180	0.0012938	0.00084396	7.9279e-05	1399.5	3.1232e-06	2.1938e-06	1398.1	377.26	1.5187e-05	4.7382e-06	430.22	141.5	123.13	41.335	1.1025e-05	51.515	0.0011022	0.0011132	0.00031271	1436.9	1.2175e-05	1.2183e-05	1438.4	390.04	1.2057e-05	1.2161e-05	446.51	146.42	128.18	43.599	1.215e-05	54.287	344.596	272.842	192.990	172.463	277.673	285.209	172.226	176.948	298.549	311.115	176.346	180.684	181.129	186.055	320.449	184.796	-8191	255	
28986.975	1	1	0	0	0.10596	0.12921	0.27435	0.2654	0.10003	0.17483	0.11499	0.0035101	0.086972	0.043061	0.27447	0.10812	0.22457	0.13803	0.20471	0.016097	-4.1542	-4.6458	-3.8042	-5.1271	-4.2771	-4.0146	-5.0542	-4.2562	-4.2667	-4.6021	-3.8354	-4.8083	-4.3875	-3.8979	-4.7604	-4.225	311.762	474.798	474.196	160.352	403.191	405.529	384.308	373.133	418.473	264.092	451.351	485.912	455.881	445.456	250.557	168.352	0.0014818	0.00061093	0.000296	1394.9	6.3159e-06	7.8313e-06	1403.9	375.87	1.4057e-05	4.4699e-06	429.03	140.68	122.97	41.435	1.1631e-05	51.202	0.0011034	0.0011144	0.00031007	1437.4	1.1945e-05	1.2163e-05	1441.2	388.85	1.2016e-05	1.2078e-05	446.34	146.02	127.74	43.583	1.2172e-05	54.014	348.234	268.770	238.242	172.274	331.711	297.147	172.185	176.993	283.558	292.395	176.207	180.732	181.322	186.123	325.648	185.137	-8191	255	
28987.096	1	1	0	0	0.10362	0.11971	0.13247	0.39523	0.29099	0.17843	0.1007	0.28813	0.13339	0.15233	0.12017	0.15609	0.034664	0.31917	0.16111	0.098565	-3.925	-4.6875	-3.8854	-4.8146	-4.5417	-4.025	-5.1375	-4.3125	-4.3146	-4.7625	-3.9083	-4.7125	-4.6	-4.0312	-4.8354	-4.2104	161.035	254.227	350.759	496.388	332.490	273.069	460.255	460.574	249.299	260.741	486.060	176.072	225.632	486.939	270.223	167.015	0.0015307	0.00028275	0.00019595	1391.8	1.0224e-05	9.264e-06	1398.1	378.85	1.1359e-05	7.6232e-06	429.23	141.74	123.17	41.485	1.4604e-05	51.171	0.0010934	0.0011106	0.0003121	1435.1	1.21e-05	1.2356e-05	1438.6	390.18	1.2189e-05	1.2296e-05	446.93	146.36	127.96	43.578	1.2421e-05	54.154	346.964	218.123	284.158	172.374	326.625	292.703	172.046	176.572	300.940	324.907	176.538	180.760	181.199	185.891	294.653	185.213	-8191	255	
28987.191	1	1	0	0	0.098769	0.047314	0.12379	0.3421	0.058062	0.27845	0.097873	0.16779	0.14488	0.071738	0.084794	0.12508	0.18585	0.086865	0.17671	0.046087	-3.8354	-4.5667	-3.8458	-4.5667	-4.5792	-3.8333	-4.9187	-4.4187	-4.0396	-4.8583	-3.9688	-4.55	-4.7688	-4.0542	-4.6104	-4.4688	409.020	291.071	230.299	500.307	485.616	495.950	450.019	192.596	396.545	355.737	334.854	452.892	513.639	181.741	367.365	282.905	0.0013597	0.00039081	0.00019615	1396.6	3.6471e-06	6.5435e-06	1401.1	377.62	9.7306e-06	5.3352e-06	429.92	141.04	122.15	41.459	7.0921e-06	51.242	0.0011356	0.0011451	0.0003226	1438.2	1.2589e-05	1.2721e-05	1440.1	390.13	1.2467e-05	1.2501e-05	446.51	146.32	127.72	43.483	1.2441e-05	54.177	345.962	290.740	224.152	172.416	287.157	364.028	172.093	177.171	325.784	401.756	176.355	180.625	181.039	186.034	305.399	185.287	-8191	255	
28987.287	1	1	0	0	0.10289	0.16785	0.32545	0.17493	0.14894	0.067765	0.25261	0.14213	0.19197	0.1286	0.15394	0.17189	0.03766	0.15946	0.21765	0.13166	-3.6792	-4.8396	-4.1333	-4.6	-4.7937	-3.7562	-4.8604	-4.6604	-3.9771	-4.875	-4.1562	-4.3917	-4.8	-3.8312	-4.6937	-4.8167	191.527	436.306	461.975	445.587	505.443	495.694	450.148	215.207	279.637	470.988	439.299	162.023	381.182	191.988	247.657	374.151	0.0015175	0.00037864	0.00012361	1395.3	6.4194e-06	9.1398e-06	1397.9	375.98	1.3809e-05	5.7847e-06	428.97	140.67	123.15	41.433	9.8315e-06	51.236	0.0011251	0.001133	0.00031549	1436.9	1.2193e-05	1.2442e-05	1436.5	388.74	1.2366e-05	1.2376e-05	446.13	145.81	127.5	43.5	1.2292e-05	54.012	344.744	272.734	224.219	172.398	287.333	352.082	172.105	177.000	327.634	310.893	176.552	180.771	181.633	186.041	342.475	185.292	-8191	255	
28987.383	1	1	0	0	0.062788	0.23483	0.077352	0.1144	0.12989	0.14526	0.067417	0.33712	0.28418	0.15337	0.080391	0.02333	0.02535	0.11134	0.065336	0.12964	-3.575	-4.8854	-4.1479	-4.3625	-4.8187	-3.8667	-4.7729	-4.7083	-3.7417	-4.8021	-4.3875	-4.0021	-4.8354	-4.125	-4.5083	-4.7521	360.282	245.041	380.814	200.279	387.230	249.522	478.940	476.584	428.314	445.846	469.433	209.764	386.540	490.453	317.166	476.051	0.0014409	0.00034776	0.0001067	1395.1	6.888e-06	5.0145e-06	1402.1	377.66	9.8816e-06	8.1798e-06	428.62	140.88	122.79	41.469	1.1756e-05	51.185	0.0011088	0.0011295	0.00031785	1435.9	1.2294e-05	1.24e-05	1438.1	389.42	1.2216e-05	1.2409e-05	445.88	145.99	127.65	43.438	1.2399e-05	54.058	343.202	230.943	266.941	172.351	266.204	329.400	172.309	177.147	301.617	315.286	176.377	180.802	181.431	185.841	320.733	185.195	-8191	255	
28987.479	1	1	0	0	0.036962	0.11827	0.13784	0.32101	0.021223	0.087173	0.11191	0.1551	0.13347	0.19353	0.13362	0.22928	0.20528	0.18795	0.15482	0.12304	-3.4354	-4.7875	-4.3229	-4.2146	-4.8625	-3.8354	-4.6562	-4.9375	-3.9958	-4.9229	-4.7792	-4.0083	-4.8938	-4.1146	-4.3396	-4.7958	333.797	286.728	305.604	510.723	295.598	510.467	440.333	456.948	498.715	262.890	491.813	471.896	513.087	234.174	242.954	498.271	0.0015104	0.00045857	9.2848e-05	1396.2	6.2622e-06	3.3202e-06	1400.7	376.62	2.1597e-05	5.3765e-06	427.95	140.22	122.86	41.381	7.7167e-06	51.321	0.0011147	0.0011149	0.00031608	1436.3	1.216e-05	1.2489e-05	1439.1	389.22	1.2308e-05	1.248e-05	445.31	145.72	127.67	43.447	1.2431e-05	54.048	345.672	304.230	251.709	172.310	302.351	282.119	172.163	176.881	316.539	296.053	176.482	180.659	181.230	185.929	284.637	185.127	-8191	255	
28987.576	1	1	0	0	0.032061	0.18583	0.20886	0.20597	0.073252	0.19397	0.040535	0.057616	0.15782	0.15324	0.13645	0.1535	0.089007	0.11172	0.054038	0.22902	-3.4646	-4.8104	-4.4875	-4.1292	-4.7083	-4.1125	-4.4521	-4.9292	-3.8521	-4.5437	-4.4104	-3.9437	-4.8146	-4.3812	-4.1438	-4.8542	286.403	232.172	470.510	507.361	215.138	424.499	451.684	362.345	383.254	344.203	495.599	483.121	310.088	417.440	393.075	510.839	0.0014174	0.0003051	0.0001301	1394.5	7.2352e-06	5.4235e-07	1398.5	375.1	7.8472e-06	3.5731e-06	428.12	140.74	121.88	41.238	6.8387e-06	51.073	0.0011066	0.0011265	0.00031689	1431.8	1.2262e-05	1.2421e-05	1435.6	388.6	1.2411e-05	1.2419e-05	445.39	145.79	127.31	43.399	1.2246e-05	54.046	346.826	216.796	225.266	172.298	298.422	459.803	172.107	176.919	340.014	323.258	176.623	180.691	181.317	186.092	294.919	185.060	-8191	255	
28987.693	1	1	0	0	0.17528	0.035592	0.26095	0.14659	0.032209	0.0969	0.2178	0.25482	0.30164	0.2578	0.084768	0.18373	0.11012	0.10285	0.14517	0.16314	-3.5979	-4.7312	-4.5146	-4.0333	-4.9167	-4.1146	-4.4729	-4.9354	-3.9792	-4.4	-4.7875	-3.8729	-4.8167	-4.6104	-4.0667	-5.05	180.440	356.891	222.648	509.771	398.890	446.672	441.951	488.583	471.202	211.067	170.113	182.490	214.295	240.864	332.046	495.445	0.0015628	0.00062013	0.00011437	1394	8.3045e-06	5.4195e-06	1397.7	376.54	1.0977e-05	7.7171e-06	428.68	141.03	122.7	41.373	6.612e-06	51.422	0.0011019	0.001117	0.0003079	1433.9	1.1837e-05	1.2062e-05	1435.4	388.23	1.1902e-05	1.2003e-05	445.08	145.95	127.29	43.366	1.1901e-05	53.966	344.286	231.606	205.631	172.370	302.420	304.279	171.900	177.065	337.683	321.023	176.721	180.769	181.092	185.961	298.504	185.192	-8191	255	
28987.791	1	1	0	0	0.071548	0.18365	0.20906	0.1829	0.20285	0.28199	0.12814	0.47151	0.07964	0.11954	0.22115	0.016708	0.07526	0.12001	0.17014	0.18376	-3.7229	-4.3458	-4.7021	-4.1813	-4.8167	-4.2896	-4.1167	-4.9625	-4.0583	-4.1521	-4.9333	-3.7812	-4.7188	-4.5458	-3.9104	-4.9583	516.858	235.327	436.525	510.650	256.999	464.722	392.714	484.204	241.581	198.524	501.976	221.466	512.596	402.206	229.351	365.766	0.0013986	0.00051342	0.00023812	1392.8	1.1035e-05	4.4862e-06	1397.7	375.9	1.191e-05	6.6901e-06	428.5	141.38	122.37	41.357	4.0075e-06	51.234	0.0010711	0.0010997	0.0003056	1432.5	1.1916e-05	1.1964e-05	1434.1	388.34	1.1834e-05	1.1869e-05	445.41	145.91	127.17	43.404	1.1831e-05	54.012	348.573	247.704	271.148	172.377	304.543	313.564	171.929	176.754	263.087	288.429	176.605	180.591	181.331	186.082	280.459	185.118	-8191	255	
28987.887	1	1	0	0	0.055079	0.072609	0.047638	0.32618	0.034626	0.10745	0.14487	0.28799	0.052575	0.20488	0.094819	0.080311	0.19083	0.060465	0.13926	0.095549	-3.7729	-4.2312	-4.8708	-4.0938	-4.6813	-4.6604	-4.2438	-4.9729	-4.2646	-4.0312	-4.9313	-4.1333	-4.6417	-4.8896	-3.7021	-5.0396	495.484	403.701	388.309	484.834	507.527	217.843	390.451	401.154	435.076	423.967	388.742	492.283	497.094	417.556	508.282	496.507	0.0014111	0.00051034	0.00020296	1392.3	1.0547e-05	2.3699e-06	1400.2	376.57	8.7601e-06	3.0557e-06	429.17	141.1	122.32	41.291	9.3042e-06	51.148	0.001064	0.0010961	0.00030309	1432.8	1.195e-05	1.1978e-05	1434.8	388.66	1.1956e-05	1.2065e-05	445.53	145.95	127.25	43.373	1.2036e-05	53.957	346.090	272.934	255.718	172.403	315.448	211.072	172.142	176.948	332.558	248.855	176.382	180.645	181.267	186.008	325.882	184.890	-8191	255	
28987.982	1	1	0	0	0.09564	0.11325	0.044012	0.21252	0.35338	0.123	0.23969	0.21114	0.11372	0.10103	0.2906	0.16877	0.16352	0.11737	0.08807	0.065401	-3.9938	-3.9979	-4.8854	-4.3063	-4.5458	-4.6479	-4.1083	-4.7125	-4.3479	-4.1292	-5.0083	-4.1438	-4.4604	-4.7729	-3.8458	-4.8604	444.799	466.029	160.318	430.077	478.867	234.015	408.803	457.385	431.495	419.053	514.402	448.149	200.709	455.251	170.900	450.299	0.0015474	0.00023436	0.00017434	1395.7	1.8179e-06	9.4247e-06	1396	377.2	1.0771e-05	5.5176e-06	426.84	140.48	122.11	41.167	8.3119e-06	51.161	0.0010792	0.0010876	0.00030397	1431.4	1.1868e-05	1.2006e-05	1434.3	388.5	1.1867e-05	1.195e-05	444.69	145.71	127.3	43.352	1.1989e-05	53.915	344.653	219.645	252.059	172.543	416.758	339.276	171.974	176.850	304.240	287.659	176.672	180.857	181.327	186.185	333.928	185.264	-8191	255	
28988.104	1	1	0	0	0.15411	0.057809	0.13025	0.20372	0.097807	0.087455	0.40436	0.047133	0.094899	0.092069	0.17654	0.054286	0.23349	0.252	0.16972	0.11055	-4.15	-3.9938	-4.9062	-4.2104	-4.25	-4.7688	-4.05	-4.7646	-4.4854	-4.1396	-4.8292	-4.1792	-4.2417	-4.8604	-3.85	-4.5563	303.300	308.232	339.417	415.744	383.999	288.969	457.768	451.084	226.210	269.767	166.591	295.005	471.742	428.772	476.850	470.403	0.0016022	0.00068389	0.00012882	1389.7	8.0136e-06	9.1327e-06	1396.7	375.34	6.5197e-06	6.1021e-06	427.45	140.55	122.24	41.158	1.1166e-05	51.112	0.0010649	0.0010834	0.00029941	1431.9	1.1828e-05	1.1979e-05	1433.3	388.08	1.1738e-05	1.1865e-05	445.28	145.53	126.97	43.285	1.1825e-05	53.93	344.939	290.117	262.151	172.501	296.595	338.991	172.085	176.905	321.253	315.615	176.416	180.674	181.253	186.093	313.873	185.130	-8191	255	
28988.176	1	1	0	0	0.20372	0.028781	0.27519	0.13975	0.16152	0.025092	0.13449	0.26207	0.061236	0.24252	0.060327	0.19458	0.32788	0.13556	0.28543	0.065044	-4.325	-4.0208	-4.7708	-4.3625	-4.0875	-4.7208	-4.0979	-4.6979	-4.55	-3.8896	-4.875	-4.3417	-4.1333	-5.0729	-4.0021	-4.5083	504.014	268.130	394.601	420.211	231.534	335.225	485.637	162.068	309.620	194.006	160.065	503.711	175.886	166.034	489.974	394.079	0.0014585	0.00076092	0.00025371	1389.6	5.0713e-06	7.7423e-06	1394	375.81	1.6958e-05	2.0907e-06	429.38	140.17	122.18	41.277	7.7283e-06	51.467	0.0010628	0.0010661	0.00030075	1430.9	1.1651e-05	1.1772e-05	1432.6	387.91	1.1658e-05	1.1692e-05	444.65	145.52	127.05	43.323	1.1697e-05	53.894	340.840	245.065	261.398	172.552	287.798	326.359	172.169	176.838	307.739	263.285	176.489	180.802	181.407	186.317	244.387	184.981	-8191	255	
28988.271	1	1	0	0	0.32987	0.18583	0.16061	0.15857	0.072118	0.21406	0.1869	0.18181	0.1255	0.22235	0.2916	0.20636	0.33039	0.2173	0.17332	0.15586	-4.5083	-3.85	-4.7646	-4.5437	-3.8208	-4.8646	-4.2125	-4.3958	-4.7042	-3.9083	-4.7292	-4.4625	-3.8375	-5.0167	-4.0583	-4.2958	354.032	515.177	303.360	488.359	172.321	314.248	485.630	500.153	450.832	323.626	509.279	452.486	494.605	429.285	294.908	171.193	0.0015114	0.00068792	0.00014956	1388.1	8.421e-06	9.65e-06	1389.6	375.68	5.6555e-06	2.8513e-06	428.9	140.76	122.11	41.09	1.2119e-05	51.173	0.0010429	0.0010692	0.00029174	1428.9	1.1574e-05	1.1578e-05	1429	387.69	1.1726e-05	1.1859e-05	444.64	145.42	126.85	43.231	1.1817e-05	53.885	344.352	260.628	234.998	172.481	236.408	313.238	172.221	176.781	336.798	414.490	176.399	180.796	181.263	186.152	265.673	185.163	-8191	255	
28988.391	1	1	0	0	0.17428	0.11217	0.090638	0.34229	0.063056	0.14311	0.17177	0.24092	0.018696	0.18595	0.20741	0.13906	0.054336	0.16678	0.21423	0.17693	-4.6167	-3.8583	-4.5437	-4.6521	-3.6896	-4.8646	-4.5458	-4.1979	-4.6833	-3.8937	-4.6833	-4.7229	-3.9708	-4.85	-4.1813	-4.0958	393.929	413.906	340.650	496.586	337.535	480.652	449.341	449.139	417.403	393.885	247.864	494.101	490.487	166.626	233.528	305.099	0.0014519	0.00048673	3.0101e-05	1387.7	7.5146e-06	3.0347e-06	1393.1	374.98	1.1457e-05	5.292e-06	427.23	139.91	121.96	41.139	5.8908e-06	51.017	0.0010523	0.0010947	0.00029852	1428.8	1.172e-05	1.1813e-05	1431.2	387.4	1.1761e-05	1.2047e-05	444.47	145.31	126.9	43.254	1.1938e-05	53.798	347.668	266.806	426.460	172.588	303.354	179.439	172.359	176.795	268.446	331.428	176.480	180.745	181.271	186.159	329.487	185.145	-8191	255	
28988.486	1	1	0	0	0.15251	0.20507	0.13942	0.18411	0.10073	0.34056	0.2574	0.13781	0.1593	0.12612	0.14479	0.087978	0.15964	0.44306	0.25938	0.067772	-4.4563	-3.8896	-4.4625	-4.7292	-3.9021	-5.0188	-4.5396	-4.2438	-4.9354	-4.2229	-4.4979	-4.7375	-4.0708	-4.7729	-4.425	-4.1125	433.445	456.737	251.873	510.409	510.598	509.882	475.764	419.021	328.810	415.896	388.571	415.992	286.563	168.388	203.384	450.467	0.0014319	0.00017857	0.00024921	1392.2	4.7554e-06	6.5643e-06	1391.6	375.97	8.1574e-06	1.3033e-06	428.78	140.64	121.97	41.422	1.0574e-05	51.118	0.0010667	0.0010895	0.00030181	1429.3	1.1754e-05	1.1762e-05	1430	387.51	1.1736e-05	1.1889e-05	444.24	145.13	126.98	43.336	1.1791e-05	53.739	347.353	506.485	284.438	172.649	298.316	338.404	172.023	177.000	301.422	298.421	176.476	180.662	181.224	186.144	307.620	185.089	-8191	255	
28988.582	1	1	0	0	0.081514	0.133	0.054964	0.24903	0.21383	0.081514	0.14743	0.079041	0.14139	0.23279	0.17744	0.17578	0.18389	0.22821	0.087502	0.10685	-4.6979	-3.95	-4.2063	-5.0437	-3.8625	-4.5708	-4.7625	-4.1208	-4.8833	-4.1188	-4.3208	-4.9896	-4.0896	-4.7562	-4.6396	-3.7938	509.711	513.073	423.862	482.506	507.849	301.645	498.857	404.323	402.943	484.864	421.943	438.195	510.108	224.122	498.644	357.078	0.0013951	0.0011747	0.00015152	1392.7	1.2543e-05	4.3783e-06	1389.6	375.04	8.1683e-06	6.6959e-06	428.96	140.55	122.41	41.485	5.6489e-06	51.001	0.0010721	0.0010905	0.00030169	1431.5	1.1656e-05	1.2013e-05	1431.1	387.73	1.178e-05	1.1917e-05	444.39	145.6	127.02	43.335	1.177e-05	53.78	348.016	272.893	289.294	172.487	271.163	311.698	171.910	176.913	325.762	286.352	176.308	181.034	181.111	186.234	321.997	184.838	-8191	255	
28988.680	1	1	0	0	0.18814	0.035105	0.15541	0.17144	0.03928	0.030271	0.21018	0.30371	0.20921	0.12125	0.10361	0.16404	0.22764	0.15552	0.073474	0.046457	-4.5333	-4.3313	-4.1771	-5.1854	-3.9271	-4.4083	-4.8708	-4.0542	-4.7271	-4.2	-4.2021	-5.1438	-4.0563	-4.4958	-4.7562	-4.0896	342.137	272.880	242.898	381.767	160.824	333.498	483.204	437.831	472.615	517.324	502.238	487.125	166.894	486.040	398.934	477.204	0.0014232	0.00086898	0.00014758	1383.7	1.3524e-05	1.2852e-06	1393.4	374.77	1.0711e-05	4.478e-06	426.79	140.3	122.41	41.371	1.2634e-05	50.952	0.0010652	0.0010776	0.00030317	1427.7	1.1662e-05	1.1761e-05	1430.7	387.19	1.17e-05	1.1828e-05	443.47	145.4	126.84	43.211	1.1807e-05	53.845	341.586	242.935	215.160	172.603	344.424	364.987	172.243	177.034	291.932	381.519	176.329	181.003	181.337	185.822	333.686	185.162	-8191	255	
28988.775	1	1	0	0	0.1824	0.15804	0.21476	0.25923	0.03355	0.047331	0.19621	0.31212	0.12019	0.1722	0.25214	0.092867	0.16235	0.19183	0.18057	0.056791	-4.3833	-4.3833	-3.9854	-5.1312	-4.0083	-4.1583	-4.9104	-3.9354	-4.6146	-4.325	-4.2625	-4.8688	-4.0437	-4.325	-4.7188	-4.0292	429.145	325.030	310.357	447.931	491.689	300.793	463.933	451.497	354.763	228.608	197.064	479.249	454.393	425.178	484.184	250.918	0.0013947	0.00010926	0.00014013	1389.2	4.955e-06	5.3377e-06	1392.6	375.61	6.7503e-06	3.057e-06	426.81	139.82	122.05	41.117	2.5939e-06	50.985	0.0010764	0.0010855	0.00030355	1428.7	1.1915e-05	1.181e-05	1430.9	387.42	1.1587e-05	1.1872e-05	443.11	145.37	126.88	43.249	1.1847e-05	53.724	343.491	225.735	235.254	172.484	332.662	315.010	172.129	176.810	280.773	263.279	176.303	180.907	181.340	186.057	465.060	185.014	-8191	255	
28988.871	1	1	0	0	0.058005	0.13378	0.10023	0.15466	0.14853	0.17359	0.32704	0.26515	0.095928	0.067581	0.13345	0.14595	0.10826	0.14163	0.20249	0.14188	-4.4021	-4.4375	-4.0292	-4.9771	-4.1438	-4.2771	-4.9604	-3.8896	-4.4958	-4.6958	-4.0042	-4.9062	-4.3542	-4.1813	-4.8125	-4.0958	436.487	219.692	412.123	175.033	417.068	406.292	457.727	384.132	503.360	283.557	512.462	390.814	246.378	484.561	423.378	451.781	0.0014309	0.00097283	0.00010437	1391.2	4.5929e-06	1.6816e-06	1395.6	376.04	1.1285e-05	6.4385e-06	427.54	140.98	122.37	41.226	1.3055e-05	51.272	0.001078	0.0010987	0.00029934	1430.4	1.1915e-05	1.198e-05	1431.8	387.5	1.2004e-05	1.208e-05	444.5	145.75	127.12	43.295	1.1937e-05	53.913	348.607	243.575	267.950	172.521	320.294	179.703	172.244	176.827	307.939	334.728	176.333	180.691	181.249	185.900	290.479	184.990	-8191	255	
28988.967	1	1	0	0	0.2342	0.1037	0.12823	0.19655	0.12024	0.088455	0.095295	0.20205	0.048688	0.091434	0.19824	0.055675	0.069743	0.071925	0.1528	0.21206	-4.1708	-4.6042	-3.8667	-5.025	-4.1562	-3.9979	-5.0104	-4.1729	-4.3313	-4.6667	-3.9417	-4.6792	-4.4833	-4.0958	-4.9812	-4.1146	286.708	491.984	275.159	497.307	400.443	508.536	436.508	460.112	238.575	454.128	428.945	357.673	499.562	171.126	334.354	165.028	0.0015119	0.00060339	0.00013907	1389.8	9.1794e-06	6.9705e-06	1388.7	376.22	1.2906e-05	3.7356e-06	427.71	140.33	121.78	41.287	7.9802e-06	50.858	0.0010782	0.0010907	0.00030399	1431.5	1.1867e-05	1.2047e-05	1431.1	388.05	1.1852e-05	1.2028e-05	444.02	145.55	126.88	43.291	1.1967e-05	53.905	341.473	280.839	225.317	172.278	320.484	358.080	172.089	176.915	315.816	261.331	176.540	180.703	181.085	185.909	344.484	184.972	-8191	255	
28989.062	1	1	0	0	0.06806	0.18023	0.077422	0.11263	0.058876	0.041337	0.1286	0.1852	0.052726	0.091578	0.14751	0.15028	0.11174	0.26738	0.13533	0.23942	-4.1958	-4.7375	-3.6583	-4.9896	-4.3979	-3.9542	-5.1146	-4.3708	-4.4083	-4.8521	-4.0604	-4.5604	-4.6875	-3.925	-4.8208	-4.2104	431.859	471.068	367.397	170.068	218.150	396.359	416.592	196.687	233.104	487.512	495.137	209.317	214.918	513.932	179.862	190.483	0.001491	0.00083954	9.443e-05	1393.3	1.1901e-05	8.8248e-06	1394.2	375.51	7.9422e-06	4.6158e-06	427.27	139.86	122.98	41.275	1.0021e-05	51.054	0.0010727	0.00109	0.00030393	1431.4	1.2052e-05	1.2008e-05	1433.1	387.31	1.1845e-05	1.1807e-05	444.1	145.3	127.16	43.355	1.1826e-05	53.852	345.662	277.054	261.982	172.597	270.290	301.258	172.151	176.897	384.300	367.083	176.549	180.757	181.363	186.040	339.074	185.296	-8191	255	
28989.184	1	1	0	0	0.076199	0.13214	0.10657	0.1557	0.15556	0.067471	0.15165	0.11378	0.16591	0.084984	0.12255	0.29172	0.10167	0.25918	0.084397	0.16639	-3.9062	-4.7771	-3.9521	-4.7167	-4.5833	-3.8125	-4.8417	-4.3187	-4.1354	-4.8958	-4.0271	-4.5271	-4.6729	-4.0083	-4.6917	-4.4812	463.816	425.642	276.056	159.921	372.453	270.274	292.924	219.373	449.714	380.236	494.866	473.676	477.978	247.644	196.401	427.540	0.0013875	0.00027929	9.7264e-05	1388.9	1.0314e-05	5.2333e-06	1398	375.97	1.0175e-05	6.2224e-06	429.68	140.53	122.24	41.398	9.2974e-06	51.031	0.0010776	0.0010728	0.00030096	1429.1	1.1567e-05	1.1681e-05	1431.1	387.07	1.1638e-05	1.1606e-05	443.53	145.4	126.86	43.266	1.1309e-05	53.733	345.827	282.224	285.771	172.457	250.425	303.138	172.132	176.817	331.272	324.747	176.402	180.833	181.335	185.952	292.995	185.045	-8191	255	
28989.277	1	1	0	0	0.21005	0.10749	0.31025	0.13273	0.096271	0.23315	0.15074	0.14608	0.12656	0.3724	0.1865	0.063362	0.09493	0.12857	0.32605	0.17858	-3.6771	-4.875	-3.9333	-4.4625	-4.6	-3.875	-4.9042	-4.4521	-4.0167	-4.9771	-4.2	-4.375	-4.9271	-3.9042	-4.6562	-4.4229	206.917	246.463	200.485	445.547	326.738	283.235	474.609	165.117	268.548	171.615	243.581	324.219	355.514	414.465	306.052	411.386	0.0015685	0.00040586	8.8918e-05	1383.1	1.0629e-05	5.7058e-06	1391.8	375.05	1.2287e-05	4.3162e-06	427.53	140.03	122.54	41.361	8.1154e-06	51.277	0.0010362	0.0010347	0.00029038	1427	1.1167e-05	1.1399e-05	1428.8	386.81	1.1395e-05	1.1561e-05	443.16	145.02	126.97	43.223	1.159e-05	53.79	349.248	323.362	293.474	172.480	301.001	294.440	172.079	177.067	299.633	308.297	176.175	180.574	181.366	185.780	258.836	185.173	-8191	255	
28989.377	1	1	0	0	0.12491	0.20953	0.11433	0.2891	0.27209	0.12884	0.25768	0.15627	0.093296	0.0091139	0.25671	0.059036	0.08832	0.091354	0.11652	0.066655	-3.7292	-4.8625	-4.1625	-4.3625	-4.8708	-3.8604	-4.8146	-4.7979	-4.0083	-4.8417	-4.3562	-4.4521	-4.8854	-4.0708	-4.6958	-4.8167	218.215	500.168	451.934	492.410	270.695	262.580	439.565	179.248	249.105	314.612	440.620	240.206	390.866	185.866	290.086	472.291	0.0016045	0.000246	0.00015949	1387.2	7.1486e-06	1.2471e-05	1394.1	374.76	8.5052e-06	3.2272e-06	425.26	140.58	122.23	41.282	7.11e-06	51.212	0.0010489	0.0010687	0.00029602	1427.8	1.1432e-05	1.171e-05	1430.8	387.06	1.1576e-05	1.1625e-05	443.43	145.31	126.9	43.347	1.1728e-05	53.822	345.631	380.065	310.366	172.516	314.358	317.391	172.148	176.920	334.342	276.895	176.376	181.066	181.462	185.977	289.347	184.924	-8191	255	
28989.473	1	1	0	0	0.012925	0.049427	0.037782	0.53484	0.18482	0.11835	0.2171	0.14538	0.1723	0.11781	0.017397	0.057992	0.22099	0.25819	0.21299	0.30096	-3.6437	-5.0292	-4.2646	-4.2854	-4.7542	-4.075	-4.5354	-4.7104	-3.7812	-4.7229	-4.4167	-4.1979	-5.1	-3.9854	-4.3583	-4.7083	483.921	176.212	316.729	163.523	279.272	364.202	498.365	182.958	231.860	416.184	227.626	471.845	268.514	428.486	453.532	476.244	0.0015105	0.0003268	0.00017187	1390.7	7.4919e-06	8.5462e-06	1397.9	374.17	1.4931e-05	7.389e-06	426.77	140.83	122.1	41.335	1.3318e-05	51.095	0.0010694	0.0010808	0.00030146	1429.4	1.1734e-05	1.1995e-05	1433.9	387.45	1.1727e-05	1.1823e-05	443.68	145.3	127.04	43.394	1.1732e-05	53.887	343.159	244.104	236.573	172.378	268.854	307.900	172.218	177.086	322.475	310.087	176.267	180.857	181.281	186.011	297.747	185.266	-8191	255	
28989.566	1	1	0	0	0.22832	0.10768	0.27334	0.39083	0.1138	0.22208	0.16996	0.22297	0.31318	0.26277	0.13403	0.17769	0.089854	0.063232	0.11054	0.27072	-3.5938	-4.75	-4.4417	-4.175	-4.8562	-4.0583	-4.5083	-4.9625	-3.9062	-4.7188	-4.7333	-3.9479	-4.9375	-4.3063	-4.2021	-4.9021	442.183	506.400	493.002	472.166	402.434	499.211	475.439	474.272	170.282	184.698	195.987	441.657	435.440	517.604	371.748	463.120	0.001403	0.00067272	0.00010643	1388	7.798e-06	6.1525e-06	1391.8	375.51	1.3299e-05	1.8424e-06	428.17	140.82	122.64	41.289	7.581e-06	51.27	0.0010595	0.0010802	0.00030005	1428.5	1.1603e-05	1.1827e-05	1432.1	387.31	1.1708e-05	1.1789e-05	444.46	145.66	127.32	43.376	1.1966e-05	54	347.690	257.685	238.379	172.485	284.994	345.300	172.062	176.957	289.890	263.294	176.545	180.750	181.306	186.064	288.752	184.889	-8191	255	
28989.662	1	1	0	0	0.17919	0.075774	0.13388	0.17141	0.081897	0.079396	0.26843	0.096992	0.14035	0.12482	0.12962	0.23687	0.11003	0.19816	0.12057	0.13531	-3.5646	-4.7167	-4.5708	-3.9958	-4.8396	-4.125	-4.2896	-5.125	-3.9313	-4.5813	-4.6375	-3.9188	-4.8833	-4.3021	-4.0229	-5.0625	388.025	193.963	174.223	481.362	478.124	330.788	472.109	458.907	306.073	193.556	172.529	494.373	457.785	472.565	454.955	444.267	0.0014759	0.00010852	7.5712e-05	1393.5	8.1175e-06	7.7032e-06	1395.5	375.63	1.5349e-05	1.5236e-06	428.32	141.46	122.45	41.302	1.0331e-05	50.981	0.0010853	0.0010927	0.00030526	1431.6	1.186e-05	1.2152e-05	1434.4	387.86	1.1938e-05	1.2026e-05	444.7	145.68	127.17	43.404	1.198e-05	53.923	343.323	502.393	253.331	172.402	312.950	316.955	172.141	176.993	336.400	371.801	176.215	180.897	181.276	185.877	265.919	185.083	-8191	255	
28989.783	1	1	0	0	0.081023	0.28967	0.15922	0.11045	0.12565	0.254	0.24434	0.046447	0.10526	0.13997	0.20257	0.11632	0.15061	0.15881	0.11707	0.21411	-3.6458	-4.5979	-4.7271	-4.1625	-4.7937	-4.3104	-4.2583	-5.0958	-4.0229	-4.2833	-4.9771	-3.9479	-4.8063	-4.5167	-4.0917	-4.9542	273.841	241.034	247.341	188.836	415.323	214.946	381.042	206.978	298.606	508.127	462.940	276.315	453.986	475.363	426.409	386.513	0.001337	0.00035416	0.0002325	1390.6	8.9528e-06	8.8943e-06	1395.5	374.42	8.7759e-06	1.5213e-06	427.16	140.11	122.42	41.448	5.537e-06	50.865	0.0010769	0.0011068	0.00030605	1432.7	1.213e-05	1.2231e-05	1433.6	387.6	1.2168e-05	1.2212e-05	445.27	145.62	127.29	43.446	1.2143e-05	53.896	345.200	378.691	276.250	172.528	302.283	359.678	171.959	176.950	310.257	325.237	176.159	180.719	181.184	185.997	313.880	185.132	-8191	255	
28989.881	1	1	0	0	0.16222	0.094072	0.11555	0.043561	0.18368	0.10117	0.30827	0.19077	0.11999	0.15626	0.14136	0.057426	0.065971	0.12838	0.26073	0.16438	-3.7646	-4.2104	-4.7667	-4.1813	-4.6542	-4.5771	-4.1375	-5.0104	-4.075	-4.1062	-4.9667	-4.1	-4.6292	-4.7354	-3.8083	-4.8875	173.110	160.545	248.794	426.162	160.311	378.844	180.644	467.054	284.060	268.258	492.620	382.261	378.527	168.792	291.532	440.161	0.0014136	0.00099022	0.00017054	1387.6	7.1632e-06	9.5672e-06	1395.7	375.51	7.2223e-06	5.8569e-06	428.22	140.4	122.99	41.199	5.5437e-06	50.879	0.0010925	0.0011056	0.00030441	1430.3	1.1991e-05	1.2088e-05	1433.7	387.91	1.2131e-05	1.2149e-05	444.96	145.64	127.31	43.39	1.2138e-05	53.823	338.853	268.206	233.127	172.501	274.781	305.790	171.900	177.052	275.198	297.395	176.591	180.609	181.425	186.025	316.256	185.344	-8191	255	
28989.977	1	1	0	0	0.11353	0.039593	0.17448	0.24449	0.14851	0.2301	0.17436	0.31798	0.12815	0.30478	0.17323	0.28657	0.30006	0.33427	0.14719	0.19179	-4.1	-4.0563	-4.9521	-4.1771	-4.2729	-4.6188	-4.0437	-4.8229	-4.2708	-4.1	-4.8375	-4.0896	-4.4812	-4.6354	-3.8	-4.7667	171.267	375.370	257.208	161.157	326.659	479.985	409.208	474.686	423.167	481.097	163.690	196.810	503.341	483.555	404.696	495.164	0.0014463	0.00057999	0.00013793	1390	9.0596e-06	1.1003e-05	1397.6	374.16	9.8009e-06	4.4585e-06	427.46	140.19	122.28	41.149	8.7671e-06	50.958	0.0010968	0.001107	0.00030397	1431	1.1985e-05	1.2103e-05	1433.6	387.03	1.1987e-05	1.2108e-05	444.01	145.56	127.06	43.331	1.2174e-05	53.958	345.117	285.362	262.295	172.489	283.643	311.846	172.045	176.897	336.760	320.881	176.367	180.663	181.223	186.210	360.895	185.100	-8191	255	
28990.072	1	1	0	0	0.26162	0.12711	0.02403	0.20793	0.17516	0.064096	0.31888	0.1417	0.13512	0.13842	0.32971	0.15179	0.1647	0.11713	0.18048	0.21002	-3.9917	-4.1271	-5.0771	-4.1875	-4.2792	-4.8979	-4.1042	-4.7229	-4.3271	-3.9833	-4.8583	-4.2333	-4.2312	-4.9062	-3.9708	-4.7792	337.053	507.348	492.940	469.213	367.261	394.699	450.598	407.842	279.597	426.097	489.520	485.058	230.120	474.888	259.284	496.560	0.0013639	0.00057754	7.9192e-05	1386.9	6.046e-06	1.107e-05	1392.9	375.9	9.3821e-06	6.4578e-06	428.06	140.16	122.38	41.219	4.1129e-06	51.22	0.0011012	0.0011055	0.00030616	1429	1.1965e-05	1.2037e-05	1431.3	387.54	1.1872e-05	1.1923e-05	444.26	145.5	127.29	43.304	1.1829e-05	53.918	344.823	260.090	305.955	172.426	357.479	275.772	171.978	176.805	300.728	391.404	176.446	180.796	181.220	185.970	313.791	185.137	-8191	255	
28990.168	1	1	0	0	0.07832	0.083749	0.022834	0.14366	0.019002	0.034229	0.15606	0.25432	0.099129	0.082581	0.16349	0.13522	0.15801	0.26073	0.10281	0.081276	-4.3917	-3.9292	-4.7958	-4.3542	-4.0542	-4.975	-4.2083	-4.6167	-4.575	-3.8146	-4.9208	-4.2958	-4.1583	-4.9667	-3.8896	-4.4021	329.133	159.070	430.052	468.159	418.131	180.599	161.978	440.470	468.516	453.690	512.477	386.807	340.511	199.293	386.553	470.196	0.0012825	0.0003368	0.00014679	1390.7	6.1964e-06	6.1266e-06	1393.1	376.24	1.3783e-05	6.4479e-06	428.91	141.26	122.02	41.425	2.7106e-06	51.147	0.0010767	0.0011015	0.00030532	1430.1	1.1783e-05	1.1885e-05	1430.7	388.13	1.191e-05	1.2053e-05	445.21	145.8	126.87	43.387	1.2003e-05	53.831	346.094	285.281	229.762	172.454	235.079	286.483	172.251	176.914	305.769	273.126	176.243	180.562	181.079	185.740	184.584	185.218	-8191	255	
28990.264	1	1	0	0	0.18235	0.077193	0.13171	0.27551	0.1696	0.19939	0.21588	0.099549	0.15083	0.27689	0.17024	0.13414	0.044893	0.13007	0.31388	0.049449	-4.4187	-3.9125	-4.9229	-4.4396	-4.0917	-5.1583	-4.1062	-4.6125	-4.9396	-3.9188	-4.8063	-4.4812	-3.9708	-5.0479	-4.0479	-4.5312	272.179	518.299	285.052	452.939	430.750	192.507	475.777	169.983	343.394	417.906	213.141	172.531	198.228	480.744	180.056	377.629	0.0013786	0.00040261	0.00010646	1391.6	5.1973e-06	3.3244e-06	1393	375.66	9.0588e-06	3.4897e-06	427.7	140.37	122.6	41.351	7.6798e-06	51.334	0.0010803	0.0011067	0.00030638	1432.7	1.1973e-05	1.2243e-05	1431.6	388.58	1.197e-05	1.2242e-05	444.36	145.4	126.94	43.294	1.2232e-05	54.038	344.342	204.822	245.350	172.354	335.891	316.810	172.132	176.644	279.429	279.991	176.317	180.562	181.062	186.244	283.393	184.858	-8191	255	
28990.359	1	1	0	0	0.12532	0.32507	0.14735	0.13332	0.12995	0.19172	0.17042	0.40395	0.16876	0.14896	0.29553	0.27515	0.17587	0.12246	0.10827	0.25629	-4.4646	-3.9125	-4.5708	-4.5563	-3.9271	-4.9604	-4.3479	-4.3292	-4.7458	-3.7917	-4.7688	-4.6917	-4.0312	-4.7	-4.1312	-4.4146	505.174	408.569	360.365	329.325	424.832	345.085	425.623	402.702	441.172	308.209	461.666	161.181	518.428	180.148	417.814	169.643	0.001352	0.00061378	0.000145	1393.7	5.4324e-06	5.2848e-06	1395.7	376.52	1.4832e-05	8.7315e-06	426.22	139.7	122.47	41.302	1.0633e-05	51.11	0.0010957	0.001135	0.00031157	1432.1	1.2121e-05	1.2415e-05	1434.3	388.16	1.2349e-05	1.258e-05	444.94	145.42	127.28	43.402	1.2515e-05	53.975	343.677	245.904	281.499	172.544	320.455	381.320	172.142	176.978	294.346	301.893	176.309	180.682	181.335	186.039	331.839	185.067	-8191	255	
28990.479	1	1	0	0	0.32007	0.05419	0.12855	0.36964	0.35087	0.11754	0.21714	0.11604	0.24736	0.090783	0.11838	0.24777	0.15506	0.15127	0.1517	0.4316	-4.5979	-4.0208	-4.4167	-4.8604	-3.9271	-4.8458	-4.4208	-4.2833	-4.8021	-3.9542	-4.5312	-4.875	-4.0062	-4.7917	-4.3583	-4.0396	481.799	370.690	363.328	487.721	320.272	307.917	176.892	480.749	177.584	301.211	448.770	429.316	166.194	456.538	207.232	413.835	0.0013958	0.00082674	0.00023908	1401.2	1.1035e-05	1.2237e-05	1391.1	375.5	1.349e-05	3.1328e-06	429.19	140.19	122.01	41.309	1.1698e-05	51.076	0.001118	0.0011498	0.00031746	1434.4	1.2344e-05	1.2462e-05	1431.8	388.58	1.2184e-05	1.239e-05	445.14	145.41	127.14	43.381	1.2281e-05	53.925	343.178	225.459	244.265	172.421	303.199	338.905	172.297	176.863	302.916	350.751	176.288	180.652	181.010	186.097	278.650	185.128	-8191	255	
28990.574	1	1	0	0	0.09619	0.13201	0.14046	0.2057	0.22975	0.15415	0.34948	0.25998	0.24321	0.099818	0.38824	0.20105	0.23882	0.23529	0.32273	0.066266	-4.5875	-4.1021	-4.4042	-5.0896	-3.9125	-4.725	-4.7	-4.0854	-4.8562	-4.2417	-4.5167	-4.8604	-3.9479	-4.6833	-4.5	-4.075	501.839	196.417	258.323	398.789	180.321	352.009	432.048	404.567	460.701	432.860	424.394	453.121	234.410	433.680	442.878	225.894	0.0013692	0.00052548	0.00017539	1388.1	1.1472e-05	9.3119e-06	1392.6	374.61	8.4236e-06	8.5344e-06	429.54	140.26	122.46	41.362	9.7747e-06	50.943	0.0010973	0.001124	0.00031253	1431	1.2134e-05	1.2164e-05	1431.9	387.61	1.2117e-05	1.2269e-05	445.27	145.73	127.25	43.409	1.2282e-05	53.853	351.264	291.039	208.499	172.359	291.160	278.913	172.241	176.812	297.444	297.064	176.508	180.823	181.159	185.829	257.254	184.933	-8191	255	
28990.646	1	1	0	0	0.25528	0.13189	0.13086	0.24083	0.16129	0.15961	0.33165	0.088949	0.21203	0.1145	0.14048	0.12532	0.16071	0.10531	0.34671	0.26748	-4.5875	-4.2021	-4.2229	-5.125	-3.7229	-4.7312	-4.8229	-4.0625	-4.9167	-4.1396	-4.3063	-5.0312	-4.1708	-4.6	-4.7292	-4.1104	384.854	273.012	340.966	510.774	454.937	245.536	487.767	254.787	197.845	238.286	429.201	231.186	175.375	256.832	205.923	442.347	0.001359	0.00030421	0.00024247	1391.2	1.0201e-05	5.7766e-06	1398.6	377.12	1.2029e-05	6.1522e-06	428.66	140.67	121.94	41.151	5.2685e-06	51.225	0.001104	0.0011199	0.00031103	1433.6	1.2187e-05	1.2231e-05	1434.8	388.61	1.2294e-05	1.2565e-05	445.33	145.72	127.1	43.302	1.2423e-05	53.982	345.364	275.160	270.902	172.574	266.992	307.290	172.115	176.695	309.819	321.488	176.245	180.772	181.410	185.746	268.281	184.873	-8191	255	
28990.742	1	1	0	0	0.16525	0.18702	0.098531	0.22563	0.18354	0.1583	0.32122	0.13401	0.19588	0.1835	0.025716	0.086957	0.14722	0.068364	0.30256	0.037371	-4.5229	-4.2333	-3.8958	-5.0354	-4.0188	-4.5396	-4.8292	-3.8104	-4.7146	-4.4396	-4.225	-4.8646	-4.0979	-4.4979	-4.6562	-3.9979	160.867	275.437	484.815	191.120	505.160	302.624	423.540	441.994	394.909	379.395	469.890	331.266	427.326	215.104	331.358	383.788	0.0012832	0.00035393	0.00013343	1394.5	9.5796e-06	8.718e-06	1395.6	374.05	9.2593e-06	3.7612e-06	426.58	140.56	122.32	41.342	1.1733e-05	51.392	0.001124	0.001165	0.00032218	1432.4	1.2437e-05	1.269e-05	1434.6	387.23	1.2392e-05	1.2533e-05	444.43	145.65	127.23	43.403	1.2287e-05	53.959	344.262	304.634	249.246	172.489	305.608	323.166	172.230	176.874	292.603	387.674	176.400	180.868	181.398	186.063	320.413	185.054	-8191	255	
28990.863	1	1	0	0	0.17085	0.089736	0.10235	0.075311	0.1296	0.10893	0.15054	0.29291	0.21152	0.15518	0.10645	0.17763	0.25262	0.094609	0.12681	0.18819	-4.3667	-4.4521	-3.9542	-4.9958	-4.0792	-4.1917	-5.1	-3.8396	-4.5687	-4.4062	-4.0229	-4.9875	-4.1937	-4.3063	-4.7292	-4.0208	374.931	372.949	371.921	497.493	430.602	330.557	403.377	432.228	161.581	277.458	225.221	186.308	459.545	202.150	478.136	403.003	0.0015801	0.00027459	0.00017782	1385.9	8.3716e-06	4.2479e-06	1392.2	375.39	1.1089e-05	5.4473e-06	427.07	140.13	122.08	41.19	9.2291e-06	51.205	0.001118	0.0011216	0.00030956	1430.1	1.2015e-05	1.2108e-05	1432.8	387.32	1.1727e-05	1.1736e-05	443.08	145.39	126.87	43.209	1.1696e-05	53.785	347.373	168.500	224.064	172.432	338.724	326.148	172.213	176.910	309.221	380.678	176.226	180.860	181.338	186.022	325.647	185.189	-8191	255	
28990.961	1	1	0	0	0.18431	0.12648	0.23048	0.30548	0.089838	0.25679	0.26339	0.10571	0.12933	0.15108	0.41458	0.11702	0.24053	0.10434	0.052617	0.16449	-4.1937	-4.5771	-3.7333	-4.8125	-4.1521	-4.0271	-5.0229	-4.1417	-4.4938	-4.5938	-3.9562	-4.9875	-4.4375	-4.0521	-4.8688	-4.0583	309.610	298.307	159.007	497.529	237.234	289.476	188.212	468.424	320.899	438.363	427.100	232.591	473.581	502.349	269.365	369.965	0.0014327	0.00055984	0.00010994	1383.8	4.1643e-06	5.448e-06	1393.8	374.44	5.6155e-06	4.4855e-06	426.95	140.41	121.58	41.303	7.3569e-06	51.147	0.001089	0.0011112	0.00031152	1426.6	1.2321e-05	1.2464e-05	1429.8	386.86	1.2329e-05	1.241e-05	443.49	145.01	126.61	43.215	1.1769e-05	53.686	347.824	242.821	285.184	172.530	289.099	331.932	172.155	176.980	317.115	388.281	176.361	180.982	181.695	186.061	284.859	184.834	-8191	255	
28991.057	1	1	0	0	0.080917	0.21075	0.22459	0.26255	0.11575	0.08368	0.11612	0.34391	0.11882	0.14449	0.1747	0.2276	0.059008	0.13711	0.14742	0.24214	-4.0875	-4.7146	-3.8042	-4.7562	-4.2417	-3.8187	-4.9771	-4.1937	-4.2792	-4.5979	-4.2104	-4.6167	-4.5583	-4.05	-4.8396	-4.2396	495.761	207.123	257.350	497.820	402.415	333.038	440.203	464.340	186.796	392.784	498.445	460.664	245.310	197.584	164.002	367.246	0.0013938	0.00048542	0.00015147	1386.3	8.8968e-06	5.033e-06	1395.6	373.69	1.2876e-05	7.4921e-06	428.44	140.4	122.43	41.155	8.8934e-06	51.183	0.0010427	0.0010493	0.00029428	1427.3	1.1372e-05	1.1564e-05	1430.2	386.59	1.1322e-05	1.1348e-05	444.1	145.28	126.99	43.241	1.131e-05	53.807	347.995	261.819	252.539	172.542	275.195	331.114	172.283	176.925	313.205	337.764	176.490	180.412	181.285	185.817	301.102	184.948	-8191	255	
28991.178	1	1	0	0	0.15747	0.070601	0.16956	0.22687	0.28383	0.053244	0.3759	0.028222	0.25862	0.15252	0.1894	0.1093	0.078443	0.1173	0.12645	0.24489	-3.9	-4.7125	-3.8625	-4.7083	-4.4417	-3.8208	-5.025	-4.3604	-4.1292	-4.7833	-4.0083	-4.7292	-4.7583	-4.0042	-4.7229	-4.425	165.971	330.557	341.246	161.638	374.905	386.791	426.190	283.818	269.811	160.584	416.732	211.766	188.101	502.781	328.765	164.769	0.0014272	0.00050433	1.5691e-05	1387.5	9.4867e-06	8.4298e-06	1388.9	374.05	5.1004e-06	3.6542e-06	426.38	140.43	122.22	41.309	3.9446e-06	51.251	0.0010281	0.0010463	0.00029254	1424.6	1.1415e-05	1.1601e-05	1427.7	386.38	1.1745e-05	1.1977e-05	443.61	145.34	126.85	43.326	1.2065e-05	54.027	350.081	285.998	319.236	172.452	290.016	355.593	172.057	176.948	222.195	284.690	176.429	180.682	181.631	185.804	317.696	184.983	-8191	255	
28991.273	1	1	0	0	0.032633	0.090233	0.10437	0.22302	0.027052	0.11362	0.34936	0.14389	0.16002	0.17109	0.23084	0.023002	0.15234	0.17984	0.13696	0.07586	-3.7917	-4.875	-3.9854	-4.5625	-4.7063	-3.7771	-4.925	-4.4917	-3.9854	-4.8688	-4.3521	-4.4	-4.6958	-3.9125	-4.675	-4.3708	209.399	306.949	422.711	461.560	167.686	477.640	491.915	472.809	352.172	379.361	483.644	201.253	483.148	479.227	374.114	303.934	0.0014827	0.00022004	0.00015101	1391.3	1.2513e-05	5.0817e-06	1394.2	375.59	1.1711e-05	7.3703e-06	427.22	140.54	122.29	41.329	4.9798e-06	50.814	0.0010857	0.0011179	0.00031248	1431.3	1.2099e-05	1.2372e-05	1433.2	387.73	1.2058e-05	1.211e-05	443.94	145.49	127.15	43.382	1.2047e-05	53.764	349.511	243.810	285.165	172.305	311.490	422.783	171.919	176.997	318.038	254.517	176.486	180.730	181.391	185.645	274.578	185.083	-8191	255	
#DATA ENDS
