BOXY.EXE: ISS Imagent and Oximeter Data Acquisition Program Version 0.80
Ascii Record File

#ACQ INFORMATION
2  Detector Channels 
16  External MUX Channels 
1  Auxiliary Channels 
5000  Waveform (CCF) Frequency (Hz)
1  Waveforms Skipped 
30  Waveforms Averaged 
1  Cycles Averaged 
16  Acquisitions per Waveform 
10.0806  Updata Rate (Hz) 

#FILE INFORMATION
TRUE -- External MUX Channel results are PARSED.
FALSE -- AC DC and Phase are NOT grouped.
TRUE -- Companion Program Settings File CREATED.
FALSE -- AC data not excluded
FALSE -- DC data not excluded
FALSE -- Phase data not excluded
FALSE -- Auxillary Chn. data not excluded
Tab delimiters

#CALIBRATION STATE
TRUE -- Waveform Calibration Values APPLIED.


#AUX CALIBRATION VALUES
Val Type	aux-1	

Term	1.0000e+00	
Factor	0.0000e+00	


#WF CALIBRATION VALUES
A = Detector Channel
Val Type	A-AC1	A-AC2	A-AC3	A-AC4	A-AC5	A-AC6	A-AC7	A-AC8	A-AC9	A-AC10	A-AC11	A-AC12	A-AC13	A-AC14	A-AC15	A-AC16	A-DC1	A-DC2	A-DC3	A-DC4	A-DC5	A-DC6	A-DC7	A-DC8	A-DC9	A-DC10	A-DC11	A-DC12	A-DC13	A-DC14	A-DC15	A-DC16	A-Ph1	A-Ph2	A-Ph3	A-Ph4	A-Ph5	A-Ph6	A-Ph7	A-Ph8	A-Ph9	A-Ph10	A-Ph11	A-Ph12	A-Ph13	A-Ph14	A-Ph15	A-Ph16	

Term	0.00000e+00	0.00000e+00	0.00000e+00	0.00000e+00	0.00000e+00	0.00000e+00	0.00000e+00	0.00000e+00	0.00000e+00	0.00000e+00	0.00000e+00	0.00000e+00	0.00000e+00	0.00000e+00	0.00000e+00	0.00000e+00	0.00000e+00	0.00000e+00	0.00000e+00	0.00000e+00	0.00000e+00	0.00000e+00	0.00000e+00	0.00000e+00	0.00000e+00	0.00000e+00	0.00000e+00	0.00000e+00	0.00000e+00	0.00000e+00	0.00000e+00	0.00000e+00	0.00000e+00	0.00000e+00	0.00000e+00	0.00000e+00	0.00000e+00	0.00000e+00	0.00000e+00	0.00000e+00	0.00000e+00	0.00000e+00	0.00000e+00	0.00000e+00	0.00000e+00	0.00000e+00	0.00000e+00	0.00000e+00	
Factor	1.00000e+00	1.00000e+00	1.00000e+00	1.00000e+00	1.00000e+00	1.00000e+00	1.00000e+00	1.00000e+00	1.00000e+00	1.00000e+00	1.00000e+00	1.00000e+00	1.00000e+00	1.00000e+00	1.00000e+00	1.00000e+00	1.00000e+00	1.00000e+00	1.00000e+00	1.00000e+00	1.00000e+00	1.00000e+00	1.00000e+00	1.00000e+00	1.00000e+00	1.00000e+00	1.00000e+00	1.00000e+00	1.00000e+00	1.00000e+00	1.00000e+00	1.00000e+00	X	X	X	X	X	X	X	X	X	X	X	X	X	X	X	X	

B = Detector Channel
Val Type	B-AC1	B-AC2	B-AC3	B-AC4	B-AC5	B-AC6	B-AC7	B-AC8	B-AC9	B-AC10	B-AC11	B-AC12	B-AC13	B-AC14	B-AC15	B-AC16	B-DC1	B-DC2	B-DC3	B-DC4	B-DC5	B-DC6	B-DC7	B-DC8	B-DC9	B-DC10	B-DC11	B-DC12	B-DC13	B-DC14	B-DC15	B-DC16	B-Ph1	B-Ph2	B-Ph3	B-Ph4	B-Ph5	B-Ph6	B-Ph7	B-Ph8	B-Ph9	B-Ph10	B-Ph11	B-Ph12	B-Ph13	B-Ph14	B-Ph15	B-Ph16	

Term	0.00000e+00	0.00000e+00	0.00000e+00	0.00000e+00	0.00000e+00	0.00000e+00	0.00000e+00	0.00000e+00	0.00000e+00	0.00000e+00	0.00000e+00	0.00000e+00	0.00000e+00	0.00000e+00	0.00000e+00	0.00000e+00	0.00000e+00	0.00000e+00	0.00000e+00	0.00000e+00	0.00000e+00	0.00000e+00	0.00000e+00	0.00000e+00	0.00000e+00	0.00000e+00	0.00000e+00	0.00000e+00	0.00000e+00	0.00000e+00	0.00000e+00	0.00000e+00	-7.23465e+01	-1.49617e+02	-1.26872e+02	-1.83762e+02	-5.18693e+01	-6.06153e+01	-1.58526e+02	-1.62015e+02	-4.81224e+01	-7.56965e+01	-1.70957e+02	-1.70833e+02	-1.76992e+02	-1.76825e+02	-4.67194e+01	-1.50028e+02	
Factor	1.63432e-05	1.10510e-04	3.48016e-05	1.52478e-01	1.22918e-06	1.22249e-06	1.63273e-01	5.15583e-02	9.18127e-07	1.18410e-06	8.55517e-02	2.92432e-02	2.25317e-02	9.04730e-03	1.05066e-06	1.29668e-02	1.38578e-06	1.45995e-06	4.07899e-07	7.71863e-02	1.59237e-08	1.59708e-08	7.76724e-02	2.61251e-02	1.59683e-08	1.59842e-08	4.15537e-02	1.42499e-02	1.15109e-02	4.55475e-03	1.60640e-08	6.29093e-03	X	X	X	X	X	X	X	X	X	X	X	X	X	X	X	X	



#DISTANCE SETTINGS
A = Detector Channel
A-1	A-2	A-3	A-4	A-5	A-6	A-7	A-8	A-9	A-10	A-11	A-12	A-13	A-14	A-15	A-16	

2.5000e+00	3.0000e+00	2.5000e+00	3.0000e+00	2.0000e+00	3.0000e+00	1.5000e+00	3.0000e+00	3.0000e+00	3.0000e+00	3.0000e+00	3.0000e+00	3.0000e+00	3.0000e+00	1.5000e+00	3.0000e+00	

B = Detector Channel
B-1	B-2	B-3	B-4	B-5	B-6	B-7	B-8	B-9	B-10	B-11	B-12	B-13	B-14	B-15	B-16	

1.0000e+01	1.0000e+01	1.0000e+01	1.4400e+00	1.0000e+01	1.0000e+01	1.5100e+00	1.9400e+00	1.0000e+01	1.0000e+01	1.9900e+00	2.4900e+00	2.4100e+00	2.9000e+00	1.0000e+01	2.9800e+00	




#DATA BEGINS
time	group	step	mark	flag	A-AC1	A-AC2	A-AC3	A-AC4	A-AC5	A-AC6	A-AC7	A-AC8	A-AC9	A-AC10	A-AC11	A-AC12	A-AC13	A-AC14	A-AC15	A-AC16	A-DC1	A-DC2	A-DC3	A-DC4	A-DC5	A-DC6	A-DC7	A-DC8	A-DC9	A-DC10	A-DC11	A-DC12	A-DC13	A-DC14	A-DC15	A-DC16	A-Ph1	A-Ph2	A-Ph3	A-Ph4	A-Ph5	A-Ph6	A-Ph7	A-Ph8	A-Ph9	A-Ph10	A-Ph11	A-Ph12	A-Ph13	A-Ph14	A-Ph15	A-Ph16	B-AC1	B-AC2	B-AC3	B-AC4	B-AC5	B-AC6	B-AC7	B-AC8	B-AC9	B-AC10	B-AC11	B-AC12	B-AC13	B-AC14	B-AC15	B-AC16	B-DC1	B-DC2	B-DC3	B-DC4	B-DC5	B-DC6	B-DC7	B-DC8	B-DC9	B-DC10	B-DC11	B-DC12	B-DC13	B-DC14	B-DC15	B-DC16	B-Ph1	B-Ph2	B-Ph3	B-Ph4	B-Ph5	B-Ph6	B-Ph7	B-Ph8	B-Ph9	B-Ph10	B-Ph11	B-Ph12	B-Ph13	B-Ph14	B-Ph15	B-Ph16	aux-1	digaux	

2932.986	1	1	0	256	0.14237	0.23163	0.058478	0.086692	0.15709	0.19589	0.29512	0.36994	0.13909	0.054875	0.31747	0.23308	0.18754	0.15431	0.21339	0.081144	-1.9937	-2.475	-2.6458	-2.3104	-2.7667	-2.5687	-2.3375	-2.6437	-2.2333	-2.3146	-2.7021	-2.2208	-2.7854	-2.5708	-2.2542	-2.8875	57.436	77.175	30.309	22.750	322.080	336.976	336.238	321.480	87.622	20.083	290.468	197.695	118.545	288.401	287.285	315.257	0.00010958	0.00023066	6.913e-05	364.86	6.5256e-06	8.5641e-06	472.58	131.73	3.3462e-06	8.5698e-06	197.25	81.575	48.988	21.345	6.1771e-06	38.446	0.001325	0.001233	0.00033713	438.39	1.4782e-05	1.3877e-05	533.09	156.11	1.5542e-05	1.4029e-05	231.66	95.139	59.989	25.262	1.5177e-05	44.537	197.813	89.527	115.288	-4.719	274.786	114.845	-5.377	0.768	70.345	84.645	-0.666	3.913	5.681	9.151	222.094	6.994	-8191	255	
2933.105	1	1	0	0	0.11265	0.20066	0.12454	0.22809	0.12351	0.051413	0.11826	0.1351	0.2681	0.034938	0.21103	0.17874	0.043615	0.082244	0.12827	0.36239	-1.7979	-2.2812	-2.65	-2.2208	-2.6521	-2.5208	-2.05	-2.6937	-2.3479	-2.4604	-2.9562	-2.2417	-2.5646	-2.6708	-2.2667	-2.8021	43.898	310.096	4.315	324.380	282.634	224.898	318.275	207.375	324.685	297.823	33.946	227.125	-10.176	336.867	288.822	312.744	0.00012968	0.00026089	0.00038758	369.57	6.0593e-06	8.1191e-06	476.09	130.55	2.2219e-06	6.05e-06	197.35	80.635	49.004	21.254	2.8943e-06	38.42	0.0014565	0.001361	0.00040578	452.62	1.6001e-05	1.5133e-05	546.14	158.08	1.6224e-05	1.456e-05	236.8	95.536	59.841	25.318	1.6827e-05	44.605	186.878	41.671	138.492	-5.120	158.417	126.455	-5.370	0.824	328.703	110.748	-1.038	3.668	5.326	9.210	149.539	7.497	-8191	255	
2933.201	1	1	0	0	0.24775	0.19559	0.04284	0.12426	0.088715	0.13311	0.17171	0.043571	0.25478	0.33227	0.19445	0.2109	0.26588	0.11288	0.067465	0.18812	-1.8146	-1.9937	-2.7729	-2.2146	-2.5563	-2.6188	-2.1292	-2.7521	-2.4688	-2.2833	-2.8792	-2.2396	-2.4667	-2.9083	-2.0042	-2.8646	3.835	-4.165	266.049	179.113	156.684	17.509	340.371	185.082	327.238	-14.977	-6.976	155.115	320.624	154.237	13.793	21.713	0.00016417	0.00062006	9.2093e-05	373.72	6.733e-06	3.8745e-06	473.45	131.19	5.0524e-06	1.2804e-06	199.5	80.723	48.946	21.411	7.9274e-06	38.648	0.0014336	0.0013567	0.00044403	454.39	1.5953e-05	1.5286e-05	555.52	158.46	1.6114e-05	1.4861e-05	240.25	94.984	59.335	25.293	1.7537e-05	44.227	205.798	244.062	131.134	-5.053	140.237	96.318	-5.788	0.846	109.530	319.774	-0.968	3.595	5.496	9.191	215.532	6.974	-8191	255	
2933.297	1	1	0	0	0.16148	0.10212	0.19408	0.15151	0.20154	0.26004	0.21086	0.28421	0.097502	0.27721	0.13535	0.12229	0.27818	0.2682	0.14291	0.0752	-2.05	-2.2021	-2.75	-2.3563	-2.4792	-2.7271	-2.1458	-2.75	-2.8167	-2.1625	-2.7938	-2.5187	-2.3604	-2.7604	-2.1729	-2.7125	116.417	175.575	117.780	50.837	180.952	144.057	78.052	334.440	324.884	315.029	28.752	185.993	172.679	284.020	141.452	264.859	1.7668e-05	0.0010505	0.00036606	370.32	6.7069e-06	8.2652e-06	473.46	129.18	2.0522e-06	8.0762e-06	195.82	79.94	48.047	21.061	7.5995e-06	37.515	0.0013567	0.0013535	0.00044955	445.99	1.4949e-05	1.5465e-05	553.41	155.64	1.554e-05	1.569e-05	238.95	93.535	58.561	25.431	1.8488e-05	43.256	254.074	99.262	91.342	-4.953	320.912	218.815	-5.702	0.867	89.173	193.312	-0.843	4.003	5.228	9.344	12.803	6.852	-8191	255	
2933.418	1	1	0	0	0.009104	0.19542	0.13833	0.099611	0.1788	0.26346	0.029843	0.18118	0.10956	0.12877	0.1373	0.13513	0.10785	0.21384	0.30163	0.21637	-2.1604	-2.2417	-3.0083	-2.4354	-2.3854	-2.7854	-2.1354	-2.4958	-2.6875	-2.1021	-2.8729	-2.7313	-2.3646	-2.8958	-2.2375	-2.6333	96.815	93.016	341.195	315.358	198.357	188.855	144.546	307.035	16.602	35.381	223.639	27.182	131.101	-16.517	31.808	261.894	3.9534e-05	0.00064116	0.00011125	368.17	1.1708e-06	9.1349e-06	470.89	127.95	4.8227e-06	5.1552e-06	194.68	79.236	47.644	20.802	3.8318e-06	37.258	0.0013649	0.001522	0.00047013	444.52	1.515e-05	1.7264e-05	554.41	154.6	1.5792e-05	1.773e-05	239.09	93.149	58.815	25.914	1.9632e-05	43.296	293.711	172.827	68.169	-4.873	249.248	180.582	-5.737	0.562	150.915	166.152	-1.138	4.061	5.457	9.151	110.998	6.927	-8191	255	
2933.514	1	1	0	0	0.19036	0.1127	0.10817	0.16858	0.29771	0.24997	0.26465	0.15365	0.20558	0.16724	0.20601	0.20571	0.27896	0.061333	0.17382	0.26363	-2.3729	-2	-2.5833	-2.3896	-2.1562	-2.8417	-2.0875	-2.3312	-2.65	-2.0604	-2.7729	-2.6542	-2.0542	-3	-2.3104	-2.4958	331.738	335.909	209.960	96.136	-3.610	252.705	267.131	273.513	249.804	204.853	-14.041	331.102	330.183	67.932	43.699	30.256	0.00017444	0.00094952	0.00036494	367.58	4.3519e-06	1.1438e-05	470.27	128.86	4.3117e-06	1.2751e-05	195.18	78.685	47.856	20.64	9.3386e-06	36.992	0.0014804	0.0017995	0.00050064	451.55	1.6993e-05	2.0452e-05	562	157.09	1.8073e-05	2.1397e-05	243.64	94.62	60.831	26.774	2.1693e-05	43.789	225.030	168.090	-11.589	-4.913	215.160	221.255	-5.434	0.579	280.862	178.339	-0.860	3.913	5.424	8.983	35.967	6.747	-8191	255	
2933.586	1	1	0	0	0.12699	0.1732	0.10775	0.077705	0.28634	0.037244	0.065069	0.079559	0.19576	0.13297	0.14433	0.14011	0.31735	0.37149	0.074009	0.1414	-2.325	-2.175	-2.825	-2.4042	-2.1646	-2.8208	-2.3833	-2.5438	-2.8083	-2.4313	-2.7062	-2.7292	-2.1604	-2.8563	-2.2979	-2.5333	35.340	-5.840	237.913	92.675	253.577	207.244	0.685	311.317	92.931	119.807	124.895	236.439	45.969	338.708	260.604	292.337	0.00027551	0.0014563	0.0001047	369.6	1.3126e-05	1.2642e-05	468.46	128.83	8.666e-06	8.9585e-06	195.28	78.74	47.686	20.585	1.3758e-05	36.845	0.0017824	0.0021727	0.00056044	464.45	2.1123e-05	2.4267e-05	573.67	161.04	2.1962e-05	2.4346e-05	247.81	95.974	63.264	27.14	2.1946e-05	43.833	193.276	33.737	46.463	-5.254	226.198	158.942	-5.750	0.676	223.340	33.278	-1.188	4.055	5.639	8.910	121.006	6.740	-8191	255	
2933.706	1	1	0	0	0.22766	0.094953	0.17015	0.098194	0.082576	0.16807	0.14669	0.24254	0.068144	0.12008	0.070195	0.18789	0.17313	0.15224	0.15256	0.19278	-2.425	-2.2625	-2.4604	-2.5208	-2.0979	-2.95	-2.5125	-2.2562	-2.8458	-2.3458	-2.4646	-2.8333	-2.1146	-2.8208	-2.55	-2.3979	163.011	80.098	15.820	244.083	35.795	114.065	193.361	15.954	18.350	285.605	160.607	217.737	324.808	223.033	283.850	306.702	0.0003428	0.0014743	0.00035057	366.72	9.1187e-06	1.1086e-05	470.12	129.55	3.6048e-06	8.5241e-06	194.26	78.033	47.329	20.209	2.948e-06	36.301	0.0019724	0.0021901	0.00055266	462.51	2.3141e-05	2.4188e-05	571.55	161.3	2.4491e-05	2.465e-05	247.04	95.92	64.858	26.867	2.2265e-05	43.647	200.663	-12.038	29.571	-5.045	224.588	21.472	-5.686	0.849	260.222	339.143	-1.571	3.798	5.453	9.162	40.497	6.944	-8191	255	
2933.801	1	1	0	0	0.13453	0.15116	0.066483	0.10414	0.32216	0.14937	0.16518	0.29585	0.11873	0.39542	0.1143	0.067838	0.32392	0.12242	0.086775	0.13194	-2.5292	-2.1458	-2.3375	-2.9604	-2.2417	-2.6667	-2.7125	-2.3688	-2.7438	-2.1292	-2.4813	-2.9208	-2.1229	-2.6729	-2.4833	-2.2125	183.728	-13.343	36.043	303.611	274.726	140.251	145.155	149.462	326.634	162.037	283.918	220.563	23.467	133.843	-13.354	54.099	0.00014206	0.00028063	0.00010507	364.95	1.1714e-05	9.2268e-06	461.67	126.54	2.687e-06	5.4569e-06	192	76.809	46.968	20.08	9.4948e-06	35.741	0.0021515	0.0021676	0.00054138	463.06	2.4492e-05	2.3059e-05	560.47	161.05	2.4989e-05	2.3668e-05	242.83	96.034	65.338	26.589	2.246e-05	44.136	183.155	48.340	22.416	-4.966	233.679	91.764	-5.541	0.555	171.635	31.900	-1.723	4.358	5.539	8.868	131.213	7.506	-8191	255	
2933.897	1	1	0	0	0.035276	0.081746	0.075595	0.15656	0.13743	0.43267	0.16602	0.24563	0.094256	0.071594	0.050797	0.075098	0.17574	0.2568	0.14923	0.17801	-2.3458	-2.1729	-2.2854	-2.9542	-2.1625	-2.5167	-2.6625	-2.1354	-2.7417	-2.6146	-2.3771	-2.7	-2.3187	-2.5938	-2.6937	-2.0125	320.610	263.206	275.847	244.549	77.672	152.757	267.606	229.828	116.680	299.349	311.445	224.908	260.392	263.672	95.646	298.337	0.00019312	0.00047259	0.00015286	364.07	4.3501e-06	1.651e-05	459.36	126.8	5.4454e-06	5.4439e-06	191.47	76.375	47.065	19.927	9.3021e-06	35.664	0.0023	0.0022154	0.00056059	477.35	2.6262e-05	2.3711e-05	564.06	165.98	2.6055e-05	2.3899e-05	243.19	98.048	65.291	26.471	2.2346e-05	45.013	177.806	199.264	285.410	-4.992	-1.059	36.958	-5.558	0.609	96.760	109.882	-1.192	4.150	5.138	8.714	178.826	6.814	-8191	255	
2933.993	1	1	0	0	0.1706	0.12906	0.18682	0.1917	0.2985	0.22587	0.0029261	0.2002	0.03035	0.11637	0.19567	0.096758	0.088589	0.19346	0.12518	0.22757	-2.2604	-2.4542	-2.0958	-2.7833	-2.1896	-2.5771	-2.7708	-2.1562	-2.6271	-2.4042	-2.2854	-2.975	-2.2021	-2.4917	-2.8979	-2.2062	4.562	190.261	156.296	98.136	318.691	171.295	221.157	308.834	293.102	86.928	11.951	310.605	243.750	139.066	244.518	87.129	1.1725e-05	0.00045894	0.00039309	365.17	4.535e-06	4.0067e-06	462.24	127.72	1.764e-06	6.5622e-06	191	76.696	46.975	20.038	4.9493e-06	35.614	0.0022394	0.002176	0.00055832	487.3	2.5839e-05	2.3246e-05	566.85	169.58	2.5341e-05	2.3625e-05	245.32	99.654	65.125	26.408	2.348e-05	45.66	123.327	231.065	113.444	-4.773	98.786	54.498	-5.810	0.360	173.362	77.490	-1.145	3.939	5.166	8.959	161.882	7.226	-8191	255	
2934.089	1	1	0	0	0.027927	0.093699	0.14786	0.040082	0.096756	0.062794	0.14519	0.13667	0.14705	0.21585	0.13014	0.24987	0.16748	0.076067	0.10845	0.16047	-2.3458	-2.3896	-2.1146	-2.8542	-2.1208	-2.4271	-3.0521	-2.0917	-2.8771	-2.75	-2.2021	-2.9833	-2.3	-2.4708	-2.8729	-2.1458	15.647	191.913	248.978	298.645	217.904	273.690	197.760	312.476	-14.057	176.195	270.621	288.798	115.856	9.452	281.054	225.129	8.7673e-05	0.0006859	0.00028246	365.82	1.1025e-05	1.1241e-05	460.35	128.12	2.7544e-06	5.99e-06	189.92	76.634	46.766	19.878	7.2977e-06	35.528	0.0022011	0.0021723	0.00060007	497.18	2.5441e-05	2.3044e-05	576.17	171.73	2.4854e-05	2.3314e-05	249.96	100.06	64.57	26.089	2.5041e-05	45.65	203.205	316.128	131.099	-4.719	67.281	70.651	-5.304	0.459	26.774	144.057	-0.921	3.513	5.155	8.915	235.718	7.116	-8191	255	
2934.185	1	1	0	0	0.13275	0.040579	0.22286	0.05263	0.21702	0.15528	0.17443	0.19568	0.12828	0.31956	0.37622	0.16586	0.16639	0.26189	0.028661	0.31358	-2.1354	-2.6917	-2.0125	-2.6333	-2.3563	-2.2104	-2.7125	-2.4021	-2.6333	-2.8521	-2.2167	-2.9437	-2.5021	-2.15	-2.6625	-2.3833	232.544	71.381	161.889	254.244	136.742	188.812	277.685	308.457	194.154	10.930	251.042	235.308	333.235	295.460	111.371	14.778	0.00020666	0.00051206	0.00047029	365.69	1.4585e-05	6.3453e-06	457.03	127.24	7.7566e-06	3.6292e-06	187.9	75.148	46.247	19.71	4.3205e-06	35.036	0.0021151	0.0020913	0.00064108	491.76	2.4434e-05	2.2276e-05	580.39	169.74	2.4042e-05	2.2894e-05	251.96	98.062	63.61	25.916	2.691e-05	44.697	209.748	245.256	141.458	-5.317	14.390	14.075	-5.265	0.595	67.995	317.362	-0.983	3.779	5.626	8.751	207.247	6.949	-8191	255	
2934.281	1	1	0	0	0.18716	0.33173	0.14526	0.24608	0.21153	0.072006	0.20791	0.13063	0.12688	0.28651	0.25267	0.07886	0.084804	0.10033	0.020024	0.11471	-2.0646	-2.75	-2.2458	-2.7125	-2.6188	-2.1729	-2.9354	-2.2729	-2.4062	-2.9792	-1.9146	-2.7687	-2.6667	-2.225	-2.9271	-2.4188	255.922	252.027	-16.222	272.657	338.987	178.827	278.590	27.031	125.855	91.510	322.404	283.280	129.148	-17.133	88.243	232.404	6.0515e-05	0.0004291	0.00016028	360.71	9.0406e-06	5.6586e-06	450.78	125.85	5.1164e-06	1.5894e-05	185.95	75.111	45.982	19.833	5.5481e-06	35.306	0.0020528	0.0021062	0.00068005	480.75	2.3379e-05	2.2288e-05	578.83	165.93	2.2481e-05	2.2961e-05	252.36	96.218	62.275	26.146	2.6818e-05	44.401	72.137	112.203	181.190	-5.301	120.477	219.850	-5.176	0.447	102.865	209.592	-1.397	3.810	5.570	9.012	20.318	7.105	-8191	255	
2934.378	1	1	0	0	0.15979	0.21855	0.10075	0.078723	0.13131	0.10897	0.28706	0.047366	0.084124	0.018318	0.16133	0.18134	0.0024794	0.20982	0.058468	0.2438	-2.1521	-2.7146	-2.0958	-2.6521	-2.5792	-2.1792	-2.7646	-2.5625	-2.3333	-2.75	-2.3	-2.7396	-2.6604	-2.2	-2.7479	-2.5458	301.676	156.525	104.938	61.500	234.771	287.512	317.102	302.342	-4.358	295.303	326.265	241.437	22.494	-3.651	191.953	247.048	8.7933e-05	0.0015759	0.00025717	357.09	5.4132e-06	7.0898e-06	454.72	125.68	3.6362e-06	1.4223e-05	188.43	75.062	46.444	19.868	7.6477e-06	35.41	0.0019393	0.0021798	0.00068214	472.63	2.2475e-05	2.3637e-05	578.34	163.94	2.1527e-05	2.4054e-05	251.87	95.35	61.572	26.561	2.4861e-05	43.778	141.350	125.337	98.412	-4.973	314.786	234.752	-5.482	0.702	82.631	154.968	-0.687	4.159	5.516	9.443	73.771	6.774	-8191	255	
2934.498	1	1	0	0	0.10961	0.10042	0.24675	0.09002	0.026571	0.34584	0.15818	0.17208	0.0511	0.16405	0.23187	0.25087	0.2037	0.29818	0.13588	0.35767	-1.9417	-2.8167	-2.1708	-2.6354	-2.6813	-2.3292	-2.8312	-2.6646	-2.4208	-2.8125	-2.4542	-2.3937	-2.6979	-2.0979	-2.7771	-2.4562	278.330	222.546	10.955	192.201	3.633	120.813	186.906	-6.899	50.780	188.630	26.022	224.964	136.764	6.350	121.757	334.288	0.00020849	0.0018877	0.00038089	358.59	4.4261e-06	9.6751e-06	450.9	123.83	3.7687e-06	1.3705e-05	188.09	75.573	46.036	19.931	6.8533e-06	35.961	0.0017843	0.0021752	0.00062639	462.25	2.0814e-05	2.4055e-05	568.19	161.07	2.0461e-05	2.4507e-05	248.49	94.424	61.381	26.784	2.3075e-05	43.613	159.067	95.095	334.104	-5.354	333.800	267.156	-5.591	0.723	171.580	221.277	-1.561	4.018	5.366	9.069	100.415	6.834	-8191	255	
2934.594	1	1	0	0	0.031635	0.012259	0.23022	0.12919	0.079821	0.33434	0.13733	0.22902	0.21385	0.049244	0.19531	0.063531	0.23652	0.1366	0.093327	0.14921	-1.6271	-2.8187	-2.2125	-2.3979	-2.9313	-2.1854	-2.5083	-2.6875	-2.2771	-2.7667	-2.3187	-2.6021	-2.7833	-2.2062	-2.5271	-2.6958	192.133	216.081	98.353	27.363	71.862	31.912	113.277	208.720	247.654	237.897	336.720	-14.164	0.403	18.852	60.275	201.983	0.00023416	0.00061947	0.00011137	358.88	1.7329e-05	1.6479e-05	458.36	125.69	7.8547e-06	1.1044e-05	187.27	75.588	46.384	19.997	1.0392e-05	35.626	0.0017503	0.0021682	0.00057024	453.32	2.042e-05	2.3534e-05	559.03	158.16	2.0305e-05	2.3604e-05	240.99	92.43	61.495	26.493	2.0973e-05	42.603	170.194	88.823	230.714	-5.126	223.448	148.685	-5.689	0.546	187.243	66.464	-1.115	3.885	5.865	9.298	56.958	7.082	-8191	255	
2934.689	1	1	0	0	0.2068	0.10942	0.14405	0.149	0.21617	0.38751	0.18681	0.094082	0.38056	0.14614	0.16891	0.20915	0.19669	0.07473	0.28245	0.13328	-1.7208	-2.9979	-2.275	-2.4021	-2.7917	-2.2625	-2.5625	-2.5417	-2.0896	-3.0312	-2.3458	-2.2604	-2.9229	-2.2542	-2.5312	-2.7542	194.562	191.670	11.025	341.788	170.345	102.360	280.132	252.668	37.491	140.420	318.207	246.724	13.402	167.517	252.795	10.378	0.00033768	0.00078262	0.00027005	356.77	1.8086e-05	1.2447e-05	451.13	123.95	7.0325e-06	7.9796e-06	185.81	74.963	45.901	19.964	1.4059e-05	35.498	0.0018054	0.0020807	0.00052816	443.53	2.0852e-05	2.2142e-05	543.98	154.53	2.061e-05	2.1681e-05	234.77	90.519	61.229	25.972	1.9393e-05	42.17	217.899	41.290	318.194	-4.771	205.142	86.982	-5.669	0.520	251.028	77.823	-1.584	3.578	5.702	8.788	70.295	6.966	-8191	255	
2934.787	1	1	0	0	0.17023	0.19189	0.065353	0.25192	0.38721	0.17583	0.17975	0.041974	0.1794	0.13671	0.071479	0.046473	0.11183	0.27542	0.087724	0.10973	-1.8104	-2.7562	-2.3688	-2.3438	-2.7979	-2.3792	-2.4292	-2.8312	-2.2583	-2.7458	-2.4771	-2.3854	-2.9042	-2.3458	-2.4542	-2.8604	214.221	-17.049	90.488	262.607	143.704	34.645	214.147	335.080	249.086	91.832	30.355	269.334	322.634	328.848	-11.960	199.958	0.00025965	0.0010349	3.297e-05	355.6	6.4622e-06	2.8333e-06	451.69	124.33	2.4274e-06	7.444e-06	186.79	75.494	46.19	20.162	5.9097e-06	36.128	0.001876	0.0019487	0.00050478	442.12	2.1777e-05	2.1186e-05	541.67	154.75	2.1877e-05	2.0666e-05	233.58	91.347	61.92	25.847	1.8876e-05	42.821	196.691	-3.333	339.845	-5.005	253.119	187.466	-5.597	0.828	177.118	27.032	-1.057	4.242	5.548	9.192	69.826	7.423	-8191	255	
2934.881	1	1	0	0	0.33057	0.095205	0.076101	0.2677	0.23032	0.080161	0.1664	0.032929	0.23769	0.20355	0.32861	0.23338	0.15776	0.020211	0.1756	0.22281	-1.7292	-2.775	-2.6208	-2.1979	-2.7333	-2.3563	-2.3792	-2.8896	-2.2021	-2.6458	-2.6229	-2.2396	-2.8375	-2.3646	-2.3	-2.9562	30.542	212.117	231.543	236.013	342.029	273.666	-4.488	90.093	205.820	21.951	308.908	-11.659	260.567	249.078	303.092	292.728	7.5179e-05	0.00048089	0.00041511	359.43	1.2611e-06	7.111e-06	453.49	124.84	4.8895e-06	6.752e-06	187.99	76.323	46.791	20.192	4.2616e-06	35.947	0.0019612	0.0018951	0.0004961	451.43	2.2682e-05	2.0906e-05	542.27	158.59	2.2783e-05	2.0468e-05	235.02	93.897	62.838	25.892	1.8723e-05	43.761	258.062	-12.769	20.055	-4.716	61.545	49.934	-5.577	0.776	174.279	267.113	-0.897	4.353	5.385	9.161	119.754	7.230	-8191	255	
2934.977	1	1	0	0	0.055513	0.11344	0.19591	0.15972	0.16929	0.17848	0.16672	0.219	0.073475	0.062679	0.074578	0.19558	0.12405	0.020071	0.076369	0.1534	-1.7708	-2.6229	-2.6542	-2.35	-2.7	-2.4167	-2.2687	-2.8688	-2.1833	-2.6958	-2.7604	-2.0958	-2.9083	-2.4125	-2.3708	-3.0187	190.633	168.366	23.458	8.930	102.491	132.635	26.928	267.056	202.536	213.599	328.450	272.777	27.769	113.663	182.368	169.594	8.3871e-05	0.00089324	0.00015248	356.59	1.2094e-05	8.143e-06	452.88	125.57	1.1038e-05	6.9569e-06	190.38	76.464	46.835	20.154	4.265e-06	35.695	0.0019855	0.0018541	0.00049608	461.63	2.2588e-05	2.0969e-05	544.48	162.92	2.2972e-05	2.0749e-05	237.78	96.357	62.94	25.969	1.9833e-05	44.471	118.420	11.942	28.818	-4.942	27.272	128.802	-5.634	0.973	64.478	92.867	-0.966	3.972	4.983	9.119	333.793	7.007	-8191	255	
2935.098	1	1	0	0	0.15443	0.15585	0.044626	0.20907	0.14277	0.11785	0.096894	0.27944	0.17056	0.21516	0.11843	0.09892	0.19014	0.23671	0.24935	0.16269	-2.1229	-2.4938	-2.7188	-2.0938	-2.5917	-2.4583	-2.1312	-3.0104	-2.4167	-2.3354	-2.6417	-2.1958	-2.7271	-2.4146	-2.2417	-3.0021	64.009	323.900	19.992	306.714	-7.146	149.342	216.796	282.446	185.226	246.482	195.773	148.022	327.130	292.721	28.197	259.358	3.5696e-05	0.00074579	0.00032171	355.8	3.6659e-06	6.1262e-06	449.81	124.08	2.578e-06	1.2392e-05	182.79	74.249	46.204	19.81	1.189e-05	34.983	0.0019786	0.001865	0.00051954	470.09	2.2067e-05	2.0908e-05	546.02	163.85	2.235e-05	1.9884e-05	237.48	95.929	61.794	25.585	2.1013e-05	44.052	153.058	-3.499	140.692	-5.387	4.011	112.131	-5.493	0.446	264.631	60.977	-1.310	3.544	5.189	9.055	208.609	7.238	-8191	255	
2935.194	1	1	0	0	0.10653	0.20613	0.23399	0.12554	0.2434	0.11147	0.11307	0.32226	0.031608	0.33716	0.20488	0.29725	0.091236	0.29245	0.16608	0.30137	-1.9271	-2.3396	-2.7562	-2.1917	-2.7125	-2.7229	-2.225	-2.8187	-2.4875	-2.4375	-2.7771	-2.275	-2.55	-2.4771	-2.0604	-3.0417	250.027	309.332	288.185	91.310	10.427	59.311	331.948	267.316	34.736	161.186	12.606	310.323	3.225	113.091	328.340	152.072	0.00010581	0.00041803	0.00029895	355.12	1.0101e-05	4.4008e-06	443.92	123.49	3.6308e-06	6.3996e-06	184.55	74.476	46.001	19.855	1.8177e-05	35.103	0.0019067	0.0017892	0.00055154	468.05	2.1101e-05	2.0092e-05	552.76	162.6	2.1557e-05	1.9606e-05	242.05	95.704	61.336	25.503	2.284e-05	43.826	162.697	175.846	201.256	-5.275	90.575	91.845	-5.534	0.599	261.748	19.172	-0.800	3.288	5.379	8.930	207.655	6.603	-8191	255	
2935.290	1	1	0	0	0.21184	0.1187	0.063048	0.2362	0.25322	0.23687	0.10172	0.078374	0.15348	0.17213	0.18625	0.31769	0.39501	0.16298	0.18377	0.13615	-2.1333	-2.2	-2.85	-2.1479	-2.4458	-2.7771	-2.0146	-2.8792	-2.4562	-2.1417	-2.8354	-2.3896	-2.3521	-2.7021	-2.2604	-2.775	-4.224	58.137	-2.324	326.918	309.916	209.806	315.188	236.401	302.419	17.929	257.455	242.960	26.934	338.537	80.197	329.845	0.00012436	0.00082109	0.0001354	357.42	1.025e-05	7.3822e-06	451.91	125.59	5.2752e-06	8.6141e-06	188.09	75.991	46.524	20.205	4.374e-06	35.856	0.0018792	0.0017752	0.00059613	466.66	2.0607e-05	2.0031e-05	562.05	161.85	2.091e-05	1.9643e-05	245.44	95.186	60.752	25.73	2.3549e-05	43.669	239.096	54.979	222.911	-4.779	106.256	248.791	-5.425	0.517	15.796	262.104	-1.061	3.851	4.912	9.449	224.044	6.857	-8191	255	
2935.386	1	1	0	0	0.20375	0.215	0.086534	0.24805	0.11009	0.34083	0.27957	0.070977	0.12631	0.31975	0.07009	0.22284	0.24743	0.14472	0.18423	0.080888	-2.2562	-2.2562	-2.7562	-2.3875	-2.4979	-2.8146	-2.375	-2.7167	-2.5438	-2.1042	-2.8875	-2.5125	-2.4062	-2.9	-1.9083	-2.6417	100.041	0.235	187.125	180.382	167.910	-0.200	331.028	306.388	234.173	280.348	291.686	63.175	-10.773	13.653	231.788	302.887	0.00011374	0.00088739	0.00010813	357.86	4.765e-06	1.3815e-05	453.24	126.26	3.8713e-06	7.2029e-06	189.18	75.746	46.629	20.263	9.2461e-06	36.077	0.0017829	0.0018293	0.00060098	461.99	1.9586e-05	2.0737e-05	565.12	160.15	2.0056e-05	2.0755e-05	245.9	94.389	60.245	26.193	2.3005e-05	43.481	201.253	105.959	121.906	-5.023	128.794	290.480	-5.467	0.670	134.141	146.666	-1.255	3.821	5.565	9.561	75.478	7.158	-8191	255	
2935.482	1	1	0	0	0.15032	0.23861	0.11145	0.092778	0.099253	0.2123	0.25908	0.062697	0.17011	0.30327	0.12824	0.12092	0.089962	0.075758	0.16273	0.16575	-2.4062	-2.1208	-2.9229	-2.3646	-2.4396	-2.8833	-2.1854	-2.675	-2.3458	-2.2438	-2.5292	-2.6125	-2.1521	-2.8563	-2.1729	-2.625	226.647	97.025	32.613	299.263	89.237	157.500	339.045	-13.633	325.200	-16.481	274.350	256.116	295.171	161.531	41.887	7.870	0.00016807	0.00087997	0.00032787	358.86	6.9425e-06	7.3183e-06	453.44	126.18	2.9704e-06	1.0925e-05	188.11	76.51	46.58	20.117	5.0993e-06	36.049	0.0016809	0.0019194	0.00057381	456.23	1.8451e-05	2.1703e-05	561.07	158.44	1.9073e-05	2.1847e-05	242.25	93.579	59.862	26.339	2.2002e-05	42.73	162.266	92.059	-15.013	-4.772	77.071	266.142	-5.308	0.327	37.810	109.034	-1.553	4.071	5.270	9.567	101.272	6.944	-8191	255	
2935.579	1	1	0	0	0.069955	0.2466	0.11853	0.061822	0.045739	0.19987	0.10685	0.28663	0.18399	0.20289	0.20748	0.27856	0.013684	0.094656	0.077585	0.10224	-2.2812	-2.2271	-2.7396	-2.6813	-2.3104	-2.8542	-2.4437	-2.4917	-2.7646	-2.3042	-2.8021	-2.6437	-2.1562	-3.1021	-2.4104	-2.6771	130.086	32.767	192.425	335.865	31.866	28.798	88.612	239.698	248.027	263.658	19.445	291.258	6.626	12.010	297.506	235.433	0.00021212	0.00028729	0.00025544	357.25	1.0282e-05	1.1611e-05	454.18	125.72	1.2388e-05	3.6446e-06	185.84	75.835	46.182	20.079	5.4227e-06	35.505	0.0016654	0.0020161	0.0005389	449.86	1.8432e-05	2.2198e-05	549.77	155.44	1.9103e-05	2.2223e-05	236.77	91.841	59.786	26.314	2.0825e-05	42.143	186.365	169.048	-3.656	-5.078	264.978	124.569	-5.417	0.557	237.830	164.650	-0.911	3.955	5.571	9.499	94.659	6.959	-8191	255	
2935.675	1	1	0	0	0.15324	0.32614	0.090244	0.24792	0.053945	0.34364	0.19836	0.10725	0.25079	0.19092	0.20446	0.16856	0.16533	0.22999	0.077177	0.27418	-2.3833	-2.2938	-2.65	-2.55	-2.1688	-2.9188	-2.3229	-2.5729	-2.7521	-2.1354	-2.5479	-2.8104	-2.1875	-2.9521	-2.3333	-2.2854	137.879	295.813	25.771	136.097	-8.184	186.774	314.227	56.164	335.486	141.763	27.825	327.666	61.353	299.680	101.142	314.439	0.00025374	0.00073301	4.3602e-05	356.7	1.3761e-05	8.6167e-06	448.04	125.51	8.1981e-06	1.2177e-05	185.04	75.347	46.418	20.181	1.9082e-06	35.502	0.0017489	0.0020701	0.00052111	447.61	2.0336e-05	2.2853e-05	549.35	155.72	2.1201e-05	2.3026e-05	235.99	91.99	61.73	26.469	2.0819e-05	42.21	187.804	74.039	300.134	-5.267	242.247	111.932	-5.846	0.428	224.262	76.246	-1.327	3.942	5.878	9.005	28.678	7.033	-8191	255	
2935.794	1	1	0	0	0.23718	0.11892	0.20654	0.20445	0.14588	0.094889	0.059015	0.35508	0.15097	0.16118	0.4229	0.068939	0.030064	0.12862	0.14751	0.081885	-2.5625	-2.1604	-2.35	-2.6958	-2.2812	-2.7625	-2.6063	-2.1542	-2.8312	-2.25	-2.3021	-2.7875	-2.125	-2.8083	-2.6167	-2.2146	11.167	33.766	250.795	338.412	223.636	221.882	227.200	223.067	-1.338	6.870	232.472	102.278	246.075	53.880	308.144	229.353	0.00025142	0.00099731	0.00041228	356.54	1.1178e-05	5.7602e-06	453.31	125.23	9.1694e-06	7.0033e-06	188.3	75.812	46.878	20.33	4.5736e-06	35.533	0.0019208	0.0020694	0.0005156	447.37	2.213e-05	2.2326e-05	549.5	156.39	2.2826e-05	2.243e-05	237.07	92.902	63.167	26.26	2.0257e-05	42.619	220.737	293.241	40.073	-4.929	275.312	124.345	-5.746	0.984	224.389	6.042	-1.125	4.227	5.842	8.803	54.132	7.322	-8191	255	
2935.890	1	1	0	0	0.23279	0.10377	0.12216	0.2	0.30085	0.12822	0.098055	0.042262	0.055562	0.23925	0.12739	0.036734	0.34364	0.1203	0.24686	0.41136	-2.3	-2.325	-2.3563	-2.8917	-2.0833	-2.7354	-2.625	-2.4062	-2.925	-2.3146	-2.5521	-2.7167	-2.3083	-2.5875	-2.5583	-2.1104	2.356	45.685	193.570	54.216	132.300	109.622	221.153	327.243	84.228	36.608	319.295	119.109	80.154	258.674	329.277	230.110	0.00017695	0.00063497	0.00013624	359.97	6.9587e-06	7.5657e-06	456.39	125.83	2.3504e-06	1.3044e-05	188.37	76.724	46.985	20.462	1.2805e-06	35.803	0.002006	0.0019889	0.00049563	454.16	2.289e-05	2.1067e-05	547.57	157.99	2.3061e-05	2.123e-05	234.84	94.106	63.199	26.005	1.939e-05	43.279	232.534	-7.211	325.011	-5.075	228.228	53.939	-5.290	1.061	72.826	7.310	-1.314	4.395	5.194	9.124	108.670	7.158	-8191	255	
2935.986	1	1	0	0	0.22694	0.30919	0.18692	0.15828	0.058279	0.15502	0.26326	0.089985	0.13075	0.39377	0.17904	0.12916	0.21656	0.087477	0.142	0.2427	-2.4229	-2.3375	-2.2396	-2.7458	-2.0312	-2.5896	-2.7792	-2.4521	-2.7604	-2.5438	-2.3958	-3.0417	-2.1146	-2.7208	-2.8021	-2.1708	113.261	162.228	222.055	318.047	267.176	308.602	103.665	25.372	287.178	94.751	28.237	82.193	156.960	207.296	-15.195	0.925	0.00010203	0.00047264	0.00019423	357.12	1.4447e-05	1.1866e-05	451.48	125.15	4.3248e-06	7.4873e-06	185.9	75.496	46.564	20.017	3.0292e-06	35.632	0.0019567	0.0018751	0.00046925	457.28	2.2293e-05	2.0018e-05	541.27	159.47	2.2057e-05	2.0283e-05	231.18	94.067	62.123	25.556	1.899e-05	43.368	234.694	46.924	310.771	-4.852	84.886	88.909	-5.377	0.889	96.590	23.176	-1.111	4.221	5.635	8.937	272.333	7.305	-8191	255	
2936.058	1	1	0	0	0.11898	0.11397	0.23793	0.065456	0.17833	0.16779	0.12814	0.031089	0.045826	0.092328	0.34045	0.33597	0.10495	0.341	0.27611	0.050382	-2.4125	-2.3375	-2.2417	-2.9437	-2.1833	-2.6021	-2.9583	-2.1604	-2.6896	-2.4833	-2.3833	-2.8833	-2.3438	-2.3604	-2.8021	-2.1896	230.521	62.793	197.674	127.595	242.830	273.199	318.173	186.617	19.019	242.223	-7.620	313.863	211.042	294.983	274.586	257.341	0.00011895	0.00037148	0.00010744	358.22	1.176e-05	5.8918e-06	452.41	125.85	8.3083e-06	9.3167e-06	185.12	75.224	46.306	20.096	1.1936e-05	35.279	0.0018782	0.0018326	0.00047311	463.2	2.1744e-05	1.9557e-05	542.28	161.95	2.162e-05	2.0287e-05	233.65	95.409	62.105	25.612	2.0554e-05	43.953	169.295	291.224	115.828	-5.247	32.242	82.556	-5.526	1.001	55.665	102.105	-1.262	4.036	5.364	8.890	219.821	7.005	-8191	255	
2936.178	1	1	0	0	0.033069	0.11748	0.077058	0.10824	0.17963	0.24344	0.14763	0.023854	0.0077475	0.051185	0.1263	0.2278	0.17353	0.24754	0.18624	0.29778	-2.4062	-2.5812	-2.225	-2.7917	-2.5	-2.2833	-2.9021	-2.0083	-2.525	-2.8042	-2.1937	-2.6917	-2.4896	-2.4021	-2.8542	-2.3417	181.571	320.023	65.700	341.655	45.644	66.197	228.190	150.966	238.505	185.634	52.988	31.645	106.867	327.900	61.250	262.937	0.0001458	0.00092395	0.0003918	359.68	1.2575e-05	9.9239e-06	450.76	125.37	6.026e-06	5.094e-06	186.92	75.715	46.685	20.379	1.2307e-05	35.626	0.001902	0.0018737	0.00052967	472.96	2.2204e-05	1.9912e-05	554.71	164.94	2.1751e-05	2.0561e-05	239.58	96.111	62.378	25.661	2.2633e-05	44.144	179.457	336.446	128.332	-4.977	126.670	102.549	-5.497	1.186	123.000	228.899	-1.148	4.062	5.722	9.273	205.265	7.135	-8191	255	
2936.274	1	1	0	0	0.036631	0.21035	0.060029	0.06587	0.28673	0.12491	0.17543	0.05775	0.078054	0.13781	0.22646	0.11672	0.13694	0.20534	0.14494	0.044596	-2.2458	-2.8854	-2.2021	-2.9146	-2.5667	-2.2625	-2.8833	-2.3083	-2.5812	-2.8417	-2.2479	-2.8979	-2.5812	-2.3958	-3.125	-2.3104	63.740	308.726	1.759	269.961	252.645	217.694	43.392	179.494	61.618	-7.713	329.483	309.014	-1.602	154.283	259.883	-16.821	6.6306e-05	0.00052965	0.00025164	356.61	5.8589e-06	4.2507e-06	453.07	125.73	5.856e-06	7.6302e-06	185.79	75.174	46.906	20.459	1.1818e-05	35.67	0.0018675	0.001844	0.00057985	470.71	2.1649e-05	1.9793e-05	565.23	164.31	2.1325e-05	2.0748e-05	246.36	95.962	62.758	26.059	2.4996e-05	44.617	135.732	79.778	100.743	-4.615	119.471	137.627	-4.895	0.792	94.926	28.430	-0.789	4.134	5.503	8.927	112.942	7.319	-8191	255	
2936.370	1	1	0	0	0.13471	0.16918	0.18492	0.24165	0.086932	0.14417	0.23688	0.15963	0.12239	0.15802	0.11934	0.19236	0.064581	0.16309	0.020356	0.15307	-2.2521	-2.8583	-2.3688	-2.6458	-2.6688	-2.2208	-2.8625	-2.375	-2.4333	-2.7167	-2.25	-2.7604	-2.5958	-2.1708	-2.925	-2.3271	-16.673	261.761	79.554	167.097	152.826	2.428	135.421	317.193	169.000	90.897	296.300	267.240	282.933	50.765	29.936	254.800	0.00014568	0.0010836	3.7962e-05	363.13	5.316e-06	1.4893e-05	452.75	126.42	8.1342e-06	4.2286e-06	186.6	75.726	46.944	20.159	3.8657e-06	34.992	0.0018911	0.0019888	0.00064612	473.29	2.2189e-05	2.1664e-05	575.17	165.43	2.177e-05	2.2801e-05	251.5	96.136	62.884	26.536	2.6564e-05	44.016	199.916	31.363	271.818	-5.111	128.950	204.503	-5.474	0.608	131.158	116.607	-0.987	3.496	5.388	9.209	228.578	6.814	-8191	255	
2936.467	1	1	0	0	0.18583	0.20947	0.14434	0.35377	0.17724	0.089987	0.2191	0.13774	0.22746	0.29094	0.13974	0.15353	0.092164	0.012441	0.15931	0.1513	-1.8292	-2.6917	-2.2479	-2.6167	-2.5812	-2.1667	-2.9354	-2.3583	-2.2292	-2.9021	-2.2979	-2.8333	-2.6208	-2.1667	-2.8042	-2.5438	321.538	-12.407	299.680	240.311	251.559	95.148	339.541	4.602	274.775	185.482	132.710	244.526	295.982	-16.202	235.940	316.123	0.00018432	0.0012886	0.00017282	358.5	7.0918e-06	1.3931e-05	444.25	124.86	5.4665e-06	1.4541e-05	182.46	73.923	46.09	19.703	9.5484e-06	34.215	0.0019256	0.0022305	0.00069128	475.49	2.3022e-05	2.5122e-05	578.92	166.61	2.2995e-05	2.6735e-05	254.52	96.05	63.604	27.546	2.8615e-05	44.195	209.902	123.687	311.034	-4.956	129.809	229.522	-5.576	0.248	117.667	182.798	-1.699	3.568	5.493	9.103	75.200	6.933	-8191	255	
2936.587	1	1	0	0	0.16487	0.1726	0.053628	0.061085	0.070904	0.2414	0.12785	0.15495	0.1867	0.10496	0.081797	0.28632	0.20792	0.14214	0.034321	0.21955	-1.7979	-2.7792	-2.2854	-2.5938	-2.5854	-2.05	-2.7438	-2.7979	-2.4333	-3.0979	-2.2583	-2.4458	-2.7938	-2.2792	-2.8937	-2.6021	118.526	292.138	336.857	213.026	309.214	66.166	-4.173	7.018	191.026	161.892	65.302	335.404	317.471	292.289	262.569	31.246	0.00024398	0.0010656	0.00038189	359.12	8.3178e-06	2.1409e-05	448.38	124.93	5.3306e-06	1.0252e-05	184.04	74.275	47.252	19.874	8.0084e-06	34.236	0.0021121	0.0026545	0.00074593	485.67	2.5752e-05	3.0168e-05	591.04	171.23	2.6464e-05	3.2154e-05	262.71	98.839	67.433	29.2	3.1343e-05	45.196	212.015	108.068	316.859	-4.865	81.327	221.301	-5.483	0.588	17.729	187.553	-1.164	3.915	5.246	9.018	75.634	6.925	-8191	255	
2936.682	1	1	0	0	0.31818	0.10424	0.25644	0.12724	0.36981	0.21524	0.13413	0.046028	0.24421	0.29843	0.29729	0.21624	0.15565	0.083054	0.16849	0.13823	-1.8542	-2.8667	-2.1458	-2.1229	-2.8896	-2.0854	-2.7646	-2.7208	-2.3917	-2.8083	-2.6292	-2.4292	-2.9042	-2.2917	-2.7583	-2.5583	30.685	-11.315	292.835	27.321	235.595	267.097	265.318	270.469	184.132	39.322	288.592	-14.042	124.773	251.394	269.955	207.875	0.00026381	0.00075172	0.00033547	362.3	1.2284e-05	9.4384e-06	452.59	126.75	1.6833e-05	7.4762e-06	185.77	74.248	47.37	19.893	7.5472e-07	34.367	0.002507	0.0031036	0.00080781	498.27	2.9912e-05	3.4152e-05	598.14	173.44	3.0038e-05	3.4063e-05	264.31	99.265	69.628	29.708	3.1241e-05	45.244	200.661	129.792	337.478	-5.288	198.151	115.772	-5.757	0.639	232.495	75.012	-1.295	3.415	6.062	8.754	204.679	7.129	-8191	255	
2936.780	1	1	0	0	0.13928	0.20531	0.2649	0.12632	0.29001	0.3073	0.2469	0.17596	0.14972	0.18201	0.12173	0.069289	0.13181	0.097495	0.24966	0.16143	-1.7896	-3.0312	-2.4292	-2.3021	-2.9979	-2.1083	-2.5438	-2.675	-2.1437	-2.7417	-2.575	-2.2729	-2.8875	-2.1917	-2.4833	-2.7896	72.625	228.561	175.950	182.661	171.830	60.513	143.320	45.975	217.424	324.787	337.164	251.398	326.023	5.615	298.992	300.027	0.00041254	0.0015935	0.00034935	366.56	2.355e-05	2.138e-05	455.29	127.39	6.909e-06	8.9208e-06	187.21	74.915	47.16	19.965	5.8983e-06	34.622	0.0027972	0.0031653	0.00081454	501.32	3.3135e-05	3.4818e-05	601.47	175.06	3.3595e-05	3.4285e-05	265.55	100.25	71.812	29.521	3.055e-05	45.509	218.850	-6.453	24.467	-5.441	236.421	82.080	-5.757	0.712	219.771	137.615	-1.217	4.004	5.611	8.996	47.714	6.957	-8191	255	
2936.874	1	1	0	0	0.31612	0.25106	0.21364	0.12235	0.11302	0.053931	0.29024	0.24562	0.16927	0.12619	0.13473	0.09328	0.21298	0.081797	0.18692	0.07353	-1.5562	-2.7167	-2.3917	-2.1833	-2.8521	-2.25	-2.4375	-2.6958	-2.2583	-2.65	-2.7313	-2.3125	-2.9354	-2.4375	-2.2979	-3.0208	87.791	93.995	305.833	124.078	67.925	228.846	268.084	324.832	242.150	-5.579	256.047	-2.064	250.374	316.432	190.992	260.732	0.00035522	0.00044614	0.00017253	364.29	1.4417e-05	7.5406e-06	454.95	126.7	1.1902e-05	1.6548e-05	184.28	73.818	46.789	19.849	4.6863e-06	33.955	0.0029578	0.0030071	0.0007744	498.72	3.3652e-05	3.1991e-05	587.52	173.3	3.3226e-05	3.078e-05	255.93	99.249	70.723	28.555	2.8321e-05	45.349	235.287	93.540	316.489	-4.825	182.994	102.285	-5.457	0.943	212.098	-12.361	-1.227	3.970	4.993	9.067	65.942	7.169	-8191	255	
2936.970	1	1	0	0	0.4966	0.19927	0.0864	0.16992	0.11627	0.14385	0.17839	0.22618	0.040678	0.13266	0.097965	0.31242	0.27234	0.045296	0.051152	0.13359	-1.8208	-2.6167	-2.6875	-1.9792	-2.9271	-2.4708	-2.3729	-2.9688	-2.1437	-2.5125	-2.7062	-2.1583	-2.6333	-2.5062	-2.3396	-2.7333	218.401	205.021	285.103	227.230	78.695	144.587	231.694	28.741	113.345	336.424	25.776	1.957	22.397	21.989	291.566	247.520	0.00012304	0.00073334	0.00033685	361.45	1.0483e-05	8.9705e-06	448.57	126.1	5.4204e-06	3.226e-06	185.02	73.958	46.533	19.762	5.3369e-06	33.948	0.0029677	0.0028091	0.00074271	505.37	3.3872e-05	3.0994e-05	579.59	176.05	3.3117e-05	2.9583e-05	252.43	100.4	69.685	28.051	2.6874e-05	45.673	173.249	299.744	-3.252	-4.644	158.852	104.046	-5.595	0.989	5.821	301.308	-0.948	4.042	5.625	8.935	262.660	6.994	-8191	255	
2937.066	1	1	0	0	0.27812	0.14853	0.12897	0.097206	0.23366	0.13725	0.14099	0.081321	0.19792	0.058947	0.11149	0.060229	0.22154	0.1877	0.191	0.2103	-1.7188	-2.5812	-2.5604	-1.9958	-2.8667	-2.6	-2.3667	-2.9896	-2.1417	-2.3625	-2.8312	-2.0104	-2.7313	-2.5792	-2.2792	-2.9458	128.601	104.618	30.263	330.347	186.304	108.501	-10.882	198.336	125.239	260.753	211.209	166.450	28.850	163.850	243.772	38.502	0.0001039	0.00068334	0.00031923	363.74	1.2378e-05	1.0322e-05	447.02	126.04	1.032e-05	3.5477e-06	183.54	73.601	47.11	19.85	1.976e-05	34.099	0.0028117	0.0026379	0.00070454	511.65	3.1708e-05	2.9542e-05	576.57	178.26	3.2104e-05	2.8809e-05	253.35	102.65	69.247	27.971	2.8081e-05	46.652	200.337	276.044	139.658	-4.629	147.259	27.112	-5.678	0.807	21.348	24.481	-0.566	3.885	5.370	9.142	257.521	7.448	-8191	255	
2937.187	1	1	0	0	0.33516	0.042438	0.035339	0.28357	0.16648	0.041808	0.14951	0.21393	0.15204	0.10121	0.43602	0.095189	0.27871	0.074339	0.21847	0.22228	-1.9479	-2.4813	-2.8229	-2.25	-2.6625	-2.7167	-2.2896	-2.8125	-2.3458	-2.5125	-2.8438	-2.2188	-2.6562	-2.5708	-2.2354	-2.7854	214.322	176.298	50.336	165.187	173.660	281.660	-10.072	98.324	242.046	45.947	76.519	53.239	197.197	275.125	36.431	256.394	9.0422e-05	0.00082958	0.00028601	361.62	1.0971e-05	8.6059e-06	448.69	125.1	3.9965e-06	3.5778e-06	184.41	74.841	47.066	19.929	9.1425e-06	34.503	0.0027625	0.0026001	0.00073708	521.3	3.0655e-05	2.8663e-05	587.44	179.9	3.0757e-05	2.7642e-05	257.86	103.5	68.097	27.753	2.9781e-05	46.926	233.119	17.801	123.788	-4.446	20.795	62.745	-5.454	0.560	48.823	151.730	-0.739	4.033	5.276	8.981	232.054	7.092	-8191	255	
2937.283	1	1	0	0	0.21417	0.20201	0.26831	0.13532	0.070687	0.24904	0.048839	0.071292	0.098148	0.25468	0.095676	0.12489	0.32131	0.14502	0.025603	0.24271	-1.7396	-2.3146	-2.5854	-2.1854	-2.5833	-2.6583	-2.1104	-2.925	-2.4208	-2.1375	-2.9437	-2.3083	-2.7021	-2.7333	-2.3125	-2.8896	201.852	206.839	94.532	339.491	324.126	46.252	98.792	166.946	292.410	174.447	52.897	257.810	36.284	22.607	119.363	-13.589	0.00013262	0.0013196	0.00057326	366.64	1.2682e-05	1.1531e-05	449.22	126.23	8.1144e-06	3.5999e-06	185.02	73.921	46.837	19.799	1.3914e-05	34.057	0.0026308	0.0024851	0.0007834	519.94	2.948e-05	2.7937e-05	600.42	179.42	3.0197e-05	2.7434e-05	265.99	103.64	68.056	27.872	3.3101e-05	46.554	162.709	342.136	145.580	-5.393	65.577	95.722	-5.389	0.553	143.641	170.302	-0.999	3.491	5.197	9.257	221.027	6.952	-8191	255	
2937.355	1	1	0	0	0.26556	0.16009	0.20077	0.12746	0.16744	0.13128	0.071272	0.12761	0.19588	0.082083	0.10142	0.18552	0.069376	0.15369	0.29788	0.24815	-1.7437	-2.35	-2.7458	-2.5167	-2.3417	-2.8458	-2.0417	-2.9188	-2.6188	-2.1312	-2.9833	-2.3333	-2.5667	-2.7354	-2.0104	-2.7854	75.984	7.755	259.429	322.709	52.510	324.191	82.650	131.668	114.854	42.028	330.258	192.606	31.205	326.059	326.804	247.875	0.00017132	0.00019448	0.00037155	356.94	1.3326e-05	8.0154e-06	448.06	125.4	9.471e-06	1.4011e-05	182.22	72.494	46.445	19.846	3.5794e-06	34.009	0.0026317	0.0025437	0.0008483	515.43	2.8641e-05	2.8047e-05	602.89	175.51	2.8573e-05	2.7094e-05	263.75	99.935	65.631	27.553	3.2202e-05	44.854	164.493	118.357	202.347	-5.294	87.088	271.305	-5.313	0.537	79.883	208.836	-0.935	3.828	5.299	9.685	83.102	7.031	-8191	255	
2937.451	1	1	0	0	0.24025	0.16731	0.12785	0.29745	0.4488	0.049564	0.22385	0.22876	0.16888	0.31514	0.14374	0.13942	0.090265	0.16318	0.086444	0.079379	-2.2604	-2.2125	-2.7583	-2.4188	-2.5167	-2.7896	-2.3	-2.3271	-2.5896	-2.2812	-2.7938	-2.3104	-2.6063	-2.9229	-2.1417	-2.7229	149.212	328.441	330.222	163.651	271.122	127.962	251.085	15.437	40.582	184.583	135.419	216.430	338.108	163.418	167.916	271.003	0.00016375	0.0013496	0.00013812	361.05	5.552e-06	1.2539e-05	450.64	124.86	8.0546e-06	1.139e-05	183.41	73.134	46.264	19.907	9.3587e-06	34.154	0.0023991	0.0025478	0.00082158	501.77	2.6668e-05	2.8688e-05	598.7	171.44	2.6934e-05	2.8623e-05	260.93	98.222	64.486	27.883	3.0816e-05	44.215	191.254	128.226	228.302	-4.891	50.062	218.408	-5.807	0.703	99.139	186.728	-0.904	3.933	4.775	9.605	17.317	6.999	-8191	255	
2937.571	1	1	0	0	0.18448	0.1811	0.12277	0.18309	0.19553	0.1568	0.27356	0.22497	0.2984	0.19357	0.15823	0.18543	0.1552	0.2109	0.18046	0.21795	-2.3125	-2.2687	-2.875	-2.6104	-2.4437	-2.9458	-2.35	-2.5583	-2.7708	-2.2708	-2.7021	-2.6229	-2.3583	-2.9458	-2.4	-2.5104	308.686	86.140	133.526	117.915	242.654	121.222	230.496	164.943	40.367	41.088	321.863	170.186	86.908	8.427	311.178	319.680	0.00024719	0.00064059	0.0001807	359.88	7.1167e-06	1.3298e-05	445.16	125.41	2.0584e-06	1.446e-05	185.16	74.733	47.004	20.126	5.6588e-06	34.869	0.0022261	0.0026073	0.00076083	490.31	2.4814e-05	2.9091e-05	588.75	168.45	2.5492e-05	2.9361e-05	256.79	97.663	64.583	28.377	2.9239e-05	44.209	214.384	149.539	102.231	-5.396	60.868	202.361	-5.836	0.532	152.003	231.735	-1.494	3.537	5.511	9.432	-15.408	7.061	-8191	255	
2937.666	1	1	0	0	0.18282	0.062249	0.33811	0.084105	0.15751	0.046259	0.27928	0.20004	0.098583	0.135	0.10136	0.059113	0.11246	0.13868	0.14625	0.25962	-2.4479	-2.0354	-2.8125	-2.6646	-2.0646	-2.8604	-2.4813	-2.5	-2.8187	-2.2875	-2.8438	-2.6937	-2.1292	-2.7833	-2.4792	-2.4125	198.313	278.943	16.999	-9.490	242.370	324.419	139.571	234.882	52.228	336.212	143.921	336.230	301.528	50.037	147.167	183.387	0.00020328	0.0013294	0.00029222	365.1	9.9724e-06	1.8179e-05	455.64	127.31	5.7369e-06	4.3174e-06	185.81	74.981	47.434	20.342	1.5036e-05	35.299	0.0022336	0.0027078	0.00071475	485.46	2.4914e-05	2.9513e-05	584.54	166.38	2.5857e-05	2.9784e-05	253.48	97.162	65.507	28.558	2.7624e-05	44.071	202.760	101.725	-16.086	-5.115	234.875	197.570	-5.227	0.551	174.449	173.990	-0.990	4.281	5.813	9.246	28.626	6.787	-8191	255	
2937.762	1	1	0	0	0.24459	0.092852	0.14347	0.23797	0.066651	0.13456	0.20758	0.19959	0.12141	0.18211	0.10071	0.13132	0.176	0.20328	0.26032	0.33782	-2.5083	-2.0458	-2.6188	-2.5646	-2.2479	-2.8229	-2.4292	-2.3	-2.925	-2.0438	-2.625	-2.5292	-2.2021	-2.7542	-2.5458	-2.1646	48.008	125.512	283.050	-9.742	0.706	50.842	-11.792	254.740	69.843	264.823	124.986	34.198	324.954	80.056	16.747	254.333	0.00036123	0.00081086	0.00037866	365.46	5.9657e-06	1.0415e-05	454.27	126.44	1.7285e-05	8.2896e-06	187.94	75.371	46.849	20.099	6.3618e-06	34.932	0.0023517	0.0027401	0.00068573	482.49	2.6929e-05	2.9578e-05	581.25	165.54	2.8079e-05	2.9799e-05	251.61	96.726	67.102	28.334	2.7551e-05	43.713	213.149	218.374	337.597	-4.875	212.558	120.942	-5.407	0.552	226.661	69.918	-0.844	4.016	5.736	9.413	339.707	7.425	-8191	255	
2937.860	1	1	0	0	0.26038	0.062806	0.15974	0.014586	0.58928	0.056349	0.21826	0.3902	0.18332	0.096917	0.18137	0.11012	0.11881	0.046257	0.093319	0.041461	-2.2125	-2.1625	-2.4979	-2.7354	-2.1063	-2.6583	-2.4958	-2.4229	-2.8312	-2.3812	-2.5208	-2.9854	-2.175	-2.6083	-2.6125	-2.2542	161.874	173.898	213.456	288.406	167.961	119.575	11.555	260.060	26.947	257.927	333.507	31.122	-3.950	163.096	216.698	-0.202	0.00021592	0.00098187	0.00024002	360.39	3.6954e-06	3.3586e-06	454.13	126.82	4.2723e-06	5.2278e-06	186.34	73.896	46.58	20.056	8.1727e-06	34.701	0.0025843	0.0027297	0.00068469	483.91	2.983e-05	2.9314e-05	578.39	166.44	3.0407e-05	2.9479e-05	249.89	96.737	68.375	27.96	2.6955e-05	44.118	171.588	320.463	-7.600	-4.761	224.467	97.973	-5.386	0.843	97.459	303.469	-0.903	3.828	5.845	9.234	68.053	7.769	-8191	255	
2937.954	1	1	0	0	0.28078	0.10257	0.11452	0.16285	0.24028	0.23101	0.20136	0.28208	0.18732	0.25638	0.15525	0.0346	0.065192	0.01417	0.14154	0.11181	-2.4562	-2.1479	-2.2271	-2.8333	-2.1417	-2.7021	-2.7438	-2.05	-2.6937	-2.4583	-2.3229	-3.0021	-2.3479	-2.4813	-2.5687	-2.1604	338.862	7.485	130.331	241.678	44.100	31.684	218.665	340.290	65.725	68.207	290.007	305.881	79.537	80.290	-16.768	206.321	0.00033998	0.0014465	0.00030446	362.84	5.1032e-06	1.3594e-05	454.83	125.93	3.4219e-06	7.3033e-06	184.85	74.052	46.901	20.259	5.715e-06	34.891	0.002693	0.0026588	0.00066762	491.71	3.1438e-05	2.889e-05	579.97	170.65	3.208e-05	2.9494e-05	249.9	99.698	69.701	28.108	2.755e-05	45.55	166.581	317.719	29.955	-4.392	103.057	27.471	-5.222	0.973	274.682	39.056	-1.031	4.440	5.823	8.898	46.231	6.652	-8191	255	
2938.050	1	1	0	0	0.24026	0.1192	0.022532	0.076287	0.092163	0.24513	0.19983	0.23461	0.1343	0.10589	0.13469	0.20114	0.17383	0.077228	0.1789	0.36616	-2.4583	-2.3396	-2.1188	-2.9417	-2.3146	-2.4625	-2.7896	-2.0417	-2.6229	-2.5104	-2.4062	-3.1021	-2.4104	-2.7396	-2.6021	-2.3792	224.316	141.286	207.309	281.740	112.495	48.674	172.165	338.309	287.425	83.472	248.670	9.572	180.338	51.655	148.747	296.968	0.00014193	0.00029833	0.00024275	365.81	1.2765e-05	1.0691e-05	454.86	125.66	4.89e-06	7.499e-06	186.33	74.763	46.59	20.315	2.2883e-06	34.929	0.0028064	0.0027025	0.00068149	508.77	3.2181e-05	2.8979e-05	581.43	175.81	3.2055e-05	2.985e-05	252.05	102.63	69.874	28.275	2.8621e-05	47.084	280.896	298.959	305.558	-4.359	79.510	74.481	-5.531	0.981	78.184	35.073	-0.853	4.338	5.933	9.312	203.916	7.143	-8191	255	
2938.147	1	1	0	0	0.14026	0.046186	0.31374	0.1288	0.046143	0.14544	0.15336	0.22	0.17078	0.13807	0.29955	0.21406	0.069691	0.10686	0.35799	0.11737	-2.4062	-2.3688	-2.4708	-2.7958	-2.2375	-2.6167	-2.7	-2.2146	-2.7458	-2.6937	-2.4813	-2.7979	-2.5146	-2.5417	-2.9188	-2.4958	46.055	107.570	66.452	218.006	-8.297	11.853	265.316	218.292	125.503	70.163	-1.503	252.774	245.200	338.559	258.682	73.834	0.00010246	0.0012375	0.00020325	364.34	1.3526e-05	6.2037e-06	449.65	125.71	9.5989e-06	1.2637e-05	184.04	74.906	46.313	20.179	9.2762e-06	34.962	0.0028166	0.0027532	0.0007214	522.92	3.2225e-05	2.8799e-05	587.7	179.04	3.1104e-05	2.9129e-05	255.21	103.84	68.953	28.032	3.0641e-05	47.879	145.482	74.239	80.274	-4.359	158.043	30.984	-5.187	1.041	114.202	22.851	-0.561	4.422	5.597	9.343	187.234	7.219	-8191	255	
2938.267	1	1	0	0	0.13997	0.014525	0.30366	0.23653	0.20832	0.10595	0.065077	0.19889	0.10275	0.26403	0.37924	0.21335	0.043812	0.22993	0.20575	0.083745	-2.2479	-2.8125	-2.1458	-2.9542	-2.2833	-2.4021	-3.0104	-2.1479	-2.7771	-2.7292	-2.125	-2.8521	-2.5167	-2.3833	-2.9854	-2.1979	243.848	329.918	124.211	25.311	97.591	221.928	216.518	122.489	36.223	297.113	295.638	306.662	23.982	290.571	115.261	-0.907	0.0001297	0.00062713	0.00031615	367.38	2.3884e-06	1.0904e-06	448.39	124.26	1.4813e-05	1.0782e-05	184.63	73.971	45.792	19.942	1.1145e-05	34.536	0.0027955	0.0027875	0.00081162	535.54	3.3273e-05	3.014e-05	607.64	183.36	3.2838e-05	3.0931e-05	266.23	104.85	69.306	28.117	3.4558e-05	47.8	234.117	29.068	140.253	-4.851	133.262	161.418	-4.992	0.935	281.411	17.018	-0.402	4.228	5.933	9.427	150.506	7.348	-8191	255	
2938.363	1	1	0	0	0.05538	0.089911	0.13713	0.086752	0.18521	0.087945	0.040488	0.14968	0.1818	0.18013	0.15931	0.077242	0.1268	0.12699	0.13531	0.13388	-2.2979	-2.8021	-2.2062	-2.725	-2.6833	-2.5271	-2.8208	-2.4042	-2.4271	-2.6792	-2.0125	-2.9729	-2.6188	-2.3104	-2.7229	-2.3271	-5.382	-9.373	21.820	-0.583	280.579	337.221	270.561	28.205	233.059	111.031	271.224	211.195	254.063	233.672	82.037	18.805	8.4646e-05	0.0007601	0.00087442	364.84	1.3655e-05	7.4213e-06	445.71	124.54	6.1193e-06	7.4904e-06	180.9	73.837	45.998	19.965	5.4611e-06	34.593	0.0028094	0.002825	0.00090172	532.01	3.3221e-05	3.0484e-05	619.69	181.97	3.2434e-05	3.1359e-05	272.47	103.74	68.815	28.398	3.6751e-05	47.561	125.835	319.479	123.475	-4.960	104.338	331.945	-5.237	1.004	65.694	64.152	-0.714	4.185	5.880	9.211	266.454	7.606	-8191	255	
2938.460	1	1	0	0	0.16086	0.30158	0.023339	0.086235	0.35652	0.1325	0.19898	0.21275	0.17674	0.078727	0.071986	0.10306	0.40978	0.42576	0.083859	0.2151	-2.0771	-2.7188	-2.1229	-2.8104	-2.6542	-2.2354	-2.7583	-2.2979	-2.7167	-2.8479	-2.2958	-2.75	-2.6125	-2.2042	-2.9	-2.1813	307.525	84.953	320.203	18.836	151.524	29.302	255.113	241.899	156.776	95.120	292.945	167.761	230.969	183.841	169.223	290.476	0.00011663	0.0013374	0.00045519	362.28	1.354e-05	1.7945e-05	450.58	124.43	7.6616e-06	1.8506e-05	182.89	74.185	46.117	20.058	6.1314e-06	34.953	0.0027431	0.0029037	0.00094094	523.6	3.225e-05	3.1912e-05	626.18	179.65	3.1232e-05	3.313e-05	275.4	102.89	68.327	29.094	3.6911e-05	47.358	54.507	163.692	93.536	-4.934	58.066	200.003	-4.964	0.829	78.917	190.022	-0.757	4.161	5.848	9.308	127.979	7.147	-8191	255	
2938.580	1	1	0	0	0.082951	0.18557	0.055103	0.1303	0.15919	0.14272	0.16988	0.099366	0.095924	0.13665	0.21718	0.13931	0.23123	0.10606	0.14037	0.35213	-1.75	-2.6063	-1.9417	-2.7229	-2.8125	-2.1521	-2.7583	-2.3417	-2.3208	-2.9813	-2.1271	-2.5167	-2.6937	-1.9583	-2.8104	-2.6208	237.718	183.922	149.411	255.922	191.398	257.728	318.431	139.738	82.528	19.586	228.604	174.367	327.879	163.382	277.957	334.629	0.00023857	0.0011551	0.00019308	364.77	9.9083e-06	2.3148e-05	453.89	124.06	3.2585e-06	2.676e-05	183.57	73.959	45.768	20.008	9.4915e-06	35.082	0.0026364	0.0030833	0.00093683	515.63	3.1098e-05	3.4065e-05	622.42	177.57	3.0417e-05	3.5624e-05	275.11	102.54	68.26	30.173	3.7041e-05	47.702	160.555	125.405	81.137	-4.667	297.637	203.920	-5.319	1.175	29.617	216.072	-1.321	3.758	5.746	9.117	104.426	7.197	-8191	255	
2938.652	1	1	0	0	0.021686	0.25053	0.20791	0.24128	0.06975	0.20216	0.077371	0.051747	0.072703	0.15638	0.16518	0.12655	0.13052	0.1831	0.42281	0.17297	-1.9583	-2.8125	-2.2979	-2.3979	-2.775	-2.3333	-2.9458	-2.6625	-2.3854	-2.7875	-2.3563	-2.5896	-2.8208	-2.2687	-2.8229	-2.6833	-2.086	13.750	169.207	196.955	47.860	28.819	72.010	27.981	269.814	29.130	337.525	92.920	184.082	158.205	99.985	52.179	0.00025164	0.00099315	0.00041228	366.28	9.7366e-06	9.3927e-06	452.91	123.78	5.5079e-06	9.6972e-06	182.54	73.666	45.598	19.923	8.5844e-06	34.792	0.0027297	0.003422	0.00094593	518.72	3.2331e-05	3.7436e-05	620.33	177.25	3.1636e-05	3.7555e-05	271.14	101.22	68.735	30.524	3.5446e-05	47.098	208.195	147.420	284.164	-5.114	218.329	178.720	-5.487	1.042	183.290	183.910	-0.629	4.076	6.080	9.625	65.783	7.213	-8191	255	
2938.748	1	1	0	0	0.14665	0.12165	0.28434	0.2002	0.031892	0.3815	0.077455	0.18589	0.061809	0.13775	0.39448	0.23825	0.086978	0.1651	0.089514	0.17129	-1.8229	-3.0042	-2.4792	-2.3688	-2.8187	-2.3917	-2.7542	-2.7167	-2.4	-2.7833	-2.3812	-2.1708	-2.8375	-2.1208	-2.6188	-2.5875	338.430	292.289	66.167	38.087	234.201	89.735	307.540	49.655	103.744	240.454	71.032	180.434	186.554	292.091	-1.095	224.089	0.00030296	0.00051454	0.00036746	361.93	1.7126e-05	1.3286e-05	449.14	122.64	1.7234e-05	1.6791e-05	181.49	72.701	45.293	20.088	1.4173e-05	34.692	0.0028877	0.0035457	0.00092444	514.85	3.4969e-05	3.9496e-05	614.05	175.84	3.4776e-05	3.8578e-05	267.95	99.844	70.388	30.43	3.3912e-05	46.264	182.443	203.720	310.766	-5.060	234.989	259.941	-5.690	1.076	253.007	20.567	-1.103	3.839	6.132	8.965	95.338	6.879	-8191	255	
2938.867	1	1	0	0	0.397	0.20389	0.071563	0.23872	0.10461	0.032718	0.089644	0.058898	0.2024	0.2073	0.090734	0.25597	0.12332	0.078834	0.18366	0.26469	-1.8229	-2.9104	-2.3854	-2.3917	-2.7875	-2.175	-2.5708	-2.6708	-2.0021	-2.9688	-2.4229	-2.4146	-2.8104	-2.3125	-2.5167	-2.8771	184.728	145.151	262.877	157.053	117.011	314.686	51.717	203.385	331.989	66.339	202.807	290.411	198.707	40.099	185.388	259.552	0.00037562	0.0010223	0.00035076	358.68	1.9329e-05	1.9135e-05	446.3	122.79	1.1422e-05	1.0272e-05	181.76	72.953	45.251	20.021	2.5715e-06	34.732	0.0030407	0.0033844	0.00086569	503.2	3.571e-05	3.677e-05	601.05	173.24	3.6224e-05	3.642e-05	264.74	99.872	72.071	30.321	3.3591e-05	46.903	238.329	24.156	50.582	-4.728	193.605	78.656	-5.382	0.881	235.399	43.399	-0.446	4.626	5.987	9.097	64.470	7.488	-8191	255	
2938.963	1	1	0	0	0.37083	0.050024	0.068635	0.28507	0.041589	0.02788	0.069961	0.31964	0.098532	0.080106	0.29726	0.13543	0.19687	0.31378	0.038713	0.07375	-1.975	-2.6813	-2.5187	-2.1104	-2.9437	-2.3854	-2.6083	-2.8896	-2.0479	-2.8125	-2.7271	-2.2646	-2.8375	-2.6354	-2.4021	-2.8146	129.163	280.542	62.462	274.620	267.307	8.500	28.728	150.637	249.998	140.768	313.407	336.274	257.683	9.612	3.428	301.454	0.00034895	0.0013714	0.00023573	358.7	8.9776e-06	1.378e-05	451.53	123.71	1.8826e-06	1.6882e-05	181.61	73.371	45.751	20.153	6.3273e-06	35.074	0.0033355	0.0033705	0.00088015	514.57	3.8878e-05	3.691e-05	603.86	177.43	3.8753e-05	3.573e-05	264.7	102.5	73.117	30.085	3.2535e-05	47.925	186.723	26.529	-15.231	-4.876	299.149	49.123	-5.324	1.202	78.759	47.192	-0.551	4.263	5.943	9.131	105.347	7.684	-8191	255	
2939.059	1	1	0	0	0.14435	0.17064	0.11636	0.39186	0.26803	0.16055	0.12759	0.15572	0.10728	0.50956	0.1061	0.1606	0.065249	0.15663	0.19137	0.19716	-1.8062	-2.6354	-2.6625	-2.1875	-2.7375	-2.4604	-2.5187	-2.7583	-2.3958	-2.5583	-2.9208	-2.3042	-2.9229	-2.2542	-2.125	-2.9458	245.423	137.891	220.520	342.421	297.343	282.673	338.346	308.733	330.897	14.073	96.057	69.983	277.706	9.622	163.922	192.341	0.000124	0.00023339	0.00050518	359.16	1.3022e-05	1.5186e-05	452.83	122.22	4.4447e-06	6.7811e-06	180.72	73.737	46.066	20.26	1.8201e-06	35.003	0.0034007	0.0032155	0.00084593	527.41	3.8846e-05	3.605e-05	601.44	182.14	3.9531e-05	3.5473e-05	265.06	106.17	73.536	30.117	3.3109e-05	49.358	189.314	328.686	341.214	-4.695	103.793	25.452	-5.394	1.640	246.618	44.521	-0.815	3.993	5.343	9.269	76.688	7.170	-8191	255	
2939.155	1	1	0	0	0.19235	0.18399	0.17211	0.15979	0.26156	0.16844	0.238	0.18758	0.30476	0.13817	0.20308	0.067689	0.22947	0.20323	0.21597	0.13594	-1.7687	-2.2354	-2.75	-2.1729	-2.6042	-2.4604	-2.5354	-3.0312	-2.1667	-2.5062	-2.6937	-2.1042	-2.8229	-2.6146	-2.3021	-2.9896	321.440	215.749	-14.578	241.771	51.083	300.518	-15.447	-3.629	169.871	147.435	3.106	140.117	281.787	24.951	191.758	26.145	7.1783e-05	0.0010093	0.00019029	363	9.6715e-06	2.9659e-06	443.35	122.74	6.7662e-06	1.3218e-05	180.61	72.921	45.759	20.044	1.7617e-05	34.464	0.0034156	0.0032129	0.00086017	544.42	3.8201e-05	3.5479e-05	599.29	185.73	3.8226e-05	3.4434e-05	265.17	107.34	72.103	29.619	3.396e-05	49.39	59.345	296.251	85.115	-4.545	10.846	66.936	-5.354	0.888	57.788	-13.549	-0.544	3.997	5.493	9.631	274.669	7.139	-8191	255	
2939.251	1	1	0	0	0.3846	0.14338	0.01864	0.34713	0.21141	0.15497	0.1413	0.16616	0.2053	0.14862	0.081153	0.039133	0.058788	0.18541	0.011825	0.23399	-1.7583	-2.4062	-2.7958	-2.0417	-2.6979	-2.4562	-2.1667	-2.8396	-2.4854	-2.3708	-2.825	-2.1542	-2.5479	-2.6604	-2.2771	-2.9833	34.401	309.625	285.996	259.949	156.969	235.613	315.236	114.390	276.234	70.956	95.344	269.165	-10.225	263.150	170.738	303.798	0.00015226	0.00068588	0.00032342	357.37	1.4523e-05	1.1625e-05	444.42	122.96	6.967e-06	4.0755e-06	179.31	73.293	45.707	20.01	1.8529e-05	34.915	0.0032868	0.0031097	0.00089081	547.82	3.6599e-05	3.4497e-05	607.69	186.42	3.6832e-05	3.3294e-05	270.19	107.78	71.036	29.325	3.6339e-05	49.438	85.613	257.987	124.886	-4.976	98.537	27.585	-5.239	0.955	-11.389	138.106	-0.564	4.202	5.666	8.991	226.209	7.111	-8191	255	
2939.348	1	1	0	0	0.19374	0.12279	0.19356	0.029292	0.096809	0.057566	0.10146	0.135	0.2012	0.15245	0.24255	0.10036	0.15797	0.076306	0.27122	0.28474	-1.9021	-2.3688	-2.7083	-2.2292	-2.5417	-2.8271	-2.2125	-2.9042	-2.3625	-2.2875	-2.7521	-2.4458	-2.4521	-2.725	-2.0167	-2.8375	16.776	152.933	319.773	205.958	136.539	14.643	221.260	-11.100	12.924	331.097	239.379	213.709	259.830	302.015	97.143	204.193	0.00019398	0.00042485	0.00037208	357.82	3.9818e-06	8.3448e-06	445.66	123.03	4.2568e-06	6.9817e-06	181.04	73.817	45.539	20.083	2.4993e-05	35.047	0.0031503	0.0029671	0.00094177	543.35	3.4598e-05	3.2816e-05	620.26	184.09	3.5248e-05	3.2252e-05	276.07	106.85	70.368	29.321	3.921e-05	49.127	187.015	-8.853	136.316	-4.940	318.293	37.116	-5.235	0.799	40.817	117.534	-0.862	3.915	5.330	9.567	219.641	7.175	-8191	255	
2939.444	1	1	0	0	0.16192	0.085127	0.10786	0.1475	0.025939	0.14186	0.2562	0.054559	0.12984	0.019327	0.37944	0.37489	0.18175	0.12781	0.26967	0.20052	-1.8646	-2.2292	-2.7667	-2.2438	-2.4125	-2.6562	-2.1417	-2.7229	-2.5958	-2.175	-2.9938	-2.4896	-2.4396	-2.8	-2.1208	-2.7188	117.154	226.570	128.862	280.345	237.806	111.818	23.863	5.759	105.741	235.062	55.543	314.383	29.162	24.146	325.710	64.803	8.834e-05	0.00045936	0.00046616	363.12	1.8699e-05	1.19e-05	448.83	123.52	7.8689e-06	1.1911e-05	183.62	73.772	46.084	20.25	1.2874e-05	35.079	0.0031252	0.0030646	0.0010257	546.15	3.4891e-05	3.4805e-05	638.56	184.16	3.54e-05	3.4504e-05	284.07	106.67	70.309	30.168	4.1531e-05	49.118	259.510	27.969	140.127	-5.147	8.623	261.440	-5.202	0.070	85.504	142.847	-1.328	3.745	5.197	9.625	11.417	7.106	-8191	255	
2939.540	1	1	0	0	0.15968	0.18356	0.41435	0.1547	0.10938	0.13786	0.12668	0.17555	0.090826	0.33011	0.095404	0.13308	0.092751	0.053085	0.30224	0.24052	-2.0729	-2.1875	-2.725	-2.3417	-2.2979	-2.7854	-2.3271	-2.7542	-2.6146	-2.2292	-2.4771	-2.4625	-2.2021	-2.7208	-2.0042	-2.4062	163.207	90.464	269.179	290.035	172.850	195.316	87.364	67.307	144.644	171.661	296.551	265.131	294.270	169.311	247.539	290.067	0.00010046	0.00091645	0.00014514	364.72	8.8896e-06	8.895e-06	452.77	124.28	7.899e-06	1.427e-05	182.27	73.137	45.637	20.031	9.7322e-06	34.643	0.0031191	0.0033618	0.001075	548.59	3.5309e-05	3.8926e-05	656	186.36	3.6923e-05	4.0173e-05	291.54	108.29	72.017	31.83	4.5006e-05	49.626	202.147	100.567	55.551	-4.958	36.635	313.386	-5.489	0.445	112.273	188.058	-1.574	3.712	4.859	9.445	59.476	6.587	-8191	255	
2939.659	1	1	0	0	0.1579	0.13289	0.32042	0.2281	0.24877	0.23096	0.0093584	0.16666	0.14401	0.3174	0.13489	0.076374	0.066737	0.12171	0.11743	0.064801	-2.5292	-2.1125	-2.9021	-2.4188	-2.4417	-2.7104	-2.3604	-2.7104	-2.8396	-1.9208	-2.8646	-2.5729	-2.1104	-2.9292	-2.1562	-2.3958	50.979	211.309	246.646	80.777	199.599	86.295	228.668	146.122	37.707	291.830	315.482	212.614	33.690	195.429	16.987	50.246	0.00025774	0.0020968	0.00021361	368.2	1.3008e-05	1.7148e-05	449.46	124.55	3.7129e-06	2.7465e-06	181.08	72.876	45.645	19.918	3.3993e-05	34.29	0.0033472	0.0039787	0.0011392	561.62	3.7937e-05	4.5063e-05	663.18	189.29	3.9598e-05	4.5966e-05	292.46	108.82	73.393	32.84	4.4915e-05	49.175	198.885	140.219	232.440	-5.149	342.413	242.610	-5.510	0.502	209.537	250.216	-1.756	4.001	5.510	9.507	91.185	6.532	-8191	255	
2939.755	1	1	0	0	0.16634	0.25751	0.11864	0.37344	0.087228	0.19076	0.30513	0.26235	0.25789	0.14721	0.22546	0.15633	0.16879	0.16599	0.25251	0.32295	-2.3271	-2.1792	-2.7521	-2.3937	-2.3896	-2.7958	-2.3542	-2.4625	-2.6667	-2.0979	-2.9146	-2.6771	-2.175	-2.9146	-2.1979	-2.2917	74.979	142.141	269.941	3.340	309.371	120.108	39.967	255.918	322.466	247.624	6.154	86.481	329.065	24.723	168.757	319.081	0.00025974	0.0010126	0.00032306	361.19	2.3677e-05	6.1782e-06	447.37	123.67	1.2133e-05	1.614e-05	182.4	72.996	45.91	20.017	1.3396e-05	34.613	0.0034941	0.0042298	0.0011072	555.72	3.9645e-05	4.6411e-05	653.4	186.42	4.118e-05	4.6838e-05	287.56	107.21	75.131	33.074	4.2979e-05	48.934	226.427	173.927	311.512	-5.551	253.330	58.233	-5.800	0.457	282.419	229.616	-1.159	3.877	5.977	9.192	5.462	6.857	-8191	255	
2939.851	1	1	0	0	0.10078	0.085411	0.14605	0.092578	0.030807	0.1432	0.22101	0.35094	0.05359	0.16402	0.14992	0.15131	0.1661	0.15067	0.10945	0.19475	-2.425	-2.1021	-2.5104	-2.7771	-2.0917	-2.9062	-2.4792	-2.4042	-2.8583	-2.1667	-2.6396	-2.7979	-2.3312	-2.775	-2.45	-2.3167	77.380	-8.058	50.872	113.055	112.144	341.649	334.751	283.939	-0.813	310.205	85.552	333.398	7.480	321.084	46.025	191.343	0.00046799	0.00027679	0.00030591	365.33	2.7216e-05	1.3541e-05	452.54	123.88	9.3898e-06	1.5831e-05	181.23	73.205	45.787	20.249	1.5752e-05	34.515	0.003707	0.004254	0.001068	551.91	4.2751e-05	4.6327e-05	652.78	186.4	4.4986e-05	4.7366e-05	288.13	108.38	79.12	33.455	4.4412e-05	49.805	208.146	155.821	-4.561	-4.702	205.033	74.495	-5.480	0.740	259.213	310.630	-1.179	4.048	6.007	9.057	83.013	6.970	-8191	255	
2939.947	1	1	0	0	0.19851	0.25878	0.23944	0.21351	0.10726	0.12465	0.10035	0.21924	0.15705	0.19602	0.12894	0.10001	0.27217	0.14105	0.38285	0.21886	-2.5896	-2.4104	-2.3167	-2.6958	-2.1937	-2.7375	-2.6312	-2.3979	-2.8229	-2.4625	-2.4188	-2.6771	-2.1979	-2.8063	-2.7604	-2.3833	279.054	144.766	280.772	92.145	273.049	199.481	260.244	292.689	324.001	148.300	205.303	18.162	151.045	216.788	77.452	223.318	0.00034228	0.0018828	0.00021118	366.04	1.4376e-05	2.2257e-05	454.74	125.87	8.9474e-06	1.0724e-05	183.17	73.566	45.921	20.295	1.1266e-05	34.51	0.0041862	0.0044053	0.0011081	567.43	4.862e-05	4.776e-05	664.93	193.37	5.0282e-05	4.8466e-05	291.76	111.86	82.936	33.629	4.5592e-05	51.288	198.337	334.325	-17.046	-4.729	256.722	51.165	-5.426	0.866	223.035	21.188	-1.320	4.442	5.630	8.788	340.167	7.098	-8191	255	
2940.043	1	1	0	0	0.14951	0.28663	0.098228	0.093173	0.1239	0.035842	0.074886	0.12895	0.067	0.15265	0.16017	0.11129	0.14828	0.11712	0.13123	0.17804	-2.3396	-2.4458	-2.4062	-2.8979	-2.1375	-2.7	-2.8625	-2.1417	-2.7729	-2.2792	-2.5542	-2.9	-2.2542	-2.6979	-2.6	-2.2729	-15.378	58.204	277.117	335.220	171.810	230.855	144.687	262.929	268.100	82.874	170.943	103.393	141.035	299.569	290.008	87.376	0.00034743	0.00089695	0.00067381	368.94	1.3825e-06	2.7384e-05	453.14	125.03	6.8652e-06	1.0431e-05	181.82	71.379	46.19	19.801	4.7447e-06	33.418	0.0045995	0.0045582	0.0011496	597.3	5.4493e-05	5.0126e-05	677.05	205.25	5.6447e-05	5.2318e-05	298.87	117.95	86.504	33.93	4.7791e-05	53.302	131.816	263.631	339.184	-4.853	79.157	75.661	-5.719	0.821	90.266	47.148	-0.899	3.839	5.195	9.126	-13.057	7.035	-8191	255	
2940.140	1	1	0	0	0.037404	0.067862	0.20168	0.17897	0.13324	0.039126	0.13655	0.12524	0.065712	0.15379	0.12212	0.077838	0.22079	0.12038	0.092581	0.097882	-2.3833	-2.4521	-2.2979	-3.0396	-2.5354	-2.5583	-2.7542	-2.3104	-2.9313	-2.4854	-2.1708	-2.7438	-2.3646	-2.5375	-2.7687	-2.3604	49.841	324.121	188.968	74.336	50.750	314.384	183.716	125.766	320.111	272.418	91.406	158.790	-7.941	9.595	288.390	54.355	0.0002113	0.000978	0.00035653	366.12	1.1137e-05	9.6548e-06	447.48	123.59	1.6604e-05	1.568e-05	179.59	72.364	45.799	19.844	1.2919e-05	34.024	0.0047544	0.0045929	0.0011582	617.62	5.413e-05	4.8573e-05	668.51	210.2	5.369e-05	5.0121e-05	295.79	120.28	84.722	33.507	4.8097e-05	54.882	154.185	21.687	301.498	-4.052	96.352	102.160	-5.113	0.867	45.134	57.299	-1.105	4.417	5.588	8.887	221.621	6.811	-8191	255	
2940.260	1	1	0	0	0.19768	0.026286	0.24105	0.31424	0.16591	0.075073	0.020366	0.099777	0.038622	0.2632	0.085319	0.16438	0.13204	0.1181	0.31798	0.15671	-2.3271	-2.3292	-2.3	-2.9542	-2.2292	-2.3771	-2.9521	-2.2	-2.7313	-2.8021	-2.2146	-2.7917	-2.4042	-2.3375	-2.8104	-2.1896	285.852	239.459	7.271	313.964	269.348	314.178	-4.216	280.729	189.688	187.199	190.705	138.790	287.146	243.631	328.818	183.180	0.00026671	0.0010421	0.00017634	368.69	9.1038e-06	2.074e-05	449.01	124.96	1.8746e-05	8.5093e-06	179.37	73.177	45.83	19.974	2.2163e-05	34.256	0.0046123	0.0045001	0.0011834	630.25	5.1801e-05	4.6539e-05	674.57	212.31	4.9854e-05	4.7182e-05	297.41	120.09	81.837	32.567	4.8511e-05	54.81	59.956	-15.833	159.073	-4.437	76.260	7.287	-5.278	0.712	85.261	64.752	-0.305	4.209	5.452	8.683	219.511	7.245	-8191	255	
2940.356	1	1	0	0	0.061149	0.21576	0.26342	0.24221	0.22693	0.083825	0.049634	0.10538	0.20355	0.32682	0.2457	0.038012	0.26086	0.097152	0.26459	0.18086	-2.4125	-2.6792	-2.2271	-2.9938	-2.4	-2.2542	-3.0458	-2.2542	-2.6229	-2.5229	-2.1542	-2.8688	-2.35	-2.2833	-3.0375	-2.1188	42.129	165.839	202.428	138.524	188.821	248.761	189.109	102.248	217.335	71.826	-16.563	121.387	-6.132	269.617	143.654	282.040	0.00017706	0.00070088	0.00082913	369.98	1.103e-05	2.4433e-05	452.57	124.81	1.822e-05	1.1576e-05	180.54	72.799	46.229	20.07	2.6476e-05	34.456	0.0042815	0.0042547	0.0012441	626.94	4.9368e-05	4.4305e-05	688	210.59	4.6878e-05	4.4379e-05	303.23	116.98	79.427	31.686	4.9059e-05	53.42	209.987	-8.500	161.146	-4.947	280.385	34.549	-4.917	0.493	55.191	53.367	-0.581	3.854	5.697	9.072	236.729	7.179	-8191	255	
2940.452	1	1	0	0	0.11329	0.188	0.17835	0.23631	0.10251	0.2276	0.23164	0.12351	0.056305	0.10333	0.24607	0.02144	0.14176	0.13349	0.059685	0.11524	-2.3208	-2.55	-2.1708	-2.8667	-2.5708	-2.2812	-3.1021	-2.2667	-2.3979	-2.9271	-2.2333	-2.8063	-2.5375	-2.4021	-2.7125	-2.2792	57.181	186.454	71.547	118.175	14.913	162.728	321.477	9.192	167.764	320.418	278.542	17.209	20.606	95.723	-8.174	38.825	6.1632e-05	0.0004009	0.00061148	370.55	9.5289e-06	6.777e-06	449.47	124.5	1.1939e-05	8.5037e-06	181.01	72.369	45.823	19.74	1.6404e-05	34.29	0.0038832	0.0039137	0.0012492	602.33	4.5443e-05	4.2212e-05	689.52	204.62	4.418e-05	4.3747e-05	308.6	114.58	77.909	31.773	5.0861e-05	52.023	171.979	72.239	148.707	-4.607	102.607	49.238	-5.371	0.969	-10.132	243.883	-0.788	3.951	5.635	9.296	214.342	6.824	-8191	255	
2940.549	1	1	0	0	0.15195	0.12605	0.11196	0.062662	0.084094	0.1534	0.27641	0.17249	0.12067	0.16086	0.38155	0.47555	0.29669	0.2688	0.039149	0.26869	-2.1188	-2.7333	-1.9458	-2.8292	-2.5187	-2.1583	-2.9771	-2.2438	-2.4042	-2.9229	-2.2375	-2.4667	-2.6917	-2.3792	-2.6917	-2.4458	209.370	142.457	332.320	32.002	90.280	39.652	0.896	285.739	310.998	20.569	4.709	305.711	204.033	18.032	336.041	253.830	0.0002654	0.00077191	7.0528e-05	368.44	1.3487e-06	2.0914e-05	451.39	125.04	7.1502e-06	1.7189e-05	181.69	71.894	45.842	19.694	1.8341e-05	34.192	0.003712	0.0039913	0.0012762	586.1	4.3239e-05	4.3496e-05	688.27	198.89	4.172e-05	4.4938e-05	306.57	111.22	75.742	32.105	4.8695e-05	50.553	4.755	124.071	245.188	-5.673	108.113	228.020	-5.189	0.538	36.540	178.816	-0.612	3.675	5.640	9.444	29.167	7.147	-8191	255	
2940.645	1	1	0	0	0.18268	0.23985	0.18672	0.036894	0.094394	0.16897	0.23671	0.25467	0.15974	0.15871	0.015345	0.31275	0.014065	0.23691	0.13572	0.1024	-1.9583	-2.9	-2.15	-2.5979	-2.6083	-2.2208	-2.8646	-2.6125	-2.3063	-2.8583	-2.3896	-2.6396	-2.7	-2.3083	-2.8708	-2.4542	218.245	17.125	323.297	86.264	217.254	287.876	338.281	19.512	20.950	27.550	250.976	259.144	176.116	222.989	192.722	117.743	0.00018847	0.0025027	0.00059154	365.39	5.3279e-06	3.376e-05	448.85	124.52	6.3859e-06	2.9754e-05	181.95	72.583	45.809	19.966	5.707e-06	34.326	0.0034412	0.0040501	0.001203	563.34	3.9542e-05	4.3592e-05	664.5	191.26	3.7886e-05	4.4695e-05	295.47	107.88	73.679	32.59	4.5246e-05	49.883	181.787	115.502	41.818	-5.077	69.685	177.674	-5.541	0.726	139.562	196.435	-0.989	4.296	5.575	9.367	94.272	6.946	-8191	255	
2940.739	1	1	0	0	0.38034	0.17016	0.17474	0.10817	0.15274	0.12934	0.12624	0.18562	0.13438	0.075694	0.30102	0.14622	0.24869	0.22719	0.14965	0.1048	-1.9333	-2.9625	-2.1813	-2.7708	-2.7687	-2.1771	-2.9437	-2.4688	-2.1667	-2.8833	-2.2896	-2.4437	-2.7208	-2.1979	-2.3979	-2.6354	322.266	290.089	124.902	296.084	204.387	-10.566	253.749	276.474	332.829	43.795	190.485	244.397	11.726	-11.379	272.449	-1.131	0.00016741	0.0024323	0.00016155	366.75	8.3352e-06	2.2151e-05	448.19	125.23	9.6704e-06	9.6523e-06	182.18	73.17	46.119	20.087	1.3221e-05	34.745	0.0033708	0.0042051	0.0011414	554.95	3.936e-05	4.5573e-05	651.39	188.82	3.8068e-05	4.4747e-05	286.45	105.11	73.328	32.264	3.9789e-05	48.54	252.276	83.686	303.533	-5.274	292.118	176.471	-5.350	1.203	210.174	151.879	-1.042	3.688	6.158	9.907	-6.645	7.341	-8191	255	
2940.835	1	1	0	0	0.087379	0.11082	0.052783	0.16428	0.22795	0.1615	0.1509	0.15766	0.23589	0.16927	0.131	0.22515	0.10438	0.021155	0.26113	0.16536	-1.7854	-2.9208	-2.5292	-2.1583	-2.9958	-2.0479	-2.8646	-2.7188	-2.1562	-2.9521	-2.4458	-2.3438	-2.8354	-2.325	-2.4521	-2.7667	187.805	32.644	140.750	50.108	261.134	297.244	316.164	174.106	167.613	-0.894	264.574	-4.596	156.120	159.324	100.224	274.683	0.00028852	0.00088386	0.0002141	365.87	2.2342e-05	1.4877e-05	454.43	126.34	1.1138e-05	2.1616e-05	183.71	73.744	46.133	20.167	5.3644e-07	34.87	0.0032353	0.0038958	0.0010004	531.78	3.8095e-05	4.2272e-05	630.6	182.72	3.8091e-05	4.1708e-05	277.86	103.18	73.749	31.736	3.6757e-05	47.753	206.095	246.149	267.871	-4.609	254.539	43.212	-5.875	1.014	231.618	69.700	-1.445	4.039	6.499	9.706	38.017	6.918	-8191	255	
2940.956	1	1	0	0	0.066458	0.25213	0.12747	0.06229	0.34057	0.16588	0.13348	0.13469	0.11921	0.20103	0.11345	0.31059	0.17114	0.1066	0.13188	0.19192	-1.8229	-2.7542	-2.3833	-2.3167	-2.9958	-2.3688	-2.7438	-2.6792	-2.1521	-2.8229	-2.4729	-2.3625	-2.8104	-2.1562	-2.4688	-2.7021	195.463	24.316	262.980	177.039	148.927	136.536	33.468	78.156	301.257	143.265	37.694	27.215	47.419	206.430	143.444	-15.518	0.00035105	0.0019677	0.00013712	363.73	6.9419e-06	7.5597e-06	452.45	123.89	1.1557e-05	1.5746e-05	180.91	73.353	45.919	20.199	3.9742e-06	34.883	0.003331	0.0035969	0.00092664	516.92	3.8242e-05	3.8666e-05	612.3	177.12	3.8024e-05	3.7508e-05	267.36	100.92	73.147	30.516	3.3524e-05	46.902	198.061	340.015	254.559	-4.950	200.810	55.327	-5.621	0.855	162.945	30.286	-0.688	4.069	5.886	9.492	55.436	7.478	-8191	255	
2941.052	1	1	0	0	0.16329	0.19749	0.12906	0.11737	0.29006	0.19448	0.36698	0.21279	0.24109	0.040787	0.086617	0.10974	0.20782	0.058735	0.15118	0.20767	-1.5917	-2.6896	-2.5542	-2.4229	-2.7729	-2.4583	-2.3646	-2.8833	-2.0167	-2.775	-2.5438	-2.0333	-2.8792	-2.4729	-2.3958	-2.8312	124.131	73.591	22.833	45.337	45.823	255.496	104.177	250.264	63.256	260.877	289.902	13.514	41.998	132.521	127.853	169.367	0.00018106	0.0010686	0.0001822	362.35	1.2249e-05	6.1297e-06	450.65	124.31	5.3324e-06	1.1051e-05	181.26	72.675	45.714	20.299	1.2841e-05	34.81	0.0033427	0.0032846	0.00085582	514.45	3.8081e-05	3.5547e-05	597.03	177.25	3.7653e-05	3.4428e-05	260.97	101.13	72.502	29.743	3.1346e-05	47.418	211.958	255.269	340.662	-4.651	175.212	333.644	-5.581	1.231	105.290	54.041	-0.985	3.937	5.974	9.384	39.233	7.770	-8191	255	
2941.124	1	1	0	0	0.064031	0.099718	0.029391	0.16765	0.072056	0.10822	0.085222	0.13772	0.16154	0.15471	0.13863	0.05811	0.069294	0.18769	0.16852	0.19169	-1.7188	-2.6229	-2.5667	-2.1396	-2.7833	-2.2958	-2.2854	-2.8292	-2.1583	-2.5687	-2.5812	-2.3479	-2.8625	-2.3771	-2.2604	-3.0229	78.658	80.081	203.037	188.584	-9.950	167.217	286.952	128.787	145.390	20.171	255.548	16.905	328.774	29.183	141.351	258.125	0.00016892	0.0011143	0.00033555	363.17	1.0252e-05	8.6914e-06	447.53	123.59	5.261e-06	8.7881e-06	180.21	73.406	46.311	20.244	1.3387e-05	35.293	0.0032716	0.0030827	0.00081098	524.13	3.7091e-05	3.4153e-05	591.58	180.76	3.7108e-05	3.3131e-05	259.16	103.47	71.72	29.568	3.0467e-05	48.515	195.687	18.907	303.490	-4.126	215.008	91.018	-5.604	1.182	37.828	44.563	-0.962	4.759	5.134	9.297	249.658	7.499	-8191	255	
2941.220	1	1	0	0	0.17358	0.35039	0.26655	0.10559	0.14827	0.1293	0.29572	0.30239	0.15515	0.21856	0.19195	0.076849	0.18195	0.16768	0.39126	0.068685	-2.0354	-2.45	-2.6646	-2.2	-2.7104	-2.4917	-2.2812	-3.0208	-2.3354	-2.2729	-2.7562	-2.1521	-2.7146	-2.6417	-1.9479	-2.9083	94.896	337.969	122.224	-14.783	29.176	264.582	87.250	236.724	173.705	36.977	77.376	147.221	-16.318	294.128	92.679	296.301	0.00012808	0.00014835	0.00036188	365.74	1.9862e-05	5.9701e-06	451.84	124.84	1.1305e-05	1.9333e-05	183.85	73.681	46.312	20.359	1.409e-05	35.445	0.0031287	0.0029381	0.00079476	534.45	3.5061e-05	3.2707e-05	596.7	184.44	3.5643e-05	3.2007e-05	262.45	106.07	70.916	29.449	3.2129e-05	49.383	84.165	236.259	176.917	-4.380	38.210	120.032	-5.625	1.117	4.838	73.538	-0.900	4.207	5.527	9.561	298.711	7.429	-8191	255	
2941.341	1	1	0	0	0.24519	0.15411	0.05386	0.082349	0.10434	0.14906	0.16853	0.39029	0.11501	0.13313	0.066493	0.10948	0.1679	0.061118	0.12757	0.085746	-1.9958	-2.3083	-2.8042	-2.1271	-2.6271	-2.6333	-2.2396	-2.9083	-2.2958	-2.4125	-2.7917	-2.2792	-2.5771	-2.7396	-1.9583	-3.0958	204.791	22.996	302.281	162.027	316.200	263.931	280.101	277.584	263.971	175.843	-8.075	37.718	322.278	212.401	-2.995	279.110	0.00021394	0.0011295	0.00030041	366.66	5.0269e-06	8.6057e-06	455.59	126.18	8.0611e-06	7.2329e-06	182.67	73.698	46.215	20.439	1.652e-05	35.497	0.0030461	0.0028621	0.00083715	541.22	3.3492e-05	3.1741e-05	606.98	184.93	3.4137e-05	3.0835e-05	266.42	105.97	69.788	29.141	3.4634e-05	49.063	161.419	6.833	138.157	-4.721	24.741	112.695	-5.272	1.085	120.379	46.889	-0.690	3.913	5.838	9.598	239.663	6.779	-8191	255	
2941.437	1	1	0	0	0.10686	0.19968	0.10706	0.18412	0.25892	0.15567	0.083574	0.095185	0.14712	0.19592	0.33518	0.03529	0.27795	0.13267	0.22445	0.21321	-2.2646	-2.2292	-2.8583	-2.4	-2.5458	-2.7146	-2.1437	-2.7104	-2.475	-2.2729	-2.9042	-2.4562	-2.5438	-2.8438	-2.0292	-2.8604	27.216	6.299	2.139	8.526	-15.830	78.443	157.207	212.533	16.459	173.801	319.626	10.921	326.076	157.768	299.708	13.808	0.00015329	0.0010778	0.00072022	369.08	4.0384e-06	4.7847e-06	449.44	125.02	9.0259e-06	3.5114e-06	182.57	72.738	45.726	20.342	1.7988e-05	35.592	0.0029601	0.0028098	0.00089503	538.92	3.2395e-05	3.0669e-05	612.25	180.75	3.2228e-05	2.9523e-05	268.52	103.14	67.866	28.695	3.5709e-05	48.004	148.134	286.486	152.813	-5.277	123.273	162.139	-5.469	0.863	8.977	189.719	-0.994	4.118	5.526	9.782	207.032	7.215	-8191	255	
2941.533	1	1	0	0	0.23738	0.059609	0.31332	0.065802	0.072347	0.059054	0.26843	0.13818	0.075231	0.26874	0.30555	0.34914	0.06065	0.13409	0.20479	0.13703	-2.0729	-2.2125	-3.0208	-2.1354	-2.5	-2.8271	-2.2896	-2.6271	-2.6292	-2.3396	-2.9583	-2.325	-2.625	-2.8438	-2.3438	-2.6833	288.197	-7.036	111.204	-10.859	83.943	98.520	284.267	120.854	202.094	1.326	1.913	25.317	293.358	227.788	89.720	333.333	0.00013075	0.0013989	0.00019644	366.07	1.0753e-05	1.887e-05	453.35	125.94	4.0978e-06	6.5331e-06	181.35	73.222	46.258	20.404	8.7872e-06	35.346	0.0028205	0.0028062	0.00093904	532.34	3.206e-05	3.2633e-05	630.06	182.13	3.3605e-05	3.3122e-05	278.44	104.66	69.268	29.922	3.9577e-05	48.387	206.325	143.448	92.258	-4.872	172.082	157.521	-4.941	0.904	89.300	162.595	-0.368	4.367	5.615	9.535	81.362	6.936	-8191	255	
2941.629	1	1	0	0	0.22911	0.22798	0.21361	0.17452	0.19927	0.11401	0.24222	0.29007	0.29724	0.13572	0.25978	0.099543	0.12577	0.062803	0.16781	0.10384	-2.2875	-2.2958	-2.8187	-2.2479	-2.2792	-2.6146	-2.4979	-2.6437	-2.5625	-2.3229	-2.8063	-2.3063	-2.4104	-2.7958	-2.2104	-2.6188	223.587	295.256	74.992	71.576	284.417	316.737	114.250	97.828	85.042	173.443	323.275	339.176	183.690	256.777	144.776	200.660	0.00014231	0.0016559	0.00027932	364.65	1.903e-05	2.5338e-05	455.32	126	9.8487e-06	1.123e-05	184.56	73.779	46.188	20.383	1.6033e-05	35.445	0.002919	0.0031838	0.0010046	537.17	3.2374e-05	3.6198e-05	639.89	182.01	3.35e-05	3.6586e-05	281.39	104.87	69.102	30.872	3.9204e-05	48.201	310.999	127.788	271.822	-4.815	17.149	210.890	-5.387	0.757	75.156	217.656	-0.882	4.416	5.286	9.969	126.206	7.101	-8191	255	
2941.750	1	1	0	0	0.16131	0.095568	0.14804	0.12884	0.21943	0.094267	0.16151	0.021164	0.11503	0.16761	0.22895	0.10025	0.023863	0.072376	0.14609	0.085931	-2.2958	-2.0875	-2.8125	-2.5438	-2.2833	-2.7625	-2.45	-2.5771	-2.6542	-2.2625	-2.8458	-2.3854	-2.2854	-2.8396	-2.1562	-2.4021	227.971	-11.627	270.279	106.065	26.624	172.354	337.171	69.535	248.649	29.547	94.135	252.694	1.871	296.062	8.697	327.150	0.00019928	0.0013786	0.0003445	369.68	1.1317e-05	6.6489e-06	455.93	126.02	1.4465e-05	2.295e-05	184.86	74.019	46.173	20.571	6.9728e-06	35.586	0.0028714	0.0034285	0.00096929	534.18	3.2108e-05	3.8502e-05	636.06	180.68	3.3704e-05	3.9026e-05	278.05	104.47	69.821	31.558	3.7858e-05	47.943	180.727	77.868	-12.806	-5.305	205.176	236.587	-5.347	0.536	188.806	190.636	-1.058	4.043	6.077	10.341	65.578	6.942	-8191	255	
2941.821	1	1	0	0	0.086545	0.15932	0.15161	0.21695	0.12547	0.23549	0.16272	0.1243	0.10725	0.04787	0.041121	0.18093	0.15908	0.19568	0.068311	0.13987	-2.6437	-2.075	-2.5938	-2.6125	-2.0271	-2.9729	-2.3604	-2.2979	-2.8667	-1.9333	-2.6063	-2.6667	-2.0833	-2.85	-2.1917	-2.4854	287.138	198.264	54.821	-5.702	2.938	10.660	154.427	211.122	110.652	25.230	31.861	212.046	258.853	169.108	14.141	335.334	0.0003306	0.00069688	0.00012281	367.6	2.122e-05	6.0804e-06	455.67	126.05	1.0322e-05	2.2537e-05	182.91	73.339	45.829	20.529	1.9592e-06	35.416	0.0029826	0.0035912	0.00092896	530.62	3.3696e-05	3.9563e-05	628.21	178.7	3.5654e-05	4.0264e-05	272.49	103.12	71.706	31.794	3.7502e-05	47.444	216.421	134.766	-15.625	-4.790	230.588	110.289	-5.274	0.531	263.485	156.179	-1.412	4.358	5.758	9.612	-14.603	7.083	-8191	255	
2941.940	1	1	0	0	0.13849	0.10684	0.078917	0.20676	0.058552	0.3449	0.14993	0.10382	0.17975	0.054909	0.17018	0.35725	0.29259	0.27606	0.13715	0.28614	-2.3771	-2.1396	-2.5875	-2.5333	-2.3	-2.8125	-2.6063	-2.275	-2.8458	-2.4771	-2.3396	-2.7083	-2.2417	-2.7375	-2.5167	-2.3167	10.186	-3.554	182.651	126.269	170.894	251.947	71.109	41.871	126.420	283.924	322.227	132.976	285.835	-4.657	182.428	74.882	0.00045034	0.0010159	0.00041134	367.5	1.6476e-05	9.7382e-06	454.6	125.6	1.4329e-05	2.1187e-05	181.79	72.831	45.932	20.404	7.2984e-06	35.004	0.0032697	0.0037245	0.00093047	530.13	3.7866e-05	4.0311e-05	626.41	178.73	3.9067e-05	4.0565e-05	270.78	102.73	74.18	31.488	3.7673e-05	47.762	191.996	254.627	339.374	-4.665	201.268	306.669	-5.635	0.778	222.750	68.370	-1.457	4.064	5.928	9.182	89.486	7.278	-8191	255	
2942.036	1	1	0	0	0.22199	0.26413	0.33615	0.092132	0.36416	0.090498	0.17201	0.3075	0.034467	0.070184	0.17984	0.27525	0.15687	0.25076	0.061168	0.17075	-2.3854	-2.2062	-2.5438	-2.8146	-2.1417	-2.8417	-2.5625	-2.1792	-2.7771	-2.4083	-2.4062	-2.875	-2.1167	-2.7562	-2.5312	-2.3208	95.357	165.674	43.332	3.504	84.782	341.096	253.225	301.008	21.277	78.926	283.121	297.622	55.502	244.293	61.293	205.208	0.0003074	0.00054032	0.00011887	368.58	8.9244e-06	1.3274e-05	454.18	125.3	5.2475e-06	2.0349e-05	181.29	73.43	46.364	20.581	1.2877e-05	34.954	0.0035965	0.0037603	0.00094918	541.46	4.2367e-05	4.1055e-05	632.35	184.3	4.3422e-05	4.1394e-05	273.47	105.49	77.071	31.502	3.7576e-05	48.874	206.228	245.125	259.876	-4.438	208.601	43.754	-5.897	1.162	177.614	6.048	-1.219	4.294	5.710	9.108	295.558	7.118	-8191	255	
2942.132	1	1	0	0	0.035766	0.09008	0.12346	0.13844	0.14916	0.12506	0.25952	0.074418	0.021151	0.029749	0.2055	0.16382	0.21423	0.13944	0.16659	0.12899	-2.6792	-2.2729	-2.5625	-2.9	-2.1479	-2.7146	-2.7271	-2.075	-2.8417	-2.5438	-2.3625	-2.8688	-2.1125	-2.6396	-2.6833	-2.0896	224.389	105.828	331.642	119.175	83.445	224.458	120.247	330.092	219.081	150.254	222.090	22.732	65.865	137.242	197.002	215.835	0.0003212	0.00048623	0.00022202	369.14	5.5027e-06	1.6787e-05	454.39	125.11	8.5009e-06	2.2673e-05	183.93	73.006	46.564	20.546	7.154e-06	35.253	0.003772	0.0036731	0.00093353	554.75	4.444e-05	4.0407e-05	634.04	191.39	4.5459e-05	4.2092e-05	277.89	110.64	79.429	31.968	3.9461e-05	51.527	221.991	286.765	326.315	-4.617	82.425	80.344	-5.620	1.386	93.537	3.723	-1.272	4.132	5.828	9.364	71.197	7.796	-8191	255	
2942.229	1	1	0	0	0.13472	0.22401	0.096949	0.19858	0.21244	0.15931	0.044454	0.04182	0.04971	0.26463	0.30651	0.069504	0.17772	0.10425	0.23588	0.030822	-2.3	-2.2667	-2.3812	-2.8833	-2.3146	-2.5167	-2.8854	-2.1875	-2.7292	-2.3438	-2.3396	-2.9542	-2.3583	-2.3208	-2.8875	-2.1896	261.204	72.381	33.465	91.286	260.304	61.414	266.735	92.801	34.032	149.576	195.336	32.066	238.155	115.234	75.678	-13.793	7.6014e-05	0.00047483	0.00036994	369.42	9.7193e-06	2.1773e-05	455.12	125.34	1.5736e-05	2.0895e-05	183.1	73.8	46.537	20.297	7.7517e-06	34.946	0.0039485	0.0038219	0.00097596	581.55	4.5503e-05	4.112e-05	640.38	199.04	4.5503e-05	4.2244e-05	280.33	114.19	79.084	31.722	4.0351e-05	52.524	219.956	310.914	259.190	-4.650	125.293	32.146	-5.440	1.238	52.355	16.804	-0.984	4.923	5.083	9.015	276.655	7.409	-8191	255	
2942.349	1	1	0	0	0.1908	0.17808	0.13545	0.092967	0.023251	0.25398	0.18005	0.16736	0.089644	0.11507	0.064216	0.16892	0.18658	0.13838	0.13381	0.098598	-2.4271	-2.5979	-2.2208	-2.9	-2.2062	-2.575	-2.8229	-2.3688	-2.5417	-2.7062	-2.0854	-2.8	-2.3854	-2.4813	-3.0292	-2.2042	20.524	337.919	194.084	269.329	131.926	17.397	49.701	65.104	58.154	323.756	138.979	295.312	51.470	302.781	33.225	138.521	0.0002457	0.001141	0.00034187	370.65	1.7739e-05	3.7058e-06	450.51	125.73	1.1117e-05	1.9758e-05	180.71	72.831	46.076	20.38	2.4009e-05	34.693	0.0038384	0.003756	0.0010013	590.26	4.3762e-05	3.9559e-05	642.3	200.6	4.2865e-05	4.0337e-05	282.89	113.7	77.004	31.091	4.2526e-05	52.559	-2.979	283.062	174.719	-4.456	29.916	271.507	-4.943	0.684	42.434	22.605	-0.652	4.311	5.862	9.522	196.586	7.212	-8191	255	
2942.421	1	1	0	0	0.34028	0.14979	0.28835	0.25065	0.12401	0.18688	0.28831	0.1079	0.055202	0.078852	0.35074	0.22392	0.14141	0.11943	0.22688	0.27832	-2.4792	-2.55	-2	-2.7708	-2.4646	-2.2438	-2.7771	-2.275	-2.5479	-2.8438	-2.2625	-2.7125	-2.5083	-2.1917	-2.8333	-2.3542	291.491	201.909	336.411	220.928	4.429	222.352	261.418	99.274	125.174	58.536	183.302	-1.896	94.466	287.316	227.749	211.041	0.000112	0.0011281	0.00060403	368.37	6.134e-06	8.222e-06	451.97	125.94	6.6536e-06	1.0512e-05	181.78	73.493	46.523	20.114	1.4513e-05	34.738	0.003735	0.0037201	0.0011147	598.95	4.4477e-05	4.0617e-05	670.7	205.62	4.4264e-05	4.2278e-05	300.17	115.92	78.746	31.791	4.8865e-05	53.504	168.902	255.407	201.961	-5.246	38.677	103.908	-4.891	0.488	22.939	278.990	-0.645	3.847	5.584	9.041	196.633	7.461	-8191	255	
2942.517	1	1	0	0	0.083139	0.070315	0.080033	0.33595	0.038645	0.3455	0.36186	0.066148	0.31581	0.078208	0.092349	0.090324	0.18631	0.086765	0.076268	0.14574	-2.1937	-2.525	-2.2354	-2.6396	-2.6125	-2.3021	-2.8354	-2.325	-2.5458	-2.7125	-2.1542	-2.8417	-2.5479	-1.9271	-2.8812	-2.3708	213.534	217.189	72.136	38.112	262.240	32.723	301.295	-4.529	288.325	298.099	50.079	279.898	99.430	107.627	217.620	167.979	0.00010853	0.00065214	0.00051817	374.85	4.2767e-06	8.6262e-06	452.83	126.44	1.1255e-05	6.9025e-06	182.31	73.233	46.758	20.292	7.9365e-06	34.741	0.0039188	0.0039602	0.0012835	608.87	4.6802e-05	4.3703e-05	702.53	208.91	4.6322e-05	4.6191e-05	317.73	117.68	80.592	33.126	5.4869e-05	54.262	101.424	60.774	158.974	-5.374	85.523	122.583	-5.233	0.279	113.301	166.042	-0.882	4.120	5.704	9.476	256.842	6.952	-8191	255	
2942.613	1	1	0	0	0.099668	0.16174	0.27837	0.23189	0.090535	0.26804	0.27938	0.22559	0.15517	0.056088	0.11327	0.095795	0.26404	0.1448	0.095475	0.12749	-2.2438	-2.7604	-2.2458	-2.8771	-2.5938	-2.3375	-2.8271	-2.5375	-2.525	-2.9208	-2.1208	-2.5833	-2.6875	-2.0938	-2.8771	-2.5604	145.263	27.354	47.768	185.749	235.633	266.701	341.629	319.873	-13.979	14.141	121.742	74.851	143.725	273.852	130.803	115.857	0.00016404	0.0016166	0.0001339	373.7	1.5264e-05	2.5816e-05	456.43	126.11	1.2685e-05	7.655e-06	182.79	73.569	46.665	20.408	1.5821e-05	34.717	0.0040531	0.0044232	0.0014179	616.86	4.8146e-05	4.875e-05	723.15	209.56	4.6795e-05	5.089e-05	326.04	117.55	80.64	34.678	5.6459e-05	54.272	255.600	122.183	-0.769	-4.768	52.607	233.493	-5.697	0.503	86.485	228.456	-0.812	3.987	5.698	9.827	78.344	6.997	-8191	255	
2942.732	1	1	0	0	0.2085	0.068446	0.25426	0.14184	0.16646	0.26987	0.26	0.083622	0.054977	0.10819	0.23716	0.07029	0.071671	0.14187	0.14799	0.24228	-1.8771	-2.7646	-2.1562	-2.7042	-2.7854	-2.1208	-2.7479	-2.3563	-2.3104	-3.0104	-2.2833	-2.5354	-2.7917	-2.2062	-2.7458	-2.6875	276.398	332.921	290.510	215.847	280.706	305.358	245.442	88.946	222.742	97.567	42.916	337.146	61.680	171.722	142.209	168.061	9.4736e-05	0.0019157	0.00034367	375.22	4.1532e-06	2.8526e-05	458.03	126.41	6.008e-06	1.9161e-05	180.41	72.198	46.323	20.221	1.9265e-05	34.486	0.0040703	0.0048785	0.0014554	617.44	4.8639e-05	5.4428e-05	726.04	210.42	4.7393e-05	5.5444e-05	322.15	116	80.196	35.481	5.3589e-05	53.151	222.095	102.294	3.353	-5.393	123.041	224.750	-5.572	0.737	239.107	192.678	-1.597	3.792	6.403	9.371	62.312	6.704	-8191	255	
2942.828	1	1	0	0	0.078938	0.18242	0.18862	0.16262	0.083921	0.075059	0.23901	0.10731	0.29666	0.26932	0.20735	0.11782	0.12872	0.10837	0.12623	0.15065	-1.9104	-2.8937	-2.1792	-2.6937	-2.7208	-2.1708	-2.7875	-2.7479	-1.9958	-2.8812	-2.3688	-2.6	-2.7208	-2.2687	-2.6521	-2.6312	300.093	132.485	299.072	342.052	244.971	99.979	-9.025	39.520	65.735	243.891	210.360	292.869	48.187	341.947	165.205	234.808	0.00028613	0.0023971	0.00056555	373.28	1.7406e-05	2.2878e-05	451.61	125.51	2.3602e-05	1.3343e-05	181.57	71.869	45.829	19.94	8.6787e-06	34.156	0.0039885	0.0049865	0.0013527	598.06	4.7558e-05	5.558e-05	701.61	205.05	4.7792e-05	5.6396e-05	313.22	113.33	81.247	35.697	5.1066e-05	52.084	216.439	126.831	-9.377	-5.124	285.658	200.152	-5.240	0.552	209.638	147.449	-1.040	3.438	6.292	9.555	16.356	6.930	-8191	255	
#DATA ENDS
