BOXY.EXE: ISS Imagent and Oximeter Data Acquisition Program Version 0.80
Ascii Record File

#ACQ INFORMATION
2  Detector Channels 
16  External MUX Channels 
1  Auxiliary Channels 
5000  Waveform (CCF) Frequency (Hz)
1  Waveforms Skipped 
30  Waveforms Averaged 
1  Cycles Averaged 
16  Acquisitions per Waveform 
10.0806  Updata Rate (Hz) 

#FILE INFORMATION
TRUE -- External MUX Channel results are PARSED.
FALSE -- AC DC and Phase are NOT grouped.
TRUE -- Companion Program Settings File CREATED.
FALSE -- AC data not excluded
FALSE -- DC data not excluded
FALSE -- Phase data not excluded
FALSE -- Auxillary Chn. data not excluded
Tab delimiters

#CALIBRATION STATE
TRUE -- Waveform Calibration Values APPLIED.


#AUX CALIBRATION VALUES
Val Type	aux-1	

Term	1.0000e+00	
Factor	0.0000e+00	


#WF CALIBRATION VALUES
A = Detector Channel
Val Type	A-AC1	A-AC2	A-AC3	A-AC4	A-AC5	A-AC6	A-AC7	A-AC8	A-AC9	A-AC10	A-AC11	A-AC12	A-AC13	A-AC14	A-AC15	A-AC16	A-DC1	A-DC2	A-DC3	A-DC4	A-DC5	A-DC6	A-DC7	A-DC8	A-DC9	A-DC10	A-DC11	A-DC12	A-DC13	A-DC14	A-DC15	A-DC16	A-Ph1	A-Ph2	A-Ph3	A-Ph4	A-Ph5	A-Ph6	A-Ph7	A-Ph8	A-Ph9	A-Ph10	A-Ph11	A-Ph12	A-Ph13	A-Ph14	A-Ph15	A-Ph16	

Term	0.00000e+00	0.00000e+00	0.00000e+00	0.00000e+00	0.00000e+00	0.00000e+00	0.00000e+00	0.00000e+00	0.00000e+00	0.00000e+00	0.00000e+00	0.00000e+00	0.00000e+00	0.00000e+00	0.00000e+00	0.00000e+00	0.00000e+00	0.00000e+00	0.00000e+00	0.00000e+00	0.00000e+00	0.00000e+00	0.00000e+00	0.00000e+00	0.00000e+00	0.00000e+00	0.00000e+00	0.00000e+00	0.00000e+00	0.00000e+00	0.00000e+00	0.00000e+00	0.00000e+00	0.00000e+00	0.00000e+00	0.00000e+00	0.00000e+00	0.00000e+00	0.00000e+00	0.00000e+00	0.00000e+00	0.00000e+00	0.00000e+00	0.00000e+00	0.00000e+00	0.00000e+00	0.00000e+00	0.00000e+00	
Factor	1.00000e+00	1.00000e+00	1.00000e+00	1.00000e+00	1.00000e+00	1.00000e+00	1.00000e+00	1.00000e+00	1.00000e+00	1.00000e+00	1.00000e+00	1.00000e+00	1.00000e+00	1.00000e+00	1.00000e+00	1.00000e+00	1.00000e+00	1.00000e+00	1.00000e+00	1.00000e+00	1.00000e+00	1.00000e+00	1.00000e+00	1.00000e+00	1.00000e+00	1.00000e+00	1.00000e+00	1.00000e+00	1.00000e+00	1.00000e+00	1.00000e+00	1.00000e+00	X	X	X	X	X	X	X	X	X	X	X	X	X	X	X	X	

B = Detector Channel
Val Type	B-AC1	B-AC2	B-AC3	B-AC4	B-AC5	B-AC6	B-AC7	B-AC8	B-AC9	B-AC10	B-AC11	B-AC12	B-AC13	B-AC14	B-AC15	B-AC16	B-DC1	B-DC2	B-DC3	B-DC4	B-DC5	B-DC6	B-DC7	B-DC8	B-DC9	B-DC10	B-DC11	B-DC12	B-DC13	B-DC14	B-DC15	B-DC16	B-Ph1	B-Ph2	B-Ph3	B-Ph4	B-Ph5	B-Ph6	B-Ph7	B-Ph8	B-Ph9	B-Ph10	B-Ph11	B-Ph12	B-Ph13	B-Ph14	B-Ph15	B-Ph16	

Term	0.00000e+00	0.00000e+00	0.00000e+00	0.00000e+00	0.00000e+00	0.00000e+00	0.00000e+00	0.00000e+00	0.00000e+00	0.00000e+00	0.00000e+00	0.00000e+00	0.00000e+00	0.00000e+00	0.00000e+00	0.00000e+00	0.00000e+00	0.00000e+00	0.00000e+00	0.00000e+00	0.00000e+00	0.00000e+00	0.00000e+00	0.00000e+00	0.00000e+00	0.00000e+00	0.00000e+00	0.00000e+00	0.00000e+00	0.00000e+00	0.00000e+00	0.00000e+00	-7.80260e+01	-1.58627e+02	-1.69044e+02	-1.83775e+02	-9.56680e+01	-8.10641e+01	-1.58123e+02	-1.62015e+02	-7.06761e+01	-1.03333e+02	-1.70742e+02	-1.70756e+02	-1.78698e+02	-1.77014e+02	-1.06885e+02	-1.49823e+02	
Factor	1.89549e-05	9.66343e-05	3.90588e-05	1.69121e-01	1.09656e-06	1.06494e-06	1.87830e-01	6.00408e-02	1.11570e-06	1.14070e-06	9.95031e-02	3.37985e-02	3.11028e-02	1.10307e-02	1.00689e-06	1.56862e-02	6.37178e-07	6.49506e-07	1.80709e-07	7.65429e-02	7.12655e-09	7.12169e-09	7.97188e-02	2.69659e-02	7.12101e-09	7.12221e-09	4.22235e-02	1.44095e-02	1.37016e-02	4.81339e-03	7.13314e-09	6.55754e-03	X	X	X	X	X	X	X	X	X	X	X	X	X	X	X	X	



#DISTANCE SETTINGS
A = Detector Channel
A-1	A-2	A-3	A-4	A-5	A-6	A-7	A-8	A-9	A-10	A-11	A-12	A-13	A-14	A-15	A-16	

2.5000e+00	3.0000e+00	2.5000e+00	3.0000e+00	2.0000e+00	3.0000e+00	1.5000e+00	3.0000e+00	3.0000e+00	3.0000e+00	3.0000e+00	3.0000e+00	3.0000e+00	3.0000e+00	1.5000e+00	3.0000e+00	

B = Detector Channel
B-1	B-2	B-3	B-4	B-5	B-6	B-7	B-8	B-9	B-10	B-11	B-12	B-13	B-14	B-15	B-16	

1.0000e+01	1.0000e+01	1.0000e+01	1.4400e+00	1.0000e+01	1.0000e+01	1.5100e+00	1.9400e+00	1.0000e+01	1.0000e+01	1.9900e+00	2.4900e+00	2.4100e+00	2.9000e+00	1.0000e+01	2.9800e+00	




#DATA BEGINS
time	group	step	mark	flag	A-AC1	A-AC2	A-AC3	A-AC4	A-AC5	A-AC6	A-AC7	A-AC8	A-AC9	A-AC10	A-AC11	A-AC12	A-AC13	A-AC14	A-AC15	A-AC16	A-DC1	A-DC2	A-DC3	A-DC4	A-DC5	A-DC6	A-DC7	A-DC8	A-DC9	A-DC10	A-DC11	A-DC12	A-DC13	A-DC14	A-DC15	A-DC16	A-Ph1	A-Ph2	A-Ph3	A-Ph4	A-Ph5	A-Ph6	A-Ph7	A-Ph8	A-Ph9	A-Ph10	A-Ph11	A-Ph12	A-Ph13	A-Ph14	A-Ph15	A-Ph16	B-AC1	B-AC2	B-AC3	B-AC4	B-AC5	B-AC6	B-AC7	B-AC8	B-AC9	B-AC10	B-AC11	B-AC12	B-AC13	B-AC14	B-AC15	B-AC16	B-DC1	B-DC2	B-DC3	B-DC4	B-DC5	B-DC6	B-DC7	B-DC8	B-DC9	B-DC10	B-DC11	B-DC12	B-DC13	B-DC14	B-DC15	B-DC16	B-Ph1	B-Ph2	B-Ph3	B-Ph4	B-Ph5	B-Ph6	B-Ph7	B-Ph8	B-Ph9	B-Ph10	B-Ph11	B-Ph12	B-Ph13	B-Ph14	B-Ph15	B-Ph16	aux-1	digaux	

44312.398	1	1	0	256	0.097588	0.16498	0.035137	0.13371	0.095556	0.23108	0.078981	0.38324	0.13013	0.11136	0.089672	0.23813	0.25356	0.064376	0.10356	0.15637	-4.0729	-3.9271	-4.7688	-3.9604	-4.175	-4.7417	-3.9021	-4.6167	-4.3479	-3.975	-4.8375	-3.9583	-4.1292	-4.6146	-3.6792	-4.5375	202.938	9.673	13.276	283.793	83.176	16.882	280.793	251.943	165.977	12.948	259.589	7.461	-0.763	141.395	77.457	252.340	0.00012537	0.00026201	0.00010023	1163.9	2.178e-06	1.7476e-06	1253.2	245.98	1.984e-06	2.5212e-06	309.5	85.881	69.247	20.741	2.2835e-06	28.19	1.7205e-05	1.3492e-05	3.5268e-06	1091.3	1.617e-07	1.3691e-07	1171.1	229.83	1.5828e-07	1.4065e-07	280.59	79.819	62.989	18.934	1.4608e-07	25.591	188.348	12.340	40.972	-10.180	124.970	124.414	-9.901	-2.658	139.133	75.572	-3.325	4.186	4.599	10.559	72.446	10.737	-8191	255	
44312.516	1	1	0	0	0.33377	0.17851	0.15916	0.20295	0.19301	0.16805	0.1096	0.11687	0.14451	0.18589	0.2395	0.22519	0.22723	0.17901	0.088688	0.066429	-4.1813	-3.8812	-4.7562	-4.1833	-4.05	-4.6542	-4.125	-4.4875	-4.5271	-3.7708	-4.8438	-4.1667	-3.9979	-4.7375	-3.9208	-4.3729	16.821	197.384	301.424	328.759	129.235	70.804	332.137	291.644	170.052	123.416	224.951	247.653	274.981	161.538	10.094	268.440	0.00012955	4.9536e-05	0.00010217	1168.3	2.4517e-06	1.4271e-06	1255.4	246.52	2.5651e-06	1.6182e-06	308.17	86.308	68.614	20.698	1.6203e-06	28.199	1.6608e-05	1.3028e-05	3.4854e-06	1091.8	1.6298e-07	1.4073e-07	1172.1	229.59	1.5453e-07	1.4777e-07	280.46	79.832	62.849	18.938	1.5048e-07	25.544	191.163	287.698	30.249	-10.074	118.713	92.969	-10.056	-2.749	162.245	79.614	-3.369	4.328	4.087	11.183	68.971	9.914	-8191	255	
44312.613	1	1	0	0	0.12452	0.12409	0.17879	0.10306	0.1692	0.13124	0.26761	0.28608	0.12927	0.17255	0.11237	0.16428	0.14845	0.31006	0.1649	0.11384	-4.125	-3.7125	-4.5667	-4.45	-3.9333	-4.7	-4.0062	-4.2854	-4.6062	-3.7583	-4.5896	-4.4042	-3.925	-4.7729	-3.8333	-4.1917	334.162	323.381	16.254	224.997	29.006	29.461	314.267	235.452	235.928	203.819	166.409	51.494	197.499	0.543	250.915	302.993	0.00015158	0.00021037	8.0917e-05	1167.6	3.1728e-06	2.1137e-06	1254.8	247.08	1.5295e-06	1.0334e-06	308.33	86.44	68.735	20.602	1.8196e-06	28.015	1.6683e-05	1.3545e-05	3.7486e-06	1091.3	1.6286e-07	1.4248e-07	1171.7	230.05	1.5561e-07	1.4069e-07	280.59	79.922	62.891	18.98	1.5113e-07	25.518	189.480	38.885	44.541	-10.300	143.864	101.953	-9.755	-2.767	90.304	113.093	-3.050	4.022	4.164	10.968	81.230	10.363	-8191	255	
44312.684	1	1	0	0	0.025285	0.045475	0.2561	0.25268	0.12886	0.15171	0.053161	0.18124	0.083304	0.2587	0.14638	0.24258	0.18153	0.30417	0.083241	0.19648	-4.4062	-3.8146	-4.4313	-4.6167	-3.9	-4.9042	-4.2125	-4.1479	-4.8021	-3.8646	-4.5583	-4.3896	-3.7396	-4.7354	-4.1271	-4.0625	82.990	-7.794	107.642	291.404	235.949	64.003	283.867	165.870	333.550	234.600	274.887	199.631	19.318	33.520	205.618	23.123	0.00012361	0.00022983	9.5425e-05	1168.1	2.6655e-06	1.6612e-06	1254.7	244.6	2.1458e-06	1.6003e-06	306.81	85.867	68.494	20.598	1.8838e-06	28.057	1.6624e-05	1.3219e-05	3.7237e-06	1090.9	1.6927e-07	1.3966e-07	1172.5	229.62	1.5877e-07	1.5135e-07	279.89	79.811	62.916	18.974	1.5054e-07	25.581	182.801	56.552	19.082	-10.112	65.104	134.145	-10.015	-2.988	167.263	43.799	-3.298	3.799	4.303	10.594	104.353	9.948	-8191	255	
44312.805	1	1	0	0	0.13031	0.12915	0.39228	0.16087	0.026774	0.14908	0.1904	0.22737	0.094329	0.077188	0.1847	0.20785	0.050443	0.15412	0.19261	0.12563	-4.4812	-3.8771	-4.5021	-4.7562	-3.7771	-4.6604	-4.3167	-3.9917	-4.7208	-3.825	-4.3042	-4.6167	-3.7229	-4.6167	-4.2708	-4.0917	316.304	293.352	247.709	194.127	247.966	308.980	298.051	291.851	174.276	140.209	245.101	296.200	65.736	114.648	16.483	262.024	0.00011999	0.00024864	9.7699e-05	1168.1	2.4307e-06	9.6318e-07	1257.1	246.07	1.3097e-06	3.5721e-06	307.47	86.254	68.681	20.771	1.3887e-06	28.233	1.7301e-05	1.3433e-05	3.6567e-06	1092.6	1.7215e-07	1.4485e-07	1171.9	229.63	1.5506e-07	1.5095e-07	280.76	79.875	62.955	19.013	1.5269e-07	25.58	195.120	44.150	16.964	-10.080	146.716	89.261	-9.950	-2.818	185.786	85.539	-3.055	4.357	4.205	11.187	173.843	10.183	-8191	255	
44312.898	1	1	0	0	0.13454	0.17208	0.09085	0.15223	0.17968	0.26991	0.1058	0.04292	0.037187	0.16297	0.030927	0.12757	0.061047	0.1793	0.085701	0.2141	-4.5021	-3.9729	-4.2375	-4.6479	-3.8979	-4.6104	-4.5583	-3.9854	-4.7937	-3.9042	-4.2542	-4.625	-3.8563	-4.7104	-4.4812	-3.9042	228.555	146.226	214.942	324.720	158.746	326.863	227.816	300.253	215.881	241.011	92.383	72.961	152.736	330.616	153.786	0.154	0.0001404	0.00023353	3.315e-05	1164	1.6992e-06	2.0582e-06	1255.8	245.97	1.8193e-06	1.9088e-06	308.58	85.855	68.361	20.536	1.8854e-06	27.975	1.7646e-05	1.4013e-05	3.7892e-06	1091.8	1.6736e-07	1.5099e-07	1173.7	230.09	1.5614e-07	1.5458e-07	281.11	79.725	62.89	18.943	1.5246e-07	25.472	182.244	36.540	9.723	-10.036	112.031	112.863	-9.954	-2.904	135.609	113.432	-3.320	3.723	4.421	11.387	97.397	10.323	-8191	255	
44312.996	1	1	0	0	0.13374	0.084468	0.10623	0.19604	0.17396	0.20516	0.13716	0.24676	0.055215	0.2189	0.12051	0.12675	0.27437	0.22371	0.21558	0.039978	-4.5479	-3.9896	-3.9958	-4.7458	-3.6542	-4.5292	-4.6708	-3.9229	-4.7375	-4.0437	-4.1479	-4.9792	-3.8812	-4.3792	-4.4688	-3.8271	291.217	169.269	294.050	262.991	134.778	336.794	4.874	293.781	191.898	113.019	297.621	276.877	50.934	280.382	67.147	-11.845	0.00011592	9.5971e-05	5.6846e-05	1170.4	2.0516e-06	2.1746e-06	1250.9	243.89	1.3386e-06	1.9772e-06	307.85	86.352	68.407	20.479	2.3668e-06	27.886	1.7484e-05	1.4671e-05	3.938e-06	1092.8	1.7981e-07	1.5875e-07	1171.8	229.18	1.6384e-07	1.5682e-07	280.17	79.88	62.642	18.901	1.5703e-07	25.393	179.743	6.490	68.148	-10.258	89.814	110.926	-9.777	-2.685	183.080	72.072	-3.418	4.384	4.734	10.722	105.741	10.476	-8191	255	
44313.094	1	1	0	0	0.25478	0.0835	0.29418	0.23146	0.1971	0.23918	0.30139	0.069399	0.087405	0.073044	0.071423	0.095281	0.26525	0.16407	0.15793	0.17161	-4.2646	-4.4229	-3.8354	-4.9854	-3.8979	-4.3187	-4.8396	-3.6729	-4.7896	-4.3229	-4.0354	-4.7083	-4.0312	-4.3229	-4.6438	-3.8521	288.290	-14.470	304.568	323.974	155.140	312.802	264.782	338.476	50.820	49.582	218.749	74.751	255.244	168.475	179.119	233.014	0.00012206	0.00018001	4.686e-05	1167.5	1.0841e-06	1.947e-06	1253.6	244.2	1.8234e-06	1.8496e-06	307.94	86.244	68.867	20.622	2.901e-06	28.064	1.7816e-05	1.4951e-05	4.084e-06	1091.6	1.783e-07	1.5565e-07	1171.7	229.55	1.631e-07	1.6093e-07	280.51	79.826	62.753	18.877	1.6075e-07	25.469	189.238	57.423	29.306	-10.199	110.163	143.727	-9.920	-2.676	175.115	97.346	-3.095	4.049	4.446	11.169	110.205	10.622	-8191	255	
44313.215	1	1	0	0	0.10371	0.087117	0.25317	0.16904	0.13342	0.021369	0.10081	0.14854	0.084573	0.14407	0.16899	0.027277	0.13875	0.0694	0.23492	0.16163	-4.2583	-4.4313	-3.9167	-4.9708	-3.8812	-4.2042	-5.0479	-4.0542	-4.5104	-4.4354	-3.8792	-4.8021	-4.1875	-3.9479	-4.6979	-3.8625	11.111	232.505	155.839	325.683	293.438	269.152	289.987	327.112	193.553	1.688	-12.592	38.700	65.650	286.179	66.997	336.541	0.00012177	0.00016699	6.1382e-05	1163.3	4.2974e-07	1.9971e-06	1254.5	244.95	2.4209e-06	2.9794e-06	305.78	86.08	68.373	20.425	9.7313e-07	27.896	1.8361e-05	1.5014e-05	4.2534e-06	1091.5	1.8294e-07	1.6261e-07	1171.1	228.98	1.6964e-07	1.5415e-07	279.2	79.536	62.563	18.843	1.6121e-07	25.413	192.175	18.392	37.793	-10.075	63.657	125.980	-9.831	-2.875	106.463	105.065	-3.204	4.209	4.437	10.270	71.605	10.623	-8191	255	
44313.281	1	1	0	0	0.11832	0.086449	0.061062	0.46867	0.098998	0.081448	0.14739	0.25596	0.15202	0.29845	0.16908	0.095364	0.16201	0.1799	0.16222	0.22978	-4.2667	-4.5708	-3.7833	-4.7292	-4.0354	-4.0042	-4.9771	-3.8854	-4.2104	-4.5667	-4.0083	-4.8083	-4.2708	-4.0583	-4.7396	-4.0479	270.700	299.782	118.181	319.624	-8.145	273.487	268.670	198.754	30.258	47.397	287.683	-19.063	230.348	13.817	5.252	7.374	0.00012428	0.00021998	6.9846e-05	1170.6	1.4261e-06	1.4515e-06	1250.4	244.16	9.4575e-07	9.4203e-07	307.42	85.67	68.614	20.491	1.9233e-06	28.004	1.8178e-05	1.4794e-05	4.2165e-06	1094.3	1.8652e-07	1.7328e-07	1171.4	228.72	1.7489e-07	1.6736e-07	279.74	79.712	62.619	18.829	1.7127e-07	25.407	196.098	17.551	29.187	-10.186	105.257	105.513	-10.082	-2.763	147.146	100.898	-3.460	3.970	4.484	10.722	112.222	10.396	-8191	255	
44313.379	1	1	0	0	0.10381	0.12091	0.021709	0.2629	0.10127	0.087936	0.15371	0.13146	0.26593	0.11956	0.095781	0.032834	0.13147	0.097439	0.037392	0.25706	-3.9938	-4.4604	-3.7917	-4.9083	-4.2542	-3.9	-5.0312	-4.0229	-4.225	-4.6875	-3.8271	-4.5563	-4.4146	-3.875	-4.5646	-4.0458	289.432	125.639	324.355	313.010	183.047	189.859	-13.530	259.547	139.840	310.150	16.394	16.056	38.273	321.181	129.546	206.128	0.00015392	0.00016284	8.8826e-05	1167.5	3.2363e-06	2.0404e-06	1247.6	243.98	1.2016e-06	2.7964e-06	306.76	85.726	68.164	20.415	7.2748e-07	28.005	1.945e-05	1.5553e-05	4.45e-06	1092.3	1.8698e-07	1.6855e-07	1171.2	229.21	1.7774e-07	1.6393e-07	279.11	79.406	62.373	18.784	1.6775e-07	25.373	185.357	52.721	1.016	-10.227	136.224	131.184	-10.051	-2.627	125.798	99.850	-3.390	4.065	4.365	10.945	109.331	10.603	-8191	255	
44313.477	1	1	0	0	0.27738	0.035645	0.14658	0.2508	0.18509	0.14057	0.15338	0.024821	0.20464	0.085054	0.25907	0.10985	0.092613	0.1474	0.17867	0.2691	-3.7438	-4.7167	-3.725	-4.5437	-4.3083	-3.8917	-4.8854	-3.9708	-4.0938	-4.8417	-3.9875	-4.4833	-4.4313	-3.9104	-4.6333	-4.2812	20.385	-13.008	251.486	319.632	297.493	-19.367	296.452	203.528	259.931	46.639	283.892	274.514	-14.460	-14.470	250.534	77.134	0.0001216	0.00018774	0.00010338	1167.5	1.6122e-06	9.8054e-07	1250.6	244.03	1.4712e-06	1.5392e-06	306.59	86.061	67.907	20.353	2.6098e-06	27.729	1.9816e-05	1.5644e-05	4.5215e-06	1091.4	1.8311e-07	1.7757e-07	1170.7	228.99	1.8894e-07	1.6843e-07	279.6	79.564	62.384	18.783	1.7091e-07	25.269	189.665	9.284	61.269	-10.069	128.584	126.282	-9.838	-2.599	132.795	94.332	-2.852	4.140	4.427	10.805	99.567	10.821	-8191	255	
44313.598	1	1	0	0	0.18942	0.027594	0.16618	0.20995	0.12667	0.24935	0.17496	0.26593	0.25633	0.10187	0.21749	0.16944	0.31161	0.076603	0.056691	0.078895	-3.8167	-4.6417	-3.925	-4.4646	-4.5437	-3.6125	-4.8125	-4.1208	-3.8917	-4.6792	-3.9875	-4.3729	-4.5354	-3.8229	-4.6583	-4.1813	-0.467	182.436	47.762	-19.511	117.273	67.983	267.592	201.440	14.961	280.026	303.044	270.471	15.388	261.992	5.344	122.442	0.00011247	0.00026485	0.00010443	1162.3	3.1418e-06	1.9473e-06	1257.1	245.19	1.917e-06	3.1178e-06	306.72	85.72	68.111	20.405	1.9344e-06	27.823	1.9612e-05	1.5706e-05	4.6484e-06	1090.4	1.9099e-07	1.7326e-07	1171.9	228.63	1.843e-07	1.7e-07	279.78	79.449	62.437	18.791	1.7069e-07	25.359	189.696	21.533	24.236	-10.189	93.278	117.525	-10.083	-2.714	146.944	83.038	-2.990	4.061	4.642	10.820	106.358	10.443	-8191	255	
44313.691	1	1	0	0	0.21379	0.06623	0.10193	0.20664	0.054523	0.064853	0.25666	0.107	0.047508	0.2434	0.025019	0.087002	0.28248	0.30929	0.33986	0.010349	-3.4625	-4.6854	-4.0125	-4.3938	-4.5062	-3.75	-4.6771	-4.4375	-3.9271	-4.7646	-4.1458	-4.1729	-4.8667	-3.7021	-4.4458	-4.3958	320.697	123.095	125.736	259.919	239.098	17.019	308.121	-15.459	142.922	250.204	-5.765	20.740	163.688	322.658	126.971	30.605	0.00011139	0.00020664	7.0115e-05	1166.1	1.4036e-06	2.0179e-06	1253.5	243.4	3.6813e-06	8.6648e-07	306.04	85.54	67.542	20.417	2.2295e-06	27.817	1.9544e-05	1.5196e-05	4.2768e-06	1091.2	1.8306e-07	1.7165e-07	1170.6	228.15	1.9096e-07	1.6483e-07	278.9	79.346	62.164	18.699	1.7231e-07	25.283	189.546	84.673	14.073	-10.410	151.782	137.481	-9.930	-2.582	133.336	62.055	-3.195	4.067	4.548	11.287	90.098	10.684	-8191	255	
44313.789	1	1	0	0	0.058406	0.14008	0.094913	0.17298	0.15138	0.13928	0.26679	0.13808	0.12959	0.12186	0.13876	0.28596	0.091078	0.11459	0.11835	0.067274	-3.4188	-4.8354	-3.8167	-4.1312	-4.6667	-3.7854	-4.5813	-4.6479	-3.6667	-4.7021	-4.2917	-4.1167	-4.8292	-3.8625	-4.2625	-4.7729	205.943	317.422	280.016	-19.536	282.665	215.934	283.772	263.585	272.870	2.414	13.217	248.460	10.643	297.850	246.537	292.110	0.00011886	0.00027502	4.799e-05	1165.2	2.4016e-06	1.3088e-06	1248.7	243.96	2.3515e-06	1.4906e-06	305.87	85.069	68	20.234	1.4619e-06	28.09	1.8813e-05	1.5201e-05	4.3555e-06	1090.9	1.8078e-07	1.738e-07	1169	228.76	1.7694e-07	1.6022e-07	279.11	79.203	62.336	18.715	1.7402e-07	25.367	189.105	34.760	45.682	-10.434	119.749	117.184	-10.024	-2.406	152.139	104.510	-2.993	3.804	4.452	10.932	162.796	10.499	-8191	255	
44313.887	1	1	0	0	0.20453	0.078695	0.27801	0.13221	0.069363	0.12072	0.1785	0.29262	0.21555	0.17181	0.049078	0.12896	0.1107	0.16689	0.047172	0.21108	-3.5021	-4.7292	-4.3229	-3.9708	-4.7021	-3.9021	-4.525	-4.85	-3.7333	-4.6542	-4.2958	-3.9021	-4.7583	-4.0271	-4.2271	-4.7188	75.423	243.331	133.770	240.137	203.148	220.057	253.255	249.193	324.292	153.364	96.316	204.064	227.170	174.829	335.959	53.398	0.00011316	9.2545e-05	8.7558e-05	1165.9	2.6493e-06	1.1087e-06	1251.9	243.27	1.6278e-06	1.4731e-06	305.02	84.681	68.071	20.34	2.9123e-06	27.633	2.0106e-05	1.4679e-05	4.2858e-06	1091.4	1.8266e-07	1.6739e-07	1168.6	227.43	1.871e-07	1.6981e-07	278.39	78.92	62.18	18.639	1.6983e-07	25.245	190.902	100.380	28.113	-10.200	116.726	113.680	-9.919	-2.713	128.628	44.146	-2.987	3.985	4.738	10.801	109.362	10.803	-8191	255	
44313.980	1	1	0	0	0.015781	0.2145	0.0301	0.13835	0.2338	0.26494	0.19488	0.31893	0.23883	0.2028	0.21574	0.27269	0.23276	0.18087	0.19813	0.11691	-3.3354	-4.6479	-4.3792	-3.975	-4.7125	-4.1937	-4.3396	-4.8042	-3.9625	-4.5771	-4.4917	-3.9521	-4.825	-4.1917	-3.9188	-4.6604	279.316	16.431	8.751	9.187	167.738	-17.385	204.869	224.860	86.154	192.376	235.181	147.061	253.246	3.718	229.526	236.398	0.00010406	0.00018254	0.00010147	1163.3	2.5094e-06	1.7825e-06	1246.1	241.63	1.2658e-06	1.2315e-06	303.68	84.993	68.156	20.16	2.0009e-06	27.833	2.0026e-05	1.5883e-05	4.2463e-06	1088.1	1.8434e-07	1.6923e-07	1163.9	226.96	1.797e-07	1.7354e-07	277.64	78.651	62.18	18.546	1.713e-07	25.102	190.284	55.186	24.887	-10.436	125.103	131.991	-10.115	-2.796	140.317	90.036	-2.992	3.735	4.226	11.110	67.952	10.885	-8191	255	
44314.078	1	1	0	0	0.22611	0.11345	0.11667	0.15423	0.15344	0.15383	0.11602	0.27304	0.25035	0.099144	0.14754	0.11153	0.1868	0.15891	0.251	0.063565	-3.5187	-4.3542	-4.4313	-3.9375	-4.6792	-4.2042	-4.0667	-4.75	-3.9062	-4.3125	-4.6	-3.925	-4.6792	-4.3604	-3.8333	-4.7479	272.039	245.240	333.941	294.891	162.278	16.539	235.859	233.890	158.163	203.869	309.367	107.390	231.109	265.564	258.034	67.718	0.00015144	0.0001599	8.5533e-05	1156.9	2.342e-06	2.6706e-06	1242.7	240.85	2.5131e-06	1.1558e-06	302.02	84.746	67.379	19.945	2.0626e-06	27.243	1.9918e-05	1.5876e-05	4.2045e-06	1085.2	1.7439e-07	1.6743e-07	1160.4	225.88	1.8304e-07	1.6785e-07	275.85	78.358	61.594	18.424	1.7915e-07	24.942	184.029	7.485	36.168	-10.187	159.057	97.147	-9.966	-2.488	195.814	114.187	-2.751	3.890	4.724	11.187	83.248	10.573	-8191	255	
44314.195	1	1	0	0	0.10595	0.10983	0.16905	0.22662	0.12923	0.20274	0.24353	0.25353	0.1647	0.24915	0.10913	0.06441	0.029217	0.15081	0.17532	0.10865	-3.725	-4.2458	-4.6167	-3.8896	-4.6438	-4.3	-4.0854	-4.8896	-3.9688	-4.1729	-4.9458	-3.9208	-4.6646	-4.575	-3.9458	-4.8354	294.295	110.550	135.344	326.586	314.210	132.882	304.366	268.632	244.776	207.459	69.774	90.920	280.533	325.136	19.803	185.225	0.00013309	0.00014467	4.9377e-05	1148.7	1.2834e-06	3.1112e-06	1236.6	239.95	1.2248e-06	1.6796e-06	302.33	83.558	66.697	19.924	9.6483e-07	27.433	1.956e-05	1.5196e-05	4.0934e-06	1079.2	1.7677e-07	1.6254e-07	1156.2	224.28	1.8167e-07	1.6435e-07	275.36	77.773	61.213	18.333	1.7189e-07	24.853	203.618	50.825	46.538	-10.097	145.836	112.418	-10.060	-2.419	142.114	90.510	-2.949	3.891	4.486	11.695	109.850	10.650	-8191	255	
44314.293	1	1	0	0	0.20423	0.28618	0.049623	0.090972	0.21889	0.031198	0.090702	0.13535	0.043482	0.13875	0.064323	0.11639	0.15881	0.090769	0.090891	0.13778	-4.0146	-4.0708	-4.7583	-3.9542	-4.4521	-4.4583	-3.8833	-5.0833	-4.1479	-4.1333	-4.8562	-3.8208	-4.2708	-4.6375	-3.6958	-4.8688	178.727	237.346	134.158	323.598	94.293	311.881	-7.974	326.162	157.353	-7.574	303.503	91.395	118.099	-15.228	224.082	119.845	0.00013606	0.00021439	6.6962e-05	1153.1	6.6403e-07	1.9384e-06	1236.7	238.64	9.3988e-07	2.3555e-06	302.61	83.565	66.403	20.029	1.5072e-06	27.712	1.8923e-05	1.5418e-05	4.1653e-06	1077.2	1.8189e-07	1.5877e-07	1155.7	223.47	1.7206e-07	1.6805e-07	274.89	77.648	61.077	18.335	1.7513e-07	24.942	186.313	30.280	13.599	-10.183	144.486	144.763	-10.111	-2.886	134.621	79.727	-2.525	3.933	4.516	11.484	109.990	10.992	-8191	255	
44314.387	1	1	0	0	0.1823	0.17986	0.088399	0.25686	0.0837	0.075178	0.0614	0.12015	0.15393	0.26604	0.1353	0.15808	0.11872	0.11535	0.22199	0.088849	-3.9104	-4.025	-4.6813	-4.1771	-4.3292	-4.6583	-3.975	-4.6146	-4.1833	-3.9479	-4.9542	-4.0917	-4.2521	-4.7167	-3.7979	-4.6438	39.807	-10.601	250.167	219.010	277.056	325.694	237.213	192.346	255.161	95.788	268.043	163.154	253.760	239.494	167.450	245.003	0.00012553	0.00012992	5.0608e-05	1145	3.56e-06	2.6057e-06	1223.6	238.51	1.8265e-06	3.7096e-06	300.19	83.142	66.504	19.923	1.7095e-06	27.266	1.9249e-05	1.6354e-05	4.1947e-06	1074.3	1.9031e-07	1.6645e-07	1150.6	223.45	1.7798e-07	1.7611e-07	273.96	77.521	61.098	18.298	1.8005e-07	24.763	194.036	66.817	17.438	-10.277	134.157	106.946	-9.787	-2.755	140.679	117.020	-2.940	4.366	4.940	11.452	120.696	11.050	-8191	255	
44314.484	1	1	0	0	0.12734	0.12253	0.069534	0.21338	0.12964	0.050111	0.1642	0.25898	0.17598	0.027476	0.071413	0.37285	0.25211	0.13208	0.070136	0.17395	-4.1792	-3.7792	-4.8896	-4.2188	-4.1229	-4.6979	-3.9083	-4.4333	-4.4354	-3.7417	-4.875	-4.1542	-4.125	-4.8083	-3.875	-4.4729	3.468	70.207	251.492	273.337	147.028	202.734	241.970	311.852	242.464	159.424	101.237	39.239	222.024	100.561	232.178	8.391	0.00014133	4.5554e-05	4.9383e-05	1141.7	1.7831e-06	1.8678e-06	1229.6	238.55	1.6361e-06	2.3931e-06	301.43	83.589	66.679	19.761	1.4795e-06	27.305	2.0005e-05	1.6584e-05	4.2203e-06	1074.3	1.9392e-07	1.7525e-07	1151.5	222.91	1.8513e-07	1.7745e-07	273.79	77.418	61.021	18.241	1.7903e-07	24.771	191.111	84.023	52.575	-9.990	145.373	132.212	-9.817	-2.271	154.019	72.077	-2.906	4.165	4.875	11.214	153.361	10.815	-8191	255	
44314.578	1	1	0	0	0.10194	0.26928	0.15019	0.043231	0.25122	0.0039452	0.21174	0.067027	0.052827	0.1046	0.1286	0.11001	0.25601	0.10941	0.21167	0.026618	-4.2375	-3.8854	-4.7438	-4.2354	-3.9333	-4.7083	-4.0354	-4.4083	-4.7458	-3.7938	-4.6625	-4.1687	-3.8667	-4.6729	-3.6417	-4.1729	225.803	119.069	111.742	200.788	113.750	219.342	250.984	4.562	170.923	77.731	-6.473	191.227	26.125	267.484	76.881	336.754	0.00011357	0.00015805	5.7188e-05	1146.7	2.4158e-06	1.865e-07	1222.8	236.77	1.9154e-06	1.9352e-06	300.36	83.717	66.755	19.917	1.2454e-06	27.491	1.9849e-05	1.5874e-05	4.3878e-06	1075.5	1.9533e-07	1.6496e-07	1148.6	222.62	1.8329e-07	1.7245e-07	273.91	77.609	61.056	18.275	1.8399e-07	24.848	180.506	54.773	32.096	-10.240	139.531	137.442	-10.053	-2.669	91.423	116.882	-3.419	3.912	4.148	10.890	96.180	10.366	-8191	255	
44314.676	1	1	0	0	0.080819	0.13958	0.17467	0.19229	0.29296	0.16732	0.21423	0.2016	0.18506	0.28683	0.16794	0.094016	0.032907	0.11498	0.10089	0.091389	-4.2083	-3.6729	-4.5667	-4.3583	-4.025	-4.8292	-4.1083	-4.2375	-4.65	-3.9146	-4.7688	-4.4083	-3.8875	-4.7458	-4.0312	-4.1937	159.099	56.414	26.029	296.061	68.899	140.847	239.218	261.388	162.156	125.932	220.111	247.313	43.741	65.748	83.192	77.025	0.00012393	0.00011715	0.00012884	1147.3	1.6205e-06	5.8738e-07	1224.9	240.17	1.4371e-06	2.3627e-06	301.33	83.769	66.777	19.884	1.2034e-06	27.254	1.9431e-05	1.6465e-05	4.5083e-06	1074.7	1.909e-07	1.6783e-07	1148.7	223.06	1.8092e-07	1.7711e-07	273.9	77.542	60.957	18.254	1.7845e-07	24.848	193.398	62.074	-2.123	-10.153	114.803	128.741	-10.033	-2.515	108.767	64.011	-3.261	4.474	4.137	11.282	73.464	11.014	-8191	255	
44314.773	1	1	0	0	0.13882	0.054091	0.045414	0.22313	0.034384	0.17864	0.048192	0.055396	0.069491	0.14335	0.24321	0.12521	0.16282	0.18011	0.04434	0.12205	-4.6479	-3.9562	-4.5917	-4.6312	-3.7229	-4.8438	-4.3458	-4.275	-4.7125	-3.8563	-4.5396	-4.6104	-3.9042	-4.7562	-4.1229	-4.0604	117.824	49.418	3.223	297.091	54.060	159.535	125.655	267.552	164.208	-10.308	8.395	186.245	20.249	183.229	137.649	47.086	0.00013074	0.0002591	4.5922e-05	1141.6	1.6159e-06	2.3797e-06	1226.9	238.09	1.2507e-06	1.7456e-06	300.32	84.121	66.456	19.904	8.0807e-07	27.643	1.9041e-05	1.6427e-05	4.503e-06	1072.9	1.9822e-07	1.6484e-07	1149.5	222.7	1.7808e-07	1.7806e-07	274.07	77.627	60.901	18.282	1.7924e-07	24.906	189.266	58.777	35.227	-10.010	114.126	94.094	-9.624	-2.721	226.009	63.637	-3.352	4.240	4.852	11.545	76.929	10.953	-8191	255	
44314.867	1	1	0	0	0.12415	0.13054	0.1855	0.047287	0.25595	0.18223	0.13455	0.060712	0.11969	0.07136	0.16913	0.24208	0.23201	0.063035	0.28703	0.21698	-4.4542	-3.8625	-4.2354	-4.6167	-3.7375	-4.7312	-4.35	-3.9813	-4.8271	-3.9313	-4.325	-4.6021	-3.9729	-4.6104	-4.1875	-3.9688	61.058	300.914	238.486	87.154	301.811	53.840	153.962	309.605	282.919	99.900	137.249	310.103	313.908	252.389	196.059	220.134	0.00012271	0.0002572	6.1476e-05	1151.6	1.0974e-06	2.0326e-06	1230.1	237.42	1.8751e-06	1.0143e-06	301.01	84.04	66.131	19.783	9.9034e-07	27.435	1.9451e-05	1.6052e-05	4.5829e-06	1074.7	2.0141e-07	1.7197e-07	1150.4	222.32	1.8494e-07	1.8013e-07	274.12	77.693	60.861	18.267	1.8505e-07	24.81	187.502	12.234	34.424	-10.156	123.811	104.103	-9.798	-2.554	81.849	123.183	-3.078	4.238	4.619	10.798	85.412	10.496	-8191	255	
44314.988	1	1	0	0	0.21512	0.06884	0.061321	0.17816	0.10805	0.02865	0.41015	0.1777	0.079602	0.14298	0.15547	0.16903	0.11685	0.20626	0.15267	0.10856	-4.5229	-3.9292	-4.3063	-4.8354	-3.7583	-4.6542	-4.4708	-3.8937	-4.7792	-4.0229	-4.1958	-4.8292	-3.7917	-4.575	-4.2875	-3.9688	137.023	256.974	81.935	300.455	320.667	-9.460	261.799	21.976	15.740	54.151	2.621	-5.292	210.942	228.762	233.534	124.378	0.00011936	0.00031545	8.14e-05	1143.7	2.8708e-06	9.7567e-07	1230.6	238.08	1.5621e-06	2.065e-06	298.96	83.206	66.504	20.024	9.3367e-07	27.27	1.9334e-05	1.6871e-05	4.5211e-06	1074.1	1.9714e-07	1.7769e-07	1148.9	222.51	1.8667e-07	1.8614e-07	273.35	77.528	61.057	18.297	1.8398e-07	24.766	196.381	46.583	46.589	-10.134	119.355	134.687	-9.865	-2.245	120.546	90.460	-2.908	4.181	4.656	11.168	100.664	10.822	-8191	255	
44315.086	1	1	0	0	0.030969	0.15304	0.10573	0.14454	0.1644	0.22358	0.17556	0.19696	0.18895	0.05149	0.16659	0.14055	0.050763	0.10616	0.16551	0.23387	-4.4812	-4.1958	-3.9875	-4.8667	-3.8604	-4.4854	-4.7042	-3.9583	-4.7063	-4.2896	-4.1062	-4.8313	-3.9396	-4.2354	-4.6479	-3.8479	124.082	51.793	249.806	-5.680	49.192	279.963	326.972	16.018	258.316	181.521	-10.431	230.590	-13.099	277.795	142.814	-6.346	0.00011633	0.00025859	7.4534e-05	1149.6	1.5125e-06	2.4422e-06	1229	239.19	8.9929e-07	2.4468e-06	298.88	83.716	67.069	19.782	2.2468e-06	27.216	2.0002e-05	1.7044e-05	4.724e-06	1075.6	2.047e-07	1.8082e-07	1149.5	223.08	1.9494e-07	1.8378e-07	273.33	77.601	61.234	18.227	1.806e-07	24.776	196.600	24.813	27.452	-10.194	110.966	140.211	-9.934	-2.606	130.173	98.121	-2.786	4.367	4.322	11.524	68.729	10.586	-8191	255	
44315.184	1	1	0	0	0.057667	0.16313	0.098098	0.15763	0.23414	0.10284	0.15748	0.23931	0.33122	0.095425	0.29284	0.15437	0.14418	0.18595	0.15321	0.079306	-4.4146	-4.1917	-3.9792	-5.025	-3.8833	-4.3479	-4.7375	-3.975	-4.5833	-4.3479	-4.1125	-4.9375	-4.0708	-4.2396	-4.8146	-3.7687	87.077	120.993	280.453	267.633	170.552	51.409	329.274	274.216	162.023	86.579	276.415	310.349	-4.751	50.745	169.284	70.330	0.00012676	0.0002934	7.542e-05	1148.4	3.3356e-06	3.2967e-06	1227.9	237.75	2.2214e-06	1.8431e-06	301.16	83.62	66.773	19.877	1.7179e-06	27.402	1.9976e-05	1.6809e-05	4.558e-06	1073.8	2.0424e-07	1.8745e-07	1148.9	222.52	1.8967e-07	1.6892e-07	274.45	77.561	61.017	18.319	1.7042e-07	24.829	191.952	30.506	50.333	-10.191	132.176	125.768	-9.981	-2.565	123.199	111.725	-2.983	4.007	4.318	11.409	106.344	11.135	-8191	255	
44315.277	1	1	0	0	0.15578	0.11472	0.099095	0.16318	0.19993	0.088873	0.16359	0.2851	0.084168	0.15137	0.16532	0.11922	0.27127	0.17658	0.13937	0.17686	-4.4021	-4.5104	-4.0083	-4.9875	-4.0312	-4.1604	-4.9938	-4.1271	-4.3396	-4.45	-3.9417	-4.7937	-4.2812	-4.1854	-4.7979	-3.9458	119.764	198.227	334.788	-14.791	199.373	13.224	298.931	-10.057	57.006	67.999	25.275	276.341	7.201	43.199	200.210	88.643	0.00011024	0.00015116	1.1636e-05	1149.9	2.9598e-06	1.401e-06	1230.5	237.83	1.8766e-06	3.3146e-06	301.31	83.99	66.921	19.94	1.0885e-06	27.456	1.9292e-05	1.5945e-05	4.5234e-06	1074.5	1.9441e-07	1.7602e-07	1150.7	222.8	1.9259e-07	1.7135e-07	273.96	77.642	61.216	18.344	1.8179e-07	24.845	197.500	34.904	41.828	-10.386	125.985	122.921	-9.666	-2.367	162.502	88.791	-2.970	4.114	4.841	10.671	121.066	10.507	-8191	255	
44315.371	1	1	0	0	0.20291	0.1563	0.045052	0.20847	0.13113	0.06559	0.28761	0.051364	0.084927	0.080071	0.22811	0.20616	0.27117	0.065136	0.030659	0.18683	-4.0146	-4.6958	-3.8104	-4.9	-4.1979	-4.2625	-4.8729	-3.9771	-4.1958	-4.5875	-3.9125	-4.7729	-4.2625	-4.0437	-4.8063	-4.1312	90.540	166.602	-17.016	288.253	221.009	184.388	244.711	219.241	166.134	191.094	283.392	83.117	329.244	148.983	8.096	260.745	0.00010535	0.00018339	0.00011455	1145.1	1.9329e-06	2.1216e-06	1231.8	237.55	2.1338e-06	2.5888e-06	299.09	83.432	66.809	19.974	2.646e-06	27.293	1.9835e-05	1.5853e-05	4.4744e-06	1075.1	1.9353e-07	1.808e-07	1151.9	222.75	1.9153e-07	1.7889e-07	273.64	77.457	61.117	18.315	1.7516e-07	24.774	198.336	11.576	26.779	-10.224	154.308	111.496	-9.834	-2.360	156.957	66.312	-2.959	4.147	4.897	11.162	84.885	10.742	-8191	255	
44315.469	1	1	0	0	0.14082	0.039125	0.20462	0.081021	0.16449	0.15723	0.25291	0.18682	0.12665	0.16282	0.062891	0.30094	0.19067	0.11648	0.091375	0.048323	-3.7292	-4.5396	-3.6125	-4.5667	-4.2167	-3.8521	-4.8667	-4.1208	-4.1625	-4.6354	-3.9146	-4.4375	-4.4958	-3.9854	-4.8396	-4.1042	170.508	184.292	144.734	81.746	-5.404	-9.217	208.013	200.750	275.288	88.207	248.857	318.328	193.051	-14.277	290.149	110.006	0.00012645	0.00017781	7.5935e-05	1151.7	1.8163e-06	1.2558e-06	1233.1	238.06	9.6873e-07	2.2727e-06	303.38	84.429	66.738	19.927	1.8404e-06	27.35	2.0683e-05	1.6373e-05	4.61e-06	1075.1	2.0149e-07	1.7711e-07	1151.7	222.87	1.9331e-07	1.7776e-07	274.58	77.863	61.105	18.312	1.8282e-07	24.859	184.479	36.304	64.052	-10.181	86.887	142.788	-9.843	-2.487	128.064	117.200	-2.871	4.305	4.430	11.276	128.763	10.826	-8191	255	
44315.566	1	1	0	0	0.33854	0.24514	0.11084	0.11604	0.1612	0.10875	0.021527	0.068704	0.22542	0.2318	0.24875	0.16014	0.1407	0.13931	0.055542	0.11127	-3.7917	-4.5583	-3.8417	-4.7625	-4.5917	-3.8875	-4.7917	-4.2438	-4.0792	-4.5875	-4.0563	-4.3375	-4.6396	-3.8771	-4.7292	-4.4375	203.083	209.305	18.526	334.152	143.399	223.010	27.060	329.342	157.380	271.306	246.896	2.044	247.787	216.615	257.277	66.631	0.00012394	1.8992e-05	3.2224e-05	1143.6	2.3165e-06	2.0038e-06	1232	238.58	2.3553e-06	3.4207e-06	301.67	83.982	67.452	19.862	1.424e-06	27.275	2.0309e-05	1.6512e-05	4.6932e-06	1074.3	1.8859e-07	1.8212e-07	1151.7	222.96	1.9758e-07	1.7041e-07	274.27	78.025	61.331	18.311	1.7846e-07	24.844	179.429	268.154	5.572	-10.128	121.750	105.640	-9.910	-2.429	131.946	112.883	-2.975	3.814	4.924	11.192	106.988	10.624	-8191	255	
44315.684	1	1	0	0	0.09705	0.039324	0.019384	0.33998	0.28366	0.12311	0.082044	0.12184	0.21936	0.0933	0.23056	0.055242	0.13419	0.10502	0.20274	0.10049	-3.7208	-4.8146	-3.9313	-4.4667	-4.4833	-3.9062	-4.7229	-4.3271	-3.8792	-4.7688	-4.0958	-4.3417	-4.7917	-3.8354	-4.7625	-4.4313	317.791	301.847	31.128	298.585	18.895	94.130	283.754	226.272	83.624	183.987	202.382	96.658	273.422	77.449	18.655	79.314	0.00011712	0.00032149	7.2149e-05	1150.4	2.4281e-06	1.6437e-06	1232.8	238.65	2.2634e-06	1.3691e-06	300.68	84.397	67.124	20.004	1.8549e-06	27.171	1.9701e-05	1.5583e-05	4.7259e-06	1076.1	1.8789e-07	1.7877e-07	1150.6	223.33	1.9273e-07	1.7476e-07	273.93	77.944	61.383	18.414	1.819e-07	24.809	191.128	23.467	74.852	-10.195	125.202	105.334	-10.166	-2.675	118.827	115.474	-2.608	4.383	4.350	11.370	116.188	10.918	-8191	255	
44315.781	1	1	0	0	0.096794	0.10474	0.17487	0.36301	0.096828	0.16848	0.22574	0.13365	0.089483	0.3324	0.1226	0.22845	0.10552	0.15755	0.13683	0.2561	-3.6396	-4.8375	-3.925	-4.2875	-4.7542	-3.7687	-4.6583	-4.4833	-3.7896	-4.6521	-4.1292	-4.3167	-4.7812	-4.0104	-4.4542	-4.5875	222.074	220.818	157.964	309.930	59.312	301.393	307.915	259.833	303.869	235.715	133.685	47.828	76.920	-18.069	45.618	148.474	8.8658e-05	0.00021531	0.00010074	1147.8	1.4374e-06	1.9829e-06	1227.1	237.05	2.2678e-06	2.1503e-06	299.44	83.328	67.041	19.961	2.1404e-06	27.285	1.998e-05	1.596e-05	4.6262e-06	1075.1	1.8664e-07	1.8086e-07	1150.9	222.86	1.8911e-07	1.6933e-07	273.76	77.751	61.097	18.356	1.8191e-07	24.852	194.599	57.330	12.035	-10.445	117.792	111.817	-9.841	-2.627	142.995	72.028	-2.766	4.069	4.675	11.216	63.288	11.140	-8191	255	
44315.879	1	1	0	0	0.21927	0.20436	0.24595	0.21458	0.047762	0.12996	0.11613	0.23126	0.01572	0.13302	0.2488	0.23956	0.1043	0.19532	0.072781	0.082071	-3.6396	-4.825	-4.2104	-4.2396	-4.7604	-3.8312	-4.3667	-4.8167	-3.7375	-4.8354	-4.3354	-4.1687	-4.7292	-3.8833	-4.2542	-4.7063	7.566	37.479	42.180	301.572	112.203	-13.436	276.692	-18.882	160.684	200.067	319.453	325.507	6.070	281.062	197.112	97.154	0.00010932	0.00019088	4.8584e-05	1148.1	2.5181e-06	3.7232e-06	1225.9	238.23	1.5898e-06	2.4803e-06	300.52	84.312	66.215	19.965	9.818e-07	27.314	2.0339e-05	1.6644e-05	4.5497e-06	1073.6	1.9473e-07	1.8671e-07	1148.9	223.2	2.0325e-07	1.7402e-07	273.83	77.685	61.025	18.294	1.9557e-07	24.849	195.930	26.680	3.900	-10.090	135.438	139.480	-10.074	-2.785	167.176	114.570	-2.942	3.744	4.644	11.455	112.428	10.538	-8191	255	
44315.973	1	1	0	0	0.095751	0.21357	0.19602	0.28927	0.15946	0.18153	0.22699	0.24541	0.01509	0.038281	0.031243	0.062507	0.021793	0.15365	0.24369	0.074635	-3.6167	-4.5146	-4.3792	-3.9167	-4.8438	-3.9875	-4.3667	-4.5896	-3.6417	-4.6708	-4.5125	-3.9833	-4.8479	-4.0417	-4.2542	-4.6188	103.019	166.459	137.464	304.049	158.468	50.196	291.842	243.245	319.863	285.923	297.460	274.440	182.054	21.527	155.795	216.055	0.00012931	0.0002166	9.8834e-05	1145.8	1.4975e-06	2.3747e-06	1223	238.96	9.1843e-07	2.9421e-06	300.52	83.788	66.751	19.804	1.7501e-06	27.192	2.05e-05	1.6335e-05	4.607e-06	1074.3	1.999e-07	1.8061e-07	1148.1	223.16	1.9519e-07	1.7709e-07	274	77.664	61.216	18.263	1.8509e-07	24.835	193.124	-1.989	17.406	-10.300	76.081	141.590	-9.720	-2.570	171.584	80.458	-2.661	4.153	4.928	11.444	134.368	10.995	-8191	255	
44316.070	1	1	0	0	0.033697	0.090189	0.05135	0.30912	0.075923	0.13375	0.17511	0.18957	0.1021	0.17439	0.20393	0.19842	0.12376	0.15006	0.088978	0.13028	-3.6146	-4.6167	-4.2937	-3.9792	-4.8271	-4.1354	-4.2208	-4.7042	-3.9833	-4.4688	-4.6396	-3.9604	-4.6979	-4.1625	-4.1417	-4.8854	111.340	120.301	240.788	310.273	59.063	195.176	318.108	266.154	165.764	214.595	28.766	310.587	-5.957	239.423	67.966	20.238	0.00010893	0.00022867	9.5608e-05	1147.2	1.4972e-06	2.6044e-06	1225.8	239.22	1.8951e-06	1.8777e-06	301.64	83.713	66.365	19.967	2.4295e-06	27.42	2.0877e-05	1.6772e-05	4.7056e-06	1073.3	1.9983e-07	1.8318e-07	1148.2	223.36	2.0157e-07	1.7979e-07	274.51	77.658	60.843	18.275	1.963e-07	24.858	194.250	10.958	20.271	-10.298	117.950	104.313	-9.987	-2.421	110.200	86.961	-2.799	4.269	4.485	11.295	84.874	10.466	-8191	255	
44316.164	1	1	0	0	0.12421	0.053594	0.022715	0.26904	0.16071	0.14628	0.11613	0.19445	0.10777	0.09902	0.22712	0.23997	0.1388	0.37764	0.13895	0.019435	-3.6583	-4.1958	-4.7146	-3.8042	-4.6396	-4.3333	-4	-4.8583	-3.8542	-4.1479	-4.5479	-3.8625	-4.6646	-4.2917	-4	-4.9229	166.863	244.934	101.405	273.362	209.549	-11.528	288.444	330.600	74.805	181.312	59.055	-5.901	136.463	259.486	15.980	31.709	0.00011878	0.00011566	4.0878e-05	1143.2	3.006e-06	2.4127e-06	1224.6	238.81	2.1378e-06	1.0657e-06	302.21	83.709	66.242	19.85	1.2837e-06	27.228	2.0233e-05	1.7036e-05	4.7846e-06	1071.7	1.9968e-07	1.8288e-07	1147.5	222.85	1.9433e-07	1.8826e-07	274.62	77.593	60.891	18.246	1.9695e-07	24.828	198.664	-3.181	11.333	-10.218	129.321	96.428	-10.018	-2.256	175.881	79.265	-3.253	3.962	4.769	11.159	115.127	11.189	-8191	255	
44316.285	1	1	0	0	0.2211	0.16524	0.22479	0.31321	0.17192	0.30699	0.18665	0.14721	0.10353	0.29222	0.31448	0.24067	0.37355	0.17279	0.14773	0.065651	-3.6042	-4.1125	-4.6687	-3.8896	-4.4521	-4.5229	-4.0854	-4.8771	-3.7125	-4.0958	-4.7167	-3.8688	-4.5292	-4.625	-3.8042	-4.8125	207.808	318.399	225.248	250.868	-13.825	289.511	260.982	109.931	321.987	275.421	261.861	143.654	330.013	336.291	-13.441	327.990	0.00013804	0.0001883	4.8372e-05	1143.3	2.6852e-06	1.4797e-06	1230.2	239.04	8.7404e-07	2.0145e-06	300.92	83.466	66.163	19.849	1.5328e-06	27.087	2.1584e-05	1.7239e-05	4.657e-06	1071.2	2.0269e-07	1.9055e-07	1148.7	223.01	2.005e-07	1.928e-07	274.06	77.606	60.921	18.241	1.9983e-07	24.746	192.478	48.010	9.977	-10.340	134.963	146.783	-10.108	-2.461	159.657	110.580	-2.894	4.152	4.303	11.480	65.827	10.995	-8191	255	
44316.383	1	1	0	0	0.26562	0.068403	0.10833	0.30689	0.11625	0.15715	0.16952	0.070029	0.12899	0.10517	0.1321	0.014613	0.13846	0.094859	0.19056	0.20707	-3.7708	-4.1375	-4.7375	-4.0687	-4.3063	-4.5687	-4.0833	-4.7146	-4.2438	-4.0813	-4.7958	-3.8021	-4.2937	-4.5938	-3.8021	-4.8667	292.263	145.621	47.583	278.524	154.041	56.848	258.773	166.719	-3.670	235.028	-0.673	286.014	-15.401	129.847	93.017	15.031	0.00011532	0.00010855	8.3005e-05	1146.2	2.1605e-06	2.0439e-06	1225.6	237.11	1.605e-06	2.8991e-06	300.29	83.328	65.918	19.775	1.185e-06	27.359	2.1466e-05	1.7491e-05	4.8249e-06	1072.6	2.0848e-07	1.9234e-07	1147	222.21	2.0547e-07	1.9838e-07	274.32	77.551	60.787	18.204	2.0647e-07	24.821	192.699	339.060	27.763	-10.086	173.481	91.883	-10.072	-2.386	142.382	72.085	-3.193	4.016	4.248	11.647	6.564	10.560	-8191	255	
44316.453	1	1	0	0	0.068383	0.16979	0.23839	0.17074	0.31305	0.27907	0.12964	0.31483	0.012091	0.18298	0.27509	0.22101	0.10376	0.20109	0.35094	0.073983	-4.0125	-3.9688	-4.5708	-4.0896	-3.9542	-4.6125	-3.9813	-4.5646	-4.5125	-3.9	-4.9125	-4.0667	-4.1875	-4.6854	-3.8604	-4.5625	-10.379	73.189	7.073	51.067	277.175	158.440	246.531	-14.250	83.346	119.109	322.443	39.936	184.631	244.822	64.751	59.754	9.3672e-05	0.00022073	3.8249e-05	1146.3	1.1863e-06	1.2937e-06	1224.7	237.25	2.6817e-06	2.6893e-06	300.43	83.116	66.167	19.805	1.82e-06	27.218	2.1943e-05	1.7986e-05	4.7602e-06	1072.8	2.1098e-07	1.8546e-07	1147.6	222.43	2.0313e-07	1.935e-07	274.05	77.287	60.892	18.215	2.056e-07	24.832	195.158	64.217	59.036	-10.182	94.098	123.616	-9.919	-2.482	191.160	110.593	-3.105	4.521	4.277	11.151	76.364	10.998	-8191	255	
44316.574	1	1	0	0	0.018042	0.19944	0.081422	0.13753	0.064638	0.078364	0.10133	0.16838	0.21565	0.13748	0.28127	0.12335	0.24577	0.22411	0.31182	0.13918	-4.1	-3.7833	-4.6896	-4.0563	-4.1271	-4.6979	-4.0167	-4.4313	-4.4833	-3.8979	-4.7979	-4.2562	-4.1292	-4.7792	-3.9583	-4.4542	15.462	75.252	200.735	257.376	149.660	213.657	287.542	231.364	301.873	95.710	309.179	267.621	15.248	223.564	60.799	226.151	0.00010121	0.00015059	8.387e-05	1150.5	1.2421e-06	1.6658e-06	1226.4	238.37	1.8816e-06	8.183e-07	299.69	83.661	66.585	19.798	1.9788e-06	27.257	2.1432e-05	1.8204e-05	4.7903e-06	1073.4	2.1191e-07	1.922e-07	1149.3	222.67	2.0173e-07	1.9156e-07	273.43	77.534	60.878	18.239	2.0376e-07	24.792	200.134	20.425	6.981	-10.047	113.317	89.999	-9.807	-2.552	138.935	65.234	-3.151	4.329	4.300	11.041	122.951	10.849	-8191	255	
44316.668	1	1	0	0	0.35017	0.13787	0.1672	0.32292	0.03541	0.13866	0.018402	0.11428	0.049479	0.085685	0.26542	0.17506	0.23395	0.042764	0.17345	0.24562	-4.0958	-3.8312	-4.6188	-4.3667	-4.0208	-4.7208	-4.15	-4.4354	-4.6625	-3.65	-4.7042	-4.3625	-3.9479	-4.8896	-4.0312	-4.2021	20.132	124.544	277.634	264.250	191.422	200.405	289.909	255.998	111.825	76.385	323.039	5.792	303.014	11.585	5.536	235.024	0.00010486	0.00017588	8.6363e-05	1146.8	2.9716e-06	1.6871e-06	1221.9	236.22	2.0614e-06	2.5285e-06	300.91	83.035	66.107	19.896	2.2969e-06	27.372	2.0254e-05	1.766e-05	4.8148e-06	1073.4	2.0667e-07	1.8329e-07	1148	222.46	1.9544e-07	1.9245e-07	273.97	77.461	60.736	18.25	2.0022e-07	24.881	188.158	46.508	37.871	-10.106	121.070	64.069	-9.567	-2.714	136.228	102.450	-3.151	4.224	4.513	11.046	107.225	10.973	-8191	255	
44316.766	1	1	0	0	0.19241	0.25155	0.12018	0.31147	0.12024	0.028629	0.1315	0.31868	0.13856	0.084512	0.31784	0.14948	0.22132	0.095748	0.18651	0.26498	-4.4208	-3.6896	-4.4979	-4.5667	-3.7938	-4.7979	-4.2167	-4.2854	-4.8125	-3.8563	-4.4208	-4.6604	-4.0021	-4.8271	-4.0521	-4.1104	154.566	99.681	2.966	-5.560	313.983	199.816	265.332	248.598	171.389	200.606	2.743	186.747	-8.507	66.363	63.945	270.578	0.00010589	0.00017394	3.3952e-05	1143.3	1.3412e-06	1.4672e-06	1225.4	236.36	1.2881e-06	1.478e-06	298.88	83.564	66.442	19.881	1.1488e-06	27.298	2.0298e-05	1.7802e-05	4.8061e-06	1073.4	2.0939e-07	1.843e-07	1148.7	222.38	1.9652e-07	1.9439e-07	273.38	77.676	60.958	18.287	1.9534e-07	24.817	191.003	34.584	40.422	-10.134	145.796	130.872	-9.921	-2.592	204.808	123.123	-3.062	4.509	4.761	11.207	79.872	10.637	-8191	255	
44316.863	1	1	0	0	0.18918	0.10775	0.198	0.07	0.031437	0.029122	0.27298	0.10118	0.21137	0.17649	0.073491	0.162	0.068246	0.13567	0.064722	0.2151	-4.4417	-3.9354	-4.4708	-4.6604	-3.6604	-4.6104	-4.4667	-4.0667	-4.8875	-3.9021	-4.5208	-4.675	-3.7313	-4.6813	-4.2458	-4.0396	89.655	135.756	295.040	269.449	80.436	92.467	325.189	41.547	132.831	53.168	246.374	-19.188	269.909	264.614	99.927	258.811	0.00011747	0.00023489	6.668e-05	1147.4	1.7009e-06	8.2624e-07	1233	238.18	2.0394e-06	1.5594e-06	298.95	84.165	66.574	19.869	2.0213e-06	27.397	2.08e-05	1.7907e-05	4.9115e-06	1073.3	2.1571e-07	1.824e-07	1149.2	222.42	1.9885e-07	1.8527e-07	273.78	77.802	61.027	18.271	1.9873e-07	24.918	197.560	77.532	30.512	-10.036	111.149	133.496	-9.940	-2.689	157.842	95.340	-3.311	4.072	4.434	11.630	91.742	10.658	-8191	255	
44316.980	1	1	0	0	0.15754	0.21573	0.16172	0.32684	0.3097	0.21853	0.078132	0.020857	0.23095	0.25087	0.13725	0.16038	0.24027	0.24317	0.12297	0.28434	-4.4917	-3.9521	-4.1625	-4.7792	-3.8479	-4.6104	-4.3854	-3.9396	-4.6771	-3.9729	-4.2042	-4.6125	-3.6562	-4.6542	-4.3812	-4.0813	329.912	254.198	228.120	250.860	132.174	302.964	273.286	72.075	68.015	32.053	262.974	218.516	24.037	310.845	35.337	216.293	0.00012694	0.00021059	6.8859e-05	1146.1	3.4089e-06	1.7677e-06	1233	237.85	2.6329e-06	2.7665e-06	299.88	84.105	67.101	19.951	2.141e-06	27.336	2.0856e-05	1.7572e-05	4.9326e-06	1073.3	2.0193e-07	1.9144e-07	1150.5	222.82	1.9998e-07	1.8852e-07	273.82	77.736	61.056	18.319	1.9751e-07	24.793	187.472	52.127	43.227	-9.948	147.138	91.259	-9.830	-2.494	168.923	108.324	-3.208	4.038	4.552	11.066	96.386	10.625	-8191	255	
44317.078	1	1	0	0	0.1586	0.16271	0.19091	0.10237	0.091327	0.10123	0.23383	0.11342	0.19109	0.16303	0.18944	0.11476	0.17784	0.20113	0.1914	0.18559	-4.6708	-4.1021	-4.2021	-4.8146	-3.8458	-4.5542	-4.625	-4.0375	-4.575	-3.9896	-4.1438	-4.8583	-3.7062	-4.5208	-4.6521	-3.925	55.846	50.131	233.116	42.106	103.426	266.020	-9.252	157.494	72.064	294.922	180.756	301.613	175.524	232.102	183.120	33.366	0.00010462	8.6429e-05	2.0974e-05	1146.2	1.6589e-06	1.9324e-06	1227.1	238.22	1.8671e-06	8.563e-07	298.4	83.833	66.245	19.734	1.8139e-06	27.083	2.0621e-05	1.8013e-05	4.8215e-06	1073.3	2.0922e-07	1.896e-07	1151.6	222.26	1.9814e-07	1.8512e-07	273.79	77.744	60.981	18.263	1.9023e-07	24.783	185.965	32.640	51.025	-10.177	135.820	87.840	-9.668	-2.244	148.510	80.419	-3.249	4.111	4.526	11.205	133.539	10.321	-8191	255	
44317.148	1	1	0	0	0.10563	0.097555	0.09619	0.2548	0.1478	0.13992	0.13197	0.040154	0.18656	0.22413	0.10542	0.37228	0.24718	0.16815	0.10721	0.1907	-4.4396	-4.1021	-3.9854	-4.9875	-3.8812	-4.4062	-4.6583	-3.8604	-4.6875	-4.2229	-3.9417	-4.7958	-4.025	-4.4271	-4.6042	-4.0312	102.003	98.829	-7.671	290.220	163.768	320.889	266.888	17.328	297.976	258.788	67.450	292.563	314.065	307.299	314.388	46.443	0.00012192	0.00018953	7.3999e-05	1146.4	8.129e-07	2.1731e-06	1233.6	238.53	1.2874e-06	2.3786e-06	300.64	83.8	66.569	19.814	7.4965e-07	27.189	2.0607e-05	1.7248e-05	4.9213e-06	1074	2.1446e-07	1.854e-07	1152.7	222.24	1.9787e-07	1.9289e-07	274.13	77.669	61.086	18.338	1.9572e-07	24.829	188.934	-13.904	21.286	-10.210	135.208	125.358	-9.785	-2.829	134.615	116.494	-3.056	3.997	4.813	11.033	77.250	10.864	-8191	255	
44317.246	1	1	0	0	0.21234	0.15166	0.047273	0.39365	0.10594	0.075654	0.044792	0.33021	0.32703	0.08739	0.04623	0.12443	0.082004	0.08157	0.20162	0.11294	-4.4917	-4.2937	-4.0687	-5.0229	-4.0375	-4.1813	-4.95	-3.9417	-4.6375	-4.4125	-4.0437	-4.9667	-4.0417	-4.1771	-4.9042	-3.8812	-12.553	292.535	192.752	301.602	180.871	-2.752	262.612	284.565	189.117	48.289	169.239	23.164	170.504	336.046	20.894	111.496	0.00012555	9.0076e-05	0.00011774	1150.4	1.728e-06	1.8894e-06	1232.1	238.68	7.2929e-07	1.5589e-06	300.68	84.103	66.711	19.829	6.9262e-07	27.489	2.1308e-05	1.7151e-05	4.8652e-06	1074.8	2.1259e-07	1.9286e-07	1152.8	223.01	1.9927e-07	1.8899e-07	274.08	77.746	61.203	18.271	1.9383e-07	24.91	191.833	36.070	4.171	-10.070	138.467	143.561	-9.743	-2.629	187.556	148.256	-3.420	4.378	4.732	11.294	78.192	10.408	-8191	255	
44317.367	1	1	0	0	0.042336	0.30365	0.16834	0.091142	0.097118	0.15096	0.25957	0.042042	0.14066	0.083994	0.059979	0.13065	0.11821	0.10202	0.37501	0.15851	-4.3354	-4.5521	-3.7792	-4.8292	-4.1188	-4.125	-4.9125	-3.9479	-4.4167	-4.5542	-3.7958	-4.6479	-4.175	-3.975	-4.7042	-3.8063	34.249	162.905	226.351	210.433	54.531	127.648	270.481	10.930	42.853	136.043	330.389	266.792	290.404	30.227	28.070	195.808	9.65e-05	0.00012182	6.4309e-05	1146.4	2.6119e-06	3.1082e-06	1233.1	236.6	1.9837e-06	1.832e-06	297.97	83.433	67.012	19.98	1.9356e-06	27.202	2.1051e-05	1.7288e-05	4.9955e-06	1073.9	2.1681e-07	2.0245e-07	1150	222.34	2.101e-07	1.9312e-07	273.74	77.583	61.097	18.344	2.0025e-07	24.809	185.585	66.219	14.816	-10.142	109.577	80.231	-9.849	-2.299	119.139	69.560	-3.180	4.157	4.662	10.936	122.330	10.759	-8191	255	
44317.461	1	1	0	0	0.077302	0.12526	0.034182	0.27718	0.084852	0.12745	0.053383	0.039114	0.25109	0.18	0.095803	0.26126	0.20721	0.11099	0.1763	0.15593	-4.0271	-4.6708	-3.8646	-4.7375	-4.2438	-3.9938	-5.0354	-4.0521	-4.3562	-4.7604	-3.775	-4.7021	-4.3938	-3.9396	-4.8375	-4.1229	21.059	212.227	177.028	262.662	322.226	30.871	318.467	305.863	331.036	294.911	270.152	189.136	13.419	269.458	49.903	242.770	0.00013746	0.00022574	6.535e-05	1143.7	2.9014e-06	2.5521e-06	1228.2	238.32	1.1275e-06	1.0394e-06	299.34	83.854	66.805	19.941	1.3968e-06	27.367	2.1331e-05	1.7653e-05	4.8983e-06	1072.2	2.1225e-07	1.9915e-07	1150.9	222.8	2.0608e-07	1.9135e-07	273.76	77.798	61.21	18.31	1.9378e-07	24.884	180.690	8.430	5.227	-10.240	120.436	113.960	-9.875	-2.559	156.969	59.745	-3.187	4.185	4.829	11.225	170.696	11.127	-8191	255	
44317.559	1	1	0	0	0.22822	0.26182	0.22595	0.24218	0.18885	0.19789	0.15012	0.041513	0.29763	0.069628	0.080258	0.34355	0.085512	0.15808	0.17895	0.26393	-3.9604	-4.6458	-3.8042	-4.6521	-4.4604	-3.8292	-5.0125	-4.2646	-4.2312	-4.7708	-3.875	-4.5396	-4.5125	-3.7792	-4.8667	-4.2562	-15.738	135.190	24.413	-14.724	153.768	184.517	179.621	272.917	71.065	12.327	25.043	331.021	251.397	113.966	71.405	328.723	0.00011981	0.00022245	7.3375e-05	1146.8	2.4072e-06	2.4464e-06	1232.7	238.44	1.0768e-06	2.5846e-06	301.55	83.696	66.678	19.829	2.6894e-06	27.131	2.1785e-05	1.71e-05	4.9748e-06	1073.8	2.0508e-07	1.9086e-07	1152.3	222.69	1.989e-07	1.9025e-07	274.19	77.644	61.068	18.304	1.9099e-07	24.817	179.067	30.768	35.440	-10.266	123.704	133.030	-9.805	-2.347	174.888	116.060	-3.135	4.082	4.278	11.374	93.515	11.020	-8191	255	
44317.680	1	1	0	0	0.21555	0.28228	0.074863	0.19516	0.13349	0.25886	0.27296	0.28359	0.075162	0.1737	0.18966	0.070785	0.21677	0.11522	0.19994	0.032719	-3.8063	-4.8104	-3.7583	-4.4667	-4.5667	-3.9208	-4.8375	-4.3354	-3.8563	-4.7396	-4.2312	-4.4542	-4.6271	-3.8979	-4.6188	-4.4458	14.332	338.009	153.207	315.159	69.773	97.842	260.732	16.548	314.757	276.599	14.151	268.930	271.321	-2.849	32.296	150.060	0.00010519	0.00014097	9.0997e-05	1147.6	7.5803e-07	1.6046e-06	1229.5	238.71	2.1107e-06	2.7125e-06	300.21	83.364	66.085	19.842	2.2381e-06	27.451	2.0934e-05	1.6729e-05	4.9047e-06	1074	2.1074e-07	1.9683e-07	1150.8	222.88	1.9605e-07	1.9675e-07	273.53	77.689	61.043	18.276	1.989e-07	24.888	186.114	33.726	0.381	-10.370	179.396	126.267	-9.712	-2.448	153.235	102.337	-2.916	4.107	4.904	11.277	65.990	10.565	-8191	255	
44317.750	1	1	0	0	0.23195	0.15552	0.15568	0.15606	0.15604	0.079187	0.19822	0.15924	0.072119	0.17638	0.14148	0.30476	0.064509	0.32899	0.060107	0.064359	-3.6771	-4.7021	-3.9542	-4.4437	-4.6167	-3.8208	-4.6979	-4.4729	-3.9125	-4.8792	-4.2562	-4.1979	-4.8625	-3.8646	-4.5062	-4.5354	195.009	204.294	-16.387	7.768	37.227	176.765	201.732	261.302	41.904	332.720	68.411	282.282	97.716	301.231	168.858	45.644	0.0001353	0.00027445	7.0023e-05	1147.4	3.3212e-06	1.3711e-06	1226.3	237.4	2.8519e-06	2.4653e-06	300.66	84.041	66.595	19.961	1.9349e-06	27.311	2.1618e-05	1.6745e-05	5.0041e-06	1074.7	2.0504e-07	1.9298e-07	1149.6	222.45	2.0755e-07	1.9089e-07	273.45	77.712	61.071	18.343	2.0518e-07	24.808	183.074	58.933	62.112	-10.209	143.949	129.211	-10.137	-2.529	108.170	53.787	-2.730	3.887	4.473	12.013	148.796	10.922	-8191	255	
44317.848	1	1	0	0	0.02538	0.13575	0.1458	0.14807	0.15219	0.30112	0.18298	0.32688	0.30511	0.10147	0.12623	0.30352	0.099386	0.14765	0.3068	0.11616	-3.4792	-4.8271	-4.1417	-4.3562	-4.6062	-3.7625	-4.4458	-4.5375	-3.5833	-4.9667	-4.3104	-4.0583	-4.9292	-3.9313	-4.4771	-4.6729	106.751	217.923	27.127	273.900	258.370	267.301	286.585	260.883	300.453	53.626	302.673	280.137	240.804	261.352	183.018	121.088	0.00011767	0.00014484	6.9905e-05	1151.9	4.9431e-07	1.876e-06	1229.3	238.93	3.5033e-06	1.9061e-06	299.08	83.277	66.967	19.912	1.3276e-06	27.152	2.1495e-05	1.773e-05	4.9356e-06	1076	2.0597e-07	1.996e-07	1151.8	222.76	2.0784e-07	1.8372e-07	273.39	77.509	61.185	18.319	1.9977e-07	24.849	179.642	42.754	30.380	-10.153	169.656	145.397	-9.902	-2.448	178.279	115.669	-2.905	4.113	4.633	11.387	133.435	10.981	-8191	255	
44317.969	1	1	0	0	0.2382	0.14224	0.093868	0.15056	0.072534	0.093485	0.14804	0.1762	0.12277	0.13912	0.082473	0.051646	0.14256	0.099303	0.071457	0.16565	-3.5604	-4.8583	-4.2625	-4.0229	-4.7604	-4.0188	-4.5687	-4.7562	-3.8875	-4.5771	-4.4	-3.9333	-4.7771	-3.9292	-4.3771	-4.6417	15.021	90.117	124.948	238.214	209.095	156.927	226.170	-19.310	226.826	274.429	91.804	70.031	314.948	-17.802	277.002	7.841	9.1482e-05	0.00011188	4.2333e-05	1149.4	1.9186e-06	2.2395e-06	1225.8	238.35	1.8481e-06	1.1163e-06	300.32	83.316	66.792	19.892	8.1055e-07	27.404	2.2097e-05	1.7783e-05	4.7598e-06	1074.8	2.1568e-07	1.9461e-07	1148.8	222.78	2.0773e-07	1.8473e-07	274.09	77.539	61.107	18.339	1.9644e-07	24.804	206.142	79.807	35.475	-10.082	130.691	113.917	-9.882	-2.506	114.433	126.803	-2.648	4.503	4.938	11.327	100.268	10.874	-8191	255	
44318.062	1	1	0	0	0.16782	0.10299	0.0478	0.24835	0.13543	0.04798	0.119	0.089938	0.10992	0.21194	0.037102	0.25802	0.10281	0.24726	0.11505	0.089242	-3.45	-4.5833	-4.2917	-3.9979	-4.6646	-3.775	-4.2854	-4.7	-3.7521	-4.5667	-4.7167	-3.8854	-4.8333	-4.1271	-3.9813	-4.9354	252.489	12.261	218.504	259.323	50.048	231.916	190.644	15.492	330.143	13.195	286.207	-9.154	-16.188	120.327	196.518	212.432	0.00013125	0.00027596	6.893e-05	1147.4	1.0205e-06	2.1265e-06	1225.8	239.02	1.0151e-06	2.4512e-06	302.42	84.035	66.692	19.869	1.8148e-06	27.205	2.1145e-05	1.693e-05	4.7542e-06	1074.6	2.063e-07	1.9082e-07	1149.7	223.12	2.0916e-07	1.8184e-07	274.02	77.794	61.179	18.303	2.0502e-07	24.772	173.880	66.089	14.660	-10.167	125.760	93.093	-10.002	-2.310	156.006	137.357	-3.256	4.274	4.642	10.987	45.717	10.941	-8191	255	
44318.160	1	1	0	0	0.17312	0.079869	0.11665	0.13635	0.045144	0.20572	0.54403	0.060999	0.1654	0.016838	0.12963	0.17944	0.25867	0.13543	0.19787	0.29659	-3.4479	-4.5104	-4.5042	-3.9354	-4.7708	-4.2	-4.2792	-4.8063	-3.8187	-4.3479	-4.7125	-3.8167	-4.6708	-4.2604	-3.8	-4.6625	3.233	154.384	24.219	-16.263	196.324	71.157	270.858	137.000	-5.773	244.812	38.036	-15.119	-17.005	39.004	48.225	310.657	0.00010963	0.00023107	8.1496e-05	1145.1	2.2538e-06	2.4377e-06	1225.7	238.88	1.609e-06	1.3814e-06	300.05	83.991	66.84	19.877	1.9086e-06	27.504	2.172e-05	1.7856e-05	4.692e-06	1072	2.0836e-07	1.8666e-07	1150.7	223.06	2.0817e-07	1.877e-07	273.93	77.712	61.191	18.327	1.9368e-07	24.873	184.766	31.827	39.760	-10.261	82.042	121.589	-10.127	-2.294	133.810	49.992	-2.763	4.274	4.443	11.449	88.704	10.813	-8191	255	
44318.277	1	1	0	0	0.20698	0.067726	0.051119	0.13926	0.17195	0.071118	0.25592	0.2781	0.28855	0.16952	0.15705	0.056205	0.0852	0.11534	0.12819	0.027261	-3.5896	-4.1354	-4.7208	-3.7396	-4.5292	-4.3667	-3.9833	-4.7229	-3.8729	-4.0542	-4.7688	-3.7854	-4.6917	-4.3354	-3.7146	-4.8396	175.887	154.688	18.209	239.426	217.583	92.575	286.557	324.102	305.341	85.584	256.732	122.205	313.498	241.557	252.139	239.927	9.6467e-05	1.4785e-05	0.00010183	1147.4	3.1719e-06	2.0662e-06	1232.4	238.52	2.5713e-06	2.479e-06	300.53	83.826	66.268	19.909	1.6806e-06	27.265	2.1979e-05	1.7901e-05	4.8355e-06	1074.4	2.0668e-07	1.858e-07	1150.7	222.94	2.0868e-07	1.8481e-07	273.88	77.683	61.171	18.304	1.993e-07	24.809	202.423	227.756	17.029	-10.395	124.486	92.842	-9.968	-2.277	140.457	127.361	-2.946	4.374	4.502	11.336	119.133	10.797	-8191	255	
44318.375	1	1	0	0	0.01359	0.082653	0.091096	0.14103	0.14324	0.23434	0.14315	0.3258	0.20657	0.2079	0.24406	0.37516	0.16801	0.20524	0.1387	0.22985	-3.8042	-3.9979	-4.5958	-3.9271	-4.5542	-4.5125	-3.9854	-4.8	-4.075	-3.8771	-4.8208	-3.7833	-4.4458	-4.4667	-3.7479	-4.6646	191.268	323.158	136.316	110.387	-11.287	110.686	251.062	266.675	25.370	46.501	12.168	320.857	79.481	215.620	237.531	307.930	9.1536e-05	0.0002115	0.00010004	1145	1.806e-06	3.1218e-06	1227.7	237.82	9.1141e-07	2.7919e-06	300.96	84.036	66.645	19.929	1.8067e-06	27.307	2.119e-05	1.76e-05	4.7387e-06	1074.4	2.0839e-07	1.8726e-07	1148.5	222.74	2.0106e-07	1.9528e-07	274.45	77.791	61.101	18.328	1.9169e-07	24.905	187.737	53.721	67.162	-10.374	149.708	95.590	-10.024	-2.322	150.150	113.998	-3.027	4.192	4.527	11.512	97.353	10.360	-8191	255	
44318.445	1	1	0	0	0.21171	0.11707	0.15162	0.072607	0.11503	0.10657	0.059218	0.31475	0.27393	0.14842	0.10036	0.081132	0.15092	0.067724	0.17082	0.16452	-3.8729	-3.9625	-4.7729	-4.0917	-4.3833	-4.6396	-3.9229	-4.7479	-4.2562	-3.95	-4.7562	-3.9021	-4.1854	-4.7396	-3.5833	-4.5687	88.390	97.952	110.083	0.574	258.154	110.178	309.451	242.059	124.247	200.784	58.462	320.431	6.929	42.785	127.365	278.632	0.00012248	0.00013673	9.3577e-05	1149.7	1.065e-06	2.0723e-06	1225.6	238.25	2.0611e-06	3.0107e-06	300.44	84.315	66.614	20.054	1.6879e-06	27.39	2.0285e-05	1.756e-05	4.607e-06	1073.4	1.9812e-07	1.8285e-07	1150.1	222.87	1.8967e-07	1.8745e-07	273.91	77.953	61.247	18.385	1.924e-07	24.919	191.030	0.413	39.193	-10.452	104.298	176.418	-9.874	-2.327	118.208	113.723	-2.885	4.440	4.412	11.379	88.181	10.448	-8191	255	
44318.543	1	1	0	0	0.32493	0.12255	0.10783	0.19325	0.071506	0.13568	0.23535	0.23959	0.069787	0.11606	0.15774	0.058986	0.11102	0.15174	0.10734	0.17979	-4.0208	-3.9208	-4.8104	-4.0917	-4.0917	-4.7083	-4.0062	-4.7562	-4.4667	-3.8042	-4.675	-4.1333	-4.25	-4.7792	-4	-4.4833	160.312	128.568	167.298	4.665	96.741	109.823	335.690	256.731	6.269	175.978	284.437	47.635	71.137	115.495	271.571	251.351	0.00014549	0.00023283	5.3701e-05	1149	2.0793e-06	2.8434e-06	1231.4	238.35	1.8026e-06	2.9119e-06	299.4	83.487	66.851	20.037	1.07e-06	27.408	2.0026e-05	1.758e-05	4.6563e-06	1073.6	2.1022e-07	1.8797e-07	1152.2	222.91	1.9897e-07	1.8795e-07	273.94	77.587	61.16	18.305	1.9286e-07	24.923	192.166	27.403	-3.000	-10.072	142.672	138.030	-10.038	-2.323	194.607	105.454	-2.959	3.965	4.671	11.299	34.800	11.066	-8191	255	
44318.637	1	1	0	0	0.14456	0.037786	0.17505	0.28065	0.20157	0.19967	0.13074	0.081355	0.27721	0.096305	0.19783	0.089239	0.13728	0.28374	0.20085	0.36231	-4.25	-3.7458	-4.6854	-4.3479	-3.7729	-4.7604	-4.1646	-4.5354	-4.4354	-3.7188	-4.7208	-4.325	-4.1937	-4.875	-3.8375	-4.2667	-13.626	151.940	315.494	325.847	281.831	162.823	91.899	169.941	165.405	306.327	94.219	259.617	138.849	191.401	118.844	314.049	0.00011832	0.00022332	6.0855e-05	1143.5	1.2808e-06	5.9451e-07	1229.2	236.88	2.9389e-06	1.5318e-06	299.89	84.659	66.645	20.001	4.8115e-07	27.268	2.003e-05	1.7409e-05	4.6905e-06	1072.6	2.0449e-07	1.7855e-07	1149.7	222.87	1.9943e-07	1.8573e-07	273.45	77.836	61.252	18.344	1.8711e-07	24.87	186.620	75.724	67.444	-10.048	179.013	175.558	-9.917	-2.658	171.199	115.122	-3.083	4.263	4.679	11.277	39.537	10.487	-8191	255	
44318.758	1	1	0	0	0.16688	0.19347	0.088997	0.21248	0.044592	0.28975	0.08429	0.015691	0.1069	0.13589	0.2477	0.084418	0.17123	0.10263	0.27011	0.12868	-4.2125	-3.85	-4.6062	-4.4979	-3.8292	-4.7083	-4.0979	-4.2771	-4.7167	-3.775	-4.6375	-4.4021	-3.9375	-4.7833	-4.0146	-4.3729	12.537	3.534	-5.951	316.107	322.393	283.529	136.832	264.441	167.746	194.558	299.930	-1.422	216.540	130.726	195.584	-17.761	9.3808e-05	0.00016673	9.5757e-05	1145.2	1.3774e-06	2.7432e-06	1227.1	237.09	2.3529e-06	2.1613e-06	300.3	84.443	66.574	20.058	1.4163e-06	27.391	1.9934e-05	1.7392e-05	4.3231e-06	1073.3	2.0645e-07	1.7791e-07	1149.7	222.58	1.9448e-07	1.8463e-07	273.8	77.944	61.128	18.381	1.8613e-07	24.85	194.377	62.596	-5.304	-10.166	179.585	116.467	-9.856	-2.701	130.400	87.400	-2.855	4.406	4.010	11.430	84.250	10.631	-8191	255	
44318.855	1	1	0	0	0.091602	0.11349	0.11694	0.20958	0.080185	0.31211	0.29681	0.28455	0.14697	0.17146	0.17485	0.21432	0.089042	0.29414	0.037428	0.15501	-4.5167	-3.725	-4.45	-4.5292	-3.8604	-4.7833	-4.2604	-4.1208	-4.8271	-3.7625	-4.5167	-4.6062	-3.85	-4.6979	-4.1271	-3.9396	230.240	228.502	183.174	320.890	61.197	234.399	276.708	181.104	248.127	32.822	306.028	137.308	41.919	312.676	43.909	289.100	0.00014093	0.00020461	9.2321e-05	1146.5	2.7113e-06	1.6384e-06	1227	238.83	2.37e-06	1.2528e-06	300.1	83.825	66.991	20.014	2.421e-06	27.477	2.0041e-05	1.7094e-05	4.4948e-06	1074.2	1.9744e-07	1.7591e-07	1148.3	222.99	1.8893e-07	1.8748e-07	273.9	77.917	61.285	18.398	1.934e-07	24.919	194.748	20.688	14.225	-10.082	115.653	138.787	-9.985	-2.529	147.445	89.628	-2.734	3.626	4.499	11.087	121.268	10.630	-8191	255	
44318.949	1	1	0	0	0.078981	0.184	0.33778	0.24933	0.13314	0.12752	0.014618	0.13943	0.03426	0.21254	0.083203	0.20285	0.01857	0.2734	0.064907	0.22082	-4.3542	-3.875	-4.1271	-4.6271	-3.6667	-4.7188	-4.5104	-3.9271	-4.7771	-3.8583	-4.2417	-4.6271	-3.7604	-4.4771	-4.3958	-4	136.449	92.881	21.149	237.858	239.030	138.469	17.602	289.086	289.431	103.374	266.070	50.475	201.450	39.971	108.775	249.363	0.0001039	0.00017565	7.8844e-05	1144.2	1.4791e-06	1.5565e-06	1233.5	238.41	1.4668e-06	1.0321e-06	300.01	84.06	67.274	19.967	1.7745e-06	27.566	1.9476e-05	1.6943e-05	4.6917e-06	1073.3	1.985e-07	1.7331e-07	1149.9	223.31	1.9075e-07	1.8126e-07	274.11	77.793	61.346	18.313	1.7995e-07	24.937	201.960	-3.724	36.870	-10.010	159.677	108.312	-9.990	-2.522	166.947	124.182	-3.357	4.363	4.543	11.156	105.755	11.129	-8191	255	
44319.047	1	1	0	0	0.11641	0.1596	0.23885	0.079066	0.092377	0.15428	0.17978	0.16714	0.05031	0.013163	0.079419	0.11523	0.065079	0.22496	0.19115	0.016106	-4.5375	-3.8688	-4.3438	-4.7479	-3.7729	-4.7208	-4.5125	-3.8646	-4.6062	-3.9167	-4.2833	-4.6417	-3.975	-4.5042	-4.3667	-3.9333	276.638	298.918	200.650	248.223	332.082	321.057	-3.723	208.715	297.396	54.716	138.782	172.676	116.069	234.764	254.160	72.926	8.7699e-05	0.00017695	8.5895e-05	1146.2	2.0842e-06	9.5692e-07	1226.1	238.11	1.4951e-06	6.1602e-07	301.33	83.77	67.299	19.906	1.318e-06	27.38	1.9982e-05	1.6828e-05	4.6713e-06	1073.7	2.0541e-07	1.7576e-07	1149.4	223.44	1.9096e-07	1.8681e-07	273.96	77.77	61.314	18.331	1.798e-07	24.965	191.146	60.152	37.467	-10.088	115.129	89.424	-9.921	-3.006	123.715	129.626	-2.637	4.084	4.375	11.230	111.486	10.404	-8191	255	
44319.145	1	1	0	0	0.029411	0.0072007	0.21493	0.10666	0.067154	0.2437	0.22988	0.34345	0.20353	0.065876	0.15948	0.18542	0.034384	0.11196	0.052774	0.072058	-4.3375	-4.0896	-3.9042	-4.9833	-3.8479	-4.3083	-4.6271	-3.9333	-4.6229	-4.1542	-3.9938	-4.7125	-4.0354	-4.4875	-4.4583	-3.9125	326.645	236.847	210.286	158.789	300.515	-10.657	244.925	254.366	237.196	320.499	-6.816	272.552	55.077	334.084	229.939	301.215	9.0212e-05	9.2444e-05	8.6367e-05	1148.9	2.8901e-06	1.6475e-06	1232.4	238.26	1.6554e-06	1.792e-06	299.24	84.388	67.146	19.865	1.126e-06	27.369	2.0063e-05	1.6664e-05	4.7398e-06	1073.9	2.0192e-07	1.8006e-07	1151.5	223.03	1.8727e-07	1.845e-07	274.17	78.022	61.304	18.314	1.8805e-07	24.944	199.908	23.699	70.420	-10.226	138.099	157.658	-9.857	-2.680	147.050	97.454	-3.095	4.118	4.749	11.528	92.409	10.748	-8191	255	
44319.238	1	1	0	0	0.24041	0.13025	0.24039	0.078839	0.033419	0.13015	0.29593	0.17313	0.16008	0.14999	0.077636	0.068931	0.12565	0.10555	0.21994	0.2041	-4.3875	-4.1875	-3.9646	-4.9396	-3.8479	-4.3646	-4.8917	-3.8229	-4.3667	-4.3417	-3.9271	-4.9333	-3.925	-4.2771	-4.6729	-3.8417	252.338	136.966	160.919	282.465	209.713	65.313	327.201	316.298	44.991	293.634	298.040	301.856	211.399	10.371	116.153	188.684	0.00010866	9.0102e-05	8.9474e-05	1143.2	7.1907e-07	2.4487e-06	1231.5	238.6	2.1165e-06	1.5071e-06	299.97	83.718	67.42	20.016	1.0691e-06	27.424	2.0566e-05	1.6369e-05	4.6405e-06	1072.5	2.026e-07	1.7145e-07	1149.8	223.04	1.8567e-07	1.7527e-07	274.28	77.82	61.332	18.366	1.7904e-07	24.874	196.262	64.365	42.048	-10.238	135.042	82.972	-9.855	-2.513	165.636	93.471	-3.041	4.416	4.713	11.119	124.995	10.603	-8191	255	
44319.359	1	1	0	0	0.23273	0.10602	0.11854	0.39912	0.1752	0.22618	0.08162	0.13657	0.21902	0.19174	0.21331	0.044009	0.15914	0.06228	0.07359	0.19733	-4.2188	-4.3	-3.9167	-4.8083	-4.0792	-4.0563	-4.85	-3.8563	-4.3458	-4.2312	-3.8917	-4.7917	-4.0479	-3.9688	-4.825	-3.9	63.594	98.718	159.996	-9.964	261.805	123.758	160.516	293.929	88.177	-1.466	296.154	88.053	22.496	331.180	37.233	79.532	0.0001204	7.4698e-05	5.1996e-05	1143.3	1.3362e-06	8.4779e-07	1228	237.61	1.456e-06	2.0117e-06	299.58	83.863	67.005	20.076	9.3724e-07	27.539	2.0532e-05	1.6035e-05	4.7587e-06	1074	1.9736e-07	1.7748e-07	1150.6	223.06	2.0023e-07	1.7662e-07	274.43	77.921	61.372	18.367	1.765e-07	24.935	194.369	34.251	18.086	-10.127	136.835	151.627	-9.711	-2.533	155.845	104.967	-3.031	3.943	4.484	10.969	116.472	10.681	-8191	255	
44319.453	1	1	0	0	0.27909	0.21181	0.08468	0.30238	0.094549	0.15064	0.18423	0.18271	0.067621	0.11213	0.15804	0.09196	0.1828	0.14361	0.065185	0.06577	-4.0521	-4.4917	-3.775	-4.9187	-4.1021	-4.0229	-4.9083	-3.8208	-4.2625	-4.4646	-3.7042	-4.7875	-4.2792	-3.9458	-4.7604	-3.8708	50.986	79.831	37.163	293.527	1.988	71.285	321.615	277.409	270.828	311.290	276.127	-3.553	12.753	311.940	212.258	271.115	9.4989e-05	0.00018958	6.8321e-05	1147	1.7028e-06	1.6977e-06	1226.4	238.32	1.9667e-06	2.3131e-06	299.56	83.769	66.462	19.971	2.0962e-06	27.558	2.0362e-05	1.6707e-05	4.5595e-06	1073.1	1.9647e-07	1.8282e-07	1151.3	223.27	1.8946e-07	1.807e-07	273.63	77.853	61.223	18.357	1.8311e-07	24.968	183.872	44.339	15.100	-10.294	102.393	137.253	-9.903	-2.515	139.013	88.888	-2.995	4.158	4.392	11.537	93.320	10.671	-8191	255	
44319.551	1	1	0	0	0.1366	0.11832	0.04898	0.23766	0.14369	0.068016	0.24277	0.047312	0.1533	0.15732	0.28028	0.20588	0.15845	0.080386	0.10514	0.09699	-3.9292	-4.5417	-3.6583	-4.5729	-4.4354	-3.7604	-4.9042	-4.0521	-4.0813	-4.5917	-3.8812	-4.4688	-4.3354	-3.8875	-4.5979	-4.2042	121.449	91.253	157.823	287.591	275.034	281.462	298.611	315.606	88.696	170.838	145.041	327.655	258.689	260.065	255.273	180.884	0.00011505	0.0001515	7.0725e-05	1144.9	1.4638e-06	2.2691e-06	1226.2	239.31	1.4544e-06	9.5448e-07	302.23	84.455	66.778	19.975	1.5742e-06	27.31	2.0517e-05	1.666e-05	4.6529e-06	1071.1	1.883e-07	1.7691e-07	1150	223.33	1.9161e-07	1.6973e-07	274.61	78.096	61.202	18.396	1.8139e-07	24.885	190.211	8.240	30.206	-10.211	117.160	108.141	-10.005	-2.417	155.047	128.528	-3.097	4.013	4.919	10.876	93.164	10.687	-8191	255	
44319.648	1	1	0	0	0.16731	0.088402	0.20812	0.19441	0.18734	0.12679	0.16638	0.24434	0.15112	0.25304	0.23568	0.27508	0.071028	0.21608	0.18461	0.12291	-3.8708	-4.7479	-3.7542	-4.5938	-4.4854	-3.7167	-4.8812	-4.1646	-3.8396	-4.6583	-3.9375	-4.3625	-4.5312	-3.7604	-4.775	-4.3583	17.709	171.399	-5.215	269.452	217.516	267.458	303.972	231.525	257.220	71.885	229.623	334.828	296.737	87.295	101.430	160.321	0.00010124	0.00015106	8.5351e-05	1145.4	2.6877e-06	1.812e-06	1227.1	237.57	1.3435e-06	2.0106e-06	302.21	84.055	66.838	19.915	9.3477e-07	27.611	2.0436e-05	1.6236e-05	4.6326e-06	1072	1.9329e-07	1.7816e-07	1150.7	223.38	1.9448e-07	1.6957e-07	274.31	77.951	61.176	18.325	1.8126e-07	24.916	190.700	46.922	4.575	-10.226	154.470	97.044	-10.110	-2.624	177.181	73.945	-3.231	3.946	4.555	11.600	118.579	10.554	-8191	255	
44319.742	1	1	0	0	0.18096	0.13592	0.20735	0.24679	0.14896	0.099122	0.19975	0.20859	0.073705	0.22875	0.013829	0.11873	0.15734	0.057165	0.11729	0.070845	-3.5875	-4.6958	-3.9917	-4.2562	-4.5292	-3.7062	-4.7271	-4.3729	-3.9083	-4.8896	-4.1062	-4.2958	-4.65	-3.7583	-4.4729	-4.4042	306.906	109.205	126.938	282.588	195.252	20.702	296.269	324.339	51.190	75.056	210.662	119.522	66.619	254.027	158.946	21.174	9.7917e-05	0.00020628	0.00010537	1146.7	2.4328e-06	2.311e-06	1231	237.3	2.3111e-06	3.2787e-06	300.34	84.111	67.086	19.946	1.8388e-06	27.496	2.0509e-05	1.6378e-05	4.8645e-06	1072.7	2.002e-07	1.8883e-07	1149.3	222.62	1.9163e-07	1.6912e-07	273.97	77.725	61.341	18.369	1.7793e-07	24.911	181.023	14.861	19.095	-10.292	99.925	114.521	-9.876	-2.389	110.037	92.847	-2.957	3.970	4.933	11.050	134.236	11.176	-8191	255	
44319.840	1	1	0	0	0.10509	0.10487	0.096406	0.30469	0.1922	0.38242	0.089674	0.37542	0.10198	0.14233	0.050996	0.13225	0.099998	0.15888	0.12282	0.071245	-3.7125	-4.7333	-3.9708	-4.1792	-4.5396	-3.7521	-4.6354	-4.5292	-3.7167	-4.7917	-4.2833	-4.1708	-4.8313	-3.9292	-4.3438	-4.4417	223.839	153.982	174.912	270.467	241.809	88.424	155.275	326.921	144.071	64.525	304.426	49.665	300.915	312.837	54.125	76.386	0.00011642	9.7117e-05	6.3676e-05	1143.5	1.4419e-06	1.0808e-06	1225.3	238.8	2.725e-06	2.1041e-06	301.89	84.137	67.032	20.079	2.3651e-06	27.356	2.0018e-05	1.6231e-05	4.6051e-06	1071.9	1.9034e-07	1.8304e-07	1147.8	223.26	1.8908e-07	1.7521e-07	274.56	77.923	61.094	18.382	1.8557e-07	24.93	193.128	43.869	40.929	-10.273	147.966	125.070	-9.971	-2.522	164.937	97.769	-2.542	4.186	4.682	11.625	101.979	11.157	-8191	255	
44319.934	1	1	0	0	0.29952	0.016611	0.23225	0.2468	0.11141	0.12956	0.20701	0.045829	0.28739	0.15353	0.07998	0.15821	0.12904	0.15104	0.13393	0.037621	-3.4417	-4.7417	-4.1646	-4.2125	-4.7562	-3.9917	-4.4458	-4.8354	-3.7687	-4.5396	-4.3479	-4.0896	-4.9042	-4.0833	-4.3896	-4.7604	108.341	154.919	-5.387	320.719	3.012	-9.436	225.003	27.455	213.155	26.994	5.923	7.239	8.190	28.569	106.325	322.334	0.0001233	9.4119e-05	4.0879e-05	1138.5	1.6762e-06	2.3274e-06	1225.1	239.67	1.9609e-06	1.6701e-06	300	84.099	66.841	19.912	2.8656e-06	27.514	2.0553e-05	1.6336e-05	4.8023e-06	1069.1	1.9457e-07	1.8761e-07	1148.9	223.29	1.909e-07	1.7239e-07	274.1	77.712	61.243	18.325	1.8522e-07	24.893	188.521	9.217	-2.148	-10.159	103.787	120.483	-9.721	-2.339	127.516	92.392	-2.635	4.220	4.411	11.607	117.590	10.645	-8191	255	
44320.055	1	1	0	0	0.10468	0.22198	0.12558	0.1043	0.013997	0.10211	0.185	0.11652	0.095117	0.046604	0.20986	0.25992	0.30574	0.064862	0.16308	0.17439	-3.475	-4.7042	-4.4021	-4.1042	-4.6208	-4.1958	-4.4917	-4.7333	-3.9292	-4.6646	-4.5188	-4.0583	-4.9688	-4.0667	-3.9938	-4.8667	177.983	167.694	284.512	-9.753	78.121	140.096	309.131	-10.940	177.027	85.936	-1.886	18.565	316.634	315.980	220.600	174.656	9.9182e-05	0.00010865	5.3026e-05	1140.8	2.4106e-06	3.0203e-06	1225.9	239.61	2.2983e-06	9.7957e-07	300.74	83.825	66.681	20.012	2.3164e-06	27.485	1.9925e-05	1.6277e-05	4.5844e-06	1070.8	1.9837e-07	1.8188e-07	1147.4	223.38	1.9283e-07	1.7598e-07	274.12	77.805	61.169	18.381	1.9139e-07	24.881	198.516	-2.081	44.405	-10.447	128.104	144.549	-10.011	-2.423	136.996	55.131	-3.149	4.501	4.492	11.398	105.323	10.951	-8191	255	
44320.148	1	1	0	0	0.13655	0.069401	0.023167	0.29018	0.18007	0.11721	0.24834	0.12016	0.22248	0.20971	0.13008	0.20928	0.19691	0.13399	0.24266	0.23964	-3.5438	-4.5729	-4.5167	-4.0417	-4.7229	-4.1229	-4.1229	-4.6937	-3.7729	-4.3229	-4.5708	-4.0521	-4.825	-4.1354	-3.8375	-4.7188	66.888	328.427	113.160	-19.306	164.786	76.472	316.070	26.893	103.319	330.201	32.383	63.546	51.176	318.950	73.145	14.571	0.00010608	0.00014461	0.00011725	1143.4	1.128e-06	2.3807e-06	1230.3	237.54	1.8228e-06	7.3922e-07	301.55	83.863	67.02	19.922	2.5226e-06	27.448	2.0246e-05	1.5917e-05	4.5237e-06	1071.8	1.8845e-07	1.7641e-07	1149.1	222.67	1.9997e-07	1.715e-07	274.43	77.839	61.289	18.298	1.9103e-07	24.882	190.073	44.762	11.833	-10.224	138.519	122.154	-10.002	-2.328	151.603	79.669	-2.795	4.174	4.860	11.483	80.864	10.644	-8191	255	
44320.246	1	1	0	0	0.23215	0.055292	0.10153	0.10784	0.10811	0.184	0.22529	0.1649	0.17347	0.077808	0.077361	0.2137	0.1471	0.16003	0.10158	0.19394	-3.4979	-4.2979	-4.5979	-3.7667	-4.7	-4.3375	-4.2208	-4.8896	-3.9313	-4.3375	-4.7125	-3.8375	-4.6125	-4.3063	-3.9583	-4.7333	274.662	-1.903	339.414	313.618	208.105	298.936	266.493	313.393	116.506	156.113	73.927	149.928	245.860	17.032	105.132	28.042	0.00011647	0.00013342	8.162e-05	1141.2	1.0161e-06	1.4377e-06	1226.7	239.38	2.0426e-06	1.8562e-06	301.42	83.681	66.448	19.899	1.1304e-06	27.376	1.975e-05	1.5913e-05	4.4198e-06	1068.9	1.9222e-07	1.7166e-07	1147.5	223.66	1.9338e-07	1.7946e-07	274.14	77.748	61.011	18.282	1.8438e-07	24.88	203.314	33.154	30.124	-10.376	86.979	83.922	-10.108	-2.295	129.761	71.938	-2.785	4.087	4.517	11.592	129.676	10.862	-8191	255	
44320.320	1	1	0	0	0.1681	0.21071	0.15396	0.27102	0.20066	0.037955	0.26677	0.054219	0.20644	0.22517	0.16466	0.088138	0.13411	0.11815	0.14318	0.24173	-3.4771	-4.1062	-4.5938	-3.8583	-4.475	-4.475	-4.0792	-4.7312	-3.9208	-3.975	-4.7583	-3.8479	-4.4229	-4.5833	-3.8708	-4.8271	168.855	118.981	96.537	247.823	159.032	135.685	252.759	336.112	255.520	94.591	-8.836	138.789	146.381	285.395	335.406	308.982	0.00012555	0.00026227	8.2584e-05	1139.7	1.634e-06	1.9558e-06	1228.1	238.85	3.2851e-06	3.2831e-06	300.91	84.11	67.066	19.799	9.0521e-07	27.409	2.0102e-05	1.6363e-05	4.5226e-06	1069.1	1.958e-07	1.7813e-07	1147.8	223.52	1.9811e-07	1.7955e-07	274.44	77.848	61.249	18.267	1.8341e-07	24.904	189.144	31.113	52.146	-10.428	117.797	158.079	-9.973	-2.539	161.479	101.404	-3.195	4.250	4.508	11.359	133.341	10.859	-8191	255	
44320.438	1	1	0	0	0.1233	0.32978	0.096349	0.20854	0.14582	0.14026	0.076893	0.15809	0.14432	0.23064	0.19943	0.037577	0.12521	0.12751	0.14147	0.23632	-3.6688	-3.9458	-4.8313	-4.0042	-4.4542	-4.5938	-3.8833	-4.8292	-4.0104	-4.0813	-4.8833	-3.9146	-4.4187	-4.6354	-3.6146	-4.6375	40.757	45.289	164.634	281.647	218.451	9.448	41.983	303.699	141.556	272.500	313.870	212.689	20.716	27.546	81.350	0.067	9.9242e-05	0.00011208	6.0002e-05	1141.2	2.1293e-06	2.9046e-06	1223.3	238	2.8683e-06	2.3586e-06	300.3	83.989	67.086	19.879	1.4695e-06	27.221	2.0594e-05	1.6368e-05	4.4097e-06	1069.9	1.9693e-07	1.7604e-07	1147.1	223.22	1.8386e-07	1.7722e-07	273.99	77.775	61.127	18.267	1.8609e-07	24.841	193.008	46.802	50.429	-10.221	137.458	93.075	-9.943	-2.539	161.252	82.130	-2.715	4.311	4.285	10.942	83.814	10.728	-8191	255	
44320.535	1	1	0	0	0.3223	0.031994	0.32437	0.18572	0.049884	0.25749	0.11995	0.16073	0.1646	0.11596	0.14471	0.16577	0.24478	0.13335	0.030149	0.13056	-4.0292	-3.8979	-4.7729	-3.9958	-4.2688	-4.5312	-4.0604	-4.7562	-4.3125	-3.9604	-4.9167	-3.975	-4.2542	-4.6062	-3.7083	-4.625	206.950	-8.760	-10.186	315.150	256.069	198.487	302.436	270.359	215.053	1.722	230.189	275.570	239.127	170.461	115.272	46.037	0.00014284	8.604e-05	7.6942e-05	1143.1	1.0941e-06	2.4813e-06	1224.3	238.79	1.2005e-06	2.539e-06	299.44	84.502	66.968	19.922	1.1249e-06	27.245	2.0224e-05	1.601e-05	4.4853e-06	1071.4	1.9276e-07	1.746e-07	1149.6	223.46	1.9497e-07	1.8176e-07	273.75	77.68	61.28	18.368	1.8344e-07	24.958	183.319	37.029	34.398	-10.017	178.685	160.858	-9.904	-2.498	149.928	96.418	-3.017	4.106	4.633	10.791	102.910	10.811	-8191	255	
44320.633	1	1	0	0	0.15878	0.051834	0.2051	0.030604	0.23028	0.21278	0.059543	0.081455	0.26992	0.19062	0.029454	0.18118	0.40653	0.14417	0.16604	0.11607	-4.1958	-3.6479	-4.7292	-4.1208	-4.0021	-4.7646	-3.9646	-4.5125	-4.3771	-3.8458	-4.825	-4.0208	-4.0833	-4.7	-3.8125	-4.4812	81.661	161.408	199.508	-17.410	334.707	330.069	150.316	309.478	19.472	53.345	25.627	290.322	302.333	34.868	30.528	177.247	0.0001317	0.00014385	2.549e-05	1142.2	2.2645e-06	1.0811e-06	1225.5	238.57	1.3739e-06	2.8076e-06	300.24	84.137	66.484	20.149	1.3579e-06	27.327	2.0003e-05	1.6679e-05	4.328e-06	1071.5	1.9516e-07	1.7122e-07	1147.1	223.54	1.8326e-07	1.7763e-07	274.1	77.864	61.094	18.408	1.8472e-07	24.901	188.038	51.479	-13.370	-10.319	74.862	120.646	-9.855	-2.567	141.486	77.915	-2.954	4.264	4.522	11.177	130.158	10.819	-8191	255	
44320.727	1	1	0	0	0.010536	0.34704	0.16198	0.1873	0.19951	0.16468	0.19093	0.19615	0.22831	0.0996	0.085438	0.13981	0.224	0.10386	0.14325	0.20285	-4.3063	-3.8083	-4.8292	-4.5646	-3.9437	-4.6104	-4.3583	-4.3958	-4.5333	-3.8125	-4.7167	-4.3063	-3.8708	-4.9125	-3.9062	-4.35	280.022	187.504	144.741	259.881	325.071	82.216	244.482	231.237	281.414	19.905	319.894	171.119	-3.236	55.367	133.702	204.237	0.0001015	0.00021403	6.0968e-05	1147.1	3.4135e-06	9.232e-07	1224.1	239.43	2.5416e-06	3.4494e-06	302.06	84.184	67.417	20.029	8.6163e-07	27.688	1.9099e-05	1.5874e-05	4.2666e-06	1073.2	1.8906e-07	1.7401e-07	1147.3	223.15	1.8635e-07	1.8044e-07	274.79	77.911	61.343	18.368	1.7851e-07	25.001	185.045	19.915	-16.755	-10.252	143.254	127.114	-9.777	-2.622	196.424	122.422	-2.745	4.471	4.371	11.145	92.212	10.652	-8191	255	
44320.848	1	1	0	0	0.16998	0.18628	0.20049	0.3536	0.23745	0.079106	0.34871	0.18693	0.068987	0.1378	0.023082	0.23001	0.23436	0.23885	0.11135	0.14276	-4.2937	-3.9062	-4.7083	-4.5875	-3.9083	-4.7979	-4.1875	-4.2521	-4.7438	-3.8	-4.7146	-4.4833	-3.9354	-4.6729	-4.0938	-4.1813	201.504	193.827	81.795	337.021	188.312	52.500	279.981	223.712	234.118	55.328	68.664	222.904	194.848	324.765	69.473	293.777	0.00012304	0.00026535	9.846e-05	1142.3	1.6534e-06	1.9309e-06	1226.9	238.9	1.3827e-06	1.6984e-06	302.44	83.594	67.019	19.804	1.8194e-06	27.195	1.8929e-05	1.6508e-05	4.5109e-06	1072.2	1.9975e-07	1.6525e-07	1150.1	223.58	1.8221e-07	1.7752e-07	274.74	77.826	61.245	18.348	1.8777e-07	24.802	192.848	54.600	26.731	-10.186	116.183	109.491	-9.808	-2.783	134.546	136.266	-3.196	4.338	4.019	11.490	100.568	11.151	-8191	255	
44320.918	1	1	0	0	0.27382	0.21061	0.094358	0.1158	0.022906	0.077074	0.071745	0.22841	0.19805	0.070898	0.030486	0.22549	0.17498	0.23604	0.050882	0.041355	-4.5229	-3.6917	-4.4604	-4.5687	-3.7979	-4.9	-4.3729	-4.2188	-4.8167	-3.8333	-4.3604	-4.5854	-3.75	-4.5437	-4.2271	-3.925	98.333	59.858	337.959	190.872	219.921	74.344	209.961	275.055	107.001	298.877	212.446	252.067	77.707	322.469	70.585	135.270	0.00012068	0.00023958	8.9186e-05	1138.9	3.2112e-06	1.5393e-06	1226.7	239.23	1.9628e-06	2.4501e-06	302.23	83.807	67.118	19.934	1.7871e-06	27.592	1.949e-05	1.6104e-05	4.3969e-06	1068.9	1.943e-07	1.6806e-07	1147.6	223.39	1.8509e-07	1.7776e-07	274.48	77.906	61.355	18.351	1.803e-07	24.96	204.970	32.706	29.851	-10.095	114.685	97.575	-9.782	-2.379	158.952	64.448	-2.858	4.389	4.198	11.518	116.186	10.846	-8191	255	
44321.039	1	1	0	0	0.17583	0.070177	0.15879	0.15775	0.093491	0.073647	0.19746	0.21832	0.17316	0.035686	0.08475	0.15977	0.15218	0.13998	0.12489	0.12636	-4.3646	-3.8979	-4.3229	-4.9479	-3.6354	-4.5708	-4.5437	-4.0771	-4.6792	-4.0208	-4.1417	-4.6333	-3.7792	-4.5938	-4.4229	-3.9437	138.106	103.498	58.647	298.364	168.827	320.790	183.966	-12.823	-14.435	249.577	227.400	188.744	96.169	-16.243	-16.314	262.520	0.00011565	0.00023034	0.00010138	1144.1	2.3089e-06	2.3998e-06	1227.3	238.83	4.1051e-06	2.8228e-06	300.13	83.688	66.836	19.901	1.6413e-06	27.455	1.995e-05	1.6155e-05	4.5253e-06	1071.9	2.0076e-07	1.7442e-07	1148.8	223.1	1.7869e-07	1.7715e-07	273.89	77.769	61.159	18.321	1.7604e-07	24.841	189.355	53.751	25.344	-10.254	119.126	112.234	-9.838	-2.700	175.942	67.325	-3.290	4.041	4.626	11.121	83.200	10.806	-8191	255	
44321.137	1	1	0	0	0.081488	0.2675	0.025341	0.19438	0.064427	0.26092	0.12793	0.41115	0.22162	0.12993	0.14682	0.19477	0.11736	0.049853	0.007021	0.090316	-4.3938	-4.0167	-4.1146	-4.7375	-3.7354	-4.5229	-4.7146	-4.025	-4.6875	-4.2458	-4.2292	-4.8583	-3.7896	-4.5146	-4.5896	-3.8854	286.256	301.086	9.290	258.174	16.445	308.566	255.323	300.536	161.369	289.353	253.006	4.208	225.336	68.997	306.659	-6.451	0.00012162	0.00021697	5.4612e-05	1143	2.0973e-06	1.8713e-06	1226.2	238.69	3.1603e-06	2.7724e-06	299.54	83.578	66.452	20.087	1.5857e-06	27.094	1.9706e-05	1.5815e-05	4.4771e-06	1071.5	1.9758e-07	1.739e-07	1148.2	222.97	1.8337e-07	1.7764e-07	273.67	77.72	60.99	18.368	1.765e-07	24.834	183.884	56.670	16.076	-10.111	119.066	77.122	-9.935	-2.570	148.248	88.004	-2.938	4.118	4.931	11.092	122.045	10.794	-8191	255	
44321.230	1	1	0	0	0.17041	0.034047	0.022321	0.043681	0.10944	0.18366	0.18886	0.11094	0.13086	0.17204	0.13864	0.24044	0.195	0.17696	0.25191	0.20401	-4.525	-4.2521	-4.0125	-4.9083	-3.8083	-4.3042	-4.8438	-3.8646	-4.6896	-4.3063	-3.9667	-4.9479	-4	-4.3958	-4.5771	-3.9	253.271	131.058	62.912	284.009	160.669	295.377	221.717	292.951	314.845	164.995	284.696	198.713	76.629	-1.339	232.148	181.389	0.00012385	0.00019105	6.6548e-05	1142	2.2163e-06	1.4664e-06	1223.4	237.81	1.9125e-06	2.3614e-06	299.15	83.259	66.666	19.917	2.477e-06	27.433	2.0115e-05	1.6105e-05	4.706e-06	1070.9	2.0168e-07	1.7898e-07	1146	223.08	1.9185e-07	1.8838e-07	273.88	77.691	61.051	18.297	1.7359e-07	24.904	193.778	38.858	-2.241	-10.429	106.680	81.261	-9.969	-2.542	167.015	105.271	-2.720	4.079	4.744	11.002	133.636	10.910	-8191	255	
44321.328	1	1	0	0	0.10467	0.20406	0.091161	0.24452	0.21443	0.11454	0.18259	0.16884	0.21656	0.16391	0.19592	0.033052	0.12535	0.1493	0.054904	0.11323	-4.6146	-4.3521	-3.9062	-4.8708	-4.05	-4.3	-4.8396	-3.8042	-4.5708	-4.3208	-3.95	-4.8187	-4.1271	-4.0646	-4.7958	-4.0104	17.757	41.221	225.684	306.628	279.384	334.104	273.927	293.360	239.372	171.134	251.278	301.500	333.495	311.247	190.893	327.171	0.00011054	0.00022032	5.793e-05	1142.9	1.3567e-06	3.0836e-06	1221.7	238.71	1.6572e-06	1.1937e-06	300.13	84	66.37	19.858	1.6201e-06	27.12	1.9896e-05	1.6317e-05	4.4737e-06	1071.4	2.0507e-07	1.7559e-07	1147.2	223.07	2.0086e-07	1.8055e-07	273.46	77.651	60.95	18.31	1.8289e-07	24.833	197.127	25.341	85.947	-10.204	122.242	106.346	-9.637	-2.782	196.535	132.552	-3.232	4.228	4.507	11.119	101.719	10.682	-8191	255	
44321.445	1	1	0	0	0.18263	0.23655	0.10234	0.091935	0.24771	0.032172	0.20693	0.31375	0.085655	0.2712	0.036846	0.19462	0.16663	0.13567	0.073407	0.20671	-4.1792	-4.525	-3.7333	-4.8854	-3.9021	-4.05	-4.8938	-3.8583	-4.4271	-4.4292	-3.8958	-4.8521	-4.1333	-4.0208	-4.5792	-3.8458	1.405	131.171	262.529	218.175	184.626	44.380	298.255	10.645	75.548	51.743	62.819	-0.392	101.548	2.447	132.683	166.735	0.00014834	0.00016096	5.7299e-05	1142.9	2.677e-06	1.4524e-06	1221	237.86	2.4484e-06	9.2812e-07	300.51	83.928	66.393	19.785	9.2531e-07	27.029	2.0692e-05	1.681e-05	4.7071e-06	1069.1	1.9228e-07	1.7806e-07	1146	222.81	1.9104e-07	1.7561e-07	274.14	77.762	61.084	18.25	1.7264e-07	24.745	195.629	17.220	30.802	-10.129	131.919	146.632	-9.842	-2.233	157.818	124.536	-2.904	4.238	4.749	10.923	53.408	11.025	-8191	255	
44321.543	1	1	0	0	0.17421	0.22489	0.18073	0.067515	0.17499	0.1834	0.2238	0.18943	0.21754	0.33361	0.25806	0.066086	0.092519	0.064089	0.1265	0.059332	-4.0062	-4.6271	-3.925	-4.825	-4.2958	-4.0062	-4.9917	-3.9542	-4.1813	-4.625	-3.8438	-4.7146	-4.2875	-4.0938	-4.8646	-3.9896	143.169	152.150	22.601	109.306	4.486	-15.977	159.969	243.425	283.783	213.284	11.185	85.100	210.074	52.783	179.097	327.443	0.00013531	0.00021357	7.3511e-05	1145.7	1.1574e-06	8.8784e-07	1222.7	236.97	2.0451e-06	1.106e-06	301.39	84.302	66.789	20.029	1.7433e-06	27.197	2.0244e-05	1.5945e-05	4.8306e-06	1071	1.9559e-07	1.8218e-07	1147.1	222.33	1.9534e-07	1.716e-07	274.14	77.864	61.154	18.328	1.8249e-07	24.795	191.482	3.294	0.023	-10.129	71.837	22.304	-9.913	-2.308	162.080	106.340	-3.102	4.214	4.514	11.132	102.509	10.569	-8191	255	
44321.613	1	1	0	0	0.24903	0.21986	0.18515	0.11122	0.15769	0.1685	0.11077	0.30071	0.1408	0.17978	0.10413	0.18338	0.082696	0.21318	0.20109	0.1326	-3.775	-4.7812	-3.6583	-4.6979	-4.4021	-3.8083	-4.8583	-4.0625	-4.1417	-4.8958	-3.9604	-4.6583	-4.5604	-3.8542	-4.7271	-4.2417	101.064	242.251	327.506	66.469	314.579	137.621	327.521	242.310	32.961	293.397	-11.996	264.968	257.008	9.306	167.686	130.163	0.0001296	0.00013037	5.1802e-05	1142	5.9972e-07	1.9003e-06	1226.5	239.18	2.1417e-06	1.8205e-06	299.6	84.562	66.727	19.966	1.629e-07	27.449	1.9721e-05	1.5982e-05	4.5079e-06	1070.4	1.9371e-07	1.7579e-07	1148.8	223.26	1.9623e-07	1.7432e-07	273.61	77.905	61.036	18.305	1.7806e-07	24.869	196.283	19.514	31.697	-10.205	134.982	85.922	-9.920	-2.387	131.002	80.309	-2.925	3.942	4.957	11.382	63.802	10.639	-8191	255	
44321.734	1	1	0	0	0.07118	0.072274	0.10759	0.13443	0.22833	0.16122	0.41865	0.17301	0.17598	0.077025	0.13823	0.13409	0.12774	0.055498	0.26564	0.11179	-3.6688	-4.7104	-3.9292	-4.5292	-4.6562	-3.6688	-4.7896	-4.275	-3.9875	-4.8083	-3.8917	-4.4521	-4.6792	-3.7021	-4.7458	-4.3688	-15.817	238.710	253.641	282.641	240.845	97.533	304.922	-9.861	241.885	263.747	-2.631	89.072	22.449	-11.813	244.674	70.652	0.0001074	0.00028359	8.205e-05	1142.7	1.7675e-06	2.0167e-06	1230.5	237.9	2.0616e-06	2.7673e-06	300.4	84.1	67.297	19.968	1.9965e-06	27.062	2.0645e-05	1.6238e-05	4.5335e-06	1071.1	1.9815e-07	1.849e-07	1151	222.94	1.8792e-07	1.6478e-07	273.4	78.01	61.219	18.346	1.795e-07	24.841	178.152	39.675	14.651	-10.382	132.929	110.061	-10.034	-2.501	129.171	76.878	-3.091	4.258	4.755	10.839	103.904	10.912	-8191	255	
44321.832	1	1	0	0	0.26286	0.15072	0.16414	0.24637	0.033734	0.25284	0.034107	0.12171	0.167	0.17504	0.13784	0.042053	0.16893	0.22862	0.24942	0.23692	-3.5312	-4.6833	-4.0208	-4.2854	-4.7063	-3.6458	-4.8104	-4.4479	-3.8354	-4.8125	-4.1646	-4.3021	-4.7688	-4.0583	-4.5583	-4.3646	183.510	61.482	238.387	236.738	23.533	104.987	296.156	221.002	138.735	285.034	86.912	106.563	338.095	232.496	-16.858	-10.823	0.00010755	0.00018269	8.3447e-05	1141.3	7.8081e-07	3.1644e-06	1224.4	239.3	3.2023e-06	2.5869e-06	299.16	83.485	66.453	19.958	2.1725e-06	27.304	2.0269e-05	1.5723e-05	4.4421e-06	1070.5	1.9298e-07	1.7454e-07	1149.1	223.17	1.8317e-07	1.7133e-07	273.39	77.625	61.101	18.36	1.8028e-07	24.852	173.791	36.655	25.481	-10.437	93.954	107.589	-9.686	-2.446	169.175	102.487	-3.103	3.935	4.947	11.238	76.914	10.743	-8191	255	
44321.930	1	1	0	0	0.20959	0.10089	0.22831	0.055713	0.15466	0.069998	0.16	0.30083	0.032304	0.11318	0.08111	0.13718	0.23111	0.022549	0.074962	0.15277	-3.5312	-4.6875	-4.1417	-4.0979	-4.5917	-3.8146	-4.65	-4.5979	-3.7062	-4.75	-4.2562	-3.9708	-4.7958	-3.9167	-4.3979	-4.5396	154.111	62.967	204.769	335.500	203.961	333.324	253.104	141.490	248.835	23.008	103.966	277.878	156.708	171.311	288.618	76.291	9.6742e-05	0.00019838	6.7101e-05	1145.9	2.0292e-06	3.2113e-06	1230.2	238.67	2.7109e-06	2.1678e-06	300.06	83.736	66.928	19.929	8.4167e-07	27.33	1.996e-05	1.5604e-05	4.6551e-06	1072.3	1.9172e-07	1.7831e-07	1149.6	223.31	1.8262e-07	1.7191e-07	274.11	77.712	61.175	18.361	1.8201e-07	24.905	191.909	38.751	26.473	-10.402	119.954	102.093	-9.878	-2.689	173.440	69.592	-3.226	4.484	4.734	11.344	81.507	11.150	-8191	255	
44322.023	1	1	0	0	0.059419	0.091119	0.097124	0.10037	0.061115	0.19733	0.26879	0.31213	0.11518	0.051404	0.15838	0.13075	0.13434	0.077436	0.25242	0.13884	-3.5083	-4.5792	-4.2167	-4.1646	-4.7	-4.0708	-4.3187	-4.7167	-3.8729	-4.6771	-4.3083	-3.9896	-5.05	-4.1667	-4.3125	-4.7458	324.859	165.387	51.027	157.321	25.984	230.230	261.312	331.631	258.054	235.780	19.562	66.902	337.055	78.382	138.166	185.945	0.00011488	0.00021092	5.8221e-05	1142.8	2.6156e-06	8.6063e-07	1231	239.27	1.5243e-06	2.3076e-06	299.82	83.536	66.922	19.933	1.9078e-06	27.261	1.9879e-05	1.622e-05	4.386e-06	1072.6	1.8434e-07	1.822e-07	1149.3	223.77	1.9236e-07	1.6868e-07	273.87	77.815	61.113	18.312	1.7897e-07	24.92	201.587	63.653	26.822	-10.215	120.203	107.957	-10.140	-2.628	181.556	71.706	-2.957	4.258	4.530	11.136	69.691	10.849	-8191	255	
44322.121	1	1	0	0	0.13426	0.17723	0.023331	0.092854	0.2144	0.088494	0.1258	0.10588	0.3531	0.017808	0.13835	0.18132	0.13409	0.35921	0.16925	0.10521	-3.5354	-4.5	-4.1958	-4.0083	-4.7	-4.0271	-4.1771	-4.7604	-3.7625	-4.6271	-4.5521	-4.0188	-4.9479	-4.2458	-3.9583	-4.8333	-8.649	-4.410	324.828	28.924	215.352	207.265	247.770	263.353	52.499	34.583	261.777	18.660	282.120	19.988	68.543	93.049	0.00013463	0.0002302	9.4274e-05	1138.8	1.966e-06	2.6933e-06	1227.4	238.68	3.4854e-07	1.9673e-06	299.23	84.161	66.788	19.946	1.0833e-06	27.388	1.9972e-05	1.6171e-05	4.4793e-06	1071.5	1.9297e-07	1.7286e-07	1147.7	223.41	1.8641e-07	1.6822e-07	273.44	77.969	61.15	18.356	1.8103e-07	24.885	191.849	57.540	-18.374	-10.305	99.452	125.628	-10.021	-2.388	175.250	75.329	-3.103	3.782	4.742	11.191	104.889	10.614	-8191	255	
44322.215	1	1	0	0	0.19234	0.068574	0.079835	0.37216	0.10811	0.22429	0.15633	0.10719	0.11341	0.06451	0.19226	0.0753	0.1178	0.073613	0.13808	0.14169	-3.4958	-4.55	-4.5125	-4.1125	-4.6583	-4.2688	-4.125	-4.7708	-3.8625	-4.275	-4.6833	-3.8667	-4.8458	-4.3083	-3.9792	-4.7771	149.962	60.791	299.503	297.169	37.760	28.047	253.363	172.057	2.891	78.446	1.773	195.989	43.542	315.442	241.758	182.530	0.00011946	0.00014434	0.00011232	1145	1.3509e-06	2.1473e-06	1229.9	238.69	1.1705e-06	3.0834e-06	299.07	84.257	66.766	20.011	2.3384e-06	27.238	1.9987e-05	1.5974e-05	4.3201e-06	1072	1.9671e-07	1.7739e-07	1149.3	223.57	1.9224e-07	1.7319e-07	273.3	77.787	60.997	18.353	1.8475e-07	24.81	184.845	74.554	-0.748	-10.082	145.210	99.734	-10.159	-2.244	96.578	115.258	-2.733	4.302	5.131	11.371	128.141	10.916	-8191	255	
#DATA ENDS
