BOXY.EXE: ISS Imagent and Oximeter Data Acquisition Program Version 0.80
Ascii Record File

#ACQ INFORMATION
2  Detector Channels 
16  External MUX Channels 
1  Auxiliary Channels 
5000  Waveform (CCF) Frequency (Hz)
1  Waveforms Skipped 
30  Waveforms Averaged 
1  Cycles Averaged 
16  Acquisitions per Waveform 
10.0806  Updata Rate (Hz) 

#FILE INFORMATION
TRUE -- External MUX Channel results are PARSED.
FALSE -- AC DC and Phase are NOT grouped.
TRUE -- Companion Program Settings File CREATED.
FALSE -- AC data not excluded
FALSE -- DC data not excluded
FALSE -- Phase data not excluded
FALSE -- Auxillary Chn. data not excluded
Tab delimiters

#CALIBRATION STATE
TRUE -- Waveform Calibration Values APPLIED.


#AUX CALIBRATION VALUES
Val Type	aux-1	

Term	1.0000e+00	
Factor	0.0000e+00	


#WF CALIBRATION VALUES
A = Detector Channel
Val Type	A-AC1	A-AC2	A-AC3	A-AC4	A-AC5	A-AC6	A-AC7	A-AC8	A-AC9	A-AC10	A-AC11	A-AC12	A-AC13	A-AC14	A-AC15	A-AC16	A-DC1	A-DC2	A-DC3	A-DC4	A-DC5	A-DC6	A-DC7	A-DC8	A-DC9	A-DC10	A-DC11	A-DC12	A-DC13	A-DC14	A-DC15	A-DC16	A-Ph1	A-Ph2	A-Ph3	A-Ph4	A-Ph5	A-Ph6	A-Ph7	A-Ph8	A-Ph9	A-Ph10	A-Ph11	A-Ph12	A-Ph13	A-Ph14	A-Ph15	A-Ph16	

Term	0.00000e+00	0.00000e+00	0.00000e+00	0.00000e+00	0.00000e+00	0.00000e+00	0.00000e+00	0.00000e+00	0.00000e+00	0.00000e+00	0.00000e+00	0.00000e+00	0.00000e+00	0.00000e+00	0.00000e+00	0.00000e+00	0.00000e+00	0.00000e+00	0.00000e+00	0.00000e+00	0.00000e+00	0.00000e+00	0.00000e+00	0.00000e+00	0.00000e+00	0.00000e+00	0.00000e+00	0.00000e+00	0.00000e+00	0.00000e+00	0.00000e+00	0.00000e+00	0.00000e+00	0.00000e+00	0.00000e+00	0.00000e+00	0.00000e+00	0.00000e+00	0.00000e+00	0.00000e+00	0.00000e+00	0.00000e+00	0.00000e+00	0.00000e+00	0.00000e+00	0.00000e+00	0.00000e+00	0.00000e+00	
Factor	1.00000e+00	1.00000e+00	1.00000e+00	1.00000e+00	1.00000e+00	1.00000e+00	1.00000e+00	1.00000e+00	1.00000e+00	1.00000e+00	1.00000e+00	1.00000e+00	1.00000e+00	1.00000e+00	1.00000e+00	1.00000e+00	1.00000e+00	1.00000e+00	1.00000e+00	1.00000e+00	1.00000e+00	1.00000e+00	1.00000e+00	1.00000e+00	1.00000e+00	1.00000e+00	1.00000e+00	1.00000e+00	1.00000e+00	1.00000e+00	1.00000e+00	1.00000e+00	X	X	X	X	X	X	X	X	X	X	X	X	X	X	X	X	

B = Detector Channel
Val Type	B-AC1	B-AC2	B-AC3	B-AC4	B-AC5	B-AC6	B-AC7	B-AC8	B-AC9	B-AC10	B-AC11	B-AC12	B-AC13	B-AC14	B-AC15	B-AC16	B-DC1	B-DC2	B-DC3	B-DC4	B-DC5	B-DC6	B-DC7	B-DC8	B-DC9	B-DC10	B-DC11	B-DC12	B-DC13	B-DC14	B-DC15	B-DC16	B-Ph1	B-Ph2	B-Ph3	B-Ph4	B-Ph5	B-Ph6	B-Ph7	B-Ph8	B-Ph9	B-Ph10	B-Ph11	B-Ph12	B-Ph13	B-Ph14	B-Ph15	B-Ph16	

Term	0.00000e+00	0.00000e+00	0.00000e+00	0.00000e+00	0.00000e+00	0.00000e+00	0.00000e+00	0.00000e+00	0.00000e+00	0.00000e+00	0.00000e+00	0.00000e+00	0.00000e+00	0.00000e+00	0.00000e+00	0.00000e+00	0.00000e+00	0.00000e+00	0.00000e+00	0.00000e+00	0.00000e+00	0.00000e+00	0.00000e+00	0.00000e+00	0.00000e+00	0.00000e+00	0.00000e+00	0.00000e+00	0.00000e+00	0.00000e+00	0.00000e+00	0.00000e+00	-7.80260e+01	-1.58627e+02	-1.69044e+02	-1.83775e+02	-9.56680e+01	-8.10641e+01	-1.58123e+02	-1.62015e+02	-7.06761e+01	-1.03333e+02	-1.70742e+02	-1.70756e+02	-1.78698e+02	-1.77014e+02	-1.06885e+02	-1.49823e+02	
Factor	1.89549e-05	9.66343e-05	3.90588e-05	1.69121e-01	1.09656e-06	1.06494e-06	1.87830e-01	6.00408e-02	1.11570e-06	1.14070e-06	9.95031e-02	3.37985e-02	3.11028e-02	1.10307e-02	1.00689e-06	1.56862e-02	6.37178e-07	6.49506e-07	1.80709e-07	7.65429e-02	7.12655e-09	7.12169e-09	7.97188e-02	2.69659e-02	7.12101e-09	7.12221e-09	4.22235e-02	1.44095e-02	1.37016e-02	4.81339e-03	7.13314e-09	6.55754e-03	X	X	X	X	X	X	X	X	X	X	X	X	X	X	X	X	



#DISTANCE SETTINGS
A = Detector Channel
A-1	A-2	A-3	A-4	A-5	A-6	A-7	A-8	A-9	A-10	A-11	A-12	A-13	A-14	A-15	A-16	

2.5000e+00	3.0000e+00	2.5000e+00	3.0000e+00	2.0000e+00	3.0000e+00	1.5000e+00	3.0000e+00	3.0000e+00	3.0000e+00	3.0000e+00	3.0000e+00	3.0000e+00	3.0000e+00	1.5000e+00	3.0000e+00	

B = Detector Channel
B-1	B-2	B-3	B-4	B-5	B-6	B-7	B-8	B-9	B-10	B-11	B-12	B-13	B-14	B-15	B-16	

1.0000e+01	1.0000e+01	1.0000e+01	1.4400e+00	1.0000e+01	1.0000e+01	1.5100e+00	1.9400e+00	1.0000e+01	1.0000e+01	1.9900e+00	2.4900e+00	2.4100e+00	2.9000e+00	1.0000e+01	2.9800e+00	




#DATA BEGINS
time	group	step	mark	flag	A-AC1	A-AC2	A-AC3	A-AC4	A-AC5	A-AC6	A-AC7	A-AC8	A-AC9	A-AC10	A-AC11	A-AC12	A-AC13	A-AC14	A-AC15	A-AC16	A-DC1	A-DC2	A-DC3	A-DC4	A-DC5	A-DC6	A-DC7	A-DC8	A-DC9	A-DC10	A-DC11	A-DC12	A-DC13	A-DC14	A-DC15	A-DC16	A-Ph1	A-Ph2	A-Ph3	A-Ph4	A-Ph5	A-Ph6	A-Ph7	A-Ph8	A-Ph9	A-Ph10	A-Ph11	A-Ph12	A-Ph13	A-Ph14	A-Ph15	A-Ph16	B-AC1	B-AC2	B-AC3	B-AC4	B-AC5	B-AC6	B-AC7	B-AC8	B-AC9	B-AC10	B-AC11	B-AC12	B-AC13	B-AC14	B-AC15	B-AC16	B-DC1	B-DC2	B-DC3	B-DC4	B-DC5	B-DC6	B-DC7	B-DC8	B-DC9	B-DC10	B-DC11	B-DC12	B-DC13	B-DC14	B-DC15	B-DC16	B-Ph1	B-Ph2	B-Ph3	B-Ph4	B-Ph5	B-Ph6	B-Ph7	B-Ph8	B-Ph9	B-Ph10	B-Ph11	B-Ph12	B-Ph13	B-Ph14	B-Ph15	B-Ph16	aux-1	digaux	

44329.684	1	1	0	256	0.15314	0.14179	0.044593	0.27829	0.24522	0.21498	0.42193	0.29492	0.065303	0.17785	0.13589	0.36122	0.2177	0.2496	0.13961	0.1111	-3.9896	-4.4542	-3.5896	-4.9542	-4.2458	-3.9292	-5.0062	-3.9417	-4.1833	-4.7667	-3.7542	-4.6375	-4.375	-4.0667	-4.6687	-4.0104	180.555	306.424	226.284	307.327	138.219	177.239	291.019	283.367	197.376	252.811	252.522	260.988	224.635	274.265	186.822	40.088	0.00022976	0.0001652	0.00010631	1386.4	3.6867e-06	3.9564e-06	1379.1	367.74	3.3274e-06	4.7912e-06	424.8	142.34	122.71	42.556	3.7002e-06	52.912	0.00015525	0.00014979	4.2269e-05	1346	1.6772e-06	1.6478e-06	1342.9	356.23	1.6579e-06	1.6499e-06	403.28	136.5	117.3	40.45	1.6696e-06	49.876	192.689	36.906	-11.656	-11.956	138.751	161.511	-11.761	-7.200	183.910	37.782	-7.749	-3.045	-2.491	1.462	96.380	0.849	-8191	255	
44329.777	1	1	0	0	0.1744	0.042138	0.10416	0.1805	0.087009	0.16308	0.24284	0.31119	0.28824	0.33599	0.23807	0.20895	0.25396	0.16507	0.26676	0.14605	-3.8271	-4.5646	-3.7687	-4.6083	-4.4396	-3.8708	-4.9938	-4.0271	-4.0833	-4.6333	-3.7083	-4.4313	-4.5542	-3.8688	-4.6729	-4.0729	96.608	95.783	131.554	305.673	258.546	167.190	276.996	306.667	172.737	9.679	-18.220	268.905	26.684	1.577	13.175	71.008	0.000164	0.00026731	0.00018822	1383.5	4.0475e-06	3.9662e-06	1379	368.59	2.8506e-06	2.3781e-06	426.06	141.66	122.51	42.358	1.5165e-06	52.836	0.00015468	0.00015219	4.2697e-05	1345	1.6873e-06	1.6557e-06	1343	356.6	1.6973e-06	1.673e-06	403.88	136.25	116.92	40.433	1.6967e-06	49.818	187.861	-15.480	59.390	-12.104	147.561	131.854	-11.644	-6.949	116.226	161.138	-7.906	-2.916	-2.242	1.480	-12.087	1.177	-8191	255	
44329.852	1	1	0	0	0.098775	0.30347	0.085879	0.22665	0.18457	0.10118	0.14757	0.32293	0.11976	0.10082	0.15008	0.089053	0.081824	0.23668	0.26282	0.097723	-3.7667	-4.6708	-3.7771	-4.5708	-4.2021	-3.6562	-4.8292	-4.1312	-4.0646	-4.7479	-3.8792	-4.4625	-4.4375	-3.8542	-4.5813	-4.1729	335.074	183.868	238.388	325.709	45.029	-11.379	-18.938	295.755	-10.863	280.770	280.002	306.492	306.448	294.193	162.185	25.235	0.0002489	0.00021612	6.3177e-05	1386.2	8.5878e-07	4.7783e-06	1380.3	368.61	7.2236e-06	7.1852e-06	427.5	142.34	122.85	42.619	1.483e-06	52.941	0.00015781	0.00015372	4.321e-05	1347.5	1.7141e-06	1.6838e-06	1341.2	356.61	1.7005e-06	1.6481e-06	404.23	136.43	117.33	40.537	1.6896e-06	49.812	179.867	46.786	-18.646	-11.860	245.703	88.969	-11.926	-6.884	172.414	143.288	-7.575	-3.150	-2.107	1.590	221.714	1.102	-8191	255	
44329.969	1	1	0	0	0.19249	0.069507	0.31397	0.053773	0.050269	0.15359	0.2764	0.18516	0.31869	0.1239	0.091101	0.27657	0.20032	0.1209	0.13055	0.20156	-3.6208	-4.7562	-3.725	-4.3208	-4.5437	-3.7042	-4.9708	-4.4229	-3.9083	-4.7396	-3.9271	-4.4125	-4.625	-3.7083	-4.4958	-4.3021	289.836	161.355	318.587	286.367	185.363	313.935	236.308	34.054	-18.040	26.823	150.292	250.149	312.826	178.815	95.753	-4.016	0.00018127	0.000171	0.00011079	1385	1.1165e-06	2.0836e-06	1386.3	367.72	3.2314e-06	4.6785e-06	425.45	141.9	123.01	42.697	8.51e-07	52.959	0.00015828	0.00015303	4.343e-05	1347.7	1.6809e-06	1.6723e-06	1346.4	357.12	1.6949e-06	1.6744e-06	404.75	136.64	117.4	40.57	1.6998e-06	49.947	194.862	141.715	-5.989	-11.962	116.233	53.246	-11.772	-7.015	155.765	72.787	-7.814	-3.158	-2.340	1.615	197.043	1.252	-8191	255	
44330.066	1	1	0	0	0.1265	0.1332	0.22258	0.36144	0.1625	0.083496	0.29126	0.28313	0.26359	0.06629	0.22758	0.12451	0.024011	0.17624	0.15976	0.12192	-3.5042	-4.6937	-3.8875	-4.2083	-4.7271	-3.7979	-4.6312	-4.4854	-3.6479	-4.725	-4.1271	-4.1271	-4.8792	-3.8583	-4.3542	-4.5333	25.954	188.634	-7.607	327.128	290.510	42.580	243.386	266.477	104.456	68.337	10.757	281.426	271.024	190.159	51.591	8.527	0.00021727	0.00047733	0.00012481	1391.3	6.7228e-06	2.5934e-06	1387.2	369.18	4.6206e-06	7.5493e-06	426.79	142.06	122.89	42.763	2.7779e-06	53.159	0.00015869	0.00015449	4.3061e-05	1350	1.7157e-06	1.7113e-06	1347.7	357.77	1.7156e-06	1.7065e-06	404.75	136.34	117.38	40.564	1.7345e-06	49.961	206.492	29.467	-15.723	-11.957	84.264	147.073	-11.844	-7.123	79.702	76.562	-7.732	-2.930	-2.423	1.655	101.507	0.958	-8191	255	
44330.160	1	1	0	0	0.29128	0.14596	0.2652	0.058556	0.30714	0.13044	0.24513	0.10016	0.24815	0.14901	0.12338	0.048261	0.0032225	0.19322	0.19669	0.24296	-3.3604	-4.7417	-4.1208	-3.9833	-4.7604	-3.7562	-4.45	-4.6125	-3.9	-4.7542	-4.1729	-3.8979	-4.7188	-3.9521	-4.2292	-4.7208	240.476	162.993	182.415	264.618	275.697	69.004	272.578	122.005	294.089	107.331	43.009	229.987	327.879	30.340	158.907	301.299	0.0002036	0.00061625	4.9979e-05	1390.3	1.9989e-06	2.7717e-06	1388	367.07	4.3113e-06	6.5775e-06	426.55	141.6	122.89	42.661	3.1286e-06	53.137	0.00016279	0.00015748	4.4427e-05	1350.1	1.7386e-06	1.7371e-06	1346.4	357.14	1.754e-06	1.7297e-06	405.02	136.37	117.58	40.582	1.757e-06	50.034	182.091	13.886	83.756	-11.818	152.279	76.139	-11.758	-7.010	172.104	57.021	-7.816	-2.841	-2.237	1.832	44.321	1.007	-8191	255	
44330.281	1	1	0	0	0.25361	0.30558	0.12531	0.28329	0.1385	0.0903	0.11681	0.12895	0.2234	0.080637	0.035663	0.12916	0.058513	0.11808	0.25349	0.3124	-3.55	-4.4125	-4.2958	-3.9417	-4.7667	-3.9375	-4.3708	-4.625	-3.7812	-4.3562	-4.3688	-3.8458	-4.7792	-4.15	-4.0979	-4.8417	329.871	87.489	322.316	332.791	96.361	262.015	311.758	204.701	139.723	261.557	198.944	315.719	50.577	218.669	75.986	328.286	0.00017025	9.6538e-05	0.00015466	1385.7	3.0942e-06	1.8839e-06	1388.8	367.81	4.4748e-06	4.0789e-06	426.14	142.09	123.31	42.536	1.3849e-06	53.276	0.00016482	0.00016211	4.481e-05	1349.5	1.7718e-06	1.7837e-06	1348.1	357.81	1.7802e-06	1.783e-06	405.07	136.75	117.62	40.591	1.7864e-06	50.08	192.557	85.073	-10.750	-11.946	103.771	144.890	-11.878	-7.163	142.437	63.274	-7.691	-3.141	-2.580	1.844	151.378	0.879	-8191	255	
44330.379	1	1	0	0	0.11772	0.27368	0.043577	0.25518	0.10226	0.1403	0.1191	0.073854	0.057634	0.068687	0.057926	0.039851	0.23259	0.12907	0.29872	0.12849	-3.5021	-4.2708	-4.4437	-4.0146	-4.6	-4.0062	-4.0896	-4.8167	-3.7479	-4.3458	-4.5979	-3.9521	-4.8187	-4.3438	-3.7917	-4.8187	291.932	179.777	209.687	271.181	146.818	270.073	28.165	167.183	123.297	116.617	131.531	79.212	324.646	260.726	330.512	306.568	0.00022204	0.00058041	0.00011309	1386.1	2.0803e-06	6.4622e-06	1382.9	367.93	4.2541e-06	5.1971e-06	424.14	142.67	122.92	42.737	1.8766e-06	53.059	0.00016821	0.00016233	4.5143e-05	1349.4	1.7928e-06	1.796e-06	1345.8	358.2	1.7977e-06	1.7685e-06	404.62	136.98	117.39	40.649	1.7951e-06	50.055	192.179	36.657	33.766	-12.108	82.488	136.166	-12.022	-6.940	104.456	110.052	-7.935	-3.018	-2.405	1.674	165.026	1.230	-8191	255	
44330.449	1	1	0	0	0.20357	0.17765	0.17305	0.26459	0.22751	0.12582	0.34717	0.10906	0.18181	0.13603	0.13667	0.18336	0.18022	0.065709	0.24838	0.23345	-3.4958	-4.3042	-4.6958	-4.0062	-4.5375	-4.2625	-4.0229	-4.6917	-3.7646	-4.2125	-4.6917	-3.8167	-4.6062	-4.3271	-3.7812	-4.9812	138.413	-20.652	96.611	-10.898	8.036	146.090	264.190	242.269	319.174	29.893	226.910	269.954	197.297	15.290	265.889	255.748	0.00022176	0.00015091	0.00010793	1389.8	1.3945e-06	2.2529e-06	1391.2	368.05	9.0379e-07	5.2996e-06	428.02	142.2	123.17	42.686	4.1525e-06	52.823	0.0001693	0.00016382	4.5811e-05	1352.7	1.8144e-06	1.7988e-06	1348.9	357.76	1.8074e-06	1.8098e-06	405.48	136.76	117.7	40.677	1.8157e-06	50.12	188.616	121.332	19.713	-12.195	67.270	76.193	-11.775	-7.049	200.278	100.912	-7.941	-3.049	-2.286	1.568	101.896	1.179	-8191	255	
44330.547	1	1	0	0	0.10591	0.075849	0.074418	0.27264	0.1168	0.16566	0.2135	0.075439	0.05361	0.042455	0.090669	0.20128	0.31547	0.24531	0.087672	0.22848	-3.7396	-4.0563	-4.6438	-3.8583	-4.525	-4.4708	-4.0729	-4.7208	-3.9688	-4.1729	-4.7792	-3.9083	-4.4187	-4.6021	-3.8271	-4.7396	8.552	53.128	240.555	280.609	330.692	290.711	245.778	137.251	29.861	207.620	188.324	164.170	48.957	211.921	117.587	263.192	0.0002205	0.00025632	0.00013342	1391.4	4.2144e-06	4.8443e-06	1384.4	368.52	3.0522e-06	2.2162e-06	425.14	141.55	123.35	42.751	2.1265e-06	52.951	0.00016962	0.00016652	4.5475e-05	1353.1	1.842e-06	1.8257e-06	1347.9	357.81	1.8294e-06	1.8077e-06	405.96	136.68	117.74	40.631	1.844e-06	50.096	204.020	302.465	6.504	-12.054	132.793	109.255	-11.896	-6.989	77.688	103.634	-7.675	-2.832	-2.413	1.592	88.278	1.046	-8191	255	
44330.645	1	1	0	0	0.022859	0.20864	0.17587	0.11408	0.1583	0.30341	0.092549	0.22653	0.089973	0.2616	0.248	0.2675	0.18229	0.024323	0.22202	0.12594	-3.875	-3.9292	-4.6271	-4.0333	-4.3438	-4.4292	-3.9313	-4.7229	-4.1146	-3.8542	-4.7917	-3.9021	-4.3875	-4.8104	-3.6875	-4.7104	126.452	23.558	122.292	314.032	178.069	204.756	138.681	244.974	32.097	43.320	308.687	-9.784	319.040	208.366	225.614	228.702	0.00024379	0.00032781	0.00010569	1386.5	3.1578e-06	1.6328e-06	1388.9	369.77	2.0236e-06	2.4329e-06	426.28	142.25	123.41	42.726	8.3781e-07	53.23	0.00017155	0.00016737	4.6138e-05	1349.8	1.8425e-06	1.8266e-06	1347	358.37	1.8663e-06	1.8321e-06	405.74	136.94	117.91	40.702	1.8581e-06	50.054	204.471	16.244	52.533	-11.888	75.764	4.797	-11.980	-6.987	132.525	118.035	-7.576	-2.931	-2.569	1.737	140.448	0.998	-8191	255	
44330.762	1	1	0	0	0.027098	0.16476	0.079288	0.2054	0.21629	0.037608	0.17108	0.20615	0.15017	0.068876	0.12612	0.095992	0.28511	0.076793	0.17394	0.24816	-3.8521	-3.8563	-4.625	-4.0375	-4.3063	-4.6021	-3.9104	-4.6521	-4.3625	-3.6125	-4.8208	-4.0708	-4.0833	-4.8333	-3.7062	-4.5333	176.240	-2.570	-10.005	300.443	9.626	277.388	315.644	250.933	-4.033	247.602	207.324	235.744	323.824	175.365	260.439	278.282	0.00020412	0.00042859	0.00015475	1385.4	3.7943e-06	4.2379e-06	1384.2	368.4	3.4034e-06	6.4123e-06	426.91	142.8	123.09	42.843	2.873e-06	53.08	0.00017207	0.00016756	4.6461e-05	1348.9	1.8605e-06	1.8415e-06	1346.3	358.46	1.8711e-06	1.8467e-06	406.5	137.03	117.76	40.741	1.8564e-06	50.145	202.672	18.881	10.825	-11.853	101.641	84.101	-11.850	-6.957	170.250	66.948	-7.904	-2.741	-2.357	1.667	24.178	1.115	-8191	255	
44330.859	1	1	0	0	0.22542	0.065677	0.12602	0.2182	0.12497	0.036004	0.068177	0.2106	0.18632	0.15616	0.1508	0.19646	0.23621	0.089265	0.053993	0.17492	-4.0813	-3.8	-4.7688	-4.2312	-3.975	-4.4563	-4.1312	-4.6167	-4.3167	-3.8979	-4.7771	-4.25	-4.1604	-4.7729	-3.8812	-4.2896	203.984	133.935	215.380	327.020	108.660	228.904	331.978	329.172	284.594	89.459	206.696	226.300	316.090	291.366	118.048	25.211	0.00021524	0.00041016	4.4233e-05	1393.2	5.3276e-06	5.6887e-07	1388.7	369.07	2.1305e-06	4.5133e-06	426.8	142.11	123.53	42.69	3.5279e-06	52.97	0.00017015	0.00017059	4.6955e-05	1352.5	1.8561e-06	1.8392e-06	1348.7	357.93	1.8565e-06	1.8438e-06	406.01	136.84	117.77	40.674	1.873e-06	50.065	208.808	106.658	255.402	-11.908	69.472	202.134	-11.547	-6.938	18.565	85.203	-7.639	-2.702	-2.327	1.784	141.534	0.958	-8191	255	
44330.953	1	1	0	0	0.064765	0.36051	0.20326	0.13427	0.024178	0.13688	0.081027	0.14088	0.2225	0.12381	0.10955	0.071593	0.23153	0.079812	0.11344	0.19643	-4.2771	-3.7625	-4.6188	-4.4667	-3.85	-4.8833	-4.0958	-4.3167	-4.6729	-3.6771	-4.7	-4.4729	-4.0125	-4.8688	-3.7833	-4.2396	43.088	168.478	273.618	273.226	236.871	256.651	208.182	317.181	7.666	320.282	316.464	328.378	240.609	305.304	8.222	218.068	0.00021629	0.00016222	1.7155e-05	1389.4	1.9668e-06	2.2702e-06	1388.2	369.14	1.5998e-06	6.7786e-06	426.62	141.92	122.63	42.7	2.4745e-06	53.185	0.00017362	0.00017123	4.8026e-05	1351.2	1.8949e-06	1.862e-06	1346.9	358.24	1.8771e-06	1.8911e-06	406.01	136.64	117.64	40.682	1.9021e-06	50.128	201.597	124.728	316.134	-11.896	101.465	106.942	-11.793	-7.129	9.342	101.908	-7.858	-2.924	-2.535	1.442	-23.826	0.931	-8191	255	
44331.051	1	1	0	0	0.29692	0.33017	0.048538	0.163	0.12654	0.1791	0.17409	0.061024	0.13078	0.066954	0.14722	0.14231	0.10469	0.17602	0.14924	0.22114	-4.3208	-3.7083	-4.4896	-4.4688	-3.9646	-4.6813	-4.3542	-4.2208	-4.6813	-3.6396	-4.6125	-4.3958	-3.7354	-4.7479	-3.9813	-3.9854	294.374	180.817	36.687	314.719	249.178	165.957	295.924	236.978	318.487	230.289	312.645	16.855	303.872	52.906	161.069	297.006	0.00024093	0.00021482	0.00019442	1385.4	5.3365e-06	4.9337e-06	1382.8	368.43	4.4329e-06	4.4696e-06	424.98	141.74	122.64	42.718	6.0679e-06	53.221	0.00017685	0.00017356	4.8185e-05	1349.4	1.9045e-06	1.894e-06	1345.8	358.2	1.9079e-06	1.9111e-06	405.5	136.88	117.64	40.78	1.9579e-06	50.208	189.040	54.901	20.043	-11.981	143.594	101.985	-11.968	-7.059	163.284	90.304	-7.681	-2.832	-2.348	1.966	50.429	1.064	-8191	255	
44331.145	1	1	0	0	0.17318	0.15288	0.15498	0.12741	0.11507	0.13746	0.28448	0.18022	0.20885	0.1486	0.17009	0.109	0.18636	0.19219	0.21856	0.08264	-4.4208	-3.7687	-4.3562	-4.55	-3.6979	-4.5854	-4.2438	-4.0521	-4.6583	-3.9583	-4.3583	-4.675	-3.7583	-4.6104	-3.9979	-3.9042	239.402	-19.275	61.175	261.025	320.889	12.252	243.003	295.522	244.379	34.559	308.424	63.410	324.614	5.937	17.054	232.897	0.00022917	0.00052553	0.00010436	1387.8	1.3782e-06	5.9056e-06	1383.5	368.91	1.9572e-06	2.9219e-06	423.94	141.76	122.57	42.721	2.9036e-06	52.965	0.00017906	0.00017817	4.9053e-05	1349.8	1.9846e-06	1.9551e-06	1345.9	358.5	1.9713e-06	1.964e-06	405.07	136.83	117.72	40.79	1.9838e-06	50.185	188.175	78.752	60.873	-11.979	194.371	52.757	-11.598	-7.292	121.936	55.102	-7.936	-3.011	-2.236	1.573	203.517	1.140	-8191	255	
44331.242	1	1	0	0	0.17867	0.13721	0.1273	0.28607	0.08461	0.17701	0.1039	0.2821	0.10716	0.12303	0.24496	0.14504	0.12136	0.03076	0.11436	0.20958	-4.3104	-3.8604	-4.2458	-4.7229	-3.6833	-4.4708	-4.4521	-4.0062	-4.7	-3.7188	-4.1167	-4.7812	-3.7708	-4.7	-4.2979	-3.8187	243.951	234.867	183.991	-13.170	108.326	57.521	221.047	295.461	35.203	183.934	299.973	329.115	-22.621	215.309	127.208	313.345	0.00017421	0.00040073	9.1895e-05	1387.2	1.0447e-06	4.8198e-06	1386.5	368.78	3.3532e-06	5.9557e-06	425.14	142.25	122.81	42.643	5.9221e-06	52.894	0.00018366	0.00018192	5.121e-05	1350.6	2.0269e-06	2.0178e-06	1349	358.45	2.0291e-06	2.0277e-06	407.22	137.1	118.05	40.822	2.0392e-06	50.213	163.988	34.177	38.658	-11.950	61.946	133.019	-11.726	-7.297	172.324	65.452	-7.750	-2.987	-2.274	1.502	113.535	0.758	-8191	255	
44331.363	1	1	0	0	0.1805	0.12256	0.13796	0.13237	0.022978	0.09296	0.22087	0.14209	0.12076	0.025108	0.1544	0.069803	0.12428	0.055173	0.047685	0.21857	-4.3521	-4.0854	-4.0625	-4.9208	-3.5104	-4.375	-4.5458	-3.9437	-4.7292	-4.0896	-4.1021	-4.8438	-3.9396	-4.4104	-4.4708	-3.7687	229.503	312.870	295.510	-16.937	199.093	91.057	284.984	241.682	268.274	122.636	4.927	300.394	254.190	37.500	144.846	15.680	0.00018222	0.0005516	0.00025107	1390.6	2.5921e-06	5.1768e-06	1387.7	368.89	8.081e-07	4.7872e-06	427.49	142.33	123.13	42.806	6.5076e-06	53	0.00019024	0.0001866	5.2004e-05	1353.6	2.0785e-06	2.0515e-06	1349.6	359.35	2.0697e-06	2.0743e-06	407.79	137.27	118.28	40.843	2.0239e-06	50.294	197.517	51.679	19.596	-12.009	157.933	127.479	-11.772	-7.048	228.995	12.503	-7.532	-2.967	-2.494	1.695	99.161	0.664	-8191	255	
44331.461	1	1	0	0	0.054532	0.23355	0.24485	0.24436	0.13635	0.1088	0.14142	0.21386	0.053913	0.14246	0.065875	0.23529	0.23899	0.11657	0.050762	0.10211	-4.4667	-4.0896	-3.9292	-4.9313	-3.7562	-4.2479	-4.7333	-3.8937	-4.5271	-4.1208	-3.9062	-4.8354	-4.0396	-4.3729	-4.525	-3.9417	312.979	219.184	76.739	274.969	187.420	101.899	288.282	113.684	146.357	295.109	-4.604	201.321	251.215	189.159	206.390	177.142	0.00014693	0.00032981	6.1708e-05	1392.6	5.0867e-06	2.7271e-06	1387.8	371.28	2.6768e-06	4.0292e-06	427.1	143.23	122.92	42.815	2.1364e-06	52.75	0.00018988	0.00018669	5.1313e-05	1355.6	2.0386e-06	1.9972e-06	1351.3	360.14	2.0067e-06	2.0111e-06	407.88	137.64	118.02	40.938	2.0016e-06	50.15	180.196	11.045	111.354	-11.993	100.642	88.656	-11.643	-7.269	187.686	-3.979	-7.859	-2.922	-2.566	1.743	106.994	0.697	-8191	255	
44331.555	1	1	0	0	0.015216	0.21045	0.069875	0.21105	0.15525	0.043398	0.15546	0.22834	0.18723	0.13571	0.30611	0.17049	0.13881	0.15925	0.12578	0.052366	-4.1896	-4.2646	-3.7479	-4.8229	-3.8021	-4.0813	-4.6583	-3.7562	-4.4104	-4.4292	-3.9583	-4.9708	-4.0583	-4.1042	-4.7271	-3.95	206.835	112.875	93.177	261.580	35.388	239.232	288.991	170.794	28.568	150.751	304.210	222.954	329.236	259.746	77.114	294.108	0.00025691	0.00048518	0.00013456	1389.7	2.7636e-06	2.0744e-06	1388.1	369.61	3.6109e-06	2.9634e-07	427.68	142.27	123.6	42.772	6.3772e-06	53.087	0.00018677	0.00018497	5.1089e-05	1355.8	2.0564e-06	2.0051e-06	1351.8	359.34	2.0479e-06	2.0251e-06	408.55	137.3	118.21	40.859	2.0492e-06	50.263	191.405	6.815	4.569	-11.972	104.224	144.206	-11.838	-7.267	141.588	135.736	-7.761	-2.922	-2.218	1.528	58.866	0.594	-8191	255	
44331.652	1	1	0	0	0.102	0.025086	0.2039	0.29209	0.085304	0.11674	0.16964	0.063398	0.11648	0.26338	0.26267	0.35558	0.091104	0.053811	0.065681	0.26594	-4.1417	-4.2417	-3.8521	-4.8042	-4.0521	-3.9979	-4.9083	-3.8667	-4.2958	-4.6271	-3.75	-4.7104	-4.4292	-4.0021	-4.65	-3.9458	15.220	244.299	123.264	290.638	151.459	149.426	325.474	231.999	119.559	47.331	332.043	328.545	305.530	245.877	215.552	297.636	0.00023321	0.00028533	0.00026164	1391.7	2.3069e-06	1.7025e-06	1384.2	370.49	3.4866e-06	3.1552e-06	428.92	141.82	123.07	42.732	3.4065e-06	53.309	0.00019077	0.00018733	5.2051e-05	1357.2	2.0882e-06	2.0725e-06	1351.4	360.64	2.0899e-06	2.0661e-06	408.74	137.35	118.34	40.908	2.0771e-06	50.402	186.804	34.015	9.241	-12.040	90.035	157.230	-11.805	-7.128	106.895	122.398	-8.070	-2.853	-2.528	1.452	199.791	1.036	-8191	255	
44331.746	1	1	0	0	0.17133	0.30322	0.097362	0.28059	0.17817	0.074056	0.20197	0.089678	0.16303	0.10488	0.11277	0.19405	0.011613	0.11973	0.18574	0.23066	-4.0312	-4.3479	-3.7167	-4.9083	-4.3667	-3.7479	-4.9604	-3.9979	-4.0833	-4.7479	-3.8875	-4.6375	-4.4	-3.8958	-4.7854	-4.1146	11.155	2.781	280.989	-13.467	33.020	203.695	277.972	3.138	160.683	62.859	193.575	273.309	-15.744	139.440	181.920	235.565	0.00016244	0.00053735	0.00015441	1387.1	3.8611e-06	3.4353e-06	1386.7	370.91	5.1127e-06	6.7819e-06	427.6	142.18	123.55	42.794	2.5833e-06	53.241	0.00019398	0.000188	5.2605e-05	1356.4	2.0579e-06	2.0526e-06	1353.2	360.93	2.0592e-06	2.0584e-06	407.85	137.54	118.54	40.903	2.0615e-06	50.397	200.570	-21.531	9.921	-12.000	100.425	133.611	-11.957	-7.296	134.909	61.935	-7.537	-2.760	-2.463	1.863	130.630	0.829	-8191	255	
44331.844	1	1	0	0	0.013885	0.21733	0.1234	0.070298	0.21917	0.27201	0.40579	0.17513	0.097458	0.11092	0.16408	0.12674	0.13654	0.2082	0.19705	0.16894	-3.7438	-4.6312	-3.6354	-4.6312	-4.4375	-3.7958	-4.8833	-4.1188	-4.0292	-4.7854	-4.0188	-4.4979	-4.5792	-3.8792	-4.6458	-4.0667	169.288	225.650	330.092	214.648	7.096	27.269	296.076	300.781	128.541	234.475	51.061	209.510	228.609	324.327	281.061	165.527	0.00026241	0.00035039	0.00021958	1393.4	2.6301e-06	2.889e-06	1388.2	370.59	3.2729e-06	2.2442e-06	426.38	142.62	123.53	43.002	5.85e-06	53.101	0.00018929	0.00018358	5.1876e-05	1358.2	2.0645e-06	2.04e-06	1354.7	360.34	2.0445e-06	2.0301e-06	407.78	137.61	118.56	41.01	2.0597e-06	50.368	204.565	43.461	13.019	-11.957	153.326	198.190	-11.774	-7.156	142.334	124.642	-7.839	-3.278	-2.505	1.865	140.039	0.816	-8191	255	
44331.938	1	1	0	0	0.083231	0.13929	0.027486	0.30067	0.095511	0.16772	0.27248	0.052955	0.18558	0.21917	0.12122	0.18202	0.044446	0.1725	0.13843	0.11305	-3.7167	-4.65	-3.9604	-4.4125	-4.425	-3.9229	-4.6833	-4.2042	-3.875	-4.6875	-3.9604	-4.3208	-4.7208	-3.8563	-4.5188	-4.3729	303.139	168.872	106.545	242.824	23.274	10.388	229.664	130.929	78.668	62.679	255.320	109.398	178.643	269.063	271.331	43.235	0.00021525	0.00037856	0.00012997	1390.1	6.6109e-06	4.4097e-06	1393.5	370.44	3.0067e-06	4.9225e-06	428.11	142.32	123.93	42.923	4.1238e-06	53.215	0.00018944	0.00018646	5.2234e-05	1358.9	2.0539e-06	2.024e-06	1354.4	360.56	2.07e-06	2.0484e-06	408.88	137.6	118.58	40.984	2.0757e-06	50.362	181.072	328.885	110.717	-11.886	90.596	129.787	-11.788	-7.013	219.448	111.803	-7.627	-3.047	-2.289	1.478	171.318	0.879	-8191	255	
44332.059	1	1	0	0	0.11057	0.062669	0.1761	0.10389	0.039576	0.12971	0.2177	0.074662	0.24925	0.010973	0.10952	0.13636	0.11313	0.101	0.22755	0.24254	-3.6521	-4.7688	-3.9271	-4.3083	-4.5396	-3.6854	-4.6521	-4.3771	-3.8646	-4.6583	-3.9979	-4.2896	-4.7417	-3.9271	-4.5104	-4.4646	180.129	-0.268	-7.558	270.092	167.117	281.615	289.045	331.928	52.788	278.176	175.560	80.344	-6.290	11.933	17.506	297.574	0.00021382	0.00046832	0.00011488	1393.9	1.2019e-06	4.3513e-06	1393	369.69	2.8732e-06	7.1004e-06	427.81	142.28	123.94	42.787	6.6623e-06	53.085	0.00019025	0.00018668	5.2223e-05	1359.3	2.0484e-06	2.0424e-06	1355.3	360.46	2.0363e-06	2.0302e-06	408.28	137.7	118.8	40.945	2.0625e-06	50.359	212.572	-0.920	4.886	-11.961	6.322	45.620	-11.865	-7.007	194.124	56.837	-7.670	-2.965	-2.602	1.553	64.238	1.111	-8191	255	
44332.156	1	1	0	0	0.050622	0.064318	0.11276	0.020702	0.15515	0.041414	0.062531	0.17845	0.28516	0.10494	0.0327	0.28963	0.056698	0.35542	0.15945	0.13255	-3.3646	-4.7542	-4.0333	-4.0646	-4.6813	-3.9667	-4.4979	-4.4938	-3.675	-4.7521	-4.3042	-4.05	-4.7271	-3.9	-4.4375	-4.4812	203.134	249.880	146.149	254.732	-17.842	212.400	320.199	261.097	81.753	277.906	300.331	327.499	86.565	247.624	28.939	319.237	0.00020231	0.00043399	0.0002195	1396.1	3.1097e-06	4.1713e-06	1389	370.95	3.0179e-06	3.4662e-06	430.09	142.73	123.84	42.77	5.4708e-06	53.378	0.00019135	0.00018841	5.2482e-05	1360.2	2.0694e-06	2.0511e-06	1354.8	360.93	2.0652e-06	2.0506e-06	408.81	137.8	118.64	41.028	2.0612e-06	50.46	196.844	70.358	332.440	-12.044	190.550	87.048	-11.904	-7.126	131.569	151.111	-7.872	-3.162	-2.632	1.826	97.551	0.988	-8191	255	
44332.250	1	1	0	0	0.30176	0.17849	0.21	0.16865	0.23672	0.14297	0.25213	0.18954	0.03112	0.15966	0.13401	0.17081	0.11315	0.24022	0.17601	0.14503	-3.4583	-4.5896	-4.1042	-3.9854	-4.7312	-4.0521	-4.5229	-4.9083	-3.7	-4.6312	-4.2146	-3.8354	-4.8333	-3.9646	-4.2396	-4.8313	193.815	101.274	144.959	309.425	109.115	186.632	256.193	276.142	187.837	86.464	265.718	276.497	220.367	231.114	245.085	309.847	0.00019514	0.00033498	6.6238e-05	1392	2.3031e-06	4.8296e-06	1390.5	370.4	1.2857e-06	6.3007e-06	429.42	142.51	123.87	43.032	5.8396e-06	53.264	0.00019184	0.00019039	5.2516e-05	1355.7	2.0975e-06	2.0819e-06	1354	360.92	2.0795e-06	2.0824e-06	408.75	137.73	118.89	41.041	2.0706e-06	50.431	191.433	-1.268	-18.790	-11.996	156.423	131.401	-11.804	-7.011	196.980	122.937	-7.908	-2.953	-2.683	1.426	63.655	0.676	-8191	255	
44332.324	1	1	0	0	0.12979	0.28755	0.048304	0.15689	0.20468	0.095235	0.12447	0.2277	0.10623	0.13415	0.16112	0.16674	0.20391	0.25643	0.17822	0.042988	-3.3542	-4.4	-4.3917	-3.8833	-4.7875	-4.0188	-4.2354	-4.7	-3.6958	-4.5958	-4.4625	-3.9292	-4.6875	-4.15	-3.9792	-4.7229	8.186	73.725	261.588	297.162	269.612	228.840	257.017	269.826	323.231	289.946	154.540	308.940	322.449	-15.169	1.386	17.182	0.00021324	0.00029858	0.00020463	1389	1.5634e-06	4.5e-06	1392.9	371.87	4.3596e-06	2.0695e-06	427.48	142.82	123.79	42.902	7.4078e-07	53.022	0.00019387	0.00018863	5.2441e-05	1357.9	2.1045e-06	2.0757e-06	1355.7	361.56	2.1041e-06	2.0869e-06	408.41	137.75	118.81	41.021	2.0858e-06	50.42	200.111	32.403	-17.051	-12.118	57.718	107.498	-12.038	-6.935	210.323	178.472	-7.834	-3.050	-2.548	1.542	-3.519	0.831	-8191	255	
44332.441	1	1	0	0	0.23705	0.2151	0.19696	0.26376	0.19778	0.20543	0.067716	0.13116	0.096282	0.078884	0.12449	0.18905	0.10653	0.11287	0.28698	0.04906	-3.4	-4.3104	-4.5188	-3.9688	-4.8042	-4.0146	-4.0833	-4.8729	-3.8333	-4.3917	-4.5687	-3.7625	-4.6167	-4.3333	-3.9729	-4.8583	137.783	37.069	49.417	-23.626	109.128	224.491	273.933	277.159	260.598	293.468	25.090	-15.301	-18.410	-19.036	238.873	47.994	0.00020118	0.00024816	0.00011982	1388.7	5.7803e-06	4.8073e-06	1395	370.81	8.5545e-07	1.2672e-06	428.92	142.63	123.27	42.807	3.9025e-06	53.095	0.00019624	0.00019016	5.2661e-05	1358.4	2.1112e-06	2.0817e-06	1354.5	360.8	2.1059e-06	2.0657e-06	409.02	137.62	118.73	41.007	2.0878e-06	50.46	205.867	4.571	68.224	-11.951	92.786	115.361	-11.978	-6.991	76.612	46.277	-7.757	-3.119	-2.570	1.832	86.077	1.109	-8191	255	
44332.539	1	1	0	0	0.27791	0.10086	0.16546	0.17003	0.30115	0.10276	0.070899	0.20442	0.16416	0.086354	0.097302	0.24983	0.21575	0.21989	0.075921	0.04914	-3.4188	-4.2042	-4.5437	-3.9938	-4.4979	-4.3917	-3.9938	-4.7438	-3.9396	-4.1375	-4.7917	-3.825	-4.6167	-4.4479	-3.65	-4.7833	23.667	290.895	104.467	330.912	112.938	28.954	261.458	221.731	-21.054	96.089	286.051	280.129	23.819	231.050	173.080	316.622	0.00022289	0.00020546	0.00011025	1393.1	2.8506e-06	4.8068e-06	1388.9	371.58	2.4629e-06	2.8816e-06	428.37	142.68	123.51	42.814	2.6003e-06	53.219	0.00019565	0.00019029	5.2502e-05	1360.2	2.1047e-06	2.0772e-06	1354.8	361.21	2.0984e-06	2.0779e-06	408.78	137.7	118.69	41.03	2.0931e-06	50.412	192.033	297.038	-17.539	-12.027	51.903	104.210	-11.801	-7.095	138.449	144.000	-7.793	-2.814	-2.526	1.646	87.626	1.356	-8191	255	
44332.637	1	1	0	0	0.1442	0.23157	0.10232	0.38705	0.10583	0.19857	0.25692	0.36413	0.055086	0.12991	0.056023	0.043102	0.22183	0.075767	0.12599	0.10209	-3.6	-4.1021	-4.4812	-3.9604	-4.3396	-4.2979	-3.9771	-4.8646	-4.0479	-3.9604	-4.8792	-3.8688	-4.4688	-4.5479	-3.5833	-4.8396	41.179	294.718	267.317	299.756	236.939	-12.464	261.298	314.789	297.569	200.290	35.754	122.465	330.858	152.771	171.784	200.080	0.00021194	0.00041664	0.00033292	1391.1	4.4554e-06	1.2522e-06	1393.5	368.78	3.8786e-06	8.3856e-07	426.93	141.39	123.31	42.82	3.5406e-06	53.188	0.00019588	0.00019156	5.2965e-05	1358.3	2.1306e-06	2.0927e-06	1356.2	360.83	2.1261e-06	2.0941e-06	409.13	137.56	118.75	41.046	2.1066e-06	50.435	194.688	116.807	17.185	-12.197	101.330	173.053	-11.858	-7.194	167.328	97.142	-7.797	-2.808	-2.326	1.684	89.555	0.703	-8191	255	
44332.730	1	1	0	0	0.095285	0.06735	0.22872	0.32005	0.08819	0.24368	0.17739	0.094308	0.18941	0.17318	0.024434	0.24248	0.29583	0.18531	0.16418	0.032172	-3.85	-4.0042	-4.7042	-3.7021	-4.3229	-4.4	-3.8396	-4.8	-4.3063	-3.7854	-4.7063	-3.95	-4.3396	-4.6042	-3.6396	-4.6375	0.545	-16.886	240.121	330.846	231.080	13.879	143.123	312.073	129.164	-4.736	252.959	27.216	319.502	174.370	133.133	-3.378	0.00018772	0.00036038	0.00024717	1393.2	5.358e-06	1.9475e-06	1389.4	370.84	3.5186e-06	4.298e-06	426.86	142.67	123.75	43.022	3.5762e-06	53.359	0.00019532	0.00019124	5.3421e-05	1359	2.1044e-06	2.0885e-06	1354	361.46	2.1146e-06	2.0864e-06	408.09	137.76	118.81	41.031	2.0992e-06	50.476	205.754	40.189	31.090	-11.997	111.285	70.051	-11.913	-6.852	55.604	109.148	-7.748	-3.015	-2.588	1.663	71.649	1.053	-8191	255	
44332.852	1	1	0	0	0.21247	0.16825	0.069825	0.2503	0.11382	0.14232	0.063379	0.26235	0.067486	0.31772	0.14908	0.25081	0.091304	0.082293	0.27209	0.27405	-3.925	-3.6917	-4.7208	-4.1167	-4.2542	-4.6146	-3.9688	-4.6104	-4.2729	-3.7833	-4.8083	-4.3021	-4.1521	-4.8583	-3.8458	-4.5667	294.200	125.744	210.121	295.834	-6.242	128.680	2.053	245.873	329.093	300.574	231.400	206.962	231.775	-20.058	210.968	259.196	0.00022568	0.00062135	0.00011191	1392.4	3.519e-06	7.9886e-06	1392.1	372.18	4.9925e-06	1.9612e-06	429.05	141.79	123.66	42.795	3.359e-06	53.198	0.00019199	0.00018957	5.2798e-05	1358.8	2.1033e-06	2.075e-06	1356.5	361.96	2.0949e-06	2.084e-06	408.75	137.49	118.61	40.948	2.1048e-06	50.438	198.507	29.982	30.305	-11.941	161.322	118.332	-11.897	-7.034	153.033	85.516	-7.844	-2.776	-2.510	1.693	47.092	0.761	-8191	255	
44332.945	1	1	0	0	0.18704	0.10965	0.13382	0.13671	0.22673	0.10014	0.18861	0.035845	0.16969	0.046595	0.15428	0.25863	0.14128	0.059258	0.36532	0.20504	-4.0646	-3.8771	-4.7562	-4.2979	-4.0813	-4.6083	-3.95	-4.5396	-4.5062	-3.6375	-4.9104	-4.1625	-4.0687	-4.8438	-3.7625	-4.3333	245.440	201.328	135.736	316.206	68.412	267.964	294.675	250.347	3.303	3.884	89.244	51.631	149.674	266.066	293.709	-15.802	0.00029909	0.00052523	0.00029716	1393.2	2.0537e-06	1.651e-06	1393.2	370.28	2.8284e-06	4.458e-06	429.17	142.66	123.76	42.878	2.921e-06	53.377	0.00019463	0.0001904	5.3329e-05	1360	2.1098e-06	2.082e-06	1356.1	361.28	2.076e-06	2.0898e-06	408.76	137.78	118.79	41.024	2.1087e-06	50.448	195.775	36.549	-13.119	-12.033	26.641	206.682	-11.981	-7.131	199.631	96.210	-7.881	-2.741	-2.484	1.733	40.493	0.733	-8191	255	
44333.043	1	1	0	0	0.17173	0.12661	0.070713	0.19407	0.19314	0.25596	0.20271	0.23553	0.072593	0.29496	0.08163	0.18014	0.174	0.17258	0.31107	0.093352	-4.2083	-3.6	-4.5021	-4.4646	-3.7833	-4.6687	-4.1583	-4.3792	-4.6333	-3.5771	-4.6958	-4.3313	-3.8292	-4.7646	-4.0021	-4.2562	2.823	87.054	18.068	300.014	199.004	216.968	310.688	251.252	245.516	318.336	245.225	6.971	312.020	23.705	112.152	221.871	0.00018562	0.0003643	2.8627e-05	1394.9	2.0342e-06	6.1875e-06	1387.7	371.47	2.4756e-06	4.2995e-06	427.72	141.8	123.14	42.774	3.5996e-06	53.069	0.00019263	0.00019033	5.2869e-05	1358.8	2.1043e-06	2.0622e-06	1353	361.06	2.0778e-06	2.0832e-06	409.11	137.37	118.63	40.965	2.0873e-06	50.389	189.350	65.470	172.808	-11.879	56.384	100.892	-11.821	-7.212	126.487	94.079	-7.714	-3.059	-2.478	1.728	73.445	1.167	-8191	255	
44333.141	1	1	0	0	0.055733	0.24079	0.10783	0.33686	0.27028	0.15148	0.2113	0.2342	0.13565	0.16918	0.081804	0.1289	0.21562	0.21546	0.19314	0.14543	-4.3292	-3.875	-4.3854	-4.5563	-3.6708	-4.7021	-4.1146	-4.225	-4.5521	-3.7479	-4.6438	-4.5333	-3.9583	-4.8625	-4.0271	-3.9562	201.949	323.832	-4.189	301.276	146.914	226.192	270.349	258.091	-17.649	267.028	-22.572	323.226	329.746	305.317	274.551	205.428	0.00021006	0.00040377	0.00010777	1397.3	2.1897e-06	2.742e-06	1392.6	369.72	6.3555e-06	5.2692e-06	428.06	142.4	123.39	42.8	7.8288e-07	53.045	0.00019054	0.00018988	5.2576e-05	1360.5	2.0788e-06	2.0523e-06	1354.5	360.65	2.0457e-06	2.057e-06	408.74	137.43	118.49	40.914	2.0443e-06	50.286	192.315	56.308	28.038	-11.868	46.685	33.148	-11.822	-6.991	144.005	142.708	-7.749	-2.872	-2.304	1.573	154.738	0.886	-8191	255	
44333.234	1	1	0	0	0.19898	0.31662	0.058263	0.29409	0.1557	0.056908	0.041873	0.20158	0.21775	0.15064	0.14888	0.10617	0.20076	0.098024	0.063923	0.097227	-4.3667	-3.8042	-4.35	-4.7312	-3.6104	-4.7708	-4.3917	-3.8771	-4.7063	-3.8875	-4.3063	-4.6188	-3.8333	-4.6708	-4.2812	-3.7583	185.325	278.040	97.933	267.611	40.199	46.708	-23.191	331.550	210.004	265.939	239.743	71.667	278.868	-5.763	-3.116	257.776	0.00020492	0.00022017	0.00012114	1391.9	6.9482e-06	6.2656e-06	1390.1	370.4	2.9646e-06	4.0005e-06	428.9	142.68	123.61	42.77	3.0065e-06	52.831	0.00019032	0.00018667	5.1525e-05	1356.9	2.0474e-06	2.0208e-06	1354.1	360.53	2.0449e-06	2.0434e-06	408.49	137.5	118.4	40.94	2.045e-06	50.229	171.763	-22.299	83.413	-11.766	91.923	116.375	-11.863	-6.947	209.304	64.407	-7.776	-3.074	-2.278	1.501	145.442	0.799	-8191	255	
44333.332	1	1	0	0	0.075395	0.22438	0.25791	0.1953	0.099763	0.20369	0.1424	0.24159	0.23988	0.26043	0.20836	0.24037	0.21112	0.23477	0.13514	0.13112	-4.4771	-3.8792	-4.2458	-4.9542	-3.7	-4.5687	-4.5479	-3.8979	-4.7438	-4.0437	-4.2104	-4.7083	-3.9688	-4.6583	-4.5521	-3.8792	231.683	188.048	223.738	300.527	8.384	13.231	257.683	321.163	176.917	48.307	-1.752	311.110	294.092	318.361	40.097	308.930	0.00025576	0.00044246	0.00022311	1390.5	4.4459e-06	4.3363e-06	1387.6	369.38	3.9803e-06	5.0238e-06	427.03	142.15	123.4	42.756	2.3739e-06	53.073	0.000192	0.00018912	5.2095e-05	1355.4	2.0828e-06	2.0593e-06	1353.5	360.25	2.0827e-06	2.0753e-06	408.11	137.38	118.43	40.921	2.0631e-06	50.341	191.980	38.946	36.787	-11.871	72.231	148.378	-11.630	-7.026	195.047	98.615	-7.854	-2.706	-2.129	1.576	131.296	0.911	-8191	255	
44333.453	1	1	0	0	0.048018	0.23779	0.033113	0.097208	0.1605	0.18971	0.10928	0.12106	0.15402	0.097379	0.10336	0.10982	0.38813	0.11014	0.37213	0.17493	-4.3729	-4.0083	-4.0979	-4.6896	-3.5646	-4.4708	-4.6521	-4.0521	-4.5833	-4.1062	-4.1	-4.7625	-3.9104	-4.4125	-4.5104	-3.6792	72.896	101.220	3.362	288.113	217.634	261.423	326.581	186.189	76.917	326.970	190.899	297.041	265.472	-14.031	35.567	3.815	0.00015991	0.00036123	0.00012032	1391.1	1.2787e-06	3.8274e-06	1386.9	369.61	8.6014e-07	7.1444e-06	427.08	143	123.01	42.801	3.1331e-06	52.831	0.00019435	0.00019044	5.3026e-05	1357	2.1135e-06	2.0817e-06	1353.7	360.47	2.0789e-06	2.0999e-06	407.98	137.72	118.4	40.907	2.0994e-06	50.418	191.922	26.386	51.663	-11.695	260.008	168.725	-11.759	-7.044	321.066	131.371	-7.831	-2.810	-2.465	1.447	172.849	0.923	-8191	255	
44333.547	1	1	0	0	0.1865	0.11468	0.085998	0.13285	0.32245	0.1878	0.13902	0.43434	0.097773	0.13877	0.096105	0.16463	0.16458	0.22154	0.20659	0.10019	-4.4688	-4.2896	-3.8875	-4.8396	-3.9458	-4.2292	-4.7188	-3.8521	-4.4292	-4.3042	-3.9542	-4.7958	-4.0979	-4.2063	-4.5917	-3.8771	160.217	38.005	30.663	237.642	154.095	326.295	321.195	303.850	214.919	-5.589	329.312	291.932	319.715	271.051	109.579	191.884	0.00017631	0.00023593	8.9927e-05	1391.1	5.0306e-06	4.1128e-06	1393.8	370.12	3.6522e-06	1.818e-06	427.79	142.06	123.24	42.745	2.3052e-06	53.039	0.00019693	0.00019261	5.3746e-05	1357	2.1316e-06	2.0997e-06	1354.9	360.46	2.1227e-06	2.1076e-06	408.23	137.6	118.44	40.972	2.1016e-06	50.351	190.659	44.217	31.094	-11.892	112.664	151.376	-11.762	-6.922	171.435	127.104	-8.009	-2.870	-2.242	1.617	146.930	0.850	-8191	255	
44333.621	1	1	0	0	0.15038	0.095241	0.16105	0.090944	0.14931	0.14199	0.065078	0.14596	0.10915	0.12672	0.06656	0.069176	0.38196	0.22581	0.13902	0.31524	-4.1875	-4.3125	-3.8833	-4.9167	-3.9479	-4.1729	-4.8688	-3.8771	-4.5687	-4.4187	-4.0375	-4.9042	-4.1417	-4.2458	-4.8063	-4.0833	325.569	145.485	88.764	3.173	123.246	58.970	234.379	207.112	49.915	59.714	274.740	276.055	289.749	235.415	207.890	293.634	0.00018639	0.00039549	0.00011006	1390.5	1.6782e-06	2.4699e-06	1384.6	371.25	5.6477e-06	2.8805e-06	427.94	141.68	122.93	42.87	3.8519e-06	53.132	0.00019675	0.00019144	5.3518e-05	1356.9	2.1182e-06	2.0995e-06	1352.1	360.73	2.0928e-06	2.0774e-06	407.95	137.24	118.21	40.983	2.0879e-06	50.336	180.133	101.942	104.572	-11.758	284.131	149.680	-11.539	-7.151	88.813	70.979	-7.974	-3.049	-2.392	1.718	144.177	0.839	-8191	255	
44333.738	1	1	0	0	0.07671	0.11448	0.087389	0.080192	0.12886	0.23029	0.065879	0.29143	0.2084	0.15564	0.12392	0.18534	0.12207	0.075265	0.049898	0.31853	-4.2667	-4.4313	-3.8271	-4.8521	-4.0875	-4.0542	-4.7083	-4.0479	-4.3146	-4.4833	-3.8958	-4.6042	-4.3875	-4.0771	-4.6604	-4.0062	53.200	238.051	284.718	-4.682	101.382	36.641	199.424	247.979	165.575	11.645	311.898	191.822	277.978	316.336	13.455	316.757	0.00020851	0.00048145	0.00015013	1395.1	4.4115e-06	2.9189e-06	1390.2	369.64	4.5913e-06	4.6332e-06	428.47	142.3	123.05	42.647	1.4384e-06	53.199	0.00019382	0.00018884	5.3037e-05	1358.5	2.097e-06	2.0624e-06	1353.9	360.24	2.0824e-06	2.0646e-06	408.77	137.36	118.14	40.837	2.0854e-06	50.358	183.399	40.437	-16.778	-11.966	103.689	173.362	-11.911	-6.915	142.601	106.554	-7.635	-2.944	-2.397	1.500	146.065	0.919	-8191	255	
44333.836	1	1	0	0	0.087625	0.14864	0.13342	0.10479	0.19951	0.32877	0.12036	0.14734	0.12835	0.064719	0.15727	0.07924	0.084576	0.096857	0.083252	0.34122	-3.95	-4.6292	-3.6396	-4.6	-4.1958	-3.8042	-4.9187	-4.0146	-4.075	-4.5396	-3.825	-4.6188	-4.4917	-3.8333	-4.6562	-4.0833	80.176	246.411	185.518	170.101	249.197	321.925	7.580	1.227	220.355	262.669	259.462	279.103	2.990	178.403	-17.116	263.914	0.00023597	0.00044507	0.00023629	1391.2	6.0542e-06	1.5198e-06	1390.8	370.76	5.3676e-06	2.8044e-06	427.44	142.04	123.83	42.776	4.5749e-06	53.056	0.00019263	0.00019065	5.3115e-05	1358	2.1171e-06	2.0895e-06	1353.7	360.63	2.1204e-06	2.0802e-06	407.83	137.45	118.61	40.95	2.1221e-06	50.318	196.903	34.044	16.428	-12.069	121.922	155.404	-11.803	-7.165	83.643	115.071	-7.870	-3.164	-2.412	1.730	113.626	1.006	-8191	255	
44333.930	1	1	0	0	0.23176	0.12701	0.037974	0.15447	0.10664	0.28866	0.066501	0.044281	0.33148	0.10998	0.3241	0.17994	0.20406	0.14201	0.098979	0.15012	-3.775	-4.5771	-3.7938	-4.6417	-4.3854	-3.5958	-4.8208	-4.1062	-4.0604	-4.6333	-4.0125	-4.4208	-4.6979	-4.0021	-4.5583	-4.2354	319.145	293.454	173.369	285.727	70.196	67.535	183.878	1.217	279.622	80.476	326.182	162.350	334.237	-24.689	96.438	-8.237	0.0001947	0.00044488	0.00015466	1392.7	8.1076e-06	3.0623e-06	1391.6	369.76	3.8e-06	8.06e-06	427.34	141.93	123.03	42.701	5.3965e-06	52.954	0.00019557	0.00019223	5.3995e-05	1358.5	2.1263e-06	2.1152e-06	1354.4	360.53	2.1281e-06	2.1266e-06	408.1	137.49	118.23	40.972	2.1391e-06	50.376	205.140	57.964	19.331	-12.158	127.660	83.579	-11.731	-6.821	184.746	73.923	-7.794	-3.012	-2.333	1.785	121.038	1.177	-8191	255	
44334.027	1	1	0	0	0.057933	0.12404	0.11288	0.34049	0.055413	0.10801	0.19247	0.25366	0.10805	0.23757	0.20728	0.15285	0.11489	0.22491	0.11472	0.15991	-3.4792	-4.7688	-3.7542	-4.5125	-4.525	-3.7479	-4.6875	-4.3979	-3.7583	-4.7271	-4.1	-4.2958	-4.8167	-3.925	-4.3958	-4.3688	216.142	268.713	140.678	295.867	280.307	216.319	8.238	241.875	98.806	61.083	251.141	296.736	138.841	303.806	46.517	225.224	0.00024959	0.00052056	0.00013349	1389.9	3.3577e-06	4.0668e-06	1394.9	370.05	4.1796e-06	5.829e-06	428.36	141.91	123.3	42.716	3.1558e-06	53.058	0.00019632	0.00019416	5.4005e-05	1358.4	2.1268e-06	2.1343e-06	1355.9	360.44	2.1403e-06	2.1038e-06	408.25	137.43	118.31	40.947	2.1273e-06	50.301	190.472	-12.946	11.194	-11.769	103.566	110.398	-11.658	-7.258	61.880	80.000	-7.616	-2.870	-2.148	1.576	129.918	1.231	-8191	255	
44334.148	1	1	0	0	0.17608	0.071493	0.073409	0.27653	0.093957	0.21898	0.14049	0.12737	0.14373	0.07174	0.094761	0.4251	0.19178	0.22303	0.065615	0.083684	-3.5229	-4.7	-4.0813	-4.2917	-4.5292	-3.8458	-4.8229	-4.625	-3.8792	-4.7125	-4.0938	-4.2021	-4.7021	-3.7854	-4.3646	-4.5042	213.109	259.625	-2.548	268.590	-4.746	40.321	78.511	-3.962	206.676	20.843	290.804	252.589	291.409	263.909	319.941	165.789	0.00022777	0.00039994	0.0001136	1392.7	4.7011e-06	1.0337e-06	1385.2	369.48	6.0432e-06	1.3253e-06	425.94	142.03	123.47	42.715	3.0098e-06	53.123	0.00019754	0.00019379	5.3976e-05	1357	2.1078e-06	2.1122e-06	1353.5	360.49	2.1173e-06	2.0986e-06	407.88	137.48	118.38	40.942	2.092e-06	50.336	190.869	61.926	-7.384	-11.914	132.316	-9.307	-11.647	-7.051	156.404	16.298	-7.561	-2.915	-2.320	1.319	84.208	1.150	-8191	255	
44334.242	1	1	0	0	0.24958	0.061567	0.29134	0.35472	0.014174	0.23796	0.13638	0.29908	0.14987	0.18959	0.14992	0.045124	0.29842	0.16564	0.27381	0.13568	-3.7021	-4.8083	-3.9958	-3.9979	-4.6021	-3.9229	-4.6417	-4.6333	-3.6167	-4.8292	-4.2771	-3.8896	-4.8542	-3.9229	-4.2625	-4.5563	94.437	252.288	20.757	259.943	227.429	86.588	210.343	232.063	13.873	312.615	100.172	64.543	308.794	263.619	174.685	293.352	0.00020261	0.00025418	0.00015154	1392.5	5.7229e-06	2.6102e-06	1392.1	370.45	5.1343e-06	2.4631e-06	426.33	142.13	123.49	42.615	2.3826e-06	53.303	0.00019453	0.00019081	5.3102e-05	1358.5	2.1113e-06	2.0706e-06	1355	360.87	2.1126e-06	2.1108e-06	408.21	137.6	118.53	40.915	2.123e-06	50.387	202.790	-16.296	8.370	-11.764	110.329	207.025	-11.832	-6.924	146.910	76.758	-7.910	-2.894	-2.555	1.756	126.379	1.032	-8191	255	
44334.316	1	1	0	0	0.26677	0.084177	0.16646	0.36993	0.13956	0.091071	0.22859	0.10339	0.23501	0.091729	0.075314	0.26188	0.13011	0.14842	0.089015	0.16814	-3.3896	-4.6646	-4.2479	-4.1646	-4.8583	-4.0312	-4.5104	-4.825	-3.7542	-4.4625	-4.3667	-3.8854	-4.7125	-3.9979	-4.0188	-4.7417	298.928	48.171	162.947	271.689	33.628	182.915	155.405	188.574	73.885	92.528	310.978	57.989	276.555	44.461	111.922	0.985	0.00026138	0.00063493	0.00020424	1391.2	1.0548e-06	2.3456e-06	1387.2	368.94	2.855e-06	6.156e-06	426.05	142.12	123.13	42.716	1.9487e-06	52.9	0.00019533	0.00019336	5.3991e-05	1357.1	2.1233e-06	2.1375e-06	1354.4	360.37	2.1209e-06	2.1079e-06	407.92	137.48	118.53	40.976	2.1171e-06	50.304	194.822	13.995	-5.175	-12.024	293.867	30.220	-12.068	-7.062	138.978	77.720	-7.858	-2.991	-2.383	1.679	97.977	1.075	-8191	255	
44334.410	1	1	0	0	0.12911	0.14206	0.073586	0.25234	0.16971	0.31084	0.11118	0.04883	0.18113	0.16974	0.28699	0.17272	0.1087	0.11037	0.27756	0.1433	-3.3917	-4.4396	-4.375	-4.025	-4.6312	-3.975	-4.3542	-5.025	-3.6875	-4.3313	-4.5104	-3.8271	-4.6271	-4.1167	-3.9104	-4.8938	167.164	200.674	104.085	308.943	69.782	100.681	2.384	172.659	184.589	296.859	332.651	214.538	260.237	189.226	279.850	14.713	0.00016213	0.00031297	0.00012102	1393.5	4.033e-06	4.1935e-06	1394.4	369.58	7.6068e-06	3.2104e-06	426.86	141.89	123.33	42.698	5.9899e-06	53.097	0.00019795	0.00019438	5.3522e-05	1357.5	2.1247e-06	2.1088e-06	1356.7	360.52	2.1538e-06	2.1334e-06	408.38	137.33	118.44	40.921	2.1525e-06	50.372	197.328	11.627	3.390	-11.933	96.706	112.966	-11.956	-7.013	161.429	82.097	-7.612	-3.262	-2.289	1.546	119.589	0.887	-8191	255	
44334.531	1	1	0	0	0.11044	0.10008	0.20134	0.38281	0.13502	0.12053	0.24758	0.077724	0.237	0.069477	0.12713	0.17685	0.17788	0.13269	0.1264	0.18152	-3.525	-4.1979	-4.3271	-3.9125	-4.5917	-4.0708	-4.0833	-4.9104	-3.8438	-4.1375	-4.7812	-3.9437	-4.6646	-4.3146	-3.8417	-4.7979	298.064	163.941	212.291	262.134	272.767	173.163	227.072	304.701	-9.678	301.500	309.838	266.772	314.937	233.903	226.373	5.017	0.00020932	0.00029458	0.0001572	1386.9	4.1695e-06	4.0341e-06	1386.3	370.13	4.5427e-06	1.2101e-06	428.34	141.89	123.21	42.745	2.8292e-06	52.88	0.0001992	0.00019451	5.3444e-05	1356.9	2.1432e-06	2.1367e-06	1354.3	360.81	2.1378e-06	2.1122e-06	408.92	137.39	118.42	41.018	2.1398e-06	50.319	195.289	329.348	39.913	-11.943	125.813	119.765	-11.739	-6.822	132.720	159.796	-7.636	-3.019	-2.415	1.714	151.380	1.077	-8191	255	
44334.629	1	1	0	0	0.20203	0.074109	0.22252	0.2289	0.11489	0.19891	0.18312	0.043223	0.18464	0.17763	0.13157	0.34994	0.26466	0.12635	0.045565	0.094884	-3.5938	-4.1062	-4.4625	-3.8375	-4.5042	-4.2396	-3.9375	-4.9021	-3.8458	-4.0021	-4.8667	-3.8542	-4.5896	-4.3688	-3.775	-4.6188	52.264	106.110	47.578	307.811	15.121	186.622	238.669	306.990	-16.611	165.586	-7.723	284.205	320.566	314.967	141.215	255.671	0.00017912	0.00040204	0.00019978	1397.6	1.8203e-06	6.1659e-06	1390.4	368.89	3.3313e-06	2.5308e-06	426.31	142.31	123.08	42.728	5.9231e-07	53.111	0.00019782	0.0001923	5.3783e-05	1360.1	2.1381e-06	2.1112e-06	1355.1	360.38	2.1379e-06	2.1017e-06	408.28	137.56	118.42	40.905	2.1153e-06	50.341	204.356	32.780	13.853	-12.065	280.540	121.410	-11.910	-7.036	155.198	-7.173	-7.677	-2.886	-2.514	1.563	326.023	0.891	-8191	255	
44334.727	1	1	0	0	0.1486	0.12601	0.16423	0.1041	0.090875	0.14715	0.60148	0.29155	0.12405	0.1454	0.13675	0.11992	0.11416	0.009898	0.068412	0.10677	-3.7188	-3.9854	-4.6062	-4.025	-4.3438	-4.5417	-3.9542	-4.6646	-4.0042	-3.9313	-4.675	-3.8833	-4.3542	-4.7292	-3.6	-4.5833	25.333	18.240	22.848	217.144	134.588	122.402	279.994	-20.349	57.463	-5.274	262.225	262.705	323.751	142.873	97.013	165.381	0.000201	0.00033807	0.00020638	1391.9	1.8589e-06	7.3041e-06	1390.5	369.28	1.9586e-06	4.7374e-06	427.13	141.77	123.35	42.68	2.6696e-06	52.964	0.00019643	0.00019127	5.3547e-05	1359.2	2.126e-06	2.1047e-06	1354.6	360.6	2.1448e-06	2.1384e-06	407.93	137.46	118.48	40.915	2.1374e-06	50.332	193.711	67.173	-16.494	-12.073	224.214	89.484	-11.872	-7.067	141.258	181.348	-7.768	-2.910	-2.254	1.623	62.873	1.092	-8191	255	
44334.844	1	1	0	0	0.15808	0.17048	0.17718	0.19431	0.11311	0.085707	0.41673	0.16183	0.26216	0.17634	0.16009	0.11111	0.18139	0.40303	0.081756	0.13476	-3.7542	-3.7562	-4.55	-3.9396	-4.0271	-4.5938	-3.925	-4.7125	-4.2021	-3.7896	-4.7917	-3.9938	-4.1354	-4.4688	-3.675	-4.5729	278.116	283.545	122.089	258.024	87.895	324.368	287.226	223.841	178.727	200.575	16.088	62.505	6.228	284.698	-15.952	240.460	0.00020185	0.00019984	0.00018241	1392.5	2.2344e-06	3.5924e-06	1389	370.05	4.1301e-06	2.4421e-06	426.22	141.74	122.61	42.861	4.4817e-06	53.106	0.00019789	0.00019289	5.3988e-05	1358.6	2.1599e-06	2.1353e-06	1353.7	360.55	2.1708e-06	2.1407e-06	408.88	137.41	118.13	41.006	2.1637e-06	50.427	191.244	70.616	89.771	-12.001	51.119	110.270	-11.985	-7.020	83.396	111.533	-7.681	-2.917	-2.353	1.595	96.251	1.016	-8191	255	
44334.914	1	1	0	0	0.083804	0.27546	0.14136	0.32477	0.24233	0.16798	0.11775	0.10973	0.18888	0.096984	0.1087	0.12449	0.24998	0.24607	0.18757	0.16224	-3.9083	-3.7188	-4.5687	-4.1562	-4.0625	-4.6604	-3.9437	-4.3479	-4.3979	-3.775	-4.8104	-4.1104	-4.0687	-4.6708	-3.5396	-4.4167	99.592	260.811	244.150	326.875	75.197	96.734	12.233	246.064	138.403	328.974	9.312	251.870	310.572	311.192	172.185	284.171	0.00020636	0.00029113	0.0001544	1392.4	1.1624e-06	3.2373e-06	1386.8	369.06	2.8016e-06	6.0658e-06	427.65	142.47	123.22	42.703	1.3454e-06	52.814	0.00020084	0.00019783	5.4092e-05	1357.8	2.1626e-06	2.1284e-06	1354	360.31	2.1247e-06	2.1311e-06	408.6	137.27	118.55	40.93	2.147e-06	50.387	177.954	71.647	-10.912	-11.933	206.533	55.783	-12.102	-7.022	118.080	144.862	-7.865	-2.901	-2.585	1.914	63.909	1.119	-8191	255	
44335.012	1	1	0	0	0.10249	0.19464	0.013594	0.15935	0.18633	0.12794	0.045709	0.14597	0.072519	0.15933	0.13634	0.27008	0.17863	0.19728	0.20594	0.27077	-3.9479	-3.7	-4.7312	-4.325	-3.9062	-4.7167	-4.1396	-4.3042	-4.4167	-3.7062	-4.6146	-4.3833	-3.8875	-4.7042	-3.8854	-4.2292	26.000	-4.192	21.924	227.696	304.341	43.421	294.978	37.142	98.548	-7.567	310.794	329.187	323.413	-18.901	181.779	182.324	0.00020467	0.00047129	9.5766e-05	1388.8	2.7937e-06	2.0685e-06	1387.6	370.91	4.2633e-06	5.2789e-06	428.12	141.81	122.99	42.761	3.3795e-06	52.953	0.00019934	0.00019472	5.3997e-05	1357.5	2.1399e-06	2.1199e-06	1354.6	360.48	2.1187e-06	2.1268e-06	408.69	137.57	118.32	40.976	2.1412e-06	50.43	188.383	1.969	55.605	-12.002	152.156	124.427	-11.845	-7.160	57.002	122.829	-7.698	-2.988	-2.388	1.630	80.817	1.089	-8191	255	
44335.133	1	1	0	0	0.33617	0.10027	0.25281	0.24644	0.046017	0.2963	0.094543	0.072148	0.15352	0.16496	0.1267	0.21313	0.30604	0.090018	0.07541	0.18122	-4.2958	-3.7625	-4.4812	-4.4667	-3.7854	-4.6021	-4.0875	-4.2708	-4.5167	-3.6125	-4.6104	-4.3208	-3.7896	-4.7771	-3.8375	-4.0646	117.049	28.914	212.028	308.757	232.591	75.279	86.614	332.758	149.216	332.380	304.046	203.006	248.334	3.063	173.379	137.317	0.00020653	0.00053586	3.5105e-05	1393.8	4.3371e-06	3.2675e-06	1390.9	368.69	5.0681e-06	3.5984e-06	427.25	142.04	123.07	42.813	5.794e-06	53.028	0.00019821	0.00019439	5.4453e-05	1359.2	2.1659e-06	2.1407e-06	1354	360.13	2.1443e-06	2.1335e-06	408.7	137.46	118.47	40.986	2.1616e-06	50.439	197.738	60.550	287.300	-11.996	4.187	127.125	-11.713	-6.962	105.688	116.654	-7.744	-3.162	-2.524	1.436	88.641	1.057	-8191	255	
44335.227	1	1	0	0	0.1686	0.044669	0.2489	0.09298	0.28913	0.11877	0.16064	0.11778	0.12311	0.058178	0.11713	0.088025	0.26504	0.062345	0.12286	0.082253	-4.2354	-3.8229	-4.375	-4.525	-3.7687	-4.6188	-4.3187	-4.0333	-4.7354	-3.6271	-4.5646	-4.6	-3.8479	-4.6333	-4.1021	-4.1188	287.531	164.268	165.381	37.491	-3.837	128.740	306.832	261.431	277.980	65.323	293.103	62.483	229.414	171.227	290.592	81.770	0.00024612	0.00019179	0.00010634	1393.3	3.4962e-06	5.8606e-06	1390.4	370.6	7.27e-07	3.1529e-06	429.01	143.03	123.52	42.748	4.4674e-06	52.905	0.00019555	0.00019396	5.3639e-05	1358.6	2.1535e-06	2.1203e-06	1353.9	360.37	2.1259e-06	2.1362e-06	408.29	137.51	118.42	40.963	2.1544e-06	50.321	179.573	56.321	46.134	-11.878	113.549	115.358	-11.785	-7.016	1.293	73.624	-7.881	-3.069	-2.365	1.480	79.387	0.889	-8191	255	
44335.324	1	1	0	0	0.28337	0.25159	0.080972	0.51075	0.14891	0.034158	0.27956	0.21625	0.1055	0.077444	0.18956	0.097683	0.28878	0.20554	0.19477	0.14032	-4.4458	-3.7271	-4.2333	-4.7042	-3.8021	-4.5	-4.4271	-3.8625	-4.6729	-3.7562	-4.3271	-4.6458	-3.8083	-4.7604	-4.1479	-3.9583	298.501	127.918	-18.296	293.542	177.736	93.313	280.065	315.190	105.605	67.791	277.730	118.296	313.634	271.346	181.484	319.860	0.00016251	0.0003779	0.00019411	1391	3.1876e-07	3.2288e-06	1385.1	369.31	2.6057e-06	3.3383e-06	428.07	141.34	123.21	42.825	4.6401e-06	52.879	0.00019922	0.0001962	5.4559e-05	1357.6	2.1446e-06	2.1493e-06	1353.3	360.32	2.1545e-06	2.1519e-06	408.34	137.23	118.36	40.933	2.1537e-06	50.273	200.758	58.783	57.629	-11.654	185.305	142.520	-11.761	-7.091	124.995	107.967	-7.712	-2.969	-2.799	1.636	69.538	0.983	-8191	255	
44335.445	1	1	0	0	0.053433	0.14197	0.075916	0.17321	0.081222	0.052146	0.099782	0.27633	0.17022	0.13647	0.28653	0.15622	0.15109	0.10165	0.15649	0.18341	-4.3625	-4.1146	-4.1646	-4.6896	-3.7292	-4.3688	-4.4667	-3.9625	-4.8604	-3.9313	-4.2104	-4.7917	-3.6917	-4.5687	-4.4917	-3.7854	-2.532	-21.338	80.180	238.953	151.512	85.102	277.027	315.225	88.918	314.243	308.249	285.902	97.098	274.637	164.798	289.273	0.0002217	0.00016549	0.00018676	1386.3	2.5697e-06	5.873e-07	1386.4	370.01	8.5812e-07	2.8463e-06	427.15	141.8	123.07	42.555	2.9358e-06	52.916	0.00019956	0.00019765	5.4344e-05	1356.5	2.1802e-06	2.1615e-06	1352.1	360.37	2.173e-06	2.1633e-06	408.68	137.33	118.03	40.91	2.1782e-06	50.308	194.042	76.129	49.246	-11.882	97.907	289.488	-11.716	-7.365	306.660	88.117	-7.884	-2.880	-2.383	1.608	23.389	0.890	-8191	255	
44335.516	1	1	0	0	0.10596	0.13033	0.037855	0.17256	0.12385	0.01521	0.091157	0.11443	0.10411	0.10872	0.062605	0.26295	0.29933	0.29665	0.13297	0.16515	-4.4229	-4.0312	-3.8479	-4.9917	-3.8333	-4.2812	-4.5771	-3.6646	-4.6188	-3.8688	-4.0062	-4.6771	-3.7917	-4.325	-4.5146	-3.8729	317.596	295.070	185.893	177.266	148.728	213.784	100.186	230.283	263.099	3.901	245.743	262.677	15.701	246.808	223.613	296.979	0.0001869	0.00026364	8.1804e-05	1389.4	1.7318e-06	3.7427e-06	1389.5	369.03	2.6149e-06	6.5362e-06	426.08	141.95	122.83	42.849	1.6602e-06	52.792	0.00020134	0.00019778	5.5194e-05	1355.7	2.1621e-06	2.1708e-06	1354	359.92	2.1604e-06	2.1534e-06	408.15	137.42	118.34	40.999	2.1609e-06	50.345	197.237	25.884	67.510	-11.717	43.931	68.041	-11.630	-7.066	13.819	65.489	-7.745	-3.006	-2.281	1.433	326.823	0.874	-8191	255	
44335.613	1	1	0	0	0.14545	0.07369	0.15289	0.13572	0.13266	0.08716	0.15092	0.10361	0.068797	0.14332	0.11069	0.31962	0.21062	0.066833	0.13075	0.22429	-4.3438	-4.1604	-3.7417	-4.9208	-3.9313	-4.1708	-4.6479	-3.8438	-4.425	-4.3583	-3.9646	-4.9292	-3.7542	-4.1604	-4.5896	-3.9396	248.617	71.594	267.032	298.594	41.438	166.448	285.077	168.257	158.759	153.853	105.036	309.635	243.326	331.679	276.364	255.635	0.00021469	0.00019914	0.00018295	1395.6	4.1144e-06	3.4681e-06	1384.4	369.02	3.7298e-06	2.2237e-06	427.19	141.84	123.47	42.533	5.7224e-06	53.229	0.00020072	0.0001995	5.4832e-05	1358.2	2.2015e-06	2.1476e-06	1353.9	360.13	2.1877e-06	2.1687e-06	407.95	137.36	118.41	40.88	2.1555e-06	50.412	200.616	141.533	18.171	-11.841	121.150	99.340	-11.662	-7.004	148.984	184.018	-7.887	-2.925	-2.373	1.734	35.619	1.072	-8191	255	
44335.711	1	1	0	0	0.10778	0.12541	0.20282	0.30009	0.1577	0.17345	0.21387	0.28768	0.19183	0.1036	0.098407	0.10951	0.072779	0.10182	0.025132	0.13347	-4.2271	-4.1021	-3.8333	-4.85	-4.1104	-3.9771	-4.7917	-3.8292	-4.2521	-4.5375	-3.8604	-4.7	-4	-3.9625	-4.6646	-3.8333	232.822	14.206	106.667	282.495	316.146	103.553	248.476	267.142	261.843	214.373	295.382	303.581	185.185	16.780	31.141	253.973	0.00025994	0.0005148	0.00011655	1389.2	5.5273e-06	4.951e-06	1398	369.68	2.677e-06	5.678e-06	426.22	141.86	122.77	42.689	1.987e-06	52.845	0.00020205	0.00019928	5.5138e-05	1357	2.181e-06	2.1541e-06	1355.2	360.23	2.1861e-06	2.1779e-06	407.59	137.38	118.32	40.9	2.1594e-06	50.276	190.561	36.801	7.262	-12.030	94.937	52.404	-11.987	-7.261	275.572	72.139	-7.560	-2.870	-2.092	1.524	66.990	0.858	-8191	255	
44335.828	1	1	0	0	0.11985	0.19326	0.07199	0.21338	0.11529	0.22097	0.044542	0.07053	0.20256	0.092473	0.19695	0.10518	0.1076	0.12085	0.11961	0.22082	-4.0125	-4.4938	-3.6771	-4.7979	-4.1396	-3.6729	-4.6312	-3.9583	-4.225	-4.4979	-3.7812	-4.6562	-4.4	-3.8479	-4.6687	-3.8646	262.638	-1.318	272.872	286.290	298.321	237.719	282.758	253.902	124.077	112.812	278.457	199.650	29.098	100.687	146.673	6.185	0.00024958	0.0004473	0.00020782	1393.5	6.5255e-06	3.8116e-06	1389.3	369.67	3.3732e-06	3.0158e-06	429.18	141.58	123.27	42.743	3.9051e-06	53.007	0.0002011	0.00019567	5.488e-05	1358	2.1664e-06	2.1489e-06	1353.5	360	2.1562e-06	2.1255e-06	408.25	137.47	118.37	40.929	2.1637e-06	50.399	177.471	-15.866	17.644	-11.755	141.982	60.421	-11.611	-7.067	229.367	52.368	-7.807	-2.997	-2.338	1.731	-13.020	0.954	-8191	255	
44335.926	1	1	0	0	0.067776	0.050868	0.27541	0.53657	0.24681	0.10204	0.21332	0.31704	0.37742	0.20435	0.12244	0.37153	0.23746	0.089944	0.084199	0.14686	-3.9188	-4.6687	-3.6125	-4.5854	-4.35	-3.8812	-4.9208	-4.0042	-4.0292	-4.6271	-3.9708	-4.6146	-4.4458	-3.7021	-4.8521	-4.1521	218.773	132.995	66.298	281.536	88.000	291.032	242.139	303.173	249.504	310.093	-2.180	251.861	333.521	202.747	290.173	288.287	0.00016225	0.00019851	0.00014739	1393.5	2.5156e-06	6.6262e-07	1390.8	368.84	3.4494e-06	6.0498e-06	426.92	142.33	123.12	42.622	3.5119e-06	53.067	0.00020004	0.00019702	5.4827e-05	1359.2	2.1692e-06	2.1536e-06	1356	360.31	2.1703e-06	2.1366e-06	408.11	137.29	118.32	40.864	2.1648e-06	50.341	186.190	41.403	24.151	-11.909	89.597	27.404	-11.726	-7.183	167.339	102.256	-7.734	-2.997	-2.318	1.689	78.321	1.066	-8191	255	
44336.020	1	1	0	0	0.022552	0.11958	0.2356	0.22857	0.07458	0.088695	0.40057	0.5035	0.23576	0.10141	0.07378	0.21677	0.10843	0.13855	0.17368	0.22231	-3.7062	-4.7562	-3.6792	-4.6729	-4.3167	-3.7167	-4.8729	-4.1521	-3.9083	-4.6875	-3.9854	-4.3167	-4.6188	-3.8479	-4.6375	-4.2854	299.406	59.133	86.830	247.913	168.753	182.583	282.442	271.735	30.577	137.977	68.286	200.393	116.157	46.576	83.448	263.401	0.00019792	0.00026063	7.0888e-05	1392.7	4.4855e-06	5.554e-06	1393.5	370.58	2.8573e-06	4.8183e-06	424.63	142.12	123.36	42.678	2.8917e-06	53.055	0.00019913	0.00019583	5.443e-05	1358.3	2.1578e-06	2.1422e-06	1354.1	360.18	2.16e-06	2.1504e-06	407.12	137.18	118.32	40.895	2.1527e-06	50.395	190.995	115.592	131.687	-12.000	85.761	148.323	-11.841	-6.994	183.565	168.347	-7.762	-2.881	-2.368	1.572	146.316	1.206	-8191	255	
44336.117	1	1	0	0	0.14725	0.063638	0.18431	0.35773	0.12983	0.1334	0.22391	0.080519	0.12682	0.23327	0.14613	0.054895	0.22235	0.18946	0.21884	0.20309	-3.4333	-4.6479	-3.8042	-4.3542	-4.4542	-3.7333	-4.6687	-4.3938	-3.8521	-4.5979	-4.1854	-4.225	-4.65	-3.7938	-4.6208	-4.4271	110.305	131.432	166.418	317.638	208.957	272.981	-9.316	10.302	311.825	136.023	303.049	56.727	294.504	318.420	208.357	248.732	0.00025359	0.00058738	0.00014099	1393.6	1.7852e-06	6.8232e-06	1388.4	368.15	5.678e-06	6.2315e-06	427.58	141.48	123.34	42.655	3.3209e-06	53.006	0.00019957	0.00019793	5.5317e-05	1356.6	2.1854e-06	2.1406e-06	1354.7	359.51	2.1443e-06	2.1257e-06	408.34	137.18	118.38	40.927	2.1273e-06	50.35	182.241	25.458	9.088	-12.107	154.298	99.182	-11.754	-6.935	163.233	84.037	-7.753	-2.932	-2.559	1.503	82.189	0.992	-8191	255	
44336.211	1	1	0	0	0.023709	0.23313	0.044489	0.24351	0.056966	0.09448	0.33604	0.052708	0.12142	0.17314	0.29615	0.12127	0.24956	0.06813	0.081713	0.082441	-3.6	-4.7229	-3.9125	-4.1708	-4.5021	-3.6333	-4.6271	-4.6687	-3.8208	-4.5354	-4.0521	-4.0687	-4.8812	-3.9417	-4.3958	-4.5875	46.084	231.736	301.339	74.808	253.993	139.008	204.592	256.364	220.966	181.060	-6.173	65.511	215.162	35.950	-16.320	139.168	0.00021936	0.00041242	7.9135e-05	1389.2	3.3041e-06	3.2205e-06	1385.5	369.54	4.0915e-06	4.4259e-06	429.92	142.39	124.14	42.851	4.3415e-06	53.028	0.00019731	0.00019423	5.4523e-05	1356.3	2.1382e-06	2.1229e-06	1352.5	359.96	2.1173e-06	2.1143e-06	408.36	137.43	118.47	40.956	2.1486e-06	50.32	177.041	59.540	22.833	-11.909	129.504	139.600	-11.930	-6.960	156.646	90.534	-8.561	-3.378	-3.288	1.733	123.444	0.938	-8191	255	
44336.309	1	1	0	0	0.22986	0.079999	0.14697	0.12067	0.19327	0.31551	0.16605	0.19817	0.19116	0.26377	0.17573	0.14358	0.19785	0.13571	0.0077019	0.030005	-3.4875	-4.6271	-4.1188	-4.1833	-4.5813	-3.7313	-4.3583	-4.5958	-3.5354	-4.575	-4.25	-3.8021	-4.7333	-3.75	-4.2292	-4.7333	170.527	8.483	42.431	14.825	166.787	322.630	76.152	234.244	246.842	205.137	254.352	-20.938	41.575	45.098	313.565	200.702	0.00018509	0.00046836	0.00010913	1401.6	2.1082e-06	2.9218e-06	1476.1	393.07	4.316e-06	3.5515e-06	461.64	153.19	132.89	46.135	6.0366e-06	57.378	0.00019814	0.00019352	5.4147e-05	1359.6	2.1337e-06	2.1501e-06	1370.7	364.33	2.1761e-06	2.1704e-06	414.13	139.4	120.04	41.538	2.1731e-06	51.166	195.344	83.930	29.398	-12.606	93.288	131.013	-16.436	-11.985	146.759	129.176	-13.398	-8.552	-8.174	-3.985	110.081	-4.119	-8191	255	
44336.406	1	1	0	0	0.075117	0.12379	0.10511	0.262	0.11229	0.049002	0.17183	0.20285	0.039909	0.048603	0.19011	0.11393	0.048787	0.10442	0.053793	0.056726	-3.4792	-4.4292	-4.2146	-3.9542	-4.5417	-3.9354	-4.2792	-4.5729	-3.7479	-4.3354	-4.3417	-3.875	-4.7354	-4.1479	-4.0271	-4.6979	3.971	278.807	51.433	280.875	175.048	328.998	263.572	265.552	273.990	300.447	209.997	166.748	137.264	298.776	205.028	245.659	0.00020842	0.00012998	0.00010437	1496.5	2.1404e-06	3.7811e-06	1491.3	397.1	5.9863e-06	5.9738e-06	460.87	152.83	132.75	45.917	2.5804e-06	56.903	0.00020055	0.00019887	5.4792e-05	1377.9	2.1661e-06	2.1614e-06	1373.4	365.55	2.1693e-06	2.1586e-06	414.18	139.16	120.09	41.521	2.1651e-06	50.994	183.607	-7.407	-10.217	-17.340	114.705	82.728	-17.018	-12.313	124.454	152.428	-13.045	-8.288	-7.925	-3.539	44.063	-4.289	-8191	255	
44336.523	1	1	0	0	0.081566	0.29424	0.16858	0.30104	0.14357	0.14824	0.08501	0.20365	0.20032	0.10424	0.18958	0.053219	0.11787	0.1163	0.21412	0.22082	-3.425	-4.2438	-4.2958	-3.8937	-4.6188	-4.0417	-4.0542	-4.5667	-3.7083	-4.2146	-4.4854	-3.7458	-4.5979	-4.0021	-3.8667	-4.6917	142.564	118.857	13.826	297.001	13.759	112.512	271.520	212.610	48.356	216.260	298.470	-25.535	36.268	299.101	62.569	272.522	0.00018675	0.00054988	5.7557e-05	1499	3.1586e-06	8.0687e-07	1489.9	397.49	3.6453e-06	6.7416e-06	460.66	152.86	131.84	45.976	3.4493e-06	57.026	0.00020042	0.00019624	5.4703e-05	1377.6	2.1539e-06	2.1673e-06	1370.9	365.53	2.1647e-06	2.1647e-06	413.28	139.18	120.04	41.482	2.1347e-06	50.985	198.337	22.783	45.412	-17.263	21.331	98.944	-17.078	-12.291	59.477	66.638	-12.774	-8.040	-7.552	-3.433	106.074	-3.899	-8191	255	
44336.621	1	1	0	0	0.20043	0.10893	0.15271	0.22626	0.12776	0.29319	0.14659	0.36068	0.10872	0.23578	0.19815	0.24268	0.046679	0.17551	0.11937	0.048901	-3.4708	-4.3333	-4.4667	-3.7375	-4.5458	-3.9188	-3.8646	-4.7771	-3.8125	-4.0042	-4.5229	-3.6958	-4.5125	-4.2917	-3.7771	-4.6958	143.422	288.326	31.408	311.631	29.049	69.714	157.975	259.403	289.429	93.745	-17.038	315.491	257.925	14.755	24.518	175.677	0.00013565	0.0007182	0.00011425	1493	2.0232e-06	3.6791e-06	1484.3	393.95	5.3933e-06	4.8777e-06	455.01	151.65	131.27	45.685	2.0127e-06	56.667	0.00019954	0.00019608	5.4234e-05	1377	2.1422e-06	2.129e-06	1371.5	364.52	2.1557e-06	2.1405e-06	413.45	138.98	119.93	41.502	2.1644e-06	50.926	208.364	35.021	310.236	-16.945	86.638	134.223	-16.856	-12.024	173.074	28.633	-12.467	-7.868	-7.315	-3.293	103.650	-3.977	-8191	255	
44336.715	1	1	0	0	0.08496	0.21634	0.16832	0.09509	0.21361	0.058582	0.26111	0.14131	0.10637	0.051613	0.094161	0.086193	0.047248	0.066237	0.32366	0.1523	-3.55	-3.9938	-4.5708	-3.8271	-4.4542	-4.2396	-4.0521	-4.8229	-3.7958	-4.1125	-4.7021	-3.6854	-4.5312	-4.4542	-3.7708	-4.5792	57.416	-24.523	168.893	28.970	235.355	44.586	310.332	261.187	299.428	50.197	15.429	255.093	182.988	109.066	167.129	4.674	0.00025256	0.00077011	0.00021243	1492.5	2.8195e-06	4.9857e-06	1486.4	396.09	1.5473e-06	2.9056e-06	458.23	153.06	132.76	45.967	3.401e-06	57.015	0.00019924	0.00019717	5.4393e-05	1377.1	2.167e-06	2.1342e-06	1371.2	365.43	2.1621e-06	2.1405e-06	413.04	139.33	120.12	41.535	2.171e-06	51.121	173.794	0.175	3.092	-17.157	127.253	81.342	-16.946	-12.230	14.802	65.648	-12.908	-8.024	-7.834	-3.739	13.813	-4.231	-8191	255	
44336.812	1	1	0	0	0.13931	0.041832	0.070882	0.34513	0.27796	0.062671	0.11991	0.12531	0.24028	0.16895	0.23601	0.30373	0.18677	0.17577	0.098998	0.031725	-3.7333	-3.6458	-4.3896	-3.7771	-4.2542	-4.2646	-3.8312	-4.7	-4.1104	-3.7979	-4.6979	-3.7687	-4.3604	-4.5188	-3.5917	-4.6125	-8.609	248.783	59.880	-18.247	211.826	276.013	269.059	175.904	252.144	117.441	292.355	246.332	255.142	262.892	9.249	221.134	0.00016799	0.00042067	0.00033921	1492	1.6485e-06	4.5395e-06	1480.3	393.68	1.1047e-06	4.4933e-06	454.1	150.48	131.79	45.616	2.1522e-06	56.699	0.00019987	0.00019633	5.4726e-05	1377.7	2.1716e-06	2.1468e-06	1369.5	364.77	2.1827e-06	2.1547e-06	412.43	138.76	119.76	41.488	2.1631e-06	51.049	195.599	-0.161	-3.215	-16.970	196.691	40.162	-16.628	-11.746	242.240	66.789	-12.542	-7.621	-7.407	-3.140	-0.101	-4.042	-8191	255	
44336.906	1	1	0	0	0.17498	0.14199	0.16555	0.46863	0.10705	0.046196	0.16121	0.13635	0.29447	0.1237	0.13719	0.26432	0.074983	0.14164	0.18387	0.10778	-3.9521	-3.7687	-4.5625	-3.8146	-4.1792	-4.5188	-3.8812	-4.5875	-4.1854	-3.8292	-4.7417	-3.9146	-4.1771	-4.6062	-3.6542	-4.3958	266.306	327.940	167.057	268.802	-27.903	95.627	206.305	279.776	118.868	42.068	324.764	-17.185	255.923	53.130	13.135	307.366	0.00022177	0.00048837	5.5789e-05	1485.2	2.4201e-06	4.8762e-06	1483.3	393.74	3.0523e-06	2.2903e-06	455.59	152.07	131.39	45.804	6.7449e-07	56.832	0.00019989	0.0001966	5.4398e-05	1376.5	2.17e-06	2.1455e-06	1371.8	364.88	2.1697e-06	2.1378e-06	413.26	139.27	119.81	41.483	2.1565e-06	51.077	197.198	55.875	153.828	-16.903	59.896	113.734	-16.743	-12.028	163.055	119.504	-12.504	-7.914	-7.383	-3.470	74.713	-4.136	-8191	255	
44337.004	1	1	0	0	0.19054	0.22961	0.097654	0.31236	0.2097	0.12309	0.31667	0.12523	0.20124	0.11296	0.14601	0.13829	0.12892	0.081399	0.27345	0.18192	-3.9021	-3.7625	-4.5667	-4.0521	-3.8563	-4.6333	-3.8104	-4.6104	-4.2521	-3.6562	-4.7229	-4.0938	-4.1292	-4.675	-3.5917	-4.2708	247.705	168.193	50.744	284.563	130.431	192.373	248.395	293.693	329.762	190.927	329.168	304.676	188.880	66.795	144.893	297.825	0.00020129	0.00012033	7.2019e-05	1486.7	5.9086e-06	3.8076e-06	1486.2	395.13	5.0732e-06	5.7933e-06	458.7	151.21	131.64	45.596	2.7529e-06	56.419	0.00020035	0.00019518	5.5035e-05	1377	2.157e-06	2.1613e-06	1372.2	365.15	2.1741e-06	2.1523e-06	413.27	138.88	119.74	41.543	2.176e-06	50.938	179.452	264.548	88.378	-16.850	95.378	122.766	-16.905	-12.039	117.546	89.222	-12.605	-7.828	-7.429	-3.519	89.512	-4.172	-8191	255	
44337.102	1	1	0	0	0.061329	0.25968	0.17896	0.44214	0.061567	0.15664	0.16055	0.41547	0.25046	0.24474	0.26968	0.038337	0.25416	0.084522	0.17293	0.38149	-4.1937	-3.6875	-4.6146	-4.0542	-3.9271	-4.5	-3.9813	-4.2708	-4.3792	-3.8187	-4.5708	-4.0625	-3.9313	-4.6917	-3.7417	-4.1792	226.978	108.782	110.729	316.888	271.273	67.133	293.013	315.285	42.527	31.143	249.010	221.074	282.894	200.519	64.629	257.684	0.00016231	0.0005897	0.00015881	1486.2	3.2209e-06	4.4356e-06	1480.3	392.82	3.3788e-06	6.2961e-06	457.34	151.65	131.19	45.759	3.5961e-06	56.636	0.00019926	0.00019848	5.4824e-05	1375.7	2.1828e-06	2.1665e-06	1369.7	364.81	2.1819e-06	2.1526e-06	413.35	139.14	119.68	41.479	2.1548e-06	51.021	198.902	38.821	25.422	-16.769	57.916	195.468	-16.724	-11.943	133.071	101.318	-12.751	-7.861	-7.414	-3.282	53.809	-3.978	-8191	255	
44337.223	1	1	0	0	0.25631	0.25465	0.18976	0.12487	0.25022	0.17611	0.064503	0.18643	0.048251	0.14621	0.17034	0.043135	0.28319	0.19561	0.12237	0.14275	-4.3167	-3.5979	-4.2438	-4.3729	-3.6646	-4.6042	-4.0083	-4.1979	-4.5042	-3.6375	-4.5396	-4.3438	-3.8021	-4.6354	-3.8396	-3.9354	207.043	126.525	110.791	164.583	104.810	9.582	281.191	-13.855	266.173	52.495	237.840	322.012	257.711	-8.562	4.081	227.692	0.00014271	0.00042189	0.0001254	1487.3	5.0824e-06	3.6016e-06	1473	393.91	4.2543e-06	7.731e-06	455.01	150.35	130.84	45.534	3.8261e-06	56.481	0.00019925	0.00019736	5.4641e-05	1377.4	2.1635e-06	2.1448e-06	1368.6	364.89	2.1474e-06	2.168e-06	412.89	138.89	119.88	41.43	2.1645e-06	51.014	203.414	65.892	27.281	-16.690	110.910	120.626	-16.534	-11.590	134.014	58.910	-12.600	-7.635	-7.200	-3.218	134.534	-4.113	-8191	255	
44337.316	1	1	0	0	0.05926	0.16455	0.19006	0.2788	0.076893	0.13156	0.25291	0.059045	0.097577	0.17035	0.10838	0.033306	0.24978	0.071309	0.22478	0.028907	-4.3417	-3.8604	-4.3542	-4.6833	-3.5438	-4.6104	-4.0771	-4.125	-4.5771	-3.7083	-4.3604	-4.4979	-3.6771	-4.6708	-4.0625	-3.9521	323.000	100.214	306.231	314.059	179.575	314.590	296.983	-22.838	305.058	321.947	284.194	92.321	259.281	285.431	183.103	112.400	0.0002551	0.00048509	0.00022068	1485.3	1.2921e-06	4.4253e-06	1473.3	392.25	5.2941e-06	4.653e-06	453.59	150.82	131.03	45.391	4.4911e-06	56.275	0.00019798	0.00019797	5.5065e-05	1375.8	2.1667e-06	2.1674e-06	1368.7	364.34	2.1397e-06	2.1663e-06	412.91	138.77	119.73	41.388	2.1529e-06	50.866	178.634	28.454	21.437	-16.689	45.911	112.785	-16.362	-11.766	136.963	56.740	-12.577	-7.769	-7.243	-2.858	86.130	-3.718	-8191	255	
44337.414	1	1	0	0	0.024861	0.046177	0.10553	0.20086	0.088067	0.025892	0.34729	0.20951	0.03376	0.12015	0.22391	0.1166	0.19126	0.083666	0.13528	0.22775	-4.4583	-3.7833	-4	-4.8854	-3.7229	-4.5292	-4.4417	-4.0188	-4.5646	-3.7687	-4.1813	-4.6687	-3.6625	-4.5146	-4.25	-3.8604	162.943	193.945	189.243	308.005	302.229	110.644	283.853	312.594	208.271	41.925	-20.761	256.953	24.752	228.806	-15.786	262.017	0.00019766	0.0006162	0.00017218	1484.2	4.0382e-06	4.2705e-06	1474.5	393.63	2.1568e-06	4.4576e-06	454.34	150.76	131.27	45.305	2.3372e-06	56.398	0.00019675	0.00019779	5.4296e-05	1376.3	2.1346e-06	2.1398e-06	1368.2	364.7	2.1478e-06	2.1338e-06	412.54	138.75	119.93	41.391	2.1565e-06	50.937	189.421	25.031	326.187	-16.672	69.122	127.006	-16.306	-11.878	118.632	137.929	-12.447	-7.582	-7.042	-3.068	85.479	-3.842	-8191	255	
44337.484	1	1	0	0	0.17706	0.23643	0.083486	0.28857	0.070897	0.15443	0.19904	0.068019	0.15232	0.055394	0.25685	0.10755	0.18737	0.053254	0.21584	0.15726	-4.3729	-3.7542	-3.9646	-4.9104	-3.6188	-4.2896	-4.4854	-3.8896	-4.6562	-3.9313	-4.1813	-4.6854	-3.7	-4.3146	-4.325	-3.8729	65.207	107.382	72.869	292.856	113.425	-14.584	273.042	230.472	303.413	299.196	305.482	255.599	230.221	249.758	-6.339	306.228	0.00022026	0.00050204	0.00016319	1480.2	7.4617e-06	4.7254e-06	1472.6	392.12	3.5414e-06	5.9906e-06	450.74	150.09	130.9	45.251	7.4512e-06	56.037	0.00019775	0.00019582	5.437e-05	1374.1	2.1501e-06	2.1369e-06	1369.4	364.17	2.1426e-06	2.1666e-06	412.01	138.79	119.73	41.414	2.1141e-06	50.796	188.963	28.641	15.501	-16.409	86.573	85.126	-16.409	-11.651	-24.302	64.240	-12.379	-7.441	-7.279	-2.766	149.399	-3.585	-8191	255	
44337.605	1	1	0	0	0.015874	0.074508	0.19726	0.036424	0.032809	0.16564	0.18879	0.13621	0.042747	0.035204	0.059369	0.11559	0.17858	0.13497	0.097506	0.017346	-4.3458	-3.9583	-3.7354	-4.9167	-3.6417	-4.2479	-4.5542	-3.8542	-4.5583	-4.1667	-3.9562	-4.7771	-4.0083	-4.2417	-4.5854	-3.8896	20.758	109.377	86.588	231.462	93.666	-11.439	140.851	247.715	-8.646	292.993	-21.403	274.817	292.101	245.873	139.288	146.074	0.00019111	0.00030383	0.00015276	1471.5	7.0781e-06	2.601e-06	1471.8	391.49	4.294e-06	7.0041e-06	450.11	149.07	129.83	44.918	3.694e-06	56.414	0.00019804	0.00019405	5.4357e-05	1373.5	2.1604e-06	2.1296e-06	1369.6	363.96	2.1627e-06	2.1302e-06	411.77	138.74	119.54	41.291	2.1482e-06	50.927	187.647	78.532	18.297	-16.420	85.952	150.766	-16.139	-11.390	144.172	66.835	-12.106	-7.237	-6.803	-2.748	67.110	-3.496	-8191	255	
44337.703	1	1	0	0	0.20381	0.026298	0.19452	0.12631	0.32812	0.23385	0.15908	0.20835	0.13523	0.17282	0.27771	0.15755	0.17056	0.11879	0.10667	0.3058	-4.125	-4.2104	-3.7979	-4.8167	-3.9354	-4.0854	-4.7208	-3.6688	-4.2812	-4.2833	-3.975	-4.7562	-3.9229	-4.0479	-4.6229	-3.8208	82.435	58.515	317.441	26.193	122.373	233.364	27.710	265.189	318.814	290.528	255.612	241.428	268.559	271.249	262.378	283.679	0.00023314	0.00070402	0.00016124	1474.3	2.9419e-06	2.7763e-06	1467.6	392.08	5.4458e-06	6.8818e-06	451.39	150.05	130.35	45.079	3.644e-06	55.608	0.00019781	0.00019524	5.4672e-05	1373.6	2.1584e-06	2.1506e-06	1369.1	364.49	2.1763e-06	2.1634e-06	412.34	138.85	119.62	41.371	2.1623e-06	50.85	188.081	7.548	34.629	-16.399	72.233	115.838	-16.425	-11.601	141.347	73.988	-12.332	-7.544	-7.204	-2.859	43.615	-3.505	-8191	255	
44337.797	1	1	0	0	0.11436	0.24045	0.033971	0.079507	0.041343	0.099195	0.2223	0.05105	0.16935	0.27732	0.10987	0.19152	0.14767	0.17123	0.064081	0.177	-4.1438	-4.3229	-3.6271	-4.9729	-3.8083	-3.9375	-4.8979	-3.9333	-4.1813	-4.3833	-3.8417	-4.7271	-4.1188	-4.0167	-4.6271	-4.0521	326.622	310.295	86.842	328.682	46.354	83.318	21.013	7.788	202.806	163.103	267.105	229.602	18.967	245.587	106.411	327.490	0.00020307	0.00069594	0.00016278	1476.5	3.5383e-06	4.9027e-06	1467.9	392.51	3.0078e-06	1.9835e-06	452.84	150.39	129.79	45.203	7.0483e-06	55.757	0.00020054	0.00019689	5.4671e-05	1375.4	2.1882e-06	2.1392e-06	1369.1	364.36	2.1543e-06	2.1427e-06	412.27	138.82	119.51	41.409	2.1578e-06	50.89	185.030	-10.815	44.708	-16.341	319.494	98.141	-16.302	-11.751	110.579	115.781	-12.324	-7.355	-6.653	-3.095	119.042	-3.305	-8191	255	
44337.895	1	1	0	0	0.31786	0.052824	0.15072	0.12042	0.2122	0.0098941	0.23107	0.3235	0.20414	0.05862	0.23051	0.18378	0.29362	0.091649	0.13604	0.31407	-3.8708	-4.4563	-3.45	-4.8771	-4.1125	-3.7896	-4.8	-4.0292	-4.0458	-4.5146	-3.8729	-4.7458	-4.475	-3.875	-4.6354	-3.9667	314.442	62.063	151.735	328.725	208.309	183.127	193.221	283.026	123.072	-17.899	273.581	245.915	302.823	230.346	264.022	329.076	0.00018943	0.00033634	0.0001479	1472.8	1.3806e-06	6.7781e-06	1465.7	391.63	2.8378e-06	5.2755e-06	450.45	150.07	130.85	45.193	4.6788e-06	55.95	0.00020209	0.00019808	5.5716e-05	1372.9	2.2047e-06	2.1757e-06	1367.7	364.43	2.2229e-06	2.187e-06	411.89	139.12	119.72	41.338	2.1866e-06	50.969	191.724	34.920	328.823	-16.420	-5.710	126.652	-16.351	-11.686	178.141	74.389	-12.210	-7.555	-6.892	-2.654	72.844	-3.366	-8191	255	
44338.012	1	1	0	0	0.19973	0.082723	0.075922	0.35438	0.095	0.1023	0.10449	0.12552	0.23443	0.16404	0.14528	0.093318	0.14471	0.36215	0.15997	0.17264	-3.8875	-4.6625	-3.7188	-4.5958	-4.2792	-3.7687	-4.9521	-3.9896	-4.1813	-4.5521	-3.8	-4.4917	-4.55	-3.6813	-4.6833	-4.0417	270.912	127.292	150.857	-23.997	280.844	146.746	307.764	83.815	321.679	182.175	-9.612	184.736	138.432	308.855	199.192	32.674	0.00014425	0.0001551	5.1438e-05	1472.3	3.0292e-06	2.8591e-06	1459.8	388.33	5.5895e-06	5.2678e-06	441.96	147.88	127.71	44.451	1.3825e-06	55.383	0.00020458	0.00019992	5.5569e-05	1374.1	2.2013e-06	2.1868e-06	1369	363.87	2.1837e-06	2.1756e-06	410.66	138.37	119.11	41.268	2.195e-06	50.815	193.325	226.042	-27.188	-16.322	212.867	28.442	-15.874	-11.185	107.202	52.306	-11.178	-6.774	-5.833	-1.794	151.393	-2.891	-8191	255	
44338.086	1	1	0	0	0.2718	0.070251	0.12878	0.20425	0.012964	0.23848	0.21675	0.074368	0.080668	0.13127	0.16437	0.15097	0.049507	0.17883	0.099749	0.021262	-3.6104	-4.5646	-3.6667	-4.5979	-4.4104	-3.8708	-4.825	-4.2958	-3.7062	-4.6875	-3.7562	-4.1896	-4.5875	-3.6625	-4.4917	-4.3646	1.338	131.033	153.109	298.931	200.347	311.532	230.113	245.102	7.941	103.846	318.883	168.345	50.509	-6.110	-9.557	238.246	0.00024037	0.000362	7.987e-05	1454.5	4.012e-06	1.2768e-06	1453	387.54	1.0328e-06	3.3735e-06	448.24	148.5	125.07	43.307	1.4635e-06	53.927	0.00020343	0.00020042	5.5594e-05	1370.7	2.1903e-06	2.1743e-06	1366.8	364.09	2.1749e-06	2.1686e-06	412.17	138.57	118.65	40.984	2.1803e-06	50.535	184.350	67.386	16.949	-15.742	119.175	66.909	-15.538	-10.829	223.490	61.843	-11.957	-6.718	-4.126	-0.011	4.650	-0.442	-8191	255	
44338.203	1	1	0	0	0.14417	0.13181	0.044871	0.14217	0.13578	0.14333	0.28525	0.13786	0.089544	0.15594	0.074146	0.11359	0.060549	0.089354	0.31809	0.15425	-3.4708	-4.7042	-3.8667	-4.3292	-4.5479	-3.6417	-4.6062	-4.3292	-3.725	-4.7521	-4.0354	-4.0958	-4.7812	-3.8292	-4.4292	-4.3688	33.603	323.484	135.967	278.620	16.248	1.846	-4.679	21.568	55.477	317.917	134.999	262.416	10.855	-18.787	320.800	203.437	0.0001666	0.00040169	8.3394e-05	1461.7	5.1184e-06	4.7538e-06	1456.7	389.83	2.7787e-06	6.1115e-06	451.12	149.83	130.34	45.239	4.3412e-06	56.056	0.00020087	0.00019925	5.5255e-05	1372.6	2.2016e-06	2.1832e-06	1368.4	363.92	2.1906e-06	2.1873e-06	412.32	138.92	119.83	41.414	2.2171e-06	50.89	197.585	8.587	325.021	-16.058	148.818	90.986	-16.076	-11.160	226.830	49.989	-12.146	-7.613	-6.743	-2.684	88.913	-3.838	-8191	255	
44338.301	1	1	0	0	0.21648	0.029005	0.15413	0.1759	0.36177	0.020471	0.23527	0.29252	0.12663	0.099863	0.18193	0.10943	0.13483	0.25995	0.21641	0.36168	-3.4542	-4.5979	-3.8667	-4.1583	-4.5667	-3.7021	-4.5021	-4.3979	-3.625	-4.6771	-4.0646	-4.0062	-4.6792	-3.8667	-4.3208	-4.5625	230.868	152.341	166.256	309.585	220.733	85.558	245.476	273.629	292.540	157.763	327.362	292.387	-2.175	298.993	219.720	324.707	0.00019021	0.00043477	8.5485e-05	1476.5	4.7851e-06	4.3675e-06	1472.1	391.22	1.8339e-06	3.5276e-06	450.45	149.79	130.57	45.213	2.4866e-06	56.36	0.00020406	0.0002021	5.5712e-05	1375.2	2.2136e-06	2.2207e-06	1370.7	364.35	2.2203e-06	2.1923e-06	412.6	138.65	119.94	41.45	2.1967e-06	51.015	178.329	71.150	17.394	-16.625	121.820	16.939	-16.141	-11.488	262.528	127.356	-12.322	-7.496	-6.822	-2.782	69.518	-3.504	-8191	255	
44338.398	1	1	0	0	0.038986	0.2365	0.28593	0.22157	0.07229	0.17166	0.24871	0.034665	0.043482	0.096041	0.13026	0.20061	0.20067	0.25599	0.20483	0.19884	-3.4167	-4.7125	-4.0875	-3.9896	-4.6917	-3.8625	-4.4313	-4.6875	-3.6521	-4.6083	-4.3708	-3.9896	-4.8458	-3.7812	-4.1708	-4.625	298.787	96.299	217.670	-10.408	207.024	-14.749	257.890	145.466	224.041	270.197	307.523	283.120	-22.589	295.372	308.395	248.538	0.00019172	0.00044339	0.0001189	1479.7	3.8722e-06	5.0443e-06	1473.4	390.76	2.2293e-06	1.7894e-06	450.36	149.88	130.69	45.324	1.833e-06	56.285	0.00020574	0.00019983	5.5123e-05	1375.1	2.1913e-06	2.2199e-06	1372	364.52	2.2232e-06	2.2009e-06	412.34	139	119.87	41.412	2.2241e-06	51.022	174.118	330.173	-0.106	-16.678	96.970	59.440	-16.296	-11.338	214.432	169.394	-12.385	-7.604	-6.881	-2.634	2.914	-3.576	-8191	255	
44338.492	1	1	0	0	0.20966	0.25407	0.22966	0.27066	0.17745	0.070276	0.20107	0.13875	0.030161	0.24572	0.32444	0.069052	0.12186	0.17893	0.029753	0.14775	-3.5	-4.5104	-4.2812	-3.9042	-4.6562	-3.8667	-4.3208	-4.7542	-3.6937	-4.45	-4.4854	-3.7562	-4.8	-4.1979	-3.9708	-4.7792	57.368	201.283	86.388	311.104	139.622	276.672	280.355	177.576	316.771	272.676	305.046	224.114	293.525	186.304	276.468	110.556	0.00019179	0.00012857	0.00010326	1473.5	1.1874e-06	9.3828e-06	1473	392.67	1.8498e-06	2.9214e-06	452.46	150.77	130.2	45.399	1.2577e-06	56.221	0.00020453	0.00020299	5.5919e-05	1374.5	2.2246e-06	2.2151e-06	1372.3	365	2.2275e-06	2.1989e-06	412.99	139.19	119.62	41.474	2.2058e-06	50.931	210.489	75.033	-5.880	-16.543	65.206	134.336	-16.406	-11.440	220.855	53.607	-12.550	-7.819	-6.886	-2.765	190.424	-3.260	-8191	255	
44338.613	1	1	0	0	0.039935	0.21614	0.070777	0.27371	0.13799	0.11326	0.14173	0.19667	0.30726	0.25658	0.14417	0.32888	0.16216	0.062162	0.19844	0.15299	-3.3104	-4.3625	-4.2958	-3.8958	-4.5708	-4.0729	-4.2063	-4.6083	-3.7208	-4.1854	-4.55	-3.7146	-4.6167	-4.3167	-3.8083	-4.9042	9.737	202.102	100.998	310.203	325.044	175.380	290.259	300.846	176.951	281.957	-22.487	4.521	20.223	40.894	245.764	-3.245	0.00017984	5.0434e-05	0.00024991	1478.9	3.4738e-07	7.7506e-06	1476.5	391.44	4.6406e-06	7.1868e-06	451.36	149.99	130.37	45.225	2.3438e-06	56.002	0.00020373	0.00019972	5.5466e-05	1376.8	2.2002e-06	2.2116e-06	1372.2	364.71	2.2268e-06	2.2047e-06	412.74	138.83	119.76	41.516	2.2057e-06	50.898	197.651	222.018	-5.007	-16.606	162.655	102.029	-16.420	-11.736	111.087	65.310	-12.350	-7.627	-7.000	-2.555	64.869	-3.346	-8191	255	
44338.688	1	1	0	0	0.081207	0.17314	0.24008	0.18825	0.33619	0.12206	0.16069	0.095013	0.21253	0.1388	0.16449	0.15788	0.15989	0.18974	0.090668	0.15198	-3.4354	-4.1729	-4.5167	-3.7542	-4.5292	-4.1937	-3.8417	-4.7438	-3.7375	-4.1667	-4.5958	-3.9083	-4.4604	-4.3688	-3.775	-4.8	53.049	66.151	147.057	258.813	0.337	274.719	299.009	311.047	100.737	-21.749	197.244	330.046	3.991	324.427	316.113	232.102	0.00017759	0.00042754	0.00017772	1470.2	2.2208e-07	1.4805e-06	1470.3	390.92	2.2821e-06	5.0033e-06	452.07	149.77	130.86	45.066	3.2144e-06	56.102	0.00020632	0.00020103	5.5699e-05	1373.3	2.2002e-06	2.2105e-06	1371.4	364.66	2.2307e-06	2.2074e-06	412.59	138.8	119.85	41.447	2.1992e-06	51.021	189.408	42.754	22.754	-16.449	149.442	55.970	-16.279	-11.280	118.181	68.684	-12.037	-7.492	-7.030	-2.903	98.435	-3.448	-8191	255	
44338.781	1	1	0	0	0.23272	0.090225	0.094677	0.25643	0.22162	0.19691	0.1063	0.085493	0.2973	0.4834	0.11508	0.056115	0.074344	0.046646	0.063456	0.21681	-3.65	-4.0271	-4.4792	-3.8771	-4.4208	-4.3187	-3.9646	-4.8229	-3.8792	-3.9833	-4.7833	-3.8187	-4.4979	-4.5687	-3.6813	-4.7854	51.414	165.813	159.537	286.396	239.905	0.089	19.405	-19.389	49.680	178.332	60.846	64.536	174.660	110.728	125.380	303.155	0.00020771	0.00014715	0.00015029	1475.6	4.2474e-06	2.6524e-06	1471.7	391.36	4.9223e-06	3.1678e-06	452.43	149.97	130.49	44.994	5.4883e-06	56.258	0.00020632	0.00020159	5.5995e-05	1377.4	2.193e-06	2.1658e-06	1371.3	365.02	2.2227e-06	2.1929e-06	413.45	138.9	119.73	41.332	2.2125e-06	50.949	189.788	7.078	-1.640	-16.342	87.211	91.161	-16.292	-11.346	193.884	91.738	-11.992	-7.437	-6.890	-2.779	129.359	-3.584	-8191	255	
44338.902	1	1	0	0	0.28593	0.246	0.21516	0.25195	0.16502	0.10513	0.18679	0.14294	0.06311	0.058551	0.19571	0.14017	0.089215	0.29793	0.15494	0.12995	-3.9375	-3.7667	-4.5062	-3.9313	-4.2438	-4.4667	-4.0312	-4.6521	-4.1021	-3.8167	-4.6854	-3.7771	-4.3375	-4.5958	-3.6667	-4.75	39.618	238.975	78.422	309.542	48.463	73.267	279.886	278.011	25.873	131.278	204.414	147.798	230.371	321.027	67.026	321.128	0.00024516	0.00036855	0.00013659	1480	1.4451e-06	2.507e-06	1467.3	391.81	3.9675e-06	3.5267e-06	449.91	150.38	130.61	45.368	5.4791e-06	56.19	0.00020301	0.00019901	5.5645e-05	1375.5	2.2019e-06	2.1879e-06	1368.8	364.81	2.2138e-06	2.1834e-06	411.75	138.92	119.78	41.506	2.1802e-06	51.026	195.973	11.380	-13.534	-16.581	111.608	41.478	-16.290	-11.673	149.775	139.392	-12.029	-7.306	-7.081	-2.730	66.153	-3.583	-8191	255	
44338.996	1	1	0	0	0.24624	0.14829	0.16793	0.20431	0.18673	0.12294	0.14534	0.19936	0.065749	0.21378	0.078104	0.14396	0.20436	0.25092	0.17511	0.18398	-3.8021	-3.6583	-4.7042	-4.0896	-3.9458	-4.7312	-3.8729	-4.5896	-4.2708	-3.6896	-4.8542	-3.9771	-4.0792	-4.7646	-3.7083	-4.6125	203.789	112.188	-29.153	322.076	304.485	114.265	201.535	321.556	-24.738	77.879	41.767	41.429	39.248	292.548	38.903	221.634	0.00018914	0.00022771	0.00016701	1476.2	4.8065e-06	6.1478e-06	1473.2	392.43	3.7088e-06	2.6273e-06	451.98	150.15	130.73	45.359	6.5607e-07	56.428	0.00020173	0.00019888	5.5014e-05	1376.1	2.1961e-06	2.1866e-06	1370.1	364.87	2.1829e-06	2.1994e-06	412.64	138.86	119.84	41.482	2.2153e-06	51.104	192.083	19.127	-13.039	-16.504	89.087	84.196	-16.376	-11.612	103.441	27.887	-12.385	-7.413	-6.953	-2.936	59.569	-3.673	-8191	255	
44339.094	1	1	0	0	0.25434	0.029902	0.17772	0.1213	0.19815	0.072832	0.24234	0.19143	0.15444	0.022035	0.17473	0.28614	0.083974	0.18003	0.10395	0.19887	-4.0479	-3.675	-4.6208	-4.2875	-3.7812	-4.6813	-3.9375	-4.3604	-4.375	-3.8083	-4.7396	-3.9938	-4.0854	-4.6792	-3.7125	-4.4271	69.909	179.011	71.903	253.215	252.701	259.120	308.639	230.066	-15.323	168.186	278.136	289.621	6.644	262.591	25.326	285.148	0.00012827	0.00029019	0.00018289	1484.8	3.1956e-06	4.0595e-06	1472.1	392.54	2.2816e-06	4.2686e-06	452.14	149.49	130.7	45.483	3.1367e-06	56.124	0.00020399	0.00019894	5.5725e-05	1376.5	2.1906e-06	2.199e-06	1370.3	364.63	2.1789e-06	2.1934e-06	413.46	138.65	119.69	41.591	2.2052e-06	51.003	189.108	30.143	2.090	-16.403	196.091	60.413	-16.316	-11.638	108.839	102.981	-12.263	-7.413	-6.939	-2.893	20.193	-3.447	-8191	255	
44339.191	1	1	0	0	0.17173	0.14147	0.27706	0.18271	0.31051	0.18131	0.24517	0.10131	0.023669	0.087532	0.16312	0.13163	0.16011	0.070193	0.28292	0.191	-4.3042	-3.6667	-4.5354	-4.2354	-3.7479	-4.5458	-4.0083	-4.3458	-4.5146	-3.7625	-4.6979	-4.3688	-3.75	-4.8396	-3.8063	-4.1646	-25.687	130.032	206.965	26.823	-17.690	205.260	286.639	217.904	202.137	84.918	223.755	244.633	-24.458	308.786	71.322	9.522	0.00019324	0.00032589	6.1043e-05	1472.1	5.9268e-06	1.8673e-06	1474	391.47	5.2405e-06	2.2832e-06	452.86	149.72	130.31	45.217	4.1506e-06	56.17	0.0002038	0.00020125	5.5457e-05	1373.5	2.2025e-06	2.1911e-06	1369.8	364.91	2.1954e-06	2.196e-06	413.28	138.88	119.74	41.453	2.2594e-06	50.939	188.120	36.048	86.991	-16.482	114.687	55.119	-16.463	-11.757	142.968	120.087	-12.411	-7.460	-6.943	-2.679	125.885	-3.690	-8191	255	
44339.309	1	1	0	0	0.12796	0.11694	0.16025	0.075921	0.35986	0.079529	0.14115	0.17099	0.14509	0.19851	0.10733	0.16992	0.21136	0.17478	0.0070792	0.24132	-4.3063	-3.6125	-4.3146	-4.3833	-3.7417	-4.6104	-4.1729	-4.2688	-4.5417	-3.7104	-4.5271	-4.3667	-3.8625	-4.8042	-3.8625	-3.8854	148.362	261.487	253.253	309.484	315.545	299.650	221.544	211.359	-1.258	91.720	229.527	207.567	69.509	2.580	190.334	203.621	0.00020565	0.00029368	0.00014019	1483.7	4.433e-06	3.7404e-06	1477.2	391.68	3.1691e-06	2.0122e-06	453.51	151.09	130.56	45.386	2.2278e-06	56.474	0.00020524	0.00020259	5.5791e-05	1377.7	2.2024e-06	2.1817e-06	1370.9	364.24	2.2009e-06	2.2107e-06	413.42	139	119.7	41.504	2.208e-06	50.975	185.022	60.518	1.851	-16.675	149.029	160.830	-16.734	-11.680	132.122	51.208	-12.428	-7.833	-7.224	-2.836	49.650	-3.870	-8191	255	
44339.383	1	1	0	0	0.23574	0.25669	0.14206	0.31255	0.14044	0.20484	0.14978	0.059259	0.016265	0.14937	0.23042	0.055132	0.070025	0.195	0.022916	0.21637	-4.2729	-3.7292	-4.3854	-4.6354	-3.6458	-4.5312	-4.1813	-4.0854	-4.6625	-3.8312	-4.3313	-4.6604	-3.6688	-4.6813	-4.0521	-3.9771	179.983	213.943	32.492	277.528	230.654	250.030	279.018	271.650	91.881	-3.365	318.904	283.819	-23.980	237.119	16.688	322.082	0.00018172	0.00060932	6.3256e-05	1479.2	3.9086e-06	5.2052e-06	1472.8	390.85	2.9427e-06	1.4671e-06	452.72	149.94	130.77	45.451	1.7092e-06	56.38	0.00020238	0.00020152	5.5698e-05	1375.5	2.2194e-06	2.1973e-06	1371.9	364.33	2.1988e-06	2.2119e-06	413.18	138.75	119.72	41.554	2.2047e-06	50.946	214.721	19.058	-16.255	-16.581	15.039	98.266	-16.293	-11.740	123.022	81.740	-12.605	-7.497	-7.073	-3.076	170.188	-3.753	-8191	255	
44339.477	1	1	0	0	0.15914	0.061074	0.21761	0.25493	0.16299	0.039769	0.19062	0.22367	0.23206	0.094049	0.27254	0.11244	0.304	0.19363	0.22616	0.061919	-4.3271	-3.7083	-4.1271	-4.7083	-3.6229	-4.5271	-4.4229	-3.8187	-4.8396	-3.8438	-4.275	-4.7271	-3.775	-4.5667	-4.2396	-3.8417	140.053	169.841	156.522	326.646	171.829	175.226	284.275	-17.250	141.755	94.798	240.252	-29.253	324.152	3.634	308.431	78.664	0.00025776	0.00039512	0.00018911	1473.9	5.6508e-06	4.7932e-06	1482.2	393.88	3.7633e-06	2.9453e-06	453.23	150.95	131.06	45.297	1.7027e-06	56.146	0.00020465	0.0002027	5.5439e-05	1375.2	2.2144e-06	2.1804e-06	1372.7	364.79	2.1676e-06	2.2013e-06	412.55	139.04	119.79	41.481	2.1824e-06	51.022	206.446	37.178	-10.318	-16.581	35.215	154.486	-16.542	-11.772	71.505	133.888	-12.431	-7.503	-7.253	-3.043	325.048	-3.455	-8191	255	
#DATA ENDS
