BOXY.EXE: ISS Imagent and Oximeter Data Acquisition Program Version 0.80
Ascii Record File

#ACQ INFORMATION
2  Detector Channels 
16  External MUX Channels 
1  Auxiliary Channels 
5000  Waveform (CCF) Frequency (Hz)
1  Waveforms Skipped 
30  Waveforms Averaged 
1  Cycles Averaged 
16  Acquisitions per Waveform 
10.0806  Updata Rate (Hz) 

#FILE INFORMATION
TRUE -- External MUX Channel results are PARSED.
FALSE -- AC DC and Phase are NOT grouped.
TRUE -- Companion Program Settings File CREATED.
FALSE -- AC data not excluded
FALSE -- DC data not excluded
FALSE -- Phase data not excluded
FALSE -- Auxillary Chn. data not excluded
Tab delimiters

#CALIBRATION STATE
TRUE -- Waveform Calibration Values APPLIED.


#AUX CALIBRATION VALUES
Val Type	aux-1	

Term	1.0000e+00	
Factor	0.0000e+00	


#WF CALIBRATION VALUES
A = Detector Channel
Val Type	A-AC1	A-AC2	A-AC3	A-AC4	A-AC5	A-AC6	A-AC7	A-AC8	A-AC9	A-AC10	A-AC11	A-AC12	A-AC13	A-AC14	A-AC15	A-AC16	A-DC1	A-DC2	A-DC3	A-DC4	A-DC5	A-DC6	A-DC7	A-DC8	A-DC9	A-DC10	A-DC11	A-DC12	A-DC13	A-DC14	A-DC15	A-DC16	A-Ph1	A-Ph2	A-Ph3	A-Ph4	A-Ph5	A-Ph6	A-Ph7	A-Ph8	A-Ph9	A-Ph10	A-Ph11	A-Ph12	A-Ph13	A-Ph14	A-Ph15	A-Ph16	

Term	0.00000e+00	0.00000e+00	0.00000e+00	0.00000e+00	0.00000e+00	0.00000e+00	0.00000e+00	0.00000e+00	0.00000e+00	0.00000e+00	0.00000e+00	0.00000e+00	0.00000e+00	0.00000e+00	0.00000e+00	0.00000e+00	0.00000e+00	0.00000e+00	0.00000e+00	0.00000e+00	0.00000e+00	0.00000e+00	0.00000e+00	0.00000e+00	0.00000e+00	0.00000e+00	0.00000e+00	0.00000e+00	0.00000e+00	0.00000e+00	0.00000e+00	0.00000e+00	0.00000e+00	0.00000e+00	0.00000e+00	0.00000e+00	0.00000e+00	0.00000e+00	0.00000e+00	0.00000e+00	0.00000e+00	0.00000e+00	0.00000e+00	0.00000e+00	0.00000e+00	0.00000e+00	0.00000e+00	0.00000e+00	
Factor	1.00000e+00	1.00000e+00	1.00000e+00	1.00000e+00	1.00000e+00	1.00000e+00	1.00000e+00	1.00000e+00	1.00000e+00	1.00000e+00	1.00000e+00	1.00000e+00	1.00000e+00	1.00000e+00	1.00000e+00	1.00000e+00	1.00000e+00	1.00000e+00	1.00000e+00	1.00000e+00	1.00000e+00	1.00000e+00	1.00000e+00	1.00000e+00	1.00000e+00	1.00000e+00	1.00000e+00	1.00000e+00	1.00000e+00	1.00000e+00	1.00000e+00	1.00000e+00	X	X	X	X	X	X	X	X	X	X	X	X	X	X	X	X	

B = Detector Channel
Val Type	B-AC1	B-AC2	B-AC3	B-AC4	B-AC5	B-AC6	B-AC7	B-AC8	B-AC9	B-AC10	B-AC11	B-AC12	B-AC13	B-AC14	B-AC15	B-AC16	B-DC1	B-DC2	B-DC3	B-DC4	B-DC5	B-DC6	B-DC7	B-DC8	B-DC9	B-DC10	B-DC11	B-DC12	B-DC13	B-DC14	B-DC15	B-DC16	B-Ph1	B-Ph2	B-Ph3	B-Ph4	B-Ph5	B-Ph6	B-Ph7	B-Ph8	B-Ph9	B-Ph10	B-Ph11	B-Ph12	B-Ph13	B-Ph14	B-Ph15	B-Ph16	

Term	0.00000e+00	0.00000e+00	0.00000e+00	0.00000e+00	0.00000e+00	0.00000e+00	0.00000e+00	0.00000e+00	0.00000e+00	0.00000e+00	0.00000e+00	0.00000e+00	0.00000e+00	0.00000e+00	0.00000e+00	0.00000e+00	0.00000e+00	0.00000e+00	0.00000e+00	0.00000e+00	0.00000e+00	0.00000e+00	0.00000e+00	0.00000e+00	0.00000e+00	0.00000e+00	0.00000e+00	0.00000e+00	0.00000e+00	0.00000e+00	0.00000e+00	0.00000e+00	2.30140e+01	-1.20181e+02	-1.19907e+02	-1.83653e+02	-6.30298e+01	-5.18358e+01	-1.58195e+02	-1.62015e+02	-5.19289e+01	-7.20987e+01	-1.70726e+02	-1.70915e+02	-1.78976e+02	-1.76655e+02	-6.37239e+01	-1.49757e+02	
Factor	5.08546e-05	1.47758e-04	3.78023e-05	1.55087e-01	1.88521e-06	1.77159e-06	1.71671e-01	5.62650e-02	2.22537e-06	1.53002e-06	9.34834e-02	3.14727e-02	2.91465e-02	9.72571e-03	2.02248e-06	1.39640e-02	4.02956e-06	4.41231e-06	1.22925e-06	7.62458e-02	4.73918e-08	4.85632e-08	7.91440e-02	2.76715e-02	4.75700e-08	4.85441e-08	4.45230e-02	1.49399e-02	1.44346e-02	4.81122e-03	4.80407e-08	6.69290e-03	X	X	X	X	X	X	X	X	X	X	X	X	X	X	X	X	



#DISTANCE SETTINGS
A = Detector Channel
A-1	A-2	A-3	A-4	A-5	A-6	A-7	A-8	A-9	A-10	A-11	A-12	A-13	A-14	A-15	A-16	

2.5000e+00	3.0000e+00	2.5000e+00	3.0000e+00	2.0000e+00	3.0000e+00	1.5000e+00	3.0000e+00	3.0000e+00	3.0000e+00	3.0000e+00	3.0000e+00	3.0000e+00	3.0000e+00	1.5000e+00	3.0000e+00	

B = Detector Channel
B-1	B-2	B-3	B-4	B-5	B-6	B-7	B-8	B-9	B-10	B-11	B-12	B-13	B-14	B-15	B-16	

1.0000e+01	1.0000e+01	1.0000e+01	1.4400e+00	1.0000e+01	1.0000e+01	1.5100e+00	1.9400e+00	1.0000e+01	1.0000e+01	1.9900e+00	2.4900e+00	2.4100e+00	2.9000e+00	1.0000e+01	2.9800e+00	




#DATA BEGINS
time	group	step	mark	flag	A-AC1	A-AC2	A-AC3	A-AC4	A-AC5	A-AC6	A-AC7	A-AC8	A-AC9	A-AC10	A-AC11	A-AC12	A-AC13	A-AC14	A-AC15	A-AC16	A-DC1	A-DC2	A-DC3	A-DC4	A-DC5	A-DC6	A-DC7	A-DC8	A-DC9	A-DC10	A-DC11	A-DC12	A-DC13	A-DC14	A-DC15	A-DC16	A-Ph1	A-Ph2	A-Ph3	A-Ph4	A-Ph5	A-Ph6	A-Ph7	A-Ph8	A-Ph9	A-Ph10	A-Ph11	A-Ph12	A-Ph13	A-Ph14	A-Ph15	A-Ph16	B-AC1	B-AC2	B-AC3	B-AC4	B-AC5	B-AC6	B-AC7	B-AC8	B-AC9	B-AC10	B-AC11	B-AC12	B-AC13	B-AC14	B-AC15	B-AC16	B-DC1	B-DC2	B-DC3	B-DC4	B-DC5	B-DC6	B-DC7	B-DC8	B-DC9	B-DC10	B-DC11	B-DC12	B-DC13	B-DC14	B-DC15	B-DC16	B-Ph1	B-Ph2	B-Ph3	B-Ph4	B-Ph5	B-Ph6	B-Ph7	B-Ph8	B-Ph9	B-Ph10	B-Ph11	B-Ph12	B-Ph13	B-Ph14	B-Ph15	B-Ph16	aux-1	digaux	

28939.654	1	1	0	256	0.1718	0.18551	0.13492	0.29156	0.19037	0.35804	0.15528	0.25122	0.10771	0.1356	0.26419	0.16034	0.18978	0.10527	0.053305	0.13802	-3.6417	-4.45	-4.6375	-3.9917	-4.7542	-4.0312	-4.2542	-4.9167	-3.7354	-4.4458	-4.7146	-4.0583	-4.9875	-4.3146	-4.0479	-4.9146	476.944	429.504	178.872	438.788	314.109	514.943	406.051	168.447	229.348	498.276	425.165	462.960	207.077	272.792	453.832	369.336	0.0013581	0.00039425	0.00018616	1284.1	3.4142e-06	3.9849e-06	1289.9	354.11	1.1568e-05	4.1185e-06	407.29	132.71	115.55	38.941	6.059e-06	48.482	0.00056838	0.00054808	0.00015159	1312.9	5.9913e-06	5.9568e-06	1313.2	362.38	5.949e-06	5.8824e-06	416.85	136.29	118.25	40.213	5.8519e-06	50.479	342.536	268.635	249.071	172.618	289.290	346.886	172.047	177.182	292.977	285.638	176.498	181.034	181.361	186.381	350.531	185.436	-8191	255	
28939.773	1	1	0	0	0.093103	0.15137	0.28286	0.19111	0.089938	0.21612	0.21279	0.2032	0.066425	0.15816	0.11043	0.070544	0.08892	0.24336	0.125	0.19288	-3.5375	-4.5167	-4.6062	-4.1208	-4.7958	-4.2396	-4.0479	-4.9958	-3.9333	-4.2542	-4.7771	-4.0188	-4.7208	-4.5687	-3.9604	-4.9354	471.144	341.293	328.979	407.650	409.741	441.858	437.332	404.708	183.343	269.279	361.165	357.829	463.539	446.419	337.902	470.615	0.0014109	0.00077807	0.00022288	1285.9	6.526e-06	4.8202e-06	1289.3	355.13	8.289e-06	4.323e-06	406.05	133.48	115.39	38.978	5.638e-06	48.927	0.00056189	0.00052225	0.00014712	1311.3	5.6554e-06	5.8187e-06	1312.9	362.33	5.7165e-06	5.5805e-06	416.24	136.31	118.3	40.251	5.7281e-06	50.595	343.772	267.568	283.830	172.666	271.010	336.836	172.215	177.038	343.009	345.088	176.483	180.779	181.380	186.305	237.749	185.357	-8191	255	
28939.846	1	1	0	0	0.37118	0.11186	0.16086	0.20654	0.10723	0.09259	0.079357	0.12904	0.12987	0.12591	0.146	0.084579	0.22719	0.13365	0.18164	0.15974	-3.8521	-4.1208	-4.6667	-4.0229	-4.6396	-4.375	-4.0458	-4.9917	-3.9708	-4.3708	-4.8854	-3.8521	-4.6854	-4.6542	-3.9	-4.9	450.505	288.546	391.793	467.992	247.840	384.820	419.461	425.280	227.376	164.061	214.147	319.942	475.028	326.981	404.323	463.170	0.0013183	0.00057214	0.00016172	1282	6.9111e-06	1.8469e-06	1291.7	355.45	1.6065e-05	3.746e-06	407.71	132.92	115.79	39.004	3.3589e-06	48.62	0.00055307	0.00052827	0.00014633	1312.3	5.7917e-06	5.8898e-06	1315	362.91	5.8772e-06	5.8153e-06	417.22	136.18	118.71	40.324	5.8049e-06	50.555	344.225	262.796	231.757	172.719	276.279	262.047	172.198	177.131	312.199	340.949	176.368	180.947	181.492	186.483	351.276	185.212	-8191	255	
28939.941	1	1	0	0	0.041919	0.19129	0.24054	0.24646	0.21138	0.025423	0.13383	0.10651	0.17015	0.10099	0.11454	0.17638	0.12604	0.14786	0.027165	0.10884	-3.6792	-4.1937	-4.8187	-4.2125	-4.6104	-4.6583	-4.1937	-4.95	-4.1458	-4.0917	-4.9271	-3.8979	-4.5646	-4.7812	-3.8854	-4.9333	325.436	249.088	443.647	501.055	401.210	296.633	485.929	454.245	411.149	353.263	183.434	503.065	492.629	464.679	351.378	425.179	0.0014315	0.00041596	0.0001211	1287.7	9.9785e-06	4.172e-06	1293.7	355.61	1.2103e-05	3.4244e-06	404.47	134.01	115.49	38.901	1.3888e-05	48.697	0.00055631	0.00051868	0.00014329	1316.3	5.6401e-06	5.7104e-06	1317	363.37	5.7377e-06	5.6917e-06	416.34	136.4	118.21	40.21	5.8095e-06	50.546	346.735	250.332	228.867	172.518	305.210	281.820	172.233	177.225	296.889	300.271	176.849	181.116	181.583	186.310	301.907	185.334	-8191	255	
28940.062	1	1	0	0	0.15454	0.31554	0.10988	0.082571	0.15162	0.047415	0.052505	0.23591	0.08485	0.16685	0.21123	0.096327	0.10173	0.059026	0.18007	0.24193	-4	-3.9208	-4.7812	-4.2521	-4.3708	-4.6729	-4.175	-4.8	-4.2188	-4.0583	-4.9563	-4.0396	-4.3625	-4.9771	-3.8729	-4.7562	172.640	398.272	406.517	372.895	245.122	508.084	370.360	456.511	246.270	320.395	504.439	364.330	203.048	442.147	185.437	511.334	0.0013177	0.00044001	2.002e-05	1286.6	6.962e-06	6.7353e-06	1292.1	354.68	8.0205e-06	1.7767e-06	403.75	133.89	115.76	39.107	6.5769e-06	48.914	0.00055233	0.00053063	0.00014748	1313.3	5.873e-06	5.7644e-06	1317.6	363.38	5.851e-06	5.8763e-06	416.64	136.55	118.5	40.286	5.8843e-06	50.627	348.559	233.446	309.654	172.593	286.393	331.627	172.266	177.092	309.920	335.719	176.237	180.903	181.576	186.428	334.205	185.518	-8191	255	
28940.158	1	1	0	0	0.015584	0.045606	0.23207	0.28283	0.12534	0.23246	0.11613	0.050199	0.25412	0.10562	0.16387	0.22108	0.24167	0.1656	0.1366	0.089526	-4.1875	-3.95	-4.8333	-4.3896	-4.1125	-4.6562	-4.2104	-4.6729	-4.575	-3.9146	-5.0021	-4.125	-4.2604	-4.8938	-3.8937	-4.5813	347.018	287.525	282.895	453.133	323.236	468.294	431.107	414.593	382.488	184.323	313.698	496.687	460.152	474.724	488.314	324.402	0.0012345	0.00026915	0.00017485	1285.8	7.996e-06	2.9048e-06	1292.5	356.06	1.0705e-05	2.3793e-06	408.11	133.32	115.86	38.889	5.5524e-06	48.873	0.00056452	0.00053372	0.00014727	1313.8	5.8601e-06	5.7396e-06	1317.7	363.44	5.9564e-06	5.8346e-06	417.9	136.54	118.66	40.305	5.8734e-06	50.581	343.868	251.474	254.729	172.660	281.784	371.835	172.150	176.992	336.022	363.711	176.439	180.793	181.236	186.542	301.692	185.159	-8191	255	
28940.254	1	1	0	0	0.1374	0.11835	0.22064	0.20111	0.13954	0.21983	0.33304	0.19441	0.038105	0.32354	0.15056	0.15076	0.093381	0.038273	0.16427	0.10337	-4.2375	-3.7562	-4.9604	-4.425	-4.0458	-4.7958	-4.0354	-4.6562	-4.6438	-3.9667	-4.8708	-4.4104	-4.0687	-4.9521	-4.0083	-4.6104	403.107	405.544	234.125	480.308	450.155	425.085	483.357	497.419	322.271	402.749	471.778	207.242	262.437	412.392	478.039	381.639	0.0013713	0.0006239	0.0001667	1288.3	7.9868e-06	5.5886e-06	1288.8	354.8	1.2816e-05	1.4523e-06	405.78	133.87	116.09	38.832	6.0163e-06	48.937	0.00055743	0.00053395	0.00014823	1315.4	5.9219e-06	5.7699e-06	1314.7	363.18	5.859e-06	5.7911e-06	417.09	136.5	118.52	40.257	5.8431e-06	50.636	351.065	247.485	262.722	172.674	300.266	356.141	172.255	176.992	290.457	407.030	176.880	180.816	181.387	186.362	316.422	185.178	-8191	255	
28940.350	1	1	0	0	0.18755	0.19454	0.057646	0.21993	0.15855	0.21608	0.3134	0.17379	0.087264	0.16793	0.13959	0.15165	0.19648	0.18366	0.12594	0.068451	-4.2812	-3.9437	-4.6896	-4.5708	-4.0833	-4.7688	-4.1958	-4.5042	-4.7375	-3.9042	-4.7979	-4.65	-3.8292	-4.8646	-3.9833	-4.3729	198.167	390.758	173.228	413.521	219.616	513.454	486.567	430.838	161.500	408.751	495.553	322.178	468.908	332.419	288.609	317.316	0.0014726	0.00062139	0.00016125	1288.8	8.1268e-06	3.9279e-06	1293.7	356.77	9.2904e-06	8.5443e-06	405.77	133.74	115.48	38.89	7.5372e-06	48.711	0.00056245	0.00053492	0.00015	1313.7	5.898e-06	5.7221e-06	1315.8	363.53	5.7903e-06	5.8549e-06	416.39	136.4	118.25	40.242	5.8309e-06	50.511	342.710	263.821	256.280	172.615	317.800	313.006	172.255	176.787	324.888	294.560	176.382	180.639	181.250	186.370	274.112	185.367	-8191	255	
28940.471	1	1	0	0	0.1669	0.13254	0.15815	0.043292	0.19067	0.073519	0.18677	0.050823	0.039594	0.036561	0.28026	0.16095	0.22955	0.12784	0.077072	0.15734	-4.5042	-3.9021	-4.6167	-4.6875	-3.8458	-4.5979	-4.3292	-4.3021	-4.7688	-3.8917	-4.6375	-4.5729	-3.8979	-4.8604	-4.0021	-4.0458	277.216	203.432	248.380	462.363	295.354	438.208	496.486	204.503	165.896	363.405	493.846	272.013	402.239	279.595	299.128	489.777	0.0013705	0.00041265	0.00010975	1288.3	5.4939e-06	5.7369e-06	1284.7	354.53	1.0598e-05	3.0699e-06	407.94	133.95	115.93	38.905	5.9317e-06	49.001	0.00054426	0.00053768	0.00014495	1311.4	5.7774e-06	5.7128e-06	1312.1	362.86	5.7674e-06	5.7967e-06	416.75	136.52	118.4	40.223	5.7893e-06	50.603	345.505	253.935	287.369	172.534	330.785	311.931	172.471	177.259	309.149	356.523	176.670	181.031	181.554	186.334	322.934	185.479	-8191	255	
28940.543	1	1	0	0	0.010584	0.083192	0.1791	0.20239	0.086482	0.063834	0.18862	0.19252	0.039554	0.17285	0.3051	0.25554	0.27415	0.14064	0.17682	0.12341	-4.4563	-3.9396	-4.3271	-4.7104	-3.8354	-4.95	-4.3646	-4.3417	-4.7937	-3.925	-4.4	-4.6875	-4.0292	-4.7688	-4.3125	-4.0875	444.566	178.124	198.247	464.301	410.892	434.090	463.344	444.884	431.641	202.006	440.160	486.638	478.610	474.360	424.804	435.261	0.0012615	0.00045646	0.00012707	1286.6	8.4256e-06	8.8742e-07	1286.3	355.38	3.1662e-06	4.5004e-06	407.39	134.31	115.74	38.89	6.2979e-06	48.847	0.00055539	0.00053565	0.0001463	1313.6	5.827e-06	5.8838e-06	1314.3	362.94	5.895e-06	5.9287e-06	417.8	136.84	118.72	40.316	6.1039e-06	50.68	349.328	198.687	240.409	172.633	291.262	347.301	172.377	177.178	334.389	352.023	176.748	180.979	181.554	186.462	307.813	185.276	-8191	255	
28940.639	1	1	0	0	0.084161	0.039591	0.087521	0.057336	0.089558	0.10385	0.14314	0.2535	0.10231	0.17518	0.051574	0.1647	0.069196	0.01727	0.16217	0.15592	-4.5542	-3.9813	-4.0875	-4.85	-3.7958	-4.6604	-4.5729	-4.0854	-4.825	-4.0437	-4.2896	-4.9563	-4.0146	-4.7417	-4.6396	-3.975	503.778	163.705	195.720	195.820	266.091	236.964	442.488	442.507	364.030	503.067	174.509	449.432	455.118	462.574	407.727	398.964	0.0013664	0.00073578	7.4984e-05	1295.2	6.3092e-06	4.7577e-06	1302.7	359.14	1.253e-05	7.5936e-06	410.66	134.96	117.29	39.562	8.0631e-06	49.285	0.00057718	0.00056153	0.00015838	1324.3	6.181e-06	6.1785e-06	1327.9	367.05	6.1656e-06	6.296e-06	421.54	137.71	119.84	40.789	6.1787e-06	51.061	351.335	257.686	233.891	172.690	276.564	331.246	172.302	176.966	327.010	308.788	176.369	180.954	181.535	186.252	327.653	185.236	-8191	255	
28940.734	1	1	0	0	0.044092	0.050809	0.11653	0.29886	0.21966	0.097526	0.14729	0.22896	0.13657	0.10863	0.23818	0.3319	0.10927	0.33273	0.15572	0.10504	-4.6604	-4.0396	-4.0833	-5.0417	-3.825	-4.5125	-4.6833	-4.1188	-4.8875	-4.2771	-4.0604	-4.9271	-3.8708	-4.5083	-4.6271	-4.0375	403.948	344.553	196.590	476.844	375.444	364.535	462.445	230.812	283.150	332.670	512.474	514.889	492.189	490.940	372.654	271.803	0.001256	0.00050491	0.00017955	1313.1	8.741e-06	7.2054e-06	1315.2	360.86	8.3545e-06	3.5891e-06	413.35	135.68	117.18	39.79	3.6454e-06	49.485	0.0005879	0.00055627	0.00015578	1339.6	6.0962e-06	6.1007e-06	1341.3	369.38	6.0424e-06	6.112e-06	424.05	138.62	120.37	41.06	5.9941e-06	51.402	346.972	242.114	250.350	172.562	282.483	329.871	172.220	176.874	303.874	290.924	176.425	180.866	181.670	186.381	297.155	185.104	-8191	255	
28940.854	1	1	0	0	0.15929	0.19515	0.048346	0.18837	0.15719	0.050629	0.3557	0.17977	0.24369	0.40522	0.11295	0.2468	0.10986	0.29138	0.10429	0.13001	-4.5396	-4.2083	-4.1271	-5.0333	-3.8521	-4.2688	-4.8479	-3.8833	-4.6667	-4.4208	-4	-4.8854	-4.1229	-4.4583	-4.7229	-4.0083	333.265	159.680	477.037	481.671	444.972	380.884	429.499	448.417	201.828	218.932	488.205	484.609	448.355	178.146	359.653	386.302	0.0013585	0.00057485	7.2139e-05	1317.7	4.852e-06	5.4106e-06	1324.4	363.19	4.5511e-06	4.3089e-06	415.14	136.65	118.69	39.991	6.3278e-06	49.745	0.00056667	0.00054362	0.0001526	1343.8	5.871e-06	5.9269e-06	1346.8	371.03	5.7635e-06	5.6934e-06	425.5	139.61	121.38	41.452	5.6982e-06	51.718	351.615	222.109	206.956	172.770	273.924	364.303	172.172	177.023	300.574	329.218	176.525	180.809	181.451	186.211	308.798	185.064	-8191	255	
28940.949	1	1	0	0	0.25853	0.27761	0.10881	0.26815	0.2442	0.14841	0.16091	0.14473	0.29686	0.21557	0.27443	0.094762	0.22659	0.30174	0.21823	0.14876	-4.3375	-4.3396	-3.8917	-5.1021	-4.1687	-4.1604	-5.0271	-3.9417	-4.4479	-4.35	-4.0021	-4.8708	-4.1937	-4.2292	-4.7896	-4.1896	268.606	336.872	459.073	497.111	493.737	289.900	205.511	375.348	481.480	478.351	403.547	278.900	466.592	387.536	322.869	515.673	0.0014471	0.00090082	8.1995e-05	1321.6	7.7309e-06	3.0289e-06	1325.5	364.81	7.8799e-06	3.8878e-06	415.43	136.55	118.81	40.105	1.0429e-05	50.173	0.00055202	0.00052766	0.00014713	1349.9	5.9005e-06	5.8193e-06	1351.4	371.87	5.7766e-06	5.8719e-06	426.1	139.75	121.71	41.525	5.9254e-06	51.848	344.627	250.887	306.044	172.640	303.908	305.764	172.249	177.078	316.931	346.325	176.649	180.708	181.359	185.948	306.047	185.343	-8191	255	
28941.047	1	1	0	0	0.31854	0.11834	0.17605	0.22774	0.083509	0.36057	0.24566	0.23613	0.10828	0.18708	0.034542	0.081726	0.17327	0.03064	0.1303	0.05764	-4.2812	-4.5333	-4.0604	-4.9479	-4.1854	-4.1375	-5.1417	-4.1312	-4.4021	-4.5604	-4.025	-4.8625	-4.3208	-4.1813	-4.8208	-4.0417	292.544	224.062	286.465	173.402	230.139	313.080	474.341	495.785	343.657	217.951	493.129	500.625	483.339	371.809	495.052	225.263	0.00145	0.00048452	0.00011756	1326.5	8.1767e-06	5.7554e-06	1330.7	364.79	1.062e-05	3.1361e-06	416.05	136.93	118.67	40.177	4.1952e-06	49.884	0.00057664	0.0005389	0.00015094	1355.1	6.0281e-06	6.0099e-06	1358.2	372.11	5.9859e-06	6.001e-06	426.96	140	121.69	41.586	5.9505e-06	51.855	348.331	290.683	256.533	172.605	283.387	323.388	172.387	176.886	318.891	290.597	176.451	180.838	181.253	186.228	309.548	185.334	-8191	255	
28941.143	1	1	0	0	0.17015	0.15391	0.18917	0.060032	0.23022	0.11196	0.1581	0.15187	0.42109	0.09662	0.20664	0.36221	0.12259	0.35887	0.21134	0.14912	-4.2146	-4.7188	-3.8271	-4.8688	-4.2729	-4.0062	-5	-4.2042	-4.3479	-4.6229	-4.0083	-4.6188	-4.2708	-4.0396	-4.8729	-4.0417	166.584	463.124	321.898	501.371	432.408	445.857	495.659	476.847	326.738	339.008	449.180	432.229	418.480	501.950	300.878	232.747	0.0014226	0.00055173	0.00013402	1327.2	5.2908e-06	4.0514e-06	1333.1	364.32	1.2958e-05	5.4365e-06	415.38	137.51	118.64	40.313	7.2037e-06	50.321	0.00057765	0.00054455	0.00015337	1355	6.0656e-06	6.0135e-06	1358.4	372.49	6.0499e-06	5.8515e-06	426.66	140.27	121.94	41.643	6.0665e-06	52.007	346.759	258.816	275.945	172.603	297.009	321.217	172.428	177.148	316.037	334.383	176.754	180.845	181.393	186.145	288.875	185.288	-8191	255	
28941.238	1	1	0	0	0.13359	0.17036	0.34201	0.26039	0.20356	0.085794	0.12815	0.1387	0.23639	0.13192	0.13662	0.18177	0.18892	0.10776	0.1217	0.22192	-3.9479	-4.5771	-3.8271	-4.6312	-4.4292	-3.9208	-5.0271	-4.3104	-4.0646	-4.7438	-3.9396	-4.4646	-4.5854	-3.9333	-4.8313	-4.0542	283.273	386.793	366.470	403.184	314.980	469.328	432.206	445.813	163.948	360.165	164.038	413.522	174.367	365.560	464.187	422.764	0.0013598	0.00056049	0.00010621	1326.9	4.6107e-06	2.5395e-06	1333.4	363.5	9.8697e-06	4.7594e-06	416.13	137.11	118.95	40.33	7.5457e-06	49.939	0.00057784	0.00054399	0.000152	1357.9	6.0628e-06	6.0371e-06	1362	372.76	6.0581e-06	6.0521e-06	426.77	140.13	122	41.598	6.0256e-06	51.843	345.751	265.158	301.981	172.496	299.835	311.436	172.205	177.101	299.061	335.876	176.410	180.360	181.387	185.881	287.620	185.108	-8191	255	
28941.334	1	1	0	0	0.069412	0.080522	0.11581	0.095487	0.22753	0.11326	0.12943	0.055367	0.25673	0.050012	0.023947	0.15279	0.16817	0.15312	0.11039	0.095292	-3.6771	-4.8542	-3.7812	-4.6625	-4.5229	-3.7833	-4.9917	-4.3875	-4.0563	-4.9187	-3.9938	-4.5333	-4.7958	-3.9854	-4.5042	-4.3917	301.990	367.869	407.365	422.815	443.840	252.021	439.384	506.756	411.725	210.519	451.630	279.460	368.968	426.002	334.536	344.589	0.001416	0.00064479	0.00016509	1329	4.2639e-06	4.454e-06	1332.4	363.57	8.1625e-06	5.8248e-06	415.63	137.41	119.42	40.168	7.3042e-06	50.092	0.00059122	0.00055846	0.00015693	1358.5	6.0803e-06	6.1758e-06	1360.9	372.11	6.1179e-06	6.148e-06	427.04	140.21	122.05	41.523	6.1102e-06	51.925	345.048	267.411	260.659	172.558	280.143	315.256	172.165	177.255	296.968	303.936	176.307	180.837	181.714	186.175	286.831	185.238	-8191	255	
28941.455	1	1	0	0	0.12908	0.14308	0.1191	0.27959	0.28955	0.091373	0.12275	0.055696	0.040495	0.1688	0.11246	0.092058	0.29462	0.31339	0.13558	0.12032	-3.6354	-4.9812	-3.8312	-4.5854	-4.6958	-3.775	-4.85	-4.4896	-3.7875	-4.6937	-4.1125	-4.2104	-4.85	-3.7021	-4.5771	-4.5229	236.179	164.654	408.327	509.055	241.743	160.863	167.252	448.639	265.891	163.431	462.777	217.194	507.017	469.463	171.254	265.591	0.0014438	0.00082776	0.00019935	1323.3	1.2039e-05	7.0128e-06	1337.4	364.28	1.0277e-05	4.1917e-06	415.78	136.84	119.04	40.178	6.5839e-06	50.028	0.00059145	0.00055422	0.00015584	1357.9	6.1139e-06	6.1972e-06	1361.2	372.36	6.2097e-06	6.134e-06	426.38	140.19	121.93	41.589	6.1745e-06	51.925	345.025	245.784	240.874	172.545	308.762	336.717	172.191	177.243	323.711	314.587	176.260	180.731	181.617	186.173	294.919	185.158	-8191	255	
28941.551	1	1	0	0	0.1569	0.19624	0.17666	0.2216	0.096693	0.28467	0.34333	0.31822	0.27229	0.12406	0.25846	0.063534	0.16393	0.10016	0.22983	0.13676	-3.625	-4.9604	-4.0646	-4.2542	-4.6771	-3.7687	-4.8125	-4.6146	-3.9	-4.7875	-4.2438	-4.1937	-4.9208	-4.025	-4.4604	-4.7146	270.933	220.353	492.400	480.181	358.253	275.159	374.160	497.194	419.337	382.806	407.092	181.939	174.915	455.207	190.553	498.177	0.0013592	0.00045472	7.4254e-05	1333.8	2.5386e-06	4.0552e-06	1332.1	366.16	7.6241e-06	2.7707e-06	414.67	137.35	119.39	40.21	7.2916e-06	49.916	0.00059444	0.00056026	0.00015783	1359.5	6.1624e-06	6.1689e-06	1360.7	373.51	6.1827e-06	6.0131e-06	426.59	140.41	122.18	41.613	6.1166e-06	51.909	343.528	261.678	227.058	172.312	359.867	318.969	172.297	177.066	285.520	284.372	176.217	180.918	181.370	186.377	311.476	185.484	-8191	255	
28941.646	1	1	0	0	0.26799	0.052279	0.06359	0.26122	0.085325	0.16051	0.33008	0.34092	0.18821	0.26114	0.13892	0.2562	0.075632	0.30047	0.11422	0.17813	-3.5979	-4.8146	-4.1687	-4.1292	-4.8104	-3.7875	-4.5417	-4.9313	-3.8542	-4.8229	-4.4896	-4.1542	-4.8792	-4.0604	-4.1979	-4.8229	208.965	192.324	185.086	176.151	206.258	401.101	475.597	475.801	509.207	431.977	402.464	408.155	464.868	396.043	257.245	519.107	0.0013422	0.00050295	0.00015146	1331.1	5.8959e-06	7.5846e-06	1336.5	362.95	1.0111e-05	1.7448e-06	415.09	137.29	119.37	40.252	5.007e-06	50.118	0.00058795	0.00055307	0.0001549	1360.7	6.0827e-06	6.0547e-06	1362.5	372.48	6.1832e-06	6.1241e-06	426.47	140.36	122.14	41.661	6.123e-06	51.913	347.942	251.243	257.661	172.591	296.287	304.900	172.146	177.252	334.313	290.190	176.466	180.966	181.392	185.915	309.626	185.177	-8191	255	
28941.742	1	1	0	0	0.071342	0.097612	0.41656	0.14682	0.12877	0.15574	0.34897	0.14361	0.10646	0.087232	0.028454	0.11342	0.1205	0.43129	0.09211	0.16082	-3.5187	-4.6646	-4.4083	-4.0687	-4.6396	-3.9458	-4.45	-4.9167	-3.8667	-4.5896	-4.5646	-3.9604	-4.8313	-4.1417	-4.1667	-4.9104	300.878	493.850	380.455	498.274	247.853	374.807	433.483	372.176	165.667	167.378	343.620	367.312	420.568	486.469	183.414	188.181	0.001388	0.00043076	0.00015911	1333.5	8.546e-06	2.5089e-06	1333.1	363.25	8.7907e-06	6.624e-06	415.95	137.1	118.69	40.315	1.6145e-06	50.068	0.00058321	0.00055933	0.00015609	1359.6	6.1653e-06	6.2677e-06	1362.2	372.52	6.3269e-06	6.2626e-06	426.51	140.23	121.98	41.6	6.3556e-06	51.959	343.762	267.435	296.296	172.527	325.600	333.784	172.219	177.295	280.067	319.219	176.256	180.750	181.395	186.257	224.204	184.823	-8191	255	
28941.838	1	1	0	0	0.21717	0.13739	0.18017	0.17707	0.21055	0.12665	0.026157	0.19988	0.16411	0.15984	0.082724	0.067957	0.12295	0.11152	0.043757	0.17506	-3.5687	-4.4938	-4.4688	-4.0375	-4.7583	-4.225	-4.2937	-4.9396	-4.0042	-4.5229	-4.7	-3.9333	-4.9208	-4.2	-3.8688	-4.7125	373.265	348.278	419.638	506.409	494.987	273.454	289.623	161.138	434.082	435.973	397.126	186.382	480.552	477.668	467.007	183.973	0.0013257	0.00041621	0.00014418	1333.9	1.0146e-05	6.5694e-06	1336.8	364.62	9.4259e-06	5.9519e-06	415.94	136.68	118.88	39.945	7.6653e-06	49.919	0.0006126	0.00057899	0.00016121	1360	6.43e-06	6.4377e-06	1362.4	372.38	6.5046e-06	6.5112e-06	426.86	139.86	122.01	41.542	6.5485e-06	51.951	343.864	259.654	264.505	172.620	299.170	350.066	172.448	177.070	307.601	304.331	176.397	180.831	181.295	186.176	288.261	185.196	-8191	255	
28941.934	1	1	0	0	0.21067	0.1707	0.27866	0.41411	0.20618	0.0277	0.19652	0.13404	0.10781	0.10875	0.098427	0.056051	0.24775	0.049751	0.24148	0.093355	-3.6875	-4.4271	-4.6042	-4.0687	-4.725	-4.1896	-4.275	-4.9854	-3.7292	-4.2583	-4.8063	-3.9271	-4.6062	-4.4979	-4.0312	-4.8417	216.625	172.318	163.605	484.477	409.030	193.095	460.446	189.025	211.019	475.083	351.772	431.466	476.213	364.718	242.090	200.511	0.0013944	0.00065927	0.00011942	1332.8	5.562e-06	2.2057e-06	1338.5	363.25	5.2815e-06	2.8494e-06	414.16	137.43	118.47	39.996	5.0153e-06	49.867	0.00061865	0.00059011	0.00016423	1359.1	6.4101e-06	6.4417e-06	1360.5	371.85	6.5259e-06	6.3244e-06	425.59	140.07	121.68	41.469	6.2967e-06	51.895	347.352	245.502	255.745	172.491	297.397	393.010	172.185	177.037	313.988	296.201	176.463	180.859	181.435	186.376	370.203	185.165	-8191	255	
28942.029	1	1	0	0	0.13043	0.135	0.18089	0.35343	0.20932	0.10695	0.34873	0.31596	0.055814	0.069112	0.022204	0.09209	0.24409	0.24905	0.060356	0.26281	-3.8104	-4.2646	-4.7083	-3.9833	-4.6375	-4.4083	-4.1146	-4.8896	-4.1646	-4.0854	-4.9437	-4.0146	-4.7229	-4.7333	-3.8646	-4.8958	252.679	321.482	180.770	464.145	515.059	460.251	462.356	461.408	232.243	480.688	254.399	483.313	198.938	512.315	403.413	222.356	0.0013233	0.00042393	6.6453e-05	1328.5	4.4807e-06	3.4752e-06	1337.4	364.99	1.0592e-05	8.25e-06	416.83	136.98	118.91	40.217	2.5726e-06	50.122	0.00059993	0.00056699	0.00015855	1356.6	6.2343e-06	6.1354e-06	1361.4	372.43	6.2588e-06	6.2238e-06	426.52	139.96	121.79	41.577	6.2833e-06	51.959	345.818	284.947	229.304	172.485	278.550	317.537	172.092	177.232	317.016	281.676	176.632	180.864	181.658	186.391	320.419	185.415	-8191	255	
28942.150	1	1	0	0	0.1647	0.23756	0.2087	0.15301	0.095899	0.14855	0.093875	0.26987	0.17528	0.1037	0.24515	0.15991	0.33179	0.2531	0.21048	0.13502	-3.7687	-4.2396	-4.7729	-4.0167	-4.4	-4.5292	-4.1792	-4.825	-4.0771	-4.0188	-4.8583	-4.1208	-4.6271	-4.7979	-3.7521	-4.7958	360.542	235.831	344.895	483.699	289.936	221.326	226.218	467.021	230.780	223.655	196.742	476.778	179.816	454.607	512.574	174.258	0.0013821	0.00055392	0.00011558	1332.9	6.2244e-06	4.6248e-06	1337.9	364.33	1.0989e-05	3.8405e-06	415.26	137.13	118.95	40.043	6.9102e-06	49.787	0.00060192	0.00057612	0.00015879	1360.8	6.3249e-06	6.2938e-06	1364.3	372.75	6.3762e-06	6.3596e-06	426.34	140.3	121.74	41.556	6.3358e-06	51.851	345.625	237.674	253.491	172.603	274.090	317.764	172.317	177.007	324.015	281.776	176.535	180.609	181.394	186.187	319.328	185.043	-8191	255	
28942.246	1	1	0	0	0.25231	0.04182	0.13069	0.2917	0.21969	0.20597	0.25655	0.35829	0.19217	0.070965	0.25443	0.064456	0.12313	0.11361	0.2149	0.19456	-3.9604	-3.9021	-4.775	-4.1542	-4.3125	-4.6667	-4.0771	-4.95	-4.2896	-3.9146	-4.8604	-4.1354	-4.35	-4.7875	-3.5938	-4.7375	435.135	510.437	479.690	455.255	426.427	223.977	497.289	504.041	470.551	165.734	488.244	423.192	174.976	205.575	291.029	490.693	0.0014264	0.00023457	9.6483e-05	1328.3	1.0768e-05	7.4189e-06	1339.1	364.42	1.0369e-05	3.8429e-06	415.93	136.76	119.56	39.993	5.3926e-06	50.182	0.00060887	0.00059061	0.00016275	1359.8	6.4698e-06	6.4524e-06	1362.5	372.29	6.3785e-06	6.3322e-06	426.54	140.12	121.98	41.475	6.3164e-06	51.897	343.485	277.173	296.843	172.560	286.396	335.928	172.006	176.875	291.159	309.323	176.554	180.872	181.299	186.138	306.196	185.157	-8191	255	
28942.344	1	1	0	0	0.23631	0.13978	0.076409	0.01037	0.075735	0.068171	0.20071	0.16868	0.082255	0.022496	0.29277	0.29116	0.23786	0.21592	0.16155	0.089933	-4.3083	-3.9146	-4.8396	-4.1125	-4.1729	-4.7937	-4.0813	-4.7438	-4.3792	-3.8229	-4.9563	-4.1958	-4.0896	-4.8938	-3.8875	-4.5958	236.924	464.302	243.079	323.211	474.776	494.893	498.304	420.483	160.602	323.653	469.646	504.845	426.948	435.898	263.225	440.161	0.0013346	0.00059119	6.5417e-05	1329	8.6594e-06	5.3917e-06	1335	364.77	5.3893e-06	1.5202e-06	416.14	137.1	119.17	40.05	6.8299e-06	49.898	0.00060001	0.00058792	0.00015839	1359.8	6.341e-06	6.3286e-06	1362	372.56	6.3473e-06	6.3275e-06	427.01	139.94	121.75	41.519	6.4478e-06	51.93	346.127	290.115	285.414	172.735	292.236	280.333	172.035	176.943	270.021	228.334	176.503	180.694	181.389	186.414	342.424	185.057	-8191	255	
28942.414	1	1	0	0	0.20854	0.13873	0.099707	0.16172	0.28984	0.13255	0.044784	0.037485	0.094787	0.090229	0.33266	0.24286	0.25295	0.25744	0.16114	0.11835	-4.2521	-3.9167	-4.7583	-4.3479	-4.1438	-4.6521	-4.0104	-4.5729	-4.6917	-3.8146	-4.85	-4.3021	-4.0729	-4.9625	-3.8771	-4.4958	389.731	230.325	355.425	173.858	459.750	457.888	418.093	459.554	301.922	442.142	195.986	476.036	425.037	484.741	171.074	452.121	0.0013522	0.00048562	0.00017324	1329.6	1.0707e-05	3.5534e-06	1333.4	363.51	8.336e-06	6.3703e-06	414.9	136.55	118.29	39.967	4.5678e-06	49.72	0.00060584	0.00059084	0.00016208	1359.5	6.5136e-06	6.4336e-06	1360.6	372.35	6.4642e-06	6.5687e-06	426.61	139.77	121.49	41.362	6.5726e-06	51.695	342.302	293.747	239.395	172.626	301.222	336.722	172.214	176.947	319.196	299.158	176.704	180.857	181.090	186.331	329.827	185.325	-8191	255	
28942.535	1	1	0	0	0.041443	0.10502	0.14969	0.22938	0.14205	0.24797	0.15605	0.10333	0.11845	0.13957	0.1339	0.19778	0.028925	0.2031	0.2532	0.31967	-4.4271	-3.8312	-4.6125	-4.5938	-3.9792	-4.7625	-4.2021	-4.4021	-4.625	-3.8688	-4.5917	-4.5542	-4.0396	-4.9062	-4.0979	-4.2271	306.076	161.340	290.806	516.470	446.600	505.765	470.276	458.975	403.796	319.926	488.463	489.890	165.803	163.313	472.346	407.608	0.0015138	0.00082043	0.00014272	1327.9	8.2211e-06	9.4161e-06	1330.7	362.92	6.2342e-06	1.7274e-06	414.91	136.7	118.5	39.702	8.9127e-06	49.724	0.00061573	0.00059988	0.00016402	1357.3	6.4145e-06	6.4161e-06	1358.7	371.17	6.4457e-06	6.5191e-06	425.49	139.67	121.28	41.301	6.568e-06	51.719	347.950	254.918	263.248	172.530	250.898	327.204	172.164	177.101	314.480	322.129	176.469	180.863	181.428	186.253	304.628	185.201	-8191	255	
28942.631	1	1	0	0	0.19688	0.26249	0.13518	0.008109	0.10084	0.082277	0.23788	0.17188	0.10986	0.11619	0.19998	0.12797	0.032266	0.17381	0.044593	0.143	-4.3521	-3.7021	-4.4104	-4.5354	-3.7542	-4.8833	-4.3729	-4.2875	-4.8417	-3.8812	-4.6208	-4.6687	-3.9146	-5.0208	-4.1687	-4.05	374.462	235.513	448.930	498.630	423.923	393.831	426.264	471.056	394.537	426.568	473.703	462.149	231.585	185.040	274.855	482.703	0.0014093	0.00050968	7.19e-05	1328.6	1.1407e-05	8.2613e-06	1331.7	362.16	1.0759e-05	4.6303e-06	412.06	136.31	117.6	39.83	7.4684e-06	49.677	0.00062598	0.00060514	0.00016942	1357.2	6.6825e-06	6.4877e-06	1358.5	371.53	6.6575e-06	6.7712e-06	425.47	139.47	121.05	41.302	6.8152e-06	51.737	348.442	269.669	278.490	172.558	313.076	294.590	172.179	176.887	259.313	308.306	176.647	181.063	181.447	186.410	305.163	185.201	-8191	255	
28942.729	1	1	0	0	0.14374	0.15031	0.19015	0.26635	0.0996	0.12833	0.14798	0.10872	0.2096	0.28912	0.24318	0.12252	0.20098	0.086809	0.029955	0.12392	-4.4604	-3.8479	-4.3812	-4.8375	-3.9521	-4.7896	-4.3292	-4.2792	-4.7271	-3.7854	-4.3854	-4.8083	-3.9167	-4.8688	-4.2521	-4.1333	432.994	469.678	244.047	439.570	385.375	502.643	393.690	429.980	331.700	388.799	481.312	479.236	452.996	176.216	466.222	175.476	0.0014631	0.00032262	0.00015318	1326	7.8566e-06	8.2092e-06	1328.2	362.02	1.2302e-05	4.5287e-06	413.08	136.24	117.89	39.956	6.0801e-06	49.839	0.00064668	0.00062261	0.00017319	1357.9	6.8609e-06	6.9196e-06	1359.9	370.9	6.8847e-06	7.061e-06	425.42	139.36	121.01	41.368	7.0394e-06	51.728	345.235	237.771	208.442	172.645	253.004	334.692	172.307	176.827	300.511	321.949	176.860	180.767	181.190	186.485	281.496	185.364	-8191	255	
28942.824	1	1	0	0	0.14583	0.21221	0.15975	0.29087	0.28954	0.26084	0.35827	0.013657	0.13757	0.34453	0.14346	0.21428	0.10799	0.23373	0.096301	0.090771	-4.4792	-3.975	-4.3229	-4.8875	-3.7417	-4.6875	-4.6979	-3.9854	-4.8208	-4.1208	-4.4667	-4.8104	-3.8854	-4.6896	-4.4479	-4.1229	448.946	377.882	434.613	500.538	466.744	164.899	450.050	395.118	242.784	190.809	278.955	425.870	509.447	491.665	355.524	377.470	0.0013393	0.0006496	0.00012961	1324.5	1.1482e-05	6.9876e-06	1337.8	362	8.4823e-06	5.3695e-06	413.42	135.95	118.27	39.864	4.6955e-06	49.605	0.00065228	0.00063842	0.00017351	1358	6.8791e-06	6.9139e-06	1359.7	371.31	6.7651e-06	6.8929e-06	424.97	139.2	121.39	41.336	6.9086e-06	51.633	347.072	233.765	287.241	172.596	298.554	364.789	172.239	176.955	320.535	348.806	176.434	181.141	181.341	186.258	311.948	185.299	-8191	255	
28942.943	1	1	0	0	0.15889	0.031053	0.30835	0.17383	0.15023	0.048829	0.30617	0.30619	0.1661	0.17503	0.15024	0.17682	0.22655	0.17339	0.035169	0.13666	-4.6333	-4.1396	-4.1271	-4.9333	-3.9083	-4.4667	-4.7021	-4.0396	-4.7729	-4.1	-4.2375	-5.0563	-4.0729	-4.6146	-4.6042	-3.8438	260.809	484.997	323.759	456.803	274.633	427.843	445.873	433.237	199.306	404.606	459.757	201.369	174.728	457.276	474.679	386.954	0.0013483	0.00064771	9.8976e-05	1331.7	8.9663e-06	5.2828e-06	1330.8	361.92	3.9789e-06	4.4437e-06	414.98	136.56	117.82	39.934	9.3478e-06	49.789	0.00064679	0.00063684	0.00017574	1358.7	6.917e-06	6.9215e-06	1357.3	371.09	6.88e-06	6.9134e-06	425.6	139.62	121.16	41.393	6.9007e-06	51.79	345.840	254.784	250.400	172.374	274.962	299.008	172.303	177.055	306.611	328.455	176.475	180.853	181.438	186.221	324.217	184.930	-8191	255	
28943.016	1	1	0	0	0.22002	0.13875	0.16347	0.07999	0.15821	0.11118	0.10821	0.15275	0.19058	0.11018	0.25072	0.0054589	0.14663	0.20225	0.19452	0.1222	-4.3729	-4.2812	-4.0021	-4.9313	-3.8917	-4.3792	-4.7104	-3.9604	-4.6333	-4.3854	-4.1438	-4.9313	-4.0875	-4.3812	-4.7271	-3.9938	431.706	395.307	173.146	232.394	234.987	432.142	413.580	507.282	247.001	501.935	496.293	349.346	395.606	454.695	482.709	500.840	0.0013715	0.00029861	0.00021755	1328.8	3.6661e-06	4.1516e-06	1335.3	361.96	1.2972e-05	7.8658e-06	415.14	136.85	118.37	39.874	6.5816e-06	49.584	0.00064731	0.00062329	0.00017587	1359.6	6.8256e-06	6.9026e-06	1361.5	370.92	6.8469e-06	6.7834e-06	425.15	139.68	121.19	41.325	6.7306e-06	51.689	344.125	257.799	250.919	172.600	325.664	352.262	172.391	177.142	320.764	327.257	176.366	180.814	181.434	186.293	262.701	185.460	-8191	255	
28943.135	1	1	0	0	0.055317	0.18427	0.067221	0.33123	0.30846	0.11823	0.42141	0.36706	0.052468	0.24822	0.15833	0.18158	0.10968	0.12249	0.16185	0.22764	-4.2458	-4.3104	-3.9479	-5.1146	-3.9333	-4.2063	-5.0583	-4.0188	-4.5021	-4.5521	-4.1646	-5.0042	-4.2125	-4.25	-4.9021	-3.9771	516.601	483.300	320.198	475.627	249.491	419.266	460.655	504.238	198.688	216.208	381.792	203.067	211.041	261.684	477.968	195.239	0.0013721	0.00055211	0.00013908	1327.5	5.9851e-06	1.0981e-05	1324	362.21	7.1782e-06	9.0272e-06	413.4	136.23	118.15	39.917	1.3966e-06	49.706	0.00063452	0.00061012	0.00016891	1357.8	6.636e-06	6.6905e-06	1357.7	370.86	6.6343e-06	6.7196e-06	424.26	139.2	121.18	41.251	6.5881e-06	51.652	347.226	266.901	258.206	172.654	309.545	317.709	172.233	177.140	268.282	331.010	176.426	180.716	181.516	186.441	392.133	184.957	-8191	255	
28943.230	1	1	0	0	0.17442	0.045375	0.083469	0.14634	0.11584	0.086877	0.17389	0.25076	0.038155	0.076363	0.19969	0.25986	0.2765	0.18436	0.080488	0.23009	-4.4229	-4.5208	-3.9958	-4.9104	-4.1521	-4.1	-5.0958	-3.9688	-4.4313	-4.7604	-4.0437	-4.9792	-4.4771	-4.3375	-4.7396	-4.0375	237.085	460.416	204.658	469.160	443.220	330.997	472.789	181.624	174.885	383.647	489.974	418.313	472.943	429.694	425.653	433.738	0.0012821	0.0003872	0.00013618	1327.7	7.019e-06	5.3447e-06	1327.2	361.45	1.5276e-05	2.3804e-06	411.85	135.61	117.53	39.71	7.025e-06	49.5	0.00063555	0.00060137	0.0001699	1356.4	6.6454e-06	6.6247e-06	1354.4	370.15	6.5995e-06	6.4993e-06	423.46	138.85	120.7	41.181	6.6068e-06	51.497	340.791	243.787	277.889	172.616	301.091	337.501	172.232	177.180	304.372	311.454	176.485	180.798	181.337	186.294	311.580	185.226	-8191	255	
28943.326	1	1	0	0	0.096423	0.19699	0.18349	0.23503	0.10776	0.18864	0.14457	0.095604	0.15395	0.39141	0.12097	0.22427	0.30291	0.17311	0.19996	0.23077	-4.0896	-4.6146	-3.8104	-5.0167	-4.3063	-3.9479	-5.0833	-4.2229	-4.4104	-4.7937	-3.8271	-4.825	-4.5354	-4.1021	-4.9542	-4.0771	285.843	381.941	464.821	502.841	465.997	303.044	499.654	473.329	238.663	187.980	382.422	488.874	201.839	313.136	309.889	411.331	0.0013943	0.0001355	0.0001958	1325.2	6.7005e-06	4.3497e-06	1329.3	361.19	3.6218e-06	6.4295e-06	413.9	135.8	117.84	39.429	9.3055e-06	49.485	0.00062615	0.00060801	0.00016867	1353.6	6.6089e-06	6.657e-06	1354.8	369.56	6.683e-06	6.7315e-06	423.5	138.98	120.78	41.062	6.73e-06	51.442	343.132	182.438	235.232	172.657	298.001	366.057	172.165	177.390	236.919	312.136	176.493	180.806	181.851	186.164	343.353	185.187	-8191	255	
28943.424	1	1	0	0	0.063002	0.20286	0.26726	0.036551	0.14296	0.066304	0.25108	0.22304	0.2491	0.21417	0.17775	0.24085	0.25856	0.030741	0.1099	0.23394	-4.0979	-4.8417	-3.8708	-4.7646	-4.4333	-4.0604	-4.9437	-4.2958	-4.1083	-4.7688	-3.9979	-4.5625	-4.7063	-3.9271	-4.7958	-4.2708	191.878	182.596	513.208	272.833	507.729	259.767	456.145	379.573	356.505	214.952	400.557	494.746	476.847	269.513	224.988	485.687	0.0013384	0.0002583	0.00012581	1322.2	5.8663e-06	1.0534e-05	1326.6	361.15	1.8153e-05	6.2486e-06	412.21	135.84	117.62	39.606	7.5589e-06	49.716	0.00064376	0.00061689	0.00017556	1352.8	6.767e-06	6.8315e-06	1353.8	369.97	6.7302e-06	6.7162e-06	423.69	138.98	120.84	41.158	6.6284e-06	51.532	347.788	243.126	236.683	172.454	335.986	339.372	172.299	177.111	300.732	261.730	176.550	180.651	181.495	186.432	310.383	185.193	-8191	255	
28943.545	1	1	0	0	0.14554	0.11921	0.10104	0.23214	0.17858	0.022344	0.15944	0.22849	0.25124	0.098721	0.13761	0.15818	0.012793	0.19212	0.095194	0.22279	-3.7771	-4.8646	-3.9396	-4.5125	-4.5521	-3.95	-5.025	-4.4625	-4.1312	-4.8875	-4.0917	-4.6354	-4.9125	-4.0583	-4.6583	-4.4021	352.583	242.697	227.778	468.352	272.213	263.130	489.725	451.934	280.959	481.319	488.231	517.251	279.923	242.330	324.453	477.740	0.0013102	0.00027217	0.00011452	1325.9	9.2378e-06	7.0601e-06	1325.2	361.93	1.3731e-05	3.5613e-06	412.55	136.22	117.25	39.72	2.3982e-06	49.634	0.00063038	0.00060992	0.00016983	1353.9	6.6267e-06	6.7216e-06	1354.8	370.22	6.6601e-06	6.6788e-06	423.88	139.05	120.68	41.231	6.7084e-06	51.6	349.337	238.264	248.856	172.564	314.178	280.646	172.167	177.175	306.790	308.543	176.529	180.907	181.690	186.107	245.414	185.335	-8191	255	
28943.639	1	1	0	0	0.05388	0.10698	0.15262	0.30904	0.052714	0.08743	0.37019	0.076445	0.1117	0.18747	0.11805	0.17494	0.07946	0.034942	0.082808	0.090699	-3.8604	-4.9042	-4	-4.5125	-4.6542	-3.7875	-4.825	-4.7229	-4.0771	-4.8521	-4.1021	-4.4479	-4.7438	-3.9729	-4.4542	-4.4979	292.874	354.012	472.733	494.130	440.694	288.387	464.267	253.221	410.707	247.617	491.300	199.742	402.569	267.953	361.207	405.612	0.0013961	0.00046317	0.00016989	1323.4	5.8384e-06	8.1374e-06	1326	361.27	7.8255e-06	1.8544e-06	412.7	135.81	117.87	39.549	3.319e-06	49.71	0.00063283	0.0006055	0.00016954	1352.4	6.6756e-06	6.6123e-06	1355	369.94	6.6734e-06	6.663e-06	423.57	139.02	120.97	41.187	6.6682e-06	51.572	350.473	244.727	276.729	172.607	305.705	299.339	172.361	177.017	317.592	328.406	176.409	180.787	181.671	186.134	300.366	185.274	-8191	255	
28943.713	1	1	0	0	0.016243	0.051239	0.17027	0.19198	0.090106	0.17483	0.22754	0.13324	0.20754	0.17571	0.086592	0.20313	0.18424	0.19613	0.01682	0.10461	-3.6604	-4.8	-3.9146	-4.4	-4.7979	-3.9604	-4.8125	-4.775	-3.8417	-4.75	-4.4354	-4.1917	-4.9104	-4.0188	-4.5521	-4.7771	322.961	475.117	373.315	473.586	170.824	289.798	516.017	469.554	354.491	391.967	442.392	451.064	433.728	459.803	314.052	214.225	0.0014955	0.00062683	6.8265e-05	1329.9	8.3696e-06	3.1002e-06	1334.1	361.39	1.357e-05	3.8668e-06	413.88	136.62	117.55	39.839	8.3913e-06	49.694	0.00064322	0.0006044	0.0001705	1356.6	6.7164e-06	6.7455e-06	1357.9	370.55	6.8086e-06	6.6566e-06	424.87	139.26	121.01	41.199	6.7293e-06	51.688	347.010	231.954	219.467	172.643	284.786	293.936	172.041	177.050	316.670	283.161	176.492	180.774	181.331	186.056	305.637	185.470	-8191	255	
28943.830	1	1	0	0	0.29128	0.054461	0.25302	0.13792	0.12579	0.22106	0.3569	0.24402	0.031259	0.2643	0.22373	0.25924	0.12555	0.13893	0.084736	0.21738	-3.6333	-4.725	-4.3167	-4.2125	-4.8375	-3.9896	-4.7854	-4.9771	-3.7646	-4.9167	-4.4708	-4.1458	-4.975	-4.0896	-4.3917	-4.8521	284.169	352.039	252.197	486.873	292.451	336.698	477.999	427.094	293.005	518.530	168.335	465.986	457.437	201.242	427.642	437.889	0.0012934	0.00081251	0.00010666	1327.9	2.6661e-06	6.4227e-06	1332	362.97	7.957e-06	4.442e-06	413.96	136.57	118.38	39.9	6.4133e-06	49.943	0.00063661	0.00061066	0.00016723	1355.7	6.6082e-06	6.632e-06	1356.4	370.84	6.6751e-06	6.6053e-06	425.51	139.65	121.4	41.322	6.7586e-06	51.763	351.105	237.984	271.418	172.525	341.435	350.365	172.116	177.408	308.501	313.073	176.505	180.748	181.369	186.282	317.229	185.526	-8191	255	
28943.928	1	1	0	0	0.20844	0.034579	0.30138	0.14563	0.072225	0.17604	0.18293	0.085905	0.083418	0.068291	0.34824	0.12052	0.1819	0.15287	0.14055	0.11016	-3.6917	-4.6792	-4.5604	-4.1396	-4.8396	-4.0583	-4.5563	-4.9	-3.8771	-4.5667	-4.7625	-3.8917	-5.0479	-4.3125	-4.1937	-4.8958	510.112	423.246	351.408	482.783	485.763	347.931	438.771	494.769	265.393	270.909	196.894	415.691	337.024	369.192	449.796	478.555	0.0012723	0.00046295	0.00015927	1326.1	4.917e-06	4.3301e-06	1331.1	363.55	1.0549e-05	5.5831e-06	416.45	137.79	118.75	40.061	7.4166e-06	50.354	0.00063736	0.00061727	0.00017095	1358.8	6.7189e-06	6.8267e-06	1361.7	372.01	6.8186e-06	6.833e-06	427.09	140.43	121.94	41.594	6.8694e-06	52.115	347.500	242.555	222.339	172.545	288.002	345.634	172.235	177.073	306.553	280.255	176.587	180.625	181.639	186.308	312.657	185.241	-8191	255	
28944.023	1	1	0	0	0.19442	0.22013	0.060155	0.29496	0.068778	0.1896	0.30579	0.0061995	0.2574	0.24954	0.34788	0.16466	0.10687	0.3439	0.11461	0.32009	-3.5958	-4.5667	-4.65	-4.0604	-4.8458	-4.1417	-4.2458	-5.0292	-3.8604	-4.5458	-4.5896	-3.9813	-4.9812	-4.4167	-3.9562	-4.9	171.053	301.741	384.389	482.750	513.876	208.327	433.287	393.804	392.646	221.085	442.388	249.607	285.029	487.780	320.390	506.930	0.0014215	0.0003616	0.00014766	1337.8	7.4499e-06	3.7238e-06	1344.5	366.49	8.3612e-06	3.5802e-06	416.53	138.2	120.09	40.413	7.6141e-06	50.25	0.00064353	0.00063607	0.00017358	1368	6.7878e-06	6.7536e-06	1371.2	374.24	6.7727e-06	6.6732e-06	428.48	141.08	123	41.925	6.5112e-06	52.314	349.140	259.939	256.941	172.472	287.938	331.893	172.149	176.973	311.238	317.692	176.710	180.553	181.521	186.092	263.338	185.100	-8191	255	
28944.119	1	1	0	0	0.20006	0.12053	0.33126	0.28746	0.1866	0.119	0.2804	0.050357	0.12187	0.030288	0.12262	0.26122	0.1742	0.19043	0.15749	0.29498	-3.7104	-4.3271	-4.6396	-3.9854	-4.6979	-4.3771	-4.1479	-4.9479	-4.0375	-4.2438	-4.9146	-4.025	-4.7312	-4.4458	-4.0729	-4.9604	252.888	339.092	346.586	505.531	337.257	444.689	436.426	414.354	285.383	331.563	505.612	229.106	477.411	349.307	233.143	447.417	0.0013777	0.00029389	0.00011578	1341.3	4.8613e-06	3.6194e-06	1344.2	366.16	1.2491e-05	1.041e-05	416.95	138.18	119.65	40.566	8.2471e-06	50.199	0.00062284	0.00058771	0.00016401	1370	6.459e-06	6.4057e-06	1372.6	374.99	6.5634e-06	6.5075e-06	429.01	141.24	122.9	41.988	6.5495e-06	52.31	339.774	224.275	278.851	172.529	309.974	284.471	172.046	177.007	306.088	301.372	176.416	180.973	181.413	186.148	310.599	185.031	-8191	255	
28944.240	1	1	0	0	0.16288	0.14962	0.091868	0.13903	0.015712	0.2726	0.23895	0.17569	0.17451	0.13416	0.32215	0.15528	0.18501	0.13767	0.090462	0.079857	-3.6833	-4.2229	-4.8354	-3.8833	-4.4958	-4.3771	-4.0604	-4.9625	-4.1125	-4.1771	-4.9229	-3.7292	-4.5687	-4.6792	-3.7687	-4.8521	315.552	412.073	184.712	495.057	426.439	252.725	494.580	437.166	349.388	421.302	501.311	208.679	205.947	515.343	313.003	518.379	0.0013707	0.00030879	0.00014475	1334.7	9.2124e-06	3.3329e-06	1348.2	366.5	1.0308e-05	2.0613e-06	418.07	137.81	120.14	40.474	3.7838e-06	49.95	0.00063442	0.00060414	0.00016756	1369.2	6.6469e-06	6.5759e-06	1373.3	374.52	6.6715e-06	6.6671e-06	428.98	141.29	123.07	41.927	6.5475e-06	52.267	349.828	219.258	264.103	172.588	292.570	304.895	172.009	177.053	317.643	403.912	176.446	180.829	181.270	186.298	338.739	185.096	-8191	255	
28944.311	1	1	0	0	0.060954	0.2202	0.2249	0.19882	0.11961	0.099453	0.20419	0.16518	0.20635	0.14777	0.048819	0.20222	0.090906	0.12133	0.077825	0.18421	-3.9792	-4.1583	-4.6	-4.175	-4.4917	-4.4812	-4.1958	-4.9521	-4.2646	-4.1583	-4.9	-3.975	-4.4875	-4.7167	-3.8292	-4.6917	192.754	345.077	490.664	466.802	287.923	352.304	218.445	418.089	420.478	225.306	198.521	437.978	317.970	421.398	367.665	315.953	0.0014179	0.00041321	4.6093e-05	1338.8	4.5211e-06	5.1945e-06	1348.6	366.63	1.04e-05	4.1838e-06	417.86	137.89	120.05	40.588	4.3788e-06	50.309	0.00062953	0.00059962	0.00016599	1370.2	6.4964e-06	6.4833e-06	1375.3	374.95	6.5435e-06	6.4596e-06	429.3	141.33	123.24	42.044	6.4517e-06	52.331	343.188	323.491	257.984	172.644	281.652	323.403	172.168	177.132	306.023	276.365	176.495	180.649	181.286	186.427	393.442	185.149	-8191	255	
28944.408	1	1	0	0	0.22478	0.17641	0.19963	0.19926	0.046748	0.17622	0.36042	0.13962	0.1348	0.038005	0.057518	0.26552	0.13531	0.099566	0.083687	0.090742	-3.9042	-4.1083	-4.7604	-4.1167	-4.4292	-4.7396	-3.9896	-4.6979	-4.3792	-4.0542	-4.9062	-4.075	-4.2625	-4.7458	-3.7521	-4.6771	220.376	404.702	421.258	474.148	453.383	187.430	446.051	486.878	312.895	441.569	469.302	446.787	295.316	514.280	415.926	386.365	0.0013897	0.00066132	8.5763e-05	1341.7	6.4662e-06	2.9312e-06	1348.1	367.72	6.7582e-06	4.6458e-06	418.93	138.4	120.61	40.45	9.2621e-06	50.497	0.00060788	0.0005828	0.00016028	1371.5	6.3431e-06	6.3107e-06	1372.7	374.52	6.294e-06	6.367e-06	429.15	141.37	123.08	41.909	6.3288e-06	52.313	342.338	261.338	287.124	172.707	374.824	337.086	172.141	177.091	299.906	294.121	176.300	180.984	181.363	186.312	294.844	185.316	-8191	255	
28944.504	1	1	0	0	0.073669	0.027753	0.15749	0.11017	0.048413	0.085348	0.22452	0.1755	0.17361	0.10055	0.17935	0.12874	0.058058	0.029724	0.16416	0.042242	-4.2083	-3.9354	-4.8146	-4.4521	-4.1604	-4.7125	-4.1833	-4.625	-4.5208	-3.8708	-4.8292	-4.2688	-4.3854	-4.8021	-3.9458	-4.5708	417.279	498.844	462.145	508.379	336.697	457.437	454.474	388.472	477.707	197.620	431.810	315.071	493.395	248.912	448.861	373.744	0.0014825	0.00060959	0.00011351	1339.7	3.7007e-06	3.2188e-06	1343.7	364.83	4.4636e-06	3.0531e-06	420.18	138.59	119.6	40.416	5.2416e-06	50.399	0.00059944	0.00056315	0.00015749	1368.5	6.152e-06	6.2073e-06	1373.5	373.84	6.1602e-06	6.2765e-06	429.45	141.27	123	41.974	6.323e-06	52.241	347.960	270.103	317.396	172.708	297.689	339.258	172.310	176.975	338.135	295.166	176.319	181.011	181.325	186.037	301.382	185.203	-8191	255	
28944.623	1	1	0	0	0.083201	0.076348	0.20586	0.32266	0.19076	0.14709	0.031005	0.15198	0.023372	0.090623	0.21073	0.17291	0.37271	0.11568	0.15684	0.073401	-4.1104	-3.7667	-4.7542	-4.4729	-4.0104	-4.8271	-4.1917	-4.5042	-4.7438	-3.875	-4.8833	-4.3583	-4.0813	-4.8625	-4.0771	-4.3604	374.387	337.641	193.173	453.100	209.849	233.474	333.190	248.068	413.156	419.917	425.907	473.756	481.068	206.465	500.485	350.962	0.0014672	0.00067264	0.00014552	1338.4	6.2344e-06	6.7748e-06	1348.5	366.74	6.2062e-06	4.4289e-06	418.12	138.24	119.96	40.652	1.2962e-05	50.487	0.00060212	0.00058609	0.00016001	1368.2	6.4211e-06	6.321e-06	1372.9	374.69	6.3488e-06	6.4389e-06	428.68	141.49	123.01	42.048	6.44e-06	52.331	350.660	272.517	289.382	172.663	303.547	356.359	172.115	177.053	334.156	328.118	176.615	180.903	181.315	186.326	293.389	185.135	-8191	255	
28944.721	1	1	0	0	0.12206	0.17797	0.082492	0.024268	0.015676	0.1636	0.16175	0.087856	0.24016	0.23838	0.082985	0.17506	0.25708	0.091243	0.037018	0.10215	-4.5646	-3.8187	-4.4792	-4.6229	-3.9833	-4.8479	-4.1	-4.4021	-4.725	-3.8292	-4.7479	-4.2604	-4.0333	-4.7479	-4.0271	-4.2208	461.968	350.956	493.588	346.712	458.660	302.077	469.212	225.372	226.851	181.821	415.077	164.648	355.845	321.688	377.568	487.687	0.0013666	0.00057327	9.0973e-05	1342.2	5.4673e-06	9.085e-06	1342.5	365.21	7.3642e-06	2.3859e-06	417.52	138.74	120.33	40.662	6.0057e-06	50.422	0.00061787	0.00059752	0.00016407	1370.3	6.5334e-06	6.4449e-06	1370.6	374.58	6.4693e-06	6.5149e-06	429.13	141.71	123.36	42.081	6.4462e-06	52.398	346.989	254.396	300.217	172.588	225.110	324.554	172.200	176.936	323.972	293.027	176.402	181.045	181.448	186.164	283.868	185.066	-8191	255	
28944.816	1	1	0	0	0.1207	0.086836	0.15334	0.11003	0.29044	0.1192	0.22412	0.13523	0.17595	0.12142	0.12906	0.21239	0.17159	0.25407	0.11556	0.1133	-4.4812	-3.8875	-4.5583	-4.6687	-3.8333	-4.8271	-4.3167	-4.3896	-4.9396	-4.0333	-4.5062	-4.7271	-3.9583	-5	-4.2562	-4.1937	396.882	250.163	484.551	192.404	489.289	415.413	467.161	386.183	368.136	478.328	478.867	492.882	323.882	365.412	307.977	235.148	0.0016078	0.00062016	7.965e-05	1344.6	1.0927e-05	8.174e-06	1353.2	367.45	1.0261e-05	2.154e-06	420.48	138.6	120.01	40.61	6.145e-06	50.324	0.00061965	0.00059049	0.00016362	1373.1	6.4127e-06	6.3843e-06	1378.5	376.1	6.3842e-06	6.3602e-06	430.22	141.93	123.32	42.148	6.4297e-06	52.425	346.506	271.491	282.528	172.569	290.528	323.574	172.045	176.904	304.341	228.484	176.474	180.882	181.386	186.188	263.533	184.763	-8191	255	
28944.936	1	1	0	0	0.064018	0.2647	0.16896	0.24121	0.084898	0.12921	0.30393	0.10738	0.084568	0.14127	0.26036	0.20634	0.068906	0.10583	0.15238	0.12487	-4.4646	-3.8958	-4.325	-4.9958	-3.8979	-4.6792	-4.575	-4.1646	-4.8833	-4.0312	-4.3792	-4.8688	-3.9562	-4.8396	-4.4333	-4.2188	509.189	199.281	185.570	497.838	345.900	418.374	446.823	477.471	265.479	333.714	498.939	504.068	193.982	446.180	316.992	482.355	0.0014176	0.00038492	0.00011915	1344.4	4.6551e-06	7.1794e-06	1346.8	367.59	7.7724e-06	4.6638e-06	418.43	139.39	120.22	40.651	7.4794e-06	50.632	0.00060796	0.00059131	0.00016268	1376.2	6.4299e-06	6.4559e-06	1377.8	376.26	6.4042e-06	6.3777e-06	430.01	141.95	123.38	42.13	6.3972e-06	52.556	348.383	205.867	248.701	172.547	347.152	378.947	172.419	176.861	337.368	300.104	176.423	181.029	181.801	186.104	297.927	185.026	-8191	255	
28945.008	1	1	0	0	0.027286	0.058198	0.14813	0.24243	0.14337	0.014156	0.11748	0.30401	0.095192	0.10538	0.33501	0.17666	0.17304	0.24685	0.13625	0.15933	-4.6479	-4.0625	-4.2896	-5.0042	-3.8812	-4.7188	-4.5833	-4.1521	-5.0271	-4.1917	-4.4833	-4.9917	-3.9062	-4.6479	-4.5875	-3.9125	329.568	481.377	325.785	433.415	438.047	428.791	396.865	451.730	309.344	205.888	260.931	466.662	286.888	215.178	271.875	484.127	0.0013676	0.00059639	0.00014707	1345	2.2484e-06	3.9589e-06	1349.7	368.23	1.0836e-05	5.9248e-06	416.69	138.61	120.64	40.733	1.0991e-05	50.621	0.00060096	0.00057676	0.00015996	1374.1	6.3026e-06	6.3257e-06	1377	375.65	6.2376e-06	6.2922e-06	428.23	141.93	123.51	42.156	6.2037e-06	52.458	345.778	221.503	254.265	172.671	358.246	346.437	172.252	177.032	295.308	316.375	176.504	180.936	181.228	186.365	314.669	185.066	-8191	255	
28945.104	1	1	0	0	0.18524	0.021241	0.15325	0.36878	0.25171	0.15325	0.20186	0.23788	0.034924	0.13642	0.18988	0.23005	0.090581	0.13503	0.10725	0.088798	-4.5813	-4.1396	-4.0625	-5.0896	-3.8833	-4.575	-4.8229	-4.1188	-4.8396	-4.3042	-4.2646	-4.9833	-4.0667	-4.5396	-4.6937	-4.1521	180.786	359.329	180.482	479.997	512.691	315.035	508.713	506.136	223.235	404.740	483.065	175.494	427.357	368.103	334.447	182.860	0.0013842	0.00053087	0.00014493	1345.4	6.8353e-06	3.4225e-06	1348.4	366.95	2.0569e-06	6.9512e-06	419.59	138.9	119.93	40.629	7.019e-06	50.48	0.00059777	0.00057309	0.00015464	1372.2	6.1515e-06	6.1249e-06	1376.2	375.01	6.1308e-06	6.1397e-06	429.53	141.89	123.24	42.094	6.1454e-06	52.413	346.145	238.579	258.612	172.707	327.669	320.329	172.258	177.118	302.673	319.179	176.258	180.944	181.510	186.020	308.672	185.264	-8191	255	
28945.225	1	1	0	0	0.13018	0.046884	0.11245	0.33215	0.12171	0.13427	0.39062	0.14754	0.14956	0.14314	0.18901	0.1073	0.20655	0.083379	0.14656	0.18687	-4.6458	-4.2479	-4.1146	-5.0354	-4.0396	-4.3375	-4.85	-4.0312	-4.5979	-4.3354	-4.1458	-5.0833	-4.0563	-4.4083	-4.6396	-4.025	371.903	228.481	454.041	493.022	414.172	166.914	429.834	185.357	371.337	454.419	190.302	439.657	186.462	278.460	377.087	488.124	0.0014163	0.00061792	0.00018026	1343.1	8.8185e-07	7.3299e-06	1348.4	366.98	1.1516e-05	3.2406e-06	417.34	138.39	119.71	40.727	2.3716e-06	50.562	0.00058393	0.00056546	0.0001546	1373.4	6.0682e-06	6.0344e-06	1375.6	374.72	6.0236e-06	6.0384e-06	428.98	141.62	123.09	42.033	6.002e-06	52.422	351.341	271.178	283.718	172.520	212.583	301.859	172.214	177.006	299.601	308.112	176.578	180.916	181.247	186.164	326.845	184.987	-8191	255	
28945.320	1	1	0	0	0.072032	0.16379	0.090319	0.19977	0.05816	0.15485	0.22525	0.14125	0.046482	0.066265	0.024518	0.28883	0.21726	0.21959	0.10774	0.093668	-4.3958	-4.5333	-3.9271	-5.0167	-4.0625	-4.1396	-4.9604	-4.15	-4.6917	-4.5229	-4.0271	-4.9896	-4.125	-4.325	-4.75	-4.0792	246.194	237.465	315.391	438.139	418.172	418.417	385.999	446.418	376.981	480.246	459.312	386.028	445.898	209.760	215.753	465.963	0.0013324	0.00079095	0.00013813	1343.1	4.8606e-06	5.05e-06	1346.4	366.83	1.0097e-05	5.7546e-06	417.77	138.5	120.48	40.62	7.5722e-06	50.671	0.00057163	0.00056103	0.0001539	1372.5	6.0633e-06	6.0763e-06	1375	374.81	5.9804e-06	5.9717e-06	428.41	141.65	123.16	42.062	5.9939e-06	52.414	344.489	234.461	246.854	172.530	302.575	307.914	172.262	176.929	315.711	292.800	176.343	180.761	181.386	185.835	284.492	185.049	-8191	255	
28945.416	1	1	0	0	0.062306	0.18446	0.20241	0.3089	0.16585	0.14132	0.24737	0.045246	0.18694	0.1753	0.27025	0.12766	0.028073	0.087963	0.12285	0.20825	-4.1937	-4.4896	-3.8688	-4.9187	-4.2229	-4.1521	-5.0125	-4.0646	-4.4104	-4.7021	-3.9625	-4.9042	-4.4271	-4.0062	-4.9875	-4.1583	339.437	172.818	211.280	471.618	475.169	372.640	443.267	190.732	484.581	274.896	476.773	497.425	455.642	504.466	205.777	435.237	0.0014573	0.00049775	0.00010247	1343.6	4.9498e-06	4.8429e-06	1343.7	366.6	4.8415e-06	5.2312e-06	418.7	139.08	120.71	40.972	7.2076e-06	50.339	0.00057163	0.00054995	0.00015386	1373.7	5.9443e-06	6.0154e-06	1373.4	374.36	5.9783e-06	5.9227e-06	429.38	141.87	123.32	42.146	5.8703e-06	52.281	343.767	250.107	265.094	172.538	273.794	346.827	172.452	177.098	296.607	318.054	176.382	180.771	181.464	185.922	269.719	185.368	-8191	255	
28945.537	1	1	0	0	0.22762	0.2523	0.11122	0.2742	0.022199	0.022696	0.27261	0.23781	0.09803	0.10551	0.08895	0.038213	0.28717	0.1177	0.13441	0.12977	-4.1125	-4.6708	-3.8271	-4.9812	-4.3396	-3.8	-5.1208	-4.2458	-4.2042	-4.7	-3.8458	-4.8479	-4.5208	-3.9167	-4.8292	-4.1896	485.568	475.291	197.885	471.496	429.611	336.717	468.110	471.796	212.247	458.020	336.458	196.183	189.145	389.648	356.197	458.371	0.0014184	0.00038096	0.00017457	1342.7	7.9039e-06	3.2208e-06	1349.9	366.14	1.1736e-05	5.8665e-06	417.1	138.2	120.02	40.667	2.0706e-06	50.426	0.00057094	0.00054282	0.0001517	1372.4	5.914e-06	5.943e-06	1374.9	374.31	5.9381e-06	5.7929e-06	428.15	141.74	122.99	42.07	5.7547e-06	52.367	346.834	268.140	262.716	172.449	310.721	318.490	172.067	176.987	302.549	299.902	176.476	180.880	181.410	186.178	326.637	185.310	-8191	255	
28945.609	1	1	0	0	0.18216	0.055828	0.062195	0.41368	0.18506	0.1402	0.1483	0.088743	0.063505	0.2404	0.131	0.23712	0.083614	0.077306	0.13398	0.12786	-3.8688	-4.8125	-3.7854	-4.7292	-4.4938	-4.0542	-5.1125	-4.2312	-4.0458	-4.925	-3.9313	-4.4917	-4.6375	-4.0687	-4.7042	-4.4042	466.471	329.256	355.267	489.358	286.597	427.831	482.429	472.496	366.548	337.780	454.290	170.072	478.210	448.726	264.403	467.164	0.0014026	0.00034136	9.9492e-05	1343.2	3.131e-06	2.4541e-06	1347.7	366.35	9.5585e-06	4.7415e-06	418.05	139.33	120.5	40.744	7.7e-06	50.721	0.00056626	0.00053506	0.00014757	1371	5.8397e-06	5.8493e-06	1374.5	374.6	5.88e-06	5.7098e-06	428.39	141.83	123.3	42.143	5.8328e-06	52.411	343.461	257.746	261.726	172.586	337.745	311.127	172.315	177.113	318.287	332.416	176.626	180.882	181.383	186.187	285.370	184.949	-8191	255	
28945.705	1	1	0	0	0.12873	0.041461	0.25295	0.3359	0.20263	0.24125	0.14036	0.29128	0.071063	0.26433	0.1982	0.056095	0.095668	0.069783	0.20252	0.062813	-3.7208	-4.7458	-3.7333	-4.7375	-4.5687	-3.9104	-4.9125	-4.5458	-3.9458	-4.8792	-4.0229	-4.2354	-4.6458	-3.9938	-4.8187	-4.4812	251.211	427.469	330.011	497.449	245.249	461.507	375.404	447.959	314.307	518.070	425.980	369.518	433.189	408.926	479.616	468.270	0.0014275	0.00036526	0.00014162	1344.5	8.75e-06	5.7149e-06	1349.5	367.41	9.8751e-06	4.8249e-06	417.94	138.7	120.61	40.732	1.1318e-05	50.51	0.00056405	0.00053501	0.00014762	1371.6	5.8308e-06	5.8854e-06	1373.8	374.72	5.773e-06	5.6708e-06	427.61	141.87	123.36	42.126	5.7609e-06	52.346	339.062	237.715	256.225	172.480	330.659	321.258	172.058	176.857	318.826	260.839	176.419	180.924	181.602	186.148	285.469	185.080	-8191	255	
28945.801	1	1	0	0	0.14673	0.14744	0.10406	0.19854	0.046485	0.080838	0.27386	0.358	0.036674	0.1536	0.29253	0.11578	0.17118	0.091802	0.057344	0.21344	-3.6937	-4.9479	-3.9042	-4.3708	-4.7896	-3.6833	-4.775	-4.5292	-4.1083	-4.8708	-4.1146	-4.1479	-4.775	-3.9708	-4.6937	-4.5687	495.369	444.731	476.831	462.549	310.988	496.069	438.624	505.003	279.505	429.606	371.484	181.831	518.109	512.215	461.369	459.662	0.0015018	0.00064932	0.00010535	1342.9	4.1376e-06	5.7024e-06	1352.5	366.41	4.3284e-06	3.1612e-06	417.12	138.17	119.91	40.74	7.9296e-06	50.508	0.0005663	0.00052219	0.00014758	1370.4	5.7412e-06	5.8108e-06	1374.7	374.6	5.8529e-06	5.7566e-06	427.69	141.67	122.91	42.04	5.7635e-06	52.368	349.634	226.795	244.882	172.260	302.693	351.200	172.190	177.129	351.685	310.630	176.597	180.789	181.443	185.908	322.773	185.242	-8191	255	
28945.896	1	1	0	0	0.11938	0.15072	0.09638	0.19144	0.10721	0.25829	0.39744	0.14071	0.12137	0.088803	0.19833	0.013758	0.10339	0.070041	0.10799	0.10412	-3.6042	-4.7854	-4.0979	-4.3208	-4.7896	-3.9229	-4.6833	-4.7417	-4.0312	-4.7292	-4.2937	-4.0437	-4.8521	-4.0021	-4.3896	-4.7104	366.261	238.600	439.732	469.397	449.676	201.916	492.759	514.823	400.130	400.596	205.682	242.391	493.049	238.282	205.160	391.654	0.0014567	0.00055352	2.1923e-05	1350.9	3.7838e-06	7.0495e-06	1360.7	367.6	6.9227e-06	3.4241e-06	420.34	139.72	120.82	40.854	5.99e-06	50.786	0.00056542	0.00052404	0.00014579	1372.9	5.8432e-06	5.9039e-06	1377	375.13	5.7732e-06	5.7979e-06	429.11	141.75	123.19	42.076	5.8091e-06	52.403	349.322	268.720	449.027	171.988	317.506	323.643	171.963	176.946	290.484	360.175	176.211	180.632	181.290	185.705	312.022	184.979	-8191	255	
28946.016	1	1	0	0	0.25315	0.17703	0.10851	0.23202	0.095555	0.11331	0.13645	0.29826	0.093349	0.059908	0.1246	0.15629	0.1198	0.067462	0.14481	0.15759	-3.5708	-4.7125	-4.2292	-4.2771	-4.8167	-3.9667	-4.5563	-4.6813	-3.7104	-4.7	-4.4062	-4.1146	-4.8604	-4.0146	-4.2458	-4.8646	191.052	352.075	368.443	468.094	371.463	393.008	431.858	468.053	163.440	231.900	510.570	460.029	337.654	437.469	355.082	177.649	0.0013912	0.00044565	0.0001114	1356.3	9.5312e-06	4.8653e-06	1358.3	369.63	1.1237e-05	4.4416e-06	421.58	138.91	121.29	40.884	7.6725e-06	50.965	0.00056305	0.00052406	0.00014591	1373.3	5.6466e-06	5.7569e-06	1376	375.6	5.7593e-06	5.6509e-06	429.08	141.71	123.31	42.077	5.7816e-06	52.446	344.958	240.347	262.498	172.081	287.107	302.408	171.739	176.629	301.950	226.515	176.039	180.455	180.972	185.577	293.682	184.740	-8191	255	
28946.111	1	1	0	0	0.10913	0.14487	0.093661	0.21772	0.29673	0.26396	0.30591	0.23858	0.054278	0.10179	0.178	0.13927	0.11565	0.13056	0.11991	0.22362	-3.4938	-4.6542	-4.4625	-4.1104	-4.8562	-4.1583	-4.2625	-4.9104	-3.6833	-4.5938	-4.4542	-3.9521	-4.7625	-4.1042	-4.1042	-4.9646	477.709	437.951	163.444	499.178	400.133	274.252	437.196	488.861	229.461	349.869	210.347	496.207	443.312	218.762	175.887	468.003	0.0013462	0.00075587	9.0156e-05	1352.2	6.869e-06	2.8473e-06	1359.8	368.49	5.2291e-06	2.0024e-06	420.54	139.62	121.01	40.811	5.6187e-06	50.882	0.00056193	0.00052364	0.00014594	1372.8	5.7971e-06	5.7527e-06	1376.9	375.13	5.8889e-06	5.7587e-06	428.52	141.7	123.28	42.068	5.7189e-06	52.491	341.754	270.492	269.311	171.878	266.570	361.663	171.539	176.577	278.749	345.078	176.188	180.357	181.087	185.780	303.486	184.637	-8191	255	
28946.186	1	1	0	0	0.30133	0.12463	0.10606	0.2767	0.11462	0.19379	0.22278	0.096716	0.24434	0.14955	0.13506	0.11254	0.20433	0.28036	0.082426	0.034474	-3.7292	-4.5854	-4.5167	-4.0104	-4.7875	-4.2271	-4.2937	-4.9563	-3.925	-4.375	-4.8146	-3.9604	-4.8271	-4.3562	-3.9479	-4.7375	325.473	354.786	511.340	477.099	222.284	477.223	416.421	174.055	425.028	430.314	391.797	398.942	197.863	472.446	504.802	495.696	0.0015678	0.00061693	0.0001113	1356.5	8.0303e-06	5.708e-06	1356.1	368.76	1.1305e-05	4.7967e-06	418.32	139.51	121.08	40.795	6.6986e-06	50.627	0.00056635	0.00052791	0.00014567	1373.8	5.7805e-06	5.7675e-06	1375.6	375.4	5.7596e-06	5.7281e-06	428.35	141.78	123.13	42.047	5.7662e-06	52.393	348.184	272.413	260.470	172.152	277.452	336.663	171.719	176.648	297.805	277.268	176.249	180.210	180.866	185.993	315.007	184.994	-8191	255	
28946.305	1	1	0	0	0.16658	0.21159	0.12609	0.27805	0.025533	0.013501	0.2686	0.24354	0.3293	0.25099	0.2127	0.11793	0.056891	0.13612	0.069254	0.057235	-3.5542	-4.2479	-4.7333	-3.9375	-4.6521	-4.2792	-4.1125	-5.0167	-4.0104	-4.3083	-4.8146	-3.9271	-4.6625	-4.3896	-4	-4.9146	203.373	191.215	279.538	477.393	382.886	436.867	383.779	445.364	316.768	280.809	484.481	398.773	375.242	448.851	441.025	416.123	0.0014358	0.00063886	0.00017717	1349.3	6.3747e-06	4.5477e-06	1355.7	368.01	8.4283e-06	6.4298e-06	421.61	140.28	121.36	41.043	6.9958e-06	51.201	0.00055763	0.00052574	0.00014536	1372.4	5.7021e-06	5.762e-06	1376	374.66	5.8608e-06	5.8438e-06	429.85	142.31	123.76	42.253	5.7837e-06	52.583	351.607	264.810	276.552	172.123	292.633	316.781	171.735	176.702	302.055	317.912	176.037	180.165	181.102	185.901	303.810	185.013	-8191	255	
28946.400	1	1	0	0	0.24516	0.28473	0.24015	0.086942	0.19663	0.19456	0.095874	0.2481	0.10517	0.092346	0.21339	0.076171	0.13867	0.10097	0.28512	0.093455	-3.7354	-4.2042	-4.8521	-3.975	-4.5875	-4.5292	-3.9979	-5.0021	-3.9271	-4.2354	-4.8125	-4.0771	-4.4583	-4.3771	-3.9583	-4.9187	165.184	369.882	311.590	414.537	417.185	285.306	470.228	435.522	277.708	327.796	461.997	224.199	441.251	174.254	480.400	186.288	0.0014598	0.00084182	8.0738e-05	1351.6	6.6192e-06	8.6354e-06	1349.5	367.72	7.669e-06	5.2015e-06	417.9	138.59	120.42	40.74	4.2337e-06	50.261	0.00057685	0.00054445	0.00014914	1375	5.9065e-06	5.9094e-06	1376.2	375.13	5.9627e-06	6.0024e-06	428.77	141.78	123.19	42.107	6.0659e-06	52.318	349.892	239.171	206.894	172.093	278.020	324.840	172.179	177.198	295.684	347.649	176.527	180.774	181.303	186.142	285.395	184.947	-8191	255	
28946.496	1	1	0	0	0.30351	0.080974	0.032109	0.30768	0.1645	0.31954	0.25913	0.16678	0.081524	0.06305	0.086946	0.11707	0.13956	0.23361	0.14098	0.15177	-3.8417	-4.1521	-4.85	-4.075	-4.4042	-4.5208	-3.9333	-4.8792	-4.2729	-4.1312	-4.8688	-4.05	-4.5875	-4.7104	-3.7792	-4.9354	264.049	474.157	265.851	465.238	294.144	311.919	451.555	498.515	517.969	486.073	419.102	191.595	363.263	459.045	291.723	252.673	0.0014381	0.00016806	8.9926e-05	1339.6	6.3514e-06	5.6563e-06	1344.7	367.54	5.6321e-06	5.6423e-06	417.67	139.4	120.22	40.679	1.3523e-05	50.544	0.00058065	0.00055153	0.00015266	1371.3	6.0679e-06	6.0643e-06	1374.4	375.2	5.9784e-06	6.0148e-06	428.45	141.79	123.18	42.054	5.9676e-06	52.369	347.084	186.688	226.183	172.642	288.496	312.764	172.061	177.088	305.322	292.844	176.458	180.596	181.491	186.015	316.964	185.107	-8191	255	
28946.617	1	1	0	0	0.13617	0.072216	0.14816	0.20385	0.097763	0.044566	0.1491	0.14814	0.2203	0.084448	0.26927	0.13353	0.020254	0.14855	0.16827	0.1497	-4.0062	-3.9583	-4.9604	-4.1438	-4.2292	-4.8083	-4.2167	-4.7667	-4.4208	-3.8917	-5.1375	-4.225	-4.3125	-4.8958	-3.6979	-4.6208	310.346	429.830	304.001	172.795	168.952	232.694	456.108	459.637	397.282	384.709	473.105	440.681	176.690	451.066	495.593	434.033	0.001432	0.00063601	0.00016818	1345.1	9.4571e-06	5.8137e-06	1352.8	366.64	5.8605e-06	3.4182e-06	418.96	138.82	120.49	40.816	3.852e-06	50.488	0.00058343	0.0005568	0.00015247	1372.3	5.9784e-06	6.1227e-06	1377.4	375.08	6.1322e-06	6.1295e-06	429.18	142.1	123.73	42.19	6.215e-06	52.481	348.810	288.631	256.429	172.601	317.262	334.991	172.150	177.022	351.222	312.163	176.482	181.043	181.480	186.067	312.225	185.039	-8191	255	
28946.713	1	1	0	0	0.29563	0.025255	0.096899	0.21919	0.22436	0.18247	0.39341	0.20506	0.14111	0.10557	0.066761	0.025749	0.096349	0.055994	0.044957	0.038173	-4.3125	-3.9396	-4.85	-4.3792	-4.1792	-4.9146	-4.0563	-4.5646	-4.525	-3.9083	-5.0062	-4.1687	-4.0458	-4.8063	-3.85	-4.5479	372.248	430.285	201.734	159.589	380.204	289.423	460.812	378.143	172.460	465.458	514.999	236.840	169.756	295.380	245.827	403.029	0.0015072	0.00062974	0.00012438	1343	8.9958e-06	5.3239e-06	1348.4	368.18	1.3002e-05	7.9312e-06	418.34	139.95	121.03	40.833	6.7434e-06	50.587	0.00059159	0.000557	0.00015404	1373.9	6.0182e-06	6.0367e-06	1379.1	375.81	6.0124e-06	5.9277e-06	429.35	142.35	123.69	42.225	6.0171e-06	52.482	349.561	254.020	200.124	172.605	282.583	337.530	172.141	177.077	317.892	300.179	176.674	180.808	181.327	185.850	289.858	185.346	-8191	255	
28946.809	1	1	0	0	0.084529	0.14453	0.096094	0.25895	0.13704	0.020756	0.31913	0.075281	0.13594	0.1014	0.063895	0.27575	0.19627	0.3542	0.18043	0.25701	-4.275	-3.6792	-4.7354	-4.4854	-4.1	-4.8854	-4.1521	-4.5354	-4.5417	-3.9708	-4.825	-4.4667	-4.0792	-5	-3.7979	-4.2854	513.312	418.510	282.972	477.050	428.482	340.359	453.759	214.618	244.475	285.324	365.417	186.353	251.170	437.790	198.754	483.461	0.0014318	0.00041903	0.00015549	1345.4	5.6826e-06	7.5589e-06	1349.1	366.2	7.2974e-06	7.6244e-06	418.86	138.71	120.45	40.828	2.9095e-06	50.741	0.00056809	0.00054604	0.00015127	1372.5	5.9201e-06	5.9151e-06	1375.6	374.65	5.9299e-06	5.9857e-06	428.77	141.78	123.63	42.212	5.951e-06	52.542	349.107	250.476	216.460	172.619	309.092	310.663	172.384	177.106	306.812	278.716	176.437	180.756	181.459	186.046	316.816	185.171	-8191	255	
28946.906	1	1	0	0	0.10414	0.1333	0.15947	0.068233	0.22706	0.32931	0.24137	0.36807	0.21346	0.12045	0.16219	0.11596	0.12771	0.30599	0.12898	0.19179	-4.3396	-3.6854	-4.7125	-4.4979	-3.9813	-4.8854	-4.2562	-4.3313	-4.7229	-3.7333	-4.7312	-4.4604	-4.0583	-4.975	-4.1083	-4.1979	182.981	308.402	310.575	516.672	471.452	408.062	487.114	465.208	340.646	162.752	393.889	190.413	243.093	486.299	495.599	225.638	0.0014848	0.0007285	7.8561e-05	1342.5	6.6226e-06	5.0528e-06	1348.5	367.58	4.7459e-06	6.8957e-06	417.47	138.54	120.68	40.909	7.2366e-06	50.701	0.00057414	0.00054898	0.00015109	1373.1	6.052e-06	6.0119e-06	1376.3	375.4	5.933e-06	6.0219e-06	428.79	141.99	123.57	42.298	6.0984e-06	52.541	344.501	269.780	228.324	172.529	300.286	319.135	172.347	176.844	333.764	302.129	176.362	180.986	181.397	186.067	293.756	185.133	-8191	255	
28947.000	1	1	0	0	0.17488	0.14347	0.1657	0.17619	0.1892	0.046562	0.18111	0.23892	0.04326	0.076608	0.11707	0.20775	0.24437	0.15592	0.035963	0.19003	-4.3542	-3.9146	-4.575	-4.7146	-3.8083	-4.8167	-4.4187	-4.2917	-4.8583	-3.8375	-4.5083	-4.6687	-3.95	-4.9083	-3.9813	-4.0396	202.852	315.809	287.866	182.577	189.281	425.197	465.540	477.719	218.347	478.279	437.036	463.383	506.622	414.007	339.317	453.451	0.0013645	0.00042522	7.9671e-05	1341.5	4.4369e-06	7.8655e-06	1352.4	368.09	1.2554e-05	6.4306e-06	419.26	139.12	121.07	40.706	7.4945e-06	50.712	0.000584	0.00056094	0.00015441	1373.8	6.1517e-06	6.052e-06	1379.6	375.88	6.0573e-06	6.047e-06	430.58	142.35	124.13	42.271	6.0337e-06	52.645	346.589	280.356	261.273	172.547	277.433	342.612	172.294	176.787	276.752	289.172	176.309	181.014	181.347	185.930	286.565	185.123	-8191	255	
28947.096	1	1	0	0	0.091537	0.17583	0.1353	0.19151	0.11808	0.17752	0.073549	0.16215	0.15789	0.10875	0.23487	0.13162	0.20602	0.11638	0.067207	0.25893	-4.5062	-3.8229	-4.4625	-4.7854	-3.9437	-4.7937	-4.5708	-4.1604	-4.8313	-3.9708	-4.3604	-4.9417	-3.9	-4.8187	-4.4771	-3.9792	382.766	274.205	497.010	505.568	213.677	280.017	459.676	392.990	195.539	213.364	433.593	189.994	250.317	221.945	513.887	206.146	0.0014146	0.00024908	0.00014685	1348.5	7.1606e-06	5.4638e-06	1347.4	367.25	1.16e-05	1.9389e-06	420.05	139.21	120.64	40.926	7.5966e-06	50.893	0.00058268	0.00055701	0.00015303	1376.6	6.0508e-06	5.9584e-06	1376.5	375.57	5.9129e-06	5.9293e-06	429.59	142.12	123.89	42.319	5.9565e-06	52.571	341.750	248.638	243.012	172.583	310.772	320.071	172.088	176.900	332.017	350.170	176.313	180.743	181.213	185.981	309.207	185.076	-8191	255	
28947.191	1	1	0	0	0.064629	0.077973	0.076977	0.19089	0.17055	0.067059	0.13785	0.081614	0.14198	0.26725	0.36783	0.18441	0.17384	0.068563	0.19841	0.047224	-4.6208	-3.9	-4.2562	-4.8833	-3.6521	-4.6208	-4.6354	-4.1833	-4.7667	-4.2083	-4.2021	-4.8917	-3.8792	-4.75	-4.4833	-3.9958	179.326	473.132	227.347	188.520	192.903	272.816	372.737	508.155	440.318	370.684	481.513	464.920	419.941	365.489	416.318	185.808	0.0013573	0.00065224	0.00023626	1343.6	4.915e-06	4.4822e-06	1348.1	367.24	9.0074e-06	1.2771e-06	416.45	139.09	121.07	40.987	7.2699e-06	50.486	0.00056506	0.000549	0.00015233	1373	6.0765e-06	6.0273e-06	1375.6	375.15	6.041e-06	6.1045e-06	428.65	142.2	123.92	42.322	6.1588e-06	52.477	349.470	252.760	277.676	172.392	328.031	295.737	172.299	177.085	300.066	258.374	176.149	180.900	181.357	186.139	310.447	185.068	-8191	255	
28947.312	1	1	0	0	0.17597	0.21348	0.23579	0.37329	0.20669	0.35499	0.19684	0.074728	0.12917	0.14751	0.12515	0.18105	0.26502	0.18984	0.13646	0.20646	-4.5167	-4.0062	-4.125	-4.9104	-3.7458	-4.3208	-4.7479	-4.025	-4.5917	-4.2562	-4.1333	-4.9208	-4.1771	-4.4042	-4.65	-4.0083	422.530	461.159	194.703	462.840	460.527	207.772	517.433	441.856	373.303	210.914	253.199	428.895	504.050	207.310	452.265	444.971	0.0014546	0.00055631	0.00020262	1345.3	3.8177e-06	4.4238e-06	1353.9	368.43	1.2495e-05	2.6788e-06	421.43	138.8	120.84	41.03	6.0531e-06	50.552	0.0005821	0.00056925	0.00015558	1376.3	6.2605e-06	6.184e-06	1379.9	375.89	6.2676e-06	6.1224e-06	429.98	142.23	123.81	42.313	6.1818e-06	52.546	345.154	287.079	242.530	172.601	258.108	272.495	172.342	176.991	306.571	307.727	176.229	181.031	181.369	186.058	316.172	184.955	-8191	255	
28947.408	1	1	0	0	0.1179	0.28279	0.09311	0.19636	0.10523	0.12297	0.2975	0.24824	0.10372	0.055572	0.14115	0.17441	0.093375	0.31945	0.18941	0.080024	-4.5104	-4.2458	-3.9479	-4.9917	-3.975	-4.2417	-4.8542	-3.8688	-4.7667	-4.5083	-4.1	-4.8562	-4.0667	-4.225	-4.6625	-3.9	344.262	214.967	286.726	488.573	161.839	323.208	502.653	513.524	306.325	327.854	517.665	492.928	477.121	477.469	219.920	424.190	0.0013203	0.00055265	0.00014684	1346.9	8.9012e-06	5.7379e-06	1343	367.83	9.8138e-06	5.0834e-06	417.3	138.81	120.9	41.033	9.3178e-06	50.676	0.00059349	0.0005641	0.00015649	1376.2	6.1805e-06	6.1556e-06	1377	375.69	6.2264e-06	6.1371e-06	429.09	142.49	123.88	42.367	6.1834e-06	52.633	347.848	280.395	277.918	172.617	288.283	359.074	172.174	176.873	291.535	290.864	176.585	180.687	181.406	185.988	295.494	185.028	-8191	255	
28947.480	1	1	0	0	0.13031	0.13808	0.095817	0.39663	0.20622	0.14313	0.17929	0.21909	0.25029	0.079145	0.16578	0.20642	0.21469	0.16904	0.065417	0.12985	-4.3063	-4.4729	-3.7979	-5.0104	-3.9979	-4.1521	-4.8688	-3.8812	-4.4688	-4.4812	-4.0521	-5.0021	-4.3292	-4.1979	-4.8417	-4.1146	322.691	355.388	469.081	440.411	364.656	502.165	372.541	396.918	450.518	254.809	299.555	498.571	471.742	404.697	255.682	255.812	0.0013369	0.00049351	0.00015279	1347.4	9.0007e-06	3.8875e-06	1348.4	367.23	4.8402e-06	4.6871e-06	418.14	139.03	120.22	40.729	2.6248e-06	50.886	0.00059582	0.00056472	0.00015694	1376.6	6.2702e-06	6.1172e-06	1378.3	375.76	6.1172e-06	6.1508e-06	429.18	142.18	123.62	42.244	6.2066e-06	52.527	344.760	218.824	307.257	172.649	280.039	395.174	172.276	176.862	308.213	345.401	176.320	180.850	181.348	186.131	310.697	185.301	-8191	255	
28947.576	1	1	0	0	0.25607	0.036034	0.085781	0.24773	0.16086	0.015766	0.27542	0.22045	0.092976	0.14823	0.1339	0.23951	0.16427	0.023444	0.085473	0.25487	-4.0417	-4.4625	-3.9938	-4.8146	-4.1979	-4.0229	-4.9708	-4.0062	-4.2812	-4.6771	-3.9437	-4.8167	-4.4354	-4.0687	-4.8896	-3.9271	243.880	213.430	191.736	400.169	436.907	166.168	392.954	483.638	433.720	164.719	449.725	246.901	185.764	364.404	395.413	180.317	0.0013888	0.00040568	0.00015071	1344	7.2473e-06	1.8023e-06	1353.9	366.78	6.8407e-06	5.597e-06	419.11	138.79	120.73	41.096	6.3013e-06	50.689	0.00059758	0.00056774	0.00015751	1375.6	6.2229e-06	6.2988e-06	1378.9	375.93	6.297e-06	6.2517e-06	429.83	142.38	124.04	42.313	6.2152e-06	52.599	346.503	284.806	253.263	172.710	275.867	298.648	172.182	177.021	326.854	324.927	176.227	181.034	181.346	186.221	318.709	185.164	-8191	255	
28947.697	1	1	0	0	0.11811	0.29837	0.12694	0.1834	0.14812	0.077849	0.21016	0.34107	0.15766	0.13018	0.18636	0.20952	0.13102	0.23638	0.18995	0.13891	-3.9729	-4.6958	-3.7188	-4.825	-4.4563	-3.85	-5.1604	-4.2229	-4.1562	-4.825	-4.0458	-4.7021	-4.6146	-3.9396	-4.9938	-4.2083	223.292	356.143	512.159	350.968	460.181	249.400	440.285	446.498	278.991	320.595	460.591	463.302	515.246	513.701	453.745	436.462	0.0014286	0.00055668	0.00024024	1350.3	8.3569e-06	5.0147e-06	1355.8	367.06	9.3786e-06	4.711e-06	420.22	139.41	121.11	40.847	1.0062e-05	50.523	0.00060036	0.00055743	0.00015817	1377.7	6.1812e-06	6.085e-06	1383	376.1	6.0393e-06	5.9914e-06	430.57	142.38	123.91	42.317	5.9578e-06	52.618	346.861	275.109	264.914	172.424	302.209	353.756	172.360	177.186	306.750	317.005	176.393	180.811	181.672	186.077	292.774	185.143	-8191	255	
28947.795	1	1	0	0	0.077939	0.10203	0.3309	0.27385	0.16947	0.081503	0.18768	0.15688	0.17635	0.054087	0.1738	0.21728	0.14703	0.029086	0.24274	0.1262	-3.9458	-4.8792	-3.8583	-4.8104	-4.4021	-3.8625	-4.9729	-4.2333	-4.1021	-4.8479	-3.9917	-4.5854	-4.7208	-3.9896	-4.6708	-4.3187	181.570	403.589	426.200	488.091	261.230	374.148	377.690	517.867	512.249	284.144	503.970	449.534	399.410	426.321	308.727	161.476	0.0013894	0.0008754	0.00010704	1344.6	8.9156e-06	6.1193e-06	1352.9	368.01	8.0167e-06	2.7774e-06	417.91	139.44	120.51	40.823	1.182e-05	50.681	0.00057907	0.00054541	0.00015078	1376.1	5.9439e-06	5.9404e-06	1378.7	375.48	5.8963e-06	5.934e-06	429.06	142.23	123.61	42.14	5.8212e-06	52.462	347.336	253.850	228.933	172.525	312.254	296.682	172.027	176.996	289.747	311.442	176.292	180.821	181.395	186.305	302.280	185.293	-8191	255	
28947.889	1	1	0	0	0.10044	0.22739	0.083126	0.38763	0.052035	0.02396	0.20192	0.21031	0.24871	0.15157	0.26972	0.2013	0.20399	0.060142	0.14167	0.15901	-3.8292	-4.8229	-3.8854	-4.475	-4.6583	-3.7854	-4.8938	-4.3854	-3.9958	-4.7979	-3.9833	-4.3271	-4.7125	-3.9979	-4.65	-4.3521	380.028	256.149	479.069	466.228	298.328	223.880	475.480	447.776	332.247	184.693	471.587	497.210	505.340	394.725	446.485	318.740	0.0013936	0.00038564	4.8347e-05	1347.6	4.8885e-06	3.9033e-06	1348.4	367.58	5.6652e-06	4.7176e-06	418.84	139.46	120.73	40.76	6.5921e-06	50.495	0.00056639	0.0005298	0.00015104	1374.5	5.8231e-06	5.7924e-06	1376.2	375.1	5.7875e-06	5.7463e-06	429.39	141.95	123.61	42.096	5.8236e-06	52.378	342.928	268.161	262.938	172.501	249.931	265.178	172.335	177.110	273.113	265.862	176.714	180.557	181.371	186.090	348.352	185.044	-8191	255	
28947.986	1	1	0	0	0.29071	0.087167	0.19567	0.11467	0.21171	0.22551	0.16066	0.050929	0.41554	0.17438	0.15401	0.056941	0.027386	0.19128	0.23031	0.017588	-3.7271	-4.7146	-3.9813	-4.5312	-4.8104	-3.725	-4.8292	-4.5958	-3.9396	-4.8396	-4.1875	-4.4187	-4.8729	-4.0563	-4.6708	-4.6396	457.283	226.823	455.629	176.396	231.843	449.908	498.862	187.027	283.979	517.171	401.860	255.963	434.823	232.398	248.240	342.849	0.0013765	0.00045785	8.2788e-05	1347	9.8002e-06	5.3935e-06	1354	367.37	8.1307e-06	3.6522e-06	417.43	139.95	120.47	40.834	7.6953e-06	50.756	0.00055542	0.00052136	0.00014768	1375.7	5.6473e-06	5.755e-06	1378.8	375.57	5.6139e-06	5.6426e-06	428.9	142.37	123.69	42.178	5.4655e-06	52.479	344.274	248.407	264.006	172.416	305.001	310.188	172.079	177.218	323.394	347.430	176.452	180.583	181.684	186.003	290.634	185.264	-8191	255	
28948.105	1	1	0	0	0.13016	0.19453	0.15561	0.24173	0.18253	0.12203	0.29216	0.39582	0.13086	0.016554	0.21011	0.1575	0.2889	0.18285	0.2162	0.11014	-3.5375	-4.7292	-4.1125	-4.3771	-4.8021	-3.8208	-4.7833	-4.7688	-3.9958	-4.7229	-4.2542	-4.1062	-5.0792	-4.1333	-4.3771	-4.7542	407.887	475.495	497.740	507.791	517.326	431.691	411.289	456.398	467.066	325.864	482.292	446.432	482.848	501.776	467.150	246.413	0.0014635	0.00049151	0.00022288	1351.8	7.6603e-06	2.3778e-06	1350.7	367.78	1.2585e-05	8.2011e-06	417.37	139.53	120.44	40.795	6.217e-06	50.651	0.00053481	0.00049518	0.00014193	1375.9	5.3815e-06	5.4317e-06	1377	374.83	5.4923e-06	5.4512e-06	428.09	142.08	123.4	42.229	5.3941e-06	52.419	345.249	277.481	244.671	172.503	270.322	366.447	172.242	177.152	321.953	303.085	176.558	180.780	181.318	186.066	300.924	185.316	-8191	255	
28948.178	1	1	0	0	0.24293	0.085972	0.067688	0.15226	0.060784	0.13307	0.19432	0.17963	0.2963	0.20875	0.12158	0.33052	0.1126	0.14048	0.11675	0.20227	-3.5208	-4.7729	-4.3271	-4.075	-4.95	-4.0604	-4.5188	-4.8479	-3.8688	-4.7333	-4.5146	-3.9688	-4.9146	-4.2063	-4.3604	-4.7688	343.183	421.804	413.846	512.417	221.935	424.256	394.770	213.082	448.178	511.079	406.248	456.126	364.629	411.724	462.060	403.709	0.0013498	0.00056766	0.00016263	1343.7	7.68e-06	1.0046e-05	1352.3	367.52	1.0663e-05	3.3149e-06	418.27	138.83	121.07	40.793	8.7259e-06	50.737	0.00052808	0.0004911	0.00013767	1374.6	5.3285e-06	5.3777e-06	1378.3	375.35	5.406e-06	5.2023e-06	428.81	141.87	123.62	42.178	5.2922e-06	52.492	349.906	242.985	271.724	172.246	306.223	314.182	172.196	176.896	302.174	295.430	176.345	180.820	181.416	186.113	340.356	185.190	-8191	255	
28948.297	1	1	0	0	0.13326	0.043252	0.17439	0.037658	0.27023	0.061595	0.24946	0.32966	0.060464	0.16964	0.14091	0.19361	0.04811	0.051078	0.20737	0.13226	-3.4229	-4.5625	-4.4292	-4.0979	-4.8562	-3.9854	-4.45	-5.0458	-3.9917	-4.5188	-4.6708	-4.0604	-4.9208	-4.2937	-3.9917	-4.9625	350.918	442.094	496.661	397.791	209.080	447.667	396.018	416.517	165.522	515.769	441.330	474.281	239.400	347.157	417.620	503.763	0.0012548	0.00053549	0.00015523	1347.3	9.4949e-06	4.0879e-06	1354.9	366	9.936e-06	9.4631e-06	417.84	139.17	120.63	40.922	4.9487e-06	50.796	0.00051614	0.00047938	0.00013295	1374.7	5.1574e-06	5.2759e-06	1378.4	374.99	5.2933e-06	5.042e-06	428.15	141.95	123.27	42.173	5.0875e-06	52.454	346.488	221.331	287.957	172.416	315.622	304.360	171.998	177.023	298.448	307.845	176.652	180.657	181.412	185.995	302.746	185.520	-8191	255	
28948.393	1	1	0	0	0.17364	0.096162	0.17781	0.44646	0.33258	0.17774	0.176	0.087539	0.35962	0.30314	0.26056	0.092306	0.088923	0.23957	0.20593	0.11098	-3.5312	-4.5417	-4.6292	-4.2312	-4.6354	-4.2396	-4.0687	-4.9521	-3.6917	-4.4792	-4.7208	-4.0208	-4.8979	-4.3792	-3.9813	-5.1458	432.102	290.085	483.159	490.907	410.774	443.659	497.176	169.304	278.865	338.326	493.158	461.823	511.282	462.575	264.300	316.807	0.0013219	0.00069287	0.00012329	1347.2	6.6602e-06	5.3472e-06	1346.7	367.12	6.8135e-06	3.9728e-06	419.4	139.3	120.86	40.674	7.9241e-06	50.522	0.00050007	0.00045776	0.00012677	1372.9	4.9497e-06	5.0474e-06	1374.5	374.37	4.9165e-06	4.9273e-06	428.28	141.8	123.25	42.103	4.8852e-06	52.284	347.550	235.230	231.162	172.526	287.993	323.231	172.014	177.115	310.754	303.074	176.559	180.965	181.400	186.161	287.344	185.177	-8191	255	
28948.490	1	1	0	0	0.089856	0.16809	0.19239	0.19475	0.10829	0.12513	0.091496	0.19345	0.037992	0.12143	0.054014	0.15289	0.026909	0.13541	0.14263	0.048218	-3.7396	-4.325	-4.6229	-4.0125	-4.6104	-4.1958	-4.0958	-4.925	-3.7667	-4.2917	-4.8542	-3.8542	-4.6229	-4.425	-3.9875	-4.7875	487.291	319.282	424.151	493.527	168.597	386.901	222.471	465.776	484.795	478.282	164.495	511.328	342.242	514.657	306.505	332.052	0.0013983	0.00058646	8.5247e-05	1339.6	6.4898e-06	3.0659e-06	1349.6	367.55	1.0157e-05	6.4248e-06	418.24	138.71	120.65	40.628	1.0192e-05	50.363	0.00049043	0.00045289	0.00012326	1369.8	4.9491e-06	4.9342e-06	1373	374.51	5.0581e-06	5.1223e-06	427.15	141.48	123.18	42.01	5.1918e-06	52.247	346.347	232.903	241.550	172.538	277.017	316.116	172.274	177.022	318.400	314.619	176.387	180.834	181.361	186.095	288.617	185.167	-8191	255	
28948.586	1	1	0	0	0.16534	0.10223	0.2674	0.17604	0.036526	0.10237	0.15136	0.19666	0.11561	0.054661	0.11437	0.18201	0.18505	0.051221	0.10906	0.085137	-3.8417	-4.0062	-4.7396	-3.9208	-4.6188	-4.4021	-3.9792	-4.75	-4.05	-4.1208	-5.0042	-3.975	-4.7917	-4.7417	-3.7708	-4.8292	298.559	372.018	278.423	506.304	249.529	371.157	481.466	457.829	167.549	314.105	223.981	455.190	188.530	171.923	364.162	195.524	0.0014322	0.00051846	0.00010721	1344.5	5.9787e-06	8.6592e-06	1348.4	366.25	1.1795e-05	4.528e-06	418.61	138.56	120.99	40.72	1.0072e-05	50.267	0.00050543	0.00046628	0.00012875	1371.6	5.0305e-06	4.9969e-06	1373	374.2	5.2555e-06	5.0988e-06	428.57	141.44	123.03	41.884	5.1031e-06	52.148	351.311	239.988	247.170	172.606	304.898	341.330	172.337	177.067	321.319	289.012	176.608	180.803	181.542	186.280	289.498	185.374	-8191	255	
28948.705	1	1	0	0	0.28862	0.094123	0.038344	0.43957	0.16151	0.06161	0.15562	0.25899	0.089284	0.054875	0.067749	0.064914	0.15183	0.11009	0.12644	0.25637	-3.9875	-3.9958	-4.7896	-4.1542	-4.4958	-4.6083	-3.9833	-4.9708	-4.3583	-4.0271	-4.9708	-4.0021	-4.3729	-4.8542	-3.7708	-4.7854	242.625	220.512	278.414	492.377	320.405	316.846	485.338	441.723	250.324	413.390	169.267	238.437	210.693	459.480	401.639	169.446	0.0014477	0.00071704	9.4437e-05	1340.6	6.9507e-06	4.8108e-06	1346.7	364.94	1.2597e-05	4.2679e-06	417.42	138.25	120.06	40.532	5.7048e-06	50.282	0.00049958	0.00046611	0.00012625	1366.4	4.9832e-06	4.9826e-06	1370.4	373.28	5.0426e-06	5.0473e-06	426.9	141	122.59	41.911	5.1597e-06	52.125	342.630	258.876	197.580	172.703	307.113	342.903	172.108	177.032	301.332	296.901	176.646	180.753	181.299	186.292	270.818	185.066	-8191	255	
28948.777	1	1	0	0	0.1118	0.20559	0.18793	0.16364	0.057279	0.046293	0.063706	0.07929	0.36779	0.18002	0.094094	0.3504	0.076252	0.08059	0.10415	0.076438	-4.1125	-4.0479	-4.8604	-4.2063	-4.2667	-4.6792	-3.8792	-4.775	-4.5354	-4.0021	-5.0792	-4.1479	-4.1917	-4.7937	-3.7562	-4.6479	474.485	369.338	352.130	445.780	287.581	202.249	484.013	484.993	478.049	407.792	376.504	502.725	184.228	266.777	257.798	401.120	0.0013713	0.00049328	0.00011942	1332.5	9.1209e-06	6.8029e-06	1342.9	364.41	1.2498e-05	3.6992e-06	417.92	138.03	120.25	40.612	4.9012e-06	50.275	0.00049292	0.00045975	0.00012766	1364.2	5.0668e-06	5.0729e-06	1367.7	372.79	5.1538e-06	5.0568e-06	427.42	140.87	122.44	41.835	5.2192e-06	52.067	347.137	266.566	264.128	172.653	274.749	318.150	172.039	176.897	292.805	333.865	176.351	180.788	181.466	186.041	294.428	185.112	-8191	255	
28948.873	1	1	0	0	0.20026	0.13862	0.17438	0.19308	0.051016	0.09139	0.42351	0.15877	0.25133	0.086979	0.23334	0.065381	0.16433	0.21689	0.10291	0.013785	-4.3167	-3.8729	-4.7521	-4.2229	-3.9729	-4.6604	-4.0729	-4.6604	-4.4979	-3.8479	-4.8562	-4.2375	-4.0604	-4.8854	-3.9396	-4.4167	195.419	419.885	218.001	483.023	464.149	379.474	506.023	217.451	430.349	475.623	413.139	430.922	491.543	232.851	270.032	444.590	0.0015004	0.00071313	0.0001128	1338.9	3.5929e-06	8.2424e-06	1347.1	365.9	7.5594e-06	8.0335e-06	416.66	137.86	120.28	40.267	4.2881e-06	50.33	0.00049824	0.00047515	0.00013012	1365.3	5.1464e-06	5.1633e-06	1370	373.38	5.1944e-06	5.2148e-06	426.55	140.81	122.83	41.789	5.3903e-06	52.103	346.458	252.775	227.313	172.450	355.989	332.306	172.292	177.229	299.086	300.905	176.713	180.919	181.283	186.026	301.731	185.173	-8191	255	
28948.992	1	1	0	0	0.0599	0.088888	0.010052	0.22871	0.057687	0.32201	0.048019	0.046161	0.12081	0.040761	0.142	0.016896	0.266	0.23233	0.16369	0.016399	-4.3083	-3.9125	-4.7104	-4.3333	-3.9562	-4.6625	-4.1875	-4.4042	-4.6312	-3.6437	-4.9021	-4.4667	-3.975	-4.9333	-4.0417	-4.4354	333.250	299.327	516.505	515.004	362.514	355.166	445.796	190.199	313.418	410.479	461.057	412.620	160.149	160.598	378.510	169.400	0.0013899	0.00053328	0.00019608	1340.1	6.7982e-06	1.4334e-06	1343.3	364.9	1.3097e-05	2.3833e-06	416.18	138.29	119.93	40.34	8.9873e-06	50.286	0.00052854	0.00049772	0.0001364	1368.4	5.3229e-06	5.3278e-06	1369.4	373.22	5.3654e-06	5.4348e-06	426.78	141	122.6	41.757	5.5027e-06	52.144	347.709	218.196	254.082	172.568	279.504	292.503	172.340	177.174	328.441	346.949	176.729	180.821	181.183	186.192	321.867	185.049	-8191	255	
28949.090	1	1	0	0	0.15015	0.051859	0.21355	0.090058	0.21168	0.13315	0.016942	0.24658	0.068317	0.13982	0.22723	0.19615	0.20061	0.029531	0.22526	0.043713	-4.4146	-3.8042	-4.65	-4.7312	-3.8812	-4.7792	-4.2458	-4.2625	-4.75	-3.9	-4.6625	-4.4812	-4.0292	-4.8458	-4.0292	-4.2125	195.367	484.986	456.946	346.466	379.867	380.709	410.937	210.442	508.936	357.021	504.404	453.863	309.270	498.770	284.832	469.387	0.001339	0.00048181	0.0001276	1337.5	7.2939e-06	1.0603e-05	1337.2	364.71	1.2331e-05	6.5455e-06	418.19	138.07	119.57	40.426	5.734e-06	49.96	0.00052075	0.00049559	0.00013669	1366.1	5.4397e-06	5.3713e-06	1368.2	372.76	5.4922e-06	5.5131e-06	426.87	140.95	122.36	41.697	5.4567e-06	51.959	351.385	238.089	209.009	172.584	288.195	311.260	172.255	177.073	312.039	309.890	176.318	180.854	181.414	185.848	273.213	185.178	-8191	255	
28949.186	1	1	0	0	0.35099	0.18608	0.13822	0.052383	0.16024	0.21753	0.29217	0.10703	0.078178	0.11976	0.081528	0.28348	0.081979	0.22748	0.090832	0.20743	-4.4542	-3.9083	-4.5854	-4.7042	-3.8958	-4.7521	-4.3646	-4.2625	-4.6833	-4.0146	-4.5583	-4.8958	-3.8271	-4.7	-4.1708	-4.1104	172.811	217.663	485.115	422.129	439.933	247.087	516.187	191.878	352.304	361.610	194.994	464.215	463.974	486.700	448.489	168.865	0.0013772	0.00051321	0.00014398	1338.4	9.0251e-06	6.7508e-06	1344.4	365.01	1.0044e-05	6.8594e-06	417.44	138.24	119.68	40.482	7.3494e-06	49.839	0.00052506	0.00048858	0.00013736	1366.5	5.5248e-06	5.3191e-06	1369.6	372.45	5.3747e-06	5.3482e-06	426.79	140.89	122.59	41.784	5.4275e-06	51.869	345.081	250.013	246.841	172.671	306.510	313.074	172.243	177.068	321.388	287.660	176.425	180.890	181.291	186.256	305.762	185.123	-8191	255	
28949.281	1	1	0	0	0.17218	0.19786	0.074132	0.17356	0.14561	0.26445	0.13485	0.12078	0.1747	0.17916	0.29034	0.11695	0.091534	0.0832	0.19361	0.1567	-4.5833	-3.8604	-4.3146	-4.9458	-3.775	-4.6729	-4.6521	-4.1438	-4.9104	-4.0146	-4.3583	-4.9	-3.9062	-4.6104	-4.5542	-3.9896	500.055	288.267	359.239	442.581	339.932	421.605	425.517	444.387	299.659	385.332	434.771	481.938	323.656	484.419	504.129	413.846	0.0014015	0.00044131	0.00014397	1334.1	7.4828e-06	5.0712e-06	1343	363.82	9.624e-06	3.0218e-06	415.74	137.43	119.32	40.551	4.5431e-06	50.115	0.00052429	0.00049666	0.0001355	1365.5	5.4119e-06	5.3818e-06	1368.4	372.71	5.3187e-06	5.384e-06	426.5	140.69	122.21	41.807	5.4734e-06	51.882	352.568	264.234	275.445	172.706	319.063	313.563	172.177	176.992	306.449	331.868	176.646	180.750	181.229	185.979	310.663	184.960	-8191	255	
28949.379	1	1	0	0	0.21067	0.034947	0.043469	0.24331	0.14055	0.16601	0.017652	0.25214	0.027007	0.18512	0.13861	0.039701	0.10992	0.15324	0.16616	0.32522	-4.5125	-4.2	-4.2063	-4.8396	-3.6854	-4.55	-4.7	-3.9667	-4.8125	-4.1396	-4.425	-4.8688	-4.0021	-4.6625	-4.5896	-3.9583	369.627	313.166	254.225	497.300	206.795	413.121	474.444	430.580	273.822	189.164	429.081	173.154	215.710	477.614	184.969	461.638	0.0013822	0.00021238	0.00012245	1339.1	6.7948e-06	7.0653e-06	1344.2	365.06	1.1486e-05	1.8648e-06	417.53	138.28	119.77	40.531	8.8171e-06	50.089	0.00052679	0.00049678	0.00013594	1366.4	5.4766e-06	5.4641e-06	1370.6	373.32	5.437e-06	5.3912e-06	427.35	140.86	122.64	41.813	5.4509e-06	52.03	351.177	268.330	255.886	172.464	282.833	368.519	172.255	177.012	314.797	345.211	176.298	180.957	181.481	186.127	325.744	184.996	-8191	255	
28949.475	1	1	0	0	0.19672	0.12731	0.062586	0.37821	0.13853	0.2289	0.24668	0.28526	0.18974	0.1638	0.13224	0.22747	0.19637	0.11118	0.18786	0.14123	-4.425	-4.2229	-3.9917	-4.9396	-3.8563	-4.5333	-4.8458	-4.0021	-4.7146	-4.2542	-4.1937	-5.0437	-3.8917	-4.5312	-4.675	-3.8	380.215	438.180	443.708	470.636	394.629	389.551	451.627	433.331	393.245	518.012	266.426	474.421	352.764	507.051	186.271	192.231	0.0013984	0.00041034	0.00011535	1341.3	4.7161e-06	3.1322e-06	1346.5	364.08	8.0654e-06	3.7806e-06	416.66	137.71	119.47	40.479	1.8542e-06	50.334	0.00053091	0.00049665	0.00013861	1367.1	5.4717e-06	5.4046e-06	1369.3	372.73	5.3841e-06	5.3787e-06	426.59	140.96	122.47	41.812	5.3625e-06	52.004	348.783	268.555	250.489	172.558	269.310	295.192	172.375	176.899	309.968	292.082	176.315	180.724	181.229	186.251	365.880	185.027	-8191	255	
#DATA ENDS
