BOXY.EXE: ISS Imagent and Oximeter Data Acquisition Program Version 0.80
Ascii Record File

#ACQ INFORMATION
2  Detector Channels 
16  External MUX Channels 
1  Auxiliary Channels 
5000  Waveform (CCF) Frequency (Hz)
1  Waveforms Skipped 
30  Waveforms Averaged 
1  Cycles Averaged 
16  Acquisitions per Waveform 
10.0806  Updata Rate (Hz) 

#FILE INFORMATION
TRUE -- External MUX Channel results are PARSED.
FALSE -- AC DC and Phase are NOT grouped.
TRUE -- Companion Program Settings File CREATED.
FALSE -- AC data not excluded
FALSE -- DC data not excluded
FALSE -- Phase data not excluded
FALSE -- Auxillary Chn. data not excluded
Tab delimiters

#CALIBRATION STATE
TRUE -- Waveform Calibration Values APPLIED.


#AUX CALIBRATION VALUES
Val Type	aux-1	

Term	1.0000e+00	
Factor	0.0000e+00	


#WF CALIBRATION VALUES
A = Detector Channel
Val Type	A-AC1	A-AC2	A-AC3	A-AC4	A-AC5	A-AC6	A-AC7	A-AC8	A-AC9	A-AC10	A-AC11	A-AC12	A-AC13	A-AC14	A-AC15	A-AC16	A-DC1	A-DC2	A-DC3	A-DC4	A-DC5	A-DC6	A-DC7	A-DC8	A-DC9	A-DC10	A-DC11	A-DC12	A-DC13	A-DC14	A-DC15	A-DC16	A-Ph1	A-Ph2	A-Ph3	A-Ph4	A-Ph5	A-Ph6	A-Ph7	A-Ph8	A-Ph9	A-Ph10	A-Ph11	A-Ph12	A-Ph13	A-Ph14	A-Ph15	A-Ph16	

Term	0.00000e+00	0.00000e+00	0.00000e+00	0.00000e+00	0.00000e+00	0.00000e+00	0.00000e+00	0.00000e+00	0.00000e+00	0.00000e+00	0.00000e+00	0.00000e+00	0.00000e+00	0.00000e+00	0.00000e+00	0.00000e+00	0.00000e+00	0.00000e+00	0.00000e+00	0.00000e+00	0.00000e+00	0.00000e+00	0.00000e+00	0.00000e+00	0.00000e+00	0.00000e+00	0.00000e+00	0.00000e+00	0.00000e+00	0.00000e+00	0.00000e+00	0.00000e+00	0.00000e+00	0.00000e+00	0.00000e+00	0.00000e+00	0.00000e+00	0.00000e+00	0.00000e+00	0.00000e+00	0.00000e+00	0.00000e+00	0.00000e+00	0.00000e+00	0.00000e+00	0.00000e+00	0.00000e+00	0.00000e+00	
Factor	1.00000e+00	1.00000e+00	1.00000e+00	1.00000e+00	1.00000e+00	1.00000e+00	1.00000e+00	1.00000e+00	1.00000e+00	1.00000e+00	1.00000e+00	1.00000e+00	1.00000e+00	1.00000e+00	1.00000e+00	1.00000e+00	1.00000e+00	1.00000e+00	1.00000e+00	1.00000e+00	1.00000e+00	1.00000e+00	1.00000e+00	1.00000e+00	1.00000e+00	1.00000e+00	1.00000e+00	1.00000e+00	1.00000e+00	1.00000e+00	1.00000e+00	1.00000e+00	X	X	X	X	X	X	X	X	X	X	X	X	X	X	X	X	

B = Detector Channel
Val Type	B-AC1	B-AC2	B-AC3	B-AC4	B-AC5	B-AC6	B-AC7	B-AC8	B-AC9	B-AC10	B-AC11	B-AC12	B-AC13	B-AC14	B-AC15	B-AC16	B-DC1	B-DC2	B-DC3	B-DC4	B-DC5	B-DC6	B-DC7	B-DC8	B-DC9	B-DC10	B-DC11	B-DC12	B-DC13	B-DC14	B-DC15	B-DC16	B-Ph1	B-Ph2	B-Ph3	B-Ph4	B-Ph5	B-Ph6	B-Ph7	B-Ph8	B-Ph9	B-Ph10	B-Ph11	B-Ph12	B-Ph13	B-Ph14	B-Ph15	B-Ph16	

Term	0.00000e+00	0.00000e+00	0.00000e+00	0.00000e+00	0.00000e+00	0.00000e+00	0.00000e+00	0.00000e+00	0.00000e+00	0.00000e+00	0.00000e+00	0.00000e+00	0.00000e+00	0.00000e+00	0.00000e+00	0.00000e+00	0.00000e+00	0.00000e+00	0.00000e+00	0.00000e+00	0.00000e+00	0.00000e+00	0.00000e+00	0.00000e+00	0.00000e+00	0.00000e+00	0.00000e+00	0.00000e+00	0.00000e+00	0.00000e+00	0.00000e+00	0.00000e+00	-7.23465e+01	-1.49617e+02	-1.26872e+02	-1.83762e+02	-5.18693e+01	-6.06153e+01	-1.58526e+02	-1.62015e+02	-4.81224e+01	-7.56965e+01	-1.70957e+02	-1.70833e+02	-1.76992e+02	-1.76825e+02	-4.67194e+01	-1.50028e+02	
Factor	1.63432e-05	1.10510e-04	3.48016e-05	1.52478e-01	1.22918e-06	1.22249e-06	1.63273e-01	5.15583e-02	9.18127e-07	1.18410e-06	8.55517e-02	2.92432e-02	2.25317e-02	9.04730e-03	1.05066e-06	1.29668e-02	1.38578e-06	1.45995e-06	4.07899e-07	7.71863e-02	1.59237e-08	1.59708e-08	7.76724e-02	2.61251e-02	1.59683e-08	1.59842e-08	4.15537e-02	1.42499e-02	1.15109e-02	4.55475e-03	1.60640e-08	6.29093e-03	X	X	X	X	X	X	X	X	X	X	X	X	X	X	X	X	



#DISTANCE SETTINGS
A = Detector Channel
A-1	A-2	A-3	A-4	A-5	A-6	A-7	A-8	A-9	A-10	A-11	A-12	A-13	A-14	A-15	A-16	

2.5000e+00	3.0000e+00	2.5000e+00	3.0000e+00	2.0000e+00	3.0000e+00	1.5000e+00	3.0000e+00	3.0000e+00	3.0000e+00	3.0000e+00	3.0000e+00	3.0000e+00	3.0000e+00	1.5000e+00	3.0000e+00	

B = Detector Channel
B-1	B-2	B-3	B-4	B-5	B-6	B-7	B-8	B-9	B-10	B-11	B-12	B-13	B-14	B-15	B-16	

1.0000e+01	1.0000e+01	1.0000e+01	1.4400e+00	1.0000e+01	1.0000e+01	1.5100e+00	1.9400e+00	1.0000e+01	1.0000e+01	1.9900e+00	2.4900e+00	2.4100e+00	2.9000e+00	1.0000e+01	2.9800e+00	




#DATA BEGINS
time	group	step	mark	flag	A-AC1	A-AC2	A-AC3	A-AC4	A-AC5	A-AC6	A-AC7	A-AC8	A-AC9	A-AC10	A-AC11	A-AC12	A-AC13	A-AC14	A-AC15	A-AC16	A-DC1	A-DC2	A-DC3	A-DC4	A-DC5	A-DC6	A-DC7	A-DC8	A-DC9	A-DC10	A-DC11	A-DC12	A-DC13	A-DC14	A-DC15	A-DC16	A-Ph1	A-Ph2	A-Ph3	A-Ph4	A-Ph5	A-Ph6	A-Ph7	A-Ph8	A-Ph9	A-Ph10	A-Ph11	A-Ph12	A-Ph13	A-Ph14	A-Ph15	A-Ph16	B-AC1	B-AC2	B-AC3	B-AC4	B-AC5	B-AC6	B-AC7	B-AC8	B-AC9	B-AC10	B-AC11	B-AC12	B-AC13	B-AC14	B-AC15	B-AC16	B-DC1	B-DC2	B-DC3	B-DC4	B-DC5	B-DC6	B-DC7	B-DC8	B-DC9	B-DC10	B-DC11	B-DC12	B-DC13	B-DC14	B-DC15	B-DC16	B-Ph1	B-Ph2	B-Ph3	B-Ph4	B-Ph5	B-Ph6	B-Ph7	B-Ph8	B-Ph9	B-Ph10	B-Ph11	B-Ph12	B-Ph13	B-Ph14	B-Ph15	B-Ph16	aux-1	digaux	

3547.362	1	1	0	768	0.067847	0.13928	0.17995	0.23992	0.13346	0.23069	0.21378	0.21412	0.18885	0.18085	0.15906	0.28965	0.20637	0.23971	0.15245	0.48587	-2.0042	-2.55	-2.8542	-2.4104	-2.9417	-2.5375	-2.5646	-3.1708	-2.2146	-2.7375	-3.0583	-2.2833	-3.1167	-2.8958	-2.5021	-2.9813	247.281	83.195	53.521	217.084	156.106	-55.193	215.183	260.593	-16.569	-54.691	231.247	290.338	236.877	283.508	12.632	269.170	0.00011508	0.00043934	0.00011917	618.21	1.0989e-05	3.3985e-06	442.25	251.05	4.2602e-06	7.8347e-06	187.36	75.579	102.03	51.852	3.9099e-06	38.021	0.0012814	0.0011908	0.00032764	681.87	1.4275e-05	1.3308e-05	495.97	273.35	1.4529e-05	1.2938e-05	218.01	88.137	111.42	55.326	1.3411e-05	43.221	-57.206	276.442	66.696	-52.129	93.094	46.392	-53.960	-47.135	8.629	92.967	-50.527	-46.633	-42.806	-38.423	182.883	-43.323	-8191	255	
3547.458	1	1	0	0	0.033606	0.19422	0.13888	0.14945	0.030264	0.1244	0.26346	0.040269	0.2011	0.09638	0.1232	0.3302	0.21814	0.13576	0.12057	0.20828	-2.1771	-2.6854	-2.725	-2.4542	-2.8479	-2.6896	-2.5229	-3.0771	-2.5312	-2.6188	-3.0312	-2.1125	-2.9146	-3.2042	-2.1979	-3.1167	-52.744	186.938	-21.321	284.869	242.616	33.468	114.609	83.008	83.867	259.257	220.235	195.964	280.208	213.348	-50.620	122.557	0.00011618	0.0014608	0.00028473	596.58	9.4014e-06	6.1808e-06	432.56	244.25	5.5657e-06	8.6041e-06	184.41	72.599	96.564	48.548	1.0053e-05	36.446	0.0013002	0.0012378	0.00036786	668.31	1.4787e-05	1.4277e-05	498.55	268.57	1.5129e-05	1.3768e-05	218.99	85.711	106.08	52.027	1.5006e-05	41.682	219.541	-23.704	142.440	-51.960	28.501	151.677	-54.056	-47.105	77.352	-0.264	-50.766	-46.301	-42.809	-38.310	187.197	-43.324	-8191	255	
3547.554	1	1	0	0	0.099857	0.26549	0.07233	0.25045	0.066968	0.16902	0.22918	0.14886	0.33026	0.039609	0.059104	0.065425	0.45421	0.15208	0.31779	0.16757	-2.1042	-2.4271	-2.9688	-2.4792	-2.6708	-3.0042	-2.2438	-3.1146	-2.4604	-2.4396	-3	-2.525	-2.7375	-3.1188	-2.2667	-2.9479	88.912	48.767	17.561	-51.336	162.527	190.750	223.096	66.602	264.707	103.963	135.377	159.564	251.084	225.620	-15.296	-62.082	0.00010091	0.00040141	0.00025289	596.62	2.9929e-06	3.4965e-06	437.23	243.46	4.1901e-06	4.0081e-06	187.78	74.812	99.136	51.404	8.0741e-06	38.66	0.0012836	0.0012419	0.00039776	668.16	1.4467e-05	1.4335e-05	509.26	266.64	1.5247e-05	1.4255e-05	226.82	88.627	108.85	55.132	1.7183e-05	44.208	197.667	114.246	131.580	-52.228	-27.726	68.990	-54.292	-46.981	106.909	161.310	-50.512	-46.326	-42.714	-38.197	202.130	-43.105	-8191	255	
3547.650	1	1	0	0	0.060754	0.10896	0.23028	0.43638	0.12001	0.082508	0.11586	0.2519	0.1402	0.20091	0.034442	0.070748	0.092873	0.30355	0.095135	0.13857	-2.4125	-2.4104	-3.0417	-2.5604	-2.5958	-2.85	-2.3958	-2.9854	-2.7542	-2.4562	-3.0292	-2.3208	-2.6854	-3.1208	-2.225	-2.875	42.389	7.460	-1.436	187.393	-46.438	35.634	194.030	237.087	245.760	90.255	106.930	161.146	282.245	-14.005	263.256	256.467	0.00010411	0.00092718	0.00046046	597.97	8.3946e-06	1.1525e-06	443.35	242.84	8.6474e-06	4.8605e-06	189.71	74.172	96.458	49.27	5.734e-06	38.019	0.0013534	0.0013354	0.00044115	671.28	1.4565e-05	1.4788e-05	521.64	266.45	1.4549e-05	1.4228e-05	227.88	86.557	106.03	53.095	1.6451e-05	42.599	223.655	5.997	60.439	-51.777	86.318	141.360	-54.142	-47.038	78.921	183.081	-50.940	-46.426	-42.456	-38.036	-32.947	-42.954	-8191	255	
3547.746	1	1	0	0	0.23775	0.23142	0.1741	0.26516	0.090721	0.21075	0.11522	0.13837	0.33716	0.24283	0.30147	0.13384	0.091353	0.25395	0.22081	0.19697	-2.3292	-2.1854	-2.85	-2.7854	-2.4917	-2.9604	-2.2042	-2.8937	-2.8438	-2.1208	-2.9104	-2.6125	-2.5979	-3.0062	-2.325	-2.6833	9.501	-39.261	216.343	135.762	210.123	223.793	152.356	282.965	141.832	264.578	175.761	-58.475	5.260	255.556	121.313	-10.591	0.00011509	0.00070754	0.00015342	597.2	4.4114e-06	4.211e-06	441.69	243.26	5.694e-06	3.3742e-06	187.86	74.548	98.671	50.774	3.4959e-06	38.629	0.0012229	0.0013049	0.00040895	661.76	1.3163e-05	1.4585e-05	512.6	264.72	1.3429e-05	1.4415e-05	224.93	86.196	107.37	54.664	1.5575e-05	42.885	216.170	136.158	18.909	-52.068	-2.263	173.751	-54.173	-47.059	66.743	293.757	-50.829	-46.180	-42.516	-37.788	-3.447	-43.127	-8191	255	
3547.842	1	1	0	0	0.14437	0.078795	0.050682	0.13454	0.11876	0.30065	0.091892	0.33423	0.031104	0.094111	0.020589	0.31997	0.084138	0.15098	0.090953	0.33642	-2.4958	-2.2542	-2.9188	-2.6521	-2.2292	-3.1667	-2.55	-2.6646	-2.8417	-2.2667	-2.9979	-2.7812	-2.5396	-3.0625	-2.3271	-2.7938	163.123	52.737	6.993	252.223	107.596	141.813	-58.037	268.991	-40.371	270.332	-38.722	-19.476	-27.762	-42.647	235.049	216.787	6.5851e-05	0.00066519	0.00011223	603.76	7.7274e-06	5.1396e-06	445.89	247.39	3.0831e-06	8.4603e-06	193.45	75.58	99.398	50.632	2.8528e-06	38.207	0.0011704	0.0013601	0.00038975	662.3	1.2904e-05	1.5215e-05	513.73	267.35	1.3271e-05	1.5171e-05	225.74	86.624	108.34	54.693	1.4356e-05	42.388	244.967	58.552	5.385	-51.827	-31.291	151.741	-53.734	-46.965	144.224	131.681	-50.781	-46.143	-42.240	-37.828	111.194	-43.484	-8191	255	
3547.963	1	1	0	0	0.069223	0.085053	0.25708	0.10057	0.17645	0.06416	0.17785	0.12519	0.076418	0.18443	0.23442	0.15737	0.15699	0.29835	0.17364	0.055879	-2.6208	-2.2	-2.85	-2.9771	-2.3771	-3.1	-2.6354	-2.8625	-2.7438	-2.2375	-2.9562	-2.6583	-2.3458	-3.2792	-2.6854	-2.5146	-11.676	225.466	163.520	162.198	204.392	104.620	200.869	62.352	192.359	12.952	255.022	246.748	-24.982	-52.898	-22.276	260.276	0.00024048	0.00068512	0.00025895	608.58	3.5043e-06	2.0268e-06	452.33	249.48	4.5895e-06	4.9967e-06	195.55	76.328	99.809	50.876	1.3054e-06	39.101	0.0011407	0.0013561	0.00034939	666.01	1.2705e-05	1.4748e-05	514.99	268.64	1.317e-05	1.48e-05	225.63	87.08	109.44	55.107	1.3466e-05	42.859	239.096	59.893	173.140	-51.522	198.574	198.265	-53.534	-46.828	221.203	68.946	-50.697	-46.071	-42.324	-38.091	-39.822	-42.979	-8191	255	
3548.059	1	1	0	0	0.19373	0.3025	0.040892	0.35926	0.05245	0.15455	0.20972	0.26073	0.28626	0.091829	0.17745	0.16204	0.23958	0.32353	0.16368	0.10434	-2.5	-2.325	-2.7625	-2.8958	-2.2271	-2.7875	-2.6479	-2.5208	-2.9104	-2.2521	-2.625	-2.9917	-2.4625	-3.0125	-2.475	-2.6417	108.771	-18.735	247.932	229.741	161.284	-32.513	-9.942	-13.700	158.458	132.566	108.468	-0.625	264.804	275.090	-40.968	248.767	0.00022412	0.00056259	0.00021227	610.81	7.623e-06	1.369e-05	459.32	249.21	5.415e-06	4.6567e-06	194.84	76.906	100.25	51.846	2.4809e-06	39.016	0.0012001	0.0013532	0.00033299	667.49	1.3565e-05	1.4444e-05	517.2	268.44	1.3988e-05	1.4436e-05	224.3	87.315	110.51	55.803	1.3046e-05	42.999	218.267	40.106	15.125	-51.735	224.487	88.730	-53.973	-46.884	181.127	4.035	-50.519	-46.058	-42.262	-37.848	210.099	-42.859	-8191	255	
3548.155	1	1	0	0	0.25812	0.31115	0.07244	0.22794	0.33903	0.25767	0.024499	0.29643	0.208	0.24551	0.098248	0.13323	0.44714	0.16103	0.15553	0.18956	-2.6708	-2.1979	-2.8604	-3.175	-2.2458	-3.0396	-2.6271	-2.525	-3.1292	-2.4521	-2.5667	-2.7687	-2.4854	-2.9458	-2.6208	-2.4938	62.734	190.142	74.576	272.966	-37.233	290.904	203.553	174.647	263.363	251.002	6.512	-63.200	282.539	229.095	48.096	-25.928	0.00028355	0.00071037	2.4553e-05	601.01	8.5754e-06	9.5965e-06	447.84	248.05	1.8776e-06	1.038e-05	193.9	76.675	101.08	52.575	4.0225e-06	39.329	0.0012437	0.0012805	0.00031814	659.96	1.4254e-05	1.367e-05	504.82	267.01	1.4435e-05	1.3729e-05	221.57	86.921	111.19	55.998	1.2775e-05	43.182	227.670	-61.527	150.137	-51.710	173.203	51.127	-53.545	-47.030	-22.757	62.454	-50.777	-46.392	-42.744	-38.213	67.305	-43.397	-8191	255	
3548.251	1	1	0	0	0.11392	0.24751	0.23117	0.26597	0.16152	0.16411	0.069096	0.19263	0.14021	0.10381	0.068935	0.12893	0.15656	0.20455	0.26692	0.19401	-2.5333	-2.4104	-2.7146	-2.9833	-2.3937	-2.9854	-2.6854	-2.5229	-2.9896	-2.5417	-2.7	-3.1021	-2.2458	-3.075	-2.8563	-2.3187	162.793	126.112	258.003	238.120	242.730	-38.557	225.035	286.799	-64.956	192.225	-56.923	219.544	273.282	271.311	115.537	80.790	0.00016106	0.00041811	0.00012867	604.23	1.2082e-05	5.7832e-06	452.62	250.85	1.6053e-06	6.9945e-06	196.8	77.499	101.32	52.483	9.8744e-07	39.922	0.0012814	0.0012444	0.00031331	662.56	1.4718e-05	1.3107e-05	509.54	270.66	1.4644e-05	1.329e-05	224.01	88.866	111.99	56.296	1.2566e-05	44.261	177.801	4.944	28.074	-51.962	112.193	61.045	-54.000	-47.183	115.105	77.861	-50.493	-46.127	-42.101	-37.742	179.209	-43.032	-8191	255	
3548.347	1	1	0	0	0.17572	0.32623	0.24008	0.1297	0.10887	0.14768	0.059983	0.11366	0.15317	0.04525	0.23086	0.1389	0.24258	0.089281	0.23705	0.21625	-2.7583	-2.5604	-2.3521	-3.3146	-2.4604	-2.6354	-2.9667	-2.5917	-3.0292	-2.6375	-2.7125	-3.1208	-2.6521	-2.8604	-2.9896	-2.2958	289.990	-16.069	212.801	260.428	93.127	159.115	124.861	-8.354	1.687	-29.288	72.980	235.381	228.294	214.079	223.686	-32.983	8.7541e-05	0.0008841	0.00017292	603.39	4.3953e-07	6.6647e-06	461.85	251.85	6.4516e-06	1.3768e-05	199.37	79.155	103	53.815	3.1464e-06	40.86	0.0012653	0.0012003	0.00030955	670.39	1.4443e-05	1.2678e-05	514.71	273.19	1.4119e-05	1.3107e-05	226.4	90.871	112.47	56.868	1.2617e-05	45.438	209.326	8.016	-58.290	-51.839	285.136	15.389	-53.987	-47.298	74.707	46.703	-51.053	-46.282	-42.743	-38.236	198.732	-43.205	-8191	255	
3548.442	1	1	0	0	0.061189	0.16239	0.13118	0.051805	0.28687	0.16035	0.1867	0.092463	0.08558	0.17345	0.16424	0.18807	0.094019	0.22371	0.16194	0.10103	-2.4729	-2.8229	-2.5146	-3.0312	-2.4708	-2.6979	-3.0438	-2.3333	-2.9604	-2.6646	-2.2833	-3.0146	-2.5625	-2.5917	-3.0917	-2.4729	146.467	230.169	269.572	-52.292	11.287	30.057	258.644	271.749	-47.894	256.703	195.070	288.898	242.753	240.980	182.615	39.089	4.2915e-05	0.00067861	0.00014327	609.62	3.1459e-06	4.6222e-06	460.21	251.48	2.8132e-06	5.4792e-06	196.57	78.26	102.01	53.294	3.839e-06	40.182	0.001202	0.0011644	0.00031228	673.71	1.3536e-05	1.2136e-05	516.1	273.36	1.3024e-05	1.2324e-05	225.09	89.954	111.06	56.283	1.2964e-05	44.813	154.299	69.712	118.205	-51.894	167.330	72.437	-54.103	-47.163	-15.662	145.488	-50.632	-46.209	-42.736	-38.061	-33.044	-43.190	-8191	255	
3548.563	1	1	0	0	0.17822	0.061667	0.17681	0.19247	0.13341	0.068934	0.2179	0.092184	0.17821	0.080196	0.10864	0.10051	0.25523	0.30711	0.21432	0.20502	-2.3542	-2.9625	-2.2938	-3.1167	-2.6354	-2.4167	-2.925	-2.5458	-2.85	-2.9792	-2.4021	-2.8958	-2.4208	-2.6542	-2.9938	-2.5042	203.755	281.607	285.330	228.866	261.121	67.543	187.572	-39.850	273.944	293.894	206.911	-56.753	259.254	278.934	67.796	32.856	6.7585e-05	0.00061164	9.9315e-05	603.27	6.189e-06	3.0988e-06	449.22	250.71	3.0539e-06	3.5114e-06	194.43	77.823	101.84	52.833	6.6583e-06	40.29	0.001116	0.0011216	0.00032778	668.11	1.2886e-05	1.1818e-05	513.15	271.99	1.2681e-05	1.2226e-05	225.57	89.382	110.69	56.232	1.3851e-05	44.725	219.127	233.614	93.562	-51.573	100.152	-17.375	-53.771	-46.929	181.548	40.844	-50.884	-46.233	-42.273	-37.880	171.789	-43.227	-8191	255	
3548.659	1	1	0	0	0.2109	0.2202	0.12328	0.20032	0.10536	0.23904	0.14651	0.2207	0.25389	0.11317	0.14064	0.19032	0.16759	0.056669	0.30732	0.047787	-2.2896	-2.7521	-2.2021	-2.9229	-2.6854	-2.4083	-3.1042	-2.5542	-2.6354	-2.8396	-2.4813	-2.9375	-2.7083	-2.3812	-3.0021	-2.675	182.727	228.750	293.681	174.047	130.664	258.833	-1.121	287.949	50.520	98.395	42.040	209.886	16.960	67.916	58.183	108.907	0.00013175	0.00042793	0.0001393	604.43	8.7975e-07	7.3982e-06	458.77	250.93	2.767e-06	1.8389e-06	197.88	78.836	102.64	53.71	5.3948e-06	40.485	0.0010909	0.0011253	0.00035352	667.87	1.2704e-05	1.2044e-05	523.41	272.56	1.2363e-05	1.2557e-05	231.14	89.911	111.44	56.986	1.4575e-05	45.12	258.511	-3.841	160.774	-51.891	-21.449	79.966	-53.758	-46.896	-7.725	23.012	-50.658	-46.289	-42.737	-37.941	282.228	-43.026	-8191	255	
3548.755	1	1	0	0	0.1945	0.10383	0.13845	0.25888	0.088745	0.1524	0.10207	0.16615	0.235	0.18659	0.16459	0.19379	0.34865	0.47281	0.16516	0.24698	-1.9583	-2.9	-2.3625	-2.9833	-2.8875	-2.2979	-2.9938	-2.5458	-2.6104	-2.8083	-2.1854	-2.8021	-2.9062	-2.2938	-2.8312	-2.6583	166.600	105.836	45.129	-50.154	119.998	95.259	63.566	172.315	119.205	169.572	202.029	-60.256	261.766	285.870	-35.847	216.915	8.594e-05	0.00041447	5.7978e-05	608.12	1.0791e-05	3.8768e-06	464.7	251.66	2.5372e-06	1.9827e-06	200.59	79.7	102.56	53.74	5.3547e-06	40.841	0.0010795	0.0011734	0.00037164	667.32	1.2595e-05	1.2641e-05	531.3	273.07	1.2061e-05	1.3106e-05	233.96	90.04	111.8	57.368	1.427e-05	44.891	202.878	46.304	76.683	-51.674	114.015	280.211	-53.701	-46.528	131.192	176.370	-50.746	-46.222	-42.265	-38.253	86.193	-43.063	-8191	255	
3548.851	1	1	0	0	0.17852	0.31832	0.32638	0.18722	0.22948	0.11697	0.32797	0.032096	0.12961	0.2003	0.16163	0.27478	0.042036	0.14977	0.26686	0.19415	-1.9521	-2.7104	-2.4333	-2.8792	-2.7042	-2.2646	-3.0854	-2.7771	-2.3875	-2.9813	-2.5146	-2.7667	-2.8125	-2.4062	-2.9125	-2.5687	125.092	-60.417	114.961	287.178	120.566	227.178	-39.743	-53.132	142.416	137.989	235.407	258.387	-62.361	72.926	-40.761	179.062	0.00014018	0.00052592	0.00015768	609.46	7.6342e-06	9.1012e-06	461.44	251.82	2.0009e-06	8.0255e-06	199.03	78.354	102.37	53.42	7.0272e-06	40.182	0.0010435	0.0012178	0.00035938	664.39	1.2169e-05	1.3373e-05	522.83	270.89	1.1768e-05	1.3686e-05	229.72	88.332	110.62	56.905	1.356e-05	44	269.148	79.664	87.284	-52.108	70.188	177.988	-53.896	-47.070	247.399	192.336	-50.856	-46.761	-42.714	-38.283	113.443	-43.223	-8191	255	
3548.923	1	1	0	0	0.19484	0.10933	0.23792	0.16111	0.086099	0.31124	0.17954	0.11709	0.064497	0.1355	0.14472	0.083394	0.15849	0.20611	0.24983	0.22565	-2.1167	-2.9271	-2.425	-2.6021	-2.875	-2.2979	-2.8458	-2.6208	-2.2958	-3.0792	-2.5938	-2.3646	-3.0938	-2.4875	-2.7146	-2.7479	197.256	-18.447	23.877	93.573	-52.849	257.289	29.285	-61.843	-46.147	279.130	107.192	180.016	273.805	289.400	74.264	214.385	0.00015677	0.00031556	0.00038459	604.91	2.507e-06	7.5509e-06	461.32	251.21	9.9026e-07	4.2145e-06	198.59	78.716	103.11	53.846	8.5422e-06	40.795	0.0010401	0.001279	0.00034445	658.47	1.2236e-05	1.4031e-05	517.54	269.91	1.2143e-05	1.431e-05	229.29	88.629	111.73	57.675	1.3248e-05	44.67	202.710	77.859	-3.407	-52.033	97.022	111.779	-54.192	-46.854	-20.232	158.797	-50.357	-46.444	-42.609	-38.048	118.686	-43.297	-8191	255	
3549.043	1	1	0	0	0.23394	0.1165	0.15893	0.18184	0.082106	0.18166	0.16853	0.11007	0.034387	0.036557	0.065328	0.14285	0.16824	0.050476	0.22983	0.028949	-1.6583	-2.7708	-2.6042	-2.6833	-2.9604	-2.3792	-2.7542	-2.7708	-2.3333	-2.9313	-2.4146	-2.4271	-2.8771	-2.4813	-2.7271	-2.9292	115.952	61.379	-56.440	235.268	58.933	179.029	216.638	173.234	194.345	141.047	153.202	8.173	294.048	112.481	-38.363	-20.040	0.00018792	0.00033708	0.0001675	610.46	6.6336e-06	1.3289e-06	465.18	254.5	4.0179e-06	8.0044e-06	204.68	80.679	103.92	54.457	4.8019e-06	41.262	0.0011214	0.0013304	0.00034011	662.34	1.3091e-05	1.4548e-05	522.42	272.46	1.3152e-05	1.4304e-05	232.09	89.895	113.45	58.069	1.2644e-05	45.121	210.393	-49.196	23.496	-52.130	133.457	-51.022	-53.977	-47.165	212.354	89.839	-50.616	-46.498	-42.647	-37.913	80.189	-43.216	-8191	255	
3549.139	1	1	0	0	0.30164	0.20755	0.08312	0.05517	0.046078	0.14496	0.21032	0.18195	0.17846	0.2379	0.09307	0.22825	0.016839	0.32961	0.10356	0.21928	-1.9188	-3.0083	-2.325	-2.5542	-2.8417	-2.3125	-2.8187	-2.8771	-2.1813	-3.0375	-2.6896	-2.4396	-3.0667	-2.5521	-2.7396	-2.9188	-9.966	159.559	-61.910	6.482	-0.196	179.979	-49.227	216.208	13.484	110.285	224.066	26.999	170.129	246.424	139.638	292.191	0.00028137	0.00037943	0.0002446	613.01	8.4483e-07	1.3828e-05	475.32	253.62	3.8797e-06	3.8861e-06	204.63	81.203	104.7	54.586	8.3332e-07	41.123	0.00119	0.0012843	0.00032865	665.04	1.3939e-05	1.4112e-05	526.73	273.02	1.403e-05	1.3814e-05	232.3	90.72	114.16	58.053	1.2302e-05	45.172	218.884	-41.558	47.058	-52.027	-8.840	39.274	-54.062	-47.069	262.545	44.732	-51.021	-46.504	-42.494	-38.061	47.758	-42.907	-8191	255	
3549.236	1	1	0	0	0.25204	0.2184	0.182	0.16299	0.15335	0.23014	0.28235	0.20681	0.088189	0.11853	0.13755	0.20919	0.14369	0.13719	0.11499	0.052446	-2.0771	-2.8854	-2.6896	-2.5604	-2.8896	-2.4354	-2.6688	-2.9667	-2.2208	-2.9958	-2.6667	-2.3792	-3.175	-2.5271	-2.2979	-3.225	158.891	120.606	101.327	256.149	2.995	240.705	212.581	189.029	188.326	218.557	230.544	204.341	49.762	250.660	82.843	-12.171	0.00014824	0.0011964	0.00012966	608.65	1.1226e-06	8.5325e-06	462.4	252.88	7.6579e-06	5.3464e-06	199.76	78.638	102.69	53.989	2.6307e-06	40.939	0.0012496	0.0012156	0.00031974	662.01	1.4364e-05	1.3405e-05	515.16	271.26	1.4415e-05	1.3068e-05	227.07	89.309	113.18	57.51	1.2098e-05	45.235	201.521	-54.524	282.517	-52.174	166.026	28.392	-53.982	-47.147	123.350	-25.148	-50.971	-46.107	-42.558	-37.719	13.465	-43.128	-8191	255	
3549.332	1	1	0	0	0.16592	0.14324	0.26089	0.22409	0.023218	0.15921	0.22586	0.088395	0.38735	0.12622	0.19899	0.27008	0.31215	0.28444	0.15883	0.083997	-1.7979	-2.7104	-2.7812	-2.1771	-2.6646	-2.4188	-2.6521	-2.8521	-2.0896	-2.825	-2.7521	-2.3583	-2.8812	-2.9	-2.3958	-2.9021	152.503	106.598	228.270	-53.669	-9.187	83.488	210.282	240.146	188.284	91.594	221.997	158.600	255.987	-52.930	197.100	262.468	4.1582e-05	0.00015577	0.00019403	605.82	3.5359e-06	9.3116e-06	462.59	252.28	5.8423e-06	4.4936e-06	199.77	80.241	104.92	55.29	2.0963e-06	41.803	0.0012693	0.0011742	0.00031722	663.75	1.4292e-05	1.3014e-05	514.69	272.66	1.4465e-05	1.2634e-05	227.6	91.357	114.22	58.56	1.2196e-05	46.329	-45.301	246.840	-41.421	-51.942	5.160	-7.960	-53.941	-47.010	-34.941	-20.273	-50.845	-46.504	-42.764	-38.001	225.187	-43.206	-8191	255	
3549.451	1	1	0	0	0.20373	0.14985	0.24289	0.27889	0.26033	0.20118	0.14885	0.10688	0.13238	0.041589	0.16407	0.22832	0.31766	0.12327	0.17174	0.047109	-1.8583	-2.6333	-2.8729	-2.275	-2.9833	-2.6708	-2.4958	-3.1771	-2.4938	-2.5417	-2.6542	-2.3042	-2.7917	-2.5208	-2.4313	-3.2667	55.236	253.228	135.175	294.387	-32.010	-17.371	-62.096	155.866	102.245	233.659	49.432	269.463	183.965	193.546	-11.750	164.369	5.6969e-05	0.00061228	0.00019739	603.72	1.0031e-05	3.553e-06	464.39	251.12	5.7851e-06	9.3601e-06	201.51	81.702	105.75	55.598	7.7775e-06	42.284	0.0012609	0.0011653	0.00032201	668.17	1.4076e-05	1.3093e-05	518.48	274.47	1.4213e-05	1.2571e-05	230.24	93.455	114.72	59.111	1.2786e-05	47.09	244.678	-0.964	22.194	-52.022	65.598	62.431	-54.069	-47.003	63.483	40.701	-50.517	-46.641	-42.613	-38.343	-36.144	-43.290	-8191	255	
3549.524	1	1	0	0	0.068971	0.25998	0.056513	0.28305	0.13512	0.12479	0.098746	0.11586	0.14741	0.19322	0.18933	0.27836	0.14915	0.47054	0.14121	0.12798	-1.9021	-2.4729	-2.9896	-2.4938	-2.8167	-2.6792	-2.5583	-3.0062	-2.4083	-2.7083	-2.9958	-2.2958	-3	-2.8875	-2.2667	-2.8896	165.007	-39.238	38.305	214.631	195.231	241.270	-45.315	-62.013	-64.580	34.564	231.136	239.396	-33.325	-63.712	160.179	-30.068	6.334e-05	0.00061377	0.00010644	607.51	1.0339e-05	7.6806e-06	464.93	251.77	6.844e-06	5.4979e-06	201.64	81.029	104.54	55.611	6.6641e-06	42.102	0.0012112	0.001128	0.00033594	672.67	1.3281e-05	1.2744e-05	526.15	274.87	1.3385e-05	1.2148e-05	232.14	93.201	113.92	58.986	1.3435e-05	46.692	161.667	-9.564	161.750	-52.419	29.327	-44.313	-54.245	-47.022	109.444	84.688	-50.216	-46.117	-42.678	-38.026	183.536	-42.789	-8191	255	
3549.643	1	1	0	0	0.29684	0.18817	0.11028	0.2003	0.081413	0.29828	0.23337	0.081851	0.17904	0.18626	0.382	0.14193	0.22571	0.2186	0.070249	0.13949	-2.2604	-2.3792	-2.8146	-2.2979	-2.7146	-2.8937	-2.4271	-3.1521	-2.5146	-2.2958	-3.0958	-2.5021	-2.4042	-3.2	-2.3937	-2.9167	172.307	59.886	55.839	-18.883	276.015	223.089	288.610	-22.605	0.223	139.541	-31.732	278.955	210.317	-39.057	31.189	192.224	0.00010008	0.00097635	0.00030633	599.88	1.3625e-05	2.319e-06	458.87	250.72	6.3201e-06	1.4532e-06	197.88	79.817	104.15	55.189	8.4487e-06	41.34	0.0011492	0.0010915	0.00035017	664.53	1.2559e-05	1.2346e-05	520.98	271.45	1.2971e-05	1.2008e-05	230.26	91.363	112.81	58.584	1.4308e-05	45.966	200.887	-9.641	213.363	-51.875	77.459	195.797	-54.089	-46.881	164.295	-18.300	-50.969	-45.912	-42.525	-37.828	237.886	-43.057	-8191	255	
3549.739	1	1	0	0	0.16435	0.22474	0.18779	0.41915	0.057186	0.1209	0.1467	0.136	0.16104	0.084728	0.20355	0.23369	0.29265	0.064872	0.30967	0.098526	-2.3	-2.4521	-2.9104	-2.4437	-2.6958	-2.9854	-2.1646	-3.0292	-2.8729	-2.2729	-3.1042	-2.5583	-2.6792	-3.0604	-2.5833	-2.8917	20.698	-5.826	176.692	276.230	-19.611	218.249	265.918	-16.280	99.880	108.455	-48.456	245.554	188.597	-30.234	258.368	-57.987	9.6507e-05	0.000346	4.0402e-05	597.76	1.231e-05	8.7486e-06	460.87	248.94	3.6002e-06	4.4215e-06	200.39	79.974	103.94	54.775	3.1003e-06	41.899	0.0011214	0.0011063	0.00036842	661.88	1.2254e-05	1.2646e-05	527.26	270.51	1.2632e-05	1.2473e-05	233.93	91.049	112.38	58.474	1.4594e-05	45.903	293.524	188.594	142.540	-51.890	36.220	185.542	-53.792	-46.765	90.193	189.541	-50.582	-46.145	-42.397	-37.802	-56.074	-43.179	-8191	255	
3549.835	1	1	0	0	0.13227	0.16209	0.14821	0.12206	0.14355	0.21734	0.10913	0.033708	0.22036	0.23862	0.23942	0.1916	0.13418	0.21017	0.19562	0.20016	-2.3958	-2.3875	-3.0146	-2.5458	-2.7021	-2.8458	-2.4917	-2.7646	-2.7667	-2.2188	-2.9958	-2.575	-2.3688	-3.1063	-2.3438	-2.7062	262.995	290.655	145.248	185.945	-43.345	115.724	136.765	242.058	222.017	59.806	-8.996	226.223	198.785	288.168	-57.645	291.560	0.00010054	0.00032188	0.00013567	605.54	8.6353e-06	5.7817e-06	464.31	251.82	6.6825e-06	3.3805e-06	203.42	82.75	105.8	56.141	1.9184e-06	42.539	0.0010916	0.0011687	0.00036857	662.42	1.1941e-05	1.3335e-05	531.3	271.24	1.2348e-05	1.325e-05	234.76	92.133	113.55	59.655	1.4057e-05	46.3	169.534	77.075	28.401	-51.697	86.118	191.267	-53.804	-47.269	200.104	176.110	-50.637	-46.426	-42.797	-38.380	131.761	-43.255	-8191	255	
3549.931	1	1	0	0	0.13303	0.32229	0.14697	0.3485	0.17842	0.10925	0.14284	0.11645	0.13718	0.14649	0.26401	0.16658	0.33027	0.26448	0.14845	0.21542	-2.2417	-2.3771	-2.9708	-2.5979	-2.2021	-3.0583	-2.3604	-2.8	-2.7833	-2.2417	-2.9562	-2.5521	-2.2167	-3.3521	-2.6375	-2.5812	93.839	254.370	-36.804	4.939	-58.977	-4.523	239.049	-59.087	51.551	135.971	278.297	195.077	279.591	268.270	146.245	277.559	0.00017077	0.00090955	0.0002482	610.14	4.226e-06	5.2691e-06	469.11	251.88	2.5828e-06	2.9885e-06	201.43	81.253	104.39	55.45	7.6544e-06	41.838	0.0010677	0.0012457	0.00035118	663.42	1.1692e-05	1.388e-05	529.43	270.5	1.2227e-05	1.387e-05	231.18	90.816	112.79	59.143	1.3477e-05	45.415	215.063	-3.306	16.007	-51.920	-57.860	152.522	-54.042	-46.835	-33.332	191.496	-50.471	-46.249	-42.675	-38.120	69.250	-43.372	-8191	255	
3550.052	1	1	0	0	0.2686	0.046089	0.2802	0.24051	0.18166	0.064285	0.20593	0.21364	0.12819	0.11638	0.27714	0.20125	0.15485	0.30835	0.19061	0.12899	-2.5438	-2.4458	-2.5667	-2.5271	-2.1979	-3.2542	-2.5333	-2.6437	-2.8312	-2.2062	-2.9062	-2.6896	-2.4437	-2.9583	-2.5792	-2.7542	-25.386	17.658	284.823	291.547	126.838	19.085	237.538	250.718	89.235	-27.030	60.434	-64.709	250.620	-39.551	56.088	256.785	0.00018876	0.0006979	0.00016561	601.28	3.9502e-06	2.2168e-06	460.34	248.83	9.71e-06	9.2983e-06	199.93	80.003	104.42	55.361	2.3594e-06	41.939	0.0010817	0.0012924	0.00033032	654.41	1.2188e-05	1.4193e-05	518.95	267.57	1.2675e-05	1.4251e-05	227.54	89.906	113.57	59.395	1.3033e-05	45.574	236.958	90.603	33.731	-51.814	279.589	36.161	-53.646	-46.916	225.931	64.239	-50.653	-46.193	-42.528	-37.793	210.145	-42.990	-8191	255	
3550.148	1	1	0	0	0.11501	0.11031	0.2515	0.18032	0.16721	0.1685	0.17329	0.14849	0.1336	0.041247	0.10224	0.089503	0.21775	0.0077109	0.26322	0.1007	-2.5062	-2.0479	-2.6771	-2.7771	-2.3104	-2.7604	-2.3563	-2.6146	-2.9458	-2.4042	-2.8208	-2.8104	-2.3875	-3.0521	-2.3125	-2.4708	-54.352	81.716	-31.115	-8.648	-3.452	45.227	237.620	216.654	192.429	97.341	94.852	235.112	218.209	-12.424	149.992	116.802	0.00022425	0.00061933	0.00018707	596.94	8.3103e-06	1.4408e-05	465.56	250.53	6.6059e-06	7.3606e-06	201.13	81.854	105.36	56.007	4.0661e-06	42.611	0.0011551	0.0012997	0.00031866	654.68	1.3187e-05	1.4019e-05	522.26	269.1	1.3661e-05	1.4169e-05	229.38	91.438	115.11	59.848	1.2791e-05	46.211	191.832	-40.752	285.363	-51.563	257.065	62.200	-53.999	-47.203	225.265	-33.686	-50.609	-46.072	-42.377	-37.780	62.385	-43.231	-8191	255	
3550.220	1	1	0	0	0.16243	0.10623	0.23269	0.10345	0.30382	0.17888	0.12745	0.23387	0.14748	0.019751	0.14997	0.17856	0.022691	0.10035	0.21175	0.35768	-2.5146	-2.4688	-2.6188	-3	-2.1896	-2.8187	-2.6646	-2.3563	-3.0854	-2.2438	-2.6063	-3.0021	-2.5167	-2.8146	-2.775	-2.3771	-2.947	46.808	19.862	-51.902	130.936	41.832	180.012	277.270	206.424	45.143	186.214	256.802	161.076	293.196	146.566	238.295	8.5132e-05	0.00090988	4.9859e-05	602.34	6.6291e-06	7.6953e-06	468.98	253.06	1.395e-06	6.9217e-06	204.42	82.721	106.82	56.877	1.5904e-06	42.88	0.001229	0.0012549	0.00031299	659.03	1.415e-05	1.3473e-05	525.3	271.52	1.4306e-05	1.3459e-05	230.84	92.741	116.65	60.246	1.2423e-05	46.766	223.818	-36.442	-27.858	-51.787	141.700	34.926	-54.282	-46.990	290.397	79.684	-51.149	-46.182	-42.499	-38.261	73.202	-43.095	-8191	255	
3550.340	1	1	0	0	0.14002	0.18275	0.14914	0.11989	0.14329	0.066185	0.051263	0.1834	0.16518	0.16136	0.054906	0.10909	0.039331	0.20559	0.10707	0.12942	-2.4708	-2.2896	-2.6104	-3.0938	-2.3354	-2.7938	-2.9396	-2.3896	-2.9625	-2.3438	-2.625	-2.9	-2.4917	-2.9021	-2.7438	-2.3271	-20.124	127.689	170.087	-23.304	191.700	-39.042	234.401	-19.399	-35.540	168.363	-19.049	58.530	42.151	278.611	284.166	273.184	0.00012136	0.00067494	0.00031617	602.53	2.8344e-06	3.5462e-06	465.99	249.91	5.4737e-06	5.9694e-06	202.24	80.712	105.16	55.746	1.7373e-06	42.121	0.0012545	0.0012047	0.00030351	661.76	1.4226e-05	1.264e-05	521.27	271.25	1.4217e-05	1.2844e-05	227.22	92.202	115.37	59.407	1.2043e-05	46.423	218.485	-5.342	285.017	-51.509	42.576	46.076	-53.633	-46.907	45.111	55.722	-50.529	-45.861	-42.347	-38.011	-43.691	-43.277	-8191	255	
3550.435	1	1	0	0	0.29019	0.20611	0.15235	0.20435	0.04721	0.25297	0.13687	0.22266	0.20227	0.25716	0.099713	0.12588	0.096853	0.32797	0.0578	0.24751	-2.7354	-2.45	-2.4021	-3.0625	-2.5333	-2.675	-2.85	-2.4042	-3.0083	-2.65	-2.5667	-2.9292	-2.3604	-2.8292	-3.0167	-2.2042	289.544	174.842	117.574	270.038	125.571	107.225	124.536	167.025	-13.790	18.176	255.507	269.108	166.912	272.258	-57.457	245.981	2.8265e-05	0.00044235	0.00018598	602.48	2.6615e-06	8.1622e-06	462.49	251.32	5.5096e-06	8.636e-06	201.8	81.709	105.86	56.117	3.0103e-06	42.359	0.0012059	0.0011493	0.00029435	662.76	1.3755e-05	1.2115e-05	516.88	272.5	1.3441e-05	1.2454e-05	227.76	92.872	115.06	59.233	1.2337e-05	46.933	294.388	-14.182	71.466	-51.647	187.698	14.736	-53.752	-47.200	105.264	57.862	-50.851	-46.237	-42.469	-38.073	189.088	-43.371	-8191	255	
3550.531	1	1	0	0	0.1687	0.24399	0.25481	0.12241	0.21164	0.039168	0.087727	0.3424	0.095671	0.045203	0.26084	0.28664	0.11363	0.068203	0.10041	0.14835	-2.4521	-2.7562	-2.2875	-3.0229	-2.2938	-2.4979	-3.0208	-2.5062	-2.9875	-2.8438	-2.2938	-2.8854	-2.7375	-2.6937	-2.8458	-2.3542	160.505	-12.972	155.526	34.517	7.545	214.618	142.116	-63.130	182.120	-12.451	81.078	-31.420	279.038	227.704	265.532	179.891	4.1876e-05	0.00040012	9.9898e-05	609.29	4.6106e-06	1.1761e-05	473.31	254.16	6.4021e-06	1.4265e-06	203.77	81.807	105.72	55.797	7.172e-06	42.45	0.0011683	0.0011351	0.00030666	671.63	1.3344e-05	1.202e-05	525.87	275.54	1.2907e-05	1.2244e-05	231.45	93.475	114.61	58.866	1.2733e-05	47.018	36.170	45.258	14.615	-51.889	61.821	77.773	-54.051	-47.087	89.230	172.959	-50.782	-46.413	-42.520	-38.035	253.341	-43.347	-8191	255	
3550.627	1	1	0	0	0.24153	0.069709	0.30467	0.052542	0.13202	0.17556	0.13606	0.44106	0.13865	0.24156	0.1718	0.11362	0.19388	0.20471	0.12831	0.068775	-2.3667	-2.8833	-2.1937	-2.9479	-2.4333	-2.5062	-2.9646	-2.3833	-2.7896	-2.8438	-2.4167	-2.8479	-2.6312	-2.6083	-2.7021	-2.3729	273.969	-22.083	38.476	155.871	138.702	115.324	143.420	246.215	187.110	-55.928	213.375	-3.873	187.803	225.442	14.159	231.543	0.00014411	0.00023691	0.00018549	614.39	7.8505e-06	6.8417e-06	478.37	254.28	7.4946e-06	6.8436e-06	205.82	82.213	105.73	55.648	6.4099e-06	42.512	0.0010998	0.0010995	0.00032277	674.74	1.2569e-05	1.1587e-05	534.88	276.19	1.227e-05	1.1878e-05	234.85	93.277	114.01	58.699	1.3488e-05	46.838	237.211	54.552	31.100	-51.819	132.726	70.991	-53.674	-47.056	99.184	89.223	-50.849	-46.284	-42.256	-37.855	193.571	-43.417	-8191	255	
3550.748	1	1	0	0	0.27267	0.15579	0.16261	0.25085	0.14867	0.091823	0.1159	0.15705	0.35415	0.30848	0.24411	0.33028	0.17546	0.16859	0.17741	0.19578	-2.3187	-2.8292	-1.9937	-2.9688	-2.75	-2.3958	-3.0375	-2.4021	-2.625	-3.0396	-2.1021	-2.7896	-2.8812	-2.2812	-3.0042	-2.5521	106.806	230.548	-60.214	242.603	-35.559	-61.698	6.020	-61.219	-2.660	-43.354	245.288	-48.356	166.421	246.121	145.024	262.330	6.5577e-05	0.00056913	0.00010388	606.8	7.3587e-06	7.7171e-06	467.97	250.19	2.8386e-06	7.0743e-06	201.43	80.235	103.83	54.622	7.5872e-06	41.537	0.0010651	0.0010877	0.00034275	667.67	1.2279e-05	1.1606e-05	530.38	271.82	1.1937e-05	1.2006e-05	232.96	90.837	112.19	57.983	1.4059e-05	45.921	254.970	-46.229	71.006	-51.933	11.527	167.132	-53.918	-46.900	84.199	140.470	-50.527	-46.311	-42.441	-37.981	204.999	-43.188	-8191	255	
3550.819	1	1	0	0	0.15494	0.10686	0.14521	0.094392	0.14992	0.051149	0.18919	0.16528	0.21891	0.26124	0.14256	0.083485	0.28521	0.27796	0.17623	0.22555	-1.9625	-2.8854	-2.4958	-2.9313	-2.6625	-2.5667	-3.1813	-2.3083	-2.6271	-2.9125	-2.0979	-3.0104	-2.8417	-2.2896	-3.0083	-2.3438	158.958	150.262	147.062	162.451	208.173	-5.089	173.471	59.241	-53.343	189.684	-46.894	15.760	-36.805	257.955	-64.685	183.338	0.00012266	0.00032733	0.00018896	602.94	4.5323e-06	4.1442e-06	463.09	249.79	3.7112e-06	4.7659e-06	200.94	80.215	103.36	54.188	3.4507e-06	41.345	0.0010515	0.0011418	0.00036362	660.02	1.2273e-05	1.25e-05	529.56	270.54	1.1923e-05	1.304e-05	234.39	90.684	111.91	57.863	1.4251e-05	45.549	237.502	231.598	15.239	-52.069	79.812	177.932	-53.913	-47.013	45.153	154.505	-50.516	-46.513	-42.223	-37.969	17.533	-43.147	-8191	255	
3550.916	1	1	0	0	0.24189	0.26392	0.25079	0.12165	0.083083	0.10121	0.13971	0.11268	0.23902	0.26186	0.36862	0.062459	0.051454	0.25494	0.098282	0.044668	-2.0729	-2.7979	-2.1188	-2.7188	-2.8312	-2.2979	-2.8583	-2.8458	-2.3583	-3.0958	-2.2333	-2.7188	-3.1	-2.1479	-2.8167	-2.8292	139.913	187.327	93.831	218.011	277.130	162.805	-63.333	169.259	23.842	152.327	90.134	37.927	174.516	-51.849	160.910	4.615	8.0205e-05	0.00048026	0.00011759	605.8	4.1147e-06	1.0479e-05	470.64	251.14	7.8813e-07	7.0165e-06	206	81.008	104.62	54.925	8.4315e-06	42.17	0.0010427	0.0012186	0.00036256	663.28	1.2132e-05	1.3428e-05	534.01	271.14	1.1867e-05	1.3821e-05	236.11	91.127	112.95	58.617	1.3801e-05	46.199	-60.789	230.847	19.054	-52.018	35.857	222.650	-53.975	-46.902	34.379	161.281	-50.500	-46.306	-42.601	-38.206	79.655	-43.212	-8191	255	
3551.012	1	1	0	0	0.23467	0.33347	0.027818	0.031884	0.08879	0.28076	0.16815	0.31535	0.26647	0.17113	0.18603	0.19821	0.079053	0.01531	0.014056	0.019509	-1.85	-2.8771	-2.3917	-2.6271	-2.6875	-2.1104	-3.0625	-2.7396	-2.2562	-2.95	-2.4979	-2.5354	-2.875	-2.3708	-2.7646	-2.8187	271.546	22.832	109.327	-63.902	5.992	152.938	289.389	-9.683	49.164	-5.181	169.891	-46.082	-45.865	123.634	198.729	13.168	0.00011322	0.00036284	5.2649e-05	608.33	4.5668e-06	9.5831e-06	473.51	252.42	2.0726e-06	6.0974e-06	204.02	80.633	103.61	53.599	8.0325e-06	41.263	0.0010512	0.0012977	0.00035213	664.5	1.2447e-05	1.4184e-05	535.57	272.36	1.224e-05	1.4242e-05	234.8	90.49	112.25	57.826	1.2702e-05	45.057	195.222	7.461	-18.472	-52.053	73.880	102.392	-53.875	-46.926	220.999	129.749	-50.120	-45.967	-42.232	-38.047	111.693	-43.077	-8191	255	
3551.132	1	1	0	0	0.23787	0.13308	0.09818	0.29292	0.20098	0.10839	0.17456	0.13308	0.092536	0.16523	0.21257	0.097867	0.099278	0.15538	0.13924	0.33047	-2.0812	-2.9562	-2.4229	-2.675	-3.0687	-2.1167	-2.9417	-2.9437	-2.3333	-2.9208	-2.7208	-2.5792	-2.8854	-2.2479	-2.5125	-2.8979	106.158	122.237	-38.130	136.390	209.624	117.102	293.173	0.802	114.545	48.397	168.411	36.099	-25.539	274.410	156.097	259.576	0.00022349	0.00074913	0.0001758	606.02	6.9192e-06	2.2203e-06	463.17	250.11	8.2938e-06	1.3988e-05	202.5	79.986	103.24	54.149	6.1294e-06	41.696	0.0010669	0.0012594	0.00031995	658.06	1.2415e-05	1.3727e-05	518.66	268.88	1.258e-05	1.3683e-05	230.11	89.03	112.3	57.916	1.242e-05	45.362	205.012	294.213	-19.051	-51.961	133.526	106.372	-53.809	-46.817	206.502	30.021	-50.657	-46.190	-42.597	-37.741	219.418	-42.826	-8191	255	
3551.229	1	1	0	0	0.19739	0.12547	0.18962	0.072448	0.16004	0.080808	0.12282	0.51725	0.22588	0.038842	0.1712	0.37656	0.20543	0.28701	0.25539	0.15194	-1.9792	-3	-2.4188	-2.4083	-2.9958	-2.4229	-2.6354	-2.875	-2.0479	-2.9188	-2.7458	-2.5146	-3.1021	-2.65	-2.4646	-2.9229	174.539	-21.905	-22.669	255.791	-2.191	102.555	95.804	172.974	18.653	92.436	220.463	183.934	187.142	257.334	-3.887	192.568	0.00014067	0.00064881	0.00021051	600.8	7.2404e-06	4.1668e-07	468.49	251.4	8.4189e-06	1.0301e-05	204.37	81.072	104.11	54.8	5.0009e-06	41.521	0.0011677	0.0012728	0.00032466	655.67	1.387e-05	1.4062e-05	523.69	271.34	1.4021e-05	1.3696e-05	232.43	90.874	114.01	58.257	1.2145e-05	45.592	207.826	15.227	15.048	-51.551	182.922	-50.687	-53.899	-46.809	201.071	56.449	-50.515	-46.161	-42.367	-37.891	79.731	-42.700	-8191	255	
3551.325	1	1	0	0	0.11286	0.16919	0.28075	0.33635	0.14264	0.2416	0.29133	0.10464	0.33074	0.10165	0.14165	0.2334	0.24646	0.18713	0.2496	0.21535	-1.6521	-2.7438	-2.6375	-2.4813	-2.7958	-2.3292	-2.4229	-3.0729	-2.3146	-3.0792	-2.7917	-2.2271	-3.1688	-2.5646	-2.5292	-3.0229	165.149	132.710	116.295	276.288	28.407	52.474	283.638	136.418	128.926	187.385	-28.066	-13.619	-29.459	293.323	-48.518	187.053	0.00012558	0.00087501	0.00018893	610.47	1.4542e-06	4.0128e-06	476.69	251.22	6.3352e-06	1.056e-05	207.64	81.558	105.29	55.289	5.9995e-06	42.615	0.0012268	0.001199	0.00031167	663.92	1.4006e-05	1.3104e-05	526.31	272.89	1.4143e-05	1.2819e-05	233.89	92.247	115.26	58.797	1.1838e-05	46.838	199.779	-27.917	28.235	-51.760	151.930	248.993	-53.812	-46.618	39.856	30.025	-50.479	-46.026	-42.339	-38.009	162.798	-43.196	-8191	255	
3551.419	1	1	0	0	0.22958	0.1618	0.17035	0.20821	0.064612	0.12577	0.052047	0.25679	0.13726	0.12421	0.060546	0.079818	0.25249	0.25664	0.15135	0.20265	-1.8646	-2.4958	-2.65	-2.35	-2.7708	-2.4333	-2.5312	-3.0708	-2.4313	-2.8354	-2.8042	-2.3833	-2.9521	-2.6271	-2.2875	-2.9292	58.367	245.505	8.707	228.033	53.929	164.015	192.971	222.181	-58.400	157.108	188.999	86.282	-39.125	159.870	4.471	-50.316	0.00013501	0.00075376	0.00022898	613.26	8.4593e-06	3.0625e-06	481.8	256.73	4.0676e-06	1.3178e-05	208.18	82.428	105.34	54.894	4.7645e-06	42.185	0.0012416	0.0011393	0.00030749	671.28	1.3788e-05	1.2551e-05	531.5	276.84	1.3643e-05	1.2067e-05	234.21	93.031	114.29	58.224	1.1471e-05	46.53	205.964	10.251	149.108	-52.136	122.572	39.296	-54.157	-47.067	69.459	43.943	-50.826	-46.429	-42.632	-38.176	221.139	-42.803	-8191	255	
3551.515	1	1	0	0	0.027408	0.10403	0.04191	0.1923	0.18969	0.19762	0.15472	0.36462	0.27418	0.16587	0.11719	0.066515	0.08185	0.14302	0.049387	0.29765	-2.05	-2.6479	-2.8708	-2.0208	-2.8375	-2.5354	-2.2229	-2.8729	-2.3896	-2.4833	-3.0375	-2.2583	-2.7417	-2.5646	-2.4125	-3.1604	189.525	96.396	150.602	252.417	169.631	131.179	140.591	281.756	212.104	284.342	208.716	150.139	47.330	240.002	-42.107	249.681	0.00014508	0.0010625	3.998e-05	610.61	3.3268e-06	7.0329e-06	473.68	255.38	2.2443e-06	1.3717e-06	205.98	81.774	105.06	54.7	4.8516e-06	42	0.0011741	0.0010909	0.00030256	669.53	1.3083e-05	1.2122e-05	522.09	275.71	1.3155e-05	1.1712e-05	232.66	93.062	114	58.15	1.1985e-05	46.641	248.543	-5.753	246.388	-52.013	137.506	78.121	-54.186	-47.116	200.678	287.696	-50.394	-46.209	-42.592	-37.874	237.167	-42.708	-8191	255	
3551.613	1	1	0	0	0.33696	0.25769	0.12887	0.12395	0.15371	0.18307	0.14142	0.20307	0.15019	0.14051	0.23066	0.26888	0.22581	0.30274	0.088945	0.1954	-2.0229	-2.325	-2.7062	-2.3583	-2.7729	-2.7354	-2.2333	-3.0646	-2.5208	-2.6333	-3.1583	-2.5979	-2.6125	-2.8542	-2.0396	-3.0333	-60.215	110.545	233.436	272.942	46.407	176.710	282.256	185.924	237.854	118.941	283.973	-45.563	263.278	242.851	254.253	233.538	7.8884e-05	0.00058556	0.00015999	607.15	3.0629e-06	3.3365e-06	472.72	254.96	5.0582e-06	5.0552e-06	208.88	82.043	104.87	55.332	9.2582e-07	42.513	0.0011171	0.0010616	0.00031576	673.83	1.2401e-05	1.1906e-05	529.2	277.81	1.2546e-05	1.1477e-05	236.62	93.994	114.1	58.668	1.2855e-05	47.057	217.899	-53.404	143.556	-51.782	134.943	67.747	-53.600	-46.655	32.426	-38.697	-50.415	-45.935	-42.322	-37.831	211.563	-42.636	-8191	255	
3551.732	1	1	0	0	0.24612	0.23922	0.20614	0.17897	0.11702	0.057989	0.1204	0.32621	0.27263	0.1888	0.14036	0.056927	0.28985	0.050144	0.24689	0.33871	-2.2042	-2.4021	-3.0062	-2.3396	-2.775	-3.0083	-2.5104	-2.9542	-2.6208	-2.4917	-3.0375	-2.25	-2.7812	-2.8542	-2.2104	-2.9104	82.787	286.394	-22.553	57.708	-22.419	-60.136	221.489	273.861	13.454	-44.506	174.447	161.285	266.209	232.440	228.974	258.342	0.00014443	0.00078772	0.00019544	614.11	8.5814e-06	4.4171e-06	483.31	259.11	5.5763e-06	8.3609e-06	212.47	83.002	106.38	55.844	3.7518e-06	42.942	0.0010925	0.0010431	0.00033233	676.95	1.1901e-05	1.1667e-05	541.32	279.87	1.215e-05	1.1344e-05	241.9	94.459	115.01	59.095	1.3564e-05	47.244	204.314	-5.379	168.373	-51.790	54.038	30.436	-53.762	-47.226	185.535	124.623	-50.386	-46.196	-42.465	-37.742	266.773	-42.846	-8191	255	
3551.828	1	1	0	0	0.15823	0.17004	0.17323	0.1739	0.15713	0.41999	0.15125	0.044857	0.023968	0.07591	0.36468	0.014369	0.42611	0.19097	0.12762	0.30171	-2.0854	-2.5083	-2.9562	-2.3958	-2.5104	-2.8979	-2.5812	-2.9125	-2.5938	-2.3146	-3.1854	-2.5396	-2.6979	-3.0292	-2.3688	-2.9	257.238	-0.432	163.639	278.243	143.858	-4.526	-28.589	103.525	232.739	245.249	271.137	-23.517	257.358	230.287	43.239	176.914	8.4455e-05	0.00071525	9.6635e-05	621.13	6.2531e-06	5.1323e-06	482.99	257.92	3.5336e-06	6.4474e-06	210.38	83.681	106.16	55.827	1.1318e-06	42.726	0.0010586	0.0010538	0.00034877	677.6	1.1648e-05	1.1985e-05	544.68	278.65	1.1827e-05	1.1804e-05	241.38	93.618	114.35	59.104	1.3738e-05	46.417	165.652	32.036	62.373	-52.088	138.820	254.208	-53.857	-46.658	106.967	6.255	-50.608	-46.065	-42.337	-38.077	-27.019	-43.099	-8191	255	
3551.924	1	1	0	0	0.23013	0.044785	0.18596	0.14481	0.20255	0.13789	0.15167	0.34943	0.10114	0.11252	0.12271	0.23684	0.16392	0.030094	0.1483	0.23413	-2.2958	-2.0979	-2.9417	-2.5792	-2.4708	-2.8583	-2.2542	-2.9042	-2.8042	-2.3625	-3.1229	-2.6646	-2.4688	-3.2604	-2.2458	-2.7188	115.826	88.515	147.248	177.081	-30.376	230.650	149.071	195.088	134.108	232.077	-55.164	228.828	-13.853	92.915	40.564	151.975	0.00014472	0.00088777	3.5087e-05	613.38	8.4051e-06	2.3512e-06	475.31	257.7	1.9871e-06	8.0957e-06	209.44	83.56	106.61	56.097	9.31e-06	42.795	0.0010232	0.0011082	0.00034757	666.67	1.1194e-05	1.2629e-05	536.97	275.69	1.1733e-05	1.2743e-05	239.34	93.085	114.42	59.472	1.3722e-05	46.476	171.314	49.746	-13.275	-52.125	152.889	250.251	-54.116	-47.021	218.367	153.176	-50.975	-46.298	-42.785	-37.917	121.636	-43.218	-8191	255	
3552.045	1	1	0	0	0.095143	0.44633	0.15682	0.35952	0.17458	0.053218	0.076268	0.052748	0.14061	0.15524	0.10817	0.089123	0.0858	0.12529	0.11208	0.28007	-2.3667	-2.0583	-2.9771	-2.6667	-2.2562	-2.9833	-2.5333	-2.6437	-2.8521	-2.1	-2.8937	-2.75	-2.3583	-3.0771	-2.4104	-2.7375	208.074	-47.342	36.511	-54.489	287.893	76.249	95.344	267.243	223.321	108.438	276.870	230.215	23.904	269.265	158.352	199.334	0.0001215	0.00077322	0.00022056	613.09	7.895e-06	1.1572e-05	485.75	258.79	2.5139e-06	3.9841e-06	212.14	84.379	107.62	56.792	7.5057e-06	43.497	0.0010427	0.0012205	0.00034337	668.6	1.1512e-05	1.3611e-05	540.73	277.23	1.197e-05	1.3702e-05	240.85	94.08	115.73	60.269	1.3209e-05	47.116	201.340	70.968	3.629	-51.960	136.958	176.883	-54.136	-47.262	183.039	110.074	-51.117	-46.010	-42.799	-37.966	71.687	-43.388	-8191	255	
3552.117	1	1	0	0	0.15697	0.22629	0.22088	0.1481	0.14098	0.067672	0.26465	0.069775	0.16237	0.16932	0.090079	0.083226	0.084268	0.16013	0.097148	0.086626	-2.3438	-2.3458	-2.8208	-2.7583	-2.3896	-2.9604	-2.4313	-2.5187	-2.9	-2.3688	-2.9313	-2.8354	-2.4208	-3.1208	-2.2833	-2.4792	69.306	214.323	21.761	-64.283	59.868	208.900	179.320	-63.377	58.142	-1.703	211.408	63.997	240.441	274.277	141.041	60.607	0.00017089	0.00068619	7.2578e-05	618.52	1.3827e-05	5.1236e-06	488.22	260.71	7.8874e-07	5.7245e-06	213.75	84.61	107.92	56.577	7.2031e-06	43.774	0.0010718	0.0012727	0.00032673	671.15	1.197e-05	1.3912e-05	543.89	278.14	1.2497e-05	1.3892e-05	241.09	94.487	116.65	60.414	1.2531e-05	47.137	264.839	42.135	-21.816	-52.151	233.208	124.569	-54.013	-47.029	262.307	26.546	-50.961	-46.301	-42.471	-37.880	-38.030	-43.222	-8191	255	
3552.213	1	1	0	0	0.30688	0.18913	0.15137	0.42732	0.1479	0.15117	0.080665	0.030235	0.091993	0.031501	0.11841	0.1454	0.14111	0.15142	0.13286	0.22538	-2.6396	-2.4062	-2.6708	-2.7375	-2.0833	-3.0104	-2.5792	-2.3125	-2.8729	-2.2438	-2.8771	-2.7917	-2.3271	-3.2083	-2.8625	-2.3479	137.890	193.632	248.635	242.244	260.883	221.807	230.896	184.494	250.807	204.899	246.388	-20.067	201.950	245.696	58.758	-50.293	0.000125	0.00063173	0.00014442	618.69	9.474e-06	6.3184e-06	481.2	257.72	4.6557e-06	6.1137e-06	209.97	83.523	106.8	56.248	3.5147e-06	42.816	0.0011227	0.0012554	0.00030801	668.93	1.2695e-05	1.3462e-05	535.34	275.74	1.3099e-05	1.345e-05	235.96	92.893	116.03	59.704	1.216e-05	46.354	199.547	86.021	51.899	-51.735	230.913	0.144	-53.721	-47.007	243.631	20.812	-50.737	-46.346	-42.509	-37.982	159.158	-43.267	-8191	255	
3552.309	1	1	0	0	0.15227	0.2509	0.23614	0.29027	0.33935	0.16347	0.20896	0.073956	0.3232	0.15033	0.31582	0.098007	0.22784	0.086714	0.073332	0.20657	-2.4958	-2.1729	-2.625	-2.8063	-2.3792	-2.9521	-2.7917	-2.4708	-3.0458	-2.2833	-2.5375	-2.85	-2.2917	-2.8208	-2.6042	-2.1583	-6.184	-19.029	234.652	-64.948	8.746	194.746	-13.864	18.386	18.465	-45.967	187.685	109.638	-47.331	259.198	167.339	205.440	0.00011673	0.00088955	0.00018388	612.95	5.4403e-06	1.0335e-05	475.84	256.25	5.4661e-06	3.2921e-06	209.64	83.901	106.98	56.493	6.5426e-06	43.45	0.0011742	0.001206	0.00030137	663.33	1.3533e-05	1.2954e-05	529.1	274.8	1.3798e-05	1.3073e-05	235.3	93.696	116.97	59.914	1.2179e-05	47.295	194.804	29.147	-52.854	-51.858	144.640	31.282	-54.020	-47.196	216.443	-20.883	-50.991	-46.252	-42.550	-38.028	22.204	-43.252	-8191	255	
3552.428	1	1	0	0	0.28648	0.14969	0.088818	0.16376	0.1008	0.023649	0.14155	0.31252	0.12084	0.17185	0.1228	0.19135	0.11418	0.052712	0.22951	0.048734	-2.5563	-2.3563	-2.7042	-2.9875	-2.2625	-2.6813	-2.7438	-2.2729	-2.9042	-2.4354	-2.575	-3.1229	-2.1729	-2.6104	-2.6208	-2.2333	20.447	218.272	160.580	222.442	182.071	75.539	30.233	39.220	80.976	128.164	163.897	283.141	283.398	-28.306	49.194	254.125	3.8455e-05	0.00063007	0.00019551	613.17	4.0172e-06	1.1843e-05	476.69	257.37	1.2629e-06	6.6247e-06	210.19	85.041	108.14	57.215	2.4777e-06	44.114	0.0012404	0.0011742	0.00029896	668.02	1.4048e-05	1.2612e-05	531.79	277.72	1.4069e-05	1.2687e-05	237.19	95.563	118.05	60.42	1.2096e-05	48.14	244.711	11.804	-55.607	-51.847	140.537	55.160	-54.215	-46.911	-36.290	78.802	-50.869	-46.199	-42.497	-38.021	-25.067	-43.438	-8191	255	
3552.524	1	1	0	0	0.40418	0.069479	0.21888	0.18962	0.050258	0.23605	0.22415	0.10804	0.088034	0.20238	0.24635	0.15235	0.057853	0.11853	0.25082	0.14142	-2.5104	-2.4813	-2.3479	-2.8396	-2.0771	-2.5833	-2.8688	-2.2313	-3.0417	-2.55	-2.4146	-2.9833	-2.4729	-2.7562	-2.9292	-2.3312	-52.484	119.431	239.849	244.245	2.540	12.707	263.762	191.886	129.215	115.251	270.289	133.895	-6.818	278.623	89.624	117.504	0.00010997	0.00095278	0.00020185	614.65	7.3855e-06	5.9771e-06	482.83	259.03	6.6665e-06	7.3199e-06	211.16	84.587	107.74	57.309	6.7116e-06	43.796	0.0012119	0.0011475	0.00029487	675.89	1.3726e-05	1.211e-05	537.32	280.69	1.3467e-05	1.2359e-05	238.09	96.518	117.75	60.507	1.225e-05	48.351	262.784	18.517	279.617	-51.912	32.519	117.435	-53.774	-47.082	65.413	90.034	-50.672	-45.929	-42.390	-37.813	-34.132	-42.778	-8191	255	
3552.620	1	1	0	0	0.32996	0.20177	0.28561	0.10215	0.3966	0.13408	0.13851	0.14536	0.091326	0.064625	0.16792	0.053101	0.17041	0.26282	0.19066	0.21553	-2.3208	-2.5396	-2.2396	-2.9792	-2.5563	-2.5812	-2.9021	-2.3417	-2.7833	-2.7375	-2.2687	-2.9083	-2.4979	-2.7	-3.0979	-2.1167	-12.275	138.645	3.659	-52.439	-4.505	72.829	254.223	259.820	208.006	150.183	258.655	106.319	224.216	245.956	270.835	273.496	0.00015732	0.00027363	0.00022898	608.86	5.5175e-06	5.8212e-06	473.91	254.57	2.1647e-06	1.0605e-05	206.9	83.777	107.21	56.759	1.3147e-05	42.819	0.0011538	0.001125	0.00030821	673.79	1.3241e-05	1.188e-05	529.96	278.17	1.2883e-05	1.2171e-05	235	95.715	116.53	60.152	1.2986e-05	47.699	232.389	38.072	122.600	-51.510	55.640	94.748	-53.941	-46.763	63.230	96.797	-50.316	-46.212	-42.444	-37.612	206.943	-42.663	-8191	255	
3552.693	1	1	0	0	0.11551	0.13765	0.11127	0.12681	0.029117	0.074138	0.16658	0.039712	0.043921	0.088763	0.056458	0.070021	0.14041	0.35778	0.25795	0.31184	-2.3542	-2.8688	-2.2729	-3.0292	-2.3167	-2.6521	-3.025	-2.4313	-2.8583	-2.7792	-2.4167	-3.0417	-2.5896	-2.3854	-2.9833	-2.3375	73.465	62.477	89.810	281.238	286.633	37.779	33.920	-38.381	183.154	145.156	42.021	160.639	168.251	238.552	74.783	101.058	0.00013955	0.00090971	0.00012142	597.58	7.1756e-06	1.2686e-05	468.72	254.52	2.4146e-06	6.9764e-06	206.7	84.159	107.37	56.951	6.1381e-06	42.873	0.0011118	0.0011166	0.00032938	667.91	1.2818e-05	1.1727e-05	532	277.95	1.2449e-05	1.2145e-05	238	95.729	116.89	60.306	1.3902e-05	47.521	236.222	-28.524	103.066	-51.571	98.788	38.186	-53.300	-46.719	7.362	49.473	-50.359	-45.845	-42.209	-37.857	210.461	-42.739	-8191	255	
3552.812	1	1	0	0	0.35904	0.26737	0.034777	0.15945	0.1485	0.1772	0.089043	0.31299	0.18819	0.088245	0.040397	0.27189	0.2347	0.19909	0.11692	0.28343	-2.1937	-2.6562	-2.1375	-2.8125	-2.5625	-2.5062	-2.9521	-2.4292	-2.3958	-2.8417	-2.4792	-2.8937	-2.8104	-2.4771	-2.8333	-2.5021	-58.200	266.464	-52.487	87.550	39.795	-47.146	142.982	195.180	8.076	257.998	132.937	214.431	134.046	227.835	92.779	262.772	2.9371e-05	0.00022838	0.00011556	603.46	4.0189e-06	8.8559e-06	470.14	254.69	1.0642e-06	4.9371e-06	207.72	83.994	107.22	56.864	4.5192e-06	42.585	0.0010865	0.001116	0.00035458	668.44	1.2587e-05	1.1822e-05	537.6	277.14	1.2147e-05	1.2309e-05	240.25	95.038	116.57	60.36	1.4299e-05	46.91	218.948	65.228	69.212	-51.608	198.696	-12.382	-53.281	-46.594	262.106	202.322	-50.510	-46.268	-42.352	-37.882	99.106	-42.682	-8191	255	
3552.909	1	1	0	0	0.2305	0.076214	0.16053	0.10416	0.14262	0.066425	0.16895	0.27634	0.21467	0.15149	0.16118	0.12643	0.39043	0.12566	0.10249	0.12719	-2.1937	-2.8937	-2.2812	-3.0062	-2.6896	-2.1917	-2.8729	-2.4542	-2.4708	-3.05	-2.2833	-2.7438	-2.8479	-2.2042	-2.9167	-2.5958	42.384	-40.459	235.873	255.096	260.974	186.699	109.954	187.212	28.639	-63.883	80.490	216.517	288.787	61.205	11.007	-2.383	3.0023e-05	0.00040707	0.00019386	606.88	5.7638e-06	7.56e-06	475.08	255.23	4.496e-06	3.9226e-06	206.24	83.509	107.08	56.217	6.0474e-06	42.103	0.001054	0.0011581	0.00036572	666.94	1.2317e-05	1.2565e-05	541.73	276.06	1.1763e-05	1.3038e-05	240.56	94.19	115.89	60.156	1.4231e-05	46.378	278.252	-54.458	65.460	-51.752	111.066	165.459	-53.543	-47.040	131.776	-45.860	-50.596	-46.001	-42.216	-37.503	47.485	-42.588	-8191	255	
3553.005	1	1	0	0	0.2297	0.31395	0.14699	0.30204	0.19701	0.17415	0.25597	0.14607	0.072987	0.07252	0.2624	0.15213	0.21591	0.24096	0.081529	0.1395	-1.8917	-2.7687	-2.1333	-2.6646	-2.8729	-2.5792	-3.0354	-2.675	-2.5604	-3.0896	-2.3604	-2.4833	-2.8	-2.4979	-2.9896	-2.6146	140.206	77.954	93.396	246.849	43.035	24.767	10.298	245.731	151.234	64.482	208.578	265.526	23.679	-51.267	-63.376	118.419	0.00016758	0.00079159	0.00019636	601.77	3.5787e-06	4.4746e-06	466.11	251.69	1.995e-06	7.4588e-06	202.67	82.099	106.39	56.134	6.9691e-06	42.536	0.0010257	0.0012209	0.00035831	658.41	1.1969e-05	1.3377e-05	530.15	271.95	1.1693e-05	1.376e-05	235.94	92.594	115.22	60.162	1.3679e-05	46.376	231.429	44.529	72.865	-51.612	14.282	209.862	-54.231	-46.888	149.557	267.078	-50.515	-46.037	-42.370	-37.728	55.104	-43.095	-8191	255	
3553.125	1	1	0	0	0.10484	0.11734	0.11268	0.34263	0.072348	0.14873	0.30302	0.10905	0.23437	0.075534	0.049878	0.13271	0.15735	0.041618	0.08194	0.14862	-1.8125	-2.9583	-2.4229	-2.7	-2.8812	-2.2646	-3.05	-2.7729	-2.1583	-2.8667	-2.3354	-2.5958	-2.9521	-2.325	-2.6562	-2.8937	182.663	67.385	220.000	247.067	195.272	50.967	-43.610	114.677	208.254	4.582	184.025	247.971	109.097	107.739	219.043	40.016	0.00013186	0.00037361	0.00031258	601.91	4.7201e-06	7.9512e-06	474.29	254.75	3.469e-06	5.5545e-06	206.02	84.368	107.22	57.021	4.2808e-06	42.896	0.001054	0.0012988	0.00034763	656.62	1.2386e-05	1.4234e-05	531.79	273.55	1.2243e-05	1.4305e-05	237.23	93.885	116.71	60.947	1.3073e-05	46.857	186.191	36.269	-4.412	-51.814	243.701	122.772	-54.021	-46.813	225.224	82.231	-50.870	-45.992	-42.231	-37.978	-4.776	-43.037	-8191	255	
3553.221	1	1	0	0	0.022695	0.21705	0.23991	0.2506	0.11549	0.11422	0.25811	0.10242	0.0644	0.12524	0.174	0.36457	0.011715	0.087903	0.095484	0.18544	-1.7125	-2.9708	-2.4833	-2.7042	-2.8333	-2.3208	-2.8229	-2.8146	-2.3625	-2.8979	-2.5438	-2.6146	-2.9646	-2.3854	-2.4333	-2.7812	168.961	-61.800	105.729	-36.548	251.579	220.979	243.639	33.597	208.119	274.861	239.433	258.490	293.317	191.799	-32.111	174.470	0.0001365	0.00041449	0.00019948	603.73	2.2665e-06	1.1526e-05	475.01	254.46	4.8844e-06	1.4291e-05	208.05	85.306	108.66	57.979	1.2502e-06	43.457	0.0011268	0.0013304	0.00033798	659.85	1.3339e-05	1.4524e-05	533.06	274.45	1.3391e-05	1.4415e-05	238.28	94.98	118.43	61.881	1.2783e-05	47.532	210.114	17.914	48.546	-51.756	120.822	115.254	-53.996	-46.847	149.847	16.523	-50.540	-45.998	-42.499	-37.739	139.592	-42.968	-8191	255	
3553.318	1	1	0	0	0.28049	0.11752	0.3134	0.23661	0.15739	0.05504	0.24589	0.20012	0.16037	0.17199	0.038031	0.12432	0.29343	0.15722	0.29998	0.069747	-1.7687	-2.7521	-2.3521	-2.4313	-2.8875	-2.4583	-2.75	-2.7917	-2.2104	-3.0083	-2.6625	-2.3958	-3.1542	-2.4583	-2.3604	-2.9104	240.234	-34.397	215.709	220.033	272.680	-8.737	236.663	-51.330	-16.446	14.025	-17.187	-25.683	280.213	-52.960	59.772	-6.223	0.00016049	0.00093512	0.00021268	604.25	6.0868e-06	7.7693e-06	476.58	254.3	7.8371e-06	7.4301e-06	207.41	84.417	107.95	57.243	6.02e-06	43.11	0.0012172	0.0012952	0.00032821	659.64	1.4168e-05	1.4156e-05	532.92	274.71	1.4163e-05	1.3773e-05	237.11	94.888	118.68	61.328	1.2326e-05	47.389	207.150	-9.610	40.363	-51.803	52.148	26.891	-53.695	-46.692	-59.709	107.955	-50.528	-46.126	-42.308	-37.529	-43.496	-42.807	-8191	255	
3553.414	1	1	0	0	0.16998	0.22511	0.13382	0.31155	0.17537	0.10269	0.11943	0.20734	0.33202	0.098285	0.062007	0.30636	0.22673	0.26889	0.1222	0.17757	-1.9292	-2.775	-2.5542	-2.2729	-3.0146	-2.2792	-2.5875	-3.0687	-2.1083	-2.5625	-2.8125	-2.2104	-2.9938	-2.5771	-2.575	-2.9313	-23.621	188.516	-17.703	281.693	89.738	2.437	249.303	273.574	-38.527	279.447	163.697	-48.622	202.237	234.784	18.459	158.930	0.00012559	0.0002612	0.00012533	598.05	5.8766e-06	8.9582e-06	466.93	251.77	4.8467e-06	1.2694e-05	204.96	83.569	107.99	57.126	7.2318e-06	43.103	0.0012805	0.0012232	0.00032082	655.93	1.4499e-05	1.3426e-05	522.19	273.07	1.4596e-05	1.3074e-05	233.27	94.628	118.24	60.832	1.2103e-05	47.47	219.385	36.173	70.841	-51.748	109.208	44.957	-53.841	-46.799	51.661	51.016	-50.418	-45.995	-42.603	-37.854	127.751	-43.393	-8191	255	
3553.508	1	1	0	0	0.087496	0.2164	0.17221	0.12703	0.17574	0.20119	0.28442	0.084791	0.2176	0.21249	0.090318	0.13221	0.18872	0.23984	0.25462	0.059095	-1.8875	-2.7479	-2.8229	-2.4188	-2.9938	-2.5417	-2.5104	-3.0958	-2.4688	-2.5812	-2.9292	-2.2854	-2.9229	-2.6896	-2.5208	-2.9188	293.316	145.629	133.372	182.828	293.678	107.332	75.384	55.229	280.488	-64.160	50.150	111.351	164.769	273.496	-55.792	0.562	8.6722e-05	0.00030366	5.0214e-05	603.13	3.2506e-06	2.5239e-06	472.39	253.16	5.7281e-06	2.5676e-06	209.02	85.231	108.9	57.612	4.6284e-06	44.195	0.0012804	0.0011787	0.00031618	662.91	1.4285e-05	1.3086e-05	526.02	275.56	1.446e-05	1.2653e-05	235.87	96.481	118.52	61.256	1.2191e-05	48.553	246.601	73.369	241.769	-52.049	69.188	-14.222	-54.212	-46.789	27.116	30.574	-50.610	-46.229	-42.282	-37.945	173.399	-43.425	-8191	255	
3553.604	1	1	0	0	0.022817	0.044077	0.10302	0.089073	0.31503	0.15703	0.074663	0.2853	0.21432	0.13221	0.21387	0.096075	0.19708	0.29037	0.026849	0.18747	-1.8271	-2.5208	-2.8708	-2.3583	-2.8104	-2.7438	-2.5125	-2.8229	-2.5062	-2.6979	-2.6458	-2.3833	-2.8063	-2.7167	-2.4437	-2.9792	207.257	136.362	153.396	295.097	198.465	239.388	-19.543	289.465	155.874	16.956	251.293	265.648	13.963	281.860	185.917	206.411	7.2582e-05	0.00034378	9.5745e-05	603.07	5.4287e-06	3.2973e-06	478.06	257.21	6.8772e-06	1.1011e-05	209.84	85.619	109.31	58.095	1.1659e-06	44.444	0.0012473	0.00115	0.00031965	669.86	1.3723e-05	1.279e-05	533.55	279.36	1.3762e-05	1.2292e-05	239.16	98.065	118.63	61.48	1.2607e-05	49.171	187.100	1.818	131.045	-51.871	40.669	77.382	-54.167	-46.674	75.878	53.908	-50.261	-46.165	-42.803	-38.069	229.414	-43.032	-8191	255	
3553.725	1	1	0	0	0.3081	0.21605	0.14055	0.18475	0.16502	0.060161	0.19128	0.061224	0.16732	0.1557	0.34823	0.11814	0.10373	0.28994	0.30609	0.23355	-2.1292	-2.2583	-2.8375	-2.2229	-2.6271	-2.5563	-2.4271	-2.8271	-2.2854	-2.3396	-2.9062	-2.3229	-2.8271	-2.7	-2.1312	-3.2	58.648	91.745	258.951	233.255	-8.778	30.903	265.204	-51.618	31.862	214.941	276.298	-11.761	-61.888	249.411	127.533	253.348	3.9832e-05	0.0011541	6.1377e-05	607.57	4.3604e-06	1.0743e-05	479.55	257.09	8.4777e-06	3.9085e-06	210.56	85.084	108.74	57.812	2.9353e-06	43.908	0.0011826	0.0011093	0.00033367	674.2	1.2974e-05	1.2464e-05	537.37	278.99	1.3063e-05	1.1944e-05	239.4	97.094	117.11	60.982	1.3428e-05	48.32	156.788	-46.064	207.767	-51.782	92.745	88.885	-54.232	-47.183	63.960	18.224	-50.595	-46.424	-42.710	-38.103	227.765	-43.456	-8191	255	
3553.821	1	1	0	0	0.069624	0.19526	0.14182	0.43017	0.15802	0.045547	0.14356	0.4054	0.28043	0.04895	0.065673	0.18677	0.19979	0.014936	0.13135	0.14298	-2.0104	-2.3229	-2.9021	-2.3896	-2.5167	-2.8479	-2.2625	-3.0187	-2.5875	-2.375	-3.0667	-2.4396	-2.5125	-3.0875	-2.3	-2.7812	75.826	-57.854	25.295	285.784	163.502	97.595	100.093	236.670	122.292	240.334	273.363	158.975	190.495	28.393	18.555	166.782	4.6897e-05	0.00032413	0.00011012	603.4	9.1639e-06	5.7912e-06	472.34	255.17	2.0556e-06	2.1454e-06	208.27	85.234	108.75	57.96	2.1528e-06	43.802	0.0011338	0.0010819	0.00035251	666.84	1.2509e-05	1.222e-05	534.19	276.12	1.2756e-05	1.2014e-05	240.07	96.407	116.97	61.137	1.4349e-05	48.179	279.275	30.997	76.243	-52.025	77.764	74.831	-54.022	-46.985	289.077	-13.792	-50.887	-46.216	-42.475	-38.080	167.687	-43.120	-8191	255	
3553.917	1	1	0	0	0.062158	0.095782	0.13579	0.12297	0.12427	0.3292	0.40122	0.1388	0.038286	0.26835	0.20255	0.28569	0.27012	0.14728	0.23081	0.037799	-2.3667	-2.2792	-3.1021	-2.6979	-2.5646	-2.85	-2.5687	-2.8167	-2.5333	-2.3146	-2.9813	-2.4479	-2.4729	-3.3063	-2.1979	-2.6604	-19.954	247.780	138.503	-28.582	88.280	14.298	153.598	82.869	104.106	24.032	275.124	25.189	279.084	232.942	7.542	290.380	0.00013257	0.00035759	0.00025082	607.22	2.399e-06	6.5692e-06	479.01	257.05	2.323e-06	8.3506e-06	209.3	86.799	109.42	58.181	2.9029e-06	44.146	0.0011113	0.0011098	0.00036704	666.18	1.2151e-05	1.271e-05	542.79	276.65	1.2621e-05	1.2725e-05	242.84	96.774	117.45	61.615	1.4649e-05	48.135	242.200	117.706	77.034	-52.480	254.222	114.585	-53.850	-46.934	250.813	257.117	-50.721	-46.179	-42.452	-38.160	279.248	-43.371	-8191	255	
3553.989	1	1	0	0	0.094302	0.22004	0.052491	0.10504	0.1223	0.22671	0.039056	0.073552	0.16282	0.24492	0.0052208	0.088445	0.31131	0.20608	0.15721	0.17531	-2.3563	-2.3104	-2.8083	-2.6396	-2.5104	-2.7938	-2.3146	-2.8854	-2.6208	-2.1958	-3.0021	-2.4875	-2.5563	-3.075	-2.3083	-2.8792	145.741	151.357	184.673	259.472	1.190	88.037	285.690	140.891	124.567	34.664	83.163	242.418	-52.716	256.142	194.588	206.371	0.00018583	0.00071176	5.4525e-05	608.76	4.3336e-06	8.2885e-06	480.14	258.16	5.5579e-06	1.1195e-05	213.05	86.44	109.5	58.077	6.3123e-06	44.186	0.0010885	0.0012022	0.00037016	666.89	1.2039e-05	1.3557e-05	546.25	276.86	1.2334e-05	1.3655e-05	244.39	96.678	117.74	61.893	1.4188e-05	48.006	189.279	29.487	147.493	-51.886	116.584	214.811	-54.178	-47.045	84.261	192.343	-50.882	-46.234	-42.706	-38.144	3.474	-43.329	-8191	255	
3554.110	1	1	0	0	0.064888	0.29649	0.06852	0.15558	0.26823	0.17174	0.20742	0.31051	0.09609	0.32274	0.22471	0.19852	0.096745	0.30369	0.21645	0.24751	-2.4229	-2.1708	-3.0104	-2.7646	-2.5729	-2.8917	-2.4542	-2.8542	-2.9083	-2.2375	-2.7208	-2.5938	-2.5563	-3.0604	-2.5354	-2.7812	-12.350	242.331	64.099	209.909	77.558	-36.402	82.603	217.292	89.603	194.745	45.070	283.829	233.958	275.921	34.940	294.255	0.000128	0.00039803	0.00028507	611.93	2.2114e-06	5.4881e-06	480.28	256.15	5.5444e-06	5.8567e-06	208.36	85.347	108.6	57.556	7.1737e-06	43.641	0.0010692	0.0012632	0.00035101	665.58	1.1789e-05	1.402e-05	540.18	275.06	1.2198e-05	1.4025e-05	238.52	95.019	116.62	61.266	1.3297e-05	47.12	200.098	230.743	-24.979	-52.194	199.877	157.479	-54.240	-46.975	200.331	137.860	-50.766	-46.373	-42.777	-38.016	33.347	-43.679	-8191	255	
3554.206	1	1	0	0	0.1511	0.14189	0.061505	0.14957	0.10282	0.23915	0.16971	0.081511	0.062686	0.14394	0.18403	0.1883	0.0602	0.1568	0.088079	0.34598	-2.3292	-2.1125	-2.8688	-2.625	-2.3854	-2.9938	-2.5687	-2.5521	-3.0563	-2.1604	-2.9667	-2.7271	-2.3396	-3.0167	-2.4208	-2.4188	237.160	137.204	273.067	11.817	207.689	213.490	195.176	-42.629	45.738	47.803	187.058	255.665	250.877	294.714	247.060	252.744	0.00015143	0.00048885	0.00025409	607.66	5.3741e-06	1.019e-05	476.29	256.75	1.2781e-06	4.0105e-06	208.81	85.27	108.63	57.742	5.0906e-06	43.724	0.0010902	0.0012976	0.00032893	660.68	1.2345e-05	1.4218e-05	533.38	273.89	1.2948e-05	1.4364e-05	237.18	95.062	117.65	61.514	1.2924e-05	47.398	222.471	58.753	-41.253	-52.030	156.856	66.953	-53.743	-46.825	126.156	69.899	-50.566	-46.168	-42.554	-37.957	100.173	-43.336	-8191	255	
3554.302	1	1	0	0	0.098115	0.14123	0.16217	0.2545	0.19189	0.22377	0.172	0.43337	0.18473	0.16738	0.38904	0.07091	0.21821	0.19212	0.20322	0.077802	-2.4979	-2.1042	-2.7042	-2.6833	-2.15	-2.8854	-2.4771	-2.6312	-3.0792	-2.2521	-2.6104	-2.8646	-2.3667	-2.9625	-2.6271	-2.4583	250.737	78.644	-25.586	-59.550	91.196	75.624	102.795	273.267	218.466	154.067	212.925	10.134	145.339	-63.712	38.708	230.728	0.00010941	0.00089973	0.00032458	610.48	8.4752e-06	9.7356e-06	484.22	257.51	3.1794e-06	1.0313e-05	211.73	86.68	109.63	58.299	3.0315e-06	44.6	0.0011776	0.0013106	0.00032067	663.56	1.3542e-05	1.4139e-05	538.51	275.43	1.3995e-05	1.4165e-05	238.88	96.26	119.31	61.903	1.2803e-05	48.13	226.881	7.080	-3.065	-52.240	163.000	22.838	-54.020	-47.127	280.669	30.672	-50.711	-46.252	-42.626	-37.991	136.763	-43.510	-8191	255	
3554.398	1	1	0	0	0.1675	0.090897	0.052487	0.17715	0.22683	0.039126	0.18911	0.24168	0.15911	0.099432	0.05717	0.12959	0.15115	0.27502	0.064978	0.071069	-2.6979	-2.2396	-2.6146	-2.8875	-2.0229	-2.7354	-2.7479	-2.3	-3.0104	-2.5146	-2.5229	-2.9667	-2.1479	-2.6979	-2.6792	-2.2562	108.557	132.554	189.553	253.700	65.947	190.211	215.859	259.449	-46.560	51.806	224.686	236.826	263.977	174.666	1.452	277.411	0.00015667	0.00046648	0.0002299	612.43	4.9477e-06	1.1368e-05	487.77	259.92	1.2732e-06	5.0113e-06	213.44	86.688	110.26	58.134	3.4399e-06	44.655	0.001251	0.0012647	0.00031554	668.71	1.4363e-05	1.3485e-05	542.22	277.79	1.4489e-05	1.3578e-05	240.33	97.268	120.09	61.657	1.2535e-05	48.381	220.557	-24.661	17.319	-52.032	147.187	52.946	-53.814	-47.138	-41.775	47.425	-50.930	-45.900	-42.604	-38.268	33.852	-43.382	-8191	255	
3554.494	1	1	0	0	0.20122	0.18714	0.029615	0.25483	0.32992	0.044876	0.13553	0.17864	0.12997	0.072453	0.081111	0.080508	0.086119	0.39118	0.099794	0.092293	-2.4125	-2.3375	-2.5833	-3.1375	-2.2729	-2.7583	-2.8271	-2.2729	-2.8854	-2.6354	-2.3833	-3.075	-2.4792	-2.7146	-2.7146	-2.3604	155.086	115.717	272.338	97.417	290.780	243.019	42.672	219.300	103.224	160.088	161.091	239.841	-29.159	157.432	247.666	236.742	7.7635e-05	0.00045602	0.00029455	610.51	8.052e-06	8.0736e-06	481.05	254.66	9.1865e-06	1.9375e-06	209.17	84.6	107.78	56.893	1.2273e-06	43.644	0.0012641	0.0012028	0.00030636	670.75	1.4391e-05	1.277e-05	533.24	276.41	1.4177e-05	1.2889e-05	234.79	95.931	118.08	60.396	1.2242e-05	47.964	233.595	-11.345	-39.522	-51.871	126.481	82.172	-53.592	-47.043	132.059	40.188	-50.468	-45.966	-42.464	-37.954	119.565	-42.876	-8191	255	
3554.589	1	1	0	0	0.13211	0.15445	0.30481	0.18927	0.11841	0.032326	0.17411	0.12643	0.092393	0.10662	0.38031	0.34349	0.097066	0.11211	0.20746	0.042555	-2.5229	-2.6083	-2.3771	-2.9208	-2.3021	-2.5687	-2.6625	-2.4146	-2.7604	-2.4458	-2.4042	-2.9292	-2.4562	-2.5729	-2.9646	-2.225	88.943	-2.271	179.071	-9.652	63.609	85.136	-33.284	-23.511	39.628	-48.434	-63.612	252.048	169.530	259.475	203.011	38.752	9.2602e-05	0.00036665	0.00019456	605.92	5.0792e-06	1.6395e-06	473.86	254.51	5.636e-06	5.5475e-06	206.92	84.637	106.73	56.71	4.187e-06	43.826	0.0012268	0.0011607	0.00030229	669.62	1.3912e-05	1.235e-05	531.7	277.06	1.3734e-05	1.2669e-05	235.61	96.653	117.11	60.238	1.252e-05	48.445	241.057	8.211	74.846	-51.908	104.509	88.023	-53.555	-46.745	14.541	42.938	-50.543	-45.957	-42.284	-37.641	144.904	-42.615	-8191	255	
3554.686	1	1	0	0	0.17467	0.13397	0.032894	0.11271	0.17412	0.10035	0.072217	0.095287	0.085049	0.19315	0.064928	0.26414	0.093267	0.31701	0.098541	0.16929	-2.4083	-2.4542	-2.1813	-3.2042	-2.6146	-2.5187	-2.8958	-2.3688	-2.8521	-2.7292	-2.2208	-3.1333	-2.475	-2.675	-2.8229	-2.4188	37.889	285.200	224.657	28.812	290.452	233.785	-14.362	176.208	-53.197	46.900	74.169	209.888	-17.363	257.773	247.842	-37.692	5.5132e-05	0.00085586	0.00013494	610.72	2.055e-05	4.3332e-06	479.05	255.35	3.2481e-06	1.302e-05	211.35	85.849	107.73	57.035	3.8489e-06	44.165	0.0011657	0.0011426	0.00031485	676.66	1.3308e-05	1.207e-05	539.4	279.8	1.2923e-05	1.2299e-05	240.84	97.617	117.19	60.317	1.3225e-05	48.867	238.430	44.813	64.905	-51.497	94.855	-1.925	-53.685	-46.411	142.198	56.047	-50.258	-45.966	-42.394	-37.735	258.474	-42.959	-8191	255	
3554.805	1	1	0	0	0.14495	0.1859	0.10598	0.012908	0.17344	0.08857	0.17826	0.11031	0.08779	0.040973	0.31811	0.33019	0.088225	0.08457	0.028649	0.24703	-2.2583	-2.8812	-2.2917	-3.0396	-2.4583	-2.5687	-2.9562	-2.3563	-2.6542	-2.8292	-2.2792	-2.8417	-2.6292	-2.4979	-3.0438	-2.2271	223.942	278.317	38.525	160.681	-9.791	103.072	-1.444	88.065	43.343	294.726	222.661	-5.757	127.900	237.983	53.666	248.762	5.773e-05	0.00088853	0.0001183	616.26	8.2625e-06	9.0858e-06	489.88	257.48	2.8848e-06	1.0424e-05	211.21	85.352	106.87	56.562	4.5914e-06	43.873	0.0011127	0.001114	0.00033324	682.01	1.2655e-05	1.1702e-05	549.79	280.58	1.2241e-05	1.194e-05	243.63	96.947	116.44	59.874	1.3747e-05	48.224	141.704	-27.677	143.910	-51.882	49.192	-26.373	-53.775	-46.907	-3.817	71.966	-50.113	-45.781	-42.359	-37.674	112.159	-43.035	-8191	255	
3554.901	1	1	0	0	0.29093	0.053326	0.11914	0.058625	0.086039	0.065903	0.13766	0.026216	0.2244	0.15162	0.24423	0.10803	0.17617	0.24683	0.084579	0.053665	-2.1396	-2.7854	-2.2104	-2.8729	-2.6333	-2.3854	-3.1188	-2.3208	-2.5729	-2.8833	-2.3	-2.9354	-2.8042	-2.4417	-2.9875	-2.2917	19.474	73.053	71.790	239.648	29.883	-43.664	138.755	243.890	-15.039	-51.286	47.308	104.506	271.410	276.029	163.116	149.615	0.00013956	0.00088051	0.00019232	613.66	3.8609e-06	5.9383e-06	478.27	255.57	1.8968e-06	2.0572e-06	210.73	84.407	107.44	56.02	5.4068e-06	43.139	0.0010552	0.0010985	0.00034816	674.67	1.2159e-05	1.1645e-05	542.69	276.83	1.1786e-05	1.2099e-05	241.31	94.651	115.13	59.278	1.4097e-05	47.237	246.603	-6.413	119.870	-51.856	61.997	158.112	-53.675	-46.528	37.507	-52.105	-50.630	-46.303	-42.697	-37.796	143.179	-43.416	-8191	255	
3554.998	1	1	0	0	0.14438	0.075993	0.14917	0.21159	0.20132	0.047777	0.1688	0.17237	0.28976	0.13012	0.1275	0.2482	0.010688	0.22257	0.13393	0.15314	-2.0854	-2.9188	-1.8479	-2.7833	-2.7438	-2.3396	-3.0708	-2.675	-2.4	-2.9167	-2.2958	-2.7229	-3.0396	-2.2583	-2.8604	-2.6771	56.241	15.200	278.972	283.738	22.955	151.250	253.900	291.530	126.966	171.826	13.968	231.146	-37.490	271.695	46.819	90.515	5.6947e-05	0.00085933	7.668e-05	616.77	9.061e-06	2.3771e-06	483.79	258.31	3.9025e-06	8.7106e-06	212.1	85.064	107.58	56.286	6.9271e-06	43.503	0.0010293	0.0011347	0.00035787	671.38	1.1931e-05	1.2398e-05	544.76	277.6	1.1637e-05	1.2849e-05	243.99	94.954	115.62	59.738	1.3992e-05	47.416	131.769	74.717	260.199	-52.379	89.426	227.855	-54.022	-46.762	83.471	119.125	-50.626	-46.401	-42.557	-37.989	10.437	-42.825	-8191	255	
3555.094	1	1	0	0	0.25925	0.10012	0.068489	0.15079	0.095502	0.14968	0.22742	0.39888	0.22363	0.2765	0.31525	0.24797	0.27491	0.17666	0.15607	0.2124	-2.0208	-2.7542	-2.2458	-2.8604	-2.7604	-2.4104	-3.0625	-2.5583	-2.3896	-2.9437	-2.1833	-2.7313	-2.9042	-2.3896	-2.7812	-2.6333	260.895	19.601	2.597	282.982	196.750	-6.251	171.049	281.127	130.697	292.422	287.483	-46.611	245.275	240.510	-6.929	282.176	0.00011195	0.00062047	0.00015722	615.56	6.9379e-07	1.0195e-05	487.85	257.07	2.401e-06	1.2033e-05	213.44	85.57	107.73	56.291	6.0842e-06	43.479	0.0010206	0.0012185	0.00035685	671.07	1.1923e-05	1.3349e-05	548.13	278.2	1.1589e-05	1.3653e-05	243.89	95.134	115.97	60.151	1.3155e-05	47.417	218.852	118.530	0.706	-51.985	289.370	200.516	-53.518	-46.743	149.685	174.547	-50.278	-45.968	-42.159	-37.732	55.524	-42.855	-8191	255	
3555.214	1	1	0	0	0.21555	0.054595	0.11295	0.15561	0.079405	0.06256	0.025298	0.24217	0.053927	0.37625	0.022765	0.083934	0.24184	0.2901	0.055505	0.11844	-2.0521	-3.0583	-2.2396	-2.55	-2.8937	-2.1312	-2.9813	-2.75	-2.4	-2.8688	-2.4646	-2.4938	-2.925	-2.4479	-2.6771	-2.8187	255.785	-6.753	176.091	220.392	119.144	212.853	188.841	287.363	44.945	178.702	184.435	259.612	217.841	218.776	211.420	146.998	0.00013364	0.00064391	0.00036219	620.13	1.7178e-06	7.623e-06	484.7	255.67	4.7445e-06	3.104e-06	212.46	84.806	106.89	56.065	3.0141e-06	42.777	0.0010341	0.0012619	0.0003345	672.42	1.2096e-05	1.3847e-05	545.05	276.87	1.2028e-05	1.3908e-05	241.17	94.284	116.01	59.975	1.2424e-05	46.753	207.717	66.194	44.061	-51.801	147.557	275.862	-53.715	-46.636	204.712	223.082	-50.097	-46.185	-42.004	-37.666	114.730	-42.885	-8191	255	
3555.286	1	1	0	0	0.30658	0.10729	0.14893	0.17062	0.20378	0.074614	0.043143	0.22689	0.10115	0.10347	0.054463	0.10349	0.073488	0.38437	0.046325	0.2919	-2.0104	-2.7792	-2.4125	-2.4958	-2.8104	-2.3958	-2.7917	-2.8167	-2.3854	-2.7938	-2.4479	-2.5958	-2.9708	-2.6208	-2.4333	-2.7625	278.809	260.293	31.044	21.582	139.057	3.562	-23.308	174.711	188.243	172.074	59.911	188.285	-13.084	276.567	181.761	286.002	0.00022193	0.0010216	9.1111e-05	613.98	5.5264e-06	4.6471e-06	476.59	255.24	9.1944e-06	8.3446e-06	209.34	83.522	106.04	55.685	6.9476e-06	42.851	0.0010757	0.001253	0.00031574	663.79	1.2457e-05	1.3725e-05	533	274.41	1.2739e-05	1.3531e-05	236.83	93.077	115.8	59.456	1.1989e-05	46.564	187.791	294.041	-39.061	-51.769	196.648	115.044	-54.251	-46.796	179.367	130.677	-50.430	-45.940	-42.274	-37.828	58.798	-42.493	-8191	255	
3555.382	1	1	0	0	0.23049	0.063246	0.064071	0.11717	0.087907	0.14933	0.16984	0.16044	0.35711	0.012303	0.2483	0.33789	0.10228	0.12563	0.074523	0.09432	-1.8604	-2.7917	-2.6146	-2.4125	-2.9333	-2.3729	-2.3563	-2.8604	-2.1917	-2.8667	-2.6104	-2.3583	-2.7854	-2.6875	-2.5708	-2.9729	260.552	100.229	88.047	45.411	91.798	-60.153	290.387	238.093	30.482	-35.559	247.757	143.713	-39.685	165.413	-20.967	116.096	0.00021384	0.0016685	3.7489e-05	614.6	3.1784e-06	1.2189e-05	480.24	257.76	2.23e-06	7.5358e-06	212.05	85.364	107.66	56.218	8.7717e-06	43.518	0.0011543	0.0012125	0.000311	665.18	1.3361e-05	1.3202e-05	534.4	275.87	1.3453e-05	1.2872e-05	238	94.274	116.92	59.645	1.1662e-05	47.129	197.768	-11.409	276.547	-52.002	164.538	50.873	-53.574	-46.631	290.965	-8.410	-50.493	-46.149	-42.570	-37.726	104.315	-42.680	-8191	255	
3555.501	1	1	0	0	0.15553	0.14792	0.14179	0.052203	0.19	0.1578	0.25475	0.12457	0.33987	0.26659	0.13882	0.25273	0.057673	0.17901	0.4055	0.14254	-1.9021	-2.7521	-2.875	-2.3125	-2.8729	-2.3312	-2.5	-2.8292	-2.2583	-2.5729	-2.8812	-2.3063	-2.9104	-2.7104	-2.5396	-2.8917	-2.345	219.574	201.297	-2.851	-45.156	-29.038	220.386	-45.871	22.655	204.279	238.649	9.144	110.075	199.971	256.318	130.017	0.00015612	0.00061881	0.000228	617.81	7.5985e-06	5.8548e-06	486.87	257.9	4.5337e-06	3.0814e-06	213.6	85.023	107.91	56.254	8.6559e-06	43.598	0.0012066	0.001148	0.00030303	671	1.3768e-05	1.264e-05	538.54	278.41	1.3774e-05	1.2165e-05	239.79	95.707	117.63	59.751	1.1419e-05	47.794	223.519	288.961	10.923	-51.946	94.207	54.666	-54.163	-46.879	12.495	59.989	-50.313	-46.204	-42.297	-37.645	75.401	-42.795	-8191	255	
3555.597	1	1	0	0	0.073578	0.14458	0.19925	0.068214	0.054114	0.25209	0.21223	0.12287	0.3198	0.052191	0.16001	0.32634	0.044017	0.39239	0.015731	0.42803	-1.9875	-2.6396	-2.6042	-2.4896	-2.8625	-2.3521	-2.6583	-3.1333	-2.3396	-2.8354	-2.6958	-2.2917	-2.8521	-2.6542	-2.3104	-2.9271	222.528	119.933	-41.347	-45.944	258.399	136.081	268.342	282.153	283.532	273.052	-46.261	210.855	236.896	203.415	129.895	233.670	5.8175e-05	0.00033698	0.00025975	619.6	6.3723e-06	1.8447e-06	487.77	258.84	3.8342e-06	8.0816e-06	211.55	85.286	107.18	56.191	3.0686e-06	43.057	0.001191	0.0010988	0.00029506	677.7	1.3264e-05	1.2119e-05	538.63	279.64	1.3382e-05	1.173e-05	237.67	95.801	116.32	59.352	1.1328e-05	47.523	257.263	291.224	-39.488	-52.016	30.401	71.772	-54.138	-47.021	60.619	51.748	-50.111	-46.199	-42.560	-37.898	248.801	-42.993	-8191	255	
3555.693	1	1	0	0	0.15626	0.13639	0.19078	0.26787	0.080926	0.14005	0.15915	0.085099	0.11689	0.067047	0.14082	0.22046	0.25754	0.21417	0.13813	0.14545	-1.8542	-2.5208	-2.7021	-2.2917	-2.6083	-2.675	-2.4271	-3.1354	-2.3854	-2.4146	-2.7458	-2.2792	-2.8	-2.8396	-2.3792	-2.9562	49.730	84.956	143.755	-43.550	252.137	-5.022	175.119	223.435	73.788	183.369	239.432	-51.162	287.473	254.161	264.192	211.340	1.4995e-05	0.00030374	0.00010632	613.23	5.7153e-06	6.3981e-06	479.74	257.67	5.709e-06	6.9388e-06	211.22	85.053	107.1	55.895	7.4873e-06	43.415	0.0011326	0.0010462	0.00029254	673.23	1.2517e-05	1.1753e-05	531.37	278.31	1.2575e-05	1.1324e-05	236.95	95.862	115.66	59.095	1.1814e-05	47.652	184.204	75.855	97.777	-51.881	35.323	70.681	-53.855	-46.936	152.459	47.047	-50.713	-45.950	-42.651	-37.777	196.269	-43.189	-8191	255	
3555.790	1	1	0	0	0.1522	0.26864	0.066699	0.19207	0.17792	0.14365	0.17371	0.0053907	0.23059	0.30204	0.10058	0.020801	0.28189	0.38702	0.16113	0.096647	-2.0229	-2.2208	-3.0458	-2.3542	-2.6083	-2.8875	-2.2521	-2.9708	-2.4188	-2.2917	-2.9167	-2.2417	-2.8146	-2.6542	-2.2833	-3.1125	98.760	126.937	67.865	236.906	-49.456	31.649	32.983	60.259	-50.919	-10.985	246.455	275.219	-34.751	260.821	101.898	177.844	2.3531e-05	0.00029861	8.869e-05	616.63	9.0781e-06	5.8449e-06	486.91	259.38	1.8522e-06	4.1452e-06	213.88	85.788	107.78	56.51	4.7356e-06	44.011	0.0010801	0.0010276	0.00030827	678.77	1.1929e-05	1.1561e-05	541.18	279.73	1.2152e-05	1.1104e-05	242.02	96.562	116.14	59.55	1.2678e-05	48.124	263.187	40.308	83.072	-52.096	112.661	-5.410	-53.806	-47.145	3.552	-17.575	-50.630	-46.296	-42.553	-38.078	126.904	-43.140	-8191	255	
3555.886	1	1	0	0	0.1167	0.094152	0.0952	0.062627	0.27372	0.23166	0.10368	0.26541	0.065379	0.37901	0.3092	0.15926	0.21005	0.25128	0.024912	0.34363	-2.1479	-2.3125	-2.9229	-2.2833	-2.6979	-2.725	-2.3729	-2.9125	-2.6125	-2.3604	-3.2125	-2.4125	-2.7292	-2.9479	-2.1937	-2.975	215.266	94.891	201.262	249.675	31.631	23.089	172.068	233.490	262.648	75.665	57.301	18.785	273.100	226.664	9.490	271.221	0.0001396	0.00078852	9.9639e-05	621.83	4.6632e-06	7.1402e-06	490.7	260.46	7.0959e-06	5.6608e-06	216.18	86.785	108.13	56.583	4.0128e-06	43.91	0.0010487	0.0010147	0.00032891	678.43	1.1482e-05	1.143e-05	548.74	280.48	1.1739e-05	1.1224e-05	245.36	96.885	116.26	59.639	1.3174e-05	47.888	219.641	-18.866	195.695	-52.118	107.714	120.856	-54.061	-47.197	58.318	116.879	-50.619	-45.890	-42.522	-37.729	103.095	-43.101	-8191	255	
3555.982	1	1	0	0	0.08982	0.044417	0.21691	0.18755	0.21354	0.097839	0.082038	0.12855	0.07871	0.27802	0.17113	0.1837	0.10107	0.11601	0.10404	0.099303	-2.0438	-2.3354	-2.9604	-2.55	-2.5271	-2.8521	-2.3688	-2.9708	-2.7229	-2.4542	-2.9062	-2.5021	-2.5708	-3.075	-2.4229	-2.7	114.871	235.907	15.981	245.232	287.950	-58.830	122.212	-38.465	-45.980	-11.394	57.810	205.461	254.920	293.521	280.044	275.886	9.4831e-05	0.00088202	0.00010877	621.74	5.6948e-06	8.2833e-06	489.22	260.38	8.9174e-06	7.109e-06	213.58	85.387	107.16	56.137	3.6033e-06	43.464	0.0010098	0.0010268	0.00033557	677.08	1.1062e-05	1.1622e-05	549.63	278.08	1.1341e-05	1.156e-05	243.27	95.121	115.05	59.421	1.3201e-05	47.064	243.484	95.554	179.037	-51.705	7.287	215.325	-54.038	-47.009	86.178	179.737	-50.597	-45.953	-42.569	-37.659	203.008	-42.726	-8191	255	
3556.078	1	1	0	0	0.21166	0.28906	0.19872	0.1356	0.16242	0.063974	0.082583	0.025446	0.1903	0.020051	0.11639	0.19603	0.1062	0.21752	0.036391	0.086577	-2.3042	-2.1	-3.2104	-2.5333	-2.5062	-3.0438	-2.4417	-2.6896	-2.7854	-2.2729	-2.9188	-2.3604	-2.5292	-3.1437	-2.3604	-2.8229	91.112	280.575	193.530	235.818	67.612	40.917	273.447	235.985	-62.285	47.013	-23.521	264.219	240.165	246.262	293.282	238.611	0.00014275	0.00013467	0.00014023	614.87	4.7265e-06	1.0729e-05	485.25	259.65	1.3945e-06	6.7242e-06	212.61	85.331	107.42	56.063	2.2655e-06	43.464	0.00098551	0.0010905	0.00033333	668.02	1.0788e-05	1.2278e-05	542.52	276.39	1.1089e-05	1.2383e-05	241.58	94.722	115.09	59.623	1.2989e-05	47.083	138.769	55.387	10.571	-51.886	-4.551	239.159	-53.747	-47.004	188.388	103.184	-50.916	-46.209	-42.489	-37.816	202.878	-43.145	-8191	255	
3556.174	1	1	0	0	0.1485	0.13499	0.046755	0.17624	0.019266	0.11724	0.18058	0.22282	0.14343	0.089504	0.099895	0.28191	0.15994	0.18743	0.14101	0.20099	-2.3021	-2.2229	-2.7313	-2.6979	-2.2188	-3.1562	-2.4167	-2.7188	-2.5729	-2.2521	-2.8	-2.6667	-2.4604	-3.0896	-2.5146	-2.4625	-35.377	9.577	201.374	218.023	104.660	186.832	140.552	271.021	268.095	282.602	256.791	-60.281	233.858	283.857	279.949	229.852	0.00011911	0.00072148	9.7259e-05	618.25	6.5116e-06	7.5866e-06	491.62	260.33	6.3867e-06	4.3483e-06	216.81	86.781	108.32	56.429	4.3845e-06	44.216	0.0009938	0.0011719	0.00032467	671.76	1.111e-05	1.3069e-05	547.58	277.86	1.1424e-05	1.3125e-05	243.28	95.685	116.08	60.091	1.2378e-05	47.429	263.680	74.693	285.731	-51.619	213.076	153.028	-53.878	-46.971	201.565	34.536	-50.728	-46.124	-42.550	-37.727	28.765	-43.035	-8191	255	
3556.295	1	1	0	0	0.26547	0.010607	0.098646	0.069076	0.29657	0.16543	0.21887	0.058775	0.19083	0.047585	0.064467	0.13373	0.40695	0.067792	0.26306	0.054683	-2.5896	-2.0958	-2.7938	-2.7042	-2.2167	-2.8896	-2.4833	-2.5312	-2.9625	-2.3417	-2.6063	-2.8521	-2.1667	-3.1708	-2.5625	-2.4417	189.002	0.646	171.364	230.645	171.356	245.461	257.897	11.280	283.672	286.155	253.302	163.399	-28.797	266.617	128.653	72.429	0.00022355	0.00028445	0.00023083	624.73	5.8862e-06	7.1255e-06	498.21	262.42	3.3168e-06	6.7602e-06	217.54	86.41	108.23	56.519	1.2183e-06	44.377	0.0010288	0.001211	0.00030515	674.33	1.1543e-05	1.3152e-05	550.02	279.54	1.2024e-05	1.3214e-05	244.07	95.908	116.91	60.057	1.1917e-05	47.369	203.030	85.626	6.639	-51.841	-10.878	40.310	-53.643	-46.913	171.746	68.604	-50.036	-46.262	-42.530	-37.876	294.737	-42.857	-8191	255	
3556.391	1	1	0	0	0.092405	0.085602	0.09964	0.12863	0.098373	0.04158	0.12926	0.12093	0.1949	0.17494	0.14011	0.31763	0.10903	0.12228	0.19188	0.073728	-2.5187	-2.4354	-2.6542	-2.9813	-2.2708	-3.0354	-2.5667	-2.5979	-2.7208	-2.3667	-2.6479	-2.8063	-2.3646	-2.9792	-2.5771	-2.4271	248.646	35.732	42.629	157.766	123.051	12.048	-12.467	-64.644	231.779	-16.352	-42.698	-11.352	13.788	248.179	254.446	177.335	0.00025885	0.00099413	0.00015606	628.32	4.3108e-06	2.1154e-06	497.98	262.07	4.4922e-06	3.6551e-06	215.76	85.329	107.38	55.927	5.1771e-06	43.333	0.0010934	0.0011847	0.00029287	675.11	1.2443e-05	1.2784e-05	544.63	277.65	1.2727e-05	1.2686e-05	239.8	94.759	116.2	59.261	1.1532e-05	46.755	191.762	2.762	-19.046	-51.688	263.602	-52.596	-53.902	-47.103	232.441	-2.069	-50.697	-46.092	-42.346	-37.982	149.104	-43.118	-8191	255	
3556.487	1	1	0	0	0.027869	0.21347	0.1629	0.17268	0.047925	0.11489	0.088186	0.21901	0.32176	0.15159	0.17043	0.19578	0.24112	0.15366	0.12605	0.21111	-2.4167	-2.1917	-2.6042	-2.8688	-2.0646	-2.8542	-2.6562	-2.3	-2.9875	-2.2854	-2.7021	-2.7646	-2.25	-2.8312	-2.6875	-2.4688	-1.266	122.841	65.793	214.449	-62.165	246.079	23.651	147.120	121.520	-24.032	-26.372	261.430	124.958	-28.736	99.539	226.033	0.00011879	0.00071773	0.00012709	619.03	3.357e-06	4.8267e-06	492.4	260.08	2.009e-06	6.9399e-06	215.29	85.88	106.88	55.792	6.4519e-06	43.348	0.0011371	0.0011345	0.00028249	670.61	1.3036e-05	1.2158e-05	540.04	277.82	1.3119e-05	1.2161e-05	239.54	95.383	116.62	59.128	1.1415e-05	47.28	206.760	7.716	56.374	-51.640	167.253	99.109	-54.237	-47.093	68.410	-10.387	-50.863	-46.066	-42.364	-37.669	21.230	-42.935	-8191	255	
3556.581	1	1	0	0	0.057434	0.24736	0.081334	0.072909	0.10751	0.2663	0.065946	0.26782	0.15132	0.34588	0.15114	0.030295	0.20106	0.075894	0.15649	0.19685	-2.5354	-2.5375	-2.2562	-3.1354	-2.2125	-2.4708	-2.8396	-2.2396	-2.8	-2.5125	-2.4542	-2.8521	-2.3167	-2.7167	-2.7708	-2.3167	43.265	117.774	-23.119	-47.694	-31.026	141.181	118.900	283.164	276.396	101.472	259.478	185.569	292.875	219.717	154.821	-47.437	0.00023076	0.00062257	0.00013272	620.98	5.766e-06	9.1627e-06	494.36	260.35	2.7568e-06	3.4785e-06	216.12	85.565	107.92	56.131	3.8209e-06	43.893	0.0011544	0.0010909	0.00028138	677.65	1.3238e-05	1.1753e-05	544.76	280.6	1.3167e-05	1.1895e-05	241.51	97.093	117.61	59.506	1.1373e-05	48.224	199.730	-64.165	5.694	-51.769	76.788	30.757	-54.014	-46.917	110.443	21.749	-50.256	-45.942	-42.628	-37.783	108.123	-42.852	-8191	255	
3556.678	1	1	0	0	0.13038	0.14014	0.15336	0.20388	0.15023	0.17268	0.015134	0.1346	0.31189	0.22566	0.21213	0.25671	0.10098	0.25311	0.22005	0.16205	-2.4479	-2.5646	-2.2458	-2.9771	-2.2229	-2.7812	-2.8604	-2.3021	-2.8646	-2.6104	-2.1833	-3.0812	-2.4313	-2.5563	-2.6479	-2.4708	153.490	-62.242	-24.981	199.800	100.107	122.791	234.290	-38.703	272.709	55.567	260.958	-55.658	-52.970	188.528	234.342	162.589	8.2e-05	0.00026835	0.00018508	623.28	7.3075e-06	6.6804e-06	498.61	260.89	4.6295e-06	6.4515e-06	218.53	87.166	109.09	56.675	5.2216e-06	44.372	0.0011355	0.0010756	0.00028256	685.05	1.2899e-05	1.1368e-05	550.84	283.11	1.2598e-05	1.1758e-05	244.3	98.427	117.67	59.736	1.1743e-05	48.701	277.579	152.208	-19.855	-51.678	60.453	-48.513	-53.603	-46.738	77.564	130.202	-50.495	-46.309	-42.542	-38.128	178.205	-42.710	-8191	255	
3556.774	1	1	0	0	0.18345	0.15863	0.12915	0.2238	0.2175	0.11407	0.066988	0.2367	0.27246	0.20718	0.045038	0.10638	0.2459	0.17583	0.2513	0.18146	-2.4354	-2.5458	-2.4667	-3.0625	-2.2812	-2.4458	-3.0271	-2.4375	-2.65	-2.7938	-2.3312	-2.8563	-2.5375	-2.7375	-2.9417	-2.3438	-46.726	-38.052	55.728	235.420	59.775	82.538	119.533	29.737	123.564	141.144	9.316	279.542	253.842	267.065	117.308	111.078	0.0001157	0.00026279	0.00023308	621.16	7.6825e-06	5.1533e-06	488.74	259.52	4.1725e-06	4.4578e-06	215.03	86.353	107.78	56.056	1.1992e-05	44.081	0.0010823	0.0010634	0.00029633	683.7	1.2341e-05	1.1218e-05	546.3	281.78	1.2025e-05	1.1431e-05	242.39	97.335	116.35	59.258	1.2398e-05	48.41	264.346	289.204	104.471	-51.832	87.656	89.791	-53.483	-47.060	127.043	14.825	-50.420	-46.019	-42.161	-37.963	210.392	-43.043	-8191	255	
3556.894	1	1	0	0	0.19318	0.22945	0.094179	0.10221	0.30759	0.24697	0.12745	0.083402	0.35045	0.085445	0.11114	0.21478	0.14459	0.24961	0.27469	0.16594	-2.1854	-2.7792	-2.3625	-2.8438	-2.4583	-2.5021	-3.0896	-2.3208	-2.5062	-2.5354	-2.3292	-2.8271	-2.4479	-2.3667	-3.1083	-2.2812	282.083	258.792	253.665	13.372	63.201	21.043	285.086	-33.947	144.898	113.688	85.596	219.267	-50.399	249.888	263.793	191.755	0.00011055	0.00049834	0.00026802	621.89	1.0397e-05	2.9898e-06	493.38	261.44	6.3906e-06	5.2008e-06	219.11	86.762	108.4	56.441	7.4121e-06	44.574	0.0010389	0.0010408	0.0003163	681.18	1.1959e-05	1.1184e-05	550.25	281.62	1.1768e-05	1.1426e-05	246.74	97.341	116.53	59.4	1.3225e-05	48.637	180.568	-9.814	84.829	-52.045	103.144	122.749	-54.016	-47.177	69.026	59.898	-50.461	-46.265	-42.641	-37.935	208.335	-42.916	-8191	255	
3556.991	1	1	0	0	0.21723	0.057644	0.10965	0.10605	0.22283	0.052933	0.31794	0.34703	0.12271	0.16074	0.27175	0.21954	0.14103	0.30332	0.22864	0.10888	-2.0583	-2.8104	-2.2188	-2.9646	-2.6208	-2.2917	-2.9146	-2.4188	-2.5833	-2.8771	-2.4896	-2.7729	-2.5104	-2.4708	-3.0625	-2.4646	78.208	177.293	111.998	26.073	121.801	45.266	199.161	244.771	-15.909	-59.288	250.017	191.057	-34.748	287.919	-18.674	211.806	0.00012646	0.00041193	0.00015685	627.83	8.6473e-06	4.8644e-06	497.81	264.17	2.0292e-06	3.3734e-06	219.36	87.54	108.39	56.764	3.4066e-06	44.877	0.0010176	0.0010572	0.00033864	683.56	1.1704e-05	1.1383e-05	558.73	282.43	1.1475e-05	1.1737e-05	249.72	97.505	116.93	59.95	1.3633e-05	48.701	210.667	48.034	110.552	-52.271	104.122	189.460	-53.812	-47.079	215.508	142.241	-50.620	-46.286	-42.526	-37.918	146.920	-42.582	-8191	255	
3557.087	1	1	0	0	0.3644	0.1919	0.19289	0.30422	0.12075	0.30931	0.19021	0.47423	0.11281	0.37993	0.027865	0.24123	0.22515	0.30887	0.16229	0.13805	-1.9104	-2.7271	-2.1312	-2.8771	-2.6354	-2.4313	-3.1625	-2.5396	-2.3458	-2.9292	-2.2875	-2.6917	-2.8583	-2.3229	-2.8354	-2.8	-48.660	90.733	53.581	-24.904	224.651	284.945	148.159	240.505	238.058	242.597	58.167	210.949	12.892	264.432	250.410	167.427	0.00013501	0.00030937	0.00032467	625.6	5.9567e-06	5.1493e-06	504.14	262.75	7.224e-06	5.2985e-06	221.62	87.118	108.09	56.541	2.7659e-06	44.644	0.00099191	0.0011019	0.00034691	681.21	1.1482e-05	1.2086e-05	564.24	282.45	1.1154e-05	1.2502e-05	250.69	97.371	116.27	60.062	1.3273e-05	48.375	226.954	108.268	-7.195	-51.773	112.783	208.858	-53.882	-46.959	173.873	222.888	-50.606	-46.068	-42.637	-37.769	99.410	-42.645	-8191	255	
3557.183	1	1	0	0	0.30607	0.14001	0.11932	0.14117	0.15053	0.11478	0.13951	0.21432	0.15982	0.20418	0.30088	0.12545	0.1211	0.35367	0.31947	0.11439	-2.1167	-2.9229	-2.3958	-2.5833	-2.8708	-2.0312	-2.9521	-2.475	-2.2979	-3.1667	-2.2417	-2.5104	-2.9688	-2.2479	-2.7833	-2.8688	-11.606	35.610	167.505	246.462	152.836	220.259	-44.693	-54.843	-8.973	45.791	-63.867	-12.372	194.429	189.455	165.322	-5.708	0.00012333	0.0010152	0.00013215	618.85	5.3642e-06	6.6088e-06	492.7	261.26	1.5149e-06	5.6378e-06	216.51	87.078	107.87	56.214	8.975e-06	43.992	0.00097478	0.0011735	0.00033558	672.36	1.1327e-05	1.2853e-05	549.81	278.76	1.1157e-05	1.3155e-05	245	95.638	115.75	59.78	1.268e-05	47.629	217.843	79.950	-35.293	-52.060	36.074	212.240	-53.866	-47.095	129.512	148.865	-50.565	-46.421	-42.543	-37.808	106.018	-42.655	-8191	255	
#DATA ENDS
