BOXY.EXE: ISS Imagent and Oximeter Data Acquisition Program Version 0.80
Ascii Record File

#ACQ INFORMATION
2  Detector Channels 
16  External MUX Channels 
1  Auxiliary Channels 
5000  Waveform (CCF) Frequency (Hz)
1  Waveforms Skipped 
30  Waveforms Averaged 
1  Cycles Averaged 
16  Acquisitions per Waveform 
10.0806  Updata Rate (Hz) 

#FILE INFORMATION
TRUE -- External MUX Channel results are PARSED.
FALSE -- AC DC and Phase are NOT grouped.
TRUE -- Companion Program Settings File CREATED.
FALSE -- AC data not excluded
FALSE -- DC data not excluded
FALSE -- Phase data not excluded
FALSE -- Auxillary Chn. data not excluded
Tab delimiters

#CALIBRATION STATE
TRUE -- Waveform Calibration Values APPLIED.


#AUX CALIBRATION VALUES
Val Type	aux-1	

Term	1.0000e+00	
Factor	0.0000e+00	


#WF CALIBRATION VALUES
A = Detector Channel
Val Type	A-AC1	A-AC2	A-AC3	A-AC4	A-AC5	A-AC6	A-AC7	A-AC8	A-AC9	A-AC10	A-AC11	A-AC12	A-AC13	A-AC14	A-AC15	A-AC16	A-DC1	A-DC2	A-DC3	A-DC4	A-DC5	A-DC6	A-DC7	A-DC8	A-DC9	A-DC10	A-DC11	A-DC12	A-DC13	A-DC14	A-DC15	A-DC16	A-Ph1	A-Ph2	A-Ph3	A-Ph4	A-Ph5	A-Ph6	A-Ph7	A-Ph8	A-Ph9	A-Ph10	A-Ph11	A-Ph12	A-Ph13	A-Ph14	A-Ph15	A-Ph16	

Term	0.00000e+00	0.00000e+00	0.00000e+00	0.00000e+00	0.00000e+00	0.00000e+00	0.00000e+00	0.00000e+00	0.00000e+00	0.00000e+00	0.00000e+00	0.00000e+00	0.00000e+00	0.00000e+00	0.00000e+00	0.00000e+00	0.00000e+00	0.00000e+00	0.00000e+00	0.00000e+00	0.00000e+00	0.00000e+00	0.00000e+00	0.00000e+00	0.00000e+00	0.00000e+00	0.00000e+00	0.00000e+00	0.00000e+00	0.00000e+00	0.00000e+00	0.00000e+00	0.00000e+00	0.00000e+00	0.00000e+00	0.00000e+00	0.00000e+00	0.00000e+00	0.00000e+00	0.00000e+00	0.00000e+00	0.00000e+00	0.00000e+00	0.00000e+00	0.00000e+00	0.00000e+00	0.00000e+00	0.00000e+00	
Factor	1.00000e+00	1.00000e+00	1.00000e+00	1.00000e+00	1.00000e+00	1.00000e+00	1.00000e+00	1.00000e+00	1.00000e+00	1.00000e+00	1.00000e+00	1.00000e+00	1.00000e+00	1.00000e+00	1.00000e+00	1.00000e+00	1.00000e+00	1.00000e+00	1.00000e+00	1.00000e+00	1.00000e+00	1.00000e+00	1.00000e+00	1.00000e+00	1.00000e+00	1.00000e+00	1.00000e+00	1.00000e+00	1.00000e+00	1.00000e+00	1.00000e+00	1.00000e+00	X	X	X	X	X	X	X	X	X	X	X	X	X	X	X	X	

B = Detector Channel
Val Type	B-AC1	B-AC2	B-AC3	B-AC4	B-AC5	B-AC6	B-AC7	B-AC8	B-AC9	B-AC10	B-AC11	B-AC12	B-AC13	B-AC14	B-AC15	B-AC16	B-DC1	B-DC2	B-DC3	B-DC4	B-DC5	B-DC6	B-DC7	B-DC8	B-DC9	B-DC10	B-DC11	B-DC12	B-DC13	B-DC14	B-DC15	B-DC16	B-Ph1	B-Ph2	B-Ph3	B-Ph4	B-Ph5	B-Ph6	B-Ph7	B-Ph8	B-Ph9	B-Ph10	B-Ph11	B-Ph12	B-Ph13	B-Ph14	B-Ph15	B-Ph16	

Term	0.00000e+00	0.00000e+00	0.00000e+00	0.00000e+00	0.00000e+00	0.00000e+00	0.00000e+00	0.00000e+00	0.00000e+00	0.00000e+00	0.00000e+00	0.00000e+00	0.00000e+00	0.00000e+00	0.00000e+00	0.00000e+00	0.00000e+00	0.00000e+00	0.00000e+00	0.00000e+00	0.00000e+00	0.00000e+00	0.00000e+00	0.00000e+00	0.00000e+00	0.00000e+00	0.00000e+00	0.00000e+00	0.00000e+00	0.00000e+00	0.00000e+00	0.00000e+00	-7.23465e+01	-1.49617e+02	-1.26872e+02	-1.83762e+02	-5.18693e+01	-6.06153e+01	-1.58526e+02	-1.62015e+02	-4.81224e+01	-7.56965e+01	-1.70957e+02	-1.70833e+02	-1.76992e+02	-1.76825e+02	-4.67194e+01	-1.50028e+02	
Factor	1.63432e-05	1.10510e-04	3.48016e-05	1.52478e-01	1.22918e-06	1.22249e-06	1.63273e-01	5.15583e-02	9.18127e-07	1.18410e-06	8.55517e-02	2.92432e-02	2.25317e-02	9.04730e-03	1.05066e-06	1.29668e-02	1.38578e-06	1.45995e-06	4.07899e-07	7.71863e-02	1.59237e-08	1.59708e-08	7.76724e-02	2.61251e-02	1.59683e-08	1.59842e-08	4.15537e-02	1.42499e-02	1.15109e-02	4.55475e-03	1.60640e-08	6.29093e-03	X	X	X	X	X	X	X	X	X	X	X	X	X	X	X	X	



#DISTANCE SETTINGS
A = Detector Channel
A-1	A-2	A-3	A-4	A-5	A-6	A-7	A-8	A-9	A-10	A-11	A-12	A-13	A-14	A-15	A-16	

2.5000e+00	3.0000e+00	2.5000e+00	3.0000e+00	2.0000e+00	3.0000e+00	1.5000e+00	3.0000e+00	3.0000e+00	3.0000e+00	3.0000e+00	3.0000e+00	3.0000e+00	3.0000e+00	1.5000e+00	3.0000e+00	

B = Detector Channel
B-1	B-2	B-3	B-4	B-5	B-6	B-7	B-8	B-9	B-10	B-11	B-12	B-13	B-14	B-15	B-16	

1.0000e+01	1.0000e+01	1.0000e+01	1.4400e+00	1.0000e+01	1.0000e+01	1.5100e+00	1.9400e+00	1.0000e+01	1.0000e+01	1.9900e+00	2.4900e+00	2.4100e+00	2.9000e+00	1.0000e+01	2.9800e+00	




#DATA BEGINS
time	group	step	mark	flag	A-AC1	A-AC2	A-AC3	A-AC4	A-AC5	A-AC6	A-AC7	A-AC8	A-AC9	A-AC10	A-AC11	A-AC12	A-AC13	A-AC14	A-AC15	A-AC16	A-DC1	A-DC2	A-DC3	A-DC4	A-DC5	A-DC6	A-DC7	A-DC8	A-DC9	A-DC10	A-DC11	A-DC12	A-DC13	A-DC14	A-DC15	A-DC16	A-Ph1	A-Ph2	A-Ph3	A-Ph4	A-Ph5	A-Ph6	A-Ph7	A-Ph8	A-Ph9	A-Ph10	A-Ph11	A-Ph12	A-Ph13	A-Ph14	A-Ph15	A-Ph16	B-AC1	B-AC2	B-AC3	B-AC4	B-AC5	B-AC6	B-AC7	B-AC8	B-AC9	B-AC10	B-AC11	B-AC12	B-AC13	B-AC14	B-AC15	B-AC16	B-DC1	B-DC2	B-DC3	B-DC4	B-DC5	B-DC6	B-DC7	B-DC8	B-DC9	B-DC10	B-DC11	B-DC12	B-DC13	B-DC14	B-DC15	B-DC16	B-Ph1	B-Ph2	B-Ph3	B-Ph4	B-Ph5	B-Ph6	B-Ph7	B-Ph8	B-Ph9	B-Ph10	B-Ph11	B-Ph12	B-Ph13	B-Ph14	B-Ph15	B-Ph16	aux-1	digaux	

2838.965	1	1	0	512	0.27464	0.16221	0.0047278	0.233	0.19277	0.23939	0.31089	0.2456	0.15099	0.18489	0.21206	0.17217	0.37804	0.2363	0.12006	0.21405	-2.6771	-2.6208	-2.7208	-3.2313	-2.6229	-2.8375	-3.1021	-2.3583	-3.1271	-2.7292	-2.6354	-3.1292	-2.7521	-3.0375	-2.7562	-2.6833	195.256	165.776	294.962	274.909	290.134	11.066	239.593	229.109	108.972	93.766	-33.908	265.080	241.535	298.401	212.407	289.139	0.00020587	0.0012895	0.00028114	1073.2	9.3845e-06	1.5745e-05	1074.4	339.49	5.0887e-06	4.8085e-06	400.51	120.43	97.243	38.133	1.209e-05	56.162	0.0019317	0.0020346	0.00051168	1077.3	2.2076e-05	2.2184e-05	1071.2	342.54	2.2129e-05	2.2042e-05	409.54	128.43	104.1	40.608	1.9944e-05	58.861	156.437	250.094	103.325	-44.173	152.979	-7.696	-44.757	-39.213	162.375	71.138	-41.045	-36.265	-34.469	-29.672	104.501	-32.211	-8191	255	
2839.061	1	1	0	0	0.22429	0.072936	0.07006	0.019622	0.26074	0.08188	0.22662	0.18074	0.19628	0.24424	0.31835	0.11806	0.072213	0.13596	0.18541	0.18787	-2.6917	-2.8771	-2.4562	-3.1833	-2.4604	-2.7646	-2.9188	-2.825	-2.9542	-2.7812	-2.6063	-3	-2.6937	-2.7854	-3.1479	-2.4104	54.000	212.492	-43.229	47.261	261.931	207.753	282.434	252.269	243.050	220.835	271.662	65.155	300.942	285.418	235.488	7.462	0.00022284	0.00094996	0.00025953	1064	1.665e-05	1.6649e-05	1032	332.59	5.1972e-06	3.7149e-06	385.18	117.32	95.607	37.386	5.4748e-06	55.735	0.0019037	0.001953	0.00049301	1066.5	2.1535e-05	2.0978e-05	1034	336.29	2.1595e-05	2.0884e-05	396.34	125.36	102.56	39.699	2.0138e-05	58.254	204.178	263.440	6.895	-44.051	208.590	116.337	-44.786	-39.569	140.380	36.640	-41.316	-36.208	-34.527	-29.633	291.692	-31.979	-8191	255	
2839.133	1	1	0	0	0.11122	0.076611	0.085319	0.23326	0.029694	0.16808	0.12175	0.12584	0.088778	0.18097	0.18807	0.31997	0.24353	0.2102	0.040298	0.10339	-2.6875	-2.9437	-2.375	-3.2375	-2.7583	-2.8146	-3.35	-2.5104	-2.7625	-2.8167	-2.3146	-3.0292	-2.7396	-2.5062	-3.1146	-2.6437	103.134	58.280	7.820	-49.798	103.908	150.135	137.336	233.463	-55.240	170.799	200.619	297.475	282.287	-1.423	-56.502	198.372	0.00033037	0.00098503	0.00023026	1054.8	2.1998e-06	3.6859e-06	1046.6	333.44	8.3362e-06	9.3333e-06	399.36	121.55	97.228	38.482	7.6515e-06	58.828	0.0018895	0.001871	0.00051059	1063.4	2.1819e-05	2.0219e-05	1049.5	338.48	2.1675e-05	2.0419e-05	409.66	129.49	103.94	40.745	2.1245e-05	61.615	190.158	-1.125	-29.599	-43.981	267.101	228.365	-45.063	-39.247	17.710	71.730	-41.303	-36.154	-34.658	-29.760	191.990	-32.145	-8191	255	
2839.253	1	1	0	0	0.098039	0.07849	0.22154	0.39898	0.19647	0.27384	0.2473	0.24581	0.22003	0.022964	0.15358	0.30991	0.079505	0.077615	0.086927	0.28623	-2.3708	-2.8875	-2.1708	-3.1583	-2.7417	-2.4375	-3.425	-2.5104	-2.7417	-2.9833	-2.4792	-2.9542	-2.8583	-2.5792	-3.1708	-2.6229	104.279	207.378	-28.816	262.859	106.768	19.977	169.278	294.639	133.290	115.961	258.867	2.096	12.521	-45.426	195.957	-47.444	0.00017401	0.00069171	0.00013646	1066.3	4.5574e-06	9.0666e-06	1074.8	337.78	1.4978e-06	1.1602e-05	409.64	125.9	98.779	39.752	1.0309e-05	60.818	0.0019244	0.0018375	0.00054384	1074.1	2.1924e-05	1.9666e-05	1079.9	342.04	2.1417e-05	1.9745e-05	421.97	133.2	105.15	41.645	2.141e-05	63.207	200.836	113.328	162.213	-44.186	139.136	202.638	-45.042	-39.345	-28.989	12.521	-41.378	-36.061	-34.844	-29.886	257.885	-31.811	-8191	255	
2839.350	1	1	0	0	0.25062	0.1946	0.21647	0.049406	0.14632	0.095195	0.077598	0.43442	0.14819	0.26987	0.25164	0.058652	0.089724	0.061908	0.079623	0.11826	-2.3979	-2.8625	-2.3542	-2.9333	-2.7604	-2.6896	-3.1688	-2.4792	-2.55	-3.0292	-2.3417	-2.9292	-3.1146	-2.6729	-3.0708	-2.5667	285.419	170.105	205.673	-25.573	-29.032	131.865	280.383	187.818	43.745	117.806	-32.079	249.431	-3.505	301.607	285.311	267.567	4.0495e-05	0.00095709	0.00024613	1060.1	2.3814e-05	4.8644e-06	1062.6	335.19	1.2361e-05	8.2919e-06	402.88	124.44	97.659	40.357	4.0759e-06	61.124	0.0018126	0.0018102	0.00054292	1067.5	2.0806e-05	1.9612e-05	1070.5	340.1	2.0287e-05	2.0035e-05	415.75	132.14	103.68	42.169	2.1528e-05	63.286	217.819	107.375	46.695	-44.264	76.837	116.089	-44.945	-39.426	99.668	-14.312	-40.925	-36.212	-34.922	-29.749	119.789	-31.917	-8191	255	
2839.446	1	1	0	0	0.19213	0.29534	0.074054	0.17808	0.066656	0.097753	0.23914	0.31412	0.10883	0.16945	0.14507	0.028047	0.061642	0.077034	0.15909	0.19218	-2.0542	-3.0687	-2.4396	-3.0896	-2.8729	-2.5375	-3.3917	-2.6958	-2.6333	-3.1542	-2.6	-2.9	-3.1271	-2.4313	-3.2	-2.9583	199.992	78.523	241.650	236.808	50.408	-50.618	54.972	202.541	108.166	242.992	275.601	117.693	231.747	-50.928	264.654	150.212	8.7199e-05	0.00012549	0.00040119	1039.1	1.5698e-05	1.2289e-05	1043.7	332.02	3.2929e-06	1.9884e-06	402.56	125.74	98.733	40.347	1.7144e-05	61.502	0.0017043	0.0018358	0.00053997	1048	1.9452e-05	1.9963e-05	1051.1	336.95	1.9222e-05	2.0688e-05	413.4	132.33	103.41	42.44	2.1151e-05	63.516	199.001	177.280	10.468	-44.366	93.898	172.263	-44.952	-39.444	7.113	-8.604	-41.074	-36.204	-34.731	-29.707	184.618	-32.137	-8191	255	
2839.542	1	1	0	0	0.16078	0.012684	0.23724	0.40519	0.25911	0.15615	0.1547	0.13279	0.19413	0.052947	0.1051	0.31937	0.18649	0.4475	0.19492	0.14091	-2.1875	-3.1083	-2.3708	-2.9167	-3.1396	-2.4208	-3.0375	-2.9167	-2.4979	-3.2708	-2.5896	-2.7417	-3.0875	-2.4188	-3.0479	-2.9062	-35.686	232.495	132.651	272.697	201.497	123.908	259.939	212.883	129.996	27.935	39.316	180.704	201.637	244.446	-43.559	-39.896	0.00024623	0.00023575	0.00010612	1053.7	9.2666e-06	4.2187e-06	1062.8	336.06	2.3146e-06	8.8583e-06	405.6	126.35	99.132	40.888	2.0875e-05	62.539	0.0016302	0.0018908	0.00053261	1051.5	1.8883e-05	2.0623e-05	1062.9	338.81	1.8914e-05	2.0886e-05	419.45	132.87	104.08	42.96	2.1282e-05	63.879	220.763	99.429	170.847	-43.966	8.654	229.221	-44.997	-39.559	153.805	298.039	-40.987	-36.371	-34.866	-29.526	175.985	-31.902	-8191	255	
2839.661	1	1	0	0	0.23796	0.30324	0.054233	0.34397	0.25639	0.034612	0.23247	0.29954	0.27932	0.074132	0.26012	0.22464	0.17129	0.10788	0.24876	0.085286	-1.8563	-3.0792	-2.4854	-2.7562	-2.9083	-2.4792	-2.8688	-3.0729	-2.3667	-3.1833	-2.7583	-2.7083	-3.1979	-2.5229	-2.9	-3.0354	65.403	163.614	44.526	247.627	-18.931	144.326	280.820	206.294	177.142	121.112	200.968	165.129	41.842	277.128	261.881	-49.246	0.00019313	0.00051384	0.00023006	1056.9	1.2042e-05	6.4659e-06	1077.7	338.74	2.7283e-06	1.3259e-05	409.88	127.48	100.22	40.776	9.4441e-06	62.06	0.0017041	0.001929	0.00054261	1057.1	1.9556e-05	2.1309e-05	1079.8	339.74	1.9969e-05	2.1069e-05	422.89	132.92	105.46	42.993	2.131e-05	63.162	223.340	-6.360	48.826	-44.350	193.216	92.399	-44.745	-39.388	207.400	121.867	-41.440	-36.213	-34.652	-29.889	205.040	-32.032	-8191	255	
2839.732	1	1	0	0	0.11254	0.314	0.22936	0.0057215	0.060257	0.15984	0.10198	0.13759	0.23948	0.06396	0.05848	0.10358	0.068332	0.28957	0.12219	0.25552	-2.0625	-3.0187	-2.6	-2.7792	-3.1208	-2.4562	-2.8854	-3.0021	-2.3937	-2.9354	-2.9625	-2.5375	-3.2208	-2.7979	-2.8042	-3.1937	55.356	80.975	269.709	229.645	4.466	182.572	251.188	220.474	24.623	66.058	261.320	243.481	81.964	64.398	176.355	-50.460	0.00027935	0.00090426	0.00026627	1047.6	1.7228e-05	6.0485e-06	1043.9	331.54	6.3796e-06	4.1476e-06	400.48	123.68	98.322	39.83	4.8242e-06	60.372	0.0017713	0.0019123	0.00053936	1039.7	2.0149e-05	2.0991e-05	1046.6	332.8	2.0361e-05	2.0898e-05	411.21	128.66	104.02	42.11	2.0352e-05	61.531	219.404	-56.569	285.710	-44.158	181.607	118.964	-45.071	-39.164	200.448	50.944	-41.179	-36.316	-34.593	-29.590	48.915	-31.871	-8191	255	
2839.830	1	1	0	0	0.1193	0.15648	0.21531	0.20872	0.30193	0.068766	0.30493	0.54672	0.23828	0.35538	0.1377	0.15163	0.16761	0.17691	0.11658	0.1253	-2.0708	-3.0479	-2.8	-2.7292	-3.125	-2.6375	-2.8208	-3.3729	-2.3	-3.0021	-2.9854	-2.4021	-3.2	-2.5646	-2.6521	-3.1125	285.513	226.933	111.623	281.943	235.883	-6.483	259.643	268.928	-2.459	41.877	231.316	147.328	298.857	27.570	97.659	150.159	0.00025031	0.00052876	0.00012876	1038.8	8.971e-06	1.1131e-05	1034.3	331.25	3.4138e-06	2.4292e-06	398.12	123.66	97.928	39.154	1.3715e-05	60.047	0.0017973	0.0018999	0.00051628	1033.1	2.0477e-05	2.0941e-05	1035.2	332.79	2.0686e-05	2.077e-05	408.62	128.99	104.06	41.597	1.9418e-05	61.43	187.760	-24.588	295.397	-44.245	126.010	0.111	-45.173	-39.087	187.034	75.044	-41.120	-36.180	-34.528	-29.554	108.447	-32.163	-8191	255	
2839.949	1	1	0	0	0.082836	0.059909	0.20595	0.2908	0.13142	0.11392	0.31784	0.11831	0.15651	0.11328	0.18127	0.037211	0.079597	0.19811	0.35891	0.27441	-2.0729	-2.7687	-2.7042	-2.6271	-3.1125	-2.5687	-2.6188	-3.2792	-2.3438	-3.0167	-2.9562	-2.5583	-3.0875	-2.6521	-2.625	-3.0521	26.095	-7.929	70.233	234.025	-4.425	32.156	246.837	241.867	49.295	223.647	276.049	50.913	53.162	41.076	148.123	246.932	0.00027439	0.00033478	5.988e-05	1049.8	7.4056e-06	4.1672e-06	1054.8	336.99	1.9376e-06	1.623e-05	403.91	126.33	99.043	39.595	1.3341e-05	60.512	0.001824	0.0018934	0.00049028	1046.4	2.0638e-05	2.1008e-05	1049.4	337.96	2.085e-05	2.0801e-05	412.87	131.76	104.78	41.796	1.8922e-05	62.353	166.941	-35.229	-34.175	-44.122	132.271	15.768	-45.074	-39.230	21.203	140.225	-41.078	-35.973	-34.840	-29.527	134.483	-31.610	-8191	255	
2840.045	1	1	0	0	0.056765	0.16795	0.17403	0.31053	0.25717	0.10778	0.36179	0.14934	0.039408	0.14049	0.097067	0.2399	0.079695	0.036217	0.016029	0.073427	-2.1104	-2.8417	-2.875	-2.5542	-3.0042	-2.7562	-2.6479	-3.0271	-2.4708	-2.7	-3.1	-2.4729	-2.9083	-2.8833	-2.5229	-3.1958	141.159	242.074	98.566	294.860	2.437	280.690	227.554	-15.328	-19.560	-49.330	-22.623	-53.912	-10.229	-6.795	34.237	20.354	0.00018316	0.00069146	0.00043895	1054.1	1.2941e-05	1.1425e-05	1060.8	333.89	6.2806e-06	6.8735e-06	399.5	123.62	98.176	39.345	1.2247e-05	59.386	0.0018293	0.0018973	0.00048335	1056.1	2.0875e-05	2.0768e-05	1052.4	338.49	2.0894e-05	2.0267e-05	408.45	130.72	103.88	41.231	1.9048e-05	61.517	214.716	94.635	14.901	-44.175	152.077	83.076	-44.988	-39.120	118.493	121.089	-40.991	-36.086	-34.565	-29.724	78.204	-31.711	-8191	255	
2840.142	1	1	0	0	0.25135	0.29221	0.34205	0.033428	0.34675	0.24134	0.30071	0.24746	0.23375	0.25852	0.13234	0.061521	0.1808	0.35768	0.085261	0.18114	-2.1396	-2.8229	-3.0875	-2.375	-2.875	-2.8854	-2.6063	-2.9313	-2.6437	-2.7667	-3.1083	-2.3563	-3.0292	-3.0417	-2.3042	-3.0042	2.696	180.878	48.237	143.396	-49.738	112.013	195.999	226.071	-9.214	3.602	248.272	120.089	-8.312	-6.549	52.529	194.717	0.00028742	0.0010802	0.00030166	1033.5	1.0188e-05	2.0917e-05	1029.9	330.93	1.7763e-06	3.8823e-06	394.88	123.53	97.799	40.045	5.761e-06	61.666	0.0018452	0.0018247	0.00049458	1040.6	2.0804e-05	1.9976e-05	1025.2	333.73	2.0937e-05	1.9374e-05	405.3	130.65	104.14	41.907	1.984e-05	63.638	186.875	249.189	176.093	-43.933	127.277	88.118	-45.151	-38.968	276.493	-33.100	-41.026	-36.257	-34.253	-29.389	246.428	-32.076	-8191	255	
2840.238	1	1	0	0	0.40048	0.094471	0.31623	0.40132	0.12821	0.0084956	0.093791	0.13949	0.028399	0.050875	0.28106	0.10807	0.11971	0.17156	0.13925	0.16913	-2.2021	-2.6604	-3.0208	-2.4583	-2.85	-2.8937	-2.5292	-3.1688	-2.4562	-2.6125	-3.3229	-2.5375	-2.8104	-3.0417	-2.3563	-3.0896	-10.823	284.446	-36.370	-47.064	266.195	12.792	40.229	243.487	99.803	62.287	-48.488	-51.099	270.181	258.422	175.883	-2.091	0.00021676	0.00097991	8.9254e-05	1029.1	5.5061e-06	2.9587e-06	1050.8	333.63	1.041e-05	8.4771e-06	407.12	128.79	100.25	41.42	1.2392e-05	64.387	0.0018588	0.0017456	0.00052345	1039.1	2.1045e-05	1.9487e-05	1047.3	337.67	2.1404e-05	1.9132e-05	419.61	135.51	105.97	43.1	2.1026e-05	66.139	240.441	-8.381	7.118	-43.735	-9.014	221.553	-44.779	-38.700	5.848	121.118	-40.582	-35.976	-34.397	-29.081	80.496	-31.712	-8191	255	
2840.334	1	1	0	0	0.07554	0.1394	0.10903	0.14983	0.21503	0.19851	0.14028	0.26295	0.16812	0.11858	0.099999	0.17958	0.32608	0.33828	0.099129	0.25683	-2.2271	-2.4729	-3.0938	-2.7604	-2.6646	-2.9229	-2.525	-3.1312	-2.9854	-2.7604	-3.1958	-2.6229	-2.775	-3.1708	-2.3979	-3.075	105.781	129.419	50.123	-25.444	231.676	152.422	200.041	262.015	288.721	49.627	180.950	154.481	267.097	-39.285	300.446	239.392	0.00014486	0.001083	0.00018725	1047.3	1.0662e-05	1.3024e-05	1064.8	337.04	3.6417e-06	1.6785e-05	414.67	130.78	100.88	41.724	2.8593e-06	64.567	0.0018501	0.0017512	0.00054372	1050	2.072e-05	1.9677e-05	1069.3	341.6	2.0938e-05	1.9601e-05	428.63	137.73	106.26	43.537	2.1617e-05	66.313	225.748	35.729	34.832	-43.873	71.728	301.555	-44.541	-38.738	13.297	120.540	-40.233	-35.791	-34.129	-29.311	211.275	-31.579	-8191	255	
2840.430	1	1	0	0	0.31488	0.12512	0.27449	0.24823	0.10721	0.17838	0.23574	0.16283	0.15439	0.16997	0.17717	0.019187	0.18747	0.20534	0.31683	0.202	-2.5563	-2.4729	-3.1854	-2.8292	-2.7271	-3.0875	-2.45	-3.1167	-2.925	-2.3708	-3.1396	-2.8396	-2.5667	-3.1771	-2.4792	-3.0938	15.381	93.232	165.035	293.070	55.258	35.774	253.099	274.337	10.548	104.039	236.894	283.748	245.164	-43.229	131.348	154.661	0.00016146	0.00073917	0.00018031	1046.6	1.2792e-05	9.1928e-06	1048.8	334.75	1.2017e-05	1.4345e-05	399.85	125.27	98.415	40.471	1.7326e-05	61.079	0.0017902	0.0018295	0.00055261	1050.5	1.9717e-05	2.0396e-05	1055.6	338.39	1.9508e-05	2.0002e-05	414.47	132.45	102.92	42.409	2.1162e-05	63.083	158.115	52.935	60.639	-43.939	90.521	108.583	-44.714	-38.758	54.220	102.967	-40.700	-35.891	-34.206	-29.367	143.859	-31.659	-8191	255	
2840.551	1	1	0	0	0.19924	0.061856	0.064309	0.18718	0.1857	0.010796	0.20086	0.31556	0.13296	0.12363	0.075738	0.098702	0.050401	0.16374	0.08606	0.26206	-2.5729	-2.3542	-2.9062	-2.8917	-2.3937	-3.0563	-2.6333	-2.9729	-3.0729	-2.3563	-3.15	-2.7917	-2.3312	-3.25	-2.4292	-2.6688	276.839	219.294	-10.924	-25.177	197.143	55.505	236.972	251.954	229.510	208.313	163.122	277.308	191.835	278.520	116.407	254.872	0.00015049	0.0017897	0.00026556	1025.9	4.1761e-06	7.5342e-06	1022.1	329.61	1.0124e-05	3.1885e-06	395.42	123.26	97.595	39.52	3.7075e-06	60.178	0.0016749	0.0018447	0.00053169	1032.9	1.8591e-05	2.0377e-05	1024.9	332.62	1.8681e-05	2.0286e-05	406.52	129.74	101.91	41.55	2.068e-05	61.634	97.673	35.152	58.893	-43.828	158.547	77.481	-44.820	-38.728	162.174	141.183	-40.451	-35.787	-34.323	-29.365	-21.589	-31.405	-8191	255	
2840.647	1	1	0	0	0.098645	0.23558	0.1348	0.311	0.17861	0.14187	0.084499	0.23377	0.0082192	0.090045	0.29213	0.14822	0.14617	0.19048	0.21635	0.030025	-2.5958	-2.2708	-2.9437	-2.7708	-2.0667	-3.2542	-2.8583	-2.5875	-3.0896	-2.3583	-2.8312	-3.0083	-2.3292	-3.0604	-2.5583	-2.6896	297.884	122.426	48.879	-22.778	181.114	51.652	76.113	-56.556	26.976	45.803	267.734	162.671	197.809	283.924	57.240	268.813	0.00011981	0.00053908	0.00023954	1034.6	4.9799e-06	8.7688e-06	1035.2	333.66	4.1486e-06	3.5242e-06	400.07	125.5	97.953	39.334	1.0773e-05	60.369	0.0016422	0.0018549	0.00052652	1033.4	1.8602e-05	2.0673e-05	1039.3	334.56	1.9214e-05	2.0516e-05	413	130.35	102.74	41.5	2.0694e-05	61.77	213.015	-15.536	287.540	-43.620	143.929	127.883	-44.357	-38.921	118.024	80.342	-40.848	-35.765	-34.379	-28.775	90.153	-31.686	-8191	255	
2840.741	1	1	0	0	0.21584	0.11614	0.25351	0.22684	0.098476	0.061043	0.11843	0.025562	0.084441	0.087405	0.14353	0.23938	0.27549	0.062161	0.31354	0.15678	-2.75	-2.3812	-2.8271	-2.9854	-2.3063	-3.0208	-2.7146	-2.4583	-2.9375	-2.5896	-2.8521	-3.1958	-2.3708	-3.1458	-2.7375	-2.7146	-27.081	197.700	195.253	235.547	60.540	285.515	218.358	-12.829	-20.703	219.068	198.805	-24.136	269.837	138.786	-11.600	-52.140	0.00033557	0.0013098	0.00012549	1045.9	1.2333e-05	1.3089e-05	1063.3	336.06	8.5936e-06	9.0246e-06	406.54	124.99	97.879	38.837	3.182e-06	59.81	0.001697	0.0018509	0.00051912	1038.5	1.9091e-05	2.0197e-05	1061.8	334.8	1.9587e-05	2.0223e-05	416.4	129.92	103.44	40.988	2.0252e-05	60.622	216.928	-7.698	-14.720	-43.847	280.357	87.848	-44.319	-38.784	103.106	143.004	-40.872	-35.794	-34.286	-29.427	14.459	-31.526	-8191	255	
2840.837	1	1	0	0	0.15154	0.14378	0.073222	0.31432	0.15165	0.27195	0.3378	0.095554	0.14038	0.047589	0.17604	0.021825	0.15769	0.17066	0.27792	0.27568	-2.5187	-2.5	-2.6417	-3.0729	-2.1229	-3.0417	-2.8646	-2.5938	-3.15	-2.6604	-2.7042	-3.0854	-2.4313	-2.7583	-2.8688	-2.4625	290.354	237.489	52.872	207.791	41.724	212.918	244.243	33.668	179.362	97.636	-43.928	9.360	228.830	217.581	122.358	-0.989	0.00010722	0.00036897	0.00051082	1042.7	7.3045e-06	1.3111e-05	1034.4	328.87	4.4761e-06	2.8683e-06	391.95	120.82	96.381	38.56	1.4203e-05	58.833	0.0017437	0.0018411	0.00050068	1031.2	1.957e-05	1.9922e-05	1029.7	328.2	1.9925e-05	2.0123e-05	401.21	126.84	101.87	40.586	1.9305e-05	59.945	-47.377	34.155	45.362	-43.304	295.719	44.151	-44.769	-39.026	58.622	47.457	-41.165	-35.825	-34.629	-29.285	22.894	-31.421	-8191	255	
2840.958	1	1	0	0	0.24816	0.03766	0.12391	0.31712	0.093311	0.11468	0.13939	0.31159	0.17818	0.12814	0.41861	0.093323	0.092333	0.14424	0.17397	0.22725	-2.675	-2.4979	-2.6312	-3.0333	-2.4625	-2.8917	-3.0417	-2.5104	-3.0167	-2.6083	-2.65	-3.2313	-2.4458	-2.8333	-3.0438	-2.4729	215.819	60.709	-44.953	251.604	117.008	119.457	17.898	-16.430	-21.471	-36.357	194.058	292.901	78.651	280.392	123.109	302.557	0.00011045	0.00047299	0.00025225	1028.7	4.1206e-06	8.2976e-06	1028.9	330.45	6.0753e-06	3.0517e-06	397.34	124.24	97.927	39.636	5.1016e-06	60.769	0.0017641	0.0018534	0.00047783	1024.8	2.02e-05	2.0305e-05	1024.7	330.76	2.052e-05	2.0776e-05	405.06	130.4	103.7	41.725	1.9008e-05	62.743	218.924	63.396	-23.944	-43.620	246.981	228.869	-44.308	-38.876	165.234	151.955	-41.171	-35.953	-34.109	-29.478	62.226	-31.602	-8191	255	
2841.030	1	1	0	0	0.14051	0.062915	0.16145	0.19218	0.18136	0.20793	0.12557	0.09627	0.11025	0.22193	0.43857	0.24414	0.12979	0.23522	0.07241	0.27029	-2.6813	-2.6896	-2.5875	-3.2375	-2.3646	-2.7083	-3.0062	-2.6104	-2.8896	-2.7062	-2.8396	-3.0875	-2.5333	-2.7542	-3.0187	-2.3167	164.561	75.215	120.122	260.390	206.721	251.937	288.128	217.230	77.176	96.403	158.933	297.645	29.334	249.174	135.251	181.611	0.00015755	0.00090812	6.7231e-05	1030.7	1.1014e-05	1.0147e-05	1053.9	332.34	6.3656e-06	2.0741e-05	407.51	128.65	98.751	39.996	1.2317e-05	62.717	0.001816	0.0019184	0.00048368	1036.1	2.1062e-05	2.09e-05	1043.4	335.64	2.108e-05	2.0927e-05	414.46	134.78	104.9	42.152	1.9299e-05	64.503	212.640	118.014	0.932	-43.490	246.308	106.522	-44.491	-38.974	138.398	-15.149	-40.756	-35.882	-34.333	-29.219	146.671	-31.564	-8191	255	
2841.126	1	1	0	0	0.32701	0.28508	0.14521	0.45656	0.17994	0.22111	0.44551	0.22816	0.20907	0.27874	0.16662	0.10683	0.20126	0.20569	0.41531	0.09716	-2.4604	-2.6708	-2.475	-3.3354	-2.4188	-2.6771	-3.3063	-2.4792	-2.8479	-2.9146	-2.3583	-3.1667	-2.7479	-2.6063	-3.1271	-2.3792	202.687	100.801	30.466	274.772	11.918	99.209	214.834	225.611	-42.324	172.367	255.336	195.600	-23.661	267.078	79.740	-9.941	0.00015817	0.0028297	0.00027954	1043.8	2.4283e-06	1.8453e-05	1060	333.69	3.7318e-06	9.3874e-06	402.68	126.17	98.475	39.487	3.5971e-06	60.982	0.0018359	0.0018695	0.00048966	1046.5	2.122e-05	1.9977e-05	1055	337.28	2.0929e-05	1.9851e-05	412.89	132.62	103.99	41.227	1.9459e-05	62.582	212.297	-18.236	91.407	-43.784	176.247	108.464	-44.752	-38.754	138.622	-6.877	-40.867	-35.640	-34.688	-29.664	108.056	-31.576	-8191	255	
2841.222	1	1	0	0	0.15182	0.26947	0.24897	0.1589	0.23451	0.072681	0.25697	0.11646	0.09677	0.10148	0.036251	0.1912	0.08381	0.29337	0.16597	0.29333	-2.4958	-2.7687	-2.5604	-3.1646	-2.5375	-2.6396	-3.0271	-2.5958	-2.9188	-3.0958	-2.4813	-3.2104	-2.7583	-2.7396	-3.2729	-2.3583	92.220	-27.215	292.240	21.642	53.114	98.742	210.127	111.373	203.722	289.569	224.024	264.017	-32.396	-38.323	151.869	268.508	0.00043118	0.00082991	0.0002015	1029.1	1.3262e-05	1.4332e-05	1025	328.95	8.3479e-06	4.888e-06	392.09	123.4	96.11	38.836	6.7069e-06	59.565	0.0018163	0.0017576	0.00049672	1032.8	2.0791e-05	1.8686e-05	1026.1	332.42	2.0404e-05	1.8644e-05	403.57	129.81	102.33	40.4	2.0175e-05	61.371	179.325	-31.233	172.011	-43.692	135.200	-46.144	-44.445	-38.651	64.481	144.764	-40.723	-35.800	-34.528	-29.361	149.755	-31.661	-8191	255	
2841.343	1	1	0	0	0.35682	0.046125	0.075859	0.26593	0.30095	0.25052	0.15282	0.22236	0.15652	0.13177	0.23521	0.25706	0.38108	0.093347	0.16915	0.16822	-2.5354	-2.9854	-2.4938	-3.2125	-2.6917	-2.5979	-3.3875	-2.6708	-2.7292	-3.1458	-2.4875	-3.0312	-2.7375	-2.6312	-3.1146	-2.5896	242.436	-47.782	209.697	-19.862	297.208	163.605	205.437	221.920	284.911	-29.616	283.484	239.547	299.411	205.181	141.741	301.512	0.00026765	0.00062664	0.00030257	1032.5	3.7807e-06	1.1363e-06	1027.6	328.46	4.7403e-06	1.511e-05	393.73	122.16	96.282	37.875	6.7612e-06	58.3	0.0017725	0.0016939	0.0005122	1032.5	2.0129e-05	1.8352e-05	1028.1	331.63	1.953e-05	1.8559e-05	404.95	128.3	101.27	39.549	2.0405e-05	60.347	278.825	-41.854	56.877	-43.560	60.418	-47.263	-44.316	-38.863	180.569	194.046	-40.744	-35.885	-34.405	-29.296	85.602	-31.546	-8191	255	
2841.439	1	1	0	0	0.1963	0.10681	0.14578	0.28908	0.13127	0.014888	0.14541	0.23957	0.18814	0.16408	0.19681	0.12504	0.30255	0.17217	0.37972	0.11035	-2.475	-2.8771	-2.4479	-3.0646	-2.7125	-2.4042	-3.2875	-2.8854	-2.5062	-3.3187	-2.4104	-2.9833	-2.9104	-2.3458	-2.9208	-2.8333	140.887	135.692	-8.794	282.682	236.111	291.900	0.369	30.530	61.244	-43.934	253.324	286.228	226.791	279.971	180.362	289.688	7.0223e-05	0.00056236	0.00019503	1038.6	1.8368e-06	7.0665e-06	1042.5	331.95	8.043e-06	4.6375e-06	400.3	124.02	96.812	37.995	6.0201e-06	59.338	0.0016963	0.0017417	0.00052088	1039.7	1.9631e-05	1.9326e-05	1045.6	335.06	1.9349e-05	1.9883e-05	413.77	130.74	101.97	40.171	2.1118e-05	61.336	170.505	191.484	88.619	-43.798	276.260	-21.361	-44.449	-39.214	154.054	108.960	-40.266	-35.627	-34.258	-29.215	100.680	-31.432	-8191	255	
2841.535	1	1	0	0	0.13246	0.12908	0.19101	0.34614	0.18784	0.17521	0.058327	0.2492	0.11531	0.22591	0.15477	0.25759	0.19709	0.20964	0.30146	0.047127	-2.225	-3.1396	-2.2938	-2.9708	-3	-2.1479	-3.1562	-2.8563	-2.6229	-3.0604	-2.6833	-2.9813	-2.9688	-2.475	-3.175	-2.7062	-56.746	76.734	71.824	251.435	-11.254	277.047	240.159	230.189	280.846	53.142	-21.452	41.142	209.196	16.432	-26.413	237.769	0.00012115	0.0015142	0.00016142	1038.6	3.0976e-06	1.115e-05	1045.7	332.15	6.4836e-06	1.8827e-06	396.95	123.34	95.972	38.44	1.0117e-05	60.077	0.0016751	0.0018656	0.00054226	1043.2	1.9198e-05	2.0404e-05	1047.9	335.11	1.8816e-05	2.09e-05	410.99	130.38	101.14	40.878	2.1388e-05	62.031	260.753	33.927	91.391	-43.476	59.147	215.350	-44.193	-38.913	142.453	32.725	-40.767	-35.835	-34.223	-29.336	73.356	-31.278	-8191	255	
2841.631	1	1	0	0	0.14358	0.055707	0.055858	0.14628	0.12113	0.17803	0.23927	0.29916	0.18453	0.18672	0.15445	0.077932	0.23405	0.41696	0.26635	0.12752	-2.0542	-3.1167	-2.6208	-2.9896	-2.8292	-2.4521	-3.2042	-3	-2.3146	-3.1083	-2.625	-2.6375	-3.1	-2.4271	-3.0458	-3.0042	90.068	121.990	110.497	-25.956	226.964	0.946	210.680	235.482	203.233	171.774	243.769	151.502	190.531	261.385	-21.388	269.853	0.00033047	0.0010992	0.00054514	1018.5	1.1864e-05	7.6362e-06	1024.1	329.35	7.3025e-06	5.5823e-06	394.64	124.65	96.72	39.723	9.2239e-06	61.531	0.0016868	0.0019686	0.00054853	1023.3	1.9737e-05	2.1204e-05	1030.8	330.93	1.9543e-05	2.1551e-05	410.5	130.67	102.34	41.887	2.1774e-05	63.239	196.478	61.132	121.097	-43.738	107.678	288.732	-44.392	-39.006	155.996	-54.374	-41.195	-36.176	-34.375	-29.330	123.364	-31.753	-8191	255	
2841.725	1	1	0	0	0.01017	0.081796	0.14041	0.45749	0.2454	0.11956	0.29723	0.24426	0.10111	0.060389	0.12183	0.25281	0.14249	0.33813	0.16332	0.27652	-1.9729	-3.1375	-2.7292	-2.8146	-2.9625	-2.5542	-2.8521	-3.1708	-2.3833	-2.9208	-2.8167	-2.5583	-3.2313	-2.6125	-2.8563	-3.1708	84.932	237.725	185.983	-56.013	210.021	271.860	259.460	263.348	23.452	158.753	168.822	-46.591	94.077	247.582	281.199	257.414	0.00028083	0.00099327	0.00013017	1020.7	1.3318e-05	9.1826e-06	1037	329.37	5.5395e-06	1.3554e-05	401.57	126.94	97.696	39.588	5.5759e-06	62.29	0.0017617	0.0019945	0.00055899	1019.1	2.0612e-05	2.1554e-05	1044	331.99	2.0508e-05	2.159e-05	416.9	132.23	103.65	42.048	2.1577e-05	63.455	219.052	175.627	6.230	-44.235	195.141	134.696	-44.520	-39.090	230.023	-19.063	-40.833	-35.833	-34.278	-29.374	237.685	-31.790	-8191	255	
2841.822	1	1	0	0	0.30922	0.038101	0.14526	0.41158	0.32884	0.17158	0.19772	0.10584	0.10947	0.1058	0.14304	0.10788	0.06872	0.064688	0.062047	0.042289	-1.9438	-3.0479	-2.6562	-2.5271	-3.2729	-2.4604	-2.9021	-2.8979	-2.5583	-2.9292	-3.0292	-2.6396	-3.3042	-2.4729	-2.7687	-3.0917	209.272	213.397	217.809	267.429	229.000	205.919	283.324	172.263	153.686	72.237	182.135	-36.022	30.273	61.134	224.914	-36.348	0.0002956	0.0011064	0.00025708	1031.8	4.6274e-06	1.8656e-06	1049.9	329.66	4.3583e-06	3.5585e-06	408.45	126.36	97.044	39.169	4.4654e-06	60.754	0.0018433	0.0019783	0.00054986	1027.8	2.1143e-05	2.1562e-05	1053.4	333.45	2.1267e-05	2.1617e-05	420.4	131.72	103.9	41.4	2.0506e-05	62.285	164.903	171.876	-26.419	-43.640	119.905	3.402	-44.881	-38.972	226.423	72.840	-40.384	-35.802	-34.507	-29.097	-19.894	-31.507	-8191	255	
2841.918	1	1	0	0	0.079878	0.18106	0.18387	0.31512	0.13336	0.19078	0.17552	0.27575	0.11573	0.31582	0.15365	0.17818	0.023242	0.12031	0.28956	0.18639	-2.0229	-2.9417	-2.7208	-2.7083	-3.0854	-2.7042	-2.5938	-3.2354	-2.3833	-2.9188	-2.8688	-2.4333	-3.2542	-2.7479	-2.6813	-3.0708	43.572	256.987	136.074	220.120	257.187	56.539	243.113	278.126	70.042	138.863	-12.729	133.304	261.246	286.505	243.923	279.784	0.0003051	0.0013095	0.00027222	1032.2	1.3649e-05	5.7386e-06	1024.6	327.72	8.7635e-06	1.3171e-05	392.81	120.17	95.227	37.542	1.6677e-06	56.963	0.0018501	0.0019484	0.00051941	1025.8	2.1047e-05	2.118e-05	1023.7	329.44	2.0755e-05	2.0894e-05	401.09	126.14	101.05	39.878	1.9002e-05	58.993	203.977	283.528	-45.972	-43.737	160.318	0.929	-44.648	-39.068	162.386	46.584	-40.876	-35.818	-34.819	-29.506	298.773	-31.462	-8191	255	
2842.038	1	1	0	0	0.21196	0.14635	0.18865	0.15686	0.080494	0.13542	0.18016	0.19882	0.14878	0.096549	0.12228	0.2471	0.18347	0.016328	0.044279	0.24534	-2.0625	-2.7458	-3.0667	-2.5333	-3	-2.6583	-2.8125	-3.2854	-2.4208	-2.9396	-2.9729	-2.4646	-3.1167	-2.7375	-2.6854	-3.1896	85.225	254.352	226.153	300.767	299.608	179.020	260.488	-28.585	280.927	278.182	-9.469	143.151	56.486	-24.857	-8.452	252.205	0.00022427	0.00035605	0.00031354	1018.6	8.7406e-06	1.4208e-05	1001.7	323.83	5.5649e-06	9.8212e-06	387.08	117.74	94.691	36.833	1.7595e-05	56.598	0.0017959	0.0018893	0.00048442	1016.9	2.065e-05	2.0936e-05	996.72	326.49	2.083e-05	2.0779e-05	394.41	125.31	100.56	39.342	1.8742e-05	59.138	160.803	221.415	64.269	-43.759	94.231	108.813	-44.521	-39.100	45.820	-39.799	-40.969	-36.049	-34.753	-29.733	158.716	-31.809	-8191	255	
2842.135	1	1	0	0	0.26391	0.08217	0.10373	0.26279	0.1023	0.035082	0.52405	0.13788	0.31362	0.1554	0.19548	0.075362	0.33133	0.11084	0.17014	0.15043	-2.2396	-2.4521	-3.0062	-2.4729	-3.0833	-2.9458	-2.7062	-3.1354	-2.5125	-2.7396	-3.1229	-2.3333	-3.0479	-2.7729	-2.4271	-3.0708	273.613	74.396	135.370	286.266	135.635	217.950	252.267	268.945	62.542	45.025	4.367	202.227	287.650	131.857	258.077	264.939	0.00024139	0.0012381	0.00017513	1024	6.6877e-06	1.1955e-05	1014.2	325.36	2.3042e-06	1.3646e-05	392.23	121.05	94.643	37.407	1.1828e-05	58.352	0.0018331	0.0018887	0.0004898	1025.8	2.12e-05	2.0879e-05	1012.2	329.95	2.1327e-05	2.0326e-05	402.32	128.26	101.57	39.771	1.9939e-05	61.064	236.811	269.150	204.660	-43.905	103.660	25.381	-44.815	-39.182	232.905	53.667	-40.427	-36.125	-34.540	-29.678	-38.516	-31.498	-8191	255	
2842.231	1	1	0	0	0.16008	0.097824	0.075562	0.10188	0.2785	0.28994	0.15916	0.19141	0.18888	0.055657	0.24029	0.1127	0.11355	0.046157	0.19466	0.18324	-2.1688	-2.5042	-2.8667	-2.3854	-2.8563	-3.0479	-2.5438	-3.2708	-2.6833	-2.5167	-3.3333	-2.5625	-2.9938	-2.9854	-2.5417	-2.9771	117.679	60.267	142.782	175.713	190.891	91.615	-37.162	237.284	6.880	31.269	281.448	-37.713	213.063	148.849	21.399	-30.144	0.00016623	0.0013088	0.00026063	1028.5	1.1144e-05	1.2173e-05	1031.7	329.49	1.1287e-05	7.4533e-06	400.16	123.1	95.484	37.748	3.8767e-06	59.033	0.0019171	0.0018473	0.00052199	1037.5	2.1848e-05	2.0299e-05	1038	335.08	2.2132e-05	1.9886e-05	412.02	131.16	102.23	40.037	2.1039e-05	61.536	219.287	4.811	155.960	-43.574	40.306	89.471	-44.487	-39.104	143.090	42.529	-40.646	-35.539	-34.578	-29.279	87.596	-30.940	-8191	255	
2842.327	1	1	0	0	0.1526	0.14145	0.05879	0.21631	0.23693	0.13076	0.18606	0.20251	0.087932	0.21992	0.35913	0.23886	0.13437	0.1564	0.37084	0.040572	-2.1042	-2.6042	-3.1646	-2.6937	-2.9271	-2.9229	-2.4896	-3.0958	-2.7521	-2.4979	-3.2625	-2.4396	-2.9062	-3.0687	-2.4604	-3.075	69.948	154.757	2.351	-49.842	11.876	17.981	289.116	-39.083	239.241	133.256	179.345	288.814	283.874	280.489	274.274	155.690	0.00011187	0.0019673	0.00016124	1017.7	1.1066e-05	4.0294e-06	1004.3	323.68	2.5332e-06	6.2665e-06	382.47	117.95	94.055	37.212	1.3946e-05	57.247	0.0019087	0.0017728	0.00054358	1027.2	2.1221e-05	1.9623e-05	1011.1	328.52	2.1215e-05	1.9302e-05	397.9	126.13	99.78	39.208	2.1269e-05	59.697	239.233	0.915	119.042	-43.613	114.196	-40.224	-44.436	-38.980	-33.528	100.607	-40.705	-35.869	-34.694	-29.556	160.127	-31.388	-8191	255	
2842.423	1	1	0	0	0.074417	0.21254	0.28333	0.28113	0.032191	0.15181	0.15029	0.29105	0.22966	0.163	0.27004	0.36879	0.11271	0.18384	0.2468	0.35925	-2.5521	-2.4833	-2.9875	-2.7271	-2.6771	-3.1417	-2.6021	-2.9667	-2.8146	-2.4792	-3.2146	-2.5354	-2.9021	-3.1063	-2.5021	-2.7167	61.141	180.146	-21.066	230.474	-26.913	257.960	55.272	278.593	40.812	-26.866	-51.457	244.155	163.233	290.206	-24.570	231.787	0.0002185	0.0012252	0.00035411	1004.2	1.9755e-05	2.8429e-06	990.3	322.88	9.6687e-06	7.0617e-06	382.83	118.77	93.568	37.024	3.5397e-06	57.237	0.0018101	0.0017873	0.00053798	1013.8	1.995e-05	1.9467e-05	1003.9	326.43	1.991e-05	1.9725e-05	397.55	126.16	98.871	39.12	2.1137e-05	59.475	215.776	84.147	81.800	-43.870	108.294	220.514	-44.574	-39.129	154.789	186.439	-40.664	-35.833	-34.068	-29.564	-36.822	-32.078	-8191	255	
2842.519	1	1	0	0	0.11687	0.068293	0.20665	0.13056	0.12471	0.52746	0.13302	0.24737	0.18039	0.2334	0.12718	0.088095	0.11165	0.2741	0.057472	0.22922	-2.4917	-2.2583	-3.0042	-2.7812	-2.4083	-3.1479	-2.4646	-3.0375	-2.8375	-2.2604	-3.225	-2.6958	-2.7042	-3.1417	-2.7333	-3.0062	68.692	107.029	25.608	217.747	209.245	-5.159	-31.626	203.846	75.581	121.334	-43.911	23.222	-44.876	300.448	263.000	261.653	0.00025367	0.0013449	0.0003402	1016.6	7.8625e-06	6.4801e-06	1012	323.18	8.7109e-06	1.1045e-06	392.26	122.14	95.028	37.707	1.1414e-05	59.575	0.0016924	0.0018094	0.00053282	1021.8	1.896e-05	1.9838e-05	1019.2	328.16	1.9033e-05	2.0326e-05	405.67	129.07	99.847	39.985	2.1304e-05	61.532	243.593	44.618	-3.273	-43.720	79.949	103.353	-44.640	-39.187	49.086	229.715	-40.950	-35.750	-34.857	-29.300	281.142	-31.502	-8191	255	
2842.638	1	1	0	0	0.15735	0.058187	0.2826	0.11231	0.15489	0.10923	0.36212	0.19579	0.062086	0.21365	0.14707	0.1977	0.14446	0.075413	0.10704	0.093546	-2.5792	-2.2833	-2.8625	-2.9021	-2.7042	-3.0729	-2.8833	-2.8625	-2.9708	-2.35	-3.0667	-2.8667	-2.5479	-3.2646	-2.7854	-2.8333	212.525	140.204	44.873	115.535	-31.943	122.209	248.055	265.206	229.968	-56.093	-15.501	222.119	-54.359	282.614	123.646	55.432	0.00021851	0.0015857	8.9486e-05	1022	3.9565e-06	1.582e-05	1033.7	326.96	6.9259e-06	8.1051e-06	400.16	123.38	95.432	37.813	4.9843e-06	59.53	0.0016847	0.0019011	0.00054224	1026.3	1.912e-05	2.0801e-05	1040.5	330.48	1.9158e-05	2.0886e-05	410.51	129.79	100.01	40.097	2.1027e-05	60.747	231.897	106.468	251.547	-43.774	98.269	164.663	-44.263	-39.016	201.969	262.380	-40.755	-35.709	-34.394	-29.500	177.725	-32.158	-8191	255	
2842.734	1	1	0	0	0.31691	0.3074	0.20696	0.26991	0.12648	0.275	0.16497	0.20887	0.19193	0.09334	0.16372	0.10657	0.21463	0.20578	0.098804	0.14383	-2.7125	-2.3042	-2.9208	-2.9583	-2.4208	-3.1792	-2.825	-2.8542	-3.0667	-2.5062	-2.975	-2.9583	-2.4854	-3.1021	-2.6688	-2.5083	88.641	41.909	261.234	-26.838	61.434	138.898	134.117	200.810	16.824	133.516	285.665	288.551	290.704	259.257	198.709	159.690	0.00031016	0.0026673	9.4942e-05	1011.6	5.7321e-06	8.1055e-06	999.5	320.62	4.0029e-06	1.6896e-05	382.96	119.35	93.157	37.279	5.7737e-06	57.799	0.0016748	0.0018892	0.00052766	1008.3	1.9168e-05	2.049e-05	1006	321.6	1.9293e-05	2.065e-05	396.31	124.72	98.659	39.371	2.0629e-05	59.096	212.038	88.961	208.087	-43.623	-12.942	-33.725	-44.307	-39.074	14.653	109.540	-40.691	-35.580	-34.394	-29.535	130.567	-31.293	-8191	255	
2842.830	1	1	0	0	0.093132	0.17786	0.10729	0.20044	0.019897	0.23076	0.079533	0.13435	0.30367	0.09579	0.065175	0.2086	0.17777	0.14705	0.17606	0.052631	-2.7042	-2.4062	-2.6542	-3.2021	-2.3604	-3.0333	-2.8958	-2.4646	-3.1771	-2.3563	-2.8187	-3.2167	-2.3438	-3.1667	-2.7792	-2.6521	160.671	12.869	-55.885	265.476	-13.545	-14.716	101.463	243.653	30.598	296.183	86.699	259.354	229.948	260.304	-46.972	-35.393	0.00013781	0.0013127	0.00013645	1004.1	9.8334e-06	1.2445e-05	1003.6	319.88	1.3737e-05	2.5762e-06	385.94	121.26	94.205	37.304	1.1559e-05	59.143	0.0017078	0.0018558	0.00051768	995.92	1.9548e-05	2.013e-05	1004.6	319.62	1.9666e-05	2.0174e-05	397.38	126.15	99.689	39.493	1.9763e-05	59.865	178.730	-10.406	181.803	-43.681	155.344	121.392	-44.011	-38.753	210.055	297.658	-40.289	-35.754	-34.581	-28.999	105.163	-31.775	-8191	255	
2842.902	1	1	0	0	0.063683	0.27717	0.13372	0.20012	0.26679	0.20499	0.33884	0.26018	0.11197	0.17902	0.21396	0.14201	0.27806	0.2225	0.23865	0.22904	-2.7917	-2.4333	-2.5583	-3.0083	-2.4167	-2.8375	-2.85	-2.4167	-3.0458	-2.4958	-2.9646	-3.0417	-2.5646	-2.7938	-2.8708	-2.4354	18.237	74.907	30.557	290.589	113.938	178.888	225.710	276.271	-33.492	81.021	254.551	241.902	170.042	17.933	245.719	8.861	0.00016579	0.0010849	0.000474	1004.1	8.3785e-06	1.0269e-05	1017.6	321.82	8.0089e-06	8.6229e-06	391.99	123.15	94.868	37.654	1.6176e-05	60.277	0.001743	0.0018407	0.00049759	1000.5	1.9841e-05	2.0061e-05	1015.3	322.05	1.9962e-05	2.0318e-05	400.95	128.69	100.68	39.927	1.9108e-05	61.401	152.987	-2.197	291.017	-43.762	221.620	123.844	-44.506	-39.123	3.306	181.986	-40.722	-36.226	-34.750	-29.636	82.184	-31.676	-8191	255	
2843.023	1	1	0	0	0.18931	0.24049	0.13995	0.19514	0.041446	0.089429	0.11872	0.1345	0.36577	0.21477	0.25186	0.092515	0.3346	0.38328	0.21586	0.2232	-2.6688	-2.4938	-2.6979	-3.2354	-2.3646	-3.0062	-3.0854	-2.5563	-3.1146	-2.6063	-2.75	-3.1333	-2.5896	-2.8542	-2.9854	-2.5708	81.263	145.592	94.559	-50.072	140.888	120.527	264.031	-56.682	194.608	67.750	221.717	-44.572	255.855	-31.238	184.929	49.947	0.00019335	0.0016039	0.00012065	1007.2	1.4563e-05	1.7238e-05	1031.1	321.85	1.2464e-05	2.123e-05	396.14	124.9	95.17	38.748	1.1696e-05	61.21	0.0017902	0.0018764	0.00047907	1009.2	2.0326e-05	2.0478e-05	1023.7	324.11	2.0361e-05	2.0604e-05	403	131.25	101.06	40.741	1.8721e-05	62.721	215.308	-2.485	54.374	-43.818	215.297	142.272	-44.846	-39.138	186.951	119.074	-41.169	-35.918	-34.761	-29.686	124.412	-32.010	-8191	255	
2843.119	1	1	0	0	0.027996	0.071237	0.20989	0.16705	0.083824	0.16394	0.1765	0.08754	0.27853	0.18827	0.20431	0.18129	0.14397	0.2008	0.042887	0.20234	-2.8563	-2.6312	-2.5271	-3.1	-2.4	-2.7854	-3.1562	-2.7625	-3.0687	-2.8187	-2.5625	-3.1667	-2.5229	-2.9021	-2.9437	-2.2958	249.981	66.967	76.876	281.202	-2.077	32.661	257.866	189.817	300.756	143.940	285.701	241.700	69.067	164.387	104.479	256.319	1.1885e-05	0.00064268	0.00028618	995.75	1.412e-06	6.9013e-06	1001.7	317.71	1.2341e-05	1.8898e-05	390.94	125.11	94.64	38.926	5.8357e-06	61.608	0.001784	0.0018606	0.00046514	996.86	2.0189e-05	1.9813e-05	997.01	320.52	1.9955e-05	1.9605e-05	396.96	131.16	100.55	40.566	1.844e-05	63.007	199.754	-12.333	0.955	-43.888	277.134	242.849	-44.695	-39.115	93.049	132.201	-40.832	-35.871	-34.377	-29.859	297.315	-32.026	-8191	255	
2843.215	1	1	0	0	0.021461	0.1655	0.48655	0.27241	0.22034	0.12151	0.15319	0.30058	0.024295	0.053778	0.30747	0.27466	0.21849	0.15684	0.13053	0.078087	-2.575	-2.8167	-2.525	-2.9625	-2.4375	-2.5563	-3.0146	-2.7375	-2.8792	-2.8312	-2.7229	-3.1146	-2.6542	-2.7687	-2.9813	-2.6562	85.365	50.955	69.445	-47.044	100.395	122.446	247.165	271.987	118.647	59.425	169.029	-32.173	270.894	224.588	86.218	207.663	0.00026841	0.00057317	0.00024763	1000.6	1.2299e-05	1.8783e-05	1016.9	317.84	2.0093e-06	1.2414e-05	394.05	126.08	96.11	38.96	6.5786e-06	61.329	0.0017507	0.0017519	0.00047132	999.06	1.9898e-05	1.8749e-05	1008.3	321.97	1.9949e-05	1.8537e-05	402.22	131.89	101.26	40.221	1.884e-05	62.983	163.758	52.736	106.951	-44.130	44.229	49.694	-44.802	-39.267	78.791	35.289	-40.967	-36.085	-34.568	-29.588	106.054	-31.815	-8191	255	
2843.311	1	1	0	0	0.16873	0.2503	0.17938	0.30199	0.24105	0.03445	0.068788	0.16116	0.21805	0.089018	0.055646	0.26304	0.024766	0.074909	0.17909	0.26535	-2.3833	-2.8542	-2.3229	-3.1063	-2.6479	-2.6813	-3.2687	-2.6958	-2.7292	-3.0479	-2.4125	-3.3187	-2.75	-2.6042	-2.9688	-2.6625	234.827	132.952	-36.537	191.944	53.893	200.911	278.152	159.699	109.375	151.161	207.037	-49.020	178.580	74.195	180.086	219.822	0.00017071	0.00054686	0.00028446	1001.6	9.0924e-06	1.2584e-05	1012.5	322.24	6.833e-06	1.082e-05	395.15	125.96	95.396	38.478	9.3705e-06	61.082	0.0017237	0.0016503	0.00047932	1003.7	1.9544e-05	1.7683e-05	1015.2	323.8	1.937e-05	1.7665e-05	403.51	131.22	100.54	39.699	1.9117e-05	62.146	226.833	-47.132	22.341	-44.042	15.238	50.141	-44.726	-39.116	185.176	32.994	-40.849	-36.056	-34.435	-29.692	237.305	-32.012	-8191	255	
2843.432	1	1	0	0	0.26465	0.087459	0.13088	0.10319	0.25763	0.025798	0.27589	0.16752	0.30155	0.071637	0.19042	0.24794	0.10092	0.3851	0.013572	0.27598	-2.3104	-2.9688	-2.4979	-3.0062	-2.8208	-2.7083	-3.2854	-2.6021	-2.5812	-3.075	-2.4562	-3.1312	-2.5646	-2.5917	-3.1229	-2.6792	-40.315	267.426	132.293	-41.661	113.645	50.303	203.123	273.619	47.040	165.420	187.507	284.157	238.650	257.702	278.866	252.161	0.00022299	0.00086513	0.00017769	1009.5	8.7383e-06	6.1557e-06	1014.5	320.23	8.975e-06	8.169e-06	390.74	124.65	93.511	38.077	6.1446e-06	60.548	0.0016338	0.0015981	0.00048	1006.3	1.8648e-05	1.7266e-05	1013.2	321.15	1.8256e-05	1.7554e-05	398.74	129.51	98.564	39.438	1.9042e-05	61.662	197.162	79.743	171.024	-43.724	79.921	165.645	-44.533	-38.906	101.584	87.894	-40.768	-35.182	-34.558	-28.987	179.347	-31.272	-8191	255	
2843.503	1	1	0	0	0.36475	0.20785	0.12931	0.13977	0.091814	0.29248	0.1835	0.36577	0.17854	0.40061	0.17409	0.26163	0.31984	0.087581	0.07472	0.19932	-2.0521	-2.9313	-2.2583	-2.8542	-2.8688	-2.3771	-3.1646	-2.5917	-2.6708	-3.0375	-2.625	-2.9375	-2.825	-2.4688	-3.0521	-2.7271	278.454	-29.996	30.778	35.152	289.497	-13.360	-51.134	225.304	104.118	-45.362	-4.379	247.338	-51.307	-8.405	112.114	-29.363	8.2342e-05	0.00026153	8.5575e-05	983.08	7.5809e-06	3.8258e-06	996.17	315.99	1.0657e-05	1.1791e-05	387.92	126.46	94.558	38.215	5.6852e-06	61.17	0.0015277	0.001607	0.00047457	983.32	1.704e-05	1.7274e-05	992.15	316.39	1.6676e-05	1.7598e-05	394.99	130.29	97.823	39.595	1.8112e-05	62.029	41.105	73.385	20.958	-43.724	176.507	112.669	-44.189	-38.808	70.237	64.171	-40.772	-35.493	-33.962	-29.002	80.465	-31.734	-8191	255	
2843.599	1	1	0	0	0.16838	0.1534	0.16729	0.12249	0.1382	0.23303	0.13874	0.089	0.05607	0.19852	0.19777	0.24051	0.10554	0.076918	0.12589	0.14418	-2.2	-2.9646	-2.3125	-2.9479	-2.6354	-2.3563	-2.9458	-2.9833	-2.3792	-3.0604	-2.3875	-2.8396	-3.1437	-2.4833	-2.9562	-2.8	234.586	53.397	136.715	11.817	145.848	276.119	-5.730	231.254	275.678	-14.181	237.565	228.171	-33.552	228.466	47.486	-29.555	0.00023738	0.0015459	9.5617e-05	988.31	2.3447e-06	1.6414e-05	1009.6	317.87	4.4587e-06	4.5965e-06	398.3	129.9	96.368	39.16	4.9169e-06	63.378	0.0014062	0.0015989	0.0004593	982.03	1.6146e-05	1.7416e-05	1007.8	317.26	1.5959e-05	1.759e-05	403.18	133.18	99.225	40.431	1.7916e-05	63.478	164.021	35.053	162.307	-43.825	45.639	124.932	-44.797	-39.176	276.448	120.084	-40.894	-36.137	-34.312	-29.693	25.145	-31.543	-8191	255	
2843.720	1	1	0	0	0.11633	0.094943	0.32268	0.12028	0.092011	0.036137	0.30975	0.18947	0.25256	0.22989	0.12424	0.20975	0.053964	0.25569	0.10345	0.27845	-1.825	-3.1104	-2.3417	-2.7313	-2.8771	-2.3333	-3.0417	-2.7979	-2.4771	-3.1375	-2.7958	-2.5062	-2.9688	-2.2875	-2.7021	-2.8625	19.715	-14.933	141.387	265.743	114.014	273.015	297.487	259.741	28.289	114.510	-55.963	-55.776	30.698	274.739	61.834	268.478	0.00017679	0.00070935	0.00012594	997.1	9.6928e-06	1.3055e-05	1033.8	322.5	1.0401e-05	7.8548e-06	404.98	131.27	96.881	38.857	5.5397e-06	62.166	0.0014102	0.0016331	0.00045537	985.27	1.6525e-05	1.7793e-05	1023.9	319.8	1.6403e-05	1.7905e-05	408.73	133.29	99.905	40.197	1.793e-05	62.381	204.039	126.612	91.869	-44.130	130.465	281.427	-44.696	-38.928	287.076	175.287	-40.777	-35.735	-34.310	-29.857	171.397	-31.415	-8191	255	
2843.815	1	1	0	0	0.12428	0.069335	0.34384	0.13059	0.244	0.1953	0.2365	0.22824	0.1168	0.12837	0.2787	0.19576	0.18214	0.28893	0.24454	0.065325	-2.0104	-2.9646	-2.5375	-2.6063	-3.05	-2.3646	-2.9813	-2.8896	-2.3625	-2.9708	-2.8438	-2.6188	-3.2271	-2.5125	-2.9229	-3.1708	231.948	-43.477	301.338	288.901	-31.322	45.445	171.078	258.288	241.137	-13.268	252.434	209.528	203.528	236.982	58.587	64.131	0.00012234	0.00012998	0.00030762	996.63	4.7205e-06	9.2355e-06	1008.8	317.67	5.5745e-06	5.179e-06	389.73	124.9	94.208	37.78	5.2948e-06	60.102	0.0014577	0.0016198	0.00045253	976.82	1.6814e-05	1.7341e-05	1000.8	313.13	1.6821e-05	1.7431e-05	393.68	127.48	97.865	39.18	1.7287e-05	60.043	199.587	254.875	24.418	-44.091	251.915	179.427	-44.753	-39.344	169.594	2.298	-40.805	-36.478	-34.506	-29.903	20.322	-31.880	-8191	255	
2843.911	1	1	0	0	0.19233	0.11875	0.2495	0.22372	0.038851	0.13223	0.20208	0.48525	0.14532	0.11757	0.06386	0.2742	0.17672	0.023864	0.17815	0.17257	-1.9021	-2.9104	-2.6396	-2.6792	-3.1104	-2.6521	-2.7292	-2.925	-2.1	-2.8521	-2.8271	-2.6146	-3.05	-2.4917	-2.6937	-3.0375	81.147	4.827	-50.886	253.850	233.555	132.471	117.271	193.210	188.685	68.983	162.327	271.173	225.067	262.614	104.325	195.779	5.4926e-05	0.00084534	0.00011542	972.28	6.5619e-06	7.8939e-06	989.43	310.95	6.9515e-06	6.0677e-06	384.67	126.19	94.461	38.167	8.2517e-06	60.962	0.0014888	0.0015889	0.00043921	958.26	1.7186e-05	1.7355e-05	976.86	309.34	1.7136e-05	1.7354e-05	389.24	127.91	98.109	39.452	1.6572e-05	60.862	222.514	23.598	-15.163	-43.827	290.874	126.786	-44.876	-39.346	182.125	-14.784	-40.931	-36.439	-34.733	-29.466	59.864	-31.815	-8191	255	
2844.031	1	1	0	0	0.064857	0.15672	0.097698	0.19627	0.34737	0.097045	0.13403	0.14232	0.29973	0.10357	0.13677	0.16352	0.20766	0.2914	0.15533	0.071512	-2.0396	-3.0021	-2.5958	-2.5563	-2.9458	-2.6229	-2.8917	-3.1604	-2.4896	-2.775	-2.8521	-2.5208	-2.9729	-2.7938	-2.475	-3.1479	189.178	254.122	239.946	-55.265	52.105	88.145	10.217	162.393	126.938	132.171	104.555	262.184	-40.390	-51.190	-15.451	215.887	0.00011602	0.0011348	0.00013529	983.3	5.1588e-06	3.6178e-06	1006.5	315.07	7.0892e-06	4.4662e-06	396.26	127.11	94.732	38.334	4.0649e-06	62.233	0.0015211	0.0015947	0.00042008	968.01	1.7434e-05	1.748e-05	989.61	313.53	1.7433e-05	1.7518e-05	395.05	130.21	98.873	39.776	1.6015e-05	62.38	222.912	117.218	-8.410	-44.393	127.060	238.852	-44.743	-39.343	20.831	137.194	-40.799	-36.102	-35.010	-29.661	3.040	-31.837	-8191	255	
2844.127	1	1	0	0	0.10863	0.12284	0.1679	0.13216	0.20119	0.07152	0.16597	0.021365	0.19487	0.1166	0.16495	0.063878	0.28084	0.068402	0.15891	0.33228	-2	-2.9062	-2.9792	-2.2875	-3.0833	-2.9896	-2.4354	-3.225	-2.6354	-2.6875	-2.9917	-2.5708	-2.9729	-2.5854	-2.4479	-3.1354	115.552	118.455	-30.022	263.893	32.163	100.825	261.579	-36.977	88.836	41.754	249.556	81.236	242.867	178.841	108.571	272.321	0.00021986	0.00095189	0.00031928	992.42	3.6492e-07	7.813e-07	1021.4	319.04	5.2739e-07	1.3043e-05	403.01	129.46	95.999	38.895	8.6252e-06	63.353	0.0015452	0.0016135	0.00041501	981.59	1.7835e-05	1.7832e-05	1007.5	318.25	1.7788e-05	1.7549e-05	403.36	133.47	99.88	40.324	1.621e-05	63.622	255.658	-29.043	37.721	-43.894	-34.035	108.106	-44.574	-39.134	208.729	-40.670	-40.836	-36.402	-34.493	-29.695	7.474	-31.600	-8191	255	
2844.199	1	1	0	0	0.01075	0.28409	0.14535	0.28238	0.080055	0.11316	0.15848	0.40081	0.12993	0.075695	0.22851	0.42194	0.20103	0.13899	0.11987	0.11091	-2.0604	-2.6063	-2.9604	-2.5125	-2.8083	-2.7708	-2.5833	-3.0083	-2.4021	-2.8708	-3.2083	-2.3979	-3.0354	-2.9354	-2.5208	-3.1521	277.611	168.977	-45.549	284.014	141.648	-25.454	289.790	218.510	221.430	28.416	242.803	236.017	220.868	259.082	258.814	290.206	0.00016768	0.0013543	0.00018233	986.09	7.8138e-06	1.0661e-05	1003.8	313.8	3.5694e-06	8.7361e-06	393.58	128.88	94.832	39.206	1.5196e-05	63.405	0.0015688	0.0015791	0.00041652	977.33	1.7758e-05	1.7063e-05	991.88	313.88	1.7982e-05	1.6821e-05	393.82	132.22	98.983	40.199	1.6852e-05	63.844	200.796	-25.171	34.115	-43.928	193.295	49.389	-44.788	-39.173	42.947	24.529	-40.731	-35.939	-34.847	-30.050	220.769	-31.595	-8191	255	
2844.320	1	1	0	0	0.30878	0.2609	0.28558	0.12519	0.10828	0.069944	0.13629	0.21628	0.09034	0.056235	0.056377	0.37901	0.1796	0.1174	0.15112	0.22313	-2.3354	-2.4854	-2.9813	-2.6063	-2.8333	-2.9792	-2.4708	-3.1958	-2.7146	-2.6479	-3.2333	-2.5083	-2.7812	-2.9646	-2.3542	-3.125	233.462	71.570	45.657	168.424	129.828	302.015	183.346	246.244	180.206	154.835	162.285	-42.104	-56.645	233.705	-54.301	300.957	0.00019676	0.00086412	0.00039334	969.42	4.6205e-06	1.1179e-05	999.56	313.09	9.3637e-07	1.5472e-05	395.82	130.39	95.201	39.299	5.2745e-06	63.846	0.001572	0.001502	0.00042885	964.91	1.7665e-05	1.6285e-05	989.29	312.23	1.7679e-05	1.5995e-05	397.05	133.35	99.485	40.037	1.7334e-05	63.951	163.150	7.115	-29.305	-43.960	299.538	47.542	-44.474	-39.231	28.208	11.827	-40.507	-35.782	-34.666	-29.792	-50.430	-31.344	-8191	255	
2844.416	1	1	0	0	0.091635	0.014154	0.12142	0.15671	0.094409	0.17681	0.34077	0.22578	0.11724	0.16586	0.22606	0.06993	0.26442	0.20521	0.12436	0.21486	-2.2479	-2.5396	-2.9979	-2.575	-2.8708	-2.8896	-2.4667	-3.2354	-2.7979	-2.4375	-3.25	-2.5438	-2.5438	-3.1437	-2.3833	-2.9458	116.850	300.462	64.059	-5.734	44.683	231.814	215.175	257.656	-3.155	143.832	-10.828	-40.883	56.097	-5.488	-37.727	228.985	0.00010957	0.0010309	0.00017913	971.83	6.8074e-06	1.2076e-05	1009.6	313.84	1.0102e-05	5.9509e-06	401.54	131.61	96.173	39.395	4.6979e-06	64.876	0.0015333	0.0014461	0.00044099	968.52	1.7403e-05	1.61e-05	1000.6	314.24	1.7307e-05	1.607e-05	403.25	135.23	99.357	40.382	1.7884e-05	64.964	176.307	30.983	5.402	-44.082	39.413	124.908	-44.675	-39.129	82.116	178.286	-40.637	-35.938	-34.469	-29.684	110.908	-31.850	-8191	255	
2844.512	1	1	0	0	0.088914	0.21338	0.28274	0.31959	0.088449	0.095155	0.087099	0.44114	0.28833	0.0057477	0.28371	0.28633	0.17255	0.24787	0.2047	0.24336	-2.5646	-2.3542	-2.9562	-2.7646	-2.5979	-3.0354	-2.5187	-2.9813	-2.7354	-2.625	-3.0396	-2.7354	-2.5792	-3.1667	-2.5875	-2.6271	-44.321	25.551	258.660	228.572	177.436	274.821	255.553	253.739	49.934	2.964	198.890	196.869	-6.980	-33.312	299.606	-52.634	0.00016432	0.0012989	0.00023336	984.26	9.4678e-06	9.9762e-06	1026.7	315.4	1.081e-05	3.1928e-06	404.34	132.69	96.729	39.433	2.6677e-06	64.591	0.0015074	0.001519	0.00045462	977.15	1.6659e-05	1.6664e-05	1017.9	316.28	1.6667e-05	1.699e-05	408.01	136.17	99.346	40.597	1.8078e-05	64.986	229.267	127.196	29.838	-43.539	48.140	174.308	-44.291	-39.618	74.084	264.551	-40.824	-36.219	-34.548	-29.237	296.322	-31.842	-8191	255	
2844.608	1	1	0	0	0.18791	0.18018	0.056834	0.33821	0.40041	0.12383	0.031429	0.32789	0.076331	0.17961	0.095971	0.20759	0.22938	0.094079	0.030389	0.037426	-2.5979	-2.3354	-2.8458	-2.9313	-2.5187	-3.2271	-2.6708	-2.8625	-3.1604	-2.5542	-2.9375	-2.7646	-2.5292	-3.0354	-2.6104	-2.6833	133.144	109.680	-45.970	208.918	73.508	219.568	181.017	247.661	66.628	95.742	300.467	271.512	-38.210	-6.119	200.851	29.980	0.00017221	0.00041893	0.00059962	976.11	1.096e-05	5.7673e-06	999.77	310.24	3.2281e-06	5.9167e-06	392.54	130.92	95.489	39.639	9.7244e-07	64.941	0.0014302	0.0015764	0.00045872	968.32	1.6161e-05	1.7529e-05	994.29	311.37	1.6174e-05	1.7536e-05	398.95	134.55	98.543	41.075	1.8218e-05	64.926	216.178	91.693	13.368	-43.977	26.943	153.128	-44.920	-39.097	146.738	29.842	-40.437	-35.553	-34.742	-29.154	92.043	-31.232	-8191	255	
2844.703	1	1	0	0	0.21647	0.11598	0.36688	0.22406	0.1741	0.10258	0.1497	0.072864	0.14187	0.34275	0.25967	0.20945	0.11077	0.15905	0.066129	0.2725	-2.7	-2.2854	-2.7792	-2.8833	-2.4208	-3.275	-2.675	-2.6896	-3.0229	-2.1854	-3.2188	-2.8146	-2.5104	-3.1875	-2.6979	-2.6354	6.184	-10.238	78.515	249.363	241.409	229.490	230.327	166.882	274.684	296.730	206.065	228.541	-47.073	245.272	58.734	201.258	6.8753e-05	0.00044095	8.3711e-05	966.99	2.2103e-06	9.5421e-06	999.85	312.49	6.5476e-06	1.7036e-07	397.37	131.95	95.28	39.612	5.6351e-06	64.734	0.0014382	0.0016395	0.00046344	961.04	1.6462e-05	1.8021e-05	998.06	311.54	1.6717e-05	1.8187e-05	404.1	135	99.071	41.144	1.8482e-05	64.769	269.034	179.509	-56.406	-43.407	284.662	176.798	-44.344	-39.089	215.514	97.332	-40.481	-36.086	-34.912	-29.706	3.483	-31.889	-8191	255	
2844.799	1	1	0	0	0.12923	0.20352	0.16628	0.15969	0.15071	0.17528	0.12491	0.19008	0.27657	0.35848	0.2209	0.12663	0.075284	0.10873	0.16814	0.11413	-2.7562	-2.4188	-2.6937	-3.0875	-2.3563	-3.0958	-2.8688	-2.5896	-2.9708	-2.4938	-2.6979	-2.9583	-2.5458	-3.0396	-2.6437	-2.6063	120.832	175.572	55.584	269.833	127.931	140.625	142.692	247.425	130.980	15.355	221.849	175.890	151.261	108.784	93.170	242.407	0.00036718	0.00084201	0.00016413	979.11	7.1151e-06	8.9588e-06	1016.5	313.84	4.8714e-06	6.5879e-06	399.85	130.19	95.243	38.685	3.6948e-06	63.263	0.0015012	0.0016611	0.00046236	964.22	1.6959e-05	1.8038e-05	1007.8	311.16	1.7303e-05	1.8039e-05	404.74	132.71	98.61	40.153	1.8098e-05	63.015	205.897	65.178	278.649	-43.956	277.785	193.406	-44.625	-39.197	83.463	57.682	-40.901	-35.759	-34.603	-29.653	69.270	-31.796	-8191	255	
2844.895	1	1	0	0	0.24238	0.18274	0.020277	0.23192	0.090225	0.16759	0.073532	0.2738	0.14195	0.076075	0.18617	0.10187	0.10638	0.31763	0.16687	0.1833	-2.8792	-2.4521	-2.7229	-3.1354	-2.0729	-2.9813	-2.8375	-2.6854	-3.0604	-2.4708	-2.7479	-2.9	-2.5583	-2.8958	-2.7396	-2.4792	124.842	22.613	107.817	268.933	219.566	116.400	282.035	260.681	101.685	116.799	208.094	264.175	243.470	232.964	-51.571	107.407	0.0001385	0.00062954	0.00014171	980.05	1.3922e-05	1.018e-05	1011	313.23	5.2776e-06	7.6692e-06	393.8	126.62	93.16	37.953	4.2743e-06	61.295	0.0015321	0.0016355	0.00045002	967.74	1.703e-05	1.7691e-05	1003.1	310.32	1.7377e-05	1.7589e-05	396	129.23	97.031	39.283	1.6992e-05	61.064	233.246	-12.805	60.334	-43.814	89.312	70.563	-44.490	-39.427	237.890	-1.935	-41.136	-36.057	-34.465	-29.623	4.449	-31.802	-8191	255	
2844.991	1	1	0	0	0.18608	0.33683	0.24947	0.16675	0.1507	0.11114	0.18589	0.011323	0.1116	0.26729	0.16015	0.07469	0.0063122	0.19994	0.10415	0.24369	-2.6417	-2.5542	-2.4875	-3.0958	-2.2729	-2.8354	-3.1063	-2.575	-2.8312	-2.6229	-2.8167	-3.0104	-2.5167	-2.9604	-2.7604	-2.5792	237.806	174.876	114.505	280.540	-34.879	137.148	214.288	-22.144	106.050	116.589	241.479	303.041	294.461	246.263	300.417	239.452	0.00017352	0.0014804	0.000335	965.05	5.8211e-06	1.8881e-05	986.7	309.7	1.379e-05	5.7711e-06	384.56	123.43	91.54	37.535	2.1171e-06	60.45	0.0015309	0.0015886	0.00041812	956.13	1.7342e-05	1.7483e-05	970.91	306.2	1.7376e-05	1.7514e-05	384.33	126.48	95.765	38.835	1.6111e-05	60.686	197.055	242.291	55.806	-43.846	194.568	96.366	-44.503	-38.952	124.115	7.924	-40.671	-35.843	-34.381	-29.704	254.573	-31.735	-8191	255	
2845.112	1	1	0	0	0.14131	0.17974	0.16325	0.11103	0.24594	0.26073	0.071762	0.053223	0.069569	0.10884	0.028178	0.24192	0.05679	0.28355	0.16533	0.11975	-2.6667	-2.5917	-2.5667	-3.0333	-2.6458	-2.875	-2.9583	-2.4479	-3.0292	-2.6229	-2.4688	-3.1979	-2.4313	-2.8667	-2.8917	-2.4542	37.497	7.272	-13.005	252.190	135.174	-32.260	-9.395	220.936	74.543	163.138	12.734	286.708	273.873	-54.057	246.955	-17.800	0.00027177	0.00038627	0.00010982	965.92	8.3063e-06	1.3523e-05	991.87	310.46	2.7312e-06	1.1225e-05	387.37	125.09	92.31	37.888	7.1328e-06	61.8	0.0015244	0.0016026	0.00040124	959.73	1.7377e-05	1.7439e-05	976.2	309.21	1.7611e-05	1.7585e-05	389.17	128.85	96.526	39.092	1.6023e-05	62.057	201.248	142.629	190.198	-43.646	216.440	166.931	-44.337	-38.961	8.969	80.370	-40.599	-35.947	-34.594	-29.873	117.686	-31.418	-8191	255	
2845.208	1	1	0	0	0.20677	0.22424	0.02284	0.23994	0.12374	0.07603	0.21449	0.24547	0.1118	0.072261	0.20891	0.096193	0.28057	0.22111	0.22493	0.22784	-2.7271	-2.4792	-2.4271	-3.275	-2.3667	-2.8396	-3.1021	-2.275	-2.9792	-2.6417	-2.5729	-3.1792	-2.6146	-2.5812	-2.9938	-2.45	93.579	39.507	48.278	251.295	284.781	92.775	223.644	241.809	263.861	118.788	-52.894	289.492	255.209	276.892	136.089	162.827	6.2695e-05	0.00077576	0.00079801	981.28	1.3353e-05	7.1111e-06	1009.7	312.33	4.5826e-06	1.2185e-05	392.53	126.21	92.91	37.531	1.0758e-05	61.643	0.0015555	0.0015656	0.0004044	971.58	1.7635e-05	1.6781e-05	992.21	312.24	1.7544e-05	1.6913e-05	393.25	129.66	96.859	38.757	1.6334e-05	62.156	90.102	297.518	89.383	-44.271	154.911	205.432	-44.438	-39.221	200.952	67.254	-41.078	-35.848	-34.790	-29.942	188.959	-32.038	-8191	255	
2845.304	1	1	0	0	0.24676	0.091224	0.16851	0.1526	0.099356	0.22596	0.12218	0.070807	0.03539	0.22379	0.092457	0.29653	0.068569	0.13748	0.24176	0.2992	-2.4333	-2.8937	-2.4479	-3.1479	-2.775	-2.575	-3.1521	-2.4979	-2.9104	-2.7062	-2.6937	-3.2271	-2.7542	-2.7271	-3.0354	-2.6146	-10.608	294.565	257.172	206.931	66.455	59.414	279.655	225.301	234.535	-39.327	-28.981	295.174	81.607	258.675	-41.883	235.442	0.00015252	0.0014719	0.00055544	979.69	7.5433e-06	8.4089e-06	1005.7	310.19	4.5058e-06	1.2882e-05	389.11	124.43	91.749	37.465	1.5156e-05	60.521	0.0015345	0.0015106	0.00041675	971.47	1.7553e-05	1.6138e-05	989.33	311.04	1.7422e-05	1.6095e-05	391.3	127.91	95.839	38.335	1.6766e-05	61.083	158.231	8.006	0.517	-44.398	244.885	118.196	-44.717	-39.318	181.342	69.173	-40.807	-35.927	-35.052	-29.785	105.339	-31.760	-8191	255	
2845.400	1	1	0	0	0.11132	0.049351	0.30189	0.18958	0.24628	0.08047	0.39353	0.2953	0.30397	0.087522	0.31986	0.36176	0.10273	0.27256	0.064899	0.10742	-2.3583	-3.0667	-2.3208	-2.8937	-2.7458	-2.4646	-3.0604	-2.5833	-2.7771	-3.1188	-2.2292	-3.0292	-2.9583	-2.4958	-3.0062	-2.6271	235.530	-13.497	208.339	263.814	-8.817	226.864	190.175	169.947	205.879	246.928	292.200	-9.967	-18.012	130.756	184.054	60.563	0.0001275	0.00052501	0.00026989	964.14	1.3246e-05	8.8155e-06	974.62	306.35	5.2981e-06	5.4488e-06	383.15	122.57	91.034	37.309	1.4215e-05	60.435	0.0015196	0.0014331	0.00043485	955.6	1.7276e-05	1.5396e-05	963.97	306.28	1.6824e-05	1.5527e-05	385.52	126.38	94.613	38.122	1.7071e-05	60.926	125.624	285.253	80.353	-44.213	51.850	40.260	-44.650	-39.256	169.651	-22.072	-41.024	-36.152	-34.850	-29.948	164.990	-32.005	-8191	255	
2845.496	1	1	0	0	0.24355	0.24692	0.10371	0.14936	0.23432	0.085625	0.16637	0.06131	0.13094	0.23613	0.20925	0.093368	0.24206	0.31174	0.19807	0.12265	-2.2083	-2.8063	-2.5292	-3.1562	-2.7417	-2.5812	-3.1104	-2.5604	-2.5938	-2.9208	-2.5333	-2.6271	-2.9042	-2.3438	-3.0875	-2.6188	242.464	186.102	290.678	-35.362	32.214	142.639	207.469	148.922	132.930	126.202	73.107	217.010	254.542	228.747	-31.806	250.812	0.00018783	0.0003756	0.00031226	967.16	1.0233e-05	1.234e-05	989.49	310.43	7.6634e-06	1.5678e-05	389.57	125.15	92.608	38.051	4.7209e-06	62.758	0.0014282	0.0014451	0.00043747	959.25	1.6191e-05	1.5538e-05	980.25	308.96	1.5964e-05	1.605e-05	393.44	129.06	95.611	38.885	1.7491e-05	63.027	198.564	252.150	110.510	-44.388	13.394	93.116	-44.806	-39.269	154.108	160.412	-41.258	-36.330	-35.056	-29.977	106.247	-31.720	-8191	255	
2845.592	1	1	0	0	0.20418	0.02051	0.23466	0.20698	0.062732	0.026659	0.31032	0.33975	0.12206	0.090285	0.075986	0.19379	0.087401	0.16004	0.13384	0.20562	-2.2604	-2.925	-2.3958	-2.8896	-2.8104	-2.3229	-3.1729	-2.6792	-2.4729	-2.975	-2.4771	-2.7167	-2.9375	-2.3917	-3.0667	-2.7062	263.855	-8.364	92.364	189.385	38.948	249.683	185.302	262.226	267.878	116.819	154.393	90.768	-52.131	-31.394	199.621	137.484	5.8809e-05	0.00094915	0.00041297	975.89	5.3449e-06	2.125e-05	1017.1	313	9.4212e-06	3.8069e-06	401.98	130.31	93.931	38.564	4.2117e-06	64.266	0.0013954	0.0015186	0.00044518	967.45	1.6047e-05	1.6597e-05	1008.6	313.38	1.5795e-05	1.7028e-05	405.42	133.56	97.082	39.719	1.7573e-05	64.189	132.724	290.387	120.945	-44.555	-45.569	112.764	-45.069	-39.427	134.752	25.970	-41.037	-36.154	-34.878	-29.808	235.200	-32.213	-8191	255	
2845.711	1	1	0	0	0.088604	0.10597	0.18061	0.25156	0.022348	0.11885	0.33986	0.13276	0.10928	0.13144	0.21009	0.29701	0.30653	0.17311	0.11292	0.081036	-2.075	-3.0167	-2.3438	-2.9854	-2.9208	-2.4375	-3.0979	-2.6708	-2.5875	-3.1417	-2.4854	-2.8375	-2.8563	-2.4375	-3.0896	-2.7438	-16.042	-4.941	153.249	259.940	147.801	94.513	239.818	253.077	66.603	284.111	-56.207	245.186	214.921	249.929	167.581	210.593	0.00012305	0.0006489	0.00056691	982	3.7878e-06	3.7491e-06	1016.8	310.77	4.8268e-06	1.2578e-05	393.68	126.21	91.653	37.665	8.6962e-06	61.494	0.0013624	0.001583	0.00045	972.22	1.5853e-05	1.7192e-05	1003.5	310.62	1.5777e-05	1.7373e-05	395.98	128.76	94.743	38.962	1.747e-05	61.439	172.188	5.093	-12.954	-44.558	108.693	250.905	-45.188	-39.301	170.671	83.591	-41.173	-36.350	-35.096	-30.126	126.678	-32.290	-8191	255	
2845.807	1	1	0	0	0.32958	0.12293	0.17477	0.29295	0.22802	0.061188	0.14401	0.3584	0.14627	0.090762	0.27486	0.19722	0.19204	0.31846	0.23353	0.0988	-2.1021	-3.1688	-2.2708	-3.0083	-3.1063	-2.4521	-2.8667	-2.9708	-2.3021	-3.15	-2.7792	-2.4625	-3.2042	-2.3167	-2.6583	-3.0438	125.756	70.575	80.230	260.003	249.807	31.957	210.987	-17.618	22.341	184.390	104.184	253.685	139.246	220.365	139.722	211.757	0.00026702	0.0012391	0.0001256	958.21	7.4137e-06	5.3044e-06	978.29	303.26	6.1118e-06	1.2825e-05	381.77	123.96	91.022	36.923	4.7008e-06	60.982	0.0013922	0.0015732	0.00044173	944.87	1.5999e-05	1.7155e-05	971.43	303.33	1.5924e-05	1.697e-05	386.37	125.83	94.489	38.417	1.7184e-05	60.778	222.487	235.319	31.213	-44.475	210.202	54.644	-44.860	-39.440	97.224	103.547	-40.853	-36.615	-35.131	-30.038	-43.267	-32.137	-8191	255	
2845.904	1	1	0	0	0.27554	0.056233	0.19991	0.081285	0.054296	0.25253	0.038617	0.04665	0.13882	0.19728	0.28228	0.35877	0.1345	0.067396	0.13519	0.033328	-1.9479	-2.9062	-2.6292	-2.6729	-2.9271	-2.4833	-2.8896	-3.0375	-2.4583	-3.1146	-2.9458	-2.5333	-3.0771	-2.6854	-2.9708	-3.0375	273.278	73.299	120.496	279.375	-14.597	28.285	43.409	296.019	91.389	-28.479	187.434	274.598	223.047	48.068	-54.756	158.230	0.00027925	0.00093308	0.00028202	960.91	9.9895e-06	1.0333e-05	994.2	306.56	4.4193e-06	1.2685e-05	390.65	125.5	93.18	37.699	8.1846e-06	62.14	0.0014348	0.0015609	0.00043986	944.4	1.6731e-05	1.7394e-05	980.37	304.35	1.6831e-05	1.7277e-05	393.67	128.12	96.712	38.999	1.6732e-05	61.913	181.331	-41.641	265.707	-44.583	-46.038	31.945	-45.197	-39.730	223.788	38.493	-41.367	-36.255	-35.136	-30.216	146.514	-32.239	-8191	255	
2846.000	1	1	0	0	0.083824	0.071419	0.091985	0.18532	0.11137	0.19168	0.096852	0.4135	0.070812	0.14149	0.12448	0.095155	0.20207	0.13452	0.21453	0.19373	-1.9292	-2.8271	-2.7833	-2.7687	-3.0708	-2.5104	-2.8187	-3.1229	-2.3688	-3.0125	-2.9917	-2.5458	-3.0375	-2.4042	-2.6167	-3.3625	89.330	63.802	203.183	249.868	225.523	301.615	94.771	248.777	2.667	287.245	185.122	291.860	0.973	10.651	164.520	216.575	0.00026113	0.00034809	0.00054698	970.13	6.0912e-06	7.1299e-06	1019	311.22	8.0828e-06	4.0276e-06	398.23	128.46	93.919	38.176	5.4249e-06	62.797	0.0015	0.0015837	0.00043064	956.87	1.7407e-05	1.7541e-05	1001.8	310.03	1.7461e-05	1.7605e-05	399.81	131.49	97.579	39.432	1.6386e-05	63.018	217.092	53.176	-31.609	-44.473	112.715	-47.778	-45.302	-39.277	150.385	154.828	-41.025	-36.312	-35.048	-30.363	-4.629	-31.862	-8191	255	
2846.096	1	1	0	0	0.16927	0.24084	0.058189	0.13809	0.14929	0.22677	0.071116	0.21641	0.15931	0.15222	0.23506	0.1808	0.037732	0.097762	0.33266	0.3055	-2.2292	-2.8688	-2.8604	-2.4708	-2.9188	-2.6562	-2.8417	-3.0875	-2.1292	-2.8875	-3.1479	-2.3958	-3.1771	-2.7687	-2.4771	-3.1312	41.476	257.466	46.721	152.051	183.318	35.195	-38.923	247.720	81.482	-7.650	193.002	240.221	253.645	64.344	-41.419	254.596	0.00013943	0.0008892	0.0003462	967.1	1.0039e-05	1.596e-05	993.73	307.65	1.3344e-05	1.1868e-05	385.32	124.31	91.624	37.105	7.1685e-06	60.679	0.001542	0.0016058	0.00041873	957.69	1.7465e-05	1.7569e-05	978.13	306.51	1.7408e-05	1.7186e-05	386.64	127.78	95.29	38.412	1.5415e-05	60.951	235.135	-10.857	29.132	-44.195	124.538	69.596	-45.028	-39.537	273.766	94.698	-41.094	-35.994	-35.060	-30.052	22.874	-31.996	-8191	255	
2846.192	1	1	0	0	0.28251	0.215	0.2837	0.36965	0.18855	0.30487	0.29787	0.17335	0.14443	0.33241	0.29152	0.055254	0.18	0.1381	0.014306	0.18889	-1.9542	-2.8875	-2.8271	-2.2333	-3.1021	-2.5958	-2.5354	-3.2042	-2.2896	-2.5646	-2.9104	-2.3958	-2.9896	-2.7083	-2.3646	-3.1833	-40.874	292.942	132.183	256.556	164.306	166.833	237.995	294.466	-6.044	37.525	253.292	-7.704	154.300	112.648	144.909	19.170	5.3386e-05	0.00020503	0.00035768	948.56	7.5649e-06	1.2874e-05	978.28	305.14	7.8358e-06	9.0223e-06	383.37	126.85	92.074	37.353	8.3498e-06	62.437	0.0015012	0.0015343	0.00039683	945.37	1.7128e-05	1.6924e-05	962.4	304.6	1.7329e-05	1.6705e-05	386.37	129.9	95.978	38.772	1.5845e-05	62.653	184.065	9.354	17.422	-44.481	58.875	116.215	-45.254	-39.606	195.794	89.420	-41.265	-36.409	-34.676	-29.965	81.694	-32.087	-8191	255	
2846.288	1	1	0	0	0.097394	0.14251	0.19731	0.33194	0.21044	0.12886	0.020051	0.21802	0.19663	0.05839	0.32469	0.15007	0.028108	0.32489	0.14805	0.19236	-2.1396	-2.4604	-2.9229	-2.6604	-2.8729	-2.9042	-2.4062	-3.2417	-2.575	-2.6437	-3.1354	-2.3479	-2.7833	-3.0521	-2.5021	-2.9833	-49.461	282.186	265.684	245.719	298.248	271.548	218.260	291.479	292.654	100.783	127.377	281.179	234.432	130.456	148.918	251.401	0.00011845	0.00078734	0.00025062	960.4	6.6833e-06	8.1063e-06	995.52	307.02	8.808e-06	1.3735e-05	390.73	127.66	92.738	37.824	1.3196e-05	63.055	0.0015445	0.0015065	0.00041462	953.53	1.738e-05	1.6546e-05	983.31	306.99	1.7798e-05	1.6095e-05	393.64	131.44	96.801	38.795	1.696e-05	63.385	228.439	10.474	37.155	-44.431	-8.052	33.801	-45.299	-39.379	129.406	49.700	-41.255	-36.332	-35.195	-30.001	254.268	-32.117	-8191	255	
2846.384	1	1	0	0	0.088044	0.16053	0.069837	0.10652	0.11903	0.16393	0.43478	0.23704	0.1585	0.23922	0.25383	0.26932	0.125	0.18501	0.30683	0.07368	-2.3438	-2.5833	-3.0792	-2.4583	-2.7521	-2.9271	-2.5938	-3.0396	-2.7562	-2.6354	-3.2083	-2.4792	-2.4396	-3.0187	-2.2833	-3.0771	-11.702	-47.429	208.819	27.465	284.427	104.922	287.174	166.567	212.930	127.144	84.847	203.001	198.748	225.944	205.524	83.507	0.00014595	0.00015336	0.0001946	963.78	7.4263e-06	1.0168e-05	1014.6	310.08	5.7486e-06	4.1715e-06	393.31	129.04	93.104	37.443	1.4599e-05	62.217	0.0015774	0.0014777	0.00043523	963.64	1.7674e-05	1.61e-05	1004.1	310.48	1.7895e-05	1.6274e-05	398.79	132.76	96.699	38.683	1.7778e-05	62.85	230.468	-17.346	69.535	-44.192	101.850	150.610	-45.020	-39.302	32.261	101.149	-41.244	-36.073	-34.997	-30.202	208.236	-32.222	-8191	255	
2846.505	1	1	0	0	0.065977	0.14051	0.10519	0.12193	0.31689	0.11104	0.16474	0.088425	0.19517	0.1709	0.089765	0.14483	0.22936	0.11635	0.089347	0.23731	-2.5271	-2.4896	-3.0708	-2.7604	-2.5375	-2.8438	-2.3937	-3.1125	-2.7125	-2.4583	-3.2521	-2.575	-2.3854	-3.1937	-2.3312	-3.0563	214.376	175.514	-23.594	271.727	286.174	-22.142	234.017	-41.941	15.917	6.101	-18.622	42.749	35.900	166.890	90.827	209.672	5.8579e-05	0.00036436	5.4793e-05	954.26	5.3232e-06	6.9796e-06	975.03	303.69	9.551e-06	6.7914e-06	379.65	122.37	90.197	36.292	5.0839e-06	59.721	0.001509	0.001468	0.00044715	952.66	1.6918e-05	1.6014e-05	972.16	303.19	1.6682e-05	1.6045e-05	383.98	126.63	93.332	37.445	1.7538e-05	59.996	72.968	45.109	147.015	-44.405	86.460	162.579	-45.305	-39.340	29.656	129.914	-41.006	-36.260	-35.146	-29.994	37.087	-31.981	-8191	255	
2846.599	1	1	0	0	0.078672	0.19626	0.1571	0.45461	0.37992	0.23776	0.19137	0.44701	0.1902	0.12374	0.044169	0.13173	0.038464	0.27751	0.25018	0.18736	-2.4688	-2.3438	-3.0292	-2.5	-2.5187	-3.1083	-2.3875	-3.0542	-2.8063	-2.3729	-3.2042	-2.7042	-2.5438	-3.025	-2.3458	-2.7479	108.447	55.143	301.811	259.165	126.924	-34.693	264.592	-51.298	176.628	142.174	190.908	276.928	280.913	273.223	231.400	280.115	0.00018015	0.0011671	0.00021969	947.54	3.7867e-06	9.8549e-06	962.86	300.92	6.0482e-06	4.5759e-06	378.54	121.97	89.813	36.028	3.0377e-06	59.436	0.0014295	0.0014909	0.00043636	941.17	1.5841e-05	1.6374e-05	958.56	300.93	1.5745e-05	1.6681e-05	384.11	126.18	92.811	37.496	1.7609e-05	60.103	232.394	300.550	242.574	-44.275	99.387	184.377	-45.124	-39.388	-15.119	47.863	-41.324	-36.045	-35.064	-30.269	183.787	-31.878	-8191	255	
2846.673	1	1	0	0	0.12654	0.30674	0.23103	0.30487	0.081043	0.39064	0.095617	0.22078	0.30481	0.23449	0.20286	0.22459	0.28388	0.064629	0.20443	0.26652	-2.1437	-2.3542	-2.9938	-2.575	-2.3271	-3.0792	-2.3312	-2.8604	-2.9	-2.3271	-3.0604	-2.8333	-2.5125	-2.9521	-2.7083	-2.8896	270.198	43.547	286.757	267.777	-53.898	91.131	179.099	232.913	136.149	190.029	279.583	278.393	271.979	48.037	-3.291	281.280	0.00016721	0.00056818	0.00034776	958.28	1.5272e-06	6.0694e-06	989.9	302.41	9.0434e-06	4.0003e-06	387.19	124.28	91.643	36.494	8.782e-06	60.42	0.0013931	0.0015606	0.00044876	951.09	1.5679e-05	1.7108e-05	979.67	304.08	1.5896e-05	1.7506e-05	391.3	127.91	94.143	38.021	1.7909e-05	60.954	267.071	186.100	-3.586	-44.482	-34.769	34.934	-45.152	-39.911	50.048	282.890	-41.379	-36.221	-34.816	-30.277	203.579	-32.180	-8191	255	
2846.792	1	1	0	0	0.11047	0.064703	0.23061	0.07826	0.11221	0.11943	0.1841	0.30758	0.13213	0.24294	0.41776	0.19581	0.16134	0.28454	0.059565	0.074078	-2.6479	-2.3792	-3.0875	-2.8042	-2.2229	-3.0375	-2.7417	-2.7313	-3.05	-2.3417	-2.8958	-2.9813	-2.6646	-2.9792	-2.5958	-2.7188	22.732	15.744	64.671	83.786	42.308	157.388	161.815	289.133	207.463	138.633	-26.689	267.132	292.554	-50.047	109.059	127.794	0.00021399	0.0013239	0.00033287	965.09	6.5174e-06	1.213e-05	1012.9	310.93	3.3567e-06	5.494e-06	393.81	127.32	91.488	37.614	1.019e-05	61.639	0.0014356	0.0016348	0.00045837	958.7	1.6451e-05	1.8019e-05	1004.9	308.15	1.6818e-05	1.8152e-05	400.48	130.02	95.25	38.889	1.8115e-05	61.687	229.980	18.287	-2.921	-44.388	118.296	164.559	-44.825	-39.703	102.679	162.138	-41.389	-36.074	-35.038	-30.082	114.384	-32.087	-8191	255	
2846.888	1	1	0	0	0.14389	0.088521	0.16916	0.083686	0.16807	0.10953	0.17359	0.071124	0.13161	0.19211	0.16052	0.18651	0.088099	0.08419	0.16772	0.06768	-2.8208	-2.4521	-2.6229	-3.1688	-2.3396	-3.1417	-2.8187	-2.6854	-3.0292	-2.4542	-2.6333	-2.9562	-2.5333	-3.1521	-2.7354	-2.5083	200.402	80.225	156.800	260.253	89.164	151.929	152.142	-23.615	202.016	261.603	4.290	-39.610	245.716	-34.795	271.577	275.918	0.00012792	0.00075697	0.00035717	954.93	1.3333e-05	1.3571e-05	978.97	302.95	1.1713e-05	1.3557e-05	378.12	124.44	90.385	36.81	1.418e-05	60.81	0.0014982	0.0016348	0.0004548	944.63	1.6965e-05	1.7805e-05	974.28	299.95	1.7413e-05	1.7742e-05	386.57	126.35	94.269	38.316	1.7592e-05	60.659	158.350	72.523	133.994	-44.126	202.164	175.200	-44.859	-39.770	146.537	98.882	-41.682	-36.013	-35.348	-29.917	72.714	-32.320	-8191	255	
2846.984	1	1	0	0	0.15318	0.034533	0.083497	0.20957	0.26325	0.27517	0.199	0.0086128	0.18464	0.058557	0.12467	0.1794	0.13851	0.19779	0.16769	0.42489	-2.8563	-2.4896	-2.7146	-2.8937	-2.1833	-2.975	-2.95	-2.5146	-3.0646	-2.5167	-2.7479	-3.2229	-2.3229	-3.0583	-2.7021	-2.5	64.530	168.572	92.083	-40.244	90.642	224.910	201.491	121.833	176.781	55.711	-48.756	244.292	-49.683	223.753	281.753	246.010	0.00027742	0.00027501	0.00019115	947.79	1.6209e-05	6.0681e-06	979.22	301.17	7.6769e-06	1.3269e-05	382.2	122.91	90.348	36.581	5.224e-06	60.579	0.001533	0.0016214	0.00043915	934.46	1.7508e-05	1.7668e-05	968.96	299.62	1.7646e-05	1.7857e-05	386.06	126.63	94.801	38.179	1.6811e-05	60.756	199.642	209.071	28.798	-44.508	141.487	147.595	-45.113	-39.526	173.979	82.718	-41.304	-36.330	-34.950	-30.546	-30.935	-31.967	-8191	255	
2847.080	1	1	0	0	0.088701	0.030013	0.14821	0.03071	0.069187	0.30341	0.1617	0.021942	0.078211	0.17998	0.17724	0.11456	0.063112	0.092692	0.29225	0.21367	-2.6042	-2.5979	-2.3667	-2.9604	-2.3542	-2.8208	-2.9938	-2.4354	-3.025	-2.5417	-2.5771	-3.2167	-2.5729	-2.8479	-2.7021	-2.4104	61.727	179.519	-2.698	292.834	245.729	185.845	264.332	-57.046	16.602	16.612	-55.789	-15.438	101.197	205.346	-24.980	-56.014	0.00020758	0.00078195	0.00025101	953.39	5.1015e-06	8.3513e-06	986.91	301.55	6.0558e-06	1.7237e-05	384.56	123.23	90.514	36.185	1.2293e-05	60.079	0.0015535	0.0016287	0.00041979	942.69	1.7714e-05	1.7755e-05	970.55	302.02	1.7624e-05	1.7876e-05	386.13	127.69	94.806	37.768	1.6351e-05	60.76	234.559	13.434	-25.425	-44.385	201.915	95.100	-44.937	-39.472	124.667	124.279	-41.229	-36.332	-34.915	-30.186	60.796	-31.981	-8191	255	
2847.201	1	1	0	0	0.22965	0.10385	0.1922	0.069683	0.30393	0.32239	0.17337	0.32982	0.10496	0.053874	0.22335	0.093681	0.065775	0.20431	0.11307	0.26475	-2.575	-2.7042	-2.4042	-3.2313	-2.4875	-2.6958	-3.1729	-2.6625	-3.0875	-2.6792	-2.6042	-3.1646	-2.3146	-2.7562	-3.1583	-2.3729	-8.932	-13.424	120.485	177.153	187.726	39.518	215.582	244.644	111.226	83.337	283.390	-40.605	53.868	292.597	133.991	65.539	0.0002238	0.00050245	0.00026309	964.57	6.6545e-06	5.0313e-06	992.5	303.34	5.2048e-06	1.2758e-05	380.49	121.31	88.267	35.127	7.4931e-06	57.916	0.0015649	0.0016379	0.00041076	957.56	1.7978e-05	1.7665e-05	975.76	304.42	1.7866e-05	1.7665e-05	382.22	125.35	93.263	36.735	1.631e-05	58.854	189.130	83.061	21.723	-44.279	204.004	-24.128	-45.080	-39.533	219.016	88.674	-41.072	-36.378	-34.824	-30.477	146.053	-32.024	-8191	255	
2847.297	1	1	0	0	0.20867	0.2673	0.38093	0.13188	0.086237	0.11752	0.11939	0.080829	0.11003	0.10396	0.23367	0.14339	0.18209	0.19419	0.075752	0.25383	-2.4708	-2.9521	-2.3667	-3.0833	-2.4562	-2.5958	-3.1479	-2.4104	-2.7917	-2.8646	-2.4104	-3.1	-2.4792	-2.5167	-3.1708	-2.5062	111.938	37.130	180.476	301.569	-31.469	83.784	-2.945	114.647	173.656	6.915	214.329	-8.701	199.660	209.807	61.800	162.366	8.9686e-05	0.00042535	0.00017357	947.86	9.0343e-06	3.5683e-06	956.73	298.54	2.4368e-06	2.0886e-05	374.05	119.54	88.045	35.161	9.0053e-07	59.106	0.0015682	0.0015864	0.00041296	941.65	1.786e-05	1.6721e-05	948.92	298.89	1.7667e-05	1.6779e-05	376.05	124.38	92.649	36.573	1.6971e-05	59.936	153.071	142.219	31.854	-44.268	-5.662	90.725	-45.143	-39.094	276.302	58.689	-41.296	-36.063	-34.940	-30.193	-49.237	-31.964	-8191	255	
2847.393	1	1	0	0	0.093434	0.098	0.081681	0.32425	0.10285	0.28719	0.34394	0.096088	0.1097	0.047784	0.18721	0.22834	0.079122	0.17587	0.27313	0.20589	-2.4292	-2.8312	-2.4208	-3.025	-2.6042	-2.5042	-3.0979	-2.4896	-2.8583	-2.8646	-2.5229	-3.1104	-2.7562	-2.5229	-3.0021	-2.5479	233.589	257.829	168.447	285.754	-38.888	1.562	258.618	-2.396	239.746	-41.448	-24.787	287.455	236.094	-55.213	283.814	210.082	0.00013109	0.0016228	0.0001085	942.56	5.5044e-06	1.7796e-05	975.69	301.99	5.3382e-06	7.3628e-06	388.78	127.02	91.187	37.229	1.1991e-05	62.162	0.0015617	0.0015077	0.00043369	942.05	1.8091e-05	1.6272e-05	974.25	302.77	1.7913e-05	1.6367e-05	392.92	130.89	95.792	38.294	1.7989e-05	63.095	91.429	-44.419	49.597	-44.506	114.672	25.031	-44.969	-39.566	153.638	182.778	-41.066	-36.098	-34.918	-30.305	138.574	-31.959	-8191	255	
2847.489	1	1	0	0	0.12726	0.05072	0.057507	0.27766	0.32606	0.11917	0.16819	0.2686	0.1066	0.23885	0.062712	0.54802	0.17934	0.07229	0.22937	0.13018	-2.2938	-2.8812	-2.4833	-3.1625	-2.6979	-2.5708	-3.1729	-2.6958	-2.5896	-2.8875	-2.1958	-2.9437	-2.9188	-2.3917	-3.1854	-2.7146	37.275	145.658	11.694	291.696	110.597	-35.883	200.909	208.722	277.933	91.137	281.647	297.744	-10.233	89.241	-4.601	89.148	0.00012827	0.00059677	0.00010258	957.91	1.3571e-05	1.2053e-05	1006.8	305.18	1.6618e-05	4.2882e-06	396.8	128.99	91.945	37.484	9.3157e-06	63.031	0.0015741	0.0015181	0.00045971	956.59	1.7989e-05	1.6629e-05	1001	308	1.7638e-05	1.6692e-05	402.26	133.32	96.154	38.679	1.8318e-05	63.8	177.395	141.700	112.853	-44.559	43.543	136.202	-45.202	-39.320	96.115	269.431	-41.142	-36.233	-35.089	-29.986	163.660	-31.875	-8191	255	
2847.585	1	1	0	0	0.13165	0.10903	0.073273	0.40187	0.1303	0.031795	0.19708	0.29858	0.11681	0.14666	0.28949	0.11795	0.092318	0.053766	0.069809	0.0725	-2.1188	-2.9542	-2.25	-2.9062	-2.9104	-2.4333	-3.2833	-2.725	-2.6729	-2.9458	-2.6188	-2.7375	-2.9813	-2.4062	-3.0542	-2.6312	267.273	176.016	235.897	238.745	73.559	111.854	213.807	199.630	92.689	117.938	217.358	160.005	120.374	145.788	6.547	2.486	0.00020831	0.00028259	0.000114	958.15	1.8279e-05	7.1837e-06	992.22	302.79	7.0667e-06	7.0319e-06	384.2	125.62	89.762	36.596	1.0681e-05	61.282	0.0015317	0.0015584	0.0004733	956.68	1.7167e-05	1.7318e-05	991.87	305.3	1.6723e-05	1.7325e-05	391.43	130.1	93.693	38.21	1.8222e-05	62.087	246.283	267.666	-6.309	-44.232	53.397	221.224	-44.827	-39.707	34.585	136.577	-41.219	-36.007	-34.996	-30.377	57.204	-32.043	-8191	255	
2847.682	1	1	0	0	0.13359	0.10709	0.13731	0.21582	0.12979	0.29626	0.24728	0.25596	0.046581	0.064474	0.40514	0.16768	0.14268	0.14986	0.014398	0.18754	-2.0375	-3.0146	-2.1125	-2.9042	-2.9708	-2.3104	-3.1333	-2.825	-2.4938	-2.9583	-2.6875	-2.6875	-2.9833	-2.5208	-2.9333	-2.825	256.940	172.776	72.867	280.361	73.605	7.613	288.929	285.681	63.580	113.715	276.663	-9.822	45.316	23.388	212.981	0.301	0.00017285	0.00039038	0.00016102	934.31	5.8687e-06	1.2527e-05	963.47	296.98	9.8529e-06	4.3695e-06	379.81	125.68	89.757	37.351	3.9377e-06	63.002	0.0014383	0.001605	0.00046715	933.7	1.649e-05	1.782e-05	964.01	299.31	1.648e-05	1.8051e-05	387.24	129.98	93.795	39.02	1.8603e-05	63.321	92.658	281.832	238.629	-44.445	111.740	252.813	-44.997	-39.772	212.260	-9.651	-40.982	-36.402	-35.161	-30.056	239.079	-31.886	-8191	255	
2847.800	1	1	0	0	0.16554	0.045885	0.20829	0.12135	0.1656	0.070476	0.22687	0.11799	0.12709	0.056363	0.16789	0.29539	0.14291	0.21816	0.092898	0.23288	-2.0812	-2.9188	-2.3125	-2.7667	-3.0563	-2.3208	-3.0583	-2.8812	-2.4271	-2.9854	-2.6729	-2.7208	-3.0708	-2.4604	-3.0687	-3.1125	78.772	161.525	62.775	296.865	235.812	154.164	192.413	210.433	-32.971	288.806	254.899	295.969	260.629	-51.893	246.465	186.960	0.00032054	0.001028	0.00030545	934.06	5.2062e-06	1.2478e-05	982.19	297.68	5.5954e-06	1.5513e-05	383.57	125.08	89.714	36.512	9.9088e-06	61.088	0.0014659	0.0016877	0.00047252	932.06	1.6824e-05	1.8529e-05	976.24	299.49	1.676e-05	1.8584e-05	392.2	128.86	94.132	38.374	1.8675e-05	61.629	198.496	-41.436	76.761	-44.463	-19.694	87.581	-45.318	-39.476	277.478	96.651	-40.797	-36.565	-35.234	-30.176	83.923	-32.141	-8191	255	
2847.897	1	1	0	0	0.054833	0.054026	0.15049	0.26682	0.13159	0.0030303	0.085744	0.19506	0.17202	0.13718	0.087717	0.2235	0.089757	0.23387	0.42605	0.13481	-2.0792	-2.9833	-2.5458	-2.8271	-2.8896	-2.4562	-2.9583	-2.8104	-2.3312	-3.1042	-2.4917	-2.5042	-3.2292	-2.5187	-2.6063	-3.1729	-1.721	184.428	272.027	187.911	154.926	234.386	296.321	265.268	-18.382	-49.984	283.102	-34.598	-25.574	176.463	268.201	81.183	0.00010939	0.00052318	0.00019224	946.64	9.0389e-06	8.9517e-06	993.43	301.63	4.4424e-06	8.9629e-06	389.61	127.63	90.704	36.579	2.6672e-06	61.8	0.0015192	0.0017058	0.00047731	940.78	1.7633e-05	1.8786e-05	989.59	302.34	1.8135e-05	1.8833e-05	398.94	130.44	95.412	38.524	1.8932e-05	62.205	232.300	30.674	-8.872	-44.568	118.170	114.624	-44.757	-39.562	133.874	118.186	-41.435	-35.935	-34.928	-30.379	85.154	-32.243	-8191	255	
2847.968	1	1	0	0	0.43544	0.11238	0.025412	0.22539	0.095375	0.16714	0.25109	0.29714	0.052241	0.088776	0.18591	0.071335	0.20982	0.20301	0.26064	0.11171	-2.1688	-2.9979	-2.5167	-2.6688	-2.9979	-2.2917	-2.85	-3.0875	-2.3104	-3.1146	-2.7521	-2.5604	-3.0354	-2.5854	-2.7646	-2.9896	162.137	101.699	-11.136	292.835	5.528	30.926	247.122	265.271	120.807	-5.850	158.768	186.399	-43.745	18.600	257.691	182.002	0.00028187	0.00025081	0.00032602	953.08	1.9707e-06	7.2245e-06	995.9	300.77	7.1012e-06	3.6776e-06	385.68	124.77	89.349	36.228	1.3447e-05	60.354	0.0016288	0.0017353	0.00048158	945.05	1.8479e-05	1.8923e-05	991.57	300.97	1.8546e-05	1.8883e-05	392.29	128.17	94.149	38.137	1.7655e-05	60.908	165.410	88.544	-33.745	-44.428	66.283	39.719	-44.942	-39.336	215.346	142.885	-41.126	-36.286	-35.486	-30.195	131.793	-32.122	-8191	255	
2848.064	1	1	0	0	0.083907	0.18566	0.28318	0.44824	0.068489	0.19039	0.12191	0.1363	0.12083	0.20908	0.1308	0.10655	0.29935	0.077823	0.044679	0.13577	-1.9208	-2.8854	-2.7646	-2.6708	-3.1979	-2.3229	-2.8271	-3.1667	-2.4292	-2.7833	-2.9562	-2.4708	-2.9104	-2.8063	-2.6125	-2.9583	129.117	74.110	137.050	252.033	98.097	135.103	267.457	136.735	47.357	203.491	266.775	107.930	281.690	281.407	54.809	279.000	9.7933e-05	0.0010687	0.00013064	933.63	1.2417e-05	1.3751e-05	959.8	294.18	9.9132e-06	7.8619e-06	377.6	123.43	88.113	35.963	1.8508e-06	59.947	0.0016103	0.0016704	0.0004445	925.66	1.815e-05	1.8278e-05	954.55	295.45	1.8128e-05	1.8126e-05	380.92	126.47	93.268	37.578	1.6492e-05	60.763	131.926	16.710	13.669	-44.463	119.806	113.191	-44.952	-39.229	98.333	-27.934	-40.849	-36.408	-35.141	-30.352	258.772	-32.122	-8191	255	
2848.185	1	1	0	0	0.19746	0.1225	0.2518	0.35561	0.23568	0.23438	0.084329	0.27265	0.15023	0.17435	0.11015	0.24414	0.049543	0.035513	0.10201	0.039167	-1.8312	-2.7083	-2.9083	-2.4271	-2.9292	-2.7562	-2.6979	-3.1833	-2.4188	-2.8646	-3.1271	-2.3375	-2.8438	-2.7917	-2.3667	-3.1417	72.655	243.979	80.015	240.940	89.712	84.187	71.507	-46.015	108.372	58.757	279.250	160.042	217.692	257.992	275.813	97.986	0.00013678	0.00068105	0.00045843	932.24	1.2143e-05	1.9993e-06	972.81	296.86	2.3943e-06	1.0399e-05	377.18	122.63	88.695	36.144	7.1528e-06	60.86	0.0015785	0.0016331	0.00042138	929.23	1.7801e-05	1.7937e-05	954.55	298.7	1.7918e-05	1.7748e-05	380.85	127.11	93.652	37.714	1.6257e-05	61.539	254.732	257.318	30.781	-44.321	9.232	205.085	-45.052	-39.647	191.152	291.266	-41.018	-36.292	-35.153	-30.017	47.332	-32.097	-8191	255	
2848.281	1	1	0	0	0.013508	0.07728	0.081252	0.23741	0.17614	0.45843	0.25869	0.18537	0.18548	0.057552	0.18938	0.19683	0.040432	0.14898	0.12682	0.11835	-2.2062	-2.7083	-2.8125	-2.4917	-3.0271	-2.7479	-2.6063	-2.9125	-2.4896	-2.5687	-2.9542	-2.3146	-2.8917	-2.8438	-2.4833	-3.0125	-43.842	135.778	229.979	289.462	-31.747	54.039	298.877	214.562	32.464	252.857	185.885	-49.410	165.974	241.977	74.824	-25.421	0.00030612	0.00035527	0.00014108	936.78	7.4307e-06	1.3855e-05	983.8	300.55	2.0723e-06	1.5106e-06	388.64	123.4	90.094	35.976	4.8784e-06	60.114	0.0015871	0.0015988	0.00042453	941.02	1.8129e-05	1.7661e-05	973.61	303.49	1.8216e-05	1.7204e-05	391.17	128.91	94.287	37.444	1.6757e-05	61.316	216.387	-52.381	122.751	-44.308	75.630	132.377	-45.268	-39.289	114.105	200.649	-41.143	-36.557	-34.989	-30.253	51.531	-32.224	-8191	255	
2848.377	1	1	0	0	0.1511	0.26557	0.24074	0.13234	0.061258	0.14922	0.25261	0.099939	0.047021	0.12545	0.20886	0.064653	0.046766	0.10465	0.15428	0.08029	-2.0687	-2.6229	-3.0229	-2.3187	-2.7396	-2.7479	-2.6104	-3.0375	-2.4354	-2.4938	-3.0729	-2.6	-2.8354	-2.9229	-2.4437	-3.1458	-46.870	173.194	272.095	175.539	0.657	292.213	161.043	8.105	104.030	219.520	252.238	299.898	192.984	296.774	105.139	-42.684	0.00029639	0.00076974	0.00040505	949.25	1.3152e-05	1.3512e-05	977.87	297.86	2.6638e-06	9.4844e-06	377.51	121.41	87.907	35.619	8.459e-06	59.56	0.001592	0.0015284	0.0004392	946.53	1.7966e-05	1.6805e-05	968.22	300.94	1.8205e-05	1.6373e-05	385.19	126.23	92.555	36.862	1.7484e-05	60.591	210.120	134.559	132.547	-44.545	205.922	11.286	-45.223	-39.865	126.729	-27.834	-41.126	-35.985	-35.036	-30.359	153.007	-32.052	-8191	255	
2848.473	1	1	0	0	0.059214	0.25191	0.15855	0.22076	0.078426	0.32702	0.15555	0.11205	0.16857	0.115	0.10828	0.16601	0.34096	0.16125	0.36394	0.27016	-2.1396	-2.5958	-2.9917	-2.5854	-2.8042	-2.9479	-2.3812	-3.1437	-2.8375	-2.5354	-3.0458	-2.5062	-2.7167	-3.0792	-2.3396	-2.9458	290.428	-47.854	61.110	292.455	274.705	133.752	162.740	295.383	80.159	61.923	104.266	221.251	238.081	270.644	-43.118	295.158	0.00013078	0.0004798	0.00045561	930.73	1.7567e-05	3.1028e-06	972.83	297.39	9.7708e-06	1.768e-05	381.08	124.18	89.654	36.493	4.6107e-06	61.548	0.001577	0.0014643	0.00044951	932.86	1.7495e-05	1.6389e-05	967.27	298.5	1.7837e-05	1.6308e-05	389.08	128.87	93.601	37.839	1.8332e-05	62.559	242.638	47.193	177.247	-44.352	263.057	37.127	-45.024	-39.921	104.283	143.161	-40.971	-36.253	-35.294	-29.935	88.317	-32.390	-8191	255	
2848.592	1	1	0	0	0.21404	0.20903	0.19168	0.17003	0.24622	0.17629	0.34196	0.33131	0.032415	0.19749	0.34829	0.17455	0.1592	0.16239	0.076527	0.18781	-2.35	-2.3937	-2.95	-2.6937	-2.4958	-3.1521	-2.6667	-2.975	-2.7458	-2.4375	-3.0854	-2.6437	-2.5687	-3.0854	-2.3958	-2.6979	26.644	42.921	297.913	270.478	22.921	120.087	221.024	260.408	222.706	118.783	212.775	48.238	-50.070	178.706	197.247	289.454	0.00012179	0.00090273	0.00034073	937.34	8.0659e-06	1.2304e-05	989.56	299.81	1.8979e-06	6.2857e-06	389.86	129.66	91.849	37.926	6.2188e-06	65.099	0.0015511	0.0015269	0.0004717	941.23	1.7135e-05	1.7112e-05	985.37	302.03	1.7093e-05	1.6879e-05	396.25	133.71	94.859	39.422	1.8257e-05	65.666	179.182	145.046	46.733	-44.400	32.530	18.570	-44.838	-39.988	252.558	169.263	-41.401	-36.250	-35.420	-30.111	166.791	-31.788	-8191	255	
2848.666	1	1	0	0	0.070452	0.042759	0.15618	0.21079	0.096566	0.16402	0.28433	0.20572	0.24112	0.14863	0.058322	0.1189	0.13521	0.19018	0.025068	0.094789	-2.5583	-2.4938	-3.0521	-2.6312	-2.4979	-2.9146	-2.5354	-2.7917	-2.9271	-2.2917	-3.2292	-2.7042	-2.4938	-2.9458	-2.4333	-2.8708	45.579	185.978	116.583	271.721	-22.780	53.750	185.421	279.350	-55.077	281.540	292.583	-50.344	-52.514	-21.029	82.434	286.742	0.00024742	0.001202	0.00018431	937.39	1.808e-06	9.3956e-06	993.84	302.65	8.15e-06	9.9412e-06	395.01	129	89.943	36.776	1.1021e-05	62.035	0.0014624	0.0015583	0.00046086	933.42	1.6222e-05	1.7514e-05	987.7	302.93	1.6528e-05	1.7423e-05	400.22	132.78	93.28	38.356	1.7811e-05	62.541	223.621	135.043	299.057	-44.286	75.537	231.715	-45.426	-39.945	127.990	165.879	-41.373	-36.275	-35.086	-30.625	133.108	-32.035	-8191	255	
2848.762	1	1	0	0	0.22495	0.05109	0.14093	0.089506	0.11257	0.06001	0.050041	0.13657	0.12235	0.17008	0.046076	0.17699	0.2583	0.16974	0.24474	0.17655	-2.3375	-2.175	-2.9313	-2.775	-2.4354	-2.9854	-2.5542	-2.8292	-2.8812	-2.3104	-2.9229	-2.6437	-2.4854	-3.1312	-2.4562	-2.7021	169.321	119.470	131.594	-16.653	-22.448	199.627	239.850	146.613	-17.381	106.136	56.760	65.289	283.716	279.936	59.804	179.443	0.00022167	0.00055412	0.00029653	943.88	1.9755e-05	5.5452e-06	980.31	297.66	3.4547e-06	6.848e-06	380.12	124.12	87.98	36.419	6.5277e-06	62.471	0.001409	0.0015809	0.00044924	938.94	1.58e-05	1.7743e-05	973.64	297.25	1.6404e-05	1.7744e-05	388.59	128.4	91.978	38.201	1.8464e-05	62.569	196.090	144.018	109.715	-44.087	164.443	225.421	-45.156	-39.497	203.772	121.880	-40.962	-36.518	-35.393	-30.467	138.408	-32.396	-8191	255	
#DATA ENDS
