BOXY.EXE: ISS Imagent and Oximeter Data Acquisition Program Version 0.80
Ascii Record File

#ACQ INFORMATION
2  Detector Channels 
16  External MUX Channels 
1  Auxiliary Channels 
5000  Waveform (CCF) Frequency (Hz)
1  Waveforms Skipped 
30  Waveforms Averaged 
1  Cycles Averaged 
16  Acquisitions per Waveform 
10.0806  Updata Rate (Hz) 

#FILE INFORMATION
TRUE -- External MUX Channel results are PARSED.
FALSE -- AC DC and Phase are NOT grouped.
TRUE -- Companion Program Settings File CREATED.
FALSE -- AC data not excluded
FALSE -- DC data not excluded
FALSE -- Phase data not excluded
FALSE -- Auxillary Chn. data not excluded
Tab delimiters

#CALIBRATION STATE
TRUE -- Waveform Calibration Values APPLIED.


#AUX CALIBRATION VALUES
Val Type	aux-1	

Term	1.0000e+00	
Factor	0.0000e+00	


#WF CALIBRATION VALUES
A = Detector Channel
Val Type	A-AC1	A-AC2	A-AC3	A-AC4	A-AC5	A-AC6	A-AC7	A-AC8	A-AC9	A-AC10	A-AC11	A-AC12	A-AC13	A-AC14	A-AC15	A-AC16	A-DC1	A-DC2	A-DC3	A-DC4	A-DC5	A-DC6	A-DC7	A-DC8	A-DC9	A-DC10	A-DC11	A-DC12	A-DC13	A-DC14	A-DC15	A-DC16	A-Ph1	A-Ph2	A-Ph3	A-Ph4	A-Ph5	A-Ph6	A-Ph7	A-Ph8	A-Ph9	A-Ph10	A-Ph11	A-Ph12	A-Ph13	A-Ph14	A-Ph15	A-Ph16	

Term	0.00000e+00	0.00000e+00	0.00000e+00	0.00000e+00	0.00000e+00	0.00000e+00	0.00000e+00	0.00000e+00	0.00000e+00	0.00000e+00	0.00000e+00	0.00000e+00	0.00000e+00	0.00000e+00	0.00000e+00	0.00000e+00	0.00000e+00	0.00000e+00	0.00000e+00	0.00000e+00	0.00000e+00	0.00000e+00	0.00000e+00	0.00000e+00	0.00000e+00	0.00000e+00	0.00000e+00	0.00000e+00	0.00000e+00	0.00000e+00	0.00000e+00	0.00000e+00	0.00000e+00	0.00000e+00	0.00000e+00	0.00000e+00	0.00000e+00	0.00000e+00	0.00000e+00	0.00000e+00	0.00000e+00	0.00000e+00	0.00000e+00	0.00000e+00	0.00000e+00	0.00000e+00	0.00000e+00	0.00000e+00	
Factor	1.00000e+00	1.00000e+00	1.00000e+00	1.00000e+00	1.00000e+00	1.00000e+00	1.00000e+00	1.00000e+00	1.00000e+00	1.00000e+00	1.00000e+00	1.00000e+00	1.00000e+00	1.00000e+00	1.00000e+00	1.00000e+00	1.00000e+00	1.00000e+00	1.00000e+00	1.00000e+00	1.00000e+00	1.00000e+00	1.00000e+00	1.00000e+00	1.00000e+00	1.00000e+00	1.00000e+00	1.00000e+00	1.00000e+00	1.00000e+00	1.00000e+00	1.00000e+00	X	X	X	X	X	X	X	X	X	X	X	X	X	X	X	X	

B = Detector Channel
Val Type	B-AC1	B-AC2	B-AC3	B-AC4	B-AC5	B-AC6	B-AC7	B-AC8	B-AC9	B-AC10	B-AC11	B-AC12	B-AC13	B-AC14	B-AC15	B-AC16	B-DC1	B-DC2	B-DC3	B-DC4	B-DC5	B-DC6	B-DC7	B-DC8	B-DC9	B-DC10	B-DC11	B-DC12	B-DC13	B-DC14	B-DC15	B-DC16	B-Ph1	B-Ph2	B-Ph3	B-Ph4	B-Ph5	B-Ph6	B-Ph7	B-Ph8	B-Ph9	B-Ph10	B-Ph11	B-Ph12	B-Ph13	B-Ph14	B-Ph15	B-Ph16	

Term	0.00000e+00	0.00000e+00	0.00000e+00	0.00000e+00	0.00000e+00	0.00000e+00	0.00000e+00	0.00000e+00	0.00000e+00	0.00000e+00	0.00000e+00	0.00000e+00	0.00000e+00	0.00000e+00	0.00000e+00	0.00000e+00	0.00000e+00	0.00000e+00	0.00000e+00	0.00000e+00	0.00000e+00	0.00000e+00	0.00000e+00	0.00000e+00	0.00000e+00	0.00000e+00	0.00000e+00	0.00000e+00	0.00000e+00	0.00000e+00	0.00000e+00	0.00000e+00	-7.23465e+01	-1.49617e+02	-1.26872e+02	-1.83762e+02	-5.18693e+01	-6.06153e+01	-1.58526e+02	-1.62015e+02	-4.81224e+01	-7.56965e+01	-1.70957e+02	-1.70833e+02	-1.76992e+02	-1.76825e+02	-4.67194e+01	-1.50028e+02	
Factor	1.63432e-05	1.10510e-04	3.48016e-05	1.52478e-01	1.22918e-06	1.22249e-06	1.63273e-01	5.15583e-02	9.18127e-07	1.18410e-06	8.55517e-02	2.92432e-02	2.25317e-02	9.04730e-03	1.05066e-06	1.29668e-02	1.38578e-06	1.45995e-06	4.07899e-07	7.71863e-02	1.59237e-08	1.59708e-08	7.76724e-02	2.61251e-02	1.59683e-08	1.59842e-08	4.15537e-02	1.42499e-02	1.15109e-02	4.55475e-03	1.60640e-08	6.29093e-03	X	X	X	X	X	X	X	X	X	X	X	X	X	X	X	X	



#DISTANCE SETTINGS
A = Detector Channel
A-1	A-2	A-3	A-4	A-5	A-6	A-7	A-8	A-9	A-10	A-11	A-12	A-13	A-14	A-15	A-16	

2.5000e+00	3.0000e+00	2.5000e+00	3.0000e+00	2.0000e+00	3.0000e+00	1.5000e+00	3.0000e+00	3.0000e+00	3.0000e+00	3.0000e+00	3.0000e+00	3.0000e+00	3.0000e+00	1.5000e+00	3.0000e+00	

B = Detector Channel
B-1	B-2	B-3	B-4	B-5	B-6	B-7	B-8	B-9	B-10	B-11	B-12	B-13	B-14	B-15	B-16	

1.0000e+01	1.0000e+01	1.0000e+01	1.4400e+00	1.0000e+01	1.0000e+01	1.5100e+00	1.9400e+00	1.0000e+01	1.0000e+01	1.9900e+00	2.4900e+00	2.4100e+00	2.9000e+00	1.0000e+01	2.9800e+00	




#DATA BEGINS
time	group	step	mark	flag	A-AC1	A-AC2	A-AC3	A-AC4	A-AC5	A-AC6	A-AC7	A-AC8	A-AC9	A-AC10	A-AC11	A-AC12	A-AC13	A-AC14	A-AC15	A-AC16	A-DC1	A-DC2	A-DC3	A-DC4	A-DC5	A-DC6	A-DC7	A-DC8	A-DC9	A-DC10	A-DC11	A-DC12	A-DC13	A-DC14	A-DC15	A-DC16	A-Ph1	A-Ph2	A-Ph3	A-Ph4	A-Ph5	A-Ph6	A-Ph7	A-Ph8	A-Ph9	A-Ph10	A-Ph11	A-Ph12	A-Ph13	A-Ph14	A-Ph15	A-Ph16	B-AC1	B-AC2	B-AC3	B-AC4	B-AC5	B-AC6	B-AC7	B-AC8	B-AC9	B-AC10	B-AC11	B-AC12	B-AC13	B-AC14	B-AC15	B-AC16	B-DC1	B-DC2	B-DC3	B-DC4	B-DC5	B-DC6	B-DC7	B-DC8	B-DC9	B-DC10	B-DC11	B-DC12	B-DC13	B-DC14	B-DC15	B-DC16	B-Ph1	B-Ph2	B-Ph3	B-Ph4	B-Ph5	B-Ph6	B-Ph7	B-Ph8	B-Ph9	B-Ph10	B-Ph11	B-Ph12	B-Ph13	B-Ph14	B-Ph15	B-Ph16	aux-1	digaux	

1529.371	1	1	0	256	0.22597	0.098849	0.09037	0.087189	0.08513	0.17447	0.14781	0.10454	0.155	0.020016	0.09099	0.071613	0.1446	0.05584	0.07073	0.072923	-2.775	-2.2854	-2.825	-3.1292	-2.3854	-3.2687	-2.75	-2.7313	-3.1083	-2.5458	-2.7083	-3.0396	-2.4167	-3.0021	-2.8	-2.4688	342.336	52.668	276.135	307.318	317.914	281.365	330.084	300.924	275.896	382.797	286.030	41.982	55.508	366.795	232.068	241.005	0.00020165	0.00087127	0.00025112	1198.3	8.0624e-06	8.8649e-06	1304.7	239.35	5.3298e-06	7.9661e-06	305.1	85.116	66.02	19.344	4.1489e-06	27.354	0.00073258	0.00086888	0.00022504	1197.1	8.2602e-06	9.5821e-06	1304	244.33	8.6027e-06	9.7484e-06	314.65	89.435	70.378	21.601	9.1279e-06	29.591	185.041	101.700	129.451	38.475	272.495	201.379	39.035	46.167	195.920	342.429	45.932	53.321	53.281	59.845	383.422	59.349	-8191	255	
1529.467	1	1	0	0	0.11856	0.1051	0.30518	0.2647	0.33818	0.2175	0.32676	0.17859	0.064614	0.039391	0.22539	0.17813	0.16733	0.1351	0.092936	0.19839	-2.7208	-2.35	-2.725	-3.2271	-2.4417	-2.9042	-3.0458	-2.6771	-2.9792	-2.6479	-2.7583	-3.2417	-2.5271	-3.0938	-2.7562	-2.4833	277.220	66.918	99.562	368.537	189.254	245.868	356.705	61.881	257.193	290.672	366.252	373.802	37.935	303.734	362.590	81.104	0.00017403	0.00097587	2.8551e-05	1209.1	7.5904e-06	1.9302e-06	1313	238.92	2.143e-06	6.5074e-06	305.34	84.536	66.982	19.484	5.0144e-07	27.195	0.0008035	0.00090147	0.00022455	1202.1	9.179e-06	9.7098e-06	1306.1	245.02	9.4037e-06	9.7994e-06	314.67	89.618	71.146	21.515	8.7925e-06	29.472	215.942	82.355	222.364	38.534	125.666	227.116	38.852	46.502	242.177	350.736	46.040	53.222	53.549	59.860	200.590	60.182	-8191	255	
1529.563	1	1	0	0	0.088517	0.084894	0.11709	0.29835	0.1524	0.095599	0.21455	0.11118	0.16577	0.084077	0.12251	0.20632	0.10032	0.19736	0.16807	0.13448	-2.7479	-2.5417	-2.5542	-3.3125	-2.2625	-2.8	-3.1667	-2.5708	-3.2042	-2.6458	-2.6604	-3.2896	-2.5208	-3.0354	-2.8667	-2.6083	161.582	269.971	260.337	86.659	172.597	343.712	321.397	294.281	220.294	342.351	357.100	89.378	345.741	335.751	192.816	347.092	0.00035499	0.00048502	7.4053e-05	1209.1	4.2892e-06	1.3618e-06	1309.6	239.19	8.0179e-06	4.1028e-06	304.45	84.967	66.247	19.419	4.7661e-06	27.269	0.00084001	0.00086238	0.00021477	1203.5	9.5261e-06	9.1367e-06	1304.2	244.83	9.6093e-06	9.0495e-06	312.76	89.548	71.007	21.376	8.3114e-06	29.51	189.309	60.766	104.640	38.567	249.548	334.840	38.756	46.130	194.484	125.753	45.983	53.429	53.689	60.255	242.845	59.068	-8191	255	
1529.659	1	1	0	0	0.22501	0.1527	0.10997	0.070449	0.2167	0.36707	0.35043	0.30244	0.084733	0.14313	0.06132	0.18662	0.20379	0.26908	0.29984	0.19223	-2.7583	-2.475	-2.4771	-3.3083	-2.4542	-2.7104	-3.2833	-2.3042	-3.025	-2.8417	-2.6396	-3.1188	-2.6146	-2.8396	-3.1562	-2.2708	179.731	92.727	71.926	300.371	79.792	361.392	373.781	289.909	134.170	237.475	202.764	317.605	98.599	53.511	122.180	288.006	0.00028376	0.00026744	3.8609e-05	1212.5	4.563e-06	4.0024e-06	1306.9	238.92	4.2531e-06	4.1318e-06	304.09	84.085	66.322	19.607	2.1134e-06	27.283	0.00082912	0.00078523	0.00019836	1203.9	9.1825e-06	8.1339e-06	1301.2	245.28	8.9303e-06	8.1284e-06	311.78	89.313	70.439	21.15	7.6016e-06	29.571	213.666	286.734	291.709	38.503	246.990	90.890	38.996	46.586	150.629	61.146	45.856	53.383	53.570	60.396	137.367	59.267	-8191	255	
1529.780	1	1	0	0	0.26589	0.086861	0.44253	0.28896	0.33275	0.18699	0.12241	0.16948	0.12286	0.27123	0.34907	0.24736	0.19517	0.13793	0.26234	0.25086	-2.6896	-2.8042	-2.2896	-3.3	-2.5583	-2.6917	-3.425	-2.3479	-2.9188	-2.6104	-2.4562	-3.1333	-2.6083	-2.8396	-3.0042	-2.3875	28.780	336.748	326.165	324.107	375.757	236.165	253.122	332.687	371.290	345.496	365.788	42.824	115.522	85.295	341.536	247.423	0.00015037	0.00045263	7.0377e-05	1207.2	4.768e-06	2.591e-06	1309.7	239.09	4.2388e-06	6.2816e-06	305.43	85.133	66.512	19.47	3.6047e-06	27.196	0.00075416	0.00072552	0.00018752	1202.9	8.5173e-06	7.6334e-06	1297.6	245.29	8.4871e-06	7.946e-06	311.45	90.075	70.503	21.137	7.8349e-06	29.831	194.103	225.091	92.798	38.562	180.555	89.456	39.034	46.656	162.159	181.788	46.052	53.664	53.590	60.621	170.107	60.229	-8191	255	
1529.852	1	1	0	0	0.069796	0.14539	0.21101	0.29412	0.21255	0.054019	0.24385	0.11194	0.17314	0.10129	0.23258	0.14223	0.12003	0.37508	0.24144	0.14368	-2.5083	-2.8896	-2.3771	-3.3375	-2.65	-2.3542	-3.2417	-2.4104	-2.9188	-2.8521	-2.4125	-3.1208	-2.7875	-2.5375	-3.2958	-2.5208	375.795	297.492	141.316	336.095	82.828	169.556	354.597	80.419	254.576	85.803	262.979	294.003	262.231	129.080	190.438	338.146	8.1832e-05	0.00043279	0.00017029	1208.2	2.8414e-06	4.2037e-06	1312.3	240.16	3.04e-06	5.33e-06	306.62	84.799	66.41	19.323	5.6881e-06	27.358	0.00074497	0.0007178	0.00019625	1204.6	8.3922e-06	7.4953e-06	1300.5	246.78	8.1503e-06	7.8586e-06	312.92	90.169	70.236	21.066	8.4821e-06	29.921	221.132	143.902	122.319	38.508	386.193	106.929	38.871	46.682	84.088	211.362	45.969	53.774	53.752	60.045	219.941	59.885	-8191	255	
1529.948	1	1	0	0	0.047329	0.25486	0.072144	0.44557	0.067179	0.23449	0.074027	0.095762	0.081592	0.20191	0.063969	0.24803	0.17796	0.1614	0.12216	0.16089	-2.3854	-2.8563	-2.2479	-2.9375	-2.675	-2.5771	-3.2667	-2.7521	-2.5438	-3.1667	-2.5104	-3.0563	-2.8708	-2.5333	-3.025	-2.6646	314.938	79.939	110.984	340.020	95.549	225.237	317.702	311.123	36.588	143.762	265.502	106.583	359.908	193.450	316.810	323.108	0.00017175	0.00073808	0.00015711	1197.2	7.5725e-06	2.6823e-06	1310.3	240.03	3.4444e-06	1.2642e-06	305.39	85.151	66.679	19.448	4.6062e-06	27.154	0.00072508	0.00073068	0.0002183	1204.8	8.5028e-06	7.7878e-06	1306.7	247.57	8.4062e-06	8.2002e-06	316.54	90.849	70.759	21.262	9.7685e-06	30.303	196.943	52.949	123.699	36.542	237.272	328.137	37.440	45.012	293.188	69.868	44.505	51.908	52.303	58.627	293.762	58.313	-8191	255	
1530.068	1	1	0	0	0.20339	0.08139	0.16154	0.18242	0.15369	0.13784	0.20462	0.25889	0.14855	0.1911	0.070315	0.28822	0.27777	0.32819	0.30326	0.096722	-2.2	-2.8958	-2.2667	-3.1208	-2.9229	-2.4688	-3.2188	-2.5563	-2.5625	-3.1854	-2.5563	-2.95	-2.9688	-2.2438	-3.1021	-2.6708	110.798	152.189	106.596	379.769	306.818	128.400	37.474	281.987	328.489	258.956	383.268	342.133	354.219	386.899	157.767	373.519	0.00016054	0.0004318	9.0401e-05	1207.1	5.9028e-06	1.1247e-05	1316.2	239.52	7.0368e-06	7.3275e-06	306.35	84.876	66.822	19.719	7.9415e-07	27.498	0.00077644	0.00079817	0.00025682	1215	9.1485e-06	8.716e-06	1318.5	249.29	8.8072e-06	9.0061e-06	320.67	91.323	71.264	21.593	1.0425e-05	30.33	218.295	101.169	315.364	37.288	193.652	252.003	37.823	45.280	204.011	125.988	45.086	51.631	52.195	59.101	322.124	58.345	-8191	255	
1530.165	1	1	0	0	0.10251	0.31405	0.14483	0.12046	0.090629	0.23982	0.13674	0.26636	0.14798	0.19421	0.12245	0.28829	0.11524	0.091339	0.15638	0.070792	-2.125	-3.1937	-2.3229	-2.8479	-3.0312	-2.4313	-3.1063	-2.8542	-2.5187	-3.1271	-2.4542	-2.7354	-2.9542	-2.3375	-3.0021	-2.8417	36.310	380.753	38.742	383.844	268.239	239.811	284.373	324.201	65.278	183.313	60.204	303.444	310.178	355.277	191.456	114.227	0.00023252	0.00041727	0.00018343	1214.1	4.6204e-06	6.7043e-06	1315.2	240.35	6.6651e-06	4.4542e-06	307.65	85.478	66.96	19.602	3.8928e-06	27.408	0.0007825	0.00084787	0.00026686	1216.7	8.9709e-06	9.2705e-06	1320.5	249.42	8.6548e-06	9.5953e-06	321.09	90.978	71.217	21.751	1.0204e-05	30.172	221.999	117.233	65.947	37.577	273.489	254.441	37.668	45.305	129.479	155.630	44.655	52.347	52.106	59.297	294.860	58.532	-8191	255	
1530.261	1	1	0	0	0.11629	0.21538	0.22388	0.13243	0.30557	0.11339	0.11961	0.20396	0.047924	0.13825	0.13188	0.16843	0.1463	0.090501	0.2067	0.13696	-2.0083	-3.0729	-2.4729	-2.8104	-2.9229	-2.3563	-3.1792	-2.7625	-2.575	-3.1125	-2.7792	-2.4583	-2.9417	-2.2104	-2.925	-2.8833	375.560	177.696	37.300	360.519	136.360	222.875	37.589	273.696	37.382	135.070	303.738	368.188	381.584	94.636	359.205	191.321	0.00015269	0.00046564	0.00013015	1210.8	6.2833e-06	8.5776e-06	1320.1	240.58	8.3678e-06	1.2007e-05	306.64	85.571	67.101	19.552	6.0439e-06	27.596	0.00075859	0.00090358	0.0002645	1212.7	8.936e-06	1.0181e-05	1323.1	249.8	8.9615e-06	1.0461e-05	321.94	91.129	71.56	22.093	1.0211e-05	30.336	209.318	212.709	133.625	37.361	198.780	173.820	37.783	45.012	182.497	300.048	44.568	52.600	52.480	59.411	246.964	58.580	-8191	255	
1530.357	1	1	0	0	0.10154	0.096578	0.23526	0.12384	0.26728	0.12558	0.43352	0.17377	0.1423	0.32719	0.14232	0.036916	0.25029	0.13127	0.19982	0.1958	-2.0687	-2.9313	-2.5708	-2.7042	-3.0292	-2.5146	-3.0021	-3.1583	-2.3792	-2.9417	-2.8667	-2.6583	-2.9708	-2.4208	-2.6083	-2.8208	272.318	305.789	358.895	338.955	63.283	345.386	330.328	347.413	312.508	153.605	39.074	317.606	372.999	340.240	356.905	88.876	0.00029726	0.00048134	0.00024464	1215	7.6728e-06	5.1972e-06	1325.4	243.68	4.0554e-06	1.8284e-06	310.42	85.185	66.895	19.812	8.3851e-07	27.304	0.00080928	0.00098722	0.00026174	1216.8	9.4845e-06	1.0837e-05	1325.7	251.44	9.4933e-06	1.0957e-05	323.07	91.03	72.236	22.297	9.969e-06	30.282	223.436	101.828	69.813	37.646	253.489	223.902	37.639	45.458	250.411	242.846	44.991	52.413	52.769	59.493	222.880	58.931	-8191	255	
1530.476	1	1	0	0	0.079126	0.087926	0.11717	0.3397	0.18726	0.17104	0.32143	0.19641	0.045091	0.11665	0.21104	0.29306	0.23618	0.14317	0.07886	0.18686	-1.8125	-2.8396	-2.7167	-2.6729	-3.1167	-2.45	-2.8958	-2.95	-2.525	-3.0062	-2.7125	-2.3875	-3.0229	-2.5333	-2.6688	-3.1604	329.228	324.889	185.747	361.147	92.956	240.101	374.466	376.458	291.720	232.880	167.558	302.362	34.704	211.427	316.041	47.858	0.00025446	0.0006188	0.00026704	1220.2	4.6575e-06	3.5891e-06	1326.1	244.2	9.2234e-06	4.7037e-06	310.36	85.897	67.284	19.801	1.4321e-06	27.399	0.00088529	0.0010125	0.0002572	1219.5	1.0256e-05	1.1015e-05	1326.7	252.18	1.0435e-05	1.0879e-05	322.6	91.33	72.693	22.269	9.6466e-06	30.311	205.256	31.386	77.209	37.618	164.574	65.059	38.050	45.509	249.479	80.080	45.108	52.482	52.469	59.048	127.030	58.978	-8191	255	
1530.547	1	1	0	0	0.10199	0.19402	0.030679	0.20672	0.056286	0.091757	0.29548	0.13627	0.090386	0.13911	0.075142	0.2501	0.23532	0.1743	0.19456	0.10601	-1.9708	-2.7438	-2.7313	-2.5083	-2.9562	-2.5729	-2.8542	-3.1437	-2.3583	-2.8312	-3.0042	-2.2396	-3.0083	-2.6521	-2.4667	-3.1271	299.568	95.645	195.480	308.829	139.746	106.756	374.739	354.813	116.367	378.145	121.319	31.010	360.699	302.208	91.583	307.200	0.00028925	0.00059941	7.3492e-05	1224.6	6.5725e-06	2.7535e-06	1322.2	245.57	3.8614e-06	1.1388e-06	310.39	85.95	67.333	19.871	1.5637e-06	27.773	0.00094275	0.00096477	0.00025422	1222.9	1.0876e-05	1.0689e-05	1323	253.29	1.082e-05	1.0062e-05	322.71	91.536	72.733	21.935	8.7385e-06	30.188	204.677	260.228	355.508	37.753	247.499	67.953	37.709	45.396	204.241	107.847	45.023	52.402	53.157	59.574	140.287	59.089	-8191	255	
1530.668	1	1	0	0	0.24576	0.085631	0.30914	0.16717	0.31407	0.10672	0.2742	0.13223	0.13725	0.16021	0.27368	0.28061	0.3938	0.070206	0.10181	0.18453	-1.9312	-2.7583	-2.8	-2.4938	-2.9396	-2.8125	-2.7896	-3.2875	-2.3812	-2.6979	-3.0521	-2.4958	-2.9271	-2.6854	-2.3812	-3.1208	79.257	226.256	271.321	43.416	267.888	247.341	317.837	377.456	93.818	41.567	365.574	53.633	364.153	332.121	190.439	86.149	0.00021956	0.00065697	8.7288e-05	1217.3	5.4902e-06	1.5095e-06	1322.3	245.93	5.2798e-06	3.8241e-06	312.55	85.46	67.293	19.715	7.3105e-06	27.58	0.00089957	0.00083762	0.00022249	1218.1	1.0008e-05	9.116e-06	1316.8	252.58	1.0046e-05	8.9477e-06	319.96	91.292	72.417	21.759	8.4617e-06	30.456	194.650	37.619	151.228	37.685	195.362	321.264	37.875	45.666	295.450	88.562	45.168	52.252	52.863	59.390	224.329	59.291	-8191	255	
1530.764	1	1	0	0	0.16421	0.19661	0.15922	0.099984	0.15874	0.028319	0.22139	0.19347	0.16779	0.14017	0.13641	0.19946	0.33507	0.37304	0.24523	0.18257	-2.0417	-2.7083	-3.0125	-2.6333	-2.9188	-2.9104	-2.5958	-3.2812	-2.5604	-2.5062	-3.0563	-2.4854	-2.9417	-2.8937	-2.375	-3.1458	348.993	329.957	164.329	357.302	331.768	186.935	367.263	359.075	309.086	91.922	344.489	259.873	278.759	52.695	278.186	56.552	0.00019803	0.00064509	4.4483e-05	1219.8	6.1828e-06	4.5916e-06	1328.8	245.9	7.4283e-07	4.2841e-06	310.73	86.108	67.493	19.691	8.3802e-06	27.511	0.00089115	0.00081979	0.00022378	1223.6	9.958e-06	9.2607e-06	1320.4	254.4	1.0017e-05	9.1003e-06	321.33	92.451	72.563	21.8	8.8774e-06	30.787	202.871	110.682	204.291	38.096	316.880	259.012	38.165	45.784	264.923	352.668	45.127	52.665	52.439	59.753	187.956	59.173	-8191	255	
1530.860	1	1	0	0	0.14108	0.27691	0.19427	0.36324	0.1176	0.23209	0.2055	0.14038	0.11828	0.048181	0.07124	0.18464	0.21186	0.22187	0.31118	0.091453	-2.0062	-2.3917	-2.9229	-2.5187	-2.7979	-3.0312	-2.6208	-2.9979	-2.6708	-2.7062	-3.2792	-2.6604	-2.9146	-3	-2.2833	-2.9958	356.561	218.705	336.196	379.875	312.439	240.669	339.954	366.818	175.572	232.770	259.618	352.725	355.455	38.817	263.285	54.032	0.00017882	0.00046458	0.00023601	1219.7	2.0205e-07	3.8757e-06	1323.6	245.72	2.2801e-06	3.5258e-06	310.94	86.049	67.475	19.648	7.6072e-06	27.542	0.00087929	0.00081895	0.00023154	1225.3	9.6191e-06	9.0577e-06	1319.3	255.37	9.519e-06	8.5496e-06	322.27	92.488	71.91	21.655	9.1974e-06	30.637	216.757	73.544	98.469	37.903	96.345	89.170	38.178	45.683	77.299	363.589	45.643	53.183	52.577	60.179	205.449	59.654	-8191	255	
1530.956	1	1	0	0	0.23742	0.090903	0.061268	0.13632	0.16924	0.25864	0.081584	0.10321	0.13635	0.043934	0.15907	0.032892	0.11268	0.073484	0.33015	0.11336	-2.3312	-2.5542	-3.0542	-2.6688	-2.7542	-3.2104	-2.5438	-3.0667	-2.7188	-2.6458	-3.2812	-2.5958	-2.6771	-2.9	-2.5396	-3.1042	150.907	189.098	189.927	338.490	33.977	83.789	322.810	108.224	226.724	43.234	320.120	345.759	325.331	213.447	139.261	88.264	0.00017213	0.00014326	0.00025844	1216.1	8.2482e-07	4.9532e-06	1327.4	246.43	2.6706e-06	9.3842e-06	312.16	85.819	67.639	19.655	5.2338e-06	27.519	0.0008289	0.00077318	0.0002396	1223.7	8.9314e-06	8.6962e-06	1323.6	254.85	9.129e-06	8.4344e-06	323.62	92.276	71.761	21.561	9.8237e-06	30.418	203.354	94.552	177.514	38.347	219.595	280.311	38.555	45.968	329.695	177.158	45.520	53.029	52.975	60.077	234.503	59.018	-8191	255	
1531.077	1	1	0	0	0.052604	0.11255	0.20272	0.32869	0.25262	0.10265	0.28382	0.091942	0.18243	0.13853	0.15606	0.13315	0.16531	0.37136	0.07635	0.0087564	-2.5979	-2.5417	-3.1979	-2.8333	-2.6042	-3.1458	-2.5938	-2.9479	-2.8917	-2.3812	-3.1708	-2.7938	-2.4313	-3.1063	-2.8396	-2.9458	361.432	383.988	236.435	339.534	46.101	91.854	313.904	275.811	72.724	150.794	339.314	379.478	75.750	214.005	210.222	39.323	0.00018957	0.00074495	7.2503e-05	1219.1	1.9388e-06	3.6008e-06	1330.7	246.45	2.1503e-06	8.6564e-06	312.35	85.86	67.702	19.738	8.5346e-06	27.846	0.00079561	0.00077887	0.00025516	1223.7	9.0065e-06	9.0694e-06	1330	255.08	9.5528e-06	9.2573e-06	327.78	92.753	72.277	21.954	1.1199e-05	30.715	206.706	95.561	186.871	38.292	319.407	253.838	38.737	46.093	77.059	329.792	46.025	53.136	53.361	60.024	244.290	59.693	-8191	255	
1531.149	1	1	0	0	0.28525	0.067234	0.25275	0.24483	0.29336	0.12323	0.34414	0.25059	0.020428	0.12696	0.10834	0.16447	0.47261	0.15531	0.074638	0.17607	-2.7417	-2.3604	-3.1	-3.0292	-2.5	-3.2062	-2.7021	-2.7938	-3.2771	-2.6604	-3.1375	-3.0458	-2.4938	-3.15	-2.6125	-2.8187	181.882	382.082	265.314	46.075	243.446	55.272	336.357	294.008	55.984	143.443	365.847	47.568	320.529	52.590	166.237	380.002	0.00016223	0.00081662	0.00010004	1222	6.1617e-06	1.1038e-05	1328.8	247.15	4.7054e-06	7.4694e-06	314.73	86.253	67.584	19.666	4.0963e-07	27.672	0.00084432	0.00087057	0.0002753	1225.9	8.9095e-06	9.5113e-06	1331.3	254.48	8.9043e-06	9.2869e-06	325.6	91.809	71.493	21.875	1.0215e-05	30.228	177.821	94.278	295.893	38.675	117.336	237.219	38.654	46.298	52.286	196.238	46.044	53.321	53.615	60.070	175.406	59.830	-8191	255	
1531.245	1	1	0	0	0.11553	0.06565	0.066542	0.24199	0.073701	0.20079	0.20303	0.080941	0.29837	0.13523	0.17111	0.050253	0.19286	0.36978	0.26435	0.1989	-2.7313	-2.3146	-2.9729	-3.0458	-2.4021	-3.1688	-2.8479	-2.8396	-3.2083	-2.4479	-3.0229	-2.9771	-2.6417	-3.0312	-2.4896	-2.6146	70.062	124.177	384.510	319.084	309.581	63.723	362.726	382.439	218.134	101.949	384.155	294.277	382.406	29.196	80.487	374.806	0.00019374	0.00043542	0.00026125	1224.2	2.5195e-06	3.2262e-06	1332.4	247.53	2.2816e-06	5.8592e-06	311.02	86.506	67.766	19.654	1.6114e-06	27.645	0.00076403	0.00087015	0.00025219	1221.8	8.3165e-06	9.6558e-06	1327.3	253.3	8.5056e-06	9.5363e-06	322.76	91.38	71.296	21.946	9.7005e-06	30.039	180.420	190.136	315.114	38.899	122.780	80.061	38.930	46.765	98.982	169.879	45.861	53.127	53.731	59.910	89.877	59.359	-8191	255	
1531.341	1	1	0	0	0.36647	0.2156	0.19959	0.27976	0.085122	0.031204	0.14793	0.13256	0.27657	0.26224	0.16865	0.28944	0.10109	0.27821	0.30134	0.44354	-2.7583	-2.3479	-3.0187	-2.9958	-2.4688	-3.0979	-2.9688	-2.5833	-3.0729	-2.5708	-2.9146	-2.9583	-2.6333	-3.0979	-2.7854	-2.5104	177.466	66.057	47.659	332.342	367.210	344.134	266.499	206.093	51.400	337.257	162.983	327.887	152.957	364.760	154.687	354.576	0.00027576	6.8529e-05	9.705e-05	1222.7	6.0471e-06	5.9935e-06	1329.4	245.46	9.6906e-06	6.1164e-06	311.6	86.077	67.328	19.779	3.7592e-06	27.646	0.00077738	0.00092867	0.00024477	1222.2	8.9933e-06	1.0589e-05	1330	253.89	9.6418e-06	1.094e-05	324.25	91.923	72.346	22.309	9.954e-06	30.155	207.418	155.024	182.660	38.440	172.472	243.590	39.081	46.242	246.831	196.809	45.890	53.672	53.575	60.283	385.758	60.019	-8191	255	
1531.460	1	1	0	0	0.18827	0.068376	0.11775	0.13981	0.29135	0.13233	0.16466	0.16686	0.10763	0.25372	0.22765	0.098569	0.14677	0.080496	0.14371	0.29752	-2.8604	-2.4792	-2.825	-3.1396	-2.4521	-3.1	-2.8063	-2.5667	-3.0896	-2.575	-2.6875	-2.9792	-2.3958	-2.9313	-2.7188	-2.5396	117.669	221.285	153.586	317.488	192.546	339.672	327.343	344.028	258.952	318.273	74.293	51.019	287.444	214.424	53.252	28.921	0.00028353	0.00030242	0.00012432	1225.6	2.2482e-06	4.6358e-06	1329.9	246.19	4.0124e-06	3.1402e-06	311.67	86.549	67.606	19.761	1.0766e-06	27.632	0.00086021	0.00098235	0.00024184	1223.5	9.7918e-06	1.0715e-05	1326.8	253.74	1.0194e-05	1.088e-05	323.61	91.943	72.787	22.293	9.9955e-06	30.326	190.830	268.300	161.704	38.872	272.316	338.909	39.146	46.615	249.762	106.021	45.731	53.532	53.577	60.259	176.753	60.030	-8191	255	
1531.556	1	1	0	0	0.060585	0.12174	0.10176	0.1294	0.17446	0.08746	0.16611	0.19787	0.025835	0.14696	0.19006	0.21497	0.23723	0.13748	0.24054	0.2321	-2.6646	-2.5083	-2.5917	-3.0979	-2.2979	-2.75	-3.1	-2.5125	-3.1208	-2.425	-2.6396	-3.15	-2.2667	-2.8333	-2.9646	-2.3667	81.362	361.485	124.608	310.669	375.956	314.049	339.278	309.378	209.813	121.138	244.521	36.923	213.043	320.160	198.961	387.269	0.00028231	0.00099566	0.00015361	1227.1	9.2366e-06	5.2109e-06	1329.6	247.57	5.9279e-06	3.9865e-06	312.21	86.387	67.357	19.845	3.7368e-06	27.377	0.00095618	0.0009916	0.00024626	1226	1.0866e-05	1.0472e-05	1329	254.61	1.0927e-05	1.0419e-05	323.18	91.849	73.15	22.059	9.605e-06	30.302	203.896	40.208	145.368	39.073	228.287	182.332	38.218	45.616	245.448	197.671	45.202	52.989	53.187	59.591	218.920	59.253	-8191	255	
1531.652	1	1	0	0	0.11261	0.2119	0.17923	0.28512	0.07303	0.23866	0.20469	0.21573	0.15371	0.12343	0.35986	0.20735	0.017198	0.28552	0.24024	0.052549	-2.5812	-2.5667	-2.3375	-3.2083	-2.35	-2.6167	-3.0604	-2.5312	-3.2	-2.6562	-2.6958	-3.2271	-2.7042	-2.5792	-3.0479	-2.3771	32.601	42.122	224.794	295.183	359.090	222.095	329.739	319.023	89.802	212.378	343.708	330.140	163.913	320.675	221.987	279.243	0.00025525	0.00049637	0.00022149	1218.8	4.8728e-06	7.1732e-06	1333.9	246.79	2.0426e-06	2.0031e-06	310.72	86.089	67.306	19.756	4.3357e-06	27.629	0.00095473	0.00091571	0.00023173	1223.5	1.1025e-05	9.9575e-06	1327.7	255.54	1.1035e-05	1.0122e-05	322.69	92.65	73.345	21.984	9.6825e-06	30.832	202.834	368.140	109.586	37.994	208.590	165.144	38.576	45.852	244.202	144.521	45.169	52.743	52.830	59.812	207.029	59.647	-8191	255	
1531.748	1	1	0	0	0.14174	0.0592	0.15233	0.25469	0.12502	0.12355	0.22005	0.10086	0.063857	0.21404	0.10707	0.28627	0.083483	0.1631	0.052609	0.064797	-2.7687	-2.7167	-2.3875	-3.2708	-2.6688	-2.7417	-3.3479	-2.4437	-3.075	-2.9646	-2.4854	-3.1167	-2.4437	-2.5938	-3.15	-2.5667	237.302	41.619	35.943	364.299	256.794	63.912	367.366	346.203	250.443	76.375	156.402	44.270	215.622	245.824	370.489	313.018	0.00011085	0.00026988	0.00022098	1227	7.1849e-06	2.8528e-06	1328.2	248.67	4.8264e-06	1.4892e-06	312.52	86.782	67.953	19.726	4.954e-06	27.668	0.0009861	0.00093888	0.00024195	1232.9	1.1328e-05	1.0058e-05	1327.7	257.86	1.1073e-05	1.0228e-05	323.49	93.389	73.237	21.953	9.5817e-06	30.961	160.834	149.926	111.043	38.449	195.636	346.312	38.711	46.488	344.863	350.817	45.984	53.338	53.600	60.335	269.073	60.000	-8191	255	
1531.845	1	1	0	0	0.29756	0.093791	0.34547	0.17278	0.28483	0.02752	0.29775	0.056677	0.25945	0.18302	0.12679	0.066576	0.26241	0.20898	0.18372	0.20402	-2.7188	-2.9208	-2.2875	-3.2313	-2.6875	-2.7812	-3.2729	-2.5938	-2.9042	-2.8979	-2.5875	-3.0083	-2.7708	-2.6083	-3.0396	-2.3667	218.057	319.402	78.567	377.222	116.472	118.766	361.875	296.892	290.505	144.106	331.926	46.483	375.164	34.004	47.164	328.853	0.00024398	0.00059473	0.00029066	1227.3	4.0901e-06	1.1735e-06	1331.4	246.89	4.6624e-06	1.7607e-06	310.39	86.103	67.602	19.857	6.9188e-06	27.571	0.00090944	0.00087801	0.00023411	1232.7	1.0163e-05	9.1416e-06	1328.1	257.33	1.007e-05	9.6998e-06	323.74	93.447	73.015	21.987	1.0565e-05	31.355	211.717	194.758	136.039	38.906	305.824	373.133	39.172	46.673	69.252	303.547	45.940	53.131	53.536	60.152	217.671	60.178	-8191	255	
1531.941	1	1	0	0	0.20314	0.25296	0.10219	0.19364	0.13088	0.18925	0.029413	0.2567	0.12171	0.19791	0.23379	0.049995	0.1845	0.06211	0.20535	0.22634	-2.1667	-3.1562	-2.375	-3.0167	-2.6125	-2.6229	-3.2583	-2.5604	-2.6229	-2.9333	-2.4562	-3.0104	-2.7396	-2.325	-3.1792	-2.6375	216.948	342.479	124.477	365.424	72.720	274.930	181.964	366.442	188.883	360.914	376.034	113.472	379.795	356.671	292.965	377.180	0.00012417	0.00043532	0.00016841	1224.3	4.007e-06	1.2166e-05	1332.5	249.03	4.8454e-06	1.9135e-06	311.99	86.196	68.023	19.625	9.0789e-06	27.619	0.00092527	0.00093486	0.00027722	1239.2	1.1056e-05	1.032e-05	1342	261.45	1.1365e-05	1.1222e-05	331.54	95.585	74.465	22.368	1.3192e-05	32.083	208.484	127.034	126.637	39.106	184.262	202.030	39.346	46.625	298.239	30.846	46.107	53.367	53.350	60.293	202.271	59.355	-8191	255	
1532.037	1	1	0	0	0.1387	0.24242	0.21676	0.11474	0.016568	0.087474	0.18291	0.076086	0.30202	0.10222	0.10747	0.087234	0.14773	0.2657	0.21502	0.047813	-2.2979	-2.9562	-2.4813	-3.2313	-2.85	-2.45	-3.3312	-2.5375	-2.6021	-3.1479	-2.4396	-3.1458	-3.1042	-2.5938	-3.1396	-2.6208	138.757	354.630	361.030	300.461	198.022	252.745	347.781	254.618	186.644	108.037	38.477	162.930	169.511	50.814	274.815	280.718	0.00028163	0.00049845	0.00033412	1228.6	3.8472e-06	6.6652e-06	1333.2	248.49	3.8668e-06	1.0901e-05	313.35	86.876	67.93	19.927	3.6352e-06	27.633	0.0010636	0.0010928	0.00034663	1249	1.233e-05	1.1612e-05	1354.2	262.57	1.197e-05	1.2026e-05	335.92	95.389	74.458	22.621	1.3611e-05	31.667	205.748	191.563	115.236	38.157	98.138	143.714	38.497	45.520	69.797	199.854	45.284	52.187	52.943	59.693	336.463	59.066	-8191	255	
1532.157	1	1	0	0	0.053849	0.083861	0.086775	0.23615	0.20194	0.10778	0.15952	0.13341	0.32733	0.096907	0.26717	0.12482	0.12767	0.050477	0.17594	0.19442	-2.1375	-3.0396	-2.5042	-2.9479	-2.8979	-2.3063	-3.2479	-2.9146	-2.6167	-3.1646	-2.5563	-2.7292	-2.9125	-2.4479	-3.025	-2.7812	76.192	197.028	40.779	326.284	74.091	338.861	318.844	376.085	252.984	111.604	310.366	30.456	381.363	315.468	275.896	346.612	0.00018158	0.00044108	0.00013783	1232.8	3.4957e-06	1.3836e-06	1334.2	247.1	3.1775e-06	1.2662e-05	314.28	86.407	67.956	19.791	4.8916e-06	27.488	0.00098292	0.0010629	0.00033262	1242.2	1.0917e-05	1.0905e-05	1347.6	258.17	9.8789e-06	1.0751e-05	330.95	92.758	72.673	22.211	1.1391e-05	30.8	226.218	141.831	153.882	38.192	50.400	173.265	38.153	45.766	72.750	178.258	45.503	52.468	53.184	60.186	76.258	59.273	-8191	255	
1532.254	1	1	0	0	0.078893	0.26627	0.11315	0.15343	0.38656	0.23088	0.20729	0.13578	0.1682	0.19174	0.16911	0.12566	0.11804	0.10188	0.28136	0.02939	-1.9937	-3.0771	-2.4229	-2.8229	-2.7542	-2.3833	-3.3187	-2.8917	-2.2917	-3.3354	-2.7083	-2.5229	-2.975	-2.4625	-2.8	-2.6937	184.866	327.805	287.660	370.750	82.942	292.734	331.219	363.391	114.807	117.031	368.063	313.737	55.537	348.805	167.888	317.367	0.00022643	0.00052976	0.00019112	1229.9	3.6544e-06	1.1456e-05	1333	248.18	6.3399e-06	1.0581e-05	313.63	86.451	67.914	19.644	5.1806e-06	27.526	0.00082829	0.00098605	0.00029243	1233.1	9.8217e-06	1.1033e-05	1339.7	257.57	9.8088e-06	1.1631e-05	330.86	93.088	72.98	22.636	1.166e-05	31.027	209.090	148.719	57.369	38.208	187.681	227.702	38.554	45.937	148.443	175.656	45.665	52.682	53.197	60.203	105.016	59.572	-8191	255	
1532.350	1	1	0	0	0.12486	0.25351	0.18055	0.25763	0.12335	0.14348	0.35353	0.13262	0.14802	0.11559	0.10305	0.097981	0.061784	0.17236	0.19103	0.1205	-2.0875	-3.1271	-2.6958	-2.6583	-3.0021	-2.425	-3.075	-2.9958	-2.3854	-3.1292	-2.7188	-2.4083	-3.0125	-2.4854	-2.825	-3.0042	340.932	305.933	61.800	325.241	81.190	92.246	345.554	101.572	258.088	127.809	174.584	245.835	358.207	310.394	293.119	371.685	0.00022802	0.0002217	0.00041501	1227.9	1.2318e-05	7.3493e-06	1333.1	248.23	8.5625e-06	1.1037e-05	312.99	86.69	68.059	19.827	8.7899e-06	27.778	0.00091557	0.0011245	0.000309	1236.5	1.0942e-05	1.2666e-05	1343.4	258.62	1.0912e-05	1.2664e-05	330.49	93.179	73.62	22.913	1.1237e-05	30.996	213.620	159.777	302.215	38.323	237.425	217.099	38.524	46.385	262.401	199.561	45.680	53.266	53.551	60.127	93.935	59.797	-8191	255	
1532.444	1	1	0	0	0.1082	0.13691	0.25948	0.15156	0.2059	0.18252	0.25305	0.30537	0.19708	0.0035066	0.044472	0.045354	0.087999	0.045293	0.12904	0.33442	-1.8625	-2.9875	-2.6375	-2.725	-3.1854	-2.5604	-2.9437	-3.0062	-2.4771	-3.0625	-3.1312	-2.5187	-3.1667	-2.5312	-2.6458	-2.9833	268.638	80.200	181.436	367.681	123.643	327.618	371.170	354.834	332.400	324.430	271.166	202.203	51.644	61.119	336.632	57.462	0.00032175	0.00028672	4.3762e-05	1228.7	9.8082e-06	2.3075e-06	1330.5	248.86	6.2116e-06	5.3414e-06	313.6	86.423	67.679	19.809	6.8781e-06	27.782	0.00096031	0.0011046	0.00028316	1233.9	1.1012e-05	1.1938e-05	1335.8	257.05	1.0902e-05	1.1629e-05	327.34	92.371	73.598	22.538	1.0361e-05	30.704	198.861	322.822	337.467	38.836	238.172	330.842	39.201	46.829	225.277	331.903	45.554	52.930	53.426	60.151	199.340	59.322	-8191	255	
1532.540	1	1	0	0	0.26952	0.20755	0.15592	0.20689	0.27823	0.10147	0.063894	0.21857	0.069071	0.20506	0.059825	0.12225	0.27098	0.030589	0.11368	0.32946	-2.0479	-2.9521	-2.9042	-2.5187	-3.2646	-2.5146	-2.7396	-3.1437	-2.3312	-3.0479	-3.0083	-2.5583	-3.1917	-2.7792	-2.6312	-3.2604	123.329	199.656	174.504	35.264	174.776	188.872	88.007	317.192	92.183	240.787	318.896	363.400	42.759	74.604	326.859	372.507	0.00031431	0.00066645	5.0425e-05	1231.2	8.2662e-06	5.5763e-06	1333.8	248.38	6.052e-06	1.8701e-06	312.17	86.273	68.013	19.792	2.7216e-06	27.559	0.00099248	0.0010432	0.00026573	1231.4	1.1445e-05	1.1408e-05	1335.4	257.58	1.1643e-05	1.1151e-05	326.55	92.418	74.308	22.467	1.0162e-05	30.835	213.869	49.128	70.232	38.092	230.706	119.922	38.318	46.086	206.275	129.120	45.385	53.085	52.826	59.406	31.756	59.629	-8191	255	
1532.636	1	1	0	0	0.11648	0.25712	0.11566	0.18874	0.3134	0.12281	0.21109	0.21657	0.057926	0.20138	0.28238	0.13176	0.097869	0.13396	0.25669	0.13758	-2.0812	-2.8146	-2.8458	-2.7188	-3.1542	-2.5729	-2.6271	-3.1646	-2.6354	-2.8771	-3.175	-2.5312	-2.9562	-2.7917	-2.5354	-3.2062	153.397	55.276	219.027	369.205	347.140	370.259	359.954	262.300	118.364	41.303	290.858	352.387	285.319	307.763	329.940	42.963	0.00032441	0.00050023	9.7209e-05	1226.8	2.7433e-06	2.2837e-06	1332.9	248.98	6.3238e-07	2.5593e-06	312.51	86.48	68.002	19.839	8.7551e-06	27.627	0.0010597	0.0010061	0.0002686	1234.1	1.1934e-05	1.1095e-05	1335.9	257.99	1.1972e-05	1.0631e-05	326.79	93.342	74.177	22.294	9.7856e-06	31.035	207.676	218.433	137.830	38.037	151.666	30.148	38.188	45.792	229.946	375.483	45.895	53.058	53.136	59.489	175.998	59.455	-8191	255	
1532.733	1	1	0	0	0.091831	0.04959	0.2636	0.18817	0.14843	0.057521	0.1782	0.22206	0.084643	0.24046	0.086887	0.15991	0.063344	0.044097	0.11748	0.20284	-2.1021	-2.6562	-2.8604	-2.6792	-2.9688	-2.7417	-2.6958	-3.2396	-2.5979	-2.6583	-3.0792	-2.2438	-2.8458	-3.0354	-2.4375	-2.9958	230.481	300.650	339.901	322.783	82.089	152.524	339.038	361.863	106.903	160.843	133.980	91.658	63.918	66.659	146.215	313.571	9.7748e-05	0.00084606	0.00033879	1224.7	6.6366e-06	6.8236e-06	1333.6	248.65	5.8963e-06	5.3711e-06	313.34	86.332	68.151	19.961	4.2111e-06	27.434	0.0010234	0.00093945	0.00025342	1237.9	1.1412e-05	1.0391e-05	1333.3	259.24	1.1368e-05	9.982e-06	326.02	93.524	73.649	22.149	9.6004e-06	31.099	167.994	67.310	103.265	38.256	217.327	100.030	38.369	46.103	168.298	73.994	45.694	52.926	53.393	59.728	315.162	59.047	-8191	255	
1532.853	1	1	0	0	0.20081	0.10072	0.13971	0.38893	0.17078	0.077234	0.19982	0.17817	0.10234	0.062428	0.2741	0.13668	0.38412	0.047468	0.16682	0.037509	-2.1729	-2.5125	-2.9417	-2.4938	-2.775	-3.0021	-2.5417	-3.1271	-2.6	-2.4625	-3.1125	-2.5083	-2.7812	-3.0854	-2.2854	-3.1188	238.665	121.681	254.223	381.304	190.303	90.317	327.177	384.578	138.974	128.643	329.908	134.677	349.747	210.158	52.907	147.261	0.00018242	0.00033708	0.00041709	1228.7	9.1881e-06	6.0254e-06	1329.6	248.21	5.4738e-06	1.6552e-06	313.67	86.242	67.773	19.702	4.6642e-06	27.653	0.00095273	0.00087564	0.00024762	1237.1	1.0401e-05	9.8336e-06	1330.7	258.78	1.0617e-05	9.4504e-06	325.32	93.747	73.012	22.024	1.0214e-05	31.339	188.229	130.925	80.819	37.757	172.699	323.243	37.984	45.982	312.650	309.116	45.059	52.898	52.689	59.308	221.321	59.348	-8191	255	
1532.949	1	1	0	0	0.3008	0.070247	0.17792	0.2073	0.071015	0.26593	0.39046	0.020139	0.16023	0.049899	0.059093	0.2264	0.071718	0.18732	0.065369	0.096991	-2.1562	-2.4729	-3.0021	-2.5521	-2.7521	-2.8271	-2.4604	-2.9375	-2.7083	-2.5271	-3.2521	-2.7104	-2.8521	-3.0417	-2.4	-3.0271	94.243	280.477	54.039	307.235	272.502	233.242	344.772	208.662	234.823	140.050	111.841	133.190	189.265	147.183	258.734	150.987	0.00015629	0.00018848	0.00019579	1229.6	6.9081e-06	3.0627e-06	1329.5	248.26	3.8719e-06	2.5346e-06	311.96	86.831	67.686	19.739	9.7952e-06	27.729	0.00094203	0.00089373	0.00027314	1241.5	1.0485e-05	1.0163e-05	1336.4	259.57	1.0695e-05	9.8211e-06	328.53	94.314	72.912	22.1	1.124e-05	31.249	188.924	363.549	151.962	37.980	131.529	354.958	37.995	45.833	385.589	46.929	45.204	52.330	52.923	60.140	267.982	59.415	-8191	255	
1533.021	1	1	0	0	0.10479	0.027519	0.060778	0.12899	0.11052	0.090658	0.09254	0.15824	0.27643	0.17917	0.11578	0.2944	0.1833	0.29894	0.1675	0.058636	-2.5312	-2.4021	-3.1333	-2.7896	-2.5458	-3.0625	-2.5833	-3.1042	-2.7687	-2.4875	-3.1833	-2.6896	-2.6125	-3.1167	-2.5729	-2.9146	93.354	64.371	363.490	297.073	83.621	114.690	66.785	87.493	171.430	250.784	333.690	60.305	333.152	62.726	251.181	93.641	0.00014994	0.00036876	0.00023189	1230.1	8.34e-06	9.4753e-06	1332.6	248.02	2.2491e-06	1.0122e-05	314.94	86.167	67.572	19.836	6.0867e-06	27.704	0.00092939	0.00089177	0.00029094	1240.1	1.0183e-05	1.0067e-05	1340	258.5	1.0433e-05	9.8021e-06	330.11	93.559	72.677	22.123	1.166e-05	30.947	164.452	359.649	211.347	37.890	204.717	235.582	38.080	45.788	148.106	252.689	45.473	52.459	52.917	59.951	278.053	59.250	-8191	255	
1533.117	1	1	0	0	0.063487	0.1356	0.27962	0.14389	0.098805	0.11909	0.16752	0.28439	0.030737	0.13559	0.16469	0.13726	0.057596	0.31219	0.21333	0.13779	-2.4292	-2.4042	-2.9271	-2.8979	-2.4521	-3.2521	-2.8083	-2.8271	-2.7875	-2.3104	-3.1229	-2.7146	-2.3708	-3.2917	-2.6292	-2.7438	226.097	157.864	217.525	338.632	314.806	173.773	264.424	319.351	143.565	148.839	47.093	342.150	362.522	384.249	374.547	184.102	0.00012296	0.00095742	0.00022904	1227.2	3.1337e-06	5.5138e-06	1334.3	247.64	6.275e-06	5.9417e-06	312.68	85.987	67.412	19.747	7.3754e-06	27.664	0.00090189	0.0009205	0.00030095	1235.5	9.9111e-06	1.0471e-05	1343.6	257.63	1.0148e-05	1.0412e-05	330.27	93.147	72.463	22.289	1.1832e-05	30.782	175.365	82.074	128.253	38.337	177.506	129.018	38.448	46.122	332.790	236.597	45.890	53.300	53.136	60.176	202.750	59.117	-8191	255	
1533.238	1	1	0	0	0.13905	0.19734	0.15182	0.28448	0.30556	0.23981	0.32524	0.19337	0.10772	0.17194	0.21839	0.14955	0.26639	0.29352	0.13806	0.17254	-2.6583	-2.3063	-2.8479	-2.9958	-2.3104	-2.9229	-2.8187	-2.6625	-3.0667	-2.3688	-2.8833	-2.8875	-2.5021	-3.0312	-2.4833	-2.7479	212.956	50.956	197.686	78.583	30.057	92.035	336.197	379.200	356.213	150.900	314.247	312.392	333.049	356.843	127.392	59.510	0.00013627	0.00081244	0.00020276	1226.9	7.6362e-06	1.251e-05	1329.7	249.01	6.6696e-06	6.2869e-06	312.88	86.001	67.571	19.836	6.5872e-06	27.577	0.0008731	0.00099144	0.00029627	1233.5	9.7364e-06	1.1039e-05	1340.3	257.04	9.8641e-06	1.1142e-05	329.25	92.838	72.453	22.526	1.1384e-05	30.596	188.189	142.366	104.519	38.182	192.400	213.539	38.203	45.627	289.991	194.020	45.429	53.065	52.792	59.617	172.764	58.805	-8191	255	
1533.334	1	1	0	0	0.14867	0.054182	0.13495	0.16578	0.15436	0.14639	0.12904	0.16838	0.28066	0.17353	0.17745	0.17693	0.30272	0.46312	0.19072	0.043294	-2.7583	-2.2833	-2.9313	-3.1146	-2.4813	-3.1417	-2.7604	-2.5896	-3.0333	-2.5146	-2.8438	-2.9979	-2.3958	-3.0604	-2.6104	-2.425	363.420	142.265	75.574	384.763	40.748	154.137	302.075	387.285	92.800	149.825	368.068	252.519	255.026	51.489	216.826	297.857	0.00035474	0.00075855	0.00021258	1228	1.0227e-05	9.3407e-06	1334.2	248.4	7.9083e-06	4.8482e-06	314.57	85.811	67.528	19.87	4.7422e-06	27.784	0.0008838	0.0010488	0.00028148	1233.3	9.8629e-06	1.1586e-05	1340.1	257.17	1.0234e-05	1.1726e-05	328.52	92.805	72.973	22.706	1.1277e-05	30.846	217.316	58.733	67.049	38.263	193.488	197.601	38.684	46.123	193.935	187.406	45.733	53.177	53.264	59.973	251.934	59.627	-8191	255	
1533.430	1	1	0	0	0.15471	0.11492	0.34694	0.32614	0.059028	0.18651	0.25165	0.18356	0.074593	0.098551	0.13661	0.098821	0.32204	0.18183	0.092021	0.15203	-2.8167	-2.5208	-2.7104	-3.0396	-2.6292	-2.9208	-3.0646	-2.5333	-3.0792	-2.5396	-2.8958	-3.0583	-2.4583	-2.9521	-2.7417	-2.6708	114.903	54.867	312.356	367.016	263.672	33.922	346.142	288.632	286.144	152.998	138.334	131.033	55.214	277.118	170.404	82.262	0.00018015	0.00069202	0.00023659	1231.7	5.7707e-06	5.7955e-06	1337.6	248.03	6.5506e-06	8.4833e-06	314.94	86.697	67.942	19.818	4.6619e-06	27.684	0.00097329	0.0011294	0.00028389	1239	1.1267e-05	1.2457e-05	1341.8	257.59	1.1605e-05	1.2548e-05	329.74	93.356	74.138	22.756	1.1325e-05	30.819	198.452	103.216	69.329	38.686	156.181	190.479	38.453	45.808	177.281	217.870	45.254	53.360	53.215	59.454	146.220	59.447	-8191	255	
1533.549	1	1	0	0	0.14778	0.061291	0.22938	0.16462	0.19216	0.19017	0.18829	0.28114	0.17268	0.21423	0.13545	0.22008	0.15731	0.062427	0.044422	0.0094725	-2.6208	-2.5167	-2.5292	-3.1479	-2.325	-2.9396	-3.1063	-2.5271	-3.0417	-2.675	-2.5438	-3	-2.4625	-2.6917	-2.9396	-2.4896	385.503	382.610	150.749	37.625	89.559	75.109	326.908	361.594	232.729	44.791	117.612	263.779	372.550	71.657	247.780	181.377	0.00031001	0.00021481	2.7484e-05	1232.3	6.3703e-06	1.3924e-06	1333.3	248.88	9.4956e-06	5.899e-06	313.69	86.666	68.002	19.84	8.7904e-06	27.706	0.0010585	0.0011352	0.00028089	1239.4	1.2314e-05	1.2209e-05	1343.2	258.32	1.2559e-05	1.2222e-05	329.4	93.818	74.705	22.688	1.1349e-05	31.018	179.542	266.031	34.059	38.591	172.542	161.205	38.566	46.192	180.372	268.945	45.246	52.726	53.172	59.661	224.938	59.400	-8191	255	
1533.645	1	1	0	0	0.011366	0.07082	0.14979	0.38548	0.15588	0.12451	0.16959	0.18682	0.083644	0.15377	0.33503	0.029793	0.023613	0.12532	0.14477	0.2407	-2.6542	-2.5646	-2.6521	-3.2354	-2.3312	-2.9021	-3.0792	-2.5542	-3.0729	-2.7167	-2.6854	-3.2313	-2.4333	-2.8729	-2.9813	-2.3896	365.769	375.232	92.973	314.989	41.355	215.899	248.147	366.736	135.648	93.093	318.554	191.745	212.616	138.021	72.116	356.779	0.00022836	0.00041481	0.00020875	1233.4	7.4709e-06	3.5453e-06	1336.9	249.23	3.8339e-06	4.0622e-06	314.17	85.921	68.477	20.02	3.887e-06	27.754	0.0011292	0.0011065	0.00028162	1242.5	1.3093e-05	1.1972e-05	1345.2	260.32	1.331e-05	1.242e-05	329.77	94.863	75.925	22.862	1.2008e-05	31.756	203.217	330.149	53.144	38.591	225.861	254.513	38.419	45.722	287.751	140.573	45.163	53.135	52.737	59.773	273.625	59.517	-8191	255	
1533.719	1	1	0	0	0.26611	0.095862	0.096899	0.2831	0.27115	0.10118	0.095287	0.26029	0.23275	0.018417	0.21202	0.28251	0.13251	0.17706	0.18297	0.077445	-2.6667	-2.7	-2.4125	-3.2875	-2.5333	-2.6708	-3.2917	-2.4833	-3.0958	-2.8417	-2.525	-3.1979	-2.6312	-2.6458	-2.9688	-2.4188	202.157	29.915	344.704	384.334	133.631	330.715	199.119	231.838	387.202	97.872	259.274	298.529	137.898	333.623	323.395	276.343	0.00015407	0.00062493	0.00029272	1233.6	3.8134e-07	5.0161e-06	1340.6	251.79	3.3743e-06	2.4064e-06	315.94	87.03	68.501	20.111	7.3274e-06	28.136	0.001231	0.001174	0.00030377	1256.1	1.4504e-05	1.2983e-05	1355.3	267.09	1.4889e-05	1.3834e-05	337.5	98.279	77.578	23.587	1.4028e-05	33.4	173.800	189.363	111.862	38.232	143.058	325.267	38.559	45.754	181.515	229.133	45.153	53.086	53.106	59.418	178.762	59.168	-8191	255	
1533.837	1	1	0	0	0.20783	0.17298	0.21659	0.26925	0.11701	0.062965	0.17845	0.041052	0.055861	0.021649	0.20977	0.053791	0.22544	0.17865	0.15772	0.39747	-2.4646	-2.8792	-2.425	-3.2875	-2.5521	-2.7417	-3.4271	-2.5292	-2.9167	-3.0208	-2.4437	-3.1583	-2.8438	-2.6417	-3.1271	-2.5729	269.380	173.897	300.637	366.653	277.797	194.017	360.156	236.484	64.811	188.274	324.876	158.079	142.163	56.038	34.171	325.541	8.5553e-05	0.00018568	0.00029115	1241.8	7.5917e-06	1.2317e-05	1350.1	254.86	2.185e-06	1.7635e-06	319.45	88.001	68.679	20.206	5.5244e-06	28.343	0.0013694	0.001349	0.00035348	1278.6	1.5988e-05	1.4274e-05	1369.6	273.82	1.5424e-05	1.456e-05	342.66	100.01	77.988	23.712	1.4845e-05	33.96	226.223	301.594	206.996	38.379	31.250	288.113	38.349	45.620	365.723	45.068	45.446	52.792	52.536	59.267	249.563	59.161	-8191	255	
1533.934	1	1	0	0	0.21981	0.21665	0.24302	0.21053	0.20499	0.13765	0.18186	0.27942	0.051402	0.054881	0.10516	0.16881	0.13973	0.16737	0.15902	0.19011	-2.4625	-3.0708	-2.2896	-3.225	-2.775	-2.4271	-3.2479	-2.4042	-2.7812	-3.1875	-2.525	-3.1562	-2.8417	-2.5187	-2.9854	-2.5708	141.839	210.624	105.847	362.080	156.019	109.341	285.071	310.375	143.721	164.430	347.374	34.442	248.558	37.850	42.415	137.068	0.00018744	0.00048508	0.000346	1244	1.044e-05	9.0581e-06	1354.2	255.74	5.1314e-06	1.1965e-05	321.86	88.324	69.15	20.449	1.3823e-05	28.063	0.0013248	0.0013289	0.00037911	1281.1	1.5248e-05	1.3786e-05	1378.9	274.97	1.4595e-05	1.4138e-05	346.91	99.83	77.654	23.606	1.5698e-05	33.556	240.369	286.059	108.017	38.576	81.359	250.215	38.870	46.285	383.799	298.000	46.193	53.197	53.713	60.130	219.499	59.371	-8191	255	
1534.030	1	1	0	0	0.21876	0.051204	0.16734	0.26114	0.061627	0.070095	0.33775	0.12616	0.055648	0.15196	0.3188	0.058893	0.15846	0.18059	0.14543	0.13144	-2.2771	-2.8854	-2.5312	-3.1333	-2.8708	-2.6458	-3.2146	-2.7292	-2.7812	-3.2292	-2.4021	-3.0396	-2.9562	-2.5375	-3.0333	-2.8875	197.211	272.510	296.568	360.947	100.913	44.572	300.124	379.873	158.480	74.180	344.173	100.274	249.067	88.568	118.470	320.691	0.00011538	0.00017361	3.4252e-05	1240.5	5.6673e-06	1.1282e-05	1355.2	256.85	2.5284e-06	6.2789e-06	321.95	88.591	69.211	20.453	1.0818e-05	28.214	0.0012531	0.0012805	0.0004004	1276.9	1.4445e-05	1.3571e-05	1383.2	274.12	1.3915e-05	1.3878e-05	348.78	98.989	77.327	23.627	1.5993e-05	33.143	213.720	104.536	54.704	38.599	166.436	190.499	38.922	46.235	374.789	279.205	45.877	53.285	53.474	60.243	205.734	59.556	-8191	255	
1534.150	1	1	0	0	0.10812	0.14015	0.057333	0.27496	0.23031	0.36447	0.086825	0.15391	0.12352	0.20492	0.18824	0.19337	0.19057	0.23984	0.14403	0.33176	-2.0833	-3.2	-2.4021	-2.875	-2.9333	-2.4458	-3.3958	-2.8	-2.4896	-3.0604	-2.525	-2.9667	-3.1417	-2.5146	-3.0312	-2.7917	359.099	278.525	370.966	295.063	261.641	367.267	332.317	379.995	66.792	132.874	154.485	290.826	280.073	351.063	243.300	262.701	0.00020054	0.00061808	0.00013231	1248.7	6.4939e-06	9.8339e-06	1359	256.42	6.0745e-06	9.9344e-06	319.03	87.78	69.458	20.403	1.5627e-06	28.194	0.0011728	0.0012701	0.00040522	1273.3	1.3642e-05	1.3645e-05	1383	272.12	1.3179e-05	1.417e-05	347.9	97.97	76.822	23.795	1.5709e-05	32.872	213.607	187.277	124.853	38.718	255.546	202.837	38.823	46.367	130.476	214.929	46.098	53.621	53.877	60.420	335.958	59.696	-8191	255	
1534.247	1	1	0	0	0.22052	0.083178	0.11592	0.15009	0.28599	0.15919	0.21161	0.22039	0.089997	0.12883	0.033513	0.45645	0.12522	0.15783	0.11509	0.14219	-2.1833	-3.1667	-2.5625	-2.95	-2.9813	-2.5271	-3.2854	-2.8479	-2.4896	-3.0146	-2.6396	-2.7396	-3.2313	-2.4688	-2.9021	-2.8854	186.250	286.537	29.292	328.961	256.692	158.177	318.854	386.994	268.456	243.063	292.372	329.835	285.067	52.743	351.282	30.501	0.00023484	0.00074656	0.0001544	1246.6	5.211e-06	8.2964e-06	1355.7	256.47	7.9094e-06	3.0805e-06	319.51	88.13	69.494	20.253	5.3469e-06	28.232	0.0011268	0.0013158	0.00039502	1266.4	1.3119e-05	1.4322e-05	1379.4	270.44	1.2507e-05	1.4615e-05	345.48	97.04	76.341	23.845	1.438e-05	32.517	232.443	99.747	372.477	38.944	179.598	212.574	39.246	46.641	188.048	183.655	45.467	52.712	52.607	59.340	90.789	58.841	-8191	255	
1534.318	1	1	0	0	0.28164	0.16267	0.21031	0.48383	0.084625	0.18982	0.14171	0.21228	0.18535	0.20118	0.23591	0.30823	0.21021	0.10602	0.12357	0.18133	-1.8521	-3.1146	-2.6729	-2.7	-3.0271	-2.3958	-3.1917	-2.8646	-2.45	-3.0062	-2.7521	-2.5521	-3.1437	-2.5271	-2.8167	-2.9646	346.216	128.297	132.316	367.475	367.187	56.575	362.711	361.244	145.705	105.212	377.525	303.715	303.441	289.419	269.259	382.005	0.00019597	0.00022255	0.00025894	1249.4	1.0624e-05	4.1635e-06	1355.4	255.74	6.4764e-06	9.5747e-07	321.46	88.153	69.34	20.26	4.1135e-06	28.192	0.0010895	0.0013468	0.00036624	1264.5	1.2849e-05	1.4724e-05	1373.5	269.28	1.2645e-05	1.4767e-05	343.2	96.503	76.354	23.959	1.344e-05	32.208	203.361	170.901	256.644	38.181	226.157	335.168	37.872	45.440	179.864	183.416	45.214	52.289	53.171	59.379	123.067	58.553	-8191	255	
1534.414	1	1	0	0	0.039389	0.3068	0.20171	0.09011	0.232	0.066363	0.26097	0.097981	0.052588	0.17467	0.1613	0.41138	0.10805	0.17094	0.050975	0.28365	-1.8875	-2.925	-2.7375	-2.6167	-3.1083	-2.4833	-2.9125	-3.1896	-2.2292	-2.9688	-3.0167	-2.5396	-3.2583	-2.5375	-2.825	-3.1562	100.804	90.347	341.930	355.197	89.974	380.210	365.916	336.314	119.371	251.540	373.677	338.318	292.187	267.615	31.726	299.274	0.00027254	0.00067892	0.00049816	1242.5	8.3078e-06	4.0179e-06	1359.1	254.61	6.86e-06	5.482e-06	318.44	87.919	69.045	20.282	6.4935e-06	28.116	0.001124	0.0013276	0.00033784	1257.2	1.3056e-05	1.4574e-05	1370.1	267.63	1.3223e-05	1.4436e-05	340.6	96.015	76.919	23.867	1.2728e-05	32.106	215.111	148.506	322.449	38.068	233.901	231.444	38.241	45.919	259.306	144.611	45.622	52.915	53.042	59.437	220.142	59.202	-8191	255	
1534.533	1	1	0	0	0.18938	0.19486	0.092934	0.22144	0.1688	0.089173	0.31972	0.30671	0.083822	0.16946	0.20893	0.26361	0.24028	0.047971	0.1124	0.13115	-1.875	-2.9125	-2.7771	-2.6708	-2.9625	-2.5812	-2.8063	-3.0938	-2.3896	-2.8979	-3.0438	-2.4354	-3.2125	-2.7125	-2.5042	-3.0812	373.842	195.498	196.149	299.086	310.472	78.272	330.446	325.942	325.661	207.204	277.578	289.331	377.768	172.948	376.978	48.116	0.00024743	0.00034984	0.00035366	1248	1.1953e-05	1.8329e-06	1353.7	256.39	1.0565e-05	1.7154e-06	320.79	87.976	69.403	20.352	3.199e-06	27.995	0.0011953	0.0012746	0.00032679	1258.5	1.3807e-05	1.3981e-05	1365.2	268.21	1.3998e-05	1.3697e-05	340.56	96.293	77.584	23.705	1.2435e-05	32.214	222.078	150.074	289.309	38.130	220.834	170.615	38.342	45.965	245.921	112.101	45.646	53.094	53.199	59.444	207.030	59.012	-8191	255	
1534.629	1	1	0	0	0.10565	0.072813	0.072139	0.17739	0.048768	0.17899	0.25995	0.25647	0.16313	0.34304	0.18501	0.14849	0.22725	0.25054	0.12627	0.17038	-1.9729	-2.7354	-2.7292	-2.6833	-3.125	-2.6063	-2.6917	-3.2646	-2.4	-2.7687	-3.0854	-2.4938	-3.0792	-2.6188	-2.4604	-3.1937	206.893	340.490	74.199	299.208	197.086	29.139	332.840	357.359	312.303	305.263	46.734	344.524	336.455	336.968	309.791	149.898	0.00023714	0.00019915	0.00020066	1245.3	8.249e-06	2.719e-06	1357.2	255.56	4.3345e-06	1.7481e-06	319.54	88.098	69.731	20.35	2.8966e-06	28.096	0.0012682	0.0012285	0.00032486	1261.7	1.4403e-05	1.3406e-05	1364	268.42	1.447e-05	1.299e-05	339.21	96.837	77.517	23.486	1.2039e-05	32.457	230.908	296.649	46.241	37.871	176.275	150.587	38.236	45.697	168.998	297.599	45.527	52.652	53.023	59.718	118.422	59.441	-8191	255	
1534.726	1	1	0	0	0.16801	0.22801	0.10558	0.43677	0.17361	0.19249	0.39476	0.069838	0.09387	0.090544	0.090514	0.20797	0.065066	0.053426	0.15727	0.20512	-2.1562	-2.7292	-3.1562	-2.6396	-2.9271	-2.7313	-2.7833	-3.2458	-2.6271	-2.6458	-3.1292	-2.3812	-3.1125	-2.9146	-2.3396	-3.0917	180.437	47.473	171.222	354.841	342.096	79.306	365.626	335.241	75.254	36.067	106.575	266.673	34.806	230.780	120.897	193.558	0.00022172	0.00049888	0.00016353	1244.4	4.6426e-06	6.2213e-06	1353.4	255.23	4.7066e-06	5.0319e-06	321.29	88.348	69.395	20.168	7.1503e-06	28.255	0.0012591	0.0011665	0.00031701	1266	1.4234e-05	1.3078e-05	1363.6	270.41	1.4571e-05	1.2977e-05	339.73	98.004	77.347	23.488	1.2264e-05	32.987	227.311	61.323	170.676	38.240	73.669	33.974	38.455	45.863	243.723	118.580	45.392	52.897	52.831	59.736	237.059	59.220	-8191	255	
1534.822	1	1	0	0	0.3288	0.11731	0.025367	0.17835	0.25745	0.1467	0.51426	0.31421	0.35227	0.21759	0.1195	0.18693	0.26508	0.086641	0.23709	0.14525	-2.1	-2.6396	-3.0187	-2.6813	-2.8375	-2.9437	-2.725	-3.1479	-2.7167	-2.4292	-3.1542	-2.5687	-2.8729	-3.025	-2.2521	-3.1188	244.717	159.448	304.077	335.748	353.573	39.741	352.082	360.358	77.549	107.969	306.652	173.674	315.428	73.625	318.026	56.358	3.3358e-05	0.00051422	0.00016542	1249.4	1.6067e-05	6.8183e-06	1352.2	255	1.5684e-06	3.9078e-06	320.09	88.142	69.085	20.236	2.4714e-06	28.179	0.001267	0.0011757	0.00032534	1273.3	1.3943e-05	1.3125e-05	1366.9	271.73	1.3958e-05	1.2619e-05	340.07	98.373	76.831	23.381	1.284e-05	33.031	220.679	336.238	167.587	38.059	301.285	216.437	38.180	46.016	268.438	255.211	45.897	52.780	52.942	59.340	171.378	59.375	-8191	255	
1534.942	1	1	0	0	0.083598	0.084964	0.18516	0.22667	0.21074	0.26927	0.096756	0.12287	0.13431	0.01751	0.15461	0.25903	0.21328	0.12894	0.22292	0.16844	-2.3583	-2.4271	-3.1208	-2.5729	-2.8271	-2.9896	-2.6312	-2.9854	-2.6146	-2.4125	-3.2771	-2.5312	-2.8167	-3.15	-2.2583	-3.0125	165.998	366.012	116.827	289.995	308.244	199.558	253.217	288.057	67.969	39.354	116.063	77.924	315.245	30.380	120.127	62.446	0.00016806	2.2647e-05	0.00034881	1249.4	2.0175e-06	1.0105e-05	1354.9	255.27	5.5933e-06	4.4122e-07	319.75	88.229	69.589	20.48	8.1856e-06	27.911	0.0011931	0.0011237	0.00033522	1274	1.3058e-05	1.257e-05	1370.3	271.46	1.3212e-05	1.2128e-05	342.4	98.462	76.393	23.364	1.3775e-05	32.866	219.050	377.707	104.317	38.221	233.038	57.610	38.425	45.716	71.956	184.437	45.383	52.467	53.059	59.983	267.920	58.961	-8191	255	
1535.014	1	1	0	0	0.11956	0.107	0.099276	0.30191	0.13499	0.21528	0.23788	0.12664	0.25671	0.077998	0.10626	0.13141	0.21674	0.11832	0.079601	0.034872	-2.5	-2.3729	-3.0979	-2.8604	-2.6104	-3.0604	-2.4813	-3.0521	-2.8208	-2.5021	-3.0771	-2.7771	-2.5979	-3.2583	-2.4333	-2.8812	280.551	318.663	315.978	310.961	260.763	226.596	280.343	86.283	62.776	95.427	316.228	266.597	343.016	44.997	182.917	158.266	0.0002813	0.00043957	0.00029991	1246	7.8179e-06	7.4206e-06	1355	256.57	6.5764e-06	1.4879e-05	321.46	87.932	69.252	20.426	2.2023e-06	28.018	0.0011502	0.0011059	0.00035812	1271.5	1.2624e-05	1.2444e-05	1373.7	270.83	1.2878e-05	1.2004e-05	344.31	97.854	75.912	23.314	1.4308e-05	32.488	201.909	292.802	113.719	37.782	161.844	177.481	38.036	45.560	130.915	192.348	45.086	52.711	52.461	58.623	214.084	58.651	-8191	255	
1535.110	1	1	0	0	0.20244	0.23722	0.13531	0.14137	0.27134	0.078839	0.081506	0.17123	0.069307	0.10245	0.01483	0.10214	0.24842	0.08602	0.2214	0.20777	-2.2417	-2.55	-3.0604	-2.8333	-2.4938	-3.1417	-2.7	-2.9083	-2.9271	-2.5125	-2.9042	-2.7979	-2.65	-3.0812	-2.3979	-2.8979	73.606	299.162	302.526	297.507	324.987	52.315	45.706	322.220	48.509	173.626	305.196	174.072	370.519	201.205	384.877	377.348	0.00015187	0.0012611	0.00010798	1248.2	4.6233e-06	7.0405e-06	1354.2	255.23	2.9562e-06	1.4713e-05	319.65	87.7	68.799	20.319	4.5446e-06	27.93	0.0010975	0.0011071	0.00036181	1265.9	1.1992e-05	1.2443e-05	1373.7	268.8	1.2331e-05	1.2399e-05	343.65	96.737	75.409	23.428	1.441e-05	32.195	228.247	87.240	339.772	37.928	386.859	231.819	38.239	45.633	158.806	232.568	45.472	52.729	52.678	59.587	233.061	58.675	-8191	255	
1535.231	1	1	0	0	0.050431	0.19471	0.076291	0.25238	0.23405	0.24326	0.21891	0.40324	0.057973	0.14833	0.11701	0.15283	0.20154	0.18253	0.15795	0.077812	-2.6917	-2.4042	-3.0417	-3.0208	-2.4437	-3.0062	-2.675	-2.8187	-3.1167	-2.4062	-3.2396	-2.8208	-2.4458	-3.2104	-2.4854	-2.5812	273.771	367.230	283.539	359.738	42.250	370.016	311.814	43.825	194.075	44.341	387.144	33.304	293.135	340.410	229.735	268.489	0.00025766	0.00082634	0.00022534	1247.3	4.6281e-06	1.4395e-05	1353.3	255.96	4.529e-06	8.5921e-06	319.7	88.327	68.867	20.276	2.437e-06	28.069	0.0010725	0.0011863	0.00035851	1264.6	1.1679e-05	1.3218e-05	1374.9	267.67	1.1994e-05	1.3339e-05	342.59	96.585	75.379	23.608	1.3801e-05	32.129	213.679	117.294	310.206	37.828	175.533	219.864	37.971	45.760	212.828	186.185	45.177	52.784	52.205	58.960	101.918	58.599	-8191	255	
1535.327	1	1	0	0	0.10234	0.19817	0.070894	0.27673	0.23122	0.19103	0.12649	0.23657	0.055814	0.228	0.1081	0.14772	0.26864	0.1193	0.11247	0.40307	-2.6021	-2.3729	-2.8708	-2.9292	-2.2896	-3.1542	-2.7896	-2.6125	-3.2083	-2.375	-3.0812	-3.1	-2.5708	-2.9938	-2.7021	-2.5646	243.823	295.115	241.720	50.941	167.791	68.689	307.464	360.601	135.459	266.533	81.419	34.278	34.776	68.921	33.582	307.651	0.00023737	0.0001733	0.00015794	1247.4	3.8233e-06	4.1416e-06	1353.8	254.57	9.1517e-06	8.4835e-06	320.29	88.442	69.601	20.322	1.1539e-05	27.995	0.0010676	0.001266	0.0003425	1262.2	1.1879e-05	1.3949e-05	1370.5	266.76	1.2211e-05	1.4146e-05	340.78	96.178	75.684	23.746	1.3109e-05	31.844	182.358	223.544	293.160	37.863	148.174	369.746	38.374	46.046	193.736	131.769	45.308	52.961	52.944	59.975	303.573	59.573	-8191	255	
1535.421	1	1	0	0	0.076551	0.079731	0.40495	0.22568	0.12478	0.10382	0.24674	0.093693	0.17189	0.11324	0.20737	0.11313	0.099366	0.19456	0.17239	0.22007	-2.7812	-2.4896	-2.9271	-3.0104	-2.3937	-3.1063	-2.9437	-2.4771	-3.0958	-2.4771	-2.7604	-3.1375	-2.5354	-3.1333	-2.8104	-2.4396	105.686	109.423	338.942	40.677	309.559	90.506	299.162	366.540	232.915	203.114	305.760	382.135	305.147	170.420	190.348	77.464	0.00035479	0.00066741	0.00010005	1244.1	6.9696e-07	2.8365e-06	1354.4	253.74	9.5e-06	5.6148e-06	318.94	87.879	69.203	20.219	1.3691e-06	28.077	0.0010943	0.0012898	0.0003226	1259	1.2486e-05	1.4135e-05	1367	266.14	1.3039e-05	1.4314e-05	339.3	96.176	76.453	23.732	1.3009e-05	31.889	225.466	153.052	107.450	38.071	371.976	213.169	38.221	45.652	230.169	117.209	45.307	52.334	52.653	59.313	272.372	58.406	-8191	255	
1535.519	1	1	0	0	0.17887	0.19381	0.053573	0.2543	0.16601	0.024437	0.24925	0.021725	0.15515	0.18073	0.057357	0.15454	0.19692	0.20482	0.11708	0.3529	-2.7479	-2.4562	-2.4354	-3.2562	-2.4188	-2.9042	-2.9688	-2.55	-2.9229	-2.5687	-2.8146	-3.1521	-2.5375	-2.8604	-3.1396	-2.3958	273.410	34.284	252.227	367.171	114.093	175.487	328.836	30.301	162.103	290.221	344.090	149.509	297.315	140.192	240.271	373.398	0.0001845	0.00026972	0.00026745	1247.4	8.5118e-06	1.0292e-05	1354	255.25	1.0775e-05	7.9842e-06	320.16	87.906	68.945	20.201	2.2096e-06	28.101	0.0011989	0.0012832	0.00031908	1261.9	1.366e-05	1.3869e-05	1367.1	267.29	1.4143e-05	1.3999e-05	338.96	96.255	77.164	23.538	1.279e-05	31.9	198.668	195.383	100.038	37.621	154.735	185.136	38.134	45.903	186.312	360.929	45.069	52.677	52.802	59.305	310.060	58.475	-8191	255	
1535.614	1	1	0	0	0.099356	0.076433	0.29722	0.26118	0.2083	0.13573	0.09325	0.15958	0.054557	0.41829	0.30141	0.11423	0.2575	0.069683	0.13213	0.2551	-2.7292	-2.5042	-2.7042	-2.9813	-2.4729	-2.7104	-3.2917	-2.5625	-3.1083	-2.7167	-2.4813	-3.3104	-2.5708	-2.7792	-2.9437	-2.5146	97.439	362.098	235.131	43.325	137.122	238.641	238.319	92.165	335.790	106.978	379.049	251.666	54.784	40.218	152.130	309.831	0.00031465	0.0005552	0.00023213	1244.7	7.186e-06	1.4178e-05	1352.6	255.39	7.1191e-06	7.024e-06	320.48	88.035	69.543	20.233	4.3183e-06	28.07	0.0012441	0.0012284	0.00030902	1261.7	1.4079e-05	1.2891e-05	1366.4	266.85	1.4103e-05	1.2986e-05	336.86	96.543	77.237	23.289	1.2128e-05	32.162	191.280	371.621	62.365	38.435	65.101	96.384	38.199	45.958	251.484	273.496	45.478	53.020	53.171	59.660	96.917	58.810	-8191	255	
1535.710	1	1	0	0	0.16863	0.14201	0.25676	0.5265	0.147	0.19113	0.1426	0.25091	0.3893	0.028426	0.18919	0.22617	0.18345	0.24502	0.052468	0.065779	-2.6	-2.4854	-2.4146	-3.2104	-2.6271	-2.7375	-3.2438	-2.6083	-3.1083	-2.7292	-2.7271	-3.2021	-2.8208	-2.6708	-3.3396	-2.4708	58.478	201.629	347.151	336.426	95.972	181.762	285.133	300.112	94.125	176.350	347.459	300.062	310.010	63.741	111.430	101.267	0.0003491	9.5428e-05	8.8558e-05	1249.4	9.1255e-06	8.3126e-06	1357	255.92	1.2586e-05	6.2772e-06	320.59	88.474	69.094	20.208	3.7488e-06	28.132	0.0012136	0.0011594	0.00029166	1263.6	1.3679e-05	1.2197e-05	1363.8	268.67	1.3672e-05	1.2503e-05	337.08	97.213	76.961	23.116	1.1988e-05	32.596	204.040	371.342	115.048	37.869	209.437	81.870	38.219	45.472	378.427	172.918	45.105	52.477	52.647	59.250	233.776	59.419	-8191	255	
1535.830	1	1	0	0	0.23244	0.31258	0.11019	0.45587	0.085316	0.13455	0.33382	0.30768	0.13391	0.030017	0.20164	0.082815	0.23228	0.10688	0.14848	0.11705	-2.5521	-2.8583	-2.3042	-3.1354	-2.6458	-2.5479	-3.2167	-2.5292	-2.9354	-2.7667	-2.5042	-3.1729	-2.7271	-2.4479	-3.1479	-2.5042	339.029	270.694	305.429	335.480	247.122	343.919	300.606	102.581	340.086	38.696	53.759	376.687	60.769	372.077	29.644	342.219	0.00018049	0.00040268	0.00020011	1250.8	8.6647e-06	4.2563e-06	1355.2	255.29	5.3313e-06	6.9484e-06	320.12	88.185	68.654	20.221	1.3265e-05	28.257	0.0011664	0.0011364	0.00029674	1270.6	1.3276e-05	1.1909e-05	1365.4	269.53	1.2971e-05	1.2251e-05	337.47	97.779	76.13	23.049	1.2383e-05	32.704	169.633	209.115	152.050	38.138	182.277	78.602	38.227	45.589	174.144	51.225	45.364	52.384	53.079	59.704	244.470	59.148	-8191	255	
1535.927	1	1	0	0	0.12966	0.25915	0.17573	0.31224	0.32425	0.18136	0.23379	0.19487	0.070419	0.12445	0.18025	0.2216	0.2535	0.23867	0.31875	0.029404	-2.2854	-3.0938	-2.2896	-3.1479	-2.7771	-2.5687	-3.3563	-2.5458	-2.7917	-2.9813	-2.5312	-3.0521	-2.8396	-2.6292	-3.2333	-2.4437	161.166	148.525	289.115	362.397	217.845	61.140	347.766	124.103	124.884	41.110	355.027	333.896	382.535	354.005	361.011	150.714	0.0001435	0.00044631	0.00035094	1248.7	5.787e-06	8.048e-06	1357.6	255.91	5.5369e-06	3.473e-06	319.59	88.236	68.909	20.135	7.5061e-06	27.97	0.001112	0.0010951	0.00031478	1270.2	1.2717e-05	1.1714e-05	1369.7	270.57	1.2448e-05	1.197e-05	339.59	97.777	75.989	22.944	1.315e-05	32.538	171.402	28.860	188.145	38.439	134.802	291.651	37.827	45.225	191.339	238.410	45.215	52.421	52.639	59.268	229.208	58.598	-8191	255	
1536.023	1	1	0	0	0.022765	0.13403	0.18796	0.19446	0.098387	0.20145	0.44538	0.15538	0.19043	0.30528	0.24057	0.3052	0.27704	0.10193	0.11364	0.15388	-2.1688	-3.0292	-2.5	-3.2271	-2.6771	-2.4333	-3.1	-2.7292	-2.6146	-3.1667	-2.5979	-2.9333	-2.9646	-2.5062	-2.8688	-2.6875	343.402	291.660	370.099	373.445	214.286	362.305	308.524	332.548	334.206	73.419	44.143	47.436	303.258	135.057	348.852	168.114	0.00018663	0.0016529	0.000353	1246.4	3.9419e-06	4.6379e-06	1354.5	254.29	1.332e-06	7.3024e-06	319.66	87.568	68.868	20.328	1.3611e-05	28.082	0.0010613	0.0010619	0.00033068	1266.9	1.2175e-05	1.1234e-05	1371.6	268.49	1.1718e-05	1.1823e-05	341.45	96.722	75.401	22.993	1.3643e-05	32.271	188.352	72.749	146.850	37.836	254.787	182.699	38.352	45.694	191.884	177.360	45.436	52.739	53.208	59.320	255.924	59.496	-8191	255	
1536.119	1	1	0	0	0.051242	0.11818	0.49739	0.33445	0.1246	0.20345	0.1142	0.1833	0.10224	0.12193	0.076275	0.011883	0.13053	0.059482	0.090903	0.054669	-2.2	-3.0458	-2.4479	-2.9479	-2.9375	-2.3438	-3.2604	-2.7604	-2.6083	-2.9646	-2.625	-2.7729	-3.025	-2.2896	-2.9792	-2.6917	284.215	136.863	43.977	331.848	85.257	363.959	382.741	319.162	46.811	167.377	329.473	358.208	384.529	336.362	219.428	193.136	0.00021333	0.00052239	0.00026984	1245.3	4.9829e-06	6.2306e-06	1354.8	254.69	2.2814e-06	1.8817e-06	320.07	87.803	68.947	20.328	3.0133e-06	28.06	0.0010185	0.0010817	0.00034639	1260.9	1.1806e-05	1.1564e-05	1371.4	267.49	1.1312e-05	1.2039e-05	342.14	96.171	75.317	23.121	1.3681e-05	32.071	207.976	113.167	213.455	38.268	242.212	199.234	38.271	45.856	324.478	170.364	45.373	52.736	53.343	59.891	188.237	59.369	-8191	255	
1536.215	1	1	0	0	0.24602	0.14219	0.28918	0.41693	0.26038	0.14731	0.12009	0.15388	0.093003	0.22929	0.14443	0.14153	0.10427	0.27129	0.15119	0.25162	-2.0167	-3.025	-2.5083	-2.8354	-2.8271	-2.3208	-3.0646	-2.7958	-2.5521	-3.0979	-2.7458	-2.825	-3.1896	-2.4062	-3.0812	-2.9958	164.168	313.580	272.608	356.421	46.818	383.108	28.428	235.327	114.262	225.577	72.185	339.863	89.498	71.604	148.621	343.135	0.00015789	0.00093746	8.5783e-05	1248.3	2.4843e-06	5.5209e-06	1357.5	253.55	4.0874e-06	4.9791e-06	319.34	87.797	68.903	20.18	1.1519e-06	28.036	0.0010024	0.0011488	0.0003492	1259.5	1.1692e-05	1.2568e-05	1372	267.01	1.1255e-05	1.2919e-05	341.09	95.799	75.146	23.398	1.317e-05	31.93	207.086	143.904	285.049	38.314	255.829	237.871	38.219	45.722	129.340	194.905	45.300	53.026	53.268	60.431	64.299	59.401	-8191	255	
1536.311	1	1	0	0	0.19917	0.059111	0.34763	0.1107	0.131	0.1605	0.05843	0.26592	0.17905	0.20384	0.043076	0.13421	0.16288	0.17262	0.045589	0.14785	-1.8646	-3.1021	-2.675	-2.8208	-2.9396	-2.5354	-3.1188	-3.0667	-2.4125	-3.0604	-2.7729	-2.6875	-3.1021	-2.55	-2.8583	-3.0229	174.205	235.466	232.572	323.749	57.184	168.267	317.521	310.486	79.800	193.783	169.310	373.266	311.811	324.099	311.227	379.109	0.00026791	0.00028829	0.00022198	1248.3	8.4739e-06	9.2602e-06	1351.5	254.91	1.1077e-05	1.1961e-05	319.6	87.342	68.785	20.265	9.5999e-06	27.985	0.00099849	0.0012208	0.00033842	1260.8	1.1743e-05	1.3573e-05	1368.9	267.04	1.1804e-05	1.3938e-05	340.36	95.697	75.667	23.638	1.2943e-05	31.968	212.138	182.897	291.854	38.189	211.718	220.024	38.680	45.945	233.209	171.296	45.690	52.726	53.196	59.673	90.540	59.260	-8191	255	
1536.407	1	1	0	0	0.14964	0.10234	0.085774	0.21677	0.2612	0.26347	0.29194	0.26926	0.1505	0.258	0.089613	0.011643	0.037401	0.10097	0.06315	0.17644	-1.9771	-2.9688	-2.6604	-2.3917	-3.0854	-2.2729	-2.9583	-3.1604	-2.4667	-3.0167	-2.85	-2.6333	-3.2687	-2.6	-2.6083	-3.1667	111.744	298.265	109.663	310.333	262.771	51.784	343.256	336.097	262.665	250.753	308.226	118.531	323.251	108.782	367.583	39.622	0.0002623	0.00079366	0.00013945	1247.3	1.4614e-05	6.9641e-06	1355.5	255.02	9.6849e-06	6.0347e-06	318.44	87.502	69.357	20.214	7.8508e-06	28.198	0.0010651	0.0012799	0.00033212	1257.5	1.2639e-05	1.4106e-05	1368.6	266.96	1.27e-05	1.3993e-05	339.82	95.367	76.374	23.718	1.2404e-05	31.918	201.451	357.147	329.069	38.400	254.273	140.288	38.834	45.951	242.943	85.014	45.634	52.955	53.229	59.664	231.134	59.486	-8191	255	
1536.502	1	1	0	0	0.079186	0.28107	0.24131	0.2063	0.085795	0.199	0.27197	0.06291	0.34904	0.11148	0.17482	0.23577	0.22609	0.084455	0.095661	0.087254	-2.1188	-2.7833	-2.7792	-2.6271	-3.1063	-2.6583	-2.9083	-3.1167	-2.4292	-2.9021	-3.0604	-2.4604	-3.15	-2.6479	-2.5625	-3.2125	294.277	314.216	219.617	387.173	375.863	83.343	276.425	258.676	269.920	212.939	102.543	277.440	366.552	210.031	176.547	96.422	0.00032116	0.00021921	0.0002472	1245.9	4.5871e-06	3.549e-06	1356.6	255.49	5.4507e-06	5.5415e-06	319.73	87.679	69.224	20.161	2.541e-06	28.214	0.0011456	0.0012472	0.00031929	1258.2	1.3292e-05	1.3696e-05	1366.3	266.86	1.3565e-05	1.3391e-05	338.83	95.553	76.979	23.475	1.2142e-05	31.951	197.914	241.875	168.119	38.384	345.881	253.307	38.553	46.363	249.008	117.763	45.453	52.649	52.806	59.902	162.684	59.461	-8191	255	
1536.622	1	1	0	0	0.30512	0.065673	0.25626	0.32094	0.09201	0.18719	0.33688	0.089994	0.17214	0.089468	0.072925	0.14112	0.086987	0.20704	0.11592	0.21704	-1.9375	-2.8063	-3.1042	-2.6458	-3.0812	-2.5438	-2.6437	-3.0896	-2.4854	-2.7729	-3.025	-2.3667	-3.2938	-2.8167	-2.5646	-3.1625	51.024	135.618	31.723	340.123	268.995	41.198	323.869	277.309	211.547	65.439	287.659	201.555	384.131	269.619	112.987	69.882	0.00024095	0.00051776	6.7657e-05	1245.3	5.003e-06	9.9886e-06	1358.2	255.97	3.8578e-06	7.8224e-06	319.16	87.452	69.157	20.287	2.725e-06	28.336	0.001215	0.0011908	0.00031314	1259.7	1.3934e-05	1.3147e-05	1364.3	267.46	1.3975e-05	1.2696e-05	338.1	96.012	77.107	23.394	1.1766e-05	32.315	211.238	387.334	72.965	38.348	234.921	74.229	38.693	46.425	243.538	331.047	45.827	53.018	53.045	59.811	64.168	59.312	-8191	255	
1536.719	1	1	0	0	0.1035	0.15366	0.25047	0.17552	0.25823	0.054034	0.34649	0.17603	0.12003	0.015678	0.21266	0.17559	0.13152	0.082064	0.048648	0.22195	-2.1708	-2.8458	-2.9917	-2.5812	-2.9458	-2.8708	-2.5792	-3.2188	-2.4917	-2.8229	-3.1292	-2.2271	-3.0312	-2.9	-2.4083	-3.3104	185.640	378.273	251.777	329.161	292.337	72.843	319.996	313.187	108.220	79.287	102.559	90.742	314.522	72.313	121.052	301.818	0.00020006	0.00039114	0.00011217	1246.8	1.4333e-06	9.7227e-06	1356	253.97	2.7416e-06	1.0074e-05	319.22	87.773	68.873	20.196	3.1574e-06	28.235	0.0012324	0.0011422	0.00030728	1263.1	1.3868e-05	1.2659e-05	1362.2	269.08	1.4025e-05	1.2498e-05	338.07	97.095	76.731	23.267	1.1865e-05	32.638	218.550	156.623	254.116	38.515	180.001	62.163	38.847	46.323	366.901	130.642	46.200	53.206	53.434	60.313	256.748	59.182	-8191	255	
1536.813	1	1	0	0	0.11358	0.1692	0.088981	0.26022	0.050761	0.15944	0.16979	0.22226	0.12639	0.13322	0.20878	0.076684	0.22183	0.15438	0.17699	0.33661	-2.1354	-2.8604	-3.0667	-2.5354	-2.9958	-2.9354	-2.6375	-3.3937	-2.6958	-2.5583	-3.1979	-2.6688	-3.0667	-2.9313	-2.4292	-3.2333	32.534	84.725	136.326	69.978	314.073	60.440	305.503	341.310	87.888	119.050	386.975	236.424	333.613	340.726	109.552	356.583	0.0001344	0.00032401	0.00011309	1249.8	1.0762e-05	4.022e-06	1355.3	255.02	4.6152e-06	3.772e-06	320.28	87.858	68.811	20.18	1.0442e-05	28.302	0.0012128	0.0011262	0.00031228	1269.5	1.3485e-05	1.2706e-05	1363.7	270.45	1.3541e-05	1.2172e-05	339.16	97.857	76.305	23.248	1.2273e-05	32.796	201.613	61.799	91.834	38.397	126.439	82.671	38.441	46.100	315.225	342.862	46.003	52.899	53.177	60.096	216.360	59.735	-8191	255	
1536.911	1	1	0	0	0.41035	0.21215	0.15969	0.051281	0.24958	0.21224	0.25168	0.18456	0.10335	0.1305	0.085638	0.11555	0.38393	0.04321	0.082868	0.074247	-2.2896	-2.425	-2.9729	-2.5896	-2.8146	-3.0438	-2.6375	-3.2667	-2.9646	-2.5	-3.2021	-2.5333	-2.7167	-3.1958	-2.3083	-3.0938	191.244	300.742	111.558	311.919	230.737	167.846	303.818	329.927	115.503	59.115	381.239	128.516	350.244	239.610	371.338	383.874	0.00022036	0.00045611	0.00037537	1250.1	3.916e-06	7.0589e-06	1354.8	255.69	4.8748e-06	4.6606e-06	319.41	88.426	69.299	20.341	9.2727e-06	28.125	0.0011608	0.0010921	0.00032279	1274	1.272e-05	1.2167e-05	1366.4	270.71	1.308e-05	1.2045e-05	341.03	98.413	76.397	23.323	1.375e-05	32.968	232.893	61.911	128.070	38.528	323.026	228.384	38.717	46.226	376.551	37.317	46.140	53.439	53.536	60.409	245.325	59.006	-8191	255	
1537.005	1	1	0	0	0.26275	0.21529	0.041371	0.30607	0.10739	0.26992	0.28381	0.24478	0.19513	0.1225	0.12457	0.19272	0.1267	0.12619	0.21409	0.1098	-2.3708	-2.3354	-3.0458	-2.6271	-2.6042	-3.0812	-2.6604	-3.2104	-2.8375	-2.4979	-3.3125	-2.7604	-2.6771	-2.9917	-2.5208	-3.1125	93.667	282.105	134.103	358.292	124.694	137.858	325.626	340.791	319.141	259.949	361.750	31.769	105.760	61.346	232.118	233.547	0.00013275	0.0003973	0.00037028	1251.6	7.7169e-06	3.3842e-06	1354	256.71	3.931e-06	5.0173e-06	322.71	88.167	69.371	20.359	8.3071e-06	28.502	0.0011796	0.0011184	0.00036307	1277.1	1.3063e-05	1.2831e-05	1376.4	271.62	1.3435e-05	1.255e-05	345.29	98.406	76.427	23.403	1.4982e-05	32.974	199.751	318.823	134.316	38.710	290.418	376.819	38.734	46.224	194.670	198.166	46.007	53.223	53.489	60.187	190.519	59.339	-8191	255	
1537.101	1	1	0	0	0.011128	0.1601	0.28981	0.19252	0.074524	0.33352	0.30831	0.17714	0.15078	0.011003	0.14418	0.049034	0.20846	0.034166	0.14924	0.075381	-2.5438	-2.2833	-3.0563	-2.8417	-2.6188	-3.0958	-2.7125	-3.0375	-2.9896	-2.4188	-3.1	-2.8708	-2.7354	-3.1937	-2.4729	-2.9354	161.232	157.374	354.140	307.581	229.336	279.824	331.859	343.126	159.274	81.424	346.690	236.158	273.294	60.044	333.518	172.987	0.00033579	0.00039551	0.00021858	1247.6	2.5257e-06	1.3161e-06	1354.7	255.9	9.4901e-06	3.5502e-06	320.46	87.886	68.99	20.398	2.1387e-06	28.226	0.0011726	0.0011744	0.00038649	1272.8	1.2931e-05	1.3376e-05	1382.4	270.47	1.3347e-05	1.334e-05	347.38	98.06	76.53	23.807	1.5939e-05	32.831	218.183	129.147	71.569	38.611	299.869	45.331	38.627	46.178	223.906	196.870	45.739	53.385	53.172	59.950	64.295	59.626	-8191	255	
1537.222	1	1	0	0	0.21754	0.21783	0.13792	0.22483	0.087165	0.16826	0.31159	0.15271	0.059182	0.074036	0.22956	0.091557	0.34688	0.22083	0.069952	0.061718	-2.6	-2.5396	-3.2208	-3.0208	-2.5333	-3.1937	-2.7167	-2.8333	-3.1229	-2.2875	-2.9792	-2.9188	-2.5375	-3.2042	-2.5438	-2.6833	129.112	183.209	349.524	70.815	299.185	341.065	304.708	304.206	95.277	81.956	119.603	322.757	321.270	350.809	186.811	328.361	0.00023414	0.0014783	0.00021118	1250.3	4.7665e-06	3.1655e-06	1357.7	256.3	2.8857e-06	9.8189e-06	321.99	88.645	69.297	20.504	4.2526e-06	28.615	0.001209	0.0013251	0.00041394	1276.4	1.3581e-05	1.5323e-05	1390.3	272.34	1.4347e-05	1.5712e-05	350.95	99.149	77.312	24.528	1.6774e-05	33.271	224.593	105.231	270.541	38.690	368.501	233.363	38.765	45.969	336.861	181.944	45.924	53.363	53.617	60.180	227.000	59.218	-8191	255	
1537.318	1	1	0	0	0.041519	0.10758	0.14308	0.24605	0.046013	0.22544	0.12911	0.22068	0.13297	0.22094	0.21045	0.19381	0.023105	0.055675	0.31809	0.13746	-2.625	-2.1917	-2.8083	-3.0875	-2.4375	-3.0229	-2.6792	-2.7687	-3.1354	-2.5167	-2.9167	-2.9396	-2.525	-3.2667	-2.5646	-2.6333	206.280	52.496	279.576	343.986	314.527	303.636	313.199	335.946	109.715	356.430	72.786	345.993	145.797	281.617	164.263	254.888	0.00025381	0.00050322	0.00011828	1248.8	1.0406e-05	1.4734e-05	1360.4	256.67	5.9819e-06	1.2357e-05	320.74	88.665	70.11	20.684	4.4069e-06	28.164	0.0012828	0.0015227	0.00042099	1278.5	1.4347e-05	1.7059e-05	1393.1	273.19	1.4936e-05	1.7157e-05	349.27	99.397	78.169	24.892	1.6285e-05	33.13	204.702	382.590	48.512	38.566	222.018	195.213	38.440	46.171	170.578	198.792	45.777	53.162	53.673	59.534	38.274	58.606	-8191	255	
1537.414	1	1	0	0	0.29506	0.13929	0.34654	0.14137	0.35212	0.14301	0.29519	0.13283	0.18563	0.10162	0.15667	0.19274	0.32897	0.30488	0.1022	0.24212	-2.7083	-2.5125	-2.7292	-2.9333	-2.3771	-3.0417	-2.9479	-2.7792	-2.9958	-2.6292	-2.8875	-3.05	-2.5792	-3.125	-2.8146	-2.3625	251.413	344.498	124.085	28.328	275.647	238.675	327.489	316.445	381.655	105.093	342.893	360.767	374.915	53.211	241.674	288.897	0.00029724	0.00095054	0.00031029	1255.5	2.3614e-06	8.9296e-06	1368.6	256.36	3.8099e-06	3.9794e-06	321.76	88.817	69.731	20.512	7.466e-06	28.422	0.0013304	0.0015897	0.0003981	1281.2	1.5185e-05	1.7148e-05	1392.1	272.34	1.5575e-05	1.7197e-05	348.08	99.041	78.571	24.729	1.5254e-05	32.936	191.466	73.175	387.017	38.219	257.764	77.231	38.630	45.837	234.359	40.412	45.538	52.729	53.067	58.831	103.610	59.398	-8191	255	
1537.510	1	1	0	0	0.085736	0.079859	0.23274	0.23533	0.1388	0.092307	0.18957	0.24793	0.066525	0.11478	0.11311	0.18034	0.24305	0.24884	0.14363	0.028856	-2.8917	-2.4792	-2.6792	-3.35	-2.4271	-2.9958	-3.125	-2.6437	-3.1292	-2.7021	-2.7667	-3.2938	-2.4833	-2.9792	-2.8104	-2.5771	51.636	102.814	117.914	378.078	130.590	169.818	362.623	373.582	328.813	305.197	200.705	225.944	48.334	341.381	151.458	293.080	0.00026528	0.0001738	0.00015823	1257	1.1089e-05	1.93e-05	1362.6	258.55	8.7892e-06	3.4314e-06	322.52	88.84	69.881	20.526	9.7181e-06	28.335	0.0013747	0.0015003	0.00036932	1278.7	1.5716e-05	1.6027e-05	1386.4	272.34	1.6204e-05	1.6126e-05	345.84	99.068	79.565	24.442	1.4594e-05	32.934	192.240	65.813	102.269	38.394	233.117	60.335	38.330	45.829	223.676	135.929	45.496	52.607	52.926	59.558	167.738	59.268	-8191	255	
1537.607	1	1	0	0	0.16558	0.10907	0.38252	0.24052	0.16326	0.12597	0.26197	0.11976	0.030882	0.035986	0.32795	0.068717	0.21515	0.21393	0.13384	0.12998	-2.65	-2.6792	-2.5479	-3.1854	-2.3125	-2.7896	-3.0375	-2.5833	-3.1562	-2.7938	-2.65	-3.2979	-2.5812	-2.9313	-3.0333	-2.2729	97.924	202.077	287.289	47.967	356.217	38.768	316.074	252.061	115.746	382.113	292.835	146.539	344.032	369.482	154.591	241.379	0.00024794	0.00053906	5.5735e-05	1252.1	1.1078e-05	5.3589e-06	1362.8	257.5	3.6117e-06	2.0052e-06	322.7	88.821	70.29	20.468	2.8007e-06	28.503	0.0014181	0.0014172	0.00035563	1277.7	1.6064e-05	1.485e-05	1383.4	272.41	1.6047e-05	1.4856e-05	343.63	98.747	79.475	24.079	1.3803e-05	33.126	221.758	360.544	286.045	38.203	209.387	261.942	38.482	45.860	246.182	50.100	45.418	52.561	52.837	59.235	150.194	59.428	-8191	255	
1537.703	1	1	0	0	0.098808	0.14483	0.11287	0.18447	0.15729	0.058279	0.50361	0.36404	0.19133	0.29714	0.36166	0.23073	0.3969	0.082013	0.17158	0.096025	-2.6813	-2.5604	-2.2979	-3.1396	-2.3625	-2.6104	-3.2208	-2.5479	-3.0417	-2.9437	-2.6292	-3.0458	-2.6542	-2.6625	-3.1813	-2.4688	229.727	58.479	144.608	378.842	109.308	157.789	330.283	312.739	323.424	51.867	258.070	370.984	34.013	345.370	170.512	252.627	7.5581e-05	0.00040745	6.8118e-05	1253.7	6.9533e-06	2.7687e-06	1364.3	257.9	1.9046e-06	4.3873e-06	322.99	89.688	70.326	20.638	6.6274e-07	28.769	0.0013832	0.0013189	0.00033769	1280.7	1.5876e-05	1.3965e-05	1380.8	274.14	1.5462e-05	1.4283e-05	343.3	100.18	79.608	24.084	1.3649e-05	33.766	229.637	80.500	283.084	38.577	160.141	209.986	38.671	45.955	263.720	226.402	45.765	53.154	52.870	59.617	133.582	59.461	-8191	255	
1537.799	1	1	0	0	0.21476	0.18145	0.1555	0.2254	0.067976	0.11499	0.35612	0.16689	0.11873	0.032809	0.17328	0.2362	0.24073	0.14899	0.12469	0.18205	-2.65	-2.8896	-2.2542	-3.3187	-2.4583	-2.775	-3.3625	-2.5417	-2.9104	-3.0312	-2.4938	-3.1542	-2.7562	-2.5458	-3.0125	-2.7042	311.384	126.013	258.004	37.411	338.293	151.732	317.988	211.930	87.504	241.619	310.587	350.411	338.532	274.348	278.918	46.024	0.00013325	0.0002837	0.00010205	1256.5	8.6444e-06	3.2817e-06	1364.7	258.46	3.1494e-06	2.147e-06	324.04	89.492	70.062	20.636	3.6093e-06	28.489	0.0013604	0.0013017	0.00034179	1286.9	1.5446e-05	1.3822e-05	1384.4	276.36	1.484e-05	1.4056e-05	344.43	101.02	79.066	23.946	1.4042e-05	33.949	183.083	319.857	320.464	38.751	162.222	200.017	39.004	46.318	222.185	347.465	46.133	53.558	53.510	60.166	179.305	58.706	-8191	255	
1537.918	1	1	0	0	0.30347	0.10254	0.12949	0.1099	0.19719	0.24487	0.19528	0.086553	0.11743	0.28937	0.25657	0.30332	0.18116	0.30141	0.17297	0.10098	-2.4	-3.0208	-2.4875	-3.1813	-2.8	-2.5375	-3.3958	-2.6708	-2.8458	-2.975	-2.5729	-3.0604	-2.8021	-2.5938	-3.0958	-2.7625	220.159	209.380	176.726	125.097	265.614	29.933	325.019	258.456	244.385	191.423	298.122	154.544	35.380	229.330	230.143	43.093	0.00012659	0.00033802	0.00026136	1260	6.7071e-07	2.183e-06	1362.6	258.84	4.1668e-06	8.4698e-06	322.52	89.779	70.472	20.747	1.3243e-05	28.58	0.001283	0.0012739	0.00035825	1291.6	1.4709e-05	1.3568e-05	1389.2	276.77	1.4358e-05	1.3743e-05	347.66	101.08	78.779	24.009	1.5199e-05	34.073	223.030	229.730	122.945	38.195	312.270	264.942	38.355	45.684	37.951	255.224	45.691	52.684	52.744	59.712	197.344	59.513	-8191	255	
1538.014	1	1	0	0	0.32671	0.028504	0.14509	0.28908	0.1097	0.17213	0.14052	0.33193	0.17219	0.14771	0.17752	0.013737	0.29883	0.052513	0.11972	0.19229	-2.4437	-2.9604	-2.5187	-3.0938	-2.8083	-2.525	-3.4021	-2.6688	-2.5833	-3.0125	-2.5896	-3.1688	-3.0917	-2.4542	-3.125	-2.5792	131.215	232.470	362.111	317.516	159.987	308.284	303.910	366.795	92.686	45.949	326.486	115.207	370.729	178.835	296.492	144.991	0.00021903	0.00038316	0.00033595	1259.7	4.4039e-06	1.1339e-05	1366.5	258.92	3.1903e-06	1.0282e-05	323.89	89.389	70.577	20.793	5.9073e-06	28.686	0.0012652	0.0012704	0.0003895	1289.6	1.4539e-05	1.335e-05	1393.4	276.27	1.3822e-05	1.3587e-05	349.77	100.25	78.298	23.913	1.554e-05	33.641	214.000	111.395	166.503	38.469	210.439	320.501	38.781	46.184	265.538	205.881	46.020	53.055	53.621	60.187	208.535	58.760	-8191	255	
1538.110	1	1	0	0	0.082444	0.071376	0.094676	0.37594	0.38245	0.094633	0.11514	0.12525	0.024377	0.25961	0.25475	0.073126	0.21485	0.31877	0.23924	0.053236	-2.2292	-3.0312	-2.35	-2.9167	-2.775	-2.4896	-3.2104	-2.6521	-2.5625	-3	-2.575	-2.9167	-3.0542	-2.4646	-2.8958	-2.825	319.473	356.251	304.046	367.771	48.349	377.414	317.052	314.758	363.788	193.899	308.712	368.964	156.774	359.668	103.357	29.576	0.00024946	0.00077918	0.0002652	1260.1	8.9245e-06	9.8039e-06	1369.3	257.76	2.8197e-06	1.3125e-05	322.98	89.815	70.635	20.771	6.4271e-06	28.844	0.0011741	0.0012446	0.00040114	1284.5	1.3855e-05	1.3512e-05	1397.1	274.13	1.3205e-05	1.373e-05	350.34	99.507	77.882	24.084	1.5483e-05	33.304	224.395	124.340	130.445	38.369	129.664	283.709	38.551	45.964	29.777	180.932	45.464	52.473	52.800	59.230	193.536	59.042	-8191	255	
1538.182	1	1	0	0	0.11717	0.31123	0.21259	0.21625	0.24546	0.031902	0.25096	0.072459	0.070625	0.13345	0.11776	0.15492	0.084257	0.21347	0.21098	0.088294	-2.1021	-3.1708	-2.4521	-2.9854	-3.0083	-2.4583	-3.15	-3.0125	-2.5646	-3.0729	-2.6063	-2.8937	-3.1667	-2.3812	-3.0604	-2.8792	120.926	138.801	231.762	333.010	377.540	335.603	384.351	320.316	202.179	126.267	47.298	383.767	293.571	354.797	50.849	177.421	0.00011559	0.0011984	0.00032524	1257.7	3.2497e-06	8.0061e-06	1370	258.79	3.3353e-06	1.3816e-05	323.67	90.068	70.496	20.804	4.1453e-06	28.816	0.0011216	0.0012676	0.00039084	1278.6	1.2917e-05	1.389e-05	1392.2	273.01	1.246e-05	1.4297e-05	348.87	98.821	77.643	24.392	1.4931e-05	33.122	215.557	90.288	185.664	38.218	30.596	142.058	38.864	46.260	108.777	203.577	45.786	53.141	53.188	59.493	108.517	59.807	-8191	255	
1538.302	1	1	0	0	0.12879	0.076314	0.055675	0.28969	0.089736	0.29153	0.17282	0.35051	0.060892	0.022773	0.066538	0.16875	0.11458	0.075949	0.33316	0.075425	-2.0687	-3.1521	-2.5563	-2.8438	-3.1771	-2.375	-3.0958	-3.0938	-2.3771	-3.1458	-2.6854	-2.4583	-3.0917	-2.5917	-2.8063	-3.0438	111.358	78.258	284.701	41.725	177.947	171.889	340.477	311.057	190.893	182.443	35.084	240.303	72.401	386.890	289.731	31.485	0.00021207	0.00033286	0.00039216	1258.4	1.2119e-05	6.7445e-06	1370.4	258.99	7.4074e-06	4.9568e-06	324.51	89.246	70.567	20.845	4.0766e-06	28.712	0.0011196	0.0013606	0.00037864	1276.6	1.3086e-05	1.4975e-05	1388.9	273	1.279e-05	1.512e-05	348.31	98.249	77.81	24.587	1.4068e-05	32.921	210.124	140.727	367.206	38.543	249.271	191.793	38.586	46.268	149.469	253.897	45.735	52.928	53.301	59.757	223.514	58.597	-8191	255	
1538.399	1	1	0	0	0.05041	0.20047	0.19853	0.27833	0.076155	0.17238	0.383	0.087856	0.25937	0.17554	0.2831	0.17633	0.10816	0.14582	0.048125	0.077603	-1.9917	-3.0208	-2.5958	-2.6771	-3.0167	-2.3896	-3.0417	-2.8812	-2.3583	-3.125	-2.6312	-2.5854	-3.0583	-2.65	-2.7625	-3.1646	127.909	286.684	132.740	386.295	263.586	242.872	328.244	44.404	297.993	119.246	380.342	44.480	246.735	259.911	56.473	244.630	0.00018155	0.00031461	0.00027536	1259.3	4.7334e-06	2.7486e-06	1366.5	257.56	3.3056e-06	5.9649e-06	323.18	89.574	70.277	20.767	2.3858e-06	28.806	0.0011457	0.0013935	0.00036046	1275.4	1.3587e-05	1.533e-05	1384.1	272.19	1.3736e-05	1.5278e-05	345.66	98.088	78.306	24.491	1.3531e-05	32.866	203.137	125.939	236.422	37.935	243.362	144.183	38.043	45.597	264.565	119.353	45.131	52.693	52.559	59.403	88.098	59.033	-8191	255	
1538.495	1	1	0	0	0.14381	0.22311	0.15041	0.38346	0.1698	0.35392	0.23015	0.18795	0.22023	0.20171	0.13647	0.12016	0.15516	0.14222	0.14753	0.09741	-1.9438	-3.0833	-2.8	-2.6708	-3.0146	-2.5312	-2.8896	-3.0792	-2.4354	-2.9958	-2.8146	-2.4542	-3.1833	-2.5396	-2.5854	-2.9708	43.506	165.989	271.648	384.043	223.983	338.425	286.794	374.751	245.721	119.860	329.067	124.613	171.438	56.648	196.555	340.595	0.00024005	0.00089651	6.1507e-05	1257.1	8.4071e-06	4.8943e-06	1361.6	258.71	1.9175e-06	6.4296e-07	324.21	89.429	70.738	20.818	5.7475e-06	28.738	0.0012307	0.0013533	0.00034627	1272.7	1.448e-05	1.4857e-05	1381.7	272.09	1.4508e-05	1.4563e-05	344.71	97.966	79.058	24.391	1.3116e-05	32.822	194.345	306.320	58.528	38.120	231.470	318.236	38.322	45.682	257.395	224.839	45.446	52.756	53.161	59.743	308.094	59.837	-8191	255	
1538.591	1	1	0	0	0.27417	0.22033	0.10893	0.30781	0.18426	0.10666	0.18265	0.39885	0.24709	0.11173	0.15002	0.37568	0.237	0.25753	0.094134	0.18516	-2.1917	-2.9729	-2.8042	-2.6292	-2.9625	-2.7438	-2.575	-3.1063	-2.5021	-2.825	-3.0667	-2.5	-3.0833	-2.6813	-2.4708	-3.175	238.437	249.350	324.865	364.809	147.912	65.399	43.605	382.179	150.050	123.929	322.479	372.752	332.720	54.766	285.988	44.041	0.00015282	0.00040118	3.9806e-05	1255	6.2414e-06	3.8806e-06	1365.7	258.09	7.1489e-06	6.0432e-06	320.43	89.521	70.393	20.757	8.775e-06	28.44	0.0013071	0.0013038	0.00034277	1273.7	1.5211e-05	1.4309e-05	1380	272.59	1.5315e-05	1.3909e-05	343.49	98.629	79.342	24.209	1.2968e-05	33.215	203.974	311.795	232.049	38.662	121.512	124.318	38.589	46.144	206.071	384.430	45.775	53.357	53.382	59.599	234.648	58.571	-8191	255	
1538.711	1	1	0	0	0.11723	0.057849	0.18602	0.17377	0.05005	0.2274	0.21065	0.29121	0.13642	0.19352	0.091543	0.3018	0.105	0.16752	0.11748	0.28626	-2.0667	-2.8021	-2.8667	-2.6542	-2.85	-2.7396	-2.6146	-3.1458	-2.5958	-2.8583	-3.1083	-2.6479	-3.0687	-2.7979	-2.5563	-3.0958	97.420	189.936	381.370	304.824	43.309	61.406	363.329	376.747	278.971	344.120	337.359	378.479	336.373	135.334	128.961	92.143	0.00023849	0.00074117	0.00026872	1257.1	6.0148e-06	3.5164e-06	1369.5	257.89	2.342e-06	1.4844e-05	323.37	89.835	70.782	20.792	9.3654e-06	28.485	0.0013492	0.0012496	0.00033301	1277.9	1.4981e-05	1.3507e-05	1377	273.02	1.4825e-05	1.3127e-05	343.26	99.28	78.965	24.027	1.2529e-05	33.426	203.725	64.940	257.687	37.884	96.912	150.019	38.250	46.012	46.250	176.398	45.389	52.896	52.794	59.236	228.744	59.825	-8191	255	
1538.783	1	1	0	0	0.16854	0.063462	0.18328	0.11087	0.17475	0.16058	0.24793	0.067283	0.065946	0.059862	0.28952	0.08886	0.1497	0.11759	0.11489	0.15505	-2.3521	-2.7271	-3.0271	-2.5646	-3.1354	-3.0042	-2.6542	-3.0354	-2.7542	-2.725	-3.0167	-2.5167	-3.0771	-3.0062	-2.4854	-3.2479	264.916	50.623	314.041	52.744	122.262	119.357	358.620	38.712	30.883	324.145	344.234	182.923	341.988	99.873	92.118	233.244	0.00023009	0.0005392	0.00018468	1254.8	1.1368e-05	2.7608e-06	1366.5	260.31	4.8741e-06	4.7394e-06	325.55	90.308	70.488	20.779	1.9638e-05	28.751	0.0013052	0.0012061	0.00033493	1283.9	1.4636e-05	1.3577e-05	1379.3	275.57	1.4535e-05	1.3036e-05	343.41	100.43	78.501	23.944	1.3159e-05	33.705	205.540	363.187	123.628	38.237	260.595	108.523	38.616	46.073	177.686	162.699	45.467	52.697	52.803	59.343	191.284	58.544	-8191	255	
1538.902	1	1	0	0	0.33064	0.046769	0.076067	0.14031	0.3482	0.08197	0.20687	0.41602	0.11876	0.092263	0.41269	0.13156	0.12264	0.17786	0.040098	0.33301	-2.3667	-2.5708	-3.1292	-2.6146	-2.8354	-2.9396	-2.6646	-3.2125	-2.8021	-2.4813	-3.2062	-2.5771	-2.6917	-3.1437	-2.3396	-3.1437	105.110	272.807	90.671	336.795	306.467	158.686	251.131	349.527	147.342	228.886	307.226	98.702	333.824	83.740	200.173	340.411	0.00021411	0.00057458	8.8588e-05	1261.6	6.6008e-06	3.3825e-06	1364.6	260	3.6495e-06	9.6717e-06	324.09	89.44	70.492	20.802	1.8973e-06	28.476	0.0012387	0.0011763	0.00034574	1287.2	1.3697e-05	1.3113e-05	1384.4	275.4	1.3787e-05	1.251e-05	345.89	100.16	77.86	23.893	1.3893e-05	33.536	218.099	276.391	284.731	38.496	166.101	282.611	38.499	45.976	107.299	203.145	45.806	52.955	52.806	59.542	140.223	57.532	-8191	255	
1538.998	1	1	0	0	0.20882	0.16608	0.13175	0.23819	0.16487	0.10124	0.33512	0.25187	0.10793	0.18789	0.18094	0.22655	0.1524	0.10437	0.23341	0.045295	-2.3312	-2.4188	-3.0563	-2.75	-2.7562	-3.0542	-2.6208	-3.0979	-2.8417	-2.5354	-3.2521	-2.7083	-2.5958	-3.1479	-2.4917	-3.0104	43.532	148.941	101.985	367.628	252.615	224.596	353.840	262.039	231.274	117.440	253.663	50.242	79.858	49.688	166.744	165.916	0.00028664	0.00045682	0.00030362	1256.9	7.719e-06	1.609e-05	1362.3	258.95	1.2538e-06	1.2245e-05	323.5	90.14	70.502	20.757	3.5239e-06	28.575	0.0011917	0.001135	0.00036298	1283.6	1.3169e-05	1.27e-05	1386.5	274.69	1.3447e-05	1.2502e-05	348.63	100.1	77.596	23.903	1.4817e-05	33.317	199.562	60.330	77.321	37.159	385.196	222.864	37.638	45.253	38.693	233.312	45.342	52.408	52.160	58.899	260.470	58.267	-8191	255	
1539.094	1	1	0	0	0.33044	0.14054	0.12949	0.20303	0.14755	0.096656	0.15115	0.17523	0.093984	0.24703	0.18818	0.078784	0.13186	0.064541	0.16574	0.2271	-2.6833	-2.4146	-3.0604	-2.8042	-2.7604	-3.1292	-2.6833	-3.0271	-2.8646	-2.3438	-3.2021	-2.6	-2.6521	-3.1354	-2.5625	-2.9938	98.821	158.710	288.918	60.590	348.736	159.518	33.354	222.142	71.673	266.515	321.179	78.798	127.190	332.501	288.175	199.102	0.00014312	0.00095555	0.00029295	1258.6	1.5413e-05	6.262e-06	1366.5	258.07	3.9559e-06	1.06e-05	322.26	89.867	70.442	20.63	7.2164e-06	28.727	0.0011575	0.0011628	0.00038019	1281.4	1.2675e-05	1.3055e-05	1389.5	272.6	1.3032e-05	1.3071e-05	349.09	99.373	77.495	24.036	1.5458e-05	33.107	168.979	81.605	91.299	37.879	151.070	191.565	38.016	45.386	197.349	176.390	45.026	52.124	52.249	59.168	222.517	58.973	-8191	255	
1539.190	1	1	0	0	0.23744	0.10174	0.16883	0.093892	0.25681	0.057961	0.11345	0.29849	0.18739	0.2178	0.15085	0.086251	0.031488	0.16023	0.35007	0.18188	-2.5917	-2.3021	-3.0938	-3	-2.4167	-3.2104	-2.9167	-2.6875	-3.1646	-2.4188	-3.0917	-3.0167	-2.4167	-3.1188	-2.5333	-2.7146	367.018	319.085	53.277	137.302	55.546	254.104	365.173	375.387	263.412	251.437	286.177	28.994	314.340	56.381	137.601	121.665	0.00024302	0.00092853	4.3788e-05	1257.1	1.8275e-06	6.2544e-06	1365.1	257	2.9561e-06	8.3449e-06	323.03	88.533	70.135	20.704	6.4203e-06	28.623	0.0011572	0.0012526	0.00038744	1279.7	1.2627e-05	1.4039e-05	1390.6	272.05	1.2988e-05	1.4045e-05	347.86	98.595	77.075	24.28	1.4827e-05	32.896	198.479	130.375	163.850	37.908	215.546	236.829	37.993	45.547	119.048	192.348	45.372	52.614	52.845	59.497	69.963	58.690	-8191	255	
#DATA ENDS
