BOXY.EXE: ISS Imagent and Oximeter Data Acquisition Program Version 0.80
Ascii Record File

#ACQ INFORMATION
2  Detector Channels 
16  External MUX Channels 
1  Auxiliary Channels 
5000  Waveform (CCF) Frequency (Hz)
1  Waveforms Skipped 
30  Waveforms Averaged 
1  Cycles Averaged 
16  Acquisitions per Waveform 
10.0806  Updata Rate (Hz) 

#FILE INFORMATION
TRUE -- External MUX Channel results are PARSED.
FALSE -- AC DC and Phase are NOT grouped.
TRUE -- Companion Program Settings File CREATED.
FALSE -- AC data not excluded
FALSE -- DC data not excluded
FALSE -- Phase data not excluded
FALSE -- Auxillary Chn. data not excluded
Tab delimiters

#CALIBRATION STATE
TRUE -- Waveform Calibration Values APPLIED.


#AUX CALIBRATION VALUES
Val Type	aux-1	

Term	1.0000e+00	
Factor	0.0000e+00	


#WF CALIBRATION VALUES
A = Detector Channel
Val Type	A-AC1	A-AC2	A-AC3	A-AC4	A-AC5	A-AC6	A-AC7	A-AC8	A-AC9	A-AC10	A-AC11	A-AC12	A-AC13	A-AC14	A-AC15	A-AC16	A-DC1	A-DC2	A-DC3	A-DC4	A-DC5	A-DC6	A-DC7	A-DC8	A-DC9	A-DC10	A-DC11	A-DC12	A-DC13	A-DC14	A-DC15	A-DC16	A-Ph1	A-Ph2	A-Ph3	A-Ph4	A-Ph5	A-Ph6	A-Ph7	A-Ph8	A-Ph9	A-Ph10	A-Ph11	A-Ph12	A-Ph13	A-Ph14	A-Ph15	A-Ph16	

Term	0.00000e+00	0.00000e+00	0.00000e+00	0.00000e+00	0.00000e+00	0.00000e+00	0.00000e+00	0.00000e+00	0.00000e+00	0.00000e+00	0.00000e+00	0.00000e+00	0.00000e+00	0.00000e+00	0.00000e+00	0.00000e+00	0.00000e+00	0.00000e+00	0.00000e+00	0.00000e+00	0.00000e+00	0.00000e+00	0.00000e+00	0.00000e+00	0.00000e+00	0.00000e+00	0.00000e+00	0.00000e+00	0.00000e+00	0.00000e+00	0.00000e+00	0.00000e+00	0.00000e+00	0.00000e+00	0.00000e+00	0.00000e+00	0.00000e+00	0.00000e+00	0.00000e+00	0.00000e+00	0.00000e+00	0.00000e+00	0.00000e+00	0.00000e+00	0.00000e+00	0.00000e+00	0.00000e+00	0.00000e+00	
Factor	1.00000e+00	1.00000e+00	1.00000e+00	1.00000e+00	1.00000e+00	1.00000e+00	1.00000e+00	1.00000e+00	1.00000e+00	1.00000e+00	1.00000e+00	1.00000e+00	1.00000e+00	1.00000e+00	1.00000e+00	1.00000e+00	1.00000e+00	1.00000e+00	1.00000e+00	1.00000e+00	1.00000e+00	1.00000e+00	1.00000e+00	1.00000e+00	1.00000e+00	1.00000e+00	1.00000e+00	1.00000e+00	1.00000e+00	1.00000e+00	1.00000e+00	1.00000e+00	X	X	X	X	X	X	X	X	X	X	X	X	X	X	X	X	

B = Detector Channel
Val Type	B-AC1	B-AC2	B-AC3	B-AC4	B-AC5	B-AC6	B-AC7	B-AC8	B-AC9	B-AC10	B-AC11	B-AC12	B-AC13	B-AC14	B-AC15	B-AC16	B-DC1	B-DC2	B-DC3	B-DC4	B-DC5	B-DC6	B-DC7	B-DC8	B-DC9	B-DC10	B-DC11	B-DC12	B-DC13	B-DC14	B-DC15	B-DC16	B-Ph1	B-Ph2	B-Ph3	B-Ph4	B-Ph5	B-Ph6	B-Ph7	B-Ph8	B-Ph9	B-Ph10	B-Ph11	B-Ph12	B-Ph13	B-Ph14	B-Ph15	B-Ph16	

Term	0.00000e+00	0.00000e+00	0.00000e+00	0.00000e+00	0.00000e+00	0.00000e+00	0.00000e+00	0.00000e+00	0.00000e+00	0.00000e+00	0.00000e+00	0.00000e+00	0.00000e+00	0.00000e+00	0.00000e+00	0.00000e+00	0.00000e+00	0.00000e+00	0.00000e+00	0.00000e+00	0.00000e+00	0.00000e+00	0.00000e+00	0.00000e+00	0.00000e+00	0.00000e+00	0.00000e+00	0.00000e+00	0.00000e+00	0.00000e+00	0.00000e+00	0.00000e+00	-7.23465e+01	-1.49617e+02	-1.26872e+02	-1.83762e+02	-5.18693e+01	-6.06153e+01	-1.58526e+02	-1.62015e+02	-4.81224e+01	-7.56965e+01	-1.70957e+02	-1.70833e+02	-1.76992e+02	-1.76825e+02	-4.67194e+01	-1.50028e+02	
Factor	1.63432e-05	1.10510e-04	3.48016e-05	1.52478e-01	1.22918e-06	1.22249e-06	1.63273e-01	5.15583e-02	9.18127e-07	1.18410e-06	8.55517e-02	2.92432e-02	2.25317e-02	9.04730e-03	1.05066e-06	1.29668e-02	1.38578e-06	1.45995e-06	4.07899e-07	7.71863e-02	1.59237e-08	1.59708e-08	7.76724e-02	2.61251e-02	1.59683e-08	1.59842e-08	4.15537e-02	1.42499e-02	1.15109e-02	4.55475e-03	1.60640e-08	6.29093e-03	X	X	X	X	X	X	X	X	X	X	X	X	X	X	X	X	



#DISTANCE SETTINGS
A = Detector Channel
A-1	A-2	A-3	A-4	A-5	A-6	A-7	A-8	A-9	A-10	A-11	A-12	A-13	A-14	A-15	A-16	

2.5000e+00	3.0000e+00	2.5000e+00	3.0000e+00	2.0000e+00	3.0000e+00	1.5000e+00	3.0000e+00	3.0000e+00	3.0000e+00	3.0000e+00	3.0000e+00	3.0000e+00	3.0000e+00	1.5000e+00	3.0000e+00	

B = Detector Channel
B-1	B-2	B-3	B-4	B-5	B-6	B-7	B-8	B-9	B-10	B-11	B-12	B-13	B-14	B-15	B-16	

1.0000e+01	1.0000e+01	1.0000e+01	1.4400e+00	1.0000e+01	1.0000e+01	1.5100e+00	1.9400e+00	1.0000e+01	1.0000e+01	1.9900e+00	2.4900e+00	2.4100e+00	2.9000e+00	1.0000e+01	2.9800e+00	




#DATA BEGINS
time	group	step	mark	flag	A-AC1	A-AC2	A-AC3	A-AC4	A-AC5	A-AC6	A-AC7	A-AC8	A-AC9	A-AC10	A-AC11	A-AC12	A-AC13	A-AC14	A-AC15	A-AC16	A-DC1	A-DC2	A-DC3	A-DC4	A-DC5	A-DC6	A-DC7	A-DC8	A-DC9	A-DC10	A-DC11	A-DC12	A-DC13	A-DC14	A-DC15	A-DC16	A-Ph1	A-Ph2	A-Ph3	A-Ph4	A-Ph5	A-Ph6	A-Ph7	A-Ph8	A-Ph9	A-Ph10	A-Ph11	A-Ph12	A-Ph13	A-Ph14	A-Ph15	A-Ph16	B-AC1	B-AC2	B-AC3	B-AC4	B-AC5	B-AC6	B-AC7	B-AC8	B-AC9	B-AC10	B-AC11	B-AC12	B-AC13	B-AC14	B-AC15	B-AC16	B-DC1	B-DC2	B-DC3	B-DC4	B-DC5	B-DC6	B-DC7	B-DC8	B-DC9	B-DC10	B-DC11	B-DC12	B-DC13	B-DC14	B-DC15	B-DC16	B-Ph1	B-Ph2	B-Ph3	B-Ph4	B-Ph5	B-Ph6	B-Ph7	B-Ph8	B-Ph9	B-Ph10	B-Ph11	B-Ph12	B-Ph13	B-Ph14	B-Ph15	B-Ph16	aux-1	digaux	

1485.507	1	1	0	256	0.18549	0.032846	0.26096	0.14041	0.12197	0.17137	0.48201	0.16219	0.13732	0.23819	0.25762	0.12039	0.11294	0.10008	0.15525	0.11222	-2.8187	-2.5771	-2.6583	-3.1375	-2.4958	-3.0708	-3.0375	-2.4938	-3.2083	-2.7667	-2.7646	-3.3333	-2.5729	-2.95	-2.9896	-2.5021	280.471	376.100	256.896	310.305	37.643	339.216	343.177	312.140	119.104	152.700	69.903	314.882	70.028	150.908	125.590	161.418	0.0002495	0.00084162	0.00020781	1172.7	4.7506e-06	4.5338e-06	1273.5	236.85	7.1832e-06	3.8575e-06	299.64	83.361	65.214	19.193	2.4863e-06	26.692	0.00068895	0.00076157	0.00019298	1165.1	7.8587e-06	8.3092e-06	1266.8	240.8	8.1738e-06	8.3143e-06	307.31	87.218	69.123	20.842	7.5991e-06	28.582	212.535	82.598	86.083	37.846	256.076	321.826	37.731	45.343	187.264	355.238	44.803	52.022	52.336	58.971	40.706	58.529	-8191	255	
1485.603	1	1	0	0	0.11931	0.15474	0.087375	0.12542	0.11612	0.28189	0.15363	0.10801	0.34476	0.21653	0.21354	0.15441	0.18493	0.10777	0.16069	0.11938	-2.8854	-2.375	-2.5292	-3.2854	-2.5021	-2.9042	-3.0875	-2.4479	-3.1312	-2.7313	-2.575	-3.1937	-2.6417	-2.8333	-3.0458	-2.5354	367.816	321.061	157.013	92.717	148.062	218.451	323.548	312.453	116.777	72.850	303.638	267.536	80.459	325.615	235.448	33.246	0.00020145	0.00014522	0.00020539	1176.7	6.8411e-06	4.5005e-06	1283.1	235.29	5.1841e-06	3.6723e-06	301.51	83.435	65.038	18.933	1.6177e-06	26.863	0.00072389	0.00074035	0.0001883	1167.2	8.3327e-06	8.0421e-06	1269.9	240.51	8.4244e-06	7.9493e-06	308.07	87.492	69.405	20.65	7.3599e-06	28.745	218.560	181.425	93.314	37.872	186.336	59.994	37.917	45.162	188.505	79.732	44.485	52.310	52.679	59.077	129.746	59.091	-8191	255	
1485.699	1	1	0	0	0.077697	0.2305	0.10173	0.21171	0.27585	0.093855	0.31173	0.21043	0.27024	0.15684	0.14859	0.065336	0.29703	0.20548	0.033575	0.11714	-2.7229	-2.7875	-2.5958	-3.2229	-2.4292	-2.7958	-3.275	-2.5646	-2.9458	-2.75	-2.4313	-3.2	-2.6708	-2.8479	-3.1813	-2.6792	343.593	387.124	35.398	321.961	347.705	331.236	321.188	341.014	308.833	270.476	246.049	175.483	36.702	356.639	142.629	150.222	0.00017553	0.00045854	0.00024519	1173.6	3.5917e-06	2.685e-06	1274.4	236.65	6.4835e-06	9.7442e-06	300.84	83.891	65.376	19.204	3.6704e-06	26.406	0.00073979	0.00070543	0.0001821	1168.7	8.348e-06	7.6617e-06	1267.3	241.43	8.3363e-06	7.6411e-06	307.22	88.039	69.262	20.641	7.2349e-06	28.893	211.085	278.676	71.454	37.701	367.857	108.890	37.798	45.439	129.837	183.764	44.792	52.571	53.116	59.266	85.314	59.234	-8191	255	
1485.820	1	1	0	0	0.15345	0.063626	0.12258	0.13492	0.057988	0.099714	0.30789	0.1976	0.075395	0.22195	0.18862	0.31638	0.16081	0.17657	0.20815	0.24269	-2.7104	-2.8958	-2.5521	-3.4708	-2.6	-2.7083	-3.3854	-2.475	-3.0271	-3	-2.5625	-3.1354	-2.7938	-2.7271	-3.2313	-2.6833	201.283	235.977	263.969	297.770	356.294	313.266	329.713	91.975	346.837	74.973	143.974	358.508	211.694	319.707	307.703	43.664	0.00017586	0.00027844	8.2574e-05	1178.7	4.7133e-06	3.2751e-06	1283.1	236.74	2.1859e-06	3.789e-06	302.77	83.652	65.341	19.074	3.6265e-06	26.87	0.0007125	0.00068132	0.00017803	1171.2	7.9242e-06	7.1906e-06	1266.6	242.29	7.7397e-06	7.1695e-06	306.72	88.076	68.848	20.453	6.9829e-06	28.977	196.439	337.669	381.643	38.025	58.482	104.929	37.931	45.303	104.996	140.105	45.072	52.745	52.689	59.804	239.876	59.043	-8191	255	
1485.916	1	1	0	0	0.29867	0.1537	0.099212	0.22995	0.12033	0.11862	0.34435	0.40669	0.17341	0.079944	0.21159	0.15845	0.28251	0.28898	0.13118	0.18313	-2.4896	-2.7854	-2.4667	-3.2479	-2.7521	-2.5625	-3.3521	-2.6562	-2.6646	-3.2229	-2.4208	-3.0729	-2.8146	-2.5958	-3.2188	-2.6771	143.492	91.217	146.632	333.240	185.161	55.249	335.979	367.720	273.499	300.302	321.597	319.629	87.941	298.996	181.098	103.764	0.00014584	0.00033394	0.0001226	1175.6	5.2817e-06	4.7431e-06	1277	235.24	1.2564e-06	1.5332e-06	302.91	83.819	65.454	18.921	5.7075e-06	26.617	0.00065476	0.00064627	0.00017704	1170	7.4255e-06	6.8864e-06	1265.4	241.58	7.4153e-06	6.9997e-06	307.69	88.031	68.647	20.36	7.4072e-06	28.946	212.447	122.239	110.049	37.757	199.791	49.838	38.262	45.376	195.824	117.917	45.240	51.791	52.106	58.718	213.845	58.621	-8191	255	
1486.012	1	1	0	0	0.1278	0.17901	0.16277	0.11943	0.058502	0.2476	0.32291	0.17029	0.13462	0.077596	0.089293	0.29937	0.2196	0.15171	0.12888	0.30881	-2.3688	-3.0312	-2.3375	-3.3063	-2.9	-2.5604	-3.4208	-2.8688	-2.8958	-3.2208	-2.55	-3.1146	-2.9146	-2.5917	-3.0563	-2.7396	310.846	67.464	305.038	370.202	226.349	151.522	289.802	363.128	315.215	314.824	200.858	299.576	109.276	361.566	113.572	89.348	0.00019762	0.00027142	0.00011873	1174.9	7.8921e-06	6.5377e-06	1272.9	236.33	2.8869e-06	3.4295e-06	302	84.312	65.476	19.056	5.1107e-06	26.675	0.00063891	0.0006387	0.00019203	1171.1	7.3701e-06	6.8934e-06	1265.6	241.77	7.3026e-06	7.0112e-06	308.66	88.15	68.736	20.456	8.0807e-06	28.873	183.332	203.305	191.778	38.010	201.539	104.749	38.158	45.698	339.446	180.557	45.164	52.649	52.363	59.122	238.758	59.037	-8191	255	
1486.109	1	1	0	0	0.08165	0.20597	0.051118	0.2801	0.28644	0.090704	0.10957	0.1591	0.20108	0.05965	0.22478	0.16133	0.25488	0.23083	0.12925	0.039548	-2.1771	-2.9958	-2.4417	-3.1208	-2.9771	-2.7313	-3.4083	-2.8042	-2.6437	-3.2104	-2.6042	-2.9813	-3.1875	-2.6063	-3.2708	-2.8146	117.509	216.780	324.973	336.972	82.597	129.518	266.165	37.049	373.317	267.650	350.719	264.226	282.663	272.250	71.862	68.853	0.0001576	0.00016259	3.0351e-05	1171.7	7.4765e-06	4.431e-06	1280.8	235.91	6.2691e-06	5.5205e-06	300.85	83.772	65.172	18.99	6.8937e-06	26.706	0.00064253	0.00064773	0.0002063	1168.7	7.3162e-06	6.9968e-06	1272.2	241.25	7.1124e-06	7.2133e-06	309.98	87.736	68.462	20.538	8.2403e-06	28.811	201.370	282.373	203.166	37.642	152.084	209.638	37.435	45.007	166.925	200.191	44.734	51.823	52.278	59.276	207.099	58.594	-8191	255	
1486.205	1	1	0	0	0.15612	0.25168	0.18589	0.099326	0.13926	0.293	0.25046	0.29272	0.24948	0.085716	0.12782	0.058795	0.010048	0.10572	0.12071	0.031783	-2.0542	-3.0542	-2.4333	-3.0604	-2.9333	-2.4792	-3.4938	-2.8667	-2.6021	-3.325	-2.7354	-2.9125	-3.3146	-2.6208	-3.1958	-2.9667	360.357	267.847	313.015	371.714	238.237	160.293	273.306	35.917	286.564	126.833	106.962	345.808	57.757	380.007	302.442	369.105	0.00016935	0.00079814	0.00019133	1176.8	2.661e-06	7.1504e-06	1279.6	235.56	4.888e-07	8.2798e-06	302.22	83.395	65.637	19.136	4.695e-06	26.776	0.0006202	0.00067134	0.0002086	1169.7	7.129e-06	7.4396e-06	1273.3	241.21	7.026e-06	7.6491e-06	309.82	87.515	68.544	20.741	8.1497e-06	28.724	199.511	114.418	133.854	37.430	257.069	197.549	37.861	45.108	232.735	144.680	44.720	51.951	52.391	59.343	98.088	58.258	-8191	255	
1486.299	1	1	0	0	0.20773	0.13266	0.19856	0.12909	0.060355	0.26575	0.20651	0.068713	0.10726	0.18591	0.30042	0.29174	0.1124	0.06245	0.12293	0.18232	-2.1958	-3.0479	-2.55	-2.9271	-3.0563	-2.5167	-3.1562	-3.1208	-2.5312	-3.2	-2.7417	-2.7042	-3.2625	-2.5438	-3.0042	-3.05	159.793	227.151	309.488	311.778	284.847	160.720	31.442	72.646	130.590	120.146	352.828	299.321	129.850	148.834	235.171	64.886	0.0002432	0.00064905	0.0002858	1177.7	5.1665e-06	1.1005e-05	1279.1	236.12	3.77e-06	4.4367e-06	301.71	83.514	65.734	18.994	2.8271e-06	26.525	0.00061572	0.00071646	0.00020769	1167.2	7.0983e-06	7.9186e-06	1271.4	240.82	7.0144e-06	8.0286e-06	309.54	87.239	68.409	20.778	7.832e-06	28.625	194.209	172.962	32.385	37.400	196.393	169.300	37.626	45.344	134.404	131.976	45.181	52.102	52.615	59.341	331.541	58.439	-8191	255	
1486.395	1	1	0	0	0.2564	0.14539	0.15774	0.3022	0.15388	0.20041	0.19128	0.058236	0.37672	0.074772	0.28676	0.15913	0.080527	0.15155	0.019881	0.10828	-1.9188	-3.025	-2.7438	-2.8729	-3.2667	-2.5208	-2.95	-3.0625	-2.5833	-3.0833	-2.8688	-2.3875	-3.3375	-2.7313	-2.7854	-3.075	204.590	361.301	178.392	352.488	339.046	251.190	329.545	304.042	293.571	277.587	351.360	284.841	45.636	128.758	140.861	185.471	0.00023671	0.00040573	4.7694e-05	1173.2	4.161e-06	1.0744e-05	1281	235.36	4.2615e-06	7.5517e-06	302.09	83.491	65.483	19.132	1.0381e-06	26.892	0.00062711	0.00075238	0.00020019	1167.2	7.3757e-06	8.2348e-06	1271.5	240.52	7.3399e-06	8.3929e-06	309.55	87.275	68.779	20.976	7.8148e-06	28.761	226.583	74.199	356.166	37.623	117.027	216.387	37.695	45.450	241.366	164.497	44.832	52.066	52.436	59.297	263.145	58.646	-8191	255	
1486.491	1	1	0	0	0.14418	0.068156	0.14244	0.10013	0.22343	0.24521	0.1367	0.25725	0.078723	0.040777	0.2404	0.21546	0.21652	0.097545	0.15568	0.079628	-2.1792	-3.1354	-2.7875	-2.7104	-3.2604	-2.6708	-3.0271	-3.1875	-2.3396	-3.1125	-3.0917	-2.5708	-3.2833	-2.5875	-2.6167	-3.2625	114.515	86.920	55.656	300.377	288.448	65.284	359.934	312.900	304.446	386.537	339.425	239.201	118.647	262.337	42.217	54.998	0.00024259	0.00072334	3.6237e-05	1177	6.5976e-06	4.6662e-06	1281.9	237.21	1.2539e-05	5.2352e-06	300.52	83.466	65.756	19.149	3.7826e-06	26.816	0.00068085	0.00078276	0.00020033	1171.8	8.136e-06	8.5475e-06	1275.2	241.84	8.0656e-06	8.4196e-06	309.72	87.533	69.644	20.962	7.5645e-06	28.804	201.984	127.188	53.599	37.463	207.586	157.739	37.831	45.541	235.846	374.955	45.134	52.372	52.671	59.146	158.957	58.781	-8191	255	
1486.612	1	1	0	0	0.14361	0.12441	0.031978	0.35055	0.30104	0.16019	0.25506	0.067279	0.26856	0.10558	0.081535	0.12052	0.13466	0.25284	0.053761	0.15004	-1.9521	-2.9333	-2.8292	-2.7	-3.1937	-2.6479	-2.8375	-3.2542	-2.4708	-3.1063	-3.2438	-2.6813	-3.0208	-2.7125	-2.5667	-3.1104	319.324	335.041	176.913	349.725	242.255	361.512	287.134	343.404	296.882	313.991	144.041	147.690	269.150	370.937	120.971	367.502	0.0002236	0.00035719	0.0002073	1179.4	1.4807e-06	6.518e-06	1284.2	237.8	7.0178e-06	8.608e-07	304.9	84.141	65.649	19.027	2.8746e-06	26.787	0.00072208	0.00074211	0.00019209	1173.3	8.2875e-06	8.0578e-06	1275.1	242.54	8.3441e-06	7.9368e-06	309.69	87.835	69.778	20.864	7.3271e-06	28.835	194.743	378.643	132.857	37.614	241.000	117.494	38.167	45.802	206.700	65.833	44.677	52.249	52.613	59.549	158.869	58.579	-8191	255	
1486.684	1	1	0	0	0.10981	0.14748	0.20916	0.22299	0.11836	0.15295	0.23351	0.32019	0.0073396	0.036376	0.21284	0.24491	0.14419	0.072419	0.2134	0.045917	-2.15	-2.8875	-2.8833	-2.65	-3.2208	-2.8688	-2.6896	-3.4146	-2.5812	-2.8917	-3.2396	-2.5708	-3.2167	-2.9958	-2.6396	-3.1625	370.490	103.280	384.391	362.577	223.753	304.150	353.900	360.078	304.455	69.317	331.529	336.611	213.354	354.350	192.346	379.744	0.0001907	0.00029262	0.00021817	1186.3	3.0435e-06	3.0473e-06	1288.2	238.09	9.7657e-07	4.5367e-06	302.79	84.353	65.934	19.152	4.2519e-06	26.85	0.00073836	0.00070512	0.00018962	1176.7	8.4484e-06	7.876e-06	1277.4	243.61	8.5016e-06	7.7639e-06	309.93	88.609	70.091	20.925	7.3565e-06	29.242	165.475	381.534	59.735	37.590	133.077	68.604	37.782	45.388	152.834	82.038	44.820	52.013	52.129	58.941	183.283	58.485	-8191	255	
1486.780	1	1	0	0	0.12443	0.071042	0.036006	0.30117	0.32508	0.042654	0.081015	0.32902	0.16448	0.20455	0.25498	0.26218	0.32451	0.035574	0.14563	0.056128	-2.1104	-2.7562	-2.9708	-2.6583	-3.0792	-3.0125	-2.5667	-3.1854	-2.6271	-2.7583	-3.2083	-2.65	-2.9229	-2.9542	-2.5708	-3.3917	130.221	113.775	94.270	296.701	113.698	292.311	284.826	336.444	198.151	95.769	325.494	387.095	352.853	192.223	187.340	254.892	0.00017378	0.00028554	0.00011134	1187	7.4234e-06	5.594e-06	1302	239.37	8.061e-07	3.5016e-06	304.21	84.506	66.252	19.435	5.917e-06	27.047	0.00076749	0.00072056	0.00019531	1185.1	8.8236e-06	8.2324e-06	1286.4	246.33	8.9513e-06	8.2841e-06	312.91	90.265	70.931	21.3	8.422e-06	30.083	190.860	144.880	182.360	37.198	234.331	172.504	37.708	45.349	284.771	78.567	45.026	52.439	52.229	59.216	196.616	58.457	-8191	255	
1486.900	1	1	0	0	0.20628	0.24543	0.19399	0.24119	0.29091	0.087077	0.23263	0.31254	0.12424	0.22152	0.11779	0.16661	0.072708	0.06369	0.12888	0.16514	-2.2979	-2.6625	-3.0563	-2.5563	-2.9896	-2.9042	-2.8063	-3.1958	-2.7396	-2.7042	-3.2188	-2.5854	-3.0187	-2.9917	-2.5104	-3.0979	130.291	240.968	172.790	379.354	355.281	36.478	353.075	298.235	68.199	48.040	226.476	355.660	378.207	69.074	277.434	116.846	0.0001729	0.0002128	0.00010949	1197.4	5.6988e-06	2.7435e-06	1310.4	244.28	1.6504e-06	8.1563e-06	311.45	86.001	67.622	19.616	5.758e-06	27.407	0.00085501	0.00081388	0.0002302	1206.6	9.8399e-06	9.4493e-06	1305.4	254.12	1.0238e-05	9.5076e-06	322.8	93.131	72.82	21.908	1.0297e-05	30.999	207.240	340.036	79.328	37.541	323.597	27.854	37.954	45.421	162.005	169.852	44.923	52.168	52.366	58.826	236.663	58.527	-8191	255	
1486.997	1	1	0	0	0.11444	0.40376	0.30414	0.11445	0.2147	0.079564	0.28224	0.11489	0.24938	0.33659	0.22153	0.21302	0.26535	0.25193	0.093515	0.1273	-2.3708	-2.4854	-3.2188	-2.7479	-2.875	-3.0792	-2.7396	-3.0917	-2.9104	-2.3979	-3.3063	-2.5854	-2.9125	-3.0896	-2.5938	-3.2167	377.314	35.709	340.105	365.892	212.912	60.685	304.681	322.757	250.621	317.300	351.492	44.970	316.963	72.238	311.994	62.172	0.00014184	0.00060473	0.00010013	1212.9	9.0133e-06	4.6294e-06	1324.6	250.72	2.1951e-06	3.6169e-06	316.26	86.995	68.46	19.858	1.1154e-05	27.833	0.00093644	0.00091294	0.0002739	1226.5	1.0716e-05	1.0309e-05	1328.9	262.05	1.099e-05	1.017e-05	331.76	94.831	73.971	22.321	1.1514e-05	31.473	183.709	49.720	125.965	37.431	280.512	146.917	37.816	45.125	35.724	133.784	44.613	51.510	51.989	58.419	223.247	58.015	-8191	255	
1487.093	1	1	0	0	0.099515	0.018904	0.033287	0.29253	0.21596	0.15637	0.26903	0.17378	0.080738	0.055147	0.026874	0.17916	0.16756	0.2966	0.22087	0.14022	-2.2729	-2.5438	-3.1625	-2.9271	-2.8063	-3.0229	-2.6146	-3.0417	-3.0896	-2.55	-3.3208	-2.6771	-2.7188	-3.1708	-2.5979	-2.9604	295.704	154.478	272.229	367.365	317.069	364.195	376.422	301.232	73.408	29.489	62.673	364.347	63.017	366.583	380.065	290.108	0.00017399	0.00084868	0.00019237	1223.2	7.435e-06	3.9129e-06	1327.9	255.46	3.5964e-06	1.273e-05	320.8	88.047	69.514	20.36	7.6371e-06	27.929	0.00095494	0.00093898	0.00030148	1235.6	1.0919e-05	1.075e-05	1342	267.08	1.1394e-05	1.1074e-05	340.93	96.317	75.48	22.94	1.3399e-05	32.002	215.699	214.164	157.617	37.218	316.838	375.657	37.519	45.084	217.263	214.381	44.376	51.524	52.244	58.495	241.416	58.129	-8191	255	
1487.189	1	1	0	0	0.12952	0.19637	0.039425	0.20519	0.23787	0.037406	0.070617	0.10496	0.0557	0.28789	0.29917	0.13093	0.22125	0.15299	0.12373	0.10972	-2.6708	-2.4042	-2.975	-2.9896	-2.7604	-3.1792	-2.7479	-3.1875	-3.0875	-2.5667	-3.2417	-2.8167	-2.6	-3.1625	-2.5187	-2.9542	172.289	329.570	137.364	333.830	384.042	90.689	252.642	198.343	332.120	213.945	101.808	217.401	375.353	56.522	281.591	365.331	0.0002854	0.00016152	0.00011056	1229.2	3.6021e-06	1.1481e-05	1340.7	257.74	8.5043e-07	1.0166e-05	323.08	88.561	69.942	20.294	1.5175e-06	28.231	0.0010462	0.0010685	0.00034561	1248.5	1.1596e-05	1.2063e-05	1358.7	269.07	1.1745e-05	1.2041e-05	343.7	96.754	75.591	23.264	1.3166e-05	31.898	195.948	171.104	41.194	37.483	237.265	188.345	37.588	45.121	197.882	249.037	44.502	51.960	52.035	59.004	147.954	57.941	-8191	255	
1487.310	1	1	0	0	0.10654	0.16299	0.062876	0.13876	0.27785	0.19233	0.1057	0.24132	0.057047	0.21687	0.024913	0.12012	0.094197	0.21646	0.053095	0.086841	-2.7854	-2.3875	-3.0521	-2.9813	-2.6896	-3.3583	-2.7	-2.9771	-3.0563	-2.375	-3.0583	-3.1667	-2.5667	-3.1021	-2.5771	-2.8875	274.062	271.687	316.624	252.590	111.373	45.342	343.587	251.665	339.816	274.477	385.257	132.575	374.589	333.686	39.094	69.926	0.00018913	0.00079287	0.00011393	1235.3	2.3746e-06	8.2111e-06	1344.3	256.61	4.5325e-06	6.6947e-06	323.15	88.72	69.456	20.313	4.3966e-06	28.369	0.00098711	0.0011088	0.00032453	1245.8	1.0631e-05	1.2087e-05	1352.7	267.08	1.0851e-05	1.2082e-05	339.78	95.939	75.118	23.332	1.2385e-05	31.714	193.152	140.250	86.460	37.507	329.578	230.598	38.096	45.182	280.519	180.432	44.714	52.248	52.152	58.974	48.245	58.631	-8191	255	
1487.381	1	1	0	0	0.22676	0.17248	0.05774	0.20948	0.10634	0.33873	0.12523	0.10469	0.11265	0.18782	0.10855	0.16908	0.26891	0.30678	0.12527	0.079946	-2.7854	-2.2792	-3.0187	-3.1896	-2.4729	-3.15	-3.0042	-2.7	-3.1437	-2.5604	-2.8729	-3.0042	-2.5396	-3.2562	-2.6208	-2.7188	311.783	341.162	259.077	86.114	372.267	228.127	341.144	341.412	365.784	219.186	58.632	203.745	336.071	81.181	30.646	340.016	0.00025472	0.0010095	0.00012918	1236.6	1.2045e-05	9.16e-06	1343.7	257.74	1.1838e-05	1.3203e-05	323.55	88.604	69.786	20.072	3.9477e-06	28.167	0.0009755	0.0011463	0.00031104	1244.8	1.105e-05	1.2718e-05	1356.2	266.86	1.122e-05	1.2702e-05	339.49	95.692	75.43	23.313	1.1807e-05	31.398	189.675	99.245	113.908	37.599	266.528	208.841	38.078	45.512	243.829	207.743	44.936	51.787	52.105	58.689	35.172	58.072	-8191	255	
1487.500	1	1	0	0	0.1758	0.15433	0.28039	0.25764	0.077818	0.14928	0.10567	0.13155	0.087619	0.1025	0.33747	0.18288	0.30708	0.15258	0.11355	0.050401	-2.65	-2.5521	-2.7938	-3.2396	-2.3958	-2.9896	-2.9542	-2.4833	-3.2729	-2.5375	-3.1396	-3.1771	-2.4167	-3.1688	-3.0167	-2.6792	62.362	97.715	249.221	330.853	211.273	274.782	98.556	206.075	377.262	321.076	385.869	385.051	75.324	257.735	69.957	323.854	0.00024083	0.00059025	0.00031789	1234.3	6.4263e-06	1.9345e-06	1347.6	257.69	7.4738e-06	6.6915e-06	322.66	88.711	69.899	20.403	5.1247e-06	28.23	0.0010011	0.0011447	0.00028771	1242.2	1.119e-05	1.2298e-05	1349.2	265.78	1.149e-05	1.2272e-05	336.71	95.215	75.851	23.254	1.1145e-05	31.307	176.052	136.329	44.469	37.407	237.685	157.346	37.580	44.897	173.792	218.876	44.409	52.152	52.084	58.203	184.066	57.969	-8191	255	
1487.596	1	1	0	0	0.22266	0.055809	0.17615	0.45957	0.19982	0.077241	0.061241	0.15558	0.17325	0.19094	0.14081	0.079982	0.19986	0.08024	0.15043	0.35324	-2.8625	-2.6146	-2.6333	-3.1604	-2.4938	-3.1333	-3.0271	-2.5521	-3.1875	-2.7792	-2.8104	-3.1021	-2.6583	-2.85	-2.9604	-2.5396	164.142	260.954	224.361	343.719	282.011	71.312	254.998	120.520	81.134	34.463	236.560	336.598	88.180	379.357	113.061	339.950	0.00023365	0.00055596	0.000314	1238.2	1.2651e-05	6.5301e-06	1334.7	256.27	2.7609e-06	1.5315e-06	320.36	88.267	69.504	20.176	2.7096e-06	28.055	0.0010357	0.0011036	0.00028039	1241	1.1851e-05	1.1831e-05	1346.5	265.69	1.2038e-05	1.172e-05	335.5	95.144	76.029	22.985	1.0755e-05	31.236	222.641	375.205	204.469	37.568	202.301	165.563	37.753	45.161	326.280	189.827	44.797	52.362	52.235	58.521	171.801	58.397	-8191	255	
1487.692	1	1	0	0	0.093499	0.15256	0.088341	0.25081	0.19396	0.30015	0.26204	0.19786	0.24402	0.098713	0.055928	0.15056	0.15545	0.14691	0.24773	0.28288	-2.8583	-2.6542	-2.3271	-3.3646	-2.5667	-2.8104	-3.2146	-2.5396	-3.0146	-2.8417	-2.7708	-3.2521	-2.5146	-2.8708	-3.0708	-2.5375	238.321	277.900	276.320	28.442	314.705	131.194	335.651	313.557	286.064	80.477	63.302	45.639	212.212	93.790	169.489	221.311	0.00021135	0.0001916	3.844e-05	1234.2	7.666e-06	1.8942e-06	1348.1	257.3	2.494e-06	7.183e-06	321.02	88.833	69.449	20.171	4.7549e-06	28.267	0.0010624	0.0010421	0.00026743	1243.1	1.1915e-05	1.1035e-05	1346.9	266.31	1.1857e-05	1.094e-05	333.46	95.219	75.755	22.663	1.0011e-05	31.304	210.929	241.780	305.511	37.597	253.844	197.030	37.633	45.051	354.349	140.709	44.583	51.596	52.254	58.337	206.451	58.201	-8191	255	
1487.789	1	1	0	0	0.16345	0.23665	0.1361	0.29995	0.14154	0.24577	0.25426	0.29381	0.096454	0.1487	0.25568	0.046057	0.386	0.19966	0.19028	0.21807	-2.6312	-2.8688	-2.3646	-3.275	-2.5292	-2.8375	-3.2458	-2.7104	-2.9583	-3.0583	-2.4771	-3.2167	-2.7562	-2.7354	-3.025	-2.5542	253.808	50.553	28.900	48.884	175.609	124.172	366.394	365.607	210.914	287.221	309.742	364.877	160.078	220.792	82.096	332.055	8.8852e-05	0.00025682	0.0001732	1234.7	6.1515e-06	4.8866e-06	1343.9	256.11	5.8937e-07	3.1748e-06	320.67	88.166	69.512	20.189	8.4418e-06	28.127	0.00098653	0.00093918	0.00024036	1242	1.1087e-05	9.9691e-06	1340.8	265.41	1.0854e-05	9.9538e-06	331.96	94.961	74.943	22.427	9.4089e-06	31.283	163.913	172.074	59.557	37.464	70.469	298.026	37.670	45.008	274.629	340.522	44.913	52.107	52.236	58.879	214.909	58.791	-8191	255	
1487.909	1	1	0	0	0.12094	0.11448	0.11621	0.36916	0.12414	0.31586	0.18474	0.23365	0.18706	0.1776	0.057401	0.17776	0.16505	0.21458	0.057005	0.18348	-2.6292	-2.7833	-2.5667	-3.5125	-2.6354	-2.8375	-3.2417	-2.5979	-2.8354	-2.9437	-2.325	-3.2104	-2.9021	-2.6875	-3.1979	-2.4729	101.252	376.613	261.629	329.350	199.409	348.850	60.705	230.596	62.052	277.573	118.241	348.129	40.681	356.119	41.615	127.617	0.00011328	0.00049525	0.00018042	1237.5	3.624e-06	7.5934e-06	1342.9	256.26	4.2549e-06	6.7691e-06	321.65	87.866	69.136	20.145	5.664e-06	27.993	0.00092149	0.00089694	0.00023777	1241.5	1.0501e-05	9.5365e-06	1337.6	266.07	1.0364e-05	9.774e-06	332.23	95.401	74.402	22.286	9.9338e-06	31.425	196.048	237.779	203.519	37.807	369.566	127.536	37.945	45.467	141.569	56.095	45.054	52.200	52.389	58.865	226.172	58.249	-8191	255	
1487.981	1	1	0	0	0.037087	0.22206	0.1137	0.26514	0.255	0.22481	0.35507	0.087033	0.23034	0.1924	0.14668	0.2839	0.31351	0.021942	0.049023	0.12085	-2.5354	-2.9979	-2.5354	-3.2333	-2.7521	-2.4271	-3.2708	-2.5563	-2.9604	-3.1542	-2.5062	-3.3208	-2.8375	-2.5708	-3.3125	-2.5625	94.586	124.426	232.063	351.736	50.380	322.851	299.742	386.813	286.126	79.729	355.851	384.274	89.165	45.888	137.560	354.629	0.00021438	0.00032626	0.00029563	1233.3	5.232e-06	5.2171e-06	1339.8	255.51	2.1446e-06	5.3277e-06	320.82	88.234	68.858	20.052	8.0659e-06	28.165	0.00089404	0.00088358	0.00025193	1243.9	1.0079e-05	9.3634e-06	1339.3	265.55	9.8958e-06	9.4484e-06	333.12	94.744	73.942	22.194	1.0329e-05	31.322	183.966	35.193	81.032	37.619	201.022	252.468	37.969	45.039	90.754	161.734	45.159	52.449	52.466	59.100	226.300	59.050	-8191	255	
1488.077	1	1	0	0	0.30739	0.22009	0.14167	0.51386	0.0059416	0.033397	0.3856	0.23168	0.057471	0.037544	0.1382	0.13878	0.063313	0.24718	0.033228	0.33643	-2.4542	-2.9375	-2.4021	-3.2292	-2.8563	-2.5875	-3.3812	-2.7438	-2.6354	-3.3	-2.5563	-2.9771	-3.0479	-2.5	-3.4125	-2.7042	337.966	351.636	169.117	344.724	231.132	211.765	348.749	69.483	208.025	187.695	145.046	291.533	115.788	76.199	223.893	235.086	0.00027342	6.5298e-05	0.00024903	1231.9	5.1696e-06	1.0248e-05	1339	254.68	1.3937e-06	4.3662e-06	320.96	87.442	69.113	20.168	3.972e-06	28.187	0.00084951	0.00085177	0.00026337	1238.8	9.7108e-06	8.9595e-06	1340.4	264.43	9.4002e-06	9.1073e-06	334.26	94.134	73.701	22.12	1.0567e-05	31.055	187.971	115.947	176.565	37.836	159.668	89.969	38.684	45.644	217.305	145.801	45.222	52.592	52.622	59.399	259.039	58.738	-8191	255	
1488.173	1	1	0	0	0.19128	0.16105	0.25353	0.18472	0.22332	0.14697	0.28721	0.12928	0.11877	0.086581	0.15333	0.077727	0.084857	0.082612	0.29211	0.097929	-2.3083	-3.1917	-2.5521	-2.9708	-3.1	-2.6792	-3.4104	-2.8229	-2.6146	-3.1562	-2.5708	-2.8812	-3.0667	-2.5125	-3.1771	-2.8917	94.100	346.882	50.120	28.138	39.503	187.887	350.213	130.045	366.489	233.375	107.809	377.929	232.212	184.070	304.067	92.852	7.5672e-05	0.00047663	0.00017701	1231.7	1.5608e-06	9.0644e-06	1339.3	255.74	4.3431e-06	5.56e-06	319.64	87.532	68.993	20.096	1.6755e-06	27.744	0.00081688	0.00084844	0.00026995	1232.8	9.3492e-06	9.1916e-06	1344	263.45	9.0396e-06	9.4305e-06	333.72	93.444	73.272	22.153	1.0512e-05	30.742	222.182	125.893	141.906	37.743	385.691	209.391	38.000	45.611	123.751	227.046	45.032	52.090	52.415	59.144	108.468	58.570	-8191	255	
1488.292	1	1	0	0	0.25477	0.05486	0.018292	0.19321	0.19563	0.18812	0.22734	0.28608	0.13909	0.031282	0.092833	0.129	0.18095	0.21467	0.17986	0.095579	-2.1125	-3.0312	-2.5458	-3.0354	-3.0604	-2.2896	-3.2521	-3.0292	-2.5271	-3.2875	-2.6937	-2.7792	-3.1917	-2.5625	-3.0563	-2.825	70.192	146.689	183.403	382.220	325.248	150.100	338.379	311.910	248.223	222.662	172.919	353.475	288.310	61.417	354.550	305.203	0.00025129	0.00095489	0.00018783	1226	2.5434e-06	9.9062e-06	1335.2	255.71	1.1102e-05	1.4944e-05	317.46	87.838	68.909	19.953	6.2186e-06	28.131	0.00077797	0.0008827	0.00026651	1228	8.9899e-06	9.6867e-06	1336.9	262.22	8.7946e-06	9.8798e-06	331.97	93.018	73.12	22.253	1.0141e-05	30.658	212.530	111.992	51.804	37.709	250.067	180.537	37.770	45.209	212.833	174.812	44.907	51.902	52.700	58.776	172.435	58.184	-8191	255	
1488.388	1	1	0	0	0.30228	0.068687	0.22312	0.27968	0.21994	0.10881	0.18904	0.094762	0.20375	0.035868	0.024717	0.090453	0.14909	0.19782	0.11572	0.079372	-2.2396	-3.0646	-2.4458	-2.7125	-3.2313	-2.5104	-3.0792	-3.1063	-2.3312	-3.0583	-2.8083	-2.5354	-3.2812	-2.675	-2.8521	-3.1167	385.879	260.842	29.552	334.511	145.332	253.445	309.870	86.000	32.273	247.221	285.179	91.143	81.283	301.390	261.796	357.477	0.00030396	0.0006612	5.3627e-05	1228.9	1.2986e-05	8.9688e-06	1331.3	252.97	3.5463e-06	8.2555e-06	317.28	87.374	69.056	19.982	6.7666e-06	27.709	0.00077494	0.00092711	0.00025539	1226.8	8.9043e-06	1.0059e-05	1334.8	260.76	8.9219e-06	1.029e-05	330.73	92.783	73.299	22.35	9.6327e-06	30.449	197.133	147.096	327.650	37.655	235.194	207.251	37.965	44.960	263.562	194.414	44.819	52.053	52.155	58.822	160.821	58.959	-8191	255	
1488.484	1	1	0	0	0.1461	0.26621	0.24906	0.27593	0.090257	0.10822	0.26177	0.11614	0.0887	0.075279	0.23045	0.21037	0.22912	0.039653	0.053217	0.13643	-1.9771	-3.2208	-2.8521	-2.7938	-3.2229	-2.3896	-3.0479	-2.9792	-2.35	-3.0229	-3.0479	-2.5271	-3.1375	-2.6292	-2.7687	-3.1708	228.189	255.139	382.986	349.714	198.295	94.142	288.091	346.407	376.097	305.279	322.435	69.567	326.134	51.282	66.067	115.957	0.00022709	0.00023925	0.00024436	1228.1	9.1603e-06	5.752e-06	1334	254.3	9.1454e-06	3.3445e-06	319.42	87.469	68.76	19.956	2.2171e-06	27.78	0.00080741	0.00095495	0.00024588	1226.1	9.421e-06	1.0446e-05	1331.8	260.94	9.398e-06	1.0381e-05	330.48	92.715	73.648	22.404	9.5251e-06	30.492	218.172	47.377	102.299	37.303	237.725	101.734	37.684	45.195	244.717	43.665	44.711	52.009	52.830	59.289	318.060	58.876	-8191	255	
1488.580	1	1	0	0	0.20411	0.20728	0.063564	0.28604	0.016709	0.23745	0.12109	0.3621	0.31074	0.16639	0.10436	0.27919	0.27763	0.36994	0.13346	0.22919	-2.0583	-3.0625	-2.6854	-2.7458	-3.1292	-2.5854	-2.9917	-3.2208	-2.5667	-3.1667	-3.0146	-2.5896	-3.2	-2.7	-2.6792	-3.0854	45.844	199.047	311.008	344.686	189.339	376.550	254.358	297.411	252.882	385.022	51.781	344.061	342.670	347.984	317.018	104.559	0.00016162	0.00099808	0.00019209	1229.7	5.343e-06	7.7212e-06	1334.9	254.57	8.3469e-06	4.3664e-06	318.47	87.398	68.32	19.91	4.0514e-06	27.845	0.00087518	0.00095945	0.00024348	1227.9	1.0257e-05	1.039e-05	1332.1	261.12	1.0304e-05	1.0195e-05	329.83	92.772	73.898	22.325	9.1747e-06	30.528	170.644	327.253	135.798	37.659	256.654	212.548	37.913	45.296	271.008	119.275	44.436	51.819	51.549	58.259	235.698	58.370	-8191	255	
1488.677	1	1	0	0	0.25938	0.24307	0.047682	0.15846	0.043193	0.080067	0.13846	0.1326	0.26468	0.15292	0.19085	0.18507	0.12725	0.19816	0.17327	0.12109	-2.1771	-2.8688	-2.8604	-2.6917	-3.1917	-2.7271	-2.9083	-3.35	-2.6146	-2.8146	-3.1021	-2.5771	-3.1417	-2.7583	-2.4479	-3.1625	127.459	309.674	215.343	207.628	136.073	352.343	36.429	66.730	154.662	301.664	280.084	116.516	86.752	355.913	253.130	213.332	0.0003225	0.00032071	0.00017641	1226.2	4.5593e-06	3.0736e-06	1331.2	253.56	2.378e-06	5.4062e-06	316.64	87.151	68.247	20.01	2.0517e-06	27.663	0.00091395	0.00090611	0.00023775	1225.2	1.0321e-05	9.7789e-06	1328.4	260.92	1.041e-05	9.568e-06	328.59	92.789	73.866	22.156	8.8554e-06	30.576	194.020	53.991	79.039	37.202	204.884	284.553	37.383	45.172	217.054	120.421	44.460	52.145	52.228	58.763	185.729	58.143	-8191	255	
1488.773	1	1	0	0	0.0077474	0.10044	0.13189	0.32974	0.19084	0.15592	0.088657	0.16561	0.11746	0.097383	0.17326	0.25403	0.12549	0.080401	0.13027	0.1488	-2.2833	-2.6771	-3.075	-2.7042	-3.1146	-2.8812	-2.5542	-3.2167	-2.5646	-2.8833	-3.2333	-2.7354	-3.0417	-2.9125	-2.5062	-3.1854	170.213	375.442	131.506	353.220	158.620	116.674	367.326	318.565	228.379	93.833	325.821	364.784	370.737	181.418	368.176	255.994	0.00018773	0.00029103	0.00019622	1224.9	1.1667e-05	7.1037e-06	1330.6	254.5	2.4304e-06	1.0601e-05	318.86	87.65	68.787	19.906	5.1641e-06	27.953	0.0009125	0.00085672	0.00022739	1228.9	1.0177e-05	9.3487e-06	1327	262.09	1.0123e-05	9.1086e-06	327.74	93.252	73.663	22.022	8.7369e-06	30.819	197.091	31.465	113.851	37.557	135.262	150.185	37.407	44.924	292.714	71.671	45.023	52.216	52.695	58.529	215.530	58.562	-8191	255	
1488.869	1	1	0	0	0.071166	0.29114	0.14098	0.1277	0.29187	0.25586	0.1148	0.11113	0.15802	0.35708	0.068199	0.14078	0.020818	0.11632	0.20345	0.27251	-2.2625	-2.6813	-3.1333	-2.65	-3.0062	-3.0354	-2.85	-3.1979	-2.4958	-2.6729	-2.9917	-2.3854	-3.0167	-2.9896	-2.3042	-3.0938	362.420	349.857	305.908	288.044	109.239	384.737	378.008	276.729	58.787	279.645	370.300	295.234	237.245	55.838	244.963	363.775	0.00022457	0.00048728	0.00025688	1226.3	3.9167e-06	4.5586e-06	1327.6	254.28	1.5893e-06	1.2215e-05	319.47	87.048	68.838	20.023	6.0675e-06	27.935	0.00087776	0.00082721	0.0002255	1232.2	9.7806e-06	9.2765e-06	1329.5	263.1	9.966e-06	9.1412e-06	329.14	93.969	73.709	22.082	9.2529e-06	31.135	189.314	248.710	102.153	37.488	86.569	230.998	37.908	45.114	81.249	178.226	44.906	52.367	52.291	58.781	229.574	58.406	-8191	255	
1488.990	1	1	0	0	0.15204	0.13882	0.04392	0.18386	0.2424	0.12863	0.21032	0.36719	0.056401	0.10599	0.13404	0.082453	0.098693	0.17626	0.11848	0.15373	-2.2708	-2.4875	-3.1083	-2.7021	-2.8875	-2.9396	-2.5438	-3.3021	-2.8792	-2.6688	-3.1396	-2.6146	-2.7938	-3.225	-2.3854	-3.1667	141.495	182.600	356.531	350.493	313.513	109.048	295.444	34.611	63.958	253.917	64.560	329.068	131.367	124.153	47.305	344.603	0.00015054	0.00045137	0.0003165	1227.8	5.003e-06	6.2073e-06	1334.9	253.47	7.09e-07	1.2731e-05	319.56	87.171	68.295	20.098	1.9722e-06	27.774	0.00086951	0.00083732	0.00024211	1236.3	9.6597e-06	9.2891e-06	1332.6	263.59	9.87e-06	9.1218e-06	331.46	94.286	73.515	22.114	1.0063e-05	31.102	198.960	40.687	122.206	37.492	63.837	255.717	37.804	45.458	99.823	180.009	44.818	51.898	51.977	58.930	202.987	58.489	-8191	255	
1489.086	1	1	0	0	0.060507	0.094102	0.047621	0.12307	0.26485	0.29417	0.27307	0.20609	0.078247	0.16445	0.30874	0.18811	0.214	0.29448	0.28603	0.1252	-2.45	-2.6562	-3.0979	-2.9229	-2.7	-3.1271	-2.5333	-3.1375	-2.975	-2.5625	-3.3875	-2.6708	-2.7833	-3.2667	-2.3792	-2.9688	191.792	180.273	217.297	325.730	274.942	313.314	288.582	345.417	178.542	374.946	30.721	72.722	159.102	136.317	172.783	328.319	0.00014609	0.00077611	0.00017211	1228.3	2.1784e-06	2.6977e-06	1334.5	254.43	5.9019e-06	1.9026e-06	320.33	87.824	68.65	20.102	5.3248e-06	27.792	0.00086718	0.00083319	0.00026144	1235.8	9.6039e-06	9.3405e-06	1337	263.8	9.9303e-06	9.1979e-06	334.12	94.287	73.563	22.212	1.0819e-05	31.054	211.503	179.871	159.181	37.606	292.240	305.729	37.842	45.196	161.903	216.174	45.148	52.206	52.232	59.291	285.036	58.254	-8191	255	
1489.182	1	1	0	0	0.14869	0.123	0.31077	0.22449	0.14337	0.14993	0.20167	0.39789	0.3326	0.10871	0.31161	0.12173	0.23153	0.092553	0.24279	0.44293	-2.4854	-2.5167	-3.1792	-2.9437	-2.7542	-3.1667	-2.7396	-2.9021	-2.9271	-2.5917	-3.2021	-2.8833	-2.4354	-3.1437	-2.5667	-2.8146	121.480	200.053	27.721	372.473	107.870	299.073	373.441	358.301	342.659	40.427	272.284	336.811	333.722	134.057	106.732	358.846	0.00014378	0.0004385	5.7467e-05	1226.2	6.9838e-06	1.0759e-05	1338	254.69	3.4351e-06	3.6655e-06	319.87	86.836	68.882	20.004	2.7702e-06	27.533	0.00086702	0.00085393	0.00027768	1233.5	9.5244e-06	9.6178e-06	1340.3	263.19	9.5682e-06	9.5926e-06	333.55	93.721	73.532	22.217	1.0875e-05	30.725	210.447	194.034	355.139	37.681	188.696	229.026	37.898	45.472	324.692	191.593	44.921	52.068	52.076	58.825	69.253	57.803	-8191	255	
1489.278	1	1	0	0	0.34408	0.33064	0.052098	0.19528	0.064114	0.1168	0.40443	0.098242	0.13987	0.33751	0.20711	0.11926	0.13433	0.24098	0.127	0.14503	-2.6562	-2.3458	-3.1271	-2.9958	-2.6437	-3.1583	-2.7271	-2.7979	-3.1146	-2.4167	-3.0917	-3.0125	-2.5062	-3.2667	-2.6583	-2.7354	180.257	79.047	374.214	386.867	161.364	83.924	359.796	246.526	124.254	160.071	364.261	378.453	61.223	337.616	110.175	350.694	0.00021112	0.00094699	0.00014013	1230.3	9.0451e-06	3.573e-06	1339.1	254.83	2.7705e-06	5.6913e-06	320.09	87.154	69.27	19.948	9.0514e-06	27.769	0.00083123	0.0008987	0.00027645	1233.8	9.1532e-06	1.0011e-05	1340.9	262.21	9.2933e-06	1.0037e-05	333.25	93.443	73.151	22.357	1.0498e-05	30.63	214.716	103.908	113.623	37.656	214.637	121.321	38.345	45.591	40.921	230.822	44.997	51.905	51.866	59.094	216.011	58.350	-8191	255	
1489.372	1	1	0	0	0.031031	0.052748	0.17799	0.12914	0.17194	0.18219	0.43668	0.44544	0.10356	0.1812	0.1592	0.12641	0.1919	0.44053	0.04803	0.23746	-2.8458	-2.3417	-2.9854	-2.8729	-2.5938	-3.1271	-2.7958	-2.8083	-3.1354	-2.4729	-3.1292	-3.1458	-2.5583	-3.1688	-2.6771	-2.6771	198.520	349.777	349.050	113.974	265.770	368.996	348.453	356.215	231.485	256.232	366.844	180.230	27.467	90.144	45.907	35.933	0.00020327	0.00060268	0.0002337	1229.5	7.8639e-06	8.4738e-06	1335.1	253.05	1.6604e-06	4.3476e-06	318.04	87.414	69.059	20.064	6.083e-06	27.629	0.00081075	0.00093252	0.00026359	1229.5	8.9856e-06	1.0498e-05	1335.7	260.9	9.3065e-06	1.052e-05	331.38	93.206	73.261	22.537	1.0042e-05	30.578	199.703	158.824	172.965	37.546	267.778	186.212	37.871	45.007	262.376	199.731	44.066	51.751	51.882	58.207	256.578	58.327	-8191	255	
1489.469	1	1	0	0	0.20832	0.097285	0.24911	0.22409	0.084985	0.16773	0.19697	0.36513	0.18484	0.04095	0.10924	0.2339	0.34367	0.34309	0.07228	0.20111	-2.8479	-2.3729	-2.85	-3.2271	-2.4562	-3.3167	-3.025	-2.8375	-3.2708	-2.5417	-3.0333	-3.2542	-2.6437	-3.0542	-2.7604	-2.5521	338.571	265.073	288.976	344.565	285.328	140.201	285.995	299.892	126.397	104.245	51.544	334.304	47.705	28.712	36.370	203.589	0.00025147	0.00073106	0.00031464	1230.1	1.3558e-05	6.1157e-06	1338.5	253.3	7.3451e-06	3.1951e-06	319.9	87.282	68.621	20.12	4.0992e-06	28.086	0.00082929	0.00097076	0.0002497	1228.6	9.3363e-06	1.0535e-05	1335.8	260.53	9.6619e-06	1.0586e-05	330.59	92.947	73.426	22.468	9.7532e-06	30.515	212.464	324.769	34.356	37.260	190.896	51.756	37.592	44.970	162.560	293.217	44.502	51.894	52.194	58.855	240.346	58.350	-8191	255	
1489.589	1	1	0	0	0.29344	0.042835	0.13086	0.25809	0.18346	0.12994	0.32937	0.27012	0.38365	0.068598	0.16558	0.29292	0.15024	0.094081	0.12778	0.15127	-2.7292	-2.6583	-2.5229	-3.2979	-2.2313	-2.9437	-3.1188	-2.55	-3.225	-2.6437	-2.8854	-3.1688	-2.5438	-2.8917	-2.8771	-2.5229	127.342	39.428	273.942	333.605	259.099	28.260	370.176	306.752	131.942	166.107	335.120	88.143	229.883	70.108	121.699	61.305	0.00024855	0.00040372	7.3573e-05	1230.4	5.3615e-06	1.8465e-06	1338.1	253.37	3.6769e-06	5.4173e-06	319.24	87.237	68.804	20.09	3.0232e-06	27.798	0.00087324	0.00095201	0.00024305	1227.1	9.8803e-06	1.0386e-05	1333.9	260.26	1.0165e-05	1.0312e-05	329.72	92.783	73.881	22.356	9.5427e-06	30.423	212.990	325.383	32.171	37.495	157.797	188.881	38.173	45.530	219.842	244.377	44.518	52.321	52.430	59.115	320.356	58.318	-8191	255	
1489.685	1	1	0	0	0.033238	0.24328	0.34713	0.13497	0.090975	0.22146	0.27096	0.28833	0.097366	0.16669	0.19344	0.069459	0.32967	0.10125	0.064218	0.3043	-2.8958	-2.5687	-2.6667	-3.2333	-2.4271	-2.8625	-3.1271	-2.5208	-3.1833	-2.7062	-2.7042	-3.1813	-2.4479	-2.8812	-2.9396	-2.4583	132.946	55.517	45.715	274.404	134.564	55.563	369.138	286.740	134.023	52.678	307.192	283.351	53.636	196.638	311.353	202.757	0.00022809	0.00074885	0.00021579	1228.1	4.9728e-06	1.0006e-05	1334.5	253.26	9.3677e-06	4.2592e-06	318.13	87.925	68.642	19.866	6.2923e-06	27.863	0.00092129	0.0009277	0.00023564	1228.4	1.0395e-05	9.881e-06	1332.6	260.84	1.0506e-05	9.8088e-06	328.71	93.056	74.005	22.115	9.1047e-06	30.599	213.418	384.395	382.823	37.687	214.171	280.694	37.976	45.142	266.533	35.815	45.133	52.360	52.690	59.601	169.342	58.716	-8191	255	
1489.781	1	1	0	0	0.23833	0.068292	0.14227	0.12439	0.21161	0.12731	0.22531	0.10833	0.097295	0.073683	0.07925	0.20042	0.18458	0.079301	0.21402	0.14991	-2.8729	-2.5958	-2.6146	-3.4146	-2.6688	-2.6646	-3.2542	-2.6146	-3.0062	-2.8375	-2.7833	-3.4083	-2.7062	-2.6375	-3.2521	-2.3542	350.936	281.478	286.477	352.541	273.792	207.426	241.652	193.919	267.290	298.699	230.261	156.007	241.913	348.465	271.500	380.495	0.00017671	0.00082649	9.4644e-05	1230	6.0181e-06	5.4619e-06	1333.3	253.65	5.9019e-06	9.3482e-06	319.48	88.001	68.4	19.902	4.9043e-06	27.88	0.00091069	0.0008622	0.00022569	1228.4	1.0337e-05	9.3328e-06	1329.7	261.28	1.0239e-05	9.3951e-06	327.82	93.27	73.669	22.035	8.8392e-06	30.786	196.916	143.809	144.352	37.704	200.698	218.811	38.008	45.659	202.951	130.431	45.013	52.481	52.846	59.374	285.439	58.519	-8191	255	
1489.853	1	1	0	0	0.23554	0.22832	0.059266	0.26529	0.11336	0.12391	0.072929	0.056955	0.062939	0.27933	0.18062	0.12471	0.028248	0.18929	0.36396	0.06494	-2.7375	-2.9458	-2.4917	-3.3583	-2.7438	-2.7021	-3.4542	-2.4646	-3.1021	-2.9792	-2.6	-3.1333	-2.5667	-2.7625	-3.2896	-2.5667	307.311	346.709	154.498	340.029	152.995	332.457	81.229	156.468	241.759	172.720	298.283	113.418	342.679	39.479	38.559	213.286	0.00014045	0.00040294	0.00013403	1230.4	1.9003e-07	6.5655e-06	1330	253.88	3.1916e-06	7.6423e-06	318.88	87.132	68.291	19.874	4.6437e-06	27.845	0.00088018	0.00085034	0.00022123	1231.8	9.9518e-06	9.0658e-06	1328.4	262.05	9.8105e-06	9.1857e-06	328.22	93.642	73.418	21.939	8.9816e-06	30.896	254.776	98.440	143.638	37.805	166.369	96.747	37.906	45.628	153.964	60.639	44.899	52.019	52.101	59.040	226.199	58.412	-8191	255	
1489.974	1	1	0	0	0.28472	0.19561	0.052994	0.10532	0.19667	0.27038	0.31233	0.28155	0.22526	0.26531	0.32113	0.17787	0.17597	0.15069	0.081461	0.12824	-2.5917	-2.95	-2.3771	-3.3438	-2.7979	-2.4688	-3.3729	-2.5187	-2.85	-3.1458	-2.5458	-3.0333	-3.0146	-2.6708	-3.0458	-2.5	95.875	170.287	337.536	44.699	301.141	164.212	350.194	280.161	34.675	297.299	329.890	276.750	78.401	335.270	73.157	66.699	8.1832e-05	0.00035728	6.9017e-05	1222.7	1.1449e-05	5.0563e-06	1332.6	253.64	4.4637e-06	1.6944e-06	318.33	87.583	68.361	20.069	1.2038e-06	27.886	0.00083698	0.00082105	0.000228	1231.1	9.5232e-06	8.7489e-06	1329.7	262.28	9.3222e-06	8.8989e-06	329.09	93.674	73.283	21.862	9.3167e-06	30.811	189.237	280.768	185.611	37.693	243.997	314.263	38.075	45.343	28.049	386.242	44.821	52.155	52.156	58.927	229.343	58.366	-8191	255	
1490.070	1	1	0	0	0.29408	0.23611	0.15239	0.30331	0.3113	0.047711	0.2251	0.22875	0.1454	0.10716	0.22194	0.03176	0.07615	0.18161	0.27529	0.11045	-2.3021	-3.1437	-2.4146	-3.1875	-2.7958	-2.4979	-3.4625	-2.8271	-2.6792	-3.1333	-2.3229	-2.9	-2.925	-2.5146	-3.2417	-2.7604	189.921	297.873	323.970	378.436	237.089	250.299	308.467	321.344	53.312	149.145	387.014	244.849	330.534	385.846	119.638	247.150	0.00013287	0.00019031	0.00029457	1220.9	2.3535e-06	5.2227e-06	1335.7	254.8	1.3608e-06	3.6142e-06	318.6	87.013	68.812	19.99	2.0431e-06	27.572	0.00079629	0.00078659	0.00023813	1228.7	9.1163e-06	8.4187e-06	1331.2	262.24	8.8865e-06	8.5489e-06	329.74	93.162	73.071	21.804	9.8801e-06	30.559	207.152	153.988	82.189	37.671	233.978	205.214	38.003	45.860	265.446	142.367	45.385	52.173	52.783	59.074	250.321	59.035	-8191	255	
1490.166	1	1	0	0	0.41616	0.10571	0.17447	0.21916	0.0933	0.085273	0.19187	0.15402	0.18707	0.12699	0.30545	0.39368	0.28195	0.16541	0.14413	0.22747	-2.5083	-3.1	-2.4833	-3.2083	-2.9313	-2.5312	-3.3292	-2.8208	-2.625	-3.3021	-2.475	-2.9896	-3.0979	-2.4	-3.3042	-2.9104	175.964	66.749	127.567	380.410	68.137	220.505	377.513	355.520	127.852	225.427	310.553	325.588	65.885	351.369	308.745	303.563	0.0001245	0.00017348	0.00015491	1224.4	2.6714e-06	1.358e-06	1330.1	253.28	5.8739e-07	1.1027e-05	317.77	86.858	68.839	19.899	3.0975e-06	27.768	0.00076626	0.00078176	0.0002506	1226.5	8.8128e-06	8.5426e-06	1333.2	260.68	8.6272e-06	8.7389e-06	330.91	92.796	72.792	21.891	1.0075e-05	30.584	205.072	115.514	338.316	37.888	106.726	58.509	37.775	45.275	177.416	156.231	45.058	52.230	52.355	59.273	53.037	58.697	-8191	255	
1490.262	1	1	0	0	0.13095	0.054693	0.024621	0.22872	0.26667	0.12713	0.12281	0.14746	0.20513	0.23183	0.031415	0.42699	0.12043	0.083732	0.14851	0.13532	-2.2292	-3.075	-2.5896	-3.2188	-3.1396	-2.6042	-3.2042	-2.9333	-2.5146	-3.3646	-2.7	-2.6979	-3.2667	-2.3417	-3.2875	-3.1104	219.671	282.799	50.512	372.033	322.401	305.490	34.469	249.405	59.835	338.207	257.590	344.231	68.549	308.550	261.128	346.528	0.00017812	0.00062288	1.9656e-05	1228.4	6.2032e-06	4.2026e-06	1332.6	254.35	2.8918e-06	7.785e-06	318.75	86.769	68.751	20.203	5.903e-06	27.967	0.00075907	0.00082567	0.00025828	1227.3	8.7424e-06	9.0747e-06	1334.3	260.98	8.5027e-06	9.3092e-06	330.92	92.472	72.634	22.142	9.843e-06	30.48	203.969	52.409	140.243	37.797	106.349	239.694	37.682	45.413	172.473	160.493	44.747	52.398	52.635	59.391	288.927	59.141	-8191	255	
1490.381	1	1	0	0	0.072086	0.09473	0.049671	0.11484	0.1696	0.11582	0.2242	0.16051	0.18298	0.095863	0.091786	0.35783	0.043752	0.17474	0.1921	0.1717	-2.1875	-3.2708	-2.6437	-2.8396	-3.2979	-2.3479	-3.1333	-2.8792	-2.5333	-3.2729	-2.7708	-2.6896	-2.9625	-2.3271	-2.8542	-3.0229	82.465	366.842	60.933	352.143	175.097	87.272	28.980	372.323	33.177	302.395	72.636	54.010	179.867	339.149	216.376	324.657	0.0002427	0.0010419	0.00028448	1225.7	5.185e-06	2.3529e-06	1335.5	252.54	6.3316e-06	9.146e-06	317.07	87.328	68.57	19.803	9.9936e-06	27.716	0.00074375	0.00087599	0.00024874	1222.2	8.5443e-06	9.4755e-06	1333.5	259.81	8.3883e-06	9.6331e-06	328.81	92.127	72.485	22.058	9.3416e-06	30.251	188.732	85.647	368.944	37.022	194.053	249.603	37.291	44.861	213.774	251.539	44.324	51.681	52.004	58.551	209.368	57.851	-8191	255	
1490.477	1	1	0	0	0.23789	0.15587	0.17718	0.28839	0.18611	0.28735	0.090844	0.098999	0.13695	0.01958	0.15249	0.17879	0.12418	0.13158	0.19449	0.19674	-1.9562	-3.2	-2.8104	-2.6229	-3.2354	-2.5729	-3.0229	-2.9896	-2.4375	-3.0563	-2.8417	-2.8688	-3.2938	-2.375	-2.9021	-3.1021	92.469	138.267	267.873	51.671	247.398	151.161	354.281	288.613	350.348	335.438	240.109	358.805	82.759	32.205	301.867	274.136	0.00018081	0.0005688	4.1136e-05	1220.4	3.9159e-06	1.086e-05	1337.7	252.46	9.2786e-06	4.2747e-06	317.08	86.492	68.127	19.914	6.0418e-06	27.887	0.00074468	0.00088778	0.00023631	1219.7	8.6563e-06	9.8e-06	1331	258.95	8.6468e-06	9.8315e-06	327.62	91.646	72.473	22.171	8.9322e-06	30.209	236.243	68.278	143.959	37.151	229.921	261.902	37.467	44.606	231.980	212.008	44.552	51.707	51.705	58.522	151.859	57.787	-8191	255	
1490.551	1	1	0	0	0.081298	0.054635	0.08758	0.27083	0.1133	0.095168	0.18936	0.34641	0.19427	0.11928	0.045703	0.42981	0.059931	0.076242	0.10761	0.11872	-2.0646	-3.0687	-2.8583	-2.7771	-3.1521	-2.4479	-2.9917	-3.175	-2.3604	-3.1167	-3.0479	-2.5542	-3.275	-2.7771	-2.8563	-3.3208	51.514	126.786	222.501	274.131	39.807	357.506	308.991	357.850	142.700	80.840	153.571	347.871	65.059	176.080	192.555	361.005	0.00019485	0.00046381	0.00011648	1223.7	7.697e-06	6.9274e-06	1329.6	252.47	1.0589e-05	6.2465e-06	317.32	86.386	68.745	19.812	3.59e-06	27.664	0.00079427	0.00089502	0.00022901	1219	9.1456e-06	9.7271e-06	1326.2	258.58	9.253e-06	9.6333e-06	326.96	91.744	73.058	22.061	8.7868e-06	30.16	217.239	125.743	95.141	37.246	223.779	245.450	37.457	45.000	246.905	46.305	44.465	51.562	52.129	58.284	213.137	58.389	-8191	255	
1490.670	1	1	0	0	0.11513	0.10865	0.21862	0.34384	0.13434	0.12209	0.26298	0.16442	0.13836	0.11971	0.16858	0.12499	0.29659	0.085046	0.20618	0.28638	-2.1688	-2.9354	-2.9062	-2.6417	-3.2021	-2.7188	-2.7271	-3.2042	-2.5667	-3.0187	-3.1021	-2.4417	-3.075	-2.7417	-2.6604	-3.2708	371.833	323.389	118.100	365.615	284.577	74.094	69.539	190.700	340.104	225.883	304.937	337.139	69.512	345.421	210.020	376.497	0.00024482	0.0007708	3.8303e-05	1219.7	4.6654e-06	5.6258e-06	1333.4	253.79	4.0093e-06	7.4482e-06	318.58	87.296	68.33	20.005	5.636e-06	27.858	0.00084375	0.00086047	0.00022719	1219.2	9.7166e-06	9.4585e-06	1326.2	259.34	9.7484e-06	9.3173e-06	327.56	92.103	73.573	22.045	8.6368e-06	30.302	207.622	178.158	267.975	37.132	141.601	94.200	37.199	44.893	277.850	70.578	44.056	51.787	51.906	58.672	153.718	57.867	-8191	255	
1490.766	1	1	0	0	0.15588	0.099756	0.13726	0.11825	0.17584	0.3568	0.36676	0.20756	0.13554	0.14522	0.32467	0.18738	0.15947	0.16957	0.16293	0.06526	-2.0229	-2.7562	-3.0708	-2.625	-3.0229	-2.8146	-2.6125	-3.3083	-2.5104	-2.9062	-3.1604	-2.5917	-3.1979	-3.0896	-2.6354	-3.1479	59.282	146.642	99.596	280.770	222.357	364.829	355.213	338.502	41.018	171.666	346.007	285.736	137.442	375.913	249.141	273.608	0.00028284	0.00027678	8.5868e-05	1227	9.3624e-06	4.5064e-06	1329.9	251.98	3.1014e-06	3.8761e-06	316.39	86.787	68.618	19.972	5.3546e-06	27.814	0.00087964	0.0008361	0.00022304	1224.1	9.9537e-06	9.1628e-06	1324.3	259.83	9.9283e-06	9.059e-06	326.75	92.295	73.42	21.961	8.457e-06	30.495	215.077	277.801	317.167	37.234	195.367	79.437	37.529	45.246	135.646	270.819	44.659	51.635	51.560	58.614	231.907	58.331	-8191	255	
1490.862	1	1	0	0	0.2548	0.29241	0.094993	0.25134	0.10655	0.17716	0.24051	0.26501	0.083936	0.18916	0.14841	0.13274	0.045967	0.29671	0.2636	0.074459	-2.1896	-2.8125	-2.9771	-2.4729	-2.975	-3.0479	-2.6437	-3.2604	-2.5167	-2.6458	-3.1708	-2.5917	-3.0896	-3.0771	-2.4917	-3.3208	63.533	192.726	79.972	330.685	330.941	159.963	371.577	331.312	77.454	376.426	75.024	366.017	332.108	294.832	110.120	319.546	0.00013068	0.00054747	7.7021e-05	1223.8	6.412e-06	8.3827e-06	1331.3	252.11	4.0088e-06	4.3204e-06	317.04	87.111	68.05	19.771	5.3958e-06	27.601	0.00085901	0.00081039	0.0002156	1224.9	9.5226e-06	8.8275e-06	1322.6	260.51	9.5557e-06	8.6225e-06	326.17	92.964	72.802	21.811	8.4387e-06	30.631	195.899	331.715	132.500	37.007	234.808	215.414	37.337	44.950	241.036	126.155	44.543	52.012	51.881	58.659	223.153	58.504	-8191	255	
1490.982	1	1	0	0	0.079184	0.1033	0.16107	0.37702	0.1397	0.12621	0.43333	0.14055	0.3043	0.2344	0.1018	0.11639	0.093986	0.21284	0.1168	0.0021633	-2.4062	-2.7292	-2.9896	-2.7083	-2.7917	-3.1167	-2.7062	-3.3417	-2.7333	-2.4896	-3.3292	-2.4188	-3.0854	-3.2271	-2.5312	-3.2208	382.621	62.189	383.133	329.835	373.328	332.633	31.516	100.691	50.350	175.665	358.747	323.085	153.463	381.864	340.589	180.000	0.0001619	0.00017592	0.00018947	1221.3	8.0042e-06	4.2297e-06	1327.4	253.28	5.9671e-06	3.2202e-06	318.03	86.921	68.518	19.81	4.1028e-06	27.633	0.00082895	0.00077959	0.00022154	1227.6	9.1681e-06	8.6487e-06	1324	261.28	9.2141e-06	8.3886e-06	327.4	93.172	72.721	21.833	9.0165e-06	30.775	196.112	40.925	109.152	37.306	77.460	321.435	37.443	45.098	215.449	147.201	44.842	51.884	51.903	58.090	246.966	58.220	-8191	255	
1491.079	1	1	0	0	0.12084	0.23417	0.30478	0.28259	0.18599	0.11387	0.11744	0.22126	0.065083	0.086515	0.12651	0.22293	0.12993	0.074576	0.21666	0.083193	-2.3063	-2.5167	-3.2271	-2.6729	-2.7271	-3.075	-2.7062	-3.1229	-2.9292	-2.3833	-3.2125	-2.6167	-2.8563	-3.0646	-2.5729	-3.0104	356.395	197.517	46.186	372.358	95.216	133.827	287.398	343.679	159.536	343.060	58.854	326.403	297.386	323.349	201.581	147.919	0.00020753	0.00067648	0.00024107	1228	4.6745e-06	6.708e-06	1331.6	254.5	2.6773e-06	1.9869e-06	319.18	87.323	68.73	20.024	3.1532e-06	27.699	0.0008036	0.00077578	0.0002356	1230.9	8.911e-06	8.5478e-06	1328.7	261.89	9.0941e-06	8.479e-06	329.38	93.24	72.847	21.824	9.6873e-06	30.723	170.766	88.293	108.810	37.397	109.949	238.421	37.634	44.931	270.420	197.506	44.937	51.787	52.214	58.857	252.367	58.594	-8191	255	
1491.150	1	1	0	0	0.11884	0.12411	0.20653	0.37373	0.022421	0.13129	0.23832	0.065008	0.15319	0.27727	0.23461	0.11754	0.085184	0.081284	0.15854	0.025627	-2.4604	-2.3833	-3.0646	-2.9229	-2.8042	-3.2146	-2.6542	-3.1833	-3.0229	-2.4562	-3.3021	-2.7125	-2.6625	-3.05	-2.5	-2.9708	317.595	346.607	257.797	300.786	69.455	272.856	290.432	100.099	45.769	305.733	353.073	385.431	360.512	139.339	78.254	301.634	0.00015842	0.00055586	0.000218	1227.7	6.058e-06	7.8948e-06	1330.8	252.99	2.8204e-06	7.2864e-06	318.88	86.887	68.648	20.029	5.7736e-06	27.703	0.00079813	0.00078119	0.0002542	1229.6	8.8848e-06	8.7533e-06	1333.8	261.13	9.1163e-06	8.6576e-06	331.1	92.954	72.56	21.953	1.0159e-05	30.626	208.556	117.697	180.246	37.261	245.747	191.050	37.611	45.371	335.830	239.889	44.440	51.947	51.966	59.218	171.705	58.155	-8191	255	
1491.271	1	1	0	0	0.082988	0.12666	0.087319	0.10274	0.075074	0.11033	0.23096	0.23121	0.17423	0.07928	0.27891	0.044604	0.15587	0.11475	0.032833	0.077402	-2.7146	-2.5458	-3.0396	-2.9042	-2.5563	-3.2562	-2.7375	-2.9354	-2.9583	-2.5542	-3.0604	-2.8542	-2.6437	-3.2708	-2.6396	-2.8417	51.579	254.643	161.319	348.171	137.905	370.222	95.224	353.834	45.560	182.763	322.717	80.538	34.559	191.299	66.908	363.626	0.00020908	0.00066088	7.9472e-05	1224.5	1.0552e-06	5.765e-06	1330.7	252.74	9.8387e-07	8.7326e-06	319.04	87.194	68.156	19.942	8.0413e-08	27.622	0.0007869	0.0008199	0.00025993	1227.6	8.744e-06	9.2512e-06	1333.6	260.05	8.9516e-06	9.269e-06	331.19	92.787	72.39	22.091	1.0251e-05	30.388	201.296	199.171	266.042	37.452	235.727	163.416	37.972	45.630	315.307	198.272	44.863	52.605	52.577	59.313	107.167	58.280	-8191	255	
1491.365	1	1	0	0	0.25285	0.15384	0.15174	0.11613	0.14303	0.032097	0.38827	0.12663	0.13543	0.21046	0.068988	0.072277	0.20703	0.080806	0.10658	0.14931	-2.75	-2.3333	-2.8833	-2.9667	-2.5042	-3.2208	-2.9708	-2.7917	-3.0521	-2.4104	-2.8583	-2.9667	-2.5875	-3.25	-2.7125	-2.7917	106.868	166.167	95.343	44.884	170.363	100.791	331.503	197.417	294.607	80.200	42.039	187.314	40.011	367.967	98.502	94.287	0.00018858	0.00042025	0.00012092	1228.2	4.9554e-06	3.5627e-06	1334.3	252.91	2.2018e-06	4.1661e-06	318.26	87.266	68.434	19.833	4.7735e-06	27.683	0.0007753	0.00087365	0.00025707	1225.7	8.5787e-06	9.753e-06	1331.2	259.89	8.7455e-06	9.8791e-06	329.93	92.466	72.582	22.235	9.901e-06	30.318	231.465	107.125	303.395	37.937	273.405	104.421	37.389	44.925	104.197	147.107	44.624	51.931	51.921	58.884	107.214	58.530	-8191	255	
1491.461	1	1	0	0	0.031333	0.15719	0.30748	0.13828	0.26694	0.16741	0.23825	0.11577	0.15942	0.18561	0.34198	0.20184	0.18624	0.16542	0.26363	0.16475	-2.9875	-2.3396	-3	-3.0604	-2.4313	-3.25	-2.8375	-2.6354	-3.1792	-2.4417	-2.8417	-2.9271	-2.5938	-3.1771	-2.6854	-2.6417	336.302	72.299	311.197	374.677	311.078	257.425	368.862	285.832	347.045	213.487	385.766	257.533	153.347	111.579	152.335	158.982	0.00017779	0.0010616	0.00014931	1224.5	3.5029e-06	5.7524e-06	1335.6	250.86	5.1182e-06	4.2643e-06	317.58	86.763	68.24	19.877	1.5928e-06	27.632	0.00078413	0.00092728	0.00024752	1225	8.7129e-06	1.0107e-05	1330.9	258.57	8.968e-06	1.0075e-05	328.37	92.201	72.565	22.232	9.4057e-06	30.145	207.532	184.796	333.009	37.702	351.712	216.638	37.567	44.890	227.175	346.936	44.485	51.839	52.224	58.671	161.570	58.438	-8191	255	
1491.558	1	1	0	0	0.233	0.0054181	0.19691	0.15101	0.32422	0.25673	0.56472	0.10646	0.12451	0.11866	0.14759	0.12296	0.23347	0.19054	0.10838	0.27664	-2.7583	-2.425	-2.8729	-3.0521	-2.5333	-3.1417	-2.9604	-2.7062	-3.2292	-2.525	-2.8333	-3.0979	-2.5604	-2.9708	-2.8063	-2.5479	313.532	313.538	210.452	52.134	313.598	302.766	306.828	309.783	192.236	203.899	339.158	340.575	354.236	322.628	31.237	35.787	0.00028761	0.0008574	0.00020783	1223.5	3.4682e-06	3.1567e-06	1329.4	252.73	5.5651e-06	2.9919e-06	317.33	86.887	68.498	19.848	3.4468e-06	27.721	0.00081396	0.00093143	0.00023369	1222	9.2105e-06	9.9699e-06	1327.6	258.68	9.556e-06	1.0055e-05	327.2	92.028	73.341	22.2	9.2527e-06	30.165	191.734	67.785	136.240	37.722	174.828	82.622	38.068	45.454	180.060	346.208	44.822	52.023	52.524	59.227	103.122	58.945	-8191	255	
1491.678	1	1	0	0	0.09507	0.29606	0.25602	0.20114	0.19258	0.14274	0.1941	0.21125	0.10935	0.2803	0.22603	0.057441	0.095793	0.27173	0.15565	0.179	-2.9062	-2.6021	-2.6667	-3.1854	-2.4375	-3.1125	-3.1188	-2.5438	-3.1333	-2.7667	-2.7958	-3.2292	-2.5104	-2.8187	-3.0521	-2.5062	114.502	197.197	66.098	325.932	98.149	353.605	298.527	308.794	168.685	65.217	314.350	386.668	64.361	318.302	360.107	367.801	0.00027498	0.00062627	0.00026647	1225.2	5.9011e-06	2.726e-06	1332.8	252.38	2.634e-06	1.0677e-05	318.39	87.159	68.536	20.01	2.7678e-06	27.796	0.0008733	0.00090807	0.00023195	1222.7	9.9359e-06	9.8313e-06	1329.1	258.79	1.0104e-05	9.7714e-06	327.6	92.305	73.622	22.048	8.9246e-06	30.218	206.302	305.720	61.383	38.046	239.955	157.569	38.181	45.508	291.315	64.865	45.012	52.917	52.606	59.250	100.592	58.640	-8191	255	
1491.750	1	1	0	0	0.1686	0.091351	0.28192	0.033625	0.28352	0.054591	0.35107	0.076837	0.10171	0.16125	0.17493	0.1699	0.15134	0.14459	0.15421	0.084915	-2.7833	-2.7854	-2.5208	-3.3312	-2.4833	-2.7708	-3.2292	-2.6188	-3.0354	-2.6875	-2.6896	-3.2562	-2.4313	-2.9062	-3.1708	-2.4833	342.556	162.051	330.361	368.627	369.354	223.214	323.920	239.373	201.240	209.182	292.588	241.645	354.697	353.390	78.425	202.191	0.00017983	0.00049654	8.4788e-05	1225.5	3.263e-06	4.6336e-06	1331.9	253.16	4.3239e-06	5.2863e-06	316.64	86.83	68.236	19.807	6.4004e-06	27.791	0.00088349	0.00086116	0.00022177	1224	1.0077e-05	9.2823e-06	1326.8	259.71	1.0163e-05	9.2587e-06	326.42	92.498	73.39	21.947	8.7499e-06	30.503	193.408	170.110	229.661	38.023	154.377	283.434	38.326	45.502	139.632	146.262	44.505	52.368	52.199	59.198	187.377	58.405	-8191	255	
1491.846	1	1	0	0	0.10716	0.071688	0.089298	0.060142	0.25571	0.028045	0.13868	0.028231	0.15879	0.27894	0.32197	0.22521	0.17024	0.16072	0.27389	0.19976	-2.6417	-2.8125	-2.5479	-3.2854	-2.7625	-2.8104	-3.3146	-2.4875	-3.0479	-2.9104	-2.6104	-3.2542	-2.4875	-2.6208	-3.2167	-2.6104	142.898	57.324	291.532	359.708	132.920	297.513	332.833	251.674	354.295	66.423	267.668	309.355	289.017	366.910	57.657	314.312	0.00019588	0.00018054	0.00020535	1223.8	8.6058e-06	4.2575e-06	1334.3	254.02	3.7567e-06	2.7733e-06	315.87	86.998	68.591	19.897	2.5568e-06	27.646	0.00088036	0.00084524	0.00021737	1225.3	1.0018e-05	8.9645e-06	1325.5	261.19	9.8731e-06	9.0816e-06	325.91	92.92	73.311	21.882	8.7177e-06	30.727	231.172	171.762	151.343	37.594	236.751	192.175	37.887	45.480	195.062	206.360	44.907	52.541	52.125	59.014	248.417	58.480	-8191	255	
1491.942	1	1	0	0	0.11759	0.051603	0.28423	0.19924	0.10755	0.032014	0.027448	0.071005	0.051036	0.2041	0.27449	0.056184	0.057919	0.069868	0.34897	0.33531	-2.5833	-2.9896	-2.4188	-3.425	-2.6792	-2.5563	-3.4688	-2.5312	-3.025	-3.0229	-2.4854	-3.3542	-2.8854	-2.5771	-3.1729	-2.5708	53.428	190.487	368.725	383.143	360.710	73.292	291.729	200.060	250.302	171.091	291.750	65.979	243.201	109.819	139.238	385.508	0.00020959	0.00012979	0.00017677	1225.1	7.4444e-06	3.4014e-06	1334.6	252.27	3.294e-06	8.8313e-06	317.02	86.76	68.307	19.984	3.8627e-06	27.761	0.00084916	0.00081731	0.00021796	1229.4	9.6117e-06	8.7213e-06	1327.7	261.14	9.3094e-06	8.8081e-06	326.28	93.387	73.044	21.844	8.9903e-06	30.903	210.356	55.305	114.504	37.574	191.572	46.515	38.070	45.305	190.788	160.278	44.946	52.525	53.006	59.267	177.996	59.032	-8191	255	
1492.063	1	1	0	0	0.10418	0.21565	0.062488	0.24536	0.11471	0.13331	0.32059	0.22376	0.067772	0.13998	0.1457	0.35971	0.33402	0.16992	0.062867	0.18815	-2.4083	-3.1271	-2.4542	-3.1146	-2.9167	-2.6292	-3.3667	-2.8292	-2.7729	-3.1042	-2.5646	-3.1375	-3.0021	-2.4896	-3.1146	-2.75	227.253	101.930	120.105	324.924	76.379	80.854	344.785	311.693	130.391	105.434	114.657	53.827	366.481	347.395	281.203	152.543	7.6161e-05	0.00099494	0.00023309	1226.9	1.5527e-06	1.353e-06	1334.9	253.31	4.1626e-06	9.6343e-06	318.11	87.356	68.38	19.791	6.0724e-06	27.757	0.00081481	0.0008001	0.00023094	1230.3	9.2567e-06	8.5647e-06	1330.5	261.44	9.0441e-06	8.6983e-06	329.22	93.479	72.94	21.778	9.7621e-06	30.778	184.426	133.804	122.333	37.805	141.832	119.227	37.819	45.187	306.190	262.715	44.655	52.045	52.366	59.016	237.500	58.545	-8191	255	
1492.159	1	1	0	0	0.046828	0.25008	0.034373	0.074512	0.061068	0.1613	0.039923	0.21917	0.26347	0.15317	0.17598	0.21142	0.056514	0.20599	0.16552	0.13289	-2.4562	-2.9646	-2.5292	-3.1688	-2.8187	-2.4708	-3.2208	-2.9021	-2.8208	-3.0479	-2.4521	-2.9792	-2.9813	-2.4375	-2.9917	-2.6375	281.059	360.781	58.192	92.619	291.862	62.170	208.665	382.268	276.024	268.331	318.745	370.646	150.141	30.228	158.122	310.210	0.00017592	0.00033409	0.00049664	1232.3	3.2513e-06	1.9495e-06	1333.4	252.98	9.4487e-07	5.3857e-06	318.59	86.248	68.121	19.845	6.0655e-06	27.651	0.00079513	0.00079893	0.00025114	1232.2	9.1952e-06	8.6812e-06	1334.4	260.65	8.9282e-06	8.8455e-06	330.59	92.781	72.743	21.837	1.0265e-05	30.703	218.074	41.115	105.285	37.647	235.063	239.223	38.049	45.458	140.655	225.480	44.648	52.177	52.662	59.062	243.918	58.639	-8191	255	
1492.255	1	1	0	0	0.15855	0.15093	0.15332	0.25333	0.16918	0.084093	0.099645	0.25634	0.19344	0.088039	0.23099	0.054368	0.19389	0.057174	0.13654	0.055008	-2.3625	-3.0271	-2.5729	-3.0167	-2.9938	-2.6771	-3.3812	-2.8375	-2.7083	-3.2958	-2.5729	-2.9	-3.1937	-2.475	-2.9437	-2.8729	297.931	282.159	231.153	345.659	73.897	371.445	336.118	370.482	141.790	328.221	33.474	232.456	305.370	331.533	221.651	313.122	0.00015745	0.00062679	9.5154e-05	1225.9	5.3202e-06	5.8429e-06	1332.7	252.61	5.4014e-06	7.5972e-06	317.17	87.614	68.558	20.098	7.4397e-06	27.778	0.00078622	0.00082841	0.00026345	1227.5	8.9691e-06	9.0607e-06	1335.8	261	8.773e-06	9.315e-06	331.3	92.93	72.716	22.053	1.0375e-05	30.545	204.683	154.001	163.534	37.875	266.463	234.600	38.597	45.761	276.149	206.471	45.125	53.062	52.747	59.529	203.285	59.214	-8191	255	
1492.351	1	1	0	0	0.17976	0.10767	0.12692	0.13059	0.062259	0.23955	0.26352	0.20576	0.10047	0.18617	0.097401	0.12517	0.11762	0.27791	0.094621	0.1929	-2.2854	-3.3104	-2.575	-3.0563	-3.0875	-2.5083	-3.2938	-2.9958	-2.7646	-3.1688	-2.6	-2.9896	-3.1667	-2.5312	-2.9792	-3.0896	85.855	387.412	156.292	90.100	347.281	79.502	380.799	313.272	37.784	185.344	116.044	219.611	318.617	345.290	179.769	327.799	0.00016897	0.00055265	0.00033098	1223.9	1.0724e-06	3.105e-06	1334.5	253.72	3.1998e-06	3.09e-06	317.52	86.76	68.657	20.007	9.7026e-06	27.888	0.00077158	0.00089396	0.00026625	1225.5	8.8989e-06	9.8247e-06	1338.2	261.18	8.7232e-06	1.0042e-05	331.27	92.574	72.77	22.252	1.0102e-05	30.564	182.013	116.783	89.191	37.787	101.934	287.320	38.067	45.672	308.662	141.682	45.383	52.548	52.614	59.308	174.156	59.470	-8191	255	
1492.446	1	1	0	0	0.12032	0.20784	0.064612	0.33887	0.34322	0.23119	0.2921	0.17778	0.24731	0.061394	0.049314	0.078398	0.28908	0.16676	0.12881	0.096961	-2.2396	-3.1437	-2.7708	-2.7646	-3.1521	-2.5354	-3.1312	-3.1396	-2.5896	-3.0729	-2.6458	-2.8542	-3.0292	-2.6312	-2.8979	-3.2104	150.802	284.215	172.526	320.713	129.793	306.997	385.028	85.608	337.651	203.443	368.603	342.341	273.499	271.133	187.365	233.227	0.00021227	0.00070705	0.00023781	1225.6	4.831e-06	3.7711e-06	1333.9	254.03	6.2965e-06	5.4851e-06	317.38	87.04	68.321	19.95	2.3447e-06	27.618	0.00078315	0.00093464	0.00025559	1225.6	8.9857e-06	1.0262e-05	1332.9	260.41	8.885e-06	1.0352e-05	329.62	92.179	73.045	22.31	9.6408e-06	30.296	204.490	123.551	153.360	38.113	214.859	221.021	37.822	45.128	276.928	142.803	44.703	52.706	52.730	59.654	343.053	58.760	-8191	255	
1492.544	1	1	0	0	0.30474	0.22992	0.12592	0.10174	0.17859	0.15243	0.19176	0.30982	0.059736	0.41008	0.19608	0.21028	0.16803	0.10076	0.025004	0.063355	-2.0812	-3.2104	-2.8729	-2.7792	-3.2687	-2.6125	-3.0542	-3.2271	-2.3375	-2.925	-2.8	-2.5604	-3.2729	-2.8396	-2.7	-3.1729	344.411	241.680	271.390	314.852	64.195	348.680	296.479	341.216	124.302	131.655	362.830	323.390	56.130	358.515	67.155	211.689	0.00028301	0.00036761	1.2814e-05	1223.2	5.2698e-06	3.7243e-06	1336.3	252.39	7.9893e-06	4.7328e-06	317.57	87.381	69.108	20.084	3.224e-06	27.777	0.00080689	0.00094084	0.00024407	1222.7	9.3265e-06	1.0183e-05	1330.3	259.45	9.3778e-06	1.0142e-05	328.51	92.126	73.491	22.275	9.0819e-06	30.319	200.256	65.377	261.224	37.758	199.727	52.361	38.284	45.910	192.004	321.526	45.216	52.521	53.064	59.372	181.875	59.191	-8191	255	
1492.662	1	1	0	0	0.075664	0.27825	0.17315	0.24277	0.10417	0.073818	0.11068	0.29685	0.14039	0.064839	0.11434	0.1298	0.18091	0.10554	0.27081	0.12926	-2.0771	-3.1312	-2.9354	-2.6854	-3.0833	-2.5896	-2.9271	-3.0875	-2.3063	-3.0062	-2.9188	-2.6021	-3.3688	-2.6333	-2.6937	-3.2458	46.462	216.620	277.728	72.633	179.365	319.179	384.055	245.362	337.126	257.820	111.264	220.669	188.843	319.948	344.535	47.563	0.00019459	0.00021036	6.0105e-05	1230.7	7.1485e-06	3.031e-06	1334	254.2	6.2067e-06	5.572e-06	317.2	86.853	68.45	19.972	4.9873e-06	27.83	0.00084192	0.0009064	0.00023415	1224.6	9.764e-06	9.823e-06	1327.9	260.17	9.8295e-06	9.7174e-06	327.99	92.035	73.642	22.184	8.8443e-06	30.377	217.892	194.723	323.951	38.134	225.216	182.340	38.408	45.851	197.812	79.313	45.547	52.883	53.184	59.303	203.587	58.825	-8191	255	
1492.759	1	1	0	0	0.1313	0.25414	0.10656	0.27449	0.10781	0.041584	0.23616	0.12421	0.047332	0.1162	0.31488	0.18897	0.17455	0.10683	0.15686	0.32978	-2.1708	-2.6979	-3.0979	-2.5896	-3.1458	-2.6646	-2.5938	-3.1375	-2.4583	-2.8208	-3.1646	-2.5604	-3.0187	-2.9208	-2.5938	-3.2458	79.603	68.811	346.149	298.449	325.568	298.574	256.129	369.784	226.566	159.179	145.284	337.311	335.487	316.268	118.477	273.323	0.00022574	0.00042868	7.9535e-05	1224	6.7695e-06	5.0596e-06	1339.1	252.3	2.5457e-06	3.0652e-06	317.77	86.726	68.813	19.885	5.0297e-06	27.732	0.00088483	0.00087012	0.00022807	1223.3	1.0109e-05	9.5602e-06	1328.7	260.09	1.0074e-05	9.2714e-06	327.25	92.524	73.745	22.095	8.5279e-06	30.552	164.241	95.782	30.496	37.810	235.950	57.991	37.866	45.828	185.106	70.604	45.074	52.676	52.666	59.364	252.182	59.002	-8191	255	
1492.855	1	1	0	0	0.016249	0.17065	0.064202	0.14158	0.25314	0.099504	0.15615	0.11473	0.16043	0.078238	0.1096	0.12078	0.083056	0.14523	0.15469	0.2158	-2.1854	-2.8708	-3.1917	-2.5312	-3.2729	-2.8542	-2.8375	-3.3292	-2.5917	-2.8458	-3.225	-2.6917	-3.1021	-2.9271	-2.6229	-3.3021	326.953	103.356	93.868	314.883	256.656	336.549	374.219	244.519	47.223	336.177	303.388	308.748	64.799	43.878	186.114	295.723	0.00018203	0.00027533	0.00019753	1228.5	3.4863e-06	7.6852e-06	1340.1	253.48	2.9335e-06	3.2711e-06	319.29	87.716	68.82	20.01	2.1309e-06	27.812	0.00088742	0.00083539	0.00022286	1229	9.9458e-06	9.1883e-06	1328.1	261.26	9.9358e-06	8.8973e-06	327.4	93.265	73.499	22.047	8.5524e-06	30.775	206.841	355.418	139.350	38.098	187.734	114.106	38.261	45.728	368.052	156.152	45.440	52.949	52.894	59.727	303.480	58.754	-8191	255	
1492.951	1	1	0	0	0.13729	0.35179	0.098345	0.1394	0.15601	0.056292	0.13392	0.14222	0.31037	0.28105	0.073384	0.19039	0.14721	0.11686	0.22389	0.13743	-2.35	-2.65	-3.1542	-2.7979	-2.8833	-3.1875	-2.675	-3.2958	-2.7104	-2.6875	-3.2188	-2.5375	-3.0521	-3.1063	-2.2292	-3.1063	138.936	162.337	176.826	273.401	311.854	200.683	221.150	339.915	73.518	43.117	210.196	254.797	359.611	363.399	45.671	344.437	0.00018911	0.00071405	0.00021278	1224.1	4.0134e-06	2.0016e-06	1334.4	253.16	1.5815e-06	5.2407e-06	318.31	87.404	68.566	19.943	3.0269e-06	27.749	0.00086185	0.00081303	0.00022306	1231.4	9.6096e-06	8.9642e-06	1328.8	262.28	9.6062e-06	8.8381e-06	328.17	93.415	73.182	22.006	9.0026e-06	30.974	201.439	359.737	155.513	38.298	161.057	49.013	38.216	45.578	334.390	52.076	45.750	52.829	53.094	59.535	293.209	58.756	-8191	255	
1493.047	1	1	0	0	0.28859	0.22895	0.087665	0.52729	0.32603	0.24778	0.17006	0.071083	0.13552	0.23092	0.072832	0.23711	0.13284	0.086892	0.13193	0.1468	-2.2729	-2.6188	-3.1021	-2.6792	-2.7854	-3.0646	-2.6167	-3.3458	-2.825	-2.6625	-3.1833	-2.6667	-2.8667	-3.0875	-2.5458	-3.1312	123.984	72.317	342.854	355.134	273.620	157.408	284.890	374.484	106.476	82.637	145.584	275.850	114.077	102.529	51.034	130.183	0.00023083	0.00039028	0.00013595	1228.5	9.2375e-06	5.9813e-06	1339.9	253.73	5.6671e-06	4.566e-06	319.91	87.541	68.75	20.138	9.207e-06	27.763	0.00083962	0.00080384	0.00023599	1234.2	9.4172e-06	8.9559e-06	1332.8	262.72	9.5406e-06	8.7831e-06	330.66	93.777	73.251	22.006	9.8689e-06	30.921	197.055	155.886	158.754	38.327	248.271	328.155	38.460	46.225	269.582	115.894	45.787	53.032	53.264	60.088	216.059	59.877	-8191	255	
1493.143	1	1	0	0	0.23911	0.195	0.21648	0.16544	0.094978	0.093757	0.14983	0.12855	0.019706	0.18317	0.23191	0.12884	0.11693	0.25697	0.053337	0.27833	-2.6021	-2.6229	-3.1208	-2.7146	-2.6729	-3.15	-2.6854	-2.9854	-2.8792	-2.5521	-3.1063	-2.6542	-2.8354	-2.9938	-2.4104	-3.1208	269.166	50.978	143.996	344.562	235.175	349.109	343.909	233.959	278.012	209.472	299.548	47.563	222.879	63.774	330.938	264.143	0.00020674	0.00044831	0.0001205	1227.7	3.0935e-06	3.8356e-06	1331.9	252.87	5.0293e-06	7.2057e-06	318.19	87.329	68.665	19.943	2.4048e-06	27.515	0.00084127	0.00081222	0.0002585	1233.7	9.3214e-06	9.0422e-06	1336.7	262.22	9.594e-06	8.9256e-06	332.09	93.734	73.152	22.055	1.0647e-05	30.787	184.967	350.868	154.952	37.543	206.242	359.769	37.601	44.736	345.993	231.415	44.473	51.912	52.277	59.187	301.556	58.418	-8191	255	
1493.239	1	1	0	0	0.20344	0.23143	0.066114	0.21876	0.20638	0.053855	0.040585	0.15412	0.060268	0.2609	0.067795	0.19317	0.16578	0.094021	0.22937	0.070488	-2.6937	-2.3333	-2.9813	-2.8042	-2.7083	-3.1458	-2.8458	-2.9313	-2.8958	-2.5604	-3.2396	-2.7771	-2.5771	-3.3	-2.4396	-2.925	347.572	180.318	350.957	284.497	293.390	304.210	374.839	299.386	117.842	157.462	29.258	58.686	222.245	297.756	114.217	298.953	0.00014827	0.00062237	0.00015082	1226.9	4.7745e-06	8.655e-06	1333.6	252.51	3.1981e-06	7.0157e-06	317.4	87.397	68.677	19.972	5.3165e-06	27.994	0.00083685	0.00084807	0.00027462	1233.7	9.2934e-06	9.6016e-06	1339.4	261.97	9.5553e-06	9.578e-06	333.6	93.557	73.196	22.213	1.099e-05	30.835	195.911	192.836	80.540	37.297	225.066	280.452	37.655	45.277	229.882	185.120	44.876	51.811	52.104	58.919	373.726	58.499	-8191	255	
1493.360	1	1	0	0	0.13135	0.055685	0.055232	0.27276	0.096863	0.22671	0.31273	0.10425	0.024665	0.069112	0.11913	0.13709	0.18001	0.25187	0.17474	0.25058	-2.5438	-2.3771	-3.1917	-2.9708	-2.6042	-3.2146	-2.7354	-2.8187	-3.2021	-2.6146	-3.1104	-2.8854	-2.5938	-3.1792	-2.6125	-2.9313	85.261	308.547	214.834	371.854	58.747	193.272	363.782	99.060	321.231	318.612	371.635	139.294	55.202	314.370	38.248	309.916	0.00017412	0.0014869	0.00022777	1232.4	1.2106e-05	1.0957e-05	1333.8	254.24	1.7883e-06	3.6858e-06	319.24	87.442	68.905	20.166	4.1826e-06	27.972	0.00083026	0.00090359	0.0002753	1234.2	9.1684e-06	1.0183e-05	1341.2	261.73	9.2e-06	1.0119e-05	332.96	93.312	73.02	22.397	1.0536e-05	30.688	201.402	119.483	148.914	37.542	169.441	198.648	37.504	45.281	229.404	209.186	44.676	52.455	52.085	59.650	94.309	57.715	-8191	255	
1493.454	1	1	0	0	0.27253	0.11188	0.058253	0.13962	0.15164	0.13554	0.30335	0.37038	0.2543	0.31042	0.21211	0.10256	0.2469	0.38291	0.12566	0.088737	-2.775	-2.475	-3.0125	-3.0979	-2.65	-3.1063	-2.8312	-2.8646	-3.0542	-2.3937	-3.0271	-2.975	-2.4125	-3.2229	-2.7604	-2.6396	275.884	283.578	119.953	318.588	104.119	159.107	348.240	304.007	89.764	65.456	50.745	40.843	299.464	382.565	172.575	181.589	0.00018412	0.0012703	0.00018889	1233.9	7.9506e-06	6.327e-06	1339.8	254.29	1.8521e-06	9.7107e-06	318.46	87.605	68.988	19.97	5.3723e-06	27.797	0.00081339	0.00095773	0.00026433	1233.9	9.1483e-06	1.0677e-05	1339	261.26	9.5141e-06	1.0713e-05	331.35	93.457	73.399	22.516	1.0339e-05	30.586	198.704	86.751	314.016	37.632	249.052	255.614	37.624	45.180	146.673	191.551	45.044	52.233	52.131	59.293	102.703	58.556	-8191	255	
1493.551	1	1	0	0	0.16997	0.24658	0.45902	0.31555	0.07097	0.10887	0.20447	0.1814	0.24251	0.0094382	0.1639	0.3167	0.20284	0.18948	0.16736	0.080012	-2.7042	-2.3667	-2.9333	-3.1625	-2.3979	-3.1083	-2.9146	-2.6688	-3.1625	-2.5833	-3.0563	-3.1896	-2.4688	-3.0021	-2.7354	-2.4667	301.201	155.320	372.646	327.071	358.034	248.490	32.648	296.204	128.067	314.710	329.145	351.066	277.945	90.947	134.090	336.566	0.00033113	0.00066795	0.0001939	1229.4	5.7485e-06	6.1363e-06	1341.8	253.8	9.5833e-07	6.7172e-06	316.68	87.593	68.572	20.093	2.8293e-06	27.91	0.00086094	0.0010014	0.00025399	1231.7	9.8058e-06	1.0941e-05	1338.9	261.35	1.0045e-05	1.0998e-05	330.59	93.18	73.634	22.604	9.9999e-06	30.525	220.738	172.766	359.382	37.830	230.156	105.041	37.844	45.077	123.990	106.184	45.118	52.543	52.579	58.991	313.003	58.947	-8191	255	
1493.647	1	1	0	0	0.11547	0.072028	0.1142	0.23094	0.11712	0.047065	0.10149	0.05712	0.055271	0.13527	0.20093	0.088408	0.10032	0.060757	0.14009	0.050697	-2.7812	-2.5312	-2.7208	-3.3979	-2.4688	-3.1354	-3.1	-2.7208	-3.2313	-2.6604	-2.8104	-3.3542	-2.5854	-2.9708	-2.9271	-2.5958	81.178	368.112	312.772	366.076	28.226	46.900	366.365	345.118	70.781	256.455	188.509	257.516	92.217	324.440	40.189	335.521	0.00025953	0.00038971	5.9351e-05	1238	1.8248e-05	2.1351e-06	1341.5	254.87	1.2314e-05	3.863e-06	318.27	87.184	69.281	20.092	2.3583e-06	27.777	0.00090644	0.00099301	0.00024627	1233.7	1.0474e-05	1.0585e-05	1340.1	261.53	1.0769e-05	1.0745e-05	330.59	93.17	74.56	22.504	9.9706e-06	30.664	214.128	83.915	35.228	37.912	205.611	144.719	38.191	45.415	190.408	255.941	45.064	52.905	52.528	59.329	262.293	58.786	-8191	255	
1493.743	1	1	0	0	0.33846	0.11912	0.24919	0.096515	0.25417	0.2855	0.24437	0.049311	0.15041	0.090773	0.1672	0.11791	0.29582	0.2728	0.13157	0.081414	-2.7021	-2.7167	-2.6875	-3.2583	-2.4958	-3.0646	-3.2104	-2.5896	-3.1437	-2.7604	-2.5292	-3.1063	-2.7583	-2.7646	-3.025	-2.5	237.902	364.808	369.979	53.803	31.084	323.422	318.471	231.323	48.198	214.361	82.175	383.706	37.355	86.252	292.942	151.078	0.00018457	0.00038048	0.00010288	1233	5.9014e-06	5.8015e-06	1340.8	254.39	5.2555e-06	2.0161e-06	320.53	87.504	68.697	20.017	4.0815e-06	27.93	0.00095742	0.00096569	0.00024515	1233.3	1.098e-05	1.0267e-05	1338.1	261.92	1.114e-05	1.039e-05	329.94	93.851	74.682	22.366	9.7757e-06	30.964	196.500	287.794	125.296	38.115	173.457	49.956	38.430	45.676	229.309	143.326	44.997	52.878	53.054	58.922	83.765	58.657	-8191	255	
1493.839	1	1	0	0	0.061455	0.13985	0.25768	0.19885	0.13818	0.07312	0.15793	0.060171	0.039252	0.056511	0.23647	0.31033	0.23698	0.15976	0.1191	0.16621	-2.7208	-2.5875	-2.5667	-3.2208	-2.5229	-2.8458	-3.3271	-2.4542	-2.9979	-2.9167	-2.6479	-3.1958	-2.5208	-2.7396	-3.2208	-2.5729	170.337	363.997	295.882	351.603	120.305	258.495	124.549	318.476	218.595	326.632	339.384	369.126	353.966	94.815	176.355	386.793	0.00016323	0.0004782	0.00015519	1227.4	7.489e-06	1.961e-06	1336.9	254.54	3.6656e-06	1.5013e-06	318.35	87.808	69.07	20.186	4.9711e-06	28.081	0.00098376	0.00094338	0.00024205	1236.6	1.1208e-05	1.0116e-05	1336.7	263.83	1.1232e-05	1.0376e-05	329.98	94.555	74.944	22.366	9.893e-06	31.285	201.430	144.507	134.532	38.239	27.644	294.655	37.699	45.041	169.296	117.474	44.923	51.977	52.071	58.897	201.623	58.559	-8191	255	
1493.935	1	1	0	0	0.27468	0.093071	0.27968	0.41032	0.066732	0.25668	0.28405	0.13809	0.1992	0.16775	0.092263	0.071137	0.16316	0.25493	0.17225	0.19663	-2.6729	-2.8875	-2.6208	-3.2812	-2.6271	-2.6875	-3.425	-2.6063	-3.1813	-3.1521	-2.5417	-3.1562	-2.8	-2.5396	-3.2771	-2.5187	205.071	260.433	67.424	329.963	67.456	370.347	281.591	116.797	361.121	43.541	226.723	97.850	280.562	31.103	197.215	334.321	0.00018065	0.00047521	0.00021599	1233.5	5.6021e-06	2.6752e-06	1345.4	255.04	3.434e-06	7.2015e-06	318.4	87.756	69.278	20.08	6.3161e-06	27.913	0.00096488	0.0009369	0.00024471	1242.8	1.0952e-05	9.9333e-06	1339.9	265.22	1.0739e-05	1.0131e-05	330.76	95.04	74.592	22.353	1.0212e-05	31.547	222.113	44.299	131.612	37.934	251.166	143.503	38.193	45.691	217.476	239.605	44.947	52.316	52.551	58.912	187.884	58.599	-8191	255	
1494.031	1	1	0	0	0.18532	0.04879	0.2376	0.085234	0.23043	0.1815	0.15486	0.20582	0.066164	0.24669	0.20178	0.093644	0.088235	0.20389	0.0969	0.05268	-2.7208	-3.0312	-2.4854	-3.3125	-2.7458	-2.3125	-3.4521	-2.85	-2.7938	-3.1813	-2.7229	-3.0438	-2.9083	-2.5104	-3.1229	-2.6958	74.173	36.818	109.526	375.202	315.793	102.568	247.469	40.397	376.510	149.429	230.508	312.950	293.096	84.985	44.598	167.524	0.00016183	0.00021473	0.00011611	1234.9	5.3542e-06	3.0604e-06	1336.9	254.79	5.0275e-06	7.6613e-06	320.43	88.141	68.623	19.982	8.2069e-06	28.09	0.00093981	0.00092537	0.00025984	1244.2	1.0746e-05	9.9864e-06	1340	265.96	1.0586e-05	1.0156e-05	333.81	95.489	74.478	22.322	1.1023e-05	31.623	194.990	63.236	171.517	38.163	347.589	128.653	38.110	45.741	106.167	201.630	45.373	52.735	52.625	58.819	274.438	58.812	-8191	255	
1494.152	1	1	0	0	0.21633	0.152	0.21039	0.30557	0.1128	0.15029	0.22025	0.16513	0.18184	0.090377	0.12702	0.0801	0.26452	0.082647	0.075708	0.25319	-2.4375	-3.0146	-2.4083	-3.2583	-2.8542	-2.65	-3.3896	-2.7854	-2.725	-3.1292	-2.4062	-3.0812	-2.9396	-2.4521	-3.1146	-2.8396	143.727	143.750	58.460	46.601	176.270	351.989	39.542	57.280	163.036	55.024	345.847	74.738	373.909	355.388	34.331	150.698	0.00019495	0.00035447	0.00031992	1230.1	8.1414e-06	3.9583e-06	1338.4	253.38	3.5277e-06	7.761e-06	320.33	87.504	69.133	19.987	4.6533e-06	27.745	0.00091829	0.00092475	0.00028126	1244.1	1.0636e-05	9.8359e-06	1345.2	265.31	1.0325e-05	1.011e-05	335.41	95.096	74.452	22.308	1.1534e-05	31.399	196.503	298.779	148.828	37.752	131.906	97.346	38.012	45.528	231.158	322.683	45.045	52.288	52.617	59.482	266.058	58.314	-8191	255	
1494.246	1	1	0	0	0.19842	0.27517	0.23991	0.40842	0.077126	0.082667	0.17421	0.18615	0.11553	0.055132	0.29535	0.10894	0.36646	0.26493	0.06324	0.30963	-2.3312	-3.0854	-2.2125	-3.0771	-3.0271	-2.4375	-3.5083	-2.7938	-2.4375	-3.3104	-2.4021	-2.9958	-2.9771	-2.3979	-3.0375	-2.9771	257.510	333.598	129.788	387.457	201.333	118.960	358.739	320.633	238.451	280.882	283.775	110.922	279.986	83.361	351.485	324.052	0.00015563	0.00027076	0.00023893	1236.7	6.3491e-06	1.3304e-05	1349.5	254.56	2.6191e-06	1.1086e-05	320.39	87.943	68.759	19.974	3.2584e-06	28.073	0.00088833	0.00092009	0.00029344	1243.4	1.0198e-05	9.9622e-06	1352.7	264.61	9.8534e-06	1.02e-05	336.24	94.39	74.103	22.322	1.1466e-05	31.158	182.940	281.770	184.135	38.251	72.513	222.926	38.159	45.667	292.286	206.326	45.227	52.808	52.518	58.615	192.442	58.806	-8191	255	
1494.344	1	1	0	0	0.11775	0.086435	0.038713	0.15548	0.2386	0.1009	0.1453	0.2348	0.044609	0.21678	0.27626	0.10586	0.10449	0.23887	0.21558	0.22842	-2.1021	-3.1875	-2.375	-2.9062	-3.0563	-2.5042	-3.1625	-2.9083	-2.4271	-3.3	-2.5583	-2.7875	-3.0104	-2.4313	-2.8896	-2.9854	245.077	142.519	84.231	304.470	220.487	231.919	376.549	360.018	285.517	75.150	355.275	373.080	55.270	161.343	49.476	372.275	0.0002659	0.0002394	0.00021425	1231	4.3814e-06	1.3828e-05	1339.6	253.9	2.3716e-06	3.4421e-06	321.14	87.373	69.225	20.153	5.3723e-06	27.807	0.00084425	0.00094584	0.0002877	1238.7	9.7592e-06	1.0456e-05	1346.9	263.05	9.54e-06	1.0741e-05	335.42	94.064	74.008	22.605	1.1099e-05	31.004	202.828	180.634	169.055	37.969	242.741	209.718	38.371	45.927	212.807	171.414	45.120	52.469	53.032	59.641	183.378	58.304	-8191	255	
1494.439	1	1	0	0	0.066292	0.15924	0.095407	0.15804	0.04021	0.12839	0.31158	0.10157	0.08605	0.04541	0.14197	0.25423	0.19559	0.15665	0.021074	0.14603	-2.1896	-3.1813	-2.6604	-2.8521	-3.0687	-2.5812	-3.2167	-2.8812	-2.5292	-3.2542	-2.8042	-2.5979	-3.2125	-2.5417	-2.9083	-3.2333	131.318	82.536	62.619	185.588	247.015	190.710	345.501	351.648	82.205	148.235	336.817	386.782	32.058	242.847	379.995	228.004	0.00025199	0.00086167	0.00012298	1237.8	2.2795e-06	5.9396e-06	1345.9	254.55	1.1635e-06	6.4156e-06	316.82	87.776	68.764	19.987	5.0285e-06	27.96	0.00083334	0.0009974	0.000282	1236.7	9.6548e-06	1.0925e-05	1346.6	263.16	9.5339e-06	1.1112e-05	332.97	93.73	73.878	22.678	1.0667e-05	30.989	236.286	105.289	110.963	38.051	269.412	242.313	38.239	45.672	237.020	228.181	45.453	52.483	52.967	58.841	238.330	59.097	-8191	255	
1494.535	1	1	0	0	0.21557	0.14474	0.16979	0.014717	0.182	0.57415	0.097671	0.26469	0.13947	0.19363	0.12838	0.1636	0.13809	0.21258	0.12392	0.20828	-2.1333	-3.2812	-2.6937	-2.8312	-3.0646	-2.6083	-3.1312	-3.1771	-2.5396	-3.0354	-2.8312	-2.6375	-3.1771	-2.4458	-2.8833	-3.1188	212.314	361.321	244.994	196.847	184.891	38.700	29.915	89.275	297.008	234.218	77.478	279.582	168.912	35.034	360.898	253.017	0.00022479	0.00042247	9.5811e-05	1235.5	4.3767e-06	1.0574e-05	1342	254.45	3.7304e-06	5.7181e-06	318.89	88.305	69.23	20.016	1.5965e-06	28.18	0.00087255	0.0010443	0.00027113	1235.1	1.01e-05	1.1281e-05	1343.2	262.7	1.0062e-05	1.1035e-05	332.49	93.53	74.318	22.663	1.0025e-05	30.852	199.112	94.530	51.067	37.902	229.448	227.618	38.204	45.826	169.811	105.502	45.282	52.548	53.011	59.201	246.419	59.025	-8191	255	
1494.631	1	1	0	0	0.27614	0.07656	0.30665	0.28651	0.17662	0.33619	0.1552	0.13281	0.14241	0.043557	0.042772	0.07456	0.13658	0.17428	0.27092	0.2434	-2.1271	-2.9562	-2.8646	-2.5771	-3.2229	-2.6771	-2.8937	-3.2042	-2.6125	-2.9479	-2.9417	-2.6604	-3.2	-2.5	-2.6958	-3.2792	63.556	44.341	202.428	363.880	127.551	115.324	365.953	379.829	49.411	271.687	135.578	291.919	35.941	77.852	341.236	101.830	0.00029236	0.00040014	0.00018962	1237.5	6.7724e-06	6.5077e-06	1343.9	254.76	9.495e-07	6.7208e-06	319.18	87.559	69.176	20.067	7.9052e-06	27.821	0.00090861	0.0010051	0.00025799	1234	1.0706e-05	1.1096e-05	1342.9	262.8	1.0824e-05	1.0918e-05	332.7	93.297	74.898	22.638	9.8961e-06	30.79	219.246	216.502	101.539	38.047	236.172	40.259	38.222	45.697	176.405	101.638	45.247	52.534	52.572	59.205	29.467	59.350	-8191	255	
1494.752	1	1	0	0	0.13243	0.24973	0.24142	0.40784	0.10079	0.072741	0.087224	0.13231	0.14388	0.16268	0.11792	0.056292	0.16685	0.11605	0.23051	0.13884	-2.0104	-2.9833	-2.7333	-2.7167	-3.0375	-2.6604	-2.675	-3.1729	-2.5312	-3.1479	-3.2604	-2.5333	-3.1542	-2.7062	-2.4396	-3.025	220.004	349.767	137.295	63.452	163.813	132.417	225.250	321.138	58.026	115.577	302.757	28.197	51.366	287.871	81.601	50.177	0.00025687	0.00036753	0.00027771	1236.4	9.447e-06	6.2635e-06	1343.2	254.66	3.041e-06	1.0489e-06	318.76	87.611	68.839	20.039	3.9997e-06	28.012	0.00096332	0.00096727	0.00025324	1237.1	1.1024e-05	1.0591e-05	1339.1	262.92	1.104e-05	1.0235e-05	330.86	93.395	74.752	22.45	9.493e-06	30.939	186.985	47.336	179.412	37.836	208.929	92.300	38.074	45.804	248.473	227.487	45.730	52.554	52.670	59.116	163.184	59.325	-8191	255	
1494.848	1	1	0	0	0.12039	0.10437	0.12095	0.17393	0.040416	0.15165	0.14798	0.24928	0.10579	0.066702	0.056789	0.13509	0.11012	0.1496	0.056772	0.16023	-2.125	-2.8854	-2.9875	-2.6833	-3.0167	-2.7625	-2.6833	-3.2917	-2.5083	-2.7958	-3.0354	-2.5708	-3.0521	-2.6354	-2.3937	-3.1708	385.001	55.661	274.446	92.048	183.317	149.736	277.400	189.716	163.348	346.412	261.872	132.288	243.870	99.718	218.466	330.687	0.00015386	0.0002991	0.00019451	1224.9	8.1415e-06	8.442e-06	1348.1	254.9	7.0282e-06	4.4542e-06	321.34	88.547	68.945	20.117	3.6743e-06	27.909	0.00097001	0.0009148	0.0002453	1235.4	1.1093e-05	1.0152e-05	1340.2	263.69	1.1101e-05	9.9724e-06	331.48	94.391	74.845	22.459	9.4198e-06	31.233	193.295	383.810	71.212	38.142	151.424	225.646	38.252	45.659	110.494	237.270	45.401	52.751	53.054	59.571	188.063	58.749	-8191	255	
1494.919	1	1	0	0	0.13257	0.16415	0.12519	0.08611	0.16171	0.098275	0.16064	0.18125	0.32847	0.14316	0.22169	0.22093	0.077549	0.16524	0.26278	0.21809	-2.3396	-2.5521	-2.9542	-2.5667	-2.9896	-2.8083	-2.6125	-3.2958	-2.6125	-2.6104	-3.2792	-2.5083	-2.8979	-2.9208	-2.375	-3.15	139.338	278.541	335.098	306.704	94.509	214.509	69.718	348.958	114.541	296.631	67.012	377.693	180.481	343.187	115.450	169.538	0.0001765	0.00065227	9.9763e-05	1234.7	2.2362e-06	6.1239e-06	1347.1	256.24	2.3478e-06	2.2088e-06	319.02	87.869	69.167	20.005	4.5166e-06	28.036	0.00098023	0.0009019	0.00024638	1242.3	1.0736e-05	1.0012e-05	1340.4	265.12	1.0733e-05	9.7468e-06	331.5	94.96	74.495	22.368	9.7989e-06	31.52	210.130	81.252	253.515	38.031	347.906	283.194	38.272	46.027	264.650	189.822	45.165	52.134	52.624	59.314	154.740	58.971	-8191	255	
1495.016	1	1	0	0	0.12039	0.09914	0.27727	0.24829	0.21179	0.15141	0.10644	0.22858	0.22686	0.14836	0.085285	0.22717	0.17459	0.2497	0.28793	0.25184	-2.375	-2.5812	-3.2771	-2.5729	-2.8646	-3.0958	-2.7	-3.3	-2.7958	-2.4833	-3.3021	-2.5917	-2.7854	-3.1188	-2.5104	-3.0625	272.200	319.135	77.852	305.314	375.431	326.766	289.126	279.767	381.396	30.747	171.151	73.260	265.347	41.158	160.974	337.794	0.00014046	0.00032881	0.00022482	1237	6.801e-06	8.6807e-06	1334.3	255.07	2.2984e-06	2.4063e-06	320.34	87.566	69.359	20.213	3.3e-06	27.964	0.00093375	0.00088734	0.00025612	1243.8	1.0297e-05	9.8132e-06	1337.5	265.86	1.0423e-05	9.5411e-06	333.1	94.998	74.409	22.35	1.0341e-05	31.459	230.122	83.943	125.213	38.220	54.978	260.963	38.330	45.993	170.924	367.802	45.296	52.370	52.917	59.294	334.424	58.970	-8191	255	
1495.136	1	1	0	0	0.19117	0.11974	0.33793	0.12559	0.17341	0.15031	0.28934	0.29673	0.10591	0.23433	0.32105	0.15888	0.24717	0.0087073	0.13824	0.093551	-2.4417	-2.4917	-3.1	-2.7354	-2.8708	-3.2938	-2.5521	-3.1875	-2.9625	-2.4854	-3.2792	-2.6833	-2.7229	-3.2292	-2.3542	-3.1021	130.590	337.497	73.457	355.861	76.819	48.474	322.667	336.791	236.922	172.064	316.659	343.805	367.917	54.858	117.936	331.636	0.00015938	0.00051504	6.8065e-05	1234.2	5.5934e-06	1.8383e-06	1343.1	254.95	5.2734e-06	6.6971e-06	319.32	87.756	68.658	20.056	7.4828e-06	28.055	0.00090352	0.00087147	0.00027191	1244.1	1.002e-05	9.6451e-06	1344.4	265.15	1.0207e-05	9.4656e-06	334.21	94.787	73.781	22.219	1.0822e-05	31.227	174.588	299.779	385.079	38.246	155.589	171.835	38.339	46.141	205.791	189.868	45.230	52.172	53.007	59.681	281.701	58.699	-8191	255	
1495.232	1	1	0	0	0.15266	0.1043	0.14691	0.061585	0.24205	0.17265	0.33739	0.28003	0.12335	0.294	0.088405	0.21033	0.062801	0.084406	0.23582	0.037763	-2.5708	-2.5458	-3.1229	-2.7687	-2.6521	-3.3146	-2.8312	-3.1292	-3.0187	-2.5583	-3.2604	-2.8312	-2.7854	-3.1479	-2.5521	-2.9437	386.010	46.289	314.707	235.643	58.092	340.079	335.083	327.815	186.116	131.683	283.487	94.337	220.512	114.306	119.978	337.039	0.00030703	0.00065275	0.00015272	1235.1	5.7721e-06	1.6174e-05	1338.5	255.7	6.5405e-06	3.4493e-06	320.05	87.713	69.251	20.149	2.4521e-06	27.967	0.00086879	0.00085878	0.00027895	1240.5	9.6437e-06	9.6589e-06	1345.8	264.19	9.8303e-06	9.669e-06	334.98	94.339	73.788	22.407	1.1345e-05	31.084	196.690	181.165	172.052	38.005	163.841	181.898	38.281	45.531	266.684	383.770	45.161	52.743	52.589	58.992	251.970	58.538	-8191	255	
1495.328	1	1	0	0	0.075222	0.19605	0.11816	0.13672	0.36285	0.19536	0.21424	0.15151	0.1028	0.14464	0.10493	0.23856	0.30904	0.050404	0.14783	0.12532	-2.7	-2.3729	-3.1208	-2.8812	-2.4875	-3.1583	-2.7729	-2.9313	-3.1667	-2.6562	-3.275	-2.8375	-2.5979	-3.2333	-2.5563	-2.6958	157.318	33.061	151.323	357.141	309.703	259.821	350.904	309.414	137.103	319.581	147.409	78.514	372.817	102.146	259.490	31.792	0.00010708	0.00039561	0.00033655	1236.3	4.242e-06	8.1742e-06	1340.4	255.76	1.1077e-06	4.0375e-06	319.25	87.737	69.437	20.28	5.7515e-06	27.826	0.00086674	0.00091961	0.00028922	1240.8	9.5486e-06	1.0387e-05	1347.7	263.9	9.8097e-06	1.0369e-05	335.01	94.177	73.672	22.671	1.1203e-05	30.999	217.753	132.399	163.634	37.678	197.312	238.339	38.110	45.495	136.397	170.978	45.511	52.812	53.131	59.612	93.330	58.529	-8191	255	
#DATA ENDS
