BOXY.EXE: ISS Imagent and Oximeter Data Acquisition Program Version 0.80
Ascii Record File

#ACQ INFORMATION
2  Detector Channels 
16  External MUX Channels 
1  Auxiliary Channels 
5000  Waveform (CCF) Frequency (Hz)
1  Waveforms Skipped 
30  Waveforms Averaged 
1  Cycles Averaged 
16  Acquisitions per Waveform 
10.0806  Updata Rate (Hz) 

#FILE INFORMATION
TRUE -- External MUX Channel results are PARSED.
FALSE -- AC DC and Phase are NOT grouped.
TRUE -- Companion Program Settings File CREATED.
FALSE -- AC data not excluded
FALSE -- DC data not excluded
FALSE -- Phase data not excluded
FALSE -- Auxillary Chn. data not excluded
Tab delimiters

#CALIBRATION STATE
TRUE -- Waveform Calibration Values APPLIED.


#AUX CALIBRATION VALUES
Val Type	aux-1	

Term	1.0000e+00	
Factor	0.0000e+00	


#WF CALIBRATION VALUES
A = Detector Channel
Val Type	A-AC1	A-AC2	A-AC3	A-AC4	A-AC5	A-AC6	A-AC7	A-AC8	A-AC9	A-AC10	A-AC11	A-AC12	A-AC13	A-AC14	A-AC15	A-AC16	A-DC1	A-DC2	A-DC3	A-DC4	A-DC5	A-DC6	A-DC7	A-DC8	A-DC9	A-DC10	A-DC11	A-DC12	A-DC13	A-DC14	A-DC15	A-DC16	A-Ph1	A-Ph2	A-Ph3	A-Ph4	A-Ph5	A-Ph6	A-Ph7	A-Ph8	A-Ph9	A-Ph10	A-Ph11	A-Ph12	A-Ph13	A-Ph14	A-Ph15	A-Ph16	

Term	0.00000e+00	0.00000e+00	0.00000e+00	0.00000e+00	0.00000e+00	0.00000e+00	0.00000e+00	0.00000e+00	0.00000e+00	0.00000e+00	0.00000e+00	0.00000e+00	0.00000e+00	0.00000e+00	0.00000e+00	0.00000e+00	0.00000e+00	0.00000e+00	0.00000e+00	0.00000e+00	0.00000e+00	0.00000e+00	0.00000e+00	0.00000e+00	0.00000e+00	0.00000e+00	0.00000e+00	0.00000e+00	0.00000e+00	0.00000e+00	0.00000e+00	0.00000e+00	0.00000e+00	0.00000e+00	0.00000e+00	0.00000e+00	0.00000e+00	0.00000e+00	0.00000e+00	0.00000e+00	0.00000e+00	0.00000e+00	0.00000e+00	0.00000e+00	0.00000e+00	0.00000e+00	0.00000e+00	0.00000e+00	
Factor	1.00000e+00	1.00000e+00	1.00000e+00	1.00000e+00	1.00000e+00	1.00000e+00	1.00000e+00	1.00000e+00	1.00000e+00	1.00000e+00	1.00000e+00	1.00000e+00	1.00000e+00	1.00000e+00	1.00000e+00	1.00000e+00	1.00000e+00	1.00000e+00	1.00000e+00	1.00000e+00	1.00000e+00	1.00000e+00	1.00000e+00	1.00000e+00	1.00000e+00	1.00000e+00	1.00000e+00	1.00000e+00	1.00000e+00	1.00000e+00	1.00000e+00	1.00000e+00	X	X	X	X	X	X	X	X	X	X	X	X	X	X	X	X	

B = Detector Channel
Val Type	B-AC1	B-AC2	B-AC3	B-AC4	B-AC5	B-AC6	B-AC7	B-AC8	B-AC9	B-AC10	B-AC11	B-AC12	B-AC13	B-AC14	B-AC15	B-AC16	B-DC1	B-DC2	B-DC3	B-DC4	B-DC5	B-DC6	B-DC7	B-DC8	B-DC9	B-DC10	B-DC11	B-DC12	B-DC13	B-DC14	B-DC15	B-DC16	B-Ph1	B-Ph2	B-Ph3	B-Ph4	B-Ph5	B-Ph6	B-Ph7	B-Ph8	B-Ph9	B-Ph10	B-Ph11	B-Ph12	B-Ph13	B-Ph14	B-Ph15	B-Ph16	

Term	0.00000e+00	0.00000e+00	0.00000e+00	0.00000e+00	0.00000e+00	0.00000e+00	0.00000e+00	0.00000e+00	0.00000e+00	0.00000e+00	0.00000e+00	0.00000e+00	0.00000e+00	0.00000e+00	0.00000e+00	0.00000e+00	0.00000e+00	0.00000e+00	0.00000e+00	0.00000e+00	0.00000e+00	0.00000e+00	0.00000e+00	0.00000e+00	0.00000e+00	0.00000e+00	0.00000e+00	0.00000e+00	0.00000e+00	0.00000e+00	0.00000e+00	0.00000e+00	2.30140e+01	-1.20181e+02	-1.19907e+02	-1.83653e+02	-6.30298e+01	-5.18358e+01	-1.58195e+02	-1.62015e+02	-5.19289e+01	-7.20987e+01	-1.70726e+02	-1.70915e+02	-1.78976e+02	-1.76655e+02	-6.37239e+01	-1.49757e+02	
Factor	5.08546e-05	1.47758e-04	3.78023e-05	1.55087e-01	1.88521e-06	1.77159e-06	1.71671e-01	5.62650e-02	2.22537e-06	1.53002e-06	9.34834e-02	3.14727e-02	2.91465e-02	9.72571e-03	2.02248e-06	1.39640e-02	4.02956e-06	4.41231e-06	1.22925e-06	7.62458e-02	4.73918e-08	4.85632e-08	7.91440e-02	2.76715e-02	4.75700e-08	4.85441e-08	4.45230e-02	1.49399e-02	1.44346e-02	4.81122e-03	4.80407e-08	6.69290e-03	X	X	X	X	X	X	X	X	X	X	X	X	X	X	X	X	



#DISTANCE SETTINGS
A = Detector Channel
A-1	A-2	A-3	A-4	A-5	A-6	A-7	A-8	A-9	A-10	A-11	A-12	A-13	A-14	A-15	A-16	

2.5000e+00	3.0000e+00	2.5000e+00	3.0000e+00	2.0000e+00	3.0000e+00	1.5000e+00	3.0000e+00	3.0000e+00	3.0000e+00	3.0000e+00	3.0000e+00	3.0000e+00	3.0000e+00	1.5000e+00	3.0000e+00	

B = Detector Channel
B-1	B-2	B-3	B-4	B-5	B-6	B-7	B-8	B-9	B-10	B-11	B-12	B-13	B-14	B-15	B-16	

1.0000e+01	1.0000e+01	1.0000e+01	1.4400e+00	1.0000e+01	1.0000e+01	1.5100e+00	1.9400e+00	1.0000e+01	1.0000e+01	1.9900e+00	2.4900e+00	2.4100e+00	2.9000e+00	1.0000e+01	2.9800e+00	




#DATA BEGINS
time	group	step	mark	flag	A-AC1	A-AC2	A-AC3	A-AC4	A-AC5	A-AC6	A-AC7	A-AC8	A-AC9	A-AC10	A-AC11	A-AC12	A-AC13	A-AC14	A-AC15	A-AC16	A-DC1	A-DC2	A-DC3	A-DC4	A-DC5	A-DC6	A-DC7	A-DC8	A-DC9	A-DC10	A-DC11	A-DC12	A-DC13	A-DC14	A-DC15	A-DC16	A-Ph1	A-Ph2	A-Ph3	A-Ph4	A-Ph5	A-Ph6	A-Ph7	A-Ph8	A-Ph9	A-Ph10	A-Ph11	A-Ph12	A-Ph13	A-Ph14	A-Ph15	A-Ph16	B-AC1	B-AC2	B-AC3	B-AC4	B-AC5	B-AC6	B-AC7	B-AC8	B-AC9	B-AC10	B-AC11	B-AC12	B-AC13	B-AC14	B-AC15	B-AC16	B-DC1	B-DC2	B-DC3	B-DC4	B-DC5	B-DC6	B-DC7	B-DC8	B-DC9	B-DC10	B-DC11	B-DC12	B-DC13	B-DC14	B-DC15	B-DC16	B-Ph1	B-Ph2	B-Ph3	B-Ph4	B-Ph5	B-Ph6	B-Ph7	B-Ph8	B-Ph9	B-Ph10	B-Ph11	B-Ph12	B-Ph13	B-Ph14	B-Ph15	B-Ph16	aux-1	digaux	

28960.877	1	1	0	256	0.094441	0.046237	0.34289	0.26844	0.085841	0.16235	0.061105	0.21844	0.24318	0.19668	0.21304	0.24547	0.14686	0.042305	0.25934	0.12138	-3.55	-4.8042	-4.4146	-4.0604	-4.9833	-4.1188	-4.5229	-4.925	-3.9729	-4.8479	-4.4708	-4.0833	-5.0875	-4.1917	-4.2292	-4.8167	481.000	451.458	439.256	489.173	438.596	486.393	338.196	474.181	244.221	295.147	398.418	256.739	268.226	210.177	185.019	502.348	0.00070581	0.00040814	8.6958e-05	1007	6.2933e-06	5.6793e-06	1106.8	209.99	5.3518e-06	2.0875e-06	268.54	74.832	57.853	16.758	4.9107e-06	23.733	0.00032756	0.0003154	8.7976e-05	1000	3.4418e-06	3.5223e-06	1099.4	209.4	3.5068e-06	3.4797e-06	268.1	75.019	58.156	17.185	3.4664e-06	24.496	347.607	264.527	285.141	174.729	339.536	364.659	174.082	181.825	321.762	377.068	181.774	188.470	188.836	196.472	298.317	195.584	-8191	255	
28960.998	1	1	0	0	0.12361	0.094686	0.099073	0.32531	0.10726	0.082167	0.13971	0.081196	0.17569	0.04925	0.16756	0.25738	0.041922	0.30927	0.09742	0.15375	-3.6125	-4.5375	-4.5312	-4.2063	-4.9104	-4.2125	-4.2792	-4.8396	-4.0292	-4.5104	-4.7771	-4.0167	-4.9833	-4.3458	-3.9917	-4.8875	195.378	497.991	384.052	515.031	201.703	400.154	432.630	503.801	378.958	288.721	279.544	326.811	206.492	516.547	224.588	202.283	0.00068156	0.00019672	3.1445e-05	1009	4.5427e-06	4.2975e-06	1110.3	208.93	5.6303e-06	2.7051e-06	265.65	73.985	57.882	16.654	2.2988e-06	23.972	0.00032577	0.00030416	8.5914e-05	1002	3.4264e-06	3.378e-06	1103.6	209.15	3.4536e-06	3.4394e-06	267.29	74.614	58.135	17.154	3.4433e-06	24.51	348.066	274.466	291.822	174.425	310.765	329.462	174.338	182.146	290.308	396.755	181.989	188.194	189.169	196.782	378.229	195.440	-8191	255	
28961.094	1	1	0	0	0.19933	0.14978	0.2726	0.23779	0.10282	0.15438	0.25064	0.15865	0.27682	0.010606	0.090044	0.23083	0.039044	0.062513	0.15138	0.084239	-3.6813	-4.4167	-4.7625	-4.1604	-4.8333	-4.2	-4.125	-4.8458	-4.0188	-4.1292	-4.7937	-3.7729	-4.8083	-4.4646	-4.0354	-4.8042	435.001	224.747	250.763	497.161	346.607	521.265	450.318	447.657	370.373	428.162	356.263	165.929	191.991	383.475	444.870	209.693	0.00063103	0.00013716	0.00010698	1009.6	4.2324e-06	3.1789e-06	1116.6	210.17	3.6398e-06	2.0357e-06	265.69	73.946	57.767	16.781	1.6001e-06	23.856	0.00032838	0.00032819	8.7484e-05	1003.4	3.5375e-06	3.4588e-06	1104.8	209.19	3.5003e-06	3.4528e-06	267.79	74.684	58.112	17.21	3.4919e-06	24.531	356.080	232.345	275.412	174.515	263.444	317.720	174.361	181.765	289.168	294.709	181.627	188.533	188.929	196.363	299.885	195.359	-8191	255	
28961.189	1	1	0	0	0.28859	0.089545	0.08565	0.11894	0.17181	0.13895	0.034988	0.097045	0.16464	0.086877	0.13635	0.080939	0.12995	0.042496	0.069511	0.11697	-3.6729	-4.2708	-4.8271	-3.8708	-4.5896	-4.5271	-4.1021	-4.8063	-4.2375	-4.2208	-5.0479	-4.0167	-4.7708	-4.5813	-3.7583	-4.8562	458.464	186.952	489.470	433.575	187.663	514.679	302.795	194.488	297.594	285.093	287.841	203.519	512.045	429.917	490.248	165.636	0.00062639	0.00040757	9.8734e-05	1010.4	4.7553e-06	2.0353e-06	1119.4	209.68	5.7772e-06	1.1766e-06	266.6	74.248	57.608	16.985	5.9597e-06	23.765	0.00032741	0.00032055	8.8398e-05	1003.8	3.5552e-06	3.538e-06	1107.2	209.59	3.477e-06	3.36e-06	267.94	74.793	58.225	17.234	3.3817e-06	24.553	344.470	266.172	320.805	174.497	298.506	407.098	174.223	181.948	344.593	276.953	181.661	188.441	188.480	196.135	308.427	195.703	-8191	255	
28961.285	1	1	0	0	0.072027	0.19866	0.26872	0.31545	0.33632	0.040273	0.20709	0.085574	0.12792	0.095286	0.087348	0.076674	0.07673	0.04914	0.12606	0.20713	-3.9813	-4.0563	-4.9854	-4.1438	-4.5104	-4.6917	-4.1583	-4.975	-4.2771	-4.0583	-5.0625	-3.9771	-4.4875	-4.8896	-3.9354	-4.775	340.756	246.121	480.888	470.008	362.846	410.438	330.076	316.591	187.895	365.449	495.513	219.282	337.008	277.122	513.958	201.511	0.00072909	0.00029828	4.3325e-05	1005.9	2.5447e-06	5.6905e-06	1115.5	209.78	1.0802e-05	3.3811e-06	266.79	74.702	57.166	16.852	2.7069e-06	24.046	0.00031709	0.00030818	8.2713e-05	1002.5	3.3039e-06	3.3e-06	1105.5	209.17	3.3121e-06	3.2142e-06	267.26	74.669	58.024	17.191	3.231e-06	24.568	346.437	235.148	284.217	174.664	356.087	351.362	174.250	182.228	326.371	318.982	181.633	188.504	188.898	196.316	357.682	195.801	-8191	255	
28961.404	1	1	0	0	0.11689	0.1374	0.067807	0.16552	0.12461	0.15427	0.16963	0.21544	0.30907	0.11717	0.14013	0.0633	0.17788	0.17895	0.1432	0.10294	-4.0333	-4.025	-4.9583	-4.2021	-4.2958	-4.8313	-4.0458	-4.7896	-4.3354	-4.0667	-5.0417	-3.9437	-4.2625	-4.8063	-3.8229	-4.6458	281.483	484.232	496.598	486.815	188.228	351.924	389.208	470.524	372.120	214.176	267.420	287.055	403.277	478.396	382.777	237.185	0.00071831	0.00018471	3.705e-05	1006	4.2394e-06	7.3342e-06	1117.8	208.53	6.52e-06	3.8918e-07	266.33	74.464	57.27	16.703	2.373e-06	23.856	0.00030723	0.00028834	8.2114e-05	1002.3	3.2781e-06	3.2147e-06	1106.3	208.72	3.2044e-06	3.3161e-06	266.97	74.612	58.094	17.205	3.3679e-06	24.519	345.993	250.883	499.623	174.623	289.823	300.948	174.455	182.204	304.013	302.788	181.870	188.771	188.993	196.190	304.391	195.755	-8191	255	
28961.477	1	1	0	0	0.22552	0.066878	0.16849	0.27187	0.10329	0.18078	0.13153	0.15917	0.063277	0.14726	0.16588	0.201	0.20126	0.23108	0.095474	0.24484	-4.3063	-3.9813	-4.8917	-4.3271	-4.3125	-4.7521	-4.1521	-4.625	-4.4958	-4.0188	-4.925	-4.1958	-4.1979	-4.9604	-3.9875	-4.5062	465.154	514.854	412.016	485.993	415.332	375.569	457.444	459.298	224.994	271.315	179.697	437.586	271.089	170.515	425.864	192.947	0.0006863	0.0001816	6.8671e-05	1009.5	4.8683e-06	5.3964e-07	1117	209.11	5.2761e-06	2.7232e-06	266.88	74.009	57.931	16.878	5.7129e-06	24.001	0.00030797	0.00029701	8.3655e-05	1002.4	3.349e-06	3.2722e-06	1106.2	208.81	3.2706e-06	3.2953e-06	267.28	74.603	58.22	17.234	3.3964e-06	24.54	347.665	233.795	299.056	174.686	301.080	454.508	174.485	182.144	331.064	332.625	181.985	188.635	189.058	196.625	304.929	195.254	-8191	255	
28961.574	1	1	0	0	0.27823	0.10821	0.040868	0.14035	0.10016	0.1352	0.22384	0.078948	0.07927	0.095181	0.036213	0.23264	0.088758	0.17863	0.26141	0.16029	-4.5062	-3.9521	-4.5396	-4.3875	-4.1458	-4.9729	-4.1917	-4.6229	-4.6062	-3.8438	-4.9271	-4.4208	-4.1062	-4.9375	-4.0437	-4.3458	256.917	424.902	413.950	513.944	271.642	315.713	438.282	423.680	274.776	275.092	288.261	231.845	382.698	513.006	491.127	218.193	0.00059454	0.00035122	0.00012274	1010	4.5214e-06	4.1934e-06	1108.8	210.23	2.6715e-06	2.5709e-06	266.56	74.305	57.746	16.724	3.745e-06	24.145	0.00031079	0.00030784	8.4068e-05	1002.9	3.3044e-06	3.2746e-06	1105.5	208.96	3.3452e-06	3.3392e-06	267.32	74.572	58.146	17.163	3.2353e-06	24.589	351.534	244.587	263.045	174.553	234.374	293.057	174.348	182.011	237.406	229.181	181.347	188.726	189.009	196.000	295.766	195.431	-8191	255	
28961.693	1	1	0	0	0.038437	0.16046	0.17162	0.08009	0.099936	0.12424	0.26757	0.096654	0.087589	0.17281	0.098961	0.21498	0.36714	0.15468	0.092427	0.22722	-4.4125	-3.9958	-4.6604	-4.6375	-3.9271	-4.8688	-4.2188	-4.3104	-4.7562	-3.8021	-4.7125	-4.6271	-4.0458	-4.8771	-4.1292	-4.0833	264.162	320.768	208.628	459.381	347.126	379.574	417.274	432.941	246.877	374.099	377.597	169.714	194.851	249.737	284.575	225.715	0.00058556	0.00010794	6.7515e-05	1010.9	2.8555e-06	4.4182e-06	1112	209.38	7.1279e-06	4.7513e-06	265.74	74.288	57.097	16.904	3.6641e-06	23.886	0.00031245	0.00030268	8.3643e-05	1002.6	3.3065e-06	3.1967e-06	1102.6	208.59	3.2697e-06	3.3746e-06	266.67	74.82	57.747	17.229	3.3247e-06	24.518	341.055	197.368	304.851	174.751	297.573	389.744	174.303	181.713	302.441	278.553	181.839	188.310	188.785	196.454	303.172	195.807	-8191	255	
28961.789	1	1	0	0	0.18831	0.13837	0.12229	0.2806	0.19657	0.083646	0.041355	0.19323	0.054609	0.029055	0.071058	0.11025	0.16869	0.058752	0.19615	0.050427	-4.4417	-3.9813	-4.5854	-4.6958	-3.9646	-4.8354	-4.3146	-4.2771	-4.9375	-3.9188	-4.575	-4.6042	-3.8438	-4.7333	-4.2708	-4.1229	239.760	348.076	453.295	447.537	305.149	192.010	301.352	492.489	460.935	218.075	415.708	477.129	405.544	323.870	519.938	198.198	0.00067181	0.00048669	3.3561e-05	1008.1	6.0257e-06	1.6491e-06	1105.3	208.1	6.6059e-06	4.4372e-06	266.05	73.855	57.873	16.687	7.0998e-06	24	0.00031638	0.00031054	8.4257e-05	999.8	3.3839e-06	3.3269e-06	1100.8	208.34	3.2819e-06	3.4569e-06	267.16	74.611	58.093	17.147	3.4113e-06	24.515	351.280	296.851	231.359	174.424	299.096	308.279	174.409	181.914	298.766	324.215	181.406	188.677	189.328	196.231	332.665	194.971	-8191	255	
28961.887	1	1	0	0	0.1308	0.20011	0.10296	0.088847	0.10515	0.082604	0.20971	0.15321	0.1277	0.16866	0.33728	0.19152	0.21908	0.17203	0.31568	0.20494	-4.5917	-4.0771	-4.4062	-4.825	-3.8125	-4.7271	-4.5396	-3.9542	-4.8625	-3.9062	-4.3979	-4.8146	-3.9083	-4.7396	-4.4604	-3.9125	217.327	399.968	218.331	485.879	495.752	270.793	442.901	409.567	355.163	371.353	445.748	233.775	505.597	467.412	367.842	309.005	0.00061325	0.00021046	3.9701e-05	1004.4	5.841e-06	1.6441e-06	1109	210.69	4.2866e-06	5.2953e-07	265.86	74.308	57.244	16.593	1.2553e-06	23.672	0.00031845	0.00031317	8.7661e-05	998.52	3.4526e-06	3.2699e-06	1101.5	208.9	3.3476e-06	3.435e-06	266.97	74.65	57.857	17.125	3.3407e-06	24.45	350.348	248.555	288.912	174.563	291.914	376.470	174.593	182.174	299.924	232.001	181.494	188.600	189.304	196.217	286.520	195.601	-8191	255	
28961.982	1	1	0	0	0.13887	0.087539	0.23263	0.19992	0.29888	0.1354	0.29775	0.17486	0.11096	0.10289	0.072114	0.17137	0.053675	0.14824	0.14773	0.12623	-4.5687	-3.9854	-4.1271	-4.6292	-3.7062	-4.475	-4.7083	-4.0271	-4.7354	-4.1208	-4.2708	-4.7667	-3.9083	-4.6583	-4.7458	-4.0062	424.336	421.694	325.208	488.488	507.086	213.978	506.254	247.176	233.333	472.504	520.378	256.804	173.413	367.172	454.360	344.296	0.00063893	0.00023699	9.1694e-05	1006.6	5.8719e-06	2.4893e-06	1113.1	208.8	4.4996e-06	7.8024e-07	266.5	74.026	57.739	16.913	4.5179e-06	24.007	0.00032302	0.0003111	8.6867e-05	1000.6	3.5354e-06	3.4007e-06	1103.8	208.38	3.3929e-06	3.3988e-06	266.98	74.725	58.258	17.242	3.3228e-06	24.589	344.062	241.423	302.498	174.489	267.222	350.999	174.204	181.690	308.007	322.470	181.335	188.643	189.039	196.112	288.695	195.654	-8191	255	
28962.078	1	1	0	0	0.072058	0.079685	0.020231	0.19047	0.20637	0.047756	0.2499	0.10745	0.21072	0.042674	0.17548	0.076601	0.085618	0.011866	0.10873	0.094815	-4.5917	-4.2833	-3.9854	-4.9375	-4.0708	-4.525	-4.7833	-4.0188	-4.6146	-4.2333	-4.0687	-4.8938	-4.05	-4.4375	-4.6625	-3.9938	452.579	211.322	513.428	513.010	206.223	452.310	420.950	436.375	433.996	443.913	516.546	181.123	454.293	356.136	470.960	476.913	0.00059764	0.00027321	9.5659e-05	1007.7	1.4959e-06	1.7932e-06	1108	209.06	3.6644e-06	8.1637e-07	266.67	74.025	57.048	16.844	3.8996e-06	23.978	0.00031536	0.00030581	8.6227e-05	1002.1	3.5719e-06	3.4899e-06	1101.2	208.95	3.4565e-06	3.4479e-06	267.49	74.698	57.979	17.277	3.4485e-06	24.545	351.542	210.538	274.321	174.885	252.970	181.703	174.604	182.188	257.853	524.070	181.808	188.257	188.700	196.326	270.056	195.180	-8191	255	
28962.174	1	1	0	0	0.12198	0.026556	0.15716	0.091178	0.11966	0.068807	0.47919	0.22178	0.021353	0.13726	0.15806	0.15272	0.15406	0.069035	0.13192	0.085579	-4.4938	-4.3562	-4.0396	-4.9708	-4.25	-4.3354	-4.9375	-4.0021	-4.6042	-4.4792	-3.9646	-4.8854	-4.2	-4.3292	-4.8667	-3.9021	368.070	512.873	484.501	470.012	276.098	191.193	448.858	464.443	235.987	411.266	468.473	339.677	493.179	441.263	520.926	408.829	0.00073365	0.0003434	3.2701e-05	1009.2	5.6904e-06	4.3734e-06	1109.8	207.5	9.7316e-06	3.4853e-06	267	74.326	58.074	16.833	6.8065e-06	23.722	0.00031889	0.00030825	8.6408e-05	1003.3	3.4032e-06	3.3569e-06	1104.4	208.45	3.329e-06	3.301e-06	267.69	74.708	58.078	17.218	3.3532e-06	24.493	346.631	308.070	286.704	174.559	306.520	297.817	174.485	182.203	345.365	294.022	181.756	188.702	189.049	196.529	306.385	195.250	-8191	255	
28962.295	1	1	0	0	0.21227	0.017716	0.040183	0.0052103	0.086808	0.058824	0.24949	0.13216	0.10409	0.1791	0.11088	0.039517	0.19078	0.11094	0.1615	0.22626	-4.4625	-4.6062	-4.0271	-5.0125	-4.0708	-3.9708	-4.9417	-3.8979	-4.5479	-4.5917	-4.0062	-4.7354	-4.1792	-3.975	-4.6396	-3.9667	272.847	453.954	220.861	363.696	391.158	200.010	429.636	207.353	381.395	412.264	345.806	410.345	503.800	170.885	176.336	447.912	0.00059096	0.0004544	6.3806e-05	1007.8	2.8883e-06	3.3858e-06	1114.2	208.69	2.8904e-06	3.3923e-06	265.84	74.265	57.486	16.807	8.2237e-06	24.152	0.00031351	0.00029727	8.3563e-05	1001.7	3.383e-06	3.2852e-06	1103.7	208.77	3.29e-06	3.2978e-06	267.01	74.722	57.991	17.194	3.2871e-06	24.597	343.686	306.506	246.683	174.645	242.565	331.256	174.506	181.975	305.173	261.051	181.351	188.599	189.252	196.516	321.169	195.812	-8191	255	
28962.391	1	1	0	0	0.22941	0.23438	0.088151	0.096803	0.014359	0.21848	0.071256	0.22653	0.10171	0.21269	0.13764	0.22057	0.056419	0.14361	0.17329	0.042117	-4.0188	-4.625	-3.8312	-5.0042	-4.2729	-3.9792	-4.9604	-3.9146	-4.4042	-4.6208	-4.0271	-4.775	-4.4271	-4.0979	-4.8792	-4.1646	309.255	293.394	234.020	174.416	196.432	293.179	375.561	483.243	318.987	462.284	478.729	237.631	405.997	308.889	170.046	382.665	0.00064995	0.00034584	8.5517e-05	1005.8	5.8694e-07	3.0295e-06	1110.5	209.13	5.8496e-06	1.9403e-06	265.07	73.833	57.254	16.686	4.3601e-06	23.67	0.00031832	0.00030191	8.543e-05	999.96	3.3228e-06	3.3466e-06	1103.6	208.39	3.3166e-06	3.3247e-06	266.45	74.606	57.939	17.156	3.4037e-06	24.521	344.993	249.193	260.401	174.412	265.087	346.947	174.619	182.009	351.053	313.831	181.591	188.012	188.626	195.893	260.711	195.743	-8191	255	
28962.486	1	1	0	0	0.11135	0.15386	0.1747	0.033571	0.30724	0.15156	0.25595	0.29567	0.043214	0.18906	0.14817	0.35439	0.023895	0.049208	0.12222	0.029411	-3.9729	-4.8313	-3.8542	-4.7583	-4.4458	-3.9771	-4.9771	-4.2812	-4.0104	-4.7333	-3.975	-4.7104	-4.6396	-3.9208	-5.0146	-4.4521	427.528	340.083	201.214	511.466	205.577	490.916	423.361	456.593	312.939	321.651	488.774	504.225	240.708	310.582	410.334	357.373	0.00070338	0.00029892	7.7772e-05	1009.1	3.8722e-06	3.9898e-06	1111	208.07	8.322e-06	3.4605e-06	265.88	74.139	57.123	16.808	3.1716e-06	23.764	0.00031462	0.00029936	8.5963e-05	1000.8	3.3318e-06	3.3792e-06	1102.2	208.3	3.3757e-06	3.3888e-06	266.81	74.613	57.894	17.221	3.3536e-06	24.472	341.400	254.912	333.880	174.612	297.454	330.018	174.490	181.996	338.018	353.800	181.806	188.188	189.120	196.563	253.450	195.806	-8191	255	
28962.582	1	1	0	0	0.11264	0.075966	0.049289	0.20199	0.19197	0.09612	0.10672	0.2934	0.26871	0.16949	0.032402	0.24088	0.15	0.090161	0.24969	0.11737	-3.9188	-4.7333	-3.9604	-4.6708	-4.5292	-3.95	-4.9333	-4.425	-4.0271	-4.8125	-4.2042	-4.4208	-4.65	-3.8833	-4.725	-4.4521	407.323	475.219	357.589	232.048	328.864	424.931	211.042	456.422	281.265	336.309	274.980	219.484	166.888	280.448	343.693	184.023	0.00066798	0.00036374	2.5656e-05	1006.4	3.0897e-06	5.4634e-06	1112.7	209.7	4.1897e-06	2.9562e-06	266.28	74.242	57.725	16.79	2.823e-06	23.935	0.00031622	0.00030191	8.4544e-05	1001.3	3.4244e-06	3.3885e-06	1104.5	209.02	3.3493e-06	3.354e-06	267.4	74.629	58.111	17.232	3.3261e-06	24.533	343.835	282.453	238.979	174.567	318.498	362.788	174.614	182.382	310.882	332.161	181.878	188.525	188.987	196.663	256.294	194.897	-8191	255	
28962.701	1	1	0	0	0.14826	0.23879	0.11954	0.12934	0.18229	0.17464	0.16455	0.18198	0.17334	0.27468	0.19495	0.12206	0.21253	0.13783	0.27544	0.15604	-3.7896	-4.8812	-4.0146	-4.575	-4.6333	-3.9271	-4.875	-4.5021	-4.0042	-4.9625	-4.1583	-4.3521	-4.825	-3.9896	-4.65	-4.5042	164.287	281.907	498.992	475.336	167.674	389.472	200.093	267.312	202.299	315.586	334.895	464.654	242.899	476.910	196.375	251.646	0.00058852	0.00033838	2.2018e-05	1010.5	1.3948e-06	2.602e-06	1114.1	209.99	4.1255e-06	3.5938e-06	265.02	74.14	57.433	16.841	6.3583e-07	23.634	0.00031991	0.00031175	8.6109e-05	1000.9	3.4231e-06	3.4012e-06	1104.8	209.02	3.4354e-06	3.461e-06	266.97	74.796	58.065	17.25	3.3038e-06	24.48	345.997	185.748	493.153	174.251	299.108	324.074	174.483	182.138	293.153	278.891	181.884	188.544	188.848	196.744	403.519	195.824	-8191	255	
28962.773	1	1	0	0	0.1124	0.11103	0.022857	0.11084	0.085952	0.085435	0.28896	0.20061	0.26375	0.13757	0.088866	0.11293	0.19303	0.081763	0.17534	0.10214	-3.5729	-4.8938	-4.0604	-4.2688	-4.7771	-3.9729	-4.725	-4.6958	-3.8792	-4.8667	-4.2917	-4.1958	-4.9292	-4.0437	-4.5354	-4.6396	211.919	431.009	403.150	194.899	203.672	523.868	510.366	203.644	326.392	325.249	388.533	255.088	212.315	345.918	200.872	261.225	0.0005465	0.00042314	2.1882e-05	1007.1	4.9212e-06	1.3773e-06	1110.1	208.08	3.673e-06	1.9469e-06	266.46	74.504	57.872	16.823	2.1353e-06	23.962	0.00031197	0.00030137	8.585e-05	1001.3	3.3801e-06	3.3693e-06	1102.7	208.57	3.363e-06	3.311e-06	267.07	74.74	58.235	17.233	3.232e-06	24.527	345.533	514.438	309.696	174.541	281.329	318.438	174.323	181.906	321.276	339.003	181.565	188.485	188.928	196.447	341.889	195.972	-8191	255	
28962.869	1	1	0	0	0.13895	0.10544	0.12714	0.39603	0.26312	0.067565	0.067324	0.12462	0.056608	0.23235	0.11061	0.14941	0.16654	0.12845	0.078153	0.10196	-3.5896	-4.7604	-4.2667	-4.1542	-4.9042	-3.8146	-4.5833	-4.6646	-3.9771	-4.8146	-4.4167	-4.0854	-4.8042	-3.9792	-4.2562	-4.7542	292.120	204.111	238.673	489.326	253.264	175.985	450.537	320.032	248.789	264.453	465.150	450.828	220.602	384.350	390.166	421.258	0.0006506	0.00024985	6.1621e-05	1009.6	3.7686e-06	5.5621e-06	1112	209.48	8.5915e-06	4.4045e-07	267.77	74.477	57.665	16.833	6.5762e-06	23.742	0.00031285	0.00030176	8.4354e-05	1002.4	3.3039e-06	3.2829e-06	1104.2	209.09	3.2635e-06	3.2041e-06	268.16	74.821	58.16	17.221	3.2391e-06	24.536	346.939	275.645	287.459	174.500	320.781	324.555	174.324	181.898	289.944	278.491	181.829	188.370	189.132	196.137	309.494	195.573	-8191	255	
28962.967	1	1	0	0	0.14688	0.12796	0.14837	0.21449	0.40737	0.038316	0.23505	0.20624	0.076068	0.26427	0.19935	0.084395	0.1386	0.1116	0.15249	0.068152	-3.7188	-4.7021	-4.3083	-3.9854	-4.7646	-4.1312	-4.3458	-4.875	-3.7875	-4.7125	-4.5479	-4.1562	-4.9583	-4.2354	-4.1229	-4.8833	268.995	501.226	490.965	489.874	292.746	395.054	495.804	378.678	444.870	479.402	238.257	346.472	251.808	170.438	403.582	401.521	0.00062588	0.0002086	3.2014e-05	1011.9	9.8028e-07	1.7448e-06	1111.4	209.06	3.956e-06	5.7428e-06	267.89	74.232	57.894	16.989	6.298e-06	23.999	0.00030036	0.00029278	8.2098e-05	1003.8	3.2015e-06	3.2795e-06	1104	209.45	3.2488e-06	3.1578e-06	267.48	74.769	58.346	17.256	3.2192e-06	24.694	355.416	231.799	293.053	174.488	331.100	312.461	174.571	182.119	341.315	297.252	181.712	188.319	189.219	196.133	326.478	195.467	-8191	255	
28963.088	1	1	0	0	0.14925	0.14235	0.13697	0.24283	0.029811	0.077971	0.1371	0.13038	0.063452	0.12945	0.22206	0.20127	0.37488	0.05848	0.057202	0.093398	-3.4896	-4.6271	-4.675	-4.125	-4.825	-4.3	-4.1458	-5.0854	-3.8521	-4.625	-4.6333	-3.9229	-4.8021	-4.3604	-4.2917	-5.0188	437.535	440.481	372.483	172.944	291.330	321.291	263.388	187.049	489.074	306.125	522.902	520.461	211.138	423.078	215.473	474.552	0.0006499	0.00051628	9.0863e-06	1009	5.2304e-06	1.3907e-07	1116.9	209.33	8.9421e-06	1.0036e-06	266.95	74.48	57.362	16.796	3.6578e-06	23.869	0.00030485	0.0002893	8.2034e-05	1003.5	3.325e-06	3.1769e-06	1104.9	209.28	3.26e-06	3.1302e-06	267.53	74.862	57.957	17.226	3.2008e-06	24.561	346.852	290.335	344.135	174.647	284.996	306.115	174.328	182.144	300.349	346.253	181.852	188.370	188.936	196.306	319.837	195.560	-8191	255	
28963.184	1	1	0	0	0.15918	0.1283	0.35695	0.22519	0.15823	0.015355	0.18978	0.15394	0.16462	0.051521	0.052694	0.098415	0.14854	0.17307	0.16423	0.026055	-3.7313	-4.4708	-4.4979	-4.1188	-4.85	-4.3979	-4.1208	-5.0604	-4	-4.2562	-4.9667	-4.1229	-4.7354	-4.4458	-3.9437	-5.0563	494.342	370.010	517.441	514.528	376.005	506.925	504.378	212.214	270.240	521.228	464.790	180.218	291.825	299.707	488.405	379.951	0.00068088	0.00029846	9.3807e-05	1011.2	5.9543e-06	1.8151e-06	1115.4	210.06	5.9468e-06	3.1774e-07	267.08	74.167	57.771	16.967	1.4099e-06	23.938	0.00030893	0.00029757	8.134e-05	1003.3	3.1727e-06	3.1468e-06	1104.4	209.04	3.185e-06	3.1577e-06	267.35	74.826	58.237	17.32	3.1822e-06	24.622	341.457	249.996	320.751	174.282	313.915	297.266	174.545	182.037	314.732	223.215	181.944	188.196	188.864	196.570	320.322	195.435	-8191	255	
28963.277	1	1	0	0	0.07731	0.091538	0.034548	0.33932	0.048191	0.26623	0.31896	0.07721	0.22127	0.18779	0.18753	0.14637	0.12635	0.26624	0.14336	0.1677	-3.8063	-4.4437	-4.8021	-4.1021	-4.6542	-4.4583	-4.1542	-4.9292	-4.1625	-4.2896	-4.9396	-3.8833	-4.6792	-4.6479	-3.7875	-4.7875	429.960	377.110	287.142	430.795	296.172	240.808	483.124	168.369	511.110	250.429	281.817	513.760	227.212	223.433	174.542	472.603	0.00057295	0.00029415	7.0268e-05	1008.2	3.6167e-06	4.5126e-06	1115.3	209.07	8.4419e-06	1.7878e-06	265.71	74.17	57.784	17.009	7.4468e-07	24.092	0.00029417	0.0002842	7.8964e-05	1002.9	3.1399e-06	3.062e-06	1105.6	209.06	3.1364e-06	3.1428e-06	267.64	74.808	58.2	17.303	3.1267e-06	24.594	352.201	311.830	328.575	174.531	350.521	352.977	174.245	181.968	309.598	294.948	181.512	188.365	188.788	196.374	378.675	195.416	-8191	255	
28963.375	1	1	0	0	0.06032	0.17764	0.24233	0.085206	0.15826	0.090433	0.13146	0.041402	0.10922	0.10817	0.070253	0.30405	0.16046	0.10907	0.10078	0.10626	-4.0604	-4.1208	-4.9187	-4.1562	-4.5479	-4.7188	-4.1562	-4.9479	-4.3333	-3.9313	-5.05	-3.8854	-4.3854	-4.8938	-3.8604	-4.7292	461.386	491.529	352.805	396.670	309.985	187.172	481.574	314.683	321.989	347.619	280.076	501.163	282.591	431.850	202.489	523.956	0.00058687	0.00027973	0.000107	1009.1	6.406e-06	2.8089e-06	1109.5	209.11	6.4822e-06	5.3422e-06	265.75	73.555	58.05	16.87	3.747e-06	23.898	0.00030145	0.00028771	7.9143e-05	1002.2	3.1763e-06	3.1109e-06	1103.5	209.04	3.2258e-06	3.2439e-06	267.67	74.702	58.15	17.213	3.2024e-06	24.615	351.905	257.048	257.269	174.532	301.534	367.899	174.325	182.159	369.237	312.312	182.087	188.583	188.432	196.929	327.081	195.542	-8191	255	
28963.471	1	1	0	0	0.023327	0.25611	0.20383	0.18805	0.15309	0.15417	0.49846	0.11026	0.28919	0.19317	0.25979	0.21749	0.15193	0.051456	0.1534	0.12013	-4.0479	-4.0938	-4.8333	-4.1979	-4.4521	-4.7979	-4.1104	-4.7438	-4.2521	-4.0354	-4.9354	-4.0604	-4.3083	-4.8979	-3.8812	-4.7042	475.757	365.969	203.004	434.894	315.108	186.124	417.693	265.963	364.543	244.638	370.261	191.997	231.208	476.735	322.576	328.714	0.00067473	0.00017249	1.7206e-05	1011.4	2.5317e-06	1.1239e-06	1111.1	208.6	2.4028e-06	2.671e-06	266.73	75.116	57.382	16.746	7.3229e-06	24.067	0.00030223	0.00029173	8.1135e-05	1003.9	3.3153e-06	3.1989e-06	1104.4	209.29	3.2598e-06	3.3498e-06	268	74.921	58.189	17.235	3.272e-06	24.638	347.096	261.197	223.524	174.551	250.013	334.914	174.303	181.932	295.637	300.257	181.639	188.284	188.830	196.553	362.735	195.712	-8191	255	
28963.566	1	1	0	0	0.14301	0.08976	0.15114	0.36051	0.14771	0.050001	0.1855	0.18795	0.091535	0.083785	0.13185	0.13963	0.089768	0.14367	0.18236	0.075886	-4.2917	-3.9521	-4.8604	-4.2396	-4.1521	-4.95	-4.1479	-4.5417	-4.6375	-3.8958	-4.9646	-4.2854	-4.1521	-4.8438	-3.8458	-4.5771	170.794	521.317	272.201	472.535	194.146	426.643	475.893	371.166	496.615	475.789	268.472	221.979	216.078	372.195	266.795	466.311	0.00059759	0.0003189	0.00014713	1011.3	1.5115e-06	2.265e-06	1116.7	210.55	7.3101e-06	8.6542e-07	267.46	74.582	57.709	17.028	5.327e-06	23.982	0.00030233	0.00029251	8.0403e-05	1004.2	3.2577e-06	3.2791e-06	1105.1	209.42	3.2145e-06	3.2306e-06	268.1	74.807	58.275	17.34	3.2166e-06	24.616	350.900	242.919	256.611	174.493	326.991	287.508	174.398	182.099	243.737	342.657	181.878	188.604	188.776	196.703	378.473	195.694	-8191	255	
28963.662	1	1	0	0	0.050351	0.21532	0.2166	0.22877	0.12623	0.063323	0.15287	0.20456	0.13169	0.19418	0.084448	0.053017	0.091404	0.14566	0.072773	0.12971	-4.4	-3.825	-4.825	-4.4667	-3.9167	-4.9688	-4.1417	-4.4187	-4.6708	-3.8583	-4.9062	-4.4021	-3.9396	-4.9437	-4.0437	-4.4729	260.543	338.749	453.282	408.813	412.041	289.309	405.318	252.257	342.218	316.542	219.863	277.172	290.900	237.563	351.492	377.458	0.00067207	0.00022164	8.9157e-05	1009.5	1.5179e-06	2.0025e-06	1118.1	209.13	6.5959e-06	2.6303e-06	267.18	74.247	58.083	16.897	1.4465e-06	23.997	0.00030797	0.00030369	8.1476e-05	1003.8	3.3637e-06	3.2337e-06	1106.9	209.35	3.1718e-06	3.2618e-06	268.03	74.967	58.328	17.308	3.3038e-06	24.612	342.285	256.955	247.975	174.660	409.903	323.063	174.158	181.995	315.642	299.490	182.012	188.922	188.750	196.533	214.568	195.738	-8191	255	
28963.783	1	1	0	0	0.22614	0.08216	0.082252	0.27002	0.086194	0.16533	0.35633	0.14613	0.041969	0.077188	0.21087	0.10863	0.2733	0.14927	0.14947	0.12488	-4.4812	-3.9458	-4.8333	-4.6542	-4.1354	-5.0771	-4.3583	-4.3542	-4.8604	-3.9042	-4.6354	-4.5021	-3.8417	-4.6771	-4.1521	-4.1438	287.134	164.651	497.614	428.888	417.708	412.705	503.063	405.579	523.251	369.772	204.931	344.773	491.906	252.242	486.365	440.662	0.0007828	0.00019411	8.4721e-05	1011.9	2.3464e-06	3.0984e-06	1116.7	209.95	4.6556e-06	3.6438e-06	266.88	74.994	57.814	16.93	4.6558e-06	23.885	0.00031003	0.00029552	8.3458e-05	1005.5	3.3461e-06	3.2635e-06	1107.7	209.35	3.2977e-06	3.2821e-06	267.94	75.087	58.163	17.332	3.3421e-06	24.623	353.645	222.294	304.087	174.637	269.916	348.270	174.488	182.056	368.131	345.038	181.675	188.722	188.817	196.869	373.218	195.894	-8191	255	
28963.879	1	1	0	0	0.033677	0.1098	0.11344	0.1889	0.029267	0.17278	0.13564	0.21378	0.11859	0.108	0.11135	0.10527	0.12834	0.14096	0.02583	0.028397	-4.4083	-4.0771	-4.5062	-4.75	-4.0583	-4.7542	-4.3875	-4.2354	-4.8833	-3.8375	-4.7021	-4.7188	-3.8771	-4.8896	-4.2979	-4.0229	508.869	297.686	322.921	476.752	346.600	360.195	441.568	445.898	509.052	315.984	409.344	281.996	167.390	450.756	398.984	455.808	0.00067401	0.00026417	5.959e-05	1012.7	4.4168e-06	3.2403e-06	1112.7	209.18	4.0976e-06	4.8276e-06	268.57	74.404	57.715	16.894	4.1825e-06	23.85	0.00031448	0.00030194	8.4682e-05	1006.4	3.4427e-06	3.3331e-06	1108.1	209.24	3.3646e-06	3.4578e-06	268.78	74.93	58.492	17.323	3.4178e-06	24.621	340.502	255.288	202.628	174.616	345.747	254.608	174.469	182.102	336.825	331.722	181.815	188.219	188.395	196.388	377.276	194.917	-8191	255	
28963.975	1	1	0	0	0.19722	0.16934	0.10613	0.096353	0.051832	0.074319	0.23952	0.27074	0.14543	0.32324	0.17694	0.26251	0.15146	0.21991	0.20295	0.21268	-4.6438	-3.85	-4.3354	-4.9417	-3.8854	-4.7917	-4.6667	-4.1	-4.9271	-4.0021	-4.3958	-4.8708	-3.9521	-4.7333	-4.4396	-4.0312	256.327	222.763	469.206	500.903	372.700	405.107	459.932	309.519	355.874	419.255	258.503	366.269	504.104	376.281	189.369	467.611	0.00055392	0.00033947	0.00017981	1010.2	1.1517e-06	4.4376e-06	1117.8	211.01	4.5924e-06	3.6686e-06	268.76	74.385	58.136	16.889	4.9599e-06	23.741	0.0003146	0.00030692	8.5699e-05	1005.2	3.4713e-06	3.3251e-06	1108.3	209.69	3.3235e-06	3.3771e-06	268.47	74.948	58.379	17.313	3.3623e-06	24.631	351.243	281.655	276.695	174.507	287.580	324.521	174.551	182.110	306.124	343.081	181.585	188.539	188.652	196.640	339.936	195.893	-8191	255	
28964.070	1	1	0	0	0.078215	0.15018	0.10767	0.049216	0.09439	0.25643	0.11602	0.27232	0.077923	0.20366	0.095313	0.23888	0.10136	0.19583	0.29148	0.20087	-4.5792	-4.0563	-4.2188	-5.0083	-3.9042	-4.6062	-4.8146	-4.0667	-4.8063	-4.1979	-4.2146	-4.9146	-4.0271	-4.5354	-4.6896	-3.9167	223.745	439.360	232.294	395.182	465.878	315.723	413.943	397.192	498.192	422.263	472.653	215.587	221.087	300.823	267.755	504.778	0.00064658	0.00032891	8.9626e-05	1015.1	2.9382e-06	2.0956e-06	1117	210.27	5.4366e-06	1.944e-06	268.23	75.084	58.003	16.803	5.9208e-06	24.096	0.00031604	0.00031496	8.6147e-05	1008.2	3.4604e-06	3.4244e-06	1108.8	209.99	3.3784e-06	3.4054e-06	269.08	75.373	58.323	17.307	3.4377e-06	24.695	352.641	268.094	280.401	174.532	451.719	337.495	174.562	182.060	300.524	272.766	181.457	188.358	188.523	196.212	311.260	194.930	-8191	255	
28964.168	1	1	0	0	0.060352	0.11997	0.037321	0.10304	0.11112	0.22423	0.068007	0.12884	0.16832	0.094529	0.20925	0.12685	0.058929	0.27101	0.073298	0.13027	-4.4875	-4.2042	-4.1146	-4.8917	-3.8896	-4.3938	-4.7875	-3.9688	-4.7146	-4.2833	-4.0312	-4.8625	-4.0312	-4.3729	-4.6875	-3.875	399.301	281.351	217.188	183.738	502.715	421.866	442.987	502.570	406.002	317.496	310.262	449.045	457.184	444.358	177.730	467.091	0.00060381	0.00045591	6.5858e-05	1014	6.6565e-06	2.8567e-06	1116.5	209.41	5.0022e-06	2.3413e-06	267.5	74.614	57.756	16.97	7.695e-06	23.857	0.00031467	0.00030795	8.4751e-05	1008	3.4292e-06	3.3222e-06	1108.8	209.6	3.3342e-06	3.3898e-06	269.14	75.011	58.347	17.351	3.3429e-06	24.658	360.111	279.186	255.764	174.473	298.254	349.022	174.365	181.926	335.767	337.061	181.760	188.223	188.737	196.275	306.430	195.687	-8191	255	
28964.262	1	1	0	0	0.097376	0.0097083	0.2248	0.13423	0.11923	0.34002	0.10908	0.095117	0.17891	0.19201	0.20011	0.046072	0.14135	0.19375	0.20636	0.14563	-4.3354	-4.3542	-4.0563	-5.1312	-4.1083	-4.2729	-4.9437	-3.9938	-4.675	-4.5979	-4.0125	-4.9083	-4.1188	-4.1042	-4.8646	-3.85	204.059	381.862	413.412	459.965	520.909	232.909	167.178	484.609	239.790	277.243	308.697	187.137	507.880	481.618	257.581	474.644	0.00077173	0.00024592	0.00013653	1012	6.3804e-06	3.2306e-06	1116.7	209.17	1.8639e-06	2.889e-06	266.16	74.701	57.94	16.971	5.1385e-06	24.047	0.00031224	0.00031202	8.3817e-05	1006.3	3.4126e-06	3.4372e-06	1109.1	209.48	3.4156e-06	3.3521e-06	268.2	75.144	58.46	17.333	3.312e-06	24.626	343.750	241.462	269.639	174.615	283.132	323.173	174.548	181.970	296.397	335.637	181.502	188.564	188.875	196.466	328.861	195.085	-8191	255	
28964.383	1	1	0	0	0.11132	0.093174	0.04182	0.097092	0.209	0.17278	0.043469	0.18131	0.13063	0.2043	0.0612	0.13209	0.15769	0.10547	0.14754	0.16908	-4.3021	-4.3625	-3.9	-4.8104	-4.025	-4.1354	-4.9292	-4.1854	-4.55	-4.6979	-4.0792	-4.8896	-4.2812	-4.0521	-4.7458	-4.0687	439.159	257.554	364.034	208.823	458.171	328.672	194.266	399.351	169.113	418.191	491.134	343.722	277.498	487.579	460.359	495.033	0.00058558	0.00047436	7.5658e-05	1016	2.2409e-06	4.5791e-06	1123.1	209.68	2.9161e-06	6.3264e-06	268.46	74.743	57.826	16.994	5.7993e-06	24.103	0.00030619	0.00029801	8.4088e-05	1009.2	3.2898e-06	3.2839e-06	1112	209.67	3.2382e-06	3.1876e-06	268.89	75.155	58.486	17.353	3.264e-06	24.696	340.119	300.397	214.056	174.725	399.938	280.417	174.361	181.943	282.673	326.180	181.857	189.075	189.014	196.154	345.102	195.642	-8191	255	
28964.479	1	1	0	0	0.15085	0.12751	0.19335	0.027553	0.29048	0.062499	0.088905	0.2146	0.20634	0.12451	0.18631	0.18011	0.031029	0.1562	0.23297	0.28191	-4.1146	-4.7542	-3.8896	-4.8229	-4.4583	-4.0375	-4.8646	-4.0917	-4.2729	-4.775	-4.0417	-4.7458	-4.4062	-4.0312	-4.8854	-3.9188	508.047	176.329	223.944	509.255	368.486	410.288	513.324	166.639	415.985	384.174	397.715	199.999	469.521	164.700	231.269	226.640	0.00071045	0.00037426	4.6878e-05	1011.4	3.6645e-06	2.8687e-06	1121.2	211.67	6.8234e-06	4.4669e-06	268.59	75.701	58.175	16.973	2.9971e-06	23.902	0.00031568	0.00029745	8.6075e-05	1008.6	3.3713e-06	3.281e-06	1112.4	210.46	3.2839e-06	3.2777e-06	269.15	75.255	58.472	17.373	3.1843e-06	24.636	355.694	278.629	240.585	174.636	355.756	369.384	174.481	182.281	308.176	302.405	181.925	188.169	188.830	196.280	316.836	195.449	-8191	255	
28964.574	1	1	0	0	0.20574	0.22391	0.09067	0.19321	0.082391	0.052117	0.1664	0.044306	0.11341	0.071542	0.22593	0.16216	0.14972	0.054809	0.11051	0.071131	-4.0167	-4.7792	-3.9062	-4.6396	-4.5083	-3.825	-4.9146	-4.3417	-4.0813	-4.7646	-3.9521	-4.6	-4.6146	-3.925	-4.9229	-4.1375	384.289	309.313	231.514	480.445	420.874	367.442	454.207	362.355	395.182	494.798	266.060	276.977	482.154	199.771	424.406	385.279	0.00070532	0.00015716	7.394e-05	1019.4	3.4828e-06	1.6917e-06	1122.3	210.22	7.6053e-06	1.5007e-06	269.01	74.443	58.236	16.905	3.5731e-06	24.072	0.00030256	0.00029774	8.429e-05	1011.3	3.2835e-06	3.2917e-06	1113.7	210.17	3.3261e-06	3.2102e-06	269.41	75.148	58.41	17.336	3.2283e-06	24.694	349.566	219.394	279.483	174.631	283.283	343.548	174.518	182.077	312.134	354.548	181.764	188.613	188.718	195.914	346.457	195.476	-8191	255	
28964.646	1	1	0	0	0.17041	0.11632	0.074094	0.20857	0.079864	0.096395	0.18035	0.042886	0.096543	0.11422	0.056542	0.26604	0.13706	0.09563	0.071102	0.17329	-3.8729	-4.8604	-3.9354	-4.7021	-4.5833	-3.8271	-4.8292	-4.2896	-4.0521	-4.8313	-4.1708	-4.7354	-4.7646	-4.0687	-4.8792	-4.5062	467.627	376.925	441.665	393.484	254.757	206.169	453.165	205.277	385.607	226.708	270.773	512.614	357.357	319.812	220.056	414.458	0.00076334	0.00015302	5.1508e-05	1015.1	4.0502e-06	2.2279e-06	1118.1	210.21	9.4e-06	2.5285e-06	266.54	74.967	58.27	16.868	2.1676e-06	24.017	0.00030512	0.00028532	8.1909e-05	1009.5	3.2102e-06	3.2253e-06	1110.8	209.93	3.2695e-06	3.2119e-06	269.06	75.206	58.667	17.328	3.1621e-06	24.696	347.716	219.406	330.330	174.449	343.426	253.275	174.348	181.829	279.952	277.537	181.770	188.040	188.738	196.297	335.792	195.364	-8191	255	
28964.768	1	1	0	0	0.15394	0.20798	0.11334	0.37475	0.28305	0.13848	0.054246	0.24793	0.15065	0.18177	0.13772	0.30544	0.12245	0.34289	0.068824	0.057917	-3.7542	-4.8625	-4.0938	-4.6312	-4.6813	-4.025	-4.8	-4.525	-3.8271	-5.1333	-4.2375	-4.2438	-4.9729	-3.8688	-4.7771	-4.6729	402.566	222.703	186.362	458.967	369.073	177.649	488.271	167.786	457.363	323.631	423.623	497.190	260.997	473.884	301.743	318.000	0.00061167	7.7347e-05	0.00017159	1015.8	1.7796e-06	3.3142e-06	1124.9	210.51	7.7228e-06	2.0741e-06	268.19	75.143	58.314	16.862	3.1109e-06	24.007	0.00029847	0.0002895	8.1799e-05	1011.5	3.2283e-06	3.1931e-06	1114.8	209.97	3.2265e-06	3.1475e-06	269.46	75.213	58.599	17.334	3.2002e-06	24.671	348.146	315.855	304.452	174.391	297.634	385.874	174.405	182.076	313.486	317.036	181.894	188.258	188.538	196.220	338.019	195.841	-8191	255	
28964.863	1	1	0	0	0.13749	0.074894	0.23598	0.11567	0.16404	0.26047	0.055042	0.23931	0.091308	0.08036	0.22598	0.13699	0.16444	0.083602	0.040625	0.30061	-3.7042	-4.9354	-4.175	-4.4229	-4.7937	-3.7812	-4.6958	-4.5687	-3.8417	-4.9958	-4.2708	-4.1813	-4.7896	-3.9771	-4.4875	-4.65	231.808	317.893	208.984	408.199	467.318	423.621	261.844	496.030	208.343	237.597	225.840	353.406	406.219	375.956	326.976	170.243	0.00064872	0.00027113	6.7884e-05	1018.2	4.7425e-06	3.1428e-06	1121.3	210.97	7.9935e-06	2.3755e-06	267.73	74.889	57.729	16.95	6.0558e-06	23.895	0.00030532	0.00028657	8.2027e-05	1011.1	3.1458e-06	3.1139e-06	1113.4	210.28	3.1822e-06	3.2457e-06	269.29	75.287	58.464	17.36	3.2063e-06	24.684	357.208	211.709	261.801	174.607	276.513	323.480	174.198	182.295	312.196	290.623	181.451	187.984	188.610	196.679	295.598	195.415	-8191	255	
28964.959	1	1	0	0	0.14959	0.14285	0.13793	0.27158	0.048307	0.20353	0.058603	0.036998	0.2001	0.19793	0.063328	0.1513	0.16403	0.067858	0.29207	0.049204	-3.6354	-4.8875	-4.2167	-4.2854	-4.7917	-3.9354	-4.5542	-4.7479	-3.6896	-4.6854	-4.4333	-4.2063	-4.8771	-4.0417	-4.3771	-4.6625	478.855	384.276	354.905	165.455	316.899	490.686	313.782	422.009	170.517	351.831	411.842	286.287	365.658	498.372	500.643	263.802	0.00064855	0.00029596	8.1487e-05	1016.7	5.0065e-06	8.6133e-07	1120.4	211.4	4.4301e-06	3.0402e-06	268.66	74.547	58.335	16.959	6.1131e-06	23.961	0.00030552	0.00029044	8.2385e-05	1010.2	3.3127e-06	3.285e-06	1114.2	210.46	3.3443e-06	3.2347e-06	269.69	75.054	58.317	17.361	3.2885e-06	24.666	347.779	275.428	307.059	174.776	270.337	296.368	174.287	181.613	340.824	232.201	181.785	188.192	188.822	196.096	284.956	195.487	-8191	255	
28965.055	1	1	0	0	0.16062	0.19165	0.12601	0.33472	0.17337	0.07552	0.21729	0.11626	0.10533	0.31816	0.1902	0.13949	0.08442	0.17572	0.03585	0.28562	-3.4208	-4.8875	-4.3646	-4.2458	-4.8688	-4.0729	-4.5437	-4.8438	-3.925	-4.6729	-4.5667	-3.9021	-4.85	-4.2438	-4.1	-4.8521	465.045	364.155	354.348	494.518	467.459	329.810	440.088	440.229	289.280	311.263	466.453	258.597	480.214	517.568	265.837	177.785	0.00064211	0.00045995	5.1105e-05	1018.4	3.9022e-06	2.9375e-06	1119.5	209.62	3.8214e-06	1.7397e-06	267.39	74.96	58.105	16.86	2.8072e-06	24.086	0.00031259	0.00029335	8.1525e-05	1011.9	3.1385e-06	3.219e-06	1112.3	209.85	3.2713e-06	3.2023e-06	269.24	75.133	58.673	17.344	3.2454e-06	24.759	348.830	306.011	310.964	174.387	269.536	332.230	174.244	181.861	335.774	361.708	181.346	188.451	188.798	196.406	277.421	195.802	-8191	255	
28965.174	1	1	0	0	0.072236	0.20134	0.094257	0.19047	0.2017	0.10689	0.070215	0.12328	0.092829	0.22678	0.27898	0.11083	0.049686	0.11447	0.27042	0.11621	-3.6042	-4.5479	-4.7333	-4.0792	-4.9292	-4.3167	-4.2958	-4.7583	-4.0542	-4.5542	-4.7417	-3.8146	-4.7229	-4.1917	-4.0062	-4.8271	494.867	379.963	305.943	459.166	401.839	287.447	508.629	242.187	287.293	211.472	327.406	437.557	505.625	472.772	320.984	196.688	0.00057076	0.00012787	0.0001199	1015.1	5.7967e-06	2.2522e-06	1120.6	210.04	4.7983e-06	1.6078e-06	268.84	74.539	57.774	16.911	5.2945e-06	23.874	0.00030801	0.00029785	8.2185e-05	1008.7	3.255e-06	3.226e-06	1111.7	210.18	3.3199e-06	3.3032e-06	269.26	75.125	58.449	17.337	3.3637e-06	24.756	346.327	335.741	253.687	174.374	305.725	387.989	174.217	182.331	320.628	433.090	181.760	188.428	188.776	195.948	303.087	195.980	-8191	255	
28965.248	1	1	0	0	0.1928	0.1183	0.11716	0.21202	0.22962	0.027229	0.082453	0.16083	0.27222	0.35215	0.14364	0.08923	0.12326	0.14087	0.19197	0.1064	-3.6458	-4.4	-4.7521	-4.0917	-4.7625	-4.3979	-4.1375	-4.8938	-4.1104	-4.1958	-4.7188	-3.8896	-4.6813	-4.4104	-4.0042	-5.0917	339.316	387.146	237.226	487.618	226.769	364.549	448.755	222.218	445.695	301.520	512.483	476.460	301.581	370.738	285.051	448.080	0.00070357	0.00025716	2.3781e-05	1016.6	6.3673e-06	7.1281e-06	1118.5	209.82	3.6094e-06	1.7363e-06	270.2	74.442	58.029	17.052	3.8932e-06	23.99	0.0003172	0.00030744	8.3804e-05	1010.5	3.3711e-06	3.3342e-06	1111.1	209.95	3.3218e-06	3.3741e-06	269.93	75.163	58.566	17.345	3.2834e-06	24.679	343.252	178.262	484.687	174.530	280.061	358.674	174.472	181.890	333.710	354.888	181.604	188.557	188.500	196.954	276.185	195.433	-8191	255	
28965.344	1	1	0	0	0.066415	0.16899	0.22406	0.19796	0.16956	0.084582	0.3195	0.13634	0.075242	0.13023	0.16783	0.11083	0.1424	0.18287	0.089771	0.043528	-3.6688	-4.2021	-4.9313	-4.0104	-4.6417	-4.3313	-4.2125	-4.8104	-4.1604	-4.1375	-4.9542	-3.8979	-4.6333	-4.4708	-3.9375	-4.6854	370.047	253.591	447.196	428.927	225.359	427.550	447.943	434.397	349.507	438.199	165.632	359.871	305.036	398.073	252.408	221.197	0.00060697	0.00027693	1.9799e-05	1019.3	6.9939e-06	3.6128e-06	1116.5	211.09	2.527e-06	8.3973e-07	267.41	75.034	58.312	16.984	3.5883e-06	24.083	0.00031177	0.00029913	8.1458e-05	1011.6	3.3421e-06	3.2344e-06	1112.1	210.12	3.2678e-06	3.2887e-06	268.54	75.224	58.555	17.335	3.3322e-06	24.678	346.826	294.446	329.281	174.622	279.252	320.027	174.415	182.085	268.454	274.251	181.774	188.769	188.950	196.854	300.403	195.947	-8191	255	
28965.463	1	1	0	0	0.1834	0.08474	0.18493	0.19512	0.12398	0.10645	0.17466	0.078219	0.19509	0.08001	0.020438	0.081523	0.20677	0.0687	0.29633	0.094042	-3.9417	-4.1104	-4.6604	-3.975	-4.3729	-4.6521	-4.0646	-4.7688	-4.2292	-4.1375	-5.0771	-3.9271	-4.3896	-4.6396	-3.7479	-4.5896	523.352	285.274	422.889	511.535	449.798	252.144	485.947	340.580	339.504	217.137	413.041	196.474	475.194	342.699	311.065	460.531	0.00052142	0.00049769	3.7154e-05	1012	3.5028e-06	4.1061e-06	1116.6	210.68	5.5646e-06	2.576e-06	268.7	74.262	57.734	16.903	7.3385e-06	23.979	0.00030574	0.00030672	7.976e-05	1009	3.3816e-06	3.3124e-06	1111.3	210.71	3.3923e-06	3.2679e-06	269.67	74.958	58.326	17.313	3.2741e-06	24.681	351.347	221.009	280.185	174.641	304.767	281.107	174.514	182.198	320.158	294.416	181.629	188.481	188.688	196.511	309.256	195.725	-8191	255	
28965.559	1	1	0	0	0.1688	0.258	0.10553	0.35283	0.050579	0.12021	0.21139	0.10674	0.094933	0.19346	0.23324	0.22859	0.11487	0.1593	0.092234	0.18334	-3.9333	-3.8875	-4.7833	-4.1896	-4.1687	-4.7771	-4.0813	-4.6542	-4.5708	-3.9396	-4.9958	-4.0542	-4.2542	-4.9437	-3.9437	-4.6208	272.281	420.915	383.574	427.070	444.533	397.359	471.055	377.699	412.221	303.239	279.481	459.385	459.385	477.932	496.427	322.560	0.00061841	0.00016668	7.5297e-05	1018	2.4752e-06	3.3399e-06	1117.2	211.01	7.1272e-06	2.1875e-06	267.24	74.748	58.238	16.877	7.6264e-06	24.017	0.00030938	0.00030014	8.3814e-05	1011.1	3.3113e-06	3.2636e-06	1111.2	210.23	3.2649e-06	3.2172e-06	269.43	75.232	58.605	17.355	3.3031e-06	24.666	354.285	368.000	288.545	174.428	311.594	374.047	174.219	182.072	311.463	291.364	181.945	188.359	188.368	196.624	320.034	195.249	-8191	255	
28965.654	1	1	0	0	0.12709	0.12909	0.04868	0.048528	0.11083	0.19387	0.086668	0.057073	0.21533	0.10852	0.11529	0.12397	0.22417	0.076101	0.20599	0.16666	-4.2958	-4.1021	-4.9271	-4.4125	-4.2771	-4.8354	-4.0708	-4.6125	-4.6729	-3.9417	-4.8854	-4.2042	-4.1021	-4.8875	-3.8583	-4.4625	287.998	416.263	362.010	166.234	253.892	341.067	482.164	302.264	425.939	381.246	214.921	413.161	342.340	471.490	292.579	302.323	0.00061871	0.00029272	0.00010475	1023.3	2.7123e-06	3.4011e-06	1120.9	209.79	8.5091e-06	5.4463e-06	267.83	74.794	58.162	16.935	2.7978e-06	24.05	0.00030848	0.00030351	8.4075e-05	1014.2	3.3669e-06	3.3053e-06	1112.8	209.98	3.42e-06	3.4135e-06	269.25	75.1	58.536	17.383	3.3972e-06	24.696	355.480	227.432	267.749	174.621	307.176	312.282	174.196	182.031	325.898	341.484	182.048	188.503	188.768	196.022	361.660	195.656	-8191	255	
28965.775	1	1	0	0	0.15054	0.1361	0.17904	0.16597	0.20005	0.16027	0.1485	0.28058	0.081427	0.13062	0.13562	0.07062	0.379	0.02562	0.26509	0.17051	-4.5042	-3.8792	-4.8562	-4.4854	-4.0667	-4.8812	-4.2354	-4.4354	-4.8417	-4.0833	-4.8042	-4.3396	-4.1583	-5.0021	-4.0604	-4.3812	297.382	372.025	373.651	455.007	321.958	269.923	519.648	432.517	353.526	494.648	262.978	459.676	345.817	253.939	206.527	386.320	0.00071264	0.0004797	3.5743e-05	1018.4	4.2755e-06	3.3738e-06	1117.3	211.97	6.5027e-06	2.7462e-06	269.47	74.79	58.209	16.966	3.3998e-06	23.973	0.0003157	0.00030237	8.2741e-05	1010.8	3.3613e-06	3.3047e-06	1111.2	210.66	3.3192e-06	3.3372e-06	269.4	75.116	58.519	17.323	3.3218e-06	24.67	339.194	281.384	198.317	174.457	283.002	284.211	174.537	181.928	316.957	265.842	181.262	188.304	188.784	196.299	299.687	195.440	-8191	255	
28965.871	1	1	0	0	0.098309	0.08663	0.1188	0.21298	0.077298	0.33471	0.141	0.12479	0.21956	0.10918	0.2301	0.13406	0.17272	0.17472	0.1224	0.062346	-4.45	-3.8917	-4.7812	-4.5917	-3.8854	-4.7771	-4.3146	-4.3854	-4.9104	-3.9479	-4.6813	-4.6854	-3.8729	-4.8833	-4.1521	-4.1167	433.581	497.541	519.706	466.346	244.082	279.994	381.436	386.620	307.206	180.440	413.060	165.119	496.319	191.967	262.359	472.767	0.00071613	0.00020966	4.8626e-05	1018.6	5.8263e-06	3.627e-06	1120.1	209.83	4.4892e-06	2.9151e-06	269.79	74.199	58.329	16.891	5.3136e-06	23.878	0.00030803	0.00030097	8.257e-05	1012.8	3.3351e-06	3.3382e-06	1112.2	209.69	3.2826e-06	3.364e-06	269.41	75.079	58.536	17.342	3.2392e-06	24.688	360.745	272.692	242.486	174.245	340.427	356.207	174.369	181.755	337.753	341.820	181.396	188.400	189.156	196.125	280.508	195.605	-8191	255	
28965.943	1	1	0	0	0.2041	0.25913	0.19342	0.024246	0.15109	0.20484	0.13852	0.3839	0.038375	0.1252	0.21096	0.068521	0.11731	0.2256	0.14106	0.19562	-4.6667	-3.8667	-4.4375	-4.7354	-3.8292	-4.7979	-4.35	-4.2375	-4.9563	-4.0104	-4.6208	-4.8104	-3.85	-4.7375	-4.2729	-4.1896	373.467	497.869	176.195	511.624	509.446	515.387	446.320	398.583	205.033	249.314	188.654	252.832	401.034	277.774	496.344	300.241	0.00071839	0.00024127	0.00011182	1013.5	3.6837e-06	3.6668e-06	1121.1	209.72	3.3873e-06	2.618e-06	269.42	74.506	58.14	16.931	1.6222e-06	23.972	0.0003088	0.00030532	8.3842e-05	1009.2	3.3903e-06	3.3778e-06	1113.7	210.02	3.3124e-06	3.4114e-06	269.66	75.217	58.504	17.355	3.4357e-06	24.666	355.588	327.254	275.030	174.645	308.352	352.132	174.296	181.768	286.514	312.833	181.590	188.849	189.063	196.734	390.527	195.382	-8191	255	
28966.064	1	1	0	0	0.14535	0.13067	0.12891	0.29469	0.30592	0.095555	0.25573	0.081985	0.029806	0.034339	0.33647	0.27532	0.20262	0.20617	0.07245	0.096067	-4.6208	-3.9917	-4.3292	-4.8021	-3.8208	-4.775	-4.6687	-4.0917	-4.9104	-4.1708	-4.3125	-4.8479	-3.8583	-4.7021	-4.6229	-4.0604	490.471	520.075	226.252	439.508	422.126	274.436	435.409	297.731	308.973	249.702	347.944	484.566	267.519	337.200	507.630	374.721	0.00062555	3.9499e-05	7.093e-05	1021.5	3.6862e-06	1.3645e-06	1124.2	210.06	4.4613e-06	2.3135e-06	270.19	74.772	57.955	16.95	3.0003e-06	23.865	0.00031656	0.0003084	8.6488e-05	1012.3	3.4668e-06	3.33e-06	1115.8	210.22	3.4135e-06	3.3883e-06	269.9	75.134	58.545	17.359	3.3692e-06	24.664	351.597	236.965	257.631	174.663	338.053	498.012	174.417	181.942	346.161	446.810	181.444	188.448	189.129	196.646	308.828	195.248	-8191	255	
28966.160	1	1	0	0	0.036302	0.1861	0.12486	0.13537	0.12521	0.055131	0.30809	0.15717	0.30595	0.31252	0.15923	0.12258	0.15027	0.22499	0.1315	0.16645	-4.7812	-4.1896	-4.0792	-5.0083	-3.7438	-4.5458	-4.6312	-3.9896	-4.7583	-4.0979	-4.2083	-4.9812	-4.0687	-4.5167	-4.6813	-3.9854	315.856	226.610	429.268	361.579	474.548	411.389	491.432	489.571	262.521	314.272	504.327	424.093	285.535	436.402	490.896	272.252	0.00057063	0.00028932	4.5146e-05	1020.5	5.572e-06	4.1417e-06	1121.9	210.74	2.4791e-06	8.1728e-07	267.93	75.335	58.172	16.913	3.8315e-06	24.088	0.00030489	0.00030352	8.1934e-05	1013	3.3987e-06	3.363e-06	1114.8	210.52	3.2462e-06	3.2766e-06	269.27	75.298	58.457	17.357	3.2671e-06	24.653	352.210	226.915	284.666	174.564	294.873	272.233	174.389	182.102	372.058	310.297	181.777	188.520	188.622	196.530	321.181	195.669	-8191	255	
28966.256	1	1	0	0	0.20382	0.02904	0.091661	0.33698	0.14697	0.25879	0.25153	0.24406	0.16008	0.23107	0.217	0.061194	0.024885	0.12588	0.050223	0.080494	-4.6312	-4.1792	-3.9646	-5.0667	-3.9417	-4.3333	-4.8583	-3.8708	-4.7458	-4.2833	-3.975	-4.9812	-4.1062	-4.3792	-4.6625	-3.7771	274.758	406.609	306.282	445.950	241.988	215.476	439.067	408.000	231.756	442.339	218.603	186.593	514.755	472.292	458.992	476.998	0.00061827	0.00025737	0.00014245	1017.8	5.6329e-06	2.9025e-06	1121.5	210.86	6.5697e-06	3.4224e-06	268.48	74.513	58.202	16.824	4.0294e-06	24.044	0.00030909	0.00030158	8.3166e-05	1010	3.3944e-06	3.3381e-06	1114.5	210.57	3.309e-06	3.2655e-06	269.62	75.15	58.577	17.294	3.2872e-06	24.755	342.975	261.156	256.861	174.723	269.764	284.844	174.419	182.163	239.441	354.367	181.666	188.224	188.963	196.327	385.970	196.246	-8191	255	
28966.352	1	1	0	0	0.21218	0.13294	0.2005	0.11726	0.27562	0.14327	0.22242	0.16798	0.088745	0.22778	0.14909	0.11409	0.16386	0.19292	0.16952	0.12185	-4.3667	-4.4417	-3.9208	-5.0104	-4.1062	-4.2812	-5.0042	-3.9542	-4.5875	-4.525	-4.0104	-4.8125	-4.1396	-4.225	-4.7146	-3.9958	365.381	395.620	372.016	216.427	508.530	232.478	445.297	494.700	442.299	327.546	224.577	484.149	280.309	207.886	246.406	365.752	0.0006161	0.00045659	0.00012142	1019.3	2.9846e-06	6.2353e-06	1126.6	210.86	1.0347e-05	2.5306e-06	269.56	75.286	57.96	16.794	6.0198e-06	24.037	0.00031338	0.00029824	8.3768e-05	1012.5	3.3639e-06	3.2756e-06	1116.2	210.25	3.322e-06	3.3155e-06	269.47	75.353	58.351	17.327	3.2624e-06	24.606	353.377	247.135	227.775	174.575	248.029	300.220	174.353	182.048	312.466	294.456	181.303	188.540	188.840	196.072	344.465	195.645	-8191	255	
28966.447	1	1	0	0	0.04672	0.055554	0.13149	0.11068	0.26867	0.20629	0.18268	0.084299	0.11553	0.15841	0.27661	0.14116	0.075873	0.13174	0.1575	0.27304	-4.2396	-4.5333	-3.8792	-5.0625	-4.3812	-4.1062	-4.8688	-3.9375	-4.5375	-4.5687	-3.9688	-4.7542	-4.3854	-4.0292	-4.8229	-4.0062	345.955	295.039	281.225	345.847	174.757	236.489	445.720	292.227	406.038	345.694	477.120	378.082	425.336	488.367	271.888	496.974	0.00058703	0.000132	5.0015e-05	1020.9	3.4994e-06	3.5031e-06	1120.2	210.75	4.6671e-06	3.0972e-06	267.84	74.431	57.631	16.928	8.7909e-07	24.138	0.00031211	0.00029686	8.0849e-05	1013.1	3.1668e-06	3.1943e-06	1113	210.02	3.2451e-06	3.2513e-06	269.49	75.112	58.523	17.371	3.1747e-06	24.722	352.020	312.867	269.251	174.364	212.675	375.158	174.524	181.937	353.431	393.841	181.302	188.293	189.148	196.107	311.014	195.515	-8191	255	
28966.543	1	1	0	0	0.16672	0.14975	0.14667	0.13033	0.16711	0.072494	0.24364	0.15425	0.18384	0.37496	0.12732	0.11209	0.10855	0.2708	0.143	0.12196	-4.1979	-4.7521	-4.0354	-4.7896	-4.2729	-3.8958	-5.175	-4.1917	-4.3063	-4.7771	-3.6917	-4.6729	-4.4604	-4.025	-4.775	-4.1188	269.974	509.141	210.214	473.801	337.548	317.786	471.669	471.991	313.405	365.938	227.808	171.589	207.553	378.208	171.779	364.715	0.00065488	0.00028978	3.5825e-05	1018.4	2.9303e-06	5.5061e-06	1120.7	209.99	1.1242e-06	9.7611e-07	267.63	74.339	57.616	16.827	2.9698e-06	24.137	0.00030189	0.00029641	8.3084e-05	1011.4	3.2505e-06	3.2363e-06	1113.3	210.16	3.2932e-06	3.2001e-06	268.91	75.062	58.48	17.335	3.2403e-06	24.68	349.686	260.001	268.764	174.421	292.755	343.374	174.449	182.008	467.645	344.306	181.583	188.373	188.755	196.353	344.682	195.403	-8191	255	
28966.639	1	1	0	0	0.24036	0.17231	0.29995	0.18898	0.25275	0.11157	0.21273	0.034861	0.064535	0.074461	0.27841	0.28927	0.022813	0.19409	0.036174	0.073276	-3.8583	-4.7396	-3.8583	-4.8917	-4.5792	-3.8146	-5.1042	-4.1937	-4.1521	-4.8021	-3.9083	-4.5625	-4.6083	-3.925	-4.8583	-4.2771	203.056	265.143	503.036	479.711	486.515	291.479	450.158	402.762	314.217	172.707	450.814	365.586	283.546	514.834	485.308	493.353	0.00072852	0.00029724	4.691e-05	1020.1	5.619e-06	9.5728e-07	1123.4	210.47	7.2217e-06	4.0479e-07	268.49	75.259	58.353	16.874	7.7895e-06	23.78	0.00030243	0.00028976	8.1806e-05	1013.5	3.2898e-06	3.2161e-06	1115	210.29	3.2463e-06	3.1495e-06	269.26	75.269	58.565	17.335	3.194e-06	24.626	346.507	228.715	281.603	174.399	305.972	328.691	174.575	181.826	283.963	318.848	181.520	188.612	188.742	195.919	272.670	195.647	-8191	255	
28966.734	1	1	0	0	0.10493	0.094752	0.23771	0.22749	0.11102	0.12482	0.23155	0.092904	0.17877	0.055739	0.13992	0.22822	0.19811	0.11109	0.14502	0.11773	-3.7687	-4.7812	-3.8979	-4.6792	-4.6562	-3.8312	-4.8812	-4.4292	-3.975	-4.9667	-4.0125	-4.3271	-4.75	-3.7375	-4.7188	-4.4604	250.661	197.135	343.964	509.315	492.738	266.106	467.736	462.152	428.734	263.709	403.358	445.032	241.554	468.829	366.519	486.350	0.00060969	0.00027246	0.00010769	1022.2	5.9013e-06	3.139e-06	1124.6	209.99	3.0156e-06	2.4256e-06	268.28	74.884	58.275	16.953	2.7957e-06	23.919	0.00029747	0.00028539	8.0549e-05	1013.4	3.1331e-06	3.1559e-06	1115.7	210.07	3.139e-06	3.1332e-06	269.17	75.212	58.579	17.363	3.1512e-06	24.653	348.565	263.718	236.183	174.555	317.313	336.645	174.431	182.075	392.134	298.660	181.671	188.675	189.142	196.320	251.440	196.250	-8191	255	
28966.855	1	1	0	0	0.10441	0.23459	0.11492	0.11601	0.043789	0.1266	0.13164	0.111	0.058874	0.08426	0.10385	0.040239	0.20167	0.11964	0.072157	0.20263	-3.625	-4.7979	-3.9792	-4.4854	-4.7208	-3.9021	-4.7812	-4.5167	-3.9604	-4.9271	-4.1479	-4.3167	-4.8187	-3.8208	-4.5896	-4.5188	422.402	424.385	455.695	262.907	295.137	309.183	479.962	202.725	197.577	375.687	464.710	417.080	222.643	479.530	189.160	171.912	0.00070943	0.00038128	0.00012043	1020.4	4.3553e-06	1.3283e-06	1122.1	211.1	3.8087e-06	6.5338e-06	268.94	75.494	58.018	16.896	1.9814e-06	24.079	0.00030176	0.00028793	8.2662e-05	1011.8	3.145e-06	3.1798e-06	1113.7	210.55	3.2598e-06	3.1817e-06	269	75.395	58.53	17.361	3.2054e-06	24.651	355.048	254.769	275.397	174.409	305.845	395.228	174.256	182.108	287.581	342.149	181.802	188.327	189.134	196.752	326.661	195.819	-8191	255	
28966.951	1	1	0	0	0.20946	0.11948	0.1575	0.16025	0.2041	0.23551	0.2266	0.2301	0.22291	0.13822	0.12247	0.15953	0.08691	0.24856	0.062912	0.059014	-3.7208	-4.8708	-4.2646	-4.4	-4.9	-4.0125	-4.8229	-4.6583	-3.85	-4.8646	-4.2542	-4.1792	-4.7771	-3.9104	-4.3333	-4.7312	344.376	448.754	201.884	495.203	196.478	490.491	457.208	178.203	352.357	352.160	377.236	473.146	429.257	511.136	224.231	390.274	0.00065319	0.00037009	3.4931e-05	1018	3.6934e-06	4.5995e-06	1123.8	210.76	4.1677e-06	2.7272e-06	268.83	74.756	58.117	16.947	4.4396e-06	24.232	0.00030712	0.00028621	8.3468e-05	1011.1	3.1872e-06	3.2269e-06	1114.5	210.4	3.2375e-06	3.1726e-06	269.16	75.251	58.543	17.358	3.1967e-06	24.725	347.571	262.191	246.526	174.563	300.152	337.196	174.429	182.206	356.963	448.244	181.767	188.368	188.859	196.526	283.054	195.301	-8191	255	
28967.049	1	1	0	0	0.071586	0.11953	0.27324	0.23044	0.19897	0.069858	0.30205	0.22522	0.17466	0.26208	0.10088	0.13797	0.080772	0.062042	0.25023	0.18017	-3.6688	-4.8208	-4.2667	-4.1208	-4.8479	-4.0083	-4.4854	-4.7521	-3.7521	-4.6458	-4.4771	-4.1042	-4.8375	-4.1042	-4.3479	-4.825	379.405	495.869	345.703	256.663	325.869	498.969	267.999	459.378	430.224	257.515	361.641	219.162	429.868	448.166	285.265	450.457	0.00062995	0.00045183	4.3365e-05	1016.2	5.3474e-06	2.4919e-06	1123.9	210.8	5.3548e-06	5.5446e-06	266.33	74.62	57.978	17.017	3.6183e-06	24.206	0.0003068	0.00028724	7.9822e-05	1009.9	3.292e-06	3.2217e-06	1113.6	210.33	3.2728e-06	3.2832e-06	268.39	75.085	58.384	17.359	3.2352e-06	24.785	342.876	245.036	297.336	174.447	285.108	311.816	174.248	181.668	350.343	337.487	181.895	188.567	188.806	196.331	283.898	195.568	-8191	255	
28967.145	1	1	0	0	0.054827	0.18357	0.20791	0.19682	0.041813	0.15305	0.2597	0.10395	0.033839	0.040287	0.073185	0.16973	0.33818	0.14111	0.093114	0.19785	-3.4562	-4.6271	-4.375	-4.0646	-4.9396	-4.1917	-4.2542	-4.8542	-3.8417	-4.6104	-4.7583	-3.9646	-4.8938	-4.2625	-4.15	-4.7667	411.580	249.386	217.152	486.277	482.382	459.368	420.715	260.642	171.163	207.027	504.545	521.295	483.195	167.082	478.604	325.941	0.00067742	0.00034222	7.2241e-05	1016.1	2.8157e-06	3.7999e-06	1122.4	210.13	6.0645e-06	1.6168e-06	268.5	75.096	57.737	16.861	3.8557e-06	24.21	0.00030912	0.00030086	8.0367e-05	1009.8	3.2978e-06	3.2468e-06	1114	210.02	3.2918e-06	3.2592e-06	269.4	75.143	58.451	17.334	3.2136e-06	24.747	356.626	312.098	264.073	174.491	339.276	379.236	174.463	182.015	332.881	199.112	181.521	188.346	188.858	196.492	311.176	195.399	-8191	255	
28967.238	1	1	0	0	0.066852	0.12822	0.098598	0.10913	0.13078	0.059369	0.18159	0.25219	0.13784	0.27425	0.18616	0.064647	0.16005	0.063259	0.15225	0.1298	-3.675	-4.5042	-4.5479	-3.9917	-4.7063	-4.2292	-4.1813	-4.9896	-3.8729	-4.3875	-4.6667	-4.0229	-4.7583	-4.3979	-4.0417	-4.8958	370.681	491.228	240.375	478.556	261.418	462.448	511.258	209.331	278.134	225.613	434.498	246.309	363.719	226.324	469.702	450.146	0.00057544	0.00027623	0.00011921	1017.3	5.9874e-06	6.181e-07	1122.5	211.18	2.2791e-06	1.2088e-06	269.37	74.962	57.879	17.135	7.2902e-07	23.96	0.000305	0.00028914	8.0833e-05	1011.2	3.2682e-06	3.2548e-06	1113.3	210.44	3.271e-06	3.2151e-06	269.35	75.379	58.583	17.405	3.0969e-06	24.67	344.718	233.523	289.905	174.389	325.952	384.943	174.288	182.214	335.287	363.952	181.905	188.413	188.926	196.577	427.644	195.627	-8191	255	
28967.336	1	1	0	0	0.30258	0.13907	0.20331	0.28914	0.049077	0.14157	0.065868	0.20274	0.052876	0.051768	0.040193	0.057358	0.16319	0.24494	0.20903	0.077228	-3.8292	-4.5167	-4.6542	-3.8937	-4.7188	-4.3604	-4.1708	-4.7937	-4.0833	-4.5	-4.8646	-3.9333	-4.7354	-4.6583	-3.8771	-4.9521	323.508	346.173	439.187	212.405	392.911	466.230	330.275	242.579	492.029	350.445	466.057	423.215	323.863	469.102	248.671	187.887	0.00062367	0.00019934	3.3913e-05	1014.1	5.8335e-06	4.071e-06	1120.5	210.9	5.7252e-06	3.1112e-06	269.92	74.337	58.181	16.842	6.1458e-06	24.045	0.00029714	0.00029109	7.8951e-05	1010.3	3.2328e-06	3.174e-06	1112.6	210.2	3.1419e-06	3.2109e-06	269.78	75.199	58.533	17.308	3.1423e-06	24.67	350.809	300.512	352.028	174.604	267.328	328.811	174.160	182.164	321.200	314.513	181.572	188.360	188.618	196.545	380.677	196.034	-8191	255	
28967.455	1	1	0	0	0.079791	0.099267	0.34894	0.10429	0.15266	0.13208	0.17381	0.20698	0.074822	0.20797	0.25299	0.015141	0.19666	0.077335	0.0065794	0.074464	-3.7562	-4.3104	-4.7333	-4.0521	-4.5292	-4.4646	-3.9	-4.8396	-4.1125	-4.2833	-4.9021	-3.8083	-4.4104	-4.7	-3.9104	-4.7979	438.546	282.567	250.524	204.774	245.504	299.241	480.806	517.500	476.623	486.002	434.991	391.522	482.933	427.188	394.263	453.876	0.00062804	0.00032561	8.1579e-05	1017.9	4.8852e-06	6.2409e-06	1123.8	211.79	6.3551e-06	2.3876e-06	267.33	75.064	58.528	16.884	7.6248e-07	23.986	0.00030214	0.00028791	8.0078e-05	1010.7	3.1788e-06	3.0956e-06	1110.3	210.11	3.2208e-06	3.1215e-06	268.66	75.107	58.597	17.347	3.1868e-06	24.678	350.668	235.286	242.892	174.385	293.974	355.004	174.291	182.058	338.842	301.647	181.833	188.697	189.073	196.446	256.271	195.650	-8191	255	
28967.553	1	1	0	0	0.12983	0.12879	0.093762	0.29513	0.15306	0.056695	0.16279	0.097949	0.07862	0.12205	0.07045	0.063876	0.16094	0.24398	0.18089	0.25284	-3.9604	-4.0229	-4.8354	-4.0958	-4.4979	-4.6292	-3.9896	-4.9208	-4.2521	-4.0437	-4.9021	-4.0813	-4.2833	-4.7104	-3.9167	-4.8229	237.716	412.876	199.810	475.873	380.938	360.040	400.095	211.477	508.756	329.144	269.638	385.368	419.692	406.347	377.461	401.611	0.00070177	0.00036465	4.7806e-05	1020.9	4.5475e-06	1.0691e-06	1115.8	210.43	8.8574e-06	1.2024e-06	268.05	74.869	58.342	17.058	1.289e-06	24.242	0.00029864	0.00028671	8.0283e-05	1010.1	3.1041e-06	3.1865e-06	1110.8	210.35	3.083e-06	3.0407e-06	269.56	75.134	58.536	17.387	3.1514e-06	24.754	353.596	248.734	282.448	174.598	306.485	319.457	174.159	182.250	291.166	249.628	182.038	188.427	188.870	196.497	251.679	195.415	-8191	255	
28967.648	1	1	0	0	0.038106	0.20147	0.14014	0.27576	0.16054	0.1236	0.26549	0.15715	0.066333	0.1543	0.15346	0.15054	0.2487	0.12086	0.15716	0.094606	-4.2688	-4.1813	-4.8208	-4.1146	-4.2021	-4.6792	-3.8917	-4.7229	-4.5188	-3.8667	-4.75	-4.1813	-4.2125	-4.8021	-3.7438	-4.6854	506.817	322.093	419.613	178.648	432.903	306.924	446.536	416.296	479.145	324.362	455.041	401.351	233.170	427.598	516.551	450.839	0.00060568	0.0003471	7.3425e-05	1016.6	6.1737e-06	3.5364e-06	1118.1	210.41	8.3105e-06	4.0259e-06	267	74.668	58.34	16.847	6.7827e-06	23.881	0.00028901	0.00028571	7.63e-05	1007.1	3.1178e-06	2.9879e-06	1108.5	209.56	3.0357e-06	2.9527e-06	268.64	75.012	58.383	17.244	3.0267e-06	24.644	350.282	240.763	247.052	174.494	268.616	302.872	174.204	182.012	305.044	310.136	181.959	188.252	188.803	196.894	331.864	195.538	-8191	255	
28967.742	1	1	0	0	0.078644	0.06596	0.1568	0.065645	0.12553	0.08537	0.24472	0.14561	0.15458	0.17138	0.13982	0.15827	0.13026	0.1472	0.20282	0.22739	-4.2354	-3.825	-4.6833	-4.3646	-3.9167	-4.8125	-4.0229	-4.5646	-4.5604	-3.9562	-4.8604	-4.4062	-4.125	-4.8083	-3.8438	-4.5417	355.240	292.246	262.086	322.366	187.529	256.307	412.233	167.948	260.694	257.444	342.751	436.191	204.326	318.032	215.202	206.852	0.00058057	0.0001287	3.7222e-05	1010.9	5.955e-06	2.6278e-06	1112.4	209.65	6.2157e-06	4.218e-06	267.6	74.67	57.417	16.888	1.3646e-06	23.955	0.00028015	0.00027195	7.5714e-05	1003.8	2.998e-06	2.9978e-06	1105.4	209.68	2.9333e-06	2.9564e-06	268.4	74.803	58.152	17.212	2.8757e-06	24.523	353.310	249.277	348.489	174.736	293.471	310.280	174.328	181.969	364.188	336.685	181.848	188.517	188.600	196.807	227.117	195.772	-8191	255	
28967.840	1	1	0	0	0.091956	0.20898	0.22484	0.063393	0.18829	0.14674	0.032508	0.11457	0.16989	0.18404	0.035943	0.088144	0.11579	0.23245	0.020674	0.13429	-4.4833	-4.0062	-4.6667	-4.4479	-3.85	-4.7417	-4.1854	-4.3271	-4.6083	-4.0042	-4.8625	-4.4667	-4	-4.8271	-4.0979	-4.3333	504.347	308.974	252.804	458.594	455.280	246.635	352.118	475.878	394.829	298.125	199.528	224.166	212.348	198.847	318.999	494.369	0.00070019	0.00012206	5.6784e-05	1003.9	5.2767e-06	4.577e-06	1106	209.87	5.2286e-06	7.0595e-07	265.49	74.011	57.829	16.859	2.7975e-06	23.757	0.00027174	0.0002541	7.0428e-05	1000.7	2.7396e-06	2.7236e-06	1099.4	209.06	2.7788e-06	2.8641e-06	267.42	74.626	58.08	17.247	2.7894e-06	24.409	347.972	309.262	296.770	174.774	288.413	318.314	174.484	182.098	307.569	290.911	181.732	188.863	188.673	196.930	343.500	195.303	-8191	255	
28967.936	1	1	0	0	0.069841	0.14229	0.19221	0.064704	0.20626	0.20211	0.25589	0.11639	0.14288	0.21242	0.14865	0.25165	0.38779	0.08223	0.093172	0.26755	-4.5938	-3.9	-4.5625	-4.7292	-3.9396	-4.9646	-4.2729	-4.2396	-4.9479	-3.9437	-4.6937	-4.35	-3.9354	-4.8167	-4.1958	-4.2021	474.699	165.779	336.070	500.246	375.125	366.591	495.005	179.753	184.929	246.924	188.764	178.643	258.348	343.960	513.979	308.739	0.00067132	0.00023447	4.9886e-05	1007.3	4.4467e-06	1.7627e-06	1104.9	209.23	5.7532e-06	1.3847e-06	266.74	74.429	57.977	16.748	4.4177e-06	23.877	0.00026256	0.00025434	7.0794e-05	1001	2.9074e-06	2.7085e-06	1101.1	208.64	2.7642e-06	2.8022e-06	267.5	74.511	58.06	17.17	2.8523e-06	24.527	352.968	319.681	256.960	174.451	273.121	290.909	174.678	182.048	284.384	489.307	181.798	188.209	188.902	196.359	329.007	195.225	-8191	255	
28968.031	1	1	0	0	0.1506	0.16806	0.23959	0.15947	0.23111	0.21767	0.24354	0.36046	0.02341	0.22606	0.15485	0.164	0.21257	0.14088	0.053615	0.19485	-4.6271	-4.0604	-4.4854	-4.9875	-3.9917	-4.6792	-4.4313	-4.2729	-4.8542	-3.9062	-4.5604	-4.7896	-4.0625	-4.7542	-4.4021	-4.0333	245.310	233.633	240.494	425.800	228.480	523.246	455.100	485.508	460.471	210.226	485.098	466.975	210.042	164.726	314.164	202.044	0.00064659	0.00024786	4.4764e-05	1004.2	6.1022e-06	1.9829e-06	1110.7	208.7	3.9322e-06	7.8821e-07	265.67	74.204	57.693	16.823	3.819e-06	23.888	0.00026415	0.00025903	7.0646e-05	999.51	2.8143e-06	2.7276e-06	1100.9	207.82	2.744e-06	2.7715e-06	266.57	74.629	57.948	17.232	2.7164e-06	24.518	354.232	226.287	424.485	174.591	315.392	402.834	174.506	181.920	295.926	397.931	181.619	188.616	188.902	196.601	243.036	195.617	-8191	255	
28968.127	1	1	0	0	0.068496	0.029484	0.19626	0.043629	0.18848	0.2116	0.15638	0.31272	0.10333	0.18463	0.0841	0.085359	0.08519	0.20814	0.24278	0.16027	-4.4917	-4.0333	-4.3667	-4.9208	-4.0125	-4.8542	-4.6542	-3.9479	-4.8812	-4.0708	-4.3562	-4.8792	-3.8292	-4.5229	-4.5583	-3.9688	198.504	230.176	202.824	422.480	266.445	378.028	492.455	481.312	202.561	343.911	521.676	278.777	262.649	198.749	367.991	249.494	0.00060815	0.00035665	6.2589e-05	1006.4	5.0929e-06	4.3471e-06	1107.2	208.94	6.8556e-06	2.3593e-06	266.95	74.716	57.555	16.821	4.7989e-06	23.74	0.00026554	0.0002554	6.9601e-05	998.67	2.7917e-06	2.771e-06	1100.6	208.13	2.7952e-06	2.7732e-06	267.25	74.706	58.024	17.14	2.8023e-06	24.511	350.975	304.940	207.521	174.715	296.556	360.674	174.703	182.057	325.524	288.538	181.534	188.579	189.056	196.637	318.970	195.313	-8191	255	
28968.248	1	1	0	0	0.18107	0.25	0.10522	0.10194	0.13809	0.081677	0.074275	0.21126	0.1495	0.20985	0.10999	0.13366	0.18026	0.14636	0.12966	0.037958	-4.5146	-4.1875	-4.2812	-4.9625	-3.9396	-4.4875	-4.7375	-3.9146	-4.8167	-4.2396	-4.2188	-4.9271	-3.9375	-4.5813	-4.5333	-3.9938	337.977	290.126	325.407	241.414	439.226	213.707	276.552	505.350	235.820	254.088	171.263	474.401	182.524	189.019	421.174	357.525	0.00059057	0.00026856	8.5757e-05	1006.9	4.5553e-06	2.8475e-06	1105.5	209.46	6.9151e-06	7.3842e-07	266.98	74.096	57.465	16.859	5.2204e-06	23.985	0.00026756	0.00025357	7.2577e-05	998.88	2.9185e-06	2.858e-06	1098	208.73	2.9242e-06	2.9064e-06	267.23	74.377	57.981	17.231	2.9665e-06	24.511	360.017	233.891	262.863	174.579	281.045	298.464	174.435	182.035	338.958	309.784	181.632	188.388	189.076	196.206	334.758	195.387	-8191	255	
28968.344	1	1	0	0	0.23431	0.20857	0.11806	0.3703	0.11203	0.079767	0.18654	0.064676	0.16558	0.16831	0.28371	0.1148	0.070659	0.0534	0.094589	0.053748	-4.6188	-4.3063	-4.1292	-4.9667	-3.9854	-4.3833	-4.9229	-3.9188	-4.7792	-4.3187	-4.1	-4.9021	-3.9875	-4.3187	-4.7854	-3.9646	376.794	416.066	229.011	521.459	168.718	393.173	435.601	489.821	418.748	393.038	506.723	405.907	184.210	506.151	442.031	265.469	0.00057892	0.00030156	2.9915e-05	1006	4.053e-06	2.2939e-06	1107.1	208.54	8.1364e-06	2.9659e-06	265.05	74.746	57.749	16.897	2.6288e-06	23.99	0.00028047	0.00026594	7.4198e-05	998.99	2.8592e-06	2.8417e-06	1101.7	208.55	2.9388e-06	2.8527e-06	266.54	74.845	58.12	17.265	2.8324e-06	24.55	351.137	299.520	264.835	174.653	293.596	381.096	174.509	182.179	320.498	278.656	181.495	188.084	189.485	196.488	367.946	195.327	-8191	255	
28968.414	1	1	0	0	0.062475	0.21682	0.15557	0.20266	0.13379	0.11065	0.12587	0.21255	0.21251	0.04548	0.05594	0.063454	0.16537	0.11719	0.15826	0.11865	-4.5125	-4.425	-3.9604	-4.9833	-4.0354	-4.2708	-4.9229	-3.9146	-4.7021	-4.5646	-4.0312	-4.9958	-4.1479	-4.2729	-4.9208	-3.8896	315.218	408.707	463.485	463.965	473.312	448.905	411.693	409.167	317.369	193.260	347.555	268.848	266.786	402.160	407.267	429.858	0.0007485	0.0005598	7.3914e-05	1004.8	2.7558e-06	4.2412e-06	1112.7	209.79	6.5022e-06	3.4121e-06	267.26	73.959	57.726	16.711	5.2272e-06	23.793	0.00027428	0.00025255	7.175e-05	998.98	2.868e-06	2.8228e-06	1100.6	208.69	2.8708e-06	2.8437e-06	267.56	74.689	58.014	17.208	2.7994e-06	24.49	349.202	263.066	219.347	174.743	258.608	338.040	174.400	181.812	305.592	308.922	181.591	188.673	188.987	196.019	276.648	195.525	-8191	255	
28968.535	1	1	0	0	0.17961	0.27394	0.10349	0.13096	0.11857	0.14084	0.21557	0.07683	0.087485	0.12442	0.049861	0.14103	0.23663	0.15638	0.14719	0.096585	-4.2375	-4.6062	-3.9896	-5.0542	-4.2271	-3.9833	-4.975	-4.05	-4.5417	-4.7562	-3.9417	-4.7521	-4.3604	-4.1208	-4.8958	-4.1062	432.759	443.045	380.368	261.018	256.237	357.153	402.067	439.735	387.876	421.155	211.885	291.801	406.295	204.629	278.719	245.896	0.00074001	0.0002439	5.7493e-05	1007.2	4.2211e-06	4.2814e-06	1112.7	209.2	5.3138e-06	2.5065e-06	268.01	74.619	57.804	16.844	3.7947e-06	23.855	0.00027058	0.00025504	7.072e-05	1000	2.9311e-06	2.7944e-06	1102.4	208.7	2.7922e-06	2.8155e-06	267.79	74.602	58.185	17.188	2.7179e-06	24.503	350.009	390.595	279.310	174.587	345.384	378.653	174.585	181.987	285.627	321.746	181.857	188.870	188.765	196.331	306.875	195.336	-8191	255	
28968.633	1	1	0	0	0.15847	0.23727	0.11252	0.020416	0.14337	0.1698	0.2469	0.088625	0.097306	0.15583	0.14063	0.16474	0.13033	0.22056	0.11631	0.067599	-4.2396	-4.6937	-3.9042	-4.8604	-4.4979	-3.9354	-5.0563	-4.1813	-4.4354	-4.8333	-3.8417	-4.5958	-4.4729	-3.9708	-4.8958	-4.2063	265.936	272.465	510.343	445.454	270.193	336.691	430.069	349.582	352.756	228.433	505.610	377.755	487.442	418.892	193.107	389.910	0.0006151	0.00040022	7.8357e-05	1002.3	4.0763e-06	5.6804e-06	1110.2	208.86	3.8717e-06	9.5325e-07	266.36	74.732	58.005	16.855	4.0772e-06	23.821	0.00026803	0.0002536	7.28e-05	998.37	2.8387e-06	2.8168e-06	1101.2	208.37	2.7475e-06	2.8444e-06	267.02	74.689	58.044	17.226	2.6464e-06	24.447	350.611	238.647	298.473	174.426	300.492	367.679	174.379	182.166	309.884	321.624	181.673	188.234	189.089	196.579	299.802	195.378	-8191	255	
28968.729	1	1	0	0	0.10005	0.21095	0.23301	0.21821	0.036835	0.28178	0.31403	0.10179	0.1234	0.017759	0.16792	0.14468	0.16137	0.031171	0.14289	0.084612	-3.925	-4.7771	-3.8417	-4.7167	-4.6083	-3.9375	-5.0333	-4.1375	-4.1208	-4.7771	-4.0604	-4.4646	-4.7458	-3.8083	-4.75	-4.3833	232.084	404.289	412.765	204.856	495.753	291.571	460.738	519.686	476.811	508.588	223.528	442.391	236.666	294.664	294.887	340.096	0.00074059	0.00037471	7.7139e-05	1002.6	1.7816e-06	2.2886e-06	1101.3	209.24	2.3443e-06	2.9902e-06	265.79	74.041	57.389	16.678	3.0873e-06	23.705	0.00025565	0.00023901	6.5224e-05	994.02	2.6289e-06	2.581e-06	1094.6	207.73	2.695e-06	2.6422e-06	266.05	74.411	57.589	17.142	2.6214e-06	24.41	350.485	296.817	227.701	174.496	275.794	386.729	174.369	182.324	323.448	328.792	182.044	188.736	188.913	196.673	292.254	195.233	-8191	255	
28968.824	1	1	0	0	0.024911	0.18331	0.086312	0.20868	0.11249	0.080458	0.12105	0.18218	0.32147	0.40584	0.059611	0.0687	0.11573	0.29398	0.18801	0.17059	-3.9042	-4.875	-3.9333	-4.65	-4.6042	-3.9771	-4.7979	-4.3708	-4.0583	-4.9854	-3.9646	-4.3979	-4.7208	-3.7667	-4.6271	-4.3958	494.672	442.714	417.576	421.541	207.714	446.118	443.787	382.323	336.583	229.521	469.189	522.879	233.396	397.404	311.970	176.527	0.00067537	0.00023519	0.0001146	996.8	5.9453e-06	3.4821e-06	1103.9	208.81	8.5677e-06	1.0227e-06	267.88	73.507	57.397	16.714	5.4057e-06	23.795	0.00025709	0.00023816	6.7639e-05	991.32	2.6556e-06	2.7277e-06	1093.7	207.42	2.7438e-06	2.6834e-06	266.39	74.025	57.554	17.073	2.6221e-06	24.334	349.328	251.152	215.017	174.686	308.496	307.777	174.300	182.271	312.967	305.009	181.801	188.557	189.201	196.389	339.180	196.116	-8191	255	
28968.943	1	1	0	0	0.073662	0.20302	0.191	0.16982	0.14909	0.051787	0.26337	0.099118	0.11228	0.22808	0.14695	0.095794	0.16166	0.19326	0.03557	0.09053	-3.6167	-4.9896	-4.025	-4.5604	-4.7583	-3.8	-4.8438	-4.6104	-4.0375	-4.9917	-4.1271	-4.2021	-4.8708	-3.9208	-4.5354	-4.6354	368.713	267.381	415.362	521.947	324.163	332.341	497.180	421.364	480.932	252.900	416.897	446.767	321.778	501.713	502.329	192.139	0.00057549	0.00046964	7.7314e-05	1004.8	4.3208e-06	2.693e-06	1104.2	208.72	5.5652e-06	5.5915e-06	265.3	74.03	57.367	16.697	4.0225e-06	23.952	0.0002628	0.00023972	6.8057e-05	992.87	2.6885e-06	2.6909e-06	1092.2	207.12	2.7952e-06	2.712e-06	265.36	74.075	57.642	17.078	2.744e-06	24.419	344.390	302.295	237.873	174.509	330.493	313.600	174.491	182.035	241.774	288.760	181.842	188.396	188.885	196.687	376.003	195.646	-8191	255	
28969.039	1	1	0	0	0.21646	0.090071	0.024742	0.11681	0.20278	0.10341	0.041969	0.15533	0.068304	0.20265	0.16098	0.30081	0.10971	0.25144	0.16001	0.11735	-3.6333	-4.8688	-4.2646	-4.2375	-4.7583	-3.9313	-4.7146	-4.7896	-3.8083	-4.75	-4.4729	-4.2875	-4.85	-3.9938	-4.2854	-4.9	502.045	236.259	433.815	202.869	271.381	193.072	491.881	405.996	470.702	211.334	239.738	167.057	292.154	402.256	190.879	377.489	0.00063476	0.00026671	3.1115e-05	999.69	3.1664e-06	3.4721e-06	1099.9	208.04	7.8614e-06	1.5879e-06	264.98	73.693	57.191	16.777	7.1508e-07	23.663	0.00026985	0.0002529	7.3376e-05	992.67	2.7491e-06	2.8526e-06	1093.2	207.29	2.8759e-06	2.8428e-06	266.32	74.146	57.811	17.127	2.7703e-06	24.393	349.438	216.749	244.316	174.587	392.578	319.142	174.475	182.382	318.265	250.017	181.770	188.765	188.929	196.809	447.795	195.812	-8191	255	
28969.137	1	1	0	0	0.15963	0.28841	0.10916	0.029936	0.12722	0.18643	0.326	0.14297	0.060412	0.0040346	0.10001	0.22663	0.16198	0.14356	0.13128	0.25791	-3.5625	-4.6458	-4.325	-4.1542	-4.7917	-4.0437	-4.4313	-4.7812	-3.95	-4.7354	-4.3375	-4.0417	-4.8958	-4.1	-4.1646	-4.9292	216.854	240.636	331.460	380.140	515.678	324.514	467.612	411.224	202.865	520.973	241.759	406.811	210.698	481.896	300.299	431.141	0.00063415	0.00013803	3.7656e-05	995.89	5.6052e-06	4.686e-06	1102.4	207.98	7.7572e-06	1.4529e-06	264.82	73.696	57.621	16.801	1.4808e-06	23.691	0.00027107	0.00025046	7.2011e-05	991.15	2.7848e-06	2.7563e-06	1093.3	207.06	2.7602e-06	2.7145e-06	265.46	74.371	57.726	17.139	2.8346e-06	24.398	349.851	195.743	288.421	174.313	312.663	338.178	174.221	182.503	343.298	302.383	181.840	188.240	189.189	196.043	294.848	195.725	-8191	255	
28969.232	1	1	0	0	0.13822	0.20397	0.21662	0.19333	0.1741	0.056142	0.25708	0.13286	0.17776	0.080208	0.071743	0.25068	0.14805	0.22597	0.17648	0.26207	-3.5292	-4.6396	-4.3333	-4.0896	-4.8646	-4.0813	-4.1562	-4.7271	-3.8354	-4.5458	-4.6729	-3.8229	-4.9812	-4.225	-4.1583	-4.8896	449.608	373.900	387.469	462.351	307.540	281.030	506.784	316.680	360.000	294.352	276.878	203.827	402.353	524.201	176.065	435.859	0.00061813	0.00033245	4.3579e-05	1001.9	2.4006e-06	5.6141e-07	1101.1	207.96	1.7754e-06	1.4104e-06	265.9	73.638	57.449	16.71	3.3013e-06	23.607	0.00026968	0.00025272	7.0123e-05	992.44	2.7791e-06	2.8027e-06	1094	207.66	2.8078e-06	2.7001e-06	265.84	74.116	57.741	17.072	2.7343e-06	24.44	346.509	312.224	277.442	174.492	323.159	438.837	174.550	182.287	385.745	312.137	182.101	188.598	189.094	196.466	367.904	195.417	-8191	255	
28969.328	1	1	0	0	0.1415	0.14982	0.14877	0.12922	0.1381	0.098849	0.10118	0.046089	0.076686	0.102	0.18458	0.019488	0.30382	0.19282	0.10677	0.043609	-3.6521	-4.5771	-4.5854	-4.2208	-4.8167	-4.1562	-4.4333	-5.025	-4.0625	-4.4458	-4.7771	-3.9125	-4.5979	-4.4208	-4.0833	-4.9479	439.727	294.863	237.656	196.929	302.368	185.609	492.712	493.971	483.857	462.132	436.386	434.599	503.303	182.340	225.876	259.749	0.00060657	0.00014363	1.3922e-05	1000	3.0228e-06	5.0813e-06	1104.5	206.8	7.4738e-06	9.8278e-07	263.9	73.882	57.42	16.858	2.8741e-06	23.88	0.00027146	0.00025491	7.0677e-05	994.59	2.8516e-06	2.8647e-06	1095.2	207.3	2.8397e-06	2.8036e-06	266	74.347	57.726	17.173	2.803e-06	24.442	349.673	221.782	303.740	174.589	255.745	310.959	174.464	181.954	333.277	266.979	181.599	188.462	188.840	196.396	328.938	195.880	-8191	255	
28969.424	1	1	0	0	0.087745	0.17555	0.14052	0.06048	0.056796	0.21698	0.18682	0.3437	0.195	0.081122	0.065239	0.086828	0.18575	0.072794	0.20385	0.12946	-3.7208	-4.3187	-4.7104	-4.1625	-4.7417	-4.4229	-4.0708	-5.0167	-4.0312	-4.2042	-4.8792	-3.8979	-4.6	-4.525	-4.0458	-5.0042	517.852	476.820	330.936	478.431	471.887	521.697	413.293	497.477	465.915	327.387	287.006	258.745	417.289	442.252	427.312	278.161	0.00073538	0.00012012	5.458e-05	1000.8	2.3408e-06	3.4718e-06	1103.1	207.93	9.0586e-06	2.6876e-06	266.19	74.197	57.382	16.843	4.742e-06	23.751	0.00026916	0.00025481	6.9335e-05	993.28	2.7284e-06	2.7171e-06	1096	207.75	2.7509e-06	2.644e-06	266.53	74.424	57.696	17.102	2.6923e-06	24.358	356.104	259.318	511.102	174.632	332.711	319.042	174.478	182.569	296.140	397.524	181.981	188.482	189.095	196.692	299.380	195.286	-8191	255	
28969.545	1	1	0	0	0.10984	0.21335	0.24986	0.28824	0.10368	0.063737	0.045043	0.21664	0.18114	0.22669	0.050388	0.17928	0.065809	0.25547	0.14711	0.2193	-3.8083	-4.1667	-4.6354	-4.1354	-4.4875	-4.5667	-4.1667	-4.8542	-4.2542	-4.1896	-4.9417	-4.1021	-4.6479	-4.6271	-3.9875	-4.9917	176.496	453.030	258.655	493.221	275.267	378.114	464.255	492.015	328.270	227.228	432.618	333.164	268.350	510.063	488.768	206.458	0.00062689	0.0003373	9.5481e-05	995.94	3.1943e-06	2.7307e-06	1099	207.67	6.7658e-06	3.0194e-06	266.51	73.942	57.211	16.641	3.8468e-06	23.967	0.00024705	0.00023796	6.5949e-05	991.71	2.667e-06	2.5952e-06	1092.6	207.17	2.7056e-06	2.6165e-06	266.05	74.185	57.726	17.107	2.7379e-06	24.433	348.128	237.037	266.401	174.537	274.089	237.139	174.441	182.240	327.539	316.100	181.826	188.685	188.721	196.547	297.601	195.866	-8191	255	
28969.639	1	1	0	0	0.16946	0.078054	0.093277	0.29497	0.018483	0.1588	0.25357	0.098472	0.20121	0.25564	0.10291	0.12805	0.13309	0.068725	0.16351	0.15409	-4.0354	-4.1708	-4.9604	-4.1312	-4.3271	-4.7625	-4.1188	-4.9771	-4.3396	-4.0271	-5.0083	-4.0729	-4.2937	-4.8375	-3.9437	-4.7125	465.908	204.620	390.933	440.087	295.069	420.143	464.062	463.230	321.468	449.933	256.663	477.180	483.988	439.954	477.025	433.968	0.000688	5.6726e-05	4.2885e-05	998.85	5.637e-06	2.4157e-06	1106.7	207.95	4.0794e-06	2.4091e-06	266.01	73.877	57.696	16.781	4.4795e-06	23.635	0.00025752	0.00024722	7.049e-05	991.49	2.7581e-06	2.727e-06	1094.9	207.51	2.7906e-06	2.7626e-06	266.03	74.227	57.831	17.116	2.6619e-06	24.37	349.883	222.632	233.758	174.607	289.996	333.554	174.226	182.341	273.344	292.159	182.139	188.502	189.092	196.211	257.104	195.593	-8191	255	
28969.713	1	1	0	0	0.42772	0.24313	0.12018	0.3637	0.26807	0.0678	0.33458	0.052185	0.21139	0.2836	0.17436	0.27886	0.082304	0.27229	0.20786	0.087008	-4.1687	-3.8438	-4.9	-4.3021	-4.2708	-4.7146	-4.1479	-4.7396	-4.5958	-4.0813	-4.9187	-4.1583	-4.1854	-5.0083	-3.9521	-4.625	490.168	286.400	447.312	482.618	480.163	219.418	493.654	181.144	482.953	518.111	399.133	374.759	467.116	450.417	379.142	295.108	0.00069565	0.00031355	0.00012202	1000.8	3.3082e-06	5.4258e-06	1104.6	208	6.41e-06	3.0775e-06	265	74.052	57.146	16.73	3.4221e-06	23.792	0.00026572	0.00024743	6.926e-05	992.65	2.786e-06	2.7089e-06	1092.7	207.4	2.7161e-06	2.7196e-06	265.58	74.151	57.554	17.084	2.7707e-06	24.392	349.896	257.590	267.369	174.603	303.934	305.896	174.467	182.452	311.713	288.139	181.724	188.327	188.636	196.657	236.323	195.305	-8191	255	
28969.809	1	1	0	0	0.19396	0.052372	0.20882	0.18911	0.095106	0.086996	0.30454	0.17561	0.14613	0.071085	0.21287	0.063847	0.12424	0.05718	0.14375	0.17393	-4.3646	-3.7979	-4.9313	-4.225	-4.0792	-4.8208	-4.0958	-4.5146	-4.5875	-3.8146	-4.8646	-4.2896	-4.0062	-4.8792	-4.0771	-4.5583	454.142	425.553	350.046	488.601	247.435	173.739	458.196	177.779	300.611	206.181	355.495	358.526	365.637	342.741	195.417	229.177	0.00060393	0.00012513	7.8016e-05	1000.1	7.4093e-06	4.083e-06	1099.5	208.65	7.4752e-06	3.9724e-06	268.34	75.191	57.935	16.827	5.5917e-06	23.961	0.00026205	0.00025669	7.0323e-05	991.98	2.7985e-06	2.7183e-06	1092.2	207.56	2.7922e-06	2.8178e-06	266.77	74.527	57.883	17.171	2.9136e-06	24.455	350.014	287.249	307.084	174.678	295.533	365.247	174.486	181.631	311.980	248.616	181.426	188.336	188.457	196.303	245.496	194.916	-8191	255	
28969.904	1	1	0	0	0.052637	0.079015	0.044572	0.1134	0.35273	0.051969	0.36479	0.18094	0.1989	0.10086	0.24123	0.25158	0.11674	0.11467	0.10479	0.15787	-4.6208	-3.9229	-4.7562	-4.5729	-4.0125	-4.7979	-4.0708	-4.425	-4.6583	-3.8521	-4.7667	-4.3521	-3.9458	-4.9021	-4.0667	-4.2	366.783	385.935	372.555	173.223	332.717	360.133	436.961	252.234	213.914	336.465	182.680	373.682	165.228	169.293	336.646	459.354	0.0005693	0.00023314	1.9403e-05	1005.4	2.5483e-06	3.1969e-06	1108.3	209.54	4.2412e-06	3.9506e-07	268.92	74.552	57.706	16.807	3.6507e-06	24.032	0.0002631	0.00025964	7.2408e-05	994.24	2.9244e-06	2.8283e-06	1097.8	208.16	2.8416e-06	2.8382e-06	267.3	74.4	57.86	17.148	2.8713e-06	24.493	342.868	279.460	294.473	174.323	322.610	369.082	174.207	181.844	343.947	362.495	181.531	188.186	188.400	196.316	311.618	195.051	-8191	255	
28970.023	1	1	0	0	0.25135	0.15254	0.071713	0.16433	0.19416	0.037139	0.1327	0.21128	0.10646	0.029794	0.12204	0.13217	0.23	0.081667	0.18625	0.16	-4.5354	-3.8542	-4.3833	-4.7167	-3.9708	-4.9104	-4.3292	-4.1729	-4.7937	-3.9917	-4.6208	-4.6417	-3.9792	-4.85	-4.2375	-4.1125	418.001	430.024	326.681	390.026	265.558	315.637	449.000	483.772	220.443	244.549	441.197	268.043	188.587	383.324	460.381	176.321	0.00068834	0.00037679	0.00010301	1007.9	9.2552e-07	3.3043e-06	1110.9	209.71	3.1446e-06	2.9519e-06	268.2	75.067	58.154	16.949	4.4116e-06	23.939	0.00027335	0.00026052	7.0951e-05	996.76	2.8922e-06	2.8111e-06	1099	208.25	2.8437e-06	2.8796e-06	267.57	74.758	58.114	17.26	2.7588e-06	24.511	358.313	229.538	210.486	174.160	266.859	292.353	174.086	181.446	301.159	280.101	181.563	188.172	188.349	196.182	301.461	195.281	-8191	255	
28970.119	1	1	0	0	0.094785	0.21572	0.10987	0.076297	0.14711	0.029907	0.053466	0.2594	0.059475	0.20765	0.18432	0.19705	0.2371	0.088382	0.16725	0.27611	-4.5	-3.9042	-4.35	-4.8854	-3.8042	-4.7292	-4.3979	-4.1062	-4.8958	-4.0021	-4.2875	-4.6687	-3.8708	-4.8625	-4.1771	-4.0729	507.022	337.167	387.122	206.473	344.339	399.000	184.108	404.152	336.615	428.333	295.939	414.715	508.909	198.227	239.141	257.392	0.00057015	0.00043441	4.7624e-05	1010.5	4.3556e-06	3.1416e-07	1117.6	210.42	7.7965e-06	7.107e-07	267.93	74.4	57.776	16.972	1.0572e-06	23.957	0.00027033	0.0002508	7.1173e-05	997.59	2.7897e-06	2.7407e-06	1101.2	208.55	2.7962e-06	2.7958e-06	267.51	74.497	57.983	17.276	2.8264e-06	24.476	352.233	295.116	238.199	174.378	267.847	314.840	174.116	182.041	315.864	350.263	181.382	188.284	188.686	195.840	351.266	195.192	-8191	255	
28970.217	1	1	0	0	0.15345	0.22796	0.091984	0.10996	0.23011	0.32882	0.099207	0.25914	0.13878	0.17753	0.2125	0.19198	0.074008	0.12753	0.056343	0.1266	-4.6292	-4.0604	-4.1854	-4.8729	-3.6688	-4.6	-4.8521	-4.0146	-4.8979	-4.2167	-4.3375	-4.775	-3.775	-4.6312	-4.5125	-4.0479	472.142	287.385	516.541	194.917	211.755	360.838	406.018	372.083	186.578	208.124	174.030	361.127	183.183	519.669	242.994	505.338	0.0005796	0.00028853	2.0814e-05	1012.9	4.2481e-06	8.9135e-07	1117.2	210.94	7.2938e-06	2.9832e-06	268.14	74.833	58.271	16.928	3.2579e-06	24.051	0.00026936	0.0002635	7.1266e-05	1001	2.8609e-06	2.7157e-06	1104.1	209.08	2.8023e-06	2.7537e-06	267.99	74.712	58.243	17.252	2.6716e-06	24.524	353.596	249.654	186.899	174.132	331.782	306.163	173.887	181.572	301.137	306.212	181.274	188.094	188.278	196.746	334.320	195.636	-8191	255	
28970.338	1	1	0	0	0.18689	0.13692	0.022803	0.18736	0.11357	0.027816	0.25962	0.17139	0.15926	0.40662	0.071007	0.20912	0.098994	0.21606	0.2401	0.056031	-4.6708	-4.0708	-4.1208	-4.975	-3.9271	-4.5188	-4.8104	-3.9979	-4.7063	-4.2583	-4.1979	-4.8479	-4.0354	-4.4625	-4.55	-3.8688	467.960	450.543	180.679	467.392	462.736	516.663	456.323	392.193	435.670	197.781	344.054	170.776	251.218	481.841	507.186	487.134	0.00063083	0.00027323	8.0821e-05	1016.5	2.0334e-06	2.9078e-06	1117.2	209.52	7.658e-06	3.5174e-06	268.22	75.052	57.813	17.025	2.8763e-06	23.895	0.00026472	0.00025101	6.9381e-05	1002.8	2.7502e-06	2.6899e-06	1103.9	208.38	2.743e-06	2.7519e-06	268.05	75.022	58.1	17.31	2.7681e-06	24.533	351.713	272.596	304.160	174.259	330.458	378.333	174.132	181.452	315.229	320.570	181.084	188.498	188.261	195.748	341.770	195.153	-8191	255	
28970.408	1	1	0	0	0.14325	0.16006	0.11271	0.14488	0.16674	0.29639	0.16882	0.12313	0.16109	0.16713	0.13621	0.099868	0.12281	0.093617	0.1387	0.15242	-4.4667	-4.3042	-4.2	-5.1146	-4.0437	-4.4	-4.9396	-3.9979	-4.8229	-4.5229	-3.9437	-4.9062	-4.1229	-4.2792	-4.7042	-3.8458	440.244	489.150	224.696	519.302	337.737	482.902	413.275	359.221	333.583	405.343	230.839	274.146	502.886	190.789	192.926	187.822	0.00070625	0.00027377	4.7175e-05	1012.4	4.9233e-06	2.1371e-06	1118.2	208.55	8.5406e-06	1.7489e-06	269.29	75.379	58.502	17.074	5.9222e-06	24.039	0.00025934	0.00025268	6.9862e-05	1002.7	2.837e-06	2.8233e-06	1105.5	208.69	2.7981e-06	2.8282e-06	268.77	75.051	58.368	17.327	2.7137e-06	24.584	347.311	286.454	316.764	174.272	319.275	226.115	174.234	181.746	289.494	297.419	181.249	188.180	188.404	195.981	285.322	195.102	-8191	255	
28970.506	1	1	0	0	0.29091	0.18639	0.034165	0.15074	0.10321	0.053088	0.4138	0.041161	0.14734	0.03028	0.057067	0.10218	0.19977	0.16499	0.12397	0.032294	-4.3729	-4.4667	-3.8917	-4.9854	-4.0479	-4.0896	-5.0083	-3.9417	-4.6125	-4.5479	-3.9646	-4.7688	-4.225	-4.3875	-4.6521	-4.0292	295.951	382.980	388.328	210.605	481.808	368.207	458.176	514.367	189.438	483.179	213.731	215.483	467.266	242.947	177.217	186.939	0.00061014	0.00022959	7.026e-05	1017.8	3.5541e-06	1.352e-06	1117.3	210.16	8.8972e-07	1.4173e-06	268.63	75.178	58.393	16.993	4.8893e-06	24.245	0.00025421	0.00024706	6.7409e-05	1003.7	2.7312e-06	2.5869e-06	1106.2	208.53	2.6332e-06	2.5681e-06	268.4	74.971	58.202	17.288	2.5818e-06	24.531	350.165	322.090	247.607	174.254	249.781	333.677	174.088	181.656	517.131	281.971	180.991	187.934	188.631	196.231	296.222	194.983	-8191	255	
28970.625	1	1	0	0	0.15289	0.11055	0.18507	0.18012	0.20655	0.079485	0.075079	0.069919	0.11055	0.064512	0.13684	0.14284	0.059057	0.3332	0.18058	0.13677	-4.25	-4.6354	-3.7521	-4.9375	-4.1188	-4	-5.1021	-4.2937	-4.4563	-4.6646	-3.9229	-4.7417	-4.3458	-4.0229	-4.7688	-4.0687	369.762	243.361	210.172	497.730	336.834	389.844	464.600	208.898	208.819	447.750	447.707	321.078	521.066	197.956	373.078	429.129	0.00061153	0.00055736	0.00010586	1014.6	1.6081e-06	2.3243e-06	1117.6	211.08	2.7324e-06	3.8581e-06	268.93	74.928	57.907	17.053	2.1385e-06	23.982	0.00025419	0.00024068	6.6e-05	1001.1	2.5766e-06	2.574e-06	1103.3	208.71	2.5856e-06	2.5685e-06	267.92	74.786	58.15	17.295	2.5848e-06	24.522	346.954	247.357	244.586	174.299	256.048	352.504	174.148	181.839	356.338	352.682	181.764	188.069	188.882	196.257	371.752	194.803	-8191	255	
28970.721	1	1	0	0	0.12773	0.12347	0.11533	0.2208	0.034884	0.093487	0.15069	0.031185	0.23967	0.20014	0.18828	0.33345	0.23978	0.1022	0.08602	0.29688	-4.0104	-4.7396	-3.9188	-4.8896	-4.4083	-3.9542	-5.0896	-4.1292	-4.0875	-4.875	-3.8896	-4.6562	-4.6479	-4.0271	-4.7021	-4.125	311.980	181.727	180.734	441.713	494.391	435.983	446.031	317.112	411.694	181.390	427.038	475.947	498.393	457.722	287.211	452.567	0.00070474	0.00028779	0.00011669	1017.5	4.2555e-06	2.136e-06	1118.1	210.07	2.6975e-06	2.9464e-06	268.95	75.793	58.233	17.103	2.7707e-06	24.049	0.00025307	0.00023754	6.734e-05	1002.5	2.6779e-06	2.6019e-06	1103.7	208.83	2.5767e-06	2.5701e-06	268.4	74.998	58.204	17.294	2.5158e-06	24.573	345.270	253.387	289.165	174.162	258.792	371.827	173.928	181.859	338.335	338.257	181.074	187.925	188.767	195.974	255.651	195.407	-8191	255	
#DATA ENDS
