BOXY.EXE: ISS Imagent and Oximeter Data Acquisition Program Version 0.80
Ascii Record File

#ACQ INFORMATION
2  Detector Channels 
16  External MUX Channels 
1  Auxiliary Channels 
5000  Waveform (CCF) Frequency (Hz)
1  Waveforms Skipped 
30  Waveforms Averaged 
1  Cycles Averaged 
16  Acquisitions per Waveform 
10.0806  Updata Rate (Hz) 

#FILE INFORMATION
TRUE -- External MUX Channel results are PARSED.
FALSE -- AC DC and Phase are NOT grouped.
TRUE -- Companion Program Settings File CREATED.
FALSE -- AC data not excluded
FALSE -- DC data not excluded
FALSE -- Phase data not excluded
FALSE -- Auxillary Chn. data not excluded
Tab delimiters

#CALIBRATION STATE
TRUE -- Waveform Calibration Values APPLIED.


#AUX CALIBRATION VALUES
Val Type	aux-1	

Term	1.0000e+00	
Factor	0.0000e+00	


#WF CALIBRATION VALUES
A = Detector Channel
Val Type	A-AC1	A-AC2	A-AC3	A-AC4	A-AC5	A-AC6	A-AC7	A-AC8	A-AC9	A-AC10	A-AC11	A-AC12	A-AC13	A-AC14	A-AC15	A-AC16	A-DC1	A-DC2	A-DC3	A-DC4	A-DC5	A-DC6	A-DC7	A-DC8	A-DC9	A-DC10	A-DC11	A-DC12	A-DC13	A-DC14	A-DC15	A-DC16	A-Ph1	A-Ph2	A-Ph3	A-Ph4	A-Ph5	A-Ph6	A-Ph7	A-Ph8	A-Ph9	A-Ph10	A-Ph11	A-Ph12	A-Ph13	A-Ph14	A-Ph15	A-Ph16	

Term	0.00000e+00	0.00000e+00	0.00000e+00	0.00000e+00	0.00000e+00	0.00000e+00	0.00000e+00	0.00000e+00	0.00000e+00	0.00000e+00	0.00000e+00	0.00000e+00	0.00000e+00	0.00000e+00	0.00000e+00	0.00000e+00	0.00000e+00	0.00000e+00	0.00000e+00	0.00000e+00	0.00000e+00	0.00000e+00	0.00000e+00	0.00000e+00	0.00000e+00	0.00000e+00	0.00000e+00	0.00000e+00	0.00000e+00	0.00000e+00	0.00000e+00	0.00000e+00	0.00000e+00	0.00000e+00	0.00000e+00	0.00000e+00	0.00000e+00	0.00000e+00	0.00000e+00	0.00000e+00	0.00000e+00	0.00000e+00	0.00000e+00	0.00000e+00	0.00000e+00	0.00000e+00	0.00000e+00	0.00000e+00	
Factor	1.00000e+00	1.00000e+00	1.00000e+00	1.00000e+00	1.00000e+00	1.00000e+00	1.00000e+00	1.00000e+00	1.00000e+00	1.00000e+00	1.00000e+00	1.00000e+00	1.00000e+00	1.00000e+00	1.00000e+00	1.00000e+00	1.00000e+00	1.00000e+00	1.00000e+00	1.00000e+00	1.00000e+00	1.00000e+00	1.00000e+00	1.00000e+00	1.00000e+00	1.00000e+00	1.00000e+00	1.00000e+00	1.00000e+00	1.00000e+00	1.00000e+00	1.00000e+00	X	X	X	X	X	X	X	X	X	X	X	X	X	X	X	X	

B = Detector Channel
Val Type	B-AC1	B-AC2	B-AC3	B-AC4	B-AC5	B-AC6	B-AC7	B-AC8	B-AC9	B-AC10	B-AC11	B-AC12	B-AC13	B-AC14	B-AC15	B-AC16	B-DC1	B-DC2	B-DC3	B-DC4	B-DC5	B-DC6	B-DC7	B-DC8	B-DC9	B-DC10	B-DC11	B-DC12	B-DC13	B-DC14	B-DC15	B-DC16	B-Ph1	B-Ph2	B-Ph3	B-Ph4	B-Ph5	B-Ph6	B-Ph7	B-Ph8	B-Ph9	B-Ph10	B-Ph11	B-Ph12	B-Ph13	B-Ph14	B-Ph15	B-Ph16	

Term	0.00000e+00	0.00000e+00	0.00000e+00	0.00000e+00	0.00000e+00	0.00000e+00	0.00000e+00	0.00000e+00	0.00000e+00	0.00000e+00	0.00000e+00	0.00000e+00	0.00000e+00	0.00000e+00	0.00000e+00	0.00000e+00	0.00000e+00	0.00000e+00	0.00000e+00	0.00000e+00	0.00000e+00	0.00000e+00	0.00000e+00	0.00000e+00	0.00000e+00	0.00000e+00	0.00000e+00	0.00000e+00	0.00000e+00	0.00000e+00	0.00000e+00	0.00000e+00	-1.19857e+02	-1.24507e+02	-1.35452e+02	-1.83472e+02	-6.00384e+01	-4.75453e+01	-1.57982e+02	-1.62015e+02	-6.06145e+01	-8.17819e+01	-1.70621e+02	-1.71027e+02	-1.79027e+02	-1.76789e+02	-5.07464e+01	-1.49691e+02	
Factor	1.74378e-05	1.02985e-04	3.40426e-05	1.56174e-01	9.33459e-07	1.34348e-06	1.70957e-01	5.49417e-02	8.43037e-07	1.23105e-06	9.08538e-02	2.97122e-02	2.77676e-02	9.37205e-03	9.74277e-07	1.31938e-02	1.29289e-06	1.35560e-06	3.76670e-07	7.60921e-02	1.47965e-08	1.48193e-08	7.83401e-02	2.67541e-02	1.47987e-08	1.48410e-08	4.23708e-02	1.39488e-02	1.35316e-02	4.53434e-03	1.47790e-08	6.16309e-03	X	X	X	X	X	X	X	X	X	X	X	X	X	X	X	X	



#DISTANCE SETTINGS
A = Detector Channel
A-1	A-2	A-3	A-4	A-5	A-6	A-7	A-8	A-9	A-10	A-11	A-12	A-13	A-14	A-15	A-16	

2.5000e+00	3.0000e+00	2.5000e+00	3.0000e+00	2.0000e+00	3.0000e+00	1.5000e+00	3.0000e+00	3.0000e+00	3.0000e+00	3.0000e+00	3.0000e+00	3.0000e+00	3.0000e+00	1.5000e+00	3.0000e+00	

B = Detector Channel
B-1	B-2	B-3	B-4	B-5	B-6	B-7	B-8	B-9	B-10	B-11	B-12	B-13	B-14	B-15	B-16	

1.0000e+01	1.0000e+01	1.0000e+01	1.4400e+00	1.0000e+01	1.0000e+01	1.5100e+00	1.9400e+00	1.0000e+01	1.0000e+01	1.9900e+00	2.4900e+00	2.4100e+00	2.9000e+00	1.0000e+01	2.9800e+00	




#DATA BEGINS
time	group	step	mark	flag	A-AC1	A-AC2	A-AC3	A-AC4	A-AC5	A-AC6	A-AC7	A-AC8	A-AC9	A-AC10	A-AC11	A-AC12	A-AC13	A-AC14	A-AC15	A-AC16	A-DC1	A-DC2	A-DC3	A-DC4	A-DC5	A-DC6	A-DC7	A-DC8	A-DC9	A-DC10	A-DC11	A-DC12	A-DC13	A-DC14	A-DC15	A-DC16	A-Ph1	A-Ph2	A-Ph3	A-Ph4	A-Ph5	A-Ph6	A-Ph7	A-Ph8	A-Ph9	A-Ph10	A-Ph11	A-Ph12	A-Ph13	A-Ph14	A-Ph15	A-Ph16	B-AC1	B-AC2	B-AC3	B-AC4	B-AC5	B-AC6	B-AC7	B-AC8	B-AC9	B-AC10	B-AC11	B-AC12	B-AC13	B-AC14	B-AC15	B-AC16	B-DC1	B-DC2	B-DC3	B-DC4	B-DC5	B-DC6	B-DC7	B-DC8	B-DC9	B-DC10	B-DC11	B-DC12	B-DC13	B-DC14	B-DC15	B-DC16	B-Ph1	B-Ph2	B-Ph3	B-Ph4	B-Ph5	B-Ph6	B-Ph7	B-Ph8	B-Ph9	B-Ph10	B-Ph11	B-Ph12	B-Ph13	B-Ph14	B-Ph15	B-Ph16	aux-1	digaux	

36626.434	1	1	0	768	0.044969	0.14246	0.27243	0.23754	0.19365	0.22986	0.2005	0.32715	0.062636	0.036067	0.17354	0.40657	0.030083	0.14532	0.14432	0.188	-2.8479	-3.7833	-3.4583	-3.6354	-4.05	-3.425	-3.8458	-4.0687	-3.2687	-3.8042	-3.8937	-3.4333	-4.1042	-3.2687	-3.5667	-3.9771	133.954	227.495	448.846	441.774	449.660	367.712	413.030	401.835	314.556	306.487	317.391	439.820	207.735	224.949	420.295	446.767	0.00031851	0.00044173	9.0708e-05	1389.1	4.5137e-06	1.742e-06	1435	397.41	4.2718e-06	5.6824e-06	467.06	116.72	85.98	19.307	3.3962e-06	28.461	0.00018018	0.00017315	4.8068e-05	1383.4	1.9271e-06	1.8773e-06	1431.3	395.26	1.8961e-06	1.8637e-06	459.9	116.27	85.262	19.378	1.909e-06	28.498	193.573	195.139	245.694	125.854	283.646	227.019	124.899	129.002	270.973	272.943	128.320	132.214	132.960	137.718	280.691	135.798	-8191	255	
36626.531	1	1	0	0	0.15536	0.11382	0.12973	0.32671	0.1574	0.08285	0.095497	0.17205	0.28276	0.18064	0.30087	0.21809	0.16717	0.16425	0.14726	0.052668	-2.9062	-3.7271	-3.7646	-3.4521	-3.9771	-3.25	-3.6021	-4.0563	-3.3812	-3.9125	-3.8917	-3.1083	-4.225	-3.4979	-3.4417	-3.9083	467.982	402.847	145.132	414.312	242.121	406.585	373.233	397.654	416.180	191.569	429.856	114.832	253.103	450.982	458.588	191.232	0.0002616	0.00039652	0.00015859	1360.3	5.7585e-06	3.4655e-06	1407.2	388.12	4.6797e-06	5.1864e-06	457.61	115.1	84.706	19.064	2.3193e-06	28.474	0.00018152	0.00017349	4.8439e-05	1354.2	1.8771e-06	1.8502e-06	1400	386.3	1.8844e-06	1.8415e-06	451.5	114.26	84.197	19.254	1.8366e-06	28.443	195.992	229.575	163.928	125.698	238.893	323.198	125.007	129.085	271.073	197.009	127.985	132.174	132.761	137.619	309.257	136.847	-8191	255	
36626.629	1	1	0	0	0.056615	0.17074	0.32493	0.17079	0.094438	0.12284	0.36908	0.43498	0.33059	0.17364	0.34728	0.20508	0.045087	0.021442	0.1115	0.29433	-2.9833	-3.7854	-3.8854	-3.35	-3.8979	-3.5354	-3.5208	-4.2583	-3.4667	-3.7521	-4.0312	-3.0792	-4.1271	-3.575	-3.5229	-4.0563	164.781	120.540	168.824	154.661	469.273	278.554	453.527	462.777	411.385	179.526	467.950	121.477	436.304	324.990	355.983	404.125	0.00031488	0.00054322	0.00015518	1359.2	6.8302e-06	3.9124e-06	1408.8	391.73	6.2651e-06	1.9174e-06	461.55	116.55	86.203	19.488	1.3593e-06	29.138	0.0001748	0.00017036	4.6975e-05	1355	1.8603e-06	1.8627e-06	1405.8	389.32	1.912e-06	1.8663e-06	454.43	115.48	85.344	19.689	1.9027e-06	29.03	190.559	180.442	172.814	125.999	246.549	296.399	125.191	128.907	288.655	248.017	128.029	132.211	133.280	137.515	247.640	136.402	-8191	255	
36626.723	1	1	0	0	0.27273	0.31059	0.045703	0.092286	0.12672	0.080449	0.17132	0.47992	0.063425	0.12855	0.19881	0.047667	0.060354	0.13467	0.16863	0.096327	-2.8708	-3.5833	-3.9354	-3.4708	-3.8292	-3.7521	-3.5812	-4.2354	-3.4062	-3.5479	-3.9958	-3.15	-3.9021	-3.6833	-3.2229	-4.1104	144.028	322.770	284.334	318.354	359.749	351.141	384.777	448.132	454.299	135.732	451.613	188.001	458.608	425.365	405.721	413.865	0.00028844	0.0004473	0.00017349	1375.9	4.4954e-06	3.4313e-06	1430.8	399.9	3.7606e-06	2.3423e-06	472.76	119.86	89.228	20.186	1.6568e-06	29.958	0.00018141	0.00017297	4.7877e-05	1371.3	1.9565e-06	1.9259e-06	1429.2	397.65	1.9658e-06	1.9266e-06	465.9	119.2	88.332	20.344	2.0443e-06	30.001	187.519	243.565	234.533	125.972	270.548	252.836	125.126	129.090	283.728	238.134	128.022	132.163	132.826	137.834	269.356	135.849	-8191	255	
36626.820	1	1	0	0	0.099219	0.12201	0.14639	0.25845	0.20046	0.10559	0.16657	0.1077	0.30164	0.25351	0.2339	0.25613	0.068152	0.23236	0.073395	0.08728	-3.2771	-3.5208	-3.8375	-3.4396	-3.6458	-3.9021	-3.4333	-4.1188	-3.3917	-3.4208	-4.1104	-3.3521	-3.8271	-3.8563	-3.25	-3.8521	265.216	428.719	363.000	432.789	332.189	254.048	410.565	442.510	135.117	201.111	347.282	435.243	139.970	127.979	454.629	357.359	0.00028063	0.00034523	0.00010423	1396.3	6.1494e-06	5.397e-06	1449.3	407.4	3.0526e-06	1.7356e-06	480.01	123.23	90.764	20.573	5.34e-06	30.466	0.00018972	0.00018469	4.9662e-05	1393.1	2.0651e-06	1.9816e-06	1445.6	405.43	2.0388e-06	2.0292e-06	473.67	122.1	90.096	20.737	2.0098e-06	30.521	184.046	187.788	166.393	125.829	265.159	324.208	125.049	129.061	268.882	270.138	127.915	131.965	133.012	137.368	277.773	135.965	-8191	255	
36626.914	1	1	0	0	0.17552	0.29931	0.18928	0.2299	0.02852	0.16696	0.10665	0.23742	0.095198	0.19087	0.25127	0.16252	0.14063	0.16143	0.057429	0.13824	-3.1937	-3.3771	-3.9896	-3.4792	-3.475	-3.8458	-3.4083	-4.1167	-3.5021	-3.275	-3.9979	-3.4896	-3.7104	-3.9875	-3.2229	-3.775	184.290	287.307	458.810	115.375	395.153	306.342	413.820	468.802	349.662	404.114	454.667	423.029	158.591	400.262	397.445	162.066	0.00033815	0.00045485	0.00011395	1388.8	3.6588e-06	5.9347e-06	1440.6	403.31	4.3687e-06	3.6781e-06	472.62	121.31	89.265	20.214	2.0218e-06	29.537	0.00019331	0.00018306	5.1214e-05	1390.4	2.0461e-06	1.9875e-06	1436.5	402.23	2.0364e-06	2.0079e-06	467.42	120.15	88.58	20.347	1.9816e-06	29.734	186.812	151.155	166.805	125.916	280.291	285.408	125.012	128.919	277.081	222.408	127.758	132.273	132.817	137.658	257.981	136.002	-8191	255	
36627.035	1	1	0	0	0.14733	0.18186	0.20293	0.27049	0.036404	0.075181	0.23358	0.31863	0.1144	0.29647	0.025037	0.12157	0.2499	0.095124	0.39535	0.17083	-3.5312	-3.0062	-3.9604	-3.5062	-3.3812	-3.9167	-3.375	-3.9667	-3.7667	-3.2812	-4.175	-3.5542	-3.4979	-3.8563	-3.2771	-3.8917	442.053	261.716	150.942	413.629	200.064	149.122	433.895	428.353	432.148	335.649	440.425	416.953	332.338	176.518	303.405	419.998	0.00035879	0.00043867	0.0001086	1367.8	4.2006e-06	3.7252e-06	1408.3	397.15	4.5075e-06	3.5946e-06	465.34	118.65	88.066	19.888	1.981e-06	29.227	0.00019058	0.00018241	5.0472e-05	1361.8	2.0261e-06	1.9835e-06	1407.1	394.53	2.0179e-06	1.9832e-06	459.11	117.78	87.333	20.01	2.0222e-06	29.391	202.699	207.434	203.933	125.806	215.961	236.929	125.229	129.140	265.193	228.154	127.835	132.044	132.668	137.502	328.297	136.123	-8191	255	
36627.133	1	1	0	0	0.22094	0.094553	0.061387	0.21792	0.071011	0.069815	0.22462	0.054733	0.23453	0.15232	0.15059	0.21303	0.026089	0.2167	0.26582	0.15752	-3.4062	-3.1875	-4.0646	-3.7021	-3.3521	-4.0667	-3.4021	-3.8604	-3.8125	-3.1042	-4.1604	-3.4729	-3.5542	-4	-3.1167	-3.6729	235.957	120.533	123.867	114.054	232.178	376.988	382.373	357.359	218.727	218.320	421.459	419.582	403.862	248.319	120.757	462.559	0.00035718	0.00025122	0.00014786	1361.5	4.2489e-06	2.2886e-06	1408.1	395.84	3.9398e-06	1.1338e-06	467.24	119.83	88.489	19.998	1.783e-06	29.652	0.00018813	0.00018054	4.9848e-05	1356	1.9974e-06	1.9553e-06	1407.5	394.52	1.9921e-06	1.9804e-06	461.11	118.38	87.554	20.092	1.9913e-06	29.597	187.070	223.714	216.783	126.007	263.172	323.799	124.892	128.923	238.196	264.132	128.046	132.156	132.880	137.402	273.261	136.000	-8191	255	
36627.227	1	1	0	0	0.11127	0.12654	0.1258	0.18439	0.14289	0.22995	0.072719	0.3023	0.099389	0.055875	0.24559	0.22327	0.32962	0.18868	0.16016	0.16956	-3.5646	-3.2625	-3.9479	-3.7062	-3.3542	-3.8875	-3.6063	-3.6375	-3.9458	-3.1708	-3.8583	-3.7271	-3.2438	-4.0042	-3.3792	-3.4854	403.477	187.999	410.319	338.312	309.676	126.496	418.166	384.189	311.392	331.600	469.747	418.276	121.426	334.265	221.127	305.518	0.00029093	0.00035252	7.2158e-05	1366.3	6.2753e-06	7.613e-06	1420.5	399.22	3.8139e-06	1.7088e-06	469.85	120.4	89.116	20.229	6.1916e-07	30.132	0.00019058	0.00018645	5.036e-05	1362.9	2.0672e-06	2.0112e-06	1415.4	397.58	2.0596e-06	1.9759e-06	465.45	119.85	88.383	20.419	1.9908e-06	30.178	190.234	231.880	161.842	125.996	271.826	287.214	125.055	128.774	259.146	269.555	127.928	132.270	133.250	136.990	194.252	136.012	-8191	255	
36627.324	1	1	0	0	0.17098	0.16401	0.18345	0.30554	0.15168	0.049098	0.21901	0.22564	0.21291	0.12309	0.080036	0.21472	0.30823	0.12857	0.16662	0.12077	-3.7333	-3.3208	-3.8083	-4.0042	-3.3292	-4.15	-3.7333	-3.7292	-3.9458	-3.1333	-3.9938	-3.8375	-3.3021	-4.0854	-3.475	-3.3375	256.004	130.597	311.936	457.195	146.976	300.422	441.983	439.633	143.659	176.610	460.835	422.391	307.657	190.539	163.023	406.441	0.00032164	0.00043571	8.72e-05	1382.9	4.894e-06	2.1245e-06	1436.3	405.77	4.9194e-06	4.6302e-06	480.64	124.33	91.812	21.071	2.519e-06	31.164	0.00018961	0.00018046	5.1185e-05	1379.4	2.0621e-06	1.9785e-06	1436.1	403.76	2.0369e-06	2.0309e-06	473.34	122.78	90.778	21.155	2.0301e-06	30.996	187.462	250.024	268.984	126.045	206.429	145.782	125.012	129.102	266.096	261.456	128.018	132.133	132.825	137.270	263.350	136.059	-8191	255	
36627.422	1	1	0	0	0.061331	0.24965	0.048644	0.32806	0.18259	0.11711	0.20394	0.068279	0.20684	0.18861	0.087844	0.1069	0.10811	0.069151	0.22086	0.041534	-3.6437	-3.1396	-3.6667	-3.9375	-3.2604	-3.9979	-3.8937	-3.5062	-3.7271	-3.3146	-3.7292	-4.0417	-3.2375	-3.9417	-3.5333	-3.3604	253.061	358.037	231.809	453.858	398.482	112.838	402.266	458.209	189.756	192.328	216.970	163.047	144.712	448.004	273.424	337.095	0.00027062	0.00025704	0.00012773	1388.1	2.7681e-06	1.9619e-06	1429.9	402.62	4.0477e-06	4.8901e-06	472.42	121.29	89.716	20.406	1.9629e-06	29.993	0.00018846	0.00018011	5.075e-05	1383.1	2.0274e-06	1.9574e-06	1427.2	400.8	1.998e-06	1.986e-06	465.54	120.28	88.842	20.513	1.9633e-06	29.968	189.411	200.108	160.900	125.982	257.978	161.148	125.075	128.795	270.873	225.596	128.094	132.025	133.134	137.526	296.642	136.499	-8191	255	
36627.516	1	1	0	0	0.087637	0.30545	0.13083	0.55485	0.091307	0.33195	0.17637	0.063793	0.10894	0.064902	0.2226	0.1025	0.19554	0.14108	0.18605	0.12256	-3.7313	-3.4208	-3.3792	-4.05	-3.1937	-3.7479	-3.9958	-3.3583	-3.9979	-3.3604	-3.6583	-4.0271	-3.2146	-3.8979	-3.6562	-3.2479	120.509	312.544	356.242	441.642	341.468	229.561	440.529	293.389	123.894	124.734	449.195	112.077	445.091	428.207	374.839	453.257	0.00034891	0.00044916	0.00014333	1352.9	5.191e-06	2.6375e-06	1391	393.16	3.4508e-06	3.5576e-06	461.49	118.78	87.664	19.943	2.583e-06	29.422	0.00018468	0.00018026	4.9713e-05	1348.9	1.9734e-06	1.9193e-06	1389.5	390.79	1.9324e-06	1.9103e-06	455.7	117.55	87.145	20.127	1.9372e-06	29.455	191.992	156.989	195.278	125.904	261.483	288.239	125.290	129.095	297.013	213.243	127.908	132.097	132.987	137.366	295.604	135.849	-8191	255	
36627.613	1	1	0	0	0.3538	0.35519	0.091373	0.084165	0.12022	0.15614	0.21414	0.12544	0.093826	0.065946	0.25883	0.21505	0.23636	0.14012	0.11688	0.23218	-3.4813	-3.4604	-3.2146	-4.2125	-3.2083	-3.675	-3.8563	-3.5021	-4.1042	-3.4437	-3.4333	-4.0875	-3.6042	-3.8688	-3.8438	-3.1063	219.995	215.828	236.910	417.202	460.162	382.169	402.867	131.554	221.511	413.987	117.035	409.293	130.979	138.261	231.029	385.185	0.00030101	0.00016249	0.00013073	1348.6	3.3727e-06	5.6305e-06	1396.1	395.55	3.8391e-06	2.7785e-06	465.31	120.58	88.905	20.314	8.4272e-07	29.994	0.00018292	0.00017694	4.9374e-05	1343.1	1.9694e-06	1.9835e-06	1388.9	393.55	2.0321e-06	1.9768e-06	458.63	119.09	88.225	20.446	1.954e-06	29.864	193.363	213.012	226.840	125.884	276.603	250.539	125.116	129.102	239.121	172.774	127.911	132.262	132.858	137.309	286.686	135.843	-8191	255	
36627.734	1	1	0	0	0.066368	0.15721	0.25791	0.31942	0.21102	0.19779	0.39527	0.14516	0.084306	0.2138	0.12184	0.1582	0.056997	0.12111	0.11337	0.30441	-3.8688	-3.6292	-3.3604	-4.0583	-3.2354	-3.7188	-4.1521	-3.2729	-3.9583	-3.6146	-3.5438	-4.0813	-3.4458	-3.6021	-3.7875	-3.1604	222.523	460.394	318.591	156.671	283.075	412.427	447.966	142.120	402.608	199.425	459.601	377.313	351.520	182.198	445.378	406.240	0.00028752	0.00023535	0.00010631	1345.7	2.5908e-06	4.4512e-06	1393.1	398.87	4.7507e-06	4.3292e-06	467.61	120.38	89.402	20.357	1.6816e-06	30.076	0.00018729	0.00018371	5.0657e-05	1345.5	2.011e-06	2.016e-06	1394.4	396.41	2.0256e-06	2.0295e-06	462.02	119.96	88.935	20.652	2.0674e-06	30.218	192.537	171.681	206.240	126.239	290.213	283.318	125.098	129.043	256.137	270.982	127.972	132.013	133.092	136.976	262.949	135.991	-8191	255	
36627.828	1	1	0	0	0.23072	0.26548	0.090098	0.20972	0.22794	0.24478	0.12192	0.3081	0.11755	0.22094	0.15195	0.19349	0.1788	0.098099	0.13335	0.19374	-3.6271	-3.7583	-3.2021	-4.2063	-3.3396	-3.6063	-4.1937	-3.1917	-3.6125	-3.6521	-3.3792	-4.075	-3.5042	-3.5062	-3.975	-3.2542	330.580	340.398	455.382	134.279	439.537	202.352	319.194	452.958	202.465	378.921	120.773	149.843	122.486	469.655	324.062	463.283	0.00032708	0.00016883	7.9537e-05	1355.1	3.3517e-06	2.1509e-06	1398.9	401.25	1.669e-06	5.1502e-06	472.19	121.8	89.649	20.499	4.7265e-06	30.189	0.00019814	0.0001898	5.2454e-05	1354	2.094e-06	2.0501e-06	1402.7	398.02	2.0648e-06	2.0567e-06	465.14	120.66	89.182	20.719	2.069e-06	30.277	192.785	201.989	160.946	125.989	244.754	293.364	125.038	129.039	277.740	207.890	127.682	132.207	133.253	137.328	283.423	135.719	-8191	255	
36627.922	1	1	0	0	0.20438	0.19052	0.11607	0.36789	0.23871	0.16478	0.36153	0.23838	0.088205	0.12689	0.32267	0.051325	0.19595	0.16602	0.18891	0.099916	-3.4896	-3.7583	-3.2125	-4.1125	-3.4646	-3.425	-4.1375	-3.2812	-3.8167	-3.7313	-3.4208	-3.9792	-3.5375	-3.2687	-4.1687	-3.35	425.919	133.610	164.402	428.218	411.406	460.895	418.732	419.513	269.527	374.105	125.554	290.581	128.756	114.841	223.922	468.439	0.00034345	0.00057553	0.00015216	1344.5	7.1752e-06	5.5193e-06	1387.7	394.15	2.8147e-06	6.9348e-06	459.88	117.5	86.532	19.871	2.1059e-06	29.067	0.00019779	0.00019114	5.2279e-05	1344.2	2.1096e-06	2.0255e-06	1389.5	392.28	2.0779e-06	2.0678e-06	455.17	116.92	86.384	20.08	2.0367e-06	29.262	195.023	158.567	169.989	126.056	275.351	243.653	125.304	128.899	273.975	251.827	127.958	132.020	133.109	137.129	209.681	136.371	-8191	255	
36627.996	1	1	0	0	0.095854	0.21392	0.12152	0.33182	0.062183	0.033639	0.35055	0.29097	0.05827	0.026708	0.25399	0.094268	0.036797	0.14608	0.064389	0.14313	-3.3833	-3.8417	-3.2854	-4.1417	-3.5271	-3.325	-4.1729	-3.4542	-3.5896	-4.0667	-3.3271	-4.0854	-3.7062	-3.2562	-3.8458	-3.5312	281.814	452.604	460.676	442.884	346.366	317.763	388.157	403.889	445.815	124.626	444.698	280.402	436.756	411.908	352.247	406.119	0.00028192	0.00027231	0.00013727	1320.9	4.9921e-06	4.3728e-06	1370.4	388.16	4.3233e-06	7.4033e-07	454.72	116.92	86.342	19.689	4.1001e-06	29.129	0.00019399	0.00019023	5.2313e-05	1321.2	2.0682e-06	2.0686e-06	1369.1	386.26	2.1183e-06	2.0419e-06	449.87	115.92	85.858	19.946	2.0657e-06	29.18	190.387	186.184	166.720	126.023	264.927	299.524	125.245	129.048	286.749	272.256	127.724	132.196	133.154	137.460	295.668	135.899	-8191	255	
36628.117	1	1	0	0	0.23223	0.1233	0.10284	0.24659	0.10241	0.36141	0.14353	0.20789	0.18107	0.072073	0.31102	0.094055	0.15822	0.1596	0.22871	0.2319	-3.1542	-3.8812	-3.2104	-4.1521	-3.6937	-3.2208	-4.1229	-3.5312	-3.3333	-4.0875	-3.4583	-3.9417	-3.7208	-3.1333	-3.9771	-3.5875	226.310	289.087	274.078	384.459	318.443	339.758	383.374	421.793	257.471	117.334	450.837	169.141	449.814	357.780	135.755	123.104	0.00036029	0.00021562	0.00016087	1328.2	1.9693e-06	3.9804e-06	1377.4	388.7	2.9588e-06	4.4497e-06	457.52	117.24	87.141	19.802	3.5953e-06	29.361	0.00020316	0.00019162	5.2394e-05	1321.3	2.0955e-06	2.0781e-06	1373.4	387.43	2.1342e-06	2.0947e-06	451.72	116.61	86.522	20.184	2.1309e-06	29.47	187.811	160.420	237.137	125.793	280.898	243.835	124.923	129.290	240.250	280.172	127.912	132.074	133.286	138.141	272.211	136.180	-8191	255	
36628.211	1	1	0	0	0.094116	0.052663	0.22555	0.25364	0.043346	0.2676	0.1695	0.27609	0.02911	0.13998	0.031683	0.27694	0.16744	0.022791	0.1653	0.078638	-3.0042	-4.0479	-3.2771	-3.7167	-3.7667	-3.075	-4.2063	-3.5792	-3.3417	-4.0813	-3.4396	-3.6667	-4.0917	-3.0833	-3.8042	-3.8479	124.905	183.622	429.382	413.579	229.681	356.490	450.220	379.424	263.761	305.080	388.766	373.483	400.492	369.565	157.646	368.877	0.00033548	0.00010464	0.00012794	1328.8	1.1151e-06	4.7139e-06	1381.5	391.67	4.6582e-06	4.8065e-06	461.84	118.79	88.081	20.225	1.5999e-06	29.883	0.00019904	0.00019183	5.2901e-05	1330.4	2.1215e-06	2.078e-06	1383.4	390.42	2.1125e-06	2.1058e-06	456.67	118.17	87.546	20.411	2.1091e-06	30.036	180.425	180.448	178.439	125.857	320.149	315.049	125.109	129.361	274.103	211.548	127.958	132.144	133.003	137.506	296.246	136.097	-8191	255	
36628.309	1	1	0	0	0.13362	0.077972	0.03749	0.12675	0.098463	0.056423	0.36875	0.046233	0.10922	0.27074	0.29215	0.13167	0.25457	0.27869	0.045902	0.1516	-2.825	-4.0125	-3.5167	-3.5979	-3.9833	-3.25	-3.9375	-3.7292	-3.1937	-3.9125	-3.5646	-3.6354	-3.9021	-3.1146	-3.8729	-3.7583	423.633	302.189	251.403	151.363	386.346	452.122	446.741	148.791	223.531	426.790	398.025	429.307	399.293	310.290	143.072	369.549	0.00037312	0.00021571	7.4969e-05	1341.6	4.9154e-06	3.9517e-06	1402.3	395.56	3.706e-06	4.3373e-06	467.37	120.63	89.605	20.631	2.3418e-06	30.227	0.000201	0.00019284	5.4167e-05	1343.5	2.1636e-06	2.1114e-06	1399.6	395.07	2.1588e-06	2.0947e-06	462.4	119.91	88.778	20.759	2.1139e-06	30.385	187.772	161.692	192.628	125.793	285.860	291.660	125.178	129.214	254.654	231.653	127.798	132.122	132.924	137.538	286.847	136.174	-8191	255	
36628.430	1	1	0	0	0.24242	0.043055	0.091442	0.1184	0.10249	0.18926	0.25525	0.17158	0.19346	0.16159	0.37525	0.10079	0.20177	0.14372	0.082098	0.15686	-2.7708	-4.0208	-3.4208	-3.725	-3.9104	-3.3333	-3.9083	-3.8187	-3.0438	-4.0188	-3.6042	-3.3271	-4.0104	-3.1958	-3.7021	-3.9896	340.148	395.339	403.474	340.473	191.258	372.179	406.218	363.678	301.078	234.528	467.004	377.477	111.853	395.075	375.340	128.956	0.00029654	0.00021683	8.5436e-05	1339.5	4.7689e-06	6.3978e-06	1390.7	392.8	3.1938e-06	1.237e-06	460.44	118.64	88.222	20.257	1.4309e-06	29.43	0.00020262	0.00019352	5.4145e-05	1338.6	2.1801e-06	2.1761e-06	1390.1	391.4	2.2155e-06	2.1693e-06	456.03	118.38	87.613	20.462	2.1571e-06	29.778	179.470	218.327	190.944	125.728	242.689	276.650	125.077	129.187	265.307	204.519	127.993	131.730	133.141	137.584	329.128	136.214	-8191	255	
36628.523	1	1	0	0	0.1693	0.1874	0.14971	0.10667	0.20339	0.1263	0.12965	0.24718	0.091138	0.18284	0.064306	0.2973	0.12993	0.20278	0.086476	0.11502	-2.7646	-4.0312	-3.5021	-3.4542	-3.9854	-3.2375	-3.8167	-4.0833	-3.2042	-3.975	-3.6437	-3.4188	-4.1104	-3.4062	-3.6208	-3.9625	189.880	304.729	306.465	145.977	456.684	411.411	432.462	402.564	239.256	351.059	429.910	453.648	419.483	122.277	301.128	288.947	0.00033671	0.00051857	4.2097e-05	1325.6	4.5854e-06	4.9759e-06	1377.5	389.93	5.4871e-06	5.6345e-06	458.7	118.09	87.86	20.292	3.3369e-06	29.819	0.00020405	0.00019567	5.3565e-05	1322.1	2.1589e-06	2.1284e-06	1374.1	387.52	2.1609e-06	2.1155e-06	453.45	117.68	87.291	20.399	2.1343e-06	30.007	189.151	224.352	167.481	126.013	305.552	309.056	125.003	129.188	251.641	244.029	127.917	131.845	132.807	137.887	228.788	136.051	-8191	255	
36628.598	1	1	0	0	0.12195	0.087548	0.20076	0.25349	0.10396	0.23446	0.303	0.28113	0.060192	0.12674	0.13182	0.033696	0.20343	0.23898	0.074464	0.14126	-2.925	-3.8271	-3.7646	-3.3104	-4.0729	-3.3542	-3.8021	-4.1292	-3.2375	-3.8667	-3.8271	-3.2396	-4.1146	-3.6104	-3.4833	-3.9062	247.109	187.384	432.653	449.945	112.533	414.616	414.988	129.365	121.883	126.168	444.173	271.243	274.083	354.543	245.044	460.852	0.00032549	0.00024388	0.00012281	1316.1	1.9761e-06	5.8718e-06	1375.9	387.8	3.9067e-06	2.5578e-06	458.9	118.23	87.986	20.39	2.165e-06	30.102	0.00020189	0.00019926	5.5379e-05	1320.6	2.2488e-06	2.2094e-06	1375.5	387.44	2.2444e-06	2.2048e-06	454.38	118.22	87.533	20.613	2.2233e-06	30.292	199.349	183.556	153.911	125.988	274.153	350.020	124.952	129.222	228.312	244.019	128.059	132.035	133.210	137.666	357.690	136.345	-8191	255	
36628.719	1	1	0	0	0.11175	0.054867	0.12334	0.074546	0.26981	0.038552	0.31099	0.096875	0.20881	0.459	0.34213	0.05712	0.058367	0.18182	0.066969	0.059667	-2.8771	-3.8167	-3.8063	-3.3937	-3.9562	-3.5479	-3.5812	-4.1021	-3.2708	-3.6833	-4.025	-3.1479	-3.8646	-3.5833	-3.2583	-3.9938	214.484	338.109	356.946	413.249	343.086	142.716	461.346	384.824	225.596	295.082	392.404	345.034	291.028	153.987	306.893	133.825	0.00030238	0.00021759	0.00011589	1329.1	3.2246e-06	7.2638e-06	1389.9	391.03	4.7164e-06	2.9764e-06	462.02	120.31	89.002	20.766	2.4955e-06	30.724	0.00020722	0.00020114	5.4656e-05	1327.9	2.2321e-06	2.1991e-06	1386.6	391.22	2.2307e-06	2.2375e-06	459.01	119.92	88.643	20.918	2.1966e-06	30.799	198.173	226.020	122.493	125.839	258.062	291.174	125.207	129.375	250.051	326.668	128.136	132.127	132.952	137.385	246.584	135.933	-8191	255	
36628.812	1	1	0	0	0.0709	0.039515	0.15639	0.12085	0.18256	0.017203	0.16829	0.25527	0.021478	0.1739	0.055506	0.10902	0.099704	0.10497	0.027038	0.18222	-2.8563	-3.6146	-3.8396	-3.4938	-3.8896	-3.5771	-3.4042	-4.1479	-3.3688	-3.4521	-4.1271	-3.2729	-3.8521	-3.6813	-3.0979	-4.1104	265.648	367.931	425.819	425.050	366.448	404.798	445.082	387.131	215.994	374.030	467.505	423.661	465.143	384.438	435.384	147.154	0.00036897	0.00026097	0.00016584	1349.4	4.597e-06	5.2824e-06	1410.2	397.97	4.2609e-06	3.0355e-06	472.35	122.56	89.762	20.811	3.4939e-06	30.758	0.0002087	0.00020283	5.5264e-05	1346	2.2362e-06	2.2134e-06	1405.3	396.64	2.2602e-06	2.1923e-06	465.78	121.4	89.437	21.048	2.1859e-06	30.969	182.999	206.216	165.307	126.022	265.460	284.346	124.944	129.023	250.914	254.229	128.099	131.551	133.119	137.635	244.533	135.761	-8191	255	
36628.906	1	1	0	0	0.12531	0.10042	0.078368	0.46252	0.27297	0.14684	0.22047	0.20499	0.20908	0.13392	0.14223	0.26398	0.1173	0.2378	0.18205	0.23408	-2.9562	-3.5187	-4.0687	-3.4604	-3.8667	-3.7729	-3.3854	-4.2417	-3.4708	-3.4042	-4.0437	-3.25	-3.7771	-3.9875	-3.1521	-4.0771	166.783	460.615	466.674	121.016	338.848	429.438	372.080	183.240	263.156	300.171	457.647	153.908	154.551	188.037	368.558	404.804	0.00029816	0.0004298	0.00020993	1346.4	1.5012e-06	9.4907e-06	1390	392.8	6.0517e-06	4.8225e-06	461.69	120.34	88.795	20.556	3.1643e-06	29.959	0.00020798	0.00019858	5.3539e-05	1338.2	2.1737e-06	2.1811e-06	1389.4	391.07	2.2061e-06	2.1436e-06	456.94	119.26	88.018	20.735	2.2312e-06	30.382	185.502	210.993	179.488	125.799	232.928	258.406	125.133	129.146	277.389	251.378	128.106	131.881	132.670	137.149	273.285	135.829	-8191	255	
36629.027	1	1	0	0	0.0093035	0.091226	0.22	0.088676	0.25761	0.12765	0.1807	0.050666	0.23413	0.058717	0.27123	0.11082	0.19691	0.22017	0.12629	0.13588	-3.275	-3.4479	-4	-3.4062	-3.6833	-3.9729	-3.4667	-4.1125	-3.5875	-3.4292	-4.1542	-3.3854	-3.7146	-3.9938	-3.1375	-3.9062	410.823	199.018	326.815	455.244	236.810	449.430	454.379	401.012	312.711	182.936	156.636	371.577	471.130	262.350	200.417	396.124	0.00032353	0.00053654	9.0545e-05	1319.2	5.7357e-06	2.2884e-06	1377	388.17	6.4548e-06	3.2059e-06	457.88	119.19	88.338	20.394	3.0835e-06	30.17	0.00020611	0.0001983	5.5705e-05	1319.4	2.2202e-06	2.187e-06	1373.8	387.86	2.2335e-06	2.2112e-06	453.65	118.53	87.662	20.653	2.2715e-06	30.358	187.681	228.772	224.205	125.849	257.568	294.441	124.966	129.142	264.953	300.590	128.107	132.076	132.943	137.148	254.767	135.743	-8191	255	
36629.125	1	1	0	0	0.25212	0.11841	0.13625	0.27053	0.13223	0.082954	0.31117	0.28446	0.23426	0.14184	0.2314	0.1043	0.20123	0.19093	0.1035	0.10332	-3.2354	-3.4292	-3.9875	-3.4479	-3.4458	-4.0437	-3.2125	-4.0271	-3.6146	-3.3375	-4.1417	-3.3771	-3.5438	-4.0938	-3.3	-3.7458	143.326	142.393	237.622	415.459	141.842	210.004	376.332	428.287	125.950	457.800	125.729	385.968	467.211	414.828	201.957	466.817	0.00033418	0.00036243	0.00010775	1320.3	3.5755e-06	6.0679e-06	1378.8	389.33	1.9332e-06	1.2923e-06	460.04	120.58	88.54	20.657	4.6608e-06	30.422	0.00021233	0.00020809	5.6996e-05	1322.8	2.2854e-06	2.2682e-06	1375.7	388.66	2.3052e-06	2.2347e-06	455.77	119.47	87.862	20.807	2.2214e-06	30.62	184.770	231.380	150.506	125.747	280.260	276.694	124.935	128.978	224.712	229.595	128.067	132.182	133.153	137.561	267.383	135.818	-8191	255	
36629.219	1	1	0	0	0.14443	0.17975	0.27478	0.10907	0.11752	0.057364	0.13807	0.31985	0.034688	0.1665	0.20661	0.16556	0.24786	0.086333	0.27168	0.13001	-3.4188	-3.2313	-3.8958	-3.5521	-3.4625	-4.1354	-3.3875	-4.0583	-3.7958	-3.2646	-4.2042	-3.5042	-3.3354	-4.0354	-3.3229	-3.6125	405.829	117.823	351.219	410.783	251.292	321.791	415.417	431.756	232.300	204.418	417.888	146.447	457.899	451.571	191.164	285.280	0.00032999	0.00041693	0.00014942	1324.7	5.3423e-06	2.5902e-06	1380	390.69	3.9505e-06	4.8385e-06	461.77	120.15	88.721	20.748	1.7168e-06	30.726	0.0002139	0.00020695	5.7386e-05	1323.3	2.2628e-06	2.2241e-06	1379.4	389.75	2.2365e-06	2.2272e-06	458.11	119.68	88.276	20.877	2.2135e-06	30.869	182.374	205.362	213.868	125.891	264.256	310.789	124.905	129.192	274.225	246.292	128.206	132.017	132.665	137.753	224.716	136.208	-8191	255	
36629.293	1	1	0	0	0.36292	0.099596	0.1262	0.12708	0.12537	0.039302	0.2094	0.19036	0.26093	0.31217	0.088163	0.15002	0.24639	0.048873	0.10349	0.16558	-3.4833	-3.0521	-3.8604	-3.6417	-3.425	-3.9167	-3.6229	-3.6188	-3.8896	-3.2917	-4.0333	-3.6792	-3.3625	-3.95	-3.4625	-3.5125	469.433	173.178	425.455	180.765	337.341	121.934	421.794	322.394	439.452	316.799	393.827	386.009	423.619	184.790	271.195	118.660	0.00032646	0.00028875	0.0001476	1335.1	2.1817e-06	3.536e-06	1387.9	393.82	3.4777e-06	5.9265e-06	464.08	121.5	88.982	20.731	3.2982e-06	30.696	0.00020973	0.00020121	5.609e-05	1333.6	2.2139e-06	2.1858e-06	1390.2	392.3	2.2348e-06	2.2223e-06	459.65	120.21	88.225	20.888	2.2076e-06	30.849	192.476	265.900	239.965	126.007	194.206	288.603	125.017	129.108	252.069	269.917	128.212	132.400	133.067	137.386	289.738	136.095	-8191	255	
36629.414	1	1	0	0	0.28077	0.078585	0.11876	0.19271	0.13314	0.18437	0.20928	0.31091	0.22354	0.19858	0.01703	0.098442	0.15091	0.041665	0.21638	0.21343	-3.6417	-3.1729	-3.7042	-3.6229	-3.1958	-4.0479	-3.5354	-3.6083	-3.9417	-3.1958	-4.0604	-3.9375	-3.1479	-3.9729	-3.4271	-3.3771	129.438	316.602	209.228	459.897	272.109	379.577	456.504	408.581	323.392	426.300	188.689	408.254	347.677	161.720	117.994	401.131	0.0003911	0.00037736	0.00014575	1324	5.0903e-06	4.3289e-06	1382.9	387.11	4.1826e-06	3.5538e-06	457.01	118.57	87.167	20.263	2.1302e-06	29.961	0.00020992	0.00020085	5.5486e-05	1324.1	2.212e-06	2.1952e-06	1377.9	386.18	2.1971e-06	2.1912e-06	451.47	118.03	86.862	20.48	2.1772e-06	30.061	190.344	208.399	134.834	126.019	248.144	257.496	125.115	129.000	251.033	186.130	127.802	132.118	132.815	137.582	278.180	135.927	-8191	255	
36629.508	1	1	0	0	0.076694	0.21137	0.10555	0.23552	0.1974	0.089153	0.20827	0.24841	0.23676	0.32027	0.15882	0.069347	0.20066	0.16346	0.19323	0.075539	-3.6063	-3.1083	-3.7583	-4.0875	-3.2104	-3.8937	-3.7104	-3.3833	-3.9417	-3.3812	-3.7583	-3.8542	-3.3854	-4.0938	-3.4333	-3.3563	272.386	432.852	448.024	447.870	378.689	198.140	385.644	399.408	282.636	355.078	387.573	402.001	147.344	440.689	266.241	371.334	0.00031324	0.00031724	4.7185e-05	1314.9	1.9059e-06	4.5438e-06	1364.6	384.95	3.1636e-06	4.7227e-06	455.94	118.49	86.429	20.241	1.8567e-06	30.009	0.0002035	0.00020205	5.5371e-05	1311.6	2.1998e-06	2.1923e-06	1363.3	382.79	2.2066e-06	2.1502e-06	449.79	117.51	86.369	20.459	2.2037e-06	30.156	182.264	191.880	171.934	126.190	290.177	321.076	124.969	129.025	240.414	261.779	127.742	131.924	132.908	137.811	255.829	135.863	-8191	255	
36629.605	1	1	0	0	0.0417	0.24389	0.16107	0.099007	0.19372	0.24569	0.23966	0.32879	0.10615	0.21261	0.27398	0.2648	0.10746	0.16241	0.10083	0.29581	-3.7417	-3.1521	-3.425	-4.0854	-3.2396	-3.9062	-3.8417	-3.3292	-4.0979	-3.3521	-3.5812	-4.0833	-3.1813	-3.8083	-3.7146	-3.4	325.217	125.934	151.473	459.761	405.749	111.746	404.297	396.739	145.433	303.351	436.620	132.553	331.601	241.094	377.737	449.478	0.00035627	0.00037064	0.00016219	1308.7	3.3145e-06	3.3572e-06	1367.6	386.02	7.5306e-07	1.8776e-06	453.77	118.23	86.674	20.159	2.6279e-06	29.804	0.00020719	0.00020249	5.6498e-05	1309.7	2.2371e-06	2.1852e-06	1366.6	383.5	2.2762e-06	2.2474e-06	450.37	117.46	86.337	20.371	2.2167e-06	30.013	191.761	191.468	175.555	125.975	271.919	296.479	125.147	129.211	196.941	327.793	127.891	132.097	132.908	138.038	266.101	135.675	-8191	255	
36629.699	1	1	0	0	0.15499	0.19465	0.031819	0.26943	0.11911	0.1434	0.33815	0.22707	0.118	0.20499	0.325	0.088589	0.22841	0.24956	0.084289	0.10702	-3.6292	-3.425	-3.375	-4.1104	-3.1042	-3.6396	-3.8708	-3.2812	-3.9688	-3.4167	-3.4542	-3.9667	-3.2687	-3.7021	-3.8229	-3.1479	348.873	175.771	218.911	415.086	290.213	464.970	435.041	413.194	358.419	273.825	426.274	385.132	340.688	414.963	132.491	403.680	0.00029152	0.00023225	7.1394e-05	1312.5	3.9995e-06	1.1945e-06	1370.2	386.25	4.5241e-06	2.6277e-06	458.46	118.49	87.345	20.53	3.8391e-06	30.496	0.00021045	0.00020331	5.5991e-05	1312.7	2.2607e-06	2.2215e-06	1372.7	384.52	2.2612e-06	2.2422e-06	453.19	118.5	86.994	20.63	2.2019e-06	30.527	191.441	259.489	229.761	125.943	303.942	349.591	125.008	129.115	279.416	295.811	127.926	132.319	132.857	137.684	185.209	135.974	-8191	255	
36629.820	1	1	0	0	0.068952	0.13734	0.03602	0.20799	0.15633	0.11563	0.30226	0.11242	0.21901	0.15272	0.13353	0.17645	0.12936	0.0417	0.064945	0.45253	-3.6	-3.4354	-3.2854	-4.0312	-3.1937	-3.8	-3.8875	-3.2812	-3.8167	-3.5771	-3.4875	-4.0333	-3.2625	-3.8083	-3.9646	-3.2687	175.981	255.558	115.256	118.965	388.247	308.221	415.135	351.604	193.191	220.815	441.336	340.537	464.948	124.166	134.707	351.632	0.00034557	5.5071e-05	0.0001125	1331.2	5.7737e-06	1.7513e-06	1386.7	390.13	1.8099e-06	4.624e-06	458.89	119.65	87.68	20.433	4.4148e-06	30.343	0.00020874	0.00019904	5.6535e-05	1329.5	2.2299e-06	2.2079e-06	1389	387.72	2.2711e-06	2.2467e-06	454.89	119	87.155	20.63	2.2075e-06	30.446	192.604	248.721	168.651	125.915	219.366	347.989	125.237	128.758	208.126	243.784	127.800	132.382	133.083	137.121	291.107	135.295	-8191	255	
36629.895	1	1	0	0	0.11223	0.12232	0.12941	0.21284	0.12084	0.13316	0.34271	0.1818	0.1181	0.27444	0.02028	0.060367	0.28264	0.15868	0.092577	0.18095	-3.6	-3.6833	-3.3625	-4.3187	-3.4729	-3.4167	-4.1896	-3.2771	-3.8125	-3.5875	-3.3875	-4.0542	-3.4813	-3.375	-3.9208	-3.4375	307.828	285.975	186.655	132.312	228.112	214.082	464.583	383.006	162.555	389.655	352.752	455.452	409.800	351.029	125.504	434.609	0.0003441	0.00051954	0.00013812	1322.8	3.1362e-06	2.762e-06	1368.6	383.95	4.6472e-06	3.7602e-06	453.83	117.03	86.508	19.964	1.7196e-06	29.629	0.00021026	0.00020265	5.7254e-05	1316.4	2.2642e-06	2.1889e-06	1369	382.37	2.2209e-06	2.2344e-06	448.09	116.7	85.728	20.179	2.1744e-06	29.747	189.377	235.416	198.507	125.966	272.749	292.785	125.074	128.999	249.793	235.603	128.113	132.026	132.633	137.598	318.757	135.598	-8191	255	
36629.988	1	1	0	0	0.12374	0.25272	0.13389	0.18247	0.096046	0.21792	0.11604	0.332	0.048371	0.17835	0.25496	0.30535	0.080094	0.056904	0.20978	0.21178	-3.4542	-3.7167	-3.1333	-4.0708	-3.5958	-3.3312	-4.2896	-3.25	-3.6875	-3.8083	-3.3104	-3.9917	-3.4625	-3.4958	-3.9667	-3.3708	146.100	333.251	158.205	429.349	263.044	316.177	389.660	415.057	356.261	154.556	424.386	439.662	468.668	312.818	414.469	342.415	0.00031182	0.00025511	0.00012441	1307	1.9905e-06	4.763e-06	1358.4	381.59	3.1753e-06	3.8916e-06	451.59	116.9	86.469	19.796	3.3988e-06	29.483	0.00020673	0.00019895	5.6212e-05	1304.5	2.2318e-06	2.1936e-06	1360.1	380.09	2.2605e-06	2.2449e-06	446.37	116.32	85.566	20.161	2.2598e-06	29.747	189.770	255.170	190.508	125.959	295.384	276.821	125.165	129.133	268.824	250.272	127.975	132.383	132.680	137.560	280.637	135.810	-8191	255	
36630.109	1	1	0	0	0.2783	0.09569	0.16678	0.27363	0.29673	0.10578	0.13439	0.15335	0.051863	0.082119	0.032254	0.041805	0.19834	0.16348	0.23636	0.10354	-3.1854	-3.9625	-3.1417	-3.9792	-3.3563	-3.2687	-4.3479	-3.4479	-3.5292	-4.0188	-3.3	-3.9813	-3.6583	-3.2208	-3.9042	-3.3563	297.332	248.426	368.715	406.053	261.343	379.256	466.434	384.836	290.095	389.708	237.614	276.853	174.758	112.349	314.148	195.116	0.0003275	0.00063787	5.9803e-05	1308.7	2.1489e-06	4.9864e-06	1369.6	383.45	3.4225e-06	4.3766e-06	457.05	118.54	87.439	20.146	1.381e-06	29.977	0.00021531	0.00020484	5.8228e-05	1308.4	2.3239e-06	2.3016e-06	1368	383.15	2.3733e-06	2.3601e-06	452.79	118.09	86.992	20.38	2.353e-06	30.16	181.822	197.494	220.073	125.951	267.721	271.914	125.111	129.246	304.410	303.636	127.889	132.037	133.218	137.084	169.778	136.219	-8191	255	
36630.203	1	1	0	0	0.083898	0.11675	0.14513	0.34267	0.29875	0.28252	0.12323	0.25259	0.18235	0.087922	0.18166	0.064932	0.21736	0.2082	0.14512	0.14743	-2.9854	-3.9688	-3.1521	-3.9729	-3.8646	-3.1562	-4.25	-3.4188	-3.4625	-3.8417	-3.1688	-3.8354	-3.7958	-3.4437	-4.0229	-3.6354	383.007	404.449	305.813	431.655	458.001	384.015	218.875	432.580	240.678	464.563	164.852	139.938	138.008	419.540	226.414	392.424	0.00027032	0.00048374	0.00014696	1313.5	4.5326e-06	5.6409e-06	1374.7	388.39	5.254e-06	6.4906e-06	464	120.77	88.453	20.304	1.5943e-06	30.251	0.00022295	0.00021927	6.0222e-05	1314.5	2.3867e-06	2.401e-06	1376.7	386.86	2.4091e-06	2.3881e-06	457.3	119.78	88.132	20.599	2.4243e-06	30.539	188.702	220.870	183.602	125.694	291.925	258.215	124.992	129.082	242.622	217.316	128.015	132.006	132.995	137.225	342.053	135.883	-8191	255	
36630.301	1	1	0	0	0.27978	0.13061	0.077474	0.24798	0.1832	0.25352	0.20091	0.1125	0.11396	0.17852	0.096503	0.2815	0.15036	0.16155	0.13214	0.15706	-3.0458	-3.7708	-3.1667	-3.8625	-3.6937	-3.0667	-4.1583	-3.7271	-3.4104	-4.0917	-3.3438	-3.7104	-3.9292	-3.2833	-3.8708	-3.5563	253.312	181.907	116.482	405.474	346.182	205.631	427.931	409.340	125.291	264.563	441.007	363.638	437.537	394.519	168.419	407.367	0.00031044	0.00028287	0.00014575	1320	3.9456e-06	5.2398e-06	1379.4	391.29	5.7139e-06	5.1182e-06	464.1	120.37	87.939	20.207	2.4166e-06	30.226	0.00022266	0.0002208	6.1597e-05	1323.1	2.4319e-06	2.3871e-06	1382.7	389.34	2.3961e-06	2.3617e-06	458.26	119.79	87.812	20.475	2.3624e-06	30.294	198.868	220.187	203.095	125.870	325.738	298.452	124.898	129.391	229.135	227.636	127.707	132.265	133.112	137.253	204.764	136.002	-8191	255	
36630.398	1	1	0	0	0.25064	0.068355	0.10093	0.41237	0.15631	0.2785	0.12932	0.16938	0.037872	0.25717	0.15899	0.16307	0.1888	0.076824	0.087283	0.1569	-2.9104	-4.0437	-3.1875	-3.75	-3.9062	-3.1646	-4.0875	-3.8021	-3.2833	-4.0708	-3.5812	-3.5208	-3.7979	-3.1562	-4.0417	-3.7583	213.766	369.783	397.883	443.394	158.782	125.962	452.899	404.578	313.512	214.622	467.909	468.759	427.737	343.712	364.755	359.835	0.00038975	0.00020706	0.00013178	1305.6	6.3459e-06	3.4165e-06	1361.6	383.43	2.921e-06	4.8264e-06	452.4	116.62	85.646	19.373	1.7344e-06	29.1	0.00022225	0.00021729	5.9267e-05	1306.6	2.3652e-06	2.3543e-06	1363	382.45	2.364e-06	2.3317e-06	447.41	116.23	85.026	19.796	2.333e-06	29.369	188.986	191.021	232.090	125.779	251.979	298.399	124.900	129.212	223.759	297.713	128.193	132.374	133.265	137.626	314.615	136.181	-8191	255	
36630.492	1	1	0	0	0.078192	0.23249	0.13011	0.16883	0.082532	0.1721	0.12237	0.066268	0.10269	0.042217	0.07208	0.082962	0.2194	0.10854	0.095743	0.21512	-2.9396	-3.8646	-3.1979	-3.5646	-4.0229	-3.1958	-3.9333	-4.0125	-3.0875	-4.0208	-3.5104	-3.3729	-4.0062	-3.3021	-3.7833	-3.7313	129.816	446.621	322.860	179.080	426.183	306.933	432.020	169.072	348.367	271.141	232.424	427.948	353.353	264.508	411.938	414.714	0.00032713	0.00030621	5.6142e-05	1284.3	2.1079e-06	3.845e-06	1350.1	377.63	7.7807e-06	2.1912e-06	448.94	115.01	84.623	19.378	5.9576e-06	28.635	0.0002182	0.00021499	5.898e-05	1285.9	2.357e-06	2.3302e-06	1349.1	377.07	2.3541e-06	2.309e-06	444.18	114.49	84.37	19.641	2.3304e-06	28.992	187.877	200.488	179.293	125.837	257.391	250.424	124.929	129.417	233.655	255.739	128.201	132.033	133.588	137.431	295.881	136.540	-8191	255	
36630.590	1	1	0	0	0.19169	0.015721	0.19728	0.24329	0.19087	0.14861	0.29359	0.13602	0.093526	0.15756	0.13224	0.081971	0.090288	0.12721	0.15187	0.069791	-2.7812	-3.9979	-3.5187	-3.6042	-4.0104	-3.3417	-3.7146	-4.1396	-3.0375	-3.9792	-3.6562	-3.4354	-4.1687	-3.3875	-3.7354	-4.0333	408.473	118.376	191.392	406.405	254.642	303.011	372.849	372.709	205.605	139.315	296.983	343.601	173.302	437.911	431.522	375.182	0.00033393	0.00027988	0.00016503	1292.9	3.7516e-06	2.6156e-06	1357.4	378.79	4.482e-06	4.7727e-06	450.25	115.63	84.375	19.326	1.8152e-06	28.825	0.00021826	0.00021614	5.9596e-05	1291.3	2.3676e-06	2.3486e-06	1354.6	378.1	2.3758e-06	2.2936e-06	444.85	114.59	84.365	19.57	2.2758e-06	29.082	184.802	200.891	193.349	125.970	266.830	285.510	124.963	129.137	264.436	258.490	128.083	132.512	133.310	137.543	293.989	135.988	-8191	255	
36630.711	1	1	0	0	0.14711	0.1662	0.17253	0.10414	0.24712	0.042135	0.20759	0.15311	0.066399	0.060683	0.10163	0.053408	0.079699	0.27052	0.17642	0.23823	-2.8187	-3.975	-3.5792	-3.4375	-3.9479	-3.4021	-3.5875	-4.0229	-3.3604	-3.8417	-3.7438	-3.2188	-4.0604	-3.4792	-3.5875	-4.0125	264.306	238.083	355.011	383.905	300.131	193.549	427.181	353.408	460.230	273.951	406.576	219.027	325.627	462.578	170.086	374.225	0.00025826	0.00011803	5.0295e-05	1305.4	2.0555e-06	4.2935e-06	1367.8	383.65	4.6033e-06	2.7822e-06	451.97	116.3	86.257	19.762	1.9755e-06	29.365	0.00021759	0.00020615	5.8084e-05	1303.3	2.2947e-06	2.2377e-06	1366.4	382.45	2.3255e-06	2.3281e-06	449.42	116.15	85.773	20.079	2.2905e-06	29.65	195.695	238.132	259.900	125.790	253.890	258.261	124.951	129.021	235.184	282.420	128.426	132.132	133.002	137.487	326.284	135.824	-8191	255	
36630.805	1	1	0	0	0.04418	0.25852	0.15466	0.2209	0.071112	0.088744	0.40246	0.10243	0.33897	0.13751	0.056769	0.24325	0.25949	0.099226	0.21404	0.045068	-2.7917	-3.7021	-3.6292	-3.3792	-4.1312	-3.3125	-3.5542	-4.0563	-3.2188	-3.6708	-3.8688	-3.3292	-4.0188	-3.6333	-3.2646	-4.1396	323.572	139.686	192.674	456.745	404.655	427.698	403.579	406.476	184.978	111.430	127.745	466.785	154.933	408.193	220.188	373.707	0.00029958	0.00028266	0.00010027	1315.4	2.7741e-06	4.2581e-06	1376.5	386.6	3.5946e-06	8.3961e-06	457.17	117.55	85.834	19.878	2.8705e-06	29.03	0.00021318	0.00021033	5.7936e-05	1315.5	2.3386e-06	2.3495e-06	1377.6	385.58	2.3985e-06	2.3847e-06	451.43	116.29	85.659	20.079	2.3712e-06	29.377	188.761	216.179	130.509	125.809	265.109	210.136	124.948	129.219	251.131	242.378	128.227	132.438	133.026	137.785	266.301	136.402	-8191	255	
36630.902	1	1	0	0	0.076134	0.045733	0.12382	0.32023	0.17832	0.16158	0.17241	0.059403	0.13472	0.095552	0.18614	0.19646	0.12211	0.16647	0.10205	0.21553	-2.7458	-3.5104	-3.9	-3.2708	-3.8063	-3.5708	-3.5104	-4.0083	-3.3833	-3.575	-4.1417	-3.3042	-3.8917	-3.5396	-3.225	-3.9479	329.707	254.726	193.979	441.963	179.998	392.384	400.827	359.531	373.928	412.957	360.589	380.704	182.027	308.936	409.346	419.647	0.00034448	0.00033395	4.3104e-05	1299.1	3.6806e-06	3.1703e-06	1349.9	376.66	2.247e-06	2.6985e-07	442.63	112.66	82.573	18.902	2.9203e-06	27.979	0.00022434	0.00021644	5.992e-05	1297.6	2.393e-06	2.3529e-06	1351.1	375.87	2.3802e-06	2.3246e-06	438.79	112	82.572	19.238	2.3423e-06	28.153	183.570	186.967	119.439	125.880	264.171	336.073	125.133	129.195	243.044	213.487	128.217	131.883	133.003	137.654	247.335	136.234	-8191	255	
36630.996	1	1	0	0	0.23825	0.14845	0.092385	0.26714	0.17945	0.14912	0.17282	0.15964	0.081135	0.22788	0.18602	0.3128	0.18217	0.12895	0.31556	0.22454	-3.0208	-3.3021	-3.9125	-3.3917	-3.6771	-3.8625	-3.3854	-4.2292	-3.3688	-3.4625	-4.1417	-3.1562	-3.8521	-3.7792	-3.175	-4.1062	381.705	250.263	133.457	421.982	233.252	456.961	449.722	370.340	133.228	184.634	440.526	464.817	117.203	188.940	456.623	306.885	0.00034017	3.2663e-05	9.5731e-05	1283.9	2.7301e-06	5.7363e-06	1344.9	373.1	3.1378e-06	1.657e-07	442.59	110.92	81.69	18.645	2.8522e-06	27.766	0.00021742	0.00021319	5.9194e-05	1280.8	2.3788e-06	2.3498e-06	1342.9	371.49	2.3594e-06	2.3429e-06	436.91	110.87	81.805	19.051	2.3171e-06	28.184	193.776	293.155	224.198	126.166	279.388	228.764	124.912	129.285	289.803	217.331	128.135	132.217	133.161	137.737	287.664	136.165	-8191	255	
36631.117	1	1	0	0	0.10882	0.094683	0.096783	0.095211	0.087491	0.24297	0.17768	0.12304	0.054966	0.19664	0.23642	0.21509	0.14455	0.21533	0.10011	0.10402	-3.1771	-3.3146	-3.8521	-3.3542	-3.65	-3.6604	-3.325	-4.0208	-3.6063	-3.3271	-3.9938	-3.2479	-3.55	-3.8854	-3.175	-4.0333	135.054	168.566	179.819	432.672	287.751	318.267	401.124	121.457	245.243	238.652	380.167	456.611	408.798	423.314	111.440	262.365	0.00028855	0.00038439	0.00019386	1297.6	1.9345e-06	6.2524e-06	1363.6	379.74	4.8666e-06	5.5171e-06	448.7	113.55	84.151	19.377	3.4286e-06	28.73	0.00021868	0.00021096	5.8715e-05	1297	2.364e-06	2.2988e-06	1361.8	378.49	2.3563e-06	2.382e-06	444.3	113.22	83.993	19.555	2.3902e-06	28.84	197.511	207.437	225.310	126.139	346.930	288.153	124.946	129.214	217.492	219.704	128.157	131.757	132.708	137.198	251.904	136.146	-8191	255	
36631.188	1	1	0	0	0.20994	0.047561	0.2245	0.30224	0.27054	0.16626	0.086563	0.16937	0.21618	0.082021	0.26638	0.11743	0.2133	0.12553	0.2119	0.33341	-3.1917	-3.1958	-3.9667	-3.5125	-3.4562	-3.8771	-3.4292	-4.1958	-3.6188	-3.2646	-4.2063	-3.325	-3.4979	-3.8521	-3.2021	-4.0208	316.402	443.475	234.482	433.483	331.405	403.986	419.292	402.738	462.306	338.413	402.210	164.055	339.034	413.633	168.085	400.468	0.00034657	0.00052828	0.00026015	1313.9	4.2453e-06	5.573e-06	1375.9	382.99	3.9795e-06	7.6309e-06	456.84	116.02	85.32	19.505	2.7173e-06	29.053	0.00022334	0.00022183	6.0193e-05	1311.1	2.4009e-06	2.3575e-06	1374.5	382.92	2.4064e-06	2.3892e-06	450.44	115.29	85.202	19.807	2.3924e-06	29.247	196.250	239.271	181.799	125.967	256.561	318.847	124.934	129.187	282.136	244.401	127.884	132.190	133.249	137.641	254.221	136.107	-8191	255	
36631.285	1	1	0	0	0.12047	0.035169	0.13818	0.2796	0.11816	0.14303	0.18888	0.11686	0.20546	0.041921	0.25705	0.14113	0.025948	0.40521	0.085506	0.14632	-3.3625	-3.1146	-3.9229	-3.4958	-3.4146	-3.9208	-3.4375	-3.8125	-3.8146	-3.3146	-4.2188	-3.7271	-3.4292	-4.0042	-3.1229	-3.5563	423.548	181.725	299.794	398.772	404.839	246.082	353.651	384.196	402.392	398.479	417.277	462.509	193.358	142.970	283.065	461.457	0.00032855	0.00037732	0.00019259	1324.1	4.0471e-06	3.3744e-06	1382.4	387.02	3.1366e-06	1.7665e-06	453.52	115.51	84.887	19.534	3.2752e-06	28.71	0.00022927	0.00022301	6.1539e-05	1323.8	2.4218e-06	2.3792e-06	1380.9	385.03	2.3583e-06	2.3707e-06	449.19	115.15	84.729	19.796	2.2859e-06	29.066	196.071	209.426	200.426	126.076	300.860	230.081	125.197	129.180	248.960	246.384	127.929	132.467	132.982	137.413	269.367	136.141	-8191	255	
36631.383	1	1	0	0	0.1091	0.024014	0.051159	0.098134	0.1226	0.24681	0.23417	0.043913	0.13499	0.057626	0.073391	0.080091	0.11249	0.21819	0.21351	0.14651	-3.5625	-3.1417	-3.875	-3.8542	-3.3667	-3.9542	-3.4375	-3.7521	-3.7146	-3.0729	-3.8917	-3.6063	-3.2604	-4.0104	-3.4021	-3.6708	211.023	447.699	132.129	421.903	269.124	136.710	362.827	214.717	387.794	290.642	112.889	147.484	137.898	188.257	264.562	424.513	0.00033035	5.7681e-05	7.1225e-05	1303.9	6.9078e-06	6.1461e-06	1357.1	377.49	4.5309e-06	2.6296e-06	445.06	112.81	84.001	19.021	1.8689e-06	28.345	0.00021439	0.00020961	5.8172e-05	1306.4	2.3426e-06	2.3183e-06	1358.7	377.74	2.3176e-06	2.3426e-06	440.3	112.52	83.163	19.385	2.3031e-06	28.423	189.925	144.159	185.361	125.963	260.553	258.104	124.887	129.109	274.663	211.988	127.822	132.206	132.976	137.613	268.217	136.193	-8191	255	
36631.504	1	1	0	0	0.089698	0.17064	0.097512	0.19369	0.07288	0.12444	0.29418	0.12167	0.26175	0.14364	0.26544	0.19925	0.22077	0.1489	0.053051	0.24142	-3.575	-3.1375	-3.8229	-3.8104	-3.3625	-4.075	-3.7542	-3.5438	-3.8979	-3.4813	-3.9979	-3.8042	-3.25	-3.9479	-3.4375	-3.35	238.530	291.392	411.991	368.054	413.059	374.071	368.564	398.252	350.824	393.854	458.750	355.019	114.767	251.469	324.475	447.741	0.00034318	0.00039778	7.6428e-05	1291.4	2.7277e-06	2.5418e-06	1350.8	378.3	1.7187e-06	3.827e-06	446.31	113.56	84.279	19.371	3.5253e-06	28.196	0.00021466	0.0002101	5.7899e-05	1292.7	2.2995e-06	2.2304e-06	1350.1	376.69	2.2941e-06	2.2775e-06	440.12	113.04	83.909	19.667	2.259e-06	28.688	189.503	196.937	200.007	125.880	275.329	220.242	125.111	129.086	210.989	249.475	128.249	132.254	133.146	138.093	266.907	135.739	-8191	255	
36631.598	1	1	0	0	0.11535	0.23538	0.10551	0.10985	0.27802	0.18213	0.064575	0.12688	0.072866	0.17207	0.10829	0.30261	0.19931	0.23129	0.085298	0.15983	-3.7188	-3.05	-3.5708	-3.8979	-3.1125	-3.9583	-3.6167	-3.4396	-3.9458	-3.2687	-3.8875	-4.0375	-3.3125	-3.9042	-3.4	-3.3937	151.360	185.001	249.352	461.130	249.433	206.189	440.420	421.720	261.703	463.507	417.053	397.676	238.405	426.070	457.624	325.946	0.00032307	0.00028553	9.1959e-05	1300.2	2.2873e-06	4.4346e-06	1358.4	381.06	4.661e-06	5.9208e-06	447.55	114.6	85.056	19.705	5.4736e-06	28.814	0.00020941	0.00020714	5.8128e-05	1300.9	2.3011e-06	2.2339e-06	1358.8	379.93	2.2663e-06	2.2637e-06	443.66	114.23	84.69	19.814	2.2241e-06	29.053	190.179	208.478	193.595	126.026	273.563	275.521	125.053	129.046	276.854	273.457	127.766	132.051	133.055	137.260	313.851	135.702	-8191	255	
36631.695	1	1	0	0	0.12939	0.11767	0.046071	0.094961	0.17614	0.053984	0.38378	0.3066	0.16232	0.20245	0.19752	0.080741	0.087937	0.21795	0.2585	0.23052	-3.6229	-3.3	-3.5812	-4.0625	-3.1542	-3.8458	-3.725	-3.4146	-3.9958	-3.2417	-3.75	-4.0479	-3.0625	-3.8375	-3.5979	-3.3583	324.468	160.697	236.975	448.168	377.636	384.527	442.757	447.685	304.972	398.156	465.952	465.141	415.422	417.356	380.447	435.234	0.00030925	0.00032437	8.5862e-05	1310.4	3.9577e-06	4.0199e-06	1372.9	385.07	2.8456e-06	7.8615e-06	451.51	116.86	85.796	19.719	2.6012e-06	29.275	0.00021128	0.00020636	5.6664e-05	1311	2.2784e-06	2.2353e-06	1372.7	383.51	2.2319e-06	2.2109e-06	447.59	115.81	85.43	19.916	2.2171e-06	29.39	190.755	145.245	220.310	126.244	290.272	332.840	125.014	129.037	284.421	228.917	128.264	131.942	133.074	137.628	315.907	135.779	-8191	255	
36631.789	1	1	0	0	0.098277	0.15001	0.084205	0.18237	0.066735	0.20742	0.14374	0.29998	0.19782	0.12756	0.19872	0.26361	0.0080026	0.11047	0.088512	0.23101	-3.6063	-3.2271	-3.5208	-4.0708	-3.125	-3.7812	-3.9729	-3.5667	-3.9667	-3.4813	-3.7458	-3.9437	-3.3104	-3.7438	-3.8479	-3.1771	395.903	379.495	407.504	457.650	229.622	289.804	406.698	410.940	361.864	383.123	437.816	386.069	333.367	174.334	175.108	459.240	0.0003963	0.00051147	0.00015657	1323.9	3.9558e-06	3.8107e-06	1379.9	383.25	2.8812e-06	4.1219e-06	452.01	115.66	85.186	19.522	1.8661e-06	28.635	0.00020658	0.00020264	5.6273e-05	1321.8	2.221e-06	2.1789e-06	1375.5	383.05	2.1722e-06	2.1647e-06	446.94	114.95	84.769	19.736	2.1654e-06	28.89	186.311	222.122	170.751	125.871	267.148	287.323	125.067	128.997	248.726	248.852	127.802	132.039	133.286	137.172	315.481	136.107	-8191	255	
36631.887	1	1	0	0	0.085795	0.089779	0.03813	0.10983	0.1787	0.086428	0.37838	0.27409	0.16055	0.047322	0.32374	0.047055	0.16755	0.10534	0.21222	0.21447	-3.675	-3.4604	-3.4	-4.0521	-3.225	-3.7042	-3.9604	-3.3354	-4.0479	-3.6167	-3.5062	-4.1167	-3.3563	-3.4	-3.9062	-3.1979	308.032	280.148	466.849	375.560	316.193	117.573	406.744	374.360	324.724	388.390	460.760	402.504	431.061	240.206	177.095	287.461	0.00034277	0.00029951	0.00016552	1309.1	2.8768e-06	2.9569e-06	1355.1	378.43	3.0681e-06	3.0014e-06	443.18	113.54	83.703	19.209	1.6089e-06	28.171	0.0002007	0.00020189	5.5086e-05	1303.8	2.2605e-06	2.1519e-06	1351.3	377.11	2.2321e-06	2.155e-06	438.87	112.78	83.652	19.444	2.1891e-06	28.387	191.675	254.187	172.626	125.998	238.692	249.025	125.024	129.086	261.420	235.729	127.740	131.898	132.923	137.528	250.644	135.628	-8191	255	
36631.980	1	1	0	0	0.16476	0.12179	0.036313	0.30476	0.11448	0.18933	0.32583	0.070494	0.095144	0.12418	0.17451	0.14841	0.042222	0.14436	0.099364	0.094154	-3.5354	-3.5083	-3.4083	-4.0479	-3.3563	-3.4688	-3.9542	-3.4896	-3.8438	-3.7479	-3.3146	-4.0083	-3.4521	-3.5812	-3.9104	-3.3708	246.350	220.120	385.601	430.697	235.252	385.517	433.783	440.921	197.720	345.810	349.654	451.431	208.947	172.865	197.941	185.436	0.00031419	0.00018101	0.00012058	1289.1	5.011e-06	3.1099e-06	1342.3	375.43	5.6263e-06	3.0944e-06	439.19	112.57	83.141	19.105	3.3699e-06	27.756	0.00020423	0.00020285	5.6114e-05	1290.2	2.2315e-06	2.1593e-06	1343.5	374.36	2.257e-06	2.1915e-06	436.16	111.78	82.682	19.198	2.129e-06	28.077	187.184	238.182	181.483	126.046	282.939	245.610	125.182	128.860	231.636	217.143	127.956	132.123	133.028	137.496	248.492	135.951	-8191	255	
36632.078	1	1	0	0	0.085462	0.14349	0.30608	0.38755	0.20217	0.22279	0.15774	0.33108	0.27296	0.053871	0.1366	0.084311	0.098979	0.12959	0.048972	0.31021	-3.4521	-3.5521	-3.1542	-4.4042	-3.375	-3.3125	-4.175	-3.3187	-3.6521	-3.95	-3.3646	-4.0125	-3.6229	-3.4	-4.0542	-3.4125	157.865	251.282	440.119	448.121	395.704	387.154	456.216	153.257	312.996	292.427	469.747	380.120	407.730	327.252	424.377	397.583	0.00036434	0.00035124	2.9875e-05	1292.8	3.1687e-06	2.0937e-06	1349.9	375.05	4.4122e-06	6.7056e-07	445.17	113	83.448	19.108	3.0298e-06	28.228	0.00020169	0.00019572	5.4298e-05	1288.9	2.1398e-06	2.086e-06	1345.1	373.94	2.1336e-06	2.0512e-06	438.24	112.13	83.099	19.321	2.0829e-06	28.407	184.519	207.748	200.127	125.765	295.829	328.965	124.976	129.163	259.516	255.031	127.800	132.097	133.034	137.481	330.786	136.072	-8191	255	
36632.199	1	1	0	0	0.20032	0.13847	0.16001	0.18158	0.013756	0.24035	0.20822	0.091387	0.14819	0.1259	0.19303	0.12137	0.22521	0.1586	0.14512	0.090753	-3.3125	-3.8917	-3.1125	-4.1562	-3.5438	-3.2729	-4.1542	-3.5104	-3.6354	-4.05	-3.175	-3.9167	-3.5479	-3.2812	-4.0667	-3.3375	169.483	407.022	305.486	405.776	245.667	243.366	396.766	367.078	170.797	421.824	328.643	156.215	470.468	148.137	161.681	350.452	0.00026942	0.00034527	0.000176	1301.9	5.0549e-06	6.365e-06	1362.7	381.57	2.5505e-06	3.8785e-06	449.57	114.64	84.739	19.432	2.8295e-06	28.854	0.00019398	0.00019146	5.2082e-05	1303.4	2.0736e-06	2.0244e-06	1362.3	379.96	2.0504e-06	2.0729e-06	444.5	113.91	84.274	19.644	2.0088e-06	28.847	188.060	146.209	160.371	125.979	258.148	282.598	125.083	129.251	272.904	220.726	127.983	132.064	133.167	137.535	299.072	135.650	-8191	255	
36632.293	1	1	0	0	0.048258	0.18836	0.092429	0.40346	0.10943	0.18438	0.062934	0.1796	0.29694	0.14113	0.082973	0.20074	0.20264	0.22722	0.22066	0.10626	-3.1958	-3.7708	-3.2	-3.9021	-3.7583	-3.0812	-4.1604	-3.6	-3.6042	-4.0625	-3.2729	-3.9958	-3.7812	-3.2958	-4.0104	-3.3875	187.775	252.610	270.969	433.427	467.941	130.594	396.014	385.391	337.305	404.222	156.705	398.548	430.121	396.255	353.301	382.381	0.00030085	0.00032777	0.00019335	1317.7	3.6245e-06	5.6968e-06	1374	383.2	3.8904e-06	4.5382e-06	449.2	114.65	84.183	19.259	3.346e-06	28.137	0.00019244	0.00018328	5.202e-05	1317.9	2.0239e-06	2.0177e-06	1371.9	381.93	2.0552e-06	1.9857e-06	444.05	113.64	83.84	19.401	2.0252e-06	28.305	186.275	219.720	204.028	125.955	276.823	266.833	124.894	129.191	234.776	293.202	128.050	131.920	132.815	137.410	282.237	136.373	-8191	255	
36632.391	1	1	0	0	0.083398	0.074881	0.21904	0.23408	0.17545	0.14878	0.15401	0.060904	0.037573	0.10254	0.15848	0.10074	0.069729	0.066824	0.035354	0.28501	-3.0917	-4.0354	-3.3542	-3.7958	-3.7917	-3.2417	-4.1521	-3.625	-3.5187	-3.9917	-3.4083	-3.5687	-3.8667	-3.1833	-3.9875	-3.5792	124.213	351.623	337.963	400.456	458.312	172.907	347.592	395.649	460.531	249.781	373.413	280.229	210.829	347.618	449.090	252.507	0.00029881	0.00010141	0.00014558	1299.9	4.9028e-06	8.7303e-07	1348.4	375.13	4.8266e-06	4.8807e-06	441.5	111.67	82.861	18.696	2.6508e-06	27.451	0.00019123	0.00018137	5.1281e-05	1294.7	2.0092e-06	2.0098e-06	1345.1	374.16	2.0309e-06	1.9865e-06	434.94	111.08	82.408	18.943	1.9729e-06	27.69	191.161	247.054	219.671	125.867	258.588	275.590	124.858	129.303	291.898	279.619	128.002	132.271	133.099	137.354	235.137	135.748	-8191	255	
36632.484	1	1	0	0	0.29015	0.20325	0.028771	0.168	0.15366	0.18437	0.15422	0.12262	0.16894	0.20925	0.16095	0.17719	0.016047	0.12478	0.23148	0.15723	-2.8375	-4.0896	-3.1667	-3.7812	-3.6646	-3.0563	-4.1292	-3.8396	-3.2625	-3.7979	-3.4104	-3.5375	-3.9896	-3.3333	-3.9521	-3.6583	445.201	431.064	340.174	408.110	408.470	239.304	270.016	440.924	291.528	214.289	280.562	126.552	147.433	390.645	357.009	150.398	0.00027077	0.00053139	9.9856e-05	1294	3.5593e-06	2.4887e-06	1340.4	375.37	3.3053e-06	3.5662e-06	441.52	111.93	83.136	18.77	3.9292e-06	27.705	0.0001915	0.00018094	5.135e-05	1289.8	2.0357e-06	1.9863e-06	1342.8	373.56	2.0345e-06	2.0051e-06	436.44	111.24	82.443	18.938	1.9898e-06	27.872	182.652	193.016	192.934	125.931	267.086	207.509	125.057	129.095	297.402	314.924	128.124	131.817	133.272	137.436	264.949	136.097	-8191	255	
36632.582	1	1	0	0	0.18218	0.16023	0.15243	0.16059	0.18103	0.20762	0.054642	0.29663	0.23651	0.044949	0.22245	0.064216	0.079011	0.17252	0.20391	0.37877	-2.975	-3.9417	-3.3438	-3.675	-3.8333	-3.1875	-4.0042	-4.0021	-3.25	-3.9708	-3.4813	-3.5187	-3.9188	-3.1188	-3.7062	-3.9	451.301	411.994	225.678	291.418	153.741	191.473	154.147	397.884	308.662	221.025	111.786	310.062	391.080	364.446	219.618	375.019	0.00033473	0.00034065	0.00012696	1295.1	1.555e-06	5.1768e-06	1355.4	379.99	3.902e-06	3.0258e-06	445.84	113.08	83.328	18.905	3.9914e-06	27.794	0.00019255	0.00018672	5.163e-05	1293.6	2.0688e-06	2.063e-06	1351.7	377	2.1125e-06	2.0223e-06	440.25	112.64	83.294	19.122	2.0438e-06	28.045	192.817	298.290	225.074	126.009	222.176	299.772	124.986	129.285	232.001	250.972	128.228	132.251	133.236	137.355	289.386	136.185	-8191	255	
36632.680	1	1	0	0	0.26628	0.17714	0.19983	0.19493	0.16854	0.069461	0.26606	0.22269	0.20603	0.067834	0.32048	0.19424	0.21769	0.038233	0.16218	0.28508	-2.7313	-3.9562	-3.4437	-3.5792	-3.9917	-3.2542	-3.8229	-4.0521	-3.2646	-4.0458	-3.6188	-3.3792	-4.0417	-3.2396	-3.7021	-3.8417	193.914	337.849	397.473	470.969	171.479	131.718	412.474	389.008	262.268	466.046	441.477	128.407	187.979	302.920	424.369	436.150	0.00029939	0.00041647	0.00010674	1304.8	4.4711e-06	3.996e-06	1361.6	381.79	1.7399e-06	1.8453e-06	451.4	115.06	84.919	19.305	4.339e-06	28.418	0.00019303	0.00018456	5.2234e-05	1304.4	2.0584e-06	2.0407e-06	1359.8	380.53	2.0635e-06	1.9892e-06	445.36	114.1	84.472	19.445	1.9901e-06	28.589	184.257	216.079	148.412	125.972	257.485	255.612	125.133	129.320	306.936	215.529	127.991	132.011	132.956	137.507	249.522	136.386	-8191	255	
36632.801	1	1	0	0	0.10167	0.056341	0.1284	0.13296	0.24146	0.11049	0.20628	0.083058	0.28707	0.16061	0.16764	0.2829	0.15898	0.070845	0.15488	0.19514	-2.7583	-3.7833	-3.6021	-3.5167	-4.2146	-3.2875	-3.7208	-4.0958	-3.1688	-3.9354	-3.8083	-3.3208	-3.9813	-3.3438	-3.3583	-4.0458	205.229	349.881	323.888	459.681	443.703	412.372	123.532	168.882	156.704	179.786	434.896	447.539	184.829	164.494	137.840	452.847	0.00028428	0.00025002	0.00014603	1313.5	3.746e-06	3.9624e-06	1360.4	381.58	3.9319e-06	4.1062e-06	449.37	113.45	83.507	19.166	1.3807e-06	27.935	0.0001908	0.00018395	5.122e-05	1307.8	2.0294e-06	2.038e-06	1361.3	380.15	2.036e-06	1.9876e-06	442.97	113.04	83.194	19.235	1.9664e-06	28.151	179.167	182.330	139.544	126.047	278.605	246.150	125.046	129.183	264.639	213.228	127.956	132.338	133.400	137.211	242.655	135.931	-8191	255	
36632.895	1	1	0	0	0.19972	0.1015	0.20564	0.1293	0.15676	0.1849	0.13029	0.12909	0.15232	0.10969	0.020569	0.175	0.007834	0.15716	0.15398	0.082976	-2.7979	-3.5833	-3.6729	-3.3812	-4.0312	-3.4583	-3.6167	-3.9375	-3.2521	-3.8229	-3.8708	-3.0917	-4.0958	-3.6562	-3.4292	-4.0104	137.951	303.279	139.761	460.588	269.530	207.486	391.679	403.130	409.444	433.008	189.352	332.954	440.570	447.220	129.239	285.544	0.00031286	0.00057538	0.00010734	1285	3.3521e-06	2.7717e-06	1348.1	374.1	2.8794e-06	3.1682e-06	439.07	111.31	82.264	18.848	5.051e-06	27.64	0.00018455	0.00017988	4.9889e-05	1285	1.9789e-06	1.9331e-06	1341.4	372.59	1.9658e-06	1.9457e-06	433.5	110.69	81.884	18.988	1.9373e-06	27.822	190.244	216.653	192.458	126.123	251.641	301.843	124.977	129.307	280.238	215.740	128.075	132.176	133.101	137.579	284.752	136.153	-8191	255	
36632.988	1	1	0	0	0.15887	0.18149	0.17118	0.17376	0.19311	0.27187	0.19465	0.13721	0.090747	0.23148	0.1021	0.12278	0.34804	0.085072	0.060799	0.079463	-2.975	-3.6042	-3.875	-3.3542	-3.9604	-3.4813	-3.4146	-4.1562	-3.2604	-3.5312	-3.9271	-3.3708	-3.9562	-3.6104	-3.4354	-4.0938	133.768	407.827	417.583	434.402	296.874	309.581	389.347	437.785	243.796	318.778	358.616	454.929	330.807	379.032	143.145	279.110	0.0002813	0.00025243	2.619e-05	1282.1	3.2334e-06	4.8168e-06	1345.3	375.51	4.6049e-06	1.5197e-06	443.39	111.91	82.86	18.982	4.3019e-06	27.861	0.00018392	0.00018035	4.9688e-05	1280.7	1.9747e-06	1.9783e-06	1341.3	373.2	1.9936e-06	1.9586e-06	436.35	111.06	82.24	19.091	1.9982e-06	28.031	189.667	206.201	249.780	125.899	251.598	305.819	125.018	129.158	235.596	228.373	127.846	132.333	133.040	137.838	261.405	136.372	-8191	255	
36633.062	1	1	0	0	0.22321	0.19173	0.088255	0.09503	0.13733	0.14344	0.28892	0.22023	0.060881	0.10312	0.30946	0.081147	0.20863	0.26579	0.17016	0.1126	-3.1458	-3.3563	-3.9646	-3.3104	-3.9604	-3.6229	-3.5312	-4.1771	-3.5146	-3.4271	-4.0687	-3.1625	-3.8021	-3.7	-3.2833	-4.0917	395.061	202.509	329.225	391.029	361.517	160.616	111.390	391.940	332.690	244.095	291.464	121.739	424.690	463.070	445.719	412.659	0.00032078	0.00017088	4.0516e-05	1299.5	4.2461e-06	1.2359e-06	1353.1	379.47	4.0386e-06	3.3068e-06	445.69	112.56	83.32	18.953	3.3432e-06	28.376	0.00018987	0.00018065	5.091e-05	1293.4	2.0319e-06	1.9722e-06	1353.1	377.08	2.0501e-06	2.0211e-06	440.66	112.18	83.019	19.219	2.019e-06	28.428	195.722	211.354	286.902	125.818	307.729	345.224	124.905	129.053	249.252	241.281	127.776	132.124	132.907	137.724	280.425	136.297	-8191	255	
36633.184	1	1	0	0	0.23398	0.22691	0.23718	0.14194	0.07848	0.079989	0.25873	0.25711	0.24845	0.27337	0.17387	0.23822	0.072451	0.16313	0.1624	0.063778	-3.1271	-3.2604	-3.8625	-3.4333	-3.8208	-3.7917	-3.2458	-4.0188	-3.4479	-3.3063	-4.0021	-3.4646	-3.5604	-3.9083	-3.0729	-3.9813	161.694	400.552	423.780	457.603	280.160	149.408	425.569	428.416	378.652	115.363	371.564	328.127	287.407	405.381	303.382	381.519	0.00027871	0.00020544	0.00012008	1310.5	2.2991e-07	4.4544e-06	1377.9	386.3	2.6946e-06	5.8137e-06	455.39	115.75	85.693	19.504	2.5133e-06	29.01	0.00018829	0.00018217	5.0237e-05	1309.3	2.0237e-06	1.9757e-06	1376.2	384.78	1.9933e-06	1.946e-06	450.41	114.78	84.775	19.659	1.9948e-06	29.073	197.115	399.616	260.957	125.885	285.252	285.053	124.952	129.077	299.790	255.487	127.794	132.121	133.112	137.800	318.367	136.163	-8191	255	
36633.277	1	1	0	0	0.28013	0.16675	0.11228	0.12309	0.147	0.16719	0.28938	0.080658	0.30619	0.26025	0.2003	0.14631	0.12594	0.062886	0.11774	0.18582	-3.0729	-3.2438	-3.9375	-3.4646	-3.5833	-3.8583	-3.6667	-4.0021	-3.7292	-3.2854	-4.2083	-3.5167	-3.5292	-3.7938	-3.1688	-3.8521	233.384	304.451	227.376	373.335	246.642	450.231	388.986	217.749	182.399	181.035	426.508	395.680	278.195	295.991	236.998	412.912	0.0003553	0.00034444	0.00013582	1325.5	2.8678e-06	3.3485e-06	1387	389.33	2.5694e-06	5.1061e-06	455.43	114.95	85.15	19.395	2.9736e-06	28.505	0.00019049	0.00018321	5.0312e-05	1327.5	2.0548e-06	2.0016e-06	1386.9	386.87	2.0495e-06	2.0199e-06	450.03	114.64	84.628	19.594	2.0272e-06	28.699	195.212	180.866	175.299	125.852	298.344	292.450	125.168	129.135	238.773	253.055	127.985	132.045	133.185	138.023	284.841	136.170	-8191	255	
36633.375	1	1	0	0	0.084981	0.013844	0.17849	0.21919	0.1531	0.15576	0.19626	0.15012	0.40184	0.12378	0.23412	0.13746	0.25811	0.24604	0.2745	0.0039967	-3.3896	-3.2646	-3.8625	-3.4833	-3.3688	-3.9062	-3.3958	-3.9479	-3.5854	-3.2833	-4.1	-3.4167	-3.3646	-4.05	-3.0354	-3.7167	374.584	234.712	117.983	431.110	131.367	458.513	382.410	161.857	129.633	155.883	468.626	470.516	398.888	156.702	138.728	450.987	0.0003231	0.0004885	0.0001072	1306.3	4.7832e-06	5.8081e-06	1356.8	378.95	4.9993e-06	3.8884e-06	444.17	111.89	83.285	18.932	1.801e-06	27.695	0.00019268	0.00018709	5.1357e-05	1306.2	2.0804e-06	2.0414e-06	1356.1	378.19	2.0961e-06	2.0798e-06	439.9	111.6	82.711	19.093	2.0572e-06	27.983	183.804	177.960	197.208	125.855	254.951	275.266	124.996	129.039	269.608	203.936	128.002	132.177	132.768	137.446	258.763	135.949	-8191	255	
36633.469	1	1	0	0	0.033522	0.11521	0.11571	0.2124	0.11011	0.095098	0.2543	0.12594	0.098204	0.066908	0.11228	0.31061	0.2633	0.27516	0.090976	0.1095	-3.4667	-3.1771	-3.8875	-3.6271	-3.2812	-3.875	-3.3854	-3.7417	-3.8	-3.2271	-4.0583	-3.5521	-3.3688	-4.0417	-3.325	-3.5563	182.025	284.259	242.711	431.681	235.203	451.551	443.672	413.854	135.484	197.473	464.494	449.335	225.708	431.228	402.631	378.258	0.00027613	0.00052394	0.00013717	1290	3.4318e-06	4.678e-06	1352.2	377.35	4.5646e-06	9.4343e-07	442.72	111.71	82.534	18.768	3.3486e-06	27.921	0.00019565	0.00019217	5.342e-05	1291.9	2.1132e-06	2.1108e-06	1348.1	375.73	2.1688e-06	2.1153e-06	438.6	111.45	82.547	19.077	2.1389e-06	28.058	187.546	193.210	198.037	125.911	287.264	356.579	124.727	129.168	257.543	400.899	128.032	131.873	133.298	137.426	224.890	136.015	-8191	255	
36633.590	1	1	0	0	0.037791	0.13282	0.08981	0.39076	0.13727	0.37027	0.30113	0.1386	0.14543	0.18063	0.34048	0.16566	0.38197	0.085333	0.17249	0.16611	-3.6063	-3.0708	-3.8167	-3.8	-3.2479	-3.9542	-3.5396	-3.6646	-3.9562	-3.0875	-4.0083	-3.7646	-3.3563	-3.95	-3.4292	-3.4021	297.675	447.499	387.386	404.629	373.986	250.028	435.551	443.943	274.183	127.529	432.224	281.736	374.246	210.766	360.886	144.145	0.00031458	7.9323e-05	9.9221e-05	1301.8	2.1004e-06	5.439e-06	1358.1	381.39	3.8134e-06	6.7475e-07	447.52	113.81	83.382	19.113	4.8529e-06	28.286	0.0001991	0.00019662	5.4937e-05	1298	2.1628e-06	2.1147e-06	1357.1	378.67	2.1724e-06	2.1599e-06	441.97	112.89	83.402	19.41	2.19e-06	28.506	182.271	208.631	162.013	125.819	320.024	266.823	125.068	129.101	260.056	165.322	127.899	132.354	133.012	137.498	273.701	135.846	-8191	255	
36633.660	1	1	0	0	0.039358	0.02123	0.08635	0.16904	0.14418	0.13842	0.17688	0.097744	0.30007	0.39858	0.23566	0.13314	0.19273	0.056958	0.27243	0.12412	-3.6896	-3.2542	-3.6958	-3.8208	-3.3854	-4.0979	-3.5833	-3.7188	-3.9313	-3.2521	-3.7208	-3.8292	-3.2583	-3.9771	-3.5917	-3.45	336.090	264.399	296.052	453.920	179.887	224.804	361.824	461.970	270.560	264.645	402.919	412.028	300.413	275.120	119.679	118.836	0.00029562	0.00051018	3.3752e-05	1311.3	4.4553e-07	8.9528e-06	1364.5	381.16	3.3878e-06	3.2144e-06	450.11	113.79	83.425	19.146	3.8402e-06	28.253	0.00020543	0.00020274	5.6584e-05	1308.7	2.217e-06	2.1993e-06	1364.6	379.6	2.2165e-06	2.1555e-06	445.1	113.17	83.36	19.461	2.234e-06	28.608	181.053	192.209	298.548	125.860	413.493	289.130	125.197	128.907	287.885	250.579	127.763	132.152	133.005	137.478	283.346	135.811	-8191	255	
36633.758	1	1	0	0	0.066354	0.12604	0.054526	0.077415	0.28612	0.21171	0.08533	0.20889	0.13943	0.27593	0.24387	0.20901	0.20618	0.10221	0.25817	0.024413	-3.4958	-3.0729	-3.6312	-4.0771	-3.2354	-3.7854	-3.8104	-3.6104	-3.8146	-3.2687	-3.6521	-3.8979	-3.2375	-3.8042	-3.625	-3.2313	225.507	445.720	163.179	413.395	325.696	160.068	304.261	322.359	395.365	268.612	429.886	426.222	414.277	449.005	417.999	389.919	0.00033196	0.00038159	6.5819e-05	1310.4	4.023e-06	3.639e-07	1366.1	379.08	2.9987e-06	4.1148e-06	444.68	112.02	82.052	18.932	3.5309e-06	27.732	0.00020788	0.00020354	5.6287e-05	1308.6	2.255e-06	2.1953e-06	1365.2	377.36	2.1884e-06	2.2012e-06	439.16	111.19	81.585	19.113	2.2097e-06	27.905	191.882	215.993	225.687	125.990	273.281	170.503	125.167	129.077	262.054	293.427	127.949	132.420	132.987	137.766	256.536	136.135	-8191	255	
36633.879	1	1	0	0	0.057957	0.16118	0.31295	0.24729	0.055345	0.148	0.20849	0.077383	0.13666	0.042171	0.29235	0.19998	0.33701	0.17256	0.048497	0.054207	-3.7354	-3.2854	-3.4833	-3.9688	-3.2313	-3.8187	-3.9104	-3.4167	-4.1167	-3.4583	-3.725	-3.9229	-3.2729	-3.7438	-3.7542	-3.2896	314.512	367.214	247.460	437.475	186.136	273.715	434.567	387.776	375.693	137.504	447.193	434.456	394.562	186.073	243.145	135.313	0.00028176	0.0003551	0.00013265	1276.8	4.7186e-06	2.182e-06	1334.8	367.92	4.1264e-06	4.3455e-06	431.96	108.17	79.732	18.475	1.9847e-06	27.46	0.00020644	0.00020211	5.6929e-05	1277.4	2.2646e-06	2.2142e-06	1333.1	366.83	2.2818e-06	2.2607e-06	427.39	108.11	79.664	18.794	2.2253e-06	27.653	191.559	225.728	196.835	125.932	255.507	339.944	125.178	129.004	255.575	232.291	128.143	132.428	133.362	137.957	270.301	136.388	-8191	255	
36633.973	1	1	0	0	0.32079	0.17882	0.1921	0.12228	0.24419	0.0984	0.055555	0.21213	0.092131	0.18921	0.22586	0.25203	0.33787	0.11499	0.036712	0.31067	-3.6083	-3.4313	-3.3646	-4.2417	-3.25	-3.8521	-4.1	-3.0958	-3.9062	-3.4604	-3.5187	-4.1896	-3.2958	-3.6979	-3.7521	-3.1583	177.269	225.297	363.573	114.103	319.167	142.387	404.726	468.903	438.380	410.592	418.774	419.159	387.289	125.563	238.376	302.500	0.00034495	0.00032867	0.00010051	1268.6	2.9051e-06	3.0848e-06	1338.1	369.17	4.2139e-06	6.9333e-06	435.49	109.94	81.372	18.659	3.7187e-06	27.656	0.00020632	0.00020449	5.6711e-05	1270.4	2.2354e-06	2.2211e-06	1333.9	368.32	2.2508e-06	2.2198e-06	430.72	109.4	81.059	18.995	2.2181e-06	27.875	196.055	191.885	211.697	126.020	257.181	215.539	125.342	129.047	282.199	175.977	127.929	132.172	133.309	137.154	288.167	135.468	-8191	255	
36634.070	1	1	0	0	0.21229	0.11407	0.15289	0.35503	0.068068	0.15959	0.20874	0.059485	0.1073	0.10258	0.11441	0.18727	0.3079	0.023776	0.11773	0.23426	-3.6083	-3.5125	-3.3292	-4.0375	-3.4167	-3.5354	-3.9313	-3.3917	-3.9021	-3.5771	-3.3542	-4.075	-3.3583	-3.3917	-3.85	-3.3563	218.240	432.374	280.718	131.462	209.564	156.295	428.643	448.762	461.355	186.110	133.469	174.801	364.685	175.503	183.631	379.829	0.0002655	0.00010074	0.00012943	1285.7	6.1112e-06	1.5083e-06	1342.3	372.36	4.8276e-06	2.8816e-06	437.86	110.76	82.328	18.925	7.5956e-07	27.857	0.00020318	0.00019743	5.5167e-05	1286.2	2.2172e-06	2.1746e-06	1343.3	371.08	2.2144e-06	2.1745e-06	433.51	110.34	81.661	19.139	2.2238e-06	28.028	198.171	230.641	127.195	125.976	266.947	300.510	125.192	129.100	259.103	188.252	128.155	132.183	133.259	137.645	458.277	135.863	-8191	255	
36634.191	1	1	0	0	0.039497	0.12736	0.086976	0.24758	0.27154	0.17538	0.19966	0.19363	0.1474	0.29064	0.21081	0.16363	0.3396	0.13985	0.083865	0.19856	-3.4875	-3.6667	-3.1583	-4.0396	-3.4792	-3.6521	-4.1292	-3.375	-3.7833	-3.75	-3.3563	-4.05	-3.4521	-3.3646	-4.0792	-3.3812	280.781	189.225	122.395	395.260	292.692	169.112	405.561	411.129	312.857	201.118	428.826	401.193	469.692	447.620	405.226	385.882	0.00026693	0.00056119	7.8329e-05	1292	5.0624e-06	4.1743e-06	1349.1	372.64	5.6548e-06	4.93e-06	441.83	111.91	82.02	18.893	3.1435e-06	28.048	0.00020642	0.00020438	5.6702e-05	1290.2	2.2517e-06	2.1892e-06	1350	372.05	2.2081e-06	2.2124e-06	436.04	110.9	81.702	19.142	2.2021e-06	28.271	193.140	189.190	228.891	126.113	263.856	266.645	125.214	129.277	249.419	215.517	127.926	132.151	133.282	137.656	251.986	136.477	-8191	255	
36634.285	1	1	0	0	0.10741	0.2687	0.11595	0.060311	0.058366	0.090388	0.14997	0.30081	0.11044	0.11544	0.33537	0.19661	0.19765	0.16977	0.075172	0.21775	-3.4083	-3.8979	-3.1021	-4.0958	-3.6375	-3.2958	-4.2167	-3.3937	-3.8	-3.8667	-3.2729	-3.9562	-3.5938	-3.3063	-3.8812	-3.4813	433.408	196.585	470.299	446.437	422.516	223.182	112.570	466.205	369.612	354.140	430.355	359.107	340.083	377.235	371.547	131.946	0.00031805	0.00024042	5.3757e-05	1300.8	2.5031e-06	3.9379e-06	1353	373.49	3.0818e-06	6.0075e-07	437.63	110.56	81.965	18.65	2.7284e-06	27.341	0.00021238	0.00020335	5.6397e-05	1298.9	2.2411e-06	2.2051e-06	1353.4	372.05	2.2221e-06	2.1867e-06	433.96	110.15	81.201	18.877	2.1853e-06	27.648	187.021	224.773	147.888	125.991	227.219	245.053	125.226	129.243	268.241	357.945	127.775	132.135	133.265	137.518	306.301	135.766	-8191	255	
36634.359	1	1	0	0	0.034148	0.1209	0.16176	0.23157	0.26671	0.06368	0.28641	0.3303	0.039197	0.27935	0.31436	0.15128	0.053022	0.28078	0.090279	0.017158	-3.1333	-3.9333	-3.0083	-4.1792	-3.5687	-3.1833	-4.2854	-3.4333	-3.5479	-3.9542	-3.2208	-3.9521	-3.8646	-3.2521	-3.9729	-3.4375	354.969	324.299	248.627	450.612	215.050	124.799	421.605	421.284	448.466	350.187	118.661	440.815	459.469	400.559	163.117	168.977	0.00032227	0.00017264	2.8404e-05	1285.6	4.7914e-06	4.713e-06	1335.3	368.47	3.4225e-06	5.3565e-06	434.39	109.77	80.911	18.401	4.0479e-06	27.268	0.00020382	0.0002022	5.5573e-05	1283	2.1824e-06	2.2031e-06	1335.1	368.69	2.1922e-06	2.1738e-06	429.44	109.03	80.783	18.707	2.1416e-06	27.469	185.900	149.923	228.384	126.143	283.339	272.067	124.977	129.202	275.691	220.243	127.815	132.241	133.342	137.265	299.439	135.674	-8191	255	
36634.453	1	1	0	0	0.27046	0.27358	0.076666	0.22711	0.25931	0.11665	0.25494	0.26677	0.0965	0.26455	0.14922	0.11302	0.099716	0.1177	0.35506	0.28677	-3.2896	-3.9667	-3.2104	-3.8917	-3.6813	-3.2146	-4.2854	-3.6667	-3.4979	-4.1417	-3.4875	-3.8708	-3.7521	-3.25	-3.9833	-3.5792	432.647	200.084	224.547	413.933	410.858	165.543	461.048	121.324	207.955	411.364	178.212	340.382	382.518	126.424	295.626	373.047	0.00027756	0.00039303	0.00010982	1277.4	4.9355e-06	3.1523e-06	1339.9	369.91	3.6763e-06	3.2666e-06	435.96	109.56	81.057	18.365	2.1683e-06	27.317	0.00020484	0.00019281	5.5225e-05	1278.2	2.1502e-06	2.1438e-06	1331.9	368.06	2.1756e-06	2.116e-06	429.38	109.01	80.491	18.655	2.1072e-06	27.489	192.106	205.959	170.624	125.982	265.670	300.332	125.114	129.049	274.127	213.853	127.973	132.252	133.025	137.358	266.177	135.865	-8191	255	
36634.574	1	1	0	0	0.1539	0.15702	0.063995	0.11799	0.18846	0.08424	0.16883	0.37753	0.15789	0.096011	0.073103	0.063765	0.12304	0.1093	0.34904	0.23069	-3.0208	-4.0979	-3.2292	-3.8604	-3.7792	-3.2479	-4.2562	-3.7792	-3.3583	-3.9625	-3.3667	-3.9021	-3.9583	-3.2792	-3.9896	-3.6833	443.430	200.077	124.343	263.572	437.069	308.207	442.011	408.088	423.043	271.826	179.792	154.292	324.078	288.708	456.621	445.322	0.00030297	0.00035885	0.00010581	1284.8	5.4898e-06	5.2393e-06	1338.8	371.01	3.1477e-06	3.2708e-06	437.09	110.63	81.772	18.622	3.2405e-06	27.66	0.00019777	0.00019072	5.3915e-05	1282	2.1078e-06	2.0896e-06	1340	370.08	2.1518e-06	2.0821e-06	432.79	109.93	81.382	18.889	2.0782e-06	27.894	191.736	112.097	226.674	126.025	244.095	235.363	125.249	129.134	285.510	215.139	127.873	131.974	133.110	137.732	292.150	136.338	-8191	255	
36634.672	1	1	0	0	0.069502	0.18067	0.12959	0.22951	0.15736	0.10895	0.2561	0.35168	0.3552	0.061272	0.23041	0.15631	0.055906	0.065907	0.14513	0.055172	-2.9896	-3.95	-3.4	-3.8646	-3.95	-2.9833	-4.2021	-3.9042	-3.1229	-3.9729	-3.575	-3.5167	-3.9458	-3.2229	-3.7625	-3.7333	272.291	159.229	428.833	410.349	335.945	194.940	460.843	423.890	133.612	454.189	114.500	422.228	249.294	257.974	184.372	151.817	0.00032168	0.00026689	0.0001227	1299.2	3.7849e-06	4.7579e-06	1361.9	376.05	3.0516e-06	3.1791e-06	445.5	112.7	83.001	19.155	4.6653e-06	28.298	0.0001957	0.00018793	5.3166e-05	1299.6	2.073e-06	2.044e-06	1359	374.92	2.0873e-06	2.0351e-06	440.64	111.79	82.65	19.251	2.0309e-06	28.346	187.729	157.591	191.102	125.730	273.008	264.626	125.056	129.404	278.340	271.009	127.945	132.299	132.975	137.833	268.874	136.161	-8191	255	
36634.766	1	1	0	0	0.26501	0.090282	0.13441	0.17755	0.15198	0.13678	0.19939	0.32153	0.27601	0.15086	0.12146	0.0368	0.21956	0.23359	0.27895	0.196	-2.7833	-3.9437	-3.4271	-3.5687	-4.1417	-3.0917	-3.8146	-4.1125	-3.1583	-3.8688	-3.7167	-3.3229	-4.0667	-3.2938	-3.6229	-3.8229	137.176	309.507	193.574	422.489	416.551	115.406	356.675	387.591	208.617	209.716	189.457	340.572	420.852	390.659	257.792	467.512	0.00033971	0.00051439	0.00013973	1308.6	3.091e-06	5.4303e-06	1363.3	376.25	2.952e-06	4.6774e-06	442.57	111.29	81.65	18.765	1.7994e-06	27.292	0.00019252	0.00018607	5.2846e-05	1307.5	2.0691e-06	2.0714e-06	1362.3	375.56	2.119e-06	2.061e-06	437.45	110.6	81.551	18.936	2.0439e-06	27.534	191.048	196.778	175.550	125.979	267.039	354.815	125.363	129.262	297.065	257.727	128.099	131.923	133.220	137.941	365.077	135.974	-8191	255	
36634.863	1	1	0	0	0.2097	0.071513	0.060089	0.23013	0.1891	0.26723	0.24851	0.30628	0.19998	0.27898	0.19828	0.17564	0.33669	0.18644	0.20763	0.19215	-2.7667	-3.8438	-3.4417	-3.5146	-4.0583	-3.3542	-3.7917	-4.0708	-3.1771	-3.7958	-3.7479	-3.3146	-4.0833	-3.575	-3.6604	-4.1604	136.867	317.900	190.714	433.399	330.204	389.021	407.456	405.784	424.533	299.474	123.535	393.536	303.072	391.699	276.822	381.537	0.00023692	0.0003432	0.00010083	1280.1	3.4445e-06	2.5457e-06	1336.8	370.15	3.7533e-06	5.0257e-06	433.1	108.97	80.54	18.444	1.5293e-06	27.238	0.00019543	0.00019061	5.2895e-05	1278.7	2.0921e-06	2.0817e-06	1335.4	366.84	2.1046e-06	2.0305e-06	429.49	108.44	80.014	18.62	2.0544e-06	27.329	192.134	248.884	214.561	126.067	260.092	357.118	125.024	129.068	311.522	201.519	128.013	132.223	133.003	137.757	246.058	136.373	-8191	255	
36634.957	1	1	0	0	0.3373	0.13755	0.23755	0.1996	0.11758	0.20639	0.18983	0.34801	0.16121	0.046294	0.12433	0.16151	0.18707	0.20483	0.22349	0.30179	-2.8937	-3.8417	-3.725	-3.4958	-3.9771	-3.4604	-3.7167	-4.15	-3.1833	-3.9354	-3.9271	-3.325	-3.9437	-3.4521	-3.4167	-4.0813	293.439	380.923	451.434	442.420	226.993	258.521	431.397	441.012	295.778	470.393	437.435	462.762	399.181	313.082	317.411	365.256	0.00030866	0.00050845	3.6897e-05	1286.2	2.1691e-06	2.2435e-06	1344	369.57	2.6902e-06	6.4224e-06	436.79	110.1	81.264	18.504	2.5707e-07	27.455	0.00019552	0.00018689	5.1398e-05	1281.9	2.0845e-06	2.0378e-06	1338.5	369.06	2.091e-06	2.0546e-06	431.31	108.84	80.332	18.692	2.0699e-06	27.642	189.454	204.757	119.175	125.990	243.121	305.451	125.016	129.141	273.609	252.922	127.970	132.091	133.255	137.825	458.265	135.968	-8191	255	
36635.055	1	1	0	0	0.097074	0.11485	0.071798	0.31991	0.24389	0.03927	0.32428	0.12456	0.1935	0.17226	0.24998	0.20186	0.15414	0.32645	0.18351	0.20985	-2.8312	-3.6437	-3.6125	-3.4896	-3.9083	-3.5458	-3.5917	-4.1729	-3.225	-3.6896	-3.9875	-3.3937	-4.1396	-3.7521	-3.3854	-4.0104	301.130	305.219	372.025	426.020	242.647	311.523	461.329	147.213	363.885	284.432	443.602	398.288	334.641	420.743	177.603	446.086	0.00030938	0.00046195	0.00010817	1293.4	5.0255e-06	5.3936e-06	1342.5	372.1	3.1394e-06	4.7745e-06	440.98	110.45	81.26	18.519	3.5836e-06	27.71	0.00019586	0.00019033	5.2435e-05	1287.8	2.0904e-06	2.1086e-06	1345.4	370.82	2.1481e-06	2.0586e-06	435.04	109.57	80.792	18.803	2.0579e-06	27.848	191.677	125.867	192.625	125.895	188.592	287.181	125.112	129.011	284.898	245.590	127.968	132.549	133.306	138.116	250.111	136.220	-8191	255	
36635.152	1	1	0	0	0.11774	0.20886	0.079582	0.20073	0.23349	0.29451	0.29097	0.23329	0.23671	0.19992	0.26072	0.043	0.21367	0.1654	0.17804	0.18044	-2.9458	-3.7021	-3.9292	-3.2292	-3.9354	-3.7146	-3.4771	-4.2396	-3.5104	-3.5833	-4.075	-3.2417	-3.9938	-3.6562	-3.2313	-4.0104	156.455	353.410	258.403	439.743	263.354	138.182	450.575	431.605	434.810	438.920	117.158	118.707	365.302	430.505	374.864	471.197	0.00031745	0.00019829	2.9164e-05	1298.2	3.1638e-06	2.9603e-06	1364.8	378.61	2.1907e-06	4.6277e-06	443.73	112.2	82.73	19.022	3.7398e-07	28.138	0.00019939	0.00018914	5.2706e-05	1299.7	2.1056e-06	2.0488e-06	1363.9	376.52	2.1539e-06	2.083e-06	439.21	111.65	82.266	19.138	2.086e-06	28.252	192.699	317.488	192.740	126.138	262.618	328.286	124.912	129.345	291.476	241.584	128.053	132.362	132.937	137.593	117.050	136.150	-8191	255	
36635.270	1	1	0	0	0.086049	0.11066	0.12716	0.05777	0.28731	0.064906	0.19438	0.14784	0.17648	0.1671	0.31904	0.045968	0.19605	0.25752	0.15781	0.048614	-3.0021	-3.45	-3.7917	-3.325	-3.7562	-3.6521	-3.2583	-3.9917	-3.3958	-3.5167	-4.2354	-3.3354	-3.7188	-3.7375	-3.2271	-4.0312	337.268	370.900	374.488	446.074	204.298	379.091	413.341	351.687	436.582	128.625	419.182	348.008	154.758	395.880	288.685	145.871	0.00033949	0.0002339	0.00017307	1310.8	3.4588e-06	3.4937e-06	1356.8	376.79	4.3704e-06	2.2523e-06	441.64	111.37	81.557	18.701	4.9636e-06	27.434	0.00019712	0.00019042	5.2077e-05	1307.1	2.0487e-06	2.0161e-06	1360.2	375.4	2.0633e-06	2.0431e-06	437.01	110.68	81.213	18.783	2.0544e-06	27.704	196.880	264.221	170.889	126.196	251.049	285.032	125.081	129.393	256.448	247.338	128.035	132.083	132.985	137.672	271.065	136.217	-8191	255	
36635.367	1	1	0	0	0.13679	0.11834	0.20889	0.12444	0.16277	0.068371	0.1339	0.33656	0.11912	0.17481	0.11782	0.1826	0.23235	0.04095	0.18938	0.069461	-3.2625	-3.2396	-4.0521	-3.4979	-3.4958	-3.9646	-3.4979	-4.1292	-3.5896	-3.2167	-4.1	-3.275	-3.6125	-3.8812	-3.3875	-4.0229	269.739	188.714	301.925	144.001	334.358	441.629	401.140	441.426	435.950	208.936	427.591	210.233	329.174	142.418	270.247	119.745	0.00028575	0.00026831	0.00014774	1287.5	5.1041e-06	6.6506e-06	1345.1	371.14	3.1649e-06	5.7458e-06	437.88	109.18	80.221	18.468	1.0319e-06	27.182	0.00018984	0.00018691	5.1926e-05	1286.2	2.1078e-06	2.0288e-06	1341.3	369.38	2.0668e-06	2.0217e-06	431.2	108.64	80.317	18.682	2.0125e-06	27.379	194.803	173.913	145.458	125.967	270.485	306.423	125.115	129.211	272.679	232.700	127.910	132.155	132.965	137.844	323.782	135.903	-8191	255	
36635.465	1	1	0	0	0.05441	0.040099	0.14109	0.29748	0.21903	0.15148	0.11235	0.072161	0.14553	0.20616	0.33781	0.12446	0.19309	0.10263	0.17689	0.13044	-3.325	-3.2938	-4.0521	-3.6229	-3.5521	-3.8375	-3.3479	-4.0271	-3.6396	-3.2562	-3.9604	-3.4729	-3.5583	-4.0125	-3.0625	-3.8271	145.598	157.731	388.010	457.175	248.872	184.730	323.516	203.770	111.533	362.022	442.400	180.226	191.092	344.409	118.978	386.140	0.00034236	0.00039239	0.0001321	1287	4.0994e-06	3.4949e-06	1340.6	371.88	6.0809e-06	3.9911e-06	440.35	110.07	81.251	18.714	4.4365e-06	27.686	0.00019064	0.00018764	5.0899e-05	1287.6	2.0363e-06	2.0047e-06	1343.1	370.96	2.0019e-06	1.9735e-06	433.62	109.48	80.871	18.826	1.9663e-06	27.761	194.471	173.925	223.428	125.968	266.547	238.605	125.008	129.178	232.104	253.853	128.163	131.963	132.868	138.099	275.892	136.580	-8191	255	
36635.559	1	1	0	0	0.070007	0.15266	0.12007	0.29049	0.03269	0.094937	0.28809	0.24894	0.12615	0.12302	0.019954	0.057692	0.30128	0.081812	0.047681	0.13945	-3.3312	-3.0875	-4.0292	-3.5104	-3.3563	-3.9979	-3.3375	-3.7417	-3.6083	-3.2	-4.0229	-3.4583	-3.4146	-4.0417	-3.1542	-3.5438	279.651	247.383	409.616	446.257	190.542	165.310	407.383	418.140	134.821	348.835	452.749	355.919	419.357	209.445	361.566	121.300	0.00038243	0.00024958	9.065e-05	1301.8	4.9277e-07	7.6514e-06	1364.1	377.8	4.616e-06	3.9384e-06	447.93	112.88	83.118	19.018	3.027e-06	28.154	0.00018352	0.00017742	5.0081e-05	1299.1	2.0095e-06	1.9788e-06	1361.6	376.26	2.0174e-06	2.0183e-06	440.73	111.58	82.469	19.235	2.068e-06	28.403	193.813	280.748	202.890	126.053	216.697	262.315	124.961	129.251	259.798	272.955	128.091	132.230	132.934	137.341	276.910	136.084	-8191	255	
36635.656	1	1	0	0	0.29561	0.2127	0.23296	0.2852	0.14955	0.2329	0.31051	0.040977	0.085534	0.16677	0.1311	0.25582	0.264	0.15365	0.1715	0.11692	-3.5354	-3.1188	-3.8333	-3.8187	-3.1167	-3.9792	-3.4708	-3.7208	-3.8208	-3.0625	-3.9792	-3.5646	-3.4229	-4.0583	-3.2479	-3.4708	431.301	253.237	398.026	393.415	329.501	160.140	417.507	461.348	336.217	121.958	416.847	419.139	455.465	324.584	267.968	421.124	0.00028423	0.00038667	0.00021	1322.9	2.6843e-06	2.8798e-06	1381.7	383.75	2.3099e-06	3.9987e-06	454.87	114.55	84.388	19.327	3.5411e-06	28.692	0.00019064	0.00018237	5.2007e-05	1320	2.052e-06	1.9989e-06	1380.9	382.77	1.999e-06	2.0078e-06	448.11	113.99	83.934	19.538	2.0416e-06	28.87	200.042	244.149	206.885	126.166	240.893	196.838	125.146	129.248	240.490	289.212	127.675	132.457	133.022	137.748	300.137	135.787	-8191	255	
36635.754	1	1	0	0	0.047349	0.16277	0.07722	0.12216	0.16633	0.20183	0.18966	0.20516	0.089613	0.048942	0.047695	0.19273	0.1155	0.12778	0.1044	0.28039	-3.5083	-3.1	-3.7917	-3.8417	-3.1958	-3.8896	-3.5917	-3.5479	-3.7604	-3.1833	-3.7125	-3.7062	-3.1896	-4.0104	-3.4667	-3.2542	441.542	327.143	410.115	427.151	373.445	388.367	355.126	369.996	360.076	112.215	402.493	365.046	266.808	111.364	170.109	464.275	0.00033494	0.00019673	0.00017673	1329.4	5.1101e-06	2.5723e-06	1383	383.69	3.8132e-06	4.0812e-06	452.57	113.99	84.174	19.166	3.081e-06	28.492	0.00019261	0.00018472	5.0635e-05	1329.6	2.0453e-06	1.9929e-06	1381.2	382.41	2.0295e-06	2.0131e-06	445.76	113.34	83.35	19.465	2.0133e-06	28.582	189.204	176.616	197.501	126.137	284.831	302.662	125.120	129.143	256.155	298.526	127.942	132.145	133.118	137.210	292.545	135.683	-8191	255	
36635.871	1	1	0	0	0.18272	0.14834	0.1313	0.13814	0.18066	0.12453	0.22722	0.10967	0.15236	0.075859	0.14819	0.16219	0.088163	0.18884	0.26305	0.20061	-3.6104	-3.1063	-3.6562	-3.8187	-3.0938	-3.9062	-3.5625	-3.3917	-3.7729	-3.225	-3.6354	-3.7729	-3.1375	-3.8833	-3.5646	-3.3021	311.201	136.160	463.113	433.939	444.418	325.999	446.499	127.745	158.556	222.654	171.272	436.610	138.655	419.972	451.751	352.636	0.00031673	0.00030922	4.2586e-05	1312.5	5.461e-06	2.9599e-06	1363.6	378.17	4.1811e-06	3.2042e-06	444.94	112.95	82.458	18.968	1.5317e-06	28.199	0.00019148	0.00018562	5.0833e-05	1308.8	2.0547e-06	2.0067e-06	1358.7	375.9	1.9979e-06	2.0046e-06	438.86	111.86	82.237	19.161	1.9809e-06	28.311	188.715	199.773	161.387	126.127	253.158	322.811	124.986	129.168	279.441	247.503	127.855	131.869	132.759	137.451	345.369	136.074	-8191	255	
36635.969	1	1	0	0	0.25561	0.19203	0.071442	0.096701	0.078178	0.019808	0.23569	0.11787	0.084233	0.14999	0.17457	0.062808	0.025772	0.27081	0.20606	0.10028	-3.6146	-2.9854	-3.5187	-4.1188	-3.1083	-3.8917	-3.9208	-3.3521	-3.9625	-3.3146	-3.6625	-3.8854	-3.1604	-3.7625	-3.6854	-3.15	328.421	426.420	272.350	143.391	135.293	432.317	370.770	377.614	120.277	157.779	352.674	433.507	443.500	460.058	243.009	243.439	0.00034746	0.00019972	8.6198e-05	1306.3	4.8858e-06	1.4151e-06	1359.2	379.75	1.465e-06	4.9267e-06	446.94	113.3	83.589	19.272	5.1206e-06	28.287	0.00019047	0.00018244	5.1284e-05	1304.2	2.0266e-06	2.0043e-06	1360.7	377.32	2.0166e-06	2.0206e-06	440.86	112.69	83.036	19.404	1.9903e-06	28.57	190.986	278.136	178.133	125.996	225.506	323.755	125.129	129.131	237.725	289.311	127.947	132.099	133.266	137.863	267.486	136.383	-8191	255	
36636.062	1	1	0	0	0.11529	0.11017	0.075367	0.21931	0.13041	0.25508	0.2142	0.11975	0.17474	0.19412	0.21378	0.0304	0.22719	0.24311	0.12525	0.11141	-3.725	-3.1458	-3.2708	-4.0521	-3.1646	-3.7604	-4.0312	-3.3104	-4.0125	-3.4938	-3.4604	-4.0583	-3.2479	-3.8021	-3.6708	-3.0896	223.319	201.965	441.706	448.134	232.369	301.174	430.366	283.708	314.732	165.936	453.416	266.703	159.554	422.482	214.280	355.004	0.00032013	0.00042403	6.8861e-05	1312.8	3.8613e-06	5.4555e-06	1364.6	381.44	4.2003e-06	4.8954e-06	449.09	114.64	84.4	19.376	2.606e-06	28.988	0.00019126	0.00018434	5.1063e-05	1311.6	2.0637e-06	2.0026e-06	1367.2	380.27	2.0306e-06	2.0373e-06	445	114	84.095	19.658	2.0549e-06	28.976	185.971	168.383	195.766	126.213	291.177	285.376	125.312	129.118	282.120	246.390	127.611	132.380	132.820	137.794	358.522	136.223	-8191	255	
36636.160	1	1	0	0	0.14098	0.28295	0.32236	0.028085	0.068008	0.15214	0.3359	0.35834	0.099826	0.18338	0.33814	0.13341	0.1486	0.19341	0.14489	0.24004	-3.7479	-3.6125	-3.2604	-4.2354	-3.1063	-3.7	-3.9458	-3.2292	-4.0375	-3.5958	-3.4625	-4.0479	-3.3667	-3.4667	-3.9167	-3.3458	291.536	463.715	361.951	367.907	417.413	371.934	403.418	437.092	346.663	168.910	373.458	219.429	409.481	272.598	418.615	440.767	0.00025126	0.00024637	6.3011e-05	1325.7	3.376e-06	3.3795e-06	1386.9	385.39	2.851e-06	2.2766e-06	455.32	115.79	85.261	19.624	1.3657e-06	29.136	0.00019312	0.00018516	5.2431e-05	1323.8	2.0707e-06	2.0088e-06	1383.5	383.56	2.0686e-06	2.0476e-06	450.63	115.26	84.796	19.847	2.0508e-06	29.26	190.545	191.291	118.903	126.083	244.473	221.712	125.088	129.227	254.517	229.735	127.930	132.307	133.155	137.701	262.302	136.227	-8191	255	
36636.254	1	1	0	0	0.093345	0.079215	0.18984	0.058927	0.080522	0.23158	0.19242	0.23239	0.037443	0.026382	0.25298	0.073273	0.12899	0.058914	0.25109	0.33768	-3.4313	-3.6437	-3.1375	-4.1062	-3.4729	-3.5354	-3.9875	-3.3917	-3.75	-3.7521	-3.4333	-4.1125	-3.4146	-3.4208	-3.9146	-3.1792	345.297	433.030	255.084	117.398	329.125	443.663	418.031	442.867	401.248	372.760	146.057	468.730	230.177	241.853	393.466	460.286	0.00032926	0.0004456	0.00011286	1323	2.8812e-06	4.6514e-06	1380.4	381.45	4.5347e-06	2.4799e-06	450.05	113.51	83.282	19.267	1.0963e-06	28.182	0.00019219	0.00018506	5.2515e-05	1323.1	2.0974e-06	2.0528e-06	1376.7	380.1	2.0899e-06	2.0411e-06	444.21	112.91	83.073	19.431	2.0664e-06	28.428	197.653	173.452	166.018	126.187	257.432	315.482	125.294	129.119	284.068	171.149	128.094	132.194	133.145	137.574	326.934	136.150	-8191	255	
#DATA ENDS
