BOXY.EXE: ISS Imagent and Oximeter Data Acquisition Program Version 0.80
Ascii Record File

#ACQ INFORMATION
2  Detector Channels 
16  External MUX Channels 
1  Auxiliary Channels 
5000  Waveform (CCF) Frequency (Hz)
1  Waveforms Skipped 
30  Waveforms Averaged 
1  Cycles Averaged 
16  Acquisitions per Waveform 
10.0806  Updata Rate (Hz) 

#FILE INFORMATION
TRUE -- External MUX Channel results are PARSED.
FALSE -- AC DC and Phase are NOT grouped.
TRUE -- Companion Program Settings File CREATED.
FALSE -- AC data not excluded
FALSE -- DC data not excluded
FALSE -- Phase data not excluded
FALSE -- Auxillary Chn. data not excluded
Tab delimiters

#CALIBRATION STATE
TRUE -- Waveform Calibration Values APPLIED.


#AUX CALIBRATION VALUES
Val Type	aux-1	

Term	1.0000e+00	
Factor	0.0000e+00	


#WF CALIBRATION VALUES
A = Detector Channel
Val Type	A-AC1	A-AC2	A-AC3	A-AC4	A-AC5	A-AC6	A-AC7	A-AC8	A-AC9	A-AC10	A-AC11	A-AC12	A-AC13	A-AC14	A-AC15	A-AC16	A-DC1	A-DC2	A-DC3	A-DC4	A-DC5	A-DC6	A-DC7	A-DC8	A-DC9	A-DC10	A-DC11	A-DC12	A-DC13	A-DC14	A-DC15	A-DC16	A-Ph1	A-Ph2	A-Ph3	A-Ph4	A-Ph5	A-Ph6	A-Ph7	A-Ph8	A-Ph9	A-Ph10	A-Ph11	A-Ph12	A-Ph13	A-Ph14	A-Ph15	A-Ph16	

Term	0.00000e+00	0.00000e+00	0.00000e+00	0.00000e+00	0.00000e+00	0.00000e+00	0.00000e+00	0.00000e+00	0.00000e+00	0.00000e+00	0.00000e+00	0.00000e+00	0.00000e+00	0.00000e+00	0.00000e+00	0.00000e+00	0.00000e+00	0.00000e+00	0.00000e+00	0.00000e+00	0.00000e+00	0.00000e+00	0.00000e+00	0.00000e+00	0.00000e+00	0.00000e+00	0.00000e+00	0.00000e+00	0.00000e+00	0.00000e+00	0.00000e+00	0.00000e+00	0.00000e+00	0.00000e+00	0.00000e+00	0.00000e+00	0.00000e+00	0.00000e+00	0.00000e+00	0.00000e+00	0.00000e+00	0.00000e+00	0.00000e+00	0.00000e+00	0.00000e+00	0.00000e+00	0.00000e+00	0.00000e+00	
Factor	1.00000e+00	1.00000e+00	1.00000e+00	1.00000e+00	1.00000e+00	1.00000e+00	1.00000e+00	1.00000e+00	1.00000e+00	1.00000e+00	1.00000e+00	1.00000e+00	1.00000e+00	1.00000e+00	1.00000e+00	1.00000e+00	1.00000e+00	1.00000e+00	1.00000e+00	1.00000e+00	1.00000e+00	1.00000e+00	1.00000e+00	1.00000e+00	1.00000e+00	1.00000e+00	1.00000e+00	1.00000e+00	1.00000e+00	1.00000e+00	1.00000e+00	1.00000e+00	X	X	X	X	X	X	X	X	X	X	X	X	X	X	X	X	

B = Detector Channel
Val Type	B-AC1	B-AC2	B-AC3	B-AC4	B-AC5	B-AC6	B-AC7	B-AC8	B-AC9	B-AC10	B-AC11	B-AC12	B-AC13	B-AC14	B-AC15	B-AC16	B-DC1	B-DC2	B-DC3	B-DC4	B-DC5	B-DC6	B-DC7	B-DC8	B-DC9	B-DC10	B-DC11	B-DC12	B-DC13	B-DC14	B-DC15	B-DC16	B-Ph1	B-Ph2	B-Ph3	B-Ph4	B-Ph5	B-Ph6	B-Ph7	B-Ph8	B-Ph9	B-Ph10	B-Ph11	B-Ph12	B-Ph13	B-Ph14	B-Ph15	B-Ph16	

Term	0.00000e+00	0.00000e+00	0.00000e+00	0.00000e+00	0.00000e+00	0.00000e+00	0.00000e+00	0.00000e+00	0.00000e+00	0.00000e+00	0.00000e+00	0.00000e+00	0.00000e+00	0.00000e+00	0.00000e+00	0.00000e+00	0.00000e+00	0.00000e+00	0.00000e+00	0.00000e+00	0.00000e+00	0.00000e+00	0.00000e+00	0.00000e+00	0.00000e+00	0.00000e+00	0.00000e+00	0.00000e+00	0.00000e+00	0.00000e+00	0.00000e+00	0.00000e+00	-7.23465e+01	-1.49617e+02	-1.26872e+02	-1.83762e+02	-5.18693e+01	-6.06153e+01	-1.58526e+02	-1.62015e+02	-4.81224e+01	-7.56965e+01	-1.70957e+02	-1.70833e+02	-1.76992e+02	-1.76825e+02	-4.67194e+01	-1.50028e+02	
Factor	1.63432e-05	1.10510e-04	3.48016e-05	1.52478e-01	1.22918e-06	1.22249e-06	1.63273e-01	5.15583e-02	9.18127e-07	1.18410e-06	8.55517e-02	2.92432e-02	2.25317e-02	9.04730e-03	1.05066e-06	1.29668e-02	1.38578e-06	1.45995e-06	4.07899e-07	7.71863e-02	1.59237e-08	1.59708e-08	7.76724e-02	2.61251e-02	1.59683e-08	1.59842e-08	4.15537e-02	1.42499e-02	1.15109e-02	4.55475e-03	1.60640e-08	6.29093e-03	X	X	X	X	X	X	X	X	X	X	X	X	X	X	X	X	



#DISTANCE SETTINGS
A = Detector Channel
A-1	A-2	A-3	A-4	A-5	A-6	A-7	A-8	A-9	A-10	A-11	A-12	A-13	A-14	A-15	A-16	

2.5000e+00	3.0000e+00	2.5000e+00	3.0000e+00	2.0000e+00	3.0000e+00	1.5000e+00	3.0000e+00	3.0000e+00	3.0000e+00	3.0000e+00	3.0000e+00	3.0000e+00	3.0000e+00	1.5000e+00	3.0000e+00	

B = Detector Channel
B-1	B-2	B-3	B-4	B-5	B-6	B-7	B-8	B-9	B-10	B-11	B-12	B-13	B-14	B-15	B-16	

1.0000e+01	1.0000e+01	1.0000e+01	1.4400e+00	1.0000e+01	1.0000e+01	1.5100e+00	1.9400e+00	1.0000e+01	1.0000e+01	1.9900e+00	2.4900e+00	2.4100e+00	2.9000e+00	1.0000e+01	2.9800e+00	




#DATA BEGINS
time	group	step	mark	flag	A-AC1	A-AC2	A-AC3	A-AC4	A-AC5	A-AC6	A-AC7	A-AC8	A-AC9	A-AC10	A-AC11	A-AC12	A-AC13	A-AC14	A-AC15	A-AC16	A-DC1	A-DC2	A-DC3	A-DC4	A-DC5	A-DC6	A-DC7	A-DC8	A-DC9	A-DC10	A-DC11	A-DC12	A-DC13	A-DC14	A-DC15	A-DC16	A-Ph1	A-Ph2	A-Ph3	A-Ph4	A-Ph5	A-Ph6	A-Ph7	A-Ph8	A-Ph9	A-Ph10	A-Ph11	A-Ph12	A-Ph13	A-Ph14	A-Ph15	A-Ph16	B-AC1	B-AC2	B-AC3	B-AC4	B-AC5	B-AC6	B-AC7	B-AC8	B-AC9	B-AC10	B-AC11	B-AC12	B-AC13	B-AC14	B-AC15	B-AC16	B-DC1	B-DC2	B-DC3	B-DC4	B-DC5	B-DC6	B-DC7	B-DC8	B-DC9	B-DC10	B-DC11	B-DC12	B-DC13	B-DC14	B-DC15	B-DC16	B-Ph1	B-Ph2	B-Ph3	B-Ph4	B-Ph5	B-Ph6	B-Ph7	B-Ph8	B-Ph9	B-Ph10	B-Ph11	B-Ph12	B-Ph13	B-Ph14	B-Ph15	B-Ph16	aux-1	digaux	

1506.251	1	1	0	256	0.14753	0.044692	0.31651	0.27621	0.22248	0.17572	0.32301	0.11549	0.23861	0.14753	0.35944	0.26197	0.31679	0.15744	0.17945	0.16141	-2.05	-3	-2.4021	-3.0792	-2.8312	-2.4583	-3.2833	-2.8042	-2.3812	-3.0417	-2.65	-3.0479	-3.1396	-2.4813	-3.0167	-2.8063	375.548	313.666	166.196	335.498	239.418	182.766	309.805	61.144	99.781	191.171	59.752	343.261	29.754	286.271	361.220	30.908	0.00035318	0.00044036	0.00022333	1477.4	6.4196e-06	2.8601e-06	1477.7	389.82	1.4254e-06	3.1367e-06	442.69	147.3	128.68	43.593	1.3756e-06	54.29	0.00074755	0.00076031	0.00023873	1507.8	8.4692e-06	8.2717e-06	1506.7	400.46	8.3198e-06	8.5538e-06	457.93	153.27	133.06	45.507	9.6573e-06	56.622	191.264	166.289	125.347	36.019	198.807	98.949	35.998	40.957	269.346	189.688	39.823	44.645	45.050	49.002	223.234	48.329	-8191	255	
1506.347	1	1	0	0	0.27011	0.16894	0.1429	0.23214	0.13056	0.20481	0.24154	0.24385	0.16089	0.19907	0.13968	0.10371	0.29215	0.12301	0.20651	0.23398	-2.1417	-3.1896	-2.4042	-3.0667	-3.1229	-2.5833	-3.1063	-2.7958	-2.3458	-3.0854	-2.4917	-2.6917	-3.0646	-2.5146	-2.9896	-3.0354	176.572	147.377	141.470	339.251	32.861	98.613	324.263	64.445	160.251	80.932	309.435	184.061	379.011	71.627	251.546	246.762	0.00029664	0.0010408	5.9512e-05	1480.9	5.3993e-06	9.172e-06	1481.4	390.38	4.1035e-06	1.1981e-05	442.13	146.83	128.33	43.867	3.3796e-06	54.277	0.00074359	0.00082386	0.00024544	1507.5	8.549e-06	9.0716e-06	1510	401.23	8.4227e-06	9.4437e-06	458.77	153.23	133.3	45.956	9.8292e-06	56.75	209.964	73.996	152.642	35.529	113.739	203.878	35.552	40.316	224.756	170.413	39.492	44.596	44.960	49.279	304.671	48.682	-8191	255	
1506.443	1	1	0	0	0.23344	0.17244	0.20201	0.36418	0.3128	0.03265	0.048279	0.3407	0.22302	0.028657	0.099364	0.051709	0.086529	0.23588	0.25078	0.096866	-1.8438	-3.1688	-2.5646	-2.7938	-3.0563	-2.2896	-3	-3.0563	-2.3688	-3.0354	-2.7771	-2.6083	-3.2729	-2.625	-2.9917	-3.0708	79.780	145.585	242.645	318.964	167.476	27.499	344.571	289.032	267.899	201.650	364.623	235.982	349.564	371.789	199.510	75.461	0.00030369	0.00041607	8.1045e-05	1487.3	1.3084e-05	7.6048e-06	1478.9	391.18	4.2584e-06	4.4673e-06	445.68	147.81	128.64	43.757	1.2489e-06	54.479	0.00077712	0.00090629	0.00025263	1513.5	8.9376e-06	1.0036e-05	1513.4	402.01	8.9142e-06	1.0244e-05	460.24	153.79	133.81	46.07	9.7398e-06	56.77	194.313	44.592	262.368	35.539	227.513	147.699	35.552	40.650	222.804	270.549	39.679	44.855	45.099	49.213	50.901	48.010	-8191	255	
1506.540	1	1	0	0	0.16551	0.1799	0.12035	0.36071	0.12138	0.073915	0.091187	0.10199	0.27275	0.16915	0.34014	0.39149	0.10856	0.13113	0.1507	0.11744	-1.8792	-3.1229	-2.6083	-2.6188	-3.1125	-2.4667	-2.8958	-3.1521	-2.5021	-2.9604	-2.8854	-2.6562	-3.2479	-2.4979	-2.7417	-3.1729	30.138	203.225	359.258	337.892	326.702	112.314	258.383	44.129	268.105	235.571	342.970	355.915	60.355	326.809	93.602	341.081	0.00028737	0.00026316	9.5616e-05	1483.6	7.703e-06	2.9278e-06	1491.8	391.35	5.4015e-06	3.0662e-06	444.94	147.69	128.83	43.93	4.3521e-06	54.6	0.00082474	0.00095853	0.00025083	1515	9.5346e-06	1.0463e-05	1518.5	402.17	9.6019e-06	1.0472e-05	461.39	153.8	134.37	46.247	9.6388e-06	56.87	195.417	131.953	95.109	35.294	182.250	190.645	35.610	40.805	188.161	53.704	40.680	45.298	45.682	49.702	271.385	48.884	-8191	255	
1506.660	1	1	0	0	0.040358	0.17148	0.13857	0.30138	0.37099	0.16428	0.2624	0.1901	0.25364	0.14147	0.1052	0.46302	0.28301	0.33927	0.17697	0.11441	-1.9312	-2.8542	-2.7646	-2.7146	-3.1562	-2.6646	-2.8646	-3.1813	-2.5104	-2.9604	-3.0563	-2.5083	-3.2042	-2.6167	-2.6458	-3.0375	152.093	258.594	296.541	352.821	48.835	179.408	295.998	345.130	176.202	88.760	76.584	354.525	351.555	366.682	115.244	296.486	0.00038483	0.00042028	4.9476e-05	1487.9	1.216e-05	5.9048e-06	1494.1	391.07	4.5085e-06	4.5271e-06	445.3	148.22	129.18	44.165	2.6686e-06	54.219	0.00088544	0.00094296	0.00024818	1516.8	1.0196e-05	1.0259e-05	1517.7	402.75	1.022e-05	1.0338e-05	461.21	153.86	135.18	46.275	9.5821e-06	56.874	202.813	265.112	107.022	35.924	203.746	106.710	36.118	41.137	200.037	129.382	40.531	45.267	45.489	49.781	217.094	48.813	-8191	255	
1506.756	1	1	0	0	0.24467	0.23394	0.15223	0.20414	0.11051	0.26626	0.15372	0.36288	0.24073	0.17017	0.07568	0.2754	0.17499	0.15026	0.10801	0.083397	-1.8417	-2.725	-2.7	-2.4667	-3.2292	-2.7708	-2.7667	-3.2188	-2.4729	-2.8833	-3.2667	-2.5625	-3.2125	-2.7771	-2.4333	-3.1688	148.635	205.768	162.434	345.515	278.083	107.165	331.219	361.681	50.331	159.205	119.359	34.460	44.408	295.352	38.114	254.542	0.0004064	0.00021395	2.5767e-05	1492.7	4.2345e-06	7.2699e-06	1490.6	391.6	5.8273e-06	3.0869e-06	446.69	147.51	129.18	44.129	5.2011e-06	54.441	0.00093234	0.00091753	0.00024428	1521.4	1.0516e-05	1.0094e-05	1518.3	403.73	1.0615e-05	9.9223e-06	460.22	153.75	135.13	46.241	9.3404e-06	57.079	209.852	266.598	282.953	35.639	218.631	90.516	35.759	40.788	243.941	269.684	40.301	44.980	45.194	49.278	178.644	48.953	-8191	255	
1506.851	1	1	0	0	0.36449	0.08167	0.17637	0.25473	0.054134	0.15261	0.31531	0.10845	0.29698	0.2245	0.1961	0.16544	0.3183	0.40957	0.14373	0.33997	-2.1063	-2.7229	-2.8563	-2.6771	-2.9188	-2.6167	-2.6188	-3.3042	-2.5	-2.5104	-3.0896	-2.5729	-2.8917	-2.8583	-2.3958	-3.1396	264.117	232.505	230.428	377.030	295.524	344.825	289.040	244.419	339.732	254.401	320.348	164.829	352.642	342.421	232.931	323.968	0.0004574	0.00049454	0.00016449	1490.5	1.2237e-05	4.1502e-06	1490.7	390.23	7.0166e-06	4.6152e-06	444.44	147.79	128.01	43.917	4.1264e-06	54.208	0.00094935	0.00090744	0.00024359	1525.1	1.0707e-05	1.0104e-05	1517.7	404.44	1.0866e-05	1.0064e-05	459.58	154.95	134.62	46.086	9.7375e-06	57.348	190.042	336.972	110.244	35.875	180.306	245.207	35.320	40.294	176.697	150.151	40.031	44.911	44.775	49.062	337.776	48.513	-8191	255	
1506.947	1	1	0	0	0.40548	0.26365	0.33989	0.26824	0.12481	0.2566	0.20426	0.064036	0.1399	0.022832	0.032151	0.1735	0.14323	0.34994	0.077909	0.16816	-2.0521	-2.7271	-2.9521	-2.5	-2.8854	-3.0042	-2.6396	-3.0687	-2.5583	-2.4979	-3.3729	-2.4646	-3.1208	-3.025	-2.3667	-3.1375	348.033	98.652	202.230	319.363	307.904	378.834	317.302	366.714	295.909	90.790	106.084	40.696	371.566	305.949	379.173	268.315	0.00036261	9.747e-05	0.00020754	1488.1	1.2138e-06	2.8823e-06	1493.8	392.02	5.223e-06	5.6093e-06	444.73	148.02	128.54	44.109	5.9773e-06	54.643	0.000984	0.00094306	0.00025596	1531.5	1.1094e-05	1.0538e-05	1522.9	407.06	1.1265e-05	1.0397e-05	462.23	156.15	135.21	46.308	1.0414e-05	57.919	208.084	138.409	174.700	35.716	178.162	42.208	35.543	40.039	150.428	209.365	40.010	45.215	45.330	49.345	186.684	48.842	-8191	255	
1507.020	1	1	0	0	0.18279	0.089719	0.15183	0.17488	0.19503	0.29487	0.42604	0.21064	0.16684	0.20344	0.063848	0.24533	0.18099	0.29377	0.073147	0.070156	-2.1688	-2.5396	-2.9938	-2.6583	-2.9313	-3.0417	-2.725	-3.2208	-2.8958	-2.6646	-3.3833	-2.6625	-2.9917	-3.3271	-2.3937	-3.1813	260.941	101.376	344.715	41.863	293.704	380.462	343.405	295.789	131.517	371.923	324.304	86.506	314.422	342.981	185.275	270.083	0.00028217	0.00022764	0.00019958	1502.5	3.9699e-06	1.8115e-06	1502.5	391.5	7.9998e-07	6.032e-06	448.52	148.07	129.77	44.048	7.0651e-06	54.53	0.00099264	0.00094995	0.00027365	1542.5	1.0895e-05	1.0484e-05	1534	408.59	1.1023e-05	1.0133e-05	465.65	156.61	135.69	46.311	1.1123e-05	57.934	198.406	103.849	155.230	35.496	142.960	231.218	35.645	40.670	186.436	104.158	40.312	44.573	44.755	49.216	222.482	48.181	-8191	255	
1507.139	1	1	0	0	0.23532	0.26614	0.10814	0.29803	0.36233	0.2933	0.25984	0.20982	0.13501	0.12885	0.28537	0.18189	0.17566	0.22327	0.078298	0.1236	-2.575	-2.5083	-3.1688	-2.8521	-2.6562	-3.0208	-2.4729	-2.9688	-2.9125	-2.5229	-3.2479	-2.6396	-2.8083	-3.2146	-2.2021	-3.0083	170.248	376.626	365.749	35.287	316.808	29.225	320.264	282.567	350.867	142.962	333.970	268.647	326.306	114.435	120.908	308.121	0.00036797	0.00016492	0.00019114	1505.9	1.1831e-05	4.0745e-06	1505.1	394.36	2.8869e-06	3.2945e-06	450.48	149.21	130.66	44.54	5.9737e-06	55.274	0.00097101	0.00092985	0.00029014	1549.1	1.0788e-05	1.0284e-05	1546.2	410.52	1.0925e-05	1.0133e-05	470.62	157.88	136.66	46.843	1.16e-05	58.338	196.749	322.872	121.269	35.686	130.087	121.367	35.835	40.726	78.785	68.199	40.121	44.650	44.930	49.382	215.687	48.365	-8191	255	
1507.235	1	1	0	0	0.1994	0.075798	0.34831	0.24725	0.45955	0.1505	0.12481	0.16707	0.086668	0.13344	0.24256	0.17991	0.10015	0.20957	0.30543	0.16424	-2.5417	-2.4292	-3.1146	-2.8438	-2.55	-2.9375	-2.4854	-2.9313	-3.0625	-2.4188	-3.1333	-2.8708	-2.6063	-3.1542	-2.4396	-2.9437	56.900	309.311	300.801	331.889	194.032	90.061	352.762	43.670	27.884	264.621	130.069	270.528	33.451	373.584	150.502	358.250	0.00038077	0.0011876	0.00021241	1514.6	4.4434e-06	9.4449e-06	1512.5	398.21	5.3045e-06	5.1789e-06	452.68	151.01	130.7	44.672	7.376e-06	55.218	0.00094892	0.00093562	0.000301	1555.2	1.0427e-05	1.0458e-05	1555	412.24	1.0557e-05	1.0437e-05	472.41	158.09	136.54	46.998	1.1717e-05	58.329	193.049	86.422	102.917	35.113	156.020	209.726	35.222	40.184	201.753	213.673	39.475	44.289	44.825	49.307	154.897	48.280	-8191	255	
1507.331	1	1	0	0	0.15984	0.24196	0.12335	0.36628	0.29914	0.22151	0.45478	0.20551	0.17695	0.2112	0.29822	0.1337	0.23644	0.19961	0.22045	0.12526	-2.6479	-2.3792	-2.9875	-2.9125	-2.3771	-3.0625	-2.9042	-2.7792	-3.0438	-2.5729	-3.1604	-2.7833	-2.6354	-3.0208	-2.4562	-2.7104	213.635	287.952	51.438	359.585	170.094	157.504	341.024	348.063	31.815	24.008	199.042	296.498	342.995	23.728	180.011	374.122	0.00036873	0.00069898	0.00013736	1521.4	3.2136e-06	5.3633e-06	1513.3	399.5	4.3427e-06	4.0436e-06	452.56	152.06	131.63	45.11	9.1499e-06	55.533	0.00091501	0.00097335	0.00029522	1553.7	9.9857e-06	1.0848e-05	1555.9	412.45	1.0042e-05	1.0887e-05	471.92	158.48	137.12	47.581	1.1293e-05	58.449	211.588	83.317	111.608	35.564	155.681	278.217	35.660	40.253	180.186	130.814	40.298	45.208	45.080	49.513	160.002	48.855	-8191	255	
1507.428	1	1	0	0	0.10132	0.20319	0.14212	0.083558	0.089073	0.026267	0.15416	0.33336	0.31603	0.19742	0.36695	0.22703	0.18526	0.045763	0.30664	0.23503	-2.6417	-2.2375	-3.0229	-3.1833	-2.5542	-3.1667	-2.7271	-2.6125	-3.0958	-2.3042	-2.925	-3.0021	-2.2396	-3.1312	-2.6542	-2.6146	346.776	154.480	189.438	248.150	345.217	66.988	333.999	304.357	44.912	175.982	22.407	342.975	74.750	75.513	305.299	287.142	0.00040907	8.012e-05	0.00014096	1524.5	5.7127e-06	4.6972e-06	1521.4	399.51	3.825e-06	4.5243e-06	454.08	151.82	132.43	45.256	2.0781e-06	55.517	0.00089338	0.0010147	0.00028234	1559.2	9.8226e-06	1.1308e-05	1558.5	412.97	1.0149e-05	1.1331e-05	472.76	158.72	138.02	47.856	1.1026e-05	58.472	210.763	140.598	85.195	36.268	217.254	188.714	35.364	40.298	226.505	206.479	39.361	44.325	44.675	48.988	124.793	48.149	-8191	255	
1507.548	1	1	0	0	0.2767	0.095298	0.057416	0.088049	0.15748	0.052606	0.28028	0.49414	0.26285	0.3605	0.1331	0.15145	0.085228	0.13966	0.17626	0.21761	-2.75	-2.3688	-2.8042	-3.1229	-2.3021	-2.95	-2.7104	-2.575	-3.1813	-2.4542	-2.5854	-3.2313	-2.5	-3.0771	-2.6792	-2.6729	256.749	104.217	326.433	329.154	141.793	27.221	336.688	327.266	296.133	341.985	121.191	27.304	28.716	361.893	235.347	304.478	0.00031908	0.00031771	0.00014382	1525.2	9.2549e-06	1.2925e-06	1526.4	400.23	1.1565e-05	9.0452e-06	455.94	152.44	133.17	45.596	2.5935e-06	55.871	0.00091838	0.0010584	0.00027506	1559.8	1.034e-05	1.15e-05	1562.4	413.32	1.058e-05	1.1441e-05	472.44	159.2	139.06	48.045	1.0676e-05	58.557	191.103	85.473	60.305	35.507	226.601	373.995	35.584	40.162	235.332	154.317	39.567	44.457	44.931	49.005	193.730	48.193	-8191	255	
1507.620	1	1	0	0	0.084023	0.27611	0.22497	0.40106	0.1846	0.11475	0.35149	0.2869	0.1162	0.155	0.11718	0.024718	0.19525	0.16731	0.21005	0.12157	-2.6437	-2.4396	-2.4938	-3.4	-2.4313	-3.075	-3.0792	-2.4562	-3.0292	-2.6521	-2.8167	-3.3292	-2.3896	-3.2271	-2.7562	-2.4437	267.283	200.751	124.372	349.074	64.978	354.478	38.049	340.849	289.543	97.490	348.998	111.233	334.588	293.556	114.041	321.056	0.00040717	0.00016085	0.00024853	1531.4	1.0065e-05	2.3695e-06	1533.4	402.83	2.3424e-06	8.0175e-07	456.61	153.48	134.19	45.789	6.6766e-06	56.424	0.00096794	0.0010305	0.0002656	1564	1.0816e-05	1.1002e-05	1567.4	414.44	1.1031e-05	1.0933e-05	473.03	159.99	140.2	48.099	1.0175e-05	58.754	202.084	67.083	164.467	35.623	209.873	51.279	35.530	40.196	262.776	235.782	39.540	44.501	44.605	48.619	157.700	48.277	-8191	255	
1507.741	1	1	0	0	0.029639	0.093239	0.16729	0.29095	0.13808	0.06149	0.087241	0.15646	0.14299	0.16108	0.37027	0.083996	0.32695	0.2991	0.31324	0.25755	-2.775	-2.7208	-2.5167	-3.4083	-2.375	-2.9688	-3.275	-2.575	-3.0563	-2.6708	-2.5312	-3.3625	-2.6146	-2.8708	-2.9625	-2.475	81.556	223.537	264.823	36.200	172.735	107.215	39.776	111.986	200.923	201.006	366.821	278.282	290.470	333.703	186.353	315.355	0.00047109	0.00011792	0.00019782	1541.2	9.668e-06	8.629e-06	1534.9	403.39	5.1341e-06	5.0379e-06	456.97	153.79	134.63	45.906	2.8665e-06	56.575	0.00097219	0.00096991	0.00025013	1570.3	1.093e-05	1.0395e-05	1567.4	415.96	1.1033e-05	1.0449e-05	472.41	160.59	140.48	48.079	9.8664e-06	59.129	193.378	355.298	94.403	35.572	225.861	179.833	35.412	40.160	214.467	151.206	39.465	44.718	44.880	49.025	220.788	48.253	-8191	255	
1507.837	1	1	0	0	0.25761	0.19258	0.21417	0.18399	0.088643	0.13335	0.068502	0.21075	0.083331	0.17806	0.23253	0.27423	0.2946	0.18537	0.14656	0.11408	-2.5604	-2.6167	-2.3604	-3.4833	-2.6208	-2.5771	-3.2	-2.6	-2.8271	-2.925	-2.425	-3.1646	-2.65	-2.7583	-3.0062	-2.5062	370.408	364.125	73.730	55.235	157.306	239.862	365.128	127.503	304.577	101.474	341.528	355.335	330.485	41.938	61.688	40.637	0.0003972	0.00071609	2.6596e-05	1535.1	6.4428e-06	7.2641e-06	1540.7	403.66	1.7998e-06	4.1364e-06	457.66	154.69	134.58	45.822	1.6981e-06	56.411	0.00097416	0.00093256	0.00024307	1569.9	1.0921e-05	1.0082e-05	1568.6	416.92	1.079e-05	1.0104e-05	472.18	161.41	140.41	48.1	9.4343e-06	59.399	195.556	60.024	83.300	35.658	182.138	149.240	35.491	40.301	230.956	94.179	39.413	44.567	44.855	48.765	265.020	48.378	-8191	255	
1507.931	1	1	0	0	0.071531	0.20119	0.097187	0.30905	0.16849	0.10066	0.085374	0.37055	0.15054	0.14245	0.14174	0.16298	0.21976	0.36071	0.20397	0.10988	-2.5542	-2.8292	-2.4417	-3.2333	-2.5896	-2.5979	-3.4417	-2.5771	-2.8812	-2.9625	-2.5333	-3.1729	-2.8021	-2.5625	-2.9917	-2.5687	68.883	238.635	321.187	320.556	175.657	324.111	336.252	335.149	259.970	174.537	357.279	175.223	100.458	375.057	103.319	191.802	0.00036723	0.00083495	9.1914e-05	1542.2	7.5346e-06	5.1748e-06	1542.1	405.88	5.9524e-06	7.0785e-06	459.41	155.43	135.85	46.477	8.6182e-06	57.622	0.00092472	0.0009	0.000232	1576	1.0231e-05	9.4639e-06	1568.9	418.89	9.9083e-06	9.3773e-06	472.89	162.49	140.93	48.447	9.1688e-06	59.967	197.961	69.016	184.652	35.622	178.987	175.387	35.617	40.349	175.428	141.622	39.971	44.637	44.760	48.644	213.842	48.418	-8191	255	
1508.027	1	1	0	0	0.087028	0.0835	0.32415	0.32255	0.15612	0.23944	0.1296	0.16561	0.16755	0.18885	0.1053	0.41848	0.19704	0.4667	0.19033	0.43605	-2.3312	-2.8667	-2.3063	-3.2479	-2.575	-2.4917	-3.3771	-2.6125	-2.6917	-2.9125	-2.4854	-3.0563	-2.7958	-2.3937	-3.0979	-2.3729	65.631	163.323	361.438	314.690	118.865	316.901	294.655	315.506	272.940	304.443	380.551	350.222	136.128	353.089	198.512	375.719	0.00036862	0.00063694	0.00024496	1549.7	5.9888e-06	3.5707e-06	1548.2	406.23	6.838e-06	4.3543e-06	460.76	156.62	136.18	46.512	5.7318e-06	57.718	0.00085348	0.00082954	0.00023008	1580	9.4212e-06	8.7588e-06	1573.8	418.84	9.2651e-06	8.8267e-06	473.66	163.05	141.11	48.444	9.4907e-06	60.13	195.253	44.923	88.671	35.423	115.665	91.283	35.656	40.480	208.189	185.999	39.547	44.410	45.222	49.056	242.301	48.135	-8191	255	
1508.148	1	1	0	0	0.34559	0.29545	0.19401	0.35448	0.047103	0.18779	0.098324	0.1826	0.086555	0.36051	0.28319	0.29027	0.23662	0.26575	0.14134	0.34052	-2.3333	-2.9167	-2.2938	-3.1896	-2.8229	-2.4396	-3.2542	-2.725	-2.5583	-2.8833	-2.475	-3.0167	-2.9729	-2.4688	-3.0021	-2.5042	50.762	88.327	115.138	354.157	340.398	142.501	52.392	54.704	278.789	279.842	346.719	370.491	78.691	352.782	172.336	339.680	0.00030987	0.00092314	0.00044871	1542.7	1.451e-06	4.8247e-06	1545.6	407.41	3.5235e-06	6.0005e-06	461.26	156.66	136.26	46.782	2.5584e-06	57.367	0.00082377	0.00080838	0.00024499	1577.5	9.2425e-06	8.6624e-06	1575.9	419.1	9.1047e-06	8.8455e-06	477.22	162.91	141.25	48.52	1.0127e-05	59.939	195.917	26.795	96.788	35.717	76.214	194.974	35.946	40.449	327.623	212.658	40.321	45.021	45.251	49.336	151.244	48.675	-8191	255	
1508.244	1	1	0	0	0.059402	0.29879	0.23733	0.20698	0.14592	0.18851	0.33419	0.19749	0.25671	0.11467	0.14078	0.10466	0.19481	0.19622	0.23486	0.25199	-2.0229	-3.0062	-2.2521	-3.2542	-2.9062	-2.2646	-3.0812	-2.8583	-2.5708	-3.2167	-2.5021	-2.6708	-2.9729	-2.525	-3.1083	-2.6583	58.753	230.943	177.955	354.393	235.636	338.209	322.433	352.594	279.070	160.607	269.816	152.745	38.687	360.077	145.132	376.735	0.00033954	0.00092436	0.00025409	1541.3	7.1585e-06	9.958e-06	1547.6	405.8	1.8053e-06	8.2585e-06	459.34	155.61	135.97	46.501	3.7133e-06	57.289	0.00081655	0.00083066	0.00025897	1575	9.2832e-06	8.9657e-06	1578.3	418.64	9.05e-06	9.3043e-06	476.77	161.96	140.64	48.416	1.028e-05	59.613	187.627	98.655	120.746	35.946	205.565	164.006	35.970	40.731	213.602	172.315	40.147	44.760	44.734	48.585	360.272	48.048	-8191	255	
1508.340	1	1	0	0	0.11378	0.24874	0.19888	0.15242	0.13479	0.18151	0.2287	0.27719	0.13529	0.31012	0.0998	0.32377	0.24216	0.067046	0.21167	0.071207	-1.9958	-2.9896	-2.3625	-2.7667	-2.9188	-2.3688	-3.0854	-2.8438	-2.5354	-3.1479	-2.5271	-2.7083	-3.1958	-2.4354	-2.8208	-2.8688	208.764	313.124	147.895	331.567	208.182	319.469	217.388	350.234	226.683	300.181	254.696	353.304	317.994	222.091	69.750	264.861	0.00025765	0.0014722	0.00019613	1544	8.0333e-06	4.7048e-06	1548.7	405.12	5.4093e-06	7.0635e-06	459.85	155.23	135.65	46.604	4.9601e-06	57.122	0.00079525	0.00086202	0.00026114	1574.3	8.8633e-06	9.4511e-06	1578.2	417.41	8.7196e-06	9.6808e-06	476.21	161.68	140.57	48.635	9.9881e-06	59.564	205.281	117.997	31.106	36.129	181.219	239.888	35.483	40.131	191.800	164.980	39.687	44.430	44.672	48.735	215.734	47.972	-8191	255	
1508.436	1	1	0	0	0.16461	0.10016	0.28948	0.33426	0.15218	0.058245	0.29722	0.10577	0.22805	0.068132	0.21469	0.20591	0.17735	0.22523	0.14051	0.23922	-1.9771	-3.0583	-2.4062	-3.0167	-3.05	-2.4313	-2.925	-2.9875	-2.3312	-3.0333	-2.7562	-2.5833	-3.25	-2.5083	-2.8	-2.9542	118.414	185.576	211.917	348.386	268.237	288.366	350.625	319.225	39.675	140.724	293.195	370.956	51.919	322.960	235.570	374.707	0.00032741	0.00038795	8.8161e-05	1548.8	2.4551e-06	2.8033e-06	1548.6	406.52	1.7503e-06	1.1876e-05	460.68	155.57	136.3	46.353	3.8423e-06	56.914	0.00078202	0.00092113	0.00025458	1573.9	9.0115e-06	1.003e-05	1578	417.52	8.8501e-06	1.0263e-05	476.03	161.34	140.83	48.679	9.7595e-06	59.338	197.522	76.356	29.869	35.322	233.765	189.493	35.257	40.218	224.151	160.950	39.714	44.382	44.994	48.873	179.704	48.303	-8191	255	
1508.532	1	1	0	0	0.1318	0.16503	0.18039	0.15194	0.070561	0.13252	0.23468	0.24375	0.070664	0.064772	0.26455	0.28305	0.2033	0.16481	0.09726	0.091692	-1.9104	-2.9792	-2.6437	-2.7229	-2.9979	-2.5583	-3.1896	-3.0479	-2.3854	-3.1542	-2.7479	-2.5354	-3.2208	-2.4917	-2.6312	-2.9646	276.625	77.311	156.826	337.303	264.904	268.879	348.849	346.986	183.964	287.568	372.832	319.124	282.528	293.868	204.941	23.572	0.00040306	0.0006961	0.00021005	1546.4	6.3597e-06	1.2416e-06	1545.6	405.89	3.516e-06	7.6202e-06	458.95	155.1	134.97	45.956	2.8574e-06	56.404	0.00082042	0.00094254	0.0002489	1573	9.405e-06	1.0289e-05	1573.9	416.41	9.4514e-06	1.036e-05	474.22	160.82	140.31	48.355	9.5936e-06	58.961	205.040	89.792	95.624	35.722	216.201	224.590	35.899	40.966	188.706	215.408	40.241	44.971	45.442	49.291	100.613	48.955	-8191	255	
1508.629	1	1	0	0	0.093215	0.14027	0.11693	0.19201	0.10739	0.27131	0.29215	0.089013	0.18306	0.064885	0.14101	0.20963	0.14154	0.24874	0.084498	0.1132	-1.8917	-2.8063	-2.8854	-2.7021	-3.1917	-2.5812	-2.7208	-3.1208	-2.2479	-2.8958	-2.85	-2.325	-3.0021	-2.5833	-2.5646	-3.0583	345.447	186.002	364.660	348.125	37.248	101.580	336.736	338.495	48.756	177.215	122.832	308.355	80.977	353.176	68.076	75.380	0.00036868	0.00044671	0.00018832	1538.6	7.6306e-06	7.4535e-06	1540.7	404.87	5.9703e-06	6.5009e-06	459.13	154.94	135.28	46.292	5.324e-06	56.78	0.00087551	0.00093838	0.00024564	1568.4	1.0037e-05	1.0173e-05	1569.2	415.72	9.9506e-06	9.982e-06	473.53	160.26	140.6	48.275	9.258e-06	59.059	210.589	364.412	103.691	35.978	218.249	213.691	35.928	40.715	244.868	176.993	40.368	45.189	45.432	49.578	170.185	48.846	-8191	255	
1508.725	1	1	0	0	0.11523	0.11455	0.11631	0.28343	0.14509	0.12204	0.32063	0.2037	0.068628	0.13912	0.31247	0.20207	0.25405	0.071606	0.090831	0.19331	-1.9208	-2.7208	-2.8917	-2.6542	-2.9646	-2.4604	-2.7708	-3.0958	-2.3542	-2.7021	-3.0875	-2.4625	-3.2396	-2.7583	-2.4708	-3.0729	114.530	364.363	358.288	370.170	247.963	73.412	372.783	334.847	230.370	248.552	282.055	371.835	375.438	150.921	378.638	149.988	0.00040456	0.00046646	0.00015763	1547	7.4956e-06	9.2271e-06	1545.7	405.45	4.8888e-06	5.5509e-06	459.99	155.77	135.69	46.429	6.3453e-06	56.857	0.00090699	0.00089837	0.00023811	1572.6	1.0208e-05	9.8506e-06	1571	416.44	1.0186e-05	9.5801e-06	472.99	161.2	141.26	48.41	8.9155e-06	59.231	199.581	365.683	79.145	35.980	190.292	169.098	35.976	41.001	174.674	107.576	40.061	45.028	45.327	49.329	177.574	48.575	-8191	255	
1508.844	1	1	0	0	0.12188	0.21151	0.14879	0.36215	0.035215	0.10016	0.25684	0.051238	0.20649	0.11024	0.28802	0.26701	0.17386	0.014852	0.24371	0.14764	-1.9021	-2.5354	-2.9667	-2.3792	-3.0417	-2.9	-2.7	-3.2417	-2.4292	-2.6229	-3.1875	-2.4667	-2.9562	-2.9958	-2.3833	-3.2229	230.635	185.667	198.921	341.186	114.584	108.645	339.537	57.898	283.176	146.002	306.074	44.702	324.105	317.740	322.008	215.113	0.00038807	0.00037484	0.00019757	1546.7	7.1898e-06	3.3793e-06	1540.8	405.3	4.4582e-06	7.8348e-06	458.47	155.1	135.3	46.243	4.8813e-06	56.498	0.000907	0.00085591	0.0002292	1572.1	1.0079e-05	9.4445e-06	1568.1	417.48	1.0066e-05	9.2811e-06	472.23	161.48	140.74	48.215	8.7851e-06	59.417	208.502	155.409	145.523	36.211	263.913	240.491	35.914	40.915	201.562	173.007	39.896	44.395	44.639	48.776	185.251	48.035	-8191	255	
1508.915	1	1	0	0	0.15098	0.054618	0.18186	0.18824	0.27546	0.10909	0.43468	0.37252	0.15824	0.14465	0.25174	0.28556	0.27323	0.11941	0.060902	0.15462	-1.9625	-2.2958	-2.8958	-2.6354	-2.8688	-2.7271	-2.6375	-3.1229	-2.5229	-2.5146	-3.0646	-2.2896	-2.975	-2.7708	-2.3708	-3.0708	311.415	236.882	177.558	345.328	49.775	214.592	347.371	366.610	30.376	192.720	33.748	27.683	336.069	26.189	280.965	291.949	0.00028704	0.0011343	0.00015249	1540.7	5.1157e-06	8.458e-06	1542.5	404.36	2.557e-07	2.5163e-06	460.02	155.2	135.02	45.883	6.2476e-06	56.541	0.00089295	0.00084969	0.00022991	1574.5	9.8702e-06	9.4257e-06	1566.1	417.41	9.8638e-06	9.0478e-06	472.36	161.61	140.42	48.019	9.0934e-06	59.415	207.756	129.885	97.234	36.021	204.717	192.065	36.053	41.124	219.543	120.869	39.765	44.129	44.726	48.982	197.665	48.331	-8191	255	
1509.012	1	1	0	0	0.24095	0.18572	0.029488	0.27074	0.15058	0.11563	0.21708	0.37576	0.20486	0.2059	0.32397	0.1732	0.18441	0.20208	0.078588	0.12972	-2.1854	-2.3646	-2.9375	-2.5479	-2.8667	-3.0146	-2.3646	-3.0396	-2.4958	-2.4542	-3.0646	-2.4625	-2.7292	-2.9688	-2.1521	-2.9479	241.986	159.352	36.537	23.739	128.072	32.848	53.856	375.581	252.561	158.256	331.566	113.101	26.858	381.363	252.110	324.084	0.00036568	0.00039406	0.00017422	1537.8	5.5801e-06	4.5771e-06	1547.3	404.76	9.5907e-06	2.1656e-06	457.71	154.47	134.62	46.167	8.3696e-06	56.68	0.00087693	0.00082756	0.00023807	1573.6	9.5849e-06	9.105e-06	1569.2	418.01	9.5683e-06	8.8395e-06	472.69	161.38	139.92	48.008	9.5087e-06	59.318	214.703	118.944	183.421	35.393	132.839	206.795	35.373	40.184	205.947	43.123	39.590	44.411	45.095	49.011	211.456	48.142	-8191	255	
1509.109	1	1	0	0	0.098785	0.06673	0.14457	0.22166	0.24137	0.17066	0.26616	0.32946	0.11223	0.097477	0.02444	0.082595	0.22259	0.088535	0.21433	0.20688	-2.3167	-2.3563	-3.1271	-2.6833	-2.6	-2.9646	-2.5604	-3.1479	-2.8063	-2.4604	-3.0833	-2.6104	-2.6521	-3.1292	-2.35	-3.1083	54.606	327.142	252.230	364.368	184.060	87.166	267.381	335.383	312.234	312.969	46.063	322.045	307.057	359.827	332.999	265.626	0.00028955	0.00033721	0.00016343	1537.6	4.5937e-06	1.708e-06	1548	406.16	4.4943e-06	8.3076e-06	459.74	154.89	134.75	46.099	9.4584e-06	56.597	0.000835	0.00078983	0.0002461	1575.6	9.1802e-06	8.8541e-06	1574.3	418.07	9.3211e-06	8.6968e-06	474.47	161.3	139.68	47.949	1.004e-05	59.314	195.143	357.423	154.581	35.594	143.775	357.549	35.458	40.435	211.106	182.817	40.043	44.374	44.688	49.271	214.857	48.357	-8191	255	
1509.228	1	1	0	0	0.23126	0.24217	0.13128	0.3052	0.14455	0.19461	0.16097	0.21612	0.26505	0.23649	0.31202	0.31297	0.090077	0.32775	0.16732	0.070015	-2.4562	-2.3229	-2.9562	-2.8292	-2.4854	-3.1021	-2.4896	-2.9896	-2.8167	-2.2812	-3.2208	-2.8542	-2.4688	-3.0521	-2.4083	-2.8812	67.977	65.627	259.494	359.352	377.886	108.145	255.058	265.912	289.053	101.691	49.375	351.093	303.888	40.375	325.477	72.260	0.00037252	0.00026017	0.00017008	1540	3.7869e-06	7.1231e-06	1540.6	402.75	3.1699e-06	7.73e-06	459.32	154.19	134.63	45.851	5.9662e-06	56.516	0.00082998	0.00081198	0.00026035	1574.1	9.1029e-06	9.1538e-06	1571.8	415.92	9.3309e-06	9.182e-06	475.53	160.74	139.14	47.872	1.044e-05	58.994	207.158	96.404	78.790	35.658	236.439	231.291	35.461	40.441	222.028	203.775	39.755	44.800	45.002	49.323	273.514	48.537	-8191	255	
1509.324	1	1	0	0	0.094987	0.13208	0.17252	0.30792	0.055276	0.2627	0.26525	0.17763	0.1764	0.21933	0.085521	0.14801	0.3712	0.48965	0.20399	0.080396	-2.6479	-2.2021	-3.0854	-2.8833	-2.3708	-3.2083	-2.6875	-2.6708	-2.8438	-2.3854	-3.1688	-2.8583	-2.3583	-3.0667	-2.4458	-2.6542	119.689	209.163	346.504	36.360	153.368	189.967	287.426	25.976	156.333	233.960	311.536	255.937	39.541	338.523	158.573	45.143	0.00037792	0.0006689	0.0001538	1536.1	5.0602e-06	1.2367e-05	1542.5	402.74	1.3165e-06	9.7596e-06	458.67	153.85	134.57	45.923	4.2709e-06	56.391	0.00082602	0.00086377	0.00026469	1568.3	8.9423e-06	9.6491e-06	1572.6	415.14	9.0277e-06	9.7356e-06	474.62	160.43	139.04	48.062	1.0179e-05	58.844	200.606	166.110	182.695	35.509	197.453	213.655	35.593	40.529	211.195	176.635	39.673	44.494	44.624	49.200	188.155	47.976	-8191	255	
1509.421	1	1	0	0	0.21771	0.26661	0.042419	0.070034	0.13381	0.16591	0.40672	0.3398	0.16287	0.16904	0.24623	0.20219	0.25426	0.045115	0.027777	0.11781	-2.5917	-2.2354	-2.7542	-2.9437	-2.45	-3.0229	-2.7771	-2.5292	-2.9875	-2.4771	-2.9688	-3.0354	-2.6729	-3.0104	-2.6875	-2.3979	268.935	139.894	81.337	245.509	343.069	105.338	317.951	336.085	85.605	260.199	314.288	50.656	324.286	299.751	261.973	304.513	0.00036856	0.00064536	0.0002941	1535.3	8.9326e-06	4.9698e-06	1540.6	404.27	5.3528e-06	3.9352e-06	458.33	154.77	134.9	46.099	1.1871e-05	56.671	0.00080413	0.00090212	0.00025249	1568	8.7161e-06	9.9402e-06	1570.5	415.27	8.9607e-06	9.9941e-06	472.95	160.25	139.32	48.174	9.6787e-06	58.759	207.704	103.360	138.334	35.627	211.173	149.050	35.282	40.047	240.128	199.376	39.746	44.777	44.988	49.198	172.673	48.040	-8191	255	
1509.541	1	1	0	0	0.31707	0.062908	0.12764	0.17476	0.18061	0.058587	0.051368	0.2834	0.30793	0.24577	0.11814	0.34498	0.26994	0.12113	0.052691	0.091615	-2.8187	-2.3208	-2.55	-3.1083	-2.3396	-2.925	-2.7458	-2.4083	-2.8542	-2.3312	-2.675	-2.8396	-2.225	-2.8042	-2.6646	-2.4146	133.302	107.882	258.478	262.946	296.633	278.232	343.963	318.252	358.925	205.329	22.584	365.102	342.837	204.700	218.496	279.842	0.00041578	0.0010176	0.00017594	1542.1	1.125e-05	8.106e-06	1535.6	404.08	8.3606e-06	6.7221e-06	456.53	154.23	134.47	46.03	6.6275e-06	56.349	0.00081115	0.00092789	0.00024162	1570	9.0984e-06	1.0136e-05	1567.6	414.54	9.2955e-06	1.0075e-05	471.79	159.95	139.55	48.095	9.4853e-06	58.534	198.701	82.201	35.835	35.753	208.988	213.515	35.582	40.334	242.227	139.266	39.805	44.412	45.003	49.216	193.846	48.311	-8191	255	
1509.613	1	1	0	0	0.041912	0.21401	0.074762	0.19081	0.16342	0.21633	0.34074	0.3261	0.1888	0.09793	0.1195	0.22617	0.14831	0.31622	0.24105	0.11523	-2.7833	-2.4792	-2.6521	-3.1188	-2.2313	-2.8667	-3.2104	-2.6104	-3.075	-2.4188	-2.6646	-3.0083	-2.5438	-3.0021	-2.7708	-2.3271	323.473	29.338	333.804	299.720	127.757	30.335	344.371	338.551	300.825	152.199	63.950	37.062	369.224	55.063	178.613	248.171	0.0004282	0.00079364	0.00024704	1538.8	8.2054e-06	3.1678e-06	1538.7	403.23	6.0682e-06	6.812e-06	457.25	154.62	133.83	45.766	2.9751e-06	56.254	0.00085716	0.00091567	0.00023675	1566.2	9.7244e-06	9.9363e-06	1568.6	414.11	9.9111e-06	9.8943e-06	472.04	159.72	139.48	47.927	9.3851e-06	58.41	188.645	40.601	122.810	35.796	270.312	95.504	35.494	40.149	189.220	119.464	39.466	44.715	44.828	49.116	210.799	48.555	-8191	255	
1509.709	1	1	0	0	0.19124	0.1061	0.23531	0.3151	0.34827	0.15148	0.16271	0.38524	0.14121	0.098197	0.097212	0.24638	0.24171	0.15651	0.22564	0.33075	-2.6917	-2.5271	-2.5	-3.1937	-2.325	-2.775	-3.1458	-2.5271	-3.1	-2.4229	-2.6417	-3.1396	-2.4938	-2.7917	-2.9354	-2.325	77.320	210.875	39.970	291.532	293.380	25.231	28.218	366.612	251.297	320.408	283.577	372.259	372.185	29.158	208.972	308.643	0.00038477	0.00032707	4.4781e-05	1532.8	1.0281e-05	3.7744e-06	1537.7	404.36	1.3706e-06	7.2567e-06	455.08	153.94	133.69	45.865	4.3219e-06	56.268	0.00090159	0.00089613	0.00023272	1564.3	1.0118e-05	9.6362e-06	1564.3	414.43	1.0208e-05	9.6267e-06	469.48	159.68	139.44	47.715	9.0511e-06	58.513	192.305	97.383	241.855	35.671	229.174	116.138	35.754	40.214	259.348	359.297	39.926	44.877	44.764	48.932	212.727	48.819	-8191	255	
1509.830	1	1	0	0	0.13469	0.0744	0.06942	0.27187	0.20967	0.098914	0.1949	0.054461	0.042788	0.075105	0.16925	0.18426	0.34895	0.17537	0.16773	0.24877	-2.4771	-2.7021	-2.4646	-3.175	-2.4042	-2.7	-3.1521	-2.5979	-3.1042	-2.5854	-2.5438	-3.2229	-2.5771	-2.7687	-3.0438	-2.3104	243.006	305.397	145.245	356.764	340.992	212.217	300.539	288.433	353.651	119.404	309.247	149.075	308.884	327.018	367.427	279.749	0.00032948	0.00025062	0.00015571	1537.8	4.0271e-06	5.044e-06	1544	404.36	3.0149e-06	3.6578e-06	457.98	154.03	133.84	45.64	5.6834e-06	56.342	0.00090443	0.00086491	0.00022267	1567.5	1.0014e-05	9.1758e-06	1564.9	414.57	9.9039e-06	9.3046e-06	469.8	160.07	139.41	47.635	8.7582e-06	58.808	205.103	56.757	65.471	35.721	145.631	160.247	35.536	40.494	146.288	187.769	39.702	44.867	45.012	49.103	238.042	48.275	-8191	255	
1509.924	1	1	0	0	0.18068	0.34532	0.085627	0.20273	0.052269	0.20075	0.29914	0.16093	0.12162	0.13671	0.10134	0.082965	0.023034	0.20542	0.12604	0.23314	-2.4042	-2.6917	-2.3604	-3.2104	-2.4667	-2.5792	-3.3917	-2.4313	-2.7125	-2.8042	-2.5083	-3.0229	-2.5292	-2.4833	-3.1896	-2.5458	256.387	122.507	208.497	326.719	355.526	249.482	306.066	327.585	185.966	39.949	237.871	228.622	152.790	362.792	358.630	337.331	0.00039275	0.00074227	0.00018957	1543.3	6.5581e-06	7.3127e-06	1544.2	402.4	7.0253e-06	9.9467e-06	457.28	153.93	134.32	45.846	5.8911e-06	56.296	0.00086704	0.00083411	0.00021816	1571.8	9.5752e-06	8.8718e-06	1563.8	415.37	9.4102e-06	9.013e-06	469.18	160.5	139.18	47.623	8.8714e-06	58.968	206.259	77.675	83.772	35.350	204.083	313.861	35.563	40.193	173.024	139.782	39.446	44.451	44.879	48.667	213.273	48.023	-8191	255	
1510.020	1	1	0	0	0.23861	0.24192	0.051286	0.39653	0.25208	0.1959	0.10938	0.48609	0.26198	0.11736	0.24291	0.074609	0.22706	0.22539	0.10191	0.29595	-2.5542	-2.9479	-2.2812	-3.2896	-2.6375	-2.4333	-3.4042	-2.5604	-2.5771	-2.9396	-2.5896	-3.0021	-2.7438	-2.3063	-2.9	-2.65	86.480	48.831	351.194	354.357	368.381	181.962	360.663	298.815	250.891	327.456	29.437	47.054	315.292	41.105	174.582	187.724	0.00036166	0.00048665	0.00017648	1537.2	6.3771e-06	5.7974e-06	1535.6	401.79	5.1503e-06	4.9046e-06	456.44	153.18	133.72	45.749	7.6927e-06	55.965	0.00083295	0.0008119	0.00022632	1569.8	9.3189e-06	8.6961e-06	1563.5	415	9.2638e-06	8.7383e-06	470.38	160.36	138.82	47.493	9.4827e-06	58.716	196.216	202.054	129.976	35.294	210.285	303.284	35.528	39.921	113.874	96.982	39.543	44.489	44.913	48.719	237.593	48.172	-8191	255	
1510.141	1	1	0	0	0.022681	0.11575	0.088904	0.21098	0.15655	0.047085	0.29596	0.25779	0.14869	0.18533	0.16048	0.16884	0.20407	0.12311	0.12924	0.073179	-2.3375	-2.9771	-2.3187	-3.0625	-2.6646	-2.3979	-3.2229	-2.8229	-2.525	-3.0354	-2.425	-3.1188	-2.9521	-2.5479	-2.9188	-2.5604	300.515	146.481	156.835	313.038	50.007	54.488	341.756	324.441	251.650	345.620	34.379	299.592	73.721	317.734	300.667	350.760	0.00037666	0.00055886	0.0002093	1540.7	6.6074e-06	5.0215e-07	1537.9	403.68	4.3776e-06	4.5228e-06	456.12	153.97	134.19	45.613	9.4375e-06	56.443	0.00081311	0.00079524	0.0002404	1570.1	9.1798e-06	8.4877e-06	1567.1	415.3	9.0104e-06	8.7302e-06	471.86	160.05	138.84	47.445	9.8258e-06	58.864	202.094	78.220	132.073	35.757	223.737	163.339	35.478	40.328	217.784	242.747	39.625	44.579	45.195	49.284	200.478	48.655	-8191	255	
1510.213	1	1	0	0	0.16678	0.22951	0.14229	0.13596	0.28791	0.16274	0.19089	0.32641	0.16587	0.093076	0.16256	0.052198	0.19433	0.14755	0.28951	0.081378	-2.2771	-3.0146	-2.2208	-3.0146	-3.1	-2.5479	-3.1188	-2.8812	-2.45	-3.1042	-2.4979	-2.7812	-2.9938	-2.6688	-2.9021	-2.8042	33.198	74.810	370.621	319.474	71.369	234.250	371.336	298.559	313.358	278.576	348.810	326.715	369.895	53.425	143.652	290.122	0.00033477	0.00086147	0.00039655	1539.8	7.4616e-06	7.3944e-06	1535.9	402.09	8.0629e-06	8.9011e-06	457.39	153.99	134.92	45.678	6.6005e-06	56.163	0.00080056	0.00080138	0.00025194	1569.2	8.9999e-06	8.6914e-06	1569.2	414.77	8.7555e-06	8.9896e-06	472.95	160.15	139.02	47.594	9.9641e-06	58.597	198.238	97.448	108.252	35.851	232.856	179.763	35.810	40.712	226.052	172.389	39.740	44.698	45.338	49.404	215.504	48.235	-8191	255	
1510.309	1	1	0	0	0.32311	0.23891	0.29709	0.41738	0.048361	0.14934	0.35321	0.27606	0.26123	0.078982	0.29206	0.1759	0.29855	0.029615	0.12001	0.15803	-1.9417	-3.1125	-2.3896	-2.9958	-3.0187	-2.3917	-3.175	-3.025	-2.5375	-3.0167	-2.4333	-2.7521	-3.1333	-2.4667	-2.8812	-2.9083	82.488	237.740	84.303	335.076	113.936	341.891	311.237	329.208	120.139	317.063	347.598	153.832	46.111	232.824	373.505	60.093	0.00034505	0.00049018	6.3757e-05	1539.7	6.1459e-06	7.8177e-06	1541.3	402.77	4.8865e-06	1.0018e-05	456.89	153.68	133.69	45.726	7.6068e-07	56.209	0.00076639	0.00083015	0.00025152	1565.5	8.6585e-06	9.0359e-06	1568.8	413.75	8.4194e-06	9.3918e-06	471.86	159.47	138.44	47.717	9.7277e-06	58.59	199.550	133.642	178.251	35.863	244.942	230.551	35.530	40.361	218.099	158.158	40.093	44.760	45.112	49.140	337.791	48.752	-8191	255	
1510.405	1	1	0	0	0.27218	0.16458	0.18669	0.26341	0.17828	0.035835	0.048024	0.21776	0.16195	0.18515	0.38379	0.21175	0.20595	0.22584	0.20378	0.16547	-1.7917	-3.0792	-2.5333	-2.7833	-2.9437	-2.5333	-3.0521	-3.0312	-2.2438	-2.9708	-2.6583	-2.6229	-3.2167	-2.5062	-2.9062	-3.0958	318.968	156.467	173.217	373.801	274.253	89.049	345.704	368.570	23.294	278.348	321.663	351.606	61.776	342.107	64.166	298.263	0.00041809	0.00044817	4.267e-05	1537	4.9194e-06	7.2508e-06	1533.1	402.93	2.1545e-06	4.5395e-06	459.31	154.16	134.15	45.693	3.3732e-06	56.132	0.00076807	0.0008933	0.00024769	1564.2	8.717e-06	9.8045e-06	1566.4	414.16	8.6105e-06	9.9557e-06	472.51	159.25	138.64	47.849	9.5405e-06	58.452	198.497	104.920	103.415	35.772	169.645	206.128	35.894	40.593	219.102	129.447	40.139	44.875	45.081	49.163	169.767	48.554	-8191	255	
1510.525	1	1	0	0	0.35612	0.054694	0.089225	0.30408	0.086069	0.086502	0.12302	0.24518	0.1553	0.26154	0.1645	0.32842	0.14731	0.072795	0.26395	0.23142	-2.2229	-2.9688	-2.5417	-2.6125	-2.9313	-2.5625	-2.8833	-3.0604	-2.2729	-2.9958	-2.8833	-2.5062	-3.0563	-2.6562	-2.6354	-3.0604	103.601	301.225	343.662	335.530	233.927	176.854	306.446	362.631	113.611	328.162	302.343	322.419	125.015	31.556	241.782	328.705	0.00037177	0.00042365	5.6986e-05	1538.5	1.1035e-05	2.0496e-06	1538.4	402.55	2.738e-06	4.8305e-06	457.7	154.09	133.96	45.899	4.3552e-06	56.122	0.00079726	0.00091988	0.00024221	1564	9.1634e-06	1.0031e-05	1566.4	413.57	9.2316e-06	9.9694e-06	471.43	159.15	139.08	47.955	9.1373e-06	58.434	206.712	59.638	375.533	35.949	234.757	267.291	35.793	40.621	179.421	169.867	39.341	44.323	44.951	48.860	248.688	48.614	-8191	255	
1510.622	1	1	0	0	0.24969	0.22575	0.32655	0.29431	0.12129	0.085486	0.28716	0.10859	0.11322	0.15229	0.05581	0.26259	0.11696	0.1026	0.042549	0.18333	-2.1063	-2.9583	-2.6229	-2.5771	-3.0812	-2.3417	-2.7729	-3.0104	-2.3729	-3.1271	-2.9042	-2.3187	-3.2979	-2.6729	-2.6646	-3.1479	155.809	100.546	96.992	347.995	190.153	331.258	263.915	292.582	75.112	135.138	296.161	44.557	285.013	230.231	382.127	313.322	0.00042042	0.00036349	8.3623e-05	1543.1	9.4728e-06	4.8382e-06	1538.4	403.01	3.1503e-06	5.4312e-06	457.86	153.35	134.31	45.826	3.5373e-06	56.389	0.00083454	0.00089387	0.00023431	1567.4	9.5253e-06	9.7432e-06	1566.5	414.06	9.6305e-06	9.565e-06	470.93	158.99	139.66	47.853	8.8628e-06	58.561	197.793	37.933	77.485	35.775	215.587	117.692	35.553	40.759	251.468	184.714	39.952	44.716	45.041	49.192	236.037	48.621	-8191	255	
1510.718	1	1	0	0	0.24817	0.20618	0.044078	0.29567	0.11906	0.24611	0.26501	0.09339	0.12491	0.047336	0.1541	0.16976	0.19356	0.064092	0.095224	0.16738	-1.9458	-2.8667	-2.9583	-2.5979	-3.1208	-2.5229	-2.7417	-3.3042	-2.3542	-2.7917	-2.9875	-2.4437	-2.9625	-2.7417	-2.4917	-3.1333	343.185	207.765	103.112	375.367	23.679	76.554	318.871	68.125	76.360	198.119	248.877	359.052	376.742	42.078	341.486	335.641	0.00036446	0.00063221	0.00013155	1535.2	1.2217e-05	4.2424e-06	1539.1	404.45	4.1488e-06	3.3457e-06	456.43	153.64	134.09	45.806	4.8012e-06	56.101	0.00087444	0.00086491	0.00023185	1563.7	9.9197e-06	9.5029e-06	1562.2	414.72	1.0078e-05	9.485e-06	469.8	159.39	139.55	47.689	8.829e-06	58.497	200.241	46.066	160.116	35.400	224.050	175.996	35.806	40.884	182.608	194.692	39.576	44.450	44.634	48.843	116.317	48.236	-8191	255	
1510.789	1	1	0	0	0.21844	0.22697	0.1684	0.39675	0.069708	0.040133	0.40296	0.13913	0.23053	0.21176	0.32221	0.15535	0.29264	0.24683	0.12535	0.02857	-2.125	-2.6667	-2.6958	-2.4604	-2.8187	-2.6937	-2.5896	-3.2875	-2.3937	-2.7771	-3.2333	-2.4333	-3	-2.95	-2.475	-3.3	233.372	344.701	352.444	341.988	130.133	52.469	326.324	328.074	91.407	204.750	314.210	258.845	360.667	380.320	308.013	297.415	0.0002691	0.00047356	0.0002503	1537.6	1.6241e-06	1.466e-06	1535.1	404.2	2.9491e-06	2.8201e-06	458.62	153.27	133.64	45.678	4.9996e-06	56.314	0.00089672	0.00084535	0.00022504	1565.6	9.9068e-06	9.2737e-06	1560.9	414.91	9.8446e-06	9.0805e-06	468.89	159.68	139.21	47.592	8.5526e-06	58.771	206.570	148.809	65.142	35.178	180.043	370.334	35.426	40.438	257.501	113.846	39.969	45.028	45.030	49.163	173.643	48.901	-8191	255	
1510.908	1	1	0	0	0.23869	0.10212	0.10994	0.40723	0.054834	0.32303	0.44333	0.13404	0.047112	0.2383	0.058825	0.2312	0.16362	0.07379	0.20657	0.26142	-2.0667	-2.6771	-3.0292	-2.7	-2.8042	-2.8833	-2.5542	-3.1417	-2.6208	-2.6813	-3.3146	-2.5583	-2.8396	-3.0896	-2.35	-2.9542	164.486	299.637	234.280	331.723	53.668	122.728	253.147	305.074	236.030	222.972	282.415	30.922	340.894	89.582	362.043	87.927	0.00036152	0.0003347	0.00015703	1542.2	5.4631e-06	7.4108e-06	1538.9	403.77	3.2817e-06	4.0691e-06	456.94	154.16	133.86	45.775	5.9523e-06	56.253	0.00085819	0.00080429	0.00021878	1568.7	9.391e-06	8.9415e-06	1561.1	415.66	9.4451e-06	8.6674e-06	468.85	160.14	138.82	47.541	8.6772e-06	58.709	197.042	194.819	182.246	35.632	186.974	152.530	35.809	40.301	240.527	153.817	39.909	44.938	45.139	49.315	221.367	48.578	-8191	255	
1511.004	1	1	0	0	0.21053	0.11896	0.28198	0.1521	0.12472	0.16068	0.13496	0.11408	0.19669	0.29957	0.22948	0.11095	0.17518	0.0037922	0.25554	0.20097	-2.125	-2.3771	-3.0625	-2.7271	-2.7979	-3.0187	-2.7062	-3.2542	-2.8021	-2.3937	-3.1396	-2.45	-2.7854	-3.1146	-2.3375	-2.975	342.060	347.770	216.944	343.200	144.843	123.259	358.897	375.505	77.475	215.020	318.243	107.013	61.234	167.586	126.855	318.467	0.00031454	0.00046085	0.00013992	1535.6	4.8877e-06	4.7703e-06	1539.3	403.71	4.5206e-06	6.119e-06	457.41	154.05	133.62	45.753	6.2417e-06	56.339	0.00083041	0.00077689	0.00022641	1569.9	9.0759e-06	8.6658e-06	1562.2	415.56	9.0982e-06	8.4267e-06	469.85	160.1	138.61	47.464	9.0625e-06	58.752	211.492	361.285	60.973	35.727	257.247	109.052	35.528	40.251	176.014	106.749	40.201	44.795	44.762	49.044	209.788	48.645	-8191	255	
1511.101	1	1	0	0	0.095508	0.17666	0.16287	0.20372	0.28748	0.070108	0.15176	0.13145	0.12387	0.24325	0.28388	0.12252	0.11411	0.27357	0.060309	0.34862	-2.2958	-2.4229	-3.0479	-2.5833	-2.7458	-2.9583	-2.5708	-3.025	-2.7125	-2.4458	-3.2375	-2.7479	-2.8292	-3.1771	-2.4083	-2.9667	167.362	47.160	70.586	255.747	377.267	33.376	370.951	319.309	220.640	367.624	360.750	229.361	349.998	39.279	336.393	329.925	0.00035987	0.00060783	0.00031636	1530.7	6.9306e-06	3.9168e-06	1537.9	402.64	5.1597e-06	9.5029e-06	457.23	154.08	134.03	45.873	2.1342e-06	56.18	0.0008022	0.00075808	0.00023822	1564.3	8.8298e-06	8.4832e-06	1563.3	414.83	8.8916e-06	8.3255e-06	471.44	159.63	138.46	47.478	9.6296e-06	58.595	198.330	158.792	124.873	35.673	199.704	150.470	35.661	40.422	248.029	158.978	39.646	44.690	45.040	49.268	253.513	48.814	-8191	255	
1511.221	1	1	0	0	0.20802	0.04302	0.075537	0.14011	0.11054	0.13297	0.25921	0.21308	0.21442	0.27464	0.029213	0.096055	0.18773	0.21876	0.084498	0.17557	-2.5812	-2.2875	-2.9313	-2.6854	-2.6188	-3.2479	-2.6333	-2.8812	-2.7562	-2.4396	-3.1917	-2.8375	-2.4229	-3.1646	-2.5271	-2.9479	26.707	103.929	239.382	372.371	109.624	148.697	375.454	354.226	356.065	127.406	328.517	290.501	314.674	285.365	230.644	280.546	0.00040661	0.0006522	1.6878e-05	1540.1	7.7961e-06	8.0792e-06	1531.4	401.39	5.1374e-06	3.3604e-06	457.28	153.41	133.9	45.811	4.0755e-06	56.085	0.00078351	0.00076427	0.00024483	1566.2	8.5711e-06	8.4842e-06	1563.9	413.18	8.6154e-06	8.4317e-06	471.2	159.18	138.3	47.469	9.601e-06	58.332	189.624	80.735	39.541	35.936	330.036	215.561	35.272	40.274	208.027	209.603	40.255	44.692	44.761	48.957	151.951	48.628	-8191	255	
1511.317	1	1	0	0	0.11577	0.36946	0.20896	0.054752	0.28584	0.051107	0.47862	0.20445	0.36677	0.074107	0.2154	0.035839	0.17766	0.22548	0.054938	0.12809	-2.55	-2.5625	-3.1854	-3.0896	-2.5187	-3.1167	-2.5812	-2.8646	-3.0062	-2.3208	-3.1479	-2.95	-2.6208	-3.0521	-2.6479	-2.8646	77.135	230.328	218.435	256.283	304.518	301.128	346.494	330.256	301.667	317.943	376.883	60.582	182.762	30.713	161.082	53.975	0.00036425	0.00040391	0.00019826	1534.1	6.693e-06	3.2466e-06	1533.3	401.69	5.2682e-06	5.7089e-06	456.41	153.2	133.56	45.872	2.5313e-06	56.356	0.00075338	0.00080118	0.00024407	1562.6	8.1846e-06	8.9377e-06	1562.7	413.13	8.2589e-06	8.9756e-06	470.97	159.09	137.88	47.701	9.2963e-06	58.425	191.399	37.182	97.512	35.965	236.097	238.758	35.868	40.383	188.793	170.651	39.285	44.277	44.994	49.389	206.636	48.246	-8191	255	
1511.414	1	1	0	0	0.073091	0.24921	0.31873	0.22084	0.19315	0.15449	0.26843	0.52924	0.15215	0.096553	0.37741	0.095995	0.31759	0.14826	0.03901	0.38765	-2.6479	-2.5042	-2.9771	-3.0563	-2.4188	-3.2021	-2.7854	-2.6188	-2.9938	-2.5333	-2.8438	-2.9896	-2.3208	-3.1104	-2.5375	-2.6229	35.894	197.587	71.578	354.970	203.576	220.492	307.674	363.535	208.183	64.345	376.074	299.585	327.371	351.694	46.874	286.283	0.00044817	0.00022583	8.3943e-05	1537.9	7.7048e-06	4.3995e-06	1536.7	403.54	6.5918e-06	5.8915e-06	458.26	153.76	133.73	45.868	4.8323e-06	56.232	0.00074429	0.00083841	0.00023315	1563.2	8.0322e-06	9.3874e-06	1565.3	413.49	8.2509e-06	9.2703e-06	470.58	159.11	138.32	47.747	9.0678e-06	58.205	203.569	360.664	117.294	35.979	211.608	156.719	35.895	40.519	243.796	258.461	40.031	44.871	44.493	48.961	200.890	48.253	-8191	255	
1511.510	1	1	0	0	0.2211	0.26634	0.098552	0.07615	0.14968	0.047188	0.21646	0.2309	0.090393	0.19685	0.072087	0.17259	0.12675	0.16505	0.2985	0.18283	-2.5979	-2.3979	-2.7896	-3.0938	-2.4021	-2.9479	-2.8333	-2.6021	-3.1271	-2.4771	-2.7812	-2.9708	-2.3	-3.0375	-2.675	-2.5312	90.900	88.339	60.556	271.235	359.949	137.559	377.199	48.057	141.589	205.882	332.961	44.167	59.164	307.836	103.346	319.377	0.00038447	0.001197	0.00020155	1536.1	8.6267e-06	1.6541e-06	1536.8	402.61	5.5628e-06	5.8525e-06	456.75	153.82	133.87	45.644	3.7676e-06	56.263	0.00076669	0.00086749	0.00022451	1563	8.5234e-06	9.4642e-06	1561.7	412.01	8.7362e-06	9.379e-06	468.81	158.49	138.48	47.648	8.74e-06	58.089	214.572	91.547	75.922	35.512	198.741	143.412	35.403	39.937	189.856	197.688	39.709	44.351	44.316	48.988	188.828	48.092	-8191	255	
1511.606	1	1	0	0	0.075093	0.32298	0.33393	0.52011	0.14386	0.11916	0.48839	0.36311	0.21646	0.13544	0.20761	0.098015	0.31754	0.091429	0.053865	0.17103	-2.6479	-2.5375	-2.6208	-3.1875	-2.3688	-3.0354	-3.0354	-2.6104	-3.0812	-2.5583	-2.6042	-3.1375	-2.5	-3.0292	-2.8063	-2.5146	47.732	346.817	91.620	353.287	248.670	119.539	272.310	342.115	169.146	176.143	308.623	336.395	363.225	173.145	55.305	165.361	0.00040881	0.0001991	0.00028965	1536.4	1.1674e-05	4.7364e-06	1533.8	403.31	4.7591e-06	7.7469e-06	454.64	153.05	134.28	45.645	5.1988e-06	56.285	0.00079378	0.00084492	0.00021688	1560.3	8.8593e-06	9.2051e-06	1559.9	411.64	9.0654e-06	9.0184e-06	467.65	158.3	138.75	47.477	8.4354e-06	58.101	200.324	225.456	79.069	35.575	194.214	243.065	35.733	40.549	203.997	158.975	39.841	44.875	45.214	48.973	217.400	48.834	-8191	255	
1511.702	1	1	0	0	0.034095	0.12413	0.21219	0.46731	0.16206	0.011832	0.24853	0.15209	0.20694	0.062017	0.18821	0.13383	0.16351	0.42537	0.22714	0.27606	-2.6167	-2.4146	-2.5708	-3.2708	-2.4375	-2.9083	-3.1271	-2.6104	-2.9896	-2.6771	-2.5875	-3.2583	-2.4771	-2.9208	-2.9729	-2.4667	243.330	164.185	30.565	380.783	141.343	175.219	272.813	323.980	77.341	279.258	178.619	379.292	280.375	370.291	294.910	285.896	0.00037512	0.00068178	5.3097e-05	1540.2	1.0517e-05	4.3866e-06	1534.5	403.07	2.9763e-06	1.0149e-05	458.39	153.71	133.73	45.792	6.6036e-06	56.031	0.00082386	0.00081211	0.00020904	1562.2	9.2387e-06	8.6994e-06	1560.1	412.09	9.2605e-06	8.76e-06	468.14	158.96	138.85	47.448	8.2647e-06	58.158	192.595	93.867	57.701	35.940	208.813	276.728	35.950	40.823	169.421	123.977	40.034	45.377	45.261	49.132	183.041	48.792	-8191	255	
1511.821	1	1	0	0	0.20473	0.1475	0.094115	0.17213	0.31389	0.15194	0.32202	0.20109	0.14339	0.020993	0.10261	0.13755	0.22556	0.18198	0.21955	0.082059	-2.45	-2.6583	-2.4375	-3.2896	-2.3979	-2.8	-3.1667	-2.3896	-3.0104	-2.8521	-2.4688	-3.1021	-2.4646	-2.7021	-3.1437	-2.4813	321.649	238.047	113.107	328.186	295.612	94.817	316.460	312.924	170.519	356.751	159.841	341.362	335.062	345.122	75.158	207.640	0.00035659	0.00014113	0.00013247	1543.3	1.3039e-06	5.6583e-06	1537.8	403.56	7.1817e-06	6.3616e-06	455.84	154.06	133.75	45.591	3.0445e-06	56.152	0.00082899	0.00078888	0.00020334	1566.8	9.2275e-06	8.4354e-06	1559.6	413.04	9.1608e-06	8.6062e-06	466.51	159.2	138.63	47.326	8.1578e-06	58.492	202.768	191.679	106.257	35.716	185.592	190.827	35.946	40.599	180.737	198.665	40.004	44.795	45.197	49.259	182.325	48.434	-8191	255	
1511.917	1	1	0	0	0.16229	0.16948	0.17104	0.31058	0.12811	0.21766	0.29362	0.08933	0.24612	0.11883	0.28014	0.22795	0.18859	0.45408	0.20734	0.39887	-2.5479	-2.7229	-2.3375	-3.3208	-2.5646	-2.3708	-3.1688	-2.6979	-2.8771	-2.8729	-2.6583	-3.05	-2.9354	-2.7021	-3.1354	-2.5021	231.944	77.381	233.585	287.746	370.782	216.831	295.756	343.701	188.174	23.404	350.887	381.574	72.027	377.189	185.336	316.608	0.00036764	0.00010083	7.4909e-05	1541.6	1.4626e-06	7.383e-06	1537.1	402.66	3.4681e-06	3.3048e-06	454.35	154.04	133.45	45.623	4.7425e-06	56.266	0.00080752	0.00078147	0.00020583	1568	9.155e-06	8.4328e-06	1561.1	414.08	9.0867e-06	8.6433e-06	467.11	159.86	138.52	47.332	8.5576e-06	58.65	193.798	48.514	139.959	35.596	178.339	139.904	35.812	40.322	200.996	175.983	39.790	44.742	44.971	48.960	182.980	48.588	-8191	255	
1512.013	1	1	0	0	0.15055	0.25244	0.18444	0.27924	0.12064	0.091111	0.37914	0.24513	0.10897	0.037068	0.16951	0.21134	0.21512	0.33763	0.075013	0.16799	-2.4146	-3.0396	-2.2313	-3.1958	-2.7333	-2.2917	-3.1854	-2.5104	-2.7417	-2.8937	-2.8021	-2.9854	-2.8604	-2.5375	-3.1396	-2.6562	314.806	68.034	132.211	379.301	316.358	121.839	306.586	309.978	294.745	345.336	29.787	307.454	128.845	367.521	167.358	313.844	0.00033628	8.8867e-05	0.00012442	1536.2	7.1844e-06	3.832e-06	1540.8	403.18	5.3965e-06	6.069e-06	456.71	153.35	134.32	45.778	5.5384e-06	56.417	0.00079469	0.0007764	0.00021687	1566.7	8.9137e-06	8.2215e-06	1562.5	414.68	8.7106e-06	8.2963e-06	468.99	159.4	138.43	47.247	8.936e-06	58.57	200.555	162.774	81.393	35.887	222.808	151.072	35.700	40.680	221.635	178.110	39.783	44.670	45.262	49.019	203.418	48.328	-8191	255	
1512.085	1	1	0	0	0.07449	0.10654	0.21257	0.23656	0.28734	0.28961	0.22711	0.11352	0.076516	0.095848	0.21304	0.17176	0.18405	0.26296	0.20231	0.12155	-2.3812	-3.0146	-2.3563	-3.1833	-2.7833	-2.4437	-3.3667	-2.8146	-2.5021	-3.0167	-2.5521	-3.0458	-2.9313	-2.4396	-3.0479	-2.5583	263.175	367.073	231.158	337.588	36.033	361.731	323.026	25.116	334.080	335.831	355.918	365.503	283.804	134.576	67.968	40.619	0.00034053	0.00079798	0.00023076	1535.1	7.8205e-06	5.5516e-06	1537.2	402.8	6.3563e-06	8.1376e-06	457.68	153.95	133.86	45.721	6.8009e-06	56.159	0.00077639	0.00075446	0.00022869	1567.2	8.762e-06	8.1474e-06	1567.2	414.16	8.6559e-06	8.359e-06	470.98	159.66	138.64	47.398	9.6264e-06	58.576	194.858	105.992	141.353	35.395	186.205	215.803	35.959	40.705	219.923	195.127	39.829	44.965	45.075	49.109	212.733	48.287	-8191	255	
1512.183	1	1	0	0	0.22922	0.11016	0.17707	0.25645	0.083767	0.15896	0.17617	0.33366	0.17346	0.13128	0.14015	0.14078	0.13073	0.15144	0.10184	0.12509	-1.9458	-2.9625	-2.2521	-2.9688	-2.8521	-2.5563	-3.2375	-2.8521	-2.3417	-3.1229	-2.4646	-2.7438	-3.0771	-2.4938	-2.9146	-2.7271	107.336	167.239	254.561	349.345	225.313	155.144	316.074	297.446	183.629	151.079	371.272	109.747	231.133	333.229	90.042	69.798	0.00035619	5.8463e-05	0.00014846	1533.7	3.9612e-06	3.3616e-06	1540.6	402.53	3.1902e-06	8.726e-06	457.19	153.64	133.46	45.644	1.663e-06	56.505	0.00078108	0.00078691	0.00024623	1568.5	8.8454e-06	8.5552e-06	1570	414.62	8.6273e-06	8.8421e-06	473.01	159.92	138.71	47.517	9.9648e-06	58.715	193.406	103.993	151.652	35.446	149.518	200.568	35.782	40.291	224.754	170.334	39.377	44.453	45.042	48.849	167.665	48.151	-8191	255	
1512.302	1	1	0	0	0.11276	0.066102	0.20974	0.3353	0.30111	0.091284	0.1457	0.30914	0.22929	0.098621	0.15835	0.2304	0.17208	0.42488	0.1073	0.21757	-2.1583	-2.9688	-2.375	-2.8708	-3.0292	-2.4229	-3.0417	-2.9646	-2.2417	-2.9708	-2.6021	-2.7479	-3.075	-2.2708	-2.7792	-3.0021	297.190	158.928	124.198	298.984	176.300	295.436	381.589	34.997	325.701	376.504	333.078	212.856	357.309	354.223	315.913	381.185	0.00040446	0.00047954	0.00015759	1539.3	3.6319e-06	1.3155e-05	1541.6	403.51	5.5485e-06	1.1013e-05	456.83	153.46	134.07	45.526	5.7137e-06	56.27	0.0007756	0.00084578	0.00025426	1568	8.7827e-06	9.3183e-06	1571.1	414.75	8.6987e-06	9.5652e-06	473.04	159.49	138.54	47.682	9.9088e-06	58.508	202.577	129.722	120.090	35.097	220.379	216.014	35.222	40.262	203.213	212.838	39.550	44.483	44.816	48.571	132.280	48.189	-8191	255	
1512.398	1	1	0	0	0.10367	0.17422	0.071875	0.3263	0.17167	0.26905	0.1196	0.32849	0.20081	0.07455	0.16418	0.17862	0.22002	0.47275	0.16481	0.072214	-1.9396	-2.9083	-2.5229	-2.7958	-2.9333	-2.2521	-3.0687	-2.9562	-2.35	-2.9854	-2.7646	-2.7583	-3.1604	-2.4062	-2.6167	-3.0125	49.397	222.495	98.630	315.525	71.226	210.542	307.647	307.973	64.698	295.135	349.123	273.445	30.550	345.295	82.574	213.011	0.00048569	0.00049817	0.00012982	1539.9	6.8781e-06	6.517e-06	1538.5	402.74	6.362e-06	7.5566e-06	457.42	153.5	133.71	45.55	2.103e-06	56.199	0.00078451	0.00090388	0.00025011	1566.7	8.8358e-06	9.855e-06	1570.8	414.23	8.7968e-06	1.0036e-05	472.28	159.22	138.44	47.77	9.558e-06	58.449	203.077	82.404	127.559	35.525	237.368	239.964	35.646	40.579	229.099	178.776	39.374	44.398	44.661	48.800	32.177	48.526	-8191	255	
1512.494	1	1	0	0	0.06545	0.14382	0.29275	0.24992	0.11553	0.20222	0.30635	0.29983	0.13833	0.071785	0.29235	0.24284	0.14584	0.33897	0.12839	0.03897	-2.0417	-2.925	-2.6458	-2.7354	-3.1063	-2.3604	-2.9021	-3.0708	-2.35	-3.1604	-2.7438	-2.3854	-3.1937	-2.4521	-2.575	-2.9021	213.353	162.780	57.228	358.660	322.118	100.675	320.181	273.681	202.121	25.162	39.950	381.861	346.432	328.150	355.985	123.073	0.00044678	0.000878	0.00023118	1539.9	4.2794e-06	7.175e-06	1536.3	402.96	2.8289e-06	1.0032e-05	457.67	152.91	134	45.476	1.9493e-06	56.459	0.0008068	0.00092518	0.00024463	1566.8	9.185e-06	1.009e-05	1566.5	413.95	9.3497e-06	1.0139e-05	471.53	158.97	139.19	47.836	9.4401e-06	58.473	207.115	62.363	67.562	35.780	201.796	160.275	35.817	40.730	214.818	151.400	39.936	44.615	45.441	49.307	300.164	48.600	-8191	255	
1512.615	1	1	0	0	0.13438	0.23857	0.31079	0.20118	0.16764	0.10101	0.088729	0.26395	0.20374	0.12318	0.16249	0.29107	0.33297	0.25168	0.21129	0.059097	-1.9646	-2.8354	-2.6583	-2.7417	-3.2	-2.4208	-2.8937	-3.0938	-2.4292	-2.8417	-2.9896	-2.6021	-3.2062	-2.6875	-2.6	-3.0396	65.472	358.690	48.745	360.331	118.873	25.396	347.025	252.723	29.601	81.625	290.559	367.048	35.624	270.435	111.563	86.899	0.00034136	0.00050738	0.00013663	1540.2	7.1092e-06	5.5356e-06	1541.5	403.76	4.4313e-06	4.2889e-06	456.43	153.81	134.04	45.749	3.7721e-06	56.117	0.00085665	0.0009174	0.00024016	1565.6	9.7092e-06	9.9915e-06	1566.1	413.89	9.8298e-06	9.8549e-06	470.79	159.06	139.49	47.8	9.2289e-06	58.334	199.302	97.727	152.867	35.919	244.303	98.272	35.744	40.814	248.691	209.636	40.031	44.776	45.293	49.076	25.555	48.640	-8191	255	
1512.711	1	1	0	0	0.08273	0.083937	0.02981	0.40121	0.074095	0.13054	0.53282	0.40618	0.18977	0.010486	0.13364	0.33717	0.055401	0.44898	0.25306	0.2265	-1.8646	-2.8896	-3.0042	-2.7875	-2.9875	-2.6521	-2.9062	-3.2146	-2.425	-2.9583	-3.0563	-2.3521	-3.05	-2.7292	-2.5354	-3.1417	142.960	346.959	266.834	353.135	94.836	374.006	334.156	327.764	25.845	51.704	39.562	283.822	151.298	25.868	25.156	288.866	0.00032034	0.00054757	0.00017479	1532.3	8.3986e-06	5.3458e-07	1539.8	403.41	4.9821e-06	4.9052e-06	456.77	153.46	133.89	45.636	1.8887e-06	56.19	0.0008949	0.00088159	0.00023674	1563.8	1.014e-05	9.7628e-06	1564.1	414.51	1.0175e-05	9.7051e-06	470.15	159.36	139.69	47.702	9.0497e-06	58.651	206.508	354.497	71.135	35.498	222.017	159.029	35.406	40.462	214.373	72.511	39.607	44.610	44.884	48.975	235.198	48.382	-8191	255	
1512.782	1	1	0	0	0.10563	0.097481	0.14544	0.23513	0.056193	0.14363	0.28859	0.31396	0.17453	0.28482	0.018074	0.16946	0.22646	0.080768	0.10476	0.15974	-2.1208	-2.6292	-2.8396	-2.5854	-2.9792	-2.6854	-2.7729	-3.1833	-2.4688	-2.6354	-3.0687	-2.4417	-3.0104	-3.0854	-2.4104	-3.0208	68.899	207.542	344.703	379.712	98.390	234.771	292.614	335.028	346.589	135.312	357.620	310.567	305.216	342.287	145.443	331.485	0.00039143	0.00022882	0.00016211	1539.2	1.4047e-06	4.5921e-06	1543.2	401.79	6.7299e-06	2.0054e-06	457.66	154.2	133.47	45.751	2.3913e-06	56.214	0.00091692	0.00086329	0.00023231	1569.7	1.0146e-05	9.5442e-06	1565.5	415.32	1.0144e-05	9.3643e-06	470.9	160.33	139.46	47.709	8.8819e-06	58.937	193.817	95.529	197.585	35.712	160.227	207.933	35.725	40.831	244.611	86.269	40.172	44.956	45.022	49.050	178.700	48.476	-8191	255	
1512.903	1	1	0	0	0.15193	0.19973	0.095215	0.23971	0.25701	0.15679	0.13603	0.16871	0.057343	0.24108	0.29309	0.30189	0.21583	0.17286	0.20852	0.10023	-2.1042	-2.5458	-2.9708	-2.5583	-2.8396	-2.8167	-2.5146	-3.2812	-2.4313	-2.3625	-3.1979	-2.3104	-2.9417	-2.8229	-2.2771	-3.0667	88.075	317.292	165.843	60.758	349.684	184.913	166.055	354.320	173.458	301.929	339.993	366.916	366.393	55.554	354.905	251.722	0.00037802	0.00018095	0.00019725	1543.9	9.2741e-06	5.6512e-06	1540.7	404.9	4.0556e-06	4.1511e-06	458.74	153.7	134.27	45.585	1.2147e-05	56.196	0.00089578	0.00084237	0.00022837	1574.6	9.7942e-06	9.3363e-06	1565.8	417.18	9.8323e-06	9.1638e-06	471.08	160.58	139.66	47.632	9.009e-06	59.039	199.988	374.824	152.515	35.771	180.160	157.687	35.425	40.464	207.550	101.613	40.085	44.898	45.120	49.541	212.305	48.848	-8191	255	
1512.999	1	1	0	0	0.18199	0.27516	0.1554	0.24098	0.1613	0.044752	0.14157	0.26229	0.080619	0.071858	0.21685	0.16234	0.14708	0.21931	0.24993	0.046844	-2.1729	-2.4938	-2.9979	-2.4729	-2.7562	-2.9396	-2.4542	-3.1875	-2.8312	-2.4188	-3.1688	-2.4833	-2.8354	-3.1396	-2.1917	-2.9021	269.416	230.390	217.039	341.778	80.649	34.407	311.085	341.245	220.935	290.346	71.523	320.149	370.071	334.817	120.421	361.366	0.00030914	0.0003668	1.5856e-05	1543.8	3.9752e-06	3.4237e-07	1543.9	403.14	5.2097e-06	1.1827e-05	458.35	153.74	133.68	45.713	1.069e-05	56.41	0.00086309	0.00082061	0.00023555	1575.9	9.5832e-06	9.1434e-06	1568.7	416.71	9.6343e-06	8.9406e-06	471.46	160.67	139.12	47.618	9.6711e-06	59.007	207.466	363.278	350.227	35.526	192.130	121.971	35.456	40.262	200.629	116.764	39.860	44.766	44.959	49.282	194.177	48.828	-8191	255	
1513.094	1	1	0	0	0.053617	0.20166	0.17158	0.18067	0.043794	0.088003	0.50366	0.2564	0.24352	0.31435	0.12416	0.17744	0.27473	0.3317	0.29758	0.10793	-2.4292	-2.3604	-2.9875	-2.6813	-2.5458	-2.9896	-2.575	-3.1875	-2.7104	-2.5521	-3.3146	-2.7333	-2.5604	-3.1813	-2.45	-2.9979	247.375	90.838	177.902	368.359	39.376	367.082	332.755	316.393	235.536	367.676	42.296	332.604	355.555	375.325	202.656	372.526	0.00039059	0.00087536	0.00017073	1542.7	5.917e-06	5.9981e-06	1539.1	402.23	4.8226e-06	5.1963e-06	456.89	153.25	134.62	45.845	6.2382e-06	56.415	0.00085433	0.00080913	0.00025026	1573.7	9.3693e-06	8.938e-06	1571	415.72	9.4372e-06	8.8379e-06	473.2	160.49	139.21	47.609	1.0225e-05	58.902	205.563	117.087	133.098	36.095	200.726	159.209	36.282	40.943	212.753	222.997	40.446	45.204	45.561	49.537	223.942	48.697	-8191	255	
1513.190	1	1	0	0	0.15598	0.16418	0.12743	0.29063	0.063689	0.053967	0.32423	0.27061	0.12415	0.30954	0.36116	0.12437	0.12728	0.17377	0.04469	0.23185	-2.6937	-2.5708	-2.9333	-2.8187	-2.6021	-3.2354	-2.75	-2.9292	-3.0396	-2.425	-3.1083	-2.6604	-2.5979	-3.0708	-2.525	-2.9375	377.230	313.118	111.460	336.076	34.845	164.710	350.814	331.374	275.215	365.391	301.513	374.302	373.820	340.209	84.378	301.584	0.00041202	0.00078116	0.00040606	1544.3	2.3057e-06	1.1855e-05	1540.3	402.94	3.6495e-06	3.6773e-06	458	153.94	133.66	45.776	9.3721e-06	56.194	0.00084016	0.00081821	0.00026007	1574.1	9.055e-06	9.1464e-06	1572.5	415.78	9.2794e-06	9.2053e-06	474.78	160.36	138.88	47.764	1.0323e-05	58.777	198.981	109.396	171.031	36.020	361.965	217.286	36.301	40.828	97.987	243.378	40.225	45.025	44.824	48.991	218.272	48.669	-8191	255	
1513.310	1	1	0	0	0.12697	0.12703	0.074447	0.28623	0.26694	0.06076	0.18195	0.20764	0.071396	0.12905	0.094488	0.17196	0.16037	0.25758	0.10213	0.23476	-2.6042	-2.4771	-2.8208	-2.8229	-2.4521	-3.0833	-2.6688	-2.8583	-3.0958	-2.5583	-3.1104	-2.8604	-2.5438	-2.9917	-2.5958	-2.6792	143.321	65.495	241.585	363.116	180.967	317.893	352.787	336.953	221.156	188.601	263.796	380.338	253.410	266.397	112.191	307.190	0.00041578	0.0006105	0.00010931	1540.7	8.2851e-06	8.5113e-06	1544.3	402.72	3.7344e-06	1.0186e-05	457.5	153.68	134.01	45.88	1.7765e-06	56.311	0.00081024	0.00086137	0.00026216	1571.8	8.8558e-06	9.5986e-06	1573.6	415.01	8.9378e-06	9.5485e-06	472.98	159.86	138.68	47.934	9.9215e-06	58.544	193.466	87.005	43.944	35.650	229.622	204.387	35.477	40.536	233.182	191.210	40.267	45.010	45.299	49.298	229.579	48.412	-8191	255	
1513.382	1	1	0	0	0.18958	0.22675	0.12031	0.16966	0.16185	0.12528	0.1789	0.18226	0.28476	0.41254	0.17054	0.14572	0.24198	0.14676	0.05733	0.13521	-2.575	-2.3563	-2.925	-3.1396	-2.2854	-2.9729	-2.7313	-2.6917	-2.9542	-2.3542	-2.875	-2.9271	-2.6875	-3.2313	-2.7417	-2.4708	65.461	301.952	184.239	329.643	380.493	267.522	340.947	350.395	331.065	242.983	361.264	30.567	30.621	68.590	72.939	199.341	0.00040701	0.00063224	0.00020347	1539.8	2.4351e-06	5.8638e-06	1539	403.6	7.0745e-06	7.0518e-06	457.3	154.08	134.52	45.605	1.4007e-06	56.269	0.00078964	0.00089715	0.00024925	1571.7	8.7223e-06	9.8773e-06	1569.9	414.67	8.863e-06	9.9001e-06	471.96	160.12	139.01	47.923	9.5697e-06	58.515	204.430	142.016	85.056	35.739	285.300	127.501	35.883	40.646	235.829	165.935	39.736	44.867	44.858	49.163	365.121	48.081	-8191	255	
1513.478	1	1	0	0	0.3704	0.22891	0.093188	0.18999	0.22076	0.023034	0.23591	0.18447	0.38254	0.28861	0.16226	0.28455	0.32379	0.22278	0.34815	0.20719	-2.7021	-2.4854	-2.8333	-3.0333	-2.425	-2.9479	-2.9167	-2.6875	-3.2146	-2.4667	-2.6646	-3.0604	-2.6292	-3.1333	-2.8917	-2.6333	271.363	167.959	163.435	59.944	95.928	96.260	312.992	302.119	99.292	28.714	31.217	67.748	56.655	33.791	144.925	23.143	0.0004172	0.00077429	8.8581e-05	1544.3	6.7335e-06	4.8756e-06	1543.9	402.92	1.0186e-05	3.4886e-06	458.34	154.57	134.32	45.939	3.3014e-06	56.694	0.00080276	0.00090666	0.00023787	1569.9	8.9303e-06	9.9383e-06	1568	413.85	9.1825e-06	9.9245e-06	471.32	159.77	139.44	48.053	9.3859e-06	58.6	199.886	146.154	54.736	35.787	236.809	121.188	35.495	40.382	225.978	145.072	39.663	44.594	44.695	49.232	170.339	48.280	-8191	255	
1513.599	1	1	0	0	0.24533	0.050769	0.082804	0.17684	0.064386	0.10121	0.19136	0.10028	0.052352	0.04698	0.20041	0.16432	0.33443	0.41963	0.11057	0.27252	-2.8167	-2.4521	-2.5812	-3.4229	-2.2854	-3.1396	-3.0646	-2.4062	-3.0875	-2.4417	-2.7562	-3.0958	-2.4854	-2.9208	-2.7562	-2.5208	365.116	157.299	292.846	337.767	65.081	165.280	321.453	222.137	228.986	118.293	311.561	317.952	340.834	369.753	35.100	283.731	0.00040611	0.00031562	0.00029772	1541.1	7.8687e-06	5.6624e-06	1541.1	405.33	5.0949e-06	5.6777e-06	458.72	154.76	134.33	45.959	5.4188e-06	56.653	0.00084973	0.00090249	0.00023285	1569	9.5106e-06	9.7294e-06	1569.7	414.64	9.7501e-06	9.8061e-06	471.27	159.92	139.85	48.061	9.2752e-06	58.656	201.896	151.778	102.251	35.511	244.009	179.476	35.401	40.162	200.673	154.878	39.690	44.625	44.446	48.877	212.060	48.073	-8191	255	
1513.695	1	1	0	0	0.045296	0.028088	0.3087	0.20683	0.099112	0.25802	0.07682	0.34401	0.12354	0.13515	0.27063	0.25901	0.035559	0.33027	0.1931	0.093718	-2.6917	-2.6646	-2.5771	-3.2542	-2.3125	-2.7667	-3.1292	-2.5646	-3.1229	-2.4813	-2.4604	-3.2208	-2.5687	-3.0062	-3.0375	-2.5604	171.733	178.548	128.863	39.329	221.810	324.435	301.072	287.772	268.668	311.223	341.606	351.153	240.713	331.247	160.170	66.114	0.00041147	0.00042913	0.00011547	1540.3	1.4003e-05	7.4091e-06	1540.8	402.49	5.9909e-06	5.8069e-06	456.72	154.09	134.65	45.841	3.6164e-06	56.151	0.00087919	0.00088721	0.00022888	1569.7	9.942e-06	9.6077e-06	1567.5	414.06	1.0082e-05	9.5015e-06	469.58	159.99	140.05	47.838	8.9869e-06	58.695	205.736	22.446	32.047	35.423	177.211	220.821	35.380	40.275	221.491	214.008	39.403	44.395	44.706	48.437	125.797	47.914	-8191	255	
1513.791	1	1	0	0	0.050636	0.26353	0.06726	0.14833	0.036444	0.25066	0.12414	0.33716	0.27009	0.11351	0.056073	0.35857	0.34876	0.039187	0.14464	0.27074	-2.4625	-2.7313	-2.3958	-3.2333	-2.4396	-2.775	-3.4125	-2.4625	-2.8083	-2.8875	-2.475	-3.15	-2.7042	-2.6396	-3.0125	-2.5208	310.595	28.949	328.803	351.143	34.701	154.712	268.466	322.611	257.358	278.179	30.997	253.934	28.655	358.524	53.060	31.920	0.00033607	0.00058777	0.00015099	1542.6	1.8432e-06	4.297e-06	1538.1	402.93	5.1459e-06	1.3768e-06	458.15	153.72	134	45.814	7.2855e-06	56.325	0.00090026	0.00086135	0.00022288	1572.3	9.9663e-06	9.2305e-06	1565.2	415.11	9.8875e-06	9.328e-06	469.87	160.14	139.62	47.683	8.7984e-06	58.827	194.472	94.025	41.490	35.536	266.335	137.495	35.254	40.342	171.427	200.854	39.167	44.340	44.629	48.790	215.427	48.085	-8191	255	
1513.885	1	1	0	0	0.069721	0.18105	0.12025	0.2813	0.023272	0.13308	0.34284	0.29878	0.09971	0.13095	0.30413	0.27927	0.24148	0.39295	0.06525	0.1307	-2.5292	-2.7938	-2.3396	-3.3583	-2.7354	-2.4396	-3.2375	-2.4854	-2.7188	-2.9062	-2.6	-3.1146	-2.7646	-2.7458	-2.9271	-2.45	114.719	84.948	114.974	301.754	42.786	233.629	299.097	368.789	112.445	248.037	361.161	323.979	24.974	382.181	241.310	299.026	0.00031685	0.00060177	0.0002405	1538.8	7.8846e-06	8.0609e-06	1541.2	402.46	1.8002e-06	6.0262e-07	456.97	153.45	133.72	45.611	1.0855e-05	56.271	0.00086289	0.00083131	0.00021918	1570.2	9.6152e-06	8.8652e-06	1565.3	414.86	9.4601e-06	9.0452e-06	468.87	160.59	139.23	47.557	8.9027e-06	58.911	201.429	98.656	165.548	35.218	202.923	131.052	35.224	40.219	145.817	208.952	39.793	44.303	44.801	48.791	217.065	48.051	-8191	255	
1513.982	1	1	0	0	0.11523	0.1475	0.20431	0.36438	0.22549	0.17508	0.23177	0.29282	0.1006	0.067238	0.33952	0.14641	0.14231	0.15951	0.21653	0.28173	-2.2062	-3.0125	-2.3458	-3.2271	-2.5917	-2.4292	-3.2271	-2.5854	-2.8563	-3.0354	-2.4896	-3.2083	-2.8292	-2.5062	-3.0229	-2.5958	230.211	198.597	309.506	319.332	245.631	143.391	303.458	292.140	199.291	291.237	366.423	367.021	48.872	240.180	147.668	50.954	0.00037042	0.00060692	0.00029359	1540.4	5.7572e-06	7.1455e-06	1541.2	403.66	4.2123e-06	4.5621e-06	459.09	154.73	134.24	45.588	8.8627e-06	56.248	0.00082997	0.00081511	0.00022711	1573.4	9.3331e-06	8.6597e-06	1568.6	415.66	9.1929e-06	8.7487e-06	471.69	160.93	139.25	47.517	9.3197e-06	58.943	211.000	77.989	125.826	35.415	241.977	188.258	35.522	40.186	268.243	53.543	39.901	44.612	45.094	48.948	244.584	48.481	-8191	255	
1514.078	1	1	0	0	0.11179	0.19661	0.27374	0.35516	0.31651	0.11347	0.16311	0.1625	0.21592	0.032416	0.21241	0.18963	0.17561	0.10408	0.14247	0.093207	-2.4	-2.8937	-2.3583	-3.1562	-3.0062	-2.4917	-3.5229	-2.7042	-2.4604	-3.1021	-2.3688	-2.8167	-2.9083	-2.4188	-3.1729	-2.5938	153.565	163.922	104.152	306.856	87.848	144.027	85.822	316.199	338.934	304.579	363.045	349.225	55.532	96.925	256.527	304.935	0.00027693	0.00023778	0.00019599	1541.1	9.6203e-06	4.7146e-06	1540	403.56	2.4337e-06	2.7815e-06	457.03	154.35	133.92	45.937	6.4866e-06	56.573	0.00080464	0.00078973	0.00023579	1571.6	9.0832e-06	8.4194e-06	1568.9	415.22	8.9041e-06	8.5259e-06	471.55	160.4	139.08	47.559	9.6322e-06	58.743	201.649	75.577	127.536	35.074	198.767	262.883	35.494	40.049	141.344	129.874	39.553	44.206	44.966	48.950	230.605	48.331	-8191	255	
1514.174	1	1	0	0	0.12036	0.10044	0.24529	0.32759	0.011436	0.43656	0.37467	0.16349	0.21373	0.22187	0.17283	0.14803	0.13021	0.3206	0.13778	0.31396	-2.1458	-2.7938	-2.325	-3.0896	-2.8063	-2.475	-3.1792	-2.725	-2.5646	-3.15	-2.4542	-2.9062	-2.8646	-2.3625	-2.9188	-2.9313	145.951	138.781	67.530	339.926	306.882	318.561	304.127	354.349	289.034	52.881	92.792	313.198	361.582	375.638	178.541	70.027	0.00026821	0.000838	4.7093e-05	1545.4	2.459e-06	6.8678e-06	1543.9	402.26	4.1425e-06	1.2239e-05	456.93	154.2	134.14	45.881	4.7438e-06	56.218	0.0007798	0.00078799	0.00024374	1569.1	8.7157e-06	8.4477e-06	1570.1	413.88	8.5157e-06	8.7203e-06	472.15	159.91	138.9	47.654	9.753e-06	58.72	190.336	108.948	97.331	35.480	138.036	204.160	35.645	40.444	226.247	142.378	39.869	44.930	45.210	49.079	171.219	48.661	-8191	255	
1514.270	1	1	0	0	0.13975	0.056823	0.096231	0.17195	0.21138	0.27655	0.18609	0.20678	0.11859	0.29487	0.16929	0.14894	0.27566	0.20525	0.1762	0.068384	-2.1833	-3.125	-2.4792	-2.9	-3.0667	-2.1917	-3.0917	-2.8771	-2.3	-3.0083	-2.6979	-2.8625	-2.95	-2.2917	-2.9146	-2.8354	33.850	230.588	258.706	337.776	242.683	358.525	33.958	343.567	276.112	161.386	320.262	346.606	350.336	54.342	112.955	258.180	0.00038386	0.00043431	0.00012561	1540.5	4.364e-06	7.0795e-07	1541.7	403.52	4.1032e-06	9.0494e-06	459.02	154.29	134.6	45.995	2.5803e-06	56.496	0.00075384	0.00082006	0.00024746	1566.8	8.5362e-06	8.9822e-06	1569.5	414.67	8.3589e-06	9.1984e-06	472.29	160.11	139.08	47.877	9.5518e-06	58.664	197.064	108.274	151.567	36.520	208.416	274.591	36.236	41.099	203.759	147.704	40.417	45.083	45.549	49.610	194.609	48.966	-8191	255	
1514.391	1	1	0	0	0.21911	0.095766	0.090948	0.29575	0.15594	0.14318	0.29825	0.14957	0.20811	0.21659	0.29882	0.32446	0.25116	0.072697	0.1244	0.12118	-2.0167	-3.2125	-2.4188	-2.6667	-3.0729	-2.4729	-3.0833	-3	-2.5896	-3.0333	-2.8521	-2.4188	-3.1125	-2.4854	-2.7833	-2.9417	41.607	135.337	250.037	327.866	191.990	253.481	295.558	71.774	171.755	212.253	346.861	321.708	40.432	46.138	175.602	337.580	0.00034332	0.00061274	0.00018342	1540.5	3.8517e-06	1.2313e-06	1537.3	403.74	2.5748e-06	3.5999e-06	458.45	154.97	135.17	46.091	2.9023e-06	56.637	0.00075076	0.0008655	0.00024096	1567.5	8.4449e-06	9.4249e-06	1567.7	414.1	8.328e-06	9.5186e-06	472.74	160.18	139.33	48.123	9.0446e-06	58.795	195.947	128.933	105.219	36.201	221.785	206.208	35.706	40.707	207.578	201.200	40.181	44.826	45.120	49.414	307.354	48.411	-8191	255	
1514.487	1	1	0	0	0.23489	0.099224	0.097695	0.33496	0.13721	0.28799	0.35051	0.22945	0.22587	0.24667	0.15234	0.13988	0.32411	0.054541	0.2991	0.13298	-1.9833	-2.8375	-2.5979	-2.6542	-3.3292	-2.3104	-2.9625	-3.075	-2.3125	-2.9583	-2.8146	-2.5208	-3.3312	-2.5146	-2.6688	-3.0292	94.409	163.890	379.583	283.574	358.744	201.011	330.643	294.405	276.520	231.933	324.168	379.750	310.540	68.556	116.492	232.930	0.00043703	0.00066801	0.00012363	1543.3	1.4139e-05	6.9511e-06	1546.5	404.31	8.0094e-06	6.189e-06	457.42	154.76	135.35	46.015	3.4266e-06	56.724	0.00075779	0.00086878	0.00022982	1567.7	8.681e-06	9.4837e-06	1568.4	414.53	8.7365e-06	9.4516e-06	471.3	159.93	139.74	48.094	8.8424e-06	58.604	210.636	80.054	52.332	35.722	202.874	87.914	35.886	40.672	249.336	189.610	40.129	44.881	45.159	49.197	170.501	48.651	-8191	255	
1514.583	1	1	0	0	0.35012	0.13999	0.15095	0.29683	0.041167	0.23484	0.17581	0.35969	0.1878	0.13335	0.1154	0.21656	0.29707	0.21201	0.1582	0.084772	-2.1521	-3.0417	-2.5833	-2.7167	-3.0979	-2.6042	-2.7667	-2.9958	-2.2479	-2.9646	-2.7729	-2.5292	-3.0917	-2.6562	-2.6542	-3.1792	360.653	311.299	208.859	321.953	201.918	95.417	334.096	25.431	158.542	147.661	347.575	304.439	254.765	334.466	291.847	218.664	0.00040048	0.00044239	0.00015636	1538.4	1.34e-05	4.7813e-06	1537.3	402.36	7.1252e-06	3.322e-06	457.47	154.16	134.58	46.035	6.0959e-06	56.459	0.00080423	0.00086255	0.00022815	1565	9.2755e-06	9.4937e-06	1566	413.65	9.4278e-06	9.3603e-06	470.55	159.77	139.89	47.915	8.6715e-06	58.601	200.786	29.303	349.123	35.851	222.017	172.862	36.069	40.538	224.708	200.523	40.150	44.798	45.084	49.157	186.739	48.699	-8191	255	
1514.679	1	1	0	0	0.23551	0.17144	0.095239	0.35151	0.18516	0.13964	0.084358	0.24678	0.061461	0.043223	0.30114	0.1325	0.17019	0.17559	0.29482	0.26308	-2.1063	-2.8271	-3.0375	-2.4771	-3.0771	-2.5417	-2.7562	-3.2438	-2.475	-2.85	-3.0062	-2.3854	-3.1083	-2.6354	-2.4813	-3.0917	68.644	237.574	288.034	27.491	214.153	128.825	291.754	51.520	278.319	160.796	358.586	299.616	206.853	313.039	265.653	329.917	0.00037439	0.0007096	9.5522e-05	1539.1	5.1052e-06	3.0243e-06	1540.2	405.15	4.091e-06	4.8602e-06	457.65	154.33	134.55	45.942	5.4497e-06	56.378	0.00084557	0.00084413	0.00022343	1564.7	9.5757e-06	9.1994e-06	1564.4	414.05	9.647e-06	9.0637e-06	470.24	159.98	140.05	47.827	8.4418e-06	58.735	209.197	75.318	353.569	35.536	160.025	67.587	35.508	40.328	211.104	166.615	39.925	44.693	44.895	48.871	127.703	48.453	-8191	255	
1514.775	1	1	0	0	0.074837	0.22793	0.083433	0.45649	0.050321	0.15324	0.22594	0.29529	0.18057	0.10863	0.38333	0.21277	0.42185	0.1315	0.14776	0.12706	-2.05	-2.8438	-3.1917	-2.5667	-2.9125	-2.6646	-2.725	-3.1667	-2.7625	-2.7458	-3.0875	-2.5417	-2.8688	-2.8958	-2.4042	-3.2229	261.560	78.039	230.334	346.551	283.387	139.214	294.381	317.031	347.052	143.294	314.461	254.839	64.203	85.949	118.349	282.616	0.00033383	0.00031148	0.00014968	1539.3	8.2259e-06	3.9741e-06	1537.1	404.3	1.8842e-06	2.5161e-06	459.81	154.46	134.9	45.802	4.972e-06	56.588	0.00086235	0.00081801	0.00021721	1567.7	9.6294e-06	8.9571e-06	1563.2	415.16	9.5981e-06	8.8522e-06	469.83	160.35	139.92	47.831	8.3235e-06	59.006	199.111	82.518	49.874	35.134	237.498	367.270	35.310	40.351	91.410	343.269	39.695	44.551	44.515	48.861	143.872	48.233	-8191	255	
1514.871	1	1	0	0	0.19459	0.25637	0.15457	0.52039	0.084655	0.14295	0.040422	0.19705	0.097061	0.10051	0.11207	0.13449	0.32606	0.20006	0.090251	0.19018	-2.1417	-2.4688	-2.9646	-2.4833	-2.8375	-3.0917	-2.4667	-3.1854	-2.6792	-2.6917	-3.1792	-2.4396	-2.825	-2.8583	-2.4	-3.1208	164.971	335.574	233.783	331.766	226.845	172.106	307.707	287.516	294.468	118.517	273.705	336.208	347.478	360.965	329.784	376.227	0.00023555	0.00044413	2.86e-05	1542.7	7.4592e-06	6.525e-06	1540.2	405.64	1.1766e-06	4.9619e-06	460.64	154.55	134.51	45.982	6.62e-06	56.507	0.00083741	0.0007976	0.00021494	1572.3	9.3071e-06	8.8101e-06	1563.1	416.5	9.2774e-06	8.6112e-06	470.74	160.78	139.34	47.723	8.5465e-06	58.98	207.272	51.386	140.522	35.573	147.873	254.322	35.495	40.123	111.659	192.339	39.572	44.552	44.895	48.863	225.229	48.296	-8191	255	
1514.990	1	1	0	0	0.19654	0.11351	0.075194	0.37997	0.39933	0.1458	0.30556	0.044608	0.33327	0.12578	0.21976	0.4157	0.13031	0.081223	0.057637	0.15081	-2.2188	-2.5417	-3.0896	-2.7875	-2.8563	-3.0271	-2.6208	-3.0312	-2.5646	-2.4062	-3.2917	-2.7396	-2.825	-2.9188	-2.3854	-2.9979	46.254	269.485	328.947	369.395	137.702	343.982	24.466	222.363	238.470	132.884	349.377	30.471	380.196	221.731	208.008	283.125	0.00034267	0.00083965	0.00027741	1536.6	6.942e-06	7.8476e-06	1542.1	404.37	7.2767e-06	7.5261e-06	457.04	154.79	134.68	46.122	9.2331e-06	56.623	0.00082258	0.00077198	0.00022411	1569.8	8.9549e-06	8.5261e-06	1566.6	416.02	8.9383e-06	8.3133e-06	470.98	160.69	139.44	47.729	9.0049e-06	58.969	194.554	117.290	144.693	35.518	230.696	28.717	35.532	40.291	195.058	150.896	39.889	44.675	44.878	48.940	223.289	48.164	-8191	255	
1515.086	1	1	0	0	0.06296	0.21459	0.17583	0.36581	0.19681	0.38093	0.14683	0.16895	0.23112	0.062959	0.047913	0.093678	0.36242	0.2467	0.039363	0.27201	-2.3417	-2.4417	-2.9313	-2.7125	-2.7021	-3.0625	-2.4958	-2.975	-2.6521	-2.4542	-3.225	-2.6021	-2.6979	-3.1854	-2.3979	-2.975	199.800	358.270	294.249	375.701	190.549	169.969	207.420	309.826	226.934	103.798	339.155	362.781	30.164	317.415	48.955	315.134	0.00041486	0.00083451	0.00020522	1541	4.8456e-06	5.6883e-06	1538.6	404.42	4.7164e-06	6.3463e-06	456.47	154.25	134.6	45.946	8.3093e-06	56.598	0.00079583	0.0007465	0.00023268	1572.2	8.6445e-06	8.279e-06	1567.7	415.94	8.7602e-06	8.2185e-06	471.8	160.57	139.21	47.714	9.4412e-06	58.882	213.125	113.019	101.416	35.461	236.469	33.471	35.325	40.261	241.332	97.449	39.870	44.785	44.762	49.072	152.733	48.239	-8191	255	
1515.183	1	1	0	0	0.2162	0.059764	0.13219	0.1661	0.10052	0.16466	0.11724	0.062403	0.18746	0.18625	0.077926	0.17153	0.2155	0.20389	0.13431	0.088756	-2.5708	-2.2396	-2.8979	-2.7229	-2.6708	-3.2458	-2.5812	-2.8063	-2.8583	-2.0438	-3.2542	-2.7562	-2.5896	-3.2438	-2.5	-2.7438	311.132	26.781	251.108	33.518	206.625	143.736	343.545	376.827	352.050	369.484	372.353	339.254	322.565	192.151	286.466	85.364	0.00030403	0.00097599	0.00018394	1543.2	1.323e-05	8.887e-06	1542.5	403.8	3.4315e-06	6.4405e-06	458.61	154.78	134.59	46.127	5.3751e-06	56.496	0.00077782	0.0007623	0.00024401	1570.2	8.5013e-06	8.493e-06	1570.2	415.43	8.5614e-06	8.4739e-06	472.52	160.6	139.12	47.894	9.6474e-06	58.802	202.704	95.130	75.810	35.449	207.093	211.606	35.470	40.262	252.561	148.559	39.880	44.612	45.013	49.052	201.072	48.112	-8191	255	
1515.279	1	1	0	0	0.4926	0.11674	0.30935	0.27996	0.19768	0.15422	0.44915	0.2936	0.16709	0.41339	0.28367	0.09749	0.32679	0.1783	0.16798	0.19841	-2.75	-2.2833	-2.7042	-2.8833	-2.3896	-3.0854	-2.7771	-2.7271	-3.0083	-2.3	-3.1333	-2.8896	-2.5438	-3.2292	-2.4875	-2.7917	115.505	181.757	369.979	334.778	200.646	309.493	346.504	300.206	52.350	94.623	328.759	177.438	42.117	67.080	380.334	314.054	0.00035744	0.00099281	9.7416e-05	1541	8.349e-06	4.5598e-06	1545	403.97	6.2954e-06	3.7718e-06	456.17	155.11	134.81	46.184	5.3676e-06	56.651	0.00075752	0.00080388	0.00024566	1569.9	8.3164e-06	9.0076e-06	1572.9	414.82	8.4507e-06	9.1163e-06	472.61	160.73	139.28	48.135	9.5493e-06	58.826	204.459	95.180	264.551	35.697	172.502	194.266	35.676	40.223	241.187	111.225	39.432	44.365	44.751	48.900	176.702	48.458	-8191	255	
1515.375	1	1	0	0	0.22443	0.06079	0.099395	0.066182	0.064892	0.21947	0.2278	0.28977	0.39834	0.09693	0.14328	0.14807	0.36274	0.14009	0.21853	0.29147	-2.6896	-2.2687	-2.7687	-3.1	-2.4562	-3.0458	-2.6292	-2.7292	-3.1625	-2.4833	-2.9396	-3.0708	-2.3417	-3.1	-2.4562	-2.6083	40.368	272.751	102.980	363.698	332.698	162.212	326.100	318.823	155.522	87.396	322.326	26.702	61.931	363.417	192.776	220.864	0.00037376	0.00040694	0.00020623	1541.7	6.9193e-06	7.5078e-06	1538.7	402.27	1.4476e-06	8.4139e-06	456.21	154.31	134.45	46.179	5.0846e-06	56.533	0.00075992	0.00086351	0.00024073	1569.3	8.3606e-06	9.5579e-06	1569.4	413.96	8.6366e-06	9.7185e-06	471.58	159.97	138.95	48.074	9.3367e-06	58.567	198.863	87.161	128.379	35.713	196.376	222.941	35.411	40.550	50.332	121.698	39.700	44.670	44.946	49.136	217.237	48.255	-8191	255	
1515.471	1	1	0	0	0.20003	0.16673	0.14899	0.28267	0.2645	0.1426	0.26287	0.15408	0.21366	0.088826	0.29267	0.19745	0.30264	0.13124	0.18163	0.18581	-2.7438	-2.3854	-2.6833	-3.0521	-2.3625	-2.9104	-2.7708	-2.7042	-3.0812	-2.5667	-2.7667	-3.0354	-2.4833	-2.9396	-2.7479	-2.5146	353.320	94.568	265.481	22.850	212.344	112.610	315.271	342.389	276.246	167.278	364.196	44.867	370.591	361.154	251.244	136.751	0.00033762	0.00084933	0.00013567	1540.2	7.8234e-06	2.7302e-06	1538.2	401.78	6.3714e-06	4.0777e-06	457.31	153.82	134.66	46.091	8.8745e-07	56.249	0.00078842	0.00089073	0.0002349	1566.6	8.813e-06	9.7969e-06	1565.8	413.07	9.0538e-06	9.6688e-06	470.32	159.74	139.2	48.087	9.1189e-06	58.345	213.194	94.850	76.691	35.423	212.857	174.998	35.473	40.043	264.247	129.156	39.594	44.444	44.616	49.020	155.282	48.148	-8191	255	
1515.567	1	1	0	0	0.28456	0.075827	0.043227	0.45291	0.10486	0.11329	0.22494	0.40384	0.18288	0.21358	0.068168	0.10173	0.12335	0.26199	0.20204	0.37941	-2.7396	-2.3771	-2.7625	-2.8812	-2.3229	-2.8563	-3.0271	-2.3438	-3.1646	-2.5667	-2.7625	-2.9354	-2.4604	-2.9208	-2.8438	-2.3667	375.136	95.116	50.069	348.321	108.969	180.503	282.920	272.999	232.565	185.255	278.180	283.554	333.461	38.081	245.211	253.588	0.00043573	0.00069046	0.00025264	1545.3	6.0971e-06	1.6625e-06	1539.2	403.06	3.3876e-06	3.7546e-06	456.14	154.23	134.38	45.738	3.8242e-06	56.362	0.00083449	0.00088485	0.00022975	1567.7	9.4067e-06	9.6461e-06	1568.5	413.66	9.6701e-06	9.593e-06	470.27	159.81	139.75	47.905	9.0407e-06	58.523	204.644	62.128	50.879	35.516	277.447	171.831	35.507	40.163	193.884	99.946	39.240	44.400	44.524	48.510	222.562	47.886	-8191	255	
1515.688	1	1	0	0	0.26545	0.057526	0.061597	0.23104	0.14232	0.26218	0.25041	0.13598	0.1556	0.22551	0.14683	0.30381	0.11362	0.18131	0.106	0.060634	-2.6521	-2.6354	-2.5938	-3.5333	-2.0875	-2.9437	-3.1521	-2.4271	-3.0417	-2.7604	-2.6396	-3.2667	-2.4833	-2.7271	-3.0167	-2.3771	131.207	34.186	135.046	374.575	329.176	293.966	319.837	31.129	240.653	133.215	278.593	369.787	151.145	309.532	84.808	317.106	0.000328	0.001146	0.00023132	1543.8	1.0303e-05	3.952e-06	1540.8	403.11	2.3359e-06	4.313e-06	458.77	154.58	133.97	45.784	5.1203e-06	56.513	0.00087762	0.00086741	0.00022469	1569	9.8639e-06	9.3777e-06	1566.6	413.45	9.8963e-06	9.2599e-06	470.43	160.16	139.63	47.812	8.8231e-06	58.702	192.859	51.489	109.581	35.180	245.887	170.435	35.042	39.825	196.298	67.696	38.936	44.308	44.677	48.782	188.763	48.107	-8191	255	
1515.782	1	1	0	0	0.0075929	0.20681	0.10047	0.11451	0.16123	0.044761	0.098251	0.32667	0.17208	0.15494	0.2635	0.32024	0.15042	0.13794	0.20695	0.28	-2.6292	-2.6208	-2.4042	-3.4188	-2.5062	-2.6583	-3.15	-2.5604	-2.7812	-2.6625	-2.5958	-3.0771	-2.6542	-2.6729	-2.9333	-2.4458	314.057	333.318	368.407	41.079	135.480	112.587	59.975	315.301	204.308	366.523	298.372	354.672	322.443	348.849	34.801	53.754	0.00038566	0.0004877	0.00013037	1538.3	9.4312e-06	3.8968e-06	1540.7	403.04	4.1194e-06	7.744e-06	456.31	154.72	134.02	46.006	5.8586e-06	56.414	0.00088208	0.00084013	0.0002183	1570	9.7148e-06	9.058e-06	1564.4	414.34	9.6948e-06	9.0658e-06	469.28	160.44	139.51	47.723	8.5421e-06	58.762	205.230	123.707	34.728	35.046	138.929	123.943	35.165	39.969	250.236	223.118	39.735	44.451	44.875	49.076	234.001	48.097	-8191	255	
1515.878	1	1	0	0	0.20348	0.09324	0.25577	0.23357	0.21833	0.046696	0.33906	0.26124	0.30174	0.06113	0.040963	0.38843	0.24938	0.086336	0.11327	0.13657	-2.3646	-2.6854	-2.2646	-3.1188	-2.5792	-2.525	-3.0354	-2.4521	-2.9542	-2.8292	-2.3729	-3.1146	-2.6396	-2.5563	-2.8458	-2.6	216.405	78.361	193.564	30.354	347.005	33.499	345.082	367.069	74.067	230.093	315.318	336.113	27.051	59.866	110.568	366.072	0.00029052	0.00026928	0.00019243	1542.5	1.0014e-05	4.6716e-06	1540.4	403.17	2.5904e-06	1.177e-06	456.47	154.02	134.57	46.032	5.7838e-06	56.594	0.00084384	0.00081574	0.00021522	1572.4	9.4462e-06	8.806e-06	1565.5	414.97	9.3374e-06	8.8133e-06	469.29	160.83	139.5	47.66	8.7926e-06	59.009	203.065	112.353	166.186	35.097	186.697	193.941	35.281	40.157	163.829	342.515	39.172	44.156	44.535	48.787	173.942	48.147	-8191	255	
1515.952	1	1	0	0	0.043143	0.15051	0.15613	0.31654	0.23308	0.15895	0.42296	0.46595	0.20949	0.22281	0.32531	0.14114	0.17663	0.023584	0.22957	0.18734	-2.4938	-2.6708	-2.2687	-3.0625	-2.4229	-2.5354	-3.0729	-2.6437	-2.625	-2.9333	-2.3021	-2.8604	-2.7062	-2.4813	-3.0312	-2.4333	278.360	153.491	125.320	381.478	297.160	154.668	332.938	356.096	169.518	256.909	25.312	28.073	72.380	119.554	130.182	223.886	0.00033405	0.00026568	0.00020378	1546.2	6.4374e-06	5.5204e-06	1542.1	403.43	3.7686e-06	4.4571e-06	456.4	154.08	134.3	45.855	7.8944e-06	56.206	0.00082515	0.00079516	0.00022457	1576.7	9.1915e-06	8.604e-06	1570.3	416.07	9.0176e-06	8.6085e-06	469.59	160.77	139.23	47.601	9.3441e-06	58.936	204.872	114.398	185.214	35.287	207.221	87.730	35.354	40.347	194.870	87.422	39.723	44.505	44.518	48.673	254.611	48.261	-8191	255	
1516.071	1	1	0	0	0.22096	0.3433	0.070469	0.1063	0.28309	0.28986	0.29949	0.12848	0.32021	0.1977	0.10877	0.16584	0.18895	0.23328	0.17039	0.16964	-2.3688	-2.9042	-2.2729	-3.075	-2.7438	-2.4792	-3.3604	-2.4854	-2.6208	-2.9042	-2.5979	-3.0021	-2.9562	-2.5438	-3.0667	-2.7229	308.201	164.660	355.796	339.885	293.631	71.742	359.143	287.147	218.008	99.262	243.865	99.777	310.449	325.989	321.015	347.275	0.00035159	0.00078396	0.00021398	1547.5	3.5368e-06	5.4854e-06	1542.1	402.07	2.5029e-06	1.1013e-05	458.9	153.76	134.48	45.893	8.3153e-06	56.658	0.0008019	0.00078937	0.00023846	1574.9	9.0651e-06	8.3852e-06	1569.8	414.91	8.8944e-06	8.568e-06	472.78	160.46	139.29	47.678	9.7708e-06	58.869	186.866	90.135	131.586	35.259	370.530	232.490	35.274	40.006	195.559	191.109	39.481	44.251	44.703	48.691	219.768	48.305	-8191	255	
#DATA ENDS
