BOXY.EXE: ISS Imagent and Oximeter Data Acquisition Program Version 0.80
Ascii Record File

#ACQ INFORMATION
2  Detector Channels 
16  External MUX Channels 
1  Auxiliary Channels 
5000  Waveform (CCF) Frequency (Hz)
1  Waveforms Skipped 
30  Waveforms Averaged 
1  Cycles Averaged 
16  Acquisitions per Waveform 
10.0806  Updata Rate (Hz) 

#FILE INFORMATION
TRUE -- External MUX Channel results are PARSED.
FALSE -- AC DC and Phase are NOT grouped.
TRUE -- Companion Program Settings File CREATED.
FALSE -- AC data not excluded
FALSE -- DC data not excluded
FALSE -- Phase data not excluded
FALSE -- Auxillary Chn. data not excluded
Tab delimiters

#CALIBRATION STATE
TRUE -- Waveform Calibration Values APPLIED.


#AUX CALIBRATION VALUES
Val Type	aux-1	

Term	1.0000e+00	
Factor	0.0000e+00	


#WF CALIBRATION VALUES
A = Detector Channel
Val Type	A-AC1	A-AC2	A-AC3	A-AC4	A-AC5	A-AC6	A-AC7	A-AC8	A-AC9	A-AC10	A-AC11	A-AC12	A-AC13	A-AC14	A-AC15	A-AC16	A-DC1	A-DC2	A-DC3	A-DC4	A-DC5	A-DC6	A-DC7	A-DC8	A-DC9	A-DC10	A-DC11	A-DC12	A-DC13	A-DC14	A-DC15	A-DC16	A-Ph1	A-Ph2	A-Ph3	A-Ph4	A-Ph5	A-Ph6	A-Ph7	A-Ph8	A-Ph9	A-Ph10	A-Ph11	A-Ph12	A-Ph13	A-Ph14	A-Ph15	A-Ph16	

Term	0.00000e+00	0.00000e+00	0.00000e+00	0.00000e+00	0.00000e+00	0.00000e+00	0.00000e+00	0.00000e+00	0.00000e+00	0.00000e+00	0.00000e+00	0.00000e+00	0.00000e+00	0.00000e+00	0.00000e+00	0.00000e+00	0.00000e+00	0.00000e+00	0.00000e+00	0.00000e+00	0.00000e+00	0.00000e+00	0.00000e+00	0.00000e+00	0.00000e+00	0.00000e+00	0.00000e+00	0.00000e+00	0.00000e+00	0.00000e+00	0.00000e+00	0.00000e+00	0.00000e+00	0.00000e+00	0.00000e+00	0.00000e+00	0.00000e+00	0.00000e+00	0.00000e+00	0.00000e+00	0.00000e+00	0.00000e+00	0.00000e+00	0.00000e+00	0.00000e+00	0.00000e+00	0.00000e+00	0.00000e+00	
Factor	1.00000e+00	1.00000e+00	1.00000e+00	1.00000e+00	1.00000e+00	1.00000e+00	1.00000e+00	1.00000e+00	1.00000e+00	1.00000e+00	1.00000e+00	1.00000e+00	1.00000e+00	1.00000e+00	1.00000e+00	1.00000e+00	1.00000e+00	1.00000e+00	1.00000e+00	1.00000e+00	1.00000e+00	1.00000e+00	1.00000e+00	1.00000e+00	1.00000e+00	1.00000e+00	1.00000e+00	1.00000e+00	1.00000e+00	1.00000e+00	1.00000e+00	1.00000e+00	X	X	X	X	X	X	X	X	X	X	X	X	X	X	X	X	

B = Detector Channel
Val Type	B-AC1	B-AC2	B-AC3	B-AC4	B-AC5	B-AC6	B-AC7	B-AC8	B-AC9	B-AC10	B-AC11	B-AC12	B-AC13	B-AC14	B-AC15	B-AC16	B-DC1	B-DC2	B-DC3	B-DC4	B-DC5	B-DC6	B-DC7	B-DC8	B-DC9	B-DC10	B-DC11	B-DC12	B-DC13	B-DC14	B-DC15	B-DC16	B-Ph1	B-Ph2	B-Ph3	B-Ph4	B-Ph5	B-Ph6	B-Ph7	B-Ph8	B-Ph9	B-Ph10	B-Ph11	B-Ph12	B-Ph13	B-Ph14	B-Ph15	B-Ph16	

Term	0.00000e+00	0.00000e+00	0.00000e+00	0.00000e+00	0.00000e+00	0.00000e+00	0.00000e+00	0.00000e+00	0.00000e+00	0.00000e+00	0.00000e+00	0.00000e+00	0.00000e+00	0.00000e+00	0.00000e+00	0.00000e+00	0.00000e+00	0.00000e+00	0.00000e+00	0.00000e+00	0.00000e+00	0.00000e+00	0.00000e+00	0.00000e+00	0.00000e+00	0.00000e+00	0.00000e+00	0.00000e+00	0.00000e+00	0.00000e+00	0.00000e+00	0.00000e+00	2.30140e+01	-1.20181e+02	-1.19907e+02	-1.83653e+02	-6.30298e+01	-5.18358e+01	-1.58195e+02	-1.62015e+02	-5.19289e+01	-7.20987e+01	-1.70726e+02	-1.70915e+02	-1.78976e+02	-1.76655e+02	-6.37239e+01	-1.49757e+02	
Factor	5.08546e-05	1.47758e-04	3.78023e-05	1.55087e-01	1.88521e-06	1.77159e-06	1.71671e-01	5.62650e-02	2.22537e-06	1.53002e-06	9.34834e-02	3.14727e-02	2.91465e-02	9.72571e-03	2.02248e-06	1.39640e-02	4.02956e-06	4.41231e-06	1.22925e-06	7.62458e-02	4.73918e-08	4.85632e-08	7.91440e-02	2.76715e-02	4.75700e-08	4.85441e-08	4.45230e-02	1.49399e-02	1.44346e-02	4.81122e-03	4.80407e-08	6.69290e-03	X	X	X	X	X	X	X	X	X	X	X	X	X	X	X	X	



#DISTANCE SETTINGS
A = Detector Channel
A-1	A-2	A-3	A-4	A-5	A-6	A-7	A-8	A-9	A-10	A-11	A-12	A-13	A-14	A-15	A-16	

2.5000e+00	3.0000e+00	2.5000e+00	3.0000e+00	2.0000e+00	3.0000e+00	1.5000e+00	3.0000e+00	3.0000e+00	3.0000e+00	3.0000e+00	3.0000e+00	3.0000e+00	3.0000e+00	1.5000e+00	3.0000e+00	

B = Detector Channel
B-1	B-2	B-3	B-4	B-5	B-6	B-7	B-8	B-9	B-10	B-11	B-12	B-13	B-14	B-15	B-16	

1.0000e+01	1.0000e+01	1.0000e+01	1.4400e+00	1.0000e+01	1.0000e+01	1.5100e+00	1.9400e+00	1.0000e+01	1.0000e+01	1.9900e+00	2.4900e+00	2.4100e+00	2.9000e+00	1.0000e+01	2.9800e+00	




#DATA BEGINS
time	group	step	mark	flag	A-AC1	A-AC2	A-AC3	A-AC4	A-AC5	A-AC6	A-AC7	A-AC8	A-AC9	A-AC10	A-AC11	A-AC12	A-AC13	A-AC14	A-AC15	A-AC16	A-DC1	A-DC2	A-DC3	A-DC4	A-DC5	A-DC6	A-DC7	A-DC8	A-DC9	A-DC10	A-DC11	A-DC12	A-DC13	A-DC14	A-DC15	A-DC16	A-Ph1	A-Ph2	A-Ph3	A-Ph4	A-Ph5	A-Ph6	A-Ph7	A-Ph8	A-Ph9	A-Ph10	A-Ph11	A-Ph12	A-Ph13	A-Ph14	A-Ph15	A-Ph16	B-AC1	B-AC2	B-AC3	B-AC4	B-AC5	B-AC6	B-AC7	B-AC8	B-AC9	B-AC10	B-AC11	B-AC12	B-AC13	B-AC14	B-AC15	B-AC16	B-DC1	B-DC2	B-DC3	B-DC4	B-DC5	B-DC6	B-DC7	B-DC8	B-DC9	B-DC10	B-DC11	B-DC12	B-DC13	B-DC14	B-DC15	B-DC16	B-Ph1	B-Ph2	B-Ph3	B-Ph4	B-Ph5	B-Ph6	B-Ph7	B-Ph8	B-Ph9	B-Ph10	B-Ph11	B-Ph12	B-Ph13	B-Ph14	B-Ph15	B-Ph16	aux-1	digaux	

29960.971	1	1	0	512	0.072214	0.10705	0.084801	0.39181	0.20413	0.071842	0.082242	0.14229	0.13858	0.22587	0.11411	0.026573	0.088082	0.1182	0.11885	0.14648	-3.6583	-4.7312	-4.6917	-4.0437	-4.8792	-4.1896	-4.5125	-5.0833	-3.8396	-4.6625	-4.8542	-4.0854	-4.9187	-4.4313	-4.1583	-4.9479	10.363	6.612	109.797	237.259	87.472	90.503	229.296	187.164	-66.264	-96.730	181.007	12.762	235.843	197.909	-63.222	153.641	0.0011839	0.0011061	0.00022305	1154.2	5.3366e-06	9.7454e-06	1299.6	481.92	1.8327e-05	7.0845e-06	596.14	242.34	186.39	71.946	7.7273e-06	104.73	0.00097513	0.00097796	0.00026983	1037	1.0556e-05	1.0535e-05	1170.1	433.27	1.0461e-05	1.0653e-05	539.18	219.54	168.68	65.166	1.0725e-05	95.335	-7.071	16.760	11.555	-87.706	20.070	18.074	-88.177	-83.896	22.090	21.006	-85.058	-81.581	-80.460	-75.052	3.789	-77.248	-8191	255	
29961.092	1	1	0	0	0.31664	0.014691	0.034055	0.35898	0.057038	0.11374	0.065641	0.19116	0.27879	0.2693	0.18966	0.29305	0.030919	0.23708	0.17849	0.15779	-3.6229	-4.525	-4.7104	-3.9646	-4.9083	-4.4375	-4.1604	-5.1625	-4.1333	-4.4229	-4.9083	-4.2125	-4.8063	-4.6958	-3.7979	-5.0458	113.453	25.119	169.900	198.746	-25.139	-50.074	173.462	179.485	162.026	179.714	183.890	207.650	222.192	196.332	-38.130	152.982	0.0010547	0.00058186	0.00018252	1159.3	1.6521e-05	1.2181e-05	1302.7	478.32	2.2932e-05	8.7746e-06	596.63	240.54	182.57	71.475	1.3977e-05	104.66	0.00096792	0.00097789	0.00026989	1044.3	1.0462e-05	1.0691e-05	1170.1	433.47	1.0762e-05	1.0984e-05	539.7	217.81	166.74	65.069	1.1275e-05	95.288	-10.435	-22.018	-9.079	-87.837	67.504	81.920	-88.553	-83.749	61.771	35.610	-85.233	-81.507	-80.224	-75.026	105.933	-77.550	-8191	255	
29961.162	1	1	0	0	0.16469	0.23397	0.11504	0.17446	0.057518	0.14686	0.32403	0.13703	0.11503	0.054111	0.023409	0.20052	0.18352	0.40475	0.088655	0.46677	-3.825	-4.2646	-4.8396	-4.0396	-4.6312	-4.5146	-4.225	-4.8938	-4.2188	-4.2625	-5.0667	-4.1375	-4.8229	-4.8417	-4.0875	-5.2042	234.324	88.032	78.699	-87.639	223.372	145.193	201.287	190.834	200.853	80.441	129.381	235.093	-65.090	207.678	167.309	198.447	0.00084997	0.0014636	0.00030199	1152	1.8043e-05	3.0969e-06	1299.2	472.52	1.5445e-05	7.3257e-06	595.99	236.38	181.46	70.393	1.3767e-05	104.58	0.0010504	0.0010458	0.00029206	1041	1.1507e-05	1.1355e-05	1170.7	428.63	1.1627e-05	1.16e-05	539.51	214.81	164.53	64.22	1.2052e-05	94.861	-13.174	15.054	42.774	-87.832	4.474	36.410	-88.442	-83.744	38.193	4.896	-85.270	-81.346	-80.316	-74.886	43.534	-77.364	-8191	255	
29961.260	1	1	0	0	0.067595	0.16796	0.25243	0.13557	0.15969	0.15988	0.39142	0.1659	0.10262	0.12436	0.23403	0.27947	0.12064	0.19423	0.14144	0.28919	-4.1042	-4.0896	-5.1042	-4.0646	-4.6396	-4.8458	-4.0625	-5.1792	-4.4146	-4.1	-5.2542	-4.1396	-4.5938	-4.8292	-3.8542	-4.8063	217.899	198.130	41.657	121.471	242.896	214.952	-94.907	209.252	40.805	-42.728	248.791	235.330	-89.099	247.040	111.935	201.019	0.0010196	0.0012182	0.00050413	1158.8	6.7947e-06	6.1884e-06	1301.8	474.78	1.4107e-05	7.5124e-06	592.74	238.64	181.78	70.421	1.6144e-05	102.76	0.0010791	0.0010987	0.00030671	1046	1.1604e-05	1.199e-05	1174.7	429.59	1.1786e-05	1.1723e-05	536.58	215.46	164.94	64.083	1.1442e-05	93.464	-14.135	10.595	-4.490	-87.533	73.031	72.782	-88.389	-83.835	25.869	47.989	-85.279	-81.214	-80.082	-75.083	43.016	-77.264	-8191	255	
29961.381	1	1	0	0	0.25655	0.24882	0.089477	0.14885	0.1442	0.28008	0.29464	0.14001	0.096866	0.045103	0.14361	0.15635	0.13038	0.1296	0.12867	0.22364	-4.0896	-4.1562	-4.8604	-4.0729	-4.3521	-4.9021	-4.15	-4.9333	-4.4563	-4.1167	-5.0271	-4.3521	-4.5417	-5.0604	-4.0667	-4.7792	187.736	132.479	-58.415	106.684	53.326	-23.255	195.690	-66.939	-44.588	-57.845	-93.605	202.681	219.958	26.885	137.176	224.261	0.00080882	0.0010077	0.00026421	1147.7	1.0504e-05	1.3177e-05	1284.1	470.79	1.813e-05	5.2718e-06	585.01	236.84	180.89	69.291	4.7224e-06	101.64	0.0010385	0.0010527	0.00029195	1037.6	1.1115e-05	1.1328e-05	1156.5	425.53	1.1212e-05	1.1425e-05	529.81	213.77	163.77	63.246	1.1142e-05	92.719	-30.403	9.760	20.643	-87.758	-52.880	110.131	-88.494	-83.931	34.210	32.627	-85.272	-81.724	-80.359	-74.713	53.006	-77.326	-8191	255	
29961.477	1	1	0	0	0.20134	0.22244	0.05007	0.30523	0.19303	0.076694	0.06138	0.27275	0.25122	0.1483	0.13539	0.13278	0.061787	0.32736	0.13125	0.20915	-4.3417	-4.05	-4.8688	-4.3354	-4.2667	-4.8708	-4.1438	-4.5875	-4.6125	-3.8812	-4.9313	-4.4396	-4.2271	-5.0813	-4.0146	-4.5583	99.839	-2.095	151.289	-69.798	-57.804	84.348	79.720	223.717	70.597	22.298	184.925	189.865	60.440	225.067	225.959	197.509	0.00067738	0.00046126	0.00022901	1156.2	9.3547e-06	3.2475e-06	1293.4	476.57	1.266e-05	3.6393e-06	596.35	240.22	183.37	70.564	1.2082e-05	103.28	0.00099337	0.0010184	0.00028301	1043.6	1.1045e-05	1.1279e-05	1167	431.5	1.1212e-05	1.1452e-05	538.01	216.23	166.2	64.189	1.1222e-05	93.763	-11.855	-28.708	0.664	-87.417	-10.110	80.006	-88.587	-84.092	10.028	16.249	-85.424	-81.060	-80.232	-74.922	33.237	-77.602	-8191	255	
29961.570	1	1	0	0	0.19554	0.11665	0.19977	0.33806	0.20705	0.063861	0.17928	0.20421	0.02878	0.17686	0.21586	0.072976	0.17641	0.076178	0.16704	0.14302	-4.3688	-3.8875	-4.6854	-4.4771	-4.2021	-5.0687	-4.2917	-4.5521	-4.6771	-3.9188	-4.8833	-4.6062	-4.3042	-5.0875	-4.0583	-4.5521	235.255	92.560	89.733	206.801	48.140	-48.042	131.038	219.695	208.669	128.900	158.484	142.893	224.474	115.489	232.909	135.638	0.00089221	0.001143	0.00042766	1173	1.0988e-05	4.9765e-06	1310	486.89	1.0716e-05	1.1941e-05	601.52	241.46	185.53	71.415	1.2541e-05	104.34	0.00104	0.001033	0.00028787	1057.5	1.1216e-05	1.1409e-05	1183.9	438.65	1.1146e-05	1.1463e-05	544.43	219	168.76	64.871	1.1377e-05	94.961	-9.339	-25.520	5.714	-87.648	59.977	140.614	-88.350	-84.123	210.210	63.100	-85.624	-81.291	-80.729	-74.786	71.359	-77.659	-8191	255	
29961.668	1	1	0	0	0.099373	0.10075	0.07314	0.12664	0.088674	0.22601	0.11547	0.31817	0.047118	0.1581	0.24143	0.1018	0.16317	0.10858	0.14199	0.23231	-4.4938	-3.9479	-4.8104	-4.6958	-3.9062	-4.8729	-4.4333	-4.4417	-4.9292	-3.9542	-4.7458	-4.8313	-4.1396	-5.0125	-4.3375	-4.3854	120.628	182.187	46.127	188.401	199.966	86.229	-37.280	224.977	244.349	91.570	123.231	195.228	240.198	-70.023	91.158	156.973	0.00060579	0.0011651	7.7663e-05	1179.1	3.5346e-06	7.2043e-06	1316.7	488.13	7.6397e-06	1.068e-05	606.7	242.54	185.34	71.856	1.9725e-05	105.25	0.0010424	0.0010478	0.00029106	1064.4	1.1262e-05	1.1312e-05	1189.2	440.51	1.1007e-05	1.126e-05	546.51	220.57	168.51	65.472	1.124e-05	96.132	-1.951	-25.279	-67.380	-87.798	43.111	49.570	-88.221	-84.154	85.113	36.041	-85.451	-81.533	-80.338	-74.654	51.721	-77.282	-8191	255	
29961.764	1	1	0	0	0.25089	0.086912	0.15103	0.21519	0.18858	0.20075	0.20435	0.29346	0.025826	0.065111	0.13128	0.18951	0.34036	0.07908	0.11117	0.15114	-4.6312	-3.9979	-4.5542	-4.8083	-3.975	-4.9625	-4.6375	-4.4104	-4.9167	-3.8521	-4.4583	-4.9083	-3.9562	-4.825	-4.4771	-4.2729	71.498	131.271	236.536	115.502	-12.249	79.309	162.386	196.386	126.874	-86.980	234.412	232.964	206.349	107.605	74.758	142.539	0.0010681	0.00035982	0.00012937	1158.7	8.0291e-06	6.4641e-06	1299	473.32	7.864e-06	1.1233e-05	590.31	235.1	178.36	69.559	3.3232e-06	101.61	0.0010229	0.0010451	0.00029001	1045.9	1.1386e-05	1.1487e-05	1168.8	427.27	1.1525e-05	1.1724e-05	532.79	213.06	162.46	63.223	1.1635e-05	92.67	-19.059	18.945	-54.362	-87.859	73.787	13.053	-88.134	-83.829	74.372	33.506	-85.115	-81.451	-79.889	-74.700	216.977	-77.513	-8191	255	
29961.859	1	1	0	0	0.068156	0.11941	0.30884	0.10114	0.12842	0.11818	0.38538	0.19158	0.15554	0.16295	0.15336	0.26723	0.33317	0.0075689	0.095425	0.20578	-4.6937	-4.0271	-4.4563	-4.8604	-3.8896	-4.8	-4.7708	-4.2417	-4.9688	-4.1979	-4.4417	-5.0188	-4.1708	-5.1458	-4.7667	-4.1479	113.869	88.880	-86.469	-81.187	27.290	-69.784	183.533	254.054	-48.144	95.168	241.018	164.638	228.356	189.885	-90.943	-80.654	0.00077421	0.00096122	0.00024329	1114.3	7.9733e-06	1.0115e-05	1253	451.81	6.5772e-06	3.7971e-06	567.61	228.08	171.73	67.358	2.0693e-06	99.867	0.0010532	0.0010663	0.00029769	1012.4	1.1653e-05	1.1682e-05	1131.7	408.77	1.1405e-05	1.1758e-05	514.59	206.11	156.57	61.656	1.1366e-05	91.114	-6.907	-13.183	-6.786	-87.531	14.924	61.144	-88.200	-83.822	105.244	35.137	-85.032	-81.195	-80.068	-74.985	59.034	-77.136	-8191	255	
29961.955	1	1	0	0	0.25856	0.095379	0.066229	0.14966	0.063632	0.053605	0.16228	0.22364	0.080381	0.25164	0.26729	0.12774	0.096733	0.26103	0.25956	0.31863	-4.5896	-4.1813	-4.4396	-5.0188	-3.8042	-4.5146	-4.7875	-4.0646	-4.9521	-4.1813	-4.6146	-5.2271	-4.0729	-4.6208	-4.7229	-4.1479	180.556	213.033	252.789	192.621	-1.206	101.886	-94.504	221.826	-32.671	-30.215	248.577	-70.937	-101.594	220.156	180.818	144.811	0.0010843	0.00086771	0.00023065	1119.7	9.2846e-06	8.2087e-06	1262.1	458.29	1.53e-05	9.0245e-06	575.44	231.12	174.99	68.206	1.5665e-05	100.17	0.0010313	0.0010626	0.00030314	1009.5	1.1461e-05	1.1831e-05	1141.4	414.6	1.1504e-05	1.1849e-05	521.28	208.7	159.24	62.148	1.1597e-05	91.485	-2.447	-42.451	-17.298	-87.502	20.142	59.845	-88.523	-84.050	33.520	29.851	-85.175	-81.254	-80.112	-74.734	27.992	-77.703	-8191	255	
29962.051	1	1	0	0	0.20746	0.1277	0.084125	0.31503	0.11912	0.13612	0.31309	0.27848	0.21225	0.17319	0.14651	0.13481	0.094472	0.21815	0.14319	0.29586	-4.6458	-4.4542	-4.05	-4.9313	-3.9562	-4.5062	-4.9667	-4.0833	-4.9417	-4.5542	-4.1271	-5.1042	-4.2083	-4.5896	-4.8104	-4.1021	191.425	46.430	-22.307	162.962	120.297	3.752	182.166	198.092	35.837	196.416	-95.628	229.504	-98.787	200.588	33.705	177.470	0.00075988	0.0014403	0.0002333	1130.5	1.2522e-05	1.1764e-05	1274.5	459.83	1.4142e-05	5.7256e-06	581.05	230.52	175.1	68.484	4.2548e-06	101.84	0.0010659	0.0010703	0.00029978	1022.8	1.1437e-05	1.167e-05	1153.9	417.84	1.1467e-05	1.1547e-05	525.61	208.43	159.42	62.398	1.1663e-05	92.578	-23.585	14.136	7.444	-87.771	83.547	48.010	-88.219	-83.790	46.579	52.497	-85.093	-81.465	-80.208	-74.952	-44.056	-76.968	-8191	255	
29962.172	1	1	0	0	0.081016	0.039427	0.19119	0.12353	0.14557	0.21505	0.20715	0.29354	0.25763	0.1674	0.043786	0.15701	0.11128	0.13995	0.020894	0.037	-4.5896	-4.4938	-4.0708	-5.0625	-4.1354	-4.325	-5.1208	-4.1813	-4.7042	-4.7562	-4.2312	-5.0458	-4.3812	-4.3708	-4.8125	-4.0729	248.357	-47.902	166.147	-92.980	118.803	143.091	215.026	161.537	184.257	78.393	132.234	136.729	24.932	177.044	25.438	48.103	0.000964	0.00088369	0.00016764	1129.8	1.0855e-06	1.3817e-05	1266.2	460.28	1.4474e-05	6.0691e-06	581.75	232.3	175.05	68.744	3.2925e-06	103.45	0.0010565	0.0010624	0.00029636	1021.2	1.1791e-05	1.1616e-05	1150	417.21	1.1724e-05	1.182e-05	527.28	209.65	159.1	62.865	1.2023e-05	93.59	-14.686	23.997	-25.638	-87.719	-86.953	56.872	-88.200	-83.672	102.154	77.232	-85.802	-81.005	-79.878	-74.953	248.258	-77.139	-8191	255	
29962.268	1	1	0	0	0.25306	0.20736	0.20595	0.26092	0.11932	0.16463	0.18104	0.21259	0.11682	0.36358	0.26882	0.23535	0.10885	0.18408	0.043142	0.25233	-4.3833	-4.6375	-3.9437	-4.9396	-4.2292	-4.1833	-5.0625	-4.1937	-4.6417	-4.7042	-3.9833	-5.0208	-4.5875	-4.2688	-5.0542	-4.2729	-36.358	-23.459	79.087	255.148	107.516	231.613	229.729	213.247	-89.606	156.962	-77.071	242.854	188.426	247.950	145.584	199.021	0.00099418	0.00069016	0.00035097	1127.4	1.5697e-05	1.3437e-05	1266.5	458.55	1.1418e-05	1.0175e-05	575.1	230.69	173.62	67.988	1.3649e-05	100.98	0.0010703	0.0010807	0.00030463	1020.2	1.1795e-05	1.2034e-05	1150	415.6	1.1588e-05	1.1842e-05	523.49	208.39	158.3	61.882	1.1868e-05	91.878	-18.658	-36.233	23.014	-87.723	46.657	61.492	-88.036	-83.659	113.380	58.630	-85.430	-81.381	-80.168	-74.812	78.843	-77.378	-8191	255	
29962.363	1	1	0	0	0.24549	0.16778	0.19593	0.17276	0.25867	0.12938	0.14241	0.12161	0.26856	0.22914	0.19948	0.28021	0.19189	0.244	0.0078493	0.21559	-4.3167	-4.9688	-3.9458	-5.0333	-4.45	-4.1333	-5.0521	-4.4854	-4.4146	-5.1042	-4.1792	-4.9292	-4.6312	-4.1042	-5.0167	-4.4604	80.379	-66.453	-99.345	-96.334	68.723	192.033	214.635	233.541	111.415	-76.949	-99.434	241.282	141.943	240.504	107.743	175.710	0.00060968	0.0011828	0.00047474	1111.4	1.2932e-05	6.2348e-06	1258.7	450.9	1.3428e-05	1.043e-05	566.11	226.03	171.82	67.409	1.3225e-05	100.39	0.001068	0.0010833	0.00030862	1005.7	1.1956e-05	1.1894e-05	1138.6	408.42	1.1859e-05	1.1918e-05	515.11	205.23	156.24	61.298	1.1937e-05	91.294	-31.849	-23.063	-21.176	-87.570	89.620	39.190	-88.088	-83.942	84.636	45.694	-85.223	-81.441	-79.993	-74.718	44.202	-77.200	-8191	255	
29962.461	1	1	0	0	0.087187	0.086994	0.10281	0.17551	0.12198	0.040715	0.29674	0.2339	0.15713	0.28464	0.17838	0.26616	0.21429	0.41519	0.10666	0.26917	-4.025	-4.9771	-4.0854	-4.8771	-4.8229	-4.1917	-5.1542	-4.2625	-4.3313	-4.9271	-4.1854	-4.8146	-4.85	-4.1188	-5.0708	-4.6083	134.393	-70.354	-30.743	184.159	19.368	45.140	217.458	210.057	201.681	87.025	183.270	245.969	223.556	236.163	5.531	172.519	0.00094123	0.00089492	0.00024399	1105	2.0525e-06	7.5785e-06	1253.2	451.27	4.8751e-07	5.479e-06	570.8	226.8	171.07	67.697	1.4015e-05	100.87	0.0010871	0.0010753	0.00030275	1004.5	1.1614e-05	1.2002e-05	1136.2	409.19	1.1872e-05	1.2034e-05	519.12	206.11	156.65	61.873	1.1938e-05	91.988	-12.654	-49.319	-74.020	-87.610	103.633	64.957	-88.325	-83.822	228.669	67.887	-85.475	-81.374	-79.672	-74.502	121.189	-77.005	-8191	255	
29962.557	1	1	0	0	0.098623	0.16114	0.16743	0.17184	0.025504	0.12943	0.18686	0.11871	0.13471	0.0068696	0.054161	0.29973	0.163	0.069712	0.14612	0.11869	-3.8792	-5.1146	-4.1396	-4.8792	-4.85	-4.0062	-5.1458	-4.5813	-4.2146	-5.0062	-4.2792	-4.5979	-4.9208	-3.875	-4.7271	-4.7229	76.789	-67.012	98.573	174.089	-77.674	135.203	255.149	156.810	65.858	230.021	185.010	196.711	216.667	195.131	-63.262	232.177	0.0012306	0.0012433	0.00030067	1121.8	1.6944e-05	8.1215e-06	1266.2	456.48	1.324e-05	3.6705e-06	574.95	229.57	173.04	67.78	1.2121e-05	102.23	0.0010839	0.0011055	0.00030721	1010.9	1.1753e-05	1.2218e-05	1144.6	412.8	1.1906e-05	1.2029e-05	520.96	208.06	157.22	62.022	1.2156e-05	92.881	-12.417	-40.978	-28.596	-87.709	62.530	82.333	-88.249	-83.798	110.081	41.264	-84.921	-81.077	-79.871	-74.599	13.962	-77.088	-8191	255	
29962.652	1	1	0	0	0.12188	0.24652	0.05695	0.14809	0.28937	0.15907	0.17591	0.32645	0.16903	0.080278	0.16163	0.11123	0.15925	0.34478	0.55068	0.42533	-3.7562	-4.9396	-4.0021	-4.3438	-4.7562	-4.0417	-4.9042	-4.6646	-3.8333	-4.9979	-4.4333	-4.4646	-5.1042	-4.0708	-4.7229	-4.9792	164.269	247.492	253.127	211.500	33.456	63.915	242.307	193.285	227.883	74.982	233.242	-56.459	108.388	207.206	247.994	209.209	0.0010669	0.000555	0.000231	1117.3	8.0546e-06	1.3189e-05	1258.9	451.69	1.4534e-05	1.0454e-05	573.3	227.23	171.49	68.032	5.6775e-06	102.72	0.0010796	0.0010801	0.00030648	1007.2	1.1721e-05	1.2053e-05	1140.6	409.6	1.1986e-05	1.2003e-05	519.86	207.19	156.43	62.162	1.2012e-05	93.494	-6.975	58.572	11.692	-87.884	39.689	59.912	-88.037	-83.507	44.475	64.060	-85.008	-81.422	-79.432	-74.604	15.469	-76.912	-8191	255	
29962.771	1	1	0	0	0.23614	0.092346	0.056751	0.068971	0.14094	0.12639	0.11571	0.22657	0.073524	0.10118	0.31219	0.19176	0.23885	0.1927	0.091981	0.3004	-3.9354	-4.9354	-4.2854	-4.4271	-4.8875	-4.0542	-4.7708	-4.9396	-4.0062	-4.8438	-4.4896	-4.2812	-5.0896	-4.2354	-4.5792	-5.1479	10.894	164.660	93.990	206.781	110.338	225.876	98.873	154.222	233.567	-52.627	245.773	210.511	-76.586	244.174	79.870	197.142	0.0010138	0.00061157	0.00014332	1107.6	1.0807e-05	1.075e-05	1258.4	447.73	3.9903e-06	2.2833e-06	567.08	225.88	169.31	66.68	4.618e-06	99.605	0.0011064	0.0011113	0.00031111	1002.1	1.1956e-05	1.2329e-05	1136	405.38	1.1932e-05	1.223e-05	514.4	204.13	154.25	60.869	1.2113e-05	90.846	-7.274	54.963	-3.710	-87.779	51.750	43.890	-88.257	-83.711	70.821	2.231	-84.982	-81.331	-79.897	-74.513	148.049	-76.954	-8191	255	
29962.867	1	1	0	0	0.17862	0.1122	0.15449	0.16702	0.14586	0.23238	0.19088	0.11548	0.2195	0.16625	0.22185	0.41054	0.21742	0.11607	0.2245	0.10722	-3.6875	-5.0021	-4.5125	-4.3292	-5.0042	-4.2542	-4.7625	-5.1937	-4.0062	-4.9042	-4.575	-4.3229	-5.0854	-4.2896	-4.325	-5.1062	18.568	-56.039	131.081	-94.750	211.110	50.520	-88.291	217.607	113.025	-6.565	234.014	229.902	-93.593	173.031	-53.285	226.645	0.00088003	0.00076245	0.00020318	1096	1.3429e-05	1.2958e-05	1245.9	446.58	4.1854e-06	1.1269e-05	563.4	222.82	169.65	66.661	1.0303e-06	99.056	0.0010983	0.0011121	0.00030395	998.02	1.173e-05	1.2153e-05	1128.5	404.34	1.2133e-05	1.1973e-05	511.15	202.72	154.24	60.755	1.2184e-05	90.407	-33.109	-38.364	-55.661	-88.094	13.339	99.145	-88.315	-83.656	155.552	39.233	-85.088	-81.322	-80.251	-74.327	-26.379	-77.279	-8191	255	
29962.965	1	1	0	0	0.087894	0.15198	0.105	0.13682	0.27732	0.25774	0.19309	0.20612	0.18682	0.18618	0.21253	0.30321	0.20191	0.093801	0.074086	0.34101	-3.4958	-4.7312	-4.5917	-4.3333	-4.9854	-4.325	-4.575	-4.9104	-4.0021	-4.6354	-4.8271	-4.2271	-4.9187	-4.4771	-4.1937	-5.1062	175.592	-98.669	-73.456	200.690	217.468	83.083	113.765	187.442	181.524	70.693	155.463	230.167	213.473	235.281	41.834	194.804	0.0011415	0.00036048	0.00013547	1105	1.4789e-05	2.7688e-06	1244.6	446.37	7.332e-06	5.4646e-06	559.05	223.48	167.97	66.286	1.6737e-05	99.313	0.0010928	0.0011324	0.00031401	1002.3	1.2057e-05	1.2405e-05	1128.9	404.13	1.2158e-05	1.2495e-05	510.5	202.26	153.4	60.631	1.2425e-05	90.429	-18.156	17.638	38.241	-87.928	1.907	93.029	-88.442	-83.869	-92.298	86.159	-85.435	-81.124	-80.146	-74.728	20.671	-76.846	-8191	255	
29963.061	1	1	0	0	0.090569	0.10084	0.21292	0.16397	0.24356	0.065566	0.11453	0.1506	0.061439	0.12687	0.17803	0.043663	0.20101	0.374	0.12189	0.10713	-3.6604	-4.5167	-4.55	-3.9938	-4.8854	-4.2333	-4.2188	-5.0625	-4.1021	-4.5792	-4.8542	-3.8125	-4.8958	-4.5354	-4.0542	-4.7937	-83.077	233.104	95.885	89.731	49.686	80.049	231.090	154.985	42.257	128.638	188.182	117.920	-95.607	203.082	159.838	151.039	0.00090431	0.00066552	0.00026716	1096.8	9.9635e-06	3.1897e-06	1242.3	446.3	1.0534e-05	1.0349e-05	560.63	223.61	168.31	66.787	4.9313e-06	99.677	0.0011138	0.0011107	0.0003108	993.22	1.2023e-05	1.2218e-05	1124.2	402.41	1.2197e-05	1.2241e-05	509.21	202.88	153.33	60.91	1.2155e-05	91.08	-24.025	-14.175	-22.546	-87.542	-1.742	181.054	-88.307	-83.516	7.464	57.571	-85.123	-81.089	-79.507	-74.234	-64.984	-76.904	-8191	255	
29963.156	1	1	0	0	0.10395	0.036515	0.097688	0.19605	0.12614	0.31937	0.10413	0.1554	0.13543	0.035737	0.20793	0.12737	0.26953	0.32421	0.12556	0.073005	-3.75	-4.2875	-4.7708	-4.0938	-4.5979	-4.6229	-4.4333	-4.9896	-4.0354	-4.1292	-4.9021	-4.1208	-4.7708	-4.65	-4.1708	-5.0062	71.316	-66.540	71.691	186.230	-32.394	46.778	79.310	149.680	-25.962	135.494	209.047	226.809	-99.272	-7.380	119.265	132.871	0.0010513	0.00056364	0.00020988	1088.1	8.4243e-07	1.0324e-05	1244.9	440.42	2.3832e-05	6.3311e-06	567.05	225.3	169.05	67.519	1.2524e-05	101.24	0.0011297	0.0011249	0.00031672	987.29	1.2328e-05	1.229e-05	1125.5	400.13	1.239e-05	1.2531e-05	515.24	204.48	154.28	61.728	1.2679e-05	92.549	-18.545	6.645	66.310	-87.834	-92.969	94.374	-88.338	-83.651	23.526	67.180	-84.799	-81.059	-79.863	-74.259	-41.113	-76.944	-8191	255	
29963.252	1	1	0	0	0.14861	0.13441	0.1616	0.053081	0.065835	0.14863	0.20029	0.1211	0.17709	0.16066	0.23527	0.21066	0.20838	0.18368	0.18734	0.1621	-3.8688	-4.175	-4.7604	-4.0854	-4.6229	-4.6229	-4.1	-5.1771	-4.3708	-4.2458	-5.0417	-4.1229	-4.55	-4.8646	-4.0229	-5.0062	-52.240	-36.543	104.674	112.975	90.298	21.025	230.803	195.562	217.395	178.693	-82.461	-82.902	211.668	-67.963	124.354	-90.490	0.0012558	0.0013575	0.00019529	1096.8	7.9731e-06	8.1701e-06	1243.7	444.7	9.8943e-06	7.7479e-06	565.83	226.65	169.42	66.699	8.0499e-06	100.3	0.001136	0.0011578	0.00031982	996.07	1.2389e-05	1.2579e-05	1131	403.29	1.2286e-05	1.25e-05	512.19	204.92	154.77	61.082	1.2507e-05	91.269	-8.875	40.601	-1.099	-87.722	41.336	139.258	-88.311	-83.754	59.406	-13.876	-84.966	-81.066	-79.616	-74.399	33.071	-77.137	-8191	255	
29963.348	1	1	0	0	0.14058	0.064359	0.13422	0.19219	0.1203	0.12498	0.20659	0.11777	0.38765	0.35726	0.078293	0.25146	0.1427	0.15066	0.12367	0.24202	-4.2188	-4.3146	-4.8583	-4.1833	-4.4708	-4.8187	-4.1604	-5.0792	-4.5271	-4.1583	-5.0771	-4.3042	-4.5125	-5.0792	-3.8104	-4.875	164.183	228.071	158.900	255.955	239.355	-94.187	229.047	206.654	-5.347	-76.834	107.007	202.858	152.661	-100.772	176.532	214.835	0.001329	0.00038549	8.6318e-05	1106.4	1.0951e-05	1.4017e-05	1257	448.59	6.1186e-06	5.7021e-06	569.16	228.38	170.92	67.725	4.3176e-06	100.59	0.0011388	0.0011475	0.00031607	1000.4	1.2001e-05	1.2354e-05	1133.1	406.72	1.2081e-05	1.2228e-05	515.28	206.54	156.01	61.614	1.2214e-05	91.582	-5.775	7.348	-20.228	-87.613	22.892	77.688	-88.408	-83.730	-55.184	68.242	-85.187	-81.253	-80.086	-74.656	131.368	-76.871	-8191	255	
29963.467	1	1	0	0	0.1559	0.17417	0.036908	0.27861	0.1633	0.15765	0.14457	0.36267	0.15394	0.091308	0.29917	0.074702	0.14768	0.080077	0.12079	0.22174	-4.2396	-4.0667	-4.9896	-4.1708	-4.1396	-4.9833	-4.0146	-4.7917	-4.5	-4.2292	-5.0333	-4.2812	-4.4021	-4.9646	-4.0875	-4.6979	163.948	78.482	220.760	197.588	-19.124	123.165	182.302	220.929	188.559	146.969	224.387	254.104	213.278	46.591	206.466	231.350	0.0010594	0.00046823	0.00025594	1102.5	6.2047e-06	1.0943e-05	1248.2	449.2	1.5722e-05	1.1841e-05	567.61	226.7	170.46	67.567	9.3411e-06	101.2	0.0011029	0.0011094	0.00031508	999.63	1.2197e-05	1.2528e-05	1133.3	406.25	1.2154e-05	1.2558e-05	513.75	206.06	155.71	61.79	1.2354e-05	92.263	-9.745	-38.670	16.123	-87.536	43.965	23.118	-88.391	-83.789	51.399	74.997	-84.839	-81.095	-80.190	-74.919	-9.778	-77.237	-8191	255	
29963.562	1	1	0	0	0.10102	0.19439	0.14448	0.20592	0.1759	0.16808	0.028739	0.27787	0.23744	0.12486	0.2247	0.099123	0.2636	0.20065	0.11179	0.41655	-4.4	-4.0875	-4.9333	-4.4542	-4.1167	-4.8479	-4.2042	-4.75	-4.6521	-4.1146	-4.9542	-4.5667	-4.2479	-5.0979	-4.0708	-4.5729	39.682	61.582	191.162	-72.356	-91.177	-51.825	113.050	185.413	170.086	204.419	245.289	-81.555	216.852	197.960	68.000	190.903	0.0007128	0.00061861	0.00024128	1100.7	6.6213e-06	1.4243e-05	1257.4	448.69	1.1414e-05	7.7417e-06	567.97	226.45	168.77	67.802	9.8171e-06	102.02	0.001099	0.0011287	0.00031979	1001.6	1.2243e-05	1.2594e-05	1134.8	405.75	1.2186e-05	1.2604e-05	515.91	206.15	154.47	61.84	1.2507e-05	92.964	-21.652	-15.580	-2.367	-87.296	123.728	62.755	-88.127	-83.685	55.094	14.786	-85.052	-80.776	-79.991	-74.371	70.001	-77.279	-8191	255	
29963.637	1	1	0	0	0.08813	0.15532	0.15206	0.068785	0.13157	0.073232	0.15803	0.13102	0.12764	0.1787	0.12375	0.19718	0.40543	0.23921	0.088694	0.35485	-4.5146	-3.8063	-4.7667	-4.5958	-4.0667	-4.9854	-4.4958	-4.5375	-4.8771	-4.0896	-4.8667	-4.6958	-3.9792	-5.0312	-4.1271	-4.3604	177.080	75.355	173.605	143.475	-15.596	-14.286	183.986	-90.894	-53.604	-49.187	107.279	201.678	207.467	194.315	67.695	149.576	0.0011233	0.0011144	0.00018263	1097.9	1.2008e-05	1.8105e-05	1242.6	445.31	8.829e-06	9.4069e-06	570.22	227.91	169.68	67.7	1.7177e-05	102.04	0.0011365	0.0011497	0.00031805	992.84	1.252e-05	1.2662e-05	1130.9	403.75	1.2703e-05	1.3044e-05	516.56	206.74	154.67	61.898	1.28e-05	92.824	-3.853	-18.727	41.997	-87.868	48.170	77.380	-88.192	-83.829	45.635	12.080	-85.029	-80.823	-79.972	-74.314	48.215	-77.046	-8191	255	
29963.732	1	1	0	0	0.34686	0.20519	0.077414	0.21469	0.054748	0.034994	0.082546	0.28606	0.20224	0.12672	0.31024	0.36223	0.20067	0.12918	0.24063	0.24266	-4.6729	-3.9688	-4.7104	-4.8021	-3.9313	-5.0271	-4.5479	-4.2833	-4.975	-3.9833	-4.8292	-4.8542	-4.0333	-5.0396	-4.2396	-4.3979	176.403	99.395	179.889	213.985	155.564	159.502	116.337	190.574	-3.656	39.109	249.879	233.736	216.700	181.570	104.493	205.983	0.0010236	0.0010851	0.00014193	1100.1	1.0155e-05	1.263e-05	1241.2	444.61	1.2999e-05	8.6245e-06	565.39	223.58	168	66.38	1.0428e-05	99.163	0.0011489	0.0011579	0.00031917	995.36	1.2547e-05	1.2613e-05	1130.4	402.44	1.2421e-05	1.2623e-05	511.31	203.69	153.32	60.575	1.2208e-05	90.383	-17.746	27.692	246.248	-87.463	124.001	78.170	-88.298	-83.857	-3.630	62.960	-84.767	-80.751	-79.988	-74.425	57.722	-77.103	-8191	255	
29963.852	1	1	0	0	0.37191	0.15562	0.060086	0.19481	0.15354	0.16692	0.48292	0.2829	0.15868	0.11593	0.19576	0.17541	0.078419	0.092873	0.12302	0.35561	-4.8771	-3.9833	-4.525	-4.75	-3.95	-4.9187	-4.6417	-4.2438	-4.95	-3.9583	-4.5479	-4.9979	-4.1583	-4.8896	-4.5125	-4.4167	-42.172	79.987	198.573	242.179	39.496	-18.838	146.879	201.851	157.163	127.192	189.795	-64.177	227.031	-82.423	123.935	194.072	0.00094758	0.00083442	0.00023813	1088.5	1.0405e-05	8.5395e-06	1241.1	441.39	1.7611e-05	7.4106e-06	557.09	222.89	166.99	66.206	1.0537e-05	99.638	0.0011092	0.0011339	0.00031524	987.3	1.2194e-05	1.238e-05	1120.7	399.65	1.2324e-05	1.2377e-05	507.73	202.55	152.76	60.51	1.2327e-05	90.53	-10.378	-10.688	-24.349	-87.752	93.319	134.971	-88.042	-83.843	71.297	38.975	-85.268	-80.971	-79.842	-74.545	61.192	-77.097	-8191	255	
29963.947	1	1	0	0	0.098189	0.17533	0.069428	0.055544	0.11103	0.16097	0.1768	0.26278	0.29508	0.11144	0.16074	0.28044	0.04985	0.18912	0.26398	0.092576	-4.75	-3.9938	-4.125	-4.9521	-3.8646	-4.6729	-4.6417	-4.0708	-4.9083	-4.2146	-4.5167	-5.1333	-4.0792	-4.9854	-4.7167	-4.3229	-0.447	52.298	123.042	177.568	93.479	33.207	243.683	198.270	221.086	109.631	218.875	115.528	182.409	-77.394	204.877	203.274	0.0007978	0.00052389	0.0002156	1090.9	8.3318e-06	1.4283e-05	1228.8	441.88	9.6444e-06	1.5806e-05	559.08	223.17	167.31	66.387	9.6905e-06	99.644	0.0011136	0.0011408	0.00031691	988.16	1.2308e-05	1.2262e-05	1121.6	399.05	1.2223e-05	1.2512e-05	506.55	202.9	152.91	60.661	1.2582e-05	90.79	-2.793	-97.093	0.773	-87.548	4.422	55.160	-88.107	-83.975	79.687	29.544	-85.244	-81.277	-80.008	-74.703	110.282	-77.303	-8191	255	
29964.045	1	1	0	0	0.17577	0.063904	0.15221	0.20239	0.2053	0.10366	0.30737	0.36256	0.049523	0.28727	0.089589	0.26342	0.25883	0.12404	0.19414	0.17571	-4.4833	-4.2438	-4.1458	-5.0021	-4.0813	-4.6	-4.8979	-4.175	-5.0125	-4.3854	-4.2792	-5.1292	-4.2042	-4.6375	-4.7125	-4.2583	42.501	23.174	139.958	231.953	82.642	232.816	198.906	207.472	-81.026	99.302	-98.734	212.391	214.275	229.433	215.050	187.544	0.00091393	0.00071447	0.00034618	1086.9	4.3738e-06	9.5703e-06	1230.1	438.64	1.4878e-05	1.3213e-05	557.7	223.87	166.99	67.193	1.079e-05	101.44	0.0011379	0.0011697	0.00032701	984.2	1.2493e-05	1.2681e-05	1119.8	397.21	1.2656e-05	1.2931e-05	507.72	203.78	153.11	61.426	1.2732e-05	92.63	1.902	11.765	-3.485	-87.692	67.704	105.111	-88.089	-83.645	52.707	39.008	-85.087	-80.751	-79.846	-74.465	-1.824	-77.070	-8191	255	
29964.164	1	1	0	0	0.19327	0.15712	0.10486	0.12965	0.27066	0.065709	0.10762	0.12679	0.20262	0.062065	0.043725	0.22503	0.1244	0.3954	0.38755	0.18162	-4.5604	-4.4	-4.0687	-5.0938	-4.0021	-4.3771	-5.0333	-4.0687	-4.8938	-4.6208	-4.1667	-4.9958	-4.2896	-4.4667	-4.8229	-3.9292	98.129	31.162	185.605	-93.731	45.473	107.655	213.048	-91.022	198.658	208.105	-10.795	200.118	-48.161	224.108	12.099	203.650	0.0010747	0.0010209	0.00033073	1096.9	8.9563e-06	1.16e-05	1254.5	446.73	2.0067e-05	1.3455e-05	570.25	230.57	170.89	68.28	1.6158e-05	102.39	0.0011528	0.0011902	0.00032766	991.12	1.2865e-05	1.294e-05	1133.3	404.33	1.2799e-05	1.3007e-05	516.14	208.55	156.07	62.33	1.2848e-05	93.271	3.344	-21.409	-7.231	-87.791	154.779	77.579	-88.142	-84.074	-0.997	23.867	-85.145	-81.175	-79.638	-74.799	52.218	-77.267	-8191	255	
29964.262	1	1	0	0	0.061578	0.086495	0.19022	0.196	0.15052	0.027114	0.1313	0.28041	0.059628	0.17156	0.056898	0.27901	0.34331	0.1845	0.10674	0.14071	-4.4042	-4.7729	-4.0833	-5.1583	-4.2146	-4.2937	-5.0521	-4.0333	-4.6875	-4.575	-4.1146	-5.0396	-4.4417	-4.3104	-4.9938	-4.2396	245.312	158.019	-63.515	100.215	-71.987	162.876	150.427	205.857	38.165	242.742	186.450	209.262	154.520	247.474	-13.492	154.913	0.0011104	0.0011791	0.00037312	1098	6.2822e-06	1.0269e-05	1244	446.74	1.5324e-05	6.1482e-06	567.14	227.66	170.2	67.451	2.3219e-06	100.44	0.001133	0.0011706	0.0003238	994.69	1.2584e-05	1.2508e-05	1130.9	404.27	1.2228e-05	1.246e-05	512.48	206.87	155.87	61.565	1.2404e-05	91.693	-15.486	2.543	15.238	-87.523	2.088	88.939	-88.165	-83.763	37.116	92.433	-85.109	-81.052	-79.915	-74.904	212.572	-77.321	-8191	255	
29964.332	1	1	0	0	0.20157	0.22048	0.10394	0.058874	0.096337	0.10255	0.22428	0.21228	0.20302	0.13295	0.28052	0.30842	0.49747	0.019745	0.12914	0.26846	-4.2208	-4.7667	-3.9396	-5.0417	-4.4271	-3.9688	-4.9208	-4.1104	-4.5167	-4.7958	-4.2708	-4.9396	-4.6771	-4.2042	-5.0521	-4.3875	184.009	144.478	-2.487	43.334	67.316	238.911	198.114	55.454	6.093	140.866	-95.677	160.170	244.764	146.281	173.444	173.785	0.00080782	0.0011674	0.00034103	1098.6	5.1639e-06	1.0281e-05	1244.8	450.82	2.0119e-05	4.7542e-06	568.1	230.88	173.19	68.397	1.0427e-05	101.57	0.0010874	0.0011195	0.00030619	992.71	1.1815e-05	1.2281e-05	1125.5	407	1.194e-05	1.2066e-05	514.03	209.7	158.18	62.387	1.2001e-05	92.49	-5.896	45.129	-8.638	-87.595	101.695	22.296	-88.222	-83.849	63.930	40.278	-85.434	-81.276	-79.869	-74.899	-6.149	-77.195	-8191	255	
29964.453	1	1	0	0	0.22685	0.16904	0.27106	0.24239	0.18753	0.26209	0.30826	0.36596	0.088036	0.058099	0.14859	0.24033	0.1176	0.25549	0.074627	0.33671	-4.0563	-4.7958	-4.0146	-5.0646	-4.5333	-4.0708	-4.9146	-4.3625	-4.4104	-4.7729	-4.1021	-4.7792	-4.7146	-4.1542	-4.9313	-4.4271	144.892	-10.299	200.489	237.583	-87.045	209.154	223.586	180.849	30.241	50.855	150.633	196.181	220.052	223.653	231.049	201.499	0.00070753	0.00058766	0.00037647	1105.5	1.9407e-05	1.1683e-05	1258.8	459.64	9.1458e-06	1.1854e-05	580.05	239.02	179.33	70.274	6.2507e-06	104.6	0.001091	0.0010981	0.00029884	1004.7	1.1858e-05	1.198e-05	1138.3	414.35	1.1508e-05	1.177e-05	523.5	215.45	162.9	63.969	1.1477e-05	95.186	-11.109	83.617	-25.905	-87.931	56.225	50.937	-88.209	-83.999	120.747	38.251	-85.343	-81.364	-80.158	-74.911	11.028	-77.402	-8191	255	
29964.549	1	1	0	0	0.086796	0.17401	0.078698	0.241	0.22195	0.16051	0.24921	0.24237	0.061351	0.018568	0.1024	0.14612	0.093962	0.096712	0.10551	0.32987	-3.7667	-4.95	-3.9813	-4.725	-4.9062	-3.9875	-5.1146	-4.5583	-4.2833	-5.0208	-4.2271	-4.7292	-4.8438	-4.0271	-4.875	-4.5687	246.558	-88.491	250.259	-92.581	81.173	17.110	132.459	248.376	180.327	-49.875	207.490	216.701	150.372	171.017	-100.657	196.951	0.0010093	0.0015525	0.00028878	1128.4	4.8458e-06	7.3624e-06	1276.2	461.53	1.1209e-05	5.5428e-06	587.18	240.28	180.63	70.957	9.6112e-06	105.71	0.0010443	0.0010515	0.00029086	1019.5	1.1184e-05	1.1498e-05	1152.3	419.65	1.1244e-05	1.1418e-05	530.49	217.76	164.45	64.694	1.1249e-05	96.489	-8.749	-1.137	11.158	-87.607	19.004	-2.939	-88.427	-83.854	52.322	22.693	-85.291	-81.457	-79.859	-75.138	116.033	-77.307	-8191	255	
29964.645	1	1	0	0	0.11862	0.1169	0.2483	0.2172	0.16766	0.19933	0.06229	0.25023	0.25241	0.14761	0.15663	0.22379	0.11552	0.11363	0.11394	0.14094	-3.8292	-4.9375	-3.9875	-4.6146	-4.6833	-3.8979	-5.05	-4.7063	-4.1458	-5.1188	-4.3042	-4.5	-5.0479	-4.1667	-4.8333	-4.6813	-51.527	16.736	66.406	248.139	150.607	-7.050	188.734	127.848	200.207	-79.347	192.540	-47.095	-94.211	123.436	-82.674	98.626	0.0009724	0.00080434	0.00024098	1133.9	2.2946e-05	5.5087e-06	1282.5	465.37	1.0006e-05	7.4209e-06	584.45	243.04	180.41	71.317	8.5966e-06	105.55	0.0010432	0.0010529	0.00028867	1019.8	1.1135e-05	1.1411e-05	1156	421.59	1.0986e-05	1.1209e-05	531.1	219.15	163.97	64.856	1.1374e-05	95.818	-9.766	8.969	35.767	-87.917	39.282	70.213	-88.356	-84.029	54.408	230.622	-85.208	-81.291	-79.880	-74.892	119.577	-77.323	-8191	255	
29964.764	1	1	0	0	0.13726	0.21316	0.15443	0.087362	0.31525	0.22226	0.29466	0.152	0.18412	0.097581	0.12466	0.13982	0.10336	0.22729	0.1286	0.090737	-3.7771	-5.0333	-4.2646	-4.3521	-4.9854	-3.9792	-4.9208	-4.8625	-3.9167	-4.9021	-4.6438	-4.3729	-4.9958	-4.1396	-4.5104	-4.975	109.675	150.204	-93.797	239.327	30.026	172.783	221.655	237.928	134.589	-46.698	185.474	-99.071	-85.254	209.189	-3.591	199.084	0.00089562	0.00083832	0.00031015	1117.9	3.4467e-06	1.746e-05	1271.6	462.53	1.6813e-05	7.991e-06	578.71	240.58	180.39	70.581	9.5868e-06	103.15	0.0010269	0.0010275	0.00028861	1010.3	1.103e-05	1.1115e-05	1147.1	418.17	1.1245e-05	1.1248e-05	524.75	217.62	164.07	64.164	1.0919e-05	94.399	-3.219	28.277	-10.252	-87.593	29.689	26.745	-88.446	-83.588	38.566	75.878	-85.334	-81.763	-80.283	-74.968	14.431	-77.377	-8191	255	
29964.861	1	1	0	0	0.35873	0.16519	0.22128	0.26176	0.15518	0.22674	0.25017	0.21353	0.10063	0.072329	0.061244	0.14732	0.19372	0.22794	0.10876	0.097947	-3.8	-4.9604	-4.4125	-4.2688	-5.1562	-4.125	-4.7958	-5.1104	-4.0563	-4.9667	-4.6479	-4.3396	-5.1396	-4.3021	-4.3458	-5.175	98.728	10.852	163.283	225.429	125.996	120.937	-75.528	197.311	115.466	78.426	192.430	249.544	227.837	196.246	161.878	121.704	0.00066796	0.0011523	0.00038594	1112.1	1.0391e-05	7.4547e-06	1260.2	462.47	9.7656e-06	1.3471e-05	584.86	241.07	181.32	70.376	7.8853e-06	104.2	0.0010175	0.0010049	0.00028396	1010	1.0898e-05	1.1099e-05	1141.9	419.37	1.1095e-05	1.1088e-05	526.6	217.47	164.61	64.122	1.1152e-05	94.441	-23.237	0.873	10.490	-87.629	28.649	92.293	-88.471	-83.586	12.729	53.905	-85.271	-81.487	-80.267	-74.776	-10.988	-77.238	-8191	255	
29964.932	1	1	0	0	0.20827	0.028647	0.055567	0.19636	0.32941	0.12995	0.27363	0.21466	0.18734	0.056825	0.011818	0.2946	0.20577	0.12883	0.023283	0.13862	-3.6021	-4.7625	-4.6042	-4.2958	-5.0042	-4.2042	-4.4854	-5.0813	-4.0604	-4.8646	-4.7438	-4.0646	-5.0708	-4.2792	-4.3187	-5.2438	85.696	152.755	67.021	245.570	-64.723	233.940	248.342	235.519	217.014	-9.785	78.297	238.766	-88.335	-51.034	207.816	195.152	0.00088425	0.00099354	9.116e-05	1128	1.6091e-05	1.5987e-06	1281.2	468.15	7.8859e-06	5.9204e-06	587.2	240.14	180.77	70.68	2.9819e-05	104.77	0.0010183	0.0010219	0.00028516	1021.9	1.1179e-05	1.1219e-05	1154.4	422.97	1.1194e-05	1.1226e-05	529.71	217.46	164.92	64.537	1.1421e-05	94.999	-13.392	-8.242	4.278	-87.890	43.413	66.214	-88.503	-83.612	55.957	-11.689	-85.301	-81.401	-80.034	-74.907	52.439	-77.218	-8191	255	
29965.027	1	1	0	0	0.29923	0.16216	0.12993	0.16869	0.19297	0.23545	0.31681	0.15274	0.26825	0.12905	0.19737	0.29873	0.34583	0.14311	0.032806	0.34502	-3.8229	-4.6417	-4.7125	-4.1458	-4.9917	-4.3167	-4.4396	-5.275	-4.1271	-4.5542	-4.9187	-4.3271	-4.9604	-4.6771	-4.0687	-5.3083	82.984	76.542	185.946	204.020	-23.530	43.592	188.411	181.262	-31.036	21.554	183.723	197.851	208.134	228.101	-95.024	218.837	0.00086952	0.00050996	0.00042779	1128.1	1.3286e-05	5.979e-06	1275	465.28	1.1762e-05	1.0698e-05	586.21	242.91	182.75	71.634	8.139e-06	106.85	0.0010471	0.0010322	0.00029063	1022.1	1.1266e-05	1.1391e-05	1151.7	421.61	1.1148e-05	1.1211e-05	531.36	219.94	165.84	65.305	1.1269e-05	96.884	3.472	-65.308	-32.230	-87.714	-15.063	57.347	-88.428	-83.642	36.864	15.564	-85.382	-81.404	-79.894	-74.820	-86.959	-77.010	-8191	255	
29965.148	1	1	0	0	0.068971	0.23818	0.1172	0.14456	0.058269	0.046056	0.18782	0.18484	0.0338	0.15894	0.178	0.08935	0.32696	0.32993	0.10036	0.18579	-3.7771	-4.5021	-4.8354	-4.1	-4.8646	-4.5083	-4.3146	-5.1125	-4.1125	-4.2792	-4.8958	-4.1042	-4.6312	-4.7146	-3.7583	-5.1583	80.163	30.122	215.842	255.687	-99.633	161.218	191.432	110.831	66.910	-0.545	211.697	224.080	220.791	240.454	-6.377	235.645	0.0010437	0.00057392	0.00012668	1135.2	1.841e-05	2.7717e-06	1278.3	474.59	5.0064e-06	1.5442e-05	597.28	244.13	184.9	71.112	5.9039e-06	104.56	0.0010226	0.0010044	0.00028199	1024.1	1.1108e-05	1.1024e-05	1160.2	428.09	1.0816e-05	1.0788e-05	538.57	221.1	167.1	64.676	1.0775e-05	95.261	-9.703	-27.583	-45.692	-87.486	19.403	130.622	-88.274	-83.829	97.833	66.719	-85.419	-81.669	-80.303	-74.730	82.495	-77.357	-8191	255	
29965.244	1	1	0	0	0.078288	0.048773	0.12873	0.1378	0.19499	0.065077	0.21274	0.19557	0.074754	0.091199	0.1154	0.3061	0.10431	0.15793	0.18105	0.12898	-3.8479	-4.1958	-4.8375	-3.9417	-4.5375	-4.4875	-4.025	-5.0687	-4.1562	-4.2625	-5.1771	-4.0646	-4.65	-4.9354	-4.0458	-5.025	168.032	184.235	108.805	-73.884	-55.355	228.054	179.571	199.435	190.209	25.406	219.072	156.297	225.628	158.676	14.067	179.094	0.00091548	0.0009163	0.00020213	1145.9	1.1684e-05	8.0501e-06	1272.5	468.94	8.2506e-06	1.1584e-05	578.19	239.01	180.85	69.277	9.3698e-06	102.42	0.00097843	0.0009766	0.0002754	1031.6	1.0638e-05	1.0833e-05	1152.8	422.77	1.0727e-05	1.0897e-05	524.76	215.79	163.59	63.125	1.09e-05	92.618	-4.085	-27.431	20.292	-87.838	50.270	144.327	-88.291	-83.779	-38.482	7.045	-85.463	-81.724	-80.401	-74.889	13.155	-77.361	-8191	255	
29965.342	1	1	0	0	0.14817	0.038255	0.063437	0.22473	0.27256	0.15295	0.11273	0.29469	0.083204	0.086717	0.12233	0.22892	0.1991	0.31254	0.11032	0.026605	-4.1854	-4.1958	-5.0396	-4.2292	-4.4833	-4.775	-4.0687	-5	-4.2125	-4.0583	-5.1188	-4.2	-4.4979	-4.9521	-3.9646	-4.9333	-96.956	221.809	211.605	-81.169	131.008	212.292	127.750	174.183	37.185	177.110	241.552	186.548	190.798	236.789	-1.976	140.414	0.00072115	0.00033789	0.00031015	1117.2	1.3162e-05	7.5154e-06	1257.8	459.34	8.4297e-06	9.5341e-06	574.86	237.04	178.38	69.475	1.5554e-05	103.02	0.00099917	0.00098646	0.00026637	1009	1.0524e-05	1.0851e-05	1134.2	415.8	1.0887e-05	1.1046e-05	520.43	214.21	161.76	63.169	1.0847e-05	93.441	-2.622	-91.130	-5.663	-87.835	60.704	50.985	-88.614	-83.956	-1.304	56.300	-85.211	-81.534	-79.902	-74.773	72.443	-77.593	-8191	255	
29965.438	1	1	0	0	0.068943	0.24037	0.11701	0.27943	0.060653	0.089353	0.341	0.040685	0.03194	0.048227	0.084894	0.25071	0.044654	0.16409	0.23682	0.12774	-4.3125	-4.0833	-4.8812	-4.3187	-4.3208	-4.8333	-4.1833	-4.7354	-4.4833	-3.9667	-5.1542	-4.3938	-4.4167	-4.9833	-3.9104	-4.8021	-100.637	240.484	191.635	212.376	119.481	192.556	225.262	224.542	163.093	203.543	183.823	199.175	-81.366	221.475	191.984	178.445	0.00097639	0.00073935	0.00032473	1110.9	8.5174e-06	1.5431e-05	1258.7	459.1	7.1429e-06	1.356e-05	575.85	236.65	178.34	69.818	1.1441e-05	103.75	0.00098492	0.0010007	0.00027286	1004.9	1.0947e-05	1.085e-05	1136.5	414.79	1.0874e-05	1.0845e-05	520.4	213.26	161.8	63.459	1.117e-05	94.115	-26.565	-90.682	-41.841	-87.712	36.414	66.004	-88.046	-83.551	19.083	69.379	-85.420	-81.209	-80.010	-75.029	12.303	-77.440	-8191	255	
29965.533	1	1	0	0	0.12468	0.022521	0.29248	0.19032	0.12296	0.082645	0.11521	0.30983	0.11028	0.26323	0.13778	0.11411	0.059062	0.22773	0.20712	0.10114	-4.3	-3.9646	-4.8042	-4.4896	-4.15	-4.7333	-4.175	-4.7354	-4.7146	-3.8812	-4.9542	-4.3938	-4.2937	-5.1479	-4.1042	-4.6708	-4.785	205.498	-62.834	238.026	193.352	94.942	47.533	219.285	60.134	-96.647	-59.917	225.826	26.384	-66.614	-95.328	216.312	0.00091569	0.0010242	0.00022254	1118.1	1.4129e-05	1.0271e-05	1271.1	465.35	1.181e-05	6.0532e-07	587.62	239.71	181.06	70.842	1.1909e-05	104.82	0.0010001	0.0010337	0.00028246	1013.6	1.109e-05	1.1264e-05	1150.7	420.12	1.0719e-05	1.1122e-05	531.29	217.12	164.52	64.384	1.1028e-05	95.605	6.350	-14.894	33.498	-87.612	72.764	49.046	-88.466	-84.059	80.207	-82.455	-85.323	-81.189	-80.384	-74.824	40.442	-77.508	-8191	255	
29965.631	1	1	0	0	0.32483	0.14733	0.19678	0.23524	0.11291	0.20558	0.28313	0.12443	0.031403	0.15996	0.17178	0.052133	0.059127	0.11948	0.06679	0.11991	-4.4375	-3.8417	-4.8708	-4.5875	-4.1646	-5.1687	-4.1958	-4.5938	-4.9396	-4.0292	-4.9854	-4.5563	-4.0125	-4.8583	-4.2125	-4.3812	200.442	12.441	-83.002	-100.394	161.451	90.414	234.942	-84.668	91.492	240.566	205.358	144.066	257.278	187.242	138.397	-80.264	0.00097093	0.0012349	0.00033088	1135.8	9.2439e-06	1.0876e-05	1279.8	470.2	7.6723e-06	8.1312e-06	588.78	239.63	180.57	70.148	1.8115e-05	103.71	0.0010161	0.0010154	0.00027688	1024.7	1.0788e-05	1.0747e-05	1155.6	423.98	1.0705e-05	1.0915e-05	531.71	217.46	163.87	63.881	1.0581e-05	94.403	-20.361	-35.430	11.343	-88.031	90.217	89.038	-87.986	-84.030	109.104	-54.634	-85.050	-81.424	-80.091	-75.111	3.608	-77.341	-8191	255	
29965.727	1	1	0	0	0.14838	0.096877	0.10378	0.22786	0.12301	0.12664	0.13019	0.087544	0.15913	0.26517	0.1599	0.045079	0.24431	0.22052	0.074602	0.10156	-4.6562	-3.8854	-4.6312	-4.6604	-4.0312	-4.9313	-4.3979	-4.2688	-4.7708	-3.925	-4.7271	-4.9542	-3.9729	-5.05	-4.1833	-4.2438	250.429	41.269	-66.968	231.282	16.011	-51.938	-93.635	196.448	110.012	251.535	226.344	129.975	214.720	20.111	180.320	212.750	0.0012628	0.00065828	0.00014843	1112.3	1.2886e-05	7.8361e-06	1262.8	460.49	2.1285e-05	7.381e-06	577.12	237.89	178.77	69.429	7.4651e-06	102.62	0.00095954	0.00094904	0.00026253	1005	1.0343e-05	1.0509e-05	1140.3	415.95	1.0305e-05	1.0426e-05	522.24	215	161.91	63.19	1.0528e-05	93.087	-7.288	-45.097	-38.340	-87.836	119.461	38.031	-88.253	-84.118	64.432	92.673	-84.997	-81.382	-80.405	-74.979	14.223	-77.658	-8191	255	
29965.846	1	1	0	0	0.041189	0.056139	0.18257	0.053048	0.072955	0.045455	0.1721	0.085495	0.024471	0.18052	0.15652	0.25569	0.0023041	0.19903	0.29987	0.052494	-4.6104	-3.9667	-4.6896	-4.7729	-3.8563	-4.7979	-4.5021	-4.4062	-5.0125	-4.0542	-4.5938	-4.95	-4.0542	-4.8896	-4.4167	-4.2125	21.662	113.819	112.057	106.043	7.533	75.614	211.651	182.159	-77.868	-32.328	196.136	157.409	163.788	221.977	28.461	8.466	0.00098051	0.0005236	0.00041071	1117.8	1.9905e-06	1.1114e-05	1260.4	464.34	8.0183e-06	2.9635e-06	582.35	239.5	179.07	69.828	4.6716e-06	102.95	0.00095158	0.00095732	0.00026701	1009	1.0275e-05	1.0526e-05	1139.9	418.21	1.049e-05	1.0625e-05	526.22	216.21	162.49	63.577	1.0742e-05	93.808	-8.830	76.965	7.108	-87.282	0.833	47.181	-88.325	-84.096	159.264	-68.588	-85.515	-81.258	-80.391	-75.200	48.227	-77.618	-8191	255	
29965.941	1	1	0	0	0.20818	0.19297	0.10745	0.31397	0.085098	0.16547	0.16274	0.25328	0.045753	0.139	0.10722	0.29533	0.19443	0.18047	0.053138	0.14984	-4.6542	-4.0958	-4.3104	-4.9437	-3.9	-4.7937	-4.6479	-4.1896	-4.8313	-4.1479	-4.5021	-4.9042	-4.0167	-4.7125	-4.6417	-4.0896	212.838	-36.334	71.445	198.859	-77.688	214.422	238.175	231.456	185.257	145.878	239.414	165.720	85.318	-64.184	-13.170	175.130	0.00086966	0.00087586	0.00034728	1122	1.1938e-05	1.4836e-05	1269.2	462.52	8.2244e-06	9.2559e-06	584.91	237.69	180.56	70.198	2.0395e-05	104.17	0.00099324	0.00099952	0.00027704	1013.2	1.0744e-05	1.1106e-05	1147.8	419.08	1.1101e-05	1.1094e-05	529.23	215.6	163.18	63.922	1.1041e-05	95.018	-2.677	-33.200	16.045	-87.718	-39.450	51.542	-88.138	-83.781	161.778	62.432	-85.318	-81.488	-80.168	-74.885	51.420	-77.604	-8191	255	
29966.035	1	1	0	0	0.22011	0.092803	0.054277	0.042939	0.21559	0.13903	0.26992	0.39549	0.23482	0.041237	0.094767	0.21453	0.18907	0.23882	0.093366	0.14869	-4.6854	-4.2542	-4.2562	-4.9125	-3.8812	-4.5771	-4.8521	-4.1292	-4.9083	-4.275	-4.2542	-4.9708	-4.0708	-4.6083	-4.9646	-4.0292	73.241	-81.891	215.957	-37.256	60.243	182.048	162.799	193.059	221.255	193.724	-97.106	232.826	220.259	212.862	131.940	90.218	0.0011569	0.0014573	0.00028408	1132.9	7.4124e-06	1.2738e-05	1279.6	467.51	1.5667e-05	4.8762e-06	592.39	242.79	181.56	71.108	6.4408e-06	106.09	0.00098547	0.0010157	0.00027573	1020.4	1.0766e-05	1.1088e-05	1156.5	422.39	1.0864e-05	1.1054e-05	535.69	219.57	164.84	64.826	1.1008e-05	96.476	-14.826	-5.039	-27.504	-87.497	63.192	57.868	-88.215	-83.877	30.392	-4.212	-85.296	-81.163	-80.151	-74.872	45.256	-77.512	-8191	255	
29966.133	1	1	0	0	0.11647	0.20777	0.045987	0.18168	0.21668	0.15913	0.16343	0.20936	0.12377	0.262	0.26068	0.14477	0.3235	0.10717	0.17588	0.28461	-4.5979	-4.4313	-4.1292	-5.125	-4.0229	-4.4625	-4.95	-3.9417	-4.8063	-4.4313	-4.25	-4.9833	-4.1896	-4.5292	-4.8187	-4.1062	-16.094	143.273	179.338	172.545	-18.367	244.202	257.250	215.557	175.205	-21.340	235.308	237.079	196.954	241.817	68.023	185.457	0.00096736	0.00045586	0.00017723	1126.1	7.832e-06	1.6384e-05	1283.5	470.77	9.7041e-06	9.4415e-06	590.09	242.66	182.21	70.737	5.294e-06	104.05	0.00099006	0.00099364	0.00027763	1020.5	1.0549e-05	1.0687e-05	1162.4	425.31	1.0428e-05	1.0601e-05	535.33	219.18	164.83	64.246	1.054e-05	94.549	-4.328	-37.954	-11.525	-87.647	132.176	50.206	-88.192	-83.906	20.188	104.969	-85.418	-81.476	-80.082	-74.930	-98.495	-77.573	-8191	255	
29966.229	1	1	0	0	0.071784	0.085209	0.16093	0.14807	0.14901	0.22042	0.079693	0.010383	0.11884	0.12844	0.2841	0.10422	0.20079	0.34286	0.12226	0.26451	-4.3708	-4.7063	-3.9313	-5.0896	-4.1833	-4.1708	-5.0604	-4.0875	-4.6354	-4.6604	-3.9917	-4.9583	-4.2458	-4.4083	-5.0437	-4.1875	245.598	25.298	108.647	-80.982	-89.415	6.653	198.010	51.094	-55.670	-79.311	244.381	-91.719	230.207	-92.373	52.574	245.930	0.0008709	0.001339	0.00035383	1124.8	1.2456e-05	9.9218e-06	1280.2	465.19	1.3888e-05	1.5015e-05	579.51	236.13	176.3	69.052	1.7033e-05	102.35	0.00097804	0.0009897	0.00026891	1019.6	1.072e-05	1.0697e-05	1152	421.13	1.0829e-05	1.0951e-05	525.78	213.43	160.42	62.779	1.072e-05	92.706	-2.895	11.828	8.031	-87.642	97.480	39.499	-88.138	-83.741	15.954	70.194	-85.499	-81.387	-80.284	-75.096	116.403	-77.279	-8191	255	
29966.324	1	1	0	0	0.035203	0.16934	0.077397	0.078191	0.1787	0.014428	0.24931	0.27974	0.08486	0.14031	0.14542	0.1987	0.035561	0.1045	0.14501	0.1422	-4.4958	-4.5667	-3.9813	-5.1021	-4.3354	-4.2	-5.0292	-4.0521	-4.4458	-4.7917	-4.0354	-5.0542	-4.5708	-4.2063	-4.8208	-4.2688	136.624	152.300	27.701	206.147	54.618	100.231	226.081	178.073	-15.049	36.075	-29.443	246.827	127.708	-90.419	236.316	65.460	0.00075743	0.0010244	0.00030445	1111.6	4.1826e-06	9.5732e-06	1254.2	455.65	5.6149e-06	8.7499e-06	575.23	234.26	176.51	68.935	4.3786e-06	103.06	0.0010001	0.00099961	0.00027393	1002.9	1.0796e-05	1.0934e-05	1134.7	412.05	1.0722e-05	1.0913e-05	520.44	211.55	159.86	62.845	1.0547e-05	93.471	-4.796	7.071	24.142	-87.741	105.905	29.661	-88.334	-83.925	-24.788	-47.210	-85.343	-81.518	-79.759	-74.972	128.900	-77.292	-8191	255	
29966.443	1	1	0	0	0.032051	0.15349	0.060588	0.074191	0.066966	0.19008	0.137	0.14725	0.081644	0.25179	0.12118	0.22039	0.074167	0.17171	0.19046	0.23765	-4.1958	-4.7792	-3.9667	-4.8313	-4.3979	-4.1854	-5.1312	-4.3167	-4.5	-4.6896	-4.1771	-4.9542	-4.6146	-4.0333	-4.8458	-4.3958	142.990	4.410	-37.538	-55.070	-49.746	24.655	-94.574	246.233	-33.863	-38.756	49.151	218.632	198.702	5.004	13.215	157.137	0.00078281	0.00069488	2.7456e-05	1110.1	1.1137e-05	1.3056e-05	1267.2	464.6	1.0578e-05	1.6272e-05	587.65	236.1	178.77	69.909	1.6037e-05	104.72	0.0009686	0.00097527	0.00027522	1002.7	1.0761e-05	1.08e-05	1146.4	419.52	1.0681e-05	1.1005e-05	531.64	214.74	162.77	63.636	1.1006e-05	94.671	-5.547	-51.823	-50.371	-87.595	67.869	41.526	-88.251	-83.821	32.939	58.466	-85.344	-81.572	-80.041	-75.180	28.088	-77.332	-8191	255	
29966.541	1	1	0	0	0.062304	0.33496	0.16385	0.22136	0.28843	0.10069	0.10905	0.18532	0.12729	0.13046	0.28194	0.29384	0.099606	0.50419	0.24272	0.17522	-3.8646	-4.7188	-3.7917	-4.8187	-4.5021	-4.0938	-4.9854	-4.4187	-4.0208	-4.85	-4.0875	-4.6521	-4.9417	-4.0062	-4.8229	-4.5521	73.972	84.054	-65.055	209.079	66.818	89.601	-0.895	256.052	154.193	-48.702	219.835	178.660	-1.263	219.230	92.393	149.930	0.0012001	0.0011768	0.00010298	1137.1	1.7593e-05	9.6382e-06	1276.9	469.51	1.265e-05	3.2783e-06	592.33	240.97	179.98	70.802	1.9543e-05	105.8	0.0010135	0.0010207	0.00028397	1023.7	1.0942e-05	1.1424e-05	1159.7	424.84	1.1163e-05	1.1041e-05	535.97	217.76	163.91	64.472	1.091e-05	96.114	-1.348	35.154	-48.247	-87.797	87.344	8.410	-88.628	-83.819	7.244	83.366	-85.333	-81.653	-79.849	-74.980	43.953	-77.454	-8191	255	
29966.637	1	1	0	0	0.2078	0.084324	0.07812	0.46216	0.095344	0.065292	0.1723	0.17552	0.15388	0.087861	0.10897	0.22931	0.15057	0.24916	0.13817	0.3065	-3.6896	-5.0125	-3.9604	-4.5813	-4.5917	-3.7812	-5.0083	-4.5375	-4.1062	-4.8083	-4.1333	-4.475	-4.9167	-4.0125	-4.65	-4.6271	-76.277	200.801	-22.493	227.170	-3.909	216.886	151.335	247.564	174.733	119.300	132.840	224.286	212.053	159.651	233.258	203.753	0.0010269	0.00093929	8.4528e-05	1146.7	1.3132e-05	1.046e-05	1297.9	479.2	1.1895e-05	7.2316e-06	598.41	241.6	182.8	69.652	1.1449e-05	102.49	0.0010202	0.0010035	0.00027716	1035.2	1.0708e-05	1.096e-05	1174.6	431.95	1.0784e-05	1.0859e-05	541.6	218.02	165.31	63.678	1.0942e-05	93.275	-10.782	-12.390	-53.082	-87.682	-26.187	70.284	-88.229	-83.992	66.782	66.527	-85.673	-81.970	-80.500	-75.543	50.512	-77.476	-8191	255	
29966.732	1	1	0	0	0.20452	0.17359	0.13823	0.14402	0.11128	0.10507	0.18908	0.26422	0.083044	0.061416	0.083398	0.11332	0.083557	0.064968	0.16123	0.02477	-3.6562	-4.8646	-4.2125	-4.4354	-4.7875	-3.7854	-4.8375	-4.7521	-3.9771	-4.975	-4.3833	-4.4333	-4.9563	-4.0333	-4.4854	-4.8521	65.395	-36.312	-64.456	-90.135	87.494	-83.708	233.053	233.385	104.284	-42.082	-54.933	208.078	-56.815	23.504	190.480	79.784	0.0011322	0.001003	0.0001629	1147.6	1.3779e-05	1.0141e-05	1270.7	467.38	1.5046e-05	4.8177e-06	582.73	234.5	177.54	68.951	1.6965e-05	101.65	0.00097406	0.0010091	0.00027573	1030	1.0719e-05	1.0878e-05	1151.9	422.34	1.0831e-05	1.0929e-05	525.91	212.15	160.67	62.712	1.1154e-05	92.562	-11.343	10.512	7.964	-87.793	57.907	38.984	-88.433	-83.919	89.383	0.812	-85.199	-81.396	-79.966	-74.853	61.288	-77.494	-8191	255	
29966.805	1	1	0	0	0.055764	0.26199	0.081634	0.0042776	0.18191	0.36503	0.24304	0.10378	0.091272	0.1808	0.17825	0.19083	0.1312	0.22574	0.34521	0.20628	-3.6125	-4.85	-4.1375	-4.2792	-4.8208	-4.0104	-4.7521	-4.8521	-4.0583	-4.7375	-4.375	-4.0896	-5.0083	-4.2625	-4.4667	-4.9333	-4.804	184.322	111.159	206.378	-8.722	133.478	218.810	149.185	-53.163	250.088	243.808	200.788	218.831	-78.110	187.066	171.635	0.00096039	0.0013566	0.00012167	1107.7	8.5156e-06	2.9954e-06	1269.7	462.57	1.8695e-05	7.5254e-06	582.78	234.6	178.73	69.846	3.9678e-06	103.49	0.00099536	0.0010091	0.00028362	1003.4	1.1053e-05	1.0801e-05	1143.2	416.91	1.0887e-05	1.1097e-05	527.18	213.01	162.03	63.447	1.1014e-05	93.88	-24.772	18.238	40.903	-87.937	16.158	48.716	-88.445	-83.662	1.964	-44.654	-85.418	-81.492	-80.150	-75.066	54.432	-77.284	-8191	255	
29966.926	1	1	0	0	0.1672	0.067192	0.14395	0.16155	0.14692	0.20658	0.22846	0.24924	0.053939	0.30239	0.14918	0.33488	0.18278	0.21423	0.12512	0.23498	-3.7896	-4.8063	-4.3333	-4.2104	-5.0229	-4.2	-4.7458	-5.0083	-4.0021	-4.6458	-4.5979	-4.0917	-5.075	-4.375	-4.2708	-5.0563	177.325	125.789	155.283	209.592	202.192	47.064	-88.583	214.095	-18.838	58.752	182.175	257.339	174.559	133.542	-63.616	196.721	0.0011455	0.00091326	0.00010744	1131.7	1.3388e-05	1.3293e-05	1281	472.99	5.845e-06	8.8797e-06	600.18	241.85	181.7	71.317	1.2854e-05	105.84	0.0010105	0.00099876	0.00027769	1023.4	1.0872e-05	1.1068e-05	1161	426.99	1.0871e-05	1.0759e-05	541.81	218.18	165.52	64.821	1.0966e-05	96.123	1.400	-0.191	-36.242	-87.609	67.369	73.578	-88.214	-84.005	10.841	98.101	-85.257	-81.654	-80.105	-74.990	92.760	-77.605	-8191	255	
29967.021	1	1	0	0	0.02517	0.20779	0.34693	0.007513	0.018021	0.23055	0.24631	0.36009	0.062566	0.10127	0.36281	0.17838	0.067961	0.055927	0.07431	0.20998	-3.6937	-4.4958	-4.6792	-4.1188	-4.85	-4.3333	-4.3396	-5.0625	-3.9021	-4.6229	-4.7604	-4.1458	-4.9042	-4.4417	-4.0667	-5.1104	86.742	119.088	-43.212	80.439	87.616	56.878	185.022	191.204	103.864	118.062	191.239	163.592	-62.647	161.671	-73.248	191.008	0.0009204	0.0010688	0.00021465	1152.8	2.6687e-05	7.0798e-06	1303.5	481.27	1.0369e-05	1.2758e-05	607.17	245.18	186.74	72.217	1.0816e-05	106.83	0.0010048	0.0010116	0.0002857	1042.1	1.1063e-05	1.136e-05	1177.5	434.78	1.1024e-05	1.1162e-05	549.28	221.86	168.4	65.601	1.0949e-05	97.075	-6.862	1.091	-14.907	-87.785	38.189	80.678	-88.713	-83.633	111.978	20.870	-85.280	-81.521	-80.562	-75.006	118.423	-77.374	-8191	255	
29967.115	1	1	0	0	0.1316	0.16614	0.03604	0.2778	0.1019	0.22554	0.11807	0.31272	0.17355	0.010193	0.12255	0.052949	0.3705	0.26017	0.075302	0.27555	-3.7812	-4.5125	-4.8292	-4.2104	-4.8896	-4.4125	-4.1958	-5.0167	-4.175	-4.425	-4.8208	-4.1271	-4.8375	-4.5854	-4.1687	-5.1604	248.603	181.847	125.259	212.929	89.684	23.310	178.736	155.149	36.585	119.998	80.776	240.250	205.754	220.236	-55.345	180.352	0.0010418	0.0011067	0.00026008	1149.1	8.7405e-06	7.4353e-06	1299.8	476.79	1.3467e-05	1.1071e-05	592.44	240.42	180.73	70.159	9.2424e-06	103.45	0.0010031	0.00098805	0.00027444	1034.8	1.0428e-05	1.0608e-05	1169.2	429.81	1.0867e-05	1.0731e-05	537.52	217.96	164.29	64.02	1.0746e-05	94.186	-16.144	60.472	-38.991	-87.481	89.539	-7.568	-88.589	-83.977	54.163	44.528	-85.491	-81.573	-79.995	-74.974	8.801	-77.533	-8191	255	
29967.215	1	1	0	0	0.14735	0.19276	0.17046	0.22164	0.2333	0.10396	0.073229	0.12341	0.13863	0.13832	0.10736	0.047993	0.17166	0.23845	0.063268	0.097709	-3.8125	-4.2583	-4.8292	-4.0646	-4.6167	-4.6125	-4.1333	-5.0312	-4.0687	-4.2396	-4.9104	-4.1813	-4.7562	-4.7271	-3.8729	-5.05	8.452	226.040	-83.733	246.539	245.425	80.383	58.100	156.977	-15.772	-24.048	203.231	113.331	140.632	195.256	-72.329	97.650	0.0010401	0.0013137	0.00020769	1125.2	9.7326e-06	4.7889e-06	1274.2	467.77	4.6699e-06	8.3142e-06	587.17	238.33	181.13	69.709	1.231e-05	103.41	0.00099182	0.000994	0.00027739	1015.5	1.0825e-05	1.0804e-05	1152.9	422.67	1.0918e-05	1.0796e-05	533.08	215.29	164.23	63.566	1.0834e-05	93.573	-4.766	-11.390	-47.410	-88.072	51.081	-31.934	-88.409	-83.647	-5.982	42.942	-85.317	-81.536	-80.410	-75.272	56.932	-77.714	-8191	255	
29967.332	1	1	0	0	0.25955	0.18841	0.063677	0.22888	0.13367	0.26856	0.14481	0.23295	0.15444	0.2102	0.12678	0.24819	0.11699	0.43778	0.18507	0.17492	-3.9042	-4.3229	-4.6604	-4.1	-4.6937	-4.75	-4.1333	-5.15	-4.2083	-4.1125	-4.9167	-4.2167	-4.5813	-4.8729	-4.0167	-4.9021	198.438	18.966	250.930	192.877	17.474	12.273	253.125	222.637	138.248	44.478	112.321	254.767	136.753	179.092	-62.943	228.808	0.00088355	0.00049563	0.0002012	1139.2	2.1179e-05	1.0794e-05	1291.8	479.62	3.044e-06	9.2646e-06	600.51	242.13	184.8	70.761	1.3152e-05	104	0.00097998	0.00099361	0.0002706	1031.8	1.0541e-05	1.072e-05	1168.1	432.34	1.0604e-05	1.0573e-05	541.54	218.38	166.99	64.422	1.0796e-05	94.419	-14.385	-11.359	44.896	-87.500	50.493	67.024	-88.510	-84.373	-5.715	13.968	-85.583	-81.830	-80.258	-75.136	77.500	-77.694	-8191	255	
29967.430	1	1	0	0	0.09677	0.069018	0.079075	0.088763	0.23722	0.2059	0.13423	0.21389	0.12106	0.26291	0.15462	0.20095	0.049823	0.20834	0.10571	0.26368	-4.1021	-4.0417	-4.9396	-4.2021	-4.3708	-4.8812	-3.9938	-4.7896	-4.4354	-4.0333	-5.0625	-4.1687	-4.2917	-4.9104	-3.7458	-4.7688	221.945	-83.703	-58.611	-53.529	125.504	-84.504	82.504	236.326	256.479	223.217	3.187	109.963	192.053	-22.642	3.208	204.127	0.00096989	0.0010663	7.7213e-05	1151.3	1.1965e-05	5.5903e-06	1304	484.57	2.9756e-06	5.719e-06	606.11	244.9	184.81	72.008	9.8401e-06	105.44	0.00095826	0.00096202	0.00026568	1044.6	1.0351e-05	1.0614e-05	1176.7	437.2	1.043e-05	1.0616e-05	547.06	221.03	168.44	65.383	1.0989e-05	95.883	-4.731	-19.834	27.952	-87.693	60.262	10.392	-88.325	-83.987	-20.133	30.645	-85.641	-81.650	-80.622	-74.942	44.717	-77.591	-8191	255	
29967.525	1	1	0	0	0.46563	0.01825	0.049725	0.11831	0.16153	0.1967	0.24988	0.21474	0.086002	0.11149	0.10733	0.14563	0.22358	0.22281	0.10168	0.20944	-4.3646	-3.9896	-4.7729	-4.45	-4.1917	-4.8271	-4.2188	-4.6792	-4.6354	-3.9167	-5.0667	-4.4688	-4.3708	-4.9375	-3.9104	-4.5875	116.671	246.857	229.508	189.021	-68.125	117.160	126.712	204.781	170.303	46.791	-85.560	233.967	198.296	207.400	172.954	209.407	0.00088116	0.00093796	0.00015434	1151.1	1.1649e-05	1.6708e-05	1309.5	485.44	1.2954e-05	1.656e-05	608.91	245.59	185.78	72.474	8.9044e-06	107.06	0.0009943	0.00099027	0.00027271	1041.1	1.0668e-05	1.0885e-05	1180	437.45	1.0701e-05	1.0962e-05	550.62	221.58	168.75	65.897	1.0779e-05	97.007	-6.093	-2.981	17.100	-87.716	47.454	73.264	-88.222	-84.170	22.968	24.543	-85.423	-81.637	-80.665	-75.017	72.533	-77.514	-8191	255	
29967.621	1	1	0	0	0.17073	0.12019	0.19418	0.24239	0.14638	0.19666	0.22409	0.16489	0.19938	0.34763	0.28738	0.2245	0.23305	0.15181	0.16828	0.15282	-4.5354	-3.9708	-4.7104	-4.4104	-4.1625	-4.8667	-4.15	-4.7479	-4.8458	-3.9042	-4.8542	-4.55	-4.0396	-4.8292	-4.1813	-4.6813	122.773	72.941	-92.512	242.812	217.359	236.615	171.480	160.524	-48.251	-26.745	-86.614	238.296	-41.032	-43.939	160.563	167.331	0.0010103	0.0007744	0.00030307	1155.9	9.3648e-06	1.478e-05	1300.5	484.01	4.8108e-06	9.1542e-07	602.26	244.32	185.19	71.259	1.2279e-05	104.33	0.00097316	0.00098285	0.00027484	1043.6	1.0654e-05	1.0793e-05	1173.7	435.72	1.0747e-05	1.0861e-05	542.94	220.57	167.8	64.737	1.0811e-05	94.64	-18.207	-2.715	20.902	-87.898	3.796	61.511	-88.845	-83.888	63.966	20.415	-85.549	-82.106	-80.621	-75.034	43.093	-77.722	-8191	255	
29967.717	1	1	0	0	0.13811	0.22303	0.051619	0.11537	0.073032	0.26096	0.17314	0.19686	0.15818	0.05703	0.20703	0.29409	0.41859	0.1145	0.1806	0.28615	-4.5437	-3.8979	-4.7812	-4.6	-3.8458	-4.9708	-4.3417	-4.5021	-4.8458	-4.0604	-4.775	-4.7188	-4.0083	-4.9771	-4.2063	-4.5146	-82.807	29.303	55.739	182.266	-47.086	108.080	166.072	220.500	-96.609	-52.651	-97.347	241.177	-92.691	-3.159	-34.337	223.921	0.00096471	0.0012788	0.00019769	1145.4	1.3681e-05	3.653e-06	1286.8	480.65	1.3736e-05	7.646e-06	597.91	244.14	184.99	71.526	1.1985e-05	104.21	0.0009632	0.00097583	0.00026462	1035.5	1.0254e-05	1.052e-05	1165.8	433.56	1.0527e-05	1.0501e-05	541.89	220.72	167.87	65.044	1.0776e-05	94.876	-11.109	18.443	23.058	-87.824	75.931	174.257	-88.415	-84.014	96.051	57.150	-85.383	-81.783	-80.720	-75.325	63.101	-77.923	-8191	255	
29967.812	1	1	0	0	0.26587	0.25293	0.12788	0.029073	0.23632	0.12705	0.38698	0.073044	0.075559	0.2094	0.22265	0.26446	0.12169	0.11175	0.067786	0.18997	-4.4521	-3.8729	-4.55	-4.8583	-3.9646	-4.7833	-4.4417	-4.2625	-4.9563	-4.0375	-4.6458	-4.8646	-4.0375	-4.9542	-4.4313	-4.2708	1.393	184.000	224.994	236.685	100.160	224.345	213.981	-74.598	203.725	124.043	233.752	201.443	-36.045	224.558	247.910	203.169	0.00093237	0.0010614	0.00025434	1143.1	3.7121e-06	9.6983e-06	1302.6	485.38	1.3464e-05	1.1824e-05	604.9	245.31	186.14	72.343	1.328e-05	105.39	0.00096208	0.00097068	0.00026963	1035.2	1.0423e-05	1.0655e-05	1171.2	436.34	1.029e-05	1.0728e-05	546.01	221.84	169.01	65.564	1.0747e-05	95.701	-8.426	49.648	17.670	-87.732	-70.193	90.455	-88.511	-84.356	24.327	13.534	-85.623	-81.677	-80.663	-75.337	76.610	-77.876	-8191	255	
29967.934	1	1	0	0	0.10323	0.18663	0.19244	0.14718	0.37997	0.19307	0.137	0.1492	0.098651	0.016677	0.060978	0.11822	0.21874	0.097837	0.097347	0.10737	-4.5938	-4.0729	-4.5271	-4.9437	-3.9146	-4.8583	-4.8187	-4.2146	-4.8854	-4.1333	-4.5062	-5.0083	-4.0687	-4.8313	-4.5208	-4.2917	-18.445	-15.178	-84.600	-71.111	161.182	19.434	-81.783	235.314	87.068	19.150	223.986	196.467	237.512	166.611	156.036	205.725	0.00095273	0.0016775	0.00014347	1154.3	4.7111e-06	1.2639e-05	1306.5	486.02	9.7123e-06	6.5279e-06	601.59	245.58	186.18	72.499	1.805e-05	106.65	0.00096712	0.00099267	0.0002775	1044.4	1.0662e-05	1.0762e-05	1178.3	437.95	1.0806e-05	1.0968e-05	547.5	222.19	168.77	65.747	1.0909e-05	96.669	-12.659	33.744	-6.121	-87.735	65.832	98.289	-88.581	-83.783	58.823	-15.375	-85.466	-81.098	-80.408	-75.285	9.841	-77.615	-8191	255	
29968.027	1	1	0	0	0.3214	0.19496	0.033038	0.31571	0.12027	0.13857	0.23376	0.34874	0.25305	0.071724	0.051423	0.28203	0.089706	0.20718	0.19182	0.095696	-4.7125	-4.2229	-4.3063	-5.1146	-4.0021	-4.6188	-4.9083	-4.2854	-4.7458	-4.3104	-4.4021	-4.9708	-4.0771	-4.6	-4.6813	-4.0542	4.183	150.677	254.212	243.484	167.612	109.372	164.600	214.229	21.073	121.610	-36.917	210.928	241.883	173.113	-91.475	-37.855	0.00084591	0.00030711	0.00011006	1141	9.7372e-06	1.1426e-05	1291.6	478.83	1.3196e-05	1.6179e-06	604.55	244.7	184.55	72.176	1.6223e-05	106.24	0.0010065	0.0010109	0.00027769	1033.6	1.0791e-05	1.098e-05	1168.7	432.85	1.1023e-05	1.0907e-05	546.06	220.71	167.31	65.701	1.094e-05	96.435	-7.057	21.488	16.181	-87.814	57.409	67.613	-87.961	-84.166	-0.433	-22.224	-85.271	-81.492	-80.459	-75.028	57.733	-77.477	-8191	255	
29968.127	1	1	0	0	0.1021	0.077206	0.093484	0.42212	0.126	0.15974	0.11474	0.32626	0.044068	0.28542	0.27553	0.17066	0.25043	0.14082	0.15962	0.23881	-4.5979	-4.3229	-4.1937	-5.0479	-4.0375	-4.3187	-4.9271	-4.1188	-4.8604	-4.4479	-4.3562	-5.15	-4.2646	-4.4875	-4.6542	-4.2229	134.327	213.912	46.571	192.390	-8.003	114.034	165.139	199.232	219.406	192.644	171.995	212.809	224.025	231.920	-7.627	199.337	0.0010084	0.00033027	0.00011025	1140.2	8.2702e-06	8.7147e-06	1288.5	475.48	8.7194e-06	8.1612e-06	595.31	239.58	180.25	70.107	1.7452e-05	102.24	0.0010036	0.0010138	0.00028112	1028	1.0916e-05	1.1037e-05	1163.4	428.8	1.0886e-05	1.1061e-05	536.59	216.45	164.51	63.852	1.0878e-05	93.042	-20.986	-18.943	-92.541	-88.063	63.830	38.634	-88.260	-84.200	129.564	31.702	-85.535	-81.653	-80.608	-75.241	57.521	-77.890	-8191	255	
29968.221	1	1	0	0	0.046323	0.07909	0.21804	0.17359	0.049245	0.24013	0.15432	0.19182	0.24391	0.08722	0.25782	0.14645	0.099048	0.26833	0.070471	0.068316	-4.5729	-4.45	-3.9188	-5.0125	-4.3187	-4.4104	-4.8958	-4.1125	-4.7063	-4.5188	-4.2646	-5.0896	-4.4021	-4.3812	-4.9104	-4.1333	224.390	207.679	26.883	221.762	59.600	190.553	206.030	255.919	148.863	136.315	150.220	230.685	-20.123	218.733	85.881	-102.048	0.00091965	0.0010709	0.00030773	1128.9	1.5662e-05	1.5898e-05	1272.8	474.99	1.086e-05	5.4483e-06	593.03	238.95	181.51	70.047	4.3331e-06	102.16	0.00098238	0.0010047	0.00027492	1023.3	1.0692e-05	1.0914e-05	1154.8	428.06	1.0721e-05	1.0457e-05	535.56	215.77	164.86	63.715	1.0677e-05	92.815	-17.792	30.355	2.913	-87.593	60.119	60.376	-88.407	-84.074	33.239	53.893	-85.601	-81.674	-80.257	-75.568	110.557	-77.764	-8191	255	
29968.316	1	1	0	0	0.080317	0.25924	0.040579	0.21441	0.087064	0.22954	0.1779	0.36218	0.023356	0.20298	0.3497	0.25841	0.22861	0.33316	0.21114	0.094241	-4.3562	-4.5792	-3.9646	-5.1458	-4.1917	-4.2312	-5.2104	-4.1542	-4.6021	-4.7375	-4.2458	-5.1708	-4.5437	-4.2771	-5.0417	-4.2146	-73.278	-8.708	-92.796	221.057	-94.541	98.703	202.349	177.811	90.706	-10.419	180.820	210.517	175.850	-93.723	69.408	135.671	0.0010673	0.00094067	0.00010426	1150.1	9.1518e-06	1.3268e-05	1292.3	478.33	9.959e-06	9.5549e-06	598.67	236.69	180.37	69.247	1.3771e-05	102.58	0.00094832	0.000966	0.00026724	1033	1.0165e-05	1.0506e-05	1166.4	430.6	1.0312e-05	1.0392e-05	540.22	214.18	163.24	63.13	1.0368e-05	92.623	0.809	2.016	-27.755	-87.755	-9.471	83.689	-88.287	-84.059	-9.170	19.285	-85.646	-81.763	-80.368	-75.466	8.682	-77.927	-8191	255	
29968.412	1	1	0	0	0.052012	0.15273	0.11824	0.13861	0.32629	0.24271	0.26977	0.15569	0.12701	0.089253	0.20456	0.15978	0.2194	0.082949	0.22682	0.10754	-4.2271	-4.8917	-3.9562	-4.9812	-4.3938	-4.0583	-5.0854	-4.2146	-4.4292	-4.7875	-4.1833	-4.8521	-4.5563	-4.1729	-4.75	-4.1646	-81.948	50.026	84.707	254.392	-16.581	-50.895	222.987	205.755	183.552	75.028	255.248	-50.545	222.173	134.902	218.815	-94.279	0.00096079	0.00029882	0.00022399	1174.5	1.3141e-05	7.47e-06	1367.4	508.03	7.2428e-06	1.2823e-05	637.62	251.31	190.78	73.64	7.8035e-06	108.73	0.00095568	0.00095171	0.00026096	1047	1.0472e-05	1.0392e-05	1189.1	439.44	1.0622e-05	1.0671e-05	551.13	217.33	165.64	63.888	1.0437e-05	94.077	-6.650	68.833	-20.308	-88.594	65.394	105.146	-90.194	-85.855	57.736	47.627	-87.525	-83.378	-82.068	-77.501	1.339	-79.607	-8191	255	
29968.510	1	1	0	0	0.16041	0.028628	0.21029	0.26206	0.19333	0.23129	0.08326	0.30037	0.049171	0.089533	0.10183	0.3966	0.063642	0.054954	0.20541	0.12097	-3.9354	-4.8708	-3.8896	-4.9083	-4.6021	-3.9771	-4.9375	-4.1396	-4.1479	-4.8542	-4.0563	-4.7646	-4.8292	-4.1	-4.8625	-4.5396	-50.119	229.405	179.614	212.209	-47.581	133.639	211.324	223.891	250.339	117.024	148.651	216.479	45.118	-28.293	-53.995	-23.702	0.00099212	0.0012249	0.00039842	1233.3	1.4546e-05	1.0201e-05	1402.9	511.26	9.2085e-06	1.0688e-05	650.49	252.2	191.08	73.152	1.3381e-05	107.79	0.00096358	0.00097905	0.00027011	1062.6	1.0427e-05	1.0696e-05	1201.8	441.64	1.0706e-05	1.0671e-05	556.15	216.76	165.7	63.618	1.0809e-05	93.214	-15.296	-10.157	-52.509	-89.760	23.382	18.435	-90.363	-86.183	-47.854	35.426	-87.593	-83.953	-82.636	-77.424	21.654	-79.859	-8191	255	
29968.631	1	1	0	0	0.083039	0.28303	0.16929	0.18932	0.025598	0.064936	0.33207	0.098483	0.066783	0.1687	0.16294	0.034538	0.16164	0.029331	0.099844	0.31777	-3.9208	-4.8417	-3.9833	-4.4771	-4.4646	-3.7729	-4.7208	-4.4042	-4.0958	-4.9812	-4.1854	-4.65	-4.6958	-4.2292	-4.8396	-4.6083	-37.176	-68.239	-53.318	230.376	91.939	-36.871	180.080	124.116	109.959	-37.511	152.605	2.413	-48.055	172.542	-17.751	163.924	0.0008999	0.0017693	0.00012132	1232.1	1.3065e-05	1.7947e-05	1385.2	499.1	1.3664e-05	6.1174e-06	629.45	241.97	183.89	70.606	7.1678e-06	103.86	0.00097533	0.00097561	0.00027216	1056.8	1.058e-05	1.0913e-05	1188.7	429.4	1.0699e-05	1.0619e-05	540.62	208.49	159.02	61.178	1.0757e-05	89.612	-7.777	-2.151	1.735	-89.851	51.179	63.164	-90.406	-86.003	30.958	58.434	-87.568	-83.893	-82.465	-76.911	37.323	-79.706	-8191	255	
29968.701	1	1	0	0	0.25117	0.12467	0.18032	0.25258	0.15558	0.073949	0.099514	0.09067	0.29446	0.060682	0.15086	0.06296	0.25646	0.16556	0.042453	0.16414	-3.8563	-4.9896	-4.1604	-4.4833	-4.8625	-3.9458	-4.9104	-4.6708	-4.0958	-4.9208	-4.4688	-4.5	-4.9563	-4.1229	-4.6208	-4.6833	131.805	115.467	108.194	174.327	211.391	118.190	241.144	161.288	92.848	67.799	170.260	-26.634	241.190	208.895	-29.406	180.610	0.00096	0.0013119	0.00021363	1210.9	3.5502e-06	1.2583e-05	1362.8	495.49	7.8267e-06	5.0819e-06	624.4	240.83	184.57	70.712	1.7499e-05	103.56	0.00098445	0.00098928	0.00027738	1039.4	1.0587e-05	1.1054e-05	1173.5	424.48	1.0763e-05	1.0935e-05	537.36	207.01	159.26	61.321	1.0952e-05	90.032	-7.074	6.556	-21.354	-90.046	18.520	72.328	-90.627	-85.969	-9.489	74.342	-87.538	-83.781	-82.339	-77.156	69.741	-79.479	-8191	255	
29968.797	1	1	0	0	0.11204	0.049898	0.13166	0.068119	0.090609	0.10019	0.20372	0.15352	0.0372	0.047529	0.20774	0.40892	0.17185	0.13204	0.017186	0.05658	-3.7167	-4.9062	-4.1292	-4.2937	-4.8292	-4.1125	-4.8688	-4.7646	-3.8979	-4.8812	-4.4771	-4.2542	-4.9187	-4.0625	-4.3958	-4.7354	247.219	-64.173	208.042	234.512	-69.267	137.647	228.287	211.146	-53.809	181.024	221.846	203.392	-98.976	122.367	165.618	-14.558	0.00099829	0.0015266	0.00013488	1219.6	7.3221e-06	1.2033e-05	1369.8	499.8	1.1975e-05	1.2297e-05	633.99	243.36	184.7	70.895	1.8996e-05	105.81	0.00098232	0.00099799	0.00027357	1049.9	1.0538e-05	1.0792e-05	1186.9	430.11	1.0602e-05	1.0653e-05	545.04	209.53	160.52	61.796	1.0574e-05	91.345	0.486	-38.274	-22.991	-89.646	28.322	33.546	-90.312	-85.878	22.868	68.044	-87.372	-83.770	-82.142	-76.923	29.816	-79.438	-8191	255	
29968.895	1	1	0	0	0.25725	0.31536	0.12595	0.10214	0.11185	0.18345	0.23429	0.12722	0.20478	0.16195	0.16486	0.21888	0.028163	0.25523	0.053882	0.025473	-3.825	-4.8292	-4.4313	-4.1146	-4.8875	-3.9729	-4.6438	-4.9271	-3.9896	-4.825	-4.725	-4.2104	-5.2958	-4.2083	-4.2021	-5.0896	238.620	-18.762	68.955	255.963	248.139	144.093	216.085	-87.998	84.934	38.582	186.342	174.405	132.623	170.072	44.752	-81.600	0.0011275	0.0015492	0.00038008	1232	1.7508e-05	1.9809e-06	1392.9	500.86	8.3178e-06	1.3239e-05	633.39	243.99	184.04	71.543	1.6518e-05	106.12	0.0009702	0.00095978	0.00026825	1060.1	1.0511e-05	1.0778e-05	1198.1	433.55	1.0439e-05	1.0694e-05	548.23	210.74	160.82	62.147	1.0885e-05	92.105	-13.737	-5.647	-28.325	-89.662	22.317	28.755	-90.416	-85.999	3.271	21.775	-87.348	-83.578	-81.916	-76.591	73.082	-79.608	-8191	255	
29969.012	1	1	0	0	0.1362	0.1758	0.16568	0.16598	0.16379	0.044346	0.082864	0.133	0.064114	0.054246	0.1284	0.10835	0.26626	0.14101	0.15224	0.094427	-3.7542	-4.7438	-4.4437	-4.1813	-5.0667	-4.1146	-4.375	-5.0104	-3.9708	-4.6167	-4.7667	-4.1083	-5.0792	-4.3854	-4.1875	-5.0396	41.844	229.871	-41.177	207.064	129.816	30.639	206.840	246.814	177.666	236.280	-52.545	240.767	187.614	165.330	-59.513	128.894	0.0010202	0.0014213	2.7807e-05	1218.8	1.1769e-05	1.224e-05	1382.8	498.62	8.4914e-06	7.272e-06	632.2	242.2	183.06	71.212	8.2518e-06	104.92	0.00099615	0.00099035	0.0002818	1052.6	1.0704e-05	1.1158e-05	1191.6	430.49	1.0726e-05	1.1001e-05	545.61	209.58	159.47	61.907	1.0911e-05	91.236	-7.777	20.164	151.578	-89.807	39.869	91.602	-90.253	-85.610	-8.748	7.103	-87.300	-83.747	-81.972	-76.990	-23.869	-79.500	-8191	255	
29969.109	1	1	0	0	0.15707	0.2059	0.097282	0.16971	0.1597	0.081985	0.24833	0.10076	0.09821	0.18896	0.10246	0.10412	0.35295	0.25517	0.16385	0.36689	-3.6354	-4.5583	-4.7292	-4.1438	-4.875	-4.325	-4.2542	-4.9187	-4.0375	-4.2667	-4.9062	-4.0917	-4.8542	-4.3938	-4.0229	-5.0437	54.321	87.589	106.826	178.279	42.461	236.718	35.790	198.367	175.935	44.702	173.375	206.740	251.697	151.240	105.125	207.125	0.00092948	0.00078354	0.00044473	1199.1	4.5253e-06	6.3271e-06	1363.7	488.55	1.1323e-05	7.6111e-06	618.78	238.04	181.91	69.838	3.66e-06	102.64	0.0009815	0.00097827	0.00027488	1038.5	1.0525e-05	1.0567e-05	1177	422.59	1.0647e-05	1.0658e-05	533.66	206.1	157.41	60.745	1.0384e-05	89.243	-0.558	83.661	47.465	-89.830	227.677	59.241	-90.346	-85.769	125.984	31.199	-87.006	-83.544	-82.003	-76.671	40.109	-79.147	-8191	255	
29969.207	1	1	0	0	0.088361	0.22025	0.14296	0.2363	0.068122	0.047577	0.2385	0.24708	0.065642	0.1427	0.14767	0.17672	0.16047	0.22493	0.087704	0.32627	-3.6604	-4.1896	-4.7312	-4.0375	-4.6021	-4.6792	-4.2562	-5.0583	-4.1479	-4.2125	-4.9875	-3.95	-4.7708	-4.6083	-3.9771	-4.9583	118.935	-8.093	84.205	212.501	-82.500	226.177	199.824	211.443	-81.585	221.700	-99.658	199.321	177.688	244.114	207.112	158.735	0.0011378	0.00082884	0.0004035	1194.5	1.273e-05	9.266e-06	1363.9	490.09	1.0047e-05	8.4344e-06	619.93	238.23	181.61	70.178	1.5928e-05	103.58	0.0009756	0.00098142	0.00027022	1035	1.0418e-05	1.0856e-05	1175.1	424.27	1.067e-05	1.058e-05	536.02	207.24	158.43	61.425	1.0697e-05	90.174	-18.752	15.695	-10.986	-89.496	97.439	47.044	-90.219	-85.741	-34.972	68.260	-87.359	-83.251	-82.262	-76.742	54.328	-79.481	-8191	255	
29969.324	1	1	0	0	0.24774	0.11506	0.072666	0.15321	0.1569	0.14835	0.10344	0.20528	0.10686	0.15631	0.22374	0.16314	0.14844	0.099136	0.081912	0.2182	-3.7458	-4.2354	-4.8583	-3.9854	-4.4437	-4.4396	-4.0563	-5.0312	-4.0646	-3.9708	-5.0625	-4.075	-4.7104	-4.7875	-4.0604	-4.9271	21.267	210.003	149.300	70.466	133.561	100.085	-26.670	215.257	86.971	-98.724	216.954	210.833	212.412	204.081	-41.662	208.566	0.00096611	0.00031105	0.00030604	1217.9	7.9162e-06	1.6612e-05	1372.5	500.21	8.6458e-06	1.1109e-05	626.62	242.52	184.02	71.239	1.5726e-05	105.28	0.00095406	0.00095807	0.00026732	1051.8	1.0378e-05	1.0597e-05	1188.9	431.77	1.0537e-05	1.0701e-05	544.08	211.15	161.33	62.363	1.0676e-05	91.603	-17.100	-40.682	7.794	-89.313	36.262	45.680	-90.301	-85.932	19.122	22.958	-87.243	-83.239	-82.140	-76.800	9.648	-79.454	-8191	255	
29969.396	1	1	0	0	0.065735	0.12084	0.06272	0.21504	0.21457	0.23878	0.13925	0.26951	0.20334	0.19322	0.27341	0.065447	0.17296	0.083178	0.1378	0.24025	-4.0958	-4.1521	-4.9521	-4.1937	-4.3479	-4.7229	-4.1458	-4.9437	-4.2917	-4.125	-5.0958	-4.2729	-4.5042	-4.9062	-3.8208	-4.8604	-11.320	-20.246	173.251	211.712	122.972	-14.936	202.113	203.977	160.953	248.729	212.327	65.942	246.209	-59.547	23.454	200.140	0.00068329	0.00093396	0.00014577	1226.8	1.2316e-05	6.3435e-06	1383.2	505.3	1.221e-05	2.6359e-06	636.7	248.34	187.81	72.101	8.1611e-06	107.41	0.00097723	0.00098822	0.000271	1060.5	1.0495e-05	1.0657e-05	1199.9	437.08	1.042e-05	1.0545e-05	551.74	214.71	163.8	63.186	1.061e-05	93.217	6.407	-1.615	-12.011	-89.624	5.465	25.840	-90.378	-85.775	-46.061	-22.418	-87.176	-83.742	-82.084	-76.971	53.497	-79.242	-8191	255	
29969.492	1	1	0	0	0.1646	0.0431	0.15704	0.16438	0.058002	0.10747	0.10677	0.36742	0.19533	0.17412	0.19987	0.16667	0.095877	0.39855	0.11348	0.15579	-4.1896	-3.9396	-4.9854	-4.35	-4.2688	-4.7312	-3.9958	-4.775	-4.6396	-3.975	-5.0292	-4.5167	-4.2958	-4.9917	-3.9833	-4.7312	-75.902	38.418	233.390	190.995	206.703	238.616	229.223	206.633	22.859	-91.256	209.658	123.385	157.001	194.281	157.295	164.812	0.00097685	0.00052208	0.00014739	1226.7	1.6082e-05	1.1925e-05	1402.6	505.42	2.1235e-05	5.7137e-06	632.04	246.87	188.51	71.885	1.3108e-05	104.85	0.0009821	0.00099757	0.00027297	1062.9	1.0653e-05	1.0564e-05	1207.7	438.98	1.0815e-05	1.0778e-05	550.63	213.89	163.62	62.759	1.0865e-05	91.599	0.031	21.844	77.296	-89.710	19.011	84.933	-90.130	-85.997	45.831	12.513	-87.436	-83.441	-82.041	-77.019	51.554	-79.428	-8191	255	
29969.613	1	1	0	0	0.22599	0.15435	0.21369	0.10809	0.098396	0.06334	0.18787	0.24914	0.24553	0.079378	0.12915	0.26709	0.2987	0.11988	0.09197	0.11331	-4.4313	-3.9313	-4.8	-4.4771	-4.1146	-4.6875	-4.1708	-4.6458	-4.5708	-4	-4.9896	-4.5188	-4.2375	-5.05	-4.1479	-4.6021	-89.041	-22.827	39.879	243.814	156.985	-24.465	227.380	176.237	29.606	75.233	225.829	235.077	213.502	-80.683	61.084	-85.970	0.0008042	0.00067235	0.00019305	1217.8	4.0458e-06	8.1083e-06	1369.6	496.02	7.1173e-06	1.2912e-05	614.74	239.9	182.91	70.178	1.1134e-05	102.49	0.00098519	0.0010178	0.00027587	1056.7	1.0601e-05	1.0941e-05	1187	428.75	1.1052e-05	1.0733e-05	535.07	208.27	159.58	61.351	1.0716e-05	89.277	-19.902	50.896	-17.288	-89.744	-22.953	100.841	-90.623	-85.916	26.611	25.984	-87.569	-83.433	-82.123	-76.594	75.469	-79.510	-8191	255	
29969.711	1	1	0	0	0.11641	0.037599	0.094556	0.28653	0.17274	0.1968	0.21988	0.16454	0.049583	0.14213	0.31178	0.085538	0.17823	0.31065	0.13968	0.049348	-4.5333	-3.8396	-4.8	-4.5458	-4.0646	-4.9708	-4.2875	-4.3458	-4.7104	-3.9229	-4.8313	-4.6021	-4.2042	-5.0229	-4.2375	-4.3792	-94.414	151.494	2.712	207.489	-103.142	32.176	212.293	152.556	175.465	-42.761	-64.454	-30.971	223.882	244.869	157.119	-58.756	0.00096228	0.0011861	0.00019016	1212.7	1.15e-05	1.079e-05	1368.7	495.31	1.3175e-05	1.0429e-05	618.33	240.61	185.15	70.686	1.651e-05	103.29	0.00098149	0.00098371	0.00027699	1050.1	1.0585e-05	1.0699e-05	1185.7	429.88	1.0599e-05	1.0973e-05	538.44	209.45	161.46	61.805	1.0811e-05	90.212	6.568	-23.455	-18.010	-89.472	55.839	35.277	-90.179	-85.879	8.433	16.042	-87.528	-83.461	-81.899	-76.689	73.959	-79.304	-8191	255	
29969.807	1	1	0	0	0.027095	0.16019	0.04239	0.11046	0.16738	0.25588	0.19977	0.20846	0.11139	0.33712	0.23216	0.15268	0.20096	0.15134	0.21488	0.13081	-4.4167	-3.8438	-4.6875	-4.8167	-3.7417	-4.6771	-4.4521	-4.3271	-4.8063	-4.0292	-4.6104	-4.7375	-3.9417	-4.9417	-4.3083	-4.4187	177.126	169.895	249.808	147.616	-0.362	137.360	133.615	-88.367	58.500	224.662	201.553	-86.294	12.463	144.128	38.949	-48.785	0.00083182	0.00088865	0.00015265	1225.9	1.2264e-05	9.2169e-06	1380.3	506.08	1.9344e-06	8.7183e-06	633.68	245.67	189.22	71.213	1.4034e-05	103.68	0.00099557	0.00099578	0.00028065	1064.5	1.0861e-05	1.0867e-05	1199.7	438.91	1.0636e-05	1.0899e-05	550.19	213.25	164.92	62.498	1.0805e-05	90.674	-4.935	42.291	-25.926	-89.680	-11.148	77.926	-90.094	-85.979	95.749	17.063	-87.671	-83.605	-82.073	-77.219	52.959	-79.537	-8191	255	
29969.928	1	1	0	0	0.25375	0.25009	0.25437	0.13927	0.15565	0.23548	0.44158	0.039801	0.38522	0.15435	0.23424	0.17951	0.27	0.15021	0.043236	0.13978	-4.4708	-3.9292	-4.4979	-4.8438	-3.9437	-4.7917	-4.7167	-4.3	-5.0875	-4.0958	-4.5687	-4.9167	-4.0437	-4.7542	-4.4042	-4.0333	-65.280	-52.757	-35.936	-71.203	170.143	65.498	170.084	171.746	158.878	-46.721	214.815	-44.653	219.311	135.974	-94.098	150.638	0.0009736	0.0010597	0.00023214	1245.8	1.2931e-05	8.3892e-06	1399.1	512.29	3.6061e-06	8.3168e-06	637.35	246.36	189.45	71.961	1.8401e-05	105.19	0.00096981	0.00098111	0.00026846	1084.7	1.027e-05	1.048e-05	1215.5	444.89	1.0365e-05	1.0631e-05	554.4	214.71	165.25	63.141	1.0717e-05	91.826	-7.108	-0.367	16.236	-89.250	48.554	-26.981	-90.120	-85.899	78.628	31.697	-87.064	-83.279	-81.949	-76.771	49.644	-79.518	-8191	255	
29969.998	1	1	0	0	0.18153	0.29841	0.15875	0.10901	0.2853	0.076205	0.18893	0.55091	0.11778	0.17992	0.25514	0.21929	0.12509	0.092046	0.0029115	0.14388	-4.6104	-4.0271	-4.3583	-4.8	-3.7438	-4.4375	-4.7396	-4.15	-4.8229	-4.1667	-4.3792	-4.9146	-3.9708	-4.6375	-4.5896	-4.0854	164.678	119.019	-9.753	219.149	236.404	-19.882	182.429	200.604	238.127	-97.089	197.191	199.269	-64.177	227.276	-36.118	198.473	0.00088871	0.00059467	0.00023808	1238.6	1.1249e-06	1.4255e-05	1394.1	505.86	1.2067e-05	5.4529e-06	629.97	243.31	187.27	71.025	7.6741e-06	103.07	0.00097106	0.0009753	0.00027115	1076.6	1.0691e-05	1.081e-05	1210	440.03	1.0551e-05	1.0737e-05	549.08	212.9	163.56	62.388	1.0571e-05	90.293	-14.352	-52.104	9.208	-89.469	228.653	96.025	-89.904	-85.696	70.833	32.482	-87.013	-83.408	-82.379	-76.790	31.411	-79.288	-8191	255	
29970.096	1	1	0	0	0.20085	0.054247	0.17712	0.21409	0.069545	0.27672	0.10253	0.20638	0.12301	0.058583	0.015203	0.26936	0.11978	0.10804	0.13674	0.26809	-4.6188	-4.2396	-4.1333	-5.125	-3.8229	-4.5854	-4.9979	-4.0354	-4.7042	-4.3562	-4.2479	-5.1188	-4.0917	-4.6104	-4.7292	-3.9896	239.336	-94.153	5.685	217.433	10.032	156.174	200.066	-100.027	131.111	170.767	-39.873	235.046	36.498	171.683	15.608	233.997	0.0008063	0.00094402	0.00019098	1229	9.0528e-06	1.1742e-05	1374.3	500.13	7.7513e-06	6.3024e-06	621.1	239.38	183.75	69.885	1.2036e-05	102.08	0.00096473	0.00094384	0.00027151	1067.1	1.0292e-05	1.0523e-05	1192.8	435.52	1.0104e-05	1.0576e-05	539.51	209.43	161.3	61.38	1.0542e-05	89.112	-10.885	15.230	-8.445	-89.618	50.738	64.861	-90.342	-85.736	-3.377	39.274	-87.647	-83.445	-81.977	-76.869	101.388	-79.642	-8191	255	
29970.189	1	1	0	0	0.094846	0.22944	0.15613	0.11935	0.07367	0.14035	0.053154	0.11613	0.3022	0.12104	0.08619	0.22147	0.24766	0.25413	0.1603	0.19566	-4.5375	-4.2688	-4.0813	-5.0729	-3.9813	-4.5875	-4.8292	-4.0938	-4.6875	-4.5229	-4.1271	-5.2583	-4.3167	-4.3583	-4.8958	-3.9562	3.706	250.631	211.512	237.618	98.081	68.660	234.324	207.323	201.076	-63.509	192.852	217.012	190.302	209.882	225.831	225.714	0.00098879	0.00091012	0.00018887	1210.4	9.8272e-06	6.9407e-06	1363.3	493.59	1.3963e-05	5.7934e-06	616.18	238.93	182.88	70.467	1.3737e-06	102.11	0.0009556	0.00095297	0.00026858	1051.9	1.0451e-05	1.0839e-05	1185.2	429.92	1.0628e-05	1.0826e-05	536.26	208.82	160.41	61.573	1.071e-05	89.595	-4.137	-35.880	-12.271	-89.674	31.925	41.771	-89.825	-85.725	41.703	-0.804	-87.247	-83.565	-81.929	-76.726	138.820	-79.404	-8191	255	
29970.311	1	1	0	0	0.11709	0.14847	0.074415	0.21206	0.28256	0.049591	0.34726	0.19342	0.072603	0.13092	0.11123	0.18241	0.10915	0.36548	0.32002	0.042843	-4.3708	-4.5417	-3.975	-4.9417	-4.1396	-4.3771	-4.9271	-3.9146	-4.5833	-4.5479	-4.0958	-5.0396	-4.4958	-4.2146	-4.9958	-4.1646	-49.676	-86.384	-39.119	-86.448	-74.427	-8.787	173.551	233.688	178.634	229.253	199.469	244.236	-42.968	-98.105	13.122	192.276	0.0011949	0.00075909	5.2656e-05	1202.8	9.3866e-06	1.182e-05	1362	493.43	1.543e-05	7.3354e-06	616.95	242.51	183.7	70.914	4.3662e-06	103.53	0.00097206	0.00098058	0.00027913	1047	1.0631e-05	1.0644e-05	1184.5	429.29	1.0711e-05	1.0603e-05	538.97	210.57	161.32	62.329	1.055e-05	90.949	-14.212	-32.194	-44.431	-89.137	89.675	66.678	-90.112	-85.678	67.946	32.596	-87.552	-82.982	-82.039	-76.766	15.848	-79.201	-8191	255	
29970.406	1	1	0	0	0.060164	0.27072	0.17063	0.31149	0.10044	0.18771	0.29359	0.31753	0.13324	0.070292	0.428	0.21788	0.26691	0.2104	0.16006	0.38444	-4.2063	-4.6896	-3.95	-4.7937	-4.2229	-4.0271	-4.9187	-4.1417	-4.3292	-4.725	-3.9938	-4.8604	-4.4958	-3.9917	-4.8417	-4.15	119.492	-82.024	232.828	-82.027	88.572	-101.123	207.155	170.152	187.123	232.316	227.445	169.131	203.254	-87.728	137.547	200.829	0.00093599	0.0010124	0.00026882	1224.3	7.4516e-06	4.8324e-06	1390.2	506.39	2.6819e-06	2.3667e-06	637.23	246.78	187.12	72.134	9.4849e-06	106.04	0.00098767	0.00097323	0.00027257	1064.2	1.0579e-05	1.0562e-05	1200.2	437.61	1.0373e-05	1.0659e-05	551.04	213.71	163.82	63.174	1.0752e-05	92.405	-26.059	16.862	8.723	-89.655	81.397	2.566	-90.174	-86.004	129.044	-101.045	-87.847	-83.575	-81.890	-77.056	87.378	-79.575	-8191	255	
29970.502	1	1	0	0	0.13122	0.19148	0.10602	0.088947	0.12554	0.065829	0.1019	0.12737	0.23581	0.1288	0.21091	0.18368	0.064712	0.15531	0.21174	0.14871	-3.9583	-4.6937	-3.8583	-4.7875	-4.3625	-4.0813	-5.1271	-4.3063	-4.1813	-4.7937	-4.0292	-4.7562	-4.5896	-4.0875	-4.7458	-4.3562	-4.188	-43.881	174.641	-101.208	-81.627	155.954	-66.001	144.395	-100.451	-36.175	199.808	-83.423	74.402	179.057	-53.595	223.786	0.00080105	0.0011763	0.00019627	1236.4	1.3114e-05	1.0243e-05	1385.8	503.73	3.314e-06	1.2381e-05	623.97	241.95	184.97	70.682	1.0636e-05	102.73	0.0009751	0.00096561	0.00027698	1070	1.0659e-05	1.0854e-05	1204.2	437.17	1.0694e-05	1.0776e-05	542.15	210.75	162.07	61.895	1.0592e-05	89.877	-12.502	12.082	-29.521	-89.613	67.553	55.880	-89.804	-85.804	29.220	32.879	-87.514	-83.512	-81.954	-76.596	36.788	-79.356	-8191	255	
29970.598	1	1	0	0	0.22155	0.05993	0.053731	0.21786	0.1105	0.22016	0.11011	0.31866	0.36293	0.15956	0.13517	0.19961	0.14909	0.2212	0.19037	0.1871	-3.8438	-4.6854	-3.8563	-4.7354	-4.5062	-3.9354	-5.0125	-4.4646	-4.0958	-5.0125	-4.1562	-4.7188	-4.7646	-4.0771	-4.7854	-4.4625	211.635	97.079	115.435	225.093	135.717	26.899	185.881	220.787	-65.531	97.791	227.159	234.078	-4.221	245.205	-24.485	217.149	0.00093497	0.00066264	0.00019173	1208.9	1.3687e-05	9.2006e-06	1352.7	491.47	1.2975e-05	6.2348e-06	610.45	237.31	181.89	69.524	1.5764e-06	100.58	0.00096644	0.00095771	0.00027296	1050.8	1.0341e-05	1.0473e-05	1180	428.87	1.0692e-05	1.076e-05	531.38	206.83	159.21	60.903	1.0546e-05	88.231	1.237	-36.608	-19.095	-89.505	46.378	50.895	-90.057	-85.817	4.964	44.262	-87.405	-83.120	-81.938	-76.947	-25.765	-79.288	-8191	255	
29970.693	1	1	0	0	0.20084	0.097897	0.17808	0.20148	0.083481	0.094155	0.13107	0.26835	0.10667	0.13501	0.1884	0.19688	0.15901	0.10958	0.03034	0.052615	-3.9146	-5.0354	-4.0208	-4.5104	-4.7875	-3.9542	-4.9187	-4.6813	-3.9208	-4.9375	-4.2917	-4.4563	-4.9542	-4.1	-4.6167	-4.8271	31.978	-35.052	-60.632	161.843	122.489	-43.512	116.744	218.917	198.388	-66.377	239.794	165.685	-74.560	229.251	190.588	-39.852	0.00099903	0.00079502	0.00013843	1208.2	6.2482e-06	9.0888e-06	1349.4	490.61	2.7829e-06	1.6057e-05	613.38	236.83	182.47	69.98	6.2114e-06	101.18	0.00096339	0.00097477	0.0002711	1048.7	1.0198e-05	1.0682e-05	1178.1	428.55	1.0508e-05	1.0579e-05	534.9	206.59	159.72	61.182	1.0595e-05	88.468	12.998	72.045	-30.814	-89.393	182.852	97.770	-89.921	-85.647	127.206	19.254	-87.114	-83.473	-81.760	-76.682	63.594	-79.282	-8191	255	
29970.789	1	1	0	0	0.19148	0.054094	0.064867	0.11521	0.084205	0.16121	0.15434	0.10116	0.076414	0.061802	0.20401	0.30608	0.17238	0.097664	0.14703	0.15198	-3.6792	-4.9271	-4.1813	-4.35	-4.8646	-4.0771	-4.8396	-4.8417	-3.9104	-4.9625	-4.35	-4.3083	-5.1	-4.0521	-4.4583	-4.7125	25.179	68.200	25.564	-57.772	132.273	-17.196	181.876	-22.013	-90.464	84.969	165.267	148.285	224.664	-79.916	18.377	212.499	0.00071018	0.00033182	0.00041536	1204.9	1.0486e-05	3.9134e-06	1357	494.01	1.7445e-05	1.0291e-05	613.6	235.62	182.18	69.655	1.2662e-05	102.3	0.00096114	0.00095867	0.00027029	1049.8	1.0621e-05	1.0717e-05	1179.8	429.7	1.06e-05	1.0583e-05	535.51	206.7	159.62	61.361	1.0517e-05	89.537	-1.831	-38.393	1.643	-89.538	58.334	-18.022	-89.994	-85.816	96.344	38.481	-87.302	-83.205	-81.713	-76.684	48.384	-79.420	-8191	255	
#DATA ENDS
