BOXY.EXE: ISS Imagent and Oximeter Data Acquisition Program Version 0.80
Ascii Record File

#ACQ INFORMATION
2  Detector Channels 
16  External MUX Channels 
1  Auxiliary Channels 
5000  Waveform (CCF) Frequency (Hz)
1  Waveforms Skipped 
30  Waveforms Averaged 
1  Cycles Averaged 
16  Acquisitions per Waveform 
10.0806  Updata Rate (Hz) 

#FILE INFORMATION
TRUE -- External MUX Channel results are PARSED.
FALSE -- AC DC and Phase are NOT grouped.
TRUE -- Companion Program Settings File CREATED.
FALSE -- AC data not excluded
FALSE -- DC data not excluded
FALSE -- Phase data not excluded
FALSE -- Auxillary Chn. data not excluded
Tab delimiters

#CALIBRATION STATE
TRUE -- Waveform Calibration Values APPLIED.


#AUX CALIBRATION VALUES
Val Type	aux-1	

Term	1.0000e+00	
Factor	0.0000e+00	


#WF CALIBRATION VALUES
A = Detector Channel
Val Type	A-AC1	A-AC2	A-AC3	A-AC4	A-AC5	A-AC6	A-AC7	A-AC8	A-AC9	A-AC10	A-AC11	A-AC12	A-AC13	A-AC14	A-AC15	A-AC16	A-DC1	A-DC2	A-DC3	A-DC4	A-DC5	A-DC6	A-DC7	A-DC8	A-DC9	A-DC10	A-DC11	A-DC12	A-DC13	A-DC14	A-DC15	A-DC16	A-Ph1	A-Ph2	A-Ph3	A-Ph4	A-Ph5	A-Ph6	A-Ph7	A-Ph8	A-Ph9	A-Ph10	A-Ph11	A-Ph12	A-Ph13	A-Ph14	A-Ph15	A-Ph16	

Term	0.00000e+00	0.00000e+00	0.00000e+00	0.00000e+00	0.00000e+00	0.00000e+00	0.00000e+00	0.00000e+00	0.00000e+00	0.00000e+00	0.00000e+00	0.00000e+00	0.00000e+00	0.00000e+00	0.00000e+00	0.00000e+00	0.00000e+00	0.00000e+00	0.00000e+00	0.00000e+00	0.00000e+00	0.00000e+00	0.00000e+00	0.00000e+00	0.00000e+00	0.00000e+00	0.00000e+00	0.00000e+00	0.00000e+00	0.00000e+00	0.00000e+00	0.00000e+00	0.00000e+00	0.00000e+00	0.00000e+00	0.00000e+00	0.00000e+00	0.00000e+00	0.00000e+00	0.00000e+00	0.00000e+00	0.00000e+00	0.00000e+00	0.00000e+00	0.00000e+00	0.00000e+00	0.00000e+00	0.00000e+00	
Factor	1.00000e+00	1.00000e+00	1.00000e+00	1.00000e+00	1.00000e+00	1.00000e+00	1.00000e+00	1.00000e+00	1.00000e+00	1.00000e+00	1.00000e+00	1.00000e+00	1.00000e+00	1.00000e+00	1.00000e+00	1.00000e+00	1.00000e+00	1.00000e+00	1.00000e+00	1.00000e+00	1.00000e+00	1.00000e+00	1.00000e+00	1.00000e+00	1.00000e+00	1.00000e+00	1.00000e+00	1.00000e+00	1.00000e+00	1.00000e+00	1.00000e+00	1.00000e+00	X	X	X	X	X	X	X	X	X	X	X	X	X	X	X	X	

B = Detector Channel
Val Type	B-AC1	B-AC2	B-AC3	B-AC4	B-AC5	B-AC6	B-AC7	B-AC8	B-AC9	B-AC10	B-AC11	B-AC12	B-AC13	B-AC14	B-AC15	B-AC16	B-DC1	B-DC2	B-DC3	B-DC4	B-DC5	B-DC6	B-DC7	B-DC8	B-DC9	B-DC10	B-DC11	B-DC12	B-DC13	B-DC14	B-DC15	B-DC16	B-Ph1	B-Ph2	B-Ph3	B-Ph4	B-Ph5	B-Ph6	B-Ph7	B-Ph8	B-Ph9	B-Ph10	B-Ph11	B-Ph12	B-Ph13	B-Ph14	B-Ph15	B-Ph16	

Term	0.00000e+00	0.00000e+00	0.00000e+00	0.00000e+00	0.00000e+00	0.00000e+00	0.00000e+00	0.00000e+00	0.00000e+00	0.00000e+00	0.00000e+00	0.00000e+00	0.00000e+00	0.00000e+00	0.00000e+00	0.00000e+00	0.00000e+00	0.00000e+00	0.00000e+00	0.00000e+00	0.00000e+00	0.00000e+00	0.00000e+00	0.00000e+00	0.00000e+00	0.00000e+00	0.00000e+00	0.00000e+00	0.00000e+00	0.00000e+00	0.00000e+00	0.00000e+00	-2.91036e+01	-1.30727e+02	-1.25827e+02	-1.83848e+02	-4.53590e+01	-6.39396e+01	-1.58330e+02	-1.62015e+02	-4.04028e+01	-6.93137e+01	-1.70849e+02	-1.70812e+02	-1.78650e+02	-1.77103e+02	-5.65599e+01	-1.50176e+02	
Factor	2.48695e-05	1.25508e-04	3.68752e-05	1.52866e-01	1.67459e-06	1.76788e-06	1.70140e-01	5.22108e-02	1.64632e-06	1.54420e-06	8.69566e-02	2.95778e-02	2.73539e-02	9.37122e-03	1.62419e-06	1.32152e-02	8.28636e-06	1.10554e-05	3.07181e-06	7.48206e-02	1.15288e-07	1.22545e-07	7.80540e-02	2.56305e-02	1.14741e-07	1.21952e-07	4.13475e-02	1.40655e-02	1.35687e-02	4.64103e-03	1.17712e-07	6.32584e-03	X	X	X	X	X	X	X	X	X	X	X	X	X	X	X	X	



#DISTANCE SETTINGS
A = Detector Channel
A-1	A-2	A-3	A-4	A-5	A-6	A-7	A-8	A-9	A-10	A-11	A-12	A-13	A-14	A-15	A-16	

2.5000e+00	3.0000e+00	2.5000e+00	3.0000e+00	2.0000e+00	3.0000e+00	1.5000e+00	3.0000e+00	3.0000e+00	3.0000e+00	3.0000e+00	3.0000e+00	3.0000e+00	3.0000e+00	1.5000e+00	3.0000e+00	

B = Detector Channel
B-1	B-2	B-3	B-4	B-5	B-6	B-7	B-8	B-9	B-10	B-11	B-12	B-13	B-14	B-15	B-16	

1.0000e+01	1.0000e+01	1.0000e+01	1.4400e+00	1.0000e+01	1.0000e+01	1.5100e+00	1.9400e+00	1.0000e+01	1.0000e+01	1.9900e+00	2.4900e+00	2.4100e+00	2.9000e+00	1.0000e+01	2.9800e+00	




#DATA BEGINS
time	group	step	mark	flag	A-AC1	A-AC2	A-AC3	A-AC4	A-AC5	A-AC6	A-AC7	A-AC8	A-AC9	A-AC10	A-AC11	A-AC12	A-AC13	A-AC14	A-AC15	A-AC16	A-DC1	A-DC2	A-DC3	A-DC4	A-DC5	A-DC6	A-DC7	A-DC8	A-DC9	A-DC10	A-DC11	A-DC12	A-DC13	A-DC14	A-DC15	A-DC16	A-Ph1	A-Ph2	A-Ph3	A-Ph4	A-Ph5	A-Ph6	A-Ph7	A-Ph8	A-Ph9	A-Ph10	A-Ph11	A-Ph12	A-Ph13	A-Ph14	A-Ph15	A-Ph16	B-AC1	B-AC2	B-AC3	B-AC4	B-AC5	B-AC6	B-AC7	B-AC8	B-AC9	B-AC10	B-AC11	B-AC12	B-AC13	B-AC14	B-AC15	B-AC16	B-DC1	B-DC2	B-DC3	B-DC4	B-DC5	B-DC6	B-DC7	B-DC8	B-DC9	B-DC10	B-DC11	B-DC12	B-DC13	B-DC14	B-DC15	B-DC16	B-Ph1	B-Ph2	B-Ph3	B-Ph4	B-Ph5	B-Ph6	B-Ph7	B-Ph8	B-Ph9	B-Ph10	B-Ph11	B-Ph12	B-Ph13	B-Ph14	B-Ph15	B-Ph16	aux-1	digaux	

50878.020	1	1	0	256	0.15463	0.25084	0.17024	0.22746	0.18898	0.19214	0.052973	0.1863	0.074775	0.1425	0.036697	0.055054	0.20198	0.10934	0.12867	0.039267	-4.2521	-4.4354	-5.1042	-4.25	-4.7396	-5.0729	-4.4313	-5.0896	-4.55	-4.3479	-5.1104	-4.2021	-4.7146	-4.9542	-4.1542	-5.1542	198.574	223.051	404.741	392.855	234.602	157.339	346.643	350.204	338.706	235.194	420.135	211.331	185.185	148.448	394.242	437.600	0.00037518	0.00025621	6.1376e-05	986.5	3.5939e-06	1.9911e-06	1064.1	211.22	4.5726e-06	1.1043e-06	266.78	74.57	60.052	17.189	4.5629e-06	23.731	0.00023885	0.00019884	5.224e-05	980.28	2.2721e-06	2.0861e-06	1056.3	211.24	2.2688e-06	2.1519e-06	267.51	75.246	59.54	17.474	2.2694e-06	24.213	277.691	204.423	181.003	110.461	261.839	238.062	110.612	118.387	254.225	303.297	117.861	125.583	125.860	132.281	251.543	131.408	-8191	255	
50878.113	1	1	0	0	0.21532	0.11179	0.13841	0.3466	0.091331	0.10812	0.16364	0.13269	0.15567	0.082951	0.044804	0.084459	0.13399	0.29263	0.032884	0.10977	-4.3521	-4.2021	-5.0229	-4.3979	-4.3292	-5.275	-4.1292	-4.9479	-4.5792	-4.2208	-5.1062	-4.4042	-4.475	-4.9083	-4.2021	-5.0042	370.505	387.345	107.718	436.826	341.108	286.586	432.231	456.773	428.659	454.279	364.443	182.396	403.365	352.554	253.796	115.099	0.0003501	0.00030838	2.4201e-05	985.9	4.8527e-06	5.4142e-06	1065.3	212.28	5.1125e-06	1.7491e-06	266.05	75.087	59.384	16.921	1.6846e-06	23.693	0.00022516	0.00020284	5.1043e-05	980.64	2.3067e-06	2.1259e-06	1058.6	211.35	2.2365e-06	2.1763e-06	267.67	75.289	59.412	17.452	2.3167e-06	24.183	279.170	223.942	204.804	110.482	281.946	244.859	110.783	118.595	278.520	225.883	117.524	125.155	125.137	132.897	270.799	131.556	-8191	255	
50878.211	1	1	0	0	0.069044	0.088688	0.036003	0.17986	0.027286	0.083696	0.15591	0.23754	0.021052	0.10233	0.14501	0.060834	0.08821	0.30921	0.050656	0.051875	-4.5062	-4.1729	-5.1396	-4.5583	-4.325	-5.1646	-4.3812	-4.8063	-4.8229	-4.2625	-5.1354	-4.525	-4.3562	-5.1625	-4.3021	-4.7562	446.744	333.535	368.051	386.958	281.216	196.328	445.232	422.210	273.210	378.112	337.485	271.300	293.612	440.060	172.841	303.948	0.0003426	0.00022255	6.3918e-05	985.69	3.4032e-06	4.2878e-06	1067.1	210.8	4.3635e-06	3.5672e-06	266.75	75.13	59.233	17.191	3.7591e-06	23.71	0.00021895	0.0002043	5.3616e-05	982.59	2.2707e-06	2.084e-06	1060	211.05	2.2982e-06	2.2396e-06	268	75.422	59.671	17.513	2.2221e-06	24.195	282.572	167.862	192.773	110.936	270.253	224.907	110.641	117.990	252.655	247.039	118.014	125.195	125.523	132.775	257.686	131.547	-8191	255	
50878.309	1	1	0	0	0.23745	0.2092	0.14671	0.34532	0.22482	0.15678	0.27167	0.25501	0.05154	0.042097	0.10591	0.17381	0.12418	0.13904	0.20187	0.067959	-4.5104	-4.1458	-5.0312	-4.7125	-4.2937	-5.1333	-4.3063	-4.6375	-4.8396	-4.05	-4.8979	-4.6542	-4.3542	-5.125	-4.3771	-4.5542	299.169	421.843	310.342	460.280	166.645	450.680	354.240	326.427	316.650	255.415	132.069	378.131	314.827	346.233	443.894	130.223	0.00032247	0.00020635	9.3527e-05	990.44	4.0938e-06	1.7828e-06	1072.3	210.54	1.9719e-06	3.4527e-06	266.5	74.906	59.678	17.395	2.8276e-06	23.816	0.00022615	0.00020828	5.6169e-05	985.66	2.4835e-06	2.1719e-06	1064.4	211.33	2.2167e-06	2.2637e-06	268.82	75.451	59.747	17.564	2.265e-06	24.328	274.836	195.509	186.049	110.562	281.470	288.907	110.792	118.321	308.073	246.921	117.924	125.306	125.427	132.354	295.700	131.306	-8191	255	
50878.426	1	1	0	0	0.11675	0.082293	0.046596	0.17004	0.31528	0.13498	0.14867	0.20498	0.21763	0.12684	0.065037	0.22294	0.14152	0.14234	0.074552	0.10769	-4.8042	-4.2354	-4.7875	-4.9354	-4.1062	-5.0292	-4.5312	-4.3271	-5.0208	-4.2729	-4.8708	-4.8438	-4.3354	-5.1229	-4.2063	-4.2833	230.603	301.381	260.777	408.933	254.092	455.167	437.511	393.255	117.452	295.329	125.782	262.991	377.648	125.952	321.633	199.131	0.00035012	0.00024175	9.9682e-05	997.14	4.5901e-06	4.2471e-06	1077.6	211.88	2.1841e-06	2.8219e-06	271.07	75.328	59.493	17.149	4.6795e-06	23.713	0.00023433	0.00020605	5.7257e-05	988.99	2.4352e-06	2.1415e-06	1067.5	211.86	2.2071e-06	2.3084e-06	269.34	75.604	59.693	17.519	2.2324e-06	24.311	283.487	247.016	160.361	110.693	264.187	263.193	110.692	118.069	256.014	264.350	117.830	124.853	125.527	132.846	267.928	131.168	-8191	255	
50878.500	1	1	0	0	0.21624	0.19187	0.24743	0.063909	0.072828	0.25671	0.16218	0.11831	0.31533	0.08707	0.070227	0.25694	0.10179	0.21573	0.11195	0.23483	-4.7771	-4.1333	-4.5667	-5.0083	-4.0687	-5.1125	-4.7625	-4.4625	-5.1062	-4.1312	-4.7458	-5.0625	-4.225	-5.1062	-4.6458	-4.2917	310.267	385.141	290.635	352.234	317.270	220.682	112.889	437.124	139.793	207.011	443.933	183.113	327.082	226.015	171.303	418.106	0.0003862	0.00036824	5.5917e-05	993.55	4.1515e-06	3.571e-06	1073.7	212.19	4.2866e-06	2.9782e-06	271.05	75.129	59.602	17.274	3.6374e-06	23.901	0.00023866	0.00020685	5.8633e-05	988.77	2.4508e-06	2.2587e-06	1069.2	212.01	2.1896e-06	2.2261e-06	269.97	75.802	59.882	17.647	2.1169e-06	24.405	278.183	203.013	246.747	110.724	245.827	255.734	110.814	118.085	287.670	260.760	117.423	124.857	125.506	131.779	252.824	131.822	-8191	255	
50878.617	1	1	0	0	0.16442	0.070846	0.1807	0.27809	0.16946	0.14112	0.10414	0.16725	0.1009	0.15973	0.22256	0.075942	0.10965	0.10854	0.17883	0.1697	-4.8625	-4.2417	-4.7333	-5.1	-4.0958	-4.9208	-4.8938	-4.275	-5.1917	-4.3063	-4.6146	-5.1521	-4.1479	-4.9333	-4.8229	-4.0938	227.980	169.522	156.304	410.556	355.902	360.458	403.976	453.503	173.747	203.267	403.933	424.056	382.360	221.144	174.062	405.469	0.00034909	0.00021443	8.4209e-05	1001.2	4.9571e-06	2.4279e-06	1078.2	212.41	3.8044e-06	2.9407e-06	270.11	75.425	59.699	17.254	4.5338e-06	24.087	0.00022123	0.00019589	5.4083e-05	991.84	2.3634e-06	1.9362e-06	1071.3	212.5	2.1667e-06	2.0536e-06	269.73	75.962	59.802	17.615	2.0511e-06	24.456	281.857	220.395	191.513	110.636	270.313	311.301	110.663	118.133	310.976	250.951	117.452	124.871	125.416	132.330	270.285	131.456	-8191	255	
50878.715	1	1	0	0	0.028549	0.20277	0.12549	0.19766	0.14146	0.18757	0.14953	0.23532	0.11344	0.10663	0.075641	0.16457	0.24826	0.046176	0.1128	0.095638	-4.9229	-4.3958	-4.4062	-5.1687	-4.0458	-4.7958	-5.025	-4.0646	-5.0708	-4.4542	-4.5	-5.1146	-4.1271	-4.6792	-4.8063	-4.0875	414.373	447.957	207.988	324.656	358.887	323.115	335.666	364.216	126.198	415.638	257.587	446.650	119.619	144.162	255.933	407.007	0.000372	0.00029438	5.4815e-05	997.97	3.8943e-06	3.0097e-06	1078.6	212.92	6.7272e-06	2.2078e-06	268.8	75.423	59.565	17.135	3.1763e-06	24.191	0.00022287	0.00019174	5.3142e-05	992.05	2.2556e-06	1.9385e-06	1071.6	212.53	2.1213e-06	2.1171e-06	268.99	75.595	59.781	17.609	1.8699e-06	24.559	276.295	192.592	179.086	110.419	295.007	288.386	110.950	117.934	296.297	261.804	118.103	124.903	126.019	132.688	228.776	131.078	-8191	255	
50878.812	1	1	0	0	0.020707	0.094666	0.03403	0.18809	0.056168	0.21205	0.13624	0.11765	0.065097	0.10197	0.29065	0.033177	0.19	0.1914	0.15248	0.05746	-4.725	-4.625	-4.0958	-5.2063	-4.0687	-4.5333	-5.1354	-4.2354	-4.8771	-4.6	-4.3354	-5.1208	-4.2375	-4.6729	-4.8458	-4.1188	348.560	305.961	308.444	353.070	280.378	355.920	454.447	434.307	370.581	132.222	456.785	386.974	389.101	271.053	233.168	309.416	0.00032954	0.00021008	7.1061e-05	1000.9	4.6014e-06	2.8391e-06	1079.5	212.05	3.8351e-06	3.2392e-06	266.6	75.348	59.626	17.361	2.9677e-06	23.894	0.00021479	0.00018746	5.1139e-05	993.26	2.1897e-06	2.0182e-06	1069	211.89	2.0445e-06	2.0219e-06	267.88	75.738	59.893	17.648	1.9896e-06	24.383	277.200	190.074	195.654	110.514	273.978	236.846	110.926	118.620	263.594	258.424	117.682	125.344	125.575	132.460	249.696	131.036	-8191	255	
50878.906	1	1	0	0	0.088489	0.21454	0.20352	0.11467	0.086414	0.14775	0.17959	0.30054	0.083467	0.054318	0.14646	0.1764	0.22484	0.098344	0.14382	0.21363	-4.7021	-4.6708	-4.1958	-5.1417	-4.35	-4.4667	-5.1521	-3.9562	-4.8396	-4.7937	-4.3625	-5.2125	-4.4354	-4.3958	-4.8729	-4.0687	342.048	384.691	244.240	400.259	160.206	228.728	413.378	425.019	352.709	401.291	273.397	130.723	108.506	343.329	402.753	376.031	0.0003711	0.00024439	5.4932e-05	995.95	6.636e-06	2.805e-06	1077.1	212.57	4.1259e-06	9.7258e-07	266.94	75.482	59.921	17.285	3.7674e-06	23.955	0.00021759	0.00018658	5.1798e-05	991.25	2.2544e-06	1.9875e-06	1067.5	212.17	2.0797e-06	1.9271e-06	268.7	75.841	59.801	17.584	2.0014e-06	24.467	278.710	223.879	222.894	110.744	250.653	247.694	110.805	118.158	265.858	243.950	117.437	125.154	125.862	132.855	301.233	131.756	-8191	255	
50879.027	1	1	0	0	0.17438	0.028735	0.13473	0.15728	0.24338	0.080702	0.052382	0.23113	0.31732	0.14409	0.098829	0.21447	0.07967	0.061459	0.10342	0.19395	-4.4187	-4.6229	-4.0792	-5.2167	-4.4229	-4.3667	-5.2417	-4.0625	-4.725	-5.0042	-4.2604	-5.1188	-4.5604	-4.3458	-5.1917	-4.2021	166.994	315.379	151.572	438.821	103.955	432.531	317.996	119.963	161.159	116.071	402.677	135.721	365.069	202.805	188.371	396.526	0.00034712	0.00025822	0.0001003	995.3	8.5875e-06	3.3201e-06	1078.4	212.33	4.7689e-06	2.9421e-06	266.74	75.852	59.528	17.149	4.456e-06	24.046	0.00021795	0.00018923	5.2048e-05	990.29	2.3101e-06	2.0131e-06	1068.4	211.74	2.11e-06	1.9497e-06	268.86	75.58	59.734	17.591	1.9347e-06	24.49	278.752	183.024	204.928	110.653	272.289	283.575	110.880	118.202	281.731	253.820	117.501	125.021	125.856	132.634	266.670	131.723	-8191	255	
50879.125	1	1	0	0	0.07759	0.032582	0.29753	0.2426	0.10359	0.18569	0.17185	0.27841	0.097924	0.091126	0.11592	0.017243	0.22118	0.058138	0.095224	0.28377	-4.4021	-5.0125	-4.0813	-5.1896	-4.6542	-4.175	-5.2771	-4.4354	-4.5563	-4.9625	-4.125	-5.1396	-4.7083	-4.2333	-4.9812	-4.4167	413.028	148.195	387.790	417.043	126.785	324.193	400.116	408.134	431.961	318.189	215.357	244.817	187.440	303.387	430.082	281.256	0.00035684	0.00012518	5.2746e-05	999.39	5.2184e-06	2.7837e-06	1083	212.53	2.7529e-06	3.7132e-06	268.81	75.945	59.598	17.395	2.5429e-06	24.003	0.00021911	0.00017983	5.2547e-05	991.48	2.2279e-06	2.1305e-06	1071.1	212.37	2.1129e-06	1.9721e-06	269.54	75.667	59.721	17.633	2.0448e-06	24.499	276.175	136.248	171.672	110.768	278.106	257.729	110.961	118.287	259.992	259.175	117.459	125.370	125.281	132.396	321.499	131.091	-8191	255	
50879.195	1	1	0	0	0.096527	0.047749	0.21861	0.42885	0.23821	0.20139	0.22954	0.2107	0.15609	0.1032	0.11073	0.052215	0.1356	0.13313	0.15339	0.1899	-4.1521	-4.9042	-4.1792	-5.1562	-4.8042	-4.3396	-5.1312	-4.3229	-4.3708	-5.2604	-4.2583	-4.925	-4.9938	-4.2	-5.1667	-4.4187	169.373	321.062	344.598	422.067	300.223	245.653	372.453	110.337	199.265	166.721	117.455	291.987	196.519	227.250	187.224	145.956	0.0003876	0.00016345	8.1286e-05	996.86	3.569e-06	1.3983e-06	1075.2	212.92	3.8262e-06	2.4658e-06	268.57	75.622	59.823	17.313	4.9218e-06	23.901	0.0002334	0.00018195	5.2176e-05	990.2	2.1403e-06	2.0169e-06	1068.8	212.64	2.1349e-06	1.8544e-06	268.99	75.805	59.917	17.674	2.0048e-06	24.513	281.351	175.853	214.448	110.586	271.155	255.047	110.950	118.463	286.485	275.047	117.687	125.447	125.753	132.349	258.981	131.743	-8191	255	
50879.316	1	1	0	0	0.13123	0.081411	0.0098131	0.21691	0.2064	0.11636	0.20553	0.20118	0.16527	0.16987	0.15485	0.20201	0.057333	0.18112	0.099907	0.20361	-4.0646	-4.9854	-4.0833	-4.9104	-4.8583	-4.0938	-5.2937	-4.5687	-4.3604	-5.0583	-4.2625	-4.6771	-4.8854	-4.1354	-5.0188	-4.8292	194.033	376.356	424.439	151.217	196.758	248.737	452.599	396.527	309.533	342.525	366.426	386.262	412.856	134.764	372.712	175.146	0.00034731	0.00031259	7.1084e-05	993.57	3.1017e-06	4.5371e-06	1081.9	212.31	3.6503e-06	2.7193e-06	267.65	75.727	59.413	17.375	2.1263e-06	23.918	0.00022487	0.00018396	5.4589e-05	990.1	2.2447e-06	2.0764e-06	1071.5	212.43	2.1872e-06	1.8961e-06	269.04	75.99	59.802	17.687	1.8993e-06	24.48	278.089	202.401	165.228	110.689	291.369	276.298	110.777	118.609	268.574	255.140	117.496	125.144	125.797	133.141	276.782	131.518	-8191	255	
50879.410	1	1	0	0	0.13688	0.21308	0.19829	0.07597	0.071479	0.10773	0.081999	0.19681	0.071349	0.15147	0.024267	0.1609	0.098098	0.067678	0.14737	0.16199	-3.9062	-5.15	-4.3333	-4.7958	-5.0354	-4.1	-5.1271	-4.7604	-4.0875	-5.1792	-4.5479	-4.4167	-4.9875	-4.0833	-4.8021	-4.8354	160.934	326.338	326.126	372.128	142.916	163.604	336.118	385.082	193.998	449.855	159.805	367.893	355.183	291.181	310.665	390.375	0.00033862	0.00022313	5.0142e-05	999.51	6.2015e-06	2.2378e-06	1080.8	212.12	3.1821e-06	2.7094e-06	267.39	75.867	59.751	17.234	4.4234e-06	24.011	0.00021983	0.00017316	5.4377e-05	991.89	2.1895e-06	2.1548e-06	1069.7	212.11	2.1605e-06	1.9357e-06	269.28	75.91	59.754	17.643	2.0541e-06	24.531	283.280	172.331	204.558	110.760	263.063	247.164	110.838	118.761	251.558	263.231	117.433	125.024	125.800	132.490	238.166	131.747	-8191	255	
50879.508	1	1	0	0	0.088203	0.22333	0.036282	0.15535	0.16332	0.10216	0.13507	0.29716	0.18354	0.22736	0.041226	0.14815	0.10618	0.23082	0.076186	0.29854	-4.0188	-4.9354	-4.3542	-4.5271	-4.9458	-4.1188	-4.8125	-4.9313	-4.1729	-5.075	-4.4646	-4.4083	-5.2042	-4.1521	-4.5938	-4.8562	145.540	117.564	227.547	452.405	182.585	125.213	355.365	111.554	295.201	239.621	371.622	456.395	258.000	424.651	310.170	140.144	0.00036714	0.00026317	7.0142e-05	996.52	3.2543e-06	9.4381e-07	1073.5	212.43	5.2224e-06	2.5586e-06	269.56	75.942	59.878	17.146	3.6994e-06	24.098	0.00022499	0.00018573	5.1581e-05	989.75	2.2063e-06	2.1154e-06	1067.8	212.07	2.1464e-06	1.9487e-06	268.97	75.776	59.882	17.605	2.0901e-06	24.525	273.916	189.762	230.735	110.584	289.558	304.641	110.743	118.442	277.074	258.564	117.793	124.408	125.632	132.888	264.673	131.433	-8191	255	
50879.602	1	1	0	0	0.11517	0.21096	0.1805	0.18104	0.084203	0.15904	0.23625	0.11563	0.18016	0.24794	0.20065	0.15555	0.14908	0.10617	0.019416	0.093611	-3.7125	-4.9437	-4.5083	-4.3729	-5.0083	-4.1771	-4.725	-4.9	-4.0396	-4.9479	-4.6646	-4.2917	-5.1937	-4.5	-4.5	-5.0896	192.483	271.395	315.355	227.085	431.890	442.057	446.031	421.247	284.392	242.152	147.942	272.064	334.697	439.983	150.500	119.260	0.00034754	0.00017576	8.0996e-05	996.29	3.8431e-06	2.5615e-06	1079.4	211.26	3.0259e-06	3.3255e-06	270.01	75.583	58.959	17.146	2.7748e-06	24.016	0.00023129	0.00019596	5.0858e-05	988.69	2.1187e-06	2.1101e-06	1066.1	211.62	2.1846e-06	2.0409e-06	268.83	75.541	59.4	17.541	2.03e-06	24.506	280.145	189.379	233.054	110.561	257.322	252.341	110.533	118.396	263.098	240.796	117.868	125.211	125.299	132.892	247.825	131.823	-8191	255	
50879.699	1	1	0	0	0.083561	0.09611	0.34682	0.34307	0.1836	0.05846	0.16041	0.16157	0.065363	0.169	0.10137	0.29762	0.11031	0.38618	0.16003	0.18388	-3.875	-4.8458	-4.6958	-4.4688	-5.0062	-4.4542	-4.6208	-5.1062	-4.0833	-5.0229	-4.8354	-4.2562	-5.1354	-4.3979	-4.4042	-5.1312	109.235	390.541	388.831	117.572	268.698	437.089	406.888	413.355	107.312	129.193	110.128	326.349	123.740	448.423	361.182	117.398	0.00038287	0.00021684	3.3827e-05	990.18	4.9433e-06	3.9165e-06	1076.7	211.69	3.9491e-06	3.0413e-06	268.25	75.567	59.586	17.224	2.1712e-06	23.87	0.0002263	0.00018859	4.9629e-05	983.94	2.1499e-06	2.13e-06	1064.2	211.72	2.2774e-06	2.0882e-06	267.98	75.525	59.721	17.644	2.1264e-06	24.5	279.158	230.381	171.528	110.621	273.012	228.888	110.845	118.291	283.664	266.768	118.051	124.864	125.699	132.647	231.647	131.727	-8191	255	
50879.797	1	1	0	0	0.12235	0.14675	0.26284	0.014959	0.055668	0.17212	0.22938	0.042755	0.10317	0.055591	0.22261	0.20676	0.14234	0.28772	0.24764	0.24798	-3.8771	-4.8646	-4.8292	-4.2104	-5	-4.5021	-4.4833	-5.2562	-4.1646	-4.6792	-4.8271	-4.1312	-5.0896	-4.5583	-4.1854	-5.1208	427.247	205.538	317.772	428.450	187.351	255.605	384.447	116.351	248.416	272.632	180.956	385.342	402.866	390.156	190.343	164.011	0.00038014	0.00021867	7.7422e-05	989.96	4.4216e-06	2.5683e-06	1068.5	211.59	4.3242e-06	1.6217e-06	268.22	75.509	59.321	17.235	4.4652e-06	23.786	0.00023841	0.00018557	4.9392e-05	983.12	2.1371e-06	2.0044e-06	1061.6	211.52	2.1091e-06	2.0231e-06	268.27	75.393	59.352	17.542	2.1078e-06	24.427	278.625	193.162	209.527	110.319	261.406	308.454	110.460	118.581	290.634	225.249	117.837	124.900	125.617	132.301	268.907	131.967	-8191	255	
50879.891	1	1	0	0	0.2726	0.15406	0.18006	0.17018	0.16976	0.1603	0.095415	0.15825	0.21031	0.14152	0.35992	0.088989	0.15074	0.1179	0.26372	0.14735	-3.8771	-4.6521	-4.9583	-4.1375	-4.9187	-4.5792	-4.3667	-5.1312	-4.3083	-4.55	-5.0437	-4.0917	-4.9021	-4.8042	-4.2042	-4.9938	173.668	449.896	458.542	433.932	332.192	372.372	381.265	445.770	129.483	303.823	376.338	419.012	153.352	257.554	168.061	171.812	0.00035277	0.00025175	6.2059e-05	987.32	4.4345e-06	1.2116e-06	1068	212.12	3.2116e-06	3.5633e-06	267.77	75.17	59.029	17.038	3.4538e-06	23.815	0.00023324	0.00020096	5.2176e-05	981.52	2.1311e-06	2.1228e-06	1058.7	210.83	2.2556e-06	2.0841e-06	268.27	75.082	59.091	17.491	2.1703e-06	24.286	281.349	184.917	179.017	110.555	264.839	274.549	110.667	118.384	257.889	255.173	117.759	125.464	125.643	132.366	263.213	131.640	-8191	255	
50879.988	1	1	0	0	0.21758	0.18489	0.0094159	0.14221	0.19725	0.07997	0.070329	0.099708	0.2311	0.11563	0.047934	0.14409	0.056481	0.10048	0.15279	0.15006	-4.0167	-4.4625	-4.9333	-4.3146	-4.9021	-4.8	-4.3167	-5.1438	-4.425	-4.2708	-5.1917	-4.0563	-4.7917	-4.9146	-4.0021	-5.0437	456.742	261.628	107.550	361.107	291.854	243.592	378.485	340.172	416.364	117.809	456.703	271.753	170.133	395.675	338.131	392.699	0.000356	0.00022539	8.0182e-05	981.44	4.1988e-06	5.1242e-06	1056.4	210.81	3.185e-06	4.9787e-06	266.9	74.48	58.956	17.03	2.2664e-06	23.905	0.00022765	0.0001893	5.1094e-05	974.6	2.2138e-06	2.0766e-06	1048.9	210.32	2.1528e-06	2.0803e-06	266.25	74.695	59.044	17.325	2.211e-06	24.18	283.338	177.391	218.636	110.961	266.226	253.743	110.701	118.659	257.816	280.145	117.841	125.501	125.387	132.626	256.376	131.219	-8191	255	
50880.109	1	1	0	0	0.057285	0.11447	0.089726	0.30244	0.20424	0.21041	0.24361	0.23036	0.29854	0.154	0.19996	0.1094	0.088958	0.046195	0.14485	0.06868	-4.2417	-4.4187	-5.1188	-4.3083	-4.7708	-5.0083	-4.1646	-5.1146	-4.5563	-4.3646	-5.1333	-4.2729	-4.6625	-4.975	-3.9667	-4.975	242.807	226.640	245.269	383.515	252.877	150.636	383.250	356.237	158.146	457.053	433.222	200.742	244.132	121.783	359.670	445.965	0.00030311	0.0004179	0.00010394	975.73	3.8084e-06	9.9053e-07	1055.1	210.69	4.3048e-06	3.6495e-06	266.21	74.344	58.837	17.028	2.5797e-06	23.566	0.00021305	0.00020178	5.0672e-05	972.67	2.1669e-06	1.9288e-06	1044.3	209.4	2.095e-06	2.231e-06	266.48	74.651	58.828	17.333	2.0926e-06	24.162	280.543	195.664	191.723	110.761	260.160	233.711	110.735	118.466	264.703	247.724	117.892	125.016	125.864	132.298	285.192	132.118	-8191	255	
50880.203	1	1	0	0	0.1843	0.10663	0.12889	0.34185	0.20954	0.0253	0.21503	0.17332	0.22501	0.13603	0.21039	0.25704	0.08911	0.11059	0.020646	0.085415	-4.25	-4.2896	-5.0917	-4.4083	-4.4625	-5.0708	-4.2688	-4.9896	-4.7188	-4.1042	-5.1271	-4.3479	-4.5625	-5.1542	-4.1875	-4.9125	411.919	165.371	326.444	398.081	136.540	442.206	389.445	351.438	305.268	308.671	429.851	432.515	309.378	388.531	393.126	154.419	0.00033418	0.00021775	9.6255e-05	975.37	5.2861e-06	2.4981e-06	1050	209.45	4.6829e-06	3.3409e-06	264.4	74.26	58.848	17.062	2.2004e-06	23.707	0.00022245	0.00019365	5.1261e-05	967.95	2.1912e-06	1.9472e-06	1041.2	209.37	2.1311e-06	2.0744e-06	265.69	74.767	58.957	17.354	2.1286e-06	24.165	282.319	170.193	167.190	110.898	272.145	267.362	110.717	118.470	265.381	262.919	118.012	125.472	125.640	132.194	279.568	131.783	-8191	255	
50880.301	1	1	0	0	0.14241	0.10948	0.20926	0.14611	0.005599	0.16575	0.18875	0.10965	0.17866	0.20904	0.067422	0.065396	0.095952	0.22694	0.037518	0.19354	-4.6062	-4.0563	-5.0563	-4.5583	-4.3104	-5.05	-4.4042	-5.0125	-4.9062	-4.0938	-5.025	-4.6375	-4.4729	-5.1542	-4.0708	-4.7854	371.505	423.242	373.856	450.394	286.912	299.013	402.766	352.363	138.591	110.907	445.678	385.039	374.835	336.254	290.761	380.460	0.00033099	0.00028035	3.8993e-05	973.88	5.2575e-06	3.1272e-06	1043.4	209.05	4.4537e-06	2.9844e-06	264.66	74.61	59.109	17.159	4.1484e-06	23.673	0.00021709	0.00019697	5.0711e-05	968.24	2.1866e-06	1.9329e-06	1040.3	209.36	1.9865e-06	2.0661e-06	265.8	74.817	59.057	17.476	2.2598e-06	24.061	278.532	169.058	153.686	110.948	259.305	275.153	110.977	118.584	285.410	263.264	117.557	125.740	125.532	132.268	297.816	131.493	-8191	255	
50880.398	1	1	0	0	0.091979	0.12828	0.29442	0.10194	0.11723	0.15916	0.13771	0.12816	0.04234	0.01309	0.088588	0.10639	0.094908	0.2073	0.10724	0.15431	-4.5333	-4.1271	-5.0479	-4.7167	-4.2229	-5.1021	-4.3917	-4.6396	-5.0167	-4.0042	-5.0354	-4.65	-4.35	-5.2	-4.4229	-4.3375	152.559	293.004	287.632	268.917	101.445	406.464	383.572	139.288	401.164	239.781	350.583	374.776	335.204	190.828	285.847	179.533	0.00034707	0.00026209	1.9798e-05	976.15	3.8853e-06	3.7275e-06	1049.8	209.82	4.1937e-06	2.0982e-06	264	74.241	58.876	17.122	5.2444e-06	23.648	0.00022637	0.00020054	4.977e-05	968.97	2.2911e-06	2.1137e-06	1042.9	209.47	2.2637e-06	2.1281e-06	266.07	74.771	58.955	17.415	2.3113e-06	24.142	277.619	163.369	189.290	110.736	296.077	228.540	110.708	118.347	282.845	231.110	117.973	125.274	125.523	132.035	286.980	131.432	-8191	255	
50880.492	1	1	0	0	0.11724	0.15556	0.089158	0.03736	0.11092	0.03191	0.2268	0.18474	0.043518	0.11964	0.36343	0.049855	0.1784	0.17984	0.18156	0.23944	-4.7312	-3.9938	-4.9771	-4.9292	-4.0896	-5.2167	-4.5375	-4.5208	-4.9708	-4.1125	-4.9896	-4.9042	-4.1042	-5.1021	-4.5021	-4.4688	197.873	391.670	300.900	351.414	218.432	209.154	444.192	290.237	235.260	253.075	429.939	368.033	384.713	339.673	455.880	227.002	0.00035529	7.4596e-05	9.358e-06	974.36	3.8501e-06	4.5446e-06	1052.1	210.51	4.5489e-06	2.0565e-06	266.97	74.893	58.794	17.103	2.7816e-06	23.757	0.00022827	0.00022408	5.5984e-05	971.56	2.4636e-06	1.9528e-06	1045.3	210	2.2527e-06	2.2381e-06	266.71	75.136	59.012	17.409	2.2662e-06	24.189	277.414	168.260	233.850	110.650	284.472	235.172	111.042	118.460	309.185	271.206	117.779	125.306	125.749	132.468	292.520	131.373	-8191	255	
50880.590	1	1	0	0	0.20261	0.11897	0.015935	0.092466	0.1563	0.091509	0.24228	0.14313	0.06625	0.12626	0.054036	0.13903	0.22921	0.069855	0.25123	0.093958	-4.9167	-4.2354	-4.7354	-5.0167	-4.1875	-4.9521	-4.6542	-4.3438	-5.1521	-4.3521	-4.7562	-5.0083	-4.1354	-5.0667	-4.6146	-4.2708	291.067	143.867	216.711	112.025	388.604	289.774	349.962	197.618	331.704	370.769	163.777	142.855	112.387	126.167	430.775	410.378	0.0003412	0.00015224	6.885e-05	978.03	3.5121e-06	2.5966e-06	1058.2	209.27	2.8553e-06	2.7144e-06	265.43	74.918	59.22	17.083	2.8611e-06	23.562	0.00022914	0.00019808	5.7993e-05	973.44	2.4648e-06	2.1108e-06	1048	209.88	2.1937e-06	2.2429e-06	266.2	74.961	59.093	17.438	2.2812e-06	24.172	283.471	197.562	213.419	110.555	234.840	293.351	110.844	118.159	301.480	228.927	117.899	125.208	125.654	132.776	262.769	131.924	-8191	255	
50880.707	1	1	0	0	0.13449	0.098677	0.25514	0.30592	0.11931	0.15612	0.10888	0.15634	0.11358	0.12295	0.13559	0.20169	0.29052	0.091874	0.07098	0.33498	-4.8083	-4.3063	-4.5292	-5.2063	-3.9604	-4.9958	-4.7583	-4.125	-5.0833	-4.1417	-4.6771	-4.9021	-4.0542	-4.9625	-4.7583	-4.275	293.986	177.871	457.437	447.672	226.888	332.651	223.720	435.643	204.454	302.831	411.568	159.434	122.010	411.570	407.373	439.563	0.00036242	0.00020815	1.3797e-05	976.76	5.9448e-06	3.6225e-06	1053.3	210.44	4.2916e-06	3.0046e-06	268.8	75.262	58.786	16.871	3.4776e-06	23.697	0.00022675	0.00021968	5.5901e-05	973.82	2.4268e-06	2.3628e-06	1048.7	210.43	2.3907e-06	2.3516e-06	267.41	75.261	58.99	17.371	2.3023e-06	24.201	276.608	203.229	128.681	110.738	269.538	264.711	110.965	118.446	255.596	260.608	117.547	125.468	125.489	132.485	243.730	131.387	-8191	255	
50880.805	1	1	0	0	0.16368	0.17683	0.086608	0.12384	0.1864	0.29784	0.2684	0.091983	0.047255	0.083119	0.10844	0.32175	0.22207	0.14465	0.28533	0.073081	-4.7271	-4.1667	-4.4625	-5.2063	-4.0188	-4.8187	-4.8917	-4.3063	-5.0896	-4.4187	-4.3146	-5.2083	-4.2167	-4.7375	-4.7083	-4.05	349.640	335.890	211.259	173.068	412.182	120.139	445.175	273.344	343.067	190.166	369.554	421.699	440.660	327.954	354.840	102.181	0.00034562	0.0002386	0.00011408	986.57	5.9641e-06	3.9697e-06	1064.5	210.73	2.2036e-06	2.5052e-06	267.02	74.377	58.875	17.055	4.5487e-06	23.725	0.00023632	0.00021537	6.1231e-05	978.87	2.4972e-06	2.3271e-06	1052.6	210.8	2.443e-06	2.329e-06	267.53	75.014	59.161	17.434	2.3994e-06	24.199	279.645	176.024	223.834	110.722	259.615	238.258	110.819	118.245	293.289	155.512	117.916	125.467	125.545	132.454	245.501	131.731	-8191	255	
50880.898	1	1	0	0	0.16522	0.27158	0.079483	0.26697	0.15088	0.21216	0.17264	0.1664	0.23427	0.16792	0.10206	0.12283	0.34201	0.11408	0.058941	0.067977	-4.7729	-4.4812	-4.2479	-5.3313	-4.2	-4.7042	-5.15	-4.2167	-4.9	-4.5813	-4.4146	-5.1333	-4.3438	-4.7729	-4.9083	-4.0458	264.998	453.953	293.284	434.424	278.133	253.941	380.230	349.957	332.785	130.869	355.705	418.800	194.138	139.997	195.128	316.658	0.00035718	0.00018325	8.1583e-05	982.09	5.3771e-06	1.8308e-06	1060.2	211.72	5.2789e-06	1.8724e-06	266.63	74.591	58.8	17.074	2.8514e-06	23.556	0.0002455	0.00022254	6.3119e-05	978.33	2.6065e-06	2.3429e-06	1052.8	210.62	2.5865e-06	2.4101e-06	267.54	75.072	59.169	17.373	2.4344e-06	24.171	277.376	204.434	191.773	110.815	263.934	264.692	110.842	118.526	297.972	302.328	117.748	125.071	126.102	131.949	266.988	131.362	-8191	255	
50880.996	1	1	0	0	0.19277	0.24671	0.084338	0.16505	0.21116	0.26861	0.35065	0.13583	0.079784	0.13669	0.2262	0.30682	0.16649	0.055791	0.078929	0.22435	-4.7792	-4.7042	-4.1958	-5.2	-4.2396	-4.3771	-5.2333	-4.1687	-4.7708	-4.725	-4.2396	-5.1792	-4.4062	-4.4458	-5.0687	-4.075	322.466	252.629	376.542	363.480	429.571	237.959	430.158	447.342	272.622	379.561	104.680	258.447	101.809	454.731	379.151	362.360	0.00033021	0.00037344	5.7882e-05	983.93	4.2165e-06	4.0529e-06	1066.3	211.32	3.8611e-06	3.7164e-06	268.49	74.239	58.632	17.166	3.9152e-06	23.798	0.00024887	0.00022127	6.3343e-05	980.36	2.545e-06	2.4254e-06	1055.4	210.58	2.3969e-06	2.5079e-06	267.86	74.964	59.091	17.449	2.3849e-06	24.224	281.058	186.017	224.553	110.803	250.985	271.315	110.780	118.314	251.768	230.658	117.550	125.381	125.389	132.210	284.892	131.525	-8191	255	
50881.094	1	1	0	0	0.20335	0.092955	0.24985	0.036917	0.20155	0.19633	0.059336	0.16357	0.15069	0.088067	0.088554	0.097669	0.22491	0.11012	0.21839	0.19126	-4.4688	-4.7875	-4.1625	-5.1396	-4.3333	-4.3063	-5.0833	-4.1875	-4.875	-4.8583	-4.0021	-5.1042	-4.5854	-4.2646	-5.0896	-4.125	454.449	131.064	232.943	218.628	172.935	378.346	253.785	381.732	288.307	299.429	325.695	282.834	171.790	222.002	140.424	359.981	0.00035603	0.00030046	0.00010548	986.22	6.0402e-06	6.9826e-07	1055.5	210.92	5.3842e-06	2.4864e-06	265.83	74.917	59.025	16.967	2.8984e-06	23.702	0.00025213	0.00021378	6.1238e-05	981.58	2.5342e-06	2.3996e-06	1051.1	210.86	2.4731e-06	2.3755e-06	266.79	75.161	59.224	17.356	2.3913e-06	24.228	280.747	186.748	188.857	110.603	267.687	212.046	110.993	118.425	293.563	234.636	117.258	125.050	125.825	131.895	248.903	131.294	-8191	255	
50881.188	1	1	0	0	0.27201	0.0906	0.072396	0.30189	0.11871	0.12931	0.082477	0.11573	0.15531	0.10677	0.04488	0.12341	0.041843	0.13766	0.15031	0.1941	-4.3812	-4.9896	-4.1792	-5.0729	-4.5479	-4.2708	-5.3375	-4.3667	-4.6208	-5.0687	-4.3104	-5.0625	-4.6833	-4.2333	-5.2896	-4.3604	312.343	430.019	356.571	393.711	336.121	420.215	365.773	400.875	347.754	125.749	102.418	246.628	197.832	386.183	246.033	191.937	0.00035552	0.00038872	9.476e-05	987.85	4.8746e-06	1.9388e-06	1067	210.72	3.0583e-06	2.7973e-06	265.96	74.671	59.108	17.005	4.9156e-06	23.643	0.00025393	0.00021936	6.2339e-05	981.23	2.5616e-06	2.4879e-06	1054.5	210.93	2.476e-06	2.4126e-06	267.03	75.152	59.293	17.425	2.2566e-06	24.203	279.724	181.720	208.829	110.653	252.901	265.143	110.697	118.620	290.971	228.662	117.368	124.915	125.679	132.537	251.651	131.649	-8191	255	
50881.285	1	1	0	0	0.10682	0.2199	0.1294	0.14768	0.084687	0.053121	0.099536	0.21237	0.070269	0.24114	0.25679	0.15783	0.10246	0.18722	0.019491	0.1356	-4.2917	-5.0083	-4.1146	-5.0083	-4.6417	-4.0938	-5.3729	-4.4688	-4.4062	-4.9896	-4.3063	-4.7792	-4.8833	-3.9667	-5.0375	-4.4542	222.843	118.835	254.711	350.825	279.688	283.460	428.863	418.813	376.747	439.718	435.714	446.897	438.317	407.444	277.203	450.425	0.00036884	0.00019487	5.3069e-05	987.71	4.7546e-06	3.2277e-06	1058.4	212.14	4.8478e-06	4.0206e-06	267.2	74.203	59.262	17.212	3.5072e-06	23.853	0.00024961	0.00022095	6.3196e-05	981.64	2.4744e-06	2.4261e-06	1054.3	211.59	2.4959e-06	2.3186e-06	266.98	75.116	59.245	17.482	2.3584e-06	24.197	274.353	184.282	177.730	110.438	279.727	233.474	110.717	118.419	286.432	275.300	117.705	124.981	125.660	132.448	266.555	131.890	-8191	255	
50881.383	1	1	0	0	0.23333	0.25326	0.14801	0.092535	0.18227	0.17812	0.19811	0.064912	0.20787	0.20917	0.14632	0.10368	0.38791	0.12227	0.10791	0.10031	-4.1687	-5.0083	-4.1229	-4.7042	-4.9125	-4.1896	-5.1042	-4.6188	-4.25	-5.1521	-4.2	-4.7208	-4.9187	-4.1521	-4.95	-4.6833	416.996	182.584	287.050	429.609	172.893	196.938	431.499	412.361	222.706	381.645	123.785	119.365	459.370	420.664	352.654	254.798	0.00040443	0.00031681	9.379e-05	986.62	2.4588e-06	3.119e-06	1065.6	211.96	4.028e-06	2.285e-06	267.18	74.896	58.886	17.017	2.8864e-06	23.796	0.00025368	0.00021452	6.1807e-05	982.14	2.5649e-06	2.5413e-06	1056.7	210.73	2.5857e-06	2.2307e-06	268.37	75.133	59.177	17.417	2.3653e-06	24.213	277.110	196.824	228.746	110.633	239.076	262.961	110.664	118.422	292.479	231.747	118.014	125.084	126.027	132.339	259.347	131.372	-8191	255	
50881.500	1	1	0	0	0.13876	0.20306	0.23094	0.26806	0.15239	0.018736	0.036044	0.17132	0.11803	0.24024	0.055371	0.21067	0.064991	0.030583	0.11981	0.15711	-3.925	-5.0938	-4.2771	-4.6188	-4.975	-4.1188	-5.0625	-4.7375	-4.225	-5.0563	-4.4729	-4.5958	-5.1292	-4.0979	-4.7979	-4.7708	223.738	368.285	420.478	405.425	293.273	147.753	210.266	443.458	120.583	356.712	420.234	163.387	148.320	105.382	194.073	429.501	0.00037208	0.00025494	6.8737e-05	986.47	5.4832e-06	2.5954e-06	1062.7	213.03	6.4822e-06	2.5994e-06	266.2	74.625	59.226	16.945	3.4952e-06	23.721	0.00025189	0.00021537	6.2844e-05	980.26	2.4467e-06	2.4144e-06	1055.2	211.27	2.4402e-06	2.3023e-06	267.15	75.132	59.365	17.385	2.3032e-06	24.216	283.068	183.791	147.688	110.623	264.668	269.179	110.970	118.501	279.334	214.922	117.784	125.444	125.910	132.421	276.845	131.101	-8191	255	
50881.598	1	1	0	0	0.099749	0.15997	0.23961	0.095737	0.20224	0.12821	0.065023	0.11331	0.31068	0.17924	0.14378	0.19956	0.094071	0.21069	0.28923	0.14341	-3.8812	-5.0708	-4.2708	-4.6042	-4.9667	-4.1875	-4.9833	-4.7937	-4.2021	-4.9708	-4.5271	-4.5188	-5.0854	-4.1167	-4.6042	-4.9646	383.873	289.782	299.356	396.852	297.697	331.564	114.570	183.495	276.412	132.188	443.718	174.086	126.328	403.130	327.427	454.598	0.00037093	0.00038125	7.7291e-05	985.09	4.6033e-06	4.5295e-06	1068.7	210.75	3.1376e-06	2.9337e-06	267.11	74.456	59.059	17.06	2.701e-06	23.691	0.00024854	0.00020086	6.2051e-05	980.73	2.4465e-06	2.4272e-06	1056.8	210.85	2.5214e-06	2.1944e-06	267.96	75.17	59.148	17.465	2.2934e-06	24.211	281.639	183.891	185.591	110.416	266.885	274.831	110.557	118.254	275.728	222.697	117.788	125.026	125.651	132.672	280.426	131.615	-8191	255	
50881.668	1	1	0	0	0.25794	0.17328	0.17063	0.19533	0.057857	0.12917	0.18603	0.24856	0.26508	0.14504	0.25444	0.050394	0.045358	0.20619	0.18632	0.14954	-3.8104	-5.0167	-4.5104	-4.4625	-5.0104	-4.1937	-4.7917	-4.9958	-4.0437	-4.9896	-4.5687	-4.2854	-5.1833	-4.1937	-4.6479	-4.9396	344.884	288.549	279.376	390.066	164.236	417.052	329.298	401.069	209.069	162.094	359.054	415.235	367.143	422.038	151.801	256.103	0.00030938	0.00020706	8.343e-05	987.1	5.5949e-06	2.6411e-06	1063.7	211.57	5.7736e-06	2.5729e-06	267.04	74.907	59.592	17.308	3.5149e-06	23.795	0.00024626	0.00021712	6.0809e-05	980.74	2.4696e-06	2.4307e-06	1055.3	211.16	2.4277e-06	2.3303e-06	268.04	75.258	59.454	17.497	2.3015e-06	24.262	274.831	153.129	198.282	110.285	259.762	280.149	110.912	118.439	295.271	221.195	118.118	125.211	125.971	132.679	255.987	130.922	-8191	255	
50881.789	1	1	0	0	0.19431	0.23106	0.07903	0.099283	0.16012	0.10821	0.1827	0.18587	0.041482	0.074425	0.15954	0.17872	0.032624	0.17162	0.217	0.11959	-3.6875	-4.9292	-4.6396	-4.2688	-5.1708	-4.4	-4.6021	-5.0646	-3.9875	-4.8896	-4.8167	-4.2375	-5.1875	-4.3688	-4.3417	-5.0437	260.862	242.694	288.327	367.170	404.379	332.459	415.293	404.082	133.799	106.813	321.689	128.517	139.614	159.139	405.417	308.913	0.00032147	0.00040711	8.1503e-05	988.88	3.9315e-06	3.2953e-06	1063.1	211.76	3.3756e-06	2.4148e-07	265.86	75.189	59.075	17.152	2.6794e-06	23.635	0.00023725	0.00020692	5.9651e-05	981.52	2.3543e-06	2.2625e-06	1056.2	211.58	2.4607e-06	2.1657e-06	267.58	75.491	59.506	17.495	2.2834e-06	24.251	278.547	187.765	190.197	110.544	267.298	245.885	110.759	118.280	276.466	109.653	118.051	125.216	125.995	132.474	264.189	131.410	-8191	255	
50881.883	1	1	0	0	0.031385	0.15478	0.20943	0.10818	0.19603	0.054331	0.16791	0.19413	0.090553	0.18219	0.26422	0.096038	0.033516	0.069398	0.081048	0.050493	-3.7417	-4.7979	-4.7646	-4.1854	-5.0896	-4.4042	-4.5437	-5.1979	-4.0771	-4.6708	-4.8313	-4.2229	-5.0729	-4.5125	-4.4021	-5.0729	101.462	299.316	382.288	428.311	110.158	134.672	384.228	309.153	294.910	301.155	382.740	255.853	235.091	130.086	453.710	225.337	0.00038667	0.00034732	2.4559e-05	988.79	5.5368e-06	4.7768e-06	1069.6	211.89	7.2061e-06	4.6207e-06	266.2	74.791	58.973	17.161	3.1249e-06	23.784	0.00025051	0.00021084	5.7302e-05	982.08	2.3504e-06	2.382e-06	1058.4	211.62	2.2654e-06	2.358e-06	267.77	75.076	59.461	17.521	2.2836e-06	24.329	283.753	235.467	227.594	110.361	259.391	253.394	110.682	118.348	288.592	266.386	118.076	125.207	125.451	132.937	266.100	131.776	-8191	255	
50881.980	1	1	0	0	0.06208	0.17655	0.17842	0.092488	0.10528	0.29237	0.2404	0.11629	0.034144	0.07872	0.3131	0.033396	0.16049	0.072124	0.27	0.23256	-3.9292	-4.725	-5.0583	-4.2354	-4.9604	-4.6604	-4.3521	-5.125	-4.2604	-4.6417	-5.125	-4.1375	-4.8917	-4.6062	-4.1292	-5.2229	120.834	190.014	149.899	224.769	189.994	220.748	146.028	244.060	342.840	302.596	415.001	385.803	452.369	308.430	225.122	382.214	0.00034797	0.00020908	6.9435e-05	989.27	6.562e-06	2.0564e-06	1065.1	211.99	3.9874e-06	3.1833e-06	268.25	74.946	59.675	17.147	4.2467e-06	23.957	0.00024954	0.00020941	5.7788e-05	982.86	2.2455e-06	2.3501e-06	1059.7	211.48	2.2647e-06	2.3171e-06	268.36	75.291	59.586	17.547	2.2939e-06	24.324	278.555	164.930	217.034	110.437	262.386	250.017	110.522	118.753	290.762	226.000	117.861	125.258	125.481	132.595	257.814	131.921	-8191	255	
50882.102	1	1	0	0	0.081477	0.28069	0.13358	0.15983	0.18242	0.30092	0.089946	0.064075	0.047106	0.070675	0.23437	0.37133	0.045982	0.1546	0.096273	0.16584	-4.0792	-4.4625	-4.8479	-4.2479	-4.7979	-4.7688	-4.2771	-5.1937	-4.3542	-4.2354	-5.0687	-4.0708	-4.6771	-4.9479	-4.0458	-5.0875	192.214	427.044	419.048	427.444	192.332	231.031	408.490	404.923	251.061	397.329	423.274	180.833	105.369	175.691	120.706	227.377	0.00041477	0.00028074	0.00013049	985.27	4.4901e-06	3.6007e-06	1070.2	211.93	4.7392e-06	2.7048e-06	268.31	75.054	58.991	17.209	4.5378e-06	23.874	0.00024983	0.00020158	5.9977e-05	981.89	2.3836e-06	2.3672e-06	1061.5	212.1	2.3926e-06	2.3044e-06	268.91	75.367	59.268	17.556	2.3064e-06	24.371	278.387	206.418	173.986	110.308	275.823	268.650	110.559	118.523	279.400	243.446	117.478	124.858	125.552	132.363	269.646	131.627	-8191	255	
50882.195	1	1	0	0	0.20708	0.0088905	0.12749	0.21589	0.027632	0.19947	0.20033	0.079889	0.1275	0.11953	0.16128	0.12932	0.17029	0.090137	0.084229	0.030311	-4.1417	-4.1479	-5.1917	-4.3938	-4.625	-4.7937	-4.3021	-5.2083	-4.5333	-4.3562	-5.0917	-4.1729	-4.6375	-4.85	-4.1438	-5.0833	364.673	153.675	215.495	200.905	449.406	384.684	112.032	431.152	217.313	437.152	424.899	418.884	269.468	312.765	127.771	174.128	0.0004009	0.00031018	8.7418e-05	990.94	4.5104e-06	2.3153e-06	1069.6	211.56	4.7155e-06	2.3711e-06	269.32	75.329	58.985	17.32	4.6778e-06	23.953	0.00023965	0.00022233	5.6125e-05	985.18	2.5046e-06	2.1068e-06	1063	211.7	2.3682e-06	2.1781e-06	269.21	75.63	59.597	17.553	2.3469e-06	24.405	277.889	231.587	193.623	110.788	265.735	262.825	110.479	118.386	266.452	237.015	117.518	124.989	125.685	132.596	278.016	131.214	-8191	255	
50882.293	1	1	0	0	0.063242	0.08149	0.11133	0.22623	0.017234	0.13312	0.27601	0.19703	0.12891	0.17208	0.19573	0.12498	0.11251	0.015552	0.24271	0.060273	-4.3938	-4.1479	-4.9771	-4.4083	-4.5062	-4.9771	-4.2146	-5.1188	-4.5396	-4.1562	-5.3854	-4.3646	-4.5479	-4.9542	-4.1354	-4.875	456.067	438.024	183.024	454.275	369.526	115.854	379.337	287.616	397.473	225.133	410.930	376.561	201.766	204.622	337.648	301.684	0.00034535	0.0002054	6.7288e-05	994.32	6.7726e-06	2.2937e-06	1072.2	213.14	5.4842e-06	1.0506e-06	270.69	75.21	59.543	17.315	2.8932e-06	23.85	0.00023119	0.00021153	5.7731e-05	986.92	2.4909e-06	2.2196e-06	1064.2	212.43	2.4033e-06	2.251e-06	269.29	75.542	59.758	17.595	2.4092e-06	24.337	271.681	197.237	164.953	110.666	274.719	235.359	110.480	118.398	259.979	269.558	117.769	125.139	125.898	132.597	266.655	131.101	-8191	255	
50882.391	1	1	0	0	0.1719	0.042951	0.018541	0.14083	0.10834	0.092821	0.036882	0.26897	0.17533	0.10173	0.14949	0.10628	0.20093	0.078474	0.099134	0.21881	-4.6438	-4.0896	-5.1646	-4.5292	-4.2583	-5.0687	-4.3313	-4.9479	-4.8521	-4.2812	-5.2896	-4.4021	-4.1687	-5.1854	-4.1312	-4.8375	140.796	296.362	441.489	367.753	255.449	411.775	254.357	382.413	375.535	326.497	434.711	408.083	139.709	217.031	357.060	410.292	0.00031062	0.00025813	8.8517e-05	993.36	5.1578e-06	2.758e-06	1078.1	212.56	3.9616e-06	4.0004e-06	269.08	75.881	59.562	17.259	4.0532e-06	23.907	0.00023537	0.00021438	5.7648e-05	989.42	2.4893e-06	2.323e-06	1067.5	212.49	2.3302e-06	2.3595e-06	269.48	75.774	59.735	17.665	2.3606e-06	24.399	279.606	203.937	189.116	110.642	277.525	254.601	110.806	118.484	262.254	256.513	117.591	124.865	125.103	132.609	262.621	131.615	-8191	255	
50882.484	1	1	0	0	0.19411	0.34747	0.14914	0.1324	0.080908	0.2483	0.28566	0.30111	0.045205	0.088434	0.15271	0.1228	0.082247	0.10034	0.25667	0.15961	-4.8	-3.9979	-5.0854	-4.5646	-4.1875	-4.9125	-4.2937	-4.7708	-4.9958	-4.1125	-5.0542	-4.7729	-4.15	-5.0979	-4.3333	-4.7063	138.054	452.265	209.936	171.383	360.419	298.182	406.303	454.959	262.436	108.430	414.726	354.325	334.077	272.835	418.046	440.912	0.00035556	0.0001491	6.6039e-05	1000.4	3.7789e-06	2.9283e-06	1077.1	213.06	5.6762e-06	2.5622e-06	268.98	75.714	59.879	17.265	3.4492e-06	23.876	0.000235	0.0002174	5.6611e-05	989.68	2.4525e-06	2.1678e-06	1070.5	212.48	2.3111e-06	2.1806e-06	269.53	75.59	59.787	17.585	2.3086e-06	24.387	274.619	218.729	187.748	110.703	254.516	342.623	110.521	118.249	295.682	216.124	118.029	125.365	125.781	132.833	235.388	131.424	-8191	255	
50882.578	1	1	0	0	0.037599	0.1029	0.29354	0.14408	0.27924	0.27812	0.042125	0.2243	0.076182	0.24709	0.0092615	0.099411	0.17036	0.09192	0.076543	0.14736	-4.8792	-4.1083	-4.9625	-4.8875	-4.1438	-5.1312	-4.4375	-4.5458	-5.1312	-4.1896	-4.8604	-4.8979	-4.3208	-5.2625	-4.4792	-4.5938	346.844	118.635	458.771	158.352	283.421	423.872	157.888	423.394	391.206	300.766	354.414	215.837	375.343	329.722	137.024	149.499	0.00034651	0.00017872	9.9888e-05	997.88	5.1034e-06	2.3525e-06	1077.9	213.3	3.2067e-06	2.9341e-06	268.6	75.618	59.536	17.2	4.1479e-06	24.066	0.00022915	0.00022074	5.7097e-05	991.21	2.4069e-06	2.2735e-06	1069.2	212.55	2.3264e-06	2.4507e-06	269.11	75.621	59.732	17.55	2.4445e-06	24.451	277.658	159.344	198.223	110.855	269.876	287.587	110.609	118.231	294.090	244.797	117.303	125.482	125.911	132.611	272.383	131.541	-8191	255	
50882.676	1	1	0	0	0.098652	0.13748	0.32725	0.30547	0.17362	0.024912	0.22201	0.17923	0.12232	0.1366	0.04056	0.11929	0.031468	0.042894	0.13816	0.12382	-4.8104	-4.1125	-4.8292	-4.9979	-3.9875	-5.0896	-4.5813	-4.3771	-5.0563	-4.1354	-4.7708	-4.9833	-4.0958	-4.9104	-4.5229	-4.2979	204.899	214.137	128.750	424.075	113.499	149.350	403.993	119.816	164.420	198.380	117.554	153.690	210.251	336.481	249.985	394.402	0.00033792	0.00029665	6.4114e-05	1001.3	2.6382e-06	5.2772e-06	1079.6	214.05	4.5383e-06	3.1496e-06	267.89	75.436	59.199	17.235	3.4858e-06	23.804	0.00023725	0.00022134	5.9324e-05	993.57	2.5342e-06	2.3608e-06	1070.7	213.17	2.3414e-06	2.4487e-06	269.68	75.832	59.668	17.585	2.2871e-06	24.41	275.818	203.512	184.230	110.947	259.109	237.557	110.835	118.339	264.435	256.381	117.567	125.530	125.677	132.442	264.410	131.181	-8191	255	
50882.797	1	1	0	0	0.18754	0.21858	0.11784	0.14182	0.18304	0.19889	0.22663	0.19776	0.04427	0.26924	0.075738	0.18181	0.18828	0.1874	0.42201	0.26626	-4.9583	-4.2812	-4.5813	-5.0687	-4.0437	-4.9313	-4.6583	-4.3125	-4.9542	-4.2937	-4.5687	-4.9521	-4.0771	-4.9688	-4.6208	-4.1479	117.406	176.071	192.458	417.479	166.814	456.325	110.841	318.376	195.884	266.276	294.470	169.417	131.336	344.801	133.615	220.846	0.00032745	9.7154e-05	9.7921e-05	1003.9	5.2269e-06	2.7252e-06	1083.4	213.94	3.8198e-06	2.766e-06	272.55	75.212	59.47	17.222	4.4385e-06	23.921	0.00023644	0.00021917	5.9427e-05	997.35	2.5479e-06	2.4075e-06	1075.4	213	2.2341e-06	2.4162e-06	270.78	75.77	59.787	17.627	2.2858e-06	24.417	282.669	256.295	167.760	110.680	284.420	228.943	110.756	118.269	241.826	299.384	117.611	124.951	125.139	132.438	230.651	131.638	-8191	255	
50882.895	1	1	0	0	0.10569	0.19725	0.20674	0.15804	0.080154	0.262	0.058424	0.23145	0.15263	0.038948	0.16913	0.16025	0.19122	0.093207	0.20038	0.1179	-4.6396	-4.2833	-4.4771	-5.1292	-4.025	-5.1062	-4.8104	-4.3958	-5.1354	-4.4708	-4.4042	-5.1854	-4.1583	-4.7937	-4.9521	-4.3646	196.416	327.131	447.042	157.654	437.508	279.779	323.047	146.851	330.117	226.345	307.209	383.744	155.582	387.310	100.442	388.396	0.00036826	0.00018877	0.00010453	1004.9	5.3477e-06	2.8885e-06	1089	212.44	5.3926e-06	3.5182e-06	270.28	75.736	59.825	17.319	3.2143e-06	24.129	0.0002451	0.00022809	6.2524e-05	999.28	2.5788e-06	2.1913e-06	1079.8	213.29	2.4686e-06	2.4253e-06	270.65	76.008	60.102	17.667	2.4126e-06	24.546	281.495	185.394	192.498	110.816	253.890	240.094	110.845	118.356	311.021	256.864	117.638	124.646	125.809	133.061	244.958	131.278	-8191	255	
50882.965	1	1	0	0	0.05124	0.046506	0.12306	0.16785	0.13342	0.33908	0.10163	0.18979	0.12693	0.17813	0.25425	0.46222	0.19842	0.19027	0.17011	0.17381	-4.7896	-4.4688	-4.1708	-5.1312	-4.1813	-4.6271	-5.0896	-4.4187	-5.0146	-4.5917	-4.3896	-5.1875	-4.0875	-4.5917	-5.025	-4.1979	422.577	194.436	381.031	441.119	340.511	320.423	359.618	137.335	163.926	270.968	346.358	400.061	401.803	147.330	387.992	332.357	0.00037043	0.00010905	6.286e-05	1012.4	4.7621e-06	1.9209e-06	1086.9	214.28	5.5236e-06	1.4486e-06	271.18	75.894	59.851	17.429	4.8813e-06	24.152	0.00024825	0.00022495	6.111e-05	1002.1	2.6166e-06	2.3638e-06	1080.2	213.47	2.4308e-06	2.3534e-06	270.84	76.126	60.179	17.67	2.3592e-06	24.554	277.071	236.581	202.775	110.659	251.249	263.477	110.783	118.313	285.120	236.344	117.793	124.970	125.040	132.412	259.375	131.087	-8191	255	
50883.062	1	1	0	0	0.054994	0.1696	0.03293	0.044252	0.052546	0.18808	0.18411	0.26704	0.093081	0.14745	0.23818	0.20123	0.1082	0.092971	0.12144	0.049636	-4.6875	-4.5437	-4.1875	-5.2438	-4.2688	-4.575	-5.1917	-4.2792	-5.0062	-4.7812	-4.0833	-5.2854	-4.3854	-4.4104	-5.0667	-4.1354	333.033	322.160	285.074	134.988	388.942	321.586	399.149	113.513	119.797	202.668	421.362	381.587	229.402	142.506	331.492	368.226	0.00033338	0.0002489	8.9554e-05	1009.6	6.7563e-06	2.0714e-06	1095.1	213.67	5.0263e-06	2.8356e-06	270.94	74.949	59.277	17.41	3.4589e-06	23.988	0.00023573	0.00023735	6.2684e-05	1005.4	2.6944e-06	2.395e-06	1083.2	213.54	2.5544e-06	2.3679e-06	271.49	76.005	59.854	17.695	2.2542e-06	24.534	282.084	188.308	186.345	110.607	262.443	262.613	110.969	118.317	289.161	243.536	117.400	125.108	125.504	132.445	287.716	131.860	-8191	255	
50883.180	1	1	0	0	0.043642	0.061075	0.062496	0.12965	0.12734	0.021384	0.087945	0.2409	0.20845	0.2267	0.22206	0.14514	0.20497	0.076061	0.20777	0.2066	-4.5458	-4.6813	-4.2229	-5.0771	-4.4313	-4.2312	-5.0979	-4.2083	-4.7167	-4.7833	-4.1792	-4.9354	-4.4875	-4.2708	-5.0396	-4.2354	227.348	314.173	100.478	405.134	247.436	103.565	333.096	408.115	282.791	233.103	127.221	253.484	437.827	212.187	382.267	137.865	0.00035992	0.00025008	7.308e-05	1010.3	3.7164e-06	4.7989e-06	1093.2	213.85	7.0256e-06	1.0475e-06	271.86	76.08	59.849	17.355	2.9264e-06	24.23	0.00025068	0.00020773	6.3516e-05	1004.6	2.4895e-06	2.3955e-06	1082.4	213.66	2.4452e-06	2.2698e-06	271.27	76.26	60.248	17.668	2.2562e-06	24.612	278.091	187.046	201.261	110.758	253.876	273.702	110.552	118.324	259.188	310.326	117.328	124.844	125.496	132.464	270.934	131.689	-8191	255	
50883.277	1	1	0	0	0.13635	0.044548	0.14493	0.10673	0.060791	0.24894	0.46576	0.24971	0.024941	0.15256	0.17923	0.10556	0.065949	0.10452	0.21562	0.26112	-4.475	-4.8812	-4.1396	-5.25	-4.4125	-4.1208	-5.2583	-4.3104	-4.7375	-5.0771	-4.0583	-4.9292	-4.6583	-4.4104	-5.0458	-4.3375	152.128	116.973	253.403	459.223	119.499	269.083	419.158	421.963	307.967	268.960	354.968	125.608	126.467	218.460	211.138	130.422	0.00035286	0.00027298	8.4486e-05	1006.5	4.6029e-06	2.4473e-06	1089.1	214.96	6.4352e-06	3.1105e-06	269.9	75.719	60.341	17.325	3.2374e-06	23.995	0.00024124	0.00020068	5.9888e-05	1001.1	2.5781e-06	2.325e-06	1081.7	213.97	2.4057e-06	2.294e-06	270.6	76.038	60.103	17.658	2.2324e-06	24.52	278.276	207.408	185.480	110.399	277.750	241.609	110.762	118.419	268.230	255.817	118.198	125.356	125.384	132.664	258.122	131.187	-8191	255	
50883.375	1	1	0	0	0.14168	0.10732	0.15852	0.066032	0.082385	0.089639	0.051365	0.068851	0.095046	0.13775	0.14938	0.025479	0.16179	0.12727	0.038415	0.17335	-4.2312	-5.0104	-4.025	-4.8458	-4.6292	-4.2958	-5.4062	-4.3896	-4.5062	-4.8875	-4.2521	-4.9896	-4.75	-4.1625	-5.0437	-4.4292	303.843	283.772	118.805	448.892	346.499	185.919	210.674	124.015	187.516	285.575	449.363	379.639	167.158	144.143	114.973	397.574	0.0003209	0.00032012	3.5026e-05	1009.2	4.929e-06	2.3412e-06	1080.6	213.62	2.0871e-06	2.6028e-06	269.06	75.418	59.884	17.243	3.8901e-06	23.96	0.00024604	0.00020823	6.1558e-05	1001	2.4943e-06	2.2916e-06	1078.3	212.88	2.3003e-06	2.1156e-06	270.46	76.017	59.865	17.656	2.1456e-06	24.585	277.184	160.086	168.601	110.555	282.553	266.048	110.811	118.556	264.815	235.976	118.080	125.049	125.268	132.030	279.920	132.029	-8191	255	
50883.469	1	1	0	0	0.085326	0.10491	0.13483	0.18366	0.22766	0.14584	0.21264	0.16564	0.19368	0.39955	0.16639	0.099097	0.15294	0.1226	0.08774	0.11979	-4.1646	-5.1208	-4.0437	-4.8917	-4.9458	-4.0125	-5.2396	-4.6146	-4.3	-4.9521	-4.1312	-4.6854	-4.8979	-4.2521	-5.0563	-4.5646	130.168	186.982	147.879	291.511	282.844	148.259	341.879	436.613	241.803	195.058	445.474	211.400	133.252	283.706	352.346	391.565	0.00034091	0.0003059	4.3093e-05	999.68	4.1849e-06	4.057e-06	1093.2	214.63	3.9696e-06	3.4567e-06	269.48	75.161	59.209	17.268	3.7818e-06	24.063	0.00024633	0.00020591	6.1526e-05	997.54	2.4323e-06	2.2056e-06	1078.5	213.46	2.2339e-06	2.0564e-06	270.22	75.8	59.956	17.607	2.1745e-06	24.484	280.720	211.009	200.488	110.667	253.013	261.682	110.820	118.354	257.153	279.499	117.827	124.938	125.541	132.000	252.599	131.450	-8191	255	
50883.562	1	1	0	0	0.18475	0.11471	0.02372	0.039757	0.22901	0.14138	0.10676	0.15615	0.15634	0.14834	0.16848	0.1109	0.28424	0.076297	0.080134	0.08212	-3.9896	-5.0563	-4.2188	-4.8521	-5.0104	-4.1583	-5.1333	-4.7646	-4.2771	-5.2042	-4.4833	-4.5979	-4.9812	-4.1646	-4.8979	-4.7396	369.996	156.232	411.681	287.602	230.305	410.841	162.551	456.587	347.113	119.662	171.567	132.136	292.901	131.257	237.544	436.568	0.0003624	0.00021089	0.00010631	1000.2	3.9963e-06	3.67e-06	1080.1	213.84	3.2255e-06	2.7366e-06	270.47	75.398	60.312	17.185	2.9711e-06	24.024	0.0002329	0.0001934	5.5581e-05	996.11	2.2265e-06	2.1119e-06	1074.1	213.37	2.2688e-06	2.1275e-06	270.21	75.713	59.987	17.595	2.1563e-06	24.564	282.233	149.294	215.194	110.870	270.867	288.197	110.902	118.282	278.955	225.466	118.014	125.173	125.494	132.452	266.853	131.491	-8191	255	
50883.660	1	1	0	0	0.086157	0.27677	0.11212	0.18153	0.035019	0.10872	0.2098	0.34901	0.049473	0.060179	0.20921	0.25867	0.2105	0.30416	0.10958	0.10791	-3.8271	-5.0083	-4.2917	-4.4458	-5.0083	-3.9604	-4.9354	-4.9646	-4.1333	-5.1792	-4.5729	-4.4354	-5.1542	-4.1062	-4.7146	-4.8417	320.955	135.884	284.950	394.837	441.047	157.592	369.225	103.002	246.390	433.013	361.279	421.523	347.999	434.009	271.291	216.051	0.00034895	0.00023943	3.4358e-05	999.4	2.3579e-06	3.5019e-06	1080.4	212.93	5.9456e-06	4.5306e-07	269.4	75.342	59.816	17.314	5.1657e-06	23.941	0.00022494	0.00018762	5.5056e-05	993.72	2.3228e-06	2.1198e-06	1072.7	213.24	2.3565e-06	1.8994e-06	270.03	75.882	59.913	17.641	2.0063e-06	24.543	278.349	183.397	184.331	110.427	280.649	266.349	110.809	118.500	278.155	371.965	117.489	125.475	125.527	132.257	285.259	131.997	-8191	255	
50883.781	1	1	0	0	0.21221	0.095148	0.10462	0.23931	0.067037	0.2276	0.10278	0.20264	0.26023	0.13648	0.31636	0.061131	0.089285	0.12216	0.052702	0.20624	-3.8354	-5.0167	-4.5292	-4.3917	-5.1542	-4.1521	-4.8333	-4.9563	-4.0542	-5.0417	-4.5104	-4.3896	-4.9688	-4.125	-4.6375	-4.9333	176.478	178.414	295.494	137.724	295.564	163.007	118.065	413.375	291.561	148.770	435.432	430.557	366.602	339.980	152.952	139.695	0.00034251	0.0001859	7.1391e-05	999.26	4.3377e-06	3.8932e-06	1087.5	212.53	4.9367e-06	2.4971e-06	270.62	75.577	60.088	17.277	2.7822e-06	24.227	0.00022796	0.00018007	5.5472e-05	994.94	2.1842e-06	2.2188e-06	1073.9	213.21	2.3008e-06	2.0125e-06	270.52	76.12	60.033	17.632	2.1009e-06	24.647	274.102	181.980	201.808	110.658	271.533	238.774	110.579	118.603	283.945	217.747	117.644	125.283	125.326	132.127	201.778	132.355	-8191	255	
50883.879	1	1	0	0	0.17519	0.25275	0.15645	0.24096	0.15264	0.15718	0.14687	0.056724	0.07034	0.058096	0.21182	0.2357	0.45788	0.2309	0.20292	0.045897	-3.85	-5.0375	-4.8063	-4.4938	-5.15	-4.2167	-4.6542	-5.075	-3.9188	-4.9062	-4.8063	-4.1583	-5.1271	-4.0979	-4.4333	-5.2104	215.448	420.389	291.907	342.652	271.440	408.482	116.474	359.791	187.966	192.835	451.530	367.955	125.363	349.451	369.984	425.389	0.00037174	0.00019878	9.6085e-05	998.02	4.5266e-06	2.7169e-06	1083.1	212.92	4.8687e-06	4.0006e-06	268.31	75.288	59.552	17.281	4.4446e-06	24.232	0.0002348	0.0001858	5.4781e-05	993.22	2.2361e-06	2.2127e-06	1072.3	212.79	2.2477e-06	2.0648e-06	270.21	75.81	60.031	17.657	2.0205e-06	24.619	280.730	175.974	203.854	110.734	277.269	205.956	110.604	118.345	283.962	231.244	117.831	125.241	125.929	132.009	264.187	131.295	-8191	255	
50883.973	1	1	0	0	0.069738	0.17419	0.17497	0.12215	0.023053	0.11421	0.15912	0.15326	0.10605	0.19894	0.21853	0.1629	0.35837	0.18343	0.15559	0.047855	-3.8104	-4.7604	-4.7271	-4.2604	-5.0875	-4.3021	-4.5271	-5.2937	-4.1562	-4.7771	-4.9729	-4.2417	-5.0417	-4.3896	-4.3458	-5.2583	162.019	138.565	180.377	448.523	141.089	446.527	301.356	340.534	406.477	176.534	366.951	364.130	129.773	347.977	275.269	139.572	0.00035536	0.00031865	4.5025e-05	999.05	3.6308e-06	2.2574e-06	1077.4	213.26	5.6036e-06	1.1793e-06	268.72	74.807	60.11	17.393	3.3154e-06	24.206	0.00023133	0.0001899	5.3872e-05	992.8	2.1268e-06	2.1045e-06	1071.5	213.45	2.313e-06	2.1115e-06	270.29	75.729	60.042	17.695	2.1213e-06	24.714	283.170	203.104	233.878	110.692	257.146	262.014	110.649	118.450	279.006	275.946	117.721	125.065	125.636	132.512	231.256	131.804	-8191	255	
50884.070	1	1	0	0	0.093185	0.13591	0.063165	0.11066	0.16376	0.20173	0.19204	0.32792	0.11959	0.16675	0.23046	0.11469	0.15027	0.083598	0.054562	0.1024	-4.0646	-4.7542	-4.9958	-4.2104	-5.0375	-4.4167	-4.3521	-5.0875	-4.2854	-4.8271	-4.9917	-4.0354	-5.0167	-4.8542	-4.3104	-5.1167	256.887	126.531	206.192	447.551	426.052	455.572	379.091	418.889	203.341	425.408	402.558	228.751	307.916	162.566	422.299	410.102	0.00036254	0.00030247	0.00010047	999.34	4.5343e-06	3.4587e-06	1077	213.18	5.7398e-06	2.1111e-06	270.6	75.363	59.302	17.202	2.3575e-06	24.15	0.00022813	0.00019439	5.3622e-05	993.69	2.2589e-06	2.0863e-06	1070.5	213.23	2.2635e-06	2.0335e-06	270.1	75.992	59.722	17.623	2.2223e-06	24.629	276.491	172.378	210.091	110.478	275.325	275.525	110.659	118.236	297.145	266.336	117.936	125.311	125.433	132.308	267.373	131.816	-8191	255	
50884.191	1	1	0	0	0.23036	0.19658	0.072045	0.13177	0.24236	0.12625	0.24159	0.25922	0.11382	0.3576	0.031359	0.10053	0.062637	0.21254	0.27346	0.09465	-4.025	-4.5938	-5.05	-4.2375	-4.9125	-4.7729	-4.4229	-5.1479	-4.3417	-4.6333	-5.2229	-4.225	-4.8396	-4.925	-4.2312	-5.1792	128.642	341.350	103.448	452.509	327.252	339.217	407.392	342.745	347.212	228.962	158.802	403.566	329.557	439.486	238.964	284.724	0.00034142	0.00031286	9.4873e-05	1004.8	5.1688e-06	3.2601e-06	1077.8	211.78	1.5645e-06	4.0831e-06	269.51	75.346	59.702	17.055	3.8383e-06	24.047	0.00023378	0.00019999	5.4678e-05	993.72	2.3382e-06	2.1216e-06	1071.6	212.44	2.1693e-06	2.1895e-06	270.08	75.881	60.128	17.647	2.1662e-06	24.577	274.630	196.542	196.952	110.612	272.300	214.364	110.772	118.247	243.914	271.921	117.633	125.108	125.691	132.807	264.022	131.617	-8191	255	
50884.262	1	1	0	0	0.28562	0.36775	0.23143	0.13772	0.052468	0.1058	0.081611	0.20661	0.28651	0.22624	0.13178	0.12072	0.30332	0.11536	0.085334	0.038517	-4.1292	-4.3833	-5.1562	-4.2208	-4.8458	-4.825	-4.3729	-5.3208	-4.4125	-4.3812	-5.1958	-4.2167	-4.5208	-4.9083	-4.0583	-4.9667	315.265	221.353	439.775	429.366	157.064	333.231	148.286	340.076	295.070	414.208	444.535	139.031	414.555	324.557	161.325	240.721	0.00034322	0.00016577	0.00011492	999.4	2.189e-06	2.048e-06	1083.7	213.22	4.5369e-06	3.4653e-06	269.61	75.657	59.745	17.276	2.8334e-06	24.193	0.00023637	0.00020017	5.0282e-05	994.97	2.3144e-06	2.0542e-06	1073	213.45	2.2554e-06	2.1458e-06	270.21	75.964	60.155	17.656	2.289e-06	24.687	285.477	114.346	192.831	110.531	270.635	317.487	110.713	118.492	262.365	259.538	117.507	125.137	125.688	132.776	283.355	131.327	-8191	255	
50884.359	1	1	0	0	0.035097	0.2542	0.15341	0.18317	0.15196	0.094665	0.11569	0.16055	0.19481	0.12394	0.19798	0.08545	0.074654	0.041369	0.060671	0.10221	-4.1958	-4.2104	-5.0583	-4.3417	-4.5062	-5.0437	-4.2667	-5.0917	-4.6292	-4.325	-5.2708	-4.2729	-4.5188	-5.0479	-3.9688	-5.0146	150.338	229.581	318.209	455.572	131.368	376.543	115.515	169.130	449.896	293.406	115.883	405.472	120.066	309.921	268.117	301.748	0.00035836	0.00022144	6.2748e-05	999.42	2.6836e-06	4.1891e-06	1086.3	214	3.9007e-06	3.096e-06	272.16	75.884	59.604	17.311	2.9574e-06	24.153	0.00023673	0.00021372	5.1427e-05	996.22	2.3473e-06	2.1412e-06	1076.5	213.73	2.2379e-06	2.2238e-06	270.59	76.208	60.188	17.745	2.3336e-06	24.653	278.542	190.249	187.932	110.673	265.359	264.007	110.683	118.264	281.620	266.193	117.779	125.282	125.350	132.364	249.311	131.821	-8191	255	
50884.477	1	1	0	0	0.26242	0.14514	0.1365	0.19027	0.21894	0.093669	0.064361	0.077012	0.12688	0.18387	0.20515	0.15996	0.095082	0.087345	0.24767	0.08253	-4.5458	-4.2042	-5.1771	-4.4187	-4.4375	-4.8854	-4.2771	-4.8646	-4.7979	-4.1396	-5.1583	-4.3958	-4.3583	-5.1271	-4.1521	-4.8604	363.115	297.459	307.479	425.976	101.121	220.720	379.242	401.813	434.287	411.327	127.096	176.246	403.301	324.868	423.625	413.944	0.00037117	0.00023618	8.8088e-05	1003.9	4.1275e-06	3.5976e-06	1081.6	213.4	4.3992e-06	2.1596e-06	270.67	75.985	60.1	17.317	1.0761e-06	24.048	0.00022993	0.00021321	5.2816e-05	999.03	2.403e-06	2.1073e-06	1075.9	213.39	2.3479e-06	2.2144e-06	270.85	76.34	60.148	17.732	2.4011e-06	24.619	283.560	197.449	219.472	110.854	285.377	295.710	111.003	118.512	244.834	227.222	118.028	125.476	125.152	132.245	131.907	131.449	-8191	255	
50884.574	1	1	0	0	0.12336	0.094618	0.11871	0.15673	0.038136	0.10741	0.16911	0.017792	0.26821	0.082545	0.11253	0.067425	0.096731	0.080153	0.32757	0.073624	-4.5229	-4.1354	-4.9646	-4.5833	-4.4333	-5.0854	-4.3625	-4.8458	-4.8938	-4.225	-4.9646	-4.5583	-4.4083	-5.1958	-4.25	-4.7458	228.077	382.550	160.662	378.854	157.223	405.631	399.638	110.849	452.989	358.526	323.375	280.857	406.090	430.028	365.488	159.088	0.00035461	0.00029592	6.7664e-05	1004.4	6.0294e-06	2.8486e-06	1087.7	213.53	3.3408e-06	1.2067e-06	269.06	75.776	59.87	17.444	2.5087e-06	24.229	0.00023746	0.00021869	5.5203e-05	998.58	2.2861e-06	2.1052e-06	1078.9	213.83	2.2224e-06	2.2688e-06	270.81	76.229	60.192	17.72	2.1161e-06	24.806	276.060	159.648	230.931	110.551	274.510	219.404	110.612	118.337	245.325	237.816	117.849	125.385	125.695	132.268	253.849	131.784	-8191	255	
50884.668	1	1	0	0	0.035149	0.25333	0.13733	0.092416	0.16839	0.092135	0.14277	0.16261	0.20088	0.096807	0.24852	0.17921	0.10509	0.1633	0.027049	0.19284	-4.7208	-4.0333	-5.075	-4.7958	-4.1667	-5.1625	-4.3688	-4.4708	-5.0687	-4.1833	-4.975	-4.8771	-4.2396	-5.0729	-4.2812	-4.5021	306.578	297.099	173.042	378.260	396.759	205.131	423.139	352.155	203.745	230.566	450.940	143.243	274.196	179.506	180.115	177.907	0.00034791	0.0001633	0.00011439	1002.5	4.3947e-06	4.4146e-06	1086.8	214.41	4.9615e-06	4.1068e-06	272.56	76.196	60.111	17.443	3.5423e-06	24.259	0.00022649	0.00020777	5.4761e-05	997.98	2.2654e-06	2.0378e-06	1078.1	213.94	2.2128e-06	2.0999e-06	271.17	76.391	60.234	17.789	2.1872e-06	24.799	280.207	192.461	189.102	110.653	274.263	252.255	110.731	118.213	281.559	227.808	117.674	125.174	125.520	132.349	258.202	131.488	-8191	255	
50884.766	1	1	0	0	0.16717	0.024788	0.15145	0.36052	0.15139	0.105	0.26713	0.11765	0.14287	0.14672	0.20677	0.15327	0.096875	0.099399	0.083081	0.34247	-4.8333	-4.0708	-4.9208	-4.9521	-4.2083	-5.0625	-4.5958	-4.4667	-5.0479	-4.0563	-4.9167	-4.975	-4.0208	-4.9917	-4.4167	-4.3167	129.003	262.692	194.490	123.225	172.101	141.003	429.907	368.335	213.994	313.317	197.801	160.208	259.948	326.265	228.522	367.236	0.0003772	0.00019041	5.7025e-05	1007	5.6516e-06	4.2303e-06	1082.7	213.35	4.3316e-06	4.2668e-06	271.1	76.007	60.191	17.555	2.5498e-06	24.206	0.0002309	0.00020549	5.4761e-05	999.9	2.4343e-06	2.0442e-06	1078.1	213.14	2.1442e-06	2.2259e-06	271.16	76.421	60.32	17.831	2.2135e-06	24.78	277.762	182.208	195.658	110.721	256.424	285.383	110.884	118.418	273.736	228.138	117.607	125.226	125.510	132.706	241.693	131.621	-8191	255	
50884.859	1	1	0	0	0.15181	0.097646	0.085837	0.16626	0.31506	0.063357	0.067735	0.16984	0.15691	0.13486	0.21189	0.17534	0.15105	0.074903	0.14869	0.15955	-4.8938	-4.2958	-4.7583	-5.1292	-4.1146	-4.8854	-4.6854	-4.3875	-5.0396	-4.3375	-4.6875	-5.1146	-4.1104	-5.0437	-4.6	-4.1896	255.891	416.693	321.459	251.081	166.734	351.877	393.493	426.754	437.056	314.448	457.441	405.274	432.236	423.472	324.197	418.806	0.00031437	0.00023681	8.5355e-05	1006.9	5.5022e-06	3.3934e-06	1086.6	214.08	4.3105e-06	3.0046e-06	268.13	75.829	59.946	17.429	1.5069e-06	24.449	0.00021546	0.00019741	5.1958e-05	999.14	2.3127e-06	1.9865e-06	1078.5	213.61	2.198e-06	2.3173e-06	270.33	76.396	60.324	17.785	2.1129e-06	24.924	275.584	136.473	212.967	110.583	280.936	269.395	110.875	118.367	272.618	265.753	117.387	124.751	125.419	132.222	251.937	131.246	-8191	255	
50884.957	1	1	0	0	0.16324	0.052833	0.17101	0.20279	0.10984	0.14005	0.23877	0.11915	0.13792	0.053277	0.080544	0.087258	0.23431	0.13943	0.11103	0.16131	-4.8292	-4.3042	-4.5792	-5.3958	-4.1	-4.9938	-4.8896	-4.1813	-5.0854	-4.5062	-4.5292	-5.1104	-4.1167	-4.9333	-4.8167	-4.2312	208.103	117.436	272.144	446.231	112.344	161.151	318.444	318.246	218.466	452.953	399.857	280.959	167.098	121.292	160.100	112.676	0.00036453	0.00019323	7.8299e-05	999.21	5.1907e-06	2.4684e-06	1083	213.39	6.5597e-06	2.0122e-06	271.15	75.714	59.61	17.348	3.6153e-06	24.459	0.00023207	0.00021028	5.5414e-05	998.96	2.4484e-06	2.143e-06	1078.7	213.53	2.2331e-06	2.0435e-06	270.87	76.362	60.126	17.755	2.1868e-06	24.96	278.069	185.587	195.250	110.871	261.297	238.717	110.788	118.083	284.595	259.657	117.683	124.582	125.247	132.709	255.468	131.334	-8191	255	
50885.055	1	1	0	0	0.12618	0.15448	0.084125	0.1205	0.15335	0.037207	0.1136	0.14406	0.14318	0.089988	0.12272	0.090144	0.19472	0.21509	0.21078	0.10998	-4.825	-4.4583	-4.5813	-5.2312	-4.2188	-4.7896	-5.1042	-4.2375	-5.0125	-4.5896	-4.4771	-5.1833	-4.25	-4.7104	-4.8646	-4.1771	249.838	339.496	141.006	132.178	269.439	280.479	416.706	374.064	270.871	147.215	265.482	211.700	349.189	410.163	339.470	131.987	0.00036741	0.00020291	9.395e-05	1006.8	4.5692e-06	2.7314e-06	1089.2	214.26	3.2808e-06	4.1458e-06	270.82	76.202	59.517	17.38	4.3544e-06	24.431	0.00023143	0.00020577	5.352e-05	1000	2.3137e-06	2.2671e-06	1079.5	214.05	2.1911e-06	2.1303e-06	271.29	76.399	60.119	17.776	2.2253e-06	24.869	275.237	190.770	189.636	110.704	266.895	240.371	110.617	118.284	276.205	266.616	117.771	125.040	125.397	132.311	273.094	131.773	-8191	255	
50885.148	1	1	0	0	0.14676	0.10489	0.15989	0.1717	0.055016	0.28925	0.075351	0.13078	0.15596	0.15838	0.12094	0.18767	0.098778	0.10221	0.15507	0.2006	-4.7583	-4.5896	-4.2354	-5.1958	-4.2229	-4.7479	-5.1167	-4.1667	-4.8917	-4.7625	-4.15	-5.2771	-4.2646	-4.45	-5.0437	-4.2729	118.244	126.620	326.349	136.158	201.853	414.455	336.797	429.634	168.133	142.796	336.323	132.341	145.099	272.354	148.737	221.502	0.00037522	0.00033889	7.0131e-05	1001	4.4552e-06	4.2453e-06	1088	212.87	5.3765e-06	5.2701e-06	271.04	76.617	60.16	17.318	1.046e-06	24.428	0.00023245	0.00019478	5.6182e-05	1000.1	2.3185e-06	2.13e-06	1078.6	213.32	2.3577e-06	2.1865e-06	270.89	76.502	60.208	17.77	2.0992e-06	24.851	279.239	197.241	174.220	110.505	265.523	263.103	110.699	118.383	268.719	265.189	117.861	125.190	125.584	132.477	259.183	131.432	-8191	255	
50885.270	1	1	0	0	0.13378	0.1026	0.12204	0.032193	0.20247	0.14027	0.22422	0.15876	0.11292	0.13862	0.081004	0.08759	0.089888	0.057468	0.10308	0.28822	-4.5979	-4.9062	-4.1979	-5.2937	-4.425	-4.5563	-5.3208	-4.1604	-4.9042	-4.9646	-4.2167	-5.1583	-4.325	-4.4667	-5.2312	-4.1854	203.765	270.326	310.928	391.323	298.600	451.458	372.947	402.929	400.175	121.882	332.469	153.747	107.470	373.379	103.068	364.466	0.00036644	0.00026825	9.224e-05	999.07	3.2139e-06	5.3838e-06	1088.8	212.15	4.083e-06	1.8512e-06	270.93	75.653	59.939	17.438	2.8544e-06	24.381	0.00023784	0.00019637	5.3424e-05	997.88	2.4667e-06	2.289e-06	1077.8	213.45	2.176e-06	2.1484e-06	270.34	76.17	60.199	17.82	2.0563e-06	24.83	275.706	174.294	185.680	110.670	277.099	252.027	110.765	118.351	267.111	278.080	117.454	125.754	125.824	132.448	268.349	131.578	-8191	255	
50885.363	1	1	0	0	0.060703	0.178	0.15145	0.093659	0.17834	0.17605	0.33234	0.21382	0.15002	0.030818	0.29246	0.12892	0.15966	0.20928	0.21498	0.15683	-4.4833	-4.9979	-4.1708	-5.0979	-4.5542	-4.4854	-5.2625	-4.1687	-4.6937	-4.9875	-4.1813	-5.0604	-4.6896	-4.3375	-4.9958	-4.4646	417.809	125.680	298.164	104.845	405.060	135.678	442.013	448.527	301.168	316.499	372.069	136.214	333.444	452.435	294.570	415.261	0.00037178	8.4058e-05	5.0638e-05	1000.3	3.0112e-06	4.6057e-06	1088.3	213.92	4.4397e-06	3.3731e-06	271.17	75.722	60.262	17.432	5.2401e-06	24.587	0.00023991	0.00020464	5.6304e-05	997.91	2.4066e-06	2.2288e-06	1077.3	213.84	2.3398e-06	2.0884e-06	271.01	76.277	60.269	17.793	2.0634e-06	24.962	279.600	142.634	237.558	110.791	268.442	287.195	110.746	118.368	275.292	217.581	118.043	125.211	125.587	132.243	252.033	131.211	-8191	255	
50885.465	1	1	0	0	0.11756	0.029476	0.13452	0.14747	0.20901	0.18168	0.14799	0.20225	0.025121	0.05219	0.22631	0.30499	0.21755	0.077919	0.18776	0.17164	-4.4333	-5.0792	-3.975	-5.0958	-4.7063	-4.2375	-5.2792	-4.4104	-4.5833	-5.0667	-4.0604	-4.9958	-4.8375	-4.1667	-5.2917	-4.3625	428.746	322.702	410.959	402.722	459.676	113.193	403.386	200.594	263.618	394.531	369.362	293.768	441.053	285.285	223.868	294.830	0.00039296	0.00028955	7.699e-05	1005.7	4.2715e-06	3.3091e-06	1092	214.22	2.3242e-06	2.4069e-06	270.59	76.579	60.136	17.445	3.2119e-06	24.401	0.00023083	0.00019589	5.5133e-05	998.64	2.3014e-06	2.1869e-06	1078.5	213.59	2.2386e-06	2.0208e-06	270.87	76.461	60.206	17.857	1.943e-06	24.884	275.942	176.648	185.499	110.719	262.073	260.943	110.758	118.484	256.748	220.222	117.761	125.057	125.298	132.338	275.490	131.553	-8191	255	
50885.559	1	1	0	0	0.06622	0.15147	0.13449	0.15815	0.30368	0.11296	0.20769	0.1321	0.20552	0.12083	0.063063	0.14734	0.27243	0.046657	0.16206	0.030763	-4.0333	-5.0333	-4.0958	-4.9854	-4.8042	-4.1396	-5.1937	-4.5125	-4.3875	-5.1	-4.2333	-4.7854	-5.0229	-4.0646	-5.1208	-4.4167	151.748	260.807	319.838	450.077	168.587	347.911	404.397	199.997	273.730	235.467	333.405	322.261	409.950	393.509	412.687	441.108	0.0003548	0.00032085	7.5101e-05	1006.6	4.5844e-06	2.9076e-06	1091.5	214.81	3.9942e-06	2.3492e-06	268.56	76.462	60.203	17.258	2.3428e-06	24.353	0.00022958	0.00019319	5.6579e-05	999.71	2.3238e-06	2.3296e-06	1080.8	213.93	2.3087e-06	2.0912e-06	271.32	76.463	60.313	17.754	2.0968e-06	24.782	284.033	203.557	191.991	110.607	266.535	250.995	110.762	118.242	265.040	267.451	117.843	125.462	125.899	132.748	220.370	131.109	-8191	255	
50885.652	1	1	0	0	0.12321	0.14354	0.072657	0.16904	0.14381	0.12582	0.20982	0.14503	0.15498	0.19305	0.17963	0.14585	0.17912	0.03659	0.2446	0.10232	-4.2333	-5.0625	-4.0771	-4.8438	-4.8375	-4.2854	-5.0188	-4.6646	-4.2063	-5.3479	-4.2396	-4.6917	-4.8354	-4.2083	-4.9417	-4.6833	184.985	377.200	328.207	455.654	448.677	412.417	364.496	228.629	199.133	163.251	402.666	112.209	446.146	202.214	197.029	405.939	0.00034868	0.00027265	8.7453e-05	1006.3	4.1811e-06	1.4519e-06	1091.1	213.8	4.574e-06	4.0503e-06	269.94	76.455	59.882	17.266	3.2797e-06	24.356	0.0002417	0.00019651	6.127e-05	1000.2	2.3579e-06	2.4205e-06	1079.2	213.62	2.5688e-06	2.4751e-06	270.99	76.496	60.385	17.706	2.4133e-06	24.862	280.163	222.794	203.644	110.494	259.273	228.626	110.846	118.662	288.483	257.060	118.108	125.237	125.335	132.564	247.088	131.253	-8191	255	
50885.750	1	1	0	0	0.056239	0.13865	0.089444	0.15506	0.11655	0.21265	0.14134	0.2562	0.097061	0.15138	0.20908	0.14989	0.3082	0.10364	0.24023	0.11055	-3.7979	-5.0958	-4.3333	-4.6292	-5.0104	-4.15	-5.2125	-4.8708	-4.225	-4.9938	-4.4375	-4.4292	-5.0771	-4.1687	-4.7937	-4.8354	319.421	182.955	136.860	440.329	329.529	177.618	406.236	420.122	420.840	241.934	389.316	147.931	104.278	163.256	208.921	363.547	0.00034826	0.00037444	5.5072e-05	1007.5	3.9987e-06	4.6232e-06	1095.7	213.36	2.281e-06	1.8584e-06	268.48	75.866	59.871	17.358	3.6076e-06	24.505	0.00025594	0.00021395	6.2819e-05	1003.7	2.5534e-06	2.5203e-06	1082.4	213.61	2.6178e-06	2.3788e-06	270.71	76.409	60.233	17.744	2.4249e-06	24.962	275.519	209.322	206.821	110.454	266.590	246.678	110.827	118.338	247.874	265.434	118.302	125.049	125.344	132.246	256.807	131.562	-8191	255	
50885.871	1	1	0	0	0.21972	0.1761	0.16608	0.29329	0.14238	0.22974	0.38379	0.1498	0.22571	0.22022	0.019771	0.15473	0.061254	0.19114	0.11972	0.056567	-3.9604	-5.2021	-4.4958	-4.4917	-5.1167	-4.2104	-4.7708	-4.9812	-4.1937	-5.0062	-4.6125	-4.3521	-5.0833	-4.225	-4.7417	-5.0542	295.379	125.539	234.345	457.212	417.090	143.037	364.059	455.009	404.018	337.350	149.772	231.572	235.131	401.852	154.862	322.628	0.00037419	0.00025676	6.4349e-05	1009.8	4.6532e-06	2.8861e-06	1085.7	214.07	4.5486e-06	2.3187e-06	271.07	76.664	59.868	17.362	3.5734e-06	24.3	0.00025329	0.00021196	6.2044e-05	1003.3	2.5738e-06	2.5318e-06	1083	214.27	2.5984e-06	2.2665e-06	272.03	76.582	60.351	17.824	2.3287e-06	24.924	281.288	177.442	175.786	110.741	269.040	277.805	110.471	118.368	286.437	244.473	117.585	124.944	125.519	131.970	277.803	131.637	-8191	255	
50885.965	1	1	0	0	0.28079	0.064295	0.12406	0.201	0.18395	0.090794	0.16806	0.22158	0.21168	0.063115	0.10981	0.12229	0.24233	0.047598	0.28188	0.34676	-3.6813	-4.9458	-4.5542	-4.2875	-5.15	-4.2917	-4.7312	-5.1062	-4.1083	-4.9812	-4.7458	-4.1583	-5.2021	-4.2917	-4.6271	-5.0958	318.051	438.676	452.401	404.789	267.336	416.581	386.293	393.229	124.719	213.207	438.630	335.681	437.792	424.814	309.966	326.052	0.00036009	0.00022317	6.9776e-05	1005.1	6.2128e-06	1.0338e-06	1093	214.07	5.235e-06	4.6383e-06	271.55	76.222	60.122	17.567	3.3804e-06	24.423	0.00025039	0.00021388	5.9676e-05	1005.3	2.3663e-06	2.4287e-06	1085.3	214.39	2.4464e-06	2.2269e-06	271.88	76.684	60.553	17.87	2.4092e-06	24.897	279.869	156.669	202.383	110.442	260.652	237.952	110.621	118.147	264.979	251.466	117.553	124.709	124.987	132.201	257.046	131.495	-8191	255	
50886.062	1	1	0	0	0.12793	0.12805	0.16328	0.1533	0.18369	0.22627	0.32495	0.10565	0.062386	0.11261	0.10973	0.27375	0.096565	0.021433	0.29444	0.23882	-3.7458	-5.1062	-4.8604	-4.5667	-5.0396	-4.3146	-4.7979	-5.1312	-4.1521	-4.9458	-4.9042	-4.2167	-5.2167	-4.5354	-4.5167	-5.2625	108.041	327.905	283.139	411.292	382.826	250.715	390.800	325.595	421.394	263.301	397.234	411.832	456.131	414.814	292.245	452.773	0.00034986	0.00035978	0.00010269	1012.2	3.2681e-06	3.0443e-06	1095.4	215.45	5.9997e-06	2.0862e-06	271.13	75.739	60.31	17.366	3.3455e-06	24.539	0.00024573	0.0002004	5.6835e-05	1007	2.2704e-06	2.2967e-06	1088.5	214.75	2.454e-06	2.1913e-06	272.44	76.377	60.561	17.829	2.3493e-06	25.047	276.257	196.120	192.055	110.468	276.837	233.038	110.390	118.322	288.284	249.441	118.118	125.323	125.418	132.433	289.572	131.863	-8191	255	
50886.160	1	1	0	0	0.12236	0.1134	0.11606	0.070354	0.10628	0.11579	0.23966	0.12871	0.20973	0.094582	0.17379	0.067907	0.13184	0.053153	0.078699	0.26224	-3.9042	-4.7479	-5.1083	-4.5563	-5.0125	-4.6167	-4.5208	-5.2396	-4.2604	-4.8271	-4.8021	-4.1917	-5.1167	-4.6771	-4.2104	-5.2438	250.549	434.041	124.985	406.749	142.402	449.354	402.041	376.798	321.299	283.086	391.021	117.701	166.346	316.874	273.990	113.096	0.00036441	0.00029826	7.073e-05	1010.1	3.2802e-06	1.1347e-06	1099.2	215.5	5.2441e-06	2.4076e-06	272.52	76.66	60.814	17.668	3.7387e-06	24.495	0.00024056	0.00021678	5.8204e-05	1007	2.379e-06	2.1902e-06	1088.9	214.57	2.3739e-06	2.3582e-06	271.95	76.732	60.568	17.929	2.3557e-06	24.999	282.078	171.279	156.317	110.477	281.265	246.467	110.457	118.197	278.504	233.300	117.388	125.201	125.760	132.296	270.229	131.156	-8191	255	
50886.254	1	1	0	0	0.12573	0.058193	0.15877	0.27292	0.053726	0.29491	0.079102	0.2434	0.1353	0.16366	0.18829	0.052076	0.066745	0.12247	0.18586	0.058009	-4.0583	-4.7292	-4.9792	-4.175	-4.9042	-4.6833	-4.4667	-5.1354	-4.1146	-4.5375	-5.1333	-4.1312	-4.8729	-4.7896	-4.1875	-5.1021	312.407	362.047	199.036	423.820	388.112	435.167	109.169	349.499	364.543	116.104	345.986	354.645	445.305	118.180	101.036	351.820	0.00035625	0.00035023	8.0065e-05	1011.8	2.4262e-06	4.3203e-06	1096	215.37	3.3265e-06	3.3828e-06	271.07	76.411	60.582	17.404	4.0484e-06	24.567	0.00024025	0.00021851	5.5798e-05	1006.2	2.2904e-06	2.2939e-06	1085.3	214.56	2.3037e-06	2.2282e-06	271.44	76.769	60.582	17.85	2.301e-06	25.071	279.659	224.333	178.842	110.415	282.711	256.612	110.616	118.488	293.454	201.534	117.699	125.118	125.667	132.310	309.476	131.743	-8191	255	
50886.352	1	1	0	0	0.20019	0.11208	0.3508	0.050213	0.22416	0.22968	0.1564	0.072169	0.25207	0.25739	0.056129	0.053852	0.020335	0.094212	0.068409	0.048358	-4.1208	-4.4146	-4.8938	-4.2667	-4.8375	-4.8187	-4.3125	-5.2292	-4.3187	-4.2854	-5.1125	-4.1188	-4.6438	-4.85	-4.1021	-5.2125	204.301	202.549	423.398	197.979	279.882	146.665	399.167	243.792	433.954	267.650	354.621	393.696	336.905	455.285	293.991	317.652	0.00036422	0.00026253	6.5226e-05	1012.2	4.9104e-06	4.2397e-06	1089.9	214.72	4.8581e-06	2.235e-06	273.59	76.668	60.341	17.626	1.906e-06	24.468	0.00023835	0.00020641	5.4531e-05	1007.7	2.3014e-06	2.325e-06	1085.9	214.67	2.3639e-06	2.2599e-06	272.35	76.925	60.679	17.913	2.2103e-06	24.999	276.096	170.282	215.357	110.401	257.951	280.912	110.521	118.216	268.965	304.997	117.987	124.911	125.634	132.856	272.515	131.558	-8191	255	
50886.445	1	1	0	0	0.059425	0.079955	0.06305	0.16132	0.22414	0.055997	0.14945	0.079868	0.16358	0.14608	0.09909	0.061503	0.25253	0.10399	0.1429	0.046134	-4.2021	-4.2458	-5.2083	-4.2188	-4.4875	-4.9417	-4.225	-5.0021	-4.5062	-4.3104	-5.1104	-4.2979	-4.5042	-4.9875	-4.1729	-4.9604	354.269	341.505	149.394	393.329	131.357	177.744	413.407	282.080	102.406	175.768	362.260	306.798	128.215	278.065	254.813	171.688	0.00037053	0.00015255	7.325e-05	1011.5	5.5594e-06	4.9061e-06	1094.5	215.33	5.4515e-06	2.6753e-06	271.02	76.504	60.574	17.584	2.7187e-06	24.344	0.00024308	0.0002016	5.6253e-05	1006.2	2.354e-06	2.237e-06	1084.1	214.82	2.2334e-06	2.2475e-06	272.16	76.719	60.482	17.9	2.2785e-06	25.007	275.653	174.794	181.050	110.685	250.260	244.853	110.643	118.440	271.309	258.847	117.579	125.471	125.676	132.824	222.171	131.127	-8191	255	
50886.566	1	1	0	0	0.18472	0.23202	0.09446	0.14102	0.16204	0.071654	0.1874	0.033725	0.2947	0.13578	0.1191	0.1509	0.19093	0.10392	0.25087	0.11783	-4.3	-4.2354	-5.1292	-4.3021	-4.5813	-4.9375	-4.2583	-4.9646	-4.7812	-4.025	-5.1583	-4.3917	-4.4208	-5.0167	-4.0687	-4.9125	383.507	436.971	321.563	167.897	319.776	354.154	281.817	430.277	324.698	129.214	394.711	140.482	425.900	425.508	214.988	416.174	0.00036368	0.00016732	6.7406e-05	1009	3.9584e-06	3.0194e-06	1097.3	213.6	4.1237e-06	3.0846e-06	272.81	76.606	60.117	17.561	4.1345e-06	24.582	0.00023727	0.00020747	5.3603e-05	1004.5	2.2954e-06	2.2444e-06	1085.6	214.68	2.2604e-06	2.1997e-06	272.46	76.884	60.365	17.935	2.2844e-06	25.01	275.113	158.147	193.625	110.892	270.353	249.068	110.518	118.504	281.741	247.579	117.455	125.241	125.716	132.655	284.113	131.109	-8191	255	
50886.660	1	1	0	0	0.15213	0.23364	0.064957	0.22487	0.052575	0.12244	0.080088	0.16254	0.089092	0.028843	0.090602	0.17516	0.18318	0.11667	0.057015	0.031002	-4.7063	-4.1417	-5.1104	-4.5521	-4.4458	-5.0771	-4.2583	-4.7875	-4.8917	-4.1792	-5.1708	-4.6792	-4.3021	-5.1062	-4.2479	-4.6312	316.459	289.638	148.084	409.006	249.789	177.491	451.615	384.885	143.872	454.379	111.254	440.594	227.280	134.588	312.823	300.052	0.00035002	0.00029444	8.9973e-05	1015.2	3.0405e-06	2.8634e-06	1090.8	215.25	4.1237e-06	1.5819e-06	272.18	76.319	60.32	17.55	4.523e-06	24.437	0.00023228	0.00020241	5.393e-05	1006.2	2.4395e-06	2.2477e-06	1084.4	214.73	2.3857e-06	2.2879e-06	272.1	76.755	60.829	18.018	2.2338e-06	25.02	276.034	213.130	193.471	110.511	255.106	277.976	110.695	118.128	276.918	242.709	117.625	125.718	125.316	132.443	237.275	131.476	-8191	255	
50886.734	1	1	0	0	0.2202	0.11403	0.17759	0.35211	0.15242	0.17541	0.11368	0.072065	0.19494	0.076466	0.094466	0.28327	0.11541	0.04255	0.13922	0.21717	-4.5167	-3.8958	-5.0437	-4.5479	-4.1521	-5.2646	-4.3146	-4.5646	-4.8208	-4.0375	-4.9792	-4.8458	-4.1562	-5.2979	-4.3187	-4.7104	432.288	352.029	424.814	104.273	384.412	122.213	360.374	402.257	135.626	328.999	104.452	416.457	452.456	183.228	177.819	396.170	0.00038868	0.00025081	5.9317e-05	1011.8	4.9001e-06	3.3324e-06	1100.5	214.89	4.231e-06	3.0026e-06	271.45	76.383	60.809	17.705	6.7808e-07	24.495	0.00022972	0.00020225	5.6368e-05	1006.7	2.5339e-06	2.0488e-06	1090	214.9	2.2661e-06	2.187e-06	271.92	77.068	60.856	18.075	2.2476e-06	25.061	276.875	237.121	179.220	110.628	245.525	238.807	110.878	118.090	279.986	251.564	117.440	125.428	125.376	131.887	244.324	131.226	-8191	255	
50886.828	1	1	0	0	0.060304	0.14931	0.067806	0.14911	0.14792	0.10803	0.096924	0.16682	0.26144	0.08158	0.08644	0.13476	0.087427	0.13951	0.2474	0.10257	-4.8271	-4.1583	-4.8479	-4.8146	-4.1729	-5.1646	-4.5687	-4.4542	-5	-3.9542	-4.8917	-4.8104	-4.2688	-5.1229	-4.475	-4.4479	195.106	176.235	254.016	134.544	311.004	289.295	100.707	301.724	410.173	243.723	411.548	295.418	281.572	254.836	297.787	355.005	0.0003847	0.00016977	8.6804e-05	1016.9	3.769e-06	2.4452e-06	1098.7	214.1	4.6708e-06	1.9631e-06	272.05	76.665	60.384	17.826	1.8761e-06	24.345	0.00023747	0.00020556	5.2534e-05	1008.2	2.3322e-06	2.0031e-06	1088.4	215.28	2.1361e-06	2.1067e-06	272.57	76.891	60.784	18.119	2.1595e-06	24.989	276.684	206.203	192.732	110.667	282.495	202.506	110.756	117.901	287.532	260.340	117.885	125.409	125.302	132.356	281.006	131.874	-8191	255	
50886.949	1	1	0	0	0.18493	0.18072	0.091635	0.33295	0.12747	0.13548	0.26558	0.095341	0.085001	0.14828	0.086876	0.082014	0.17761	0.032835	0.12091	0.16818	-4.7104	-3.9917	-4.7125	-5.1167	-4.0479	-5.0563	-4.6417	-4.4313	-5.0563	-4.2104	-4.7667	-5.0375	-4.0333	-5.0188	-4.4792	-4.1958	353.288	248.973	164.435	400.288	366.608	134.774	398.714	442.004	307.792	388.368	364.452	271.989	100.404	170.089	258.098	351.094	0.00033746	0.00016721	9.1959e-05	1009.8	4.1966e-06	2.2319e-06	1093	215.72	4.7568e-06	1.1042e-06	271.17	76.491	60.564	17.809	4.1261e-06	24.463	0.00021772	0.00019732	5.7392e-05	1006.7	2.4463e-06	2.1351e-06	1087.7	215.2	2.1196e-06	2.2345e-06	271.9	76.922	60.741	18.073	2.1451e-06	25.044	282.924	218.749	168.297	110.485	261.934	255.063	110.726	118.344	277.995	241.883	117.826	125.192	125.339	131.909	306.775	131.546	-8191	255	
50887.047	1	1	0	0	0.19009	0.16116	0.095146	0.24589	0.16324	0.20256	0.28933	0.12467	0.18827	0.060863	0.048877	0.087313	0.044588	0.12871	0.17562	0.050921	-5.0125	-4.1667	-4.6188	-5.1375	-4.1979	-4.8771	-4.8104	-4.4208	-4.9938	-4.4125	-4.4521	-5.0875	-4.1771	-4.8063	-4.8521	-4.3438	113.819	215.737	172.158	438.452	350.860	428.411	394.861	403.907	294.878	214.935	381.962	191.983	314.618	178.430	103.942	139.477	0.00039086	0.00038765	4.9703e-05	1010.6	2.2083e-06	3.3655e-06	1095.6	214.8	5.7783e-06	2.7524e-06	270.58	76.59	60.497	17.505	2.4691e-06	24.589	0.00023473	0.00020298	5.6483e-05	1005.5	2.3062e-06	2.2211e-06	1084.1	214.97	2.2563e-06	2.2312e-06	271.66	76.746	60.577	18.022	2.1914e-06	25.047	280.712	199.478	201.204	110.815	288.195	277.560	110.674	118.576	283.351	265.246	117.923	124.812	125.065	132.025	262.828	131.291	-8191	255	
50887.145	1	1	0	0	0.040262	0.17506	0.055095	0.22148	0.047469	0.13068	0.091827	0.12856	0.11701	0.11809	0.14112	0.12052	0.15429	0.086905	0.0086839	0.13059	-4.8313	-4.2979	-4.4208	-5.1604	-4.0729	-4.8104	-4.9521	-4.1271	-5.0667	-4.5312	-4.6542	-5.2458	-4.2479	-4.7292	-4.8	-4.0958	416.184	299.780	148.198	401.220	160.116	317.526	118.152	377.134	395.090	198.880	132.768	143.575	269.353	243.296	130.556	405.721	0.00036115	0.0002681	8.8238e-05	1011.9	3.9121e-06	2.2191e-06	1092	214.67	3.9461e-06	2.644e-06	272.07	76.735	60.133	17.546	3.0013e-06	24.383	0.00022979	0.00021206	5.7635e-05	1005.8	2.3346e-06	2.1336e-06	1085.1	214.68	2.2697e-06	2.1568e-06	272.5	76.868	60.439	18.068	2.1662e-06	25.032	279.630	196.274	207.887	110.537	285.423	254.915	110.666	118.132	312.065	283.903	117.410	125.318	125.441	132.119	244.821	131.615	-8191	255	
50887.262	1	1	0	0	0.13115	0.03972	0.31318	0.1651	0.21514	0.11585	0.17892	0.16701	0.21578	0.16456	0.30604	0.063544	0.079747	0.22853	0.014224	0.23375	-4.8562	-4.55	-4.3042	-5.1375	-4.2188	-4.4771	-5.0833	-4.1167	-5.0375	-4.5687	-4.2354	-5.0708	-4.2854	-4.7479	-4.8375	-4.0271	272.646	356.341	440.218	456.828	252.805	344.628	353.344	356.902	449.099	195.787	444.712	284.032	265.244	456.587	434.580	417.331	0.00040034	0.00015563	5.5889e-05	1011.4	5.3722e-06	1.8857e-06	1094.5	214.32	4.6034e-06	1.6207e-06	273.23	76.909	60.673	17.617	2.4424e-06	24.329	0.00023428	0.00020211	5.6643e-05	1004.8	2.3074e-06	2.1415e-06	1082.8	214.34	2.3029e-06	2.1336e-06	272.45	77.012	60.58	18.013	2.2012e-06	24.974	273.861	208.828	181.365	110.759	241.258	279.349	110.839	118.441	269.961	227.861	117.736	124.700	125.679	132.596	213.613	131.406	-8191	255	
50887.359	1	1	0	0	0.19378	0.15278	0.19425	0.33661	0.11982	0.23814	0.22516	0.13384	0.067432	0.26086	0.16048	0.3387	0.22379	0.22884	0.13462	0.063282	-4.6792	-4.6813	-4.1687	-5.2854	-4.2438	-4.5083	-5.2438	-4.1687	-4.9021	-4.8	-4.2125	-5.1104	-4.3812	-4.4812	-4.9625	-4.1937	283.916	316.452	257.102	456.312	340.958	204.084	409.581	401.555	255.569	348.316	385.306	409.830	446.590	165.977	376.489	344.885	0.00038719	0.000353	3.9777e-05	1003.9	3.654e-06	2.5653e-06	1091.9	214.48	6.2319e-06	3.4472e-06	271.8	76.717	60.173	17.627	2.5367e-06	24.391	0.00022641	0.0001952	5.3315e-05	1003.1	2.2882e-06	2.0761e-06	1083.5	214.42	2.3551e-06	2.0351e-06	272.43	76.919	60.515	18.03	2.1708e-06	24.948	278.558	195.368	162.574	110.549	231.985	231.719	110.864	118.397	282.555	270.148	117.719	125.231	125.667	132.091	232.267	131.682	-8191	255	
50887.430	1	1	0	0	0.0059514	0.11712	0.013721	0.28127	0.13149	0.16101	0.18658	0.14955	0.036337	0.06707	0.18036	0.15293	0.16316	0.15324	0.18995	0.14573	-4.4917	-4.8021	-4.1375	-5.1292	-4.3417	-4.3042	-5.2354	-4.2542	-4.5854	-4.8688	-4.1833	-5.0292	-4.5687	-4.4688	-5.0125	-4.2167	391.129	404.075	285.219	385.905	369.162	121.170	264.840	438.419	389.825	205.648	382.021	383.659	388.865	330.039	199.931	309.714	0.0003714	0.00016567	6.8813e-05	1009.8	4.1233e-06	4.3866e-06	1089.3	215.23	2.0258e-06	1.3184e-06	269.96	76.518	60.698	17.749	4.6975e-06	24.713	0.00023519	0.00020655	5.5913e-05	1004.4	2.4136e-06	2.2446e-06	1080.9	214.27	2.259e-06	2.2246e-06	271.2	76.916	60.419	18.014	2.1563e-06	24.986	271.976	151.983	183.594	110.492	256.987	266.683	110.466	118.218	273.370	239.013	117.670	125.196	125.929	132.234	271.296	131.369	-8191	255	
50887.551	1	1	0	0	0.17361	0.19845	0.10066	0.35367	0.14781	0.17877	0.18835	0.23713	0.17602	0.048358	0.1682	0.11185	0.23805	0.17669	0.08298	0.1006	-4.2479	-5.0583	-4.0083	-5.2458	-4.4479	-4.2229	-5.375	-4.3063	-4.6312	-4.8958	-4.1521	-4.8396	-4.7583	-4.275	-5.0542	-4.3375	373.208	426.192	420.698	425.921	188.739	373.151	446.057	413.873	364.274	406.039	312.126	374.169	352.545	239.026	187.732	329.408	0.0003508	0.00034333	6.7944e-05	1006.2	5.6229e-06	2.3331e-06	1081.6	214.92	6.3824e-06	9.8047e-07	271.31	75.554	59.661	17.555	4.9124e-06	24.423	0.00023014	0.00020476	5.6957e-05	1001.7	2.3994e-06	2.2832e-06	1078.6	213.96	2.2898e-06	2.1189e-06	270.68	76.253	60.014	17.884	2.2476e-06	24.76	280.718	195.736	194.836	110.939	270.127	256.029	110.974	118.312	287.277	140.342	117.633	125.165	125.528	132.268	272.062	131.514	-8191	255	
50887.645	1	1	0	0	0.049956	0.11049	0.18756	0.1909	0.098454	0.25125	0.19307	0.029154	0.05628	0.13804	0.25507	0.070007	0.26371	0.059594	0.2135	0.032658	-4.2688	-4.95	-4.0917	-4.8792	-4.7542	-4.1417	-5.3438	-4.3792	-4.3938	-4.9437	-4.1208	-4.8604	-4.7438	-4.1542	-5.0729	-4.3396	228.037	448.325	150.613	366.172	246.549	305.600	377.789	197.855	357.864	310.848	447.838	392.671	223.591	245.406	364.594	261.339	0.00036003	0.00040595	8.8809e-05	1007.7	3.654e-06	4.3366e-06	1085	214.45	2.3875e-06	3.2808e-06	269.61	75.974	60.013	17.571	3.0873e-06	24.034	0.00024298	0.00020602	5.894e-05	998.74	2.3483e-06	2.2901e-06	1074.9	213.9	2.3323e-06	2.092e-06	270.66	76.122	60.052	17.754	2.1885e-06	24.666	280.242	190.963	197.300	110.538	255.300	213.937	110.723	118.277	262.136	257.232	117.836	125.588	125.728	132.394	251.159	131.198	-8191	255	
50887.742	1	1	0	0	0.12425	0.059796	0.11206	0.29818	0.075914	0.22888	0.15289	0.19488	0.235	0.17183	0.038177	0.097429	0.19963	0.09409	0.15639	0.43468	-4.025	-4.8875	-4.0771	-4.6333	-4.7937	-4.0771	-5.2396	-4.6625	-4.2417	-5.175	-4.1562	-4.6062	-5.1167	-4.1417	-4.9896	-4.5729	320.491	401.874	399.397	402.918	323.502	319.201	360.362	145.795	171.234	209.732	395.058	428.374	390.068	376.784	389.044	219.933	0.00033132	0.00025576	0.00012113	1003.2	4.4352e-06	1.7694e-06	1080	213.17	4.8961e-06	1.3471e-06	269.58	75.937	59.922	17.424	2.6358e-06	24.237	0.00023481	0.00020183	6.1398e-05	997.85	2.4479e-06	2.3056e-06	1074.8	213.53	2.4669e-06	2.1982e-06	270.65	76.097	59.978	17.777	2.2343e-06	24.713	279.947	207.418	210.132	110.325	260.424	270.956	110.929	118.365	257.603	195.168	117.683	124.999	125.369	132.454	261.128	131.456	-8191	255	
50887.863	1	1	0	0	0.2254	0.23991	0.1908	0.30026	0.15372	0.13751	0.032455	0.063767	0.10798	0.3747	0.09485	0.13592	0.16745	0.12929	0.11654	0.11817	-3.9083	-5.0437	-4.3063	-4.8229	-4.95	-4.1687	-5.0875	-4.5875	-4.1208	-5.0646	-4.4458	-4.4646	-5.1208	-4.1188	-4.8812	-4.75	323.178	273.486	404.455	411.676	170.285	145.498	431.228	158.015	316.734	244.013	440.063	259.578	452.068	345.792	168.479	421.912	0.00035239	0.00036809	5.899e-05	1006.6	4.1557e-06	3.2417e-06	1085	213.76	2.5291e-06	4.2015e-06	271.63	75.98	60.455	17.45	1.9377e-06	24.251	0.0002407	0.00020333	6.0112e-05	998.96	2.3389e-06	2.2602e-06	1077.6	213.87	2.3242e-06	2.1646e-06	270.78	76.457	60.146	17.779	2.1387e-06	24.731	280.221	188.392	218.502	110.743	291.560	280.806	110.689	118.441	254.550	290.980	117.832	125.033	125.860	132.378	326.741	131.337	-8191	255	
#DATA ENDS
