BOXY.EXE: ISS Imagent and Oximeter Data Acquisition Program Version 0.80
Ascii Record File

#ACQ INFORMATION
2  Detector Channels 
16  External MUX Channels 
1  Auxiliary Channels 
5000  Waveform (CCF) Frequency (Hz)
1  Waveforms Skipped 
30  Waveforms Averaged 
1  Cycles Averaged 
16  Acquisitions per Waveform 
10.0806  Updata Rate (Hz) 

#FILE INFORMATION
TRUE -- External MUX Channel results are PARSED.
FALSE -- AC DC and Phase are NOT grouped.
TRUE -- Companion Program Settings File CREATED.
FALSE -- AC data not excluded
FALSE -- DC data not excluded
FALSE -- Phase data not excluded
FALSE -- Auxillary Chn. data not excluded
Tab delimiters

#CALIBRATION STATE
TRUE -- Waveform Calibration Values APPLIED.


#AUX CALIBRATION VALUES
Val Type	aux-1	

Term	1.0000e+00	
Factor	0.0000e+00	


#WF CALIBRATION VALUES
A = Detector Channel
Val Type	A-AC1	A-AC2	A-AC3	A-AC4	A-AC5	A-AC6	A-AC7	A-AC8	A-AC9	A-AC10	A-AC11	A-AC12	A-AC13	A-AC14	A-AC15	A-AC16	A-DC1	A-DC2	A-DC3	A-DC4	A-DC5	A-DC6	A-DC7	A-DC8	A-DC9	A-DC10	A-DC11	A-DC12	A-DC13	A-DC14	A-DC15	A-DC16	A-Ph1	A-Ph2	A-Ph3	A-Ph4	A-Ph5	A-Ph6	A-Ph7	A-Ph8	A-Ph9	A-Ph10	A-Ph11	A-Ph12	A-Ph13	A-Ph14	A-Ph15	A-Ph16	

Term	0.00000e+00	0.00000e+00	0.00000e+00	0.00000e+00	0.00000e+00	0.00000e+00	0.00000e+00	0.00000e+00	0.00000e+00	0.00000e+00	0.00000e+00	0.00000e+00	0.00000e+00	0.00000e+00	0.00000e+00	0.00000e+00	0.00000e+00	0.00000e+00	0.00000e+00	0.00000e+00	0.00000e+00	0.00000e+00	0.00000e+00	0.00000e+00	0.00000e+00	0.00000e+00	0.00000e+00	0.00000e+00	0.00000e+00	0.00000e+00	0.00000e+00	0.00000e+00	0.00000e+00	0.00000e+00	0.00000e+00	0.00000e+00	0.00000e+00	0.00000e+00	0.00000e+00	0.00000e+00	0.00000e+00	0.00000e+00	0.00000e+00	0.00000e+00	0.00000e+00	0.00000e+00	0.00000e+00	0.00000e+00	
Factor	1.00000e+00	1.00000e+00	1.00000e+00	1.00000e+00	1.00000e+00	1.00000e+00	1.00000e+00	1.00000e+00	1.00000e+00	1.00000e+00	1.00000e+00	1.00000e+00	1.00000e+00	1.00000e+00	1.00000e+00	1.00000e+00	1.00000e+00	1.00000e+00	1.00000e+00	1.00000e+00	1.00000e+00	1.00000e+00	1.00000e+00	1.00000e+00	1.00000e+00	1.00000e+00	1.00000e+00	1.00000e+00	1.00000e+00	1.00000e+00	1.00000e+00	1.00000e+00	X	X	X	X	X	X	X	X	X	X	X	X	X	X	X	X	

B = Detector Channel
Val Type	B-AC1	B-AC2	B-AC3	B-AC4	B-AC5	B-AC6	B-AC7	B-AC8	B-AC9	B-AC10	B-AC11	B-AC12	B-AC13	B-AC14	B-AC15	B-AC16	B-DC1	B-DC2	B-DC3	B-DC4	B-DC5	B-DC6	B-DC7	B-DC8	B-DC9	B-DC10	B-DC11	B-DC12	B-DC13	B-DC14	B-DC15	B-DC16	B-Ph1	B-Ph2	B-Ph3	B-Ph4	B-Ph5	B-Ph6	B-Ph7	B-Ph8	B-Ph9	B-Ph10	B-Ph11	B-Ph12	B-Ph13	B-Ph14	B-Ph15	B-Ph16	

Term	0.00000e+00	0.00000e+00	0.00000e+00	0.00000e+00	0.00000e+00	0.00000e+00	0.00000e+00	0.00000e+00	0.00000e+00	0.00000e+00	0.00000e+00	0.00000e+00	0.00000e+00	0.00000e+00	0.00000e+00	0.00000e+00	0.00000e+00	0.00000e+00	0.00000e+00	0.00000e+00	0.00000e+00	0.00000e+00	0.00000e+00	0.00000e+00	0.00000e+00	0.00000e+00	0.00000e+00	0.00000e+00	0.00000e+00	0.00000e+00	0.00000e+00	0.00000e+00	4.67397e+01	-1.30593e+02	-1.28560e+02	-1.82133e+02	-7.13561e+01	-6.37854e+01	-1.59775e+02	-1.62015e+02	-3.55692e+01	-6.66304e+01	-1.82301e+02	-1.72751e+02	-1.82364e+02	-1.77708e+02	-6.69385e+01	-1.50988e+02	
Factor	5.16967e-05	2.20746e-04	6.02337e-05	2.02139e-01	3.18311e-06	2.24735e-06	1.81842e-01	6.28231e-02	4.81416e-06	2.76037e-06	1.95858e-01	3.19635e-02	2.65861e-02	9.75009e-03	3.16166e-06	1.39849e-02	1.97713e-05	3.80923e-05	1.06821e-05	9.89599e-02	3.61803e-07	4.32140e-07	8.38008e-02	3.08556e-02	3.53419e-07	4.30013e-07	9.30715e-02	1.52886e-02	1.31760e-02	4.84352e-03	3.78907e-07	6.73875e-03	X	X	X	X	X	X	X	X	X	X	X	X	X	X	X	X	



#DISTANCE SETTINGS
A = Detector Channel
A-1	A-2	A-3	A-4	A-5	A-6	A-7	A-8	A-9	A-10	A-11	A-12	A-13	A-14	A-15	A-16	

2.5000e+00	3.0000e+00	2.5000e+00	3.0000e+00	2.0000e+00	3.0000e+00	1.5000e+00	3.0000e+00	3.0000e+00	3.0000e+00	3.0000e+00	3.0000e+00	3.0000e+00	3.0000e+00	1.5000e+00	3.0000e+00	

B = Detector Channel
B-1	B-2	B-3	B-4	B-5	B-6	B-7	B-8	B-9	B-10	B-11	B-12	B-13	B-14	B-15	B-16	

1.0000e+01	1.0000e+01	1.0000e+01	1.4400e+00	1.0000e+01	1.0000e+01	1.5100e+00	1.9400e+00	1.0000e+01	1.0000e+01	1.9900e+00	2.4900e+00	2.4100e+00	2.9000e+00	1.0000e+01	2.9800e+00	




#DATA BEGINS
time	group	step	mark	flag	A-AC1	A-AC2	A-AC3	A-AC4	A-AC5	A-AC6	A-AC7	A-AC8	A-AC9	A-AC10	A-AC11	A-AC12	A-AC13	A-AC14	A-AC15	A-AC16	A-DC1	A-DC2	A-DC3	A-DC4	A-DC5	A-DC6	A-DC7	A-DC8	A-DC9	A-DC10	A-DC11	A-DC12	A-DC13	A-DC14	A-DC15	A-DC16	A-Ph1	A-Ph2	A-Ph3	A-Ph4	A-Ph5	A-Ph6	A-Ph7	A-Ph8	A-Ph9	A-Ph10	A-Ph11	A-Ph12	A-Ph13	A-Ph14	A-Ph15	A-Ph16	B-AC1	B-AC2	B-AC3	B-AC4	B-AC5	B-AC6	B-AC7	B-AC8	B-AC9	B-AC10	B-AC11	B-AC12	B-AC13	B-AC14	B-AC15	B-AC16	B-DC1	B-DC2	B-DC3	B-DC4	B-DC5	B-DC6	B-DC7	B-DC8	B-DC9	B-DC10	B-DC11	B-DC12	B-DC13	B-DC14	B-DC15	B-DC16	B-Ph1	B-Ph2	B-Ph3	B-Ph4	B-Ph5	B-Ph6	B-Ph7	B-Ph8	B-Ph9	B-Ph10	B-Ph11	B-Ph12	B-Ph13	B-Ph14	B-Ph15	B-Ph16	aux-1	digaux	

423.565	1	1	0	256	0.097818	0.16892	0.10715	0.21101	0.093921	0.116	0.24055	0.24863	0.13399	0.19327	0.16591	0.059695	0.089305	0.14836	0.061945	0.13865	-3.1479	-3.2062	-3.3521	-3.6146	-3.1688	-3.375	-3.5292	-3.1063	-3.4	-3.1729	-3.3292	-3.3937	-3.0375	-3.5062	-3.3542	-3.0187	418.468	310.186	201.190	156.638	416.703	263.977	411.746	373.721	448.419	198.597	378.978	328.817	388.836	179.046	157.031	363.359	0.00078066	0.0003286	7.8799e-05	1176.8	5.8063e-06	2.1357e-06	1255.1	243.05	1.0492e-05	3.3527e-06	305.63	87.784	68.667	20.112	5.2864e-06	27.914	0.00031947	0.00018514	4.9294e-05	1174.9	2.4135e-06	1.6286e-06	1241.1	242.05	2.1168e-06	1.7846e-06	303.87	88.027	68.893	20.423	1.7595e-06	28.515	350.000	175.299	165.428	99.262	241.961	257.099	99.314	106.894	269.791	235.776	106.497	112.623	113.517	120.243	228.525	119.255	-8191	255	
423.661	1	1	0	0	0.20297	0.12429	0.021261	0.21599	0.2219	0.12286	0.11682	0.12946	0.089071	0.07022	0.17425	0.37763	0.097804	0.20576	0.17278	0.28424	-3.1292	-3.1792	-3.1583	-3.4562	-3.0854	-3.1458	-3.5333	-3.2833	-3.5042	-3.1729	-3.325	-3.5062	-3.2083	-3.3646	-3.5208	-3.2062	166.425	291.624	188.242	432.806	171.737	158.113	350.315	395.395	316.945	123.954	408.533	148.545	425.478	203.171	215.135	314.010	0.00078821	0.00023793	8.5437e-05	1169.9	7.9817e-06	3.4993e-06	1238	241.99	1.0171e-05	3.2421e-06	304.33	87.323	68.502	19.755	3.2611e-06	27.732	0.00031066	0.00016459	5.0028e-05	1163.3	2.3623e-06	1.679e-06	1230.3	241.23	2.0484e-06	1.7093e-06	303.23	87.649	68.57	20.279	1.6538e-06	28.352	348.091	177.010	187.334	99.443	246.289	258.733	99.278	106.926	271.744	238.830	105.928	113.070	113.137	120.181	247.214	119.234	-8191	255	
423.757	1	1	0	0	0.096068	0.2953	0.16887	0.071174	0.255	0.079099	0.38519	0.17881	0.27302	0.18052	0.019057	0.12862	0.17275	0.12766	0.11724	0.18249	-3.0458	-3.2271	-3.1292	-3.5979	-3.0563	-3.3104	-3.4458	-3.2313	-3.3063	-3.3458	-3.2146	-3.4667	-3.2687	-3.3083	-3.425	-3.0396	186.569	108.896	134.357	152.338	171.631	234.194	443.779	400.137	223.437	394.411	264.125	338.326	423.871	147.157	285.350	139.759	0.00076532	0.00026099	0.00011126	1163.7	6.2507e-06	2.73e-06	1236.6	240.89	8.3826e-06	2.4068e-06	299.82	86.791	68.768	19.838	5.2165e-06	27.659	0.00031	0.00016015	4.6935e-05	1157.6	2.3178e-06	1.7952e-06	1224.5	240.33	2.0314e-06	1.5015e-06	301.53	87.397	68.418	20.198	1.7319e-06	28.296	348.405	189.218	168.377	99.447	237.370	248.131	99.382	106.985	285.415	228.979	106.657	112.976	113.259	120.292	236.703	119.520	-8191	255	
423.853	1	1	0	0	0.029966	0.21515	0.13687	0.047108	0.059996	0.28963	0.13708	0.029313	0.070972	0.22023	0.23399	0.12583	0.11396	0.088536	0.14469	0.20781	-3.0521	-3.2375	-3.0583	-3.5875	-3.3479	-3.2146	-3.5958	-3.2646	-3.4042	-3.3271	-3.0438	-3.4542	-3.3271	-3.2188	-3.5687	-3.2479	208.392	328.343	235.910	365.345	439.854	293.082	406.352	358.534	399.912	166.436	89.169	395.759	249.440	169.317	149.105	388.401	0.00079035	0.00029824	7.1449e-05	1160.7	6.1171e-06	3.4953e-06	1230.8	241.08	1.0669e-05	2.696e-06	299.47	87.061	68.279	19.782	5.3488e-06	27.854	0.00031247	0.00015872	4.5243e-05	1154	2.0887e-06	1.6745e-06	1220.2	240.3	1.96e-06	1.6529e-06	300.84	87.375	68.416	20.241	1.4722e-06	28.374	347.870	169.091	179.133	99.409	235.628	246.876	99.333	106.859	276.796	234.544	106.309	113.007	113.346	120.135	255.711	119.317	-8191	255	
423.972	1	1	0	0	0.34163	0.025142	0.2491	0.16505	0.084638	0.054806	0.25436	0.030206	0.14512	0.082529	0.16757	0.13741	0.09475	0.12558	0.081248	0.35841	-2.9979	-3.3	-3.1646	-3.6479	-3.3229	-3.2188	-3.5417	-3.1479	-3.3125	-3.4146	-3.3125	-3.5	-3.3042	-3.1458	-3.5458	-3.2167	125.231	99.188	109.243	387.304	301.253	188.628	357.520	108.509	274.286	328.682	420.716	314.468	108.991	446.657	104.473	305.216	0.00079531	0.00036356	8.377e-05	1159.8	6.0302e-06	2.5372e-06	1226.2	240.95	1.0933e-05	3.8819e-06	298.31	86.998	68.408	19.97	5.1743e-06	27.666	0.00030019	0.00015618	4.4998e-05	1151.9	2.1972e-06	1.4639e-06	1218.5	240.03	1.7848e-06	1.3286e-06	301.01	87.49	68.305	20.306	1.6056e-06	28.311	346.703	200.416	187.750	99.429	238.715	249.176	99.183	106.807	285.461	243.921	106.240	113.160	113.607	120.382	228.145	119.285	-8191	255	
424.068	1	1	0	0	0.069743	0.12664	0.10467	0.053625	0.20964	0.081731	0.22101	0.12456	0.31913	0.048317	0.21034	0.13442	0.14037	0.13413	0.10521	0.091812	-2.9771	-3.3646	-3.0958	-3.5271	-3.3	-3.1958	-3.7438	-3.0958	-3.3542	-3.4813	-3.1708	-3.4229	-3.3937	-3.2729	-3.6021	-3.2438	247.655	239.651	280.292	165.653	368.128	390.278	91.650	334.405	149.941	294.977	89.776	418.508	421.230	245.372	352.902	345.492	0.00079095	0.00039327	6.895e-05	1152.7	6.4004e-06	2.7855e-06	1224.9	240.43	7.6477e-06	4.693e-06	301.9	86.465	68.224	19.813	7.1069e-06	27.734	0.00030538	0.00014626	3.7565e-05	1149.4	2.005e-06	1.6457e-06	1216	239.8	1.7538e-06	1.2587e-06	300.7	87.199	68.139	20.261	1.6388e-06	28.323	345.113	175.805	204.830	99.357	243.917	266.843	99.558	106.714	291.578	240.167	106.732	113.100	113.537	120.277	251.272	119.332	-8191	255	
424.164	1	1	0	0	0.062655	0.23401	0.13643	0.059444	0.074825	0.096442	0.084295	0.051913	0.21752	0.19506	0.27755	0.077739	0.076075	0.19986	0.1723	0.093919	-2.5854	-3.5187	-3.1792	-3.4625	-3.2646	-3.1667	-3.6208	-3.2458	-3.2333	-3.5771	-3.1979	-3.1813	-3.3271	-3.1667	-3.3917	-3.3125	389.762	227.926	108.842	338.912	420.937	329.332	143.622	324.687	281.326	133.443	376.746	122.704	363.107	431.950	259.165	387.518	0.00082301	0.00028397	9.9349e-05	1154.9	4.9628e-06	3.5856e-06	1225.5	239.85	1.2115e-05	3.0518e-06	300.68	86.783	67.992	19.754	3.6508e-06	27.716	0.00031078	0.00012285	3.8166e-05	1148	1.9703e-06	1.7196e-06	1213.8	239.61	2.0911e-06	1.2175e-06	300.11	87.237	68.053	20.208	1.6143e-06	28.21	348.617	158.968	174.186	99.323	222.367	245.537	99.330	106.565	276.096	231.503	106.684	112.955	113.618	120.173	251.291	119.663	-8191	255	
424.238	1	1	0	0	0.26545	0.12674	0.14978	0.30764	0.23317	0.15264	0.30758	0.12205	0.11387	0.062954	0.079991	0.03589	0.12965	0.1316	0.15198	0.066314	-2.9854	-3.3125	-3.0792	-3.3688	-3.4833	-3.1083	-3.3646	-3.3229	-3.1229	-3.5687	-3.1583	-3.3854	-3.3979	-3.2229	-3.4792	-3.4917	98.979	176.252	337.650	446.293	314.745	241.157	391.482	407.454	396.439	322.836	194.176	147.996	415.702	337.573	292.821	286.818	0.00080263	0.00035794	9.7016e-05	1148.5	6.6385e-06	1.9073e-06	1218.9	238.43	8.9936e-06	5.1851e-06	298.38	86.204	68.054	19.682	6.5353e-06	27.546	0.00030411	0.00012563	4.6512e-05	1143.8	2.0344e-06	1.481e-06	1209	238.59	1.9217e-06	1.4459e-06	299.2	86.818	67.901	20.116	1.589e-06	28.16	347.479	175.017	184.157	99.526	227.507	209.570	99.295	106.809	269.469	252.263	106.487	112.967	113.515	120.220	250.690	119.570	-8191	255	
424.356	1	1	0	0	0.11904	0.016525	0.35731	0.14965	0.045387	0.12376	0.30834	0.11543	0.15911	0.082671	0.24053	0.18603	0.20017	0.067807	0.1121	0.19913	-2.7479	-3.3708	-3.2021	-3.3854	-3.4813	-3.1083	-3.6229	-3.2438	-3.2687	-3.4229	-3.125	-3.1229	-3.5396	-3.1167	-3.1896	-3.3896	152.613	409.356	129.793	248.253	106.922	364.173	390.121	344.048	299.321	391.538	382.373	115.570	359.515	269.792	109.027	113.287	0.00081717	0.00032364	0.00011791	1147.3	6.5428e-06	3.355e-06	1218.7	238.88	7.2962e-06	3.1791e-06	297.38	86.356	68.018	19.824	5.7438e-06	27.76	0.00030909	0.00011793	3.6252e-05	1142	1.8716e-06	1.5458e-06	1208.4	238.85	1.8812e-06	1.2246e-06	298.86	87.04	68.033	20.2	1.6364e-06	28.269	348.590	177.821	174.698	99.630	230.248	242.988	99.413	107.053	279.561	247.584	106.590	112.773	113.438	120.299	256.543	119.247	-8191	255	
424.453	1	1	0	0	0.10704	0.15464	0.12117	0.1454	0.24953	0.092552	0.237	0.19088	0.13736	0.19397	0.065906	0.17943	0.14057	0.12366	0.16634	0.13182	-2.6417	-3.4062	-3.15	-3.2604	-3.4938	-3.2479	-3.4854	-3.3896	-3.1104	-3.4104	-3.3458	-3.0875	-3.5	-3.2146	-3.4188	-3.4292	281.363	297.782	160.804	406.459	255.780	107.899	357.732	109.581	428.948	160.488	135.330	149.289	316.534	252.836	307.079	227.762	0.00081521	0.00036981	0.00010285	1149.6	6.1113e-06	1.8889e-06	1221.6	239.48	1.1243e-05	3.853e-06	300.53	86.897	68.194	19.902	5.0748e-06	27.737	0.00030514	0.00012547	3.6386e-05	1143.7	1.8655e-06	1.5206e-06	1210.3	238.83	1.9578e-06	1.2578e-06	299.77	87.196	68.111	20.265	1.4801e-06	28.314	350.625	195.927	169.217	99.336	230.884	243.361	99.449	106.910	273.175	243.907	106.533	112.948	113.562	119.957	271.703	119.374	-8191	255	
424.549	1	1	0	0	0.22474	0.071599	0.16437	0.1638	0.36291	0.25895	0.1301	0.1307	0.19735	0.2189	0.14436	0.057664	0.13785	0.11242	0.2567	0.18548	-2.8271	-3.3354	-3.3354	-3.2396	-3.4771	-2.9583	-3.4042	-3.5938	-2.9125	-3.3229	-3.2792	-3.0208	-3.5333	-3.2104	-3.35	-3.4437	299.069	127.283	321.003	158.180	152.731	392.220	361.600	324.713	141.511	150.298	101.439	343.436	300.470	148.455	251.862	311.533	0.00079381	0.00024843	9.7885e-05	1156.3	7.3939e-06	3.3194e-06	1220.6	241.15	1.0607e-05	4.037e-06	297.07	86.868	68.085	20.022	6.4862e-06	27.779	0.00029669	0.00011039	3.4717e-05	1146.4	2.0216e-06	1.4936e-06	1212.4	240.08	1.8555e-06	1.3393e-06	299.8	87.549	68.456	20.296	1.7019e-06	28.359	352.143	186.055	188.875	99.655	231.867	248.763	99.543	106.858	268.752	232.368	106.317	113.182	113.566	120.168	249.171	119.357	-8191	255	
424.645	1	1	0	0	0.22963	0.2429	0.082182	0.033698	0.039572	0.22581	0.12863	0.12524	0.20519	0.11033	0.10514	0.057791	0.3025	0.20137	0.049172	0.13146	-2.6354	-3.4458	-3.2812	-3.2458	-3.4229	-3.2188	-3.3583	-3.5354	-3.1583	-3.3625	-3.4625	-3.2021	-3.4188	-3.2646	-3.2542	-3.7417	336.637	130.720	402.742	128.636	258.769	286.880	385.026	358.500	168.100	295.903	432.497	205.651	352.153	112.032	407.909	122.331	0.00076455	0.0003004	0.00011144	1154.9	7.4839e-06	3.401e-06	1221	241.3	8.454e-06	4.5939e-06	300.89	86.793	68.609	19.892	5.6249e-06	27.598	0.00028874	0.00010682	3.7054e-05	1144.7	1.8294e-06	1.427e-06	1209.8	239.94	1.8474e-06	1.3339e-06	300.42	87.407	68.304	20.284	1.4691e-06	28.31	350.984	192.763	185.382	99.333	238.644	260.542	99.414	106.820	284.573	213.072	106.398	112.785	113.522	120.259	236.417	119.608	-8191	255	
424.766	1	1	0	0	0.056763	0.40066	0.038806	0.43273	0.10099	0.26084	0.28501	0.27971	0.17738	0.16468	0.22159	0.18598	0.25913	0.15859	0.34853	0.14325	-2.7917	-3.3812	-3.2687	-3.3354	-3.1729	-3.3417	-3.2562	-3.5354	-3.1646	-3.3438	-3.3271	-3.2083	-3.2854	-3.3937	-3.1854	-3.5625	432.018	331.146	154.087	412.577	393.768	351.154	408.161	391.042	177.679	125.409	350.594	93.515	330.878	320.987	198.836	412.421	0.00081418	0.00039907	7.9403e-05	1150.3	5.3773e-06	3.8086e-06	1217.5	242.51	8.7567e-06	3.7953e-06	300.01	87.251	68.033	19.981	5.6827e-06	27.725	0.00029608	0.00012563	3.1802e-05	1141.5	1.8203e-06	1.2838e-06	1207.7	240.44	1.7075e-06	1.3814e-06	300.76	87.522	68.462	20.321	1.4296e-06	28.344	349.991	171.895	205.678	99.527	239.204	240.326	99.533	107.047	289.917	236.089	106.497	113.038	113.335	120.262	237.335	119.321	-8191	255	
424.862	1	1	0	0	0.072872	0.15091	0.033888	0.15628	0.089247	0.3884	0.25782	0.081139	0.21286	0.039952	0.044824	0.32001	0.2234	0.10442	0.041743	0.019779	-2.8	-3.3167	-3.3583	-3.2208	-3.425	-3.4083	-3.3417	-3.5312	-3.4042	-3.3083	-3.3937	-3.2687	-3.4458	-3.1437	-3.2062	-3.6146	251.867	208.420	154.740	119.000	216.194	97.441	389.104	288.609	389.747	351.936	335.305	312.917	367.111	372.193	324.606	246.908	0.00079419	0.00037607	9.5848e-05	1148.2	6.0748e-06	3.7212e-06	1221.4	241.52	1.1469e-05	4.1728e-06	302.15	87.16	68.133	19.923	5.0377e-06	27.867	0.00029875	0.00012737	2.6082e-05	1140.2	1.6507e-06	1.0713e-06	1207.5	240.96	1.6375e-06	1.2676e-06	301.21	87.494	68.283	20.308	1.5433e-06	28.378	349.883	185.978	192.643	99.532	245.604	232.125	99.464	106.845	280.942	242.028	106.458	112.882	113.471	120.238	245.433	119.458	-8191	255	
424.958	1	1	0	0	0.29996	0.069899	0.16099	0.31871	0.58742	0.12561	0.27993	0.32127	0.13361	0.085222	0.18755	0.23987	0.14967	0.05717	0.24645	0.24753	-2.8917	-3.1958	-3.5729	-3.1917	-3.3917	-3.2896	-3.2	-3.4813	-3.2146	-2.975	-3.4062	-3.1667	-3.35	-3.4062	-2.9146	-3.4625	203.804	220.127	430.290	97.057	229.770	195.701	370.562	325.964	425.914	92.808	238.434	356.730	166.042	340.506	329.728	270.156	0.00082291	0.00042034	9.7039e-05	1146.6	7.6095e-06	3.8996e-06	1218	240.94	9.9231e-06	4.5076e-06	300.8	87.101	68.169	19.909	6.0767e-06	27.42	0.00029851	0.00011071	2.8775e-05	1138.8	1.9213e-06	1.1695e-06	1205.4	240.33	1.7266e-06	1.2739e-06	300.31	87.393	68.371	20.213	1.5409e-06	28.181	349.177	190.932	204.684	99.410	240.786	239.552	99.464	106.995	284.712	258.813	106.671	113.272	113.458	120.440	248.396	119.571	-8191	255	
425.054	1	1	0	0	0.11365	0.089816	0.21997	0.18056	0.21304	0.17604	0.18048	0.075959	0.13592	0.11996	0.15997	0.11289	0.18957	0.10759	0.12829	0.26786	-2.9	-3.0729	-3.4688	-3.3187	-3.3063	-3.5542	-3.4625	-3.6458	-3.2583	-3.4042	-3.525	-3.2229	-3.2417	-3.2938	-3.1271	-3.3042	331.342	204.695	247.513	360.524	407.120	319.584	346.500	311.837	227.446	402.296	425.661	405.569	370.925	188.166	299.416	307.741	0.00080614	0.00027578	7.8076e-05	1145.7	6.3587e-06	3.3721e-06	1215.1	241.81	1.0229e-05	2.8433e-06	298.56	86.253	67.915	19.705	5.3629e-06	27.551	0.00029546	0.00013499	2.9888e-05	1138.3	1.9801e-06	1.0722e-06	1205.3	240	1.6817e-06	1.2435e-06	299.71	86.832	67.85	20.128	1.5393e-06	28.137	352.092	170.714	180.917	99.462	241.458	218.578	99.480	106.703	269.097	220.335	106.464	113.295	113.650	120.116	245.015	119.467	-8191	255	
425.148	1	1	0	0	0.14711	0.077247	0.32199	0.15716	0.1791	0.14426	0.23516	0.15341	0.12385	0.075844	0.097571	0.18125	0.039098	0.069317	0.1787	0.062897	-2.85	-3.1833	-3.4167	-3.3083	-3.2938	-3.5771	-3.2667	-3.4354	-3.3438	-3.1333	-3.4833	-3.3417	-3.3083	-3.5771	-3.3167	-3.4521	259.919	153.669	153.245	104.525	243.897	424.166	350.673	111.509	175.201	220.225	404.449	285.911	110.664	301.887	309.125	197.288	0.00080467	0.00022729	0.00011137	1144.5	4.2089e-06	3.9893e-06	1209.7	240.32	1.0158e-05	3.8717e-06	298.4	86.064	67.707	19.637	3.6293e-06	27.429	0.0002971	0.00012118	3.169e-05	1134.2	1.8459e-06	1.2586e-06	1199.9	239.06	1.4925e-06	1.2282e-06	298.33	86.617	67.667	20.065	1.3901e-06	28.03	347.087	191.794	187.212	99.387	236.381	235.903	99.525	106.897	281.470	243.416	106.756	113.086	113.967	120.343	245.454	119.335	-8191	255	
425.246	1	1	0	0	0.048931	0.18313	0.13653	0.15357	0.19018	0.049051	0.21585	0.34278	0.052279	0.17525	0.2716	0.073015	0.12301	0.10928	0.2336	0.14441	-2.8042	-3.1625	-3.3708	-3.4938	-3.175	-3.5917	-3.2979	-3.3708	-3.4458	-3.2479	-3.3479	-3.2896	-3.0771	-3.5125	-3.35	-3.4854	415.530	203.631	241.028	177.481	157.656	319.065	401.850	357.634	272.648	430.979	330.415	354.684	388.389	155.337	417.407	434.936	0.00080614	0.0002542	0.00012333	1136.1	7.3427e-06	2.6306e-06	1207.4	238.89	8.0579e-06	3.3175e-06	299.77	86.412	67.786	19.763	4.1146e-06	27.771	0.00029727	0.00011951	3.7054e-05	1130	1.8791e-06	1.1686e-06	1195.8	238.03	1.667e-06	1.3348e-06	298.58	86.48	67.578	20.098	1.4288e-06	28.153	350.405	175.619	169.408	99.614	237.298	252.931	99.649	106.922	278.529	266.192	106.609	113.067	113.540	120.513	252.608	119.776	-8191	255	
425.365	1	1	0	0	0.24467	0.18302	0.043006	0.16925	0.18378	0.30216	0.25286	0.22475	0.26237	0.15667	0.10978	0.10228	0.077538	0.28954	0.20603	0.050366	-2.9437	-3.1521	-3.4542	-3.5333	-3.2188	-3.4458	-3.3771	-3.3458	-3.3688	-3.1104	-3.3146	-3.3521	-3.1333	-3.4354	-3.1937	-3.2958	108.214	358.735	100.958	382.485	428.434	164.261	114.405	391.804	181.224	317.334	425.123	370.057	417.710	247.029	247.478	309.702	0.00080344	0.00030412	9.6614e-05	1144.6	4.8016e-06	1.4988e-06	1209.9	240.2	1.1884e-05	4.3885e-06	296.9	86.157	68.189	19.71	5.469e-06	27.663	0.00029002	0.00013523	3.3671e-05	1132.6	1.8279e-06	1.1155e-06	1197	238.89	1.7325e-06	1.3438e-06	298.64	86.794	67.892	20.089	1.3838e-06	28.135	349.766	176.002	166.210	99.517	239.419	252.623	99.498	106.899	282.263	228.763	106.367	113.169	113.674	120.271	239.192	119.797	-8191	255	
425.461	1	1	0	0	0.15509	0.22688	0.051919	0.033584	0.14923	0.1167	0.20747	0.11784	0.16801	0.21216	0.22817	0.18049	0.34636	0.16544	0.13515	0.076454	-3.1604	-3.0729	-3.4042	-3.4417	-3.0542	-3.4771	-3.4958	-3.2542	-3.5604	-3.3167	-3.3937	-3.4688	-3.1604	-3.4688	-3.3396	-3.1229	274.468	108.116	288.353	430.080	172.785	94.403	343.962	329.374	381.233	400.326	256.930	404.871	386.670	427.829	285.820	161.530	0.00084257	0.0004726	0.00010641	1142.2	6.3272e-06	2.7649e-06	1209.6	239.28	1.3567e-05	4.5596e-06	298.89	86.428	68.19	19.818	4.4603e-06	27.546	0.00029776	0.00012348	3.4828e-05	1131	1.8671e-06	1.138e-06	1196.7	238.56	1.6257e-06	1.2838e-06	298.77	86.912	67.92	20.144	1.4454e-06	28.158	346.290	175.350	182.817	99.780	239.886	246.088	99.442	106.998	270.173	244.976	106.147	113.182	113.527	120.809	229.344	119.291	-8191	255	
425.533	1	1	0	0	0.12207	0.21642	0.18275	0.22906	0.23468	0.13243	0.17994	0.16412	0.13811	0.08405	0.1125	0.2655	0.13842	0.079513	0.14183	0.11858	-3.1354	-3.05	-3.2479	-3.5396	-3.1063	-3.6833	-3.4042	-3.2333	-3.5042	-3.0104	-3.3688	-3.2958	-2.9708	-3.4833	-3.2104	-3.2	164.244	395.218	351.534	378.180	391.611	327.229	397.659	399.553	417.359	245.210	430.412	367.483	438.847	409.981	305.082	283.288	0.00079707	0.00026086	0.0001108	1137	6.8379e-06	3.0975e-06	1210.1	239.86	1.1004e-05	3.7451e-06	298.54	86.888	67.932	19.83	6.3029e-06	27.742	0.00029167	0.00012332	3.3671e-05	1130.4	1.9228e-06	1.0984e-06	1198.4	238.52	1.5896e-06	1.3133e-06	299.33	86.997	67.818	20.188	1.3854e-06	28.216	348.151	177.722	159.629	99.549	235.223	255.724	99.353	107.075	278.295	248.041	106.709	113.097	113.705	120.234	254.318	119.882	-8191	255	
425.654	1	1	0	0	0.083714	0.32343	0.12902	0.34317	0.0055616	0.1515	0.33511	0.21667	0.10042	0.24901	0.16325	0.10459	0.41563	0.047821	0.092326	0.10012	-3.1063	-3.125	-3.2938	-3.6312	-3.2167	-3.4542	-3.3625	-3.2167	-3.4458	-3.1688	-3.2729	-3.4938	-3.2125	-3.5125	-3.3833	-3.1	125.242	337.265	302.428	121.311	340.004	163.298	393.734	392.752	444.208	395.197	315.133	246.421	388.134	314.818	225.904	98.310	0.00074823	0.00032009	0.00011704	1144.1	8.0755e-06	3.9182e-06	1211.1	239.93	9.5907e-06	3.8945e-06	298.33	86.234	67.963	19.797	5.6097e-06	27.568	0.00028108	0.00011888	2.8886e-05	1133.2	1.8987e-06	1.1353e-06	1198.3	238.98	1.6552e-06	1.2963e-06	299.63	87.015	67.859	20.164	1.4162e-06	28.199	345.651	172.016	183.563	99.682	230.663	257.049	99.596	106.981	292.817	247.474	106.778	113.127	113.781	120.266	252.328	120.083	-8191	255	
425.750	1	1	0	0	0.16939	0.14983	0.11692	0.11547	0.1184	0.26861	0.21153	0.22939	0.26212	0.11514	0.34059	0.1065	0.21506	0.13342	0.16663	0.22075	-3.225	-3.2229	-3.0771	-3.5667	-3.2646	-3.3937	-3.4813	-3.2458	-3.4625	-3.1875	-3.2792	-3.6292	-3.3812	-3.3937	-3.4521	-3.1792	167.447	421.691	384.753	441.943	330.996	412.762	389.701	381.218	332.790	290.249	430.294	135.424	346.674	350.024	405.521	391.983	0.00077065	0.00039803	6.3465e-05	1135.2	7.8159e-06	2.5913e-06	1209.9	240.39	9.817e-06	3.9378e-06	298.4	86.49	68.157	19.821	5.1826e-06	27.4	0.00027511	0.00010864	2.5704e-05	1130.2	1.7947e-06	1.1641e-06	1198.5	239.23	1.5793e-06	1.032e-06	299.35	87.015	67.959	20.153	1.2978e-06	28.143	350.016	181.176	190.308	99.779	236.625	222.942	99.411	106.859	280.829	262.727	106.782	113.023	113.821	120.625	252.153	119.470	-8191	255	
425.846	1	1	0	0	0.074663	0.15829	0.097983	0.2452	0.086354	0.10085	0.25792	0.26781	0.072382	0.11	0.21185	0.11717	0.062711	0.18229	0.16352	0.2348	-2.9229	-3.2771	-3.075	-3.6104	-3.125	-3.3958	-3.6396	-3.1521	-3.5271	-3.4	-3.3042	-3.5187	-3.4542	-3.2646	-3.4104	-3.2375	329.790	111.005	183.444	408.059	152.675	228.261	327.990	408.398	133.737	405.205	353.927	176.242	213.295	429.535	167.769	408.401	0.00078384	0.00027267	0.00011296	1135.3	5.5991e-06	1.8129e-06	1208.6	240.35	1.1105e-05	2.9884e-06	299.85	86.445	68.115	19.75	4.7993e-06	27.665	0.00028697	9.8802e-05	3.2825e-05	1127.2	1.5995e-06	1.0885e-06	1195.6	239.31	1.5654e-06	1.1136e-06	299.48	87.038	67.977	20.156	1.2109e-06	28.118	347.617	178.783	177.575	99.540	234.341	266.490	99.506	106.725	281.637	229.025	106.601	112.967	113.469	120.792	251.236	119.757	-8191	255	
425.942	1	1	0	0	0.081351	0.20263	0.20578	0.11701	0.10077	0.1052	0.27538	0.19089	0.25378	0.13303	0.22626	0.16066	0.059177	0.30174	0.10055	0.27891	-2.9646	-3.3458	-3.0812	-3.5687	-3.2333	-3.1146	-3.4479	-3.2229	-3.2083	-3.2958	-3.0958	-3.5	-3.2104	-3.2729	-3.5208	-3.0854	277.486	413.381	119.719	437.528	123.833	253.941	386.548	403.333	412.692	401.427	175.278	426.450	206.094	376.835	323.074	385.394	0.0007952	0.00034858	6.683e-05	1132.4	5.9068e-06	2.809e-06	1207.2	240.91	8.6578e-06	3.1442e-06	297.86	86.406	68.053	19.764	5.4199e-06	27.729	0.00028285	0.00012063	2.8174e-05	1128.1	1.7683e-06	1.1776e-06	1195.8	238.79	1.6066e-06	1.2363e-06	299.11	86.711	67.883	20.138	1.2101e-06	28.196	347.682	168.677	196.317	99.753	234.857	239.636	99.397	106.874	264.020	248.655	106.948	113.088	113.485	120.362	251.729	119.804	-8191	255	
426.061	1	1	0	0	0.18431	0.22006	0.18426	0.098976	0.33707	0.15621	0.1986	0.14655	0.23155	0.15335	0.18177	0.25221	0.14619	0.18058	0.098615	0.25948	-2.9208	-3.3063	-3.1729	-3.4333	-3.2771	-3.2979	-3.5979	-3.1896	-3.2062	-3.3667	-3.0312	-3.5604	-3.3854	-3.0708	-3.5104	-3.2417	145.686	303.008	431.493	119.700	196.154	137.966	346.014	246.415	363.758	315.388	381.417	126.463	95.290	146.107	357.355	343.056	0.00078045	0.00024987	7.2252e-05	1133.9	4.6882e-06	2.8506e-06	1210	239.96	1.4524e-05	3.5338e-06	299.75	86.402	67.879	19.634	6.1135e-06	27.537	0.00028561	0.00010261	2.9509e-05	1127.3	1.7155e-06	1.2748e-06	1197.1	239.25	1.6309e-06	9.6395e-07	299.07	86.954	67.866	20.08	1.2346e-06	28.139	350.208	188.376	205.046	99.519	230.828	244.942	99.556	107.260	275.942	244.641	106.310	113.326	113.688	120.572	241.738	119.508	-8191	255	
426.157	1	1	0	0	0.0649	0.090507	0.19724	0.1218	0.14875	0.022101	0.12547	0.32084	0.15078	0.17861	0.080956	0.046712	0.05785	0.043164	0.12302	0.19966	-2.6792	-3.5542	-3.0271	-3.6354	-3.4062	-3.1292	-3.3896	-3.3021	-3.2812	-3.3979	-3.2562	-3.3375	-3.3646	-3.0792	-3.5583	-3.25	437.571	397.751	201.122	406.895	182.250	168.417	381.005	134.964	187.652	426.792	381.920	437.408	424.741	369.741	295.220	397.910	0.00075071	0.00030444	4.6769e-05	1135.6	5.6743e-06	2.5625e-06	1206.3	240.05	1.2217e-05	2.4415e-06	298.18	86.064	67.773	19.786	4.7475e-06	27.48	0.00027548	9.7135e-05	3.0288e-05	1127.5	1.5904e-06	1.1002e-06	1193	238.9	1.7244e-06	7.5879e-07	298.97	86.693	67.625	20.101	1.338e-06	28.038	346.384	172.652	152.705	99.427	227.608	249.371	99.581	106.940	286.870	240.100	106.533	113.136	113.692	120.122	233.358	119.246	-8191	255	
426.230	1	1	0	0	0.060084	0.16002	0.15305	0.10468	0.094423	0.096153	0.13182	0.17755	0.075337	0.18979	0.020612	0.031348	0.21796	0.10121	0.1341	0.14315	-2.7687	-3.4562	-3.1146	-3.4646	-3.5125	-3.0083	-3.6604	-3.4104	-3.1229	-3.5	-3.0104	-3.5271	-3.3625	-3.2104	-3.45	-3.2687	280.284	245.081	188.651	436.508	448.095	331.029	419.967	115.983	280.130	217.098	109.095	191.973	438.684	190.835	333.753	338.173	0.00077997	0.00042783	8.4988e-05	1133.1	4.8275e-06	3.1781e-06	1208.7	239.75	1.2469e-05	3.6558e-06	297.72	86.021	67.867	19.676	5.893e-06	27.48	0.00029105	0.00010602	3.0311e-05	1124.9	1.5897e-06	1.2766e-06	1194.6	238.85	1.611e-06	1.0159e-06	298.34	86.62	67.708	20.074	1.0807e-06	28.103	348.672	157.750	188.992	99.736	226.375	242.946	99.648	107.064	278.352	252.153	106.910	112.989	113.298	120.246	234.616	119.621	-8191	255	
426.327	1	1	0	0	0.18362	0.3217	0.27037	0.31947	0.11951	0.23742	0.10498	0.015784	0.17081	0.26932	0.16251	0.13982	0.10759	0.17389	0.33658	0.23546	-2.7021	-3.5625	-2.9583	-3.4521	-3.4458	-3.3	-3.6479	-3.4708	-3.2083	-3.4021	-3.1312	-3.3354	-3.4875	-3.0875	-3.6125	-3.3875	289.160	414.451	141.798	329.050	268.237	316.767	381.472	184.372	376.312	399.827	198.223	263.835	395.989	219.625	181.434	415.776	0.00078601	0.00035161	8.344e-05	1138.4	7.053e-06	3.1896e-06	1205.7	239.18	8.2424e-06	4.4527e-06	301.06	85.796	67.684	19.69	5.7333e-06	27.564	0.00029039	0.00011055	3.0822e-05	1128.2	1.7728e-06	1.0155e-06	1194.1	238.99	1.5101e-06	1.0804e-06	299.01	86.574	67.699	20.06	1.3262e-06	28.137	348.749	200.724	176.912	99.683	234.153	258.373	99.494	107.073	280.506	250.916	106.643	113.141	113.695	120.297	241.130	119.719	-8191	255	
426.446	1	1	0	0	0.1165	0.12137	0.31127	0.029362	0.22198	0.18876	0.063986	0.090774	0.33205	0.1201	0.28183	0.20777	0.2675	0.13342	0.34771	0.21333	-2.7417	-3.4958	-3.2125	-3.4562	-3.5229	-3.2854	-3.5646	-3.4458	-3.1958	-3.6083	-3.3729	-3.3063	-3.5854	-3.1562	-3.3896	-3.3167	447.649	393.158	148.583	197.446	258.703	92.390	345.748	195.667	161.999	232.990	137.885	144.785	234.120	320.181	251.349	441.899	0.00075717	0.00034157	9.5779e-05	1130.7	5.975e-06	3.3823e-06	1204	240.13	1.149e-05	5.3474e-06	298.65	86.433	68.245	19.75	5.6593e-06	27.632	0.00027972	0.00011499	3.0867e-05	1125	1.6078e-06	1.2559e-06	1192.6	238.89	1.5845e-06	1.1655e-06	299.01	86.656	67.899	20.043	1.4706e-06	28.12	349.372	204.614	177.282	99.565	238.972	251.257	99.641	107.028	264.161	247.534	106.673	113.039	113.408	120.569	227.134	119.641	-8191	255	
426.542	1	1	0	0	0.12734	0.087534	0.10405	0.25898	0.062552	0.12069	0.15505	0.12751	0.080206	0.12691	0.13471	0.14757	0.17645	0.15111	0.09357	0.12762	-2.7104	-3.5021	-3.2708	-3.4542	-3.5396	-3.3208	-3.5958	-3.3479	-2.9125	-3.4896	-3.2271	-3.3708	-3.4208	-3.3104	-3.3417	-3.5292	335.379	388.252	393.378	350.718	118.900	244.137	396.768	328.041	387.304	389.569	215.857	433.144	395.497	392.397	226.267	95.284	0.00076869	0.0003841	9.0487e-05	1133.2	5.0166e-06	2.9901e-06	1207.4	240.22	1.2979e-05	3.3721e-06	300.34	86.44	67.899	19.763	5.1291e-06	27.622	0.00029191	9.658e-05	3.0667e-05	1124.2	1.6341e-06	1.1443e-06	1193.2	239.14	1.7951e-06	1.1745e-06	299.06	86.733	67.558	20.072	1.4596e-06	28.053	349.193	172.056	195.689	99.420	238.181	265.793	99.600	106.842	278.198	242.214	106.331	113.230	113.399	120.334	261.786	119.502	-8191	255	
426.638	1	1	0	0	0.45263	0.091816	0.03211	0.077287	0.11809	0.34033	0.2253	0.20428	0.076151	0.22207	0.16231	0.2678	0.26833	0.18725	0.259	0.053767	-2.775	-3.3875	-3.2104	-3.3729	-3.5708	-3.275	-3.5229	-3.6375	-3.1	-3.6333	-3.2542	-3.1083	-3.5646	-3.3479	-3.3167	-3.6188	244.653	315.380	200.568	312.184	131.905	229.660	366.753	384.679	406.758	324.820	387.939	387.697	357.655	316.309	218.498	118.313	0.0007487	0.00036796	0.00011599	1131.1	7.3137e-06	2.9099e-06	1199.6	239.38	1.038e-05	3.3064e-06	298.6	86.699	67.822	19.821	5.4701e-06	27.496	0.00028479	0.00012174	3.0444e-05	1123.1	1.6635e-06	1.1245e-06	1190.4	238.84	1.6809e-06	1.0114e-06	298.51	86.687	67.603	20.09	1.4643e-06	28.04	350.178	189.469	192.464	99.766	240.258	269.719	99.639	106.957	269.981	222.286	106.562	113.102	113.440	120.256	234.783	119.609	-8191	255	
426.758	1	1	0	0	0.059031	0.19059	0.18884	0.20701	0.070061	0.12194	0.18573	0.10614	0.22363	0.033915	0.15053	0.078855	0.14263	0.11151	0.13458	0.21431	-2.8229	-3.4396	-3.1979	-3.3438	-3.5771	-3.2708	-3.3604	-3.5604	-3.2667	-3.4729	-3.4	-3.1	-3.5125	-3.1958	-3.2687	-3.45	409.881	135.463	347.664	405.919	333.312	234.487	373.360	412.308	334.611	331.598	257.118	259.006	444.708	153.155	291.711	398.282	0.00076111	0.00032218	0.0001096	1136	6.4352e-06	4.313e-06	1201.6	238.62	1.1837e-05	4.3233e-06	301.1	86.479	67.862	19.738	4.5486e-06	27.541	0.00028594	0.00010817	3.0555e-05	1125.7	1.497e-06	1.0794e-06	1191.7	238.69	1.6927e-06	1.0347e-06	299.54	86.826	67.791	20.104	1.2954e-06	28.12	347.919	187.138	191.294	99.572	236.908	237.178	99.572	107.028	280.254	262.530	106.739	113.338	113.664	120.196	247.383	119.679	-8191	255	
426.830	1	1	0	0	0.20487	0.26847	0.0078342	0.049417	0.12755	0.25861	0.19081	0.19183	0.018813	0.13001	0.20515	0.27052	0.21602	0.11496	0.11018	0.25241	-2.7521	-3.2375	-3.4	-3.2021	-3.3625	-3.2792	-3.3021	-3.4437	-3.2833	-3.2542	-3.3646	-3.2875	-3.3688	-3.1875	-3.0396	-3.5563	391.886	189.297	173.662	402.171	156.575	150.207	424.043	406.835	364.100	292.239	113.693	423.471	135.951	430.866	202.781	427.292	0.00080807	0.00035139	6.3084e-05	1135	6.8953e-06	2.4196e-06	1203.6	240.14	1.328e-05	4.3296e-06	299.03	86.026	67.552	19.715	6.2771e-06	27.409	0.00027672	0.00010745	2.8753e-05	1124.7	1.6409e-06	9.9392e-07	1189.1	239.19	1.6758e-06	1.1843e-06	298.88	86.73	67.615	20.081	1.2883e-06	28.057	351.758	185.451	185.947	99.534	232.680	268.368	99.773	106.875	277.297	250.069	106.361	113.527	113.702	120.205	248.251	119.624	-8191	255	
426.926	1	1	0	0	0.032733	0.14137	0.14932	0.20115	0.32188	0.10423	0.041071	0.17596	0.20275	0.13851	0.045857	0.15819	0.16558	0.13153	0.063725	0.16567	-2.7375	-3.1875	-3.3167	-3.2354	-3.3958	-3.2646	-3.1646	-3.5896	-3.1771	-3.275	-3.3958	-3.1979	-3.4688	-3.2979	-3.0625	-3.4708	293.712	430.938	217.104	124.658	345.317	376.886	332.160	140.595	179.912	235.804	142.500	350.015	441.840	99.258	429.425	331.220	0.00075918	0.00031401	8.6404e-05	1131.6	6.3142e-06	3.2732e-06	1198.6	240.53	9.0534e-06	3.5498e-06	299.43	86.268	67.391	19.702	6.0187e-06	27.642	0.00028417	9.8881e-05	2.7774e-05	1119.7	1.5482e-06	1.1317e-06	1187.7	239.34	1.5123e-06	1.0383e-06	299.13	86.832	67.539	20.038	1.3459e-06	28.132	349.435	164.952	172.046	99.818	239.474	247.258	99.521	107.053	277.282	230.299	106.239	112.822	113.710	120.492	250.540	119.666	-8191	255	
427.047	1	1	0	0	0.21276	0.077104	0.13117	0.032837	0.24652	0.21104	0.15294	0.057978	0.28364	0.10785	0.061697	0.081491	0.073944	0.19286	0.19789	0.22184	-2.9458	-3.2354	-3.3083	-3.2062	-3.2667	-3.3458	-3.3479	-3.5458	-3.3333	-3.275	-3.5187	-3.2708	-3.2583	-3.5563	-3.2188	-3.5229	412.907	299.705	118.012	232.218	132.393	216.986	352.960	376.481	198.647	160.015	108.759	403.357	236.737	285.198	273.037	95.742	0.00081341	0.00038398	9.1493e-05	1126.2	6.702e-06	2.7644e-06	1193.3	241.13	1.1815e-05	3.4505e-06	299.07	86.002	67.28	19.659	5.7511e-06	27.54	0.00028368	0.00010579	2.7328e-05	1119.1	1.7216e-06	1.1713e-06	1185.1	239.21	1.6692e-06	1.0204e-06	298.72	86.534	67.362	20.01	1.4904e-06	28.064	348.526	173.902	196.507	99.547	226.290	237.060	99.626	107.196	259.039	247.588	106.612	113.136	113.794	120.311	249.686	119.863	-8191	255	
427.141	1	1	0	0	0.044037	0.11953	0.16453	0.13592	0.19609	0.13048	0.13707	0.18983	0.042455	0.20068	0.1884	0.052488	0.093393	0.046718	0.045456	0.29876	-2.7625	-3.1625	-3.4417	-3.3542	-3.2521	-3.525	-3.4833	-3.6813	-3.3854	-3.3792	-3.4833	-3.3979	-3.3438	-3.5625	-3.1833	-3.4229	383.778	430.734	255.195	172.587	352.620	143.163	408.476	329.270	376.999	99.745	423.302	285.143	311.850	433.376	279.522	155.941	0.00076703	0.00033447	8.3448e-05	1125.3	6.1247e-06	3.4931e-06	1194.9	238.54	1.233e-05	3.8605e-06	300.27	85.719	67.258	19.682	4.6475e-06	27.385	0.00027429	0.00010412	2.7262e-05	1117.5	1.8203e-06	1.1956e-06	1185.7	238.48	1.5889e-06	1.1162e-06	298.7	86.25	67.424	20.005	1.3759e-06	27.97	347.230	192.596	179.767	99.768	228.651	247.723	99.624	107.010	274.348	243.539	106.529	113.194	113.473	120.477	242.550	119.680	-8191	255	
427.237	1	1	0	0	0.015842	0.042504	0.095786	0.30908	0.044609	0.075854	0.16886	0.24909	0.18895	0.33409	0.12484	0.23908	0.15706	0.18615	0.14258	0.056876	-2.8104	-3.2354	-3.5104	-3.0979	-3.2812	-3.5083	-3.2604	-3.4104	-3.4229	-3.1917	-3.4938	-3.3458	-3.3104	-3.5646	-3.2708	-3.3667	255.969	406.432	448.293	382.880	426.669	203.701	337.384	100.065	342.076	298.019	433.498	235.695	445.148	90.624	159.215	322.471	0.00081646	0.00035122	9.4445e-05	1121.3	5.9414e-06	2.8343e-06	1200.3	240.13	1.1182e-05	3.4543e-06	298.46	85.697	67.287	19.623	4.8231e-06	27.662	0.00028252	0.00012293	2.8931e-05	1118.2	1.6447e-06	1.0137e-06	1186.5	238.71	1.5955e-06	1.144e-06	298.47	86.355	67.225	19.982	1.3664e-06	27.994	349.339	181.514	187.939	99.587	237.194	243.633	99.514	106.767	278.437	258.361	106.748	113.256	113.735	120.176	262.508	119.540	-8191	255	
427.358	1	1	0	0	0.038742	0.16616	0.074099	0.19537	0.14924	0.21359	0.10637	0.20084	0.027546	0.20171	0.16536	0.14417	0.15407	0.30594	0.16714	0.11195	-2.8854	-3.2104	-3.4437	-3.4062	-3.3563	-3.6667	-3.4062	-3.2917	-3.4271	-3.0687	-3.5625	-3.4792	-3.1479	-3.5333	-3.1708	-3.2375	137.769	340.395	178.908	420.781	421.338	225.201	304.964	361.744	137.234	176.947	342.465	428.399	364.665	227.345	259.116	434.625	0.00078094	0.00030723	9.2106e-05	1128.5	4.6454e-06	2.7651e-06	1191.7	239.19	1.1613e-05	2.0769e-06	297.11	85.039	66.997	19.384	5.9086e-06	27.196	0.00027775	0.00011142	2.6683e-05	1118.9	1.8226e-06	1.0443e-06	1183.9	237.98	1.3886e-06	1.2112e-06	297.53	85.69	66.992	19.824	1.4241e-06	27.774	349.573	178.266	160.932	99.702	251.206	239.008	99.585	107.139	274.187	237.287	106.405	113.048	114.101	120.674	233.605	119.438	-8191	255	
427.430	1	1	0	0	0.08782	0.11961	0.25389	0.11681	0.14759	0.11399	0.052401	0.0387	0.1481	0.28739	0.08293	0.028883	0.17208	0.15721	0.18442	0.18996	-3.0167	-2.9708	-3.4125	-3.5042	-3.0333	-3.5958	-3.3167	-3.475	-3.3917	-3.2	-3.5896	-3.4604	-3.1521	-3.65	-3.1729	-3.4688	99.895	199.088	387.943	403.739	404.191	321.262	350.062	420.550	214.082	251.565	148.577	425.275	228.915	387.430	103.902	340.879	0.0007692	0.00031973	0.0001094	1125.7	6.8505e-06	3.5736e-06	1192.5	236.11	9.9769e-06	2.8712e-06	295.18	84.98	66.488	19.477	4.829e-06	27.242	0.00028075	0.00012086	3.4717e-05	1114.5	1.8806e-06	1.0614e-06	1179.8	234.96	1.5698e-06	1.1951e-06	295.78	85.35	66.526	19.788	1.4683e-06	27.763	346.201	156.750	177.278	99.734	233.466	238.045	99.520	107.083	276.633	226.804	106.458	113.653	113.424	120.458	259.031	119.610	-8191	255	
427.526	1	1	0	0	0.17679	0.15893	0.29751	0.17455	0.10674	0.26183	0.21461	0.083012	0.20551	0.25958	0.1556	0.21774	0.2485	0.028507	0.16342	0.22771	-3.1208	-3.1542	-3.3625	-3.375	-3.1083	-3.5771	-3.5708	-3.3021	-3.6021	-3.1042	-3.4083	-3.3979	-3.3917	-3.5042	-3.3542	-3.2083	381.518	392.544	122.115	113.297	338.160	394.953	354.808	253.804	364.680	176.055	365.564	397.000	423.469	380.857	404.470	394.094	0.00079892	0.00027814	8.4873e-05	1117.6	7.2463e-06	3.2611e-06	1192.5	236.36	1.155e-05	3.3338e-06	293.53	85.107	67.079	19.516	5.3782e-06	27.2	0.00029051	0.00012253	2.7573e-05	1112.8	1.9274e-06	1.1632e-06	1181.2	235.25	1.5985e-06	1.1377e-06	295.86	85.583	66.801	19.776	1.3017e-06	27.734	348.401	202.059	184.156	99.637	227.903	250.696	99.642	107.001	273.600	242.872	106.794	113.295	113.466	120.432	240.305	119.725	-8191	255	
427.622	1	1	0	0	0.13901	0.11256	0.091643	0.18394	0.094874	0.08278	0.29245	0.3613	0.19941	0.09456	0.1142	0.20177	0.22468	0.083789	0.022167	0.30481	-3.1625	-3.1896	-3.3583	-3.4313	-3.0563	-3.5896	-3.4313	-3.2083	-3.5187	-3.2667	-3.4042	-3.3521	-3.3854	-3.4875	-3.3958	-3.3396	126.188	153.914	225.813	377.263	266.964	355.200	402.280	387.760	374.962	187.697	92.143	91.086	318.817	239.500	385.586	370.701	0.00079293	0.00024539	5.4584e-05	1122.6	6.749e-06	3.8344e-06	1192.1	236.25	9.3585e-06	3.8219e-06	296.7	85.295	66.951	19.537	4.8138e-06	27.36	0.00028228	0.00010983	3.7499e-05	1114	2.0178e-06	1.029e-06	1181	235.53	1.5712e-06	1.2435e-06	295.64	85.567	66.994	19.876	1.3877e-06	27.733	348.001	191.342	174.682	99.564	243.194	243.563	99.572	106.981	271.001	253.390	106.881	113.245	113.486	120.496	241.946	119.907	-8191	255	
427.718	1	1	0	0	0.16575	0.46109	0.081764	0.25363	0.041238	0.21008	0.41113	0.14855	0.24837	0.17415	0.16949	0.087522	0.11057	0.35543	0.20364	0.26474	-3.0042	-3.1688	-3.3667	-3.6729	-3.2667	-3.4625	-3.6437	-3.15	-3.475	-3.0812	-3.1375	-3.3896	-3.1875	-3.3312	-3.3979	-3.0625	441.862	230.550	148.541	113.098	377.990	367.079	381.711	124.200	414.651	313.943	400.831	91.338	336.416	386.835	329.108	94.248	0.00073526	0.00022463	0.00011655	1125.6	6.0434e-06	2.7484e-06	1198.3	236.06	1.2653e-05	4.2064e-06	296.6	86.045	67.166	19.459	6.0484e-06	27.217	0.00027639	0.00011555	3.3938e-05	1116.1	1.9017e-06	1.1272e-06	1183.8	235.75	1.6051e-06	1.1315e-06	296.2	85.799	67.019	19.882	1.5038e-06	27.861	346.978	199.471	177.942	99.794	230.156	251.432	99.640	107.137	271.700	263.925	106.633	113.383	113.623	120.604	236.065	119.664	-8191	255	
427.839	1	1	0	0	0.25828	0.094988	0.18921	0.40393	0.11252	0.16701	0.03459	0.091385	0.11493	0.30624	0.02875	0.12728	0.073017	0.11945	0.086893	0.10174	-3.0271	-3.1875	-3.2521	-3.5583	-3.2438	-3.5146	-3.4875	-3.1437	-3.5042	-3.3396	-3.2542	-3.5708	-3.3438	-3.4833	-3.2812	-2.9375	154.276	195.532	274.781	366.149	424.692	360.042	180.890	377.897	173.422	193.960	401.415	98.812	222.708	410.104	439.898	96.417	0.00079739	0.00039175	0.00010317	1121.5	6.2458e-06	2.9204e-06	1191.2	237.7	1.1255e-05	3.8363e-06	294.39	85.391	66.93	19.555	3.9799e-06	27.394	0.00028627	0.0001061	3.4984e-05	1115.3	1.8678e-06	1.1542e-06	1181.2	236.26	1.5911e-06	1.2506e-06	294.6	85.722	67.002	19.919	1.2157e-06	27.767	350.363	171.186	166.556	99.546	226.542	243.563	99.617	107.122	271.628	246.984	106.377	113.541	113.578	120.525	243.597	119.774	-8191	255	
427.935	1	1	0	0	0.19297	0.1109	0.10953	0.20331	0.082853	0.28342	0.23224	0.28276	0.081987	0.23608	0.036291	0.088664	0.28991	0.30111	0.18264	0.052685	-3.0958	-3.2687	-2.9667	-3.6167	-3.2938	-3.2229	-3.8479	-3.1437	-3.3542	-3.3875	-3.3146	-3.5229	-3.3917	-3.1417	-3.3937	-3.1729	379.074	321.610	178.450	443.065	260.183	335.048	406.143	375.374	313.160	424.187	365.279	409.954	359.099	162.780	307.600	130.761	0.00081781	0.00032683	0.00011543	1122.6	7.4194e-06	3.2987e-06	1195.2	237.32	1.1077e-05	4.0206e-06	295.04	85.174	66.84	19.594	4.8442e-06	27.083	0.0002936	0.00011221	3.6519e-05	1115.5	1.9665e-06	1.2217e-06	1182.6	235.91	1.5469e-06	1.2076e-06	296.61	85.598	66.918	19.921	1.3262e-06	27.819	351.168	198.353	188.912	99.660	238.850	235.457	99.617	106.836	280.640	255.893	106.553	113.174	113.593	120.838	242.833	119.705	-8191	255	
428.031	1	1	0	0	0.15555	0.15897	0.16014	0.23157	0.087939	0.095668	0.05064	0.39205	0.16746	0.042637	0.095608	0.059104	0.052163	0.10536	0.056416	0.13226	-3.0229	-3.2375	-3.1896	-3.6188	-3.1875	-3.3063	-3.6708	-3.3146	-3.5208	-3.3625	-3.25	-3.5333	-3.3896	-3.1813	-3.2417	-3.2125	241.173	397.760	355.940	433.407	148.473	150.670	420.117	384.101	181.274	447.873	153.643	235.432	422.284	370.499	367.606	326.349	0.00076318	0.00041297	8.392e-05	1124.6	6.8453e-06	3.6054e-06	1196.7	237.22	9.1823e-06	4.1642e-06	297.37	85.651	66.993	19.578	6.2053e-06	27.259	0.0002782	0.00012451	3.9524e-05	1115.2	1.7465e-06	1.2397e-06	1182.6	235.98	1.6331e-06	1.0491e-06	295.73	85.825	66.835	19.87	1.2828e-06	27.826	349.938	204.670	186.560	99.508	234.095	252.671	99.514	106.904	262.131	252.068	106.708	113.214	113.446	120.450	252.393	119.878	-8191	255	
428.127	1	1	0	0	0.33166	0.078312	0.19808	0.31446	0.13834	0.17808	0.32367	0.046661	0.20303	0.084537	0.20765	0.28369	0.2853	0.040759	0.18593	0.12271	-3.1333	-3.2625	-3.0187	-3.6875	-3.1542	-3.1667	-3.8083	-3.2958	-3.2604	-3.3688	-3.0833	-3.4479	-3.2667	-3.2042	-3.5812	-3.2917	385.591	243.778	105.731	442.507	330.087	447.977	331.395	329.935	229.128	317.976	93.015	417.280	404.489	316.802	111.864	179.133	0.00077544	0.00042751	5.4037e-05	1123.5	6.5725e-06	2.32e-06	1192.9	235.96	1.1449e-05	3.5681e-06	297.07	85.61	67.11	19.539	5.3948e-06	27.396	0.000281	0.00011459	3.2291e-05	1115.1	1.7321e-06	1.2937e-06	1182.5	235.78	1.6309e-06	9.7917e-07	296.47	85.836	67.076	19.875	1.1936e-06	27.862	349.906	182.143	195.302	99.670	237.732	230.288	99.524	107.240	267.044	237.709	106.425	113.378	113.707	120.463	242.051	120.064	-8191	255	
428.222	1	1	0	0	0.094713	0.24041	0.15538	0.041093	0.05359	0.15551	0.096087	0.12694	0.16877	0.082197	0.060543	0.26639	0.028652	0.17882	0.25501	0.21043	-2.9604	-3.4083	-3.1042	-3.5375	-3.2833	-3.3063	-3.6917	-3.3542	-3.2458	-3.5563	-3.3208	-3.4125	-3.5875	-3.3063	-3.5563	-3.2167	150.371	375.425	244.096	224.837	359.417	154.460	336.625	394.651	351.161	199.718	424.458	432.323	154.940	358.459	391.997	446.296	0.00074378	0.00035917	6.8634e-05	1118.8	5.9578e-06	4.3803e-06	1192.5	236.83	8.0855e-06	2.735e-06	296.69	85.707	67.129	19.627	6.8373e-06	27.376	0.00028401	0.00011023	3.0199e-05	1114.2	1.849e-06	1.228e-06	1181.6	235.91	1.558e-06	1.0034e-06	297.11	85.97	67.111	19.893	1.2907e-06	27.885	349.499	162.983	181.254	99.546	243.626	245.528	99.707	107.181	271.721	241.556	106.732	113.055	113.641	120.689	236.082	119.634	-8191	255	
428.320	1	1	0	0	0.14879	0.35636	0.065171	0.072206	0.067718	0.02478	0.025002	0.077937	0.12251	0.095016	0.22338	0.17445	0.05482	0.018489	0.13637	0.12092	-3.0229	-3.5312	-3.2625	-3.4562	-3.4521	-3.0104	-3.6813	-3.4458	-3.2	-3.4083	-3.2479	-3.4083	-3.3563	-3.1354	-3.5479	-3.3271	181.390	381.386	273.825	368.413	386.495	312.128	265.939	281.613	255.930	99.966	119.589	95.904	145.765	404.258	218.134	286.935	0.00081963	0.00038887	8.8427e-05	1124.8	5.0643e-06	3.533e-06	1197.7	237.5	7.2908e-06	3.7302e-06	296.31	85.266	67.275	19.576	6.5433e-06	27.449	0.00030048	0.0001115	3.0622e-05	1116.4	1.7284e-06	1.2235e-06	1184.3	236.57	1.5573e-06	1.0464e-06	296.69	85.996	67.194	19.967	1.2307e-06	27.974	348.197	190.999	182.031	99.678	236.171	244.425	99.711	107.103	274.197	238.307	106.760	113.139	113.693	120.455	242.092	119.897	-8191	255	
428.438	1	1	0	0	0.19826	0.27724	0.13829	0.15469	0.14239	0.2139	0.073477	0.15423	0.20867	0.34567	0.23637	0.21513	0.1974	0.12751	0.14508	0.16211	-2.7229	-3.4437	-3.1771	-3.3083	-3.3479	-3.1104	-3.6896	-3.3542	-3.3604	-3.5229	-3.3208	-3.3271	-3.4729	-3.2812	-3.375	-3.4125	96.719	100.947	239.824	437.772	159.133	251.703	354.631	368.991	113.707	415.062	103.512	107.652	369.400	275.904	430.832	123.180	0.00083377	0.00038772	9.3771e-05	1125.9	5.9263e-06	3.6756e-06	1196.6	237.31	1.0258e-05	3.5346e-06	297.15	85.992	67.787	19.716	6.472e-06	27.497	0.00029369	0.00010071	2.9977e-05	1118.2	1.6801e-06	1.1767e-06	1183.9	236.83	1.5816e-06	1.0786e-06	296.64	86.133	67.39	20.043	1.4722e-06	27.973	349.875	190.228	171.684	99.541	234.023	253.971	99.820	107.038	263.554	260.879	106.522	113.251	113.750	120.262	242.440	119.742	-8191	255	
428.535	1	1	0	0	0.02611	0.030998	0.17873	0.18069	0.16906	0.27365	0.088366	0.1878	0.066984	0.060319	0.22652	0.10382	0.10969	0.18375	0.020631	0.097206	-2.5958	-3.4583	-3.1667	-3.4562	-3.2896	-3.1167	-3.3063	-3.3563	-3.1208	-3.4313	-3.3	-3.1875	-3.5375	-3.3167	-3.4167	-3.3042	319.538	369.290	327.284	259.875	239.863	334.043	212.469	342.546	185.856	150.854	208.645	426.904	164.282	164.152	328.855	203.534	0.00080028	0.00025906	0.00011543	1129.6	6.6348e-06	3.0663e-06	1196.2	237.07	1.1905e-05	2.7088e-06	297.01	85.969	67.196	19.663	6.4096e-06	27.668	0.00029484	9.6818e-05	3.1089e-05	1116.4	1.7887e-06	1.2991e-06	1182.9	236.45	1.7001e-06	1.0437e-06	297.35	86.008	67.24	20.015	1.3664e-06	28.041	348.561	173.230	182.673	99.794	242.213	224.279	99.480	107.065	280.250	261.709	106.606	113.150	113.494	120.690	242.424	120.159	-8191	255	
428.631	1	1	0	0	0.090929	0.052107	0.39493	0.066299	0.24722	0.083921	0.2067	0.19217	0.1251	0.16595	0.28032	0.17875	0.097065	0.1383	0.16184	0.31615	-2.8563	-3.4208	-3.2812	-3.4292	-3.3125	-3.2542	-3.4771	-3.4729	-3.2771	-3.5458	-3.3542	-3.4104	-3.3937	-3.3292	-3.2229	-3.4146	285.751	324.305	123.130	165.813	152.288	251.202	444.430	407.807	346.375	401.738	172.277	331.767	415.107	434.912	117.660	447.112	0.00079835	0.00041212	7.9898e-05	1123.9	5.1599e-06	2.9655e-06	1196.8	238.81	1.23e-05	4.6035e-06	297.4	85.77	67.454	19.769	5.4061e-06	27.448	0.00029393	9.8088e-05	3.0622e-05	1116.4	1.5452e-06	1.1668e-06	1185.4	237.3	1.6692e-06	1.041e-06	296.69	86.367	67.31	20.049	1.4596e-06	27.995	347.196	190.115	188.696	99.770	251.688	243.432	99.371	107.087	274.468	245.338	106.435	113.121	113.903	120.670	246.633	119.406	-8191	255	
428.727	1	1	0	0	0.21493	0.077076	0.25202	0.26919	0.17401	0.21855	0.037144	0.21789	0.074455	0.20582	0.11612	0.21314	0.24758	0.078067	0.17446	0.10239	-2.7958	-3.3521	-3.3125	-3.3	-3.4	-3.1646	-3.4146	-3.5854	-3.1562	-3.4938	-3.4021	-3.15	-3.4562	-3.1479	-3.3792	-3.6063	119.821	129.069	320.429	414.242	174.517	330.098	432.799	299.455	370.538	161.049	349.959	112.988	341.905	432.265	316.205	429.860	0.00082156	0.00029928	6.6168e-05	1130.5	6.754e-06	3.4211e-06	1193.3	238.45	1.0048e-05	3.7438e-06	297.92	86.138	67.575	19.738	4.5474e-06	27.57	0.0002864	9.5548e-05	2.8374e-05	1118.5	1.7246e-06	1.002e-06	1184.2	237.39	1.7148e-06	1.024e-06	297.4	86.447	67.421	20.055	1.3025e-06	28.121	350.670	192.183	203.918	99.587	238.504	253.955	99.441	107.178	278.752	229.719	106.217	113.233	113.626	120.775	247.262	119.387	-8191	255	
428.823	1	1	0	0	0.066131	0.18104	0.10146	0.46496	0.014179	0.071047	0.11723	0.16792	0.22538	0.19947	0.022341	0.11514	0.022999	0.094948	0.14109	0.077732	-2.7979	-3.3646	-3.3812	-3.3208	-3.4354	-3.2521	-3.4729	-3.5146	-3.0833	-3.3875	-3.3063	-3.2188	-3.4604	-3.2938	-3.0521	-3.4458	95.208	408.597	287.626	99.182	345.011	148.466	90.464	133.132	318.727	374.785	255.564	417.818	137.587	257.589	230.732	366.830	0.00076605	0.00040723	8.5495e-05	1123.6	7.4661e-06	3.2357e-06	1199.2	239.08	1.0042e-05	4.0977e-06	297.67	86.388	67.414	19.852	5.6297e-06	27.627	0.00028314	8.8882e-05	2.8864e-05	1117.4	1.7578e-06	1.1362e-06	1184.8	238	1.5911e-06	1.032e-06	296.97	86.701	67.532	20.079	1.4091e-06	28.082	348.257	188.296	203.727	99.860	246.262	273.542	99.657	107.122	285.588	248.476	106.677	113.100	113.392	120.517	234.566	119.550	-8191	255	
428.919	1	1	0	0	0.25837	0.33123	0.10756	0.32618	0.093828	0.11454	0.25916	0.25584	0.10868	0.07939	0.088123	0.16214	0.086696	0.322	0.15348	0.04388	-2.7062	-3.4875	-3.3833	-3.2938	-3.4813	-3.3187	-3.4375	-3.4479	-3.2396	-3.2771	-3.4938	-3.0917	-3.45	-3.4208	-3.2917	-3.5396	303.921	331.566	216.368	448.416	402.571	100.208	336.207	117.832	89.821	435.660	417.944	108.137	190.128	415.922	148.693	148.706	0.00077804	0.00036607	9.0307e-05	1130.6	7.1119e-06	2.4734e-06	1199.1	240.02	9.3489e-06	3.2837e-06	298.86	85.98	67.441	19.634	5.0703e-06	27.56	0.00027482	0.00010198	2.3278e-05	1117.7	1.6771e-06	9.6691e-07	1185.9	238.86	1.5175e-06	1.1091e-06	298.83	86.655	67.532	20.072	1.4967e-06	28.099	349.286	179.301	169.792	99.629	242.760	277.296	99.684	106.762	282.809	245.139	106.697	112.881	113.655	120.259	237.230	119.204	-8191	255	
429.040	1	1	0	0	0.1894	0.081875	0.19465	0.19295	0.21571	0.22825	0.16179	0.019924	0.044237	0.1211	0.22691	0.1756	0.10888	0.25937	0.092506	0.12091	-2.8	-3.4958	-3.5125	-3.3792	-3.4833	-3.3083	-3.3979	-3.55	-3.2146	-3.4354	-3.5458	-3.1625	-3.2396	-3.3833	-3.1437	-3.5875	442.695	185.402	167.235	117.991	193.973	186.629	350.712	380.642	382.146	168.945	350.251	402.997	170.642	273.914	358.255	231.311	0.00078948	0.00037148	0.00010671	1125.1	7.5205e-06	3.6049e-06	1200.1	240.16	9.3788e-06	3.985e-06	299.62	86.226	67.503	19.867	4.656e-06	27.737	0.00029076	0.00011039	2.5682e-05	1116.4	1.5558e-06	9.9752e-07	1186.1	239.22	1.5933e-06	1.0428e-06	298.7	86.743	67.552	20.141	1.3964e-06	28.138	347.101	190.810	182.869	99.687	239.418	250.757	99.527	107.022	283.750	241.719	106.252	113.194	113.704	119.898	270.887	119.930	-8191	255	
429.134	1	1	0	0	0.1129	0.20851	0.27744	0.10508	0.087468	0.23711	0.14193	0.12415	0.25111	0.20621	0.22804	0.2081	0.01406	0.017915	0.31517	0.0806	-2.7438	-3.1479	-3.4437	-3.2792	-3.3333	-3.2896	-3.3979	-3.5563	-3.2687	-3.3	-3.6646	-3.0979	-3.4083	-3.4604	-3.2792	-3.6729	186.931	322.416	315.385	172.436	102.856	320.814	357.288	443.987	288.029	239.454	315.907	192.003	311.049	288.719	404.412	101.509	0.00077877	0.00030852	7.4338e-05	1129	5.5817e-06	2.769e-06	1191.6	241.16	1.3083e-05	3.5853e-06	297.59	85.955	67.729	19.74	4.9482e-06	27.358	0.00027923	9.1977e-05	2.675e-05	1118.5	1.6545e-06	9.291e-07	1184.5	240.17	1.5793e-06	1.0356e-06	298.78	86.633	67.666	20.083	1.2093e-06	28.032	347.430	175.557	172.282	99.619	235.475	258.178	99.688	107.136	273.114	250.741	106.300	113.210	113.782	120.465	225.948	119.554	-8191	255	
429.230	1	1	0	0	0.13711	0.20062	0.18993	0.097714	0.19815	0.24991	0.15966	0.33948	0.12621	0.22566	0.18578	0.17262	0.28727	0.14863	0.14681	0.13034	-3.1292	-3.1083	-3.7062	-3.3	-3.3479	-3.4396	-3.2479	-3.5021	-3.2958	-3.1167	-3.6125	-3.3479	-3.3563	-3.5104	-3.3104	-3.5708	251.478	355.168	251.751	260.970	220.111	134.013	133.853	368.637	395.218	289.974	122.281	382.488	382.514	210.877	206.268	359.408	0.00079162	0.0003421	9.8787e-05	1129.9	7.3864e-06	1.4308e-06	1198	240.03	1.2948e-05	3.7196e-06	299.2	86.041	67.62	19.757	5.2505e-06	27.31	0.00028878	0.0001111	2.9265e-05	1118	1.5882e-06	7.0853e-07	1183.7	239.81	1.4034e-06	1.0912e-06	299.17	86.351	67.49	20.037	1.3862e-06	27.977	347.897	187.865	179.465	99.777	225.513	253.969	99.905	106.984	271.670	243.644	106.539	113.043	113.677	120.439	247.353	119.954	-8191	255	
429.327	1	1	0	0	0.12585	0.16018	0.12768	0.18559	0.28841	0.086267	0.14532	0.1894	0.1124	0.022796	0.054702	0.33308	0.29611	0.25058	0.14236	0.27426	-3.0104	-3.3271	-3.5625	-3.3292	-3.2	-3.6042	-3.3438	-3.3333	-3.4188	-3.2062	-3.5333	-3.1354	-3.2146	-3.4729	-3.2833	-3.4375	141.066	198.555	212.292	347.629	414.107	151.004	327.824	323.297	146.513	108.124	395.028	121.459	131.012	322.067	412.556	309.102	0.00080166	0.00025721	0.00011348	1122.7	5.869e-06	3.1378e-06	1196.6	241.73	1.035e-05	3.6599e-06	299.57	86.259	67.302	19.724	3.5939e-06	27.558	0.00028541	9.0072e-05	2.2633e-05	1113.8	1.7811e-06	9.39e-07	1182.5	240.26	1.4888e-06	1.0921e-06	299.42	86.686	67.437	20.062	1.2354e-06	28.017	347.973	161.614	170.830	99.825	230.068	282.159	99.637	106.933	264.329	247.036	106.425	113.351	113.541	120.601	235.808	119.690	-8191	255	
429.400	1	1	0	0	0.17185	0.074983	0.2382	0.2815	0.33014	0.15608	0.27085	0.1897	0.22581	0.11476	0.067307	0.092761	0.13509	0.098655	0.0037004	0.096048	-2.9375	-3.1063	-3.35	-3.3542	-3.1417	-3.4542	-3.1604	-3.3521	-3.5354	-3.1479	-3.4354	-3.4667	-3.2479	-3.6437	-3.2646	-3.2479	302.164	226.583	279.250	410.289	311.368	146.688	375.233	439.457	221.252	403.607	320.874	96.197	412.964	347.049	183.595	439.266	0.00076958	0.00036529	6.1496e-05	1125.4	5.5979e-06	4.9771e-06	1194.8	241.38	9.0829e-06	3.9003e-06	297.77	86.304	67.662	19.696	5.9094e-06	27.475	0.00027779	0.00012451	2.448e-05	1113.5	1.7027e-06	8.7868e-07	1182	239.99	1.4777e-06	1.1969e-06	299.34	86.659	67.56	20.071	1.327e-06	28.03	346.942	193.743	184.658	99.819	249.992	240.116	99.366	107.148	278.888	236.182	106.828	113.225	113.642	120.718	240.713	119.472	-8191	255	
429.519	1	1	0	0	0.29251	0.12069	0.32635	0.21513	0.043284	0.20537	0.41929	0.14194	0.10322	0.18259	0.21675	0.085449	0.11537	0.056294	0.23686	0.12043	-2.9375	-3.1437	-3.4229	-3.4125	-3.2042	-3.4729	-3.5625	-3.2812	-3.6042	-3.2417	-3.4354	-3.4292	-2.9854	-3.4021	-3.1125	-3.3042	277.526	254.281	235.814	110.167	89.511	360.991	390.803	380.618	373.930	306.456	210.127	104.960	334.738	104.994	230.128	136.991	0.00076563	0.00037752	9.4801e-05	1121.7	6.6643e-06	3.2933e-06	1193.4	240.84	1.0449e-05	2.5264e-06	299.44	86.139	67.655	19.687	6.0887e-06	27.429	0.00027383	0.00011023	2.4903e-05	1114.7	1.8279e-06	1.0344e-06	1181.9	240.09	1.5749e-06	1.0222e-06	299.7	86.62	67.547	20.022	1.1928e-06	28.011	349.441	177.982	153.690	99.525	220.656	242.532	99.477	107.147	274.914	239.260	106.666	113.378	113.805	120.170	253.094	119.915	-8191	255	
429.615	1	1	0	0	0.092859	0.23956	0.040811	0.38701	0.12047	0.16513	0.025588	0.11228	0.058115	0.060002	0.14712	0.28413	0.059725	0.26697	0.04154	0.13375	-3.0625	-3.1146	-3.4313	-3.6271	-3.0479	-3.4354	-3.3396	-3.2958	-3.4104	-3.2729	-3.4583	-3.4146	-3.2583	-3.5292	-3.3042	-3.1646	398.356	416.611	326.818	374.119	299.462	89.569	407.465	121.212	393.486	201.158	272.407	301.193	195.359	137.429	89.231	196.419	0.00083654	0.00027935	9.8418e-05	1127.3	7.6007e-06	3.6595e-06	1191.7	241.01	8.4092e-06	3.328e-06	298.82	86.104	67.714	19.698	6.2122e-06	27.459	0.00028166	0.00010983	2.9309e-05	1115.3	1.6213e-06	1.0029e-06	1182	239.81	1.3504e-06	9.5319e-07	299.29	86.648	67.423	20.004	1.3885e-06	28	350.403	174.644	156.474	99.744	231.604	248.725	99.552	106.688	281.625	238.731	106.548	113.425	113.621	120.319	238.528	119.781	-8191	255	
429.711	1	1	0	0	0.068663	0.062955	0.075716	0.15932	0.16713	0.11904	0.17993	0.20312	0.10804	0.33033	0.1804	0.20523	0.17484	0.21612	0.085639	0.22514	-2.8604	-3.2188	-3.4083	-3.4208	-3	-3.525	-3.3792	-3.1708	-3.5271	-3.3063	-3.3167	-3.3771	-3.2313	-3.4792	-3.3271	-3.2771	159.840	263.984	411.296	376.666	383.523	280.155	445.756	432.221	257.618	173.358	154.249	111.001	239.846	185.270	423.535	389.966	0.00082155	0.0003003	8.2297e-05	1123.2	8.4702e-06	3.3881e-06	1196.9	240.96	8.8909e-06	4.4371e-06	301.83	86.47	67.316	19.731	6.8901e-06	27.396	0.00028261	9.4755e-05	2.6171e-05	1113.5	1.7434e-06	9.246e-07	1181.8	239.85	1.4505e-06	1.0293e-06	299.44	86.508	67.387	20.011	1.1999e-06	27.885	350.381	188.457	179.567	99.598	232.347	262.330	99.628	107.049	272.745	228.852	106.438	113.100	113.542	120.568	230.334	120.020	-8191	255	
429.807	1	1	0	0	0.1259	0.084678	0.24068	0.18255	0.18767	0.15005	0.28319	0.21736	0.20986	0.15191	0.32483	0.18193	0.12398	0.26306	0.25012	0.11268	-3.0833	-3.1479	-3.2146	-3.5125	-3.0854	-3.55	-3.4437	-3.1896	-3.5896	-3.2021	-3.1604	-3.4708	-3.1813	-3.4813	-3.2125	-3.0812	397.859	392.729	337.160	337.028	319.331	364.547	376.734	104.122	413.315	212.546	338.665	109.639	310.019	140.288	293.409	331.549	0.00081751	0.00022369	9.8274e-05	1117.2	6.0752e-06	2.3963e-06	1190.5	239.81	1.2019e-05	3.9436e-06	298.46	86.084	67.321	19.81	3.1497e-06	27.56	0.00028096	8.4041e-05	2.7484e-05	1111.8	1.9304e-06	9.5971e-07	1179.5	238.9	1.4534e-06	9.6126e-07	298.08	86.333	67.336	20.043	1.1936e-06	27.987	348.341	181.108	196.462	99.796	232.940	249.578	99.627	106.801	285.014	251.346	106.579	113.327	113.634	119.834	240.836	119.735	-8191	255	
429.928	1	1	0	0	0.097122	0.072367	0.16422	0.073689	0.060274	0.19445	0.2227	0.12999	0.065657	0.1781	0.064367	0.12285	0.21321	0.070547	0.20169	0.2138	-3.0479	-3.2667	-3.1729	-3.6042	-3.35	-3.45	-3.5646	-3.2687	-3.3312	-3.2729	-3.1813	-3.6479	-3.2062	-3.3521	-3.4479	-3.1562	353.958	173.595	228.116	116.604	382.185	122.889	384.722	376.340	164.037	321.933	372.504	303.706	140.601	102.102	288.122	158.786	0.00080178	0.00027866	6.8681e-05	1121.4	7.5332e-06	2.2984e-06	1189.2	239.47	1.1929e-05	3.8571e-06	296.61	85.629	67.413	19.58	5.5228e-06	27.326	0.00027647	9.9834e-05	2.6015e-05	1112.6	1.861e-06	1.0803e-06	1180.7	238.84	1.5735e-06	1.0858e-06	298.17	86.043	67.228	19.924	1.2291e-06	27.857	350.621	169.701	164.248	99.782	230.697	234.696	99.713	107.217	277.928	255.686	107.052	113.204	113.445	120.561	260.642	119.973	-8191	255	
430.000	1	1	0	0	0.29207	0.027719	0.19487	0.15957	0.20535	0.24459	0.23237	0.12481	0.17362	0.036639	0.11876	0.11755	0.14105	0.29434	0.14843	0.077891	-3.0229	-3.2833	-3.0854	-3.5979	-3.2646	-3.1958	-3.7604	-3.2208	-3.5542	-3.3667	-3.2396	-3.6333	-3.3063	-3.2542	-3.5125	-3.2167	91.176	296.517	300.439	405.626	325.409	334.635	381.444	141.768	197.502	317.928	134.513	124.735	188.911	153.381	199.868	395.622	0.00081096	0.00033517	8.3248e-05	1118.4	6.4589e-06	3.4842e-06	1194.8	239.94	1.0236e-05	4.1371e-06	296.92	86.055	67.428	19.569	4.7375e-06	27.451	0.00028504	0.00010206	2.9665e-05	1110.9	1.7359e-06	9.8762e-07	1179.9	238.17	1.4682e-06	1.0078e-06	298.25	86.132	67.209	19.924	1.1604e-06	27.935	350.328	192.539	205.759	99.751	235.122	244.825	99.660	106.967	277.378	264.637	106.682	113.323	113.598	120.650	230.792	119.769	-8191	255	
430.120	1	1	0	0	0.062317	0.29608	0.1836	0.22418	0.17979	0.16349	0.097664	0.1728	0.095155	0.14046	0.091552	0.29918	0.14777	0.15136	0.19406	0.20224	-2.9458	-3.3521	-3.1333	-3.6063	-3.1562	-3.2625	-3.7938	-3.3146	-3.3667	-3.3708	-3.1729	-3.2979	-3.2458	-3.25	-3.3833	-3.1521	241.695	435.401	438.313	333.408	407.418	137.329	383.902	326.939	332.149	126.172	181.889	396.277	173.938	296.646	247.775	101.961	0.00075888	0.00032535	0.00010905	1120.8	7.03e-06	2.95e-06	1188.5	239.85	1.1011e-05	2.701e-06	299.14	85.609	67.215	19.509	4.0925e-06	27.41	0.00026901	9.3644e-05	3.7365e-05	1112.9	1.6364e-06	1.1893e-06	1180.4	238.52	1.4836e-06	8.2867e-07	298.28	86.208	67.137	19.977	1.2291e-06	27.884	350.388	189.131	190.807	99.658	240.402	279.197	99.840	106.755	284.736	232.532	106.799	112.932	113.792	120.724	258.922	119.727	-8191	255	
430.215	1	1	0	0	0.14091	0.1814	0.18884	0.33844	0.14628	0.32131	0.046029	0.10179	0.12045	0.31079	0.15088	0.265	0.087103	0.030447	0.067608	0.091791	-3.0271	-3.3875	-3.1312	-3.5208	-3.2729	-3.2229	-3.6875	-3.2208	-3.3375	-3.5563	-3.1396	-3.6354	-3.4208	-3.2271	-3.45	-3.2646	372.415	373.934	105.689	375.921	263.775	343.268	90.799	392.668	315.115	150.250	380.020	288.139	389.804	318.741	137.280	318.676	0.00074649	0.00037635	0.00010325	1123.7	5.0086e-06	3.0761e-06	1193.1	239.36	1.0571e-05	2.2558e-06	299.5	85.996	67.183	19.648	3.6327e-06	27.338	0.00026778	9.1739e-05	3.0889e-05	1114.2	1.5708e-06	1.0479e-06	1180.9	238.2	1.6184e-06	1.032e-06	298.14	86.201	67.189	19.955	1.1288e-06	27.924	350.438	188.480	184.097	99.737	234.761	230.291	99.745	107.192	278.503	220.323	106.314	113.442	114.088	120.431	246.230	119.575	-8191	255	
430.311	1	1	0	0	0.11312	0.11562	0.25397	0.12819	0.18026	0.18131	0.070578	0.35712	0.1221	0.026444	0.12769	0.27625	0.1379	0.20513	0.11133	0.056976	-2.7167	-3.5146	-3.0958	-3.4979	-3.3417	-3.2604	-3.6333	-3.2729	-3.3021	-3.5229	-3.2542	-3.4875	-3.3771	-3.0875	-3.4729	-3.2125	428.705	320.945	110.691	137.876	107.680	326.925	298.534	191.893	259.790	243.713	216.330	398.981	284.506	144.553	399.810	139.413	0.00079488	0.00042563	8.0905e-05	1121.6	6.0472e-06	3.1123e-06	1190.4	239.49	9.8983e-06	3.4052e-06	300.33	85.503	67.418	19.545	6.5461e-06	27.528	0.00027758	0.00010213	2.7729e-05	1113.1	1.6869e-06	1.1191e-06	1180.6	238.51	1.5433e-06	8.1254e-07	299	86.148	67.228	19.953	1.2614e-06	27.924	348.393	185.359	203.189	99.891	241.186	247.654	99.719	107.177	277.706	241.561	107.066	113.253	113.713	120.656	258.483	119.680	-8191	255	
430.407	1	1	0	0	0.082705	0.20287	0.19162	0.2102	0.15054	0.078548	0.15858	0.14906	0.12052	0.28233	0.061228	0.17432	0.055443	0.24837	0.10767	0.31557	-2.7938	-3.3083	-3.2562	-3.5875	-3.2917	-2.9896	-3.6833	-3.425	-3.2625	-3.3729	-3.0521	-3.3646	-3.4062	-3.2896	-3.5167	-3.2771	359.843	274.525	309.323	407.546	403.342	155.804	284.220	345.303	288.149	336.079	117.935	397.547	329.772	149.112	246.684	315.858	0.00079233	0.00042648	9.3478e-05	1124.4	5.5566e-06	3.5438e-06	1189.7	239.76	9.911e-06	4.4799e-06	299.48	85.964	67.154	19.647	5.2081e-06	27.188	0.00028672	9.9278e-05	2.4858e-05	1113.1	1.5595e-06	1.2352e-06	1179.1	238.29	1.4556e-06	9.8813e-07	298.22	86.086	67.117	19.889	1.1557e-06	27.859	350.591	177.876	179.127	99.646	237.019	238.599	99.531	107.055	282.935	241.039	106.255	113.191	114.066	120.176	261.434	119.954	-8191	255	
430.528	1	1	0	0	0.1733	0.36413	0.089169	0.17522	0.19024	0.23245	0.26016	0.10949	0.18188	0.20378	0.19828	0.15356	0.25161	0.041348	0.19202	0.011738	-2.7354	-3.5104	-3.1188	-3.4604	-3.5708	-3.1813	-3.4458	-3.3521	-3.1188	-3.4854	-3.2625	-3.4562	-3.7625	-3.2979	-3.5479	-3.3812	326.104	325.601	408.300	350.982	99.261	402.300	439.667	154.112	172.634	166.367	386.394	187.126	111.611	266.180	291.941	434.998	0.00077577	0.00034392	8.3753e-05	1121.3	7.4114e-06	2.9287e-06	1188.5	238.04	1.0689e-05	4.3328e-06	299.23	85.382	67.135	19.524	6.7135e-06	27.377	0.0002859	8.9834e-05	2.715e-05	1110.2	1.6259e-06	1.1524e-06	1177.6	237.9	1.706e-06	1.0741e-06	297.74	85.93	66.965	19.916	1.1849e-06	27.831	347.922	173.835	193.314	99.806	225.513	243.936	99.558	106.986	269.152	244.945	106.932	112.984	113.980	120.312	245.691	119.885	-8191	255	
430.599	1	1	0	0	0.17058	0.032812	0.11886	0.29373	0.1635	0.082689	0.35534	0.22866	0.16815	0.22496	0.2182	0.14622	0.098986	0.09878	0.16069	0.16264	-2.7167	-3.4125	-3.175	-3.2833	-3.2833	-3.2021	-3.5896	-3.3438	-3.0083	-3.5083	-3.1833	-3.2271	-3.4229	-3.1021	-3.3563	-3.4479	303.306	434.156	418.543	387.590	346.384	198.113	366.761	362.355	439.432	201.220	302.233	284.066	219.541	231.271	184.505	325.183	0.00078236	0.00036305	0.00011931	1119.9	7.0464e-06	3.4089e-06	1194.5	239.85	1.4907e-05	2.9499e-06	299.64	85.781	67.3	19.624	5.7412e-06	27.466	0.00029117	0.00010277	2.9242e-05	1112.1	1.5633e-06	9.4891e-07	1181.7	238.27	1.7399e-06	1.0204e-06	298.33	86.353	67.232	19.962	1.2409e-06	28.018	351.307	182.105	201.206	99.719	239.624	260.473	99.559	106.966	274.358	248.813	106.777	113.407	113.684	120.437	242.515	119.701	-8191	255	
430.695	1	1	0	0	0.015782	0.13998	0.16559	0.066756	0.26823	0.23647	0.1239	0.15056	0.067843	0.26818	0.29592	0.17153	0.15292	0.25924	0.31445	0.16808	-2.8563	-3.5354	-3.2646	-3.3917	-3.4688	-3.075	-3.5396	-3.4333	-3.2375	-3.3396	-3.3312	-3.3104	-3.5125	-3.1042	-3.3333	-3.5146	117.703	419.076	148.834	162.716	168.984	169.904	279.782	397.294	220.781	207.532	321.485	420.061	243.971	445.484	374.148	229.253	0.00078752	0.00018854	5.9784e-05	1119.4	8.0533e-06	2.8704e-06	1198.4	239.41	1.1414e-05	3.7812e-06	299.25	85.701	66.981	19.684	5.6843e-06	27.334	0.00029566	8.2692e-05	2.2477e-05	1111.3	1.5746e-06	1.0659e-06	1181.8	238.62	1.5455e-06	8.0807e-07	298.51	86.317	67.237	19.953	1.282e-06	27.966	346.799	183.656	175.652	99.735	230.891	243.110	99.722	107.129	286.361	241.225	106.621	113.291	113.679	120.697	242.048	119.755	-8191	255	
430.816	1	1	0	0	0.15461	0.21616	0.18214	0.17982	0.21789	0.054493	0.38426	0.083122	0.24918	0.053154	0.033365	0.066488	0.1438	0.22739	0.11569	0.16184	-2.7333	-3.4229	-3.25	-3.2271	-3.3688	-3.175	-3.3146	-3.5833	-3.2375	-3.4958	-3.2917	-3.1979	-3.6208	-3.2667	-3.2021	-3.4375	271.812	258.645	377.800	394.087	392.878	396.627	394.131	422.796	180.867	299.419	233.222	223.581	290.652	117.657	330.200	221.347	0.0007975	0.00026725	8.3492e-05	1120	6.3727e-06	2.9412e-06	1188.2	239.39	9.9498e-06	2.6991e-06	299.43	85.757	67.066	19.581	4.9086e-06	27.329	0.00028804	8.3724e-05	2.4035e-05	1111.7	1.659e-06	9.9482e-07	1179	238.73	1.4873e-06	1.0356e-06	298.5	86.115	67.067	19.95	1.3712e-06	27.935	348.482	188.307	162.507	99.739	225.206	260.858	99.631	107.106	284.329	240.357	106.581	113.288	113.479	120.651	236.068	120.041	-8191	255	
430.912	1	1	0	0	0.21469	0.20401	0.2778	0.25667	0.11555	0.16878	0.29334	0.16571	0.20722	0.11163	0.041201	0.26976	0.11595	0.079014	0.1697	0.078123	-2.8542	-3.4	-3.2854	-3.1896	-3.4271	-3.2667	-3.2271	-3.3333	-3.1312	-3.4771	-3.4583	-3.0396	-3.4062	-3.075	-3	-3.5521	207.463	335.205	209.110	133.198	153.261	128.252	401.644	301.663	261.116	242.578	427.084	445.145	205.455	118.841	246.520	361.761	0.00083422	0.00024453	0.00011792	1121.2	6.7169e-06	3.9436e-06	1191.6	239.6	1.0884e-05	4.5236e-06	298.12	86.028	67.437	19.66	4.8124e-06	27.407	0.00029233	0.00010285	2.7084e-05	1112.6	1.5927e-06	1.2226e-06	1179.1	238.49	1.6471e-06	1.0741e-06	297.74	86.202	67.218	19.935	1.2457e-06	27.944	349.155	186.990	182.819	99.657	235.065	260.197	99.713	106.930	272.843	249.178	106.286	113.281	113.308	120.514	244.758	119.934	-8191	255	
431.008	1	1	0	0	0.31333	0.11062	0.17863	0.29338	0.19671	0.094372	0.24847	0.14563	0.086007	0.10216	0.11501	0.13092	0.29295	0.23351	0.085878	0.082049	-2.7188	-3.3875	-3.2625	-3.2062	-3.3187	-3.2604	-3.1937	-3.6729	-3.0729	-3.4729	-3.4771	-3.2583	-3.5271	-3.1729	-3.1188	-3.475	311.175	225.695	221.672	430.210	334.230	300.457	397.868	389.709	414.862	177.859	120.606	155.273	392.200	402.402	156.954	396.503	0.00080536	0.0002491	0.00010217	1116.2	6.4563e-06	2.4921e-06	1188.8	238.44	1.0367e-05	3.9776e-06	298.26	85.545	67.159	19.441	4.347e-06	27.404	0.00028359	9.0072e-05	2.4947e-05	1109.5	1.5542e-06	1.0867e-06	1177.2	238.54	1.6994e-06	1.0473e-06	297.18	85.84	66.986	19.813	1.4454e-06	27.756	348.746	167.767	193.125	99.736	218.822	230.865	99.762	107.000	263.100	253.519	106.543	113.063	113.661	120.462	238.645	119.752	-8191	255	
431.104	1	1	0	0	0.067285	0.16913	0.10683	0.19735	0.16926	0.22775	0.14713	0.14438	0.05724	0.099201	0.12139	0.22594	0.052893	0.084404	0.10006	0.15754	-2.7708	-3.3354	-3.3	-3.2625	-3.3375	-3.2542	-3.1292	-3.5625	-3.2667	-3.15	-3.5354	-3.1042	-3.4125	-3.4625	-3.025	-3.5375	104.569	402.022	389.790	416.404	362.274	431.578	425.283	334.621	357.352	207.167	141.138	425.657	103.037	379.540	404.575	119.400	0.00079117	0.00026677	6.1722e-05	1114.2	6.4189e-06	3.0904e-06	1186.2	236.42	1.3375e-05	3.2542e-06	297	85.657	66.639	19.387	5.6446e-06	27.232	0.00028038	0.00011023	2.4947e-05	1104.3	1.7472e-06	9.7501e-07	1171.8	236.21	1.7001e-06	1.3393e-06	296.65	85.645	66.685	19.798	1.372e-06	27.764	348.802	172.500	174.845	99.578	232.639	263.826	99.645	107.065	286.004	238.641	106.341	113.349	113.747	120.526	264.077	119.439	-8191	255	
431.223	1	1	0	0	0.14897	0.033971	0.064393	0.10631	0.088672	0.16556	0.19787	0.04706	0.013547	0.14638	0.25866	0.11694	0.11134	0.30869	0.097072	0.061679	-2.9938	-3.1833	-3.3563	-3.3417	-3.3146	-3.4042	-3.2938	-3.5896	-3.2667	-3.2583	-3.4833	-3.4104	-3.4688	-3.4854	-3.1188	-3.5604	294.940	234.195	241.672	376.381	169.808	408.599	367.610	111.121	437.580	149.623	98.432	110.010	167.119	97.805	275.118	419.116	0.0007952	0.00034396	6.8305e-05	1115.3	7.3801e-06	2.2983e-06	1188.4	238.64	8.2494e-06	4.2183e-06	297.76	85.694	67.32	19.478	6.6046e-06	27.372	0.00027791	0.00010356	2.6193e-05	1107.2	1.6982e-06	9.435e-07	1176.7	237.55	1.5285e-06	1.0087e-06	297.27	86.155	67.184	19.872	1.2457e-06	27.842	350.723	184.971	191.076	99.761	249.388	246.032	99.682	107.078	295.784	233.206	106.398	113.112	113.625	120.498	260.039	119.775	-8191	255	
431.295	1	1	0	0	0.14339	0.11006	0.11388	0.45056	0.090911	0.093768	0.25339	0.088031	0.22484	0.17713	0.31304	0.066159	0.14324	0.17632	0.13987	0.094785	-2.9896	-3.2521	-3.3333	-3.3917	-3.2458	-3.5167	-3.3125	-3.5187	-3.2812	-3.2708	-3.4771	-3.1813	-3.3438	-3.4396	-3.2896	-3.3646	370.274	273.859	176.581	401.262	357.953	310.162	377.950	95.370	131.047	379.125	157.005	270.053	111.010	144.462	175.076	145.916	0.00078624	0.0003841	9.4695e-05	1120.4	6.5989e-06	2.5676e-06	1185.8	238.16	1.0162e-05	3.1695e-06	297.2	85.156	66.708	19.392	4.9301e-06	27.151	0.00028153	0.00011229	2.6572e-05	1108.9	1.6417e-06	1.0858e-06	1173.8	237.07	1.4777e-06	1.2515e-06	297.1	85.513	66.641	19.781	1.3506e-06	27.722	345.929	176.853	194.804	99.607	236.009	241.347	99.539	107.163	273.613	257.790	106.398	113.135	113.821	120.892	244.295	119.887	-8191	255	
431.391	1	1	0	0	0.14955	0.16903	0.060511	0.17699	0.044855	0.098614	0.1112	0.2654	0.16594	0.16976	0.42711	0.26698	0.17339	0.065563	0.14953	0.16431	-2.9042	-3.0417	-3.3542	-3.3667	-3.2229	-3.6479	-3.2458	-3.6542	-3.3312	-3.2812	-3.6312	-3.3688	-3.3771	-3.6958	-3.1458	-3.4708	380.639	425.351	309.977	418.430	228.359	113.726	119.021	102.896	106.065	246.512	119.760	391.432	175.327	113.625	273.685	201.815	0.00075932	0.00039604	0.00010805	1111.1	6.3761e-06	3.3335e-06	1182.8	238.84	9.7834e-06	3.857e-06	297.92	85.818	66.771	19.458	3.9135e-06	27.233	0.00027507	0.00011975	3.0956e-05	1105.7	1.7766e-06	1.0578e-06	1172.9	237.02	1.5845e-06	1.1861e-06	296.99	85.73	66.713	19.773	1.2993e-06	27.706	350.697	181.958	179.073	99.641	226.203	260.631	99.528	107.148	277.520	245.206	106.667	113.047	113.737	120.352	215.431	119.875	-8191	255	
431.487	1	1	0	0	0.14975	0.11454	0.17806	0.19399	0.29684	0.024409	0.22929	0.16565	0.12189	0.13421	0.22053	0.084677	0.16032	0.14614	0.13635	0.13698	-2.8833	-3.1208	-3.2896	-3.4229	-3.075	-3.4562	-3.3771	-3.525	-3.4646	-3.2917	-3.4208	-3.3812	-3.2479	-3.5917	-3.1833	-3.3563	105.785	184.361	166.814	371.734	281.707	257.664	442.127	227.119	253.334	434.668	432.542	265.089	256.441	314.946	167.821	407.713	0.00079923	0.00045148	6.8644e-05	1113.5	7.1986e-06	3.5784e-06	1187	238.82	8.074e-06	3.4741e-06	298.35	85.499	66.604	19.473	6.5233e-06	27.349	0.00027898	0.00012245	2.8285e-05	1107.7	1.812e-06	9.8762e-07	1174.9	237.31	1.4475e-06	9.5857e-07	297.64	85.687	66.838	19.8	1.3057e-06	27.744	348.685	184.851	155.809	99.857	237.387	228.493	99.451	107.165	286.559	258.265	106.762	113.375	113.867	120.751	243.490	120.127	-8191	255	
431.608	1	1	0	0	0.086166	0.11514	0.17093	0.31864	0.36718	0.13878	0.28534	0.31672	0.1942	0.24676	0.066088	0.043626	0.04789	0.10743	0.02342	0.32961	-3.1813	-3.1125	-3.4437	-3.4875	-3.2	-3.3979	-3.4771	-3.1521	-3.55	-3.1625	-3.3937	-3.4083	-3.3292	-3.5687	-3.1667	-3.2667	378.381	241.927	437.975	448.399	263.345	220.102	381.764	311.777	333.090	341.217	222.408	396.420	130.259	104.611	99.939	339.873	0.00079643	0.00033693	7.6709e-05	1113.5	6.6908e-06	2.858e-06	1191.7	237.77	1.1792e-05	4.0498e-06	297.5	85.123	67.069	19.469	4.2504e-06	27.346	0.0002726	0.00010737	3.0689e-05	1105.2	1.8505e-06	8.4537e-07	1173.7	236.62	1.5484e-06	1.1942e-06	297.05	85.607	66.793	19.816	1.3009e-06	27.769	348.325	168.742	185.955	99.753	231.986	236.793	99.685	106.912	284.975	233.430	107.046	113.400	113.647	120.517	249.006	119.389	-8191	255	
431.704	1	1	0	0	0.058046	0.152	0.25554	0.21669	0.10756	0.16291	0.20467	0.24245	0.21103	0.13973	0.06355	0.097355	0.10361	0.11686	0.18419	0.13035	-3.2188	-3.3625	-3.3937	-3.5375	-3.3542	-3.6167	-3.3521	-3.2646	-3.4437	-3.2979	-3.4771	-3.5021	-3.2604	-3.5167	-3.3167	-3.3063	276.870	251.836	102.566	394.108	143.128	336.984	377.771	370.131	434.194	96.614	237.231	318.181	138.600	230.039	109.702	101.303	0.00082684	0.00035935	7.2836e-05	1119.7	5.5179e-06	4.1593e-06	1193.7	238.94	1.1791e-05	2.9858e-06	298.15	85.495	67.079	19.637	6.3875e-06	27.356	0.00028784	0.00010769	2.5771e-05	1110.2	1.7977e-06	7.8865e-07	1179.7	237.52	1.4483e-06	1.0249e-06	297.38	86.103	67.127	19.943	1.2022e-06	27.923	350.461	188.034	201.211	99.876	239.011	240.869	99.665	107.173	270.337	238.452	106.611	113.344	113.821	120.548	241.348	120.014	-8191	255	
431.800	1	1	0	0	0.35769	0.29492	0.19273	0.21489	0.16892	0.20317	0.25184	0.09089	0.28698	0.17959	0.24643	0.1215	0.29705	0.1461	0.056363	0.28692	-3.1417	-3.1229	-3.25	-3.5708	-3.2812	-3.4	-3.4896	-3.1542	-3.3646	-3.2708	-3.4083	-3.475	-3.1833	-3.4188	-3.3792	-3.1604	402.333	366.364	97.099	414.059	98.304	339.206	389.345	94.992	116.514	326.101	397.363	120.238	149.604	280.077	362.806	361.470	0.00078281	0.00020895	0.00010211	1123.2	6.9421e-06	3.2468e-06	1191.4	238.14	1.1767e-05	3.2987e-06	298.23	85.618	67.265	19.619	4.4018e-06	27.338	0.0002845	9.412e-05	3.1646e-05	1114.9	1.7653e-06	1.0605e-06	1179.6	237.58	1.6029e-06	1.0652e-06	297.47	86.115	67.117	19.891	1.1596e-06	27.899	347.512	193.408	202.875	99.789	235.627	238.697	99.808	107.248	274.977	245.082	106.495	113.196	113.729	120.485	235.433	119.636	-8191	255	
431.896	1	1	0	0	0.27466	0.33547	0.11621	0.32531	0.12416	0.12568	0.25249	0.22752	0.075417	0.2264	0.13271	0.13595	0.20313	0.20172	0.12626	0.39607	-3.2271	-3.2521	-2.9708	-3.5792	-3.2104	-3.4125	-3.5458	-3.2104	-3.4938	-3.4292	-3.1125	-3.4729	-3.3042	-3.4688	-3.4021	-2.9583	105.278	379.519	127.970	422.933	313.175	348.703	345.791	221.895	234.514	341.819	176.992	417.589	203.537	265.556	246.155	362.982	0.00078549	0.00033152	8.8353e-05	1119.7	7.3668e-06	2.9275e-06	1191	238.24	1.0461e-05	4.9394e-06	300.47	85.542	67.108	19.579	4.6549e-06	27.448	0.00027832	9.4755e-05	2.7529e-05	1108.6	1.965e-06	9.7501e-07	1178.7	237.35	1.4196e-06	1.0069e-06	298.06	85.99	66.986	19.868	1.3483e-06	27.933	347.941	174.982	180.210	99.795	247.427	263.443	99.545	107.207	274.016	240.084	106.288	113.131	113.301	120.780	255.692	119.768	-8191	255	
431.993	1	1	0	0	0.21844	0.20399	0.19752	0.30935	0.1127	0.067114	0.3416	0.40446	0.053071	0.2759	0.066799	0.21725	0.17656	0.12805	0.1663	0.09309	-2.9188	-3.2167	-3.1875	-3.5875	-3.1583	-3.2833	-3.4271	-3.1146	-3.6625	-3.3937	-3.1937	-3.4938	-3.2708	-3.3708	-3.45	-3.1292	328.712	172.729	249.316	385.139	310.081	392.018	357.112	346.745	193.701	175.646	185.591	369.153	123.769	447.331	163.744	406.068	0.00075262	0.00041073	5.3127e-05	1117.8	6.4821e-06	2.4965e-06	1191	238.79	1.3674e-05	3.3032e-06	299.07	85.848	67.769	19.593	4.982e-06	27.307	0.00026844	9.8961e-05	2.6995e-05	1110.4	1.8098e-06	1.1632e-06	1178.4	237.56	1.6441e-06	1.1073e-06	297.73	85.993	67.31	19.913	1.1422e-06	27.891	349.415	170.729	200.224	99.863	243.092	246.761	99.723	106.867	272.338	254.465	106.849	113.407	113.521	120.832	242.067	119.774	-8191	255	
432.089	1	1	0	0	0.11252	0.060211	0.15657	0.24016	0.087081	0.24543	0.16076	0.38502	0.25527	0.17949	0.19675	0.21379	0.011562	0.18458	0.096188	0.2018	-2.9562	-3.1688	-3.0958	-3.6625	-3.1979	-3.375	-3.6104	-3.2	-3.3396	-3.4417	-3.1104	-3.6333	-3.3	-3.3021	-3.5	-3.2042	335.581	203.280	111.246	365.860	144.938	358.649	402.133	135.336	199.151	286.744	115.776	181.312	241.001	269.521	383.001	333.030	0.00079812	0.00023113	0.00010514	1120.9	7.5413e-06	3.3362e-06	1188.4	239.5	1.0794e-05	4.4147e-06	296.72	85.812	67.064	19.592	5.598e-06	27.351	0.00028331	9.65e-05	2.8708e-05	1109.6	1.6929e-06	1.02e-06	1176.4	237.53	1.6949e-06	1.0177e-06	296.83	86	67.036	19.909	1.0862e-06	27.883	348.521	177.284	153.355	99.948	238.425	257.737	99.674	107.068	271.591	242.426	106.617	113.358	113.906	120.875	246.446	119.532	-8191	255	
432.209	1	1	0	0	0.22706	0.039943	0.12211	0.21156	0.052767	0.012975	0.17565	0.18641	0.25843	0.25458	0.15542	0.039053	0.14092	0.13109	0.19345	0.077682	-2.9729	-3.4417	-3.1437	-3.6688	-3.2854	-3.3479	-3.6292	-3.1583	-3.2646	-3.3187	-3.1125	-3.4604	-3.2646	-3.1896	-3.4938	-3.4271	330.637	158.482	171.148	325.034	342.247	93.276	356.988	144.246	226.537	197.682	386.152	149.964	401.309	422.077	377.443	400.559	0.00075935	0.00042051	8.5401e-05	1119.1	6.7564e-06	3.5134e-06	1192.1	238.2	1.3086e-05	3.6906e-06	296.62	85.682	67.024	19.65	4.0876e-06	27.247	0.00027783	9.2136e-05	3.2647e-05	1109.5	1.7796e-06	1.1164e-06	1180.2	238.03	1.5381e-06	8.654e-07	297.62	86.047	67.098	19.965	1.0017e-06	27.885	352.109	188.721	176.314	99.805	240.711	247.716	99.646	107.030	275.426	259.868	106.635	113.599	113.928	120.742	262.347	119.871	-8191	255	
432.304	1	1	0	0	0.25318	0.27348	0.097208	0.17502	0.091508	0.23868	0.073903	0.14328	0.23011	0.11843	0.11363	0.15492	0.38015	0.1321	0.15755	0.11532	-2.8979	-3.4313	-3.1729	-3.3688	-3.2417	-3.2896	-3.6771	-3.3667	-3.2604	-3.5083	-3.1896	-3.3688	-3.425	-3.0729	-3.4854	-3.2292	200.053	445.152	432.887	179.516	295.929	212.334	320.087	90.230	212.967	264.948	235.472	363.301	213.611	415.872	330.346	405.869	0.00074748	0.00031704	6.0701e-05	1120.4	6.4141e-06	3.2728e-06	1192.3	238.5	9.0941e-06	4.1543e-06	300.47	85.572	67.096	19.546	5.9737e-06	27.2	0.00027803	9.2612e-05	3.011e-05	1109.3	1.6628e-06	1.0272e-06	1179.9	237.9	1.5344e-06	8.4211e-07	298.23	86.227	67.199	19.929	1.1186e-06	27.802	345.497	184.999	167.405	99.730	229.540	263.802	100.024	106.863	261.847	265.398	106.542	113.583	113.694	120.454	242.392	119.698	-8191	255	
432.400	1	1	0	0	0.26219	0.044366	0.10284	0.039608	0.18815	0.15415	0.31266	0.14554	0.24359	0.22305	0.085361	0.30952	0.1104	0.17168	0.11011	0.04868	-2.6833	-3.4542	-3.0229	-3.3021	-3.4333	-3.0833	-3.7021	-3.4292	-3.2792	-3.5208	-3.2792	-3.5542	-3.3104	-3.1375	-3.5563	-3.2687	245.354	339.431	302.371	390.571	127.696	216.075	399.850	375.440	323.395	150.551	220.375	364.652	181.941	273.473	101.977	342.357	0.00079046	0.00033642	8.531e-05	1117.9	7.4809e-06	3.1802e-06	1188.2	240.08	1.3229e-05	3.0581e-06	298.4	86.357	67.195	19.597	3.0381e-06	27.272	0.00029031	9.4199e-05	2.7173e-05	1109.1	1.6575e-06	1.0605e-06	1178.2	238.31	1.569e-06	7.9284e-07	297.22	86.165	67.087	19.9	1.0688e-06	27.822	348.071	177.071	177.803	99.743	235.109	266.027	99.676	107.221	270.788	244.303	106.743	113.396	113.773	120.515	226.229	119.423	-8191	255	
432.520	1	1	0	0	0.23193	0.0067912	0.21084	0.057084	0.16214	0.14855	0.22077	0.053536	0.1929	0.12683	0.27143	0.22721	0.048022	0.24985	0.19938	0.12838	-2.7729	-3.3125	-3.2208	-3.4542	-3.325	-3.3042	-3.4	-3.2812	-3.1	-3.6604	-3.2438	-3.4417	-3.6104	-3.0604	-3.4792	-3.4125	415.068	342.211	312.349	304.539	185.364	183.629	367.745	124.367	239.787	235.983	126.393	410.768	426.859	443.498	222.196	143.330	0.00078723	0.00048755	8.9657e-05	1120.3	7.174e-06	1.8172e-06	1193.3	238.87	1.0091e-05	4.1332e-06	296.81	85.472	67.482	19.622	5.7543e-06	27.267	0.00028088	9.4358e-05	3.0867e-05	1112.5	1.7253e-06	1.0317e-06	1180	237.83	1.7045e-06	1.0804e-06	297.32	86.029	67.17	19.921	1.3388e-06	27.835	349.045	181.063	189.228	99.746	225.447	238.316	99.728	106.998	273.695	246.514	106.758	113.357	113.562	120.371	236.694	120.029	-8191	255	
432.592	1	1	0	0	0.15316	0.034206	0.17601	0.19483	0.37509	0.13632	0.083359	0.36365	0.14002	0.18452	0.29663	0.18694	0.12561	0.39328	0.1937	0.11498	-2.8229	-3.4437	-3.2458	-3.2792	-3.6813	-3.1146	-3.7271	-3.475	-2.8646	-3.3937	-3.2167	-3.4229	-3.3771	-3.2542	-3.5021	-3.4792	433.200	311.797	409.150	366.318	221.461	216.601	357.838	364.974	99.075	115.355	104.365	438.279	332.419	423.203	205.566	394.880	0.00077344	0.00034764	6.2972e-05	1115.7	5.1892e-06	3.2541e-06	1190.7	239.46	1.2739e-05	3.8196e-06	298.9	85.465	67.387	19.737	5.69e-06	27.399	0.00028125	0.00010713	3.1423e-05	1109.6	1.6078e-06	1.1785e-06	1177.4	238.16	1.6699e-06	9.6932e-07	296.84	86.008	67.198	19.919	1.3727e-06	27.801	347.348	178.869	188.516	99.907	220.896	227.477	99.724	106.938	276.607	233.839	107.249	113.084	113.694	120.758	232.717	120.052	-8191	255	
432.687	1	1	0	0	0.22554	0.14402	0.12903	0.24852	0.17349	0.20498	0.3712	0.19755	0.065654	0.048853	0.20172	0.20075	0.081057	0.25184	0.12923	0.30281	-2.6458	-3.45	-3.2729	-3.4042	-3.4021	-2.9833	-3.5146	-3.4688	-3.0438	-3.3937	-3.2292	-3.2208	-3.5104	-3.0958	-3.3208	-3.3812	212.183	412.939	406.661	382.993	298.136	370.172	382.299	449.018	189.829	263.443	401.993	257.711	184.749	387.691	434.810	261.160	0.00078645	0.0003164	9.2379e-05	1121.7	5.9447e-06	4.2642e-06	1189.4	238.81	9.0361e-06	4.2347e-06	298.04	85.553	67.173	19.5	5.5178e-06	27.503	0.00027857	9.4516e-05	2.379e-05	1110.5	1.7593e-06	1.2262e-06	1178.7	237.88	1.4932e-06	9.4424e-07	297.47	86.092	67.041	19.899	1.2607e-06	27.881	347.434	175.942	172.544	99.738	235.245	242.777	99.734	107.138	276.412	240.026	106.961	113.224	113.484	120.765	239.439	120.009	-8191	255	
432.783	1	1	0	0	0.14943	0.23323	0.19321	0.17657	0.12775	0.072931	0.15615	0.15488	0.18647	0.17071	0.062005	0.1356	0.19188	0.14695	0.21042	0.12269	-2.5375	-3.3688	-3.2708	-3.2625	-3.5854	-3.1875	-3.4208	-3.4958	-3.0792	-3.55	-3.2938	-3.1021	-3.3937	-3.1458	-3.2938	-3.3021	233.744	256.994	111.358	424.480	245.272	446.199	419.949	368.331	287.223	398.049	310.918	101.650	438.362	350.950	242.701	310.263	0.00080027	0.00038982	9.069e-05	1118.7	6.1449e-06	3.595e-06	1190.9	239.54	1.115e-05	4.0446e-06	296.83	85.77	67.374	19.623	4.2598e-06	27.234	0.00029031	0.00010547	2.3078e-05	1110.1	1.5505e-06	1.1767e-06	1179.3	237.96	1.6014e-06	1.0267e-06	297.76	86.007	67.182	19.935	1.2417e-06	27.838	347.376	184.880	195.213	99.814	228.623	238.394	99.725	106.992	285.400	230.347	106.581	113.463	113.995	120.564	238.618	119.802	-8191	255	
432.903	1	1	0	0	0.16094	0.11603	0.20707	0.36304	0.1942	0.11282	0.22771	0.10157	0.19966	0.21172	0.3186	0.16988	0.19736	0.060207	0.25345	0.088605	-2.6167	-3.3958	-3.3063	-3.3125	-3.5167	-3.2896	-3.4396	-3.5	-3.1688	-3.4917	-3.4542	-3.1375	-3.5542	-3.4792	-3.3021	-3.4521	384.286	244.962	174.839	429.739	231.127	190.977	333.327	224.442	328.350	144.774	411.116	321.933	124.859	398.437	282.074	436.821	0.00078243	0.00027224	9.0297e-05	1116.4	6.3296e-06	3.0872e-06	1185.6	238.68	1.0046e-05	3.4743e-06	297.17	84.823	66.651	19.31	5.8176e-06	27.215	0.00028042	0.00010674	2.5771e-05	1106	1.5467e-06	9.273e-07	1171.9	237.4	1.6272e-06	9.6842e-07	296.21	85.473	66.595	19.724	1.1304e-06	27.716	349.250	181.315	172.744	99.888	232.080	242.557	99.741	107.392	273.739	248.464	106.583	113.192	114.225	120.556	243.990	119.677	-8191	255	
432.999	1	1	0	0	0.15292	0.28066	0.08402	0.24756	0.11634	0.12953	0.38816	0.26902	0.059774	0.095449	0.19912	0.15553	0.22487	0.21346	0.26062	0.065323	-2.7271	-3.3	-3.3312	-3.1312	-3.4938	-3.2938	-3.5167	-3.6125	-3.2292	-3.2521	-3.3354	-3.2042	-3.4062	-3.25	-3.1604	-3.4729	140.153	348.518	150.480	427.877	372.287	274.872	408.835	407.948	320.583	413.143	346.348	398.325	344.501	313.185	142.733	392.582	0.00081416	0.00028689	9.297e-05	1109.1	7.2652e-06	2.8588e-06	1185.2	237.6	1.0458e-05	4.3718e-06	296.69	85.343	66.815	19.517	5.5085e-06	27.18	0.0002894	9.7135e-05	2.2432e-05	1101.1	1.6213e-06	9.7592e-07	1168.9	236.73	1.4564e-06	9.3259e-07	296.38	85.779	66.732	19.791	1.2678e-06	27.72	347.486	166.693	163.812	99.925	242.881	246.221	99.741	107.351	285.953	237.497	106.650	113.275	113.798	120.745	254.529	119.845	-8191	255	
433.096	1	1	0	0	0.14655	0.24735	0.10611	0.19034	0.19904	0.197	0.16751	0.14892	0.076847	0.16152	0.15033	0.026777	0.21346	0.18735	0.06325	0.2154	-2.8083	-3.3021	-3.3729	-3.1875	-3.3979	-3.2	-3.1875	-3.6188	-3.1979	-3.4083	-3.4562	-3.2146	-3.4271	-3.4188	-3.1813	-3.4271	333.987	363.403	161.548	92.328	346.321	241.108	382.083	99.518	200.361	266.608	294.112	90.468	176.170	402.791	299.926	310.772	0.00075875	0.0002258	8.2542e-05	1111.4	6.6387e-06	2.9588e-06	1185.7	238.47	1.1352e-05	4.1778e-06	296.97	85.754	66.963	19.605	5.432e-06	27.258	0.00027906	8.7295e-05	2.6438e-05	1101.7	1.6432e-06	8.2107e-07	1171.8	236.92	1.6007e-06	9.1736e-07	296.12	85.91	66.916	19.844	1.0854e-06	27.781	348.960	215.297	177.920	99.759	224.882	258.143	99.813	107.343	276.434	236.512	106.972	113.236	113.867	121.051	259.044	119.688	-8191	255	
433.192	1	1	0	0	0.096199	0.088229	0.22124	0.081292	0.16607	0.0104	0.20992	0.06158	0.02602	0.13024	0.15616	0.21503	0.12686	0.13333	0.063229	0.14998	-3.0187	-3.1896	-3.4042	-3.3042	-3.3812	-3.4813	-3.3146	-3.6125	-3.2771	-3.3604	-3.5229	-3.2292	-3.4917	-3.3854	-3.1562	-3.4917	103.968	352.841	345.858	356.720	126.364	246.631	430.951	399.449	382.179	353.360	268.052	388.212	321.941	196.038	172.136	138.413	0.0007491	0.00042492	8.7752e-05	1113.2	6.7886e-06	1.631e-06	1185.4	238.5	1.2327e-05	4.2652e-06	296.68	85.29	67.046	19.518	4.5717e-06	27.134	0.00027478	9.7135e-05	2.5147e-05	1104.4	1.4909e-06	8.3997e-07	1173.7	237.55	1.491e-06	1.0473e-06	296.93	85.697	66.924	19.853	1.3783e-06	27.691	347.353	193.044	181.337	99.829	244.941	268.559	99.748	107.278	280.073	245.301	107.172	113.148	113.856	120.546	257.672	120.042	-8191	255	
433.288	1	1	0	0	0.23965	0.03061	0.1833	0.25107	0.15971	0.12635	0.22422	0.14938	0.12988	0.23196	0.4419	0.28639	0.21737	0.20776	0.29109	0.22603	-2.8458	-3.1625	-3.5	-3.2792	-3.325	-3.575	-3.2417	-3.5458	-3.2708	-3.2604	-3.4021	-3.025	-3.3292	-3.5396	-3.0979	-3.4562	136.191	145.637	385.403	438.818	148.776	234.517	362.608	431.206	299.412	356.980	109.194	392.835	411.405	426.491	164.449	243.962	0.00075343	0.00031019	0.00011181	1114.7	6.6013e-06	2.2724e-06	1187.2	237.8	1.0043e-05	3.6133e-06	296.1	84.935	66.285	19.444	4.4613e-06	27.086	0.00026848	0.0001142	2.7084e-05	1105.3	1.6771e-06	9.0209e-07	1172.1	236.83	1.5234e-06	1.1485e-06	296.1	85.162	66.412	19.748	1.3404e-06	27.612	350.013	168.414	168.689	99.878	250.491	238.319	99.844	107.045	277.876	235.326	106.694	113.073	114.077	120.800	251.056	119.575	-8191	255	
433.384	1	1	0	0	0.041077	0.065397	0.094251	0.22537	0.0018289	0.14412	0.30378	0.19513	0.1082	0.32594	0.28197	0.25278	0.14147	0.043316	0.13788	0.17216	-2.9375	-3.2354	-3.7521	-3.2354	-3.1458	-3.5417	-3.325	-3.3958	-3.325	-3.1562	-3.5	-3.1021	-3.1312	-3.525	-3.1021	-3.3563	213.978	116.358	214.550	430.035	180.000	313.736	358.319	135.020	273.944	436.922	275.499	146.121	396.575	274.965	176.768	92.573	0.00078977	0.00023025	9.4676e-05	1110.5	5.9732e-06	2.6619e-06	1183.3	237.56	9.3916e-06	2.617e-06	297.03	85.497	66.427	19.463	5.5408e-06	27.063	0.00027198	0.00011102	2.8018e-05	1102.9	1.7774e-06	1.1182e-06	1170.8	236.29	1.4873e-06	1.1754e-06	296.36	85.371	66.656	19.737	1.514e-06	27.613	347.111	201.166	187.704	99.805	231.163	232.670	99.873	107.160	287.615	229.813	106.643	113.372	113.743	120.703	259.451	119.811	-8191	255	
#DATA ENDS
