BOXY.EXE: ISS Imagent and Oximeter Data Acquisition Program Version 0.80
Ascii Record File

#ACQ INFORMATION
2  Detector Channels 
16  External MUX Channels 
1  Auxiliary Channels 
5000  Waveform (CCF) Frequency (Hz)
1  Waveforms Skipped 
30  Waveforms Averaged 
1  Cycles Averaged 
16  Acquisitions per Waveform 
10.0806  Updata Rate (Hz) 

#FILE INFORMATION
TRUE -- External MUX Channel results are PARSED.
FALSE -- AC DC and Phase are NOT grouped.
TRUE -- Companion Program Settings File CREATED.
FALSE -- AC data not excluded
FALSE -- DC data not excluded
FALSE -- Phase data not excluded
FALSE -- Auxillary Chn. data not excluded
Tab delimiters

#CALIBRATION STATE
TRUE -- Waveform Calibration Values APPLIED.


#AUX CALIBRATION VALUES
Val Type	aux-1	

Term	1.0000e+00	
Factor	0.0000e+00	


#WF CALIBRATION VALUES
A = Detector Channel
Val Type	A-AC1	A-AC2	A-AC3	A-AC4	A-AC5	A-AC6	A-AC7	A-AC8	A-AC9	A-AC10	A-AC11	A-AC12	A-AC13	A-AC14	A-AC15	A-AC16	A-DC1	A-DC2	A-DC3	A-DC4	A-DC5	A-DC6	A-DC7	A-DC8	A-DC9	A-DC10	A-DC11	A-DC12	A-DC13	A-DC14	A-DC15	A-DC16	A-Ph1	A-Ph2	A-Ph3	A-Ph4	A-Ph5	A-Ph6	A-Ph7	A-Ph8	A-Ph9	A-Ph10	A-Ph11	A-Ph12	A-Ph13	A-Ph14	A-Ph15	A-Ph16	

Term	0.00000e+00	0.00000e+00	0.00000e+00	0.00000e+00	0.00000e+00	0.00000e+00	0.00000e+00	0.00000e+00	0.00000e+00	0.00000e+00	0.00000e+00	0.00000e+00	0.00000e+00	0.00000e+00	0.00000e+00	0.00000e+00	0.00000e+00	0.00000e+00	0.00000e+00	0.00000e+00	0.00000e+00	0.00000e+00	0.00000e+00	0.00000e+00	0.00000e+00	0.00000e+00	0.00000e+00	0.00000e+00	0.00000e+00	0.00000e+00	0.00000e+00	0.00000e+00	0.00000e+00	0.00000e+00	0.00000e+00	0.00000e+00	0.00000e+00	0.00000e+00	0.00000e+00	0.00000e+00	0.00000e+00	0.00000e+00	0.00000e+00	0.00000e+00	0.00000e+00	0.00000e+00	0.00000e+00	0.00000e+00	
Factor	1.00000e+00	1.00000e+00	1.00000e+00	1.00000e+00	1.00000e+00	1.00000e+00	1.00000e+00	1.00000e+00	1.00000e+00	1.00000e+00	1.00000e+00	1.00000e+00	1.00000e+00	1.00000e+00	1.00000e+00	1.00000e+00	1.00000e+00	1.00000e+00	1.00000e+00	1.00000e+00	1.00000e+00	1.00000e+00	1.00000e+00	1.00000e+00	1.00000e+00	1.00000e+00	1.00000e+00	1.00000e+00	1.00000e+00	1.00000e+00	1.00000e+00	1.00000e+00	X	X	X	X	X	X	X	X	X	X	X	X	X	X	X	X	

B = Detector Channel
Val Type	B-AC1	B-AC2	B-AC3	B-AC4	B-AC5	B-AC6	B-AC7	B-AC8	B-AC9	B-AC10	B-AC11	B-AC12	B-AC13	B-AC14	B-AC15	B-AC16	B-DC1	B-DC2	B-DC3	B-DC4	B-DC5	B-DC6	B-DC7	B-DC8	B-DC9	B-DC10	B-DC11	B-DC12	B-DC13	B-DC14	B-DC15	B-DC16	B-Ph1	B-Ph2	B-Ph3	B-Ph4	B-Ph5	B-Ph6	B-Ph7	B-Ph8	B-Ph9	B-Ph10	B-Ph11	B-Ph12	B-Ph13	B-Ph14	B-Ph15	B-Ph16	

Term	0.00000e+00	0.00000e+00	0.00000e+00	0.00000e+00	0.00000e+00	0.00000e+00	0.00000e+00	0.00000e+00	0.00000e+00	0.00000e+00	0.00000e+00	0.00000e+00	0.00000e+00	0.00000e+00	0.00000e+00	0.00000e+00	0.00000e+00	0.00000e+00	0.00000e+00	0.00000e+00	0.00000e+00	0.00000e+00	0.00000e+00	0.00000e+00	0.00000e+00	0.00000e+00	0.00000e+00	0.00000e+00	0.00000e+00	0.00000e+00	0.00000e+00	0.00000e+00	4.67397e+01	-1.30593e+02	-1.28560e+02	-1.82133e+02	-7.13561e+01	-6.37854e+01	-1.59775e+02	-1.62015e+02	-3.55692e+01	-6.66304e+01	-1.82301e+02	-1.72751e+02	-1.82364e+02	-1.77708e+02	-6.69385e+01	-1.50988e+02	
Factor	5.16967e-05	2.20746e-04	6.02337e-05	2.02139e-01	3.18311e-06	2.24735e-06	1.81842e-01	6.28231e-02	4.81416e-06	2.76037e-06	1.95858e-01	3.19635e-02	2.65861e-02	9.75009e-03	3.16166e-06	1.39849e-02	1.97713e-05	3.80923e-05	1.06821e-05	9.89599e-02	3.61803e-07	4.32140e-07	8.38008e-02	3.08556e-02	3.53419e-07	4.30013e-07	9.30715e-02	1.52886e-02	1.31760e-02	4.84352e-03	3.78907e-07	6.73875e-03	X	X	X	X	X	X	X	X	X	X	X	X	X	X	X	X	



#DISTANCE SETTINGS
A = Detector Channel
A-1	A-2	A-3	A-4	A-5	A-6	A-7	A-8	A-9	A-10	A-11	A-12	A-13	A-14	A-15	A-16	

2.5000e+00	3.0000e+00	2.5000e+00	3.0000e+00	2.0000e+00	3.0000e+00	1.5000e+00	3.0000e+00	3.0000e+00	3.0000e+00	3.0000e+00	3.0000e+00	3.0000e+00	3.0000e+00	1.5000e+00	3.0000e+00	

B = Detector Channel
B-1	B-2	B-3	B-4	B-5	B-6	B-7	B-8	B-9	B-10	B-11	B-12	B-13	B-14	B-15	B-16	

1.0000e+01	1.0000e+01	1.0000e+01	1.4400e+00	1.0000e+01	1.0000e+01	1.5100e+00	1.9400e+00	1.0000e+01	1.0000e+01	1.9900e+00	2.4900e+00	2.4100e+00	2.9000e+00	1.0000e+01	2.9800e+00	




#DATA BEGINS
time	group	step	mark	flag	A-AC1	A-AC2	A-AC3	A-AC4	A-AC5	A-AC6	A-AC7	A-AC8	A-AC9	A-AC10	A-AC11	A-AC12	A-AC13	A-AC14	A-AC15	A-AC16	A-DC1	A-DC2	A-DC3	A-DC4	A-DC5	A-DC6	A-DC7	A-DC8	A-DC9	A-DC10	A-DC11	A-DC12	A-DC13	A-DC14	A-DC15	A-DC16	A-Ph1	A-Ph2	A-Ph3	A-Ph4	A-Ph5	A-Ph6	A-Ph7	A-Ph8	A-Ph9	A-Ph10	A-Ph11	A-Ph12	A-Ph13	A-Ph14	A-Ph15	A-Ph16	B-AC1	B-AC2	B-AC3	B-AC4	B-AC5	B-AC6	B-AC7	B-AC8	B-AC9	B-AC10	B-AC11	B-AC12	B-AC13	B-AC14	B-AC15	B-AC16	B-DC1	B-DC2	B-DC3	B-DC4	B-DC5	B-DC6	B-DC7	B-DC8	B-DC9	B-DC10	B-DC11	B-DC12	B-DC13	B-DC14	B-DC15	B-DC16	B-Ph1	B-Ph2	B-Ph3	B-Ph4	B-Ph5	B-Ph6	B-Ph7	B-Ph8	B-Ph9	B-Ph10	B-Ph11	B-Ph12	B-Ph13	B-Ph14	B-Ph15	B-Ph16	aux-1	digaux	

1250.575	1	1	0	256	0.070143	0.1988	0.17312	0.17821	0.23468	0.098605	0.047774	0.20565	0.22457	0.072033	0.23127	0.15458	0.21769	0.15458	0.22267	0.24717	-2.9896	-3.1229	-3.1813	-3.3396	-2.9521	-3.4	-3.4729	-3.2	-3.1562	-2.9792	-3.0708	-3.3625	-3.1521	-3.3521	-3.075	-2.8812	-42.625	182.721	-26.109	226.198	243.179	85.397	270.417	253.698	207.007	-73.586	186.788	22.140	90.791	173.464	199.723	173.901	0.00021442	0.013288	0.00012563	1166.8	1.4353e-05	1.204e-05	1509.4	269.24	8.8109e-06	4.4457e-06	436.31	126.06	72.308	15.639	1.3183e-05	37.397	0.0049802	0.033	0.0026104	1112.8	8.7435e-05	0.00010315	1468.7	258.79	8.4764e-05	0.0001005	428.62	121.61	78.875	15.86	8.8716e-05	36.864	-23.433	27.444	45.169	-72.362	44.250	32.147	-71.988	-67.905	46.875	115.278	-67.605	-62.875	-64.707	-58.359	-31.875	-58.445	-8191	255	
1250.672	1	1	0	0	0.21657	0.037751	0.086773	0.10311	0.040633	0.033951	0.16887	0.21938	0.16583	0.12758	0.164	0.15893	0.12825	0.045686	0.2077	0.28706	-2.8729	-3.1542	-3.0542	-3.6146	-3.0021	-3.3063	-3.4333	-3.2146	-3.3021	-3.0667	-3.0604	-3.2875	-2.9437	-3.3521	-3.0938	-3.1188	209.068	117.764	-38.838	169.943	-82.458	134.237	202.826	190.756	114.298	215.884	174.939	263.161	-67.235	38.719	4.525	165.732	0.00027287	0.010982	0.00025679	1165.8	6.6748e-06	4.1559e-06	1507.4	268.48	2.7879e-06	1.2669e-05	440.06	126.79	73.381	15.912	5.8502e-06	37.774	0.0047336	0.028507	0.0024878	1106.1	8.2467e-05	0.00010001	1439.8	270.21	8.0502e-05	9.958e-05	432.43	122.89	78.528	16.033	8.6095e-05	37.164	-18.374	36.357	-0.596	-72.315	64.550	71.180	-71.987	-67.722	232.344	141.145	-67.042	-62.999	-64.257	-58.310	56.808	-58.418	-8191	255	
1250.768	1	1	0	0	0.19988	0.14104	0.21115	0.14911	0.043971	0.33397	0.19001	0.15332	0.18893	0.062052	0.15171	0.30745	0.23819	0.052498	0.13206	0.10585	-3.1354	-3.1063	-2.9979	-3.3104	-2.9208	-3.3271	-3.6167	-3.3125	-3.3979	-3.0687	-2.9917	-3.2521	-3.1771	-3.2333	-3.4729	-3.2396	-21.469	232.093	174.015	255.416	83.972	20.968	258.810	197.831	14.859	133.880	47.514	233.182	-65.778	260.633	258.452	15.409	0.00017657	0.012841	6.6814e-05	1177.5	8.6897e-06	1.1323e-05	1519.4	272.06	1.0831e-05	1.5898e-05	443.92	127.51	74.093	15.933	1.0513e-05	38.029	0.0046074	0.032039	0.0024152	1118.4	8.1312e-05	9.7779e-05	1439.9	279.53	8.0929e-05	9.9615e-05	435.52	123.26	80.061	16.125	8.586e-05	37.534	12.454	41.328	-1.170	-72.591	27.843	108.898	-71.880	-68.050	135.358	95.673	-66.730	-62.602	-64.448	-58.750	94.234	-57.944	-8191	255	
1250.862	1	1	0	0	0.25082	0.27852	0.22258	0.20528	0.1702	0.014286	0.13636	0.082323	0.22557	0.14416	0.073481	0.11044	0.077522	0.10489	0.11044	0.1519	-2.875	-3.1396	-2.9313	-3.3438	-3.0229	-3.5667	-3.6771	-3.1083	-3.3958	-3.2583	-3.0812	-3.5167	-3.2875	-3.2875	-3.2771	-3.1396	110.927	43.320	267.218	-53.293	147.401	222.580	259.533	171.325	20.789	126.183	98.395	205.685	161.256	264.461	180.074	56.807	0.00020847	0.010433	0.00036942	1193.4	1.1642e-05	5.1335e-06	1536.9	275.77	1.8844e-05	5.3863e-06	446.9	127.84	74.901	16.039	5.5466e-06	38.137	0.0047171	0.026037	0.002466	1132.1	8.3049e-05	0.00010122	1454	285.67	8.2848e-05	0.00010368	441.45	124.01	79.537	16.294	9.1098e-05	37.714	29.163	5.847	-58.956	-72.405	32.567	27.041	-72.169	-68.191	268.135	4.742	-67.302	-62.825	-63.810	-58.865	59.598	-57.840	-8191	255	
1250.983	1	1	0	0	0.23557	0.14551	0.24278	0.18148	0.35887	0.054621	0.14363	0.32262	0.15399	0.083115	0.15861	0.16738	0.17928	0.27102	0.16655	0.1664	-3.0042	-3.2583	-3.1333	-3.4938	-3.3438	-3.2083	-3.6708	-3.3875	-3.3438	-3.1146	-2.9021	-3.3646	-3.2792	-3.2708	-3.3167	-3.0354	192.733	-46.493	204.265	194.321	-1.190	-10.508	198.592	210.892	-35.946	120.709	123.891	178.141	-46.614	50.302	34.520	197.989	0.00039085	0.010587	0.0025689	1191.1	7.8769e-06	4.6313e-06	1523.2	271.57	6.0971e-06	8.3996e-06	439.09	125.66	73.597	15.745	5.022e-06	37.387	0.0049421	0.015471	0.0063012	1132.5	8.7652e-05	0.00010479	1441.9	279.21	8.6354e-05	0.00010426	433.56	121.87	79.451	16.007	9.0534e-05	36.939	-3.972	11.319	112.804	-72.314	269.238	66.170	-71.990	-68.216	48.555	80.125	-67.024	-62.848	-64.375	-58.671	-65.367	-57.983	-8191	255	
1251.054	1	1	0	0	0.11727	0.23331	0.06452	0.19594	0.17325	0.31706	0.33593	0.11386	0.24727	0.078958	0.25058	0.16127	0.21913	0.14676	0.23701	0.22915	-3.0333	-3.2854	-3.2562	-3.5687	-3.225	-3.0479	-3.3958	-3.1708	-3.3333	-3.3229	-3.1104	-3.4062	-3.2062	-2.9896	-3.6354	-3.3812	-25.768	-65.486	156.791	264.809	177.207	42.125	249.303	185.769	205.226	87.951	-14.467	-61.598	133.295	-28.329	120.867	186.944	0.0001987	0.00060192	0.0028431	1169.2	1.6561e-05	4.3692e-06	1501.1	267.85	1.7102e-05	4.9693e-06	438.64	126.13	73.747	15.758	2.8e-06	37.357	0.0050484	0.0093267	0.0080655	1114.9	8.9499e-05	0.00010665	1425.7	280	8.7348e-05	0.00010657	432.23	121.72	77.353	16.073	9.2756e-05	36.926	12.082	87.738	68.601	-72.302	166.505	92.655	-72.105	-68.267	17.523	0.450	-67.080	-62.828	-63.767	-58.999	158.132	-58.505	-8191	255	
1251.151	1	1	0	0	0.20399	0.16101	0.12341	0.2123	0.30312	0.15785	0.15519	0.32116	0.13007	0.15751	0.22955	0.22778	0.16901	0.20369	0.15259	0.15201	-2.7792	-3.3708	-2.9646	-3.4875	-3.2521	-2.925	-3.4979	-3.2979	-3.2979	-3.3937	-2.9917	-3.2438	-3.4833	-3.0958	-3.3792	-3.2208	-71.191	189.691	192.789	251.604	257.993	115.992	204.510	-59.002	-51.291	136.356	233.291	247.857	49.104	171.588	79.242	29.235	0.00033552	0.00071279	0.0034544	1179	1.1261e-05	8.0852e-06	1517.7	270.75	1.2328e-05	1.0489e-05	442.13	126.22	74.386	15.742	5.6224e-06	37.595	0.0050831	0.0094189	0.0095482	1121.3	9.1201e-05	0.00010605	1435.1	279.47	8.8283e-05	0.0001055	434	121.91	73.305	18.03	9.1999e-05	37.159	-11.385	26.721	72.466	-72.260	204.615	51.589	-72.005	-68.333	58.579	104.780	-67.093	-63.234	-63.531	-58.797	113.102	-58.252	-8191	255	
1251.247	1	1	0	0	0.27339	0.11121	0.14424	0.073572	0.21154	0.13794	0.34275	0.2916	0.25962	0.1077	0.37225	0.15131	0.25848	0.11925	0.14355	0.30044	-2.575	-3.2771	-2.9896	-3.3	-3.3333	-3.2562	-3.5938	-3.2125	-2.9479	-3.225	-3.0771	-3.5333	-3.5083	-2.925	-3.3292	-2.9625	-79.490	262.257	22.148	-48.788	-10.410	72.039	215.857	4.861	231.736	-27.647	252.156	152.653	-81.852	176.527	132.365	162.518	0.00036519	0.00026681	0.0030274	1178.4	8.0529e-06	3.8432e-06	1516.2	271.35	1.2277e-05	1.0095e-05	447.25	127.09	73.553	16.344	1.8482e-05	37.884	0.0050313	0.0092157	0.008478	1125.6	8.9426e-05	0.00010476	1438.5	284.18	8.7372e-05	0.00010496	438.08	122.91	72.167	18.875	9.4463e-05	37.417	23.093	49.085	75.741	-72.262	50.579	20.605	-71.964	-68.137	15.819	64.328	-67.385	-63.008	-63.361	-59.211	105.739	-58.206	-8191	255	
1251.366	1	1	0	0	0.081776	0.28328	0.087188	0.27594	0.18549	0.042467	0.25396	0.12146	0.22693	0.21737	0.12848	0.22475	0.24799	0.19556	0.15164	0.088142	-2.775	-3.4396	-3.1437	-3.3208	-3.2167	-2.9562	-3.5375	-3.2396	-2.9042	-3.3854	-3.2208	-3.3667	-3.5312	-3.1042	-3.3958	-3.4	96.061	-48.886	91.097	-46.627	-45.950	-77.045	199.440	-81.264	222.300	32.164	28.539	267.909	166.987	158.198	76.640	54.293	0.00016705	0.00060995	0.003489	1201.7	1.7875e-05	1.0491e-05	1531.5	274.97	0.00022137	9.3982e-06	440.65	125.85	72.613	16.309	1.3633e-05	37.287	0.0050256	0.0093119	0.0096042	1139.7	9.1156e-05	0.00010346	1451	278.71	9.725e-05	0.00010627	436.64	121.97	71.528	19.279	9.6282e-05	36.951	23.094	-16.848	72.499	-72.279	69.516	101.850	-71.819	-67.998	-81.089	110.149	-67.173	-63.163	-63.615	-59.949	49.315	-58.345	-8191	255	
1251.462	1	1	0	0	0.21329	0.26027	0.19646	0.19369	0.23698	0.24421	0.12674	0.15384	0.11083	0.19762	0.057225	0.28404	0.12674	0.15564	0.092054	0.11767	-2.5521	-3.25	-2.9229	-3.2542	-3.3167	-3.0542	-3.4833	-3.4083	-2.9792	-3.4125	-3.2458	-3.1125	-3.1437	-2.8563	-3.3979	-3.5312	120.277	53.570	74.836	-42.339	156.837	103.663	227.647	148.330	165.092	17.447	244.909	-43.627	267.039	116.130	-79.488	196.357	0.0002172	0.00039152	0.0029496	1179.2	9.9959e-06	8.1144e-06	1521.9	274.54	0.00027734	2.2314e-05	442.1	125.15	73.299	16.347	2.2898e-05	37.707	0.0050483	0.0093456	0.0085396	1125.3	9.0047e-05	0.00010464	1441	266.66	0.00024252	0.00010612	435.16	121.51	71.87	18.869	9.6324e-05	37.194	-37.073	164.242	78.381	-72.216	135.709	29.963	-71.928	-67.805	-84.545	79.878	-67.275	-63.146	-63.492	-59.097	89.137	-58.103	-8191	255	
1251.558	1	1	0	0	0.18954	0.21193	0.06504	0.089807	0.17242	0.13414	0.23455	0.1785	0.17054	0.052754	0.11576	0.082564	0.33874	0.21119	0.073084	0.097591	-2.5958	-3.2458	-2.9771	-3.3271	-3.4417	-3.0604	-3.3583	-3.5729	-3.0563	-3.2458	-3.1104	-3.15	-3.4521	-3.2333	-3.2938	-3.3063	218.603	106.193	181.629	249.788	58.613	41.489	192.935	247.033	-19.881	191.332	-46.932	-76.255	156.196	-10.086	34.321	92.258	0.00027668	0.00040465	0.0033713	1188.7	3.0974e-06	6.8422e-06	1524.2	275.07	0.00028022	8.368e-06	443.71	126.81	73.72	16.803	1.4996e-05	38.118	0.005045	0.0095128	0.010121	1133.5	9.037e-05	0.00010731	1446.9	264.76	0.00029694	0.000108	438.57	123.03	72.663	19.937	9.7268e-05	37.603	14.922	43.308	90.237	-72.430	4.211	-46.219	-72.160	-67.713	-59.205	95.362	-67.500	-63.036	-63.549	-58.934	89.474	-58.234	-8191	255	
1251.654	1	1	0	0	0.083874	0.056409	0.1183	0.19669	0.14932	0.12976	0.17748	0.11027	0.090321	0.061556	0.22623	0.12891	0.17536	0.22746	0.10421	0.16953	-2.5521	-3.2771	-3.2021	-3.2833	-3.2313	-2.9979	-3.3729	-3.4896	-2.8937	-3.2208	-3.3333	-3.125	-3.5479	-3.2333	-3.1833	-3.2313	126.182	241.882	225.899	-72.279	137.419	138.704	239.564	193.776	72.214	143.730	247.833	-33.508	-0.466	163.860	175.453	164.901	0.00022764	0.00074933	0.0022212	1199.7	1.2426e-05	4.4825e-06	1548.3	279.82	0.00033969	1.329e-05	448.89	128.97	75.22	16.791	4.7282e-06	38.493	0.0050376	0.0097168	0.0077994	1155.6	9.0687e-05	0.00010883	1468.1	269.79	0.00034933	0.00011075	446.33	125.11	74.087	19.641	9.8092e-05	38.009	18.904	-8.770	35.888	-72.359	181.368	48.435	-72.008	-68.228	-40.807	124.426	-67.640	-62.959	-63.509	-59.285	47.334	-58.150	-8191	255	
1251.750	1	1	0	0	0.080223	0.2012	0.10352	0.21196	0.17657	0.18313	0.053864	0.080799	0.26222	0.099995	0.023965	0.0909	0.16163	0.12827	0.14365	0.14041	-2.7687	-3.2417	-3.3	-3.1146	-3.2583	-3.2292	-3.4458	-3.475	-3.0271	-3.0625	-3.2625	-3.0708	-3.2604	-3.3333	-3.1312	-3.3312	92.487	31.146	16.879	143.099	105.466	63.583	5.900	232.427	187.798	237.534	-45.482	198.101	262.984	252.558	-61.575	-57.906	0.00025033	0.00038018	0.0024448	1214	7.3137e-06	1.3687e-05	1563.5	283.14	0.0002933	7.3279e-06	454.04	128.89	76.164	17.055	9.8982e-06	38.157	0.0051964	0.0099468	0.0038286	1217.2	9.4775e-05	0.0001128	1481.7	272.52	0.00030848	0.00011349	447.15	125.32	74.54	20.215	9.7915e-05	37.812	39.094	6.776	26.192	-72.305	53.831	36.705	-71.920	-67.445	-45.802	141.377	-67.475	-62.812	-63.117	-58.973	164.522	-58.211	-8191	255	
1251.846	1	1	0	0	0.072848	0.062182	0.16781	0.13827	0.18047	0.083812	0.11984	0.25973	0.046109	0.095855	0.058007	0.32176	0.090998	0.23187	0.1785	0.20438	-2.5167	-2.9604	-3.1042	-3.0687	-3.2896	-3.3021	-3.1583	-3.4958	-2.9146	-3.0979	-3.2229	-2.9708	-3.4417	-3.2396	-3.225	-3.4125	104.926	208.269	252.138	255.503	83.788	93.298	121.586	254.798	211.347	-76.223	272.310	263.729	34.224	57.250	13.481	-73.256	0.00038667	0.00043607	0.00017614	1200.8	1.6688e-05	4.0704e-06	1529.8	275.89	0.00032768	4.781e-06	442.13	125.37	73.406	16.41	3.97e-05	37.412	0.0052541	0.01007	0.0027265	1211.6	9.4957e-05	0.0001143	1449.7	265.7	0.00035265	0.00011226	436.22	122.27	72.434	18.39	0.00012947	37.165	4.316	-47.107	-5.920	-72.124	90.856	-71.172	-72.064	-67.658	-38.364	44.846	-67.608	-62.983	-63.312	-59.298	133.991	-58.022	-8191	255	
1251.942	1	1	0	0	0.14405	0.14243	0.066319	0.19361	0.25248	0.22678	0.12186	0.054898	0.15829	0.19516	0.050539	0.15667	0.041088	0.20186	0.14544	0.19114	-2.575	-2.9917	-3.25	-3.3021	-3.3042	-3.3833	-3.1333	-3.1896	-3.3042	-3.075	-3.3125	-2.9896	-3.2667	-2.8979	-2.9708	-3.4583	76.521	-21.676	264.503	264.663	32.733	17.683	270.268	6.853	33.271	-6.413	235.229	27.942	-84.123	160.184	10.928	111.555	0.00026405	0.00047879	0.00011048	1182.9	3.3279e-06	5.5658e-06	1516.9	274.33	0.00027713	8.366e-06	436.76	124.76	73.157	16.484	5.1459e-05	37.498	0.005344	0.0099866	0.0027619	1210.6	9.608e-05	0.00011363	1437.9	264.14	0.00031317	0.00011407	435.15	122	72.096	16.561	0.00030943	37.266	-11.738	47.409	170.483	-71.985	-62.864	107.915	-72.151	-68.121	-34.702	88.839	-67.558	-63.048	-63.311	-59.264	145.731	-58.352	-8191	255	
1252.063	1	1	0	0	0.29671	0.078887	0.035492	0.094913	0.35003	0.20034	0.09578	0.39059	0.13069	0.037099	0.27896	0.27981	0.043364	0.053136	0.027388	0.10908	-2.7771	-3.2167	-3.3354	-2.8979	-3.2396	-3.1271	-3.2979	-3.3	-3.2021	-3.0625	-3.4417	-3.2083	-3.3771	-3.4458	-3.0583	-3.2729	180.481	12.319	7.720	-58.824	-26.859	10.835	236.125	175.650	108.441	205.285	205.755	199.958	195.111	47.854	61.264	154.811	0.00021642	0.00015757	0.00020255	1189.9	1.0297e-06	9.1404e-06	1521.5	275.01	0.00030776	1.1103e-05	442.56	125.94	73.753	15.882	0.00018553	37.803	0.0054687	0.010134	0.0027747	1200.8	9.8154e-05	0.00011555	1443.7	265.59	0.00035646	0.00011306	439.69	122.76	72.821	16.297	0.00033274	37.594	-16.223	-18.039	-48.705	-72.168	73.190	75.625	-71.810	-67.933	-30.409	58.369	-67.460	-63.089	-62.955	-58.438	65.195	-58.050	-8191	255	
1252.159	1	1	0	0	0.22783	0.10164	0.16522	0.31716	0.20266	0.32277	0.13943	0.26694	0.10018	0.18498	0.20992	0.31164	0.13829	0.12043	0.13469	0.18319	-2.7125	-3.0646	-3.3937	-3.15	-3.3396	-3.4938	-3.2042	-3.2604	-3.15	-3.0208	-3.4917	-3.1771	-3.1312	-3.2687	-3.125	-3.5104	76.963	0.533	-24.278	268.130	49.683	67.786	211.686	-73.584	198.220	-66.470	60.368	261.604	173.106	159.420	219.867	248.066	0.00034041	0.0011166	6.7374e-05	1185.5	5.4108e-06	6.5762e-06	1527.3	277.61	0.00018673	8.4973e-05	447.62	127.88	74.489	16.095	0.00020916	38.202	0.0055984	0.010066	0.0028501	1218.1	9.7847e-05	0.00011463	1453	267.73	0.0002428	0.00016086	442.3	124.43	73.684	16.499	0.00037753	37.944	2.610	-47.854	89.253	-72.216	80.197	139.309	-71.894	-67.973	20.922	265.014	-67.137	-63.003	-63.288	-58.639	66.861	-58.055	-8191	255	
1252.255	1	1	0	0	0.10462	0.10508	0.062876	0.10075	0.19277	0.020611	0.15444	0.26051	0.11774	0.1293	0.093822	0.28712	0.32599	0.11495	0.058814	0.18003	-2.7875	-3.0875	-3.4521	-3.4313	-3.2542	-3.2375	-3.2417	-3.4188	-3.3063	-3.1667	-3.6562	-3.2812	-3.1312	-3.3708	-3.1771	-3.3375	-82.535	70.403	219.763	165.204	231.555	195.472	195.615	248.021	203.442	98.904	237.037	236.613	199.004	157.760	108.736	49.073	0.00027546	0.0010325	0.00017109	1177.7	7.9441e-06	1.9918e-06	1498.7	271.89	0.00025066	0.00010235	429.32	123.61	71.96	15.411	0.00019188	36.528	0.0054734	0.0097989	0.0028061	1196.7	9.5251e-05	0.00011076	1431.1	263.38	0.00010397	0.00035557	432.88	121.39	71.835	16.014	0.00032762	36.781	12.552	-10.324	-20.586	-71.956	33.133	91.588	-72.222	-68.003	27.406	256.486	-67.895	-63.583	-63.852	-59.190	80.009	-58.613	-8191	255	
1252.350	1	1	0	0	0.23641	0.13884	0.13594	0.24346	0.11669	0.11994	0.18039	0.16476	0.021336	0.058451	0.1697	0.13447	0.3345	0.21872	0.32079	0.017299	-2.9146	-2.9292	-3.4896	-3.3854	-2.9979	-3.3979	-3.375	-3.4167	-3.3104	-2.9479	-3.3167	-3.3771	-3.2938	-3.6312	-3.3229	-3.2854	127.429	168.705	244.502	262.697	39.498	173.107	253.363	23.404	113.486	87.445	182.321	-76.230	-64.538	139.580	-26.939	58.022	0.00015537	0.00058846	0.00028566	1127.2	1.8057e-05	3.9596e-06	1463.3	264.03	1.1542e-05	0.00013554	425.87	122.85	71.503	15.456	0.00020495	36.611	0.0052535	0.0097423	0.0028576	1178	9.3572e-05	0.00011089	1409.1	258.98	9.1865e-05	0.00036535	429.39	121.23	71.459	16.043	0.00036263	36.894	-22.844	70.983	75.235	-72.988	106.456	-14.857	-72.682	-68.202	46.332	-30.585	-67.829	-63.561	-63.522	-59.444	82.863	-58.653	-8191	255	
1252.446	1	1	0	0	0.16979	0.13755	0.14132	0.21653	0.30076	0.30679	0.16906	0.12763	0.21872	0.068023	0.20304	0.29765	0.16383	0.082545	0.14756	0.044135	-2.8458	-2.8937	-3.2771	-3.325	-2.9646	-3.3125	-3.2021	-3.2479	-3.4083	-3.1417	-3.5	-3.2479	-3.1167	-3.1854	-3.1417	-3.1813	-44.876	146.474	63.028	239.055	-21.860	254.125	188.706	253.660	67.082	-15.248	272.272	247.775	-62.322	94.894	80.916	0.459	0.00043344	0.00070813	0.00036735	1144.3	0.00017633	1.3246e-05	1463.3	266.38	7.7493e-06	0.00017912	429.14	123.24	71.818	15.567	0.00015664	37.069	0.0052403	0.0099215	0.0028563	1144.7	0.00014319	0.00011221	1409.9	260.76	9.1408e-05	0.00041194	431.88	121.85	71.767	16.117	0.00032407	37.127	-45.779	-36.626	-8.742	-72.685	210.112	121.878	-72.598	-68.011	75.602	-34.954	-67.872	-63.659	-64.002	-59.105	79.823	-58.888	-8191	255	
1252.542	1	1	0	0	0.12356	0.189	0.1511	0.20325	0.25559	0.12528	0.26388	0.19682	0.071728	0.081361	0.14948	0.099089	0.12923	0.021532	0.32476	0.14185	-2.9979	-3.1229	-3.3167	-3.4667	-2.9896	-3.3396	-3.2625	-3.125	-3.2938	-3.15	-3.4562	-3.45	-2.9458	-3.225	-3.0625	-3.1437	-14.155	135.837	246.461	184.473	100.598	-29.045	243.986	-81.783	-30.290	-31.176	236.454	177.484	178.157	194.139	208.407	-47.757	0.00036893	0.0010353	0.00018666	1161.1	0.00021327	5.1256e-06	1484.5	268.41	1.1588e-05	0.00017374	438.97	125.4	73.811	15.776	0.00019715	37.412	0.0051889	0.0097528	0.0028336	1117.9	0.00030982	0.00011324	1428.7	263.33	9.0944e-05	0.00036421	438.48	123.71	73.424	16.395	0.00036484	37.611	1.387	-54.649	37.825	-72.910	219.203	20.230	-72.629	-68.364	-1.096	-27.831	-67.775	-63.746	-63.894	-58.973	99.247	-58.520	-8191	255	
1252.663	1	1	0	0	0.1683	0.15629	0.088216	0.22479	0.13546	0.017434	0.19319	0.09564	0.24241	0.16188	0.039348	0.13158	0.26526	0.17303	0.21982	0.053398	-3.0542	-3.0312	-3.2417	-3.2771	-3.0958	-3.65	-3.1479	-3.1896	-3.4167	-3.1708	-3.1979	-3.2812	-3.0687	-3.1646	-3.1937	-2.9625	-49.866	197.985	72.744	269.598	-7.506	40.820	221.619	3.231	221.261	41.774	108.567	11.177	-23.982	-21.876	165.329	-1.060	0.0002712	0.00037579	0.00028802	1159.4	0.00016509	6.379e-06	1486.6	270.71	1.8548e-05	0.00018265	433.13	124.18	72.903	15.627	0.00017166	36.393	0.0052076	0.0098869	0.0027975	1122.7	0.00030495	0.00011514	1430.7	264.11	9.0932e-05	0.00041418	435.72	122.51	72.725	16.267	0.00022579	38.104	19.651	66.000	-24.965	-72.892	210.011	27.228	-72.593	-68.259	113.539	-25.615	-68.342	-63.743	-63.939	-58.858	61.824	-58.389	-8191	255	
1252.759	1	1	0	0	0.066277	0.13362	0.068072	0.24136	0.10594	0.28271	0.048068	0.30497	0.11658	0.15872	0.21678	0.077761	0.28183	0.31533	0.063975	0.16604	-2.7958	-2.8271	-3.1354	-3.3125	-2.9604	-3.3542	-3.5333	-3.275	-3.3271	-3.3583	-3.2875	-3.3979	-3.075	-3.3125	-3.0958	-2.9271	-30.037	66.960	209.002	201.532	-71.887	130.311	217.642	220.431	150.304	231.298	-9.054	91.084	252.512	247.447	20.797	-37.223	0.00028589	3.7769e-05	0.00025671	1150.3	0.00018136	2.0725e-06	1466.2	266.35	2.5608e-05	0.00013393	429.87	122.21	72.512	15.543	2.6529e-06	36.486	0.0051769	0.009795	0.0027275	1108	0.00034413	0.00011216	1412.7	260.74	9.0915e-05	0.00036351	431.77	121.09	72.178	16.225	9.6803e-05	41.239	-15.334	41.503	28.120	-73.090	210.497	104.966	-72.661	-68.479	34.484	-22.642	-68.027	-63.510	-63.937	-58.938	72.014	-58.116	-8191	255	
1252.855	1	1	0	0	0.16981	0.20291	0.026259	0.060086	0.18816	0.098386	0.15662	0.17603	0.1655	0.044671	0.30092	0.40856	0.20482	0.0086485	0.38889	0.14594	-2.8167	-2.9542	-3.0104	-3.4667	-2.8042	-3.2104	-3.2417	-3.0438	-3.3208	-3.1729	-3.0938	-3.425	-3.1208	-3.3521	-3.3354	-3.1271	27.550	52.870	224.990	138.444	78.147	-74.111	-76.761	223.628	272.461	229.226	253.509	241.540	228.889	267.724	230.714	-55.091	0.00039492	0.00069246	0.00024397	1154.5	0.00017955	1.747e-06	1472.7	269.02	5.5245e-06	0.0001714	432.68	124.12	72.54	15.617	1.6057e-05	37.332	0.0053414	0.0099558	0.002705	1113.3	0.0003042	0.000113	1420.6	262.87	9.323e-05	0.00041026	433.44	122.69	72.86	16.275	9.57e-05	41.384	-3.155	125.488	-41.263	-72.754	220.336	193.598	-72.488	-68.365	115.878	-17.372	-67.608	-63.187	-64.092	-58.851	26.432	-57.628	-8191	255	
1252.951	1	1	0	0	0.10384	0.1243	0.11196	0.38832	0.051171	0.2257	0.33904	0.1991	0.24212	0.10409	0.16097	0.1296	0.066496	0.16261	0.092136	0.22327	-3.0729	-3.2562	-3.1021	-3.4396	-3.0854	-3.4583	-3.5438	-3.2958	-3.5229	-3.2458	-2.9271	-3.1292	-2.9354	-3.0938	-3.3354	-3.2438	11.424	-56.192	238.625	229.089	206.779	184.887	207.990	-68.683	209.346	9.186	208.857	-64.520	160.511	187.219	-9.628	174.391	0.00027465	0.00064857	0.00024507	1153	0.00019996	4.7628e-06	1489.1	270.8	1.5451e-05	0.0001318	432.85	125.48	73.568	15.881	1.6914e-06	37.747	0.0053777	0.0099639	0.002677	1119.5	0.00034276	0.00011163	1430.4	265.23	9.4021e-05	0.00024281	455.5	123.77	73.476	16.475	9.5113e-05	42.517	-8.057	-47.366	88.208	-72.962	225.351	15.367	-72.484	-68.220	56.234	11.707	-68.200	-63.340	-63.965	-59.408	175.304	-57.297	-8191	255	
1253.047	1	1	0	0	0.24251	0.12599	0.066578	0.085716	0.043764	0.16125	0.056238	0.302	0.094486	0.15254	0.071515	0.040911	0.077421	0.13252	0.088426	0.3156	-2.9	-3.2208	-2.9458	-3.4562	-3.1625	-3.1813	-3.4354	-2.9167	-3.1833	-3.3271	-3.175	-3.4875	-3.1625	-3.0187	-3.2583	-3.0833	246.376	189.058	-19.231	203.138	222.090	0.755	-54.309	268.301	139.584	142.447	-61.115	145.143	69.854	103.668	124.549	267.247	0.00017204	0.0012742	0.00011227	1174.5	0.00016776	4.4033e-06	1494.8	273.49	1.0541e-05	4.4099e-06	432.33	124.72	73.284	15.776	7.6588e-06	37.179	0.0053993	0.0098437	0.0027034	1131.7	0.00030339	0.00011027	1437.4	266.99	9.3992e-05	0.00011049	496.29	123.26	72.996	16.315	9.834e-05	41.236	-64.188	-22.286	41.530	-72.758	232.373	81.487	-72.599	-68.233	134.088	172.653	-67.950	-63.479	-63.945	-58.804	-18.806	-57.558	-8191	255	
1253.143	1	1	0	0	0.10534	0.011021	0.042805	0.18128	0.22465	0.18626	0.33689	0.2461	0.032544	0.10152	0.14515	0.029937	0.25895	0.11077	0.15403	0.13222	-2.9479	-3.3625	-3.0646	-3.4792	-3.15	-3.2104	-3.6292	-3.1646	-3.0667	-3.2917	-2.975	-3.275	-3.275	-3.2792	-3.55	-3.3312	99.998	256.836	-52.690	205.986	45.297	250.201	229.150	207.758	212.637	116.238	213.946	177.032	96.315	94.918	198.328	207.802	8.095e-05	0.00068183	0.00027621	1143	0.0001941	1.1779e-05	1468.2	266.7	1.322e-05	7.0124e-06	436.02	122.96	71.496	15.482	7.5992e-06	36.521	0.0053424	0.0094858	0.0026929	1108.6	0.00033708	0.0001065	1408.4	260.38	9.2486e-05	0.00010753	482.42	120.73	71.473	16.034	9.8161e-05	41.362	-25.241	-25.484	-24.455	-72.764	235.687	64.723	-72.363	-68.258	66.901	43.360	-68.562	-63.204	-63.935	-58.633	111.092	-57.640	-8191	255	
1253.240	1	1	0	0	0.22852	0.09306	0.18686	0.020739	0.12641	0.044229	0.136	0.18077	0.078994	0.043648	0.044708	0.17678	0.27268	0.16053	0.18738	0.10981	-2.7667	-3.3479	-3.1729	-3.2	-3.1604	-3.025	-3.4688	-3.0229	-2.9813	-3.1458	-2.8958	-3.2854	-3.25	-3.025	-3.4646	-3.2438	128.644	230.321	217.908	-51.954	52.133	247.037	150.938	119.539	-85.168	244.910	-10.386	219.780	-68.451	42.608	76.326	125.883	7.4289e-05	0.00061123	9.0143e-05	1141.8	3.9732e-05	0.00010602	1465.8	266.4	2.5374e-05	1.33e-05	438.17	123.22	71.963	15.509	1.5616e-05	36.462	0.0052272	0.0095204	0.002715	1103.3	0.00019057	0.00019453	1406.2	260.37	8.9475e-05	0.00010875	492.93	121.09	71.777	16.069	9.9241e-05	40.752	-10.923	-85.100	215.512	-72.505	-24.422	237.269	-72.471	-68.098	87.389	154.630	-68.581	-63.495	-63.798	-58.814	66.764	-57.722	-8191	255	
1253.336	1	1	0	0	0.14575	0.090116	0.21698	0.099759	0.040273	0.045149	0.11458	0.10468	0.066803	0.15146	0.26028	0.20227	0.23832	0.14942	0.225	0.19618	-2.8583	-3.3688	-3.0896	-3.4042	-3.0625	-3.0042	-3.4604	-2.9729	-3.0708	-3.1667	-3.1437	-3.2521	-3.1896	-2.9521	-3.2833	-3.075	-35.183	94.310	254.082	231.117	100.131	-78.789	-70.213	97.285	9.051	60.121	139.350	-42.880	257.727	-4.837	260.190	-85.904	0.00038127	0.00038887	0.00034082	1149.8	9.043e-06	0.00012757	1473	269.02	2.7045e-05	5.4232e-06	441.61	123.58	72.655	15.658	8.7782e-06	36.611	0.0052241	0.0096785	0.0027636	1110	9.2372e-05	0.00039467	1416.1	262.53	8.8836e-05	0.00011004	487.37	121.98	72.527	16.238	0.00010135	41.888	9.627	-17.582	43.560	-72.934	23.594	237.538	-72.277	-68.248	106.321	114.580	-68.705	-63.643	-64.073	-59.310	120.690	-57.119	-8191	255	
1253.455	1	1	0	0	0.087653	0.13398	0.1634	0.16168	0.24007	0.16115	0.21664	0.072336	0.21252	0.099458	0.20953	0.049244	0.14773	0.29608	0.15784	0.2665	-2.7667	-3.3333	-3.0625	-3.5229	-3.3917	-3.0396	-3.4292	-3.1792	-3.0625	-3.375	-3.0917	-3.3667	-3.5729	-3.2687	-3.4146	-3.1188	76.069	53.715	-63.221	-58.685	-41.643	-22.238	216.182	155.520	42.162	208.783	160.054	222.950	2.738	107.604	105.686	226.113	0.00042846	0.00020595	0.00012784	1150.3	1.0529e-05	0.00011249	1481.6	270.44	1.839e-05	3.4312e-06	447.87	123.74	73.109	15.781	3.8585e-06	37.189	0.0050898	0.0097552	0.0027788	1116.2	9.1977e-05	0.00034862	1424.9	264.28	8.9321e-05	0.0001113	500.85	122.38	72.724	16.373	0.00010073	38.821	-27.767	-24.574	266.449	-72.893	110.294	264.005	-72.528	-68.337	110.539	22.774	-68.317	-63.538	-63.808	-58.778	-36.400	-58.222	-8191	255	
1253.551	1	1	0	0	0.2835	0.15009	0.10727	0.22429	0.087247	0.17261	0.168	0.051626	0.35122	0.18478	0.073635	0.10825	0.30015	0.13432	0.10445	0.12797	-2.6167	-3.3375	-3.1562	-3.3125	-3.3125	-3.1208	-3.4271	-3.2438	-3.0167	-3.2833	-3.2021	-3.4813	-3.3563	-2.95	-3.1396	-3.0354	216.508	103.421	-51.071	176.518	25.304	263.577	187.435	-10.657	49.099	109.195	27.876	174.284	-57.574	-51.905	179.355	177.721	0.0024813	0.00090937	0.00016342	1147.6	1.2721e-05	0.00011121	1461.5	265.07	8.6846e-06	5.4941e-06	434.32	120.98	71.276	15.4	9.1493e-06	36.116	0.0096255	0.010066	0.0027836	1108.1	9.2456e-05	0.00039416	1405.6	259.3	9.0183e-05	0.00011154	480.15	118.99	70.841	15.879	9.8791e-05	36.244	-51.355	14.478	41.786	-72.744	90.841	266.916	-72.439	-68.092	243.545	52.876	-68.144	-63.594	-64.201	-59.487	-29.700	-58.499	-8191	255	
1253.624	1	1	0	0	0.069315	0.28823	0.20437	0.25137	0.072739	0.22115	0.38092	0.047588	0.067942	0.30963	0.17886	0.09648	0.11472	0.13958	0.11539	0.21702	-2.7854	-3.225	-3.4354	-3.375	-3.6083	-2.7896	-3.3937	-3.3667	-3.0979	-3.3667	-3.3187	-3.2687	-3.3021	-2.9979	-3.2188	-3.2646	224.871	-56.723	-47.546	250.010	228.149	-59.120	240.203	30.026	231.064	-42.004	185.298	266.711	-43.712	-79.309	213.503	-53.115	0.0029833	8.2318e-05	0.00031175	1143.6	1.8504e-05	0.00011575	1465.8	265.17	2.248e-05	4.4796e-06	438.73	120.4	70.316	15.286	1.032e-05	36.193	0.018329	0.010059	0.0027786	1097.9	9.4076e-05	0.00036119	1402.9	258.38	9.0516e-05	0.00011541	490.57	118.06	70.44	15.822	9.8292e-05	36.261	259.774	30.811	-10.544	-72.620	62.563	-84.251	-72.270	-68.132	67.999	76.976	-68.091	-63.211	-63.947	-58.824	24.318	-58.425	-8191	255	
1253.743	1	1	0	0	0.074433	0.17749	0.085768	0.14215	0.14868	0.28975	0.3008	0.1533	0.13027	0.087661	0.18162	0.10926	0.037107	0.15913	0.17051	0.21759	-2.6333	-3.1813	-3.075	-3.3333	-3.2938	-2.9792	-3.2083	-3.3646	-3.0646	-3.4	-3.4396	-3.1063	-3.4417	-3.1521	-3.1771	-3.4021	1.877	-82.747	-84.873	240.962	234.584	47.153	250.532	164.800	-15.922	-76.909	198.474	-47.319	256.792	16.470	96.688	-63.881	0.0027843	0.00076378	0.00027728	1147.8	8.8394e-06	0.00013049	1481.2	269.99	1.1954e-05	1.2338e-05	442.89	121.54	71.491	15.499	2.134e-05	36.667	0.016645	0.010016	0.0027021	1107.9	9.5138e-05	0.00040795	1417.9	262.15	9.1765e-05	0.00011192	453.73	123.66	71.476	16.114	9.5584e-05	36.876	-82.569	-25.151	-74.007	-72.680	14.768	-78.207	-72.363	-68.028	56.528	192.103	-68.168	-63.171	-63.577	-58.857	51.154	-58.225	-8191	255	
1253.839	1	1	0	0	0.082909	0.079045	0.16109	0.28937	0.1467	0.15561	0.069216	0.04968	0.18132	0.1174	0.092352	0.27169	0.093826	0.16057	0.15823	0.12681	-2.8167	-3.4125	-3.35	-3.2104	-3.4792	-3.0708	-3.1104	-3.3812	-3.1167	-3.3104	-3.4604	-3.1021	-3.3583	-3.325	-3.1708	-3.5771	273.674	261.645	-32.463	260.044	204.488	-78.250	66.431	70.605	62.634	-18.590	185.266	204.186	68.440	-54.944	-84.158	-0.297	0.0030507	0.00014852	4.969e-05	1167.7	1.4796e-05	0.00011851	1495.2	272.93	1.6632e-05	9.3667e-06	438.45	125.69	73.194	15.972	6.042e-06	37.482	0.018722	0.010104	0.0027045	1124.8	9.5052e-05	0.00035976	1434.6	266.2	9.1625e-05	0.00011126	438.91	132.21	72.882	16.368	9.5768e-05	37.36	-81.393	120.247	-66.471	-72.909	17.544	-72.122	-72.416	-68.075	41.537	-53.949	-67.699	-63.312	-63.800	-59.158	54.828	-58.332	-8191	255	
1253.935	1	1	0	0	0.25695	0.28388	0.10533	0.12086	0.19146	0.065728	0.20637	0.21824	0.11252	0.073072	0.045823	0.0099867	0.1679	0.22894	0.26946	0.25257	-2.5438	-3.1292	-3.2292	-3.1271	-3.4562	-3.1875	-3.3312	-3.5917	-3.3083	-3.225	-3.2667	-3.0729	-3.3375	-3.2375	-3.2229	-3.5958	61.788	-52.844	60.885	150.444	242.573	88.727	212.688	229.169	10.237	146.903	127.641	88.080	236.521	39.646	-55.863	211.231	0.0026587	0.0011594	0.00020522	1172.2	1.3617e-05	8.2024e-05	1484.9	269.35	1.1744e-05	4.8161e-06	431.86	122.85	71.342	15.46	6.9226e-06	36.194	0.016317	0.0097001	0.0027051	1129.2	9.6667e-05	0.0003844	1426.6	263.79	9.2823e-05	0.00011024	431.53	127.95	71.266	15.956	9.3986e-05	36.47	-76.756	29.893	17.772	-72.780	117.621	-21.205	-72.545	-68.245	38.881	-39.804	-67.361	-63.223	-63.854	-58.742	20.735	-58.832	-8191	255	
1254.056	1	1	0	0	0.11245	0.12803	0.094819	0.61767	0.10116	0.15705	0.11937	0.13972	0.086874	0.13394	0.11097	0.13547	0.096751	0.10845	0.14633	0.073523	-2.7292	-3.2333	-3.4625	-3.1979	-3.1979	-3.1458	-3.2333	-3.45	-3.2625	-3.1917	-3.5292	-3.1625	-3.2479	-3.1771	-2.8146	-3.4833	205.250	243.171	197.419	239.921	154.074	161.887	216.824	236.608	191.994	183.598	210.179	66.139	103.331	219.845	223.332	-35.778	0.0028618	0.00096113	0.00011871	1154	1.4312e-05	6.1813e-05	1470.3	265.77	1.6368e-05	2.0787e-06	431.25	122.52	70.691	15.37	1.2233e-05	36.169	0.017895	0.0095401	0.0026645	1110.8	9.3972e-05	0.00018848	1434.1	259.65	9.0728e-05	0.00010693	429.23	128.28	70.519	15.818	9.6749e-05	36.338	-68.205	-5.133	151.707	-72.662	107.599	-2.955	-72.472	-67.890	133.505	58.329	-67.828	-63.091	-63.623	-59.258	30.272	-58.831	-8191	255	
1254.150	1	1	0	0	0.079111	0.10831	0.11684	0.23371	0.26939	0.052701	0.1969	0.1623	0.22058	0.14277	0.17256	0.060543	0.24202	0.018743	0.074643	0.21018	-2.9313	-3.3583	-3.3146	-3.1688	-3.2687	-3.2313	-3.4542	-3.7229	-3.1542	-2.9667	-3.4188	-3.1229	-3.3063	-3.3021	-3.1813	-3.2938	139.139	-22.158	142.611	219.436	110.443	108.275	175.742	-67.463	92.916	18.599	-46.883	-82.022	251.927	-79.046	-15.729	176.527	0.0022615	0.00051271	0.00012878	1145	9.6993e-06	6.4829e-06	1471.9	266.59	2.7428e-06	5.0078e-06	431.62	121.91	70.622	15.326	7.4569e-06	36.36	0.015697	0.0093377	0.0027587	1108.1	9.2682e-05	0.00010633	1468.4	260.74	9.0159e-05	0.00010653	431.35	127.17	70.793	15.891	9.7612e-05	36.663	-59.665	-15.292	-25.563	-72.778	-72.231	21.264	-72.559	-68.171	79.890	33.163	-67.819	-63.272	-64.058	-58.367	39.090	-58.488	-8191	255	
1254.224	1	1	0	0	0.19879	0.17855	0.25213	0.1346	0.23246	0.4513	0.24552	0.13059	0.2128	0.25645	0.068025	0.12474	0.18659	0.2892	0.085281	0.12721	-2.8167	-3.1625	-3.4729	-3.2542	-3.3937	-3.3417	-3.0438	-3.3	-3.2729	-3.0563	-3.4188	-3.1229	-3.3042	-3.4729	-3.1917	-3.3167	-18.994	-69.579	249.192	264.660	209.883	136.930	213.891	241.590	-76.265	232.685	254.744	44.994	6.566	202.566	0.666	202.172	0.00084656	0.00065737	7.1333e-05	1164.2	8.725e-06	1.3423e-05	1491.9	270.58	7.2582e-06	1.1458e-05	437.25	123.56	71.302	15.47	7.1669e-06	36.97	0.016459	0.0094093	0.0027883	1122.5	9.2458e-05	0.00010936	1474.3	263.93	9.0508e-05	0.00010965	435.23	129.7	71.212	16.038	9.8368e-05	37.087	229.430	11.821	81.824	-72.746	-10.191	83.234	-72.587	-67.879	-31.385	148.350	-67.457	-62.882	-63.776	-59.031	114.295	-58.631	-8191	255	
1254.344	1	1	0	0	0.036241	0.22543	0.071381	0.15881	0.10287	0.19633	0.17345	0.17159	0.14639	0.072802	0.20301	0.10196	0.028687	0.08165	0.017633	0.14371	-2.6333	-2.9604	-3.3292	-3.2042	-3.2792	-3.4792	-3.3667	-3.3375	-3.2417	-3.0583	-3.3354	-3.2604	-3.2188	-3.3167	-3.1792	-3.3583	28.115	93.562	220.933	215.419	206.766	210.401	190.532	119.996	70.220	185.080	229.474	250.535	185.451	67.609	227.625	197.353	0.00092936	0.011142	0.00015588	1171.2	1.3545e-05	1.3375e-06	1499.6	269.95	2.7555e-05	5.3503e-06	432.9	122.67	71.526	15.569	8.9127e-06	36.337	0.0083196	0.020636	0.002858	1128.4	9.1762e-05	0.00011243	1489.3	264.13	8.9753e-05	0.00011143	433.55	127.63	70.704	15.991	9.8247e-05	36.36	238.299	142.422	104.273	-72.658	14.577	69.866	-72.863	-68.028	49.466	270.375	-67.828	-62.948	-63.868	-58.674	-33.360	-57.900	-8191	255	
1254.439	1	1	0	0	0.26352	0.1393	0.11761	0.1109	0.15701	0.13928	0.17251	0.2395	0.11279	0.19966	0.2784	0.32274	0.10654	0.10421	0.13083	0.095	-2.5812	-3.0792	-3.4	-3.2021	-2.9042	-3.4625	-3.3708	-3.2833	-3.2542	-3.0458	-3.2667	-3.1167	-3.1542	-3.3812	-3.0667	-3.2938	53.987	205.288	-13.848	-50.928	95.127	120.797	223.744	-36.151	-47.583	100.941	217.333	247.217	47.087	218.381	58.857	-28.814	0.00047497	0.011645	0.0001491	1140.5	5.0521e-06	5.4155e-06	1471.4	264.33	2.4159e-05	3.9853e-06	423.92	121.14	69.768	15.238	2.1271e-05	35.525	0.0051384	0.033532	0.0028395	1101.4	9.0228e-05	0.00011197	1447.2	257.06	8.8727e-05	0.00010879	424.52	125.34	69.511	15.72	9.6624e-05	35.925	-32.426	125.030	243.026	-72.844	193.068	143.480	-72.560	-67.979	-5.731	210.526	-67.041	-62.968	-63.655	-58.647	81.337	-58.528	-8191	255	
1254.535	1	1	0	0	0.2331	0.25786	0.14876	0.44356	0.21851	0.077849	0.25966	0.21831	0.18105	0.1296	0.072199	0.19256	0.089532	0.031076	0.077676	0.058721	-2.8792	-2.9604	-3.2062	-3.2083	-3	-3.4354	-3.3688	-3.3854	-3.1333	-2.9188	-3.3771	-3.4167	-3.0354	-3.4021	-3.0458	-3.1771	151.376	14.690	-39.147	221.119	77.806	245.741	217.702	248.202	132.167	205.236	74.981	-48.779	23.160	223.178	26.644	156.592	0.00035951	0.010842	0.00036294	1137.4	1.2341e-05	3.4417e-06	1463.6	264.58	1.5462e-05	8.3769e-06	428.09	120.86	70.288	15.265	1.9646e-05	36.461	0.0051036	0.029354	0.0027861	1098.9	9.1296e-05	0.00011195	1453.8	257.32	9.0191e-05	0.00010932	426.78	119.39	73.912	15.768	9.4853e-05	36.313	3.721	130.921	-4.941	-72.701	29.827	75.116	-72.936	-68.249	160.774	-56.994	-67.869	-62.882	-63.099	-58.984	52.854	-58.194	-8191	255	
1254.631	1	1	0	0	0.35052	0.14079	0.4805	0.24806	0.069626	0.18115	0.36436	0.10346	0.093111	0.19886	0.10397	0.071333	0.2013	0.0022755	0.051638	0.075278	-3.1167	-3.0896	-3.2938	-3.4833	-3.0083	-3.1813	-3.3896	-3.2771	-3.3438	-3.0417	-3.3875	-3.5417	-3.1063	-3.2083	-2.9	-3.1208	131.288	161.741	211.097	-67.570	-18.392	123.437	193.710	-69.474	-78.679	138.750	72.589	-24.481	268.262	180.000	226.697	130.611	0.00019985	0.010617	1.2141e-05	1151.9	5.0946e-06	4.7176e-06	1485.1	268.55	9.1297e-07	8.335e-06	430.03	121.1	72.417	15.312	1.0384e-05	36.686	0.0051826	0.032615	0.0027304	1111.3	9.2949e-05	0.0001124	1462.9	261.39	9.0561e-05	0.00011037	431.3	118.86	78.901	15.95	9.5144e-05	36.711	-56.838	129.548	106.911	-72.590	201.541	4.740	-72.303	-67.993	228.611	-83.628	-67.716	-63.102	-63.021	-58.504	31.009	-58.368	-8191	255	
1254.752	1	1	0	0	0.21753	0.17291	0.045843	0.26901	0.32029	0.21015	0.28606	0.11644	0.21928	0.026971	0.093054	0.039713	0.01819	0.078573	0.07807	0.09786	-2.9813	-3.0333	-3.2188	-3.5062	-2.8396	-3.1854	-3.2542	-3.2542	-3.5771	-3.2125	-3.3458	-3.4542	-3.0896	-3.375	-3.1292	-3.2625	-55.563	-37.400	46.810	229.156	63.619	-72.013	239.353	-74.911	12.392	77.669	165.345	0.358	-6.525	147.329	166.927	-37.032	0.00035364	0.0091244	0.00022726	1169.7	3.4589e-06	2.8192e-06	1513.8	274.61	2.429e-06	5.7142e-06	438.98	122.71	73.215	15.642	7.8395e-06	37.198	0.0052163	0.029	0.0026569	1126	9.264e-05	0.00011131	1483.4	266.75	9.1691e-05	0.00010803	436.18	119.92	78.188	16.153	9.4757e-05	36.951	23.735	142.016	-61.130	-72.980	4.903	-23.698	-72.458	-68.312	195.917	43.319	-67.395	-63.254	-62.781	-58.743	154.444	-58.348	-8191	255	
1254.848	1	1	0	0	0.076489	0.054697	0.21077	0.18749	0.11647	0.067988	0.29798	0.12512	0.12313	0.032628	0.10755	0.082981	0.10547	0.16776	0.12633	0.078701	-2.8479	-2.9854	-3.1021	-3.3375	-3.2438	-3.3542	-3.5458	-3.2438	-3.2021	-2.9708	-3.3042	-3.5125	-3.0729	-3.1	-3.0604	-3.1979	-75.208	222.805	231.182	240.830	124.436	261.368	201.243	-30.061	134.816	-38.152	-23.061	160.040	158.828	218.148	25.498	-69.441	0.0003327	0.011287	0.00022477	1175.8	1.0251e-05	7.9448e-06	1502	269.79	1.7517e-05	8.03e-06	433.65	121.01	72.248	15.508	9.6122e-06	36.593	0.005293	0.03252	0.0026437	1123.1	9.236e-05	0.00010729	1432.4	271.42	9.1114e-05	0.00010688	430.69	118.28	78.286	15.874	9.2157e-05	36.408	-2.770	153.641	128.776	-72.313	113.159	60.556	-72.217	-68.077	23.899	75.773	-67.447	-63.402	-62.709	-58.632	124.412	-58.283	-8191	255	
1254.920	1	1	0	0	0.33494	0.13019	0.13618	0.32104	0.19246	0.070911	0.20547	0.21466	0.14117	0.10067	0.16046	0.20553	0.092809	0.11309	0.14134	0.23854	-2.8667	-3.1813	-3.1271	-3.4646	-2.9188	-3.4042	-3.5312	-3.225	-3.4271	-3.1458	-3.15	-3.3229	-3.1146	-3.4792	-3.4375	-3.1875	37.122	135.984	47.238	209.503	252.584	213.539	243.663	233.555	-36.642	73.819	265.202	92.994	243.135	20.132	-71.510	257.137	0.00031424	0.0095963	0.00012821	1170.4	1.2693e-05	7.9503e-06	1498.1	274.09	2.1457e-05	5.6038e-06	434.06	121.56	72.479	15.719	1.3672e-05	36.679	0.0052125	0.027834	0.0026255	1119.1	9.185e-05	0.0001062	1423.7	281.02	9.0779e-05	0.00010646	430.94	119.07	77.466	15.992	9.598e-05	36.638	2.584	170.104	-33.643	-72.600	6.110	44.807	-72.011	-68.385	55.085	126.846	-67.066	-62.983	-62.562	-58.407	25.134	-57.913	-8191	255	
1255.016	1	1	0	0	0.30099	0.15458	0.087903	0.15618	0.087997	0.071993	0.12395	0.34158	0.10495	0.20382	0.18406	0.089345	0.008687	0.24809	0.16657	0.1642	-2.8937	-3.1396	-3.0375	-3.4813	-3.0812	-3.3104	-3.3917	-2.875	-3.4396	-3.2854	-3.1	-3.4896	-3.0792	-3.1979	-3.5646	-3.2417	59.791	-29.838	220.642	236.335	20.293	213.754	92.813	178.018	239.560	199.810	240.362	114.799	-47.152	238.620	246.083	-41.266	0.00029166	0.00014433	0.0028741	1169.8	2.0187e-06	3.6083e-06	1506.4	274.71	1.2291e-05	1.7539e-05	439.83	123.71	73.116	15.706	9.7935e-06	37.524	0.0053126	0.027008	0.0031335	1121.5	9.2506e-05	0.00010887	1430.4	279.59	9.0383e-05	0.00010472	436.06	120.25	79.327	16.103	9.8047e-05	37.228	-22.736	29.314	160.062	-72.535	200.993	25.846	-72.202	-68.013	63.603	67.043	-67.220	-62.694	-62.520	-58.721	145.011	-57.927	-8191	255	
1255.136	1	1	0	0	0.22381	0.04995	0.20979	0.15502	0.025545	0.15611	0.30079	0.30327	0.18325	0.087911	0.11567	0.115	0.20547	0.14631	0.047823	0.28981	-2.8146	-2.9875	-3.0021	-3.5062	-3.1708	-3.0396	-3.6188	-3.0312	-3.2667	-3.4229	-3.1583	-3.4938	-3.1813	-3.1146	-3.3271	-3.2833	-43.916	30.751	18.430	273.410	124.520	70.845	212.830	221.663	174.179	76.235	249.349	32.315	164.417	167.827	195.191	96.665	0.00016286	0.0021904	0.0026077	1175.4	4.7623e-06	2.8613e-06	1503.5	277.71	3.8441e-05	1.3799e-05	443.33	124.59	73.635	15.975	7.825e-06	37.543	0.0052587	0.012585	0.0062924	1128.4	9.2159e-05	0.00011002	1434.4	285.42	9.0768e-05	0.00010896	439.89	121.67	79.088	16.328	9.9024e-05	37.454	121.736	-60.242	166.335	-72.412	70.749	-49.585	-72.050	-67.985	21.304	139.263	-67.353	-62.898	-62.777	-58.162	203.183	-58.349	-8191	255	
1255.231	1	1	0	0	0.2073	0.36831	0.32712	0.19522	0.038624	0.14129	0.068543	0.19957	0.28044	0.33803	0.17331	0.03093	0.18617	0.23319	0.051261	0.11628	-3.1021	-3.3187	-2.8708	-3.3083	-3.075	-3.1542	-3.6854	-2.9625	-3.1167	-3.2229	-2.9688	-3.3729	-3.1854	-3.2625	-3.2458	-3.0667	181.556	122.456	61.734	-66.349	66.335	255.561	201.411	207.181	-31.360	145.839	89.685	-84.161	14.962	208.282	91.984	-84.002	0.00012332	0.00027919	0.0028389	1171.6	1.4721e-05	9.7564e-06	1487.2	273.42	2.5211e-05	7.4392e-06	429.94	121.77	72.821	15.295	1.3298e-05	36.692	0.0051752	0.009725	0.0093328	1123	9.1256e-05	0.00010885	1421.9	278.59	9.0362e-05	0.00011014	430.74	119.07	76.71	16.334	9.9281e-05	36.55	15.255	132.451	174.224	-72.488	140.349	93.391	-72.176	-68.208	-17.949	189.534	-67.190	-62.996	-63.190	-57.322	90.017	-58.091	-8191	255	
1255.327	1	1	0	0	0.15106	0.10027	0.31564	0.096434	0.076752	0.12217	0.28688	0.24243	0.19852	0.21824	0.23619	0.057223	0.11635	0.38529	0.022679	0.095196	-2.8417	-3.5479	-2.8354	-3.3667	-3.1604	-3.1396	-3.6646	-3.1479	-3.0417	-3.5104	-3.0625	-3.4833	-3.1479	-3.0729	-3.4875	-3.2812	28.136	262.888	129.280	-83.015	-84.852	-77.008	221.741	-44.702	143.644	222.235	251.953	-10.050	-42.910	-77.627	216.774	219.251	0.00037454	0.00038398	0.002189	1150.7	1.1072e-05	5.8926e-06	1473.9	271.48	4.5665e-06	8.8957e-06	430.85	120.81	71.764	15.176	9.9464e-06	36.228	0.0051393	0.0098753	0.0080801	1104.3	9.0455e-05	0.00010996	1404.4	277.93	8.913e-05	0.00011098	429.32	118.34	71.016	17.64	9.9936e-05	36.38	4.591	100.309	179.770	-72.340	149.258	142.994	-72.118	-68.157	-3.317	216.601	-67.348	-63.130	-63.026	-56.858	80.254	-58.340	-8191	255	
1255.425	1	1	0	0	0.15148	0.071181	0.1697	0.11789	0.088006	0.074088	0.41102	0.22319	0.18325	0.09894	0.088633	0.11611	0.15447	0.1469	0.088487	0.035187	-2.8417	-3.2375	-3.0167	-3.3167	-3.2438	-3.1917	-3.3458	-2.8354	-3.0792	-3.5021	-3.2146	-3.3729	-3.2708	-2.9479	-3.4396	-3.3396	123.353	52.400	10.137	-80.446	226.298	130.656	217.785	-77.611	273.846	109.328	-58.537	238.078	243.376	223.771	237.241	249.772	0.00017002	0.00012124	0.0029533	1151.2	1.5957e-05	1.0063e-06	1483.6	273.22	1.1909e-05	7.9832e-06	434.98	121.3	71.178	15.714	8.079e-06	36.878	0.0051692	0.0099011	0.0090361	1106	9.1218e-05	0.00011147	1414.1	277.05	8.9083e-05	0.00011062	432.55	118.65	70.795	18.913	9.7676e-05	36.743	-28.260	-27.993	184.030	-72.687	-53.250	41.522	-72.105	-67.998	-22.717	-8.550	-67.335	-63.151	-63.072	-57.118	59.365	-58.166	-8191	255	
1255.519	1	1	0	0	0.12912	0.042933	0.19138	0.18109	0.13894	0.10205	0.21588	0.14074	0.097204	0.022344	0.086937	0.13079	0.14701	0.267	0.095191	0.14659	-2.8167	-3.4104	-3.0333	-3.2854	-3.1813	-3.0104	-3.4042	-3.3333	-3.1271	-3.3417	-3.1021	-3.2979	-3.2646	-3.0062	-3.4688	-3.0542	188.563	140.039	130.494	232.091	42.473	176.221	205.052	260.071	224.215	166.175	-81.645	139.070	128.038	-44.802	241.000	61.596	0.00034793	0.00061748	0.0024883	1165.2	8.8513e-06	4.2298e-06	1498.9	276.91	1.6474e-05	6.0256e-06	442.27	123.45	72.408	15.889	9.8434e-06	37.558	0.0051315	0.0099167	0.0079582	1118.9	9.2922e-05	0.00010945	1428.9	277.65	0.00012127	0.00011148	437.34	120.39	71.817	18.714	9.5976e-05	37.372	-0.344	17.341	194.919	-72.568	53.838	125.656	-72.071	-68.116	-51.337	36.488	-67.415	-63.215	-63.677	-56.722	84.622	-58.231	-8191	255	
1255.615	1	1	0	0	0.16588	0.17911	0.10978	0.025829	0.14369	0.27144	0.042157	0.14974	0.13559	0.073465	0.10035	0.046921	0.15331	0.043523	0.17726	0.29886	-2.5333	-3.3375	-3.0354	-3.35	-3.4062	-2.95	-3.3958	-3.4042	-3.2062	-3.1979	-3.0521	-3.0021	-3.3396	-3.1667	-3.0896	-3.2646	224.384	108.057	-57.953	45.786	-69.174	170.986	-50.842	158.011	270.073	43.489	112.470	55.697	187.191	141.029	20.383	31.815	0.00038065	0.00060401	0.0031259	1180	1.1603e-05	5.4794e-06	1511.8	277.77	4.3558e-05	7.4247e-06	438.52	122.73	71.682	15.721	1.936e-05	37.017	0.0052095	0.0098915	0.0089506	1130.1	9.3757e-05	0.00011085	1436.9	267.25	0.00022456	0.00011159	435.22	119.86	71.389	19.082	9.4484e-05	36.9	-17.075	29.748	204.144	-72.374	70.426	193.268	-72.218	-67.825	263.933	37.584	-67.603	-63.026	-63.472	-57.136	30.779	-58.442	-8191	255	
1255.736	1	1	0	0	0.08949	0.1657	0.10798	0.29738	0.27448	0.14717	0.23671	0.080991	0.23092	0.22436	0.065996	0.2266	0.15724	0.23263	0.25735	0.084252	-2.7375	-3.3354	-3.0896	-3.2042	-3.2229	-2.9958	-3.4667	-3.5146	-3.125	-3.3604	-3.0708	-3.4167	-3.45	-3.1229	-3.2729	-3.3167	55.168	-33.945	250.446	154.653	85.096	39.732	193.085	-76.800	-27.205	59.126	218.395	-83.219	-75.133	-32.803	179.093	-50.758	0.00028569	0.00052173	0.0022759	1160.8	9.5341e-06	3.3942e-06	1480.2	269.55	0.00024297	1.1305e-05	431.51	121.15	71.304	15.659	1.0097e-05	36.799	0.0051957	0.0097527	0.0078405	1110.5	9.4056e-05	0.00010779	1412.3	261.51	0.00029488	0.00011096	430.03	118.52	70.665	18.416	9.5396e-05	36.651	45.163	7.949	207.437	-72.681	-60.629	243.380	-72.094	-67.894	58.363	28.403	-67.505	-62.980	-63.293	-57.375	134.908	-58.268	-8191	255	
1255.832	1	1	0	0	0.2934	0.093286	0.34549	0.14231	0.18462	0.2203	0.092399	0.22461	0.18534	0.16963	0.063101	0.24857	0.10539	0.20836	0.16445	0.26965	-2.7	-3.3271	-3.3042	-3.125	-3.3937	-3.0896	-3.4021	-3.5854	-3.05	-3.2708	-3.175	-3.1937	-3.5479	-3.1146	-3.2667	-3.2229	263.825	192.696	108.007	252.161	112.831	18.426	241.060	168.443	-14.118	263.501	156.659	167.847	198.162	-28.363	82.543	101.315	0.00028271	0.00086939	0.0015557	1148.4	5.364e-06	9.9277e-06	1487.3	271.82	0.00022292	7.9606e-06	432.78	121.54	71.428	15.534	9.2122e-06	36.962	0.0051989	0.0096786	0.006755	1120.1	9.497e-05	0.00010783	1412.6	262.68	0.00026159	0.00010931	432.81	118.84	70.86	18.997	9.5661e-05	36.969	28.974	-62.639	-80.329	-72.807	79.747	93.615	-72.005	-67.842	66.548	20.429	-66.928	-63.150	-63.544	-56.967	120.360	-58.058	-8191	255	
1255.928	1	1	0	0	0.11405	0.055843	0.31455	0.14961	0.21354	0.18707	0.26891	0.11088	0.1458	0.16544	0.041862	0.17467	0.33207	0.078191	0.10139	0.19705	-2.4604	-3.3229	-3.2625	-3.2687	-3.3896	-3.025	-3.0563	-3.3708	-2.9917	-3.3646	-3.3896	-3.1146	-3.5083	-3.3729	-3.2833	-3.4917	43.991	247.021	213.415	272.788	272.096	-56.097	272.178	248.172	21.600	126.249	-7.663	-44.969	259.070	111.863	195.927	233.443	0.00034734	0.00094669	0.0013356	1161.7	2.7496e-06	5.3732e-06	1497	274.28	0.00028349	9.8122e-06	436.1	122.68	72.252	15.778	6.0132e-06	37.304	0.0052856	0.0095879	0.0028567	1156.9	9.3746e-05	0.00010852	1424.4	265.19	0.00029881	0.00010762	436.36	120.26	71.694	18.74	9.5493e-05	37.426	-13.301	-19.575	-79.928	-72.572	178.518	92.223	-72.051	-67.722	67.745	-28.593	-67.935	-63.119	-63.595	-57.168	170.423	-58.330	-8191	255	
1256.025	1	1	0	0	0.13231	0.097358	0.061648	0.03051	0.12648	0.011565	0.18031	0.065043	0.18774	0.16351	0.079916	0.098184	0.18538	0.037195	0.053935	0.025245	-2.6208	-3.1104	-3.2646	-3.0833	-3.1854	-3.1208	-3.175	-3.525	-2.9875	-3.2333	-3.3604	-3.1063	-3.25	-2.9417	-2.9479	-3.2479	245.843	102.130	110.336	156.444	145.659	197.886	-46.101	119.437	14.574	116.787	236.080	263.401	202.757	-47.529	210.062	44.393	0.00020721	6.1461e-05	0.00028824	1168.8	2.0683e-06	2.1277e-06	1510.7	276.03	0.00023105	6.9423e-06	440.84	124.59	73.573	16.275	0.00017014	37.421	0.0051426	0.0095928	0.0027099	1188.2	9.2589e-05	0.0001073	1437.9	267.74	0.00027298	0.00010667	439.85	121.71	72.569	18.275	0.00015518	37.39	-29.972	56.578	11.636	-72.814	76.720	-4.225	-72.246	-67.909	78.397	41.840	-66.733	-62.855	-63.505	-57.898	199.483	-58.184	-8191	255	
1256.145	1	1	0	0	0.20043	0.076165	0.10988	0.17899	0.20821	0.054387	0.061784	0.1758	0.20705	0.11076	0.12074	0.14414	0.16457	0.10441	0.06266	0.17359	-2.6542	-3.025	-3.1667	-3.1833	-3.025	-3.0521	-3.0458	-3.4437	-2.9562	-3.2542	-3.3187	-2.9333	-3.25	-3.1562	-2.8958	-3.4333	98.731	168.444	-1.486	228.301	-81.396	19.284	13.607	-6.788	87.723	143.417	79.719	207.616	232.442	244.858	192.238	218.002	0.00048688	0.00070409	0.00025513	1153.9	5.1499e-06	1.8546e-05	1473.5	269.06	0.00028811	8.1368e-06	427.2	121.47	71.678	15.63	0.0001651	36.855	0.0050936	0.0097108	0.0027144	1163	9.2044e-05	0.00010795	1406.2	260.94	0.00032076	0.00010793	427.91	118.61	70.659	15.948	0.00027351	36.622	14.720	-11.495	15.713	-72.917	60.317	15.490	-72.167	-67.788	86.990	-0.926	-67.622	-63.064	-63.539	-58.574	199.862	-57.981	-8191	255	
1256.217	1	1	0	0	0.29014	0.053602	0.13136	0.081827	0.15348	0.16072	0.63023	0.12574	0.15544	0.18375	0.13477	0.28703	0.39664	0.099716	0.14135	0.10987	-2.7958	-3.1188	-3.3688	-3.2333	-3.4875	-3.2521	-3.3729	-3.4458	-3.2146	-2.975	-3.2125	-3.1458	-3.2313	-3.3021	-3.1542	-3.4833	-45.884	-57.904	13.422	-52.384	249.331	53.272	220.474	229.132	66.477	130.066	140.691	-7.145	235.636	87.534	24.126	17.099	0.00032166	0.0009462	0.00027193	1144.7	5.6034e-06	3.9078e-06	1463.7	267.38	0.00023958	8.8431e-06	433.94	121.55	71.521	15.552	0.00017211	36.555	0.0050609	0.0095262	0.0027786	1163.4	9.0956e-05	0.00010967	1396.6	258.9	0.00027763	0.00010677	427.95	118.74	70.707	15.919	0.00034049	36.505	25.844	-55.742	68.528	-73.180	81.914	49.009	-72.027	-67.808	83.291	93.266	-67.286	-63.107	-64.090	-58.268	180.089	-57.985	-8191	255	
1256.313	1	1	0	0	0.10772	0.1303	0.15237	0.20488	0.13423	0.13787	0.1364	0.21418	0.22356	0.12276	0.095314	0.11357	0.10587	0.15189	0.29772	0.08784	-2.6833	-3.1479	-3.5021	-3.3354	-3.1396	-3.1937	-3.0312	-3.2708	-3.2917	-3.0854	-3.3583	-3.0375	-3.3063	-3.3854	-3.0938	-3.6083	232.697	176.674	3.712	231.887	-35.766	247.870	116.850	-44.278	202.682	241.363	-61.853	-27.041	140.174	135.144	-10.733	-79.313	0.00028568	0.00076039	0.00011463	1150.4	4.7286e-06	2.7012e-06	1478.6	269.52	0.00030026	5.3021e-05	436.01	121.93	72.843	15.622	0.0001704	37.228	0.0051084	0.0095703	0.0027247	1155.8	9.0411e-05	0.00010914	1405.2	260.63	0.00021608	0.00018799	430.93	119.42	71.346	16.046	0.00030183	36.886	-13.127	46.077	19.055	-72.916	96.654	88.682	-72.184	-67.902	77.026	167.922	-67.417	-62.907	-63.199	-58.420	185.623	-57.695	-8191	255	
1256.407	1	1	0	0	0.073417	0.24275	0.12251	0.1755	0.12258	0.19906	0.11158	0.059533	0.024797	0.046351	0.22524	0.07062	0.099362	0.13751	0.10311	0.10292	-2.9375	-3.0854	-3.5062	-3.2438	-3.2687	-3.4854	-3.25	-3.4667	-3.3063	-2.9979	-3.2979	-3.2604	-3.2625	-3.4208	-3.0667	-3.4583	-51.628	219.970	220.059	243.242	-50.885	181.908	210.601	114.412	170.140	-20.008	-72.794	172.257	245.818	152.491	-9.888	-65.456	0.00039559	0.00082971	0.00016585	1161.5	8.7347e-06	6.1516e-06	1498.5	273.03	6.7367e-06	3.1309e-05	434.34	124.63	73.173	15.816	0.00019581	37.561	0.0051344	0.0095171	0.0026883	1176.6	9.1926e-05	0.00010934	1418.2	263.39	8.8995e-05	0.00032428	434.05	120.96	72.187	16.246	0.00034281	37.233	9.869	67.688	-14.798	-72.728	115.031	172.074	-72.183	-67.332	-84.604	161.842	-67.610	-62.792	-63.166	-58.355	187.940	-58.140	-8191	255	
1256.528	1	1	0	0	0.056359	0.081347	0.1225	0.27882	0.28673	0.182	0.15471	0.041519	0.25641	0.1844	0.045828	0.23885	0.15825	0.22666	0.14712	0.23158	-2.8417	-3.1	-3.1937	-3.25	-3.1354	-3.3729	-3.0771	-3.275	-3.2271	-3.225	-3.3042	-3.2938	-3.0854	-3.4229	-3.1292	-3.2604	74.375	153.510	76.013	262.246	203.183	67.595	176.819	65.071	-52.730	212.223	223.825	148.324	222.622	-66.622	217.036	258.559	0.00032947	0.0010447	0.00025146	1165.2	4.3648e-06	1.1548e-05	1479.3	269.36	3.1779e-06	0.00015254	432.72	121.6	71.295	15.487	0.00012552	36.417	0.0051381	0.0096243	0.0027044	1169.7	9.2198e-05	0.00010889	1409.8	261.09	8.9914e-05	0.00038806	429.13	118.77	70.591	15.945	0.00029856	36.418	0.830	75.630	64.315	-72.842	106.210	62.900	-72.089	-67.304	71.396	65.354	-67.219	-63.058	-63.145	-58.679	185.794	-58.435	-8191	255	
1256.624	1	1	0	0	0.22008	0.27333	0.12234	0.12824	0.27754	0.13421	0.095526	0.22591	0.10533	0.17259	0.10457	0.041229	0.15533	0.20605	0.26141	0.16497	-2.8854	-2.9604	-3.3667	-3.2687	-2.9125	-3.2354	-3.0375	-3.1896	-3.2521	-3.1604	-3.4062	-3.3521	-3.1458	-3.2417	-3.1354	-3.2292	96.963	227.551	138.526	154.986	85.286	100.182	217.483	-82.369	230.481	230.229	211.960	129.738	-25.849	196.763	177.755	262.408	0.00024773	0.00080692	0.00019957	1151.2	0.00011427	6.8221e-07	1446.4	263.92	2.0519e-05	0.00015387	424.39	121.08	71.094	15.267	0.00018366	36.847	0.0050544	0.0094125	0.0025945	1135.5	0.00016881	0.0001067	1397	258.78	8.7345e-05	0.00033643	425.16	118.76	70.621	15.854	0.00033941	36.471	-22.783	176.462	127.858	-72.893	258.458	256.931	-72.650	-68.161	133.187	78.931	-67.920	-63.340	-63.429	-58.522	196.073	-58.160	-8191	255	
1256.720	1	1	0	0	0.1155	0.11265	0.24742	0.16818	0.096021	0.12843	0.24584	0.15877	0.10246	0.11535	0.061555	0.14814	0.15644	0.16464	0.12641	0.17179	-2.7979	-2.9521	-3.3854	-3.3458	-3.1188	-3.4188	-3.2438	-3.2146	-3.1833	-3.0062	-3.375	-3.1958	-3.0479	-3.2875	-3.1458	-3.0542	240.292	18.164	204.748	175.166	62.562	-33.557	251.985	165.592	240.524	-82.204	-56.910	261.334	255.442	71.084	-39.298	-28.764	0.00023862	0.00082097	0.00032019	1161	6.7728e-05	9.3119e-06	1490.7	271.6	8.6921e-06	0.00015963	437.01	123.39	72.677	15.67	0.00016219	37.168	0.0051486	0.0094151	0.0026397	1108.6	0.00027961	0.00010771	1414.4	261.56	9.0483e-05	0.00039176	430.91	119.57	71.217	16.054	0.00030961	36.817	-43.737	8.086	51.905	-72.482	268.291	90.841	-71.846	-67.377	15.471	89.172	-67.603	-62.974	-63.421	-58.414	205.618	-57.932	-8191	255	
1256.816	1	1	0	0	0.28916	0.23996	0.24482	0.24692	0.24165	0.2242	0.082807	0.36757	0.22852	0.10037	0.21149	0.036958	0.066142	0.1649	0.086699	0.1344	-3.0438	-3.0417	-3.1104	-3.3521	-3.0438	-3.3333	-3.2167	-3.1333	-3.3583	-3.0792	-3.1937	-3.4646	-2.9167	-3.1896	-3.1	-3.0292	112.817	-17.559	108.849	242.189	-73.750	180.542	270.734	181.186	139.356	-55.581	162.421	136.983	106.898	143.809	-14.966	91.008	0.00024272	0.00071091	0.0001511	1168.2	0.00016701	8.0557e-06	1500.4	273.56	1.5568e-05	0.00013482	437.88	123.87	72.736	15.837	3.162e-05	36.468	0.0052022	0.0093444	0.0026934	1116.4	0.00033644	0.00010696	1418.9	263.23	9.0528e-05	0.00034653	434.15	120.55	71.695	16.164	0.00021458	38.824	-13.370	-45.793	-51.705	-72.362	-40.746	19.913	-71.878	-67.459	181.272	88.257	-67.587	-63.083	-63.487	-58.851	96.092	-58.204	-8191	255	
1256.913	1	1	0	0	0.039129	0.25134	0.23196	0.20134	0.33993	0.039755	0.27431	0.14699	0.15864	0.092345	0.093361	0.27775	0.11759	0.20859	0.086113	0.063318	-3.0542	-3.1646	-3.0187	-3.3167	-3.1083	-3.3375	-3.2979	-3.1708	-3.2458	-3.0292	-3.1583	-3.5917	-3.2708	-3.2958	-3.6083	-3.0583	160.494	156.335	-21.520	77.422	148.919	-35.952	251.718	228.792	241.557	146.583	262.854	-42.838	253.556	23.262	-82.897	265.159	0.00035669	0.0010204	0.00017274	1174.3	0.00015191	1.4068e-06	1503.7	273.53	3.6205e-06	0.00015441	435.23	123.81	72.032	15.627	5.2192e-06	36.474	0.0052262	0.0095158	0.0027467	1121.2	0.00028911	0.00011027	1422.9	263.5	8.9663e-05	0.00038993	431.78	119.75	70.933	15.96	9.5259e-05	40.406	-1.084	63.462	55.265	-72.437	-33.889	126.250	-71.990	-67.756	-4.797	98.610	-66.937	-62.828	-63.440	-58.371	150.320	-58.396	-8191	255	
1257.009	1	1	0	0	0.046821	0.18759	0.11603	0.2639	0.28201	0.26148	0.24401	0.19267	0.24195	0.068296	0.14591	0.23858	0.20293	0.072875	0.047967	0.21051	-3	-3.1042	-2.8521	-3.2375	-2.9333	-3.1792	-3.2271	-2.925	-3.0333	-3.2604	-2.8812	-3.2979	-3.0833	-3.3667	-3.5125	-3.15	38.655	-41.901	92.395	223.818	235.661	126.074	189.106	237.398	203.779	-75.572	262.391	256.342	187.157	3.286	58.620	79.777	0.00025445	0.00086917	0.000154	1160	0.00017915	7.3482e-06	1483.2	268.49	9.4315e-06	0.00013275	431.74	122.11	71.492	15.568	2.4389e-05	36.025	0.0051236	0.0093978	0.002723	1104.6	0.00032203	0.00010896	1403.2	259.07	8.83e-05	0.00033969	425.62	118.28	70.33	15.836	9.5651e-05	40.888	1.639	14.462	-29.647	-72.289	-20.315	13.796	-72.012	-67.599	148.744	99.938	-67.394	-62.872	-63.303	-58.363	98.014	-57.999	-8191	255	
1257.105	1	1	0	0	0.050412	0.063957	0.063777	0.13677	0.16991	0.31383	0.1641	0.21375	0.33593	0.10364	0.30071	0.24457	0.15044	0.059889	0.25111	0.31253	-2.9083	-3.2313	-2.9437	-3.5687	-3.0875	-3.3937	-3.7333	-3.2958	-3.4458	-3.4437	-3.3	-3.525	-3.3646	-3.2438	-3.2375	-3.0896	16.073	249.935	149.257	103.178	114.912	-41.719	205.608	202.579	174.295	-7.525	271.819	272.075	-29.816	82.254	78.202	198.994	0.00043347	0.00081847	0.00026127	1153.8	0.00015657	3.6618e-06	1480.3	269.53	3.5874e-06	0.00015455	427.43	121.6	71.367	15.515	5.8049e-06	36.369	0.0051173	0.0095685	0.0027037	1101.8	0.0002849	0.00011032	1403.6	259.35	8.7904e-05	0.00022548	453.45	118.39	70.276	15.889	9.5379e-05	40.254	11.266	88.291	13.288	-72.267	-13.849	-25.861	-72.107	-67.554	2.395	63.250	-66.649	-62.709	-62.830	-58.834	13.239	-58.584	-8191	255	
1257.226	1	1	0	0	0.15966	0.16061	0.069514	0.031849	0.20408	0.28882	0.14375	0.1725	0.30205	0.25063	0.095911	0.092593	0.098646	0.19718	0.10747	0.10972	-2.7792	-3.0771	-2.9042	-3.5417	-2.8958	-2.8958	-3.5042	-3.0292	-3.2188	-3.2042	-2.9021	-3.4792	-3.3	-3.1042	-3.3021	-3.2208	-39.391	66.328	43.727	86.555	176.866	-5.934	151.567	79.002	-73.123	60.052	241.211	-63.158	62.248	256.989	112.831	247.131	0.00022518	0.00055173	0.00015642	1160.3	0.00019481	1.0975e-05	1490.9	271.11	1.2068e-05	8.5398e-06	443.28	122.82	71.643	15.797	5.9259e-06	36.508	0.0051952	0.0096505	0.0026756	1108.4	0.0003246	0.00010916	1413	261.33	8.9478e-05	0.00010956	483.1	119.55	70.886	16.021	9.7606e-05	41.385	-53.287	25.323	109.209	-72.078	-13.083	76.848	-71.887	-67.600	88.175	55.091	-65.711	-62.907	-63.516	-58.497	86.613	-58.380	-8191	255	
1257.320	1	1	0	0	0.15864	0.13313	0.10976	0.16177	0.20345	0.091742	0.29179	0.047212	0.11436	0.089558	0.1928	0.095333	0.27452	0.16587	0.25772	0.084102	-2.925	-3.3812	-2.9333	-3.2458	-3.1042	-2.9688	-3.5563	-3.2083	-3.4167	-3.3563	-3.1458	-3.4813	-3.3521	-3.0271	-3.1104	-3.1625	-52.278	-79.471	-82.818	-33.025	185.111	168.786	243.666	202.250	-19.643	-62.116	260.876	-66.876	235.612	242.781	-27.102	114.127	0.00025606	0.00063387	0.00012452	1176.6	0.00014794	6.0816e-06	1506	275.11	1.0067e-05	9.7927e-06	444.56	124.39	73.256	15.913	7.4735e-06	36.691	0.0051429	0.0097027	0.0026531	1117.9	0.00028386	0.00010845	1426.6	264.62	8.9775e-05	0.00010781	497.04	120.86	71.821	16.192	9.5351e-05	40.712	-3.255	1.858	-49.174	-72.173	6.180	113.613	-71.923	-67.628	53.752	44.794	-65.699	-62.944	-63.225	-58.590	255.610	-58.271	-8191	255	
1257.418	1	1	0	0	0.16606	0.048356	0.10087	0.16859	0.13096	0.19703	0.20271	0.11363	0.15393	0.082627	0.076407	0.046587	0.076079	0.13758	0.15505	0.13138	-2.7062	-3.1229	-2.9333	-3.3375	-3.0917	-2.8604	-3.6667	-3.3042	-3.3937	-3.4042	-3.0312	-3.4688	-3.225	-3.1542	-3.3917	-3.1146	24.810	264.437	71.107	181.442	-37.534	256.828	246.317	60.981	39.014	135.663	75.817	161.471	163.275	-56.782	-66.302	146.294	0.00062431	0.0017018	0.0001293	1165.7	0.00018834	3.1332e-05	1489	270.49	2.3658e-05	1.046e-05	438.08	122.11	71.256	15.602	9.3049e-06	36.091	0.0052093	0.0095589	0.0026159	1109.8	0.00018076	0.00024071	1409.2	260.32	9.0444e-05	0.00010713	479.75	118.51	70.274	15.841	9.3353e-05	40.834	-11.440	-7.508	73.686	-72.472	8.859	-83.350	-71.802	-67.645	8.948	125.781	-66.295	-63.154	-63.334	-58.864	245.686	-58.810	-8191	255	
1257.512	1	1	0	0	0.23492	0.29936	0.085865	0.17924	0.22985	0.041721	0.17186	0.26303	0.17064	0.11446	0.083968	0.26211	0.035412	0.15296	0.15698	0.16254	-2.6437	-3.2729	-2.9146	-3.3229	-3.2188	-3.1063	-3.7938	-3.2521	-3.3937	-3.5563	-3.1875	-3.3937	-3.2854	-2.875	-3.3083	-3.3271	257.695	118.169	142.817	165.542	7.759	184.751	215.795	-57.483	179.127	-11.281	163.950	227.680	124.592	168.382	53.603	269.109	0.00029414	0.00069684	8.3896e-05	1156.9	4.8425e-06	9.6601e-05	1485.3	270.69	4.3961e-06	1.1735e-05	436.18	121.64	71.392	15.645	5.9766e-06	37.256	0.0050738	0.0095858	0.0025887	1102.5	9.1235e-05	0.00034007	1407.6	259.99	8.8046e-05	0.00010689	489.17	118.87	70.587	15.971	9.2433e-05	40.207	-1.739	5.418	51.854	-72.189	63.953	14.989	-71.987	-67.405	-10.204	110.345	-65.603	-62.739	-63.193	-58.431	-35.965	-58.321	-8191	255	
1257.608	1	1	0	0	0.15705	0.098295	0.16089	0.28905	0.11707	0.068061	0.26809	0.13432	0.052214	0.11214	0.16413	0.096861	0.22436	0.094742	0.3941	0.095621	-2.825	-3.225	-3.1188	-3.3917	-3.2083	-3.0396	-3.3	-3.2812	-3.0292	-3.4125	-3.2938	-3.1979	-3.4125	-3.1708	-3.275	-3.3125	49.590	-67.907	40.491	234.743	211.520	251.513	210.491	266.639	3.924	201.359	211.174	267.789	-70.638	-0.369	-31.110	105.554	0.00041898	0.00060929	0.00019589	1165.1	8.1712e-06	0.00013959	1494.3	270.99	6.8595e-06	6.3413e-06	439.49	123.67	72.874	15.849	2.9358e-06	37.55	0.0050681	0.009503	0.0026102	1109.1	9.1683e-05	0.00038642	1413.8	261.42	8.817e-05	0.00010635	484.27	120.34	71.467	16.104	9.5224e-05	38.539	-12.601	-34.011	22.387	-72.230	47.260	14.331	-71.995	-67.609	211.698	-16.179	-66.104	-62.866	-63.370	-58.216	203.035	-58.347	-8191	255	
1257.705	1	1	0	0	0.22741	0.19173	0.16173	0.061679	0.11888	0.18572	0.16509	0.21935	0.055819	0.020458	0.17783	0.23907	0.20202	0.18133	0.034068	0.11438	-2.5583	-3.1229	-3.0438	-3.2562	-3.4771	-2.9688	-3.5417	-3.4771	-3.0417	-3.4604	-3.3771	-3.4562	-3.5292	-3.1646	-3.3729	-3.5438	-34.043	20.238	-82.594	142.267	71.516	153.970	233.644	163.020	-68.919	235.679	206.232	172.163	173.673	210.160	-41.612	63.228	0.0031072	0.00044578	4.7848e-05	1169.8	6.5295e-06	0.00010953	1506	274.29	4.1025e-06	1.5134e-05	442.16	125.38	73.791	16.017	7.9236e-06	37.768	0.01175	0.0095716	0.0026364	1114.3	9.0875e-05	0.00033551	1423.6	263.54	8.7548e-05	0.00010752	496.77	121.7	72.584	16.283	9.6141e-05	37.414	-7.047	-1.921	-15.228	-72.174	64.610	15.000	-71.944	-68.048	46.061	17.430	-65.883	-62.971	-63.541	-58.790	143.411	-57.800	-8191	255	
1257.825	1	1	0	0	0.10944	0.26688	0.044989	0.3387	0.19454	0.099413	0.10321	0.28636	0.21293	0.21039	0.10476	0.10376	0.22848	0.28697	0.15889	0.1988	-2.5625	-3.3521	-3.1604	-3.3146	-3.2979	-2.9979	-3.3333	-3.2188	-2.8688	-3.2313	-3.15	-3.2354	-3.3792	-3.2104	-3.3292	-3.5187	181.886	-41.198	-32.211	162.718	-38.103	166.884	198.175	198.957	247.098	-8.288	174.254	225.240	174.622	212.098	233.117	-36.809	0.0029125	0.00076506	3.5305e-05	1167.1	7.6763e-06	0.00013885	1492.9	271.33	7.0968e-06	1.1027e-05	438	122.77	72.268	15.651	1.2403e-05	37.067	0.0157	0.0096592	0.0027123	1113	9.1085e-05	0.00038339	1413.5	261.62	8.6892e-05	0.00010842	474.23	119.44	70.866	15.962	9.7234e-05	36.619	15.858	59.696	160.594	-72.292	217.802	26.013	-72.110	-67.299	148.272	153.885	-66.570	-62.757	-63.731	-59.078	13.511	-58.151	-8191	255	
1257.921	1	1	0	0	0.24949	0.097385	0.10359	0.28677	0.085237	0.069093	0.17759	0.18418	0.051325	0.23816	0.20627	0.12224	0.089816	0.16157	0.21019	0.13202	-2.6958	-3.2354	-3.2542	-3.4292	-3.3708	-3.1	-3.3583	-3.3854	-2.9396	-3.2271	-3.225	-3.1813	-3.575	-3.1813	-3.3104	-3.3854	25.803	255.893	-19.270	-67.180	102.820	-27.133	206.979	-44.301	230.626	266.357	240.377	60.293	204.528	-50.439	-19.333	90.435	0.0031084	0.00090398	0.00012567	1151.8	2.9793e-06	0.00011319	1465	267.01	8.2426e-06	7.7116e-06	437.05	121.23	71.644	15.565	1.9718e-05	36.805	0.017337	0.0096745	0.002717	1094.6	8.9857e-05	0.00033011	1392.4	257.82	8.6497e-05	0.0001092	442.58	124.01	70.158	15.81	9.6254e-05	36.467	16.386	-38.000	-38.843	-72.379	143.293	30.321	-71.855	-67.653	-39.598	87.850	-66.605	-62.301	-63.243	-58.288	100.588	-58.189	-8191	255	
1258.017	1	1	0	0	0.13731	0.12527	0.072582	0.23527	0.32775	0.14154	0.16696	0.12528	0.17264	0.08692	0.25758	0.24464	0.31697	0.059588	0.027682	0.086162	-2.6375	-3.3583	-3.2687	-3.1437	-3.3563	-3.0708	-3.1896	-3.2313	-2.9229	-3.35	-3.4208	-3.1813	-3.6312	-3.2125	-3.1771	-3.4083	101.513	255.205	-25.776	-52.403	167.745	169.904	229.611	256.659	202.005	263.752	-31.205	184.680	-24.924	121.153	-37.606	-9.882	0.0027353	0.000803	5.955e-05	1141.6	1.0389e-05	0.00013219	1476.5	269.4	7.0566e-06	7.961e-06	432.59	122.04	72.014	15.718	1.6266e-05	37.332	0.015125	0.0097414	0.0027008	1091.9	9.1131e-05	0.00037537	1397.4	258.66	8.8657e-05	0.00011007	427.9	127.16	70.646	15.988	9.604e-05	36.754	22.032	-38.825	204.200	-72.322	53.183	39.682	-72.032	-67.773	-14.303	97.483	-67.448	-62.544	-63.516	-58.708	90.974	-57.682	-8191	255	
1258.089	1	1	0	0	0.12544	0.094511	0.25476	0.2163	0.10398	0.045544	0.39601	0.1287	0.041462	0.22622	0.14736	0.10753	0.086465	0.19925	0.14023	0.098526	-2.75	-3.1	-3.1854	-3.1583	-3.1896	-3.0146	-3.1333	-3.6167	-2.9771	-3.2792	-3.3438	-3.1667	-3.6188	-3.4229	-3.2938	-3.5208	122.416	78.807	-14.331	233.961	242.569	-44.203	182.597	256.007	128.660	197.113	-51.084	102.263	154.870	17.975	56.714	-44.356	0.0031726	0.001011	4.2562e-05	1157.3	2.2141e-06	0.00011904	1486.6	272.6	1.0904e-05	3.7468e-06	441.24	123.25	72.933	15.836	3.7725e-06	37.48	0.017256	0.009842	0.0027289	1102.2	9.2398e-05	0.00030274	1408.1	261.37	8.8163e-05	0.00011106	434.01	129.93	71.427	16.171	9.5695e-05	37.096	28.967	-51.256	165.400	-72.048	-17.512	33.628	-71.828	-67.495	107.397	66.633	-67.427	-62.346	-62.853	-57.976	-25.246	-57.990	-8191	255	
1258.210	1	1	0	0	0.14197	0.19602	0.12228	0.23494	0.111	0.028004	0.094978	0.11864	0.12964	0.18276	0.065847	0.25826	0.21246	0.15513	0.1882	0.15252	-2.7583	-3.0229	-3.3167	-3.0458	-3.1417	-3.0625	-3.0458	-3.3229	-3.1104	-3.3146	-3.6188	-3.2687	-3.4854	-3.3312	-2.9646	-3.3917	253.434	64.138	31.838	128.566	-12.613	1.479	248.426	153.049	-53.497	-76.067	-65.543	-78.444	264.854	114.972	13.494	264.272	0.0029621	0.0011731	0.0003551	1169	1.0238e-05	0.00014629	1500.5	272.4	8.8975e-06	8.3355e-06	437.08	122.96	72.938	15.736	9.5433e-06	37.18	0.015382	0.0097682	0.0026711	1113.2	9.2632e-05	0.00017397	1453.8	263.08	8.9234e-05	0.00010958	432.59	128.47	71.396	16.145	9.4589e-05	36.831	37.274	-7.145	-11.310	-72.209	8.844	40.775	-71.859	-67.654	-52.059	-9.567	-67.004	-62.349	-63.187	-58.416	75.230	-58.142	-8191	255	
1258.304	1	1	0	0	0.12472	0.40292	0.10375	0.2459	0.14059	0.051888	0.39451	0.16937	0.25443	0.12124	0.15265	0.1073	0.20744	0.14203	0.068222	0.1406	-2.6771	-3.0625	-3.2188	-3.0896	-3.4125	-3.2062	-3.2938	-3.3917	-3.1688	-3.1625	-3.4646	-2.9771	-3.0312	-3.125	-2.975	-3.5062	73.068	112.026	-55.490	241.215	38.971	-35.192	224.885	221.361	169.104	-58.111	15.073	-36.301	-38.608	134.062	155.012	-47.437	0.0031057	0.00064931	0.00014715	1154.4	4.2075e-06	5.2099e-06	1486.1	268.27	7.7809e-06	3.8334e-06	432.12	121.91	70.905	15.584	1.6012e-05	36.782	0.01741	0.0094696	0.0026702	1097.8	9.2608e-05	0.00010803	1445.6	258.18	8.8734e-05	0.00010688	426.13	128.43	70.242	15.87	9.1995e-05	36.385	34.022	237.756	-68.049	-72.490	258.388	87.750	-71.740	-67.744	-32.529	132.070	-67.443	-62.318	-63.029	-58.601	38.686	-58.094	-8191	255	
1258.400	1	1	0	0	0.33221	0.16316	0.2375	0.23776	0.28978	0.047364	0.25691	0.090404	0.17499	0.15979	0.18987	0.12955	0.074091	0.31529	0.11882	0.33905	-2.925	-3.2167	-3.5312	-3.1937	-3.3708	-3.5125	-3.325	-3.3271	-3.0521	-3.0625	-3.4958	-3.1833	-3.2625	-3.4688	-3.0938	-3.5646	-64.216	102.328	183.019	-47.392	203.410	-59.881	203.466	17.975	128.346	174.960	-9.933	-82.881	103.545	248.663	64.832	220.045	0.0013854	0.0072069	0.00017806	1148.1	8.3607e-06	1.3594e-06	1488.7	269.95	2.5302e-05	4.6891e-06	434.36	121.73	71.886	15.765	9.5717e-06	37.191	0.013432	0.010245	0.0026433	1095.4	9.3154e-05	0.00010637	1456.1	259.52	8.8752e-05	0.00010655	428.72	127.15	70.908	15.969	9.1766e-05	36.793	77.255	199.351	-75.310	-72.037	108.131	-18.307	-71.653	-67.246	119.294	50.296	-67.258	-62.103	-63.114	-58.323	-68.679	-58.083	-8191	255	
1258.498	1	1	0	0	0.13103	0.20531	0.26114	0.11949	0.20908	0.32319	0.20668	0.23083	0.10348	0.057438	0.16122	0.10851	0.30224	0.3301	0.050454	0.10484	-2.9854	-3.2375	-3.3937	-3.3229	-2.9479	-3.35	-3.2125	-3.2812	-3.2938	-3.2729	-3.4208	-3.1583	-3.3583	-3.6083	-3.075	-3.4792	182.591	167.097	92.409	-31.859	106.056	42.269	176.275	184.262	194.186	256.254	81.205	142.993	220.866	179.656	88.838	114.310	0.0017024	0.0078208	9.8214e-05	1168	1.002e-05	1.1092e-05	1504.2	273.5	1.077e-05	5.6281e-06	438.6	123.79	73.413	15.899	1.4381e-05	38.044	0.0074742	0.024461	0.0026325	1109.9	9.1377e-05	0.00010531	1464.5	263.28	8.7071e-05	0.00010423	434.32	130.75	72.075	16.261	9.2365e-05	37.499	95.547	194.184	-59.882	-72.122	156.607	23.780	-71.772	-67.510	239.665	76.676	-67.328	-62.239	-63.456	-58.515	98.411	-57.689	-8191	255	
1258.617	1	1	0	0	0.1851	0.095898	0.13386	0.26667	0.034982	0.19736	0.28758	0.17919	0.0040665	0.10378	0.10152	0.11656	0.31341	0.42404	0.22221	0.03416	-2.7833	-2.9708	-3.3479	-3.3646	-3.1354	-3.3771	-3.5187	-3.4729	-3.4646	-3.1646	-3.5583	-3.3667	-3.2542	-3.5542	-3.0312	-3.3063	122.163	264.766	107.268	210.596	77.460	-57.119	181.506	-42.837	30.578	161.612	230.163	112.085	255.062	263.719	185.809	31.225	0.00019325	0.010289	0.00034403	1177.7	6.6791e-06	4.9392e-06	1519.5	277.35	2.5127e-05	4.1419e-06	449.9	128.08	73.933	16.398	8.9626e-06	38.857	0.0051172	0.028415	0.0026864	1121.4	8.9475e-05	0.00010446	1485	266.71	8.7431e-05	0.00010362	441.44	130	74.129	16.584	9.2905e-05	38.272	48.294	246.698	81.269	-72.246	-25.078	84.380	-71.596	-67.739	26.682	-6.389	-67.414	-62.482	-62.666	-58.147	119.363	-57.891	-8191	255	
1258.689	1	1	0	0	0.1725	0.13463	0.17272	0.11383	0.13288	0.090296	0.1444	0.11534	0.10606	0.014693	0.18959	0.066637	0.11418	0.26601	0.18146	0.22022	-3.1312	-3.1021	-3.5187	-3.5021	-3.125	-3.5208	-3.3521	-3.3604	-3.4375	-3.175	-3.3146	-3.2833	-3.2125	-3.4521	-3.2313	-3.2938	-75.139	173.255	136.968	253.635	-83.785	248.084	249.006	144.048	182.401	-42.395	228.469	261.981	9.119	-12.426	183.321	206.982	0.00049385	0.012297	0.00030386	1181.6	4.4131e-06	5.2884e-06	1513.4	276.97	1.5478e-05	8.6895e-06	445.85	128.55	74.491	16.515	1.0653e-05	38.697	0.0049981	0.03101	0.0026758	1119.8	8.8269e-05	0.0001036	1466	265.82	8.5496e-05	0.0001001	436.52	126.09	79.176	16.644	9.1939e-05	38.211	19.338	252.843	0.141	-72.195	168.323	113.196	-71.810	-67.803	121.977	54.328	-67.375	-62.971	-62.592	-58.274	76.913	-58.498	-8191	255	
1258.785	1	1	0	0	0.13377	0.1746	0.12368	0.20035	0.19584	0.42736	0.375	0.19968	0.081605	0.1269	0.24884	0.043468	0.16781	0.30295	0.16333	0.11801	-2.9375	-3.1	-3.3146	-3.2958	-3.125	-3.3979	-3.2687	-3.2438	-3.4583	-3.2396	-3.3	-3.3583	-3.1229	-3.4021	-3.2375	-3.0333	80.038	269.869	167.271	224.692	267.474	-8.282	221.778	-73.267	-78.547	20.231	-0.381	-68.088	-9.386	-28.009	25.039	0.406	0.00039381	0.0083925	0.0001705	1166.6	1.4307e-05	5.6082e-06	1503.7	276.84	6.7211e-06	9.459e-06	446.31	131.64	75.514	16.681	1.317e-05	39.381	0.0048387	0.027064	0.0026186	1108.3	8.5826e-05	0.00010327	1465.4	264.92	8.3094e-05	0.00010241	438.7	127.25	81.276	16.898	9.0202e-05	38.777	12.250	267.265	-11.791	-72.278	63.223	98.273	-71.746	-67.716	-35.383	37.789	-66.953	-63.034	-63.195	-59.012	65.424	-58.453	-8191	255	
1258.906	1	1	0	0	0.13308	0.13225	0.17764	0.14353	0.11035	0.086184	0.23278	0.07264	0.21128	0.34114	0.16707	0.1298	0.2682	0.16334	0.19528	0.1005	-3.0521	-3.0479	-3.1958	-3.5812	-3.1104	-3.2542	-3.4313	-3.1771	-3.3167	-3.0208	-3.1708	-3.3104	-3.1042	-3.3688	-3.225	-3.0812	75.875	120.171	193.404	259.513	121.637	89.587	171.806	32.685	-49.650	53.120	104.609	256.731	189.821	99.191	118.120	198.520	0.00022952	0.011776	0.00017326	1177	9.0551e-06	4.4016e-06	1515.4	276.47	1.7445e-05	1.3981e-05	452.94	133.89	76.605	16.945	1.3831e-05	40.231	0.0048265	0.030526	0.002579	1118.6	8.5639e-05	0.00010546	1459	269.11	8.2979e-05	0.00010274	442.58	129.44	83.894	17.169	9.1451e-05	39.309	19.718	256.801	39.035	-72.324	125.699	78.318	-71.795	-67.322	76.713	162.064	-67.534	-62.831	-62.887	-58.219	71.965	-58.326	-8191	255	
1259.002	1	1	0	0	0.13408	0.2773	0.26552	0.30597	0.20308	0.14742	0.13409	0.16563	0.19255	0.19487	0.35007	0.42328	0.22581	0.3195	0.11282	0.033198	-3.0646	-3.2583	-3.1479	-3.2583	-2.975	-3.0042	-3.3396	-3.0625	-3.4271	-3.1979	-3.2542	-3.4375	-2.9917	-3.325	-3.275	-3.1292	231.962	159.313	-39.220	221.878	-29.432	-36.083	172.587	204.036	-13.039	18.390	114.796	268.872	241.876	207.632	-50.456	-56.452	0.00058236	0.008881	0.00016662	1183.9	6.2312e-06	2.2934e-06	1538	282.91	1.9504e-05	8.6864e-06	454.98	135.77	77.844	17.26	1.1531e-05	40.155	0.0048791	0.027458	0.0025864	1126.4	8.4997e-05	0.00010561	1447.2	284.63	8.4777e-05	0.00010443	448.11	130.96	83.737	17.383	9.2631e-05	39.738	-40.642	267.244	43.318	-72.144	120.109	122.159	-71.766	-67.200	5.713	7.064	-67.138	-62.892	-63.033	-58.562	3.804	-58.055	-8191	255	
1259.098	1	1	0	0	0.27019	0.17293	0.1153	0.072379	0.16696	0.14982	0.363	0.13434	0.022223	0.22912	0.12433	0.19245	0.16215	0.048704	0.23401	0.19529	-2.9979	-3.1958	-2.9562	-3.5917	-3.0792	-3.3917	-3.5167	-3.1104	-3.4604	-3.2938	-3.3896	-3.7042	-3.3271	-3.5396	-3.6604	-3.1729	47.226	-41.433	6.793	47.516	83.438	67.738	182.285	244.558	-56.144	227.196	246.075	199.081	263.749	40.795	-3.574	208.969	0.00031809	0.010731	0.00030677	1188.1	5.5135e-06	6.1554e-06	1524.8	282.75	2.6663e-06	1.353e-05	453.61	134.59	77.071	17.004	1.7631e-05	40.015	0.0049831	0.031014	0.0025475	1130.8	8.6981e-05	0.00010527	1444.3	285.7	8.5917e-05	0.00010568	445.7	130	84.324	17.243	8.9373e-05	39.188	-21.808	265.672	3.453	-72.256	217.665	58.100	-72.028	-67.036	190.163	81.584	-67.082	-62.733	-62.921	-58.814	5.066	-57.911	-8191	255	
1259.218	1	1	0	0	0.1074	0.094488	0.28989	0.17959	0.1218	0.035481	0.13345	0.20149	0.041893	0.068547	0.20479	0.19505	0.080923	0.15401	0.12905	0.25234	-2.9354	-3.2938	-3.1479	-3.5	-3.3333	-3.2604	-3.5167	-3.1792	-3.4208	-3.3146	-3.1562	-3.5833	-3.3312	-3.4	-3.5875	-3.2771	214.398	84.060	36.088	207.082	50.783	61.570	213.659	224.139	192.759	-42.834	109.156	35.643	251.452	198.533	-20.168	-83.607	0.00020899	0.0083565	0.0011962	1181.8	7.2835e-06	6.2633e-06	1511	279.53	4.5893e-06	1.1464e-05	453.58	132.77	76.502	16.952	8.2257e-06	39.991	0.0049345	0.021715	0.0033686	1118.8	8.6601e-05	0.00010325	1428.3	285.68	8.668e-05	0.00010171	442.83	128.47	82.601	17.11	8.7576e-05	39.198	12.082	-59.454	211.215	-72.185	114.165	174.892	-71.844	-66.814	125.101	66.303	-67.467	-63.009	-62.757	-58.783	-18.785	-58.102	-8191	255	
1259.313	1	1	0	0	0.23445	0.105	0.26379	0.095514	0.13284	0.10496	0.20703	0.2329	0.050037	0.1996	0.11229	0.38775	0.080531	0.057558	0.2743	0.19311	-3.1167	-3.5146	-3.0854	-3.4958	-3.3417	-3.3438	-3.6396	-3.1146	-3.2375	-3.1896	-3.125	-3.4125	-3.3417	-3.1104	-3.5375	-3.2083	20.143	226.725	-53.435	264.484	151.196	-20.364	241.237	149.700	243.695	247.467	-4.880	224.190	205.674	233.720	120.380	242.748	0.00042803	0.011528	0.00077309	1176.8	5.0711e-06	9.8518e-06	1520.8	279.71	4.1385e-06	6.1746e-06	453.78	133.84	76.861	17.081	4.3995e-06	40.236	0.0050073	0.010363	0.0074155	1121.8	8.7371e-05	0.00010396	1436.6	284.37	8.7518e-05	0.00010317	444.78	129.58	84.353	17.159	9.0575e-05	39.385	-50.461	-54.574	207.383	-72.178	111.138	117.469	-71.871	-66.795	23.891	32.662	-67.481	-62.931	-63.311	-58.689	30.736	-57.795	-8191	255	
1259.386	1	1	0	0	0.25536	0.137	0.28002	0.2215	0.30631	0.17589	0.51473	0.13626	0.092585	0.027731	0.1827	0.22267	0.058898	0.15951	0.11414	0.089324	-2.8063	-3.2021	-3.0312	-3.6	-3.2292	-3.3583	-3.6833	-3.2708	-3.0833	-3.2042	-2.925	-3.5583	-3.5104	-3.1813	-3.6312	-3.2792	-81.505	264.877	80.636	-51.295	64.763	67.641	189.406	98.583	102.782	141.328	255.120	-73.623	21.049	261.940	1.976	24.155	0.00044832	0.00040789	0.0027788	1189.4	3.7825e-06	5.7818e-06	1523.8	281.5	1.4679e-05	9.0464e-06	456.46	135.24	78.818	16.732	4.1622e-06	40.435	0.0050797	0.0091252	0.0077872	1129	8.8756e-05	0.0001018	1439.7	289.2	8.814e-05	0.00010233	448.6	130.63	81.232	17.792	9.2714e-05	39.728	6.819	-20.361	-66.906	-72.415	150.454	133.630	-71.958	-66.901	150.874	20.230	-67.066	-63.017	-63.536	-58.603	-36.474	-58.198	-8191	255	
1259.505	1	1	0	0	0.018067	0.091707	0.11884	0.25326	0.047875	0.14065	0.26771	0.094318	0.10849	0.082069	0.15338	0.12161	0.14594	0.14874	0.21326	0.1816	-2.8625	-3.1417	-2.9896	-3.3958	-3.3958	-3.3625	-3.8542	-3.3	-3.2521	-3.4437	-3.1333	-3.1917	-3.2562	-3.0875	-3.4396	-3.2875	101.604	7.880	186.702	205.074	-12.236	85.965	184.402	264.783	-43.855	-43.972	57.021	-79.615	-22.988	221.351	169.873	151.196	0.00029543	0.0011981	0.0033795	1192.8	1.1863e-05	9.926e-06	1527	282.14	1.4337e-05	1.4116e-05	457.43	134.29	78.617	16.672	1.7222e-05	40.092	0.0050546	0.0090869	0.008772	1132.7	8.9775e-05	0.00010271	1444.6	287.5	8.7375e-05	0.00010222	449.17	130.48	76.967	19.685	9.3022e-05	39.528	-35.495	10.386	-63.171	-71.942	128.807	89.995	-71.739	-67.182	231.206	68.175	-67.061	-62.960	-63.558	-58.711	3.156	-57.949	-8191	255	
1259.601	1	1	0	0	0.18819	0.045076	0.12819	0.27319	0.12532	0.16451	0.31942	0.31124	0.26734	0.15792	0.22085	0.013211	0.029516	0.32624	0.32951	0.12422	-2.8146	-3.3167	-3.1688	-3.4562	-3.2083	-2.8917	-3.4375	-3.4	-3.1896	-3.3896	-3.0563	-3.2042	-3.3208	-3.0854	-3.3688	-3.2229	140.973	248.402	73.951	44.952	6.663	198.892	-59.823	261.737	48.461	-11.388	-19.825	120.696	22.410	-38.557	179.284	248.706	0.00034886	0.00060093	0.0029346	1181.9	5.4633e-07	1.8579e-06	1503.1	274.93	7.1672e-06	1.5007e-05	447.59	131.47	76.881	16.266	3.1117e-06	39.182	0.004914	0.0091733	0.0078905	1119.5	8.8376e-05	0.00010218	1423.1	283.92	8.5486e-05	0.00010294	438.96	127.49	75.239	19.209	9.4959e-05	38.653	13.844	161.527	-57.280	-72.155	39.359	60.284	-71.949	-66.766	56.628	159.667	-67.207	-62.962	-63.084	-59.302	74.224	-58.389	-8191	255	
1259.697	1	1	0	0	0.21403	0.20497	0.021906	0.22387	0.05777	0.084652	0.20057	0.089922	0.34404	0.19567	0.30723	0.085284	0.21977	0.12621	0.16628	0.33601	-2.7354	-3.3833	-3.0187	-3.475	-3.4	-3.1667	-3.4292	-3.2292	-3.1104	-3.2875	-3.1521	-3.3667	-3.4542	-2.9958	-3.3187	-3.3563	73.658	143.088	-24.779	238.417	33.587	-3.544	194.905	73.803	171.266	80.885	261.402	-48.852	-81.889	-51.894	207.120	130.256	0.00014894	0.00095845	0.0035881	1166.9	5.6068e-06	3.8028e-06	1492.3	277.98	0.00016014	9.1967e-06	447.41	133.01	77.015	16.191	5.8156e-06	39.162	0.0048695	0.0091813	0.0085891	1108.5	8.5647e-05	0.0001039	1416	274.28	0.000127	0.0001055	440.53	128.24	75.328	19.697	9.3603e-05	38.863	-2.189	79.840	-54.068	-72.252	211.058	207.970	-71.783	-67.048	209.998	50.542	-66.892	-63.042	-63.440	-58.960	261.948	-58.647	-8191	255	
1259.794	1	1	0	0	0.26938	0.15785	0.049559	0.0067104	0.20326	0.25838	0.37764	0.18425	0.10449	0.15891	0.086367	0.11866	0.28556	0.22791	0.080858	0.17228	-2.6479	-3.3708	-3.0583	-3.1604	-2.975	-2.8021	-3.3	-3.3229	-3.1333	-3.4688	-3.3104	-3.3375	-3.5042	-3.1	-3.3625	-3.3125	38.967	144.364	202.262	129.733	131.622	166.878	183.438	176.315	212.931	102.363	173.189	244.154	211.269	199.945	212.030	-65.727	0.00040053	0.00043761	0.0027879	1174.7	6.7042e-06	1.1278e-05	1511	279.44	0.00020962	6.615e-06	453.88	134.23	78.172	16.775	7.6887e-06	39.785	0.0048715	0.0092671	0.0076739	1115	8.7805e-05	0.00010394	1428.7	267.22	0.00025827	0.00010617	445.49	129.28	76.358	19.488	9.2974e-05	39.266	7.305	-62.575	-49.317	-72.323	-61.097	80.976	-71.975	-67.603	214.979	177.872	-67.334	-62.932	-63.318	-58.964	181.543	-58.337	-8191	255	
1259.914	1	1	0	0	0.11031	0.3108	0.17007	0.21568	0.064218	0.13749	0.25826	0.19215	0.17189	0.33175	0.22794	0.11992	0.26164	0.075193	0.13516	0.29485	-2.525	-3.3417	-3.1688	-3.2167	-3.5458	-3.1625	-3.4167	-3.3937	-3.0938	-3.425	-3.2687	-3.3167	-3.5167	-3.1625	-3.2542	-3.3042	197.967	24.572	191.320	-73.773	107.897	-26.343	187.091	176.526	160.803	91.604	197.666	257.544	71.712	-81.391	-12.776	208.905	0.00016661	0.00074054	0.0029909	1180	5.4895e-06	1.0745e-05	1528.1	281.45	0.00020261	7.3482e-06	453.35	135.4	78.997	16.769	1.3697e-05	40.22	0.0049146	0.0094999	0.0085908	1124.6	8.8193e-05	0.0001053	1441.2	270.61	0.00025293	0.00010667	447.02	130.51	77.092	20.115	9.2886e-05	39.569	-82.671	-80.745	-42.508	-72.269	137.618	123.950	-72.032	-67.506	179.198	-24.158	-66.975	-62.980	-63.640	-59.117	69.213	-58.044	-8191	255	
1259.986	1	1	0	0	0.16068	0.13641	0.09885	0.18171	0.25949	0.11483	0.49048	0.18606	0.26423	0.14356	0.081061	0.21333	0.10796	0.19765	0.062642	0.15179	-2.3167	-3.2521	-3.1521	-3.1458	-3.3479	-3.2042	-3.6792	-3.6271	-3.2646	-3.4813	-3.2542	-3.2313	-3.5375	-3.0938	-3.3812	-3.375	144.353	101.097	101.181	158.109	-48.316	163.871	233.245	114.669	71.424	154.625	191.312	260.173	100.051	269.757	-47.808	60.899	0.0003441	0.00079732	0.0029735	1185	1.0647e-05	1.2638e-05	1522.5	279.54	0.00026379	2.4969e-06	450.82	133.46	78.358	16.575	8.6089e-06	39.659	0.0048956	0.0094202	0.0053139	1141.7	8.7895e-05	0.00010505	1435.7	268.45	0.00028326	0.0001061	442.54	129.03	76.363	19.437	8.8833e-05	39.039	-11.942	37.970	-32.161	-72.154	47.912	87.908	-72.003	-67.330	172.080	82.526	-67.293	-63.034	-63.097	-59.719	130.625	-58.783	-8191	255	
1260.082	1	1	0	0	0.095928	0.067197	0.21308	0.070503	0.28979	0.1709	0.18441	0.013933	0.039714	0.083555	0.096435	0.1508	0.084486	0.2792	0.058903	0.040784	-2.6146	-3.1854	-3.0312	-3.2687	-3.3312	-3.2271	-3.2833	-3.5771	-3.0938	-3.2229	-3.4021	-2.9813	-3.2229	-3.0646	-3.0083	-3.2146	220.651	82.722	30.927	-51.933	238.484	21.255	0.388	1.382	151.476	186.892	245.204	-43.906	-51.914	253.370	218.566	173.574	0.00041099	0.00076034	0.00024002	1179	7.0647e-06	6.5494e-06	1513.1	277.86	0.00018494	8.9396e-06	448.72	133.67	78.051	16.523	6.7794e-06	39.941	0.0048606	0.0093782	0.0024965	1170.8	8.9304e-05	0.00010284	1427.5	267.39	0.00025338	0.00010381	441.24	129.26	76.403	19.869	8.8952e-05	39.296	-14.994	35.845	-12.721	-71.979	175.392	125.844	-71.935	-67.511	185.816	106.577	-67.315	-63.302	-63.375	-60.155	131.811	-58.046	-8191	255	
1260.178	1	1	0	0	0.30185	0.046867	0.030294	0.32586	0.068147	0.20091	0.051866	0.10585	0.072379	0.14497	0.060173	0.23123	0.11358	0.14019	0.19254	0.12746	-2.4417	-3.1167	-3.4708	-3.0146	-3.2271	-3.1229	-3.2021	-3.4188	-3.0875	-3.1604	-3.5958	-3.1354	-3.3312	-3.1646	-3.2042	-3.3917	-27.628	-10.590	-10.743	261.652	151.455	29.515	110.409	214.055	171.687	193.200	93.766	245.862	-76.696	257.241	-26.321	132.193	0.00026422	0.00095521	0.00016881	1195.1	1.6467e-05	1.4037e-06	1522.6	280	0.0002541	9.7244e-06	448.54	134.85	78.325	17.159	0.00010837	40.086	0.0049669	0.0091652	0.0024909	1174.3	8.8521e-05	0.0001046	1438.2	268.82	0.00028627	0.00010295	443.77	130.07	76.801	18.386	0.00015277	39.454	-6.023	-74.031	7.883	-72.262	115.342	-22.833	-71.997	-67.704	182.800	99.344	-67.396	-63.102	-62.880	-59.441	249.677	-57.990	-8191	255	
1260.299	1	1	0	0	0.17685	0.060812	0.22421	0.099872	0.15834	0.18177	0.17937	0.09946	0.17822	0.17211	0.26486	0.31492	0.070257	0.23138	0.20942	0.17762	-2.7021	-3.1792	-3.4604	-3.0812	-3.2562	-3.1917	-3.3375	-3.4479	-2.9708	-3.1479	-3.3917	-3.0104	-3.3458	-3.2375	-2.9167	-3.3375	106.921	69.512	38.589	-51.562	-83.710	233.875	223.175	225.801	213.321	-6.175	162.626	257.739	-66.815	231.989	57.808	154.744	0.00026968	0.0011427	0.00031892	1196.7	1.0901e-05	1.6327e-06	1524.9	280.47	0.00020088	1.3928e-05	456.7	135.12	78.939	16.985	0.00011925	40.394	0.0049907	0.0092921	0.0024993	1186.6	8.9907e-05	0.00010439	1441.9	270.34	0.00025372	0.0001031	447.51	130.76	77.155	17.248	0.00029664	39.663	3.104	50.857	-46.725	-72.213	82.424	172.954	-71.580	-67.238	194.469	89.390	-67.019	-62.744	-63.408	-58.159	252.081	-58.050	-8191	255	
1260.393	1	1	0	0	0.18949	0.12381	0.057438	0.31136	0.20014	0.14814	0.32072	0.22356	0.15162	0.33973	0.15907	0.093817	0.22761	0.2543	0.088524	0.053237	-2.7313	-3.1271	-3.2521	-3.2833	-3.2167	-3.4458	-3.2354	-3.3667	-3.1896	-3.1188	-3.3583	-3.1188	-3.2896	-3.3333	-3.0521	-3.5333	59.689	56.313	218.720	-49.206	101.272	164.361	146.508	208.378	215.507	75.856	45.982	-29.150	161.641	231.146	168.554	84.183	0.00029539	0.00090346	0.00012019	1201.7	1.4355e-05	2.8623e-06	1525.4	281.35	0.00020672	1.4182e-05	454.43	133.83	77.402	16.964	0.00011134	39.663	0.0050013	0.0090653	0.0025676	1181.5	8.9582e-05	0.00010152	1442.1	270.31	0.00028075	0.00010033	447.02	129.36	76.197	17.159	0.00026777	39.073	16.199	21.934	83.823	-71.957	-60.317	145.671	-71.966	-67.423	198.281	-25.402	-67.282	-62.939	-63.360	-58.448	-59.998	-58.118	-8191	255	
#DATA ENDS
