BOXY.EXE: ISS Imagent and Oximeter Data Acquisition Program Version 0.80
Ascii Record File

#ACQ INFORMATION
2  Detector Channels 
16  External MUX Channels 
1  Auxiliary Channels 
5000  Waveform (CCF) Frequency (Hz)
1  Waveforms Skipped 
30  Waveforms Averaged 
1  Cycles Averaged 
16  Acquisitions per Waveform 
10.0806  Updata Rate (Hz) 

#FILE INFORMATION
TRUE -- External MUX Channel results are PARSED.
FALSE -- AC DC and Phase are NOT grouped.
TRUE -- Companion Program Settings File CREATED.
FALSE -- AC data not excluded
FALSE -- DC data not excluded
FALSE -- Phase data not excluded
FALSE -- Auxillary Chn. data not excluded
Tab delimiters

#CALIBRATION STATE
TRUE -- Waveform Calibration Values APPLIED.


#AUX CALIBRATION VALUES
Val Type	aux-1	

Term	1.0000e+00	
Factor	0.0000e+00	


#WF CALIBRATION VALUES
A = Detector Channel
Val Type	A-AC1	A-AC2	A-AC3	A-AC4	A-AC5	A-AC6	A-AC7	A-AC8	A-AC9	A-AC10	A-AC11	A-AC12	A-AC13	A-AC14	A-AC15	A-AC16	A-DC1	A-DC2	A-DC3	A-DC4	A-DC5	A-DC6	A-DC7	A-DC8	A-DC9	A-DC10	A-DC11	A-DC12	A-DC13	A-DC14	A-DC15	A-DC16	A-Ph1	A-Ph2	A-Ph3	A-Ph4	A-Ph5	A-Ph6	A-Ph7	A-Ph8	A-Ph9	A-Ph10	A-Ph11	A-Ph12	A-Ph13	A-Ph14	A-Ph15	A-Ph16	

Term	0.00000e+00	0.00000e+00	0.00000e+00	0.00000e+00	0.00000e+00	0.00000e+00	0.00000e+00	0.00000e+00	0.00000e+00	0.00000e+00	0.00000e+00	0.00000e+00	0.00000e+00	0.00000e+00	0.00000e+00	0.00000e+00	0.00000e+00	0.00000e+00	0.00000e+00	0.00000e+00	0.00000e+00	0.00000e+00	0.00000e+00	0.00000e+00	0.00000e+00	0.00000e+00	0.00000e+00	0.00000e+00	0.00000e+00	0.00000e+00	0.00000e+00	0.00000e+00	0.00000e+00	0.00000e+00	0.00000e+00	0.00000e+00	0.00000e+00	0.00000e+00	0.00000e+00	0.00000e+00	0.00000e+00	0.00000e+00	0.00000e+00	0.00000e+00	0.00000e+00	0.00000e+00	0.00000e+00	0.00000e+00	
Factor	1.00000e+00	1.00000e+00	1.00000e+00	1.00000e+00	1.00000e+00	1.00000e+00	1.00000e+00	1.00000e+00	1.00000e+00	1.00000e+00	1.00000e+00	1.00000e+00	1.00000e+00	1.00000e+00	1.00000e+00	1.00000e+00	1.00000e+00	1.00000e+00	1.00000e+00	1.00000e+00	1.00000e+00	1.00000e+00	1.00000e+00	1.00000e+00	1.00000e+00	1.00000e+00	1.00000e+00	1.00000e+00	1.00000e+00	1.00000e+00	1.00000e+00	1.00000e+00	X	X	X	X	X	X	X	X	X	X	X	X	X	X	X	X	

B = Detector Channel
Val Type	B-AC1	B-AC2	B-AC3	B-AC4	B-AC5	B-AC6	B-AC7	B-AC8	B-AC9	B-AC10	B-AC11	B-AC12	B-AC13	B-AC14	B-AC15	B-AC16	B-DC1	B-DC2	B-DC3	B-DC4	B-DC5	B-DC6	B-DC7	B-DC8	B-DC9	B-DC10	B-DC11	B-DC12	B-DC13	B-DC14	B-DC15	B-DC16	B-Ph1	B-Ph2	B-Ph3	B-Ph4	B-Ph5	B-Ph6	B-Ph7	B-Ph8	B-Ph9	B-Ph10	B-Ph11	B-Ph12	B-Ph13	B-Ph14	B-Ph15	B-Ph16	

Term	0.00000e+00	0.00000e+00	0.00000e+00	0.00000e+00	0.00000e+00	0.00000e+00	0.00000e+00	0.00000e+00	0.00000e+00	0.00000e+00	0.00000e+00	0.00000e+00	0.00000e+00	0.00000e+00	0.00000e+00	0.00000e+00	0.00000e+00	0.00000e+00	0.00000e+00	0.00000e+00	0.00000e+00	0.00000e+00	0.00000e+00	0.00000e+00	0.00000e+00	0.00000e+00	0.00000e+00	0.00000e+00	0.00000e+00	0.00000e+00	0.00000e+00	0.00000e+00	4.67397e+01	-1.30593e+02	-1.28560e+02	-1.82133e+02	-7.13561e+01	-6.37854e+01	-1.59775e+02	-1.62015e+02	-3.55692e+01	-6.66304e+01	-1.82301e+02	-1.72751e+02	-1.82364e+02	-1.77708e+02	-6.69385e+01	-1.50988e+02	
Factor	5.16967e-05	2.20746e-04	6.02337e-05	2.02139e-01	3.18311e-06	2.24735e-06	1.81842e-01	6.28231e-02	4.81416e-06	2.76037e-06	1.95858e-01	3.19635e-02	2.65861e-02	9.75009e-03	3.16166e-06	1.39849e-02	1.97713e-05	3.80923e-05	1.06821e-05	9.89599e-02	3.61803e-07	4.32140e-07	8.38008e-02	3.08556e-02	3.53419e-07	4.30013e-07	9.30715e-02	1.52886e-02	1.31760e-02	4.84352e-03	3.78907e-07	6.73875e-03	X	X	X	X	X	X	X	X	X	X	X	X	X	X	X	X	



#DISTANCE SETTINGS
A = Detector Channel
A-1	A-2	A-3	A-4	A-5	A-6	A-7	A-8	A-9	A-10	A-11	A-12	A-13	A-14	A-15	A-16	

2.5000e+00	3.0000e+00	2.5000e+00	3.0000e+00	2.0000e+00	3.0000e+00	1.5000e+00	3.0000e+00	3.0000e+00	3.0000e+00	3.0000e+00	3.0000e+00	3.0000e+00	3.0000e+00	1.5000e+00	3.0000e+00	

B = Detector Channel
B-1	B-2	B-3	B-4	B-5	B-6	B-7	B-8	B-9	B-10	B-11	B-12	B-13	B-14	B-15	B-16	

1.0000e+01	1.0000e+01	1.0000e+01	1.4400e+00	1.0000e+01	1.0000e+01	1.5100e+00	1.9400e+00	1.0000e+01	1.0000e+01	1.9900e+00	2.4900e+00	2.4100e+00	2.9000e+00	1.0000e+01	2.9800e+00	




#DATA BEGINS
time	group	step	mark	flag	A-AC1	A-AC2	A-AC3	A-AC4	A-AC5	A-AC6	A-AC7	A-AC8	A-AC9	A-AC10	A-AC11	A-AC12	A-AC13	A-AC14	A-AC15	A-AC16	A-DC1	A-DC2	A-DC3	A-DC4	A-DC5	A-DC6	A-DC7	A-DC8	A-DC9	A-DC10	A-DC11	A-DC12	A-DC13	A-DC14	A-DC15	A-DC16	A-Ph1	A-Ph2	A-Ph3	A-Ph4	A-Ph5	A-Ph6	A-Ph7	A-Ph8	A-Ph9	A-Ph10	A-Ph11	A-Ph12	A-Ph13	A-Ph14	A-Ph15	A-Ph16	B-AC1	B-AC2	B-AC3	B-AC4	B-AC5	B-AC6	B-AC7	B-AC8	B-AC9	B-AC10	B-AC11	B-AC12	B-AC13	B-AC14	B-AC15	B-AC16	B-DC1	B-DC2	B-DC3	B-DC4	B-DC5	B-DC6	B-DC7	B-DC8	B-DC9	B-DC10	B-DC11	B-DC12	B-DC13	B-DC14	B-DC15	B-DC16	B-Ph1	B-Ph2	B-Ph3	B-Ph4	B-Ph5	B-Ph6	B-Ph7	B-Ph8	B-Ph9	B-Ph10	B-Ph11	B-Ph12	B-Ph13	B-Ph14	B-Ph15	B-Ph16	aux-1	digaux	

347.265	1	1	0	256	0.13708	0.28646	0.1372	0.21805	0.39045	0.12303	0.11697	0.065021	0.16682	0.24574	0.1934	0.12645	0.047726	0.18855	0.2704	0.16173	-3.1417	-3.7708	-3.5	-3.9333	-3.7188	-3.6292	-3.8875	-3.7708	-3.5083	-3.7562	-3.5333	-3.7292	-3.6833	-3.5229	-3.5146	-3.5896	425.719	218.095	179.992	391.529	411.514	310.603	374.477	236.977	406.399	235.786	207.003	443.951	177.137	97.815	313.515	399.634	0.00078919	0.0002526	5.7839e-05	1213	6.1232e-06	2.4543e-06	1280.3	247.67	1.1014e-05	4.5106e-06	309.85	86.774	68.572	19.338	5.1643e-06	27.505	0.00044564	0.00038735	0.0001149	1220.1	4.3854e-06	4.2503e-06	1282	249.33	4.6099e-06	4.602e-06	313.76	87.88	69.062	19.931	4.3535e-06	28.221	349.367	194.738	177.377	97.633	238.086	236.777	97.733	104.833	260.168	244.349	104.114	111.241	111.531	118.514	237.853	117.637	-8191	255	
347.361	1	1	0	0	0.44494	0.11132	0.20041	0.046393	0.15726	0.20709	0.16231	0.10961	0.16422	0.057179	0.10328	0.13661	0.070128	0.24207	0.082953	0.16971	-3.1583	-3.7125	-3.4688	-3.7583	-3.7583	-3.5187	-3.8	-3.7313	-3.5042	-3.8688	-3.6042	-3.725	-3.6917	-3.5917	-3.7313	-3.7271	138.893	260.457	116.060	432.200	93.944	362.078	365.863	242.109	407.431	241.002	183.170	399.198	158.671	211.648	157.042	185.113	0.00073752	0.00018765	9.9619e-05	1214.4	6.291e-06	3.7864e-06	1280.4	246.86	1.0686e-05	4.5398e-06	308.03	86.727	68.262	19.336	4.4101e-06	27.188	0.00044172	0.0004283	0.00012033	1219.1	4.5949e-06	4.5744e-06	1281.8	249.21	4.5643e-06	4.3843e-06	312.56	87.824	69.006	19.971	4.2667e-06	28.137	347.982	157.801	170.821	97.941	252.057	224.983	97.464	104.781	289.822	247.653	104.654	111.181	111.656	118.924	230.042	117.680	-8191	255	
347.433	1	1	0	0	0.20139	0.17855	0.17576	0.13055	0.12573	0.064506	0.42725	0.24295	0.19216	0.30311	0.067558	0.12646	0.028065	0.16832	0.10549	0.13832	-3.1146	-3.6854	-3.5479	-3.6937	-3.8125	-3.4813	-3.8021	-3.7313	-3.5729	-3.9396	-3.6146	-3.5312	-3.8729	-3.5208	-3.65	-3.8229	280.012	330.452	91.080	235.880	328.589	400.338	370.643	364.401	255.396	370.183	404.582	130.805	368.970	149.191	206.367	390.797	0.00075897	0.00025064	8.3455e-05	1212.6	5.2152e-06	3.3379e-06	1272.5	247.35	8.3666e-06	5.1739e-06	313.06	86.695	68.364	19.346	5.2098e-06	27.39	0.00043287	0.00039195	0.00010902	1217	4.5482e-06	4.3448e-06	1279.1	248.95	4.3066e-06	4.3171e-06	314.06	87.918	69.065	19.923	4.2122e-06	28.17	349.747	160.519	190.122	97.438	220.464	236.289	97.410	105.077	288.228	229.628	104.677	111.106	111.310	118.735	247.891	117.815	-8191	255	
347.553	1	1	0	0	0.35022	0.21389	0.14512	0.19866	0.088984	0.089683	0.17303	0.11838	0.15678	0.26096	0.3069	0.16785	0.24305	0.1276	0.1609	0.20456	-3.025	-3.7646	-3.6125	-3.6063	-3.8917	-3.5271	-3.8771	-3.9042	-3.4396	-3.8167	-3.7854	-3.5146	-3.8729	-3.5854	-3.6958	-3.8604	216.065	241.110	238.338	99.254	408.732	426.673	383.896	408.381	174.568	424.370	92.931	111.021	352.322	106.520	410.429	375.867	0.00076891	0.00023178	5.2246e-05	1210.8	6.0439e-06	1.5166e-06	1273.9	246.11	8.305e-06	4.1965e-06	312.56	86.845	68.081	19.366	6.0273e-06	26.979	0.0004269	0.00041036	0.00010738	1216.3	4.2896e-06	4.2782e-06	1278.2	248.31	4.1858e-06	4.6916e-06	313.5	87.819	68.812	19.909	4.2082e-06	27.996	348.986	166.245	184.885	97.604	246.432	254.026	97.631	104.630	279.498	249.146	104.260	111.254	111.872	118.677	254.595	117.516	-8191	255	
347.650	1	1	0	0	0.1256	0.028045	0.30555	0.23336	0.056933	0.12833	0.29699	0.052984	0.084456	0.1809	0.082737	0.045137	0.074659	0.15961	0.20735	0.18663	-3.1146	-3.8125	-3.7396	-3.7229	-3.8667	-3.5479	-3.6542	-3.9604	-3.3333	-3.8375	-3.6271	-3.5542	-3.9042	-3.6188	-3.5479	-3.9646	182.584	437.802	203.540	412.751	218.929	406.644	142.324	333.173	164.031	138.130	384.395	323.263	357.958	308.220	188.326	194.002	0.00080069	0.00053492	0.00013362	1203	9.2962e-06	4.9182e-06	1270.4	245.46	1.1558e-05	1.4134e-06	306.37	86.245	68.37	19.305	3.6685e-06	27.054	0.00042809	0.00038402	0.0001094	1212.3	4.3793e-06	4.1909e-06	1273.4	248.06	4.0179e-06	4.0573e-06	311.55	87.485	68.923	19.856	3.9683e-06	27.971	347.786	176.041	168.655	97.576	226.322	232.381	97.397	104.811	286.168	233.226	104.474	111.134	111.673	118.381	233.207	117.576	-8191	255	
347.746	1	1	0	0	0.22494	0.45986	0.2349	0.20206	0.22346	0.050739	0.32294	0.16619	0.05778	0.14984	0.2724	0.10798	0.12355	0.016497	0.1864	0.18032	-3.1562	-3.7771	-3.4958	-3.5938	-3.8708	-3.625	-3.55	-3.9854	-3.6437	-3.6875	-3.7146	-3.4729	-3.8063	-3.7062	-3.6833	-3.9667	269.456	397.480	252.831	429.818	218.909	287.955	389.124	343.663	328.105	414.272	371.974	197.562	396.408	425.022	285.833	350.853	0.00078587	0.00032906	8.7337e-05	1205.2	7.8026e-06	3.6853e-06	1268.7	245.49	1.1297e-05	4.7622e-06	307.14	85.98	67.799	19.221	3.9209e-06	27.064	0.00041252	0.00038854	0.00010112	1211.3	4.5044e-06	4.2611e-06	1273.1	247.77	3.9819e-06	4.0179e-06	310.78	87.413	68.632	19.809	4.1143e-06	27.948	349.814	183.592	186.432	97.863	227.886	274.252	97.623	105.051	283.992	248.504	105.173	111.132	111.683	118.555	238.747	117.600	-8191	255	
347.866	1	1	0	0	0.16262	0.116	0.078631	0.25559	0.0096218	0.10964	0.15094	0.13762	0.08419	0.15724	0.24584	0.18825	0.087107	0.20387	0.13759	0.12563	-3.0563	-3.6271	-3.8729	-3.5458	-3.8479	-3.7146	-3.6583	-3.85	-3.5	-3.7438	-3.8083	-3.5625	-3.7	-3.8208	-3.5625	-3.7687	415.414	198.770	446.722	382.786	231.224	260.833	383.052	138.453	296.894	373.233	200.363	122.433	247.593	99.443	152.036	182.626	0.00082293	0.00027228	9.9877e-05	1200.3	7.1163e-06	1.9787e-06	1262.3	245.63	1.3957e-05	4.986e-06	309.66	85.586	67.562	19.095	4.3891e-06	27.015	0.00042348	0.00037576	0.00010598	1205.9	4.3273e-06	3.8658e-06	1268	247.43	4.0415e-06	4.3288e-06	311.17	87.037	68.475	19.758	4.0164e-06	27.873	349.125	162.193	206.496	97.613	244.712	231.840	97.681	104.846	273.126	226.376	104.274	110.726	111.781	118.357	235.809	117.615	-8191	255	
347.961	1	1	0	0	0.088203	0.23868	0.087534	0.20072	0.075089	0.17446	0.15966	0.09411	0.13187	0.24337	0.052615	0.11498	0.37211	0.12573	0.014652	0.083708	-3.1958	-3.3479	-3.7875	-3.6813	-3.7562	-3.8667	-3.7958	-4.0625	-3.6104	-3.7396	-3.8833	-3.5687	-3.9437	-3.7938	-3.45	-3.75	293.804	120.214	356.331	335.873	414.259	442.255	314.005	324.153	319.004	161.302	240.950	415.516	404.608	333.656	148.163	87.059	0.00078437	0.00027731	9.8013e-05	1203.9	6.8407e-06	4.5806e-06	1269.5	246.03	9.4363e-06	4.295e-06	311.35	86.182	68.189	19.35	4.1525e-06	27.333	0.00041165	0.0003737	0.00010546	1205.1	4.3529e-06	4.153e-06	1267.2	246.86	4.0437e-06	3.9785e-06	310.7	87.234	68.604	19.816	3.8341e-06	27.955	349.164	151.690	178.361	97.896	251.882	241.644	97.601	104.981	277.248	247.270	104.391	111.769	111.995	118.682	248.883	118.291	-8191	255	
348.034	1	1	0	0	0.16344	0.094585	0.20653	0.29442	0.12502	0.24275	0.15048	0.14488	0.10212	0.18591	0.10185	0.14595	0.17292	0.14884	0.14351	0.093089	-3.3	-3.5958	-3.9167	-3.6667	-3.6333	-3.8229	-3.6167	-3.9146	-3.5917	-3.5896	-3.8979	-3.7792	-3.7646	-3.7146	-3.4542	-3.7521	146.271	111.587	343.203	322.183	399.705	253.699	392.586	135.799	103.115	438.356	126.642	302.440	340.304	112.209	151.246	110.843	0.0007391	0.00032813	8.9234e-05	1208.3	7.4976e-06	3.1716e-06	1273.8	247.21	9.0471e-06	2.6993e-06	309.28	86.388	68.451	19.326	5.0187e-06	27.331	0.00041825	0.00039902	9.9767e-05	1202.7	4.417e-06	4.1071e-06	1267.6	247.25	3.9612e-06	4.4677e-06	310.88	87.347	68.594	19.764	4.2761e-06	27.909	347.691	169.173	197.887	97.819	225.827	261.884	97.918	104.960	272.455	256.307	104.487	111.377	111.799	118.807	221.753	117.480	-8191	255	
348.130	1	1	0	0	0.013751	0.17067	0.25383	0.1208	0.036611	0.10532	0.16688	0.12469	0.11022	0.28095	0.026226	0.20947	0.17939	0.17023	0.20261	0.10329	-3.4354	-3.6229	-3.8771	-3.5438	-3.7958	-3.7792	-3.5771	-3.9062	-3.7104	-3.4958	-3.8583	-3.4979	-3.5792	-3.8042	-3.3854	-3.8688	434.280	206.273	241.465	297.654	185.668	426.276	433.635	326.263	264.632	302.146	342.658	293.604	409.220	429.546	308.647	426.624	0.00077052	0.00043308	0.00011454	1210.1	9.88e-06	2.0168e-06	1274	247.33	1.3234e-05	3.7221e-06	310.07	86.723	67.994	19.288	5.9805e-06	27.134	0.00042867	0.00038259	0.00010302	1204.4	4.4509e-06	4.3655e-06	1266.3	246.9	4.0901e-06	4.1568e-06	311.02	87.188	68.326	19.742	4.1672e-06	27.889	347.284	186.591	168.817	97.789	228.038	272.761	98.047	105.259	263.717	237.470	104.665	111.602	111.802	118.855	241.077	117.734	-8191	255	
348.249	1	1	0	0	0.13238	0.14521	0.17029	0.32763	0.093559	0.054743	0.20594	0.17813	0.037457	0.18975	0.15116	0.19005	0.18446	0.2133	0.2024	0.13368	-3.3604	-3.4708	-3.6917	-3.7229	-3.6917	-3.9771	-3.6625	-3.8646	-3.8	-3.6396	-3.7687	-3.6583	-3.5646	-3.8875	-3.5438	-3.7188	423.468	422.078	402.000	87.252	311.197	146.061	375.952	187.256	257.224	116.002	103.882	338.923	413.987	257.362	269.456	316.669	0.00077081	0.00024767	0.00012165	1207.6	5.2127e-06	3.9952e-06	1273.7	246.97	8.6067e-06	5.175e-06	308.08	85.904	68.227	19.257	7.3462e-06	27.184	0.00042582	0.00038592	0.00010838	1202.7	4.1864e-06	4.027e-06	1262.8	246.53	4.1519e-06	4.4703e-06	310.26	87.018	68.282	19.685	3.9975e-06	27.821	352.760	180.943	183.250	98.129	239.262	256.338	97.768	105.093	272.227	238.577	105.029	111.155	111.882	118.951	244.832	117.703	-8191	255	
348.345	1	1	0	0	0.15125	0.048975	0.20258	0.21293	0.15589	0.24397	0.15656	0.17884	0.1452	0.13508	0.18996	0.1325	0.092919	0.2978	0.01958	0.19169	-3.3458	-3.4333	-3.7625	-3.7708	-3.7708	-3.9	-3.775	-3.7375	-3.9292	-3.5583	-3.8063	-3.7083	-3.5312	-3.8187	-3.5687	-3.6229	350.674	268.317	403.683	362.769	289.189	441.484	423.386	392.314	257.604	98.402	320.177	403.346	298.397	317.536	159.784	414.991	0.00081376	0.00029249	0.00011538	1201.1	9.1814e-06	7.7558e-07	1268.5	246.14	1.155e-05	3.4078e-06	307.39	86.228	67.647	19.281	4.6196e-06	27.091	0.00042694	0.00038378	0.00010867	1196	4.4434e-06	4.0585e-06	1260.3	245.91	4.1571e-06	4.0547e-06	308.94	86.586	68.044	19.685	3.902e-06	27.809	349.983	171.901	168.409	97.788	234.205	176.329	97.832	105.082	276.478	224.780	104.804	111.768	111.902	118.533	231.406	117.897	-8191	255	
348.441	1	1	0	0	0.037979	0.20437	0.21866	0.054837	0.19706	0.16348	0.12121	0.21675	0.13435	0.10462	0.18574	0.1171	0.19176	0.18887	0.16143	0.17895	-3.4417	-3.4542	-3.7792	-3.8	-3.4708	-3.8521	-3.7875	-3.5792	-3.9125	-3.5667	-3.7271	-3.8417	-3.5583	-3.8896	-3.6937	-3.6063	407.798	194.397	264.749	418.169	442.722	325.850	318.103	349.020	292.507	216.209	140.751	436.467	368.987	119.523	331.933	447.171	0.00079525	0.00027609	5.5686e-05	1196.6	8.8832e-06	3.3455e-06	1261.4	244.33	1.3119e-05	3.1141e-06	306.67	85.705	67.432	19.213	4.1851e-06	27.04	0.00041656	0.0003618	9.9856e-05	1194	4.224e-06	4.2611e-06	1254.5	245.19	4.0606e-06	4.1183e-06	308.23	86.557	67.929	19.64	3.8585e-06	27.736	349.764	184.269	216.927	97.853	227.237	267.533	97.889	105.160	266.189	235.921	104.778	111.427	112.043	118.909	243.112	117.960	-8191	255	
348.538	1	1	0	0	0.20486	0.024655	0.24485	0.22358	0.13323	0.10965	0.26577	0.17681	0.15287	0.21504	0.0189	0.071871	0.14811	0.051224	0.15452	0.10781	-3.5229	-3.4854	-3.7854	-3.8521	-3.2667	-3.7917	-3.7042	-3.5729	-3.7875	-3.4917	-3.6042	-3.7812	-3.5792	-3.9167	-3.65	-3.5583	371.756	247.021	311.303	422.501	271.610	416.086	103.325	174.236	329.079	416.477	410.470	265.149	404.930	215.252	360.666	93.532	0.0007862	0.00031327	0.00011369	1190.4	5.8504e-06	2.7019e-06	1258.6	243.84	1.1703e-05	4.2859e-06	307.51	85.374	67.881	19.217	6.9233e-06	27.163	0.00041816	0.00038592	0.00010571	1191.5	4.3831e-06	4.0288e-06	1252.4	244.86	4.0938e-06	4.1487e-06	308	86.374	67.915	19.638	4.0819e-06	27.749	349.663	158.347	158.221	97.832	232.635	221.175	97.756	105.355	292.705	227.933	104.618	111.523	111.564	118.892	252.523	117.568	-8191	255	
348.658	1	1	0	0	0.091908	0.092668	0.16758	0.25885	0.068965	0.21951	0.10136	0.1046	0.19909	0.13218	0.25176	0.2433	0.090152	0.18934	0.28406	0.16735	-3.375	-3.5229	-3.5792	-3.9104	-3.4854	-3.8	-3.7687	-3.5854	-3.9625	-3.5479	-3.5563	-3.8667	-3.4562	-3.7	-3.7812	-3.6979	134.887	317.225	318.030	432.810	160.950	428.432	392.806	382.955	143.443	324.339	358.185	284.575	322.632	186.295	375.502	381.994	0.00078822	0.0002663	4.3217e-05	1189.7	6.1827e-06	2.7601e-06	1265.8	245.15	8.6105e-06	3.4446e-06	305.55	85.882	67.727	19.18	5.402e-06	27.083	0.00043493	0.00038751	0.00010722	1190	4.5768e-06	4.1179e-06	1254.1	244.76	3.9598e-06	3.9722e-06	308.07	86.533	67.871	19.616	3.8609e-06	27.736	348.365	189.294	216.157	97.826	237.214	237.475	97.908	105.234	270.616	228.378	105.216	111.416	111.978	118.417	225.783	117.891	-8191	255	
348.730	1	1	0	0	0.18865	0.15275	0.11813	0.20849	0.15268	0.097669	0.26433	0.12705	0.083837	0.066952	0.2158	0.28155	0.19308	0.042887	0.17578	0.17368	-3.625	-3.6521	-3.4667	-3.8854	-3.4729	-3.6917	-3.9333	-3.4875	-3.9229	-3.6063	-3.5375	-3.8583	-3.4833	-3.6396	-3.6917	-3.4333	410.837	226.701	437.010	421.670	437.161	371.471	380.295	316.273	408.265	397.273	342.006	242.373	132.580	406.494	89.771	245.163	0.00077743	0.00026689	0.00012435	1199.6	5.0848e-06	1.8705e-06	1260.1	244.47	1.2858e-05	2.205e-06	303.86	86.195	67.583	19.114	3.96e-06	27.029	0.00042974	0.00039576	0.00010638	1193.2	4.3831e-06	4.2827e-06	1253.1	244.34	4.107e-06	4.2706e-06	307.75	86.557	67.753	19.606	4.0054e-06	27.75	346.050	178.873	155.836	97.895	224.932	226.074	97.783	105.233	267.204	245.766	104.582	111.501	111.541	118.695	227.796	117.767	-8191	255	
348.826	1	1	0	0	0.029812	0.14104	0.041194	0.34573	0.24622	0.16371	0.30041	0.014644	0.048297	0.12634	0.072273	0.18671	0.10058	0.17145	0.072867	0.13805	-3.4562	-3.6375	-3.4354	-3.7521	-3.5417	-3.7354	-4.0604	-3.5146	-3.7292	-3.5333	-3.5021	-3.9417	-3.6167	-3.6417	-3.7104	-3.3583	410.566	147.015	388.906	394.046	349.023	228.467	370.104	128.273	138.963	402.874	115.292	204.816	158.021	118.532	289.184	233.866	0.00078768	0.00049217	7.7604e-05	1195.4	6.3154e-06	3.0645e-06	1259.5	244.24	1.2282e-05	4.5368e-06	306.06	85.732	67.751	19.188	4.8648e-06	27.057	0.00042216	0.00039552	0.00010415	1191.8	4.3062e-06	4.1728e-06	1253.3	244.65	4.174e-06	4.2777e-06	307.96	86.316	67.845	19.628	3.8941e-06	27.686	345.732	148.631	192.226	98.048	220.830	244.389	97.785	105.367	287.951	259.936	104.975	111.736	111.916	118.935	256.962	117.795	-8191	255	
348.947	1	1	0	0	0.33212	0.078096	0.22166	0.14364	0.15481	0.082593	0.29698	0.17193	0.098302	0.19661	0.094439	0.013569	0.16014	0.24955	0.10629	0.095863	-3.2708	-3.6146	-3.4771	-3.9313	-3.6458	-3.5854	-4.0042	-3.575	-3.7646	-3.8625	-3.525	-3.8229	-3.575	-3.3396	-3.7146	-3.4542	219.721	314.478	251.275	161.853	181.257	358.166	356.490	401.195	189.375	401.836	119.541	242.214	128.859	353.290	381.849	203.912	0.00075235	0.00035708	6.5689e-05	1193.4	6.1631e-06	9.5057e-07	1263.5	245.32	8.2507e-06	3.3115e-06	305.49	85.756	67.226	19.146	3.5573e-06	27.18	0.00040984	0.00038822	0.00010738	1189.9	4.4147e-06	4.2458e-06	1252.6	244.87	3.9951e-06	4.0573e-06	307.85	86.511	67.685	19.6	4.0527e-06	27.761	348.162	159.665	214.519	97.946	235.222	225.164	98.016	105.233	279.534	257.343	104.970	111.409	111.861	118.737	246.250	117.879	-8191	255	
349.041	1	1	0	0	0.01023	0.18567	0.052243	0.18636	0.055401	0.015726	0.15734	0.11072	0.11778	0.15076	0.10039	0.072648	0.20821	0.069548	0.1045	0.023545	-3.2729	-3.6083	-3.3812	-3.8917	-3.5563	-3.4417	-4.0292	-3.5792	-3.7625	-3.6958	-3.5458	-3.8771	-3.5854	-3.4833	-3.7396	-3.6417	189.477	416.954	165.446	402.452	334.805	99.640	383.776	375.187	181.207	191.779	322.933	233.527	362.586	143.555	146.024	319.680	0.00080098	0.00046116	0.00011383	1195.4	8.4254e-06	2.5087e-06	1255.8	243.96	1.06e-05	2.9567e-06	305.74	85.456	67.259	19.045	5.5533e-06	26.77	0.00042978	0.00038219	0.00010882	1191.7	4.4012e-06	4.4096e-06	1251.9	244.33	4.4244e-06	4.3037e-06	307.54	86.432	67.699	19.572	4.2343e-06	27.657	348.843	188.276	195.423	97.925	231.802	251.687	97.606	105.091	254.374	239.945	104.735	111.129	111.925	118.674	239.074	118.015	-8191	255	
349.137	1	1	0	0	0.11681	0.43173	0.049509	0.36096	0.16596	0.17179	0.22308	0.11557	0.12029	0.16518	0.10654	0.084655	0.24014	0.26696	0.19036	0.19532	-3.2479	-3.7188	-3.2938	-3.8458	-3.5	-3.4688	-3.8604	-3.6063	-3.3937	-3.9354	-3.625	-3.7042	-3.6188	-3.3854	-3.7979	-3.5333	397.851	341.488	265.857	407.091	116.219	158.629	390.542	332.080	187.681	396.551	410.851	423.361	169.827	414.902	435.626	369.550	0.00077337	0.00030595	8.7514e-05	1194.3	6.3624e-06	3.5131e-06	1257	243.09	1.1843e-05	3.7144e-06	306.02	85.263	67.433	19.065	5.9621e-06	26.544	0.00044959	0.00041782	0.00011508	1192.2	4.8602e-06	4.9714e-06	1254.1	244.47	4.6202e-06	4.7024e-06	308.24	86.427	67.918	19.589	4.58e-06	27.561	346.071	166.146	165.383	97.556	256.573	231.666	97.693	104.977	275.351	240.193	104.947	111.463	111.759	118.386	250.150	117.491	-8191	255	
349.233	1	1	0	0	0.023701	0.051777	0.27303	0.15725	0.15246	0.22008	0.10892	0.08014	0.16471	0.23	0.21541	0.12388	0.18255	0.1432	0.2556	0.26999	-3.1562	-3.8771	-3.3771	-3.8333	-3.6729	-3.4958	-3.9375	-3.4708	-3.5	-3.6979	-3.425	-3.6292	-3.7333	-3.3958	-3.7104	-3.5542	104.906	437.200	135.816	409.439	302.372	409.792	368.765	95.312	94.461	243.200	313.555	289.698	439.811	336.870	324.950	294.486	0.00073733	0.00025627	0.00011088	1185.9	5.321e-06	3.2198e-06	1250.8	242.73	1.2198e-05	3.9203e-06	302.33	85.741	67.126	19.118	4.3331e-06	26.862	0.00043958	0.00041211	0.00011543	1191.7	4.8934e-06	4.7832e-06	1253.5	244.45	4.6195e-06	4.6782e-06	307.44	86.481	67.763	19.57	4.344e-06	27.644	349.159	204.581	192.001	97.722	237.012	231.053	97.363	104.995	290.198	261.787	104.932	111.287	111.495	118.489	261.210	118.074	-8191	255	
349.330	1	1	0	0	0.34027	0.12769	0.089137	0.3121	0.21065	0.10165	0.12061	0.1316	0.22426	0.22362	0.22881	0.40025	0.21356	0.27246	0.051769	0.10381	-3.0896	-3.6813	-3.625	-3.7896	-3.6937	-3.4813	-3.9125	-3.7208	-3.4771	-3.8333	-3.5583	-3.5354	-3.7479	-3.3875	-3.6646	-3.7833	161.787	211.698	353.944	409.249	182.374	238.062	119.762	416.150	358.508	126.622	405.619	444.185	409.985	441.403	248.692	138.109	0.00077787	0.00027351	0.00010847	1195.6	4.5255e-06	2.9194e-06	1256.8	244.41	1.0796e-05	1.2731e-06	304.19	85.046	66.94	18.972	3.923e-06	26.843	0.00043011	0.00039925	0.00011697	1192.4	4.5173e-06	4.2062e-06	1254.8	244.69	4.5039e-06	4.3037e-06	307.24	86.221	67.714	19.514	4.4056e-06	27.685	349.163	173.691	180.411	97.796	239.605	253.643	97.729	104.917	274.984	201.768	104.509	111.367	111.596	118.842	216.237	117.645	-8191	255	
349.426	1	1	0	0	0.16232	0.27785	0.16564	0.19486	0.18469	0.056994	0.17239	0.24776	0.16026	0.1616	0.086402	0.26258	0.22063	0.10031	0.11257	0.34121	-3.0354	-3.8063	-3.5146	-3.7625	-3.8646	-3.525	-3.9146	-3.6458	-3.3979	-3.7917	-3.5292	-3.7521	-3.9354	-3.2687	-3.5875	-3.8563	116.529	417.552	322.794	371.020	373.028	291.854	273.511	351.562	375.580	313.601	441.459	293.617	395.285	110.620	393.650	341.641	0.00074852	0.00031428	6.7439e-05	1180	8.1486e-06	2.9313e-06	1251.5	242.98	1.4278e-05	3.4815e-06	303.19	85.001	66.775	19.053	4.1557e-06	26.788	0.00043138	0.00040513	0.00011494	1188.7	4.6401e-06	4.6446e-06	1252.3	244.51	4.4855e-06	4.6065e-06	307.17	86.093	67.485	19.573	4.6053e-06	27.602	348.641	165.710	179.893	97.376	250.369	224.203	97.680	104.929	282.664	246.623	104.794	111.268	111.550	118.346	239.657	117.201	-8191	255	
349.546	1	1	0	0	0.19806	0.028067	0.22054	0.16168	0.11401	0.28127	0.24973	0.2331	0.16908	0.013708	0.056402	0.16405	0.17268	0.33828	0.040221	0.069797	-3.1063	-3.8229	-3.5417	-3.6063	-3.8042	-3.4354	-3.9688	-3.7542	-3.4729	-3.7625	-3.7188	-3.5125	-3.9	-3.6146	-3.6104	-3.6875	204.658	150.242	367.010	417.777	256.706	176.638	387.515	374.234	170.159	442.821	326.820	105.479	358.959	298.027	222.734	265.212	0.00076299	0.00029152	9.4518e-05	1189.5	7.0164e-06	3.1532e-06	1256	243.07	7.3043e-06	4.7218e-06	303.98	85.002	67.361	18.967	6.4856e-06	26.522	0.00043983	0.00041679	0.00011517	1190.8	4.5632e-06	4.5474e-06	1250.8	244.31	4.6725e-06	4.3055e-06	307.06	86.292	67.653	19.545	4.5279e-06	27.498	347.057	160.427	168.504	97.701	237.301	253.645	97.949	105.123	263.461	239.378	104.783	111.194	111.677	118.586	251.416	117.786	-8191	255	
349.642	1	1	0	0	0.05566	0.15314	0.052171	0.32429	0.19636	0.085215	0.21187	0.21225	0.16952	0.23387	0.081652	0.14887	0.12639	0.11924	0.14591	0.18275	-3.0521	-3.7229	-3.5333	-3.6937	-3.7667	-3.5396	-3.7521	-3.8271	-3.3354	-3.7729	-3.7188	-3.5438	-3.7792	-3.5479	-3.5563	-3.9458	426.615	191.147	408.065	335.195	421.281	431.802	339.879	438.038	127.695	436.213	407.189	92.428	264.863	127.001	155.637	436.254	0.00074418	0.00038317	8.6046e-05	1190.5	5.3738e-06	2.7567e-06	1259.9	244.27	8.1641e-06	4.2035e-06	305.5	85.605	66.791	19.002	4.6717e-06	26.787	0.00043361	0.00040584	0.00010949	1189.8	4.7238e-06	4.4807e-06	1252	244.82	4.4207e-06	4.5008e-06	307.98	86.413	67.548	19.507	4.419e-06	27.587	346.520	171.839	191.481	97.854	255.026	250.799	97.823	105.115	268.314	242.040	105.084	111.345	112.068	119.057	216.264	118.085	-8191	255	
349.739	1	1	0	0	0.31366	0.019393	0.059101	0.21594	0.12294	0.17513	0.026378	0.16183	0.19938	0.084809	0.21344	0.13345	0.24348	0.17593	0.15801	0.077899	-3.075	-3.9188	-3.6146	-3.5938	-3.6458	-3.6396	-3.6188	-3.9271	-3.5458	-3.5792	-3.7542	-3.4562	-3.8958	-3.6354	-3.6083	-3.9125	384.051	200.864	196.685	142.500	405.319	288.206	99.460	336.921	353.619	191.026	350.660	439.675	360.555	145.387	247.366	349.088	0.00074953	0.00027571	0.00012231	1184	6.4026e-06	4.2003e-06	1244	242.5	1.1043e-05	4.3325e-06	305.34	85.146	67.79	19.042	6.1215e-06	26.803	0.00043678	0.00043885	0.0001078	1187.6	4.5014e-06	4.4231e-06	1248.7	244.3	4.1453e-06	4.2688e-06	307.17	86.142	67.653	19.55	4.1593e-06	27.573	348.524	203.968	198.300	97.813	235.150	222.543	97.831	105.030	258.496	250.507	104.734	111.491	111.956	118.653	234.802	117.996	-8191	255	
349.835	1	1	0	0	0.2454	0.21572	0.26839	0.08034	0.22765	0.070326	0.30932	0.053782	0.1509	0.062731	0.12828	0.31457	0.08501	0.22353	0.10782	0.10411	-3.2	-3.5896	-3.7417	-3.6667	-3.7833	-3.7938	-3.6417	-3.8917	-3.6125	-3.8417	-3.8042	-3.5042	-3.8312	-3.7562	-3.6167	-3.9208	301.310	161.602	142.471	385.627	211.625	399.671	434.537	110.639	319.794	155.623	159.613	382.595	262.649	402.296	112.443	447.065	0.00074851	0.00016375	8.4683e-05	1189.9	6.7286e-06	3.7135e-06	1249.8	241.22	1.152e-05	2.2605e-06	301.84	84.182	66.528	19.1	6.6235e-06	26.864	0.00043913	0.00039624	0.00011032	1189.2	4.515e-06	4.5141e-06	1248.3	243.53	4.3566e-06	4.4909e-06	305.63	85.922	67.458	19.534	4.3243e-06	27.613	348.528	205.623	181.645	97.739	242.380	227.859	97.904	105.106	280.430	208.921	104.312	111.516	111.535	118.539	231.617	117.955	-8191	255	
349.954	1	1	0	0	0.066647	0.17443	0.20996	0.097971	0.21831	0.22442	0.11397	0.19219	0.049141	0.20984	0.13308	0.1476	0.061591	0.49656	0.15735	0.046702	-3.1458	-3.6021	-3.8312	-3.6479	-3.8563	-3.7583	-3.6083	-3.9167	-3.5771	-3.7104	-3.9167	-3.4188	-3.8208	-3.6688	-3.5729	-3.85	376.399	176.583	325.151	109.638	325.114	267.197	340.802	390.011	132.022	415.769	443.318	307.244	294.080	406.748	266.910	327.627	0.00074679	0.00022756	0.00010457	1193.9	4.1159e-06	4.1802e-06	1256.2	242.73	1.299e-05	4.7417e-06	305.42	85.085	67.439	19.02	5.1702e-06	26.83	0.00042587	0.00039156	0.00010989	1187.4	4.4999e-06	4.1909e-06	1250.7	243.74	4.3596e-06	4.3378e-06	307.45	86.136	67.711	19.526	3.9446e-06	27.557	347.349	166.732	189.085	97.990	237.814	217.342	97.575	104.980	285.145	214.954	104.740	111.123	111.847	118.852	229.232	118.055	-8191	255	
350.027	1	1	0	0	0.22269	0.069215	0.065195	0.178	0.1312	0.17199	0.015462	0.18877	0.16437	0.33604	0.063472	0.26623	0.19167	0.21319	0.25495	0.11263	-3.1354	-3.5417	-3.7979	-3.7146	-3.7687	-3.9125	-3.6917	-4.0062	-3.5479	-3.5667	-3.6937	-3.375	-3.7021	-3.8146	-3.5083	-3.8708	145.360	228.034	388.844	103.706	446.089	338.767	203.763	220.085	179.827	130.408	314.417	415.290	259.951	114.067	315.451	371.716	0.00074641	0.00031648	6.5957e-05	1194.2	7.0434e-06	2.5412e-06	1253.6	242.06	1.3575e-05	2.9317e-06	304.17	85.065	66.667	18.983	6.9145e-06	26.853	0.00042731	0.00040045	0.00011034	1189.2	4.475e-06	4.2422e-06	1248.3	243.39	4.1026e-06	4.1236e-06	306.93	86.066	67.449	19.508	4.0472e-06	27.548	347.266	181.638	173.141	97.894	234.918	271.131	97.891	105.098	265.768	260.649	105.080	111.265	112.021	118.533	241.000	118.070	-8191	255	
350.121	1	1	0	0	0.12398	0.22517	0.1749	0.21454	0.087389	0.16876	0.049924	0.3367	0.18518	0.085887	0.16011	0.096706	0.30163	0.15686	0.18582	0.16874	-3.1479	-3.4542	-3.8063	-3.5938	-3.6312	-3.5646	-3.5854	-3.6417	-3.8104	-3.6625	-3.9792	-3.6354	-3.6958	-3.7458	-3.5438	-3.7604	392.998	344.323	257.119	119.435	355.612	143.016	403.398	412.945	368.028	267.102	349.329	106.192	397.750	266.802	388.231	90.913	0.00072802	0.00040562	9.3113e-05	1181.5	6.1302e-06	2.4358e-06	1254.7	243.1	1.2364e-05	3.6363e-06	303.72	84.569	66.917	18.986	6.5537e-06	26.852	0.00042294	0.0003937	9.9878e-05	1185.5	4.5768e-06	4.0864e-06	1248.7	244.02	4.2013e-06	4.2786e-06	305.66	85.965	67.552	19.489	3.9501e-06	27.544	347.822	171.317	187.388	97.998	232.218	245.630	97.681	105.234	272.766	264.909	104.976	111.198	111.895	118.440	235.564	118.116	-8191	255	
350.218	1	1	0	0	0.2484	0.098677	0.12993	0.22559	0.17615	0.036336	0.33148	0.27287	0.12567	0.17361	0.096061	0.053894	0.19974	0.049071	0.16167	0.099889	-3.2021	-3.4771	-3.85	-3.4417	-3.6271	-3.8208	-3.5917	-3.8521	-3.8417	-3.7438	-3.75	-3.7562	-3.6083	-3.8312	-3.6813	-3.725	426.949	189.100	334.086	438.397	269.922	355.507	402.071	340.330	436.286	295.005	89.388	281.773	134.595	445.754	121.320	406.713	0.00077064	0.00034089	9.4778e-05	1182	6.0608e-06	2.6055e-06	1242	242.27	1.2282e-05	3.8785e-06	306.89	85.041	66.77	19.101	5.8562e-06	26.809	0.00043106	0.00039084	0.000105	1184.4	4.4155e-06	4.2746e-06	1245.8	243.49	4.0945e-06	4.336e-06	306.84	86.077	67.401	19.538	4.0046e-06	27.583	347.710	176.108	165.747	97.795	213.032	227.873	97.795	105.347	285.328	243.170	104.766	111.400	111.922	118.767	246.080	117.825	-8191	255	
350.338	1	1	0	0	0.24814	0.14446	0.089462	0.013373	0.13089	0.040323	0.18529	0.05902	0.19815	0.079783	0.067912	0.11729	0.0089191	0.108	0.01709	0.17456	-3.4458	-3.5958	-3.8208	-3.8688	-3.6146	-3.7438	-3.8396	-3.8312	-3.7562	-3.5917	-3.8792	-3.775	-3.6021	-3.85	-3.4313	-3.6833	218.501	411.490	330.934	166.942	196.552	396.048	396.109	322.038	210.730	146.319	191.333	354.992	137.896	409.014	162.124	343.269	0.00074986	0.00026625	5.6523e-05	1191.3	6.5568e-06	1.9305e-06	1253.4	244.52	7.9915e-06	5.4347e-06	304.51	85.066	66.538	19.134	5.1239e-06	26.981	0.00041672	0.00038338	0.00010831	1185.3	4.521e-06	4.1305e-06	1246.2	243.78	3.9892e-06	4.2625e-06	306.71	86.007	67.373	19.495	4.1222e-06	27.483	344.937	160.121	201.255	98.192	246.806	229.411	97.940	105.208	264.756	234.127	104.943	111.366	112.236	118.524	255.793	118.145	-8191	255	
350.434	1	1	0	0	0.22312	0.26124	0.15515	0.2173	0.18878	0.24916	0.24955	0.23738	0.086795	0.30592	0.048669	0.12606	0.24568	0.26923	0.19502	0.21582	-3.4229	-3.3958	-3.8375	-3.7938	-3.4875	-3.9917	-3.8333	-3.8271	-3.9667	-3.6625	-3.8083	-3.625	-3.4562	-3.8187	-3.6125	-3.5687	256.435	138.831	201.976	299.610	406.470	205.854	337.536	422.005	342.967	425.486	295.564	340.975	446.931	429.870	183.154	339.621	0.00075874	0.00043787	7.302e-05	1182.8	7.0603e-06	2.4476e-06	1247.2	242.17	8.7762e-06	4.1621e-06	304.86	85.017	66.822	18.942	4.8807e-06	26.838	0.00042372	0.00037473	0.00010399	1181.4	4.4276e-06	3.9523e-06	1241.1	242.71	3.8758e-06	4.0977e-06	305.46	85.895	67.306	19.441	4.1522e-06	27.509	348.078	181.074	199.574	97.831	237.203	246.382	97.915	105.232	265.337	233.027	104.970	111.538	111.950	118.630	244.520	117.707	-8191	255	
350.531	1	1	0	0	0.13687	0.13672	0.41171	0.23059	0.16429	0.055308	0.21647	0.13984	0.046288	0.12686	0.13653	0.19886	0.17191	0.17391	0.19688	0.059557	-3.4417	-3.4208	-3.5625	-3.7708	-3.5583	-3.7812	-3.65	-3.6688	-3.9167	-3.425	-3.7458	-3.6667	-3.6083	-3.8229	-3.4729	-3.65	88.453	282.708	411.781	340.873	351.987	242.648	402.889	155.332	364.738	135.289	121.127	348.122	320.600	198.805	323.831	169.198	0.00073933	0.00031192	8.2283e-05	1180.3	7.7909e-06	2.7115e-06	1248.5	242.14	8.3945e-06	4.0629e-06	302.33	84.118	66.576	18.917	6.7924e-06	26.934	0.00041087	0.00036624	9.7497e-05	1180.5	4.3914e-06	3.7983e-06	1240.9	242.89	3.7654e-06	3.9095e-06	305.46	85.594	67.301	19.396	3.7685e-06	27.51	345.871	160.762	184.483	97.702	239.915	268.154	97.981	105.368	269.141	237.976	105.021	111.453	111.849	118.685	253.762	118.289	-8191	255	
350.627	1	1	0	0	0.08185	0.074919	0.36211	0.092683	0.037059	0.056491	0.23751	0.21464	0.23379	0.2529	0.1324	0.11817	0.22594	0.13942	0.22739	0.081515	-3.5083	-3.4458	-3.6063	-3.8292	-3.3333	-3.8083	-3.8312	-3.6688	-3.8937	-3.5021	-3.6125	-3.8708	-3.4062	-3.6542	-3.6167	-3.4625	310.451	202.148	242.208	122.430	431.837	121.715	400.715	406.843	191.653	297.804	356.108	312.396	95.840	276.732	365.171	331.606	0.00077523	0.00024282	9.9185e-05	1181.3	6.4144e-06	2.9998e-06	1240.1	240.61	9.23e-06	3.655e-06	301.27	84.982	66.817	18.932	6.6924e-06	26.654	0.00041437	0.00037211	0.00011114	1177.2	4.3047e-06	4.0315e-06	1236.5	242.6	3.7801e-06	4.1048e-06	305	85.831	67.301	19.42	3.8554e-06	27.456	346.103	194.621	175.350	97.919	240.785	256.299	97.657	105.269	273.972	270.773	104.551	111.673	111.749	118.653	249.941	118.142	-8191	255	
350.723	1	1	0	0	0.24627	0.10532	0.21778	0.27354	0.18365	0.11552	0.25374	0.17415	0.18441	0.12444	0.11126	0.092713	0.29223	0.11202	0.18404	0.12352	-3.3208	-3.5875	-3.6708	-3.9875	-3.5417	-3.7667	-3.8271	-3.4062	-3.9396	-3.5646	-3.7354	-3.8604	-3.6	-3.6208	-3.7521	-3.6354	169.676	447.367	436.849	415.832	120.547	193.483	360.918	404.170	295.716	203.626	284.914	104.132	98.475	302.075	336.436	207.865	0.00076911	0.00021612	8.793e-05	1171.7	7.4933e-06	3.5273e-06	1239.5	241.71	1.0533e-05	2.0211e-06	301.82	84.787	66.862	18.982	5.4987e-06	26.783	0.00041017	0.00037719	0.00010609	1176.2	4.1381e-06	3.8244e-06	1237.8	242.59	3.8942e-06	4.0045e-06	305.02	85.638	67.367	19.432	3.7638e-06	27.544	348.215	184.390	189.488	97.709	226.396	219.293	97.838	105.364	277.903	244.581	105.005	111.396	111.836	118.948	242.260	117.945	-8191	255	
350.819	1	1	0	0	0.078983	0.082357	0.10222	0.1342	0.019987	0.073933	0.092147	0.18834	0.12172	0.25618	0.17048	0.12638	0.15542	0.33862	0.1394	0.030739	-3.3604	-3.4708	-3.6333	-4.0437	-3.6188	-3.8688	-3.9208	-3.4875	-3.8875	-3.5625	-3.6958	-3.775	-3.7146	-3.7188	-3.8354	-3.6188	105.854	274.766	282.319	436.801	91.875	321.036	188.284	298.463	127.384	179.059	397.156	205.730	410.476	140.334	298.570	268.292	0.00078423	0.00024855	6.5019e-05	1179.3	7.3403e-06	4.4809e-06	1241	242.32	8.0637e-06	3.1864e-06	303.59	84.407	66.81	18.967	7.0667e-06	26.714	0.00040992	0.00035886	0.00010092	1175.7	4.1781e-06	3.9982e-06	1235.5	242.32	3.7779e-06	3.8656e-06	305.63	85.627	67.118	19.391	3.8175e-06	27.389	345.755	184.027	204.977	97.644	240.664	208.245	97.929	105.319	288.032	251.469	104.694	111.649	111.974	118.998	243.956	117.669	-8191	255	
350.915	1	1	0	0	0.064194	0.12177	0.11801	0.15736	0.13409	0.25675	0.072293	0.18878	0.038173	0.16728	0.061629	0.28458	0.1528	0.2051	0.28108	0.22034	-3.4437	-3.6833	-3.3937	-3.9062	-3.5292	-3.5708	-4.0354	-3.5417	-3.8875	-3.6042	-3.6458	-3.8125	-3.7125	-3.8187	-3.8312	-3.3792	224.006	181.383	289.222	361.252	160.342	122.955	291.318	382.422	152.941	444.260	362.440	381.655	87.564	410.859	176.365	421.620	0.00074525	0.00027087	6.8729e-05	1167.4	3.8133e-06	3.7784e-06	1240.2	240.19	1.1074e-05	2.3034e-06	299.76	84.307	66.234	18.974	7.1509e-06	26.55	0.00040329	0.00034489	9.9121e-05	1174.3	4.1359e-06	4.0576e-06	1234.6	242.04	3.9944e-06	4.0027e-06	304.89	85.508	66.926	19.381	3.7054e-06	27.382	348.249	160.403	194.002	97.725	235.365	257.040	97.928	105.368	257.391	235.875	104.433	111.496	111.799	118.902	238.880	118.289	-8191	255	
351.036	1	1	0	0	0.068811	0.11322	0.094968	0.17554	0.14061	0.20807	0.20786	0.17025	0.017355	0.15798	0.14819	0.080341	0.10114	0.22608	0.11218	0.048934	-3.3937	-3.7542	-3.45	-3.7792	-3.5312	-3.6729	-3.9771	-3.6479	-3.7542	-3.6792	-3.5083	-3.7521	-3.6437	-3.7438	-3.6146	-3.5438	332.714	290.562	342.315	94.179	343.409	343.977	352.491	312.265	256.908	395.349	197.434	91.839	229.140	142.724	199.113	87.381	0.00077939	0.00030885	0.00011792	1171.6	4.6327e-06	3.2237e-06	1237.6	239	1.0994e-05	3.4571e-06	299.57	83.889	66.38	18.807	4.8869e-06	26.938	0.00041351	0.0003645	0.00011065	1172.9	4.2444e-06	3.8559e-06	1234.5	241.33	3.8081e-06	3.966e-06	304.33	85.391	67.065	19.399	3.7504e-06	27.501	347.913	161.673	173.952	97.781	248.980	239.875	97.647	105.214	291.080	231.076	104.913	111.431	111.817	118.702	233.058	118.219	-8191	255	
351.130	1	1	0	0	0.19288	0.33632	0.019635	0.15823	0.10564	0.20752	0.12633	0.12424	0.16129	0.11048	0.051288	0.11191	0.28819	0.12294	0.034526	0.31092	-3.425	-3.8292	-3.5	-3.8292	-3.6125	-3.4771	-4.0333	-3.6375	-3.4333	-3.6813	-3.5938	-3.6875	-3.5625	-3.6104	-3.7292	-3.6167	337.230	371.549	275.017	98.058	238.021	350.666	246.089	116.779	197.435	341.208	264.315	96.172	388.633	437.645	294.888	92.520	0.00078483	0.00039836	9.5986e-05	1181	5.6685e-06	3.3312e-06	1247.3	241.59	1.4361e-05	4.0439e-06	302.8	85.111	67.058	19.106	2.8338e-06	26.916	0.00041025	0.00033458	9.8676e-05	1175.4	3.9595e-06	4.0531e-06	1236.3	242.16	4.0916e-06	3.5996e-06	304.02	85.648	67.164	19.445	3.7899e-06	27.419	349.834	190.835	202.267	97.966	230.103	221.140	98.056	105.122	278.160	249.136	104.708	111.664	111.918	118.907	230.221	118.230	-8191	255	
351.226	1	1	0	0	0.052301	0.31946	0.26918	0.2461	0.14862	0.019601	0.16389	0.18198	0.19619	0.28425	0.16369	0.11854	0.05256	0.1358	0.26761	0.18866	-3.2708	-3.7167	-3.5021	-3.8458	-3.575	-3.5479	-3.8312	-3.5625	-3.5417	-3.7979	-3.425	-3.8292	-3.8	-3.3875	-3.8812	-3.525	130.041	221.715	410.722	384.135	140.432	295.938	332.618	352.743	308.627	263.230	389.380	322.437	395.190	144.211	329.446	344.522	0.00083191	0.0004167	6.304e-05	1183.8	5.5507e-06	3.1968e-06	1249.4	244.43	8.7999e-06	4.0589e-06	303.75	85.565	67.245	19.068	4.5044e-06	26.89	0.00042133	0.00035878	0.00010193	1175.4	4.3311e-06	4.1341e-06	1236.6	242.22	4.1011e-06	4.1335e-06	304.68	85.819	67.371	19.459	3.988e-06	27.492	349.775	173.766	200.026	98.087	219.368	228.365	98.038	105.327	282.281	232.058	105.411	111.622	112.144	119.117	249.304	118.207	-8191	255	
351.322	1	1	0	0	0.31833	0.11857	0.19901	0.11144	0.09631	0.1342	0.10462	0.36373	0.27645	0.15821	0.17371	0.25722	0.077129	0.054045	0.032502	0.14496	-3.0771	-3.8542	-3.3229	-3.5979	-3.8104	-3.4604	-3.7917	-3.5563	-3.5687	-3.9958	-3.5438	-3.7333	-3.8396	-3.5729	-3.8208	-3.725	92.237	338.824	286.981	396.636	358.008	304.285	104.489	434.509	247.471	209.685	114.328	117.215	426.417	114.347	327.900	88.396	0.00085431	0.00035996	0.00010663	1182.1	7.3464e-06	3.5554e-06	1244.9	243.43	1.2338e-05	3.7855e-06	302.76	85.311	67.28	19.025	5.7754e-06	26.951	0.00044185	0.00037069	9.832e-05	1175.5	4.3266e-06	4.0864e-06	1237.4	242.49	4.0282e-06	3.897e-06	304.4	85.736	67.222	19.388	3.8522e-06	27.4	347.416	171.414	173.725	98.117	240.819	268.621	97.855	105.228	278.812	260.525	104.838	111.487	112.425	118.873	259.734	118.157	-8191	255	
351.419	1	1	0	0	0.14027	0.31925	0.20206	0.30884	0.13626	0.14897	0.24024	0.12947	0.17823	0.13244	0.15801	0.077058	0.087685	0.14533	0.04539	0.10465	-3.0854	-3.8125	-3.4708	-3.7083	-3.9208	-3.5083	-3.8812	-3.6813	-3.5146	-3.9667	-3.4979	-3.7479	-3.7562	-3.4729	-3.7896	-3.7958	147.360	130.335	118.680	369.630	166.811	274.244	344.286	339.478	256.745	356.735	300.551	119.241	200.044	421.237	127.311	319.878	0.00081859	0.00037993	0.00010727	1182.9	7.9085e-06	4.077e-06	1243.4	243.77	1.3291e-05	3.1326e-06	305.58	85.239	67.213	19.031	6.6102e-06	26.883	0.00041829	0.00036561	0.00010382	1175.8	4.1992e-06	4.3367e-06	1234.1	242.47	4.0054e-06	4.2697e-06	304.63	85.813	67.157	19.381	3.8562e-06	27.426	346.823	155.930	185.494	98.156	252.205	247.342	98.057	105.344	278.443	260.836	104.893	111.739	112.181	118.687	268.684	118.027	-8191	255	
351.515	1	1	0	0	0.2183	0.088789	0.10894	0.089972	0.12107	0.060435	0.24408	0.17622	0.10017	0.1201	0.21959	0.17212	0.21503	0.099218	0.12406	0.073425	-3.2333	-3.4813	-3.5354	-3.5687	-3.8708	-3.5938	-3.8292	-3.7708	-3.4625	-3.6771	-3.55	-3.4771	-3.8104	-3.4771	-3.7167	-3.7146	363.714	400.830	258.565	408.532	279.041	399.789	389.547	425.241	147.511	267.557	382.122	190.230	243.837	311.026	235.608	112.203	0.00077439	0.00030316	0.00013036	1182	7.7469e-06	3.6679e-06	1248.9	241.94	1.3281e-05	1.3993e-06	303.33	85.196	67.16	19.063	3.9233e-06	26.8	0.00041087	0.00036219	0.0001017	1174.8	4.0507e-06	3.8992e-06	1236.3	241.65	4.0842e-06	4.0511e-06	304.88	85.557	67.263	19.397	4.1909e-06	27.424	347.744	164.372	157.241	98.219	230.005	259.258	97.884	105.175	268.535	259.946	104.765	111.639	111.934	118.843	232.341	118.427	-8191	255	
351.635	1	1	0	0	0.15333	0.12729	0.080427	0.38707	0.11387	0.24657	0.29071	0.27276	0.032755	0.15229	0.12553	0.28484	0.34591	0.21418	0.21799	0.16508	-3.0354	-3.7917	-3.5146	-3.6271	-3.8646	-3.4979	-3.8333	-3.7646	-3.6958	-3.8187	-3.6396	-3.5604	-3.8208	-3.6688	-3.5625	-3.7792	379.282	361.657	228.497	396.542	346.744	161.262	428.407	302.405	287.192	276.901	349.837	410.852	320.334	181.803	247.602	416.613	0.00075416	0.00039146	3.9934e-05	1180.5	5.6968e-06	2.9169e-06	1238.7	242.72	1.2663e-05	4.3824e-06	302.87	84.642	66.608	19.026	5.3916e-06	26.661	0.0004215	0.00039148	0.00011074	1174.1	4.2836e-06	4.0108e-06	1233.8	242.04	4.1159e-06	4.0995e-06	304.17	85.68	66.998	19.435	4.1822e-06	27.386	344.813	187.069	179.649	97.866	240.632	271.285	97.899	105.252	284.687	221.458	104.845	111.621	111.933	118.523	253.330	118.069	-8191	255	
351.732	1	1	0	0	0.095812	0.21372	0.076448	0.19121	0.10139	0.18553	0.27921	0.32681	0.18727	0.12386	0.1784	0.17993	0.15247	0.026716	0.076464	0.074542	-3.075	-3.8167	-3.7354	-3.65	-3.6979	-3.6042	-3.7188	-3.8937	-3.4729	-3.7292	-3.675	-3.6917	-3.8667	-3.5417	-3.5875	-3.7208	432.526	406.687	219.900	389.242	206.726	263.669	409.127	344.287	205.424	267.561	264.380	384.947	358.854	142.011	244.344	235.971	0.00073625	0.00023577	8.9801e-05	1171.5	6.2059e-06	4.2457e-06	1237.8	239.84	9.5633e-06	3.7288e-06	300.75	84.163	66.017	18.786	3.9473e-06	26.518	0.00041594	0.00038299	0.00010395	1171	4.2301e-06	4.2647e-06	1233.1	241.71	4.1652e-06	4.052e-06	304	85.447	66.869	19.336	3.8325e-06	27.351	344.730	151.793	145.989	97.841	234.478	245.006	97.972	105.085	274.183	232.999	104.786	111.452	111.871	118.581	245.224	118.213	-8191	255	
351.828	1	1	0	0	0.13534	0.19236	0.12124	0.17523	0.17189	0.16106	0.24696	0.090038	0.20833	0.10147	0.12877	0.03974	0.031818	0.25461	0.063198	0.17579	-3.0438	-3.6417	-3.75	-3.5479	-3.9688	-3.5125	-3.6562	-4.0938	-3.5083	-3.6854	-3.7646	-3.5396	-3.7938	-3.6125	-3.5812	-3.8708	105.426	146.612	382.120	391.678	108.968	329.993	389.251	270.481	443.997	315.702	97.440	308.316	353.550	248.260	327.998	317.515	0.00072738	0.00026769	6.937e-05	1178.3	6.2715e-06	3.715e-06	1228.5	241.4	1.1583e-05	3.2683e-06	301.86	84.258	65.868	18.997	6.2869e-06	26.741	0.00040861	0.00038291	0.00010335	1172.7	4.3303e-06	4.0414e-06	1230.7	241.57	4.2337e-06	4.0439e-06	303.98	85.276	66.857	19.401	3.9398e-06	27.415	347.410	186.004	196.120	97.826	232.833	247.703	97.841	105.358	283.693	250.087	104.611	111.284	111.636	118.855	244.392	117.931	-8191	255	
351.899	1	1	0	0	0.12051	0.31475	0.06729	0.059758	0.10878	0.083213	0.13731	0.25515	0.16627	0.055833	0.061649	0.25452	0.14342	0.25323	0.15071	0.31416	-3.075	-3.5958	-3.6833	-3.5521	-3.8125	-3.8542	-3.4542	-3.7667	-3.5229	-3.8146	-3.7958	-3.6167	-3.9792	-3.7438	-3.4562	-3.875	88.217	232.276	95.328	172.720	123.060	209.166	394.792	382.207	322.694	98.317	400.121	323.254	396.884	148.218	210.198	412.765	0.00074206	0.00024283	7.8308e-05	1177.5	6.135e-06	2.3868e-06	1239.6	240.94	1.1928e-05	3.906e-06	302.19	85.017	66.865	18.948	5.9081e-06	26.776	0.00041289	0.00037037	0.00010253	1173.2	4.3861e-06	4.19e-06	1232	241.51	3.9465e-06	4.0806e-06	304.08	85.326	67.109	19.374	3.9833e-06	27.375	352.873	178.470	192.841	98.049	252.886	267.498	97.965	105.164	282.106	254.563	104.857	111.420	112.246	118.973	244.435	118.065	-8191	255	
352.018	1	1	0	0	0.082251	0.17705	0.14242	0.25044	0.18258	0.019796	0.15018	0.22743	0.1028	0.089687	0.12809	0.14191	0.059761	0.13387	0.12486	0.074187	-3.3875	-3.5875	-3.6125	-3.5	-3.625	-3.7562	-3.5687	-3.8479	-3.6562	-3.4062	-3.8187	-3.5062	-3.7125	-3.7313	-3.3417	-3.9437	436.969	213.565	446.671	385.706	283.230	104.047	328.998	430.436	189.303	335.036	334.144	368.323	291.992	337.925	141.645	371.364	0.00082328	0.00034221	9.2919e-05	1174.5	3.5038e-06	3.7759e-06	1234.6	239.21	1.2705e-05	3.8885e-06	301.71	84.111	66.13	18.852	5.0357e-06	26.439	0.00041981	0.0003891	9.812e-05	1171.2	4.2022e-06	4.2053e-06	1230.6	241.14	4.0393e-06	4.0833e-06	303.66	85.156	66.83	19.341	3.8333e-06	27.296	346.923	148.827	190.381	97.991	218.085	251.755	97.814	105.071	277.271	242.211	105.148	111.673	111.774	119.080	243.683	117.580	-8191	255	
352.114	1	1	0	0	0.10282	0.12304	0.18232	0.14579	0.044598	0.12671	0.13349	0.028211	0.06097	0.09593	0.092449	0.28467	0.084989	0.10514	0.25918	0.046187	-3.1208	-3.4792	-3.7687	-3.4813	-3.5833	-3.7	-3.5521	-3.7125	-3.6854	-3.4667	-3.9021	-3.6792	-3.6771	-3.6396	-3.6042	-3.8479	152.405	424.225	360.983	363.758	422.951	445.830	428.978	342.404	321.178	131.436	221.329	91.507	158.617	307.727	326.687	164.628	0.000741	0.00029487	5.4794e-05	1166.8	7.4098e-06	4.013e-06	1232.6	240.04	1.05e-05	4.6042e-06	298.47	83.978	66.423	18.842	4.6613e-06	26.72	0.00040997	0.00037918	9.0887e-05	1168.1	3.8992e-06	3.7434e-06	1226.6	240.59	4.0194e-06	3.7465e-06	302.62	85.26	66.762	19.292	3.6249e-06	27.34	349.284	180.313	184.208	97.941	221.338	263.035	97.763	105.330	274.947	226.456	104.135	111.396	112.189	118.699	230.515	117.631	-8191	255	
352.211	1	1	0	0	0.17599	0.012366	0.071256	0.22073	0.13112	0.34644	0.4156	0.02296	0.21264	0.25428	0.20733	0.1021	0.094212	0.088093	0.1785	0.20144	-3.2458	-3.5292	-3.7042	-3.6042	-3.5583	-3.9062	-3.5563	-3.6771	-3.5292	-3.6375	-3.85	-3.4708	-3.55	-3.6958	-3.4104	-3.6771	298.349	161.289	242.717	369.885	338.156	94.195	360.915	231.323	344.875	262.474	279.275	369.941	99.122	141.028	445.949	436.639	0.00072411	0.00040265	8.0625e-05	1163.1	7.2105e-06	3.8011e-06	1225.5	240.32	1.2599e-05	2.471e-06	299.92	84.167	66.603	18.823	6.74e-06	26.653	0.00040543	0.00036735	9.8097e-05	1164.2	4.166e-06	3.91e-06	1224.9	240.63	4.0643e-06	4.4148e-06	302.31	85.179	66.884	19.266	4.1017e-06	27.329	351.798	189.472	225.873	97.916	232.147	253.634	97.869	105.171	276.075	219.403	104.845	111.301	112.192	118.934	255.249	118.105	-8191	255	
352.307	1	1	0	0	0.17765	0.11821	0.1963	0.26235	0.32129	0.13888	0.41607	0.27435	0.17617	0.13695	0.18009	0.21279	0.13075	0.19104	0.17062	0.076988	-3.1958	-3.3542	-3.5938	-3.6708	-3.4667	-3.75	-3.5083	-3.9042	-3.5208	-3.3833	-3.7938	-3.6667	-3.525	-3.9	-3.5583	-3.5854	351.837	379.371	304.916	430.377	430.699	383.149	348.406	437.797	405.556	390.710	191.319	438.595	419.519	417.450	410.953	344.780	0.00075058	0.00028982	6.3182e-05	1170.8	5.1497e-06	1.5821e-06	1234.3	239.55	8.1655e-06	5.337e-06	300.69	84.438	66.149	18.822	7.2159e-06	26.401	0.00041932	0.00038695	0.00010259	1166.9	4.6823e-06	3.7344e-06	1226.4	240.47	3.8707e-06	4.189e-06	303.34	85.309	66.864	19.315	3.842e-06	27.27	347.445	169.895	162.098	97.957	244.542	282.546	98.023	105.265	272.401	234.859	104.751	111.534	112.138	118.618	255.609	118.434	-8191	255	
352.427	1	1	0	0	0.26469	0.23099	0.12956	0.23426	0.015518	0.065979	0.14069	0.048979	0.052465	0.02507	0.18362	0.052872	0.081177	0.055075	0.24024	0.15699	-3.3063	-3.3833	-3.7375	-3.6229	-3.4	-3.8979	-3.55	-3.7125	-3.7562	-3.4979	-3.675	-3.5292	-3.6083	-3.9271	-3.5458	-3.6021	378.356	108.043	159.627	417.820	159.558	416.606	121.209	126.362	372.506	124.363	154.563	409.799	107.326	165.775	394.950	134.964	0.00075987	0.00035126	5.3743e-05	1169.3	6.1481e-06	3.3055e-06	1223.3	239.86	6.3378e-06	3.3272e-06	298.68	84.068	65.991	18.762	4.4275e-06	26.613	0.00040189	0.00037442	0.00010633	1165.6	4.2346e-06	4.027e-06	1222.9	240.61	4.0547e-06	4.258e-06	302.3	85.126	66.763	19.34	3.8933e-06	27.341	349.404	151.894	186.204	97.874	243.062	239.752	97.807	105.441	276.943	244.919	105.009	111.335	112.009	118.893	250.586	118.263	-8191	255	
352.499	1	1	0	0	0.20229	0.13658	0.20493	0.23497	0.13947	0.16439	0.26275	0.11696	0.052344	0.27054	0.30637	0.17982	0.22504	0.20601	0.037879	0.17764	-3.4042	-3.4562	-3.5875	-3.6729	-3.5146	-3.7979	-3.6813	-3.525	-3.6917	-3.4875	-3.6833	-3.6958	-3.4271	-3.6604	-3.5667	-3.5875	273.319	360.673	336.169	368.641	348.702	109.297	360.406	110.337	381.603	444.095	398.040	199.849	398.996	148.683	171.153	297.990	0.00078869	0.00026387	9.6669e-05	1159.6	4.512e-06	3.7885e-06	1221.8	238.49	8.5076e-06	2.6467e-06	300.79	84.226	65.995	18.686	3.554e-06	26.276	0.00042051	0.00036521	0.0001017	1161.1	3.9158e-06	3.973e-06	1221	239.82	3.895e-06	4.0547e-06	302.26	85.226	66.573	19.279	3.9485e-06	27.2	351.601	187.618	174.381	97.891	247.785	259.324	97.938	105.323	266.521	258.866	104.691	111.551	111.846	118.669	208.453	117.875	-8191	255	
352.595	1	1	0	0	0.1725	0.19201	0.28898	0.2919	0.2134	0.11262	0.14869	0.25403	0.2024	0.23996	0.134	0.06014	0.37768	0.16308	0.16152	0.15949	-3.3167	-3.2833	-3.6021	-3.4708	-3.5062	-3.8292	-3.7854	-3.5479	-3.9979	-3.3854	-3.5958	-3.7625	-3.4667	-3.7917	-3.5625	-3.4521	338.082	409.270	433.528	404.892	207.784	111.272	332.512	411.310	234.425	214.044	283.850	165.299	324.230	299.449	218.809	249.676	0.00077852	0.00016592	9.7574e-05	1161.3	6.3615e-06	2.9762e-06	1218.4	237.08	9.8501e-06	4.0998e-06	297.28	83.775	65.883	18.754	5.2355e-06	26.508	0.00039658	0.00037846	0.00010515	1161.8	4.1313e-06	4.0126e-06	1219	239.38	3.6756e-06	4.0744e-06	301.48	84.772	66.431	19.266	3.7985e-06	27.235	350.985	153.455	195.062	97.691	234.879	221.997	97.714	105.192	292.869	260.869	104.736	111.464	111.930	118.862	252.279	118.161	-8191	255	
352.716	1	1	0	0	0.09111	0.31404	0.10301	0.23645	0.28976	0.17873	0.19798	0.12362	0.19407	0.20316	0.31909	0.20769	0.022188	0.081816	0.16636	0.19476	-3.4813	-3.5146	-3.5083	-3.8	-3.3125	-3.8	-3.7375	-3.5062	-3.7583	-3.5229	-3.7458	-3.9833	-3.525	-3.7188	-3.625	-3.6479	130.694	125.626	164.330	406.254	175.147	145.536	358.951	348.001	192.361	157.015	416.654	439.782	409.774	419.410	247.191	227.390	0.00075558	0.00032919	0.00011799	1156.6	5.767e-06	1.9064e-06	1220.5	239.01	1.038e-05	3.2736e-06	295.92	84.003	65.861	18.736	6.7284e-06	26.307	0.0004084	0.00035886	0.00010155	1157.7	4.224e-06	4.2395e-06	1217.8	239.96	3.7293e-06	3.9561e-06	301.49	84.947	66.455	19.254	3.6312e-06	27.168	346.169	144.535	174.127	97.611	222.897	246.061	97.711	105.290	276.773	245.789	104.703	111.564	111.793	119.120	237.797	117.937	-8191	255	
352.812	1	1	0	0	0.22137	0.22266	0.23942	0.21376	0.085239	0.1461	0.1404	0.017311	0.11116	0.38113	0.12884	0.076478	0.2113	0.21044	0.01828	0.18471	-3.5396	-3.5917	-3.4771	-3.9875	-3.5979	-3.5375	-3.8479	-3.6396	-3.5687	-3.5479	-3.4875	-3.7979	-3.5375	-3.6333	-3.6604	-3.4875	320.650	218.957	407.509	134.940	159.597	133.140	115.185	160.196	437.774	168.918	120.245	90.686	276.738	126.106	209.446	378.271	0.00079796	0.00040987	4.876e-05	1151.3	3.9612e-06	3.0596e-06	1210.5	235.89	1.1808e-05	3.4992e-06	298.16	83.522	65.803	18.785	6.3634e-06	26.38	0.00041754	0.00037037	9.6028e-05	1156.1	4.1472e-06	3.8334e-06	1214.2	238.47	3.7875e-06	4.1165e-06	300.82	84.745	66.392	19.242	3.6651e-06	27.157	349.995	181.349	214.601	97.983	224.676	229.029	97.887	105.319	267.950	246.867	104.911	111.244	111.641	118.893	248.544	118.049	-8191	255	
352.908	1	1	0	0	0.21323	0.1695	0.13193	0.20093	0.21957	0.17472	0.13961	0.12362	0.07309	0.0503	0.11269	0.0563	0.23722	0.077586	0.13125	0.24832	-3.4	-3.6708	-3.4333	-3.6958	-3.5229	-3.6479	-3.8292	-3.2521	-3.7313	-3.6604	-3.5563	-3.75	-3.525	-3.5375	-3.7938	-3.6083	294.284	393.468	373.102	88.501	211.751	277.690	277.444	408.423	207.893	135.168	216.195	233.757	400.060	264.226	296.764	317.540	0.00077332	0.00026437	4.6623e-05	1158.2	8.621e-06	3.7203e-06	1215.4	238.84	1.347e-05	2.365e-06	298.28	83.494	65.801	18.742	5.6428e-06	26.562	0.00040749	0.00035807	9.852e-05	1156.4	4.0288e-06	3.7929e-06	1213.9	239.07	3.7315e-06	3.6981e-06	301.72	84.642	66.382	19.197	3.5357e-06	27.221	350.850	188.279	170.712	98.056	228.852	242.954	97.626	105.139	276.669	214.508	104.776	111.256	112.020	118.754	244.905	118.113	-8191	255	
353.027	1	1	0	0	0.1909	0.093091	0.084044	0.42884	0.15469	0.1797	0.25562	0.21842	0.10504	0.27233	0.13356	0.18595	0.1598	0.18975	0.19793	0.10514	-3.3042	-3.5417	-3.5021	-3.9062	-3.45	-3.5583	-3.8729	-3.6167	-3.6937	-3.6375	-3.5229	-3.8	-3.5312	-3.5167	-3.7208	-3.4958	222.320	375.005	259.140	437.902	138.239	100.223	329.407	342.754	196.594	107.048	277.479	321.716	393.540	347.682	284.379	413.762	0.00076015	0.00012314	8.148e-05	1154.5	5.6622e-06	2.2284e-06	1221.2	237.67	8.0669e-06	2.9042e-06	296.8	83.309	65.832	18.693	5.3853e-06	26.493	0.00040309	0.00033505	9.5115e-05	1154.8	3.9987e-06	3.8163e-06	1215.9	238.99	3.7551e-06	3.7877e-06	300.78	84.572	66.317	19.202	3.5665e-06	27.171	348.997	181.039	159.332	97.848	251.874	269.975	97.946	105.321	280.629	236.359	104.506	111.388	112.206	118.396	229.220	118.162	-8191	255	
353.123	1	1	0	0	0.035533	0.22878	0.1129	0.1431	0.19719	0.057424	0.069142	0.10896	0.16396	0.1327	0.073144	0.12853	0.31582	0.2126	0.17982	0.28926	-3.1917	-3.7854	-3.3812	-3.9229	-3.5125	-3.6583	-3.9917	-3.4146	-3.5792	-3.775	-3.4375	-3.7646	-3.5979	-3.5583	-3.6875	-3.7083	273.081	165.351	113.344	101.232	381.836	110.455	322.340	109.682	313.898	307.903	430.449	167.727	423.285	256.210	165.383	99.653	0.00076911	0.00027107	8.5777e-05	1158.5	3.526e-06	3.317e-06	1224.6	237.5	8.7308e-06	3.6962e-06	298.31	83.928	66.083	18.774	2.992e-06	26.451	0.00039213	0.00035077	9.5271e-05	1154.7	4.1607e-06	3.7479e-06	1215.6	238.41	3.7764e-06	3.5664e-06	300.24	84.633	66.281	19.224	3.7133e-06	27.155	346.414	171.845	178.945	97.783	251.786	271.193	97.941	105.227	277.934	234.723	104.939	111.687	112.059	119.236	247.790	118.110	-8191	255	
353.195	1	1	0	0	0.27614	0.26655	0.13638	0.18655	0.23311	0.17476	0.12573	0.17357	0.23892	0.25403	0.21124	0.12874	0.1981	0.24584	0.12912	0.19097	-3.125	-3.65	-3.4062	-3.9479	-3.7687	-3.6417	-4	-3.5812	-3.4938	-3.7292	-3.4667	-3.75	-3.6979	-3.4271	-3.6854	-3.5729	348.577	150.145	391.461	439.651	208.049	174.998	127.134	355.641	151.098	380.675	388.325	389.460	89.908	388.801	245.396	394.033	0.00074232	0.00028361	6.655e-05	1157.9	6.3835e-06	2.6986e-06	1215.1	237.09	9.33e-06	2.9237e-06	299.05	83.24	65.796	18.6	4.6914e-06	26.411	0.00039477	0.00036235	9.3179e-05	1155.5	3.9271e-06	3.8316e-06	1213.9	239.01	3.8398e-06	3.94e-06	299.97	84.607	66.297	19.17	3.5428e-06	27.114	346.168	166.255	188.845	97.991	247.771	230.387	97.920	105.418	267.996	216.943	104.366	111.842	111.681	118.987	231.039	118.030	-8191	255	
353.315	1	1	0	0	0.14486	0.21819	0.16587	0.15608	0.2045	0.13806	0.2429	0.30445	0.037052	0.11377	0.17751	0.27783	0.093113	0.24446	0.07109	0.15481	-3.0812	-3.6229	-3.4062	-3.7687	-3.8604	-3.5042	-4.0167	-3.55	-3.725	-3.7667	-3.4479	-3.625	-3.8021	-3.4646	-3.8042	-3.6604	198.478	328.158	428.656	260.403	280.080	231.873	332.882	367.917	307.727	385.881	94.489	347.859	376.534	126.498	207.031	348.095	0.00080573	0.00029171	5.8529e-05	1151.3	6.2222e-06	3.2264e-06	1213.5	237.27	9.0518e-06	5.4073e-06	296.62	83.853	65.79	18.687	4.0742e-06	26.267	0.00041713	0.00036473	9.8387e-05	1154	4.0703e-06	4.0432e-06	1213.2	238.64	4.0003e-06	3.7124e-06	300.16	84.736	66.219	19.2	3.7393e-06	27.11	348.738	183.744	176.704	98.056	225.664	259.532	97.940	105.255	259.347	244.869	104.571	111.484	112.345	118.824	226.532	117.687	-8191	255	
353.412	1	1	0	0	0.089298	0.24306	0.067347	0.13716	0.11519	0.18164	0.17045	0.080535	0.05314	0.067247	0.091533	0.085938	0.051122	0.19142	0.17364	0.26602	-3.0542	-3.8104	-3.4542	-3.8063	-3.6375	-3.4771	-4.0938	-3.5083	-3.6167	-3.8729	-3.5021	-3.6	-3.7958	-3.5312	-3.7438	-3.5938	182.261	240.336	141.558	337.209	361.068	189.113	346.250	357.530	214.454	170.262	342.851	298.071	162.295	118.086	296.231	341.198	0.00073567	0.00016992	1.9856e-05	1150.6	6.5537e-06	3.234e-06	1215.2	236.3	1.1741e-05	2.0422e-06	296.54	83.337	65.602	18.541	5.8626e-06	26.488	0.00038978	0.00035442	9.8876e-05	1154.3	3.973e-06	4.3781e-06	1214.7	238.57	3.9259e-06	4.0484e-06	300.71	84.57	66.227	19.165	3.8199e-06	27.19	347.066	166.778	180.583	97.918	238.076	214.746	97.692	105.279	267.660	260.851	104.743	111.504	111.925	118.823	246.413	117.856	-8191	255	
353.508	1	1	0	0	0.25357	0.19812	0.20396	0.12564	0.27215	0.24567	0.24165	0.20037	0.092552	0.070981	0.23879	0.2734	0.2094	0.038684	0.16232	0.20427	-3.0104	-3.7313	-3.4375	-3.7812	-3.7458	-3.4833	-3.9979	-3.7896	-3.3667	-3.8979	-3.5312	-3.65	-3.7521	-3.3979	-3.7146	-3.7083	433.650	118.348	121.484	287.561	293.495	431.897	417.067	212.079	109.109	195.673	293.100	433.851	442.702	411.792	376.631	343.752	0.00074092	0.00040904	3.9857e-05	1153.1	6.684e-06	1.2727e-06	1210.6	236.24	1.2152e-05	6.2657e-06	295.9	83.128	65.513	18.755	5.3373e-06	26.438	0.00041804	0.00035965	9.2979e-05	1154.6	4.1668e-06	4.126e-06	1212.5	238.62	4.0408e-06	4.138e-06	299.79	84.534	66.277	19.237	3.8901e-06	27.128	350.565	167.725	189.669	97.798	245.170	225.309	97.867	105.533	278.815	249.560	104.785	111.368	111.966	118.806	225.501	117.867	-8191	255	
353.604	1	1	0	0	0.10128	0.13891	0.071777	0.10788	0.094164	0.29705	0.24387	0.16416	0.10778	0.28601	0.10092	0.47645	0.24797	0.2269	0.25715	0.26343	-3.0958	-3.7208	-3.4688	-3.5125	-3.8104	-3.5187	-3.8063	-3.7729	-3.4021	-3.6688	-3.7021	-3.3417	-3.8771	-3.55	-3.4813	-3.6937	389.002	169.076	279.628	354.878	301.634	426.056	440.165	308.778	275.358	306.944	206.114	413.017	95.508	421.345	275.505	437.293	0.0007604	0.0003394	6.838e-05	1147.5	3.5927e-06	1.7503e-06	1219.3	237.44	8.9036e-06	2.3227e-06	297.34	83.705	65.994	18.743	4.7585e-06	26.644	0.00040449	0.00036354	9.7897e-05	1153.6	4.0009e-06	3.8866e-06	1214.5	238.67	4.0857e-06	3.8988e-06	300.15	84.516	66.189	19.209	3.827e-06	27.181	347.842	172.154	141.965	97.995	250.737	261.925	97.699	105.225	262.678	266.866	104.791	111.430	111.785	119.109	231.732	118.173	-8191	255	
353.724	1	1	0	0	0.22976	0.20231	0.15466	0.27909	0.31831	0.16759	0.12176	0.22514	0.10198	0.15825	0.17803	0.17058	0.119	0.021425	0.040206	0.22732	-3.1479	-3.7687	-3.5687	-3.7146	-3.825	-3.5292	-3.7875	-3.8271	-3.3688	-3.7771	-3.7438	-3.4437	-3.775	-3.5896	-3.6104	-3.6813	294.933	222.941	339.293	358.642	309.943	143.441	428.013	268.405	294.421	398.403	174.812	358.410	372.104	263.761	270.152	433.520	0.00074991	0.00031701	8.6844e-05	1156.4	7.3051e-06	3.6706e-06	1210.4	235.76	1.2366e-05	1.2855e-06	296.06	83.229	65.456	18.642	5.1223e-06	26.347	0.00040589	0.00033934	9.6117e-05	1156	4.2218e-06	3.8046e-06	1213.8	238.15	3.8987e-06	3.9409e-06	300.13	84.635	66.256	19.162	3.6762e-06	27.17	348.631	173.763	171.427	97.843	255.736	266.968	97.704	104.915	275.589	235.302	104.869	111.494	111.631	118.487	243.771	118.046	-8191	255	
353.796	1	1	0	0	0.23056	0.074474	0.1382	0.20107	0.15143	0.096043	0.1359	0.15021	0.082511	0.073395	0.13644	0.089529	0.17412	0.058098	0.21044	0.23334	-2.8146	-3.6354	-3.5833	-3.6875	-3.8312	-3.5854	-3.875	-3.6271	-3.4958	-3.6562	-3.5125	-3.3208	-3.8667	-3.6625	-3.475	-3.9521	375.251	274.545	234.484	330.238	186.403	216.316	358.085	417.788	101.093	269.946	330.672	317.628	248.474	294.009	144.620	131.782	0.00072334	0.00029844	7.3858e-05	1146.2	7.9411e-06	1.8266e-06	1217.5	237.22	1.1488e-05	4.2204e-06	299.08	83.588	65.651	18.867	5.6185e-06	26.511	0.00040708	0.00035577	8.9507e-05	1151.9	4.1434e-06	3.9496e-06	1213.7	238.36	3.9782e-06	3.9167e-06	300.77	84.606	66.189	19.253	3.9091e-06	27.133	347.809	188.200	131.246	97.828	238.121	255.713	98.009	105.250	294.846	236.063	104.868	111.761	111.743	118.813	235.590	118.134	-8191	255	
353.892	1	1	0	0	0.10433	0.05485	0.047232	0.045721	0.09879	0.046956	0.16642	0.10115	0.14675	0.1176	0.12647	0.069729	0.24089	0.075724	0.20831	0.13368	-3.175	-3.7833	-3.6937	-3.5062	-3.7396	-3.4875	-3.7396	-3.8563	-3.6458	-3.6604	-3.7292	-3.4313	-3.7958	-3.725	-3.4958	-3.7854	115.831	375.354	338.219	321.643	278.724	424.079	376.707	361.178	207.817	113.535	173.848	247.140	380.914	214.035	408.844	261.159	0.00071441	0.0003033	0.0001129	1161.2	5.6638e-06	1.5612e-06	1216.5	237.12	8.6644e-06	2.2502e-06	297.74	82.949	65.622	18.669	4.2441e-06	26.252	0.00039646	0.00035561	9.5182e-05	1156.9	4.2316e-06	3.7488e-06	1212.5	238.59	3.8464e-06	4.0502e-06	299.93	84.534	66.325	19.164	3.6951e-06	27.12	351.553	168.515	182.362	98.161	224.444	271.950	97.941	105.429	274.047	245.493	104.530	111.352	111.666	118.523	259.521	117.936	-8191	255	
353.988	1	1	0	0	0.086663	0.23842	0.036505	0.40916	0.22033	0.10922	0.060455	0.23964	0.33625	0.10032	0.071377	0.021659	0.1951	0.29317	0.044296	0.16282	-3.2667	-3.4896	-3.7625	-3.625	-3.8417	-3.7875	-3.5417	-4.0333	-3.7	-3.6583	-3.9333	-3.6021	-3.6813	-3.7271	-3.5792	-3.6583	103.606	225.474	195.981	97.990	300.632	170.953	428.139	89.040	214.585	117.764	126.778	128.217	252.749	404.952	435.320	431.077	0.00071956	0.00028742	6.4336e-05	1151.8	5.3511e-06	2.0338e-06	1212.7	237.62	8.9337e-06	4.7968e-06	296.55	83.036	65.331	18.647	5.3053e-06	26.138	0.00039736	0.00036084	9.2623e-05	1153.8	4.0447e-06	3.8857e-06	1213	238.61	3.9907e-06	3.7805e-06	300.49	84.457	66.212	19.159	3.6857e-06	27.077	345.295	170.778	207.874	97.923	238.728	233.650	97.694	105.422	255.070	264.011	105.132	111.407	111.939	118.684	247.220	118.066	-8191	255	
354.107	1	1	0	0	0.23822	0.17132	0.26365	0.25841	0.25632	0.14487	0.15251	0.34088	0.32031	0.17286	0.36657	0.096594	0.056994	0.071447	0.19196	0.12839	-3.0708	-3.4104	-3.9313	-3.7167	-3.8063	-3.7938	-3.5479	-3.8271	-3.6583	-3.4104	-3.8667	-3.6708	-3.7625	-3.8125	-3.425	-3.9042	422.273	269.603	413.412	383.578	282.457	288.504	436.058	372.207	411.181	272.539	221.024	88.568	333.709	308.678	395.082	169.075	0.00072426	0.00014458	5.4849e-05	1140.8	6.149e-06	2.82e-06	1211	236.44	1.0204e-05	3.1393e-06	297.04	83.033	65.586	18.563	5.7042e-06	26.503	0.00038599	0.00034862	9.2267e-05	1151.8	3.967e-06	3.883e-06	1212.9	238.32	3.694e-06	3.7429e-06	300.79	84.532	66.273	19.155	3.5704e-06	27.115	351.279	163.146	211.816	97.710	241.879	255.926	97.865	105.051	279.868	234.293	104.685	111.186	111.764	118.494	259.169	117.994	-8191	255	
354.203	1	1	0	0	0.069722	0.11797	0.18355	0.19997	0.062727	0.15246	0.27836	0.21724	0.12972	0.12666	0.10665	0.21727	0.20784	0.1162	0.1726	0.10824	-3.2146	-3.4	-3.7625	-3.6458	-3.6667	-3.7583	-3.5667	-3.7062	-3.6104	-3.5958	-3.9062	-3.4833	-3.6021	-3.6771	-3.4854	-3.7479	285.066	371.763	183.904	407.929	129.123	128.123	356.282	349.609	174.297	168.101	126.185	378.288	347.007	252.257	278.116	183.020	0.00079383	0.00031824	2.8192e-05	1153.1	6.4947e-06	4.4028e-06	1214.2	237.08	5.2217e-06	3.0637e-06	296.72	83.567	65.104	18.757	5.6511e-06	26.473	0.00040037	0.00035219	9.0442e-05	1151	3.8871e-06	3.576e-06	1210.3	238.25	3.7624e-06	3.8379e-06	300.13	84.506	66.211	19.253	3.6738e-06	27.173	346.685	175.965	165.468	97.815	228.133	236.201	98.034	105.509	291.973	211.924	105.348	111.685	112.199	118.934	228.124	118.181	-8191	255	
354.300	1	1	0	0	0.20602	0.2176	0.18571	0.053254	0.03669	0.10433	0.18973	0.15059	0.18084	0.049908	0.22933	0.17358	0.17959	0.087679	0.19095	0.049801	-3.2333	-3.3125	-3.7938	-3.6312	-3.6167	-3.8792	-3.4813	-3.9188	-3.7562	-3.3646	-3.8458	-3.5021	-3.525	-3.8333	-3.4625	-3.7625	149.670	125.013	141.775	334.950	421.251	282.061	329.043	90.156	442.386	234.278	431.719	118.229	140.044	207.949	167.807	379.565	0.00075318	0.00022112	5.5056e-05	1156.7	1.0311e-05	2.3748e-06	1218	237.08	9.7036e-06	3.7965e-06	298.2	83.351	66.002	18.813	3.4304e-06	26.324	0.00039341	0.00033934	9.1132e-05	1152.9	4.0831e-06	3.6876e-06	1213.6	238.58	3.596e-06	3.9955e-06	300.39	84.427	66.271	19.216	3.5412e-06	27.127	351.069	174.958	180.349	98.208	236.507	266.110	97.748	105.380	259.067	220.686	105.297	111.638	112.026	118.778	230.955	117.940	-8191	255	
354.396	1	1	0	0	0.21361	0.093157	0.074222	0.41183	0.015616	0.17317	0.28752	0.12132	0.23123	0.14858	0.084488	0.077464	0.15101	0.13911	0.070063	0.087979	-3.2854	-3.4562	-3.7625	-3.6833	-3.5021	-3.7896	-3.6813	-3.7021	-3.7562	-3.4667	-3.825	-3.5354	-3.4917	-3.8792	-3.5583	-3.7042	209.867	138.863	291.053	384.383	257.533	186.508	372.074	395.729	135.706	378.236	155.418	139.407	335.724	351.185	94.870	287.574	0.00077388	0.00032418	8.292e-05	1151.4	6.6263e-06	4.9701e-06	1211.6	237.48	1.2794e-05	4.6533e-06	295.1	83.171	65.538	18.509	6.1168e-06	26.172	0.00038216	0.00035545	0.00010217	1152.9	3.9926e-06	3.9514e-06	1210.9	238.77	3.6572e-06	4.3225e-06	300.33	84.353	66.186	19.127	3.8112e-06	27.102	345.237	162.668	182.348	97.852	224.867	245.347	97.784	105.179	282.160	232.715	105.055	111.555	112.015	118.582	250.190	118.030	-8191	255	
354.492	1	1	0	0	0.17711	0.053176	0.028372	0.2888	0.07117	0.16451	0.2036	0.036381	0.043782	0.022789	0.043129	0.1246	0.10713	0.05609	0.30609	0.13682	-3.4375	-3.2958	-3.7646	-3.8229	-3.5812	-3.8521	-3.6937	-3.75	-3.7938	-3.4979	-3.8	-3.7896	-3.6208	-3.9354	-3.5042	-3.6396	207.962	142.730	200.134	111.809	354.325	388.076	445.868	146.379	249.255	410.900	296.842	424.926	141.756	367.153	411.235	342.187	0.00075615	0.00027731	6.5165e-05	1151.5	5.7509e-06	2.6141e-06	1216.6	238.01	8.2664e-06	3.5317e-06	298.79	83.25	65.925	18.79	7.9591e-06	26.572	0.00041149	0.00036378	9.7452e-05	1151.5	4.0914e-06	3.6021e-06	1212.1	238.58	3.7897e-06	3.5888e-06	300.44	84.628	66.369	19.254	3.7212e-06	27.191	347.806	168.316	159.913	98.153	254.560	246.864	97.612	105.464	254.880	254.507	104.828	111.477	111.902	118.769	247.497	118.093	-8191	255	
354.588	1	1	0	0	0.15896	0.3265	0.045217	0.044605	0.14479	0.22996	0.26392	0.26441	0.040519	0.25515	0.092081	0.22827	0.14804	0.18023	0.15275	0.013254	-3.4417	-3.4688	-3.8021	-3.8083	-3.4313	-3.85	-3.7833	-3.5646	-3.8125	-3.2896	-3.5917	-3.6583	-3.4188	-3.7729	-3.5979	-3.3438	263.647	350.935	91.196	331.909	123.835	405.626	379.375	389.011	338.657	231.638	341.754	109.038	428.653	381.147	132.462	117.877	0.00075639	0.00030129	6.8279e-05	1154.3	4.1271e-06	3.2318e-06	1218.1	238.43	1.3597e-05	3.8632e-06	296.34	83.764	65.657	18.872	3.9745e-06	26.622	0.00039757	0.00031823	9.3023e-05	1152.3	3.9278e-06	3.7587e-06	1211.8	238.52	3.6211e-06	3.8101e-06	299.86	84.476	66.201	19.225	3.4552e-06	27.172	349.701	181.027	184.098	97.962	205.130	229.088	97.943	105.347	269.405	250.868	105.252	111.746	111.819	118.924	248.161	117.946	-8191	255	
354.709	1	1	0	0	0.036541	0.21595	0.2409	0.22182	0.12395	0.12608	0.07139	0.22286	0.077628	0.24913	0.16477	0.048354	0.13004	0.11721	0.22789	0.16448	-3.2771	-3.2917	-3.5687	-3.8771	-3.4354	-3.6771	-3.8354	-3.7667	-3.5812	-3.625	-3.6521	-3.7208	-3.4792	-3.7875	-3.6583	-3.4542	264.788	209.387	403.880	423.238	200.800	182.109	167.316	425.135	408.577	155.522	332.288	301.408	377.987	335.424	347.094	325.177	0.00079524	0.000214	0.00012781	1151.3	5.8873e-06	2.4677e-06	1218.6	237.21	1.3223e-05	5.3605e-06	299.46	83.774	65.595	18.659	4.188e-06	26.434	0.00039275	0.00031363	9.2957e-05	1150.4	4.1698e-06	3.5931e-06	1211.3	238.16	3.7978e-06	3.6067e-06	300.42	84.555	66.072	19.157	3.3912e-06	27.183	345.512	168.829	187.029	97.887	238.330	246.747	97.946	105.400	270.297	245.339	105.313	111.350	112.204	118.806	274.707	117.889	-8191	255	
354.805	1	1	0	0	0.338	0.15051	0.27011	0.26064	0.036799	0.16714	0.16042	0.19363	0.14481	0.091425	0.153	0.22721	0.18921	0.25405	0.18899	0.20961	-3.4708	-3.5146	-3.6312	-3.9146	-3.4333	-3.8229	-3.7646	-3.4875	-3.8292	-3.5083	-3.6104	-3.9	-3.5896	-3.7396	-3.7313	-3.5896	181.325	395.934	342.848	88.667	240.870	229.688	339.409	446.571	110.961	367.960	198.062	293.571	179.965	374.556	379.434	325.904	0.00076751	0.00038879	6.7276e-05	1154.6	5.1186e-06	2.9476e-06	1214.2	237.1	9.705e-06	3.9745e-06	298.21	83.008	65.416	18.533	4.4338e-06	26.379	0.00041095	0.00032886	9.4403e-05	1151.3	3.6964e-06	3.2987e-06	1208.6	238.27	3.532e-06	3.6883e-06	299.94	84.241	66.151	19.116	3.3896e-06	27.082	349.089	187.509	175.836	97.896	221.967	227.405	98.076	105.142	285.467	245.185	104.684	111.660	112.174	118.596	266.935	118.011	-8191	255	
354.901	1	1	0	0	0.086844	0.031984	0.17038	0.20452	0.18642	0.088781	0.20551	0.12007	0.1519	0.13471	0.21331	0.1391	0.12277	0.10717	0.20879	0.21717	-3.3729	-3.5167	-3.4437	-3.9146	-3.3229	-3.7812	-3.9354	-3.5812	-3.8229	-3.6667	-3.4792	-3.8812	-3.5542	-3.6458	-3.6646	-3.3125	428.783	173.384	234.226	390.013	418.669	369.563	399.646	311.292	211.833	307.057	330.621	283.172	133.457	337.109	196.742	121.849	0.00076369	0.00039686	8.2896e-05	1132.2	7.4488e-06	2.4633e-06	1185.5	234.17	1.1125e-05	3.5031e-06	296.63	82.312	65.184	18.585	5.6552e-06	26.305	0.00039551	0.00032299	9.0242e-05	1144.6	3.6881e-06	3.6111e-06	1202.4	237.37	3.6667e-06	3.8137e-06	298.97	84.108	66.097	19.139	3.5357e-06	27.12	344.146	180.199	192.671	97.637	240.556	271.578	97.658	105.058	273.791	250.894	104.719	111.449	112.035	118.896	231.561	118.043	-8191	255	
354.997	1	1	0	0	0.039104	0.11868	0.17146	0.12681	0.12916	0.14602	0.056237	0.049616	0.25316	0.20382	0.047678	0.13976	0.15304	0.10095	0.08969	0.20979	-3.3042	-3.5542	-3.4458	-3.7125	-3.5521	-3.5542	-3.8833	-3.425	-3.5125	-3.5708	-3.3792	-3.7729	-3.5438	-3.625	-3.7188	-3.4979	204.866	193.274	434.347	346.085	136.860	251.404	412.124	290.685	361.988	236.172	398.846	306.865	340.695	275.752	418.136	337.114	0.00075813	0.00037168	0.00011092	1145.6	8.2423e-06	3.8303e-06	1204.1	235.29	8.9831e-06	4.465e-06	296.2	82.975	65.154	18.629	5.5787e-06	26.094	0.0003829	0.00030037	9.6406e-05	1146.8	3.9339e-06	3.4085e-06	1204.6	237.36	3.6999e-06	3.5987e-06	299.24	84.292	66.011	19.11	3.4244e-06	27.012	348.476	181.358	188.380	98.013	236.239	228.604	97.813	105.543	263.590	232.284	105.096	111.379	112.018	118.822	248.118	117.838	-8191	255	
355.092	1	1	0	0	0.18126	0.17854	0.24081	0.24218	0.25256	0.1827	0.18788	0.11837	0.13087	0.36233	0.25148	0.15598	0.14075	0.18794	0.26273	0.11639	-3.3688	-3.5958	-3.4333	-3.8104	-3.5708	-3.5812	-4.05	-3.7167	-3.7729	-3.7729	-3.4	-3.6667	-3.7667	-3.4521	-3.7542	-3.8354	293.639	116.566	242.474	445.261	213.395	91.097	364.330	288.857	377.794	298.538	341.383	122.964	431.623	408.741	398.871	256.474	0.00080493	0.00030473	0.00010491	1146.1	6.4655e-06	2.8341e-06	1210.7	235.65	8.0715e-06	4.5162e-06	298.4	82.983	65.375	18.628	4.6426e-06	26.147	0.00039225	0.00029395	9.1132e-05	1146.4	3.6746e-06	3.7146e-06	1206.3	237.32	3.6881e-06	3.6139e-06	299.57	84.313	65.982	19.13	3.3486e-06	27.018	347.042	159.095	165.550	97.996	234.783	242.734	98.110	105.193	265.699	241.164	104.974	111.480	111.954	118.865	240.747	118.395	-8191	255	
355.188	1	1	0	0	0.066772	0.17099	0.18089	0.1913	0.30559	0.2361	0.082705	0.1669	0.18813	0.1549	0.26144	0.208	0.16376	0.10865	0.1395	0.10903	-3.3104	-3.7979	-3.3583	-3.8354	-3.6146	-3.6333	-3.9771	-3.5625	-3.7646	-3.775	-3.4979	-3.7396	-3.7604	-3.6479	-3.7958	-3.5312	349.597	385.054	87.807	396.683	217.718	308.458	264.927	317.403	153.100	445.890	359.432	379.571	444.121	238.007	368.577	140.019	0.00075931	0.0002518	7.3163e-05	1146.1	4.4587e-06	2.6001e-06	1205.8	237.07	1.1885e-05	3.1516e-06	295.49	83.416	65.212	18.517	2.6135e-06	26.331	0.00038241	0.00032783	9.4314e-05	1145.1	3.7032e-06	3.6822e-06	1204.7	237.45	3.5084e-06	3.7098e-06	298.27	84.212	65.875	19.063	3.4615e-06	27.006	348.089	203.733	196.179	98.255	234.355	213.980	97.815	105.470	275.322	229.543	105.015	111.761	112.400	118.693	252.598	118.033	-8191	255	
355.284	1	1	0	0	0.081005	0.10222	0.20338	0.021323	0.13053	0.17329	0.14816	0.14337	0.087463	0.27156	0.11757	0.063356	0.12541	0.23192	0.20235	0.084236	-3.0938	-3.7417	-3.5354	-3.9104	-3.5833	-3.45	-4.1354	-3.6333	-3.6188	-3.8146	-3.5042	-3.8625	-3.5687	-3.4188	-3.6854	-3.3646	131.431	154.400	292.666	359.403	320.369	210.242	444.091	183.305	401.317	131.487	87.062	379.543	162.673	254.112	133.551	358.811	0.00074884	0.00043469	6.8917e-05	1148.6	7.6669e-06	2.3897e-06	1204	235.11	1.2049e-05	3.8946e-06	297.12	82.786	65.484	18.579	5.3085e-06	26.331	0.00039567	0.00032807	9.6584e-05	1146.4	3.8359e-06	3.5679e-06	1204.4	237.06	3.6461e-06	3.544e-06	299.43	84.138	66.041	19.118	3.4915e-06	27.103	347.207	191.685	184.861	98.057	242.007	255.212	97.958	105.018	293.210	265.753	104.788	111.676	112.288	119.014	222.729	117.682	-8191	255	
355.380	1	1	0	0	0.16879	0.092907	0.151	0.083799	0.18015	0.041748	0.16772	0.03304	0.22645	0.17104	0.017971	0.3783	0.22529	0.26768	0.15431	0.087476	-3.1688	-3.7729	-3.4083	-3.8833	-3.5542	-3.4542	-3.9354	-3.6208	-3.475	-3.8187	-3.4354	-3.8	-3.6729	-3.5021	-3.7125	-3.6583	292.441	117.529	434.189	120.533	124.722	161.882	407.957	121.541	319.427	311.616	412.063	373.539	101.262	251.728	231.561	364.301	0.00076122	0.00021608	5.8319e-05	1145.6	7.1443e-06	3.796e-06	1202.3	235.46	9.64e-06	4.8042e-06	295.29	82.999	64.986	18.563	4.5064e-06	26.296	0.00040062	0.00032124	9.1911e-05	1143.7	3.9708e-06	3.7668e-06	1203	236.83	3.5894e-06	3.51e-06	299.03	84.276	65.925	19.105	3.5436e-06	27.067	347.979	182.572	179.990	97.982	224.108	239.572	97.934	105.449	263.505	244.931	104.971	111.376	112.367	118.839	249.487	118.199	-8191	255	
355.501	1	1	0	0	0.064249	0.21792	0.064171	0.16734	0.19195	0.12795	0.28021	0.089117	0.16394	0.14578	0.098236	0.040262	0.19919	0.19789	0.088988	0.032593	-3.3729	-3.7833	-3.4896	-3.6562	-3.7542	-3.5125	-3.8583	-3.7708	-3.3875	-3.775	-3.4625	-3.5521	-3.8438	-3.5333	-3.8583	-3.7062	207.053	426.776	141.076	382.285	324.067	155.975	391.893	434.513	305.486	108.740	215.471	216.260	109.655	95.486	118.385	264.871	0.00076237	0.00024101	0.00010034	1140	5.5666e-06	3.6444e-06	1201.2	234.57	9.2757e-06	2.413e-06	295.9	83.485	65.111	18.61	3.8246e-06	26.211	0.00038064	0.00034569	9.2667e-05	1144.1	3.8065e-06	3.6093e-06	1204	236.77	3.5519e-06	3.6712e-06	298.69	84.281	65.933	19.115	3.2925e-06	27.01	348.754	189.233	180.243	97.919	235.344	252.379	97.962	105.233	240.318	218.343	105.050	111.597	112.076	119.106	242.002	117.960	-8191	255	
355.597	1	1	0	0	0.070612	0.17599	0.20488	0.42835	0.17884	0.30125	0.24138	0.16828	0.056603	0.15826	0.13353	0.11946	0.24489	0.073336	0.32201	0.14656	-2.8104	-3.4896	-3.6083	-3.4667	-3.5563	-3.4083	-3.7229	-3.7604	-3.5708	-3.7125	-3.4042	-3.5563	-3.8083	-3.4667	-3.625	-3.7375	255.454	320.550	342.667	384.539	97.865	235.658	406.629	89.133	298.251	183.227	304.616	420.846	409.427	346.217	316.237	439.036	0.00075125	0.00025392	0.0001182	1140.4	6.8035e-06	2.5686e-06	1196.2	234.64	6.2985e-06	4.9517e-06	296.72	82.093	65.101	18.666	5.1964e-06	26.229	0.0004009	0.00031609	9.2756e-05	1144.4	3.7989e-06	3.6381e-06	1202.9	236.82	3.6446e-06	3.5646e-06	299.12	83.974	65.919	19.11	3.3944e-06	27.093	348.095	179.399	178.662	98.080	231.539	257.100	97.548	105.288	285.742	243.212	104.962	111.147	111.766	118.501	257.689	118.026	-8191	255	
355.668	1	1	0	0	0.27451	0.2149	0.081183	0.40965	0.23326	0.24682	0.23436	0.0733	0.063195	0.12117	0.11221	0.19124	0.1276	0.095709	0.18819	0.13161	-2.9333	-3.5687	-3.5417	-3.7562	-3.7917	-3.5667	-3.7812	-3.8083	-3.4375	-3.8875	-3.6375	-3.4437	-3.875	-3.5375	-3.7229	-3.8458	401.400	131.630	444.926	410.167	427.660	121.985	442.040	383.711	97.517	414.542	100.105	230.287	446.881	378.454	216.301	390.156	0.00078736	0.00023784	8.8888e-05	1139.7	4.5268e-06	3.6749e-06	1198.1	234.11	7.7079e-06	4.6321e-06	292.04	81.814	64.878	18.29	6.0332e-06	26.135	0.00040412	0.00030664	8.8239e-05	1143.8	3.9075e-06	3.5832e-06	1203.4	236.82	3.7168e-06	3.4195e-06	297.39	83.994	65.842	19.04	3.4623e-06	27.045	348.783	199.361	184.574	97.886	219.640	246.211	97.777	105.236	277.207	246.807	104.857	111.480	112.015	118.542	249.638	117.909	-8191	255	
355.789	1	1	0	0	0.27858	0.21465	0.28783	0.024328	0.11007	0.26957	0.079458	0.14282	0.16161	0.096488	0.1628	0.15142	0.062919	0.050964	0.16819	0.19162	-3.0458	-3.5625	-3.6792	-3.4229	-3.8438	-3.5312	-3.6437	-3.8042	-3.5917	-3.6146	-3.6333	-3.4792	-3.9021	-3.4583	-3.6479	-3.8271	221.685	399.240	90.263	318.895	125.872	174.846	392.537	228.790	111.576	115.046	219.506	379.493	125.816	153.187	149.378	270.420	0.00071812	0.00030397	8.7133e-05	1137.5	5.396e-06	2.576e-06	1199.9	235.58	8.1585e-06	4.1564e-06	295.74	82.657	65.211	18.568	6.2082e-06	26.043	0.00039065	0.00032958	9.1555e-05	1143	3.8562e-06	3.4121e-06	1202.6	236.92	3.596e-06	3.5637e-06	298.42	84.169	65.881	19.097	3.557e-06	27.037	348.632	191.026	152.526	98.316	218.033	232.825	97.804	105.345	280.322	224.006	104.708	111.264	111.591	118.830	241.972	118.044	-8191	255	
355.885	1	1	0	0	0.18634	0.10409	0.12461	0.29832	0.1168	0.16856	0.08835	0.16995	0.22493	0.074663	0.090485	0.13656	0.090053	0.055163	0.048131	0.2369	-3.1917	-3.7188	-3.6437	-3.35	-3.7021	-3.6437	-3.7208	-3.8833	-3.5771	-3.7958	-3.6896	-3.5438	-3.8854	-3.675	-3.5333	-4.0583	111.451	124.055	102.993	386.877	393.720	166.926	395.092	344.029	347.739	231.186	204.896	442.267	354.657	138.480	349.100	365.680	0.00071637	0.00029914	0.00010519	1143.8	7.0407e-06	2.3753e-06	1210.3	236.44	8.7161e-06	3.8955e-06	295.5	82.973	65.255	18.634	5.3239e-06	26.27	0.00039085	0.00034593	9.6339e-05	1144.6	3.973e-06	3.783e-06	1205.1	237.14	3.6343e-06	3.6435e-06	298.33	84.2	66.021	19.14	3.6233e-06	27.062	350.378	154.419	179.146	98.086	228.079	247.120	97.906	105.113	287.766	243.272	104.597	111.295	112.000	119.187	239.918	117.968	-8191	255	
355.981	1	1	0	0	0.14872	0.031679	0.14691	0.13894	0.098215	0.074148	0.31594	0.20286	0.16648	0.25659	0.25593	0.2169	0.088872	0.12103	0.065469	0.19943	-3.0292	-3.6604	-3.5854	-3.3646	-3.65	-3.6396	-3.4896	-3.8521	-3.5875	-3.6542	-3.6562	-3.5958	-3.7333	-3.7625	-3.4208	-4.0542	134.152	198.372	122.650	88.691	283.677	152.321	367.137	100.753	160.188	353.138	108.553	403.238	406.528	427.620	185.170	202.920	0.00079076	0.00026685	0.00010314	1145.2	6.6895e-06	2.8493e-06	1205	236.85	6.6537e-06	4.8154e-06	297.29	83.11	65.803	18.818	4.0976e-06	26.485	0.000396	0.00031966	8.6369e-05	1144.9	3.8434e-06	3.4652e-06	1204.1	237.51	3.518e-06	3.6014e-06	298.3	84.139	66.03	19.158	3.4228e-06	27.168	350.253	216.653	169.241	97.824	227.548	266.323	97.879	105.642	282.441	219.941	104.919	111.916	112.377	118.859	254.097	118.295	-8191	255	
356.078	1	1	0	0	0.11883	0.20844	0.16069	0.14007	0.1267	0.23779	0.33225	0.20234	0.031009	0.058292	0.090305	0.1457	0.25739	0.021279	0.15009	0.2756	-3.1688	-3.6208	-3.8292	-3.5458	-3.8688	-3.6792	-3.5896	-3.7938	-3.4521	-3.4958	-3.9021	-3.5563	-3.7313	-3.7646	-3.5458	-3.7812	322.763	404.925	172.557	410.105	134.821	447.385	281.365	412.044	353.130	242.728	303.240	89.375	175.846	281.582	230.138	264.376	0.0007425	0.00029043	6.5194e-05	1152.2	8.8147e-06	2.1998e-06	1211.1	236.88	1.2157e-05	4.1364e-06	296.64	83.285	65.494	18.613	5.2633e-06	26.315	0.00037178	0.00032013	8.9797e-05	1145.2	3.7959e-06	3.5282e-06	1205.6	237.16	3.5614e-06	3.4831e-06	298.81	84.175	65.962	19.09	3.6415e-06	27.021	349.793	187.656	181.305	98.033	232.050	232.389	97.941	105.526	270.829	251.958	105.221	111.543	111.830	118.980	243.075	118.337	-8191	255	
356.196	1	1	0	0	0.1287	0.036598	0.17198	0.29614	0.090785	0.21133	0.13756	0.17421	0.16323	0.16873	0.15152	0.21836	0.087029	0.088025	0.023336	0.16943	-3.0958	-3.4708	-3.6958	-3.7229	-3.7042	-3.7292	-3.5833	-3.7146	-3.5417	-3.5521	-4	-3.5333	-3.6896	-3.8792	-3.5875	-3.7875	417.073	265.542	280.569	401.412	132.151	135.167	351.672	429.242	411.236	421.806	106.450	128.346	426.037	268.815	434.016	203.000	0.0007178	0.00033031	7.8819e-05	1139.7	6.2983e-06	2.832e-06	1202.6	234.13	1.379e-05	2.3821e-06	293.13	81.596	64.15	18.344	5.9013e-06	25.755	0.00038435	0.00032497	9.2601e-05	1142.4	4.0627e-06	3.3437e-06	1202.6	236.53	3.6608e-06	3.6399e-06	298.32	83.889	65.734	19.094	3.8499e-06	26.918	348.481	182.900	170.531	98.259	254.076	235.684	97.948	105.136	274.608	205.129	104.965	111.398	111.600	118.789	245.505	117.542	-8191	255	
356.293	1	1	0	0	0.039115	0.25924	0.12294	0.34226	0.17478	0.26667	0.26016	0.094777	0.076012	0.27962	0.072214	0.084972	0.080252	0.22715	0.15152	0.11302	-3.3583	-3.4458	-3.7771	-3.5042	-3.6625	-3.775	-3.5979	-3.8083	-3.7146	-3.5354	-3.7292	-3.45	-3.4396	-3.9271	-3.4875	-3.8417	276.336	417.989	295.016	408.404	206.984	358.769	352.550	89.274	225.344	188.703	126.729	220.462	154.073	243.567	136.222	161.829	0.00076448	0.00042695	6.1265e-05	1120.1	4.6705e-06	2.3654e-06	1187.4	232.66	9.7724e-06	3.0054e-06	290.86	81.563	64.195	18.252	5.5601e-06	25.7	0.00039258	0.00034307	9.6606e-05	1140.5	3.9806e-06	3.7938e-06	1201	236.85	3.8567e-06	4.0027e-06	298.23	83.834	65.783	19.052	3.527e-06	26.974	348.778	192.843	156.260	97.637	212.492	230.762	97.461	104.890	297.190	267.915	104.386	111.167	111.981	118.625	253.895	117.928	-8191	255	
356.389	1	1	0	0	0.067928	0.12749	0.071482	0.23495	0.040775	0.10722	0.11223	0.083375	0.17965	0.061074	0.37405	0.2396	0.35057	0.056887	0.02417	0.1059	-3.2375	-3.4729	-3.7083	-3.7021	-3.6312	-3.9146	-3.6083	-3.7313	-3.6417	-3.4333	-3.7042	-3.775	-3.4771	-3.8646	-3.3479	-3.6688	254.683	147.029	327.576	427.147	107.218	428.605	334.661	361.524	278.247	146.013	360.494	403.165	418.379	407.011	261.926	434.877	0.00072627	0.00033187	9.1551e-05	1126.6	5.88e-06	2.6909e-06	1186.8	233.49	1.4957e-05	3.7923e-06	292.72	81.886	64.195	18.171	5.6847e-06	25.951	0.00038616	0.00036719	9.5271e-05	1140.5	4.2225e-06	3.7533e-06	1201	236.85	3.7116e-06	4.0341e-06	298.59	83.864	65.711	19.056	3.6762e-06	27.014	349.304	191.400	181.239	97.757	230.308	257.736	97.569	104.920	275.557	264.004	104.779	111.403	111.413	118.455	243.773	117.725	-8191	255	
356.485	1	1	0	0	0.20105	0.12963	0.1098	0.076492	0.28959	0.14776	0.191	0.13561	0.019089	0.065554	0.073672	0.1267	0.10914	0.23478	0.11948	0.050637	-3.3812	-3.3	-3.6583	-3.6229	-3.4333	-3.8021	-3.6542	-3.7167	-3.7083	-3.3	-3.7458	-3.6896	-3.4125	-3.8271	-3.5875	-3.5458	445.433	254.532	109.019	343.705	337.521	412.310	370.770	337.956	357.194	102.641	261.553	183.122	442.246	420.344	109.827	394.075	0.00076664	0.00031094	9.1683e-05	1123.7	5.476e-06	7.4898e-07	1188.6	232.65	8.7463e-06	3.0469e-06	291.92	82.668	64.437	18.361	6.3028e-06	26.03	0.00040482	0.00034926	9.6651e-05	1141.5	4.1306e-06	3.5372e-06	1200.3	236.49	3.7131e-06	4.0152e-06	297.88	84.089	65.689	19.067	3.5428e-06	26.962	349.221	160.777	185.333	97.691	240.154	259.753	97.694	105.073	283.318	255.607	104.593	111.447	111.641	118.703	254.752	117.780	-8191	255	
356.581	1	1	0	0	0.10894	0.23857	0.16952	0.10286	0.21107	0.029405	0.27947	0.14817	0.21507	0.14364	0.15235	0.23383	0.23685	0.21762	0.24952	0.15559	-3.2042	-3.3458	-3.6792	-3.7812	-3.5687	-3.6063	-3.5854	-3.5021	-3.6979	-3.4917	-3.5396	-3.7229	-3.55	-3.7604	-3.4958	-3.4375	198.000	261.042	342.592	90.056	377.777	338.368	420.239	359.202	129.022	388.600	442.052	160.355	163.733	97.107	176.396	394.556	0.00076968	0.00031377	9.1675e-05	1123.8	5.2913e-06	3.5146e-06	1187.1	231.23	1.1381e-05	4.5897e-06	291.08	81.614	64.172	18.327	3.5856e-06	25.892	0.00040716	0.00036997	0.00010282	1141.3	4.2964e-06	4.2206e-06	1202.2	236.48	4.0732e-06	4.146e-06	298.14	83.941	65.721	19.058	3.8854e-06	27.019	348.798	168.529	170.967	97.497	233.576	283.261	97.392	104.880	276.606	245.895	104.990	111.113	111.812	118.722	264.480	117.789	-8191	255	
356.677	1	1	0	0	0.16796	0.18801	0.11524	0.3054	0.1166	0.076817	0.25731	0.18963	0.12509	0.051145	0.18842	0.18375	0.098965	0.14954	0.16368	0.061424	-3.5146	-3.2792	-3.7188	-3.8021	-3.3375	-3.65	-3.6688	-3.6021	-3.75	-3.4521	-3.7521	-3.8708	-3.5896	-3.7458	-3.7417	-3.5667	397.382	222.633	411.714	343.644	115.723	159.497	392.243	364.326	267.113	341.188	373.244	429.112	426.315	244.964	301.184	275.640	0.00073293	0.00035426	4.8328e-05	1133.2	5.473e-06	3.752e-06	1182.3	234.17	7.187e-06	6.2744e-06	292.82	81.82	64.482	18.456	5.2768e-06	26.174	0.00040379	0.00035688	0.00010104	1144.6	4.3823e-06	3.8514e-06	1202.1	237.22	3.8317e-06	4.1201e-06	298.73	84.135	65.944	19.093	3.8854e-06	27.06	351.369	199.550	191.130	97.728	246.360	217.493	97.569	105.087	276.348	237.068	104.487	111.233	111.860	118.807	246.799	117.482	-8191	255	
356.798	1	1	0	0	0.15999	0.15409	0.17476	0.21003	0.075635	0.054553	0.18842	0.028771	0.1381	0.18933	0.1618	0.21321	0.15976	0.15384	0.012829	0.11123	-3.4021	-3.5021	-3.5646	-3.975	-3.4083	-3.8312	-3.7333	-3.4729	-3.6562	-3.5396	-3.4854	-3.8854	-3.4188	-3.725	-3.525	-3.5	271.895	316.355	245.518	315.600	248.794	208.579	404.943	197.797	175.020	437.028	307.113	388.586	435.647	306.527	87.689	436.307	0.00075519	0.00021872	5.741e-05	1118.8	7.0093e-06	3.4872e-06	1198.9	233.68	1.2156e-05	2.3824e-06	291	82.168	64.683	18.478	3.2499e-06	26.278	0.00039094	0.00033831	9.7207e-05	1141.3	4.0567e-06	3.7659e-06	1203.2	236.95	3.638e-06	3.5816e-06	298.71	83.953	65.856	19.115	3.4915e-06	27.092	346.284	178.262	154.227	97.392	229.163	227.446	97.781	105.166	267.170	218.295	104.586	111.296	111.776	118.799	209.651	118.228	-8191	255	
356.892	1	1	0	0	0.17597	0.18419	0.13062	0.30167	0.10573	0.11464	0.26307	0.13138	0.031818	0.13107	0.1961	0.16134	0.14441	0.16434	0.078867	0.12733	-3.3	-3.3937	-3.4188	-4.0583	-3.3729	-3.6771	-3.9333	-3.4083	-3.8167	-3.6188	-3.5667	-3.9	-3.5396	-3.7938	-3.7646	-3.3208	213.439	425.493	150.398	401.768	341.261	206.607	425.169	342.302	264.387	210.892	330.704	385.033	439.354	133.001	410.688	196.879	0.00072489	0.00033721	0.00010444	1139.6	7.0223e-06	2.0023e-06	1203.8	233.97	1.2768e-05	2.7277e-06	294.85	81.357	64.358	18.304	4.851e-06	25.574	0.00039357	0.00033585	0.00010017	1145.5	4.0673e-06	3.8154e-06	1205.3	236.97	3.7691e-06	3.9203e-06	299.5	83.852	65.787	19.076	3.8238e-06	26.958	353.993	171.036	191.880	97.832	226.832	289.070	97.873	105.390	284.567	231.407	104.861	111.228	111.863	118.482	261.552	117.418	-8191	255	
356.966	1	1	0	0	0.31451	0.17104	0.060363	0.25692	0.082443	0.0979	0.21472	0.15156	0.20301	0.22858	0.21482	0.060891	0.15487	0.24859	0.015735	0.092647	-3.4188	-3.6042	-3.5542	-3.9521	-3.6	-3.5979	-3.9062	-3.4062	-3.8458	-3.7333	-3.4437	-3.7833	-3.4083	-3.775	-3.7979	-3.4729	255.720	432.581	440.899	393.457	414.428	371.138	412.957	357.711	304.936	296.093	442.896	263.679	256.794	228.765	422.821	296.274	0.00073681	0.0003123	0.00012582	1134.9	7.0528e-06	3.6129e-06	1186.9	231.88	7.1794e-06	4.5552e-06	294.99	82.12	64.488	18.244	4.0708e-06	26.072	0.00041417	0.00035275	9.7875e-05	1144.8	4.166e-06	3.9559e-06	1202.3	236.56	3.8029e-06	3.8916e-06	298.96	84.124	65.94	19.058	3.6943e-06	27.029	350.296	172.463	184.141	97.844	218.727	237.701	97.736	104.824	287.186	248.235	105.185	111.486	111.725	118.727	226.324	117.837	-8191	255	
357.062	1	1	0	0	0.31651	0.17909	0.19865	0.29776	0.23585	0.1587	0.27305	0.15397	0.14687	0.1566	0.19233	0.15986	0.13809	0.081079	0.15007	0.10865	-3.3833	-3.5771	-3.3458	-3.85	-3.4813	-3.6396	-4.0625	-3.5187	-3.7542	-3.7104	-3.5229	-3.8396	-3.55	-3.6042	-3.9083	-3.6042	226.724	324.023	317.161	400.834	332.363	276.871	379.763	116.179	302.478	396.170	296.019	382.737	151.210	347.688	242.333	375.449	0.00068328	0.00033383	0.00010932	1134.8	6.5713e-06	4.1183e-06	1189.6	234.15	9.6189e-06	4.4177e-06	294.19	82.394	64.818	18.516	5.834e-06	26.085	0.00039551	0.00035497	9.8365e-05	1144.8	4.0861e-06	3.8397e-06	1201.5	237.37	3.6785e-06	3.5601e-06	299.87	84.148	65.874	19.132	3.7109e-06	27.069	348.668	189.936	181.859	97.612	224.165	259.072	97.658	105.106	287.343	241.305	105.025	111.609	111.865	118.787	245.303	118.218	-8191	255	
#DATA ENDS
