BOXY.EXE: ISS Imagent and Oximeter Data Acquisition Program Version 0.80
Ascii Record File

#ACQ INFORMATION
2  Detector Channels 
16  External MUX Channels 
1  Auxiliary Channels 
5000  Waveform (CCF) Frequency (Hz)
1  Waveforms Skipped 
30  Waveforms Averaged 
1  Cycles Averaged 
16  Acquisitions per Waveform 
10.0806  Updata Rate (Hz) 

#FILE INFORMATION
TRUE -- External MUX Channel results are PARSED.
FALSE -- AC DC and Phase are NOT grouped.
TRUE -- Companion Program Settings File CREATED.
FALSE -- AC data not excluded
FALSE -- DC data not excluded
FALSE -- Phase data not excluded
FALSE -- Auxillary Chn. data not excluded
Tab delimiters

#CALIBRATION STATE
TRUE -- Waveform Calibration Values APPLIED.


#AUX CALIBRATION VALUES
Val Type	aux-1	

Term	1.0000e+00	
Factor	0.0000e+00	


#WF CALIBRATION VALUES
A = Detector Channel
Val Type	A-AC1	A-AC2	A-AC3	A-AC4	A-AC5	A-AC6	A-AC7	A-AC8	A-AC9	A-AC10	A-AC11	A-AC12	A-AC13	A-AC14	A-AC15	A-AC16	A-DC1	A-DC2	A-DC3	A-DC4	A-DC5	A-DC6	A-DC7	A-DC8	A-DC9	A-DC10	A-DC11	A-DC12	A-DC13	A-DC14	A-DC15	A-DC16	A-Ph1	A-Ph2	A-Ph3	A-Ph4	A-Ph5	A-Ph6	A-Ph7	A-Ph8	A-Ph9	A-Ph10	A-Ph11	A-Ph12	A-Ph13	A-Ph14	A-Ph15	A-Ph16	

Term	0.00000e+00	0.00000e+00	0.00000e+00	0.00000e+00	0.00000e+00	0.00000e+00	0.00000e+00	0.00000e+00	0.00000e+00	0.00000e+00	0.00000e+00	0.00000e+00	0.00000e+00	0.00000e+00	0.00000e+00	0.00000e+00	0.00000e+00	0.00000e+00	0.00000e+00	0.00000e+00	0.00000e+00	0.00000e+00	0.00000e+00	0.00000e+00	0.00000e+00	0.00000e+00	0.00000e+00	0.00000e+00	0.00000e+00	0.00000e+00	0.00000e+00	0.00000e+00	0.00000e+00	0.00000e+00	0.00000e+00	0.00000e+00	0.00000e+00	0.00000e+00	0.00000e+00	0.00000e+00	0.00000e+00	0.00000e+00	0.00000e+00	0.00000e+00	0.00000e+00	0.00000e+00	0.00000e+00	0.00000e+00	
Factor	1.00000e+00	1.00000e+00	1.00000e+00	1.00000e+00	1.00000e+00	1.00000e+00	1.00000e+00	1.00000e+00	1.00000e+00	1.00000e+00	1.00000e+00	1.00000e+00	1.00000e+00	1.00000e+00	1.00000e+00	1.00000e+00	1.00000e+00	1.00000e+00	1.00000e+00	1.00000e+00	1.00000e+00	1.00000e+00	1.00000e+00	1.00000e+00	1.00000e+00	1.00000e+00	1.00000e+00	1.00000e+00	1.00000e+00	1.00000e+00	1.00000e+00	1.00000e+00	X	X	X	X	X	X	X	X	X	X	X	X	X	X	X	X	

B = Detector Channel
Val Type	B-AC1	B-AC2	B-AC3	B-AC4	B-AC5	B-AC6	B-AC7	B-AC8	B-AC9	B-AC10	B-AC11	B-AC12	B-AC13	B-AC14	B-AC15	B-AC16	B-DC1	B-DC2	B-DC3	B-DC4	B-DC5	B-DC6	B-DC7	B-DC8	B-DC9	B-DC10	B-DC11	B-DC12	B-DC13	B-DC14	B-DC15	B-DC16	B-Ph1	B-Ph2	B-Ph3	B-Ph4	B-Ph5	B-Ph6	B-Ph7	B-Ph8	B-Ph9	B-Ph10	B-Ph11	B-Ph12	B-Ph13	B-Ph14	B-Ph15	B-Ph16	

Term	0.00000e+00	0.00000e+00	0.00000e+00	0.00000e+00	0.00000e+00	0.00000e+00	0.00000e+00	0.00000e+00	0.00000e+00	0.00000e+00	0.00000e+00	0.00000e+00	0.00000e+00	0.00000e+00	0.00000e+00	0.00000e+00	0.00000e+00	0.00000e+00	0.00000e+00	0.00000e+00	0.00000e+00	0.00000e+00	0.00000e+00	0.00000e+00	0.00000e+00	0.00000e+00	0.00000e+00	0.00000e+00	0.00000e+00	0.00000e+00	0.00000e+00	0.00000e+00	4.67397e+01	-1.30593e+02	-1.28560e+02	-1.82133e+02	-7.13561e+01	-6.37854e+01	-1.59775e+02	-1.62015e+02	-3.55692e+01	-6.66304e+01	-1.82301e+02	-1.72751e+02	-1.82364e+02	-1.77708e+02	-6.69385e+01	-1.50988e+02	
Factor	5.16967e-05	2.20746e-04	6.02337e-05	2.02139e-01	3.18311e-06	2.24735e-06	1.81842e-01	6.28231e-02	4.81416e-06	2.76037e-06	1.95858e-01	3.19635e-02	2.65861e-02	9.75009e-03	3.16166e-06	1.39849e-02	1.97713e-05	3.80923e-05	1.06821e-05	9.89599e-02	3.61803e-07	4.32140e-07	8.38008e-02	3.08556e-02	3.53419e-07	4.30013e-07	9.30715e-02	1.52886e-02	1.31760e-02	4.84352e-03	3.78907e-07	6.73875e-03	X	X	X	X	X	X	X	X	X	X	X	X	X	X	X	X	



#DISTANCE SETTINGS
A = Detector Channel
A-1	A-2	A-3	A-4	A-5	A-6	A-7	A-8	A-9	A-10	A-11	A-12	A-13	A-14	A-15	A-16	

2.5000e+00	3.0000e+00	2.5000e+00	3.0000e+00	2.0000e+00	3.0000e+00	1.5000e+00	3.0000e+00	3.0000e+00	3.0000e+00	3.0000e+00	3.0000e+00	3.0000e+00	3.0000e+00	1.5000e+00	3.0000e+00	

B = Detector Channel
B-1	B-2	B-3	B-4	B-5	B-6	B-7	B-8	B-9	B-10	B-11	B-12	B-13	B-14	B-15	B-16	

1.0000e+01	1.0000e+01	1.0000e+01	1.4400e+00	1.0000e+01	1.0000e+01	1.5100e+00	1.9400e+00	1.0000e+01	1.0000e+01	1.9900e+00	2.4900e+00	2.4100e+00	2.9000e+00	1.0000e+01	2.9800e+00	




#DATA BEGINS
time	group	step	mark	flag	A-AC1	A-AC2	A-AC3	A-AC4	A-AC5	A-AC6	A-AC7	A-AC8	A-AC9	A-AC10	A-AC11	A-AC12	A-AC13	A-AC14	A-AC15	A-AC16	A-DC1	A-DC2	A-DC3	A-DC4	A-DC5	A-DC6	A-DC7	A-DC8	A-DC9	A-DC10	A-DC11	A-DC12	A-DC13	A-DC14	A-DC15	A-DC16	A-Ph1	A-Ph2	A-Ph3	A-Ph4	A-Ph5	A-Ph6	A-Ph7	A-Ph8	A-Ph9	A-Ph10	A-Ph11	A-Ph12	A-Ph13	A-Ph14	A-Ph15	A-Ph16	B-AC1	B-AC2	B-AC3	B-AC4	B-AC5	B-AC6	B-AC7	B-AC8	B-AC9	B-AC10	B-AC11	B-AC12	B-AC13	B-AC14	B-AC15	B-AC16	B-DC1	B-DC2	B-DC3	B-DC4	B-DC5	B-DC6	B-DC7	B-DC8	B-DC9	B-DC10	B-DC11	B-DC12	B-DC13	B-DC14	B-DC15	B-DC16	B-Ph1	B-Ph2	B-Ph3	B-Ph4	B-Ph5	B-Ph6	B-Ph7	B-Ph8	B-Ph9	B-Ph10	B-Ph11	B-Ph12	B-Ph13	B-Ph14	B-Ph15	B-Ph16	aux-1	digaux	

1234.296	1	1	0	768	0.13916	0.15209	0.03066	0.23679	0.21144	0.078924	0.25373	0.18817	0.16647	0.047475	0.11838	0.051545	0.13355	0.15555	0.02443	0.11555	-2.9	-3.3771	-3.0208	-3.5187	-3.2125	-3.2687	-3.6604	-3.1458	-3.4083	-3.4042	-3.0896	-3.5708	-3.2979	-3.1271	-3.4833	-3.1729	233.559	84.645	99.476	268.309	11.258	54.114	201.920	144.522	-64.378	145.327	-46.642	267.134	212.342	39.315	-0.937	271.419	0.00038163	0.013867	0.00036837	1233.9	5.9815e-06	8.0105e-06	1519.9	303.93	1.9039e-05	7.7839e-06	465.56	138.7	79.001	16.937	1.3138e-05	39.827	0.0035758	0.024171	0.0029163	1162.1	6.2667e-05	7.2174e-05	1424	307.22	6.1272e-05	7.2377e-05	451.49	133.25	86.34	16.822	6.6201e-05	38.745	-9.061	-42.321	69.409	-72.590	233.966	99.386	-71.984	-67.783	67.431	127.972	-67.420	-62.804	-64.673	-58.209	114.161	-58.448	-8191	255	
1234.392	1	1	0	0	0.14024	0.095298	0.050074	0.28106	0.14146	0.21041	0.045485	0.19498	0.28157	0.14698	0.11404	0.14885	0.034037	0.18501	0.11171	0.15525	-2.8521	-3.325	-3.1583	-3.6729	-3.3604	-3.1042	-3.6875	-3.225	-3.2	-3.3354	-3.1271	-3.5062	-3.3812	-3.2021	-3.6125	-3.4437	3.054	67.831	94.648	190.210	193.287	113.289	128.516	218.527	-21.031	196.768	171.766	247.123	239.321	-71.676	228.359	225.710	0.00035478	0.012423	0.00046975	1238.3	4.3133e-07	2.2143e-06	1516.3	306.11	1.7552e-05	1.8317e-06	474.78	139.99	80.326	17.315	1.2503e-05	40.005	0.0035353	0.0082187	0.0065517	1165.6	6.2252e-05	7.3147e-05	1431.9	312.23	6.153e-05	7.362e-05	457.61	134.5	85.861	16.988	6.7865e-05	38.935	-13.508	-31.280	74.075	-72.420	-22.037	142.755	-71.945	-67.523	76.324	122.466	-67.321	-62.863	-64.434	-58.661	66.615	-58.412	-8191	255	
1234.489	1	1	0	0	0.10065	0.07697	0.063658	0.16268	0.013359	0.24592	0.056037	0.32342	0.19185	0.16571	0.089563	0.079003	0.016071	0.037514	0.12625	0.13446	-2.8729	-3.1792	-3.1458	-3.2167	-3.2292	-2.9875	-3.6729	-3.4667	-3.1813	-3.5792	-3.05	-3.3292	-3.1979	-3.125	-3.5854	-3.5583	215.663	252.079	129.377	-37.333	-29.470	133.928	186.114	246.757	192.856	80.606	215.760	167.939	-36.094	-75.599	30.994	15.468	0.00023238	0.00087236	0.0037448	1237.6	9.52e-06	5.6563e-06	1518.1	304.84	1.8951e-05	1.8844e-05	468.45	137.73	80.188	16.426	3.2934e-06	39.465	0.0034436	0.0066234	0.0089888	1167.9	6.3269e-05	7.4142e-05	1429.2	308.87	5.9665e-05	7.4592e-05	452.66	132.74	83.122	17.373	6.6129e-05	38.406	-16.617	-74.951	-24.417	-72.685	8.170	64.524	-71.976	-67.676	68.375	126.050	-66.982	-62.694	-64.389	-59.393	113.005	-58.439	-8191	255	
1234.585	1	1	0	0	0.1581	0.13071	0.16972	0.24068	0.086571	0.096523	0.19807	0.18191	0.13479	0.20754	0.079744	0.082755	0.12386	0.13894	0.19513	0.12147	-2.8792	-3.5021	-3.0354	-3.3667	-3.5333	-3.1792	-3.5646	-3.4771	-3.225	-3.4313	-3.1646	-3.3958	-3.4354	-3.1458	-3.2833	-3.4667	222.660	222.307	197.545	-49.716	107.871	129.007	234.740	226.154	20.756	215.143	221.071	217.786	269.320	216.277	18.351	179.582	0.00042676	0.0014358	0.0029325	1233.2	3.3537e-06	4.1484e-06	1512.8	300.33	1.27e-05	8.5955e-06	465.84	139.64	80.891	16.567	8.2791e-06	39.678	0.0034954	0.0065462	0.0079122	1161.6	6.0957e-05	7.3975e-05	1422	309.64	5.8714e-05	7.3978e-05	449.73	133.34	77.93	19.066	6.5696e-05	38.542	-19.956	105.242	-17.228	-72.470	-26.083	-71.031	-72.062	-67.607	-64.629	139.767	-66.669	-62.760	-64.199	-58.766	134.566	-58.263	-8191	255	
1234.681	1	1	0	0	0.044223	0.051208	0.1492	0.13293	0.15419	0.022366	0.21334	0.21655	0.16241	0.038873	0.24018	0.20602	0.28511	0.11783	0.067387	0.085471	-2.6479	-3.275	-3.225	-3.275	-3.2271	-2.9146	-3.475	-3.5167	-3.1542	-3.5312	-3.4958	-3.3896	-3.525	-3.2458	-3.2521	-3.5187	-68.147	21.190	76.084	-36.611	86.986	222.214	254.786	241.366	218.044	-72.436	233.412	255.108	221.973	137.964	69.620	174.384	0.00026578	0.00068382	0.0036941	1235.6	6.0477e-06	1.3741e-05	1513.6	302.84	7.8009e-06	6.6728e-06	467.84	139.78	80.935	16.593	9.4366e-06	39.695	0.0034786	0.0066255	0.0090717	1164.9	6.2515e-05	7.6191e-05	1428.5	307.87	6.1188e-05	7.5274e-05	452.29	133.43	77.834	20.032	6.5208e-05	38.665	-18.888	6.264	-8.013	-72.580	69.383	11.930	-71.990	-67.734	249.884	10.864	-67.326	-62.786	-63.464	-60.081	81.831	-58.200	-8191	255	
1234.777	1	1	0	0	0.31274	0.24962	0.41456	0.093931	0.1271	0.25612	0.23804	0.26936	0.31236	0.087598	0.098237	0.12412	0.04829	0.11676	0.18752	0.090081	-2.6667	-3.3979	-3.1333	-3.3521	-3.5083	-3.3104	-3.5104	-3.5375	-3.3021	-3.475	-3.3875	-3.2229	-3.6979	-3.0479	-3.2354	-3.4979	210.235	149.612	163.051	-54.005	-75.886	237.623	-64.988	215.497	30.961	25.300	-6.660	185.465	223.838	138.688	7.455	63.910	0.00019697	0.00040018	0.0027888	1236.4	3.1384e-06	1.3932e-05	1518.3	306.86	0.00028098	8.5169e-06	470.62	140.35	80.511	16.882	9.9864e-06	40.154	0.0035938	0.0066976	0.0078097	1168.7	6.3519e-05	7.5707e-05	1432.8	303.42	0.00011881	7.5957e-05	455.65	134.3	78.159	19.719	6.4804e-05	38.966	-43.392	-28.945	-3.372	-72.496	223.869	48.067	-72.135	-67.789	234.500	56.268	-66.980	-62.916	-63.460	-59.861	267.907	-58.249	-8191	255	
1234.896	1	1	0	0	0.18107	0.12624	0.28808	0.30451	0.23049	0.1946	0.41844	0.21684	0.17159	0.093899	0.16663	0.3435	0.36746	0.05436	0.11896	0.38606	-2.5042	-3.2792	-3.3625	-3.3104	-3.5	-3.2604	-3.5917	-3.5625	-3.2583	-3.3771	-3.3563	-3.1229	-3.5375	-3.2438	-3.3583	-3.4896	-29.107	-75.734	-31.039	228.631	-70.428	-60.827	211.564	217.727	132.069	-65.726	37.545	196.796	222.606	87.905	268.130	153.539	0.00033853	0.001041	0.0034166	1239.5	1.4417e-05	9.33e-06	1527.2	307.11	0.00023781	9.6704e-06	467.98	140.2	80.858	17.053	8.5517e-06	39.986	0.003716	0.0067512	0.0087253	1169.9	6.4795e-05	7.6567e-05	1435	291.29	0.00022774	7.5374e-05	454.66	134.38	78.088	20.136	6.389e-05	38.83	-15.236	19.093	8.972	-72.341	122.678	87.035	-71.869	-67.910	235.263	42.504	-67.056	-63.015	-63.344	-59.845	48.689	-58.048	-8191	255	
1234.992	1	1	0	0	0.33945	0.16902	0.33248	0.30363	0.10682	0.11814	0.19739	0.11399	0.06384	0.22377	0.28747	0.099641	0.2282	0.27177	0.063288	0.14111	-2.7896	-3.2812	-3.4562	-3.0812	-3.4313	-3.1729	-3.5958	-3.4813	-3.0917	-3.1896	-3.2062	-3.0917	-3.4021	-3.1958	-3.1083	-3.525	208.838	-69.569	-21.000	245.573	-2.542	-72.090	186.511	-68.846	102.445	31.731	-23.357	165.906	205.202	-69.475	-16.509	138.063	0.0004043	0.0010271	0.0033649	1226.5	4.3176e-06	8.054e-06	1510.9	301.09	0.0002529	9.6293e-07	460.43	139.15	79.589	16.895	1.4921e-06	39.715	0.0036804	0.0065921	0.0076358	1157.3	6.3517e-05	7.4622e-05	1419.3	286.63	0.00028515	7.342e-05	448.35	133.31	77.267	19.366	6.4348e-05	38.488	-18.432	-24.357	6.748	-72.346	193.256	68.330	-71.954	-68.082	217.220	2.641	-67.228	-62.955	-63.533	-60.038	-42.497	-58.143	-8191	255	
1235.088	1	1	0	0	0.25582	0.16249	0.13204	0.22975	0.066957	0.17928	0.21052	0.29546	0.072461	0.2461	0.086261	0.24827	0.06784	0.063943	0.17347	0.16658	-2.6021	-3.3896	-3.4562	-3.1667	-3.4542	-3.3229	-3.3167	-3.4479	-3.2313	-3.3896	-3.2917	-3.2812	-3.4604	-3.2958	-3.1625	-3.4354	40.024	250.125	112.302	203.250	-48.300	53.692	231.282	160.817	14.158	19.711	273.424	183.198	73.280	260.013	50.037	198.205	0.00013389	0.00021212	0.0037527	1227	9.8303e-06	7.452e-06	1513.3	303.68	0.00023341	1.8015e-05	469.39	139.72	80.682	16.962	1.1855e-06	39.79	0.0036191	0.0064101	0.0056761	1177.9	6.3285e-05	7.4494e-05	1423.2	288.09	0.00025289	7.224e-05	451.52	133.64	77.821	19.94	6.3371e-05	38.747	-51.717	246.253	-12.421	-72.320	-70.370	39.297	-71.848	-67.885	216.434	61.351	-67.074	-62.941	-63.631	-60.636	55.094	-58.067	-8191	255	
1235.184	1	1	0	0	0.065652	0.19353	0.22679	0.31525	0.12131	0.23354	0.30788	0.16787	0.12854	0.26426	0.2161	0.26319	0.17901	0.22703	0.17894	0.072453	-2.7458	-3.1854	-3.2417	-3.1583	-3.2979	-3.3688	-3.3896	-3.4583	-3.0938	-3.3187	-3.4875	-3.2708	-3.5563	-3.3875	-3.4104	-3.6312	-8.136	118.476	-22.852	-73.647	187.221	-35.441	241.773	176.884	201.412	37.330	156.885	-13.191	-19.169	128.828	-62.831	-19.279	0.0003264	0.00067614	0.00028015	1231.2	3.8965e-06	9.1268e-06	1523.4	304.93	0.00027416	9.716e-06	466.72	140.98	80.955	17.038	2.1473e-06	40.313	0.0036373	0.0064581	0.0018165	1214.4	6.3845e-05	7.3487e-05	1428	290.24	0.00028582	7.2522e-05	454.42	134.9	78.288	19.525	6.5045e-05	39.056	-12.820	-8.493	27.349	-72.394	34.639	79.888	-71.874	-68.058	229.093	77.126	-67.095	-62.557	-63.648	-60.007	-50.202	-58.049	-8191	255	
1235.281	1	1	0	0	0.3307	0.04307	0.15358	0.23269	0.10105	0.11049	0.17986	0.032517	0.043105	0.090553	0.14606	0.25062	0.041959	0.39681	0.17522	0.16769	-2.9646	-3.0854	-3.4208	-3.1604	-3.4167	-3.35	-3.35	-3.7667	-3.3167	-3.0542	-3.6375	-3.3563	-3.0917	-3.3521	-3.0292	-3.2771	-11.716	262.889	117.060	267.992	167.207	97.160	197.319	196.059	162.531	48.987	191.069	272.369	94.467	234.855	117.709	190.277	0.00039116	0.00070007	0.00032102	1246.3	5.8932e-06	4.3496e-06	1524.9	306.73	0.00020857	2.8265e-06	472.07	141.21	82.277	17.488	9.2658e-05	40.419	0.0036512	0.0064704	0.0018272	1234.8	6.2646e-05	7.3462e-05	1434.9	292.03	0.00024993	7.2557e-05	458.02	135.4	78.608	18.589	0.00014503	39.097	12.876	51.624	7.800	-72.028	-45.154	43.505	-71.916	-68.029	231.540	137.365	-67.135	-62.696	-63.238	-59.239	271.244	-58.464	-8191	255	
1235.377	1	1	0	0	0.15472	0.18828	0.1446	0.2507	0.20854	0.12513	0.37732	0.21105	0.1346	0.097928	0.14411	0.32737	0.15289	0.13591	0.12981	0.10799	-3.0292	-3.1896	-3.5396	-3.1896	-3.2167	-3.4708	-3.5563	-3.5292	-3.4708	-3.2958	-3.5604	-3.3812	-3.1458	-3.1958	-3.0458	-3.4813	167.353	-82.038	164.083	232.802	157.502	166.864	204.810	204.235	158.427	89.448	243.374	-80.601	206.468	162.890	254.253	191.773	0.00029291	0.0002134	0.00021785	1243.1	7.0429e-06	4.1009e-06	1512.9	303.73	0.00027384	9.1385e-06	464	138.75	80.138	16.987	7.8671e-05	39.717	0.003519	0.0063473	0.0018299	1219	6.1383e-05	7.2692e-05	1423.6	288.77	0.00028269	7.1456e-05	450.61	133.16	77.539	16.773	0.00025658	38.566	-42.906	165.514	-25.567	-71.956	80.626	57.227	-72.089	-68.092	247.378	105.814	-67.352	-62.846	-63.468	-58.661	265.434	-58.352	-8191	255	
1235.473	1	1	0	0	0.21316	0.052974	0.17611	0.49038	0.26864	0.066626	0.17501	0.22821	0.10782	0.12659	0.12867	0.056334	0.14257	0.026592	0.062658	0.12573	-2.875	-3.1875	-3.5229	-3.3917	-3.4042	-3.6521	-3.3667	-3.4062	-3.375	-3.2083	-3.5938	-3.375	-3.2292	-3.2917	-3.0521	-3.3375	151.778	-27.509	56.243	207.769	-44.997	151.881	222.600	-49.768	-44.732	83.102	128.766	230.232	244.475	175.052	37.964	152.598	0.00048344	0.00062737	0.00017819	1241.9	5.3091e-06	3.2318e-06	1511.7	303.93	0.00021959	9.9377e-06	468.2	141.16	81.497	17.129	0.00018354	40.403	0.0034874	0.0063461	0.0018432	1226.1	6.0221e-05	7.3227e-05	1423.8	288.84	0.00024871	7.3086e-05	453.99	135.37	78.592	16.972	0.00030218	38.996	3.227	37.491	38.247	-71.845	102.588	46.942	-71.792	-67.869	247.235	76.978	-67.380	-63.020	-63.595	-58.094	-20.921	-58.040	-8191	255	
1235.593	1	1	0	0	0.22581	0.18752	0.12267	0.073101	0.080804	0.18388	0.31954	0.085587	0.16989	0.15671	0.11835	0.08911	0.14058	0.11466	0.17491	0.10001	-2.9375	-2.9792	-3.3125	-3.4688	-3.1729	-3.4688	-3.4667	-3.3479	-3.1708	-3.0458	-3.2104	-3.4021	-3.0396	-3.5083	-3.0563	-3.3	97.081	145.602	31.352	195.329	199.716	-75.334	264.198	-59.262	206.705	-67.779	123.128	239.834	171.402	-77.682	95.512	-82.377	0.00017812	0.00028171	0.00015191	1241.8	9.7861e-06	3.1931e-06	1520	305.35	1.4131e-05	0.00014646	471.65	141.02	80.951	17.146	0.00013026	40.109	0.0035449	0.0063918	0.0018702	1220.4	6.1669e-05	7.4492e-05	1428.6	290.69	0.00016512	0.00017349	456.49	135.4	78.624	16.991	0.00026478	39.085	-1.954	260.683	-28.528	-72.019	72.670	20.075	-71.875	-67.937	100.785	219.954	-66.907	-62.709	-63.392	-58.607	-25.222	-57.963	-8191	255	
1235.688	1	1	0	0	0.29058	0.19002	0.23665	0.13227	0.1259	0.05605	0.20391	0.38096	0.059216	0.037468	0.085695	0.19829	0.17948	0.2003	0.077863	0.05496	-2.9792	-3.2313	-3.2938	-3.4229	-3.3083	-3.4917	-3.3854	-3.2438	-3.3438	-3	-3.2396	-3.2271	-3.0438	-3.2687	-3.1625	-3.0521	266.556	148.577	259.969	221.887	26.207	49.162	46.264	193.822	220.684	271.278	109.918	197.479	-67.222	31.993	20.500	210.075	0.00042238	0.00065794	0.00012024	1246.8	8.596e-06	5.3598e-06	1520.2	309.19	1.7041e-05	0.0001166	471.14	141.73	82.173	17.239	0.000183	40.71	0.0035842	0.0065989	0.0018453	1232.5	6.2624e-05	7.6622e-05	1432.5	292.77	6.1809e-05	0.00029954	457.83	135.79	79.069	17.11	0.00029983	39.394	2.981	15.897	43.376	-72.107	186.178	173.207	-71.939	-68.208	-16.399	213.683	-67.515	-62.970	-63.542	-58.216	-12.763	-58.267	-8191	255	
1235.784	1	1	0	0	0.12673	0.13126	0.21164	0.11176	0.2348	0.3321	0.17827	0.17192	0.11337	0.16166	0.20116	0.13518	0.10351	0.16433	0.28836	0.19742	-2.8625	-3.1437	-3.4437	-3.2708	-3.3167	-3.3854	-3.3292	-3.3812	-3.4375	-3.2354	-3.3063	-3.5125	-3.1854	-3.4271	-3.1729	-3.3312	197.916	29.832	51.735	240.583	73.790	147.454	203.105	99.907	96.098	76.197	186.142	-66.367	198.107	89.427	154.016	-85.810	0.00045579	0.00032772	0.0001225	1239.4	1.1254e-05	6.7238e-06	1510.2	304.72	3.1647e-06	0.00013266	467.27	138.92	79.862	16.865	0.00016179	39.911	0.0036405	0.0068425	0.0018648	1220.6	6.2039e-05	7.7443e-05	1424.8	289.38	6.2309e-05	0.0003407	452.02	133.36	77.2	16.786	0.00026147	38.62	-15.060	240.089	227.143	-72.229	83.840	46.920	-71.891	-68.114	87.420	230.623	-67.023	-62.711	-63.166	-58.935	-0.823	-58.484	-8191	255	
1235.857	1	1	0	0	0.096212	0.33413	0.34458	0.32876	0.19331	0.12238	0.23305	0.33971	0.022496	0.095211	0.11299	0.25889	0.094898	0.063397	0.34662	0.23289	-3.0563	-3.1208	-3.1583	-3.5417	-3.0292	-3.1979	-3.4667	-3.0938	-3.2562	-3.075	-2.9917	-3.4458	-3.1437	-3.3979	-3.1979	-3.4938	268.710	41.205	235.021	238.455	131.417	56.240	205.471	204.969	273.827	242.585	196.077	41.238	-8.382	131.026	272.307	163.885	0.00025321	0.00037628	0.00011077	1228.1	0.00013538	4.3742e-06	1500.2	300.86	2.7251e-06	9.2222e-05	463.98	138.33	79.466	16.689	0.00014938	39.331	0.0036158	0.0067037	0.0018282	1177.9	0.00015841	7.529e-05	1412.9	286.25	6.3827e-05	0.00029797	449.37	132.7	76.925	16.638	0.00029693	38.391	23.795	-7.090	38.600	-72.270	173.510	77.410	-72.089	-68.016	88.783	240.652	-67.028	-62.453	-63.607	-58.537	-2.154	-57.769	-8191	255	
1235.976	1	1	0	0	0.23357	0.23167	0.10029	0.11175	0.21719	0.061993	0.30588	0.36893	0.16316	0.27109	0.11739	0.34679	0.18612	0.21242	0.1353	0.22727	-3.2417	-3.2417	-3.1667	-3.4688	-2.9542	-3.3187	-3.4604	-3.2229	-3.6417	-3.2521	-3.3979	-3.3417	-2.8521	-3.5521	-3.4833	-3.3417	145.647	-32.930	266.050	-47.564	-13.329	94.057	184.852	242.692	193.379	56.487	-59.366	-58.081	241.201	-67.245	22.810	205.269	0.00038305	0.00021357	4.443e-05	1222.5	0.00013836	8.7698e-06	1502.9	303.29	4.5844e-06	0.00015035	470.55	138.77	79.833	16.9	0.00016398	39.443	0.0036667	0.0066619	0.0018416	1153.8	0.0002472	7.4676e-05	1417.3	287.64	6.2268e-05	0.00033034	452.21	132.9	77.236	16.681	0.0002551	38.516	6.802	212.606	76.633	-72.576	109.840	104.697	-71.661	-67.925	24.130	246.293	-66.739	-62.539	-63.502	-58.755	9.337	-58.328	-8191	255	
1236.072	1	1	0	0	0.080845	0.29045	0.16081	0.132	0.25911	0.11871	0.34981	0.21417	0.15563	0.046363	0.17691	0.38015	0.1544	0.2855	0.033265	0.082688	-2.9396	-3.2458	-3.2438	-3.6708	-3.2417	-3.4708	-3.5958	-3.3187	-3.4854	-3.1104	-3.1583	-3.5896	-3.1833	-3.2687	-3.4021	-3.175	-0.255	-11.244	159.326	-49.554	-32.318	154.024	220.053	268.094	-2.245	185.817	263.889	185.027	-27.465	-62.017	136.035	135.711	0.00038799	0.00058674	5.908e-05	1227	0.00016301	6.7415e-06	1508.4	303.51	3.9121e-06	0.00013065	471.81	139.16	79.727	16.901	0.0001761	39.818	0.0037605	0.0066025	0.0018626	1158.7	0.00027805	7.5138e-05	1419.9	289.25	6.3487e-05	0.00028961	455.07	133.15	77.172	16.766	0.00015202	40.62	-31.687	-58.369	211.930	-72.505	116.852	97.460	-71.584	-67.808	80.859	255.155	-67.348	-62.805	-63.464	-58.700	22.455	-58.122	-8191	255	
1236.169	1	1	0	0	0.10256	0.2498	0.099274	0.30327	0.095017	0.13026	0.20918	0.13064	0.43901	0.13784	0.19324	0.065614	0.21243	0.23269	0.40222	0.085923	-3.0583	-3.2417	-3.1271	-3.4646	-3.3104	-3.4313	-3.6604	-3.1146	-3.3792	-3.2354	-3.2833	-3.4229	-3.4729	-3.225	-3.3125	-3.0542	261.261	51.135	164.521	272.700	-62.311	51.810	240.535	226.619	182.217	128.947	211.254	227.474	208.294	-4.525	207.037	260.438	0.00028482	0.00045978	0.00022243	1227.4	0.00014897	2.7908e-06	1514.1	306.03	8.078e-06	0.00013126	467.27	136.58	78.283	16.565	1.2377e-05	39.397	0.0036359	0.006703	0.0018657	1162.2	0.00023965	7.5321e-05	1424.7	290.07	6.3491e-05	0.00032375	451.74	131.1	75.782	16.51	6.7248e-05	41.393	4.941	-17.388	-35.714	-72.506	124.136	129.182	-71.817	-67.811	250.990	251.833	-66.991	-62.579	-63.491	-58.563	55.675	-58.496	-8191	255	
1236.289	1	1	0	0	0.18596	0.15945	0.077983	0.37159	0.16363	0.21336	0.26913	0.18342	0.12974	0.049942	0.2077	0.13173	0.30023	0.34859	0.19855	0.13682	-2.9833	-3.2896	-3.3	-3.5521	-3.2	-3.3312	-3.7208	-3.2125	-3.3604	-3.4104	-3.2125	-3.5708	-3.2833	-3.2625	-3.7958	-3.0896	97.496	199.448	-38.267	-36.269	-10.295	59.225	206.777	258.933	77.169	157.004	251.565	241.089	233.302	233.649	44.084	150.133	0.00014509	0.00078691	8.3183e-05	1221.7	0.00016803	3.6345e-06	1494.4	299.54	3.1643e-06	4.713e-05	457.85	134.47	77.577	16.481	5.5009e-06	39.229	0.0036413	0.006755	0.0018653	1151.7	0.00027104	7.5479e-05	1407.3	284.22	6.0262e-05	0.00027512	444.25	128.85	74.796	16.298	6.5976e-05	41.692	-19.550	22.332	91.014	-72.428	134.196	91.949	-71.947	-68.025	30.261	-36.353	-66.971	-62.527	-63.409	-58.571	-35.537	-58.256	-8191	255	
1236.385	1	1	0	0	0.16312	0.36534	0.1561	0.11716	0.099352	0.14852	0.27258	0.19011	0.28459	0.23403	0.23138	0.20943	0.10772	0.098561	0.056346	0.13253	-2.8563	-3.3542	-3.2896	-3.5646	-3.1562	-3.0604	-3.7083	-3.2438	-3.5146	-3.3875	-2.9083	-3.4813	-3.5396	-3.2417	-3.3312	-3.2229	14.913	167.331	-39.201	181.911	40.287	181.290	222.101	269.118	204.213	67.891	234.203	-72.646	14.602	261.083	-7.784	69.945	0.00034738	0.0008033	6.168e-05	1220.3	0.00012155	2.2762e-06	1497	299.43	8.5981e-06	6.0463e-05	453.67	135.34	77.62	16.582	1.0123e-05	39.642	0.0035218	0.0066829	0.0018458	1153.4	0.0002414	7.4773e-05	1411.5	285.43	6.0448e-05	0.00015846	475.46	129.72	75.171	16.393	6.7089e-05	41.374	-12.560	6.013	-54.943	-72.495	138.345	176.829	-71.582	-68.034	256.295	-20.005	-67.213	-62.307	-63.172	-58.500	32.874	-57.758	-8191	255	
1236.457	1	1	0	0	0.12273	0.098792	0.041848	0.14372	0.079469	0.15911	0.33326	0.13617	0.22493	0.15908	0.22185	0.20539	0.22702	0.13329	0.1253	0.24456	-2.9021	-3.5021	-3.1729	-3.5667	-3.2438	-3.1292	-3.4083	-3.1646	-3.1458	-3.4896	-3.2854	-3.5667	-3.2667	-3.125	-3.4375	-3.1396	127.659	16.537	124.515	226.558	145.639	268.211	185.945	-50.139	218.012	229.949	145.223	244.851	-70.056	214.715	57.184	241.471	0.00028032	0.00069681	0.00016481	1225.9	0.00017267	8.4063e-06	1513.1	301.97	1.5397e-05	1.8396e-06	458.16	136.62	78.491	16.589	8.4844e-06	40.398	0.0036258	0.0067408	0.0018278	1157.3	0.00027636	7.4676e-05	1422.7	287.85	6.1426e-05	7.5106e-05	497.73	130.77	75.72	16.533	6.5515e-05	42.393	-42.989	-48.044	188.147	-72.472	150.465	27.689	-71.824	-67.910	112.392	80.560	-67.821	-62.590	-63.171	-58.023	95.439	-57.855	-8191	255	
1236.578	1	1	0	0	0.14212	0.22101	0.18447	0.21222	0.14813	0.14549	0.24836	0.33643	0.074779	0.24124	0.095226	0.097729	0.18133	0.17386	0.14267	0.031225	-3.0396	-3.2625	-3.1125	-3.6521	-3.4813	-3.1937	-3.7333	-3.2458	-3.3146	-3.6833	-3.3333	-3.2729	-3.3125	-2.9583	-3.5917	-3.3688	270.973	246.774	163.493	223.109	163.380	-8.866	237.749	197.974	119.537	16.029	125.349	188.085	128.360	270.852	-11.154	130.024	0.00031894	0.00087161	7.9169e-05	1238.7	7.9126e-05	2.389e-06	1518.8	304.27	1.8254e-05	1.0444e-05	463.87	137.6	79.142	16.807	9.3665e-06	40.461	0.0035393	0.0065233	0.0018327	1167.5	0.0002276	7.2798e-05	1429.7	289.45	6.1006e-05	7.3341e-05	511.44	131.98	76.382	16.705	6.3233e-05	42.016	-12.675	-51.744	-41.984	-72.409	77.451	26.065	-71.886	-68.005	84.457	-23.446	-68.320	-62.649	-63.310	-58.334	56.753	-58.106	-8191	255	
1236.674	1	1	0	0	0.19713	0.081042	0.21812	0.028437	0.2583	0.13964	0.22028	0.075712	0.19821	0.17374	0.14806	0.084411	0.22622	0.18386	0.044121	0.30372	-2.9958	-3.3438	-2.9396	-3.4333	-3.4604	-3.0958	-3.5167	-3.4688	-3.2104	-3.4917	-3.0958	-3.1667	-3.4208	-3.175	-3.5187	-3.5021	3.313	-34.201	-42.966	-7.793	100.681	218.036	181.024	-20.611	219.125	195.738	203.152	142.043	200.081	235.201	-43.182	202.168	0.0003714	0.00041056	7.9242e-05	1225.2	0.00010861	0.00010384	1514.3	301.25	7.9094e-06	8.071e-06	458.5	135.89	77.978	16.553	8.8727e-06	40.054	0.0035663	0.0065139	0.0017991	1159.1	0.00012463	0.00021366	1419.9	286.37	6.0164e-05	7.248e-05	495.6	129.83	75.209	16.404	6.3614e-05	42.047	-6.251	19.972	-46.992	-72.269	89.211	193.848	-71.884	-67.993	107.255	109.307	-68.235	-62.383	-63.649	-58.916	131.143	-57.771	-8191	255	
1236.768	1	1	0	0	0.056374	0.096803	0.092387	0.24574	0.13659	0.23929	0.34793	0.14815	0.25062	0.078781	0.10703	0.082256	0.2397	0.078695	0.075702	0.16022	-2.7979	-3.3583	-3.0833	-3.3667	-3.5187	-3.1125	-3.3292	-3.1	-3.1417	-3.5104	-3.3125	-3.2562	-3.2562	-3.1104	-3.4688	-3.4333	-1.106	60.456	183.975	224.609	6.693	225.523	216.543	254.180	-54.545	88.904	194.983	222.642	236.050	-33.507	-39.333	184.544	0.00021267	0.00059429	0.00020039	1216.7	1.4094e-05	9.2084e-05	1507.8	299.14	1.1861e-05	1.0454e-05	458.31	135.74	78.335	16.59	6.172e-06	40.051	0.0035421	0.0065228	0.0017849	1151.1	6.2406e-05	0.00028592	1413.4	285.27	6.1171e-05	7.2257e-05	502.68	130.33	75.473	16.473	6.3902e-05	41.156	47.897	69.854	180.560	-72.500	145.080	164.824	-71.913	-67.760	132.127	55.799	-68.315	-62.533	-63.428	-58.710	128.281	-58.117	-8191	255	
1236.889	1	1	0	0	0.17549	0.11452	0.18892	0.1721	0.2005	0.087171	0.56009	0.13425	0.28346	0.3127	0.1699	0.15851	0.1773	0.050101	0.088198	0.2905	-2.775	-3.5458	-3.0208	-3.3208	-3.3563	-2.9625	-3.6625	-3.4646	-3.2583	-3.6521	-3.2229	-3.0687	-3.4521	-3.1625	-3.3854	-3.3771	4.692	152.581	25.717	-53.190	153.708	-49.897	216.842	87.961	39.012	173.696	-67.329	-21.423	53.164	-27.017	6.648	189.843	0.00028822	0.00035887	0.00037126	1225.1	4.218e-06	0.00011107	1505.1	301.48	9.6801e-06	1.102e-05	465.61	137.33	78.67	16.749	1.065e-05	40.505	0.0035083	0.0063831	0.0018079	1155.3	6.2582e-05	0.00032305	1415.8	287.46	6.0611e-05	7.3246e-05	496.76	131.42	76.449	16.62	6.5916e-05	39.547	11.887	12.596	47.835	-72.173	-65.555	174.167	-71.773	-67.896	250.560	53.082	-68.112	-63.040	-63.662	-58.183	56.408	-57.929	-8191	255	
1236.985	1	1	0	0	0.33251	0.23744	0.14394	0.10786	0.081068	0.22966	0.25191	0.095762	0.1603	0.21738	0.28944	0.24185	0.13358	0.21692	0.21681	0.27515	-2.4562	-3.4562	-3.2667	-3.3042	-3.5479	-3.2854	-3.4229	-3.4417	-3.0479	-3.5021	-3.1813	-3.3438	-3.4396	-3.0271	-3.05	-3.4167	-36.681	-21.816	-41.575	79.372	39.875	167.851	256.979	273.063	-0.130	-60.864	272.459	31.140	221.783	168.704	-2.717	9.026	0.00072979	0.0005003	0.00020643	1228.3	6.5346e-06	9.8115e-05	1512.7	302.81	1.222e-05	4.2631e-06	466.11	139.73	79.974	16.872	5.3316e-06	39.959	0.010473	0.0065157	0.0018605	1159.9	6.294e-05	0.00028449	1424.4	288.84	6.1587e-05	7.4083e-05	509.72	133.31	77.376	16.764	6.6036e-05	38.945	-67.373	-33.777	-29.527	-72.262	32.371	180.315	-72.079	-67.629	197.425	82.815	-68.230	-62.633	-63.359	-58.464	-6.945	-58.069	-8191	255	
1237.081	1	1	0	0	0.36644	0.0043984	0.045729	0.26817	0.15882	0.11931	0.31601	0.1424	0.043352	0.17284	0.062535	0.14655	0.14708	0.049865	0.090684	0.23558	-2.8521	-3.2562	-3.2042	-2.8896	-3.2604	-3.0583	-3.4042	-3.5271	-3.35	-3.3708	-3.1604	-3.0729	-3.2792	-3.0208	-3.0229	-3.3354	210.549	249.788	-47.855	-44.409	254.115	114.040	224.866	11.691	125.932	1.013	183.482	-46.930	-56.446	272.972	16.209	169.713	0.0018844	0.0013701	5.7839e-05	1236.2	4.2526e-06	0.00011774	1511.5	302.45	1.7096e-05	1.1114e-05	467.82	137.12	78.997	16.76	5.5247e-06	39.392	0.013327	0.006614	0.001902	1164.8	6.2597e-05	0.00032607	1422.8	288.36	6.1741e-05	7.4739e-05	488.2	132.67	76.304	16.629	6.5909e-05	38.378	177.638	-13.562	141.263	-72.296	63.711	185.530	-71.771	-67.668	17.139	25.748	-67.764	-62.756	-63.450	-58.546	77.948	-58.012	-8191	255	
1237.153	1	1	0	0	0.053638	0.23824	0.1954	0.082587	0.094667	0.083039	0.13799	0.13029	0.11567	0.11471	0.1968	0.033611	0.1873	0.13609	0.029409	0.078817	-2.7396	-3.325	-3.3354	-3.1396	-3.2833	-3.1125	-3.2125	-3.3146	-3.0854	-3.1917	-3.5083	-3.2458	-3.6646	-3.3646	-3.0646	-3.625	240.763	59.414	72.223	-83.783	-74.111	131.365	186.711	142.996	-10.898	90.006	92.416	267.764	-33.028	50.332	45.494	255.426	0.0021482	0.00032539	0.00017644	1217.4	5.8366e-06	0.00010709	1496.7	297.68	1.7345e-05	1.0386e-05	465.84	136.53	78.057	16.56	5.6656e-06	39.449	0.014854	0.006681	0.0019165	1147.8	6.2646e-05	0.00028201	1407.2	284.61	6.1606e-05	7.6945e-05	457.53	136.64	75.68	16.469	6.6622e-05	38.293	184.341	-37.057	3.774	-72.486	-53.939	186.601	-71.773	-68.088	109.986	107.836	-67.848	-62.858	-63.634	-58.810	-68.101	-58.051	-8191	255	
1237.273	1	1	0	0	0.13211	0.09327	0.17406	0.28195	0.18941	0.18263	0.1384	0.14582	0.18552	0.092355	0.15056	0.20817	0.12878	0.020038	0.2192	0.16317	-2.6625	-3.2562	-3.3417	-3.1625	-3.2375	-3.1729	-3.1813	-3.5396	-3.2333	-3.4125	-3.3792	-3.2458	-3.4042	-3.4083	-3.2104	-3.5062	22.522	-84.783	109.987	226.272	47.941	38.576	186.099	139.959	235.365	255.598	220.367	27.921	114.348	123.130	234.849	254.533	0.0017307	0.00041508	6.193e-05	1217.1	3.6809e-06	0.00011297	1498.4	299.9	8.9212e-06	4.5257e-06	465.2	137.63	79.06	16.743	1.561e-05	39.366	0.012879	0.0066021	0.0018789	1149.7	6.3557e-05	0.00031649	1412.5	285.44	6.1505e-05	7.4852e-05	450.05	139.35	76.361	16.598	6.6559e-05	38.532	185.937	1.379	40.126	-72.507	-70.457	205.845	-71.968	-68.130	235.562	263.498	-66.923	-63.492	-63.342	-58.755	61.962	-58.019	-8191	255	
1237.370	1	1	0	0	0.1888	0.05683	0.14495	0.24297	0.15771	0.017503	0.15798	0.16604	0.071081	0.013081	0.31808	0.075968	0.096927	0.059274	0.1454	0.14331	-2.65	-2.9896	-3.4292	-3.2333	-3.1083	-3.4	-3.1833	-3.4708	-3.0687	-3.0833	-3.5438	-3.3583	-3.1875	-3.2979	-3.1833	-3.3917	228.642	273.326	31.171	211.097	-37.787	38.374	198.973	219.860	156.256	-2.248	157.252	235.274	243.802	50.683	-0.081	212.609	0.0022515	0.00046207	5.5104e-05	1228.1	6.0919e-06	2.8104e-05	1495.6	302.98	1.2453e-05	5.5933e-06	470.83	139.4	79.268	16.917	6.0308e-06	40.081	0.014443	0.0067446	0.0018733	1157	6.5036e-05	0.00023223	1422.6	287.71	6.3841e-05	7.7107e-05	453.64	141.43	76.737	16.748	6.7188e-05	38.906	193.927	13.074	9.930	-72.218	49.704	95.567	-71.917	-68.067	61.426	93.035	-67.469	-63.406	-63.548	-58.165	52.408	-57.793	-8191	255	
1237.466	1	1	0	0	0.10284	0.27628	0.075057	0.33093	0.073346	0.050208	0.10057	0.23067	0.14089	0.22835	0.085105	0.11583	0.1451	0.20543	0.38145	0.13683	-2.6833	-3.2458	-3.5396	-3.4479	-3.1063	-3.3417	-3.4854	-3.4417	-3.1646	-3.0042	-3.2792	-3.2646	-3.2854	-3.1729	-2.9917	-3.2146	33.422	27.909	176.149	-80.135	-61.135	81.312	198.618	137.748	142.645	-11.279	22.541	-4.494	183.763	195.623	-66.467	6.206	0.0017634	0.00024277	5.6365e-05	1231.8	8.784e-06	1.6278e-05	1508.8	306.06	1.8305e-05	8.72e-06	471.89	138.73	79.085	16.754	5.5669e-06	39.945	0.012788	0.0068778	0.0019654	1163.1	6.6643e-05	0.00011467	1462.7	290.92	6.6862e-05	7.8662e-05	456.42	139.72	76.814	16.715	6.8045e-05	38.752	196.054	-55.309	22.201	-72.207	11.164	79.783	-72.051	-68.065	53.267	60.063	-66.746	-63.176	-63.372	-58.193	83.951	-58.156	-8191	255	
1237.562	1	1	0	0	0.13954	0.26568	0.095635	0.24922	0.31726	0.017977	0.32957	0.084759	0.25278	0.14344	0.18979	0.14397	0.1632	0.26342	0.29623	0.093523	-2.7792	-3.0812	-3.3812	-3.1729	-3.1667	-3.4083	-3.2833	-3.2958	-3.1208	-3.1021	-3.5687	-3.35	-3.2646	-3.15	-2.9813	-3.1229	34.191	199.715	90.043	-82.747	-84.543	219.627	199.559	22.750	137.370	-49.728	-78.161	-36.278	253.963	88.402	66.707	-11.367	0.0020018	0.00030922	4.2169e-05	1222.4	1.5496e-05	4.497e-06	1498.8	301.61	1.2632e-05	8.8612e-06	461.8	135.77	77.718	16.543	1.4762e-06	39.504	0.01419	0.0069579	0.0019254	1155.7	6.7673e-05	7.9416e-05	1455	286.86	6.6148e-05	7.795e-05	448.58	137.82	75.235	16.48	6.8228e-05	38.324	203.893	-49.673	228.770	-72.506	22.775	58.398	-72.069	-68.053	194.433	-46.725	-67.272	-63.212	-63.372	-57.962	112.403	-58.239	-8191	255	
1237.681	1	1	0	0	0.20692	0.25237	0.050602	0.19494	0.1821	0.08119	0.45564	0.14379	0.038425	0.20778	0.17967	0.1578	0.31757	0.17954	0.035311	0.10303	-2.6604	-3.0667	-3.3563	-3.2458	-3.2292	-3.5604	-3.4104	-3.3438	-3.2729	-2.9833	-3.4875	-3.2208	-3.2479	-3.575	-3.175	-3.1333	10.978	169.575	50.066	167.701	4.574	55.155	239.761	244.027	132.726	83.560	-80.161	253.746	-75.981	218.828	-70.033	227.305	0.0019909	0.0049703	0.00018904	1220.2	1.1348e-05	5.2103e-06	1502.7	302.62	9.0073e-06	9.4782e-06	463.74	136.05	78.344	16.6	7.1287e-06	39.312	0.010151	0.0089764	0.0019648	1154.7	6.7659e-05	8.0024e-05	1466.1	288.07	6.6646e-05	7.7888e-05	450.88	137.28	75.779	16.534	6.8756e-05	38.508	164.558	102.996	3.275	-72.555	12.883	128.207	-71.836	-68.128	215.744	138.121	-66.842	-62.975	-63.883	-58.227	121.488	-58.073	-8191	255	
1237.754	1	1	0	0	0.064495	0.17071	0.14449	0.35782	0.20822	0.11559	0.23081	0.12223	0.013206	0.090037	0.17737	0.29195	0.21868	0.24253	0.18298	0.24901	-3.0292	-3.3146	-3.4417	-3.5021	-3.1271	-3.525	-3.2687	-3.3042	-3.4479	-3.2125	-3.3271	-3.3458	-3.0333	-3.4542	-3.4062	-3.1875	100.132	97.500	182.694	184.198	244.273	65.174	249.650	-79.909	109.175	-43.710	245.641	188.398	120.131	-33.016	87.209	-62.045	0.0019715	0.0075983	0.00029688	1225.4	6.0698e-06	3.6276e-06	1501.8	303.99	4.9822e-06	9.2661e-07	470.77	137.67	78.194	16.837	3.1195e-06	39.765	0.0049107	0.021262	0.0019975	1158.7	6.688e-05	7.9292e-05	1462.3	289.28	6.588e-05	7.7473e-05	454.51	139.16	75.856	16.693	7.0244e-05	38.796	172.546	96.950	25.929	-72.369	75.090	168.293	-71.826	-67.996	-0.928	52.547	-67.140	-63.232	-63.183	-58.341	54.092	-57.533	-8191	255	
1237.850	1	1	0	0	0.040006	0.18564	0.077101	0.24826	0.062679	0.13567	0.050474	0.17613	0.059847	0.16436	0.21111	0.13663	0.22539	0.11567	0.022835	0.16623	-2.8146	-3.1542	-3.2875	-3.4313	-3.0271	-3.2708	-3.4167	-3.4292	-3.3896	-3.1229	-3.4229	-3.3542	-3.0521	-3.4688	-3.2562	-3.1688	-17.535	100.216	-38.365	-71.842	67.817	-36.634	259.414	181.115	28.149	-21.283	23.449	-51.599	-26.377	208.863	194.428	199.604	0.00020982	0.0083327	0.00027419	1231.9	1.2624e-05	2.6688e-06	1507	305.86	2.0478e-05	2.8123e-07	470.7	138.91	78.827	16.86	5.6104e-06	40.291	0.0038492	0.023555	0.0020038	1161.6	6.6276e-05	7.9421e-05	1473	290.89	6.6466e-05	7.9743e-05	456.72	136.96	77.485	16.778	7.0609e-05	39.182	12.469	41.539	-8.608	-72.717	64.376	133.944	-71.964	-68.014	92.166	180.013	-67.197	-63.066	-63.470	-58.279	-68.265	-58.067	-8191	255	
1237.969	1	1	0	0	0.094281	0.092075	0.097047	0.21677	0.18429	0.19306	0.22538	0.2324	0.19185	0.14678	0.026477	0.21729	0.084761	0.21522	0.16434	0.38289	-2.8896	-2.8646	-3.3917	-3.3771	-3.1875	-3.5729	-3.35	-3.1479	-3.3896	-2.9979	-3.4479	-3.5021	-3.1146	-3.3688	-3.2125	-3.0729	-49.402	264.973	89.899	-81.307	-40.958	140.248	212.763	-20.104	85.195	185.067	31.250	245.427	153.257	142.124	181.534	200.323	0.00037015	0.010445	0.00015438	1222.1	7.6865e-06	3.1354e-06	1504.8	301.3	9.32e-06	1.2629e-05	463.56	135.92	77.364	16.403	1.225e-05	39.264	0.0038911	0.026885	0.0020096	1156.9	6.6928e-05	7.9768e-05	1457.8	287.4	6.5933e-05	7.8817e-05	449.61	130.23	80.419	16.42	7.2273e-05	38.209	-9.309	40.432	2.119	-72.329	34.162	137.607	-72.146	-68.050	199.115	10.122	-67.316	-63.065	-63.674	-58.099	20.841	-57.929	-8191	255	
1238.065	1	1	0	0	0.15727	0.039945	0.22825	0.18206	0.35406	0.27247	0.29504	0.055441	0.10991	0.12785	0.12268	0.1763	0.013786	0.068226	0.10186	0.23566	-3.0187	-3.2313	-3.3271	-3.4729	-2.9729	-3.3229	-3.3917	-3.1458	-3.4667	-3.0917	-2.9938	-3.2938	-3.1917	-3.3979	-3.3354	-3.2854	197.358	26.941	-59.742	234.166	223.502	88.570	229.621	1.131	203.426	128.969	232.554	-80.817	58.458	-39.275	-55.258	87.469	0.00017796	0.0094178	0.00032197	1211.4	1.5933e-05	3.7235e-06	1480.5	297.99	4.7008e-06	9.2448e-06	461.56	134.43	77.835	16.5	1.4095e-05	39.351	0.0038325	0.023756	0.0020088	1143.6	6.7069e-05	8.0981e-05	1449.2	283.69	6.5531e-05	8.0893e-05	447.48	129.18	80.568	16.438	7.1946e-05	38.325	-18.670	45.699	-7.846	-72.401	92.809	16.000	-72.059	-67.904	151.409	101.638	-67.083	-62.490	-64.000	-58.515	159.071	-57.759	-8191	255	
1238.162	1	1	0	0	0.18572	0.049337	0.17488	0.052549	0.10248	0.15549	0.092769	0.26341	0.061792	0.30798	0.2256	0.10486	0.067661	0.06252	0.14043	0.21783	-2.8667	-3.2271	-3.3417	-3.4833	-3.1312	-3.4104	-3.3396	-3.1542	-3.4125	-3.3312	-3.1167	-3.475	-3.2562	-3.4437	-3.3958	-3.0125	173.663	146.000	-23.608	40.411	-22.859	-32.323	241.168	201.741	181.009	13.526	243.912	135.434	105.580	-59.707	131.069	-54.723	0.00045561	0.011002	0.00011096	1214.3	1.2412e-05	6.3301e-06	1492.7	298.36	1.5432e-05	6.4198e-06	463.22	135.66	78.598	16.607	1.0231e-05	39.471	0.0038418	0.026991	0.0019642	1147.7	6.6273e-05	8.1366e-05	1435.5	289.34	6.5866e-05	8.0797e-05	450.3	130.11	82.528	16.49	6.9792e-05	38.581	-6.525	57.882	5.497	-72.394	53.061	24.931	-72.066	-68.025	48.354	40.088	-66.785	-62.634	-63.948	-58.203	162.076	-57.757	-8191	255	
1238.258	1	1	0	0	0.14019	0.086198	0.22683	0.2363	0.046882	0.28005	0.42469	0.15371	0.15089	0.081424	0.17893	0.19646	0.23887	0.15194	0.092301	0.11935	-2.8396	-3.0875	-3.2104	-3.5792	-3.2875	-3.4021	-3.3708	-3.1396	-3.3542	-3.1188	-3.1312	-3.7188	-3.35	-3.2458	-3.4125	-3.4	102.719	9.381	265.458	157.507	135.423	16.217	231.517	166.304	-76.460	10.913	-70.037	225.658	-60.692	115.055	42.859	142.912	0.00029459	0.0096585	0.0003062	1221.3	1.0695e-05	1.3274e-05	1514.7	300.06	9.5124e-06	8.5073e-06	469.07	136.59	79.538	16.712	9.5357e-06	40.047	0.0038415	0.024414	0.0019665	1154.6	6.6346e-05	7.9483e-05	1422.3	302.69	6.624e-05	8.1019e-05	454.37	131.38	82.284	16.671	7.0298e-05	38.994	6.686	62.819	29.147	-72.618	70.218	20.029	-71.798	-68.247	24.147	35.514	-67.037	-62.629	-63.843	-58.334	102.566	-58.093	-8191	255	
1238.354	1	1	0	0	0.23018	0.19882	0.10207	0.24441	0.12921	0.13451	0.14537	0.010642	0.057508	0.27914	0.07599	0.071774	0.21533	0.25142	0.058946	0.20544	-3.05	-3.1333	-2.9542	-3.3812	-3.1583	-3.3958	-3.7625	-3.1604	-3.1312	-3.1604	-3.1875	-3.6875	-3.1063	-2.9917	-3.6042	-3.1958	213.892	-77.658	-60.467	215.184	193.326	-15.050	222.807	-78.937	93.743	-64.440	180.001	-35.560	125.763	271.403	68.433	182.124	0.00058344	0.011351	0.00024556	1226.3	4.8934e-06	3.3411e-06	1524.4	302.96	1.9364e-05	6.3397e-06	470.35	137.18	79.949	16.661	6.0983e-06	39.466	0.0038359	0.027624	0.0019312	1161.2	6.7159e-05	8.0239e-05	1429.5	304.36	6.5763e-05	7.9871e-05	454.54	131.49	83.254	16.605	6.9139e-05	38.581	4.697	66.214	49.194	-72.082	223.165	116.643	-71.743	-68.333	-7.783	206.165	-66.590	-62.750	-64.393	-58.176	51.364	-58.267	-8191	255	
1238.450	1	1	0	0	0.25013	0.093586	0.29351	0.19191	0.26945	0.096389	0.12231	0.028101	0.15742	0.15331	0.16476	0.22762	0.10991	0.16143	0.14115	0.1711	-2.8521	-3.1896	-3.0833	-3.4917	-3.2125	-3.1271	-3.6021	-3.3063	-3.3438	-3.3708	-3.0333	-3.6083	-3.2896	-2.9354	-3.3104	-3.3604	-20.046	213.001	80.768	229.066	254.044	102.704	262.628	134.550	-25.565	184.022	152.632	256.432	-61.055	199.456	181.172	-17.127	0.00013897	0.0065027	0.0022402	1221.5	1.5336e-05	1.0164e-05	1500.7	300.77	1.4076e-05	9.4616e-06	459.76	134.74	78.732	16.37	1.3137e-05	39.423	0.0038854	0.017457	0.0031272	1154.3	6.7407e-05	7.972e-05	1413.8	303.73	6.5599e-05	7.7825e-05	448	129.69	81.412	16.401	6.8587e-05	38.342	16.409	26.093	114.671	-72.501	59.382	92.364	-71.770	-68.579	97.121	87.698	-67.000	-62.713	-63.920	-57.808	51.233	-58.089	-8191	255	
1238.571	1	1	0	0	0.10118	0.38071	0.026216	0.21234	0.44972	0.22589	0.08142	0.23828	0.11198	0.1811	0.1065	0.18714	0.075436	0.20611	0.055599	0.029674	-2.8521	-3.1833	-3.1937	-3.4521	-3.2271	-3.2812	-3.5521	-3.1417	-3.2396	-3.3521	-2.9417	-3.4271	-3.3625	-2.9	-3.4062	-3.2896	138.225	-29.493	230.439	-73.954	50.408	78.086	122.239	212.110	186.713	237.530	205.062	229.269	99.995	12.483	106.843	-25.425	0.00018582	0.0013738	0.0026139	1221.3	1.5713e-05	1.5681e-06	1504.5	301.55	2.2161e-05	8.1989e-06	467.31	136.12	79.485	16.644	4.8888e-06	39.662	0.003831	0.0070607	0.006989	1153.9	6.875e-05	7.8193e-05	1419.7	302.94	6.6164e-05	7.8653e-05	451.25	130.99	83.247	16.534	6.9559e-05	38.633	-9.970	4.357	117.558	-72.408	11.877	215.396	-71.780	-68.316	-77.440	95.764	-67.586	-62.606	-63.932	-58.059	128.109	-57.651	-8191	255	
1238.667	1	1	0	0	0.11617	0.46863	0.36998	0.12299	0.13878	0.15456	0.30697	0.11306	0.31285	0.25957	0.29025	0.01674	0.099359	0.11669	0.19637	0.14557	-2.9271	-3.1604	-2.9208	-3.4896	-3.4354	-2.9104	-3.4333	-3.3854	-3.1292	-3.5521	-3.1896	-3.4354	-3.3083	-3.0563	-3.575	-3.3104	-11.616	158.971	165.814	-69.150	201.277	-77.607	196.771	207.280	-78.749	228.231	151.592	25.204	192.710	170.991	37.448	195.287	0.00036385	0.00044802	0.0024483	1227.4	1.2025e-05	1.8796e-06	1512.3	302.38	4.8301e-06	1.1032e-05	468.7	137.27	79.91	16.748	6.9166e-06	40.033	0.0038958	0.0069734	0.0069235	1159.1	6.8503e-05	7.7394e-05	1424.1	306.65	6.5528e-05	7.8254e-05	454.22	131.99	79.696	17.351	7.0948e-05	38.985	-4.070	-19.959	87.327	-72.329	48.028	17.365	-71.893	-68.221	178.792	82.977	-66.959	-62.754	-63.388	-58.031	152.950	-57.878	-8191	255	
1238.761	1	1	0	0	0.26298	0.075606	0.27667	0.18063	0.22575	0.15093	0.20586	0.13397	0.050271	0.022972	0.18727	0.14824	0.070521	0.068423	0.22829	0.23969	-2.7667	-3.3271	-3.25	-3.5292	-3.3458	-3.2021	-3.4146	-3.3146	-3.1458	-3.5646	-3.2146	-3.2604	-3.3708	-3.1646	-3.3771	-3.3229	150.902	184.626	256.591	225.721	134.419	202.476	249.518	245.850	161.588	77.186	-61.505	-7.210	263.370	-74.250	257.383	159.501	0.00031135	0.00026531	0.0030391	1234.7	9.2735e-06	2.4258e-06	1522.5	303.98	6.5416e-06	9.6002e-06	471.37	137.64	79.031	16.965	1.2646e-05	40.185	0.0038346	0.00698	0.0077341	1162.7	6.8335e-05	7.7349e-05	1430.1	304.83	6.5588e-05	7.8618e-05	455.97	132.18	76.62	19.196	7.1764e-05	39.113	-11.829	18.362	85.281	-72.363	51.863	199.414	-71.903	-68.439	77.509	72.192	-67.038	-62.143	-63.314	-58.229	91.778	-57.869	-8191	255	
1238.857	1	1	0	0	0.16192	0.17837	0.11387	0.28886	0.12629	0.090381	0.13651	0.2176	0.11586	0.116	0.11534	0.2371	0.21664	0.13681	0.35585	0.19073	-2.7417	-3.3792	-3.1229	-3.3521	-3.4542	-3.0729	-3.3792	-3.4167	-3.2583	-3.35	-3.1104	-3.1729	-3.4042	-3.0229	-3.3083	-3.6188	167.663	19.028	65.787	214.196	70.361	206.077	110.541	212.533	29.390	167.586	267.683	211.992	3.087	149.837	-69.011	154.305	0.00022172	0.00064542	0.0022883	1223.5	9.0464e-06	7.9002e-06	1500.9	299.73	9.2909e-06	2.4336e-06	462.89	134.75	77.567	16.884	1.4423e-05	39.39	0.0037391	0.0069794	0.0068397	1155.3	6.6753e-05	7.95e-05	1412.6	303.01	6.3284e-05	7.8129e-05	448.68	129.36	74.909	18.627	7.1441e-05	38.338	-35.006	-32.060	86.936	-72.176	140.071	17.888	-71.855	-68.645	52.038	271.864	-67.076	-62.694	-63.322	-58.515	50.602	-58.455	-8191	255	
1238.978	1	1	0	0	0.074925	0.17483	0.20478	0.089007	0.031224	0.13164	0.34622	0.22463	0.061029	0.22108	0.25514	0.24744	0.18284	0.13326	0.049493	0.079313	-2.8063	-3.2979	-3.0563	-3.2167	-3.4229	-3.2667	-3.525	-3.3125	-2.8521	-3.6229	-3.3167	-3.1333	-3.6688	-2.9479	-3.2729	-3.4813	86.868	59.727	-50.964	182.074	272.014	7.697	226.139	204.522	80.683	-75.674	-64.932	259.944	-37.097	264.216	-42.949	179.572	0.00017697	0.00012904	0.0022094	1208.9	1.2715e-05	1.8574e-06	1493.1	299.63	0.00015321	5.3855e-06	460.85	135.38	77.619	16.89	3.7336e-06	39.489	0.0037032	0.0070518	0.0076619	1141.1	6.6878e-05	7.8564e-05	1405.3	291.36	0.00011774	7.9087e-05	447.6	129.86	75.03	19.013	7.1272e-05	38.427	34.313	38.005	98.291	-72.432	88.518	119.554	-71.876	-68.286	-74.698	83.217	-66.970	-62.578	-63.454	-58.621	66.052	-58.115	-8191	255	
1239.050	1	1	0	0	0.17246	0.15028	0.057991	0.21209	0.04182	0.1205	0.32237	0.25208	0.20845	0.21088	0.096684	0.066396	0.29906	0.10578	0.2153	0.15879	-2.6104	-3.4292	-3.2625	-3.2667	-3.3167	-3.2167	-3.4854	-3.3625	-3.1542	-3.5938	-3.3583	-3.0708	-3.3521	-2.9792	-3.3229	-3.3458	107.775	-74.921	47.529	198.525	141.464	5.045	235.280	169.594	164.401	169.454	232.095	-73.616	221.067	267.584	-79.648	265.696	0.0004997	0.00045384	0.002272	1206.5	4.9385e-06	9.5516e-06	1501.5	300.4	0.00018527	1.0371e-05	466.13	135.63	77.96	17.192	1.4149e-05	39.831	0.0037397	0.0071714	0.0068139	1145.1	6.671e-05	8.195e-05	1413.1	285.84	0.00024484	8.1614e-05	449.88	130.38	75.531	18.752	7.0571e-05	38.608	-11.396	-36.645	108.641	-72.571	-4.856	58.891	-71.914	-67.875	-76.756	31.739	-66.722	-62.294	-63.167	-58.035	20.743	-57.674	-8191	255	
1239.146	1	1	0	0	0.12287	0.055495	0.16415	0.14139	0.24043	0.21575	0.40824	0.14284	0.25628	0.25616	0.063282	0.12178	0.050068	0.11728	0.21737	0.10369	-2.5521	-3.5104	-3.3229	-3.1042	-3.4646	-3.1458	-3.5083	-3.4646	-3.0854	-3.1417	-3.3646	-3.2146	-3.3958	-2.9854	-3.1271	-3.6833	-19.326	176.638	180.797	191.758	47.939	238.750	189.274	59.798	211.008	271.263	139.157	156.032	164.602	-29.953	128.972	-32.179	0.00023516	0.00043252	0.0030542	1224	1.5552e-05	6.6257e-06	1506.8	302.56	0.00017644	1.3702e-06	464.66	137.39	78.648	17.279	1.2594e-05	39.82	0.0037688	0.0072804	0.0077535	1152.4	6.7304e-05	8.1107e-05	1418.9	288.09	0.00022584	8.2032e-05	452.67	131.77	76.297	19.348	6.9626e-05	38.96	15.603	32.180	112.821	-72.213	62.223	109.503	-71.927	-67.836	-23.911	-37.944	-66.870	-62.752	-63.185	-57.986	20.224	-57.986	-8191	255	
1239.242	1	1	0	0	0.10543	0.13227	0.063259	0.3011	0.17144	0.22017	0.27196	0.057766	0.1959	0.085841	0.22662	0.081741	0.19577	0.10818	0.25744	0.21167	-2.7042	-3.2917	-3.4917	-3.3542	-3.5542	-3.1375	-3.3042	-3.6292	-3.1333	-3.2646	-3.4167	-3.1833	-3.5125	-3.1417	-2.8812	-3.5083	188.384	43.785	-0.923	236.204	186.229	268.470	230.167	213.817	94.514	188.879	153.321	259.689	175.795	-81.137	271.319	201.683	0.00048062	0.00095594	0.00073943	1219.6	6.2202e-06	8.7502e-06	1511.7	302.59	0.00022912	1.0871e-05	464.31	136.64	78.151	16.994	8.3183e-06	39.073	0.0038577	0.0071748	0.0042438	1176.4	6.8035e-05	8.0821e-05	1421.2	287.97	0.00025884	7.9963e-05	450.9	130.68	75.747	18.762	6.8244e-05	38.335	18.808	24.571	28.748	-72.352	214.388	69.132	-71.925	-67.751	-24.159	61.351	-66.795	-62.531	-63.448	-57.666	188.713	-57.785	-8191	255	
1239.363	1	1	0	0	0.11422	0.071249	0.10411	0.13323	0.08395	0.16522	0.19945	0.30958	0.19073	0.14769	0.20866	0.15434	0.23524	0.17999	0.078811	0.18831	-2.8146	-3.2729	-3.2667	-3.0479	-3.2458	-3.2438	-3.2479	-3.4813	-2.9417	-3.1771	-3.4792	-3.3021	-3.3521	-3.0875	-3.2229	-3.4958	161.261	115.089	65.864	17.035	139.883	171.106	235.387	-44.284	-52.156	181.198	201.771	219.689	171.077	184.771	183.517	68.589	0.00032168	0.00067448	0.00014178	1205.4	2.3039e-06	5.8991e-06	1493.1	297.63	0.00018939	6.7924e-06	459.95	134.93	77.912	16.975	9.5419e-06	39.376	0.0038292	0.0070323	0.0019242	1199.5	6.8467e-05	7.9824e-05	1403.9	284.23	0.00022922	7.8054e-05	446.09	129.77	75.31	19.077	6.6389e-05	38.364	15.105	49.895	33.316	-72.009	146.824	74.800	-71.867	-67.930	-20.362	-29.019	-67.598	-62.540	-63.407	-57.998	97.292	-58.115	-8191	255	
1239.459	1	1	0	0	0.41215	0.10446	0.12069	0.27324	0.2971	0.29595	0.285	0.22163	0.11657	0.18	0.11469	0.24737	0.088357	0.20885	0.053672	0.070473	-2.6708	-3.1146	-3.3333	-3.2854	-3.3979	-3.2521	-3.0563	-3.475	-3.3312	-3.3271	-3.5229	-3.0875	-3.2146	-3.1042	-3.1458	-3.3563	-27.426	209.700	-18.012	-42.656	180.086	142.526	230.559	66.159	184.589	-15.547	115.995	-21.520	-73.996	206.859	71.694	88.805	0.00019591	0.00040297	0.00026723	1205.9	4.4578e-06	8.6163e-06	1498.9	302.14	0.00021319	1.0698e-05	461.86	136.26	78.264	17.065	5.4856e-05	39.702	0.0038546	0.0069836	0.0019199	1194.2	6.7891e-05	8.0007e-05	1409.9	286.35	0.00025644	7.8048e-05	448.64	130.8	75.653	17.436	0.00014327	38.581	10.318	-42.887	-38.454	-72.080	44.667	157.214	-71.976	-68.107	-13.359	57.265	-67.331	-62.885	-63.182	-58.277	154.538	-58.142	-8191	255	
1239.555	1	1	0	0	0.1171	0.15214	0.10181	0.16115	0.12563	0.18782	0.14641	0.24791	0.063551	0.10088	0.23895	0.036655	0.17122	0.091184	0.16897	0.083914	-2.7396	-3.0625	-3.5646	-3.3896	-3.3396	-3.4792	-3.1417	-3.4688	-3.3021	-3.125	-3.4583	-2.9083	-3.2812	-3.3417	-3.2083	-3.5771	55.576	12.526	255.137	205.421	233.424	84.966	192.153	153.508	147.357	7.458	267.997	147.661	187.715	65.829	225.391	183.090	0.00023181	0.00070578	0.00031701	1206.1	1.1412e-05	8.699e-06	1503.9	301.5	0.00018109	8.2129e-06	465.62	136.34	79.134	16.711	0.00016329	39.526	0.0038651	0.0069292	0.0019185	1207.8	6.8957e-05	7.8642e-05	1415.9	287.61	0.00023055	7.6789e-05	451.03	131.42	76.117	16.539	0.00028011	38.733	-1.244	-35.030	11.025	-71.994	27.761	-29.526	-71.812	-67.974	-12.459	99.803	-67.199	-62.311	-63.105	-58.973	89.113	-58.238	-8191	255	
1239.651	1	1	0	0	0.081695	0.13432	0.049063	0.13898	0.18184	0.095046	0.40634	0.032565	0.10299	0.22676	0.084743	0.26406	0.037829	0.2729	0.062386	0.1197	-2.8104	-2.9042	-3.2458	-3.2646	-3.3125	-3.4542	-3.1667	-3.5438	-3.25	-3.0708	-3.2167	-3.0479	-3.3479	-3.4437	-3.0812	-3.5729	40.640	53.774	121.519	-74.426	174.711	139.431	-78.067	114.324	155.676	-15.190	-79.304	148.239	5.121	-46.883	128.173	223.531	0.0002705	0.00037983	0.00016753	1213.3	2.243e-06	1.3458e-05	1508.5	304.06	0.00018459	7.2543e-06	468.1	137.1	78.437	16.606	0.00012712	39.596	0.0039239	0.0068656	0.0020206	1204.8	6.8559e-05	7.8935e-05	1418.9	288.9	0.00025863	7.767e-05	452.76	131.72	76.019	16.604	0.00024909	38.655	-28.173	195.597	-13.053	-72.140	-52.233	55.072	-71.892	-68.024	26.975	8.055	-67.459	-62.656	-63.237	-58.411	88.727	-58.378	-8191	255	
1239.747	1	1	0	0	0.10932	0.071936	0.20569	0.13276	0.03775	0.088956	0.13517	0.042243	0.027052	0.2605	0.088038	0.1393	0.089036	0.062005	0.077646	0.30463	-2.9562	-2.8729	-3.1958	-3.1229	-3.1271	-3.4271	-3.4208	-3.3	-3.2729	-3.1667	-3.5104	-3.2708	-3.425	-3.3292	-3.1917	-3.1417	-45.274	63.729	62.429	-76.474	-26.214	-26.720	206.498	253.488	-74.501	265.017	85.067	6.332	257.727	134.148	-79.593	88.743	0.0003688	9.0966e-05	7.0838e-05	1199.1	1.4258e-05	3.5662e-06	1487.1	296.14	0.00016669	3.4068e-05	454.72	133.16	77.222	16.394	0.0001419	38.844	0.0038157	0.0068662	0.0020053	1199.4	6.6563e-05	7.8928e-05	1401.4	282.25	0.00012521	0.0001746	442.73	128.5	74.612	16.238	0.00027836	37.884	-29.185	-1.500	73.406	-72.380	110.188	76.341	-71.876	-68.173	32.212	-68.544	-67.103	-62.662	-63.462	-58.567	96.481	-57.969	-8191	255	
1239.842	1	1	0	0	0.11848	0.16639	0.075978	0.082012	0.055104	0.20837	0.41248	0.14403	0.13221	0.35281	0.1931	0.13534	0.22791	0.16894	0.10666	0.078468	-2.7562	-2.8646	-3.2438	-3.3187	-3.1	-3.4521	-3.2271	-3.3438	-3.25	-3.1625	-3.3542	-3.3271	-2.8563	-3.3396	-3.2042	-3.2896	133.535	254.458	82.072	131.605	94.017	73.122	197.952	-15.878	183.728	212.525	230.882	36.316	266.979	-11.388	203.625	213.618	0.00039001	0.00013882	0.000242	1189	1.152e-05	4.1438e-06	1480.1	296.1	3.6402e-06	0.00013596	462.55	135.22	76.991	16.432	0.00014289	39.123	0.0036932	0.0069644	0.0020096	1182.8	6.5496e-05	8.0711e-05	1394.8	281.6	6.4092e-05	0.00031326	446.55	129.52	74.548	16.343	0.0002479	38.244	25.778	-5.958	10.115	-72.487	105.221	140.497	-71.958	-67.850	-10.830	-18.111	-67.001	-62.923	-63.551	-58.123	104.738	-57.976	-8191	255	
1239.939	1	1	0	0	0.016326	0.17436	0.25297	0.094254	0.26129	0.081242	0.29226	0.097961	0.33652	0.0481	0.02496	0.16723	0.10292	0.12191	0.093267	0.15417	-2.95	-2.9188	-3.5208	-3.5021	-3.025	-3.5208	-3.2	-3.0792	-3.4167	-3.1604	-3.4875	-3.3354	-3.0125	-3.4521	-3.2687	-3.3167	-30.376	126.922	186.077	215.852	-15.186	32.453	213.959	237.417	122.019	178.932	163.286	259.257	116.574	251.953	-10.741	125.865	0.00040142	0.00029769	0.00016762	1210.9	7.8331e-06	6.4069e-06	1485.3	297.07	1.5384e-05	0.00010499	462.74	135.11	77.613	16.52	0.00016442	39.533	0.0037763	0.0071388	0.0020181	1193.9	6.5087e-05	8.0629e-05	1404.3	283.12	6.531e-05	0.00028033	448.26	129.91	75.001	16.403	0.00027938	38.335	-0.072	30.657	35.065	-72.426	130.906	64.359	-71.742	-67.943	100.781	-19.521	-66.818	-62.410	-63.397	-58.379	113.120	-58.067	-8191	255	
1240.058	1	1	0	0	0.13991	0.17671	0.17858	0.11566	0.067658	0.26269	0.14649	0.13133	0.22311	0.11447	0.10764	0.17137	0.092962	0.051737	0.14561	0.065718	-2.8354	-2.9167	-3.2833	-3.5479	-2.9437	-3.3521	-3.3292	-3.2667	-3.475	-3.0375	-3.3021	-3.3979	-3.0542	-3.4229	-3.1792	-3.2625	-51.887	-30.944	-73.133	186.865	192.369	-19.591	190.793	-55.105	-79.420	-85.499	0.857	-27.160	-3.110	17.413	-63.322	4.984	0.00032174	0.00096143	0.00020505	1218.5	0.00015512	9.8484e-07	1495.1	299.27	1.9084e-05	0.00012422	464.87	135.65	77.744	16.543	0.0001349	39.59	0.0037579	0.0070668	0.0020122	1162.1	0.00015509	8.1408e-05	1411.5	285.2	6.5628e-05	0.00031996	449.98	130.33	75.21	16.479	0.00024982	38.584	10.796	-52.217	9.570	-72.354	220.554	45.952	-71.801	-68.125	67.852	-1.242	-66.968	-62.555	-62.756	-58.196	109.967	-57.991	-8191	255	
1240.154	1	1	0	0	0.16789	0.039719	0.22196	0.070623	0.26129	0.15172	0.19967	0.068474	0.20069	0.049233	0.17903	0.24083	0.14817	0.10286	0.52657	0.35622	-2.8708	-2.9979	-3.225	-3.5312	-3.0271	-3.5333	-3.4583	-3.1625	-3.3583	-3.1396	-3.2646	-3.5625	-3.2875	-3.2562	-3.5146	-3.1417	14.342	86.829	-5.514	239.722	6.103	-16.751	193.048	-69.538	97.091	-28.323	-52.202	228.771	240.819	183.037	201.650	190.411	0.00039443	0.00044155	0.00031289	1219.8	0.00014212	5.1262e-06	1491.3	298.98	1.0865e-05	0.00012189	457.04	133.93	76.895	16.33	0.0001305	38.772	0.003904	0.0072563	0.0020223	1149.2	0.00027035	8.2766e-05	1405.6	284	6.7893e-05	0.00028726	444.75	128.68	74.586	16.282	0.00025761	37.761	-21.600	-3.350	23.494	-72.291	228.831	101.913	-72.005	-68.046	97.977	1.412	-67.282	-62.572	-63.348	-58.068	74.757	-57.812	-8191	255	
1240.251	1	1	0	0	0.2136	0.23579	0.13631	0.22881	0.27788	0.16536	0.27753	0.27046	0.16433	0.10649	0.21783	0.23753	0.074506	0.17074	0.28274	0.14076	-3.1229	-3.0812	-3.2021	-3.6458	-3.0042	-3.3	-3.6229	-3.0083	-3.3958	-3.1771	-3.1708	-3.4479	-3.2125	-3.2625	-3.3125	-3.1917	117.695	-15.045	-7.179	226.923	16.123	241.074	199.194	-43.334	3.088	268.954	-55.429	180.211	-72.839	-10.273	168.798	37.330	0.00035336	0.000381	0.00020066	1197.4	0.00013244	6.4782e-06	1479.9	296.26	1.7205e-05	0.00013529	456.5	134.49	76.812	16.331	0.00010691	38.578	0.0038914	0.0072694	0.0019593	1134.7	0.00023969	8.3166e-05	1395.7	281.61	6.8792e-05	0.00032015	443.16	128.88	74.663	16.271	0.0001178	39.888	-19.399	99.794	-28.583	-72.308	237.476	94.545	-71.774	-67.698	27.999	12.129	-66.950	-62.540	-63.699	-58.293	70.786	-57.487	-8191	255	
1240.347	1	1	0	0	0.24755	0.1594	0.14717	0.15798	0.11462	0.21911	0.21058	0.15522	0.30545	0.13522	0.014834	0.14021	0.45323	0.1376	0.18441	0.1838	-3.0708	-3.1167	-3.1854	-3.4938	-2.9562	-3.3146	-3.6063	-3.0354	-3.0583	-3.3333	-3.1958	-3.5646	-3.0083	-3.2208	-3.4437	-3.2292	-0.738	33.557	174.988	-80.916	-30.671	264.461	263.488	218.621	121.455	128.177	-71.457	-70.679	208.855	66.765	-16.752	-2.101	0.00020919	0.00076564	6.3889e-05	1217.9	0.00015694	5.8346e-06	1489.1	297.76	1.349e-05	9.6305e-05	457.27	134.29	77.006	16.456	1.1821e-05	39.128	0.0040587	0.0073747	0.0019994	1145.6	0.00027269	8.2206e-05	1404.2	283.71	6.8921e-05	0.00028759	445.14	129.13	74.839	16.376	7.1085e-05	42.082	19.298	-19.205	262.609	-72.470	243.154	12.663	-72.010	-67.772	-71.981	18.309	-67.256	-62.754	-63.265	-58.147	65.657	-57.354	-8191	255	
1240.443	1	1	0	0	0.27874	0.2916	0.15586	0.17865	0.25634	0.22101	0.22447	0.20159	0.11305	0.06927	0.075114	0.2787	0.061509	0.087504	0.065194	0.032049	-3.1375	-3.2812	-3.0042	-3.5271	-3.3271	-3.4375	-3.5542	-2.9917	-3.6063	-3.4938	-3.1479	-3.4188	-3.3563	-3.1604	-3.4833	-3.1813	2.732	11.142	-70.927	215.394	0.728	185.261	244.076	154.968	196.209	206.601	-68.842	224.824	188.870	35.986	216.214	182.923	0.00028176	0.0010812	6.4609e-05	1216.5	0.00013206	5.6849e-06	1497.7	298.99	9.7948e-06	0.00013823	461.92	135.84	77.986	16.438	1.0992e-05	39.088	0.0040857	0.0073381	0.0020456	1149.2	0.00024261	8.2164e-05	1410.1	284.9	7.0717e-05	0.00028603	449.29	130.46	75.415	16.381	7.4316e-05	41.742	33.378	-30.488	51.945	-72.336	254.835	85.846	-71.839	-67.909	90.197	25.416	-67.104	-62.418	-63.500	-57.922	21.554	-56.978	-8191	255	
1240.539	1	1	0	0	0.0034353	0.045938	0.19141	0.034105	0.056132	0.034638	0.33913	0.17733	0.16725	0.17859	0.20034	0.32945	0.04558	0.29166	0.27397	0.21539	-2.9583	-3.2771	-3.1146	-3.575	-2.975	-3.3937	-3.6729	-3.1104	-3.5479	-3.2	-2.9167	-3.4917	-3.0708	-3.1188	-3.5604	-3.0958	5.786	-47.205	-6.694	30.742	208.850	-7.015	231.421	29.044	65.369	-2.662	76.380	188.362	-4.942	211.766	-12.617	125.475	0.00030887	0.00038675	0.00017238	1215.8	0.00014632	1.2124e-05	1496.8	298.41	2.156e-05	0.00012051	457.54	134.78	76.556	16.421	4.3477e-06	38.29	0.0041057	0.0074499	0.0020462	1152.5	0.00027189	8.2e-05	1412.2	284.87	7.0223e-05	0.00012808	473.75	129.71	74.385	16.34	7.4593e-05	41.661	-18.870	31.273	-66.748	-72.529	258.332	57.515	-71.918	-67.853	72.462	23.451	-67.172	-62.671	-63.400	-58.286	106.421	-57.147	-8191	255	
1240.660	1	1	0	0	0.19566	0.203	0.17006	0.16649	0.28151	0.052944	0.35653	0.16518	0.15637	0.17331	0.17118	0.11262	0.22386	0.17536	0.16563	0.037644	-2.8354	-3.4021	-3.0625	-3.3708	-3.0875	-3.2438	-3.7396	-3.1188	-3.125	-3.2958	-3.0917	-3.2042	-3.2958	-2.9708	-3.4875	-3.0812	212.516	181.883	33.884	232.618	93.586	160.235	222.818	-79.721	14.956	-76.953	28.957	220.063	-51.654	249.479	-51.280	190.994	0.00029566	0.00043712	0.00032736	1199	0.00013572	4.7551e-06	1469.2	290.84	2.0699e-05	7.9771e-06	460.49	132.45	75.6	16.078	1.9857e-06	38.028	0.0040247	0.0071857	0.0020934	1134.8	0.00023672	8.2534e-05	1389.6	278.86	6.832e-05	8.0993e-05	490.42	127.25	73.228	15.987	7.5773e-05	40.581	-8.204	86.537	-47.202	-72.289	264.782	44.015	-72.088	-67.853	20.944	43.876	-67.283	-62.549	-63.501	-58.574	-44.939	-57.174	-8191	255	
1240.754	1	1	0	0	0.23202	0.054839	0.12923	0.028391	0.079751	0.15069	0.33272	0.14599	0.097862	0.090639	0.18933	0.21161	0.085056	0.13417	0.12663	0.18935	-2.7083	-3.5208	-3.0021	-3.1667	-3.3229	-3.1771	-3.5563	-3.0563	-3.2646	-3.4896	-2.9542	-3.3292	-3.2917	-3.0312	-3.4333	-3.3	11.381	270.507	182.958	4.238	96.964	237.138	226.303	217.791	167.664	11.733	183.569	183.790	3.534	214.689	187.585	218.922	0.00039148	0.00019097	0.00013162	1203.3	7.4131e-05	9.3433e-05	1478.3	292.89	1.1068e-05	3.0929e-06	461.74	132.59	75.917	16.05	1.3164e-05	38.519	0.0039509	0.0073333	0.0020825	1134.7	0.00022604	9.3963e-05	1394.9	279.93	6.7453e-05	8.2783e-05	487.11	128.09	73.514	16.104	7.4312e-05	41.63	13.799	-4.197	-9.842	-72.276	-28.447	242.129	-71.947	-67.915	201.602	116.035	-67.327	-62.777	-63.374	-58.614	-3.389	-57.104	-8191	255	
1240.850	1	1	0	0	0.26165	0.1708	0.091861	0.24214	0.32185	0.071253	0.20988	0.1346	0.080544	0.21432	0.090941	0.11474	0.15604	0.17476	0.15261	0.090784	-2.75	-3.3146	-3.0563	-3.5271	-3.4375	-3.1208	-3.4833	-3.2271	-3.0896	-3.5812	-3.0729	-3.3167	-3.3312	-3.2146	-3.4375	-3.1792	120.803	176.450	212.625	237.656	-59.735	88.240	172.135	59.211	0.681	-77.604	-77.224	265.807	130.777	148.255	-84.154	-57.241	0.00028037	0.00043201	5.6159e-05	1209.3	5.5864e-05	7.8493e-05	1486.5	296.34	5.0648e-06	4.5622e-06	467.07	134.34	76.681	16.291	3.6362e-06	38.476	0.0038811	0.0073834	0.0020973	1141.8	9.982e-05	0.00021482	1403.1	282.31	6.6479e-05	8.4486e-05	497.66	128.89	74.198	16.26	7.4289e-05	41.121	-0.769	-37.325	83.322	-72.376	-24.860	244.541	-71.750	-67.974	128.609	76.005	-66.807	-62.495	-63.310	-58.822	137.139	-57.389	-8191	255	
1240.922	1	1	0	0	0.19159	0.17174	0.13099	0.17551	0.27855	0.054368	0.27534	0.3664	0.24691	0.13843	0.13266	0.16425	0.19243	0.13413	0.12431	0.16169	-2.6188	-3.4208	-3.0771	-3.3646	-3.2833	-2.95	-3.6271	-3.2896	-3.075	-3.3854	-3.2854	-3.2271	-3.5021	-3.1792	-3.4396	-3.5479	212.756	160.430	154.446	263.590	-61.241	-81.519	222.468	219.655	124.199	178.754	140.507	6.906	160.862	84.916	-84.473	-34.207	0.00026037	0.00090859	0.00014406	1217.1	4.3886e-06	0.00010646	1502.8	300.8	1.8602e-05	4.1899e-06	472.65	134.59	76.974	16.474	6.4975e-06	39.386	0.0038675	0.007521	0.0020625	1150.9	6.8093e-05	0.0003189	1416.2	285.15	6.6058e-05	8.4169e-05	494.11	129.24	74.679	16.378	7.3375e-05	41.045	19.398	-2.284	3.766	-72.372	-55.225	-75.290	-71.944	-68.026	131.754	21.574	-67.102	-62.595	-63.405	-58.729	64.275	-57.728	-8191	255	
1241.020	1	1	0	0	0.18069	0.10221	0.20721	0.27563	0.031831	0.11177	0.41883	0.12885	0.31468	0.20524	0.26896	0.28817	0.11627	0.16929	0.20618	0.15226	-2.7562	-3.2854	-3.3167	-3.2896	-3.2062	-3.2333	-3.475	-3.4271	-2.9896	-3.325	-3.2062	-3.1562	-3.525	-3.2188	-3.1875	-3.4104	180.950	98.890	112.549	259.901	215.537	50.661	200.483	269.184	188.835	35.380	252.068	266.684	2.362	182.795	73.921	200.120	0.0027015	0.00075684	0.00037818	1213.4	1.0408e-05	8.9194e-05	1492.9	295.39	2.9198e-05	1.3832e-06	463.44	133.17	76.011	16.078	1.1367e-05	38.21	0.0049145	0.007525	0.0020616	1148	7.0083e-05	0.00028275	1404.6	281.98	6.6726e-05	8.362e-05	493.6	127.28	73.379	16.109	7.1556e-05	37.854	-46.835	29.896	64.674	-72.696	-36.299	-68.297	-71.787	-67.763	190.825	201.814	-66.951	-62.807	-63.433	-58.639	75.680	-57.704	-8191	255	
1241.139	1	1	0	0	0.15857	0.19508	0.18671	0.2591	0.20452	0.15334	0.2944	0.1209	0.075561	0.2422	0.12414	0.22549	0.10211	0.1978	0.14493	0.098702	-2.8104	-3.3021	-3.0771	-3.2875	-3.3604	-2.9938	-3.625	-3.4896	-3.0083	-3.3312	-3.3375	-3.2479	-3.4896	-3.3104	-3.2271	-3.4625	120.773	162.090	0.225	-73.151	177.385	151.304	206.802	-61.526	-80.946	84.892	97.943	211.256	247.272	-81.227	-85.653	210.609	0.0025613	0.00013014	0.00020746	1209.5	7.1564e-06	9.4224e-05	1482.5	297.11	1.2161e-05	1.3437e-05	463.77	132.41	76.115	16.085	1.0488e-05	38.624	0.01039	0.0073336	0.002049	1142.2	7.0076e-05	0.00031781	1398.9	282.39	6.9027e-05	8.325e-05	485.81	127.19	73.589	16.099	7.1406e-05	37.614	-43.342	21.255	-21.193	-72.208	51.513	-61.169	-71.714	-67.885	195.640	58.702	-67.246	-62.530	-63.315	-58.624	115.859	-57.812	-8191	255	
1241.235	1	1	0	0	0.24223	0.22665	0.026958	0.21069	0.12011	0.18563	0.36736	0.10072	0.20863	0.089095	0.28855	0.22671	0.074469	0.19403	0.087602	0.10866	-2.6396	-3.3646	-3.4083	-3.2542	-3.3563	-2.9271	-3.4083	-3.5687	-3.1292	-3.4646	-3.2562	-3.1937	-3.3646	-3.1917	-3.1708	-3.3521	-80.460	54.326	240.319	-84.965	-81.371	183.871	185.088	233.252	31.161	-1.095	-64.408	211.670	-49.556	221.351	145.806	69.246	0.0024762	0.00042581	8.275e-05	1219.3	6.4843e-06	9.8577e-05	1493.1	295.51	7.4631e-07	1.8182e-05	469.5	134.03	76.501	16.18	7.5217e-06	39.052	0.014559	0.007314	0.0020428	1148.3	7.0625e-05	0.00028275	1407.2	283.12	6.8266e-05	8.251e-05	482.04	129.69	74.141	16.178	7.138e-05	38.012	-68.453	24.554	-13.788	-72.279	96.286	-60.821	-71.819	-67.830	159.213	56.492	-66.930	-62.509	-63.424	-58.153	-8.538	-58.241	-8191	255	
1241.331	1	1	0	0	0.15082	0.049532	0.22661	0.30258	0.17353	0.070686	0.16594	0.33059	0.21063	0.12694	0.20582	0.27581	0.16166	0.26903	0.22057	0.15289	-2.7625	-3.3021	-3.3354	-3.15	-3.2208	-3.1063	-3.4646	-3.4604	-3.0271	-3.3312	-3.5229	-3.1083	-3.3729	-3.1396	-3.1833	-3.6021	251.269	122.168	150.892	225.337	136.836	110.363	226.577	232.500	196.014	219.230	157.318	179.121	-15.998	226.097	120.074	-68.005	0.0022198	0.00057075	9.1093e-05	1217.1	1.0472e-05	8.4612e-05	1504.5	298.48	1.2115e-05	3.9078e-06	473.36	134.43	76.024	16.358	3.3985e-06	39.154	0.01308	0.0073566	0.0020023	1151.6	7.1579e-05	0.00031421	1415	284.78	6.913e-05	8.1998e-05	452.43	135.15	74.563	16.309	7.0899e-05	38.346	-59.689	-7.011	30.622	-72.596	68.364	-62.932	-71.821	-68.180	8.951	100.579	-67.099	-62.187	-63.346	-58.725	94.963	-57.734	-8191	255	
1241.452	1	1	0	0	0.20902	0.076395	0.23632	0.092504	0.16121	0.12495	0.13146	0.41256	0.13819	0.032487	0.28997	0.10319	0.22159	0.22837	0.28573	0.25592	-2.6312	-3.2083	-3.5229	-3.1333	-3.1521	-3.3083	-3.3333	-3.4104	-3.1167	-3.4354	-3.5542	-3.1292	-3.3167	-3.0604	-3.1604	-3.5062	207.522	238.834	47.768	-52.144	128.784	-44.922	196.895	225.658	229.947	62.840	132.593	-37.722	191.032	-66.268	-63.330	192.605	0.0024045	0.0013697	9.385e-05	1214.9	1.3852e-06	8.5005e-05	1496.4	297.67	6.7944e-06	1.6077e-05	461.52	135.22	75.617	16.063	1.0391e-05	38.576	0.014498	0.0071514	0.0020284	1153.9	7.0924e-05	0.00027728	1409.9	283.71	6.9439e-05	8.0508e-05	445.69	136.5	73.504	16.073	7.2209e-05	37.667	-62.294	-20.112	145.007	-72.319	107.350	-46.692	-71.703	-67.999	98.879	101.260	-67.140	-62.334	-63.374	-58.854	111.413	-57.794	-8191	255	
1241.523	1	1	0	0	0.22329	0.22423	0.16102	0.11759	0.25577	0.047475	0.17399	0.054284	0.11032	0.24152	0.17676	0.19899	0.42002	0.20859	0.12581	0.03889	-2.7292	-3.0229	-3.2604	-3.175	-3.3396	-3.3125	-3.2833	-3.2583	-3.1771	-3.1542	-3.6833	-3.1396	-3.1542	-3.1583	-2.875	-3.5667	51.577	85.813	206.893	227.211	-71.297	177.320	183.850	1.299	-47.796	-10.685	-53.709	137.783	257.324	-58.337	69.968	87.333	0.0022461	0.00031232	0.00021223	1197.2	1.0351e-05	8.5019e-05	1477.2	292.8	1.0133e-05	4.7053e-06	449.15	133.78	74.799	15.957	6.3466e-06	38.538	0.01275	0.0072273	0.00207	1135.6	7.0754e-05	0.00023149	1400.8	279.22	6.8227e-05	8.0863e-05	439.88	133.6	72.79	15.943	7.2576e-05	37.563	-49.240	117.067	-5.637	-72.227	30.117	-3.995	-72.007	-68.023	29.474	-28.991	-66.892	-62.364	-63.511	-58.359	35.199	-57.978	-8191	255	
1241.619	1	1	0	0	0.24779	0.28935	0.066125	0.066435	0.09317	0.31618	0.42469	0.17151	0.19394	0.10257	0.24604	0.19639	0.10721	0.12282	0.10449	0.18734	-3.0021	-3.325	-3.3583	-3.0708	-3.1437	-3.3167	-3.1125	-3.5708	-3.1063	-3.0938	-3.3167	-3.1021	-3.2562	-3.4313	-2.8688	-3.3917	-24.906	177.748	75.481	49.428	-2.096	36.894	214.059	224.461	226.374	-51.517	-66.805	-34.209	15.423	-65.162	253.415	246.161	0.0029813	0.00053851	0.00010805	1205.1	5.4884e-06	7.2821e-05	1483.3	293.18	9.0296e-06	2.0386e-06	451.54	134.68	75.726	16.144	6.9046e-06	38.815	0.014192	0.0070875	0.0021056	1137.6	6.8758e-05	9.0425e-05	1429.7	279.96	6.714e-05	8.2011e-05	441.22	136.05	73.366	16.07	7.4012e-05	37.71	-41.201	5.746	33.731	-72.284	228.632	-2.066	-72.136	-68.099	50.745	118.937	-66.792	-62.123	-63.271	-58.023	37.829	-57.680	-8191	255	
1241.740	1	1	0	0	0.085627	0.14388	0.28053	0.046486	0.061763	0.064308	0.24441	0.07778	0.15419	0.093565	0.32473	0.14238	0.15561	0.049978	0.15878	0.097996	-2.8646	-3.1542	-3.2979	-3.1146	-3.1625	-3.2708	-3.4875	-3.5229	-3.2896	-3.0958	-3.2146	-3.0167	-3.25	-3.4813	-3.3104	-3.3896	244.157	141.326	128.148	19.713	-82.808	39.324	247.779	162.149	121.827	164.891	45.673	167.264	-72.155	189.007	224.594	110.512	0.0023554	0.00049866	5.8205e-05	1205.6	8.6132e-06	1.4986e-06	1495.4	295.33	1.0547e-05	9.5491e-06	461.36	134.81	76.506	16.316	5.0714e-06	38.671	0.012942	0.0073352	0.0021155	1142.4	6.897e-05	8.3339e-05	1453.4	281.42	6.8098e-05	8.1525e-05	447.15	136.03	74.136	16.238	7.5434e-05	38.037	-36.483	-33.035	-13.361	-72.292	145.538	-9.648	-72.205	-67.778	127.824	31.192	-67.016	-62.019	-63.639	-58.144	156.565	-57.887	-8191	255	
1241.834	1	1	0	0	0.094728	0.14841	0.17749	0.27814	0.13152	0.056412	0.39907	0.075263	0.21652	0.28786	0.0092167	0.038027	0.059273	0.14484	0.069112	0.16842	-2.8604	-3.1688	-3.3688	-3.15	-3.0187	-3.35	-3.3604	-3.2479	-3.4583	-3.1771	-3.5625	-3.2604	-3.1312	-3.3896	-3.1771	-3.575	260.190	141.406	-84.320	186.177	-36.988	196.298	206.356	163.796	161.147	256.667	-13.379	20.106	-37.754	201.394	234.730	172.361	0.00044237	0.010782	0.00021247	1213.5	1.3994e-05	8.6258e-06	1503.2	298.71	1.7988e-05	7.1517e-06	460.96	136.73	77.47	16.223	8.3468e-06	38.881	0.010769	0.012105	0.0021334	1145.4	6.9656e-05	8.4294e-05	1453.3	284.97	6.7296e-05	8.2029e-05	448.56	138.48	74.846	16.283	7.424e-05	37.968	234.117	156.346	7.348	-72.480	100.976	77.394	-72.222	-67.956	68.286	143.368	-67.321	-62.000	-63.400	-58.445	110.166	-58.340	-8191	255	
1241.932	1	1	0	0	0.16058	0.15335	0.16864	0.25198	0.26114	0.12327	0.29045	0.091139	0.097951	0.085686	0.23059	0.14524	0.17814	0.1772	0.10742	0.048442	-3.1042	-2.9437	-3.3417	-3.6229	-3.4042	-3.5375	-3.1875	-3.3125	-3.3375	-3.1604	-3.5208	-3.5187	-3.1083	-3.35	-2.8917	-3.25	67.241	170.925	-19.904	262.308	176.946	108.311	228.529	251.771	5.794	-8.640	209.118	168.184	235.788	209.820	96.542	224.644	0.00025897	0.009159	5.6045e-05	1202.7	1.2223e-05	5.1217e-06	1492	293.4	1.5668e-05	4.1728e-06	453.25	133.27	75.941	16.123	9.6722e-06	38.624	0.0039524	0.022451	0.0020705	1136.8	6.8118e-05	8.4262e-05	1445.9	279.42	6.8105e-05	8.316e-05	441.02	135	73.449	16.057	7.1863e-05	37.461	20.245	151.985	19.031	-72.429	88.112	145.043	-72.137	-68.225	249.682	-9.019	-67.065	-62.293	-63.409	-58.801	11.986	-57.761	-8191	255	
1242.051	1	1	0	0	0.09989	0.16188	0.068042	0.21052	0.19959	0.0998	0.054778	0.074929	0.15668	0.25463	0.013791	0.2529	0.23321	0.08288	0.18671	0.063527	-2.9583	-3.1333	-3.35	-3.2396	-3.0375	-3.275	-3.4354	-3.4437	-3.4979	-2.9917	-3.2062	-3.4167	-3.1042	-3.2333	-3.1292	-3.15	67.669	156.889	261.506	228.577	225.733	79.401	233.158	219.455	-10.302	225.347	-45.112	273.055	-11.407	226.655	67.189	246.889	0.0003802	0.011881	9.8192e-05	1197.2	1.5618e-05	5.4515e-06	1488.3	295.89	5.1152e-06	1.5132e-06	457.14	134.61	75.784	16.147	7.6685e-06	38.555	0.0039299	0.0283	0.0020162	1131.6	6.7965e-05	8.3523e-05	1436.4	280.86	6.838e-05	8.3324e-05	442.62	132.87	75.748	16.153	7.2333e-05	37.743	-25.307	149.434	29.380	-72.452	60.004	16.044	-71.940	-67.772	258.068	31.491	-67.301	-62.311	-62.798	-58.396	129.086	-57.942	-8191	255	
1242.147	1	1	0	0	0.091112	0.5284	0.26271	0.14981	0.13089	0.24447	0.1709	0.22847	0.16518	0.16941	0.26905	0.22766	0.088643	0.12931	0.31164	0.16796	-2.8833	-3.0708	-3.1771	-3.3396	-2.8438	-3.3208	-3.2771	-3.1188	-3.4062	-3.1583	-3.2667	-3.3396	-3.0875	-3.425	-3.2562	-2.9833	205.214	-32.745	6.544	247.935	-84.829	-22.563	218.538	-38.154	175.305	42.936	-76.819	244.261	-60.853	29.611	259.691	271.098	0.00028443	0.0098904	0.00021192	1203	6.9503e-06	7.2702e-06	1494.1	295.89	7.2995e-06	6.5685e-06	458.67	134.41	76.482	16.188	8.4552e-06	38.926	0.0040029	0.025121	0.0020128	1138	7.0714e-05	8.4456e-05	1450.1	282.44	6.8624e-05	8.3822e-05	444.7	129	80.101	16.237	7.1995e-05	38.069	-2.477	156.878	28.701	-72.475	168.766	50.144	-72.166	-68.022	260.396	116.004	-66.977	-62.638	-62.941	-58.137	9.718	-57.661	-8191	255	
1242.219	1	1	0	0	0.25977	0.11688	0.24993	0.18356	0.16432	0.087091	0.21146	0.25647	0.035826	0.18211	0.13319	0.31231	0.15315	0.15042	0.18686	0.11602	-3.0479	-3.2083	-3.2146	-3.4375	-2.95	-3.3875	-3.45	-3.1937	-3.2188	-3.0187	-3.3438	-3.3917	-3.1083	-3.5146	-3.2771	-3.1417	67.772	109.932	100.058	266.689	158.317	124.720	-68.494	206.728	65.075	239.502	223.258	238.416	117.557	24.534	-24.778	251.559	0.00018456	0.0098175	0.0001362	1212.9	2.0115e-05	9.9905e-07	1503.4	298.59	1.8234e-05	5.0766e-06	459.84	136.03	78.056	16.574	8.4368e-06	39.471	0.0040243	0.028401	0.0020139	1144.8	7.0556e-05	8.24e-05	1450.9	284.08	6.9338e-05	8.2053e-05	448.13	131.06	82.755	16.453	7.2745e-05	38.475	-0.885	166.148	33.311	-72.450	135.322	-21.251	-71.957	-68.026	120.366	62.208	-67.140	-62.745	-62.628	-58.499	-63.643	-57.857	-8191	255	
1242.340	1	1	0	0	0.15873	0.11424	0.16073	0.20686	0.18763	0.036132	0.01014	0.36278	0.16515	0.034339	0.091924	0.17594	0.13962	0.33178	0.14288	0.030935	-2.5979	-2.7917	-3.1583	-3.4688	-2.9354	-3.1771	-3.4792	-3.2542	-3.2771	-3.1292	-3.3083	-3.5979	-3.0875	-3.1521	-3.3688	-3.1875	169.054	-76.616	-50.067	-53.229	91.481	189.631	133.489	262.162	41.081	-52.102	82.757	145.983	172.049	217.757	-15.484	176.427	0.00020477	0.0093496	0.00020636	1211.1	5.1137e-06	2.2753e-06	1494.3	294.27	5.6443e-06	2.3077e-06	452.1	133.1	76.242	16.224	1.1952e-05	38.896	0.0040523	0.025085	0.0020222	1142	6.95e-05	8.2062e-05	1423.9	286.71	6.9423e-05	8.1151e-05	440.77	128.24	79.889	16.133	7.2114e-05	37.73	-18.398	171.474	-14.212	-72.398	223.150	-20.344	-71.939	-68.132	-23.282	158.194	-66.979	-62.761	-62.398	-58.333	50.863	-57.934	-8191	255	
1242.436	1	1	0	0	0.15576	0.28627	0.15154	0.38981	0.15069	0.080638	0.20757	0.15817	0.33666	0.045455	0.090321	0.17042	0.079994	0.10538	0.39665	0.19941	-2.9458	-2.9667	-3.1271	-3.6208	-3.0875	-3.3604	-3.3917	-3.0958	-3.3083	-3.3187	-3.1521	-3.2646	-2.9021	-3.2333	-3.3187	-3.3417	24.578	-30.579	112.050	179.273	265.251	68.161	213.404	241.455	179.311	-53.054	-52.826	-82.390	-54.428	75.523	140.093	236.648	0.00037313	0.0094342	0.00026801	1190	9.1041e-06	4.0115e-06	1465.5	291.33	1.3618e-05	1.7597e-05	452.41	133.06	76.31	16.037	7.3494e-06	38.553	0.0039833	0.027756	0.0020185	1123.2	7.0005e-05	8.0801e-05	1380.8	291.24	6.8657e-05	8.094e-05	438.54	127.5	80.713	16.017	7.3206e-05	37.588	-3.289	174.339	-24.677	-72.371	202.492	67.537	-71.701	-68.343	169.319	65.437	-67.330	-62.824	-62.184	-57.759	86.284	-58.322	-8191	255	
1242.532	1	1	0	0	0.20317	0.16481	0.26172	0.15354	0.025092	0.2163	0.17718	0.13122	0.29799	0.047131	0.034864	0.25441	0.05209	0.14941	0.17496	0.17075	-2.8667	-3.1208	-3.0229	-3.5271	-3.3063	-3.3563	-3.7292	-3.2083	-3.3271	-3.1688	-3.1271	-3.5333	-3.45	-3.2062	-3.4188	-3.2479	63.120	231.826	-65.086	-3.369	87.430	-84.470	207.827	232.814	10.620	-27.949	96.088	272.674	102.686	-34.198	65.812	1.580	0.00031457	0.0088296	8.1004e-05	1190.2	6.5876e-06	2.9037e-06	1472.2	296.19	1.029e-05	1.0691e-05	457.37	133.53	76.562	16.14	7.6354e-06	39	0.0039146	0.024803	0.0020543	1126.8	6.9651e-05	8.2281e-05	1386.7	296.32	6.7994e-05	8.2493e-05	441.29	128.41	80.045	16.077	7.4368e-05	37.759	-7.715	186.742	-14.777	-72.421	181.337	195.622	-71.901	-68.059	151.559	59.758	-67.227	-62.556	-62.528	-58.104	-78.590	-58.095	-8191	255	
1242.628	1	1	0	0	0.14237	0.14284	0.23012	0.12938	0.22884	0.29566	0.31771	0.27826	0.076276	0.37438	0.21821	0.30411	0.10188	0.31829	0.14108	0.12206	-3.1562	-3.0417	-2.8458	-3.4542	-3.2292	-3.1229	-3.5438	-3.2167	-3.3083	-3.1417	-3.1208	-3.6083	-3.2833	-3.2062	-3.4896	-3.2104	47.130	-85.055	133.793	257.487	-9.841	234.237	256.025	212.435	21.016	166.208	-51.937	219.558	48.011	54.985	-12.408	161.760	0.00036604	0.0034535	0.002789	1200.2	6.2165e-06	7.5327e-06	1478.6	298.45	1.0478e-05	7.0957e-06	456.05	134.77	76.714	16.3	1.2317e-05	39.014	0.0039611	0.0174	0.0041834	1132.5	6.9188e-05	8.2307e-05	1393.4	296.3	6.6877e-05	8.2753e-05	443.01	129.35	81.716	16.236	7.4132e-05	38.127	8.538	263.388	171.079	-72.531	261.644	61.402	-71.780	-68.131	145.608	3.233	-67.025	-62.345	-62.291	-58.434	89.345	-58.099	-8191	255	
1242.724	1	1	0	0	0.10141	0.17135	0.19512	0.20732	0.17615	0.15804	0.24541	0.054829	0.23295	0.19257	0.23982	0.088486	0.10358	0.26846	0.073951	0.2309	-3.0167	-3.1542	-3.0167	-3.5125	-3.2542	-2.9813	-3.5479	-3.2854	-3.2812	-3.4292	-3.0083	-3.25	-3.3375	-3.0438	-3.5312	-3.0062	46.695	-53.703	-17.326	169.855	74.620	190.739	238.367	101.781	201.518	-18.098	-64.889	108.612	264.136	228.241	-47.051	130.101	0.00010306	0.00031982	0.0024669	1206.6	1.5562e-05	6.1213e-06	1485	299.68	8.9517e-06	1.0787e-05	456.48	133.74	76.374	16.231	7.8872e-06	38.68	0.0039411	0.007269	0.0069835	1140.2	6.8673e-05	8.2421e-05	1401.6	300.1	6.731e-05	8.2524e-05	444.75	128.66	80.234	16.217	7.371e-05	37.686	23.914	86.510	179.343	-72.540	107.328	6.810	-71.878	-68.123	207.719	105.222	-66.720	-62.517	-62.800	-58.361	80.797	-58.167	-8191	255	
1242.819	1	1	0	0	0.2448	0.061582	0.16158	0.22568	0.19602	0.35653	0.28661	0.22625	0.06009	0.26571	0.30507	0.3077	0.15144	0.1098	0.26136	0.031851	-2.8271	-3.3021	-3.1229	-3.3438	-3.0812	-2.9521	-3.6833	-3.3375	-3.2417	-3.2896	-3.0438	-3.5542	-3.5021	-2.9875	-3.3208	-3.375	257.793	-80.038	-61.611	-81.587	158.576	0.422	183.635	-14.453	199.162	115.021	243.255	196.705	2.982	25.396	51.531	-84.274	0.00028584	0.00064587	0.0025637	1192.7	1.2365e-05	8.909e-06	1466.5	294	1.686e-05	1.2739e-05	449.59	132.57	76.521	15.686	6.9953e-06	38.585	0.0039157	0.007302	0.0079658	1124.9	6.9919e-05	8.1076e-05	1381.6	292.8	6.741e-05	8.0929e-05	436.38	127.1	76.62	17.129	7.0991e-05	37.554	-5.895	90.207	204.293	-72.403	8.867	49.686	-72.014	-67.957	55.771	79.966	-67.147	-62.659	-63.098	-57.163	-1.378	-57.886	-8191	255	
1242.915	1	1	0	0	0.089877	0.1405	0.18776	0.12153	0.068654	0.055595	0.17896	0.1933	0.15361	0.25727	0.22068	0.18979	0.047596	0.037325	0.02469	0.026562	-2.8	-3.4062	-3.1292	-3.3417	-3.35	-3.0938	-3.5271	-3.1312	-3.2729	-3.5021	-3.2687	-3.3917	-3.2146	-2.8021	-3.5792	-3.25	13.592	-64.593	106.881	206.470	134.613	265.554	172.806	192.070	24.261	-57.221	120.650	-72.701	195.465	116.430	63.570	176.774	0.00024092	0.00065579	0.0022394	1192.4	3.9074e-06	5.4556e-06	1476.4	298.71	1.251e-05	5.0278e-06	454.82	134.38	77.001	16.194	5.8988e-06	38.697	0.003845	0.0072072	0.007035	1128.7	6.841e-05	8.1728e-05	1388.3	297.82	6.6942e-05	8.1609e-05	441.77	128.97	74.437	18.504	7.1275e-05	37.929	-6.478	-64.542	213.959	-71.838	104.595	39.323	-71.754	-67.710	100.199	-66.020	-66.699	-62.601	-63.429	-56.934	117.795	-57.942	-8191	255	
1243.013	1	1	0	0	0.067529	0.29314	0.067328	0.12954	0.089011	0.089897	0.19862	0.17949	0.17707	0.35082	0.062591	0.1199	0.18673	0.13035	0.21068	0.25979	-2.7521	-3.2396	-2.9479	-3.3812	-3.3438	-3.1521	-3.4979	-3.1146	-2.9833	-3.3021	-3.0042	-3.3688	-3.5208	-3.2542	-3.2396	-3.25	86.020	192.565	71.580	35.592	-12.625	-34.850	-40.399	61.387	224.164	-76.124	-54.826	-79.506	241.123	-41.221	223.644	158.629	0.00020022	0.00051521	0.0026857	1202.3	2.6368e-06	5.9791e-06	1485.7	300.44	2.2673e-05	7.7806e-06	455.26	135.33	77.398	16.266	2.9836e-06	39.327	0.0038836	0.0072609	0.007929	1134	6.9369e-05	8.2218e-05	1395.7	297.29	6.7146e-05	8.2922e-05	444.69	130.08	75.058	19.073	7.0798e-05	38.339	-1.720	-2.272	216.525	-72.303	165.717	34.849	-71.471	-67.662	79.836	78.464	-67.159	-62.434	-63.145	-56.739	-32.838	-58.120	-8191	255	
1243.132	1	1	0	0	0.25223	0.082884	0.1814	0.27781	0.19961	0.076087	0.10637	0.14841	0.22531	0.20763	0.19594	0.10644	0.35042	0.078211	0.22678	0.26533	-2.4646	-3.3021	-3.2042	-3.4313	-3.4938	-3.1417	-3.575	-3.3875	-3	-3.2438	-3.2083	-3.1979	-3.3167	-3.0146	-3.2917	-3.3354	52.558	28.883	88.849	264.252	79.357	191.763	-59.894	-75.520	96.694	204.350	212.546	-41.592	151.749	59.990	193.434	208.104	0.00040852	0.00062896	0.0027817	1200.2	1.0264e-05	1.4279e-06	1484.7	301.11	3.9987e-05	8.4236e-06	460.25	135.93	77.385	16.423	4.0509e-06	39.456	0.0039317	0.0072832	0.0070869	1137.8	6.9385e-05	8.0632e-05	1401.7	290.84	0.00015762	8.0987e-05	446.36	130.78	75.157	18.779	7.0283e-05	38.276	10.941	-32.512	225.032	-72.569	95.140	204.315	-71.637	-67.785	182.114	69.237	-67.119	-62.536	-63.714	-57.612	12.371	-58.072	-8191	255	
1243.228	1	1	0	0	0.027641	0.12152	0.3466	0.22674	0.042475	0.1608	0.13132	0.074481	0.04096	0.032218	0.34233	0.1097	0.2895	0.17026	0.066649	0.21294	-2.6063	-3.25	-3.0125	-3.2542	-3.4896	-3.2938	-3.4896	-3.3708	-2.9625	-3.3021	-3.3312	-3.4604	-3.5083	-3.0042	-3.2167	-3.4792	256.926	6.042	118.088	238.430	152.684	164.935	131.537	253.542	44.209	136.066	206.747	265.625	117.836	40.875	8.398	12.267	0.00029507	0.00092044	0.0027197	1190.9	9.0685e-06	1.0139e-05	1468.2	290.69	0.0001911	9.3926e-06	450.75	131.95	75.024	15.767	9.1835e-06	38.417	0.0039479	0.0072043	0.0080369	1128.2	6.9748e-05	7.9662e-05	1385.1	278.45	0.00023354	7.9058e-05	437.49	127.14	73.244	18.675	7.0863e-05	37.453	19.697	-11.613	224.202	-72.350	92.344	152.445	-71.680	-68.057	80.134	172.110	-67.044	-62.912	-63.401	-56.624	51.879	-57.909	-8191	255	
1243.324	1	1	0	0	0.22481	0.10653	0.22727	0.31841	0.3151	0.19077	0.19987	0.18589	0.18468	0.042935	0.27098	0.25691	0.10222	0.072758	0.18629	0.38808	-2.8438	-3.2687	-3.2646	-2.9875	-3.2375	-3.1917	-3.5479	-3.4208	-3.1771	-3.4146	-3.2979	-3.1125	-3.325	-2.9979	-3.1125	-3.5062	165.304	47.893	-58.969	138.670	213.337	199.864	212.992	202.282	9.380	231.764	245.631	264.604	133.481	-4.454	195.190	-41.565	0.00025216	0.00051317	0.0014488	1175.6	4.6359e-06	7.4197e-06	1455.6	289.77	0.00026111	1.297e-05	448.94	131.69	75.599	15.688	5.171e-06	38.326	0.0038913	0.0070596	0.0068712	1111.3	6.919e-05	7.9971e-05	1373.6	276.7	0.00026187	8.05e-05	436.93	126.73	73.012	18.237	7.1764e-05	37.447	49.781	12.334	-63.010	-72.424	10.385	154.217	-71.744	-67.992	88.096	118.058	-67.061	-62.596	-63.404	-56.922	189.946	-58.006	-8191	255	
1243.420	1	1	0	0	0.1474	0.1218	0.18642	0.084952	0.16892	0.123	0.40701	0.10683	0.10633	0.099841	0.14873	0.15727	0.064081	0.090949	0.2681	0.22188	-2.6833	-3.2396	-3.4083	-2.9917	-3.2687	-3.25	-3.5187	-3.5542	-3.0708	-3.4208	-3.3187	-2.9604	-3.375	-3.1937	-3.2083	-3.6292	-38.661	39.087	-37.921	-13.666	237.355	41.247	-82.178	194.498	147.464	247.887	209.547	123.952	172.403	68.862	96.278	180.495	0.00028103	0.00062408	0.0018964	1177	4.2893e-06	2.9733e-06	1464	290.84	0.00019948	4.8608e-06	451.73	133.07	75.887	15.772	1.0837e-05	38.45	0.0039117	0.0072241	0.004048	1146.3	6.9318e-05	8.1402e-05	1379.1	278.02	0.00022913	8.1586e-05	440.38	127.44	73.424	18.7	7.2676e-05	37.73	-42.151	26.295	-72.938	-72.654	127.168	35.269	-71.778	-68.026	89.219	64.327	-66.932	-62.740	-63.309	-56.726	39.370	-57.793	-8191	255	
1243.516	1	1	0	0	0.2266	0.24939	0.33174	0.096824	0.16309	0.14877	0.32797	0.29756	0.064576	0.13263	0.084259	0.14873	0.055984	0.19477	0.087579	0.026837	-2.7562	-3.2438	-3.0875	-2.9875	-3.2771	-3.3104	-3.4021	-3.6521	-2.9979	-3.3125	-3.3833	-2.9938	-3.3854	-3.2521	-3.225	-3.5146	62.383	189.978	178.271	269.174	98.081	15.744	241.600	84.328	235.372	-56.008	40.120	266.906	81.199	176.261	12.975	-0.470	0.00022096	0.00056908	0.00023289	1189.4	1.0574e-05	1.8506e-06	1486	294.71	0.00025752	4.7254e-06	456.85	134.47	76.458	16.422	7.9976e-06	38.972	0.0038666	0.0072624	0.0020011	1175.7	6.8693e-05	8.1969e-05	1394.4	281.03	0.00025799	8.007e-05	444.66	128.87	74.213	18.371	7.0682e-05	38.201	-14.769	52.112	104.777	-72.706	10.758	155.718	-71.825	-67.911	92.991	143.264	-67.259	-62.599	-63.159	-57.662	-44.227	-57.879	-8191	255	
1243.612	1	1	0	0	0.06531	0.20751	0.11643	0.25124	0.12468	0.27277	0.2073	0.098937	0.061501	0.16038	0.25236	0.2051	0.42545	0.069442	0.20603	0.2599	-2.5917	-3.2083	-3.25	-3.2958	-3.3229	-3.3667	-3.2104	-3.4188	-3.0208	-3.2771	-3.5563	-3.1229	-3.3833	-3.0938	-2.9958	-3.3271	61.882	47.574	189.729	-82.753	-8.578	-23.067	195.899	-48.642	1.842	260.810	34.990	-85.053	260.714	-72.380	-22.250	267.720	0.00013436	0.0005335	0.00010633	1198.1	7.1815e-06	8.9885e-06	1483.7	293.55	0.00021182	1.2269e-05	456.52	133.52	75.737	16.222	0.00016769	38.66	0.0038017	0.0072693	0.0020189	1192.1	6.7721e-05	8.1434e-05	1396.2	280.87	0.00023185	7.9774e-05	442.25	128.17	73.694	16.886	0.00018623	37.566	-31.386	27.777	142.101	-72.814	262.872	122.142	-71.696	-68.119	99.312	9.439	-66.996	-62.688	-63.492	-57.511	204.833	-58.069	-8191	255	
1243.733	1	1	0	0	0.16791	0.13169	0.14343	0.14838	0.27025	0.13527	0.10742	0.08718	0.1733	0.19647	0.19971	0.11992	0.18382	0.065508	0.18806	0.070625	-2.8271	-3.0083	-3.3417	-3.2625	-3.2271	-3.4396	-3.15	-3.3	-3.0708	-3.1729	-3.4771	-3.1729	-3.1229	-3.3688	-3.1063	-3.4667	152.994	-59.677	232.137	-60.024	-83.878	110.380	214.992	211.946	196.847	178.893	237.203	-60.538	51.880	-76.749	234.951	27.794	0.00016082	0.00066445	0.00028217	1191.8	8.147e-06	3.8276e-06	1467.5	292.18	0.00026369	9.2059e-06	455.42	133.58	75.989	16.074	0.00012359	38.689	0.003768	0.0069756	0.0019904	1171.3	6.722e-05	7.9536e-05	1382	278.26	0.00026385	7.8642e-05	440.15	127.67	73.745	16.037	0.00024991	37.663	24.576	41.559	-33.706	-72.879	113.005	200.844	-71.933	-67.952	107.187	17.159	-67.186	-62.845	-63.646	-58.397	201.951	-57.978	-8191	255	
1243.829	1	1	0	0	0.13755	0.15559	0.11591	0.24725	0.30652	0.2429	0.11852	0.25679	0.10374	0.35688	0.19221	0.26716	0.21246	0.1338	0.13552	0.28428	-2.8021	-2.9646	-3.3187	-3.0208	-3.1229	-3.2896	-3.2271	-3.4646	-3.1729	-3.2271	-3.3354	-3.0792	-3.2271	-3.4375	-3.0333	-3.2938	101.810	-38.117	133.014	-27.871	-56.030	40.115	156.856	248.411	-44.020	9.450	8.575	209.197	224.592	21.662	229.419	-78.245	0.00032855	0.00069631	3.2708e-05	1197.2	2.2487e-05	1.0395e-05	1476.7	294.1	0.00023395	3.9945e-06	456.75	133.66	76.883	16.295	0.00014556	38.987	0.0038225	0.0069507	0.0019503	1188.6	6.6435e-05	8.0667e-05	1392.8	280.79	0.00021301	7.7948e-05	442.98	128.73	74.319	16.22	0.00028413	38.015	-12.728	-14.237	261.084	-72.744	61.719	45.068	-72.016	-67.796	86.002	88.076	-67.035	-62.517	-63.448	-58.492	195.367	-58.269	-8191	255	
1243.924	1	1	0	0	0.14575	0.059627	0.16265	0.1072	0.24285	0.2136	0.27685	0.099404	0.20154	0.1226	0.27521	0.081948	0.21341	0.18849	0.083322	0.068705	-2.7438	-2.9292	-3.3083	-3.2812	-3.1208	-3.3792	-3.1667	-3.3667	-3.2104	-3.0708	-3.2083	-3.0854	-3.2083	-3.4354	-2.9667	-3.2083	97.692	-8.365	192.887	176.317	113.075	198.163	193.905	270.230	36.364	257.739	233.911	157.259	245.761	-85.735	233.459	94.654	0.00041117	0.00076067	6.1851e-05	1206.8	4.5532e-06	8.4253e-06	1490.4	296.84	0.00024393	7.0388e-05	459.17	135.21	77.201	16.182	0.00013995	39.082	0.0038757	0.006934	0.001954	1184.6	6.7831e-05	7.9748e-05	1399.7	282.71	0.00011784	0.00022482	444.92	129.71	74.834	16.293	0.00025154	38.23	-9.239	-30.460	181.944	-72.629	-29.882	144.394	-71.706	-67.956	85.910	158.454	-66.989	-62.472	-63.433	-58.715	209.647	-58.052	-8191	255	
1244.020	1	1	0	0	0.35022	0.026883	0.10242	0.16431	0.20507	0.095168	0.24685	0.13036	0.18309	0.16903	0.10435	0.27843	0.11802	0.22679	0.06408	0.058219	-2.9062	-3.25	-3.4333	-3.3	-2.9792	-3.4167	-3.3312	-3.4104	-3.2333	-2.9313	-3.4854	-3.4	-2.95	-3.325	-3.2812	-3.2708	170.872	224.136	7.048	227.834	239.630	202.296	177.198	173.056	-17.786	73.762	71.474	236.937	258.909	124.453	-5.573	268.961	0.00031363	0.00078835	4.1098e-05	1211.4	6.5508e-06	4.5506e-06	1493.9	297.62	1.5265e-05	0.00011421	457.24	134.83	76.337	16.313	0.00014865	38.602	0.0038424	0.0069864	0.0019476	1201.1	6.6665e-05	7.9073e-05	1406.9	283.8	6.5562e-05	0.00028777	444.82	129.31	74.364	16.183	0.00028641	37.819	-4.782	13.990	253.507	-73.008	18.222	92.855	-71.879	-68.032	154.158	97.371	-66.965	-62.617	-63.384	-58.556	211.614	-57.979	-8191	255	
1244.116	1	1	0	0	0.12396	0.26975	0.082609	0.25482	0.086941	0.050802	0.13872	0.22342	0.20293	0.18523	0.13339	0.26252	0.21752	0.10587	0.018389	0.10501	-2.8187	-2.9542	-3.1854	-3.4813	-3.2792	-3.3167	-3.2542	-3.2438	-3.4813	-3.3208	-3.2313	-3.4437	-3.0771	-3.4083	-3.1104	-3.1792	193.067	248.324	-74.351	201.887	152.188	237.216	146.015	226.337	146.444	221.638	-42.387	246.903	158.737	217.447	44.364	-38.851	0.00032185	0.00095719	1.8756e-05	1192.2	5.9332e-05	5.0842e-06	1460.1	290.78	8.1043e-06	0.00013335	447.06	131.54	75.379	15.93	0.00013731	38.212	0.0038192	0.0069478	0.0019633	1162.3	6.9566e-05	7.7851e-05	1376.4	277.39	6.5021e-05	0.00032125	435.43	126.58	72.967	15.855	0.00025235	37.239	-1.433	-6.598	111.481	-72.583	264.461	152.947	-71.788	-67.741	47.753	93.251	-67.305	-62.742	-63.475	-58.432	222.290	-57.889	-8191	255	
#DATA ENDS
