BOXY.EXE: ISS Imagent and Oximeter Data Acquisition Program Version 0.80
Ascii Record File

#ACQ INFORMATION
2  Detector Channels 
16  External MUX Channels 
1  Auxiliary Channels 
5000  Waveform (CCF) Frequency (Hz)
1  Waveforms Skipped 
30  Waveforms Averaged 
1  Cycles Averaged 
16  Acquisitions per Waveform 
10.0806  Updata Rate (Hz) 

#FILE INFORMATION
TRUE -- External MUX Channel results are PARSED.
FALSE -- AC DC and Phase are NOT grouped.
TRUE -- Companion Program Settings File CREATED.
FALSE -- AC data not excluded
FALSE -- DC data not excluded
FALSE -- Phase data not excluded
FALSE -- Auxillary Chn. data not excluded
Tab delimiters

#CALIBRATION STATE
TRUE -- Waveform Calibration Values APPLIED.


#AUX CALIBRATION VALUES
Val Type	aux-1	

Term	1.0000e+00	
Factor	0.0000e+00	


#WF CALIBRATION VALUES
A = Detector Channel
Val Type	A-AC1	A-AC2	A-AC3	A-AC4	A-AC5	A-AC6	A-AC7	A-AC8	A-AC9	A-AC10	A-AC11	A-AC12	A-AC13	A-AC14	A-AC15	A-AC16	A-DC1	A-DC2	A-DC3	A-DC4	A-DC5	A-DC6	A-DC7	A-DC8	A-DC9	A-DC10	A-DC11	A-DC12	A-DC13	A-DC14	A-DC15	A-DC16	A-Ph1	A-Ph2	A-Ph3	A-Ph4	A-Ph5	A-Ph6	A-Ph7	A-Ph8	A-Ph9	A-Ph10	A-Ph11	A-Ph12	A-Ph13	A-Ph14	A-Ph15	A-Ph16	

Term	0.00000e+00	0.00000e+00	0.00000e+00	0.00000e+00	0.00000e+00	0.00000e+00	0.00000e+00	0.00000e+00	0.00000e+00	0.00000e+00	0.00000e+00	0.00000e+00	0.00000e+00	0.00000e+00	0.00000e+00	0.00000e+00	0.00000e+00	0.00000e+00	0.00000e+00	0.00000e+00	0.00000e+00	0.00000e+00	0.00000e+00	0.00000e+00	0.00000e+00	0.00000e+00	0.00000e+00	0.00000e+00	0.00000e+00	0.00000e+00	0.00000e+00	0.00000e+00	0.00000e+00	0.00000e+00	0.00000e+00	0.00000e+00	0.00000e+00	0.00000e+00	0.00000e+00	0.00000e+00	0.00000e+00	0.00000e+00	0.00000e+00	0.00000e+00	0.00000e+00	0.00000e+00	0.00000e+00	0.00000e+00	
Factor	1.00000e+00	1.00000e+00	1.00000e+00	1.00000e+00	1.00000e+00	1.00000e+00	1.00000e+00	1.00000e+00	1.00000e+00	1.00000e+00	1.00000e+00	1.00000e+00	1.00000e+00	1.00000e+00	1.00000e+00	1.00000e+00	1.00000e+00	1.00000e+00	1.00000e+00	1.00000e+00	1.00000e+00	1.00000e+00	1.00000e+00	1.00000e+00	1.00000e+00	1.00000e+00	1.00000e+00	1.00000e+00	1.00000e+00	1.00000e+00	1.00000e+00	1.00000e+00	X	X	X	X	X	X	X	X	X	X	X	X	X	X	X	X	

B = Detector Channel
Val Type	B-AC1	B-AC2	B-AC3	B-AC4	B-AC5	B-AC6	B-AC7	B-AC8	B-AC9	B-AC10	B-AC11	B-AC12	B-AC13	B-AC14	B-AC15	B-AC16	B-DC1	B-DC2	B-DC3	B-DC4	B-DC5	B-DC6	B-DC7	B-DC8	B-DC9	B-DC10	B-DC11	B-DC12	B-DC13	B-DC14	B-DC15	B-DC16	B-Ph1	B-Ph2	B-Ph3	B-Ph4	B-Ph5	B-Ph6	B-Ph7	B-Ph8	B-Ph9	B-Ph10	B-Ph11	B-Ph12	B-Ph13	B-Ph14	B-Ph15	B-Ph16	

Term	0.00000e+00	0.00000e+00	0.00000e+00	0.00000e+00	0.00000e+00	0.00000e+00	0.00000e+00	0.00000e+00	0.00000e+00	0.00000e+00	0.00000e+00	0.00000e+00	0.00000e+00	0.00000e+00	0.00000e+00	0.00000e+00	0.00000e+00	0.00000e+00	0.00000e+00	0.00000e+00	0.00000e+00	0.00000e+00	0.00000e+00	0.00000e+00	0.00000e+00	0.00000e+00	0.00000e+00	0.00000e+00	0.00000e+00	0.00000e+00	0.00000e+00	0.00000e+00	4.67397e+01	-1.30593e+02	-1.28560e+02	-1.82133e+02	-7.13561e+01	-6.37854e+01	-1.59775e+02	-1.62015e+02	-3.55692e+01	-6.66304e+01	-1.82301e+02	-1.72751e+02	-1.82364e+02	-1.77708e+02	-6.69385e+01	-1.50988e+02	
Factor	5.16967e-05	2.20746e-04	6.02337e-05	2.02139e-01	3.18311e-06	2.24735e-06	1.81842e-01	6.28231e-02	4.81416e-06	2.76037e-06	1.95858e-01	3.19635e-02	2.65861e-02	9.75009e-03	3.16166e-06	1.39849e-02	1.97713e-05	3.80923e-05	1.06821e-05	9.89599e-02	3.61803e-07	4.32140e-07	8.38008e-02	3.08556e-02	3.53419e-07	4.30013e-07	9.30715e-02	1.52886e-02	1.31760e-02	4.84352e-03	3.78907e-07	6.73875e-03	X	X	X	X	X	X	X	X	X	X	X	X	X	X	X	X	



#DISTANCE SETTINGS
A = Detector Channel
A-1	A-2	A-3	A-4	A-5	A-6	A-7	A-8	A-9	A-10	A-11	A-12	A-13	A-14	A-15	A-16	

2.5000e+00	3.0000e+00	2.5000e+00	3.0000e+00	2.0000e+00	3.0000e+00	1.5000e+00	3.0000e+00	3.0000e+00	3.0000e+00	3.0000e+00	3.0000e+00	3.0000e+00	3.0000e+00	1.5000e+00	3.0000e+00	

B = Detector Channel
B-1	B-2	B-3	B-4	B-5	B-6	B-7	B-8	B-9	B-10	B-11	B-12	B-13	B-14	B-15	B-16	

1.0000e+01	1.0000e+01	1.0000e+01	1.4400e+00	1.0000e+01	1.0000e+01	1.5100e+00	1.9400e+00	1.0000e+01	1.0000e+01	1.9900e+00	2.4900e+00	2.4100e+00	2.9000e+00	1.0000e+01	2.9800e+00	




#DATA BEGINS
time	group	step	mark	flag	A-AC1	A-AC2	A-AC3	A-AC4	A-AC5	A-AC6	A-AC7	A-AC8	A-AC9	A-AC10	A-AC11	A-AC12	A-AC13	A-AC14	A-AC15	A-AC16	A-DC1	A-DC2	A-DC3	A-DC4	A-DC5	A-DC6	A-DC7	A-DC8	A-DC9	A-DC10	A-DC11	A-DC12	A-DC13	A-DC14	A-DC15	A-DC16	A-Ph1	A-Ph2	A-Ph3	A-Ph4	A-Ph5	A-Ph6	A-Ph7	A-Ph8	A-Ph9	A-Ph10	A-Ph11	A-Ph12	A-Ph13	A-Ph14	A-Ph15	A-Ph16	B-AC1	B-AC2	B-AC3	B-AC4	B-AC5	B-AC6	B-AC7	B-AC8	B-AC9	B-AC10	B-AC11	B-AC12	B-AC13	B-AC14	B-AC15	B-AC16	B-DC1	B-DC2	B-DC3	B-DC4	B-DC5	B-DC6	B-DC7	B-DC8	B-DC9	B-DC10	B-DC11	B-DC12	B-DC13	B-DC14	B-DC15	B-DC16	B-Ph1	B-Ph2	B-Ph3	B-Ph4	B-Ph5	B-Ph6	B-Ph7	B-Ph8	B-Ph9	B-Ph10	B-Ph11	B-Ph12	B-Ph13	B-Ph14	B-Ph15	B-Ph16	aux-1	digaux	

386.351	1	1	0	256	0.159	0.20219	0.11504	0.15571	0.083005	0.14011	0.063873	0.12352	0.13224	0.1693	0.087378	0.23336	0.092273	0.11816	0.17264	0.1724	-3.4188	-3.5792	-3.6312	-3.6854	-3.7104	-3.6833	-3.5625	-3.6542	-3.4896	-3.4313	-3.8104	-3.7021	-3.6167	-3.7208	-3.3438	-3.625	257.346	289.389	390.134	129.171	201.394	117.030	364.679	448.040	251.745	377.121	238.991	428.046	404.688	336.569	427.966	359.612	0.00072058	0.00036373	6.153e-05	1172.9	6.7588e-06	3.3759e-06	1238.2	240.76	1.1164e-05	3.9716e-06	303.04	84.945	66.852	18.752	2.5707e-06	26.536	0.00037545	0.00031537	8.3098e-05	1163.8	3.6361e-06	3.3644e-06	1228.8	240.46	3.4039e-06	3.5162e-06	302.93	85.206	66.905	19.052	3.2468e-06	27.14	346.959	167.868	151.060	98.726	233.874	244.155	98.859	106.123	283.362	246.121	105.884	112.199	112.761	119.612	291.833	118.538	-8191	255	
386.447	1	1	0	0	0.22338	0.12949	0.046009	0.078707	0.079492	0.039448	0.23089	0.17369	0.15267	0.15808	0.27285	0.10473	0.42808	0.060391	0.14217	0.091686	-3.1479	-3.4667	-3.6146	-3.5792	-3.5042	-3.6208	-3.7021	-3.5542	-3.6604	-3.2979	-3.7188	-3.5396	-3.4958	-3.7562	-3.425	-3.5833	151.630	323.526	142.862	111.913	358.882	392.859	394.131	391.450	342.589	195.570	153.464	187.064	431.968	273.352	192.210	444.961	0.00076985	0.00022923	8.4661e-05	1164	6.5232e-06	1.1059e-06	1229.3	239.7	1.0299e-05	3.335e-06	302.23	84.249	66.717	18.618	6.3909e-06	26.545	0.00038167	0.00030267	8.4055e-05	1158.1	3.505e-06	3.2401e-06	1221	239.38	3.1712e-06	3.3819e-06	301.77	84.989	66.654	18.964	3.0399e-06	27.002	348.243	158.623	148.328	98.704	244.969	257.917	98.802	106.133	294.489	228.444	105.755	112.269	112.784	119.307	235.055	118.717	-8191	255	
386.543	1	1	0	0	0.24572	0.31561	0.15589	0.14186	0.11182	0.14258	0.24793	0.071532	0.042675	0.14428	0.044439	0.19016	0.29533	0.22598	0.1372	0.11483	-3.0396	-3.3583	-3.8187	-3.6354	-3.3479	-3.8438	-3.525	-3.4646	-3.7812	-3.4917	-3.7104	-3.5604	-3.5208	-3.9604	-3.4125	-3.4354	206.792	314.736	126.980	392.808	232.196	105.688	425.660	407.621	241.824	370.599	365.561	303.312	381.244	438.182	205.988	252.082	0.00078948	0.0003066	9.8676e-05	1159.2	6.772e-06	2.592e-06	1225.5	238.88	7.9288e-06	2.7618e-06	299.73	84.174	66.382	18.465	6.2423e-06	26.122	0.00037837	0.00028617	8.0695e-05	1151.8	3.5668e-06	3.0448e-06	1214.2	237.99	2.9054e-06	2.9008e-06	300.44	84.588	66.23	18.879	2.8402e-06	26.831	348.766	160.606	176.257	98.765	227.426	247.857	98.705	106.145	292.200	274.473	105.381	112.213	112.750	119.608	251.347	118.814	-8191	255	
386.639	1	1	0	0	0.2865	0.24286	0.11577	0.30934	0.23355	0.082879	0.18062	0.29712	0.11539	0.11828	0.1678	0.26667	0.077521	0.30816	0.081222	0.06797	-3.2396	-3.4167	-3.6917	-3.6312	-3.2604	-3.7521	-3.6958	-3.6146	-3.8292	-3.3104	-3.7896	-3.6604	-3.3146	-3.7687	-3.5583	-3.4833	156.391	347.362	196.337	432.663	409.284	190.049	369.431	363.984	275.968	341.341	275.870	331.016	404.508	433.546	290.810	179.361	0.00074961	0.00026522	7.3787e-05	1150.1	8.1366e-06	2.5078e-06	1216.2	237	1.0903e-05	3.9852e-06	299.07	83.748	65.696	18.536	3.0229e-06	26.507	0.00035205	0.00026712	7.7557e-05	1141.5	3.4107e-06	2.627e-06	1205	236.77	3.0011e-06	2.839e-06	299.55	84.192	65.832	18.846	2.721e-06	26.84	349.166	171.528	192.579	98.740	242.002	255.589	98.788	106.114	274.504	226.343	105.606	112.613	112.696	119.855	235.171	118.940	-8191	255	
386.760	1	1	0	0	0.073737	0.1681	0.22403	0.43427	0.072631	0.047021	0.38487	0.13024	0.17293	0.13279	0.32214	0.11437	0.23023	0.16144	0.045933	0.16792	-3.3583	-3.3271	-3.7062	-3.7313	-3.3042	-3.6958	-3.7646	-3.4437	-3.8271	-3.4375	-3.7438	-3.6875	-3.4562	-3.75	-3.6271	-3.2646	137.913	243.553	417.429	430.333	135.444	236.409	390.143	376.678	337.652	272.397	382.587	152.030	131.128	91.339	192.258	123.430	0.0007214	0.00034771	9.2433e-05	1145.8	5.5516e-06	2.6145e-06	1207.4	235.84	8.2759e-06	2.1782e-06	297.11	83.305	65.863	18.488	4.227e-06	26.256	0.00033685	0.00025474	6.772e-05	1135.1	3.1974e-06	2.8224e-06	1197.4	235.95	2.9731e-06	2.8918e-06	297.82	83.943	65.845	18.811	2.7447e-06	26.723	352.284	191.120	210.333	98.858	218.408	280.022	98.848	106.282	267.249	288.322	105.782	112.207	112.502	119.838	266.550	118.844	-8191	255	
386.832	1	1	0	0	0.16777	0.096662	0.1391	0.18157	0.20154	0.13192	0.081005	0.26969	0.11445	0.15539	0.26508	0.027749	0.12923	0.070034	0.13777	0.027293	-3.2896	-3.3667	-3.5687	-3.7188	-3.3604	-3.8312	-3.6979	-3.3688	-3.8479	-3.4542	-3.5458	-3.8208	-3.4188	-3.6917	-3.5917	-3.3604	109.858	299.683	299.436	104.241	280.143	289.565	410.539	318.315	261.158	99.322	252.428	255.333	155.837	419.082	387.191	233.416	0.00074531	0.00028473	5.2837e-05	1142.4	7.5413e-06	2.6199e-06	1208.9	236.87	1.0064e-05	3.9157e-06	297.05	83.32	65.646	18.436	6.6309e-06	26.373	0.00034258	0.00026101	7.3573e-05	1133	3.2321e-06	2.6586e-06	1198.6	236.22	2.926e-06	2.9832e-06	297.32	83.894	65.758	18.817	2.8836e-06	26.81	348.821	168.042	197.455	98.789	244.639	234.058	98.639	106.243	266.181	246.599	105.635	112.496	112.989	119.894	213.728	118.706	-8191	255	
386.952	1	1	0	0	0.17581	0.09975	0.27304	0.18664	0.11179	0.29783	0.20967	0.02483	0.1163	0.22279	0.1898	0.1429	0.17879	0.089333	0.2418	0.050939	-3.3875	-3.3812	-3.5583	-3.925	-3.4062	-3.6937	-3.85	-3.5479	-3.625	-3.6021	-3.5896	-3.7687	-3.4042	-3.5917	-3.6771	-3.4771	286.863	95.729	261.836	352.250	206.743	442.462	346.181	360.490	107.474	203.963	104.914	295.016	150.643	88.554	169.582	376.060	0.00074595	0.00036363	9.6175e-05	1140.9	6.5114e-06	3.9848e-06	1208.1	237.7	1.0394e-05	2.8051e-06	296.89	83.496	65.765	18.597	3.9297e-06	26.261	0.00035078	0.00026768	6.8811e-05	1133.3	3.1778e-06	3.097e-06	1198.7	236.32	2.9238e-06	2.7216e-06	297.64	84.007	65.755	18.821	2.7526e-06	26.768	351.175	175.094	208.001	98.941	236.200	256.141	98.750	106.238	267.109	228.615	105.847	112.501	113.018	119.763	257.009	118.903	-8191	255	
387.047	1	1	0	0	0.12592	0.10042	0.11952	0.13485	0.078836	0.1076	0.4139	0.15631	0.073446	0.14202	0.16069	0.24464	0.16033	0.10486	0.020056	0.27795	-3.3312	-3.5521	-3.5792	-3.8688	-3.6	-3.5896	-3.6771	-3.4458	-3.4896	-3.5771	-3.55	-3.7646	-3.4208	-3.7542	-3.6542	-3.375	373.306	390.669	122.124	416.446	132.002	348.923	391.735	92.047	423.839	226.563	406.603	414.267	288.661	143.672	360.790	110.849	0.00075967	0.00031092	4.6812e-05	1141.3	3.792e-06	3.7182e-06	1206.6	236.54	9.6804e-06	3.5976e-06	295.45	83.671	65.302	18.543	5.7999e-06	26.198	0.00034674	0.00026363	7.0502e-05	1132.3	3.2487e-06	2.9196e-06	1195.4	235.77	2.8796e-06	2.6715e-06	297.35	83.885	65.762	18.843	2.7289e-06	26.732	348.693	169.827	203.659	98.727	244.276	232.955	98.804	106.159	274.527	285.893	105.830	112.439	112.721	119.614	221.405	118.696	-8191	255	
387.143	1	1	0	0	0.25548	0.1051	0.10796	0.24487	0.171	0.19902	0.3973	0.1938	0.2133	0.22192	0.10507	0.15836	0.14106	0.059843	0.12745	0.1745	-3.2354	-3.6771	-3.4062	-3.9	-3.5542	-3.425	-3.9062	-3.5708	-3.6875	-3.7	-3.5104	-3.7313	-3.5	-3.625	-3.7687	-3.4208	148.899	373.457	411.556	102.159	184.269	125.206	388.497	361.163	208.526	101.734	191.832	351.266	428.875	410.906	130.092	422.236	0.00073076	0.00049	6.7389e-05	1138.8	3.5155e-06	1.876e-06	1207.9	236.75	1.0374e-05	3.7216e-06	297.71	82.69	65.556	18.562	7.3096e-06	26.109	0.00033862	0.00026085	7.3084e-05	1131.9	2.9615e-06	2.7891e-06	1195.9	235.52	2.9216e-06	2.9805e-06	298.13	83.664	65.676	18.839	2.706e-06	26.708	345.351	150.470	189.077	98.740	248.764	248.199	98.802	106.081	285.968	250.794	105.736	112.053	112.830	119.954	234.587	118.692	-8191	255	
387.241	1	1	0	0	0.014477	0.10715	0.12989	0.25012	0.30259	0.23073	0.11887	0.058689	0.14618	0.23537	0.19449	0.27536	0.044739	0.25025	0.15927	0.13094	-3.1625	-3.6583	-3.3104	-3.7083	-3.7438	-3.5354	-3.8958	-3.45	-3.6	-3.5708	-3.4854	-3.7792	-3.625	-3.5333	-3.7833	-3.6042	184.314	296.882	112.377	148.208	339.884	244.847	293.552	429.439	411.816	139.853	392.917	402.789	122.535	216.727	351.713	202.096	0.00074601	0.00028287	8.6553e-05	1141.3	3.8546e-06	3.0472e-06	1207.3	235.82	9.105e-06	4.5628e-06	297.17	83.475	65.513	18.452	4.172e-06	26.185	0.00034134	0.00024403	7.2527e-05	1130.3	3.0934e-06	2.7846e-06	1193.5	235.66	3.0247e-06	2.6849e-06	297.4	83.721	65.444	18.754	2.86e-06	26.665	350.478	176.179	188.952	98.731	237.281	229.050	98.641	106.180	271.945	223.332	105.645	112.633	112.979	119.697	250.975	118.962	-8191	255	
387.360	1	1	0	0	0.15122	0.08824	0.25306	0.3107	0.24719	0.21268	0.11503	0.105	0.091739	0.050177	0.19499	0.01581	0.33	0.071152	0.022061	0.0095499	-3.1958	-3.5792	-3.1813	-3.6937	-3.5125	-3.4917	-3.8458	-3.5375	-3.4896	-3.6312	-3.1604	-3.6542	-3.5729	-3.5896	-3.6958	-3.5208	157.881	211.215	244.464	382.455	177.391	359.438	347.304	94.779	212.266	257.537	284.700	269.168	436.328	432.106	245.912	113.864	0.00071195	0.00039474	9.6201e-05	1135.6	4.687e-06	2.5175e-06	1202.1	235.55	1.3327e-05	3.6854e-06	298.11	83.182	65.628	18.442	5.0594e-06	26.275	0.00034645	0.00024601	7.5888e-05	1128.7	3.2283e-06	3.2528e-06	1193.2	234.87	3.3177e-06	3.0325e-06	298.1	83.734	65.504	18.786	2.9231e-06	26.727	347.709	193.286	196.404	98.726	233.942	259.161	98.638	106.170	286.778	257.736	105.599	112.535	112.922	119.686	236.163	118.891	-8191	255	
387.431	1	1	0	0	0.18575	0.17842	0.19254	0.28661	0.036119	0.3191	0.094985	0.24664	0.10796	0.090805	0.24924	0.25653	0.1646	0.21641	0.023593	0.066763	-3.0125	-3.7521	-3.3812	-3.8396	-3.5646	-3.3333	-3.9625	-3.5458	-3.5812	-3.8104	-3.4646	-3.7938	-3.4979	-3.2	-3.6646	-3.5417	443.703	205.993	421.377	166.486	103.697	286.899	388.134	348.460	214.038	228.150	110.765	243.035	92.961	95.169	314.511	223.038	0.00073179	0.00025973	0.00011956	1138.8	5.9594e-06	3.2836e-06	1205	235.76	1.1557e-05	4.8401e-06	296.83	83.387	65.682	18.46	6.0351e-06	26.247	0.00035115	0.00026633	8.0272e-05	1130.6	3.2223e-06	3.133e-06	1193.6	235.15	3.1727e-06	2.7664e-06	297.3	83.701	65.626	18.773	2.9515e-06	26.777	348.458	177.690	167.053	98.856	234.524	246.762	98.709	105.950	277.288	240.967	105.317	112.276	112.966	119.582	244.121	118.827	-8191	255	
387.552	1	1	0	0	0.099193	0.097139	0.14458	0.238	0.12674	0.020688	0.20246	0.094363	0.068985	0.073896	0.1785	0.014048	0.17637	0.1387	0.139	0.045729	-3.2562	-3.7292	-3.3646	-3.7083	-3.6854	-3.4	-3.6792	-3.6646	-3.4625	-3.6146	-3.3833	-3.7062	-3.7917	-3.2979	-3.7604	-3.5563	308.646	430.447	96.714	128.254	436.243	167.335	261.214	274.310	113.657	382.930	394.435	249.480	435.269	304.029	323.523	147.414	0.00073326	0.00038372	8.2527e-05	1138.7	5.1079e-06	3.2955e-06	1203.7	235.63	9.9105e-06	1.9222e-06	295.86	83.315	65.544	18.365	6.2031e-06	26.342	0.00035774	0.00026379	7.9515e-05	1128.3	3.2216e-06	2.9665e-06	1191.1	235.07	3.0725e-06	2.9671e-06	297.68	83.869	65.504	18.768	2.9902e-06	26.791	348.578	191.286	150.679	98.763	222.312	265.897	98.921	106.259	270.838	232.805	105.767	112.630	112.839	119.600	232.517	118.758	-8191	255	
387.648	1	1	0	0	0.19152	0.073269	0.15683	0.285	0.32414	0.1561	0.08474	0.30876	0.18554	0.013946	0.20559	0.07475	0.13312	0.10739	0.12583	0.2091	-3.0771	-3.6333	-3.6437	-3.7458	-3.6771	-3.3333	-3.7625	-3.6125	-3.5583	-3.7917	-3.5042	-3.7333	-3.7271	-3.4417	-3.7667	-3.7542	379.686	414.127	390.873	397.076	427.278	323.138	96.723	390.600	437.026	89.412	422.298	304.495	330.925	209.824	414.200	415.022	0.00074948	0.00030188	6.1338e-05	1133.7	6.4772e-06	2.0339e-06	1203.7	236.38	1.1027e-05	3.0438e-06	299.76	83.345	65.408	18.469	3.8387e-06	26.159	0.00037397	0.00025919	8.3321e-05	1126	3.165e-06	3.2897e-06	1192.4	235.08	3.2529e-06	2.8479e-06	297.5	83.848	65.469	18.795	3.0976e-06	26.733	348.264	168.122	168.939	99.013	232.385	224.074	98.928	106.005	271.403	240.110	105.645	112.585	112.905	119.822	268.163	119.127	-8191	255	
387.744	1	1	0	0	0.092974	0.14868	0.049287	0.24317	0.13374	0.20901	0.1043	0.1332	0.16804	0.18962	0.070771	0.26088	0.049552	0.10991	0.1127	0.13249	-2.9708	-3.5792	-3.4625	-3.5438	-3.5938	-3.4313	-3.7812	-3.6104	-3.2313	-3.6646	-3.4979	-3.4542	-3.775	-3.4771	-3.6208	-3.8333	351.845	299.015	186.573	116.137	373.808	236.891	134.158	88.078	186.268	108.118	197.216	407.942	441.813	171.100	190.554	112.979	0.00073833	0.00027283	8.2944e-05	1134.1	5.6734e-06	2.5111e-06	1200.4	235.28	8.4083e-06	2.7697e-06	295.8	83.607	65.956	18.464	6.2621e-06	26.248	0.00038035	0.00027101	7.3618e-05	1128.5	3.4967e-06	3.1879e-06	1191.9	234.83	3.169e-06	3.1409e-06	296.94	83.784	65.691	18.792	3.1757e-06	26.742	348.848	187.111	177.904	98.870	229.330	244.944	98.743	106.050	279.579	243.557	105.753	112.473	112.784	119.912	222.231	118.718	-8191	255	
387.840	1	1	0	0	0.22277	0.16251	0.16908	0.18163	0.10506	0.055548	0.084426	0.33142	0.24472	0.21727	0.14199	0.16616	0.10458	0.13698	0.19303	0.044543	-3.0187	-3.7771	-3.5104	-3.5979	-3.8417	-3.5417	-3.6625	-3.7062	-3.4979	-3.5792	-3.4458	-3.4708	-3.9208	-3.4771	-3.5354	-3.7125	344.321	115.268	428.079	298.993	131.723	89.103	352.547	351.714	179.609	249.281	348.245	237.426	405.096	350.426	418.256	447.955	0.00074889	0.00020281	6.9373e-05	1136.5	5.8595e-06	2.5377e-06	1198.4	235.73	8.5466e-06	2.8396e-06	296.85	83.281	65.503	18.465	6.2336e-06	26.365	0.00036276	0.000268	7.8358e-05	1128.6	3.1537e-06	3.0799e-06	1190.9	235.09	3.1705e-06	3.1866e-06	296.75	83.754	65.574	18.788	2.9539e-06	26.746	347.487	181.944	185.409	98.770	244.455	244.859	98.781	105.986	279.383	226.538	105.989	112.468	112.667	119.475	231.934	118.911	-8191	255	
387.961	1	1	0	0	0.18004	0.10504	0.23918	0.067929	0.31481	0.16431	0.041211	0.35361	0.089987	0.16707	0.22156	0.13203	0.096024	0.16501	0.25187	0.099503	-2.9604	-3.5187	-3.4917	-3.5875	-3.7313	-3.5625	-3.7458	-3.6937	-3.2479	-3.7	-3.6312	-3.2583	-3.9333	-3.5896	-3.5125	-3.8208	320.966	323.789	277.362	413.482	263.913	379.521	390.859	341.888	440.144	324.366	159.172	373.228	245.024	446.075	170.785	305.463	0.00079138	0.00030608	0.00010406	1139.6	6.1457e-06	3.5948e-06	1205.2	236.46	1.052e-05	2.6598e-06	297.66	83.43	65.628	18.422	4.3802e-06	26.147	0.00037261	0.00028736	7.0814e-05	1130	3.2095e-06	3.0376e-06	1192.9	235.64	3.1572e-06	2.8318e-06	297.51	83.785	65.764	18.781	2.8e-06	26.748	350.463	176.673	159.892	98.932	245.891	221.175	98.756	106.107	276.468	236.036	105.443	112.268	113.050	120.052	252.424	119.240	-8191	255	
388.055	1	1	0	0	0.061121	0.19409	0.061424	0.1669	0.2504	0.25136	0.124	0.27527	0.17064	0.1155	0.042374	0.12074	0.2039	0.14949	0.059852	0.24241	-3.1437	-3.5167	-3.5125	-3.5021	-3.6854	-3.6833	-3.675	-3.8229	-3.3438	-3.6688	-3.5604	-3.5667	-3.6792	-3.4146	-3.4313	-3.8896	94.993	180.085	204.065	336.359	175.410	390.572	93.187	406.056	269.572	148.611	101.256	257.264	219.422	94.375	219.928	305.290	0.00078766	0.00039135	5.1996e-05	1132.1	7.6109e-06	2.5144e-06	1206.1	235.93	1.1711e-05	3.9379e-06	296.72	83.216	65.439	18.477	4.3435e-06	26.214	0.00036499	0.00029188	7.177e-05	1126.4	3.3934e-06	3.0682e-06	1191.6	235.05	3.1197e-06	2.7198e-06	297.99	83.718	65.487	18.777	2.7629e-06	26.738	351.135	175.998	175.660	99.025	229.062	247.523	99.070	106.113	273.043	254.786	105.727	112.352	113.168	119.678	237.182	118.902	-8191	255	
388.129	1	1	0	0	0.27573	0.10525	0.14601	0.32623	0.050424	0.11088	0.081273	0.26384	0.00023714	0.13552	0.027383	0.23431	0.20247	0.027537	0.12883	0.17636	-3.0583	-3.6417	-3.6333	-3.5979	-3.625	-3.4625	-3.5042	-3.7479	-3.5604	-3.6562	-3.6125	-3.3854	-3.5229	-3.5604	-3.4875	-3.8187	201.099	349.373	373.273	103.976	444.248	211.221	424.354	426.310	180.000	322.093	390.040	428.755	349.427	300.798	105.342	381.214	0.00068478	0.00035799	4.0856e-05	1130.7	6.002e-06	2.9537e-06	1194.9	235.77	1.1878e-05	3.4883e-06	296.94	83.659	65.534	18.418	4.7761e-06	26.019	0.00033801	0.00027323	6.9278e-05	1124.3	3.2781e-06	2.9115e-06	1187.8	235.13	3.2956e-06	2.8372e-06	296.96	83.8	65.506	18.769	3.002e-06	26.691	349.488	184.104	195.153	98.953	230.381	256.886	98.851	106.258	286.054	233.534	105.642	112.379	113.098	119.736	233.100	118.873	-8191	255	
388.223	1	1	0	0	0.2418	0.20132	0.09775	0.32157	0.22386	0.10802	0.22156	0.066465	0.11139	0.17551	0.14249	0.042031	0.12238	0.098316	0.14901	0.081325	-3.1813	-3.3229	-3.7438	-3.5	-3.5396	-3.5958	-3.6063	-3.6833	-3.4042	-3.5708	-3.7333	-3.5187	-3.6167	-3.7125	-3.3271	-3.7042	442.193	396.252	271.903	447.629	362.775	412.748	371.391	321.449	248.077	133.864	410.569	95.266	223.967	136.499	280.721	284.546	0.00077969	0.00035592	8.1147e-05	1133.2	6.2648e-06	2.816e-06	1191.1	234.88	1.0014e-05	3.8218e-06	298.12	83.253	65.849	18.428	4.5257e-06	26.002	0.00035531	0.00027776	7.1748e-05	1124.6	3.3678e-06	2.8998e-06	1186.9	234.53	3.0107e-06	3.0755e-06	297.16	83.777	65.608	18.742	2.9942e-06	26.601	349.460	171.852	159.481	99.100	241.329	238.989	98.720	106.038	263.342	252.433	105.975	112.438	112.881	119.842	237.722	118.910	-8191	255	
388.321	1	1	0	0	0.20642	0.15701	0.042433	0.20324	0.13715	0.20034	0.31706	0.070599	0.020593	0.10038	0.098594	0.087934	0.15457	0.13973	0.070256	0.16698	-3.2562	-3.3812	-3.8458	-3.6417	-3.6792	-3.8375	-3.5667	-3.7625	-3.575	-3.3187	-3.7146	-3.4583	-3.5312	-3.75	-3.4562	-3.7062	172.882	97.454	213.526	339.768	206.799	367.581	365.122	107.323	179.869	246.318	161.794	379.613	162.721	312.113	417.959	310.518	0.00074604	0.00020055	7.9799e-05	1135.3	5.5139e-06	1.6449e-06	1199.5	235.05	1.1138e-05	3.261e-06	298.61	83.353	65.563	18.344	4.1465e-06	26.138	0.00035592	0.00028498	7.522e-05	1125.3	3.3753e-06	2.7504e-06	1188	234.65	3.0527e-06	2.8533e-06	297.75	83.513	65.476	18.746	3.0502e-06	26.67	348.888	154.563	175.927	98.838	241.298	220.442	98.924	106.305	267.569	242.053	105.816	112.756	112.833	119.722	268.270	119.043	-8191	255	
388.440	1	1	0	0	0.047286	0.12278	0.19031	0.15597	0.15626	0.15041	0.17142	0.15488	0.23642	0.18422	0.057052	0.1648	0.063335	0.13041	0.14574	0.060386	-3.2271	-3.2792	-3.65	-3.6771	-3.5146	-3.7292	-3.7458	-3.7104	-3.675	-3.4958	-3.6771	-3.5625	-3.3812	-3.7188	-3.4875	-3.6833	435.114	268.888	123.793	88.846	317.048	100.586	369.847	242.042	231.068	152.532	416.374	353.844	90.682	135.398	430.912	115.561	0.00072163	0.00028677	7.104e-05	1133.4	6.9689e-06	3.1074e-06	1201.8	236.42	1.0391e-05	3.619e-06	297.15	83.065	65.112	18.473	3.0824e-06	26.093	0.00035362	0.00028149	6.9345e-05	1125.6	3.3278e-06	3.1249e-06	1187.9	234.81	3.0298e-06	3.0414e-06	297.13	83.596	65.449	18.757	3.0123e-06	26.667	348.273	182.203	171.526	98.799	246.098	242.474	98.878	106.093	275.406	277.248	105.968	112.578	112.930	120.024	256.153	118.815	-8191	255	
388.536	1	1	0	0	0.11659	0.22911	0.18521	0.17347	0.2895	0.18577	0.15871	0.2537	0.22193	0.13526	0.063368	0.20119	0.057473	0.33181	0.20809	0.22616	-3.1646	-3.3354	-3.6479	-3.6	-3.4542	-3.8375	-3.7333	-3.4938	-3.6271	-3.3979	-3.6146	-3.5938	-3.4479	-3.8458	-3.5271	-3.4854	430.119	248.372	103.846	367.466	114.994	211.260	332.982	366.293	423.349	363.062	103.420	387.647	111.597	399.220	407.880	115.042	0.00070006	0.00030682	4.9363e-05	1132.5	8.628e-06	2.7191e-06	1198	235.84	1.0138e-05	3.7341e-06	293.69	83.167	66.098	18.482	2.5192e-06	26.314	0.00033245	0.00026926	7.7979e-05	1125.2	3.4499e-06	2.8638e-06	1187.8	235.07	3.0107e-06	3.1498e-06	296.44	83.741	65.679	18.814	2.7629e-06	26.728	349.668	186.185	174.013	98.773	244.453	245.983	98.865	106.052	277.804	249.670	105.582	112.253	112.825	119.658	246.974	118.819	-8191	255	
388.632	1	1	0	0	0.40289	0.090486	0.13443	0.19646	0.063854	0.10537	0.1931	0.17286	0.27571	0.19201	0.13104	0.1023	0.051628	0.10171	0.18548	0.21266	-3.3646	-3.2875	-3.5812	-3.7208	-3.2062	-3.7125	-3.5583	-3.6146	-3.8396	-3.475	-3.5958	-3.6208	-3.4896	-3.7875	-3.5104	-3.4896	412.482	425.064	360.962	375.455	446.770	115.180	385.563	399.865	403.692	215.510	301.306	287.788	411.914	101.356	186.790	110.909	0.00072915	0.00027805	9.0357e-05	1131.5	6.0956e-06	2.9415e-06	1202.5	236.82	6.7992e-06	3.8318e-06	297.53	82.977	65.445	18.416	5.9133e-06	26.247	0.00035873	0.000268	7.818e-05	1125.5	3.4123e-06	3.0367e-06	1189.7	235.32	2.9444e-06	2.9778e-06	297.36	83.641	65.559	18.763	3.0376e-06	26.755	347.447	170.450	165.231	99.008	222.475	211.233	98.962	106.258	279.757	221.446	106.033	112.474	112.796	119.407	243.294	118.905	-8191	255	
388.728	1	1	0	0	0.12985	0.14976	0.07905	0.085305	0.13188	0.22432	0.076883	0.30404	0.14777	0.12383	0.27204	0.37845	0.020201	0.12094	0.20191	0.086843	-3.2271	-3.5	-3.7333	-3.7917	-3.4125	-3.8271	-3.4771	-3.4104	-3.8083	-3.4792	-3.5104	-3.7333	-3.3375	-3.5125	-3.4646	-3.5396	243.164	447.828	421.496	404.007	350.286	390.165	89.863	339.412	346.546	198.103	261.461	90.036	380.915	342.227	311.772	287.972	0.00079938	0.00025323	0.00010522	1133.6	6.6122e-06	3.6092e-06	1196	235.43	1.1473e-05	4.4928e-06	297.15	82.887	65.566	18.471	5.2539e-06	26.152	0.00036297	0.00026934	8.0027e-05	1126.1	3.462e-06	3.1168e-06	1188.1	234.75	3.0733e-06	3.0531e-06	297.22	83.61	65.674	18.808	2.9026e-06	26.76	349.406	195.797	197.158	98.916	242.378	227.513	98.931	106.113	251.203	234.294	105.827	112.380	112.736	119.489	253.737	118.862	-8191	255	
388.825	1	1	0	0	0.03959	0.12048	0.059624	0.15306	0.14195	0.24193	0.45981	0.091748	0.12047	0.31725	0.13844	0.12482	0.10913	0.1862	0.065468	0.2885	-3.3333	-3.3	-3.5833	-3.7833	-3.4396	-3.8208	-3.8063	-3.3187	-3.7271	-3.3812	-3.4729	-3.6521	-3.3688	-3.5958	-3.5062	-3.4083	303.082	428.838	443.190	408.271	285.343	259.502	373.098	336.809	192.530	90.722	337.427	345.606	204.831	421.495	354.836	374.600	0.00074687	0.00036491	4.3167e-05	1137.5	5.3692e-06	2.0587e-06	1202	235.79	1.0145e-05	1.5702e-06	299.1	83.616	65.402	18.406	4.8021e-06	26.217	0.00035588	0.00026903	7.3506e-05	1127	3.3346e-06	3.0016e-06	1190.9	234.98	2.9982e-06	2.7431e-06	298.38	84.053	65.422	18.775	2.6595e-06	26.744	350.689	155.242	193.008	98.824	234.768	218.363	98.806	106.071	281.684	260.403	105.983	112.372	112.667	119.823	262.170	119.015	-8191	255	
388.921	1	1	0	0	0.18346	0.12775	0.14728	0.21136	0.17031	0.096248	0.14583	0.061342	0.066955	0.18437	0.12768	0.1207	0.18457	0.33807	0.28919	0.25384	-3.2313	-3.4833	-3.5021	-3.8167	-3.4292	-3.7104	-3.5687	-3.3125	-3.5167	-3.5104	-3.5542	-3.6771	-3.3438	-3.7417	-3.6708	-3.6667	238.407	320.919	361.920	90.372	379.690	159.541	133.724	182.561	162.234	185.858	146.765	106.715	94.276	398.546	245.677	408.093	0.00072226	0.00031394	0.00011257	1135.6	6.9453e-06	2.7776e-06	1200.6	235.46	1.1614e-05	4.8509e-06	296.73	83.553	65.869	18.381	4.0282e-06	26.094	0.00035176	0.0002768	7.749e-05	1127.6	3.3731e-06	2.9773e-06	1189.6	235.21	2.9584e-06	2.7637e-06	296.52	83.927	65.76	18.794	2.755e-06	26.672	350.750	181.022	179.922	98.876	233.440	241.219	98.943	105.920	293.581	239.596	105.618	112.495	112.719	119.804	245.013	119.181	-8191	255	
389.041	1	1	0	0	0.067408	0.047614	0.18623	0.086299	0.16491	0.030639	0.080939	0.064483	0.08195	0.15766	0.086236	0.18514	0.1503	0.12133	0.091671	0.25827	-3.3	-3.3604	-3.2667	-3.75	-3.4313	-3.5896	-3.7542	-3.3854	-3.675	-3.6813	-3.3854	-3.8604	-3.4188	-3.5479	-3.6688	-3.3229	361.553	421.585	289.258	237.477	365.380	325.992	348.206	155.441	233.248	372.071	411.958	344.099	166.942	347.837	254.392	423.977	0.00076716	0.00028972	6.8512e-05	1137.2	8.992e-06	2.3841e-06	1196.5	235.71	1.1039e-05	2.3831e-06	298.06	83.537	65.14	18.412	4.7354e-06	26.201	0.00035263	0.00027879	6.9834e-05	1128.4	3.2449e-06	2.7774e-06	1190.1	235.08	2.9466e-06	2.8148e-06	297.71	83.863	65.613	18.811	2.6642e-06	26.703	349.708	155.021	165.137	98.818	242.812	300.118	98.672	106.059	292.044	271.078	106.033	112.174	112.706	119.899	239.842	118.802	-8191	255	
389.136	1	1	0	0	0.17024	0.15715	0.088185	0.17803	0.20773	0.087269	0.061433	0.18949	0.32449	0.25923	0.37238	0.24547	0.10006	0.11511	0.24688	0.096706	-3.1271	-3.4021	-3.4083	-3.7292	-3.4	-3.5646	-3.7979	-3.3333	-3.5687	-3.7604	-3.3833	-3.7125	-3.4375	-3.55	-3.8417	-3.3354	101.290	229.507	365.263	416.580	164.240	414.576	402.138	236.951	408.918	378.094	378.124	390.343	367.978	380.271	333.301	300.306	0.0007642	0.00031252	9.8996e-05	1135.8	5.3051e-06	2.8774e-06	1202	236.17	6.6878e-06	3.429e-06	296.61	83.747	65.852	18.496	6.1454e-06	26.042	0.00035115	0.00025776	7.7112e-05	1127.1	3.1183e-06	3.1078e-06	1191.8	234.9	2.9488e-06	2.8578e-06	296.25	83.857	65.663	18.825	2.8915e-06	26.59	345.862	172.083	174.396	98.855	215.231	232.641	98.880	106.325	291.209	221.674	105.516	112.428	112.815	119.682	250.146	118.744	-8191	255	
389.232	1	1	0	0	0.094022	0.027632	0.069891	0.048771	0.11014	0.087449	0.021189	0.13401	0.030265	0.12973	0.14496	0.074163	0.10264	0.20494	0.1675	0.14245	-3.1688	-3.6667	-3.3542	-3.8187	-3.6292	-3.3833	-3.9042	-3.5479	-3.5646	-3.6521	-3.3083	-3.8042	-3.6833	-3.4875	-3.6021	-3.5083	415.203	211.204	378.277	319.854	151.395	207.126	287.778	382.991	369.584	303.786	392.258	385.908	306.724	224.343	97.329	349.523	0.00078901	0.000165	8.673e-05	1131.4	6.6506e-06	3.3517e-06	1199.7	234.95	9.8719e-06	3.9681e-06	297.92	83.228	65.873	18.449	4.7771e-06	25.988	0.00035988	0.00027125	7.3395e-05	1124.5	3.2517e-06	2.871e-06	1188.8	235.06	2.9584e-06	2.6052e-06	296.29	83.823	65.633	18.761	2.6713e-06	26.682	348.254	165.156	166.184	98.985	227.319	262.278	98.980	106.268	299.210	251.664	106.058	112.264	112.600	120.000	258.118	118.832	-8191	255	
389.328	1	1	0	0	0.25964	0.091882	0.12057	0.4059	0.10033	0.17132	0.22669	0.10419	0.17793	0.10055	0.10728	0.1036	0.088534	0.090471	0.16359	0.14692	-3.1417	-3.5729	-3.3583	-3.9542	-3.475	-3.5146	-3.8	-3.5708	-3.5708	-3.5687	-3.4792	-3.7458	-3.475	-3.4208	-3.7125	-3.4521	173.829	89.416	204.186	390.547	260.396	239.403	389.473	357.132	407.323	242.726	347.951	312.185	94.914	395.963	353.433	396.958	0.00074018	0.00021499	9.214e-05	1134.4	8.0229e-06	2.9702e-06	1199.1	234.35	7.4561e-06	2.9218e-06	295.35	82.972	65.522	18.339	5.4735e-06	26.205	0.00034896	0.00024657	7.1259e-05	1125.1	3.2427e-06	2.7828e-06	1189.7	234.65	2.9474e-06	2.9698e-06	295.66	83.578	65.433	18.776	2.5332e-06	26.7	350.557	222.812	174.309	98.970	237.982	240.881	98.784	106.132	259.935	211.702	105.868	112.315	112.879	119.863	237.166	119.053	-8191	255	
389.424	1	1	0	0	0.12698	0.089807	0.032848	0.20669	0.074335	0.22164	0.33469	0.17307	0.070516	0.11124	0.10135	0.11066	0.17477	0.11832	0.14382	0.2496	-3.0625	-3.6021	-3.3042	-3.7333	-3.6333	-3.3417	-3.9417	-3.5167	-3.4667	-3.6958	-3.4042	-3.7021	-3.6792	-3.3146	-3.7458	-3.5833	139.583	270.048	417.242	412.537	224.190	175.049	363.953	394.965	192.256	393.927	156.293	397.029	416.798	243.269	140.637	439.453	0.00072442	0.00021533	0.00011621	1128.6	5.4984e-06	2.7829e-06	1198.3	235.26	8.5167e-06	3.0698e-06	296.44	83.511	65.434	18.421	2.9108e-06	26.128	0.00034777	0.0002476	7.5398e-05	1124.2	3.1884e-06	2.9629e-06	1188.6	234.88	2.8811e-06	2.71e-06	296.61	83.7	65.433	18.79	2.68e-06	26.629	350.217	203.766	183.132	98.886	240.614	232.912	98.960	106.321	273.864	230.443	105.619	112.136	112.847	119.876	248.003	119.019	-8191	255	
389.520	1	1	0	0	0.14964	0.14572	0.10998	0.30407	0.092346	0.13052	0.3153	0.21311	0.083995	0.090688	0.15585	0.095144	0.16111	0.18229	0.042561	0.060517	-3.1188	-3.75	-3.2292	-3.7771	-3.6479	-3.2104	-3.7229	-3.6646	-3.475	-3.7333	-3.4375	-3.6167	-3.9042	-3.3979	-3.6667	-3.4604	390.712	371.630	183.322	381.289	221.337	225.984	383.586	312.787	172.837	91.017	338.500	242.307	434.591	151.365	205.098	436.147	0.00076724	0.00039294	0.00013366	1133.4	8.1128e-06	1.9034e-06	1198.9	235.84	9.1172e-06	3.3958e-06	296.86	82.977	65.584	18.434	4.8316e-06	26.17	0.00035642	0.00022943	7.0057e-05	1124.4	2.9781e-06	2.9485e-06	1189.3	234.43	3.0755e-06	2.4959e-06	296.71	83.601	65.627	18.748	2.6081e-06	26.691	345.125	161.794	173.969	98.906	247.828	248.298	98.789	106.381	276.666	225.517	106.076	112.701	112.887	120.026	248.354	118.589	-8191	255	
389.641	1	1	0	0	0.16666	0.074881	0.09437	0.21498	0.10212	0.060233	0.20372	0.081081	0.23183	0.07462	0.16312	0.30884	0.21738	0.17957	0.12627	0.2961	-2.9917	-3.5625	-3.4896	-3.7021	-3.7833	-3.3646	-4.0188	-3.7667	-3.4083	-3.8	-3.5875	-3.5062	-3.8354	-3.3563	-3.6542	-3.6667	114.818	414.628	223.012	446.948	336.030	149.459	101.162	349.922	233.678	178.994	220.044	421.772	153.136	110.577	414.092	97.712	0.00076538	0.00043012	9.3731e-05	1130.4	6.7563e-06	2.6773e-06	1199.5	235.91	8.784e-06	3.232e-06	296.57	83.054	66.045	18.452	7.4948e-06	26.108	0.00034793	0.00025681	7.3796e-05	1124.8	3.0037e-06	3.0061e-06	1188.6	234.87	3.0615e-06	2.8031e-06	296.46	83.41	65.698	18.784	2.8931e-06	26.653	348.784	185.269	180.828	98.945	229.881	244.962	98.850	106.178	289.073	233.474	105.844	112.477	112.881	119.828	229.720	119.445	-8191	255	
389.737	1	1	0	0	0.13657	0.17187	0.073032	0.14143	0.12634	0.16326	0.35282	0.22689	0.41057	0.080402	0.19015	0.3063	0.09541	0.017115	0.12272	0.048552	-2.8688	-3.7125	-3.4292	-3.5167	-3.9083	-3.1792	-3.6667	-3.6979	-3.2708	-3.8042	-3.5458	-3.5062	-3.8271	-3.4167	-3.6417	-3.8167	435.058	293.896	282.824	405.521	349.409	152.633	332.888	378.804	162.358	250.749	184.157	401.308	197.679	356.414	396.638	227.913	0.00075599	0.00036955	9.342e-05	1135	7.7507e-06	3.0154e-06	1199.6	234.69	8.7824e-06	4.108e-06	295.11	82.882	65.573	18.518	4.2577e-06	26.085	0.00035765	0.00027387	7.5242e-05	1126	3.22e-06	3.1843e-06	1189.7	234.49	3.2382e-06	3.0432e-06	295.96	83.6	65.498	18.793	3.0755e-06	26.693	345.711	176.084	173.515	98.847	231.133	251.712	98.886	106.081	314.088	261.186	105.592	112.634	112.819	119.912	253.791	118.574	-8191	255	
389.833	1	1	0	0	0.0611	0.042497	0.1271	0.1354	0.22851	0.18368	0.29496	0.24132	0.16751	0.11573	0.02479	0.13439	0.17661	0.062258	0.077568	0.10747	-2.9354	-3.6937	-3.4104	-3.6146	-3.5979	-3.4437	-3.6896	-3.6625	-3.3563	-3.6771	-3.4854	-3.4229	-3.8625	-3.2896	-3.5438	-3.65	334.651	214.018	109.105	309.871	415.989	447.904	376.977	235.073	295.408	387.405	366.561	136.998	429.743	444.382	366.610	232.892	0.0007138	0.00024727	5.1465e-05	1133.9	7.0172e-06	2.9235e-06	1200.7	235.8	1.1563e-05	3.3531e-06	296.88	83.27	65.571	18.363	3.9485e-06	26.191	0.00036153	0.0002745	7.6266e-05	1124.2	3.1537e-06	3.0079e-06	1188.8	234.68	3.0217e-06	2.951e-06	296.78	83.761	65.577	18.804	2.9957e-06	26.713	347.524	171.703	168.111	98.957	234.837	242.510	98.846	106.369	267.834	255.595	105.733	112.446	113.041	119.661	241.794	118.775	-8191	255	
389.929	1	1	0	0	0.19903	0.17447	0.16538	0.18348	0.16693	0.19964	0.12168	0.19638	0.086545	0.068107	0.36378	0.027697	0.24072	0.047369	0.087561	0.11957	-3.0042	-3.6688	-3.3625	-3.3583	-3.7562	-3.4375	-3.5604	-3.8063	-3.2146	-3.6042	-3.6958	-3.2542	-3.675	-3.4146	-3.4896	-3.7	297.403	186.684	327.719	342.068	435.475	233.701	417.180	89.601	420.786	315.685	107.846	353.285	312.015	211.087	357.154	307.035	0.00073927	0.00043514	7.5382e-05	1129.7	7.021e-06	2.7131e-06	1203	234.7	1.0644e-05	3.7111e-06	297.08	83.66	65.608	18.479	5.0605e-06	26.117	0.0003591	0.00029918	7.907e-05	1125.4	3.2705e-06	2.9989e-06	1189.5	234.44	3.2124e-06	2.89e-06	296.6	83.975	65.619	18.773	2.875e-06	26.718	350.292	191.492	208.897	99.012	260.292	269.776	98.858	106.020	273.262	240.856	105.603	112.553	113.103	119.714	238.338	119.155	-8191	255	
390.001	1	1	0	0	0.053395	0.032169	0.15938	0.12681	0.12284	0.24219	0.13231	0.12988	0.15051	0.05647	0.30675	0.16499	0.12831	0.036138	0.11319	0.2149	-3.1396	-3.4354	-3.5042	-3.4333	-3.8083	-3.3854	-3.5438	-3.9521	-3.5146	-3.6167	-3.8708	-3.4938	-3.6042	-3.6417	-3.3187	-3.65	302.148	119.927	193.086	99.883	223.205	198.877	313.806	326.720	335.802	145.104	365.740	176.960	443.256	102.973	232.823	420.471	0.00077175	0.00045659	6.9124e-05	1135	6.003e-06	3.0712e-06	1199.9	236.61	1.2037e-05	3.542e-06	296.2	83.543	65.361	18.463	6.0589e-06	26.281	0.00036667	0.0002818	7.4218e-05	1126.9	3.2155e-06	2.9548e-06	1189.6	234.93	3.1329e-06	2.976e-06	296.44	83.785	65.381	18.776	2.9902e-06	26.739	347.863	191.953	167.031	99.255	245.352	250.545	98.789	106.199	285.745	232.065	106.042	112.323	112.830	119.673	242.010	118.659	-8191	255	
390.120	1	1	0	0	0.15777	0.031032	0.094459	0.029563	0.056237	0.049999	0.18312	0.18558	0.12483	0.22351	0.2523	0.22257	0.37638	0.10559	0.21209	0.040499	-3.1354	-3.4042	-3.6	-3.5417	-3.7542	-3.6979	-3.5125	-3.9458	-3.5625	-3.3729	-3.7479	-3.4375	-3.7313	-3.5646	-3.4583	-3.6875	200.803	441.877	412.996	330.207	115.169	374.707	260.482	438.862	138.195	395.872	342.456	391.740	90.189	340.130	267.335	160.368	0.00076417	0.00027808	9.4757e-05	1129.3	7.7475e-06	3.5612e-06	1196.8	235.62	1.005e-05	5.9765e-06	298.34	83.515	65.289	18.351	5.2015e-06	26.147	0.00036099	0.00029022	7.5153e-05	1123.6	3.1454e-06	2.9088e-06	1189.1	234.69	3.1793e-06	2.9384e-06	296.69	83.748	65.448	18.748	3.0873e-06	26.647	346.958	206.036	196.903	98.844	234.836	257.979	98.694	106.196	280.471	231.500	105.492	112.483	113.112	120.135	231.028	118.705	-8191	255	
390.216	1	1	0	0	0.3061	0.099904	0.18272	0.26277	0.12612	0.11566	0.12362	0.14138	0.062772	0.24033	0.094918	0.04622	0.117	0.20364	0.099737	0.10988	-3.1917	-3.5563	-3.7292	-3.4271	-3.65	-3.5833	-3.4188	-3.7125	-3.5292	-3.6104	-3.7667	-3.5812	-3.7667	-3.6729	-3.4625	-3.8875	382.832	315.021	219.229	149.866	190.870	190.675	434.420	161.178	426.454	117.766	238.442	238.084	369.668	311.083	132.075	401.871	0.0007352	0.000237	5.3759e-05	1135.8	7.47e-06	4.0707e-06	1202.8	234.69	1.0601e-05	2.0248e-06	296.13	83.148	65.404	18.413	5.1891e-06	26.091	0.00035341	0.00027371	7.1659e-05	1125.6	3.3731e-06	3.0214e-06	1188.8	234.42	3.13e-06	2.916e-06	296.81	83.669	65.584	18.777	3.0644e-06	26.663	348.273	194.989	172.436	99.026	218.111	241.918	98.996	106.409	279.284	241.891	105.892	112.495	113.018	120.184	244.497	118.973	-8191	255	
390.312	1	1	0	0	0.03327	0.072004	0.30361	0.2561	0.16323	0.16821	0.027206	0.15648	0.20402	0.18066	0.24867	0.090605	0.21982	0.23852	0.14476	0.092788	-3.2458	-3.4792	-3.7062	-3.6188	-3.5563	-3.6854	-3.5771	-3.6979	-3.5333	-3.6	-3.7083	-3.4896	-3.5292	-3.7812	-3.4417	-3.5875	176.657	190.685	167.994	349.221	123.320	231.900	385.918	129.482	166.581	161.645	209.334	359.480	96.595	365.873	231.897	440.088	0.00078569	0.0002856	7.8551e-05	1136.6	7.0625e-06	3.3906e-06	1205.4	234.9	1.0118e-05	4.2679e-06	298.04	83.158	65.374	18.437	4.6956e-06	26.014	0.0003656	0.00028649	7.1704e-05	1125.9	3.3565e-06	2.8728e-06	1189.5	234.77	3.0239e-06	2.9554e-06	297.15	83.616	65.486	18.785	2.8742e-06	26.686	347.077	195.278	170.708	98.935	236.247	264.814	98.807	106.266	294.946	232.141	105.616	112.410	112.606	119.667	245.561	119.061	-8191	255	
390.433	1	1	0	0	0.14039	0.13352	0.056577	0.16347	0.15208	0.32207	0.18579	0.10996	0.24284	0.10437	0.14523	0.15386	0.10747	0.14868	0.16204	0.15213	-3.1271	-3.5417	-3.8479	-3.4917	-3.6104	-3.8021	-3.5792	-3.7542	-3.6562	-3.5042	-3.9854	-3.55	-3.6021	-3.9813	-3.4688	-3.6979	334.306	146.349	199.967	355.210	116.659	201.624	339.525	311.701	349.823	272.481	394.151	446.229	124.791	88.268	299.089	381.253	0.00075672	0.00034826	4.8003e-05	1133.5	9.2279e-06	2.8495e-06	1202.1	235.9	1.0119e-05	4.1447e-06	296.37	83.039	65.3	18.428	5.5733e-06	26.179	0.0003612	0.00027434	7.4686e-05	1123	3.2562e-06	2.8305e-06	1188.6	234.98	2.8671e-06	3.0835e-06	296.69	83.651	65.47	18.792	2.7289e-06	26.632	350.591	186.938	183.868	99.050	220.763	248.634	98.892	106.176	282.225	240.668	105.533	112.665	112.805	119.540	240.197	119.015	-8191	255	
390.529	1	1	0	0	0.14366	0.18196	0.197	0.19886	0.18346	0.21611	0.26739	0.069585	0.22575	0.12337	0.13126	0.28332	0.13443	0.17289	0.19285	0.084448	-3.4125	-3.3396	-3.7292	-3.7042	-3.4479	-3.7208	-3.7917	-3.8521	-3.8	-3.4792	-3.8187	-3.7979	-3.4729	-3.7625	-3.6729	-3.6458	166.143	336.023	385.128	349.467	89.513	233.583	312.726	326.178	407.258	302.816	334.906	385.009	93.534	111.723	412.685	295.435	0.00073909	0.00037218	8.1834e-05	1130.6	6.4321e-06	3.6554e-06	1193.3	235.13	9.3752e-06	3.6185e-06	295.84	83.616	65.391	18.473	6.3654e-06	26.156	0.0003439	0.00026752	6.9233e-05	1122.3	3.0746e-06	2.6739e-06	1184.6	234.56	2.767e-06	2.9321e-06	296.24	83.56	65.519	18.785	2.8679e-06	26.688	347.263	174.621	182.560	99.110	228.879	239.299	98.925	106.198	271.165	251.138	105.751	112.357	113.062	119.726	236.677	118.874	-8191	255	
390.601	1	1	0	0	0.16677	0.03238	0.12758	0.021741	0.17194	0.14799	0.32286	0.15818	0.2	0.12562	0.005962	0.47135	0.12485	0.13849	0.1879	0.19731	-3.2021	-3.3896	-3.8187	-3.6083	-3.4771	-3.8271	-3.5042	-3.5687	-3.6896	-3.3688	-3.85	-3.5604	-3.4083	-3.7375	-3.575	-3.5854	122.321	208.789	287.813	427.519	159.542	384.729	322.573	376.660	201.491	132.445	96.050	109.867	420.391	446.900	265.870	315.655	0.00079009	0.00048324	6.3509e-05	1130.3	7.3353e-06	3.9482e-06	1199.1	236.45	1.1127e-05	4.689e-06	298.68	82.653	65.423	18.459	5.0346e-06	26.171	0.00035065	0.00027974	6.5873e-05	1122.5	3.1726e-06	2.7774e-06	1185.8	234.77	3.0144e-06	2.8336e-06	297.57	83.415	65.333	18.765	2.9618e-06	26.701	349.157	173.685	161.169	98.973	232.006	242.282	98.893	106.208	278.226	269.077	105.565	112.450	112.791	119.977	248.233	119.188	-8191	255	
390.721	1	1	0	0	0.064494	0.24761	0.30831	0.18352	0.038682	0.1708	0.091914	0.10769	0.062872	0.2738	0.052751	0.036901	0.089475	0.26033	0.11369	0.12586	-3.5042	-3.2812	-3.6396	-3.8417	-3.3833	-3.6521	-3.7896	-3.7271	-3.7833	-3.5563	-3.4771	-3.6458	-3.3542	-3.7792	-3.5187	-3.3854	114.094	236.767	229.964	92.353	320.466	229.416	254.334	98.474	225.394	93.012	384.052	398.101	189.976	296.346	239.492	259.665	0.00075945	0.0002883	7.6808e-05	1130.4	5.9007e-06	1.8901e-06	1194.6	235.06	1.063e-05	3.1092e-06	296.32	83.367	65.476	18.39	6.5296e-06	26.146	0.00035502	0.00026538	7.1459e-05	1121.9	3.263e-06	2.7522e-06	1184.2	234.36	2.8421e-06	2.8291e-06	296.32	83.624	65.435	18.737	2.9002e-06	26.666	347.781	183.563	232.269	99.207	241.035	216.579	98.701	106.436	283.092	221.044	106.085	112.569	112.962	119.672	245.770	119.164	-8191	255	
390.817	1	1	0	0	0.12331	0.015796	0.095619	0.28065	0.078806	0.041975	0.13942	0.18868	0.054901	0.20643	0.16852	0.059004	0.065407	0.2186	0.11212	0.13904	-3.2313	-3.5167	-3.5125	-3.7458	-3.4813	-3.7708	-3.7125	-3.4938	-3.6312	-3.6271	-3.6917	-3.8083	-3.3958	-3.6042	-3.6167	-3.3833	236.546	252.391	125.114	412.414	181.580	173.048	96.199	88.328	167.682	344.786	354.511	252.519	301.195	368.064	216.244	115.526	0.00076237	0.00014482	9.5088e-05	1129.7	6.9679e-06	3.1105e-06	1196.6	236.35	8.762e-06	1.9279e-06	294.87	83.154	65.701	18.275	5.4702e-06	26.17	0.00035947	0.0002668	7.6177e-05	1121.6	3.3994e-06	2.9088e-06	1185.6	234.56	3.0512e-06	3.0316e-06	296.15	83.764	65.504	18.722	2.8394e-06	26.735	348.594	189.080	153.194	98.877	226.292	247.279	99.000	106.032	288.197	262.995	106.218	112.558	112.996	119.971	243.894	119.408	-8191	255	
390.914	1	1	0	0	0.056758	0.27265	0.17849	0.2029	0.084789	0.08366	0.17833	0.36567	0.19737	0.21144	0.079374	0.087868	0.17344	0.072199	0.087133	0.10925	-3.3167	-3.4	-3.4896	-3.7875	-3.3312	-3.8333	-3.7438	-3.5521	-3.8625	-3.3792	-3.4396	-3.7125	-3.3479	-3.7062	-3.5354	-3.3542	275.860	394.759	94.415	373.519	268.942	134.823	350.937	417.687	290.980	189.161	267.246	94.163	413.458	323.962	233.720	190.587	0.00072561	0.00028618	8.8124e-05	1129.3	6.6973e-06	3.3719e-06	1195.1	234.63	1.1325e-05	3.069e-06	294.54	83.34	65.354	18.301	5.0529e-06	26.167	0.00034682	0.00026887	7.1681e-05	1120.6	3.2721e-06	2.7594e-06	1185.4	234.44	3.0725e-06	2.8954e-06	296.65	83.631	65.375	18.755	3.0186e-06	26.7	347.546	168.541	178.388	98.785	226.757	229.014	98.992	106.320	288.285	244.958	106.216	112.585	112.720	119.871	251.986	118.924	-8191	255	
391.034	1	1	0	0	0.18284	0.050882	0.048686	0.34292	0.20251	0.32702	0.37782	0.065099	0.14122	0.38873	0.09755	0.12116	0.010813	0.10949	0.20725	0.051609	-3.3646	-3.4313	-3.4437	-3.7896	-3.4396	-3.6417	-3.8146	-3.3083	-3.7708	-3.575	-3.5125	-3.8896	-3.5521	-3.6896	-3.8146	-3.3833	430.657	368.603	381.890	150.645	244.361	189.624	310.217	229.327	407.017	133.154	334.197	443.380	124.613	198.288	121.789	114.561	0.00073655	0.00029387	0.00012368	1128	4.3075e-06	1.5496e-06	1196.9	234.85	1.0515e-05	3.9489e-06	295.25	83.196	65.013	18.4	5.081e-06	25.959	0.00034822	0.000263	7.3996e-05	1122.3	3.2148e-06	3.0853e-06	1185.3	234.42	2.8752e-06	2.6768e-06	296.46	83.573	65.447	18.755	2.8418e-06	26.635	347.024	177.021	172.365	98.859	236.071	245.043	98.795	106.120	260.150	257.993	105.567	112.125	112.820	119.935	245.078	118.846	-8191	255	
391.129	1	1	0	0	0.13379	0.12422	0.24075	0.14539	0.21023	0.17981	0.15034	0.21985	0.19946	0.13448	0.070915	0.16437	0.084761	0.11246	0.12618	0.26072	-3.2271	-3.6312	-3.5354	-3.9	-3.4917	-3.6104	-3.8875	-3.3563	-3.6104	-3.6312	-3.4104	-3.7646	-3.2979	-3.4333	-3.8146	-3.375	261.089	119.560	205.106	312.684	198.414	345.064	332.523	359.479	439.894	121.975	423.290	346.543	435.353	206.828	307.242	297.768	0.00072718	0.00030608	8.4365e-05	1126.3	4.5979e-06	2.6473e-06	1194.9	234.41	1.0802e-05	4.5076e-06	294.79	83.279	65.507	18.338	3.4405e-06	26.134	0.0003497	0.00026593	7.2683e-05	1119.4	3.2796e-06	2.9412e-06	1182.9	233.83	3.0932e-06	2.8954e-06	296.36	83.594	65.408	18.737	2.9792e-06	26.647	348.602	184.892	185.809	99.001	230.901	243.770	98.767	106.077	281.634	233.029	105.453	112.344	112.761	120.092	246.119	119.174	-8191	255	
391.225	1	1	0	0	0.31818	0.053746	0.20655	0.13431	0.12705	0.058526	0.29203	0.11235	0.11313	0.091014	0.10839	0.1174	0.17634	0.16408	0.32453	0.17938	-3.1792	-3.5479	-3.3937	-3.925	-3.4188	-3.5854	-3.9729	-3.4771	-3.525	-3.6542	-3.3396	-3.7771	-3.5375	-3.2833	-3.6833	-3.45	431.369	445.088	88.175	128.983	275.606	204.489	359.256	364.013	247.617	97.196	401.735	193.548	108.275	110.489	186.705	196.831	0.00073492	0.000373	7.8517e-05	1125	5.5224e-06	3.0645e-06	1197.2	234.5	1.125e-05	2.1831e-06	294.78	82.592	65.088	18.464	6.6313e-06	26.116	0.0003523	0.00027522	8.9374e-05	1117.7	3.3075e-06	3.0862e-06	1183.9	234.12	3.2853e-06	2.8542e-06	295.58	83.414	65.417	18.764	2.9255e-06	26.682	350.196	198.115	180.691	98.996	234.137	242.511	98.879	105.877	277.686	222.660	105.977	112.222	112.966	119.792	225.491	119.261	-8191	255	
391.296	1	1	0	0	0.11988	0.26169	0.23967	0.088827	0.1624	0.047733	0.26155	0.077031	0.16409	0.12011	0.090438	0.064723	0.30597	0.079557	0.052008	0.21002	-3.3375	-3.5271	-3.2729	-3.8063	-3.4625	-3.45	-3.7604	-3.5208	-3.3729	-3.6937	-3.2833	-3.675	-3.6333	-3.3583	-3.7708	-3.3958	378.354	271.626	182.251	258.410	409.326	127.701	341.189	138.434	151.960	272.004	448.345	241.428	105.079	323.433	232.151	100.567	0.00079229	0.00030941	5.9431e-05	1125.8	5.9282e-06	2.7765e-06	1191	236.43	8.8056e-06	4.0588e-06	296.55	82.924	65.392	18.307	6.6638e-06	26.05	0.00037145	0.00026815	8.4055e-05	1119.3	3.2223e-06	3.0025e-06	1182.8	234.51	3.2426e-06	3.0862e-06	296.91	83.459	65.289	18.756	2.9231e-06	26.71	346.740	182.940	183.415	98.915	228.725	256.115	98.943	106.412	272.341	227.448	105.859	112.235	112.976	119.693	242.848	118.846	-8191	255	
391.417	1	1	0	0	0.11701	0.090426	0.16092	0.3745	0.2584	0.18093	0.26611	0.098761	0.10714	0.21862	0.12845	0.074707	0.12754	0.20021	0.033762	0.1984	-3.125	-3.8375	-3.3792	-3.6771	-3.3625	-3.4479	-3.8667	-3.4396	-3.5104	-3.6354	-3.4396	-3.5687	-3.4583	-3.4542	-3.6396	-3.5417	322.145	305.735	341.135	371.388	198.680	405.520	378.090	328.972	304.173	428.254	215.580	122.329	174.738	131.749	287.006	331.179	0.00076343	0.00026819	9.4682e-05	1127.3	5.6001e-06	2.4231e-06	1197.3	235.2	1.2252e-05	2.4232e-06	294.79	82.811	65.137	18.519	4.3916e-06	26.19	0.00035761	0.00028545	7.6043e-05	1120.4	3.462e-06	3.1699e-06	1185.4	234.42	3.2566e-06	3.1086e-06	295.94	83.452	65.399	18.785	3.0376e-06	26.714	350.553	175.136	200.556	98.933	235.795	214.612	98.989	106.026	277.495	234.201	105.873	112.446	112.842	119.644	237.454	119.113	-8191	255	
391.513	1	1	0	0	0.10384	0.086808	0.090727	0.4031	0.10033	0.062545	0.18726	0.27	0.1378	0.15874	0.079668	0.34587	0.16905	0.16519	0.040926	0.25677	-3.0167	-3.7229	-3.3104	-3.6229	-3.4333	-3.3063	-3.9125	-3.6125	-3.4062	-3.8063	-3.5625	-3.6854	-3.6688	-3.4167	-3.6083	-3.6104	329.871	219.557	312.718	400.064	316.740	345.083	387.547	296.843	437.318	300.412	94.668	103.725	396.672	189.343	320.256	272.504	0.00072407	0.00021849	8.6322e-05	1130.1	7.8739e-06	1.8386e-06	1195.1	233.96	1.0172e-05	3.5795e-06	296.36	82.951	65.28	18.373	5.0723e-06	26.321	0.00036074	0.00026482	7.9515e-05	1121.7	3.4198e-06	3.2573e-06	1183.3	234	3.0637e-06	3.0656e-06	296.46	83.539	65.439	18.769	3.1378e-06	26.716	349.343	198.600	180.899	99.060	236.907	214.819	98.692	106.558	291.490	249.133	105.805	112.173	112.819	119.409	230.546	118.568	-8191	255	
391.609	1	1	0	0	0.1752	0.18273	0.14242	0.060171	0.032096	0.1461	0.13307	0.15882	0.096851	0.051159	0.053752	0.12428	0.23688	0.20678	0.31814	0.1833	-3.0438	-3.8021	-3.3583	-3.6896	-3.7583	-3.3354	-3.8396	-3.6042	-3.3187	-3.7667	-3.4417	-3.5396	-3.7229	-3.3833	-3.8271	-3.6458	286.241	406.128	384.254	265.723	444.403	349.055	328.195	328.575	129.004	121.779	383.709	341.451	346.795	386.896	435.214	414.256	0.00075622	0.00018203	8.5698e-05	1131.2	5.8779e-06	2.023e-06	1195.2	235.45	1.2139e-05	5.2464e-06	295.43	83.211	65.39	18.458	4.4639e-06	26.254	0.00037425	0.00028387	7.8936e-05	1122	3.1793e-06	3.1303e-06	1184.6	233.9	3.2198e-06	3.2332e-06	296.68	83.676	65.413	18.782	2.8813e-06	26.703	347.551	146.416	182.873	98.857	239.166	232.153	98.917	106.452	278.274	256.773	105.974	112.397	112.422	119.852	254.340	118.644	-8191	255	
391.706	1	1	0	0	0.18663	0.24668	0.068193	0.067526	0.27802	0.12915	0.08881	0.23331	0.14222	0.09713	0.31878	0.29521	0.2402	0.079175	0.17486	0.22623	-2.9854	-3.6188	-3.3771	-3.6813	-3.7667	-3.4333	-3.7417	-3.6917	-3.1437	-3.7938	-3.4792	-3.4875	-3.8417	-3.3708	-3.5958	-3.7167	417.926	325.267	426.568	226.281	247.671	253.708	131.045	369.356	365.804	232.970	363.665	348.162	298.973	447.594	281.086	156.958	0.00072231	0.00022928	7.6284e-05	1125.3	7.4128e-06	3.0975e-06	1193.8	234.41	1.1802e-05	2.2114e-06	294.13	83.353	65.308	18.43	6.123e-06	26.138	0.00036964	0.00027966	7.8224e-05	1120.7	3.3911e-06	3.2987e-06	1185.6	233.88	3.5187e-06	3.217e-06	295.83	83.722	65.392	18.739	3.1276e-06	26.665	345.416	174.457	181.584	98.934	230.397	232.427	98.835	106.361	301.512	241.783	105.665	112.614	112.790	119.702	228.610	118.994	-8191	255	
391.826	1	1	0	0	0.12786	0.16883	0.077608	0.092381	0.16861	0.1607	0.21948	0.20039	0.22281	0.26976	0.069331	0.22745	0.16678	0.14471	0.021802	0.20199	-2.9479	-3.5812	-3.7	-3.5271	-3.6813	-3.4583	-3.5833	-3.6688	-3.1771	-3.8563	-3.4833	-3.4021	-3.7042	-3.3604	-3.5792	-3.6437	333.683	397.242	345.065	101.781	291.583	305.342	395.216	371.128	225.727	353.507	382.080	136.628	437.391	149.690	290.516	109.235	0.00080273	0.00015917	9.8136e-05	1128.6	7.3385e-06	2.958e-06	1196	235.57	9.5068e-06	3.5183e-06	295.76	82.849	65.062	18.446	4.0482e-06	26.228	0.00038706	0.00028815	8.1919e-05	1121.6	3.514e-06	3.1699e-06	1183.2	234.03	3.4841e-06	3.1776e-06	296.42	83.482	65.444	18.772	3.2191e-06	26.716	349.155	179.481	196.402	98.895	231.556	259.280	98.735	106.176	263.691	248.717	105.609	112.201	112.926	119.859	204.622	118.910	-8191	255	
391.898	1	1	0	0	0.13602	0.10151	0.13387	0.1215	0.10078	0.17106	0.16044	0.22007	0.14158	0.10317	0.07171	0.14635	0.17052	0.10448	0.18904	0.17751	-2.8625	-3.6729	-3.5292	-3.2958	-3.7125	-3.5292	-3.8417	-3.7125	-3.4479	-3.5729	-3.6708	-3.3521	-3.8021	-3.5229	-3.5708	-3.9125	147.148	194.568	219.928	405.182	375.675	301.355	294.450	415.174	432.314	184.008	191.086	347.469	415.695	344.586	414.840	398.495	0.00071057	0.00023241	5.7598e-05	1124.6	6.1148e-06	2.456e-06	1196.6	234.49	8.7017e-06	3.5569e-06	296.6	83.689	65.565	18.419	5.7593e-06	26.178	0.00038295	0.00030894	8.6748e-05	1122.1	3.6685e-06	3.5706e-06	1185.2	234.12	3.518e-06	3.4356e-06	296.66	83.695	65.517	18.778	3.2633e-06	26.784	349.045	180.839	212.054	98.954	243.891	248.384	98.904	106.086	287.473	228.420	105.921	112.316	113.013	119.596	232.577	118.724	-8191	255	
391.994	1	1	0	0	0.2258	0.17265	0.21895	0.22415	0.22888	0.095318	0.35317	0.31117	0.086326	0.076796	0.18143	0.084304	0.17185	0.12514	0.17113	0.11417	-3.15	-3.4875	-3.5958	-3.4125	-3.6	-3.6583	-3.5396	-3.9042	-3.2687	-3.5729	-3.5667	-3.3792	-3.775	-3.5187	-3.2771	-3.7583	276.654	312.589	160.359	382.637	432.957	427.146	401.722	418.870	374.083	287.250	435.654	329.697	175.036	215.748	90.919	99.518	0.00077221	0.00026123	7.3515e-05	1134.1	8.3917e-06	3.7971e-06	1198.3	236.27	9.0095e-06	3.3792e-06	296.01	83.308	65.623	18.465	5.6506e-06	26.482	0.00038509	0.00030363	8.6703e-05	1124.6	3.6957e-06	3.2573e-06	1188	235.26	3.3707e-06	3.4392e-06	296.95	83.685	65.546	18.783	3.1797e-06	26.811	346.635	164.320	149.429	98.848	231.284	242.706	98.741	106.121	262.650	227.339	105.590	112.432	112.924	119.908	242.635	118.930	-8191	255	
392.115	1	1	0	0	0.30868	0.20002	0.10274	0.03174	0.28528	0.25769	0.08027	0.19214	0.024271	0.28904	0.15823	0.22188	0.40274	0.26873	0.056976	0.20318	-3.025	-3.7271	-3.5708	-3.3771	-3.6354	-3.5771	-3.5104	-3.8271	-3.3958	-3.5729	-3.85	-3.4354	-3.7417	-3.55	-3.2938	-3.8146	246.772	322.264	303.867	303.281	236.346	416.241	358.146	409.422	412.565	220.630	386.881	447.681	146.922	440.505	416.785	365.009	0.00074368	0.00039204	8.2873e-05	1137.4	5.3361e-06	3.6924e-06	1200.8	236.01	8.2104e-06	3.0898e-06	295.35	83.153	65.529	18.393	6.7004e-06	26.197	0.00036733	0.00030855	7.9248e-05	1126.2	3.7115e-06	3.2113e-06	1188.3	234.77	3.3111e-06	3.5879e-06	297.07	83.589	65.543	18.777	3.3028e-06	26.714	350.241	161.957	201.362	98.852	233.339	248.198	98.960	106.247	277.538	243.428	105.750	112.401	112.634	119.986	234.450	119.184	-8191	255	
392.209	1	1	0	0	0.13399	0.13989	0.091941	0.020492	0.053479	0.043861	0.10786	0.1653	0.066908	0.10777	0.21582	0.073483	0.047898	0.10607	0.20527	0.097991	-2.8896	-3.6271	-3.6	-3.4771	-3.675	-3.6	-3.5208	-3.8167	-3.3708	-3.5292	-3.7875	-3.3958	-3.7646	-3.4542	-3.2354	-3.8083	399.095	116.712	268.891	183.775	185.860	337.010	360.269	421.550	317.083	114.726	166.389	196.757	432.434	411.520	293.896	438.573	0.00073403	0.0003428	7.5638e-05	1129.6	5.9305e-06	1.9463e-06	1194.8	235.63	1.0362e-05	3.372e-06	297.48	83.234	65.6	18.41	4.7652e-06	26.174	0.0003745	0.0003022	8.3988e-05	1124.9	3.6964e-06	3.0574e-06	1186.8	235	3.384e-06	3.3523e-06	297.44	83.683	65.485	18.773	3.1623e-06	26.783	347.924	195.857	155.387	98.881	226.074	244.415	98.889	106.026	293.482	235.400	105.823	112.437	113.243	120.034	248.758	119.269	-8191	255	
392.305	1	1	0	0	0.26848	0.080645	0.16716	0.37459	0.18368	0.231	0.35143	0.12622	0.20445	0.1722	0.049445	0.13463	0.20997	0.23066	0.018393	0.0703	-3.1646	-3.5083	-3.6667	-3.5292	-3.4833	-3.6521	-3.525	-3.8042	-3.6021	-3.5896	-3.6917	-3.4979	-3.5729	-3.6625	-3.4271	-3.8271	388.454	319.902	420.921	390.840	277.348	161.396	402.547	367.817	349.504	238.086	118.014	207.126	360.405	426.636	227.731	93.941	0.0007414	0.0002963	5.5351e-05	1127.9	4.915e-06	2.9012e-06	1197	235.5	1.2518e-05	2.5335e-06	296.03	83.143	65.636	18.491	6.0389e-06	26.286	0.00036276	0.00030815	8.2987e-05	1124	3.3015e-06	3.2735e-06	1189.2	234.81	3.3067e-06	3.2896e-06	297.02	83.657	65.523	18.804	3.362e-06	26.801	348.038	172.439	187.933	99.109	225.566	282.797	99.138	106.354	282.386	259.158	105.939	112.151	112.529	119.847	243.933	119.003	-8191	255	
392.401	1	1	0	0	0.13278	0.084014	0.055722	0.1161	0.10505	0.11851	0.084784	0.068416	0.1309	0.14865	0.055264	0.17621	0.13992	0.1518	0.10762	0.064869	-3.1063	-3.3042	-3.5687	-3.4854	-3.3187	-3.5479	-3.5917	-3.7708	-3.6562	-3.3417	-3.7167	-3.3979	-3.4896	-3.6688	-3.2	-3.6667	276.960	410.316	291.324	372.354	338.861	152.696	321.474	111.602	106.334	200.468	254.284	143.807	440.490	340.725	322.468	191.474	0.00068853	0.00025233	7.6961e-05	1132.5	7.6963e-06	3.2319e-06	1198.1	235.48	1.0512e-05	3.6182e-06	297.03	83.535	65.62	18.411	4.886e-06	26.173	0.00035316	0.00030879	8.4656e-05	1123.5	3.6406e-06	3.1969e-06	1187.9	235.05	3.4429e-06	3.4795e-06	296.98	83.89	65.669	18.839	3.0005e-06	26.72	350.000	190.907	183.767	99.029	238.683	229.801	98.883	106.145	281.002	230.808	106.128	112.266	112.779	120.017	237.416	118.719	-8191	255	
392.497	1	1	0	0	0.25312	0.14107	0.1241	0.18493	0.15795	0.18394	0.23922	0.1281	0.051648	0.14811	0.079827	0.19622	0.095494	0.08349	0.20175	0.16277	-3.0875	-3.4229	-3.5333	-3.5792	-3.4458	-3.8083	-3.5958	-3.7979	-3.6583	-3.3729	-3.7146	-3.5667	-3.3896	-3.6271	-3.4313	-3.4167	100.453	236.096	106.679	201.768	199.168	417.729	389.102	243.854	299.977	285.951	335.388	239.568	219.998	337.776	131.700	441.561	0.00072849	0.00033765	7.5412e-05	1131	5.9262e-06	1.7687e-06	1200.1	235.82	6.1238e-06	4.4987e-06	295.61	83.907	65.546	18.448	4.4509e-06	26.04	0.00036445	0.00031006	8.2942e-05	1124.3	3.6866e-06	3.2519e-06	1188.6	234.93	3.1624e-06	3.1624e-06	296.93	83.942	65.653	18.841	3.216e-06	26.68	346.820	179.636	181.514	98.885	245.606	261.169	98.991	106.427	270.239	236.868	105.655	112.432	113.275	119.974	239.387	119.136	-8191	255	
392.594	1	1	0	0	0.084328	0.12986	0.17761	0.0088594	0.083879	0.26283	0.1568	0.13831	0.17084	0.035159	0.17759	0.099767	0.16758	0.16255	0.14765	0.21717	-3.0979	-3.1562	-3.5187	-3.7271	-3.4083	-3.6583	-3.65	-3.5187	-3.6312	-3.3417	-3.5479	-3.5375	-3.2958	-3.8	-3.5167	-3.5542	432.832	274.884	422.995	421.330	401.393	239.264	318.936	113.593	292.048	399.183	360.532	447.776	303.802	429.168	400.455	318.051	0.0007341	0.0002055	5.5495e-05	1129.3	4.8303e-06	5.252e-06	1196.2	235.18	9.8941e-06	2.7572e-06	296.38	83.01	65.479	18.457	4.31e-06	26.201	0.00036173	0.00030347	8.0272e-05	1125.6	3.719e-06	3.2509e-06	1188.1	235.1	3.1572e-06	3.1991e-06	297.57	83.776	65.702	18.858	3.0865e-06	26.802	347.610	180.583	191.496	98.898	242.757	252.050	99.014	106.338	275.505	221.128	106.261	112.425	112.875	120.106	243.865	119.036	-8191	255	
392.714	1	1	0	0	0.31147	0.16846	0.1876	0.23937	0.21851	0.29566	0.068295	0.26221	0.17216	0.21135	0.14059	0.13918	0.14106	0.30739	0.14309	0.088641	-3.2854	-3.2521	-3.6521	-3.7604	-3.5	-3.5938	-3.5375	-3.5875	-3.5292	-3.4792	-3.4938	-3.6104	-3.2875	-3.5729	-3.4833	-3.5646	404.105	379.403	312.915	92.189	199.649	307.317	393.048	136.852	395.906	289.612	363.399	380.966	118.565	430.152	340.141	313.922	0.00077792	0.00035799	8.534e-05	1135.6	6.4813e-06	2.7485e-06	1199.5	235.87	1.0676e-05	4.9188e-06	294.8	83.476	65.735	18.478	5.5239e-06	26.152	0.000371	0.00031363	8.3187e-05	1125.4	3.5623e-06	3.1249e-06	1188.2	235.03	3.2492e-06	3.4732e-06	296.35	83.852	65.727	18.815	3.1078e-06	26.751	350.018	169.232	194.000	99.027	226.341	245.139	98.852	106.256	284.947	243.678	105.812	112.372	112.808	120.131	259.335	118.922	-8191	255	
392.810	1	1	0	0	0.096146	0.10438	0.03476	0.17775	0.15149	0.19539	0.24981	0.093288	0.17012	0.17628	0.15644	0.26195	0.16178	0.030144	0.074274	0.052542	-3.4125	-3.4104	-3.5958	-3.8229	-3.3208	-3.6896	-3.5167	-3.4792	-3.6333	-3.3333	-3.5292	-3.5625	-3.2562	-3.6729	-3.5104	-3.4958	321.322	114.213	249.184	398.488	225.004	256.584	342.739	326.790	152.750	283.246	146.997	156.200	103.824	221.018	440.542	129.831	0.00076848	0.00028549	9.469e-05	1136.2	4.496e-06	1.2836e-06	1200.6	236.23	1.1362e-05	3.3707e-06	296.64	83.298	65.705	18.461	5.7681e-06	26.156	0.00036997	0.00030014	8.6347e-05	1127.3	3.3821e-06	3.1789e-06	1189.1	235.06	3.3383e-06	3.1391e-06	297.15	83.768	65.563	18.827	3.3304e-06	26.759	347.573	183.628	193.984	99.074	223.413	239.273	98.873	106.311	289.342	202.824	105.904	112.393	112.770	119.895	266.902	118.808	-8191	255	
392.907	1	1	0	0	0.20301	0.30523	0.048723	0.11757	0.24493	0.083961	0.10316	0.17624	0.12373	0.16227	0.18437	0.12645	0.13992	0.28854	0.15675	0.072838	-3.3875	-3.475	-3.4146	-3.9042	-3.3896	-3.7771	-3.7396	-3.4833	-3.7562	-3.6354	-3.4417	-3.8937	-3.5583	-3.7375	-3.7646	-3.475	218.080	214.363	268.958	93.572	401.097	361.746	411.677	355.927	354.515	295.219	196.934	105.803	439.348	100.328	253.406	354.665	0.0007711	0.00035607	8.2132e-05	1126.8	6.2262e-06	3.0198e-06	1203.9	235.86	8.8771e-06	2.6843e-06	297.34	83.161	65.826	18.419	4.2939e-06	26.214	0.00036626	0.00029125	7.8847e-05	1124.9	3.4183e-06	3.2906e-06	1188.2	235.32	3.1403e-06	3.2842e-06	296.92	83.756	65.709	18.832	3.0984e-06	26.715	347.108	173.353	177.560	99.028	215.890	254.496	98.702	106.206	271.837	261.198	105.779	112.355	112.872	119.777	246.714	118.976	-8191	255	
393.003	1	1	0	0	0.026845	0.032397	0.073049	0.26454	0.042874	0.1623	0.13051	0.051524	0.078947	0.11629	0.26905	0.15966	0.025605	0.060173	0.19573	0.24985	-3.2938	-3.3563	-3.4354	-3.7938	-3.5687	-3.7438	-3.8875	-3.5729	-3.6604	-3.4667	-3.4854	-3.8271	-3.4437	-3.3667	-3.7125	-3.4479	250.135	441.978	295.417	400.239	411.487	425.832	144.989	389.651	252.796	190.852	258.557	100.532	134.422	118.251	441.940	419.153	0.00078989	0.00031412	4.8883e-05	1132.4	7.5464e-06	3.7597e-06	1196.7	236.22	9.0182e-06	2.991e-06	296.91	82.932	65.685	18.572	5.6177e-06	26.069	0.00036882	0.00028863	8.3276e-05	1124.2	3.3866e-06	2.971e-06	1186.9	235.38	3.2411e-06	3.1355e-06	297.32	83.686	65.652	18.871	3.0297e-06	26.738	347.168	170.600	206.398	99.004	244.673	233.864	98.764	106.253	281.985	278.485	106.149	112.604	112.986	119.504	263.064	119.233	-8191	255	
393.122	1	1	0	0	0.12775	0.22417	0.17902	0.094822	0.22745	0.27854	0.17979	0.19882	0.18059	0.23986	0.06406	0.051092	0.10747	0.073239	0.32844	0.21992	-3.4188	-3.5583	-3.3396	-3.8542	-3.4562	-3.4542	-3.7896	-3.4646	-3.7125	-3.6458	-3.5354	-3.6771	-3.4979	-3.6854	-3.6708	-3.5187	427.894	370.164	171.255	364.682	132.800	367.794	362.158	355.540	437.021	438.053	208.206	366.016	276.621	170.795	434.882	352.603	0.00078986	0.00025709	8.7159e-05	1126.7	6.8306e-06	2.7508e-06	1199.2	235.3	8.3694e-06	2.9765e-06	295.66	83.189	65.355	18.372	4.1872e-06	26.217	0.00036046	0.0002768	7.9226e-05	1121.4	3.5321e-06	3.1366e-06	1188.4	234.91	3.1057e-06	3.0101e-06	296.22	83.791	65.486	18.776	2.9436e-06	26.761	347.085	198.478	191.217	99.052	239.561	252.379	98.925	106.418	273.359	290.594	105.659	112.770	113.100	120.223	260.791	119.219	-8191	255	
393.193	1	1	0	0	0.18691	0.15399	0.24007	0.1842	0.1097	0.26426	0.20267	0.17717	0.050706	0.25257	0.17828	0.11215	0.28092	0.14142	0.1403	0.15277	-3.2979	-3.5229	-3.5021	-3.8312	-3.4792	-3.3854	-3.9688	-3.3646	-3.5917	-3.5896	-3.4417	-3.8917	-3.7146	-3.5521	-3.7333	-3.325	372.006	407.132	325.596	112.260	100.866	104.983	424.349	91.172	109.870	224.874	167.666	181.316	170.852	398.636	359.008	407.633	0.00077837	0.00028329	0.00011907	1129.4	7.4727e-06	3.5927e-06	1193.4	235.59	9.7667e-06	3.0602e-06	296.29	83.223	65.72	18.389	5.3089e-06	26.206	0.0003593	0.00026776	8.2942e-05	1123	3.2291e-06	3.2645e-06	1186	235.05	3.113e-06	3.0943e-06	296.89	83.633	65.658	18.813	3.0463e-06	26.796	351.636	177.148	168.252	99.156	239.868	237.008	98.923	106.225	282.914	226.146	106.331	112.339	113.211	120.047	226.803	118.738	-8191	255	
393.289	1	1	0	0	0.3618	0.16459	0.2702	0.084468	0.32575	0.18197	0.11101	0.15955	0.24207	0.030037	0.034445	0.1397	0.27946	0.26771	0.12038	0.16665	-3.3271	-3.5833	-3.3875	-3.9542	-3.4938	-3.3438	-3.9938	-3.5167	-3.5292	-3.7604	-3.4625	-3.8563	-3.6104	-3.4	-3.675	-3.4729	296.244	158.942	188.362	243.212	142.068	243.100	423.182	304.302	348.511	425.156	316.832	170.780	334.909	359.445	413.772	327.715	0.00082022	0.00022	8.2878e-05	1133.1	7.579e-06	4.032e-06	1199	234.95	1.0259e-05	2.9967e-06	298.44	83.57	65.662	18.445	4.1817e-06	26.234	0.00038183	0.00027895	8.8194e-05	1123.8	3.3527e-06	3.3788e-06	1188	234.9	3.2485e-06	3.2215e-06	296.97	84.028	65.661	18.853	3.1189e-06	26.773	348.809	198.301	182.310	99.095	247.726	243.187	98.703	106.016	271.899	241.053	105.756	112.068	113.391	120.074	244.991	118.801	-8191	255	
393.386	1	1	0	0	0.11403	0.086616	0.22247	0.30596	0.09316	0.17429	0.1472	0.25053	0.13878	0.12256	0.07575	0.23034	0.22199	0.02541	0.14403	0.043693	-3.1	-3.6333	-3.3729	-3.9104	-3.5333	-3.5	-3.7604	-3.5438	-3.4271	-3.7292	-3.3937	-3.6771	-3.6937	-3.4437	-3.6604	-3.6354	308.710	340.220	120.934	392.853	254.952	389.899	393.711	93.041	377.847	379.299	183.142	121.632	122.568	422.965	440.895	136.888	0.00078987	0.0003269	7.1137e-05	1133.7	6.5368e-06	2.8333e-06	1199.7	236.47	9.8585e-06	3.7327e-06	294.78	83.276	65.532	18.524	6.4484e-06	26.118	0.00037771	0.00029458	8.3721e-05	1127.1	3.3904e-06	3.3518e-06	1189.3	235.07	3.3781e-06	3.1991e-06	296.74	83.954	65.612	18.792	3.0968e-06	26.748	349.765	167.706	196.241	98.741	242.444	226.452	98.900	106.150	274.010	247.470	105.721	112.511	112.825	120.146	250.807	119.037	-8191	255	
393.506	1	1	0	0	0.042543	0.047283	0.20745	0.07115	0.14587	0.17741	0.14279	0.20369	0.0892	0.1051	0.16766	0.30969	0.099547	0.021143	0.16691	0.22952	-3.1854	-3.8438	-3.4292	-3.8292	-3.6896	-3.4229	-3.7792	-3.4021	-3.4313	-3.8063	-3.3312	-3.5167	-3.5667	-3.3021	-3.525	-3.5312	441.654	358.082	355.235	441.637	254.566	329.355	202.686	417.834	361.070	227.114	177.003	118.205	218.037	268.635	173.935	420.132	0.00072633	0.00016621	8.7557e-05	1136.6	6.1795e-06	2.9003e-06	1198.5	235.68	1.0964e-05	3.0529e-06	298.08	82.985	65.592	18.503	3.6918e-06	26.242	0.00037026	0.00029807	8.5412e-05	1127.5	3.6354e-06	3.2825e-06	1188.3	235.04	3.2397e-06	3.2977e-06	297.62	83.817	65.531	18.862	3.137e-06	26.789	350.304	172.709	197.387	99.001	226.021	247.384	98.966	106.304	282.397	252.855	105.879	112.388	113.122	120.016	220.862	118.879	-8191	255	
393.602	1	1	0	0	0.22904	0.041366	0.09931	0.22683	0.076028	0.10708	0.24549	0.24968	0.231	0.067613	0.12097	0.25989	0.18622	0.13558	0.056674	0.071424	-3.025	-3.6396	-3.4833	-3.6333	-3.6562	-3.2958	-3.8187	-3.6396	-3.3771	-3.5646	-3.4521	-3.5875	-3.6271	-3.3208	-3.5812	-3.5271	192.467	95.012	168.220	99.911	220.314	369.626	335.464	317.079	420.505	246.903	133.620	419.272	406.538	392.328	133.138	429.287	0.00079218	0.00038463	5.9505e-05	1133.6	5.6056e-06	4.8749e-06	1197	235.87	9.631e-06	4.0195e-06	297.52	83.833	65.284	18.492	4.3778e-06	26.201	0.00038138	0.00028704	8.1919e-05	1125.6	3.4703e-06	3.2537e-06	1188.5	235.21	3.3744e-06	3.0629e-06	297	84.087	65.63	18.839	3.0865e-06	26.759	349.146	186.343	149.902	99.081	238.025	245.772	98.880	106.132	266.349	249.232	105.686	112.790	113.176	119.749	255.423	119.164	-8191	255	
393.698	1	1	0	0	0.14049	0.32151	0.38133	0.095296	0.10005	0.083043	0.15626	0.20815	0.026405	0.31457	0.090214	0.10811	0.16377	0.38056	0.29425	0.12749	-2.8917	-3.5667	-3.375	-3.4562	-3.6896	-3.325	-3.6333	-3.7729	-3.375	-3.8104	-3.65	-3.45	-3.7104	-3.5042	-3.5375	-3.6625	354.879	136.567	262.846	384.723	426.366	368.555	407.245	380.559	176.578	368.116	281.545	128.135	417.921	388.664	148.379	184.824	0.00078801	0.00025879	5.0204e-05	1133	5.233e-06	3.1212e-06	1197.8	234.99	1.1916e-05	3.2324e-06	294.47	83.509	65.964	18.416	3.7201e-06	26.336	0.00037969	0.00029926	8.6592e-05	1125.9	3.52e-06	3.1987e-06	1189.4	235.2	3.275e-06	3.2448e-06	296.56	83.891	65.725	18.807	3.2499e-06	26.767	348.875	154.620	186.425	98.835	245.769	219.052	98.729	106.170	278.408	248.705	106.214	112.337	113.001	119.769	260.489	118.553	-8191	255	
393.795	1	1	0	0	0.17377	0.23677	0.18275	0.25016	0.13407	0.25617	0.20358	0.39735	0.32377	0.30977	0.21602	0.12018	0.093381	0.33583	0.27693	0.1464	-2.95	-3.6	-3.5687	-3.6833	-3.7583	-3.3146	-3.9417	-3.7292	-3.5479	-3.7458	-3.4979	-3.5542	-3.7292	-3.4583	-3.525	-3.6542	96.651	385.703	200.533	413.533	317.763	183.581	362.751	399.745	134.836	251.214	444.121	195.566	215.573	296.780	379.078	311.765	0.00074217	0.00049225	7.3967e-05	1136.1	4.3422e-06	2.4966e-06	1197.1	235.32	9.2944e-06	4.8156e-06	298.06	83.692	65.922	18.45	6.5094e-06	26.324	0.00037619	0.00029252	8.8506e-05	1128	3.3904e-06	3.3536e-06	1189.7	235.24	3.2978e-06	3.2932e-06	297.78	84.054	65.81	18.872	3.1615e-06	26.8	349.340	159.886	186.744	99.026	244.535	257.283	99.022	106.269	283.617	233.264	105.686	112.570	112.788	119.938	235.942	119.195	-8191	255	
393.891	1	1	0	0	0.25152	0.050971	0.1004	0.29178	0.093621	0.048117	0.2662	0.40249	0.21043	0.22036	0.048774	0.26185	0.041411	0.17203	0.14776	0.057482	-3.0708	-3.6188	-3.475	-3.4958	-3.6708	-3.5042	-3.5854	-3.8833	-3.4583	-3.5312	-3.5729	-3.3625	-3.8667	-3.2771	-3.6562	-3.8417	279.917	445.290	173.044	421.867	105.216	183.137	435.899	421.171	390.778	121.835	96.202	374.255	175.477	230.888	201.760	206.088	0.00071862	0.00022862	4.8176e-05	1133.8	5.868e-06	2.8489e-06	1201	236.16	9.8766e-06	4.5066e-06	297.71	83.32	65.727	18.454	3.0678e-06	26.221	0.00035811	0.00028157	8.0338e-05	1127	3.4341e-06	3.169e-06	1189.7	235.29	3.2956e-06	3.303e-06	297.58	83.903	65.774	18.801	3.2578e-06	26.808	349.557	176.189	206.342	98.822	245.987	246.966	98.979	106.074	267.573	226.434	105.512	112.443	112.993	120.059	230.700	118.940	-8191	255	
393.987	1	1	0	0	0.34736	0.12986	0.22928	0.19143	0.12789	0.11841	0.13585	0.13549	0.28187	0.10969	0.041103	0.24356	0.18811	0.11514	0.012398	0.19909	-2.9333	-3.4625	-3.4917	-3.4958	-3.8229	-3.5625	-3.5417	-3.7271	-3.2833	-3.5917	-3.625	-3.3333	-3.7188	-3.4583	-3.4188	-3.6417	292.479	411.036	190.908	345.769	332.821	394.145	412.147	294.359	420.019	389.712	100.796	144.119	394.226	220.518	109.953	236.977	0.00075628	0.00032427	6.9596e-05	1136.8	4.6363e-06	3.1346e-06	1202.3	236.36	9.4021e-06	3.6426e-06	297.27	83.643	65.546	18.552	5.6456e-06	26.239	0.00037561	0.00028506	8.6392e-05	1128	3.4379e-06	3.2464e-06	1189.8	235.13	3.4561e-06	3.131e-06	297.46	83.873	65.596	18.849	3.3375e-06	26.844	348.402	182.173	167.468	99.034	236.138	245.202	98.938	106.287	276.554	244.887	105.810	112.311	113.161	119.629	236.588	118.820	-8191	255	
394.083	1	1	0	0	0.18886	0.082911	0.035442	0.16945	0.090383	0.18245	0.18339	0.26116	0.06199	0.13541	0.16181	0.12241	0.15504	0.27115	0.063097	0.082592	-2.7646	-3.6125	-3.6604	-3.3021	-3.6333	-3.4958	-3.6083	-3.625	-3.4229	-3.5375	-3.9104	-3.3729	-3.7729	-3.6125	-3.3292	-3.8604	379.368	165.334	217.410	364.907	195.695	163.166	359.594	407.093	439.040	445.158	280.425	124.872	382.116	224.770	145.088	376.843	0.00074803	0.00042233	0.00011332	1136	7.5045e-06	2.1026e-06	1199.2	235.56	9.2062e-06	5.054e-06	298.7	83.079	65.862	18.457	4.8523e-06	26.103	0.00038187	0.00030252	8.6147e-05	1128	3.8057e-06	3.4724e-06	1190.1	235.08	3.4083e-06	3.5664e-06	298.16	83.824	65.631	18.837	3.1994e-06	26.764	349.528	181.963	198.176	98.808	250.996	248.458	98.845	106.488	259.072	243.563	105.558	112.494	112.736	120.064	212.335	119.257	-8191	255	
394.202	1	1	0	0	0.11229	0.065817	0.17832	0.28148	0.06426	0.12713	0.056398	0.1378	0.15923	0.03645	0.17072	0.20434	0.19957	0.03228	0.12279	0.06347	-3.1562	-3.5646	-3.6417	-3.4229	-3.6646	-3.5812	-3.4437	-3.8771	-3.4479	-3.5563	-3.7417	-3.4562	-3.7604	-3.7333	-3.3063	-3.8	355.133	344.765	275.705	340.081	361.936	201.839	259.356	391.059	98.400	396.769	440.583	99.941	437.570	409.252	255.281	238.584	0.00077824	0.00025613	7.1048e-05	1137	6.4679e-06	2.6927e-06	1199	237.2	1.0683e-05	3.9581e-06	297.87	83.542	65.801	18.538	4.4893e-06	26.193	0.00037034	0.00030656	7.9827e-05	1128.6	3.4891e-06	3.3284e-06	1190.8	235.9	3.515e-06	3.4401e-06	297.76	83.927	65.895	18.889	3.3746e-06	26.824	353.050	176.472	182.344	99.004	233.669	252.468	99.049	106.233	288.139	261.031	106.035	112.211	113.229	120.041	245.985	119.204	-8191	255	
394.298	1	1	0	0	0.090205	0.10407	0.01785	0.25939	0.11708	0.1082	0.34091	0.083061	0.23402	0.16612	0.19124	0.092779	0.21363	0.31518	0.18612	0.11996	-3.2042	-3.2917	-3.6396	-3.5583	-3.7083	-3.7729	-3.5062	-3.8187	-3.3917	-3.4667	-3.7208	-3.5542	-3.6833	-3.6875	-3.4104	-3.8479	428.414	117.837	412.269	100.753	162.237	439.961	355.603	323.831	328.472	249.010	390.800	167.904	393.437	214.111	357.471	145.701	0.00071423	0.00016934	6.7478e-05	1134.6	6.2394e-06	3.1461e-06	1199.7	235.45	9.5805e-06	4.1189e-06	295.63	83.421	65.58	18.542	5.5857e-06	26.048	0.00037738	0.00028641	8.341e-05	1129.1	3.6263e-06	3.3887e-06	1190.4	235.35	3.4797e-06	3.467e-06	297.73	83.853	65.835	18.854	3.2847e-06	26.787	349.191	169.315	188.567	98.984	235.971	234.383	99.002	105.911	267.955	212.120	106.090	112.399	112.871	119.561	238.678	119.074	-8191	255	
394.394	1	1	0	0	0.15923	0.1523	0.30827	0.13278	0.1866	0.15864	0.12144	0.13259	0.16373	0.1485	0.21483	0.040501	0.13685	0.097146	0.17324	0.027048	-3.1292	-3.3396	-3.6458	-3.5417	-3.4271	-3.925	-3.6354	-3.5146	-3.6229	-3.3521	-3.8958	-3.3417	-3.4771	-3.6958	-3.2417	-3.525	374.214	363.803	224.718	101.770	192.568	254.104	431.425	367.348	423.061	371.096	396.530	160.514	262.513	415.809	264.752	426.647	0.00070398	0.00030316	3.282e-05	1135.4	7.0931e-06	1.8656e-06	1198.8	235.12	8.8114e-06	2.9735e-06	297.84	83.661	65.5	18.466	5.6495e-06	26.257	0.00037957	0.00032402	8.0027e-05	1127.4	3.7228e-06	3.26e-06	1190.3	235.24	3.395e-06	3.1982e-06	298.06	84.018	65.717	18.87	3.3944e-06	26.837	350.192	186.818	213.467	98.853	240.990	265.199	98.773	106.269	283.852	228.767	105.887	112.313	113.224	120.296	272.427	119.111	-8191	255	
394.490	1	1	0	0	0.15283	0.15899	0.11743	0.23059	0.18926	0.16049	0.31407	0.17731	0.097696	0.089163	0.11383	0.31409	0.14812	0.1337	0.14007	0.11397	-3.0271	-3.2625	-3.6021	-3.7313	-3.7104	-3.7354	-3.6292	-3.7292	-3.6646	-3.3646	-3.6104	-3.4875	-3.4313	-3.7167	-3.3583	-3.6583	224.246	297.442	337.007	137.976	417.064	193.392	386.741	258.782	410.433	251.509	343.179	111.968	210.255	418.962	280.106	388.972	0.00072796	0.00027661	0.00010879	1134.5	6.5215e-06	1.778e-06	1207.9	236.03	1.0011e-05	3.5747e-06	297.37	83.14	65.468	18.495	5.6096e-06	26.4	0.0003696	0.00030791	9.2222e-05	1128.1	3.563e-06	3.3671e-06	1193.4	235.7	3.6792e-06	3.7859e-06	298.33	83.901	65.641	18.856	3.4828e-06	26.841	350.073	200.150	175.898	98.924	251.038	254.112	98.909	106.134	281.882	237.062	105.950	112.398	112.935	119.863	237.894	118.803	-8191	255	
394.587	1	1	0	0	0.06473	0.15955	0.14708	0.28742	0.079243	0.1687	0.24672	0.25974	0.069592	0.13836	0.070844	0.20559	0.19586	0.10257	0.23982	0.038897	-3.2812	-3.3375	-3.6292	-3.6667	-3.3812	-3.7188	-3.4062	-3.6021	-3.6208	-3.3688	-3.6771	-3.6188	-3.2562	-3.7562	-3.575	-3.6833	363.566	166.872	248.887	94.071	162.652	336.936	407.470	442.424	324.548	148.353	261.538	396.072	217.676	178.656	389.447	309.925	0.00075526	0.00030247	3.1246e-05	1135.9	5.9655e-06	3.8358e-06	1206	237.04	1.0834e-05	4.7282e-06	299	83.099	65.606	18.512	6.7197e-06	26.323	0.00038805	0.00032855	8.6036e-05	1129.5	3.9369e-06	3.5111e-06	1194.4	236.3	3.5077e-06	3.6408e-06	299.47	84.012	65.845	18.88	3.3249e-06	26.878	347.510	158.961	187.661	98.668	251.603	210.020	98.783	106.294	275.885	254.989	105.900	112.782	112.947	119.925	253.136	119.392	-8191	255	
394.683	1	1	0	0	0.07623	0.067763	0.10164	0.14151	0.20227	0.17579	0.24388	0.25291	0.16816	0.11997	0.14732	0.20617	0.17664	0.12365	0.15277	0.20762	-3.5	-3.3417	-3.6125	-3.6667	-3.575	-3.7917	-3.4604	-3.5917	-3.6479	-3.4917	-3.7771	-3.6875	-3.3521	-3.7188	-3.4688	-3.5146	203.272	315.601	136.664	394.791	212.760	428.689	447.025	352.939	295.371	123.004	438.991	114.088	129.898	127.576	212.390	287.371	0.00078436	0.0003717	9.7421e-05	1138.4	4.4945e-06	2.9636e-06	1205	236.99	8.4539e-06	2.1729e-06	298.54	83.232	66.047	18.551	3.0548e-06	26.27	0.00038558	0.00032712	8.2809e-05	1130.5	3.8117e-06	3.16e-06	1193.5	236.3	3.2242e-06	3.3254e-06	298.41	84.144	65.915	18.877	3.3368e-06	26.863	350.486	200.907	205.757	98.889	224.055	227.690	98.772	106.247	274.998	252.134	106.124	112.404	113.078	119.689	239.264	119.018	-8191	255	
394.803	1	1	0	0	0.041583	0.25349	0.34871	0.15297	0.12239	0.20189	0.069563	0.12098	0.16736	0.064038	0.20004	0.23298	0.16769	0.23066	0.094602	0.12968	-3.2229	-3.3208	-3.6229	-3.8396	-3.3958	-3.8104	-3.7104	-3.4979	-3.5708	-3.4979	-3.6646	-3.8563	-3.3646	-3.6937	-3.5708	-3.4458	122.035	150.513	289.525	432.264	282.389	339.040	358.535	140.553	246.338	394.979	356.261	381.721	119.898	374.471	442.227	288.429	0.00074842	0.00031506	0.00010863	1135.9	6.3166e-06	2.8865e-06	1206.2	237.25	9.3434e-06	3.1326e-06	298.37	83.218	66.132	18.647	4.0934e-06	26.294	0.00036474	0.00029768	8.4901e-05	1130.9	3.4612e-06	3.1636e-06	1192.1	236.2	3.1587e-06	3.0934e-06	298.63	84.054	65.964	18.902	3.246e-06	26.838	346.338	187.196	188.333	98.998	234.457	257.621	98.869	106.215	273.191	199.086	105.923	112.611	112.871	119.866	249.663	118.434	-8191	255	
394.900	1	1	0	0	0.1701	0.13776	0.082988	0.30338	0.077671	0.23646	0.14568	0.16711	0.12287	0.10115	0.111	0.43073	0.1762	0.15968	0.23277	0.016156	-3.3042	-3.4583	-3.3937	-3.8458	-3.3792	-3.7271	-3.8042	-3.6	-3.7125	-3.7188	-3.7021	-3.8083	-3.4688	-3.6437	-3.5875	-3.5187	252.958	224.464	351.046	426.797	298.529	163.489	309.152	416.551	138.149	235.208	332.857	421.094	114.062	381.097	154.659	275.207	0.00071299	0.0004697	7.8973e-05	1141.2	5.4407e-06	2.9491e-06	1201	236.89	1.0427e-05	4.2443e-06	297.17	83.639	65.699	18.602	4.3725e-06	26.221	0.00035263	0.00030577	7.9426e-05	1130.6	3.4952e-06	3.1348e-06	1190.5	236.05	3.1417e-06	3.0477e-06	297.95	84.017	65.725	18.854	3.0218e-06	26.848	350.163	184.596	210.152	99.064	237.726	214.229	98.814	106.501	263.877	255.919	106.101	112.559	112.863	119.628	225.135	118.593	-8191	255	
394.994	1	1	0	0	0.12096	0.14972	0.20574	0.18397	0.072009	0.13033	0.038555	0.12385	0.13132	0.21277	0.18358	0.19197	0.086858	0.10356	0.1623	0.13305	-3.3208	-3.3083	-3.5687	-3.875	-3.4188	-3.6125	-3.7875	-3.3396	-3.8354	-3.4396	-3.3021	-4.0521	-3.4271	-3.5771	-3.6875	-3.2438	391.948	351.922	285.262	436.900	295.603	124.396	197.052	218.928	282.413	279.660	390.506	114.585	155.027	130.646	357.938	289.783	0.00074627	0.00030624	0.00010116	1134.5	5.3839e-06	2.2687e-06	1199.8	237.22	1.269e-05	4.6277e-06	294.82	83.243	65.373	18.515	5.9984e-06	26.265	0.00035753	0.00029609	8.2586e-05	1127.8	3.4514e-06	3.0016e-06	1189.6	235.85	3.0482e-06	2.9187e-06	296.92	84.039	65.673	18.804	3.0463e-06	26.813	349.525	178.914	167.882	98.811	239.437	239.277	99.026	106.489	274.512	231.321	105.788	112.353	112.965	119.903	245.958	118.991	-8191	255	
395.067	1	1	0	0	0.19007	0.031377	0.057592	0.029624	0.10274	0.08915	0.18975	0.050426	0.095737	0.12984	0.15331	0.068571	0.19524	0.16328	0.14447	0.13906	-3.3937	-3.4104	-3.525	-3.8354	-3.5604	-3.6937	-3.8479	-3.4	-3.7313	-3.625	-3.4479	-3.7938	-3.5083	-3.55	-3.7854	-3.5167	173.567	122.249	445.529	204.300	276.571	282.577	318.110	356.561	279.115	169.881	404.564	206.283	426.031	158.802	298.855	437.150	0.00077044	0.00026541	7.3833e-05	1131.2	6.192e-06	2.7122e-06	1199.4	235.37	1.027e-05	4.9562e-06	296.48	83.798	65.471	18.573	5.1967e-06	26.185	0.00035761	0.00028537	8.0116e-05	1126	3.1401e-06	3.0097e-06	1187.9	234.97	3.1197e-06	2.6311e-06	298.16	83.801	65.628	18.838	2.6673e-06	26.745	350.031	169.040	194.442	99.092	219.528	243.835	98.971	106.052	261.907	263.817	105.968	112.498	112.933	120.228	252.659	119.160	-8191	255	
395.163	1	1	0	0	0.14257	0.29241	0.1083	0.34702	0.22859	0.17983	0.2135	0.0099819	0.095054	0.074111	0.077855	0.082574	0.17367	0.37894	0.16987	0.099925	-3.2687	-3.5958	-3.375	-3.7458	-3.6042	-3.5771	-3.8854	-3.5646	-3.7646	-3.5854	-3.5	-3.7708	-3.4271	-3.4479	-3.7333	-3.5479	136.745	339.279	113.671	445.336	416.513	275.840	377.033	397.253	148.560	368.293	438.380	323.669	280.779	215.721	374.868	283.287	0.00072641	0.00021121	9.6824e-05	1127.2	5.9162e-06	3.4029e-06	1188.5	234.13	9.4658e-06	3.5799e-06	294.65	83.042	65.107	18.41	4.1004e-06	26.092	0.00033829	0.00024244	6.9011e-05	1119.6	3.2939e-06	2.6243e-06	1178.3	233.88	2.7883e-06	2.3848e-06	295.64	83.523	65.299	18.728	2.5742e-06	26.668	351.611	202.856	201.334	99.034	227.216	243.254	98.882	106.090	275.148	263.515	105.978	112.367	112.999	119.925	243.220	119.186	-8191	255	
395.282	1	1	0	0	0.23894	0.051041	0.069062	0.15766	0.092072	0.26812	0.12631	0.10457	0.11203	0.12343	0.13404	0.18197	0.252	0.0681	0.1413	0.17105	-3.2062	-3.3917	-3.1667	-3.7812	-3.4271	-3.5229	-3.8979	-3.5458	-3.6063	-3.575	-3.4104	-3.7396	-3.5438	-3.4604	-3.8021	-3.3708	170.059	182.969	386.704	444.126	91.970	307.618	422.209	408.405	251.779	230.042	296.103	204.639	266.279	159.658	182.238	257.552	0.00079696	0.00029239	8.2258e-05	1121.2	5.8038e-06	3.6855e-06	1190.7	234.85	8.29e-06	3.1953e-06	294.83	82.998	65.377	18.298	4.725e-06	25.933	0.00035358	0.00025498	7.4196e-05	1115.8	3.2834e-06	2.7459e-06	1177.3	233.95	2.9938e-06	2.7127e-06	295.21	83.464	65.358	18.709	2.5608e-06	26.575	347.064	173.920	215.194	99.132	245.001	252.853	98.966	106.410	278.932	242.741	105.775	112.468	113.205	120.122	232.858	119.088	-8191	255	
395.379	1	1	0	0	0.18732	0.08404	0.14483	0.24183	0.016817	0.27784	0.1218	0.086659	0.098914	0.094856	0.10525	0.042336	0.076412	0.15422	0.33284	0.19239	-3.2167	-3.6896	-3.3312	-3.9354	-3.4917	-3.4729	-3.7271	-3.5687	-3.4396	-3.8042	-3.6	-3.7208	-3.6479	-3.4917	-3.6833	-3.4458	201.871	260.831	336.080	442.785	132.791	238.758	293.655	290.743	131.386	332.239	360.633	121.622	336.686	219.966	225.372	302.101	0.00075242	0.00023979	0.00010573	1120.6	6.9558e-06	2.5026e-06	1188.8	234.49	1.0763e-05	3.6684e-06	295.5	82.756	65.485	18.412	4.7009e-06	26.189	0.00034311	0.00024006	7.0502e-05	1113.1	3.0987e-06	2.8917e-06	1178.1	233.69	2.901e-06	2.5917e-06	295.79	83.408	65.37	18.742	2.5387e-06	26.637	351.271	194.888	187.224	99.017	234.674	250.514	99.049	106.554	282.842	240.526	105.925	112.246	113.082	119.569	261.257	119.044	-8191	255	
395.475	1	1	0	0	0.17106	0.25606	0.047947	0.15763	0.10313	0.14519	0.18405	0.066742	0.040934	0.094675	0.06324	0.041801	0.15607	0.050085	0.19216	0.051449	-3.0104	-3.6	-3.3812	-3.6792	-3.5542	-3.3187	-3.7583	-3.4521	-3.4333	-3.6708	-3.4583	-3.7042	-3.6396	-3.1771	-3.6542	-3.3333	443.348	317.269	305.951	401.718	263.354	219.371	328.125	139.538	242.099	310.666	320.435	390.473	99.811	132.449	390.773	127.019	0.00074137	0.00029763	6.5577e-05	1120.8	5.2393e-06	3.6795e-06	1181.3	233.5	1.1263e-05	3.1485e-06	293.34	83.077	65.09	18.457	2.3621e-06	26.132	0.00034686	0.00024641	7.2727e-05	1114.3	3.0776e-06	2.7729e-06	1175.2	233.34	2.8597e-06	2.7154e-06	294.75	83.484	65.197	18.755	2.556e-06	26.673	347.450	194.145	177.906	98.955	235.779	252.937	99.134	106.219	286.626	244.324	106.265	112.473	112.903	119.965	260.199	119.205	-8191	255	
395.595	1	1	0	0	0.13902	0.054337	0.090459	0.1812	0.061409	0.14666	0.1174	0.25695	0.24755	0.26908	0.11078	0.12892	0.10321	0.061072	0.14791	0.15366	-3.1042	-3.6604	-3.1625	-3.6875	-3.4771	-3.3208	-3.8042	-3.5812	-3.4938	-3.7729	-3.5667	-3.6521	-3.9021	-3.4896	-3.4813	-3.7521	407.616	345.751	233.314	405.831	92.535	252.224	321.880	144.690	153.083	388.504	440.877	292.116	97.405	426.469	291.351	352.083	0.00070579	0.0002959	8.6827e-05	1122	3.8098e-06	2.8784e-06	1182.9	233.99	1.1277e-05	4.9762e-06	295.79	82.729	65.121	18.285	3.3078e-06	25.922	0.00034822	0.00025696	7.3796e-05	1114.5	3.0316e-06	2.8791e-06	1174.5	233.71	2.9724e-06	2.7548e-06	295.54	83.268	65.097	18.727	2.7652e-06	26.601	347.941	163.194	196.583	98.937	231.383	222.627	99.057	106.431	265.280	239.373	105.890	112.536	112.967	120.220	247.599	118.767	-8191	255	
395.667	1	1	0	0	0.027136	0.28302	0.17231	0.11042	0.30413	0.20216	0.13175	0.10246	0.089469	0.16598	0.049718	0.27206	0.063876	0.2167	0.25145	0.1046	-2.9542	-3.6667	-3.4042	-3.6104	-3.6979	-3.4125	-3.8042	-3.4396	-3.4521	-3.6562	-3.5438	-3.5521	-3.8604	-3.2604	-3.6646	-3.7333	306.297	429.716	356.266	375.333	365.147	156.366	385.861	270.009	295.957	349.504	243.818	432.022	232.869	354.551	402.762	346.870	0.00070799	0.00030694	6.7019e-05	1117.1	5.955e-06	3.2825e-06	1182.5	233.15	1.3416e-05	4.2083e-06	294.59	82.331	64.938	18.362	5.5771e-06	26.148	0.00034175	0.00025355	7.7134e-05	1111	3.0776e-06	2.9061e-06	1172.8	232.77	3.0666e-06	2.7709e-06	294.65	83.171	65.076	18.727	2.8481e-06	26.649	348.303	182.771	195.435	99.079	239.993	234.850	99.082	106.560	275.688	244.107	106.103	112.610	113.117	119.917	245.313	118.878	-8191	255	
395.763	1	1	0	0	0.20004	0.039622	0.1587	0.3417	0.13179	0.14008	0.23194	0.14881	0.17084	0.20981	0.10483	0.14871	0.15568	0.065975	0.12696	0.28502	-3.0062	-3.6562	-3.5917	-3.5833	-3.825	-3.3438	-3.7229	-3.7875	-3.4917	-3.7333	-3.6042	-3.6167	-3.7771	-3.3917	-3.4396	-3.6125	333.267	325.491	347.653	410.923	114.676	433.444	382.296	145.015	331.905	185.795	426.060	226.786	436.611	268.094	225.197	411.856	0.00069844	0.00040158	9.8865e-05	1116.9	5.6138e-06	3.7179e-06	1183.1	232.56	1.0146e-05	1.7538e-06	293.92	82.848	64.986	18.239	5.597e-06	25.957	0.00035559	0.00025681	7.7512e-05	1110.5	3.1341e-06	2.8395e-06	1171.5	232.57	2.9577e-06	2.8838e-06	295.05	83.248	65.108	18.64	2.8165e-06	26.536	347.330	182.137	184.240	98.977	214.966	267.202	99.016	106.341	276.376	228.779	106.113	112.761	112.897	119.924	259.614	119.126	-8191	255	
395.884	1	1	0	0	0.26413	0.062492	0.087429	0.077591	0.045378	0.066665	0.28167	0.091572	0.091345	0.19725	0.11873	0.15703	0.37929	0.4424	0.12947	0.16721	-3.0042	-3.6979	-3.4875	-3.5042	-3.6813	-3.4583	-3.5	-3.6104	-3.5021	-3.4583	-3.4188	-3.2938	-3.7625	-3.5729	-3.7083	-3.6604	155.519	213.230	362.205	109.480	426.179	135.864	363.262	373.288	103.818	162.489	433.778	328.489	141.716	201.879	386.660	214.563	0.00074859	0.00018955	8.572e-05	1118.2	6.9342e-06	3.0803e-06	1185.1	233.54	1.0015e-05	3.5969e-06	292.32	82.954	65.115	18.336	4.5199e-06	25.883	0.00033982	0.000253	7.3551e-05	1112	2.9065e-06	2.8737e-06	1172.2	232.96	2.9238e-06	2.968e-06	294.42	83.298	65.116	18.67	2.7873e-06	26.554	345.938	196.695	166.432	99.218	234.314	225.925	98.884	106.260	275.124	229.724	105.689	112.651	113.114	120.012	223.138	119.079	-8191	255	
395.980	1	1	0	0	0.13318	0.11836	0.37767	0.21823	0.080354	0.17478	0.17669	0.1463	0.39478	0.22707	0.12896	0.10719	0.041924	0.0027068	0.18938	0.29944	-3.0854	-3.5958	-3.4646	-3.5104	-3.5896	-3.4437	-3.4813	-3.7917	-3.3396	-3.5854	-3.6854	-3.2062	-3.7708	-3.3583	-3.3208	-3.7521	319.321	164.417	236.168	106.156	107.973	428.216	434.769	97.163	402.438	283.428	270.017	318.755	430.772	309.463	384.855	425.348	0.00076044	0.00045474	5.7469e-05	1116.2	5.6474e-06	2.5339e-06	1185.3	233.64	7.8326e-06	4.1413e-06	292.8	82.967	65.309	18.307	3.8408e-06	26.093	0.00034443	0.00026823	7.2972e-05	1112.1	3.2306e-06	3.0529e-06	1174.1	233.37	2.9525e-06	2.8605e-06	295.55	83.219	65.142	18.658	2.7723e-06	26.636	346.160	192.125	182.009	99.032	230.121	257.910	99.156	106.482	274.897	231.865	105.805	112.581	113.061	119.975	240.492	119.290	-8191	255	
396.076	1	1	0	0	0.29369	0.098525	0.13768	0.24228	0.086262	0.28211	0.16875	0.29986	0.12936	0.19793	0.20251	0.056361	0.097718	0.18207	0.38522	0.057163	-2.9437	-3.5583	-3.5917	-3.4562	-3.5604	-3.3729	-3.5646	-3.8292	-3.4271	-3.6917	-3.4792	-3.3792	-3.8125	-3.5687	-3.3792	-3.5875	397.188	201.210	191.729	103.977	94.770	155.191	347.354	350.046	199.761	154.344	290.558	314.583	445.500	142.990	256.448	265.435	0.00076686	0.00029297	0.00010352	1116	5.8907e-06	2.9808e-06	1182.8	233.79	1.0676e-05	2.5688e-06	294.58	82.809	65.072	18.336	5.3818e-06	26.134	0.00035345	0.00027411	7.571e-05	1109.4	2.9977e-06	3.0592e-06	1172.1	233.03	2.9893e-06	3.1884e-06	295.49	83.358	65.168	18.713	2.77e-06	26.633	351.556	158.509	152.751	99.054	227.841	242.295	99.058	106.472	266.527	220.515	105.936	112.662	112.859	119.962	230.771	118.912	-8191	255	
396.195	1	1	0	0	0.058437	0.26688	0.088235	0.16826	0.06231	0.29917	0.26215	0.035404	0.1797	0.054989	0.085371	0.19691	0.089707	0.05795	0.067861	0.31189	-2.9083	-3.3833	-3.6146	-3.3063	-3.6437	-3.5604	-3.6146	-3.7833	-3.3417	-3.5	-3.7167	-3.3937	-3.6333	-3.7104	-3.4562	-3.8354	310.334	90.349	443.314	96.410	371.753	343.104	416.783	393.639	280.860	280.362	319.387	346.070	259.189	269.085	367.505	181.773	0.00073541	0.00024495	8.8078e-05	1116.2	6.8465e-06	3.6643e-06	1188.4	233.86	7.4662e-06	3.7702e-06	295.68	82.792	64.791	18.345	4.1827e-06	26.094	0.00036812	0.00025609	6.8054e-05	1110.6	3.0912e-06	3.034e-06	1173.5	233.08	2.8472e-06	2.6195e-06	295.6	83.305	65.163	18.7	2.9602e-06	26.634	351.534	173.127	192.417	99.034	223.704	252.540	99.113	106.312	275.561	242.756	105.912	112.603	113.143	119.645	238.317	119.091	-8191	255	
#DATA ENDS
