BOXY.EXE: ISS Imagent and Oximeter Data Acquisition Program Version 0.80
Ascii Record File

#ACQ INFORMATION
2  Detector Channels 
16  External MUX Channels 
1  Auxiliary Channels 
5000  Waveform (CCF) Frequency (Hz)
1  Waveforms Skipped 
30  Waveforms Averaged 
1  Cycles Averaged 
16  Acquisitions per Waveform 
10.0806  Updata Rate (Hz) 

#FILE INFORMATION
TRUE -- External MUX Channel results are PARSED.
FALSE -- AC DC and Phase are NOT grouped.
TRUE -- Companion Program Settings File CREATED.
FALSE -- AC data not excluded
FALSE -- DC data not excluded
FALSE -- Phase data not excluded
FALSE -- Auxillary Chn. data not excluded
Tab delimiters

#CALIBRATION STATE
TRUE -- Waveform Calibration Values APPLIED.


#AUX CALIBRATION VALUES
Val Type	aux-1	

Term	1.0000e+00	
Factor	0.0000e+00	


#WF CALIBRATION VALUES
A = Detector Channel
Val Type	A-AC1	A-AC2	A-AC3	A-AC4	A-AC5	A-AC6	A-AC7	A-AC8	A-AC9	A-AC10	A-AC11	A-AC12	A-AC13	A-AC14	A-AC15	A-AC16	A-DC1	A-DC2	A-DC3	A-DC4	A-DC5	A-DC6	A-DC7	A-DC8	A-DC9	A-DC10	A-DC11	A-DC12	A-DC13	A-DC14	A-DC15	A-DC16	A-Ph1	A-Ph2	A-Ph3	A-Ph4	A-Ph5	A-Ph6	A-Ph7	A-Ph8	A-Ph9	A-Ph10	A-Ph11	A-Ph12	A-Ph13	A-Ph14	A-Ph15	A-Ph16	

Term	0.00000e+00	0.00000e+00	0.00000e+00	0.00000e+00	0.00000e+00	0.00000e+00	0.00000e+00	0.00000e+00	0.00000e+00	0.00000e+00	0.00000e+00	0.00000e+00	0.00000e+00	0.00000e+00	0.00000e+00	0.00000e+00	0.00000e+00	0.00000e+00	0.00000e+00	0.00000e+00	0.00000e+00	0.00000e+00	0.00000e+00	0.00000e+00	0.00000e+00	0.00000e+00	0.00000e+00	0.00000e+00	0.00000e+00	0.00000e+00	0.00000e+00	0.00000e+00	0.00000e+00	0.00000e+00	0.00000e+00	0.00000e+00	0.00000e+00	0.00000e+00	0.00000e+00	0.00000e+00	0.00000e+00	0.00000e+00	0.00000e+00	0.00000e+00	0.00000e+00	0.00000e+00	0.00000e+00	0.00000e+00	
Factor	1.00000e+00	1.00000e+00	1.00000e+00	1.00000e+00	1.00000e+00	1.00000e+00	1.00000e+00	1.00000e+00	1.00000e+00	1.00000e+00	1.00000e+00	1.00000e+00	1.00000e+00	1.00000e+00	1.00000e+00	1.00000e+00	1.00000e+00	1.00000e+00	1.00000e+00	1.00000e+00	1.00000e+00	1.00000e+00	1.00000e+00	1.00000e+00	1.00000e+00	1.00000e+00	1.00000e+00	1.00000e+00	1.00000e+00	1.00000e+00	1.00000e+00	1.00000e+00	X	X	X	X	X	X	X	X	X	X	X	X	X	X	X	X	

B = Detector Channel
Val Type	B-AC1	B-AC2	B-AC3	B-AC4	B-AC5	B-AC6	B-AC7	B-AC8	B-AC9	B-AC10	B-AC11	B-AC12	B-AC13	B-AC14	B-AC15	B-AC16	B-DC1	B-DC2	B-DC3	B-DC4	B-DC5	B-DC6	B-DC7	B-DC8	B-DC9	B-DC10	B-DC11	B-DC12	B-DC13	B-DC14	B-DC15	B-DC16	B-Ph1	B-Ph2	B-Ph3	B-Ph4	B-Ph5	B-Ph6	B-Ph7	B-Ph8	B-Ph9	B-Ph10	B-Ph11	B-Ph12	B-Ph13	B-Ph14	B-Ph15	B-Ph16	

Term	0.00000e+00	0.00000e+00	0.00000e+00	0.00000e+00	0.00000e+00	0.00000e+00	0.00000e+00	0.00000e+00	0.00000e+00	0.00000e+00	0.00000e+00	0.00000e+00	0.00000e+00	0.00000e+00	0.00000e+00	0.00000e+00	0.00000e+00	0.00000e+00	0.00000e+00	0.00000e+00	0.00000e+00	0.00000e+00	0.00000e+00	0.00000e+00	0.00000e+00	0.00000e+00	0.00000e+00	0.00000e+00	0.00000e+00	0.00000e+00	0.00000e+00	0.00000e+00	-1.94344e+02	-1.48674e+02	-1.07227e+02	-1.84987e+02	-9.08407e+01	-7.85829e+01	-1.57988e+02	-1.62015e+02	-1.11268e+02	-7.23283e+01	-1.72886e+02	-1.71881e+02	-1.86190e+02	-1.78141e+02	-8.04851e+01	-1.51352e+02	
Factor	3.67444e-05	1.62840e-04	4.87540e-05	1.57284e-01	1.62940e-06	1.66336e-06	1.76798e-01	5.88739e-02	1.65447e-06	1.74198e-06	9.00523e-02	2.90411e-02	3.90052e-02	9.40174e-03	1.81285e-06	1.35102e-02	2.66912e-06	2.86867e-06	7.96089e-07	8.04055e-02	3.10196e-08	3.14591e-08	8.49095e-02	3.00481e-02	3.10529e-08	3.13860e-08	4.43970e-02	1.43626e-02	1.94229e-02	4.81836e-03	3.11608e-08	6.69425e-03	X	X	X	X	X	X	X	X	X	X	X	X	X	X	X	X	



#DISTANCE SETTINGS
A = Detector Channel
A-1	A-2	A-3	A-4	A-5	A-6	A-7	A-8	A-9	A-10	A-11	A-12	A-13	A-14	A-15	A-16	

2.5000e+00	3.0000e+00	2.5000e+00	3.0000e+00	2.0000e+00	3.0000e+00	1.5000e+00	3.0000e+00	3.0000e+00	3.0000e+00	3.0000e+00	3.0000e+00	3.0000e+00	3.0000e+00	1.5000e+00	3.0000e+00	

B = Detector Channel
B-1	B-2	B-3	B-4	B-5	B-6	B-7	B-8	B-9	B-10	B-11	B-12	B-13	B-14	B-15	B-16	

1.0000e+01	1.0000e+01	1.0000e+01	1.4400e+00	1.0000e+01	1.0000e+01	1.5100e+00	1.9400e+00	1.0000e+01	1.0000e+01	1.9900e+00	2.4900e+00	2.4100e+00	2.9000e+00	1.0000e+01	2.9800e+00	




#DATA BEGINS
time	group	step	mark	flag	A-AC1	A-AC2	A-AC3	A-AC4	A-AC5	A-AC6	A-AC7	A-AC8	A-AC9	A-AC10	A-AC11	A-AC12	A-AC13	A-AC14	A-AC15	A-AC16	A-DC1	A-DC2	A-DC3	A-DC4	A-DC5	A-DC6	A-DC7	A-DC8	A-DC9	A-DC10	A-DC11	A-DC12	A-DC13	A-DC14	A-DC15	A-DC16	A-Ph1	A-Ph2	A-Ph3	A-Ph4	A-Ph5	A-Ph6	A-Ph7	A-Ph8	A-Ph9	A-Ph10	A-Ph11	A-Ph12	A-Ph13	A-Ph14	A-Ph15	A-Ph16	B-AC1	B-AC2	B-AC3	B-AC4	B-AC5	B-AC6	B-AC7	B-AC8	B-AC9	B-AC10	B-AC11	B-AC12	B-AC13	B-AC14	B-AC15	B-AC16	B-DC1	B-DC2	B-DC3	B-DC4	B-DC5	B-DC6	B-DC7	B-DC8	B-DC9	B-DC10	B-DC11	B-DC12	B-DC13	B-DC14	B-DC15	B-DC16	B-Ph1	B-Ph2	B-Ph3	B-Ph4	B-Ph5	B-Ph6	B-Ph7	B-Ph8	B-Ph9	B-Ph10	B-Ph11	B-Ph12	B-Ph13	B-Ph14	B-Ph15	B-Ph16	aux-1	digaux	

1183.541	1	1	0	512	0.17524	0.12835	0.15766	0.17596	0.26728	0.25805	0.027885	0.1064	0.25525	0.0041819	0.16511	0.27837	0.19684	0.15271	0.24198	0.13158	-1.6688	-1.9167	-1.9083	-2.4521	-1.8833	-2.1063	-2.4146	-1.8875	-2.3229	-2.1708	-1.8125	-2.4417	-2.0146	-1.8979	-2.1625	-2.0708	-88.070	196.235	-40.773	-92.026	-25.013	223.764	96.807	-78.401	-49.053	-65.290	235.319	225.848	259.957	-91.019	223.628	-47.756	0.00038524	0.00057973	7.6504e-05	476.1	2.46e-06	3.3796e-06	559.02	174.6	1.6006e-06	1.0101e-06	235.88	111.62	83.989	38.045	4.0772e-06	52.619	0.00085005	0.00087154	0.00024244	509.74	9.4659e-06	9.672e-06	595.07	188.02	9.5107e-06	9.6762e-06	253.56	118.48	91.279	40.682	9.67e-06	55.914	142.903	20.651	-3.446	-86.397	-32.883	111.117	-87.612	-80.994	-16.104	154.242	-82.816	-78.996	-77.624	-72.390	24.692	-74.960	-8191	255	
1183.662	1	1	0	0	0.15717	0.27865	0.13551	0.22924	0.30073	0.20057	0.13337	0.2257	0.13658	0.1302	0.091302	0.10895	0.10902	0.15594	0.13737	0.087716	-1.7917	-2.1688	-1.8625	-2.3438	-1.9979	-2.1104	-2.2354	-1.975	-2.1958	-1.9979	-1.9021	-2.2458	-1.9396	-2.0458	-2.3208	-1.8854	-1.828	-42.227	135.776	213.851	82.026	114.841	99.657	202.816	58.621	130.619	95.253	180.058	117.152	120.697	90.771	146.231	0.00037791	0.00091172	0.00011419	473.89	4.7831e-06	2.2455e-06	553.68	175.36	6.4789e-06	2.8012e-06	236.75	110.79	83.8	38.103	5.3813e-06	52.705	0.00086954	0.00088739	0.00024546	508.35	9.5751e-06	9.7426e-06	593	188.82	9.5836e-06	9.6899e-06	254.28	117.86	91.368	40.898	9.8541e-06	56.308	122.841	-12.349	9.302	-86.856	40.980	103.796	-87.464	-80.883	-2.084	44.479	-82.978	-79.101	-77.324	-72.176	10.593	-74.880	-8191	255	
1183.734	1	1	0	0	0.26738	0.25395	0.087254	0.15783	0.24299	0.12908	0.11697	0.12396	0.20342	0.11471	0.10792	0.13221	0.029159	0.1051	0.1361	0.11125	-1.4896	-2.4479	-1.8292	-2.2875	-1.8375	-1.9167	-2.5438	-2.1771	-1.9688	-1.9917	-1.9021	-2.2208	-2.0333	-1.7687	-2.2708	-1.9542	260.305	0.882	-65.615	-79.231	-72.753	-90.242	224.669	-55.257	-3.650	-33.063	-95.274	139.427	245.064	-89.574	10.711	191.048	0.00044914	0.00042438	0.00010282	475.56	2.4639e-06	4.3733e-06	556.69	176.87	1.9817e-06	7.0271e-06	237.98	111.93	83.955	38.761	9.3433e-06	53.616	0.000875	0.00090365	0.00024886	510.09	9.7319e-06	9.8751e-06	595.35	190.16	9.7541e-06	9.7697e-06	256.06	119.3	91.798	41.421	9.7945e-06	56.929	123.157	10.855	69.149	-86.513	-58.496	-37.791	-87.397	-80.882	165.787	80.859	-82.786	-79.054	-77.215	-72.462	84.660	-75.158	-8191	255	
1183.830	1	1	0	0	0.04498	0.085875	0.16756	0.33793	0.20237	0.19617	0.075751	0.29181	0.38505	0.045627	0.06146	0.086211	0.11437	0.31298	0.1307	0.34572	-1.4708	-2.2271	-1.8854	-2.1437	-2.1854	-1.9229	-2.4542	-2.0438	-2.0375	-2.3854	-1.8312	-2.0438	-2.1583	-2.0521	-2.5229	-2.1042	218.323	169.478	181.080	186.574	92.201	-12.641	210.214	104.528	253.759	69.277	-75.270	28.373	-69.278	163.044	139.831	239.379	0.00039022	0.00032031	0.00015984	479.35	4.9143e-06	6.8934e-06	562.61	177.89	4.1276e-06	1.051e-06	239.78	112.63	84.356	39.11	4.3334e-06	54.193	0.0008628	0.00089814	0.00024768	512.68	9.6684e-06	9.7942e-06	598	191.04	9.7323e-06	9.7038e-06	257.63	119.72	92.169	41.718	9.6231e-06	57.553	107.317	-78.666	61.269	-86.484	-9.937	70.347	-87.504	-80.878	106.469	48.748	-82.901	-79.035	-77.373	-72.325	-71.303	-75.079	-8191	255	
1183.950	1	1	0	0	0.25673	0.24235	0.0063504	0.091522	0.38707	0.12726	0.25673	0.2467	0.13512	0.12388	0.17806	0.017046	0.35741	0.093846	0.22736	0.22215	-1.4958	-2.3792	-1.8271	-2.2938	-2.2604	-1.8375	-2.2438	-2.1042	-1.7437	-2.4792	-1.9875	-2.1875	-2.225	-1.9062	-2.2188	-2.1208	48.573	4.193	235.861	96.697	217.337	-70.144	-19.260	115.774	103.497	118.732	189.994	209.349	95.133	-17.768	38.875	235.805	0.00051053	0.00067497	4.8104e-05	483.84	4.3857e-06	5.4987e-06	566.59	178.58	4.2436e-07	1.2493e-06	242.78	113.08	84.751	39.51	3.1372e-06	54.32	0.00086825	0.00089741	0.00024886	515.69	9.6666e-06	9.8841e-06	601.94	192.19	9.7274e-06	9.8806e-06	259.76	120.12	92.568	42.167	9.9094e-06	57.737	113.215	-50.357	234.364	-86.374	-19.558	4.990	-87.638	-80.658	-95.860	12.459	-82.674	-79.178	-77.272	-72.425	-4.264	-75.092	-8191	255	
1184.046	1	1	0	0	0.17715	0.31142	0.12188	0.096479	0.05457	0.18391	0.13751	0.36825	0.2227	0.10575	0.29416	0.20812	0.080971	0.10425	0.1579	0.30141	-1.3333	-2.1583	-1.9917	-1.9854	-2.2146	-1.8875	-2.2896	-2	-1.9271	-2.3104	-2.0938	-2.2125	-2.4667	-1.7917	-2.1792	-1.9792	153.813	244.949	212.017	18.832	34.786	128.788	187.512	223.389	-78.465	158.699	219.071	93.393	111.211	-76.703	20.811	215.703	0.0005351	0.00038379	2.6542e-05	480.1	1.2243e-06	3.8202e-06	562.6	178.46	3.6684e-06	5.6225e-06	240.85	112.21	84.978	39.353	6.3503e-06	54.371	0.00086413	0.00088435	0.00024696	513.45	9.6399e-06	9.6934e-06	599.22	192.14	9.602e-06	9.7541e-06	258.16	119.38	92.441	42.087	9.6994e-06	57.72	124.144	-21.698	-7.820	-86.244	76.489	112.706	-87.654	-80.675	-14.298	89.783	-82.723	-79.001	-77.132	-72.209	32.770	-75.068	-8191	255	
1184.143	1	1	0	0	0.071729	0.2645	0.2125	0.1384	0.13312	0.10136	0.38703	0.12524	0.059251	0.1742	0.32597	0.26917	0.020485	0.064238	0.33565	0.26599	-1.3271	-2.2021	-1.9958	-2.0604	-2.3354	-1.8604	-2.1979	-2.3563	-1.6521	-2.3542	-2.0917	-2.0625	-2.4521	-1.8896	-1.9875	-2.425	216.212	23.484	-47.006	-31.005	240.429	-75.953	260.187	163.224	-75.530	-22.235	134.488	205.767	-0.553	-89.888	24.521	184.111	0.00048674	0.00078419	0.00019497	479.09	2.0636e-06	7.7086e-07	560.83	178.53	5.2559e-06	3.2331e-06	241.25	112.7	85.044	39.309	2.7007e-06	54.189	0.00086286	0.00089433	0.00024614	512.72	9.5988e-06	9.6923e-06	598.07	191.62	9.5926e-06	9.6433e-06	258.58	119.59	92.535	42.057	9.5297e-06	57.66	122.497	-63.289	2.993	-86.512	-12.596	-16.190	-87.538	-80.809	30.804	76.707	-82.739	-79.224	-77.322	-72.278	231.434	-75.024	-8191	255	
1184.239	1	1	0	0	0.21535	0.36347	0.034724	0.1419	0.15574	0.099828	0.23619	0.22812	0.22035	0.051659	0.3408	0.08523	0.23553	0.21917	0.23931	0.1557	-1.3208	-2.1958	-1.8146	-2.0292	-2.3417	-1.9458	-2.0167	-2.3312	-1.7792	-2.2771	-2.1167	-1.7542	-2.3417	-2.075	-2.1188	-2.3375	238.952	-42.390	94.612	156.830	2.902	193.484	235.427	212.033	30.656	40.312	184.328	186.114	206.001	227.079	-77.476	242.744	0.00033756	0.00049986	0.00027854	478.57	2.3297e-06	4.5377e-06	565.44	179.78	5.916e-06	3.9921e-06	242.75	112.89	85.082	39.5	6.0886e-06	54.342	0.00084798	0.00087167	0.00024098	512.17	9.4288e-06	9.4783e-06	600.32	192.3	9.4003e-06	9.5934e-06	259.54	119.92	92.643	42.156	9.5089e-06	57.975	121.381	-22.508	-12.505	-86.419	144.447	74.002	-87.753	-80.999	-42.174	4.148	-82.756	-79.269	-77.494	-72.324	0.054	-74.871	-8191	255	
1184.335	1	1	0	0	0.14468	0.20399	0.29986	0.17906	0.089015	0.042543	0.1137	0.16791	0.1269	0.24538	0.13883	0.17291	0.11558	0.29474	0.2581	0.25129	-1.4104	-2.1875	-2.1104	-2.0354	-2.3375	-1.9896	-1.9937	-2.2854	-2.1208	-2.3396	-2.1792	-1.9729	-2.2083	-2.15	-1.9958	-2.4417	127.793	90.257	90.798	208.431	237.870	78.188	101.183	44.470	78.447	156.425	-59.659	198.828	15.560	-69.228	3.657	33.182	0.00052186	0.00035813	6.5151e-05	482.93	3.8077e-06	6.4931e-06	565.89	179.73	4.0916e-06	5.0211e-06	242.45	112.56	84.84	39.39	2.1755e-07	54.204	0.00085143	0.00087252	0.00024102	514.4	9.4219e-06	9.3524e-06	601.5	192.79	9.3431e-06	9.4087e-06	259.44	119.57	92.238	42.086	9.4426e-06	57.672	115.897	-11.509	64.507	-86.342	71.682	1.827	-87.705	-80.824	13.953	-8.996	-82.628	-79.043	-77.573	-72.259	-31.335	-75.045	-8191	255	
1184.431	1	1	0	0	0.19146	0.082003	0.31755	0.017049	0.20928	0.13413	0.3126	0.20864	0.065569	0.10998	0.16111	0.18112	0.14143	0.14389	0.18731	0.095787	-1.4896	-2.0542	-2.0938	-2.0396	-2.2083	-1.8687	-1.9708	-2.2604	-2.125	-2.1542	-2.3375	-1.8167	-2.3063	-2.2917	-1.8458	-2.3708	-30.192	-53.718	-87.096	-62.964	234.573	80.630	-37.833	204.417	111.849	114.108	44.015	-95.586	6.572	-92.971	198.404	213.207	0.00043805	0.00033097	4.081e-05	478.36	4.2398e-06	5.3255e-06	562.34	179.68	2.4736e-06	7.6502e-06	241.66	112.2	85.098	39.65	9.5042e-06	54.365	0.00083103	0.00086101	0.00023705	512.7	9.2721e-06	9.2127e-06	597.66	192.04	9.1763e-06	9.2409e-06	258.16	119.09	92.371	42.183	9.1916e-06	57.647	122.834	40.213	39.017	-86.845	-95.769	67.593	-87.559	-80.933	103.822	11.247	-82.852	-78.864	-77.174	-72.258	20.730	-75.376	-8191	255	
1184.550	1	1	0	0	0.16526	0.026113	0.19302	0.21328	0.20694	0.012825	0.1842	0.21163	0.10689	0.40333	0.26479	0.18324	0.16605	0.087195	0.1462	0.1568	-1.4937	-1.9312	-1.9625	-1.7667	-2.2583	-2.0687	-1.975	-2.2	-1.7604	-2.1437	-2.2604	-1.975	-2.2083	-2.0979	-1.8208	-2.2854	0.701	91.108	54.378	192.986	75.689	83.474	30.718	103.541	238.126	54.086	92.838	3.907	254.420	91.181	-50.852	170.289	0.00039102	0.0001752	0.00011993	478.79	1.2026e-06	2.8778e-06	562.87	180.64	1.1831e-06	1.0892e-05	242.32	112.98	85.309	39.908	4.8341e-06	54.802	0.00082376	0.00084699	0.00023457	512	9.2059e-06	9.2512e-06	600.66	193.05	9.2235e-06	9.2107e-06	259.39	119.82	92.752	42.519	9.1088e-06	58.247	130.042	-25.078	9.290	-86.599	-59.734	104.263	-87.587	-81.017	-87.636	32.282	-82.804	-79.034	-77.288	-72.265	45.258	-74.973	-8191	255	
1184.646	1	1	0	0	0.12328	0.2001	0.099253	0.19685	0.03958	0.33449	0.1168	0.11569	0.19715	0.37171	0.31755	0.27016	0.050269	0.16005	0.21635	0.088772	-1.4375	-1.9062	-2.225	-1.7771	-2.0396	-2.1708	-1.8021	-2.3937	-2.0167	-1.9917	-2.3521	-2.025	-2.1292	-2.3042	-1.6313	-2.2708	27.719	28.942	53.094	248.489	192.292	36.812	193.756	89.055	34.163	81.150	43.711	124.476	228.956	-61.173	41.389	217.758	0.00035034	0.00054749	8.4699e-05	480.04	4.379e-06	3.5561e-06	564.32	180.68	4.9571e-06	6.4244e-07	244.39	113.92	85.692	39.974	3.3603e-06	55.003	0.00081767	0.00083713	0.0002311	513.17	8.9758e-06	9.1248e-06	601.07	193.72	9.0298e-06	9.0199e-06	261.77	120.54	92.842	42.564	9.0549e-06	58.392	114.603	-53.482	27.037	-86.597	67.069	30.032	-87.581	-80.942	-16.493	91.469	-82.769	-79.172	-77.581	-72.499	-32.923	-75.062	-8191	255	
1184.742	1	1	0	0	0.12033	0.17806	0.15311	0.038509	0.18951	0.15126	0.082741	0.38668	0.19135	0.068349	0.27313	0.060153	0.13569	0.028557	0.1367	0.15236	-1.7687	-2.0062	-2.3354	-2	-2.1104	-2.0062	-1.9292	-2.1333	-1.9521	-1.8042	-2.3354	-2.0375	-1.8708	-2.2708	-1.8979	-2.225	158.223	182.758	153.387	227.044	243.311	55.763	95.884	21.690	183.710	144.653	190.346	133.408	-23.620	74.530	146.751	-25.047	0.0005107	0.00053137	0.00010898	482	1.0389e-06	2.4109e-06	567.47	180.98	3.2424e-06	1.4434e-06	243.66	113.04	85.097	39.79	4.6335e-06	54.7	0.00081849	0.00083561	0.00023315	513.67	9.0142e-06	9.0552e-06	602.15	193.21	8.9935e-06	9.0456e-06	260.25	119.74	92.597	42.387	8.9646e-06	58.056	125.326	-36.374	46.064	-86.673	115.529	129.107	-87.422	-80.975	26.425	3.811	-82.832	-79.128	-77.758	-72.332	15.697	-75.073	-8191	255	
1184.838	1	1	0	0	0.18306	0.23042	0.14674	0.18743	0.24568	0.25778	0.32414	0.06512	0.2267	0.21248	0.28531	0.14656	0.1415	0.092396	0.12242	0.22305	-1.725	-1.8271	-2.3021	-2.1312	-1.8979	-2.1542	-1.8896	-2.2208	-2.1729	-1.8937	-2.5167	-1.975	-2.1562	-2.3458	-1.7167	-2.2604	-50.782	261.016	236.884	218.740	-93.401	70.221	-85.804	212.385	86.279	66.672	252.142	225.980	-8.373	-49.908	256.177	244.418	0.0004752	0.00044993	8.7747e-05	481.49	5.931e-06	3.7948e-06	560.08	180.15	3.925e-06	2.1918e-06	242.45	112.57	85.58	39.891	5.2446e-06	54.923	0.00080273	0.00081927	0.00022804	511.75	8.9508e-06	9.0111e-06	597.62	192.67	8.9892e-06	9.009e-06	258.74	119.35	92.614	42.495	8.9542e-06	58.163	121.285	3.398	11.282	-86.602	-15.104	164.937	-87.663	-80.781	-35.347	34.442	-82.656	-79.148	-77.293	-72.436	209.410	-75.213	-8191	255	
1184.910	1	1	0	0	0.26535	0.20404	0.15865	0.10972	0.065199	0.16267	0.26377	0.10372	0.059199	0.14043	0.1927	0.28316	0.10056	0.12499	0.26697	0.32292	-1.8312	-1.9104	-2.3583	-2.0771	-2.0792	-2.3854	-1.9354	-2.1583	-2.3083	-1.825	-2.4271	-2.1875	-2.0042	-2.4313	-1.9021	-2.3208	-5.732	39.925	123.048	124.607	173.952	-54.855	-77.894	23.270	154.363	203.742	239.791	-63.981	142.397	85.917	-57.459	223.635	0.00044966	0.00052713	0.00015216	483.16	3.6392e-06	2.1122e-06	562.34	180.25	2.4266e-06	7.0649e-06	243.97	112.82	85.794	40.095	2.6547e-06	55.166	0.00080635	0.00081867	0.00022838	513.39	8.8902e-06	8.9432e-06	599.09	193.02	8.8289e-06	8.8905e-06	259.88	119.61	92.694	42.646	8.8282e-06	58.419	125.349	-72.968	83.654	-86.507	40.557	52.611	-87.857	-80.726	-69.357	-28.790	-82.686	-79.018	-77.981	-72.607	-81.659	-75.250	-8191	255	
1185.031	1	1	0	0	0.13384	0.20565	0.067479	0.26399	0.21693	0.055299	0.084422	0.21008	0.106	0.21124	0.34299	0.21951	0.030293	0.17949	0.1239	0.24117	-1.7354	-1.6646	-2.2604	-2.3167	-1.8188	-2.3187	-1.9354	-2.1771	-2.2958	-1.8146	-2.1854	-2.1688	-2.0042	-2.4104	-1.9042	-2.1208	138.533	251.140	38.172	175.108	-69.507	-44.051	241.790	-86.851	-47.250	-5.710	137.286	228.657	-47.188	-11.242	81.980	219.443	0.00053011	9.9277e-05	8.7672e-05	483.66	8.2049e-06	4.1725e-06	567.02	180.69	7.773e-06	6.7682e-06	245.54	113.67	86.083	40.244	6.4463e-06	55.727	0.0007956	0.00080769	0.000228	515.17	8.8059e-06	8.9086e-06	602.73	193.32	8.8115e-06	8.9077e-06	261.69	120.5	92.994	42.775	8.8218e-06	58.871	129.857	113.266	-39.385	-86.420	64.051	37.863	-87.542	-80.999	-42.560	31.179	-82.770	-79.290	-77.265	-72.473	34.592	-75.166	-8191	255	
1185.127	1	1	0	0	0.25401	0.24948	0.1016	0.097503	0.27993	0.086391	0.22361	0.03915	0.078031	0.23295	0.29734	0.27419	0.056869	0.15655	0.12846	0.17266	-1.8979	-1.9208	-2.05	-2.2708	-1.9	-2.3479	-1.8312	-1.975	-2.4708	-1.8646	-2.3625	-2.5208	-1.7687	-2.3542	-2.0375	-2.1208	-54.408	236.588	41.851	-9.760	216.606	-91.843	215.853	104.205	44.664	256.219	-48.288	-92.257	79.940	191.702	-53.658	253.251	0.0005349	0.00045121	0.00016408	483.64	3.4648e-06	5.0788e-06	569.28	181.79	6.3176e-07	3.7627e-06	245.21	113.65	85.711	40.291	5.4533e-06	55.462	0.00080649	0.00082551	0.00023023	515.35	8.9457e-06	9.0846e-06	604.69	194.85	9.0043e-06	9.0173e-06	262.88	120.7	93.22	43.062	9.0229e-06	58.825	130.569	-4.889	63.725	-86.612	182.715	20.943	-87.478	-81.170	3.149	-13.233	-82.790	-79.293	-77.515	-72.391	129.096	-75.251	-8191	255	
1185.223	1	1	0	0	0.09585	0.30576	0.038393	0.13531	0.081716	0.049026	0.33223	0.19266	0.31784	0.18365	0.31427	0.093319	0.28362	0.16491	0.14766	0.1601	-2.025	-1.7542	-2.0896	-2.3604	-1.825	-2.2708	-2.1167	-1.9917	-2.1063	-1.8604	-2.1729	-2.3563	-1.9312	-2.2188	-2.0604	-2.0125	86.683	84.116	-53.297	143.287	209.988	23.867	207.301	229.099	74.480	152.503	140.788	215.697	-94.857	-66.300	185.465	58.921	0.00045715	0.00091743	7.1511e-05	480.84	4.8466e-06	5.4562e-06	565.84	180.39	3.1976e-06	7.9592e-06	243.73	112.53	85.956	40.354	2.5921e-06	55.1	0.00081462	0.00083385	0.00023069	514.07	9.0279e-06	9.0552e-06	600.68	193.64	9.1076e-06	9.044e-06	260.27	119.8	93.065	42.922	9.1005e-06	58.54	133.439	29.934	19.927	-86.425	56.406	44.358	-87.577	-81.151	-38.127	6.518	-82.942	-79.119	-77.167	-72.144	-69.894	-75.008	-8191	255	
1185.319	1	1	0	0	0.25971	0.19684	0.13821	0.14705	0.24354	0.22164	0.14742	0.26665	0.23221	0.11385	0.0548	0.21972	0.20854	0.33319	0.10511	0.1635	-1.9271	-2.025	-2.2083	-2.4146	-1.8521	-2.3042	-2.2417	-1.8833	-2.3375	-2.0292	-2.0979	-2.3979	-1.8146	-2.3229	-2.2958	-1.9667	91.528	187.027	159.127	184.380	-42.307	94.153	-45.004	165.087	35.308	121.388	178.256	-44.625	218.848	-18.344	47.264	212.307	0.0004308	0.00035798	9.823e-05	481.02	4.4943e-06	1.3859e-06	568.11	181.42	9.1607e-07	2.7662e-06	245.29	113.15	85.855	40.323	3.594e-06	55.525	0.00081694	0.00082762	0.00023027	513.64	9.0861e-06	9.1956e-06	601.79	194.03	9.0404e-06	9.1027e-06	261.87	120.06	92.98	42.945	8.9963e-06	58.736	130.067	-49.846	-2.954	-86.651	19.198	-27.022	-87.652	-81.113	-13.709	98.439	-82.868	-79.187	-77.374	-72.428	2.556	-75.237	-8191	255	
1185.438	1	1	0	0	0.19029	0.1883	0.26291	0.25549	0.3774	0.2029	0.066274	0.16202	0.096466	0.16931	0.15138	0.17787	0.14445	0.11202	0.23421	0.17584	-1.9229	-2.0604	-2.0687	-2.2438	-1.8208	-2.325	-2.2938	-1.8229	-2.3625	-2.1917	-1.9708	-2.4521	-1.9958	-2.3063	-2.2042	-2.0312	236.299	226.107	-16.698	237.800	228.411	76.517	12.308	-40.281	132.157	28.106	80.268	185.156	160.075	226.797	114.703	194.794	0.00048213	0.0006995	0.00015051	481.79	7.3579e-06	7.8361e-06	567.45	181.53	2.9332e-06	5.7093e-06	246.62	113.6	86.231	40.501	4.7585e-06	55.376	0.00082271	0.00083707	0.00023416	515.02	9.1251e-06	9.2874e-06	603.11	194.81	9.2602e-06	9.2551e-06	263.03	120.48	93.306	43.148	9.2819e-06	58.911	112.181	3.716	-54.253	-86.527	15.725	56.551	-87.585	-80.903	248.999	9.501	-82.827	-79.086	-77.244	-72.279	0.399	-75.125	-8191	255	
1185.534	1	1	0	0	0.29577	0.20553	0.045336	0.25431	0.086844	0.12321	0.10773	0.032972	0.039484	0.094892	0.17324	0.28387	0.12619	0.19999	0.27929	0.033195	-1.8104	-2.0729	-1.9562	-2.4146	-1.8896	-2.2146	-2.2188	-1.8583	-2.1521	-2.0167	-2.0687	-2.3937	-2.0938	-2.1604	-2.4042	-1.7354	182.801	153.350	32.776	243.664	29.770	42.071	185.400	-38.593	149.845	-95.235	-59.872	179.520	14.465	-40.004	239.863	109.491	0.00040999	0.00072619	0.0002463	481.28	5.0313e-07	7.5123e-06	566.6	181.57	5.308e-06	2.5578e-06	244.16	112.9	85.407	40.366	2.9483e-06	55.323	0.00083753	0.00085461	0.00023878	514.07	9.2407e-06	9.4065e-06	604	194.84	9.3395e-06	9.3175e-06	261.65	120.01	93.266	43.078	9.4937e-06	58.811	111.455	39.364	70.196	-86.558	216.705	64.408	-87.431	-81.252	-90.169	18.203	-82.989	-79.212	-77.698	-72.622	114.017	-75.220	-8191	255	
1185.630	1	1	0	0	0.074618	0.094674	0.21742	0.13906	0.16926	0.18746	0.19463	0.17681	0.15863	0.12711	0.15979	0.076442	0.16574	0.20663	0.13554	0.27451	-1.8833	-2.0604	-1.9229	-2.4437	-2.1813	-2.2125	-2.3792	-2.0333	-2.2229	-2.1646	-1.7125	-2.6	-2.1521	-2.0042	-2.3187	-2.0979	-97.086	73.776	194.063	238.585	202.036	184.130	118.757	151.735	-3.299	99.916	-60.054	241.044	203.746	258.379	37.064	203.224	0.00049049	0.00053979	0.00014035	480.06	1.0475e-05	3.2801e-06	561.87	181.76	7.1694e-06	3.3205e-06	244.62	112.53	85.787	40.622	8.676e-06	55.388	0.00086022	0.00087393	0.00024353	513.35	9.5048e-06	9.6524e-06	600.98	194.85	9.4985e-06	9.5484e-06	261.48	119.72	93.389	43.276	9.6671e-06	58.911	135.347	-44.450	-6.756	-86.688	0.960	60.896	-87.557	-80.933	-65.031	167.240	-83.035	-79.224	-77.639	-72.436	42.168	-74.973	-8191	255	
1185.726	1	1	0	0	0.020202	0.22124	0.13672	0.26402	0.21476	0.26877	0.15947	0.28212	0.070427	0.058535	0.2145	0.38717	0.067866	0.089771	0.076612	0.14762	-1.4833	-2.2771	-1.7625	-2.3646	-2.1625	-1.8854	-2.3771	-2.0333	-2.0958	-2.1833	-1.8625	-2.2375	-1.975	-1.8062	-2.4	-2	118.769	189.045	237.230	233.561	43.129	64.420	257.001	-57.164	24.306	97.253	174.228	248.574	-88.641	174.883	130.648	192.844	0.00041242	0.0002651	9.4703e-05	480.38	7.8882e-06	5.2745e-06	561.84	182.28	4.4679e-06	2.4901e-06	243.4	113.61	86.187	40.492	5.9788e-06	55.408	0.00085881	0.00087209	0.00024366	515.47	9.4844e-06	9.7326e-06	601.53	195.09	9.595e-06	9.7505e-06	261.63	120.17	93.679	43.167	9.6527e-06	58.822	126.358	-71.987	-2.598	-86.319	-39.770	23.091	-87.528	-80.838	228.465	-78.674	-83.096	-79.234	-77.088	-72.194	24.618	-75.114	-8191	255	
1185.823	1	1	0	0	0.094749	0.10237	0.24803	0.25659	0.23297	0.16645	0.18549	0.13836	0.20126	0.28578	0.21703	0.1656	0.20894	0.28683	0.273	0.1823	-1.6979	-2.3063	-1.8396	-2.2375	-2.1021	-1.9479	-2.3479	-2.1188	-2.0646	-2.2562	-2.0438	-2.2667	-2.2438	-1.8125	-2.3771	-2.0083	-96.146	214.752	15.446	-87.807	7.061	74.663	250.062	189.914	64.215	173.378	210.682	-38.406	-12.752	236.737	192.264	106.003	0.0004314	7.178e-05	0.00019489	480.92	5.6689e-06	4.3358e-06	564.52	180.73	1.1443e-06	4.2102e-06	243.72	112.62	85.956	40.249	2.287e-06	55.532	0.00086997	0.00088222	0.00024569	513.97	9.6188e-06	9.8044e-06	602.32	194.26	9.7947e-06	9.826e-06	262.11	120.28	93.615	42.993	1.0068e-05	58.833	113.096	101.343	11.914	-86.621	11.312	24.608	-87.429	-80.813	-18.654	15.630	-82.917	-79.030	-77.599	-72.378	120.045	-74.918	-8191	255	
1185.919	1	1	0	0	0.25678	0.21147	0.12293	0.41594	0.14892	0.13798	0.048075	0.11175	0.26042	0.23233	0.21215	0.12067	0.241	0.12769	0.17156	0.16454	-1.4937	-2.3542	-1.7792	-2.1917	-2.0042	-1.8	-2.2708	-2.0208	-1.975	-2.375	-1.9521	-2.2896	-2.2313	-1.9333	-2.3604	-2.1833	19.659	92.196	132.977	215.193	239.591	178.889	216.336	246.497	32.206	16.067	169.749	257.200	-53.828	-67.234	229.884	251.739	0.00049968	0.0011199	9.7081e-05	480.08	1.5137e-06	8.0895e-06	564.03	181.12	1.6994e-06	7.9474e-06	241.99	113.04	85.646	40.012	2.9772e-06	55.002	0.00090008	0.00091596	0.00025365	514.6	9.7346e-06	9.919e-06	602.26	194.29	9.8425e-06	1.0004e-05	261.21	119.82	93.297	42.856	1.0134e-05	58.629	110.237	-41.224	35.400	-86.523	71.529	-5.279	-87.319	-80.841	-92.315	70.864	-82.822	-79.256	-77.471	-72.238	88.236	-74.956	-8191	255	
1186.039	1	1	0	0	0.34766	0.15118	0.037349	0.035339	0.15912	0.11048	0.18005	0.21191	0.10127	0.13779	0.11659	0.063955	0.082399	0.10415	0.098287	0.31064	-1.5208	-2.3646	-1.7687	-2.0208	-2.1292	-1.9062	-2.2542	-2.2062	-1.9667	-2.5896	-1.8792	-2.2438	-2.2708	-2.0375	-2.2062	-2.3438	196.033	-46.495	65.716	54.185	-61.864	15.514	168.256	-42.428	22.646	-32.084	220.469	-54.779	-62.453	15.516	69.273	188.200	0.00054387	0.00085667	0.0002477	477.89	7.1669e-06	2.9996e-06	562.53	180.97	7.0457e-06	7.3068e-06	242.85	111.87	85.23	40.36	8.2666e-06	55.231	0.00090309	0.0009423	0.000259	513.64	1.0193e-05	1.0255e-05	601.13	194.7	1.0223e-05	1.0298e-05	261.06	119.44	93.261	43.178	1.0149e-05	58.76	124.069	-27.248	-7.604	-86.649	62.127	21.229	-87.455	-80.852	-45.890	137.037	-82.898	-79.218	-77.208	-72.295	-22.835	-75.063	-8191	255	
1186.136	1	1	0	0	0.14601	0.18045	0.10443	0.18018	0.050062	0.17207	0.12084	0.12728	0.12937	0.088788	0.18636	0.10723	0.13425	0.2567	0.045159	0.10975	-1.4354	-2.1854	-1.9813	-2.2146	-2.1292	-1.8792	-2.2458	-2.2458	-1.7938	-2.3125	-2.1146	-1.9688	-2.425	-1.7833	-2.1437	-2.1146	-33.533	-36.008	42.788	252.118	-65.210	-45.418	-90.150	177.574	245.305	243.694	236.858	142.851	139.909	202.219	201.485	235.310	0.00048732	0.00043744	0.0002035	481.38	1.174e-06	3.4919e-06	566.34	182.45	6.3078e-06	4.053e-06	243.84	112.49	85.845	40.526	9.7961e-07	55.638	0.00090788	0.00093251	0.00025962	517	1.0125e-05	1.0402e-05	604.11	196.01	1.0353e-05	1.0554e-05	263.15	120.08	94.029	43.428	1.0503e-05	59.246	113.249	23.751	-18.440	-86.415	-97.474	85.753	-87.400	-81.092	-58.036	-57.933	-82.908	-79.257	-77.283	-72.496	83.509	-75.179	-8191	255	
1186.232	1	1	0	0	0.086041	0.45429	0.25148	0.40827	0.11488	0.058776	0.17472	0.11715	0.33306	0.13995	0.11274	0.26214	0.14412	0.39765	0.13435	0.11822	-1.5312	-2.3312	-2.2021	-2.0229	-2.2625	-1.8104	-2.1542	-2.2396	-1.9271	-2.2417	-2.0896	-1.9354	-2.3563	-1.9167	-2.1708	-2.3583	-85.468	-46.244	-98.294	200.374	215.649	-11.273	-57.186	235.979	81.201	40.125	232.417	-70.729	205.967	-44.598	151.936	36.648	0.00049218	0.0001295	0.00010184	482.56	6.1951e-06	6.5304e-06	566.48	183.38	2.5548e-06	4.2806e-06	247.44	113.6	85.919	40.714	4.0721e-06	56.1	0.00094237	0.00097575	0.00026841	519.67	1.046e-05	1.0553e-05	607.42	197.2	1.0448e-05	1.0564e-05	265.89	120.9	94.232	43.581	1.0664e-05	59.706	125.520	-29.343	3.666	-86.282	52.626	90.786	-87.244	-80.998	52.945	5.184	-82.853	-79.113	-77.398	-72.560	31.834	-75.009	-8191	255	
1186.328	1	1	0	0	0.21688	0.13926	0.39996	0.28716	0.26291	0.21063	0.065545	0.19467	0.32148	0.079567	0.18147	0.18864	0.15475	0.28781	0.063198	0.1353	-1.275	-2.3625	-2.1646	-1.7646	-2.2354	-1.8854	-2.2167	-2.2479	-1.8479	-2.2271	-2.2729	-1.9771	-2.3187	-2.0125	-2.1229	-2.3375	226.606	250.657	181.474	-57.123	254.733	13.902	223.333	-40.258	229.280	231.221	60.516	-90.291	189.650	239.035	64.386	216.885	0.00049483	0.00047999	0.00025507	484.46	2.077e-06	4.8923e-06	567.83	182.61	4.2232e-06	4.098e-06	246.11	113.32	86.125	40.844	7.9739e-06	55.68	0.00095685	0.00098611	0.00027406	519.7	1.0651e-05	1.0772e-05	608.9	197.33	1.0646e-05	1.0747e-05	264.49	120.9	94.439	43.58	1.0654e-05	59.288	128.224	-33.329	-16.003	-86.692	212.844	-4.227	-87.603	-80.861	166.495	117.626	-83.023	-79.097	-77.681	-72.282	29.544	-75.027	-8191	255	
1186.422	1	1	0	0	0.18243	0.30128	0.067486	0.24451	0.25656	0.12516	0.088848	0.27635	0.061939	0.073424	0.30085	0.19099	0.082029	0.11327	0.27812	0.050978	-1.4167	-2.2979	-2.1042	-1.975	-2.2271	-2.2271	-2.0687	-2.4292	-1.8104	-2.3083	-2.2979	-2.1104	-2.5042	-2.1562	-1.9021	-2.3875	-5.997	255.844	201.643	-10.698	146.420	22.269	121.945	16.144	16.206	27.380	216.726	225.746	241.374	146.192	-29.493	155.955	0.00052788	0.00026238	0.00040405	479.72	3.7257e-06	4.2028e-06	565.26	181.68	4.0594e-06	5.3327e-06	243	112.54	85.703	40.63	4.3317e-06	55.755	0.00095117	0.00097491	0.00027103	517.14	1.0671e-05	1.0699e-05	605.53	196.38	1.0687e-05	1.0818e-05	263.08	120.28	94.068	43.455	1.0636e-05	59.35	132.776	-86.210	27.776	-86.308	14.130	50.299	-87.564	-81.022	162.155	233.250	-83.030	-79.166	-77.165	-72.449	59.356	-74.994	-8191	255	
1186.518	1	1	0	0	0.17777	0.164	0.15952	0.25247	0.04499	0.19154	0.13491	0.11118	0.32163	0.12883	0.28273	0.30711	0.13894	0.31462	0.18676	0.020712	-1.4646	-2.0292	-2.175	-1.8083	-2.3479	-1.8979	-2.1229	-2.3604	-1.9125	-2.1167	-2.1875	-1.7292	-2.2167	-2.0771	-1.9104	-2.5083	-19.921	-57.998	191.502	-55.162	205.240	213.948	0.330	143.815	245.560	-60.331	245.009	189.716	232.897	-15.648	153.215	165.776	0.0003764	0.0011809	0.00017714	484.34	6.7759e-06	2.7596e-06	568.25	182.72	2.5364e-06	4.242e-06	246.82	112.96	86.058	40.866	6.2832e-06	56.245	0.00094797	0.00098158	0.00027163	519.56	1.0737e-05	1.0841e-05	607.77	197.95	1.0831e-05	1.0965e-05	265.98	121.05	94.704	43.787	1.0871e-05	59.846	130.791	0.209	42.800	-86.468	38.213	213.330	-87.546	-80.766	4.462	4.003	-83.028	-79.277	-76.803	-72.444	50.289	-74.935	-8191	255	
1186.639	1	1	0	0	0.17679	0.26169	0.29027	0.10158	0.2732	0.328	0.22783	0.12297	0.15333	0.16156	0.17063	0.12314	0.33518	0.14878	0.09952	0.32217	-1.4833	-2.0667	-2.1333	-1.9771	-2.2562	-2.1792	-1.9521	-2.3937	-1.9625	-2.0167	-2.3229	-1.8979	-2.3375	-2.1729	-1.6979	-2.4479	90.628	143.480	-7.740	221.676	241.223	-0.099	-77.675	246.392	72.016	-12.302	130.146	187.636	220.174	196.939	-87.530	151.505	0.00036407	0.00064089	0.00012246	483.08	5.3054e-06	1.8251e-06	570.2	183.17	1.9718e-06	5.1115e-06	247.96	113.44	86.984	40.514	1.122e-06	56.209	0.0009633	0.001005	0.00027737	519.55	1.0792e-05	1.0759e-05	609.97	197.7	1.0673e-05	1.0724e-05	266.69	121.34	94.932	43.573	1.0692e-05	59.951	128.709	-49.059	130.280	-86.614	-0.103	-28.814	-87.683	-80.926	39.594	-32.988	-82.699	-79.181	-77.074	-72.263	47.682	-74.855	-8191	255	
1186.735	1	1	0	0	0.41423	0.16924	0.12307	0.033589	0.15241	0.086429	0.20864	0.1559	0.1328	0.37332	0.077463	0.24099	0.065455	0.22046	0.25814	0.10281	-1.7125	-1.9312	-2.2667	-1.8125	-2.3729	-2.3104	-2.0062	-2.2979	-2.1479	-1.9917	-2.2458	-1.9396	-2.0687	-2.45	-1.7375	-2.2938	-94.349	220.810	226.267	87.860	-24.155	205.639	153.570	74.347	102.419	5.650	-82.962	-76.717	222.589	250.608	65.713	62.651	0.00051507	0.00046876	0.00019137	484.96	3.4386e-06	3.0784e-06	569.08	184	4.8601e-06	2.5107e-06	247.94	114.01	86.773	40.856	3.0306e-06	55.998	0.00095948	0.00098178	0.00027434	520.78	1.0655e-05	1.0676e-05	610.38	198.21	1.0542e-05	1.0679e-05	266.44	121.23	94.748	43.698	1.0587e-05	59.74	119.421	-56.277	28.549	-86.476	104.016	77.012	-87.508	-80.893	-15.241	-59.690	-82.586	-79.055	-77.263	-72.123	135.261	-75.015	-8191	255	
1186.831	1	1	0	0	0.14696	0.11564	0.063921	0.1045	0.2273	0.25654	0.37529	0.10514	0.21321	0.17266	0.2368	0.13558	0.26633	0.126	0.23017	0.19181	-1.7333	-1.8062	-2.2938	-2.0729	-1.9688	-2.2292	-2.0292	-2.3646	-2.3271	-1.9958	-2.4562	-2.0458	-2.0271	-2.3583	-1.85	-2.3812	119.488	-96.142	258.986	-90.890	140.238	49.891	187.290	5.112	-2.246	180.349	95.800	164.595	-25.307	-89.982	185.304	-87.152	0.00052027	0.00054157	0.00020889	481.7	4.9711e-06	8.595e-07	567.22	184.02	2.8795e-06	8.3657e-06	246.81	113.88	86.829	40.928	6.4493e-06	56.27	0.00093878	0.00097168	0.00026752	517.82	1.0501e-05	1.0533e-05	607.38	197.83	1.0352e-05	1.0514e-05	266.2	121.35	94.825	43.792	1.0365e-05	59.894	124.958	71.821	22.870	-86.708	17.292	98.275	-87.518	-80.847	-13.087	-3.062	-83.082	-78.990	-77.110	-72.424	4.417	-74.996	-8191	255	
1186.903	1	1	0	0	0.14408	0.17197	0.2165	0.16261	0.22578	0.11943	0.16057	0.16217	0.18377	0.16772	0.1489	0.14147	0.24217	0.17426	0.11379	0.033989	-1.9104	-1.8	-2.45	-2.0271	-2.2812	-2.4313	-1.8312	-2.0812	-1.9771	-1.8396	-2.4313	-2.0583	-2.0458	-2.2229	-1.8937	-2.2833	249.867	-39.948	1.829	225.899	-85.750	147.388	113.174	-22.477	19.308	-47.706	-48.167	167.216	21.598	192.100	239.394	187.694	0.00051137	0.00024346	0.00012577	486.55	2.5045e-06	7.4778e-06	573.24	184.03	3.0333e-06	6.3194e-06	248.86	114.14	86.624	41.045	1.3006e-06	56.54	0.00091135	0.00094567	0.00026215	520.1	1.0166e-05	1.0321e-05	608.82	197.83	1.0115e-05	1.0194e-05	266.96	121.49	94.507	43.836	9.8859e-06	59.984	115.515	-2.190	32.489	-86.373	67.070	132.415	-87.736	-80.990	-11.720	12.490	-82.649	-79.177	-77.137	-72.179	40.147	-75.045	-8191	255	
1186.999	1	1	0	0	0.4102	0.25263	0.082748	0.1199	0.086786	0.27513	0.36144	0.088793	0.11434	0.37621	0.19949	0.065099	0.48146	0.17831	0.21582	0.19972	-1.7292	-1.8937	-2.2188	-2.2562	-1.8813	-2.3292	-2.0083	-2.1083	-2.2479	-1.8833	-2.3958	-2.1354	-1.9875	-2.4	-1.7333	-2.2125	110.086	32.238	166.508	129.278	174.791	43.213	151.348	-3.724	225.880	183.802	157.865	-53.164	177.598	188.570	168.815	15.844	0.00038698	0.0005443	0.00011184	484.81	5.0553e-06	2.8585e-06	571.37	184.65	5.9594e-06	9.0573e-06	248.74	114	86.858	41.132	4.2679e-06	56.763	0.0008923	0.00091653	0.00025316	517.26	9.8213e-06	9.901e-06	609.17	198.25	9.8624e-06	9.8167e-06	267.13	121.78	94.659	43.965	9.7968e-06	60.337	125.543	-23.973	6.442	-86.688	7.545	-1.820	-87.558	-80.882	32.217	65.757	-82.900	-79.321	-77.302	-72.356	1.433	-75.173	-8191	255	
1187.120	1	1	0	0	0.23943	0.39768	0.19748	0.28374	0.16277	0.1979	0.25452	0.037321	0.079011	0.20817	0.20216	0.19274	0.30462	0.24868	0.033385	0.18799	-1.8646	-1.8604	-2.1708	-2.1792	-1.8583	-2.3229	-1.9625	-2.1083	-2.3812	-1.9021	-2.1	-2.2479	-1.8813	-2.4313	-1.9896	-2.0208	226.537	191.121	107.843	239.320	47.356	-64.519	182.121	-54.748	187.799	204.440	147.497	-81.231	254.374	-76.473	-62.636	138.840	0.00047912	0.00046956	0.00025912	484.43	3.5841e-06	6.043e-06	571.38	185.96	3.2745e-06	8.9172e-06	246.35	114.05	87.036	41.105	5.581e-06	56.559	0.00087061	0.0008907	0.00025063	517.8	9.7889e-06	9.8886e-06	609.96	198.26	9.8171e-06	9.7141e-06	266.25	121.39	94.675	43.976	9.7739e-06	60.143	125.164	-89.017	-43.962	-86.515	37.185	85.580	-87.622	-80.966	50.354	45.851	-82.839	-79.065	-76.909	-72.283	205.369	-74.911	-8191	255	
1187.216	1	1	0	0	0.12055	0.22377	0.060087	0.048184	0.2891	0.20474	0.22713	0.23188	0.15018	0.15181	0.28702	0.12787	0.35774	0.058372	0.31753	0.15467	-1.9417	-1.7417	-2.1083	-1.9875	-1.9479	-2.3312	-2.3792	-2.0479	-2.2438	-1.8083	-2.1271	-2.2292	-1.9792	-2.4146	-2.075	-1.8792	-15.463	238.349	-63.537	55.936	223.496	174.231	228.295	234.225	84.690	31.441	163.529	121.670	182.276	-51.762	223.060	137.283	0.00036629	0.00057176	0.00010599	482.07	5.5039e-06	4.2155e-06	567.97	184.32	3.793e-06	4.3137e-06	248.21	113.92	86.716	41.059	2.6163e-06	56.824	0.00087037	0.00088795	0.00025081	516.87	9.605e-06	9.7903e-06	606.43	197.61	9.6541e-06	9.6279e-06	265.52	120.87	94.392	43.951	9.5547e-06	60.12	109.472	15.928	-28.540	-86.343	88.491	-6.944	-87.574	-80.812	-18.342	-54.398	-82.985	-79.131	-77.271	-72.506	8.582	-74.973	-8191	255	
1187.312	1	1	0	0	0.090337	0.16597	0.23962	0.25602	0.15452	0.13963	0.08988	0.064145	0.26641	0.19503	0.29923	0.16273	0.036376	0.21274	0.093883	0.12133	-2.0375	-1.9833	-2.0896	-2.0667	-2.0917	-2.2	-2.1625	-2.0417	-2.3271	-1.9146	-2.3563	-2.4917	-1.8958	-2.2792	-2.0896	-1.9854	231.282	-42.312	199.442	-15.965	4.730	200.297	87.668	241.958	223.870	118.637	195.789	-95.645	-57.558	217.910	150.487	240.362	0.00050064	0.00048594	0.0002057	483.35	2.3606e-06	6.4687e-06	572.33	185.26	3.5985e-06	3.168e-06	248.84	114.71	86.597	41.168	4.2719e-06	56.896	0.00086085	0.00087592	0.00024541	518.11	9.5927e-06	9.7262e-06	609.38	198.24	9.7394e-06	9.6359e-06	266.69	121.5	94.591	44.095	9.5958e-06	60.439	124.095	-6.866	-2.290	-86.690	19.528	94.400	-87.508	-81.020	147.632	69.194	-82.960	-79.245	-77.380	-72.408	-1.535	-74.960	-8191	255	
1187.433	1	1	0	0	0.026657	0.20978	0.15832	0.096638	0.097044	0.12297	0.30607	0.07572	0.035276	0.092154	0.21554	0.078536	0.10321	0.4927	0.1156	0.24453	-1.9354	-1.9417	-1.7708	-2.4104	-1.7979	-2.3333	-2.275	-1.9917	-2.2	-2.0125	-2.2	-2.4792	-1.7417	-2.3854	-2.2146	-1.8771	20.946	145.690	-18.322	145.884	12.026	39.006	109.189	230.642	139.301	105.133	245.252	180.496	140.212	192.726	259.956	211.762	0.00058657	0.00080495	0.00017084	483.95	1.9507e-06	6.5919e-06	571.69	185.39	5.5212e-06	1.7726e-06	250.07	114.29	87.184	41.351	1.2445e-06	57.158	0.00085957	0.0008823	0.00024428	518.84	9.6183e-06	9.699e-06	610.53	198.56	9.6682e-06	9.6332e-06	267.95	122.02	94.648	44.15	9.6104e-06	60.636	132.352	-12.259	-7.686	-86.454	124.280	25.560	-87.858	-81.030	54.362	-36.961	-83.028	-78.838	-77.410	-72.357	251.071	-74.916	-8191	255	
1187.503	1	1	0	0	0.1777	0.35911	0.15352	0.22408	0.24671	0.061498	0.27024	0.052033	0.086297	0.11022	0.1625	0.028252	0.18932	0.3199	0.10638	0.23411	-1.8792	-1.9771	-1.8979	-2.2	-1.7917	-2.1625	-2.2062	-1.8458	-2.3083	-2.1083	-2.0187	-2.5396	-2.0146	-2.2458	-2.0771	-1.875	-85.270	64.939	-60.728	-88.638	217.474	137.162	80.285	181.726	82.668	136.401	-24.077	144.263	-10.470	204.321	6.145	170.794	0.00049605	0.00029133	0.00023137	488.29	1.0832e-06	8.7251e-06	573.1	184.96	1.0813e-06	1.3559e-06	248.66	114.52	86.771	41.278	3.9551e-06	56.771	0.00086982	0.00088491	0.00024708	519.86	9.474e-06	9.7622e-06	609.52	198.17	9.607e-06	9.6213e-06	266.09	121.49	94.416	43.994	9.6237e-06	60.226	119.136	9.088	34.123	-86.499	39.395	44.293	-87.642	-80.964	12.354	215.414	-82.675	-79.176	-77.359	-72.384	206.046	-75.315	-8191	255	
1187.600	1	1	0	0	0.14962	0.14077	0.44394	0.057457	0.093907	0.15017	0.10848	0.19916	0.11053	0.15695	0.12544	0.096137	0.26111	0.28237	0.12997	0.11154	-1.7313	-2.0646	-1.8542	-2.1833	-1.8875	-2.2458	-2.4854	-2.0312	-2.1667	-2.0854	-1.8771	-2.3646	-1.9354	-2.0979	-2.3563	-1.8312	29.601	230.474	115.399	190.699	-4.827	50.642	67.024	-12.199	-13.944	126.664	10.370	45.444	-83.419	151.497	122.381	-0.739	0.00045867	0.00019677	9.0615e-05	484.42	4.0736e-06	6.2052e-06	568.09	184.45	1.6415e-06	4.0027e-06	248.31	113.5	86.396	41.167	1.1675e-05	56.666	0.00086405	0.00087557	0.00024474	517.93	9.4732e-06	9.6505e-06	605.7	197.81	9.446e-06	9.5827e-06	265.67	120.86	94.352	44.002	9.5776e-06	60.255	109.365	-59.818	0.400	-86.290	20.509	-29.920	-87.530	-81.111	-96.065	48.277	-82.865	-79.374	-76.933	-72.411	-9.280	-75.064	-8191	255	
1187.719	1	1	0	0	0.31563	0.17399	0.17242	0.13221	0.092658	0.046342	0.086676	0.20658	0.11512	0.27556	0.14574	0.109	0.18198	0.54402	0.25016	0.20143	-1.8729	-2.2625	-1.6833	-2.4437	-1.9333	-2.0875	-2.3125	-1.975	-2.225	-2.2687	-1.8062	-2.4958	-2.2208	-2.0458	-2.3208	-2.1146	164.231	26.876	-41.359	-37.129	117.843	219.516	-41.884	181.490	151.707	-42.719	-42.609	-51.159	56.814	200.500	128.058	-46.750	0.0004159	0.0010005	0.00012032	483.19	6.1878e-06	6.8948e-06	570.58	185.23	4.2028e-06	3.9734e-06	248.31	114.45	87.044	41.431	1.5149e-06	56.974	0.00086703	0.00088323	0.00024145	517.6	9.4188e-06	9.6108e-06	608.25	198.65	9.5576e-06	9.6326e-06	266.27	121.37	94.566	44.083	9.475e-06	60.487	125.010	21.983	-11.107	-86.336	51.331	57.891	-87.368	-81.076	25.859	36.638	-82.972	-79.222	-77.414	-72.359	-4.407	-74.775	-8191	255	
1187.816	1	1	0	0	0.14804	0.10876	0.19487	0.22466	0.05355	0.18489	0.29676	0.33456	0.16698	0.21288	0.19713	0.15934	0.13692	0.074403	0.12138	0.1662	-1.8813	-2.1854	-1.7375	-2.5708	-1.9104	-2.0625	-2.45	-2.0375	-2.1833	-2.2292	-1.9333	-2.3375	-2.0625	-2.0521	-2.5146	-1.8521	-37.559	125.291	76.868	-63.220	-45.930	161.318	168.115	217.644	-23.171	55.880	118.887	-87.334	-1.994	233.316	-22.890	-36.686	0.00052413	0.0003147	0.00022483	485.7	5.8568e-06	3.9576e-06	571.63	186.42	8.5181e-06	3.8044e-06	251.03	115.06	87.814	41.637	3.0896e-06	57.455	0.00084846	0.00086758	0.00023914	518.82	9.3861e-06	9.584e-06	610.67	199.63	9.4387e-06	9.451e-06	268.31	122.1	95.061	44.346	9.5292e-06	60.898	128.841	-64.912	20.043	-86.609	41.564	7.537	-87.495	-80.974	-44.844	26.342	-82.850	-79.064	-77.229	-72.444	15.812	-75.015	-8191	255	
1187.912	1	1	0	0	0.22148	0.22198	0.3567	0.22816	0.21322	0.16803	0.12297	0.22809	0.16511	0.19057	0.14911	0.086259	0.027518	0.0085543	0.18961	0.2908	-1.7458	-2.225	-1.7938	-2.4729	-2.1792	-1.7646	-2.4104	-1.7208	-1.9	-2.1771	-1.8312	-2.2438	-2.0542	-1.8354	-2.4	-2.1437	138.119	48.468	102.047	252.998	-52.430	42.624	39.659	-97.585	75.394	30.665	166.812	-88.781	72.760	17.757	198.185	259.873	0.00046043	0.0003984	0.00024957	486.02	2.3208e-06	7.3505e-07	577.92	186.87	4.0493e-06	4.6809e-06	249.31	114.61	87.837	41.854	5.0969e-06	57.19	0.00084888	0.00086305	0.00024045	520.48	9.3729e-06	9.4517e-06	612.85	199.76	9.3986e-06	9.4297e-06	267.66	121.74	95.139	44.502	9.5187e-06	60.761	126.507	-9.468	47.736	-85.997	37.937	121.138	-87.725	-81.168	-61.820	11.355	-83.048	-78.926	-77.267	-72.369	45.557	-74.987	-8191	255	
1188.032	1	1	0	0	0.27096	0.18988	0.30422	0.11017	0.25168	0.13484	0.029027	0.22252	0.16704	0.147	0.14617	0.1549	0.34581	0.15363	0.15654	0.36599	-1.4667	-2.3333	-1.8188	-2.2521	-2.1583	-1.8708	-2.5021	-1.9813	-2.0604	-2.3854	-2.1917	-2.1333	-2.1188	-1.7563	-2.25	-2.0729	-22.775	-63.768	92.447	248.851	-12.175	66.966	-30.854	194.178	62.929	156.995	160.663	250.322	-54.455	17.160	43.999	178.592	0.00054369	0.00080322	0.00016729	486.54	4.7062e-06	5.6407e-06	571.89	186.31	4.8225e-06	6.9144e-06	249.15	114.78	87.881	41.777	3.9085e-06	57.059	0.00085414	0.00085991	0.0002417	519.08	9.505e-06	9.4857e-06	609.51	199.39	9.4073e-06	9.4724e-06	267.09	121.62	95.02	44.395	9.3574e-06	60.61	126.874	16.352	63.648	-86.733	26.852	36.237	-87.521	-81.026	18.633	39.449	-82.927	-79.214	-77.229	-72.314	0.474	-75.288	-8191	255	
1188.104	1	1	0	0	0.18904	0.12546	0.25057	0.081071	0.15728	0.31477	0.17839	0.094762	0.1454	0.17356	0.10788	0.26355	0.19265	0.082398	0.056494	0.061974	-1.5375	-2.4	-1.9	-2.1813	-2.2833	-1.7167	-2.2917	-2.2708	-2.0229	-2.2417	-2.0896	-2.2917	-2.3646	-2.0333	-2.2271	-2.2917	144.750	-42.226	88.030	166.393	-82.891	-4.947	159.986	5.325	61.623	21.804	214.434	-26.004	60.973	182.148	37.788	-87.744	0.00036928	0.00036996	0.00014506	486.16	1.5466e-06	1.013e-05	571.31	186.13	2.9469e-06	3.826e-06	250.7	115.09	88.076	41.751	3.4851e-06	57.782	0.00084024	0.00086573	0.00023877	519.36	9.4111e-06	9.4624e-06	610.57	199.83	9.3529e-06	9.4596e-06	268.87	122.31	95.558	44.516	9.4335e-06	61.175	133.183	-34.437	33.060	-86.344	-20.029	57.736	-87.499	-81.210	3.436	65.287	-83.131	-79.256	-77.070	-72.490	19.044	-74.908	-8191	255	
1188.200	1	1	0	0	0.24024	0.14366	0.12624	0.11757	0.18838	0.3523	0.28113	0.16375	0.20601	0.19787	0.17599	0.25515	0.26128	0.12581	0.16296	0.033689	-1.4208	-2.125	-1.975	-1.9479	-2.2313	-1.8167	-2.2417	-2.2396	-1.9625	-2.3854	-2.0187	-2.1646	-2.3104	-1.8625	-2.1375	-2.1917	82.151	-2.554	141.158	28.735	-55.589	220.961	242.775	248.930	-63.940	112.169	227.723	-45.747	-82.682	-81.865	-48.961	25.835	0.00032288	0.00055513	0.00023597	488.52	1.7542e-06	6.3678e-06	577.11	187.47	6.3119e-06	1.0648e-06	253.25	116.16	87.923	41.87	4.0965e-06	58.127	0.00083944	0.0008686	0.00024051	520.24	9.3384e-06	9.391e-06	613.77	200.19	9.385e-06	9.5651e-06	270.64	123.03	95.617	44.717	9.7602e-06	61.56	137.427	-25.105	15.095	-86.407	165.579	36.851	-87.512	-81.062	36.225	74.174	-82.816	-79.194	-77.229	-72.381	32.155	-74.986	-8191	255	
1188.296	1	1	0	0	0.33492	0.19909	0.17542	0.10253	0.06316	0.19005	0.048568	0.34478	0.17668	0.20773	0.022805	0.047727	0.38692	0.14885	0.1128	0.15012	-1.5625	-2.2958	-1.9229	-2.1458	-2.3187	-2.025	-2.2313	-2.2021	-1.6521	-2.4708	-2.0458	-1.9646	-2.3292	-1.9708	-2.1917	-2.3979	-86.152	208.681	13.463	183.247	158.396	30.681	86.127	183.683	-23.250	73.835	175.651	59.980	-91.204	-91.858	104.962	205.244	0.00045277	0.00050814	0.00019724	487.82	3.7518e-06	2.7848e-06	577.58	187.36	5.4493e-06	2.0882e-06	252.4	115.83	87.969	41.962	3.6953e-06	57.787	0.00087081	0.00088954	0.00024702	522.18	9.6937e-06	9.7248e-06	615.59	201.3	9.5328e-06	9.7029e-06	270.15	122.84	95.564	44.747	9.6361e-06	61.429	121.724	-93.973	-1.203	-86.389	47.244	44.188	-87.288	-80.875	-11.878	126.970	-82.652	-79.277	-77.020	-72.293	93.181	-75.095	-8191	255	
1188.415	1	1	0	0	0.12467	0.2167	0.41265	0.23421	0.20535	0.16456	0.1697	0.10017	0.29949	0.17744	0.069078	0.21911	0.13486	0.19917	0.13524	0.081925	-1.5312	-2.3563	-1.975	-1.925	-2.3792	-1.9104	-2.2354	-2.2208	-1.8813	-2.2208	-2.3208	-1.875	-2.5146	-2.3021	-1.9896	-2.4292	-91.693	144.459	-3.339	125.334	151.860	-82.972	-16.207	-69.341	135.870	-42.810	75.074	-73.614	-90.994	214.989	-15.105	186.119	0.00052888	0.00024695	0.00011914	485.65	4.0534e-06	4.0964e-06	577.78	188.3	6.7647e-06	7.8671e-06	252.34	115.97	88.456	42.133	5.3448e-06	58.055	0.00086074	0.00089016	0.00024533	521.2	9.5827e-06	9.6291e-06	615.09	200.99	9.5191e-06	9.6834e-06	270.43	123.06	96.128	44.846	9.6837e-06	61.546	121.564	-92.910	1.158	-86.617	80.620	59.888	-87.238	-80.898	4.140	101.616	-82.818	-78.965	-77.596	-72.171	-26.556	-74.913	-8191	255	
1188.511	1	1	0	0	0.13014	0.15245	0.084427	0.11635	0.1962	0.16589	0.249	0.049182	0.1842	0.16141	0.067707	0.14031	0.1735	0.10377	0.21329	0.17897	-1.5292	-2.1021	-2.125	-1.7646	-2.3896	-2.0583	-1.9854	-2.4104	-1.8521	-2.3083	-2.275	-1.9521	-2.3792	-2.1021	-1.8	-2.4021	109.480	203.506	-32.468	56.230	214.616	178.431	201.669	67.445	-55.077	128.386	15.109	-62.513	113.472	197.797	82.038	174.896	0.0004058	0.00021038	0.00011266	487.66	1.8823e-06	4.1315e-06	579.28	188.65	7.5106e-06	6.1288e-06	253.17	116.29	88.586	42.223	1.5739e-06	58.333	0.00085388	0.00088559	0.00024516	523.05	9.6132e-06	9.6735e-06	616.03	201.76	9.5743e-06	9.7364e-06	270.77	123.59	96.236	44.927	9.7836e-06	61.826	133.843	213.156	-49.323	-86.307	-87.773	63.150	-87.555	-81.195	29.956	0.940	-82.996	-79.251	-77.103	-72.579	-61.937	-75.020	-8191	255	
1188.607	1	1	0	0	0.21341	0.18414	0.16353	0.13014	0.13471	0.121	0.088373	0.28244	0.062961	0.10896	0.03493	0.13614	0.16163	0.083655	0.040538	0.14585	-1.2437	-2.1229	-2.2562	-1.7917	-2.4083	-2.0042	-2.1604	-2.325	-1.9229	-2.2479	-2.3917	-1.8458	-2.1688	-2.2521	-1.8312	-2.4938	91.931	-19.176	-76.904	132.676	65.295	-67.781	150.276	235.168	41.332	29.946	172.334	-58.729	195.133	219.771	2.158	99.749	0.0005695	0.00045183	0.0001478	490.13	4.5016e-06	2.8794e-06	579.22	188.99	3.7721e-06	7.3574e-06	254.18	117.03	88.392	42.091	3.4654e-06	58.317	0.00086079	0.00088449	0.00024802	522.98	9.6709e-06	9.6871e-06	617.5	201.88	9.6548e-06	9.7444e-06	272.01	124.32	96.369	44.93	9.7592e-06	62.02	123.599	-19.662	97.649	-86.349	37.116	234.103	-87.644	-80.698	69.530	67.323	-82.811	-79.046	-77.315	-72.607	19.482	-74.988	-8191	255	
1188.704	1	1	0	0	0.2624	0.091847	0.019966	0.24702	0.016538	0.30405	0.39019	0.10806	0.060448	0.16904	0.095503	0.21746	0.080646	0.28421	0.049069	0.11006	-1.4896	-2.0104	-2.3792	-1.6354	-2.0396	-2.1958	-1.9083	-2.4542	-1.9229	-2.0875	-2.3229	-2.0042	-2.225	-2.2021	-1.8583	-2.3875	91.048	2.456	208.601	163.914	243.634	66.001	111.578	184.332	2.485	20.266	-10.516	223.508	-74.259	237.384	52.118	226.799	0.0004248	0.00053507	0.00017699	488.94	6.6864e-06	7.5605e-06	580.89	187.8	4.4909e-06	1.3507e-06	253.63	116.62	88.238	42.327	6.898e-06	57.959	0.0008763	0.00090404	0.00024948	522.48	9.7026e-06	9.8543e-06	616.74	201.84	9.7656e-06	9.8759e-06	271.14	123.43	96.088	44.857	9.6777e-06	61.421	120.569	-34.691	-30.316	-86.456	37.272	6.794	-87.691	-80.943	31.362	52.848	-82.855	-79.281	-77.281	-72.486	59.639	-74.939	-8191	255	
1188.800	1	1	0	0	0.33336	0.10019	0.095854	0.083685	0.32704	0.31751	0.1176	0.080371	0.31819	0.19847	0.065491	0.12346	0.14483	0.092875	0.041699	0.14341	-1.5354	-1.9833	-2.2938	-1.7125	-2.1583	-2.2333	-1.8729	-2.3563	-1.9729	-1.9771	-2.2542	-1.9729	-2.1167	-2.1583	-1.6646	-2.3167	260.052	149.298	53.297	-3.389	147.454	38.554	152.771	-33.706	-5.298	134.319	38.269	244.310	58.676	216.651	108.407	234.231	0.00050326	0.00075697	0.00011358	488.23	7.7765e-06	6.0069e-06	577.69	187.44	1.6809e-06	4.2495e-06	252.97	116.36	88.174	42.146	5.1191e-06	57.981	0.000864	0.00089358	0.00024852	520.64	9.7568e-06	9.7897e-06	613.46	201.18	9.7276e-06	9.8351e-06	269.83	123.5	96.272	44.841	9.7148e-06	61.626	132.593	-36.966	-15.909	-86.466	18.749	7.321	-87.581	-81.380	-15.485	48.507	-83.156	-79.119	-77.157	-72.318	37.415	-74.922	-8191	255	
1188.896	1	1	0	0	0.091316	0.22671	0.26599	0.14958	0.11346	0.24814	0.15735	0.31896	0.18376	0.16169	0.070192	0.07025	0.03848	0.17137	0.074561	0.22344	-1.7188	-1.5708	-2.4813	-1.9625	-1.9958	-2.1729	-1.8271	-2.1813	-2.0208	-1.8542	-2.4125	-2.0854	-2.1375	-2.3125	-1.6667	-2.2521	173.023	92.167	223.936	-16.185	144.509	0.307	229.468	29.918	-75.705	28.544	-77.132	136.217	49.115	-76.844	235.258	165.724	0.00050004	0.00033043	2.6859e-05	486.34	1.4823e-06	1.3529e-06	576.25	188.21	7.1397e-06	4.1332e-06	252.7	116.79	88.499	42.115	7.9281e-06	58.239	0.00086781	0.00089755	0.00024754	521.04	9.6503e-06	9.8249e-06	614.49	201.28	9.5988e-06	9.6574e-06	270.8	124.09	96.38	44.829	9.6514e-06	61.856	120.914	-11.790	-11.302	-86.285	-60.335	89.257	-87.394	-80.793	-37.356	-33.044	-82.555	-79.089	-76.722	-72.376	56.487	-74.901	-8191	255	
1188.992	1	1	0	0	0.31894	0.20427	0.10131	0.23628	0.24683	0.11178	0.11984	0.052794	0.075424	0.067063	0.081325	0.26308	0.25876	0.11487	0.24052	0.25365	-1.6104	-1.9708	-2.2771	-1.9729	-1.9958	-2.3396	-2.0521	-2.2167	-2.1271	-1.8458	-2.3688	-2.0979	-1.9125	-2.35	-2.0771	-2.1583	13.575	258.760	-15.952	-24.865	260.377	100.932	204.761	-77.053	104.522	-9.119	85.273	194.307	-42.968	-79.664	27.155	202.672	0.00047255	0.00081066	0.00011872	487.66	1.7926e-06	3.3735e-06	577.78	188.07	6.3023e-06	5.1654e-06	254.31	117.63	89.448	42.271	4.8896e-06	58.602	0.00087063	0.00089487	0.00025015	521.86	9.7012e-06	9.8428e-06	615.97	202.01	9.8001e-06	9.749e-06	272.43	124.92	96.968	45.111	9.7267e-06	62.228	117.655	-2.980	42.411	-86.648	219.522	79.111	-87.473	-80.946	249.967	17.432	-82.550	-79.119	-77.397	-72.162	-51.900	-74.975	-8191	255	
1189.111	1	1	0	0	0.14129	0.26614	0.22315	0.21738	0.17131	0.29911	0.10407	0.17855	0.037473	0.33454	0.29748	0.066868	0.22446	0.035421	0.10602	0.083979	-1.6562	-1.8521	-2.3375	-2.0687	-1.85	-2.15	-2.0229	-2.2896	-2.25	-1.8687	-2.3	-1.9833	-2.0625	-2.4042	-1.8396	-2.1333	86.200	-72.575	229.564	247.136	156.561	-64.781	-68.769	180.985	-11.270	69.145	-23.902	117.131	32.626	185.500	117.626	154.483	0.00052172	0.00038037	5.8513e-05	488.84	5.7484e-06	7.8585e-06	578.61	186.96	4.2654e-06	4.7722e-06	252.37	117.07	88.664	42.27	5.4312e-06	58.071	0.00087658	0.00089179	0.00024756	522.74	9.7432e-06	9.8276e-06	615.94	201.23	9.7447e-06	9.7371e-06	270.82	124.19	96.517	44.945	9.7425e-06	61.742	121.113	-12.493	122.069	-86.376	-18.840	-50.974	-87.564	-81.022	31.419	76.594	-82.684	-79.237	-77.432	-72.496	-29.947	-74.830	-8191	255	
1189.207	1	1	0	0	0.16661	0.063871	0.090478	0.16843	0.19717	0.16266	0.31685	0.24017	0.069441	0.18629	0.061363	0.2929	0.10926	0.19918	0.17826	0.062681	-1.8875	-1.7396	-2.1896	-1.9958	-1.7917	-2.1708	-2.0542	-2.0479	-2.2812	-1.7542	-2.1437	-2.0271	-2.0104	-2.3583	-1.7083	-2.1937	-63.277	72.009	144.586	203.996	39.129	236.172	-85.262	251.760	-93.958	-17.595	121.545	188.838	245.102	91.196	228.944	241.871	0.00042905	0.00026871	0.00010939	487.79	7.1985e-07	6.2519e-06	576.16	187.45	5.4743e-06	1.9064e-06	251.44	116.96	88.977	42.187	3.0691e-06	58.232	0.00087091	0.0008864	0.00024943	520.92	9.7268e-06	9.7683e-06	614.34	201.49	9.6447e-06	9.7467e-06	270.34	123.94	96.571	44.916	9.6597e-06	61.755	125.066	-41.863	31.076	-86.542	87.403	29.611	-87.389	-81.005	-7.092	135.824	-82.999	-79.242	-77.203	-72.465	116.206	-74.998	-8191	255	
1189.303	1	1	0	0	0.1657	0.16261	0.10306	0.13636	0.29351	0.12255	0.17118	0.18784	0.2078	0.13505	0.081965	0.040116	0.19547	0.27741	0.11537	0.085588	-1.9875	-1.8979	-2.2687	-2.2938	-1.9271	-2.3875	-2.0729	-2.0917	-2.4354	-1.825	-2.2938	-2.2479	-1.8937	-2.3438	-2.0625	-1.9792	108.560	97.733	23.932	121.499	-16.940	139.160	46.834	-70.298	8.712	-45.138	153.850	215.952	-85.016	-95.173	-47.703	-85.115	0.00045446	0.00037523	0.00012384	488.47	4.6808e-06	2.3248e-06	574.7	188.76	3.3108e-06	5.2618e-06	253.4	116.85	88.904	42.072	6.1221e-06	58.228	0.00087022	0.00088678	0.00024589	520.57	9.6101e-06	9.6663e-06	613.97	201.87	9.4808e-06	9.5755e-06	271.48	124.36	96.461	44.867	9.5147e-06	61.923	120.419	-65.013	14.177	-86.502	61.542	-82.177	-87.570	-80.738	51.391	61.915	-82.917	-79.246	-77.283	-72.240	40.912	-74.963	-8191	255	
1189.399	1	1	0	0	0.19686	0.094004	0.047491	0.14273	0.1948	0.31021	0.40278	0.1312	0.12304	0.10874	0.039076	0.13095	0.32506	0.19651	0.18466	0.23323	-1.975	-1.8333	-1.8896	-2.3937	-1.8771	-2.2104	-2.1979	-1.9042	-2.5042	-1.7771	-2.275	-2.4	-1.8625	-2.2812	-2.1167	-2.0292	216.802	136.429	198.259	146.436	-88.459	-15.163	255.999	-92.302	187.708	159.829	75.858	157.323	194.421	173.799	10.310	101.965	0.00050877	0.00029696	0.00021	485.51	6.8186e-06	8.9867e-06	579.96	188	7.7148e-06	8.293e-06	254.66	117.77	88.976	42.46	1.3844e-06	58.615	0.00085179	0.00087976	0.00024561	521.48	9.5447e-06	9.7941e-06	618.34	201.83	9.643e-06	9.7204e-06	272.96	125.05	96.823	45.158	9.6237e-06	62.171	121.540	-57.709	-38.736	-86.341	50.492	63.669	-87.331	-80.865	-50.142	48.766	-82.821	-79.100	-77.229	-72.310	133.692	-74.704	-8191	255	
1189.496	1	1	0	0	0.24658	0.18102	0.22908	0.2022	0.30072	0.26073	0.10102	0.16679	0.15991	0.085144	0.15832	0.21322	0.14063	0.06593	0.060321	0.4384	-2.0896	-1.8917	-1.9479	-2.3	-1.7229	-2.1604	-2.15	-1.7375	-2.2458	-1.9896	-2.0083	-2.3667	-1.9208	-2.1396	-2.1354	-1.8937	-8.405	77.157	101.633	-98.625	85.396	2.898	175.991	91.735	88.431	-24.582	147.287	211.261	175.146	187.574	-12.974	205.214	0.0004469	0.00079047	0.00018956	490.7	7.5852e-06	4.2785e-06	579.53	187.37	3.2046e-06	3.8422e-06	254.53	116.68	88.654	42.173	2.73e-06	58.297	0.00085591	0.00087838	0.00024367	522.54	9.4765e-06	9.66e-06	615.91	201.29	9.5347e-06	9.663e-06	271.49	124.13	96.418	44.991	9.5848e-06	61.85	122.188	2.011	-16.249	-86.504	59.795	33.235	-87.534	-80.959	21.532	169.640	-83.005	-79.488	-77.287	-72.638	56.368	-75.249	-8191	255	
1189.592	1	1	0	0	0.23713	0.21556	0.21442	0.073468	0.21137	0.35087	0.2103	0.18223	0.098367	0.20196	0.053499	0.091395	0.11991	0.11186	0.37808	0.39214	-1.8958	-1.9333	-1.9312	-2.4646	-1.675	-2.1604	-2.2146	-1.8979	-2.4062	-1.9937	-1.9667	-2.5938	-2.0083	-2.15	-2.1937	-1.8229	217.267	-81.254	124.728	82.542	42.767	-54.215	255.565	224.594	88.889	65.572	-58.671	-67.449	59.728	0.853	136.732	142.764	0.00049364	0.00039222	0.00019986	485.15	3.251e-06	4.1058e-06	575.91	188.62	5.0296e-06	5.7563e-06	254.67	116.69	89.002	42.542	6.9012e-06	58.412	0.00086603	0.00088362	0.00024631	520.65	9.5004e-06	9.7159e-06	614.73	201.81	9.5363e-06	9.63e-06	271.38	124.05	96.484	45.134	9.5901e-06	61.937	129.008	252.116	12.911	-86.384	-9.691	3.419	-87.458	-80.784	44.740	65.221	-82.915	-79.042	-77.462	-72.523	87.426	-75.045	-8191	255	
1189.712	1	1	0	0	0.31435	0.24462	0.19249	0.1253	0.15482	0.36056	0.19982	0.088961	0.0601	0.16642	0.33118	0.30118	0.14304	0.24825	0.11052	0.21957	-1.8	-2.0646	-2.0812	-2.475	-2.0292	-2.0042	-2.3063	-1.7583	-2.4167	-2.2042	-1.8167	-2.3917	-1.9813	-2.0896	-2.2458	-1.9438	91.249	0.604	24.681	198.414	158.290	256.659	157.961	163.404	47.406	134.869	-96.644	-33.739	94.508	183.229	258.245	255.021	0.00051469	0.00017139	0.00017192	488.1	6.1251e-06	5.9545e-06	582.56	189.37	5.8652e-06	7.6742e-06	253.61	117.42	89.144	42.359	3.3832e-06	58.726	0.00086732	0.00088457	0.0002433	521.84	9.4712e-06	9.6089e-06	616.83	202.17	9.5889e-06	9.4738e-06	272.01	124.57	96.694	45.149	9.4811e-06	62.189	128.029	198.155	0.213	-86.454	31.579	76.449	-87.465	-81.058	-1.939	34.592	-82.427	-79.023	-77.045	-72.618	-72.187	-74.927	-8191	255	
1189.807	1	1	0	0	0.44037	0.065875	0.35703	0.22246	0.12487	0.089341	0.27333	0.030207	0.27866	0.18924	0.041718	0.18513	0.075811	0.27577	0.26162	0.073567	-1.7521	-2.2792	-1.75	-2.4562	-1.8188	-2.1271	-2.4708	-1.8563	-1.8979	-2.0958	-1.7938	-2.4125	-1.9062	-1.8833	-2.4188	-1.9688	134.184	-75.481	98.704	-70.099	-5.392	-59.816	182.854	-47.308	237.702	105.549	-2.982	209.151	21.250	234.798	122.561	30.487	0.00055603	0.00038647	0.00028136	488.29	5.2761e-06	3.8211e-06	580.55	188.95	5.9184e-06	3.2482e-06	255.33	117.56	88.789	42.324	3.3344e-06	58.852	0.00085301	0.00086706	0.00024132	522.57	9.4341e-06	9.613e-06	618.73	202.47	9.533e-06	9.5948e-06	273.12	125.23	96.881	45.161	9.6052e-06	62.473	121.868	-67.940	0.548	-86.473	4.210	164.703	-87.538	-81.164	-58.815	98.419	-82.701	-78.951	-77.042	-72.360	187.874	-75.031	-8191	255	
1189.903	1	1	0	0	0.19012	0.077397	0.14421	0.23198	0.30954	0.19017	0.06646	0.26283	0.21363	0.21355	0.11755	0.17896	0.15074	0.16432	0.20139	0.22513	-1.775	-2.0187	-1.8458	-2.1583	-1.9479	-1.9896	-2.3792	-2.1625	-2.0729	-2.45	-1.8625	-2.0354	-2.0479	-2	-2.4646	-2.2208	4.536	59.978	47.501	219.386	81.619	-47.957	255.924	6.277	15.561	193.480	114.497	254.887	127.467	32.053	-32.267	-63.950	0.00051366	3.5138e-05	0.00011215	489.06	5.5415e-06	2.5886e-06	580.1	189.2	4.617e-06	9.3363e-06	254.39	117	89.013	42.192	4.7202e-06	58.235	0.00086253	0.00086597	0.00023981	521.38	9.4184e-06	9.5174e-06	615.76	202.01	9.457e-06	9.4649e-06	271.79	123.91	96.48	44.962	9.4363e-06	61.841	129.840	-67.403	91.857	-86.473	-33.010	-20.431	-87.581	-80.967	247.683	37.494	-82.905	-79.088	-77.398	-72.260	20.949	-75.056	-8191	255	
1189.999	1	1	0	0	0.059256	0.16397	0.17235	0.26863	0.089989	0.25423	0.26757	0.3472	0.19731	0.16953	0.06685	0.28422	0.19656	0.3356	0.2228	0.16807	-1.7375	-2.1875	-1.825	-2.1896	-2.3187	-1.8937	-2.3521	-1.9958	-1.975	-2.2583	-1.75	-2.1688	-2.05	-1.9625	-2.3542	-2.2417	47.055	171.114	105.422	-31.116	-48.140	-4.129	64.125	175.758	-41.160	57.484	-69.415	-95.759	180.774	227.778	181.618	52.859	0.00047773	0.00017665	4.0358e-05	486.43	4.3595e-06	5.7458e-06	577.15	188.27	3.7159e-06	4.6e-06	253.7	117.02	89.419	42.355	1.0927e-06	58.9	0.00085442	0.00087411	0.00024261	520.77	9.4366e-06	9.5361e-06	614.65	201.63	9.4134e-06	9.5363e-06	271.46	124.36	96.959	45.117	9.4394e-06	62.187	123.209	84.263	7.094	-86.549	51.614	30.775	-87.402	-81.218	38.844	77.889	-82.967	-79.134	-77.111	-72.422	-77.784	-74.708	-8191	255	
1190.095	1	1	0	0	0.29499	0.14541	0.10114	0.05042	0.15391	0.21279	0.19691	0.35335	0.2612	0.0676	0.10373	0.23199	0.19617	0.14308	0.16632	0.29965	-1.5542	-2.2833	-1.8563	-2.1333	-2.2271	-1.8229	-2.4708	-2.0292	-1.95	-2.3812	-2.0812	-2.3396	-2.3021	-1.9292	-2.2604	-2.0458	204.525	-58.917	152.730	96.676	10.733	171.688	113.118	235.348	126.631	-7.690	-85.642	84.707	212.099	209.194	259.644	167.696	0.00049338	0.00088774	0.00019162	487.65	6.108e-06	5.1092e-06	578.52	189.8	9.9333e-06	5.949e-06	253.86	117.56	89.717	42.472	4.7115e-06	58.737	0.00084877	0.00086302	0.00024041	521.15	9.3759e-06	9.5088e-06	616.41	202.5	9.4098e-06	9.4986e-06	272.7	124.71	96.989	45.217	9.4001e-06	62.386	135.759	40.557	3.124	-86.487	9.002	59.435	-87.299	-80.945	6.776	72.163	-83.065	-79.019	-77.178	-72.302	40.472	-74.978	-8191	255	
1190.191	1	1	0	0	0.18014	0.2248	0.22571	0.21494	0.058976	0.11391	0.09852	0.032287	0.16397	0.069089	0.15047	0.23306	0.12737	0.23391	0.087836	0.20957	-1.625	-2.3521	-1.7812	-2.2917	-2.3521	-1.8312	-2.2562	-2.1083	-1.9438	-2.2125	-1.9229	-2.0875	-2.2625	-1.8854	-2.35	-2.3604	-24.678	225.024	59.284	-17.465	156.586	191.933	163.764	-76.666	24.952	8.042	81.304	-84.963	184.357	148.950	82.253	7.351	0.0004724	0.00070228	0.00014186	488.13	1.1981e-05	1.2256e-06	579.76	190.82	2.987e-06	7.5837e-06	257.19	117.64	88.864	42.478	1.2601e-05	58.772	0.00085045	0.00086383	0.00024191	522.82	9.3591e-06	9.5073e-06	619.39	203.48	9.4184e-06	9.5213e-06	274.3	125.13	96.923	45.349	9.6111e-06	62.599	122.723	-48.223	38.835	-86.338	-10.916	-44.313	-87.464	-80.961	-80.859	-15.405	-82.794	-78.728	-77.142	-72.487	28.543	-75.051	-8191	255	
1190.287	1	1	0	0	0.24731	0.033924	0.14055	0.21818	0.19637	0.097991	0.069779	0.13789	0.18625	0.13173	0.23708	0.19681	0.056717	0.13182	0.14745	0.13078	-1.5312	-2.3458	-1.9229	-2.0187	-2.3833	-1.7083	-2.1437	-2.2042	-1.6917	-2.3708	-2.0354	-2.1729	-2.2167	-2.0458	-2.1854	-2.4375	9.821	47.164	70.717	-66.365	202.615	-95.784	2.272	233.903	-62.857	-18.989	5.427	-94.370	238.093	223.125	209.532	-11.688	0.00039428	0.00074969	7.4021e-05	487.85	5.717e-06	4.6845e-06	577.98	189.38	3.3595e-06	4.8248e-06	253.61	116.62	89.091	42.22	1.4781e-06	58.408	0.00085032	0.00086545	0.00024229	521.38	9.374e-06	9.4326e-06	616.15	202.42	9.3677e-06	9.4418e-06	271.18	124.1	96.637	44.961	9.3813e-06	61.912	121.876	-25.028	-18.506	-86.320	96.543	-45.352	-87.369	-81.035	159.728	58.451	-82.918	-79.084	-77.234	-72.483	50.826	-75.064	-8191	255	
1190.384	1	1	0	0	0.07435	0.089384	0.18363	0.19925	0.17675	0.27379	0.17687	0.19546	0.23712	0.21953	0.34078	0.23805	0.34723	0.22636	0.23419	0.12153	-1.3563	-2.2812	-1.9792	-2.0917	-2.3167	-1.9708	-2.225	-2.3042	-1.8083	-2.2438	-2.2375	-2.0292	-2.3604	-1.7812	-2.0042	-2.4021	-53.968	39.436	51.002	-37.094	24.022	-93.773	118.452	215.039	-7.359	248.728	-72.197	114.636	234.022	219.257	45.535	187.178	0.0005532	0.00049022	9.9872e-05	487.51	3.0738e-06	3.0078e-06	576.68	188.44	1.8497e-06	7.1476e-06	253.82	117.08	89.175	42.193	3.0045e-06	58.82	0.00084331	0.0008601	0.0002365	520.45	9.3368e-06	9.397e-06	614.84	201.7	9.3545e-06	9.518e-06	271.52	124.16	96.565	45.069	9.3479e-06	62.17	130.990	-23.012	-25.318	-86.829	96.142	62.999	-87.651	-81.086	-44.613	47.097	-82.504	-79.207	-77.132	-72.516	-18.450	-74.873	-8191	255	
1190.504	1	1	0	0	0.24684	0.28257	0.1096	0.21149	0.062309	0.060538	0.25551	0.20126	0.052617	0.17594	0.26107	0.10253	0.34892	0.27823	0.18746	0.13304	-1.2938	-2.025	-1.9583	-1.8792	-2.3542	-1.8062	-2.2313	-2.2458	-1.8833	-2.2438	-2.2292	-1.9771	-2.3729	-2.1625	-1.9688	-2.4979	-56.478	37.166	39.759	168.282	28.570	116.956	226.767	155.948	166.703	11.473	198.648	199.136	-47.894	-96.877	-69.292	-20.363	0.00047069	0.00065921	0.00023872	488.22	1.5832e-06	8.8402e-06	580.21	188.57	3.7703e-06	5.6086e-06	255.55	118.13	89.664	42.662	7.7816e-06	59.02	0.00083414	0.00085678	0.00023745	521.38	9.2795e-06	9.4078e-06	617.98	202.63	9.3422e-06	9.3998e-06	273.31	125.06	97.092	45.423	9.465e-06	62.623	122.854	-53.329	29.157	-86.171	72.062	57.781	-87.555	-81.088	-31.206	45.032	-82.884	-79.006	-77.556	-72.373	25.738	-75.005	-8191	255	
1190.600	1	1	0	0	0.18207	0.21448	0.22094	0.22607	0.12607	0.084373	0.20095	0.15708	0.05256	0.17713	0.1371	0.29027	0.2271	0.27412	0.27204	0.14576	-1.4479	-2.2729	-2.1042	-1.9854	-2.2271	-1.8854	-2.0479	-2.2479	-1.9396	-2.0792	-2.1125	-1.8813	-2.3542	-2.1312	-1.8896	-2.4292	91.615	156.694	-20.148	185.845	39.915	209.588	183.783	181.135	-67.066	91.197	106.708	-74.807	-39.839	-47.845	147.565	83.686	0.00047703	0.00064721	0.00018572	490.92	4.0198e-06	2.8791e-06	583.22	191.49	1.2874e-06	2.252e-06	259.18	118.64	90.05	42.905	2.9859e-06	59.17	0.00085482	0.00086869	0.00024191	523.15	9.5348e-06	9.5659e-06	621.76	203.81	9.3939e-06	9.5208e-06	275.73	125.79	97.349	45.518	9.4137e-06	62.834	115.395	-28.084	-40.306	-86.629	97.668	0.727	-87.422	-81.154	22.459	42.635	-82.682	-78.958	-77.325	-72.478	22.950	-74.985	-8191	255	
1190.672	1	1	0	0	0.30991	0.17307	0.18549	0.12317	0.063341	0.21657	0.28405	0.11185	0.26911	0.083372	0.064882	0.13081	0.26052	0.10878	0.25491	0.24731	-1.4688	-1.9937	-2.2167	-1.6708	-2.4271	-2.1292	-1.9979	-2.4396	-1.9979	-2.1688	-2.2542	-1.8854	-2.3563	-2.1875	-1.7313	-2.2938	167.074	83.773	100.343	-58.833	213.162	27.750	245.768	152.206	191.677	-51.721	145.665	212.632	41.320	188.824	77.097	-27.020	0.00044221	0.00086821	0.00024704	488.74	3.8404e-06	2.5335e-06	580.5	189.16	1.8873e-06	7.6267e-06	255.09	117.61	89.141	42.398	2.7713e-07	59.073	0.00084698	0.00086209	0.00023931	521.48	9.3892e-06	9.4287e-06	617.87	202.45	9.3487e-06	9.5133e-06	272.67	124.66	96.955	45.245	9.4068e-06	62.402	125.028	-42.908	-8.321	-86.309	26.174	-11.326	-87.595	-81.016	-91.942	8.811	-83.052	-79.155	-77.400	-72.185	-98.490	-75.151	-8191	255	
1190.793	1	1	0	0	0.16817	0.065745	0.17364	0.074599	0.18184	0.31744	0.03517	0.039139	0.074314	0.17239	0.10705	0.072908	0.067207	0.31769	0.14587	0.24149	-1.4167	-1.9604	-2.3312	-1.9667	-2.1354	-2	-1.9896	-2.4104	-1.975	-2.125	-2.4562	-1.8479	-2.2396	-2.1521	-1.9792	-2.4833	174.741	-23.196	114.720	100.118	181.305	-24.153	259.510	-19.581	47.891	134.069	-86.881	154.105	47.329	130.594	-93.949	206.250	0.00043315	0.00034168	0.00011298	487.04	5.94e-06	2.1553e-06	579.56	188.6	4.3825e-06	6.5466e-06	255.99	117.87	88.992	42.584	4.1305e-06	59.329	0.0008486	0.00086545	0.00024008	521.47	9.3097e-06	9.4792e-06	618.18	202.7	9.4277e-06	9.4448e-06	273.43	124.99	96.708	45.364	9.4419e-06	62.692	119.684	6.583	26.018	-86.509	26.947	132.065	-87.160	-80.861	-48.648	12.593	-82.884	-79.062	-77.365	-72.567	64.079	-75.070	-8191	255	
1190.887	1	1	0	0	0.22583	0.22513	0.15053	0.11158	0.20529	0.16482	0.17273	0.047032	0.086195	0.25487	0.037622	0.18195	0.042124	0.23285	0.15928	0.17845	-1.4146	-1.9833	-2.3854	-2.0083	-2.1417	-1.9917	-1.9479	-2.2542	-2.0542	-1.9062	-2.3042	-1.9354	-1.9729	-2.35	-1.85	-2.4167	-80.912	249.509	-96.225	3.587	203.763	-98.024	-69.784	187.576	179.757	-38.226	102.080	214.821	225.135	-62.580	252.926	193.963	0.00052852	0.00049559	9.2252e-05	490.38	1.6214e-06	3.1393e-06	583.55	190.15	3.5134e-06	6.4154e-06	257.28	118.18	89.648	42.772	3.5754e-07	59.522	0.00084999	0.00086351	0.00024445	522.48	9.442e-06	9.5668e-06	620.64	203.68	9.4969e-06	9.5538e-06	274.26	125.67	97.513	45.505	9.4902e-06	62.911	127.335	-27.357	62.623	-86.424	60.953	105.131	-87.329	-81.038	-11.881	28.049	-83.317	-79.160	-77.346	-72.234	138.730	-74.814	-8191	255	
1190.985	1	1	0	0	0.030119	0.19185	0.19755	0.032753	0.047118	0.14507	0.086705	0.24539	0.032232	0.11846	0.27874	0.073471	0.15695	0.19694	0.1199	0.48491	-1.6292	-1.7563	-2.5854	-1.7708	-1.9875	-2.3271	-1.7646	-2.275	-2.1021	-1.8979	-2.1854	-1.9	-2.0583	-2.4083	-1.7979	-2.1312	240.932	62.765	111.743	151.958	140.435	13.667	-40.111	146.417	82.424	-25.241	-33.335	-1.532	-16.772	171.974	81.231	221.702	0.0004244	0.00047584	0.00019397	488.17	5.3205e-06	8.0528e-06	582.75	190.57	3.7479e-06	5.885e-06	256.34	118.47	89.496	42.895	7.7121e-06	59.479	0.00084967	0.00086992	0.00024156	522.38	9.4363e-06	9.4909e-06	619.32	203.32	9.5266e-06	9.5109e-06	275.03	125.91	97.191	45.489	9.4936e-06	62.906	121.696	17.678	-47.492	-86.443	15.801	11.752	-87.251	-81.186	-48.225	106.293	-82.776	-79.004	-77.303	-72.293	38.345	-75.003	-8191	255	
1191.104	1	1	0	0	0.15032	0.095671	0.2789	0.24885	0.014284	0.20632	0.037743	0.20218	0.22082	0.28361	0.28822	0.17446	0.14166	0.19688	0.034275	0.12631	-1.6708	-1.9292	-2.2667	-2.0229	-2.0229	-2.2667	-1.9625	-2.3063	-2.2292	-1.625	-2.3417	-2.0958	-1.8417	-2.3458	-1.8708	-2.3229	126.186	205.601	-42.329	-70.226	-80.268	-66.540	234.451	158.701	21.282	110.163	198.024	-50.648	162.738	245.304	57.419	260.333	0.00031958	0.00098912	0.0001255	489.2	2.8941e-06	2.9334e-06	581.24	189.43	2.669e-06	3.3128e-06	256.2	117.61	89.532	42.861	4.4286e-06	59.304	0.00085311	0.00087075	0.00024116	521.9	9.3631e-06	9.5109e-06	617.81	203.1	9.4216e-06	9.432e-06	273.27	125.04	97.098	45.502	9.4015e-06	62.8	116.433	-64.811	122.207	-86.362	18.863	76.829	-87.403	-81.130	26.993	113.422	-82.821	-79.047	-77.658	-72.364	-38.678	-74.879	-8191	255	
1191.200	1	1	0	0	0.25368	0.13266	0.098054	0.14133	0.087592	0.092714	0.10709	0.21556	0.23717	0.10962	0.23007	0.18009	0.3233	0.13714	0.15321	0.074918	-1.7021	-1.7812	-2.1375	-2.1375	-1.9229	-2.2042	-2.0104	-2.0208	-2.2979	-1.7792	-2.2375	-2.3667	-1.9958	-2.5563	-2.1271	-2.2375	-24.476	182.199	232.048	-13.402	-26.787	83.837	83.372	-66.917	255.529	41.560	246.239	224.217	-79.802	250.725	53.044	-28.317	0.00037015	8.0604e-05	0.00013719	486.54	2.3325e-06	1.0161e-05	584.4	189.74	2.4925e-06	8.1883e-06	256.79	117.65	89.594	42.651	1.9848e-06	59.265	0.00084856	0.00087747	0.00024296	521.17	9.4334e-06	9.4709e-06	618.86	203.01	9.4331e-06	9.3921e-06	273.7	124.98	97.187	45.532	9.3765e-06	62.938	130.303	57.968	64.190	-86.561	-8.511	26.419	-87.759	-81.046	176.243	75.419	-82.689	-79.356	-77.564	-72.456	85.723	-74.847	-8191	255	
1191.272	1	1	0	0	0.11857	0.030946	0.10324	0.046108	0.1097	0.1367	0.19879	0.094204	0.03295	0.20185	0.11938	0.12412	0.066877	0.11311	0.12064	0.057118	-2.0062	-1.8021	-2.3271	-2.1479	-1.7146	-2.3958	-1.7812	-1.9688	-2.325	-1.8021	-2.1	-2.1042	-1.6729	-2.375	-1.9729	-2.1729	-47.971	164.713	35.995	248.716	-67.980	7.042	-60.111	229.080	-35.771	208.578	213.511	153.340	113.119	231.733	-51.216	73.987	0.00064526	0.00070072	0.0001346	487.24	3.7776e-06	2.4133e-06	582.8	190.24	8.0602e-06	5.2016e-06	256.96	118.87	90.534	42.957	4.5027e-06	59.831	0.00084663	0.00087199	0.00024274	522.47	9.4307e-06	9.4987e-06	619.72	204.06	9.5907e-06	9.4558e-06	275.37	126.09	97.722	45.812	9.5068e-06	63.429	124.034	-19.976	40.698	-86.290	27.080	95.313	-87.427	-80.690	69.800	45.020	-82.909	-79.130	-77.383	-72.660	-35.054	-74.939	-8191	255	
1191.392	1	1	0	0	0.18372	0.13276	0.093919	0.16901	0.21303	0.049496	0.12515	0.42528	0.10096	0.07835	0.22722	0.17163	0.19398	0.24781	0.22444	0.083633	-1.8	-1.85	-1.9479	-2.2542	-1.7313	-2.2938	-2.1562	-2.0104	-2.3	-1.9396	-2.1354	-2.2125	-1.9771	-2.3688	-1.9438	-2.1083	12.924	-62.525	192.362	192.769	214.506	-89.430	156.954	5.406	166.149	233.811	211.800	123.714	249.734	194.349	-2.512	109.449	0.00044641	0.0012091	0.00018518	490.37	6.6125e-06	6.4739e-06	583.03	191.1	2.4575e-06	6.195e-06	258.31	119.54	89.603	43.127	2.7991e-06	59.94	0.00085659	0.00087978	0.00024408	523.26	9.4687e-06	9.6871e-06	622.31	204.64	9.5829e-06	9.6322e-06	276.48	126.5	97.668	45.892	9.6076e-06	63.386	122.847	-29.771	-39.434	-86.709	-34.989	-21.964	-87.413	-81.119	214.722	50.620	-82.801	-79.206	-77.317	-72.502	-6.023	-74.860	-8191	255	
1191.488	1	1	0	0	0.092101	0.35265	0.24655	0.18028	0.10656	0.17579	0.060221	0.18608	0.10105	0.26032	0.17968	0.11335	0.17518	0.19302	0.059177	0.029627	-1.8771	-1.625	-2.1458	-2.2833	-1.9042	-2.1229	-2.2812	-2.0021	-2.2646	-1.9083	-2.1271	-2.2479	-1.825	-2.2812	-2.025	-2.0438	207.740	207.851	236.357	-6.899	177.825	19.774	231.866	1.831	176.677	-85.090	-61.440	-58.603	19.657	233.778	153.013	82.844	0.00059337	0.00022428	0.00018658	489.18	6.352e-06	1.1679e-06	582.18	189.66	5.5717e-06	2.2686e-06	256.01	117.98	89.527	42.932	6.3681e-06	59.543	0.00086135	0.00088071	0.00024585	522.09	9.5368e-06	9.6565e-06	619.06	203.33	9.6187e-06	9.5595e-06	273.54	125.4	97.243	45.667	9.5814e-06	63.095	121.043	68.269	-2.998	-86.555	12.616	131.505	-87.273	-81.213	-72.576	-0.038	-82.762	-79.085	-77.270	-72.252	120.172	-74.884	-8191	255	
1191.585	1	1	0	0	0.20942	0.030618	0.091718	0.080814	0.10839	0.14087	0.05776	0.40655	0.16378	0.34039	0.28022	0.25628	0.16757	0.3048	0.21623	0.11011	-1.875	-1.6958	-2.0958	-2.3688	-1.7729	-2.2062	-2.2354	-1.7	-2.2354	-1.975	-2.2729	-2.5563	-1.9562	-2.4417	-2.2542	-2.1667	124.999	257.782	67.758	234.571	38.022	178.087	255.088	177.008	35.555	109.646	236.454	120.654	216.148	232.368	1.086	133.487	0.0006083	0.00034026	9.6308e-05	487.78	6.7463e-06	4.9641e-06	580.83	189.76	5.2483e-06	4.1405e-06	255.63	117.65	89.732	42.73	5.9095e-06	59.597	0.00086288	0.00088142	0.00024572	521.01	9.4948e-06	9.7994e-06	617.16	202.93	9.5532e-06	9.5328e-06	274.19	125.16	97.165	45.62	9.5413e-06	63.02	133.990	-54.251	-1.989	-86.542	67.376	22.624	-87.383	-81.121	42.492	55.193	-82.901	-79.291	-77.382	-72.555	37.219	-74.814	-8191	255	
1191.681	1	1	0	0	0.095887	0.17529	0.14514	0.15887	0.18945	0.12585	0.055435	0.3929	0.23522	0.17512	0.10182	0.21793	0.087984	0.18998	0.14352	0.25664	-1.9333	-2.0083	-1.9729	-2.3604	-1.8479	-2.1479	-2.375	-1.9167	-2.3688	-1.9604	-1.8896	-2.4875	-1.8583	-2.0417	-2.2458	-1.9438	176.951	-23.842	259.134	-80.854	94.474	-33.068	-84.273	207.292	155.359	43.137	189.235	-33.519	191.937	-48.697	178.860	209.545	0.00051384	0.00073754	0.00018145	488.22	4.041e-06	3.9672e-06	582.89	189.98	7.6073e-06	7.5499e-06	258.27	118.57	90.144	43.056	3.2908e-06	59.77	0.00086994	0.00087598	0.00024554	521.95	9.5994e-06	9.746e-06	620.26	203.52	9.599e-06	9.7078e-06	275.34	126.19	97.651	45.758	9.5494e-06	63.394	128.954	-9.302	49.521	-86.511	-17.570	31.767	-87.537	-80.952	-69.189	52.090	-82.710	-79.123	-77.505	-72.575	-48.358	-75.017	-8191	255	
1191.777	1	1	0	0	0.054897	0.12565	0.24015	0.13639	0.15133	0.046282	0.22507	0.13745	0.084376	0.13797	0.14102	0.22168	0.097921	0.12722	0.12029	0.15999	-1.8833	-2.0646	-1.6604	-2.3438	-1.9208	-2.1604	-2.1688	-1.7458	-2.2938	-2.0521	-1.7604	-2.5167	-1.8917	-2.0708	-2.1271	-1.675	36.409	232.338	109.765	-38.230	10.049	140.064	-9.601	133.029	-5.908	-43.716	-92.652	230.851	64.047	208.967	236.943	175.291	0.00052714	0.00050551	0.0001568	487.81	1.7723e-06	5.6418e-06	584.78	189.91	2.3218e-06	7.4658e-06	257.98	119.02	90.331	42.839	1.7529e-06	59.948	0.00086701	0.00086894	0.00024269	522.55	9.5446e-06	9.6279e-06	621.41	203.78	9.6189e-06	9.6558e-06	275.86	126.41	97.599	45.685	9.6529e-06	63.373	119.690	-15.495	35.043	-86.508	31.671	29.193	-87.334	-80.851	130.159	6.313	-82.971	-79.280	-77.428	-72.485	-18.876	-75.093	-8191	255	
1191.896	1	1	0	0	0.23429	0.094076	0.086483	0.14311	0.080977	0.2729	0.098904	0.23197	0.22199	0.09922	0.26086	0.11304	0.24095	0.31331	0.18902	0.20079	-1.7417	-2.1604	-1.6896	-2.4458	-2.0729	-1.9271	-2.375	-1.7979	-2.1688	-2.1292	-2.0333	-2.2687	-1.95	-2.1021	-2.1562	-1.8458	90.824	-66.793	116.685	-16.504	59.379	-90.877	-91.211	234.015	162.434	258.110	254.563	-86.344	193.117	227.816	237.691	226.159	0.00066324	0.00026394	0.00012394	487.29	4.6816e-06	8.2798e-07	579.96	190.49	4.4789e-06	1.126e-05	255.45	118.42	89.591	42.758	9.5272e-06	59.947	0.00087296	0.00088229	0.00024587	521.15	9.579e-06	9.7389e-06	617.31	203.48	9.6981e-06	9.7432e-06	273.81	125.76	97.583	45.702	9.7248e-06	63.392	135.137	20.025	-37.637	-86.658	-26.939	43.130	-87.392	-80.870	14.506	84.408	-82.730	-79.031	-77.381	-72.390	47.311	-74.816	-8191	255	
1191.969	1	1	0	0	0.14997	0.19742	0.18792	0.28718	0.23862	0.21322	0.020272	0.10278	0.15587	0.14262	0.10369	0.082577	0.11593	0.22011	0.15155	0.2418	-1.6896	-2.4	-1.7042	-2.3729	-2.0833	-1.8937	-2.4479	-1.8958	-2.25	-2.3542	-1.8917	-2.3563	-1.9479	-1.9021	-2.3187	-1.9208	92.267	-39.209	120.843	91.776	88.169	172.779	216.045	84.684	222.590	214.503	-28.152	60.312	-96.950	256.454	-11.681	189.657	0.00054399	0.00038368	0.00016542	488.26	3.5975e-06	5.5172e-06	576.88	190.21	9.0768e-06	4.7995e-06	256.95	118.61	89.535	43.1	2.4522e-06	60.3	0.00088127	0.00088904	0.00024747	521.95	9.6128e-06	9.7569e-06	618.44	203.6	9.7417e-06	9.7915e-06	275.11	126.13	97.594	45.832	9.8001e-06	63.688	120.330	-20.610	-15.560	-86.589	94.591	46.321	-87.193	-81.026	14.941	-15.593	-82.846	-79.319	-76.938	-72.485	184.592	-74.956	-8191	255	
1192.065	1	1	0	0	0.32167	0.11485	0.14441	0.27462	0.086579	0.11324	0.065923	0.1267	0.1422	0.12759	0.061421	0.29084	0.088007	0.17016	0.35279	0.08978	-1.7396	-2.2125	-1.6792	-2.1896	-2.0438	-1.6896	-2.4354	-2.0312	-2.0771	-2.2521	-1.8542	-2.2771	-2.2958	-1.9125	-2.2625	-2.0896	37.468	197.618	189.245	-48.451	4.340	-41.966	5.120	77.503	-18.537	258.934	59.689	220.645	154.757	39.525	7.068	165.983	0.00045168	0.00078966	6.0543e-05	487.29	3.5921e-06	8.6052e-06	580.85	191.5	4.7133e-06	5.4743e-06	259.29	119.59	90.569	43.146	4.3227e-07	60.212	0.000873	0.00089608	0.00024803	521.07	9.6929e-06	9.7078e-06	619.41	204.52	9.6594e-06	9.8187e-06	276.87	126.98	98.084	45.962	9.8528e-06	63.824	132.428	-18.484	89.764	-86.355	-26.306	75.208	-87.524	-80.996	5.403	54.408	-82.748	-79.364	-77.384	-72.527	65.838	-75.159	-8191	255	
1192.184	1	1	0	0	0.21525	0.11711	0.28029	0.15257	0.20817	0.18379	0.19401	0.20125	0.22624	0.16872	0.28003	0.17293	0.24174	0.2705	0.04304	0.2084	-1.4875	-2.1312	-1.725	-2.2042	-2.0438	-1.6771	-2.4708	-2.0104	-2.2146	-2.3979	-1.8896	-2.1792	-2.2604	-1.9542	-2.2104	-1.975	59.643	165.132	139.207	212.589	46.550	174.622	169.916	113.692	204.589	-75.428	-11.157	232.977	213.317	200.421	-56.523	170.854	0.00054743	0.00037199	0.00012999	488.43	4.1992e-06	3.9426e-06	587.87	192.06	6.0361e-06	8.8182e-06	258.94	119.6	90.465	43.099	1.7299e-06	60.298	0.00087686	0.0008971	0.00024807	521.97	9.6711e-06	9.7046e-06	622.08	204.75	9.5552e-06	9.6407e-06	276.7	126.78	97.833	45.94	9.6187e-06	63.783	127.185	37.487	-14.743	-86.666	178.851	134.693	-87.415	-80.935	49.042	32.045	-82.666	-79.042	-77.335	-72.418	54.188	-75.138	-8191	255	
1192.280	1	1	0	0	0.10138	0.1637	0.18164	0.089576	0.1553	0.219	0.20178	0.36422	0.1908	0.12455	0.081605	0.11737	0.14415	0.19409	0.10781	0.055854	-1.5667	-2.3646	-1.8979	-2.0146	-2.1437	-1.6875	-2.4771	-2.1063	-1.8042	-2.3688	-1.8979	-2.1417	-2.3146	-1.8958	-2.2188	-2.1562	206.701	117.153	-80.813	225.193	49.149	-7.407	159.958	242.778	220.840	78.758	-87.704	133.140	-82.405	-94.058	32.229	-43.986	0.0004331	0.00078752	0.0001562	486.64	8.1621e-08	4.1681e-06	581.8	190.54	4.484e-06	3.9816e-06	257.08	119.24	90.201	43.082	1.4739e-06	60.141	0.00086672	0.00089445	0.00024735	520.48	9.6751e-06	9.7271e-06	618.52	203.9	9.7052e-06	9.718e-06	275.33	126.28	97.833	45.947	9.713e-06	63.709	119.925	-31.776	35.898	-86.552	-48.407	7.091	-87.230	-80.881	-40.582	115.318	-82.725	-79.382	-77.119	-72.345	34.171	-74.679	-8191	255	
1192.377	1	1	0	0	0.21892	0.21458	0.013796	0.029225	0.21461	0.13519	0.12376	0.034075	0.30968	0.053919	0.10737	0.12238	0.23825	0.31039	0.23306	0.38351	-1.4875	-2.1813	-1.8667	-2.0729	-2.2313	-1.6896	-2.1875	-2.2104	-1.7417	-2.2313	-2.1083	-2.0062	-2.3917	-1.9708	-2.0417	-2.3208	165.230	-29.678	109.549	179.637	201.682	56.205	93.256	-27.966	-52.383	96.742	189.757	-77.667	235.259	188.985	-0.955	112.860	0.00047346	0.0003394	0.00013218	487.74	5.7933e-06	1.8666e-06	580.67	190.53	1.8245e-06	6.8027e-06	258.61	119.05	90.338	43.128	5.0035e-06	60.308	0.00086323	0.00088927	0.00024443	520.88	9.5132e-06	9.6143e-06	617.08	203.68	9.5693e-06	9.6262e-06	275.78	126.32	97.909	45.986	9.6487e-06	63.938	142.521	-85.721	-16.100	-86.385	82.318	50.502	-87.289	-81.001	73.174	0.694	-83.082	-79.110	-77.389	-72.425	-22.195	-74.848	-8191	255	
1192.473	1	1	0	0	0.090254	0.28769	0.15607	0.10742	0.17658	0.28241	0.042007	0.43209	0.12901	0.28503	0.14207	0.18292	0.070318	0.33928	0.22332	0.15468	-1.3417	-2.2	-1.9438	-1.9438	-2.3604	-1.8521	-1.9854	-2.175	-1.8188	-2.2521	-2.0521	-1.8896	-2.2896	-1.975	-2.0667	-2.2646	159.098	-32.913	-15.593	258.916	28.406	186.484	113.536	230.618	241.872	240.505	241.201	245.714	140.274	218.344	-79.274	232.070	0.0003984	0.00037337	0.00023362	485.78	5.1916e-06	5.8465e-06	580.31	191.68	4.7477e-06	2.368e-06	260.39	120.05	89.747	43.33	1.7528e-06	60.585	0.00086955	0.00088662	0.0002452	520.94	9.6095e-06	9.6401e-06	618.32	205.03	9.573e-06	9.6739e-06	277.28	127.07	97.933	46.125	9.6035e-06	64.167	110.187	-23.928	-13.006	-86.488	90.408	-18.549	-87.364	-80.996	-51.593	158.872	-82.774	-79.058	-77.462	-72.605	64.463	-75.042	-8191	255	
1192.569	1	1	0	0	0.20873	0.25694	0.35836	0.10233	0.094994	0.034914	0.081579	0.10597	0.06161	0.23872	0.074902	0.11026	0.26238	0.28771	0.11082	0.45915	-1.5646	-2.2271	-2.0417	-1.9625	-2.2208	-1.9042	-2.1583	-2.3354	-1.8417	-2.2021	-2.1875	-2.0229	-2.3771	-2.0208	-1.9021	-2.3583	221.832	55.100	51.750	-91.968	-61.744	146.203	156.313	109.660	151.141	157.575	77.900	-9.538	27.382	-68.108	142.408	193.796	0.00051621	0.00030789	0.00029675	489.15	3.2864e-06	6.8354e-06	581.68	190.94	2.714e-06	8.4119e-06	258.27	119.42	90.112	43.208	2.5388e-06	60.39	0.00086865	0.00087894	0.00024469	522.04	9.5839e-06	9.6546e-06	620.68	204.72	9.5488e-06	9.6267e-06	276.45	126.92	97.964	46.031	9.6779e-06	64.018	128.802	-91.867	21.835	-86.519	-80.998	-14.111	-87.354	-81.113	-64.071	54.334	-82.835	-79.171	-77.479	-72.479	25.343	-75.048	-8191	255	
1192.665	1	1	0	0	0.12176	0.14244	0.28381	0.071383	0.078451	0.065731	0.046657	0.27629	0.12653	0.072805	0.30202	0.17961	0.14858	0.13704	0.24474	0.40439	-1.4083	-2.1583	-2.0646	-1.9292	-2.1458	-1.925	-2.1458	-2.45	-1.8646	-2.25	-2.1312	-1.7604	-2.4458	-2.0042	-1.8229	-2.5229	-40.494	-72.009	140.904	109.230	120.833	-38.693	213.932	-8.794	221.859	40.701	221.603	217.710	-74.304	-86.634	236.144	226.352	0.00048015	0.00060326	0.00021073	486.82	7.0938e-06	5.8525e-06	577.64	190.49	5.4289e-06	2.3461e-06	257.66	118.73	90.698	43.098	1.1156e-05	60.385	0.00086092	0.00088886	0.00024403	519.5	9.5116e-06	9.5914e-06	615.26	203.79	9.4626e-06	9.6647e-06	275.08	126.16	98.104	45.882	9.6813e-06	63.937	119.883	-19.295	7.672	-86.649	75.605	-3.921	-87.586	-81.057	-50.281	24.393	-83.114	-79.368	-77.135	-72.642	-3.760	-75.084	-8191	255	
1192.786	1	1	0	0	0.21417	0.22236	0.087957	0.33397	0.056628	0.15904	0.13059	0.20594	0.38968	0.26113	0.11455	0.19654	0.12408	0.24361	0.22054	0.10964	-1.475	-2.0792	-2.0604	-2.0542	-2.2333	-2	-1.9979	-2.3833	-1.9021	-2.0125	-2.3208	-1.7333	-2.3271	-2.1417	-1.9833	-2.4083	-30.922	89.311	69.411	249.070	146.825	-20.505	191.538	49.094	-5.701	225.476	81.812	53.041	214.848	222.908	221.081	-39.274	0.00053156	0.00061758	8.7549e-05	484.27	5.538e-06	8.7396e-06	581.38	191.21	9.0279e-07	6.5943e-06	257.47	119.49	90.616	43.276	4.8819e-06	60.777	0.00086715	0.0008838	0.0002459	518.53	9.6366e-06	9.6187e-06	616.55	203.82	9.425e-06	9.5521e-06	275.75	126.52	97.903	46.039	9.6234e-06	64.086	116.025	-21.970	-39.879	-86.391	-19.302	53.895	-87.430	-80.898	214.580	31.122	-82.854	-79.046	-77.123	-72.478	56.826	-74.711	-8191	255	
1192.882	1	1	0	0	0.1221	0.08183	0.097975	0.17104	0.13631	0.085575	0.10104	0.31348	0.063261	0.25503	0.2026	0.13001	0.03949	0.17246	0.10521	0.17105	-1.4521	-2.0187	-2.3146	-1.7	-2.3417	-2.0771	-1.8208	-2.3208	-1.875	-2.0438	-2.4083	-1.8854	-2.2354	-2.075	-1.7292	-2.4042	125.044	121.780	49.206	181.385	233.155	102.702	181.323	-98.237	-78.763	215.989	233.353	-6.810	108.799	-94.099	102.396	212.471	0.00059362	0.00096965	0.00017006	485.94	5.4612e-06	3.2589e-06	582.28	191.39	2.7271e-06	6.9799e-06	259.42	119.94	90.857	43.341	7.8723e-06	60.91	0.00085231	0.00088316	0.00024469	519.67	9.6078e-06	9.7812e-06	619.18	204.58	9.6466e-06	9.7304e-06	277.77	127.16	98.272	46.241	9.5292e-06	64.375	125.007	6.466	-33.726	-86.654	45.947	28.446	-87.320	-80.863	-0.253	63.914	-82.659	-79.185	-77.225	-72.497	20.002	-74.972	-8191	255	
1192.976	1	1	0	0	0.21952	0.30709	0.060214	0.20598	0.25871	0.21215	0.26516	0.10859	0.15654	0.15951	0.11152	0.23901	0.20854	0.20636	0.14606	0.13656	-1.6104	-1.8729	-2.3146	-1.8687	-2.175	-2.3146	-1.8813	-2.5083	-1.9604	-1.8667	-2.5146	-1.7437	-2.0583	-2.325	-1.7792	-2.3417	105.054	257.806	132.725	-51.301	-49.262	-29.582	163.564	162.969	-65.440	-26.712	136.166	71.053	-40.967	225.958	213.084	-66.399	0.00044661	0.00063634	5.2294e-05	488.34	7.7873e-07	4.391e-06	582.98	190.89	3.9159e-06	7.0447e-06	258.36	119.4	90.108	43.541	1.8371e-06	60.563	0.00086193	0.00087069	0.00024343	521.39	9.5209e-06	9.6067e-06	619.85	204.47	9.52e-06	9.5603e-06	276.72	126.83	97.992	46.205	9.5271e-06	64.128	131.794	-52.831	-10.328	-86.453	60.275	25.024	-87.541	-80.918	-30.396	3.348	-82.866	-79.167	-77.137	-72.474	146.566	-74.825	-8191	255	
1193.072	1	1	0	0	0.084384	0.0507	0.10928	0.068648	0.02406	0.10628	0.21053	0.32855	0.32496	0.038429	0.081014	0.16198	0.052743	0.2846	0.14522	0.029656	-1.5042	-1.8854	-2.4	-2.0312	-2.0354	-2.3333	-2.0604	-2.2812	-2.2812	-1.9604	-2.4125	-2.0979	-2.2458	-2.325	-1.8062	-2.4146	5.215	76.019	154.715	-76.465	92.085	36.051	258.699	164.558	188.480	105.655	151.191	112.759	-59.116	232.339	96.095	-79.951	0.00048028	0.00046478	4.891e-05	485.3	3.2994e-06	3.2814e-06	580.55	190.87	5.2117e-06	2.7801e-06	257.62	119.17	89.471	43.328	3.3662e-06	60.509	0.00084849	0.00087586	0.00024175	519.82	9.4042e-06	9.5392e-06	617.24	204.29	9.426e-06	9.5192e-06	275.37	126.29	97.499	46.184	9.4494e-06	64.029	122.997	4.284	19.580	-86.343	9.350	105.962	-87.542	-80.955	-45.731	64.186	-82.691	-79.387	-77.059	-72.428	-72.918	-75.013	-8191	255	
1193.193	1	1	0	0	0.20213	0.18752	0.093215	0.018205	0.092301	0.16571	0.27669	0.10319	0.1225	0.33424	0.25838	0.084571	0.18883	0.14803	0.13318	0.10464	-1.575	-1.8396	-2.4208	-2.0042	-2.0542	-2.2042	-2.1	-2.0354	-2.1792	-1.9562	-2.3167	-2.1792	-1.9396	-2.4417	-1.6938	-2.2208	51.247	37.745	76.206	-67.654	16.553	-95.234	191.884	135.062	-36.970	146.577	199.049	-26.582	104.365	-86.184	-14.992	10.225	0.00038956	0.00049286	0.00015024	486.99	4.34e-06	3.6199e-06	583.13	192.18	3.7812e-06	8.9634e-06	259.29	119.76	90.288	43.36	8.1528e-06	60.631	0.00085693	0.00086791	0.00024193	520.32	9.4767e-06	9.6317e-06	620.19	204.6	9.3866e-06	9.4987e-06	276.62	126.82	97.637	46.174	9.472e-06	64.156	120.852	-25.075	18.451	-86.420	6.660	-83.582	-87.349	-81.088	-78.538	2.571	-82.733	-79.066	-77.300	-72.480	69.598	-74.903	-8191	255	
1193.265	1	1	0	0	0.13375	0.2269	0.024265	0.17053	0.20351	0.2404	0.21142	0.14811	0.20058	0.069614	0.20292	0.30999	0.17732	0.18404	0.09288	0.31746	-1.8146	-1.7833	-2.1333	-2.1021	-1.9833	-2.4833	-1.8146	-2.2083	-2.3	-1.7729	-2.4333	-2.3	-1.9854	-2.6667	-1.6771	-2.1708	178.710	-19.426	125.289	115.957	246.954	-33.628	25.132	160.536	243.107	-78.225	31.701	245.008	17.232	151.514	82.244	240.344	0.00052085	0.00071836	0.0001811	488.78	4.58e-06	3.2562e-06	586.59	190.6	3.5505e-06	8.8588e-06	260.69	120.61	90.153	43.413	3.545e-06	61.174	0.00083987	0.00086416	0.00023995	521.36	9.4319e-06	9.4735e-06	622.08	204.7	9.3958e-06	9.5132e-06	278.07	127.78	98.195	46.284	9.4483e-06	64.755	128.352	-54.731	39.009	-86.202	-10.140	-53.954	-87.609	-80.902	-4.806	43.493	-82.979	-79.058	-77.359	-72.747	39.574	-74.753	-8191	255	
1193.361	1	1	0	0	0.035336	0.056751	0.36605	0.2165	0.1665	0.19454	0.095867	0.21533	0.33509	0.14785	0.26131	0.064833	0.16887	0.32761	0.12378	0.23373	-1.7583	-1.725	-2.2062	-2.1229	-2.0583	-2.4646	-2.1667	-2.3271	-2.2667	-2.0187	-2.2417	-2.3167	-1.8583	-2.4354	-2.1646	-2.1917	218.938	125.145	239.921	175.913	-16.075	147.632	123.933	251.236	182.176	65.196	86.176	178.191	-11.633	-40.930	189.937	257.559	0.00047699	0.00061393	0.00028611	490.33	2.9697e-06	6.6566e-06	586.16	191.71	4.3478e-06	4.0534e-06	260.01	120.55	90.583	43.382	1.2783e-06	61.047	0.00085059	0.00086575	0.00024101	523.53	9.3297e-06	9.4497e-06	624.27	205.04	9.4876e-06	9.5262e-06	277.51	127.61	98.21	46.244	9.5237e-06	64.547	134.573	57.871	32.441	-86.475	73.282	28.227	-87.508	-80.928	-36.554	-54.867	-82.953	-79.173	-77.414	-72.313	-40.093	-75.302	-8191	255	
#DATA ENDS
