BOXY.EXE: ISS Imagent and Oximeter Data Acquisition Program Version 0.80
Ascii Record File

#ACQ INFORMATION
2  Detector Channels 
16  External MUX Channels 
1  Auxiliary Channels 
5000  Waveform (CCF) Frequency (Hz)
1  Waveforms Skipped 
30  Waveforms Averaged 
1  Cycles Averaged 
16  Acquisitions per Waveform 
10.0806  Updata Rate (Hz) 

#FILE INFORMATION
TRUE -- External MUX Channel results are PARSED.
FALSE -- AC DC and Phase are NOT grouped.
TRUE -- Companion Program Settings File CREATED.
FALSE -- AC data not excluded
FALSE -- DC data not excluded
FALSE -- Phase data not excluded
FALSE -- Auxillary Chn. data not excluded
Tab delimiters

#CALIBRATION STATE
TRUE -- Waveform Calibration Values APPLIED.


#AUX CALIBRATION VALUES
Val Type	aux-1	

Term	1.0000e+00	
Factor	0.0000e+00	


#WF CALIBRATION VALUES
A = Detector Channel
Val Type	A-AC1	A-AC2	A-AC3	A-AC4	A-AC5	A-AC6	A-AC7	A-AC8	A-AC9	A-AC10	A-AC11	A-AC12	A-AC13	A-AC14	A-AC15	A-AC16	A-DC1	A-DC2	A-DC3	A-DC4	A-DC5	A-DC6	A-DC7	A-DC8	A-DC9	A-DC10	A-DC11	A-DC12	A-DC13	A-DC14	A-DC15	A-DC16	A-Ph1	A-Ph2	A-Ph3	A-Ph4	A-Ph5	A-Ph6	A-Ph7	A-Ph8	A-Ph9	A-Ph10	A-Ph11	A-Ph12	A-Ph13	A-Ph14	A-Ph15	A-Ph16	

Term	0.00000e+00	0.00000e+00	0.00000e+00	0.00000e+00	0.00000e+00	0.00000e+00	0.00000e+00	0.00000e+00	0.00000e+00	0.00000e+00	0.00000e+00	0.00000e+00	0.00000e+00	0.00000e+00	0.00000e+00	0.00000e+00	0.00000e+00	0.00000e+00	0.00000e+00	0.00000e+00	0.00000e+00	0.00000e+00	0.00000e+00	0.00000e+00	0.00000e+00	0.00000e+00	0.00000e+00	0.00000e+00	0.00000e+00	0.00000e+00	0.00000e+00	0.00000e+00	0.00000e+00	0.00000e+00	0.00000e+00	0.00000e+00	0.00000e+00	0.00000e+00	0.00000e+00	0.00000e+00	0.00000e+00	0.00000e+00	0.00000e+00	0.00000e+00	0.00000e+00	0.00000e+00	0.00000e+00	0.00000e+00	
Factor	1.00000e+00	1.00000e+00	1.00000e+00	1.00000e+00	1.00000e+00	1.00000e+00	1.00000e+00	1.00000e+00	1.00000e+00	1.00000e+00	1.00000e+00	1.00000e+00	1.00000e+00	1.00000e+00	1.00000e+00	1.00000e+00	1.00000e+00	1.00000e+00	1.00000e+00	1.00000e+00	1.00000e+00	1.00000e+00	1.00000e+00	1.00000e+00	1.00000e+00	1.00000e+00	1.00000e+00	1.00000e+00	1.00000e+00	1.00000e+00	1.00000e+00	1.00000e+00	X	X	X	X	X	X	X	X	X	X	X	X	X	X	X	X	

B = Detector Channel
Val Type	B-AC1	B-AC2	B-AC3	B-AC4	B-AC5	B-AC6	B-AC7	B-AC8	B-AC9	B-AC10	B-AC11	B-AC12	B-AC13	B-AC14	B-AC15	B-AC16	B-DC1	B-DC2	B-DC3	B-DC4	B-DC5	B-DC6	B-DC7	B-DC8	B-DC9	B-DC10	B-DC11	B-DC12	B-DC13	B-DC14	B-DC15	B-DC16	B-Ph1	B-Ph2	B-Ph3	B-Ph4	B-Ph5	B-Ph6	B-Ph7	B-Ph8	B-Ph9	B-Ph10	B-Ph11	B-Ph12	B-Ph13	B-Ph14	B-Ph15	B-Ph16	

Term	0.00000e+00	0.00000e+00	0.00000e+00	0.00000e+00	0.00000e+00	0.00000e+00	0.00000e+00	0.00000e+00	0.00000e+00	0.00000e+00	0.00000e+00	0.00000e+00	0.00000e+00	0.00000e+00	0.00000e+00	0.00000e+00	0.00000e+00	0.00000e+00	0.00000e+00	0.00000e+00	0.00000e+00	0.00000e+00	0.00000e+00	0.00000e+00	0.00000e+00	0.00000e+00	0.00000e+00	0.00000e+00	0.00000e+00	0.00000e+00	0.00000e+00	0.00000e+00	-1.94344e+02	-1.48674e+02	-1.07227e+02	-1.84987e+02	-9.08407e+01	-7.85829e+01	-1.57988e+02	-1.62015e+02	-1.11268e+02	-7.23283e+01	-1.72886e+02	-1.71881e+02	-1.86190e+02	-1.78141e+02	-8.04851e+01	-1.51352e+02	
Factor	3.67444e-05	1.62840e-04	4.87540e-05	1.57284e-01	1.62940e-06	1.66336e-06	1.76798e-01	5.88739e-02	1.65447e-06	1.74198e-06	9.00523e-02	2.90411e-02	3.90052e-02	9.40174e-03	1.81285e-06	1.35102e-02	2.66912e-06	2.86867e-06	7.96089e-07	8.04055e-02	3.10196e-08	3.14591e-08	8.49095e-02	3.00481e-02	3.10529e-08	3.13860e-08	4.43970e-02	1.43626e-02	1.94229e-02	4.81836e-03	3.11608e-08	6.69425e-03	X	X	X	X	X	X	X	X	X	X	X	X	X	X	X	X	



#DISTANCE SETTINGS
A = Detector Channel
A-1	A-2	A-3	A-4	A-5	A-6	A-7	A-8	A-9	A-10	A-11	A-12	A-13	A-14	A-15	A-16	

2.5000e+00	3.0000e+00	2.5000e+00	3.0000e+00	2.0000e+00	3.0000e+00	1.5000e+00	3.0000e+00	3.0000e+00	3.0000e+00	3.0000e+00	3.0000e+00	3.0000e+00	3.0000e+00	1.5000e+00	3.0000e+00	

B = Detector Channel
B-1	B-2	B-3	B-4	B-5	B-6	B-7	B-8	B-9	B-10	B-11	B-12	B-13	B-14	B-15	B-16	

1.0000e+01	1.0000e+01	1.0000e+01	1.4400e+00	1.0000e+01	1.0000e+01	1.5100e+00	1.9400e+00	1.0000e+01	1.0000e+01	1.9900e+00	2.4900e+00	2.4100e+00	2.9000e+00	1.0000e+01	2.9800e+00	




#DATA BEGINS
time	group	step	mark	flag	A-AC1	A-AC2	A-AC3	A-AC4	A-AC5	A-AC6	A-AC7	A-AC8	A-AC9	A-AC10	A-AC11	A-AC12	A-AC13	A-AC14	A-AC15	A-AC16	A-DC1	A-DC2	A-DC3	A-DC4	A-DC5	A-DC6	A-DC7	A-DC8	A-DC9	A-DC10	A-DC11	A-DC12	A-DC13	A-DC14	A-DC15	A-DC16	A-Ph1	A-Ph2	A-Ph3	A-Ph4	A-Ph5	A-Ph6	A-Ph7	A-Ph8	A-Ph9	A-Ph10	A-Ph11	A-Ph12	A-Ph13	A-Ph14	A-Ph15	A-Ph16	B-AC1	B-AC2	B-AC3	B-AC4	B-AC5	B-AC6	B-AC7	B-AC8	B-AC9	B-AC10	B-AC11	B-AC12	B-AC13	B-AC14	B-AC15	B-AC16	B-DC1	B-DC2	B-DC3	B-DC4	B-DC5	B-DC6	B-DC7	B-DC8	B-DC9	B-DC10	B-DC11	B-DC12	B-DC13	B-DC14	B-DC15	B-DC16	B-Ph1	B-Ph2	B-Ph3	B-Ph4	B-Ph5	B-Ph6	B-Ph7	B-Ph8	B-Ph9	B-Ph10	B-Ph11	B-Ph12	B-Ph13	B-Ph14	B-Ph15	B-Ph16	aux-1	digaux	

1248.222	1	1	0	512	0.15165	0.31417	0.25256	0.18772	0.22979	0.2419	0.12543	0.41785	0.10707	0.080724	0.12516	0.35278	0.14446	0.23779	0.28262	0.33618	-1.5938	-2.2375	-1.825	-2.2604	-2.2333	-1.7833	-2.4917	-2.1479	-1.8979	-2.4667	-1.8646	-2.4229	-2.2729	-2.075	-2.0854	-2.2396	116.210	180.160	-1.485	-9.462	221.262	226.017	-51.557	208.467	71.034	15.215	126.648	229.369	259.345	151.797	31.159	228.047	0.00060436	0.00054744	0.00024169	713.25	4.0772e-06	1.1316e-05	861.73	311.11	9.7691e-06	1.7254e-05	407.81	190.9	138.6	78.251	1.5695e-05	115.18	0.0036022	0.0038317	0.0010678	810.76	4.1465e-05	4.2029e-05	961.69	346.98	4.1139e-05	4.1528e-05	459.84	208.77	162.3	84.04	4.1121e-05	123.21	120.671	-13.860	-9.360	-77.197	86.170	195.051	-77.694	-72.641	27.066	27.578	-73.849	-70.283	-68.880	-64.168	46.012	-66.526	-8191	255	
1248.317	1	1	0	0	0.1724	0.20808	0.12122	0.37143	0.23116	0.15039	0.18294	0.20297	0.17367	0.10638	0.22624	0.31962	0.22346	0.21627	0.040576	0.25168	-1.425	-2.2979	-1.7687	-2.0917	-2.2458	-1.7604	-2.35	-2.1646	-1.9521	-2.3125	-2.0646	-2.0542	-2.4458	-1.9229	-2.2771	-2.4146	22.849	-61.015	228.870	-72.878	116.122	-5.009	187.892	-44.808	205.899	198.321	266.071	243.432	234.273	243.234	71.950	191.279	0.00089694	0.00090988	0.00028905	708.9	1.5084e-05	1.0144e-05	847.34	307.04	1.2586e-05	1.1379e-05	403.02	189.12	137.42	77.498	1.3039e-05	113.88	0.0036049	0.0038369	0.0010692	806.05	4.1474e-05	4.2335e-05	953.14	343.83	4.1523e-05	4.1964e-05	456.48	206.77	161.51	83.621	4.1243e-05	122.04	110.728	87.841	76.930	-77.315	33.974	102.793	-77.837	-72.971	28.025	-22.202	-74.024	-70.336	-68.872	-64.436	-14.767	-66.444	-8191	255	
1248.437	1	1	0	0	0.12693	0.1913	0.20662	0.21354	0.28301	0.15549	0.1479	0.089776	0.12651	0.1139	0.27984	0.027695	0.23649	0.23105	0.23507	0.23663	-1.3708	-2.4188	-1.9979	-2.1375	-2.4688	-1.9438	-2.5417	-2.4646	-1.8792	-2.5062	-2.1479	-2.0438	-2.3542	-1.95	-2.2646	-2.6125	114.203	111.842	249.533	3.250	51.428	-25.483	-88.236	-6.453	253.082	163.171	137.945	243.716	203.607	211.666	109.812	187.221	0.00076765	0.0015854	0.00045196	705.35	6.2802e-07	1.0681e-05	849.51	305.4	2.8768e-06	6.9606e-06	402.62	188.03	137.48	77.335	1.0641e-05	114.4	0.0035876	0.0038026	0.0010508	802.51	4.0661e-05	4.1045e-05	950.17	340.33	4.0565e-05	4.1305e-05	454.55	205.44	161.04	83.544	4.112e-05	122.31	110.924	10.546	40.328	-77.564	-27.198	8.766	-77.478	-72.667	-54.783	222.002	-73.866	-70.459	-68.834	-64.203	2.839	-66.378	-8191	255	
1248.534	1	1	0	0	0.027222	0.12886	0.23762	0.14254	0.27002	0.38041	0.42885	0.33074	0.12128	0.12264	0.11425	0.080489	0.35195	0.22776	0.23187	0.22196	-1.4438	-2.2042	-1.9604	-1.9646	-2.4938	-1.9083	-2.1854	-2.45	-1.9562	-2.3042	-2.1021	-2.0812	-2.5042	-2.3312	-2.3479	-2.5917	26.534	-53.022	-65.708	163.450	171.052	148.296	161.158	109.476	265.998	-53.259	16.932	169.380	268.614	-72.592	-43.316	262.716	0.00078133	0.0013897	0.00018907	708.73	1.1706e-05	5.0628e-06	850.73	303.75	9.7087e-06	9.1718e-06	405.62	188.41	137.24	77.448	1.6178e-05	114.33	0.0036091	0.0037862	0.0010573	803.24	4.1167e-05	4.1567e-05	953.19	340.2	4.0765e-05	4.0954e-05	455.91	206.19	160.4	83.504	4.0426e-05	122.15	107.942	-27.190	186.451	-77.451	121.733	258.422	-77.825	-72.954	22.425	211.800	-74.113	-70.418	-68.855	-64.326	56.580	-66.462	-8191	255	
1248.630	1	1	0	0	0.063373	0.18241	0.22927	0.14369	0.27707	0.096524	0.28379	0.18274	0.1048	0.2127	0.10801	0.1475	0.08275	0.1495	0.11666	0.24705	-1.3937	-2.0542	-2.0833	-1.9833	-2.4604	-2.05	-2.325	-2.4188	-1.8625	-2.2229	-2.5187	-2.0979	-2.4271	-2.2396	-2.1479	-2.5833	227.148	210.780	119.809	-45.136	-29.652	-16.836	29.467	154.137	133.431	147.827	149.377	-82.313	206.746	262.001	110.043	165.664	0.00078016	0.001186	0.00044238	711.62	5.3969e-06	1.473e-05	855.2	303.8	1.476e-05	1.3237e-05	405.37	188.97	136.9	77.386	7.9371e-06	114.23	0.0035215	0.0037419	0.0010377	803.13	4.0503e-05	4.1115e-05	955.35	339.55	4.0669e-05	4.1231e-05	457.02	206.21	160.24	83.383	4.0849e-05	121.78	105.960	-12.181	132.920	-77.385	-50.240	28.934	-77.769	-72.764	-43.173	95.916	-73.826	-70.344	-69.381	-64.200	247.077	-66.459	-8191	255	
1248.726	1	1	0	0	0.14117	0.28463	0.066404	0.19665	0.25733	0.20616	0.053631	0.14027	0.090722	0.13592	0.17125	0.20971	0.14079	0.21025	0.13908	0.17385	-1.6646	-2.3708	-2.1458	-1.9354	-2.3021	-2.3479	-2.0854	-2.5125	-1.8	-2.3333	-2.475	-1.6854	-2.4771	-2.3708	-1.8188	-2.6562	28.954	167.840	106.246	106.359	98.171	227.686	-37.605	58.898	41.944	-13.158	78.577	235.168	-45.067	262.311	-66.735	163.821	0.00085053	0.0014859	0.00023941	706.63	1.5116e-05	6.7264e-06	844.7	300.71	1.0029e-05	7.6854e-06	399.75	187.54	136.39	76.993	1.1737e-05	113.47	0.0035712	0.0037511	0.0010404	799.86	4.0364e-05	4.0936e-05	946.7	336.32	4.0227e-05	4.0744e-05	451.18	204.21	159.25	82.958	4.0368e-05	121.08	111.382	-66.107	25.461	-76.876	31.258	100.933	-77.829	-72.585	-6.218	161.998	-74.145	-70.450	-69.167	-64.603	61.202	-66.343	-8191	255	
1248.846	1	1	0	0	0.11147	0.16618	0.069852	0.15003	0.25785	0.23499	0.23522	0.21046	0.13235	0.28936	0.22714	0.28333	0.092034	0.20046	0.11489	0.11114	-1.625	-2.0521	-2.2917	-1.8896	-2.3063	-2.1458	-2.1042	-2.5854	-1.9667	-2.0812	-2.4437	-1.975	-2.2396	-2.3083	-2.0167	-2.5438	113.792	-16.542	170.948	197.781	158.262	263.574	265.580	257.975	127.697	49.328	145.841	256.807	258.548	185.843	62.113	-71.930	0.00095934	0.00044054	0.00019872	704.97	1.8668e-06	1.6742e-05	847.45	299.74	7.2762e-06	1.3543e-05	402.28	187.74	136.29	76.941	1.2012e-05	113.76	0.0035382	0.0037339	0.001031	799.37	4.0048e-05	4.0632e-05	945.49	335.38	4.0001e-05	4.0402e-05	452.01	204.16	158.85	82.911	3.9507e-05	121.21	114.099	-19.893	-17.472	-77.226	179.981	30.237	-77.991	-72.562	98.205	33.927	-74.196	-70.321	-69.132	-64.251	-26.680	-66.553	-8191	255	
1248.918	1	1	0	0	0.15849	0.07003	0.17317	0.32956	0.057053	0.31643	0.094352	0.50455	0.17625	0.11575	0.16664	0.29737	0.13625	0.33347	0.066338	0.35325	-1.5271	-1.8896	-2.325	-1.9292	-2.0708	-2.2583	-2.1083	-2.3854	-2.1396	-1.8979	-2.3333	-1.7938	-2.2229	-2.3667	-1.8208	-2.6125	164.024	-2.154	51.503	-90.336	74.503	264.757	-85.876	179.682	103.675	243.930	229.337	-33.649	244.306	195.039	36.056	173.091	0.00085037	0.00090169	0.00012375	703.02	9.7544e-06	1.0183e-05	847.99	300.38	2.7749e-06	4.7318e-06	403.59	188.98	136.98	77.106	6.9464e-06	114.05	0.0034631	0.0036305	0.0010092	796.2	3.9269e-05	3.9732e-05	944.03	333.94	3.923e-05	3.9711e-05	452.77	204.94	159.31	83.076	3.978e-05	121.9	106.469	6.598	-12.313	-77.120	27.425	54.040	-77.888	-72.571	36.698	-45.724	-73.725	-70.514	-69.110	-64.491	141.276	-66.499	-8191	255	
1249.014	1	1	0	0	0.069436	0.15018	0.22154	0.12762	0.079886	0.14131	0.22726	0.14416	0.47406	0.33915	0.33518	0.13071	0.28485	0.27468	0.19993	0.38891	-1.6417	-1.9542	-2.2792	-1.8104	-2.4375	-2.2542	-1.9354	-2.4417	-1.8979	-1.8625	-2.4521	-2.2562	-2.2458	-2.3937	-1.8708	-2.2792	120.564	257.807	124.249	191.482	-7.640	127.735	124.440	219.800	-83.635	75.855	233.155	213.827	-67.135	250.849	46.964	-89.675	0.00088919	0.0016439	0.00018739	703.71	5.4372e-06	5.5478e-06	848.1	298.7	1.2751e-05	8.7739e-06	403.37	189.18	136.99	77.449	3.8971e-06	114.39	0.0034683	0.0036618	0.0010154	797.47	3.9364e-05	3.9871e-05	945.15	333.79	3.9138e-05	3.9457e-05	452.07	205.13	159.04	83.274	3.9417e-05	121.57	128.695	-42.235	13.467	-77.123	102.473	63.811	-77.939	-72.811	137.974	-76.164	-73.978	-70.442	-69.053	-64.386	-85.687	-66.429	-8191	255	
1249.110	1	1	0	0	0.081961	0.17834	0.16009	0.13104	0.073855	0.21396	0.3624	0.2358	0.40651	0.15429	0.12911	0.27386	0.14317	0.23852	0.1375	0.30127	-1.8292	-1.8667	-2.4	-2.1479	-1.9292	-2.4667	-2.1042	-2.2417	-2.1604	-1.7396	-2.3833	-2.2438	-2.0583	-2.5021	-1.9479	-2.5292	139.047	55.565	-37.273	263.199	102.635	106.413	157.574	223.906	147.820	63.043	-63.367	-48.585	232.486	253.210	138.065	154.320	0.00089192	0.0012728	0.00035512	706.41	1.5095e-05	2.2412e-06	845.37	294.96	2.2183e-05	1.6742e-05	398.23	185.67	135.01	76.374	8.9413e-06	111.05	0.0034151	0.0036164	0.001002	795.97	3.902e-05	3.9422e-05	937.7	328.35	3.8679e-05	3.887e-05	445.64	201.45	156.49	81.863	3.7907e-05	118.47	117.610	61.179	25.854	-77.222	12.558	64.210	-77.764	-72.653	-27.698	57.290	-73.817	-70.680	-69.104	-64.244	81.728	-66.670	-8191	255	
1249.229	1	1	0	0	0.13857	0.03707	0.044116	0.1082	0.38168	0.26898	0.35262	0.12012	0.12568	0.24456	0.048787	0.45417	0.091743	0.24679	0.10465	0.27508	-1.8896	-1.7896	-2.35	-2.1312	-1.9562	-2.4104	-2.0667	-2.5417	-2.1813	-1.9312	-2.4604	-2.2188	-2.1104	-2.3646	-1.9896	-2.5625	-1.818	-8.240	199.368	247.336	96.662	235.218	193.970	85.382	147.290	122.428	-34.044	220.772	0.132	-88.162	216.714	194.742	0.00053961	0.00085317	0.00035984	697.29	6.0799e-06	1.0987e-05	828.98	284.56	1.1916e-05	1.1848e-05	390.78	182.81	131.88	75.025	1.2419e-05	109.73	0.0033027	0.0034768	0.00096799	784.92	3.7413e-05	3.7863e-05	920.09	316.62	3.7019e-05	3.726e-05	436.11	198.19	152.46	80.174	3.6211e-05	117.12	122.672	20.940	10.640	-77.240	109.388	92.444	-77.890	-72.620	17.912	20.434	-73.837	-70.359	-69.002	-64.530	190.180	-66.394	-8191	255	
1249.325	1	1	0	0	0.087885	0.29957	0.16718	0.16248	0.087001	0.10875	0.13694	0.27792	0.10845	0.12457	0.224	0.27139	0.18407	0.33374	0.4564	0.37205	-1.7812	-1.9146	-2.0729	-2.1896	-1.9896	-2.3417	-2.0125	-2.3271	-2.3292	-1.8563	-2.2562	-2.2646	-2.0812	-2.6396	-1.925	-2.3	3.590	-17.463	261.081	59.038	29.939	80.603	211.210	176.296	4.730	266.479	219.341	225.462	-79.306	199.811	54.164	215.933	0.00049002	6.3203e-05	0.000384	697.9	1.794e-05	1.2523e-05	835.93	287.71	7.786e-06	1.3377e-05	392.32	185.43	132.19	74.787	4.2037e-06	110.24	0.0031606	0.003362	0.00093399	781.23	3.6477e-05	3.7115e-05	925.35	318.26	3.6603e-05	3.6907e-05	438.72	200.33	153.18	80.161	3.5903e-05	117.27	92.184	102.824	67.139	-77.211	44.108	221.964	-77.662	-72.406	-67.409	61.699	-73.927	-70.394	-69.291	-64.523	6.319	-66.330	-8191	255	
1249.422	1	1	0	0	0.11053	0.33278	0.15804	0.25499	0.18981	0.22174	0.18384	0.18479	0.12223	0.26911	0.15795	0.18855	0.22343	0.15805	0.16015	0.17957	-2.1188	-1.8125	-2.2208	-2.1354	-1.8208	-2.35	-2.1542	-2.1521	-2.2646	-1.8375	-2.4833	-2.1542	-1.9	-2.4771	-2.0687	-2.1958	44.128	6.897	3.608	-84.785	-65.809	8.488	213.116	148.286	-58.193	51.509	-71.826	-43.342	-59.187	-53.195	207.467	247.236	0.00067552	0.00035471	0.00045719	689.43	5.1062e-06	3.5347e-06	816.38	271.98	6.9062e-06	1.9616e-05	382.18	180.2	130.12	73.577	8.5856e-06	109.36	0.0031287	0.0032477	0.00089989	769.73	3.4516e-05	3.493e-05	900.68	301.3	3.4248e-05	3.47e-05	423.98	194.47	149.24	78.619	3.5433e-05	115.92	100.181	260.483	67.542	-76.972	98.965	-48.540	-78.035	-72.266	-56.634	20.702	-73.832	-70.297	-69.435	-64.290	54.475	-66.420	-8191	255	
1249.518	1	1	0	0	0.13182	0.23429	0.08992	0.33488	0.24118	0.22556	0.25805	0.13447	0.094815	0.14614	0.17602	0.51884	0.06507	0.39544	0.23157	0.29793	-1.9479	-1.8604	-2.15	-2.3521	-1.6458	-2.2271	-2.0938	-2.1437	-2.2958	-1.8042	-2.1188	-2.4104	-1.7854	-2.2229	-2.0125	-2.2521	129.594	126.462	28.782	188.750	138.618	-32.109	268.029	151.231	186.440	176.013	188.419	213.793	0.696	246.682	9.433	162.452	0.00076075	0.00093298	0.00016462	690.44	7.4309e-06	8.2034e-06	825.35	277.04	9.3724e-06	1.2472e-05	383.04	179.77	128.5	72.982	5.1164e-06	108.14	0.0031366	0.0033113	0.00091668	775.37	3.5734e-05	3.619e-05	910.42	308.37	3.4895e-05	3.5207e-05	426.37	194.18	148.58	78.043	3.4773e-05	114.68	121.313	42.754	95.213	-77.068	71.849	97.008	-77.944	-72.540	-19.739	112.257	-74.110	-70.436	-69.105	-64.402	252.891	-66.467	-8191	255	
1249.614	1	1	0	0	0.19217	0.31678	0.13676	0.23576	0.2876	0.13093	0.34856	0.16024	0.12101	0.23996	0.17371	0.15033	0.13365	0.13438	0.22507	0.27023	-1.8	-1.9729	-2.1375	-2.3729	-1.8021	-2.2646	-2.2562	-2.0979	-2.3958	-2.1833	-2.2333	-2.4271	-1.9021	-2.3312	-2.1937	-2.175	269.432	35.825	-7.550	258.649	66.370	53.890	224.278	147.365	119.842	78.842	254.665	219.209	241.303	175.131	-16.706	-70.748	0.00086024	0.0011964	0.00024748	694.44	1.0743e-05	2.6772e-06	835.67	284.64	1.2022e-05	1.4462e-05	397.62	187.2	134.88	76.764	1.5225e-05	112.41	0.0030945	0.003257	0.00091352	775.77	3.5666e-05	3.635e-05	922.62	316.29	3.645e-05	3.702e-05	443.12	202.73	156.16	82.281	3.6382e-05	119.59	122.804	-35.334	-0.974	-77.293	42.971	-69.225	-77.756	-72.451	-67.902	22.297	-73.896	-70.568	-69.124	-64.522	91.550	-66.475	-8191	255	
1249.710	1	1	0	0	0.1561	0.19284	0.095861	0.17076	0.163	0.2363	0.011419	0.33119	0.31105	0.16274	0.1695	0.26499	0.18876	0.32493	0.22233	0.13907	-2.0667	-1.9062	-1.8667	-2.3708	-1.8646	-2.2292	-2.4792	-1.9625	-2.3063	-2.0312	-2.1917	-2.4854	-2.0792	-2.1917	-2.3063	-1.9458	170.541	227.932	109.151	-75.144	223.861	134.245	12.993	179.890	62.454	-75.101	160.327	190.737	1.033	-88.297	215.632	-76.729	0.00072829	0.00046528	0.00028418	705.77	1.1946e-05	1.2411e-05	848.42	291.9	1.2452e-05	6.6378e-06	404.01	190.38	137.28	77.774	1.3996e-05	115.07	0.0031317	0.0032668	0.00090448	785.89	3.5506e-05	3.6146e-05	937.55	322.71	3.6321e-05	3.6865e-05	449.69	205.59	158.45	83.456	3.7493e-05	122.33	108.811	10.464	-42.461	-77.378	54.175	14.010	-77.968	-72.399	101.609	72.341	-74.144	-70.390	-69.201	-64.380	14.208	-66.346	-8191	255	
1249.831	1	1	0	0	0.18252	0.19244	0.21273	0.22364	0.14307	0.0521	0.063094	0.25351	0.12628	0.18965	0.043996	0.11954	0.15962	0.30239	0.28859	0.33138	-1.8458	-1.9542	-1.7729	-2.4729	-1.8167	-2.2042	-2.3583	-1.8875	-2.1958	-2.1021	-1.9375	-2.5979	-2.1208	-2.3896	-2.3021	-2.0438	-26.362	186.838	61.649	223.238	-80.656	130.258	158.478	236.608	-25.937	262.809	212.095	265.474	227.765	-56.089	202.934	195.985	0.00081577	0.00072714	0.0002929	711.28	1.5325e-05	4.5489e-06	862.12	302.57	1.1169e-05	5.5995e-06	409.65	193.42	140.28	79.444	5.2928e-06	116.41	0.0032917	0.0034537	0.00096353	796.14	3.7255e-05	3.7796e-05	951.21	334.19	3.7215e-05	3.7645e-05	457.37	209.32	161.26	85	3.7875e-05	123.74	113.442	-54.303	47.163	-77.192	36.765	42.172	-77.809	-72.527	7.083	-13.986	-74.034	-70.459	-69.109	-64.573	121.866	-66.682	-8191	255	
1249.927	1	1	0	0	0.20533	0.084032	0.098395	0.14004	0.30863	0.02965	0.039762	0.10321	0.13025	0.062163	0.3355	0.44553	0.068571	0.14987	0.026929	0.42302	-1.9333	-2.1188	-1.7062	-2.6875	-2.0229	-2.2625	-2.4562	-2.0187	-2.2938	-2.4625	-2.0021	-2.575	-2.0438	-2.2188	-2.1	-2.1896	15.305	167.222	-43.708	-65.591	-53.464	156.202	-66.379	244.206	225.136	-83.294	149.609	236.652	-81.720	210.355	230.762	230.629	0.0010818	0.00096299	0.00033145	712.84	1.0817e-05	9.9456e-06	864.95	310.54	1.4915e-05	1.5194e-05	418.62	195.81	140.57	79.554	2.7541e-06	116.98	0.0033452	0.0035184	0.00098576	801.29	3.846e-05	3.9071e-05	961.47	344.88	3.8994e-05	3.9471e-05	465.77	211.89	163.58	85.43	3.978e-05	124.51	119.262	-73.986	90.004	-77.111	224.185	38.921	-77.938	-72.615	-69.187	43.525	-74.040	-70.580	-69.266	-64.293	249.606	-66.638	-8191	255	
1250.023	1	1	0	0	0.25247	0.2507	0.15326	0.22825	0.099912	0.063864	0.25934	0.2678	0.11925	0.14847	0.21945	0.2686	0.48878	0.25858	0.054234	0.15423	-1.8375	-2.1875	-1.7833	-2.5042	-2.1333	-2.0062	-2.6437	-2.0917	-2.1979	-2.2875	-2.0812	-2.4958	-2.0833	-2.2438	-2.4521	-2.2771	143.618	80.833	74.659	-8.361	97.467	-80.402	-77.888	106.845	-19.262	86.836	-57.859	254.465	206.313	217.154	257.921	-83.042	0.0010625	0.0012238	0.00055769	710.78	9.8058e-06	1.0783e-05	868.6	318.02	4.7531e-06	3.037e-06	420.03	199.18	142.94	79.368	7.071e-06	117.96	0.0034824	0.0036893	0.0010278	802.17	4.0026e-05	4.0463e-05	968.16	353.07	4.0102e-05	4.0481e-05	470.16	215.85	165.68	85.276	4.0204e-05	125.7	124.095	-83.229	47.244	-77.145	48.705	79.106	-77.855	-72.920	105.884	77.753	-73.909	-70.550	-69.252	-64.313	-48.654	-66.332	-8191	255	
1250.119	1	1	0	0	0.18811	0.24842	0.21553	0.25046	0.1875	0.18471	0.19902	0.23386	0.19387	0.14042	0.14175	0.20246	0.27641	0.19221	0.077637	0.43608	-1.8396	-2.4813	-1.9	-2.5271	-2.1437	-1.9562	-2.6521	-2.2333	-2.1063	-2.2208	-1.9417	-2.3604	-2.2687	-2.0479	-2.3458	-2.3688	226.089	128.232	111.465	240.651	185.746	127.012	229.792	-71.140	244.083	-51.298	-32.629	172.546	241.957	243.766	80.854	263.365	0.00054999	0.00034684	0.00020897	706.8	1.4325e-05	6.4039e-06	874.23	321.57	1.0954e-05	8.2562e-06	423.74	201.16	144.12	79.614	1.2371e-05	118.14	0.0035409	0.0037181	0.0010343	801.25	4.0472e-05	4.1227e-05	972.66	357.1	4.069e-05	4.1061e-05	474.02	218.45	167.62	85.616	4.1082e-05	126.28	105.661	98.373	-63.489	-76.882	59.991	-22.707	-77.702	-72.865	-32.756	-52.962	-74.095	-70.568	-69.432	-64.275	196.040	-66.499	-8191	255	
1250.214	1	1	0	0	0.05126	0.19046	0.14911	0.15278	0.11124	0.12074	0.17906	0.25855	0.092625	0.17724	0.096302	0.17566	0.33545	0.24407	0.17456	0.37401	-1.7563	-2.3146	-1.8292	-2.425	-2.1333	-1.9354	-2.5771	-2.0417	-2.0958	-2.2083	-1.9229	-2.2229	-2.2083	-2.0896	-2.2958	-2.4417	118.275	-2.607	-1.689	254.593	-55.635	-10.189	205.219	183.713	33.428	96.707	213.838	-84.002	-90.984	-53.678	196.140	182.613	0.00087632	0.00088517	6.6849e-05	705.5	1.4713e-05	1.4998e-05	868.44	320.9	9.3684e-06	3.7376e-06	419.16	199.49	144.27	78.92	1.3613e-05	116.98	0.0036036	0.003796	0.0010621	802.84	4.1357e-05	4.1968e-05	969.71	357.29	4.1475e-05	4.1636e-05	471.15	217.81	167.54	85.024	4.1196e-05	124.95	112.868	-26.157	-43.109	-77.209	36.844	45.966	-77.537	-73.148	-57.342	-2.459	-74.247	-70.725	-69.389	-64.368	47.338	-66.427	-8191	255	
1250.310	1	1	0	0	0.037861	0.14654	0.10973	0.15798	0.13555	0.14245	0.23039	0.12859	0.052352	0.095847	0.011566	0.43141	0.22594	0.29828	0.13845	0.24627	-1.7062	-2.4437	-1.9625	-2.2229	-2.3979	-1.8479	-2.4104	-2.1688	-1.9	-2.5312	-2.05	-2.2854	-2.4938	-2.0521	-2.3187	-2.2646	172.951	155.126	30.024	168.140	217.871	36.254	-77.490	252.657	41.650	64.197	160.606	205.608	243.232	247.185	-14.222	191.538	0.00085985	0.00049608	0.00052499	706.48	3.0998e-06	1.3187e-05	868.26	322.45	1.4092e-05	7.5952e-06	421.13	201.96	145.72	78.632	1.4281e-05	117.7	0.0036016	0.0038031	0.0010555	800.52	4.1422e-05	4.2093e-05	969.71	357.85	4.1585e-05	4.2189e-05	471.98	219.53	169.29	85.129	4.2006e-05	125.61	118.381	-22.999	-27.160	-76.863	85.214	33.736	-77.890	-73.164	37.135	74.941	-73.993	-70.656	-69.493	-64.256	34.007	-66.487	-8191	255	
1250.406	1	1	0	0	0.1381	0.33449	0.066503	0.26005	0.091027	0.084984	0.22739	0.11075	0.19174	0.16263	0.31755	0.32577	0.23399	0.30355	0.061745	0.17772	-1.5667	-2.3688	-1.8604	-2.0438	-2.3812	-1.9229	-2.3063	-2.1437	-1.8188	-2.4292	-2.3125	-2.1604	-2.4583	-2.0875	-1.9208	-2.4292	-18.317	91.508	184.024	241.935	38.669	-8.789	39.356	149.501	250.994	40.720	251.663	268.783	221.463	261.332	-82.300	262.405	0.00083947	0.00090458	0.00040867	699.04	7.785e-06	2.8727e-06	870.17	321.87	4.8227e-06	1.1152e-05	421.59	203.85	145.74	79.002	1.2577e-06	117.62	0.0036885	0.0039056	0.001087	802.3	4.2539e-05	4.3223e-05	976.86	359.45	4.2445e-05	4.2747e-05	475	221.21	169.78	85.389	4.2025e-05	125.86	136.124	-71.275	6.124	-77.313	-80.103	-30.923	-77.832	-73.087	141.956	128.886	-74.194	-70.488	-69.359	-64.272	-60.640	-66.503	-8191	255	
1250.526	1	1	0	0	0.098171	0.15195	0.08752	0.068411	0.002578	0.016644	0.38864	0.26148	0.29673	0.13335	0.25347	0.1702	0.1424	0.2275	0.096173	0.15687	-1.3583	-2.4208	-1.8625	-1.8813	-2.3646	-1.8479	-2.3667	-2.4458	-1.8	-2.4479	-2.3125	-2.1562	-2.3875	-2.0958	-2.2562	-2.6292	10.468	105.182	65.522	178.002	245.342	-76.033	168.956	256.017	96.734	-75.614	77.927	-41.421	211.292	223.304	86.073	-61.701	0.00087044	0.00069953	0.00013403	701.92	3.6394e-06	1.3717e-05	871.76	324.47	7.807e-06	1.1746e-05	425.25	204.72	147.38	79.555	9.5086e-06	118.22	0.0036833	0.0038691	0.0010752	803.1	4.224e-05	4.3032e-05	980.25	360.72	4.2729e-05	4.3172e-05	478.39	223.01	171.11	85.842	4.2764e-05	126.67	119.113	-63.764	-4.617	-77.185	264.734	-57.634	-77.526	-73.094	18.886	35.212	-74.276	-70.580	-69.138	-64.258	67.048	-66.542	-8191	255	
1250.623	1	1	0	0	0.12376	0.12499	0.12262	0.18361	0.20233	0.15972	0.29995	0.054021	0.19979	0.15331	0.15787	0.20021	0.33311	0.23714	0.01184	0.21875	-1.1979	-2.3	-2.2396	-1.8333	-2.3271	-2.0104	-2.1354	-2.5083	-1.7354	-2.3583	-2.1562	-2.2604	-2.5854	-2.0417	-2.1292	-2.4375	12.442	220.339	145.749	-34.136	77.287	124.623	-78.504	140.920	120.544	232.109	160.110	222.344	207.767	244.237	-11.890	207.576	0.0006008	0.00054292	0.00037217	706.29	1.1043e-05	7.8988e-06	874.82	321.49	1.1071e-05	1.9774e-06	421.19	203.98	146.75	78.951	7.5062e-06	117.05	0.0037104	0.00392	0.0010846	805.07	4.245e-05	4.2809e-05	978.72	359.09	4.2502e-05	4.2853e-05	474.03	221.7	171.17	85.519	4.314e-05	125.66	110.964	-31.628	70.724	-77.085	58.847	-26.686	-77.445	-72.962	-16.983	238.860	-74.255	-70.613	-69.337	-64.404	66.392	-66.568	-8191	255	
1250.719	1	1	0	0	0.34814	0.12216	0.33248	0.08868	0.13586	0.12946	0.31512	0.1793	0.18802	0.073617	0.25042	0.21803	0.13625	0.16639	0.17631	0.23036	-1.4021	-2.2479	-1.9625	-2.0667	-2.4021	-1.7896	-2.1833	-2.3667	-1.8125	-2.3896	-2.2833	-1.9625	-2.4042	-2.2167	-1.9562	-2.675	196.604	265.417	109.048	-58.429	222.890	-2.371	189.623	73.298	228.145	200.203	181.864	-1.125	229.225	178.112	86.285	174.804	0.00078329	0.0012489	0.00016689	706.31	7.1385e-06	1.26e-05	874.61	321.34	5.7133e-06	7.3669e-06	422	204.82	147.06	79.161	1.4088e-05	117.38	0.0037423	0.0039773	0.0011105	805.2	4.3003e-05	4.3677e-05	980.37	359.62	4.3187e-05	4.3902e-05	475.45	222.82	171.91	85.601	4.4168e-05	126.13	112.854	36.351	-25.985	-77.172	68.098	125.017	-77.696	-72.913	-11.209	41.141	-74.158	-70.736	-69.313	-64.258	5.932	-66.615	-8191	255	
1250.790	1	1	0	0	0.053216	0.26203	0.12223	0.20976	0.084467	0.10158	0.32809	0.1831	0.25167	0.25319	0.12767	0.46838	0.14307	0.26517	0.063937	0.36932	-1.3271	-2.2833	-2.25	-2.0187	-2.2	-2.2	-1.9146	-2.5646	-1.9208	-2.1125	-2.4208	-1.9896	-2.3104	-2.2938	-2.0917	-2.8292	52.884	-2.001	135.664	254.303	33.140	49.820	223.661	130.131	166.959	-47.620	194.875	-84.762	209.959	195.962	114.080	203.730	0.0010435	0.00070015	0.00029459	704.47	8.135e-06	6.073e-06	871.63	319.37	2.7139e-06	1.3855e-05	420.04	206.97	148.09	79.213	1.7473e-05	117.79	0.0038286	0.0040726	0.0011313	808.37	4.4234e-05	4.4873e-05	983.16	359.18	4.4316e-05	4.4871e-05	475.27	225.17	173.47	85.87	4.4526e-05	126.87	110.081	-32.398	32.257	-77.118	119.022	135.001	-77.663	-73.016	-46.565	90.121	-74.451	-70.572	-69.647	-64.249	124.329	-66.676	-8191	255	
1250.911	1	1	0	0	0.059378	0.28801	0.090099	0.2411	0.1069	0.17712	0.2765	0.18501	0.26675	0.14848	0.34062	0.14428	0.13478	0.18416	0.11589	0.49248	-1.5521	-1.9021	-2.2646	-1.7896	-2.2167	-1.9833	-2.0604	-2.4146	-2.1562	-2.0104	-2.4542	-2.1917	-2.3458	-2.2938	-1.925	-2.5687	118.787	-12.119	30.259	-62.645	253.778	208.015	249.670	242.025	110.366	21.538	232.951	-52.541	260.229	-67.163	56.453	249.488	0.0010876	0.0011453	0.00040181	704.68	1.2684e-05	6.2538e-06	877.99	320.79	9.1249e-06	1.0364e-05	417.74	208.26	149.36	79.475	1.089e-05	118.14	0.0038783	0.004113	0.0011398	811.83	4.4567e-05	4.52e-05	988.93	360.08	4.494e-05	4.5367e-05	475.9	227.13	174.72	86.127	4.5034e-05	127.22	127.846	20.018	39.359	-77.280	30.524	79.852	-77.924	-72.995	6.594	146.825	-74.337	-70.839	-69.487	-64.345	88.994	-66.495	-8191	255	
1251.007	1	1	0	0	0.13653	0.22707	0.14918	0.066383	0.32779	0.04944	0.42237	0.20452	0.29234	0.19854	0.18066	0.050482	0.080779	0.29326	0.069685	0.10516	-1.5	-2.0312	-2.4271	-1.9937	-2.2875	-2.3521	-1.9021	-2.575	-1.9854	-2.2646	-2.5667	-2.0729	-2.1458	-2.3604	-1.8354	-2.5229	190.959	71.244	158.123	40.325	224.397	-87.813	186.300	230.645	250.042	230.406	-74.605	233.754	187.043	233.120	141.530	132.733	0.00077267	0.0014215	0.00040889	705.49	1.3304e-05	1.9306e-05	873.33	318.8	7.702e-06	7.9906e-06	412.51	206.97	148.97	79.048	1.0221e-05	117.57	0.0039021	0.0041422	0.0011482	811.46	4.4763e-05	4.5308e-05	983.91	358.22	4.4836e-05	4.5307e-05	471.6	226.23	174.63	85.795	4.4997e-05	126.67	102.558	21.853	14.167	-77.153	26.263	26.946	-77.554	-72.879	110.842	241.460	-74.285	-70.681	-69.150	-64.311	-13.726	-66.459	-8191	255	
1251.103	1	1	0	0	0.16757	0.16893	0.11263	0.1634	0.11738	0.24811	0.16118	0.10812	0.18974	0.13635	0.059367	0.30659	0.23611	0.23275	0.21324	0.2536	-1.5896	-1.8	-2.3146	-2.2021	-2.2458	-2.2396	-1.9646	-2.5021	-2.0042	-2.0875	-2.4708	-2.0938	-2.1896	-2.4021	-1.825	-2.4167	18.204	85.886	-39.712	-62.241	-13.737	104.082	-49.944	-25.186	1.517	52.541	121.610	-80.028	197.545	-70.169	15.474	233.116	0.00082473	0.00052557	0.00022764	703.73	1.2639e-06	6.58e-06	873.12	317.9	2.5756e-06	5.3635e-06	413.57	206.77	147.63	79.124	8.9198e-06	118.36	0.0039196	0.004145	0.0011505	809.96	4.4605e-05	4.5354e-05	983.64	356.97	4.4873e-05	4.5472e-05	471.96	226.49	174.16	85.75	4.5364e-05	127.04	126.390	49.544	-48.202	-77.133	210.846	36.245	-77.831	-72.964	229.329	95.195	-74.237	-70.670	-69.352	-64.267	81.204	-66.610	-8191	255	
1251.200	1	1	0	0	0.13911	0.14227	0.03833	0.24221	0.15221	0.29046	0.15286	0.25791	0.23392	0.36797	0.17948	0.38483	0.046245	0.22452	0.15394	0.17528	-1.5438	-1.8771	-2.3896	-2.1646	-2.0146	-2.2271	-1.9312	-2.225	-2.2562	-1.7938	-2.3042	-2.1271	-2	-2.5646	-1.8771	-2.375	230.965	104.389	57.406	216.658	-4.297	-54.276	251.772	-56.293	109.886	146.627	245.898	199.085	-44.428	-80.204	52.873	191.625	0.00069291	0.0010582	0.00028904	703.97	1.4725e-05	9.599e-06	871.07	315.71	2.6502e-06	9.8845e-06	411.88	208.91	149.25	78.654	7.756e-06	118.54	0.0040075	0.0042217	0.0011723	812.31	4.5631e-05	4.613e-05	984.46	355.97	4.534e-05	4.5796e-05	471.46	227.94	175.2	85.661	4.5426e-05	127.68	127.751	13.589	51.509	-77.223	24.633	101.867	-77.709	-73.053	224.057	16.512	-74.175	-70.773	-69.542	-64.254	141.932	-66.581	-8191	255	
1251.318	1	1	0	0	0.35207	0.27484	0.21711	0.28452	0.0827	0.32399	0.11323	0.1898	0.030663	0.27249	0.067364	0.095839	0.035456	0.30971	0.093742	0.39765	-1.7167	-1.7146	-2.4	-2.0167	-1.8958	-2.4208	-2.0396	-2.25	-2.1708	-1.8188	-2.3833	-2.1979	-2.0708	-2.4104	-1.9333	-2.5062	-14.200	77.510	205.100	-45.442	32.769	102.066	81.658	221.621	205.911	27.089	55.482	204.982	-28.315	220.935	157.313	265.367	0.0010551	0.00044109	0.00019873	702.99	6.2642e-06	2.1495e-06	870.18	316.1	1.0072e-05	1.0859e-05	416.94	209.19	148.67	78.84	5.7511e-06	117.66	0.0039663	0.0041998	0.0011768	813.89	4.5632e-05	4.6252e-05	987.8	356.46	4.563e-05	4.577e-05	474.07	228.35	174.94	85.603	4.5281e-05	126.81	112.567	34.199	15.997	-77.287	103.569	46.738	-77.673	-73.104	-68.247	11.622	-74.365	-70.583	-69.482	-64.254	-29.552	-66.395	-8191	255	
1251.392	1	1	0	0	0.12034	0.21502	0.24582	0.13514	0.33274	0.1813	0.11644	0.094754	0.05116	0.10785	0.14609	0.083912	0.051948	0.4384	0.19538	0.13569	-1.8687	-1.9083	-2.3833	-2.0583	-1.8375	-2.3729	-2.0312	-2.2229	-2.3229	-1.7479	-2.3708	-2.3229	-2.0708	-2.4458	-1.9042	-2.1208	177.204	-33.679	125.456	243.616	131.233	139.783	186.827	197.333	-2.202	198.078	243.881	223.141	37.907	-87.760	0.201	175.672	0.0010414	0.00079767	0.0004073	703.97	1.1078e-05	1.6823e-05	867.46	316.14	8.6707e-06	2.3005e-05	414.94	205.7	147.42	78.074	5.2076e-06	116.39	0.0039649	0.0041999	0.0011662	810.38	4.5208e-05	4.6098e-05	983.64	355.62	4.5105e-05	4.5631e-05	471.83	225.35	173.48	84.888	4.5305e-05	125.43	114.840	-34.247	37.956	-77.251	-22.113	111.489	-77.612	-73.050	89.372	75.085	-74.139	-70.693	-69.408	-64.351	-48.779	-66.564	-8191	255	
1251.511	1	1	0	0	0.12564	0.15852	0.27532	0.012711	0.094059	0.34191	0.18565	0.19278	0.32033	0.15574	0.09886	0.22542	0.12414	0.077839	0.077019	0.22695	-1.9438	-1.775	-2.1083	-2.1104	-1.95	-2.3271	-2.1396	-2.0833	-2.2583	-1.9792	-2.3833	-2.3	-2.0021	-2.2938	-2.1479	-2.0875	262.245	62.948	262.142	-74.493	71.616	-71.019	141.198	248.355	118.455	29.625	238.044	237.312	174.813	-54.014	226.916	202.812	0.0007308	0.0018624	0.00032261	701.39	1.4091e-05	1.4833e-05	869.96	318.3	8.7214e-06	9.1343e-06	415.6	205.66	147.78	78.241	9.3425e-06	116.84	0.0039534	0.0041849	0.0011647	809.46	4.5092e-05	4.5982e-05	985.06	358.06	4.5246e-05	4.5468e-05	474.43	225.2	173.35	84.836	4.5146e-05	125.63	125.579	266.940	-25.056	-77.121	4.944	37.673	-77.815	-73.026	55.714	115.285	-74.193	-70.809	-69.846	-64.258	142.599	-66.428	-8191	255	
1251.607	1	1	0	0	0.1598	0.052021	0.21334	0.061029	0.13859	0.035617	0.29191	0.054012	0.12708	0.20687	0.22032	0.06206	0.16844	0.21632	0.14801	0.33579	-2.0604	-1.9979	-2.0271	-2.425	-1.6542	-2.1604	-2.1063	-1.8937	-2.3417	-1.8958	-2.1417	-2.3854	-1.9521	-2.4792	-2.2667	-2.0354	40.518	76.927	197.544	208.739	165.759	73.176	174.522	220.749	9.329	-15.088	210.046	252.390	-6.910	174.455	231.377	224.825	0.00092154	0.0011255	0.00055123	705.18	5.4227e-06	7.3801e-06	876.14	318.13	7.6286e-06	7.8023e-06	418.96	206.85	148.52	78.493	3.7308e-06	117.44	0.0039461	0.0041616	0.0011618	811.88	4.4831e-05	4.5841e-05	988.53	358.89	4.5126e-05	4.5512e-05	475.38	226.43	173.97	85.336	4.5348e-05	126.45	127.429	-9.463	-8.966	-76.895	60.812	36.734	-77.828	-73.159	29.091	-46.326	-74.128	-70.777	-69.507	-64.291	-85.598	-66.406	-8191	255	
1251.703	1	1	0	0	0.13313	0.13804	0.20822	0.13925	0.11389	0.070261	0.38651	0.68252	0.17362	0.16498	0.17817	0.26588	0.30014	0.058946	0.14951	0.29576	-1.9854	-2.0896	-2.1312	-2.325	-1.8104	-2.2646	-2.1917	-1.8	-2.2167	-1.8042	-2.3312	-2.5042	-1.9604	-2.4062	-2.1979	-2.0104	93.691	177.059	122.920	133.492	193.508	-53.682	222.630	240.557	178.519	109.313	-89.196	233.721	176.024	-65.995	167.938	183.064	0.00092682	0.0011241	0.00058789	706.73	9.1477e-06	5.7858e-06	879.9	321.3	4.5453e-06	5.7789e-06	420.95	206.98	147.42	78.348	1.0168e-05	116.66	0.0039281	0.0041289	0.0011466	812.73	4.4446e-05	4.5003e-05	990.74	359.8	4.426e-05	4.4653e-05	476.17	224.97	172.45	84.995	4.3907e-05	125.26	129.808	4.128	48.867	-77.181	-18.753	62.018	-77.818	-73.377	-26.006	152.787	-74.147	-70.812	-69.295	-64.227	236.390	-66.601	-8191	255	
1251.799	1	1	0	0	0.20747	0.10654	0.2145	0.098911	0.20441	0.2256	0.14577	0.28637	0.33798	0.033684	0.13101	0.13743	0.16806	0.24444	0.12333	0.3945	-1.8604	-1.9188	-2.0708	-2.4146	-1.9417	-2.1875	-2.4938	-2.0354	-2.3917	-2.0271	-2.1063	-2.5458	-1.9833	-2.1729	-2.1708	-2.0646	251.626	41.284	153.539	108.922	78.463	99.959	179.852	192.086	81.666	189.733	90.370	219.457	114.926	-61.405	-5.556	211.749	0.00062585	0.0012387	0.00010604	707.89	1.5032e-05	3.1971e-06	877.53	321.94	3.0456e-06	2.1735e-05	419.11	204.37	146.48	78.309	4.2805e-06	116.37	0.0038177	0.004024	0.001122	809.76	4.3443e-05	4.4196e-05	984.4	359.79	4.3654e-05	4.4505e-05	475.2	223.26	171.78	84.797	4.4306e-05	125.09	101.302	1.532	263.954	-77.173	-44.179	-6.275	-77.777	-73.026	260.034	35.296	-74.289	-70.644	-69.493	-64.246	97.493	-66.620	-8191	255	
1251.920	1	1	0	0	0.4063	0.24244	0.28765	0.32801	0.22318	0.154	0.071078	0.13918	0.076881	0.36817	0.34002	0.29399	0.16445	0.23199	0.06827	0.55223	-1.7458	-2.0729	-1.8521	-2.3271	-1.9771	-1.9438	-2.3625	-1.8083	-2.2708	-2.2271	-2.0667	-2.5062	-2.1646	-2.3021	-2.2542	-2.125	261.140	59.613	-68.620	220.574	43.677	-6.722	225.748	152.107	264.523	197.464	257.160	228.021	-39.117	255.606	-39.067	224.909	0.00096266	0.0006177	0.00022859	709.76	1.4368e-05	2.1349e-05	875.48	320.8	1.0071e-05	6.1996e-06	418.59	205.51	147.39	78.107	2.4075e-05	116.78	0.0039016	0.0040998	0.0011407	813.7	4.412e-05	4.4816e-05	987.03	359.23	4.4257e-05	4.4579e-05	476.48	223.61	172.27	84.913	4.4053e-05	125.72	120.812	15.020	-20.517	-77.181	8.286	82.358	-77.816	-73.039	100.526	101.893	-74.053	-70.714	-68.976	-64.176	56.300	-66.718	-8191	255	
1252.016	1	1	0	0	0.10468	0.14153	0.06112	0.27761	0.18652	0.18594	0.15409	0.26968	0.12582	0.15187	0.11727	0.26085	0.30848	0.1733	0.052416	0.25985	-1.7875	-2.0646	-1.9083	-2.4313	-1.7979	-2.0354	-2.4917	-1.9958	-2.2146	-2.0792	-1.8521	-2.5479	-1.9813	-2.1229	-2.4896	-2.1917	136.892	22.318	65.410	262.595	-11.105	-32.188	160.684	182.322	206.402	226.228	148.613	197.592	219.026	187.733	42.490	191.142	0.00079177	0.00098245	0.00026232	707.4	8.8682e-06	6.1214e-06	884.91	322.55	1.0542e-05	1.4495e-05	424.33	205.42	147.48	78.607	1.2401e-05	117.97	0.0038622	0.0040697	0.0011357	811.62	4.4039e-05	4.4479e-05	988.68	360.62	4.3889e-05	4.4164e-05	479.12	224.57	172.37	85.156	4.3789e-05	126.36	123.780	-37.050	217.934	-77.154	75.837	186.074	-77.694	-73.033	15.053	106.356	-74.217	-70.794	-69.234	-64.241	179.988	-66.567	-8191	255	
1252.088	1	1	0	0	0.046409	0.25891	0.11117	0.26274	0.12271	0.11777	0.16052	0.22402	0.090217	0.14256	0.24806	0.25755	0.20184	0.32891	0.075257	0.17486	-1.5792	-2.2542	-1.8292	-2.5042	-1.9854	-2.2104	-2.4313	-1.8708	-2.125	-2.3375	-1.9271	-2.5458	-2.2354	-2.1771	-2.3542	-2.2521	231.546	53.508	40.736	159.419	24.918	136.714	211.251	257.238	265.457	100.521	157.676	-65.587	-59.916	-69.918	-40.533	186.122	0.00078391	0.0015566	0.00032364	707.89	1.0435e-05	1.8103e-05	886.11	322.11	7.4623e-06	9.0001e-06	420.59	206.64	147.45	78.45	1.4709e-05	117.56	0.0038481	0.0040492	0.001125	812.92	4.3937e-05	4.4817e-05	994.72	361.05	4.4294e-05	4.4717e-05	477.76	225.15	172.6	85.249	4.3992e-05	126.09	121.905	165.229	75.500	-77.182	-7.490	80.695	-77.908	-73.107	194.743	103.411	-74.475	-70.746	-69.556	-64.271	-87.780	-66.538	-8191	255	
1252.206	1	1	0	0	0.049328	0.12744	0.051129	0.16744	0.078345	0.12384	0.19811	0.17754	0.14695	0.16935	0.20138	0.22866	0.19591	0.17579	0.082642	0.19931	-1.625	-2.2479	-1.8271	-2.3354	-2.2104	-1.9	-2.3354	-1.8813	-2.0771	-2.3104	-2.0812	-2.2542	-2.2896	-1.8792	-2.3333	-2.1354	-53.522	185.484	-14.252	266.664	69.102	202.279	210.004	221.284	133.877	29.571	161.270	232.585	253.881	254.687	141.263	251.226	0.00061907	0.00056778	0.00017704	704.8	1.4444e-05	8.1619e-06	876.6	319.1	2.4545e-06	2.3962e-06	413.69	206.86	147.2	78.303	8.2785e-06	117.63	0.0038407	0.0040497	0.001122	808.73	4.3691e-05	4.4351e-05	984.87	357.93	4.3915e-05	4.4437e-05	472.1	224.91	172.63	85.082	4.3991e-05	126.24	118.331	85.248	31.164	-76.999	48.130	-25.275	-77.733	-73.152	131.840	-13.923	-74.425	-70.698	-69.615	-64.429	41.635	-66.551	-8191	255	
1252.303	1	1	0	0	0.12975	0.087693	0.11617	0.24463	0.18634	0.13672	0.21391	0.060367	0.24165	0.13513	0.32444	0.081331	0.20972	0.28457	0.093868	0.24117	-1.525	-2.2	-1.6875	-2.3146	-2.025	-1.8271	-2.3667	-2.1562	-1.8625	-2.3979	-2.0271	-2.4458	-2.3771	-2.1042	-2.3021	-2.2042	211.075	-74.313	173.705	181.817	-33.751	-37.301	109.909	217.411	258.255	70.071	197.936	214.463	237.791	-31.705	115.343	225.958	0.0008616	0.0016359	0.00038382	707.13	6.7533e-06	1.2156e-05	874.36	319.69	2.4897e-06	1.3892e-05	418.77	205.8	147.99	78.606	1.3921e-05	118.28	0.0038397	0.004007	0.0011134	808.52	4.3042e-05	4.3521e-05	983.15	357.48	4.25e-05	4.287e-05	473.1	224.38	171.88	85.15	4.3333e-05	126.66	104.414	-2.081	48.703	-77.079	-17.982	169.384	-77.604	-73.161	213.073	78.699	-74.066	-70.872	-69.570	-64.361	-74.230	-66.495	-8191	255	
1252.399	1	1	0	0	0.062968	0.063292	0.24533	0.19713	0.064419	0.133	0.20031	0.23574	0.28242	0.20182	0.19966	0.13555	0.19429	0.11248	0.31154	0.42721	-1.6313	-2.2792	-1.8104	-2.15	-2.2125	-1.8458	-2.3792	-2.1229	-1.7917	-2.2333	-2.0771	-2.2646	-2.1896	-1.9771	-2.2229	-2.3396	-76.953	89.847	241.516	-64.884	38.621	-26.866	80.927	246.182	210.131	239.162	20.555	155.470	-72.318	-33.639	-81.939	214.325	0.0009952	0.00081102	0.00027526	707.45	5.1897e-06	1.0963e-05	881.49	319.95	2.9271e-06	6.8903e-06	420.48	207.05	147.37	78.623	1.7378e-05	117.86	0.0038273	0.0040607	0.0011279	812.85	4.4373e-05	4.4793e-05	989.88	358.47	4.4335e-05	4.4617e-05	476.71	226.09	172.94	85.147	4.4122e-05	126.46	107.201	-64.192	-54.826	-77.111	22.060	91.738	-77.687	-73.196	101.246	84.057	-74.239	-70.808	-69.503	-64.257	24.138	-66.647	-8191	255	
1252.495	1	1	0	0	0.15442	0.010737	0.1429	0.080556	0.1117	0.046103	0.21728	0.17082	0.11991	0.19488	0.25723	0.042934	0.053869	0.24802	0.15274	0.3895	-1.5688	-2.3708	-1.8354	-2.0917	-2.3292	-1.7375	-2.3708	-2.1083	-1.6792	-2.4042	-2.1063	-1.9854	-2.3729	-2.0729	-2.1604	-2.2979	122.469	200.763	29.521	162.645	145.369	89.662	226.506	-67.970	-32.447	-79.794	145.478	204.114	-45.002	249.341	45.044	212.320	0.00088936	0.0011521	0.00019322	707.87	1.2595e-06	1.1821e-05	882.44	317.67	1.3295e-05	1.3406e-05	417.8	206.61	147.11	78.383	8.7045e-06	117.49	0.0038473	0.0040535	0.0011243	811.38	4.3813e-05	4.4441e-05	991.65	358.25	4.4187e-05	4.482e-05	473.76	225.22	172.97	84.986	4.4423e-05	125.65	96.605	16.736	24.867	-77.426	154.476	80.225	-77.595	-73.213	24.282	75.819	-74.199	-70.862	-69.393	-64.258	13.301	-66.450	-8191	255	
1252.616	1	1	0	0	0.20896	0.10045	0.066645	0.14974	0.24971	0.15506	0.31735	0.20341	0.085516	0.31859	0.16529	0.14088	0.16853	0.31586	0.10292	0.2276	-1.4854	-2.1583	-2.075	-1.9958	-2.3417	-1.8563	-2.2854	-2.2396	-1.9417	-2.5687	-1.9521	-2.1604	-2.425	-1.9917	-2.1813	-2.5312	156.258	126.685	22.110	251.433	-75.912	255.558	135.179	113.548	55.344	145.510	253.598	108.044	259.923	190.392	225.352	253.368	0.00090963	0.00093398	0.00064068	702	1.7819e-05	1.4203e-05	872.58	319.09	4.0207e-06	1.2816e-05	413.67	205.98	146.87	78.04	7.7678e-06	116.44	0.0038788	0.004097	0.0011343	808.65	4.4289e-05	4.4889e-05	984.71	357.65	4.444e-05	4.5151e-05	472.34	223.96	172.19	84.753	4.4476e-05	125.21	104.378	75.995	18.815	-77.126	63.056	21.044	-77.746	-73.191	47.732	158.433	-74.285	-70.608	-69.657	-64.270	63.437	-66.413	-8191	255	
1252.687	1	1	0	0	0.21385	0.21677	0.18465	0.19447	0.21608	0.36855	0.25223	0.41772	0.25823	0.23839	0.14118	0.084637	0.11407	0.14896	0.22564	0.15792	-1.2958	-2.2396	-1.8687	-2.25	-2.1958	-1.9438	-2.3458	-2.3083	-1.7667	-2.2917	-2.2042	-2.0542	-2.4021	-2.3333	-2.1188	-2.5438	-59.843	23.645	71.659	123.726	169.928	153.331	156.397	179.349	243.433	207.953	212.463	-84.059	236.267	177.547	-72.974	205.035	0.00071277	0.0013128	0.00016347	702.08	1.4799e-05	9.1073e-06	877.73	318.28	1.9462e-05	1.0312e-05	414.74	205.67	146.72	77.963	9.3655e-06	116.64	0.0038917	0.0041255	0.0011418	810.62	4.4942e-05	4.5859e-05	987.9	357.94	4.5544e-05	4.6534e-05	474.09	225.01	173.23	84.953	4.6044e-05	125.71	133.987	-2.805	-56.239	-77.224	78.209	243.353	-77.867	-73.057	32.061	11.385	-74.416	-70.723	-69.277	-64.544	-70.641	-66.279	-8191	255	
1252.783	1	1	0	0	0.29448	0.12779	0.061606	0.20179	0.20779	0.52023	0.046991	0.2529	0.35929	0.029314	0.13429	0.22052	0.34457	0.33035	0.097552	0.30583	-1.3813	-2.2458	-2.0875	-2.0167	-2.325	-1.9625	-2.1458	-2.4146	-1.8375	-2.2167	-2.1875	-2.1042	-2.4458	-2.25	-2.0896	-2.5187	6.161	119.931	194.386	266.184	234.477	-4.001	223.576	-71.440	193.958	65.408	234.252	-63.642	-57.366	-90.706	118.357	157.299	0.00082501	0.0015966	0.00027135	704.14	7.9601e-06	2.3191e-05	872.11	315.75	7.6412e-06	5.6953e-06	415.28	207.32	146.88	78.49	1.3877e-05	117.36	0.0039807	0.0042162	0.0011681	812.24	4.5492e-05	4.5965e-05	987.37	356.47	4.5586e-05	4.6433e-05	473.81	226.26	173.7	85.116	4.5964e-05	126.37	105.152	23.206	118.252	-77.255	-13.731	-16.403	-77.547	-73.148	1.326	100.022	-74.219	-70.902	-69.523	-64.273	262.555	-66.426	-8191	255	
1252.880	1	1	0	0	0.22438	0.1555	0.075336	0.10118	0.13239	0.20247	0.13411	0.24951	0.19161	0.032896	0.35183	0.18074	0.13995	0.21451	0.16052	0.2716	-1.4292	-2.0375	-2.1396	-1.9979	-2.2938	-1.8813	-2.1292	-2.3771	-1.7896	-2.1667	-2.1646	-1.8792	-2.5187	-2.3542	-2.1583	-2.6188	100.540	148.746	85.415	255.767	65.351	223.466	57.255	236.010	49.774	14.455	210.517	223.837	4.800	182.024	-0.536	259.937	0.0014512	0.0018598	0.00016466	705.6	5.2889e-06	5.4539e-06	869.7	315	7.6272e-06	1.257e-05	413.13	204.86	146.33	78.124	2.0816e-05	116.38	0.0040055	0.0042269	0.0011731	812.72	4.5699e-05	4.6176e-05	984.44	355.6	4.5238e-05	4.5818e-05	471.1	224.23	172.36	84.866	4.5157e-05	125.47	104.261	8.709	16.908	-76.927	-24.072	2.604	-77.706	-73.087	-85.643	-14.730	-74.446	-70.850	-69.793	-64.336	106.758	-66.455	-8191	255	
1253.000	1	1	0	0	0.1835	0.13751	0.15697	0.16057	0.12494	0.13379	0.087327	0.1762	0.17224	0.14783	0.24066	0.34935	0.30558	0.10833	0.14701	0.29054	-1.6667	-2.0792	-2.0979	-1.8021	-2.3542	-2.0271	-2.1104	-2.4667	-2.0292	-2.1396	-2.3542	-2.0583	-2.2188	-2.2542	-1.8542	-2.5792	-72.044	8.698	-22.213	31.287	145.731	156.274	131.049	150.666	-81.219	114.134	243.617	219.174	165.584	248.965	-18.364	266.090	0.00071318	0.0013596	0.00029322	700.87	1.1118e-05	1.4667e-05	867.02	313.89	1.4197e-05	7.9558e-06	411.18	205.66	147.42	78.265	7.539e-06	117.07	0.003941	0.0041681	0.0011596	808.32	4.5378e-05	4.6124e-05	980.51	354.7	4.5815e-05	4.6698e-05	470.45	225.49	174.01	85.158	4.6173e-05	126.18	110.181	-53.300	25.954	-77.308	59.669	2.793	-77.690	-73.151	76.328	-50.163	-74.099	-70.569	-69.552	-64.262	147.767	-66.571	-8191	255	
1253.096	1	1	0	0	0.22979	0.22165	0.046277	0.12429	0.26586	0.058302	0.10643	0.14625	0.052475	0.2173	0.30507	0.21522	0.098384	0.16875	0.089946	0.29861	-1.6271	-1.8792	-2.3229	-1.8583	-2.2438	-2.1979	-2.075	-2.375	-2.1042	-2.0187	-2.6021	-2.0917	-2.2896	-2.5167	-1.9625	-2.7396	-77.909	-17.393	156.326	104.855	-28.501	61.377	189.193	174.691	149.822	130.877	236.308	224.138	98.859	-53.033	9.184	185.319	0.00083605	0.0011835	0.00043193	701.08	1.1914e-05	1.1776e-05	868.09	314.97	7.4297e-06	9.747e-06	413.43	205.83	147.29	78.371	8.2234e-06	117.14	0.0040534	0.0042734	0.0011801	811.33	4.5872e-05	4.633e-05	981	355.87	4.5545e-05	4.6106e-05	471.27	225.22	173.52	85.12	4.5706e-05	126.61	112.410	33.494	25.064	-77.192	62.831	131.806	-77.764	-72.921	42.489	215.246	-74.136	-70.553	-69.574	-64.192	2.694	-66.681	-8191	255	
1253.192	1	1	0	0	0.18703	0.046182	0.086252	0.18998	0.099636	0.21886	0.24806	0.10182	0.18833	0.10103	0.087001	0.19588	0.1293	0.14443	0.15035	0.28785	-1.6458	-2.0729	-2.3667	-1.7396	-2.2854	-2.2958	-1.9458	-2.4125	-2.1125	-1.9875	-2.6	-1.9979	-2.2958	-2.3083	-1.8042	-2.5854	11.567	58.617	22.205	181.943	212.167	163.441	173.250	70.895	153.419	244.114	159.715	-85.528	265.011	233.573	36.898	181.985	0.00067796	0.0016473	0.00033575	705.11	1.1873e-05	1.0453e-05	869.06	315.53	1.2482e-05	6.1993e-06	415.71	206.74	147.1	78.706	1.052e-05	118.6	0.0039915	0.0042308	0.0011819	813.16	4.5951e-05	4.6439e-05	982.97	356.53	4.5725e-05	4.6232e-05	472.9	226.38	173.79	85.638	4.5657e-05	127.54	124.535	-23.924	92.785	-77.303	68.564	43.352	-77.648	-73.022	14.942	-36.769	-74.120	-70.732	-69.159	-64.360	28.781	-66.586	-8191	255	
1253.311	1	1	0	0	0.2694	0.31801	0.1841	0.15973	0.18888	0.12088	0.010732	0.2518	0.10475	0.17882	0.37878	0.36688	0.24672	0.38087	0.28599	0.23115	-1.8292	-1.9854	-2.3583	-2.1604	-1.9937	-2.2625	-1.9583	-2.4458	-2.1396	-2.1292	-2.3146	-2.3396	-2.1188	-2.4896	-1.9542	-2.4333	140.527	143.432	209.222	218.345	178.394	246.604	-19.046	166.971	19.268	193.026	-89.518	229.315	229.396	235.025	235.948	261.531	0.00066402	0.00066487	0.00035275	705.22	1.3361e-05	1.9621e-05	863.5	315.21	6.062e-06	1.2248e-05	410.23	205.06	146.34	78.473	1.3994e-05	117.74	0.0039846	0.0042094	0.0011742	813.23	4.5989e-05	4.6588e-05	979.89	354.87	4.5878e-05	4.6426e-05	468.66	224.86	173.14	85.399	4.5305e-05	126.57	127.524	-36.238	22.403	-77.151	-73.399	55.373	-77.649	-72.920	200.934	106.825	-74.461	-70.783	-69.441	-64.237	-47.257	-66.501	-8191	255	
1253.383	1	1	0	0	0.11204	0.15863	0.12491	0.11172	0.24239	0.20206	0.10841	0.098446	0.14967	0.42213	0.18295	0.16228	0.20603	0.33927	0.21027	0.32159	-1.8312	-1.75	-2.3479	-2.0062	-2.0625	-2.3729	-2.0479	-2.4313	-2.3354	-1.9312	-2.3563	-2.1979	-2.0271	-2.6604	-2.1042	-2.4646	-63.021	-5.076	27.779	238.356	-65.321	237.060	217.617	185.629	-65.796	-58.779	212.454	253.658	-16.148	252.200	250.237	223.642	0.00076408	0.00035934	0.00030227	702.5	1.0315e-05	1.27e-05	865.11	314.5	8.5732e-06	1.2547e-05	409.91	203.53	145.45	78.258	1.5033e-05	117.75	0.0039134	0.0041063	0.0011407	806.55	4.4344e-05	4.5062e-05	974.17	354.3	4.447e-05	4.5425e-05	467.84	222.59	171.45	85.112	4.4856e-05	126.51	105.875	0.703	29.607	-77.177	-28.122	53.873	-77.932	-72.995	198.106	32.284	-74.170	-70.518	-69.252	-64.265	93.006	-66.497	-8191	255	
1253.479	1	1	0	0	0.14671	0.15078	0.22051	0.16064	0.26168	0.079206	0.20426	0.20802	0.020003	0.20715	0.18742	0.13561	0.10548	0.28284	0.21454	0.19294	-2.0563	-1.8667	-2.275	-2.2208	-1.9125	-2.3521	-1.9937	-2.3979	-2.3063	-2.0021	-2.4208	-2.3354	-1.8083	-2.3708	-1.8521	-2.2229	-20.979	-13.603	-32.139	32.784	135.429	-76.278	226.456	218.242	113.933	172.757	265.341	203.879	91.595	241.859	127.036	242.562	0.00083608	0.0017181	0.00028508	701.53	7.1283e-06	2.1303e-06	867	316.36	1.8094e-05	1.5573e-05	415.35	202.77	145.5	78.435	1.8864e-05	118.52	0.003921	0.0040952	0.0011428	805.87	4.4312e-05	4.5031e-05	976.02	355.89	4.4073e-05	4.4883e-05	470.88	221.73	170.22	85.24	4.3808e-05	127.11	122.837	46.533	-68.900	-77.216	42.752	154.582	-77.929	-72.943	20.995	100.723	-74.166	-70.740	-69.287	-64.300	30.164	-66.453	-8191	255	
1253.600	1	1	0	0	0.090632	0.23857	0.088271	0.18129	0.18372	0.1601	0.092262	0.29258	0.17134	0.020121	0.041071	0.14659	0.50886	0.28692	0.28454	0.37475	-1.9104	-1.8021	-2.1125	-2.1417	-1.8813	-2.4375	-2.1979	-2.1875	-2.375	-1.8854	-2.3396	-2.1646	-2.0563	-2.4833	-2.175	-2.1708	-88.517	161.404	194.999	249.125	-25.428	-50.360	-82.838	176.265	-20.119	264.088	-41.012	140.017	249.047	255.514	221.272	217.001	0.00099913	0.0017603	0.00019234	700.11	1.7496e-05	3.0915e-06	866.66	316.64	1.3015e-05	1.745e-05	413.91	201.63	142.7	77.192	6.1699e-06	116.91	0.0038159	0.004033	0.0011216	804.9	4.3675e-05	4.4342e-05	976.08	355.3	4.3979e-05	4.5051e-05	470.52	220.64	168.87	84.244	4.5916e-05	125.9	107.385	-28.672	72.828	-77.103	-38.940	44.697	-77.866	-72.985	-47.281	-23.649	-73.961	-70.688	-69.041	-64.187	-65.310	-66.358	-8191	255	
1253.696	1	1	0	0	0.20692	0.10008	0.075482	0.1203	0.081291	0.041237	0.061844	0.16493	0.13763	0.18499	0.16568	0.17829	0.13748	0.4282	0.1126	0.37364	-1.9646	-1.8896	-2.1437	-2.3833	-1.8667	-2.3354	-2.2146	-2.0062	-2.3396	-1.8896	-2.25	-2.3396	-1.9104	-2.4437	-2.1188	-2.2146	-23.305	28.186	76.367	-19.132	-84.763	112.682	226.045	-66.871	266.026	58.017	218.733	267.793	107.414	-85.039	192.008	233.585	0.00083634	0.0012651	0.00033143	697.04	4.8987e-06	1.3404e-05	854.36	310.77	1.6464e-05	4.2845e-06	401.06	193.28	137.57	74.197	1.713e-05	111.66	0.0040595	0.0043516	0.0012166	811.41	4.8213e-05	4.9265e-05	976.54	353.67	4.9238e-05	5.0027e-05	465.4	215.22	166.85	81.75	5.0434e-05	121.83	115.385	-71.249	30.526	-77.421	195.741	101.499	-77.613	-73.026	-28.424	263.558	-73.878	-70.419	-68.872	-64.048	101.869	-66.495	-8191	255	
1253.792	1	1	0	0	0.19698	0.22553	0.13669	0.21885	0.16853	0.040775	0.24115	0.063563	0.11305	0.068942	0.28736	0.28876	0.27755	0.36133	0.13145	0.25233	-1.9729	-1.975	-2.225	-2.4313	-1.8042	-2.2479	-2.2812	-2.0771	-2.2271	-1.8167	-2.25	-2.2542	-2.0292	-2.4521	-2.1917	-2.1	255.130	-63.056	180.868	251.844	-83.049	103.421	211.542	207.975	-8.531	97.679	221.400	242.000	194.169	252.993	-22.798	239.924	0.00086412	0.0011442	0.00033205	686.11	1.6608e-05	1.3441e-05	843.13	303.92	5.903e-06	8.1946e-06	397.21	187.89	134.58	72.373	2.2799e-06	110.09	0.0044188	0.0047112	0.0013181	813.13	5.2341e-05	5.3913e-05	981.54	351.69	5.3993e-05	5.505e-05	467.21	212.12	166.79	80.699	5.5306e-05	121.3	124.210	10.534	45.769	-76.931	165.223	29.768	-77.666	-72.732	163.302	218.499	-74.004	-70.355	-69.048	-63.923	101.533	-66.388	-8191	255	
1253.913	1	1	0	0	0.23027	0.15115	0.11893	0.23962	0.15394	0.20732	0.22748	0.25396	0.14328	0.15574	0.17219	0.19888	0.2222	0.31657	0.16751	0.33954	-1.9917	-2.1042	-2.0021	-2.4604	-1.9708	-2.2146	-2.3875	-1.7167	-2.3688	-2.1646	-2.2021	-2.4229	-1.9792	-2.4938	-2.0854	-2.0958	-88.822	148.146	3.199	211.527	-64.862	-50.041	265.833	179.199	249.972	1.757	108.500	228.467	256.254	177.615	23.403	-82.781	0.00082347	0.00069918	0.00020023	685.06	9.7916e-06	3.0492e-06	848.25	305.42	1.5662e-06	3.7412e-06	402.39	191.98	137.04	74.494	1.44e-05	113.61	0.0048016	0.0050925	0.0014113	818.72	5.4434e-05	5.5134e-05	986.21	354.28	5.3871e-05	5.4109e-05	471.07	215.32	168.16	82.326	5.2168e-05	123.97	116.329	128.166	-77.737	-76.993	-5.557	18.634	-77.704	-72.767	246.888	70.358	-74.025	-70.526	-69.275	-64.151	-13.177	-66.297	-8191	255	
1253.984	1	1	0	0	0.17073	0.24881	0.27863	0.14793	0.34003	0.25483	0.1045	0.059033	0.089688	0.07852	0.36465	0.22087	0.032419	0.15388	0.082036	0.2941	-1.7583	-2.0687	-1.8625	-2.5729	-1.7354	-2.1063	-2.1646	-1.9667	-2.1813	-2.15	-1.8729	-2.5396	-2.125	-2.3604	-2.3812	-1.9208	155.659	-64.269	-38.634	176.016	218.737	25.204	52.077	132.046	-8.262	248.907	166.549	259.390	266.002	-62.476	7.861	246.501	0.00075033	0.00091482	0.00052327	696.05	1.0538e-05	6.106e-06	864.52	314.22	1.7194e-05	1.2448e-05	412.56	200.38	142.14	77.458	7.3078e-06	117.33	0.0044865	0.0046876	0.001292	815.47	4.8929e-05	4.9417e-05	984.82	356.63	4.6918e-05	4.6918e-05	471.15	219.84	167.89	84.249	4.4278e-05	126.15	103.114	82.147	52.642	-77.197	-42.616	36.515	-77.895	-72.708	8.710	253.057	-73.912	-70.491	-69.205	-64.456	-61.393	-66.584	-8191	255	
1254.081	1	1	0	0	0.069245	0.029699	0.13793	0.065928	0.19523	0.33499	0.26819	0.28225	0.2079	0.17922	0.2299	0.12291	0.20994	0.12596	0.075861	0.19441	-1.8208	-2.1063	-1.7521	-2.5042	-1.8479	-1.8958	-2.5333	-2.0438	-2.3208	-2.0833	-2.1375	-2.6042	-2.1333	-2.1458	-2.2729	-1.8521	-20.884	-9.647	266.402	196.940	113.936	-6.084	174.389	208.516	15.450	169.310	197.635	132.142	191.017	195.007	36.655	223.078	0.00098238	0.00038605	0.00028499	696.38	4.7793e-06	6.5308e-06	869.31	315.88	1.9987e-05	9.5811e-06	414.88	200.98	143.03	78.067	4.5259e-06	118.09	0.0038292	0.0039963	0.0011074	801.74	4.28e-05	4.3263e-05	973.69	353.86	4.3216e-05	4.3323e-05	469.61	218.93	167.66	84.546	4.3113e-05	126.46	114.801	177.504	30.935	-76.996	168.438	102.193	-77.868	-73.016	0.611	-41.904	-74.206	-70.605	-69.333	-64.353	-29.183	-66.542	-8191	255	
1254.177	1	1	0	0	0.36696	0.071146	0.28047	0.21672	0.12828	0.13699	0.19899	0.28477	0.3089	0.059691	0.14444	0.37016	0.32198	0.32527	0.11204	0.37656	-1.8188	-2.1542	-1.7229	-2.3688	-1.9771	-1.9146	-2.4604	-2.0083	-2.1729	-2.2687	-1.9646	-2.3375	-2.0938	-2.1479	-2.4479	-2.0375	228.216	39.634	214.916	217.883	255.968	67.399	-78.469	246.385	-37.347	22.210	254.108	210.278	-82.979	252.300	44.446	207.105	0.00076836	0.00060584	0.00019155	697.63	5.1745e-06	2.4881e-05	871.38	318.25	1.4248e-05	8.3207e-06	421.11	201.15	143.4	78.728	1.6307e-05	118.56	0.0037375	0.003918	0.0010837	800.12	4.1415e-05	4.1918e-05	973.91	353.01	4.1032e-05	4.1263e-05	471.45	218.81	166.68	84.927	4.1328e-05	126.77	123.212	-73.206	111.257	-77.261	-19.438	78.776	-77.806	-72.930	-22.873	76.405	-74.290	-70.525	-69.438	-64.360	104.412	-66.616	-8191	255	
1254.296	1	1	0	0	0.045968	0.049104	0.29136	0.17326	0.060529	0.047342	0.11852	0.14603	0.23086	0.15749	0.041776	0.1715	0.18366	0.1846	0.24309	0.36739	-1.7333	-2.0771	-1.7729	-2.2771	-2.0042	-1.8917	-2.3792	-1.9396	-1.9521	-2.1229	-1.8312	-2.4417	-2.0375	-2.0354	-2.2646	-2.2646	4.658	267.763	-84.831	-53.592	151.292	202.131	-80.819	191.018	55.204	-17.378	-24.193	-7.136	64.830	170.803	228.468	172.377	0.00071039	0.0010922	0.00012303	701.96	5.936e-06	1.231e-05	869.99	319.54	7.06e-06	7.6631e-07	419.73	203.94	144.18	79.488	9.6889e-06	119.41	0.0036475	0.0038397	0.0010707	801.36	4.1409e-05	4.2167e-05	976.47	355.3	4.1185e-05	4.1557e-05	472.6	220.73	167.4	85.445	4.0534e-05	127.53	136.914	-59.126	166.898	-77.536	-52.058	71.701	-77.860	-73.262	12.482	27.186	-74.111	-70.520	-69.260	-64.310	-78.506	-66.476	-8191	255	
1254.392	1	1	0	0	0.13108	0.20225	0.02024	0.098884	0.21304	0.40038	0.15752	0.26227	0.090727	0.38954	0.22798	0.17412	0.14419	0.23364	0.036875	0.29091	-1.5979	-2.1813	-1.7833	-2.2375	-2.0521	-1.7062	-2.4917	-2.1188	-2.0146	-2.2229	-2.125	-2.2333	-2.3292	-2.1083	-2.1937	-2.4062	267.403	78.117	154.152	-57.352	-80.150	126.729	55.077	205.985	34.280	80.671	-84.752	-82.085	-83.401	169.439	-65.079	248.803	0.00073494	0.0014098	0.00021117	706.35	2.6184e-06	8.3729e-06	877.85	319.64	2.2213e-05	9.2015e-06	421.4	203.83	144.04	79.586	7.9187e-06	119.36	0.0035304	0.0037376	0.0010394	800.3	4.0497e-05	4.1024e-05	978.2	355.37	4.0461e-05	4.0888e-05	473.68	220.83	167.17	85.551	4.0129e-05	127.31	105.232	-5.023	14.818	-77.164	174.435	81.893	-77.755	-73.062	13.646	99.065	-74.219	-70.527	-69.411	-64.476	113.374	-66.542	-8191	255	
1254.488	1	1	0	0	0.094133	0.12852	0.1237	0.020622	0.081788	0.27955	0.21024	0.20079	0.021275	0.073508	0.31767	0.27821	0.13857	0.05759	0.3263	0.28575	-1.5104	-2.4	-1.8333	-2.3792	-2.25	-1.9021	-2.4562	-2.2333	-2.0396	-2.4833	-2.0958	-2.3354	-2.4292	-2.0979	-2.1417	-2.3063	141.494	197.098	157.849	-72.898	71.031	25.478	153.687	247.116	-35.099	21.798	-58.561	198.745	146.339	247.332	112.205	-34.534	0.00090623	0.0012444	0.00021045	704.16	1.2752e-05	8.8204e-06	875.26	319.87	1.5088e-05	6.8151e-06	423.57	202.82	144.49	79.693	1.355e-05	120.01	0.0034593	0.0036136	0.001004	795.8	3.8945e-05	3.9268e-05	970.9	352.04	3.8896e-05	3.9606e-05	471.26	219.44	166.61	85.421	3.9635e-05	127.36	120.829	243.844	88.848	-77.143	86.761	52.883	-77.737	-73.060	58.346	-57.277	-74.041	-70.422	-69.423	-64.451	55.402	-66.519	-8191	255	
1254.561	1	1	0	0	0.29086	0.28882	0.37537	0.16111	0.14219	0.053506	0.33864	0.27157	0.2516	0.12494	0.1268	0.30941	0.10594	0.32269	0.05249	0.26203	-1.6292	-2.4458	-2.15	-2.2771	-2.3125	-1.8354	-2.2958	-2.3063	-1.7687	-2.4083	-2.1688	-2.1583	-2.425	-2.3	-2.1708	-2.4396	202.419	-30.921	141.058	30.576	161.694	35.412	175.339	220.354	73.942	36.798	26.882	243.625	214.991	221.855	155.955	194.146	0.00092954	0.00097888	0.00035486	708.13	7.8242e-06	9.4858e-06	876.77	320.12	1.7033e-05	9.2015e-06	421.19	204.25	145.06	79.887	7.2693e-06	120.46	0.0034739	0.0036791	0.0010185	797.98	3.9619e-05	4.0017e-05	973.7	353.44	3.9256e-05	3.9605e-05	470.96	220.44	166.68	85.443	3.8027e-05	127.55	117.901	25.547	71.172	-77.246	-21.512	17.306	-77.783	-73.358	37.002	82.202	-74.243	-70.714	-69.145	-64.544	17.706	-66.619	-8191	255	
1254.680	1	1	0	0	0.15749	0.10041	0.19708	0.40925	0.11793	0.25606	0.2285	0.23214	0.1947	0.18051	0.10427	0.15042	0.32235	0.40183	0.010382	0.23163	-1.4917	-2.3312	-2.0625	-2.0333	-2.4667	-1.8312	-2.4042	-2.3729	-1.9792	-2.6229	-2.3854	-2.2167	-2.5521	-2.0458	-2.1417	-2.55	7.791	136.462	168.248	251.575	189.130	-6.971	209.130	157.679	92.030	158.562	-38.830	241.487	-72.364	250.656	-77.425	230.597	0.00091143	0.001237	0.00013262	706.8	1.3741e-06	6.5935e-06	876.5	320.25	5.5356e-06	1.0014e-05	425.52	206.2	145.12	80.533	1.5691e-05	121.31	0.0032926	0.0034521	0.00095744	791.95	3.7262e-05	3.7702e-05	968.01	352.67	3.7645e-05	3.8221e-05	471.24	221.58	167.04	86.027	3.8222e-05	128.58	102.235	37.874	26.325	-77.003	11.849	82.810	-77.912	-73.011	51.642	-9.238	-74.243	-70.465	-69.412	-64.361	11.391	-66.604	-8191	255	
1254.776	1	1	0	0	0.26558	0.069673	0.20348	0.22375	0.12152	0.17002	0.046465	0.02615	0.25629	0.22521	0.12003	0.12992	0.086557	0.20432	0.20698	0.26962	-1.4188	-2.3979	-2.0917	-1.8729	-2.2583	-1.9937	-2.1104	-2.4417	-1.7208	-2.4292	-2.4167	-2.0854	-2.4917	-2.1354	-2.1937	-2.425	-15.243	190.208	101.178	268.016	177.824	97.337	-47.453	-31.049	132.506	-5.238	63.955	-89.953	-33.620	162.678	95.238	205.275	0.00077338	0.00047099	0.00029632	703.73	6.5833e-06	5.6061e-06	874.27	320.86	3.7159e-06	2.4713e-05	425.69	205.77	144.97	80.125	9.3239e-06	120.45	0.0033582	0.0035461	0.00097977	793.61	3.8049e-05	3.844e-05	967.03	352.45	3.7661e-05	3.8071e-05	470.63	221.12	166.5	85.889	3.8458e-05	128.02	117.001	-9.592	18.535	-77.240	-78.478	190.389	-77.829	-73.058	-83.311	105.187	-74.574	-70.504	-69.488	-64.615	126.676	-66.511	-8191	255	
1254.872	1	1	0	0	0.09875	0.15457	0.24337	0.29671	0.1302	0.16179	0.13679	0.18265	0.15146	0.15377	0.16247	0.12614	0.19953	0.22086	0.20839	0.41826	-1.4312	-2.1792	-2.1146	-1.9167	-2.4042	-1.8833	-2.2687	-2.4667	-1.7417	-2.3375	-2.15	-1.9771	-2.5104	-2.0771	-2.0687	-2.6688	69.346	236.329	170.419	-32.984	75.543	65.789	231.013	191.019	-9.317	258.270	-71.147	215.774	223.097	-36.580	213.335	230.970	0.00049631	0.0012888	0.00032376	702.07	9.8862e-06	9.1609e-06	870.43	317.69	1.0194e-05	1.2428e-05	420.65	203.95	144.79	79.813	7.5542e-06	119.95	0.003376	0.003555	0.00098586	792.78	3.8675e-05	3.9249e-05	967.82	352.04	3.8877e-05	3.9501e-05	468.69	220.09	166.96	85.588	3.9121e-05	127.43	104.272	-30.726	97.335	-77.002	178.574	187.297	-77.738	-73.035	-38.419	-3.115	-74.175	-70.498	-69.477	-64.366	240.294	-66.617	-8191	255	
1254.993	1	1	0	0	0.1818	0.24639	0.22278	0.15961	0.079512	0.21726	0.22287	0.23734	0.024596	0.13385	0.13834	0.29091	0.085901	0.48049	0.23556	0.26426	-1.4813	-2.1021	-2.1208	-1.7958	-2.3292	-1.9583	-2.075	-2.3125	-2.0812	-2.1104	-2.2313	-2.0458	-2.3729	-2.4667	-1.9479	-2.6688	146.238	-64.479	173.623	127.706	111.807	128.585	-83.399	231.544	164.325	45.100	257.091	222.768	53.302	261.359	-82.846	210.681	0.0010731	0.00097194	0.00020722	703.09	1.0867e-05	8.3755e-06	873.98	318.87	1.2094e-05	5.4279e-06	420.77	204.61	144.87	79.817	9.037e-06	120.72	0.003413	0.0036085	0.00099031	793.14	3.8967e-05	3.9251e-05	968.64	352.53	3.8872e-05	3.9197e-05	469.76	220.36	166.93	85.665	3.8885e-05	128.05	109.898	-2.405	-14.804	-77.540	9.784	2.652	-77.640	-73.042	252.376	54.236	-74.044	-70.696	-69.374	-64.543	-24.008	-66.587	-8191	255	
1255.089	1	1	0	0	0.12238	0.062331	0.25016	0.17088	0.14652	0.12286	0.16231	0.2137	0.21725	0.30404	0.15622	0.15614	0.21696	0.21997	0.021351	0.25323	-1.5562	-2.1208	-2.3292	-1.8875	-2.1	-2.0812	-2.0271	-2.4229	-2.075	-2.1104	-2.3563	-2.025	-2.1771	-2.4521	-2.0125	-2.4521	7.014	241.894	45.839	28.515	155.851	-55.736	191.090	211.252	264.567	-6.981	-60.127	-14.030	260.422	251.307	67.071	170.556	0.00093235	0.0011842	0.00024724	703.33	6.0361e-06	2.2751e-06	875.47	320.53	1.0847e-05	8.0481e-06	423.92	204.76	145.09	79.926	1.2438e-05	120.45	0.0033885	0.0035905	0.00099603	793.61	3.8781e-05	3.9349e-05	969.76	353.42	3.8876e-05	3.959e-05	472.78	221.05	167.45	85.75	3.964e-05	128.39	113.449	-26.589	252.586	-77.299	59.274	59.577	-77.823	-73.140	80.818	54.298	-74.129	-70.571	-69.707	-64.292	-49.126	-66.673	-8191	255	
1255.184	1	1	0	0	0.095845	0.21587	0.20011	0.093053	0.23517	0.16262	0.080419	0.24692	0.21687	0.15227	0.12395	0.22842	0.06297	0.22041	0.067549	0.22805	-1.7188	-2.0125	-2.3146	-1.8396	-2.3417	-2.2604	-2.0833	-2.5062	-1.975	-2.1042	-2.525	-1.8896	-2.2208	-2.2708	-1.7104	-2.5396	-83.804	137.351	227.858	215.636	143.103	122.478	230.293	247.239	-25.085	249.770	166.363	252.918	91.579	224.132	-47.135	184.899	0.00094866	0.0006565	5.8233e-05	702.18	1.6065e-06	1.2195e-05	872.51	317.53	1.2094e-05	1.5117e-05	420.38	204.21	144.52	79.653	1.4661e-05	119.77	0.0034547	0.0036703	0.0010139	795.12	3.9354e-05	3.9949e-05	969.53	352.85	3.9232e-05	3.9609e-05	470.45	220.75	166.62	85.551	3.951e-05	127.57	127.386	-53.235	66.518	-77.058	-46.125	-23.367	-77.828	-73.139	147.432	62.417	-74.227	-70.660	-69.825	-64.587	-42.756	-66.459	-8191	255	
1255.282	1	1	0	0	0.049057	0.28229	0.17903	0.042683	0.16543	0.18251	0.19159	0.30931	0.10293	0.37844	0.028377	0.29454	0.22503	0.13744	0.25818	0.31349	-1.6021	-1.6875	-2.4333	-2.0563	-2.125	-2.3229	-2.0396	-2.2542	-2.0292	-2.0229	-2.4875	-1.9896	-2.2062	-2.3521	-1.7854	-2.6188	-32.453	-87.781	16.862	108.287	-20.147	94.204	255.811	264.898	33.104	143.505	-74.715	-86.579	255.779	252.904	195.087	223.951	0.00090789	0.00044277	0.00022459	700.26	6.962e-06	3.048e-06	867.88	317.6	2.9027e-06	1.2954e-05	417.32	203.19	144.28	79.734	1.5986e-05	120	0.003474	0.0036582	0.0010224	794.75	3.9844e-05	4.019e-05	964.98	351.93	3.9976e-05	4.0456e-05	467.84	219.72	167.01	85.597	3.9987e-05	127.51	111.272	68.259	137.934	-77.001	81.068	59.433	-77.779	-72.906	138.072	98.987	-74.183	-70.635	-69.556	-64.496	63.502	-66.586	-8191	255	
1255.376	1	1	0	0	0.35297	0.13853	0.27241	0.10551	0.15493	0.24361	0.31815	0.19728	0.25613	0.29333	0.094298	0.1816	0.36132	0.17963	0.21732	0.32828	-1.5979	-1.8833	-2.3083	-2.0792	-2.1625	-2.2438	-1.8896	-2.2958	-1.9083	-1.9062	-2.5146	-2.0417	-2.3271	-2.5771	-1.9562	-2.2771	125.130	-16.715	100.134	-39.974	65.443	69.035	234.859	85.972	124.875	188.886	-72.758	-87.623	232.390	211.897	123.682	-60.935	0.00089696	0.001144	0.00044923	698.16	1.077e-05	1.0092e-05	864.48	315.91	1.5813e-05	1.0769e-05	415.98	203.45	143.88	79.564	5.2187e-06	119.86	0.0034854	0.003695	0.0010297	793.27	4.0023e-05	4.0533e-05	962.78	350.63	3.9538e-05	3.9929e-05	467.72	219.2	166.18	85.433	3.9274e-05	127.67	128.649	46.122	34.781	-77.089	47.537	-24.677	-77.853	-73.028	-6.229	72.268	-74.140	-70.575	-69.531	-64.437	214.140	-66.445	-8191	255	
1255.472	1	1	0	0	0.34383	0.10438	0.071127	0.053703	0.14193	0.15298	0.40425	0.25712	0.072088	0.073188	0.075464	0.23485	0.32339	0.21641	0.16717	0.1944	-1.7313	-1.8146	-2.3083	-2.0479	-1.9521	-2.2792	-1.8896	-2.2875	-2.0687	-1.8542	-2.5833	-2.1604	-2.0646	-2.5146	-1.8042	-2.3312	-32.755	-86.054	231.951	161.755	-60.006	144.557	173.513	226.426	193.119	-59.078	260.375	231.714	218.385	-20.637	-90.145	204.345	0.0010072	0.00029495	0.00030439	700.28	5.7352e-06	1.0408e-05	863.32	318.18	8.2475e-06	4.0656e-06	421.28	203.29	143.92	79.482	1.6257e-05	120.27	0.0034397	0.0036324	0.001009	791.49	3.9515e-05	4.0162e-05	963.25	351.62	3.9576e-05	3.9863e-05	471.21	220.03	166.56	85.435	3.9484e-05	128.05	109.053	235.391	261.929	-77.043	-44.403	130.418	-77.900	-73.113	24.358	125.781	-74.103	-70.708	-69.600	-64.428	-83.650	-66.633	-8191	255	
1255.593	1	1	0	0	0.094688	0.038435	0.24139	0.17805	0.048014	0.16623	0.25526	0.18923	0.18562	0.092379	0.096041	0.26871	0.2346	0.059467	0.25685	0.10648	-1.8208	-1.8438	-2.1792	-2.1792	-1.9021	-2.4542	-1.8312	-2.2021	-2.2625	-1.9792	-2.6042	-2.2938	-1.8062	-2.6479	-2.1437	-2.2958	-50.947	196.340	109.955	-63.838	126.855	249.991	163.384	223.690	141.825	34.584	169.612	-71.515	85.648	-30.875	243.895	218.702	0.00083495	0.0012337	0.00022213	704.04	1.4736e-05	7.2077e-06	870.34	314.19	7.6342e-06	1.0949e-05	420.93	202.03	143.19	79.328	6.6727e-06	119.02	0.0034569	0.0036638	0.0010189	793.38	3.9742e-05	4.0318e-05	968.34	350.73	4.0074e-05	4.053e-05	470.2	219.09	165.98	85.255	4.0074e-05	127.05	109.246	63.074	233.806	-77.216	81.538	-49.771	-77.897	-73.002	250.886	79.760	-74.178	-70.639	-69.508	-64.393	266.683	-66.619	-8191	255	
1255.689	1	1	0	0	0.18014	0.18714	0.24231	0.35154	0.10873	0.27114	0.18118	0.12321	0.17254	0.16633	0.10735	0.17153	0.34315	0.26783	0.038048	0.18692	-2.0208	-1.8333	-2.1021	-2.1958	-1.8708	-2.375	-1.8792	-2.2938	-2.4167	-1.9438	-2.2375	-2.3125	-2	-2.4875	-1.9729	-2.2812	157.814	184.623	206.282	260.418	-55.849	121.309	197.646	237.191	264.107	-17.514	-59.042	209.906	230.516	202.585	-41.143	157.079	0.00090003	0.00056235	0.00014269	699.84	1.4522e-05	1.818e-05	862.31	314.09	8.1245e-06	3.1789e-06	417.84	201.54	143	79.511	9.522e-06	119.88	0.0034822	0.0036582	0.0010202	790.59	3.9472e-05	3.9972e-05	958.96	348.55	3.9038e-05	3.9424e-05	466.98	218.14	165.19	85.2	3.9234e-05	127.12	124.884	109.963	-21.688	-77.342	11.537	43.712	-77.973	-73.219	-76.525	87.565	-74.419	-70.577	-69.439	-64.424	50.539	-66.389	-8191	255	
1255.785	1	1	0	0	0.21676	0.15286	0.18222	0.067269	0.073523	0.07733	0.35821	0.32969	0.20362	0.010524	0.19313	0.12199	0.052696	0.19976	0.067091	0.31733	-1.9792	-1.8937	-2.0208	-2.3292	-1.7313	-2.2833	-2.2083	-2.0271	-2.4208	-1.8979	-2.2167	-2.4333	-1.8813	-2.3563	-2.0854	-2.1	33.596	155.443	157.252	-57.589	257.586	51.956	176.627	202.015	237.861	-88.857	229.772	177.593	86.281	259.846	-75.044	182.618	0.00074764	0.0006943	0.00021606	697.46	1.9136e-05	2.1955e-05	866.89	315.8	1.0417e-05	1.8746e-05	420.86	201.92	142.21	79.638	7.1663e-06	119.71	0.0034469	0.0036033	0.00099842	787.46	3.8761e-05	3.9288e-05	960.22	348.1	3.8495e-05	3.8701e-05	468.51	218.06	164.69	85.212	3.8303e-05	126.93	97.668	223.319	104.014	-76.909	-42.131	67.253	-77.817	-73.083	205.733	31.507	-74.319	-70.784	-69.258	-64.616	62.728	-66.709	-8191	255	
1255.857	1	1	0	0	0.25592	0.13723	0.26002	0.2821	0.076964	0.020162	0.095889	0.087455	0.14023	0.26609	0.45313	0.19129	0.28625	0.34221	0.12347	0.059885	-1.8708	-1.9604	-2.0396	-2.4583	-1.8417	-2.3312	-2.1021	-1.8167	-2.3021	-1.9417	-2.2562	-2.3667	-1.9292	-2.4542	-2.2188	-2.1437	125.772	10.340	266.360	203.778	137.210	139.721	240.704	216.543	224.003	150.029	248.147	-83.595	194.580	252.581	-47.136	93.142	0.0010922	0.0018987	0.00021929	703.3	7.0754e-07	8.857e-06	866.75	314.82	9.4724e-06	9.2337e-06	422.87	202.55	142.79	80.136	1.6688e-05	120.05	0.0033759	0.0035532	0.0009858	790.37	3.851e-05	3.922e-05	963.65	348.54	3.8609e-05	3.885e-05	470.73	218.59	165.04	85.609	3.8318e-05	127.43	110.492	-1.936	59.095	-77.327	24.915	86.013	-77.903	-73.174	1.380	62.606	-74.123	-70.513	-69.268	-64.565	-87.906	-66.556	-8191	255	
1255.953	1	1	0	0	0.058264	0.17994	0.19207	0.17838	0.23354	0.11029	0.09371	0.26545	0.12598	0.3051	0.24327	0.14055	0.20905	0.27338	0.32166	0.2054	-1.9208	-1.9271	-1.95	-2.4333	-1.7958	-2.3688	-2.3063	-1.8312	-2.3646	-1.8917	-2.0479	-2.4062	-1.925	-2.3521	-2.2125	-2.1063	27.861	37.555	210.418	237.511	28.256	258.941	-47.328	191.133	168.919	226.335	207.831	233.226	231.307	201.042	146.677	189.035	0.0012182	0.00086086	0.00030892	700.77	5.6722e-06	3.4515e-06	871.32	313.61	9.3279e-06	1.5288e-06	420.95	201.25	142.71	79.727	2.6305e-06	119.47	0.0033605	0.0035134	0.000975	788.08	3.7676e-05	3.834e-05	962.64	346.15	3.8034e-05	3.8179e-05	467.41	216.93	163.96	85.238	3.779e-05	126.63	118.295	-56.201	8.258	-77.162	69.206	114.972	-77.778	-72.895	153.172	186.320	-73.948	-70.543	-69.226	-64.634	9.929	-66.395	-8191	255	
1256.073	1	1	0	0	0.2978	0.17612	0.39166	0.16908	0.22131	0.11004	0.20764	0.34483	0.27028	0.15383	0.04491	0.14267	0.14221	0.21053	0.25732	0.33581	-1.9396	-1.9937	-1.8042	-2.4042	-1.9937	-2.1604	-2.3083	-2.0563	-2.3167	-2.075	-2.2938	-2.5625	-1.9417	-2.25	-2.2146	-2.1125	-81.521	-86.291	35.782	226.169	248.807	-72.727	-85.200	242.536	53.650	239.164	19.935	237.932	257.962	236.448	213.130	218.047	0.00085685	0.0016386	0.0004335	698.58	7.6415e-06	8.1524e-06	864.13	312.08	4.7496e-06	1.1603e-05	419.95	200.65	142.27	79.665	1.5092e-05	119.3	0.0033131	0.0034748	0.00096971	787.43	3.7646e-05	3.8042e-05	954.19	344.04	3.7696e-05	3.8095e-05	465.22	216.35	163.73	85.219	3.7856e-05	126.37	119.063	-35.102	51.599	-77.196	33.176	36.346	-77.781	-72.964	212.243	132.474	-74.310	-70.725	-69.249	-64.459	-10.025	-66.529	-8191	255	
1256.170	1	1	0	0	0.051515	0.045503	0.09476	0.066851	0.22247	0.095226	0.071468	0.13427	0.30084	0.091904	0.11428	0.26897	0.25165	0.20707	0.28869	0.1423	-1.8667	-2.1542	-1.8667	-2.5417	-1.9979	-2.0292	-2.5271	-1.8833	-2.1604	-2.1042	-2.075	-2.4646	-2.0917	-2.2292	-2.3521	-2.1417	-17.498	-34.521	126.587	213.155	156.559	154.035	222.396	166.180	67.870	135.274	135.645	265.580	-84.619	235.908	207.111	232.328	0.00072012	0.0017557	0.00061513	698.39	7.6493e-06	8.6902e-06	862.44	311.58	5.8363e-06	5.4835e-06	422.99	200.83	143.01	79.697	1.6037e-05	119.04	0.0032992	0.0034355	0.00095995	783.29	3.7349e-05	3.8223e-05	954.27	344.1	3.7666e-05	3.7991e-05	467.71	216.61	163.52	85.353	3.7671e-05	126.33	109.985	-11.260	1.251	-76.989	17.302	13.753	-78.128	-73.010	222.177	6.727	-74.026	-70.684	-69.658	-64.598	189.560	-66.691	-8191	255	
1256.264	1	1	0	0	0.23037	0.30052	0.18327	0.30822	0.24624	0.082181	0.11587	0.3543	0.12487	0.17901	0.019805	0.28739	0.097669	0.31625	0.10225	0.29909	-1.8292	-2.1146	-1.75	-2.5958	-2.0521	-2.1188	-2.3604	-2.0521	-1.9937	-2.2188	-1.9458	-2.4375	-2.2	-2.2542	-2.425	-2.1979	220.013	-3.181	250.132	267.308	16.467	229.886	151.627	229.652	254.863	159.271	116.228	138.979	-34.882	-68.117	-23.413	196.420	0.0012665	0.00033341	0.00029184	698.81	1.3809e-05	1.284e-05	864.66	312.7	1.4094e-05	1.103e-05	423.14	202.2	142.01	79.687	4.7062e-06	119.47	0.0033082	0.0034737	0.00096248	784.96	3.7514e-05	3.8047e-05	953.47	344.72	3.7406e-05	3.7656e-05	468.61	217.2	163.41	85.3	3.7592e-05	126.58	132.970	44.682	17.874	-77.328	48.098	107.411	-77.648	-73.150	6.735	35.173	-74.328	-70.690	-69.433	-64.816	71.303	-66.499	-8191	255	
1256.362	1	1	0	0	0.046729	0.26776	0.28641	0.1745	0.088948	0.11141	0.11673	0.025214	0.26191	0.21912	0.38084	0.1766	0.30549	0.18833	0.17227	0.1936	-1.75	-2.2229	-1.9708	-2.4062	-2.0542	-1.875	-2.6312	-1.975	-2.1521	-2.2333	-1.9021	-2.4333	-2.3187	-2.0167	-2.5104	-2.0938	68.641	208.511	-69.716	227.391	-79.384	264.416	128.038	211.409	58.213	-82.461	265.502	242.177	-83.986	-79.990	131.095	191.845	0.0010933	0.00096494	0.00022438	695.75	9.1946e-06	8.8935e-06	862.04	311.54	1.0992e-05	1.7284e-05	418.1	200.25	141.37	79.612	1.41e-05	118.67	0.0032932	0.0034482	0.0009541	783.15	3.6942e-05	3.7551e-05	950.72	342.28	3.6695e-05	3.7267e-05	464.08	215.19	162.58	84.959	3.6845e-05	125.68	121.008	-67.664	51.550	-77.519	60.805	75.539	-77.795	-73.066	49.780	51.727	-74.150	-70.570	-69.299	-64.768	35.958	-66.611	-8191	255	
1256.481	1	1	0	0	0.13134	0.10425	0.16409	0.12971	0.22381	0.20459	0.072747	0.3747	0.15415	0.10433	0.14553	0.22176	0.24548	0.21953	0.13431	0.34285	-1.6458	-2.2896	-2.0208	-2.3896	-2.3104	-1.775	-2.4896	-2.0812	-2.0396	-2.2438	-2.0104	-2.3479	-2.3083	-2.0938	-2.3271	-2.2625	201.124	36.498	96.628	256.444	-49.585	249.193	-2.777	220.883	88.783	-31.038	-83.329	222.603	221.045	242.624	230.304	258.845	0.00081154	0.0013567	0.00043543	695.24	1.3937e-05	1.1633e-05	848.33	308.03	1.9078e-05	8.9594e-06	417.57	199.35	142.26	79.569	4.2778e-06	118.64	0.0032409	0.0034126	0.00094485	780.06	3.6995e-05	3.7458e-05	940.59	340.9	3.7081e-05	3.7519e-05	463.38	214.99	162.34	84.898	3.66e-05	125.47	114.323	10.973	22.454	-77.203	38.689	-4.960	-77.613	-73.148	-5.720	-30.657	-74.144	-70.482	-69.505	-64.564	-21.078	-66.606	-8191	255	
1256.552	1	1	0	0	0.19566	0.31384	0.24993	0.2854	0.22861	0.18756	0.23683	0.12325	0.096348	0.086671	0.23008	0.28427	0.13701	0.21031	0.26092	0.35842	-1.6625	-2.4646	-1.9229	-2.3	-2.1896	-1.7729	-2.3521	-2.2917	-2.0021	-2.3771	-2.1729	-2.425	-2.3375	-2.05	-2.2958	-2.2562	147.587	11.026	29.525	-24.393	115.745	262.309	102.639	190.968	212.783	253.383	159.611	222.665	73.206	255.429	95.916	231.406	0.00078936	0.001107	6.2013e-05	691.12	1.2795e-05	9.7072e-06	853.34	309.47	7.1832e-06	2.9833e-06	418.71	200.33	142.29	79.443	5.7492e-06	119.38	0.0031701	0.0033213	0.00091542	775.14	3.587e-05	3.6463e-05	938.65	339.26	3.6055e-05	3.6487e-05	462.73	215.17	162.16	84.853	3.6121e-05	126.07	111.674	-6.809	191.737	-77.405	72.915	77.220	-77.839	-73.072	65.660	13.767	-73.949	-70.640	-69.428	-64.579	112.543	-66.544	-8191	255	
1256.673	1	1	0	0	0.24743	0.098759	0.096221	0.27968	0.15206	0.25905	0.18356	0.11796	0.28127	0.10459	0.11931	0.22657	0.16596	0.47431	0.15296	0.19532	-1.5792	-2.3917	-1.9333	-2.3979	-2.3771	-1.9083	-2.3229	-2.3625	-1.9583	-2.3417	-2.2375	-2.2479	-2.6229	-2.1354	-2.2729	-2.3896	-68.774	26.791	21.935	-74.806	-77.800	86.033	-77.069	-67.584	-78.713	108.648	221.538	193.400	208.080	255.264	27.016	170.805	0.00088046	0.0012043	0.00024217	691.45	5.8207e-06	1.0238e-05	846.65	308.43	1.0665e-05	9.9943e-06	417.72	200.41	142.63	79.637	9.0851e-06	118.94	0.0031745	0.0033447	0.00092293	774.65	3.6209e-05	3.677e-05	937.74	339.83	3.6464e-05	3.6614e-05	462.93	215.59	162.59	84.931	3.6532e-05	126.06	120.261	-53.979	46.588	-77.096	251.967	93.277	-77.857	-73.167	15.228	25.667	-74.108	-70.523	-69.424	-64.700	34.467	-66.802	-8191	255	
1256.769	1	1	0	0	0.28078	0.076793	0.14167	0.28125	0.10789	0.1036	0.12696	0.1877	0.19006	0.043485	0.10296	0.096061	0.15111	0.2776	0.28384	0.27116	-1.5208	-2.4813	-2.1417	-2.2146	-2.3458	-1.7979	-2.3042	-2.3167	-2.0667	-2.525	-2.1167	-2.2854	-2.4521	-2.1854	-2.1729	-2.5875	162.143	175.023	77.563	200.945	-13.069	268.697	206.242	164.115	152.392	42.235	202.057	-70.526	223.953	219.099	-25.473	211.521	0.00047772	0.00066994	0.00033787	688.51	1.1864e-05	4.8851e-06	843.25	306.38	1.6702e-05	1.9191e-05	414.45	198.59	140.98	79.146	6.3714e-06	118.1	0.003199	0.0033505	0.00092822	772.4	3.6127e-05	3.6473e-05	930.43	337.51	3.6051e-05	3.6262e-05	457.91	213.97	161.32	84.531	3.6451e-05	125.27	123.803	6.175	64.337	-77.269	18.219	45.432	-77.782	-73.054	-52.155	48.573	-74.419	-70.545	-69.356	-64.572	-23.421	-66.627	-8191	255	
1256.865	1	1	0	0	0.012584	0.05844	0.096769	0.1738	0.15297	0.22464	0.37048	0.011919	0.26829	0.22138	0.1699	0.23499	0.15093	0.078553	0.17405	0.29744	-1.4625	-2.25	-1.9604	-1.9417	-2.3854	-1.8542	-2.3563	-2.4229	-1.8167	-2.5229	-2.4208	-2.0396	-2.6479	-2.2042	-2.1083	-2.4021	49.591	-26.012	-68.398	214.625	190.557	72.849	155.450	262.203	16.552	57.752	224.102	186.877	-28.252	201.986	117.890	-72.538	0.00092795	0.0013398	0.00040093	683.87	1.2596e-05	1.2978e-05	831.78	305.97	1.2236e-05	1.6705e-05	412.77	197.64	140.97	79.145	1.6493e-05	118.04	0.0032061	0.0033483	0.00093137	768.12	3.6184e-05	3.6617e-05	922.94	336.98	3.6168e-05	3.6521e-05	458.04	213.35	161.14	84.368	3.6326e-05	124.94	109.466	27.326	57.016	-77.150	18.837	90.739	-77.712	-73.092	-30.081	81.866	-74.178	-70.598	-69.444	-64.718	-15.981	-66.604	-8191	255	
1256.962	1	1	0	0	0.12391	0.21458	0.4499	0.17706	0.2444	0.23762	0.23522	0.18134	0.05505	0.2107	0.19262	0.25993	0.11972	0.27108	0.34382	0.34285	-1.3646	-2.2854	-1.9875	-1.9646	-2.2896	-2.0646	-2.3021	-2.4021	-1.7083	-2.2792	-2.3104	-1.9354	-2.4292	-2.2271	-1.8333	-2.7396	14.090	185.205	135.178	226.699	122.602	267.893	220.499	78.772	-75.545	231.505	-73.209	265.967	73.566	-70.969	224.219	225.498	0.00094108	0.00032271	0.00028492	680.58	3.1257e-06	6.0817e-06	838.82	304.26	7.837e-06	3.2179e-06	412.19	199.12	141.33	78.859	1.4052e-06	118.15	0.0031749	0.0033376	0.00092011	766.37	3.5836e-05	3.6471e-05	925.35	336.36	3.5971e-05	3.6519e-05	458.01	213.79	161.21	84.274	3.6379e-05	125.11	132.327	264.449	38.373	-77.361	-17.932	24.247	-77.771	-72.834	46.759	8.320	-74.327	-70.593	-69.359	-64.681	182.949	-66.741	-8191	255	
1257.082	1	1	0	0	0.19121	0.11705	0.046615	0.13567	0.15109	0.17809	0.16525	0.36121	0.17859	0.12775	0.33873	0.25865	0.17102	0.14299	0.26784	0.18251	-1.6938	-2.0667	-2.1813	-1.9208	-2.2667	-2.0667	-2.25	-2.5125	-1.8062	-2.3125	-2.5333	-1.9604	-2.5708	-2.3	-1.7792	-2.5146	250.386	2.152	225.688	221.891	231.764	33.596	167.281	243.862	-31.862	151.590	265.792	248.658	-24.763	256.025	20.005	241.734	0.00094896	0.00025075	0.00041519	683.56	2.058e-05	1.0371e-05	835.41	304	6.201e-06	7.2349e-06	413.84	198.52	141.23	79.078	5.9966e-06	118.45	0.0031793	0.0033384	0.00092944	766.95	3.6096e-05	3.6643e-05	924.3	335.94	3.6079e-05	3.6609e-05	459.33	213.87	161.27	84.373	3.6292e-05	125.32	121.509	42.070	58.703	-77.107	-19.081	113.135	-77.656	-72.932	-2.893	40.320	-74.083	-70.717	-69.600	-64.745	57.031	-66.629	-8191	255	
1257.154	1	1	0	0	0.057962	0.27933	0.1716	0.27531	0.25555	0.19287	0.20083	0.17312	0.17477	0.32778	0.13319	0.051636	0.021438	0.23221	0.13636	0.38261	-1.4771	-2.1604	-2.125	-1.825	-2.35	-2.0854	-1.8083	-2.4313	-2.0708	-2.1708	-2.475	-2.1562	-2.3354	-2.45	-1.9854	-2.6375	172.668	-44.292	70.083	226.932	87.091	237.165	-84.338	206.297	169.024	118.591	156.464	-24.013	13.303	-74.963	80.864	219.016	0.00070452	0.0018734	0.00025933	679.21	5.7469e-06	1.0734e-05	830.03	303.88	5.5563e-06	1.1028e-05	410.68	198.11	139.64	78.642	7.3585e-06	117.69	0.0031792	0.0033467	0.00092469	764.13	3.5731e-05	3.6469e-05	918.08	334.8	3.5984e-05	3.6557e-05	455.33	212.8	160.56	83.944	3.6031e-05	124.56	120.186	-69.440	-4.561	-77.224	189.443	-14.187	-77.758	-72.928	-34.924	-23.980	-74.057	-70.392	-69.277	-64.771	107.695	-66.562	-8191	255	
1257.250	1	1	0	0	0.12003	0.25173	0.26031	0.097526	0.26493	0.12456	0.21126	0.061796	0.11649	0.21373	0.36846	0.18493	0.18241	0.11804	0.25689	0.18062	-1.5646	-2.1375	-2.2646	-2.2667	-2.2729	-2.1229	-1.8104	-2.4021	-2.1146	-1.9562	-2.4437	-2.0604	-2.4604	-2.4833	-1.7146	-2.6354	-48.715	78.219	131.713	240.268	255.745	187.550	-40.121	-38.012	179.192	60.862	243.233	-72.866	206.234	228.184	105.326	-86.805	0.00097467	0.0013912	0.00038533	678.8	3.4925e-06	4.6687e-06	826.02	304.79	3.2309e-06	1.1349e-05	411.42	198.28	140.18	78.604	1.66e-05	117.66	0.0031494	0.0033251	0.00091957	759.27	3.5618e-05	3.6046e-05	912.92	334.09	3.5349e-05	3.5728e-05	453.47	212.29	160.07	83.822	3.5196e-05	124.51	115.970	-70.467	-9.052	-77.340	2.534	94.598	-77.666	-72.974	68.991	75.555	-74.089	-70.552	-69.724	-64.661	52.890	-66.739	-8191	255	
1257.369	1	1	0	0	0.16781	0.08787	0.13865	0.076416	0.079496	0.086937	0.30467	0.27092	0.21553	0.35418	0.084531	0.070466	0.40209	0.040743	0.11691	0.16064	-1.6729	-1.9062	-2.1833	-1.7667	-2.2	-2.2125	-1.8479	-2.1708	-2.1833	-1.8417	-2.4729	-2.1208	-2.2562	-2.6188	-1.9646	-2.5229	-27.782	-57.518	104.254	177.233	-23.241	191.000	252.392	238.695	28.278	214.678	-56.421	251.275	-57.741	-69.443	-86.474	256.766	0.00089601	0.0005212	0.00050186	675.88	1.0179e-05	5.7439e-06	826.33	304.94	5.9469e-06	9.6035e-06	408.82	198.81	140.66	78.775	1.3878e-05	117.55	0.0030875	0.0032436	0.00090244	756.77	3.5109e-05	3.5538e-05	910.53	333.81	3.5015e-05	3.5483e-05	453.78	212.97	160.2	83.906	3.5263e-05	124.57	120.892	183.393	27.391	-77.442	168.645	-12.804	-77.790	-72.877	-14.086	52.848	-74.091	-70.519	-69.492	-64.702	40.578	-66.601	-8191	255	
1257.465	1	1	0	0	0.38111	0.2063	0.085039	0.24921	0.20238	0.078706	0.054783	0.103	0.19902	0.11166	0.061158	0.048698	0.2428	0.34451	0.24332	0.070636	-1.7021	-1.7896	-2.425	-2.0938	-2.0771	-2.4354	-2.0167	-2.375	-2.1646	-1.9125	-2.4792	-2.2271	-2.1188	-2.3958	-1.8563	-2.5083	-75.990	-29.983	222.629	258.965	247.782	-59.284	-14.056	197.524	106.128	-16.979	265.369	172.695	168.135	246.027	-13.694	205.134	0.00077589	0.00071671	0.00011501	675.9	1.204e-05	1.3427e-05	825.38	302.7	6.9584e-06	9.6679e-06	411.43	197.98	139.77	78.384	9.7154e-06	117.24	0.0030943	0.0032735	0.00091049	758.14	3.5638e-05	3.6183e-05	913.05	333.72	3.538e-05	3.5949e-05	454.94	212.58	159.57	83.621	3.5318e-05	124.16	108.713	155.105	4.918	-76.900	-16.264	12.568	-77.924	-72.899	223.104	86.440	-73.984	-70.518	-69.437	-64.834	-46.203	-66.725	-8191	255	
1257.561	1	1	0	0	0.12328	0.25044	0.12802	0.19844	0.26891	0.1406	0.11166	0.055025	0.02902	0.017526	0.16314	0.31537	0.15188	0.1373	0.077638	0.25103	-1.7646	-1.9896	-2.4875	-2.0833	-2.025	-2.3063	-2.15	-2.2042	-2.2188	-1.9854	-2.3958	-2.1542	-2.0271	-2.7167	-1.8729	-2.4313	179.536	123.694	38.052	-82.721	-83.451	67.976	121.973	-30.147	180.392	169.092	265.598	194.011	223.580	266.819	-69.002	218.533	0.001086	0.00062849	0.00057522	673.32	1.0517e-05	1.0949e-05	823.86	301.56	1.3967e-05	1.9921e-05	408.79	196.72	139.36	78.411	8.1426e-06	116.93	0.003116	0.0032768	0.00091769	757.05	3.6009e-05	3.6559e-05	911.04	333.05	3.6024e-05	3.6522e-05	452.91	211.69	159.53	83.492	3.5903e-05	123.79	117.133	-26.551	25.377	-77.400	63.287	174.447	-77.870	-72.990	31.258	37.072	-74.311	-70.721	-69.608	-64.452	136.300	-66.506	-8191	255	
1257.657	1	1	0	0	0.11965	0.066846	0.063171	0.095241	0.18986	0.098182	0.19464	0.17498	0.20198	0.19684	0.10455	0.032988	0.071114	0.34537	0.075876	0.25702	-1.6625	-1.9646	-2.4188	-2.2479	-1.9833	-2.4333	-2.1937	-2.3479	-2.3271	-1.8417	-2.5083	-2.2542	-2.0021	-2.5687	-1.9875	-2.3458	27.427	153.424	-73.391	210.689	111.191	10.804	246.524	107.465	6.544	42.247	218.089	-64.336	-50.525	229.025	50.975	169.618	0.00074567	0.00085764	0.00036548	672.63	1.2287e-05	5.3117e-06	819.15	302.58	1.7565e-05	1.5902e-05	409.77	196.81	138.47	78.048	2.2906e-05	117.11	0.003139	0.003296	0.0009203	755.04	3.5506e-05	3.6171e-05	905.15	332.32	3.5143e-05	3.5568e-05	451.35	211.08	158.84	83.348	3.5658e-05	123.96	120.022	2.204	29.056	-77.339	4.476	234.573	-77.824	-73.003	0.036	142.716	-74.006	-70.748	-69.244	-64.499	50.104	-66.600	-8191	255	
1257.753	1	1	0	0	0.31928	0.3196	0.1763	0.14584	0.10399	0.26785	0.14627	0.2176	0.48852	0.01857	0.023535	0.12701	0.063435	0.34138	0.16953	0.060592	-1.9146	-1.8896	-2.0646	-2.1583	-1.7521	-2.3104	-2.1833	-2.1688	-2.3563	-1.8333	-2.475	-2.4938	-2.0375	-2.4375	-2.1625	-2.2625	-70.637	94.267	66.866	260.776	-61.249	18.744	185.199	219.576	-13.557	116.706	29.359	160.045	133.709	254.140	5.391	-48.671	0.00096426	0.00069963	0.00028949	673.32	3.8789e-06	5.2251e-06	818.79	301.44	9.2637e-06	1.3538e-05	409.45	197.49	139.2	78.382	9.077e-06	117.23	0.0031587	0.0033429	0.00093317	757.5	3.6492e-05	3.6937e-05	908.65	333.37	3.6484e-05	3.7017e-05	455.34	212.26	159.8	83.69	3.6532e-05	124.18	110.531	55.599	29.732	-77.168	-5.120	67.368	-77.814	-72.723	8.324	61.278	-73.962	-70.625	-69.610	-64.595	-61.808	-66.632	-8191	255	
1257.850	1	1	0	0	0.15429	0.31669	0.10425	0.080683	0.099349	0.32632	0.39617	0.3121	0.26271	0.18747	0.08614	0.27519	0.12095	0.23177	0.29885	0.18679	-1.8875	-2.0354	-2.1917	-2.4188	-1.8271	-2.3396	-2.1625	-2.2042	-2.4292	-2.0292	-2.3333	-2.3625	-1.9542	-2.5312	-2.2542	-2.2771	193.603	152.235	-88.805	167.604	79.582	-2.502	204.715	180.748	8.539	-82.210	-2.083	-78.615	28.155	-78.455	25.232	188.064	0.0010344	0.0017324	0.00025204	675.58	3.0005e-06	4.7935e-06	821.05	302.33	1.6447e-05	1.2145e-05	407.64	197.11	138.83	78.192	1.8564e-06	116.87	0.0031968	0.0033531	0.00093331	757.15	3.6503e-05	3.7101e-05	912.2	334.66	3.7135e-05	3.7457e-05	455.12	212.54	160.24	83.648	3.7348e-05	124.07	116.895	-51.716	-16.300	-77.383	12.213	26.177	-77.773	-73.201	17.584	43.475	-74.063	-70.720	-69.405	-64.590	-29.355	-66.602	-8191	255	
1257.946	1	1	0	0	0.14103	0.22349	0.087513	0.33295	0.11186	0.38704	0.055973	0.059507	0.31809	0.28501	0.1457	0.14774	0.2437	0.14242	0.24029	0.19473	-2.1729	-2.2354	-2.1542	-2.5333	-2.0292	-2.425	-2.5	-2.4313	-2.6375	-2.1854	-2.2313	-2.5333	-1.9646	-2.4583	-2.2875	-2.4813	-21.379	267.824	268.182	203.140	13.883	63.318	-75.708	0.496	-73.164	-43.762	-31.085	237.057	-72.421	263.613	193.189	267.228	0.00094103	0.00079336	0.00029594	671	1.6114e-05	7.0288e-06	812.66	301.12	1.1621e-05	1.3745e-05	404.02	195.72	137.17	77.724	2.6156e-05	116.01	0.0032838	0.0034519	0.00096209	756.64	3.7305e-05	3.8044e-05	905.13	331.97	3.7208e-05	3.7785e-05	449.7	210.9	159.21	83.084	3.7567e-05	123.19	119.584	21.476	41.046	-77.429	-8.200	16.820	-77.899	-72.856	23.879	56.784	-74.065	-70.614	-69.372	-64.597	-90.322	-66.604	-8191	255	
1258.042	1	1	0	0	0.16909	0.19783	0.015399	0.28189	0.10855	0.29708	0.35981	0.054682	0.2031	0.22021	0.29432	0.3089	0.11014	0.30543	0.10024	0.29213	-2.1188	-2.1208	-2.175	-2.4625	-2.025	-2.3812	-2.4729	-2.0708	-2.5458	-2.0375	-2.5104	-2.5146	-2.0458	-2.4	-2.4188	-2.0625	24.749	-78.285	82.700	190.190	175.097	-57.353	180.389	49.031	242.700	250.422	211.560	227.278	206.787	231.976	251.393	224.947	0.00086135	0.0013402	0.00035237	667.95	1.5323e-05	5.55e-06	809.37	299.6	7.824e-06	1.3519e-05	405.34	195.49	138.73	77.395	9.9303e-06	116.39	0.0032835	0.0034345	0.00094877	751.29	3.6601e-05	3.7081e-05	898.5	330.13	3.6339e-05	3.6673e-05	450.25	210.62	158.92	82.9	3.7232e-05	123.41	126.600	-51.349	28.650	-77.303	20.715	67.469	-77.797	-72.770	27.978	62.182	-74.195	-70.812	-69.600	-64.611	80.963	-66.554	-8191	255	
#DATA ENDS
