BOXY.EXE: ISS Imagent and Oximeter Data Acquisition Program Version 0.80
Ascii Record File

#ACQ INFORMATION
2  Detector Channels 
16  External MUX Channels 
1  Auxiliary Channels 
5000  Waveform (CCF) Frequency (Hz)
1  Waveforms Skipped 
30  Waveforms Averaged 
1  Cycles Averaged 
16  Acquisitions per Waveform 
10.0806  Updata Rate (Hz) 

#FILE INFORMATION
TRUE -- External MUX Channel results are PARSED.
FALSE -- AC DC and Phase are NOT grouped.
TRUE -- Companion Program Settings File CREATED.
FALSE -- AC data not excluded
FALSE -- DC data not excluded
FALSE -- Phase data not excluded
FALSE -- Auxillary Chn. data not excluded
Tab delimiters

#CALIBRATION STATE
TRUE -- Waveform Calibration Values APPLIED.


#AUX CALIBRATION VALUES
Val Type	aux-1	

Term	1.0000e+00	
Factor	0.0000e+00	


#WF CALIBRATION VALUES
A = Detector Channel
Val Type	A-AC1	A-AC2	A-AC3	A-AC4	A-AC5	A-AC6	A-AC7	A-AC8	A-AC9	A-AC10	A-AC11	A-AC12	A-AC13	A-AC14	A-AC15	A-AC16	A-DC1	A-DC2	A-DC3	A-DC4	A-DC5	A-DC6	A-DC7	A-DC8	A-DC9	A-DC10	A-DC11	A-DC12	A-DC13	A-DC14	A-DC15	A-DC16	A-Ph1	A-Ph2	A-Ph3	A-Ph4	A-Ph5	A-Ph6	A-Ph7	A-Ph8	A-Ph9	A-Ph10	A-Ph11	A-Ph12	A-Ph13	A-Ph14	A-Ph15	A-Ph16	

Term	0.00000e+00	0.00000e+00	0.00000e+00	0.00000e+00	0.00000e+00	0.00000e+00	0.00000e+00	0.00000e+00	0.00000e+00	0.00000e+00	0.00000e+00	0.00000e+00	0.00000e+00	0.00000e+00	0.00000e+00	0.00000e+00	0.00000e+00	0.00000e+00	0.00000e+00	0.00000e+00	0.00000e+00	0.00000e+00	0.00000e+00	0.00000e+00	0.00000e+00	0.00000e+00	0.00000e+00	0.00000e+00	0.00000e+00	0.00000e+00	0.00000e+00	0.00000e+00	0.00000e+00	0.00000e+00	0.00000e+00	0.00000e+00	0.00000e+00	0.00000e+00	0.00000e+00	0.00000e+00	0.00000e+00	0.00000e+00	0.00000e+00	0.00000e+00	0.00000e+00	0.00000e+00	0.00000e+00	0.00000e+00	
Factor	1.00000e+00	1.00000e+00	1.00000e+00	1.00000e+00	1.00000e+00	1.00000e+00	1.00000e+00	1.00000e+00	1.00000e+00	1.00000e+00	1.00000e+00	1.00000e+00	1.00000e+00	1.00000e+00	1.00000e+00	1.00000e+00	1.00000e+00	1.00000e+00	1.00000e+00	1.00000e+00	1.00000e+00	1.00000e+00	1.00000e+00	1.00000e+00	1.00000e+00	1.00000e+00	1.00000e+00	1.00000e+00	1.00000e+00	1.00000e+00	1.00000e+00	1.00000e+00	X	X	X	X	X	X	X	X	X	X	X	X	X	X	X	X	

B = Detector Channel
Val Type	B-AC1	B-AC2	B-AC3	B-AC4	B-AC5	B-AC6	B-AC7	B-AC8	B-AC9	B-AC10	B-AC11	B-AC12	B-AC13	B-AC14	B-AC15	B-AC16	B-DC1	B-DC2	B-DC3	B-DC4	B-DC5	B-DC6	B-DC7	B-DC8	B-DC9	B-DC10	B-DC11	B-DC12	B-DC13	B-DC14	B-DC15	B-DC16	B-Ph1	B-Ph2	B-Ph3	B-Ph4	B-Ph5	B-Ph6	B-Ph7	B-Ph8	B-Ph9	B-Ph10	B-Ph11	B-Ph12	B-Ph13	B-Ph14	B-Ph15	B-Ph16	

Term	0.00000e+00	0.00000e+00	0.00000e+00	0.00000e+00	0.00000e+00	0.00000e+00	0.00000e+00	0.00000e+00	0.00000e+00	0.00000e+00	0.00000e+00	0.00000e+00	0.00000e+00	0.00000e+00	0.00000e+00	0.00000e+00	0.00000e+00	0.00000e+00	0.00000e+00	0.00000e+00	0.00000e+00	0.00000e+00	0.00000e+00	0.00000e+00	0.00000e+00	0.00000e+00	0.00000e+00	0.00000e+00	0.00000e+00	0.00000e+00	0.00000e+00	0.00000e+00	-1.67345e+02	-1.28466e+02	-1.19699e+02	-1.83576e+02	-8.87362e+01	-6.07667e+01	-1.57985e+02	-1.62015e+02	-8.48579e+01	-6.54837e+01	-1.71537e+02	-1.71730e+02	-1.83223e+02	-1.78246e+02	-8.14027e+01	-1.51785e+02	
Factor	2.20819e-05	1.22705e-04	3.64254e-05	1.57401e-01	1.20126e-06	1.19893e-06	1.60961e-01	4.98362e-02	1.05429e-06	1.31104e-06	7.43814e-02	2.51224e-02	2.19682e-02	8.10577e-03	1.31942e-06	1.15977e-02	1.88575e-06	2.02594e-06	5.64688e-07	7.93729e-02	2.20408e-08	2.22281e-08	7.67269e-02	2.52222e-02	2.19966e-08	2.21892e-08	3.64224e-02	1.23052e-02	1.11446e-02	4.10577e-03	2.20339e-08	5.68387e-03	X	X	X	X	X	X	X	X	X	X	X	X	X	X	X	X	



#DISTANCE SETTINGS
A = Detector Channel
A-1	A-2	A-3	A-4	A-5	A-6	A-7	A-8	A-9	A-10	A-11	A-12	A-13	A-14	A-15	A-16	

2.5000e+00	3.0000e+00	2.5000e+00	3.0000e+00	2.0000e+00	3.0000e+00	1.5000e+00	3.0000e+00	3.0000e+00	3.0000e+00	3.0000e+00	3.0000e+00	3.0000e+00	3.0000e+00	1.5000e+00	3.0000e+00	

B = Detector Channel
B-1	B-2	B-3	B-4	B-5	B-6	B-7	B-8	B-9	B-10	B-11	B-12	B-13	B-14	B-15	B-16	

1.0000e+01	1.0000e+01	1.0000e+01	1.4400e+00	1.0000e+01	1.0000e+01	1.5100e+00	1.9400e+00	1.0000e+01	1.0000e+01	1.9900e+00	2.4900e+00	2.4100e+00	2.9000e+00	1.0000e+01	2.9800e+00	




#DATA BEGINS
time	group	step	mark	flag	A-AC1	A-AC2	A-AC3	A-AC4	A-AC5	A-AC6	A-AC7	A-AC8	A-AC9	A-AC10	A-AC11	A-AC12	A-AC13	A-AC14	A-AC15	A-AC16	A-DC1	A-DC2	A-DC3	A-DC4	A-DC5	A-DC6	A-DC7	A-DC8	A-DC9	A-DC10	A-DC11	A-DC12	A-DC13	A-DC14	A-DC15	A-DC16	A-Ph1	A-Ph2	A-Ph3	A-Ph4	A-Ph5	A-Ph6	A-Ph7	A-Ph8	A-Ph9	A-Ph10	A-Ph11	A-Ph12	A-Ph13	A-Ph14	A-Ph15	A-Ph16	B-AC1	B-AC2	B-AC3	B-AC4	B-AC5	B-AC6	B-AC7	B-AC8	B-AC9	B-AC10	B-AC11	B-AC12	B-AC13	B-AC14	B-AC15	B-AC16	B-DC1	B-DC2	B-DC3	B-DC4	B-DC5	B-DC6	B-DC7	B-DC8	B-DC9	B-DC10	B-DC11	B-DC12	B-DC13	B-DC14	B-DC15	B-DC16	B-Ph1	B-Ph2	B-Ph3	B-Ph4	B-Ph5	B-Ph6	B-Ph7	B-Ph8	B-Ph9	B-Ph10	B-Ph11	B-Ph12	B-Ph13	B-Ph14	B-Ph15	B-Ph16	aux-1	digaux	

698.837	1	1	0	768	0.066445	0.19034	0.21602	0.19933	0.04543	0.094725	0.26947	0.13905	0.03973	0.15015	0.13747	0.23787	0.11792	0.14904	0.20703	0.22138	-4.35	-4.5938	-4.1854	-4.8063	-4.3604	-4.2604	-5.0021	-4.3	-4.5854	-4.8417	-4.2583	-4.8812	-4.3667	-4.2292	-4.8354	-4.3479	-23.100	56.537	155.015	217.018	69.708	-34.905	148.256	226.354	-97.343	226.921	-49.822	-107.020	109.961	140.113	46.834	206.909	0.00017399	0.00028278	3.7893e-05	1124.1	2.9893e-06	1.8875e-06	1184.6	232.92	9.5563e-07	5.8011e-06	293.65	83.022	65.434	19.064	7.9857e-07	26.656	0.00016162	0.0001571	4.3929e-05	1091	1.7276e-06	1.7159e-06	1157.8	227.99	1.7819e-06	1.7399e-06	286.37	82.548	64.658	18.982	1.7967e-06	26.71	151.083	-41.347	-3.678	-113.270	5.426	44.800	-113.351	-106.409	-36.993	-0.604	-106.362	-100.552	-100.022	-92.572	-31.228	-92.898	-8191	255	
698.934	1	1	0	0	0.19433	0.13977	0.15904	0.19799	0.25755	0.12333	0.26729	0.10048	0.099141	0.14657	0.34765	0.27555	0.27166	0.19387	0.065877	0.081653	-4.1062	-4.6562	-4.2146	-4.8521	-4.6375	-4.3125	-5.0208	-4.4125	-4.4979	-4.7479	-4.3187	-4.55	-4.5146	-4.2104	-4.7479	-4.3417	-59.286	6.230	-44.668	-78.521	-40.222	104.026	132.993	-18.038	51.999	99.612	67.744	227.556	173.313	-42.568	-8.511	12.490	0.00013318	0.00018756	4.8153e-05	1129.2	2.7446e-06	2.7452e-06	1189.7	232.81	2.5666e-06	2.7206e-06	293.78	83.066	65.118	19.135	3.1372e-06	26.892	0.00016967	0.00016597	4.6858e-05	1096.9	1.857e-06	1.8284e-06	1162.9	228.71	1.9316e-06	1.8771e-06	287.22	82.719	64.735	19.098	1.8813e-06	26.917	166.758	-28.989	-80.500	-113.145	-0.719	42.427	-113.157	-106.272	-13.912	-47.182	-106.430	-100.705	-100.141	-92.377	52.023	-93.034	-8191	255	
699.030	1	1	0	0	0.17193	0.23142	0.10348	0.093918	0.18005	0.21566	0.25653	0.19119	0.12279	0.19692	0.23492	0.15617	0.090727	0.18231	0.13544	0.17903	-4.0104	-4.8125	-4.2021	-4.7375	-4.5583	-4.1813	-5.025	-4.65	-4.2021	-4.7729	-4.2104	-4.575	-4.7333	-4.1979	-4.7188	-4.4979	214.266	109.218	140.878	181.308	-77.774	177.910	185.295	-98.032	13.897	74.677	228.410	-58.842	220.049	189.613	68.019	56.646	0.00017513	0.00039013	0.00011016	1134.5	5.6471e-06	4.395e-06	1192.7	233.42	2.1794e-06	5.2448e-06	294.35	83.569	65.706	19.113	3.9318e-06	26.971	0.00018075	0.0001757	4.9328e-05	1104.2	1.9601e-06	1.9382e-06	1166.7	229.59	1.9794e-06	1.9302e-06	288.09	82.978	64.994	19.096	1.9792e-06	26.922	162.752	-20.205	-27.587	-113.432	-41.620	22.111	-113.209	-106.231	-20.344	31.765	-106.221	-100.441	-99.886	-92.382	-19.061	-93.070	-8191	255	
699.126	1	1	0	0	0.059084	0.12347	0.25582	0.35001	0.25662	0.23143	0.16261	0.025245	0.20491	0.24314	0.098103	0.16916	0.086519	0.11499	0.03992	0.11596	-4.0042	-4.7583	-4.2042	-4.7083	-4.6562	-4.0896	-4.7979	-4.5062	-4.2521	-4.8229	-4.5188	-4.5583	-4.6875	-4.1625	-4.7167	-4.4563	3.647	142.697	-111.372	227.702	-106.937	-35.296	149.912	204.282	82.334	-101.046	142.910	-56.050	175.677	79.182	37.827	191.269	0.00016437	0.00012785	7.6268e-05	1140.5	4.9002e-07	3.7318e-07	1203.1	233.57	3.562e-06	2.839e-06	295.24	83.324	65.972	19.201	1.7595e-06	27.185	0.00018974	0.00017969	5.0201e-05	1109.6	2.0481e-06	2.0045e-06	1171.9	229.67	2.0141e-06	1.9781e-06	288.78	83.033	65.182	19.114	1.9819e-06	27.007	157.820	34.186	-69.765	-113.012	180.073	-17.429	-113.491	-106.160	-26.136	2.229	-106.505	-100.450	-99.960	-92.092	97.438	-92.863	-8191	255	
699.222	1	1	0	0	0.058929	0.080491	0.10591	0.12263	0.21324	0.073395	0.22467	0.039425	0.096206	0.17399	0.1984	0.21629	0.11762	0.11615	0.2146	0.066137	-3.9646	-4.6958	-4.3229	-4.6083	-4.7229	-4.2292	-4.8125	-4.7792	-3.9708	-4.7583	-4.4979	-4.3812	-4.7917	-4.0729	-4.5687	-4.7917	-40.868	-34.929	-7.861	124.213	-98.419	217.281	148.352	152.293	140.559	-77.558	105.330	171.898	182.306	3.521	-21.622	150.983	0.00015878	7.6691e-05	0.00018742	1144.2	2.0735e-06	3.178e-06	1201	233.85	8.7765e-07	2.5171e-06	293.56	83.565	65.946	19.146	2.7184e-06	27.105	0.0001878	0.00017932	4.961e-05	1111.6	1.9969e-06	1.9561e-06	1174.1	230.39	1.9494e-06	1.9157e-06	289.18	83.12	65.256	19.148	1.962e-06	27.014	174.192	-75.402	-41.440	-113.032	128.115	6.340	-113.263	-106.218	200.068	101.847	-106.431	-100.400	-100.063	-92.527	-72.995	-93.130	-8191	255	
699.318	1	1	0	0	0.27482	0.021464	0.27119	0.26364	0.025295	0.12998	0.012342	0.16724	0.09312	0.11227	0.047473	0.18801	0.25636	0.10206	0.10437	0.30859	-3.7333	-4.5854	-4.3271	-4.4604	-4.7292	-4.0417	-4.8313	-4.75	-4.1875	-4.5813	-4.5521	-4.4729	-4.8708	-4.2125	-4.5167	-4.6813	-104.769	-83.952	-22.155	190.670	53.993	-94.730	178.817	149.528	-78.836	14.229	-122.678	228.452	223.544	-124.236	32.800	217.864	0.00016424	0.00032736	0.00012866	1146.3	1.8936e-06	2.4684e-06	1202.3	235.67	2.2095e-06	3.2717e-06	296.19	84.143	65.719	19.11	3.007e-06	26.993	0.00018261	0.00017374	4.9753e-05	1110.8	1.9772e-06	1.9145e-06	1173.5	230.76	1.9804e-06	1.9051e-06	289.61	83.259	65.206	19.16	1.9295e-06	26.98	154.969	-15.594	-37.349	-113.288	-17.972	85.183	-113.421	-106.464	16.479	6.076	-106.693	-100.277	-99.975	-92.769	4.377	-93.011	-8191	255	
699.439	1	1	0	0	0.18336	0.19009	0.19303	0.13313	0.15743	0.20194	0.209	0.043875	0.046469	0.049268	0.24073	0.27775	0.030255	0.26177	0.15855	0.13337	-3.7042	-4.6021	-4.45	-4.3938	-4.7667	-4.3042	-4.7104	-4.75	-4.2667	-4.65	-4.5208	-4.0813	-4.6833	-4.3729	-4.4125	-4.9771	73.523	185.763	-17.768	172.586	78.073	-81.958	179.817	-74.506	191.300	51.341	206.839	170.497	116.840	218.375	65.081	224.945	0.00019065	9.0303e-05	7.551e-05	1145.8	2.1848e-06	3.345e-06	1200.4	233.96	1.1924e-06	2.7412e-06	295.81	83.6	65.528	19.261	1.3701e-06	26.922	0.00018259	0.00017382	4.8624e-05	1109.4	1.9597e-06	1.9594e-06	1174.3	230.3	2.042e-06	1.9473e-06	289.52	83.404	65.236	19.162	1.9169e-06	26.984	169.934	-13.340	-12.553	-113.108	-37.865	27.150	-113.060	-106.250	-64.099	106.373	-106.426	-100.445	-99.888	-92.714	213.485	-93.056	-8191	255	
699.535	1	1	0	0	0.076945	0.14385	0.0087734	0.1672	0.020919	0.25715	0.2615	0.33243	0.15062	0.11952	0.082304	0.37162	0.078994	0.13385	0.088027	0.064193	-3.8146	-4.5979	-4.5312	-4.3562	-4.7438	-4.2729	-4.5	-4.8167	-4.0833	-4.5021	-4.6146	-4.2542	-4.7937	-4.4333	-4.3688	-4.8167	-84.267	46.933	12.592	165.888	-6.798	8.975	131.975	169.155	-17.509	-64.582	134.997	210.867	96.873	-39.223	49.715	-57.031	0.0001413	0.00014569	7.8939e-05	1140.9	3.9343e-06	4.4454e-07	1201	234.62	1.0293e-06	1.3357e-06	295.67	83.752	66.145	19.222	3.6692e-06	26.861	0.00018157	0.00017971	4.8445e-05	1109.7	1.9595e-06	1.9584e-06	1175	230.56	1.9776e-06	1.9243e-06	289.88	83.183	65.335	19.177	1.894e-06	26.896	148.020	-24.498	-3.907	-113.357	68.276	232.707	-113.177	-106.564	-22.122	201.450	-106.230	-100.287	-99.742	-92.554	26.224	-92.815	-8191	255	
699.631	1	1	0	0	0.034987	0.26823	0.12906	0.035306	0.11511	0.093572	0.10752	0.20348	0.14133	0.14481	0.014529	0.16993	0.082712	0.22641	0.19172	0.079469	-3.875	-4.5188	-4.6146	-4.2458	-4.5979	-4.4521	-4.4583	-4.9062	-4.15	-4.6333	-4.7375	-4.0646	-4.6792	-4.3375	-4.0479	-4.7729	36.714	-55.158	-112.199	161.440	-75.668	163.951	-90.749	-98.524	147.838	-47.565	50.770	170.158	-40.850	191.007	163.803	150.955	0.00018817	0.0005434	0.00010534	1140.8	4.0299e-06	1.7801e-06	1202.6	234.92	6.249e-07	1.5424e-06	295	83.743	65.985	19.338	1.725e-06	26.989	0.00018428	0.00017658	4.9062e-05	1110.6	1.9666e-06	1.9556e-06	1174.7	230.39	1.9994e-06	1.916e-06	289.61	83.048	65.168	19.206	1.9206e-06	26.917	162.759	-42.159	-45.525	-113.203	-25.305	67.167	-113.628	-106.282	128.268	103.666	-106.305	-100.063	-99.971	-92.523	-45.624	-93.284	-8191	255	
699.727	1	1	0	0	0.15791	0.14581	0.087522	0.047523	0.17274	0.10772	0.21284	0.1676	0.1651	0.20867	0.045298	0.13589	0.16746	0.14027	0.0017636	0.22236	-3.8958	-4.2958	-4.6292	-4.2875	-4.6458	-4.4458	-4.5333	-4.7021	-4.2875	-4.3708	-4.8	-4.2333	-4.6292	-4.5333	-4.1687	-4.8021	-68.764	-77.125	169.884	176.096	-45.147	70.093	186.512	-118.398	-120.231	58.205	-117.357	117.004	128.364	77.171	180.000	134.142	0.00017895	0.00043711	4.2364e-05	1140.3	2.2304e-06	2.7332e-06	1201.8	233.92	3.2723e-06	3.0402e-06	295.21	84.022	65.499	19.138	2.4558e-06	27.094	0.00017946	0.00017365	4.8175e-05	1107	1.9488e-06	1.9229e-06	1172.1	230.11	1.9685e-06	1.9191e-06	289.6	83.348	65.082	19.122	1.8724e-06	26.971	170.932	-19.141	-4.546	-113.095	-10.044	65.248	-113.297	-106.157	-14.010	24.279	-106.353	-100.385	-100.088	-92.651	4.274	-92.602	-8191	255	
699.822	1	1	0	0	0.20661	0.10864	0.18222	0.23833	0.10486	0.082191	0.1754	0.17199	0.12153	0.10877	0.19156	0.10831	0.19799	0.088938	0.15814	0.23296	-3.9188	-4.2021	-4.6708	-4.2292	-4.4979	-4.4229	-4.2479	-4.7208	-4.4604	-4.4229	-4.7646	-4.0917	-4.4229	-4.4458	-4.1625	-4.8271	96.591	-78.034	-5.110	156.907	-117.154	157.446	193.518	150.489	-123.194	120.008	-74.767	203.807	226.371	195.654	-15.453	204.877	0.00013766	0.00023124	4.4009e-05	1141.1	8.9648e-07	3.968e-06	1196.9	235.09	3.6822e-06	3.4369e-06	295.33	84.071	65.822	19.291	2.5191e-06	27.14	0.00017988	0.00017096	4.7556e-05	1107.7	1.8927e-06	1.8586e-06	1171.4	230.26	1.9089e-06	1.8913e-06	289.26	83.166	65.139	19.162	1.9267e-06	26.974	158.852	11.261	24.153	-113.270	99.340	49.946	-113.103	-106.345	-28.009	-7.086	-106.323	-100.572	-99.990	-92.680	-57.769	-92.959	-8191	255	
699.918	1	1	0	0	0.042909	0.1363	0.19966	0.32203	0.021887	0.072222	0.18624	0.2189	0.33982	0.11523	0.25241	0.26012	0.050585	0.25261	0.094503	0.07055	-4	-4.1896	-4.8458	-4.2312	-4.5083	-4.7208	-4.5146	-4.6917	-4.3458	-4.2375	-4.8521	-4.3417	-4.5771	-4.7167	-4.1354	-4.7063	216.872	24.593	-23.535	228.672	-107.579	-119.427	210.838	212.438	25.478	204.459	178.469	122.058	-61.106	184.017	76.155	138.711	0.00015035	0.00016338	6.0381e-05	1138.5	3.1367e-06	3.6788e-06	1202.9	235.31	1.8583e-06	1.8772e-06	295.01	84.19	65.56	19.242	3.7305e-06	26.935	0.00017947	0.00017124	4.8471e-05	1107.3	1.9728e-06	1.9178e-06	1171.4	230.56	1.9686e-06	1.9657e-06	289.18	83.341	65.201	19.146	1.9412e-06	26.966	162.355	-59.999	25.801	-113.261	9.269	8.948	-113.272	-106.481	-78.760	50.113	-106.464	-100.432	-99.825	-92.698	21.694	-93.112	-8191	255	
700.038	1	1	0	0	0.13955	0.041721	0.14471	0.087016	0.11616	0.11013	0.21405	0.1687	0.10268	0.11645	0.20363	0.20065	0.26332	0.026114	0.13193	0.10697	-4.2271	-4.05	-4.7312	-4.4458	-4.4479	-4.6458	-4.2229	-4.5563	-4.5563	-4.2729	-4.8271	-4.2562	-4.4	-4.7833	-4.1875	-4.6208	20.541	69.017	-5.276	-110.534	198.282	28.504	191.546	232.267	135.692	-94.249	112.422	203.599	118.874	-59.427	87.234	-82.454	0.00016325	0.00054266	0.00011605	1135.2	3.6037e-06	1.0488e-06	1199.8	234.36	3.4464e-06	4.7983e-06	296.41	83.906	65.784	19.179	2.0515e-06	27.004	0.00018082	0.00017365	4.831e-05	1106.8	1.9252e-06	1.8698e-06	1171.3	230.45	1.8916e-06	1.9098e-06	289.6	83.22	65.206	19.116	1.9096e-06	26.997	164.851	-29.264	3.385	-113.135	-38.261	28.868	-113.161	-106.345	-76.480	35.214	-106.546	-100.365	-99.851	-92.601	-46.234	-93.007	-8191	255	
700.135	1	1	0	0	0.15431	0.25328	0.15955	0.11556	0.22565	0.11494	0.11723	0.201	0.17778	0.14548	0.042082	0.082264	0.048671	0.32598	0.2096	0.10543	-4.2333	-4.0729	-4.6354	-4.4292	-4.3458	-4.7583	-4.2688	-4.5417	-4.6	-4.2646	-4.8979	-4.55	-4.3396	-4.9771	-4.2708	-4.6521	27.550	141.485	65.278	213.112	-68.629	180.940	192.945	212.502	162.225	-78.189	-92.441	-61.434	-117.068	-98.364	-6.298	180.355	0.00018554	8.3712e-05	8.6924e-05	1135.8	4.1654e-06	2.6495e-06	1196.1	235.62	1.8492e-06	2.6325e-06	295.52	83.773	65.835	19.172	3.6955e-06	26.898	0.00017417	0.00017547	4.921e-05	1106	1.9716e-06	1.8647e-06	1168.7	230.7	1.9191e-06	1.8981e-06	289.58	83.242	65.171	19.099	1.8489e-06	26.923	152.742	49.481	17.017	-113.372	-17.341	62.589	-113.295	-106.368	-77.802	45.708	-106.303	-100.218	-100.015	-92.719	39.689	-93.043	-8191	255	
700.231	1	1	0	0	0.30213	0.31939	0.29617	0.43977	0.13198	0.18725	0.040079	0.12859	0.14185	0.1637	0.18656	0.081666	0.086555	0.1665	0.14156	0.31707	-4.2375	-4.1417	-4.5625	-4.5	-4.2812	-4.7438	-4.425	-4.4062	-4.8375	-4.1229	-4.6479	-4.5792	-4.2583	-4.6917	-4.2146	-4.3979	115.784	-56.343	230.449	194.148	-114.066	8.474	118.090	199.997	188.680	155.431	129.990	-47.794	7.933	-92.948	222.925	67.293	0.00021186	0.00063049	7.0523e-05	1136.7	1.3327e-06	3.4086e-06	1196.6	235.16	8.3063e-07	2.7741e-06	295.55	83.985	65.661	19.265	5.025e-06	27.05	0.00017547	0.0001736	4.8136e-05	1105.3	1.9711e-06	1.8623e-06	1169.3	230.15	1.9172e-06	1.8918e-06	288.93	83.177	65.093	19.18	1.9026e-06	26.97	157.598	-14.582	-32.011	-113.269	-60.694	-35.413	-113.348	-106.126	-39.901	81.774	-106.426	-100.403	-99.471	-92.482	49.477	-92.904	-8191	255	
700.327	1	1	0	0	0.01883	0.12854	0.12067	0.16129	0.11663	0.070498	0.018041	0.089941	0.16368	0.25468	0.21488	0.12719	0.11253	0.15936	0.18945	0.074954	-4.2083	-4.0583	-4.5396	-4.5833	-4.0437	-4.7271	-4.3313	-4.425	-4.7875	-4.1687	-4.9062	-4.7479	-4.2562	-4.6917	-4.5062	-4.2208	-113.934	91.862	110.538	169.541	10.536	-57.483	-41.917	23.946	69.474	119.715	216.660	92.039	-49.429	-88.042	-78.958	-88.270	0.00015003	0.00020608	3.1985e-05	1134.5	3.4892e-06	2.7275e-06	1193.5	233.64	4.7661e-06	4.3038e-06	296.94	83.437	65.774	19.189	2.7866e-06	26.888	0.00017841	0.00017112	4.7878e-05	1104.5	1.9341e-06	1.8919e-06	1168.6	230.13	1.8916e-06	1.8989e-06	289.73	82.939	65.232	19.081	1.8675e-06	26.904	174.303	-26.227	-49.760	-113.274	-27.611	-2.071	-113.176	-106.463	-20.545	52.374	-106.192	-100.306	-99.339	-92.772	26.464	-92.936	-8191	255	
700.399	1	1	0	0	0.093392	0.14641	0.10109	0.19788	0.15493	0.13551	0.12049	0.23506	0.12402	0.031467	0.17129	0.057089	0.33449	0.26339	0.12422	0.10071	-4.2854	-4.3792	-4.4667	-4.7312	-4.1438	-4.6188	-4.45	-4.4187	-4.9167	-4.1854	-4.6604	-4.8125	-4.2646	-4.7458	-4.3979	-4.3417	36.911	-21.926	-106.809	145.590	-24.147	-18.718	68.113	-97.751	106.380	109.565	166.540	15.782	-47.243	99.886	80.910	-55.708	0.00018296	0.00020761	6.4849e-05	1135.2	2.1945e-06	1.9647e-06	1195.5	234.36	2.1198e-06	1.5626e-06	293.91	83.971	65.599	19.076	3.3454e-06	26.851	0.00017187	0.00016936	4.6714e-05	1102.2	1.8692e-06	1.7972e-06	1164.7	229.94	1.8549e-06	1.8522e-06	288.55	83.175	65.009	19.099	1.8929e-06	26.932	173.403	-38.119	-49.763	-113.043	-11.588	47.313	-113.255	-106.493	-43.397	40.412	-106.405	-100.510	-100.028	-92.423	28.534	-93.212	-8191	255	
700.519	1	1	0	0	0.14224	0.081753	0.14037	0.16098	0.060909	0.18068	0.23714	0.23139	0.090583	0.14348	0.017864	0.076336	0.20884	0.024938	0.15629	0.083849	-4.4417	-4.3812	-4.4354	-4.875	-4.075	-4.6146	-4.5896	-4.1792	-4.7646	-4.2521	-4.4396	-4.8187	-4.0292	-4.7333	-4.4208	-4.0646	114.200	11.282	116.502	160.677	28.972	-1.610	163.286	-95.816	5.481	-64.654	-60.853	-103.158	65.720	216.051	73.206	100.232	0.00017303	0.00019683	0.00016646	1134.8	3.057e-06	2.1537e-06	1193.4	234.22	2.3009e-06	2.2201e-06	294.79	83.58	65.681	19.249	2.4203e-07	27.048	0.00017681	0.00017635	4.9748e-05	1103.2	1.9969e-06	1.9409e-06	1166	230.04	1.9248e-06	1.8861e-06	289.29	83.069	65.125	19.134	1.9007e-06	26.989	171.511	-14.818	-43.267	-113.207	-48.388	36.503	-113.396	-106.407	-40.562	56.099	-106.693	-100.529	-100.043	-92.373	-5.640	-93.111	-8191	255	
700.615	1	1	0	0	0.32509	0.12237	0.16124	0.082539	0.28305	0.15826	0.15299	0.17538	0.17099	0.063211	0.12372	0.16154	0.13372	0.17878	0.046349	0.18424	-4.4458	-4.2375	-4.3396	-4.9875	-4.1375	-4.4583	-4.6646	-4.3125	-4.6958	-4.4167	-4.5188	-4.8562	-4.3208	-4.5417	-4.5396	-4.1646	91.970	-99.126	37.289	-122.147	-69.873	93.671	172.422	170.244	148.132	0.606	-121.727	173.462	-40.474	30.124	5.506	-105.111	0.00015693	0.000185	7.257e-05	1136.3	4.5766e-06	3.849e-06	1190.2	235.11	1.1356e-06	5.5162e-06	294.7	84.206	66.135	19.207	1.1582e-06	26.865	0.00017794	0.00017145	4.8623e-05	1104.3	1.9688e-06	1.8501e-06	1167.5	230.43	1.8994e-06	1.8535e-06	289.44	83.334	65.311	19.152	1.8922e-06	26.887	166.526	-65.986	-58.957	-113.155	39.571	74.174	-113.247	-106.205	-89.747	-6.430	-106.169	-100.365	-99.783	-92.683	130.623	-92.920	-8191	255	
700.711	1	1	0	0	0.27253	0.053634	0.05775	0.11074	0.075573	0.15881	0.2502	0.12635	0.25448	0.074734	0.11769	0.11904	0.13982	0.10345	0.30964	0.072391	-4.2312	-4.5104	-4.2042	-4.8146	-4.2979	-4.6417	-4.7875	-4.2729	-4.7292	-4.3792	-4.3375	-4.8125	-4.3083	-4.5958	-4.8521	-4.1979	81.837	-78.278	-57.891	20.786	125.073	123.665	228.439	18.149	18.335	-48.268	-88.115	30.807	166.257	226.444	171.926	103.090	0.00018111	0.00034351	0.00015316	1140.6	2.4717e-06	3.1776e-06	1196	234.7	2.6258e-06	2.3111e-06	296.37	83.826	65.694	19.288	1.9799e-06	27.063	0.00018104	0.00017667	4.8636e-05	1105	1.9611e-06	1.9455e-06	1170.9	230.2	1.9383e-06	1.8886e-06	289.52	83.296	65.102	19.173	1.9463e-06	27.033	149.780	16.342	-42.777	-113.172	-64.644	101.769	-113.216	-106.407	-77.034	-0.144	-106.406	-100.390	-99.881	-92.578	8.440	-92.972	-8191	255	
700.808	1	1	0	0	0.079741	0.076257	0.10018	0.19737	0.08547	0.14466	0.12546	0.28632	0.12328	0.18492	0.33997	0.25807	0.12144	0.11676	0.14086	0.16118	-4.3625	-4.5437	-4.0583	-4.8667	-4.3083	-4.4792	-4.7	-4.275	-4.6021	-4.5042	-4.3542	-4.8208	-4.3896	-4.3562	-4.5917	-4.2271	133.601	179.047	107.011	209.435	198.123	62.790	133.131	144.239	116.003	-41.045	186.131	174.630	205.600	139.877	-110.709	-107.253	0.00020971	0.00034666	0.00011308	1139.3	3.4816e-06	1.2454e-06	1197.1	234.78	4.0106e-06	4.2704e-06	295.6	84.084	65.606	19.268	5.2007e-07	26.961	0.00018496	0.0001789	4.901e-05	1107.4	1.9578e-06	1.9637e-06	1170.4	230.41	1.9638e-06	1.9519e-06	289.53	83.25	65.195	19.16	1.9228e-06	27.013	159.961	-21.952	-16.403	-113.132	73.503	1.779	-113.296	-106.095	-26.306	53.555	-106.393	-100.214	-99.818	-92.165	19.761	-93.208	-8191	255	
700.926	1	1	0	0	0.10744	0.16462	0.10499	0.2345	0.011041	0.1337	0.35246	0.16045	0.23871	0.060664	0.20095	0.041146	0.10408	0.19319	0.16482	0.084463	-4.2583	-4.6521	-4.1417	-4.8042	-4.3063	-4.3	-4.9042	-4.25	-4.4854	-4.5771	-4.2354	-4.7125	-4.4354	-4.3063	-4.8229	-4.3792	-28.451	164.818	-106.431	-114.931	-76.390	203.590	153.328	166.809	-3.061	222.728	231.085	8.429	133.719	149.733	109.599	-110.127	0.00015431	0.00025544	3.7192e-05	1140.6	1.755e-06	4.0157e-06	1200.7	235.76	9.1724e-07	4.4867e-06	294.88	84.467	65.721	19.124	5.0663e-06	27.046	0.00018405	0.00017416	4.9327e-05	1107.2	1.9855e-06	1.9508e-06	1171.6	230.94	1.9956e-06	1.9214e-06	289.67	83.448	65.163	19.139	1.95e-06	27.033	166.300	-42.811	-79.025	-113.119	22.944	41.982	-113.206	-106.303	234.627	5.992	-106.110	-100.499	-99.909	-92.530	6.336	-93.272	-8191	255	
701.000	1	1	0	0	0.08465	0.2056	0.18018	0.11666	0.066576	0.12812	0.2443	0.19922	0.15234	0.092859	0.17497	0.072405	0.054817	0.15244	0.13996	0.10783	-4.2229	-4.5417	-4.125	-4.7833	-4.4167	-4.4271	-4.8792	-4.4437	-4.5104	-4.8771	-4.2521	-4.7458	-4.5833	-4.3812	-4.7542	-4.3688	-52.617	-93.631	216.323	196.614	153.200	108.023	175.911	98.855	-84.587	122.926	61.184	117.961	185.779	167.636	-65.950	37.679	0.00013936	0.00048299	4.0412e-05	1138.2	3.7881e-06	2.2074e-06	1198	234.59	6.2712e-07	4.7712e-06	296.06	83.728	66.162	19.214	2.6973e-06	26.994	0.00018263	0.00017689	5.0196e-05	1107.1	1.9836e-06	1.9654e-06	1171	230.55	1.9612e-06	1.9204e-06	290	83.161	65.278	19.191	1.9793e-06	27.043	160.073	0.786	60.961	-113.198	-19.129	57.909	-113.222	-106.222	-38.246	50.906	-106.452	-100.640	-99.780	-92.275	-43.989	-93.215	-8191	255	
701.119	1	1	0	0	0.19296	0.17983	0.01702	0.21976	0.084345	0.14823	0.2623	0.1875	0.23739	0.086119	0.15575	0.10696	0.047957	0.12066	0.19487	0.076543	-4.0729	-4.6958	-4.1875	-4.7875	-4.5479	-4.2167	-5.0896	-4.475	-4.3417	-4.7125	-4.2792	-4.8021	-4.7	-4.2333	-4.8562	-4.4042	141.478	118.078	-59.369	193.610	-113.780	-116.319	137.490	202.784	44.918	-89.379	198.385	116.812	-13.150	217.583	45.594	72.817	0.00022143	0.0005131	8.2669e-05	1139.8	2.1095e-06	2.1017e-06	1197.7	235.14	2.565e-07	5.4507e-06	294.93	83.554	65.719	19.282	2.4863e-07	26.976	0.00018773	0.00017841	5.1117e-05	1107.1	2.004e-06	1.9937e-06	1170.5	230.51	1.9646e-06	1.9396e-06	289.39	83.154	65.278	19.211	1.9342e-06	26.968	160.383	-55.397	-7.563	-113.101	-29.715	5.394	-113.154	-106.000	-5.420	57.616	-106.400	-100.555	-99.864	-92.491	-111.796	-92.756	-8191	255	
701.215	1	1	0	0	0.18591	0.16405	0.11959	0.21252	0.075579	0.23882	0.028439	0.16216	0.078898	0.23174	0.045768	0.25747	0.15033	0.087882	0.29335	0.18371	-3.9062	-4.7417	-4.225	-4.7917	-4.6562	-4.2063	-4.9062	-4.5104	-4.2812	-4.8125	-4.3063	-4.5271	-4.8104	-4.1667	-4.7146	-4.5563	12.973	-118.156	-2.913	221.517	-23.537	24.334	-100.080	157.132	118.545	-73.284	-68.489	183.322	-42.922	142.253	-55.792	-32.212	0.00020046	0.00025212	0.00013025	1136	1.2693e-06	2.9991e-06	1193.2	235.32	1.5031e-06	2.8763e-06	294.23	83.626	65.485	19.133	3.2548e-06	26.899	0.0001823	0.00017583	4.926e-05	1105.4	1.9392e-06	1.9843e-06	1168.3	230.57	1.9895e-06	1.9127e-06	289.18	83.26	65.029	19.126	1.9718e-06	27.004	169.819	-14.921	-34.872	-113.282	-8.816	60.092	-113.255	-106.567	-62.412	16.634	-106.606	-100.513	-100.058	-92.160	62.911	-93.130	-8191	255	
701.311	1	1	0	0	0.14948	0.24077	0.18275	0.18919	0.14441	0.14173	0.23805	0.048568	0.17836	0.1903	0.1148	0.2751	0.13497	0.08698	0.055492	0.23808	-3.8354	-4.7708	-4.1542	-4.5813	-4.7146	-3.9917	-4.6979	-4.5792	-4.1438	-4.8562	-4.5417	-4.7063	-4.8458	-4.2958	-4.7708	-4.4938	107.025	200.666	140.420	-106.041	-37.092	-114.654	182.858	123.205	-53.948	86.546	227.230	204.622	-70.098	77.506	193.518	135.323	0.00018769	0.0005397	0.00013018	1131.5	5.414e-06	2.6477e-06	1195.1	235.67	1.4021e-06	2.0983e-06	296.26	83.714	65.59	19.279	4.8015e-06	26.802	0.00018232	0.0001807	5.0804e-05	1103	2.0152e-06	2.0109e-06	1167.9	230.38	2.0001e-06	1.9487e-06	289.79	83.175	64.97	19.167	1.9375e-06	26.846	160.266	-58.491	-2.280	-113.142	31.134	43.039	-113.167	-106.443	-111.051	-106.418	-106.270	-100.568	-100.047	-92.366	-58.695	-93.026	-8191	255	
701.407	1	1	0	0	0.057964	0.13406	0.088288	0.27334	0.12317	0.094958	0.14324	0.058165	0.052033	0.055646	0.38168	0.046247	0.19168	0.13738	0.10987	0.081538	-3.7021	-4.7875	-4.3729	-4.525	-4.7521	-4.175	-4.65	-4.5938	-4.1396	-4.6875	-4.325	-4.3958	-4.8042	-4.2396	-4.4458	-4.6729	158.028	-64.908	24.809	218.480	143.443	93.498	159.729	76.947	-96.792	175.752	224.074	212.841	175.784	194.546	-56.074	-120.794	0.00017093	8.8178e-05	2.4434e-05	1132.6	2.6201e-06	6.0735e-06	1193	234.4	3.5336e-06	2.7936e-06	294.54	83.957	65.724	19.177	2.9375e-06	27.012	0.00018338	0.00017388	4.8625e-05	1101.9	1.9278e-06	1.9606e-06	1166.6	230.32	2.0172e-06	1.9754e-06	289.18	83.094	65.101	19.149	1.9372e-06	26.955	150.589	-21.883	19.191	-113.092	-14.396	9.869	-113.146	-106.319	-120.364	24.895	-106.508	-100.326	-100.057	-92.617	33.111	-92.835	-8191	255	
701.528	1	1	0	0	0.19481	0.090851	0.082602	0.11764	0.20142	0.13043	0.16476	0.16493	0.09976	0.17881	0.11138	0.19264	0.030066	0.22034	0.16571	0.043187	-3.9104	-4.6854	-4.4167	-4.45	-4.925	-4.3042	-4.6792	-4.6896	-4.1438	-4.7562	-4.4542	-4.2896	-4.8896	-4.2604	-4.525	-4.6979	-65.571	-99.109	75.642	168.227	72.413	-63.848	129.054	-34.232	-69.406	194.534	136.262	30.374	140.723	128.421	68.428	-45.568	0.0002289	0.0004507	4.2502e-05	1131.8	2.9237e-06	3.9286e-06	1194.5	235.02	2.3955e-06	2.7196e-06	293.79	83.999	65.834	19.157	2.5472e-06	26.816	0.00018157	0.0001765	5.0155e-05	1102.1	1.98e-06	1.9556e-06	1167.3	230.47	1.9742e-06	1.9388e-06	289.28	83.252	64.943	19.11	1.9551e-06	26.91	165.528	-52.591	-12.544	-113.139	1.719	-23.701	-113.247	-106.352	18.630	46.101	-106.548	-100.371	-100.071	-92.471	32.134	-93.238	-8191	255	
701.622	1	1	0	0	0.047626	0.17535	0.23117	0.054144	0.16384	0.1437	0.004289	0.12657	0.07349	0.0784	0.033212	0.18466	0.088486	0.21305	0.24849	0.20098	-3.7083	-4.65	-4.45	-4.3708	-4.7667	-4.3125	-4.4708	-4.8229	-4.1458	-4.5583	-4.7042	-4.2875	-4.7479	-4.3167	-4.3125	-4.6646	24.843	166.707	76.205	175.712	-77.554	22.087	21.844	207.368	29.471	126.896	-116.565	-119.511	-110.738	227.566	158.795	214.629	0.00021278	0.00017556	6.3982e-05	1132.3	2.3331e-06	2.6145e-06	1191.5	234.57	4.9161e-06	2.7592e-06	296.56	83.225	65.698	19.177	3.3834e-06	26.896	0.00018421	0.00017837	5.0144e-05	1102.5	1.9785e-06	2.0175e-06	1167.9	230.41	2.0554e-06	1.9319e-06	289.93	82.932	64.978	19.071	1.9725e-06	26.903	166.999	-82.510	18.867	-112.934	-35.225	114.409	-113.067	-105.995	-34.463	65.749	-106.339	-100.326	-100.119	-92.313	8.085	-92.772	-8191	255	
701.696	1	1	0	0	0.27009	0.028574	0.19137	0.042253	0.20479	0.26603	0.14458	0.12584	0.26672	0.078286	0.1698	0.11329	0.12902	0.17752	0.18779	0.068843	-3.9104	-4.6	-4.5833	-4.2396	-4.8063	-4.3042	-4.5062	-4.7896	-4.2875	-4.5292	-4.6292	-4.1583	-4.6687	-4.2312	-4.2604	-4.875	153.398	46.111	-117.603	229.790	-114.676	-0.105	192.408	56.708	-65.162	-1.808	148.664	166.723	60.218	149.484	-35.927	-72.315	9.8593e-05	0.00010506	9.455e-05	1136	3.1866e-06	9.6435e-07	1199.1	234.48	1.8269e-06	5.0427e-06	296.5	83.948	65.153	19.087	4.1416e-06	26.872	0.00017972	0.00017605	4.9249e-05	1103.8	2.0087e-06	1.9498e-06	1169.9	230.19	1.9836e-06	1.9858e-06	289.57	82.982	64.862	19.059	1.9248e-06	26.912	140.218	-22.288	15.699	-113.257	-13.972	-3.812	-113.158	-106.153	-114.787	-0.997	-106.390	-100.571	-99.785	-92.488	-3.808	-92.950	-8191	255	
701.815	1	1	0	0	0.076197	0.2521	0.076513	0.16884	0.21383	0.17579	0.32311	0.10296	0.1567	0.16962	0.16691	0.1888	0.12061	0.075553	0.076784	0.21113	-3.7167	-4.6604	-4.6	-4.2417	-4.6312	-4.4729	-4.3479	-4.7979	-4.1542	-4.5292	-4.6646	-4.1146	-4.6687	-4.4521	-4.2188	-4.8688	219.736	53.436	-108.040	152.119	-14.503	72.289	162.353	50.733	188.995	25.856	220.581	-109.946	208.480	221.881	101.189	170.628	0.00014969	0.00053711	0.00010588	1132.6	1.9338e-06	7.3929e-07	1192	233.26	2.8073e-06	3.8956e-06	297.39	83.667	65.458	19.23	3.3029e-06	27.005	0.00018501	0.00018171	4.832e-05	1102.6	2.0048e-06	1.9363e-06	1167.8	229.88	2.0418e-06	1.951e-06	290.28	82.988	64.974	19.071	1.9499e-06	26.91	150.835	-15.012	-29.268	-113.018	-36.012	-28.106	-113.262	-106.085	-21.655	50.624	-106.445	-100.410	-100.007	-92.222	-74.150	-93.133	-8191	255	
701.911	1	1	0	0	0.10451	0.098091	0.045953	0.079602	0.1284	0.3462	0.11697	0.33476	0.25306	0.15915	0.26693	0.11447	0.34147	0.2669	0.067438	0.071073	-3.8792	-4.3792	-4.6146	-4.1833	-4.4208	-4.5083	-4.3646	-4.875	-4.1312	-4.3104	-4.9875	-4.2208	-4.5646	-4.5354	-4.2083	-4.5437	134.882	-105.000	-48.556	162.852	-24.207	165.925	154.464	209.409	-17.599	-22.271	-121.309	159.037	-110.243	-54.880	-69.360	-72.212	0.00017037	0.00034444	8.2663e-05	1138.9	2.5398e-06	2.6823e-06	1191.4	234.75	3.2764e-06	2.2485e-06	295.17	83.659	65.946	19.06	3.3428e-06	26.918	0.00018341	0.00018111	4.9922e-05	1104.9	2.0587e-06	1.977e-06	1166.8	230.24	1.9967e-06	2.0111e-06	289.11	83.026	65.111	19.11	1.9866e-06	26.937	165.274	-15.121	-37.643	-113.180	-57.299	93.238	-113.149	-106.252	-46.581	-19.132	-106.530	-100.315	-99.901	-92.282	-47.350	-93.186	-8191	255	
702.007	1	1	0	0	0.1555	0.27616	0.14168	0.16954	0.24528	0.1237	0.20117	0.16179	0.14671	0.2272	0.13339	0.36095	0.12256	0.11726	0.047624	0.093978	-3.8729	-4.2521	-4.6687	-4.1771	-4.4771	-4.6771	-4.2188	-4.6896	-4.3792	-4.1021	-4.7625	-4.2354	-4.5875	-4.6542	-4.025	-4.5396	153.300	-94.783	157.396	137.593	-10.192	100.180	153.892	156.241	32.593	226.051	177.362	197.479	-97.560	178.518	179.979	135.419	0.00016689	0.00052709	8.9286e-05	1135	1.2675e-06	2.4505e-06	1197	234.94	2.457e-06	3.6287e-06	296.68	83.872	65.64	19.06	1.3429e-06	26.949	0.00018481	0.0001816	4.9715e-05	1103.2	2.0569e-06	1.9395e-06	1166.7	230.54	1.9763e-06	1.9647e-06	289.92	83.057	65.052	19.079	1.9911e-06	26.896	169.771	-51.937	-44.385	-113.205	124.180	85.317	-113.172	-106.334	-27.925	-23.301	-106.367	-100.324	-99.984	-92.161	172.286	-92.851	-8191	255	
702.103	1	1	0	0	0.1384	0.14346	0.16669	0.18217	0.10045	0.085691	0.19663	0.20866	0.29133	0.27224	0.11548	0.11636	0.1063	0.12986	0.19198	0.22995	-4.1208	-4.0563	-4.5979	-4.4062	-4.4062	-4.5521	-4.2375	-4.6479	-4.4313	-4.1417	-4.8083	-4.0833	-4.4021	-4.7875	-4.0625	-4.6229	233.411	-56.065	81.101	188.413	-20.792	-8.947	108.971	113.312	0.328	-116.690	181.233	-96.332	8.603	-94.652	20.283	198.825	0.00014656	0.00021214	3.7394e-05	1135	7.407e-07	2.4712e-06	1194.5	235.41	1.9016e-06	2.7922e-06	294.77	83.708	65.518	19.024	5.4343e-06	26.851	0.0001825	0.00018162	5.0781e-05	1104.1	1.978e-06	1.8942e-06	1167.7	230.57	1.9889e-06	1.9778e-06	289.41	83.139	65.006	19.091	2.0145e-06	26.864	174.959	-45.998	-25.921	-113.230	-109.068	16.934	-113.289	-106.456	-24.444	29.356	-106.448	-100.415	-100.303	-92.633	49.160	-93.162	-8191	255	
702.224	1	1	0	0	0.035109	0.13449	0.2581	0.14943	0.34736	0.15283	0.2256	0.10144	0.18239	0.082272	0.10855	0.21436	0.048841	0.10462	0.23056	0.29166	-4.0375	-4.075	-4.5375	-4.2812	-4.3292	-4.7917	-4.25	-4.5667	-4.6021	-4.0896	-4.8271	-4.3417	-4.3021	-4.7104	-4.1583	-4.4292	148.219	158.074	9.197	-71.790	200.025	-1.593	179.892	182.847	-79.811	-60.940	120.538	-57.775	-89.810	163.221	93.790	21.229	0.00020184	0.00054291	6.0947e-05	1137	2.7068e-06	2.1738e-06	1193.7	235.57	3.3129e-06	3.1323e-06	296.14	83.831	65.405	19.142	2.3058e-06	26.929	0.00018958	0.00018418	5.1125e-05	1103.9	2.0423e-06	1.9255e-06	1167.3	230.55	2.0001e-06	2.0124e-06	289.62	83.154	64.976	19.097	2.0323e-06	26.81	162.651	-60.096	-10.614	-113.224	-32.397	-31.037	-113.241	-106.249	-22.317	69.010	-106.332	-100.618	-99.800	-92.471	37.321	-92.987	-8191	255	
702.295	1	1	0	0	0.027604	0.11105	0.26775	0.25011	0.015931	0.11095	0.27968	0.22325	0.15947	0.061092	0.21386	0.093764	0.051503	0.19268	0.15513	0.074558	-4.1167	-4.1875	-4.5771	-4.35	-4.1458	-4.6854	-4.225	-4.5604	-4.5104	-4.1667	-4.8625	-4.6125	-4.15	-4.8229	-4.1375	-4.5708	124.821	108.371	-62.222	180.214	-10.876	61.049	233.622	151.736	218.742	121.885	149.802	181.246	80.514	144.177	63.596	-121.542	0.00020165	0.00015786	0.00010846	1133.4	2.8701e-06	4.6702e-06	1196.3	236.05	2.3451e-06	5.5114e-06	295.34	83.549	65.78	19.038	4.3867e-06	26.915	0.00018529	0.00018279	4.9961e-05	1103.1	1.9982e-06	1.9469e-06	1168.4	230.32	1.9925e-06	2.034e-06	289.64	83.134	65.022	19.104	2.0239e-06	26.946	163.807	-53.169	0.533	-113.104	-23.615	84.317	-113.472	-106.302	-36.962	27.771	-106.470	-100.755	-99.897	-92.660	5.552	-92.804	-8191	255	
702.391	1	1	0	0	0.21756	0.31798	0.24999	0.33008	0.0047112	0.15568	0.11144	0.10406	0.11181	0.15531	0.23681	0.19913	0.35846	0.23631	0.097722	0.18238	-4.2604	-4.1729	-4.625	-4.4854	-4.1625	-4.8604	-4.2917	-4.5042	-4.5292	-4.0667	-4.6583	-4.5375	-4.2333	-4.7125	-4.3688	-4.3667	-1.094	-60.407	68.733	224.402	5.069	21.503	186.783	-24.534	115.649	7.052	157.470	195.252	192.237	101.170	124.325	109.919	0.00023942	0.00043232	6.0781e-05	1135.8	1.829e-06	4.4053e-06	1192.9	234.57	1.2882e-06	4.737e-06	295.91	83.567	65.531	19.12	3.8238e-06	27.006	0.00018245	0.000181	5.0349e-05	1103.9	2.0124e-06	1.9674e-06	1167.7	230.28	2.0642e-06	2.0035e-06	290.03	83.166	65.011	19.052	1.974e-06	26.914	164.351	-68.759	-29.607	-113.095	81.078	11.474	-113.162	-106.281	-112.534	76.522	-106.412	-100.500	-99.616	-92.166	0.567	-93.061	-8191	255	
702.488	1	1	0	0	0.18493	0.038178	0.0499	0.11792	0.065054	0.19966	0.26625	0.14701	0.091327	0.36071	0.2223	0.19864	0.020734	0.11109	0.055856	0.092861	-4.2771	-4.1833	-4.5354	-4.6229	-4.1875	-4.7042	-4.4667	-4.2521	-4.6271	-4.0563	-4.5354	-4.5271	-4.1125	-4.775	-4.4187	-4.2375	187.896	-29.293	-99.367	168.023	32.070	42.922	186.960	207.006	34.860	-92.479	189.607	161.342	37.010	-60.522	75.139	119.205	0.00017509	0.0004458	0.00011336	1136.3	2.3941e-06	2.2819e-06	1197	235.83	2.0844e-06	2.5374e-06	297.98	83.877	65.63	19.052	6.7176e-07	26.866	0.00018167	0.00018137	4.9314e-05	1105.1	2.0297e-06	1.9563e-06	1169.2	230.88	1.9839e-06	1.9806e-06	290.36	83.035	64.968	19.064	1.9725e-06	26.873	159.113	7.054	-66.971	-113.004	39.793	-25.983	-113.326	-106.305	0.458	75.411	-106.713	-100.177	-99.914	-92.818	46.699	-92.831	-8191	255	
702.608	1	1	0	0	0.092951	0.18002	0.027044	0.18696	0.1566	0.14128	0.13806	0.18828	0.19724	0.21421	0.1261	0.25919	0.11449	0.41171	0.16933	0.16649	-4.3812	-4.275	-4.3646	-4.55	-4.1979	-4.4396	-4.45	-4.2104	-4.7063	-4.1542	-4.5062	-4.5854	-4.0792	-4.575	-4.4417	-4.2	231.778	176.417	155.624	203.306	233.125	2.985	181.864	191.002	147.189	108.933	210.937	184.869	175.800	220.148	-114.281	-82.794	0.00017385	0.00026821	0.00013031	1139.2	9.3185e-07	2.1408e-06	1191.7	234.77	2.4225e-06	3.7503e-06	294.75	83.586	65.421	19.226	1.7819e-06	26.983	0.00018656	0.00018646	4.9965e-05	1105.9	1.987e-06	1.9461e-06	1167.2	230.33	2.0033e-06	2.0088e-06	289.61	82.984	64.863	19.067	2.0092e-06	26.91	158.126	-20.567	25.269	-113.394	-53.311	24.742	-113.245	-106.039	-33.689	20.186	-106.177	-100.471	-99.921	-92.633	57.117	-92.699	-8191	255	
702.703	1	1	0	0	0.14994	0.070133	0.29152	0.20295	0.034202	0.064067	0.23038	0.14439	0.059538	0.060801	0.026021	0.13717	0.13517	0.040259	0.15141	0.20862	-4.3979	-4.1521	-4.4958	-4.8042	-4.1729	-4.5354	-4.7042	-4.0938	-4.6729	-4.25	-4.3583	-4.7646	-4.3	-4.6	-4.4583	-4.1833	-108.745	39.427	-92.071	215.518	-3.432	-63.810	185.633	-31.520	-32.637	27.820	39.407	-117.930	-45.043	97.043	175.175	176.103	0.00019779	0.0001216	3.856e-05	1134.1	4.0816e-06	4.4061e-06	1199	234.94	3.473e-06	2.124e-06	295.6	83.559	65.483	19.069	1.8905e-06	26.931	0.0001848	0.0001834	4.9596e-05	1103.5	2.0227e-06	1.9895e-06	1169	230.23	2.0329e-06	2.001e-06	289.45	83.053	64.947	19.081	2.0201e-06	26.954	177.989	36.204	234.061	-113.339	34.055	25.774	-113.237	-106.141	10.362	60.059	-106.300	-100.595	-100.220	-92.291	34.163	-92.535	-8191	255	
702.801	1	1	0	0	0.16108	0.17868	0.17604	0.19353	0.16636	0.14696	0.21519	0.22856	0.096387	0.090419	0.122	0.21296	0.22257	0.043181	0.11254	0.10011	-4.3333	-4.1833	-4.2312	-4.775	-4.0396	-4.4042	-4.7562	-4.2125	-4.5354	-4.3938	-4.2792	-4.6917	-4.2042	-4.4125	-4.5437	-4.1021	203.562	49.143	106.369	-41.444	165.103	89.799	154.204	172.023	-85.206	-81.321	-29.592	-27.073	-109.792	-56.889	234.022	-65.739	0.00021885	0.00029753	0.00010164	1136.8	1.1761e-06	2.4087e-06	1194.7	234.59	2.1671e-06	1.5943e-06	294.03	83.465	65.672	19.169	1.2479e-06	26.825	0.0001875	0.00018177	5.1731e-05	1103.4	2.0514e-06	1.9939e-06	1168.9	230.62	1.9831e-06	1.9673e-06	289.79	82.999	64.996	19.083	1.9488e-06	26.89	155.200	-90.692	-55.321	-113.172	75.479	48.696	-113.118	-106.317	-37.812	-3.486	-106.255	-100.054	-100.074	-92.658	36.577	-93.258	-8191	255	
702.895	1	1	0	0	0.10222	0.075906	0.23733	0.054683	0.053385	0.16181	0.32393	0.14987	0.20649	0.055705	0.12552	0.080775	0.20039	0.14344	0.13693	0.23511	-4.2396	-4.3479	-4.2646	-4.9187	-4.1937	-4.3313	-4.8375	-4.0312	-4.5813	-4.4271	-4.2937	-4.8125	-4.2875	-4.475	-4.6562	-4.2042	-66.184	-87.266	-110.609	222.010	116.655	-60.664	128.812	-95.197	36.457	-42.924	-97.396	-38.746	-41.681	201.759	130.240	96.725	0.00019074	0.00041233	6.8231e-05	1137.3	2.2247e-06	2.5182e-06	1195.2	234.4	3.5824e-06	3.4076e-06	295.13	83.578	65.167	18.985	1.671e-06	27.084	0.00018457	0.00018255	5.1503e-05	1104.2	2.0593e-06	1.9666e-06	1168.5	230.57	2.0124e-06	2.0036e-06	289.92	82.867	64.885	19.081	2.0025e-06	26.924	169.540	-10.673	-0.331	-113.250	-39.025	-35.079	-113.250	-106.199	-20.774	48.734	-106.415	-100.329	-99.965	-92.436	-83.551	-93.320	-8191	255	
702.991	1	1	0	0	0.28757	0.17746	0.17197	0.14999	0.069319	0.11905	0.25579	0.28172	0.080656	0.043808	0.069547	0.08763	0.12333	0.15659	0.018293	0.13349	-4.3208	-4.3708	-4.1438	-4.7375	-4.3104	-4.3979	-4.6646	-4.4146	-4.6271	-4.5708	-4.3604	-4.7521	-4.2937	-4.4437	-4.675	-4.1375	46.873	0.034	198.652	226.095	39.185	-91.839	129.878	-66.160	-58.659	-11.964	217.293	-18.745	-123.161	-60.775	-123.030	128.188	0.00013457	0.00021987	5.8515e-05	1138.9	6.1886e-07	3.3832e-06	1189.5	233.83	3.7215e-06	3.1741e-06	296.85	84.279	65.596	19.214	8.5968e-07	26.943	0.00018852	0.00018434	5.1556e-05	1105	2.0638e-06	2.0284e-06	1165.4	230.09	2.0412e-06	2.0187e-06	290.04	83.138	65.021	19.119	2.0059e-06	26.9	168.352	-86.719	34.363	-113.147	-2.883	41.653	-113.300	-106.305	-54.451	31.465	-106.213	-100.393	-99.963	-92.420	-42.463	-92.903	-8191	255	
703.087	1	1	0	0	0.14669	0.032602	0.086739	0.35351	0.03393	0.2695	0.23316	0.19415	0.25236	0.12542	0.097413	0.034588	0.10266	0.21942	0.03258	0.26697	-4.2292	-4.5229	-3.9208	-4.875	-4.3938	-4.3229	-4.85	-4.2979	-4.4542	-4.5417	-4.2979	-4.6229	-4.3083	-4.4083	-4.7042	-4.0958	55.948	23.962	111.663	184.840	75.961	215.420	161.255	-76.511	-118.705	228.540	64.279	-30.565	1.692	-92.167	-63.699	-102.063	0.00015882	0.00055678	8.542e-05	1137	3.9824e-06	2.985e-06	1191.1	235.52	7.8554e-07	7.7162e-06	295.73	83.76	65.804	19.12	2.7675e-06	26.921	0.00018614	0.0001813	5.1376e-05	1103.2	2.0006e-06	1.9853e-06	1165.5	230.56	2.0485e-06	1.9628e-06	290.05	83.185	65.083	19.036	1.977e-06	26.884	163.184	-55.299	-29.570	-113.293	-0.628	18.112	-113.323	-106.091	-76.427	20.755	-106.736	-100.323	-99.888	-92.554	24.696	-92.681	-8191	255	
703.208	1	1	0	0	0.24011	0.06199	0.078087	0.10846	0.18078	0.28394	0.15267	0.20763	0.085363	0.04761	0.14909	0.11928	0.12224	0.074752	0.15368	0.11708	-4.1438	-4.6125	-4.0396	-4.8562	-4.5542	-4.2625	-4.7542	-4.3979	-4.4313	-4.6417	-4.1104	-4.6979	-4.6875	-4.2937	-4.7292	-4.2708	-98.929	185.167	149.084	192.439	135.046	221.272	153.265	190.191	195.054	81.747	124.684	-111.635	-74.309	119.977	43.881	65.818	0.00015479	0.00013677	9.1719e-05	1136.7	4.8725e-06	3.4752e-06	1195.8	235.13	3.2666e-06	5.3799e-06	296.59	83.282	65.555	19.113	2.5593e-06	26.868	0.00018433	0.00017891	5.0251e-05	1103.6	1.948e-06	1.9361e-06	1166.3	230.5	2.0063e-06	1.9611e-06	289.73	82.932	65.014	19.1	1.9795e-06	26.913	153.091	51.978	15.724	-113.223	-20.387	60.112	-113.266	-106.084	-33.924	52.888	-106.331	-100.605	-100.029	-92.468	2.126	-92.963	-8191	255	
703.304	1	1	0	0	0.21324	0.16711	0.1201	0.21847	0.10676	0.094999	0.35612	0.064641	0.065023	0.27759	0.19999	0.11683	0.15582	0.27391	0.068192	0.13046	-4.0333	-4.5854	-4.0729	-4.6375	-4.3229	-3.9771	-4.8146	-4.2667	-4.1958	-4.6521	-4.2375	-4.5062	-4.4604	-4.1417	-4.7396	-4.3333	121.928	90.284	52.911	183.507	32.159	140.948	170.006	93.665	222.545	-92.515	182.464	-68.273	-105.423	-107.347	1.396	-37.065	0.00023695	0.00036407	9.6889e-05	1134.4	1.2053e-06	4.559e-06	1197	234.4	1.7227e-06	2.2063e-06	294.33	83.277	65.576	19.145	1.1645e-06	26.891	0.00018669	0.0001813	5.1435e-05	1104.9	2.0262e-06	2.0094e-06	1168.9	230.08	2.0137e-06	1.9806e-06	289.36	83.042	64.902	19.116	1.9959e-06	26.904	168.938	-52.250	2.615	-113.070	-117.275	16.129	-113.072	-106.066	-41.858	64.150	-106.301	-100.608	-99.903	-92.364	214.200	-92.739	-8191	255	
703.400	1	1	0	0	0.23052	0.26017	0.049218	0.1375	0.13614	0.11306	0.30345	0.07982	0.12781	0.17282	0.054721	0.14271	0.15246	0.14934	0.20224	0.23015	-3.8208	-4.6917	-4.1333	-4.7229	-4.5437	-3.9896	-4.8875	-4.3625	-4.1208	-4.5854	-4.0417	-4.4417	-4.7333	-4.05	-4.5938	-4.45	128.344	99.146	103.745	177.757	-105.612	169.624	164.789	-69.500	-79.913	66.163	194.962	-55.091	61.904	168.135	202.528	59.809	0.00013431	0.00021808	4.4091e-05	1137.7	1.3616e-06	2.6662e-06	1196.2	234.64	2.4056e-06	1.0856e-06	294.73	84.288	65.425	19.213	3.1006e-06	26.661	0.00019142	0.00018617	5.259e-05	1105.1	2.1226e-06	2.0658e-06	1168.9	230.25	2.0935e-06	2.0141e-06	289.3	83.079	65.023	19.134	1.9756e-06	26.926	158.916	-23.942	-47.534	-113.144	31.537	-19.385	-113.354	-106.103	17.785	115.071	-106.229	-100.280	-100.020	-92.646	43.432	-92.847	-8191	255	
703.521	1	1	0	0	0.16101	0.10107	0.2015	0.47388	0.09254	0.085388	0.15441	0.047939	0.22864	0.10738	0.076962	0.12476	0.20825	0.1984	0.11089	0.1809	-3.7979	-4.6292	-4.1625	-4.4521	-4.7	-4.0417	-4.7146	-4.5146	-4.25	-4.7708	-4.4229	-4.1438	-4.7604	-4.05	-4.5604	-4.5083	46.067	209.369	14.816	212.582	-80.285	-93.249	134.194	-25.759	195.209	-84.300	174.948	-98.564	-99.329	181.311	-54.590	-117.359	0.00020712	0.00044728	0.00011624	1135.2	4.2042e-06	2.8249e-06	1197.5	234.64	2.5457e-06	4.5713e-06	295.74	83.451	65.712	19.19	3.2901e-06	26.85	0.00018872	0.00018239	5.0151e-05	1104.6	1.994e-06	1.9821e-06	1167.8	230.35	2.0077e-06	1.9244e-06	289.65	83.041	65.014	19.125	1.9545e-06	26.863	158.946	-17.795	-57.912	-113.245	-17.944	59.483	-113.018	-106.376	-20.525	50.603	-106.465	-100.361	-99.980	-92.776	-7.932	-92.894	-8191	255	
703.592	1	1	0	0	0.14389	0.14274	0.11872	0.22345	0.062683	0.33564	0.19692	0.083039	0.027254	0.16353	0.17878	0.15615	0.15895	0.30626	0.053128	0.058853	-3.725	-4.6937	-4.25	-4.4708	-4.8229	-3.9771	-4.575	-4.6792	-4.0958	-4.6458	-4.4396	-4.2208	-4.7667	-4.2688	-4.4667	-4.6125	124.798	-59.036	142.925	134.082	127.109	-61.367	-123.976	80.074	150.166	-69.537	-73.820	190.674	199.688	216.947	137.870	-29.455	0.00023842	0.0003207	1.5954e-05	1133.9	4.3534e-06	4.1428e-06	1192.9	235.98	2.8653e-06	3.381e-06	294.52	83.419	65.665	19.066	2.6119e-06	26.985	0.00018623	0.00017925	4.883e-05	1102.7	1.9946e-06	1.9929e-06	1167.9	230.45	2.0352e-06	1.9771e-06	289.06	83.113	65.087	19.09	1.9914e-06	26.917	150.701	-15.353	143.992	-113.212	19.387	112.666	-113.522	-106.361	15.453	46.900	-106.177	-100.460	-100.276	-92.726	58.429	-93.247	-8191	255	
703.689	1	1	0	0	0.18756	0.15561	0.16429	0.225	0.061694	0.22809	0.21324	0.012403	0.20354	0.3043	0.21861	0.18872	0.13756	0.055418	0.16704	0.12116	-3.7583	-4.6479	-4.3938	-4.0437	-4.7562	-4.2604	-4.6083	-4.7229	-4.1813	-4.5979	-4.4167	-4.1792	-4.7333	-4.1188	-4.3313	-4.6562	106.631	-23.516	154.916	178.625	-89.195	119.149	232.923	-40.058	55.308	-105.223	120.443	232.711	232.618	113.684	74.255	186.385	0.00019516	0.0003189	0.0001172	1134.1	3.4337e-06	4.094e-06	1192.3	235.59	3.6206e-06	4.5078e-06	295.67	83.822	65.865	19.267	2.2409e-06	26.998	0.00018677	0.00017854	5.0464e-05	1103.9	1.964e-06	1.9708e-06	1168.7	230.5	2.0355e-06	1.966e-06	290.17	83.201	65.082	19.097	1.9839e-06	26.927	164.614	-9.113	-0.951	-113.064	-47.006	16.958	-113.034	-106.456	-18.815	82.616	-106.510	-100.121	-99.870	-92.629	61.139	-92.730	-8191	255	
703.785	1	1	0	0	0.084973	0.088667	0.21096	0.31847	0.22931	0.34311	0.31681	0.21561	0.094525	0.23758	0.23681	0.2867	0.338	0.21166	0.27971	0.25225	-3.7271	-4.5104	-4.4417	-4.2438	-4.6375	-4.1729	-4.4333	-4.6813	-4.0792	-4.5125	-4.5771	-4.1438	-4.6312	-4.1833	-4.3313	-4.6708	211.975	-84.125	47.466	216.627	-37.092	-70.510	176.773	145.710	174.434	-7.038	15.744	-112.263	199.824	124.925	227.959	233.730	0.00014016	0.00035941	3.098e-05	1136	9.7357e-07	5.847e-07	1196.9	235.1	1.8596e-06	1.9816e-06	296.09	83.888	65.468	19.214	3.5884e-06	27.015	0.00018648	0.00017858	5.0089e-05	1104.7	2.0208e-06	1.9807e-06	1170	230.55	1.9892e-06	1.9278e-06	289.63	83.106	64.98	19.146	1.9637e-06	26.903	159.687	-1.114	-3.953	-113.224	-22.605	230.031	-113.259	-106.297	-14.953	28.871	-106.280	-100.415	-99.952	-92.634	56.669	-92.983	-8191	255	
703.904	1	1	0	0	0.18554	0.1577	0.071711	0.3711	0.15034	0.11964	0.31263	0.17574	0.076271	0.11577	0.25055	0.13988	0.072391	0.043578	0.22496	0.052744	-3.7458	-4.5	-4.5188	-4.25	-4.5417	-4.3688	-4.3792	-4.8458	-4.1333	-4.4708	-4.6833	-4.2729	-4.925	-4.6104	-4.1667	-4.8604	-93.303	229.079	-54.330	178.924	15.392	-65.725	197.022	219.913	150.394	19.433	173.718	-25.519	-22.158	141.711	-26.245	58.281	0.00017832	0.00030297	5.2126e-05	1139.5	7.7835e-07	3.2454e-06	1195.5	235.63	3.0251e-06	1.3692e-06	296.15	83.402	65.783	19.124	4.7009e-06	27.036	0.00018508	0.00017982	5.0094e-05	1104.4	2.0391e-06	2.0094e-06	1167.4	230.72	2.0825e-06	1.9969e-06	289.24	82.923	65.095	19.144	1.9738e-06	26.931	150.408	-20.068	-1.056	-113.105	-38.770	-1.459	-113.110	-106.422	224.286	92.735	-106.591	-100.420	-99.827	-92.516	32.893	-93.124	-8191	255	
704.000	1	1	0	0	0.12792	0.043619	0.010393	0.23491	0.11286	0.28092	0.32339	0.17654	0.14611	0.1094	0.079633	0.06336	0.077052	0.22282	0.030116	0.18133	-3.8083	-4.3479	-4.45	-4.1917	-4.5854	-4.3354	-4.3	-4.8521	-4.1833	-4.4792	-4.8021	-4.1917	-4.6271	-4.2875	-4.1521	-4.7583	33.829	-16.992	-58.118	199.417	137.868	230.343	132.382	-112.535	223.190	-117.822	191.988	0.627	-123.316	114.602	-19.093	182.526	0.00016428	0.00020367	5.4828e-05	1138.2	1.0044e-06	2.5021e-06	1194.2	235.31	2.6854e-06	3.3092e-06	295.6	83.536	65.427	19.039	4.4064e-06	26.933	0.00018429	0.00017852	5.0325e-05	1105.6	2.0252e-06	1.9992e-06	1167.5	230.92	2.0443e-06	2.0014e-06	289.73	83.083	65.088	19.115	1.9873e-06	26.857	176.389	-43.959	-9.462	-113.144	63.646	-7.747	-113.291	-106.174	-64.621	30.892	-106.230	-100.233	-100.090	-92.594	-76.702	-93.124	-8191	255	
704.096	1	1	0	0	0.14171	0.31644	0.091146	0.13031	0.1087	0.21501	0.15955	0.16917	0.19119	0.162	0.069286	0.1469	0.052133	0.30477	0.079565	0.10228	-3.9542	-4.3854	-4.4854	-4.2208	-4.5104	-4.45	-4.3208	-4.7229	-4.2625	-4.2896	-4.7292	-4.1708	-4.5708	-4.6354	-3.9917	-4.6833	-83.408	153.273	-120.281	115.898	139.380	-21.500	173.287	198.581	198.667	156.327	134.142	74.718	156.584	-49.489	98.513	-72.607	0.00020212	0.00025068	5.0767e-05	1136.6	1.1638e-06	3.233e-06	1195.3	234.99	4.3337e-06	4.3366e-06	294.4	83.321	65.604	19.104	2.4334e-06	27.055	0.00017895	0.00017788	4.9798e-05	1104	1.9547e-06	1.9125e-06	1166.4	230.62	1.9358e-06	1.9407e-06	289.35	83.002	64.987	19.042	1.8925e-06	26.891	170.496	-54.429	-36.852	-113.025	73.869	46.625	-113.129	-105.983	-22.035	18.534	-106.361	-100.292	-99.829	-92.478	90.712	-93.083	-8191	255	
704.168	1	1	0	0	0.25744	0.2168	0.18039	0.14841	0.20616	0.23977	0.029728	0.23534	0.077167	0.12159	0.33778	0.065544	0.14794	0.24424	0.13977	0.21507	-4.0917	-4.1375	-4.6854	-4.2917	-4.4229	-4.65	-4.1354	-4.6208	-4.3729	-4.2417	-4.65	-4.1104	-4.5188	-4.6083	-4.0083	-4.6833	184.004	59.783	5.863	-82.493	-14.726	106.399	23.861	-104.718	89.409	40.773	190.073	119.987	-28.556	234.416	96.159	-86.490	0.0002534	0.00047307	5.4886e-05	1132.4	2.0478e-06	1.9055e-06	1185.7	233.57	3.2777e-06	3.6031e-06	293.86	83.238	65.542	19.075	1.0309e-06	26.663	0.00017765	0.00017338	4.6139e-05	1100.2	1.9243e-06	1.8654e-06	1164	229.99	1.879e-06	1.8923e-06	289.23	82.709	64.866	19.016	1.8779e-06	26.738	157.480	-12.290	-40.691	-113.009	-15.183	35.518	-113.146	-106.054	-11.967	5.709	-106.131	-100.195	-100.013	-92.473	73.468	-92.832	-8191	255	
704.288	1	1	0	0	0.18459	0.031214	0.094626	0.32773	0.19702	0.07268	0.20305	0.079101	0.14129	0.10399	0.074051	0.18537	0.058272	0.18786	0.2859	0.12276	-4.0708	-4.1917	-4.7063	-4.2917	-4.4187	-4.4458	-4.1729	-4.6896	-4.4729	-4.1729	-4.7917	-4.2354	-4.2833	-4.8479	-4.0896	-4.5687	-11.860	72.460	95.798	144.590	213.371	-38.760	156.535	170.071	-50.703	119.113	226.757	211.489	-12.731	-89.739	208.542	83.871	0.00018566	0.00032225	8.9453e-05	1127.5	2.932e-06	2.5711e-06	1182.8	234.02	9.121e-07	2.7044e-06	295.13	83.303	65.067	19.032	4.1e-06	26.778	0.00017876	0.00016873	4.6613e-05	1095.6	1.9169e-06	1.8576e-06	1158.6	229.64	1.896e-06	1.8653e-06	288.46	82.464	64.494	18.957	1.8551e-06	26.752	162.203	-56.702	23.895	-113.221	-15.771	74.770	-113.167	-106.291	35.955	40.610	-106.348	-100.110	-99.730	-92.437	-2.889	-93.426	-8191	255	
704.384	1	1	0	0	0.071731	0.33318	0.028027	0.24978	0.13663	0.14559	0.2981	0.021785	0.073124	0.15459	0.048708	0.12532	0.16722	0.04897	0.10931	0.14027	-4.125	-4.0167	-4.5792	-4.4354	-4.025	-4.8063	-4.0792	-4.5146	-4.4875	-4.0687	-4.8104	-4.3938	-4.3938	-4.6979	-4.0604	-4.4688	-30.132	106.022	10.618	234.959	-68.455	230.399	206.697	201.533	-17.128	149.355	138.333	119.055	126.787	-27.365	78.766	122.679	0.00014407	0.00015288	0.00010132	1127.2	2.2066e-06	3.6573e-06	1188.6	233.76	2.7902e-06	3.9027e-06	294.12	82.916	65.064	18.897	3.7442e-06	26.643	0.00017391	0.00016937	4.5735e-05	1094.3	1.8416e-06	1.783e-06	1158.8	229.04	1.8095e-06	1.7921e-06	287.88	82.303	64.397	18.859	1.7431e-06	26.684	158.972	-28.526	-17.028	-113.162	-0.089	15.089	-113.240	-106.228	18.767	65.376	-106.240	-100.243	-99.602	-92.477	-31.698	-93.085	-8191	255	
704.481	1	1	0	0	0.044371	0.14404	0.14863	0.076291	0.26125	0.10488	0.1538	0.3408	0.2781	0.19058	0.033016	0.098323	0.10086	0.013033	0.12338	0.047574	-4.225	-4.1208	-4.5333	-4.5396	-4.0354	-4.6083	-4.225	-4.5125	-4.5437	-4.0042	-4.6479	-4.5521	-4.1854	-4.7104	-4.2292	-4.4917	-106.387	71.043	29.836	-47.743	124.636	-95.714	-110.202	158.802	144.546	76.538	-74.610	100.560	-5.607	206.429	-98.235	164.705	0.00019784	0.00026652	8.0393e-05	1124.9	3.3365e-06	6.4443e-07	1183.9	233.38	3.2475e-06	5.4987e-06	293.57	83.161	65.442	19.113	2.0838e-06	26.666	0.00016087	0.00015553	4.2584e-05	1092.4	1.7595e-06	1.6619e-06	1157.2	228.62	1.7072e-06	1.6454e-06	287.4	82.377	64.63	18.918	1.5902e-06	26.672	173.567	1.528	1.874	-113.119	24.908	76.963	-113.325	-106.238	-30.468	17.454	-106.330	-100.396	-99.808	-92.290	-12.263	-92.865	-8191	255	
704.601	1	1	0	0	0.091551	0.082712	0.10359	0.12885	0.020756	0.18867	0.0934	0.081769	0.038876	0.11976	0.2421	0.012875	0.13383	0.13029	0.43523	0.2907	-4.4958	-3.8937	-4.6333	-4.6583	-4.2875	-4.6292	-4.2792	-4.4354	-4.7042	-4.0188	-4.6792	-4.5875	-4.0687	-4.6708	-4.1813	-4.35	160.739	-33.635	33.980	212.721	101.843	172.925	184.024	-119.408	-87.532	-30.428	199.556	224.250	118.879	19.493	41.649	169.779	0.00018571	0.00038879	0.00016121	1120.2	2.4686e-06	2.218e-06	1180.3	232.56	1.0217e-06	2.9119e-06	292.92	83.09	65.438	19.005	2.8693e-06	26.815	0.00015072	0.00014712	4.0374e-05	1088.7	1.624e-06	1.5664e-06	1151.8	228.31	1.5896e-06	1.58e-06	287.41	82.307	64.483	18.924	1.5789e-06	26.663	157.975	-11.915	-77.209	-113.169	-22.884	113.242	-113.154	-106.027	204.762	47.526	-106.354	-100.328	-99.787	-92.556	-27.332	-93.489	-8191	255	
704.696	1	1	0	0	0.031534	0.087932	0.18979	0.13249	0.026796	0.21882	0.19979	0.2369	0.11187	0.15429	0.2029	0.091795	0.16832	0.16477	0.07256	0.092802	-4.3042	-4.0208	-4.4167	-4.6292	-3.9917	-4.5813	-4.4646	-4.2958	-4.6146	-4.1521	-4.6354	-4.4771	-4.0604	-4.5458	-4.2375	-4.1583	8.430	71.394	199.499	-68.496	121.859	-29.922	117.682	125.888	-66.243	43.233	225.823	215.022	170.194	83.833	218.142	87.295	0.00012634	0.00050373	7.5277e-05	1123.1	3.7999e-06	2.0479e-06	1184	233.5	2.4663e-06	6.72e-06	294.39	83.174	65.191	19.12	5.2983e-06	26.984	0.00015217	0.00014606	3.9656e-05	1089.3	1.6507e-06	1.5787e-06	1152.6	228.74	1.5874e-06	1.5707e-06	287.57	82.493	64.456	18.973	1.5719e-06	26.783	158.744	-68.904	-13.251	-113.060	-6.576	19.983	-113.091	-106.189	-21.680	22.667	-106.476	-100.431	-99.585	-92.349	13.151	-92.903	-8191	255	
704.792	1	1	0	0	0.16732	0.15167	0.19099	0.09949	0.15367	0.065244	0.22098	0.016632	0.046861	0.13524	0.28665	0.18993	0.1855	0.14476	0.22343	0.1033	-4.4646	-4.1021	-4.325	-4.5687	-4.1229	-4.6833	-4.4979	-4.375	-4.5958	-4.0563	-4.5479	-4.7188	-4.2042	-4.525	-4.2792	-4.1104	103.784	41.062	211.022	208.207	194.653	12.479	229.947	206.701	-78.218	-124.027	-112.479	230.556	222.409	30.676	155.272	-27.574	0.00018816	0.00020598	9.3983e-05	1122.3	1.8425e-06	1.6198e-06	1180.2	233.5	1.355e-06	1.9131e-06	294.63	83.229	65.587	18.998	3.0435e-06	26.717	0.00015167	0.00014672	4.0968e-05	1088.8	1.711e-06	1.6209e-06	1152.7	228.32	1.7349e-06	1.722e-06	287.74	82.519	64.559	18.936	1.7494e-06	26.733	171.392	-29.839	-3.070	-112.984	-58.535	42.507	-113.133	-106.228	-65.280	67.915	-106.473	-100.240	-99.660	-92.456	-10.671	-92.670	-8191	255	
704.888	1	1	0	0	0.0095529	0.097573	0.088636	0.30016	0.15762	0.17283	0.14892	0.075248	0.17967	0.048298	0.17122	0.22068	0.078179	0.24152	0.15287	0.019424	-4.3625	-4.0458	-4.275	-4.6125	-4.1188	-4.4958	-4.5604	-4.1188	-4.8146	-4.2292	-4.4375	-4.6417	-4.1188	-4.5042	-4.4917	-4.1958	-85.183	54.622	-66.480	147.107	123.353	-107.092	180.763	113.351	-48.978	180.996	230.075	211.947	109.322	72.544	-75.932	216.883	0.00016057	0.00020413	3.7569e-05	1119.9	3.1758e-06	2.5165e-06	1177.3	232.98	1.3922e-06	3.0274e-06	293.67	83.535	65.295	19.067	1.4073e-06	26.977	0.0001606	0.00016142	4.4079e-05	1087.7	1.7583e-06	1.6783e-06	1152.2	228.4	1.7141e-06	1.7117e-06	287.65	82.52	64.465	19.002	1.7146e-06	26.779	144.094	15.504	-40.102	-113.096	-22.473	56.470	-113.097	-106.188	-48.016	-6.361	-106.450	-100.442	-99.778	-92.189	-61.026	-92.825	-8191	255	
704.984	1	1	0	0	0.20556	0.062262	0.088434	0.21454	0.13535	0.14506	0.033352	0.18822	0.0048687	0.11323	0.32477	0.28227	0.15924	0.10653	0.084609	0.24755	-4.2604	-4.2292	-4.0042	-4.7937	-4.1792	-4.3521	-4.6438	-4.0104	-4.5208	-4.1208	-4.2312	-4.7833	-4.0167	-4.4396	-4.5625	-4.1146	191.701	76.847	129.103	-108.988	225.095	-12.577	226.681	-122.414	-56.512	-3.130	209.983	185.390	-54.122	117.040	231.092	147.939	0.00018591	0.000421	7.1322e-05	1123.6	1.3421e-07	2.2347e-06	1180	233.04	3.507e-06	4.238e-06	293.29	82.656	64.773	19.104	3.5872e-06	26.789	0.00016011	0.0001544	4.3682e-05	1088.2	1.7719e-06	1.7328e-06	1151.8	228.54	1.8073e-06	1.7605e-06	287.21	82.257	64.413	18.967	1.7286e-06	26.713	157.238	-42.325	-2.838	-113.073	-17.976	20.761	-113.164	-106.151	-14.580	14.033	-106.024	-100.516	-99.737	-92.296	19.007	-92.866	-8191	255	
705.080	1	1	0	0	0.096696	0.20417	0.085919	0.29993	0.080577	0.38463	0.12459	0.065603	0.27271	0.06384	0.10441	0.25315	0.084706	0.0777	0.07503	0.31196	-4.1667	-4.2146	-4.0958	-4.6958	-4.2271	-4.1958	-4.8083	-4.1583	-4.6875	-4.25	-4.0708	-4.6896	-4.1646	-4.3438	-4.5958	-4.0542	70.470	59.693	82.218	160.900	-107.565	-58.875	208.856	-119.823	-85.591	50.798	138.695	-101.442	63.504	163.594	-59.969	220.289	0.00014942	0.0001578	0.00017005	1122.5	1.7953e-06	6.4745e-06	1180.5	233.1	2.6984e-06	3.1039e-06	293.95	83.158	64.658	19.04	1.7057e-06	26.67	0.00016157	0.00015716	4.4462e-05	1089.6	1.802e-06	1.7526e-06	1152.1	228.4	1.7732e-06	1.7601e-06	287.91	82.268	64.314	18.974	1.7426e-06	26.694	176.433	-69.342	-5.698	-113.077	-29.727	87.451	-113.058	-106.170	-67.046	41.966	-106.352	-100.445	-100.150	-92.442	-59.470	-93.286	-8191	255	
705.201	1	1	0	0	0.22361	0.13476	0.18839	0.13516	0.11309	0.15075	0.115	0.12551	0.075494	0.077337	0.23232	0.089641	0.1374	0.091208	0.12975	0.18804	-4.0604	-4.3521	-3.9021	-4.7917	-4.3271	-4.3042	-4.8604	-4.0479	-4.3458	-4.3958	-4.2	-4.8333	-4.3292	-4.2688	-4.7063	-4.0083	202.612	185.161	78.120	167.467	173.479	94.523	142.889	107.389	-0.235	-85.831	219.028	-91.742	137.974	-32.133	-61.603	100.571	0.00018419	0.00042282	8.7461e-05	1120.7	1.6882e-06	3.3126e-06	1181.5	232.1	1.8836e-06	4.6767e-06	293.52	82.48	64.787	19.039	3.346e-06	26.697	0.00016616	0.00015953	4.4533e-05	1088.6	1.7703e-06	1.744e-06	1152.8	228.34	1.7916e-06	1.7212e-06	287.23	82.204	64.341	18.968	1.777e-06	26.69	160.570	-18.984	8.032	-113.049	-53.767	71.530	-113.170	-106.281	-20.701	12.636	-106.406	-100.105	-100.156	-92.532	65.840	-92.778	-8191	255	
705.297	1	1	0	0	0.12444	0.015464	0.051261	0.46039	0.18766	0.10947	0.13162	0.17063	0.20216	0.30899	0.10585	0.19225	0.12861	0.085019	0.068919	0.14759	-4.1188	-4.5271	-3.9229	-4.5896	-4.1188	-4.0458	-4.725	-4.1813	-4.2604	-4.4146	-4.1312	-4.5021	-4.3167	-4.3375	-4.5958	-4.0729	-30.439	66.111	-25.423	205.001	-57.620	-14.231	-107.746	140.402	77.894	-78.447	189.520	213.793	204.278	-59.482	-45.858	-102.394	0.00012408	0.00029929	2.35e-05	1122.2	1.1526e-06	3.1893e-06	1175.9	232.65	2.0358e-06	3.9518e-06	293.4	83.12	65.133	18.959	1.1394e-06	26.687	0.00016918	0.00016391	4.5791e-05	1090.2	1.8416e-06	1.8249e-06	1153.9	228.55	1.8186e-06	1.7561e-06	287.22	82.448	64.358	18.953	1.7262e-06	26.705	162.858	-56.709	-91.035	-112.973	-3.639	44.341	-112.986	-106.214	-59.145	70.724	-106.220	-100.271	-99.705	-92.409	69.668	-92.916	-8191	255	
705.393	1	1	0	0	0.11142	0.11513	0.1894	0.10759	0.08874	0.28133	0.18442	0.069445	0.22057	0.026732	0.19588	0.14128	0.20028	0.023389	0.21571	0.12331	-4.0229	-4.5375	-4	-4.6125	-4.2063	-4.1875	-4.7625	-4.2937	-4.4021	-4.65	-4.1667	-4.6687	-4.3521	-4.0104	-4.6	-4.4667	-6.803	160.033	9.864	-93.447	71.615	70.653	104.894	209.405	-50.867	74.333	119.621	82.318	216.622	-94.754	81.319	55.645	0.0002232	0.00027811	6.4426e-05	1121.6	2.5958e-06	3.417e-06	1179.2	232.36	4.4694e-07	3.7681e-06	294.27	83.218	65.488	19.04	9.0217e-07	26.944	0.00016322	0.00015687	4.4364e-05	1089.5	1.7806e-06	1.7813e-06	1154	228.65	1.7688e-06	1.7491e-06	287.62	82.492	64.598	18.971	1.7633e-06	26.732	163.354	1.830	-29.934	-113.181	-54.303	57.148	-113.015	-106.084	25.831	-20.425	-106.414	-100.524	-100.116	-92.466	131.599	-93.145	-8191	255	
705.465	1	1	0	0	0.068772	0.28853	0.12455	0.18668	0.15655	0.2066	0.08631	0.13568	0.17103	0.0075294	0.32454	0.12732	0.085658	0.33243	0.092846	0.12867	-3.9542	-4.7396	-3.9	-4.5979	-4.5167	-4.1396	-4.8167	-4.3167	-4.3	-4.8	-4.0708	-4.4979	-4.5875	-4.075	-4.5542	-4.3063	-110.120	215.304	-94.837	169.324	122.785	194.716	-104.430	185.684	-94.804	-20.753	187.056	-75.828	199.359	81.282	-71.281	-123.711	0.00017415	0.00042988	5.037e-05	1117.3	1.3797e-06	3.7637e-06	1182.8	233.08	2.1439e-06	2.689e-06	292.65	83.122	65.191	18.995	1.007e-06	26.681	0.00016407	0.00016062	4.4409e-05	1088.5	1.8044e-06	1.7625e-06	1155.3	228.45	1.7824e-06	1.7927e-06	287.17	82.42	64.501	18.939	1.7844e-06	26.724	153.692	-23.405	-37.597	-113.222	-1.526	53.430	-113.074	-106.124	-74.911	49.284	-106.414	-100.272	-99.783	-92.321	-79.139	-92.799	-8191	255	
705.585	1	1	0	0	0.069513	0.29058	0.042572	0.22401	0.15459	0.13315	0.28054	0.055318	0.084819	0.14255	0.15356	0.14949	0.045707	0.13087	0.10311	0.022978	-3.8312	-4.65	-4.0021	-4.3875	-4.4708	-3.9396	-4.8167	-4.5125	-4.1125	-4.6458	-4.2167	-4.3021	-4.6375	-4.0958	-4.4458	-4.3271	-122.443	105.362	159.218	172.263	194.745	-46.924	115.985	-49.074	108.275	-44.882	146.961	193.404	-101.387	72.417	-88.428	-63.081	0.00014962	0.00020228	0.00015916	1118.9	7.8419e-07	3.2829e-06	1182.3	233.3	7.5858e-07	2.8808e-06	293.63	83.379	65.476	18.945	1.2104e-06	26.892	0.00016875	0.00016099	4.494e-05	1087.7	1.7457e-06	1.7752e-06	1153	228.73	1.8269e-06	1.7485e-06	287.07	82.488	64.592	18.929	1.8218e-06	26.78	168.631	-110.292	-30.375	-112.974	-55.443	3.191	-113.131	-106.126	-5.771	53.706	-106.322	-100.566	-99.522	-92.565	52.102	-92.966	-8191	255	
705.682	1	1	0	0	0.10092	0.12485	0.31231	0.14929	0.20121	0.1168	0.061312	0.28929	0.084482	0.07064	0.22122	0.060258	0.25055	0.086903	0.097191	0.080089	-3.75	-4.5042	-4.0792	-4.4625	-4.6021	-3.9604	-4.8125	-4.3417	-4.1687	-4.5604	-4.4479	-4.3083	-4.5042	-4.0354	-4.3854	-4.5167	-112.137	-35.723	72.098	194.987	91.556	-21.637	217.845	174.187	118.461	153.816	221.037	165.427	-49.558	-19.632	202.687	41.108	0.00017359	0.00033209	2.9993e-05	1116	4.5566e-06	3.5944e-06	1178.8	233.34	4.4468e-07	2.1721e-06	294.05	82.87	65.031	19.08	1.539e-06	26.803	0.00016772	0.00016454	4.5133e-05	1087.7	1.7958e-06	1.801e-06	1154.2	228.89	1.8073e-06	1.773e-06	287.9	82.269	64.46	18.975	1.8266e-06	26.665	156.362	23.197	-57.232	-113.146	-27.303	32.645	-113.156	-106.261	114.355	36.317	-106.137	-100.540	-99.867	-92.566	228.431	-92.609	-8191	255	
705.776	1	1	0	0	0.1783	0.12288	0.043473	0.22841	0.13829	0.13498	0.07523	0.043573	0.17868	0.1636	0.15604	0.23007	0.13612	0.36404	0.17738	0.1878	-3.6521	-4.6604	-4.1687	-4.4271	-4.6979	-4.1771	-4.6042	-4.7208	-4.0333	-4.6208	-4.4187	-4.0729	-4.6917	-4.125	-4.3875	-4.75	84.256	215.247	168.508	171.279	40.846	51.688	200.934	101.781	-86.084	178.208	182.039	232.964	-121.637	143.212	-61.589	184.729	0.00016899	0.00058333	7.4179e-05	1118.1	1.6584e-06	3.0528e-06	1180.5	233.12	1.3179e-06	4.8325e-06	293.86	82.854	64.9	19.037	1.3186e-06	26.67	0.00017049	0.00016361	4.6703e-05	1087.9	1.8327e-06	1.8283e-06	1153.1	228.48	1.8458e-06	1.7792e-06	287.44	82.256	64.313	18.922	1.7901e-06	26.666	165.478	-40.713	-34.627	-112.849	52.862	67.954	-113.216	-106.064	-60.840	-15.218	-106.431	-100.120	-99.909	-92.564	-26.970	-93.017	-8191	255	
705.872	1	1	0	0	0.068518	0.047734	0.15592	0.35974	0.21319	0.20677	0.23903	0.16326	0.22332	0.12274	0.11918	0.13523	0.11485	0.19987	0.27097	0.12717	-3.7583	-4.4979	-4.3063	-4.1333	-4.7542	-4.175	-4.4646	-4.6354	-4.1479	-4.5458	-4.6542	-4.1438	-4.6833	-4.3125	-4.1479	-4.6521	-27.196	93.153	142.497	166.370	91.263	178.714	215.793	222.007	-16.690	179.662	152.523	183.999	173.688	175.603	150.980	77.760	0.00015589	0.00030114	0.00011686	1120.4	2.2056e-06	1.9099e-06	1180.1	232.86	3.1361e-06	3.2926e-06	293.45	83.373	65.178	19.031	3.238e-06	26.669	0.00016788	0.00016138	4.6119e-05	1089	1.8392e-06	1.8039e-06	1153.2	228.48	1.8252e-06	1.7911e-06	286.75	82.37	64.488	18.939	1.8192e-06	26.631	148.001	-88.936	19.635	-113.060	-71.522	-4.207	-113.154	-106.296	-77.759	67.047	-106.272	-100.607	-99.822	-92.645	38.882	-92.681	-8191	255	
705.993	1	1	0	0	0.3008	0.17578	0.1255	0.095717	0.060685	0.037257	0.19599	0.044333	0.11744	0.1532	0.1447	0.13766	0.1228	0.089157	0.30944	0.14279	-3.6937	-4.4437	-4.3604	-4.0667	-4.7229	-4.3	-4.3688	-4.6042	-4.0437	-4.3729	-4.5458	-4.0646	-4.6813	-4.3771	-4.2167	-4.6854	-96.268	-80.646	-41.563	199.079	91.176	-115.348	194.610	188.115	99.993	-99.650	212.396	142.583	-37.673	165.461	-4.964	2.158	0.00020393	0.00038196	9.9462e-05	1123.1	3.1043e-06	2.8856e-06	1177.2	232.91	3.7023e-06	3.1914e-06	293.79	82.838	65.072	19.039	4.6771e-06	26.85	0.0001692	0.00016701	4.5981e-05	1089.9	1.8422e-06	1.8311e-06	1152.1	228.59	1.7739e-06	1.7788e-06	286.95	82.321	64.501	18.941	1.7884e-06	26.714	158.986	-6.061	21.409	-113.170	9.226	-17.590	-113.232	-106.177	-22.018	27.445	-105.997	-100.182	-99.601	-92.394	4.210	-92.765	-8191	255	
706.064	1	1	0	0	0.12447	0.12922	0.26125	0.23023	0.18707	0.15091	0.10589	0.08898	0.081987	0.053518	0.055182	0.16269	0.14253	0.18756	0.17415	0.18903	-3.7625	-4.3625	-4.4812	-4.1417	-4.75	-4.3479	-4.2562	-4.7083	-4.1333	-4.4437	-4.5875	-4.15	-4.6	-4.5062	-4.0229	-4.7208	-5.591	139.118	187.502	189.227	-87.945	204.998	171.607	160.225	-91.974	-106.642	9.200	-98.845	155.698	217.465	114.079	149.521	0.00015845	0.00027604	8.102e-05	1117.6	2.9338e-06	2.1475e-06	1182.3	233.04	2.3901e-06	4.9762e-06	294.04	83.091	65.043	19.027	2.0673e-06	26.726	0.0001735	0.00016239	4.4583e-05	1086.5	1.8232e-06	1.8198e-06	1152.9	228.38	1.8677e-06	1.7802e-06	287.35	82.308	64.338	18.936	1.83e-06	26.714	162.752	-73.181	-29.215	-113.086	-55.155	88.277	-113.073	-106.129	-48.579	81.005	-106.368	-100.616	-99.573	-92.436	-50.728	-92.819	-8191	255	
706.161	1	1	0	0	0.22303	0.15295	0.25152	0.3961	0.19831	0.16404	0.095258	0.21654	0.23569	0.088311	0.091327	0.080032	0.22863	0.18761	0.19972	0.18896	-3.7604	-4.4146	-4.4667	-4.1083	-4.5396	-4.2854	-4.3583	-4.6854	-4.2167	-4.5542	-4.6792	-4.1521	-4.6208	-4.5708	-4.0729	-4.7729	223.390	-65.992	169.689	148.395	-90.882	223.891	121.958	200.554	200.221	111.129	223.790	127.026	-78.972	-14.006	125.714	204.685	0.0001839	6.9271e-05	7.7591e-05	1123.7	1.2726e-06	3.1909e-06	1174.3	233.46	1.6479e-06	8.9505e-07	293.26	82.537	65.218	19.037	4.4887e-06	26.743	0.0001751	0.00016766	4.5942e-05	1089.5	1.8543e-06	1.82e-06	1151.8	228.87	1.8615e-06	1.8363e-06	287.69	82.303	64.495	18.962	1.7993e-06	26.68	148.536	97.476	-1.303	-112.915	183.081	9.162	-113.178	-106.348	-72.019	97.423	-106.583	-100.454	-100.108	-92.156	22.132	-92.878	-8191	255	
706.281	1	1	0	0	0.034961	0.11212	0.056615	0.14634	0.22845	0.045398	0.11831	0.14757	0.22847	0.13704	0.062231	0.26222	0.21618	0.223	0.24295	0.014147	-3.7625	-4.2625	-4.5875	-4.2271	-4.3938	-4.4896	-4.3167	-4.5833	-4.3	-4.1729	-4.7604	-4.05	-4.4563	-4.5604	-4.0917	-4.7021	-48.393	122.948	133.841	129.776	119.738	60.701	186.102	100.971	82.124	122.905	211.730	233.723	188.112	-121.511	185.201	-79.291	0.00019306	0.0002184	4.8136e-05	1120.9	2.5185e-06	1.0017e-06	1180.3	233.17	3.7421e-06	4.9081e-06	292.78	82.899	64.883	19.014	1.3006e-06	26.681	0.00017257	0.00016505	4.5216e-05	1086.9	1.8585e-06	1.8229e-06	1154	228.72	1.8725e-06	1.8409e-06	286.87	82.296	64.403	18.958	1.8462e-06	26.664	165.896	37.603	-30.120	-112.939	200.389	96.276	-113.195	-106.124	-39.609	10.447	-106.200	-100.466	-100.140	-92.590	29.232	-92.504	-8191	255	
706.377	1	1	0	0	0.31289	0.14175	0.20548	0.18762	0.071203	0.20024	0.41541	0.015771	0.071928	0.078817	0.14716	0.11607	0.28607	0.11511	0.044738	0.021356	-3.8312	-4.0854	-4.55	-4.1729	-4.4979	-4.5771	-4.1062	-4.8208	-4.3979	-4.2021	-4.6021	-4.3083	-4.3854	-4.6604	-4.0896	-4.575	100.477	183.668	232.050	-110.634	49.358	179.207	115.786	211.478	69.682	233.990	94.237	51.481	173.958	233.018	-47.783	-97.406	0.00018522	0.00018351	6.902e-05	1121.9	8.5032e-07	1.9152e-06	1181.5	233.06	1.167e-06	2.764e-06	293.39	82.96	65.333	19.074	4.4665e-06	26.845	0.00017539	0.00017558	4.6783e-05	1090.4	1.9063e-06	1.834e-06	1154.7	228.23	1.8508e-06	1.8351e-06	287.67	82.284	64.566	18.975	1.8752e-06	26.743	165.979	-55.103	-48.343	-113.195	8.247	-14.184	-113.236	-106.011	-55.110	116.667	-106.563	-100.364	-99.863	-92.486	50.731	-93.067	-8191	255	
706.473	1	1	0	0	0.034594	0.10634	0.099401	0.16766	0.14491	0.16819	0.19003	0.039421	0.17673	0.14755	0.29806	0.16115	0.044382	0.29138	0.098541	0.20836	-3.9833	-4.1	-4.6167	-4.2604	-4.3271	-4.6417	-4.1146	-4.5521	-4.5062	-3.9958	-4.6875	-4.3125	-4.3958	-4.6312	-4.0917	-4.5896	30.307	96.277	70.137	168.576	77.343	176.046	139.711	129.735	-49.375	-15.423	212.471	101.888	27.055	212.796	33.945	-78.232	0.00013769	0.00023859	8.667e-05	1120.7	2.6282e-06	3.0879e-06	1180.8	233.75	1.0897e-06	4.0559e-06	291.45	83.102	65.158	19.046	1.7263e-06	26.634	0.00017684	0.000176	4.7654e-05	1089.5	1.9304e-06	1.8644e-06	1153	229	1.9149e-06	1.9162e-06	286.83	82.361	64.514	18.933	1.8961e-06	26.672	149.924	-64.634	-44.091	-113.126	-101.293	103.372	-113.109	-106.228	-5.577	17.530	-106.325	-99.984	-99.876	-92.380	8.178	-92.493	-8191	255	
706.570	1	1	0	0	0.17096	0.13535	0.22754	0.018078	0.10577	0.1239	0.14722	0.050949	0.1078	0.11933	0.10906	0.25009	0.22039	0.15314	0.007944	0.10663	-3.9521	-4.0396	-4.4771	-4.5667	-4.2937	-4.5104	-4.15	-4.4313	-4.5062	-4.1271	-4.7479	-4.2792	-4.2188	-4.8104	-4.0167	-4.5312	174.791	-63.533	-21.320	73.396	-89.038	-11.249	189.985	7.611	-8.806	9.494	194.496	161.357	-62.397	151.859	101.715	152.395	0.00018429	0.00073444	7.0354e-05	1122.2	2.2337e-06	1.0338e-06	1181	232.15	3.9489e-06	1.1628e-06	294.97	83.117	64.897	18.973	2.4795e-06	26.587	0.00017684	0.00017491	4.8337e-05	1089.5	1.9388e-06	1.8833e-06	1154.7	228.8	1.8815e-06	1.9274e-06	287.34	82.46	64.362	18.951	1.9246e-06	26.695	149.952	-18.980	85.183	-113.003	14.464	8.578	-113.229	-106.323	-63.508	-6.960	-106.351	-100.416	-99.665	-92.614	65.535	-92.604	-8191	255	
706.690	1	1	0	0	0.098132	0.12994	0.19478	0.175	0.14586	0.30184	0.1867	0.28302	0.22608	0.09471	0.0055103	0.17015	0.033205	0.12806	0.074927	0.078757	-4.3375	-4.0708	-4.5833	-4.5813	-4.2917	-4.5687	-4.2271	-4.2438	-4.4563	-4.1062	-4.5792	-4.4771	-4.2042	-4.7854	-4.125	-4.3417	159.976	59.493	-34.250	3.649	79.038	39.228	181.626	135.107	-54.429	128.712	116.589	-36.586	-94.218	-22.395	170.122	-113.284	0.0001711	0.00041758	8.7443e-05	1118.4	3.73e-06	3.7305e-06	1178.8	233.62	3.2314e-06	1.3824e-06	294.88	82.776	64.956	19.037	1.2394e-07	26.854	0.00017937	0.00017398	4.8703e-05	1089	1.9842e-06	1.8841e-06	1152.3	228.95	1.9385e-06	1.8971e-06	287.51	82.369	64.373	18.968	1.9282e-06	26.711	178.041	-54.573	-40.081	-113.038	-17.813	48.134	-113.027	-106.082	-34.459	42.442	-106.266	-100.345	-99.618	-92.410	165.498	-93.223	-8191	255	
706.762	1	1	0	0	0.063746	0.19293	0.050007	0.23597	0.067483	0.15262	0.14548	0.24679	0.18227	0.12353	0.22556	0.24431	0.035526	0.20007	0.18877	0.15059	-4.3229	-4.15	-4.4417	-4.4146	-4.1729	-4.7583	-4.2833	-4.3979	-4.625	-4.0104	-4.4667	-4.55	-4.1458	-4.5708	-4.3104	-4.2396	148.627	123.282	-33.228	139.550	130.623	122.006	132.655	170.516	225.164	-38.282	-98.190	197.195	94.205	-86.795	46.311	22.615	0.00016394	0.00017196	8.9286e-05	1119.3	2.2027e-06	3.7616e-06	1180.3	233.36	3.9287e-06	2.2095e-06	293.71	83.002	65.164	19.019	2.767e-06	26.742	0.00018371	0.00017619	4.8441e-05	1088.5	1.9194e-06	1.8711e-06	1154.8	228.86	1.9131e-06	1.9318e-06	287.72	82.398	64.49	18.935	1.9546e-06	26.734	170.226	-79.763	-1.782	-113.023	-42.789	26.164	-113.219	-106.323	-29.580	31.769	-106.393	-100.425	-99.793	-92.278	-64.617	-92.862	-8191	255	
706.858	1	1	0	0	0.14706	0.1105	0.2133	0.2031	0.14034	0.20355	0.14617	0.19779	0.1704	0.12441	0.27835	0.22662	0.23905	0.32099	0.071552	0.16372	-4.3583	-4.1479	-4.4437	-4.8208	-3.9333	-4.7188	-4.3292	-4.3708	-4.6375	-4.0833	-4.425	-4.5917	-4.1229	-4.6562	-4.3417	-4.2604	-103.605	-42.738	-107.277	227.471	179.331	-65.767	203.782	135.377	45.339	79.643	-119.671	201.149	152.944	167.469	193.566	187.316	0.00013227	0.00031794	8.6324e-05	1120.9	1.2627e-06	4.3792e-06	1174.4	232.6	7.5479e-07	3.2076e-06	292.11	82.857	65.053	19.016	6.5952e-06	26.746	0.00017759	0.0001773	4.7523e-05	1089.5	1.9595e-06	1.9533e-06	1151.5	228.75	1.9083e-06	1.8895e-06	287.47	82.297	64.399	18.934	1.9279e-06	26.718	155.960	14.847	22.253	-113.375	10.730	-16.510	-113.166	-106.162	-15.367	109.715	-106.471	-100.519	-99.836	-92.827	11.769	-93.089	-8191	255	
706.977	1	1	0	0	0.11541	0.12982	0.10981	0.14183	0.1619	0.13572	0.1466	0.1465	0.18472	0.12154	0.23353	0.2425	0.03061	0.2605	0.057073	0.12147	-4.2583	-4.075	-4.0771	-4.6667	-3.9604	-4.45	-4.5104	-4.2	-4.6208	-4.1729	-4.2917	-4.6083	-4.2042	-4.6229	-4.3625	-4.1125	-88.241	-33.542	128.048	213.615	59.920	80.251	103.880	86.154	-9.722	73.092	174.354	233.612	-78.250	-44.210	67.890	-115.800	0.00017038	0.00030001	6.859e-05	1125	3.2767e-06	2.6805e-06	1181.3	234.3	3.8683e-06	2.427e-06	293.58	82.893	64.978	18.877	1.0963e-06	26.654	0.00017864	0.00017659	4.8748e-05	1091.1	2.0008e-06	1.9507e-06	1153.3	229.28	1.942e-06	1.8899e-06	288.25	82.387	64.414	18.921	1.9168e-06	26.696	149.809	-9.044	-59.043	-113.126	-58.802	47.801	-113.222	-106.069	-39.995	48.623	-106.535	-100.518	-100.086	-92.730	4.050	-92.749	-8191	255	
707.073	1	1	0	0	0.34299	0.15411	0.2268	0.37681	0.15021	0.056218	0.03018	0.104	0.050396	0.24257	0.1704	0.15895	0.14375	0.030377	0.041632	0.30566	-4.2562	-4.1312	-4.1896	-4.7417	-3.8521	-4.5396	-4.55	-4.0979	-4.6229	-4.2458	-4.2375	-4.7562	-4.1312	-4.5062	-4.6375	-4.0333	121.305	-5.701	-99.808	197.750	6.141	101.220	219.197	88.324	-91.595	225.682	226.148	30.400	220.121	76.611	-40.609	228.890	0.00016853	0.00026107	0.00018857	1121.4	2.3292e-06	2.3034e-06	1179	232.79	3.1547e-06	3.9522e-06	292.5	83.201	65.265	18.938	4.2399e-06	26.543	0.00018172	0.00017977	4.9228e-05	1090.1	2.0257e-06	1.8946e-06	1154.8	228.53	1.9646e-06	1.8966e-06	287.49	82.463	64.489	18.941	1.9133e-06	26.645	151.254	-35.026	-33.350	-113.201	-33.549	30.497	-113.184	-106.281	-7.332	-17.790	-106.535	-100.318	-99.708	-92.401	10.626	-92.701	-8191	255	
707.169	1	1	0	0	0.084712	0.23795	0.15177	0.29212	0.2222	0.10558	0.068889	0.069759	0.28893	0.18573	0.15606	0.10776	0.22411	0.038855	0.17476	0.17168	-4.2083	-4.3833	-4.1167	-4.6667	-4.0229	-4.4521	-4.775	-4.2562	-4.4854	-4.3229	-4.3042	-4.7917	-4.2021	-4.4292	-4.6958	-4.0521	125.706	47.539	-51.806	147.597	-15.572	-25.383	217.818	95.451	-88.226	35.195	-90.226	104.801	168.127	81.243	-46.301	-113.972	0.00019288	0.00028858	0.00011549	1122.6	2.0115e-06	2.571e-06	1186.8	232.55	2.8214e-06	2.4876e-06	293.95	83.015	65.401	19.171	3.2474e-07	26.693	0.00018176	0.00017834	4.8933e-05	1090	1.9699e-06	1.9124e-06	1156.9	228.69	1.9772e-06	1.9473e-06	287.84	82.311	64.542	19.009	1.9045e-06	26.711	165.491	-41.592	-4.774	-112.968	-58.857	46.592	-113.261	-106.174	-74.311	87.161	-106.212	-100.170	-99.620	-92.488	-112.327	-92.883	-8191	255	
707.290	1	1	0	0	0.20698	0.081066	0.17891	0.16771	0.029195	0.10214	0.35851	0.14433	0.062172	0.11104	0.22495	0.070093	0.033946	0.089091	0.16432	0.020346	-4.1646	-4.3917	-3.9479	-4.7958	-4.275	-4.2646	-4.7292	-4.1146	-4.4542	-4.4833	-4.2021	-4.6896	-4.2229	-4.2521	-4.6438	-4.1917	158.725	198.161	-41.024	144.379	179.945	-73.444	196.188	93.339	56.238	-52.450	181.866	159.262	58.008	215.631	-28.307	-44.148	0.00017028	0.000595	0.00010239	1122.1	2.3885e-06	8.4817e-07	1180.7	233.67	1.4575e-06	1.257e-06	294.04	82.959	65.139	19.011	3.2238e-06	26.702	0.00017785	0.00017419	4.8691e-05	1090.4	2.0009e-06	1.9393e-06	1153.6	229.06	1.9536e-06	1.9171e-06	287.8	82.398	64.5	18.937	1.9084e-06	26.701	163.890	-21.850	-52.381	-112.893	17.205	61.503	-113.251	-106.143	14.852	60.391	-106.219	-100.453	-99.926	-92.716	20.265	-92.463	-8191	255	
707.362	1	1	0	0	0.2498	0.089081	0.014128	0.22236	0.10889	0.15622	0.018549	0.12248	0.14171	0.14522	0.15254	0.23858	0.13955	0.083874	0.070522	0.20606	-4.1896	-4.4146	-4.0229	-4.8354	-4.2979	-4.1729	-4.8417	-4.2458	-4.6104	-4.4896	-4.1208	-4.6312	-4.4083	-4.3229	-4.6188	-4.4	-54.099	25.910	155.200	230.594	107.045	12.577	-84.876	112.596	58.313	14.862	159.793	23.824	129.141	221.510	59.554	105.051	0.00013097	0.00029912	5.0747e-05	1125	3.3432e-06	1.6308e-06	1184.9	233.68	4.2448e-06	4.5892e-06	291.66	82.879	65.515	18.988	3.7401e-06	26.708	0.00018306	0.00018023	4.8825e-05	1093.1	1.9884e-06	1.8786e-06	1157.2	229.07	1.9523e-06	1.8697e-06	287.4	82.427	64.681	18.931	1.9365e-06	26.724	159.281	-56.493	95.694	-113.131	-16.874	-74.313	-113.273	-106.290	-21.797	58.599	-106.344	-100.473	-99.753	-92.556	3.300	-92.652	-8191	255	
707.458	1	1	0	0	0.044109	0.04909	0.15759	0.11321	0.069288	0.18642	0.2541	0.22039	0.15892	0.11426	0.34755	0.046658	0.28566	0.27329	0.088884	0.13246	-3.9771	-4.5771	-4.0458	-4.7042	-4.5083	-4.175	-4.9479	-4.325	-4.35	-4.5875	-4.1167	-4.6125	-4.5	-4.1646	-4.7771	-4.2625	228.895	148.617	-41.347	185.792	183.671	-40.093	213.710	132.771	156.638	-41.973	119.143	-122.107	-80.238	206.787	34.573	-122.124	0.00019121	0.00030648	0.0001113	1121.3	2.118e-06	2.4537e-06	1182.4	233.37	3.0733e-06	2.6633e-06	295.26	83.252	65.258	19.063	3.3074e-06	26.713	0.00018063	0.00017769	5.0025e-05	1090.1	1.975e-06	1.9575e-06	1155.8	228.84	1.9583e-06	1.9622e-06	288.4	82.351	64.491	18.944	1.9443e-06	26.756	167.587	-31.483	2.260	-113.115	-9.740	43.244	-113.196	-106.161	-26.448	80.331	-106.464	-100.288	-99.928	-92.508	-22.223	-92.561	-8191	255	
707.554	1	1	0	0	0.049965	0.16023	0.018485	0.24096	0.25709	0.15311	0.20481	0.26953	0.049989	0.097717	0.071564	0.072295	0.23098	0.067917	0.19809	0.087909	-4.0062	-4.6438	-3.9062	-4.5896	-4.4646	-4.05	-4.675	-4.2	-4.2458	-4.7229	-4.1583	-4.4396	-4.5188	-4.1083	-4.4896	-4.3771	112.227	-49.513	27.679	201.598	-114.291	69.082	179.466	215.979	198.752	-76.159	14.338	106.795	156.113	148.215	165.498	156.849	0.00013014	0.00036971	6.3507e-05	1121.7	2.2034e-06	2.4489e-06	1184.4	232.64	1.9869e-06	2.8865e-06	293.03	83.446	65.267	18.909	3.2596e-06	26.725	0.00018267	0.00017416	5.0037e-05	1090.8	2.0073e-06	1.9289e-06	1155.9	228.62	1.9616e-06	1.9245e-06	287.58	82.568	64.623	18.945	1.935e-06	26.735	161.303	-7.660	-54.990	-113.151	17.276	61.172	-112.945	-106.043	-96.777	24.642	-106.310	-100.475	-99.812	-92.239	-0.404	-92.711	-8191	255	
707.650	1	1	0	0	0.16107	0.13074	0.22298	0.082055	0.025024	0.14123	0.27638	0.19342	0.032234	0.14738	0.056645	0.10337	0.089404	0.04435	0.22233	0.15664	-3.7958	-4.5875	-3.95	-4.4958	-4.6125	-4.0521	-4.7333	-4.4125	-4.2646	-4.6854	-4.2937	-4.6875	-4.6021	-4.1396	-4.6229	-4.4896	183.337	23.781	102.977	186.164	223.569	16.145	167.110	166.563	63.305	36.566	128.238	150.240	65.219	-81.172	69.537	219.436	0.00016621	0.0004664	9.6459e-05	1121.9	2.9674e-06	1.0868e-06	1181.8	232.96	2.047e-06	3.0195e-06	294.55	82.897	65.339	19.034	9.3687e-07	26.878	0.00018285	0.00017377	4.8994e-05	1090.2	1.9491e-06	1.9402e-06	1155.5	229.04	1.9582e-06	1.9093e-06	287.87	82.537	64.604	18.969	1.956e-06	26.813	161.652	-49.377	-74.426	-113.128	7.072	96.513	-113.174	-106.129	-68.682	96.142	-106.425	-100.349	-99.922	-92.645	49.182	-92.683	-8191	255	
707.769	1	1	0	0	0.20572	0.08105	0.18023	0.035843	0.17642	0.27129	0.15831	0.096995	0.072392	0.13151	0.33737	0.16907	0.045421	0.12839	0.052784	0.18238	-3.8438	-4.7833	-4.3042	-4.3521	-4.5396	-4.1646	-4.8021	-4.5	-4.0229	-4.6833	-4.2479	-4.4833	-4.725	-4.1375	-4.5458	-4.5437	138.136	-105.012	183.744	-119.685	123.312	97.739	193.845	-1.902	65.677	165.207	145.340	203.115	95.661	199.379	-107.711	92.104	0.00015739	0.00026428	0.00013401	1123.6	2.0173e-06	3.6633e-06	1183.3	233.71	2.0783e-06	1.5194e-06	295.57	83.232	64.943	19.03	2.745e-06	26.809	0.00018371	0.00017735	4.8851e-05	1090.7	1.9848e-06	1.9764e-06	1155	228.94	1.978e-06	1.9754e-06	288.75	82.528	64.472	18.96	1.9457e-06	26.73	145.444	159.455	5.010	-113.023	-6.270	67.438	-113.230	-106.309	-36.666	-2.653	-106.327	-100.398	-99.994	-92.326	-20.663	-93.307	-8191	255	
707.865	1	1	0	0	0.2567	0.1306	0.12697	0.40613	0.12427	0.16004	0.21483	0.24648	0.066771	0.12829	0.22667	0.11296	0.077562	0.021316	0.24498	0.043966	-3.5875	-4.6104	-4.2375	-4.4104	-4.5938	-4.1646	-4.5542	-4.4437	-4.2063	-4.625	-4.4042	-4.3521	-4.6604	-4.0208	-4.4583	-4.5729	48.030	124.303	169.696	178.658	86.230	145.716	164.341	87.271	77.184	0.384	23.193	-108.893	-118.456	117.717	122.933	191.481	0.00022826	0.00016275	6.9915e-05	1125.4	1.9156e-06	2.1676e-06	1183.1	233.13	4.5489e-06	2.171e-06	294.28	83.308	65.078	19.099	1.7865e-06	26.694	0.000186	0.00018008	5.0416e-05	1093.3	1.9818e-06	1.9463e-06	1155.8	229.04	1.9348e-06	1.8668e-06	287.43	82.783	64.626	18.974	1.8808e-06	26.72	168.949	-43.300	-22.600	-113.052	-45.762	10.588	-113.333	-106.103	-89.578	6.888	-106.127	-100.339	-99.815	-92.487	-6.029	-92.885	-8191	255	
707.961	1	1	0	0	0.092526	0.19091	0.16596	0.4282	0.19539	0.24266	0.25152	0.092243	0.23811	0.064035	0.029814	0.17316	0.14455	0.085047	0.11567	0.31065	-3.6437	-4.5354	-4.3313	-4.3646	-4.5958	-4.1875	-4.5375	-4.5958	-4.1146	-4.65	-4.4875	-4.1854	-4.7729	-4.1	-4.4313	-4.5687	7.416	158.908	-117.542	147.789	-96.483	196.071	198.392	149.619	231.129	-62.405	-42.678	220.878	-123.124	176.955	-111.535	100.841	0.00013224	0.00027085	6.4357e-05	1128.4	1.2367e-06	3.6637e-06	1183.8	233.28	3.0692e-06	8.7395e-07	295.28	83.182	65.187	19.115	3.2452e-06	26.922	0.00018192	0.0001758	4.839e-05	1093.3	1.9848e-06	1.9238e-06	1156.3	228.94	2.0085e-06	1.9294e-06	287.95	82.597	64.443	18.994	1.9724e-06	26.772	159.032	-32.220	-43.497	-112.869	-86.484	15.626	-113.161	-106.179	-25.202	26.774	-106.492	-100.258	-99.876	-92.684	-84.887	-93.225	-8191	255	
708.057	1	1	0	0	0.18257	0.14181	0.043616	0.21895	0.081003	0.19886	0.11264	0.052468	0.029955	0.1469	0.16552	0.11922	0.17217	0.12112	0.25662	0.088969	-3.575	-4.3354	-4.4042	-4.2125	-4.6188	-4.2354	-4.5604	-4.6042	-3.9104	-4.5896	-4.5083	-4.2625	-4.7438	-4.2167	-4.3396	-4.6667	101.458	146.641	-113.225	175.744	10.631	137.207	127.238	157.515	156.436	162.940	166.356	189.987	-115.567	222.427	-112.350	-26.398	0.00020411	0.00025262	3.9147e-05	1125.1	2.6548e-06	1.7955e-06	1182.6	233.72	1.7079e-06	1.893e-06	294.88	83.098	65.28	18.919	7.5854e-07	26.808	0.00018434	0.00017805	5.0475e-05	1092.5	1.9587e-06	1.9979e-06	1156.5	228.94	2.044e-06	1.9749e-06	287.55	82.597	64.602	18.966	1.9424e-06	26.725	170.123	-48.314	-93.062	-113.125	-28.815	47.903	-113.104	-106.093	-41.726	13.706	-106.529	-100.439	-99.945	-92.467	50.191	-92.989	-8191	255	
708.153	1	1	0	0	0.17534	0.030403	0.036218	0.091878	0.28973	0.076518	0.3182	0.26805	0.1739	0.15494	0.057374	0.018914	0.27753	0.21602	0.050724	0.16901	-3.8688	-4.5687	-4.5854	-4.2833	-4.7146	-4.2958	-4.4688	-4.7333	-4.1375	-4.5563	-4.725	-4.1375	-4.6771	-4.2729	-4.2188	-4.9729	114.566	59.978	159.284	179.609	0.001	-42.942	143.012	231.358	-100.500	175.931	154.296	223.103	226.729	65.823	65.125	179.182	0.00016607	0.00044281	0.00011241	1122.4	9.1548e-07	2.1404e-06	1183.1	232.66	1.7051e-06	3.9257e-06	292.52	82.942	64.825	19.001	3.8437e-06	26.799	0.00018375	0.00017445	4.85e-05	1091	1.9592e-06	1.9336e-06	1157.1	228.92	1.9891e-06	1.9848e-06	288.18	82.545	64.538	18.975	2.0135e-06	26.797	161.312	-22.791	-19.989	-113.177	213.098	-21.275	-113.351	-106.517	-29.043	5.360	-106.131	-100.219	-99.860	-92.473	-12.025	-92.854	-8191	255	
708.250	1	1	0	0	0.24061	0.10618	0.19194	0.07901	0.16216	0.045696	0.062059	0.1454	0.2149	0.14899	0.13464	0.38412	0.15119	0.23651	0.11405	0.089703	-3.7646	-4.3792	-4.5167	-4.0146	-4.5792	-4.2875	-4.3063	-4.7604	-4.1229	-4.4146	-4.8354	-4.175	-4.6562	-4.3792	-4.0625	-4.8	205.024	219.749	194.262	223.289	219.030	-13.794	47.902	180.183	-107.209	-84.717	183.811	119.768	216.668	194.939	53.357	-44.476	0.0001802	0.00042997	8.3121e-05	1125.1	2.4311e-06	2.4985e-06	1186	234.16	1.6229e-06	3.5459e-06	294.92	83.351	65.254	19.084	2.3787e-06	26.886	0.00018749	0.00017944	5.0954e-05	1092.3	1.9755e-06	1.9611e-06	1158.1	229.46	1.9665e-06	1.9438e-06	288.34	82.611	64.693	18.997	1.9417e-06	26.782	152.970	-42.844	-4.389	-112.953	-71.067	-19.100	-112.981	-106.291	0.443	40.587	-106.440	-100.388	-99.661	-92.359	30.823	-92.616	-8191	255	
708.370	1	1	0	0	0.16806	0.2015	0.22068	0.17361	0.23942	0.087775	0.22583	0.21541	0.2181	0.084965	0.13295	0.04087	0.1061	0.14164	0.18722	0.14961	-3.9146	-4.2479	-4.6354	-4.1792	-4.2625	-4.45	-4.0667	-4.5354	-4.275	-4.2167	-4.7521	-4.0333	-4.6146	-4.3708	-3.9333	-4.6229	-119.256	-0.145	59.258	223.606	33.170	54.697	195.060	207.639	17.298	27.131	-118.153	230.200	-62.018	177.585	208.370	132.744	0.00018704	0.00042808	3.7264e-05	1125.6	2.9124e-06	2.3974e-06	1179.2	234.36	3.7728e-06	1.2478e-06	292.5	83.59	65.1	19.114	7.0694e-06	26.767	0.00018283	0.00017938	4.9928e-05	1093.1	1.9822e-06	1.9582e-06	1155.7	229.13	1.993e-06	1.9534e-06	287.26	82.649	64.668	19	1.9376e-06	26.787	157.269	-7.428	-47.005	-113.042	-75.247	76.626	-113.200	-106.067	-46.573	24.728	-106.075	-100.430	-99.795	-92.217	32.096	-92.808	-8191	255	
708.466	1	1	0	0	0.11105	0.059181	0.22784	0.12153	0.13148	0.092566	0.23477	0.14702	0.1865	0.16198	0.19768	0.050231	0.3524	0.158	0.027654	0.081097	-3.9292	-4.1229	-4.5458	-4.2833	-4.4521	-4.6333	-4.0646	-4.6396	-4.3833	-4.2125	-4.8896	-4.2042	-4.3542	-4.6625	-3.9625	-4.6458	220.617	216.381	-84.645	152.117	154.920	102.429	172.852	184.047	-89.536	171.376	224.427	39.931	-111.381	-107.224	201.625	-88.852	0.00020826	0.00013596	8.7831e-05	1121.2	3.2388e-06	3.7132e-06	1183.9	233.84	2.4274e-06	3.2704e-06	294.72	83.123	65.12	18.994	1.1811e-06	26.887	0.00018591	0.00018099	5.0315e-05	1091.9	2.0226e-06	1.9592e-06	1157	229.57	2.0353e-06	1.9864e-06	288.46	82.702	64.581	18.969	1.9682e-06	26.759	171.726	-75.244	16.186	-113.216	-35.156	51.602	-112.972	-105.994	49.242	42.040	-106.057	-100.044	-99.593	-92.321	195.459	-93.006	-8191	255	
708.563	1	1	0	0	0.11781	0.018574	0.15015	0.26586	0.17639	0.3259	0.24812	0.075274	0.13393	0.15988	0.16984	0.15376	0.061113	0.098661	0.22523	0.27099	-3.9375	-4.1417	-4.5792	-4.2583	-4.2708	-4.5875	-4.2792	-4.8063	-4.6042	-4.075	-4.8458	-4.3375	-4.3938	-4.7312	-4.0146	-4.4604	143.287	-11.433	-21.107	121.296	114.075	173.318	147.459	-98.214	109.755	232.463	61.023	-108.782	-35.147	220.209	61.052	216.125	0.00015979	0.00023843	6.4691e-05	1121.6	2.8721e-06	1.8927e-06	1180.5	234.31	8.441e-07	1.5072e-06	293.11	83.644	65.153	19.022	2.1619e-06	26.733	0.00018406	0.00017778	4.9369e-05	1092.2	2.0304e-06	1.9616e-06	1157	229.15	1.9841e-06	1.965e-06	287.73	82.734	64.581	18.966	1.9732e-06	26.755	155.565	-14.378	-70.311	-112.902	-16.153	53.602	-113.029	-106.127	47.986	1.386	-106.570	-100.401	-99.715	-92.566	-18.501	-93.199	-8191	255	
708.659	1	1	0	0	0.16949	0.099406	0.13769	0.19995	0.028556	0.097444	0.067018	0.059289	0.033839	0.10297	0.1401	0.063579	0.11227	0.059703	0.2291	0.10812	-4.2708	-3.9125	-4.6396	-4.4125	-4.1229	-4.6396	-4.2063	-4.5979	-4.5104	-4.1479	-4.7646	-4.3063	-4.225	-4.6458	-4.0229	-4.4625	-87.187	103.197	55.613	130.720	10.390	148.241	179.817	-62.782	161.185	71.696	-100.267	134.520	26.463	-92.203	147.377	168.848	0.00018535	0.00022017	0.00014774	1119.5	2.4174e-06	6.2126e-07	1181.6	234.2	3.8361e-06	1.4676e-06	293.21	83.083	65.024	19.082	2.2446e-06	26.994	0.00018148	0.00018097	4.9525e-05	1090.7	1.9966e-06	1.9798e-06	1156.6	229.34	2.0468e-06	2.0113e-06	287.97	82.529	64.536	19.006	2.0165e-06	26.826	165.069	-24.959	-35.799	-113.290	-84.973	94.687	-113.404	-105.864	-19.469	-1.942	-106.401	-100.366	-99.813	-92.159	-7.936	-92.826	-8191	255	
#DATA ENDS
