BOXY.EXE: ISS Imagent and Oximeter Data Acquisition Program Version 0.80
Ascii Record File

#ACQ INFORMATION
2  Detector Channels 
16  External MUX Channels 
1  Auxiliary Channels 
5000  Waveform (CCF) Frequency (Hz)
1  Waveforms Skipped 
30  Waveforms Averaged 
1  Cycles Averaged 
16  Acquisitions per Waveform 
10.0806  Updata Rate (Hz) 

#FILE INFORMATION
TRUE -- External MUX Channel results are PARSED.
FALSE -- AC DC and Phase are NOT grouped.
TRUE -- Companion Program Settings File CREATED.
FALSE -- AC data not excluded
FALSE -- DC data not excluded
FALSE -- Phase data not excluded
FALSE -- Auxillary Chn. data not excluded
Tab delimiters

#CALIBRATION STATE
TRUE -- Waveform Calibration Values APPLIED.


#AUX CALIBRATION VALUES
Val Type	aux-1	

Term	1.0000e+00	
Factor	0.0000e+00	


#WF CALIBRATION VALUES
A = Detector Channel
Val Type	A-AC1	A-AC2	A-AC3	A-AC4	A-AC5	A-AC6	A-AC7	A-AC8	A-AC9	A-AC10	A-AC11	A-AC12	A-AC13	A-AC14	A-AC15	A-AC16	A-DC1	A-DC2	A-DC3	A-DC4	A-DC5	A-DC6	A-DC7	A-DC8	A-DC9	A-DC10	A-DC11	A-DC12	A-DC13	A-DC14	A-DC15	A-DC16	A-Ph1	A-Ph2	A-Ph3	A-Ph4	A-Ph5	A-Ph6	A-Ph7	A-Ph8	A-Ph9	A-Ph10	A-Ph11	A-Ph12	A-Ph13	A-Ph14	A-Ph15	A-Ph16	

Term	0.00000e+00	0.00000e+00	0.00000e+00	0.00000e+00	0.00000e+00	0.00000e+00	0.00000e+00	0.00000e+00	0.00000e+00	0.00000e+00	0.00000e+00	0.00000e+00	0.00000e+00	0.00000e+00	0.00000e+00	0.00000e+00	0.00000e+00	0.00000e+00	0.00000e+00	0.00000e+00	0.00000e+00	0.00000e+00	0.00000e+00	0.00000e+00	0.00000e+00	0.00000e+00	0.00000e+00	0.00000e+00	0.00000e+00	0.00000e+00	0.00000e+00	0.00000e+00	0.00000e+00	0.00000e+00	0.00000e+00	0.00000e+00	0.00000e+00	0.00000e+00	0.00000e+00	0.00000e+00	0.00000e+00	0.00000e+00	0.00000e+00	0.00000e+00	0.00000e+00	0.00000e+00	0.00000e+00	0.00000e+00	
Factor	1.00000e+00	1.00000e+00	1.00000e+00	1.00000e+00	1.00000e+00	1.00000e+00	1.00000e+00	1.00000e+00	1.00000e+00	1.00000e+00	1.00000e+00	1.00000e+00	1.00000e+00	1.00000e+00	1.00000e+00	1.00000e+00	1.00000e+00	1.00000e+00	1.00000e+00	1.00000e+00	1.00000e+00	1.00000e+00	1.00000e+00	1.00000e+00	1.00000e+00	1.00000e+00	1.00000e+00	1.00000e+00	1.00000e+00	1.00000e+00	1.00000e+00	1.00000e+00	X	X	X	X	X	X	X	X	X	X	X	X	X	X	X	X	

B = Detector Channel
Val Type	B-AC1	B-AC2	B-AC3	B-AC4	B-AC5	B-AC6	B-AC7	B-AC8	B-AC9	B-AC10	B-AC11	B-AC12	B-AC13	B-AC14	B-AC15	B-AC16	B-DC1	B-DC2	B-DC3	B-DC4	B-DC5	B-DC6	B-DC7	B-DC8	B-DC9	B-DC10	B-DC11	B-DC12	B-DC13	B-DC14	B-DC15	B-DC16	B-Ph1	B-Ph2	B-Ph3	B-Ph4	B-Ph5	B-Ph6	B-Ph7	B-Ph8	B-Ph9	B-Ph10	B-Ph11	B-Ph12	B-Ph13	B-Ph14	B-Ph15	B-Ph16	

Term	0.00000e+00	0.00000e+00	0.00000e+00	0.00000e+00	0.00000e+00	0.00000e+00	0.00000e+00	0.00000e+00	0.00000e+00	0.00000e+00	0.00000e+00	0.00000e+00	0.00000e+00	0.00000e+00	0.00000e+00	0.00000e+00	0.00000e+00	0.00000e+00	0.00000e+00	0.00000e+00	0.00000e+00	0.00000e+00	0.00000e+00	0.00000e+00	0.00000e+00	0.00000e+00	0.00000e+00	0.00000e+00	0.00000e+00	0.00000e+00	0.00000e+00	0.00000e+00	-1.67345e+02	-1.28466e+02	-1.19699e+02	-1.83576e+02	-8.87362e+01	-6.07667e+01	-1.57985e+02	-1.62015e+02	-8.48579e+01	-6.54837e+01	-1.71537e+02	-1.71730e+02	-1.83223e+02	-1.78246e+02	-8.14027e+01	-1.51785e+02	
Factor	2.20819e-05	1.22705e-04	3.64254e-05	1.57401e-01	1.20126e-06	1.19893e-06	1.60961e-01	4.98362e-02	1.05429e-06	1.31104e-06	7.43814e-02	2.51224e-02	2.19682e-02	8.10577e-03	1.31942e-06	1.15977e-02	1.88575e-06	2.02594e-06	5.64688e-07	7.93729e-02	2.20408e-08	2.22281e-08	7.67269e-02	2.52222e-02	2.19966e-08	2.21892e-08	3.64224e-02	1.23052e-02	1.11446e-02	4.10577e-03	2.20339e-08	5.68387e-03	X	X	X	X	X	X	X	X	X	X	X	X	X	X	X	X	



#DISTANCE SETTINGS
A = Detector Channel
A-1	A-2	A-3	A-4	A-5	A-6	A-7	A-8	A-9	A-10	A-11	A-12	A-13	A-14	A-15	A-16	

2.5000e+00	3.0000e+00	2.5000e+00	3.0000e+00	2.0000e+00	3.0000e+00	1.5000e+00	3.0000e+00	3.0000e+00	3.0000e+00	3.0000e+00	3.0000e+00	3.0000e+00	3.0000e+00	1.5000e+00	3.0000e+00	

B = Detector Channel
B-1	B-2	B-3	B-4	B-5	B-6	B-7	B-8	B-9	B-10	B-11	B-12	B-13	B-14	B-15	B-16	

1.0000e+01	1.0000e+01	1.0000e+01	1.4400e+00	1.0000e+01	1.0000e+01	1.5100e+00	1.9400e+00	1.0000e+01	1.0000e+01	1.9900e+00	2.4900e+00	2.4100e+00	2.9000e+00	1.0000e+01	2.9800e+00	




#DATA BEGINS
time	group	step	mark	flag	A-AC1	A-AC2	A-AC3	A-AC4	A-AC5	A-AC6	A-AC7	A-AC8	A-AC9	A-AC10	A-AC11	A-AC12	A-AC13	A-AC14	A-AC15	A-AC16	A-DC1	A-DC2	A-DC3	A-DC4	A-DC5	A-DC6	A-DC7	A-DC8	A-DC9	A-DC10	A-DC11	A-DC12	A-DC13	A-DC14	A-DC15	A-DC16	A-Ph1	A-Ph2	A-Ph3	A-Ph4	A-Ph5	A-Ph6	A-Ph7	A-Ph8	A-Ph9	A-Ph10	A-Ph11	A-Ph12	A-Ph13	A-Ph14	A-Ph15	A-Ph16	B-AC1	B-AC2	B-AC3	B-AC4	B-AC5	B-AC6	B-AC7	B-AC8	B-AC9	B-AC10	B-AC11	B-AC12	B-AC13	B-AC14	B-AC15	B-AC16	B-DC1	B-DC2	B-DC3	B-DC4	B-DC5	B-DC6	B-DC7	B-DC8	B-DC9	B-DC10	B-DC11	B-DC12	B-DC13	B-DC14	B-DC15	B-DC16	B-Ph1	B-Ph2	B-Ph3	B-Ph4	B-Ph5	B-Ph6	B-Ph7	B-Ph8	B-Ph9	B-Ph10	B-Ph11	B-Ph12	B-Ph13	B-Ph14	B-Ph15	B-Ph16	aux-1	digaux	

1527.485	1	1	0	512	0.22267	0.092967	0.11949	0.12141	0.13753	0.034101	0.16283	0.1121	0.088016	0.10639	0.20911	0.10613	0.30751	0.11689	0.07055	0.12225	-4.0458	-4.3729	-4.075	-4.5042	-4.0125	-4.2562	-4.4104	-3.9875	-4.4229	-4.3167	-3.9875	-4.4896	-4.1208	-4.4	-4.5625	-4.1438	207.149	109.646	373.848	237.602	92.912	271.895	418.781	375.496	174.874	147.505	276.774	440.133	401.002	419.387	183.364	95.273	0.00065378	7.3509e-05	7.8853e-05	256.35	2.7699e-06	1.5335e-06	328.21	108.01	3.1053e-06	2.0531e-06	151.58	71.638	49.125	26.008	6.1402e-06	43.372	0.0002904	0.00026799	7.597e-05	249.31	2.9203e-06	2.9623e-06	317.19	105.06	2.9119e-06	2.8041e-06	146.37	68.587	47.448	25.152	2.8349e-06	41.621	131.211	136.138	103.274	100.574	297.894	332.440	99.297	105.368	250.289	262.606	102.432	105.882	109.024	112.436	257.438	108.524	-8191	255	
1527.581	1	1	0	0	0.25506	0.092018	0.077908	0.095524	0.088359	0.17105	0.17523	0.18516	0.10707	0.096221	0.091544	0.15016	0.15887	0.11898	0.05669	0.11696	-4.0333	-4.3646	-3.9646	-4.5667	-4.2417	-4.2312	-4.6042	-4.0021	-4.3625	-4.3625	-4.0708	-4.5292	-4.2625	-4.1875	-4.5354	-4.1146	360.551	410.452	233.725	160.828	345.913	156.363	93.910	164.867	310.379	260.830	131.469	398.141	101.426	401.241	427.147	341.000	0.00055613	0.00037618	8.5955e-05	252.2	2.6059e-06	2.7017e-06	327.21	107.31	1.5627e-06	2.0672e-06	151.4	71.822	49.403	25.885	2.4396e-06	43.707	0.00028603	0.00025666	7.6772e-05	248.13	2.9363e-06	2.9994e-06	315.62	104.35	2.993e-06	2.8667e-06	145.64	68.443	47.564	25.128	2.8813e-06	41.702	131.000	120.108	210.794	100.936	164.139	245.497	99.007	105.797	184.529	267.873	102.142	105.549	108.864	112.284	349.887	108.754	-8191	255	
1527.677	1	1	0	0	0.16964	0.15321	0.054422	0.076617	0.26485	0.17923	0.14948	0.17126	0.021513	0.14044	0.15521	0.11901	0.074716	0.065864	0.078192	0.19625	-4.0312	-4.4208	-3.8854	-4.4167	-4.1813	-4.1125	-4.5542	-4.1438	-4.2604	-4.5813	-4.0521	-4.5208	-4.3042	-4.0833	-4.5854	-4.05	245.641	379.591	288.934	276.253	188.174	219.099	390.396	429.299	259.379	122.871	120.901	367.775	359.911	439.116	186.398	439.582	0.00057428	0.00049481	2.8954e-05	254.81	1.9103e-06	8.092e-07	331.62	108.41	5.2251e-06	2.4971e-06	150.03	72.058	49.278	26.104	1.6542e-06	43.757	0.00029567	0.00026468	7.6593e-05	248.99	2.9491e-06	2.9977e-06	317.45	104.66	3.0233e-06	2.8703e-06	146.04	68.926	47.397	25.249	2.93e-06	41.812	137.233	156.510	380.027	100.862	273.428	206.034	99.039	104.847	236.547	212.425	102.903	105.844	108.462	112.357	244.662	108.619	-8191	255	
1527.771	1	1	0	0	0.24377	0.052225	0.15518	0.14589	0.10453	0.11605	0.16636	0.092354	0.055571	0.10183	0.19457	0.13129	0.10628	0.263	0.039336	0.087363	-3.7125	-4.3667	-3.85	-4.4729	-4.2688	-4.0854	-4.5312	-4.0521	-4.125	-4.5354	-4.0146	-4.4792	-4.4167	-4.0125	-4.5917	-4.3146	141.939	257.502	197.224	411.127	342.406	155.700	357.444	89.700	198.304	327.864	170.716	226.824	180.491	367.196	345.827	446.668	0.0006024	0.00041156	8.2463e-05	256.12	6.0608e-06	2.3059e-06	330.15	108.48	5.1404e-06	1.5908e-06	150.98	72.186	49.317	26.128	4.0929e-06	43.992	0.00029065	0.00025992	7.6779e-05	249.13	2.8436e-06	3.0301e-06	319.1	104.9	3.0299e-06	2.8677e-06	146.39	69.404	47.819	25.292	2.9826e-06	42.048	130.503	167.455	305.645	100.745	167.994	226.792	99.297	105.510	235.460	286.533	101.875	106.066	108.737	112.657	175.002	108.558	-8191	255	
1527.867	1	1	0	0	0.15411	0.23165	0.16642	0.13561	0.26173	0.33542	0.11715	0.18513	0.057686	0.075063	0.048518	0.078005	0.046197	0.046027	0.22684	0.1819	-3.7167	-4.6333	-3.8333	-4.3479	-4.2646	-4.1354	-4.5896	-4.2292	-4.0625	-4.65	-4.1479	-4.3604	-4.4333	-3.9875	-4.3667	-4.3333	380.711	291.691	180.859	290.917	99.118	116.324	107.603	246.237	193.004	427.206	366.645	219.804	354.484	265.022	434.900	174.021	0.00067026	0.00039997	4.2695e-05	257.03	2.3402e-06	5.5928e-06	330.72	109.28	1.7889e-06	5.7211e-06	152.93	72.567	49.141	26.33	2.9579e-06	43.766	0.00029582	0.00026362	7.8232e-05	249.87	2.889e-06	3.0659e-06	320.6	105.74	2.9832e-06	2.8896e-06	147.37	69.649	47.745	25.445	2.9794e-06	42.006	132.724	180.471	118.356	100.975	312.312	209.865	99.553	105.702	186.860	272.756	102.260	105.674	108.487	112.525	225.954	108.644	-8191	255	
1527.964	1	1	0	0	0.25367	0.12523	0.14445	0.050428	0.19234	0.16875	0.1054	0.14038	0.091479	0.146	0.15712	0.16392	0.16114	0.16757	0.023429	0.17771	-3.7792	-4.5708	-4.0917	-4.3208	-4.4833	-4.0125	-4.4208	-4.375	-3.9979	-4.5854	-4.1667	-4.3438	-4.5708	-3.8667	-4.6021	-4.4271	217.356	318.666	112.190	303.125	296.159	324.411	441.393	111.172	319.555	174.664	364.576	94.812	390.349	124.898	187.951	385.255	0.00057398	0.0005437	4.1197e-05	257.58	3.3059e-06	3.2861e-06	333.05	108.27	5.5256e-06	3.3059e-06	151.67	72.283	49.524	26.037	7.4069e-06	43.605	0.00029935	0.00026788	7.8656e-05	250.28	2.8581e-06	3.0554e-06	318.83	104.97	3.0323e-06	2.9422e-06	146.37	69.081	47.572	25.227	2.9573e-06	41.641	135.834	126.734	109.376	100.465	176.242	204.701	98.968	105.157	192.794	239.635	102.029	106.366	108.987	112.368	191.111	108.593	-8191	255	
1528.084	1	1	0	0	0.23052	0.11815	0.21878	0.25881	0.1286	0.17832	0.1334	0.063703	0.12599	0.1991	0.28833	0.088821	0.045955	0.13322	0.081996	0.16221	-3.5354	-4.4437	-3.9938	-4.1875	-4.4896	-3.9313	-4.4187	-4.2979	-3.8625	-4.5146	-4.3125	-4.0479	-4.6333	-3.9646	-4.2812	-4.3292	379.172	252.236	401.334	379.413	434.101	179.809	137.611	272.470	333.780	438.312	442.480	348.444	414.350	181.838	302.845	373.481	0.00062367	0.00027193	0.0001176	255.93	1.9281e-06	2.834e-06	328.21	108.1	1.5604e-06	4.0134e-06	151.45	72.215	49.023	26.175	9.4156e-07	43.734	0.00030003	0.00026922	7.587e-05	249.49	2.8808e-06	3.0325e-06	317.52	104.73	3.0755e-06	2.8959e-06	146.05	68.942	47.487	25.281	2.9957e-06	41.773	120.480	141.475	186.526	101.093	220.358	270.731	98.962	105.470	268.367	197.563	102.575	105.768	108.744	112.447	151.944	108.449	-8191	255	
1528.180	1	1	0	0	0.34046	0.16985	0.11768	0.15252	0.15084	0.081852	0.13249	0.17129	0.11016	0.17494	0.18459	0.21866	0.054539	0.11275	0.13124	0.1876	-3.6312	-4.5188	-4.3063	-4.1625	-4.4958	-4.0396	-4.325	-4.4938	-3.9229	-4.3812	-4.2479	-4.0437	-4.525	-3.9646	-4.1896	-4.5062	233.618	347.165	326.125	425.209	206.963	390.873	230.996	367.027	247.238	161.888	333.143	146.514	159.374	108.104	173.179	90.746	0.00058534	0.00017366	0.00010698	256.41	4.492e-06	3.6823e-06	330.96	108.14	2.7694e-06	1.4108e-06	152.93	72.261	49.621	26.276	3.4518e-06	43.872	0.00029652	0.00026951	7.5767e-05	249.62	2.8602e-06	3.012e-06	318.42	104.66	3.0235e-06	2.9364e-06	145.99	69.26	47.837	25.391	3.0181e-06	42.054	126.527	446.921	143.534	100.961	187.178	329.022	99.515	105.242	245.012	425.766	102.333	105.902	108.692	112.628	217.174	108.554	-8191	255	
1528.277	1	1	0	0	0.054247	0.08665	0.11467	0.058282	0.13682	0.11334	0.19521	0.21285	0.18208	0.14977	0.13768	0.21288	0.18877	0.061972	0.1293	0.092087	-3.6375	-4.3479	-4.2562	-3.9958	-4.4313	-4.0729	-4.2542	-4.3833	-3.9875	-4.3896	-4.4333	-4.0563	-4.5437	-3.9875	-4.1188	-4.5104	222.005	191.031	121.843	182.342	136.271	158.857	311.632	133.391	365.942	338.220	408.248	361.135	372.382	91.345	181.667	407.597	0.00061407	0.00037121	9.056e-05	259	2.6235e-06	7.6093e-06	330.29	108.1	1.4546e-06	3.7634e-06	150.51	73.481	49.757	26.235	3.3383e-06	44.191	0.00029622	0.000268	7.2695e-05	250.8	2.8553e-06	2.9766e-06	319.97	104.69	3.011e-06	2.9307e-06	146.19	69.82	47.856	25.433	3.0364e-06	42.31	129.631	230.515	190.719	100.683	288.141	322.784	99.331	105.363	135.142	196.099	102.752	106.102	108.920	112.175	256.954	108.763	-8191	255	
1528.397	1	1	0	0	0.10638	0.16257	0.11623	0.39783	0.092255	0.18589	0.40486	0.24221	0.1877	0.10073	0.16139	0.33784	0.032332	0.18133	0.12779	0.23756	-3.7292	-4.2417	-4.3187	-3.85	-4.4333	-4.125	-4.1562	-4.4958	-4.1479	-4.3125	-4.4583	-3.9854	-4.4563	-4.2042	-3.9917	-4.6687	202.838	173.165	238.843	379.343	209.011	217.636	355.364	334.863	146.836	349.071	420.446	382.032	139.271	349.567	328.728	427.372	0.00060723	0.00040987	0.00010606	258.08	3.3764e-06	3.733e-06	331.72	109.34	3.5461e-06	4.9569e-06	152.89	72.634	49.55	26.199	3.3056e-06	43.99	0.00029677	0.0002679	7.1412e-05	251.44	2.955e-06	2.8888e-06	321.25	105.21	3.0206e-06	2.9502e-06	146.94	69.693	47.936	25.396	3.0302e-06	42.106	131.092	177.383	195.142	100.635	237.643	270.095	98.753	105.478	148.370	164.105	102.927	105.410	108.671	112.259	210.397	108.398	-8191	255	
1528.469	1	1	0	0	0.025073	0.061751	0.14068	0.073724	0.18134	0.046042	0.20067	0.029437	0.26559	0.13016	0.15149	0.20401	0.10303	0.21524	0.18244	0.2703	-3.7104	-4.1417	-4.2854	-4.15	-4.3229	-4.3	-4.1375	-4.4125	-4.0271	-4.3083	-4.4458	-4.0167	-4.5	-4.4563	-4	-4.5813	124.740	138.769	173.677	311.561	191.459	240.950	379.375	382.738	220.506	284.591	342.676	389.076	229.433	204.660	116.370	394.127	0.00057706	0.00015453	4.2082e-05	252.74	3.01e-06	1.9263e-06	329.85	108.89	5.3045e-06	4.3834e-06	151.35	71.779	49.564	25.823	3.3194e-06	43.738	0.00029022	0.00027312	7.2024e-05	249.16	2.8742e-06	2.8313e-06	319.15	104.93	2.969e-06	2.9769e-06	145.88	69.095	47.618	25.197	2.986e-06	41.86	128.392	375.936	147.486	100.856	222.162	401.215	99.065	105.265	214.135	279.261	102.606	105.882	108.451	112.450	204.088	108.453	-8191	255	
1528.565	1	1	0	0	0.064196	0.15509	0.093201	0.17331	0.24331	0.13775	0.18195	0.15432	0.19019	0.33582	0.21578	0.25665	0.13256	0.34701	0.1052	0.25667	-3.8104	-4.1583	-4.4792	-4.1021	-4.3104	-4.4125	-3.9479	-4.5125	-4.1813	-4.0667	-4.4563	-4.0417	-4.2521	-4.4833	-3.8979	-4.6854	240.992	99.847	160.501	393.892	244.501	205.083	378.836	312.708	133.639	190.133	133.101	420.686	321.118	408.633	325.661	364.619	0.00062342	0.00036845	7.2185e-05	254.9	6.8112e-07	2.191e-06	327.99	108.53	2.9683e-06	6.7389e-06	152.04	72.27	48.927	26.019	5.5888e-06	43.773	0.00028532	0.00027588	7.2042e-05	248.62	2.949e-06	2.8381e-06	318.1	104.68	2.871e-06	2.9322e-06	146.3	69.14	47.519	25.191	3.0594e-06	41.913	125.186	229.454	233.468	101.209	236.180	271.865	98.893	105.461	237.808	217.371	102.141	105.815	108.710	112.415	259.032	108.701	-8191	255	
1528.659	1	1	0	0	0.35125	0.0976	0.1271	0.20567	0.11286	0.052772	0.27839	0.31248	0.26534	0.094007	0.14609	0.088566	0.097727	0.079518	0.068347	0.11658	-3.7333	-3.9417	-4.4792	-3.9167	-4.4313	-4.5708	-3.9604	-4.4667	-4.2729	-4.0354	-4.5708	-4.1687	-4.1687	-4.5958	-3.8708	-4.3375	434.223	112.484	107.928	343.239	395.166	140.144	354.253	370.679	363.786	107.097	324.720	101.861	323.345	414.286	155.319	362.591	0.00050774	0.00015872	6.4764e-05	254.65	3.8808e-06	3.2885e-06	330.99	109.21	5.7007e-06	2.9755e-06	151.54	72.81	49.502	26.249	2.207e-06	43.992	0.00028412	0.00027246	7.228e-05	249.54	2.9663e-06	2.8587e-06	319.55	105.38	2.9316e-06	3.0281e-06	146.76	69.493	47.842	25.364	3.0824e-06	42.064	130.182	148.312	167.080	100.798	250.643	258.747	98.786	105.783	250.960	182.061	102.306	106.138	108.943	112.607	320.688	108.576	-8191	255	
1528.780	1	1	0	0	0.18992	0.13042	0.13748	0.21112	0.20099	0.16296	0.091085	0.2201	0.082595	0.28555	0.13802	0.17765	0.20896	0.16241	0.086025	0.13979	-4.0229	-3.9958	-4.4688	-4.1625	-4.2438	-4.4875	-4.0729	-4.35	-4.2958	-4.1021	-4.4646	-4.2042	-4.2729	-4.6417	-4.0125	-4.3708	330.673	107.573	414.295	190.713	178.794	335.758	412.494	377.865	89.020	147.107	102.836	177.216	237.855	126.761	252.534	299.780	0.00053547	0.0003519	8.5546e-05	255.13	2.4362e-06	3.2344e-06	329.05	109.22	2.7738e-06	1.5223e-06	153.96	72.958	50.333	26.419	5.9818e-06	44.412	0.00028424	0.00027762	7.4576e-05	249.52	3.0177e-06	2.8542e-06	320.29	105.6	2.858e-06	3.0541e-06	148.06	69.6	48.187	25.455	3.0096e-06	42.305	127.075	105.566	196.937	101.367	316.462	257.467	99.229	105.465	217.079	157.290	102.366	105.928	108.589	112.505	214.953	108.781	-8191	255	
1528.876	1	1	0	0	0.1802	0.15153	0.12818	0.085662	0.065051	0.088484	0.062521	0.12946	0.057227	0.1625	0.069457	0.19902	0.12217	0.10648	0.078036	0.11235	-4.05	-3.9542	-4.2688	-4.1188	-4.1562	-4.6604	-4.1042	-4.4125	-4.4833	-3.9062	-4.4812	-4.2208	-3.9917	-4.6062	-3.9792	-4.4333	341.527	174.766	99.679	363.562	384.318	307.630	406.081	422.272	434.622	129.329	363.083	387.942	445.335	128.254	253.342	371.993	0.00060468	0.00018196	9.541e-05	257.67	1.4908e-06	3.0614e-06	329.29	109.72	4.6667e-06	2.4323e-06	153.82	72.605	50.191	26.28	2.6042e-06	44.046	0.00028381	0.00028506	7.4935e-05	251.3	2.9465e-06	2.8877e-06	320.92	106.12	2.8645e-06	3.0549e-06	147.89	69.73	48.179	25.435	3.0088e-06	42.191	134.179	163.785	138.253	100.363	222.849	314.524	99.151	105.635	206.421	191.317	103.199	105.525	108.932	112.721	197.727	108.503	-8191	255	
1528.972	1	1	0	0	0.14436	0.2103	0.13593	0.035819	0.10082	0.27618	0.12077	0.20035	0.067008	0.085964	0.11166	0.058078	0.094712	0.040397	0.15871	0.045879	-4.275	-3.8625	-4.5625	-4.2688	-4.0125	-4.6729	-4.2146	-4.2167	-4.5958	-4.0333	-4.4917	-4.3979	-3.9646	-4.4854	-4.3458	-4.2896	352.523	427.743	403.568	405.774	299.212	425.630	147.519	310.097	265.424	154.063	309.774	353.723	418.633	357.039	293.950	172.710	0.00057419	0.00014244	2.7094e-05	257.76	3.5931e-06	2.8734e-06	332.17	109.12	1.7116e-06	4.5397e-06	151.44	72.618	49.626	26.017	5.7329e-06	43.559	0.00029046	0.00027893	7.5593e-05	251.04	3.056e-06	2.8915e-06	319.72	105.6	2.9231e-06	3.0583e-06	147.12	69.304	47.914	25.223	2.994e-06	41.884	126.957	150.673	113.664	100.998	187.443	179.405	99.308	105.441	217.732	247.830	102.200	105.986	108.272	112.281	216.086	108.450	-8191	255	
1529.044	1	1	0	0	0.15844	0.10009	0.11082	0.23042	0.23778	0.053272	0.020924	0.2094	0.10221	0.08554	0.20067	0.14815	0.039716	0.085265	0.20591	0.099743	-4.1833	-3.8479	-4.4042	-4.4125	-4.0729	-4.6062	-4.2271	-4.2583	-4.4333	-4.1146	-4.3792	-4.4792	-4.0917	-4.5958	-4.2729	-4.0042	396.254	203.518	418.807	102.358	233.660	244.278	356.155	396.767	257.913	433.616	356.620	115.279	382.344	261.965	363.635	222.504	0.00059656	0.00049359	0.00015874	257.75	2.5009e-06	2.0895e-06	331.47	108.76	1.9932e-06	2.6626e-06	154.21	72.275	49.817	25.94	3.1959e-06	43.755	0.00029025	0.00028272	7.6526e-05	250.78	3.1376e-06	2.951e-06	319.88	105.48	2.8798e-06	3.0583e-06	148.03	69.293	47.998	25.224	2.9926e-06	41.862	132.586	135.060	188.594	100.504	186.918	259.511	99.286	105.566	192.278	302.375	102.511	105.830	108.731	112.432	234.697	108.884	-8191	255	
1529.165	1	1	0	0	0.05536	0.18464	0.19966	0.14451	0.15098	0.13474	0.11865	0.017821	0.11634	0.20055	0.25279	0.13328	0.13933	0.10078	0.16623	0.14162	-4.2917	-4.1333	-4.3479	-4.4479	-4.0687	-4.6687	-4.3313	-4.1979	-4.4646	-4.0583	-4.3187	-4.525	-3.9396	-4.4583	-4.1771	-4.0417	326.876	102.489	182.048	194.108	209.226	368.627	381.805	201.835	402.531	281.823	105.473	427.248	254.533	348.205	427.964	438.358	0.00057601	0.00048818	9.0924e-05	255.42	5.1433e-07	2.551e-06	333.21	109.55	3.0761e-06	5.0194e-06	153.33	72.867	49.605	26.143	5.3047e-06	43.899	0.00028747	0.00028002	7.6782e-05	251.02	3.0711e-06	3.0436e-06	320.92	105.97	2.9338e-06	3.0281e-06	147.99	69.75	47.965	25.386	2.938e-06	42.022	137.231	408.250	303.524	101.056	164.624	275.111	99.199	104.969	218.657	246.072	103.068	105.853	108.903	112.368	254.655	108.509	-8191	255	
1529.261	1	1	0	0	0.22122	0.26046	0.053044	0.026564	0.23375	0.08525	0.17537	0.30126	0.14013	0.23965	0.18348	0.15737	0.15332	0.095944	0.29193	0.27345	-4.1646	-3.8833	-4.1875	-4.5312	-4.0312	-4.3604	-4.275	-3.8937	-4.45	-4.3208	-4.2333	-4.5333	-3.9437	-4.3396	-4.4417	-4.0833	260.931	121.914	362.005	357.817	91.081	217.235	375.626	145.740	176.209	127.382	429.370	165.879	441.598	392.308	214.634	443.408	0.00067623	0.00018986	0.00012895	257.57	3.0386e-06	4.0239e-06	334.5	109.25	4.1781e-06	6.0743e-06	154.9	73.868	50.009	26.282	2.8531e-06	44.212	0.00028975	0.00026963	7.8016e-05	251.09	3.0735e-06	2.9751e-06	321.97	106.29	2.8988e-06	2.9501e-06	148.79	70.029	48.32	25.54	2.9411e-06	42.294	129.174	151.333	195.885	100.915	254.512	228.605	98.968	104.791	198.601	201.930	102.800	105.957	108.500	112.257	182.885	108.465	-8191	255	
1529.357	1	1	0	0	0.069295	0.037457	0.097548	0.33416	0.15527	0.10782	0.11152	0.14583	0.19977	0.085425	0.25156	0.032066	0.057405	0.17691	0.323	0.11269	-4.1	-4.1042	-4.0062	-4.4167	-4.0479	-4.225	-4.3375	-3.8979	-4.3979	-4.2083	-3.9292	-4.5729	-3.9437	-4.2875	-4.5062	-3.8688	102.870	245.375	318.300	284.500	426.459	428.615	438.630	108.099	217.593	190.964	358.821	307.443	246.248	347.738	122.662	303.086	0.00059343	0.00017843	0.00010933	257.53	3.6529e-06	3.2495e-06	332.45	108.91	2.0536e-06	4.7101e-06	153.37	72.799	49.796	26.273	2.085e-06	44.146	0.00029279	0.00027165	7.8474e-05	251.79	3.1318e-06	2.9656e-06	320.33	106.27	2.9618e-06	2.9052e-06	148.22	69.486	48.047	25.332	2.9174e-06	42.042	130.569	174.245	123.812	101.101	396.616	222.594	99.112	105.357	272.951	247.400	102.352	105.595	108.310	112.202	437.327	108.561	-8191	255	
1529.478	1	1	0	0	0.23635	0.18921	0.081795	0.10658	0.16991	0.12258	0.16975	0.12293	0.11021	0.13833	0.20542	0.019935	0.1001	0.087889	0.17606	0.21452	-4.175	-4.3021	-4.0271	-4.5375	-4.0437	-4.0563	-4.4125	-3.925	-4.4375	-4.3458	-4.1125	-4.5271	-3.9688	-4.2021	-4.3812	-3.9979	188.648	416.492	127.052	311.801	105.294	441.586	357.026	266.930	362.025	390.993	445.555	299.760	189.115	251.606	362.769	369.367	0.00057395	0.00038275	0.00011907	255.14	6.1232e-07	4.2116e-06	333.43	108.87	2.1378e-06	4.239e-06	153.21	72.47	49.625	25.939	6.5617e-06	43.82	0.00028925	0.00026385	7.8254e-05	249.51	2.9915e-06	3.0545e-06	319.23	105.61	2.9461e-06	2.8812e-06	147.65	69.208	47.896	25.252	2.9175e-06	41.85	136.271	157.515	159.971	100.655	156.380	310.216	99.038	105.457	284.028	250.447	102.888	106.033	108.760	112.634	209.475	109.089	-8191	255	
1529.572	1	1	0	0	0.26005	0.032977	0.089115	0.041049	0.11208	0.041249	0.16469	0.10956	0.12707	0.084836	0.081852	0.046997	0.12497	0.1123	0.095962	0.25814	-4.025	-4.3542	-3.8396	-4.6417	-4.0437	-4.0333	-4.6062	-3.9792	-4.2646	-4.3521	-4.0312	-4.4958	-4.1729	-4.1083	-4.65	-3.9813	148.167	397.847	326.644	241.678	314.599	273.691	257.340	416.545	312.663	168.624	144.900	124.854	367.021	162.943	405.261	108.863	0.00060182	0.00077006	0.00020964	256.88	2.3002e-06	3.886e-06	328.74	108.91	4.0754e-06	2.1828e-06	153.74	72.645	49.966	26.193	5.7409e-06	44.035	0.00029068	0.00026158	7.8546e-05	250.81	2.9515e-06	3.0795e-06	318.21	105.86	2.8913e-06	2.913e-06	147.91	69.474	48.042	25.343	2.9028e-06	42.049	135.729	175.858	193.524	101.048	264.698	155.044	98.917	105.218	230.022	237.261	102.537	106.212	108.494	112.399	184.948	108.600	-8191	255	
1529.668	1	1	0	0	0.024969	0.18033	0.12418	0.037631	0.076739	0.05419	0.1318	0.090463	0.15389	0.13726	0.12402	0.074468	0.020747	0.086158	0.1225	0.093842	-3.9229	-4.5042	-3.8458	-4.5646	-4.3125	-4.0542	-4.4375	-4.0062	-4.3208	-4.4375	-4.0292	-4.3396	-4.2396	-4.2188	-4.4896	-4.2104	435.037	335.588	174.897	109.790	174.835	197.405	204.212	295.710	356.591	281.494	386.209	105.370	173.384	347.244	354.762	247.051	0.00054312	9.1562e-05	8.3858e-05	256.29	3.0704e-06	1.8249e-06	332.51	109	2.0041e-06	1.8071e-06	152.36	72.7	50.022	26.143	3.3687e-06	44.021	0.00029127	0.00026422	7.8329e-05	251.07	2.9308e-06	3.0122e-06	320.14	105.85	2.9179e-06	2.8229e-06	147.51	69.594	48.043	25.335	2.9222e-06	42.136	134.180	340.861	164.493	101.151	160.557	390.943	99.255	105.333	215.275	252.101	102.604	105.864	108.910	112.649	437.681	108.543	-8191	255	
1529.764	1	1	0	0	0.21691	0.43904	0.042973	0.06552	0.099576	0.17453	0.21698	0.34576	0.089265	0.16182	0.1362	0.06248	0.073681	0.091727	0.12549	0.29436	-3.8042	-4.5917	-3.95	-4.4208	-4.3021	-3.9125	-4.4604	-4.1208	-4.2312	-4.5167	-3.8688	-4.3729	-4.4458	-3.8833	-4.4667	-4.1708	294.977	251.341	142.917	346.473	222.685	166.507	365.916	350.079	209.484	162.181	386.021	323.325	106.398	303.900	251.021	397.189	0.00056695	0.00052216	0.0001725	257.71	3.079e-06	5.5882e-06	331.79	109.5	2.3642e-06	2.7641e-06	154.46	73.502	50.172	26.291	3.6415e-06	44.291	0.00028192	0.00025844	7.7326e-05	251.51	2.817e-06	3.0314e-06	321.51	106.2	2.9654e-06	2.8175e-06	148.58	70.102	48.179	25.499	2.8648e-06	42.412	131.676	117.337	306.305	101.086	126.237	271.538	99.108	105.419	194.764	238.226	102.974	105.820	108.978	112.633	227.666	108.522	-8191	255	
1529.860	1	1	0	0	0.042177	0.34179	0.080621	0.030803	0.16967	0.26756	0.048183	0.13667	0.12751	0.22935	0.13349	0.069936	0.056431	0.22844	0.11899	0.078324	-3.7792	-4.4042	-3.9917	-4.3688	-4.3396	-4.1	-4.5667	-4.2063	-4.0813	-4.6	-4.1104	-4.2396	-4.4604	-4.1562	-4.6438	-4.3229	147.264	100.458	359.891	202.896	164.086	364.807	338.988	404.258	354.790	249.427	440.220	407.847	233.246	330.587	362.295	127.042	0.0005797	0.00022144	6.8799e-05	256.1	5.1313e-06	5.6299e-06	330.22	108.99	4.4941e-06	4.1165e-06	153.42	72.629	49.704	26.102	3.7902e-06	44.149	0.00029434	0.00026554	7.4606e-05	250.67	2.8241e-06	3.0274e-06	320.65	105.6	2.9436e-06	2.8381e-06	147.79	69.608	47.892	25.343	2.8427e-06	42.055	133.428	177.310	267.388	100.763	202.393	189.977	99.760	105.263	189.723	252.950	102.734	105.875	108.678	112.713	155.702	108.690	-8191	255	
1529.957	1	1	0	0	0.10465	0.080837	0.13305	0.12354	0.12884	0.22748	0.19295	0.058877	0.096893	0.13351	0.096461	0.14476	0.1658	0.22001	0.1912	0.092542	-3.6729	-4.4333	-4.0958	-4.1979	-4.4104	-4.0646	-4.3875	-4.4313	-3.7438	-4.5375	-4.1125	-4.1875	-4.5375	-4.125	-4.175	-4.6146	199.750	233.745	221.426	155.924	89.827	129.313	141.834	225.803	95.102	269.381	135.010	368.925	424.857	129.564	314.234	315.941	0.00054806	5.0356e-05	0.00019728	255.04	3.3043e-06	6.3695e-07	329.37	108.62	2.9298e-06	1.9593e-06	152.53	72.277	49.33	25.987	4.958e-06	43.863	0.00029168	0.00026248	7.5548e-05	250.09	2.7441e-06	2.9876e-06	318.97	105.03	2.9701e-06	2.8411e-06	147	69.333	47.711	25.227	2.8898e-06	41.847	130.510	400.350	207.381	101.034	192.932	168.977	98.910	105.435	280.275	272.998	102.381	106.055	108.721	112.435	244.681	108.615	-8191	255	
1530.077	1	1	0	0	0.092	0.19234	0.10943	0.15271	0.15707	0.10204	0.29344	0.17288	0.20708	0.10295	0.20702	0.072962	0.2964	0.055661	0.063449	0.31636	-3.6021	-4.3917	-4.0854	-4.0771	-4.5292	-3.9583	-4.3729	-4.4042	-3.9708	-4.4083	-4.3313	-4.1667	-4.6396	-4.0333	-4.175	-4.5312	192.041	203.216	264.414	334.847	100.562	282.469	371.905	381.306	259.898	237.274	322.433	444.038	441.580	251.381	201.159	307.478	0.0006444	0.00010142	0.00024933	255.45	1.6664e-06	4.3366e-06	329.94	109.36	3.0109e-06	1.6978e-06	153.71	72.582	49.654	26.074	5.4969e-06	43.847	0.00029245	0.00026322	7.1992e-05	249.1	2.7828e-06	2.9146e-06	319.33	105.44	3.0053e-06	2.7859e-06	147.35	69.573	47.75	25.258	2.8677e-06	41.926	123.885	242.601	184.723	100.525	404.148	272.207	98.974	104.893	343.011	300.973	102.773	105.839	108.705	112.978	192.882	108.532	-8191	255	
1530.173	1	1	0	0	0.18963	0.10591	0.32323	0.16594	0.043919	0.3515	0.018704	0.073603	0.18939	0.15899	0.1622	0.070508	0.1673	0.26108	0.26191	0.19733	-3.5833	-4.4104	-4.225	-4.0354	-4.6125	-3.9917	-4.1937	-4.5979	-3.7958	-4.4333	-4.3521	-4.2396	-4.5542	-4.0729	-4.1625	-4.6604	142.139	92.353	224.316	159.114	247.923	163.610	166.580	281.303	441.671	272.084	177.388	438.636	443.470	401.416	310.138	403.619	0.00056225	0.00022399	0.00010903	255.34	4.9352e-06	3.9209e-06	333.19	108.39	3.1957e-06	4.0587e-06	152.81	72.577	49.692	26.336	3.4742e-06	44.428	0.00029462	0.00025768	7.1018e-05	249.61	2.7627e-06	2.8427e-06	320.35	105.38	2.9026e-06	2.769e-06	147.5	69.615	47.793	25.345	2.838e-06	42.342	132.837	96.650	179.605	100.946	201.628	152.544	99.528	105.145	251.540	245.331	102.918	105.639	108.771	112.453	227.532	108.377	-8191	255	
1530.269	1	1	0	0	0.23869	0.040007	0.24037	0.042456	0.089793	0.096451	0.27693	0.07435	0.10731	0.091092	0.31379	0.025558	0.017665	0.169	0.15565	0.10566	-3.5792	-4.3792	-4.2625	-4.0208	-4.4542	-4	-4.2396	-4.5729	-3.975	-4.4688	-4.3729	-3.9708	-4.4625	-4.175	-4.0208	-4.7021	145.547	183.469	156.325	419.164	369.042	429.012	173.563	125.454	439.954	234.962	154.838	337.734	413.818	343.519	389.537	92.403	0.00061849	0.00056569	6.8922e-05	258.41	2.4331e-06	1.7348e-06	333.69	110.07	5.6848e-06	3.019e-06	153.38	73.232	50.116	26.303	4.3573e-06	43.87	0.00028662	0.00026234	7.0002e-05	250.72	2.7976e-06	2.8118e-06	321.33	105.9	2.9276e-06	2.8046e-06	147.93	70.141	48.007	25.384	2.9273e-06	42.205	125.753	135.470	180.325	101.254	136.337	435.072	99.016	105.137	208.442	254.539	102.357	106.185	108.268	112.459	219.549	108.695	-8191	255	
1530.341	1	1	0	0	0.10705	0.24681	0.13	0.050085	0.088161	0.10459	0.068639	0.1597	0.10611	0.11086	0.038319	0.43774	0.32157	0.092862	0.19272	0.13038	-3.8021	-4.3729	-4.3521	-4.0229	-4.5625	-4.4271	-4.0771	-4.5521	-4.0104	-4.2875	-4.4271	-3.8812	-4.8042	-4.3125	-3.8417	-4.6083	232.270	379.889	444.906	277.717	332.488	424.456	224.589	321.500	170.516	307.155	326.246	233.002	385.432	157.718	161.068	389.504	0.00053159	0.00025884	9.8115e-05	257.01	2.8091e-06	3.9416e-06	329.32	108.56	5.6914e-06	3.8261e-06	152.38	72.802	49.496	25.97	8.1188e-06	43.857	0.00028416	0.00026037	7.0814e-05	250.23	2.8131e-06	2.7642e-06	319.26	105.27	2.8446e-06	2.9052e-06	147.04	69.494	47.709	25.239	2.9269e-06	41.905	122.114	192.356	150.762	101.003	261.117	213.219	98.898	105.718	171.707	253.493	102.567	105.677	108.862	112.416	239.262	108.734	-8191	255	
1530.437	1	1	0	0	0.14771	0.061578	0.069502	0.13492	0.050902	0.13077	0.19174	0.032498	0.16636	0.18729	0.29819	0.24164	0.37107	0.1796	0.1857	0.10002	-3.6229	-4.125	-4.5833	-3.9958	-4.375	-4.125	-3.9667	-4.6	-4.1271	-4.1062	-4.4417	-3.9604	-4.4313	-4.4354	-4.0062	-4.5979	313.436	166.272	305.362	213.332	145.166	265.708	314.619	162.226	88.632	311.450	444.579	394.021	436.727	342.662	217.505	381.282	0.00056636	0.00031814	0.00011558	254.59	1.7245e-06	2.2948e-06	329.14	108.36	5.4572e-06	1.3186e-06	152.05	72.321	49.261	26.154	4.3223e-06	43.96	0.00028343	0.00025999	7.0794e-05	249.33	2.8197e-06	2.7465e-06	317.85	104.95	2.8782e-06	2.8221e-06	146.9	69.303	47.638	25.207	2.9655e-06	41.996	133.008	170.727	141.818	100.653	392.564	346.710	98.717	105.373	237.048	120.016	102.819	105.875	108.808	112.445	291.526	108.612	-8191	255	
1530.556	1	1	0	0	0.17826	0.20351	0.12176	0.261	0.1471	0.13026	0.12516	0.04443	0.0551	0.22905	0.12551	0.13865	0.29379	0.152	0.10046	0.262	-3.7125	-4.0896	-4.5312	-4.0958	-4.3271	-4.5479	-4.0229	-4.45	-4.0646	-4.0771	-4.5938	-3.9562	-4.2958	-4.5271	-3.8625	-4.5062	138.076	330.976	307.637	326.140	168.953	386.105	329.376	189.424	295.431	228.946	225.651	117.138	361.546	295.709	300.611	430.334	0.00056508	0.00039777	7.7306e-05	256.3	1.7098e-06	5.2409e-06	329.07	109.45	1.3088e-06	2.7465e-06	153.54	72.846	49.693	26.009	2.6494e-06	43.821	0.00027739	0.00026482	7.0181e-05	248.86	2.8142e-06	2.7777e-06	319.11	105.03	2.7466e-06	2.9147e-06	147.13	69.577	47.881	25.209	2.9118e-06	41.996	134.126	147.868	305.686	100.605	297.790	246.908	99.206	104.979	295.470	311.240	102.338	106.085	108.828	112.118	229.411	108.771	-8191	255	
1530.652	1	1	0	0	0.077981	0.15902	0.0866	0.25187	0.034343	0.13636	0.15746	0.071447	0.20106	0.04142	0.20182	0.21619	0.21777	0.093746	0.26655	0.025132	-3.8354	-3.9021	-4.4417	-4.0458	-4.2729	-4.3521	-3.9458	-4.4	-4.3458	-4.0229	-4.5792	-3.9958	-4.3125	-4.5938	-3.9729	-4.4083	128.822	279.554	409.224	386.530	322.657	137.639	343.411	391.138	180.482	218.947	159.257	444.668	348.652	423.653	98.202	104.197	0.00057579	0.00021701	7.9756e-05	258.56	4.2272e-06	9.0796e-07	331.66	109.8	2.0626e-06	1.4272e-06	153.82	72.214	49.431	26.216	8.1515e-07	44.159	0.00027447	0.00026677	7.106e-05	250.59	2.8732e-06	2.7385e-06	319.95	105.41	2.7747e-06	2.9468e-06	147.76	69.457	47.927	25.272	2.9234e-06	42.183	129.878	219.398	171.326	101.273	222.742	289.226	99.018	105.191	240.004	308.034	102.889	105.846	108.647	112.346	217.215	108.487	-8191	255	
1530.748	1	1	0	0	0.12996	0.089193	0.31183	0.085998	0.10352	0.12731	0.15154	0.12366	0.033156	0.25099	0.21854	0.1865	0.14397	0.19137	0.23336	0.15065	-4.0146	-4.0667	-4.5354	-4.1771	-4.1062	-4.3896	-4.0896	-4.3792	-4.3063	-3.9938	-4.5896	-4.1	-4.1458	-4.5021	-3.8542	-4.5167	442.978	340.786	381.851	114.706	430.013	105.724	303.481	244.268	209.276	148.795	438.995	91.783	134.458	99.685	366.532	411.640	0.00056677	0.00015973	0.00023914	253.42	3.6552e-06	3.6232e-06	333.7	108.81	1.3387e-06	6.0586e-06	153.24	72.986	49.528	26.058	1.5547e-06	44.165	0.00027395	0.00026314	7.072e-05	248.98	2.8339e-06	2.7122e-06	321.84	105.51	2.7366e-06	2.9156e-06	147.67	69.675	47.79	25.179	2.8672e-06	42.019	132.607	178.808	194.645	101.073	235.218	252.172	99.546	105.064	136.588	238.137	102.657	106.127	108.724	112.337	215.500	108.910	-8191	255	
1530.869	1	1	0	0	0.039957	0.070364	0.11354	0.091211	0.096755	0.058218	0.29624	0.085817	0.19059	0.14349	0.077391	0.055275	0.19487	0.17432	0.064591	0.2261	-4.1458	-3.8646	-4.4146	-4.1979	-4.0125	-4.6667	-4.2063	-4.2771	-4.5437	-3.9292	-4.3812	-4.4333	-4.0125	-4.525	-4.2312	-4.3625	357.135	110.434	287.616	345.788	390.055	201.350	411.973	398.508	306.929	173.434	405.182	93.229	363.175	97.821	134.990	396.022	0.00051987	0.0004684	0.0001649	253.31	2.702e-06	3.7746e-06	329.34	107.95	6.1902e-06	7.7947e-06	151.17	72.673	49.262	25.965	4.6338e-06	44.101	0.00027111	0.00026999	7.2513e-05	248.34	2.8971e-06	2.7383e-06	317.4	104.97	2.7682e-06	2.9068e-06	146.26	69.252	47.488	25.087	2.8085e-06	41.859	130.813	161.068	213.038	101.033	204.179	277.410	98.922	105.312	197.459	295.837	102.195	106.083	109.214	112.807	262.088	108.543	-8191	255	
1530.941	1	1	0	0	0.056403	0.083342	0.1416	0.14591	0.16647	0.081439	0.092987	0.08218	0.11743	0.29651	0.21774	0.060167	0.07773	0.031358	0.17516	0.10804	-4.1875	-3.7604	-4.3292	-4.3938	-3.9875	-4.5354	-4.1687	-3.9604	-4.4396	-3.9375	-4.4375	-4.3562	-3.9021	-4.65	-4.1146	-4.1188	260.063	430.822	239.979	258.752	144.533	155.150	269.810	129.557	400.810	194.303	364.575	288.490	219.581	324.059	255.692	358.758	0.00059274	0.00036469	2.1716e-05	255.98	5.0745e-06	1.0092e-06	329.61	108.24	4.6067e-06	2.2387e-06	151.23	72.428	49.351	26.017	4.5278e-06	43.797	0.00027116	0.00026254	7.0485e-05	248.3	2.8899e-06	2.7691e-06	317.91	104.44	2.7358e-06	2.9002e-06	146.17	69.059	47.535	25.126	2.8014e-06	41.811	131.400	200.834	312.201	101.309	233.158	170.204	99.158	105.785	181.018	98.173	102.215	105.789	108.805	112.444	207.083	108.607	-8191	255	
1531.037	1	1	0	0	0.11371	0.051476	0.20074	0.28812	0.19227	0.16836	0.24723	0.23698	0.1886	0.1785	0.23546	0.16756	0.12896	0.042034	0.1361	0.25359	-4.2729	-4.0042	-4.3021	-4.475	-3.8458	-4.4854	-4.375	-4.2333	-4.5	-4.0979	-4.2458	-4.5083	-4.0333	-4.375	-4.1833	-4.0146	205.360	443.419	336.887	409.150	286.129	311.077	362.685	447.157	197.389	417.550	412.005	171.799	384.779	408.412	148.118	99.992	0.0005216	7.5576e-05	2.3881e-05	255.54	3.4376e-06	8.9498e-07	329.28	108.93	2.6415e-06	2.2242e-06	152.31	72.343	49.474	26.054	3.4102e-06	44.226	0.00026891	0.00026122	7.1633e-05	247.89	2.8715e-06	2.8373e-06	318.24	105.02	2.7417e-06	2.828e-06	146.64	69.251	47.822	25.141	2.7781e-06	42.113	136.246	232.339	164.175	101.057	205.242	254.093	99.419	105.753	226.320	223.064	102.481	105.778	108.665	112.520	247.460	108.477	-8191	255	
1531.158	1	1	0	0	0.18453	0.1255	0.052702	0.17495	0.40394	0.21991	0.19062	0.11194	0.22047	0.076491	0.34314	0.1665	0.212	0.11133	0.022267	0.3304	-4.1333	-3.975	-4.1271	-4.3729	-3.95	-4.2583	-4.3562	-3.9917	-4.3771	-4.0687	-4.2333	-4.5646	-3.8958	-4.4708	-4.4583	-4.1312	401.164	245.831	266.167	221.534	139.607	132.283	385.937	443.350	117.532	388.978	362.438	144.765	120.082	94.377	329.016	441.713	0.00063436	0.00046356	7.1338e-05	254.54	2.9048e-06	2.6474e-06	331.39	109.04	8.0098e-07	3.1841e-07	154.83	73.024	49.716	26.137	2.4553e-06	44.005	0.0002729	0.00026604	7.1057e-05	248.41	2.9116e-06	2.8252e-06	319.31	105.37	2.691e-06	2.8412e-06	147.78	69.674	47.787	25.301	2.6484e-06	42.308	131.243	204.885	138.850	100.786	180.361	276.947	99.132	105.656	224.047	415.078	102.449	105.566	108.605	111.833	275.362	108.412	-8191	255	
1531.254	1	1	0	0	0.14246	0.13213	0.19281	0.17396	0.16113	0.07152	0.26801	0.10724	0.10612	0.16108	0.14894	0.1293	0.16732	0.39207	0.11509	0.097246	-4.1583	-4.0771	-4.2812	-4.7125	-3.9292	-4.3833	-4.3875	-4.0333	-4.5083	-4.2417	-4.1229	-4.5437	-4.0062	-4.4187	-4.4979	-3.9667	98.289	194.937	131.138	433.772	319.573	198.445	428.635	191.105	436.606	245.459	349.133	101.627	201.720	368.252	287.060	290.301	0.00054329	0.00015926	0.00012801	257.2	2.4482e-06	3.4063e-06	332.15	108.48	4.1055e-06	1.4629e-06	154.88	73.613	49.383	26.101	4.3328e-06	44.265	0.00027134	0.00025295	7.1221e-05	249.67	2.8386e-06	2.7523e-06	321.28	105.45	2.7302e-06	2.7341e-06	148.08	69.895	47.943	25.301	2.7241e-06	42.289	129.953	206.487	222.922	101.226	219.803	301.594	99.399	105.407	214.453	315.395	102.745	105.800	108.689	112.322	225.409	108.549	-8191	255	
1531.350	1	1	0	0	0.30441	0.12869	0.2124	0.051725	0.14259	0.22546	0.1472	0.13501	0.09133	0.14866	0.19962	0.13705	0.19088	0.24893	0.10256	0.14322	-4.2083	-4.0979	-4.0104	-4.5167	-3.9708	-4.2292	-4.5354	-4.0604	-4.4542	-4.1937	-4.0625	-4.6188	-4.0958	-4.3313	-4.5771	-3.8396	326.253	359.467	282.784	322.106	242.814	361.793	432.013	193.316	269.799	129.035	395.399	106.461	94.374	230.554	127.623	236.976	0.00061346	0.00015275	1.5655e-05	253.92	5.3381e-06	2.585e-06	331.01	108.19	1.4432e-06	1.3497e-06	153.09	72.651	49.635	26.234	2.3831e-06	44.067	0.00026866	0.00025296	7.2707e-05	248.71	2.8274e-06	2.7904e-06	318.73	105.04	2.6963e-06	2.7271e-06	147.4	69.355	47.693	25.255	2.7188e-06	42.068	130.597	157.604	211.955	100.903	199.952	195.386	99.575	105.545	265.869	221.988	102.591	105.576	108.665	112.557	244.222	108.791	-8191	255	
1531.446	1	1	0	0	0.094235	0.11792	0.075969	0.29372	0.20372	0.089236	0.16588	0.20836	0.098391	0.26139	0.13549	0.10625	0.24518	0.16788	0.1783	0.18283	-4.0708	-4.1937	-4.0354	-4.4667	-4.2396	-4.1854	-4.4771	-3.9813	-4.3562	-4.3354	-3.9875	-4.4979	-4.1646	-4.1875	-4.6708	-3.9542	319.637	321.999	153.760	213.203	348.615	438.723	260.620	377.331	112.684	197.538	223.317	89.847	104.199	445.271	162.406	319.304	0.00061726	9.2084e-05	0.00013378	253.76	6.4411e-06	4.2556e-06	332.17	107.38	1.6415e-06	4.798e-07	151.59	72.657	49.495	25.955	3.5564e-06	44.168	0.00027614	0.00024652	7.2474e-05	247.15	2.7633e-06	2.89e-06	318.66	104.6	2.7834e-06	2.7641e-06	147.12	69.373	47.582	25.16	2.7171e-06	42.173	128.804	238.454	159.213	100.990	227.830	204.788	98.863	105.493	427.446	93.769	102.863	106.077	108.295	112.564	276.463	108.828	-8191	255	
1531.567	1	1	0	0	0.36168	0.27104	0.067859	0.086878	0.14119	0.16054	0.38217	0.17866	0.21924	0.084357	0.11545	0.37999	0.24308	0.083638	0.10435	0.11564	-4.1125	-4.4229	-4.0354	-4.5792	-4.2896	-4.1479	-4.6979	-4.1333	-4.2792	-4.5792	-3.9667	-4.5667	-4.4375	-4.1479	-4.7188	-4.2646	102.558	314.775	306.788	158.102	110.076	197.317	418.317	129.251	250.675	370.844	431.109	383.393	93.898	208.262	372.079	436.188	0.00054629	0.00024913	0.00017652	254.7	4.3949e-06	4.5194e-06	330.84	108.61	2.7701e-06	3.3203e-06	153.44	73.081	49.575	26.173	9.7821e-07	44.443	0.00027112	0.00025188	7.4803e-05	248.08	2.7674e-06	2.8855e-06	318.92	105.26	2.7438e-06	2.6756e-06	147.96	69.734	47.686	25.284	2.7724e-06	42.33	132.876	196.282	189.082	100.843	166.318	207.769	99.241	105.631	310.108	186.299	102.466	105.753	108.693	112.166	274.129	108.613	-8191	255	
1531.638	1	1	0	0	0.1304	0.24868	0.32279	0.19463	0.17735	0.22443	0.10832	0.19285	0.24982	0.13925	0.19441	0.22841	0.34462	0.00018113	0.27821	0.17075	-4.025	-4.3333	-3.8354	-4.6771	-4.2083	-4.0167	-4.625	-4.1021	-4.2562	-4.5375	-4.1146	-4.3604	-4.3708	-4.2042	-4.4458	-4.1562	240.488	342.416	425.360	105.954	412.910	195.760	359.086	105.920	122.774	151.238	103.459	372.346	442.343	180.000	366.907	440.399	0.00066158	0.00032053	5.3795e-05	255.86	3.1132e-06	2.9542e-06	332.58	108.43	4.5504e-06	1.9275e-06	153.89	73.406	49.741	26.066	1.8637e-06	44.337	0.00027879	0.00025469	7.1895e-05	249.12	2.7382e-06	2.8411e-06	320.4	105.1	2.7672e-06	2.668e-06	148.04	70.067	47.927	25.341	2.7487e-06	42.416	126.961	184.422	227.686	101.167	218.141	257.231	99.351	105.344	255.688	250.001	102.498	106.061	108.456	112.657	213.280	108.769	-8191	255	
1531.757	1	1	0	0	0.13921	0.1236	0.092593	0.20009	0.074709	0.09174	0.13966	0.13037	0.36876	0.043952	0.14836	0.054779	0.13188	0.027065	0.22305	0.016283	-3.8771	-4.5896	-3.925	-4.3792	-4.4083	-3.9146	-4.4708	-4.1625	-3.9896	-4.5979	-4.0875	-4.3104	-4.4021	-4.0896	-4.4042	-4.4187	346.036	120.897	267.000	420.698	139.839	259.394	113.346	368.711	447.256	168.223	172.200	409.506	158.095	374.996	162.968	143.552	0.00053058	0.00055404	0.00015007	256.61	1.3374e-06	1.6688e-06	333.04	110.02	1.9421e-06	5.6112e-06	153.86	73.645	49.324	25.967	4.8703e-06	44.376	0.00027812	0.00025405	7.4506e-05	250.01	2.736e-06	2.9052e-06	322.42	105.76	2.8127e-06	2.7383e-06	148.42	70.087	47.725	25.272	2.7418e-06	42.351	133.818	236.386	168.483	101.288	331.170	231.609	99.284	105.495	227.368	217.914	102.792	105.508	108.787	112.391	262.373	108.559	-8191	255	
1531.853	1	1	0	0	0.16126	0.17779	0.30044	0.14904	0.19455	0.0826	0.12254	0.16286	0.10392	0.074249	0.10306	0.12634	0.153	0.046698	0.086336	0.027759	-3.7938	-4.5813	-3.9604	-4.4583	-4.4458	-3.9646	-4.4833	-4.35	-4.1125	-4.6146	-4.2667	-4.3125	-4.4229	-4.0813	-4.4646	-4.3125	208.447	228.217	106.373	339.326	305.996	166.711	315.073	348.483	317.987	388.895	143.493	446.619	424.776	190.253	318.952	204.565	0.00058432	0.0007263	5.644e-05	254.5	2.14e-06	7.4658e-07	330.81	108	4.6198e-06	5.335e-06	153.32	72.749	49.171	26.026	3.1037e-06	43.837	0.00028219	0.00025092	7.2185e-05	248.87	2.7586e-06	2.8932e-06	319.75	104.7	2.932e-06	2.8074e-06	147.34	69.849	47.485	25.281	2.8079e-06	42.002	125.513	204.535	292.610	101.017	238.552	152.450	99.243	105.450	188.552	237.748	102.662	105.732	108.525	112.371	293.721	108.163	-8191	255	
1531.949	1	1	0	0	0.26662	0.12772	0.12832	0.016508	0.10733	0.12964	0.19997	0.077514	0.046563	0.047872	0.13907	0.18502	0.36492	0.11607	0.048234	0.22168	-3.6896	-4.3917	-3.9188	-4.1417	-4.4625	-3.9104	-4.3729	-4.3729	-3.9042	-4.6562	-3.9854	-4.1208	-4.5042	-3.9417	-4.3208	-4.4583	357.030	253.816	270.190	425.540	393.578	215.365	213.849	153.995	127.220	303.357	405.654	138.277	358.804	429.587	416.921	89.425	0.00057461	0.00051101	8.6559e-05	253.18	3.7809e-06	2.1606e-06	329.65	108.51	3.7498e-06	3.0091e-06	153.58	72.73	49.417	25.966	3.6049e-06	44.081	0.00028641	0.00024638	7.1187e-05	247.8	2.7309e-06	2.8566e-06	318.37	104.97	2.8944e-06	2.7324e-06	147.35	69.46	47.583	25.168	2.8054e-06	42.048	134.471	199.764	286.013	101.322	172.792	246.845	99.288	105.349	223.129	430.084	102.891	105.711	108.777	112.581	224.289	108.353	-8191	255	
1532.046	1	1	0	0	0.16022	0.15023	0.20923	0.43012	0.15894	0.046429	0.28785	0.21972	0.11937	0.11901	0.11264	0.11153	0.19615	0.092525	0.022987	0.048622	-3.5583	-4.4146	-4.0833	-4.1937	-4.3583	-4.0563	-4.3063	-4.3583	-3.9167	-4.5354	-4.2083	-4.1562	-4.5938	-3.9167	-4.1438	-4.4854	443.654	93.790	363.922	239.262	319.475	267.034	297.283	131.324	239.276	413.493	434.018	103.289	153.888	92.494	359.638	342.856	0.0005639	0.000159	3.1572e-05	256.89	2.9428e-06	8.9415e-07	332.51	109.04	5.4125e-06	4.1712e-06	153.97	72.917	49.57	25.992	3.0249e-06	44.137	0.00028636	0.00025093	7.1057e-05	249.78	2.7557e-06	2.8356e-06	319.5	105.19	2.8942e-06	2.7687e-06	147.67	69.842	47.673	25.128	2.8505e-06	42.088	130.339	169.730	171.487	100.982	143.162	195.860	99.224	105.350	178.937	216.848	102.811	106.282	108.901	112.565	241.189	108.654	-8191	255	
1532.166	1	1	0	0	0.071018	0.23776	0.10609	0.12657	0.30202	0.15462	0.19111	0.12303	0.10348	0.23947	0.033095	0.09178	0.19749	0.085203	0.12167	0.19336	-3.5062	-4.4479	-4.0938	-4.0042	-4.5208	-4.2188	-4.4583	-4.5625	-3.9729	-4.5229	-4.4083	-4.0437	-4.5354	-4.1917	-4.1375	-4.5396	418.858	175.038	255.557	397.551	345.631	283.792	331.244	356.291	129.915	387.863	155.866	367.188	117.240	375.643	157.440	113.929	0.00059309	0.00054646	0.0001152	258.21	1.1e-06	4.2095e-06	331.67	108.73	4.5617e-06	9.77e-07	154.11	73.194	49.485	26.133	3.6338e-06	44.538	0.00028438	0.00024871	6.934e-05	249.98	2.7727e-06	2.8286e-06	319.41	105.14	2.7919e-06	2.7669e-06	147.92	69.973	47.811	25.218	2.831e-06	42.334	131.163	178.117	279.245	101.249	120.774	203.010	99.224	105.542	193.791	188.427	102.473	105.878	109.172	112.334	202.070	108.805	-8191	255	
1532.238	1	1	0	0	0.062531	0.13001	0.031257	0.11711	0.11871	0.10989	0.17102	0.26091	0.088317	0.21965	0.18914	0.21414	0.13665	0.10467	0.14255	0.17437	-3.6583	-4.5042	-4.1083	-3.9479	-4.4667	-4.2438	-4.1146	-4.4625	-4.1042	-4.2812	-4.4062	-3.9958	-4.4938	-4.2417	-4.0667	-4.6167	405.063	157.479	372.339	280.201	340.098	270.519	400.257	441.103	164.702	237.016	164.843	123.227	187.955	405.199	297.968	193.790	0.00052321	0.00053051	7.0211e-05	257.69	2.8588e-06	3.3855e-06	335.73	108.09	4.6369e-06	2.2032e-06	153.28	73.08	49.378	25.98	4.0179e-06	44.016	0.00027622	0.00025207	6.708e-05	249.08	2.7007e-06	2.7286e-06	321.6	104.87	2.7973e-06	2.7486e-06	147.33	69.867	47.51	25.19	2.8168e-06	42.069	132.734	192.161	137.711	100.780	218.824	307.899	98.751	105.566	215.789	280.737	102.709	106.067	108.612	112.529	256.439	108.990	-8191	255	
1532.334	1	1	0	0	0.17811	0.24133	0.31644	0.012932	0.16993	0.13862	0.18948	0.23028	0.22743	0.2702	0.062154	0.085779	0.091818	0.258	0.14522	0.066677	-3.8479	-4.375	-4.4437	-4.0229	-4.4	-4.1979	-4.1583	-4.4521	-4.1104	-4.2229	-4.4563	-3.9813	-4.6333	-4.3938	-3.9542	-4.5604	329.910	221.491	405.407	393.216	93.567	412.817	216.879	313.647	407.469	420.428	278.788	235.921	323.374	437.638	300.636	375.048	0.00053327	0.00034121	0.00011295	256.3	1.8015e-06	3.9248e-06	328.98	108.32	3.419e-06	5.3154e-06	151.92	72.578	49.388	25.911	4.3745e-06	43.724	0.00027159	0.00025097	6.7988e-05	248.3	2.7354e-06	2.6916e-06	318.63	104.42	2.7728e-06	2.8148e-06	146.56	69.376	47.411	25.051	2.8407e-06	41.855	131.533	258.135	184.356	101.049	127.768	262.806	99.422	105.136	243.643	249.916	102.615	106.046	108.791	112.641	224.497	108.527	-8191	255	
1532.430	1	1	0	0	0.13203	0.21318	0.11968	0.15075	0.084886	0.13948	0.25793	0.13706	0.097727	0.21229	0.049968	0.21921	0.29048	0.022932	0.19831	0.064801	-3.7313	-4.0417	-4.5958	-3.7792	-4.3063	-4.3688	-3.9896	-4.5646	-4.1813	-4.1937	-4.3562	-3.9479	-4.2708	-4.4979	-3.9396	-4.5604	117.347	216.311	201.636	443.554	409.419	293.069	381.508	273.801	173.090	436.406	294.064	287.732	366.677	309.499	423.749	224.335	0.00055105	0.00038405	8.1715e-05	255.75	3.3042e-06	5.1591e-07	329.62	107.88	3.9397e-06	4.8556e-06	150.92	72.614	49.153	25.833	1.9551e-06	44.136	0.00027381	0.00025464	6.855e-05	247.89	2.7052e-06	2.7085e-06	317.99	104.29	2.6746e-06	2.7751e-06	145.47	69.199	47.401	25.078	2.7991e-06	41.926	126.067	138.881	218.454	101.430	268.667	317.313	99.553	105.627	232.349	249.115	102.147	105.837	108.917	112.486	224.819	108.446	-8191	255	
1532.526	1	1	0	0	0.045636	0.17625	0.070462	0.13801	0.091018	0.17489	0.17269	0.28821	0.44164	0.10873	0.41535	0.27644	0.31801	0.32526	0.081767	0.07543	-3.975	-4.0875	-4.5417	-4.1583	-4.4187	-4.4917	-4.0375	-4.5125	-4.2354	-4.075	-4.5437	-4.1083	-4.1667	-4.4313	-3.9792	-4.5104	272.935	317.961	439.243	110.226	270.924	343.830	324.798	364.978	435.461	330.066	428.119	444.598	157.059	422.717	233.255	241.267	0.00055615	0.00031671	7.1919e-05	253.74	3.4915e-06	2.4116e-06	329.18	108.13	3.2062e-06	3.9265e-06	152.86	72.956	49.444	26.097	4.5887e-06	44.095	0.0002649	0.00026125	6.7912e-05	247.32	2.6916e-06	2.7216e-06	318.46	104.62	2.7113e-06	2.7677e-06	146.91	69.527	47.555	25.206	2.8292e-06	42.208	125.204	139.618	180.524	100.910	209.556	336.259	99.152	106.019	230.321	179.870	102.624	105.990	108.771	112.486	190.702	108.793	-8191	255	
1532.645	1	1	0	0	0.055766	0.060301	0.19426	0.074429	0.11159	0.29049	0.11773	0.10712	0.13194	0.13411	0.046476	0.064612	0.32356	0.31901	0.16603	0.067002	-4.0375	-3.9896	-4.6417	-4.0583	-4.2521	-4.6104	-4.0792	-4.5354	-4.4	-3.9833	-4.6146	-4.1896	-4.1729	-4.4563	-4.0625	-4.4187	248.420	292.932	120.224	326.544	393.943	374.565	259.351	433.373	361.338	228.467	107.385	241.578	312.492	305.163	444.599	250.589	0.00056289	0.00030791	8.7571e-05	255.16	3.9069e-06	3.5274e-06	332.32	108.46	3.0786e-06	6.3487e-06	154.49	73.09	49.734	26.127	1.5025e-06	44.492	0.00026445	0.00026013	6.8801e-05	247.93	2.7651e-06	2.7301e-06	320.33	104.85	2.6383e-06	2.8048e-06	147.74	69.893	47.918	25.292	2.7978e-06	42.481	134.545	210.927	261.521	100.965	212.001	273.069	98.899	105.328	210.139	215.098	102.322	105.506	108.840	111.967	330.508	108.622	-8191	255	
1532.741	1	1	0	0	0.028926	0.13619	0.19996	0.17205	0.066375	0.067134	0.060106	0.031039	0.056806	0.15956	0.24099	0.17451	0.098	0.13266	0.34458	0.20825	-3.9	-3.8854	-4.5021	-4.1625	-4.0271	-4.6917	-4.1438	-4.2438	-4.2583	-3.9646	-4.5854	-4.2708	-4.0333	-4.65	-4.0771	-4.3292	283.843	404.811	229.493	340.093	355.931	285.048	357.374	131.934	280.438	224.791	206.004	307.845	431.531	91.474	117.756	281.228	0.0006178	0.00035938	0.00015295	254.84	2.6162e-06	2.8071e-06	331.58	108.83	2.3456e-06	1.3271e-06	152.38	73.551	49.568	26.12	3.7286e-06	44.171	0.0002706	0.00025805	6.8281e-05	248.55	2.7383e-06	2.6798e-06	320.28	105.06	2.7135e-06	2.8388e-06	146.91	70.044	47.73	25.271	2.7712e-06	42.24	129.225	205.299	133.194	100.831	261.884	273.040	99.454	105.260	188.971	228.636	102.274	105.986	108.717	112.315	184.687	108.512	-8191	255	
1532.838	1	1	0	0	0.11831	0.071141	0.062319	0.20271	0.15209	0.049215	0.17479	0.30017	0.12506	0.047867	0.15392	0.082079	0.16662	0.069257	0.066487	0.12976	-4.0208	-3.9542	-4.4833	-4.3042	-3.9875	-4.6083	-4.0979	-4.1896	-4.3667	-4.1438	-4.4271	-4.3958	-3.9292	-4.575	-3.9729	-4.1708	342.979	361.041	109.870	107.339	231.589	108.457	162.144	432.645	404.692	157.689	141.626	293.771	320.576	382.818	107.670	391.861	0.00050106	0.00033656	5.9236e-05	253.5	1.3293e-06	1.1279e-06	328.19	107.99	2.1481e-06	5.893e-07	152.17	72.689	49.353	25.929	5.8636e-06	43.868	0.00026083	0.0002535	6.9413e-05	247.4	2.8029e-06	2.6959e-06	317.48	104.64	2.6682e-06	2.7995e-06	146.31	69.426	47.42	25.088	2.7468e-06	41.923	134.659	208.931	184.437	100.943	253.501	224.630	99.139	105.204	311.178	440.271	102.276	105.584	108.982	112.465	259.940	108.960	-8191	255	
1532.934	1	1	0	0	0.083152	0.20461	0.18196	0.027907	0.10984	0.15362	0.33471	0.1704	0.17462	0.16495	0.11745	0.24458	0.1116	0.075594	0.096761	0.21042	-4.2292	-4.0479	-4.4458	-4.4313	-4.0667	-4.6125	-4.1583	-4.1604	-4.6417	-3.9146	-4.3104	-4.3646	-4.0667	-4.5083	-4.2521	-4.1896	313.842	219.480	445.324	274.911	334.556	115.604	415.922	397.384	188.743	395.150	239.643	423.253	299.120	415.023	201.744	417.852	0.00065228	0.00020379	8.0824e-05	254.43	4.0183e-06	3.7714e-06	330.47	107.28	6.2846e-06	2.2686e-06	151.12	72.568	49.085	25.868	7.0496e-06	44.039	0.0002643	0.00025131	7.0148e-05	247.09	2.8058e-06	2.644e-06	317.69	104.18	2.6477e-06	2.8064e-06	146.03	69.225	47.553	25.009	2.6912e-06	42.104	123.170	159.701	135.469	100.812	138.708	218.353	99.442	106.017	198.330	211.797	102.741	105.674	108.772	112.386	243.688	108.777	-8191	255	
1533.030	1	1	0	0	0.052123	0.13206	0.050037	0.12197	0.10768	0.09708	0.063792	0.12513	0.23719	0.070873	0.070324	0.072731	0.13883	0.17888	0.16398	0.21277	-4.1188	-3.8875	-4.1438	-4.425	-3.9333	-4.575	-4.3313	-4.0708	-4.3833	-3.9125	-4.3708	-4.5021	-3.8854	-4.4521	-4.2	-4.0167	252.586	436.601	237.300	388.988	271.450	215.783	181.719	117.360	177.628	114.102	321.877	380.329	352.325	103.796	383.343	305.535	0.00062496	0.00030826	0.00014338	252.58	1.499e-06	2.3269e-06	330.75	108.27	1.6762e-06	3.4852e-06	152.24	73.004	48.739	26.018	1.7036e-06	44.246	0.00026244	0.00025361	6.965e-05	246.28	2.7196e-06	2.6767e-06	318.67	104.52	2.6621e-06	2.7147e-06	146.7	69.596	47.347	25.119	2.6734e-06	42.278	132.575	227.156	168.754	100.989	446.790	177.747	99.331	105.042	249.621	242.427	102.384	105.901	108.645	112.471	270.781	108.718	-8191	255	
1533.126	1	1	0	0	0.13556	0.081671	0.14288	0.14033	0.25643	0.077395	0.020401	0.094927	0.1347	0.20359	0.12217	0.049366	0.20833	0.12406	0.17465	0.11313	-3.9562	-4.2604	-4.1208	-4.3958	-3.8229	-4.2833	-4.1479	-4.0104	-4.5146	-4.075	-4.2	-4.5896	-3.8896	-4.4062	-4.2688	-3.9	134.799	260.566	418.204	108.440	324.798	402.173	324.253	314.167	247.663	185.520	294.861	290.481	432.971	388.419	193.268	428.984	0.0006416	0.00036738	6.1681e-05	254.22	3.8905e-06	3.3704e-06	330.69	108.3	4.6377e-06	4.14e-06	152.6	72.903	49.426	25.896	2.6246e-06	44.322	0.00026802	0.00024594	6.9538e-05	247.26	2.738e-06	2.6468e-06	319.07	104.82	2.6157e-06	2.6241e-06	146.96	69.727	47.538	25.115	2.5927e-06	42.419	128.991	246.340	109.358	100.620	238.517	263.826	98.907	105.119	189.193	244.511	102.869	106.046	108.757	112.176	240.320	108.692	-8191	255	
1533.247	1	1	0	0	0.14561	0.32819	0.10329	0.23421	0.091704	0.29848	0.19168	0.13881	0.14132	0.075135	0.19548	0.1687	0.065063	0.13608	0.16021	0.26634	-4.1167	-3.9833	-4.0292	-4.5062	-3.8646	-4.2604	-4.2375	-4.0042	-4.4271	-4.1896	-4.1146	-4.7188	-3.9875	-4.3354	-4.3896	-4.1417	157.247	440.293	115.624	385.511	123.859	418.568	380.425	390.628	304.607	407.386	132.199	354.579	320.962	347.379	221.110	90.995	0.00061851	0.00022953	4.04e-05	256.16	4.9457e-06	2.6883e-06	333.49	107.47	1.8224e-06	1.2132e-06	153.36	73.321	48.913	25.937	4.7125e-06	43.92	0.00026107	0.00024408	7.0624e-05	248.75	2.6857e-06	2.6965e-06	319.93	104.5	2.6085e-06	2.6384e-06	147.1	69.847	47.422	25.086	2.6124e-06	42.061	125.462	330.569	346.998	100.676	193.643	244.959	98.883	105.446	189.607	441.279	102.811	105.756	109.213	112.507	247.414	108.651	-8191	255	
1533.343	1	1	0	0	0.13769	0.26881	0.17949	0.1618	0.057562	0.21741	0.1879	0.081772	0.15232	0.075822	0.27262	0.13454	0.10819	0.084717	0.10803	0.10722	-4.0458	-4.0896	-3.9667	-4.5188	-3.9542	-4.2479	-4.4583	-3.9792	-4.4417	-4.2354	-3.9375	-4.6188	-4.1667	-4.1292	-4.4167	-4.0312	427.252	181.116	191.720	439.155	131.834	127.570	116.449	389.051	218.500	280.040	341.348	446.119	103.375	302.170	271.393	374.789	0.00065887	0.00026595	7.2741e-05	249.86	5.1234e-06	4.5003e-06	329.66	107.74	3.6692e-06	3.6793e-06	151.4	72.602	49.051	25.804	2.5497e-06	43.957	0.00026192	0.00024232	7.1024e-05	245.04	2.6913e-06	2.6766e-06	317.2	104.37	2.6599e-06	2.6201e-06	146.08	69.38	47.213	25.018	2.6508e-06	41.919	130.645	154.133	208.042	101.206	220.703	288.751	99.081	105.447	258.895	298.309	102.460	105.649	108.753	112.624	287.551	108.618	-8191	255	
1533.439	1	1	0	0	0.20368	0.06468	0.16798	0.079871	0.19693	0.20376	0.13984	0.090315	0.21767	0.038301	0.15698	0.15325	0.094241	0.088371	0.13684	0.18183	-4.1333	-4.2937	-3.9146	-4.4396	-4.1	-4.0583	-4.6396	-3.8875	-4.5229	-4.3854	-4.0125	-4.5708	-4.2917	-4.0583	-4.575	-4.1687	367.719	262.162	364.685	101.745	438.578	150.027	219.054	232.676	301.852	158.734	412.640	90.349	195.598	335.066	301.845	425.687	0.00061868	0.00037387	0.00016926	254.76	2.3146e-06	3.0623e-06	330.45	107.38	1.148e-06	7.1772e-07	152.19	72.51	49.093	25.893	3.78e-06	43.757	0.0002648	0.00023908	7.1275e-05	246.52	2.6761e-06	2.7363e-06	317.32	103.96	2.6389e-06	2.6149e-06	146.4	69.292	47.219	25.013	2.6314e-06	41.881	130.674	184.641	214.348	101.296	246.365	225.838	99.199	105.338	227.895	363.600	102.873	105.613	108.846	112.373	214.459	108.435	-8191	255	
1533.535	1	1	0	0	0.27849	0.14224	0.10225	0.13105	0.079	0.1352	0.077178	0.080633	0.17171	0.11765	0.013869	0.029642	0.060102	0.12675	0.12609	0.24199	-4.0062	-4.3771	-3.9062	-4.6208	-4.2521	-4.0583	-4.4854	-4.1958	-4.3104	-4.6167	-4.0958	-4.5062	-4.1375	-4.0479	-4.6312	-4.325	234.189	163.826	288.267	353.952	184.520	416.344	158.620	174.818	296.387	263.655	293.470	156.963	176.393	92.926	205.182	387.202	0.00056214	0.00035417	0.00010774	253.11	4.2483e-06	2.84e-07	331.54	108.04	3.2108e-06	2.1295e-06	150.42	73.075	49.131	25.986	2.7537e-06	43.924	0.00026915	0.00024148	7.0122e-05	245.84	2.6426e-06	2.7674e-06	318.37	104.38	2.6512e-06	2.577e-06	146.17	69.51	47.32	25.079	2.6229e-06	42.077	130.107	203.956	215.680	101.022	133.946	246.022	98.839	105.599	225.246	185.687	102.485	105.748	109.209	112.531	161.435	108.490	-8191	255	
1533.629	1	1	0	0	0.05543	0.17345	0.2224	0.080869	0.14327	0.15957	0.1278	0.01933	0.25133	0.027607	0.13666	0.24206	0.069208	0.10384	0.038887	0.29134	-3.9417	-4.5875	-4.0083	-4.3646	-4.2354	-3.8875	-4.5396	-4.0979	-4.15	-4.5021	-4.1396	-4.2792	-4.35	-3.9542	-4.5646	-4.2229	176.424	210.666	214.248	379.654	345.106	177.774	298.234	346.964	127.788	390.362	374.043	120.743	320.774	340.914	258.152	389.877	0.00057779	0.00027099	0.00011783	254.27	3.469e-06	7.3999e-07	330.09	108.17	4.1648e-06	3.0899e-06	152.93	72.754	49.343	26.012	2.81e-06	44.198	0.00027207	0.00023968	6.9685e-05	246.77	2.6253e-06	2.7567e-06	318.33	104.26	2.7176e-06	2.5895e-06	146.87	69.723	47.427	25.116	2.6505e-06	42.2	135.643	109.494	165.796	100.968	212.793	441.006	99.452	105.042	168.677	159.878	103.007	105.684	108.706	112.352	196.270	108.560	-8191	255	
1533.726	1	1	0	0	0.027822	0.0042183	0.13575	0.067508	0.17992	0.096994	0.16064	0.27398	0.15107	0.11111	0.33254	0.18002	0.17184	0.11526	0.086505	0.11579	-3.7583	-4.4437	-3.9479	-4.2958	-4.3667	-4.0354	-4.4437	-4.1292	-3.9292	-4.5896	-4.0042	-4.2604	-4.2333	-3.8979	-4.4812	-4.3229	318.312	213.906	426.431	119.903	364.662	190.196	166.806	313.842	302.772	300.817	147.507	130.799	407.752	348.764	415.525	349.661	0.00060859	0.00017827	8.5513e-05	255.04	6.6108e-06	6.8509e-07	332.32	107.4	2.3073e-06	4.5527e-06	151.19	73.144	48.864	25.832	4.3205e-06	43.972	0.00027323	0.00023688	6.8705e-05	247.95	2.6223e-06	2.6719e-06	318.24	104	2.7499e-06	2.5853e-06	146.29	69.399	47.044	24.964	2.58e-06	41.858	132.357	341.790	116.782	101.088	253.215	156.331	99.112	105.207	195.747	211.143	102.916	105.901	108.524	112.406	175.757	108.665	-8191	255	
1533.822	1	1	0	0	0.096236	0.1192	0.18183	0.047972	0.097158	0.19709	0.24128	0.046661	0.18816	0.17257	0.017904	0.096861	0.044152	0.35904	0.16708	0.12214	-3.725	-4.6562	-3.9938	-4.3292	-4.5917	-3.9062	-4.4979	-4.3167	-3.9833	-4.6083	-4.1125	-4.2021	-4.55	-4.0437	-4.2375	-4.3917	263.955	218.553	89.338	374.377	93.904	367.872	377.869	301.071	160.472	177.841	142.841	299.227	391.425	436.618	433.191	386.005	0.00061352	0.00042211	0.00013166	253.24	2.4104e-06	1.6045e-06	329.4	107.35	2.425e-06	3.0348e-06	150.98	72.119	49.433	25.749	4.1865e-06	43.897	0.00026857	0.00023542	7.0192e-05	246.01	2.5549e-06	2.7514e-06	316.74	103.6	2.7648e-06	2.602e-06	145.05	69.006	47.18	24.903	2.6619e-06	41.756	129.134	214.021	195.993	101.585	282.019	171.309	99.332	105.749	252.688	246.875	102.474	105.729	108.378	112.452	231.843	108.722	-8191	255	
1533.942	1	1	0	0	0.11043	0.10551	0.26704	0.2448	0.20775	0.23859	0.155	0.15127	0.069872	0.22715	0.21043	0.19869	0.29043	0.26024	0.20881	0.15501	-3.4396	-4.4354	-4.0729	-4.3458	-4.5687	-3.9292	-4.2396	-4.4792	-4.0729	-4.5271	-4.1562	-4.1021	-4.4208	-4	-4.2229	-4.3812	284.530	197.436	421.181	376.715	314.540	162.440	169.836	398.391	106.833	277.695	428.283	381.354	435.070	168.472	395.934	156.928	0.00055773	0.00014996	0.00011311	253.68	2.9106e-06	1.2214e-06	332.03	107.85	3.2321e-06	5.925e-06	150.61	72.645	48.487	25.774	2.1852e-06	43.862	0.00027295	0.00023726	6.7326e-05	245.71	2.6157e-06	2.7276e-06	318.13	103.92	2.7153e-06	2.5831e-06	145.1	69.073	46.931	24.888	2.6359e-06	41.764	127.168	104.245	220.749	100.878	245.623	377.102	99.133	105.164	374.477	221.453	102.591	105.766	108.482	112.360	211.381	108.525	-8191	255	
1534.039	1	1	0	0	0.17575	0.22446	0.23523	0.14338	0.2422	0.16458	0.13949	0.12933	0.15249	0.13832	0.033501	0.063693	0.16071	0.2607	0.05951	0.088322	-3.4917	-4.4333	-4.2396	-4.0375	-4.5125	-4.1917	-4.1917	-4.5458	-3.9938	-4.4688	-4.2979	-4.0521	-4.5667	-4.225	-4.1979	-4.6292	216.694	328.869	147.529	139.824	106.476	191.072	138.741	122.217	94.092	148.576	297.915	380.105	413.732	113.461	447.495	344.552	0.0005393	0.00024718	4.7088e-05	254.33	4.0896e-06	4.4619e-06	327.25	107.27	2.1307e-06	3.2407e-06	152.54	72.352	49.501	25.704	4.1103e-06	44.061	0.00026888	0.00023644	6.5236e-05	246.9	2.5832e-06	2.6873e-06	317.22	103.74	2.6866e-06	2.55e-06	146.18	69.368	47.212	24.969	2.671e-06	41.957	133.554	218.639	146.740	100.859	188.665	237.824	99.068	105.799	234.214	247.807	102.542	105.723	108.602	112.510	231.574	108.466	-8191	255	
1534.110	1	1	0	0	0.11555	0.11493	0.12385	0.13153	0.26428	0.19597	0.11932	0.23915	0.14457	0.02536	0.12409	0.062695	0.13167	0.080807	0.17737	0.097968	-3.5396	-4.4812	-4.4125	-4.1396	-4.5458	-4.1042	-4.1167	-4.4313	-3.9562	-4.3542	-4.4271	-4.0979	-4.6229	-4.2875	-4.0437	-4.6167	98.962	260.586	152.746	390.921	346.301	299.596	235.022	363.673	109.478	422.450	383.600	300.065	148.587	327.955	309.032	399.666	0.00056895	0.0005916	0.00016624	252.94	5.27e-06	2.6112e-06	335.12	107.91	3.1477e-06	4.8855e-07	152.22	72.537	49.225	25.938	3.9402e-06	44.34	0.00026847	0.00024032	6.5207e-05	246.12	2.5266e-06	2.6437e-06	320.2	103.88	2.7054e-06	2.5656e-06	146.37	69.62	47.259	25.056	2.6726e-06	42.225	123.244	151.976	274.122	101.186	231.586	297.130	99.122	104.896	185.229	192.198	102.682	105.932	108.783	112.152	208.065	108.760	-8191	255	
1534.206	1	1	0	0	0.2291	0.069821	0.030981	0.073818	0.0049313	0.12681	0.2561	0.13043	0.1235	0.20041	0.11374	0.057972	0.062112	0.2463	0.13056	0.10866	-3.6083	-4.3187	-4.2083	-3.9458	-4.4167	-4.2729	-3.9896	-4.5708	-4.1104	-4.2792	-4.4167	-3.9562	-4.3417	-4.0792	-3.9292	-4.6667	152.124	189.004	137.744	333.607	409.772	369.635	309.820	337.229	190.318	158.025	440.013	440.664	156.172	388.738	321.491	394.108	0.00056651	0.00029971	0.00015282	252.95	5.053e-06	1.1764e-06	329.95	107.89	1.3266e-06	1.7437e-06	152.05	72.681	48.525	25.997	2.4673e-06	43.834	0.0002586	0.00023923	6.5027e-05	246.25	2.5853e-06	2.6001e-06	317.79	103.81	2.6843e-06	2.6843e-06	145.53	69.399	46.986	24.878	2.7226e-06	41.746	126.708	215.652	178.593	101.247	169.613	104.019	99.200	105.171	229.174	250.016	102.511	106.111	108.974	112.377	220.345	108.859	-8191	255	
1534.327	1	1	0	0	0.09529	0.10462	0.21475	0.11529	0.126	0.066133	0.21885	0.21755	0.30621	0.14773	0.21981	0.2312	0.23549	0.12004	0.24874	0.12138	-3.7083	-4.2875	-4.4479	-3.7896	-4.3479	-4.2271	-4.0833	-4.6	-4.1354	-4.1833	-4.5396	-4.1021	-4.3979	-4.3542	-3.9542	-4.6687	164.111	389.506	318.293	414.796	377.201	157.887	332.439	418.914	112.684	396.452	353.353	367.025	318.157	146.026	134.483	423.662	0.00060246	0.00021744	5.7651e-05	253.43	1.34e-06	4.5949e-06	327.81	107.06	2.5052e-06	4.6535e-06	150.14	71.911	49.109	25.632	2.6106e-06	43.751	0.00025836	0.00024349	6.5437e-05	245.71	2.5881e-06	2.5212e-06	315.64	103.26	2.5832e-06	2.6646e-06	144.99	68.848	46.978	24.808	2.6762e-06	41.701	133.694	236.345	183.309	101.253	270.679	214.131	98.760	105.369	276.943	232.101	102.656	105.913	108.404	112.707	212.875	108.405	-8191	255	
1534.423	1	1	0	0	0.073632	0.055633	0.01267	0.10881	0.17208	0.11405	0.23641	0.087995	0.081347	0.1172	0.12319	0.26509	0.097435	0.18796	0.078926	0.23886	-3.8646	-4.2104	-4.5521	-3.9375	-4.4521	-4.3042	-3.9146	-4.6292	-4.1562	-4.0771	-4.5854	-3.9188	-4.1562	-4.3792	-3.9958	-4.6042	387.034	321.310	335.337	359.369	397.450	401.408	125.277	370.357	384.798	361.035	396.267	345.786	413.248	337.297	301.862	398.395	0.00059515	0.00020009	9.9907e-05	250.43	1.7676e-06	5.4458e-06	329.28	107.59	2.8495e-06	1.958e-06	150.29	72.388	48.496	25.588	8.4924e-06	43.906	0.00025959	0.00023948	6.4745e-05	244.45	2.6057e-06	2.5311e-06	317.6	103.47	2.5612e-06	2.6356e-06	145.11	69.203	46.753	24.843	2.6537e-06	41.874	127.068	195.950	124.692	101.299	300.608	281.394	99.537	105.493	204.477	199.140	102.775	105.800	108.930	112.508	213.463	108.472	-8191	255	
1534.519	1	1	0	0	0.18707	0.092924	0.35062	0.093967	0.18347	0.15275	0.083639	0.076792	0.17317	0.25237	0.023704	0.23	0.12354	0.046702	0.21372	0.20335	-3.9771	-4.0938	-4.3667	-3.9104	-4.2188	-4.4896	-3.9333	-4.4563	-4.2125	-4.0417	-4.4812	-3.9479	-4.2979	-4.4104	-3.8854	-4.5333	368.034	318.792	340.042	370.425	267.381	281.099	138.203	306.286	222.401	199.887	314.441	339.712	127.806	91.108	365.668	104.380	0.00061138	0.00044604	9.1169e-05	252.25	4.0248e-06	4.9267e-06	332.21	107.12	1.41e-06	3.1789e-06	151	73.08	48.996	25.961	4.6646e-06	44.309	0.00025429	0.00024506	6.4326e-05	245.29	2.5721e-06	2.5299e-06	318.36	103.44	2.5713e-06	2.7116e-06	145.26	69.557	47.104	25.033	2.6716e-06	42.219	136.249	149.685	116.367	101.129	154.160	231.568	98.981	105.205	294.509	202.892	102.611	105.835	108.490	112.226	230.222	108.917	-8191	255	
1534.640	1	1	0	0	0.097142	0.16373	0.073662	0.12353	0.18848	0.13965	0.058976	0.19828	0.24321	0.0739	0.20889	0.25836	0.18958	0.15117	0.041429	0.044747	-3.9667	-4.0813	-4.2292	-4.0833	-4.2167	-4.6438	-4.1354	-4.3979	-4.3646	-3.975	-4.5292	-4.0792	-4.1229	-4.6167	-4.05	-4.3396	389.780	201.362	195.364	344.071	126.969	321.582	297.451	376.841	415.298	330.308	154.182	424.768	424.930	162.438	292.014	153.840	0.00061915	6.0045e-05	0.00020928	252.57	2.9471e-07	2.8034e-06	330.38	108.88	2.6654e-06	1.5392e-06	152.75	73.037	49.308	26.012	1.9157e-06	44.442	0.00025427	0.00024964	6.559e-05	246.36	2.6381e-06	2.5268e-06	319.15	104.6	2.5466e-06	2.727e-06	146.74	69.837	47.296	25.141	2.7016e-06	42.253	129.836	158.983	129.790	101.017	409.193	241.332	98.863	105.291	238.303	192.145	102.936	106.113	108.651	112.758	178.842	108.507	-8191	255	
1534.734	1	1	0	0	0.14672	0.14605	0.14318	0.11486	0.25238	0.0089718	0.1549	0.028902	0.19146	0.090745	0.077246	0.016456	0.19751	0.13042	0.17562	0.11261	-4.1979	-3.9729	-4.3438	-4.2333	-4.2104	-4.7021	-3.8917	-4.2958	-4.5771	-3.8604	-4.5062	-4.325	-3.9896	-4.5271	-4.0729	-4.3625	159.348	336.022	254.682	296.657	360.942	249.878	150.584	443.904	343.777	337.620	370.204	108.548	407.217	267.983	328.686	195.187	0.00058878	9.9009e-05	8.5617e-05	251.4	5.1124e-06	4.9188e-06	331.46	108.54	2.4948e-06	3.7668e-06	152.3	72.321	48.518	25.657	1.5236e-06	43.621	0.00025474	0.00024767	6.4797e-05	245.22	2.6709e-06	2.5751e-06	319.03	104	2.5792e-06	2.7116e-06	145.97	69.229	47.051	24.866	2.6389e-06	41.754	125.926	205.381	170.600	101.168	238.683	217.990	99.022	105.386	209.756	235.122	102.689	106.142	108.626	112.544	210.141	108.689	-8191	255	
1534.808	1	1	0	0	0.066222	0.038576	0.22467	0.17479	0.093268	0.20745	0.26865	0.24451	0.059192	0.19472	0.052228	0.073321	0.10439	0.046922	0.16359	0.072605	-4.2104	-4.0146	-4.6146	-4.3375	-3.9813	-4.5687	-4.2229	-4.2667	-4.5542	-3.8604	-4.4583	-4.3729	-3.9833	-4.5146	-3.975	-4.2521	433.970	277.953	320.248	394.505	397.959	202.217	435.917	373.547	272.986	311.768	290.546	195.114	263.991	105.683	177.540	406.901	0.00054948	0.00035651	0.00013537	251.39	2.8514e-06	4.7916e-07	325.47	106.62	3.8613e-06	2.529e-06	150.17	72.253	48.608	25.677	5.6829e-06	43.719	0.00025548	0.00025214	6.5979e-05	245.24	2.6269e-06	2.4964e-06	314.67	103.06	2.5042e-06	2.6172e-06	144.64	68.886	46.846	24.784	2.6208e-06	41.818	122.177	204.735	168.333	101.101	166.462	115.119	99.390	105.601	191.397	222.263	102.291	105.836	108.284	112.682	206.990	109.172	-8191	255	
1534.927	1	1	0	0	0.012396	0.19589	0.16282	0.15647	0.23795	0.083329	0.10821	0.052876	0.19561	0.15907	0.091672	0.14687	0.14226	0.20053	0.18647	0.115	-4.2083	-3.8688	-4.5708	-4.3646	-4.05	-4.4708	-4.3396	-4.1729	-4.6208	-4.0083	-4.3375	-4.3833	-3.8896	-4.4792	-4.1937	-4.1208	145.076	339.029	123.450	155.789	238.918	98.393	332.357	368.600	236.098	332.479	108.376	425.565	287.681	383.342	107.081	306.855	0.00061984	0.00027024	3.1598e-05	252.19	3.6999e-06	2.2906e-06	328.07	107.01	1.6194e-06	2.6572e-06	151.01	72.143	49.118	25.704	6.8203e-06	44.129	0.00025332	0.00024559	6.5386e-05	245.12	2.6655e-06	2.494e-06	315.92	103.33	2.4626e-06	2.6216e-06	145.1	68.927	47.063	24.91	2.5719e-06	41.883	134.857	246.099	380.230	101.126	219.907	368.493	98.782	105.666	228.632	246.387	103.006	106.114	108.546	112.172	197.394	108.577	-8191	255	
1535.023	1	1	0	0	0.093228	0.061995	0.12345	0.054251	0.17491	0.14188	0.044501	0.090344	0.16207	0.11445	0.22302	0.082225	0.18464	0.27489	0.10258	0.12612	-4.2229	-4.1562	-4.3458	-4.5563	-4.0021	-4.6583	-4.1083	-3.8083	-4.4771	-3.9354	-4.3083	-4.3771	-4.0083	-4.4896	-4.3625	-4.0146	206.944	191.500	101.216	216.479	399.718	206.082	204.019	149.853	163.994	249.346	279.407	364.636	93.664	366.372	102.435	406.028	0.00061084	0.00030411	7.8169e-05	250.4	4.5132e-07	1.6649e-06	331.82	108.17	1.9256e-06	1.4989e-06	152.52	72.955	49.185	25.85	6.2393e-06	43.951	0.00025361	0.00024194	6.7454e-05	244.54	2.6672e-06	2.5118e-06	317.82	103.99	2.5106e-06	2.6381e-06	146.52	69.404	47.406	25.013	2.6084e-06	42.118	128.943	142.815	214.694	100.849	426.584	283.654	98.963	105.380	241.991	183.608	102.822	105.590	109.154	112.378	302.495	108.691	-8191	255	
1535.119	1	1	0	0	0.32999	0.25793	0.20533	0.073339	0.16338	0.053676	0.33004	0.17064	0.09188	0.22789	0.026455	0.11659	0.23511	0.11916	0.15224	0.19832	-4.2604	-3.9417	-4.0917	-4.5896	-3.9208	-4.575	-4.4479	-4.0396	-4.4771	-4.1708	-4.2417	-4.4875	-3.9375	-4.4396	-4.3812	-3.7938	96.075	285.320	282.357	97.822	150.968	265.440	387.536	236.664	289.929	316.067	407.507	120.138	365.035	206.385	119.004	329.871	0.0005695	0.00038385	6.259e-05	252.46	2.8541e-06	1.2668e-06	331.6	107.99	1.5518e-06	1.0361e-06	153.24	72.822	48.825	25.908	4.2185e-06	44.256	0.00025825	0.00024324	6.8888e-05	246.25	2.6349e-06	2.5739e-06	318.56	104.3	2.5326e-06	2.6015e-06	147.29	69.68	47.254	25.063	2.5698e-06	42.186	126.408	162.861	415.345	100.851	249.104	367.454	98.854	105.230	224.091	237.907	102.499	105.654	108.595	112.327	253.763	108.843	-8191	255	
1535.240	1	1	0	0	0.16805	0.12216	0.081652	0.084555	0.24077	0.064049	0.10687	0.15399	0.033754	0.16015	0.18106	0.10751	0.16668	0.15606	0.059434	0.12759	-4.1625	-4.1854	-4.0667	-4.55	-3.8042	-4.2604	-4.5583	-3.8375	-4.4417	-4.2104	-4.1562	-4.6042	-4.0979	-4.4021	-4.5146	-4.05	120.867	384.877	111.376	216.647	369.986	430.108	243.760	304.082	276.397	168.993	364.676	391.584	363.263	353.667	117.679	138.848	0.0005624	0.0004374	0.00011453	253.39	3.9035e-06	4.8743e-06	329.02	107.37	3.2299e-06	2.2999e-06	151.99	72.316	49.143	25.707	2.7233e-06	43.889	0.00025913	0.00023673	6.8152e-05	246.17	2.6594e-06	2.6351e-06	316.78	104.02	2.5957e-06	2.5922e-06	145.98	69.225	47.163	24.891	2.6231e-06	41.836	131.945	184.468	191.490	100.882	225.684	218.682	99.494	105.258	217.943	153.071	102.554	106.092	108.475	112.501	236.361	108.541	-8191	255	
1535.336	1	1	0	0	0.090178	0.22626	0.031292	0.047489	0.17219	0.20464	0.1137	0.082157	0.05574	0.14024	0.096866	0.18138	0.17963	0.13058	0.017991	0.0068597	-4.1229	-4.2479	-3.8979	-4.5563	-4.0542	-4.2771	-4.7104	-4.1604	-4.3417	-4.3104	-3.9375	-4.5271	-4.1188	-4.1312	-4.5708	-3.9229	103.264	200.853	279.059	167.570	327.888	152.752	427.338	338.248	314.342	281.572	438.081	361.334	362.421	358.096	264.054	286.392	0.00060083	0.0004075	7.4336e-05	254.05	2.0769e-06	2.2963e-06	328.51	107.82	3.9846e-07	2.3684e-06	152.14	72.329	49.407	25.815	4.4975e-06	43.816	0.00026217	0.00023997	7.0549e-05	246.09	2.699e-06	2.664e-06	316.65	103.97	2.6247e-06	2.6047e-06	146.03	69.113	47.17	24.92	2.5833e-06	41.862	129.121	143.833	243.103	101.626	181.771	213.375	99.262	105.043	306.143	369.618	102.671	106.027	108.572	112.403	188.892	108.810	-8191	255	
1535.407	1	1	0	0	0.12041	0.074752	0.13071	0.094399	0.10639	0.22597	0.25222	0.044471	0.11321	0.11978	0.21035	0.20552	0.047477	0.26236	0.21798	0.063819	-3.9833	-4.25	-3.9708	-4.2979	-4.1208	-4.1937	-4.5125	-4.0708	-4.3167	-4.3812	-4.0646	-4.5229	-4.3146	-4.1813	-4.6021	-4.0437	291.271	421.525	356.520	363.924	191.670	262.737	312.315	99.219	258.239	133.379	256.252	211.067	247.218	148.924	193.748	179.895	0.0005631	0.00050379	2.7351e-05	250.03	4.964e-06	4.6172e-06	327.45	107.61	3.1461e-06	6.514e-06	150.08	72.329	49.389	25.968	3.9336e-06	44.039	0.00026495	0.00023275	6.9285e-05	244.63	2.6125e-06	2.695e-06	315.95	103.74	2.5799e-06	2.5757e-06	145.07	69.154	47.073	25.017	2.56e-06	42.005	131.173	168.272	407.818	101.470	180.816	188.197	99.104	105.125	199.774	231.529	102.743	105.962	108.434	112.164	291.952	108.737	-8191	255	
1535.504	1	1	0	0	0.16999	0.13368	0.11193	0.027892	0.14216	0.17862	0.14608	0.18939	0.11901	0.063118	0.041448	0.064289	0.21862	0.13909	0.06774	0.11818	-4.0958	-4.4479	-3.7938	-4.5667	-4.275	-4.1271	-4.5625	-4.2021	-4.3604	-4.5333	-4.0125	-4.5167	-4.4229	-4.0146	-4.5396	-4.0979	223.887	112.719	169.684	423.328	115.390	333.786	304.724	412.496	344.801	319.690	122.202	226.323	446.662	309.548	367.703	324.640	0.00057456	0.00041256	3.7335e-05	251.08	2.0692e-06	4.2495e-06	329.54	107.4	3.1269e-06	3.2646e-06	152.46	72.773	48.978	25.841	8.0667e-07	44.007	0.00026228	0.00023162	6.9342e-05	246.02	2.6093e-06	2.718e-06	317.78	104.28	2.6555e-06	2.5271e-06	146.1	69.471	47.179	25.052	2.5346e-06	42.098	134.095	124.368	207.984	101.455	256.827	187.612	99.011	104.809	241.092	194.997	102.406	105.987	108.720	112.439	427.886	108.628	-8191	255	
1535.622	1	1	0	0	0.13762	0.057116	0.083399	0.07126	0.21569	0.17067	0.12028	0.25046	0.15234	0.10022	0.17711	0.1713	0.24756	0.28483	0.11412	0.20592	-3.8063	-4.6271	-3.8917	-4.4563	-4.2854	-3.9604	-4.3875	-4.0938	-4.1479	-4.4167	-4.0208	-4.3542	-4.4271	-4.0146	-4.4688	-4.3229	391.917	192.220	244.814	361.498	271.212	377.237	102.889	384.363	399.947	149.015	89.372	120.813	197.993	369.311	203.471	400.515	0.00058732	0.00040208	0.00014114	253.02	3.1494e-06	8.1045e-07	332.02	108.3	2.2939e-06	2.0082e-06	152.13	72.92	49.631	26.001	4.6628e-06	44.08	0.00026511	0.00022664	6.786e-05	245.58	2.481e-06	2.7475e-06	319.23	104.47	2.6417e-06	2.5197e-06	146.27	69.77	47.371	25.065	2.5865e-06	42.048	124.845	188.802	131.665	101.334	276.912	208.150	99.455	105.033	177.737	184.983	102.486	105.761	108.816	112.747	224.232	108.945	-8191	255	
1535.719	1	1	0	0	0.1373	0.13079	0.12093	0.19075	0.15229	0.14833	0.1255	0.28722	0.16626	0.27976	0.11194	0.14142	0.1596	0.2521	0.066363	0.20403	-3.6729	-4.6125	-4.0958	-4.2792	-4.4083	-3.9229	-4.4688	-4.1438	-3.9562	-4.5771	-4.0083	-4.3187	-4.4938	-3.6042	-4.3667	-4.3333	204.242	173.917	418.830	360.493	163.189	432.603	305.403	421.551	148.017	329.181	199.443	406.886	191.468	408.374	341.273	363.331	0.00060668	0.00027965	0.00010097	251.77	3.5692e-06	8.9397e-07	332.17	107.28	7.3071e-06	2.4998e-06	150.32	72.911	48.697	25.719	2.8447e-06	43.809	0.00026596	0.00022978	6.7063e-05	244.5	2.4988e-06	2.6202e-06	316.37	103.46	2.6385e-06	2.5314e-06	144.79	69.123	46.931	24.896	2.5686e-06	41.694	130.190	210.199	174.066	100.976	211.351	371.341	99.019	104.938	215.782	403.600	102.339	105.808	108.603	112.620	260.481	108.617	-8191	255	
1535.815	1	1	0	0	0.14403	0.072426	0.04237	0.22918	0.18736	0.10519	0.069318	0.18006	0.27026	0.032492	0.061635	0.17213	0.1034	0.1422	0.17836	0.10994	-3.7188	-4.6271	-4.1188	-4.15	-4.4708	-3.9333	-4.4625	-4.1854	-3.8896	-4.5813	-3.9771	-4.2458	-4.5167	-4.1396	-4.4313	-4.3229	152.825	420.519	296.024	311.934	103.457	102.190	177.359	228.314	295.386	192.452	353.635	241.680	379.498	429.281	412.939	154.376	0.00058377	0.0004376	5.3605e-05	250.81	2.7334e-06	3.5672e-06	327.39	107.55	4.9765e-06	2.705e-06	151.43	72.378	49.187	25.925	2.9384e-06	44.029	0.00026628	0.00022376	6.722e-05	244.46	2.5563e-06	2.6878e-06	315.84	103.45	2.6746e-06	2.5497e-06	144.94	69.145	46.967	25.027	2.5864e-06	41.822	132.801	208.676	129.068	101.126	198.022	298.375	99.088	105.175	224.353	178.189	102.096	105.942	108.842	112.451	146.314	108.479	-8191	255	
1535.911	1	1	0	0	0.33933	0.044942	0.10806	0.15934	0.1428	0.069311	0.13556	0.048099	0.047675	0.082783	0.057241	0.17	0.11503	0.31123	0.15943	0.1177	-3.6667	-4.5188	-4.2083	-4.0938	-4.4667	-4.0625	-4.4167	-4.3042	-3.7083	-4.4521	-4.15	-4.1625	-4.5958	-4.0583	-4.3771	-4.6417	90.194	190.153	350.231	197.090	102.793	324.961	271.688	437.379	311.533	220.420	123.318	394.247	382.729	411.676	310.323	327.306	0.00059996	0.00030304	3.0704e-05	248.96	4.3272e-06	1.3692e-06	329.73	106.56	3.7261e-06	1.1261e-06	150.62	72.83	48.947	26.059	4.7059e-06	44.134	0.00026556	0.00023766	6.6238e-05	245.07	2.5324e-06	2.6507e-06	316.1	103.24	2.734e-06	2.6214e-06	145.32	69.589	47.263	25.072	2.6528e-06	42.076	133.031	162.727	129.167	100.992	193.806	444.459	98.817	105.497	160.974	98.654	102.690	105.791	108.784	112.503	223.451	108.656	-8191	255	
1536.031	1	1	0	0	0.18101	0.15194	0.079254	0.15701	0.37128	0.18031	0.14325	0.052162	0.0055553	0.11173	0.25103	0.28421	0.10592	0.13354	0.10048	0.15214	-3.4125	-4.25	-4.1813	-4.0667	-4.4604	-4.1562	-4.2354	-4.6083	-3.8875	-4.3292	-4.3479	-4.0208	-4.6312	-4.0437	-4.1479	-4.5708	395.703	242.613	189.360	439.124	209.299	167.221	311.165	172.487	97.276	198.366	132.610	326.321	300.827	160.951	396.430	300.197	0.00055421	7.9223e-05	8.7716e-05	250.78	3.0829e-06	2.7386e-06	328.1	106.57	5.2564e-06	5.5976e-06	152.77	73.6	48.887	25.804	7.358e-06	44.198	0.00026565	0.00023673	6.6477e-05	245.96	2.5115e-06	2.6563e-06	317.06	103.31	2.5965e-06	2.5956e-06	146.11	69.95	47.211	25.055	2.7089e-06	42.314	135.677	427.244	144.095	101.252	221.235	189.224	99.022	105.348	193.843	289.873	103.371	106.056	108.618	112.566	228.475	108.519	-8191	255	
1536.103	1	1	0	0	0.12519	0.027254	0.18637	0.045869	0.13621	0.32347	0.19509	0.21409	0.20977	0.14251	0.078588	0.17174	0.095589	0.20996	0.16197	0.13656	-3.5021	-4.3458	-4.3125	-3.9	-4.4979	-4.1813	-4.1042	-4.5042	-3.7708	-4.2208	-4.3458	-4.0375	-4.5396	-4.2812	-4.0417	-4.6062	93.732	161.237	254.077	95.283	173.213	215.996	308.894	363.615	369.138	132.058	225.465	321.677	402.014	306.759	290.131	165.204	0.0006079	0.00028739	9.438e-05	252.54	3.738e-06	1.7286e-06	332.58	107.49	3.6704e-06	1.1439e-06	152.29	73.423	48.93	25.754	5.7084e-06	44.162	0.00026706	0.00023476	6.5125e-05	246.01	2.5541e-06	2.6312e-06	319.12	103.6	2.5937e-06	2.5688e-06	146.29	70.005	47.158	25.032	2.6944e-06	42.097	126.393	236.283	162.394	100.879	222.353	264.387	99.137	105.404	162.896	246.287	102.485	105.717	108.992	112.336	220.500	108.820	-8191	255	
1536.199	1	1	0	0	0.236	0.087535	0.21405	0.073902	0.1725	0.13798	0.021963	0.19045	0.092943	0.077821	0.14799	0.27481	0.073953	0.064997	0.21694	0.16536	-3.6792	-4.2792	-4.4396	-3.9333	-4.5333	-4.1542	-4.0958	-4.6687	-4.1729	-4.2833	-4.4708	-4.1083	-4.3708	-4.3042	-3.9958	-4.7542	285.012	346.873	172.960	155.185	303.715	197.901	364.907	160.813	358.834	330.994	381.331	111.083	313.851	236.767	415.753	358.703	0.00050356	0.00022455	2.6129e-05	254.11	5.5423e-06	4.3595e-06	330.01	107.79	1.916e-06	2.5868e-06	151.63	72.13	48.822	25.774	2.272e-06	43.808	0.00025982	0.0002372	6.3851e-05	245.97	2.6017e-06	2.6335e-06	316.28	103.6	2.6467e-06	2.5881e-06	145.18	69.051	46.988	24.876	2.6631e-06	41.803	129.104	433.752	370.846	100.806	217.056	264.667	99.261	105.498	190.119	195.556	102.306	105.651	108.710	112.498	174.827	108.642	-8191	255	
1536.320	1	1	0	0	0.069881	0.20291	0.0051918	0.24505	0.24158	0.40511	0.063431	0.021817	0.16822	0.27874	0.24018	0.20189	0.10464	0.14855	0.079667	0.19002	-3.7687	-4.15	-4.6208	-4.0604	-4.55	-4.2917	-4.0396	-4.6	-4.0646	-4.2354	-4.4958	-4.0875	-4.3187	-4.4208	-3.9667	-4.6333	296.131	159.903	165.409	363.279	204.339	184.307	151.693	404.779	346.148	401.894	435.053	232.010	100.146	418.028	100.937	422.891	0.00058119	0.00021101	3.9965e-05	252.54	2.4833e-06	7.5935e-06	328.33	106.41	1.4502e-06	3.6718e-06	150.52	72.351	48.727	25.667	3.448e-06	43.953	0.00026392	0.00024274	6.4201e-05	245.07	2.5629e-06	2.5016e-06	316.48	103.17	2.5771e-06	2.6741e-06	144.59	69.104	46.972	24.905	2.7003e-06	41.892	125.854	210.866	186.912	100.962	198.739	278.262	99.053	105.539	158.968	284.688	102.862	105.965	108.865	112.576	257.882	108.805	-8191	255	
1536.416	1	1	0	0	0.17012	0.1208	0.084801	0.24926	0.079735	0.26393	0.18425	0.18157	0.22799	0.11507	0.19269	0.34707	0.13783	0.11415	0.067761	0.21478	-3.8708	-4.1708	-4.7937	-4.0792	-4.3083	-4.275	-4.0271	-4.3729	-4.3688	-4.1458	-4.7729	-4.1896	-4.3562	-4.3646	-4.0167	-4.5479	265.347	103.186	121.501	390.848	294.345	325.692	430.483	381.841	188.830	338.496	221.920	388.895	390.586	335.578	415.509	407.034	0.00058602	0.00039675	0.00010667	253.85	3.5412e-06	1.7547e-06	328.17	107.34	3.5524e-06	2.2823e-06	150.42	72.839	49.452	25.935	2.9569e-06	44.205	0.00025542	0.00023994	6.2579e-05	245.64	2.5668e-06	2.5041e-06	316.16	103.39	2.5274e-06	2.6215e-06	145.31	69.369	47.205	24.985	2.6717e-06	41.994	126.084	174.953	116.847	100.913	162.650	203.448	99.227	105.172	247.445	350.670	102.980	105.610	108.478	112.646	262.881	108.623	-8191	255	
1536.512	1	1	0	0	0.069517	0.28614	0.13241	0.096867	0.17998	0.20579	0.049056	0.063947	0.16442	0.064952	0.098623	0.14911	0.14337	0.19045	0.047379	0.16386	-3.8667	-3.9813	-4.4354	-4.1188	-4.2625	-4.5062	-3.8854	-4.5521	-4.3708	-3.9562	-4.7083	-4.0229	-4.2854	-4.5333	-4.0458	-4.4208	289.867	179.180	172.632	191.191	376.354	365.365	254.010	385.563	219.334	169.056	130.755	393.587	421.622	301.046	315.233	239.143	0.00056514	0.00040708	6.4756e-05	255.3	3.1001e-06	1.6394e-06	330.01	107.62	4.679e-07	4.2703e-06	151.29	73.121	49.137	25.898	1.9202e-06	44.215	0.00025061	0.00023928	6.3131e-05	246.26	2.6036e-06	2.4849e-06	316.81	104.05	2.5583e-06	2.6689e-06	145.72	69.663	47.424	25.03	2.64e-06	42.141	129.053	126.691	133.412	100.907	204.773	304.878	99.258	104.893	115.830	236.138	102.329	106.042	108.601	112.461	234.890	108.812	-8191	255	
1536.608	1	1	0	0	0.038964	0.26613	0.086545	0.066507	0.10776	0.2355	0.094987	0.19109	0.18285	0.061898	0.22967	0.056796	0.10069	0.10534	0.071626	0.082623	-3.8271	-4.0854	-4.5583	-4.0875	-3.875	-4.5229	-4.0854	-4.3354	-4.3771	-4.2063	-4.4625	-4.275	-4.0667	-4.6146	-4.0208	-4.3187	441.010	277.559	92.005	337.926	316.983	371.781	338.665	96.172	390.147	217.433	154.753	106.948	389.262	428.309	98.424	376.012	0.00053862	0.00028049	0.00010149	251.47	4.6262e-06	1.7122e-06	330.01	107.55	3.0717e-06	6.5614e-06	150.98	72.755	49.097	25.79	2.4194e-06	43.841	0.00025878	0.00024496	6.4541e-05	245.26	2.6894e-06	2.5172e-06	318.82	104.23	2.5536e-06	2.6959e-06	146.14	69.572	47.379	24.995	2.6964e-06	41.987	129.832	145.907	152.882	101.445	227.102	250.526	99.246	105.318	188.178	201.098	102.794	105.708	108.886	112.563	221.358	108.561	-8191	255	
1536.705	1	1	0	0	0.11941	0.080694	0.13382	0.26846	0.044394	0.13057	0.11456	0.071051	0.1412	0.1381	0.15887	0.093779	0.075937	0.13406	0.14495	0.039488	-4.0813	-4.0271	-4.5271	-4.2	-4.0146	-4.5542	-4.1771	-4.4146	-4.4667	-4.0333	-4.3792	-4.4396	-4.1	-4.5938	-3.8812	-4.4125	198.397	253.038	234.832	181.806	236.262	176.155	351.324	289.219	316.698	98.410	184.725	429.822	156.772	429.004	153.612	245.511	0.00054833	0.00014245	6.0361e-05	250.33	1.7781e-06	4.676e-06	329.88	108.08	1.1877e-06	1.3841e-06	150.46	72.249	48.833	25.67	5.8561e-06	43.804	0.00025464	0.00024786	6.6194e-05	245.01	2.7012e-06	2.5694e-06	317.17	103.61	2.5207e-06	2.7121e-06	144.74	69.101	47.094	24.939	2.6465e-06	41.782	131.279	258.489	140.239	100.246	242.296	176.360	99.348	105.293	277.135	305.630	102.571	105.382	108.940	112.531	265.560	108.823	-8191	255	
1536.799	1	1	0	0	0.097008	0.3134	0.27325	0.16986	0.11422	0.17311	0.10258	0.091373	0.11026	0.16158	0.17893	0.058546	0.20728	0.18473	0.099005	0.22672	-4.2896	-3.7708	-4.475	-4.4042	-4.0583	-4.7104	-4.0104	-4.2542	-4.5813	-3.9979	-4.4479	-4.3313	-4.0646	-4.5083	-4.0396	-4.1604	332.382	279.297	335.802	439.942	421.251	247.150	221.189	431.450	348.479	432.072	113.398	150.012	192.922	175.587	89.594	406.038	0.00064279	0.00031462	0.00011994	251.12	1.7835e-06	1.6658e-06	327.21	107.15	3.9529e-06	5.3363e-06	151.48	72.259	48.936	25.81	3.4993e-06	43.946	0.00025916	0.00024722	6.6088e-05	244.28	2.6992e-06	2.5786e-06	315.79	103.46	2.5081e-06	2.679e-06	144.98	69.245	47.166	24.932	2.6402e-06	41.836	127.517	434.334	160.418	101.289	227.936	178.157	98.932	105.592	217.387	219.550	102.441	105.742	108.698	112.141	220.959	108.489	-8191	255	
1536.920	1	1	0	0	0.077061	0.12289	0.18446	0.17252	0.094744	0.097663	0.050386	0.095391	0.044294	0.22146	0.10345	0.096709	0.090049	0.33621	0.14921	0.25894	-4.2208	-4	-4.2417	-4.5229	-3.9896	-4.5062	-4.2542	-4.0375	-4.5417	-4.0917	-4.4125	-4.625	-4.1854	-4.4146	-4.0833	-4.2708	204.766	296.410	344.592	208.428	191.669	122.896	249.029	90.623	356.287	380.226	248.962	250.264	414.974	298.922	377.042	419.552	0.00055714	0.00046852	0.00013797	249.92	2.0937e-06	4.0961e-06	329.73	107.19	2.1795e-06	2.2251e-06	150.56	72.893	49.09	26.012	8.7607e-07	44.105	0.00025497	0.00024742	6.7198e-05	244.77	2.6395e-06	2.6165e-06	316.35	103.5	2.491e-06	2.7012e-06	145.07	69.408	47.12	25.093	2.5765e-06	42.079	128.247	186.661	179.235	100.593	304.691	240.999	99.031	105.510	92.630	299.308	102.800	105.778	108.739	112.375	116.064	108.493	-8191	255	
1537.016	1	1	0	0	0.15955	0.017823	0.16459	0.040881	0.19984	0.17887	0.079495	0.19692	0.12283	0.24841	0.12853	0.28313	0.18238	0.18421	0.12402	0.16183	-4.1958	-4.0042	-4.2083	-4.3479	-4.075	-4.4375	-4.2688	-4.0646	-4.6125	-4.2188	-4.1479	-4.4042	-3.9813	-4.4667	-4.4729	-4.0292	233.863	341.829	376.718	258.202	355.744	111.723	367.111	348.115	153.800	415.641	160.881	374.463	334.121	119.034	332.686	398.037	0.00055499	0.0002247	8.974e-05	251.24	2.2961e-06	4.3625e-06	329.36	107.48	2.3265e-06	1.6517e-06	150.95	73.157	49.125	26.015	5.671e-06	44.114	0.00025231	0.00023965	6.6991e-05	245.47	2.6744e-06	2.6238e-06	317.68	104.05	2.553e-06	2.6479e-06	145.5	69.769	47.409	25.143	2.5982e-06	42.14	122.756	187.130	175.957	100.670	259.583	230.208	99.377	105.408	235.219	218.174	102.448	105.649	108.832	112.423	244.053	108.702	-8191	255	
1537.112	1	1	0	0	0.11974	0.20298	0.13052	0.2645	0.055687	0.23173	0.055804	0.04099	0.063772	0.073448	0.29438	0.22702	0.13651	0.10605	0.12398	0.21212	-4.2896	-4.15	-4.1104	-4.5542	-4.0229	-4.3646	-4.5312	-4.1625	-4.4167	-4.2396	-4.0979	-4.4208	-3.8917	-4.4062	-4.3375	-3.9229	141.271	149.466	258.345	369.937	163.383	113.955	332.013	368.508	229.154	440.563	102.633	319.501	348.187	162.804	390.074	427.245	0.00057762	0.00021431	7.6606e-05	252	1.3759e-06	2.2489e-06	329.59	107.11	2.8839e-06	3.2994e-06	150.21	72.303	48.681	25.827	3.7666e-06	43.844	0.00025159	0.00023848	6.7639e-05	244.54	2.6876e-06	2.6371e-06	317.26	103.57	2.5404e-06	2.6248e-06	144.88	69.363	47.03	24.956	2.5219e-06	41.913	128.055	189.828	238.158	100.903	442.793	164.350	98.773	105.312	200.172	234.123	102.574	105.739	108.684	112.402	264.752	108.317	-8191	255	
1537.208	1	1	0	0	0.17524	0.15376	0.17001	0.098233	0.13173	0.091996	0.067936	0.051542	0.20905	0.1142	0.17302	0.24807	0.044582	0.093464	0.18248	0.30616	-4.0687	-4.2333	-4.0896	-4.3771	-4.1479	-4.2688	-4.4771	-3.8438	-4.4125	-4.3042	-4.0188	-4.6813	-4.0708	-4.275	-4.5021	-4.1104	288.477	431.885	187.220	87.202	433.804	280.569	262.239	241.701	351.113	394.761	309.214	439.399	310.310	374.029	370.479	363.452	0.00055628	0.00037393	0.0001438	250.71	2.1557e-06	1.8028e-06	327.8	107.26	1.8303e-06	2.1002e-06	150.47	72.192	48.679	25.814	1.3775e-06	44.002	0.00025685	0.00022943	6.6683e-05	243.71	2.6576e-06	2.5726e-06	314.49	103.33	2.5804e-06	2.53e-06	143.89	68.89	46.94	24.902	2.4379e-06	41.85	130.526	152.965	239.781	101.001	182.832	242.382	99.006	105.099	195.544	202.932	102.288	105.988	108.493	112.376	178.666	108.727	-8191	255	
1537.304	1	1	0	0	0.15521	0.088144	0.20949	0.11732	0.20068	0.063152	0.1035	0.13402	0.13666	0.034281	0.1921	0.1237	0.041386	0.22668	0.042882	0.14167	-4.0146	-4.2646	-4.0062	-4.6354	-4.175	-4.2167	-4.5875	-3.9229	-4.4229	-4.3021	-4.2208	-4.6125	-4.1229	-4.1667	-4.5021	-4.125	157.233	316.537	299.560	390.600	339.068	418.635	232.115	369.789	252.972	174.121	127.859	381.513	193.374	160.304	363.369	97.894	0.00056206	0.00035863	0.00010732	249.7	6.0835e-06	2.9482e-06	326.58	106.94	4.6391e-07	2.3808e-06	149.89	72.797	49.077	25.839	5.5776e-06	43.864	0.00025887	0.00023105	6.8998e-05	243.39	2.6205e-06	2.6153e-06	313.37	102.99	2.5723e-06	2.4911e-06	144.2	69.123	46.978	24.969	2.4894e-06	41.921	130.763	158.650	207.173	101.109	233.632	260.609	99.383	105.364	368.971	223.304	102.861	105.550	108.975	112.438	226.746	108.838	-8191	255	
#DATA ENDS
