BOXY.EXE: ISS Imagent and Oximeter Data Acquisition Program Version 0.80
Ascii Record File

#ACQ INFORMATION
2  Detector Channels 
16  External MUX Channels 
1  Auxiliary Channels 
5000  Waveform (CCF) Frequency (Hz)
1  Waveforms Skipped 
30  Waveforms Averaged 
1  Cycles Averaged 
16  Acquisitions per Waveform 
10.0806  Updata Rate (Hz) 

#FILE INFORMATION
TRUE -- External MUX Channel results are PARSED.
FALSE -- AC DC and Phase are NOT grouped.
TRUE -- Companion Program Settings File CREATED.
FALSE -- AC data not excluded
FALSE -- DC data not excluded
FALSE -- Phase data not excluded
FALSE -- Auxillary Chn. data not excluded
Tab delimiters

#CALIBRATION STATE
TRUE -- Waveform Calibration Values APPLIED.


#AUX CALIBRATION VALUES
Val Type	aux-1	

Term	1.0000e+00	
Factor	0.0000e+00	


#WF CALIBRATION VALUES
A = Detector Channel
Val Type	A-AC1	A-AC2	A-AC3	A-AC4	A-AC5	A-AC6	A-AC7	A-AC8	A-AC9	A-AC10	A-AC11	A-AC12	A-AC13	A-AC14	A-AC15	A-AC16	A-DC1	A-DC2	A-DC3	A-DC4	A-DC5	A-DC6	A-DC7	A-DC8	A-DC9	A-DC10	A-DC11	A-DC12	A-DC13	A-DC14	A-DC15	A-DC16	A-Ph1	A-Ph2	A-Ph3	A-Ph4	A-Ph5	A-Ph6	A-Ph7	A-Ph8	A-Ph9	A-Ph10	A-Ph11	A-Ph12	A-Ph13	A-Ph14	A-Ph15	A-Ph16	

Term	0.00000e+00	0.00000e+00	0.00000e+00	0.00000e+00	0.00000e+00	0.00000e+00	0.00000e+00	0.00000e+00	0.00000e+00	0.00000e+00	0.00000e+00	0.00000e+00	0.00000e+00	0.00000e+00	0.00000e+00	0.00000e+00	0.00000e+00	0.00000e+00	0.00000e+00	0.00000e+00	0.00000e+00	0.00000e+00	0.00000e+00	0.00000e+00	0.00000e+00	0.00000e+00	0.00000e+00	0.00000e+00	0.00000e+00	0.00000e+00	0.00000e+00	0.00000e+00	0.00000e+00	0.00000e+00	0.00000e+00	0.00000e+00	0.00000e+00	0.00000e+00	0.00000e+00	0.00000e+00	0.00000e+00	0.00000e+00	0.00000e+00	0.00000e+00	0.00000e+00	0.00000e+00	0.00000e+00	0.00000e+00	
Factor	1.00000e+00	1.00000e+00	1.00000e+00	1.00000e+00	1.00000e+00	1.00000e+00	1.00000e+00	1.00000e+00	1.00000e+00	1.00000e+00	1.00000e+00	1.00000e+00	1.00000e+00	1.00000e+00	1.00000e+00	1.00000e+00	1.00000e+00	1.00000e+00	1.00000e+00	1.00000e+00	1.00000e+00	1.00000e+00	1.00000e+00	1.00000e+00	1.00000e+00	1.00000e+00	1.00000e+00	1.00000e+00	1.00000e+00	1.00000e+00	1.00000e+00	1.00000e+00	X	X	X	X	X	X	X	X	X	X	X	X	X	X	X	X	

B = Detector Channel
Val Type	B-AC1	B-AC2	B-AC3	B-AC4	B-AC5	B-AC6	B-AC7	B-AC8	B-AC9	B-AC10	B-AC11	B-AC12	B-AC13	B-AC14	B-AC15	B-AC16	B-DC1	B-DC2	B-DC3	B-DC4	B-DC5	B-DC6	B-DC7	B-DC8	B-DC9	B-DC10	B-DC11	B-DC12	B-DC13	B-DC14	B-DC15	B-DC16	B-Ph1	B-Ph2	B-Ph3	B-Ph4	B-Ph5	B-Ph6	B-Ph7	B-Ph8	B-Ph9	B-Ph10	B-Ph11	B-Ph12	B-Ph13	B-Ph14	B-Ph15	B-Ph16	

Term	0.00000e+00	0.00000e+00	0.00000e+00	0.00000e+00	0.00000e+00	0.00000e+00	0.00000e+00	0.00000e+00	0.00000e+00	0.00000e+00	0.00000e+00	0.00000e+00	0.00000e+00	0.00000e+00	0.00000e+00	0.00000e+00	0.00000e+00	0.00000e+00	0.00000e+00	0.00000e+00	0.00000e+00	0.00000e+00	0.00000e+00	0.00000e+00	0.00000e+00	0.00000e+00	0.00000e+00	0.00000e+00	0.00000e+00	0.00000e+00	0.00000e+00	0.00000e+00	-1.67345e+02	-1.28466e+02	-1.19699e+02	-1.83576e+02	-8.87362e+01	-6.07667e+01	-1.57985e+02	-1.62015e+02	-8.48579e+01	-6.54837e+01	-1.71537e+02	-1.71730e+02	-1.83223e+02	-1.78246e+02	-8.14027e+01	-1.51785e+02	
Factor	2.20819e-05	1.22705e-04	3.64254e-05	1.57401e-01	1.20126e-06	1.19893e-06	1.60961e-01	4.98362e-02	1.05429e-06	1.31104e-06	7.43814e-02	2.51224e-02	2.19682e-02	8.10577e-03	1.31942e-06	1.15977e-02	1.88575e-06	2.02594e-06	5.64688e-07	7.93729e-02	2.20408e-08	2.22281e-08	7.67269e-02	2.52222e-02	2.19966e-08	2.21892e-08	3.64224e-02	1.23052e-02	1.11446e-02	4.10577e-03	2.20339e-08	5.68387e-03	X	X	X	X	X	X	X	X	X	X	X	X	X	X	X	X	



#DISTANCE SETTINGS
A = Detector Channel
A-1	A-2	A-3	A-4	A-5	A-6	A-7	A-8	A-9	A-10	A-11	A-12	A-13	A-14	A-15	A-16	

2.5000e+00	3.0000e+00	2.5000e+00	3.0000e+00	2.0000e+00	3.0000e+00	1.5000e+00	3.0000e+00	3.0000e+00	3.0000e+00	3.0000e+00	3.0000e+00	3.0000e+00	3.0000e+00	1.5000e+00	3.0000e+00	

B = Detector Channel
B-1	B-2	B-3	B-4	B-5	B-6	B-7	B-8	B-9	B-10	B-11	B-12	B-13	B-14	B-15	B-16	

1.0000e+01	1.0000e+01	1.0000e+01	1.4400e+00	1.0000e+01	1.0000e+01	1.5100e+00	1.9400e+00	1.0000e+01	1.0000e+01	1.9900e+00	2.4900e+00	2.4100e+00	2.9000e+00	1.0000e+01	2.9800e+00	




#DATA BEGINS
time	group	step	mark	flag	A-AC1	A-AC2	A-AC3	A-AC4	A-AC5	A-AC6	A-AC7	A-AC8	A-AC9	A-AC10	A-AC11	A-AC12	A-AC13	A-AC14	A-AC15	A-AC16	A-DC1	A-DC2	A-DC3	A-DC4	A-DC5	A-DC6	A-DC7	A-DC8	A-DC9	A-DC10	A-DC11	A-DC12	A-DC13	A-DC14	A-DC15	A-DC16	A-Ph1	A-Ph2	A-Ph3	A-Ph4	A-Ph5	A-Ph6	A-Ph7	A-Ph8	A-Ph9	A-Ph10	A-Ph11	A-Ph12	A-Ph13	A-Ph14	A-Ph15	A-Ph16	B-AC1	B-AC2	B-AC3	B-AC4	B-AC5	B-AC6	B-AC7	B-AC8	B-AC9	B-AC10	B-AC11	B-AC12	B-AC13	B-AC14	B-AC15	B-AC16	B-DC1	B-DC2	B-DC3	B-DC4	B-DC5	B-DC6	B-DC7	B-DC8	B-DC9	B-DC10	B-DC11	B-DC12	B-DC13	B-DC14	B-DC15	B-DC16	B-Ph1	B-Ph2	B-Ph3	B-Ph4	B-Ph5	B-Ph6	B-Ph7	B-Ph8	B-Ph9	B-Ph10	B-Ph11	B-Ph12	B-Ph13	B-Ph14	B-Ph15	B-Ph16	aux-1	digaux	

1426.027	1	1	0	512	0.24594	0.18745	0.16541	0.095237	0.17238	0.075009	0.091093	0.24868	0.049262	0.13547	0.27088	0.064329	0.54411	0.29723	0.13325	0.26252	-3.7812	-4.1521	-4.5354	-4.1458	-4.45	-4.3583	-4.1521	-4.5563	-4.0563	-4.1312	-4.4688	-4.0042	-4.3917	-4.4083	-3.875	-4.6188	423.595	127.663	201.595	185.684	303.523	371.160	283.618	383.841	176.509	101.488	140.001	433.934	101.183	180.412	270.684	328.601	0.000693	0.00039718	8.4348e-05	303.82	2.4578e-06	2.8142e-06	371.62	129.71	3.1638e-06	2.5359e-06	164.81	84.171	60.56	32.991	3.4263e-06	50.209	9.4559e-05	5.4008e-05	1.3671e-05	311.22	5.7444e-07	5.3773e-07	380.5	133.77	5.8612e-07	5.9795e-07	167.8	86.15	61.894	34.131	6.3999e-07	51.476	128.808	195.136	168.888	97.906	234.462	229.361	96.568	102.953	225.001	220.047	100.754	104.389	106.467	109.685	216.601	106.509	-8191	255	
1426.147	1	1	0	0	0.08011	0.05165	0.10853	0.07305	0.1887	0.10996	0.15987	0.053551	0.25842	0.25338	0.090322	0.08373	0.05437	0.20438	0.11403	0.06372	-3.9854	-3.9333	-4.6479	-4.0958	-4.3542	-4.4104	-3.9354	-4.4271	-4.1583	-4.1417	-4.6188	-4.2708	-4.2396	-4.5312	-4.1125	-4.7521	308.143	337.474	160.563	198.519	96.866	154.166	409.712	349.346	378.424	374.295	319.317	391.327	397.033	392.512	280.704	329.851	0.00071178	0.00030781	0.00010687	303.99	2.7905e-06	2.6723e-06	369.01	130.13	2.8867e-06	2.3475e-06	163.67	83.974	60.395	32.983	3.7801e-06	49.968	9.4555e-05	5.4574e-05	1.3784e-05	311.19	5.8546e-07	5.4209e-07	379.06	133.66	5.77e-07	5.9227e-07	167	85.627	61.659	34.014	6.169e-07	51.185	133.629	148.222	188.670	97.549	218.496	212.030	96.779	103.020	251.303	236.408	100.760	104.104	106.274	109.636	236.475	106.882	-8191	255	
1426.244	1	1	0	0	0.16091	0.19458	0.018825	0.16969	0.14887	0.35833	0.087216	0.30261	0.083215	0.12378	0.21572	0.2202	0.23748	0.17979	0.24066	0.088802	-3.9208	-4.15	-4.5396	-4.2292	-4.3812	-4.3583	-4.1479	-4.5563	-4.3	-4.075	-4.4646	-4.325	-4.2604	-4.8125	-3.8292	-4.2875	202.173	88.038	294.815	398.530	367.493	241.049	340.111	321.166	296.886	387.095	367.743	341.096	132.048	404.502	407.885	147.485	0.00073937	0.00027769	8.3477e-05	303.58	1.498e-06	2.0019e-06	367.73	129.8	3.4352e-06	2.3189e-06	161.87	83.394	60.337	32.995	4.3453e-06	49.652	9.3902e-05	5.557e-05	1.3815e-05	310.82	5.8867e-07	5.2597e-07	377.83	133.15	5.7819e-07	5.8681e-07	166.09	85.236	61.508	33.957	6.2957e-07	50.967	131.283	183.722	167.458	97.891	244.689	205.698	96.582	102.854	222.401	230.920	100.646	104.454	106.375	109.740	207.744	106.758	-8191	255	
1426.340	1	1	0	0	0.19857	0.080284	0.13563	0.18703	0.1864	0.15128	0.14541	0.057981	0.18591	0.19588	0.22012	0.065379	0.23882	0.1386	0.06642	0.051696	-4.0333	-3.9854	-4.5021	-4.2333	-4.1292	-4.4979	-4.0667	-4.2417	-4.4292	-3.9688	-4.45	-4.1937	-4.1021	-4.7	-3.9667	-4.4208	122.746	300.236	120.766	94.255	215.530	353.034	321.564	382.525	368.903	416.193	109.949	408.126	118.557	154.129	246.033	362.112	0.0006829	0.00025022	6.7358e-05	300.65	3.3836e-06	1.7714e-06	367.59	129.14	2.6294e-06	2.6741e-06	162.65	83.245	60.055	32.854	2.8798e-06	49.748	9.2386e-05	5.6241e-05	1.4423e-05	309.57	6.0057e-07	5.3894e-07	376.69	133.19	5.6747e-07	5.9962e-07	166.4	85.198	61.43	33.89	6.198e-07	51.034	130.738	183.246	178.534	97.872	210.425	269.716	97.136	102.784	221.173	224.513	100.573	104.061	106.112	109.802	221.287	106.447	-8191	255	
1426.436	1	1	0	0	0.073458	0.22817	0.15577	0.116	0.27737	0.11727	0.071703	0.052653	0.10588	0.040521	0.29107	0.02328	0.10372	0.37425	0.11375	0.25294	-4.2208	-3.9354	-4.5437	-4.3354	-4.0146	-4.7229	-4.0604	-4.2604	-4.4062	-4.1896	-4.5146	-4.4271	-3.9604	-4.5312	-4.0896	-4.2854	124.879	344.266	356.558	347.631	275.438	170.037	250.690	404.688	336.602	155.035	347.478	426.367	400.950	360.922	149.287	366.384	0.00068553	0.00029934	6.8856e-05	301.73	3.0802e-06	2.7317e-06	367.75	129.53	2.8915e-06	1.8323e-06	163.85	83.752	60.047	32.827	3.3686e-06	49.89	8.9978e-05	5.7018e-05	1.3998e-05	309.7	6.0493e-07	5.3384e-07	377.17	133.02	5.6641e-07	6.023e-07	166.92	85.455	61.499	33.927	6.1704e-07	51.1	131.032	166.218	169.278	97.951	211.100	232.548	96.825	103.100	219.441	227.612	100.771	103.883	106.564	109.739	229.798	106.624	-8191	255	
1426.532	1	1	0	0	0.082536	0.18658	0.17052	0.088092	0.12834	0.30164	0.11097	0.18865	0.076889	0.15458	0.082485	0.064237	0.087533	0.10488	0.17305	0.13072	-4.15	-4.1021	-4.3646	-4.4396	-3.9938	-4.5417	-4.2667	-4.2542	-4.6937	-4.1333	-4.375	-4.4271	-4.0188	-4.7354	-4.1667	-4.1438	153.748	184.867	401.516	243.580	90.763	384.358	194.114	332.216	380.770	116.536	401.817	154.912	401.981	384.391	229.862	393.164	0.0006954	0.00021118	8.7585e-05	302.57	2.9599e-06	2.6834e-06	367.01	129.8	3.5311e-06	1.643e-06	163.63	83.662	59.944	33.086	2.3859e-06	49.755	9.0657e-05	5.457e-05	1.4525e-05	309.36	6.1678e-07	5.4325e-07	377.14	133.43	5.6078e-07	6.1196e-07	167.07	85.495	61.436	33.971	6.0309e-07	51.008	130.237	169.515	159.606	98.033	225.531	229.854	96.934	102.998	220.742	234.631	100.875	104.228	106.150	109.966	222.874	106.684	-8191	255	
1426.626	1	1	0	0	0.095193	0.2361	0.20132	0.28213	0.14648	0.13391	0.16199	0.10902	0.13302	0.25265	0.12009	0.19601	0.15085	0.17404	0.086988	0.13716	-4.2021	-4.0625	-4.4104	-4.5021	-3.95	-4.3729	-4.275	-4.1021	-4.7146	-4.1125	-4.3812	-4.5625	-3.9354	-4.675	-4.1667	-4	112.247	287.643	317.914	308.360	219.307	297.427	99.120	211.389	242.559	268.932	392.949	418.867	316.871	367.949	221.802	369.183	0.00067597	0.00027624	9.9136e-05	299.18	2.7479e-06	9.6904e-07	364.84	128.8	1.8407e-06	2.1927e-06	161.78	83.234	59.939	32.637	3.6483e-06	49.322	9.2547e-05	5.6579e-05	1.4849e-05	307.59	6.3634e-07	5.4426e-07	375.21	132.54	5.6541e-07	5.6633e-07	165.6	84.865	61.219	33.736	5.8817e-07	50.559	131.560	202.494	174.219	98.216	208.573	208.446	96.714	102.863	233.474	188.334	101.003	104.338	106.198	109.843	184.127	106.587	-8191	255	
1426.747	1	1	0	0	0.13119	0.14192	0.26519	0.23985	0.10837	0.23236	0.059766	0.072803	0.1322	0.10839	0.17872	0.22036	0.084501	0.16523	0.20995	0.069974	-4.1646	-3.9875	-4.0417	-4.5542	-3.8854	-4.3812	-4.4479	-4.1125	-4.5083	-4.1646	-4.15	-4.6667	-4.0229	-4.4854	-4.2688	-4.0417	289.756	438.176	111.239	278.438	234.314	183.446	333.735	387.701	386.671	315.489	222.878	361.116	97.924	96.743	364.173	429.702	0.00069454	0.00028907	7.0278e-05	299.57	2.5986e-06	3.6392e-06	364.76	128.45	3.045e-06	2.1411e-06	161.34	82.7	59.319	32.599	2.3711e-06	49.223	9.3541e-05	5.4333e-05	1.5335e-05	306.57	6.1466e-07	5.5422e-07	372.57	132.21	5.7471e-07	5.7438e-07	165.13	84.617	60.874	33.661	5.6884e-07	50.457	130.948	180.273	193.023	97.730	199.862	242.626	96.886	102.952	205.871	212.662	100.620	104.227	106.051	109.604	205.124	106.464	-8191	255	
1426.843	1	1	0	0	0.14701	0.068458	0.26516	0.24591	0.17866	0.084715	0.11749	0.051802	0.13684	0.084334	0.00991	0.2373	0.24197	0.20085	0.21563	0.01177	-4.3292	-4.1458	-4.1438	-4.5792	-4.0354	-4.2417	-4.5521	-4.0083	-4.4187	-4.2937	-4.0667	-4.6271	-3.9313	-4.5229	-4.375	-4.0354	213.661	295.292	183.300	118.275	232.236	113.166	423.398	403.770	248.825	308.641	327.814	383.481	431.249	425.701	223.935	288.956	0.00069873	0.00034959	0.00011943	298.71	1.972e-06	1.3256e-06	363.43	129.08	1.5722e-06	3.0953e-06	161.75	82.904	59.742	32.555	3.324e-06	49.372	9.261e-05	5.194e-05	1.5182e-05	305.92	5.991e-07	5.6038e-07	372.74	132.15	5.7013e-07	5.7257e-07	165.4	84.839	61.121	33.661	5.7077e-07	50.722	130.884	166.986	175.417	97.909	231.655	250.548	96.747	103.088	211.430	230.080	100.621	104.132	106.296	109.942	224.580	106.797	-8191	255	
1426.915	1	1	0	0	0.12265	0.11329	0.12652	0.071035	0.068608	0.225	0.074361	0.23896	0.058568	0.30125	0.086943	0.024806	0.1376	0.3252	0.032385	0.072962	-4.1479	-4.3479	-4.0771	-4.6771	-4.1896	-4.4021	-4.4062	-4.0042	-4.6708	-4.2771	-4.1604	-4.5979	-4.1771	-4.3625	-4.5917	-4.0583	368.606	382.129	318.573	150.206	326.546	146.210	380.279	341.699	281.115	410.036	167.323	182.538	401.130	404.428	249.830	186.371	0.00069156	0.00020397	7.8504e-05	298.7	1.65e-06	1.9653e-06	365.2	129.56	2.9805e-06	2.4402e-06	162.33	83.564	59.992	32.789	3.5342e-06	49.86	9.4122e-05	5.2409e-05	1.5344e-05	305.96	6.1186e-07	5.9479e-07	373.62	132.93	5.8827e-07	5.4692e-07	166.52	85.106	61.476	33.834	5.48e-07	51.048	130.141	150.333	184.722	97.797	223.769	254.491	96.810	103.219	223.829	262.393	100.940	104.211	106.212	109.993	220.266	106.753	-8191	255	
1427.011	1	1	0	0	0.030681	0.22723	0.078753	0.13758	0.080108	0.19962	0.11919	0.15884	0.13609	0.11518	0.1021	0.10295	0.05651	0.19053	0.25994	0.12895	-4.0979	-4.3229	-4.0208	-4.6417	-4.2812	-4.35	-4.5125	-4.1667	-4.5083	-4.3354	-4.0938	-4.5354	-4.175	-4.1396	-4.5667	-4.1146	188.717	118.016	212.723	303.939	178.304	388.093	313.923	133.457	432.859	314.268	307.290	343.344	416.142	95.533	439.225	364.253	0.00070428	0.00029703	9.098e-05	300.25	2.168e-06	2.1503e-06	367.41	129.58	2.5747e-06	2.8565e-06	162.61	83.564	59.935	32.946	3.3092e-06	49.756	9.3502e-05	4.9804e-05	1.5152e-05	306.8	5.8055e-07	5.8525e-07	375.29	133	5.924e-07	5.2417e-07	166.57	85.368	61.317	33.974	5.6476e-07	50.889	131.286	173.050	187.124	97.921	242.708	269.363	96.827	103.036	229.696	237.097	100.693	104.085	106.162	109.827	214.189	106.604	-8191	255	
1427.107	1	1	0	0	0.16939	0.1366	0.12948	0.15165	0.12835	0.24293	0.28387	0.13584	0.083983	0.16592	0.22492	0.18114	0.074843	0.22016	0.16427	0.18665	-3.8333	-4.4646	-3.9583	-4.5188	-4.3375	-4.1062	-4.625	-4.0437	-4.4396	-4.5563	-4.0646	-4.5188	-4.375	-3.9833	-4.5354	-4.3562	124.179	438.651	159.754	163.982	105.517	219.100	320.272	406.271	186.361	419.001	358.027	354.181	319.042	354.052	267.275	395.791	0.00069529	0.00025177	6.6413e-05	300.9	3.5238e-06	1.9028e-06	365.49	129.75	2.9014e-06	2.0474e-06	162.09	83.268	59.714	32.669	2.8097e-06	49.444	9.5937e-05	4.972e-05	1.5795e-05	307.59	5.7269e-07	5.9627e-07	374.23	132.79	5.8598e-07	5.2496e-07	165.83	85.086	61.175	33.803	5.6421e-07	50.776	130.684	182.694	164.293	97.621	237.722	219.829	96.879	103.124	219.693	250.738	100.602	103.888	106.296	109.895	220.241	106.548	-8191	255	
1427.228	1	1	0	0	0.17865	0.35674	0.046727	0.091285	0.27249	0.1651	0.14114	0.22509	0.09609	0.18499	0.29098	0.15268	0.33307	0.27257	0.14054	0.21728	-3.8333	-4.5396	-3.8792	-4.3396	-4.2646	-4.0312	-4.4812	-4.1396	-4.2625	-4.5188	-3.9167	-4.3458	-4.3	-4.0958	-4.5771	-4.2312	230.523	316.829	432.352	141.676	436.408	238.572	411.340	332.297	135.666	417.728	387.907	384.046	345.774	442.236	354.107	343.730	0.00067657	0.00022079	7.8078e-05	301.05	1.734e-06	3.1637e-06	365.18	129.37	2.4106e-06	3.5692e-06	162.39	83.387	60.236	32.944	3.3517e-06	49.739	9.3694e-05	4.9458e-05	1.5334e-05	307.58	5.5818e-07	5.9923e-07	374.04	132.75	6.039e-07	5.1479e-07	166.29	85.134	61.405	33.943	5.7981e-07	50.96	130.388	177.032	166.749	97.762	235.106	224.997	96.860	103.240	213.632	220.675	100.462	103.952	105.900	109.742	220.260	106.503	-8191	255	
1427.324	1	1	0	0	0.38193	0.22897	0.098202	0.11321	0.22606	0.07761	0.23215	0.12532	0.1862	0.070327	0.18958	0.093425	0.05793	0.15492	0.18109	0.31664	-3.8333	-4.45	-3.9771	-4.2417	-4.3812	-3.9354	-4.5417	-4.1917	-4.0104	-4.4417	-4.0604	-4.3688	-4.4271	-4.0458	-4.5521	-4.3167	158.599	346.399	438.720	138.660	159.002	305.603	394.562	350.910	360.801	202.039	271.693	397.289	352.144	364.002	203.020	400.088	0.00068217	0.00029536	6.7019e-05	300.95	2.4194e-06	2.5145e-06	366.07	129.28	2.2719e-06	3.7874e-06	162.89	83.749	60.135	32.912	4.5862e-06	49.807	9.5262e-05	4.9138e-05	1.5664e-05	307.49	5.5474e-07	6.04e-07	375.35	133.2	6.1068e-07	5.3393e-07	166.85	85.436	61.524	33.953	5.7252e-07	51.064	131.482	165.312	178.644	97.996	204.447	248.508	96.835	103.096	219.103	202.275	100.922	104.173	106.481	109.890	231.634	106.424	-8191	255	
1427.420	1	1	0	0	0.036581	0.056925	0.15828	0.20368	0.038912	0.026644	0.14557	0.1242	0.11009	0.086919	0.1354	0.14102	0.14761	0.19338	0.12064	0.27613	-3.6292	-4.6562	-4.1479	-4.2688	-4.5708	-4.0417	-4.5354	-4.4458	-3.975	-4.6417	-4.1958	-4.3292	-4.6146	-4.1083	-4.4354	-4.4104	176.955	206.944	185.215	346.915	368.678	386.011	325.761	433.843	172.865	431.164	99.344	350.137	336.828	97.410	287.772	348.291	0.00065474	0.00033943	0.00012112	299.75	2.3781e-06	3.529e-06	369.17	129.23	2.0675e-06	3.2831e-06	163.51	83.517	60.011	32.982	2.8761e-06	50.169	9.5615e-05	4.7344e-05	1.5011e-05	307.56	5.3803e-07	6.0363e-07	376.68	133.16	6.319e-07	5.416e-07	167.33	85.672	61.44	33.994	6.0263e-07	51.222	130.455	194.834	176.897	97.755	205.662	264.264	96.803	103.215	199.705	242.681	100.698	104.200	106.159	109.907	232.490	106.606	-8191	255	
1427.539	1	1	0	0	0.14502	0.16203	0.13136	0.23507	0.16815	0.13439	0.17568	0.13526	0.2182	0.13928	0.14537	0.28556	0.072037	0.1366	0.12984	0.20028	-3.7271	-4.5875	-4.0104	-4.3292	-4.525	-4.025	-4.5437	-4.5521	-3.8125	-4.5563	-4.0396	-4.3292	-4.7521	-3.9896	-4.4958	-4.4146	290.994	355.577	89.223	109.405	267.016	417.155	439.055	369.566	126.239	332.000	145.478	395.762	131.365	129.223	329.432	416.079	0.00071746	0.00026395	6.1528e-05	300.08	3.1477e-06	3.1869e-06	368.22	129.01	2.5427e-06	2.2063e-06	183.81	98.036	70.695	38.819	4.3435e-06	58.916	0.00010022	5.0488e-05	1.4983e-05	307.28	5.3724e-07	6.1901e-07	375.93	132.52	6.4074e-07	6.8602e-07	184.06	98.401	71.14	39.395	7.0977e-07	59.269	130.122	144.548	167.763	97.957	196.866	236.773	96.533	102.871	226.551	222.782	94.337	102.305	105.076	108.455	212.744	105.185	-8191	255	
1427.612	1	1	0	0	0.18045	0.037743	0.14181	0.21152	0.069692	0.18151	0.13103	0.15407	0.28776	0.21944	0.20663	0.3963	0.16787	0.21433	0.17739	0.29263	-3.6854	-4.7146	-4.2042	-4.2937	-4.6146	-4.0896	-4.3646	-4.6104	-4.0771	-4.5437	-4.3562	-4.1062	-4.6875	-4.2104	-4.3812	-4.6083	213.230	331.391	432.680	212.073	116.046	403.106	103.432	173.941	370.923	345.010	337.376	396.587	443.712	97.802	223.985	385.815	0.00080721	0.00028705	9.5954e-05	354	3.6196e-06	2.3949e-06	428.55	153.37	1.8204e-06	2.6552e-06	191.97	98.343	71.065	39.129	5.5701e-06	59.05	0.00011633	6.0128e-05	1.749e-05	356.28	6.5677e-07	6.9583e-07	433.52	154.49	7.3936e-07	6.3715e-07	193.02	99.21	71.489	39.587	7.2074e-07	59.394	130.446	183.282	176.548	96.684	197.682	240.433	95.806	101.956	222.182	246.050	99.519	102.828	104.910	108.359	217.743	105.325	-8191	255	
1427.709	1	1	0	0	0.13727	0.15954	0.14575	0.081231	0.24544	0.089588	0.1728	0.11773	0.16535	0.26231	0.18712	0.29826	0.28334	0.089392	0.083156	0.21513	-3.5896	-4.5667	-4.2083	-4.1583	-4.5521	-4.1167	-4.25	-4.475	-4.1333	-4.4979	-4.4521	-4.1625	-4.6646	-4.2771	-4.1292	-4.5604	152.000	331.505	328.609	433.480	157.221	384.729	354.397	422.253	89.760	294.302	419.540	427.918	104.565	324.576	380.908	382.841	0.00078116	0.00035964	8.1009e-05	364.44	2.3917e-06	3.225e-06	504.32	179.76	2.5315e-06	4.3603e-06	225.9	115.73	84.11	45.707	6.3542e-06	69.045	0.00011541	5.9833e-05	1.7338e-05	354.6	7.5646e-07	7.7747e-07	499.59	178.19	8.6062e-07	7.8638e-07	223.1	114.37	82.568	45.612	8.5198e-07	68.441	128.578	176.007	171.714	83.453	209.781	253.060	94.232	100.531	197.064	192.891	98.247	101.832	103.768	107.156	222.084	104.279	-8191	255	
1427.827	1	1	0	0	0.097247	0.034869	0.064128	0.14893	0.070039	0.26361	0.15101	0.28096	0.096114	0.095796	0.32341	0.22544	0.15031	0.12955	0.13225	0.1369	-3.6125	-4.3667	-4.3333	-4.0417	-4.5042	-4.0979	-4.2333	-4.6021	-3.9813	-4.2479	-4.3542	-4.0938	-4.5292	-4.3854	-4.0854	-4.7354	99.810	123.469	160.419	310.365	100.567	226.657	401.327	370.397	201.358	262.818	277.000	85.720	111.223	422.535	383.155	399.397	0.00092447	0.00044471	0.00012143	412.97	4.4677e-06	3.1848e-06	504.02	179.84	3.5411e-06	2.8734e-06	226.39	116.28	83.385	45.71	5.9982e-06	69.298	0.0001329	7.3369e-05	1.9145e-05	409.85	7.6445e-07	7.7919e-07	500.4	178.08	8.3491e-07	8.0445e-07	223.53	114.78	82.42	45.621	8.7199e-07	68.691	129.307	166.845	167.665	95.415	216.932	252.171	94.319	100.776	202.548	221.628	98.018	101.609	103.708	107.089	226.429	104.220	-8191	255	
1427.924	1	1	0	0	0.16973	0.095615	0.26615	0.13922	0.18227	0.06265	0.14673	0.18755	0.13411	0.13325	0.14862	0.35831	0.02591	0.33456	0.047281	0.21669	-3.6771	-4.2896	-4.5687	-4.0188	-4.4062	-4.2646	-4.3313	-4.4812	-4.2375	-4.3146	-4.6354	-4.1854	-4.5958	-4.2625	-4.2229	-4.7271	272.408	291.545	121.582	170.182	374.061	286.144	270.901	92.934	324.345	145.221	129.698	423.964	175.285	97.112	430.519	440.213	0.00094388	0.00049577	9.2865e-05	415.61	3.1607e-06	2.5015e-06	505.64	180.46	4.8112e-06	3.8827e-06	226.69	116.93	83.508	46.092	4.1202e-06	69.398	0.00013116	7.5378e-05	1.8949e-05	411.35	7.7969e-07	7.7159e-07	502.01	178.33	8.4128e-07	7.9081e-07	224.53	115.07	82.633	45.778	8.8264e-07	68.848	130.099	173.111	208.848	95.443	207.924	222.458	94.649	100.604	214.762	226.114	98.258	101.681	103.805	107.310	197.873	104.491	-8191	255	
1428.020	1	1	0	0	0.12146	0.13133	0.15408	0.1204	0.027875	0.21718	0.14831	0.15787	0.277	0.15678	0.071194	0.26647	0.22152	0.18659	0.25657	0.14809	-3.7854	-4.3667	-4.5167	-4.1042	-4.3708	-4.2771	-4.0125	-4.6813	-4.15	-4.3104	-4.7542	-4.0687	-4.4292	-4.3854	-3.8708	-4.6937	304.625	409.433	197.656	154.146	430.353	398.331	403.957	320.291	108.931	98.170	289.004	392.309	437.289	434.063	93.786	258.224	0.00089189	0.00024094	7.4138e-05	415.54	3.414e-06	3.199e-06	506.16	180.08	3.7166e-06	3.2792e-06	226.07	116.33	83.71	45.708	5.9116e-06	69.3	0.00013147	7.4411e-05	1.8822e-05	411.46	7.9581e-07	7.3728e-07	501.6	178.21	8.1621e-07	7.8531e-07	222.84	114.57	82.554	45.62	8.6304e-07	68.612	129.230	162.046	156.110	95.595	208.350	192.336	94.139	100.672	224.874	239.673	98.369	101.426	103.849	107.341	214.963	104.042	-8191	255	
1428.140	1	1	0	0	0.24508	0.24386	0.17715	0.018731	0.19369	0.12505	0.18641	0.1086	0.084999	0.085703	0.027909	0.2154	0.16829	0.188	0.018805	0.07703	-3.75	-4.2333	-4.3896	-4.0437	-4.2979	-4.5333	-3.9521	-4.525	-4.2083	-4.1125	-4.6917	-4.0708	-4.5437	-4.6021	-4.0333	-4.6917	198.905	167.018	326.188	162.073	170.126	334.981	241.064	92.783	327.293	189.181	186.072	420.552	379.217	127.103	193.023	84.686	0.00094229	0.00027744	9.9976e-05	413.99	4.3181e-06	3.2421e-06	501.46	179.02	5.4036e-06	3.6756e-06	224.82	115.19	83.431	45.767	4.9781e-06	69.15	0.00012975	7.5222e-05	1.9753e-05	409.84	7.9209e-07	7.2663e-07	499.08	177.6	8.0975e-07	8.0783e-07	222.3	114.14	82.509	45.688	8.8117e-07	68.466	130.125	174.721	174.433	95.683	233.477	217.823	94.385	100.195	216.623	235.056	98.146	101.530	103.844	107.268	216.788	104.213	-8191	255	
1428.212	1	1	0	0	0.12738	0.14162	0.12966	0.064239	0.083191	0.18214	0.12582	0.13792	0.048617	0.25185	0.26577	0.27317	0.07073	0.11488	0.26308	0.21985	-3.9958	-4.0833	-4.4437	-4.1854	-4.3042	-4.5229	-3.9083	-4.5083	-4.2646	-3.9813	-4.7188	-4.2438	-4.4146	-4.8083	-4.1708	-4.6146	151.367	281.927	174.157	441.950	293.051	163.712	342.499	389.533	83.647	233.256	344.317	395.837	305.815	380.315	381.884	436.820	0.00094903	0.00037756	0.00012717	413.5	4.0551e-06	3.1875e-06	507.04	180.17	3.989e-06	3.518e-06	224.76	116.42	83.983	45.967	5.8618e-06	69.526	0.00012809	7.6737e-05	1.9305e-05	410.67	8.1657e-07	7.3543e-07	500.49	178.38	7.8271e-07	8.4606e-07	222.86	114.79	82.721	45.874	8.6332e-07	68.888	127.487	185.831	180.036	95.418	203.608	248.706	94.518	100.667	212.113	225.239	98.161	101.483	103.890	107.282	246.586	104.341	-8191	255	
1428.308	1	1	0	0	0.14194	0.050639	0.13963	0.16015	0.15967	0.14851	0.21996	0.24129	0.088076	0.14173	0.15553	0.11762	0.26313	0.20159	0.14496	0.15042	-3.9896	-3.9646	-4.6625	-4.1854	-4.1875	-4.6333	-3.9813	-4.3938	-4.4146	-4.0771	-4.7	-4.225	-4.175	-4.7396	-3.85	-4.4958	350.989	256.550	249.148	427.410	364.881	390.912	166.983	329.587	408.199	219.842	377.792	117.479	426.578	317.287	334.805	182.289	0.00090036	0.00043988	0.00011102	416.01	3.1842e-06	2.8562e-06	510.45	180.64	4.1666e-06	3.394e-06	228.82	117.02	84.472	46.397	5.1632e-06	69.789	0.00012424	7.845e-05	1.9684e-05	412.07	7.9241e-07	7.3343e-07	502.38	178.72	7.587e-07	8.2345e-07	224.66	115.37	83.138	46.136	8.5983e-07	69.193	129.620	177.027	177.355	95.854	161.218	209.917	94.245	100.470	225.118	254.259	98.490	101.590	103.808	107.258	210.797	104.248	-8191	255	
1428.404	1	1	0	0	0.19708	0.014134	0.041618	0.22112	0.011935	0.18834	0.067016	0.25478	0.24913	0.3408	0.15534	0.027137	0.039392	0.091411	0.056076	0.086164	-4.1396	-3.9271	-4.3708	-4.2333	-4.0729	-4.5021	-4.0021	-4.3229	-4.5104	-3.9583	-4.6708	-4.3313	-4.0708	-4.7104	-4.0792	-4.3979	362.624	222.977	430.273	429.810	224.253	260.219	113.171	410.213	171.316	323.284	400.152	212.271	389.747	442.392	403.540	344.434	0.00095861	0.00029942	9.8252e-05	417.4	4.2106e-06	4.4145e-06	514.77	180.05	3.7448e-06	2.7205e-06	227.84	117.02	84.012	46.261	5.4589e-06	70.157	0.0001264	7.5399e-05	1.9736e-05	413.95	8.4095e-07	7.5099e-07	506.36	179.26	7.6393e-07	8.265e-07	225.66	115.73	83.076	46.132	8.3187e-07	69.318	129.833	159.175	184.071	95.466	220.661	233.208	94.589	100.414	238.111	226.940	98.333	101.886	104.008	107.099	220.135	104.063	-8191	255	
1428.523	1	1	0	0	0.19467	0.14303	0.10939	0.12215	0.058055	0.13603	0.38743	0.099139	0.066656	0.18974	0.065614	0.068764	0.12384	0.086985	0.046247	0.27845	-4.1125	-3.9396	-4.4708	-4.375	-4.0333	-4.5188	-4.1146	-4.2333	-4.4792	-4	-4.6083	-4.3812	-4.0354	-4.5938	-4.1792	-4.2542	392.430	105.525	156.575	398.920	93.006	138.882	384.619	371.006	274.902	109.437	112.710	129.451	344.735	113.008	371.849	349.616	0.00093141	0.0004289	0.00010448	414.87	4.0199e-06	2.0884e-06	508	180.38	4.2093e-06	4.3423e-06	227.68	116.56	83.762	46.182	3.4385e-06	69.772	0.00012258	7.5542e-05	1.9538e-05	412.18	8.2304e-07	7.2311e-07	502.17	178.55	7.592e-07	8.1739e-07	224.35	115.2	82.678	45.961	7.9152e-07	69.133	129.881	156.105	181.522	95.650	202.635	220.580	94.290	100.471	233.708	238.304	98.180	101.714	103.849	107.271	215.269	104.230	-8191	255	
1428.619	1	1	0	0	0.15532	0.2446	0.081018	0.33873	0.17248	0.095164	0.097784	0.2081	0.099602	0.085342	0.070482	0.0079616	0.17707	0.1642	0.22735	0.070479	-4.1083	-3.9167	-4.3187	-4.4271	-4.1542	-4.5104	-4.2375	-4.3271	-4.55	-4.05	-4.4625	-4.4896	-4.1229	-4.5437	-4.2208	-4.2917	242.705	396.710	149.743	201.536	380.734	168.836	333.265	423.937	293.194	214.474	256.464	383.857	361.595	384.370	214.206	411.092	0.00095092	0.00037795	0.00014908	416.94	3.3681e-06	1.9588e-06	511.85	179.35	5.177e-06	3.3593e-06	225.45	116.26	84.065	45.939	5.3422e-06	69.779	0.00012492	7.3677e-05	1.9073e-05	411.81	8.3379e-07	7.5256e-07	503.09	178.52	7.5325e-07	7.9715e-07	223.48	114.96	82.918	45.868	7.8253e-07	69.028	129.036	164.193	179.953	95.333	189.084	244.016	94.641	100.538	204.101	231.173	98.308	101.546	103.755	107.393	221.736	103.999	-8191	255	
1428.716	1	1	0	0	0.046565	0.34538	0.050595	0.30028	0.15001	0.11818	0.15399	0.14556	0.081621	0.10964	0.19279	0.025528	0.043707	0.052814	0.20648	0.20917	-4.1625	-4.1271	-4.3979	-4.5042	-4.1042	-4.3625	-4.4604	-4.0958	-4.5458	-4.1083	-4.2917	-4.6104	-4.0292	-4.4437	-4.1729	-4.0437	153.737	254.959	175.937	440.846	370.172	125.167	367.032	316.389	120.441	326.360	85.561	242.613	338.221	307.686	352.796	435.074	0.00090299	0.00034372	0.00012552	417	4.6115e-06	3.2387e-06	509.72	180.18	4.4608e-06	4.6422e-06	226.97	116.57	84.241	46.18	5.1384e-06	69.851	0.00012356	7.3023e-05	1.9622e-05	411.87	8.3149e-07	7.4589e-07	503.85	178.94	7.6979e-07	7.8138e-07	224.56	115.13	82.976	46.04	7.7541e-07	69.242	130.254	150.610	191.743	95.733	201.368	215.337	94.225	100.627	209.833	247.340	98.574	101.596	103.462	107.336	221.377	104.251	-8191	255	
1428.789	1	1	0	0	0.22978	0.046766	0.063544	0.1784	0.15068	0.10507	0.1668	0.21624	0.083992	0.21012	0.14026	0.044907	0.071205	0.23849	0.13489	0.07272	-4.0229	-4.0417	-4.2583	-4.5563	-4.1146	-4.5271	-4.3958	-4.0687	-4.6354	-4.1875	-4.3396	-4.7125	-4.0563	-4.4333	-4.5375	-4	249.178	402.488	256.023	269.581	360.009	240.949	197.069	96.799	160.858	390.197	192.996	231.842	438.247	413.037	403.936	412.355	0.00092845	0.00046481	0.00011238	416.93	3.1491e-06	2.3036e-06	508.79	180.27	4.0064e-06	4.6626e-06	227.65	116.99	84.511	46.293	4.8551e-06	69.959	0.00012675	7.358e-05	2.0399e-05	413.08	8.4113e-07	7.6798e-07	504.56	179.06	7.5966e-07	7.4357e-07	225.37	115.55	83.365	46.206	7.8464e-07	69.537	126.811	157.968	187.160	95.354	211.359	223.251	94.451	100.234	211.229	241.866	98.276	101.614	103.757	107.166	226.940	104.022	-8191	255	
1428.908	1	1	0	0	0.10586	0.2242	0.17956	0.21346	0.081613	0.20215	0.12524	0.39111	0.050189	0.19653	0.032632	0.2496	0.05675	0.047355	0.17468	0.3819	-4.2167	-4.1583	-4.1208	-4.5896	-3.9479	-4.4104	-4.6042	-4.2312	-4.5583	-4.1229	-4.2979	-4.8063	-4.0229	-4.3688	-4.5208	-4.0938	164.498	330.501	256.293	202.508	365.754	413.770	367.142	368.268	358.281	275.732	205.398	165.170	83.468	313.010	248.418	361.446	0.00097367	0.00049941	0.00010899	419.15	4.533e-06	3.317e-06	511.85	181.29	3.8039e-06	3.8061e-06	228.36	117.04	83.95	46.297	3.2636e-06	69.93	0.00012618	7.0228e-05	2.0483e-05	414.22	8.1624e-07	7.6344e-07	506.25	179.23	7.8702e-07	7.5993e-07	225.46	115.6	82.981	46.189	7.8129e-07	69.383	129.494	168.000	188.236	95.488	217.954	230.971	94.366	100.754	201.245	222.543	98.363	101.826	103.832	107.226	243.851	104.286	-8191	255	
1429.004	1	1	0	0	0.1702	0.11449	0.13006	0.21481	0.235	0.1859	0.37008	0.11557	0.027181	0.15641	0.084357	0.036625	0.11153	0.23096	0.10316	0.40024	-4.1104	-4.2396	-3.975	-4.4021	-4.0875	-4.1979	-4.5271	-4.1708	-4.5208	-4.3688	-4.1896	-4.5771	-4.2521	-4.3	-4.6125	-4.0875	395.494	93.143	265.996	426.731	301.707	312.551	111.597	367.264	222.425	328.871	321.492	440.318	149.082	146.009	415.558	377.429	0.0008937	0.00034482	0.00011039	414.85	3.0381e-06	3.4047e-06	507.46	179.38	4.6645e-06	4.4399e-06	227.47	116.57	83.647	46.355	5.4849e-06	69.844	0.000126	6.9093e-05	2.0755e-05	411.9	8.0532e-07	7.8234e-07	502.42	178.54	7.9733e-07	7.2646e-07	224.4	115.16	82.792	46.046	7.5379e-07	69.124	129.413	192.334	149.321	95.459	204.222	212.681	94.528	100.231	233.607	240.362	98.298	101.550	103.853	107.330	211.682	104.226	-8191	255	
1429.100	1	1	0	0	0.14079	0.23581	0.16934	0.13607	0.1112	0.21352	0.12011	0.10919	0.11172	0.12461	0.1948	0.20247	0.024302	0.25249	0.15697	0.27902	-4.025	-4.1896	-3.9854	-4.4708	-4.2271	-4.0625	-4.6417	-4.1125	-4.3167	-4.3917	-4.0833	-4.4604	-4.1167	-4.1729	-4.4979	-4.2708	282.515	193.738	169.170	313.374	289.742	367.286	338.112	282.789	360.979	161.116	274.521	389.385	84.628	84.877	221.345	389.184	0.00089707	0.00029042	6.6387e-05	416.9	4.5822e-06	3.5141e-06	505.02	179.88	2.4966e-06	2.3949e-06	227.27	116.8	83.605	46.22	4.0099e-06	70.141	0.00012912	6.816e-05	2.2018e-05	412.26	7.9324e-07	8.0109e-07	501.43	178.59	8.0691e-07	7.2078e-07	224.55	115.12	82.733	46.135	7.6981e-07	69.416	130.603	173.114	163.877	95.364	225.594	241.556	94.365	100.516	205.342	221.429	98.042	101.428	103.826	107.297	224.738	104.224	-8191	255	
1429.221	1	1	0	0	0.091982	0.20432	0.11647	0.16679	0.072407	0.23286	0.20369	0.064612	0.12378	0.19248	0.20858	0.1165	0.057255	0.2926	0.038615	0.33968	-4.1396	-4.5792	-4.1167	-4.6125	-4.3354	-3.95	-4.5188	-4.1854	-4.3229	-4.4313	-3.9292	-4.5354	-4.3625	-4.1708	-4.4542	-4.3354	101.226	281.506	242.969	437.688	172.606	115.012	235.379	219.927	440.065	164.836	408.422	196.502	316.069	409.148	101.875	355.450	0.00096532	0.00041023	0.0001035	415.4	3.5463e-06	3.7436e-06	507.55	179.94	2.9559e-06	3.4245e-06	229.42	117.49	84.095	46.647	6.262e-06	70.586	0.00012975	6.884e-05	2.1695e-05	412.79	7.5283e-07	8.129e-07	503.87	178.92	8.2533e-07	7.4509e-07	225.84	115.9	83.206	46.384	7.8776e-07	69.859	128.885	180.392	177.029	95.264	200.984	231.087	94.384	100.648	224.600	223.467	98.320	101.331	103.793	107.249	207.444	104.455	-8191	255	
1429.317	1	1	0	0	0.14711	0.25529	0.080533	0.14311	0.044796	0.046659	0.24754	0.14803	0.31313	0.012897	0.13905	0.079112	0.20038	0.23713	0.087296	0.024641	-3.8083	-4.4354	-3.9021	-4.3708	-4.225	-3.875	-4.5083	-4.2896	-4.0125	-4.4167	-4.0687	-4.5042	-4.1813	-4.0292	-4.3958	-4.3562	190.101	406.192	234.862	315.079	153.900	359.749	417.930	352.140	125.351	361.189	303.142	419.289	196.890	404.974	270.269	300.721	0.00097997	0.0004719	0.00013347	414.43	4.3385e-06	3.3817e-06	513.28	180.47	4.7759e-06	2.3868e-06	229.37	117.88	84.602	46.605	4.1882e-06	70.618	0.0001332	6.5041e-05	2.1443e-05	412.83	7.7198e-07	8.4231e-07	507.23	179.45	8.0851e-07	7.2725e-07	226.67	116.35	83.574	46.499	7.9327e-07	70.182	126.897	180.944	170.251	95.349	219.845	228.901	94.337	100.622	205.483	210.326	98.400	101.653	103.804	107.295	224.325	104.261	-8191	255	
1429.413	1	1	0	0	0.030944	0.10975	0.16076	0.11211	0.19117	0.26341	0.15283	0.17785	0.036949	0.041529	0.14891	0.0093089	0.16476	0.080485	0.2466	0.15176	-3.7458	-4.4521	-3.9979	-4.1729	-4.2188	-3.9125	-4.6583	-4.1604	-4.0875	-4.7479	-4.1312	-4.1562	-4.4563	-4.1979	-4.4708	-4.2917	293.050	137.024	136.094	397.588	304.204	156.536	362.634	279.252	95.714	197.666	99.172	85.602	185.941	432.913	255.172	364.526	0.00094493	0.00018115	0.00010767	417.74	4.6556e-06	3.9027e-06	510.88	181.56	4.8928e-06	1.9381e-06	229.51	117.74	84.532	46.585	4.6378e-06	70.493	0.00013075	6.7177e-05	2.0685e-05	414.69	7.5912e-07	8.4573e-07	506.47	179.87	8.2254e-07	7.3844e-07	226.35	116.17	83.515	46.509	8.1622e-07	69.896	127.522	155.496	200.530	95.389	246.169	228.814	94.369	100.512	213.072	220.888	98.259	101.766	103.762	106.921	203.978	104.098	-8191	255	
1429.509	1	1	0	0	0.11096	0.093179	0.10393	0.16174	0.12052	0.10067	0.15403	0.068812	0.13272	0.21896	0.15085	0.10882	0.15704	0.071056	0.14842	0.36573	-3.75	-4.6875	-4.0271	-4.225	-4.5333	-3.8958	-4.4271	-4.2688	-4.0042	-4.5917	-4.3292	-4.3187	-4.5208	-4.0458	-4.2542	-4.3979	305.326	215.285	398.314	424.358	87.063	367.473	325.487	207.409	205.043	132.768	424.838	294.661	414.615	431.348	221.525	434.569	0.00093335	0.0002602	8.2852e-05	418.64	4.4498e-06	3.2745e-06	510.39	181.84	3.9655e-06	5.0413e-06	228.63	116.82	84.078	46.469	5.2475e-06	70.802	0.00013287	6.8667e-05	2.0045e-05	414.02	7.1651e-07	8.079e-07	506.4	179.89	8.367e-07	7.3414e-07	225.85	115.82	83.321	46.505	7.9088e-07	69.836	129.808	170.008	188.569	95.462	212.923	210.401	94.358	100.480	235.213	236.387	98.204	101.637	103.737	107.063	211.969	103.994	-8191	255	
1429.604	1	1	0	0	0.14184	0.037723	0.13392	0.1632	0.42861	0.11172	0.16956	0.064397	0.13863	0.12257	0.16152	0.084165	0.16225	0.20874	0.046317	0.37782	-3.6833	-4.5833	-4.1396	-4.2083	-4.4896	-4.2771	-4.4479	-4.3438	-3.9396	-4.7063	-4.2854	-4.3146	-4.6167	-4.2125	-4.4208	-4.4771	317.824	363.364	242.601	106.887	171.552	216.138	400.448	260.314	259.029	300.198	150.344	367.090	133.886	428.889	173.442	399.862	0.00093316	0.00032265	9.5364e-05	420.69	3.9071e-06	1.7261e-06	512.66	181.3	3.5961e-06	4.4761e-06	229.19	117.71	84.967	46.806	4.1082e-06	70.919	0.00013216	6.7346e-05	1.9501e-05	416.1	7.4323e-07	8.0832e-07	506.67	179.87	8.6085e-07	7.4306e-07	226.56	116.29	83.794	46.619	7.8794e-07	70.093	130.755	178.277	186.488	95.606	230.750	221.506	94.109	100.683	227.192	231.919	98.219	101.834	103.537	107.227	210.747	104.156	-8191	255	
1429.700	1	1	0	0	0.068979	0.10515	0.09731	0.21599	0.045226	0.065704	0.34862	0.14898	0.12725	0.21572	0.024528	0.10458	0.287	0.15801	0.066338	0.13496	-3.7625	-4.4313	-4.2896	-4.0896	-4.5896	-4.1062	-4.3938	-4.6167	-3.9667	-4.6354	-4.4854	-4.0083	-4.6229	-4.3417	-4.1417	-4.6417	344.373	217.473	347.783	382.131	189.953	89.203	383.546	124.905	254.500	368.227	232.682	392.102	405.417	408.823	373.234	434.638	0.00096401	0.00032186	0.0001235	420.75	4.23e-06	3.6863e-06	515.68	181.66	4.1201e-06	3.0291e-06	231.92	118.39	84.863	47.057	6.0253e-06	71.527	0.00013265	6.9334e-05	1.9749e-05	417.08	7.3469e-07	7.9827e-07	508.86	180.54	8.4353e-07	7.512e-07	228.43	117.03	84.123	46.923	8.035e-07	70.605	127.606	169.360	187.247	95.526	202.358	233.994	94.631	100.323	216.012	217.223	98.293	101.676	103.775	107.153	225.183	104.108	-8191	255	
1429.820	1	1	0	0	0.28735	0.25974	0.097472	0.21469	0.23979	0.059493	0.23137	0.13975	0.055887	0.21492	0.26235	0.25972	0.45599	0.41266	0.16978	0.21574	-3.6625	-4.5292	-4.3021	-3.9875	-4.4875	-4.1625	-4.3375	-4.6542	-3.8354	-4.4167	-4.3042	-4.1708	-4.4583	-4.3271	-4.1271	-4.6646	336.068	153.005	368.503	114.980	305.698	361.545	405.318	91.479	202.042	420.521	121.360	336.132	395.518	87.292	279.234	437.639	0.00096684	0.00039981	0.00012097	422.78	5.7892e-06	2.5911e-06	519.24	183.58	4.4822e-06	3.0032e-06	234.2	119.27	85.62	47.22	5.0156e-06	71.508	0.00013287	7.1195e-05	1.8917e-05	419.2	7.3621e-07	7.5048e-07	513.26	181.91	8.4339e-07	7.5919e-07	230.79	117.87	84.717	47.141	8.3187e-07	70.996	129.235	165.611	179.783	95.676	199.691	245.077	94.362	100.615	212.778	231.300	98.118	101.415	103.765	107.527	224.946	104.058	-8191	255	
1429.917	1	1	0	0	0.18234	0.2541	0.13695	0.12375	0.060424	0.18827	0.13227	0.087147	0.23331	0.046084	0.076097	0.036558	0.25668	0.085805	0.051226	0.067078	-3.5208	-4.3667	-4.2979	-4.1	-4.5729	-4.1438	-4.1646	-4.6438	-3.9542	-4.2625	-4.4542	-4.1687	-4.5583	-4.3625	-4.1813	-4.7833	101.946	357.376	391.726	125.178	315.754	260.963	165.715	204.155	265.749	352.382	405.799	335.385	344.319	416.095	223.354	345.962	0.00097546	0.00045074	7.8742e-05	423.71	4.3293e-06	3.4071e-06	518.18	182.88	3.1736e-06	3.5594e-06	232.75	118.98	85.893	47.147	4.6593e-06	71.717	0.00013262	6.7578e-05	1.841e-05	418.63	7.723e-07	7.5437e-07	512.24	181.65	8.3876e-07	7.8111e-07	229.83	117.42	84.646	47.025	8.2297e-07	70.852	128.915	160.679	182.043	95.407	211.665	237.655	94.277	100.598	211.135	227.573	98.263	101.736	103.928	107.151	223.422	104.129	-8191	255	
1430.013	1	1	0	0	0.067775	0.12172	0.062655	0.18806	0.25543	0.16133	0.1907	0.067179	0.16012	0.077872	0.047472	0.24589	0.066289	0.14303	0.027807	0.11801	-3.725	-4.1292	-4.4563	-4.1708	-4.4521	-4.2875	-3.9854	-4.5917	-4.1042	-4.1917	-4.4938	-3.9333	-4.4979	-4.5062	-4	-4.8104	110.904	377.491	160.468	131.634	423.005	131.829	267.914	329.761	103.978	208.491	401.265	372.717	412.208	105.547	190.260	145.003	0.00096807	0.00045888	8.4869e-05	423.83	2.7115e-06	2.7675e-06	516.57	182.88	3.4299e-06	3.9539e-06	231.17	118.37	85.501	47.204	2.4872e-06	71.449	0.00013286	7.076e-05	1.8819e-05	419.07	7.4278e-07	7.4654e-07	511.57	181.63	8.065e-07	7.6114e-07	228.88	117.26	84.558	47.052	8.5184e-07	70.693	128.961	180.493	182.531	95.248	189.843	246.369	94.208	100.305	216.039	233.009	98.184	101.753	103.776	107.049	205.157	104.091	-8191	255	
1430.084	1	1	0	0	0.25801	0.12026	0.2022	0.11785	0.11962	0.23458	0.089079	0.21562	0.082841	0.08506	0.20442	0.13481	0.34953	0.089138	0.19463	0.14563	-3.8146	-4.2833	-4.5771	-4.0875	-4.4688	-4.3063	-4.2271	-4.6104	-4.0854	-4.2458	-4.5667	-4.0563	-4.4479	-4.55	-4.0583	-4.6854	139.940	126.729	320.300	192.873	279.535	116.568	387.513	254.099	275.253	172.938	177.186	422.028	415.694	181.605	225.426	315.705	0.000938	0.00031919	0.00011666	421.7	4.0011e-06	2.9428e-06	515.87	183.53	3.3896e-06	3.6455e-06	232.26	119.53	85.865	47.295	3.8349e-06	71.914	0.00012676	7.2567e-05	1.9499e-05	418.19	7.7492e-07	7.3404e-07	511.69	182.26	7.5499e-07	7.9326e-07	230.21	118	84.84	47.176	8.5524e-07	71.055	130.581	158.369	166.624	95.289	229.526	237.994	94.485	100.323	227.503	234.744	98.398	101.712	103.767	107.133	245.316	103.975	-8191	255	
1430.205	1	1	0	0	0.057244	0.08089	0.12305	0.1315	0.18548	0.16604	0.25509	0.24298	0.19377	0.096527	0.16524	0.15815	0.021749	0.18325	0.054488	0.16556	-3.8396	-4.0583	-4.5708	-4.2	-4.3917	-4.5146	-3.9813	-4.6396	-4.1958	-4.0167	-4.6146	-4.15	-4.3208	-4.6458	-3.8646	-4.7146	373.565	153.847	117.404	138.316	178.758	129.777	367.161	360.983	251.148	181.540	141.754	412.224	212.134	392.738	163.856	346.970	0.00094531	0.00036133	0.000105	421.31	3.1709e-06	4.6665e-06	522.64	184.74	4.6404e-06	4.9648e-06	232.78	119.25	86.441	47.553	5.1159e-06	72.079	0.00012671	7.5065e-05	1.8762e-05	419.72	7.9586e-07	7.2941e-07	515.26	182.94	7.8803e-07	8.045e-07	230.97	118.31	85.19	47.417	8.5795e-07	71.397	130.271	177.902	174.271	95.423	181.097	225.256	94.499	100.528	209.798	223.565	98.493	101.525	103.934	107.087	238.827	103.981	-8191	255	
1430.301	1	1	0	0	0.10641	0.1206	0.26989	0.071679	0.058698	0.12571	0.055631	0.16421	0.30714	0.23015	0.092218	0.11049	0.1811	0.13235	0.19538	0.23912	-4.0021	-4.0042	-4.5625	-4.2208	-4.2229	-4.3771	-4.0437	-4.4583	-4.3396	-4.0271	-4.6354	-4.2542	-4.3792	-4.6062	-3.9583	-4.5667	124.457	233.409	113.843	203.841	141.672	212.026	104.655	348.711	255.725	312.634	250.190	342.953	394.474	197.492	186.500	390.019	0.00098083	0.00032443	0.00010224	426.45	4.183e-06	2.6507e-06	521.74	185.79	3.3806e-06	3.2725e-06	233.36	120.16	86.712	47.594	5.1693e-06	72.045	0.00012827	7.707e-05	1.8969e-05	421.59	7.8585e-07	7.3788e-07	517.06	183.86	7.4362e-07	8.2521e-07	231.95	118.86	85.347	47.472	8.5276e-07	71.259	128.771	175.928	182.983	95.292	213.194	231.610	94.319	100.723	227.761	248.312	98.162	101.542	103.610	107.081	205.679	104.285	-8191	255	
1430.397	1	1	0	0	0.24451	0.049687	0.066132	0.11207	0.086326	0.12005	0.078766	0.24265	0.15365	0.093365	0.079374	0.26844	0.028104	0.23273	0.28245	0.13111	-3.9229	-3.8583	-4.5563	-4.1875	-4.1771	-4.6687	-4.1083	-4.2688	-4.4	-3.8854	-4.6042	-4.2146	-4.15	-4.7521	-4.0646	-4.4083	295.020	263.253	316.107	395.878	332.641	418.045	304.120	420.468	428.587	170.209	211.477	441.277	399.260	399.517	302.075	378.307	0.00091085	0.00045462	9.7683e-05	423.18	4.5675e-06	3.9212e-06	520.42	184.43	3.4237e-06	3.3102e-06	233.43	119.26	86.091	47.231	5.6718e-06	71.445	0.00012623	7.5939e-05	1.9375e-05	420.75	8.3209e-07	7.3408e-07	514.31	182.56	7.6182e-07	8.2632e-07	230.23	117.7	85.066	47.244	8.4101e-07	70.872	130.109	157.411	172.807	95.679	213.981	223.007	94.606	100.370	200.036	235.222	98.188	101.726	103.954	107.246	221.857	104.204	-8191	255	
1430.493	1	1	0	0	0.24144	0.092891	0.11609	0.28035	0.12002	0.034628	0.15222	0.097733	0.10071	0.13268	0.16809	0.15419	0.11729	0.15808	0.22515	0.038861	-4.1167	-3.975	-4.5833	-4.3	-4.0458	-4.6208	-4.0271	-4.3896	-4.4479	-4.0167	-4.4646	-4.2458	-4.0854	-4.5208	-3.8583	-4.3313	423.418	170.069	406.648	411.712	237.048	156.075	136.835	399.657	153.317	159.065	429.798	439.008	271.238	375.465	383.190	261.446	0.00095777	0.00038574	0.00011684	424.26	3.2994e-06	2.7454e-06	516.04	184.21	2.6211e-06	2.9466e-06	232.53	119.4	86.125	47.52	3.0114e-06	71.222	0.00012853	7.6682e-05	1.9435e-05	418.98	8.2497e-07	7.3158e-07	511.48	182.33	7.3542e-07	8.2576e-07	230.17	117.89	84.871	47.247	8.3926e-07	70.715	130.682	157.596	166.666	95.514	229.983	245.836	94.316	100.590	231.638	221.568	98.244	101.571	104.010	107.384	207.636	104.132	-8191	255	
1430.612	1	1	0	0	0.014205	0.34519	0.19233	0.13478	0.08637	0.088432	0.10144	0.1263	0.15585	0.30192	0.31185	0.22075	0.039268	0.19056	0.15745	0.35792	-4.1833	-4.0292	-4.4542	-4.3479	-3.9771	-4.4583	-4.0625	-4.1312	-4.5729	-3.9437	-4.3292	-4.45	-4.1917	-4.5896	-4.2292	-4.3354	249.659	415.615	416.992	319.918	231.971	188.895	313.297	115.470	402.501	283.357	137.397	398.917	242.982	138.584	338.967	356.014	0.00098037	0.00052217	0.00014524	424.15	3.5954e-06	3.6656e-06	517.31	184.57	2.4808e-06	2.2003e-06	233.44	119.77	86.371	47.32	4.2697e-06	71.94	0.00012497	7.7914e-05	1.9564e-05	419.15	8.5234e-07	7.3584e-07	512.06	182.74	7.4866e-07	8.2414e-07	230.75	118.14	85.009	47.276	7.985e-07	71.082	128.539	177.768	187.590	95.451	190.857	250.246	94.514	100.403	217.906	237.036	97.698	101.590	103.852	107.258	212.917	104.126	-8191	255	
1430.708	1	1	0	0	0.28937	0.21639	0.15001	0.077779	0.10106	0.17703	0.13992	0.080536	0.27657	0.034521	0.10996	0.20566	0.079885	0.23665	0.16823	0.19857	-4.1375	-3.8542	-4.3604	-4.4667	-3.9813	-4.4875	-4.1771	-4.2417	-4.4917	-4.1125	-4.3833	-4.625	-4.0938	-4.6542	-4.2021	-4.2896	356.288	349.049	367.065	383.505	113.685	157.907	367.966	343.695	223.844	422.772	334.884	199.214	325.300	403.089	168.931	384.380	0.00096325	0.00026947	0.00011434	425.55	4.2539e-06	3.2982e-06	517.92	184.7	2.3425e-06	5.0688e-06	234.68	119.89	86.551	47.739	4.4343e-06	71.993	0.00012908	7.3656e-05	1.9871e-05	421.07	8.3801e-07	7.7025e-07	513.85	183.34	7.6232e-07	7.9359e-07	231.99	118.45	85.379	47.583	7.9786e-07	71.342	128.591	166.193	188.315	95.229	222.215	234.064	94.335	100.519	193.510	228.155	98.416	101.434	103.703	107.075	235.560	104.123	-8191	255	
1430.782	1	1	0	0	0.20028	0.12452	0.0087332	0.19467	0.12808	0.23962	0.15415	0.1984	0.091519	0.1329	0.22169	0.27503	0.38745	0.19397	0.086193	0.32167	-4.2375	-3.9271	-4.2979	-4.6083	-3.9833	-4.4938	-4.5021	-4.1562	-4.5479	-4.0896	-4.3646	-4.5146	-3.9708	-4.4521	-4.3146	-4.2438	124.682	253.727	387.705	373.691	156.361	168.439	429.635	234.503	325.754	319.142	171.382	432.638	101.425	370.835	259.200	101.357	0.00096361	0.00044219	9.6967e-05	426.41	3.6026e-06	1.5379e-06	521.65	184.85	5.0335e-06	3.7306e-06	234.62	120.02	86.176	47.619	3.02e-06	71.912	0.000126	7.1828e-05	1.9941e-05	421	8.4825e-07	7.5279e-07	515.15	183.42	7.598e-07	7.6886e-07	231.86	118.53	85.234	47.465	8.041e-07	71.209	130.423	163.332	159.696	95.405	226.506	231.590	94.266	100.424	224.472	223.529	98.279	101.577	103.744	106.855	198.580	104.104	-8191	255	
1430.901	1	1	0	0	0.098555	0.11334	0.082129	0.12139	0.17334	0.10366	0.10115	0.22917	0.24532	0.12286	0.078398	0.30415	0.12055	0.13978	0.19056	0.10593	-4.15	-4.1854	-4.1083	-4.5563	-3.9313	-4.5229	-4.4563	-3.9792	-4.4271	-4.2042	-4.2083	-4.625	-4.0396	-4.4375	-4.3917	-4.1146	352.812	138.246	350.164	124.561	274.470	238.339	238.357	396.642	337.931	161.400	361.600	108.869	315.073	296.242	409.605	396.207	0.001004	0.00041882	0.00010335	422.46	3.285e-06	3.8809e-06	515.88	183.56	2.6716e-06	2.8834e-06	233.85	118.85	85.845	47.523	3.2506e-06	71.54	0.00012825	7.0452e-05	2.0879e-05	419.69	8.2984e-07	7.7377e-07	511.72	182.73	7.6622e-07	7.6696e-07	231.08	117.54	84.932	47.336	7.7293e-07	70.857	127.991	159.811	161.156	95.598	159.981	270.239	94.182	100.635	224.896	236.870	98.333	101.458	103.822	107.135	239.267	104.129	-8191	255	
1430.997	1	1	0	0	0.10072	0.34218	0.15467	0.079466	0.24508	0.14556	0.046939	0.059588	0.077326	0.22364	0.11289	0.26012	0.20395	0.41381	0.083623	0.27903	-4.2042	-4.2896	-4.0208	-4.5188	-3.9771	-4.3458	-4.3313	-3.9167	-4.4208	-4.2375	-4.0375	-4.5938	-4.1042	-4.2063	-4.5938	-4.0563	88.311	129.037	284.065	125.103	132.123	171.085	411.364	388.885	84.264	206.104	234.320	117.723	394.740	339.609	434.341	436.751	0.0009695	8.6821e-05	0.00011571	425.64	2.0892e-06	4.5175e-06	517.2	185.27	3.7621e-06	3.1833e-06	235.24	119.79	86.656	47.941	4.5778e-06	72.045	0.00012957	6.9021e-05	2.1039e-05	419.75	8.033e-07	7.7812e-07	512.58	183.22	7.7932e-07	7.5092e-07	232.53	118.44	85.503	47.729	7.7155e-07	71.441	129.921	210.421	160.537	95.208	177.892	239.404	94.114	100.436	204.865	218.404	98.155	101.675	103.645	107.077	219.286	103.997	-8191	255	
1431.093	1	1	0	0	0.2306	0.25128	0.14261	0.28754	0.26575	0.15771	0.21628	0.2784	0.078201	0.16725	0.21401	0.11382	0.23705	0.101	0.24366	0.050263	-4.1687	-4.35	-3.9688	-4.6146	-4.1438	-4.3417	-4.6438	-4.0125	-4.5042	-4.3292	-4.1167	-4.525	-4.0875	-4.4333	-4.4375	-4.175	418.439	123.665	407.884	357.580	280.524	202.316	370.591	427.749	256.805	226.455	131.968	342.330	415.697	115.067	407.173	434.598	0.00095887	0.00024212	0.00015033	426.94	4.2604e-06	4.5339e-06	521.92	186.91	3.4746e-06	2.9225e-06	236.29	120.49	87.009	47.998	4.1736e-06	72.418	0.00012822	6.7987e-05	2.1348e-05	421.63	8.1588e-07	7.7942e-07	515.79	184.79	8.2735e-07	7.3049e-07	233.64	119.18	86.017	47.858	7.7991e-07	71.705	128.393	177.104	172.648	95.293	235.766	247.133	94.453	100.550	220.298	231.921	98.213	101.563	103.988	107.237	211.280	104.103	-8191	255	
1431.189	1	1	0	0	0.067287	0.13221	0.18354	0.23363	0.22579	0.065215	0.11666	0.22735	0.12304	0.18214	0.14755	0.10482	0.17064	0.22858	0.22498	0.10407	-4.2583	-4.4042	-3.925	-4.5333	-4.2937	-4.2375	-4.5833	-4.0875	-4.3	-4.4146	-4.1146	-4.6646	-4.2979	-4.2521	-4.5437	-4.1188	369.977	239.480	251.894	381.446	132.753	340.697	331.875	99.398	172.104	405.586	433.305	428.487	113.631	437.145	365.572	416.721	0.00099313	0.0004104	0.00013001	427.35	4.0219e-06	5.2758e-06	522.05	186.66	3.7701e-06	4.0343e-06	237.51	121	87.14	48.153	5.8408e-06	72.555	0.00013118	7.0667e-05	2.1293e-05	422.96	7.791e-07	8.1517e-07	518.2	185.17	8.0146e-07	7.3113e-07	234.37	119.72	86.088	48.008	7.8074e-07	71.967	127.184	154.167	181.099	95.418	194.591	252.131	94.351	100.379	206.714	246.617	98.283	101.676	103.702	107.313	217.004	104.132	-8191	255	
1431.310	1	1	0	0	0.23594	0.050738	0.16291	0.21462	0.21034	0.047535	0.079065	0.35201	0.28362	0.15651	0.18514	0.13773	0.12479	0.13648	0.16156	0.14992	-3.8896	-4.4625	-4	-4.5521	-4.05	-4.1354	-4.5958	-4.0437	-4.1958	-4.6542	-4.1646	-4.7354	-4.3354	-4.3479	-4.5813	-4.4563	213.565	123.241	180.374	383.191	274.769	336.876	226.777	420.762	210.539	107.461	439.161	113.813	400.015	407.163	284.508	423.233	0.00098547	0.00041765	0.00014563	429.87	3.5681e-06	2.3487e-06	521.6	186.32	4.5167e-06	3.2582e-06	234.29	120.75	87.004	48.103	6.2277e-06	72.584	0.00013387	6.9283e-05	2.1258e-05	423.33	7.7923e-07	8.1823e-07	517.73	185.04	8.444e-07	7.377e-07	233.6	119.28	85.985	47.897	7.9662e-07	71.77	128.034	175.321	192.819	95.562	202.341	227.095	94.586	100.628	211.768	230.887	98.438	101.552	103.751	106.967	210.061	104.039	-8191	255	
1431.382	1	1	0	0	0.17357	0.26282	0.1367	0.10583	0.26186	0.10941	0.04514	0.05548	0.048783	0.10486	0.18953	0.17101	0.078486	0.10799	0.11721	0.28327	-3.6792	-4.5271	-3.9667	-4.2979	-4.3208	-3.8146	-4.5875	-4.2021	-4.2625	-4.65	-4.0375	-4.5	-4.5271	-4.0188	-4.4854	-4.2625	284.238	415.563	302.068	101.387	126.563	291.948	318.156	202.703	165.616	387.833	379.951	147.117	371.360	127.136	203.586	331.136	0.00098518	0.00033073	0.00010704	424.88	4.1271e-06	4.1105e-06	518.35	185.29	3.8854e-06	3.6312e-06	235.07	120.16	86.78	47.894	5.4422e-06	72.268	0.00013532	6.7873e-05	2.1797e-05	421.44	7.7349e-07	8.4786e-07	513.58	183.74	8.5347e-07	7.2161e-07	232.56	118.82	85.632	47.701	7.8937e-07	71.507	128.289	178.902	171.963	95.364	227.005	245.447	94.100	100.298	212.543	261.781	98.247	101.414	103.869	107.118	217.969	104.005	-8191	255	
1431.502	1	1	0	0	0.046551	0.096445	0.089111	0.025905	0.13191	0.14625	0.21434	0.13805	0.044641	0.19029	0.017329	0.028882	0.17781	0.034144	0.13722	0.16413	-3.7854	-4.5979	-4.1104	-4.25	-4.5896	-3.9333	-4.5583	-4.0083	-4.1146	-4.5125	-4.1896	-4.3625	-4.5146	-4.1062	-4.5708	-4.325	136.209	93.844	173.624	170.538	368.994	369.190	438.901	416.392	331.971	361.687	144.365	423.111	419.474	428.504	366.063	355.132	0.00097196	0.00044007	9.4525e-05	425.75	2.7603e-06	2.9557e-06	519.04	185.43	3.2767e-06	3.9806e-06	236.63	119.86	86.975	47.977	6.1164e-06	72.39	0.00013472	6.8764e-05	2.0597e-05	421.75	7.2496e-07	8.229e-07	514.29	183.83	8.6076e-07	7.3136e-07	233.2	118.9	85.846	47.74	7.9083e-07	71.621	130.135	167.515	181.944	95.505	246.950	242.529	94.354	100.652	206.914	230.014	98.097	101.846	103.578	107.266	210.858	104.139	-8191	255	
1431.598	1	1	0	0	0.11466	0.17807	0.2408	0.10393	0.29969	0.20254	0.24767	0.27192	0.1892	0.17995	0.23102	0.14008	0.089778	0.27908	0.16134	0.13152	-3.5917	-4.5375	-3.9604	-4.35	-4.5167	-3.925	-4.4229	-4.3271	-3.9917	-4.5833	-4.2	-4.3208	-4.6208	-4.2833	-4.3833	-4.5521	222.018	334.354	247.157	296.072	406.083	315.760	159.046	404.452	316.562	345.721	336.792	132.065	284.463	363.741	167.656	364.638	0.00096747	0.00030148	8.9882e-05	425.19	2.4616e-06	3.2813e-06	520.28	186.05	2.8331e-06	2.8625e-06	235.59	120.71	87.173	48.14	5.4097e-06	72.371	0.00013514	7.0106e-05	2.0125e-05	421.6	7.5122e-07	8.1901e-07	514.76	184.32	8.5301e-07	7.3798e-07	233.42	119.32	86.057	47.873	8.355e-07	71.833	130.806	168.404	173.908	95.147	215.846	246.516	94.211	100.148	228.598	242.492	98.193	101.508	103.598	107.274	220.579	103.997	-8191	255	
1431.693	1	1	0	0	0.11504	0.10926	0.16119	0.061821	0.12235	0.053169	0.11851	0.15726	0.1414	0.047418	0.020316	0.12031	0.27109	0.15586	0.091982	0.12857	-3.6917	-4.3688	-4.1021	-4.2	-4.6167	-3.9146	-4.4625	-4.5208	-3.9771	-4.3583	-4.3854	-4.2125	-4.5687	-4.1354	-4.1854	-4.4938	411.966	322.070	401.428	368.785	327.802	96.613	171.598	99.224	433.242	172.230	362.185	333.489	373.840	373.176	286.506	390.120	0.0009917	0.00031028	0.00011688	425.55	3.6175e-06	3.4997e-06	523.94	185.64	4.1234e-06	4.0159e-06	238.11	121.16	87.279	48.018	5.9187e-06	73.013	0.00013715	6.984e-05	1.9912e-05	422.12	7.5761e-07	8.2647e-07	517.22	184.32	8.6713e-07	7.5129e-07	234.59	119.74	86.058	47.922	8.4551e-07	72.132	129.637	176.013	205.223	95.258	194.751	250.892	94.624	100.502	228.710	217.078	98.275	101.474	103.624	107.088	219.882	104.012	-8191	255	
1431.789	1	1	0	0	0.19186	0.27364	0.070796	0.080712	0.060634	0.16114	0.066437	0.08171	0.088664	0.18775	0.19243	0.24178	0.12384	0.074393	0.21047	0.15377	-3.6021	-4.5333	-4.2542	-4.1125	-4.525	-4.0958	-4.3	-4.5875	-3.9146	-4.6604	-4.3021	-4.1562	-4.6021	-4.2208	-4.2771	-4.6292	246.096	266.534	127.809	163.687	218.341	159.995	343.477	303.168	353.580	332.738	355.275	295.456	403.998	434.917	338.099	369.478	0.0009481	0.00027466	0.00014364	427.37	3.7459e-06	2.0394e-06	520.32	185.46	4.1837e-06	3.3913e-06	237.52	121.19	87.082	47.894	5.4273e-06	71.984	0.00013271	7.0613e-05	1.971e-05	423.05	7.4562e-07	7.8034e-07	515.52	184.1	8.8032e-07	7.7015e-07	233.85	119.16	85.886	47.744	8.6805e-07	71.493	127.405	190.456	174.273	95.450	225.557	255.804	94.353	100.469	227.132	222.621	98.132	101.485	103.822	107.024	211.523	104.306	-8191	255	
1431.910	1	1	0	0	0.12921	0.086541	0.043226	0.19346	0.13998	0.16803	0.1738	0.33036	0.10557	0.10482	0.064793	0.093164	0.16702	0.03793	0.12474	0.032312	-3.6875	-4.2812	-4.3667	-4.0771	-4.4875	-4.1854	-4.3125	-4.4979	-3.925	-4.4542	-4.4	-4.1667	-4.4979	-4.3125	-3.9146	-4.7937	390.324	311.452	288.631	402.247	415.347	162.161	321.241	126.715	230.715	307.515	370.126	125.332	405.648	395.698	375.319	417.195	0.0009155	0.00036073	0.00010091	425.79	5.381e-06	3.5642e-06	519.9	185.4	4.2844e-06	3.5636e-06	235.63	120.13	86.716	47.741	3.9781e-06	72.091	0.00013383	7.32e-05	1.8855e-05	421.29	7.6303e-07	7.7414e-07	513.03	183.76	8.4421e-07	7.6594e-07	232.52	118.76	85.638	47.698	8.5657e-07	71.443	130.561	155.567	199.228	95.374	203.006	208.896	94.396	100.433	210.211	234.082	98.474	101.416	103.727	106.896	226.601	103.984	-8191	255	
1431.981	1	1	0	0	0.090671	0.1441	0.077042	0.07157	0.20886	0.21335	0.15164	0.065268	0.058943	0.23031	0.17942	0.11557	0.084909	0.19752	0.16086	0.11803	-3.65	-4.3063	-4.2771	-3.8937	-4.5271	-4.1479	-4.0146	-4.725	-4	-4.3458	-4.3896	-4.0208	-4.6813	-4.2937	-4.1	-4.6854	119.093	230.256	230.567	248.003	380.048	389.691	244.626	324.191	336.810	198.327	421.443	205.641	392.259	428.351	389.383	386.729	0.00098893	0.00050547	0.00012954	426.84	4.1853e-06	2.1003e-06	519.91	184.27	3.9202e-06	2.8953e-06	236.55	119.96	86.588	47.587	5.0922e-06	72.263	0.00013449	7.2879e-05	1.9822e-05	420.98	7.4695e-07	7.7914e-07	513.53	183.06	8.4087e-07	7.9396e-07	232.92	118.74	85.628	47.614	8.7268e-07	71.513	128.857	183.534	177.992	95.615	198.289	237.410	94.369	100.421	245.683	229.322	98.411	101.521	103.889	107.128	226.633	103.970	-8191	255	
1432.077	1	1	0	0	0.21715	0.1861	0.19731	0.1072	0.28104	0.15986	0.14679	0.19168	0.11822	0.074926	0.2303	0.22668	0.10726	0.11779	0.12176	0.061599	-3.6583	-4.1708	-4.6167	-3.8208	-4.3229	-4.4771	-3.9479	-4.5958	-4.0292	-4.2771	-4.6521	-4.0958	-4.5271	-4.5771	-3.8979	-4.5938	195.946	289.693	192.265	418.959	288.544	408.383	308.503	190.176	121.232	380.228	437.865	107.970	320.473	84.147	227.286	395.507	0.000969	0.00035431	0.00014142	426.76	3.3103e-06	3.6303e-06	520.97	184.3	3.8584e-06	3.3492e-06	236.44	120.87	86.946	47.842	5.4392e-06	72.246	0.00013259	7.4133e-05	1.9353e-05	421.25	7.7795e-07	7.4483e-07	514.67	183.44	8.197e-07	8.1083e-07	233.28	119.1	85.659	47.749	9.0619e-07	71.727	129.850	173.976	179.743	95.264	205.000	262.517	94.160	100.518	216.380	219.236	98.044	101.600	103.701	107.054	218.493	104.261	-8191	255	
1432.173	1	1	0	0	0.10874	0.14102	0.23957	0.046949	0.34022	0.29923	0.23179	0.091697	0.080422	0.047707	0.27126	0.18406	0.12028	0.14177	0.10629	0.15407	-3.6437	-4.0229	-4.45	-3.9479	-4.3438	-4.3417	-4.0188	-4.5771	-4.1771	-4.25	-4.7021	-4.1271	-4.2958	-4.675	-4.0167	-4.775	155.260	291.707	173.830	170.695	226.917	94.585	187.544	134.594	193.701	147.637	414.984	88.210	157.666	397.250	350.501	432.545	0.00096008	0.00019816	9.1757e-05	425.33	4.0897e-06	3.9305e-06	521.78	185.58	4.2611e-06	4.0176e-06	237.9	120.9	86.834	48.205	4.7442e-06	72.805	0.00013513	7.6927e-05	1.8846e-05	421.86	8.0651e-07	7.3487e-07	515.5	184.12	8.0292e-07	8.2049e-07	234.13	119.44	86.021	47.872	9.0197e-07	71.954	129.330	135.830	196.657	95.876	209.627	234.139	94.486	100.379	214.158	243.011	97.975	101.669	103.823	107.183	206.832	103.924	-8191	255	
1432.292	1	1	0	0	0.022599	0.20302	0.21755	0.22297	0.1194	0.07459	0.011664	0.19299	0.36653	0.1479	0.17946	0.28492	0.04733	0.3016	0.23559	0.13992	-3.7896	-3.9354	-4.5521	-4.0188	-4.2896	-4.5708	-3.9958	-4.4521	-4.2937	-4.0521	-4.6208	-4.1188	-4.1625	-4.7479	-3.9313	-4.5333	203.691	394.529	103.113	98.044	174.831	403.800	374.337	221.012	162.251	85.533	176.758	412.698	258.035	401.157	208.931	351.010	0.00097139	0.00038855	0.00010438	422.9	4.0556e-06	1.7879e-06	519.13	184.52	4.3001e-06	3.4016e-06	237.18	120.37	86.748	47.839	5.5179e-06	72.168	0.00013076	7.7163e-05	1.9386e-05	420.86	8.1257e-07	7.4913e-07	514.07	183.46	7.9752e-07	8.4143e-07	233.75	119.1	85.793	47.78	8.5441e-07	71.6	129.257	151.327	181.842	95.700	233.402	244.226	94.519	100.074	216.970	235.377	98.155	101.319	103.745	107.171	227.493	104.007	-8191	255	
1432.389	1	1	0	0	0.10211	0.16559	0.23157	0.205	0.10634	0.13168	0.25464	0.065296	0.11023	0.18962	0.17239	0.20539	0.20874	0.14938	0.11741	0.10202	-3.9125	-3.8187	-4.4354	-4.1667	-3.8958	-4.6146	-4.0792	-4.5062	-4.4667	-3.9938	-4.6792	-4.3125	-4.1896	-4.55	-3.9167	-4.5979	145.881	300.905	190.185	330.538	86.700	416.411	394.903	338.857	426.097	314.738	377.277	406.148	436.867	160.810	390.992	393.623	0.00094052	0.0003833	0.00014675	423.13	3.8644e-06	5.3908e-06	518.83	185.58	4.0722e-06	2.9304e-06	235.94	120.08	86.869	47.932	4.7343e-06	72.345	0.00012882	7.6885e-05	1.9118e-05	419.75	8.1964e-07	7.4839e-07	513.07	183.63	7.6759e-07	8.2488e-07	233.17	119.06	85.866	47.813	8.551e-07	71.688	129.065	168.242	168.277	95.347	219.596	248.191	94.418	100.548	229.214	244.532	98.625	101.609	103.467	107.274	232.112	103.984	-8191	255	
1432.485	1	1	0	0	0.078257	0.2143	0.18874	0.1575	0.1679	0.17689	0.083418	0.108	0.1286	0.2093	0.17684	0.07192	0.2318	0.26235	0.24229	0.24538	-4.0104	-3.9708	-4.5437	-4.1792	-3.9646	-4.525	-4.0729	-4.1438	-4.3542	-4.0437	-4.6125	-4.3583	-4.1208	-4.5375	-3.8521	-4.3938	372.813	149.750	87.057	313.359	102.707	259.822	236.096	379.805	429.651	220.931	98.649	423.494	432.813	141.098	227.404	389.581	0.0010156	7.8339e-05	9.1552e-05	423.58	5.1927e-06	2.3946e-06	519.9	185.47	4.6144e-06	5.1567e-06	238.22	120.88	87.657	47.989	6.147e-06	72.703	0.00013251	8.0578e-05	1.929e-05	420.31	8.4935e-07	7.5566e-07	515.14	184.06	7.7799e-07	8.1786e-07	234.63	119.55	86.205	47.873	8.4519e-07	71.972	129.957	230.442	197.714	95.429	202.756	247.165	94.392	100.387	219.956	239.509	98.437	101.689	103.784	107.363	236.268	104.207	-8191	255	
1432.581	1	1	0	0	0.085289	0.1483	0.18794	0.02398	0.14686	0.14157	0.15392	0.12777	0.18104	0.1379	0.049211	0.075989	0.32326	0.039442	0.052939	0.20641	-4.0042	-3.8625	-4.5042	-4.2625	-4.05	-4.6104	-4.2188	-4.1958	-4.5292	-4.0312	-4.5354	-4.4229	-4.1604	-4.6062	-4.3229	-4.2958	284.585	94.759	161.965	141.564	417.657	93.277	419.364	359.179	296.782	402.372	84.523	397.397	424.664	415.911	324.541	398.499	0.00095077	0.00035504	8.6894e-05	425.35	5.3527e-06	3.5883e-06	521.55	186.35	2.884e-06	3.6494e-06	238.6	121.3	87.799	48.203	6.0351e-06	72.907	0.00012867	7.8138e-05	1.9331e-05	421.39	8.3429e-07	7.4223e-07	516.86	185.14	7.4967e-07	8.1735e-07	236.18	119.94	86.485	48.077	8.405e-07	72.245	128.259	147.583	181.338	95.650	207.716	229.328	94.261	100.597	216.226	207.867	98.248	101.607	103.644	107.324	233.562	104.214	-8191	255	
1432.677	1	1	0	0	0.071603	0.13354	0.21534	0.20494	0.13094	0.085859	0.15199	0.31006	0.16593	0.18351	0.1921	0.25	0.15735	0.28623	0.07556	0.1334	-4.175	-3.9625	-4.3375	-4.4354	-3.8563	-4.4375	-4.2646	-4.175	-4.4646	-4.0396	-4.3438	-4.4625	-3.8688	-4.5062	-4.1354	-4.2854	133.723	389.437	97.836	117.762	107.804	112.224	297.425	87.530	321.617	160.383	117.198	399.030	165.286	413.532	312.977	341.643	0.00095937	0.00045934	0.00015325	430.01	4.3026e-06	1.9628e-06	524.84	187.13	5.704e-06	3.6245e-06	239.92	121.95	88.002	48.364	6.3606e-06	73.009	0.0001286	7.6614e-05	2.0775e-05	423.87	8.7052e-07	7.5316e-07	519.03	185.83	7.8991e-07	8.0057e-07	236.66	120.39	86.678	48.172	8.2848e-07	72.393	128.977	156.956	173.232	95.627	200.137	260.681	94.437	100.507	208.245	203.407	98.141	101.652	104.037	107.105	237.456	103.995	-8191	255	
1432.773	1	1	0	0	0.18077	0.079935	0.038389	0.1836	0.072138	0.091144	0.16592	0.19039	0.11951	0.047606	0.24309	0.095364	0.15547	0.042045	0.11782	0.15487	-4.1813	-4.1875	-4.35	-4.4812	-4.0208	-4.4938	-4.2021	-4.1021	-4.5625	-4.1	-4.3458	-4.4729	-3.8771	-4.5729	-4.3792	-4.2063	390.966	396.176	264.935	107.432	368.133	244.043	364.816	369.169	188.307	375.732	408.087	342.878	103.250	219.500	210.399	140.007	0.00097976	0.00042884	5.5955e-05	424.37	2.7131e-06	3.6781e-06	520.2	186.09	3.8922e-06	4.2564e-06	238.09	121.37	87.449	48.149	5.6844e-06	72.758	0.000132	7.385e-05	2.0345e-05	421.56	8.5789e-07	7.54e-07	515.97	184.84	7.6722e-07	7.9197e-07	235.66	119.84	86.29	47.953	8.1255e-07	72.076	128.993	175.295	214.643	95.431	218.652	238.186	94.402	100.413	217.344	234.878	98.372	101.543	103.631	107.211	238.889	104.166	-8191	255	
1432.869	1	1	0	0	0.12251	0.062039	0.054551	0.16838	0.097667	0.17549	0.023546	0.1714	0.24529	0.15695	0.23088	0.06407	0.11515	0.12503	0.070088	0.28206	-4.2896	-4.125	-4.2896	-4.5687	-4.0312	-4.4646	-4.3438	-3.9938	-4.5917	-4.2625	-4.2	-4.5292	-4.0604	-4.4042	-4.3146	-4.3313	156.446	142.236	112.509	341.731	417.020	236.715	277.933	414.813	367.214	159.167	98.964	147.153	378.781	280.597	438.276	398.499	0.00096301	0.00020951	5.0816e-05	424.33	3.8998e-06	4.4868e-06	520.45	186.32	3.8993e-06	5.2247e-06	237.07	120.93	87.097	48.261	5.1291e-06	72.501	0.00012779	7.6159e-05	2.1323e-05	421.92	8.2263e-07	7.8641e-07	514.94	184.68	7.9719e-07	7.8642e-07	234.75	119.41	86.016	47.937	7.7986e-07	71.881	129.006	171.708	172.998	95.282	190.608	233.204	94.124	100.307	194.666	242.950	98.233	101.635	103.850	107.103	219.883	104.243	-8191	255	
1432.990	1	1	0	0	0.053295	0.15156	0.19793	0.093825	0.20013	0.071464	0.2104	0.18988	0.10845	0.085389	0.25617	0.4395	0.1556	0.19834	0.074063	0.10172	-4.2562	-4.1875	-4.0208	-4.6	-3.9708	-4.2833	-4.525	-4.0771	-4.5292	-4.2042	-4.2917	-4.7188	-4.2417	-4.4583	-4.5396	-4.0813	233.066	400.629	122.489	353.355	411.848	191.439	344.565	435.120	374.026	89.475	271.303	419.377	399.195	413.444	429.257	370.020	0.00094608	0.00035289	6.5983e-05	422.04	2.8306e-06	3.1521e-06	520.09	185.73	4.8117e-06	3.3262e-06	237.6	121.41	87.3	47.928	5.9504e-06	72.437	0.00012749	7.5103e-05	2.1017e-05	419.36	8.336e-07	7.909e-07	514.79	184.62	7.7726e-07	7.7223e-07	235.28	119.61	86.214	47.899	7.9634e-07	71.943	128.304	154.151	147.011	95.693	209.449	244.228	94.066	100.477	209.516	246.586	98.130	101.649	103.618	107.145	205.186	104.102	-8191	255	
1433.084	1	1	0	0	0.21515	0.17275	0.15307	0.35368	0.18936	0.041393	0.11867	0.18416	0.18612	0.13763	0.25002	0.27085	0.039925	0.39311	0.32394	0.31458	-4.1229	-4.2375	-4.15	-4.7063	-4.225	-4.2333	-4.7146	-4.0208	-4.5708	-4.3812	-4.1292	-4.6854	-4.1813	-4.2958	-4.4437	-4.1583	349.295	315.990	237.050	381.202	242.421	409.920	358.191	432.666	297.741	316.901	399.688	290.321	94.691	427.419	148.346	373.943	0.00096668	0.00040684	0.00011412	424.59	2.9296e-06	3.1919e-06	519.18	185.81	5.4445e-06	3.0549e-06	238.82	121.75	87.188	48.412	3.4701e-06	73.012	0.00013091	6.9334e-05	2.0853e-05	420.95	8.3553e-07	7.8308e-07	514.9	184.78	8.103e-07	7.6275e-07	235.9	120.1	86.244	48.072	7.862e-07	72.223	128.080	169.748	179.767	95.673	205.065	231.208	94.127	100.641	221.014	204.873	98.429	101.439	103.609	107.148	237.582	103.875	-8191	255	
1433.180	1	1	0	0	0.087995	0.17381	0.092296	0.082519	0.15747	0.18701	0.20889	0.24625	0.17579	0.067237	0.19942	0.087323	0.13496	0.28796	0.023693	0.31314	-4.0208	-4.375	-3.9396	-4.5104	-4.1312	-4.0354	-4.6188	-3.8063	-4.425	-4.3875	-4.0896	-4.4521	-4.2188	-4.3042	-4.3542	-4.1729	168.097	361.214	440.396	218.623	224.567	186.917	293.768	415.465	366.261	123.930	87.703	380.576	397.868	400.796	207.065	388.261	0.00097829	0.00060058	0.00012153	423.28	3.2316e-06	3.6281e-06	519.27	186.54	3.5567e-06	3.2582e-06	241.54	121.39	87.472	48.225	5.7655e-06	72.738	0.00013262	6.9849e-05	2.1029e-05	420.27	8.0706e-07	8.1512e-07	515.95	185.03	8.0192e-07	7.6719e-07	236.95	120.15	86.354	48.037	7.9042e-07	72.016	130.592	191.660	165.069	95.434	223.218	240.500	94.533	100.788	218.351	226.264	98.513	101.438	103.804	107.242	195.235	104.156	-8191	255	
1433.277	1	1	0	0	0.11643	0.10457	0.034931	0.14648	0.15901	0.14537	0.056616	0.21426	0.16079	0.15398	0.1331	0.0087597	0.033915	0.15452	0.2041	0.2925	-4.025	-4.3854	-3.9708	-4.5542	-4.2625	-4.0708	-4.6188	-4.1312	-4.2479	-4.4229	-4.1708	-4.4792	-4.2625	-4.0437	-4.6438	-4.2833	122.637	359.061	259.293	441.264	138.745	188.234	184.186	318.564	237.584	352.170	342.343	128.670	318.582	120.906	441.534	406.882	0.00098052	0.0002297	6.0495e-05	426.53	3.4211e-06	3.5413e-06	522.81	185.85	4.3223e-06	4.2187e-06	237.85	120.61	86.917	47.838	5.2953e-06	71.891	0.00013214	6.9798e-05	2.147e-05	421.3	7.9696e-07	8.2184e-07	514.75	184.56	8.158e-07	7.585e-07	234.79	119.25	85.837	47.647	7.9712e-07	71.296	129.317	184.148	173.472	95.051	183.723	230.621	94.344	100.733	232.139	230.749	98.137	101.493	103.803	107.235	233.250	104.021	-8191	255	
1433.373	1	1	0	0	0.13309	0.2463	0.11944	0.092141	0.21037	0.16976	0.145	0.095093	0.075539	0.27322	0.17049	0.12802	0.030589	0.070421	0.20906	0.16193	-3.9854	-4.3063	-3.9688	-4.4812	-4.2979	-4.025	-4.725	-4.1937	-4.2021	-4.6958	-4.0208	-4.4375	-4.4208	-4.2125	-4.5542	-4.3063	115.377	233.582	90.533	273.738	357.529	115.898	297.113	195.318	210.737	229.010	430.572	394.769	104.366	422.176	285.971	358.342	0.00095558	0.00039853	0.00012419	421.07	5.1181e-06	2.2638e-07	517.55	185.13	2.8587e-06	3.9465e-06	236.64	119.93	86.812	47.551	4.2289e-06	71.645	0.00013475	6.8907e-05	2.117e-05	417.47	7.8663e-07	8.3082e-07	512.36	183.52	8.4192e-07	7.5476e-07	233.72	118.42	85.468	47.414	8.2678e-07	70.956	128.055	161.551	182.241	95.251	197.240	141.375	94.410	100.370	218.011	234.745	98.090	101.357	103.768	107.055	201.416	104.123	-8191	255	
1433.469	1	1	0	0	0.1494	0.11235	0.10133	0.13445	0.041684	0.20777	0.17294	0.11213	0.069135	0.035959	0.061124	0.14121	0.26844	0.10426	0.13152	0.10313	-3.725	-4.4458	-4	-4.3646	-4.4292	-4.0854	-4.6062	-4.3292	-4.2646	-4.5146	-4.0771	-4.5563	-4.5396	-4.05	-4.4938	-4.3083	363.319	186.416	287.536	87.448	433.196	348.151	133.417	107.700	273.899	137.626	401.908	399.245	382.134	151.499	152.333	380.983	0.00096062	0.00034595	0.00013107	419.59	4.2669e-06	4.3778e-06	518.05	185.28	2.8544e-06	3.9041e-06	238.27	120.78	86.307	47.587	4.8834e-06	71.938	0.00013387	7.0528e-05	2.0989e-05	416.45	7.4397e-07	8.5828e-07	511.9	183.54	8.5874e-07	7.6132e-07	234.77	118.95	85.488	47.492	8.0768e-07	71.267	127.076	159.187	196.437	95.604	212.485	210.995	94.348	100.662	201.671	241.536	98.434	101.588	103.538	107.309	218.213	103.997	-8191	255	
1433.590	1	1	0	0	0.17034	0.021248	0.19568	0.23812	0.06306	0.17294	0.13704	0.25685	0.22398	0.28933	0.1403	0.097107	0.14451	0.09548	0.1037	0.13334	-3.6375	-4.5417	-3.9667	-4.1396	-4.3583	-3.8542	-4.5062	-4.4	-4.0563	-4.4917	-4.1813	-4.2688	-4.6104	-4.0792	-4.3979	-4.4229	241.753	290.800	295.560	379.890	255.787	213.392	299.069	125.699	213.215	246.048	320.478	441.888	230.104	113.406	242.234	396.871	0.00095948	0.00045259	0.00011825	421.97	3.0766e-06	3.4722e-06	516.94	185.16	3.006e-06	3.9829e-06	239.05	121.13	86.842	47.912	4.5663e-06	72.217	0.0001368	6.9275e-05	2.1106e-05	418.37	7.5269e-07	8.5347e-07	513.54	183.62	8.6841e-07	7.4754e-07	235.66	119.41	85.761	47.669	8.3187e-07	71.553	129.445	166.213	189.647	95.342	213.274	226.858	94.550	100.456	233.662	251.993	98.479	101.678	103.608	107.430	229.899	104.122	-8191	255	
1433.686	1	1	0	0	0.18251	0.082402	0.18068	0.042984	0.15068	0.196	0.2023	0.19942	0.080033	0.076908	0.14506	0.17588	0.088593	0.026247	0.26701	0.26531	-3.7708	-4.5521	-3.9833	-4.0479	-4.5708	-4.0417	-4.4563	-4.3958	-4.0625	-4.6146	-4.3292	-4.2458	-4.5042	-4.275	-4.3521	-4.3896	281.121	441.920	331.328	96.343	152.010	256.541	336.104	328.829	262.182	305.963	152.601	302.324	270.373	217.160	354.740	388.992	0.00091404	0.00021812	0.000137	422.22	4.31e-06	2.4564e-06	524.67	186.45	3.3712e-06	4.7911e-06	240.51	121.57	86.842	47.81	4.6848e-06	72.329	0.00013582	7.1275e-05	2.0757e-05	419.37	7.678e-07	8.6602e-07	516.79	184.63	8.7116e-07	7.7131e-07	236.69	119.63	85.755	47.665	8.3848e-07	71.561	129.901	151.931	200.439	95.251	197.282	216.483	94.485	100.578	236.666	246.512	98.429	101.497	103.602	107.146	228.392	104.164	-8191	255	
1433.782	1	1	0	0	0.17232	0.20474	0.17836	0.17299	0.20426	0.14833	0.022687	0.15039	0.018101	0.12352	0.2846	0.20911	0.11779	0.18624	0.12064	0.26554	-3.6542	-4.4292	-4.1813	-4.0792	-4.625	-4.1562	-4.4417	-4.5125	-3.9813	-4.5104	-4.2937	-4.1562	-4.7646	-4.3375	-4.2208	-4.4542	106.954	337.205	113.608	433.441	144.846	292.089	224.220	423.858	328.072	121.586	342.902	384.819	386.988	382.340	188.802	346.908	0.00096496	0.00039229	7.6365e-05	423.7	3.0568e-06	3.0477e-06	518.57	184.98	2.7154e-06	3.7013e-06	237.05	120.43	86.7	47.788	4.7863e-06	72.478	0.00013654	7.1896e-05	2.0555e-05	419.23	7.6973e-07	8.4703e-07	513.84	183.95	8.8051e-07	7.7246e-07	235.01	118.92	85.784	47.614	8.6928e-07	71.49	128.293	191.857	179.266	95.709	201.703	221.629	94.195	100.585	227.742	240.721	98.505	101.874	103.806	107.171	218.266	103.773	-8191	255	
1433.878	1	1	0	0	0.20897	0.19026	0.087723	0.048687	0.1843	0.12801	0.16153	0.28904	0.045507	0.047713	0.088831	0.089498	0.15327	0.094195	0.25786	0.039565	-3.55	-4.3271	-4.2562	-4.1479	-4.5687	-4.0792	-4.2792	-4.6083	-3.9458	-4.5521	-4.4354	-4.0021	-4.5687	-4.1583	-4.1167	-4.625	437.852	153.680	267.346	242.505	287.135	181.143	347.430	356.640	388.574	94.654	195.595	108.720	429.308	159.698	318.918	133.386	0.00096878	0.00032213	8.6975e-05	425.75	3.0363e-06	2.9724e-06	521.24	185.23	4.4765e-06	3.7287e-06	237.65	120.5	86.823	47.733	3.7572e-06	72.353	0.00013671	7.2195e-05	1.9662e-05	419.56	7.6238e-07	8.1045e-07	515.1	183.84	8.6538e-07	8.0186e-07	235.19	119.12	85.709	47.63	8.9889e-07	71.499	128.912	192.002	198.253	95.427	231.365	235.052	94.357	100.449	219.141	232.936	98.481	101.713	103.657	107.071	200.462	104.143	-8191	255	
1433.950	1	1	0	0	0.11411	0.13055	0.13988	0.10579	0.088992	0.064012	0.22765	0.050777	0.13032	0.13531	0.18183	0.069036	0.19956	0.28565	0.14106	0.24776	-3.5396	-4.3417	-4.2979	-4.0042	-4.4271	-4.1396	-4.1708	-4.6771	-3.9	-4.2833	-4.4542	-4.0188	-4.5542	-4.2917	-4.1208	-4.6062	272.665	170.188	350.534	139.380	145.835	370.429	422.295	255.849	366.781	157.009	296.282	346.895	371.954	396.298	404.063	410.945	0.00095518	0.000428	0.00013538	421.72	4.4688e-06	3.3744e-06	520.49	185.9	3.949e-06	2.1033e-06	237.52	120.89	87.206	47.949	6.0083e-06	72.018	0.00013539	7.2985e-05	1.9896e-05	418.54	7.9554e-07	8.3286e-07	513.44	184.18	8.6593e-07	8.1971e-07	235.56	119.5	85.989	47.754	8.8806e-07	71.54	128.703	170.966	187.592	95.604	225.664	231.949	94.277	100.593	229.817	245.767	98.219	101.573	103.600	107.031	218.156	103.963	-8191	255	
1434.069	1	1	0	0	0.15586	0.21704	0.16265	0.16615	0.024503	0.11494	0.074782	0.1908	0.096224	0.098734	0.26483	0.20642	0.27802	0.21463	0.092196	0.29698	-3.7271	-4.1958	-4.3438	-3.8937	-4.4437	-4.3167	-3.9229	-4.675	-3.9646	-4.2917	-4.5417	-4.1229	-4.3271	-4.4583	-3.9688	-4.6083	349.808	342.219	189.701	146.000	376.784	316.237	324.071	405.236	345.771	132.378	115.037	379.613	169.400	406.687	333.989	116.095	0.00094858	0.00035913	0.00012014	422.77	5.0132e-06	3.0802e-06	521.06	186.47	3.3252e-06	3.3281e-06	240.83	121.18	87.589	48.005	3.2019e-06	72.57	0.00013709	7.6441e-05	1.9503e-05	418.71	7.988e-07	7.6775e-07	515.68	184.52	8.5182e-07	8.0348e-07	236.86	119.87	86.074	47.752	8.9499e-07	71.765	128.909	186.212	193.142	95.577	205.866	254.278	94.468	100.587	210.989	228.760	98.051	101.532	103.986	107.193	236.159	104.248	-8191	255	
1434.165	1	1	0	0	0.25087	0.070314	0.18784	0.11607	0.20065	0.17435	0.081899	0.26319	0.22227	0.098128	0.28072	0.12636	0.3185	0.15142	0.093033	0.15536	-3.6125	-4.2312	-4.4625	-4.1188	-4.4625	-4.5625	-4.2417	-4.6188	-4.2625	-4.3771	-4.5833	-4.0938	-4.4938	-4.4604	-3.8271	-4.5292	434.926	175.243	163.380	381.545	178.265	200.609	301.780	407.896	245.196	113.286	164.800	413.818	438.337	371.812	355.202	387.797	0.00096292	0.00039843	7.2982e-05	422.03	3.5482e-06	4.289e-06	521.66	185.4	2.9248e-06	4.3656e-06	240.39	120.8	87.418	47.831	5.5179e-06	72.419	0.0001348	7.6104e-05	1.9649e-05	418.51	8.0904e-07	7.7511e-07	515.01	184.45	8.5342e-07	8.1892e-07	236.9	119.5	86.221	47.711	8.8921e-07	71.681	130.091	157.382	181.350	95.490	215.479	235.358	94.298	100.413	192.536	230.162	98.103	101.605	103.669	107.283	220.402	104.078	-8191	255	
1434.261	1	1	0	0	0.10458	0.13442	0.21496	0.14377	0.15662	0.11343	0.09116	0.12367	0.097609	0.10431	0.097582	0.17734	0.081174	0.21531	0.0076833	0.087945	-3.8729	-4.0563	-4.4271	-4.0375	-4.2958	-4.5292	-4.0646	-4.5042	-4.45	-4.1167	-4.625	-4.1104	-4.3521	-4.4896	-3.7562	-4.5896	216.789	247.006	251.678	330.316	331.752	111.447	406.615	362.101	95.426	348.871	223.967	406.527	97.260	344.648	415.198	311.726	0.00096027	0.0003906	8.1806e-05	421.11	4.5495e-06	5.0929e-06	520.68	185.79	3.427e-06	3.5597e-06	238.72	120.45	87.251	47.716	4.1506e-06	71.924	0.0001334	7.7235e-05	1.9333e-05	417.43	8.2644e-07	7.6965e-07	514.93	184.53	8.114e-07	8.6131e-07	235.91	119.18	86.103	47.598	8.8218e-07	71.339	129.725	191.944	154.325	95.581	228.554	262.822	94.654	100.358	214.342	240.256	98.293	101.409	103.884	107.384	210.950	104.166	-8191	255	
1434.381	1	1	0	0	0.16264	0.093015	0.21101	0.069511	0.033892	0.20511	0.13255	0.1389	0.13384	0.22378	0.083818	0.11778	0.099857	0.37738	0.13507	0.30184	-3.8167	-4.1104	-4.7229	-4.0479	-4.2604	-4.4187	-3.8771	-4.5875	-4.4021	-3.9313	-4.5917	-4.1813	-4.3625	-4.7104	-4.0083	-4.4875	121.346	428.141	253.901	305.421	216.122	381.292	396.442	177.534	83.193	176.551	337.696	265.421	394.110	393.273	299.126	341.045	0.00096315	0.00040037	8.2986e-05	423.23	4.2801e-06	3.6507e-06	516.86	185.71	4.294e-06	2.0906e-06	238.7	120.73	87.073	47.663	2.5561e-06	71.932	0.00012924	7.7028e-05	1.9811e-05	417.1	8.4426e-07	7.5099e-07	512.45	184.21	8.0535e-07	8.6039e-07	236.22	119.22	85.937	47.616	8.7098e-07	71.401	129.158	162.339	188.609	95.493	198.406	242.922	94.626	100.689	229.069	246.499	98.161	101.826	103.769	107.123	225.263	104.088	-8191	255	
1434.478	1	1	0	0	0.15918	0.054734	0.18167	0.093791	0.21881	0.2781	0.097029	0.13663	0.20454	0.14789	0.064624	0.076092	0.13024	0.07228	0.20315	0.028064	-3.8667	-4.1167	-4.4	-4.0729	-4.0583	-4.5583	-4.1625	-4.4396	-4.3771	-4.0417	-4.525	-4.2562	-4.2229	-4.6292	-3.9604	-4.3812	116.026	428.460	294.310	404.579	248.600	247.118	287.110	286.656	255.408	175.859	436.061	373.165	359.165	396.786	221.704	327.425	0.00096118	0.0002506	0.00015059	420.07	4.8071e-06	3.701e-06	522.09	186.2	3.0447e-06	3.0826e-06	240.18	121.24	87.205	47.949	6.3112e-06	72.367	0.00013073	7.8649e-05	2.0037e-05	416.79	8.662e-07	7.6335e-07	514.3	184.72	8.081e-07	8.3713e-07	236.88	119.67	86.298	47.728	8.8209e-07	71.699	128.946	156.899	189.822	95.763	218.560	224.055	94.124	100.319	199.481	225.786	98.422	101.617	103.595	107.201	230.233	104.189	-8191	255	
1434.549	1	1	0	0	0.14968	0.10234	0.16152	0.054378	0.2104	0.051236	0.11766	0.12511	0.15433	0.056646	0.10581	0.25468	0.26638	0.20152	0.13297	0.13159	-3.8979	-4.0042	-4.3833	-4.3021	-3.925	-4.6021	-4.2063	-4.225	-4.4479	-3.9833	-4.4583	-4.3313	-4.125	-4.6188	-4.1604	-4.2646	387.755	238.181	301.807	89.914	360.213	157.524	162.876	107.103	322.302	121.267	111.442	411.946	406.600	360.644	255.040	439.488	0.00097397	0.00037094	8.8384e-05	421.2	3.331e-06	2.2923e-06	519.45	185.99	4.3862e-06	3.9994e-06	241.16	121.1	87.285	47.842	5.7899e-06	72.264	0.00013184	7.8311e-05	2.0318e-05	417.42	8.8241e-07	7.5506e-07	513.01	184.39	7.9683e-07	8.7301e-07	237.58	119.65	86.443	47.761	8.8255e-07	71.754	130.847	193.016	199.573	95.611	196.655	220.514	94.427	100.462	216.014	227.090	98.267	101.321	103.899	107.129	222.850	104.148	-8191	255	
1434.670	1	1	0	0	0.2707	0.099525	0.06495	0.16522	0.093435	0.20613	0.1996	0.067831	0.061829	0.076601	0.21295	0.13131	0.19961	0.29489	0.063256	0.14664	-4.1375	-4.0062	-4.4875	-4.3917	-4.1375	-4.5667	-4.2021	-4.0938	-4.5	-3.9708	-4.5188	-4.4521	-3.9521	-4.6667	-4.1875	-4.3063	143.621	124.955	383.240	119.409	203.534	183.382	379.833	251.451	207.316	273.314	377.849	398.707	115.128	353.238	157.756	276.199	0.00097235	0.00024766	0.00010601	420.88	3.1484e-06	2.1518e-06	516.24	185.6	4.1787e-06	3.2786e-06	240.02	120.67	87.133	47.74	5.2158e-06	71.905	0.00012841	8.0687e-05	2.0593e-05	416.44	8.544e-07	7.7706e-07	512.88	183.83	7.8294e-07	8.5336e-07	236.37	119.18	86.025	47.551	8.685e-07	71.269	129.207	171.646	170.437	95.531	184.513	218.338	94.482	100.583	220.709	234.867	98.320	101.618	103.483	107.117	216.546	103.975	-8191	255	
1434.766	1	1	0	0	0.11315	0.16995	0.14553	0.2868	0.2384	0.082649	0.023858	0.12796	0.21498	0.16495	0.17546	0.15191	0.22104	0.23204	0.11823	0.30086	-4.1979	-4.1125	-4.3688	-4.4833	-4.1312	-4.5604	-4.3729	-4.0813	-4.5771	-4.0062	-4.3833	-4.6167	-4.0437	-4.6937	-4.0958	-4.1104	368.126	284.833	427.254	115.926	409.342	327.706	292.684	323.654	313.409	439.861	113.317	345.872	366.406	364.126	346.595	354.787	0.00097122	0.00046366	0.00010199	417.66	3.0326e-06	2.9366e-06	515.35	184.29	3.6796e-06	3.6352e-06	237.68	120.2	86.487	47.218	3.614e-06	71.945	0.00012966	8.3085e-05	2.0971e-05	414.54	8.6653e-07	7.9868e-07	509.26	182.82	8.2309e-07	8.2026e-07	234.75	118.61	85.57	47.264	8.3527e-07	71.069	130.438	185.555	174.520	95.701	199.131	253.541	94.188	100.691	217.668	232.784	98.268	101.469	103.519	107.240	259.059	104.293	-8191	255	
1434.862	1	1	0	0	0.097412	0.19409	0.10923	0.12011	0.23887	0.10338	0.25032	0.19258	0.12328	0.12319	0.16203	0.11581	0.037446	0.039279	0.0904	0.32814	-4.0521	-3.9604	-4.2812	-4.4646	-3.9729	-4.5021	-4.3583	-3.9958	-4.7167	-4.2104	-4.3	-4.5646	-3.9437	-4.4208	-4.3708	-4.0563	99.243	274.087	266.522	99.315	239.193	232.421	382.031	194.946	383.837	330.625	394.548	408.749	311.406	407.260	269.037	365.392	0.00094823	0.00049829	9.9962e-05	417.77	2.6789e-06	4.2231e-06	515.02	184.84	4.073e-06	1.8358e-06	236.66	120.47	86.832	47.497	5.9631e-06	71.907	0.00013196	7.8881e-05	2.1666e-05	413.76	8.8664e-07	8.1887e-07	508.57	182.89	7.9939e-07	8.2294e-07	234.84	118.76	85.659	47.418	8.248e-07	71.254	127.906	170.059	191.833	95.295	201.168	217.320	94.471	100.460	233.307	217.102	98.189	101.344	103.585	107.116	235.399	104.027	-8191	255	
1434.983	1	1	0	0	0.069903	0.25309	0.20823	0.13773	0.094645	0.12864	0.10607	0.077756	0.27955	0.27057	0.19664	0.12956	0.19905	0.1445	0.042356	0.062146	-4.2312	-4.1375	-4.0917	-4.5188	-4.0521	-4.2729	-4.4792	-3.9208	-4.4042	-4.2125	-4.1542	-4.8333	-4.0958	-4.4125	-4.3896	-4.1188	200.897	376.548	244.698	193.264	144.383	383.550	429.654	297.205	377.212	393.362	131.217	82.952	410.209	134.340	281.388	378.037	0.00096948	0.00041071	0.00012771	417.6	3.1554e-06	2.0038e-06	513.65	185.16	4.1678e-06	3.1574e-06	240.59	120.62	86.466	47.779	4.9827e-06	72.232	0.0001317	7.6091e-05	2.1464e-05	413.95	8.8696e-07	8.204e-07	508.79	183.23	8.2781e-07	7.8809e-07	236.76	119.22	85.711	47.661	8.0516e-07	71.541	128.683	157.480	182.521	94.893	214.610	232.964	94.481	100.347	226.576	206.273	98.613	101.580	103.819	107.091	212.920	104.123	-8191	255	
1435.077	1	1	0	0	0.28067	0.15051	0.22145	0.17357	0.1338	0.26207	0.13626	0.14072	0.21066	0.22555	0.21819	0.25365	0.19027	0.064797	0.1266	0.16843	-4.1583	-4.2333	-3.9854	-4.5875	-3.9562	-4.325	-4.65	-4.0312	-4.5479	-4.4125	-4.0854	-4.6312	-4.025	-4.3396	-4.4688	-4.2354	174.639	395.610	412.367	412.931	364.755	242.520	233.274	316.328	219.276	280.070	187.248	399.539	325.576	115.825	396.368	419.491	0.00097318	0.00048367	0.0001201	416.82	3.3902e-06	2.7597e-06	518.41	186.18	3.6259e-06	2.4321e-06	239.28	121.53	87.318	47.819	5.9737e-06	72.474	0.00013288	7.3204e-05	2.2084e-05	414.16	8.6946e-07	8.0896e-07	511.13	184.3	8.2254e-07	7.9876e-07	237.05	119.88	86.063	47.758	8.2283e-07	71.979	130.008	182.927	198.607	95.607	218.208	249.135	94.316	100.732	230.832	226.202	98.084	101.701	103.658	107.237	226.409	104.100	-8191	255	
1435.149	1	1	0	0	0.22453	0.050051	0.20268	0.057551	0.20532	0.20794	0.013122	0.14929	0.055895	0.2654	0.030337	0.20258	0.27174	0.17866	0.090452	0.25813	-3.8646	-4.3208	-3.8354	-4.6708	-4.0104	-4.0833	-4.5979	-3.9562	-4.3479	-4.2958	-4.1292	-4.8187	-4.2917	-4.2979	-4.6687	-4.1917	347.681	243.848	263.217	358.124	94.933	358.316	416.782	408.804	242.890	322.218	416.963	291.081	303.230	406.724	272.389	338.093	0.0010026	0.00033846	6.253e-05	421.79	3.3595e-06	3.8937e-06	518.58	184.59	3.171e-06	2.6171e-06	239.29	120.78	86.768	47.881	6.1549e-06	72.327	0.00013632	7.3428e-05	2.2078e-05	416.48	8.3943e-07	8.4712e-07	512.54	183.73	8.3757e-07	7.7094e-07	237.1	119.61	85.97	47.704	7.985e-07	71.572	128.362	190.610	184.283	95.694	202.947	246.773	94.531	100.483	238.940	217.319	98.466	101.558	103.514	107.153	219.883	103.855	-8191	255	
1435.270	1	1	0	0	0.29478	0.08441	0.23422	0.058128	0.22311	0.29761	0.21276	0.089198	0.052256	0.18777	0.23297	0.09486	0.14186	0.36068	0.078185	0.26425	-4.125	-4.4521	-3.9333	-4.6125	-4.1646	-4.0708	-4.5167	-4.2937	-4.2438	-4.4354	-4.0646	-4.5437	-4.2063	-4.1458	-4.5271	-4.3042	283.552	328.938	122.851	331.636	186.893	248.099	440.586	239.630	121.609	293.862	395.580	408.825	224.701	415.947	311.408	357.929	0.00097845	0.00037138	9.4804e-05	420.14	3.516e-06	2.5963e-06	514.16	184.06	3.0115e-06	4.0646e-06	238.79	120.96	87.125	47.938	6.5948e-06	72.168	0.00013288	7.1537e-05	2.2045e-05	415.28	8.0311e-07	8.3712e-07	509.67	183.22	8.4279e-07	7.5568e-07	236.64	119.08	85.945	47.617	8.1897e-07	71.394	128.316	158.875	196.574	95.401	210.827	218.163	94.145	100.532	208.853	237.132	98.280	101.533	103.675	107.149	210.257	104.310	-8191	255	
1435.366	1	1	0	0	0.19532	0.12853	0.058763	0.095493	0.043491	0.14253	0.15551	0.16943	0.30275	0.10899	0.28488	0.087539	0.13174	0.19609	0.12799	0.10852	-3.9042	-4.3708	-3.9875	-4.4292	-4.3	-3.9542	-4.6583	-4.2583	-4.2875	-4.4854	-4.05	-4.525	-4.35	-4.1625	-4.5104	-4.3063	278.739	256.251	413.012	361.350	325.700	429.638	343.745	404.077	375.249	316.764	433.465	158.562	319.101	383.205	118.837	433.174	0.00094165	0.00048344	7.6234e-05	418.84	3.5122e-06	2.2438e-06	515.24	185.35	4.9754e-06	3.3866e-06	238.8	120.83	87.086	47.821	5.6163e-06	72.317	0.00013235	6.8912e-05	2.1566e-05	415.01	7.931e-07	8.5013e-07	509.76	183.78	8.5979e-07	7.5513e-07	236.77	119.52	85.914	47.67	8.0975e-07	71.697	129.372	163.557	236.725	95.309	206.244	247.313	94.531	100.484	214.607	227.094	98.413	101.598	103.711	107.190	218.873	104.156	-8191	255	
1435.462	1	1	0	0	0.036576	0.31566	0.17251	0.24479	0.13681	0.085547	0.094732	0.10051	0.086261	0.042495	0.19423	0.052428	0.1916	0.1675	0.20197	0.26654	-4.0458	-4.5021	-3.9479	-4.5	-4.4083	-4.0167	-4.5771	-4.1917	-4.1854	-4.5646	-3.9958	-4.4458	-4.2771	-4.0896	-4.4979	-4.3938	375.550	271.598	355.143	231.355	209.567	256.069	347.490	341.167	265.801	195.497	377.197	128.923	431.008	394.303	338.260	172.141	0.00098879	0.00032625	3.8896e-05	419.43	3.7491e-06	4.1273e-06	519.64	185.17	4.351e-06	3.517e-06	240.87	120.79	87.222	48.047	4.5024e-06	72.761	0.00013741	6.8346e-05	2.157e-05	415.77	7.9324e-07	8.5458e-07	512.29	183.94	8.6149e-07	7.5716e-07	237.76	119.71	86.147	47.849	8.3862e-07	71.936	129.713	181.677	207.064	95.286	232.551	232.470	94.447	100.389	221.765	244.603	98.294	101.595	103.571	107.129	211.801	104.064	-8191	255	
1435.558	1	1	0	0	0.25074	0.18379	0.05279	0.13836	0.11553	0.071791	0.12357	0.14669	0.11341	0.18557	0.26238	0.22672	0.14149	0.11039	0.36721	0.24379	-3.7708	-4.425	-4.0271	-4.3063	-4.4187	-4.1333	-4.5188	-4.2979	-4.0042	-4.4542	-3.9875	-4.3063	-4.6083	-4.0437	-4.6229	-4.4458	228.964	143.870	349.185	354.946	302.213	384.741	300.861	421.769	87.296	192.026	404.279	310.230	157.119	274.386	129.857	405.828	0.00097947	0.00028108	7.6136e-05	420.52	1.1206e-06	4.5225e-06	520.49	186.14	4.8845e-06	3.018e-06	240.71	121.53	87.202	48.095	6.0779e-06	72.418	0.00013585	6.9578e-05	2.2003e-05	416.9	7.807e-07	8.5444e-07	513.17	184.38	8.7075e-07	7.5143e-07	238.46	120.11	86.269	47.899	8.5115e-07	72.008	129.736	155.183	180.708	95.450	182.546	212.072	94.712	100.354	213.572	230.486	98.254	101.528	103.715	107.068	226.919	103.928	-8191	255	
1435.654	1	1	0	0	0.15084	0.063103	0.080504	0.12497	0.11749	0.29829	0.18932	0.27889	0.10834	0.12917	0.19238	0.18759	0.040677	0.2323	0.13243	0.10266	-3.6104	-4.5896	-4.0271	-4.2479	-4.4521	-3.95	-4.5062	-4.3083	-4.0563	-4.6292	-4.2333	-4.1542	-4.4938	-3.9292	-4.3167	-4.4625	410.283	386.309	303.887	434.251	139.310	188.367	396.714	386.959	414.950	294.596	284.537	343.406	257.228	164.678	353.127	374.884	0.00095432	0.00040159	8.0602e-05	421.13	2.9125e-06	2.8773e-06	517.22	186.33	3.8874e-06	4.0146e-06	241.27	121.35	87.223	47.701	5.7939e-06	72.284	0.00013707	7.2495e-05	2.1809e-05	417.24	7.9953e-07	8.7986e-07	511.65	184.16	8.9178e-07	7.8074e-07	238.16	119.72	85.969	47.706	8.4349e-07	71.612	128.224	184.123	192.210	95.585	205.237	227.291	94.109	100.373	235.834	230.867	98.188	101.303	103.759	107.319	250.485	104.088	-8191	255	
1435.775	1	1	0	0	0.0078232	0.036794	0.17669	0.19449	0.14143	0.065305	0.1114	0.12978	0.14161	0.24007	0.093276	0.092165	0.07901	0.205	0.10722	0.20461	-3.6521	-4.4229	-4.0813	-4.0479	-4.5208	-3.9167	-4.4396	-4.4479	-4.0917	-4.4437	-4.2042	-4.2896	-4.6292	-4.0938	-4.3417	-4.5146	394.599	348.402	197.035	378.338	190.933	299.217	361.679	359.258	276.111	256.050	374.703	219.060	108.845	104.878	86.100	332.092	0.00097912	0.00028546	0.0001077	418.91	4.4077e-06	4.5347e-06	514.96	185.2	4.3836e-06	5.0047e-06	240.08	120.55	87.032	47.842	6.738e-06	72.36	0.00013972	7.1967e-05	2.0999e-05	415.31	7.768e-07	8.5879e-07	510.95	183.51	8.9192e-07	7.9488e-07	236.54	119.12	85.754	47.675	8.7025e-07	71.445	128.910	140.977	182.790	95.256	198.278	251.022	94.244	100.653	217.913	234.610	98.182	101.543	103.627	107.235	205.171	103.882	-8191	255	
1435.846	1	1	0	0	0.29606	0.15484	0.022476	0.20673	0.21706	0.30991	0.21143	0.10006	0.21032	0.056474	0.15877	0.19513	0.15364	0.17483	0.048456	0.21687	-3.7438	-4.3812	-4.225	-4.1521	-4.5979	-4.0479	-4.4187	-4.2833	-4.0437	-4.4333	-4.3688	-4.0687	-4.5458	-4.2167	-4.3021	-4.5	243.263	146.260	277.022	416.362	209.153	307.928	391.811	416.300	335.392	408.684	398.697	334.152	412.612	359.156	235.014	376.991	0.00097692	0.00034293	0.00013802	417.91	4.0014e-06	2.6848e-06	516.54	185	4.2031e-06	3.5943e-06	239.29	120.86	87.033	47.863	3.7447e-06	72.282	0.00013693	7.214e-05	2.0795e-05	414.95	7.9935e-07	8.5226e-07	510.17	183.76	8.7056e-07	8.0219e-07	237.1	119.25	85.793	47.638	8.7833e-07	71.492	127.761	167.908	169.720	95.574	199.404	245.373	94.426	100.361	205.190	210.920	98.259	101.684	103.616	106.856	209.675	104.281	-8191	255	
#DATA ENDS
