BOXY.EXE: ISS Imagent and Oximeter Data Acquisition Program Version 0.80
Ascii Record File

#ACQ INFORMATION
2  Detector Channels 
16  External MUX Channels 
1  Auxiliary Channels 
5000  Waveform (CCF) Frequency (Hz)
1  Waveforms Skipped 
30  Waveforms Averaged 
1  Cycles Averaged 
16  Acquisitions per Waveform 
10.0806  Updata Rate (Hz) 

#FILE INFORMATION
TRUE -- External MUX Channel results are PARSED.
FALSE -- AC DC and Phase are NOT grouped.
TRUE -- Companion Program Settings File CREATED.
FALSE -- AC data not excluded
FALSE -- DC data not excluded
FALSE -- Phase data not excluded
FALSE -- Auxillary Chn. data not excluded
Tab delimiters

#CALIBRATION STATE
TRUE -- Waveform Calibration Values APPLIED.


#AUX CALIBRATION VALUES
Val Type	aux-1	

Term	1.0000e+00	
Factor	0.0000e+00	


#WF CALIBRATION VALUES
A = Detector Channel
Val Type	A-AC1	A-AC2	A-AC3	A-AC4	A-AC5	A-AC6	A-AC7	A-AC8	A-AC9	A-AC10	A-AC11	A-AC12	A-AC13	A-AC14	A-AC15	A-AC16	A-DC1	A-DC2	A-DC3	A-DC4	A-DC5	A-DC6	A-DC7	A-DC8	A-DC9	A-DC10	A-DC11	A-DC12	A-DC13	A-DC14	A-DC15	A-DC16	A-Ph1	A-Ph2	A-Ph3	A-Ph4	A-Ph5	A-Ph6	A-Ph7	A-Ph8	A-Ph9	A-Ph10	A-Ph11	A-Ph12	A-Ph13	A-Ph14	A-Ph15	A-Ph16	

Term	0.00000e+00	0.00000e+00	0.00000e+00	0.00000e+00	0.00000e+00	0.00000e+00	0.00000e+00	0.00000e+00	0.00000e+00	0.00000e+00	0.00000e+00	0.00000e+00	0.00000e+00	0.00000e+00	0.00000e+00	0.00000e+00	0.00000e+00	0.00000e+00	0.00000e+00	0.00000e+00	0.00000e+00	0.00000e+00	0.00000e+00	0.00000e+00	0.00000e+00	0.00000e+00	0.00000e+00	0.00000e+00	0.00000e+00	0.00000e+00	0.00000e+00	0.00000e+00	0.00000e+00	0.00000e+00	0.00000e+00	0.00000e+00	0.00000e+00	0.00000e+00	0.00000e+00	0.00000e+00	0.00000e+00	0.00000e+00	0.00000e+00	0.00000e+00	0.00000e+00	0.00000e+00	0.00000e+00	0.00000e+00	
Factor	1.00000e+00	1.00000e+00	1.00000e+00	1.00000e+00	1.00000e+00	1.00000e+00	1.00000e+00	1.00000e+00	1.00000e+00	1.00000e+00	1.00000e+00	1.00000e+00	1.00000e+00	1.00000e+00	1.00000e+00	1.00000e+00	1.00000e+00	1.00000e+00	1.00000e+00	1.00000e+00	1.00000e+00	1.00000e+00	1.00000e+00	1.00000e+00	1.00000e+00	1.00000e+00	1.00000e+00	1.00000e+00	1.00000e+00	1.00000e+00	1.00000e+00	1.00000e+00	X	X	X	X	X	X	X	X	X	X	X	X	X	X	X	X	

B = Detector Channel
Val Type	B-AC1	B-AC2	B-AC3	B-AC4	B-AC5	B-AC6	B-AC7	B-AC8	B-AC9	B-AC10	B-AC11	B-AC12	B-AC13	B-AC14	B-AC15	B-AC16	B-DC1	B-DC2	B-DC3	B-DC4	B-DC5	B-DC6	B-DC7	B-DC8	B-DC9	B-DC10	B-DC11	B-DC12	B-DC13	B-DC14	B-DC15	B-DC16	B-Ph1	B-Ph2	B-Ph3	B-Ph4	B-Ph5	B-Ph6	B-Ph7	B-Ph8	B-Ph9	B-Ph10	B-Ph11	B-Ph12	B-Ph13	B-Ph14	B-Ph15	B-Ph16	

Term	0.00000e+00	0.00000e+00	0.00000e+00	0.00000e+00	0.00000e+00	0.00000e+00	0.00000e+00	0.00000e+00	0.00000e+00	0.00000e+00	0.00000e+00	0.00000e+00	0.00000e+00	0.00000e+00	0.00000e+00	0.00000e+00	0.00000e+00	0.00000e+00	0.00000e+00	0.00000e+00	0.00000e+00	0.00000e+00	0.00000e+00	0.00000e+00	0.00000e+00	0.00000e+00	0.00000e+00	0.00000e+00	0.00000e+00	0.00000e+00	0.00000e+00	0.00000e+00	-1.67345e+02	-1.28466e+02	-1.19699e+02	-1.83576e+02	-8.87362e+01	-6.07667e+01	-1.57985e+02	-1.62015e+02	-8.48579e+01	-6.54837e+01	-1.71537e+02	-1.71730e+02	-1.83223e+02	-1.78246e+02	-8.14027e+01	-1.51785e+02	
Factor	2.20819e-05	1.22705e-04	3.64254e-05	1.57401e-01	1.20126e-06	1.19893e-06	1.60961e-01	4.98362e-02	1.05429e-06	1.31104e-06	7.43814e-02	2.51224e-02	2.19682e-02	8.10577e-03	1.31942e-06	1.15977e-02	1.88575e-06	2.02594e-06	5.64688e-07	7.93729e-02	2.20408e-08	2.22281e-08	7.67269e-02	2.52222e-02	2.19966e-08	2.21892e-08	3.64224e-02	1.23052e-02	1.11446e-02	4.10577e-03	2.20339e-08	5.68387e-03	X	X	X	X	X	X	X	X	X	X	X	X	X	X	X	X	



#DISTANCE SETTINGS
A = Detector Channel
A-1	A-2	A-3	A-4	A-5	A-6	A-7	A-8	A-9	A-10	A-11	A-12	A-13	A-14	A-15	A-16	

2.5000e+00	3.0000e+00	2.5000e+00	3.0000e+00	2.0000e+00	3.0000e+00	1.5000e+00	3.0000e+00	3.0000e+00	3.0000e+00	3.0000e+00	3.0000e+00	3.0000e+00	3.0000e+00	1.5000e+00	3.0000e+00	

B = Detector Channel
B-1	B-2	B-3	B-4	B-5	B-6	B-7	B-8	B-9	B-10	B-11	B-12	B-13	B-14	B-15	B-16	

1.0000e+01	1.0000e+01	1.0000e+01	1.4400e+00	1.0000e+01	1.0000e+01	1.5100e+00	1.9400e+00	1.0000e+01	1.0000e+01	1.9900e+00	2.4900e+00	2.4100e+00	2.9000e+00	1.0000e+01	2.9800e+00	




#DATA BEGINS
time	group	step	mark	flag	A-AC1	A-AC2	A-AC3	A-AC4	A-AC5	A-AC6	A-AC7	A-AC8	A-AC9	A-AC10	A-AC11	A-AC12	A-AC13	A-AC14	A-AC15	A-AC16	A-DC1	A-DC2	A-DC3	A-DC4	A-DC5	A-DC6	A-DC7	A-DC8	A-DC9	A-DC10	A-DC11	A-DC12	A-DC13	A-DC14	A-DC15	A-DC16	A-Ph1	A-Ph2	A-Ph3	A-Ph4	A-Ph5	A-Ph6	A-Ph7	A-Ph8	A-Ph9	A-Ph10	A-Ph11	A-Ph12	A-Ph13	A-Ph14	A-Ph15	A-Ph16	B-AC1	B-AC2	B-AC3	B-AC4	B-AC5	B-AC6	B-AC7	B-AC8	B-AC9	B-AC10	B-AC11	B-AC12	B-AC13	B-AC14	B-AC15	B-AC16	B-DC1	B-DC2	B-DC3	B-DC4	B-DC5	B-DC6	B-DC7	B-DC8	B-DC9	B-DC10	B-DC11	B-DC12	B-DC13	B-DC14	B-DC15	B-DC16	B-Ph1	B-Ph2	B-Ph3	B-Ph4	B-Ph5	B-Ph6	B-Ph7	B-Ph8	B-Ph9	B-Ph10	B-Ph11	B-Ph12	B-Ph13	B-Ph14	B-Ph15	B-Ph16	aux-1	digaux	

751.729	1	1	0	256	0.043215	0.22632	0.088797	0.20342	0.1015	0.19877	0.35985	0.065014	0.12906	0.15563	0.053229	0.031269	0.23842	0.22892	0.13474	0.13208	-4.3771	-4.2167	-4.4292	-5.0146	-4.1438	-4.65	-4.7063	-4.4354	-4.8167	-4.2667	-4.575	-4.7979	-4.2604	-4.7354	-4.5458	-4.3125	-81.514	47.033	102.581	-123.749	206.036	124.992	174.399	189.292	-19.352	-72.188	202.405	66.504	191.237	60.131	-85.340	204.279	0.0005235	0.00040287	0.00020294	1491	2.6028e-06	8.4902e-06	1462.5	395.21	6.181e-06	6.061e-06	450.33	148.2	129.69	44.287	4.8437e-06	54.113	0.0015224	0.0016135	0.00045116	1547.3	1.7578e-05	1.7646e-05	1527.2	413.81	1.7482e-05	1.7566e-05	475.84	157.63	138.26	47.335	1.7506e-05	58.57	160.461	-85.606	-11.372	-115.289	-86.273	-31.931	-115.310	-110.646	181.538	21.635	-111.037	-107.233	-106.879	-101.875	-83.048	-102.121	-8191	255	
751.825	1	1	0	0	0.19235	0.02531	0.023066	0.084313	0.10978	0.1386	0.078566	0.082238	0.23382	0.13443	0.20893	0.14357	0.067025	0.11226	0.066342	0.10833	-4.2667	-4.2542	-4.3688	-4.9042	-4.0542	-4.575	-4.825	-4.3646	-4.8771	-4.4729	-4.5708	-4.7688	-4.3167	-4.6708	-4.6562	-4.2042	210.123	85.200	-16.226	128.992	100.794	78.539	222.922	-105.036	148.978	-92.069	177.860	182.030	231.009	112.927	-64.104	-102.495	0.00048818	0.0010447	7.9754e-05	1491.7	5.3888e-06	9.1951e-06	1469.5	395.47	6.6947e-06	2.5794e-06	450.67	147.98	129.7	44.101	4.2474e-06	54.27	0.0015332	0.0016	0.00045002	1546.1	1.7474e-05	1.7831e-05	1529.2	414.62	1.756e-05	1.7774e-05	476.07	157.7	138.29	47.335	1.7536e-05	58.621	171.315	-29.947	-15.790	-115.213	-12.435	78.684	-115.452	-110.717	-52.958	-33.738	-110.950	-107.402	-106.761	-101.724	74.620	-102.434	-8191	255	
751.921	1	1	0	0	0.35356	0.19818	0.37116	0.34045	0.042318	0.074916	0.17393	0.27386	0.092951	0.03359	0.20362	0.17725	0.071751	0.39197	0.1737	0.1226	-4.3958	-4.4042	-4.225	-5.0229	-4.2458	-4.6354	-4.8187	-4.4208	-4.6708	-4.5542	-4.3646	-4.7688	-4.4333	-4.5021	-4.7	-4.25	211.077	206.085	197.422	160.641	12.567	-69.178	183.241	-80.778	-68.027	-15.991	226.685	195.961	15.971	218.203	83.719	74.055	0.00040398	0.00096542	0.00023573	1495.5	8.1492e-06	9.9625e-06	1472.1	396.19	1.633e-06	1.1736e-05	449.2	148.27	129.24	44.139	5.6448e-06	53.967	0.0015299	0.001611	0.00044952	1548.1	1.7438e-05	1.7653e-05	1528.6	415.15	1.7489e-05	1.7602e-05	476.08	157.75	138.14	47.311	1.7527e-05	58.559	159.074	-34.143	46.808	-115.096	229.635	0.602	-115.482	-110.873	67.696	70.629	-111.038	-107.295	-106.809	-101.769	61.478	-102.555	-8191	255	
752.017	1	1	0	0	0.033047	0.14575	0.19645	0.1144	0.046624	0.088232	0.13061	0.21457	0.10801	0.10752	0.26247	0.14578	0.16986	0.30452	0.20321	0.050701	-4.2958	-4.4979	-4.2438	-4.8688	-4.2812	-4.4812	-4.9979	-4.3896	-4.5938	-4.4896	-4.2958	-4.8333	-4.4292	-4.4542	-4.7583	-4.1979	113.799	27.961	139.326	-93.349	50.690	-72.368	177.347	132.263	227.248	26.404	160.581	197.677	198.128	160.125	123.091	225.285	0.00038497	0.00025035	2.8947e-05	1492.9	1.3412e-06	5.157e-06	1468.9	395.64	3.5744e-06	6.7455e-06	449.83	147.64	129.42	44.124	7.557e-07	54.307	0.0015359	0.001617	0.00045728	1547.7	1.7788e-05	1.7982e-05	1528.3	414.82	1.7828e-05	1.7821e-05	476.1	157.8	138.2	47.347	1.7726e-05	58.642	163.486	152.127	-26.799	-115.198	68.690	23.990	-115.425	-110.656	-112.711	100.153	-110.989	-107.388	-106.602	-102.027	55.516	-102.290	-8191	255	
752.113	1	1	0	0	0.064152	0.1994	0.1936	0.17899	0.049767	0.21671	0.063938	0.22413	0.13488	0.064092	0.16426	0.46837	0.099008	0.072962	0.11754	0.14842	-4.0813	-4.5354	-4.0917	-4.8771	-4.4354	-4.3542	-5.0062	-4.4083	-4.5667	-4.7125	-4.2208	-4.6708	-4.4479	-4.3625	-4.7208	-4.2646	-91.706	179.640	112.562	154.865	195.320	189.272	143.138	158.314	87.625	172.170	31.620	197.515	165.699	90.837	61.257	225.205	0.00039528	0.00072575	0.00014449	1492.2	5.4065e-06	2.86e-06	1469.4	395.14	2.0142e-06	8.9665e-06	450.33	148.06	129.86	44.083	7.9171e-06	54.053	0.0015487	0.0016291	0.00045975	1548.1	1.7884e-05	1.8122e-05	1529.5	414.71	1.7807e-05	1.798e-05	476.17	157.76	138.52	47.315	1.7806e-05	58.53	159.903	-56.305	-108.536	-115.165	-49.761	65.408	-115.538	-110.621	-31.729	50.403	-110.991	-107.393	-106.740	-101.693	0.702	-102.199	-8191	255	
752.232	1	1	0	0	0.11783	0.14492	0.26841	0.24825	0.086063	0.1411	0.13877	0.059313	0.18863	0.20228	0.11965	0.25579	0.069135	0.31332	0.2092	0.083227	-4.325	-4.6792	-4.2354	-4.9708	-4.4354	-4.1833	-4.9792	-4.3333	-4.4021	-4.7875	-4.275	-4.8104	-4.5958	-4.3458	-4.6229	-4.5208	-20.169	-59.960	-23.997	186.757	-44.992	-2.469	120.232	202.285	110.646	-77.098	209.326	161.650	178.561	-113.579	100.851	45.341	0.00047919	0.0005718	5.1589e-05	1493.6	2.63e-06	1.1236e-05	1473.1	394.62	5.963e-06	8.8852e-06	448.65	147.3	129.55	44.172	5.135e-06	54.154	0.0015598	0.0016332	0.00045585	1550.7	1.7818e-05	1.7899e-05	1529.9	414.65	1.768e-05	1.7719e-05	475.68	157.4	138.25	47.309	1.7679e-05	58.578	156.919	-80.116	-35.015	-115.127	41.955	27.824	-115.449	-110.741	-75.735	-12.066	-111.264	-107.215	-106.898	-101.799	-86.696	-102.372	-8191	255	
752.328	1	1	0	0	0.056329	0.028688	0.051507	0.057594	0.13629	0.21181	0.29093	0.070148	0.10299	0.061732	0.10785	0.3015	0.10758	0.097597	0.15424	0.15905	-4.1	-4.6646	-4.1604	-4.6583	-4.65	-4.1896	-4.9625	-4.5146	-4.4083	-4.75	-4.1833	-4.775	-4.7146	-4.1646	-4.7417	-4.4458	-105.578	177.725	170.660	13.360	158.685	94.967	185.184	67.425	202.088	84.449	46.593	169.216	186.747	220.060	105.669	217.454	0.00032619	0.00084106	3.9289e-05	1494.6	1.5022e-05	6.39e-06	1462.2	395.23	4.8894e-06	7.152e-06	449.12	147.33	129.72	44.15	2.1186e-06	54.273	0.0015616	0.0016336	0.00045601	1548.5	1.7683e-05	1.7969e-05	1526.2	414.54	1.7705e-05	1.7694e-05	475.9	157.51	138.07	47.292	1.7505e-05	58.58	162.063	-127.275	-84.026	-115.184	54.685	-10.998	-115.346	-110.850	-48.454	-34.271	-110.960	-107.461	-106.701	-101.696	-14.031	-102.440	-8191	255	
752.425	1	1	0	0	0.14275	0.095549	0.11173	0.28869	0.19116	0.060567	0.15432	0.17352	0.061937	0.17428	0.022598	0.22149	0.18651	0.3011	0.078651	0.027047	-4.0312	-4.6875	-4.2958	-4.7208	-4.7937	-4.0563	-4.8458	-4.4875	-4.2292	-4.8792	-4.3146	-4.5854	-4.8063	-4.2438	-4.6208	-4.6896	-91.935	110.925	-115.308	211.908	152.783	-3.304	215.772	144.935	30.292	-128.694	-93.111	180.573	212.534	-128.320	26.787	-72.708	0.00035842	0.00069677	0.00024261	1485.5	3.5499e-06	5.5548e-06	1466.9	395.7	5.9079e-06	6.0388e-06	448.94	147.88	129.46	44.118	8.4222e-06	54.252	0.0015417	0.0016159	0.00045158	1545.5	1.7629e-05	1.7829e-05	1527.3	414.66	1.7722e-05	1.7672e-05	475.16	157.57	138.04	47.239	1.7549e-05	58.534	176.991	-62.926	-128.082	-115.299	19.031	87.200	-115.263	-110.781	27.313	-54.223	-110.930	-107.282	-106.778	-101.803	3.444	-102.076	-8191	255	
752.521	1	1	0	0	0.2443	0.11287	0.13411	0.46757	0.05084	0.07613	0.22781	0.080794	0.082115	0.11117	0.23533	0.32474	0.166	0.16518	0.14586	0.090261	-4.025	-4.6375	-4.3125	-4.6542	-4.7521	-4.2167	-4.8854	-4.525	-4.2521	-4.7167	-4.4625	-4.4417	-4.7812	-4.2333	-4.6521	-4.575	-118.928	-98.936	80.257	180.198	196.460	201.412	76.566	134.786	-68.344	153.553	163.503	199.881	-76.492	67.560	60.630	165.378	0.00060321	0.00077481	0.0003475	1487.2	3.5908e-06	2.2396e-06	1469.4	394.21	4.7336e-06	3.2424e-06	448.86	148.21	129.54	44.272	1.0288e-06	54.128	0.0015457	0.0016001	0.00044634	1544.3	1.736e-05	1.7575e-05	1526.1	413.97	1.7392e-05	1.7432e-05	475.09	157.39	137.99	47.286	1.7394e-05	58.543	160.202	3.990	-64.029	-115.050	1.892	66.804	-115.467	-110.813	-20.733	8.480	-111.048	-107.321	-106.682	-101.613	226.658	-102.176	-8191	255	
752.617	1	1	0	0	0.12949	0.080843	0.074152	0.21045	0.052995	0.14084	0.18297	0.10944	0.11701	0.1716	0.29763	0.14061	0.13357	0.32716	0.12604	0.11378	-3.725	-4.6104	-4.4167	-4.4854	-4.6937	-4.2875	-4.7958	-4.6937	-4.2438	-4.6792	-4.35	-4.3958	-4.8292	-4.2021	-4.4313	-4.8375	117.540	223.021	155.722	167.239	-89.851	230.780	155.180	61.368	102.871	54.782	160.287	174.283	190.991	210.959	-30.769	92.082	0.0003658	0.00094887	0.00026256	1488.5	1.2697e-06	2.6495e-06	1462.3	394.91	2.2377e-06	1.3416e-06	447.64	147.54	129.79	43.975	1.0453e-05	54.272	0.0015313	0.0015979	0.00044496	1546.1	1.7316e-05	1.7416e-05	1524.6	413.55	1.7327e-05	1.7363e-05	474.33	157.22	137.96	47.204	1.7386e-05	58.447	157.055	-53.735	-37.470	-115.216	-25.330	-14.945	-115.446	-110.837	-68.231	-119.800	-111.084	-107.114	-106.793	-101.875	-116.315	-102.366	-8191	255	
752.713	1	1	0	0	0.30954	0.1097	0.13982	0.10161	0.26558	0.14781	0.19706	0.32544	0.093599	0.086907	0.088803	0.049864	0.16602	0.093569	0.078514	0.3015	-3.8312	-4.675	-4.4271	-4.5646	-4.7104	-4.5042	-4.8562	-4.8375	-4.0833	-4.7396	-4.6312	-4.4729	-4.8854	-4.5208	-4.4437	-4.7208	112.612	-39.006	64.527	122.724	149.052	212.246	127.392	167.052	43.972	-12.583	229.081	167.124	-88.027	224.517	221.982	41.856	0.00047005	0.00053789	0.00020215	1487.5	4.492e-06	5.6671e-06	1464.1	394.4	1.4348e-06	3.5231e-06	450.16	147.37	129.68	44.032	6.1051e-06	54.188	0.0015276	0.0015995	0.00044394	1544.7	1.7308e-05	1.7529e-05	1525	413.56	1.7338e-05	1.7397e-05	474.72	157.14	137.82	47.201	1.7367e-05	58.467	164.133	80.072	5.049	-115.110	161.477	51.788	-115.362	-110.630	-40.620	142.072	-111.137	-107.422	-106.804	-101.694	86.539	-102.427	-8191	255	
752.809	1	1	0	0	0.22122	0.12705	0.14011	0.088377	0.23528	0.086763	0.30758	0.24428	0.20957	0.095972	0.382	0.21096	0.14107	0.053201	0.19561	0.16257	-3.9083	-4.5979	-4.5021	-4.2646	-4.8021	-4.2562	-4.6917	-4.9542	-4.0646	-4.8583	-4.7854	-4.4521	-4.8542	-4.5375	-4.3354	-4.9104	-56.083	-6.491	158.698	227.484	118.337	178.321	208.176	162.676	69.947	70.152	123.360	200.956	207.257	218.681	145.471	230.859	0.00049044	0.00079031	0.00019611	1490	4.2825e-06	4.5358e-06	1466.6	394.41	1.4944e-06	7.29e-06	449.7	147.52	129.66	44.225	4.154e-06	54.071	0.0015213	0.0015947	0.0004428	1544.1	1.7215e-05	1.7418e-05	1524.6	413.08	1.7126e-05	1.7273e-05	474.73	157.17	137.88	47.204	1.7177e-05	58.393	170.338	-56.025	-32.557	-115.139	205.623	5.548	-115.169	-110.798	-125.210	-29.447	-111.079	-107.412	-106.865	-101.713	17.762	-102.220	-8191	255	
752.930	1	1	0	0	0.17744	0.078512	0.10686	0.23796	0.076566	0.15084	0.026549	0.23799	0.073797	0.17814	0.27794	0.20812	0.16796	0.10965	0.33872	0.17334	-3.6833	-4.4104	-4.5833	-4.2	-4.7208	-4.5417	-4.4625	-5.0542	-4.1646	-4.6479	-4.8458	-4.3042	-5.0458	-4.6604	-4.3021	-4.8667	154.297	189.811	12.825	-90.601	76.015	-7.513	120.668	190.126	126.145	87.763	128.783	169.849	184.390	229.244	-34.034	-54.511	0.00049155	0.00048454	0.00010297	1489.8	4.066e-06	6.8425e-06	1462.2	396.31	8.379e-06	4.6052e-06	449.56	147.29	128.92	44.174	8.3609e-06	53.962	0.0015105	0.0015761	0.00044078	1543	1.7272e-05	1.7379e-05	1523.3	414.27	1.7182e-05	1.7293e-05	474.1	157.04	137.8	47.192	1.7205e-05	58.377	146.753	-62.243	88.961	-115.155	-118.745	31.020	-115.303	-110.753	5.160	63.846	-110.944	-107.291	-106.791	-101.641	14.512	-102.345	-8191	255	
753.026	1	1	0	0	0.27093	0.13115	0.13568	0.31448	0.062622	0.30781	0.054499	0.18596	0.19904	0.12427	0.071896	0.16913	0.12654	0.088857	0.11297	0.1806	-3.8104	-4.5312	-4.6979	-4.2625	-4.7667	-4.2562	-4.3958	-4.9688	-4.2354	-4.2729	-4.7604	-4.3417	-4.6271	-4.4708	-4.0938	-4.8812	142.540	79.924	70.805	153.714	64.971	10.444	127.415	160.980	120.236	207.751	113.591	160.673	159.369	174.662	-118.941	178.354	0.00046266	0.0011061	9.5337e-05	1486.6	4.2594e-06	1.046e-05	1462.7	393.71	2.7805e-06	4.1671e-06	449.65	147.62	129.01	44.018	1.8377e-06	54.02	0.0015089	0.0015807	0.00044159	1543.5	1.7278e-05	1.7354e-05	1522	413.01	1.7316e-05	1.7371e-05	474.38	157.08	137.67	47.074	1.7088e-05	58.336	164.731	-113.764	51.098	-115.249	82.631	30.638	-115.380	-110.765	-40.064	68.419	-111.084	-107.382	-106.948	-101.845	-45.505	-102.288	-8191	255	
753.122	1	1	0	0	0.13453	0.17253	0.097161	0.27475	0.11229	0.099386	0.2367	0.11088	0.048225	0.23748	0.23292	0.23291	0.16008	0.35394	0.13913	0.15961	-4.0625	-4.4729	-4.7375	-4.3167	-4.6875	-4.5396	-4.5333	-4.9458	-4.2438	-4.3938	-4.9917	-4.5146	-4.6312	-4.8125	-4.3063	-4.6979	-115.222	-19.333	213.654	-103.439	159.401	113.698	-94.413	196.843	82.018	-5.967	147.437	121.813	100.338	148.360	-121.220	134.950	0.00055297	0.0012886	0.00018177	1487.1	4.7318e-06	1.4173e-06	1459	394.35	1.0574e-05	1.3833e-05	447.09	147.5	129.62	44.165	9.3266e-06	54.189	0.0014966	0.0015643	0.00043101	1539.2	1.7009e-05	1.6989e-05	1520.7	413.16	1.7035e-05	1.7134e-05	473.51	156.79	137.66	47.208	1.7177e-05	58.295	164.446	-22.077	-95.920	-115.094	-21.665	37.434	-115.555	-110.751	-51.891	5.462	-110.936	-107.445	-106.652	-101.714	21.364	-102.482	-8191	255	
753.218	1	1	0	0	0.19656	0.076151	0.10689	0.056509	0.10963	0.15524	0.29798	0.088545	0.19961	0.12278	0.14402	0.1448	0.13865	0.2003	0.03477	0.068293	-4.05	-4.2833	-4.6292	-4.3729	-4.3896	-4.6646	-4.2583	-4.7625	-4.3438	-4.0833	-4.8521	-4.1813	-4.5833	-4.6	-4.1542	-4.7125	179.660	-55.088	171.571	134.831	-127.139	194.602	179.673	95.793	196.695	213.937	-63.774	112.398	141.428	224.103	49.910	62.581	0.00038572	0.00027623	9.573e-05	1486.6	9.3507e-06	7.3777e-06	1460.7	394.33	7.6829e-06	5.2789e-06	449.35	147.39	129.55	44.138	8.0732e-06	54.192	0.0015021	0.0015732	0.00043562	1540.1	1.7135e-05	1.7215e-05	1520.4	412.89	1.7018e-05	1.7163e-05	473.6	156.91	137.88	47.156	1.7157e-05	58.413	151.035	-22.326	-31.490	-115.139	-10.788	38.347	-115.476	-110.740	-27.543	171.851	-110.981	-107.413	-106.803	-101.602	191.743	-102.330	-8191	255	
753.313	1	1	0	0	0.23683	0.19083	0.21362	0.26039	0.064918	0.12697	0.24477	0.10109	0.18858	0.15361	0.053306	0.25475	0.08564	0.057105	0.25162	0.037423	-4.0542	-4.1729	-4.7917	-4.3792	-4.4708	-4.6542	-4.2854	-4.6333	-4.4688	-4.1729	-4.8042	-4.6062	-4.3979	-4.725	-4.0708	-4.6646	106.008	-93.093	11.408	211.632	129.357	-92.641	170.949	197.988	-23.358	222.902	-90.206	220.441	-122.194	-102.668	-7.702	91.212	0.00041241	0.00079663	0.00025634	1489.8	5.4276e-06	5.8944e-06	1459.6	394.64	7.4635e-06	1.03e-05	449.29	147.46	129.36	44.166	6.1652e-06	54.03	0.0014915	0.0015661	0.00044031	1541.5	1.7115e-05	1.725e-05	1521.2	413.31	1.7118e-05	1.725e-05	474.08	156.93	137.67	47.193	1.7163e-05	58.366	158.906	-42.985	-39.124	-115.110	-61.932	46.262	-115.418	-110.808	-62.604	33.274	-111.063	-107.438	-106.646	-101.798	26.391	-102.318	-8191	255	
753.409	1	1	0	0	0.16719	0.19309	0.062034	0.13138	0.19132	0.14729	0.086581	0.38099	0.078442	0.12295	0.080905	0.021879	0.43695	0.19226	0.27702	0.08271	-4.1292	-4.2063	-4.7104	-4.5208	-4.3562	-4.6458	-4.4521	-4.5792	-4.4854	-4.1208	-4.9521	-4.3438	-4.2542	-4.8729	-4.1229	-4.6813	131.277	160.182	127.071	159.287	78.560	179.022	-112.519	204.509	50.169	-67.684	173.605	142.915	198.566	173.543	99.620	229.977	0.00060107	0.00031056	7.0145e-05	1486.5	2.722e-06	2.1125e-06	1460.6	395.63	5.9822e-06	9.1883e-06	449.11	147.62	129.51	43.951	9.3514e-06	53.977	0.0014973	0.0015764	0.0004387	1541.4	1.7108e-05	1.7171e-05	1521.4	413.3	1.7004e-05	1.7092e-05	473.31	156.66	137.52	46.988	1.6664e-05	58.219	157.719	37.747	-109.174	-115.088	-113.397	32.601	-115.206	-110.740	-67.015	-9.074	-111.132	-107.466	-106.830	-101.783	48.207	-102.357	-8191	255	
753.529	1	1	0	0	0.17945	0.2082	0.21796	0.070876	0.080078	0.093369	0.098479	0.13407	0.2075	0.3147	0.15048	0.20516	0.31253	0.021166	0.1344	0.15357	-4.1312	-4.1083	-4.6875	-4.3875	-4.2312	-4.7104	-4.2562	-4.4604	-4.6146	-4.2125	-4.8708	-4.5729	-4.3604	-4.7375	-4.2667	-4.5021	164.489	145.341	48.561	215.943	-124.434	-70.473	103.420	180.143	-105.832	-31.258	-64.240	108.349	180.123	-108.051	76.049	174.765	0.00051923	0.00073644	0.00023158	1489.8	4.0709e-06	6.5394e-06	1461.6	394.41	9.2752e-06	8.3657e-06	449.62	147.25	129.03	44.003	1.8708e-06	54.116	0.001449	0.0015263	0.00042471	1536.6	1.6549e-05	1.6653e-05	1517.3	412.55	1.6623e-05	1.6729e-05	473.6	156.49	137.34	47.001	1.6595e-05	58.207	167.003	-37.316	-16.248	-115.103	-42.095	61.854	-115.327	-110.786	-52.294	59.747	-111.043	-107.419	-106.649	-101.808	20.589	-102.194	-8191	255	
753.626	1	1	0	0	0.053899	0.20535	0.20742	0.23623	0.021565	0.045318	0.28267	0.016951	0.37319	0.26416	0.27596	0.17652	0.30096	0.21005	0.2319	0.15175	-4.3438	-4.2083	-4.4958	-4.6792	-4.1667	-4.8292	-4.4271	-4.4688	-4.4729	-4.1125	-4.7875	-4.575	-4.1896	-4.75	-4.3958	-4.5146	150.042	97.050	217.515	176.568	-118.994	22.700	172.563	164.780	-5.222	24.606	161.621	-114.703	-114.020	209.815	77.457	110.176	0.00035646	0.00023265	0.0001615	1487.4	7.8218e-07	5.1429e-06	1454.6	394.1	6.9906e-06	1.0862e-05	448.47	147.43	129.31	43.971	4.2855e-06	53.946	0.0014497	0.0015348	0.00042379	1535	1.6613e-05	1.6632e-05	1515.1	411.84	1.6376e-05	1.6489e-05	472.21	156.49	137.27	46.911	1.6279e-05	58.138	154.557	-23.227	-22.188	-115.150	53.436	-59.192	-115.354	-110.730	-101.203	12.165	-111.200	-107.406	-106.838	-101.740	9.958	-102.415	-8191	255	
753.697	1	1	0	0	0.25838	0.012246	0.039016	0.44696	0.14033	0.2672	0.047538	0.31181	0.17145	0.10663	0.22944	0.092747	0.33413	0.24827	0.14568	0.13505	-4.4146	-4.1354	-4.4021	-4.5354	-4.1479	-4.7146	-4.6896	-4.3708	-4.8479	-4.3833	-4.7688	-4.8583	-4.1854	-4.7688	-4.4896	-4.3417	163.599	163.328	52.700	166.981	184.614	85.934	153.908	-123.223	-108.915	74.305	199.768	-56.681	227.775	205.393	-118.539	194.330	0.00048209	0.00039268	0.00034757	1484.7	3.7144e-06	3.2673e-06	1462.4	394.16	2.6549e-06	7.7953e-06	448.43	147.45	129.23	43.816	4.2186e-06	53.834	0.0014309	0.0015104	0.00041957	1535.7	1.6442e-05	1.6484e-05	1516.6	411.91	1.6149e-05	1.6428e-05	472.39	156.43	137.38	46.972	1.6415e-05	58.177	160.268	-0.813	-28.021	-115.237	22.847	31.998	-115.208	-110.722	79.434	-119.754	-111.034	-107.287	-106.642	-101.648	-80.871	-102.238	-8191	255	
753.793	1	1	0	0	0.1784	0.031715	0.20189	0.25426	0.19764	0.0060853	0.17863	0.34556	0.37067	0.23362	0.24918	0.19575	0.22412	0.12699	0.16433	0.32333	-4.3938	-4.2375	-4.4875	-4.7167	-4.2063	-4.7063	-4.8187	-4.4271	-4.675	-4.2896	-4.4938	-4.6917	-4.0396	-4.7354	-4.3896	-4.3833	117.083	138.161	85.317	167.473	228.524	83.172	139.570	143.060	204.284	-74.128	145.062	-69.164	217.227	-122.861	94.022	208.812	0.00041531	0.00020366	0.0001704	1487.2	5.2294e-06	2.2275e-06	1456.9	394.21	4.5041e-06	8.2243e-06	447.12	147.21	129.35	44.071	4.2847e-06	53.838	0.0014348	0.0015167	0.00042212	1536.2	1.6485e-05	1.6561e-05	1515.3	412.46	1.6276e-05	1.6504e-05	472.95	156.57	137.35	46.973	1.6297e-05	58.137	160.156	-125.569	-15.855	-114.914	-31.842	63.808	-115.261	-110.750	-125.455	6.318	-111.030	-107.260	-106.696	-101.768	39.775	-102.304	-8191	255	
753.890	1	1	0	0	0.092474	0.13807	0.22691	0.21757	0.17579	0.10006	0.27208	0.1672	0.16569	0.14164	0.17861	0.24876	0.27324	0.23719	0.15981	0.19063	-4.2542	-4.2	-4.3021	-4.9042	-4.0146	-4.5604	-4.7562	-4.2312	-4.75	-4.3979	-4.475	-4.9333	-4.3292	-4.5125	-4.5312	-4.2292	-71.296	160.037	-114.741	183.446	27.409	221.489	175.371	175.321	78.210	-28.345	-121.599	158.587	214.728	196.098	2.642	152.358	0.00043619	0.00080818	6.1528e-05	1482.3	4.6373e-06	4.6788e-06	1459.7	393.63	4.5461e-06	1.2391e-05	447.6	147.48	129.32	44.081	6.6807e-06	53.815	0.0014322	0.0015072	0.00042187	1534.8	1.6437e-05	1.6527e-05	1515.9	412.12	1.6264e-05	1.6442e-05	472.07	156.66	137.7	47.017	1.6439e-05	58.173	163.267	224.091	-51.016	-115.075	-75.027	-13.766	-115.290	-110.740	-58.745	71.123	-111.070	-107.082	-106.566	-101.854	-48.585	-102.170	-8191	255	
754.010	1	1	0	0	0.1203	0.069516	0.17317	0.20492	0.080395	0.28192	0.20655	0.15213	0.13667	0.13752	0.19793	0.12143	0.073058	0.1381	0.097762	0.15725	-4.3167	-4.4688	-4.3125	-5.0437	-4.1896	-4.6562	-4.75	-4.3417	-4.8792	-4.6458	-4.4583	-4.9083	-4.35	-4.6833	-4.6625	-4.2667	-38.390	-16.281	156.231	225.381	125.023	146.974	173.043	163.500	170.365	-83.763	-111.068	165.963	159.617	-103.155	59.960	181.664	0.00051724	0.00040665	0.00019142	1484.2	4.346e-06	1.5277e-06	1460.8	394.05	3.2694e-06	8.3808e-06	449.56	147.69	128.98	44.057	2.573e-06	54.056	0.0014416	0.0015181	0.00042094	1536	1.651e-05	1.6508e-05	1517.9	411.86	1.6252e-05	1.6256e-05	473.13	156.36	137.33	46.979	1.5978e-05	58.203	173.240	-89.073	-15.451	-114.995	-11.108	142.208	-115.352	-110.730	-57.504	-23.437	-111.065	-107.300	-106.716	-101.677	-12.324	-102.161	-8191	255	
754.106	1	1	0	0	0.12786	0.052794	0.086386	0.12711	0.27439	0.18863	0.33429	0.24229	0.087899	0.088278	0.23298	0.15453	0.17532	0.35353	0.090029	0.25474	-4.4396	-4.3979	-4.1083	-5.1458	-4.325	-4.3458	-4.8667	-4.3979	-4.5771	-4.5417	-4.3354	-4.9187	-4.3771	-4.4812	-4.5813	-4.1396	-73.885	48.376	147.500	189.201	90.422	191.310	167.084	-89.369	-111.071	225.791	170.414	-64.211	-110.355	-113.701	216.731	162.160	0.00058755	0.00038	4.6779e-05	1483.8	6.3084e-06	7.3578e-06	1452.2	394.38	3.2461e-06	8.4557e-06	447.11	147.73	129.44	44.014	4.7471e-06	53.984	0.0014095	0.0014738	0.00041342	1534.1	1.6149e-05	1.6431e-05	1513.9	411.9	1.6331e-05	1.6363e-05	472.29	156.54	137.42	46.955	1.6122e-05	58.111	154.984	-77.952	8.169	-115.059	-1.441	-18.238	-115.321	-110.781	-80.747	11.871	-111.080	-107.344	-106.889	-101.806	-9.593	-102.417	-8191	255	
754.202	1	1	0	0	0.14339	0.15941	0.20538	0.16471	0.17185	0.19272	0.26891	0.26651	0.2426	0.13633	0.13789	0.092481	0.4559	0.1396	0.2134	0.10996	-4.2063	-4.6312	-4.2875	-4.8812	-4.4104	-4.2937	-4.9583	-4.3792	-4.6771	-4.6396	-4.2958	-4.7729	-4.3792	-4.4938	-4.7292	-4.4229	119.121	-104.711	59.386	-126.813	134.535	124.088	140.602	191.424	150.225	37.914	177.368	13.632	179.715	155.369	188.564	167.396	0.00044993	0.00030576	0.00025153	1483	2.5412e-06	8.1505e-06	1460.4	394.78	8.3933e-06	7.7428e-06	449.91	148.17	129.49	44.094	9.2354e-06	54.078	0.0014203	0.0014724	0.00041568	1535.5	1.6117e-05	1.6391e-05	1514.2	412.1	1.6183e-05	1.6184e-05	472.82	156.7	137.29	46.976	1.6055e-05	58.108	160.677	-45.482	-63.137	-115.111	-104.117	-47.093	-115.307	-110.602	-40.264	-37.147	-110.882	-107.224	-106.712	-101.754	-46.739	-102.291	-8191	255	
754.321	1	1	0	0	0.28251	0.15937	0.08114	0.18129	0.14496	0.17598	0.1816	0.2708	0.084223	0.27573	0.24366	0.050542	0.11751	0.19419	0.11904	0.10671	-4.2792	-4.6854	-4.3604	-4.8708	-4.425	-4.3458	-4.9625	-4.375	-4.5062	-4.7271	-4.3521	-4.8354	-4.5229	-4.3146	-4.7625	-4.4667	25.440	91.689	-119.551	193.655	76.388	38.817	170.619	176.843	-43.446	143.766	189.538	-11.845	178.991	-71.324	68.672	190.507	0.00038615	0.00019523	0.00010148	1485.5	4.0109e-06	5.4763e-06	1458.5	394.86	4.2427e-06	1.1664e-05	447.83	147.64	129.53	44.086	5.5695e-06	54.092	0.0014305	0.0014839	0.00041873	1536.5	1.6269e-05	1.6274e-05	1515.5	412.33	1.6234e-05	1.6242e-05	472.72	156.54	137.36	47.01	1.6079e-05	58.182	143.380	-20.469	173.291	-114.978	214.953	114.275	-115.425	-110.703	46.751	17.539	-110.930	-107.363	-106.817	-101.727	-50.811	-102.010	-8191	255	
754.393	1	1	0	0	0.21107	0.069461	0.16582	0.24215	0.16624	0.18024	0.49683	0.29945	0.093829	0.10849	0.25049	0.26629	0.21111	0.1168	0.048787	0.14627	-4.0417	-4.4938	-4.1875	-4.8313	-4.4729	-4.1479	-4.9146	-4.4812	-4.3167	-4.6	-4.2729	-4.7833	-4.5958	-4.2979	-4.8812	-4.4729	33.626	97.857	65.615	175.290	127.130	200.810	212.200	204.041	22.554	144.530	146.746	124.311	202.473	-119.154	199.445	196.890	0.00033015	0.00070479	0.00011909	1488.3	5.38e-06	9.2154e-06	1462.5	393.95	3.3006e-06	4.3596e-06	448.91	147.97	129.57	44.134	3.9598e-06	54.119	0.0014163	0.0014778	0.0004151	1537.4	1.6137e-05	1.6349e-05	1518.8	411.52	1.6163e-05	1.6015e-05	472.32	156.44	137.18	47.057	1.5932e-05	58.14	170.452	-98.192	-7.426	-115.171	-28.769	11.294	-115.267	-110.743	3.903	42.153	-110.922	-107.496	-106.752	-101.764	109.801	-102.314	-8191	255	
754.491	1	1	0	0	0.21728	0.30658	0.33422	0.18322	0.044623	0.18262	0.059551	0.26345	0.12245	0.11986	0.23437	0.19604	0.020198	0.12245	0.068806	0.14748	-3.8333	-4.6667	-4.0813	-4.6875	-4.625	-4.175	-4.7688	-4.55	-4.4271	-4.7146	-4.2354	-4.5563	-4.6354	-4.2188	-4.6771	-4.5875	71.610	-48.765	-29.066	151.726	187.596	40.604	73.456	188.467	-114.121	-76.663	148.105	79.000	151.790	-10.085	-3.508	158.279	0.00036032	0.00050667	0.0002332	1488.7	2.8914e-06	4.1613e-06	1465.2	394.57	5.0383e-06	5.7785e-06	448.07	147.65	129.53	44.151	3.0158e-06	54.162	0.0014051	0.001469	0.00041304	1536.1	1.6085e-05	1.6245e-05	1518.9	411.84	1.6135e-05	1.6061e-05	472.6	156.54	137.37	47.036	1.5928e-05	58.12	158.325	-0.826	5.084	-115.042	5.906	26.556	-115.352	-110.833	-53.356	-25.156	-110.906	-107.110	-106.752	-101.794	-62.942	-102.383	-8191	255	
754.610	1	1	0	0	0.14433	0.099044	0.36984	0.23998	0.21168	0.18534	0.11553	0.22645	0.14858	0.077773	0.18722	0.092216	0.28599	0.17209	0.080695	0.14807	-3.9854	-4.8521	-4.0854	-4.7292	-4.6521	-4.1438	-4.9062	-4.5292	-4.2542	-4.7646	-4.3479	-4.4563	-4.6854	-4.2812	-4.5292	-4.6771	29.642	102.921	101.182	184.481	-73.576	26.031	138.566	-123.759	84.911	5.964	146.300	183.091	-82.306	187.323	148.980	-108.031	0.00051559	0.00076503	0.00021385	1489	4.3218e-06	1.2392e-05	1460.5	394.66	8.661e-06	5.6756e-06	446.78	148.14	129.65	44.267	3.5777e-06	54.216	0.0014021	0.0014692	0.0004082	1537.7	1.5949e-05	1.6172e-05	1517.8	411.53	1.5914e-05	1.5858e-05	472.17	156.54	137.31	47.073	1.5821e-05	58.166	158.716	-42.119	11.433	-115.186	136.206	69.269	-115.445	-110.637	-37.847	50.320	-111.038	-107.271	-106.550	-101.825	-60.272	-102.256	-8191	255	
754.706	1	1	0	0	0.29934	0.20086	0.22126	0.32602	0.17066	0.15953	0.1346	0.2358	0.19724	0.092819	0.23593	0.13751	0.053622	0.28876	0.056807	0.077038	-3.9229	-4.7063	-4.3396	-4.5792	-4.8771	-4.1646	-4.7729	-4.5229	-4.275	-4.7063	-4.5354	-4.4625	-4.9437	-4.175	-4.6458	-4.6104	75.598	116.896	63.557	-127.735	139.669	-64.722	161.673	229.336	219.929	8.469	183.165	231.025	179.869	216.087	39.557	131.880	0.00044644	0.00082761	0.0002375	1485.1	6.4637e-06	8.2282e-06	1464	394.58	7.7317e-06	7.2828e-06	450.14	148.3	130.06	44.184	7.6902e-06	54.144	0.0013963	0.0014671	0.00040941	1535.9	1.6039e-05	1.6294e-05	1519.1	412.36	1.6318e-05	1.6426e-05	473.33	157.13	137.79	47.111	1.6227e-05	58.215	141.475	-25.686	-42.908	-115.040	-2.934	34.752	-115.534	-110.787	-72.456	11.866	-111.017	-107.301	-106.650	-101.696	-60.235	-102.473	-8191	255	
754.802	1	1	0	0	0.15946	0.14792	0.12936	0.16089	0.0014145	0.17557	0.32912	0.063327	0.25424	0.18945	0.14019	0.14678	0.15905	0.13044	0.15988	0.40114	-3.8521	-4.7417	-4.3042	-4.3646	-4.8042	-4.0896	-4.7229	-4.8479	-4.1625	-4.7854	-4.5417	-4.4333	-4.9688	-4.3354	-4.3229	-4.7312	-9.203	188.025	102.337	-91.391	180.000	183.329	206.197	176.079	184.740	207.528	206.154	212.108	51.348	125.318	0.860	168.975	0.00046031	8.4121e-05	0.00016394	1486.6	8.4783e-06	8.7095e-06	1464.3	394.9	3.0626e-06	5.2461e-06	448.25	147.41	129.52	44.063	3.7063e-06	54.091	0.0014179	0.0014765	0.00041421	1539	1.6131e-05	1.6279e-05	1519.1	412.47	1.6218e-05	1.6241e-05	472.49	156.51	137.44	46.972	1.612e-05	58.09	154.026	-20.296	-89.873	-115.106	6.683	59.528	-115.400	-110.765	-71.677	14.098	-111.079	-107.278	-106.685	-101.725	226.994	-102.054	-8191	255	
754.923	1	1	0	0	0.12112	0.1828	0.089078	0.13063	0.23468	0.17635	0.41336	0.23366	0.10328	0.26707	0.36535	0.15004	0.38581	0.14059	0.08102	0.22895	-3.7396	-4.5958	-4.4646	-4.4583	-4.7375	-4.2083	-4.7375	-4.8208	-4.0854	-4.5563	-4.7188	-4.2729	-4.8667	-4.4354	-4.3438	-4.8208	143.932	67.982	217.041	150.478	-55.536	136.368	177.739	178.616	111.378	205.962	204.854	139.821	195.905	188.113	24.466	202.192	0.00044169	0.00090455	7.3443e-06	1487.2	1.3653e-05	9.2654e-06	1460.4	394.62	3.8154e-06	4.9648e-07	450.88	147.87	129.98	44.175	9.2074e-07	54.19	0.0014126	0.0014725	0.00041136	1537.3	1.5962e-05	1.6126e-05	1516.9	412.45	1.6043e-05	1.6022e-05	472.33	156.63	137.4	47.051	1.5959e-05	58.203	144.357	-11.293	-72.497	-115.065	-4.657	-0.335	-115.511	-110.660	-87.560	11.700	-111.071	-107.491	-106.675	-101.613	198.910	-102.341	-8191	255	
754.994	1	1	0	0	0.30773	0.16507	0.27368	0.27982	0.10704	0.080486	0.26282	0.22804	0.1488	0.15547	0.13212	0.17084	0.18701	0.36713	0.16631	0.25419	-3.9583	-4.6875	-4.4479	-4.3229	-4.8458	-4.2979	-4.5958	-5.0208	-4.2958	-4.6896	-4.675	-4.2667	-4.7917	-4.4417	-4.2625	-4.9104	-92.985	111.951	5.970	185.433	-83.111	90.265	165.142	162.070	-41.902	34.285	172.313	-102.534	114.263	215.191	101.253	170.063	0.00047246	0.00021785	0.00030862	1486.7	1.4752e-06	2.0487e-06	1465.5	394.66	8.5367e-06	9.4073e-06	450.52	147.87	129.62	44.087	6.1306e-06	54.126	0.0014017	0.0014724	0.00041052	1537.4	1.5999e-05	1.619e-05	1517.8	411.64	1.6069e-05	1.6072e-05	473.3	156.82	137.55	47.037	1.6038e-05	58.183	168.811	142.118	-98.359	-114.990	-43.633	171.983	-115.134	-110.608	35.764	27.987	-111.150	-107.266	-106.700	-101.672	34.875	-102.124	-8191	255	
755.091	1	1	0	0	0.093831	0.19568	0.026508	0.029278	0.039138	0.19096	0.12474	0.067977	0.18518	0.20111	0.16151	0.074942	0.19725	0.22097	0.099528	0.060261	-3.7562	-4.5687	-4.6604	-4.4146	-4.6146	-4.4958	-4.5604	-5.0437	-4.2458	-4.5042	-4.8896	-4.35	-4.6417	-4.4479	-4.225	-4.9	15.026	-32.550	-77.571	163.866	20.713	5.765	125.065	198.366	46.394	-127.404	177.565	-68.972	-91.351	181.938	61.117	-79.742	0.00042634	0.00061653	8.7259e-05	1491	5.6345e-06	1.9983e-06	1463.2	395.5	6.594e-06	4.8417e-06	448.7	147.99	129.35	44.254	2.5481e-06	54.114	0.0014066	0.0014698	0.00040893	1537.7	1.5962e-05	1.5986e-05	1517.5	412.59	1.5906e-05	1.6023e-05	472.2	156.77	137.53	47.073	1.594e-05	58.088	164.587	-100.122	70.181	-115.076	-61.736	77.719	-115.254	-110.653	9.100	100.950	-110.906	-107.453	-106.564	-101.751	-44.785	-102.302	-8191	255	
755.211	1	1	0	0	0.1629	0.12891	0.23142	0.37816	0.17769	0.073516	0.16478	0.29429	0.25778	0.064451	0.081747	0.28499	0.19336	0.158	0.03745	0.086848	-3.8333	-4.3271	-4.6729	-4.2979	-4.7729	-4.5458	-4.4146	-4.9979	-4.3354	-4.3208	-4.7125	-4.275	-4.75	-4.8021	-4.1813	-4.8396	118.697	194.905	13.634	180.999	171.157	16.861	110.490	210.003	-115.561	-14.372	147.994	173.057	225.145	217.508	25.302	110.132	0.00044765	0.0003298	0.00018801	1491.1	4.8866e-06	1.1003e-05	1462.9	395.07	3.6167e-06	3.8047e-06	450.63	148.11	129.85	44.36	1.4131e-05	54.473	0.0013965	0.001453	0.00040524	1536.3	1.5843e-05	1.5877e-05	1516.1	411.8	1.575e-05	1.5911e-05	472.93	156.72	137.46	47.058	1.5789e-05	58.211	167.029	142.597	-24.722	-115.036	68.564	23.732	-115.513	-110.783	62.089	88.838	-110.799	-107.232	-106.852	-101.656	-39.942	-102.472	-8191	255	
755.306	1	1	0	0	0.24597	0.23145	0.062029	0.28399	0.1028	0.22984	0.060505	0.27001	0.12503	0.10675	0.15478	0.11504	0.35105	0.11532	0.12884	0.02055	-4.0062	-4.3313	-4.7729	-4.4187	-4.4958	-4.6729	-4.325	-4.9333	-4.4042	-4.2708	-4.9229	-4.3396	-4.8854	-4.6979	-3.9313	-4.7542	201.719	4.214	213.232	155.501	-21.546	79.499	52.901	155.812	90.235	158.126	179.214	-77.213	-112.261	160.937	115.575	-110.039	0.00039868	0.00056695	0.00020497	1486	4.4518e-06	7.2873e-06	1461.3	395.85	1.3129e-06	7.1846e-06	449.58	147.68	129.22	44.104	6.4981e-06	54.114	0.0013763	0.0014465	0.00039854	1534.2	1.5618e-05	1.5662e-05	1514.5	411.92	1.5586e-05	1.5857e-05	472.04	156.31	137.14	46.972	1.5832e-05	58.092	152.312	-68.338	-34.806	-114.969	-30.288	-23.639	-115.382	-110.693	86.530	-15.075	-111.002	-107.414	-106.699	-101.713	-3.217	-102.328	-8191	255	
755.402	1	1	0	0	0.12747	0.13682	0.14092	0.2036	0.10574	0.1584	0.35767	0.2279	0.17585	0.10002	0.12653	0.35257	0.053108	0.17809	0.10656	0.26747	-4.2146	-4.3042	-4.7646	-4.4417	-4.5583	-4.6458	-4.3583	-4.8667	-4.4563	-4.3375	-4.8729	-4.4604	-4.5896	-4.7583	-4.1083	-4.6729	-111.320	-52.040	-70.913	196.368	10.078	-63.991	174.460	206.494	156.864	53.924	-70.609	189.167	-111.044	172.052	71.625	127.498	0.00047114	0.00072506	0.00032351	1490.2	2.2609e-06	5.8545e-06	1460.9	395.7	3.8072e-06	7.1165e-06	448.42	147.56	129.75	44.271	1.2215e-05	54.195	0.001375	0.0014513	0.00040298	1535.6	1.5693e-05	1.5776e-05	1515.8	412.43	1.5632e-05	1.5859e-05	471.7	156.23	137.35	47.006	1.5688e-05	58.044	174.186	-109.468	10.391	-115.302	223.634	54.876	-115.311	-110.886	14.141	49.762	-111.093	-107.236	-106.627	-101.559	-45.713	-102.270	-8191	255	
755.498	1	1	0	0	0.16707	0.22427	0.2845	0.3394	0.11974	0.12319	0.20077	0.32493	0.19161	0.061868	0.33583	0.14327	0.13441	0.17188	0.080027	0.14346	-4.2604	-4.3229	-4.6333	-4.3812	-4.3333	-4.6312	-4.4208	-4.6854	-4.5938	-4.1542	-4.9458	-4.5021	-4.4396	-4.8479	-4.2458	-4.7521	80.590	121.437	-51.118	152.143	117.834	-24.294	189.090	-102.772	130.370	35.386	152.848	190.256	-32.646	223.566	11.331	125.612	0.00037603	0.00057355	0.00012137	1486.1	3.7166e-06	9.8441e-06	1461.8	393.87	2.0416e-06	4.5455e-06	449.2	147.94	129.56	44.211	5.7388e-06	54.134	0.0013743	0.0014441	0.00040121	1533.5	1.565e-05	1.5672e-05	1516.6	411.6	1.5582e-05	1.5911e-05	472.01	156.61	137.56	47.049	1.591e-05	58.143	166.727	11.123	-2.633	-115.074	45.624	98.297	-115.340	-110.817	-79.726	37.283	-111.110	-107.368	-106.665	-101.665	22.116	-102.191	-8191	255	
755.594	1	1	0	0	0.2147	0.23118	0.13693	0.28373	0.12741	0.15112	0.19965	0.078995	0.052606	0.13588	0.18443	0.32443	0.1304	0.11579	0.08828	0.016835	-4.2604	-4.1208	-4.7229	-4.5354	-4.2375	-4.7375	-4.2479	-4.5625	-4.6958	-4.2104	-4.8375	-4.4083	-4.2396	-4.8833	-4.0958	-4.4917	-35.218	44.360	-12.161	200.449	220.338	40.944	161.363	146.703	48.018	-99.710	210.860	198.528	140.572	188.102	82.870	131.736	0.00041618	0.00041547	0.00021504	1484.2	7.1541e-06	1.2668e-06	1466.8	394.51	3.0177e-06	4.3409e-06	450.68	147.81	130.04	44.259	1.0619e-05	54.484	0.0013763	0.0014584	0.00040299	1536.2	1.5824e-05	1.5896e-05	1516.8	411.97	1.5727e-05	1.6011e-05	472.44	156.6	137.72	47.054	1.5901e-05	58.266	161.340	-43.668	47.808	-114.995	-93.730	74.979	-115.323	-110.643	214.267	16.291	-111.045	-107.338	-106.736	-101.952	-50.073	-101.958	-8191	255	
755.690	1	1	0	0	0.095357	0.045175	0.11335	0.08998	0.22152	0.29663	0.18267	0.34086	0.16034	0.24125	0.2473	0.18806	0.21476	0.22226	0.27452	0.055407	-4.2958	-4.0042	-4.6896	-4.6813	-4.2292	-4.6375	-4.3708	-4.65	-4.5083	-4.0771	-4.7896	-4.5563	-4.3562	-4.7812	-4.3396	-4.5542	220.226	129.300	108.792	137.806	-126.902	101.916	223.930	165.592	-76.147	18.282	103.712	216.752	159.257	143.273	163.018	27.613	0.00036537	0.00047192	6.4364e-05	1486.4	1.5264e-06	1.0111e-05	1460.5	394.96	5.3706e-06	1.466e-06	448.48	147.82	130.21	44.37	6.4019e-06	54.195	0.001389	0.0014792	0.0004088	1536.1	1.6063e-05	1.6033e-05	1516.9	411.89	1.6e-05	1.6073e-05	472.55	156.61	137.7	47.176	1.6039e-05	58.247	159.976	11.525	-29.403	-115.072	144.142	5.864	-115.251	-110.773	-44.625	-35.852	-111.005	-107.427	-106.839	-101.722	36.334	-102.174	-8191	255	
755.786	1	1	0	0	0.20321	0.12896	0.10435	0.25647	0.29751	0.27634	0.095362	0.12944	0.13366	0.099494	0.11081	0.063694	0.32834	0.22663	0.060173	0.17601	-4.4062	-4.2104	-4.65	-4.5854	-4.1458	-4.7958	-4.7146	-4.4542	-4.7688	-4.1417	-4.7667	-4.8083	-4.2167	-4.8125	-4.4458	-4.3792	-118.925	205.802	216.486	202.979	-51.563	-101.688	170.497	196.943	62.679	150.737	165.822	-32.741	177.078	182.809	-96.699	-120.812	0.00037392	0.00033244	0.00013587	1487.4	4.3781e-06	1.1999e-06	1457.9	394.38	5.1407e-06	8.1976e-06	449.36	147.26	129.44	44.128	2.5942e-06	54.402	0.0014117	0.0014823	0.0004095	1536	1.6017e-05	1.6078e-05	1515.2	412.1	1.5915e-05	1.6057e-05	472.5	156.3	137.34	47.077	1.5984e-05	58.314	162.115	-42.755	-7.881	-115.025	-17.417	-31.217	-115.331	-110.800	-86.518	-13.662	-110.886	-107.288	-106.733	-101.740	118.539	-102.099	-8191	255	
755.882	1	1	0	0	0.21973	0.12368	0.10936	0.23503	0.23557	0.095274	0.2682	0.1082	0.16059	0.042381	0.19018	0.073201	0.13842	0.23403	0.1582	0.2806	-4.4542	-4.2458	-4.5167	-4.8104	-4.0604	-4.775	-4.6375	-4.2812	-4.7063	-4.2937	-4.6146	-4.6896	-4.3375	-4.6583	-4.5625	-4.1354	-40.423	54.973	-47.000	172.265	200.716	225.105	213.255	-94.093	-26.135	-57.577	166.235	69.304	-95.239	227.921	-28.705	124.450	0.00046036	0.00081779	0.0002527	1487.6	2.585e-06	4.1355e-06	1460.1	394.83	7.2924e-06	1.8841e-06	448.9	147.68	128.71	44.118	5.914e-06	53.935	0.0014099	0.001476	0.00041342	1535.6	1.6188e-05	1.6275e-05	1515.4	412.31	1.6117e-05	1.6145e-05	472.87	156.61	137.35	47.016	1.5791e-05	58.099	160.738	-31.113	-28.615	-115.076	140.446	31.683	-115.374	-110.694	-16.870	72.567	-111.090	-107.246	-106.854	-101.776	-6.373	-102.138	-8191	255	
756.003	1	1	0	0	0.20789	0.097872	0.14356	0.45494	0.019186	0.19287	0.12501	0.41583	0.1111	0.028458	0.19576	0.28862	0.14138	0.075904	0.20256	0.19214	-4.4104	-4.3063	-4.3	-4.8167	-3.9271	-4.7125	-4.6813	-4.3104	-4.7229	-4.4229	-4.4875	-4.7771	-4.1771	-4.6729	-4.6104	-4.3833	33.200	86.086	166.108	190.907	22.593	-81.952	-121.013	200.573	210.578	-125.366	-92.393	184.028	-89.730	-80.313	204.560	135.512	0.00041643	0.0010785	0.00017989	1484.5	6.1721e-06	5.4197e-06	1463	394.33	2.3624e-06	1.2121e-05	449.91	147.87	129.93	44.145	3.4365e-06	54.321	0.0013888	0.0014551	0.00040302	1534.6	1.5859e-05	1.5958e-05	1516.4	412.07	1.5753e-05	1.5836e-05	472.98	156.59	137.51	47.007	1.584e-05	58.153	153.116	-98.225	23.503	-115.242	7.506	8.293	-115.389	-110.782	47.373	15.569	-111.000	-107.258	-106.642	-101.660	14.278	-102.280	-8191	255	
756.099	1	1	0	0	0.018829	0.12368	0.074425	0.41357	0.14873	0.2032	0.42382	0.28058	0.047423	0.18712	0.10144	0.12784	0.16	0.12781	0.12045	0.083812	-4.5062	-4.3958	-4.5375	-4.8438	-4.1542	-4.6562	-4.8313	-4.4229	-4.7104	-4.5042	-4.5687	-4.9354	-4.5021	-4.725	-4.5979	-4.1813	-91.283	194.059	150.756	-97.550	62.856	69.518	209.423	203.762	131.773	69.065	69.377	170.201	175.706	124.311	23.377	-25.061	0.00043263	0.0001532	0.00029961	1484.4	4.3301e-06	3.4492e-06	1461.9	394.19	2.8027e-06	6.1884e-06	450.11	147.68	128.99	44.186	9.3062e-06	54.092	0.0013909	0.0014556	0.00040772	1535.2	1.5919e-05	1.6074e-05	1516	411.87	1.5815e-05	1.5894e-05	472.76	156.48	137.19	47.03	1.5891e-05	58.223	167.562	-12.984	15.345	-115.076	179.209	45.188	-115.344	-110.775	-68.833	-21.209	-111.118	-107.366	-106.820	-101.802	45.489	-102.197	-8191	255	
756.194	1	1	0	0	0.20166	0.040791	0.13542	0.16209	0.088338	0.055199	0.2267	0.20478	0.16732	0.0099723	0.11938	0.16107	0.054805	0.062007	0.20842	0.2176	-4.4667	-4.5604	-4.2354	-4.9688	-4.3458	-4.5208	-4.85	-4.3208	-4.7	-4.4646	-4.3438	-5.0292	-4.4625	-4.5458	-4.6917	-4.1854	51.344	49.229	159.764	187.333	164.309	-98.628	158.112	97.362	79.877	107.074	155.721	-78.112	127.416	88.846	48.635	219.305	0.00043413	0.00037195	0.00010933	1485.4	2.2697e-06	4.7753e-06	1458.7	394.95	5.4009e-06	6.7125e-06	449.68	147.52	129.54	44.34	8.4487e-06	54.419	0.0013996	0.0014696	0.00040984	1535.1	1.5962e-05	1.6145e-05	1513.1	412.33	1.5883e-05	1.6031e-05	472.7	156.37	137.43	47.084	1.5995e-05	58.218	172.372	21.816	-41.969	-115.103	44.189	194.136	-115.314	-110.897	-47.251	36.263	-110.951	-107.405	-106.794	-101.589	-32.591	-102.446	-8191	255	
756.292	1	1	0	0	0.13751	0.12823	0.022344	0.20943	0.11963	0.11229	0.24512	0.41588	0.15649	0.14645	0.18417	0.077463	0.10924	0.049157	0.1552	0.25302	-4.2021	-4.4625	-4.1438	-4.9396	-4.3812	-4.2688	-4.9292	-4.275	-4.6188	-4.5271	-4.3646	-4.9479	-4.4437	-4.4208	-4.7396	-4.2167	-5.705	138.230	72.518	224.808	0.474	-114.488	-116.282	190.809	117.189	189.485	-123.979	143.018	-106.477	-113.215	198.708	219.316	0.00039594	0.00093016	2.0354e-05	1478.8	5.5114e-06	3.7998e-06	1464	395.53	2.8557e-06	7.8156e-06	448.08	147.99	129.51	44.298	5.8284e-06	54.441	0.0014021	0.0014616	0.00041313	1532.6	1.606e-05	1.6175e-05	1515.4	412.24	1.5914e-05	1.5983e-05	472.47	156.58	137.42	47.024	1.5829e-05	58.174	168.426	-54.584	94.214	-114.983	78.367	-8.428	-115.301	-110.684	86.710	45.590	-110.971	-107.325	-106.750	-101.636	79.930	-102.337	-8191	255	
756.386	1	1	0	0	0.12515	0.10328	0.15116	0.2804	0.14534	0.06473	0.27441	0.24711	0.093548	0.217	0.093178	0.20513	0.11461	0.11123	0.204	0.21405	-4.1729	-4.55	-4.0875	-4.9104	-4.3417	-4.1542	-4.9229	-4.4125	-4.6083	-4.6708	-4.325	-4.7771	-4.3562	-4.3438	-4.8146	-4.2458	197.435	76.336	-12.268	190.625	174.567	-12.438	190.079	157.507	-45.149	-21.540	-103.598	161.058	126.912	-58.812	49.768	147.259	0.00049276	0.001029	7.8345e-05	1485.5	5.4138e-06	1.4425e-06	1458.3	395.36	5.3178e-06	8.2012e-06	450.69	147.43	129.33	44.214	7.3824e-06	54.121	0.0013913	0.0014591	0.00040932	1535.7	1.5826e-05	1.6121e-05	1513.4	412.35	1.5924e-05	1.5945e-05	472.63	156.21	137.46	47.067	1.5842e-05	58.181	161.888	-32.101	-61.625	-115.134	-85.072	-22.396	-115.520	-110.771	-56.678	66.203	-111.045	-107.180	-106.844	-101.553	-21.521	-102.492	-8191	255	
756.482	1	1	0	0	0.15275	0.24666	0.21775	0.30036	0.12405	0.11452	0.21945	0.046785	0.23547	0.20061	0.40715	0.1633	0.20096	0.12718	0.20891	0.27136	-4.1687	-4.6271	-4.0917	-4.8604	-4.2917	-4.2	-4.9271	-4.3646	-4.5979	-4.7	-4.3146	-4.6271	-4.4146	-4.2396	-4.6292	-4.4313	-108.070	8.852	-5.558	200.064	59.063	-91.422	158.041	209.618	20.933	193.272	187.509	-94.523	169.803	162.344	-104.818	170.384	0.00044571	0.00060353	0.00027317	1485.5	4.1777e-06	4.7142e-06	1462.8	394.19	6.3788e-06	5.0183e-06	449.49	147.89	129.57	44.277	4.7539e-06	54.261	0.001397	0.0014637	0.00041059	1534.5	1.5907e-05	1.5924e-05	1513.5	412.16	1.591e-05	1.59e-05	472.13	156.69	137.33	47.01	1.5929e-05	58.077	155.979	0.957	8.276	-115.158	201.467	200.982	-115.332	-110.659	-48.499	127.445	-111.122	-106.955	-106.707	-101.805	-23.518	-102.284	-8191	255	
756.603	1	1	0	0	0.076184	0.084043	0.15515	0.18117	0.17175	0.14189	0.18796	0.096399	0.03461	0.12609	0.34534	0.45637	0.34303	0.25542	0.2282	0.14922	-3.975	-4.7125	-4.1333	-4.7479	-4.5167	-4.1708	-5.0042	-4.5167	-4.2729	-4.8208	-4.1583	-4.7271	-4.5917	-4.1979	-4.5417	-4.4417	210.108	125.253	-24.696	174.421	220.697	193.105	167.335	-105.204	132.758	-53.759	158.558	214.533	184.541	220.778	-107.197	215.093	0.00039026	0.00035438	0.00022697	1484.6	8.5207e-06	1.1117e-05	1462.5	394.61	3.5621e-06	5.0279e-06	449.44	147.48	129.49	44.206	1.0755e-05	54.1	0.0013896	0.0014618	0.00040818	1533.4	1.5913e-05	1.6152e-05	1517.2	412.28	1.608e-05	1.6215e-05	473.15	156.66	137.45	47.095	1.6049e-05	58.094	154.921	49.205	1.007	-115.324	-23.542	4.612	-115.436	-110.704	202.235	59.044	-111.014	-107.185	-106.742	-101.762	18.131	-102.289	-8191	255	
756.699	1	1	0	0	0.13151	0.074297	0.22506	0.18729	0.27117	0.14995	0.25675	0.20529	0.091746	0.097168	0.22036	0.24361	0.18231	0.10946	0.13906	0.20248	-3.7812	-4.7188	-4.2125	-4.7396	-4.6104	-4.1375	-4.8958	-4.4	-4.2208	-4.7875	-4.3542	-4.5458	-4.7021	-4.1042	-4.5333	-4.4917	56.203	-28.652	79.761	-120.579	158.142	135.394	168.371	184.266	-79.801	70.990	-97.072	149.200	183.760	-25.358	-85.151	189.692	0.00053346	0.00029618	0.00019266	1483.2	3.8533e-06	3.5663e-06	1461	394.51	5.209e-06	8.6468e-06	450.01	147.07	129.49	44.252	5.3114e-06	54.346	0.0014102	0.0014718	0.00041079	1534.2	1.5916e-05	1.6122e-05	1515.1	411.75	1.597e-05	1.5973e-05	472.27	156.35	137.4	47.05	1.5817e-05	58.089	163.212	-23.785	-44.793	-115.050	-16.783	-3.217	-115.269	-110.648	-78.891	68.748	-111.028	-107.345	-106.889	-101.617	58.465	-102.445	-8191	255	
756.795	1	1	0	0	0.14153	0.12819	0.24754	0.3052	0.069863	0.17304	0.2442	0.26154	0.20077	0.13503	0.2117	0.026755	0.15925	0.14765	0.2342	0.099996	-3.6875	-4.6583	-4.0625	-4.5646	-4.7458	-4.3125	-5.0375	-4.6583	-4.2083	-4.7667	-4.4667	-4.5062	-4.8458	-4.4479	-4.6604	-4.6229	107.868	-125.288	97.480	-91.308	-75.618	3.717	172.297	198.049	18.370	168.397	-93.167	133.326	146.662	164.093	129.184	141.807	0.00041539	0.0003701	0.00012833	1483.9	9.3594e-06	1.3636e-05	1460.6	395.59	2.5664e-06	3.7231e-06	449.15	148.23	130.09	44.156	4.8038e-06	54.231	0.0013984	0.0014589	0.00040665	1533.6	1.5917e-05	1.5996e-05	1515.6	411.96	1.5998e-05	1.5934e-05	471.58	156.69	137.57	47.069	1.575e-05	58.036	151.458	14.622	-10.751	-114.952	-52.781	17.536	-115.369	-110.814	26.143	60.330	-111.018	-107.280	-106.768	-101.751	-42.739	-102.463	-8191	255	
756.867	1	1	0	0	0.10402	0.084479	0.039703	0.1575	0.038494	0.32406	0.12821	0.23815	0.081621	0.15581	0.22669	0.28113	0.061076	0.079997	0.29713	0.10449	-3.8125	-4.5312	-4.2167	-4.5479	-4.6917	-4.2396	-4.5333	-4.7188	-4.0437	-4.7354	-4.6104	-4.4479	-4.7917	-4.3375	-4.3854	-4.6146	-92.144	-60.011	-32.775	109.551	137.468	-55.584	183.968	163.065	-66.495	79.982	219.242	-102.186	167.722	-13.739	211.217	-61.513	0.0004821	0.0010161	0.00015276	1488	2.4337e-06	4.4488e-06	1469.1	393.32	4.8286e-06	6.329e-06	448.84	148.55	129.93	44.121	6.7936e-06	54.139	0.0013926	0.0014507	0.00040647	1534.6	1.5867e-05	1.6059e-05	1516.8	411.54	1.5837e-05	1.5945e-05	472.24	156.82	137.41	47.033	1.5947e-05	58.117	160.332	-49.007	-1.975	-115.080	42.740	-8.063	-115.350	-110.741	-117.391	69.358	-110.984	-107.336	-106.610	-101.636	99.637	-102.079	-8191	255	
756.987	1	1	0	0	0.13352	0.21846	0.11348	0.023536	0.10736	0.15963	0.38856	0.33074	0.082326	0.11512	0.11842	0.16112	0.039953	0.11869	0.19174	0.22664	-3.6771	-4.5021	-4.3354	-4.4521	-4.7812	-4.3708	-4.8187	-4.8063	-4.0646	-4.5	-4.4979	-4.3896	-4.8875	-4.3396	-4.3375	-4.7	83.396	114.391	-24.335	-114.925	144.531	-116.713	204.609	155.620	-115.890	7.522	110.990	157.294	99.836	-40.626	128.082	197.705	0.00040159	0.00065476	0.00017528	1486	9.223e-06	2.3815e-06	1456.1	394.59	2.4918e-06	2.6539e-06	449.1	148.28	129.24	44.287	1.1623e-05	54.02	0.0013972	0.0014627	0.00040994	1535.7	1.5948e-05	1.6025e-05	1512.7	411.81	1.6048e-05	1.6038e-05	471.97	156.58	137.31	46.972	1.5972e-05	57.977	161.549	-30.337	-60.367	-115.033	-11.857	127.758	-115.170	-110.739	-79.371	-107.635	-110.916	-107.214	-106.573	-101.785	27.976	-102.222	-8191	255	
757.083	1	1	0	0	0.22798	0.14417	0.24369	0.32449	0.30125	0.15629	0.28385	0.25327	0.086289	0.07089	0.11878	0.20057	0.24202	0.18	0.12756	0.085362	-3.7417	-4.5896	-4.4229	-4.3042	-4.6208	-4.15	-4.65	-4.8562	-4.25	-4.4625	-4.6	-4.2583	-4.7396	-4.4708	-4.3229	-4.7375	35.286	187.611	111.270	227.416	-77.892	-43.696	191.505	196.588	-120.932	100.328	149.518	216.473	-107.934	87.308	187.758	133.508	0.00045635	0.00092506	1.1896e-05	1482.4	4.8191e-06	1.0152e-05	1462.6	393.91	4.8669e-06	6.7405e-06	448.78	148.44	129.81	44.188	2.5583e-06	54.184	0.0014018	0.0014533	0.00040447	1534.7	1.5841e-05	1.5912e-05	1513.3	411.58	1.5822e-05	1.5782e-05	472.24	156.83	137.41	46.984	1.5747e-05	58.079	155.909	-2.423	-52.653	-115.062	-66.010	-0.236	-115.407	-110.833	-20.008	11.899	-111.138	-107.324	-106.459	-101.624	-14.830	-102.522	-8191	255	
757.180	1	1	0	0	0.032996	0.22179	0.086871	0.096017	0.11825	0.10377	0.093076	0.12832	0.22705	0.11703	0.075079	0.17403	0.055863	0.088528	0.35095	0.1246	-3.7708	-4.45	-4.5563	-4.2979	-4.6833	-4.2917	-4.5625	-4.9042	-4.0417	-4.3646	-4.8104	-4.2542	-4.7458	-4.4542	-4.1896	-4.8479	-65.845	208.672	227.243	201.133	-4.248	-123.510	41.737	25.436	-73.078	153.679	177.417	107.414	23.825	74.265	-111.759	180.006	0.00045309	0.0010022	0.00018252	1481.9	9.7801e-07	4.9166e-06	1457.4	394.49	4.0291e-06	9.4426e-06	449.9	148.14	129.93	44.066	4.017e-06	53.974	0.0013842	0.0014536	0.00040366	1533.6	1.5773e-05	1.5772e-05	1513.9	411.67	1.5746e-05	1.5895e-05	472.39	156.58	137.42	46.955	1.5754e-05	57.985	167.951	-52.109	-4.221	-115.085	-110.113	24.784	-115.481	-110.539	-8.938	55.843	-110.985	-107.571	-106.425	-101.724	11.351	-102.280	-8191	255	
757.276	1	1	0	0	0.20056	0.072144	0.22851	0.10391	0.17104	0.18198	0.24711	0.25054	0.060831	0.10223	0.31997	0.24555	0.34184	0.26899	0.10114	0.15184	-3.8063	-4.3438	-4.5458	-4.1562	-4.5521	-4.3708	-4.4375	-4.8646	-4.1604	-4.3542	-4.8333	-4.3271	-4.5229	-4.5708	-4.1083	-4.7958	10.458	-40.275	48.573	-83.094	105.577	-5.182	77.668	199.768	51.505	-36.396	118.268	174.623	176.839	210.373	-9.846	59.477	0.00049072	0.0012092	0.00023982	1484.2	5.8083e-06	6.202e-06	1457.5	394.68	4.5112e-06	2.3995e-06	450.48	148.14	129.86	44.128	1.6122e-06	54.203	0.0013732	0.0014427	0.00040287	1533.6	1.572e-05	1.5882e-05	1513.5	411.97	1.5904e-05	1.5847e-05	472.45	156.5	137.36	47.001	1.5758e-05	58.13	161.264	43.307	0.823	-115.051	-15.370	48.293	-115.283	-110.901	-68.618	59.148	-111.009	-107.322	-106.761	-101.570	-37.146	-102.259	-8191	255	
757.395	1	1	0	0	0.017159	0.14828	0.28949	0.25814	0.18074	0.16579	0.06706	0.2996	0.15922	0.10883	0.3245	0.15599	0.10178	0.018582	0.030373	0.18436	-3.9062	-4.3479	-4.5625	-4.2875	-4.5938	-4.4646	-4.3479	-4.6646	-4.425	-4.2333	-4.8313	-4.1917	-4.8583	-4.5813	-4.0583	-4.8313	227.417	193.435	-12.816	-118.921	-28.150	17.501	137.698	203.613	-113.950	12.331	180.419	151.725	-115.827	-93.013	56.540	114.234	0.00047038	0.00035454	7.8258e-05	1487.4	9.1831e-06	7.8194e-06	1455.1	395.01	3.7823e-06	5.623e-06	449.75	147.49	129.31	44.115	1.2177e-05	54.223	0.0013777	0.0014517	0.00040387	1532.8	1.5702e-05	1.5725e-05	1511.6	411.38	1.5646e-05	1.574e-05	472.01	156.07	137.26	46.999	1.5713e-05	58.016	165.497	-79.177	-96.699	-114.909	-124.967	57.021	-115.244	-110.674	-86.156	6.298	-111.000	-107.326	-106.635	-101.796	-7.226	-102.298	-8191	255	
757.491	1	1	0	0	0.15986	0.18927	0.22043	0.34533	0.12883	0.22968	0.14601	0.16414	0.18751	0.098922	0.25803	0.077241	0.17303	0.33791	0.38935	0.2205	-3.9792	-4.1896	-4.6125	-4.3396	-4.3625	-4.5625	-4.1542	-4.6667	-4.2708	-4.1833	-4.8688	-4.3104	-4.5771	-4.6625	-4.1771	-4.6875	-124.352	74.296	-71.879	189.880	-17.755	151.642	140.109	200.695	34.526	155.104	186.461	216.071	125.307	230.778	44.910	189.526	0.0004281	0.00065475	0.00034229	1486	8.2595e-06	6.5113e-06	1458.1	394.81	1.1405e-05	4.989e-06	447.36	147.71	129.78	44.017	4.8853e-06	54.178	0.0013777	0.0014466	0.000406	1532.3	1.579e-05	1.5841e-05	1512.2	411.23	1.5727e-05	1.5952e-05	471.34	156.53	137.3	46.942	1.5845e-05	58.036	157.654	-19.069	-44.178	-115.178	17.063	34.111	-115.398	-110.700	-58.293	137.485	-110.950	-107.219	-106.754	-101.882	-40.850	-102.413	-8191	255	
757.564	1	1	0	0	0.27333	0.033053	0.11575	0.32923	0.23558	0.27339	0.35138	0.20805	0.18674	0.17716	0.068192	0.22481	0.14929	0.23584	0.20637	0.23565	-4.1917	-4.175	-4.7729	-4.3313	-4.2812	-4.5375	-4.2438	-4.7833	-4.4104	-3.9958	-4.9354	-4.2688	-4.3375	-4.6771	-4.0833	-4.6458	152.616	-86.893	95.128	-107.119	-74.790	130.663	178.280	204.176	37.754	-115.782	-111.384	197.742	219.371	-116.504	97.224	174.851	0.000372	0.00064557	0.00018881	1479.6	4.4807e-06	7.4614e-06	1461.9	394.51	7.0074e-06	7.9928e-06	448.71	147.53	129.67	44.332	5.8941e-06	54.098	0.0013736	0.0014515	0.00040146	1531.1	1.5795e-05	1.5818e-05	1514.3	411.71	1.5584e-05	1.5756e-05	471.84	156.66	137.36	46.983	1.5677e-05	58.056	163.224	-40.520	-13.157	-115.116	19.063	-91.598	-115.180	-110.758	-44.309	-5.973	-110.979	-107.088	-106.580	-101.639	-28.254	-102.009	-8191	255	
757.683	1	1	0	0	0.091787	0.26043	0.10574	0.22793	0.077434	0.28552	0.16424	0.10302	0.12829	0.18934	0.30792	0.27949	0.074626	0.23503	0.13243	0.041318	-4.2146	-4.0604	-4.7208	-4.4104	-4.3542	-4.7688	-4.3521	-4.7562	-4.5396	-4.1417	-4.8042	-4.4333	-4.4167	-4.7396	-4.1312	-4.5896	50.387	192.109	79.701	183.858	181.264	101.083	111.203	-40.229	175.403	-100.311	181.948	-98.374	213.126	178.453	-56.513	174.587	0.00035017	0.00080951	0.00027656	1483.1	6.9792e-07	1.9864e-06	1455.8	395.54	5.852e-06	8.5831e-06	448.49	147.4	130.01	44.178	1.498e-06	54.008	0.0013689	0.001448	0.00040242	1529.9	1.589e-05	1.5859e-05	1510.4	411.72	1.5772e-05	1.5883e-05	472.01	156.24	137.45	46.949	1.5612e-05	58.041	155.756	9.550	23.144	-115.120	130.136	-23.569	-115.191	-110.740	-37.606	62.110	-110.975	-107.294	-106.544	-101.690	203.388	-102.354	-8191	255	
757.779	1	1	0	0	0.22561	0.31913	0.15873	0.1496	0.13206	0.24516	0.34732	0.10153	0.044133	0.23105	0.24118	0.25663	0.064437	0.20261	0.15329	0.090501	-4.3792	-4.0833	-4.5708	-4.5083	-4.2312	-4.5979	-4.3063	-4.5	-4.4833	-4.1729	-4.6167	-4.65	-4.3083	-4.9167	-4.3271	-4.4896	172.070	39.507	-81.526	204.934	-61.853	107.631	130.268	-53.516	21.793	-32.620	178.323	145.292	187.054	-79.219	-118.967	156.299	0.00036727	0.00048762	7.1177e-05	1478.1	8.7863e-06	1.4046e-05	1457.8	394.2	7.6672e-06	7.0973e-06	449.14	146.97	129.63	44.188	8.0417e-06	54	0.0013675	0.0014427	0.00040163	1529.8	1.5767e-05	1.5868e-05	1512	411.57	1.5556e-05	1.5888e-05	472.42	156.24	137.46	46.996	1.5721e-05	58.081	159.170	-68.415	68.432	-115.009	-73.775	47.869	-115.435	-110.667	4.082	-18.451	-110.917	-107.241	-106.755	-101.641	16.852	-102.320	-8191	255	
757.875	1	1	0	0	0.086628	0.076334	0.092719	0.078726	0.097966	0.11655	0.1641	0.30206	0.25342	0.14993	0.17905	0.21814	0.19315	0.14642	0.21207	0.33588	-4.3458	-4.0667	-4.5417	-4.7208	-4.2542	-4.7229	-4.5458	-4.4104	-4.6604	-4.0771	-4.6	-4.5062	-4.2312	-4.8854	-4.3187	-4.25	18.427	-93.765	42.142	119.057	4.180	67.951	217.483	139.935	65.237	-100.302	114.578	184.546	219.043	113.698	206.108	208.024	0.0003368	0.00035568	4.2381e-05	1486	4.3022e-06	1.1743e-05	1457	395.97	5.2342e-06	8.1146e-06	448.94	147.7	130.07	44.03	8.9163e-06	54.411	0.0013815	0.0014564	0.0004065	1532.4	1.5907e-05	1.5862e-05	1512.3	412.38	1.5679e-05	1.5922e-05	472.45	156.33	137.55	46.962	1.5636e-05	58.159	158.597	-69.887	202.871	-115.078	207.824	70.900	-115.304	-110.783	-14.589	142.115	-110.977	-107.183	-106.432	-101.870	13.744	-102.074	-8191	255	
757.972	1	1	0	0	0.080372	0.15975	0.072995	0.22861	0.21467	0.20435	0.20555	0.17095	0.15853	0.062014	0.15639	0.14542	0.22537	0.11901	0.34298	0.196	-4.3708	-4.1042	-4.525	-4.775	-4.0875	-4.7125	-4.5021	-4.3417	-4.6792	-4.1396	-4.6625	-4.7438	-4.2229	-4.6729	-4.4375	-4.2583	148.918	-9.141	226.199	210.118	-39.116	180.593	143.554	135.994	82.470	171.281	-98.596	173.905	207.196	-109.496	-103.174	103.985	0.00032712	0.00050961	0.00013828	1486.4	1.7515e-06	8.9591e-06	1458.1	394.78	8.179e-06	9.6081e-06	447.94	147.79	129.56	44.206	3.87e-06	54.079	0.0013611	0.0014366	0.0003997	1532.5	1.5634e-05	1.5684e-05	1511.8	411.72	1.5563e-05	1.5769e-05	472	156.41	137.47	46.993	1.5558e-05	58.008	196.010	36.174	-57.714	-115.159	-82.918	22.694	-115.288	-110.628	-63.255	4.602	-111.126	-107.466	-106.658	-101.687	40.803	-102.086	-8191	255	
758.092	1	1	0	0	0.075608	0.17917	0.074255	0.068138	0.20706	0.25723	0.28017	0.33504	0.12827	0.11368	0.18722	0.2884	0.060933	0.12379	0.18511	0.29141	-4.3333	-4.0938	-4.2729	-4.6937	-4.0479	-4.5896	-4.6458	-4.3792	-4.6458	-4.175	-4.4583	-4.7438	-4.1542	-4.8021	-4.3125	-4.1458	-37.493	-10.286	-77.820	172.882	74.193	-23.939	147.011	189.483	-82.330	-1.953	205.464	-128.390	174.678	231.302	166.716	206.599	0.00043196	0.00032621	0.00010564	1481.6	1.4166e-06	5.1221e-06	1456.2	394.4	1.2686e-06	5.179e-06	450.23	147.96	129.99	44.297	2.6978e-06	54.177	0.001369	0.0014386	0.00040318	1532	1.5707e-05	1.5863e-05	1512.9	412.37	1.584e-05	1.5945e-05	472.48	156.68	137.47	47.03	1.5746e-05	58.125	168.885	-127.878	210.778	-115.064	179.491	-34.835	-115.368	-110.601	-5.878	36.666	-110.843	-107.305	-106.746	-101.750	20.598	-102.085	-8191	255	
758.164	1	1	0	0	0.066243	0.13834	0.28771	0.13561	0.20681	0.19478	0.10682	0.1688	0.19367	0.024528	0.31352	0.079246	0.20393	0.086591	0.32893	0.080769	-4.3708	-4.2021	-4.3083	-4.85	-4.0854	-4.4812	-4.6354	-4.3	-4.5646	-4.2292	-4.3729	-4.9062	-4.0813	-4.5792	-4.6083	-4.3167	-23.668	-14.055	-127.076	180.945	80.779	119.808	206.059	190.520	224.747	62.565	169.308	-72.842	153.831	88.418	109.832	194.493	0.0004487	0.00068678	0.00018528	1486	4.0517e-06	7.9366e-06	1454.8	395.6	4.4159e-06	2.1885e-06	449.76	147.07	129.79	44.29	5.7837e-06	54.286	0.0013786	0.001452	0.00040971	1532.2	1.579e-05	1.5912e-05	1511.1	412.14	1.5716e-05	1.5912e-05	472.46	156.31	137.42	47.08	1.5723e-05	58.165	150.883	-4.119	-57.612	-115.163	37.813	64.601	-115.318	-110.886	-17.756	-3.620	-110.858	-107.317	-106.852	-101.553	96.466	-102.574	-8191	255	
758.284	1	1	0	0	0.15513	0.18388	0.15206	0.22306	0.091153	0.1965	0.2876	0.12734	0.21799	0.19047	0.28242	0.14546	0.049207	0.041441	0.16033	0.36759	-4.4396	-4.3333	-4.1375	-4.8167	-4.0167	-4.3958	-4.8167	-4.2542	-4.5604	-4.3708	-4.3875	-4.85	-4.1562	-4.4354	-4.525	-4.2458	132.120	94.871	24.131	172.379	145.913	221.157	184.582	215.274	28.136	16.187	227.149	91.020	63.059	25.841	-86.808	180.068	0.00040452	0.00073095	0.0002091	1483.6	4.4215e-06	1.9417e-06	1453.9	395.2	3.8808e-06	1.1651e-05	450.23	147.63	130.24	44.103	8.3826e-06	54.257	0.0013872	0.0014571	0.00040863	1531.2	1.5846e-05	1.5972e-05	1511.2	411.85	1.5841e-05	1.5983e-05	472.68	156.53	137.77	46.99	1.5852e-05	58.125	154.128	-102.024	-75.110	-115.020	-15.168	133.450	-115.314	-110.757	-53.645	13.441	-110.880	-107.433	-106.726	-101.917	-64.308	-102.210	-8191	255	
758.381	1	1	0	0	0.084872	0.16028	0.29684	0.14174	0.10491	0.22578	0.079559	0.098251	0.074275	0.18145	0.14484	0.22784	0.16626	0.1412	0.24238	0.051251	-4.3771	-4.2604	-4.1208	-4.9083	-4.2521	-4.3542	-4.9083	-4.2937	-4.6062	-4.4479	-4.2667	-4.8438	-4.2479	-4.3583	-4.6292	-4.1917	192.935	-15.032	67.536	204.844	-3.584	-89.688	-94.467	151.506	116.989	-15.940	218.685	-105.873	222.662	195.261	105.186	141.916	0.00053486	0.00021285	8.7545e-05	1481.1	1.9318e-06	4.5529e-06	1457.1	393.7	2.3022e-06	3.7397e-06	448.07	147.31	129.67	44.216	2.8386e-06	54.036	0.0013779	0.0014599	0.0004057	1534.4	1.601e-05	1.6054e-05	1514.4	411.56	1.6033e-05	1.6115e-05	472.63	156.44	137.39	47.04	1.6016e-05	58.084	165.827	11.630	14.244	-115.002	-67.916	90.895	-115.364	-110.702	151.815	-39.710	-110.807	-107.319	-106.663	-101.442	228.976	-102.274	-8191	255	
758.475	1	1	0	0	0.099303	0.051387	0.21035	0.22117	0.051804	0.27043	0.27277	0.21968	0.14793	0.18606	0.19138	0.31481	0.17597	0.12846	0.19482	0.11374	-4.1604	-4.5062	-4.0792	-4.9	-4.2896	-4.2688	-4.925	-4.3542	-4.7104	-4.4792	-4.2354	-4.6208	-4.4833	-4.2771	-4.7083	-4.2958	-66.685	130.922	-14.129	137.548	44.139	9.303	170.282	-87.199	41.745	-14.080	126.736	230.126	154.547	182.281	2.275	118.823	0.00049262	0.00053103	0.00013835	1481.5	3.3377e-06	1.0764e-05	1459.2	394.45	3.8823e-06	6.7217e-06	450.86	148.11	129.45	44.291	5.0867e-06	54.109	0.0014124	0.00147	0.00041592	1533.4	1.6018e-05	1.6271e-05	1513	412.11	1.609e-05	1.6137e-05	473.31	156.75	137.35	47.073	1.6077e-05	58.142	173.264	22.735	-31.629	-115.150	76.632	51.125	-115.503	-110.644	1.989	-68.689	-111.156	-107.222	-106.752	-101.517	-87.416	-102.142	-8191	255	
758.571	1	1	0	0	0.30289	0.045613	0.34986	0.18647	0.21909	0.088814	0.28223	0.13089	0.26216	0.10924	0.21238	0.30559	0.22849	0.37354	0.19948	0.089246	-4.1521	-4.7375	-4.0375	-4.8042	-4.4542	-4.05	-4.9437	-4.3917	-4.475	-4.6771	-4.1229	-4.7771	-4.65	-4.2958	-4.9042	-4.3292	73.349	18.255	139.750	189.520	147.297	-13.713	149.647	-111.211	-74.583	151.139	196.385	-97.791	156.884	174.785	25.952	201.618	0.00041713	0.0004107	4.9603e-05	1479.9	5.902e-06	4.8496e-06	1459	393.76	8.2399e-06	3.9564e-06	450.48	146.76	129.56	43.995	9.7414e-06	54.175	0.0014264	0.0014743	0.00041353	1533.8	1.6036e-05	1.6137e-05	1514.2	411.71	1.6165e-05	1.6179e-05	472.78	156.39	137.44	47.016	1.6037e-05	58.084	160.011	35.099	-54.410	-115.214	-82.491	35.247	-115.467	-110.638	-39.471	82.980	-111.052	-107.218	-106.734	-101.712	-5.852	-102.387	-8191	255	
758.692	1	1	0	0	0.23496	0.14114	0.22882	0.30336	0.1835	0.14185	0.36811	0.26686	0.1376	0.098202	0.11514	0.058479	0.17138	0.10461	0.11891	0.1996	-4.1167	-4.6417	-4.0813	-4.8708	-4.6042	-4.2042	-4.8958	-4.4958	-4.2979	-4.6542	-4.3521	-4.5729	-4.5833	-4.2896	-4.6396	-4.4771	175.472	20.017	-74.364	172.411	104.742	-110.364	178.808	174.357	-90.756	-92.034	140.200	-112.472	149.395	192.384	-117.730	197.925	0.00059862	0.0010555	9.847e-05	1482.3	4.6633e-06	4.7496e-06	1462.2	393.26	4.5222e-06	9.4014e-06	449.15	147.38	129.76	44.371	2.5179e-06	54.273	0.0014244	0.0014838	0.00041585	1532.7	1.6275e-05	1.6323e-05	1514.9	411.66	1.6217e-05	1.6221e-05	472.09	156.77	137.32	47.102	1.6077e-05	58.213	159.092	-37.201	-19.203	-115.079	-52.671	-51.648	-115.210	-110.706	-75.465	19.069	-110.796	-107.367	-106.660	-101.651	98.372	-102.224	-8191	255	
758.788	1	1	0	0	0.12572	0.13872	0.1816	0.19499	0.11266	0.17234	0.17985	0.22896	0.14668	0.096389	0.13428	0.26722	0.10126	0.15477	0.083915	0.095642	-3.8833	-4.6854	-4.0521	-4.7125	-4.5563	-4.1625	-4.8479	-4.5062	-4.1271	-4.6458	-4.4417	-4.5437	-4.8187	-4.1271	-4.5354	-4.5208	204.239	-106.254	-23.922	201.745	24.648	152.712	144.987	-59.647	52.948	77.123	160.931	-60.495	159.927	215.749	73.872	100.822	0.00039424	0.00022826	9.7058e-05	1482.5	8.3773e-06	5.8088e-06	1456.7	395.28	7.9644e-06	3.8264e-06	449.04	147.79	129.72	44.079	3.446e-06	54.202	0.0014196	0.0014816	0.0004146	1533.3	1.6174e-05	1.6279e-05	1513.5	411.91	1.6232e-05	1.6224e-05	472.33	156.66	137.29	47.02	1.6028e-05	58.187	163.644	-90.079	-68.749	-114.971	46.112	-112.988	-115.390	-110.765	-33.485	31.754	-110.976	-107.279	-106.717	-101.630	134.539	-102.204	-8191	255	
758.860	1	1	0	0	0.21207	0.081793	0.093041	0.30665	0.19673	0.10794	0.2058	0.12734	0.059587	0.017911	0.070581	0.087579	0.26095	0.23465	0.079598	0.28891	-3.8167	-4.6917	-4.1792	-4.6188	-4.6417	-4.1167	-4.9125	-4.4333	-4.125	-4.7354	-4.4104	-4.4062	-4.7875	-4.1958	-4.4958	-4.5042	203.209	-41.026	17.159	230.792	-89.561	207.614	-126.940	220.613	32.876	48.841	105.499	-103.816	160.904	99.851	110.921	147.930	0.00047756	0.00020476	5.0059e-05	1480.8	6.3889e-06	2.1761e-06	1454.7	394.06	1.6029e-06	3.465e-06	448.97	147.68	129.43	43.98	9.6114e-06	54.401	0.0014181	0.0014853	0.00041231	1532	1.6065e-05	1.6212e-05	1512.1	411.85	1.6109e-05	1.6005e-05	472.59	156.46	137.45	46.956	1.6076e-05	58.14	156.802	191.338	-32.190	-115.104	34.038	25.028	-115.055	-110.784	-46.072	10.066	-111.061	-107.377	-106.671	-101.573	-36.999	-102.361	-8191	255	
758.956	1	1	0	0	0.17484	0.27551	0.28103	0.13316	0.094758	0.14225	0.25279	0.2003	0.09662	0.053309	0.1759	0.068801	0.45042	0.082892	0.14946	0.15501	-3.8417	-4.6167	-4.125	-4.3521	-4.6	-3.8604	-4.55	-4.6521	-4.025	-4.6729	-4.5854	-4.3104	-4.7292	-4.1417	-4.3896	-4.5563	194.024	91.156	-72.329	205.890	42.027	93.957	168.920	185.688	-48.904	36.338	-60.195	225.358	176.603	-123.988	133.250	173.143	0.00041965	0.00059501	0.00011332	1477.7	5.1818e-06	6.8416e-06	1454.9	394.92	4.1448e-07	4.8736e-06	449.38	147.47	129.36	44.183	7.3547e-06	53.942	0.0014172	0.0014694	0.00040768	1529.5	1.5957e-05	1.6151e-05	1511.5	412.24	1.6094e-05	1.6046e-05	472	156.58	137.35	47.095	1.6172e-05	58.08	161.857	-71.293	-76.983	-115.101	17.498	40.997	-115.345	-110.708	-99.322	69.118	-111.061	-107.391	-106.641	-101.762	7.963	-102.387	-8191	255	
759.076	1	1	0	0	0.0529	0.14166	0.050361	0.31473	0.061394	0.22946	0.019331	0.15168	0.21794	0.13247	0.2342	0.21937	0.15414	0.11068	0.10598	0.13745	-3.8271	-4.6687	-4.2729	-4.35	-4.6458	-4.1125	-4.6792	-4.9	-4.2063	-4.5479	-4.4854	-4.3375	-4.9646	-4.2542	-4.3	-4.5625	-116.738	130.412	-70.040	182.799	-26.192	169.286	212.071	130.290	-16.092	10.747	179.656	152.726	219.552	147.340	-49.758	160.282	0.00034237	0.0007219	0.00018987	1484.7	7.6938e-06	8.6572e-07	1453.3	394.31	5.2034e-06	5.9249e-06	448.52	147.34	129.45	44.221	3.0272e-06	54.255	0.0014142	0.0014817	0.00041482	1533.3	1.601e-05	1.6248e-05	1511.7	411.86	1.607e-05	1.6228e-05	472.18	156.43	137.25	47.076	1.6074e-05	58.086	174.507	-19.265	-47.697	-115.052	74.802	30.498	-115.382	-110.652	89.654	-17.260	-110.979	-107.264	-106.640	-101.630	-30.898	-102.347	-8191	255	
759.173	1	1	0	0	0.18976	0.056498	0.032701	0.1422	0.17261	0.37189	0.29852	0.2383	0.21545	0.15003	0.17484	0.21494	0.11144	0.097379	0.12959	0.075678	-3.6833	-4.5417	-4.3896	-4.2146	-4.6979	-4.2229	-4.4479	-4.8187	-4.1188	-4.6104	-4.6042	-4.1354	-4.8729	-4.4	-4.3854	-4.8375	214.468	90.704	109.242	-113.364	85.582	194.986	173.920	192.898	194.621	-96.257	135.251	188.084	164.392	-83.136	-115.942	-56.994	0.00033256	0.000991	8.3318e-05	1478.5	6.3075e-06	7.0103e-06	1458.6	393.64	6.1096e-07	9.3368e-06	448.84	147.91	129.63	44.234	5.4427e-06	54.057	0.0014048	0.0014728	0.00041195	1530.7	1.5955e-05	1.6001e-05	1512.7	411.44	1.5987e-05	1.6194e-05	472.07	156.54	137.35	47.063	1.6215e-05	58.065	164.909	52.404	-37.930	-115.089	43.599	10.365	-115.389	-110.828	-31.954	87.570	-110.682	-107.066	-106.647	-101.701	60.375	-102.307	-8191	255	
759.267	1	1	0	0	0.040648	0.17445	0.058899	0.20804	0.057222	0.13141	0.071208	0.13931	0.23994	0.20482	0.29055	0.35572	0.083714	0.11438	0.15985	0.1371	-3.6146	-4.3688	-4.325	-4.1917	-4.6771	-4.3729	-4.5021	-4.8292	-4.1833	-4.4208	-4.7125	-4.275	-4.7021	-4.3917	-4.2583	-4.8604	220.723	123.887	216.565	177.733	93.787	-47.752	157.129	205.665	-90.920	193.223	187.621	143.848	-57.546	208.440	113.425	-18.836	0.00047429	0.00043764	5.2894e-05	1485.1	1.5022e-06	3.98e-06	1456.3	394.2	4.7372e-06	5.3683e-06	449.6	147.79	129.2	44.206	6.7925e-06	54.032	0.0014238	0.0014962	0.00041496	1534	1.6217e-05	1.6344e-05	1513.5	412.05	1.6395e-05	1.6418e-05	472.68	156.85	137.55	47.14	1.6596e-05	58.176	170.351	-83.725	-12.810	-114.993	225.780	28.706	-115.651	-110.780	-126.076	26.722	-110.796	-107.286	-106.506	-101.612	-96.253	-102.239	-8191	255	
759.365	1	1	0	0	0.23298	0.25139	0.16149	0.35903	0.056621	0.26263	0.17058	0.05085	0.23413	0.12438	0.17829	0.32746	0.22693	0.065247	0.13786	0.12905	-3.85	-4.5229	-4.3812	-4.0813	-4.5979	-4.2729	-4.3271	-4.9167	-4.1229	-4.3438	-4.8417	-4.225	-4.6854	-4.4625	-4.0229	-4.925	65.312	169.542	-114.744	178.996	-86.214	201.011	220.142	181.056	15.767	134.080	227.939	196.562	211.875	195.591	142.003	-95.854	0.00041836	0.00080081	0.00019731	1482.2	9.9993e-06	6.9062e-06	1459.2	395.46	2.4945e-06	1.0962e-05	449.09	146.77	129.28	44.139	1.3162e-05	54.217	0.0014602	0.0015254	0.00042387	1534.5	1.6619e-05	1.6819e-05	1515	412.78	1.6855e-05	1.6878e-05	473.17	156.74	137.84	47.182	1.6996e-05	58.362	182.071	-90.610	6.785	-115.103	-98.431	127.391	-115.342	-110.802	72.970	12.598	-111.050	-107.125	-106.684	-101.612	-0.035	-102.070	-8191	255	
759.461	1	1	0	0	0.047299	0.034245	0.15447	0.26569	0.16456	0.16237	0.26918	0.11914	0.1547	0.16167	0.049581	0.18577	0.21009	0.22008	0.093912	0.30316	-3.8646	-4.2792	-4.5271	-4.3042	-4.4688	-4.5917	-4.3792	-4.825	-4.1542	-4.1604	-4.7771	-4.0938	-4.6333	-4.6104	-4.15	-4.6646	213.991	190.840	-100.022	159.116	142.298	177.584	189.470	135.725	220.918	121.536	116.901	149.955	-118.040	177.761	-76.505	211.218	0.00041886	0.00065557	0.00018784	1483.6	4.0744e-06	2.3052e-06	1456.6	395.37	4.8223e-06	1.2106e-05	447.83	147.65	129.42	44.055	1.2646e-05	54.345	0.0014979	0.0015704	0.0004372	1535.7	1.7179e-05	1.7271e-05	1516.3	413.12	1.7271e-05	1.7458e-05	474.02	156.99	137.97	47.268	1.7315e-05	58.5	145.835	-15.613	-58.891	-114.926	-34.723	-36.405	-115.149	-110.675	-52.627	50.418	-110.841	-107.400	-106.804	-101.855	14.935	-102.130	-8191	255	
759.555	1	1	0	0	0.31344	0.091393	0.14476	0.28769	0.020309	0.10323	0.11043	0.27094	0.15056	0.25718	0.27272	0.059867	0.16828	0.28502	0.072142	0.1536	-3.9062	-4.2063	-4.8375	-4.2625	-4.4417	-4.6146	-4.2562	-4.9083	-4.4292	-4.35	-4.7458	-4.2125	-4.6146	-4.7917	-4.1146	-4.7625	112.794	13.860	-71.665	209.137	88.951	21.076	146.545	148.463	221.076	-114.118	183.238	172.269	200.393	162.946	175.546	145.641	0.00047226	0.00018961	0.00030838	1482.6	2.585e-06	6.4102e-06	1453.1	393.95	6.9936e-06	1.3949e-05	449.7	147.55	129.27	44.245	5.3797e-06	54.107	0.0015226	0.0015984	0.0004443	1537.5	1.7563e-05	1.7638e-05	1516.9	413.5	1.7572e-05	1.7779e-05	475.18	157.39	138.09	47.352	1.7748e-05	58.604	161.066	212.927	-94.508	-115.003	-75.295	48.748	-115.212	-110.615	-36.736	-9.248	-111.139	-107.251	-106.777	-101.716	-42.387	-101.980	-8191	255	
759.652	1	1	0	0	0.14445	0.11187	0.095382	0.10302	0.1576	0.11947	0.22414	0.11191	0.10553	0.044588	0.049123	0.13818	0.15277	0.15324	0.13688	0.11466	-4.0375	-4.2229	-4.6583	-4.4437	-4.3438	-4.7354	-4.3625	-4.6438	-4.3917	-4.1917	-4.9604	-4.3208	-4.3875	-4.6625	-4.1208	-4.6979	63.144	-98.272	224.981	205.824	-120.024	83.156	195.435	150.093	74.748	-64.503	46.470	208.120	-102.270	140.188	-92.146	184.411	0.00042046	0.0010079	7.8097e-05	1486.4	5.6471e-06	9.2222e-06	1456.3	394.64	4.6589e-06	6.1645e-06	448.18	147.8	130.03	44.162	2.6693e-06	54.027	0.0015501	0.0016363	0.00045536	1540.1	1.7875e-05	1.7854e-05	1517.6	413.96	1.7902e-05	1.8061e-05	475.11	157.48	138.47	47.345	1.7931e-05	58.555	158.952	-27.671	-116.940	-114.992	-99.736	80.085	-115.442	-110.518	-122.307	37.862	-110.897	-107.220	-106.516	-101.642	53.305	-102.198	-8191	255	
759.772	1	1	0	0	0.095826	0.25775	0.074799	0.086126	0.065754	0.20113	0.39288	0.20936	0.10505	0.19721	0.031109	0.27511	0.17723	0.081987	0.23774	0.144	-4.2896	-4.0813	-4.7708	-4.4667	-4.3271	-4.7583	-4.4771	-4.5521	-4.5	-4.1146	-4.9167	-4.3125	-4.4396	-4.8729	-4.1333	-4.5667	18.331	73.373	17.321	-54.148	214.422	-117.530	195.840	205.867	22.114	115.760	-126.757	-103.637	139.186	118.747	145.584	-113.441	0.00040375	0.00048713	0.00026144	1480.4	6.9251e-06	5.4075e-06	1454.5	393.57	5.0397e-06	1.354e-05	450.65	147.42	129.13	44.131	6.8028e-06	54.051	0.0015577	0.0016436	0.0004576	1537.8	1.797e-05	1.8064e-05	1518.8	413.85	1.7921e-05	1.8223e-05	476.37	157.4	138.29	47.401	1.8095e-05	58.628	159.670	-44.883	1.562	-115.129	33.831	64.240	-115.238	-110.592	-22.895	-17.852	-110.992	-107.546	-106.781	-101.735	-87.857	-102.126	-8191	255	
759.868	1	1	0	0	0.01166	0.18051	0.055449	0.15137	0.1426	0.10806	0.16188	0.25055	0.08938	0.096398	0.23687	0.12659	0.18876	0.11854	0.036628	0.20697	-4.2896	-4.0604	-4.6458	-4.5542	-4.3021	-4.6958	-4.3958	-4.5917	-4.5375	-4.1438	-4.6771	-4.55	-4.325	-4.8875	-4.2792	-4.3313	211.317	-63.722	-29.565	165.979	91.002	-67.822	182.284	172.859	-116.485	-105.341	177.789	136.681	205.234	180.225	217.189	173.717	0.0004113	0.00070174	0.0002974	1484.2	5.1154e-06	1.328e-05	1453.8	393.95	6.1865e-06	2.5734e-06	448.96	148	130	44.13	6.7561e-06	54.037	0.0015792	0.0016803	0.00046467	1540	1.8193e-05	1.8197e-05	1518.6	413.78	1.8231e-05	1.8402e-05	475.51	157.93	138.65	47.388	1.8319e-05	58.683	166.727	-33.792	0.026	-115.066	-4.461	56.684	-115.122	-110.865	1.021	126.867	-110.982	-107.289	-106.594	-101.727	-16.478	-102.015	-8191	255	
759.964	1	1	0	0	0.01435	0.32334	0.235	0.27637	0.11642	0.041012	0.19456	0.021571	0.091067	0.14835	0.063059	0.23222	0.23219	0.09578	0.18332	0.12843	-4.1729	-3.95	-4.45	-4.6125	-4.2083	-4.6896	-4.4313	-4.5146	-4.65	-3.9688	-4.6708	-4.6188	-4.4062	-4.8438	-4.0938	-4.2312	91.347	-115.850	34.273	224.932	231.265	-77.631	163.163	-35.337	158.941	198.924	125.299	138.521	171.295	-74.546	-14.880	181.329	0.00058561	0.00033759	0.00017664	1478.5	3.3039e-06	5.2056e-06	1459.3	394.76	4.2882e-06	5.5217e-06	448.21	147.71	129.51	44.09	1.9383e-06	54.006	0.0015929	0.0016767	0.00046882	1539.1	1.8324e-05	1.8343e-05	1519.7	414.5	1.8346e-05	1.8503e-05	475.82	157.63	138.52	47.415	1.8422e-05	58.789	158.016	-7.621	-10.233	-115.165	-41.864	-5.621	-115.053	-110.548	-98.303	-5.737	-111.224	-107.299	-106.602	-101.808	72.219	-102.353	-8191	255	
760.061	1	1	0	0	0.23053	0.061394	0.13868	0.19372	0.11126	0.40524	0.21013	0.27773	0.073326	0.10412	0.30249	0.20155	0.18616	0.38754	0.12833	0.14776	-4.3833	-4.0354	-4.3604	-4.5896	-4.0979	-4.7021	-4.4521	-4.3063	-4.6167	-4.1521	-4.5312	-4.7021	-4.2688	-4.7146	-4.3167	-4.2792	221.913	23.303	-53.348	206.641	83.294	56.358	185.998	-125.850	159.453	71.607	193.639	-120.021	-38.900	-126.872	226.569	210.280	0.00044567	0.0009312	7.6841e-05	1481.5	4.8665e-07	3.9491e-06	1457.6	393.39	4.7675e-06	1.1812e-05	448.65	148.17	129.58	44.13	3.6739e-06	54.148	0.0015909	0.0016912	0.00047112	1539.5	1.8451e-05	1.847e-05	1520.5	414.47	1.8315e-05	1.8613e-05	476.31	158.01	138.59	47.436	1.8425e-05	58.851	136.419	-10.127	-119.166	-115.134	149.607	97.392	-115.160	-110.563	-91.698	-4.245	-110.930	-107.548	-106.746	-101.728	-43.995	-102.258	-8191	255	
760.157	1	1	0	0	0.18888	0.054943	0.12947	0.36779	0.10502	0.019899	0.30477	0.2186	0.18024	0.17174	0.19567	0.26949	0.32352	0.11819	0.295	0.12706	-4.2688	-4.0479	-4.4667	-4.8938	-4.0625	-4.65	-4.5833	-4.2583	-4.7042	-4.0875	-4.5042	-4.8208	-4.0938	-4.7854	-4.4771	-4.2375	105.872	-9.483	-107.549	175.347	-13.497	55.592	145.433	189.345	204.291	165.611	217.604	214.794	196.996	96.538	76.097	-128.207	0.00056488	0.00030184	0.0002156	1482.2	4.4081e-06	8.7959e-06	1459.6	392.78	2.3407e-06	8.2921e-06	449.54	147.63	129.66	44.131	2.7824e-06	54.054	0.0016159	0.0017112	0.00047662	1540.5	1.8626e-05	1.87e-05	1522	414.59	1.8542e-05	1.8835e-05	476.73	157.93	138.8	47.515	1.8643e-05	58.784	163.511	-79.259	-115.712	-115.034	33.770	73.794	-115.251	-110.769	220.601	-41.586	-110.698	-107.101	-106.522	-101.728	-67.065	-102.177	-8191	255	
760.253	1	1	0	0	0.13437	0.1271	0.064021	0.20245	0.24224	0.22985	0.082427	0.10987	0.24045	0.18252	0.043489	0.19069	0.39438	0.089432	0.099372	0.039241	-4.4313	-4.2021	-4.3479	-4.8583	-4.1438	-4.4854	-4.6312	-4.1229	-4.5292	-4.2688	-4.4083	-4.8083	-4.3458	-4.7833	-4.5229	-4.2292	-82.766	211.009	164.732	125.369	-86.750	39.394	201.584	159.596	228.432	106.047	191.565	133.789	218.054	-5.698	-52.805	56.571	0.00046459	0.00080397	0.00027551	1480.8	1.2548e-06	8.3589e-06	1454.6	394.15	6.6008e-07	5.6592e-06	449.87	147.23	129.47	44.108	8.0094e-06	54.331	0.0016294	0.0017138	0.00047756	1540.5	1.861e-05	1.8724e-05	1519.8	415.26	1.8574e-05	1.8745e-05	477.3	157.92	138.72	47.504	1.8607e-05	58.837	168.051	-48.035	-15.310	-114.972	161.346	-67.920	-115.348	-110.753	50.329	35.190	-110.980	-107.173	-106.716	-101.648	-63.290	-102.527	-8191	255	
760.349	1	1	0	0	0.12577	0.1105	0.078372	0.24431	0.21518	0.057258	0.10802	0.20112	0.30755	0.2479	0.16557	0.2533	0.21632	0.15613	0.20728	0.087782	-4.3771	-4.3042	-4.2	-4.7979	-4.2438	-4.3604	-4.7312	-4.1729	-4.7521	-4.3208	-4.3313	-4.7604	-4.4688	-4.6125	-4.6438	-4.2875	132.967	-28.490	-26.668	202.683	127.570	124.522	128.404	168.367	137.934	-73.834	-40.634	148.544	218.641	-122.138	16.573	119.097	0.00043577	0.0007605	9.0919e-05	1482.3	1.227e-05	5.2293e-06	1459.5	395.37	4.8663e-06	8.8051e-06	447.36	147.93	129.84	44.178	9.3417e-06	54.106	0.0016206	0.0017131	0.00047835	1542	1.8619e-05	1.8951e-05	1522	414.85	1.8809e-05	1.8936e-05	476.83	158.11	138.89	47.515	1.895e-05	58.857	168.929	-111.398	17.154	-115.042	-48.798	22.064	-115.288	-110.606	-58.719	3.705	-110.905	-107.339	-106.650	-101.724	-45.167	-102.277	-8191	255	
760.468	1	1	0	0	0.030001	0.19504	0.21746	0.053862	0.073648	0.08116	0.27483	0.22676	0.31491	0.12654	0.25136	0.12367	0.27721	0.14696	0.073853	0.081762	-4.1708	-4.2854	-4.1521	-4.9104	-4.2396	-4.4292	-4.7562	-4.2854	-4.4229	-4.4354	-4.3708	-4.7896	-4.3396	-4.4979	-4.7271	-4.2188	92.294	46.480	25.773	108.067	-79.278	144.276	171.707	176.132	72.441	-12.794	170.849	78.753	-124.411	158.520	35.538	32.696	0.00043394	0.00053527	0.0001448	1481.2	5.7093e-06	3.8374e-06	1457.4	394.63	6.1181e-06	5.3971e-06	449.34	147.75	129.12	44.121	7.895e-06	54.202	0.0016453	0.0017321	0.00048627	1540.9	1.8813e-05	1.9103e-05	1523.7	414.83	1.8967e-05	1.9151e-05	477.05	158.11	138.9	47.579	1.9123e-05	58.94	163.272	-94.495	-87.564	-115.046	43.320	-15.793	-115.285	-110.677	179.412	187.487	-110.999	-107.304	-106.753	-101.477	-14.464	-102.300	-8191	255	
760.564	1	1	0	0	0.26395	0.034789	0.055726	0.10083	0.20876	0.11859	0.060612	0.40051	0.022745	0.046453	0.27193	0.16599	0.27909	0.097719	0.19424	0.14909	-4.0396	-4.4896	-3.9083	-4.8958	-4.4479	-4.2167	-4.8833	-4.3646	-4.5354	-4.4604	-4.2042	-4.7208	-4.5292	-4.4646	-4.6021	-4.2229	-8.705	215.602	139.654	137.502	-65.155	129.028	132.403	151.993	105.706	87.697	214.871	-43.580	181.769	205.602	-56.404	221.822	0.00050247	0.00035478	0.00048521	1480.4	4.8718e-06	2.2326e-06	1460.6	394.15	1.6237e-06	1.3251e-06	450.1	147.43	129.54	44.2	4.627e-06	54.427	0.0016739	0.0017537	0.00049247	1543.8	1.921e-05	1.9483e-05	1525.3	415.63	1.917e-05	1.9436e-05	478.01	158.4	138.95	47.653	1.9152e-05	58.973	179.839	222.622	-37.963	-114.997	15.922	77.145	-115.283	-110.676	178.233	-50.525	-110.968	-107.368	-106.599	-101.841	191.386	-102.346	-8191	255	
760.660	1	1	0	0	0.16366	0.2378	0.16022	0.18946	0.11062	0.24993	0.38659	0.14045	0.1713	0.029598	0.041568	0.24015	0.18699	0.23803	0.31176	0.19718	-4.3271	-4.5208	-4.0729	-4.8125	-4.3458	-4.2646	-4.8688	-4.4021	-4.5458	-4.525	-4.375	-4.7354	-4.5333	-4.2583	-4.5167	-4.1667	92.112	32.681	200.668	204.845	-103.658	101.660	181.000	190.112	108.609	-75.712	151.139	190.264	203.670	-95.853	-92.180	219.990	0.00033346	0.00049189	0.00025432	1482.1	3.3829e-06	4.7892e-06	1459	393.37	3.1718e-06	2.8287e-06	449.65	147.71	129.46	43.916	5.4046e-06	54.357	0.0016814	0.0017614	0.00049441	1545.9	1.9278e-05	1.9634e-05	1526.1	415.81	1.9347e-05	1.9327e-05	478.77	158.44	138.89	47.554	1.9257e-05	59.065	176.854	194.553	-55.498	-115.033	10.589	-21.854	-115.058	-110.731	194.654	-28.869	-111.004	-107.362	-106.599	-101.404	194.527	-102.334	-8191	255	
760.732	1	1	0	0	0.070385	0.039844	0.064795	0.15735	0.12106	0.12054	0.068932	0.052105	0.12626	0.16778	0.30012	0.18581	0.23343	0.18308	0.11226	0.12584	-4.0625	-4.6479	-4.0813	-4.7229	-4.4021	-4.1417	-5.0292	-4.3938	-4.3729	-4.5896	-4.3167	-4.6188	-4.6146	-4.2958	-4.825	-4.4708	158.713	46.774	136.011	-124.599	-68.626	193.388	115.523	111.436	199.739	72.165	220.560	158.659	-127.023	-73.480	-16.631	80.581	0.00029973	0.00038088	0.00011916	1486.8	5.1164e-06	4.5065e-06	1460	394.65	9.8167e-06	1.1591e-05	450.2	147.97	129.73	44.098	1.003e-05	54.065	0.0016892	0.0017644	0.00049415	1548.2	1.9245e-05	1.9537e-05	1527.2	415.93	1.9196e-05	1.9374e-05	477.98	158.48	138.96	47.602	1.9114e-05	58.978	157.332	-32.265	-17.903	-114.905	10.896	12.360	-115.332	-110.658	-41.306	10.782	-111.011	-107.324	-106.653	-101.613	104.152	-102.193	-8191	255	
760.853	1	1	0	0	0.3511	0.070346	0.22741	0.114	0.17976	0.22803	0.033698	0.28617	0.17686	0.09199	0.31121	0.128	0.049425	0.22922	0.28228	0.059206	-3.9479	-4.6208	-4.1729	-4.6333	-4.5896	-3.9917	-4.8438	-4.475	-4.3792	-4.7	-4.3146	-4.6708	-4.7521	-4.1479	-4.65	-4.5021	-12.353	-90.588	47.838	226.944	61.190	123.794	143.137	157.123	-25.893	-3.293	215.170	-126.938	68.347	220.918	220.957	102.615	0.00036589	0.00026859	0.00014219	1478.3	2.4024e-06	6.7984e-06	1460.5	394.39	4.368e-06	5.6625e-06	448.32	147.54	130.08	44.082	1.5132e-06	54.081	0.0016827	0.0017671	0.00049543	1543.8	1.9145e-05	1.9482e-05	1524.4	415.15	1.9266e-05	1.9179e-05	477.83	158.25	139.14	47.589	1.9161e-05	58.86	168.704	-37.783	-15.661	-115.028	-32.171	29.457	-115.275	-110.487	-79.608	27.120	-110.872	-107.183	-106.717	-101.626	-96.515	-102.066	-8191	255	
760.949	1	1	0	0	0.17279	0.048011	0.15955	0.24825	0.1281	0.31865	0.20302	0.28336	0.082274	0.19236	0.23886	0.30538	0.064623	0.12051	0.086294	0.30292	-4.0479	-4.6896	-4.1708	-4.7333	-4.3688	-4.0938	-4.9375	-4.5833	-4.1854	-4.7583	-4.3396	-4.3667	-4.6917	-4.0958	-4.5167	-4.4417	206.643	15.442	160.179	207.419	167.590	-10.748	142.175	218.614	-39.770	101.706	-118.493	135.137	-21.660	153.345	121.611	204.517	0.00044653	0.00035253	1.3929e-05	1481.2	1.5581e-06	5.0171e-06	1455.1	395.62	2.9811e-06	5.2937e-06	448.56	146.87	129.05	43.897	6.5217e-06	54.153	0.0016745	0.0017644	0.00049381	1542.9	1.9141e-05	1.9421e-05	1522.8	415.46	1.9185e-05	1.9311e-05	477.71	158.02	138.91	47.509	1.9293e-05	58.936	172.636	-54.596	-87.856	-114.964	82.951	27.690	-115.285	-110.677	-11.999	36.090	-110.866	-107.283	-106.602	-101.606	-84.103	-102.189	-8191	255	
761.045	1	1	0	0	0.29327	0.052015	0.11107	0.024385	0.051193	0.18702	0.206	0.092233	0.03052	0.1195	0.14579	0.41893	0.032365	0.21839	0.37863	0.073964	-3.7229	-4.6562	-4.1854	-4.4167	-4.5333	-4.1979	-4.7208	-4.7438	-4.0729	-4.425	-4.375	-4.3604	-4.8021	-4.1646	-4.5292	-4.5563	158.525	-71.175	-98.490	202.735	55.161	176.853	219.751	210.414	-13.090	-13.414	223.714	224.368	206.270	192.303	-20.988	190.484	0.00037577	0.00047687	0.0001029	1481.4	1.1925e-05	1.1889e-05	1452.4	393.73	4.0108e-06	6.0987e-06	448.94	147.54	129.34	43.972	6.1145e-06	53.828	0.0017004	0.0017775	0.00049552	1542.4	1.9329e-05	1.9505e-05	1522.9	415.52	1.9313e-05	1.9359e-05	477.86	158.28	138.86	47.528	1.929e-05	58.861	158.047	-22.012	-42.508	-115.115	16.093	-8.070	-115.315	-110.849	49.073	44.768	-110.829	-107.235	-106.705	-101.761	-76.223	-102.191	-8191	255	
761.165	1	1	0	0	0.092205	0.12176	0.11256	0.29204	0.02073	0.042305	0.26163	0.21617	0.30271	0.26994	0.15548	0.20059	0.12683	0.23403	0.15197	0.29625	-3.8021	-4.6042	-4.3979	-4.5563	-4.55	-4.0708	-4.8042	-4.7375	-4.0417	-4.6083	-4.4938	-4.3167	-4.8667	-4.1562	-4.3417	-4.6458	-1.492	129.548	-63.511	-118.995	208.621	153.974	127.508	163.847	107.795	146.480	180.277	-127.457	172.208	-12.065	96.716	167.224	0.00041344	0.00040068	0.00011646	1481.2	5.9665e-06	4.1214e-06	1454.7	394.68	3.8447e-06	7.2468e-06	448.27	147.83	129.48	43.962	7.2434e-06	54.065	0.0016821	0.0017668	0.00049391	1543.8	1.9181e-05	1.9332e-05	1523.2	414.94	1.9289e-05	1.9302e-05	477.25	158.19	138.72	47.52	1.9239e-05	58.856	146.739	-16.183	-36.980	-115.060	-6.181	58.663	-115.351	-110.612	14.307	26.059	-111.113	-107.240	-106.568	-101.696	2.749	-102.453	-8191	255	
761.260	1	1	0	0	0.31826	0.16088	0.16202	0.30695	0.17441	0.12253	0.13565	0.23373	0.16541	0.043934	0.17103	0.26328	0.13538	0.073973	0.096174	0.21335	-3.8021	-4.7229	-4.3229	-4.275	-4.7812	-4.2021	-4.5667	-4.75	-4.175	-4.6937	-4.5542	-4.2646	-4.7333	-4.3167	-4.275	-4.6687	-83.579	54.047	92.980	172.067	-80.789	-32.870	161.692	175.334	149.046	-127.947	147.000	193.985	226.724	98.644	44.515	156.435	0.00031528	0.00029184	0.00014087	1483.7	6.0163e-06	5.0992e-06	1456	393.46	5.9266e-06	5.8737e-06	448.6	147.68	129.76	44.081	6.9172e-06	54.221	0.0017016	0.0017762	0.00049191	1543.9	1.9185e-05	1.9274e-05	1521.8	414.9	1.9022e-05	1.9085e-05	476.76	158.14	138.71	47.497	1.8714e-05	58.774	183.056	212.847	-47.952	-115.106	-8.577	64.112	-115.345	-110.797	9.364	36.698	-110.932	-107.176	-106.615	-101.703	-40.379	-102.083	-8191	255	
761.333	1	1	0	0	0.073136	0.11456	0.050978	0.28414	0.060054	0.16769	0.044924	0.18577	0.16403	0.10484	0.10683	0.36376	0.17323	0.10276	0.21739	0.1398	-3.7604	-4.5583	-4.4458	-4.3375	-4.725	-4.1208	-4.4688	-4.6729	-4.1438	-4.5167	-4.7812	-4.2812	-4.7167	-4.4792	-4.2125	-4.8375	71.552	106.650	-70.781	163.805	8.489	145.349	167.739	126.057	-60.094	77.282	185.579	135.936	133.339	47.009	130.229	149.446	0.00055742	0.00049412	0.00018037	1477.7	4.7388e-06	4.4468e-06	1452	393.98	6.4889e-07	7.9982e-06	448.27	148.14	128.91	44.226	5.6543e-06	54.075	0.0016337	0.0017076	0.00047663	1541.2	1.8604e-05	1.8731e-05	1520.1	414.69	1.8539e-05	1.8704e-05	476.3	157.98	138.38	47.462	1.8418e-05	58.638	152.879	-39.390	198.587	-115.079	-9.661	6.526	-115.272	-110.768	-106.978	-20.701	-110.959	-107.197	-106.501	-101.640	0.885	-102.066	-8191	255	
761.454	1	1	0	0	0.11513	0.1255	0.18187	0.089507	0.15277	0.14601	0.26106	0.15864	0.27387	0.12372	0.21889	0.15581	0.12941	0.29142	0.26239	0.1332	-3.7604	-4.3917	-4.4833	-4.1813	-4.7646	-4.4667	-4.4021	-4.6937	-4.0792	-4.3708	-4.775	-4.1646	-4.6458	-4.5188	-4.0417	-4.7208	-103.824	145.725	173.746	227.245	-0.719	13.043	173.036	143.815	2.893	-50.738	126.275	-81.882	139.975	224.893	98.645	200.301	0.00050023	0.00094891	0.00011647	1480.8	4.3604e-06	8.2785e-06	1464.9	394.38	1.5691e-06	1.9284e-06	448.48	147.54	129.35	44.146	5.98e-06	53.976	0.0016141	0.00169	0.00046714	1539.8	1.8262e-05	1.8446e-05	1522.4	414.07	1.8257e-05	1.8314e-05	475.75	157.63	138.31	47.45	1.834e-05	58.657	182.130	14.023	-89.096	-115.005	-65.217	-2.464	-115.231	-110.700	120.012	157.238	-110.948	-107.435	-106.559	-101.547	-32.464	-102.233	-8191	255	
761.548	1	1	0	0	0.30131	0.14271	0.18673	0.28845	0.089873	0.16768	0.19308	0.079756	0.17525	0.21992	0.064449	0.2543	0.11681	0.19292	0.035851	0.076718	-3.8354	-4.3667	-4.6542	-4.2375	-4.5104	-4.6104	-4.3208	-4.8292	-4.3	-4.3479	-4.8354	-4.1667	-4.6146	-4.5938	-4.1312	-4.6542	-44.113	24.052	88.478	167.507	10.786	51.345	167.898	126.053	212.590	19.491	6.863	223.550	172.561	-119.496	203.595	137.848	0.00043021	0.00041815	0.00019591	1481.8	2.3803e-06	4.5088e-06	1451.7	392.96	9.0618e-06	8.998e-06	447.7	147.59	129.38	44.115	6.316e-06	53.775	0.0015926	0.0016808	0.0004667	1539	1.815e-05	1.8209e-05	1517.5	413.13	1.82e-05	1.8319e-05	475.39	157.61	138.24	47.341	1.8373e-05	58.614	159.165	1.946	-8.963	-115.035	19.218	8.831	-115.312	-110.560	-41.417	-14.641	-110.941	-107.190	-106.534	-101.786	-12.332	-102.339	-8191	255	
#DATA ENDS
