BOXY.EXE: ISS Imagent and Oximeter Data Acquisition Program Version 0.80
Ascii Record File

#ACQ INFORMATION
2  Detector Channels 
16  External MUX Channels 
1  Auxiliary Channels 
5000  Waveform (CCF) Frequency (Hz)
1  Waveforms Skipped 
30  Waveforms Averaged 
1  Cycles Averaged 
16  Acquisitions per Waveform 
10.0806  Updata Rate (Hz) 

#FILE INFORMATION
TRUE -- External MUX Channel results are PARSED.
FALSE -- AC DC and Phase are NOT grouped.
TRUE -- Companion Program Settings File CREATED.
FALSE -- AC data not excluded
FALSE -- DC data not excluded
FALSE -- Phase data not excluded
FALSE -- Auxillary Chn. data not excluded
Tab delimiters

#CALIBRATION STATE
TRUE -- Waveform Calibration Values APPLIED.


#AUX CALIBRATION VALUES
Val Type	aux-1	

Term	1.0000e+00	
Factor	0.0000e+00	


#WF CALIBRATION VALUES
A = Detector Channel
Val Type	A-AC1	A-AC2	A-AC3	A-AC4	A-AC5	A-AC6	A-AC7	A-AC8	A-AC9	A-AC10	A-AC11	A-AC12	A-AC13	A-AC14	A-AC15	A-AC16	A-DC1	A-DC2	A-DC3	A-DC4	A-DC5	A-DC6	A-DC7	A-DC8	A-DC9	A-DC10	A-DC11	A-DC12	A-DC13	A-DC14	A-DC15	A-DC16	A-Ph1	A-Ph2	A-Ph3	A-Ph4	A-Ph5	A-Ph6	A-Ph7	A-Ph8	A-Ph9	A-Ph10	A-Ph11	A-Ph12	A-Ph13	A-Ph14	A-Ph15	A-Ph16	

Term	0.00000e+00	0.00000e+00	0.00000e+00	0.00000e+00	0.00000e+00	0.00000e+00	0.00000e+00	0.00000e+00	0.00000e+00	0.00000e+00	0.00000e+00	0.00000e+00	0.00000e+00	0.00000e+00	0.00000e+00	0.00000e+00	0.00000e+00	0.00000e+00	0.00000e+00	0.00000e+00	0.00000e+00	0.00000e+00	0.00000e+00	0.00000e+00	0.00000e+00	0.00000e+00	0.00000e+00	0.00000e+00	0.00000e+00	0.00000e+00	0.00000e+00	0.00000e+00	0.00000e+00	0.00000e+00	0.00000e+00	0.00000e+00	0.00000e+00	0.00000e+00	0.00000e+00	0.00000e+00	0.00000e+00	0.00000e+00	0.00000e+00	0.00000e+00	0.00000e+00	0.00000e+00	0.00000e+00	0.00000e+00	
Factor	1.00000e+00	1.00000e+00	1.00000e+00	1.00000e+00	1.00000e+00	1.00000e+00	1.00000e+00	1.00000e+00	1.00000e+00	1.00000e+00	1.00000e+00	1.00000e+00	1.00000e+00	1.00000e+00	1.00000e+00	1.00000e+00	1.00000e+00	1.00000e+00	1.00000e+00	1.00000e+00	1.00000e+00	1.00000e+00	1.00000e+00	1.00000e+00	1.00000e+00	1.00000e+00	1.00000e+00	1.00000e+00	1.00000e+00	1.00000e+00	1.00000e+00	1.00000e+00	X	X	X	X	X	X	X	X	X	X	X	X	X	X	X	X	

B = Detector Channel
Val Type	B-AC1	B-AC2	B-AC3	B-AC4	B-AC5	B-AC6	B-AC7	B-AC8	B-AC9	B-AC10	B-AC11	B-AC12	B-AC13	B-AC14	B-AC15	B-AC16	B-DC1	B-DC2	B-DC3	B-DC4	B-DC5	B-DC6	B-DC7	B-DC8	B-DC9	B-DC10	B-DC11	B-DC12	B-DC13	B-DC14	B-DC15	B-DC16	B-Ph1	B-Ph2	B-Ph3	B-Ph4	B-Ph5	B-Ph6	B-Ph7	B-Ph8	B-Ph9	B-Ph10	B-Ph11	B-Ph12	B-Ph13	B-Ph14	B-Ph15	B-Ph16	

Term	0.00000e+00	0.00000e+00	0.00000e+00	0.00000e+00	0.00000e+00	0.00000e+00	0.00000e+00	0.00000e+00	0.00000e+00	0.00000e+00	0.00000e+00	0.00000e+00	0.00000e+00	0.00000e+00	0.00000e+00	0.00000e+00	0.00000e+00	0.00000e+00	0.00000e+00	0.00000e+00	0.00000e+00	0.00000e+00	0.00000e+00	0.00000e+00	0.00000e+00	0.00000e+00	0.00000e+00	0.00000e+00	0.00000e+00	0.00000e+00	0.00000e+00	0.00000e+00	-1.67345e+02	-1.28466e+02	-1.19699e+02	-1.83576e+02	-8.87362e+01	-6.07667e+01	-1.57985e+02	-1.62015e+02	-8.48579e+01	-6.54837e+01	-1.71537e+02	-1.71730e+02	-1.83223e+02	-1.78246e+02	-8.14027e+01	-1.51785e+02	
Factor	2.20819e-05	1.22705e-04	3.64254e-05	1.57401e-01	1.20126e-06	1.19893e-06	1.60961e-01	4.98362e-02	1.05429e-06	1.31104e-06	7.43814e-02	2.51224e-02	2.19682e-02	8.10577e-03	1.31942e-06	1.15977e-02	1.88575e-06	2.02594e-06	5.64688e-07	7.93729e-02	2.20408e-08	2.22281e-08	7.67269e-02	2.52222e-02	2.19966e-08	2.21892e-08	3.64224e-02	1.23052e-02	1.11446e-02	4.10577e-03	2.20339e-08	5.68387e-03	X	X	X	X	X	X	X	X	X	X	X	X	X	X	X	X	



#DISTANCE SETTINGS
A = Detector Channel
A-1	A-2	A-3	A-4	A-5	A-6	A-7	A-8	A-9	A-10	A-11	A-12	A-13	A-14	A-15	A-16	

2.5000e+00	3.0000e+00	2.5000e+00	3.0000e+00	2.0000e+00	3.0000e+00	1.5000e+00	3.0000e+00	3.0000e+00	3.0000e+00	3.0000e+00	3.0000e+00	3.0000e+00	3.0000e+00	1.5000e+00	3.0000e+00	

B = Detector Channel
B-1	B-2	B-3	B-4	B-5	B-6	B-7	B-8	B-9	B-10	B-11	B-12	B-13	B-14	B-15	B-16	

1.0000e+01	1.0000e+01	1.0000e+01	1.4400e+00	1.0000e+01	1.0000e+01	1.5100e+00	1.9400e+00	1.0000e+01	1.0000e+01	1.9900e+00	2.4900e+00	2.4100e+00	2.9000e+00	1.0000e+01	2.9800e+00	




#DATA BEGINS
time	group	step	mark	flag	A-AC1	A-AC2	A-AC3	A-AC4	A-AC5	A-AC6	A-AC7	A-AC8	A-AC9	A-AC10	A-AC11	A-AC12	A-AC13	A-AC14	A-AC15	A-AC16	A-DC1	A-DC2	A-DC3	A-DC4	A-DC5	A-DC6	A-DC7	A-DC8	A-DC9	A-DC10	A-DC11	A-DC12	A-DC13	A-DC14	A-DC15	A-DC16	A-Ph1	A-Ph2	A-Ph3	A-Ph4	A-Ph5	A-Ph6	A-Ph7	A-Ph8	A-Ph9	A-Ph10	A-Ph11	A-Ph12	A-Ph13	A-Ph14	A-Ph15	A-Ph16	B-AC1	B-AC2	B-AC3	B-AC4	B-AC5	B-AC6	B-AC7	B-AC8	B-AC9	B-AC10	B-AC11	B-AC12	B-AC13	B-AC14	B-AC15	B-AC16	B-DC1	B-DC2	B-DC3	B-DC4	B-DC5	B-DC6	B-DC7	B-DC8	B-DC9	B-DC10	B-DC11	B-DC12	B-DC13	B-DC14	B-DC15	B-DC16	B-Ph1	B-Ph2	B-Ph3	B-Ph4	B-Ph5	B-Ph6	B-Ph7	B-Ph8	B-Ph9	B-Ph10	B-Ph11	B-Ph12	B-Ph13	B-Ph14	B-Ph15	B-Ph16	aux-1	digaux	

717.877	1	1	0	256	0.11626	0.015968	0.17409	0.20237	0.084808	0.13169	0.13005	0.10291	0.055894	0.079223	0.17789	0.080563	0.055567	0.22426	0.08945	0.22268	-4.2979	-4.3167	-4.1458	-4.6271	-4.0354	-4.5958	-4.7979	-4.1625	-4.6417	-4.3771	-4.3688	-4.8417	-4.2312	-4.5271	-4.6833	-4.225	-53.884	229.001	5.364	-108.998	-30.563	-10.417	139.841	176.889	177.993	-22.472	198.128	-114.910	137.327	-121.367	52.806	190.479	0.00045735	0.00041678	0.00013521	1468.6	7.6526e-06	1.6038e-06	1459.5	396.69	3.8272e-06	5.0218e-06	449.17	148.51	128.05	43.952	4.7062e-06	53.787	0.00067678	0.00068937	0.00019349	1484.8	7.58e-06	7.5876e-06	1484.7	403.98	7.5286e-06	7.5817e-06	458.5	152.33	131.6	45.224	7.5402e-06	55.604	167.825	-40.082	53.723	-115.198	-5.467	-30.290	-115.637	-111.087	-34.276	11.716	-111.471	-107.648	-107.017	-102.066	20.937	-102.464	-8191	255	
717.998	1	1	0	0	0.063913	0.222	0.11656	0.096474	0.31142	0.10772	0.23635	0.14635	0.22248	0.091839	0.27667	0.053532	0.1925	0.088695	0.13014	0.11172	-4.2375	-4.4146	-4.2312	-4.9333	-4.2458	-4.5479	-4.9354	-4.1729	-4.6333	-4.5208	-4.2354	-4.8229	-4.3604	-4.4146	-4.6792	-4.3333	-5.518	196.103	-110.834	164.833	-20.452	-113.705	136.989	163.293	-90.217	-83.432	196.034	129.826	219.487	202.973	-67.140	-128.584	0.00045685	0.0006337	0.00013532	1467.1	6.1444e-06	5.006e-06	1457.5	395.87	3.7008e-06	3.2277e-06	448.74	148	127.93	43.749	5.0722e-06	53.787	0.00068686	0.00069373	0.00019512	1484.3	7.6582e-06	7.6588e-06	1484.9	403.6	7.6195e-06	7.6244e-06	458.63	152.13	131.52	45.141	7.5943e-06	55.61	170.865	-23.975	-36.380	-115.423	-25.957	21.827	-115.530	-111.018	-68.226	4.074	-111.356	-107.489	-107.139	-101.756	-47.176	-102.807	-8191	255	
718.094	1	1	0	0	0.083929	0.34113	0.13804	0.22717	0.10761	0.054449	0.28746	0.076884	0.07002	0.22137	0.19364	0.11465	0.2833	0.29005	0.12687	0.024656	-4.0687	-4.4563	-4.0875	-4.8646	-4.1875	-4.1833	-4.9146	-4.3167	-4.4313	-4.4833	-4.3375	-4.9333	-4.4083	-4.4229	-4.6062	-4.3146	-12.246	190.200	130.220	-99.062	119.792	129.969	147.650	-78.372	216.377	72.346	205.737	-33.092	183.380	203.449	46.905	-49.828	0.00050015	0.00058144	0.00021369	1468.4	4.0811e-06	2.524e-06	1460.3	396.19	4.8686e-06	2.4814e-06	449.51	148.2	127.82	43.883	1.6769e-06	53.658	0.00068761	0.00069626	0.00019643	1484.8	7.6167e-06	7.6396e-06	1483.8	403.26	7.6378e-06	7.6393e-06	458.07	152.07	131.43	45.166	7.571e-06	55.52	168.019	-39.055	-17.057	-115.246	-43.413	35.833	-115.812	-111.049	-94.124	-30.717	-111.542	-107.604	-106.955	-101.990	97.243	-102.644	-8191	255	
718.165	1	1	0	0	0.035088	0.19282	0.26128	0.20634	0.049	0.047352	0.078222	0.27189	0.29362	0.10418	0.15585	0.13456	0.15172	0.20148	0.17748	0.087246	-4.125	-4.5292	-4.1125	-4.925	-4.3646	-4.2292	-4.9146	-4.4062	-4.3292	-4.7708	-4.2167	-4.8625	-4.5542	-4.2604	-4.6062	-4.2521	162.607	-50.880	32.975	-114.415	140.651	61.275	169.923	157.570	19.493	-38.255	156.980	182.192	-127.573	215.032	-126.505	131.314	0.0004493	0.00034233	0.00013832	1461	8.1033e-07	3.7197e-06	1454.2	396.92	1.9659e-06	4.0426e-06	450.09	147.82	127.8	43.865	5.1834e-06	53.87	0.00068912	0.0006994	0.00019494	1481	7.611e-06	7.6969e-06	1481.1	403.53	7.5304e-06	7.4268e-06	458.09	152.01	131.39	45.067	7.4995e-06	55.668	167.880	34.809	-60.176	-115.415	24.731	87.862	-115.719	-111.101	-44.810	2.819	-111.253	-107.537	-106.916	-102.008	28.334	-102.650	-8191	255	
718.286	1	1	0	0	0.21588	0.23541	0.10418	0.09891	0.085521	0.11962	0.14431	0.21254	0.012767	0.079252	0.28456	0.22412	0.17544	0.18002	0.031183	0.25186	-3.9188	-4.6062	-3.9813	-4.7937	-4.3854	-4.2583	-4.7458	-4.3375	-4.2063	-4.6021	-4.3021	-4.5875	-4.7021	-4.2812	-4.5938	-4.4354	178.356	23.927	-113.536	3.248	59.566	95.869	162.147	128.453	-73.312	83.417	162.596	202.322	46.679	227.308	182.173	164.612	0.0004861	0.00020534	0.00020792	1461.6	3.5844e-06	4.6506e-06	1456.7	396.56	4.236e-06	1.2638e-06	450	147.83	127.69	43.978	5.6539e-06	53.937	0.00067287	0.00068685	0.00019178	1481.2	7.4543e-06	7.5901e-06	1484	403.59	7.5296e-06	7.5301e-06	457.9	151.95	131.34	45.153	7.415e-06	55.564	165.773	-60.736	1.839	-115.189	-40.615	66.633	-115.647	-111.108	-27.682	-53.427	-111.317	-107.538	-107.181	-102.023	-28.190	-102.600	-8191	255	
718.380	1	1	0	0	0.12209	0.090996	0.11459	0.075417	0.1284	0.1686	0.22274	0.29795	0.13549	0.044776	0.21447	0.16137	0.27757	0.15028	0.14238	0.04571	-3.85	-4.6583	-4.1625	-4.5437	-4.4833	-3.9708	-4.9333	-4.4125	-4.175	-4.8479	-4.3479	-4.6979	-4.7688	-4.0938	-4.7312	-4.3667	-89.336	111.344	127.352	161.541	-43.544	204.804	198.116	145.546	-122.357	-45.444	140.047	174.120	180.313	192.139	-76.571	142.246	0.000355	0.00035387	0.00011794	1461.8	5.3607e-06	2.7301e-06	1456.3	395.02	3.3017e-06	4.3851e-06	448.05	147.54	128	44.061	1.3144e-06	53.795	0.0006724	0.00068029	0.00018961	1481.9	7.3723e-06	7.4488e-06	1481.2	402.81	7.527e-06	7.3841e-06	458.12	151.71	131.49	45.195	7.4218e-06	55.521	163.484	-89.050	-6.614	-115.280	-41.772	-25.304	-115.526	-110.979	-47.786	61.059	-111.362	-107.542	-106.871	-102.023	220.772	-102.608	-8191	255	
718.477	1	1	0	0	0.27027	0.073023	0.21162	0.086644	0.15821	0.19868	0.24272	0.15909	0.16398	0.30567	0.24448	0.14351	0.23401	0.22343	0.15993	0.072945	-3.6771	-4.7667	-4.2583	-4.6833	-4.6708	-4.0083	-4.9083	-4.4729	-4.1771	-4.5687	-4.3938	-4.5667	-4.8	-4.2271	-4.6042	-4.525	141.323	115.197	-76.760	-113.707	76.105	-33.069	-103.352	154.914	124.354	-71.882	160.800	146.824	135.529	222.463	-51.821	196.707	0.00038225	0.00017959	2.9021e-05	1467	6.4195e-06	5.0316e-06	1461.2	393.87	5.8356e-06	5.047e-06	447.84	147.94	127.96	43.917	5.1286e-06	53.878	0.00067557	0.00067779	0.00019052	1481.7	7.4359e-06	7.384e-06	1482.4	402.4	7.4301e-06	7.3303e-06	457.14	151.74	131.32	45.142	7.3491e-06	55.642	171.190	20.201	-19.102	-115.383	-4.716	63.196	-115.696	-111.015	-62.647	27.102	-111.302	-107.402	-107.067	-101.967	-23.896	-102.356	-8191	255	
718.597	1	1	0	0	0.097519	0.13793	0.028014	0.074862	0.15902	0.24176	0.24001	0.17994	0.061813	0.14935	0.16318	0.11863	0.2355	0.11398	0.045629	0.055789	-3.7229	-4.6958	-4.1729	-4.3812	-4.7792	-4.1896	-4.7625	-4.65	-4.1833	-4.7896	-4.4437	-4.5229	-4.8313	-4.2312	-4.4646	-4.7312	165.499	179.748	68.604	40.653	36.366	-59.598	136.474	94.884	20.746	34.683	196.031	175.181	185.208	196.431	-25.694	-126.765	0.0004571	0.00063733	4.7348e-05	1463.2	6.075e-06	6.1381e-06	1455.1	395.57	5.694e-06	7.5164e-07	448.41	148.05	128.25	43.828	3.1541e-06	53.978	0.0006711	0.00067514	0.00018925	1480.5	7.4867e-06	7.4121e-06	1479.9	402.96	7.4105e-06	7.3154e-06	457.77	151.93	131.44	45.162	7.3272e-06	55.678	167.932	-68.421	114.544	-115.236	-55.417	74.353	-115.571	-111.053	-54.195	73.619	-111.353	-107.462	-107.017	-102.046	-13.661	-102.445	-8191	255	
718.693	1	1	0	0	0.16142	0.018577	0.19527	0.20134	0.053973	0.15947	0.076539	0.19465	0.18729	0.26562	0.17059	0.2463	0.077336	0.035834	0.084174	0.24806	-3.6292	-4.8	-4.3667	-4.4396	-4.8292	-4.2292	-4.5312	-4.8438	-4.1312	-4.6667	-4.575	-4.2708	-4.7917	-4.4708	-4.3042	-4.5979	-106.624	118.417	-2.226	225.708	145.849	106.819	152.862	162.344	166.110	58.571	211.487	194.876	113.913	-94.833	-106.828	-79.433	0.00040982	0.00063256	0.00015774	1464.3	3.7305e-06	5.7704e-06	1454.9	396.28	5.6722e-06	7.0015e-06	449.88	147.26	127.95	44.037	3.4662e-06	53.618	0.00065914	0.00066681	0.00018817	1480.6	7.3204e-06	7.399e-06	1480.4	403.1	7.3754e-06	7.3027e-06	457.66	151.66	131.25	45.136	7.3689e-06	55.532	161.418	-3.120	-48.308	-115.395	-6.514	66.925	-115.665	-110.945	-41.725	-5.733	-111.139	-107.446	-106.955	-101.881	-63.061	-102.477	-8191	255	
718.765	1	1	0	0	0.17905	0.18314	0.09596	0.32124	0.17201	0.12243	0.1259	0.13838	0.1293	0.11545	0.13962	0.27589	0.16517	0.24105	0.013093	0.15516	-3.6917	-4.5125	-4.45	-4.3708	-4.6875	-4.2771	-4.4812	-4.7917	-3.9958	-4.5542	-4.5417	-4.3354	-4.8292	-4.3771	-4.2875	-4.6708	107.525	-88.019	116.095	173.953	-116.290	-7.556	137.017	204.927	49.262	52.806	200.441	-124.394	85.133	-96.232	-124.977	198.931	0.0004172	0.00085282	0.00015192	1464.4	2.5828e-06	5.3895e-06	1456.2	396.76	7.9774e-06	3.7172e-06	449.38	148.4	127.79	43.904	2.903e-06	54.016	0.00066023	0.00067201	0.00018621	1480.2	7.2593e-06	7.2991e-06	1480.5	403.29	7.3858e-06	7.2659e-06	457.41	151.98	131.35	45.153	7.296e-06	55.688	152.630	-34.949	-35.351	-115.257	-12.776	-79.065	-115.647	-111.040	-72.640	10.546	-111.289	-107.555	-106.876	-101.695	8.064	-102.677	-8191	255	
718.886	1	1	0	0	0.23434	0.12737	0.049074	0.29055	0.0426	0.022741	0.19217	0.26089	0.035187	0.019816	0.073646	0.20921	0.23817	0.34356	0.095097	0.054934	-3.7333	-4.5583	-4.4917	-4.2333	-4.7688	-4.1875	-4.3583	-4.8167	-4.1375	-4.4417	-4.6979	-4.1604	-4.6917	-4.4958	-4.2604	-4.8104	93.526	146.305	110.369	174.135	119.148	-86.775	165.052	204.722	174.956	149.153	160.184	148.744	167.999	212.977	-6.548	96.565	0.0004566	0.00081867	0.00020547	1459.8	3.1915e-06	3.988e-06	1454.4	396.4	7.8145e-07	7.8893e-06	450.33	148.16	128.11	43.851	1.0066e-06	54.018	0.00066365	0.000666	0.00018622	1480	7.2658e-06	7.2141e-06	1478.9	402.95	7.3035e-06	7.2303e-06	457.3	152.08	131.31	45.104	7.1645e-06	55.68	157.691	-34.222	-47.211	-115.241	113.834	17.305	-115.446	-110.814	182.124	33.052	-111.229	-107.518	-107.143	-101.840	-36.366	-102.453	-8191	255	
718.982	1	1	0	0	0.05814	0.081716	0.12536	0.13373	0.1019	0.27159	0.014219	0.11617	0.27873	0.069728	0.1766	0.39916	0.21267	0.080978	0.012604	0.098176	-3.7458	-4.5417	-4.6792	-4.2833	-4.425	-4.4313	-4.4729	-4.8521	-4.1438	-4.3604	-4.8292	-4.1146	-4.7354	-4.4292	-4.2021	-4.9083	131.323	67.082	39.966	161.837	212.598	-33.677	217.069	147.126	193.738	110.426	-90.048	217.653	-60.775	-31.084	155.691	-116.192	0.00048656	0.00054109	0.00016941	1463.1	5.1097e-06	5.0079e-06	1457.9	395.82	1.6194e-06	6.6666e-06	450.32	147.93	128.33	43.97	4.0218e-06	53.899	0.00064944	0.00065894	0.00018193	1479.1	7.2278e-06	7.2448e-06	1481.5	403.06	7.2802e-06	7.218e-06	457.75	151.9	131.5	45.168	7.2766e-06	55.712	163.112	-50.535	-32.633	-115.107	-31.758	59.654	-115.546	-111.046	206.287	5.257	-111.301	-107.435	-106.993	-102.070	-83.421	-102.607	-8191	255	
719.078	1	1	0	0	0.064437	0.12883	0.1933	0.14545	0.013157	0.28934	0.13325	0.072816	0.2373	0.13823	0.2414	0.16588	0.19139	0.080958	0.049989	0.15954	-3.9417	-4.3125	-4.5875	-4.3	-4.5729	-4.5208	-4.475	-4.8417	-4.2979	-4.3063	-4.8812	-4.2354	-4.7125	-4.8708	-4.1792	-4.7542	-69.230	230.670	120.261	155.845	-2.594	-37.003	134.928	-44.659	158.138	79.898	209.742	-120.728	-98.290	-91.285	184.423	93.123	0.00044121	0.00018339	0.00027362	1463.1	4.2219e-06	7.9606e-06	1455.4	395.89	2.4755e-06	2.2122e-06	449.91	148.1	127.42	44.045	9.0427e-06	54.002	0.00065664	0.00066276	0.00018485	1479.1	7.2451e-06	7.2138e-06	1479.9	402.72	7.361e-06	7.3364e-06	457.37	151.79	131.3	45.207	7.2468e-06	55.599	167.630	-64.790	-49.518	-115.410	-82.706	17.837	-115.745	-110.969	-3.205	187.315	-111.444	-107.547	-107.052	-101.787	9.330	-102.352	-8191	255	
719.174	1	1	0	0	0.14663	0.28004	0.068474	0.27637	0.25839	0.14643	0.1796	0.073454	0.12192	0.10876	0.19428	0.13713	0.10458	0.092727	0.22046	0.14874	-4.0625	-4.2979	-4.6333	-4.2292	-4.6729	-4.7958	-4.4688	-4.7688	-4.3688	-4.3396	-4.8854	-4.2833	-4.6312	-4.7812	-4.3167	-4.7479	-128.286	-33.929	31.568	206.484	110.494	205.486	100.492	53.046	36.027	209.048	124.669	142.455	172.647	-95.707	191.087	215.593	0.0004446	8.9312e-05	0.00016563	1464.5	8.4946e-06	2.5249e-06	1455.8	394.36	3.1766e-06	4.6192e-06	450.05	147.96	127.74	43.908	6.6234e-06	53.975	0.00065608	0.00067311	0.00018623	1480.2	7.3685e-06	7.3197e-06	1479.1	402.1	7.2541e-06	7.3177e-06	457.52	151.85	131.08	45.077	7.2838e-06	55.617	165.897	66.463	-34.498	-115.177	-53.647	-3.872	-115.681	-111.047	-54.807	49.459	-111.125	-107.333	-106.986	-101.831	-15.411	-102.557	-8191	255	
719.293	1	1	0	0	0.29235	0.030557	0.14756	0.22379	0.25688	0.21519	0.096425	0.30562	0.34446	0.03199	0.15151	0.24698	0.22011	0.12068	0.18265	0.076731	-4.0104	-4.0646	-4.6083	-4.3125	-4.4625	-4.6479	-4.2729	-4.8083	-4.4833	-4.1521	-4.9208	-4.4812	-4.5854	-4.7458	-4.05	-4.525	147.114	30.169	23.647	195.386	-20.450	37.089	177.808	-122.255	132.862	-116.893	175.783	167.319	-120.997	-94.166	26.607	89.587	0.00037697	0.00032327	0.00018099	1457.4	3.4283e-06	7.7022e-06	1458.3	395.64	2.9608e-06	2.4555e-06	447.31	147.59	127.96	44.026	3.2557e-06	53.91	0.00065596	0.00066736	0.00018426	1477.4	7.2808e-06	7.2785e-06	1479.9	402.37	7.2593e-06	7.3008e-06	456.75	151.51	131.27	45.124	7.3093e-06	55.567	162.827	-32.928	-11.596	-115.350	-2.208	48.870	-115.526	-111.072	-33.080	24.895	-111.244	-107.558	-106.828	-101.838	-7.384	-102.493	-8191	255	
719.389	1	1	0	0	0.052465	0.21723	0.17893	0.362	0.19479	0.15178	0.19885	0.35401	0.050722	0.13784	0.093664	0.38086	0.081028	0.12467	0.041437	0.20593	-4.2063	-4.1271	-4.6542	-4.425	-4.3479	-4.575	-4.4229	-4.6083	-4.4729	-4.1708	-4.7688	-4.3292	-4.4229	-4.8542	-4.2896	-4.4688	106.364	205.982	-93.644	225.122	40.419	148.991	209.923	182.680	-85.812	145.262	-60.675	208.636	142.785	-118.996	-1.202	-74.639	0.00044432	0.00026189	0.0001492	1458.9	6.5461e-06	3.992e-06	1457.3	395.44	2.6266e-06	4.666e-06	447.2	147.76	128.19	43.933	5.5481e-06	54.076	0.00066208	0.00067654	0.00018554	1478	7.3181e-06	7.2987e-06	1478.6	402.6	7.2559e-06	7.3041e-06	456.07	151.76	131.34	45.131	7.2585e-06	55.604	160.686	-54.240	-8.852	-115.529	44.095	35.789	-115.623	-111.105	-64.961	19.734	-111.618	-107.443	-107.002	-101.939	47.744	-102.558	-8191	255	
719.461	1	1	0	0	0.090322	0.092594	0.095602	0.17336	0.15238	0.12478	0.17113	0.18602	0.11823	0.095739	0.19975	0.25263	0.34515	0.39437	0.048084	0.033453	-4.1854	-3.9354	-4.7771	-4.5021	-4.1875	-4.8063	-4.3313	-4.6354	-4.6458	-4.0292	-4.6813	-4.5896	-4.1979	-4.6521	-4.2875	-4.4333	22.804	-82.549	226.525	193.965	-97.144	-8.562	161.919	182.036	114.423	103.110	162.424	225.815	223.928	170.732	6.649	-36.514	0.00048057	0.0011108	0.00017237	1458.2	2.7347e-06	4.8391e-06	1456.5	395.62	5.1286e-06	5.5441e-06	448.2	147.55	127.88	43.783	7.8194e-06	53.92	0.00065802	0.00066922	0.00018817	1477.8	7.3572e-06	7.3129e-06	1478	402.47	7.2145e-06	7.334e-06	457.37	151.91	131.23	45.068	7.2738e-06	55.545	157.897	-43.472	-27.332	-115.254	-21.721	6.432	-115.497	-110.825	25.482	14.321	-111.163	-107.401	-106.868	-101.762	-10.731	-102.451	-8191	255	
719.557	1	1	0	0	0.16991	0.28735	0.14563	0.26415	0.049085	0.22311	0.2413	0.24984	0.12995	0.14848	0.13336	0.26731	0.25655	0.10461	0.049243	0.17331	-4.3146	-4.1583	-4.6896	-4.5896	-4.1708	-4.8375	-4.2979	-4.425	-4.5625	-4.0708	-4.5896	-4.5208	-4.3083	-4.7979	-4.2125	-4.4313	15.103	161.485	95.338	149.390	103.607	9.661	183.889	115.584	185.031	-72.514	-114.898	-69.153	-15.419	-112.303	131.346	123.981	0.00052305	0.00077194	0.00026749	1457.4	7.37e-06	3.6347e-06	1451.5	396.57	5.6986e-06	4.5229e-06	448.44	147.69	128.29	43.856	8.6774e-06	53.918	0.0006527	0.00066652	0.00018525	1478.8	7.352e-06	7.2889e-06	1476.8	402.67	7.2564e-06	7.3406e-06	456.8	151.81	131.42	45.124	7.2584e-06	55.536	164.625	-20.711	-48.320	-115.354	-11.575	34.116	-115.604	-110.989	-56.647	49.969	-111.101	-107.432	-106.791	-101.983	23.250	-102.359	-8191	255	
719.678	1	1	0	0	0.15016	0.24302	0.17751	0.2715	0.16483	0.11365	0.21411	0.12108	0.15838	0.30172	0.15235	0.096524	0.09265	0.13602	0.22905	0.32741	-4.3562	-4.0813	-4.3229	-4.7438	-4.075	-4.8187	-4.5333	-4.4396	-4.7063	-4.0708	-4.6104	-4.5667	-4.2542	-4.7729	-4.4	-4.1854	64.628	12.188	93.376	208.252	187.878	35.370	180.723	-86.287	134.813	-44.206	83.292	-9.511	176.053	182.206	118.100	201.965	0.00040893	0.00037946	0.00013363	1458.1	6.8667e-06	1.6454e-06	1452.8	395.01	2.5304e-06	4.3863e-06	449.98	148.13	127.77	43.802	4.0595e-06	53.825	0.00065673	0.00067164	0.00018774	1475.6	7.3744e-06	7.3208e-06	1478.2	402.56	7.3418e-06	7.297e-06	457.24	151.77	131.19	45.082	7.2172e-06	55.519	162.804	-50.487	-45.971	-115.166	-53.903	66.644	-115.654	-111.024	-11.665	-0.361	-111.367	-107.473	-106.785	-101.633	-101.456	-102.540	-8191	255	
719.774	1	1	0	0	0.051583	0.080295	0.243	0.22724	0.14766	0.18103	0.24049	0.29109	0.04241	0.11783	0.075971	0.20956	0.17676	0.19009	0.079921	0.31289	-4.4479	-4.0437	-4.4187	-4.7583	-4.1375	-4.6875	-4.4563	-4.2812	-4.525	-4.3083	-4.4958	-4.825	-4.3083	-4.7708	-4.4417	-4.275	30.850	-5.423	-28.906	-107.167	-82.831	-22.724	122.562	136.454	103.687	-40.153	111.476	-74.547	96.368	171.685	160.341	154.019	0.00039592	0.00015435	6.9507e-05	1459.8	4.702e-06	6.8574e-06	1448.9	395.64	4.4448e-06	5.3568e-06	448.32	147.94	127.78	43.857	3.556e-06	54.113	0.00065633	0.00066381	0.00018447	1477	7.386e-06	7.2688e-06	1477.8	402.5	7.3299e-06	7.3634e-06	457.27	151.81	131.18	45.074	7.2758e-06	55.598	162.422	-24.996	-0.127	-115.238	-51.442	61.862	-115.606	-110.950	-29.117	56.407	-111.020	-107.668	-106.866	-101.896	-4.099	-102.506	-8191	255	
719.870	1	1	0	0	0.19331	0.11555	0.07528	0.21467	0.1157	0.47683	0.19992	0.14148	0.074065	0.063069	0.067117	0.11922	0.049873	0.053666	0.21712	0.021967	-4.3271	-4.2292	-4.4437	-4.8667	-4.1125	-4.5479	-4.7417	-4.4	-4.7792	-4.225	-4.3438	-4.7417	-4.1521	-4.7542	-4.525	-4.2542	10.030	68.160	160.911	155.861	77.338	-32.983	178.719	106.416	-80.563	106.874	13.542	201.528	106.197	24.265	76.946	-83.841	0.00041161	0.0002602	0.00016858	1461.1	2.0942e-06	4.1073e-06	1458	395.86	2.7908e-06	4.5655e-06	449.39	147.81	127.62	43.774	4.5605e-06	54.168	0.00065322	0.00066843	0.00018542	1478	7.3285e-06	7.2502e-06	1479.7	402.22	7.3073e-06	7.3789e-06	457.42	151.53	131.18	45.071	7.2428e-06	55.558	159.936	201.418	-72.030	-115.325	-23.936	-31.954	-115.633	-111.004	15.648	22.326	-111.167	-107.681	-107.100	-101.802	-14.816	-102.266	-8191	255	
719.966	1	1	0	0	0.069237	0.10766	0.10627	0.34546	0.11912	0.16542	0.1503	0.22839	0.35089	0.19299	0.1678	0.15086	0.11117	0.11211	0.19375	0.30132	-4.5583	-4.1792	-4.2667	-4.8521	-4.0708	-4.3667	-4.7146	-4.2396	-4.8521	-4.4354	-4.3021	-4.8146	-4.3604	-4.4604	-4.5938	-4.2583	185.381	7.770	145.535	180.102	101.225	68.565	187.696	80.739	129.996	187.215	135.253	83.090	160.904	-127.956	207.471	182.344	0.00043412	0.00024966	0.00018998	1458.4	1.4835e-06	6.7814e-06	1453.7	395.21	4.2825e-06	3.8252e-06	447.74	147.9	127.85	43.777	6.4042e-06	53.936	0.00065784	0.00066866	0.0001881	1475.7	7.3628e-06	7.318e-06	1477.5	401.99	7.2996e-06	7.309e-06	456.27	151.43	131.18	45.048	7.3579e-06	55.53	161.856	-3.729	-35.596	-115.348	-54.805	-30.215	-115.526	-110.951	-47.114	15.379	-111.218	-107.628	-106.881	-101.944	42.623	-102.644	-8191	255	
720.062	1	1	0	0	0.15022	0.20791	0.2512	0.1481	0.15403	0.11108	0.12855	0.12897	0.24704	0.20147	0.14637	0.20267	0.14687	0.072868	0.058594	0.18171	-4.4292	-4.4062	-4.1354	-4.9375	-4.1479	-4.5333	-4.7604	-4.1062	-4.5083	-4.2229	-4.3562	-4.7812	-4.4271	-4.3104	-4.65	-4.1021	159.570	-47.372	-11.516	168.597	226.407	42.772	116.528	-65.040	150.065	71.659	144.753	227.416	-116.644	-112.989	-6.947	187.233	0.00040087	0.00038998	0.00014432	1456.6	6.8346e-06	6.9856e-06	1457.4	394.25	5.1011e-06	5.6519e-06	448.56	147.79	127.73	43.901	1.7684e-06	53.952	0.00066682	0.0006745	0.00019079	1476.6	7.481e-06	7.4441e-06	1476.6	402.01	7.3756e-06	7.3853e-06	456.67	151.4	130.94	45.03	7.3262e-06	55.501	169.906	-65.434	-34.560	-115.258	4.759	19.225	-115.435	-110.917	30.647	23.069	-110.969	-107.618	-107.029	-101.810	-45.463	-102.472	-8191	255	
720.158	1	1	0	0	0.11142	0.103	0.08422	0.25454	0.12304	0.15339	0.30794	0.17516	0.054816	0.073385	0.27104	0.41378	0.033749	0.1896	0.2753	0.22401	-4.2125	-4.3229	-4.1625	-4.9229	-4.1188	-4.2292	-4.7792	-4.3688	-4.4604	-4.4854	-4.225	-4.8187	-4.3333	-4.4146	-4.6208	-4.2771	-79.446	102.022	47.149	-128.066	-119.920	9.282	181.368	191.828	119.517	18.902	164.139	205.021	-96.851	-125.021	86.172	99.272	0.00045975	0.0007063	0.00028541	1457.2	5.1601e-06	5.2854e-06	1445.2	394.9	3.5526e-06	9.0671e-06	448.59	147.49	127.23	43.805	7.0439e-06	53.634	0.00066674	0.00068022	0.00018816	1474.3	7.3963e-06	7.4419e-06	1473.1	401.99	7.4734e-06	7.4418e-06	456.18	151.27	130.87	44.968	7.456e-06	55.447	170.822	-43.757	-25.979	-115.369	-45.663	-52.845	-115.675	-110.834	-44.282	-5.413	-111.384	-107.456	-106.816	-101.783	-4.068	-102.576	-8191	255	
720.279	1	1	0	0	0.1745	0.21398	0.045147	0.29887	0.094544	0.18288	0.12541	0.010885	0.14614	0.19307	0.10124	0.024446	0.13006	0.22148	0.013504	0.15541	-4.1042	-4.7083	-4.0062	-4.7229	-4.2646	-4.25	-4.8063	-4.2667	-4.4292	-4.6042	-4.2896	-4.8792	-4.4667	-4.2292	-4.7771	-4.2625	16.268	168.699	207.909	161.069	-35.847	38.670	46.847	-33.348	112.168	200.521	189.003	-7.469	-53.615	159.414	228.807	230.938	0.00042774	0.00080648	0.00014389	1457.6	3.996e-06	3.8604e-06	1449.5	393.62	1.932e-06	4.2209e-06	448.28	147.69	127.41	43.816	3.7756e-06	53.608	0.00067223	0.00068129	0.00019152	1475.4	7.5436e-06	7.4612e-06	1476	401.54	7.4628e-06	7.4484e-06	456.77	151.38	131.02	44.957	7.3989e-06	55.399	161.076	-37.612	-64.675	-115.268	-3.488	-8.143	-115.713	-110.923	-46.958	22.909	-111.218	-107.460	-106.976	-101.903	13.788	-102.436	-8191	255	
720.373	1	1	0	0	0.11361	0.09373	0.11591	0.1612	0.27123	0.1542	0.11181	0.30109	0.1568	0.10371	0.25693	0.18667	0.1701	0.049015	0.24134	0.15135	-4.1146	-4.6167	-4.1937	-4.7646	-4.4354	-4.2521	-4.9708	-4.425	-4.4729	-4.7646	-4.0771	-4.7229	-4.6021	-4.1792	-4.6333	-4.4479	40.365	-109.391	87.240	93.569	44.442	-119.746	133.162	173.627	-79.797	75.246	208.480	208.910	199.614	167.163	124.824	139.975	0.0004633	0.00090782	0.00019639	1460	7.6022e-06	2.8514e-06	1455	393.38	4.9085e-06	6.8085e-06	445.79	146.92	127.67	43.837	5.6537e-06	53.906	0.00066827	0.00067988	0.00018971	1475.3	7.341e-06	7.4312e-06	1474.8	401.23	7.4137e-06	7.338e-06	455.34	151.19	130.92	44.976	7.2602e-06	55.507	167.702	-67.556	-34.111	-115.261	25.937	86.557	-115.523	-111.071	-55.842	36.619	-111.319	-107.440	-107.004	-101.899	14.892	-102.450	-8191	255	
720.469	1	1	0	0	0.027238	0.068086	0.050366	0.25659	0.23912	0.099819	0.26736	0.20382	0.17786	0.19777	0.048669	0.067459	0.11556	0.080152	0.098945	0.1276	-4.0687	-4.7812	-3.9625	-4.875	-4.4	-4.0375	-4.7792	-4.4896	-4.35	-4.6792	-4.3229	-4.4958	-4.6833	-4.2604	-4.6208	-4.3583	118.933	225.130	14.833	186.418	122.832	78.677	181.018	200.402	-111.046	-34.629	-12.589	175.704	-36.573	203.599	117.635	151.336	0.00040139	0.00090128	0.00019397	1459.6	5.836e-06	6.68e-06	1452.1	394.63	5.3035e-06	1.7174e-06	448.56	147.26	127.37	43.699	5.7368e-06	53.955	0.00065948	0.00066784	0.00018527	1474.3	7.2607e-06	7.3261e-06	1473.7	401.33	7.213e-06	7.2048e-06	456.01	151.21	130.72	44.912	7.1712e-06	55.471	154.855	-60.416	-27.151	-115.255	-9.179	20.969	-115.590	-110.974	-19.840	24.736	-111.352	-107.565	-106.816	-102.088	30.133	-102.446	-8191	255	
720.566	1	1	0	0	0.12906	0.17612	0.17351	0.266	0.12364	0.22588	0.21152	0.18735	0.13943	0.051835	0.22208	0.10826	0.22512	0.11898	0.10078	0.091492	-3.9917	-4.8583	-4.3562	-4.6917	-4.5062	-4.0083	-4.9187	-4.4563	-4.2771	-4.8292	-4.3833	-4.75	-4.5375	-4.1687	-4.5896	-4.5813	-9.135	-13.694	213.480	223.609	107.874	-25.549	210.755	164.230	82.857	-88.559	185.390	210.144	10.864	226.510	-39.370	77.626	0.00040258	0.00059102	0.00016257	1457	3.4917e-07	3.9262e-06	1446.4	394.02	5.4909e-06	4.6796e-06	448.38	147.19	127.42	43.867	7.1301e-06	53.656	0.00064517	0.00066381	0.0001847	1473.8	7.169e-06	7.2618e-06	1472.4	401.36	7.2383e-06	7.2127e-06	456.22	151.25	130.89	44.996	7.136e-06	55.48	164.475	-58.331	-52.101	-115.223	144.934	63.896	-115.424	-111.059	-42.220	57.943	-111.125	-107.509	-107.008	-101.833	54.549	-102.510	-8191	255	
720.686	1	1	0	0	0.21404	0.096089	0.037309	0.17322	0.24535	0.12566	0.2293	0.18558	0.1827	0.24797	0.17351	0.16335	0.21136	0.12686	0.06427	0.033019	-3.8812	-4.6667	-4.3938	-4.6958	-4.6562	-4.3167	-4.7667	-4.7146	-4.2604	-4.6917	-4.5062	-4.5208	-4.8125	-4.2	-4.3979	-4.6708	100.104	-68.196	-52.960	229.358	-38.693	224.110	121.346	216.053	177.987	189.506	200.635	147.099	182.795	-82.205	23.315	153.119	0.00044641	4.4582e-05	0.00027985	1456.3	3.361e-06	5.9251e-06	1451	394.82	5.4287e-06	8.7731e-06	447.49	147.34	127.44	43.742	4.3935e-06	53.763	0.00065118	0.00065162	0.00018327	1472.8	7.2227e-06	7.229e-06	1474.5	401.18	7.2585e-06	7.155e-06	456.31	151.19	130.91	44.965	7.1915e-06	55.458	167.562	189.203	-25.706	-115.229	48.014	-30.105	-115.609	-111.044	1.430	-12.802	-111.216	-107.689	-106.687	-101.897	4.781	-102.578	-8191	255	
720.758	1	1	0	0	0.15124	0.045084	0.19526	0.46727	0.10167	0.17241	0.060396	0.045511	0.13259	0.21405	0.17884	0.1099	0.22492	0.20217	0.11927	0.1236	-3.8812	-4.6729	-4.0958	-4.4646	-4.7458	-4.0021	-4.6604	-4.725	-4.2104	-4.7208	-4.5271	-4.3938	-4.8458	-4.35	-4.3458	-4.6687	-80.603	-126.720	51.148	211.344	217.218	105.817	34.765	187.343	216.717	-107.455	-39.983	110.715	183.658	219.852	-74.203	-126.911	0.00038564	0.00078706	0.00012314	1461.5	8.1739e-07	3.4289e-06	1449.9	393.4	1.0056e-06	5.9347e-06	449.5	147.42	127.67	43.676	4.2777e-06	53.503	0.00065219	0.00066144	0.00018331	1474	7.1777e-06	7.1636e-06	1474.3	400.98	7.2269e-06	7.1526e-06	456.3	151.39	130.84	44.949	7.1929e-06	55.287	154.342	-29.653	-37.802	-115.120	1.395	52.762	-115.582	-110.828	-31.612	52.064	-111.173	-107.511	-107.050	-101.802	-41.251	-102.475	-8191	255	
720.854	1	1	0	0	0.06886	0.18762	0.13289	0.21681	0.10443	0.32145	0.31608	0.10925	0.057214	0.053585	0.19561	0.14434	0.3019	0.39277	0.24812	0.10464	-3.7646	-4.7208	-4.4812	-4.3708	-4.6375	-4.375	-4.6583	-4.7875	-4.0125	-4.5563	-4.5146	-4.1708	-4.7562	-4.3812	-4.3917	-4.7708	-32.484	-38.427	56.750	182.984	-89.356	102.226	172.998	143.896	-101.443	148.475	199.567	184.999	-126.496	171.978	186.263	18.660	0.00041262	0.00089269	6.4041e-05	1452.6	4.8192e-06	3.7548e-06	1450.7	393.62	6.1524e-06	6.752e-06	448.27	147.29	127.17	43.791	2.6966e-06	53.564	0.00065289	0.0006554	0.00018263	1474.1	7.1572e-06	7.1504e-06	1474.3	401.17	7.1531e-06	7.1451e-06	455.71	151.18	130.84	44.986	7.1426e-06	55.333	166.010	-40.478	-86.668	-115.280	-23.162	9.240	-115.584	-110.935	-56.431	27.509	-111.193	-107.258	-106.944	-101.613	-109.813	-102.578	-8191	255	
720.950	1	1	0	0	0.076207	0.23115	0.085853	0.092481	0.34947	0.10134	0.15385	0.26709	0.36038	0.23261	0.15971	0.12892	0.10267	0.043285	0.14032	0.17931	-3.6188	-4.4979	-4.5854	-4.2979	-4.625	-4.3792	-4.6562	-4.7833	-4.0188	-4.6042	-4.6292	-4.2875	-4.8187	-4.3979	-4.3021	-4.6375	-51.813	-121.535	132.640	173.499	-102.050	-114.209	-88.646	-126.594	131.692	219.215	195.953	11.123	226.427	157.101	-83.499	-98.515	0.00037513	0.00054021	0.00029353	1458.1	2.8764e-06	8.4765e-06	1451.4	394.48	5.3206e-06	5.509e-06	447.26	147.2	127.45	43.72	5.6785e-06	53.847	0.00064707	0.00065157	0.00018307	1474.2	7.1767e-06	7.113e-06	1474.1	401.5	7.1511e-06	7.0978e-06	454.84	151.32	130.81	44.973	7.1272e-06	55.44	163.827	-16.220	-11.416	-115.291	41.064	32.782	-115.583	-111.087	-50.938	-3.762	-111.113	-107.402	-106.804	-101.837	20.912	-102.539	-8191	255	
721.071	1	1	0	0	0.17377	0.017962	0.13508	0.16864	0.049437	0.14709	0.18427	0.10443	0.10617	0.19313	0.24138	0.21899	0.078898	0.049225	0.20299	0.073983	-3.7229	-4.3917	-4.5375	-4.2937	-4.5687	-4.2396	-4.4208	-4.7583	-4.075	-4.3896	-4.7188	-4.1875	-4.7458	-4.625	-4.2688	-4.7875	227.525	100.745	123.664	167.116	201.256	43.580	171.653	194.853	224.251	-120.605	226.241	118.000	178.263	7.309	174.093	-84.327	0.00036639	0.00063227	0.00016135	1452.6	1.6342e-06	3.174e-06	1451	394.17	3.6103e-06	6.353e-06	447.25	147.29	127.33	43.815	9.3949e-06	53.91	0.000644	0.00065512	0.00018209	1472	7.1297e-06	7.1339e-06	1474.5	401.41	7.2532e-06	7.1391e-06	455.36	151.32	130.69	44.897	7.179e-06	55.352	161.920	-52.907	17.091	-115.267	220.885	22.231	-115.467	-110.819	220.467	49.230	-111.349	-107.475	-106.923	-102.017	5.063	-102.695	-8191	255	
721.167	1	1	0	0	0.19937	0.054589	0.093001	0.25652	0.20088	0.044019	0.20518	0.22206	0.25158	0.14245	0.11073	0.31332	0.27047	0.051655	0.11741	0.13953	-3.8854	-4.3542	-4.6833	-4.2708	-4.5312	-4.4708	-4.4292	-4.8396	-4.1375	-4.3146	-4.9771	-4.2188	-4.8479	-4.4938	-4.1167	-4.7271	83.104	-12.807	1.193	165.588	-75.154	-14.629	141.728	168.037	31.767	64.184	208.016	177.997	-114.431	168.448	193.399	210.839	0.00039603	0.00051104	0.00014797	1456.3	4.3366e-06	7.9476e-06	1446.4	393.97	4.48e-06	3.268e-06	448.49	147.34	127.77	43.643	2.417e-06	53.749	0.00064483	0.00064629	0.00018372	1471.6	7.1501e-06	7.1428e-06	1471.9	401.08	7.1706e-06	7.1045e-06	455.43	151.18	130.76	44.895	7.1842e-06	55.355	159.374	-31.440	-85.648	-115.140	19.931	39.182	-115.506	-111.049	-28.845	15.405	-111.100	-107.584	-106.943	-101.551	17.424	-102.473	-8191	255	
721.261	1	1	0	0	0.205	0.077947	0.27212	0.21927	0.11827	0.27967	0.32487	0.24254	0.16451	0.034535	0.09055	0.22846	0.22124	0.40893	0.26854	0.20276	-3.9188	-4.4042	-4.5958	-4.3542	-4.4896	-4.6167	-4.3042	-4.7688	-4.3896	-4.4042	-4.8875	-4.1333	-4.7042	-4.6208	-4.2	-4.9021	-86.724	183.492	-49.517	168.396	-110.173	177.568	178.771	155.536	186.539	-71.207	50.540	-101.198	185.397	160.790	143.286	120.640	0.00044736	0.00087457	6.0814e-05	1454.3	5.7864e-07	1.2246e-06	1450.5	395.14	5.1216e-06	3.0474e-06	449.61	147.28	127.53	43.769	5.137e-06	53.711	0.00064211	0.00065174	0.00018148	1471.5	7.1579e-06	7.037e-06	1472.7	401.65	7.1281e-06	7.1255e-06	456.37	151.07	130.65	44.95	7.1387e-06	55.371	157.600	-31.866	-20.418	-115.360	-84.722	151.897	-115.609	-110.962	-41.182	87.702	-111.220	-107.388	-106.974	-101.767	-10.307	-102.432	-8191	255	
721.359	1	1	0	0	0.084545	0.088164	0.15583	0.44925	0.34475	0.2299	0.0060473	0.15896	0.18877	0.058442	0.034363	0.31089	0.17082	0.25805	0.050116	0.32333	-4.0521	-4.1813	-4.675	-4.4	-4.5146	-4.7146	-4.3625	-4.9	-4.475	-4.2125	-4.8271	-4.4062	-4.4604	-4.7958	-4.0979	-4.6583	104.636	207.022	198.365	188.757	-63.908	-45.431	-66.386	142.872	169.326	11.346	-41.518	190.565	-125.411	-101.605	141.200	173.966	0.00034283	0.00051108	0.00015948	1453.6	4.0577e-06	6.6794e-06	1450.7	393.77	3.7751e-06	8.3523e-06	447.13	147.84	127.47	43.731	4.8439e-06	53.697	0.00063872	0.00065856	0.00018056	1472.4	7.1587e-06	7.1278e-06	1473.1	401.31	7.0905e-06	7.1528e-06	455.76	151.2	130.77	44.957	7.1834e-06	55.436	160.572	-89.998	5.792	-115.209	-39.662	-22.743	-115.455	-110.932	-35.681	-15.254	-111.120	-107.530	-106.768	-101.601	-13.562	-102.698	-8191	255	
721.454	1	1	0	0	0.14365	0.13555	0.094282	0.4762	0.11746	0.12869	0.040276	0.35331	0.14261	0.18341	0.24799	0.11156	0.13018	0.1405	0.28746	0.42434	-4.0938	-3.9188	-4.6583	-4.3896	-4.3417	-4.5125	-4.4229	-4.6875	-4.5396	-4.1854	-4.8521	-4.3792	-4.5792	-4.6521	-4.0917	-4.7396	-70.081	-90.148	105.389	214.532	-11.483	-91.286	-43.768	167.001	99.087	-15.276	-118.720	203.483	-93.547	144.947	-89.884	197.513	0.00039224	0.00074576	0.00016411	1458.2	2.706e-06	4.044e-06	1450.9	394.07	5.8878e-06	3.4899e-06	448.23	147.82	127.61	43.866	2.2286e-06	53.902	0.00063921	0.00065143	0.00017972	1474.5	7.0531e-06	7.1045e-06	1475	401.42	6.9974e-06	7.0699e-06	455.88	151.39	130.83	44.971	7.0453e-06	55.485	166.623	-18.694	-1.135	-115.237	79.578	-7.482	-115.287	-110.957	15.060	-23.229	-111.346	-107.460	-106.877	-101.754	-44.394	-102.814	-8191	255	
721.550	1	1	0	0	0.19061	0.16379	0.13942	0.19978	0.19075	0.040022	0.33398	0.11057	0.14246	0.30059	0.016678	0.16104	0.20618	0.15961	0.1255	0.11808	-4.1188	-4.0875	-4.7333	-4.4896	-4.2646	-4.7562	-4.2063	-4.5479	-4.5167	-4.2063	-4.8396	-4.4812	-4.2646	-4.8938	-4.0938	-4.5333	58.577	222.812	-88.028	205.242	213.757	11.537	142.205	164.747	8.278	58.552	194.919	188.649	6.800	69.352	118.209	183.506	0.00037873	0.00060563	0.0001809	1457.5	2.0205e-06	5.4975e-06	1450.8	394.86	2.9301e-06	4.0435e-06	447.85	147.31	127.39	43.887	6.3385e-06	53.776	0.0006408	0.00064825	0.00017876	1473.6	7.1216e-06	6.9914e-06	1474.9	401.72	7.0689e-06	7.0851e-06	455.49	151.33	130.84	44.956	7.0544e-06	55.453	158.646	-38.678	-85.654	-115.279	-38.067	46.310	-115.407	-110.761	-8.610	-7.553	-111.169	-107.386	-106.899	-101.849	-42.795	-102.754	-8191	255	
721.646	1	1	0	0	0.053186	0.13417	0.24761	0.09752	0.26605	0.12569	0.083579	0.27108	0.080158	0.16643	0.19741	0.23191	0.063394	0.15734	0.25681	0.21624	-4.1792	-4.0563	-4.5667	-4.5125	-4.3104	-4.7562	-4.475	-4.6125	-4.6667	-3.9979	-4.6292	-4.6646	-4.1896	-4.6979	-4.3083	-4.5208	147.770	167.428	20.487	170.605	-119.956	56.476	152.025	195.193	-78.985	-31.379	145.607	90.238	-72.951	78.003	1.309	212.435	0.00049758	0.00051193	6.4739e-05	1456.5	3.0874e-06	2.2318e-06	1452.2	394.62	3.7752e-06	4.8722e-06	449.4	148.2	127.46	43.816	3.3663e-06	53.929	0.00063352	0.00064529	0.00017869	1473.1	7.1186e-06	7.0248e-06	1474.3	401.36	7.081e-06	7.0226e-06	456.57	151.64	130.99	45.036	7.0535e-06	55.585	161.481	-70.859	-21.393	-115.385	-73.298	43.705	-115.569	-110.777	-31.390	34.674	-111.328	-107.778	-106.900	-101.858	15.962	-102.604	-8191	255	
721.767	1	1	0	0	0.11002	0.16237	0.15696	0.17882	0.059696	0.085787	0.22319	0.14797	0.14308	0.080912	0.24162	0.12386	0.094847	0.29305	0.12164	0.11092	-4.4313	-4.0083	-4.6667	-4.8125	-4.1542	-4.7083	-4.4792	-4.4729	-4.7229	-4.2417	-4.7125	-4.5979	-4.2937	-4.8562	-4.1312	-4.4417	55.884	-40.857	65.586	149.878	14.202	26.105	-106.722	144.570	154.763	167.102	173.823	108.009	98.144	178.821	-38.502	-127.154	0.00039456	0.00037999	0.00010691	1458.7	4.0856e-06	2.0595e-06	1455.4	394.31	5.1681e-06	5.3928e-06	448.49	147.3	127.64	43.93	1.2462e-06	54.239	0.00063029	0.00064924	0.0001798	1474	7.1508e-06	7.0979e-06	1475.5	401.41	7.0427e-06	7.0706e-06	455.96	151.42	130.83	45.02	6.9756e-06	55.592	170.560	-79.487	-40.804	-115.310	-45.098	-69.272	-115.697	-110.923	-50.534	122.105	-111.257	-107.494	-106.837	-101.660	-61.096	-102.385	-8191	255	
721.863	1	1	0	0	0.074902	0.17147	0.055217	0.13802	0.13221	0.34747	0.27028	0.24203	0.039487	0.25079	0.31732	0.17893	0.2978	0.16296	0.16561	0.28274	-4.3354	-4.1375	-4.575	-4.7229	-3.9562	-4.7521	-4.4729	-4.4354	-4.8229	-4.2	-4.5042	-4.6833	-4.3479	-4.8688	-4.2229	-4.1833	222.991	97.661	22.525	211.422	-4.756	49.869	194.473	152.387	-97.378	-108.969	210.565	148.922	194.476	128.849	118.141	165.662	0.00045373	0.0004764	4.4019e-05	1457.1	4.1061e-06	3.5672e-06	1453.4	394.54	5.9735e-06	9.5389e-06	447.6	147.54	127.62	43.889	3.9704e-06	53.846	0.00063611	0.00065299	0.00018055	1472.7	7.1547e-06	7.0757e-06	1472.7	401.7	7.0396e-06	7.0969e-06	455.35	151.2	130.89	45.01	7.058e-06	55.534	156.302	-28.145	-21.193	-115.455	-32.119	64.067	-115.529	-110.910	-54.478	16.649	-111.227	-107.574	-106.940	-101.879	-47.070	-102.418	-8191	255	
721.959	1	1	0	0	0.16576	0.097743	0.088173	0.32844	0.17342	0.10059	0.34247	0.19044	0.2576	0.028326	0.10144	0.044934	0.22379	0.18669	0.2382	0.14182	-4.5	-4.1833	-4.5042	-4.9771	-3.925	-4.6521	-4.6479	-4.3688	-4.7396	-4.2375	-4.5625	-4.9021	-4.2063	-4.7896	-4.4167	-4.1937	-4.248	-49.387	-36.526	226.438	204.567	-4.981	190.126	220.181	-124.641	-0.447	169.485	222.465	134.410	134.451	146.940	-121.916	0.00043335	0.00021353	0.00016018	1459.2	3.6221e-06	4.1643e-06	1451.7	394.59	6.1261e-06	6.0293e-06	448.39	147.72	127.97	43.999	7.9389e-06	54.046	0.00063402	0.00064097	0.00018096	1474.6	7.1408e-06	7.0401e-06	1474.4	401.82	7.0334e-06	7.0902e-06	455.86	151.31	130.99	45.072	7.0003e-06	55.553	161.805	-20.167	-23.688	-115.147	-36.663	-14.600	-115.533	-110.802	-60.723	60.721	-111.226	-107.477	-106.797	-102.042	-12.481	-102.482	-8191	255	
722.055	1	1	0	0	0.34062	0.093338	0.15173	0.16914	0.068639	0.17952	0.30257	0.19216	0.22398	0.040081	0.22831	0.13286	0.16043	0.14424	0.13403	0.23383	-4.4042	-4.2292	-4.2458	-5.0188	-4.0896	-4.4896	-4.8729	-4.3354	-4.7521	-4.1604	-4.2292	-4.7812	-4.2625	-4.5896	-4.4667	-4.0958	33.516	62.144	141.623	188.903	145.725	-65.140	191.984	83.371	-39.221	-46.786	230.406	155.064	213.136	165.566	18.441	119.759	0.00038515	0.00052621	6.712e-05	1458.1	7.8658e-06	2.694e-06	1456.2	396.32	1.6856e-06	7.1951e-06	448.57	148.23	127.94	43.999	4.7298e-06	54.203	0.00062854	0.00063658	0.00017884	1475.2	6.9647e-06	7.0001e-06	1475.8	402.06	6.9367e-06	6.9359e-06	455.67	151.45	131.19	45.107	7.0001e-06	55.624	158.905	-74.249	-38.773	-115.249	2.111	-0.700	-115.659	-110.899	-62.231	-3.789	-111.146	-107.727	-106.683	-102.018	-32.869	-102.584	-8191	255	
722.151	1	1	0	0	0.069535	0.096619	0.11322	0.29766	0.061698	0.070359	0.33324	0.21694	0.12924	0.32179	0.10698	0.075595	0.13264	0.20187	0.19923	0.2714	-4.3542	-4.2625	-4.275	-4.6979	-4.2188	-4.3375	-4.85	-4.3479	-4.6896	-4.4	-4.2354	-4.7812	-4.3479	-4.5521	-4.5521	-4.2	-23.190	-120.414	-33.203	174.428	125.736	173.155	177.647	216.483	-68.321	110.938	157.284	180.940	-109.148	-77.878	-40.045	181.867	0.00040312	0.0006047	0.00025141	1457.9	5.61e-06	5.9169e-06	1454.6	395.94	6.8908e-06	5.5269e-06	449.45	147.49	127.81	43.984	2.3431e-06	54.021	0.0006288	0.00064186	0.00018065	1475	7.0285e-06	7.0288e-06	1478.4	401.87	7.0226e-06	6.9881e-06	456.47	151.48	130.99	45.118	7.0381e-06	55.694	170.021	-17.318	-61.267	-115.388	45.633	21.149	-115.583	-110.970	-60.156	76.676	-111.047	-107.449	-106.764	-101.957	181.995	-102.360	-8191	255	
722.247	1	1	0	0	0.20688	0.13673	0.051437	0.3689	0.26009	0.075304	0.18853	0.21678	0.11669	0.084215	0.14376	0.14802	0.33491	0.095778	0.19154	0.024722	-4.3729	-4.5167	-4.1083	-4.8583	-4.1833	-4.4229	-4.7312	-4.1542	-4.8104	-4.6	-4.3771	-4.7417	-4.425	-4.2812	-4.725	-4.3771	129.171	-8.983	195.889	205.248	45.374	58.829	146.054	146.262	-15.615	101.258	-126.381	146.002	124.363	179.211	167.377	136.259	0.00041445	0.0001677	0.00014241	1458.6	2.1483e-06	6.259e-06	1454.9	395.08	3.3775e-06	7.6316e-06	447.58	148.12	128.17	44.085	4.6612e-06	53.687	0.00063087	0.00064427	0.00017986	1476.9	7.0311e-06	7.0113e-06	1478.1	401.58	6.9761e-06	6.955e-06	456.4	151.76	131.42	45.157	6.9439e-06	55.562	171.281	-29.849	28.377	-115.527	-14.496	29.333	-115.515	-111.065	-52.497	51.674	-111.080	-107.521	-106.947	-101.824	-34.557	-102.191	-8191	255	
722.366	1	1	0	0	0.084252	0.070451	0.22675	0.21072	0.24851	0.16474	0.18053	0.25741	0.11685	0.15181	0.28931	0.18435	0.21375	0.1701	0.10111	0.16845	-4.2521	-4.4396	-4.1854	-4.8458	-4.3292	-4.2792	-4.8729	-4.3313	-4.6438	-4.6125	-4.2792	-4.7125	-4.4208	-4.3354	-4.6583	-4.2542	-85.311	197.020	126.107	-110.022	-27.568	-93.565	144.299	191.807	73.335	88.543	220.462	-58.372	150.115	226.097	120.096	182.630	0.0003815	0.00085526	0.00010731	1460.5	2.6068e-06	3.7382e-06	1451.9	394.79	2.9354e-06	8.4926e-06	448.98	147.46	128.11	44.1	2.3523e-06	53.982	0.00062486	0.00063534	0.00017963	1475.3	6.9801e-06	7.0315e-06	1476.9	402.29	7.0101e-06	6.963e-06	456.62	151.76	131.24	45.181	7.0405e-06	55.609	176.217	-33.581	-5.328	-115.116	15.819	-4.134	-115.562	-110.990	-82.221	31.867	-111.283	-107.459	-106.819	-101.556	-39.424	-102.487	-8191	255	
722.462	1	1	0	0	0.13983	0.01711	0.15487	0.48102	0.18539	0.12636	0.23312	0.13827	0.073204	0.022555	0.22257	0.14057	0.063865	0.27829	0.22357	0.0927	-4.1542	-4.45	-3.9396	-4.6438	-4.3021	-4.0958	-4.9521	-4.2771	-4.2312	-4.7146	-4.1625	-4.5875	-4.6354	-4.2312	-4.6521	-4.1958	-113.384	62.935	123.973	168.706	-116.518	34.776	-116.280	196.465	56.954	30.110	168.102	227.918	163.743	220.362	29.205	-109.399	0.00048789	0.00026555	0.00016924	1461.1	5.2937e-06	2.9042e-06	1454.1	394.86	4.8011e-06	6.8128e-06	447.79	147.7	127.43	44.119	4.7979e-06	54.268	0.00063616	0.00064799	0.00018122	1477.5	7.1411e-06	7.0881e-06	1478.4	402.12	7.1844e-06	7.022e-06	456.81	151.62	131.24	45.261	7.0255e-06	55.719	166.746	-9.973	-5.813	-115.310	-29.854	-12.630	-115.646	-110.872	-62.075	18.786	-111.330	-107.575	-106.851	-101.853	-38.037	-102.423	-8191	255	
722.559	1	1	0	0	0.08389	0.035466	0.29996	0.15805	0.09805	0.055698	0.03375	0.14847	0.11565	0.16501	0.19851	0.24356	0.085704	0.03367	0.10667	0.14979	-4.0917	-4.6042	-3.9625	-4.6875	-4.4083	-4.1562	-4.7833	-4.3396	-4.3958	-4.7021	-4.3125	-4.6562	-4.6604	-4.3812	-4.5	-4.4021	84.446	41.747	122.716	169.481	20.577	25.659	171.082	224.634	40.134	155.811	214.318	-123.696	-78.009	127.985	197.000	77.533	0.00048537	0.00026578	0.00022072	1466.2	3.9054e-06	6.4531e-06	1456.4	395.7	2.6086e-06	5.5509e-06	450.07	148.39	128	43.915	5.6292e-06	54.349	0.00063793	0.00063974	0.00017952	1478	6.946e-06	6.9929e-06	1478.3	402.39	7.1211e-06	7.0448e-06	457.31	151.74	131.22	45.146	7.0373e-06	55.723	167.351	17.205	-38.144	-115.240	-42.386	34.119	-115.506	-111.085	205.501	19.844	-111.234	-107.566	-106.870	-101.905	20.326	-102.618	-8191	255	
722.630	1	1	0	0	0.19011	0.08828	0.034003	0.08332	0.099723	0.12022	0.023649	0.19988	0.18666	0.18956	0.17373	0.29649	0.37933	0.37323	0.076002	0.15576	-3.8021	-4.8583	-4.25	-4.8562	-4.4792	-4.1083	-4.7917	-4.65	-4.1979	-4.7042	-4.3208	-4.5833	-4.4979	-3.8771	-4.5604	-4.5167	191.336	114.806	181.992	-92.578	-9.140	-82.755	192.365	170.635	-19.846	6.306	-98.505	225.628	-108.510	190.191	182.289	61.721	0.00039862	0.00050873	0.00020982	1463.1	3.6549e-06	6.0703e-06	1454.7	396.74	1.8938e-06	1.015e-06	449.36	148.34	128.41	44.324	4.7259e-06	54.202	0.00063773	0.00063757	0.00017919	1478.4	6.9097e-06	6.9803e-06	1479.3	403	6.9675e-06	6.8629e-06	457.62	151.85	131.43	45.29	6.9701e-06	55.754	172.344	11.137	-23.230	-115.188	-26.942	16.935	-115.648	-110.920	-45.076	83.055	-110.826	-107.444	-106.761	-101.849	-0.719	-102.403	-8191	255	
722.751	1	1	0	0	0.16326	0.045347	0.20133	0.10216	0.18904	0.15277	0.16541	0.36344	0.22855	0.021386	0.078105	0.31324	0.16935	0.23696	0.28994	0.084042	-3.9667	-4.7958	-4.1562	-4.6312	-4.8104	-4.1687	-4.7875	-4.475	-4.1542	-4.7063	-4.4125	-4.5229	-4.6687	-4.1542	-4.6062	-4.5625	-20.806	94.540	127.489	205.242	-51.010	133.614	184.656	199.444	84.825	208.476	103.822	-101.970	162.298	196.427	140.668	188.493	0.00045898	0.0004675	0.00012544	1460.6	3.0924e-06	5.0748e-06	1462.5	394.97	1.762e-06	4.0704e-06	449.42	148.5	128.64	44.257	5.1444e-06	54.333	0.00063853	0.00063553	0.00017971	1478.6	7.0095e-06	7.1603e-06	1480.6	402.03	7.0449e-06	6.9817e-06	456.92	152.06	131.6	45.312	6.9641e-06	55.817	162.752	5.130	-76.007	-115.278	19.444	57.187	-115.582	-110.880	-48.354	-37.174	-111.013	-107.259	-106.890	-101.963	22.046	-102.156	-8191	255	
722.847	1	1	0	0	0.10982	0.14447	0.27269	0.26134	0.039808	0.099204	0.39856	0.26237	0.17589	0.29771	0.32403	0.19307	0.11326	0.15638	0.08165	0.23458	-3.7583	-4.6792	-4.2854	-4.475	-4.7562	-4.225	-4.6646	-4.5938	-4.1458	-4.6771	-4.4604	-4.4542	-4.825	-4.2125	-4.5104	-4.6667	-107.343	46.432	-81.337	187.723	-105.003	103.227	205.227	167.151	-32.566	-0.650	210.024	91.638	184.755	-119.310	22.123	144.992	0.000427	0.00019484	0.00018162	1461.5	3.7461e-06	4.2587e-06	1461.8	396.14	4.0184e-06	3.6013e-06	449.1	148.02	127.92	44.089	7.5608e-06	54.173	0.00063345	0.0006364	0.00017811	1479.5	7.0209e-06	7.1071e-06	1481.3	403.17	7.0942e-06	7.0061e-06	457.49	151.91	131.35	45.213	7.0472e-06	55.779	170.683	-121.781	-36.152	-115.207	-85.393	43.398	-115.445	-110.951	-55.066	-28.693	-111.205	-107.577	-106.913	-101.895	-50.009	-102.556	-8191	255	
722.943	1	1	0	0	0.21944	0.18253	0.065535	0.29681	0.070274	0.19419	0.13913	0.38801	0.18427	0.1729	0.095268	0.16534	0.071294	0.071834	0.22687	0.18553	-3.8563	-4.6083	-4.4042	-4.3167	-4.8625	-4.1854	-4.4625	-4.775	-4.0062	-4.5625	-4.5646	-4.3354	-4.7438	-4.3521	-4.3771	-4.7771	-97.420	-32.469	163.019	223.435	104.837	73.437	149.448	158.548	-26.683	154.914	187.995	-76.725	108.107	208.750	153.035	174.621	0.0004645	0.00057152	0.00011337	1463.6	2.2053e-06	5.2602e-06	1462.4	395.8	3.2808e-06	3.5845e-06	448.57	148.52	128.75	44.071	1.0254e-05	54.367	0.00063955	0.00064783	0.00017902	1480.3	6.9705e-06	7.0473e-06	1482.4	402.62	7.0868e-06	6.99e-06	457.43	152	131.68	45.245	7.1358e-06	55.809	163.196	-8.632	-48.284	-115.222	-98.946	24.882	-115.604	-110.852	-61.677	14.582	-111.175	-107.528	-106.901	-101.838	50.536	-102.710	-8191	255	
723.039	1	1	0	0	0.10598	0.17439	0.014156	0.15502	0.051397	0.24866	0.23105	0.12614	0.12781	0.014445	0.06772	0.13429	0.2573	0.010032	0.11223	0.20527	-3.7146	-4.7708	-4.4229	-4.3333	-4.9021	-4.2562	-4.4875	-4.8792	-4.0938	-4.5625	-4.5542	-4.2979	-4.9292	-4.3854	-4.3063	-4.6312	176.970	61.530	-89.181	161.334	73.392	-8.709	156.700	225.800	-80.798	-105.131	95.179	-116.439	-98.095	-98.243	177.689	194.072	0.00042497	0.00060695	0.00015145	1461.4	3.6274e-06	7.685e-06	1461.3	397	4.9746e-06	4.0891e-06	449.43	148.77	128.39	44.03	5.8589e-06	54.038	0.00063798	0.00064107	0.00018061	1479.2	7.0577e-06	7.0861e-06	1480.5	402.75	7.115e-06	7.1317e-06	457.65	152.3	131.54	45.237	7.1326e-06	55.759	154.128	-79.430	-36.583	-115.236	-32.400	17.808	-115.597	-110.978	-12.654	-17.711	-111.283	-107.576	-106.761	-102.028	13.142	-102.568	-8191	255	
723.158	1	1	0	0	0.087463	0.1778	0.22408	0.0972	0.055832	0.14956	0.14805	0.1767	0.092501	0.060349	0.062567	0.10072	0.27546	0.080522	0.045967	0.12479	-3.7583	-4.5375	-4.4208	-4.3292	-4.6854	-4.3458	-4.6542	-4.6813	-4.1312	-4.6375	-4.8042	-4.2063	-4.7479	-4.2188	-4.375	-4.8833	69.672	127.650	42.391	175.587	11.200	-15.566	111.815	160.510	109.322	80.278	-62.796	185.868	124.533	212.851	217.521	-100.426	0.00043736	0.00038249	0.00013489	1460.9	2.2304e-06	4.4542e-06	1456.3	396.27	6.7188e-06	3.6855e-06	449.95	148.14	128.1	44.112	6.9196e-06	54.005	0.00064039	0.00065296	0.00018003	1480.6	7.1511e-06	7.1485e-06	1480.5	403.08	7.169e-06	7.137e-06	457.62	151.99	131.46	45.225	7.1429e-06	55.704	160.941	-22.612	-25.518	-115.290	76.425	69.025	-115.642	-111.027	-72.261	10.912	-111.404	-107.305	-106.924	-101.911	-8.742	-102.650	-8191	255	
723.232	1	1	0	0	0.12537	0.083867	0.16857	0.34894	0.17346	0.13564	0.23892	0.094197	0.081317	0.14567	0.2482	0.017532	0.10403	0.16455	0.12611	0.099778	-3.8021	-4.4354	-4.5938	-4.3229	-4.5104	-4.2438	-4.3292	-4.7562	-4.1354	-4.4604	-4.8646	-4.2188	-4.8125	-4.5563	-4.2083	-4.8625	163.329	54.634	168.223	-103.988	224.680	216.044	194.383	-124.367	-5.161	-84.878	75.871	-77.836	139.448	192.466	19.817	145.406	0.00041519	0.00015363	6.79e-05	1464.2	8.8313e-06	4.142e-06	1460.6	397.17	5.1327e-06	6.2835e-06	449	148.21	128.67	44.065	9.946e-06	54.065	0.00064728	0.00065769	0.00018186	1482.2	7.1807e-06	7.1668e-06	1482.8	402.9	7.1887e-06	7.1382e-06	457.72	152.14	131.5	45.262	7.1444e-06	55.802	162.464	9.095	-63.559	-115.238	-13.933	81.673	-115.687	-110.903	-60.789	45.698	-111.171	-107.497	-106.913	-102.003	22.459	-102.357	-8191	255	
723.328	1	1	0	0	0.14619	0.23815	0.12278	0.20228	0.14974	0.084542	0.26139	0.2557	0.11636	0.036059	0.12131	0.13616	0.10097	0.078774	0.20427	0.22341	-3.9417	-4.3187	-4.6583	-4.1979	-4.7438	-4.4979	-4.2521	-4.8083	-4.1917	-4.2	-4.9396	-4.2208	-4.6188	-4.5896	-3.9771	-4.775	174.534	-58.388	-120.284	181.180	-99.176	61.257	122.854	115.947	-110.582	175.617	80.437	108.445	155.024	117.000	-85.574	163.236	0.00043496	0.00041168	0.0002015	1462.4	6.6428e-07	1.0724e-06	1454.4	396.8	4.423e-06	2.5013e-06	450.09	148.34	128.14	43.961	1.1008e-06	54.046	0.00064448	0.00065664	0.00018242	1478.9	7.1141e-06	7.1028e-06	1479.4	402.82	7.0958e-06	7.1415e-06	458.27	152.04	131.59	45.215	7.0916e-06	55.769	156.228	-56.756	-35.935	-115.231	41.361	126.677	-115.279	-110.746	-50.534	13.470	-111.271	-107.449	-106.761	-101.891	56.932	-102.234	-8191	255	
723.447	1	1	0	0	0.23529	0.081112	0.13793	0.40149	0.06928	0.064389	0.26271	0.31386	0.14657	0.15643	0.11328	0.13347	0.16804	0.077904	0.018663	0.12738	-3.9375	-4.1021	-4.8187	-4.3479	-4.6167	-4.5646	-4.2729	-4.8833	-4.3625	-4.325	-4.7	-4.2562	-4.7146	-4.6667	-4.1854	-4.8875	125.143	105.824	-71.435	210.389	48.822	68.962	167.183	94.812	167.035	175.207	167.618	-69.922	124.703	-116.208	44.844	-81.926	0.0004328	0.00050106	0.00014779	1461.8	4.8902e-06	7.2269e-06	1453.7	396.61	4.0321e-06	4.4103e-06	448.21	148.68	128.35	44.221	6.3019e-06	54.075	0.00064328	0.00065192	0.00018204	1477.4	7.1043e-06	7.0859e-06	1479.6	402.69	7.1224e-06	7.1173e-06	457.53	151.98	131.53	45.254	7.1395e-06	55.776	157.359	-61.344	-29.662	-115.299	-37.544	4.175	-115.649	-111.042	1.393	95.847	-111.280	-107.343	-106.963	-101.858	-23.630	-102.383	-8191	255	
723.543	1	1	0	0	0.0313	0.086863	0.13428	0.10172	0.22274	0.14549	0.099196	0.23424	0.21966	0.1695	0.22031	0.068751	0.18659	0.18956	0.095747	0.20935	-4.025	-4.1792	-4.8	-4.3708	-4.4521	-4.6229	-4.175	-4.7688	-4.4917	-4.175	-4.8917	-4.3458	-4.4604	-4.8438	-3.9958	-4.7667	172.691	20.059	-61.451	171.450	140.897	26.025	-111.789	147.952	186.755	3.206	228.674	229.108	223.997	-28.858	201.240	97.206	0.00045596	0.00054959	0.00015454	1462.6	3.0307e-06	4.1262e-06	1459.1	394.53	1.8405e-06	6.2318e-06	448.55	148.03	128.32	43.886	4.6577e-06	53.919	0.00064139	0.0006561	0.0001805	1478.5	7.0925e-06	7.1019e-06	1480.8	402.1	7.0506e-06	7.1323e-06	457.37	151.77	131.58	45.153	7.1748e-06	55.726	166.325	-26.360	-32.345	-115.242	56.376	60.465	-115.588	-110.797	19.318	21.894	-111.231	-107.399	-106.889	-101.978	-47.354	-102.252	-8191	255	
723.639	1	1	0	0	0.16108	0.09708	0.14728	0.073951	0.092485	0.038696	0.17013	0.30272	0.097387	0.10782	0.1029	0.38993	0.21048	0.24842	0.090934	0.27277	-3.9813	-4.1562	-4.6667	-4.5292	-4.1958	-4.8021	-4.3396	-4.6417	-4.4875	-4.1562	-4.7063	-4.3688	-4.4458	-4.6667	-4.0125	-4.6521	34.642	-100.539	1.832	-49.274	-93.282	142.726	168.448	180.602	215.003	-61.493	145.722	207.078	-111.508	201.212	-32.704	181.527	0.00050145	0.00024987	0.00012603	1457.1	4.966e-06	2.0169e-06	1455.8	395.03	3.1055e-06	7.9843e-06	447.99	148.21	128.02	43.997	4.5071e-06	54.055	0.0006395	0.00065602	0.00018072	1476.2	7.1344e-06	7.0565e-06	1478.8	402.52	7.0636e-06	7.103e-06	457.41	151.84	131.47	45.207	7.1129e-06	55.683	168.413	-34.893	-7.214	-115.323	4.341	34.636	-115.550	-110.892	-61.662	21.083	-111.204	-107.544	-106.846	-101.692	52.562	-102.448	-8191	255	
723.760	1	1	0	0	0.057739	0.065985	0.073241	0.021672	0.11418	0.11821	0.22219	0.25112	0.11246	0.30944	0.10142	0.19417	0.21944	0.096321	0.0307	0.11861	-4.2625	-4.1146	-4.5062	-4.5	-4.2354	-4.7063	-4.4792	-4.6146	-4.5125	-4.075	-4.7729	-4.4521	-4.5125	-4.9437	-4.1354	-4.4521	-21.776	5.994	-122.465	-65.663	-73.039	61.631	180.777	181.679	27.676	-90.154	-9.275	204.281	166.280	135.997	-61.358	205.040	0.00047069	0.00070528	2.2486e-05	1461.8	3.5799e-06	5.6589e-06	1456.9	395.62	6.9521e-06	2.0862e-06	448.69	147.94	128.16	44.069	1.7692e-06	54.08	0.00063663	0.00064877	0.00018085	1478.1	7.1268e-06	7.0144e-06	1479.8	402.55	6.9983e-06	7.0895e-06	457.35	151.99	131.36	45.2	7.0825e-06	55.769	164.193	-23.404	-122.353	-115.368	22.111	72.765	-115.638	-110.877	-18.476	15.156	-110.894	-107.579	-107.035	-101.832	219.903	-102.642	-8191	255	
723.856	1	1	0	0	0.24441	0.34482	0.19197	0.26386	0.12571	0.14626	0.23126	0.31785	0.29449	0.21671	0.27512	0.18135	0.25704	0.16446	0.047481	0.1353	-4.225	-4.0479	-4.5083	-4.5833	-4.175	-4.7937	-4.3938	-4.4708	-4.6438	-4.1604	-4.7333	-4.6229	-4.2438	-4.7583	-4.25	-4.4083	52.666	140.855	210.756	175.643	-78.264	-23.111	179.849	213.611	-56.952	191.793	213.156	86.032	198.031	221.099	-37.342	211.428	0.00050676	0.00065182	0.00014735	1459.6	5.2797e-06	5.9258e-06	1459.7	395.68	1.6801e-06	6.6251e-06	449.18	148.12	128.23	44.021	7.9121e-06	53.885	0.00063119	0.00064993	0.00018004	1478.9	7.1664e-06	7.0495e-06	1479.9	402.75	7.0052e-06	7.072e-06	457.32	151.95	131.48	45.203	7.0902e-06	55.646	168.932	-55.055	52.855	-115.239	-17.872	20.030	-115.649	-110.960	-47.352	58.877	-111.270	-107.551	-106.976	-101.820	15.690	-102.176	-8191	255	
723.927	1	1	0	0	0.12089	0.11826	0.34124	0.32707	0.12697	0.080682	0.04747	0.30935	0.023897	0.16047	0.19733	0.2517	0.064738	0.17243	0.10491	0.066974	-4.4083	-4.1042	-4.4	-4.6771	-4.1771	-4.7312	-4.6271	-4.4646	-4.6646	-4.1708	-4.4083	-4.6062	-4.2	-4.7375	-4.3958	-4.4167	119.704	110.695	52.615	180.592	47.950	52.852	8.261	212.822	-105.678	199.390	-121.073	211.935	-29.513	208.918	52.292	206.809	0.00041543	0.00048986	0.0001177	1461	1.0671e-05	6.5842e-06	1453.1	395.91	5.7226e-06	2.9195e-06	449.84	148.41	128.17	43.906	2.9895e-06	54.107	0.00064264	0.00065573	0.00018074	1477.4	7.1101e-06	7.1399e-06	1478.7	402.93	7.0421e-06	7.0777e-06	457.01	151.86	131.54	45.159	7.044e-06	55.763	168.271	-63.799	-46.197	-115.293	7.400	6.246	-115.750	-111.047	-20.065	92.307	-111.297	-107.597	-106.861	-101.780	-36.800	-102.509	-8191	255	
724.048	1	1	0	0	0.13206	0.18344	0.25001	0.31134	0.0055965	0.10699	0.29081	0.092191	0.024636	0.2218	0.13486	0.23241	0.049491	0.13519	0.16841	0.17657	-4.4208	-4.0667	-4.6562	-4.7479	-4.0854	-4.6958	-4.6479	-4.2708	-4.6146	-4.2063	-4.4958	-4.7708	-4.3333	-4.6771	-4.425	-4.3708	192.758	94.422	-115.041	158.479	-77.416	163.083	219.467	201.757	4.464	123.275	170.967	211.148	-125.479	149.705	188.660	206.673	0.00039673	0.00063795	0.00018412	1459.1	4.4194e-06	4.0985e-06	1452.3	395.6	3.5133e-06	2.158e-06	449.51	148.14	128.37	44.01	6.4135e-06	54.171	0.00063514	0.00064444	0.00017791	1475.8	7.0911e-06	7.0643e-06	1478	402.4	7.1007e-06	7.0215e-06	457.74	151.88	131.47	45.199	7.0299e-06	55.694	157.599	-70.133	-25.201	-115.140	-53.938	49.644	-115.646	-110.886	-21.505	22.879	-110.993	-107.515	-106.766	-101.960	-29.518	-102.453	-8191	255	
724.144	1	1	0	0	0.011019	0.10305	0.095449	0.11687	0.25656	0.15914	0.24945	0.13153	0.13497	0.11477	0.14526	0.19625	0.13886	0.072993	0.1508	0.10083	-4.4583	-4.1604	-4.3625	-4.8458	-4.2333	-4.5354	-4.5875	-4.1896	-4.7208	-4.3458	-4.4646	-4.9042	-4.3125	-4.5813	-4.5771	-4.0646	205.997	-52.656	135.305	-30.573	138.998	156.124	164.312	-112.787	185.237	-6.553	-119.610	-125.862	-34.298	-101.878	75.818	228.802	0.00042246	0.00060886	0.0001068	1465.6	2.536e-06	3.4591e-06	1456.4	395.48	4.3396e-06	4.7515e-06	450.3	148.09	128.2	43.97	2.3019e-06	54.217	0.00063479	0.00064596	0.0001798	1478.9	7.0774e-06	7.0231e-06	1477.5	402.69	7.0213e-06	6.9618e-06	457.5	151.97	131.47	45.239	6.9945e-06	55.853	167.898	-63.609	0.570	-115.286	-15.265	47.464	-115.577	-110.957	-33.214	60.655	-111.243	-107.438	-106.858	-101.720	-59.446	-102.403	-8191	255	
724.240	1	1	0	0	0.32992	0.1551	0.23595	0.26714	0.22766	0.12626	0.25665	0.29209	0.24807	0.013887	0.18913	0.2592	0.14183	0.16183	0.21227	0.15605	-4.2208	-4.3896	-4.1604	-4.9375	-4.075	-4.3604	-4.6937	-4.1896	-4.5792	-4.3833	-4.2896	-4.9646	-4.3333	-4.575	-4.6	-4.2083	91.371	-104.490	218.831	212.675	81.897	-85.742	163.540	160.539	-124.074	-27.851	229.090	-2.016	-119.663	228.906	104.440	137.968	0.00044839	0.0004107	0.00030576	1460	2.5822e-06	6.4533e-06	1454.8	396.54	4.0552e-06	8.7208e-06	448.96	148.55	128.64	44.122	1.5538e-06	54.042	0.00062854	0.00064767	0.00017928	1477	7.1177e-06	7.039e-06	1478.4	402.63	7.0367e-06	7.0611e-06	457.23	152.03	131.62	45.234	7.0157e-06	55.741	166.442	-21.467	-16.707	-115.238	39.782	-9.089	-115.519	-110.975	-52.044	37.869	-111.252	-107.677	-106.897	-102.002	-3.220	-102.470	-8191	255	
724.335	1	1	0	0	0.2378	0.12163	0.081378	0.077496	0.26952	0.21844	0.16062	0.2042	0.17007	0.14012	0.18383	0.24115	0.13433	0.15277	0.16783	0.118	-4.4104	-4.4125	-4.1937	-4.8729	-4.2625	-4.5542	-4.8688	-4.3729	-4.65	-4.4417	-4.2063	-4.7167	-4.2646	-4.4125	-4.7604	-4.3063	137.647	134.128	42.946	-69.237	45.396	91.132	138.671	225.879	216.786	-68.204	35.500	-116.890	200.212	-116.066	9.814	130.390	0.00038109	0.00046872	0.00011004	1459.8	5.3411e-06	4.3706e-06	1463.5	395.88	4.7134e-06	4.6446e-06	449.09	148.17	128.45	43.964	1.7438e-06	53.842	0.00063949	0.00064313	0.00017992	1477.6	7.0225e-06	7.0402e-06	1480.8	403.06	7.0717e-06	6.9909e-06	457.55	151.9	131.47	45.107	7.1336e-06	55.669	160.529	-77.385	-2.469	-115.213	0.478	16.675	-115.664	-110.860	-44.201	6.692	-111.404	-107.506	-107.042	-101.762	-60.608	-102.484	-8191	255	
724.455	1	1	0	0	0.16381	0.11995	0.14375	0.2897	0.10034	0.1073	0.18063	0.31984	0.01141	0.19676	0.098266	0.041983	0.17005	0.12454	0.14051	0.027121	-4.2875	-4.4917	-4.2292	-4.9542	-4.4146	-4.4292	-4.875	-4.2583	-4.5292	-4.6729	-4.275	-4.8271	-4.325	-4.45	-4.7188	-4.2625	116.542	146.964	147.900	221.657	163.645	97.828	220.951	196.491	159.884	156.241	146.700	-63.702	-38.634	-99.150	-97.733	13.895	0.00045154	0.00069676	0.00017246	1464.2	2.4403e-06	4.1852e-06	1456.1	395.48	1.9528e-06	7.7968e-06	448.95	147.76	127.6	43.948	2.6461e-06	53.887	0.00063788	0.0006534	0.00018195	1478.5	7.1487e-06	7.1499e-06	1478.4	402.24	7.115e-06	7.1396e-06	456.94	151.71	131.26	45.162	7.095e-06	55.676	153.359	-21.568	-1.898	-115.294	-37.509	15.345	-115.423	-111.020	-47.944	37.402	-111.032	-107.328	-106.909	-101.940	-17.856	-102.439	-8191	255	
724.527	1	1	0	0	0.1733	0.16276	0.097993	0.30001	0.18427	0.11219	0.24381	0.16082	0.11148	0.27637	0.089775	0.12302	0.0088995	0.10981	0.089061	0.17976	-4.1708	-4.7208	-3.9437	-4.9625	-4.3792	-4.2896	-4.875	-4.275	-4.6479	-4.5125	-4.425	-4.7479	-4.5979	-4.3187	-4.6917	-4.3479	-115.676	115.537	-117.132	180.762	146.278	200.545	172.016	156.092	200.327	93.787	-94.486	225.231	-28.873	139.272	106.788	134.369	0.00040712	0.0001792	0.00020004	1465.4	3.875e-06	4.828e-06	1456.1	395.41	3.3668e-06	5.975e-06	447.76	148.53	128.06	44.091	2.7073e-06	53.959	0.00064462	0.00065914	0.00018438	1479.9	7.0651e-06	7.1663e-06	1478.4	402.13	7.1101e-06	7.0848e-06	456.99	151.78	131.44	45.2	7.0275e-06	55.66	163.495	20.259	0.035	-115.337	17.758	117.368	-115.564	-111.043	-10.988	-5.272	-111.305	-107.465	-106.898	-101.753	44.601	-102.647	-8191	255	
724.623	1	1	0	0	0.12652	0.14489	0.15165	0.27507	0.11895	0.10602	0.21111	0.1234	0.074692	0.29937	0.25811	0.1171	0.061912	0.10841	0.31687	0.18066	-4.0354	-4.4521	-4.0896	-4.7646	-4.5062	-4.2	-4.8896	-4.4646	-4.4812	-4.7208	-4.3375	-4.6917	-4.575	-4.2438	-4.6646	-4.3396	156.399	179.375	170.511	-111.692	136.001	6.747	162.515	118.106	164.202	95.269	168.905	-32.941	189.296	-77.841	-24.377	185.315	0.00041374	0.00046108	0.00016588	1461.1	3.2565e-06	2.3476e-06	1451.2	395.4	7.4964e-07	4.9994e-06	446.99	148.55	128.14	43.979	5.893e-06	53.941	0.00064093	0.00063623	0.00018124	1477.7	7.1321e-06	7.1542e-06	1475.9	402.01	7.0895e-06	7.1146e-06	456.15	151.79	131.2	45.157	7.1092e-06	55.61	164.850	-41.106	-56.104	-115.248	-0.874	57.148	-115.594	-110.816	180.579	7.385	-111.111	-107.539	-107.100	-101.768	-5.533	-102.530	-8191	255	
724.719	1	1	0	0	0.13169	0.18459	0.037114	0.24141	0.13558	0.20906	0.23251	0.13605	0.06156	0.019991	0.19861	0.31613	0.078349	0.065349	0.16276	0.13848	-3.9562	-4.6458	-4.0292	-4.8167	-4.3646	-4.125	-4.8708	-4.5979	-4.4104	-4.7146	-4.2875	-4.6333	-4.7	-4.2063	-4.6062	-4.4375	37.249	168.065	71.907	126.141	82.191	-111.444	204.878	-100.953	203.941	73.734	-123.211	202.679	134.759	141.510	-2.810	-118.100	0.00041078	0.00061328	0.00021209	1458.7	9.1266e-06	8.2072e-06	1452.4	394.43	5.3953e-06	2.4934e-06	446.45	147.94	128.22	43.985	5.0937e-06	53.782	0.00064509	0.00064473	0.00018354	1475.9	7.092e-06	7.1432e-06	1475.4	401.82	7.11e-06	7.0925e-06	456.17	151.8	131.16	45.123	7.0955e-06	55.626	162.012	-37.512	4.583	-115.221	-28.188	36.942	-115.534	-110.821	-84.834	-23.669	-111.244	-107.369	-106.923	-101.904	-32.204	-102.332	-8191	255	
724.840	1	1	0	0	0.18915	0.10361	0.24059	0.28936	0.090848	0.094474	0.1257	0.084034	0.15019	0.12474	0.1615	0.038066	0.25742	0.054606	0.16633	0.1545	-3.9813	-4.75	-4.1104	-4.6583	-4.5792	-4.1083	-4.9333	-4.4125	-4.1208	-4.6917	-4.5042	-4.6146	-4.625	-4.0687	-4.6167	-4.5833	-86.542	-90.572	18.294	198.566	185.426	151.435	175.850	171.411	230.627	-113.472	150.890	-24.853	168.359	-21.645	139.029	-107.208	0.00043542	0.00050402	0.00010327	1464	5.3281e-06	3.2366e-06	1453.8	394.45	2.4073e-06	5.2425e-06	449.24	148.53	127.59	43.886	6.216e-06	54.055	0.00063878	0.00064524	0.00018098	1476.1	7.104e-06	7.1501e-06	1476.9	401.9	7.1758e-06	7.1439e-06	456.84	151.91	131.01	45.109	7.0683e-06	55.663	165.529	22.664	-57.292	-115.274	15.702	96.563	-115.705	-110.980	-11.232	31.666	-111.103	-107.334	-106.942	-101.749	-16.901	-102.348	-8191	255	
724.936	1	1	0	0	0.031714	0.12854	0.086395	0.11514	0.1087	0.096295	0.12673	0.10061	0.091734	0.27701	0.21985	0.17861	0.17718	0.073598	0.092488	0.17084	-3.6125	-4.6583	-4.1	-4.5083	-4.6896	-4.2979	-4.7417	-4.5729	-4.0687	-4.7063	-4.3187	-4.3854	-4.7646	-4.2042	-4.5167	-4.625	135.543	230.078	50.067	41.184	-49.510	-102.038	204.213	190.889	11.975	-108.970	174.037	207.952	-98.326	115.989	119.133	-66.532	0.00044396	0.00084152	0.00010038	1457.8	2.8857e-06	1.5716e-06	1450.7	394.09	9.5766e-07	1.7684e-06	449.28	148.55	127.91	44.25	3.651e-06	53.837	0.00064375	0.00064657	0.00018149	1475.6	7.0571e-06	7.1568e-06	1475.4	401.6	7.0941e-06	7.011e-06	456.76	151.74	131.15	45.224	6.9879e-06	55.596	162.527	-37.013	-12.238	-115.330	-22.957	79.121	-115.505	-110.892	-105.583	-16.092	-111.258	-107.479	-106.745	-101.976	-65.288	-102.695	-8191	255	
725.032	1	1	0	0	0.1076	0.025822	0.22104	0.11497	0.096915	0.15569	0.14187	0.091979	0.2057	0.090825	0.28378	0.2589	0.1371	0.099331	0.19885	0.11001	-3.8937	-4.625	-4.2042	-4.4167	-4.6604	-4.1146	-4.7458	-4.625	-4.1312	-4.6479	-4.4167	-4.2562	-4.85	-4.3	-4.4979	-4.5396	-82.160	26.857	73.677	115.547	-121.765	-98.830	147.922	142.449	-66.921	-13.442	207.681	189.361	193.065	175.269	95.160	-98.290	0.00045376	0.00058676	0.00011563	1462.5	6.6002e-06	2.543e-06	1455.6	394.3	1.885e-06	1.0421e-06	447.19	147.98	127.79	43.95	1.8521e-06	54.155	0.00063749	0.00063892	0.00017917	1478.2	7.0554e-06	7.0569e-06	1478.1	402.19	7.0551e-06	6.9788e-06	456.76	151.94	131.18	45.191	6.9709e-06	55.817	161.072	-29.484	-52.967	-115.275	-7.029	64.063	-115.461	-110.914	-125.722	-54.910	-111.329	-107.465	-107.091	-101.785	-26.342	-102.370	-8191	255	
725.128	1	1	0	0	0.1413	0.1511	0.21298	0.34578	0.30639	0.035711	0.20746	0.13533	0.13878	0.060113	0.097845	0.11127	0.14233	0.19161	0.031494	0.24156	-3.6875	-4.5104	-4.4875	-4.2958	-4.6312	-4.2	-4.6854	-4.6813	-4.1417	-4.6875	-4.4396	-4.3979	-4.9229	-4.4104	-4.375	-4.7875	152.310	114.981	116.729	207.717	-0.849	202.029	170.832	197.060	-118.679	63.391	224.635	201.519	-77.582	-95.605	102.533	170.138	0.00043954	0.00093766	0.00013477	1461.7	7.9493e-07	5.9289e-06	1454.8	396.44	4.7496e-06	4.4802e-06	448.82	148.17	128.14	44.087	9.5034e-06	54.058	0.00063971	0.00064812	0.00018041	1477.8	6.9961e-06	7.1129e-06	1477.5	402.73	7.1247e-06	7.0617e-06	457.05	151.92	131.34	45.197	7.0738e-06	55.697	172.272	-27.576	-34.453	-115.165	-59.807	40.996	-115.619	-110.953	-29.538	-79.946	-111.146	-107.392	-106.988	-101.964	-33.893	-102.499	-8191	255	
725.225	1	1	0	0	0.1599	0.22756	0.033341	0.075784	0.26729	0.1595	0.28924	0.21356	0.035246	0.17006	0.23524	0.31281	0.13811	0.18562	0.17537	0.10443	-3.7188	-4.5875	-4.5979	-4.3271	-4.65	-4.2167	-4.4417	-4.8208	-4.1417	-4.5854	-4.7625	-4.1604	-4.7854	-4.5687	-4.4938	-4.8396	9.396	1.826	205.699	-94.270	42.992	82.244	187.130	117.474	4.095	93.556	198.210	202.498	-95.976	-121.013	-52.008	158.770	0.00044803	0.00067326	0.00012678	1460	3.6478e-06	3.9818e-07	1455.3	395.4	2.1258e-06	1.0453e-05	449.51	148.25	128.12	43.87	5.6536e-06	53.736	0.00063842	0.00064297	0.00017965	1476.8	7.0866e-06	7.0798e-06	1477.8	402.47	7.0801e-06	7.1302e-06	456.83	151.64	131.42	45.117	7.0629e-06	55.549	158.567	-48.435	-108.462	-115.122	9.489	-26.218	-115.471	-111.068	-88.153	63.721	-111.335	-107.542	-106.939	-101.738	-25.762	-102.533	-8191	255	
725.321	1	1	0	0	0.074881	0.2161	0.042217	0.21506	0.23612	0.18701	0.18434	0.23456	0.26434	0.15883	0.16994	0.079173	0.22032	0.19382	0.11644	0.13858	-3.8563	-4.5521	-4.3625	-4.4583	-4.6062	-4.3938	-4.4625	-4.7646	-4.3854	-4.4875	-4.8646	-4.1729	-4.7729	-4.5396	-4.1521	-4.8604	79.165	171.896	5.275	146.464	-102.157	-58.357	174.176	188.467	63.491	122.212	185.144	178.076	178.281	195.543	208.149	182.134	0.00040765	0.00041879	0.00012548	1460.2	3.6958e-06	4.3603e-06	1458.9	395.6	3.309e-06	5.0429e-06	449.97	147.79	127.89	43.984	3.2993e-06	54.007	0.00064645	0.0006486	0.00018395	1476.8	7.0464e-06	7.1685e-06	1477.7	402.5	7.1938e-06	7.1536e-06	457.41	151.65	131.27	45.186	7.1485e-06	55.686	161.489	-53.565	-21.848	-115.150	11.119	55.398	-115.530	-110.905	5.158	21.597	-111.089	-107.614	-106.831	-101.975	148.320	-102.332	-8191	255	
725.440	1	1	0	0	0.10439	0.22385	0.32923	0.12202	0.30803	0.10813	0.093448	0.1849	0.061001	0.24006	0.20955	0.16658	0.18645	0.22797	0.1564	0.13134	-3.8917	-4.3562	-4.3896	-4.3417	-4.5875	-4.5062	-4.4292	-4.9437	-4.4042	-4.3833	-4.8396	-4.1354	-4.6083	-4.5271	-4.2854	-4.7729	-4.839	-118.753	188.731	-92.902	-102.872	167.031	-126.304	224.230	-36.495	-27.931	181.784	-76.596	205.763	-126.447	41.361	156.375	0.00042356	0.00023971	0.00012638	1460.5	4.9512e-06	3.8487e-06	1457.1	395.01	7.8917e-07	7.2947e-06	448.32	147.67	128.1	44.073	5.1359e-06	54.067	0.00064572	0.0006536	0.00018019	1477.4	7.1342e-06	7.0543e-06	1478.5	402.05	7.0649e-06	7.0769e-06	456.91	151.69	131.38	45.211	7.0872e-06	55.679	165.258	-16.383	-21.221	-115.142	-47.411	66.961	-115.489	-111.072	-11.303	20.633	-111.270	-107.578	-106.760	-101.744	31.689	-102.384	-8191	255	
725.536	1	1	0	0	0.068725	0.15469	0.17062	0.35037	0.095213	0.22633	0.1456	0.12104	0.27302	0.043241	0.1573	0.1667	0.12286	0.15514	0.21532	0.023722	-3.9396	-4.3562	-4.6312	-4.3375	-4.5792	-4.4604	-4.2667	-5.0104	-4.3479	-4.4187	-4.9146	-4.2542	-4.7188	-4.6062	-4.1667	-4.9271	103.956	70.959	163.967	183.214	218.240	75.162	136.586	175.844	66.897	-25.384	182.873	-42.839	28.071	147.532	161.198	134.759	0.00046372	0.00042289	9.6269e-05	1461.9	4.2439e-06	9.0675e-06	1450.5	395.98	3.4607e-06	6.2924e-06	448.33	148.47	127.49	43.969	7.4808e-06	54.093	0.00064339	0.00064804	0.00018109	1475.8	7.1096e-06	7.0639e-06	1476.4	402.41	7.119e-06	7.0907e-06	456.97	151.8	131.22	45.14	7.0787e-06	55.748	161.924	-32.427	-68.644	-115.374	-84.977	23.865	-115.661	-110.756	-18.499	51.118	-111.183	-107.541	-107.001	-101.909	22.284	-102.445	-8191	255	
725.632	1	1	0	0	0.17072	0.29746	0.23682	0.18861	0.14495	0.11226	0.31305	0.068279	0.051596	0.056893	0.16646	0.24474	0.23612	0.13784	0.17701	0.25357	-3.8583	-4.3208	-4.7792	-4.3688	-4.3187	-4.5854	-4.2562	-4.6958	-4.2833	-4.2625	-5.0312	-4.2625	-4.6167	-4.6333	-4.0521	-4.6687	195.393	-57.541	114.142	200.034	208.461	219.043	177.628	44.266	33.583	77.889	208.504	219.252	124.673	187.262	-74.761	200.401	0.00037776	0.0004785	0.00015113	1458.2	6.8153e-06	8.5449e-07	1454.7	395.01	6.8874e-07	3.6686e-06	448.44	147.78	128.17	43.905	4.1155e-06	53.983	0.00063448	0.00064774	0.00018062	1475.3	7.0287e-06	7.0762e-06	1478.1	402.43	7.0578e-06	7.1808e-06	456.92	151.54	131.34	45.107	7.1191e-06	55.711	155.937	-31.619	-0.280	-115.361	-25.082	64.876	-115.539	-111.000	9.709	-9.825	-111.277	-107.771	-107.070	-101.786	-45.938	-102.401	-8191	255	
725.728	1	1	0	0	0.10685	0.1464	0.15371	0.26823	0.21954	0.065242	0.29971	0.33038	0.092186	0.30538	0.20213	0.25708	0.13104	0.39034	0.10853	0.049896	-4.0583	-4.2458	-4.6813	-4.3688	-4.5854	-4.6625	-4.3875	-4.8458	-4.4604	-4.3104	-4.8521	-4.3958	-4.5396	-4.8146	-4.1083	-4.7688	152.085	19.284	-37.551	209.357	-3.547	95.013	183.764	182.512	-41.789	215.976	119.887	193.819	-40.428	180.640	-41.641	131.584	0.00042881	0.0011023	0.00023813	1454.6	2.6726e-06	4.29e-06	1452	396.93	2.4195e-06	7.4751e-06	449.04	148.03	127.76	44.021	4.213e-06	54.021	0.00063377	0.00065016	0.00017922	1475.6	6.9946e-06	7.0321e-06	1476	402.53	7.1112e-06	7.1816e-06	457.83	151.66	131.24	45.151	7.1451e-06	55.621	163.133	-42.893	-14.245	-115.293	67.916	41.284	-115.651	-111.005	-29.674	-7.600	-111.334	-107.433	-106.785	-101.812	-7.177	-102.442	-8191	255	
725.824	1	1	0	0	0.14093	0.11211	0.092887	0.18432	0.089249	0.20083	0.13172	0.33537	0.18036	0.26288	0.21649	0.47906	0.11098	0.23258	0.052637	0.1218	-4.3688	-4.1	-4.7812	-4.3479	-4.25	-4.675	-4.3646	-4.6583	-4.4854	-4.1375	-4.8583	-4.4812	-4.4604	-4.7521	-4.2021	-4.5104	-116.699	75.455	52.506	145.934	73.362	37.035	168.532	171.578	-120.220	188.270	136.253	203.757	73.706	75.902	155.361	217.375	0.00035629	0.00039311	0.00024332	1459.1	2.961e-06	4.1385e-06	1452.2	395.52	5.8213e-06	1.3777e-06	449.68	148.26	127.96	44.014	1.087e-06	54.13	0.00063555	0.00065481	0.00018155	1476.8	7.0913e-06	7.1284e-06	1475	402.46	7.0547e-06	7.0971e-06	456.98	151.69	131.31	45.154	7.0773e-06	55.759	158.724	-3.170	-32.177	-115.083	-7.525	54.458	-115.521	-110.892	-16.827	-14.556	-111.160	-107.561	-106.833	-101.824	-16.536	-102.269	-8191	255	
725.920	1	1	0	0	0.13042	0.087836	0.040148	0.17656	0.18005	0.17094	0.16375	0.11283	0.13663	0.28462	0.1642	0.12929	0.21501	0.069737	0.21041	0.16422	-4.1583	-4.1	-4.6208	-4.6083	-4.2	-4.8271	-4.3292	-4.7188	-4.5875	-4.1458	-4.625	-4.5792	-4.4083	-4.925	-4.4292	-4.4792	1.897	-70.889	111.993	136.070	195.666	95.516	168.385	136.191	-98.904	-97.719	135.311	-1.238	-1.166	-16.956	-50.880	157.327	0.00051229	0.00041413	0.00013042	1459.4	3.6033e-06	2.6258e-06	1451.7	395.22	2.3227e-06	5.1412e-06	447.53	148.01	128.35	44.125	3.3756e-06	53.918	0.00063481	0.00065352	0.00018081	1475.8	7.1184e-06	7.1303e-06	1476.9	402.41	7.0441e-06	7.0985e-06	457.12	151.65	131.34	45.253	7.0504e-06	55.753	156.321	-62.880	25.869	-115.222	-0.416	58.598	-115.455	-110.867	-52.264	25.454	-111.266	-107.610	-106.929	-101.763	3.497	-102.255	-8191	255	
726.016	1	1	0	0	0.088816	0.048491	0.092384	0.081023	0.084079	0.13331	0.24829	0.27724	0.11126	0.095638	0.046167	0.18083	0.17274	0.10776	0.12541	0.14033	-4.2812	-4.0417	-4.5917	-4.6813	-4.1375	-4.65	-4.6167	-4.5958	-4.6854	-4.0583	-4.7271	-4.6271	-4.3604	-4.6208	-4.3521	-4.3854	-84.688	81.651	65.424	173.555	-117.977	-9.504	187.245	162.215	34.896	-61.706	-34.504	153.665	-90.030	146.553	148.477	228.840	0.00036193	0.00066364	0.0001666	1462.2	3.1186e-06	2.1559e-06	1459.8	396.17	4.4902e-06	8.5051e-06	448.88	148.55	128.2	44.142	4.2944e-06	54.28	0.00063123	0.00064582	0.00017902	1477.7	6.9882e-06	7.0023e-06	1479.7	402.89	6.977e-06	6.9432e-06	457.33	152.15	131.6	45.29	6.9173e-06	55.845	162.066	-15.659	-34.104	-115.277	2.265	-34.441	-115.420	-110.871	-54.123	22.791	-111.162	-107.671	-106.786	-101.738	23.662	-102.547	-8191	255	
726.137	1	1	0	0	0.24046	0.27025	0.15431	0.22799	0.038665	0.12539	0.040902	0.28881	0.21892	0.15773	0.14431	0.30003	0.10053	0.31741	0.14698	0.092369	-4.4458	-4.1771	-4.4396	-4.7667	-4.0896	-4.7271	-4.6479	-4.3375	-4.7667	-4.2521	-4.6	-4.8063	-4.175	-4.8417	-4.4875	-4.3688	-10.946	10.609	65.341	199.319	182.771	115.529	104.049	216.447	46.541	-23.551	-121.973	204.913	169.678	-93.203	215.929	143.933	0.00040559	0.00062773	0.00026307	1463.8	3.0143e-06	5.4093e-06	1460	395.75	3.0031e-06	4.5183e-06	449.32	148.62	129.04	44.223	1.9916e-06	54.341	0.00062286	0.00063819	0.00017727	1477.8	6.9314e-06	6.8916e-06	1478.3	402.73	6.8924e-06	6.907e-06	457.32	152.15	131.84	45.349	6.8153e-06	55.961	156.454	-28.820	-50.435	-115.202	-1.651	5.526	-115.514	-111.045	-53.287	51.962	-111.398	-107.467	-107.070	-102.028	27.750	-102.508	-8191	255	
726.231	1	1	0	0	0.23051	0.18964	0.18341	0.12956	0.075404	0.24071	0.40131	0.18417	0.16104	0.015997	0.16113	0.20895	0.31467	0.077752	0.1675	0.30865	-4.4292	-4.2937	-4.3979	-4.8667	-4.1125	-4.6729	-4.6604	-4.3875	-4.5771	-4.1583	-4.7562	-4.6958	-4.125	-4.5667	-4.4938	-4.3875	167.333	176.481	148.357	150.752	-60.294	125.026	204.250	215.298	77.022	-113.637	-115.750	199.186	169.047	199.382	225.653	98.045	0.00040653	0.0010091	8.6909e-05	1466.2	6.2554e-06	4.5397e-06	1457.3	396.14	5.1614e-06	2.7458e-06	449.53	148.76	128.54	44.273	3.145e-06	54.588	0.00062616	0.00063458	0.00017596	1480.7	6.9236e-06	6.9358e-06	1480.3	403.15	6.8087e-06	6.846e-06	457.49	152.51	131.92	45.443	6.7911e-06	56.042	173.777	-34.474	-65.063	-115.090	-15.366	81.462	-115.454	-111.027	-23.752	-38.267	-111.336	-107.451	-106.978	-101.927	30.871	-102.434	-8191	255	
726.328	1	1	0	0	0.17089	0.22681	0.15702	0.39752	0.19965	0.060613	0.14155	0.18523	0.044431	0.34128	0.10808	0.2177	0.13462	0.053846	0.08596	0.061149	-4.3063	-4.225	-4.3458	-4.9667	-4.0417	-4.5708	-4.7125	-4.3875	-4.6604	-4.2146	-4.4667	-4.8021	-4.3271	-4.6562	-4.5854	-4.3521	-91.777	177.171	118.434	226.748	147.649	15.147	173.326	158.151	180.967	57.761	168.080	166.899	155.320	69.451	63.928	173.705	0.0003913	0.00057568	0.00017595	1464.1	3.6378e-06	9.5551e-06	1459	396.38	5.0977e-06	1.8138e-06	449.23	148.54	128.41	44.135	5.2871e-06	54.238	0.0006128	0.00062454	0.00017378	1478.6	6.8545e-06	6.7599e-06	1479.1	402.67	6.8274e-06	6.8517e-06	457.92	152.08	131.61	45.332	6.8932e-06	55.909	166.531	18.883	-77.304	-115.365	29.782	37.911	-115.526	-110.981	11.977	153.820	-111.072	-107.690	-106.732	-101.901	-28.807	-102.371	-8191	255	
726.401	1	1	0	0	0.073503	0.073204	0.11383	0.061208	0.043787	0.056923	0.22707	0.17255	0.19511	0.10887	0.070301	0.27228	0.28253	0.16428	0.16228	0.15687	-4.2125	-4.3542	-4.3292	-5.0312	-4.1833	-4.5771	-4.8438	-4.3271	-4.7125	-4.6458	-4.3208	-4.8438	-4.2917	-4.4583	-4.5542	-4.275	210.587	147.152	-92.315	152.088	100.994	136.188	148.283	222.575	-86.766	52.640	-119.195	154.884	205.305	149.030	211.453	64.128	0.00041799	0.00063725	0.00010438	1466.9	3.5637e-06	4.2856e-06	1456.5	395.98	6.5757e-06	3.3763e-06	450.71	148.28	128.82	44.046	9.5895e-06	54.07	0.00062245	0.00063867	0.000176	1479.8	6.9013e-06	6.9003e-06	1478.5	402.19	6.9507e-06	6.9037e-06	457.5	152.03	131.72	45.204	7.0683e-06	55.651	161.040	-27.104	25.142	-115.254	1.242	23.099	-115.607	-110.925	-75.931	6.179	-110.934	-107.527	-106.994	-102.181	13.542	-102.553	-8191	255	
726.520	1	1	0	0	0.046747	0.13394	0.10364	0.17128	0.12997	0.40376	0.12231	0.29374	0.094393	0.17253	0.20428	0.25915	0.068629	0.1322	0.078975	0.25606	-4.2188	-4.5104	-4.0854	-4.7917	-4.125	-4.3604	-4.9125	-4.2958	-4.5729	-4.5687	-4.2021	-4.8313	-4.4208	-4.5833	-4.7979	-4.2312	-63.411	103.903	104.197	221.642	165.851	-55.556	135.928	169.081	90.784	14.805	-58.011	188.763	118.935	-39.817	-109.044	118.658	0.00045796	0.00020033	0.00027404	1462.2	5.2966e-06	7.921e-06	1458.9	396.61	4.3841e-06	7.6689e-06	449.15	148.13	128.05	44.035	5.2517e-06	54.176	0.00064155	0.00065081	0.00018342	1481.1	7.2002e-06	7.1541e-06	1481.4	403.14	7.1231e-06	7.1912e-06	457.39	151.85	131.48	45.172	7.1093e-06	55.74	159.692	17.464	-60.764	-115.323	-24.534	33.186	-115.503	-110.930	-36.352	-12.520	-111.317	-107.567	-106.768	-101.888	-17.556	-102.364	-8191	255	
726.616	1	1	0	0	0.078217	0.022441	0.16962	0.26179	0.14018	0.21335	0.17611	0.2555	0.20063	0.18612	0.24512	0.14893	0.14193	0.15199	0.082343	0.25791	-4.2188	-4.4646	-4.1687	-4.8521	-4.1521	-4.4521	-4.7958	-4.1562	-4.5917	-4.5333	-4.2771	-4.8313	-4.5167	-4.2021	-4.7063	-4.2188	60.999	100.777	160.444	193.374	-0.345	16.778	179.785	104.312	-116.553	155.830	196.023	-127.261	159.208	223.659	98.633	118.059	0.00042332	0.00055559	9.0905e-05	1462.9	3.2887e-06	3.1805e-06	1453.6	395.33	4.1843e-06	5.6961e-06	449.16	147.98	128.19	44.018	3.7318e-06	53.991	0.00063506	0.00064867	0.00018137	1478.5	7.0473e-06	7.0663e-06	1474.9	402.52	6.9482e-06	6.9605e-06	456.67	151.81	131.2	45.164	6.951e-06	55.695	170.709	-50.257	-43.222	-115.188	-55.833	58.246	-115.751	-110.993	-54.036	-13.342	-111.238	-107.598	-106.914	-101.763	-10.111	-102.482	-8191	255	
726.712	1	1	0	0	0.10473	0.032427	0.12938	0.18099	0.15492	0.39031	0.11129	0.22092	0.073424	0.07493	0.097106	0.23986	0.10209	0.056838	0.093135	0.13922	-3.9875	-4.5813	-4.0729	-4.7104	-4.3625	-4.1479	-4.9583	-4.2771	-4.3146	-4.5687	-4.3542	-4.6958	-4.5229	-4.2917	-4.7312	-4.1417	-104.052	78.108	-75.842	224.570	-78.460	-5.099	151.676	216.087	166.648	100.966	92.915	-94.726	106.977	-117.792	204.257	-107.815	0.00044686	0.00042766	0.00011605	1459.3	8.9773e-06	5.8798e-06	1452.9	395.5	1.9516e-06	5.8939e-06	448.71	148.7	128.47	44.074	7.1476e-06	54.206	0.00062933	0.00064403	0.00017868	1476.5	7.0643e-06	7.132e-06	1475.7	402.18	7.0851e-06	7.0733e-06	457.01	152.15	131.64	45.179	6.9785e-06	55.62	163.182	-100.053	-54.823	-115.201	-14.904	-11.920	-115.533	-110.801	-118.223	41.750	-111.149	-107.410	-106.865	-101.874	-1.085	-102.561	-8191	255	
726.808	1	1	0	0	0.11168	0.10696	0.20493	0.31748	0.13366	0.033554	0.25203	0.27124	0.082076	0.25996	0.01452	0.24671	0.1398	0.058811	0.074159	0.13748	-4.0312	-4.6583	-4.1542	-4.5687	-4.4521	-4.0708	-4.9146	-4.5479	-4.225	-4.6458	-4.4375	-4.6458	-4.675	-4.1958	-4.6562	-4.4792	60.125	151.339	25.079	-111.176	-124.333	-60.014	115.854	170.075	119.183	129.033	229.461	-92.764	-115.606	78.618	42.430	110.145	0.00044682	0.00089964	0.00012051	1460.3	1.3907e-06	4.7915e-06	1453.4	393.86	3.1302e-06	4.0361e-06	449.08	148.25	128.1	44.031	2.9413e-06	54.171	0.00062887	0.00063848	0.00017957	1476.7	6.9995e-06	7.0116e-06	1476.9	401.85	7.0414e-06	7.0465e-06	457.02	151.96	131.44	45.221	6.9849e-06	55.659	163.795	-34.171	-3.070	-115.239	10.514	-1.512	-115.666	-110.995	-43.494	-13.861	-111.193	-107.683	-106.857	-101.891	-27.483	-102.546	-8191	255	
726.929	1	1	0	0	0.091885	0.2182	0.12711	0.24353	0.12798	0.066008	0.10328	0.10391	0.050208	0.10614	0.21468	0.28849	0.25863	0.42622	0.083474	0.32259	-3.9437	-4.825	-4.1438	-4.6729	-4.5375	-4.0083	-4.8792	-4.3646	-4.275	-4.6813	-4.3812	-4.6875	-4.5687	-4.2688	-4.5729	-4.4292	-88.126	153.565	216.315	169.300	106.922	223.782	210.410	178.774	39.161	-58.564	-120.156	155.407	230.683	187.726	36.584	21.336	0.00046953	0.00024406	0.00013942	1457.8	5.2507e-06	4.1723e-06	1457.7	396.55	1.1722e-06	2.21e-06	449.34	148.12	128.08	44.032	3.248e-06	54.118	0.00063851	0.00064675	0.00018045	1476.8	7.0248e-06	7.192e-06	1477.5	402.85	7.0892e-06	7.0427e-06	457.32	151.96	131.34	45.235	7.0215e-06	55.697	165.786	-56.611	-73.779	-115.150	-16.409	-30.155	-115.425	-110.934	-31.036	81.065	-111.196	-107.410	-106.872	-101.811	15.407	-102.579	-8191	255	
727.025	1	1	0	0	0.12182	0.10685	0.09996	0.13202	0.089338	0.05446	0.21571	0.34419	0.02804	0.05399	0.34197	0.2905	0.1193	0.13003	0.094918	0.24365	-3.7188	-4.7833	-4.1375	-4.6729	-4.5667	-4.1417	-4.7208	-4.6542	-4.0771	-4.725	-4.2312	-4.3646	-4.7625	-4.1625	-4.6208	-4.6854	74.816	-71.558	178.194	24.865	210.357	-86.866	171.579	131.615	80.265	103.086	206.925	209.117	216.418	-91.391	-50.754	-93.838	0.00049171	0.00044372	0.00023538	1461.4	4.0831e-06	4.6592e-06	1456.5	394.28	2.9608e-06	7.9428e-06	448.95	148.43	127.97	44.081	4.2906e-06	54.052	0.00063992	0.00065129	0.00018236	1477.5	7.1572e-06	7.1994e-06	1479.6	402.03	7.1501e-06	7.0908e-06	457.2	152.29	131.43	45.27	7.0202e-06	55.784	153.775	-6.752	25.966	-115.193	-45.613	51.682	-115.609	-110.840	-114.814	51.016	-111.269	-107.548	-107.081	-101.762	-81.398	-102.448	-8191	255	
727.121	1	1	0	0	0.16996	0.24243	0.17073	0.10259	0.24293	0.24125	0.2035	0.44846	0.062413	0.16535	0.21158	0.12185	0.31918	0.22845	0.13976	0.0051704	-3.9271	-4.6312	-4.1729	-4.4792	-4.7271	-4.1208	-4.7375	-4.6292	-4.1458	-4.7854	-4.3833	-4.5042	-4.8083	-4.2708	-4.5333	-4.6312	101.703	119.273	-102.678	-105.117	-90.116	9.053	144.120	164.165	119.510	142.472	129.264	146.817	187.340	220.427	170.838	-74.092	0.00044637	0.00080295	7.7254e-05	1465.1	5.8682e-06	5.7094e-06	1457.6	396.29	7.8974e-06	5.1672e-06	448.87	148.54	128.84	44.165	5.9122e-06	54.381	0.00063935	0.00064652	0.0001809	1480.8	6.9728e-06	7.0804e-06	1481	403.3	7.0546e-06	6.9575e-06	457.58	152.17	131.9	45.399	6.8678e-06	55.939	163.135	-41.354	33.844	-115.076	-13.987	40.044	-115.480	-110.985	-57.890	-6.704	-111.108	-107.554	-107.025	-101.897	9.692	-102.371	-8191	255	
727.217	1	1	0	0	0.10268	0.17536	0.23445	0.28215	0.21847	0.12662	0.21879	0.38044	0.065692	0.28208	0.10072	0.37589	0.20406	0.15109	0.12061	0.17482	-3.675	-4.6542	-4.3104	-4.5167	-4.7979	-4.1083	-4.7104	-4.5729	-4.1167	-4.6312	-4.4771	-4.125	-4.8229	-4.3375	-4.4292	-4.7708	155.724	104.852	62.717	214.961	65.415	201.056	212.247	192.650	226.097	69.589	163.008	-79.930	-111.944	141.494	-99.709	84.898	0.00045499	0.00029045	0.0001891	1461.3	3.9328e-06	1.6739e-06	1458.9	395.6	2.7021e-06	8.6874e-06	451.06	148.79	128.42	44.28	6.7922e-07	54.536	0.00063019	0.00063242	0.00017567	1480.5	6.9441e-06	6.9543e-06	1482	403.14	7.0589e-06	7.0289e-06	458.66	152.49	131.83	45.383	7.0162e-06	56.033	162.526	-96.974	18.134	-115.230	-26.041	89.024	-115.530	-110.849	-76.702	-19.360	-110.961	-107.512	-107.048	-101.907	145.015	-102.437	-8191	255	
727.312	1	1	0	0	0.24898	0.1367	0.13355	0.26311	0.18609	0.092455	0.15291	0.22553	0.11991	0.11125	0.21889	0.12686	0.27167	0.19258	0.21138	0.16959	-3.7729	-4.6771	-4.4771	-4.3333	-4.7771	-4.1375	-4.3812	-4.7	-3.9979	-4.5354	-4.7312	-4.1771	-4.8667	-4.3187	-4.2854	-4.7438	10.931	1.210	38.771	191.216	69.722	177.557	163.522	226.233	-101.510	-90.049	136.144	219.857	122.309	208.603	-103.854	209.808	0.00040673	0.0007528	0.00024643	1467.4	3.1841e-06	3.2628e-06	1464.4	396.84	3.9874e-06	1.1064e-06	450.83	148.57	128.83	44.168	1.0821e-05	54.348	0.00064072	0.00064634	0.00018122	1484.1	7.1474e-06	7.1262e-06	1483.7	403.54	7.0858e-06	7.0974e-06	459.29	152.26	131.95	45.358	7.0214e-06	55.971	170.966	-34.604	-39.940	-115.293	-105.758	-15.131	-115.541	-110.747	-111.906	-108.062	-111.168	-107.520	-106.779	-101.977	28.762	-102.650	-8191	255	
727.410	1	1	0	0	0.16698	0.10013	0.23865	0.1616	0.21863	0.20218	0.29482	0.18622	0.2495	0.058686	0.041415	0.15671	0.14392	0.080834	0.18381	0.12118	-3.7562	-4.6708	-4.4917	-4.3708	-4.6646	-4.4792	-4.4688	-4.7854	-4.1229	-4.5563	-4.8146	-4.1125	-4.7646	-4.5667	-4.2	-4.7896	-82.336	-81.175	99.228	226.452	-43.885	168.851	139.187	181.514	21.108	109.716	-104.294	-103.252	229.396	35.523	150.556	159.118	0.00044922	0.00063206	8.6898e-05	1466.4	1.4591e-06	4.2203e-06	1462.8	397.52	3.4116e-06	8.4789e-06	449.9	149.01	129.12	44.279	5.9208e-06	54.198	0.00062554	0.00063232	0.00017681	1483	6.8581e-06	6.9194e-06	1484.6	404.03	6.9201e-06	6.9011e-06	457.92	152.61	132.14	45.444	7.0344e-06	55.934	157.926	-31.958	21.394	-115.221	5.909	21.360	-115.403	-110.983	-27.576	49.266	-111.350	-107.451	-106.969	-101.820	-24.837	-102.584	-8191	255	
727.529	1	1	0	0	0.023166	0.13308	0.16665	0.11891	0.10433	0.15584	0.38679	0.056874	0.18874	0.11445	0.099335	0.1228	0.276	0.26838	0.11243	0.10086	-3.7771	-4.675	-4.5792	-4.2625	-4.4563	-4.4396	-4.4646	-4.8604	-4.0396	-4.4062	-4.9271	-4.1396	-4.7458	-4.5437	-4.1729	-4.8688	98.868	155.078	198.398	222.683	222.668	-38.303	169.519	98.416	34.693	160.345	-111.951	192.165	209.340	-112.134	164.928	-38.117	0.00041254	0.0004155	0.00015454	1469.3	8.405e-06	2.765e-06	1461.7	398.14	7.3109e-06	3.1666e-06	450.52	148.9	129.12	44.27	4.6758e-06	54.494	0.00062527	0.00063159	0.00017529	1485.3	6.8818e-06	6.8836e-06	1483.7	404.11	6.9122e-06	6.8725e-06	459	152.8	132.27	45.492	6.9075e-06	56.023	154.375	-34.719	27.517	-115.170	-23.574	82.304	-115.449	-111.085	-33.229	23.142	-111.227	-107.424	-106.890	-102.011	-45.292	-102.624	-8191	255	
727.625	1	1	0	0	0.20647	0.17863	0.15544	0.17412	0.30536	0.11331	0.23867	0.065001	0.012824	0.044154	0.04171	0.12766	0.12997	0.10538	0.23087	0.20331	-3.8208	-4.2917	-4.6333	-4.3729	-4.6271	-4.4292	-4.5396	-4.9479	-4.2229	-4.4292	-4.6396	-4.2958	-4.6896	-4.5938	-4.0896	-4.7042	-111.213	27.468	96.741	95.776	212.043	46.787	126.921	80.975	171.826	-12.483	106.118	103.590	161.543	150.349	-36.433	216.785	0.00039268	0.00043466	0.00016445	1469.1	3.2372e-06	6.9904e-06	1464.5	397.91	7.9935e-07	6.5739e-06	452.16	148.82	129.24	44.485	3.7892e-06	54.534	0.00062095	0.00063469	0.00017666	1484.7	6.8612e-06	6.8677e-06	1484.8	404.78	6.9187e-06	6.8698e-06	459.61	152.63	132.3	45.547	6.9003e-06	55.998	165.171	18.293	-65.803	-115.138	-105.004	0.211	-115.535	-110.986	57.080	43.781	-111.524	-107.417	-106.914	-101.891	72.569	-102.394	-8191	255	
727.696	1	1	0	0	0.091427	0.091131	0.33548	0.28359	0.21573	0.090889	0.11656	0.34331	0.042969	0.15159	0.20323	0.26672	0.090898	0.32232	0.030373	0.14704	-4.0542	-4.1667	-4.6146	-4.3521	-4.4792	-4.6083	-4.3771	-4.7417	-4.3271	-4.1333	-4.9667	-4.3271	-4.6042	-4.7521	-4.1708	-4.8063	-17.086	139.190	97.630	188.398	-37.151	-79.353	207.387	216.028	-64.803	-111.602	195.101	214.099	-122.545	219.950	145.996	215.823	0.00043576	8.779e-05	0.00021015	1471.7	7.1423e-06	4.2311e-06	1463.5	397.65	4.6154e-06	7.2137e-06	451.97	149.1	128.62	44.386	1.2026e-06	54.371	0.00062231	0.00062794	0.00017397	1486.2	6.966e-06	6.8704e-06	1485.2	404.27	6.8129e-06	6.8829e-06	459.03	152.72	132.12	45.499	6.9047e-06	56.07	166.461	-50.969	1.738	-115.164	-16.972	-7.459	-115.459	-110.968	-15.503	43.204	-111.092	-107.633	-106.992	-102.021	4.031	-102.458	-8191	255	
#DATA ENDS
