BOXY.EXE: ISS Imagent and Oximeter Data Acquisition Program Version 0.80
Ascii Record File

#ACQ INFORMATION
2  Detector Channels 
16  External MUX Channels 
1  Auxiliary Channels 
5000  Waveform (CCF) Frequency (Hz)
1  Waveforms Skipped 
30  Waveforms Averaged 
1  Cycles Averaged 
16  Acquisitions per Waveform 
10.0806  Updata Rate (Hz) 

#FILE INFORMATION
TRUE -- External MUX Channel results are PARSED.
FALSE -- AC DC and Phase are NOT grouped.
TRUE -- Companion Program Settings File CREATED.
FALSE -- AC data not excluded
FALSE -- DC data not excluded
FALSE -- Phase data not excluded
FALSE -- Auxillary Chn. data not excluded
Tab delimiters

#CALIBRATION STATE
TRUE -- Waveform Calibration Values APPLIED.


#AUX CALIBRATION VALUES
Val Type	aux-1	

Term	1.0000e+00	
Factor	0.0000e+00	


#WF CALIBRATION VALUES
A = Detector Channel
Val Type	A-AC1	A-AC2	A-AC3	A-AC4	A-AC5	A-AC6	A-AC7	A-AC8	A-AC9	A-AC10	A-AC11	A-AC12	A-AC13	A-AC14	A-AC15	A-AC16	A-DC1	A-DC2	A-DC3	A-DC4	A-DC5	A-DC6	A-DC7	A-DC8	A-DC9	A-DC10	A-DC11	A-DC12	A-DC13	A-DC14	A-DC15	A-DC16	A-Ph1	A-Ph2	A-Ph3	A-Ph4	A-Ph5	A-Ph6	A-Ph7	A-Ph8	A-Ph9	A-Ph10	A-Ph11	A-Ph12	A-Ph13	A-Ph14	A-Ph15	A-Ph16	

Term	0.00000e+00	0.00000e+00	0.00000e+00	0.00000e+00	0.00000e+00	0.00000e+00	0.00000e+00	0.00000e+00	0.00000e+00	0.00000e+00	0.00000e+00	0.00000e+00	0.00000e+00	0.00000e+00	0.00000e+00	0.00000e+00	0.00000e+00	0.00000e+00	0.00000e+00	0.00000e+00	0.00000e+00	0.00000e+00	0.00000e+00	0.00000e+00	0.00000e+00	0.00000e+00	0.00000e+00	0.00000e+00	0.00000e+00	0.00000e+00	0.00000e+00	0.00000e+00	0.00000e+00	0.00000e+00	0.00000e+00	0.00000e+00	0.00000e+00	0.00000e+00	0.00000e+00	0.00000e+00	0.00000e+00	0.00000e+00	0.00000e+00	0.00000e+00	0.00000e+00	0.00000e+00	0.00000e+00	0.00000e+00	
Factor	1.00000e+00	1.00000e+00	1.00000e+00	1.00000e+00	1.00000e+00	1.00000e+00	1.00000e+00	1.00000e+00	1.00000e+00	1.00000e+00	1.00000e+00	1.00000e+00	1.00000e+00	1.00000e+00	1.00000e+00	1.00000e+00	1.00000e+00	1.00000e+00	1.00000e+00	1.00000e+00	1.00000e+00	1.00000e+00	1.00000e+00	1.00000e+00	1.00000e+00	1.00000e+00	1.00000e+00	1.00000e+00	1.00000e+00	1.00000e+00	1.00000e+00	1.00000e+00	X	X	X	X	X	X	X	X	X	X	X	X	X	X	X	X	

B = Detector Channel
Val Type	B-AC1	B-AC2	B-AC3	B-AC4	B-AC5	B-AC6	B-AC7	B-AC8	B-AC9	B-AC10	B-AC11	B-AC12	B-AC13	B-AC14	B-AC15	B-AC16	B-DC1	B-DC2	B-DC3	B-DC4	B-DC5	B-DC6	B-DC7	B-DC8	B-DC9	B-DC10	B-DC11	B-DC12	B-DC13	B-DC14	B-DC15	B-DC16	B-Ph1	B-Ph2	B-Ph3	B-Ph4	B-Ph5	B-Ph6	B-Ph7	B-Ph8	B-Ph9	B-Ph10	B-Ph11	B-Ph12	B-Ph13	B-Ph14	B-Ph15	B-Ph16	

Term	0.00000e+00	0.00000e+00	0.00000e+00	0.00000e+00	0.00000e+00	0.00000e+00	0.00000e+00	0.00000e+00	0.00000e+00	0.00000e+00	0.00000e+00	0.00000e+00	0.00000e+00	0.00000e+00	0.00000e+00	0.00000e+00	0.00000e+00	0.00000e+00	0.00000e+00	0.00000e+00	0.00000e+00	0.00000e+00	0.00000e+00	0.00000e+00	0.00000e+00	0.00000e+00	0.00000e+00	0.00000e+00	0.00000e+00	0.00000e+00	0.00000e+00	0.00000e+00	-1.56698e+02	-1.33189e+02	-1.28113e+02	-1.83644e+02	-7.78958e+01	-6.97677e+01	-1.57337e+02	-1.62015e+02	-8.22468e+01	-6.43578e+01	-1.84793e+02	-1.72619e+02	-1.88951e+02	-1.78692e+02	-6.94246e+01	-1.51486e+02	
Factor	2.22079e-05	2.13334e-04	5.36542e-05	1.75813e-01	1.56978e-06	1.91917e-06	1.61952e-01	5.58248e-02	1.45453e-06	1.86049e-06	2.03492e-01	2.84883e-02	2.74248e-02	8.74144e-03	1.61277e-06	1.27537e-02	7.19016e-06	9.59089e-06	2.66684e-06	8.98513e-02	1.00368e-07	1.05501e-07	7.82198e-02	2.87300e-02	1.01199e-07	1.06225e-07	9.62496e-02	1.42386e-02	1.41799e-02	4.53072e-03	1.02488e-07	6.40085e-03	X	X	X	X	X	X	X	X	X	X	X	X	X	X	X	X	



#DISTANCE SETTINGS
A = Detector Channel
A-1	A-2	A-3	A-4	A-5	A-6	A-7	A-8	A-9	A-10	A-11	A-12	A-13	A-14	A-15	A-16	

2.5000e+00	3.0000e+00	2.5000e+00	3.0000e+00	2.0000e+00	3.0000e+00	1.5000e+00	3.0000e+00	3.0000e+00	3.0000e+00	3.0000e+00	3.0000e+00	3.0000e+00	3.0000e+00	1.5000e+00	3.0000e+00	

B = Detector Channel
B-1	B-2	B-3	B-4	B-5	B-6	B-7	B-8	B-9	B-10	B-11	B-12	B-13	B-14	B-15	B-16	

1.0000e+01	1.0000e+01	1.0000e+01	1.4400e+00	1.0000e+01	1.0000e+01	1.5100e+00	1.9400e+00	1.0000e+01	1.0000e+01	1.9900e+00	2.4900e+00	2.4100e+00	2.9000e+00	1.0000e+01	2.9800e+00	




#DATA BEGINS
time	group	step	mark	flag	A-AC1	A-AC2	A-AC3	A-AC4	A-AC5	A-AC6	A-AC7	A-AC8	A-AC9	A-AC10	A-AC11	A-AC12	A-AC13	A-AC14	A-AC15	A-AC16	A-DC1	A-DC2	A-DC3	A-DC4	A-DC5	A-DC6	A-DC7	A-DC8	A-DC9	A-DC10	A-DC11	A-DC12	A-DC13	A-DC14	A-DC15	A-DC16	A-Ph1	A-Ph2	A-Ph3	A-Ph4	A-Ph5	A-Ph6	A-Ph7	A-Ph8	A-Ph9	A-Ph10	A-Ph11	A-Ph12	A-Ph13	A-Ph14	A-Ph15	A-Ph16	B-AC1	B-AC2	B-AC3	B-AC4	B-AC5	B-AC6	B-AC7	B-AC8	B-AC9	B-AC10	B-AC11	B-AC12	B-AC13	B-AC14	B-AC15	B-AC16	B-DC1	B-DC2	B-DC3	B-DC4	B-DC5	B-DC6	B-DC7	B-DC8	B-DC9	B-DC10	B-DC11	B-DC12	B-DC13	B-DC14	B-DC15	B-DC16	B-Ph1	B-Ph2	B-Ph3	B-Ph4	B-Ph5	B-Ph6	B-Ph7	B-Ph8	B-Ph9	B-Ph10	B-Ph11	B-Ph12	B-Ph13	B-Ph14	B-Ph15	B-Ph16	aux-1	digaux	

640.618	1	1	0	512	0.13551	0.058988	0.14032	0.05982	0.22675	0.19299	0.22905	0.17327	0.29234	0.10338	0.32403	0.19434	0.37406	0.32105	0.18629	0.10906	-2.5958	-2.8396	-2.9458	-2.9479	-2.9354	-3.1396	-2.8333	-3.0062	-3.0208	-2.8333	-3.3354	-3.225	-2.8438	-3.2812	-2.9688	-3.2375	75.659	46.415	140.106	59.440	99.622	96.871	257.066	-26.737	221.500	34.145	269.434	55.382	-33.392	265.612	-12.284	250.476	0.00043529	0.0010638	0.00028618	727.33	6.0998e-06	6.5682e-06	1032.6	262.44	3.9184e-06	5.0023e-06	489.53	213.56	106.49	50.01	4.5101e-06	110.62	0.00052353	0.00042877	0.0001186	713.24	4.3499e-06	4.673e-06	1017.6	259.69	4.5318e-06	4.6887e-06	479.89	212.45	106.02	49.533	4.5076e-06	110.1	125.591	26.166	40.540	-39.742	58.665	82.470	-39.522	-35.280	71.003	79.941	-36.152	-32.068	-32.074	-27.535	97.433	-28.371	-8191	255	
640.714	1	1	0	0	0.23085	0.26359	0.12461	0.2111	0.14228	0.087508	0.16161	0.15381	0.034027	0.066236	0.42331	0.040525	0.3532	0.22785	0.25613	0.24185	-2.7938	-2.7042	-3.1625	-3.0979	-2.8646	-3.2542	-3.0917	-3.1354	-3.1708	-2.9813	-3.2333	-3.3292	-3.0062	-3.2833	-3.0271	-3.2062	36.312	182.259	62.530	261.706	292.754	131.846	251.687	295.010	143.177	241.342	-50.846	-24.350	-21.037	-28.871	42.193	142.963	0.00042604	0.00069157	0.00019432	716.42	5.2032e-06	7.4475e-06	1031.5	262.41	4.8064e-06	7.7428e-06	487.14	213.28	105.72	49.584	5.8902e-06	110.33	0.00050091	0.00042078	0.00011507	707.2	4.1774e-06	4.4423e-06	1012.7	258.18	4.4249e-06	4.4048e-06	476.96	212.19	105.5	49.297	4.4629e-06	109.58	125.720	31.872	34.276	-39.986	97.797	60.877	-39.712	-35.412	87.790	78.008	-36.077	-32.339	-32.210	-27.407	102.183	-28.419	-8191	255	
640.810	1	1	0	0	0.22055	0.080637	0.065741	0.20445	0.33885	0.078038	0.094071	0.066932	0.19287	0.11648	0.27373	0.12858	0.18194	0.25832	0.055253	0.21744	-2.8146	-2.8854	-3.0312	-3.2	-2.6771	-3.2375	-3.1125	-2.9333	-3.0458	-3.025	-3.1208	-3.5083	-2.8104	-3.2958	-3.0646	-3.3021	161.798	103.553	245.932	261.707	105.203	36.710	245.788	-17.898	217.201	244.742	-1.223	18.864	304.144	295.765	148.511	253.023	0.0004647	0.00088374	0.00016013	716.16	5.173e-06	7.1606e-06	1022.4	261.28	4.6476e-06	9.4358e-06	484.2	213.83	106.42	49.641	2.55e-06	110.32	0.00050574	0.00040731	0.00011445	703.16	4.462e-06	4.4592e-06	1009	257.51	4.441e-06	4.423e-06	476	212.46	105.79	49.398	4.6455e-06	109.68	124.828	23.817	31.876	-39.779	84.443	98.942	-39.554	-35.584	94.798	98.285	-36.229	-32.056	-31.955	-27.560	97.368	-28.346	-8191	255	
640.906	1	1	0	0	0.097	0.12641	0.32048	0.14722	0.22825	0.25162	0.14933	0.063365	0.15958	0.15767	0.13561	0.01905	0.1814	0.4355	0.2112	0.13062	-2.6917	-3.0938	-2.975	-3.3625	-3	-3.2062	-3.1917	-2.9313	-3.1937	-2.9875	-3.1667	-3.2812	-3.0979	-3.3625	-2.9271	-2.8708	125.195	183.576	-32.507	227.617	-18.300	17.818	212.679	-15.203	-33.865	101.131	271.334	225.024	304.381	264.814	81.368	207.544	0.00047311	0.00093371	0.00025852	718.68	5.1746e-06	9.5833e-06	1026.8	261.04	5.527e-06	8.684e-06	489.85	215.36	107.27	49.869	7.395e-06	110.91	0.00052251	0.00043071	0.00011811	703.72	4.4697e-06	4.6807e-06	1009.6	257.66	4.7844e-06	4.8496e-06	480.23	213.63	106.66	49.7	5.1069e-06	110.55	123.374	45.395	48.833	-39.509	101.373	101.708	-39.806	-35.315	86.524	94.032	-36.422	-31.982	-31.962	-27.685	110.233	-28.525	-8191	255	
641.000	1	1	0	0	0.33038	0.4042	0.070274	0.10534	0.10289	0.2308	0.18022	0.11143	0.10259	0.099257	0.17188	0.39246	0.18806	0.056552	0.17481	0.24267	-2.9521	-3.0062	-3.0042	-3.2229	-2.9062	-3.1	-3.2083	-3.0083	-3.175	-2.9375	-2.9875	-3.4542	-2.9521	-3.0771	-3.175	-2.925	-26.230	32.230	149.686	165.338	57.967	85.453	269.014	-29.688	122.098	-16.654	9.052	283.217	-5.897	93.808	260.911	235.005	0.00045014	0.0010528	0.00026987	713.19	4.9033e-06	5.0885e-06	1024.1	262.32	2.8513e-06	7.0525e-06	491.71	216.66	107.32	50.141	5.4704e-06	111.51	0.00053669	0.00046156	0.00012759	702.14	4.9889e-06	5.2302e-06	1010.9	258.68	5.2497e-06	5.3577e-06	483.22	214.91	107	49.944	5.5013e-06	111.02	121.162	41.674	11.748	-40.029	99.701	113.980	-39.500	-35.257	64.674	78.533	-36.228	-32.189	-32.322	-27.646	77.622	-28.604	-8191	255	
641.097	1	1	0	0	0.12664	0.1159	0.24444	0.16329	0.18328	0.081986	0.28071	0.29327	0.12609	0.099904	0.24362	0.20866	0.14539	0.18463	0.14567	0.38125	-2.8625	-3.0104	-3.0187	-3.2083	-2.7958	-3.2917	-3.2979	-2.9896	-3.1312	-3.0938	-3.0396	-3.425	-3.1042	-3.2083	-3.1813	-3.0604	16.072	33.478	245.896	117.778	89.556	227.312	288.380	258.580	204.707	-22.621	262.965	-43.808	262.669	-25.080	268.369	234.767	0.00043343	0.00072845	0.00020874	713.91	6.7853e-06	3.6012e-06	1020.6	261.66	5.7896e-06	5.5986e-06	490.77	214.96	106.52	49.856	5.2367e-06	110.84	0.0005703	0.00049695	0.00013561	703.45	5.2884e-06	5.3821e-06	1007.1	257.87	5.4941e-06	5.284e-06	480.48	213.57	106.36	49.642	5.5329e-06	110.23	127.263	42.465	15.178	-39.778	77.469	104.384	-39.777	-35.353	88.625	100.040	-36.335	-31.899	-32.616	-27.881	101.304	-28.566	-8191	255	
641.193	1	1	0	0	0.26877	0.031786	0.072289	0.23575	0.13414	0.21996	0.19486	0.10002	0.050992	0.096041	0.29096	0.098592	0.19737	0.023701	0.22695	0.13102	-2.6813	-3.0271	-2.8333	-3.1771	-2.8104	-3.0771	-3.3896	-2.9417	-3.3021	-3.1167	-2.8396	-3.4813	-3.1333	-2.9188	-3.0417	-3.0417	223.506	-36.312	206.893	290.527	-6.976	42.061	271.688	179.463	194.735	290.578	82.570	-7.864	283.928	237.325	112.387	284.264	0.00048044	0.00040487	0.00019086	707.23	2.7652e-06	6.0023e-06	1014.7	259.26	2.5054e-06	5.6072e-06	486.15	215.24	106.78	50.067	6.1041e-06	111.4	0.00057	0.00048822	0.00013655	697.88	5.2796e-06	5.3665e-06	1002.2	256.89	5.4861e-06	5.3863e-06	477.51	213.34	106.51	49.562	5.572e-06	110.36	125.343	43.117	26.162	-39.771	73.634	84.465	-39.327	-35.371	75.367	86.179	-36.214	-31.938	-32.254	-27.689	127.894	-28.513	-8191	255	
641.313	1	1	0	0	0.31465	0.25888	0.029465	0.11817	0.10904	0.14306	0.13056	0.18098	0.27078	0.40561	0.16235	0.33909	0.19057	0.23725	0.093741	0.25698	-2.8063	-2.9875	-2.8083	-3.2333	-3.0875	-2.8688	-3.4813	-2.7917	-3.1292	-2.9771	-2.9292	-3.3187	-3.2125	-3.0958	-3.2938	-2.9313	181.761	-5.599	100.252	40.967	-18.302	167.652	222.231	189.105	260.247	268.992	239.673	-41.262	-34.364	253.883	292.506	278.296	0.00044436	0.00028621	8.1331e-05	714.29	4.8717e-06	4.4474e-06	1022.1	260.58	5.7515e-06	5.4775e-06	486.7	214.12	106.16	49.917	3.0492e-06	111.33	0.00057947	0.0005034	0.00014365	699.27	5.4678e-06	5.5305e-06	1004.7	257.33	5.6189e-06	5.6005e-06	478.77	213.52	106.29	49.656	5.7182e-06	110.85	124.961	51.419	14.142	-39.774	122.432	58.244	-39.505	-35.439	68.783	75.442	-36.481	-32.133	-32.144	-27.661	139.472	-28.362	-8191	255	
641.409	1	1	0	0	0.17948	0.093938	0.35577	0.027706	0.30715	0.13193	0.11926	0.036612	0.24134	0.067339	0.16988	0.3772	0.097436	0.094431	0.063952	0.22524	-2.8375	-3.0458	-2.7854	-3.3292	-3.0208	-2.8458	-3.4771	-2.7854	-2.9771	-3.0458	-3.1542	-3.3604	-3.2604	-2.9688	-3.0687	-3.2958	-31.254	-23.521	-14.056	166.795	140.157	146.591	50.455	244.391	216.140	234.785	178.302	269.168	284.766	-51.731	100.045	295.718	0.0004434	0.00042194	5.2842e-05	713.8	3.3934e-06	9.8675e-06	1019.6	259.06	5.9677e-06	5.3635e-06	490.77	216.04	106.91	50.18	7.9191e-06	111.92	0.00059526	0.00053325	0.0001503	701.82	5.722e-06	5.8966e-06	1006.2	257.17	5.8542e-06	5.9845e-06	480.95	214.26	106.66	49.884	5.8245e-06	111.33	121.357	40.166	-2.971	-39.779	97.430	98.822	-39.551	-35.213	91.707	66.821	-36.398	-32.023	-31.943	-27.576	113.960	-28.352	-8191	255	
641.506	1	1	0	0	0.17698	0.06916	0.21739	0.17629	0.3044	0.06823	0.12642	0.016255	0.20535	0.15458	0.1326	0.15941	0.076781	0.32408	0.11667	0.17409	-2.6188	-3.325	-2.9125	-3.3417	-3.0125	-2.8438	-3.4417	-3.0375	-2.9313	-3.1208	-3.1437	-3.1708	-3.2083	-2.9437	-3.2708	-3.1063	243.014	67.737	53.746	229.730	237.933	274.655	158.567	224.486	27.773	26.146	244.142	267.459	-38.860	277.211	121.798	228.094	0.00046246	0.00088182	0.00023221	714.24	2.8536e-06	8.3633e-06	1021.7	260.8	3.4756e-06	5.4376e-06	489.03	216.09	106.64	49.9	1.945e-06	111.13	0.00060134	0.00053611	0.00014942	703.52	5.6108e-06	5.8929e-06	1009.7	257.93	5.8413e-06	5.9984e-06	480.28	214.05	106.36	49.721	5.8854e-06	110.71	124.266	24.278	30.574	-39.868	103.194	108.789	-39.666	-35.358	81.394	128.475	-36.364	-32.120	-32.058	-27.527	117.191	-28.519	-8191	255	
641.602	1	1	0	0	0.090634	0.072691	0.18367	0.23673	0.12114	0.14769	0.20057	0.33484	0.25176	0.13421	0.1634	0.31239	0.15364	0.10893	0.05292	0.36921	-2.6083	-3.325	-2.9292	-3.1896	-3.2479	-2.8812	-3.5375	-3.1292	-3.0271	-3.2583	-3.0792	-3.225	-3.2854	-3.1833	-3.1854	-3.2708	252.282	-38.496	68.127	273.149	60.063	69.404	-47.900	232.397	-39.672	124.061	158.344	271.164	-38.468	291.038	20.463	279.567	0.00046679	0.00074038	0.00021757	715.36	5.245e-06	6.0445e-06	1019.4	259.04	6.1225e-06	7.867e-06	484.36	213.82	106.95	50.137	6.4329e-06	111.24	0.00060579	0.00054195	0.00015133	702.46	5.7074e-06	5.9274e-06	1006.7	256.03	6.0205e-06	6.027e-06	477.2	212.91	106.32	49.674	6.0951e-06	110.64	121.196	50.133	59.439	-39.643	100.104	92.980	-39.664	-35.553	114.132	99.129	-36.160	-32.194	-32.127	-27.356	90.866	-28.513	-8191	255	
641.698	1	1	0	0	0.18729	0.030965	0.34731	0.17339	0.12271	0.16538	0.053678	0.034799	0.1564	0.24357	0.11684	0.014055	0.36393	0.35771	0.11135	0.30222	-2.375	-3.1042	-2.6979	-2.9188	-3.2604	-2.8625	-3.2958	-2.9729	-2.9917	-3.3979	-3.1562	-3.2396	-3.3375	-2.9229	-3.1354	-3.2917	-12.939	125.693	280.106	60.521	60.212	148.981	161.493	291.669	231.421	133.950	-37.515	57.918	182.307	273.410	-26.470	243.425	0.00042255	0.00078436	0.00025646	705.88	7.4556e-06	6.4113e-06	1018.5	257.11	3.4235e-06	9.8017e-06	484.25	215.29	106.3	50.017	3.6173e-06	111.27	0.00062003	0.00057709	0.00015851	693.52	6.204e-06	6.4103e-06	1003.9	254.71	6.3423e-06	6.6209e-06	478.22	213.97	106.65	49.694	6.4068e-06	110.67	126.640	56.284	25.791	-39.688	99.766	92.270	-39.704	-35.334	79.866	111.922	-36.028	-31.910	-32.292	-27.504	67.372	-28.476	-8191	255	
641.794	1	1	0	0	0.30728	0.082473	0.15708	0.024278	0.18366	0.021052	0.26874	0.10628	0.11147	0.070702	0.36222	0.43056	0.26965	0.1536	0.12747	0.31134	-2.4375	-3.2958	-3.0292	-2.9625	-3.1917	-2.9542	-3.3187	-3.2438	-3.0208	-3.3	-2.9354	-3.1188	-3.2708	-3.1104	-2.9771	-3.2542	-17.963	85.095	117.918	96.073	83.402	3.917	203.646	306.404	9.878	305.469	247.323	235.595	-51.651	253.512	281.117	292.530	0.0004367	0.00079873	0.00027342	720.44	4.5556e-06	5.7405e-06	1031	259.76	2.0788e-06	6.4482e-06	484.16	214.68	105.65	49.781	3.9907e-06	111.29	0.00063828	0.00058838	0.00016599	705.94	6.2795e-06	6.2736e-06	1017.8	256.76	6.0608e-06	6.3941e-06	479.21	213.12	105.88	49.581	6.2591e-06	110.75	125.658	23.464	51.620	-39.721	66.357	131.873	-39.652	-35.237	236.822	93.706	-36.195	-31.937	-32.140	-27.552	81.747	-28.400	-8191	255	
641.915	1	1	0	0	0.15074	0.12633	0.35058	0.22713	0.051923	0.15125	0.15084	0.095602	0.098492	0.081475	0.052947	0.15278	0.12785	0.245	0.16119	0.1243	-2.3875	-3.0958	-3.0625	-3.0667	-3.3333	-2.6708	-3.175	-3.175	-2.8854	-3.35	-3.0375	-3.1771	-3.2812	-2.9437	-3.2313	-3.325	265.683	111.663	265.229	281.832	139.814	243.604	304.068	262.819	36.770	137.258	235.388	-20.463	-9.297	264.901	63.670	225.682	0.00046354	0.00073389	0.00021556	723.06	7.933e-06	6.2194e-06	1033.4	261.1	3.5455e-06	7.5354e-06	484.93	213.03	106.41	49.87	4.3484e-06	111.29	0.00061632	0.00053863	0.00015025	711.55	6.0351e-06	6.0318e-06	1019.7	257.82	5.9402e-06	5.9619e-06	479.72	212.47	106.09	49.523	5.8151e-06	110.44	122.544	16.948	47.287	-39.547	91.102	96.899	-39.453	-35.288	63.107	98.242	-36.134	-31.926	-31.991	-27.366	111.014	-28.349	-8191	255	
642.009	1	1	0	0	0.14728	0.028273	0.22771	0.022262	0.26654	0.11218	0.14081	0.15266	0.035531	0.20792	0.24769	0.14172	0.2054	0.099104	0.10481	0.063695	-2.3458	-3.1792	-3.0542	-2.9458	-3.3667	-2.9167	-3.0875	-3.3646	-2.925	-3.0479	-3.2313	-3.0104	-3.2896	-3.1729	-3.1396	-3.5375	-45.824	-10.719	170.882	149.564	-26.550	-34.698	129.590	192.194	147.687	48.459	216.631	-26.891	199.106	170.127	201.176	201.676	0.00044911	0.00075534	0.00033538	720.56	6.4529e-06	4.5656e-06	1033.7	259.11	2.283e-06	6.8968e-06	485.89	212.58	105.93	49.764	3.8522e-06	110.78	0.00058836	0.00053435	0.00015028	708.85	5.6371e-06	5.7485e-06	1016.6	257.17	5.7346e-06	5.778e-06	477.01	211.68	105.38	49.355	5.9563e-06	110.19	127.862	37.369	36.009	-39.673	108.977	90.761	-39.507	-35.494	94.321	124.409	-36.037	-32.097	-32.008	-27.254	95.426	-28.257	-8191	255	
642.105	1	1	0	0	0.064493	0.13167	0.2617	0.18173	0.04864	0.089045	0.2926	0.16746	0.13841	0.12068	0.047454	0.38161	0.085772	0.2548	0.051137	0.24081	-2.5292	-3.1604	-3.1833	-2.7271	-3.0792	-3.0187	-3.0729	-3.3708	-2.8521	-3.2458	-3.2417	-2.9771	-3.2917	-3.075	-2.9375	-3.4229	213.934	-30.631	169.979	124.277	43.023	240.646	231.102	-40.153	51.026	269.480	112.464	287.407	296.071	287.199	90.189	269.551	0.00047695	0.00070826	0.00025061	720.1	6.1376e-06	6.8398e-06	1033.8	261.54	6.7224e-06	1.2064e-05	486.67	214.19	106.29	49.871	2.9644e-06	111.19	0.00059458	0.00053483	0.00014907	706.53	5.6541e-06	5.8138e-06	1015.2	258.01	5.7542e-06	5.6609e-06	479.05	212.69	105.9	49.602	5.7675e-06	110.5	123.371	35.736	40.930	-39.686	105.051	107.213	-39.511	-35.296	102.627	82.930	-36.196	-32.068	-31.937	-27.355	139.426	-28.423	-8191	255	
642.201	1	1	0	0	0.36413	0.11435	0.18003	0.1523	0.26149	0.14755	0.10201	0.17342	0.027207	0.073801	0.32195	0.24295	0.2636	0.24114	0.11503	0.086489	-2.4396	-3.0583	-3.05	-2.9625	-3.2396	-3.1312	-3.0563	-3.4062	-2.8354	-3.1354	-3.1542	-3.0062	-3.1104	-3.1396	-2.7375	-3.5333	259.719	165.759	229.326	249.165	178.117	245.791	16.994	234.266	79.375	257.261	18.476	290.860	202.614	237.972	174.957	178.825	0.00043861	0.00067529	0.00022799	721.36	4.945e-06	5.5335e-06	1029.3	260.69	5.4087e-06	4.1349e-06	484.43	215.12	107.14	49.938	7.506e-06	112.18	0.00058495	0.00052188	0.0001481	708.16	5.5493e-06	5.6621e-06	1013.3	257.71	5.7133e-06	5.8811e-06	478.48	213.61	106.34	49.73	5.7018e-06	111.26	124.204	31.739	38.453	-39.644	79.017	93.058	-39.818	-35.111	100.683	74.025	-35.810	-31.889	-32.031	-27.245	65.983	-28.388	-8191	255	
642.298	1	1	0	0	0.11486	0.26117	0.031369	0.28987	0.11961	0.12753	0.2588	0.088824	0.21517	0.049409	0.052121	0.15719	0.27873	0.076698	0.1703	0.088697	-2.4604	-3.0208	-3.2333	-2.8979	-3.0917	-2.8812	-3.1146	-3.1792	-2.9313	-3.1396	-3.0479	-3.1625	-3.3104	-3.2542	-2.9146	-3.4	6.999	54.766	205.934	253.510	45.389	55.345	267.891	252.638	212.826	192.746	198.361	-20.495	274.870	-52.950	-30.714	86.249	0.00044538	0.00097247	0.00025963	719.42	7.3409e-06	6.4943e-06	1030.2	260.07	4.201e-06	9.9348e-06	486.52	214.77	107	50.245	4.1671e-06	111.51	0.00058381	0.00052404	0.00014513	708.69	5.4937e-06	5.7762e-06	1013.2	257.57	5.6712e-06	5.6054e-06	479.88	213.54	106.6	49.92	5.6428e-06	111.04	122.636	35.611	57.504	-39.714	84.548	101.194	-39.373	-35.694	114.063	96.711	-36.131	-32.023	-32.038	-27.449	103.424	-28.420	-8191	255	
642.394	1	1	0	0	0.063253	0.1599	0.09619	0.31269	0.15097	0.093951	0.0077386	0.11408	0.067413	0.19717	0.22198	0.1285	0.10895	0.27788	0.29743	0.2591	-2.6208	-3.0042	-3.2271	-2.8333	-3.1417	-3.2083	-2.775	-3.2792	-2.9313	-3.1375	-3.1958	-2.9313	-3.0938	-3.3104	-2.825	-3.2833	230.878	269.216	19.736	209.788	224.230	96.165	161.115	272.594	300.236	114.828	222.514	233.349	71.999	-27.823	171.504	268.331	0.00045553	0.0010774	0.00015418	712.43	2.5869e-06	6.8194e-06	1017.2	259.53	4.2432e-06	5.3186e-06	486.65	214.19	105.96	49.944	5.3587e-06	111.27	0.00057891	0.00051673	0.00013854	701.07	5.3578e-06	5.5188e-06	1002.7	256.51	5.4121e-06	5.4427e-06	476.47	212.93	105.8	49.652	5.5128e-06	110.59	124.685	27.012	62.185	-39.614	131.775	113.104	-39.451	-35.150	86.275	94.839	-35.954	-32.100	-32.047	-27.440	109.439	-28.559	-8191	255	
642.490	1	1	0	0	0.20304	0.070723	0.073322	0.096022	0.13707	0.116	0.2951	0.18466	0.38403	0.20769	0.11138	0.22664	0.075446	0.35048	0.044534	0.32398	-2.4896	-2.9021	-3.1688	-2.9771	-3.1937	-3.0062	-2.9458	-3.1646	-3.0458	-2.9646	-3.225	-3.2208	-3.0062	-3.325	-3.125	-3.4625	-40.280	48.469	260.042	27.136	25.539	219.765	205.791	303.678	102.179	236.383	-51.727	-21.200	267.849	195.232	2.195	252.652	0.00045096	0.0006608	0.00026983	711.05	7.1005e-06	6.9275e-06	1015.3	257.95	4.2047e-06	5.3688e-06	483.6	214.85	105.96	50.165	4.0915e-06	111.25	0.00056166	0.00049817	0.00013735	699.13	5.3423e-06	5.4254e-06	1001	255.69	5.5263e-06	5.6954e-06	477.02	213.57	106.18	49.824	5.7255e-06	111	121.980	52.257	45.024	-39.465	101.322	120.010	-39.439	-35.161	66.054	84.076	-36.057	-31.974	-32.084	-27.637	70.142	-28.400	-8191	255	
642.610	1	1	0	0	0.19749	0.015961	0.023911	0.28132	0.17197	0.042889	0.10764	0.19945	0.22892	0.13286	0.20496	0.076159	0.26417	0.31177	0.18972	0.39391	-2.8312	-2.9562	-3.1458	-3.0042	-2.8646	-3.2687	-3.1229	-3.3229	-3.1979	-2.7562	-3.4229	-3.325	-2.9188	-3.4375	-3.0458	-3.2646	233.621	-39.355	81.745	282.406	76.976	214.017	266.027	280.030	201.449	217.965	-36.325	205.808	186.838	256.557	190.302	257.457	0.00044536	0.00069523	0.00014364	706.56	4.667e-06	5.9687e-06	1013.4	258.77	2.7592e-06	6.3359e-06	485.22	214.92	106.84	50.046	6.232e-06	111.96	0.00059215	0.0005231	0.00014418	693.18	5.5552e-06	5.7241e-06	996.23	254.79	5.7424e-06	5.7342e-06	476.82	214.11	106.66	49.766	5.7227e-06	111.36	122.178	39.897	17.062	-39.980	70.866	78.479	-39.515	-35.116	92.182	112.850	-36.147	-31.978	-32.240	-27.577	91.944	-28.632	-8191	255	
642.707	1	1	0	0	0.2285	0.06524	0.023768	0.16822	0.14554	0.20562	0.067858	0.13154	0.14279	0.1458	0.29869	0.28478	0.33409	0.21977	0.046157	0.1955	-2.6937	-2.8958	-3.0833	-3.0875	-2.7854	-3.1813	-3.1292	-3.2208	-3.1937	-2.8458	-3.1646	-3.2021	-3.0125	-3.3771	-2.8333	-3.1833	66.140	42.145	217.616	180.438	-38.028	-29.167	101.119	93.003	-46.259	242.193	-18.824	-38.841	-30.955	290.224	135.919	293.953	0.00047305	0.0010067	0.00026968	705	5.1476e-06	8.0026e-06	1013.5	258.53	4.8058e-06	7.9546e-06	485.09	216.72	107.33	50.264	5.2554e-06	112.37	0.00058967	0.0005253	0.00014326	690.96	5.505e-06	5.6338e-06	995.53	254.75	5.7405e-06	5.7061e-06	477.63	215.54	106.91	50.004	5.7408e-06	111.56	125.016	14.945	35.363	-39.799	92.041	80.655	-39.515	-35.182	86.690	86.977	-35.979	-32.123	-32.220	-27.573	90.929	-28.644	-8191	255	
642.778	1	1	0	0	0.1474	0.072628	0.16947	0.29823	0.33094	0.033281	0.071844	0.26726	0.17877	0.0076113	0.30913	0.29826	0.07451	0.25696	0.21088	0.14369	-2.6625	-2.9229	-3.1625	-3.0208	-2.7604	-3.1146	-3.2208	-2.9979	-3.2083	-2.9125	-3.0896	-3.1917	-2.9271	-3.2708	-3.0604	-3.0042	236.057	104.502	285.217	-46.737	148.699	54.005	-34.972	252.907	47.719	-26.392	305.795	253.360	252.619	230.838	2.552	276.198	0.00046385	0.00077515	0.00019444	706.58	6.664e-06	7.1008e-06	1007.7	257.44	5.2472e-06	4.9689e-06	484.69	216.29	106.96	50.273	4.1949e-06	111.73	0.00058603	0.00051879	0.00014334	692.73	5.4466e-06	5.5593e-06	993.55	254.72	5.6746e-06	5.6729e-06	477.08	214.86	107.05	49.885	5.8965e-06	111.13	128.426	37.493	26.747	-39.620	123.223	85.595	-39.656	-35.289	66.046	81.332	-36.038	-31.988	-32.151	-27.550	104.305	-28.333	-8191	255	
642.874	1	1	0	0	0.30379	0.055941	0.10101	0.14758	0.11349	0.14709	0.29036	0.34769	0.19763	0.14723	0.20514	0.45648	0.092641	0.22418	0.11361	0.25336	-2.7167	-2.9104	-3.0354	-3.0958	-2.8354	-3.0375	-3.1437	-2.8563	-3.1146	-2.9208	-3.1896	-3.1458	-2.9417	-3.2021	-2.9958	-2.9167	296.065	107.079	201.884	196.965	-45.486	47.807	287.907	235.137	46.458	-31.448	280.167	263.432	246.476	178.659	164.070	210.770	0.00045227	0.00098469	0.00017805	708.19	3.7231e-06	7.0395e-06	1015.4	260.4	4.9225e-06	5.1968e-06	488.1	216.95	107.27	50.301	6.9607e-06	112.01	0.00059097	0.00053737	0.00014862	695.48	5.8968e-06	5.8656e-06	1001	257.1	5.8683e-06	5.9973e-06	480.48	215.03	107.08	50.044	6.2409e-06	111.48	119.808	15.500	32.930	-39.651	100.549	97.144	-39.372	-35.379	112.747	93.092	-36.121	-32.201	-32.087	-27.716	118.301	-28.510	-8191	255	
642.993	1	1	0	0	0.14458	0.17837	0.23597	0.16553	0.20117	0.20095	0.039492	0.13471	0.20105	0.24928	0.10757	0.076546	0.060239	0.27169	0.16561	0.21059	-2.8167	-2.775	-2.9125	-3.3896	-2.7188	-3.0604	-3.2292	-2.9604	-3.1125	-2.9771	-3.1479	-3.2979	-2.9229	-3.2583	-3.1458	-3.2812	166.009	5.953	31.648	275.453	214.281	156.444	85.306	-19.803	186.362	253.114	-17.169	-34.573	108.835	266.192	39.465	256.058	0.00043306	0.00070673	0.00025378	711.99	5.7295e-06	5.8366e-06	1024	263.37	3.0719e-06	5.1813e-06	489.05	216.53	107.67	50.237	4.2601e-06	112.05	0.00063333	0.00056366	0.0001623	701.35	6.0361e-06	6.2129e-06	1008.5	259.23	6.1658e-06	6.1361e-06	482.33	215.42	107.26	50.152	6.0282e-06	111.73	119.459	40.573	40.346	-39.733	80.448	126.287	-39.407	-35.312	56.047	104.673	-35.907	-32.370	-32.070	-27.604	83.906	-28.462	-8191	255	
643.089	1	1	0	0	0.22554	0.18334	0.16986	0.21366	0.14435	0.18318	0.20362	0.18426	0.11148	0.14271	0.30155	0.43784	0.077203	0.20684	0.10709	0.25761	-2.8146	-2.9458	-3.1063	-3.3125	-2.7833	-3.3167	-3.1958	-2.8854	-3.0833	-3.0354	-2.825	-3.4667	-3.1813	-3.2938	-3.275	-3.1021	266.462	93.454	98.113	265.496	251.840	214.421	183.949	177.881	199.166	107.594	253.498	251.844	238.702	-18.798	225.373	267.415	0.00044367	0.00094614	0.0002149	704.77	2.6885e-06	7.5572e-06	1005.1	258.07	5.7293e-06	1.0469e-05	486.52	218.34	108.02	50.565	5.4135e-06	112.75	0.00061796	0.00056087	0.00016048	692.95	5.9968e-06	6.2041e-06	992.93	255.44	6.163e-06	6.2341e-06	480.2	216.86	107.81	50.269	6.243e-06	112.19	124.885	31.872	41.006	-39.685	117.819	91.991	-39.608	-35.402	49.375	102.794	-36.246	-32.142	-31.997	-27.499	77.604	-28.429	-8191	255	
643.186	1	1	0	0	0.23689	0.16188	0.21238	0.20661	0.10328	0.18671	0.1682	0.30392	0.032914	0.088012	0.047715	0.072502	0.37382	0.19574	0.11237	0.42349	-2.7771	-3.0708	-2.85	-3.2896	-2.9146	-3.0312	-3.3937	-2.8667	-3.1854	-3.1458	-2.9271	-3.475	-2.8	-2.975	-3.0604	-3.0896	110.656	-18.441	3.225	279.927	280.297	234.727	-33.556	260.380	215.673	250.658	189.346	209.975	259.489	241.662	51.376	276.588	0.00042706	0.00076922	0.00020271	695.29	4.0156e-06	7.8025e-06	1005.2	259.65	6.1683e-06	7.6875e-06	486.94	216.22	107.65	50.466	7.5605e-06	111.76	0.00063101	0.00056552	0.00015753	687.85	6.0148e-06	6.3044e-06	993.27	256.76	6.0562e-06	6.1489e-06	479.66	215.64	107.15	50.22	6.1692e-06	111.55	127.061	54.645	27.276	-39.617	66.510	97.830	-39.408	-35.116	79.669	77.644	-36.047	-32.372	-32.365	-27.278	95.773	-28.355	-8191	255	
643.306	1	1	0	0	0.066435	0.10083	0.096614	0.21204	0.04625	0.050643	0.10192	0.28662	0.035635	0.14429	0.10496	0.21812	0.36661	0.16816	0.13792	0.1205	-2.7208	-3.0187	-2.6646	-3.225	-2.9521	-3.1042	-3.3146	-3.0292	-3.2042	-3.05	-2.9208	-3.2	-3.0458	-3.1396	-3.1562	-2.8438	168.401	195.546	163.106	265.187	159.931	176.899	76.101	19.393	-32.818	16.720	299.382	268.357	242.855	287.374	298.571	-48.790	0.0004675	0.00066353	0.00019784	710.49	5.6193e-06	5.6401e-06	1016.3	259.69	5.7841e-06	4.6801e-06	489.13	215.85	107.56	50.379	4.2571e-06	111.61	0.00061362	0.00055208	0.00015409	697.58	5.8659e-06	5.8133e-06	1001.7	257.51	6.0441e-06	5.9621e-06	480.61	214.71	107.49	50.135	5.9843e-06	111.38	124.100	20.805	44.819	-39.650	82.729	124.532	-39.469	-35.496	83.605	117.195	-35.900	-32.183	-32.234	-27.819	97.441	-28.412	-8191	255	
643.402	1	1	0	0	0.41289	0.1176	0.29797	0.36104	0.14513	0.2584	0.42092	0.05053	0.33886	0.028685	0.047921	0.34144	0.10239	0.11599	0.062499	0.22672	-2.7792	-3.0083	-2.7146	-3.4479	-3.1312	-2.7917	-3.2417	-3.0417	-2.9688	-3.2458	-2.7583	-3.2667	-2.8667	-2.9583	-3.1771	-3.0042	231.465	126.894	89.483	267.666	205.366	12.667	223.068	211.744	106.846	147.665	22.191	295.470	169.813	256.695	256.791	259.752	0.00045574	0.00063278	0.00016575	711.38	4.8752e-06	7.3043e-06	1020.4	258.77	3.5367e-06	3.3518e-06	486.88	217.21	107.47	50.328	5.8616e-06	112.04	0.00061578	0.00052782	0.00014607	699.18	5.6951e-06	5.883e-06	1002	256.74	5.7058e-06	5.7758e-06	478.86	215.46	107.01	50.141	5.8604e-06	111.74	122.967	20.177	51.048	-39.643	94.700	66.975	-39.172	-35.307	104.524	62.406	-36.361	-32.113	-31.988	-27.556	109.491	-28.474	-8191	255	
643.474	1	1	0	0	0.15103	0.019623	0.1181	0.14709	0.12926	0.066773	0.17533	0.12362	0.19998	0.039091	0.12165	0.29767	0.24592	0.14559	0.19254	0.30308	-2.5396	-3.0625	-2.7812	-3.1271	-2.7854	-2.8542	-3.35	-2.9521	-2.9	-3.2708	-2.7938	-3.2167	-3.1312	-2.9917	-3.2542	-3.0625	258.657	49.881	16.371	234.108	19.792	1.490	194.783	215.373	68.039	119.902	-22.797	-51.695	273.273	232.082	199.420	235.884	0.00046737	0.00085031	0.00018907	694.97	4.6239e-06	7.524e-06	1006.3	258.06	4.0469e-06	6.1373e-06	486.13	217.97	107.99	50.71	4.6892e-06	113.04	0.00058905	0.00052662	0.00014531	689.17	5.6436e-06	5.7204e-06	990.25	254.74	5.7593e-06	5.5954e-06	477.97	216.83	107.67	50.341	5.8724e-06	112.37	125.054	46.647	46.780	-39.639	107.563	108.940	-39.312	-35.244	92.252	95.045	-36.033	-32.021	-32.302	-27.760	115.048	-28.475	-8191	255	
643.595	1	1	0	0	0.084878	0.29192	0.02216	0.19196	0.30001	0.18634	0.1656	0.31756	0.011846	0.19811	0.025555	0.16666	0.19043	0.24237	0.052782	0.28007	-2.6562	-3.1521	-2.8271	-3.15	-3.1188	-2.7708	-3.2625	-3.0125	-2.9562	-3.0958	-2.7438	-3.2417	-3.0917	-2.9125	-2.9958	-3.225	155.544	40.190	177.817	302.955	69.611	11.180	27.495	232.579	107.160	-41.721	163.717	230.086	40.305	-47.234	236.064	260.404	0.0004499	0.0010038	0.0003185	702.54	5.1626e-06	5.2081e-06	1013.9	257.79	3.5012e-06	5.4227e-06	487.89	217.42	107.35	50.853	6.9185e-06	113.1	0.00060146	0.00052452	0.00014241	690.46	5.5451e-06	5.5951e-06	996.92	255.98	5.6433e-06	5.5799e-06	479.67	216.32	107.38	50.429	5.6685e-06	112.13	120.569	27.918	38.526	-39.633	86.110	110.361	-39.358	-35.324	71.756	106.171	-36.357	-32.099	-32.347	-27.657	108.791	-28.599	-8191	255	
643.691	1	1	0	0	0.19693	0.06666	0.12218	0.2538	0.17439	0.15358	0.090529	0.31175	0.34213	0.25917	0.045207	0.18263	0.18288	0.14172	0.25254	0.1999	-2.4979	-3.1104	-2.6979	-2.9729	-3.0042	-2.9271	-3.1083	-3.0896	-2.8833	-3.1458	-2.9813	-3.1896	-3.1521	-3.0062	-3.2625	-3.3063	209.571	299.380	269.853	214.019	249.492	-17.195	271.165	245.606	94.107	302.450	235.999	240.177	-10.002	-26.183	-7.312	209.971	0.0004606	0.00091587	0.0001736	710.34	3.9854e-06	6.3463e-06	1015.6	261.53	3.8236e-06	5.5772e-06	489.69	216.74	107	50.442	1.1816e-06	112.28	0.00058031	0.00050494	0.00014247	696.84	5.4893e-06	5.6511e-06	1001.2	257.97	5.6014e-06	5.545e-06	481.13	215.36	107.14	50.118	5.7253e-06	111.76	127.495	27.388	40.501	-39.905	102.440	96.773	-39.497	-35.014	86.056	117.466	-35.997	-32.023	-32.351	-27.591	77.643	-28.862	-8191	255	
643.787	1	1	0	0	0.16689	0.086486	0.1552	0.1869	0.21674	0.13784	0.40884	0.17528	0.092587	0.18921	0.31757	0.20811	0.091537	0.024196	0.1018	0.13496	-2.4792	-3.1021	-2.7417	-3.0625	-3.15	-2.7687	-3.1854	-3.1292	-2.8396	-3.2375	-2.9688	-3.2021	-3.2521	-2.9958	-3.0542	-3.1562	120.505	227.116	286.280	-16.125	39.080	260.181	265.539	224.847	305.173	185.019	223.806	187.200	291.915	181.475	177.500	251.534	0.00048688	0.00085635	0.00015236	713.56	6.517e-06	5.953e-06	1020.8	262.46	5.6623e-06	8.9356e-06	488.71	216.91	108.17	50.681	7.519e-06	112.9	0.00059725	0.00051733	0.00014384	701.98	5.4701e-06	5.6637e-06	1005.7	258.82	5.5934e-06	5.5562e-06	479.66	215.72	107.67	50.318	5.8956e-06	112.11	123.311	32.580	14.684	-39.681	90.739	94.581	-39.486	-35.030	114.441	94.344	-36.321	-32.089	-32.114	-27.741	100.882	-28.587	-8191	255	
643.906	1	1	0	0	0.05232	0.17919	0.073731	0.11297	0.21042	0.31526	0.042353	0.23267	0.13779	0.2046	0.29199	0.23442	0.11115	0.15556	0.18645	0.44291	-2.3688	-3.2375	-2.8563	-2.9583	-3.1813	-2.7833	-3.3021	-3.2	-2.7896	-3.0625	-3.1375	-3.1063	-3.2479	-2.8187	-3.0375	-3.3	62.191	27.866	278.986	184.266	222.694	135.968	254.725	73.340	53.733	128.125	299.491	283.119	305.379	290.637	121.506	225.901	0.00046585	0.00065733	0.00025812	706.17	3.1581e-06	8.9915e-06	1011.5	260.32	4.9611e-06	6.6096e-06	489.24	218.93	108.25	50.846	7.5058e-06	113.07	0.00058561	0.00051803	0.00013964	694.87	5.3948e-06	5.7142e-06	999.33	257.39	5.6493e-06	5.7379e-06	480.12	217.19	107.96	50.589	5.9185e-06	112.67	123.916	35.350	40.641	-39.559	123.522	94.094	-39.885	-35.187	143.848	108.274	-36.269	-32.186	-32.061	-27.609	97.411	-28.802	-8191	255	
644.002	1	1	0	0	0.26044	0.1785	0.16765	0.043082	0.10794	0.08346	0.23668	0.36798	0.21769	0.042375	0.10724	0.2813	0.31685	0.28641	0.16825	0.11349	-2.4521	-2.9396	-3.0687	-2.9083	-3.2021	-2.7917	-3.1792	-3.2333	-2.7687	-3.0729	-3.1167	-3.1	-3.2125	-2.9562	-2.8729	-3.2583	258.679	278.508	107.372	306.493	189.367	28.782	255.289	236.896	267.941	228.253	141.486	210.294	265.858	244.486	-13.727	238.886	0.00048872	0.0011455	0.00033495	709.26	5.7452e-06	6.7838e-06	1016	261.98	2.5637e-06	7.4923e-06	490.05	218.85	108.61	50.921	5.3893e-06	113.14	0.00059442	0.00052504	0.000148	697.2	5.5309e-06	5.4755e-06	1002.2	258.44	5.7732e-06	5.701e-06	481.81	217.04	108.33	50.585	5.7893e-06	112.58	122.717	34.271	35.742	-39.953	97.545	85.952	-39.492	-35.221	118.388	92.654	-36.000	-32.151	-32.357	-27.552	90.459	-28.535	-8191	255	
644.074	1	1	0	0	0.10675	0.2559	0.29779	0.28799	0.079448	0.041485	0.05963	0.28167	0.18659	0.081891	0.25585	0.15603	0.24432	0.12021	0.19778	0.22813	-2.2771	-3.1604	-2.925	-3	-3.1771	-2.9333	-3.0146	-3.3958	-2.6958	-3.1333	-3.3271	-2.7167	-3.0771	-3.0458	-2.8458	-3.3708	-28.265	202.675	239.394	289.993	91.954	45.038	10.397	233.777	193.210	222.208	225.899	278.122	263.900	-25.330	186.854	215.435	0.00047453	0.0008074	0.00010323	712.73	2.842e-06	6.7651e-06	1019.6	261.66	3.7257e-06	6.8675e-06	489.83	217.63	108.22	50.864	6.951e-06	112.45	0.00058339	0.00052772	0.0001434	700.56	5.4e-06	5.5636e-06	1005.1	259.15	5.4509e-06	5.5965e-06	481.93	216.41	108	50.528	5.7428e-06	112.16	127.986	52.991	43.308	-39.827	116.697	109.043	-39.593	-35.258	99.149	108.899	-36.097	-32.055	-32.094	-27.435	114.993	-28.530	-8191	255	
644.170	1	1	0	0	0.10706	0.26019	0.17953	0.14892	0.078305	0.29763	0.25368	0.14914	0.030591	0.022875	0.080853	0.21352	0.20679	0.031447	0.10281	0.37555	-2.4833	-3.0521	-3.1625	-2.8833	-3.1854	-3.0083	-3.0417	-3.2354	-2.7687	-3.125	-3.025	-2.9042	-3.1792	-3.0896	-3.0062	-3.5917	94.178	168.820	214.198	272.349	267.121	29.588	260.384	16.013	115.400	17.928	93.402	-19.766	-7.247	268.168	-1.953	289.902	0.0004747	0.00080175	0.00021076	720.41	6.0165e-06	9.0919e-06	1029.3	265.03	3.5217e-06	6.3133e-06	492.93	218.38	108.41	50.738	7.5409e-06	113.16	0.00058183	0.00052962	0.00014437	709.17	5.5211e-06	5.8127e-06	1015.4	261.7	5.8325e-06	5.8169e-06	484.62	216.6	108.21	50.554	5.9097e-06	112.58	129.687	31.236	16.971	-39.777	97.311	63.977	-39.486	-35.244	96.661	100.476	-35.959	-31.771	-32.364	-27.846	113.938	-28.608	-8191	255	
644.290	1	1	0	0	0.097523	0.091912	0.37571	0.15534	0.083203	0.14472	0.12156	0.34037	0.28182	0.26339	0.14716	0.014207	0.027815	0.13718	0.21933	0.13468	-2.4729	-2.8625	-3.2646	-2.8187	-2.9729	-3.0187	-2.7708	-3.3729	-2.7812	-3.2	-3.2542	-3.1771	-3.1875	-3.1771	-2.8354	-3.2604	228.938	265.100	294.258	-0.149	228.962	205.562	181.161	248.722	16.608	306.819	293.753	158.373	305.287	-1.581	226.098	-50.073	0.00045075	0.00057752	0.00016094	712.57	6.4563e-06	1.0308e-05	1022.5	260.87	1.483e-06	6.1649e-06	489.53	218.84	109.05	50.9	6.8252e-06	113.23	0.00061904	0.00053126	0.00014834	702.47	5.7419e-06	5.9707e-06	1006	259.05	5.9695e-06	6.1403e-06	482.96	217.76	108.61	50.689	6.0082e-06	113.01	126.112	36.387	67.330	-39.837	113.376	125.646	-39.538	-35.175	66.370	122.455	-36.496	-32.136	-32.302	-27.780	120.933	-28.589	-8191	255	
644.387	1	1	0	0	0.29622	0.13125	0.23058	0.1751	0.16177	0.33822	0.21997	0.15337	0.22474	0.13942	0.23497	0.35915	0.10617	0.079826	0.21823	0.27728	-2.4667	-2.9	-2.9917	-2.9292	-3.1	-3.0438	-2.8	-3.1625	-3.0604	-2.8708	-3.2417	-3.1	-3.1083	-3.2521	-2.6813	-3.1896	281.224	154.273	137.965	218.615	3.798	266.948	-4.315	248.576	283.794	270.544	284.126	302.716	215.000	269.399	2.231	293.838	0.00046509	0.0006553	0.00018135	712.1	2.6604e-06	6.8483e-06	1024.9	263.26	5.7717e-06	4.036e-06	493.08	218.38	108.81	51.006	4.8294e-06	113.62	0.00060366	0.00054434	0.00015233	701.24	5.7843e-06	5.8617e-06	1009.7	260.51	5.7888e-06	5.9991e-06	485.21	217.34	108.44	50.702	5.7611e-06	113.06	122.940	20.567	7.054	-39.691	51.033	90.882	-39.353	-35.179	103.009	108.877	-36.325	-32.120	-32.120	-27.371	116.238	-28.305	-8191	255	
644.483	1	1	0	0	0.13584	0.27644	0.16339	0.075781	0.178	0.20952	0.35328	0.16371	0.1245	0.30613	0.2248	0.22778	0.041765	0.15449	0.19834	0.15312	-2.5708	-2.9354	-3.1583	-3.0125	-3.025	-3.1604	-2.9875	-3.2917	-3.0854	-2.9896	-3.2875	-3.1354	-2.9958	-3.1083	-2.8854	-3.4229	226.504	114.814	194.979	212.063	137.060	203.637	265.673	229.091	139.841	194.708	-39.784	266.642	-43.752	294.081	129.624	201.509	0.00043121	0.00099678	0.00014313	723.06	4.736e-06	7.7342e-06	1030.1	265.51	5.9455e-06	7.0556e-06	491.37	217.4	108.58	51.012	3.7747e-06	112.95	0.00061082	0.00053535	0.0001498	711.1	5.8063e-06	5.9483e-06	1015.3	261.98	5.9564e-06	5.687e-06	485.15	216.16	108.09	50.618	5.7998e-06	112.47	125.374	39.649	78.135	-39.537	118.699	75.489	-39.529	-35.243	70.667	84.448	-36.318	-32.147	-32.235	-27.652	72.559	-28.521	-8191	255	
644.579	1	1	0	0	0.032064	0.086193	0.14402	0.22326	0.27868	0.15824	0.21887	0.13381	0.27078	0.17429	0.24284	0.17476	0.24595	0.27113	0.28103	0.11382	-2.6021	-2.8854	-3.1813	-2.9833	-2.9646	-3.1167	-3.0771	-3.2	-3.1188	-3.0125	-3.1625	-3.1833	-2.9479	-3.4021	-2.8896	-3.3958	106.971	212.662	48.965	290.551	-38.798	161.860	-49.565	267.506	59.449	3.052	262.299	291.139	-49.654	267.301	87.390	194.062	0.00044457	0.00065253	0.00021401	725.16	6.8889e-06	8.886e-06	1033.4	265.89	3.2072e-06	6.7215e-06	493.47	217.74	107.81	50.602	3.4757e-06	113.43	0.0006094	0.00053847	0.00014554	711.68	5.8377e-06	5.8347e-06	1018.4	262.89	5.9197e-06	5.959e-06	486.21	216.18	107.8	50.449	5.9689e-06	112.51	120.928	13.297	28.001	-39.862	87.549	119.979	-39.799	-35.400	46.614	122.711	-36.122	-32.020	-32.522	-27.593	98.822	-28.515	-8191	255	
644.698	1	1	0	0	0.13028	0.22051	0.19903	0.080345	0.18312	0.22329	0.29247	0.071145	0.23358	0.26142	0.16159	0.025232	0.21536	0.34468	0.12734	0.10014	-2.6729	-2.9521	-3.1396	-2.9854	-2.9833	-3.0396	-2.9667	-2.9062	-3.0583	-3.0125	-3.2375	-3.2292	-2.85	-3.2562	-2.9729	-3.3688	106.160	88.022	126.755	150.566	130.355	220.809	195.674	275.993	237.460	85.047	277.375	164.371	219.349	127.650	66.547	53.386	0.00041529	0.00074659	0.00022813	723.65	7.4987e-06	5.1301e-06	1036.2	264.65	1.5967e-06	1.7575e-06	491.03	218.89	108.43	50.874	5.246e-06	113.14	0.00060489	0.00055329	0.00015012	715.04	5.9723e-06	5.9608e-06	1020.5	262.28	5.8645e-06	5.9926e-06	484.43	217.03	108.24	50.585	6.0759e-06	112.57	123.208	7.806	61.899	-39.905	80.393	104.362	-39.677	-35.371	134.517	103.340	-36.097	-32.123	-32.270	-27.711	81.003	-28.486	-8191	255	
644.771	1	1	0	0	0.12042	0.1472	0.1788	0.17529	0.17209	0.1878	0.28438	0.090323	0.20054	0.16798	0.073013	0.15806	0.17416	0.03839	0.2434	0.31683	-2.7646	-2.8167	-3.3021	-3.2	-2.9021	-3.25	-3.1042	-3.2125	-2.9917	-2.7646	-3.1125	-3.0917	-2.9354	-3.375	-2.7604	-3.1521	164.843	214.429	-4.808	-16.575	156.950	80.963	60.385	232.950	232.535	228.115	218.630	200.404	157.617	85.013	-21.889	247.762	0.00045823	0.0010245	0.00021516	710.28	7.0959e-06	5.0904e-06	1013.4	261.25	5.8711e-06	5.7031e-06	488.89	218.18	107.68	50.752	6.2184e-06	112.89	0.00061659	0.00056129	0.00015945	698.84	6.0286e-06	6.0404e-06	1002.5	257.91	5.9248e-06	5.8247e-06	482.25	217.37	107.86	50.455	5.9919e-06	112.44	126.039	31.146	31.915	-39.826	65.874	87.270	-39.464	-35.355	84.025	112.895	-36.183	-32.330	-32.337	-27.660	104.818	-28.446	-8191	255	
644.867	1	1	0	0	0.25011	0.198	0.046791	0.12988	0.24194	0.078792	0.29558	0.40595	0.13603	0.16387	0.2136	0.29133	0.17779	0.23309	0.1893	0.21519	-2.6771	-2.7875	-3.0333	-3.1708	-2.7917	-3.1354	-3.1771	-2.8333	-3.1667	-2.8958	-3.1312	-3.3542	-2.9437	-3.2896	-3.1146	-3.1875	77.451	273.893	-15.588	202.556	302.059	-34.051	261.650	286.054	197.420	-50.203	200.734	227.797	297.273	37.912	125.256	306.401	0.00041806	0.00095058	0.00018454	709.19	8.2975e-06	6.958e-06	1018.4	259.23	4.8864e-06	7.1456e-06	487.89	217.42	107.62	50.45	5.5025e-06	111.92	0.0005904	0.00052252	0.00014367	697.46	5.4891e-06	5.4254e-06	1001.2	256.89	5.5586e-06	5.6313e-06	480.95	215.82	107.55	50.175	5.5833e-06	111.59	119.794	46.319	43.342	-39.997	95.901	95.426	-39.464	-35.282	85.443	103.617	-36.174	-32.035	-32.345	-27.453	117.879	-28.517	-8191	255	
644.986	1	1	0	0	0.26023	0.13831	0.13849	0.13319	0.13276	0.2161	0.13692	0.21035	0.11162	0.1905	0.28477	0.22668	0.13438	0.11082	0.24202	0.093588	-2.625	-2.7104	-2.9521	-3.0771	-2.6854	-3.2229	-3.0875	-3.2083	-3.2333	-3.1167	-3.1688	-3.25	-3.1292	-3.2667	-3.0187	-3.1937	-34.627	139.796	245.541	254.472	18.972	152.880	70.419	260.399	291.820	-17.513	107.462	290.233	298.419	254.407	123.354	215.217	0.00045321	0.0011627	0.00026017	721.37	6.6383e-06	7.606e-06	1022.7	263.03	4.6503e-06	7.7623e-06	487.97	216.84	107.57	50.588	3.4698e-06	112.68	0.00057668	0.00051631	0.00014138	706.32	5.4151e-06	5.3872e-06	1009.2	260.09	5.4996e-06	5.6226e-06	480.59	215.77	107.56	50.292	5.8058e-06	112.18	126.467	21.502	44.183	-39.678	98.148	98.482	-39.806	-35.061	100.901	89.554	-35.771	-32.074	-32.222	-27.582	123.610	-28.509	-8191	255	
645.082	1	1	0	0	0.1726	0.1899	0.3743	0.22561	0.21371	0.11307	0.18127	0.23284	0.21625	0.050186	0.080537	0.17847	0.14096	0.22889	0.12982	0.25826	-2.8979	-2.9583	-2.9938	-3.2625	-3.0687	-3.1292	-3.1292	-2.8854	-3.1521	-2.8812	-2.9833	-3.2208	-2.675	-3.3125	-3.1417	-3.0979	161.960	204.084	-46.079	198.854	54.214	12.237	272.378	236.635	69.942	141.767	271.697	268.347	302.659	-33.013	241.550	261.010	0.00045902	0.00094815	0.00015405	718.93	4.1858e-06	3.3612e-06	1031.8	264.09	3.9765e-06	8.0031e-06	492.07	216.62	107.91	50.652	2.8437e-06	113.36	0.00058998	0.00051943	0.00014622	709.64	5.5612e-06	5.7278e-06	1016.1	261.47	5.7637e-06	5.9676e-06	484.13	215.46	107.66	50.402	5.9343e-06	112.45	123.845	16.983	47.375	-39.521	91.811	99.848	-39.640	-34.854	99.170	78.098	-35.946	-31.972	-31.931	-27.583	77.306	-28.590	-8191	255	
645.179	1	1	0	0	0.071756	0.11686	0.18301	0.17406	0.026048	0.10272	0.20766	0.2173	0.23359	0.17491	0.27378	0.278	0.15217	0.32248	0.1126	0.15883	-2.8688	-2.8729	-2.9021	-3.2896	-2.8917	-3.0875	-3.1771	-2.7875	-3.0292	-2.9062	-2.8812	-3.2917	-2.8354	-3.1667	-3.0187	-2.8063	193.160	184.448	303.090	-37.564	283.083	101.075	243.454	189.171	200.164	-0.202	184.431	203.700	257.260	283.526	233.823	202.289	0.00049949	0.00091532	0.00021901	717.38	2.98e-06	5.2129e-06	1024	260.28	2.2373e-06	7.0843e-06	484.32	217.27	107.18	50.493	2.8423e-06	112.29	0.00060749	0.00054936	0.0001536	705.47	5.9e-06	6.2208e-06	1007.9	257.91	6.3235e-06	6.422e-06	481.28	216.04	106.98	49.994	6.4604e-06	111.52	124.183	37.608	19.430	-39.518	89.863	81.461	-39.480	-35.261	111.753	96.065	-36.005	-32.027	-32.386	-27.719	100.174	-28.586	-8191	255	
645.275	1	1	0	0	0.057856	0.075624	0.21967	0.1343	0.1016	0.29592	0.32447	0.30678	0.19533	0.041672	0.29884	0.26547	0.17527	0.11427	0.22599	0.30608	-2.8792	-2.7833	-2.7896	-3.2	-2.8708	-2.8292	-3.2667	-2.9313	-3.1646	-3.0146	-3.0042	-3.4021	-2.9104	-3.2125	-3.1604	-3.0417	157.982	162.726	149.623	294.554	66.041	49.587	175.489	294.744	29.921	306.435	186.051	271.354	212.375	286.710	205.999	-23.053	0.00042685	0.00080309	0.00017185	691.42	2.1562e-06	7.9672e-06	994.02	251.3	4.4755e-06	4.9196e-06	476.76	214.52	105.05	48.734	3.8066e-06	109.17	0.00064696	0.00059613	0.0001674	679.36	6.3617e-06	6.5083e-06	983.92	248.94	6.6688e-06	6.8838e-06	472.09	213.1	105.14	48.52	6.7435e-06	108.75	128.243	21.479	10.902	-39.807	89.056	82.599	-39.479	-35.410	43.411	67.887	-36.639	-32.210	-32.467	-28.021	76.380	-28.741	-8191	255	
645.371	1	1	0	0	0.13355	0.19791	0.062948	0.10758	0.045496	0.076386	0.11179	0.24131	0.14555	0.064624	0.093339	0.3581	0.17971	0.16094	0.054952	0.34295	-2.725	-3.0396	-2.9208	-3.2479	-2.85	-2.7854	-3.325	-2.9729	-3.2104	-3.2583	-2.8583	-3.3208	-3.025	-2.9854	-3.1813	-3.125	-39.970	14.319	240.892	266.542	193.590	193.182	243.716	-45.075	12.764	224.913	47.195	290.612	46.756	299.411	3.335	237.967	0.00049149	0.0012149	0.00020831	658.1	2.8687e-06	5.5033e-06	976.95	245.37	4.4387e-06	9.9862e-06	474.67	212.35	104.17	47.887	6.3768e-06	108	0.00066449	0.00062527	0.00017424	650.24	6.7301e-06	6.9196e-06	962.5	242.26	7.0015e-06	6.7595e-06	468.34	210.94	104.02	47.625	6.8697e-06	107.63	129.030	6.929	59.598	-39.747	90.605	87.320	-39.478	-35.506	78.940	97.349	-36.139	-32.415	-32.487	-27.888	103.852	-28.795	-8191	255	
645.467	1	1	0	0	0.25585	0.088944	0.0127	0.19044	0.19382	0.30384	0.22227	0.090254	0.2789	0.074524	0.22883	0.19483	0.20472	0.23546	0.32877	0.24374	-2.6937	-2.9396	-2.8646	-3.2125	-2.8667	-2.7583	-3.2396	-2.9833	-3.0417	-3	-2.7833	-3.4479	-3.1146	-2.8833	-3.1667	-2.9188	5.697	189.128	8.206	276.720	305.688	6.310	240.008	198.016	143.026	168.019	234.410	-6.428	253.536	4.163	171.274	283.895	0.00047494	0.00085571	0.00025063	652.56	6.9767e-06	4.9964e-06	971.32	242.74	6.8122e-06	9.6131e-06	473.98	211.82	104.06	47.656	4.5802e-06	108.39	0.00067637	0.00062752	0.000174	640.73	6.7891e-06	6.8932e-06	958.24	240.76	6.7924e-06	6.8659e-06	467.03	210.65	103.92	47.534	6.9336e-06	107.71	127.715	35.093	58.744	-39.844	111.137	107.440	-39.560	-35.898	74.179	80.057	-36.183	-32.452	-32.611	-27.735	108.199	-28.883	-8191	255	
645.588	1	1	0	0	0.10589	0.1309	0.18535	0.15295	0.194	0.043866	0.10416	0.11941	0.11368	0.12664	0.22009	0.19958	0.14669	0.2908	0.28716	0.37864	-2.7104	-3.0062	-2.7042	-3.2125	-2.9146	-2.7458	-3.3979	-3.0854	-3.0667	-3.2313	-3.0667	-3.3812	-3.025	-2.85	-3.2542	-3.0354	252.919	266.534	-12.426	-6.634	183.423	102.010	123.798	225.937	4.240	163.984	216.038	201.958	-49.943	237.410	120.332	301.434	0.00044191	0.00071312	0.00027918	659.95	2.8468e-06	4.6934e-06	977.87	244.65	3.5437e-06	6.7535e-06	473.72	211.67	105.3	47.925	2.605e-06	108.2	0.00067021	0.0006316	0.00017197	650.53	6.6222e-06	6.6925e-06	968.84	242.25	6.6551e-06	6.7758e-06	468.53	210.38	104.54	47.687	6.792e-06	107.76	126.173	40.754	19.179	-39.705	84.557	92.141	-39.583	-35.495	86.132	121.958	-36.319	-32.374	-32.267	-27.897	146.022	-28.650	-8191	255	
645.684	1	1	0	0	0.27157	0.15692	0.18145	0.21771	0.42209	0.13794	0.19249	0.096331	0.10643	0.15489	0.10946	0.21599	0.2062	0.30135	0.15784	0.091796	-2.475	-2.9896	-2.75	-3.1104	-2.7229	-2.7854	-3.3438	-2.9062	-2.8	-2.9083	-2.9021	-3.1729	-3.0271	-2.9667	-3.125	-3.0479	114.806	80.862	65.123	267.930	285.008	-48.549	213.316	165.922	44.096	166.633	68.030	280.339	-33.500	275.594	30.867	251.118	0.00043371	0.0010989	0.00023698	665.6	5.6678e-06	1.0626e-05	983.39	244.66	5.585e-06	3.0779e-06	472.5	210.49	103.68	47.82	2.4322e-06	108	0.000653	0.00059709	0.00017141	655.93	6.3516e-06	6.5611e-06	969.69	242.23	6.4074e-06	6.5273e-06	466.19	209.11	103.28	47.531	6.3105e-06	107.43	126.747	25.761	36.637	-39.665	109.013	103.073	-39.776	-35.646	67.495	117.715	-36.315	-32.307	-32.475	-27.542	87.670	-28.458	-8191	255	
645.780	1	1	0	0	0.16934	0.14212	0.050365	0.052456	0.11436	0.066525	0.27551	0.10016	0.37722	0.13824	0.094023	0.47178	0.064211	0.10491	0.23634	0.13009	-2.4437	-2.9854	-2.8563	-2.9896	-3.0312	-2.6271	-3.2208	-3.0792	-2.8854	-3.0604	-3.0687	-3.0729	-3.2208	-2.7812	-3.1333	-3.2229	261.025	297.213	251.026	113.941	29.801	295.446	222.176	187.452	151.870	118.726	226.181	258.613	203.661	296.368	75.317	254.295	0.0004807	0.0012841	0.00023114	670.14	7.2251e-06	5.7741e-06	985.72	245.61	7.3738e-06	3.8038e-06	473.61	210.42	103.7	48.191	6.3554e-06	108.42	0.00061674	0.00057148	0.00016215	661.29	5.8464e-06	6.0903e-06	969.24	243.71	5.8632e-06	5.9977e-06	466.01	209.15	103.27	47.781	5.8924e-06	107.74	126.027	56.114	47.707	-39.607	103.152	111.352	-39.498	-35.310	123.699	58.668	-36.065	-32.061	-32.288	-27.700	108.394	-28.641	-8191	255	
645.874	1	1	0	0	0.037298	0.37727	0.17467	0.28676	0.079476	0.075201	0.26399	0.089586	0.24573	0.019195	0.24088	0.10063	0.37562	0.10172	0.031218	0.29695	-2.3333	-3.0542	-2.7042	-3.1375	-3.0708	-2.8208	-3.0875	-3.1354	-2.7396	-3.1646	-3.0479	-3.125	-3.0958	-2.8521	-3.0854	-3.2438	176.009	19.510	281.978	290.154	57.826	12.234	264.682	-2.644	223.387	58.630	-42.435	269.988	-19.626	-37.980	87.674	246.641	0.00040723	0.00086114	0.00022543	669.45	6.8244e-06	4.2721e-06	981.09	246.22	7.6628e-06	6.7157e-06	470.9	210.92	103.29	48.109	4.4635e-06	108.76	0.00059376	0.00052696	0.00015002	659.71	5.5901e-06	5.7217e-06	964.85	244.27	5.758e-06	5.845e-06	465.5	209.86	103.21	47.933	5.9072e-06	107.95	125.780	10.265	48.465	-39.698	58.943	107.031	-39.431	-35.512	84.886	88.896	-36.077	-32.081	-32.161	-27.609	83.889	-28.486	-8191	255	
645.948	1	1	0	0	0.23101	0.10674	0.067115	0.1205	0.18362	0.14983	0.13334	0.23687	0.11662	0.012656	0.13209	0.18729	0.20681	0.17734	0.1541	0.34983	-2.3063	-2.9021	-2.8896	-3.0125	-3.2729	-2.9604	-3.1729	-3.2583	-2.8125	-3.1688	-3.0333	-2.8854	-3.2125	-2.9292	-3.1521	-3.375	167.903	112.895	250.415	114.460	157.090	15.894	258.438	228.100	304.543	267.129	49.909	245.634	-5.943	275.839	158.598	261.569	0.00041994	0.00072459	0.00026832	673.11	4.7748e-06	5.5013e-06	981.15	249.51	7.2294e-06	5.3441e-06	479.23	211.55	103.78	48.485	2.4532e-06	109.3	0.00058267	0.00052344	0.00014566	661.06	5.4506e-06	5.7048e-06	968.35	246.56	5.6952e-06	5.8052e-06	469.68	210.14	103.61	48.158	5.8309e-06	108.59	120.180	28.526	40.453	-39.674	94.508	97.923	-39.532	-35.315	93.412	103.511	-35.876	-32.043	-32.207	-27.727	107.714	-28.540	-8191	255	
646.067	1	1	0	0	0.34815	0.039114	0.11768	0.033018	0.20893	0.18229	0.24146	0.17664	0.1023	0.35342	0.06431	0.17574	0.22623	0.11466	0.13066	0.23247	-2.4333	-3.2271	-2.8	-2.8104	-3.0771	-2.975	-3.1354	-3.4229	-2.8563	-3.2042	-3.0354	-3.0583	-3.3146	-2.9917	-2.9396	-3.3354	53.083	72.024	243.765	-46.068	142.400	165.944	291.061	260.248	111.602	244.158	75.941	283.468	-32.232	276.367	297.046	254.156	0.00048185	0.00028759	0.00025078	674.39	4.5079e-06	6.7991e-06	986.31	250.21	3.2011e-06	5.7488e-06	474.46	210.11	103.29	48.264	6.1503e-06	108.67	0.00058251	0.00052494	0.00014569	664.54	5.6817e-06	5.5412e-06	969.95	247.32	5.4662e-06	5.5618e-06	467.86	209.8	103.4	48.025	5.5875e-06	108.18	119.781	14.362	46.849	-39.757	111.351	94.228	-39.508	-35.090	114.075	127.005	-36.137	-32.221	-32.245	-27.611	118.579	-28.408	-8191	255	
646.163	1	1	0	0	0.084124	0.36902	0.14062	0.050079	0.11382	0.1591	0.46359	0.079964	0.062562	0.19682	0.18691	0.1441	0.043307	0.036033	0.45806	0.36457	-2.5417	-3.0187	-2.9646	-2.8104	-3.2375	-2.8729	-3.0771	-3.3542	-2.9	-3.2333	-3.2292	-2.9813	-3.3021	-3.0104	-2.9562	-3.3229	147.973	22.504	97.477	52.734	304.684	61.018	11.717	231.303	48.937	96.044	282.550	288.026	113.479	26.261	119.281	246.574	0.00048291	0.00078978	0.00030072	675.94	3.6825e-06	4.377e-06	984.03	250.85	2.6757e-06	8.596e-06	478.96	211.36	104.07	48.369	5.0779e-06	108.88	0.00057189	0.00050742	0.00013948	665.88	5.5274e-06	5.4606e-06	971.92	248.24	5.5088e-06	5.6806e-06	469.84	209.99	103.73	48.113	5.6757e-06	108.29	124.751	35.922	27.449	-39.687	87.923	63.676	-39.376	-35.106	80.740	110.740	-35.748	-32.226	-31.827	-27.699	81.147	-28.624	-8191	255	
646.259	1	1	0	0	0.1309	0.13344	0.23994	0.14506	0.039834	0.10431	0.26401	0.086538	0.26433	0.37719	0.080419	0.37372	0.029859	0.24166	0.11356	0.21893	-2.5292	-3.0604	-3.0687	-2.8875	-3.1771	-3.0042	-3.1188	-3.4104	-2.85	-3.2292	-3.3271	-3.0521	-3.3438	-3.1417	-2.9375	-3.5604	162.477	120.717	27.373	142.074	47.804	295.972	213.683	251.048	-0.953	78.799	-43.292	253.089	279.298	9.073	261.401	256.856	0.00043537	0.00059189	0.00015078	686.58	6.5389e-06	6.1304e-06	993.02	252.8	1.8202e-06	5.186e-06	477.68	211.77	104.85	48.594	4.758e-06	109.61	0.00056369	0.00050132	0.00013844	674.02	5.5008e-06	5.4489e-06	978.62	250.18	5.4091e-06	5.543e-06	471.93	210.67	104.34	48.372	5.4556e-06	108.93	127.409	41.064	27.136	-39.854	81.284	52.844	-39.534	-35.056	141.085	103.543	-35.910	-31.866	-31.853	-27.542	99.871	-28.446	-8191	255	
646.355	1	1	0	0	0.15996	0.32224	0.10317	0.11257	0.07256	0.13763	0.28655	0.24217	0.25339	0.25966	0.2807	0.30199	0.11309	0.089058	0.086915	0.25645	-2.4792	-3.0687	-3.2812	-2.8271	-3.0812	-2.9854	-3.0229	-3.1542	-2.9313	-2.8021	-3.35	-3.0396	-3.1292	-3.1021	-2.775	-3.3354	12.089	47.548	8.753	286.104	-47.576	61.674	201.237	276.984	-31.801	160.559	278.040	258.388	279.152	287.497	23.686	295.529	0.00040429	0.00072272	0.00033345	695.38	4.7077e-06	8.47e-06	997.74	255.17	3.4755e-06	6.3228e-06	481.66	213.23	104.98	48.894	8.3184e-06	109.41	0.00057115	0.00049463	0.00013701	681.98	5.3118e-06	5.3636e-06	984.31	252.81	5.306e-06	5.4786e-06	474.22	211.57	104.67	48.606	5.4293e-06	109.04	132.141	58.463	42.700	-39.637	105.753	104.589	-39.681	-35.204	88.750	103.143	-35.758	-32.223	-32.156	-27.611	101.015	-28.289	-8191	255	
646.476	1	1	0	0	0.1215	0.057386	0.11258	0.17025	0.063107	0.12303	0.14512	0.11106	0.11327	0.1963	0.13727	0.26654	0.043366	0.11685	0.19739	0.17264	-2.6042	-2.9729	-3.1854	-2.9271	-3.2333	-3.0625	-2.9354	-3.15	-2.9437	-2.8187	-3.3708	-3.1083	-3.0833	-3.0729	-2.7875	-3.5208	286.941	240.106	-2.086	160.573	221.193	106.194	175.679	228.471	303.981	73.418	248.357	251.063	202.684	284.795	187.603	242.946	0.00038336	0.00072963	0.00021876	694.24	7.3034e-06	3.2493e-06	993.64	255.43	5.6014e-06	7.1939e-06	481.67	212.83	104.62	48.532	5.1055e-06	109.26	0.00056203	0.00049875	0.00013508	684	5.3289e-06	5.3168e-06	985.43	252.77	5.3661e-06	5.3794e-06	472.78	210.83	104.11	48.351	5.4793e-06	108.72	130.367	9.359	25.100	-39.651	76.065	101.913	-39.483	-35.126	98.291	105.049	-35.964	-32.002	-32.321	-27.506	85.847	-28.471	-8191	255	
646.572	1	1	0	0	0.27693	0.097597	0.085379	0.056166	0.088003	0.048585	0.10803	0.21227	0.16262	0.093685	0.18566	0.18967	0.15672	0.28149	0.22336	0.20587	-2.5687	-2.6479	-3.1292	-3.0708	-2.9042	-3.1417	-2.8354	-3.1312	-2.8833	-2.8917	-3.3063	-3.0312	-2.9958	-3.0792	-2.9146	-3.3312	-5.428	276.328	-36.017	190.421	-21.540	229.506	237.030	188.346	223.192	204.602	18.825	264.345	-26.134	300.857	234.318	219.904	0.00045637	0.00065375	0.00022645	696.45	4.5622e-06	9.9524e-06	1000.9	256.75	4.9128e-06	6.9759e-06	479.38	212.39	104.89	48.854	2.9444e-06	109.65	0.00056894	0.0004889	0.0001399	685	5.4262e-06	5.3687e-06	985.7	253.51	5.1922e-06	5.2745e-06	472.97	211.08	104.62	48.509	5.5205e-06	108.98	116.789	57.990	49.226	-39.415	69.394	108.104	-39.579	-35.157	92.442	109.129	-36.284	-31.978	-32.256	-27.418	122.837	-28.381	-8191	255	
646.668	1	1	0	0	0.075996	0.12536	0.14144	0.16228	0.16906	0.17184	0.11358	0.16172	0.16927	0.16658	0.18975	0.16511	0.12457	0.30186	0.27251	0.13704	-2.7104	-2.9083	-3.3333	-3.0667	-2.9729	-3.0542	-2.9875	-3.1792	-3.0375	-2.9146	-3.2146	-3.0208	-2.8854	-3.2562	-2.9313	-3.1312	137.067	108.969	103.140	301.572	60.104	-34.732	271.988	118.696	9.263	252.976	33.703	122.538	-23.723	289.000	31.948	251.320	0.00046149	0.00081531	0.00016738	699.12	7.3604e-06	6.7766e-06	1006.8	257.4	4.9468e-06	6.1616e-06	484.8	212.63	105.83	49.131	3.0587e-06	109.94	0.0005844	0.00049779	0.00013683	687.52	5.2223e-06	5.4544e-06	989.7	254.74	5.3676e-06	5.427e-06	475.93	211.51	105.01	48.69	5.5948e-06	109.47	123.604	35.707	37.500	-39.683	110.936	97.082	-39.603	-35.105	88.933	114.873	-36.325	-31.973	-32.245	-27.548	105.641	-28.387	-8191	255	
646.764	1	1	0	0	0.067942	0.085958	0.13348	0.16347	0.026992	0.11786	0.17659	0.11719	0.05544	0.298	0.24937	0.33795	0.12676	0.20563	0.13925	0.10709	-2.8125	-2.7292	-3.1312	-2.9917	-2.8833	-3.1729	-2.8896	-3.0771	-3.0521	-2.7917	-3.1208	-3.1521	-2.9167	-3.3917	-2.8438	-3.2875	170.723	1.666	267.409	256.062	109.110	129.114	4.067	-44.359	17.641	287.767	274.870	254.406	179.945	251.864	247.005	241.212	0.00045224	0.00081262	0.00021966	700.62	6.9077e-06	5.6462e-06	1008.1	258.77	3.5122e-06	1.9232e-06	486.59	213.26	105.34	49.309	7.3456e-06	110.52	0.00057634	0.0005214	0.0001404	688.59	5.414e-06	5.4746e-06	992.72	256.12	5.5209e-06	5.4243e-06	477.73	212.45	105.14	48.974	5.5963e-06	109.91	124.475	38.124	35.308	-39.512	99.824	74.034	-39.640	-34.928	123.328	88.191	-36.178	-31.976	-31.962	-27.640	111.224	-28.316	-8191	255	
646.860	1	1	0	0	0.10988	0.095642	0.27612	0.052635	0.066784	0.21902	0.2711	0.13149	0.14591	0.29075	0.32379	0.18217	0.18417	0.25143	0.18664	0.04479	-2.9146	-2.7812	-3.1646	-3.1333	-2.9479	-3.175	-2.9625	-2.9979	-3.2333	-2.8812	-3.0917	-3.125	-2.9354	-3.2938	-2.8875	-3.1292	25.114	13.440	281.404	258.502	-33.035	49.354	291.086	240.676	168.435	249.284	256.122	3.861	22.519	265.558	38.030	219.551	0.00044378	0.00051568	0.00018996	702.61	6.2948e-06	4.9786e-06	1007.9	258.71	4.4358e-06	5.9921e-06	482.76	212.98	105.23	49.069	6.4921e-06	110.25	0.00057421	0.00050058	0.0001417	691.87	5.2689e-06	5.5795e-06	993.32	256.01	5.3128e-06	5.6014e-06	475.68	211.97	105.26	48.811	5.5448e-06	109.54	121.830	47.752	57.486	-39.785	81.831	89.754	-39.598	-35.283	78.373	87.769	-35.773	-31.876	-32.093	-27.491	100.127	-28.462	-8191	255	
646.956	1	1	0	0	0.075522	0.10259	0.16826	0.30565	0.24577	0.074847	0.11708	0.03413	0.15905	0.26583	0.096843	0.17682	0.19987	0.23773	0.0342	0.31253	-2.8417	-2.6417	-2.8417	-3.1167	-2.8042	-3.1229	-3.0854	-3.0271	-3.1667	-2.9021	-3.0917	-3.1083	-2.9292	-3.0938	-2.8688	-2.9833	-3.922	254.684	221.105	302.866	-3.904	290.886	202.569	206.138	111.313	257.113	24.345	245.960	171.766	209.794	94.982	292.654	0.00041513	0.00052526	0.000171	703.99	6.0684e-06	9.0704e-06	1010.2	260.69	2.1636e-06	7.6072e-06	487.2	213.26	106.09	49.114	5.5716e-06	110.11	0.00056736	0.00049743	0.00013895	693	5.4082e-06	5.5019e-06	995.41	257.28	5.3423e-06	5.5874e-06	478.13	212.12	105.71	49.041	5.6347e-06	109.78	123.851	36.213	67.257	-39.746	76.398	82.932	-39.614	-35.325	70.598	97.675	-35.947	-32.181	-31.975	-27.587	108.867	-28.324	-8191	255	
647.075	1	1	0	0	0.2526	0.29514	0.10769	0.2237	0.078417	0.03626	0.094678	0.42442	0.24919	0.03405	0.13249	0.16965	0.15536	0.17659	0.10141	0.052665	-2.9562	-3.0854	-3.0708	-3.3021	-2.6542	-3.2542	-3.0917	-2.9562	-3.2354	-2.7875	-2.9354	-3.3312	-2.8896	-3.1854	-3.0333	-2.9479	291.594	-29.303	288.331	-38.199	72.500	250.916	255.332	-35.655	185.034	245.711	-41.997	294.270	10.516	-17.560	93.333	141.744	0.00041031	0.00085441	0.00020903	707.56	5.1215e-06	3.3633e-06	1016.8	261.71	4.5288e-06	1.0108e-05	487.85	215.05	106.81	49.585	6.5554e-07	110.75	0.00058116	0.00052652	0.00014411	697.09	5.5997e-06	5.6456e-06	1001.5	258.13	5.7477e-06	5.8346e-06	480.76	213.95	106.33	49.364	5.9394e-06	110.45	121.297	39.864	49.716	-39.340	118.525	88.006	-39.492	-35.296	94.977	75.804	-35.721	-31.924	-32.144	-27.436	100.060	-28.522	-8191	255	
647.171	1	1	0	0	0.048069	0.13309	0.20478	0.21954	0.076708	0.19107	0.27922	0.028651	0.19379	0.17171	0.12561	0.17321	0.33219	0.29124	0.23586	0.30237	-2.8729	-2.9688	-2.9292	-3.0854	-2.9062	-2.9	-3.2333	-2.9958	-3.1729	-2.8875	-2.9146	-3.2083	-2.8958	-3.1	-3.0042	-3.0854	24.847	205.172	272.621	159.812	180.851	104.151	304.420	285.830	32.570	231.301	17.444	239.877	1.000	296.391	-50.891	260.892	0.00045248	0.00092291	0.00033205	709.34	6.5435e-06	7.3284e-06	1019.2	261.62	6.1091e-06	4.2635e-06	488.71	214.93	106.48	49.8	6.9631e-06	111.89	0.00060979	0.00054962	0.00015008	697.69	5.9217e-06	6.0468e-06	1003.9	259.26	6.1065e-06	6.1976e-06	482.22	214.46	106.71	49.587	6.2345e-06	111.09	119.799	37.451	47.338	-39.561	99.756	90.293	-39.441	-35.276	96.565	98.055	-36.044	-32.138	-31.931	-27.560	125.916	-28.415	-8191	255	
647.268	1	1	0	0	0.26892	0.24506	0.091636	0.204	0.063145	0.31776	0.1977	0.16975	0.035304	0.094947	0.082466	0.22744	0.27714	0.42139	0.18922	0.39255	-2.75	-2.9271	-2.8458	-3.1875	-2.8688	-3.0792	-3.25	-2.7313	-3.0917	-3.0396	-2.9292	-3.1146	-3.0271	-3.2417	-3.1646	-2.9604	27.951	110.521	163.076	263.797	258.912	99.834	292.907	-15.850	65.845	-50.556	-49.884	-41.649	236.329	-48.336	108.975	246.032	0.00042165	0.000905	0.00025693	709.14	7.8508e-06	8.0586e-06	1018.5	260.95	4.8784e-06	7.8297e-06	483.7	215.16	106.52	49.357	6.8864e-06	111.23	0.00061023	0.00057927	0.00015278	697.48	6.0135e-06	6.3463e-06	1001.7	258.54	6.2111e-06	6.414e-06	479.57	213.8	106.32	49.34	6.4892e-06	110.34	120.431	34.124	48.483	-39.550	78.713	81.215	-39.692	-35.444	97.408	113.067	-36.045	-31.954	-31.958	-27.312	102.758	-28.390	-8191	255	
647.364	1	1	0	0	0.065313	0.18853	0.045562	0.25587	0.09256	0.34293	0.27952	0.040238	0.082287	0.28663	0.068554	0.29694	0.15546	0.15608	0.057993	0.11524	-2.7438	-3.025	-2.8708	-3.3937	-3.0083	-3.0583	-3.1937	-3.0875	-3.1083	-3.0229	-3.05	-3.4479	-2.9729	-2.7479	-3.1146	-3.0312	122.263	283.841	192.497	271.458	166.332	-42.473	280.182	38.238	-13.913	41.871	270.627	305.491	46.183	34.201	94.031	301.275	0.00039969	0.000462	0.00017604	702.39	5.795e-06	9.1141e-06	1013.1	260.4	1.6397e-06	8.275e-06	488.93	214.28	106.47	49.42	2.4354e-06	110.8	0.00062757	0.00058129	0.00016211	694.2	6.2297e-06	6.5685e-06	998.39	257.63	6.3296e-06	6.3974e-06	480.1	213.22	106.22	49.214	6.4777e-06	110.37	123.378	41.854	26.130	-39.334	89.125	78.238	-39.446	-35.426	78.546	113.312	-36.217	-31.958	-32.118	-27.734	113.054	-28.612	-8191	255	
647.460	1	1	0	0	0.08893	0.14151	0.16607	0.18614	0.11376	0.16285	0.23586	0.1767	0.024504	0.02195	0.10043	0.33627	0.13399	0.17802	0.1204	0.14952	-2.8146	-2.9458	-2.9833	-3.2333	-3.0417	-3.0167	-3.4	-2.9437	-3.0375	-3.0792	-2.8625	-3.3229	-3.2354	-2.9958	-3.25	-2.9833	170.030	106.990	297.420	222.915	209.966	152.726	280.699	222.544	42.761	38.950	205.115	286.746	-5.625	234.925	113.431	262.177	0.00041893	0.00086079	0.00028506	710.06	3.1173e-06	9.1636e-06	1018.7	261.07	4.7e-06	6.9896e-06	486.15	215.05	106.7	49.747	5.5474e-06	111.2	0.00063254	0.00058704	0.00016139	696.29	6.2122e-06	6.5129e-06	1000.8	257.63	6.4506e-06	6.3956e-06	479.68	213.95	106.3	49.403	6.3884e-06	110.63	130.184	29.151	29.015	-39.658	107.619	73.779	-39.364	-35.135	111.398	83.448	-36.529	-31.787	-32.150	-27.534	88.576	-28.354	-8191	255	
647.556	1	1	0	0	0.025198	0.16765	0.02773	0.066338	0.20467	0.21395	0.099562	0.17146	0.087416	0.098142	0.03763	0.25399	0.32893	0.28478	0.23032	0.19941	-2.6063	-3.0542	-2.925	-3.2792	-3.1229	-3.0271	-3.4146	-2.9896	-2.9604	-3.1792	-3	-3.4458	-3.1479	-2.975	-3.1771	-2.9958	297.602	123.109	227.084	220.401	-35.635	268.526	276.009	261.552	173.185	182.244	291.606	299.535	224.069	215.920	227.662	261.630	0.00047759	0.00065757	0.00027745	709.17	4.7354e-06	6.1799e-06	1013.1	261.46	5.061e-06	7.6011e-06	489.52	215.74	106.24	49.809	2.6782e-06	111.09	0.0006335	0.00058778	0.00016431	695.72	6.3123e-06	6.5349e-06	1000.3	257.58	6.3536e-06	6.3892e-06	480.3	214.44	106.44	49.422	6.564e-06	110.76	125.500	27.553	55.625	-39.859	46.269	76.114	-39.425	-35.147	96.690	116.129	-36.017	-32.036	-31.826	-27.488	74.799	-28.586	-8191	255	
647.652	1	1	0	0	0.36111	0.09953	0.254	0.23631	0.1706	0.2241	0.19815	0.15746	0.26729	0.080209	0.013813	0.11817	0.4241	0.29121	0.049736	0.25933	-2.5479	-3.1542	-2.7708	-3.2875	-3.0729	-2.825	-3.0333	-2.5729	-2.7896	-2.8979	-2.6312	-2.9813	-2.7687	-2.7604	-2.8229	-2.9	246.743	202.316	191.155	251.857	13.486	6.771	213.693	194.393	-8.715	80.979	288.059	176.886	301.948	270.549	209.478	205.320	0.00043293	0.0011408	0.00028918	706.06	3.6242e-06	8.1298e-06	1013.5	259.95	4.2403e-06	8.4512e-06	486.47	215.5	106.01	49.408	4.9811e-06	110.9	0.00062704	0.00058986	0.00015833	696.1	6.2122e-06	6.3819e-06	999.16	257.45	6.3874e-06	6.4558e-06	480.65	213.61	105.7	49.13	6.3878e-06	110.12	132.881	30.928	37.293	-39.452	135.549	88.582	-39.509	-35.092	97.114	83.132	-36.085	-32.076	-31.850	-27.575	97.808	-28.287	-8191	255	
647.771	1	1	0	0	0.080577	0.17982	0.13187	0.092899	0.025942	0.18522	0.15572	0.061228	0.13529	0.10522	0.13603	0.14492	0.18713	0.32663	0.092536	0.48015	-2.2229	-2.775	-2.5146	-2.9292	-2.9125	-2.7479	-3.0625	-2.9625	-2.8167	-2.9271	-2.6312	-2.8	-2.9625	-2.5542	-3.0271	-2.9104	59.896	-49.483	18.229	18.287	140.020	285.099	209.841	42.930	154.114	81.993	234.511	262.468	-27.192	4.553	81.049	245.057	0.00044207	0.00089054	0.00020189	700.19	5.8344e-06	6.0968e-06	1011.5	260.04	4.2333e-06	5.4041e-06	484.7	214.28	106.27	49.252	4.1057e-06	110.81	0.00063763	0.00058269	0.00016331	692.36	6.1833e-06	6.2395e-06	996.8	257.35	6.1422e-06	6.3598e-06	478.7	213.25	105.96	49.105	6.5511e-06	110.19	125.905	33.573	43.783	-39.351	80.151	103.319	-39.387	-34.981	88.204	114.927	-36.507	-31.984	-31.758	-27.445	102.537	-28.386	-8191	255	
647.867	1	1	0	0	0.25114	0.10447	0.17286	0.13155	0.34144	0.19944	0.2593	0.2059	0.25293	0.079595	0.073486	0.25461	0.082128	0.085479	0.10127	0.053429	-2.3521	-2.7979	-2.4479	-2.6937	-2.8167	-2.7604	-3.0896	-2.9042	-2.5625	-3.0542	-2.5812	-2.85	-2.95	-2.7958	-2.9146	-2.9375	262.280	48.425	229.616	66.978	153.192	-28.966	158.245	243.998	25.708	95.577	229.538	206.489	31.441	294.165	113.854	268.432	0.00043509	0.00055123	0.00011632	706.55	5.3435e-06	2.6548e-06	1016.5	259.93	5.1782e-06	7.3635e-06	486.42	215.22	106.07	49.373	6.5724e-06	110.87	0.00062951	0.00059599	0.00016026	695.36	6.0491e-06	6.3094e-06	1001.1	257.58	6.3425e-06	6.4392e-06	479.5	213.29	106.14	49.155	6.3596e-06	110.35	129.474	2.278	61.714	-39.685	110.602	79.913	-39.333	-35.456	59.500	102.994	-35.749	-31.874	-32.155	-27.635	106.551	-28.259	-8191	255	
647.941	1	1	0	0	0.2392	0.23397	0.21213	0.036453	0.1757	0.097274	0.14525	0.20934	0.13634	0.07208	0.14631	0.27071	0.2746	0.34462	0.27665	0.40773	-2.1917	-2.775	-2.5542	-2.6521	-2.9	-2.5792	-2.8979	-3.0146	-2.4667	-2.9042	-2.7729	-2.9688	-3.0667	-2.7146	-2.8937	-3.0021	200.202	-31.251	98.383	-52.094	306.303	147.474	304.214	226.586	-52.904	115.906	298.001	-45.413	277.672	263.166	16.130	259.905	0.00040263	0.00085953	0.00030009	710.58	4.499e-06	6.0024e-06	1020	261.23	5.1623e-06	5.0478e-06	488.21	215.53	106.68	49.493	5.5549e-06	111.18	0.00062761	0.00055413	0.00016247	697.07	6.0597e-06	6.2252e-06	1004.5	258.54	6.2533e-06	6.2624e-06	481.56	214.2	106.24	49.38	6.3094e-06	110.68	129.475	50.141	54.950	-39.677	108.573	93.567	-39.216	-35.087	87.883	87.294	-35.973	-31.925	-32.218	-27.727	41.083	-28.342	-8191	255	
648.037	1	1	0	0	0.25356	0.25375	0.17643	0.17962	0.065086	0.11185	0.33074	0.10038	0.10373	0.14383	0.10085	0.022444	0.19097	0.20099	0.043162	0.11511	-2.2896	-2.95	-2.6479	-2.6542	-2.9042	-2.5687	-2.8333	-2.9667	-2.7021	-2.8208	-2.7292	-2.9104	-2.9188	-2.7417	-2.6437	-3.1958	216.336	297.772	192.021	272.232	-52.623	239.307	243.383	71.081	43.570	281.814	211.673	-32.178	-9.112	214.799	268.440	210.695	0.00044075	0.00078458	5.0453e-05	714.94	3.3662e-06	8.1699e-06	1022.7	260.72	3.9604e-06	8.543e-06	487.76	214.96	105.39	49.393	6.5553e-06	110.41	0.00061898	0.00057367	0.00015374	700.56	5.9673e-06	6.1239e-06	1006.4	258.35	6.1101e-06	6.0798e-06	480.43	213.04	105.66	49.053	6.1762e-06	109.83	117.869	26.046	21.860	-39.523	81.981	98.965	-39.433	-35.194	112.524	112.989	-36.203	-32.032	-31.976	-27.512	97.017	-28.383	-8191	255	
648.156	1	1	0	0	0.14145	0.044487	0.086317	0.21556	0.20859	0.14104	0.10068	0.14592	0.13099	0.26417	0.12677	0.21828	0.23168	0.16601	0.35069	0.072012	-2.2167	-2.8396	-2.6979	-2.5896	-2.9042	-2.7125	-3.0312	-2.9021	-2.5417	-2.8833	-2.8563	-2.7812	-2.9146	-2.8146	-2.5542	-3.0563	121.670	63.670	85.813	279.980	-47.800	111.095	-44.980	212.142	12.693	88.611	194.109	212.764	257.828	254.778	137.229	231.134	0.000457	0.00095507	0.00021007	713.42	5.7504e-06	8.6627e-06	1021.2	262.55	4.7034e-06	9.1558e-06	489.51	214.48	105.84	49.495	4.4651e-06	110.68	0.00059641	0.00054754	0.00015154	702.97	5.864e-06	5.9889e-06	1007.8	259.43	5.9916e-06	6.0743e-06	481.04	212.68	105.66	49.141	6.0669e-06	110.13	128.530	43.947	48.827	-39.439	77.628	88.882	-39.325	-35.141	116.073	94.943	-36.207	-31.966	-31.964	-27.413	111.085	-28.220	-8191	255	
648.252	1	1	0	0	0.060298	0.087234	0.049121	0.19362	0.13472	0.0689	0.3674	0.35253	0.041151	0.014654	0.14338	0.25899	0.19406	0.21169	0.10047	0.43623	-2.0771	-2.4917	-2.6417	-2.5187	-2.9583	-2.6292	-2.8771	-3.0771	-2.5979	-2.85	-2.7979	-2.8167	-2.8688	-2.9333	-2.5812	-3.0438	26.280	-27.337	131.470	221.253	159.770	135.760	259.610	206.130	114.408	62.612	-30.142	191.356	59.752	252.796	130.445	198.316	0.00042331	0.00063995	0.0002243	717.66	3.2051e-06	1.1402e-05	1026.1	263.41	3.4165e-06	5.4311e-06	487.2	214.91	106.6	49.646	5.4916e-06	110.97	0.0006039	0.00055481	0.0001508	704.66	5.9723e-06	5.9819e-06	1010	260.59	5.9735e-06	5.9499e-06	481.27	213.1	106.12	49.266	6.2864e-06	110.51	126.853	38.174	40.144	-39.433	87.553	98.104	-39.467	-35.201	94.358	138.045	-36.337	-32.013	-32.159	-27.552	102.955	-28.478	-8191	255	
648.348	1	1	0	0	0.33496	0.17162	0.22905	0.1372	0.20104	0.24597	0.11401	0.043685	0.045575	0.13988	0.1176	0.24402	0.12957	0.21663	0.28183	0.19992	-2.2354	-2.4875	-2.6771	-2.6354	-2.9104	-2.7125	-2.6813	-3.0146	-2.575	-2.75	-2.85	-2.675	-2.8125	-2.9833	-2.5625	-3.0604	40.880	239.930	143.363	-16.925	19.249	291.759	240.504	177.155	72.627	95.914	-27.917	-39.508	-31.391	266.161	265.843	229.577	0.00045654	0.00054608	0.0002509	719.23	6.8529e-06	5.8738e-06	1024.9	262.9	1.9197e-06	7.8465e-06	489.93	214.78	106.6	49.771	6.5488e-06	111.56	0.00059307	0.00055269	0.0001497	704.66	5.7833e-06	5.9773e-06	1008.4	260.67	5.9975e-06	6.1631e-06	482.68	213.87	106.36	49.458	6.1203e-06	110.8	123.409	46.960	46.725	-39.550	76.985	82.197	-39.330	-35.315	148.280	87.660	-35.792	-31.877	-31.998	-27.386	122.850	-28.256	-8191	255	
648.469	1	1	0	0	0.13743	0.10977	0.23236	0.13419	0.26279	0.14538	0.17803	0.16644	0.088206	0.14382	0.17589	0.1674	0.27034	0.34626	0.1806	0.33122	-2.1521	-2.6937	-3.0042	-2.6813	-2.8021	-2.8792	-2.8312	-3.0271	-2.7521	-2.5771	-3.1104	-2.6937	-3.0021	-2.8271	-2.35	-3.0062	249.500	47.667	142.728	230.432	127.893	105.305	243.359	242.697	210.048	130.087	188.980	284.194	19.703	291.507	206.260	227.638	0.00044061	0.00081333	0.00020848	711.31	3.8231e-06	8.2835e-06	1021.8	262.01	4.1114e-06	8.7061e-06	486.88	214	105.92	49.336	3.049e-06	110.61	0.00061399	0.00055198	0.00014804	701.3	5.8554e-06	6.0329e-06	1007.3	259.08	5.9695e-06	6.0077e-06	479.04	212.86	105.79	48.998	6.1373e-06	109.84	124.928	61.039	37.756	-39.890	75.001	110.229	-39.301	-35.020	83.723	108.685	-36.372	-32.062	-32.140	-27.519	112.747	-28.431	-8191	255	
648.540	1	1	0	0	0.079132	0.26187	0.16426	0.29849	0.17264	0.19647	0.22857	0.12879	0.037462	0.11827	0.15892	0.42219	0.2168	0.086096	0.047979	0.31718	-2.1458	-2.65	-3.0021	-2.7	-2.8	-2.9125	-2.7354	-2.8063	-2.7521	-2.6937	-2.875	-2.8792	-2.7917	-2.9333	-2.4708	-3.0458	253.463	-11.622	133.185	-27.784	258.579	-31.835	216.664	279.462	12.395	240.483	86.570	287.689	262.771	276.182	129.011	179.671	0.00046233	0.00098901	0.0001165	705.34	5.2376e-06	6.6423e-06	1012.8	257.98	3.1578e-06	4.6934e-06	479.88	213.07	105.55	49.145	4.2915e-06	110.11	0.00060245	0.00054994	0.00015312	694.94	6.0618e-06	6.0663e-06	999.02	255.07	6.0559e-06	6.2013e-06	474.38	211.28	104.84	48.712	6.3009e-06	109.5	122.835	78.693	50.550	-39.716	94.233	109.777	-39.282	-35.152	100.280	105.157	-35.971	-32.032	-31.895	-27.775	109.259	-28.320	-8191	255	
648.636	1	1	0	0	0.15946	0.088832	0.094299	0.25989	0.14231	0.21627	0.16662	0.065261	0.015514	0.18326	0.15607	0.19332	0.084742	0.16754	0.19894	0.22988	-2.3979	-2.5229	-2.8896	-2.8354	-2.7771	-2.775	-2.7708	-2.8187	-2.8958	-2.4938	-3.0458	-2.7333	-2.7104	-2.9354	-2.6354	-2.8917	74.717	207.699	-15.155	227.974	212.095	243.797	227.712	221.148	-49.306	192.593	21.416	252.437	24.115	251.674	129.289	258.143	0.00039546	0.00072693	0.00024629	700.26	4.3943e-06	8.8769e-06	1005.3	253.44	5.3199e-06	2.8715e-06	478.44	211.89	104.84	48.393	6.8597e-06	108.79	0.00062384	0.00057174	0.00015829	687.58	6.3029e-06	6.5536e-06	993.74	250.92	6.3922e-06	6.4665e-06	471.01	210.16	104.31	48.135	6.757e-06	108.4	124.299	-20.597	52.810	-39.671	120.964	89.630	-39.389	-35.267	52.007	89.100	-36.267	-32.134	-32.093	-27.288	112.421	-28.454	-8191	255	
648.757	1	1	0	0	0.028412	0.069696	0.15832	0.31261	0.1535	0.13616	0.2277	0.13419	0.31169	0.053884	0.23796	0.10479	0.24337	0.11121	0.24751	0.13256	-2.4313	-2.4375	-2.9396	-3.0042	-2.6021	-2.8875	-2.8208	-2.7229	-2.7167	-2.5458	-2.7583	-2.775	-2.5854	-3.1229	-2.7021	-3.0062	204.860	70.601	-6.538	241.183	13.676	74.091	223.301	238.817	131.505	109.962	38.485	253.440	250.156	-43.160	224.831	297.124	0.00047113	0.0011357	0.00014176	678.1	5.1618e-06	5.9429e-06	997.21	247.2	6.935e-06	7.0697e-06	471.61	210.75	103.66	47.783	4.4721e-06	108.36	0.00066519	0.00061821	0.00017284	667.14	6.6433e-06	6.8092e-06	980.08	245.1	6.9336e-06	7.0098e-06	467.77	209.38	103.54	47.627	6.8932e-06	107.66	125.203	44.818	59.281	-39.847	78.247	124.792	-39.630	-35.590	101.660	113.176	-35.982	-32.067	-32.033	-27.843	99.807	-28.725	-8191	255	
648.853	1	1	0	0	0.22993	0.13096	0.075504	0.15529	0.16251	0.21501	0.27499	0.15216	0.0077435	0.12202	0.082655	0.12208	0.039182	0.27729	0.17726	0.35038	-2.475	-2.5333	-2.85	-2.7146	-2.3875	-2.9854	-2.7979	-2.8333	-2.975	-2.6063	-2.7958	-2.8875	-2.5938	-2.9396	-2.7167	-2.8187	131.055	-4.739	-27.195	28.583	175.138	129.611	260.435	-37.666	160.472	-43.979	246.120	249.198	10.164	-29.190	224.656	257.326	0.00043389	0.0009692	0.00018861	664.51	3.772e-06	9.5601e-06	980.29	241.51	3.4977e-06	7.3204e-06	472.57	208.95	102.92	47.085	5.9102e-06	106.85	0.0006646	0.00065997	0.00017757	653.44	6.9026e-06	7.0459e-06	965.85	240.34	7.0875e-06	7.1432e-06	465.06	208.02	102.64	46.891	6.9267e-06	106.34	127.753	22.226	14.341	-39.589	113.199	101.498	-39.344	-35.142	92.584	93.152	-36.321	-32.285	-32.423	-27.839	141.098	-28.347	-8191	255	
648.948	1	1	0	0	0.26726	0.13933	0.026908	0.38806	0.231	0.15514	0.027851	0.28546	0.080091	0.14992	0.063678	0.17515	0.23093	0.33184	0.041535	0.1091	-2.5521	-2.3875	-2.775	-2.8333	-2.4167	-3.1813	-2.8354	-2.6458	-2.9771	-2.6208	-2.9125	-2.9688	-2.7958	-3.1458	-2.8125	-2.8229	-28.895	200.232	284.127	282.584	205.460	226.329	-30.999	245.722	18.936	281.405	-33.064	-24.546	10.482	263.227	231.837	140.052	0.00044373	0.00074381	0.00021924	659.65	7.6762e-06	4.2067e-06	979.06	243.69	3.9666e-06	8.5916e-06	473.38	209.12	102.94	47.612	4.5533e-06	107.39	0.00066713	0.00063334	0.00017368	650.21	6.796e-06	6.8009e-06	963.97	241	7.0629e-06	7.0279e-06	464.7	207.94	102.84	47.26	6.9763e-06	107.01	125.735	24.124	34.732	-39.780	113.967	105.130	-39.456	-35.311	73.860	86.699	-36.078	-31.874	-32.299	-27.843	80.339	-28.591	-8191	255	
649.068	1	1	0	0	0.057837	0.16811	0.1523	0.099961	0.14547	0.13979	0.025697	0.29624	0.085139	0.088478	0.075179	0.14275	0.21445	0.089951	0.17941	0.21796	-2.4583	-2.525	-2.7979	-3.0312	-2.7875	-3.0021	-2.7938	-2.8771	-2.8458	-2.6333	-2.8417	-3.1146	-2.5292	-3	-2.6833	-2.6792	183.770	154.956	-21.047	218.998	122.523	-6.231	239.766	271.947	151.846	62.888	293.990	247.469	2.151	282.597	2.634	292.254	0.00038284	0.0010614	0.00016733	668.31	2.9179e-06	9.0216e-06	986.5	245.89	4.7415e-06	6.6457e-06	472.38	211.31	103.87	48.031	2.0564e-06	108.37	0.00066569	0.00061316	0.00017097	659.91	6.5741e-06	6.8413e-06	971.9	244.08	6.6646e-06	6.6628e-06	467.02	209.67	103.62	47.753	6.5546e-06	108.13	119.146	5.098	65.253	-39.879	38.696	81.741	-39.433	-35.077	97.163	87.326	-35.827	-32.379	-32.226	-27.543	173.387	-28.540	-8191	255	
649.140	1	1	0	0	0.13674	0.11026	0.14152	0.049286	0.020699	0.071338	0.38079	0.27116	0.16502	0.29966	0.32169	0.58966	0.22789	0.17385	0.1134	0.42243	-2.3917	-2.6667	-2.5021	-2.8187	-2.5667	-2.7833	-2.7542	-2.5625	-2.875	-2.625	-2.6625	-3.1562	-2.5896	-3.0521	-2.9042	-2.6708	41.832	-43.153	138.389	18.811	272.301	-19.471	235.115	23.220	242.170	-31.901	235.225	213.723	306.026	211.453	90.069	290.623	0.00041055	0.00052027	0.00016287	682.7	2.8035e-06	7.1188e-06	997.59	252.52	5.1216e-06	1.0535e-05	479.4	213.3	104.7	48.474	3.6185e-06	109.8	0.00064117	0.00059549	0.00016269	673.32	6.1337e-06	6.2573e-06	981.94	248.43	6.1666e-06	6.5182e-06	471.11	211.66	104.52	48.322	6.4232e-06	109.22	116.103	35.523	23.343	-39.804	106.125	85.281	-39.334	-34.949	97.748	119.843	-35.802	-32.283	-32.218	-27.473	99.111	-28.537	-8191	255	
649.236	1	1	0	0	0.19922	0.2816	0.18605	0.11108	0.17763	0.14871	0.078445	0.31045	0.062131	0.0057588	0.069868	0.20414	0.31817	0.19619	0.17878	0.32428	-2.7083	-2.775	-2.5708	-2.9979	-2.5917	-2.9	-3.0271	-2.5125	-2.9333	-2.5729	-2.7333	-3.0167	-2.5833	-2.8021	-2.9896	-2.7812	77.967	158.701	104.252	196.513	221.199	-5.233	274.763	288.291	84.198	-37.743	244.692	306.360	-50.328	294.890	268.339	187.907	0.00044422	0.00070248	0.00016491	689.38	6.0228e-06	6.7107e-06	999.95	253.21	2.4403e-06	7.9178e-06	480.81	212.7	104.94	48.723	5.0285e-06	109.75	0.00062051	0.00057379	0.00015939	678.16	5.9215e-06	6.3048e-06	985.83	250.42	6.1462e-06	6.2075e-06	472.32	211.55	104.52	48.407	6.1865e-06	108.9	129.929	34.141	50.287	-39.442	72.893	118.995	-39.494	-35.268	124.320	130.009	-36.111	-32.252	-32.265	-27.845	112.469	-28.435	-8191	255	
649.332	1	1	0	0	0.24747	0.095172	0.085371	0.2963	0.31158	0.12485	0.21844	0.29756	0.035285	0.13123	0.056785	0.177	0.0971	0.38882	0.037874	0.2998	-2.4708	-2.8646	-2.5729	-3.0083	-2.5896	-2.725	-3.0604	-2.5792	-2.8708	-2.7542	-2.7458	-3.0563	-2.7958	-2.8667	-2.8688	-2.7667	190.020	58.462	298.296	292.104	-31.963	53.806	269.882	274.618	218.640	136.863	275.604	10.523	250.230	-52.659	177.952	246.452	0.00042365	0.00082846	0.00027988	685.05	3.6689e-06	2.7173e-06	995.31	253	5.4231e-06	6.3258e-06	474.3	212.25	104.27	48.593	6.1558e-06	109.01	0.00061257	0.00057675	0.00015477	674.23	5.8594e-06	6.1092e-06	981.58	249.26	6.0357e-06	6.0858e-06	469.62	210.35	104.05	48.153	6.2407e-06	108.33	128.041	5.941	30.584	-39.327	63.972	94.493	-39.648	-35.384	84.547	107.434	-35.664	-31.728	-32.207	-27.911	54.290	-28.348	-8191	255	
649.451	1	1	0	0	0.072122	0.065114	0.12561	0.21668	0.12018	0.28137	0.15177	0.07355	0.29832	0.15803	0.13161	0.32124	0.1331	0.13736	0.21734	0.18071	-2.2938	-2.7667	-2.6063	-2.8	-2.6833	-2.5729	-3.0312	-2.4375	-2.7771	-2.7125	-2.6271	-2.9604	-2.5125	-2.8917	-2.9521	-2.8375	57.670	273.240	146.597	203.450	257.041	57.389	243.042	278.446	52.511	1.897	-4.762	258.347	153.126	-41.952	219.824	246.503	0.00043628	0.00088179	0.0001234	670.16	3.8384e-06	7.6051e-06	982.14	245.79	4.1048e-06	6.6841e-06	470.13	211.69	104	48.092	5.4761e-06	107.97	0.00061783	0.00056245	0.00015988	660.03	6.1517e-06	6.2274e-06	963.59	243.35	6.2436e-06	6.341e-06	464.63	209.95	103.74	47.675	6.3261e-06	107.58	121.675	34.845	47.379	-39.882	129.485	149.512	-39.427	-35.297	88.532	105.864	-36.227	-32.096	-32.019	-27.794	90.011	-28.675	-8191	255	
649.547	1	1	0	0	0.20251	0.3157	0.10442	0.19228	0.10454	0.05576	0.13634	0.25301	0.23859	0.19111	0.24797	0.021773	0.14262	0.083002	0.24036	0.20598	-2.5375	-2.7229	-2.5875	-2.8521	-2.7062	-2.5854	-2.9542	-2.5312	-2.7167	-2.8104	-2.6521	-2.9771	-2.8875	-2.7646	-2.9333	-2.8375	24.855	99.449	207.740	64.593	131.415	127.506	-28.320	-45.090	138.872	32.826	-27.382	83.533	266.836	286.584	115.247	236.370	0.00041244	0.00076872	0.0001074	663.35	6.2879e-06	1.0868e-05	971.75	246.02	4.272e-06	2.8922e-06	473.82	211	104.14	47.969	6.0452e-06	108.08	0.00062872	0.00056848	0.00015969	653.42	5.9893e-06	6.3389e-06	960.38	243.1	6.1375e-06	6.4521e-06	467.03	210.34	103.72	47.672	6.2187e-06	107.66	122.705	8.263	-0.355	-39.689	77.500	88.443	-39.602	-35.345	51.407	106.665	-36.149	-31.982	-32.316	-27.802	97.168	-28.691	-8191	255	
649.643	1	1	0	0	0.12856	0.15491	0.094979	0.17935	0.1363	0.2055	0.31808	0.1741	0.12304	0.30878	0.29139	0.20353	0.18573	0.13517	0.19465	0.15907	-2.1083	-2.65	-2.6625	-2.7896	-2.7896	-2.4	-3.0917	-2.7104	-2.7125	-2.9583	-2.5375	-3.1021	-2.8333	-2.6583	-2.8771	-2.7562	29.066	142.611	-24.203	98.632	162.441	268.837	254.462	143.298	156.041	150.410	204.021	254.830	305.744	291.826	29.996	239.194	0.00046494	0.000832	0.00010479	666.91	4.142e-06	3.9855e-06	987.74	247.21	4.2061e-06	6.7431e-06	478	211.33	104.11	48.114	4.2316e-06	108.5	0.0006092	0.00055355	0.00015774	656.75	5.9207e-06	6.058e-06	969.24	244.93	6.1736e-06	6.086e-06	468.21	210.4	103.86	47.824	6.1301e-06	107.88	128.004	14.905	67.396	-39.620	75.923	89.972	-39.667	-35.260	82.521	127.007	-36.288	-32.138	-32.464	-27.692	146.145	-28.753	-8191	255	
649.740	1	1	0	0	0.047385	0.086584	0.21211	0.043602	0.25483	0.11023	0.086399	0.24172	0.20468	0.11176	0.15634	0.31817	0.30525	0.35685	0.11106	0.33506	-2.175	-3.0229	-2.3688	-2.8771	-2.6229	-2.5375	-2.9708	-2.9104	-2.6229	-2.8812	-2.7646	-2.9833	-2.8146	-2.625	-2.9542	-2.8417	86.498	71.805	280.213	212.052	104.187	212.052	-42.935	11.661	96.720	32.119	204.456	293.136	155.839	281.517	299.497	244.114	0.00039743	0.00053539	0.0002417	677.26	3.8372e-06	8.5506e-06	985.6	249.57	5.4279e-06	7.5853e-06	477.05	211.1	103.9	48.284	6.8051e-06	108.63	0.00060379	0.00056149	0.00015207	666.39	5.897e-06	6.0114e-06	972.66	247.46	6.0734e-06	6.3067e-06	469.17	210.12	103.78	48.044	6.1312e-06	108.02	123.604	24.976	32.100	-39.651	123.772	84.151	-39.660	-35.219	94.038	83.095	-36.314	-31.887	-32.503	-27.827	112.804	-28.444	-8191	255	
649.836	1	1	0	0	0.06876	0.14273	0.10585	0.14922	0.25699	0.07889	0.10372	0.21155	0.076055	0.078959	0.17019	0.025219	0.069871	0.12381	0.050383	0.22414	-2.1583	-2.9	-2.475	-2.8937	-2.85	-2.6771	-2.8646	-2.8271	-2.5604	-2.9354	-2.6271	-2.9375	-2.7938	-2.6208	-2.8833	-3.0125	277.724	244.915	163.574	300.783	135.571	169.193	-41.984	-48.403	141.766	69.724	270.467	60.144	-23.098	273.211	303.070	289.661	0.00046306	0.00092605	0.00024688	694.24	5.7529e-06	6.344e-06	1005	253.94	4.773e-06	3.9192e-06	480.63	211.71	104.48	48.542	5.4588e-06	108.81	0.00061032	0.0005684	0.00015368	681.76	5.8657e-06	6.0428e-06	987.53	250.7	6.0243e-06	6.1243e-06	472.2	210.38	104.34	48.188	6.2294e-06	108.34	125.114	50.471	20.608	-39.738	75.621	90.846	-39.240	-35.389	94.404	137.208	-36.601	-32.087	-32.098	-27.781	136.850	-28.429	-8191	255	
649.932	1	1	0	0	0.21614	0.23883	0.24435	0.41217	0.060124	0.24865	0.26532	0.14956	0.11519	0.37251	0.1323	0.20437	0.42384	0.42468	0.066093	0.20562	-2.1667	-2.8354	-2.575	-2.6854	-2.85	-2.5542	-2.9583	-2.8333	-2.5458	-2.9062	-2.7167	-2.7646	-2.8979	-2.5729	-2.7938	-3.2062	240.627	75.973	-7.256	-7.972	241.722	-25.453	233.866	229.207	145.905	185.406	-37.423	303.628	273.808	304.467	204.680	301.931	0.00043815	0.0005982	0.00013637	688.41	7.7063e-06	6.5137e-06	996.91	253.57	3.1498e-06	6.1549e-06	477.64	212.88	105.27	48.759	4.0542e-06	109.32	0.00061919	0.00056267	0.0001575	676.78	5.9223e-06	6.1443e-06	984.77	250.45	6.0239e-06	6.1885e-06	471.6	211.67	104.69	48.486	6.0615e-06	109.05	124.571	36.527	60.012	-39.837	109.349	90.640	-39.347	-35.150	103.044	130.604	-35.964	-32.093	-31.920	-27.389	77.561	-28.480	-8191	255	
650.028	1	1	0	0	0.18723	0.087259	0.0656	0.23755	0.21353	0.11469	0.19978	0.05243	0.061075	0.30716	0.12911	0.19858	0.16537	0.18702	0.18197	0.010212	-2.025	-2.7771	-2.5938	-2.75	-2.9167	-2.7854	-2.9	-2.9167	-2.6625	-2.8438	-2.8479	-2.7625	-2.9833	-2.7125	-2.7208	-2.8771	255.380	-37.214	109.884	199.480	63.135	247.498	-23.390	201.621	266.920	95.238	-36.022	209.219	-47.989	255.773	230.736	171.094	0.00046213	0.00066899	0.00015885	706.98	1.8347e-06	4.2944e-06	1018.2	259.14	4.9438e-06	6.1881e-06	488.18	213.49	105.5	48.992	4.77e-06	109.38	0.00060111	0.00053763	0.00014945	696.03	5.6035e-06	5.5441e-06	1005	256.62	5.5877e-06	5.7063e-06	479.41	211.76	105.05	48.607	5.7774e-06	108.85	121.819	27.509	48.146	-39.786	51.260	55.492	-39.503	-35.021	87.034	132.343	-35.619	-31.987	-31.979	-27.280	103.985	-28.328	-8191	255	
650.149	1	1	0	0	0.13987	0.21224	0.41272	0.12224	0.15659	0.19951	0.050945	0.055138	0.34799	0.11217	0.033339	0.16665	0.10878	0.23677	0.11757	0.26068	-2.1167	-2.8792	-2.6542	-2.6375	-3.0521	-2.6792	-2.9708	-2.9167	-2.6562	-3.0062	-2.6542	-2.7354	-3.0917	-2.875	-2.6146	-3.1792	284.381	-28.385	159.635	-23.789	-44.569	173.904	181.550	-27.850	-9.388	255.148	61.197	272.527	228.006	-21.419	177.118	268.976	0.00042542	0.0006046	0.00015139	725.63	8.4881e-06	4.786e-06	1033.8	263.48	2.4783e-06	1.3571e-06	488.4	210.91	104.88	48.619	5.3212e-06	108.6	0.00057837	0.00050556	0.00014279	710.7	5.3873e-06	5.6179e-06	1016.3	259.43	5.4781e-06	5.5168e-06	479.39	209.96	104.75	48.271	5.5568e-06	108.17	124.808	28.426	31.236	-39.737	91.513	48.783	-39.412	-35.022	77.882	105.220	-36.047	-31.904	-31.950	-27.488	111.634	-28.192	-8191	255	
650.245	1	1	0	0	0.28809	0.26543	0.10946	0.23643	0.17179	0.11355	0.24574	0.063224	0.15386	0.1421	0.13936	0.3613	0.2318	0.1598	0.22729	0.25688	-2.1125	-3.0187	-2.7708	-2.7104	-3.0687	-2.6771	-2.8979	-3.2333	-2.575	-2.8542	-2.8479	-2.8312	-3.1021	-2.8021	-2.5792	-3.2271	179.294	118.383	304.960	193.966	-39.149	248.071	282.494	-15.118	190.285	205.256	23.284	233.523	276.570	-27.056	59.748	262.156	0.00040225	0.00057444	0.00025963	727.71	3.9849e-06	7.5559e-06	1031.9	262.46	3.9962e-06	6.1844e-06	486.65	212	105.06	49.319	4.8403e-06	109.96	0.00058339	0.00052015	0.00014075	714.49	5.3423e-06	5.4702e-06	1018.1	259.28	5.5274e-06	5.6622e-06	478.26	210.85	104.9	48.693	5.7919e-06	109.18	122.466	54.007	36.202	-39.743	88.797	96.285	-39.629	-35.180	94.844	107.308	-35.762	-31.811	-31.881	-27.529	120.765	-28.387	-8191	255	
650.341	1	1	0	0	0.25653	0.18112	0.24163	0.21123	0.15534	0.15884	0.28553	0.14645	0.2563	0.25123	0.20735	0.15101	0.1127	0.46766	0.22584	0.12753	-2.2562	-2.6792	-2.7708	-2.575	-2.8063	-2.9042	-2.7104	-2.775	-2.6854	-2.7729	-3.0417	-2.6792	-2.9396	-2.8333	-2.6208	-2.9583	244.644	166.558	182.360	230.796	306.021	27.875	255.917	287.946	259.788	288.196	218.232	-53.042	-42.416	-47.658	60.769	277.866	0.00044251	0.0008824	0.0002974	712.53	5.8906e-06	7.5597e-06	1015.6	257.6	2.5229e-06	5.8012e-06	481.98	213	105.93	48.971	3.1895e-06	110.1	0.0005804	0.00053144	0.00014799	697.44	5.6445e-06	5.7575e-06	997.31	254.64	5.8428e-06	5.6576e-06	474.96	212.09	105.22	48.798	5.727e-06	109.29	120.024	28.756	29.127	-39.750	97.388	79.521	-39.392	-35.160	105.835	109.970	-35.724	-32.159	-32.428	-27.721	97.249	-28.447	-8191	255	
650.437	1	1	0	0	0.14236	0.18853	0.12411	0.11894	0.050764	0.1583	0.25272	0.045123	0.099703	0.29291	0.30889	0.13475	0.13708	0.15507	0.20102	0.34402	-2.1583	-2.75	-2.9188	-2.7396	-2.7562	-2.7562	-2.7229	-2.8771	-2.5083	-2.6437	-2.9083	-2.7313	-2.7917	-2.9813	-2.5375	-2.9979	27.854	202.242	112.890	-0.156	-4.492	206.933	269.294	176.205	76.830	177.396	251.888	-48.952	229.687	285.851	281.354	259.037	0.00043145	0.00061554	0.00020743	700.07	5.9541e-06	5.7855e-06	1011	257.21	4.3723e-06	5.2731e-06	491.15	214.25	106.64	49.28	5.8128e-06	110.54	0.00059271	0.00053603	0.0001478	687.37	5.4512e-06	5.4181e-06	995.05	254.61	5.4483e-06	5.6853e-06	479.05	212.85	106.09	48.962	5.4786e-06	109.81	123.344	4.714	47.622	-39.647	111.086	101.459	-39.403	-35.057	102.401	104.674	-36.023	-31.873	-32.305	-27.508	92.868	-28.522	-8191	255	
#DATA ENDS
