BOXY.EXE: ISS Imagent and Oximeter Data Acquisition Program Version 0.80
Ascii Record File

#ACQ INFORMATION
2  Detector Channels 
16  External MUX Channels 
1  Auxiliary Channels 
5000  Waveform (CCF) Frequency (Hz)
1  Waveforms Skipped 
30  Waveforms Averaged 
1  Cycles Averaged 
16  Acquisitions per Waveform 
10.0806  Updata Rate (Hz) 

#FILE INFORMATION
TRUE -- External MUX Channel results are PARSED.
FALSE -- AC DC and Phase are NOT grouped.
TRUE -- Companion Program Settings File CREATED.
FALSE -- AC data not excluded
FALSE -- DC data not excluded
FALSE -- Phase data not excluded
FALSE -- Auxillary Chn. data not excluded
Tab delimiters

#CALIBRATION STATE
TRUE -- Waveform Calibration Values APPLIED.


#AUX CALIBRATION VALUES
Val Type	aux-1	

Term	1.0000e+00	
Factor	0.0000e+00	


#WF CALIBRATION VALUES
A = Detector Channel
Val Type	A-AC1	A-AC2	A-AC3	A-AC4	A-AC5	A-AC6	A-AC7	A-AC8	A-AC9	A-AC10	A-AC11	A-AC12	A-AC13	A-AC14	A-AC15	A-AC16	A-DC1	A-DC2	A-DC3	A-DC4	A-DC5	A-DC6	A-DC7	A-DC8	A-DC9	A-DC10	A-DC11	A-DC12	A-DC13	A-DC14	A-DC15	A-DC16	A-Ph1	A-Ph2	A-Ph3	A-Ph4	A-Ph5	A-Ph6	A-Ph7	A-Ph8	A-Ph9	A-Ph10	A-Ph11	A-Ph12	A-Ph13	A-Ph14	A-Ph15	A-Ph16	

Term	0.00000e+00	0.00000e+00	0.00000e+00	0.00000e+00	0.00000e+00	0.00000e+00	0.00000e+00	0.00000e+00	0.00000e+00	0.00000e+00	0.00000e+00	0.00000e+00	0.00000e+00	0.00000e+00	0.00000e+00	0.00000e+00	0.00000e+00	0.00000e+00	0.00000e+00	0.00000e+00	0.00000e+00	0.00000e+00	0.00000e+00	0.00000e+00	0.00000e+00	0.00000e+00	0.00000e+00	0.00000e+00	0.00000e+00	0.00000e+00	0.00000e+00	0.00000e+00	0.00000e+00	0.00000e+00	0.00000e+00	0.00000e+00	0.00000e+00	0.00000e+00	0.00000e+00	0.00000e+00	0.00000e+00	0.00000e+00	0.00000e+00	0.00000e+00	0.00000e+00	0.00000e+00	0.00000e+00	0.00000e+00	
Factor	1.00000e+00	1.00000e+00	1.00000e+00	1.00000e+00	1.00000e+00	1.00000e+00	1.00000e+00	1.00000e+00	1.00000e+00	1.00000e+00	1.00000e+00	1.00000e+00	1.00000e+00	1.00000e+00	1.00000e+00	1.00000e+00	1.00000e+00	1.00000e+00	1.00000e+00	1.00000e+00	1.00000e+00	1.00000e+00	1.00000e+00	1.00000e+00	1.00000e+00	1.00000e+00	1.00000e+00	1.00000e+00	1.00000e+00	1.00000e+00	1.00000e+00	1.00000e+00	X	X	X	X	X	X	X	X	X	X	X	X	X	X	X	X	

B = Detector Channel
Val Type	B-AC1	B-AC2	B-AC3	B-AC4	B-AC5	B-AC6	B-AC7	B-AC8	B-AC9	B-AC10	B-AC11	B-AC12	B-AC13	B-AC14	B-AC15	B-AC16	B-DC1	B-DC2	B-DC3	B-DC4	B-DC5	B-DC6	B-DC7	B-DC8	B-DC9	B-DC10	B-DC11	B-DC12	B-DC13	B-DC14	B-DC15	B-DC16	B-Ph1	B-Ph2	B-Ph3	B-Ph4	B-Ph5	B-Ph6	B-Ph7	B-Ph8	B-Ph9	B-Ph10	B-Ph11	B-Ph12	B-Ph13	B-Ph14	B-Ph15	B-Ph16	

Term	0.00000e+00	0.00000e+00	0.00000e+00	0.00000e+00	0.00000e+00	0.00000e+00	0.00000e+00	0.00000e+00	0.00000e+00	0.00000e+00	0.00000e+00	0.00000e+00	0.00000e+00	0.00000e+00	0.00000e+00	0.00000e+00	0.00000e+00	0.00000e+00	0.00000e+00	0.00000e+00	0.00000e+00	0.00000e+00	0.00000e+00	0.00000e+00	0.00000e+00	0.00000e+00	0.00000e+00	0.00000e+00	0.00000e+00	0.00000e+00	0.00000e+00	0.00000e+00	-5.52834e+01	-1.33387e+02	-1.26565e+02	-1.82540e+02	-5.55431e+01	-6.43973e+01	-1.56586e+02	-1.62015e+02	-4.36106e+01	-7.42587e+01	-1.74623e+02	-1.70094e+02	-1.82744e+02	-1.76742e+02	-5.93975e+01	-1.49658e+02	
Factor	1.78881e-05	1.49563e-04	4.68658e-05	1.78184e-01	1.61833e-06	1.89682e-06	1.77342e-01	5.82412e-02	1.18634e-06	1.65967e-06	8.82662e-02	2.80200e-02	2.53411e-02	8.65087e-03	1.41064e-06	1.27050e-02	4.88401e-06	6.02286e-06	1.67489e-06	8.81332e-02	6.42629e-08	6.60018e-08	8.18783e-02	2.88789e-02	6.38437e-08	6.60667e-08	4.22472e-02	1.34971e-02	1.26457e-02	4.32564e-03	6.44515e-08	6.12258e-03	X	X	X	X	X	X	X	X	X	X	X	X	X	X	X	X	



#DISTANCE SETTINGS
A = Detector Channel
A-1	A-2	A-3	A-4	A-5	A-6	A-7	A-8	A-9	A-10	A-11	A-12	A-13	A-14	A-15	A-16	

2.5000e+00	3.0000e+00	2.5000e+00	3.0000e+00	2.0000e+00	3.0000e+00	1.5000e+00	3.0000e+00	3.0000e+00	3.0000e+00	3.0000e+00	3.0000e+00	3.0000e+00	3.0000e+00	1.5000e+00	3.0000e+00	

B = Detector Channel
B-1	B-2	B-3	B-4	B-5	B-6	B-7	B-8	B-9	B-10	B-11	B-12	B-13	B-14	B-15	B-16	

1.0000e+01	1.0000e+01	1.0000e+01	1.4400e+00	1.0000e+01	1.0000e+01	1.5100e+00	1.9400e+00	1.0000e+01	1.0000e+01	1.9900e+00	2.4900e+00	2.4100e+00	2.9000e+00	1.0000e+01	2.9800e+00	




#DATA BEGINS
time	group	step	mark	flag	A-AC1	A-AC2	A-AC3	A-AC4	A-AC5	A-AC6	A-AC7	A-AC8	A-AC9	A-AC10	A-AC11	A-AC12	A-AC13	A-AC14	A-AC15	A-AC16	A-DC1	A-DC2	A-DC3	A-DC4	A-DC5	A-DC6	A-DC7	A-DC8	A-DC9	A-DC10	A-DC11	A-DC12	A-DC13	A-DC14	A-DC15	A-DC16	A-Ph1	A-Ph2	A-Ph3	A-Ph4	A-Ph5	A-Ph6	A-Ph7	A-Ph8	A-Ph9	A-Ph10	A-Ph11	A-Ph12	A-Ph13	A-Ph14	A-Ph15	A-Ph16	B-AC1	B-AC2	B-AC3	B-AC4	B-AC5	B-AC6	B-AC7	B-AC8	B-AC9	B-AC10	B-AC11	B-AC12	B-AC13	B-AC14	B-AC15	B-AC16	B-DC1	B-DC2	B-DC3	B-DC4	B-DC5	B-DC6	B-DC7	B-DC8	B-DC9	B-DC10	B-DC11	B-DC12	B-DC13	B-DC14	B-DC15	B-DC16	B-Ph1	B-Ph2	B-Ph3	B-Ph4	B-Ph5	B-Ph6	B-Ph7	B-Ph8	B-Ph9	B-Ph10	B-Ph11	B-Ph12	B-Ph13	B-Ph14	B-Ph15	B-Ph16	aux-1	digaux	

557.051	1	1	0	256	0.071262	0.17665	0.075121	0.25349	0.091833	0.10354	0.10079	0.069154	0.043756	0.08824	0.13223	0.20337	0.099167	0.15884	0.17688	0.12093	-4.7208	-4.9062	-4.6792	-5.2188	-4.4625	-4.7667	-5.1917	-4.7229	-4.9979	-4.9917	-4.7708	-5.05	-4.7583	-4.7104	-5.1208	-4.6583	188.181	224.750	286.489	384.323	331.633	266.001	95.560	204.554	236.494	231.273	109.560	366.544	215.648	336.266	82.363	323.084	0.000282	0.00033048	7.1946e-05	1223.6	3.8625e-06	4.7286e-06	1293.9	252.17	2.6377e-06	3.0294e-06	315	89.487	70.905	20.322	3.4185e-06	28.383	0.00023291	0.000207	5.9549e-05	1204.5	2.4246e-06	2.3748e-06	1273	250.45	2.3776e-06	2.2893e-06	312.67	89.164	70.492	20.53	2.2218e-06	28.688	247.392	160.620	187.715	91.345	236.998	235.424	91.305	98.754	275.731	214.425	98.053	105.118	105.476	111.993	258.804	111.307	-8191	255	
557.147	1	1	0	0	0.11033	0.041139	0.050587	0.19341	0.15051	0.13952	0.17867	0.24882	0.40837	0.26776	0.11599	0.1506	0.26307	0.1865	0.23429	0.21303	-4.6208	-4.9458	-4.4021	-5.2854	-4.8313	-4.6792	-5.2271	-4.7896	-4.8812	-4.9854	-4.6687	-5.125	-4.8917	-4.6188	-5.0854	-4.5979	257.313	240.884	169.248	344.074	367.092	413.869	141.853	416.494	418.742	202.354	415.260	100.039	142.615	82.191	188.694	217.297	0.00030731	0.00031983	0.00011255	1227.5	4.8523e-06	3.1143e-06	1294.7	253.28	2.5027e-06	5.2927e-06	314.94	89.126	70.903	20.295	1.6459e-06	28.494	0.00022987	0.00020549	5.7613e-05	1205.4	2.3953e-06	2.2923e-06	1271.8	251.06	2.3574e-06	2.36e-06	312.75	89.208	70.599	20.592	2.3165e-06	28.75	245.675	176.841	141.188	91.445	238.504	221.168	91.209	98.559	258.181	216.261	98.174	105.164	105.372	112.046	272.522	111.329	-8191	255	
557.243	1	1	0	0	0.092058	0.076343	0.11397	0.33385	0.22072	0.043238	0.13109	0.18063	0.15806	0.1047	0.053576	0.041678	0.19963	0.12216	0.13958	0.11187	-4.5208	-5.0979	-4.4542	-5.0375	-4.9667	-4.4521	-5.3375	-4.6271	-4.7146	-5.1208	-4.7562	-5.0521	-4.8562	-4.5875	-5.1021	-4.8792	415.055	269.753	111.332	424.263	145.089	395.792	85.127	102.116	405.956	318.518	388.563	146.965	380.103	105.590	204.082	311.374	0.00027708	0.00038908	7.7974e-05	1222.4	4.176e-06	4.1045e-06	1295.6	253.2	3.3901e-06	2.4085e-06	315.42	89.254	70.729	20.292	1.2904e-06	28.553	0.00024025	0.00021295	6.1315e-05	1202.5	2.47e-06	2.4274e-06	1271.8	251.06	2.4951e-06	2.3719e-06	312.33	89.223	70.404	20.532	2.4273e-06	28.748	241.185	187.371	171.231	91.448	233.708	218.021	91.406	98.728	255.881	200.300	98.063	105.131	105.601	112.323	227.426	111.163	-8191	255	
557.339	1	1	0	0	0.13177	0.13798	0.14525	0.35073	0.30792	0.12277	0.15944	0.16663	0.16582	0.065618	0.039502	0.16466	0.25725	0.1565	0.17362	0.076538	-4.4062	-5.2208	-4.5354	-5.2917	-5.0667	-4.6188	-5.2792	-4.7458	-4.7521	-5.225	-4.7625	-4.9396	-5.0021	-4.5521	-5.1062	-4.9021	104.503	86.417	262.830	382.581	84.038	337.310	351.414	353.684	179.749	238.693	166.119	137.918	418.622	97.450	108.177	107.145	0.00032526	0.00032202	0.00012294	1226.3	4.3004e-06	4.4125e-06	1290.9	253.79	3.89e-06	3.4242e-06	314.3	88.844	70.61	20.242	2.5314e-06	28.337	0.00023764	0.00021686	6.1116e-05	1204.1	2.4796e-06	2.4077e-06	1269.6	251.23	2.4841e-06	2.3472e-06	312.65	89.014	70.321	20.5	2.4559e-06	28.661	242.707	168.254	164.177	91.211	249.915	223.519	91.418	98.446	279.336	196.589	98.061	105.366	105.488	112.152	241.284	111.539	-8191	255	
557.435	1	1	0	0	0.14483	0.15687	0.17601	0.27111	0.13452	0.12264	0.28198	0.14004	0.15605	0.14642	0.19616	0.24546	0.21882	0.051831	0.20983	0.24572	-4.4396	-5.1792	-4.7	-5.0396	-4.9812	-4.575	-5.225	-4.8125	-4.4854	-5.2812	-4.6833	-4.9833	-5.1813	-4.5917	-4.9542	-5.0042	215.875	227.894	89.299	374.535	223.902	352.832	352.518	284.733	202.568	399.562	103.360	275.639	100.068	95.430	160.412	321.171	0.00030488	0.00012596	0.00012212	1223.1	4.2141e-06	7.7475e-06	1291.9	253.86	1.9473e-06	2.6643e-06	315.63	89.18	70.717	20.303	3.329e-06	28.385	0.00024723	0.00022055	6.1346e-05	1204.1	2.5843e-06	2.4857e-06	1271.5	251.25	2.5777e-06	2.4648e-06	313.12	89.214	70.355	20.494	2.5668e-06	28.709	246.138	177.568	175.251	91.291	242.918	238.636	91.417	98.463	256.786	226.432	98.048	105.118	105.559	112.102	222.052	111.212	-8191	255	
557.554	1	1	0	0	0.086499	0.1715	0.15828	0.10758	0.15945	0.10705	0.23099	0.38503	0.21675	0.15047	0.19431	0.14393	0.12375	0.076695	0.25248	0.14557	-4.2417	-5.0917	-4.5146	-5.0437	-5.1396	-4.4917	-5.3	-4.9771	-4.3583	-5.1875	-4.9042	-4.9083	-5.1687	-4.4271	-5.0188	-5.0583	253.823	381.891	299.736	147.658	334.855	303.555	417.837	415.775	423.176	431.583	358.415	394.418	355.238	250.860	246.114	159.883	0.0003017	0.00042006	7.6702e-05	1226.7	5.4308e-06	4.1431e-06	1297	252.97	4.6552e-06	3.3213e-06	315.4	89.109	70.452	20.218	2.9664e-06	28.298	0.00023967	0.00022552	6.1887e-05	1205.8	2.5449e-06	2.4979e-06	1271.7	250.83	2.5462e-06	2.5718e-06	313.09	89.048	70.223	20.443	2.5372e-06	28.656	241.544	171.255	163.371	91.485	247.768	276.535	91.306	98.478	254.294	247.087	98.189	104.968	105.477	111.805	167.845	111.341	-8191	255	
557.650	1	1	0	0	0.067697	0.16033	0.14199	0.11182	0.14814	0.33825	0.17025	0.23694	0.20281	0.14994	0.20478	0.15685	0.18475	0.14108	0.11859	0.12809	-4.1375	-5.0813	-4.625	-4.875	-5.2104	-4.7417	-5.1312	-5.0938	-4.6104	-5.0479	-4.9333	-4.7688	-5.1292	-4.6125	-4.8063	-5.2188	96.822	410.762	344.789	336.015	313.267	197.869	310.404	346.177	177.768	293.457	82.795	95.157	411.936	368.282	146.435	131.592	0.00031447	0.00034847	9.8565e-05	1221.1	5.8264e-06	4.913e-06	1293.9	252.59	3.9081e-06	3.3481e-06	313.51	89.557	70.179	20.233	4.2731e-06	28.359	0.00025107	0.00022853	6.4982e-05	1203.6	2.5495e-06	2.4973e-06	1268.3	250.7	2.5628e-06	2.5302e-06	312.52	89.119	70.079	20.424	2.4517e-06	28.562	243.754	149.664	202.447	91.545	254.226	269.262	91.312	98.605	273.131	191.797	97.852	105.116	104.996	112.285	245.792	111.389	-8191	255	
557.747	1	1	0	0	0.12126	0.15551	0.17402	0.21898	0.18391	0.13578	0.04952	0.081401	0.12228	0.083576	0.040309	0.2483	0.28159	0.13698	0.098698	0.062387	-4.1604	-5.1125	-4.6438	-4.8042	-5.1646	-4.6312	-4.9812	-5.0833	-4.6167	-4.9688	-4.9688	-4.7937	-5.2188	-4.6479	-4.7896	-5.3125	215.902	386.206	187.577	97.838	371.052	89.705	248.746	102.147	404.616	307.940	150.055	88.030	390.974	438.700	159.996	427.538	0.00029087	0.0004844	0.0001213	1218.4	4.0943e-06	3.6481e-06	1288.7	252.9	3.6728e-06	2.5938e-06	314.38	89.153	70.623	20.109	3.1583e-06	28.413	0.000246	0.00022921	6.396e-05	1202.2	2.6127e-06	2.4463e-06	1267.7	251.1	2.5488e-06	2.4229e-06	312.42	88.987	70.275	20.389	2.4478e-06	28.584	245.903	183.818	181.302	91.382	243.406	249.307	91.488	98.648	256.927	244.386	98.429	105.048	105.666	111.694	212.401	111.165	-8191	255	
557.843	1	1	0	0	0.15222	0.15804	0.1183	0.26386	0.26287	0.027956	0.073593	0.035644	0.26939	0.15996	0.059	0.10741	0.21507	0.23134	0.06597	0.17372	-4.1937	-4.9271	-4.8792	-4.6021	-5.0667	-4.6729	-4.8583	-5.2042	-4.5229	-4.9021	-4.9229	-4.5521	-5.2229	-4.8104	-4.8021	-5.1083	104.762	419.081	167.393	391.305	238.744	340.831	254.260	105.829	95.381	349.674	257.255	378.308	116.422	385.503	382.857	293.016	0.00027939	0.00025965	0.00015422	1218.7	5.0765e-06	3.5545e-06	1285	251.87	3.5819e-06	2.9824e-06	314.86	88.852	70.363	20.211	2.0126e-06	28.249	0.00023751	0.00022401	6.1985e-05	1201.7	2.5376e-06	2.4225e-06	1264.4	250.24	2.5365e-06	2.4081e-06	311.87	88.936	70.051	20.409	2.4478e-06	28.529	247.763	118.088	159.835	91.513	244.926	255.056	91.418	98.566	272.753	194.057	98.264	104.906	105.127	111.762	233.338	111.170	-8191	255	
557.937	1	1	0	0	0.26626	0.029599	0.15607	0.077386	0.2084	0.26431	0.30365	0.16825	0.18187	0.04901	0.10712	0.25916	0.12112	0.039164	0.21224	0.025553	-4.3542	-5.0125	-4.875	-4.5021	-5.0917	-4.7917	-4.7979	-5.3771	-4.625	-4.8958	-4.9333	-4.4625	-5.1813	-4.9604	-4.6333	-5.1354	368.779	186.082	400.139	292.416	171.234	135.715	394.411	408.889	200.027	389.603	91.279	169.447	403.896	148.581	392.911	377.735	0.00031422	0.00014081	4.1013e-05	1215.4	3.6051e-06	3.2344e-06	1287.8	252.58	3.378e-06	4.2301e-06	314.56	88.787	70.337	20.34	4.062e-06	28.31	0.00023827	0.00022512	6.2711e-05	1197.2	2.529e-06	2.4421e-06	1264.6	250.39	2.4414e-06	2.3578e-06	311.8	88.951	70.066	20.514	2.4253e-06	28.567	243.490	149.702	129.866	91.503	276.020	230.366	91.421	98.732	240.309	219.304	98.230	105.262	105.479	112.331	237.283	111.314	-8191	255	
558.035	1	1	0	0	0.019823	0.1774	0.10104	0.2281	0.058522	0.26995	0.10975	0.025886	0.15151	0.097718	0.050971	0.066567	0.023931	0.084224	0.25904	0.064826	-4.4375	-4.8458	-4.9896	-4.6958	-5.1271	-5.0375	-4.8562	-5.3187	-4.7542	-4.9583	-5.2646	-4.5896	-5.1188	-5.0292	-4.4979	-5.3812	270.371	431.247	377.370	406.678	324.537	229.578	394.656	149.830	271.590	271.610	233.592	403.798	168.219	148.351	242.607	96.899	0.00028838	0.00028434	9.5762e-05	1220.1	2.5668e-06	4.0357e-06	1279.3	252.38	2.3158e-06	4.4289e-06	313.18	89.44	70.403	20.18	2.21e-06	28.421	0.00023543	0.00021549	6.0942e-05	1197.1	2.5348e-06	2.3384e-06	1262.5	249.92	2.4279e-06	2.411e-06	311.22	89.042	70.158	20.423	2.3746e-06	28.642	247.431	171.802	161.330	91.380	223.805	245.208	91.526	98.774	238.296	226.232	98.113	105.224	105.282	112.124	223.452	111.375	-8191	255	
558.154	1	1	0	0	0.06023	0.1533	0.072893	0.3174	0.14252	0.1221	0.20453	0.26415	0.17085	0.11372	0.2005	0.18571	0.18971	0.16432	0.16209	0.08388	-4.4646	-4.7208	-5.1583	-4.7271	-5.025	-4.8958	-4.6417	-5.0833	-4.7521	-4.7604	-5.1979	-4.5875	-5.0917	-5.0833	-4.4979	-5.0813	440.696	176.243	236.941	364.798	388.350	249.972	362.133	340.266	146.261	152.705	338.298	402.437	278.127	96.251	418.346	400.824	0.00029339	0.00030265	0.00010209	1214.4	3.8747e-06	5.0431e-06	1285.3	253.05	3.7107e-06	2.0849e-06	313.12	88.992	70.121	20.164	2.6389e-06	28.18	0.00023954	0.00021784	5.9661e-05	1196.2	2.4917e-06	2.2923e-06	1262.5	250.34	2.3953e-06	2.4077e-06	311.28	88.861	70.072	20.46	2.4048e-06	28.518	245.210	199.893	142.014	91.212	217.714	328.966	91.316	98.698	243.026	190.580	98.154	105.481	105.436	111.848	236.527	111.276	-8191	255	
558.250	1	1	0	0	0.084164	0.12873	0.047273	0.063917	0.21385	0.23115	0.014128	0.23456	0.1989	0.045384	0.10368	0.12921	0.058139	0.088589	0.13883	0.043553	-4.3417	-4.6542	-5.2479	-4.7021	-4.8542	-5.0687	-4.6667	-5.1104	-4.7188	-4.6021	-5.2354	-4.8042	-4.9437	-5.0729	-4.5229	-5.1729	159.023	340.709	135.037	83.046	410.607	173.025	276.582	382.876	295.101	217.745	414.539	232.772	383.633	432.869	255.214	120.427	0.0002909	0.00020957	0.00011382	1211.3	5.0615e-06	3.1456e-06	1283	252.92	2.4446e-06	4.292e-06	313.84	88.926	70.061	20.212	3.5311e-06	28.186	0.00024081	0.00022627	5.9902e-05	1194.3	2.4847e-06	2.4043e-06	1263.1	250.14	2.416e-06	2.3176e-06	311.51	88.798	70.076	20.438	2.374e-06	28.566	246.395	124.579	179.388	91.381	237.722	206.937	91.627	98.824	259.076	235.336	98.112	104.968	105.497	111.607	247.653	111.652	-8191	255	
558.346	1	1	0	0	0.21493	0.073593	0.014264	0.21159	0.22258	0.14592	0.22124	0.10655	0.040598	0.23852	0.10007	0.10983	0.14023	0.10615	0.14657	0.19429	-4.4729	-4.4062	-5.025	-4.7917	-4.8458	-5.1375	-4.5229	-5.0563	-4.875	-4.5062	-5.1208	-4.7792	-4.8938	-5.2937	-4.4313	-5.0646	363.790	306.775	225.389	316.398	350.474	129.957	386.514	339.835	383.325	347.494	386.373	234.327	161.443	194.948	314.991	402.243	0.00033189	0.00017648	8.991e-05	1213.2	4.1372e-06	3.5743e-06	1285	252.23	1.3525e-06	2.7446e-06	311.15	88.757	70.287	20.076	4.2576e-06	28.16	0.0002378	0.00022696	6e-05	1194.7	2.4377e-06	2.3762e-06	1261.7	249.91	2.3714e-06	2.4145e-06	310.72	88.599	69.781	20.372	2.4172e-06	28.421	245.789	209.873	213.853	91.442	250.049	241.852	91.529	98.940	238.757	263.145	98.430	105.306	105.499	112.015	233.035	111.635	-8191	255	
558.442	1	1	0	0	0.21241	0.25201	0.11711	0.18239	0.090833	0.082367	0.11716	0.22429	0.024038	0.11264	0.051272	0.19389	0.17411	0.15265	0.25789	0.096609	-4.5958	-4.4042	-5.1521	-4.8896	-4.7688	-5.2104	-4.8104	-4.9437	-5.0979	-4.6521	-5.2333	-4.7708	-4.625	-5.2188	-4.5687	-4.8438	316.272	363.901	104.856	148.536	263.399	298.036	129.720	347.507	173.507	295.271	349.881	296.596	433.502	424.032	207.020	217.685	0.00029324	0.00026007	6.3695e-05	1205.3	4.3557e-06	5.8023e-06	1278.4	250.97	3.1199e-06	4.3654e-06	311.52	89.346	69.678	20.011	2.9405e-06	27.915	0.00023718	0.00022655	6.2889e-05	1188.9	2.6018e-06	2.5088e-06	1255.9	249.2	2.4617e-06	2.4087e-06	310.32	88.639	69.753	20.298	2.4136e-06	28.406	250.822	181.257	239.252	91.326	232.546	237.237	91.637	98.708	272.532	195.867	98.391	105.082	105.228	112.289	239.542	111.104	-8191	255	
558.538	1	1	0	0	0.15646	0.095975	0.07658	0.15698	0.12437	0.019469	0.22984	0.19073	0.1621	0.074486	0.084642	0.082057	0.20572	0.15606	0.11232	0.16254	-4.7396	-4.5854	-5.1021	-5.0667	-4.6958	-5.1792	-4.6667	-4.9563	-4.9229	-4.3812	-5.1167	-5.0167	-4.8146	-5.0854	-4.6604	-4.675	223.207	362.494	342.843	416.398	94.782	92.928	385.697	358.245	435.219	341.481	286.677	388.850	421.427	361.576	367.933	339.580	0.00028734	0.00025487	0.00011101	1208.1	4.6453e-06	2.4459e-06	1279.6	251.18	2.026e-06	2.8331e-06	314.6	88.658	70.107	20.031	1.819e-06	28.095	0.00023508	0.00021648	6.0254e-05	1189.5	2.5388e-06	2.3455e-06	1256.5	249.08	2.4533e-06	2.4969e-06	310.56	88.463	69.82	20.319	2.3619e-06	28.489	248.329	168.045	188.727	91.266	246.273	260.316	91.572	98.765	273.178	208.973	98.029	105.192	105.492	112.055	203.592	111.381	-8191	255	
558.635	1	1	0	0	0.091165	0.24701	0.11668	0.14371	0.13186	0.069568	0.31687	0.17541	0.102	0.080913	0.26105	0.025615	0.22732	0.016084	0.16703	0.093867	-4.7854	-4.4396	-4.9792	-5.0687	-4.5208	-5.175	-4.7833	-4.6854	-5.1771	-4.4833	-5.2521	-4.8792	-4.5813	-5.175	-4.6979	-4.8063	337.669	331.948	195.052	356.395	188.121	259.009	382.723	358.435	162.484	247.339	389.589	93.219	95.628	230.248	189.108	217.261	0.00028837	0.00039588	0.00014465	1207.1	4.5136e-06	1.9335e-06	1270.9	251.15	3.0597e-06	2.7148e-06	312.98	88.907	69.779	20.218	3.4605e-06	28.33	0.00023843	0.00022669	6.0778e-05	1189.6	2.5644e-06	2.3766e-06	1255.9	248.85	2.3874e-06	2.4783e-06	310.55	88.646	69.705	20.393	2.4481e-06	28.494	240.523	139.850	170.035	91.404	262.508	233.716	91.502	98.996	269.697	237.072	98.187	105.181	105.300	111.909	214.794	111.306	-8191	255	
558.731	1	1	0	0	0.13127	0.051676	0.11314	0.1788	0.024386	0.15423	0.080438	0.11991	0.11583	0.081107	0.083244	0.028996	0.18284	0.10159	0.10179	0.024682	-4.7375	-4.6188	-4.7937	-5.275	-4.5188	-5.1208	-4.8938	-4.6208	-5.0771	-4.625	-5.0354	-4.9854	-4.4854	-5.0563	-4.6521	-4.5771	135.863	237.703	107.477	367.741	279.741	347.986	357.952	170.104	351.508	354.646	390.325	85.089	277.780	431.428	167.968	192.190	0.00031274	0.00035492	0.00015292	1205.8	3.2309e-06	6.325e-06	1271	250.84	4.8012e-06	2.9056e-06	312.74	87.944	69.78	20.011	3.8606e-06	28.145	0.00023615	0.0002233	6.2924e-05	1188.5	2.5002e-06	2.4421e-06	1253.9	248.61	2.4422e-06	2.4683e-06	310.48	88.224	69.628	20.269	2.5719e-06	28.371	242.013	176.307	166.569	91.441	225.256	230.510	91.534	98.574	261.395	211.755	97.985	105.308	105.513	111.862	221.456	111.224	-8191	255	
558.827	1	1	0	0	0.20871	0.19187	0.087743	0.09253	0.1543	0.10876	0.30325	0.25297	0.14409	0.082104	0.051364	0.13922	0.11663	0.14712	0.066993	0.1091	-4.7937	-4.7521	-4.7042	-5.3104	-4.4938	-5.0542	-4.725	-4.8063	-5.3063	-4.7229	-4.7979	-4.9333	-4.6854	-5.1354	-4.9563	-4.5687	107.355	170.663	198.615	141.360	106.556	110.370	398.852	411.865	85.311	111.251	110.199	359.627	403.389	264.070	159.244	326.337	0.00028787	0.00023025	5.3051e-05	1207.2	3.3986e-06	1.8811e-06	1276.6	249.29	3.0432e-06	3.194e-06	311.07	87.67	69.42	19.927	2.0499e-06	28.086	0.00023887	0.00023577	6.3402e-05	1188.1	2.6388e-06	2.5396e-06	1253.6	247.88	2.632e-06	2.623e-06	309.1	87.888	69.438	20.184	2.6283e-06	28.282	246.107	158.320	184.716	91.458	264.223	211.257	91.367	98.617	252.563	252.134	98.100	105.532	105.635	112.194	250.106	111.725	-8191	255	
558.946	1	1	0	0	0.14716	0.097866	0.11988	0.46203	0.10283	0.20283	0.11269	0.13978	0.054266	0.14037	0.072317	0.12744	0.13776	0.19366	0.056609	0.0151	-4.7562	-4.7875	-4.7625	-5.1354	-4.6521	-5.0708	-5.0979	-4.6604	-5.2833	-4.7646	-4.7083	-5.1667	-4.7104	-4.8979	-4.8375	-4.6646	256.379	197.022	356.211	99.193	155.632	128.323	381.999	362.505	107.318	192.257	415.938	421.205	117.358	435.965	363.978	140.432	0.00028435	0.00019204	9.6643e-05	1209.8	5.2361e-06	2.0812e-06	1276.8	249.68	4.0459e-06	1.3255e-06	312.52	88.199	69.519	20.076	2.795e-06	28.033	0.0002598	0.00024154	6.8273e-05	1191.9	2.8158e-06	2.7209e-06	1255.9	248.38	2.8549e-06	2.6983e-06	310.17	88.178	69.449	20.267	2.8074e-06	28.257	243.678	178.620	148.981	91.457	258.213	231.515	91.292	98.827	280.802	314.641	98.109	105.271	105.524	112.118	249.446	111.385	-8191	255	
559.042	1	1	0	0	0.090135	0.17514	0.078339	0.14851	0.20241	0.18991	0.13769	0.25751	0.11772	0.24224	0.10915	0.23002	0.066425	0.085477	0.29262	0.052986	-4.8104	-4.9646	-4.5917	-5.2479	-4.4896	-4.9521	-5.0687	-4.6813	-5.0229	-4.8354	-4.6813	-5.2583	-4.7042	-4.9437	-5.0271	-4.6708	185.347	420.696	252.748	357.005	88.263	275.956	339.527	393.040	212.544	434.244	113.582	387.613	360.133	134.663	235.274	342.882	0.00028063	0.00023725	6.7844e-05	1216.9	3.2597e-06	3.4568e-06	1284.6	251.14	4.7855e-06	1.6367e-06	310.77	88.498	69.803	19.922	2.516e-06	28.015	0.00027787	0.00026432	7.1919e-05	1196.7	2.9718e-06	2.8954e-06	1262.7	249.12	3.0016e-06	2.8885e-06	310.43	88.247	69.719	20.236	2.938e-06	28.32	244.566	166.314	143.181	91.575	230.330	273.973	91.588	98.980	234.654	231.103	98.079	105.152	105.444	112.339	238.088	111.267	-8191	255	
559.115	1	1	0	0	0.073014	0.073306	0.17772	0.13944	0.18036	0.25343	0.17288	0.24849	0.21488	0.065294	0.10235	0.18864	0.15973	0.2369	0.089797	0.16055	-4.675	-4.9104	-4.5396	-5.2063	-4.6125	-4.925	-5.1958	-4.6917	-4.9833	-4.8938	-4.7333	-5.1875	-4.6375	-4.7979	-5.1521	-4.6	394.086	395.167	159.525	118.125	173.112	99.788	123.133	412.263	320.186	404.954	102.206	382.568	350.111	429.176	428.623	141.320	0.00031846	0.00034354	0.00013667	1224	2.5478e-06	2.446e-06	1288.6	253.11	3.9749e-06	4.1602e-06	313.95	88.522	69.8	19.917	4.502e-06	27.992	0.00027856	0.00027508	7.3988e-05	1202.8	2.9648e-06	2.9211e-06	1268.6	250.22	2.9919e-06	2.9416e-06	311.89	88.461	69.946	20.289	2.9572e-06	28.414	244.561	195.110	163.850	91.185	262.916	161.074	91.412	98.679	250.173	214.645	98.203	104.984	105.261	112.007	272.425	111.674	-8191	255	
559.234	1	1	0	0	0.050309	0.15201	0.060982	0.1009	0.20497	0.15809	0.091671	0.074379	0.08616	0.17911	0.092525	0.1507	0.2444	0.12769	0.053755	0.10425	-4.6958	-4.9625	-4.5958	-5.1312	-4.7604	-4.6875	-5.2937	-4.6354	-4.9083	-5.0854	-4.5667	-5.0938	-4.8333	-4.6375	-5.1104	-4.6271	341.508	324.560	369.202	111.822	371.389	261.969	350.409	92.649	100.256	100.608	128.800	419.804	114.282	100.341	253.777	389.884	0.00029353	0.00031216	6.7088e-05	1225.3	2.9634e-06	4.4262e-06	1295	253.36	2.1739e-06	1.9927e-06	315.11	88.85	69.813	20.025	1.5881e-06	28.112	0.00028671	0.00027302	7.724e-05	1206.6	3.0281e-06	3.0183e-06	1272.4	250.83	3.1363e-06	3.1149e-06	312.36	88.863	70.164	20.351	3.0797e-06	28.425	244.590	186.371	184.353	91.433	262.651	271.597	91.174	98.600	267.441	226.016	98.121	105.224	105.371	112.066	253.943	111.446	-8191	255	
559.330	1	1	0	0	0.12204	0.13447	0.17356	0.15859	0.19784	0.31052	0.16588	0.097685	0.22485	0.17163	0.079318	0.1375	0.15876	0.23666	0.065907	0.070372	-4.5854	-4.9854	-4.4896	-5.4938	-4.9104	-4.6958	-5.2792	-4.5917	-4.8646	-5.0604	-4.6208	-5.2354	-4.9979	-4.5146	-5.1271	-4.6021	160.137	398.853	293.766	164.678	270.164	400.025	418.859	240.983	305.807	339.782	371.292	107.060	125.272	366.179	351.161	372.139	0.00029876	3.6946e-05	0.00010779	1230	4.1868e-06	3.8601e-06	1297.8	253.06	2.1961e-06	3.5167e-06	314.68	88.606	70.321	20.174	1.7289e-06	28.227	0.00028701	0.00029157	8.1187e-05	1211.3	3.2156e-06	3.1712e-06	1277.1	251.5	3.1846e-06	3.0736e-06	313.2	88.85	70.278	20.432	3.2245e-06	28.51	239.365	134.974	161.105	91.280	249.505	281.216	91.382	98.687	277.319	234.918	98.298	105.267	105.046	111.791	229.150	111.290	-8191	255	
559.427	1	1	0	0	0.25173	0.29613	0.13897	0.24004	0.07229	0.21386	0.19876	0.092156	0.15491	0.2671	0.074367	0.23669	0.15426	0.15017	0.12305	0.12919	-4.4854	-5.2063	-4.5583	-5.2417	-4.9187	-4.4896	-5.4062	-4.7917	-4.8042	-5.3396	-4.725	-4.9417	-4.8625	-4.7188	-5.0104	-4.7521	436.937	171.411	426.528	403.069	348.273	273.769	361.719	358.577	221.451	432.309	436.715	390.475	404.043	318.717	271.900	352.676	0.00028876	0.00029832	1.297e-05	1234.1	3.2509e-06	2.2397e-06	1298.5	254.5	4.0044e-06	4.6807e-06	315.67	89.218	70.427	20.037	4.2362e-06	28.29	0.00030142	0.0002909	8.1731e-05	1215.2	3.2315e-06	3.2704e-06	1281.3	252.12	3.2923e-06	3.2508e-06	313.8	89.064	70.368	20.37	3.1885e-06	28.572	242.603	130.560	162.480	91.407	247.947	250.273	91.509	98.400	265.749	247.322	98.254	105.263	105.126	112.051	214.281	111.562	-8191	255	
559.523	1	1	0	0	0.071483	0.027725	0.075676	0.061392	0.09555	0.040845	0.12583	0.10105	0.17163	0.1767	0.14093	0.19523	0.22405	0.26614	0.13572	0.13958	-4.5125	-5.2708	-4.575	-5.1354	-4.9812	-4.6583	-5.2292	-4.9458	-4.7937	-5.2771	-4.8896	-5.0667	-5.0708	-4.525	-5.1021	-4.9062	431.317	309.621	125.480	110.944	161.782	135.656	136.325	399.209	407.175	250.380	166.932	128.503	412.182	98.119	439.732	361.719	0.00029255	0.00040874	4.9986e-05	1236.2	5.5876e-06	5.4588e-06	1303.1	253.63	3.4545e-06	5.0087e-06	316.12	89.147	70.331	20.085	3.0213e-06	28.072	0.00029398	0.00029432	8.0995e-05	1218.9	3.3038e-06	3.2645e-06	1282.3	252.2	3.3494e-06	3.3752e-06	314.25	89.237	70.308	20.426	3.2619e-06	28.475	242.504	142.418	156.114	91.355	275.373	229.120	91.374	98.409	240.109	262.164	98.073	105.224	105.270	111.881	239.173	111.301	-8191	255	
559.643	1	1	0	0	0.19409	0.066336	0.13908	0.29761	0.086627	0.11438	0.2029	0.12017	0.10262	0.071516	0.10275	0.12386	0.16084	0.10566	0.077985	0.046654	-4.4229	-5.2167	-4.6833	-4.8604	-5.1042	-4.6271	-5.2438	-4.9437	-4.6417	-5.2146	-4.8479	-4.7521	-5.0396	-4.7312	-4.875	-5.0042	288.619	317.672	435.536	375.854	355.510	351.438	377.837	116.142	276.279	309.750	405.618	387.733	416.445	364.257	199.157	176.660	0.00031198	0.00053579	5.5453e-05	1238.5	4.9667e-06	4.0533e-06	1303.1	254.08	1.3164e-06	3.9488e-06	314.9	89.339	70.137	20.155	5.0124e-06	28.08	0.00030281	0.0002938	8.0932e-05	1220.8	3.3423e-06	3.1809e-06	1285.2	252.1	3.3735e-06	3.2411e-06	314.16	89.203	70.443	20.469	3.3378e-06	28.498	242.167	126.161	83.095	91.573	259.750	211.339	91.343	98.534	247.785	247.388	98.114	105.157	105.366	112.038	264.706	111.077	-8191	255	
559.738	1	1	0	0	0.11093	0.048482	0.063675	0.39548	0.049794	0.12404	0.37412	0.26847	0.15955	0.18571	0.070487	0.17768	0.022874	0.16517	0.17435	0.08622	-4.3938	-5.0938	-4.6312	-4.8854	-4.9125	-4.6562	-5.1021	-4.95	-4.5729	-5.2271	-4.7271	-4.8625	-5.0104	-4.5542	-5.0271	-5.2458	94.156	210.481	134.080	382.359	103.891	314.335	354.606	337.039	429.581	157.472	310.572	128.713	320.260	358.673	274.586	198.271	0.00029227	0.0003503	9.7564e-05	1235.6	6.9692e-06	2.5924e-06	1302.4	254.36	2.8744e-06	3.4317e-06	316.57	88.614	70.658	20.087	3.5121e-06	28.084	0.00030019	0.0002995	8.2045e-05	1219.3	3.2828e-06	3.2616e-06	1284.7	252.75	3.2175e-06	3.18e-06	314.56	89.029	70.593	20.439	3.2231e-06	28.505	241.318	159.186	207.347	91.226	253.323	241.098	91.584	98.490	247.339	240.019	98.032	105.478	105.050	111.776	249.802	111.407	-8191	255	
559.836	1	1	0	0	0.16161	0.1341	0.16113	0.068516	0.07028	0.11843	0.28045	0.20128	0.19202	0.11656	0.15631	0.19446	0.068153	0.058536	0.15726	0.14634	-4.1958	-5.1542	-4.9313	-4.7937	-5.1479	-4.6	-5.1333	-5.2063	-4.5813	-5.2063	-4.9396	-4.6583	-5.3583	-4.7458	-4.9333	-5.1687	439.724	136.333	141.399	363.677	102.991	340.207	393.677	368.340	230.180	163.984	235.915	393.792	306.532	124.238	266.707	387.744	0.00028311	0.00026607	6.5229e-05	1240.8	4.9296e-06	3.3301e-06	1303.6	254.66	3.1096e-06	2.3971e-06	316.19	89.541	70.667	20.259	9.6476e-07	28.263	0.00029349	0.00029668	8.2802e-05	1219.3	3.2268e-06	3.1286e-06	1285.2	252.81	3.1956e-06	3.1749e-06	314.58	89.321	70.491	20.47	3.2743e-06	28.615	238.643	173.620	181.377	91.319	252.765	247.328	91.407	98.707	289.245	270.107	98.207	105.079	105.258	111.779	177.426	111.469	-8191	255	
559.930	1	1	0	0	0.16196	0.20828	0.11804	0.084299	0.087849	0.15202	0.034444	0.15148	0.034086	0.12768	0.12266	0.12004	0.22677	0.044186	0.12108	0.057055	-4.1542	-5.3229	-4.8417	-4.8854	-5.1771	-4.7875	-4.9479	-5.3458	-4.7417	-5.2146	-5.05	-4.7229	-5.1	-4.7021	-4.8521	-5.0521	259.884	336.072	95.907	267.398	320.424	282.080	245.141	358.077	265.462	398.458	284.302	401.599	429.081	268.611	167.713	111.047	0.00031263	0.00047292	9.6485e-05	1242.3	5.8357e-06	1.6262e-06	1307.1	254.65	2.2504e-06	4.1836e-06	316.83	89.021	70.669	20.151	2.7292e-06	28.239	0.00030571	0.00029926	8.0705e-05	1221.4	3.267e-06	3.2258e-06	1286.5	252.74	3.2548e-06	3.2768e-06	314.43	89.273	70.586	20.448	3.1936e-06	28.552	248.373	170.659	201.212	91.299	223.462	244.982	91.210	98.597	277.009	232.496	97.988	104.924	105.024	111.998	208.181	111.353	-8191	255	
560.026	1	1	0	0	0.068771	0.15767	0.1119	0.086893	0.056669	0.085595	0.27318	0.3599	0.15273	0.22338	0.11107	0.02125	0.076838	0.18345	0.10195	0.27317	-4.2333	-4.8562	-4.7167	-4.6833	-5.1104	-4.7542	-5.0104	-5.2458	-4.4792	-4.85	-5.1188	-4.5667	-5.0833	-4.8604	-4.8479	-5.1146	341.599	204.140	84.100	301.441	95.214	303.904	393.769	379.175	328.734	350.922	360.335	402.687	147.541	104.548	339.484	416.064	0.0002935	0.0003637	4.4667e-05	1234.1	3.4416e-06	1.8324e-06	1309.5	254.47	3.367e-06	3.2332e-06	316.93	88.981	70.278	20.085	1.9857e-06	28.108	0.00029987	0.00029748	8.4059e-05	1218.6	3.4e-06	3.1986e-06	1285.7	252.78	3.333e-06	3.2985e-06	314.7	89.22	70.581	20.373	3.2821e-06	28.538	238.144	179.635	263.325	91.353	243.542	245.378	91.437	98.638	244.372	256.477	98.183	104.997	105.156	112.117	214.134	111.422	-8191	255	
560.122	1	1	0	0	0.034978	0.14515	0.11289	0.14847	0.24691	0.14413	0.34058	0.20251	0.15721	0.11127	0.13146	0.20694	0.16956	0.19665	0.1598	0.214	-4.3104	-5.0021	-4.9583	-4.7104	-5.1083	-4.9125	-4.9167	-5.0917	-4.6937	-4.7771	-5.1875	-4.5875	-5.0146	-4.9521	-4.6333	-5.1708	112.613	208.088	362.213	128.824	395.182	300.307	310.736	315.329	314.080	156.096	408.758	378.068	417.995	418.531	268.615	83.030	0.00031371	0.00015278	0.00013252	1237.4	2.8087e-06	3.7308e-06	1308.1	255.15	3.4268e-06	4.2821e-06	316.27	89.289	70.479	20.222	3.0455e-06	28.164	0.00030851	0.00030508	8.454e-05	1221.1	3.386e-06	3.1864e-06	1284.7	252.53	3.3291e-06	3.2205e-06	314.58	89.198	70.484	20.456	3.2987e-06	28.563	249.422	192.420	140.420	91.409	260.936	246.357	91.282	98.736	260.485	209.729	98.022	105.288	105.429	111.906	240.317	111.419	-8191	255	
560.243	1	1	0	0	0.113	0.19717	0.081131	0.3417	0.12827	0.15294	0.26997	0.19023	0.089865	0.1751	0.065209	0.19053	0.085582	0.30996	0.16482	0.18222	-4.3083	-4.9292	-5.1	-4.5854	-4.95	-5.0333	-4.7417	-5.1521	-4.5687	-4.7833	-5.2146	-4.5958	-5.0813	-5.0417	-4.4354	-5.2312	90.712	258.624	204.000	397.188	393.457	158.409	437.800	410.355	402.849	188.970	110.335	104.565	207.172	133.396	305.186	354.346	0.00029475	0.00028814	0.00011639	1240	3.0883e-06	6.0562e-06	1309.7	255.53	4.7249e-06	5.0147e-06	316.39	89.605	70.649	20.271	2.0831e-06	28.377	0.0003001	0.00029902	8.3158e-05	1219.8	3.3299e-06	3.2731e-06	1285.3	252.92	3.2233e-06	3.1126e-06	314.61	89.367	70.516	20.45	3.1604e-06	28.557	243.579	154.966	205.494	91.170	289.634	262.700	91.458	98.755	281.625	255.924	98.005	105.267	105.510	111.934	238.385	111.342	-8191	255	
560.339	1	1	0	0	0.18915	0.081567	0.039648	0.17013	0.16209	0.12446	0.13505	0.18061	0.035215	0.083511	0.33841	0.071785	0.20691	0.14785	0.27502	0.14506	-4.4771	-4.8396	-5.0437	-4.6833	-4.9313	-4.9292	-4.7562	-5.2375	-4.8042	-4.5646	-5.1312	-4.6229	-4.9792	-5.2125	-4.5708	-5.1083	277.696	178.901	172.987	437.705	250.452	118.265	288.697	116.659	420.602	417.014	420.185	98.281	430.265	399.856	157.662	114.721	0.00030519	0.00040196	4.0105e-05	1237.2	4.1393e-06	6.5788e-07	1304	255.26	1.6942e-06	3.1867e-06	316.52	88.869	70.897	20.148	3.0065e-06	28.182	0.00029158	0.00029429	7.9345e-05	1222	3.3061e-06	3.1781e-06	1285.5	252.74	3.2739e-06	3.2308e-06	314.97	89.187	70.561	20.433	3.1611e-06	28.563	244.043	192.861	140.646	91.398	241.945	142.527	91.307	98.772	318.704	247.789	98.297	105.124	105.445	111.941	224.382	111.139	-8191	255	
560.411	1	1	0	0	0.16715	0.19145	0.11653	0.059349	0.24856	0.24968	0.17751	0.106	0.037401	0.097581	0.19709	0.063893	0.37946	0.15243	0.18779	0.12674	-4.6083	-4.5792	-5.0833	-4.9	-4.8083	-5.2479	-4.7042	-5.1917	-4.9417	-4.6042	-5.3125	-4.6292	-4.7958	-5.0667	-4.7271	-5.1708	393.820	199.170	171.315	115.995	342.231	177.540	416.891	440.766	438.570	411.769	440.518	341.025	381.523	402.691	252.773	320.549	0.00030741	0.00014364	0.00016722	1244.4	4.6002e-06	4.3065e-06	1305.9	255.13	2.4723e-06	3.0361e-06	317.9	89.431	70.58	20.14	1.2315e-06	28.109	0.00029862	0.00029601	8.0629e-05	1221.7	3.3382e-06	3.235e-06	1284.2	252.95	3.2804e-06	3.2437e-06	314.72	89.136	70.435	20.422	3.1863e-06	28.491	244.478	155.838	119.998	91.248	259.111	231.815	91.454	98.891	267.241	252.558	97.824	105.108	105.163	111.856	189.225	111.331	-8191	255	
560.507	1	1	0	0	0.064157	0.27527	0.16955	0.22998	0.11482	0.27764	0.26536	0.058997	0.14687	0.18089	0.21332	0.11388	0.085961	0.12641	0.14029	0.087723	-4.6229	-4.6917	-5.1771	-4.8667	-4.8042	-5.1562	-4.7021	-4.8812	-4.8792	-4.5917	-5.0875	-4.85	-4.8812	-5.175	-4.6188	-5.0417	260.720	93.911	260.700	433.010	108.722	143.920	92.362	323.217	211.086	85.677	342.689	168.900	142.134	273.501	102.849	315.657	0.00030313	0.00028464	9.8821e-05	1238.1	4.934e-06	2.8487e-06	1305.6	254.61	3.7816e-06	1.9012e-06	315.62	89.58	70.433	20.158	3.1669e-06	28.206	0.00030195	0.00029521	8.1627e-05	1220.7	3.2837e-06	3.1182e-06	1286.1	252.54	3.1508e-06	3.2476e-06	314.35	89.388	70.604	20.411	3.1912e-06	28.597	242.929	196.130	203.825	91.186	220.954	157.928	91.580	98.713	222.553	228.764	97.785	105.191	105.518	111.746	261.197	111.268	-8191	255	
560.628	1	1	0	0	0.10499	0.17268	0.17115	0.10887	0.25462	0.056084	0.18418	0.25274	0.28323	0.11774	0.068396	0.098539	0.11749	0.2218	0.27317	0.16213	-4.5542	-4.6	-5.1875	-4.9875	-4.6667	-5.1583	-4.7292	-5	-5.0271	-4.5417	-5.2562	-4.9146	-4.6771	-4.975	-4.5583	-4.8604	369.641	350.746	350.236	151.849	134.741	100.646	197.009	353.960	191.694	148.953	192.918	324.814	90.059	145.369	342.038	329.582	0.00028213	0.00037947	9.211e-05	1241.4	7.07e-06	4.0521e-06	1308.8	254.07	3.2778e-06	2.7837e-06	315.56	89.372	70.555	20.162	3.933e-06	28.091	0.00030074	0.00030014	8.0639e-05	1221.6	3.2983e-06	3.1662e-06	1286.9	252.33	3.2701e-06	3.2406e-06	313.8	89.318	70.519	20.474	3.124e-06	28.575	243.624	137.079	138.249	91.275	253.151	248.617	91.495	98.635	258.435	242.729	97.893	105.386	105.240	112.123	235.837	110.984	-8191	255	
560.722	1	1	0	0	0.11911	0.22084	0.13251	0.22808	0.086447	0.20188	0.23987	0.026743	0.071419	0.24772	0.10985	0.23955	0.12718	0.33214	0.11857	0.072916	-4.7708	-4.6	-5.0104	-4.875	-4.6396	-5.1292	-4.8146	-5.0146	-5.0437	-4.5729	-5.2063	-5.0062	-4.6813	-5.2125	-4.725	-4.975	286.391	380.740	255.884	432.263	132.267	95.025	369.725	269.603	395.952	258.356	333.638	104.791	265.741	81.235	323.101	296.025	0.00028567	0.0004498	0.0001363	1239.9	6.3564e-06	3.6115e-06	1309.4	254.27	3.1858e-06	3.5619e-06	316.98	89.31	70.377	20.179	2.3893e-06	28.309	0.00029683	0.00029417	8.0541e-05	1220.9	3.3267e-06	3.2075e-06	1286.8	252.68	3.1861e-06	3.2658e-06	315.11	89.307	70.43	20.433	3.1399e-06	28.522	241.556	179.355	193.587	91.346	229.384	248.387	91.464	98.911	244.253	233.947	98.273	104.776	105.503	111.924	241.800	111.440	-8191	255	
560.818	1	1	0	0	0.12628	0.03608	0.27815	0.19331	0.069214	0.20055	0.39323	0.089652	0.1092	0.13351	0.16521	0.28309	0.041887	0.066121	0.030184	0.15321	-4.8917	-4.5854	-5.0083	-5.1042	-4.4812	-5.1792	-4.6979	-4.8271	-5.1917	-4.7	-5.1125	-5.025	-4.6083	-5.2188	-4.7375	-4.7125	228.011	324.483	312.443	420.513	310.980	343.532	429.556	393.954	132.649	416.824	371.776	346.863	287.462	356.361	398.720	105.636	0.00030496	0.00031908	5.6679e-05	1240	2.6596e-06	3.5749e-06	1304.2	254.3	3.7235e-06	4.7625e-06	314.54	88.956	70.463	20.174	3.6021e-06	28.364	0.00029619	0.00028566	8.0866e-05	1221	3.231e-06	3.1568e-06	1283.3	252.65	3.2316e-06	3.1841e-06	313.97	89.106	70.381	20.46	3.1928e-06	28.574	242.409	165.039	232.989	91.199	221.298	230.899	91.504	98.685	286.229	216.234	98.163	105.104	105.354	112.189	233.900	110.880	-8191	255	
560.916	1	1	0	0	0.06973	0.086724	0.2773	0.22963	0.088608	0.2646	0.10677	0.19438	0.10026	0.28564	0.16387	0.11089	0.12115	0.1578	0.17622	0.2159	-4.7625	-4.6979	-4.9208	-5.1354	-4.6625	-5.2646	-4.8875	-4.8354	-5.2167	-4.6417	-5.0708	-5.1104	-4.6875	-5.1875	-4.8333	-4.6667	328.628	176.249	217.060	420.872	82.098	263.035	346.537	343.209	123.550	168.393	241.285	385.401	427.884	387.955	353.277	416.950	0.00030368	0.00029946	0.0001239	1239.6	3.0894e-06	2.9984e-06	1309.3	254.03	3.0107e-06	3.4262e-06	315.48	89.352	70.135	20.1	9.0912e-07	28.22	0.00029334	0.00028552	7.9358e-05	1219.6	3.2067e-06	3.1072e-06	1284.6	252.22	3.0751e-06	3.2663e-06	314.37	89.145	70.401	20.437	3.1651e-06	28.579	238.432	173.254	184.127	91.350	240.036	216.755	91.437	98.604	261.583	189.601	98.242	104.826	105.455	111.902	245.676	111.138	-8191	255	
561.035	1	1	0	0	0.30478	0.19231	0.35146	0.14994	0.22594	0.20304	0.098572	0.35328	0.13044	0.12751	0.19277	0.27428	0.39253	0.059021	0.16984	0.21747	-4.8187	-4.7125	-4.8354	-5.2312	-4.6042	-4.9646	-5.0729	-4.6438	-5.1667	-4.7771	-4.7271	-5.2521	-4.6562	-5.0042	-4.8313	-4.8646	286.640	130.235	292.960	386.839	126.822	125.019	407.566	420.467	191.017	222.402	148.054	386.445	179.184	314.924	138.194	285.784	0.00028996	0.00019251	7.722e-05	1236.9	5.9365e-06	4.4912e-06	1304.3	253.88	4.7548e-06	4.3184e-06	316.23	89.476	70.398	20.132	3.151e-06	28.192	0.0002975	0.00029131	8.0922e-05	1220	3.2101e-06	3.1726e-06	1283.6	252.42	3.1817e-06	3.0919e-06	313.94	89.118	70.357	20.421	3.1349e-06	28.505	241.482	162.556	168.028	91.384	265.014	273.087	91.394	98.901	252.838	229.746	98.215	105.066	105.116	112.014	244.938	111.286	-8191	255	
561.107	1	1	0	0	0.0535	0.077196	0.054923	0.12817	0.14013	0.087667	0.089106	0.11027	0.079419	0.20073	0.06853	0.12598	0.091251	0.13297	0.067525	0.25202	-5.0271	-4.8354	-4.7417	-5.1792	-4.6396	-5.0771	-5.0604	-4.7021	-5.1312	-4.8271	-4.7542	-5.2604	-4.5875	-4.925	-5.15	-4.5229	211.987	385.532	141.096	167.898	131.703	303.369	127.885	335.781	286.873	392.026	211.512	407.079	134.457	279.795	210.108	172.520	0.00029366	0.00040183	9.9528e-05	1235.7	3.8943e-06	2.366e-06	1304.7	253.58	4.3608e-06	1.932e-06	316.42	89.227	70.595	20.097	5.283e-06	28.06	0.00028945	0.00028141	7.9198e-05	1218.3	3.2003e-06	3.1376e-06	1282.9	251.9	3.1177e-06	3.0232e-06	314.54	88.982	70.475	20.396	3.0445e-06	28.443	244.736	183.025	188.100	91.163	224.814	266.673	91.448	98.558	245.983	232.467	98.114	105.069	105.560	112.211	240.294	111.423	-8191	255	
561.203	1	1	0	0	0.13664	0.065267	0.20894	0.11866	0.1928	0.17391	0.24302	0.095198	0.080253	0.058183	0.084985	0.015032	0.27346	0.16021	0.12056	0.33821	-4.8604	-4.6854	-4.6625	-5.2125	-4.6021	-4.9771	-5.2771	-4.8042	-5.1188	-4.7917	-4.7854	-5.3958	-4.7354	-4.8146	-4.9083	-4.5521	391.189	89.577	437.605	294.484	404.270	109.143	330.692	360.122	393.470	181.762	314.442	132.865	81.335	102.705	123.767	356.493	0.00031958	0.00021352	8.9353e-05	1237	3.4736e-06	3.3325e-06	1300.7	252.87	3.6642e-06	3.1378e-06	314.01	88.895	70.055	20.073	3.1977e-06	28.327	0.00028867	0.00027731	7.9369e-05	1217.3	3.219e-06	3.0815e-06	1281.3	251.74	3.1152e-06	3.0315e-06	313.54	89.045	70.365	20.396	3.0234e-06	28.473	246.240	203.229	182.491	91.215	247.693	205.354	91.652	98.770	262.183	246.132	98.142	104.840	105.602	111.805	233.755	111.605	-8191	255	
561.323	1	1	0	0	0.27522	0.19444	0.11961	0.075523	0.044562	0.15827	0.13621	0.23976	0.12201	0.31266	0.176	0.1802	0.15177	0.12608	0.09617	0.18341	-4.6333	-4.9125	-4.6167	-5.2833	-4.7667	-4.8667	-5.2729	-4.6854	-5.1125	-4.9688	-4.675	-5.1937	-4.6958	-4.8542	-5.2625	-4.5938	154.095	302.820	155.238	391.869	260.613	310.004	300.076	343.206	363.620	92.794	438.867	378.519	377.382	115.593	174.437	404.833	0.00031322	0.00035371	0.00015885	1230.9	6.8981e-06	4.3817e-06	1304.3	253.47	3.4862e-06	3.3422e-06	314.31	88.665	70.667	19.974	3.7605e-06	27.998	0.0002819	0.00027084	7.7499e-05	1214.6	3.1399e-06	3.0732e-06	1281.6	250.99	3.0569e-06	2.9982e-06	313.45	89.015	70.211	20.297	2.9724e-06	28.434	243.156	162.040	152.645	91.491	248.112	228.100	91.481	98.636	260.045	236.104	98.031	105.247	105.414	112.122	240.420	111.458	-8191	255	
561.419	1	1	0	0	0.16094	0.064048	0.094344	0.31031	0.012195	0.12485	0.12401	0.096084	0.042362	0.23395	0.24081	0.2665	0.1204	0.17071	0.20944	0.28957	-4.6062	-4.9375	-4.4792	-5.3438	-4.8917	-4.8229	-5.3333	-4.6708	-5.0188	-5.0042	-4.6604	-5.2979	-5.1104	-4.7479	-5.2667	-4.6562	421.066	290.462	91.452	84.119	400.701	97.824	363.923	385.418	277.634	173.376	83.877	84.878	282.150	419.880	426.352	426.800	0.00028954	0.00023989	0.00011013	1234.6	3.3247e-06	4.1891e-06	1298	252.5	4.0666e-06	1.6262e-06	314.71	88.826	70.183	20.071	3.5637e-06	27.974	0.0002888	0.00028001	7.8856e-05	1214.6	3.1363e-06	2.9965e-06	1278.8	251.4	3.0563e-06	3.0625e-06	313.28	88.857	70.185	20.339	3.0127e-06	28.388	238.266	171.158	191.037	91.210	268.058	257.937	91.494	98.809	269.790	250.150	98.014	105.168	104.949	111.726	234.514	111.588	-8191	255	
561.516	1	1	0	0	0.16598	0.19161	0.18647	0.11503	0.18283	0.13411	0.14179	0.24234	0.25712	0.11439	0.20541	0.12544	0.027571	0.047358	0.21888	0.28557	-4.4313	-5.0979	-4.575	-5.0062	-4.8375	-4.5229	-5.3083	-4.6937	-4.8688	-5.0396	-4.6708	-5.0771	-4.9375	-4.6833	-5.1083	-4.6729	414.866	402.780	415.108	398.063	132.097	279.313	396.880	402.180	228.225	359.562	398.510	432.701	99.527	184.840	383.154	172.164	0.00030175	0.00044045	0.00012978	1228.8	4.9712e-06	3.8827e-06	1301.1	253.25	2.1026e-06	2.2889e-06	313.91	89.363	70.394	20.04	5.3152e-06	28.013	0.00029122	0.00028146	7.7216e-05	1213.1	3.1486e-06	3.0727e-06	1279.6	251.48	3.0537e-06	2.95e-06	313.34	89.059	70.274	20.335	3.0503e-06	28.42	242.043	197.490	170.613	91.391	258.504	254.034	91.341	98.600	256.932	264.603	98.346	104.944	105.417	112.215	280.967	111.014	-8191	255	
561.636	1	1	0	0	0.11917	0.20455	0.11409	0.19793	0.21833	0.17656	0.29401	0.27694	0.17979	0.038641	0.12189	0.1437	0.053407	0.029105	0.043199	0.14537	-4.5771	-5.1667	-4.6	-4.975	-4.9812	-4.7021	-5.2771	-4.9417	-4.9229	-5.15	-4.6958	-5.0542	-5.0312	-4.6854	-5.0958	-4.9396	249.313	403.578	222.433	160.728	415.744	440.281	377.469	432.829	434.680	379.501	389.016	251.145	301.875	389.799	222.743	317.292	0.00031638	0.00022856	9.0249e-05	1233.3	5.6402e-06	1.9532e-06	1304	252.65	4.0677e-06	1.91e-06	313.4	88.676	70.241	20.023	6.1368e-06	28.212	0.00028725	0.00027836	7.678e-05	1215.2	3.1833e-06	3.1238e-06	1279.7	251.33	3.1573e-06	3.0586e-06	312.2	88.855	70.162	20.366	3.0256e-06	28.435	244.159	168.771	154.272	91.355	237.269	302.059	91.175	98.504	250.548	188.539	98.266	105.221	105.492	111.847	238.309	111.295	-8191	255	
561.708	1	1	0	0	0.17107	0.25335	0.10238	0.16468	0.15814	0.10336	0.30986	0.088723	0.062233	0.12973	0.085914	0.096023	0.091189	0.34035	0.1733	0.20265	-4.55	-5.2333	-4.6458	-4.9729	-5.15	-4.6438	-5.2542	-4.8562	-4.7312	-5.3	-4.5979	-4.8812	-5.3479	-4.65	-5.1396	-4.95	151.369	90.212	386.757	351.676	201.422	87.038	229.782	277.560	389.592	220.228	393.043	252.562	380.082	416.763	151.530	276.464	0.00032372	0.00018175	9.4245e-05	1228.6	3.6839e-06	3.7775e-06	1297.2	254.27	3.5077e-06	4.2845e-06	315.7	89.552	70.366	20.134	3.2085e-06	27.993	0.00029019	0.00028563	7.8151e-05	1212.2	3.1994e-06	3.144e-06	1278.6	251.67	3.0984e-06	3.1183e-06	313.63	88.944	70.179	20.331	3.0534e-06	28.394	242.016	137.605	145.512	91.425	271.377	219.400	91.453	98.585	230.605	173.993	98.482	105.058	105.662	111.750	268.974	111.522	-8191	255	
561.804	1	1	0	0	0.15444	0.28456	0.11481	0.068239	0.080807	0.10178	0.084724	0.20252	0.040297	0.13873	0.1335	0.1704	0.036889	0.18753	0.20841	0.17154	-4.3667	-5.1625	-4.7146	-5.0646	-5.0833	-4.5333	-5.2271	-5.0625	-4.6729	-5.3083	-4.8479	-5.0188	-5.1792	-4.5604	-5.0813	-4.8667	92.073	379.336	280.267	130.639	270.153	238.429	305.384	187.978	360.429	378.028	342.191	426.466	405.587	178.405	312.339	394.282	0.00030682	0.00030667	7.1937e-05	1229	5.6495e-06	3.0506e-06	1301.7	252.79	3.7171e-06	3.3633e-06	315.01	88.646	70.41	19.852	5.2175e-06	28.114	0.00029331	0.00028476	7.9086e-05	1212.1	3.1671e-06	3.0574e-06	1279.7	251.33	3.1317e-06	3.1364e-06	312.97	88.938	70.196	20.322	2.9723e-06	28.439	238.723	179.626	144.521	91.533	252.033	223.468	91.500	98.554	246.040	237.187	98.224	105.322	105.355	112.239	229.129	111.412	-8191	255	
561.923	1	1	0	0	0.11029	0.12606	0.30051	0.066803	0.079875	0.056228	0.094467	0.31695	0.11838	0.044527	0.22313	0.10888	0.25438	0.18866	0.036268	0.055373	-4.2146	-5.1875	-4.8688	-4.8333	-5.1292	-4.7625	-5.1937	-5.1125	-4.6042	-5.0125	-4.9354	-4.6937	-5.3187	-4.6208	-5.0354	-5.2604	307.299	283.251	341.669	321.229	85.961	195.554	376.995	411.189	282.645	111.614	150.407	317.083	90.065	427.263	167.488	399.040	0.00031093	0.00050741	9.2434e-05	1233.1	2.4709e-06	3.1561e-06	1301.2	252.79	1.8291e-06	4.5529e-06	315.01	89.177	70.026	20.085	2.4698e-06	28.062	0.00029134	0.00028186	7.8026e-05	1213	3.0524e-06	3.0262e-06	1276.7	251.64	3.0166e-06	2.954e-06	313.03	88.818	70.043	20.361	2.995e-06	28.404	242.907	163.687	166.491	91.435	199.830	220.736	91.535	98.520	220.806	254.755	98.296	105.359	105.631	111.975	236.828	111.779	-8191	255	
562.019	1	1	0	0	0.15809	0.14257	0.041411	0.12554	0.10648	0.035219	0.11272	0.15151	0.10657	0.25798	0.066098	0.10361	0.25385	0.18301	0.13156	0.079822	-4.1458	-5.1979	-4.8292	-4.8896	-5.2958	-4.6542	-5.0687	-5.1854	-4.4563	-5.0021	-4.9792	-4.7083	-5.1521	-4.7667	-4.7979	-5.2479	107.177	132.288	201.247	144.079	192.568	288.398	321.091	369.709	134.674	287.832	117.136	421.531	97.558	94.132	104.814	124.451	0.00032378	0.00021696	9.1131e-05	1230.4	6.4257e-06	3.5317e-06	1299.7	253.2	3.9725e-06	5.1394e-06	313.71	88.602	70.718	20.072	4.1592e-06	28.093	0.00028668	0.00028356	7.5841e-05	1212.9	3.1023e-06	3.0725e-06	1277.7	251.02	3.1564e-06	3.0447e-06	313.04	88.871	70.275	20.348	3.0146e-06	28.446	245.175	171.740	152.547	91.321	261.263	221.539	91.254	98.497	230.746	223.719	98.229	105.225	105.534	112.112	237.793	111.522	-8191	255	
562.115	1	1	0	0	0.065189	0.14987	0.1261	0.11042	0.037959	0.10634	0.1599	0.24261	0.053108	0.16036	0.16522	0.29652	0.19326	0.24765	0.13965	0.016065	-4.1729	-5.0167	-5.0479	-4.7	-5.175	-4.7354	-4.7083	-5.1	-4.5958	-5.0271	-5	-4.7333	-5.2479	-4.7146	-4.5875	-5.2521	151.510	197.821	325.869	330.650	313.493	410.631	347.488	84.664	131.894	350.251	349.332	419.488	279.804	375.705	281.047	95.112	0.00029402	0.00020051	7.9062e-05	1234.1	3.8974e-06	2.1097e-06	1295.7	252.41	3.8184e-06	3.8053e-06	313.02	88.323	69.866	19.981	3.2178e-06	27.921	0.0002772	0.0002728	7.5632e-05	1213.7	2.8806e-06	2.8455e-06	1276.1	250.6	2.9459e-06	2.8406e-06	311.87	88.581	69.774	20.268	3.0507e-06	28.298	245.491	174.283	154.737	91.542	241.545	239.922	91.521	98.828	276.910	232.749	98.228	105.043	105.404	112.146	272.934	111.666	-8191	255	
562.211	1	1	0	0	0.18202	0.29407	0.18951	0.2358	0.24866	0.21999	0.2656	0.31169	0.13542	0.18213	0.073945	0.20332	0.041624	0.19296	0.25362	0.22645	-4.2958	-4.95	-4.9771	-4.6917	-5.0104	-4.7271	-4.9208	-5.3313	-4.5354	-4.9625	-5.1813	-4.7708	-5.1125	-4.8896	-4.7042	-5.3125	111.817	167.891	111.714	402.342	153.845	190.447	326.581	369.935	292.003	211.547	401.807	355.679	105.964	177.420	256.962	334.484	0.00026963	0.00026431	8.1315e-05	1229.8	4.1573e-06	4.3913e-06	1300.3	253.13	4.2054e-06	2.5855e-06	314.63	88.881	70.273	19.987	3.7703e-06	28.247	0.00029708	0.00029587	8.3165e-05	1209.1	3.4227e-06	3.3187e-06	1277.7	250.65	3.4494e-06	3.2868e-06	312.99	88.75	70.168	20.348	3.1851e-06	28.468	240.934	151.204	159.813	91.282	237.304	246.610	91.389	99.053	255.142	257.462	97.942	105.256	105.238	111.882	245.385	111.290	-8191	255	
562.283	1	1	0	0	0.079486	0.29329	0.11026	0.12743	0.074121	0.099404	0.14335	0.084496	0.065896	0.12668	0.2207	0.046277	0.22989	0.14127	0.097089	0.08111	-4.3708	-4.8562	-4.9563	-4.5396	-5.1792	-4.7812	-4.9938	-5.3146	-4.6792	-4.8271	-5.2479	-4.5292	-5.0188	-4.8438	-4.7312	-5.1875	298.316	297.857	412.003	391.920	341.917	423.938	372.804	177.516	309.958	171.677	376.630	134.485	306.185	370.816	172.181	170.924	0.00028569	0.00026348	3.4191e-05	1227.3	6.2701e-06	5.4607e-06	1302.9	253.02	2.1976e-06	2.4243e-06	313.78	89.089	70.099	20.035	5.1641e-06	28.041	0.00029115	0.00028831	7.7984e-05	1210.4	3.0916e-06	2.9488e-06	1278.8	251.12	2.9979e-06	3.0475e-06	312.14	88.812	70.081	20.317	3.0021e-06	28.408	243.580	168.181	137.860	91.436	251.957	254.790	91.525	98.854	240.980	223.570	98.291	105.327	105.413	111.719	252.991	111.365	-8191	255	
562.404	1	1	0	0	0.17879	0.18491	0.087081	0.11514	0.17521	0.16383	0.24112	0.2681	0.12908	0.079537	0.12377	0.093933	0.27067	0.17794	0.27882	0.10973	-4.4833	-4.9375	-5.0396	-4.7292	-5.0542	-4.9979	-4.8583	-5.2833	-4.8042	-4.8938	-5.2	-4.7417	-5.0813	-5.1104	-4.6042	-5.1229	261.369	301.634	128.316	386.781	252.791	209.987	359.346	107.449	89.981	411.884	432.155	100.722	100.125	405.038	157.548	330.047	0.0002894	0.00034575	9.7623e-05	1230.9	2.6247e-06	2.488e-06	1292.2	253.02	3.9595e-07	3.0945e-06	315.66	88.742	69.983	20.011	1.5371e-06	28.19	0.0002818	0.00028339	7.5723e-05	1211.9	3.1548e-06	3.0596e-06	1274.9	250.86	3.1329e-06	3.0322e-06	312.86	88.829	69.936	20.312	3.0284e-06	28.402	245.619	147.215	142.781	91.523	281.416	260.349	91.688	98.594	384.446	220.724	98.277	105.495	105.459	111.801	190.904	111.654	-8191	255	
562.500	1	1	0	0	0.07203	0.15512	0.1833	0.24125	0.098237	0.17796	0.18133	0.18939	0.2449	0.13397	0.16964	0.043814	0.061528	0.16445	0.040105	0.20018	-4.4771	-4.6188	-5.0542	-4.75	-5.0208	-5.225	-4.7521	-5.225	-4.7083	-4.65	-5.3542	-4.6542	-4.9896	-5.1292	-4.7042	-5.2896	378.382	317.289	155.800	396.296	339.842	304.231	403.874	104.686	366.527	316.151	84.250	388.399	440.790	431.312	177.408	203.916	0.00029612	0.00027693	9.8104e-05	1233.3	6.1652e-06	3.0272e-06	1299	252.01	4.067e-06	3.4232e-06	315.09	89.01	69.978	19.979	2.9683e-06	27.947	0.0002924	0.00028541	7.983e-05	1213.9	3.299e-06	3.1598e-06	1277.8	250.76	3.1472e-06	3.2549e-06	313.02	88.952	70.169	20.357	3.1533e-06	28.451	247.128	183.474	189.944	91.549	246.082	196.763	91.508	98.961	277.602	209.284	98.120	105.184	105.524	112.197	238.214	111.783	-8191	255	
562.596	1	1	0	0	0.1595	0.11185	0.33481	0.30337	0.086856	0.15177	0.11016	0.15028	0.14745	0.10296	0.12387	0.19019	0.15631	0.11215	0.2001	0.18146	-4.6521	-4.6708	-5.1188	-4.7625	-4.8458	-5.2083	-4.8333	-5.1708	-4.9417	-4.675	-5.275	-4.8646	-4.8979	-4.9729	-4.6042	-4.9688	135.797	288.425	307.914	440.815	198.406	311.500	419.636	388.115	378.113	337.884	388.681	355.252	439.723	415.929	399.131	184.429	0.00029725	0.00026358	9.7498e-05	1230.2	4.7034e-06	4.6661e-06	1302.9	252.26	3.2996e-06	4.0636e-06	314.34	88.572	70.527	20.036	2.1063e-06	28.008	0.000292	0.00029366	7.8633e-05	1211.6	3.2366e-06	3.1235e-06	1278.8	251.14	3.167e-06	3.1729e-06	312.86	88.751	70.091	20.34	3.0894e-06	28.451	240.841	144.231	200.790	91.389	247.290	223.794	91.521	98.904	248.628	202.825	98.570	105.312	105.177	111.956	278.480	111.545	-8191	255	
562.717	1	1	0	0	0.093811	0.052747	0.18779	0.22978	0.26244	0.18407	0.12613	0.31741	0.029315	0.059926	0.061419	0.088556	0.39426	0.1362	0.14323	0.12202	-4.6229	-4.4333	-5.0375	-4.925	-4.7063	-5.225	-4.8125	-4.9667	-4.9437	-4.6	-5.375	-4.8667	-4.7146	-5.2104	-4.65	-5.0542	267.173	313.361	288.618	86.172	126.121	375.238	360.384	419.689	325.154	221.051	359.844	98.848	394.755	278.001	365.819	347.776	0.00026768	0.00034374	0.00010435	1228.9	3.8972e-06	2.958e-06	1301.1	253.88	3.5482e-06	1.9679e-06	313.74	88.722	69.963	19.962	1.5234e-06	28.032	0.00028206	0.00028019	7.7122e-05	1211.7	3.0524e-06	3.1057e-06	1279	251.33	3.096e-06	3.0861e-06	312.45	88.823	70.162	20.317	3.0537e-06	28.386	245.929	172.635	203.144	91.398	227.252	249.616	91.368	98.812	237.169	198.671	98.181	105.204	105.362	112.371	210.544	111.299	-8191	255	
562.811	1	1	0	0	0.28197	0.17882	0.14429	0.24848	0.19073	0.080724	0.036887	0.14366	0.18326	0.18403	0.011548	0.1995	0.091887	0.24044	0.13468	0.24433	-4.6208	-4.5229	-5.3417	-4.8667	-4.7562	-5.2354	-4.8208	-4.9938	-5.0021	-4.6625	-5.0958	-4.9146	-4.7375	-5.1979	-4.5646	-4.8792	338.278	169.726	133.123	387.074	325.135	83.439	361.516	417.502	260.088	273.535	335.656	400.447	166.233	354.862	208.725	356.855	0.00030616	0.00038614	0.00010813	1227	4.9696e-06	3.282e-06	1300.4	252.34	1.5371e-06	1.7239e-06	315.07	88.561	70.321	20.169	4.5148e-06	28.158	0.00028538	0.00028212	7.9275e-05	1213	3.2338e-06	3.1352e-06	1278.6	250.85	3.1025e-06	3.1499e-06	312.21	88.908	70.203	20.361	3.0449e-06	28.471	247.073	176.239	191.971	91.456	275.337	325.352	91.458	98.761	286.295	263.436	98.174	105.404	105.490	111.938	219.965	111.529	-8191	255	
562.907	1	1	0	0	0.1734	0.12019	0.31263	0.09977	0.13686	0.2236	0.20487	0.07005	0.12782	0.075247	0.089717	0.15879	0.18743	0.067613	0.23677	0.03443	-4.8208	-4.6354	-4.9688	-5.1271	-4.7438	-5.2604	-4.9688	-4.8958	-5.0687	-4.5208	-5.1021	-4.9875	-4.6562	-5.3292	-4.775	-4.8604	224.204	220.177	226.314	361.364	338.538	268.943	368.098	317.838	285.722	219.382	368.790	136.979	129.399	170.446	344.852	332.903	0.00029527	0.00017083	5.4219e-05	1229.2	5.1585e-06	7.546e-07	1293.6	253.13	3.8181e-06	3.7715e-06	314.04	88.723	69.989	20.066	2.7934e-06	28.088	0.00028642	0.0002758	7.9114e-05	1212.9	3.1059e-06	3.0494e-06	1277.3	251.32	3.1345e-06	3.0583e-06	312.61	88.543	70.025	20.372	3.0131e-06	28.435	240.161	189.825	149.157	91.221	273.425	177.898	91.294	98.478	283.039	221.297	98.192	105.047	105.636	111.791	256.096	111.473	-8191	255	
563.003	1	1	0	0	0.0451	0.1032	0.06486	0.26517	0.18663	0.11563	0.20802	0.18714	0.08901	0.231	0.055236	0.042097	0.12091	0.11461	0.054836	0.098428	-4.7625	-4.625	-5.0167	-5.2125	-4.6083	-5.1813	-5.0625	-4.6854	-5.0625	-4.7354	-4.9583	-4.975	-4.5396	-5.025	-4.7229	-4.8021	102.388	226.574	435.980	378.146	238.499	440.493	118.959	421.662	249.758	312.049	135.344	301.232	255.642	180.470	93.683	96.769	0.00030737	0.0001721	0.00018058	1231.3	3.4715e-06	3.8741e-06	1298.9	251.99	3.1315e-06	1.7703e-06	317.26	89.125	70.206	20.152	4.474e-06	28.022	0.00028916	0.00028714	7.9673e-05	1212.3	3.182e-06	3.2052e-06	1276.9	251.1	3.1081e-06	3.1272e-06	313.6	88.877	70.241	20.378	3.1311e-06	28.415	241.872	232.002	203.748	91.369	249.633	173.439	91.598	98.599	285.394	211.845	97.960	105.107	105.112	111.891	239.799	111.329	-8191	255	
563.099	1	1	0	0	0.24182	0.070797	0.044029	0.20561	0.14833	0.031288	0.094012	0.33169	0.19024	0.14975	0.16469	0.11182	0.16669	0.04329	0.10945	0.22863	-4.8	-4.5521	-4.85	-5.1479	-4.6542	-5.0979	-5	-4.6229	-5.175	-4.7063	-4.8479	-5.175	-4.5104	-5.1833	-4.9042	-4.7104	395.895	437.100	262.075	271.608	401.910	417.863	330.664	431.116	345.311	268.308	101.223	81.071	434.289	263.896	259.475	363.226	0.00030584	0.00035923	7.7204e-05	1234.8	6.8009e-06	2.6995e-06	1299.6	252.34	1.6741e-06	3.9118e-06	316.7	88.605	70.425	20.144	2.344e-06	28.091	0.00029084	0.00028614	8.0227e-05	1214.4	3.2723e-06	3.1164e-06	1278.8	251.19	3.1142e-06	3.1621e-06	313.74	88.769	70.184	20.421	3.1636e-06	28.42	242.779	191.628	118.016	91.397	238.211	211.635	91.390	98.780	245.897	237.495	98.259	105.439	105.726	111.746	224.872	111.540	-8191	255	
563.196	1	1	0	0	0.13649	0.11064	0.1023	0.21529	0.22582	0.086485	0.2229	0.29522	0.069625	0.058227	0.018832	0.16346	0.16014	0.16676	0.20931	0.019027	-4.8625	-4.6417	-4.7708	-5.2312	-4.5958	-5.0458	-5.0771	-4.6771	-5.3458	-4.6937	-4.8458	-5.2	-4.5563	-4.9333	-4.8583	-4.75	268.952	255.473	119.714	365.954	220.083	118.200	397.277	330.024	309.638	355.598	179.121	408.464	411.020	126.354	102.765	208.907	0.00027148	0.00018808	0.00011099	1230.3	3.5674e-06	4.268e-06	1296.1	252.54	5.8134e-06	2.7083e-06	316.82	88.811	70.568	20.033	4.0219e-06	28.042	0.00029659	0.00028725	8.2412e-05	1212.5	3.1115e-06	3.196e-06	1277.1	250.9	3.2495e-06	3.1599e-06	313.84	88.827	70.224	20.332	3.0467e-06	28.47	242.906	153.881	174.515	91.264	261.147	209.752	91.661	98.942	258.256	200.069	98.169	104.956	105.503	111.798	235.765	111.533	-8191	255	
563.316	1	1	0	0	0.026876	0.13417	0.027258	0.17923	0.074515	0.21682	0.24174	0.15943	0.16155	0.12651	0.15247	0.055782	0.13017	0.10898	0.18517	0.12131	-4.8688	-4.7708	-4.7562	-5.2063	-4.6125	-5.1292	-5.0292	-4.6417	-4.9729	-4.8521	-4.7271	-5.2792	-4.5542	-5.0917	-5.2708	-4.6354	198.822	258.819	393.133	324.516	219.118	95.314	344.701	118.000	150.799	210.132	386.948	410.937	316.958	122.971	439.619	414.249	0.00028999	0.00037469	0.0001146	1234.3	3.5363e-06	2.2576e-06	1300.1	253.09	1.54e-06	4.3212e-06	313.89	89.277	70.002	19.904	2.0049e-06	27.965	0.00028673	0.00028023	7.8235e-05	1213.3	3.1975e-06	3.1032e-06	1280.3	251.41	3.1077e-06	3.0754e-06	312.92	88.834	70.165	20.327	3.126e-06	28.395	249.867	184.884	168.414	91.405	219.226	199.999	91.369	98.664	236.380	215.748	98.036	105.098	105.370	112.057	229.363	111.207	-8191	255	
563.412	1	1	0	0	0.21915	0.044568	0.17405	0.33471	0.095364	0.28193	0.12627	0.083992	0.27277	0.073044	0.22682	0.25021	0.34318	0.17676	0.33777	0.13715	-4.9771	-4.8896	-4.575	-5.2729	-4.7562	-4.9563	-5.2208	-4.3938	-4.95	-4.85	-4.7604	-5.2854	-4.6875	-4.9437	-5.1	-4.7396	205.866	110.216	265.174	360.895	186.667	418.828	365.187	236.416	250.371	395.451	140.389	393.416	434.026	311.253	434.067	102.564	0.00030441	0.00028258	4.2069e-05	1234.7	2.8194e-06	3.6601e-06	1301	253.75	2.8975e-06	6.2481e-06	315.29	89.02	70.317	20.123	2.999e-06	28.169	0.00029967	0.00028802	7.9034e-05	1215.4	3.187e-06	3.1519e-06	1281.6	251.28	3.164e-06	3.1009e-06	313.25	88.867	70.278	20.369	3.0956e-06	28.467	243.019	167.429	196.128	91.523	233.429	171.227	91.527	98.721	252.910	231.846	97.969	105.194	105.326	111.994	214.852	111.421	-8191	255	
563.509	1	1	0	0	0.10562	0.13755	0.053734	0.13754	0.16379	0.090699	0.16021	0.20884	0.14244	0.090535	0.07918	0.21784	0.04706	0.16766	0.13428	0.21387	-4.7625	-4.8854	-4.5854	-5.2875	-4.6937	-4.7958	-5.1813	-4.725	-4.8562	-4.8958	-4.6979	-5.2333	-4.6375	-4.5583	-5.2063	-4.5708	391.979	436.883	85.979	378.734	309.617	350.384	406.447	101.411	417.493	320.803	91.373	426.765	111.985	332.225	273.216	364.693	0.00029521	0.00040536	6.8932e-05	1233.9	5.1203e-06	3.8076e-06	1303.7	252.12	3.7888e-06	3.8049e-06	314.7	88.861	70.262	20.095	1.4059e-06	28.06	0.00029531	0.0002863	7.8922e-05	1214.8	3.156e-06	3.1692e-06	1281.3	251.55	3.1059e-06	3.121e-06	312.98	88.955	70.26	20.375	3.0966e-06	28.399	249.068	144.225	215.742	91.465	274.483	255.666	91.360	98.614	290.795	233.448	98.085	105.102	105.432	112.169	262.965	111.684	-8191	255	
563.580	1	1	0	0	0.23388	0.15126	0.13516	0.17691	0.23325	0.059583	0.070948	0.18845	0.11161	0.20894	0.078921	0.10943	0.15911	0.1102	0.22349	0.21057	-4.5875	-4.9208	-4.6333	-5.2	-4.7104	-4.8229	-5.3167	-4.8583	-4.8958	-5.1	-4.5917	-5.1562	-4.8667	-4.5646	-5.0521	-4.7	169.688	181.730	94.605	378.648	337.756	384.399	88.224	286.002	341.738	233.834	423.816	342.321	419.069	396.949	423.738	272.083	0.00029156	0.00013697	8.1899e-05	1229.8	6.0725e-06	6.9538e-06	1299.2	251.47	4.2939e-06	1.852e-06	314.86	88.747	70.219	20.126	4.5052e-06	28.314	0.00029896	0.00028353	8.0098e-05	1213.5	3.2008e-06	3.1197e-06	1278.5	250.91	3.0993e-06	3.1638e-06	313.45	88.832	70.233	20.363	3.1037e-06	28.472	244.855	246.489	97.313	91.276	248.488	226.544	91.414	98.707	241.263	192.793	98.200	105.236	105.253	111.849	229.351	111.399	-8191	255	
563.701	1	1	0	0	0.068433	0.16249	0.077125	0.20023	0.11699	0.11113	0.58213	0.32283	0.060079	0.10912	0.03384	0.027061	0.15601	0.16213	0.39682	0.20604	-4.6292	-5.0854	-4.5042	-5.3104	-4.9938	-4.675	-5.3354	-4.75	-4.7771	-5.0583	-4.7292	-5.0708	-4.8083	-4.6271	-5.2042	-4.7562	167.191	372.427	297.015	109.481	274.764	186.072	396.984	354.700	373.798	360.799	351.960	330.513	316.253	90.221	199.951	342.070	0.00027601	0.00027059	8.1677e-05	1223.4	3.4551e-06	3.0847e-06	1297.1	252.16	1.9441e-06	4.4187e-06	314.74	88.745	70.166	20.061	1.1542e-06	28.257	0.00028389	0.00028385	8.0255e-05	1210.1	3.135e-06	3.0911e-06	1277.8	251.11	3.1107e-06	3.1201e-06	312.67	88.864	70.167	20.327	3.0241e-06	28.468	244.474	176.257	190.310	91.630	305.994	284.951	91.524	98.595	236.341	222.292	98.534	105.175	105.337	112.065	244.439	111.441	-8191	255	
563.795	1	1	0	0	0.046397	0.074094	0.10525	0.29708	0.11007	0.10442	0.21039	0.1746	0.084217	0.18305	0.21114	0.12606	0.04693	0.25624	0.2455	0.097496	-4.5312	-5.1417	-4.6083	-5.2	-4.9604	-4.6458	-5.2104	-4.7396	-4.7417	-5.2312	-4.5958	-5.0479	-4.8979	-4.5729	-5.0875	-4.7979	83.525	238.362	326.931	341.460	158.867	173.638	347.555	159.503	142.738	210.172	114.036	405.712	235.427	434.201	95.152	190.311	0.00028745	0.00028297	4.9374e-05	1231.4	2.3042e-06	4.4913e-06	1297.9	253.08	2.3115e-06	2.8184e-06	316.19	89.332	70.212	20.032	4.5461e-06	27.898	0.00029006	0.00028454	8.0583e-05	1211.4	3.1467e-06	3.0637e-06	1277.8	251.39	3.0249e-06	3.0943e-06	312.87	88.883	70.156	20.375	3.0469e-06	28.402	242.544	158.228	157.469	91.342	262.196	237.214	91.611	98.810	260.379	276.200	98.256	105.203	105.301	111.992	244.406	111.795	-8191	255	
563.891	1	1	0	0	0.11999	0.064306	0.13176	0.13538	0.25117	0.11791	0.17333	0.15742	0.11934	0.18482	0.15607	0.011051	0.14807	0.12909	0.073871	0.19185	-4.2854	-5.1771	-4.5563	-4.9437	-5.1958	-4.4208	-5.2958	-4.8438	-4.7167	-5.3208	-4.6875	-4.9583	-5.1333	-4.5229	-5.0125	-4.8375	155.767	89.851	120.352	405.588	111.385	432.286	400.528	228.779	158.096	141.810	108.160	229.149	90.472	361.885	304.610	344.231	0.00030992	0.00017561	4.6898e-05	1232.4	3.9567e-06	2.6319e-06	1296.3	253.02	1.4668e-06	2.7696e-06	314.71	88.766	69.9	20.157	4.3877e-06	27.93	0.00028751	0.00027803	7.7743e-05	1212.4	3.0691e-06	2.9924e-06	1275.5	250.7	2.9796e-06	2.8757e-06	312.03	88.639	70.052	20.335	2.9885e-06	28.295	241.551	215.743	212.833	91.424	263.362	240.565	91.689	98.709	252.315	183.947	98.060	105.251	105.483	111.967	253.425	111.216	-8191	255	
563.988	1	1	0	0	0.059206	0.095706	0.093456	0.22106	0.080816	0.19279	0.25428	0.023613	0.056633	0.059311	0.24352	0.23744	0.03997	0.17007	0.16195	0.24625	-4.3104	-5.2	-4.6	-4.9229	-5.1271	-4.675	-5.1375	-5.0083	-4.5042	-5.1188	-4.825	-4.9625	-5.2	-4.6708	-5.1208	-5.0792	134.220	308.536	369.699	85.841	393.688	254.794	323.115	397.935	260.456	368.150	123.695	363.409	319.221	410.051	230.321	224.292	0.00033507	0.00038517	0.00016278	1226.2	5.0146e-06	3.155e-06	1291.2	252.61	2.4494e-06	3.7707e-06	314.78	88.435	69.824	19.929	1.6728e-06	28.062	0.00028637	0.00026755	7.5388e-05	1209.4	3.0344e-06	2.9189e-06	1273.9	250.33	3.0696e-06	2.9876e-06	312.18	88.514	69.949	20.297	3.1055e-06	28.367	243.094	172.900	156.964	91.565	236.507	253.423	91.487	98.710	294.056	211.415	98.185	104.991	105.457	112.158	214.152	111.233	-8191	255	
564.108	1	1	0	0	0.11108	0.03106	0.18169	0.12533	0.19568	0.20435	0.20548	0.34362	0.20652	0.096154	0.098118	0.14848	0.17374	0.11508	0.11688	0.19295	-4.2688	-5.2833	-4.7438	-4.8812	-5.2896	-4.7771	-5.1188	-4.9958	-4.5625	-5.0396	-4.9688	-4.7646	-5.3604	-4.6667	-5.0708	-5.15	206.655	361.491	348.432	417.948	133.704	339.988	373.451	435.250	197.926	329.981	141.992	107.501	362.327	147.596	139.662	134.103	0.00027703	0.00027843	3.081e-05	1230.2	4.6719e-06	2.7302e-06	1295.5	252.43	4.2962e-06	9.4381e-07	315.34	88.959	70.119	20.07	2.9921e-06	27.93	0.00029008	0.00027551	7.91e-05	1209.3	3.0902e-06	2.9904e-06	1275.3	250.47	3.1033e-06	2.9793e-06	312.47	88.733	70.077	20.329	3.0714e-06	28.338	248.589	130.215	107.131	91.530	240.530	202.787	91.696	98.778	232.250	154.747	98.307	105.272	105.228	112.046	199.556	111.771	-8191	255	
564.204	1	1	0	0	0.05756	0.097899	0.10806	0.048365	0.039597	0.14214	0.26948	0.38582	0.047202	0.11853	0.090779	0.10579	0.062679	0.10741	0.079395	0.36655	-4.2292	-5.1458	-4.675	-4.8083	-5.2708	-4.7146	-5.1854	-5.1083	-4.5125	-5.1146	-5.0854	-4.6687	-5.2125	-4.7188	-4.7146	-5.0771	129.127	167.081	409.859	279.873	147.699	369.908	383.608	395.827	190.868	356.269	360.452	349.214	344.321	352.123	187.160	291.256	0.0002928	0.00029573	5.7821e-05	1227.7	4.6259e-06	5.4402e-06	1295.6	251.04	2.911e-06	3.1345e-06	314.35	88.178	70.041	20.041	2.6552e-06	27.947	0.00028078	0.00027877	7.6169e-05	1207.3	3.1295e-06	3.0658e-06	1276	250.48	2.9975e-06	3.0044e-06	312.46	88.587	69.998	20.279	2.9033e-06	28.336	248.292	149.570	151.794	91.439	252.952	250.053	91.601	98.704	283.305	277.553	98.196	105.143	105.623	112.238	282.576	111.985	-8191	255	
564.276	1	1	0	0	0.10092	0.039811	0.19512	0.14136	0.16678	0.093967	0.20622	0.20263	0.17998	0.1961	0.095784	0.22741	0.057257	0.24602	0.16986	0.067493	-4.3042	-5.2188	-4.9417	-4.6979	-5.2521	-4.7146	-5.0875	-5.2125	-4.6562	-5	-5.1875	-4.7063	-5.1188	-5.0458	-4.7479	-5.1542	422.904	367.016	164.364	430.065	101.630	220.073	417.034	117.012	121.636	209.165	90.087	353.339	418.701	95.141	210.139	439.135	0.00030284	0.00016591	6.2504e-05	1227.5	1.7807e-06	3.9061e-06	1298	252.3	3.4704e-06	1.8637e-06	310.76	88.49	69.914	20.035	4.7217e-06	27.869	0.00028247	0.00027163	7.4348e-05	1209.1	2.9311e-06	2.9501e-06	1274.5	250.64	2.9819e-06	3.0358e-06	311.31	88.628	69.902	20.28	2.9346e-06	28.288	241.434	182.355	199.294	91.437	305.603	220.827	91.573	98.802	276.919	284.489	98.234	105.161	105.722	112.100	289.842	111.469	-8191	255	
564.397	1	1	0	0	0.17188	0.11981	0.15223	0.16916	0.17306	0.081654	0.21161	0.13733	0.10338	0.032234	0.18006	0.18259	0.11343	0.13322	0.067898	0.21236	-4.375	-4.9396	-4.9938	-4.6167	-5.1854	-4.7292	-4.7417	-5.3292	-4.7	-4.9521	-5.1417	-4.4542	-5.15	-4.9542	-4.6937	-5.3042	334.807	373.692	142.493	408.583	398.271	433.208	319.038	388.631	139.564	237.354	413.471	389.253	170.890	319.737	213.936	340.433	0.0003202	0.00033992	6.2427e-05	1221.1	4.6372e-06	4.0923e-06	1294.8	251.71	3.6173e-06	3.5193e-06	313.51	88.667	70.028	20.071	3.8356e-06	28.003	0.00027621	0.00026247	7.2903e-05	1203.8	2.945e-06	2.8301e-06	1272.4	249.93	2.8682e-06	2.8941e-06	311.64	88.464	69.914	20.282	2.8175e-06	28.387	243.548	195.140	168.551	91.386	245.489	248.827	91.418	98.855	247.184	226.912	98.355	105.261	105.612	112.389	297.959	111.203	-8191	255	
564.493	1	1	0	0	0.093228	0.10822	0.061459	0.2264	0.20988	0.04735	0.069609	0.10945	0.063345	0.16588	0.1853	0.055021	0.075322	0.060628	0.24368	0.24691	-4.3083	-5.0083	-5.0125	-4.6854	-5.0333	-4.9417	-4.8167	-5.1042	-4.6625	-4.8958	-5.1146	-4.5979	-5.1562	-4.9958	-4.6542	-5.1979	163.554	198.319	144.641	416.521	173.818	89.238	292.209	96.841	410.526	112.494	140.413	268.886	273.591	359.413	201.564	292.103	0.00031053	0.00045844	9.0619e-05	1222.1	4.5022e-06	3.3865e-06	1294.6	251.93	3.0575e-06	4.4163e-06	313.58	88.497	69.82	19.961	3.6515e-06	27.935	0.00028316	0.00027146	7.4076e-05	1204.2	3.0927e-06	2.9654e-06	1271.1	250.08	3.0105e-06	3.0618e-06	311.7	88.551	69.894	20.277	3.0002e-06	28.347	241.148	149.212	156.404	91.320	250.069	188.737	91.437	98.732	278.635	239.998	98.060	105.090	105.667	111.967	236.491	111.371	-8191	255	
564.589	1	1	0	0	0.10835	0.05912	0.025235	0.058097	0.056888	0.11085	0.22372	0.10836	0.1565	0.10489	0.012911	0.054053	0.085448	0.12337	0.23572	0.12052	-4.4167	-4.6646	-5.1438	-4.6667	-5.0229	-5.0375	-4.6375	-5.3625	-4.6521	-4.7021	-5.2063	-4.6104	-5.2521	-5.1271	-4.4958	-5.2688	239.270	277.900	234.371	370.943	179.999	323.913	401.220	353.970	222.438	194.525	145.970	121.015	271.250	315.701	355.281	267.555	0.00030304	0.00010534	0.00012595	1225.7	5.228e-06	2.8844e-06	1290.4	251.91	9.9906e-07	2.6001e-06	313.63	88.642	70.414	20.096	2.696e-06	27.91	0.00027955	0.00027304	7.5231e-05	1207.3	3.0933e-06	2.9237e-06	1272	250.01	2.9608e-06	2.9513e-06	311.86	88.554	70.003	20.264	2.8884e-06	28.324	247.701	170.150	206.381	91.426	197.555	227.930	91.546	98.952	277.261	276.260	98.204	105.337	105.360	112.161	245.245	111.797	-8191	255	
564.685	1	1	0	0	0.028699	0.19429	0.14077	0.082849	0.13833	0.020666	0.053527	0.018617	0.078231	0.099011	0.10798	0.090114	0.14041	0.07872	0.21498	0.28524	-4.4062	-4.7604	-5.0687	-4.625	-4.9187	-4.9583	-4.6208	-5.1396	-4.9083	-4.6229	-5.1937	-4.7854	-4.9854	-5.0938	-4.45	-5.0458	405.220	169.009	290.930	184.631	422.660	361.194	393.828	237.536	322.599	300.652	86.576	164.528	139.678	382.788	429.939	337.966	0.0003108	0.00045773	0.00012318	1225.3	4.2722e-06	2.9398e-06	1288.7	251.66	4.7129e-06	4.3519e-06	313.41	88.38	70.027	19.936	3.5812e-06	27.891	0.00027971	0.00026912	7.5014e-05	1204.7	2.9681e-06	2.9037e-06	1271	250.04	2.8833e-06	2.8089e-06	311.46	88.449	69.863	20.232	2.8232e-06	28.321	244.321	134.358	170.594	91.533	234.078	195.335	91.305	98.767	260.444	196.960	98.178	105.337	105.589	112.138	215.141	111.421	-8191	255	
564.806	1	1	0	0	0.16221	0.078459	0.18737	0.10858	0.11355	0.040323	0.019221	0.024482	0.25569	0.20614	0.15777	0.091114	0.042499	0.069245	0.094166	0.18964	-4.6375	-4.5708	-5.325	-4.575	-4.8229	-5.175	-4.6583	-5.1583	-4.9625	-4.4979	-5.3167	-4.7937	-4.8646	-5.1646	-4.4417	-4.8958	297.425	201.401	297.020	338.188	172.109	341.895	304.825	356.415	166.543	135.500	264.847	200.081	276.426	222.595	385.098	239.641	0.00028599	0.00040336	9.6994e-05	1220.2	4.6001e-06	5.2822e-06	1287.8	252.32	3.8935e-06	1.6065e-06	313.92	88.78	70.009	20.195	2.9557e-06	28.157	0.00027076	0.00026782	7.3308e-05	1203.6	3.0096e-06	2.9618e-06	1269.4	249.96	2.8336e-06	2.8369e-06	311.44	88.623	69.856	20.315	2.7427e-06	28.371	242.668	161.942	181.411	91.423	241.281	241.841	91.655	98.769	277.023	215.522	98.481	105.363	105.516	112.394	224.890	111.463	-8191	255	
564.877	1	1	0	0	0.19596	0.039799	0.067337	0.23694	0.19784	0.20476	0.085668	0.19234	0.14179	0.13097	0.047633	0.13523	0.12777	0.18786	0.043705	0.16225	-4.4896	-4.5104	-5.1396	-4.7312	-4.6562	-5.1667	-4.7896	-5.0479	-4.9271	-4.6188	-5.2854	-4.7521	-4.725	-5.2333	-4.6042	-4.7854	132.850	323.724	148.351	374.783	208.822	210.922	365.552	400.916	251.228	274.700	339.390	378.032	106.364	186.840	147.534	365.436	0.00029253	0.00031196	0.00015374	1221.4	4.4478e-06	4.1806e-06	1292.4	251.99	4.4396e-06	6.2225e-06	314.14	87.956	70.158	20.004	3.1437e-06	27.999	0.00027278	0.00026324	7.358e-05	1202.6	2.9457e-06	2.8784e-06	1269.5	249.93	2.8304e-06	2.8912e-06	311.04	88.297	69.902	20.257	2.8968e-06	28.354	244.710	161.875	152.424	91.359	230.249	243.012	91.557	98.837	261.868	228.485	98.320	104.940	105.629	111.872	257.467	111.189	-8191	255	
564.996	1	1	0	0	0.027143	0.11208	0.24216	0.066379	0.13693	0.16745	0.16027	0.21865	0.13524	0.15534	0.28422	0.10941	0.17953	0.060565	0.1053	0.057057	-4.6708	-4.4083	-5.0938	-4.9708	-4.6687	-5.0813	-4.7021	-4.8521	-4.9833	-4.6021	-5.1458	-4.9812	-4.6208	-5.1146	-4.6333	-4.9646	331.341	434.018	213.832	319.642	211.272	241.571	149.406	375.842	251.442	214.260	94.141	437.524	324.627	137.442	124.850	123.593	0.00028442	0.00026166	0.00013604	1219.3	3.9441e-06	4.8372e-06	1292.3	251.06	3.0862e-06	2.2486e-06	312.39	88.492	69.826	19.972	4.3042e-06	28.044	0.00027477	0.00026324	7.2621e-05	1202.5	2.9382e-06	2.9044e-06	1269.5	249.41	2.9083e-06	2.8643e-06	310.13	88.374	69.872	20.219	2.9056e-06	28.306	239.375	110.141	177.919	91.309	289.037	208.758	91.657	98.667	273.598	217.007	98.279	105.245	105.403	112.237	226.161	111.466	-8191	255	
565.092	1	1	0	0	0.15914	0.10359	0.13368	0.30329	0.29554	0.035121	0.20434	0.098032	0.07681	0.049583	0.11725	0.08821	0.21384	0.078331	0.18399	0.077505	-4.8562	-4.7292	-4.925	-5.1333	-4.7146	-5.2583	-4.7125	-4.7458	-5.1292	-4.4625	-5.0021	-5.1167	-4.4792	-5.0563	-4.65	-4.8708	284.252	111.105	131.784	392.136	410.495	350.740	375.647	375.184	119.872	145.197	275.467	194.897	420.282	278.279	385.963	148.523	0.00029156	0.00013794	0.00015504	1222.1	3.2182e-06	4.6094e-06	1291.3	251.58	4.5627e-06	2.0598e-06	312.03	88.466	70.33	19.861	3.1975e-06	27.97	0.0002771	0.00027216	7.5178e-05	1204.6	3.0082e-06	2.8304e-06	1268.7	249.64	2.8404e-06	2.7877e-06	310.65	88.351	69.865	20.227	2.8979e-06	28.314	237.850	115.879	167.105	91.245	228.021	273.389	91.503	98.900	265.220	215.993	98.096	105.199	105.155	112.587	257.997	111.087	-8191	255	
565.189	1	1	0	0	0.1343	0.25393	0.13305	0.089428	0.093315	0.1871	0.20215	0.18336	0.24138	0.076958	0.25003	0.20092	0.20418	0.14767	0.20252	0.2674	-4.9375	-4.6813	-5.1438	-5.0125	-4.4854	-5.0292	-4.8812	-4.9125	-5.1583	-4.6521	-4.9104	-4.9667	-4.625	-5.0437	-4.7979	-4.9229	200.089	169.691	164.605	132.367	436.104	348.821	85.884	251.396	440.141	255.931	419.041	400.577	402.958	97.638	306.797	320.251	0.000283	0.00042284	9.6981e-05	1224	6.1808e-06	4.709e-06	1290.2	251.89	2.1061e-06	4.2548e-06	311.15	88.57	69.716	19.965	3.2992e-06	27.794	0.00027249	0.00026038	7.4794e-05	1203.6	3.0313e-06	2.9053e-06	1269.2	249.51	2.821e-06	2.8599e-06	310.55	88.324	69.826	20.244	2.8905e-06	28.249	245.643	181.639	128.651	91.230	258.255	223.270	91.598	98.727	230.326	239.364	98.169	105.403	105.762	112.069	235.271	111.727	-8191	255	
565.285	1	1	0	0	0.055796	0.11068	0.024053	0.25875	0.084632	0.053357	0.14111	0.46429	0.10319	0.18117	0.21469	0.059244	0.052418	0.13635	0.10783	0.085934	-4.7604	-4.6917	-4.8958	-5.2292	-4.4979	-5.0479	-4.8917	-4.5813	-5.1146	-4.8104	-4.9521	-5.1729	-4.55	-5.0229	-4.9542	-4.6271	98.681	379.472	122.983	378.421	189.037	198.369	347.581	373.051	287.552	176.094	431.248	246.211	228.590	217.988	417.118	307.214	0.00028986	8.0676e-05	8.9199e-05	1223.2	2.9051e-06	2.3951e-06	1287.8	251.5	3.0269e-06	2.8676e-06	312.11	88.69	69.435	19.982	3.9018e-06	27.899	0.00026265	0.00026629	7.2809e-05	1202	2.9012e-06	2.8764e-06	1268.3	249.38	2.8199e-06	2.8676e-06	310.89	88.484	69.697	20.241	2.8876e-06	28.313	243.457	422.667	168.763	91.415	239.808	227.100	91.395	98.624	272.413	192.597	98.197	105.356	105.651	112.010	271.771	111.534	-8191	255	
565.405	1	1	0	0	0.072223	0.17064	0.11708	0.21015	0.04695	0.055792	0.26991	0.17363	0.19866	0.19843	0.057785	0.20156	0.22369	0.18527	0.22168	0.08813	-4.875	-4.7958	-4.7979	-5.2083	-4.5583	-4.9167	-5.1875	-4.4917	-5.0896	-4.825	-4.8083	-5.2271	-4.7021	-5.0271	-5.0896	-4.6083	274.474	193.394	144.236	419.879	302.225	194.004	333.278	373.203	268.722	380.738	406.663	373.515	331.788	347.445	313.765	429.463	0.00026686	0.0003477	7.1968e-05	1220.2	3.2399e-06	2.5209e-06	1287.2	251.46	3.2309e-06	3.7828e-06	313.35	87.875	69.934	20.127	2.202e-06	27.931	0.00027258	0.00026708	7.3116e-05	1202.6	2.8897e-06	2.814e-06	1266.7	249.6	2.8261e-06	2.8705e-06	310.65	88.372	69.677	20.321	2.7497e-06	28.315	243.369	152.210	154.113	91.594	232.495	218.936	91.678	98.949	257.074	225.291	98.274	105.301	105.413	112.406	248.767	111.569	-8191	255	
565.477	1	1	0	0	0.1025	0.016269	0.23048	0.31053	0.10933	0.19676	0.18566	0.028066	0.26088	0.029638	0.14558	0.32072	0.2402	0.11974	0.064768	0.1228	-4.8854	-4.7312	-4.7896	-5.3771	-4.5375	-4.8625	-5.1354	-4.4708	-5.2	-4.8604	-4.6646	-5.15	-4.7333	-4.9708	-5.0021	-4.4125	400.670	240.233	304.630	390.308	95.088	265.282	348.480	190.110	346.014	163.462	420.384	381.519	412.283	300.520	254.835	104.584	0.00028811	0.00041975	0.00012651	1222.8	4.213e-06	3.1625e-06	1292.1	250.54	4.5587e-06	2.1277e-06	313.03	88.751	69.585	20.012	4.0929e-06	27.827	0.00027569	0.00026715	7.1483e-05	1202	2.8651e-06	2.8913e-06	1268.5	249.14	2.9201e-06	2.9358e-06	310.89	88.444	69.738	20.238	2.8923e-06	28.339	236.875	214.540	186.235	91.469	268.493	201.103	91.607	98.994	269.063	237.450	98.230	105.295	105.732	111.910	228.804	111.183	-8191	255	
565.573	1	1	0	0	0.11793	0.017504	0.10515	0.083318	0.11854	0.053774	0.12187	0.12396	0.19174	0.16929	0.18637	0.135	0.16266	0.084745	0.24848	0.28611	-4.7396	-4.9375	-4.4688	-5.125	-4.6	-4.9667	-5.3396	-4.7125	-5.0125	-4.8292	-4.7042	-5.2146	-4.625	-4.8896	-5.1271	-4.5667	330.414	287.622	90.944	304.392	381.055	338.430	283.253	375.524	93.418	366.740	382.867	168.521	425.259	97.687	223.300	144.642	0.00029234	0.00048909	0.00014166	1220.2	5.901e-06	4.318e-06	1285.8	251.97	2.3415e-06	1.718e-06	314.06	88.583	69.57	20.059	1.6359e-06	27.906	0.00026973	0.00026406	7.4732e-05	1201.8	2.9489e-06	2.8283e-06	1266.9	249.64	2.8078e-06	2.8754e-06	311.04	88.484	69.697	20.256	2.8972e-06	28.281	240.146	210.628	165.538	91.371	237.297	251.464	91.440	98.534	264.781	195.123	98.183	105.122	105.320	112.092	275.828	111.457	-8191	255	
565.669	1	1	0	0	0.12795	0.099296	0.14045	0.12576	0.16447	0.25919	0.15861	0.1787	0.083277	0.13896	0.25083	0.20727	0.23072	0.13625	0.12129	0.038202	-4.7583	-4.9625	-4.5563	-5.3375	-4.5563	-4.8625	-5.2667	-4.5854	-4.8688	-4.9167	-4.7292	-5.1396	-4.8229	-4.7604	-5.2083	-4.6937	209.346	267.104	85.680	420.183	194.218	265.946	384.586	346.425	366.252	230.494	167.695	118.988	416.297	232.305	373.212	92.563	0.00028898	0.00022463	0.00013188	1216.3	5.5259e-06	5.2302e-06	1291.2	251.65	4.1023e-06	3.3189e-06	310.55	88.779	69.8	20.01	2.6322e-06	28.07	0.00027631	0.0002602	7.305e-05	1200	2.9692e-06	2.9486e-06	1268.7	249.38	2.9859e-06	2.9661e-06	310.17	88.458	69.856	20.268	2.8708e-06	28.263	243.390	171.037	168.399	91.448	198.586	224.390	91.457	98.795	266.835	254.937	98.215	105.197	105.450	112.081	224.974	111.394	-8191	255	
565.788	1	1	0	0	0.10015	0.20833	0.1235	0.28597	0.13239	0.098976	0.29168	0.079854	0.11534	0.16278	0.1083	0.096049	0.21112	0.069336	0.1028	0.18896	-4.6062	-5.0917	-4.6125	-5.1146	-4.8917	-4.6021	-5.225	-4.7708	-4.9146	-5.1417	-4.5708	-5.1292	-4.9833	-4.7542	-5.1979	-4.7875	255.525	135.427	328.642	409.702	102.075	214.379	388.648	395.214	153.172	385.879	356.201	347.113	144.360	198.953	339.091	399.517	0.00030483	0.00032211	3.8681e-05	1217.4	5.1038e-06	4.3131e-06	1287.9	251.65	3.5535e-06	1.774e-06	313.13	88.716	69.694	19.95	2.7137e-06	27.801	0.00027239	0.00026437	7.5311e-05	1199.7	2.9238e-06	2.8344e-06	1267.6	249.38	2.9552e-06	2.9174e-06	310.71	88.424	69.866	20.231	2.8373e-06	28.35	242.074	166.859	153.024	91.459	238.982	232.198	91.591	98.752	264.359	214.702	98.267	105.266	105.825	112.149	256.674	111.537	-8191	255	
565.884	1	1	0	0	0.17914	0.1633	0.21612	0.029319	0.1935	0.1895	0.2434	0.1929	0.046092	0.17638	0.099876	0.2875	0.26687	0.2149	0.13032	0.06524	-4.5083	-5.0667	-4.6792	-5.2354	-4.9125	-4.6583	-5.3083	-4.7604	-4.9333	-5.2729	-4.6292	-5.0458	-4.9125	-4.675	-5.1687	-4.8083	85.916	108.231	264.668	393.724	298.199	400.143	418.396	375.556	160.810	91.615	406.343	395.480	425.385	124.984	257.987	286.299	0.0002861	0.00041223	9.8895e-05	1219.1	3.1451e-06	4.3409e-06	1290	250.67	3.8034e-06	2.4045e-06	312.23	88.318	69.487	19.969	3.0041e-06	27.876	0.00027297	0.00026038	7.1856e-05	1198.9	2.8973e-06	2.7556e-06	1266.1	248.9	2.8657e-06	2.803e-06	310.27	88.434	69.613	20.266	2.7969e-06	28.252	242.716	159.164	174.524	91.484	204.852	227.799	91.369	98.726	285.194	172.606	98.328	105.245	105.899	112.135	289.544	111.472	-8191	255	
565.980	1	1	0	0	0.092047	0.1502	0.28557	0.16609	0.13149	0.095439	0.13947	0.22094	0.18857	0.10093	0.024777	0.099353	0.13936	0.12351	0.18511	0.075688	-4.4542	-5.0271	-4.5625	-5.1333	-4.9708	-4.5375	-5.2688	-4.8229	-4.6146	-5.2542	-4.7917	-4.9229	-4.9646	-4.575	-5.125	-4.8438	380.051	257.129	317.901	346.183	160.794	377.974	333.343	374.438	385.050	85.835	246.681	432.455	426.507	99.199	120.112	264.989	0.0003207	0.00055393	4.6989e-05	1218.9	4.6091e-06	3.8802e-06	1287.9	250.37	3.7388e-06	3.5573e-06	314.12	88.899	69.692	19.999	3.735e-06	27.993	0.00027908	0.00025241	7.2886e-05	1200.5	2.8941e-06	2.8631e-06	1267.1	249.01	2.9052e-06	2.8139e-06	310.9	88.576	69.729	20.27	2.8661e-06	28.341	238.935	168.903	155.105	91.434	245.743	253.998	91.556	98.824	249.646	227.171	98.171	105.249	105.348	111.852	238.722	111.056	-8191	255	
566.077	1	1	0	0	0.11659	0.07214	0.12313	0.1225	0.16492	0.13269	0.052469	0.16132	0.061845	0.085161	0.12031	0.093802	0.20491	0.070091	0.14087	0.057675	-4.3313	-5.0479	-4.5896	-4.9688	-5.1	-4.6646	-5.3354	-4.9167	-4.5437	-5.0271	-4.6208	-4.8812	-5.0479	-4.4333	-4.9479	-4.9375	132.448	260.700	139.808	337.507	88.665	239.083	402.131	370.868	206.765	111.168	91.052	165.720	124.405	381.289	350.466	346.135	0.00029711	0.00032616	0.00011196	1221	4.3895e-06	2.0877e-06	1284.7	250.62	2.0377e-06	3.9417e-06	313.28	88.445	69.81	19.934	3.2928e-06	28.058	0.00027235	0.00025681	7.2558e-05	1201	2.9585e-06	2.8216e-06	1264.7	248.95	2.8827e-06	2.8347e-06	310.85	88.389	69.751	20.23	2.8708e-06	28.331	243.813	152.460	212.287	91.287	237.609	256.428	91.659	98.614	248.380	223.474	98.416	105.215	105.711	111.873	268.799	111.508	-8191	255	
566.173	1	1	0	0	0.053872	0.26041	0.079679	0.25396	0.38388	0.17934	0.32243	0.10568	0.096809	0.17138	0.3038	0.084348	0.18811	0.18681	0.029379	0.25476	-4.1729	-5.1896	-4.6208	-5.1167	-5.0979	-4.6667	-5.2104	-5.0563	-4.4375	-5.3125	-4.7604	-4.8229	-5.1771	-4.5167	-5.0583	-5.1104	194.837	255.595	198.599	414.011	296.601	270.103	407.223	283.084	123.502	273.594	90.147	285.708	424.631	81.531	147.851	422.683	0.00026537	0.00021717	0.00015641	1221	4.6703e-06	2.9042e-06	1291.6	251.65	2.6688e-06	3.604e-06	313	87.879	69.631	19.812	2.5975e-06	28.072	0.00026882	0.00026417	7.3067e-05	1200.7	2.9823e-06	2.9539e-06	1268	249.37	2.9691e-06	3.059e-06	310.1	88.252	69.655	20.242	3.0353e-06	28.378	235.488	170.640	181.007	91.654	254.116	230.881	91.426	98.886	298.258	227.641	98.199	104.922	105.445	111.618	219.591	111.510	-8191	255	
566.269	1	1	0	0	0.083226	0.17742	0.02917	0.33447	0.099187	0.079212	0.24149	0.038251	0.088408	0.14102	0.12822	0.27743	0.11992	0.25172	0.18002	0.21581	-4.0896	-5.0167	-4.7896	-4.7208	-5.0479	-4.6917	-5.1667	-5.1687	-4.5833	-5.0583	-4.9771	-4.6958	-5.1312	-4.5687	-4.8542	-5.0729	213.487	191.497	237.191	378.063	359.487	175.808	94.641	184.073	127.952	164.042	108.072	395.407	89.317	137.797	413.425	127.901	0.00028798	0.00040703	0.00011649	1216.3	5.184e-06	7.8059e-06	1291.2	251.11	1.6181e-06	4.2396e-06	311.68	88.164	69.624	19.952	1.2147e-06	27.945	0.00027565	0.00027708	7.5527e-05	1201.7	3.0423e-06	3.015e-06	1268.5	249.19	3.0253e-06	3.0699e-06	310.9	88.36	69.658	20.281	3.0099e-06	28.318	244.844	208.929	149.473	91.627	236.677	236.632	91.491	98.948	249.037	217.600	98.362	105.365	105.536	112.306	234.061	111.316	-8191	255	
566.365	1	1	0	0	0.10647	0.16808	0.19607	0.14201	0.13754	0.17958	0.12616	0.034274	0.15845	0.07256	0.31326	0.35384	0.23855	0.18976	0.28121	0.17778	-4.2292	-4.9917	-4.7229	-4.7479	-5.3375	-4.7958	-4.9958	-5.0813	-4.6292	-5.0646	-4.9875	-4.7146	-5.1083	-4.8021	-4.7729	-5.1042	242.700	332.937	89.956	380.658	337.449	436.775	432.708	176.448	207.218	216.569	419.888	423.632	105.667	101.844	87.863	252.703	0.00029694	0.00014767	0.00013759	1217.9	5.2797e-06	3.0099e-06	1289.9	250.57	2.94e-06	1.5583e-06	313.34	88.323	70.396	19.95	3.9736e-06	28.014	0.000281	0.00026472	7.3618e-05	1202.2	2.9964e-06	3.0078e-06	1267.1	249.17	3.0133e-06	3.0932e-06	310.87	88.505	69.954	20.267	2.9391e-06	28.339	241.813	103.938	169.083	91.360	252.418	211.032	91.517	98.977	269.089	218.494	98.316	105.133	105.444	111.982	218.735	111.546	-8191	255	
566.486	1	1	0	0	0.17445	0.19567	0.20146	0.18128	0.058135	0.15434	0.30665	0.32189	0.050684	0.12981	0.27194	0.10524	0.099112	0.07925	0.089816	0.37062	-4.2812	-5.0167	-4.85	-4.7812	-5.1375	-4.6833	-5.0146	-5.1687	-4.6937	-5.0292	-5.0938	-4.6667	-5.2167	-4.8417	-4.6667	-5.1625	212.274	279.102	326.138	428.953	420.457	382.880	375.801	359.809	236.333	265.437	393.894	321.721	373.628	224.665	170.492	396.633	0.00030473	0.00021173	0.00012511	1223.8	3.433e-06	5.515e-06	1292.6	250.55	3.5376e-06	3.3286e-06	312.99	88.449	69.969	20.078	3.4388e-06	27.783	0.00027564	0.00027977	7.4805e-05	1204.9	3.0123e-06	2.8639e-06	1271.1	249.29	3.0129e-06	3.0131e-06	311.33	88.543	69.805	20.284	3.1009e-06	28.323	240.420	144.599	113.441	91.517	259.296	220.223	91.388	98.803	262.502	188.770	98.157	105.500	105.498	112.127	248.946	111.559	-8191	255	
566.582	1	1	0	0	0.084935	0.18075	0.10589	0.28175	0.065375	0.20981	0.054568	0.094387	0.18489	0.24472	0.17996	0.18085	0.18774	0.2344	0.21165	0.18171	-4.2375	-4.7917	-5.0062	-4.6125	-5.0833	-4.8542	-4.7583	-5.2083	-4.4875	-4.9417	-5.2167	-4.8063	-5.1188	-4.825	-4.7604	-5.1021	274.434	417.904	406.385	434.920	257.597	94.173	268.135	399.909	361.329	90.247	98.753	384.329	121.266	167.346	282.416	128.013	0.00028502	0.00015775	0.00013132	1226	5.3349e-06	3.0004e-06	1295.2	251.57	3.5933e-06	1.6421e-06	313.83	88.528	70.039	19.962	3.6405e-06	28.206	0.00028924	0.00028962	8.0908e-05	1205.7	3.2002e-06	3.1057e-06	1273.6	250.02	3.0906e-06	3.0308e-06	311.41	88.524	69.963	20.307	3.0299e-06	28.448	244.204	164.632	185.997	91.515	224.638	259.032	91.532	98.798	263.527	228.189	98.026	105.513	105.698	112.013	214.001	112.075	-8191	255	
566.678	1	1	0	0	0.24311	0.20611	0.10435	0.23466	0.31721	0.18023	0.057659	0.30679	0.13799	0.24885	0.14572	0.13294	0.31121	0.079072	0.087427	0.077784	-4.1875	-4.7979	-5.05	-4.6333	-5.1937	-4.8729	-4.7375	-5.1104	-4.7562	-4.8229	-5.1667	-4.6708	-4.9729	-4.9417	-4.5771	-5.1396	373.068	398.216	120.110	388.214	287.098	181.553	259.121	331.017	116.863	194.492	343.123	103.026	396.320	92.842	111.902	117.167	0.00030401	0.00020971	0.00010159	1227.3	1.0152e-06	2.3889e-06	1294.3	251.19	2.0975e-06	4.8812e-06	315.93	88.628	70.046	20.079	3.8267e-06	28.106	0.00027929	0.00028469	7.6937e-05	1208.7	3.226e-06	3.1125e-06	1273.2	249.87	3.1585e-06	3.2239e-06	312.17	88.626	70.058	20.375	3.2113e-06	28.473	246.981	196.896	138.593	91.376	255.713	245.573	91.592	98.703	277.923	215.725	98.342	105.328	105.598	112.017	262.048	111.628	-8191	255	
566.774	1	1	0	0	0.12521	0.092093	0.26921	0.17825	0.22523	0.13745	0.012952	0.18828	0.12303	0.073245	0.16509	0.31369	0.12976	0.12276	0.29522	0.12725	-4.3604	-4.6937	-5.0021	-4.7333	-5.0104	-4.9833	-4.6667	-5.2188	-4.8292	-4.6875	-5.2188	-4.5875	-5.0604	-5.0208	-4.6562	-5.1667	173.022	412.600	147.341	355.451	252.497	145.459	423.645	384.974	304.893	149.633	108.458	410.151	261.655	376.176	195.183	260.648	0.00029208	0.00047788	4.6295e-05	1226.4	4.2264e-06	1.0156e-06	1294.8	252.28	1.8378e-06	1.318e-06	312.46	88.6	70.141	20.109	2.6359e-06	28.25	0.00029179	0.00028727	7.6539e-05	1205.6	3.1372e-06	3.0207e-06	1272	249.78	2.9786e-06	2.8538e-06	311.33	88.686	70.113	20.368	2.9846e-06	28.472	241.675	166.054	198.520	91.450	270.871	234.114	91.651	98.842	250.611	166.538	98.139	105.343	105.508	112.094	228.526	111.204	-8191	255	
566.869	1	1	0	0	0.14121	0.074517	0.12291	0.30693	0.077829	0.29495	0.1232	0.12411	0.12282	0.19265	0.10022	0.22126	0.17449	0.1766	0.17057	0.09001	-4.4271	-4.6188	-5.1271	-4.7229	-4.8958	-5.0354	-4.6479	-5.0875	-4.8979	-4.6083	-5.2646	-4.6979	-5.0229	-5.0875	-4.4333	-5.1438	123.773	390.087	345.520	394.593	161.900	396.310	373.105	342.643	108.730	130.787	399.722	335.111	434.013	439.860	394.022	207.345	0.00031185	0.00021571	0.00020275	1222.1	4.999e-06	4.8953e-06	1295.1	251.03	2.9e-06	3.2771e-06	313	88.705	69.997	20.034	4.1268e-06	28.027	0.00028118	0.00028304	7.7694e-05	1206.2	3.2403e-06	3.2212e-06	1271.5	249.85	3.0316e-06	3.0254e-06	311.26	88.53	69.912	20.251	2.8747e-06	28.355	241.993	150.151	145.528	91.464	265.156	205.432	91.438	98.923	233.091	210.161	98.367	105.177	105.648	112.153	229.423	111.528	-8191	255	
#DATA ENDS
