BOXY.EXE: ISS Imagent and Oximeter Data Acquisition Program Version 0.80
Ascii Record File

#ACQ INFORMATION
2  Detector Channels 
16  External MUX Channels 
1  Auxiliary Channels 
5000  Waveform (CCF) Frequency (Hz)
1  Waveforms Skipped 
30  Waveforms Averaged 
1  Cycles Averaged 
16  Acquisitions per Waveform 
10.0806  Updata Rate (Hz) 

#FILE INFORMATION
TRUE -- External MUX Channel results are PARSED.
FALSE -- AC DC and Phase are NOT grouped.
TRUE -- Companion Program Settings File CREATED.
FALSE -- AC data not excluded
FALSE -- DC data not excluded
FALSE -- Phase data not excluded
FALSE -- Auxillary Chn. data not excluded
Tab delimiters

#CALIBRATION STATE
TRUE -- Waveform Calibration Values APPLIED.


#AUX CALIBRATION VALUES
Val Type	aux-1	

Term	1.0000e+00	
Factor	0.0000e+00	


#WF CALIBRATION VALUES
A = Detector Channel
Val Type	A-AC1	A-AC2	A-AC3	A-AC4	A-AC5	A-AC6	A-AC7	A-AC8	A-AC9	A-AC10	A-AC11	A-AC12	A-AC13	A-AC14	A-AC15	A-AC16	A-DC1	A-DC2	A-DC3	A-DC4	A-DC5	A-DC6	A-DC7	A-DC8	A-DC9	A-DC10	A-DC11	A-DC12	A-DC13	A-DC14	A-DC15	A-DC16	A-Ph1	A-Ph2	A-Ph3	A-Ph4	A-Ph5	A-Ph6	A-Ph7	A-Ph8	A-Ph9	A-Ph10	A-Ph11	A-Ph12	A-Ph13	A-Ph14	A-Ph15	A-Ph16	

Term	0.00000e+00	0.00000e+00	0.00000e+00	0.00000e+00	0.00000e+00	0.00000e+00	0.00000e+00	0.00000e+00	0.00000e+00	0.00000e+00	0.00000e+00	0.00000e+00	0.00000e+00	0.00000e+00	0.00000e+00	0.00000e+00	0.00000e+00	0.00000e+00	0.00000e+00	0.00000e+00	0.00000e+00	0.00000e+00	0.00000e+00	0.00000e+00	0.00000e+00	0.00000e+00	0.00000e+00	0.00000e+00	0.00000e+00	0.00000e+00	0.00000e+00	0.00000e+00	0.00000e+00	0.00000e+00	0.00000e+00	0.00000e+00	0.00000e+00	0.00000e+00	0.00000e+00	0.00000e+00	0.00000e+00	0.00000e+00	0.00000e+00	0.00000e+00	0.00000e+00	0.00000e+00	0.00000e+00	0.00000e+00	
Factor	1.00000e+00	1.00000e+00	1.00000e+00	1.00000e+00	1.00000e+00	1.00000e+00	1.00000e+00	1.00000e+00	1.00000e+00	1.00000e+00	1.00000e+00	1.00000e+00	1.00000e+00	1.00000e+00	1.00000e+00	1.00000e+00	1.00000e+00	1.00000e+00	1.00000e+00	1.00000e+00	1.00000e+00	1.00000e+00	1.00000e+00	1.00000e+00	1.00000e+00	1.00000e+00	1.00000e+00	1.00000e+00	1.00000e+00	1.00000e+00	1.00000e+00	1.00000e+00	X	X	X	X	X	X	X	X	X	X	X	X	X	X	X	X	

B = Detector Channel
Val Type	B-AC1	B-AC2	B-AC3	B-AC4	B-AC5	B-AC6	B-AC7	B-AC8	B-AC9	B-AC10	B-AC11	B-AC12	B-AC13	B-AC14	B-AC15	B-AC16	B-DC1	B-DC2	B-DC3	B-DC4	B-DC5	B-DC6	B-DC7	B-DC8	B-DC9	B-DC10	B-DC11	B-DC12	B-DC13	B-DC14	B-DC15	B-DC16	B-Ph1	B-Ph2	B-Ph3	B-Ph4	B-Ph5	B-Ph6	B-Ph7	B-Ph8	B-Ph9	B-Ph10	B-Ph11	B-Ph12	B-Ph13	B-Ph14	B-Ph15	B-Ph16	

Term	0.00000e+00	0.00000e+00	0.00000e+00	0.00000e+00	0.00000e+00	0.00000e+00	0.00000e+00	0.00000e+00	0.00000e+00	0.00000e+00	0.00000e+00	0.00000e+00	0.00000e+00	0.00000e+00	0.00000e+00	0.00000e+00	0.00000e+00	0.00000e+00	0.00000e+00	0.00000e+00	0.00000e+00	0.00000e+00	0.00000e+00	0.00000e+00	0.00000e+00	0.00000e+00	0.00000e+00	0.00000e+00	0.00000e+00	0.00000e+00	0.00000e+00	0.00000e+00	-1.23800e+02	-1.29605e+02	-1.18317e+02	-1.81384e+02	-6.66720e+01	-6.49322e+01	-1.54429e+02	-1.62015e+02	-6.47790e+01	-5.86214e+01	-1.69550e+02	-1.78216e+02	-1.82278e+02	-1.75921e+02	-6.55031e+01	-1.48295e+02	
Factor	1.82523e-05	2.02462e-04	5.46020e-05	1.59639e-01	1.48313e-06	2.22676e-06	1.61345e-01	6.10527e-02	1.51134e-06	2.21112e-06	9.03854e-02	2.02187e-01	4.85540e-02	9.32913e-03	1.59883e-06	1.33881e-02	1.11608e-05	1.90474e-05	5.34503e-06	8.05254e-02	1.92326e-07	2.14060e-07	7.69818e-02	3.09569e-02	1.94649e-07	2.13805e-07	4.45233e-02	1.01031e-01	2.48173e-02	4.77762e-03	2.01464e-07	6.64615e-03	X	X	X	X	X	X	X	X	X	X	X	X	X	X	X	X	



#DISTANCE SETTINGS
A = Detector Channel
A-1	A-2	A-3	A-4	A-5	A-6	A-7	A-8	A-9	A-10	A-11	A-12	A-13	A-14	A-15	A-16	

2.5000e+00	3.0000e+00	2.5000e+00	3.0000e+00	2.0000e+00	3.0000e+00	1.5000e+00	3.0000e+00	3.0000e+00	3.0000e+00	3.0000e+00	3.0000e+00	3.0000e+00	3.0000e+00	1.5000e+00	3.0000e+00	

B = Detector Channel
B-1	B-2	B-3	B-4	B-5	B-6	B-7	B-8	B-9	B-10	B-11	B-12	B-13	B-14	B-15	B-16	

1.0000e+01	1.0000e+01	1.0000e+01	1.4400e+00	1.0000e+01	1.0000e+01	1.5100e+00	1.9400e+00	1.0000e+01	1.0000e+01	1.9900e+00	2.4900e+00	2.4100e+00	2.9000e+00	1.0000e+01	2.9800e+00	




#DATA BEGINS
time	group	step	mark	flag	A-AC1	A-AC2	A-AC3	A-AC4	A-AC5	A-AC6	A-AC7	A-AC8	A-AC9	A-AC10	A-AC11	A-AC12	A-AC13	A-AC14	A-AC15	A-AC16	A-DC1	A-DC2	A-DC3	A-DC4	A-DC5	A-DC6	A-DC7	A-DC8	A-DC9	A-DC10	A-DC11	A-DC12	A-DC13	A-DC14	A-DC15	A-DC16	A-Ph1	A-Ph2	A-Ph3	A-Ph4	A-Ph5	A-Ph6	A-Ph7	A-Ph8	A-Ph9	A-Ph10	A-Ph11	A-Ph12	A-Ph13	A-Ph14	A-Ph15	A-Ph16	B-AC1	B-AC2	B-AC3	B-AC4	B-AC5	B-AC6	B-AC7	B-AC8	B-AC9	B-AC10	B-AC11	B-AC12	B-AC13	B-AC14	B-AC15	B-AC16	B-DC1	B-DC2	B-DC3	B-DC4	B-DC5	B-DC6	B-DC7	B-DC8	B-DC9	B-DC10	B-DC11	B-DC12	B-DC13	B-DC14	B-DC15	B-DC16	B-Ph1	B-Ph2	B-Ph3	B-Ph4	B-Ph5	B-Ph6	B-Ph7	B-Ph8	B-Ph9	B-Ph10	B-Ph11	B-Ph12	B-Ph13	B-Ph14	B-Ph15	B-Ph16	aux-1	digaux	

2444.555	1	1	0	256	0.03573	0.21753	0.050867	0.098256	0.07382	0.25823	0.21373	0.23514	0.069699	0.20485	0.28748	0.04824	0.1654	0.21708	0.29522	0.14335	-2.7812	-3.3937	-2.8521	-3.375	-3.0542	-3.1167	-3.6229	-3.0792	-3.15	-3.25	-3.0021	-3.2292	-3.1479	-2.8438	-3.3896	-3.0062	326.523	361.950	301.716	384.724	307.646	331.400	282.698	288.355	86.124	374.551	303.091	174.312	294.633	360.370	109.223	190.434	0.00022254	0.0003523	8.975e-05	1090.2	3.2565e-06	3.0618e-06	1154.8	255.31	3.328e-06	2.9075e-06	328.05	65.59	47.083	14.761	2.6158e-06	27.636	0.00013086	3.2182e-05	1.2271e-05	1025.2	8.9872e-07	4.9323e-07	1081.5	241.68	6.4923e-07	2.9398e-07	308.99	62.712	44.696	14.095	3.4501e-07	26.552	161.543	127.553	127.480	54.169	214.232	204.153	53.450	58.481	206.921	181.054	57.364	64.652	64.139	71.831	194.488	69.582	-8191	255	
2444.628	1	1	0	0	0.031947	0.13585	0.25225	0.21666	0.21186	0.14681	0.23365	0.27301	0.15108	0.048027	0.12578	0.2834	0.16858	0.2376	0.12281	0.18671	-2.7792	-3.3542	-2.8438	-3.5125	-3.3667	-2.9271	-3.6	-2.9521	-3.1667	-3.4229	-3.0187	-3.1604	-3.2604	-2.9708	-3.2562	-3.0187	64.579	247.602	149.097	275.297	225.948	150.141	359.857	349.590	170.636	306.104	190.054	215.528	233.964	357.798	134.979	398.318	0.00021103	0.00033227	8.7617e-05	1094.4	3.3399e-06	2.6094e-06	1145.6	254.04	3.3426e-06	3.3089e-06	329.22	68.177	47.165	14.655	2.9586e-06	28.061	0.00013	3.8015e-05	1.304e-05	1025.5	7.6089e-07	3.9913e-07	1079.8	241.02	7.6035e-07	2.4899e-07	309.37	63.518	44.731	14.098	4.6127e-07	26.784	154.795	115.246	134.178	54.111	208.091	199.183	53.559	58.265	204.168	207.171	57.304	65.180	64.344	71.943	186.516	69.328	-8191	255	
2444.747	1	1	0	0	0.29342	0.25673	0.11874	0.12113	0.032522	0.15121	0.25337	0.23153	0.20619	0.22863	0.072782	0.041438	0.029517	0.24357	0.26297	0.21649	-2.6354	-3.3875	-2.8312	-3.4188	-3.4021	-2.975	-3.6188	-3.3146	-2.975	-3.4562	-3.1542	-3.0417	-3.375	-3.0521	-3.2875	-3.1312	169.002	364.956	217.337	321.512	82.756	286.258	341.907	326.307	326.593	130.458	362.694	381.160	62.989	202.232	141.857	266.783	0.00019749	0.00032341	9.0848e-05	1097.2	2.5549e-06	2.5201e-06	1156.7	258.23	3.4205e-06	3.8219e-06	333.12	68.031	47.607	14.599	2.1935e-06	27.887	0.00012512	3.5238e-05	1.3441e-05	1028.9	7.3725e-07	3.5677e-07	1089.3	243	7.2912e-07	3.3095e-07	313.07	63.979	44.873	14.004	4.5203e-07	26.662	160.156	125.417	136.075	54.199	197.886	177.393	53.637	58.442	191.850	193.849	57.662	65.295	63.728	71.857	189.289	69.272	-8191	255	
2444.843	1	1	0	0	0.16671	0.21184	0.22468	0.23211	0.27311	0.085968	0.1542	0.16587	0.099314	0.1905	0.20865	0.098699	0.14522	0.23181	0.031927	0.27742	-2.5833	-3.4313	-3.0208	-3.225	-3.5083	-3.0187	-3.4896	-3.3125	-2.9688	-3.4458	-3.0438	-3.1562	-3.3979	-2.95	-3.1958	-3.4562	345.784	395.759	277.582	399.546	356.292	224.829	334.592	396.076	190.064	285.880	316.305	244.737	122.395	294.651	230.521	68.798	0.00019999	0.00031332	0.00011297	1092.2	3.8664e-06	4.3756e-06	1154.2	256.42	2.7717e-06	3.8203e-06	327.18	67.449	46.878	14.679	3.231e-06	27.745	0.0001223	2.9881e-05	1.1481e-05	1027.5	7.9855e-07	5.1553e-07	1084.4	241.9	7.1615e-07	3.4788e-07	309.47	63.572	44.355	14.058	4.5833e-07	26.597	162.518	120.593	134.364	54.205	197.841	185.172	53.675	58.010	196.601	192.483	57.541	64.995	63.949	72.087	205.252	69.168	-8191	255	
2444.940	1	1	0	0	0.18601	0.12652	0.17399	0.17516	0.13342	0.1737	0.2126	0.22149	0.1654	0.28349	0.060873	0.10432	0.25612	0.095361	0.040657	0.31824	-2.6063	-3.5687	-3.15	-3.2958	-3.3271	-2.9708	-3.3958	-3.3604	-2.9813	-3.2958	-3.3125	-3.1417	-3.3604	-3.0542	-3.1229	-3.2396	282.770	143.429	78.927	340.631	232.995	286.557	62.847	139.682	67.817	350.260	123.313	126.622	348.995	140.777	278.212	78.365	0.00019473	0.00031768	8.4193e-05	1097.6	3.1572e-06	2.4006e-06	1146.6	256.23	2.4515e-06	4.4107e-06	325.65	66.5	47.469	14.599	2.0871e-06	27.843	0.00011737	3.1428e-05	8.7748e-06	1027	7.5648e-07	3.4116e-07	1080.2	241	7.2628e-07	3.3184e-07	309.08	62.749	44.618	13.959	4.8435e-07	26.516	159.617	116.054	119.090	54.131	194.295	176.304	53.530	58.126	211.316	189.835	57.506	65.754	64.157	71.696	191.430	69.541	-8191	255	
2445.036	1	1	0	0	0.098192	0.16173	0.13947	0.14602	0.25431	0.19117	0.22589	0.080996	0.18569	0.16849	0.15209	0.16572	0.091391	0.050339	0.14256	0.27268	-2.5333	-3.4917	-3.2625	-3.1896	-3.4375	-2.9604	-3.4583	-3.2833	-2.8917	-3.2917	-3.3438	-3.025	-3.3688	-3.0646	-3.0667	-3.275	149.922	114.636	40.383	344.547	326.106	79.808	42.926	284.517	294.425	386.100	351.569	369.033	60.725	68.334	352.766	395.642	0.00018893	0.0003755	9.63e-05	1093.8	2.1948e-06	3.8105e-06	1154.6	256.35	2.2039e-06	3.5566e-06	328.1	65.93	47.227	14.543	2.7017e-06	28.006	0.00012207	3.8293e-05	1.0657e-05	1027	6.7194e-07	4.0092e-07	1082.9	242.13	7.2912e-07	2.3919e-07	309.83	63.256	44.646	13.996	5.087e-07	26.743	157.634	120.930	136.095	54.155	203.209	205.290	53.583	58.231	206.599	186.979	57.446	64.850	64.218	72.625	198.369	69.187	-8191	255	
2445.156	1	1	0	0	0.23397	0.11288	0.113	0.072907	0.40161	0.044438	0.1967	0.07039	0.094668	0.17523	0.26092	0.11068	0.16183	0.28601	0.17037	0.2869	-2.4229	-3.0646	-3.1937	-3.025	-3.4333	-3.1	-3.1396	-3.6021	-2.8083	-3.0667	-3.0708	-3.0125	-3.2771	-2.9646	-3.1312	-3.3937	113.068	114.724	204.216	377.861	197.774	298.640	316.549	106.094	99.458	333.810	319.534	47.161	43.076	374.259	279.688	122.339	0.00019431	0.00033192	6.4567e-05	1096.5	3.455e-06	2.7357e-06	1160.5	256.84	3.1149e-06	3.8999e-06	330.1	67.554	47.029	14.639	3.0579e-06	28.19	0.00011842	3.4166e-05	8.7748e-06	1028.4	7.1121e-07	3.1351e-07	1087.9	242.48	7.2223e-07	3.6748e-07	311.72	63.842	44.584	14.107	4.3441e-07	26.84	162.383	127.099	142.167	54.276	209.996	176.031	53.716	58.056	200.191	185.591	57.578	65.028	64.572	72.142	183.262	69.141	-8191	255	
2445.253	1	1	0	0	0.21494	0.18743	0.23005	0.18128	0.29913	0.30935	0.13233	0.12614	0.094717	0.23217	0.29861	0.13828	0.17782	0.2283	0.32215	0.13708	-2.6312	-3.0146	-3.0812	-2.9667	-3.15	-3.325	-3.2104	-3.4146	-3.0417	-3.2812	-3.2292	-2.8271	-3.2771	-3.3187	-3.1312	-3.5521	173.109	160.227	86.041	42.393	244.977	56.003	354.854	248.547	282.045	257.314	275.761	356.844	369.034	339.036	302.678	317.232	0.00020115	0.00042028	0.00012408	1096.1	3.1151e-06	3.0633e-06	1154.7	255.88	2.288e-06	3.2933e-06	331.06	66.464	47.094	14.391	2.8847e-06	27.695	0.00012854	3.5753e-05	9.7992e-06	1028	7.5087e-07	3.8397e-07	1087.1	241.73	7.4859e-07	4.2716e-07	311.66	63.709	44.503	13.896	4.9527e-07	26.503	154.825	136.104	131.623	54.163	206.338	203.540	53.318	58.104	215.982	194.664	57.671	65.367	64.070	71.938	187.192	69.309	-8191	255	
2445.324	1	1	0	0	0.13893	0.14059	0.074221	0.10053	0.25076	0.15636	0.071177	0.10274	0.17812	0.1934	0.03862	0.076593	0.051185	0.20177	0.18398	0.18171	-2.5708	-3.2771	-3.3458	-2.85	-3.225	-3.1521	-3.0229	-3.4313	-3.0521	-3.2542	-3.3625	-2.8458	-3.2667	-3.1479	-2.8375	-3.4125	69.539	72.970	362.717	337.693	213.801	355.784	384.850	212.873	179.609	178.968	338.982	170.594	55.711	279.052	394.486	65.272	0.00021241	0.00040933	9.3009e-05	1098.1	2.903e-06	3.8069e-06	1155.9	255.34	3.4113e-06	3.7247e-06	329.46	66.664	46.738	14.6	3.9283e-06	27.89	0.00013121	4.0158e-05	6.0466e-06	1029.6	7.9976e-07	3.3447e-07	1088.3	241.21	7.5548e-07	4.3385e-07	310.61	63.274	44.504	13.927	5.4437e-07	26.59	159.097	143.390	150.656	54.056	202.800	189.421	53.487	58.317	200.691	196.099	57.802	64.931	63.765	72.192	194.959	69.969	-8191	255	
2445.445	1	1	0	0	0.044947	0.23281	0.05592	0.413	0.14415	0.15338	0.25265	0.1345	0.36393	0.20042	0.17337	0.059676	0.16936	0.12658	0.097673	0.1423	-2.5125	-3.0896	-3.3229	-2.9604	-3.2458	-3.1729	-2.9521	-3.4062	-3.1292	-3.1917	-3.4938	-2.875	-3.2167	-3.2896	-2.9062	-3.2708	48.390	273.958	82.546	342.707	175.709	267.860	349.676	67.211	397.312	210.062	86.063	280.475	289.641	97.404	216.273	203.628	0.00020954	0.00039745	9.0053e-05	1099.4	3.1422e-06	2.3338e-06	1157.9	255.74	2.9559e-06	4.0719e-06	328.12	66.477	47.439	14.613	3.0627e-06	27.983	0.00012391	3.9246e-05	8.7636e-06	1031.7	6.9197e-07	3.309e-07	1088.8	242.37	7.0479e-07	4.2137e-07	311.27	63.674	44.618	14.013	5.1541e-07	26.693	153.578	131.339	120.632	54.253	206.501	206.281	53.531	58.142	201.977	201.500	57.433	65.191	64.196	72.051	190.309	69.587	-8191	255	
2445.539	1	1	0	0	0.17776	0.088664	0.2455	0.34038	0.29765	0.088425	0.11496	0.092265	0.19538	0.25361	0.084501	0.1044	0.09533	0.10824	0.2153	0.13917	-2.6146	-2.975	-3.2917	-3.0167	-2.9917	-3.0667	-2.9521	-3.4021	-3.1917	-2.9396	-3.3354	-2.7562	-3.2646	-3.2896	-2.7938	-3.2687	130.262	187.924	288.870	305.016	382.614	237.186	362.579	223.564	369.769	354.885	133.257	361.948	349.354	41.627	350.339	82.586	0.00021793	0.00033167	8.3077e-05	1099.3	3.588e-06	2.5585e-06	1161	258.78	2.5554e-06	2.811e-06	331.6	66.692	47.137	14.53	2.1228e-06	28.367	0.00013142	4.3888e-05	6.5922e-06	1032.5	7.9254e-07	2.4795e-07	1092.7	243.4	6.4437e-07	4.1603e-07	313.41	63.971	44.834	13.982	4.9527e-07	26.821	154.418	134.416	139.635	54.257	205.672	185.687	53.576	57.994	209.226	178.065	57.631	65.043	64.635	71.655	194.605	69.283	-8191	255	
2445.637	1	1	0	0	0.18445	0.043769	0.1786	0.32708	0.20425	0.34909	0.24937	0.26271	0.14325	0.2647	0.24257	0.052702	0.18987	0.1378	0.068465	0.15251	-2.8729	-2.9313	-3.3458	-3.0542	-3.2083	-3.5	-2.9396	-3.3812	-3.4479	-3.0604	-3.3208	-3.1188	-3.1042	-3.3958	-2.9146	-3.3063	47.085	261.681	155.154	41.598	323.613	384.844	308.513	315.176	117.307	76.087	265.707	74.296	371.438	166.309	323.142	188.884	0.00021644	0.00038038	7.3184e-05	1098.7	2.9508e-06	2.7435e-06	1156.8	258.23	3.1636e-06	3.0929e-06	332.11	68.592	47.434	14.52	3.3322e-06	27.623	0.00012468	4.6309e-05	5.3228e-06	1033.2	7.5849e-07	1.8686e-07	1091.8	243.64	5.9773e-07	3.4743e-07	313.46	63.964	44.903	13.905	4.1804e-07	26.495	158.854	139.965	134.610	54.312	188.206	195.119	53.417	57.976	201.756	212.002	57.732	65.680	64.476	71.400	201.185	69.578	-8191	255	
2445.756	1	1	0	0	0.2599	0.14419	0.10082	0.11805	0.21926	0.11739	0.2585	0.2337	0.18277	0.16012	0.082766	0.11007	0.13757	0.097835	0.2713	0.18125	-2.8312	-2.8229	-3.3583	-3.0979	-3.0146	-3.2938	-3.0958	-3.375	-3.1958	-2.9042	-3.3646	-2.8312	-2.9979	-3.3729	-2.95	-3.1312	183.911	61.827	308.715	246.438	113.196	54.787	376.429	361.119	165.187	225.283	303.601	381.315	369.263	160.532	160.969	181.859	0.00021216	0.00033928	7.9249e-05	1104.9	3.1831e-06	4.5116e-06	1165.5	257.1	3.6896e-06	2.8335e-06	331.43	65.426	46.972	14.558	2.5596e-06	27.99	0.00012398	4.4047e-05	7.6278e-06	1036.7	7.4646e-07	3.3046e-07	1095.1	243.26	7.1371e-07	4.1202e-07	311.5	62.526	44.825	13.948	4.5707e-07	26.534	156.879	140.449	125.225	54.324	193.641	182.729	53.538	58.494	199.876	183.930	57.454	66.398	64.238	72.111	182.169	69.246	-8191	255	
2445.852	1	1	0	0	0.1877	0.25044	0.041481	0.18099	0.20888	0.11927	0.32382	0.053452	0.21086	0.053356	0.11118	0.17724	0.14479	0.084344	0.25503	0.23554	-2.8854	-2.7625	-3.2417	-3.5292	-3.0208	-3.5333	-3.1562	-3.1792	-3.4	-2.9833	-3.2729	-2.9583	-2.8604	-3.4562	-3.0417	-3.1542	122.178	323.146	175.841	52.543	56.621	320.412	363.536	253.423	370.408	211.740	59.740	354.878	355.304	89.798	368.666	248.244	0.00021756	0.00027344	8.8875e-05	1100.3	3.0228e-06	3.8095e-06	1161.9	258.26	3.1452e-06	3.8054e-06	330.89	67.413	47.497	14.69	2.7234e-06	27.85	0.00012947	4.6864e-05	9.1868e-06	1035	8.286e-07	1.8775e-07	1094.7	243.47	7.0074e-07	4.4988e-07	312.91	63.753	44.917	13.977	4.9778e-07	26.7	152.136	122.838	126.759	54.070	210.288	197.532	53.525	57.970	201.432	214.140	57.605	64.509	64.147	72.049	179.254	69.552	-8191	255	
2445.924	1	1	0	0	0.23732	0.20936	0.21862	0.20048	0.14144	0.038956	0.19198	0.3213	0.18741	0.082573	0.22024	0.11341	0.22057	0.035854	0.25064	0.12753	-3	-3.1188	-3.2438	-3.3854	-2.8479	-3.3583	-3.2854	-3.1375	-3.5333	-2.9062	-3.2979	-3.1937	-2.9437	-3.3417	-3.1437	-3.0271	354.388	349.452	91.984	390.451	59.245	51.551	304.234	364.434	289.428	301.042	344.706	92.027	257.501	96.102	196.301	190.684	0.00021572	0.00031915	8.1381e-05	1105.7	3.0983e-06	3.4955e-06	1164.5	258.54	2.5242e-06	2.883e-06	332.14	66.785	47.831	14.593	2.3755e-06	27.985	0.00012247	4.615e-05	7.8728e-06	1037.1	8.6146e-07	3.3001e-07	1094	243.91	6.0301e-07	4.4899e-07	313.55	63.905	44.926	14.017	4.449e-07	26.733	161.266	131.072	119.852	54.466	194.234	178.685	53.745	58.078	201.328	195.476	57.405	65.507	64.060	71.963	204.875	69.839	-8191	255	
2446.020	1	1	0	0	0.19333	0.18131	0.2984	0.25194	0.20225	0.20613	0.33632	0.092629	0.20825	0.21333	0.1691	0.10663	0.18477	0.3033	0.054318	0.20147	-2.8854	-2.9354	-3.1688	-3.6167	-2.65	-3.225	-3.3271	-2.9667	-3.3854	-2.7375	-3.3833	-3.3792	-2.8271	-3.1896	-3.0646	-3.1042	117.264	323.407	115.908	374.664	124.018	265.837	341.994	272.776	167.775	240.171	333.964	336.642	344.491	352.089	292.589	341.246	0.00019711	0.00030553	7.4729e-05	1102.4	4.1853e-06	3.6371e-06	1167.7	258.31	1.6659e-06	2.528e-06	331.08	67.17	46.71	14.533	2.4403e-06	27.582	0.00011875	4.2301e-05	7.8616e-06	1036.1	9.6884e-07	2.2476e-07	1095.4	243.55	5.9368e-07	4.4231e-07	312.46	63.286	44.514	13.863	4.4616e-07	26.418	159.114	135.156	136.012	54.175	201.539	207.676	53.627	58.410	199.195	201.831	57.849	64.913	63.298	71.992	216.989	69.407	-8191	255	
2446.141	1	1	0	0	0.24983	0.034923	0.25133	0.22812	0.1303	0.08475	0.27344	0.16046	0.16524	0.072885	0.15038	0.45829	0.14069	0.11888	0.10042	0.26155	-2.8688	-3.0542	-3.1729	-3.4708	-2.9875	-3.2979	-3.3771	-2.8646	-3.2438	-3.1833	-3.0479	-3.4521	-2.9396	-3.0646	-3.3896	-3.1542	389.681	200.643	88.161	70.670	202.620	83.575	325.304	351.506	357.204	240.355	186.141	176.538	72.403	257.390	90.916	265.705	0.00020564	0.00029825	0.00010454	1099.6	3.2805e-06	4.228e-06	1164.9	256.97	2.9942e-06	2.685e-06	332.7	66.046	47.554	14.588	2.9757e-06	27.609	0.00012086	4.1428e-05	1.0556e-05	1034.2	8.258e-07	2.6312e-07	1094.4	242.57	5.9408e-07	3.7861e-07	312.28	63.016	44.672	13.948	4.1594e-07	26.486	157.921	124.743	136.904	54.175	200.063	185.999	53.620	58.382	213.512	187.304	57.624	64.946	64.174	71.592	196.988	69.397	-8191	255	
2446.237	1	1	0	0	0.16655	0.076922	0.13272	0.25518	0.090656	0.028008	0.28327	0.2615	0.27582	0.15182	0.064843	0.21439	0.17853	0.14898	0.25016	0.29863	-2.9104	-2.9062	-2.9792	-3.4875	-3.0104	-3.1667	-3.5208	-2.9417	-3.3146	-3.2375	-3.1542	-3.4354	-3.025	-3.2125	-3.2271	-2.8438	79.184	112.118	135.561	347.982	53.890	49.393	353.436	387.436	318.845	314.850	116.994	107.108	228.733	358.460	180.465	400.062	0.00020769	0.00037361	0.00010327	1101.7	3.3002e-06	2.8e-06	1169.6	257.31	2.8635e-06	4.0925e-06	331.15	65.608	47.701	14.405	2.4381e-06	27.891	0.00011951	3.869e-05	1.1035e-05	1034.5	8.5024e-07	2.9835e-07	1096.4	242.93	5.9773e-07	3.844e-07	311.83	63.26	44.632	13.918	4.3021e-07	26.598	155.227	129.580	123.658	54.150	197.939	193.178	53.653	58.234	195.023	201.653	57.311	64.891	63.939	72.235	203.719	69.493	-8191	255	
2446.333	1	1	0	0	0.12017	0.031023	0.1237	0.14644	0.14953	0.11665	0.26989	0.19443	0.06898	0.080686	0.11052	0.056802	0.097779	0.14609	0.064173	0.097835	-2.9021	-3.0917	-2.8708	-3.475	-2.9271	-3.0896	-3.575	-2.9792	-3.2313	-3.1562	-2.9625	-3.325	-3.1542	-3.0771	-3.1979	-3.0938	119.543	261.909	297.893	333.262	79.557	214.739	320.553	400.161	135.207	137.142	245.601	114.410	175.322	390.440	126.497	102.342	0.00019819	0.00029112	7.2631e-05	1104.5	3.4902e-06	2.9568e-06	1162.8	257.51	2.5439e-06	2.9195e-06	334.47	67.645	47.493	14.665	2.1324e-06	28.156	0.00011682	3.8571e-05	1.167e-05	1036.3	8.4784e-07	4.1653e-07	1095.2	243	6.4477e-07	3.7505e-07	314.53	64.039	44.7	13.973	4.1972e-07	26.778	161.676	116.963	147.637	54.098	210.534	193.441	53.546	58.249	202.851	193.042	57.368	63.257	63.710	72.294	194.370	69.168	-8191	255	
2446.429	1	1	0	0	0.074156	0.34937	0.11051	0.36161	0.18095	0.074455	0.35763	0.35887	0.13782	0.083042	0.14266	0.24972	0.19653	0.13366	0.16443	0.24466	-2.8021	-3.3271	-2.9042	-3.4458	-3.0854	-3.0646	-3.4708	-2.9042	-3.2562	-3.2375	-3.1042	-3.4458	-3.0521	-3.0625	-3.5917	-3.0521	229.019	213.312	224.398	364.758	81.719	325.197	317.474	101.713	229.696	110.490	272.925	387.940	234.470	52.525	339.765	325.365	0.00020949	0.00033525	4.1635e-05	1102.5	3.306e-06	2.3829e-06	1165.4	257.67	3.0817e-06	3.1458e-06	332.48	67.49	46.977	14.478	3.1683e-06	27.641	0.00012823	3.5436e-05	9.4986e-06	1036.3	8.5425e-07	3.6033e-07	1095.9	243.52	6.4356e-07	3.5857e-07	312.86	63.542	44.516	13.905	3.6935e-07	26.469	156.847	125.869	126.620	54.423	206.305	194.145	53.510	58.305	212.172	175.030	57.357	65.008	64.271	72.023	205.755	69.616	-8191	255	
2446.548	1	1	0	0	0.21575	0.1605	0.18411	0.25719	0.11458	0.23269	0.11723	0.25631	0.1703	0.21347	0.2863	0.079372	0.14956	0.23785	0.15	0.045446	-2.8229	-3.3625	-2.9521	-3.3917	-3.1583	-2.9604	-3.3937	-2.9708	-3.1979	-3.4458	-2.9458	-3.1604	-3.2062	-2.9708	-3.4458	-3.1354	348.166	228.628	233.986	294.671	196.534	286.514	339.067	108.921	308.297	230.108	265.909	159.798	86.841	282.518	259.397	113.062	0.00019286	0.00033915	8.9156e-05	1101	3.0357e-06	4.8414e-06	1162	256.53	2.8411e-06	3.0264e-06	329.61	66.783	47.103	14.544	3.4928e-06	27.897	0.00011289	3.3095e-05	1.1804e-05	1034.7	7.3044e-07	4.7896e-07	1093.5	242.22	5.6124e-07	3.0155e-07	310.56	63.24	44.567	14.034	5.5067e-07	26.672	154.372	116.591	129.735	54.024	205.613	185.790	53.507	58.104	194.509	198.935	57.218	65.368	63.830	72.124	195.479	69.670	-8191	255	
2446.621	1	1	0	0	0.23	0.22472	0.16315	0.20999	0.21662	0.26097	0.13105	0.22989	0.16145	0.15618	0.067016	0.092781	0.11929	0.22671	0.068061	0.30913	-2.7917	-3.3083	-2.9833	-3.5021	-3.1479	-2.9146	-3.4313	-3.3229	-3.0729	-3.4521	-3.0792	-3.1917	-3.3646	-2.925	-3.3979	-3.1333	203.787	128.583	207.113	387.802	318.558	200.426	348.084	71.108	124.888	80.024	397.419	92.837	133.815	87.224	356.910	367.796	0.00020741	0.00034513	8.1761e-05	1096.6	3.6753e-06	3.9498e-06	1157.7	255.73	2.11e-06	3.6422e-06	330.14	66.454	46.85	14.793	2.2218e-06	28.231	0.00012056	3.2658e-05	9.6322e-06	1032.3	7.8373e-07	4.5042e-07	1090.7	241.57	6.7681e-07	3.0467e-07	310.72	63.273	44.523	14.097	3.1647e-07	26.95	162.075	128.476	133.398	54.293	210.648	184.145	53.753	58.224	191.116	194.401	57.399	66.213	64.409	72.245	226.155	69.298	-8191	255	
2446.718	1	1	0	0	0.16291	0.043655	0.12311	0.43673	0.17483	0.09876	0.21906	0.21143	0.14356	0.16331	0.19084	0.12912	0.2114	0.094061	0.056395	0.10421	-2.7396	-3.4667	-3.0312	-3.3958	-3.2833	-2.95	-3.475	-3.1729	-2.9833	-3.4604	-2.9042	-3.1917	-3.3125	-2.8958	-3.275	-3.0896	118.891	87.302	129.387	361.229	390.144	300.359	364.173	40.664	117.275	113.141	344.991	293.093	202.970	370.107	341.591	152.691	0.00021541	0.00028383	0.00010114	1095.8	3.1904e-06	4.0209e-06	1160.6	256.53	2.9002e-06	3.5009e-06	331.27	66.241	47.581	14.72	2.9906e-06	28.395	0.0001304	3.3928e-05	1.0133e-05	1029.6	7.7732e-07	4.1474e-07	1092.5	241.66	7.0641e-07	2.7305e-07	311.76	63.798	44.742	14.153	4.2475e-07	27.128	156.129	130.150	137.418	54.270	189.782	172.791	53.519	58.185	207.212	181.522	57.409	64.958	64.289	71.944	192.906	69.547	-8191	255	
2446.836	1	1	0	0	0.046452	0.15782	0.090456	0.21851	0.29607	0.026722	0.12721	0.26071	0.079023	0.14502	0.14183	0.11127	0.20846	0.15081	0.18861	0.22446	-2.5917	-3.3521	-3.0229	-3.3292	-3.2	-2.9	-3.5542	-3.2417	-3.1542	-3.2812	-3.2313	-3.0563	-3.1146	-2.8438	-3.325	-3.1667	256.389	111.243	234.678	65.130	184.345	345.986	327.820	348.953	79.865	130.798	302.710	108.513	360.544	123.497	399.770	317.577	0.0001914	0.00035998	6.7765e-05	1099.2	2.2108e-06	3.5798e-06	1156.1	254.93	3.4304e-06	3.0726e-06	330.08	65.561	47.204	14.708	2.4469e-06	28.004	0.0001263	2.8611e-05	9.0643e-06	1030.8	6.6994e-07	3.7104e-07	1091.5	240.83	6.906e-07	2.1603e-07	310.84	62.856	44.299	14.067	3.1479e-07	26.836	156.854	118.205	151.594	54.011	196.929	193.392	53.685	58.120	200.078	203.318	57.356	65.568	63.880	71.707	181.174	69.744	-8191	255	
2446.933	1	1	0	0	0.08305	0.035371	0.085871	0.24698	0.18581	0.14792	0.20009	0.33162	0.17944	0.11339	0.4616	0.051718	0.053	0.21469	0.17255	0.12861	-2.6375	-3.2917	-2.9667	-3.1333	-3.4083	-2.9458	-3.3458	-3.2167	-2.9083	-3.2729	-3.3021	-3.2271	-3.2396	-3.05	-3.2083	-3.25	174.362	65.523	102.662	386.204	398.872	101.262	345.026	372.562	324.804	112.809	381.157	391.540	132.034	338.505	60.595	318.742	0.00022392	0.00044972	9.7971e-05	1099.9	3.3091e-06	2.7297e-06	1155.3	254.32	2.4274e-06	2.62e-06	327.79	66.15	46.501	14.683	2.9907e-06	28.425	0.00013054	3.5396e-05	8.9529e-06	1031.1	7.1922e-07	3.037e-07	1087.3	239.31	6.9871e-07	2.5879e-07	308.35	63.636	44.274	14.138	3.8992e-07	27.042	156.311	143.845	133.516	54.263	181.512	179.619	53.682	58.297	201.497	185.302	57.326	64.480	63.703	71.575	187.404	69.139	-8191	255	
2447.029	1	1	0	0	0.185	0.22069	0.045437	0.33893	0.22646	0.18982	0.29673	0.073767	0.073101	0.31229	0.39677	0.20765	0.090577	0.16366	0.28416	0.27022	-2.4292	-3.3042	-3.0354	-3.1396	-3.3917	-3.0396	-3.4708	-3.3542	-2.8833	-3.2333	-3.1083	-2.9917	-3.5062	-3.0417	-3.2146	-3.1521	325.018	191.006	185.426	399.250	166.765	97.354	349.867	183.735	387.894	337.189	130.106	202.096	315.502	354.772	360.474	319.661	0.00020688	0.00028578	7.435e-05	1094.6	2.8645e-06	3.2739e-06	1157	254.68	3.4857e-06	3.0302e-06	327.95	67.489	46.791	14.931	3.0365e-06	28.699	0.00013014	3.5793e-05	9.8994e-06	1026.8	7.2202e-07	3.3358e-07	1089.2	240.37	7.0114e-07	2.7127e-07	309.16	63.238	44.287	14.272	4.3692e-07	27.311	157.489	135.779	146.269	54.223	210.282	189.752	53.572	57.904	197.260	196.690	57.471	65.175	64.274	72.039	191.287	69.395	-8191	255	
2447.125	1	1	0	0	0.12128	0.19908	0.16413	0.12958	0.031092	0.26435	0.08144	0.14461	0.13875	0.071568	0.10929	0.15225	0.10351	0.085731	0.080292	0.19819	-2.3479	-3.2708	-3.0312	-2.9833	-3.4896	-3.1917	-3.2021	-3.4271	-2.9354	-3.3167	-3.2438	-2.975	-3.3542	-3.1021	-3.075	-3.3521	388.705	294.321	239.282	227.656	79.156	48.881	385.475	330.866	372.610	309.553	347.763	285.093	247.952	203.058	277.845	56.615	0.00022221	0.00038146	0.00010204	1090.4	3.9734e-06	3.1099e-06	1154.3	252.21	2.9577e-06	4.3803e-06	330.48	67.093	46.875	15.12	2.9421e-06	29.004	0.00012616	3.1865e-05	8.6523e-06	1024.3	6.7074e-07	3.2377e-07	1085.7	239.08	7.0033e-07	2.8953e-07	310	63.266	44.528	14.499	4.7176e-07	27.567	161.944	125.210	135.485	54.235	190.843	191.595	53.533	58.195	199.237	180.989	57.107	64.992	64.230	72.185	190.501	68.770	-8191	255	
2447.221	1	1	0	0	0.20085	0.030169	0.069033	0.13969	0.17555	0.36216	0.079499	0.11579	0.10381	0.075384	0.15264	0.31584	0.13545	0.26894	0.14214	0.26631	-2.5042	-3.2917	-3.3438	-2.9958	-3.275	-3.1771	-3.2771	-3.3583	-3.0625	-3.1437	-3.2292	-2.8438	-3.2417	-3.1458	-3.1458	-3.525	134.430	286.741	386.234	384.555	154.750	241.939	371.775	367.931	134.289	302.112	380.650	178.755	256.301	140.880	142.639	144.366	0.00021496	0.00046317	8.7779e-05	1090.7	1.7979e-06	2.6968e-06	1148.4	251.99	3.4886e-06	4.8881e-06	326.23	66.393	46.444	15.096	1.5937e-06	28.698	0.00012744	3.3015e-05	6.4474e-06	1022.2	6.7034e-07	3.1039e-07	1082.3	238.44	6.9587e-07	3.5322e-07	306.56	62.844	44.056	14.486	4.0461e-07	27.31	162.630	126.270	149.213	54.151	187.812	184.488	53.559	58.346	202.023	209.331	57.181	65.200	64.425	72.084	209.539	69.131	-8191	255	
2447.317	1	1	0	0	0.037962	0.25582	0.18325	0.12781	0.027732	0.13805	0.41727	0.025715	0.28033	0.16928	0.23302	0.3053	0.026617	0.28508	0.1055	0.071805	-2.4146	-3.2396	-3.1896	-3.1271	-3.2333	-3.2583	-2.925	-3.3208	-2.9458	-3.1437	-3.2479	-2.8563	-3.2687	-3.1375	-3.0125	-3.2604	369.975	142.235	163.580	257.405	387.588	130.770	313.760	64.387	249.102	354.930	69.537	272.775	363.880	363.184	232.648	239.966	0.00020385	0.00039889	7.2958e-05	1089.7	2.7796e-06	3.6229e-06	1146.4	251.93	1.8577e-06	3.5511e-06	323.75	65.758	46.335	15.13	2.8488e-06	28.759	0.00012565	3.5039e-05	7.7057e-06	1021.5	7.4606e-07	3.0236e-07	1079.2	238.11	6.7924e-07	3.3897e-07	305.12	62.553	44.092	14.466	4.8477e-07	27.342	154.133	124.357	143.872	54.533	207.152	197.401	53.503	58.279	199.773	218.008	57.449	64.593	64.003	72.140	205.453	69.464	-8191	255	
2447.438	1	1	0	0	0.19844	0.28134	0.275	0.16219	0.099331	0.20769	0.3845	0.15002	0.12506	0.086382	0.016271	0.13281	0.098565	0.20039	0.14594	0.29819	-2.6479	-3.025	-3.0583	-3.0479	-3.3833	-3.2875	-3.1146	-3.3708	-3.15	-2.9958	-3.2417	-3.0729	-3.175	-3.2625	-2.8271	-3.4167	180.117	372.861	129.902	366.738	390.696	279.994	322.889	309.426	145.466	260.095	237.940	137.452	387.553	66.755	329.380	270.275	0.00022468	0.00045599	8.259e-05	1088.1	3.3486e-06	3.2193e-06	1148.3	252.21	2.6655e-06	2.7163e-06	323.7	66.45	46.551	15.004	2.5595e-06	29.012	0.00013265	3.0158e-05	7.8505e-06	1021.5	7.8092e-07	2.2566e-07	1079.7	237.84	6.3626e-07	3.1848e-07	305.66	63.035	44.238	14.469	4.4826e-07	27.515	158.640	141.685	137.815	54.260	199.579	187.693	53.512	58.246	201.072	224.735	57.406	65.095	63.900	72.114	199.482	69.265	-8191	255	
2447.534	1	1	0	0	0.070422	0.078296	0.14503	0.29125	0.10439	0.24682	0.069581	0.19335	0.20506	0.24526	0.26571	0.28617	0.22363	0.011434	0.21951	0.065227	-2.5771	-2.9562	-3.4125	-3.2396	-3.1104	-3.2229	-3.0687	-3.4	-3.15	-3.1375	-3.5687	-3.175	-3.1729	-3.3021	-2.8167	-3.3646	174.860	351.486	149.641	335.735	330.931	126.197	165.557	330.941	88.833	344.635	287.377	40.931	55.472	190.155	289.660	71.340	0.00019167	0.00042459	9.3349e-05	1082.3	3.0183e-06	3.2843e-06	1148.9	250.83	2.3721e-06	3.3568e-06	326.42	67.485	47.136	15.097	2.4716e-06	29.098	0.00012068	4.6706e-05	6.9931e-06	1018.9	7.5608e-07	3.0504e-07	1080.8	237.08	6.2612e-07	3.7906e-07	307.01	63.006	44.358	14.471	4.7932e-07	27.539	160.809	127.955	149.453	54.136	209.685	190.695	53.491	57.943	194.337	184.570	57.338	66.006	64.397	71.648	175.543	69.203	-8191	255	
2447.628	1	1	0	0	0.14074	0.22519	0.082019	0.38297	0.036474	0.22236	0.11151	0.17419	0.089883	0.21522	0.27156	0.22568	0.11457	0.2398	0.086331	0.22212	-2.7792	-2.8063	-3.325	-3.2167	-3.1917	-3.3563	-3.0667	-3.2	-3.2229	-2.9542	-3.525	-2.9708	-3.0563	-3.3521	-2.9667	-3.2729	49.188	188.822	357.204	378.338	377.822	383.257	332.128	396.828	150.834	91.136	161.040	251.678	255.865	387.438	148.925	369.290	0.00022335	0.0002719	0.0001022	1084.5	2.9489e-06	2.0722e-06	1146.9	251.81	2.6734e-06	4.0834e-06	323.19	66.446	46.616	15.053	2.7839e-06	28.611	0.00012551	3.8531e-05	9.2759e-06	1019.5	8.0857e-07	2.5643e-07	1078.3	236.87	5.4258e-07	3.5233e-07	304.66	62.527	43.92	14.497	5.662e-07	27.475	159.527	121.951	150.511	54.353	205.670	192.161	53.611	58.204	205.775	192.009	57.410	65.205	64.439	72.524	208.986	69.444	-8191	255	
2447.726	1	1	0	0	0.10358	0.079126	0.090396	0.30008	0.094586	0.073498	0.16492	0.15582	0.27434	0.22818	0.22864	0.11451	0.070163	0.12735	0.12692	0.30775	-2.7979	-2.9146	-3.3896	-3.3208	-3.0438	-3.4896	-2.9979	-3.45	-3.3375	-2.8625	-3.3292	-3.1125	-2.9771	-3.2667	-3.0083	-3.2021	89.649	179.103	79.651	62.650	201.638	303.822	288.247	83.920	366.711	210.165	244.370	296.807	312.069	81.969	287.727	96.504	0.00022575	0.00042501	0.00010181	1077.7	3.0962e-06	3.6723e-06	1144.4	250.15	2.7925e-06	4.0237e-06	321.44	65.116	46.764	15.371	2.0424e-06	28.865	0.00012484	4.0952e-05	7.6612e-06	1013.6	8.0617e-07	2.3368e-07	1075.8	236.14	5.0609e-07	4.3206e-07	303.83	62.234	44.026	14.673	4.8058e-07	27.697	158.830	142.709	147.399	54.011	195.708	198.022	53.556	58.272	204.342	209.760	57.481	65.089	64.420	72.391	197.711	69.250	-8191	255	
2447.821	1	1	0	0	0.14331	0.098641	0.14424	0.2457	0.21159	0.072171	0.060326	0.033759	0.1571	0.24634	0.18914	0.024282	0.20625	0.087882	0.073377	0.1192	-3.0333	-2.8625	-3.4542	-3.1437	-2.9437	-3.3708	-3.1688	-3.3	-3.2958	-3.025	-3.4313	-3.2375	-3.0187	-3.4271	-3.0208	-3.1667	149.053	162.628	381.884	83.729	250.718	224.329	279.973	114.739	329.301	150.508	361.473	223.457	92.639	290.045	204.248	185.881	0.00021122	0.00041154	6.4836e-05	1081.7	3.8619e-06	2.9879e-06	1140.4	249.79	3.6515e-06	3.824e-06	322.24	66.399	47.018	15.321	3.1816e-06	29.218	0.00012214	4.6785e-05	6.7481e-06	1014	8.6106e-07	2.2432e-07	1074.6	235.97	5.7056e-07	3.0824e-07	303.95	62.853	44.347	14.676	4.6505e-07	27.834	157.386	127.292	146.467	54.084	196.955	203.339	53.432	58.294	209.105	203.760	57.889	64.925	64.514	72.214	183.849	69.720	-8191	255	
2447.917	1	1	0	0	0.15607	0.15317	0.10319	0.11371	0.1775	0.31625	0.06367	0.10183	0.23249	0.12438	0.10276	0.016684	0.096121	0.12166	0.26532	0.32801	-2.9958	-2.8312	-3.1813	-3.3292	-2.7979	-3.4604	-3.2583	-3.2104	-3.275	-3.1042	-3.5542	-3.3104	-2.85	-3.3333	-3.0542	-3.0792	85.837	218.353	367.483	77.181	279.422	115.548	88.711	276.892	177.133	234.093	287.004	272.787	74.493	62.799	396.853	260.312	0.0002213	0.00029993	0.0001137	1078.4	3.1565e-06	3.6295e-06	1144.3	249.36	3.6168e-06	1.9325e-06	323.27	65.866	46.391	15.268	2.4452e-06	29.018	0.00012516	4.6349e-05	9.0309e-06	1012	8.27e-07	2.6847e-07	1074.8	236.24	6.5288e-07	3.942e-07	304.58	62.7	43.909	14.589	4.5749e-07	27.551	157.263	126.494	136.377	54.437	195.882	181.040	53.749	58.438	199.622	199.544	57.426	65.359	63.702	71.901	179.674	69.546	-8191	255	
2448.013	1	1	0	0	0.13981	0.1201	0.13883	0.29996	0.10643	0.18569	0.38967	0.10676	0.02095	0.16109	0.18393	0.14413	0.045247	0.098159	0.10181	0.14437	-2.8708	-2.8479	-3.2188	-3.3896	-2.8708	-3.4271	-3.3208	-3.1667	-3.4938	-2.9542	-3.3937	-3.3375	-2.9417	-3.3563	-3.0312	-2.9292	144.487	45.719	157.705	44.673	207.940	331.236	399.193	366.248	345.180	208.454	322.117	97.717	220.933	66.003	102.527	349.619	0.00022834	0.00033745	7.53e-05	1081.2	3.1621e-06	3.4847e-06	1140.2	248.88	2.3579e-06	2.8838e-06	322.55	66.143	46.693	15.304	3.0153e-06	28.737	0.00012793	4.0515e-05	7.3828e-06	1012.4	7.8333e-07	2.6891e-07	1073.4	235.34	5.8597e-07	3.7861e-07	303.03	62.337	43.915	14.604	4.2643e-07	27.482	158.137	134.456	145.880	54.380	206.239	208.019	53.574	57.996	190.005	191.322	57.450	65.269	64.300	72.119	194.948	69.606	-8191	255	
2448.109	1	1	0	0	0.25205	0.037859	0.27232	0.099388	0.11091	0.21397	0.25112	0.11283	0.16937	0.22034	0.19786	0.16865	0.18328	0.060994	0.1747	0.2439	-3.1146	-2.9479	-3.2	-3.4667	-2.9437	-3.3479	-3.4042	-3.0938	-3.4625	-3.0646	-3.2125	-3.4208	-2.7458	-3.3375	-3.0521	-2.9562	364.771	311.691	394.344	65.416	286.188	274.828	358.597	48.227	192.445	282.486	353.800	164.442	134.569	185.020	242.716	364.473	0.00021332	0.00036643	8.6714e-05	1072.8	3.1895e-06	3.8363e-06	1134.8	248.29	2.1075e-06	3.48e-06	320.83	64.185	46.332	15.181	2.3311e-06	28.845	0.00012035	3.8174e-05	9.7881e-06	1011.3	8.0216e-07	3.3536e-07	1067.8	235.21	5.7462e-07	2.9665e-07	302.59	62.152	44.011	14.567	4.3651e-07	27.525	162.118	116.562	139.217	54.227	208.595	184.476	53.677	58.130	191.590	192.715	57.546	65.510	64.015	72.235	203.609	69.648	-8191	255	
2448.230	1	1	0	0	0.17477	0.33425	0.38503	0.47034	0.14994	0.20576	0.09887	0.14295	0.14131	0.14938	0.14537	0.24496	0.12829	0.11464	0.20937	0.38101	-2.9021	-3.0729	-3.1208	-3.4667	-3.0354	-3.2771	-3.4521	-3.0521	-3.2354	-3.15	-3.1875	-3.325	-3.2375	-3.2604	-3.1625	-3.025	179.324	231.133	370.827	374.170	268.408	163.163	335.336	105.838	397.157	229.875	320.324	386.309	220.160	56.020	231.241	240.274	0.00021316	0.00034241	7.8819e-05	1076.6	3.369e-06	4.8397e-06	1131.6	249.63	3.1618e-06	2.8365e-06	320.54	66.721	46.767	15.186	2.8357e-06	28.794	0.00011551	3.9682e-05	9.6545e-06	1008.8	7.3645e-07	4.027e-07	1066.9	235.17	5.9814e-07	3.5278e-07	303.22	62.904	44.062	14.6	4.151e-07	27.647	157.727	141.907	143.514	54.236	205.277	210.139	53.603	58.388	211.196	205.450	57.335	64.873	64.031	71.991	197.443	69.494	-8191	255	
2448.324	1	1	0	0	0.1853	0.12307	0.12072	0.35859	0.19813	0.30864	0.20188	0.17918	0.15711	0.17547	0.059327	0.037252	0.20245	0.049202	0.24717	0.085789	-3.0104	-3.0479	-3.0875	-3.3667	-3.0625	-3.0583	-3.5146	-2.9562	-3.3	-3.1312	-3.1604	-3.3458	-3.0208	-3.1625	-3.3604	-3.1708	200.192	388.490	161.131	383.521	353.094	181.822	353.921	191.045	237.625	169.790	333.630	175.167	233.623	392.610	70.237	312.381	0.00020109	0.00038772	0.00010232	1078.1	3.3252e-06	3.3377e-06	1136.3	249.16	2.5852e-06	4.5668e-06	321.34	66.371	46.247	15.374	2.1657e-06	29.214	0.00011842	3.6785e-05	1.1336e-05	1010.3	8.3261e-07	2.9835e-07	1069.4	235.47	6.3261e-07	3.4521e-07	302.41	63.001	43.928	14.739	4.214e-07	27.799	159.252	131.586	151.817	53.977	194.714	210.907	53.633	58.186	190.361	207.000	57.530	65.590	64.189	72.482	198.563	69.206	-8191	255	
2448.420	1	1	0	0	0.10525	0.17359	0.1659	0.15928	0.24758	0.037983	0.1714	0.12886	0.073746	0.21831	0.13744	0.1602	0.16363	0.1047	0.21944	0.10913	-2.8021	-3.0938	-2.8187	-3.5229	-2.9938	-3.0271	-3.4479	-2.9979	-3.0875	-3.2292	-2.8583	-3.3479	-3.0021	-2.7687	-3.2938	-2.925	53.069	91.580	346.862	357.612	101.125	343.669	368.132	90.143	252.384	87.060	219.798	310.327	275.006	376.008	87.540	274.814	0.00022157	0.00028651	6.7999e-05	1073.1	2.9621e-06	2.1859e-06	1132.6	247.98	2.777e-06	3.9713e-06	321.1	65.912	46.466	15.367	2.7338e-06	28.893	0.00012837	2.4523e-05	1.0033e-05	1006.6	7.8773e-07	2.6981e-07	1062.8	234.05	6.395e-07	3.3184e-07	301.29	62.382	43.931	14.71	2.9506e-07	27.633	160.617	108.987	119.516	54.345	195.349	188.512	53.734	58.108	212.603	177.721	57.637	65.224	64.247	72.204	208.926	69.380	-8191	255	
2448.516	1	1	0	0	0.27362	0.096032	0.24931	0.41371	0.025443	0.10518	0.35769	0.021203	0.23996	0.1941	0.25136	0.16157	0.11372	0.27424	0.080627	0.25226	-2.6958	-3.2667	-2.8271	-3.4771	-3.0771	-2.9813	-3.4333	-2.8937	-3.075	-3.3187	-2.9542	-3.3604	-3.0896	-3	-3.5083	-3.0312	211.874	48.687	385.880	316.584	353.509	94.555	320.963	255.359	184.725	55.974	315.960	212.156	163.507	307.636	344.882	390.659	0.0002057	0.00036779	4.7763e-05	1070.3	2.4211e-06	2.7457e-06	1132.2	248.57	2.0591e-06	3.7961e-06	318.92	66.107	46.744	15.402	2.5453e-06	28.929	0.00012905	2.6508e-05	9.0977e-06	1006.5	8.1859e-07	3.6881e-07	1064	234.03	5.9165e-07	3.7282e-07	301.43	62.525	44.095	14.696	3.1856e-07	27.615	161.079	131.524	132.771	54.308	205.711	188.627	53.572	58.392	172.334	197.685	57.333	65.200	63.966	72.029	192.976	69.169	-8191	255	
2448.613	1	1	0	0	0.2586	0.076713	0.23724	0.17835	0.12456	0.12145	0.34867	0.23753	0.15092	0.060052	0.3468	0.10974	0.1874	0.2465	0.13291	0.20767	-2.6625	-3.3917	-2.9292	-3.3937	-3.0604	-3.0208	-3.5521	-3.1625	-3.0604	-3.2083	-3.0229	-3.2292	-3.1521	-2.9	-3.3125	-3.0604	201.791	299.848	368.152	333.785	262.956	139.412	337.112	359.784	344.974	178.345	328.677	78.975	368.482	341.628	138.874	263.707	0.00022571	0.00034358	7.9368e-05	1072.1	2.5126e-06	2.9928e-06	1129.6	248.06	2.7277e-06	3.475e-06	320.77	65.675	47.255	15.25	3.0008e-06	29.107	0.00013423	3.3373e-05	9.3983e-06	1004.8	6.8516e-07	3.8442e-07	1063.1	234.37	6.4558e-07	2.7884e-07	302.48	62.833	44.355	14.696	3.6809e-07	27.813	155.087	130.362	163.497	54.150	192.868	202.625	53.504	58.525	192.785	188.712	57.467	65.284	64.137	71.946	198.316	69.569	-8191	255	
2448.709	1	1	0	0	0.14173	0.1284	0.15262	0.42974	0.18824	0.082509	0.10049	0.16154	0.12984	0.24004	0.15408	0.061448	0.19328	0.018096	0.14121	0.094892	-2.6458	-3.3083	-2.75	-3.1937	-3.0938	-3	-3.4583	-3.1083	-3.0979	-3.3208	-3.0312	-3.1792	-3.25	-2.7896	-3.3979	-3.125	323.072	90.575	196.471	316.138	308.277	296.492	379.945	359.844	324.445	92.112	75.817	62.824	188.556	249.659	305.221	355.399	0.00021779	0.00031037	0.00011267	1075.6	3.6121e-06	2.3904e-06	1135.8	250.58	3.2444e-06	3.7398e-06	320.66	65.847	46.976	15.162	2.4986e-06	28.864	0.00013019	2.6904e-05	9.7658e-06	1008.2	7.8493e-07	3.4606e-07	1067.8	235.71	6.6059e-07	2.0222e-07	302.66	62.1	44.036	14.582	3.811e-07	27.47	155.853	125.211	128.816	54.244	189.616	210.101	53.519	57.891	199.464	193.460	57.750	64.242	64.191	71.566	210.417	69.184	-8191	255	
2448.805	1	1	0	0	0.18653	0.11554	0.17649	0.14202	0.10792	0.059163	0.14516	0.26267	0.1099	0.074582	0.18795	0.26527	0.21115	0.14719	0.19773	0.28094	-2.7417	-3.3125	-2.9833	-3.3479	-3.3521	-2.9604	-3.4125	-3.2125	-2.9833	-3.4458	-3.1479	-2.9938	-3.3563	-2.9062	-3.225	-3.1417	197.519	361.027	178.730	366.146	109.517	262.855	323.696	337.997	297.559	74.944	255.765	162.143	142.019	96.269	284.807	351.273	0.00021081	0.00036717	0.00010193	1074.3	3.4146e-06	3.1803e-06	1128.6	248.49	2.9138e-06	3.2743e-06	319.11	64.632	46.427	15.211	3.2922e-06	28.595	0.00012847	2.4603e-05	9.4095e-06	1008.4	6.7795e-07	4.2767e-07	1064	234.85	6.8046e-07	2.285e-07	300.65	62.126	43.919	14.556	4.8393e-07	27.347	159.277	145.224	126.209	54.183	208.721	203.882	53.327	58.221	200.058	211.389	57.474	65.696	64.373	71.989	196.109	69.288	-8191	255	
2448.925	1	1	0	0	0.12646	0.097636	0.1514	0.247	0.071713	0.23181	0.078067	0.15133	0.12613	0.16115	0.27243	0.062368	0.20935	0.10379	0.052096	0.14583	-2.4875	-3.2062	-3.0542	-3.1792	-3.5146	-2.9292	-3.3812	-3.0687	-3.0729	-3.375	-3.2708	-3.0021	-3.1771	-2.9833	-3.1458	-3.3021	208.432	55.185	390.607	378.438	267.867	306.942	345.623	347.527	158.685	226.649	358.151	324.494	113.670	203.476	369.770	242.729	0.00021743	0.00024755	6.1734e-05	1069.1	2.8893e-06	2.8607e-06	1128.4	248.29	2.9231e-06	4.1937e-06	318.44	65.68	46.285	15.164	2.8434e-06	28.857	0.00012881	2.615e-05	6.9485e-06	1005.1	6.7915e-07	4.5042e-07	1061.9	234.33	7.1898e-07	2.6904e-07	301.19	62.05	43.782	14.565	5.0744e-07	27.503	157.602	119.663	137.218	54.061	193.733	199.099	53.565	58.429	194.093	189.246	57.749	65.587	63.767	72.545	200.096	69.434	-8191	255	
2449.020	1	1	0	0	0.37941	0.15421	0.14209	0.31879	0.11522	0.020164	0.22132	0.24529	0.13246	0.17437	0.2124	0.069743	0.3939	0.19053	0.099297	0.23322	-2.3604	-3.3187	-3.0958	-3.3187	-3.3917	-2.9708	-3.5687	-3.3729	-2.9583	-3.35	-3.0417	-2.8458	-3.3479	-2.9417	-2.925	-3.2812	317.597	60.885	187.278	45.720	201.385	340.330	332.024	369.039	330.944	338.257	134.451	285.938	360.384	134.698	353.898	137.168	0.00021089	0.00033265	9.5333e-05	1069.2	2.5071e-06	2.5071e-06	1131.9	247.82	2.7329e-06	3.4897e-06	319.51	66.013	46.07	15.358	2.6689e-06	28.965	0.00012758	2.5595e-05	7.9507e-06	1005.1	6.1985e-07	3.3581e-07	1062	234.42	7.0844e-07	2.4498e-07	300.64	61.874	43.891	14.706	3.8572e-07	27.656	160.141	125.338	137.521	54.373	198.506	198.247	53.610	58.320	209.676	198.966	57.672	66.385	64.463	71.968	185.737	69.339	-8191	255	
2449.118	1	1	0	0	0.087257	0.051897	0.056873	0.12179	0.14447	0.082411	0.26779	0.16344	0.11936	0.35967	0.084193	0.10675	0.12396	0.13218	0.065007	0.054362	-2.3271	-3.3	-3.1229	-3	-3.5333	-2.9271	-3.1375	-3.1917	-2.8167	-3.1979	-3.1937	-2.9625	-3.4146	-3.1042	-2.9688	-3.4938	266.987	113.497	109.748	354.120	302.888	294.782	330.210	365.444	52.773	172.182	67.753	72.049	102.425	86.214	89.202	347.776	0.00019512	0.00037033	6.745e-05	1071.3	2.9447e-06	4.2181e-06	1128.9	247.33	2.2053e-06	3.1241e-06	317.85	64.547	46.072	15.288	2.6477e-06	28.503	0.00012661	3.2738e-05	9.6656e-06	1004.7	6.5391e-07	4.299e-07	1063	233.21	6.5045e-07	3.6525e-07	299.18	61.651	43.786	14.612	4.428e-07	27.355	159.052	126.996	144.885	54.212	209.357	181.347	53.302	58.204	191.740	180.143	57.578	65.049	64.018	71.941	211.590	69.587	-8191	255	
2449.212	1	1	0	0	0.11676	0.081768	0.099082	0.21264	0.1879	0.071684	0.22255	0.53087	0.12089	0.1735	0.079341	0.073204	0.073632	0.086417	0.12342	0.15216	-2.4208	-3.2938	-3.175	-3.0979	-3.3792	-3.1771	-3.1688	-3.3354	-2.8417	-3.2083	-3.4458	-2.8854	-3.4146	-3.0771	-3.1917	-3.4958	65.718	296.212	185.346	299.201	255.048	145.630	349.312	339.216	83.026	108.755	370.198	260.248	107.864	45.891	250.982	365.212	0.00021955	0.00037823	6.5334e-05	1066.5	2.4882e-06	2.557e-06	1128.5	245.94	2.8482e-06	2.8185e-06	314.57	64.961	45.961	15.151	3.1134e-06	28.73	0.00013016	3.369e-05	7.1935e-06	1002.1	7.076e-07	2.9478e-07	1059.2	232.43	6.9506e-07	2.8953e-07	297.63	62.015	43.325	14.536	4.7092e-07	27.343	161.033	128.370	138.842	54.275	197.083	184.027	53.354	58.321	200.057	203.239	57.364	65.707	64.148	71.718	200.241	69.852	-8191	255	
2449.308	1	1	0	0	0.20767	0.25623	0.14781	0.031922	0.096567	0.12503	0.37489	0.10692	0.27643	0.225	0.028918	0.15665	0.30595	0.18472	0.082987	0.033419	-2.4229	-3.0146	-3.3312	-3.0042	-3.3917	-3.3167	-3.0792	-3.475	-2.9042	-3.2271	-3.2458	-2.9021	-3.3604	-3.3292	-2.8625	-3.4729	227.422	340.025	237.569	291.113	143.491	201.545	69.446	313.586	211.460	267.770	148.087	172.590	301.264	173.000	248.329	340.217	0.00019313	0.00035084	9.0585e-05	1071.5	2.8429e-06	2.6364e-06	1130.3	246.87	2.3316e-06	3.2687e-06	318.39	65.211	46.44	15.097	3.2037e-06	28.549	0.000122	3.2619e-05	8.0955e-06	1003.5	7.6209e-07	2.5375e-07	1061.9	232.93	6.8857e-07	3.3318e-07	299.42	61.885	43.448	14.509	5.259e-07	27.291	157.152	119.712	136.011	54.402	198.993	186.639	53.428	58.073	194.892	174.580	57.567	64.236	63.955	72.452	194.463	69.698	-8191	255	
2449.405	1	1	0	0	0.30492	0.15481	0.05729	0.40454	0.10862	0.28018	0.27386	0.096265	0.10195	0.25974	0.21363	0.15937	0.042351	0.2925	0.073402	0.096584	-2.5792	-3.0521	-3.3646	-2.9542	-3.3208	-3.1437	-3.1292	-3.4875	-3.0104	-3.0458	-3.3708	-3.0625	-3.2458	-3.3479	-3.15	-3.4125	256.412	393.934	127.244	57.606	282.092	77.769	313.746	53.267	367.855	91.892	56.932	45.451	300.507	324.274	317.775	355.545	0.00021046	0.00024878	0.00011415	1074.3	2.96e-06	3.6045e-06	1131.9	245.3	2.7594e-06	3.9554e-06	318.74	65.685	45.879	15.111	1.9818e-06	28.65	0.00012526	2.6508e-05	7.9173e-06	1004.8	7.2603e-07	3.2243e-07	1063.6	232.8	6.7235e-07	3.1091e-07	300.34	62.54	43.575	14.515	5.003e-07	27.428	158.493	115.988	134.074	54.298	207.556	189.778	53.491	58.410	187.939	183.064	57.665	64.700	64.586	71.689	194.716	69.681	-8191	255	
2449.525	1	1	0	0	0.074322	0.1714	0.2373	0.51023	0.085873	0.17175	0.36983	0.21307	0.25046	0.15112	0.15048	0.08594	0.19924	0.08687	0.11557	0.26365	-2.7167	-3.0729	-3.3187	-3.1375	-3.0896	-3.2958	-3.1917	-3.3917	-3.1271	-3	-3.4771	-3.1437	-3.2146	-3.3271	-2.8646	-3.425	113.534	123.935	145.541	325.078	124.395	90.589	281.988	267.222	73.565	267.419	392.310	284.266	367.487	341.509	306.530	207.549	0.00021962	0.00042766	6.4903e-05	1069.7	2.9556e-06	2.3801e-06	1132.7	247.88	2.9354e-06	2.9212e-06	318.25	65.555	46.121	14.961	1.9886e-06	28.625	0.00013119	4.1825e-05	6.8149e-06	1006.4	7.4767e-07	2.7025e-07	1064.6	233.72	6.9546e-07	3.363e-07	299.66	61.73	43.506	14.43	4.2391e-07	27.238	154.661	147.585	175.818	54.155	212.876	210.851	53.431	58.321	205.651	196.060	57.562	64.795	64.703	71.778	211.835	69.667	-8191	255	
2449.621	1	1	0	0	0.11961	0.055319	0.19151	0.12522	0.1296	0.13778	0.15003	0.1797	0.052115	0.13538	0.17974	0.13328	0.14985	0.15753	0.20663	0.26459	-2.8708	-2.7729	-3.4146	-3.2938	-3.0875	-3.3063	-3.025	-3.3896	-3.2812	-3.0146	-3.4583	-2.9062	-3.1375	-3.4521	-2.8021	-3.3979	93.720	347.787	224.112	338.334	350.862	137.764	367.306	331.378	362.450	253.907	316.325	192.868	279.409	130.569	154.142	255.581	0.00020281	0.00020753	6.8102e-05	1068.9	3.3996e-06	1.5822e-06	1124.9	247.66	1.8883e-06	3.3041e-06	317.64	64.986	45.888	14.984	1.7372e-06	28.593	0.00012477	3.8611e-05	5.3005e-06	1005.3	8.4223e-07	2.1897e-07	1060.9	233.45	6.1558e-07	3.9064e-07	298.78	61.441	43.307	14.403	4.3902e-07	27.138	158.828	130.248	146.047	54.167	201.982	185.900	53.349	58.007	204.087	189.199	57.637	64.777	63.883	72.318	189.525	69.417	-8191	255	
2449.717	1	1	0	0	0.10147	0.047134	0.20703	0.17414	0.28594	0.30941	0.25978	0.15925	0.074911	0.098801	0.058342	0.17752	0.14096	0.15327	0.14556	0.057165	-2.8833	-3.0104	-3.3875	-3.0812	-3.0271	-3.4667	-3.1854	-3.2	-3.1792	-3.0312	-3.4375	-3.0333	-3.1083	-3.3146	-2.8458	-3.3792	326.907	227.433	287.787	342.837	53.732	140.298	228.536	40.705	250.323	387.833	365.558	368.710	277.337	379.780	259.315	382.359	0.00021422	0.00030874	8.85e-05	1069.7	2.8065e-06	3.6877e-06	1130.9	245.69	2.8757e-06	2.9988e-06	316.47	65.48	46.277	15.072	2.7131e-06	28.492	0.0001184	3.4444e-05	7.6501e-06	1004.8	7.7972e-07	2.6356e-07	1062.6	232.66	6.8249e-07	3.4298e-07	298.99	61.803	43.843	14.485	4.1132e-07	27.215	159.657	136.330	147.731	54.207	207.415	207.059	53.743	58.409	215.328	181.572	57.225	65.410	64.061	71.861	193.943	69.542	-8191	255	
2449.789	1	1	0	0	0.072853	0.22981	0.15283	0.40896	0.16281	0.1447	0.24441	0.23542	0.11429	0.21572	0.20712	0.037985	0.13919	0.17402	0.077077	0.039788	-2.8229	-2.8688	-3.4125	-3.1188	-2.8312	-3.3688	-3.0771	-3.2625	-3.1958	-2.9458	-3.2438	-3.1167	-3.0354	-3.6	-3.0521	-3.0583	348.456	281.454	334.829	322.039	338.657	247.970	360.034	379.314	101.393	303.304	392.557	249.969	123.211	157.527	381.811	122.809	0.00022133	0.00031976	0.00013242	1071.2	2.8135e-06	2.4012e-06	1130.8	247.47	3.3693e-06	3.8378e-06	317.33	65.189	46.515	15.062	2.5573e-06	28.534	0.0001267	4.2936e-05	8.9641e-06	1004.1	8.7388e-07	2.426e-07	1062.8	233.06	6.0909e-07	5.0289e-07	299.41	61.851	43.649	14.462	3.853e-07	27.233	158.894	134.522	144.131	54.330	200.614	168.647	53.498	58.368	230.286	186.083	57.511	66.038	64.341	72.451	177.726	69.527	-8191	255	
2449.910	1	1	0	0	0.13712	0.23964	0.068889	0.030574	0.062773	0.26273	0.1759	0.38333	0.21326	0.14427	0.20841	0.096711	0.0071735	0.26523	0.057283	0.083489	-2.7333	-2.8521	-3.1729	-3.3917	-2.9271	-3.4146	-3.1729	-3.2333	-3.3125	-2.7521	-3.325	-3.1646	-2.8625	-3.3021	-3.0167	-3.1083	394.429	316.483	227.810	214.720	357.790	325.845	297.293	305.868	278.672	332.424	283.004	378.665	254.218	371.747	198.625	326.888	0.00020901	0.00031473	9.9082e-05	1069.6	2.0181e-06	3.9995e-06	1129.2	247.66	3.1534e-06	4.0689e-06	317.49	65.928	45.399	14.931	3.0292e-06	28.343	0.00012395	3.5793e-05	7.8951e-06	1004.3	8.3021e-07	2.8452e-07	1061.5	232.95	6.3139e-07	3.7995e-07	299.58	61.662	43.352	14.406	4.6001e-07	27.028	158.105	137.638	123.885	54.070	197.716	192.713	53.779	58.408	200.788	184.267	57.493	65.518	63.807	71.842	186.327	69.143	-8191	255	
2450.006	1	1	0	0	0.1444	0.025148	0.29026	0.38868	0.088067	0.094304	0.29595	0.51345	0.15728	0.085945	0.1129	0.043728	0.1604	0.10627	0.11345	0.19794	-2.9083	-3.0833	-3.1333	-3.3021	-3.1333	-3.3167	-3.1021	-2.9542	-3.2833	-2.9729	-3.2375	-3.2167	-2.8979	-3.4667	-3.0812	-3.0292	276.215	102.438	398.701	398.873	263.418	368.200	365.051	354.172	180.885	384.874	368.326	196.626	173.170	393.718	41.676	360.898	0.00020726	0.00028587	8.6557e-05	1067.3	2.8825e-06	2.8605e-06	1126.6	245.56	2.2166e-06	3.1047e-06	315.74	65.72	45.174	15.034	3.0944e-06	28.35	0.00011551	3.5912e-05	7.1601e-06	1003	8.7709e-07	1.873e-07	1059.3	231.93	5.1866e-07	3.657e-07	297.43	61.339	43.159	14.377	4.3189e-07	26.995	156.022	123.269	138.819	54.162	209.661	192.938	53.773	58.099	212.724	203.764	57.504	65.765	64.167	72.612	190.509	69.306	-8191	255	
2450.100	1	1	0	0	0.15049	0.030192	0.14451	0.1658	0.43745	0.064348	0.37386	0.13094	0.20617	0.13937	0.046193	0.22358	0.12598	0.10549	0.093598	0.12414	-2.9688	-3.0104	-3.2146	-3.3146	-2.9396	-3.4771	-3.2438	-3.0958	-3.3875	-3.1375	-3.2708	-3.2167	-2.825	-3.3917	-3.1437	-2.9542	121.924	266.068	57.540	306.890	41.318	160.003	384.736	43.199	53.514	221.587	125.000	85.187	87.626	288.805	245.969	383.836	0.00021471	0.00036301	9.0896e-05	1070.1	3.8162e-06	3.4955e-06	1120.7	246.83	2.6923e-06	3.2544e-06	315.34	64.271	45.881	15.093	2.7753e-06	28.214	0.00012223	4.1111e-05	9.0086e-06	1002.3	8.5906e-07	3.1931e-07	1057.7	232.35	5.4218e-07	2.3296e-07	297.7	60.986	43.515	14.408	4.6295e-07	26.991	160.232	132.424	135.680	54.392	196.512	189.131	53.844	58.256	207.376	190.677	57.704	64.982	63.817	72.207	192.194	69.280	-8191	255	
2450.198	1	1	0	0	0.30686	0.21514	0.028861	0.21527	0.15411	0.43399	0.23182	0.2042	0.19663	0.15159	0.27915	0.22911	0.23975	0.1578	0.10678	0.35205	-3.0917	-2.9188	-3.0229	-3.4771	-3.0438	-3.1562	-3.3979	-3.1521	-3.3583	-3.1396	-3.2146	-3.3667	-3.0271	-3.0875	-3.0021	-3.0646	118.949	145.055	76.685	52.261	69.297	210.868	280.997	281.644	178.596	334.408	304.611	292.413	46.494	389.607	392.273	346.869	0.00022817	0.00027262	7.7404e-05	1067.9	3.0575e-06	3.0881e-06	1131	245.25	3.329e-06	3.5836e-06	315.33	64.987	45.618	15.043	3.1967e-06	28.287	0.00012833	3.4365e-05	7.7392e-06	1003.6	8.5986e-07	2.8631e-07	1059.6	231.93	5.6002e-07	3.7995e-07	297.63	61.471	43.304	14.401	4.9694e-07	27.035	156.885	127.231	130.323	54.331	205.474	192.369	53.522	58.371	192.638	206.444	57.967	65.052	64.506	71.709	191.523	69.341	-8191	255	
2450.317	1	1	0	0	0.10099	0.099508	0.077232	0.079345	0.056312	0.23796	0.26282	0.051024	0.15104	0.20226	0.10632	0.12907	0.2097	0.1696	0.2736	0.03091	-2.7896	-2.9229	-2.9396	-3.375	-2.9708	-3.1042	-3.4167	-3.0625	-3.2396	-3.1083	-3.0917	-3.3563	-3.0375	-3.0479	-3.3583	-2.9354	324.087	204.167	235.456	48.174	274.477	358.169	305.774	317.257	245.920	139.936	71.572	296.552	371.184	306.229	182.592	373.886	0.00021078	0.00037691	9.5186e-05	1069.9	2.4972e-06	2.9702e-06	1132.8	247.04	3.0586e-06	3.2194e-06	317.42	64.424	46.213	15.064	3.2017e-06	28.203	0.00012203	4.0952e-05	9.5765e-06	1003.9	7.2924e-07	3.5186e-07	1062.2	233.01	5.4096e-07	3.2739e-07	299.63	61.267	43.439	14.423	3.7523e-07	26.996	157.071	130.500	139.445	54.369	194.428	187.625	53.625	58.194	212.654	182.284	57.219	64.579	64.574	71.589	192.525	69.885	-8191	255	
2450.389	1	1	0	0	0.079522	0.063886	0.16061	0.12498	0.086778	0.025055	0.20988	0.088223	0.1845	0.07088	0.20614	0.1716	0.17949	0.23947	0.15479	0.25327	-3.1479	-3.2562	-2.9854	-3.5771	-3.1063	-3.2292	-3.4979	-2.9437	-3.1396	-3.3375	-3.1479	-3.375	-3.0062	-3.3125	-3.2917	-2.9208	336.672	216.249	238.556	371.277	151.875	308.486	344.124	268.966	172.188	138.869	115.023	126.434	200.963	267.029	132.877	94.371	0.00020957	0.00040906	0.00010263	1066.9	2.5831e-06	2.7358e-06	1127.1	245.76	3.2168e-06	2.1922e-06	315.98	65.626	45.832	14.985	2.3744e-06	28.133	0.00012402	3.9087e-05	8.3071e-06	1002	7.5808e-07	3.0905e-07	1058.7	231.75	5.9936e-07	2.2227e-07	298.02	61.194	43.302	14.355	3.3409e-07	26.902	158.786	141.847	135.567	54.154	205.128	205.531	53.583	58.308	192.112	193.958	57.601	64.839	63.881	72.211	195.342	69.435	-8191	255	
2450.485	1	1	0	0	0.21936	0.19259	0.18487	0.16082	0.28194	0.28753	0.25085	0.052936	0.10241	0.2214	0.15171	0.11818	0.18242	0.23215	0.21902	0.091042	-2.9125	-3.2646	-2.9729	-3.5875	-2.925	-3.0417	-3.5771	-3.025	-3.2208	-3.2708	-2.9979	-3.2792	-3.2062	-3.1437	-3.4688	-3.0104	283.701	43.441	119.585	333.917	226.681	93.692	341.150	283.592	148.414	389.895	78.126	53.149	377.774	108.139	159.051	215.527	0.00020141	0.00041314	7.0109e-05	1062.5	2.871e-06	3.1486e-06	1127.5	244.29	2.6386e-06	2.2239e-06	315.26	63.516	45.45	14.957	2.6658e-06	28.235	0.00012061	4.1468e-05	8.1289e-06	1000.3	7.8373e-07	2.6758e-07	1057.4	231.48	5.7421e-07	1.8931e-07	297.8	61.071	43.036	14.297	3.5214e-07	26.832	157.665	132.340	170.012	54.137	189.372	177.613	53.540	58.337	190.850	190.568	57.373	66.437	64.280	71.848	221.929	69.234	-8191	255	
2450.606	1	1	0	0	0.21015	0.07564	0.092797	0.16498	0.1828	0.35132	0.18274	0.04681	0.22359	0.060391	0.13164	0.13083	0.1452	0.12943	0.072079	0.2805	-2.8021	-3.2562	-2.7792	-3.5396	-3.2646	-3.0167	-3.4833	-3.0396	-3.2146	-3.3083	-2.9021	-3.1437	-3.0729	-3.0042	-3.3646	-2.9667	265.651	289.758	209.894	346.300	348.536	279.208	259.958	97.177	135.178	171.390	303.498	164.608	137.461	45.391	210.616	296.647	0.00021148	0.00033821	5.146e-05	1067.6	3.2476e-06	4.1178e-06	1123.5	245.64	2.3124e-06	3.5922e-06	316.01	65.572	45.971	14.988	2.0108e-06	28.203	0.00012433	2.8769e-05	7.394e-06	1001.8	7.2162e-07	3.7461e-07	1057.9	231.69	6.7803e-07	2.6147e-07	298.28	61.679	43.158	14.383	3.6809e-07	26.962	157.272	123.581	134.979	54.444	194.280	205.092	53.862	58.520	198.926	189.811	57.361	64.514	64.411	72.609	211.296	69.318	-8191	255	
2450.702	1	1	0	0	0.038857	0.07363	0.14568	0.075377	0.18523	0.033677	0.22912	0.16192	0.1697	0.24278	0.23466	0.069673	0.053529	0.12378	0.13822	0.23092	-2.8146	-3.3187	-3.0375	-3.3458	-3.1937	-2.9292	-3.3771	-3.1625	-2.9854	-3.2833	-3.1646	-3.3583	-3.2958	-2.9229	-3.4354	-3.2208	268.515	45.050	239.514	214.367	240.465	243.617	358.539	347.007	230.088	75.542	167.025	299.582	54.559	382.238	223.189	202.239	0.00020996	0.0003799	7.5571e-05	1065.3	3.106e-06	4.3815e-06	1128.3	245.21	1.9242e-06	3.4773e-06	317.81	65.849	45.988	14.943	2.1153e-06	28.573	0.00012961	2.4008e-05	8.1289e-06	1001	7.2082e-07	3.2689e-07	1059.9	232.03	6.5856e-07	2.6236e-07	299.49	61.888	43.537	14.355	3.7103e-07	27.184	158.904	130.817	131.417	54.118	201.333	177.291	53.568	58.187	187.884	206.881	57.738	64.947	64.577	71.813	195.211	69.167	-8191	255	
2450.798	1	1	0	0	0.25702	0.29106	0.10985	0.19727	0.066102	0.057762	0.086827	0.099988	0.18998	0.092011	0.089029	0.10791	0.091408	0.021655	0.080093	0.086633	-2.5375	-3.2833	-2.7625	-3.2812	-3.1937	-2.9437	-3.5729	-3.1854	-2.9521	-3.2729	-3.0333	-3.1833	-3.5187	-2.8979	-3.3729	-3.1646	143.617	272.105	180.541	350.316	232.491	90.975	339.284	123.760	208.555	69.410	76.547	168.654	87.854	199.773	204.569	157.517	0.00020531	0.00030105	6.906e-05	1069.8	3.0669e-06	4.3972e-06	1128.5	246.19	3.2577e-06	3.2e-06	317.31	64.004	45.948	15.085	2.8251e-06	28.073	0.00012921	3.0674e-05	9.6211e-06	1001.8	7.1802e-07	3.8486e-07	1059.3	232.69	6.7154e-07	2.2539e-07	298.26	61.389	43.312	14.377	5.2339e-07	26.856	152.555	114.656	118.672	54.189	189.064	186.532	53.532	58.247	221.446	184.002	57.295	64.916	64.278	72.212	198.580	69.473	-8191	255	
2450.918	1	1	0	0	0.262	0.27659	0.047149	0.231	0.069534	0.19778	0.097229	0.09408	0.068561	0.10267	0.14671	0.32545	0.14597	0.025974	0.25339	0.227	-2.6208	-3.3375	-3.025	-3.2604	-3.2104	-2.8042	-3.4208	-3.2875	-3.0396	-3.3375	-3.1688	-2.9271	-3.2354	-2.8042	-3.3292	-3.2917	117.457	92.035	204.716	319.273	384.107	276.397	295.160	56.067	114.765	167.157	352.501	331.663	369.448	44.223	315.682	110.007	0.00021769	0.00029239	8.5352e-05	1064.3	3.1175e-06	3.9733e-06	1126.3	244.58	2.6966e-06	3.1763e-06	314.77	64.61	45.179	14.894	2.2558e-06	27.824	0.00013279	3.5198e-05	9.1979e-06	1000.3	7.1321e-07	4.4105e-07	1056.2	231.24	6.6627e-07	3.2962e-07	296.09	61.255	43.021	14.277	4.0041e-07	26.688	161.714	137.690	164.513	54.384	201.902	176.432	53.616	58.633	203.962	201.973	57.663	65.949	63.940	72.323	196.926	69.718	-8191	255	
2450.990	1	1	0	0	0.044685	0.078376	0.17287	0.18737	0.063888	0.25777	0.33972	0.092511	0.19746	0.05948	0.38818	0.13068	0.07463	0.12033	0.10396	0.127	-2.4562	-3.3937	-3.0104	-3.1312	-3.4167	-3.025	-3.4083	-3.1854	-2.8708	-3.4458	-2.9708	-2.8771	-3.4708	-3.1583	-3.375	-3.1375	90.097	330.516	305.027	266.228	332.840	63.785	353.601	311.570	152.172	335.953	362.125	233.098	212.598	327.943	85.050	198.593	0.00020205	0.00036048	7.8861e-05	1065	2.2215e-06	2.051e-06	1121.3	245.7	3.1312e-06	3.287e-06	313.66	63.833	45.399	14.889	3.426e-06	27.954	0.00012626	3.3214e-05	6.8483e-06	999.45	5.882e-07	2.6044e-07	1055.5	231.14	7.0844e-07	2.3385e-07	296.16	60.681	42.903	14.282	4.8771e-07	26.685	154.960	132.716	129.658	54.118	212.779	187.417	53.496	58.336	212.360	201.940	57.806	65.515	64.786	72.597	184.319	69.555	-8191	255	
2451.086	1	1	0	0	0.27953	0.18904	0.13122	0.18433	0.038793	0.011093	0.44391	0.13327	0.16685	0.17076	0.051187	0.25687	0.021288	0.086489	0.20294	0.039499	-2.3042	-3.4542	-2.9958	-3.1667	-3.3312	-3.0458	-3.3896	-3.4917	-2.8542	-3.2417	-3.2104	-2.8083	-3.5125	-2.9771	-3.1125	-3.3354	192.501	115.305	296.363	54.783	366.683	212.817	335.309	335.340	204.666	265.837	295.355	377.433	59.852	340.553	234.605	264.942	0.00020373	0.00032517	7.7419e-05	1062.7	2.802e-06	3.1926e-06	1122	244.8	3.3881e-06	3.1198e-06	315.86	64.614	45.343	14.936	3.4187e-06	28.475	0.00012121	3.9722e-05	6.5922e-06	998.73	6.7074e-07	3.9735e-07	1055.9	230.7	7.275e-07	2.3608e-07	297.26	61.099	42.899	14.288	4.8981e-07	26.973	157.285	121.872	154.390	54.364	210.088	189.564	53.643	58.403	208.275	192.261	57.397	65.579	63.921	72.064	195.317	69.642	-8191	255	
2451.205	1	1	0	0	0.2245	0.071975	0.25484	0.26304	0.050639	0.063619	0.32308	0.12711	0.090246	0.090133	0.16167	0.01292	0.19657	0.046603	0.089506	0.24463	-2.4354	-3.1167	-3.1583	-3.1063	-3.1188	-3.1937	-3.375	-3.4021	-2.8042	-3.1437	-3.3187	-2.7958	-3.5667	-3.0625	-3.0104	-3.3479	170.535	236.964	153.251	55.208	121.855	213.022	368.368	374.886	243.693	91.606	295.372	260.777	110.784	308.660	281.152	385.168	0.00020509	0.00027092	6.7805e-05	1063.1	4.172e-06	4.5025e-06	1126.7	243.53	2.6041e-06	3.8453e-06	314.46	63.669	45.446	14.95	3.0065e-06	28.376	0.00012549	2.5912e-05	5.6568e-06	998.38	7.9094e-07	3.4785e-07	1059.9	230.46	6.6383e-07	2.4454e-07	297.46	61.223	43.27	14.304	4.4196e-07	26.994	155.346	150.416	136.621	54.029	186.648	181.577	53.557	58.353	192.628	189.090	57.287	65.643	64.429	71.641	194.740	69.184	-8191	255	
2451.301	1	1	0	0	0.26595	0.014308	0.21173	0.30445	0.1253	0.10198	0.14076	0.20149	0.19624	0.06304	0.26572	0.11275	0.060245	0.22512	0.30002	0.30815	-2.375	-3.1188	-3.2604	-3.1167	-3.4042	-3.1958	-3.0687	-3.4125	-2.9708	-3.2396	-3.3937	-2.7771	-3.1896	-3.05	-3.0083	-3.5375	56.369	60.146	221.712	66.412	73.881	103.848	297.579	215.832	150.127	282.202	49.489	111.370	123.931	399.732	179.784	310.666	0.0002092	0.0003743	0.00010448	1059.5	3.2581e-06	2.8374e-06	1117.6	242.42	2.4375e-06	2.1066e-06	314.77	62.784	45.377	14.866	1.8559e-06	27.94	0.00012135	2.9365e-05	7.4608e-06	996.44	8.4744e-07	3.0013e-07	1053.8	229.49	7.2953e-07	2.6191e-07	295.69	60.641	42.905	14.255	3.9285e-07	26.688	159.370	121.710	134.723	54.160	192.144	196.221	53.448	58.467	200.578	197.656	57.281	64.819	64.347	72.041	197.819	69.447	-8191	255	
2451.397	1	1	0	0	0.082078	0.093282	0.012637	0.21976	0.10243	0.18999	0.19342	0.15812	0.062569	0.083487	0.085431	0.12784	0.031057	0.28777	0.17178	0.04463	-2.5687	-2.9854	-3.3563	-2.9417	-3.2979	-3.1396	-3.2125	-3.4375	-3.0146	-3.0917	-3.4354	-2.8396	-3.0896	-3.2021	-2.9875	-3.3	283.134	387.532	360.692	352.365	56.770	273.028	390.251	45.871	147.271	303.013	98.698	51.975	81.962	380.599	321.875	125.266	0.00019737	0.00022932	9.1122e-05	1061.2	3.3592e-06	3.1897e-06	1118.8	241.41	2.6328e-06	3.4439e-06	314.09	63.94	45.54	14.819	2.3105e-06	27.949	0.00012472	2.5158e-05	5.3339e-06	994.97	7.3685e-07	3.1083e-07	1053.3	228.95	6.2653e-07	3.1759e-07	296.18	61.052	42.955	14.286	4.2349e-07	26.839	154.259	121.968	132.698	54.319	223.886	196.962	53.714	58.382	211.663	194.287	57.428	65.953	63.958	71.877	191.504	69.523	-8191	255	
2451.494	1	1	0	0	0.06406	0.026049	0.18755	0.2295	0.19756	0.23131	0.10164	0.01816	0.087648	0.17204	0.22966	0.073143	0.2883	0.073489	0.068024	0.14318	-2.6396	-2.9938	-3.3958	-2.9938	-3.2396	-3.0958	-2.9437	-3.3854	-3.15	-2.9708	-3.4854	-2.8812	-2.9875	-3.2458	-2.7729	-3.2708	77.413	276.022	148.828	125.641	108.242	162.307	41.474	263.430	254.868	48.001	394.361	306.846	112.731	87.262	204.908	223.111	0.00021323	0.0002358	0.00011452	1057.9	2.896e-06	3.3898e-06	1124.9	243.22	2.7812e-06	4.0463e-06	313.93	65.5	45.615	15.144	2.3915e-06	28.26	0.00012328	3.2261e-05	8.2848e-06	994.47	6.8997e-07	2.7605e-07	1055.3	229.46	6.5978e-07	4.4231e-07	296.97	61.072	43.167	14.414	5.1919e-07	27.021	157.780	125.534	143.898	54.144	192.685	183.277	53.579	58.528	203.788	182.327	57.546	65.654	64.176	72.357	203.756	69.382	-8191	255	
2451.614	1	1	0	0	0.31037	0.13783	0.054235	0.28578	0.26148	0.049331	0.31521	0.16501	0.24708	0.23568	0.24961	0.089124	0.18085	0.22836	0.09887	0.066751	-2.7479	-2.8937	-3.3292	-3.0021	-3.2021	-3.2771	-3.1	-3.2583	-3.1146	-2.9896	-3.4229	-3.0583	-3.1646	-3.3104	-2.8042	-3.1792	80.933	311.165	239.912	366.478	365.723	253.453	284.417	356.339	350.303	263.349	365.109	319.477	248.467	299.328	165.790	135.490	0.00020516	0.00026932	7.0163e-05	1066.4	2.9446e-06	2.324e-06	1124.4	243.67	4.0191e-06	2.324e-06	315.06	64.585	45.346	14.993	2.9864e-06	28.423	0.00012754	3.2658e-05	6.2915e-06	997.68	7.5528e-07	1.8641e-07	1059.4	229.94	5.807e-07	3.9198e-07	297.67	61.464	42.912	14.404	5.4857e-07	27.145	156.472	116.151	158.504	54.189	205.241	181.686	53.665	58.315	208.223	186.236	57.563	65.779	64.480	72.267	200.460	69.755	-8191	255	
2451.686	1	1	0	0	0.16208	0.10493	0.20252	0.29048	0.10173	0.090114	0.13424	0.30286	0.1451	0.15033	0.17406	0.16005	0.1569	0.1167	0.14077	0.18966	-2.5354	-2.8854	-3.2292	-3.0854	-2.9667	-3.3458	-3.0667	-3.1875	-3.0896	-2.9083	-3.3375	-3.0479	-3.1729	-3.3271	-3.0104	-3.3167	285.686	329.175	282.822	379.779	188.662	78.854	91.423	353.113	389.021	239.631	373.343	371.577	351.894	70.220	183.708	334.540	0.0002093	0.0002651	0.00010011	1061.3	2.6923e-06	3.7738e-06	1131.2	244.55	2.6865e-06	4.213e-06	318.23	65.229	45.372	15.181	2.177e-06	28.231	0.00012279	4.6507e-05	6.7704e-06	998.54	7.7291e-07	3.2555e-07	1061.8	230.72	5.4015e-07	3.3452e-07	298.11	61.414	43.193	14.447	5.4059e-07	27.063	157.196	125.676	131.958	54.179	209.931	176.443	53.450	58.308	206.930	179.611	57.374	64.381	64.131	72.525	196.550	68.915	-8191	255	
2451.782	1	1	0	0	0.09537	0.10836	0.20219	0.16602	0.023025	0.18199	0.36432	0.049146	0.22481	0.087528	0.23179	0.072581	0.16316	0.20984	0.22516	0.19462	-2.7083	-2.7958	-3.3979	-2.9604	-3.0396	-3.4146	-3.0646	-3.1063	-3.2833	-2.8312	-3.4292	-3.1063	-2.8542	-3.3625	-2.8729	-3.1188	355.523	273.465	316.670	317.065	106.522	142.670	324.104	343.614	96.083	234.409	228.617	102.300	389.598	125.375	366.307	375.168	0.00021222	0.00028771	0.00010109	1062.1	3.0827e-06	2.5461e-06	1123	244.04	2.6011e-06	2.4806e-06	316.09	65.61	45.752	14.91	2.3849e-06	27.948	0.00011777	4.3809e-05	8.0175e-06	996.87	7.8733e-07	2.756e-07	1060.1	230.26	5.6489e-07	3.0423e-07	297.36	61.623	43.062	14.302	4.2895e-07	26.784	155.798	134.608	128.591	54.268	198.774	183.462	53.453	58.386	213.235	180.403	57.395	64.200	63.882	72.475	202.055	69.230	-8191	255	
2451.878	1	1	0	0	0.12273	0.20717	0.1147	0.11843	0.10258	0.10614	0.19615	0.12346	0.18018	0.055832	0.1638	0.19521	0.025398	0.13849	0.058795	0.1809	-2.725	-2.8104	-3.1854	-3.2208	-3.0167	-3.2104	-3.1125	-3.1979	-3.2979	-2.9229	-3.2833	-3.1437	-2.8958	-3.2687	-2.9729	-3.0792	86.948	138.342	176.993	368.060	354.300	281.508	312.987	255.146	141.962	309.074	104.394	115.475	100.318	231.929	270.712	299.189	0.00019612	0.00031644	8.2585e-05	1067.1	3.5445e-06	2.6184e-06	1128.3	243.54	3.4093e-06	3.3483e-06	316.1	64.468	45.711	14.84	2.2644e-06	27.999	0.00012142	3.9761e-05	7.728e-06	1001	8.1618e-07	1.7392e-07	1059.4	230.3	6.3018e-07	3.2249e-07	297.23	60.958	43.11	14.262	4.8897e-07	26.781	158.061	132.866	146.255	54.216	206.650	186.860	53.465	58.357	195.312	197.689	57.622	64.558	63.931	72.585	209.941	69.235	-8191	255	
2451.997	1	1	0	0	0.093659	0.28438	0.1593	0.2472	0.17882	0.044885	0.37129	0.33863	0.23168	0.11018	0.18658	0.16998	0.063539	0.0967	0.27103	0.15549	-2.8438	-2.8312	-3.1896	-3.1813	-2.8	-3.2375	-3.2958	-3.1042	-3.1	-2.8688	-3.4062	-3.1937	-2.9292	-3.3	-3.1583	-2.8229	222.280	144.609	211.549	376.900	205.452	239.088	345.551	340.286	363.475	150.985	376.506	163.644	277.898	359.035	112.241	363.610	0.00019781	0.00031705	8.1225e-05	1062.3	2.9895e-06	2.0316e-06	1129.2	243.74	2.8781e-06	4.1979e-06	314.74	65.111	45.204	14.933	1.5012e-06	28.028	0.00011961	2.9444e-05	7.4385e-06	999.55	7.7051e-07	2.4126e-07	1060.4	230.89	6.0625e-07	3.7193e-07	297.36	60.944	42.948	14.31	4.2098e-07	26.86	154.346	136.620	130.670	54.482	200.143	180.372	53.623	58.464	219.340	209.508	57.529	64.791	64.285	72.580	206.715	69.728	-8191	255	
2452.093	1	1	0	0	0.075641	0.016547	0.06916	0.20234	0.096138	0.18541	0.2788	0.22552	0.061895	0.1675	0.047643	0.33314	0.11808	0.2809	0.16799	0.20572	-2.8438	-2.8833	-3.2313	-3.5208	-2.9354	-3.3917	-3.1021	-3.1625	-3.3271	-3.0021	-3.1333	-3.3583	-2.8604	-3.3208	-3.1208	-2.9479	200.102	171.978	319.933	40.895	348.392	168.529	343.014	351.685	140.822	73.923	118.890	60.258	315.586	379.480	173.357	205.488	0.00021186	0.00040271	8.3101e-05	1067.1	3.3942e-06	2.9512e-06	1131.8	243.84	2.9786e-06	3.5531e-06	317.48	65.246	45.87	14.835	2.954e-06	28.491	0.00011958	4.5872e-05	7.2715e-06	1001.2	7.5007e-07	2.9121e-07	1065.5	230.72	6.0017e-07	3.6659e-07	298.55	61.341	43.046	14.253	4.5497e-07	27.018	156.240	142.458	153.724	54.164	214.102	198.356	53.810	58.322	196.031	199.166	57.924	65.422	64.826	71.849	183.543	69.078	-8191	255	
2452.189	1	1	0	0	0.092979	0.020612	0.19827	0.10607	0.19497	0.072984	0.4555	0.22406	0.15076	0.10208	0.38539	0.084243	0.29973	0.29152	0.11113	0.16369	-2.6083	-2.9208	-3.1083	-3.3208	-2.7792	-3.2729	-3.3229	-2.8937	-3.3937	-3.1604	-3.2562	-3.2479	-3.0021	-3.1458	-3.1562	-2.7875	322.529	191.514	341.388	245.508	80.053	219.685	359.667	141.114	192.827	224.417	347.473	361.505	285.087	321.041	248.137	317.759	0.000209	0.00031295	0.00010326	1068.5	2.6945e-06	2.3975e-06	1130.5	244.19	2.6832e-06	2.9465e-06	317.63	64.161	45.468	14.901	2.425e-06	28.277	0.00012233	3.6309e-05	1.1269e-05	1002.6	8.1538e-07	2.8051e-07	1062.7	230.74	5.5394e-07	3.1224e-07	298.31	60.735	42.895	14.265	3.8236e-07	26.854	159.417	111.925	119.035	54.070	207.069	192.897	53.492	58.182	222.478	181.709	57.715	64.781	64.169	72.203	195.413	69.266	-8191	255	
2452.286	1	1	0	0	0.10922	0.063808	0.24112	0.14428	0.15316	0.15729	0.1135	0.29703	0.23443	0.29726	0.0086293	0.076614	0.17752	0.11484	0.083674	0.1336	-2.9875	-2.9083	-3.0667	-3.3688	-2.9	-3.1167	-3.3333	-2.8208	-3.2458	-3.15	-2.9125	-3.3333	-3.0208	-3.025	-3.3646	-2.8917	81.412	122.516	234.417	256.808	74.542	248.667	87.610	367.999	291.068	327.684	71.300	160.164	199.454	334.678	256.758	204.246	0.00020358	0.0002584	5.3488e-05	1064.3	3.0152e-06	3.5475e-06	1128.1	242.94	2.2261e-06	1.8352e-06	314.58	63.687	45.335	14.739	1.9587e-06	28.188	0.00012556	4.1706e-05	1.0011e-05	1000.6	8.4784e-07	2.9299e-07	1059	230.16	5.0122e-07	3.2694e-07	296.53	60.62	42.861	14.147	2.5015e-07	26.843	162.607	160.455	137.813	54.284	196.987	171.716	53.659	58.270	214.910	222.269	57.305	65.052	64.056	72.424	180.366	69.480	-8191	255	
2452.382	1	1	0	0	0.036111	0.029903	0.25563	0.16675	0.14337	0.080716	0.21056	0.077501	0.20457	0.15209	0.16908	0.13044	0.18708	0.098683	0.1515	0.11064	-2.8	-3.1292	-2.9917	-3.5354	-3.0146	-3.0771	-3.375	-3	-3.2542	-3.0792	-3.0542	-3.2646	-3.0979	-2.9625	-3.3042	-2.9125	266.311	256.032	261.327	371.674	127.976	160.938	309.935	96.286	249.723	302.414	83.863	49.223	238.746	163.327	390.356	316.675	0.00021339	0.00036004	9.4233e-05	1059.1	2.629e-06	3.0438e-06	1133.6	242.63	1.8428e-06	2.6248e-06	315.78	64.052	45.975	14.815	3.2241e-06	28.149	0.00012649	3.3492e-05	1.0111e-05	997.19	7.3805e-07	3.3714e-07	1061.7	229.59	5.0609e-07	2.6904e-07	297.45	60.758	43.121	14.262	4.2391e-07	26.876	155.268	118.705	136.099	54.253	216.394	172.721	53.456	58.247	202.577	194.440	57.503	65.766	64.521	72.271	191.891	70.169	-8191	255	
2452.478	1	1	0	0	0.30627	0.16198	0.10348	0.18097	0.1307	0.1291	0.26794	0.16125	0.15709	0.06217	0.22017	0.086634	0.40045	0.030491	0.076209	0.21322	-2.75	-3.0542	-2.9917	-3.5167	-3.0854	-3.0146	-3.4667	-2.9396	-3.2062	-3.3458	-2.7917	-3.3271	-3.0938	-3.1417	-3.5312	-2.9667	203.038	87.730	252.601	352.720	60.579	168.534	318.479	363.177	337.359	383.660	318.172	91.671	249.418	173.950	186.012	347.500	0.0002012	0.00018162	7.7343e-05	1064.6	2.9908e-06	3.3372e-06	1128.3	244.44	3.0335e-06	4.4681e-06	315.35	63.875	45.365	15.065	1.8504e-06	28.306	0.00012354	3.0635e-05	9.8104e-06	999	7.8974e-07	2.4617e-07	1063.5	230.28	5.588e-07	3.0334e-07	297.89	61.483	42.823	14.359	3.4291e-07	27.042	156.579	153.418	141.302	54.224	201.420	199.795	53.526	58.095	209.280	192.591	57.798	65.102	63.922	72.015	187.176	69.677	-8191	255	
2452.598	1	1	0	0	0.13484	0.10655	0.19181	0.11656	0.20503	0.18188	0.20509	0.056438	0.038958	0.10445	0.18218	0.25654	0.17657	0.29747	0.28693	0.10122	-2.9083	-3.4437	-3.0958	-3.4958	-3.2979	-3.2292	-3.5187	-3.0312	-2.9708	-3.2125	-2.8792	-3.2313	-3.0062	-2.9125	-3.3833	-3.2	55.273	256.545	83.015	71.952	360.227	300.056	278.942	77.530	328.522	356.298	82.360	207.114	367.117	202.443	353.998	52.109	0.00022042	0.00039985	7.8261e-05	1070.1	2.4035e-06	2.1443e-06	1136	244.32	1.9665e-06	2.7369e-06	318.09	65.171	44.937	15.055	2.5076e-06	28.327	0.0001307	3.6428e-05	1.0423e-05	1002.5	6.9317e-07	3.2332e-07	1067.5	230.32	5.7705e-07	2.7127e-07	299.31	61.407	42.777	14.344	3.2822e-07	26.979	157.008	115.265	122.747	54.099	192.794	207.419	53.631	58.074	203.070	200.110	57.369	65.578	64.115	71.992	196.017	69.557	-8191	255	
2452.695	1	1	0	0	0.12967	0.2251	0.11717	0.13772	0.093212	0.070189	0.25317	0.36772	0.24828	0.30613	0.14742	0.34387	0.29134	0.022539	0.06252	0.34881	-2.6125	-3.3354	-2.8958	-3.3292	-3.2083	-3.025	-3.4938	-3.2875	-3.1396	-3.3396	-3.1625	-3.1354	-3.1583	-3.0458	-3.3187	-3.0146	278.378	223.730	65.148	316.569	398.856	320.093	284.760	324.366	247.652	238.904	69.216	254.853	196.001	64.226	176.779	330.497	0.0002314	0.00025735	7.1962e-05	1065.7	2.3151e-06	3.4968e-06	1136.8	242.68	2.9781e-06	4.0781e-06	316.73	65.835	45.422	14.878	2.3411e-06	27.997	0.00013135	1.9325e-05	9.8994e-06	1001.3	7.5207e-07	4.134e-07	1066.8	230.02	6.8492e-07	2.5701e-07	297.59	61.212	42.743	14.223	3.7229e-07	26.795	159.511	128.278	152.540	54.286	194.851	174.213	53.610	58.225	212.201	186.663	57.387	64.921	64.136	72.934	189.640	69.721	-8191	255	
2452.791	1	1	0	0	0.16129	0.070213	0.16207	0.049965	0.21156	0.073853	0.10091	0.052647	0.27632	0.12103	0.15644	0.067597	0.25742	0.23208	0.29774	0.20463	-2.5667	-3.3104	-2.9271	-3.4458	-3.2625	-3.0292	-3.3417	-3.0792	-3.0229	-3.5187	-3.0333	-3.1042	-2.9875	-2.9229	-3.2646	-3.0833	351.393	60.684	140.150	328.082	234.740	398.376	385.712	109.576	111.638	56.478	369.362	229.311	356.612	341.857	105.931	213.119	0.00020369	0.00020399	7.0623e-05	1068	2.9588e-06	2.3979e-06	1135.3	244.44	2.6764e-06	2.6164e-06	314.8	63.28	45.238	14.849	1.9946e-06	28.198	0.00012554	2.3849e-05	8.1846e-06	1002.6	7.7491e-07	2.9612e-07	1067.5	230.62	6.3301e-07	1.7372e-07	298.26	60.848	42.856	14.268	3.4501e-07	26.943	157.893	146.194	144.133	54.386	199.957	203.518	53.323	58.084	203.436	211.418	57.603	66.223	64.326	72.377	205.705	69.353	-8191	255	
2452.887	1	1	0	0	0.14582	0.047604	0.086997	0.3677	0.067455	0.18367	0.46671	0.12734	0.30943	0.13152	0.29399	0.10596	0.1606	0.15595	0.01872	0.26493	-2.5563	-3.4354	-2.95	-3.2812	-3.2125	-2.7562	-3.3063	-3.1562	-2.9125	-3.3271	-2.9542	-3.1708	-3.3354	-2.9146	-3.3021	-3.2583	284.542	273.812	344.055	313.695	71.047	100.468	317.154	66.795	264.879	143.114	326.239	251.107	107.950	220.444	137.035	370.459	0.00020373	0.0004665	0.00011612	1071.4	2.4725e-06	3.6455e-06	1139.4	245.33	2.8473e-06	4.0024e-06	317.79	63.691	45.561	14.852	1.8396e-06	28.276	0.00011884	3.5595e-05	1.0033e-05	1003.6	6.515e-07	3.7951e-07	1068.9	230.78	6.9506e-07	2.6458e-07	299.19	61.436	43.08	14.26	3.3619e-07	26.984	158.043	146.060	142.532	54.198	189.350	186.717	53.597	58.215	187.227	188.168	57.480	65.520	64.532	72.414	200.980	69.789	-8191	255	
2452.983	1	1	0	0	0.18933	0.094828	0.056713	0.33043	0.027842	0.10494	0.34044	0.077491	0.18159	0.15658	0.13834	0.19028	0.13476	0.11548	0.020834	0.24037	-2.4917	-3.3229	-3.0667	-3.175	-3.3292	-2.975	-3.4062	-3.2958	-2.8812	-3.3979	-3.0625	-3.075	-3.2896	-3	-3.2458	-3.2125	107.701	348.966	269.435	359.298	360.910	179.485	265.813	45.287	117.581	86.328	209.615	55.286	338.440	331.289	79.058	341.766	0.00020546	0.00041643	0.00011855	1070.7	3.0759e-06	2.9406e-06	1142.8	243.95	3.3521e-06	3.6404e-06	317.21	65.537	45.362	15.015	2.4015e-06	28.521	0.00012451	2.5952e-05	1.0779e-05	1004.2	7.1481e-07	2.8987e-07	1072	231.25	6.4356e-07	3.5189e-07	300	61.649	42.959	14.274	3.6389e-07	27.042	156.610	144.587	130.244	54.482	200.764	174.359	53.467	57.986	217.414	182.915	57.383	66.338	64.308	71.987	180.898	69.435	-8191	255	
2453.077	1	1	0	0	0.13376	0.060736	0.18502	0.18122	0.30313	0.11281	0.096605	0.21767	0.018091	0.30512	0.17354	0.080752	0.12701	0.11122	0.085005	0.20778	-2.4333	-3.3625	-3.0333	-3.1354	-3.2958	-2.9833	-3.2375	-3.3854	-2.8646	-3.1021	-3.1625	-3.0458	-3.3646	-3.0146	-3.1833	-3.3375	248.971	283.892	325.451	361.696	218.513	288.088	376.986	336.839	53.699	244.833	325.230	375.993	272.465	239.851	150.752	328.200	0.00020908	0.00029279	8.4106e-05	1070.9	2.6023e-06	3.063e-06	1143.6	244.67	3.0491e-06	2.9348e-06	317.61	64.504	45.584	14.853	2.2352e-06	28.163	0.00012774	2.9603e-05	8.7636e-06	1007.7	6.9558e-07	3.8665e-07	1072.8	230.91	7.1168e-07	2.5568e-07	300.5	61.15	42.901	14.207	3.9621e-07	26.884	158.003	129.960	133.282	54.286	205.149	208.796	53.317	58.508	199.372	186.622	57.548	65.899	64.839	72.152	206.280	69.257	-8191	255	
2453.174	1	1	0	0	0.26752	0.2232	0.17024	0.30959	0.19538	0.17344	0.11634	0.064255	0.13978	0.10848	0.13862	0.30868	0.27339	0.19761	0.11953	0.2038	-2.4104	-3.2521	-3.0687	-2.7521	-3.3	-3.0292	-3.2125	-3.3312	-3.0271	-3.2833	-3.2083	-2.925	-3.2854	-3.0187	-2.9229	-3.2771	244.773	292.635	42.745	57.228	43.269	393.960	68.124	186.708	228.069	395.726	321.195	387.000	366.685	386.600	332.632	128.412	0.0001978	0.00021183	0.00010341	1069.6	3.2268e-06	3.0139e-06	1138.4	244.16	3.0462e-06	4.2548e-06	316.47	64.909	45.734	14.765	2.9465e-06	27.974	0.00012068	2.869e-05	7.9173e-06	1003.9	7.1882e-07	4.2857e-07	1071.4	230.42	6.764e-07	2.9086e-07	298.97	61.023	42.998	14.137	4.6924e-07	26.651	155.870	117.799	119.203	54.220	211.801	171.581	53.728	58.367	209.619	176.379	57.597	65.434	64.148	72.334	194.829	69.359	-8191	255	
2453.270	1	1	0	0	0.23435	0.1098	0.20333	0.25306	0.30127	0.058296	0.22625	0.36041	0.27685	0.2071	0.1588	0.04116	0.28841	0.25047	0.053415	0.12928	-2.4146	-3.1667	-3.1417	-2.8896	-3.3833	-3.0917	-3.1125	-3.4646	-2.8625	-3.1771	-3.3042	-2.8458	-3.2521	-3.0542	-3.0021	-3.5062	343.180	160.007	216.843	395.698	256.523	139.915	333.488	385.481	41.806	360.746	349.715	306.182	340.137	368.404	162.032	183.282	0.00021959	0.00026483	7.2692e-05	1070.7	2.7574e-06	2.5678e-06	1141.9	242.49	2.6088e-06	3.0173e-06	318.71	64.044	44.943	14.609	2.3284e-06	28.092	0.0001277	2.9722e-05	6.4029e-06	1003.7	6.7034e-07	3.0325e-07	1072.7	230.32	6.7154e-07	2.049e-07	299.06	61.017	42.824	14.068	4.5707e-07	26.669	159.512	128.656	134.653	54.208	211.315	205.047	53.576	58.115	204.452	205.098	57.416	64.823	64.871	72.028	203.271	69.628	-8191	255	
2453.390	1	1	0	0	0.1755	0.049743	0.18007	0.33182	0.12942	0.071117	0.099226	0.060963	0.19002	0.20198	0.082228	0.17217	0.21136	0.039317	0.17949	0.29908	-2.4354	-3.1083	-3.0604	-3.0312	-3.4917	-3.0604	-2.9771	-3.5396	-3.1	-3.1042	-3.3396	-2.9292	-3.1833	-3.1792	-2.9208	-3.3708	208.485	86.275	304.897	384.270	281.455	392.053	245.154	231.527	323.845	180.028	387.555	209.799	267.404	100.262	204.137	95.554	0.00019946	0.00032247	9.3523e-05	1073.4	3.29e-06	2.8977e-06	1133.6	244.47	2.8742e-06	3.7374e-06	318.27	65.025	45.132	14.738	2.328e-06	28.101	0.00012323	3.7301e-05	7.1267e-06	1005	7.8172e-07	2.0692e-07	1071	230.5	6.2125e-07	4.1068e-07	300.21	61.307	42.735	14.079	4.8309e-07	26.748	158.567	126.548	131.134	54.307	202.526	191.227	53.696	58.167	203.386	204.305	57.566	65.596	64.372	72.042	199.391	69.878	-8191	255	
2453.487	1	1	0	0	0.24903	0.33174	0.035226	0.47315	0.17387	0.066146	0.21194	0.37595	0.14528	0.17241	0.21765	0.11407	0.18734	0.13074	0.095929	0.079982	-2.5687	-2.9667	-3.2229	-2.8854	-3.25	-3.2208	-2.9396	-3.3333	-3.0604	-2.9854	-3.4083	-3.0021	-3.225	-3.1063	-2.9688	-3.4688	195.661	367.862	122.689	309.264	317.177	188.529	345.398	43.722	316.084	191.825	350.089	233.402	181.947	67.532	145.130	147.159	0.0001973	0.00028081	0.00010233	1066.1	2.6234e-06	3.6133e-06	1144	244.71	2.4585e-06	4.9554e-06	320.65	65.23	45.073	14.709	2.0016e-06	28.08	0.00012068	3.9285e-05	6.9485e-06	1005.2	6.7755e-07	2.6044e-07	1077	230.82	5.6935e-07	3.5456e-07	301.58	61.906	42.653	14.101	4.1636e-07	26.797	157.390	118.532	158.127	54.299	196.915	196.039	53.591	58.491	200.333	204.026	57.765	65.911	63.865	72.105	198.184	69.833	-8191	255	
2453.558	1	1	0	0	0.25985	0.14276	0.24808	0.20969	0.15137	0.27782	0.46989	0.30069	0.15354	0.26237	0.19675	0.14636	0.19107	0.15332	0.02597	0.27138	-2.5208	-2.85	-3.2375	-3.0708	-3.1625	-3.2604	-3	-3.3979	-3.1063	-2.8312	-3.2917	-2.7833	-3.1688	-3.5021	-2.8229	-3.2958	60.598	199.525	93.911	352.486	143.878	97.226	322.893	319.626	322.331	278.979	301.375	185.638	130.266	313.536	135.393	129.114	0.00022508	0.00046255	9.2421e-05	1073	2.1977e-06	2.7832e-06	1147.1	244.44	3.1718e-06	3.5504e-06	317.65	64.042	45.208	14.609	2.9918e-06	27.92	0.00012861	3.7777e-05	6.414e-06	1008.1	6.8155e-07	2.8452e-07	1076.4	230.79	6.4234e-07	4.2226e-07	300.51	60.984	42.582	14.031	5.2003e-07	26.615	157.456	129.947	147.526	54.307	212.501	191.435	53.669	58.132	219.288	214.561	57.725	65.415	64.654	71.920	201.188	69.616	-8191	255	
2453.679	1	1	0	0	0.1293	0.12691	0.18831	0.28014	0.16497	0.11139	0.18856	0.088135	0.21434	0.18977	0.13397	0.1572	0.11045	0.050254	0.16677	0.14964	-2.6167	-2.9208	-3.3167	-3.2354	-3.1167	-3.2625	-2.9604	-3.2833	-3.1125	-2.8042	-3.2938	-2.9021	-2.9646	-3.3729	-2.8187	-3.1625	129.502	393.146	258.741	335.473	63.647	258.917	293.670	124.330	358.391	357.955	77.693	308.790	115.896	243.168	229.763	125.999	0.00020491	0.00032642	8.7584e-05	1069.6	3.4848e-06	3.3097e-06	1145.9	243.21	3.1482e-06	1.9648e-06	319.07	64.8	44.897	14.666	2.9984e-06	28.065	0.00012133	3.6349e-05	6.5254e-06	1005.6	7.5728e-07	3.0771e-07	1074.2	230.99	6.0138e-07	2.5924e-07	300.08	61.288	42.668	14.083	4.7176e-07	26.752	156.221	133.138	140.378	54.317	211.182	204.217	53.676	58.295	206.745	202.053	57.345	64.045	64.368	71.838	191.491	70.118	-8191	255	
2453.775	1	1	0	0	0.12925	0.14707	0.10622	0.16863	0.18042	0.23104	0.065768	0.18943	0.11485	0.22609	0.2431	0.21014	0.10027	0.21589	0.2498	0.061698	-2.7146	-2.8229	-3.2958	-3.3083	-2.9667	-3.3208	-3.0396	-3.4333	-3.2687	-2.9458	-3.4167	-3.0896	-2.8979	-3.325	-2.9917	-3.2583	100.754	356.569	379.038	311.998	366.191	391.766	341.070	238.135	283.896	108.943	320.280	254.448	74.442	333.586	264.574	212.250	0.00020966	0.00038689	9.7952e-05	1070.2	2.7834e-06	3.3168e-06	1142.2	244.04	2.2002e-06	4.4005e-06	320.04	64.096	44.933	14.514	2.4835e-06	27.997	0.00011712	3.6309e-05	8.6189e-06	1006.7	7.8493e-07	2.4885e-07	1076.3	231.58	5.5718e-07	4.4543e-07	300.32	61.247	42.592	14.016	4.3525e-07	26.656	156.556	121.950	127.491	53.916	202.515	212.261	53.528	58.322	194.364	188.468	57.676	65.837	64.386	72.460	196.613	69.242	-8191	255	
2453.871	1	1	0	0	0.23039	0.15535	0.16977	0.16395	0.050133	0.020239	0.097479	0.050705	0.062292	0.10713	0.23441	0.14958	0.12098	0.15469	0.045747	0.23431	-2.9958	-3.0333	-3.2062	-3.325	-2.8063	-3.3563	-3.1458	-3.2583	-3.1854	-2.825	-3.2729	-3.1646	-2.8958	-3.3479	-3.0187	-3.1604	105.908	176.480	157.257	368.465	194.995	210.020	67.607	387.130	365.913	215.179	349.980	340.422	70.245	384.317	146.499	81.006	0.0002184	0.00034392	5.5528e-05	1070.6	3.342e-06	2.7845e-06	1143.7	244.6	3.0132e-06	4.499e-06	320.1	65.417	45.115	14.616	2.2511e-06	27.626	0.00012247	3.5873e-05	5.9129e-06	1006.5	8.246e-07	2.3502e-07	1076.7	230.76	5.4542e-07	3.4521e-07	301.17	61.278	42.628	13.982	4.5245e-07	26.597	156.607	153.188	122.266	54.344	194.007	181.234	53.665	58.174	210.343	192.847	57.572	65.466	64.445	71.991	196.323	69.319	-8191	255	
2453.967	1	1	0	0	0.14379	0.35004	0.34078	0.24516	0.18106	0.32132	0.14378	0.10273	0.16104	0.23269	0.07885	0.089929	0.39479	0.11699	0.19756	0.18943	-2.8646	-2.8042	-3.1146	-3.2104	-2.8063	-3.2646	-3.175	-3.0708	-3.2083	-2.9479	-3.1271	-3.1125	-2.8729	-3.2938	-3.1688	-3.0083	216.721	349.568	151.671	75.053	240.719	195.738	240.116	90.808	308.195	190.596	206.361	178.226	287.862	78.689	386.706	45.145	0.00020421	0.00047058	0.00011184	1070.9	3.6343e-06	3.5976e-06	1144.4	244.41	2.3396e-06	2.9752e-06	320.02	64.98	45.086	14.706	2.8094e-06	27.845	0.00011984	3.9523e-05	8.5409e-06	1006.9	8.6467e-07	2.3234e-07	1078.5	231.15	5.1095e-07	3.942e-07	301.12	61.23	42.591	14.041	4.747e-07	26.567	156.126	120.116	119.714	54.205	203.689	173.204	53.440	58.287	216.627	219.423	57.600	64.782	64.431	72.453	197.952	69.666	-8191	255	
2454.088	1	1	0	0	0.18218	0.12321	0.1316	0.27932	0.1896	0.026209	0.10218	0.15635	0.10631	0.26501	0.0089145	0.12132	0.26897	0.14624	0.13797	0.080185	-2.8312	-2.7208	-3.2313	-3.3312	-2.8083	-3.3771	-3.1167	-2.9896	-3.3646	-2.9083	-3.2646	-3.1937	-2.7771	-3.2708	-3.1312	-2.9896	93.892	110.386	396.370	386.145	59.313	334.733	345.432	47.841	207.993	206.950	331.693	127.048	322.066	197.465	191.107	179.046	0.00021252	0.00040247	6.3819e-05	1072.7	2.256e-06	3.3529e-06	1145.7	243.97	3.5098e-06	3.1203e-06	316.8	64.963	45.014	14.581	3.2513e-06	27.565	0.00011917	3.7023e-05	6.0132e-06	1006.5	7.661e-07	2.4662e-07	1075.3	230.85	5.88e-07	2.6726e-07	299.97	61.153	42.567	13.905	3.832e-07	26.454	160.449	152.751	134.759	54.216	198.446	170.818	53.759	58.246	204.809	193.206	57.421	64.751	63.930	72.265	183.194	69.373	-8191	255	
2454.160	1	1	0	0	0.025218	0.21795	0.015507	0.24184	0.24511	0.21078	0.30678	0.37314	0.1491	0.065652	0.13089	0.18043	0.072418	0.1272	0.19554	0.39235	-3.0354	-3.0083	-2.8083	-3.2562	-2.8396	-3.1021	-3.2354	-2.7875	-3.5521	-3.1604	-3.1312	-3.3	-2.9562	-3.1833	-3.2292	-2.8333	247.959	296.865	194.849	336.054	309.546	49.021	342.304	390.633	81.667	261.641	186.554	248.491	357.899	315.178	217.126	334.692	0.00021733	0.00032233	8.3081e-05	1070.7	3.1369e-06	2.705e-06	1144.9	244.88	2.1774e-06	3.2938e-06	318.34	64.649	44.965	14.424	2.0415e-06	27.952	0.00011665	3.2063e-05	8.14e-06	1007.7	8.0096e-07	1.7303e-07	1077.1	231.34	5.4623e-07	2.6815e-07	300.16	60.715	42.655	13.853	3.4669e-07	26.534	158.112	112.721	156.183	54.192	194.104	187.104	53.547	58.180	212.691	197.684	57.586	65.821	64.081	72.195	196.249	70.014	-8191	255	
2454.278	1	1	0	0	0.16724	0.18813	0.17959	0.24833	0.12298	0.14894	0.27708	0.1129	0.27208	0.053574	0.20362	0.22918	0.20697	0.37021	0.080642	0.22032	-2.8125	-3.0542	-2.9938	-3.4917	-2.7917	-3.2896	-3.3333	-3.0125	-3.3438	-3.2188	-3.025	-3.2188	-2.8417	-3.2438	-3.3688	-2.7542	166.126	215.666	112.672	370.293	87.775	113.855	324.665	90.871	396.090	142.105	355.832	298.956	125.798	82.930	147.652	363.578	0.00019881	0.00029489	0.00010294	1073.6	3.1615e-06	3.4252e-06	1144.8	244.96	2.7086e-06	3.1104e-06	317.77	64.095	44.868	14.666	2.6044e-06	27.814	0.00011758	4.0674e-05	1.0267e-05	1007.5	8.2299e-07	2.9077e-07	1076.9	230.8	5.8638e-07	3.2293e-07	300.23	60.799	42.641	14.006	4.2685e-07	26.579	156.269	137.300	126.245	54.294	215.329	160.657	53.488	58.329	187.842	196.140	57.464	65.615	64.403	72.365	190.689	69.486	-8191	255	
2454.375	1	1	0	0	0.16775	0.096405	0.24409	0.27697	0.14433	0.108	0.36626	0.25953	0.21968	0.099469	0.2872	0.095781	0.19034	0.069148	0.28134	0.12862	-2.9021	-3.1833	-2.7812	-3.3229	-2.9208	-3.025	-3.3271	-2.95	-3.35	-3.2771	-3.0229	-3.2167	-2.9479	-3.1146	-3.2646	-2.7979	367.885	189.387	267.406	353.379	52.614	356.095	345.396	359.625	256.936	361.608	96.349	244.743	80.471	396.719	119.321	142.373	0.0002217	0.00042013	9.7863e-05	1072.5	3.3394e-06	2.3906e-06	1148.6	245.57	2.6137e-06	2.0116e-06	320.67	66.54	45.409	14.577	2.535e-06	27.833	0.00012312	3.0714e-05	9.1979e-06	1008.1	8.2139e-07	2.8006e-07	1081.3	231.17	5.9043e-07	2.8997e-07	302.3	61.7	42.831	13.95	3.2906e-07	26.548	157.493	134.103	118.203	54.199	197.211	211.185	53.569	58.197	202.123	180.400	57.995	66.140	64.397	72.575	193.180	69.752	-8191	255	
#DATA ENDS
