BOXY.EXE: ISS Imagent and Oximeter Data Acquisition Program Version 0.80
Ascii Record File

#ACQ INFORMATION
2  Detector Channels 
16  External MUX Channels 
1  Auxiliary Channels 
5000  Waveform (CCF) Frequency (Hz)
1  Waveforms Skipped 
30  Waveforms Averaged 
1  Cycles Averaged 
16  Acquisitions per Waveform 
10.0806  Updata Rate (Hz) 

#FILE INFORMATION
TRUE -- External MUX Channel results are PARSED.
FALSE -- AC DC and Phase are NOT grouped.
TRUE -- Companion Program Settings File CREATED.
FALSE -- AC data not excluded
FALSE -- DC data not excluded
FALSE -- Phase data not excluded
FALSE -- Auxillary Chn. data not excluded
Tab delimiters

#CALIBRATION STATE
TRUE -- Waveform Calibration Values APPLIED.


#AUX CALIBRATION VALUES
Val Type	aux-1	

Term	1.0000e+00	
Factor	0.0000e+00	


#WF CALIBRATION VALUES
A = Detector Channel
Val Type	A-AC1	A-AC2	A-AC3	A-AC4	A-AC5	A-AC6	A-AC7	A-AC8	A-AC9	A-AC10	A-AC11	A-AC12	A-AC13	A-AC14	A-AC15	A-AC16	A-DC1	A-DC2	A-DC3	A-DC4	A-DC5	A-DC6	A-DC7	A-DC8	A-DC9	A-DC10	A-DC11	A-DC12	A-DC13	A-DC14	A-DC15	A-DC16	A-Ph1	A-Ph2	A-Ph3	A-Ph4	A-Ph5	A-Ph6	A-Ph7	A-Ph8	A-Ph9	A-Ph10	A-Ph11	A-Ph12	A-Ph13	A-Ph14	A-Ph15	A-Ph16	

Term	0.00000e+00	0.00000e+00	0.00000e+00	0.00000e+00	0.00000e+00	0.00000e+00	0.00000e+00	0.00000e+00	0.00000e+00	0.00000e+00	0.00000e+00	0.00000e+00	0.00000e+00	0.00000e+00	0.00000e+00	0.00000e+00	0.00000e+00	0.00000e+00	0.00000e+00	0.00000e+00	0.00000e+00	0.00000e+00	0.00000e+00	0.00000e+00	0.00000e+00	0.00000e+00	0.00000e+00	0.00000e+00	0.00000e+00	0.00000e+00	0.00000e+00	0.00000e+00	0.00000e+00	0.00000e+00	0.00000e+00	0.00000e+00	0.00000e+00	0.00000e+00	0.00000e+00	0.00000e+00	0.00000e+00	0.00000e+00	0.00000e+00	0.00000e+00	0.00000e+00	0.00000e+00	0.00000e+00	0.00000e+00	
Factor	1.00000e+00	1.00000e+00	1.00000e+00	1.00000e+00	1.00000e+00	1.00000e+00	1.00000e+00	1.00000e+00	1.00000e+00	1.00000e+00	1.00000e+00	1.00000e+00	1.00000e+00	1.00000e+00	1.00000e+00	1.00000e+00	1.00000e+00	1.00000e+00	1.00000e+00	1.00000e+00	1.00000e+00	1.00000e+00	1.00000e+00	1.00000e+00	1.00000e+00	1.00000e+00	1.00000e+00	1.00000e+00	1.00000e+00	1.00000e+00	1.00000e+00	1.00000e+00	X	X	X	X	X	X	X	X	X	X	X	X	X	X	X	X	

B = Detector Channel
Val Type	B-AC1	B-AC2	B-AC3	B-AC4	B-AC5	B-AC6	B-AC7	B-AC8	B-AC9	B-AC10	B-AC11	B-AC12	B-AC13	B-AC14	B-AC15	B-AC16	B-DC1	B-DC2	B-DC3	B-DC4	B-DC5	B-DC6	B-DC7	B-DC8	B-DC9	B-DC10	B-DC11	B-DC12	B-DC13	B-DC14	B-DC15	B-DC16	B-Ph1	B-Ph2	B-Ph3	B-Ph4	B-Ph5	B-Ph6	B-Ph7	B-Ph8	B-Ph9	B-Ph10	B-Ph11	B-Ph12	B-Ph13	B-Ph14	B-Ph15	B-Ph16	

Term	0.00000e+00	0.00000e+00	0.00000e+00	0.00000e+00	0.00000e+00	0.00000e+00	0.00000e+00	0.00000e+00	0.00000e+00	0.00000e+00	0.00000e+00	0.00000e+00	0.00000e+00	0.00000e+00	0.00000e+00	0.00000e+00	0.00000e+00	0.00000e+00	0.00000e+00	0.00000e+00	0.00000e+00	0.00000e+00	0.00000e+00	0.00000e+00	0.00000e+00	0.00000e+00	0.00000e+00	0.00000e+00	0.00000e+00	0.00000e+00	0.00000e+00	0.00000e+00	-1.23800e+02	-1.29605e+02	-1.18317e+02	-1.81384e+02	-6.66720e+01	-6.49322e+01	-1.54429e+02	-1.62015e+02	-6.47790e+01	-5.86214e+01	-1.69550e+02	-1.78216e+02	-1.82278e+02	-1.75921e+02	-6.55031e+01	-1.48295e+02	
Factor	1.82523e-05	2.02462e-04	5.46020e-05	1.59639e-01	1.48313e-06	2.22676e-06	1.61345e-01	6.10527e-02	1.51134e-06	2.21112e-06	9.03854e-02	2.02187e-01	4.85540e-02	9.32913e-03	1.59883e-06	1.33881e-02	1.11608e-05	1.90474e-05	5.34503e-06	8.05254e-02	1.92326e-07	2.14060e-07	7.69818e-02	3.09569e-02	1.94649e-07	2.13805e-07	4.45233e-02	1.01031e-01	2.48173e-02	4.77762e-03	2.01464e-07	6.64615e-03	X	X	X	X	X	X	X	X	X	X	X	X	X	X	X	X	



#DISTANCE SETTINGS
A = Detector Channel
A-1	A-2	A-3	A-4	A-5	A-6	A-7	A-8	A-9	A-10	A-11	A-12	A-13	A-14	A-15	A-16	

2.5000e+00	3.0000e+00	2.5000e+00	3.0000e+00	2.0000e+00	3.0000e+00	1.5000e+00	3.0000e+00	3.0000e+00	3.0000e+00	3.0000e+00	3.0000e+00	3.0000e+00	3.0000e+00	1.5000e+00	3.0000e+00	

B = Detector Channel
B-1	B-2	B-3	B-4	B-5	B-6	B-7	B-8	B-9	B-10	B-11	B-12	B-13	B-14	B-15	B-16	

1.0000e+01	1.0000e+01	1.0000e+01	1.4400e+00	1.0000e+01	1.0000e+01	1.5100e+00	1.9400e+00	1.0000e+01	1.0000e+01	1.9900e+00	2.4900e+00	2.4100e+00	2.9000e+00	1.0000e+01	2.9800e+00	




#DATA BEGINS
time	group	step	mark	flag	A-AC1	A-AC2	A-AC3	A-AC4	A-AC5	A-AC6	A-AC7	A-AC8	A-AC9	A-AC10	A-AC11	A-AC12	A-AC13	A-AC14	A-AC15	A-AC16	A-DC1	A-DC2	A-DC3	A-DC4	A-DC5	A-DC6	A-DC7	A-DC8	A-DC9	A-DC10	A-DC11	A-DC12	A-DC13	A-DC14	A-DC15	A-DC16	A-Ph1	A-Ph2	A-Ph3	A-Ph4	A-Ph5	A-Ph6	A-Ph7	A-Ph8	A-Ph9	A-Ph10	A-Ph11	A-Ph12	A-Ph13	A-Ph14	A-Ph15	A-Ph16	B-AC1	B-AC2	B-AC3	B-AC4	B-AC5	B-AC6	B-AC7	B-AC8	B-AC9	B-AC10	B-AC11	B-AC12	B-AC13	B-AC14	B-AC15	B-AC16	B-DC1	B-DC2	B-DC3	B-DC4	B-DC5	B-DC6	B-DC7	B-DC8	B-DC9	B-DC10	B-DC11	B-DC12	B-DC13	B-DC14	B-DC15	B-DC16	B-Ph1	B-Ph2	B-Ph3	B-Ph4	B-Ph5	B-Ph6	B-Ph7	B-Ph8	B-Ph9	B-Ph10	B-Ph11	B-Ph12	B-Ph13	B-Ph14	B-Ph15	B-Ph16	aux-1	digaux	

2916.268	1	1	0	256	0.046031	0.037783	0.10879	0.050944	0.042528	0.15542	0.10657	0.086719	0.13342	0.17537	0.22075	0.12073	0.17882	0.20426	0.13049	0.23722	-2.6854	-2.5833	-2.8479	-2.85	-2.5833	-3.0292	-2.7188	-2.7833	-2.9604	-2.4562	-2.8354	-2.7521	-2.5042	-2.975	-2.8646	-2.8042	87.664	331.116	224.150	25.432	215.511	118.605	114.030	288.000	329.415	257.291	326.903	293.267	152.096	56.499	168.085	56.898	4.8214e-05	0.00040891	0.00015639	341.88	2.9959e-06	5.263e-06	450.03	119.99	2.1291e-06	1.1e-06	147.32	46.034	33.787	12.88	1.6713e-06	16.412	0.00076649	0.0012463	0.0003495	334.64	1.2982e-05	1.3945e-05	438.86	119	1.3082e-05	1.415e-05	146.05	53.502	34.867	13.036	1.3418e-05	16.625	156.559	91.274	89.171	-3.499	194.045	59.323	-5.076	1.562	117.347	40.169	-0.547	4.427	7.407	11.904	197.441	8.406	-8191	255	
2916.364	1	1	0	0	0.010345	0.23858	0.22691	0.10592	0.16797	0.28618	0.15847	0.098121	0.059822	0.14462	0.28085	0.33182	0.092585	0.21507	0.10666	0.19585	-2.7208	-2.6104	-2.9167	-2.8417	-2.5521	-3.0479	-2.7917	-2.4583	-3.025	-2.9146	-2.7188	-2.9521	-2.4188	-2.7687	-2.9	-2.5125	285.807	327.011	3.247	109.757	1.765	340.173	39.221	142.929	95.329	240.382	309.803	43.979	182.303	18.458	225.101	58.182	8.6207e-05	0.00037313	0.00013575	340.95	2.4668e-06	1.0801e-06	449.21	120.09	2.4849e-06	4.7959e-06	148.55	46.448	34.191	12.926	2.4285e-06	16.7	0.00078593	0.0012803	0.00036282	334.25	1.3293e-05	1.4215e-05	440.41	119.26	1.3315e-05	1.4736e-05	147.46	54.461	35.179	13.089	1.3861e-05	16.837	153.150	91.224	87.861	-3.822	115.478	165.730	-4.740	1.477	189.921	104.320	-0.903	5.490	7.078	12.429	265.764	8.861	-8191	255	
2916.460	1	1	0	0	0.17878	0.28632	0.16715	0.10098	0.13966	0.042482	0.06183	0.16499	0.071335	0.053759	0.13362	0.17338	0.064628	0.21846	0.21825	0.12542	-2.6521	-2.6	-2.6104	-2.8625	-2.3792	-2.6979	-2.8771	-2.7375	-3.1417	-2.5875	-2.6729	-2.8708	-2.5521	-2.9375	-2.85	-2.4458	-5.974	12.609	264.067	74.938	255.412	271.715	241.282	339.577	328.743	336.261	102.418	2.816	77.997	234.403	107.703	29.597	7.9269e-05	6.9782e-05	7.4789e-05	340.89	2.4687e-06	2.3076e-06	452.79	120.45	2.5319e-06	3.035e-06	150.12	48.251	34.9	13.059	3.3072e-06	16.888	0.00083023	0.0013325	0.00036414	335.34	1.3387e-05	1.4367e-05	442.29	120.17	1.3435e-05	1.488e-05	149.53	55.346	35.656	13.194	1.4268e-05	16.974	131.892	99.260	324.015	-3.982	151.022	-15.805	-5.022	1.202	100.366	105.155	-0.832	3.791	7.097	11.881	21.988	9.043	-8191	255	
2916.557	1	1	0	0	0.15766	0.082144	0.26822	0.16347	0.18985	0.016985	0.1936	0.19295	0.14658	0.17308	0.14026	0.13489	0.12585	0.045466	0.065787	0.092663	-2.5583	-2.7188	-2.7562	-3.025	-2.7667	-2.8958	-2.9437	-2.6042	-2.9583	-2.8208	-2.6854	-3.0458	-2.7646	-2.9625	-2.8771	-2.4458	305.271	262.461	12.909	294.496	190.981	269.335	261.264	220.388	161.761	304.409	-11.754	102.893	162.600	52.532	85.355	336.977	6.1897e-05	0.00033839	9.3723e-05	341.66	1.3167e-06	3.5332e-06	452.02	121.35	6.3223e-07	5.9099e-06	150.84	48.535	34.283	12.959	2.7522e-06	16.701	0.00083671	0.0013559	0.00038029	335.44	1.4106e-05	1.5015e-05	443.61	120.21	1.4124e-05	1.5542e-05	150.16	56.162	35.63	13.188	1.476e-05	16.971	138.716	84.030	35.068	-3.917	177.967	140.990	-5.024	1.130	89.085	170.692	-0.678	5.156	6.781	12.377	79.729	8.564	-8191	255	
2916.653	1	1	0	0	0.13915	0.16374	0.17639	0.28888	0.078889	0.14086	0.025619	0.094961	0.25108	0.19875	0.13913	0.24099	0.23802	0.15169	0.31198	0.085884	-2.6813	-2.6375	-2.7125	-2.8542	-2.8812	-2.6979	-2.9917	-2.6104	-3.0229	-2.8479	-2.7792	-3.0375	-2.5958	-2.7771	-3.1729	-2.5354	68.656	77.632	334.942	246.736	7.769	294.205	232.265	125.308	125.751	32.769	294.970	207.057	243.047	277.327	55.517	262.993	4.588e-05	0.00020578	6.6336e-05	338.8	1.939e-06	3.8622e-06	445.88	119.95	1.073e-06	4.9194e-06	148.18	46.715	34.22	12.86	9.989e-07	16.413	0.0008778	0.0014275	0.00040405	334.91	1.4601e-05	1.5857e-05	440.07	119.17	1.4633e-05	1.5802e-05	147.07	54.723	35.189	13.084	1.5156e-05	16.742	169.664	113.030	84.914	-3.691	201.660	61.051	-4.607	1.315	116.212	50.548	-0.537	3.594	6.439	12.270	88.941	8.724	-8191	255	
2916.749	1	1	0	0	0.15815	0.10224	0.11444	0.10095	0.22808	0.1738	0.17015	0.087016	0.2024	0.047706	0.11165	0.13524	0.13605	0.19051	0.18272	0.051275	-2.6063	-2.9854	-2.6542	-3.0667	-2.8083	-2.7083	-3.0563	-2.7188	-2.8688	-2.7938	-2.6604	-3.0083	-2.8146	-2.7042	-3.1833	-2.7646	77.221	41.024	1.852	285.503	256.625	40.691	245.633	163.733	179.283	262.292	309.486	-5.226	269.097	180.714	265.078	156.589	9.3773e-05	0.00032665	0.00010781	339.39	1.6165e-06	1.8513e-06	448.05	119.25	1.6673e-06	2.1855e-06	148.47	46.535	34.233	12.969	1.3391e-06	16.541	0.00089568	0.0014482	0.00040777	334.36	1.5209e-05	1.6602e-05	439.39	118.87	1.5243e-05	1.6702e-05	147.78	55.437	35.292	13.104	1.6417e-05	16.796	136.616	79.537	70.949	-3.924	55.726	165.062	-5.293	1.361	306.271	182.389	-0.688	5.557	6.358	12.101	169.746	8.378	-8191	255	
2916.845	1	1	0	0	0.045952	0.19422	0.12951	0.1811	0.24568	0.34592	0.047188	0.30801	0.25379	0.09919	0.33013	0.12093	0.20346	0.12759	0.2502	0.2568	-2.5167	-2.9333	-2.5104	-2.8875	-2.8333	-2.8646	-3.1646	-2.6063	-2.9458	-3.1083	-2.725	-3.0333	-3	-2.7875	-3.0333	-2.6583	17.676	151.664	290.641	7.638	167.764	258.577	185.198	104.070	225.423	-3.192	280.693	46.952	49.720	176.435	329.486	-6.109	0.00010292	0.00043031	3.6071e-05	340.01	1.149e-06	3.1944e-06	449.91	119.87	7.694e-07	9.2025e-06	149.86	47.299	34.288	12.903	2.3151e-06	16.454	0.0009589	0.0015571	0.00043295	335.94	1.5848e-05	1.7692e-05	440.85	119.25	1.6111e-05	1.7869e-05	148.48	56.422	35.777	13.203	1.7854e-05	16.927	124.931	113.208	75.085	-3.890	109.042	128.111	-5.295	1.467	-6.697	185.695	-1.001	4.679	6.880	12.320	246.764	8.481	-8191	255	
2916.966	1	1	0	0	0.15628	0.17192	0.30822	0.15246	0.27169	0.2179	0.16022	0.10695	0.24565	0.3087	0.1241	0.40899	0.18267	0.24513	0.10565	0.18941	-2.3896	-2.975	-2.6646	-3.0208	-2.9292	-2.7271	-3.1146	-2.6479	-2.8417	-3.1104	-2.6979	-2.9146	-3.0083	-2.6771	-3.1167	-2.7958	206.538	305.389	135.840	63.520	138.985	316.675	333.368	93.360	332.190	192.577	28.878	118.848	49.601	147.108	298.293	333.711	6.0563e-05	0.00026105	7.8292e-05	344.1	4.2292e-07	2.5138e-06	452.85	120.13	3.6027e-06	5.3668e-06	149.76	46.613	34.191	12.959	5.7035e-06	16.743	0.0010609	0.0017558	0.00048384	338.78	1.7379e-05	1.9674e-05	444.64	120.1	1.8659e-05	2.0118e-05	149.84	57.414	35.903	13.237	1.8917e-05	17.068	131.679	100.534	77.499	-4.124	236.658	200.644	-4.902	1.398	91.077	180.039	-0.892	4.824	6.385	11.838	123.458	8.776	-8191	255	
2917.060	1	1	0	0	0.16765	0.058059	0.20845	0.19162	0.080957	0.050172	0.235	0.19142	0.25323	0.28823	0.075397	0.20465	0.19644	0.044386	0.53529	0.19294	-2.4625	-3.0521	-2.5938	-2.8958	-2.9729	-2.55	-3.1437	-2.7562	-2.7854	-3.0458	-2.7771	-2.825	-2.9562	-2.5167	-2.85	-2.8396	158.569	12.131	121.217	134.227	22.808	15.824	292.724	120.890	77.587	229.811	60.609	182.649	102.110	71.618	177.982	309.301	5.9625e-05	0.00010417	9.3059e-05	341.61	1.5606e-06	6.2516e-07	449.53	119.03	2.2619e-06	7.0359e-06	146.26	46.544	33.95	12.795	3.1115e-06	16.299	0.001078	0.0017582	0.00049795	338.41	1.7958e-05	1.9859e-05	442.57	118.89	1.7835e-05	1.9666e-05	147.34	56.627	35.409	13.066	1.8998e-05	16.727	171.008	53.360	91.669	-3.851	-5.749	117.627	-5.037	1.309	118.584	117.503	-0.616	4.442	7.098	11.887	194.401	8.437	-8191	255	
2917.156	1	1	0	0	0.20717	0.20823	0.36552	0.11274	0.13447	0.093815	0.3445	0.081217	0.029116	0.031144	0.025947	0.17639	0.11059	0.11617	0.21227	0.24559	-2.2896	-3.0167	-2.6958	-2.8063	-3.0312	-2.5687	-3.0854	-2.8042	-2.7083	-3.1229	-2.8667	-2.9042	-3.0333	-2.7667	-2.9292	-2.9125	72.854	128.144	-6.385	61.935	47.264	339.531	271.800	246.614	73.465	233.815	264.282	255.320	136.366	131.872	220.593	296.621	7.5415e-05	0.00038881	0.00016294	342.48	1.5156e-06	4.4025e-06	448.22	119.34	3.5228e-06	6.7351e-06	146.29	47.169	33.874	12.872	1.7218e-06	16.489	0.0011158	0.0017909	0.00049937	337.15	1.7911e-05	1.9984e-05	440.96	118.92	1.7846e-05	1.9824e-05	146.52	56.228	35.443	13.094	1.8638e-05	16.717	118.608	87.655	15.062	-3.828	109.501	173.098	-4.807	1.309	119.178	163.566	-0.679	4.712	6.883	11.663	154.134	8.492	-8191	255	
2917.230	1	1	0	0	0.15389	0.18932	0.20173	0.34965	0.10153	0.037403	0.28794	0.17788	0.060091	0.20614	0.017808	0.12118	0.051693	0.21878	0.14676	0.15019	-2.275	-3.0167	-2.7229	-2.9104	-3.1729	-2.6417	-2.9896	-2.925	-2.5354	-3.0687	-3.0917	-2.7562	-3.0958	-2.7458	-2.9271	-2.9688	314.743	99.107	185.350	313.010	39.441	52.525	336.469	20.995	294.425	128.950	47.357	103.664	220.807	10.919	263.006	174.088	8.7035e-05	0.00026794	0.00015368	341.63	1.595e-06	5.1687e-06	450.07	119.7	2.2153e-06	1.8273e-06	147.24	46.337	34.331	12.921	2.9853e-06	16.574	0.0011002	0.0017649	0.00048913	338.22	1.7702e-05	1.9564e-05	442.53	119.35	1.8035e-05	1.9246e-05	147.57	56.39	35.755	13.137	1.8818e-05	16.811	132.439	328.995	150.395	-3.569	26.381	171.933	-4.977	1.600	90.152	157.960	-0.981	5.092	7.170	12.084	174.281	8.446	-8191	255	
2917.348	1	1	0	0	0.089764	0.26987	0.18968	0.064632	0.15578	0.096077	0.095495	0.29737	0.23449	0.12493	0.42525	0.12719	0.10573	0.20724	0.18882	0.24058	-2.1646	-2.7875	-2.7521	-2.7125	-2.9625	-2.5875	-2.8792	-2.9979	-2.5333	-3.0917	-2.7646	-2.7833	-2.9688	-2.8	-2.7771	-3.0333	293.036	113.349	110.581	54.858	294.026	138.597	210.898	35.013	3.739	102.974	295.679	292.850	218.541	21.384	184.948	91.698	9.3883e-05	0.0003498	2.5603e-05	342.23	2.4799e-06	3.5953e-06	450.83	120.66	2.123e-06	4.1281e-06	149.27	47.216	35.015	12.982	3.1426e-06	16.689	0.0010859	0.0017639	0.00049307	338.65	1.8043e-05	1.983e-05	443.77	120.17	1.8007e-05	1.9719e-05	149.03	56.588	36.099	13.225	1.8602e-05	17.011	133.063	117.566	117.215	-3.353	62.560	71.532	-5.066	1.117	153.485	177.988	-0.660	5.151	6.284	12.010	160.601	8.913	-8191	255	
2917.445	1	1	0	0	0.24697	0.11325	0.2059	0.051953	0.23237	0.16464	0.1302	0.17518	0.14423	0.127	0.20891	0.21413	0.094098	0.34748	0.087952	0.050146	-2.1708	-2.9313	-2.8438	-2.6458	-3.0854	-2.7208	-2.8542	-2.8583	-2.5667	-2.7792	-2.8417	-2.5625	-3.2042	-2.6354	-2.85	-2.9896	63.076	266.363	44.219	51.530	36.817	340.564	261.045	199.461	32.670	334.067	178.773	237.557	202.070	285.921	284.536	310.548	8.9274e-05	0.0002144	6.4593e-05	344.33	1.5442e-06	5.9567e-06	451.6	119.73	3.5242e-06	3.1339e-06	147.77	47.439	34.103	12.762	2.8731e-06	16.408	0.0010917	0.0017914	0.00049633	339.23	1.834e-05	2.0008e-05	444.25	119.86	1.8978e-05	2.0867e-05	147.82	57.153	35.564	13.127	1.9755e-05	16.751	128.888	131.879	118.167	-3.380	81.102	157.481	-5.232	1.278	265.844	100.827	-1.013	4.921	6.949	12.107	308.348	8.537	-8191	255	
2917.541	1	1	0	0	0.19984	0.10688	0.12252	0.057311	0.32392	0.14467	0.073209	0.14196	0.2588	0.013985	0.13133	0.24812	0.26612	0.048618	0.16548	0.0089815	-2.2958	-2.9104	-3.0312	-2.4979	-3.0458	-2.8312	-2.5458	-3.1188	-2.7417	-2.8583	-3.0417	-2.6063	-2.9854	-2.6083	-2.6104	-3.1167	102.327	65.168	166.408	15.710	32.436	206.717	65.181	199.071	2.346	6.733	298.888	157.188	162.020	99.872	151.531	338.811	1.577e-05	0.00039248	4.9381e-05	343.45	4.868e-06	2.2935e-06	450.32	119.5	7.6666e-07	2.0522e-06	147.39	47.076	34.172	12.763	1.9172e-06	16.321	0.0011724	0.0019274	0.00053235	340.41	1.9308e-05	2.1003e-05	442.6	119.42	1.9723e-05	2.1488e-05	147.2	57.156	35.693	13.096	2.0554e-05	16.726	56.308	12.170	180.312	-3.895	162.416	277.545	-4.990	1.676	180.170	31.228	-1.123	4.686	6.889	11.705	315.901	9.201	-8191	255	
2917.637	1	1	0	0	0.17965	0.10967	0.09968	0.1362	0.10889	0.14236	0.11128	0.17763	0.019391	0.068688	0.2128	0.055602	0.21162	0.27052	0.097027	0.14322	-2.3354	-2.9375	-3.0729	-2.7333	-3.0333	-2.8729	-2.7979	-2.975	-2.9625	-2.9521	-3.1375	-2.4625	-2.8896	-2.9688	-2.5833	-3.1021	47.518	97.783	160.365	37.016	175.037	36.673	6.360	102.080	56.252	142.242	274.709	74.995	258.142	6.768	325.898	104.371	9.6965e-05	0.00036101	0.00011169	343.86	6.5322e-07	5.3892e-06	451.33	119.97	2.1168e-06	5.1418e-06	148.05	47.292	34.173	12.949	5.7736e-06	16.369	0.0011873	0.0019578	0.00054895	340.4	1.9636e-05	2.1897e-05	443.29	119.83	2.0237e-05	2.1951e-05	148.25	57.969	36.028	13.202	2.1649e-05	16.809	186.072	53.264	91.672	-3.743	245.571	116.710	-4.975	1.487	147.358	174.263	-0.869	5.142	7.071	11.607	157.634	8.420	-8191	255	
2917.758	1	1	0	0	0.21931	0.20317	0.085392	0.12965	0.21856	0.1628	0.2194	0.15148	0.145	0.10926	0.093634	0.16789	0.34085	0.17896	0.090849	0.21027	-2.4083	-2.7167	-3.0187	-2.6083	-2.925	-2.8854	-2.5458	-3.0625	-2.8312	-2.8521	-3.125	-2.6813	-2.8375	-2.9625	-2.4125	-3.0104	-15.439	154.427	158.271	1.576	20.305	88.999	215.068	302.798	-12.603	-11.884	276.149	229.086	39.819	-15.608	149.060	214.223	0.0001014	0.00046085	2.5123e-05	343.08	2.0558e-06	4.0647e-06	450.54	120.02	2.7082e-06	4.2054e-06	148.84	48.029	34.626	12.884	4.5824e-06	16.743	0.0012223	0.0020024	0.00056699	340.01	2.052e-05	2.2979e-05	444.17	120.24	2.0986e-05	2.2768e-05	149.6	58.768	36.313	13.239	2.1211e-05	17.053	141.908	125.577	117.347	-3.756	146.536	250.505	-5.021	1.335	18.000	87.737	-1.054	3.948	7.456	12.362	174.099	9.044	-8191	255	
2917.854	1	1	0	0	0.15825	0.34193	0.17121	0.085191	0.17415	0.14696	0.13993	0.154	0.039864	0.18754	0.0097287	0.17249	0.15488	0.10362	0.01215	0.13604	-2.3917	-2.6146	-2.9604	-2.6792	-2.9771	-3.0083	-2.7604	-2.8937	-2.7917	-2.7771	-3.0583	-2.6521	-2.8208	-2.8417	-2.7646	-2.9813	212.958	206.312	72.651	178.930	231.996	-3.568	201.447	166.746	190.331	36.251	252.317	322.087	205.041	175.608	9.564	291.792	7.1871e-05	0.00026981	0.00011911	343.94	2.6061e-06	1.7673e-06	450.88	120.09	4.0363e-06	4.7102e-06	147.61	47.76	34.222	12.864	1.0888e-06	16.361	0.0012051	0.0019952	0.00056262	340.26	2.0431e-05	2.251e-05	444.5	120.49	2.0587e-05	2.2609e-05	148.43	58.304	35.87	13.144	2.1346e-05	16.724	150.940	-2.899	60.877	-3.813	-4.837	73.865	-5.156	1.523	175.869	194.007	-0.800	5.233	6.964	12.017	228.460	7.928	-8191	255	
2917.950	1	1	0	0	0.14523	0.12513	0.090391	0.12036	0.1269	0.16214	0.22884	0.1844	0.18416	0.098621	0.087291	0.18367	0.27311	0.10183	0.19114	0.14324	-2.3708	-2.5771	-3.2417	-2.65	-2.85	-3.1521	-2.6458	-2.9	-2.9542	-2.75	-3.1167	-2.6729	-2.6813	-3.1479	-2.5812	-2.9292	66.555	71.461	113.867	105.993	234.859	131.073	126.476	234.712	319.917	229.584	115.736	334.741	256.221	226.336	292.524	302.237	0.00011546	0.00015231	7.8631e-05	340.28	1.5342e-06	7.4354e-06	447.23	118.17	1.9495e-06	1.4998e-06	146.06	46.563	34.264	12.699	3.1749e-06	16.253	0.0012239	0.0019925	0.00055572	338.02	2.0545e-05	2.2472e-05	441.74	118.7	2.1355e-05	2.3324e-05	146.96	57.823	35.729	13.057	2.1928e-05	16.635	155.711	104.435	38.924	-3.338	134.388	217.547	-5.237	1.335	202.872	3.174	-0.691	4.883	6.725	12.366	7.415	8.514	-8191	255	
2918.046	1	1	0	0	0.20127	0.14608	0.24544	0.15331	0.1411	0.29191	0.16988	0.17877	0.12546	0.052532	0.14167	0.20198	0.15501	0.22297	0.29381	0.15425	-2.2833	-2.5438	-3.0229	-2.8333	-2.7875	-3.0521	-2.8792	-2.9458	-2.8458	-2.5	-3.0812	-2.6979	-2.6625	-2.9375	-2.6396	-2.6708	53.714	228.561	-1.597	0.007	15.499	137.340	182.577	113.182	117.341	190.117	293.350	216.111	93.483	272.703	242.981	-4.684	6.8218e-05	0.00024684	5.3833e-05	341.18	1.2171e-06	5.1377e-06	448.11	118.98	3.337e-06	5.392e-06	146.12	47.742	34.177	12.783	2.4133e-06	16.376	0.001259	0.0020768	0.0005746	339.69	2.1168e-05	2.2974e-05	441.8	119.32	2.1068e-05	2.3062e-05	147.45	57.98	35.829	13.101	2.1715e-05	16.76	147.255	64.337	113.389	-3.597	99.174	119.987	-5.236	1.614	2.348	207.709	-0.605	4.631	6.491	12.182	50.062	8.653	-8191	255	
2918.140	1	1	0	0	0.12629	0.10776	0.30246	0.16353	0.18987	0.31281	0.1921	0.41531	0.20443	0.15452	0.319	0.23423	0.1212	0.24446	0.07918	0.033814	-2.725	-2.5646	-2.9125	-2.7687	-2.825	-2.9938	-2.7562	-2.7812	-3.025	-2.5958	-2.9437	-2.9792	-2.7146	-3.0854	-2.7708	-2.7271	121.827	240.565	62.763	276.786	298.972	142.448	157.552	301.502	165.549	194.628	-8.234	161.309	239.185	232.675	107.011	136.791	0.00010803	0.00021988	4.2899e-05	345.83	2.5173e-06	3.4102e-06	448.59	119.7	2.81e-06	5.161e-06	149.09	46.627	34.193	12.906	1.8995e-06	16.423	0.0012388	0.0020345	0.00056978	340.09	2.094e-05	2.2579e-05	442.92	119.98	2.1134e-05	2.3201e-05	149.15	58.47	36.095	13.218	2.1995e-05	16.89	150.487	203.520	21.380	-3.846	257.859	-13.506	-4.825	1.037	67.703	79.863	-0.735	5.063	6.967	12.322	232.223	8.277	-8191	255	
2918.238	1	1	0	0	0.17928	0.17196	0.057815	0.19304	0.18408	0.13715	0.18112	0.13284	0.092171	0.24485	0.10673	0.071918	0.051532	0.10064	0.17906	0.22493	-2.5938	-2.6792	-2.9042	-2.9833	-2.5396	-3.0563	-2.8667	-2.8542	-3.1125	-2.5792	-2.9542	-2.8438	-2.5042	-3.0875	-2.6833	-2.5771	180.671	-7.330	176.311	130.833	266.347	167.314	285.829	314.590	285.633	250.619	142.031	210.238	337.091	311.320	306.629	78.109	5.462e-05	0.00015322	0.00019005	342.75	2.2655e-06	5.6701e-06	449.76	120.2	1.2064e-06	2.8071e-06	149.74	46.83	34.256	12.861	4.1685e-06	16.38	0.0012328	0.0019895	0.00055114	339.91	1.9711e-05	2.1726e-05	444.53	120.55	1.9673e-05	2.1633e-05	149.79	57.98	36.039	13.178	2.0214e-05	16.768	117.184	58.876	145.068	-4.237	168.057	128.132	-4.938	1.177	177.364	121.473	-0.467	4.661	7.276	12.269	123.206	8.260	-8191	255	
2918.357	1	1	0	0	0.18118	0.20696	0.12859	0.3274	0.18955	0.20677	0.094427	0.16927	0.34037	0.34065	0.042059	0.20103	0.34121	0.095902	0.083547	0.22861	-2.8583	-2.6333	-2.9792	-2.9104	-2.3937	-3.0667	-2.9854	-2.7	-3.1208	-2.7292	-2.8812	-2.9604	-2.6	-3.0563	-2.7896	-2.6792	127.163	239.302	26.209	341.547	7.005	92.849	5.107	3.924	181.153	87.162	7.394	269.643	219.339	161.822	324.640	174.168	0.00010524	0.00021457	8.3548e-05	344.69	9.7943e-07	2.4701e-06	451.56	120.03	2.7029e-06	3.7251e-06	146.46	46.069	34.308	12.82	2.571e-06	16.153	0.0011819	0.0018788	0.00053153	340.32	1.9674e-05	2.135e-05	442.86	119.46	1.9346e-05	2.0866e-05	147.35	56.968	35.781	13.031	1.9846e-05	16.57	144.205	119.900	210.676	-3.702	27.459	263.464	-4.960	1.585	38.700	-0.864	-0.407	4.996	7.221	11.776	246.833	7.909	-8191	255	
2918.453	1	1	0	0	0.098629	0.20626	0.37466	0.18586	0.11684	0.12343	0.11822	0.14795	0.099938	0.087302	0.25181	0.080439	0.2015	0.2384	0.3729	0.19712	-2.6063	-2.7042	-2.8688	-2.9521	-2.8458	-3.0563	-3.0104	-2.5292	-3.0896	-2.8146	-2.9833	-3.0938	-2.4833	-2.8438	-2.9083	-2.6375	6.470	93.696	29.953	335.774	23.280	275.216	-9.208	193.463	91.508	208.584	299.331	222.399	243.509	247.266	16.561	91.625	5.2881e-05	0.00013165	0.00010156	346.13	8.5936e-07	3.7753e-06	448.15	120.03	3.221e-06	3.1202e-06	145.53	46.915	34.552	12.86	3.4275e-06	16.237	0.0011501	0.0019093	0.0005379	341.28	2.0092e-05	2.1956e-05	443.46	119.97	2.0183e-05	2.1868e-05	147.81	57.984	36.024	13.115	2.0779e-05	16.64	158.240	242.658	292.515	-4.154	80.658	109.877	-5.100	1.281	104.708	97.922	-0.712	4.632	6.578	11.984	169.876	8.676	-8191	255	
2918.525	1	1	0	0	0.14158	0.22392	0.14927	0.088903	0.071821	0.15767	0.16495	0.13683	0.19556	0.12695	0.080269	0.068848	0.31121	0.23807	0.26379	0.14835	-2.6854	-2.7396	-2.8583	-3.0292	-2.6333	-3.0083	-2.95	-2.4125	-2.9229	-2.7708	-2.7375	-3.1625	-2.8083	-2.8729	-2.975	-2.4979	54.161	74.242	-14.894	283.424	284.860	273.676	275.332	278.975	6.567	284.081	254.821	172.945	245.551	26.646	283.974	257.867	0.00010281	0.00072805	0.00012169	344.04	8.0153e-07	3.5629e-06	450.31	119.75	2.152e-06	2.87e-06	150.76	46.854	34.438	13.022	1.3741e-06	16.244	0.0012071	0.0019637	0.00055066	340.63	1.9944e-05	2.1881e-05	444.89	120.24	2.0199e-05	2.1467e-05	150.01	57.987	36.149	13.212	2.0894e-05	16.773	168.081	79.575	141.163	-3.774	62.024	323.232	-4.888	1.652	137.806	159.500	-0.684	4.759	6.770	12.018	175.809	8.332	-8191	255	
2918.646	1	1	0	0	0.17049	0.3336	0.11104	0.13092	0.13699	0.097291	0.20857	0.11343	0.25076	0.26479	0.15559	0.024003	0.031062	0.075226	0.1085	0.25794	-2.5375	-2.7646	-2.7021	-3.0292	-2.6937	-2.8271	-3.0208	-2.5354	-3.0062	-2.9104	-2.6958	-3.1375	-2.8125	-2.625	-3.2896	-2.6188	218.621	239.574	67.688	208.270	343.260	10.539	257.688	26.044	119.854	278.681	22.774	254.307	237.286	296.652	81.533	280.658	9.0833e-05	0.00052094	6.7339e-05	345.04	1.9231e-06	2.2729e-06	453.94	121.5	4.1686e-06	5.0439e-06	152.73	48.072	34.634	12.961	4.3467e-06	16.559	0.0012166	0.0020352	0.00057841	343.23	2.068e-05	2.3097e-05	448.36	121.79	2.1698e-05	2.3496e-05	152.8	60.102	36.722	13.287	2.3174e-05	16.926	151.628	130.670	302.869	-3.694	55.212	140.896	-5.081	1.552	55.845	137.826	-0.783	4.313	7.004	12.268	101.562	8.085	-8191	255	
2918.742	1	1	0	0	0.1287	0.22281	0.12434	0.2452	0.021806	0.16778	0.079783	0.16372	0.080134	0.19745	0.24557	0.22839	0.036726	0.072849	0.18119	0.27014	-2.5479	-2.9583	-2.5438	-3.0438	-2.7167	-2.7229	-3.1167	-2.6792	-2.9562	-2.9354	-2.4792	-3.1542	-2.8417	-2.6917	-3.0083	-2.6021	246.171	325.097	232.962	147.078	218.229	298.255	144.648	216.632	130.229	214.287	268.669	110.677	49.272	21.637	259.665	262.464	8.7287e-05	0.00010905	7.1675e-05	345.23	2.1104e-06	5.3313e-06	451.29	118.68	2.2407e-06	3.4342e-06	147.18	47.259	34.232	12.731	2.1007e-06	16.25	0.0013148	0.0021367	0.00060134	342.84	2.1506e-05	2.4563e-05	445.75	120.2	2.196e-05	2.4352e-05	148.39	58.976	36.199	13.128	2.3772e-05	16.654	133.335	337.966	188.728	-3.867	34.411	156.573	-5.108	1.426	106.179	169.869	-0.441	4.236	7.770	11.825	190.516	8.345	-8191	255	
2918.838	1	1	0	0	0.17639	0.09524	0.16712	0.17304	0.22117	0.23407	0.21164	0.23853	0.30966	0.19692	0.10176	0.15722	0.075508	0.17475	0.25209	0.083016	-2.5604	-2.9313	-2.5604	-3.0417	-2.7625	-2.6646	-3.1896	-2.4854	-2.8167	-2.9896	-2.5208	-2.9021	-2.5812	-2.5083	-3.1333	-2.6146	8.738	87.569	7.494	229.066	227.583	-1.238	277.413	31.111	339.432	89.649	-2.924	242.353	-8.471	74.378	29.657	285.265	6.6432e-05	0.00028981	4.5571e-05	346.56	1.6334e-06	4.056e-06	447.65	119.78	5.6547e-06	9.1028e-07	147.54	46.905	33.979	12.802	4.5553e-06	16.162	0.0013654	0.0022324	0.00063747	342.77	2.2891e-05	2.5124e-05	443.78	120.17	2.3061e-05	2.4887e-05	148.34	59.162	36.074	13.152	2.3727e-05	16.637	168.690	237.978	199.927	-3.706	119.086	46.648	-5.104	1.335	6.291	229.008	-0.795	5.258	6.608	11.923	210.889	8.805	-8191	255	
2918.934	1	1	0	0	0.23822	0.24886	0.12507	0.16359	0.075386	0.23007	0.19287	0.17241	0.09117	0.30072	0.067351	0.062184	0.14519	0.10926	0.064972	0.10412	-2.5167	-3.0333	-2.6063	-3.0812	-2.7125	-2.5646	-2.9813	-2.8479	-2.725	-3.0563	-2.7208	-3.0583	-2.8688	-2.5479	-3.0583	-2.8229	262.360	170.795	293.063	220.911	246.809	267.596	293.843	301.613	269.686	13.196	56.060	83.192	65.047	259.059	63.824	154.895	4.2367e-05	0.00045492	0.00015669	344.5	1.7477e-06	2.7105e-06	447.05	119.74	7.7404e-07	1.7895e-06	147.8	47.959	34.254	12.817	1.0438e-06	16.424	0.0013509	0.0022327	0.00063304	342.75	2.2425e-05	2.5267e-05	444.5	120.39	2.3231e-05	2.5155e-05	149.04	59.624	36.459	13.185	2.3297e-05	16.816	171.266	-13.687	39.783	-3.523	330.164	94.677	-5.095	1.515	202.848	43.835	-0.724	4.884	7.210	11.854	122.411	8.528	-8191	255	
2919.053	1	1	0	0	0.15166	0.089547	0.32203	0.082922	0.063198	0.24688	0.25464	0.19289	0.20759	0.1118	0.1066	0.22287	0.099175	0.055333	0.1856	0.20184	-2.5083	-3.0312	-2.5979	-3.0062	-2.9146	-2.5687	-3.1854	-2.9437	-2.8	-3.1604	-2.8063	-2.9708	-3.0292	-2.6208	-2.8708	-2.8958	325.916	305.243	259.534	216.093	253.732	75.932	331.103	286.156	145.410	175.625	323.607	330.994	331.141	-9.268	250.545	85.745	6.6501e-05	0.00013787	0.00016393	344.31	1.5193e-06	1.5677e-06	452.79	120.37	2.785e-06	6.0778e-06	150.11	48.42	35.03	12.977	3.7896e-06	16.479	0.001354	0.0021947	0.00062274	342.1	2.2125e-05	2.4858e-05	446.4	120.75	2.2588e-05	2.4639e-05	151.23	59.524	36.8	13.24	2.288e-05	16.911	176.192	33.956	104.743	-4.129	265.125	229.561	-5.301	1.147	116.689	335.892	-0.774	5.150	6.942	11.715	176.111	8.850	-8191	255	
2919.149	1	1	0	0	0.1885	0.26546	0.088289	0.24552	0.25696	0.27466	0.049049	0.1039	0.13441	0.18337	0.063748	0.21066	0.12525	0.12099	0.12246	0.081286	-2.2062	-3.0396	-2.6271	-2.9854	-3.1104	-2.7917	-3.1125	-2.8542	-2.6875	-3.2667	-2.5604	-2.8667	-3.0208	-2.5917	-2.95	-2.8542	256.125	193.261	137.776	182.494	169.953	308.851	224.033	337.316	138.544	280.834	258.891	102.493	251.222	141.660	249.802	150.154	0.00014178	0.00023989	7.7376e-05	346.34	1.2216e-06	1.5872e-06	450.5	119.46	1.6433e-06	4.5767e-06	147.28	46.505	34.095	12.72	5.2199e-06	16.311	0.0013255	0.0021671	0.00059836	342.23	2.1658e-05	2.4015e-05	445.08	120.23	2.1857e-05	2.4021e-05	148.34	58.743	36.238	13.134	2.3073e-05	16.665	123.498	215.770	62.616	-3.870	108.790	129.919	-5.229	1.258	218.593	189.592	-0.721	4.649	6.664	11.871	77.908	8.354	-8191	255	
2919.221	1	1	0	0	0.19675	0.086628	0.10078	0.12046	0.089839	0.21644	0.32193	0.050991	0.4589	0.025822	0.15184	0.18463	0.1336	0.1375	0.26153	0.20307	-2.2458	-2.9583	-2.7083	-2.5625	-2.9771	-2.7396	-3.0312	-2.9583	-2.6854	-3.0833	-2.8271	-2.8458	-2.9	-2.5667	-2.8792	-2.9458	325.389	33.685	109.060	273.754	3.512	47.985	240.219	81.983	159.147	237.150	287.823	187.673	333.515	184.763	271.719	45.843	4.7508e-05	0.00014026	4.6017e-05	346.19	2.6052e-06	7.0941e-06	448.54	119.4	1.4303e-06	6.1329e-06	147.4	46.52	34.254	12.83	1.2794e-06	16.054	0.0013239	0.0021639	0.00060362	342.31	2.1805e-05	2.3766e-05	443.52	119.46	2.1643e-05	2.3913e-05	147.63	58.089	36.02	13.11	2.2021e-05	16.561	198.259	4.309	216.866	-3.815	74.537	171.502	-4.938	1.152	192.692	152.796	-0.442	5.987	7.038	11.726	341.671	8.632	-8191	255	
2919.319	1	1	0	0	0.20214	0.27727	0.088849	0.17791	0.24152	0.15423	0.19533	0.13332	0.080137	0.14106	0.16796	0.16558	0.030226	0.3511	0.072774	0.033824	-2.1604	-3.0167	-2.7292	-2.7188	-2.7896	-2.6042	-2.8187	-3.0917	-2.525	-2.8	-2.8354	-2.7042	-3.0271	-2.6375	-2.875	-3.0125	317.899	-15.670	89.794	190.214	211.508	217.284	267.114	325.474	301.591	55.634	277.363	241.842	111.828	75.445	217.759	304.247	8.3633e-05	0.00042666	0.00018981	345.93	3.3398e-06	5.0011e-06	453.53	119.42	4.0147e-06	5.6132e-06	147.87	46.619	34.788	12.909	3.616e-06	16.287	0.0012668	0.0021008	0.00059079	342.12	2.1664e-05	2.3621e-05	445.89	120.15	2.1853e-05	2.4541e-05	149.09	58.695	36.483	13.19	2.2325e-05	16.724	145.961	100.917	153.319	-3.534	236.180	167.431	-5.066	1.241	130.896	90.234	-0.690	4.962	7.403	12.200	146.712	7.900	-8191	255	
2919.438	1	1	0	0	0.11436	0.3688	0.28436	0.14292	0.080754	0.14842	0.2626	0.070081	0.30744	0.11752	0.1406	0.19276	0.12134	0.03391	0.091658	0.031304	-2.2917	-2.9021	-2.8438	-2.6833	-3.1146	-2.7042	-3.0708	-3.0229	-2.6958	-3	-2.975	-2.7042	-3.0042	-2.7271	-2.6813	-2.9667	49.870	128.709	336.763	245.881	99.060	325.570	280.849	326.205	259.417	96.534	284.671	227.781	110.310	63.339	125.463	284.093	0.0001132	0.00025342	0.00014896	344.39	5.7913e-07	8.5895e-06	454.05	120.22	3.6252e-06	1.6109e-06	151.5	47.868	35.118	12.908	2.3372e-06	16.515	0.0012971	0.0020537	0.0005752	342.85	2.1064e-05	2.3279e-05	447.44	121.24	2.1615e-05	2.3036e-05	151.92	59.705	37.04	13.259	2.161e-05	16.873	131.798	76.190	338.671	-3.417	69.320	143.822	-4.938	1.440	176.963	279.135	-0.520	3.863	7.047	12.084	192.765	8.783	-8191	255	
2919.534	1	1	0	0	0.21694	0.078873	0.098156	0.08701	0.075412	0.12889	0.17778	0.10621	0.22928	0.19054	0.18603	0.14964	0.11707	0.06656	0.12814	0.11203	-2.1542	-3.0729	-2.9354	-2.7292	-2.9125	-2.7125	-2.8125	-3.2417	-2.6125	-2.95	-2.9479	-2.5958	-2.8396	-2.6479	-2.8083	-2.9604	188.067	129.266	172.055	79.211	319.638	227.349	321.454	288.750	228.096	123.074	201.351	-16.469	144.663	304.526	126.035	-2.053	8.3149e-05	0.00043018	7.5309e-05	347.47	3.8207e-06	7.2151e-06	456.5	121.21	5.3509e-06	3.267e-06	149.1	47.065	34.608	12.877	3.9941e-06	16.345	0.001241	0.0020111	0.00057338	344.57	2.0399e-05	2.2425e-05	448.82	121.48	2.0687e-05	2.2114e-05	150.44	58.693	36.4	13.174	2.18e-05	16.678	109.040	89.311	299.065	-4.179	171.525	141.962	-4.831	1.382	132.106	143.937	-0.886	5.465	7.289	12.245	192.471	8.277	-8191	255	
2919.630	1	1	0	0	0.32941	0.21887	0.28214	0.27387	0.27108	0.21851	0.1885	0.27157	0.27537	0.026945	0.10415	0.15649	0.15767	0.15905	0.044435	0.11623	-2.0667	-2.9437	-2.8438	-2.6771	-2.9813	-2.6188	-2.6792	-3.1063	-2.7271	-2.7292	-2.9604	-2.8104	-3.0125	-2.9562	-2.6104	-3.2146	155.833	193.363	34.582	-8.179	292.663	-13.342	290.153	102.954	335.957	217.475	291.515	11.000	274.266	242.788	-9.317	238.848	6.4334e-05	0.00031747	0.00010297	345.18	3.5341e-06	4.5014e-06	452.11	118.76	5.0765e-06	3.7097e-06	147.57	46.767	34.018	12.822	1.9011e-06	16.075	0.0012567	0.0020649	0.00057769	342.59	2.0571e-05	2.2623e-05	444.95	119.81	2.0831e-05	2.2476e-05	148.29	57.914	35.975	13.088	2.1918e-05	16.566	114.499	41.328	-1.825	-3.513	123.675	248.170	-4.895	1.467	131.915	186.145	-0.939	4.920	7.014	11.604	32.151	8.427	-8191	255	
2919.750	1	1	0	0	0.097264	0.054144	0.054187	0.036295	0.21794	0.069521	0.16819	0.20948	0.10821	0.31218	0.318	0.070576	0.16759	0.21212	0.18228	0.19775	-2.2833	-2.8937	-3.0208	-2.5854	-3.1146	-3.0208	-2.7771	-3.0646	-2.8187	-2.6979	-2.9875	-2.6521	-2.9188	-2.8625	-2.3896	-3.0521	293.908	157.023	127.879	163.472	160.206	177.078	229.971	305.582	136.884	293.315	300.062	329.108	343.659	296.250	165.000	299.075	4.3394e-05	0.00046218	5.216e-05	346.21	3.2791e-06	4.8815e-06	451.88	120.49	5.0979e-06	5.3088e-06	147.29	46.732	34.384	12.883	4.5218e-07	16.254	0.0012454	0.002054	0.00057832	343.16	2.0425e-05	2.2561e-05	445.26	120.68	2.099e-05	2.287e-05	148.9	58.656	36.293	13.196	2.1977e-05	16.706	139.874	88.054	107.051	-3.676	177.783	121.534	-4.848	1.826	141.279	152.942	-0.719	4.787	7.346	12.462	153.810	7.736	-8191	255	
2919.822	1	1	0	0	0.20657	0.01625	0.23739	0.17166	0.30308	0.24525	0.06282	0.22593	0.13888	0.081554	0.23821	0.20728	0.34187	0.21686	0.26208	0.19604	-2.2646	-2.7146	-3.0167	-2.8125	-3.0083	-3.0521	-2.7625	-2.8958	-2.9146	-2.8	-3.2271	-2.7083	-2.8625	-2.8125	-2.5354	-2.9708	72.102	335.427	111.871	6.148	29.998	87.878	17.974	52.787	16.421	17.342	42.807	200.057	246.221	60.301	222.815	306.171	7.4421e-05	0.00058767	0.00010441	347.15	2.3849e-06	3.7385e-06	453.34	120.07	3.11e-06	1.3166e-06	150.24	48.28	34.896	12.912	1.3715e-06	16.415	0.0012631	0.0020832	0.00057986	343.39	2.087e-05	2.3484e-05	446.89	121.36	2.0791e-05	2.3123e-05	150.98	59.25	36.595	13.233	2.1162e-05	16.787	134.434	21.650	192.495	-3.514	100.418	136.022	-4.910	1.626	107.725	171.140	-0.485	5.479	7.418	11.909	257.058	8.604	-8191	255	
2919.918	1	1	0	0	0.098142	0.21336	0.18312	0.10957	0.033181	0.38467	0.15313	0.16605	0.17148	0.17715	0.27536	0.21895	0.1234	0.28862	0.060129	0.037853	-2.4229	-2.7208	-3.0771	-2.6917	-2.7854	-3.1437	-2.5812	-2.9625	-2.9646	-2.5812	-3.1208	-2.6021	-2.8854	-3.0667	-2.8083	-2.9708	9.209	276.713	-5.142	123.123	91.922	76.572	171.218	218.294	111.450	200.453	302.356	235.266	323.957	318.077	140.859	-4.547	6.2952e-05	0.00065819	9.8697e-05	348.38	1.2733e-06	3.6482e-06	456.9	121.07	1.863e-06	4.1274e-06	151.21	49.839	34.502	12.937	1.9405e-06	16.413	0.0012281	0.0020108	0.00055949	344.21	1.9998e-05	2.2066e-05	449.49	121.71	2.0501e-05	2.2509e-05	152.12	59.759	36.705	13.298	2.214e-05	16.773	125.006	12.201	68.110	-3.776	58.305	213.530	-4.894	1.353	198.684	168.745	-0.589	5.300	6.969	12.331	235.294	9.200	-8191	255	
2920.039	1	1	0	0	0.058966	0.19787	0.15828	0.24913	0.14616	0.16845	0.073333	0.065171	0.13783	0.21667	0.18601	0.25717	0.16023	0.22353	0.14369	0.32373	-2.4729	-2.6021	-2.8604	-2.6646	-2.7313	-3.0812	-2.6792	-2.8604	-3.0979	-2.5104	-3.1625	-2.7188	-2.5958	-3.2083	-2.6229	-2.9104	113.809	307.000	293.834	68.073	136.136	129.515	140.611	168.816	222.337	67.550	333.214	300.276	307.603	218.924	272.491	0.411	1.9587e-05	0.00046876	7.7411e-05	345.76	3.3109e-06	7.5461e-06	452.56	119.95	3.8954e-07	5.0356e-06	149.23	46.464	33.783	12.813	1.8122e-06	16.207	0.0012283	0.002094	0.00057784	343.23	2.0552e-05	2.2916e-05	445.26	120.45	2.1004e-05	2.3327e-05	148.5	58.054	35.931	13.133	2.158e-05	16.483	132.303	54.123	78.203	-3.675	143.540	238.080	-4.917	1.345	252.197	76.281	-0.834	5.177	6.858	12.098	148.415	8.137	-8191	255	
2920.133	1	1	0	0	0.22068	0.095306	0.20952	0.086777	0.13409	0.1544	0.12201	0.1544	0.14377	0.17111	0.16815	0.14219	0.20607	0.14834	0.12323	0.21173	-2.3229	-2.5354	-3.1104	-2.8042	-2.4875	-3.1875	-2.6021	-2.825	-3.0375	-2.45	-2.9583	-2.7708	-2.525	-3.1625	-2.5708	-2.7625	180.421	2.156	124.207	292.994	187.608	311.313	95.589	31.361	192.343	31.453	31.096	276.806	161.333	306.960	251.824	3.651	5.2301e-05	0.00051102	7.5198e-05	346.76	2.3172e-06	4.6104e-06	450.66	120.2	2.0503e-06	2.9292e-06	146.95	47	34.488	12.727	2.0553e-06	16.118	0.0012269	0.0020447	0.00056597	343.02	2.0644e-05	2.3034e-05	444.75	120.51	2.1291e-05	2.2935e-05	148.24	58.433	36.269	13.083	2.2025e-05	16.587	143.414	337.975	90.431	-3.886	168.464	227.148	-5.044	2.077	32.106	210.212	-1.116	5.276	7.326	12.130	119.760	8.672	-8191	255	
2920.229	1	1	0	0	0.1662	0.22014	0.14645	0.27145	0.1296	0.29868	0.14454	0.088315	0.056447	0.20097	0.24329	0.11924	0.1204	0.24968	0.19796	0.14901	-2.4896	-2.5792	-3.0104	-2.7167	-2.6833	-3.1437	-2.6292	-2.825	-3.0292	-2.7583	-3.0771	-2.8958	-2.8271	-3.1167	-2.6583	-2.9042	233.971	260.210	96.249	105.457	-15.011	58.042	-13.363	103.571	151.397	46.845	98.437	310.170	317.062	321.583	1.708	310.150	0.00010726	0.00034397	5.8785e-05	347.97	1.1124e-06	7.8593e-06	452.05	120.51	2.4073e-06	5.4219e-06	149.68	47.42	34.69	12.906	3.6716e-06	16.163	0.0012521	0.0020808	0.0005784	343.71	2.1314e-05	2.335e-05	445.57	121.14	2.1515e-05	2.326e-05	150.4	58.804	36.691	13.244	2.183e-05	16.74	155.797	291.236	259.881	-3.818	297.521	115.964	-5.000	1.219	190.327	203.842	-0.387	4.452	7.265	12.131	57.639	8.936	-8191	255	
2920.350	1	1	0	0	0.14687	0.10253	0.11534	0.25451	0.076743	0.11476	0.12623	0.2622	0.27113	0.157	0.046711	0.10418	0.25617	0.23137	0.28713	0.14135	-2.5729	-2.3646	-2.8833	-2.975	-2.5875	-3.0312	-2.925	-2.6458	-3.0938	-2.6813	-2.9417	-2.8688	-2.45	-2.8917	-2.8563	-2.7896	177.308	-9.508	187.155	266.695	61.091	267.583	229.929	282.069	297.713	56.222	10.845	64.678	316.517	-16.219	63.679	229.712	4.47e-05	0.00023194	4.4167e-05	350.69	9.8018e-07	2.4454e-06	453.85	121.76	1.3851e-06	9.4873e-06	153.05	48.113	34.866	12.98	3.8684e-06	16.567	0.0012732	0.0020958	0.00058429	346.17	2.1357e-05	2.357e-05	449.05	122.54	2.175e-05	2.3826e-05	153.75	59.984	37.223	13.376	2.2213e-05	16.978	155.310	113.796	31.754	-3.583	111.595	153.800	-5.106	1.537	293.492	213.628	-0.768	5.391	7.450	11.565	74.340	8.588	-8191	255	
2920.422	1	1	0	0	0.091959	0.066916	0.18885	0.16085	0.14224	0.27805	0.10028	0.081708	0.10565	0.15958	0.17227	0.049216	0.076847	0.18205	0.146	0.27942	-2.85	-2.775	-2.7625	-2.9646	-2.4729	-3.0854	-3.025	-2.6188	-3.1604	-2.575	-2.7646	-2.9167	-2.4458	-3.0146	-2.9708	-2.6229	132.816	140.130	41.154	291.457	42.867	200.993	33.539	340.590	193.962	76.428	335.285	125.907	195.283	146.388	76.787	295.669	9.166e-05	0.00051811	0.00014975	348.93	3.0762e-06	3.6262e-06	452.36	121.34	3.3969e-07	8.7932e-06	148.31	46.815	34.599	12.879	2.9801e-06	16.161	0.0012839	0.0021108	0.00058631	346.6	2.133e-05	2.3593e-05	447.54	121.43	2.1471e-05	2.3368e-05	149.32	58.622	36.411	13.218	2.25e-05	16.638	125.925	-0.628	135.029	-4.099	93.576	106.731	-5.157	1.528	44.986	137.710	-0.942	5.760	7.304	12.179	152.071	8.235	-8191	255	
2920.518	1	1	0	0	0.10341	0.10144	0.16677	0.35415	0.13986	0.20951	0.21646	0.20892	0.22292	0.16671	0.12921	0.104	0.20836	0.39207	0.076166	0.21724	-2.6333	-2.6354	-2.7938	-3.2104	-2.4854	-3.0208	-2.9625	-2.5062	-3.0687	-2.8833	-2.7167	-2.9542	-2.5333	-2.8958	-2.9958	-2.6083	205.626	102.355	85.529	64.461	170.976	283.698	68.740	251.348	92.413	16.294	211.811	195.060	198.125	250.828	335.476	248.066	6.5062e-05	0.00031092	0.00013894	349.1	6.8733e-06	1.5831e-06	452.9	119.85	2.6669e-06	4.1189e-06	147.58	47.1	34.321	12.834	4.1616e-06	16.169	0.0013004	0.0021677	0.00060236	345.84	2.1713e-05	2.408e-05	447.03	120.79	2.224e-05	2.3861e-05	149.01	58.412	36.362	13.2	2.3141e-05	16.615	141.567	212.231	122.223	-3.739	232.681	224.164	-4.789	1.639	274.119	139.349	-1.023	3.444	6.942	12.379	141.066	8.239	-8191	255	
2920.614	1	1	0	0	0.1807	0.22212	0.25265	0.11677	0.19618	0.11173	0.20824	0.19119	0.20645	0.11719	0.26474	0.17508	0.13042	0.18732	0.15404	0.075641	-2.6562	-2.9208	-2.6729	-3.1208	-2.5167	-3.0396	-3.0604	-2.7812	-2.9938	-2.8625	-2.6542	-3.0917	-2.5812	-2.8042	-3.1083	-2.5542	58.939	212.910	-4.345	172.430	201.673	47.198	261.757	274.462	337.429	178.133	244.547	18.101	85.349	326.541	82.819	110.485	9.8777e-05	0.00054742	6.8158e-05	346.91	3.8887e-06	6.9854e-06	454.11	120.26	1.4957e-06	6.1584e-06	150.19	47.446	34.6	13.026	1.3768e-06	16.269	0.0013389	0.0021812	0.00061803	345.75	2.2545e-05	2.4949e-05	447.97	121.35	2.2222e-05	2.4893e-05	150.67	59.43	36.765	13.33	2.3395e-05	16.776	145.880	106.602	189.325	-3.628	25.451	154.265	-5.019	1.095	282.708	139.701	-0.729	4.254	7.481	12.011	187.679	8.870	-8191	255	
2920.710	1	1	0	0	0.031667	0.19264	0.15199	0.16949	0.34458	0.25452	0.1198	0.085693	0.10529	0.26973	0.16886	0.22239	0.056923	0.092268	0.16798	0.12475	-2.5771	-2.7583	-2.5792	-3.1167	-2.6167	-2.7854	-2.9688	-2.3833	-3.0938	-2.9062	-2.4229	-2.9167	-2.7938	-2.4813	-2.9167	-2.5938	100.586	313.357	264.431	304.205	231.373	1.399	265.622	292.223	236.982	192.619	199.368	113.230	80.293	319.971	104.733	-7.826	8.0064e-05	0.00075387	6.4281e-05	346.83	4.9083e-06	3.1965e-06	452.73	121.79	1.8813e-06	2.8832e-06	151.55	48.034	35.156	13.072	1.8187e-06	16.462	0.0013476	0.0021799	0.00062338	345.21	2.1954e-05	2.4556e-05	449.22	122.68	2.2373e-05	2.4521e-05	152.53	60.082	37.114	13.441	2.334e-05	16.914	159.307	60.757	175.174	-3.824	57.507	79.534	-5.221	1.717	327.018	106.373	-0.676	5.527	7.483	11.960	153.911	8.646	-8191	255	
2920.831	1	1	0	0	0.14664	0.058257	0.061791	0.22261	0.046202	0.18537	0.022838	0.14662	0.20447	0.054753	0.14437	0.10841	0.16874	0.064054	0.13337	0.033975	-2.6	-2.7729	-2.6917	-3.1188	-2.8312	-2.8	-3.2792	-2.7146	-2.8833	-3.0938	-2.7271	-2.9792	-2.7896	-2.7229	-3.1375	-2.7354	297.380	251.788	295.750	194.273	51.631	4.711	16.660	150.354	274.960	36.065	-5.746	-15.156	185.631	275.162	285.566	336.067	8.8852e-05	0.00020656	0.00012315	348.74	3.1885e-06	2.0131e-06	454.17	121.41	1.4404e-06	3.5558e-06	148.69	47.977	34.33	12.958	3.9992e-06	16.087	0.0013459	0.0022314	0.00062522	346.33	2.2844e-05	2.4883e-05	449.42	122.05	2.2823e-05	2.4964e-05	149.95	59.28	36.544	13.312	2.3416e-05	16.603	143.077	333.005	86.664	-3.248	198.957	256.298	-4.896	1.443	-11.283	1.265	-0.889	4.459	7.148	11.822	228.344	8.305	-8191	255	
2920.927	1	1	0	0	0.21482	0.11702	0.17912	0.13377	0.21888	0.18819	0.24414	0.066449	0.18477	0.034464	0.19822	0.057633	0.21681	0.086625	0.1454	0.14963	-2.4917	-2.8771	-2.6146	-2.8083	-2.7875	-2.5938	-2.9875	-2.7146	-2.8521	-3.1333	-2.7479	-3.0208	-2.9104	-2.6125	-3.0792	-2.7	214.720	297.516	268.671	188.931	234.893	251.291	227.326	262.801	279.948	103.921	36.144	331.818	190.997	38.856	170.300	-2.942	3.9792e-05	0.00069913	5.1219e-05	345.86	4.9242e-07	1.0158e-06	450.52	120.62	1.2907e-06	4.7193e-06	147.86	46.645	34.526	12.862	3.9139e-06	16.032	0.0013415	0.0021857	0.0006241	345.04	2.2179e-05	2.4309e-05	446.6	121.22	2.2268e-05	2.4711e-05	148.8	58.665	36.545	13.212	2.3012e-05	16.552	139.782	121.654	222.214	-3.616	76.105	239.262	-5.009	1.629	182.055	203.929	-0.425	4.969	7.292	11.480	135.832	8.413	-8191	255	
2921.023	1	1	0	0	0.10053	0.14779	0.02658	0.26419	0.20439	0.20515	0.12416	0.11069	0.30035	0.10943	0.14647	0.19611	0.25211	0.10408	0.11122	0.077728	-2.2479	-2.9062	-2.6292	-2.8646	-3.0708	-2.6896	-3.025	-2.7667	-2.6875	-3.1	-2.7729	-3.1146	-2.9792	-2.6312	-3.2083	-2.8438	296.055	121.395	27.349	135.014	83.387	170.892	332.120	287.992	212.451	201.572	154.544	299.521	29.502	33.834	327.897	5.094	8.5994e-05	0.00082851	3.3882e-05	349.75	2.4228e-06	3.074e-06	453.63	121.39	3.2604e-06	2.3053e-06	147.93	47.288	34.652	13.013	3.9444e-06	16.119	0.0013069	0.002208	0.00060636	345.96	2.1984e-05	2.4306e-05	447.76	121.54	2.2124e-05	2.3769e-05	149.56	58.921	36.724	13.324	2.241e-05	16.651	142.868	30.292	27.762	-3.429	155.350	-1.401	-5.069	0.977	125.099	113.075	-0.488	5.038	7.453	11.620	173.706	8.493	-8191	255	
2921.119	1	1	0	0	0.29441	0.156	0.16372	0.22744	0.22658	0.19477	0.089467	0.065535	0.020043	0.25219	0.18274	0.15088	0.17569	0.16396	0.13839	0.15188	-2.3833	-3.0917	-2.65	-3.0667	-3.0021	-2.7729	-3.1833	-2.9708	-2.6896	-3.1042	-2.7021	-2.8458	-2.7562	-2.6271	-2.875	-2.9354	176.801	302.582	131.427	59.472	204.159	196.789	236.857	197.638	87.429	1.058	235.032	185.594	-12.864	89.823	135.562	-3.536	8.5808e-05	0.00042755	6.0315e-05	349.14	4.575e-06	1.7337e-06	455.03	122.58	1.7201e-06	1.8921e-06	151.99	48.377	35.3	13.032	1.4822e-06	16.421	0.0012936	0.0020883	0.00059338	347.26	2.1356e-05	2.3751e-05	450.08	122.43	2.1686e-05	2.3559e-05	152.24	59.61	37.161	13.351	2.1957e-05	16.866	137.136	158.108	26.429	-4.151	177.965	142.446	-4.802	1.256	127.659	95.009	-0.767	4.765	6.687	12.094	250.584	8.596	-8191	255	
2921.214	1	1	0	0	0.37045	0.13338	0.098696	0.061688	0.1512	0.1459	0.15692	0.26052	0.12065	0.069455	0.14929	0.072682	0.061211	0.14891	0.13696	0.067384	-2.1771	-3.2104	-2.6021	-2.7771	-3.0062	-2.4583	-3.0771	-3.1292	-2.525	-3.1104	-2.7542	-2.7062	-3.1292	-2.4542	-2.9854	-2.8271	266.329	273.038	299.362	186.717	82.281	314.506	234.069	300.640	281.021	309.636	251.317	273.479	73.302	289.437	210.473	148.155	7.2735e-05	0.00075678	0.00011649	350.79	3.4546e-06	2.9581e-06	456.94	122.05	4.9044e-06	4.009e-06	150.83	46.971	34.397	13.019	2.6642e-06	16.267	0.0012636	0.0020774	0.00058174	347.52	2.0963e-05	2.3005e-05	451	122.6	2.1445e-05	2.3001e-05	151.38	58.779	36.582	13.309	2.1745e-05	16.718	153.231	65.088	18.202	-3.695	243.320	209.327	-4.957	1.097	164.495	84.817	-1.038	4.387	6.529	12.328	251.633	8.356	-8191	255	
2921.312	1	1	0	0	0.028392	0.21276	0.32591	0.1685	0.17938	0.25574	0.026163	0.1673	0.22703	0.24313	0.23772	0.19262	0.048944	0.15762	0.11416	0.20267	-2.1229	-3	-2.7333	-2.6771	-3.0292	-2.8104	-2.9042	-2.9292	-2.7229	-2.8792	-2.65	-2.5062	-2.9125	-2.5792	-2.9	-2.8875	47.195	206.578	120.103	330.805	297.660	309.570	13.940	296.062	301.845	-2.044	213.026	-4.881	208.320	92.351	205.421	258.121	6.1378e-05	0.00011615	0.00010204	348.9	3.4479e-06	3.8257e-06	454.1	120.37	3.4141e-06	1.7007e-06	148.76	46.331	34.383	13.004	4.3922e-06	16.218	0.0012707	0.0020621	0.00056918	346.8	2.1015e-05	2.3083e-05	448.73	121.47	2.1424e-05	2.2416e-05	149.12	57.871	36.504	13.272	2.1673e-05	16.608	167.904	56.503	50.243	-3.809	167.533	197.390	-4.849	1.739	163.458	-13.480	-0.690	4.274	7.326	11.826	17.253	8.342	-8191	255	
2921.430	1	1	0	0	0.10376	0.087718	0.041654	0.22491	0.15074	0.23702	0.07685	0.13658	0.22804	0.21466	0.23212	0.14461	0.010794	0.13834	0.27005	0.18586	-2.1292	-3.0896	-2.7333	-2.5312	-3.0625	-2.6021	-2.7938	-2.9188	-2.5125	-3.0271	-2.9479	-2.6208	-3.1188	-2.7062	-2.7125	-2.9396	200.958	318.135	63.300	52.360	300.823	285.879	132.884	265.119	16.230	73.593	322.007	217.258	250.571	175.350	123.146	221.315	8.29e-05	0.00046024	8.0399e-05	350.76	2.7702e-06	3.2312e-06	453.6	122.32	2.2502e-06	3.7288e-06	150.41	47.323	34.888	12.96	1.3168e-06	16.232	0.0012439	0.0020217	0.00056611	347.18	2.0405e-05	2.2421e-05	448.35	122	2.084e-05	2.1965e-05	150.34	58.321	36.754	13.281	2.0765e-05	16.69	151.468	144.719	343.679	-3.050	-4.270	121.678	-5.165	1.773	196.928	253.882	-0.904	5.615	7.639	11.816	296.955	8.262	-8191	255	
2921.527	1	1	0	0	0.13515	0.11873	0.1221	0.18392	0.16301	0.20298	0.22345	0.10048	0.19831	0.11507	0.26674	0.15028	0.080945	0.2067	0.056701	0.23455	-2.2062	-2.8958	-2.9083	-2.6188	-3.0042	-2.7458	-2.6271	-3.1208	-2.6688	-2.8833	-2.8083	-2.5125	-2.925	-2.6375	-2.7208	-3.1937	-1.187	331.631	70.255	5.657	58.131	90.122	264.534	-0.936	-11.455	127.870	99.755	60.790	299.347	202.436	162.896	234.893	7.9366e-05	0.00052974	6.4932e-05	350.07	3.6849e-06	3.4079e-06	457.2	121.74	2.2691e-06	6.1475e-06	152.78	48.512	35.49	13.123	1.0518e-06	16.502	0.0011954	0.0019691	0.00054919	347.2	1.9731e-05	2.1569e-05	450.8	122.72	2.002e-05	2.1433e-05	153.24	59.365	36.997	13.399	2.0538e-05	16.876	151.703	92.635	57.060	-3.760	54.719	74.143	-5.171	1.828	101.781	194.071	-0.875	4.248	7.468	11.817	15.065	8.551	-8191	255	
2921.623	1	1	0	0	0.16604	0.090958	0.027842	0.22462	0.089562	0.19225	0.026272	0.25452	0.24889	0.21285	0.095216	0.13903	0.092076	0.20033	0.062256	0.095483	-2.3729	-2.7062	-2.8271	-2.5208	-3.025	-3.0417	-2.5854	-3.1458	-2.6521	-2.7292	-2.9396	-2.4271	-3.0146	-2.9062	-2.9521	-3.225	82.657	53.978	199.570	26.407	206.867	309.963	316.122	-10.150	255.085	187.580	209.429	100.317	-14.595	145.794	303.048	268.115	0.00010371	0.000151	0.00012071	352.62	4.9373e-06	6.5572e-07	459.67	124.07	1.7264e-06	5.4931e-06	154.14	49.013	35.781	13.12	1.7398e-06	16.49	0.0011554	0.0019014	0.00053095	348.5	1.8767e-05	2.0993e-05	453.34	124.13	1.89e-05	2.097e-05	154.67	59.254	37.184	13.363	1.919e-05	16.811	169.257	88.528	28.763	-3.740	210.412	54.097	-4.777	1.408	182.990	150.611	-0.549	4.103	6.796	11.965	111.259	9.224	-8191	255	
2921.719	1	1	0	0	0.08416	0.11712	0.19571	0.097878	0.41646	0.13101	0.21627	0.16633	0.14768	0.36798	0.10432	0.095822	0.23034	0.095307	0.15892	0.17848	-2.1854	-2.8458	-3.025	-2.4708	-2.9917	-2.9375	-2.7271	-2.9813	-2.5375	-2.8208	-2.9125	-2.5458	-2.9229	-2.975	-2.5354	-3.0875	285.736	112.072	51.805	-14.669	148.451	192.725	270.347	335.350	55.640	92.751	324.941	92.745	312.707	258.752	223.669	195.380	8.2675e-05	7.1913e-06	4.0937e-05	352.42	2.195e-06	4.0603e-06	456.24	122.97	3.88e-06	3.9058e-06	149.62	47.634	34.96	12.958	4.413e-06	16.221	0.0011161	0.0018304	0.00051745	346.61	1.8735e-05	2.099e-05	449.44	121.98	1.889e-05	2.0675e-05	149.91	57.565	36.352	13.227	1.9946e-05	16.568	107.427	323.190	31.232	-3.500	193.392	-1.892	-4.925	1.629	147.563	161.348	-0.899	5.152	6.854	12.103	210.669	8.144	-8191	255	
2921.815	1	1	0	0	0.051918	0.15751	0.17837	0.22803	0.13476	0.045136	0.24382	0.0072964	0.27891	0.22804	0.069368	0.12361	0.068426	0.25508	0.078288	0.24883	-2.3604	-2.7833	-2.925	-2.4604	-2.9188	-2.8917	-2.4396	-2.9083	-2.625	-2.6708	-3.1625	-2.5479	-2.7188	-2.8417	-2.4583	-2.7854	87.207	-8.659	80.810	293.096	117.724	130.658	226.804	243.164	160.584	51.194	176.615	164.829	334.768	311.292	226.042	256.247	9.1796e-05	0.00046826	0.00013222	350.77	2.7027e-06	4.8029e-06	455.51	121.19	3.7836e-06	9.9736e-06	150.14	48.285	34.903	12.995	3.3751e-06	16.364	0.0011223	0.0018696	0.00052035	345.47	1.8494e-05	2.0795e-05	449.42	121.37	1.9157e-05	2.1264e-05	150.6	58.079	36.594	13.323	2.0556e-05	16.74	147.007	185.489	122.134	-3.160	248.903	174.123	-5.259	1.405	227.977	150.843	-0.327	5.532	7.576	12.021	149.562	8.447	-8191	255	
2921.911	1	1	0	0	0.042359	0.061723	0.12768	0.12008	0.12398	0.048608	0.32597	0.18101	0.11071	0.058758	0.22409	0.044146	0.21631	0.12669	0.17378	0.22737	-2.2687	-2.7104	-3.025	-2.6792	-2.8208	-3.0208	-2.475	-3.0062	-2.8146	-2.5771	-3.0687	-2.7646	-2.8729	-3.0646	-2.5438	-2.9354	16.590	44.680	320.907	32.328	167.921	281.655	276.642	220.075	73.448	30.853	192.129	298.073	338.507	237.876	-6.948	267.458	6.2447e-05	1.3415e-05	4.1605e-05	351.16	2.3652e-06	6.5557e-06	457.2	123.41	1.2093e-06	4.3064e-07	153.27	49.484	35.533	13.185	5.6676e-06	16.569	0.0011658	0.0018904	0.00052214	347.42	1.882e-05	2.0826e-05	451.75	123.17	1.9273e-05	2.1443e-05	153.03	59.316	37.122	13.438	2.0776e-05	16.94	140.110	199.040	208.863	-3.436	178.650	220.663	-4.816	1.695	199.959	216.348	-0.424	4.257	6.941	11.937	130.763	8.082	-8191	255	
2922.032	1	1	0	0	0.11974	0.12721	0.17615	0.096986	0.28512	0.25988	0.081372	0.073195	0.13318	0.25397	0.15253	0.034288	0.2509	0.16999	0.12729	0.19891	-2.425	-2.5938	-3.0938	-2.6104	-2.7188	-3.0979	-2.6354	-2.9313	-2.8521	-2.4646	-2.9917	-2.8521	-2.6875	-3.0479	-2.6792	-2.9562	221.500	50.743	334.205	37.486	288.656	139.098	234.656	50.382	3.562	21.440	331.803	39.058	307.167	10.761	10.692	265.197	6.9742e-05	0.00017846	0.00016652	352.39	3.5987e-06	3.9265e-06	462.42	123.38	2.0754e-06	4.9461e-06	154.88	48.844	35.976	13.288	3.7014e-06	16.738	0.001182	0.0019326	0.00054919	350.15	2.015e-05	2.2055e-05	455.96	124.32	1.9576e-05	2.1438e-05	155.33	59.131	37.439	13.587	1.9424e-05	17.02	175.061	49.370	130.930	-3.682	180.178	-5.330	-5.405	1.553	97.439	31.320	-0.625	4.585	7.235	12.167	64.240	8.823	-8191	255	
2922.126	1	1	0	0	0.11309	0.1129	0.14594	0.19793	0.14141	0.091011	0.20392	0.079614	0.089816	0.1019	0.13093	0.16291	0.2424	0.11631	0.042615	0.25026	-2.4167	-2.4167	-2.9521	-2.5187	-2.6479	-3.05	-2.6729	-2.7854	-2.825	-2.5417	-3.0125	-2.6542	-2.5438	-3.1813	-2.4958	-2.8604	222.674	115.823	-8.402	228.835	247.738	230.428	212.965	263.136	131.684	31.061	96.506	98.914	182.666	265.542	189.596	57.746	6.4499e-05	0.00054542	0.00017577	357.18	1.5891e-06	2.8463e-06	462.03	123.65	2.3957e-06	4.6748e-06	150.94	47.386	35.196	13.144	1.5694e-06	16.548	0.0011264	0.0018881	0.00052038	351.72	1.9233e-05	2.1444e-05	454.92	123.44	1.9707e-05	2.1851e-05	151.53	58.476	36.832	13.431	2.0561e-05	16.836	146.502	323.566	66.328	-3.723	231.433	149.865	-5.026	1.291	327.485	279.873	-0.503	4.459	6.909	12.502	159.547	8.532	-8191	255	
2922.222	1	1	0	0	0.11404	0.091286	0.1314	0.062529	0.23189	0.12448	0.2202	0.16126	0.25895	0.18021	0.16993	0.35597	0.28964	0.03061	0.081664	0.10426	-2.5438	-2.5208	-3.0062	-2.7958	-2.4729	-2.7792	-2.8042	-2.7792	-2.8708	-2.6542	-3.0125	-2.8625	-2.5271	-3.0604	-2.7292	-2.6229	196.253	5.818	19.649	95.231	317.607	64.458	0.341	327.279	100.974	216.896	159.916	264.896	146.548	209.467	231.733	325.335	1.2429e-05	0.0003275	0.00010729	355.03	5.1631e-06	2.6224e-06	461.74	123.25	3.569e-06	7.4934e-06	153.76	48.117	35.317	13.306	4.4543e-06	16.49	0.0011658	0.0019205	0.00052585	351.8	1.9308e-05	2.103e-05	454.92	123.62	1.9716e-05	2.1098e-05	152.67	58.396	37.17	13.454	1.9888e-05	16.819	132.845	-6.733	108.609	-3.224	123.227	169.842	-4.846	1.411	171.297	143.710	-1.048	5.469	7.176	11.777	171.494	8.575	-8191	255	
2922.319	1	1	0	0	0.21691	0.18446	0.12622	0.088464	0.10424	0.055289	0.12783	0.15216	0.17563	0.061593	0.1485	0.18389	0.15661	0.070173	0.21658	0.19944	-2.4437	-2.6271	-2.9229	-2.9458	-2.5375	-2.9458	-2.8563	-2.8021	-3.0167	-2.6604	-2.8937	-2.9854	-2.5771	-2.8958	-2.6	-2.7812	164.844	227.059	288.108	322.879	258.360	226.798	267.179	78.370	91.164	304.120	279.186	328.820	85.947	143.762	83.965	24.156	7.5089e-05	0.00064131	5.3364e-05	358.52	2.2784e-06	3.5425e-06	467.71	125.13	1.2419e-06	3.9424e-06	155.18	49.048	36.106	13.301	3.6552e-06	16.735	0.0011431	0.0018481	0.00050497	353.94	1.8101e-05	1.9871e-05	458.22	125.03	1.7745e-05	1.9258e-05	154.65	58.185	37.352	13.485	1.8087e-05	17.022	92.695	87.967	53.486	-3.588	169.590	172.356	-4.895	1.489	178.149	59.427	-0.556	5.470	7.337	12.127	186.361	8.262	-8191	255	
2922.392	1	1	0	0	0.18769	0.18229	0.13246	0.29845	0.093194	0.07025	0.037438	0.28716	0.089546	0.17119	0.13288	0.21968	0.26478	0.11501	0.14447	0.27285	-2.5521	-2.5938	-2.7667	-2.8146	-2.5667	-2.9979	-2.9	-2.5021	-3.0958	-2.7667	-2.7125	-2.8729	-2.6312	-3.0729	-2.8333	-2.5917	13.542	218.470	152.418	234.845	101.670	336.664	43.238	323.097	305.082	192.445	224.823	122.781	332.790	256.023	-0.461	329.095	7.193e-05	5.9177e-05	5.9489e-05	360.86	1.5204e-06	3.6636e-06	474.1	126.29	2.0696e-06	2.7008e-06	158.05	51.096	36.074	13.449	9.5887e-07	16.895	0.001053	0.0017195	0.00048659	355.75	1.7918e-05	2.0191e-05	463.83	126.46	1.8077e-05	1.9676e-05	157.74	59.597	37.698	13.658	1.8325e-05	17.223	170.858	75.500	76.319	-3.847	160.219	117.651	-5.189	1.632	240.857	79.991	-0.688	5.443	7.073	11.853	275.287	8.470	-8191	255	
2922.511	1	1	0	0	0.12017	0.19158	0.092298	0.034081	0.027837	0.32257	0.21935	0.27074	0.23841	0.2438	0.16859	0.11354	0.10348	0.14409	0.12032	0.090119	-2.5875	-2.6958	-2.7458	-3.0417	-2.6958	-2.9292	-2.9	-2.5667	-3.0917	-2.6104	-2.7812	-3.175	-2.5479	-2.8604	-2.8729	-2.6604	-2.211	127.563	242.196	38.580	197.354	0.564	303.311	299.685	233.535	283.051	306.178	43.601	76.833	176.373	218.980	154.332	8.4436e-05	0.00014575	7.1368e-05	360.92	3.5766e-06	1.9041e-06	473.66	126.07	2.7485e-06	5.9882e-06	154.17	49.123	35.89	13.318	3.2103e-06	16.679	0.0010454	0.0017118	0.00047886	355.77	1.7599e-05	1.9275e-05	462.56	125.64	1.7919e-05	1.9424e-05	154.06	58.305	37.369	13.554	1.8372e-05	16.906	143.709	18.918	125.932	-3.487	338.996	294.278	-4.961	1.650	243.515	192.181	-0.808	4.210	7.402	12.566	155.883	8.384	-8191	255	
2922.607	1	1	0	0	0.10594	0.15227	0.09755	0.28111	0.17923	0.27266	0.072484	0.080811	0.15164	0.20724	0.2513	0.19047	0.047421	0.1815	0.13665	0.20284	-2.7354	-2.75	-2.6229	-3.1104	-2.5125	-2.9313	-2.8167	-2.45	-2.9667	-2.8292	-2.6937	-2.8417	-2.7687	-2.875	-2.8833	-2.525	279.543	48.232	-11.130	80.217	233.138	322.690	283.054	141.752	265.702	84.626	279.624	20.099	335.248	235.191	-3.200	35.138	5.8793e-05	0.00053029	0.00011583	358.85	3.532e-06	2.0503e-06	469.16	124.91	3.825e-06	2.759e-06	153.87	49.418	35.784	13.187	3.9626e-06	16.489	0.0010666	0.0017545	0.00047997	353.77	1.7399e-05	1.8889e-05	459.18	124.8	1.7346e-05	1.9353e-05	153.64	58.294	37.276	13.491	1.8618e-05	16.934	110.228	1.504	32.651	-3.529	79.054	280.677	-5.036	1.564	178.709	4.506	-0.823	4.989	7.604	11.943	233.418	8.475	-8191	255	
2922.703	1	1	0	0	0.11551	0.2215	0.19454	0.056308	0.042466	0.23422	0.19934	0.19485	0.11339	0.23709	0.2124	0.20426	0.27437	0.16088	0.11565	0.15216	-2.45	-2.7208	-2.6771	-3.0542	-2.6042	-2.8646	-2.9396	-2.6292	-3.0417	-2.9479	-2.3937	-2.9896	-2.8208	-2.775	-3.0083	-2.6833	216.017	290.923	290.214	314.985	243.610	339.793	300.953	222.511	78.982	38.039	320.295	215.714	256.593	122.918	47.245	68.720	5.8038e-05	0.00031302	0.00010224	363.49	2.7028e-06	5.5348e-06	470.28	127.36	4.4936e-06	2.6274e-06	158.51	49.966	36.821	13.435	2.9082e-06	16.881	0.0010667	0.0018062	0.00050659	357.53	1.8267e-05	2.0487e-05	462.52	126.64	1.883e-05	2.0647e-05	157.58	59.927	37.972	13.669	1.911e-05	17.112	145.734	1.988	86.602	-3.091	312.716	150.468	-5.141	1.463	254.544	172.146	-0.443	5.595	7.128	12.378	64.877	7.849	-8191	255	
2922.799	1	1	0	0	0.044883	0.16039	0.13994	0.038908	0.15344	0.14514	0.12003	0.2879	0.21252	0.14755	0.12293	0.069628	0.23395	0.28966	0.29132	0.20746	-2.5	-2.8208	-2.4688	-2.8438	-2.7479	-2.5812	-3.0812	-2.5563	-2.8208	-2.9792	-2.5375	-3.0479	-2.7771	-2.6521	-3.0333	-2.7146	69.206	270.788	147.576	-0.818	122.001	48.613	141.461	58.705	178.652	121.785	316.920	203.104	71.447	101.652	254.835	228.853	0.00011004	0.00028823	7.0255e-05	361.88	5.7668e-07	9.6175e-07	472.25	127.35	5.0825e-06	4.3563e-06	159.27	50.859	36.124	13.404	1.7905e-06	16.995	0.0010713	0.0017794	0.00049646	357.49	1.8051e-05	1.9793e-05	463.77	126.75	1.8272e-05	2.0005e-05	159.08	59.854	37.709	13.691	1.8424e-05	17.315	142.960	221.745	160.931	-3.654	327.594	336.022	-4.885	1.674	143.646	70.057	-1.106	5.142	7.235	12.627	37.567	8.810	-8191	255	
2922.920	1	1	0	0	0.28719	0.3566	0.14846	0.39159	0.33393	0.10982	0.24312	0.11038	0.31995	0.095832	0.38851	0.15578	0.10661	0.22798	0.14996	0.16161	-2.4167	-2.8896	-2.5333	-2.9708	-2.7458	-2.6875	-3.0833	-2.6521	-2.8042	-3.1625	-2.5542	-2.9292	-2.8708	-2.7188	-3.1896	-2.7125	22.277	295.548	46.980	342.999	318.054	171.084	158.317	-1.719	300.649	26.605	297.656	38.801	305.362	210.168	321.850	111.139	8.4681e-05	4.9744e-05	3.2168e-05	363.03	6.3034e-07	9.8955e-07	472.64	126.8	9.0745e-07	3.0197e-06	157.16	49.697	36.298	13.453	1.4022e-06	16.752	0.0010677	0.0017413	0.00048411	357.76	1.7186e-05	1.9255e-05	464.98	126.78	1.7802e-05	1.8993e-05	156.64	59.074	37.466	13.619	1.7857e-05	16.99	149.512	-5.306	104.657	-3.650	185.148	241.138	-4.879	1.778	120.567	165.339	-0.662	5.364	7.053	11.787	11.707	8.196	-8191	255	
2922.992	1	1	0	0	0.21142	0.2464	0.11847	0.1787	0.19485	0.26827	0.12593	0.30361	0.066762	0.074499	0.27336	0.14794	0.075556	0.10482	0.029278	0.22568	-2.4313	-3.0396	-2.6292	-2.9625	-2.8667	-2.7021	-2.8667	-2.7208	-2.7542	-3.1417	-2.5625	-2.9479	-2.7625	-2.5729	-3.0146	-2.6729	249.378	267.370	-15.025	41.900	63.976	62.378	195.908	12.341	225.988	140.027	230.835	341.684	3.701	113.564	89.599	-5.238	5.6252e-05	0.00052332	0.00016663	361.55	1.956e-06	2.4351e-06	469.5	124.93	3.5501e-06	2.2227e-06	154.98	48.403	35.905	13.243	1.5619e-07	16.786	0.0010383	0.0017034	0.00046868	355.41	1.7029e-05	1.8763e-05	461.37	125.14	1.7626e-05	1.8793e-05	154.05	58.513	37.247	13.52	1.8418e-05	16.919	141.770	84.026	74.958	-3.398	52.819	168.524	-4.892	1.474	146.886	207.306	-0.918	5.643	7.195	11.757	106.682	8.498	-8191	255	
2923.112	1	1	0	0	0.12569	0.1207	0.12639	0.24703	0.18119	0.074811	0.06762	0.28663	0.19189	0.19344	0.06662	0.16861	0.17966	0.30671	0.24161	0.18155	-2.0458	-2.9292	-2.6833	-2.7979	-2.8771	-2.5458	-3.0687	-2.7521	-2.6958	-2.9979	-2.7896	-2.8937	-3.0208	-2.2396	-3.0104	-2.6937	204.770	60.953	99.760	334.503	281.681	112.682	140.158	241.797	252.056	313.927	-3.935	98.241	162.318	155.890	229.155	45.578	7.4329e-05	0.00034036	0.00012508	359.05	2.9692e-06	2.7249e-06	466.93	126.01	3.6598e-06	2.4515e-06	154.81	49.632	36.447	13.247	1.2105e-06	16.858	0.0010988	0.0017739	0.00049786	355.53	1.8126e-05	2.033e-05	460.93	125.76	1.8157e-05	1.9534e-05	155.86	59.061	37.594	13.554	1.8094e-05	17.031	130.253	41.820	116.445	-3.295	97.795	63.728	-5.133	1.387	144.434	175.441	-1.049	4.844	7.393	11.799	295.376	8.639	-8191	255	
2923.207	1	1	0	0	0.18879	0.41717	0.18317	0.29572	0.050453	0.16379	0.23082	0.076286	0.23368	0.10867	0.15274	0.1428	0.16408	0.10658	0.19471	0.13137	-2.2229	-2.9125	-2.825	-2.6813	-2.7104	-2.5333	-3.1063	-2.8063	-2.5167	-3.0187	-2.7271	-2.5917	-3.0208	-2.3812	-2.8521	-2.6833	195.377	143.472	276.288	6.813	57.373	111.191	262.719	81.347	281.969	61.583	35.089	1.155	24.479	11.262	238.383	1.273	6.6007e-05	0.00029094	9.2387e-05	363.09	2.2217e-06	2.874e-06	472.45	126.76	2.369e-06	6.1453e-06	158.77	50.634	36.653	13.373	5.7302e-07	16.863	0.001062	0.0017074	0.00049688	356.87	1.7196e-05	1.8859e-05	465.16	126.41	1.8106e-05	1.954e-05	159.18	60.371	37.943	13.645	1.9085e-05	17.185	127.913	182.809	165.711	-3.410	163.290	307.501	-5.088	1.601	51.618	90.641	-0.775	5.553	6.659	12.020	97.522	8.825	-8191	255	
2923.303	1	1	0	0	0.12123	0.20141	0.083675	0.17624	0.10218	0.15995	0.062203	0.14361	0.12065	0.10033	0.16435	0.15298	0.15557	0.22294	0.018527	0.21456	-2.1188	-2.8771	-2.7125	-2.4292	-3.0667	-2.6104	-3.0062	-2.9208	-2.6625	-3.0062	-2.6042	-2.7708	-2.975	-2.5521	-3.05	-2.8771	41.330	-12.505	143.131	26.917	64.350	214.043	333.322	219.160	95.957	58.850	-13.888	243.316	5.216	276.655	107.392	166.943	6.5982e-05	0.00057554	0.00010088	360.4	4.4749e-06	1.8397e-06	477.13	128.21	2.472e-06	5.0485e-06	161.48	50.672	36.13	13.476	3.2266e-06	16.7	0.0011268	0.0017749	0.00050702	358.57	1.8246e-05	2.0288e-05	469.76	127.89	1.8744e-05	2.0323e-05	160.43	60.508	38.001	13.702	1.9503e-05	17.165	156.307	36.646	98.266	-3.514	93.129	157.792	-4.893	1.771	189.647	142.442	-0.855	5.396	7.132	12.211	137.889	8.539	-8191	255	
2923.399	1	1	0	0	0.071152	0.10368	0.13399	0.17674	0.10664	0.19728	0.18685	0.06026	0.11522	0.060681	0.28702	0.1109	0.20103	0.28657	0.025362	0.08832	-2.2167	-2.8333	-2.6521	-2.7333	-3.0458	-2.5	-2.8563	-2.9625	-2.4604	-2.9625	-2.8083	-2.5521	-2.8708	-2.7354	-2.7792	-2.7833	171.073	305.032	139.021	229.635	310.384	99.721	64.780	92.448	324.056	92.489	297.098	64.556	-13.628	86.690	32.066	25.712	8.7085e-05	0.00023303	0.00012986	362.37	1.803e-06	5.6487e-06	472.34	125.61	3.3482e-06	2.1228e-06	155.38	48.57	35.86	13.327	3.3116e-06	16.486	0.0011271	0.0017999	0.00051602	357.71	1.8206e-05	2.0243e-05	463.86	125.67	1.8086e-05	1.995e-05	155.55	58.854	37.572	13.596	1.9083e-05	16.898	150.235	180.061	78.480	-3.470	256.277	273.992	-5.192	1.666	113.549	205.328	-0.837	4.648	6.924	11.889	126.994	8.611	-8191	255	
2923.520	1	1	0	0	0.19361	0.1481	0.12916	0.1111	0.079751	0.082856	0.092339	0.24857	0.33768	0.055663	0.26607	0.073771	0.091107	0.21684	0.20075	0.30422	-2.1354	-2.8438	-2.8604	-2.6271	-2.9771	-2.8375	-2.5125	-3.2625	-2.7625	-2.9021	-3.1604	-2.4958	-2.9542	-2.7979	-2.675	-3.0479	23.220	243.736	118.997	239.761	113.779	140.755	270.728	166.173	97.948	305.919	-12.206	49.566	242.087	129.283	-3.771	140.793	7.6433e-05	4.1171e-05	0.00012106	365.33	3.3195e-06	6.7558e-06	472.67	126.26	2.7498e-06	4.8399e-06	157.78	49.429	36.323	13.369	2.5054e-06	16.769	0.0011042	0.0017524	0.0005031	358.63	1.7787e-05	2.0492e-05	464.97	126.31	1.8534e-05	2.0028e-05	157.34	59.918	37.75	13.641	1.9721e-05	17.102	146.425	-0.143	102.476	-3.548	163.119	135.787	-5.141	1.348	23.494	123.466	-0.810	4.145	7.407	12.435	180.486	8.694	-8191	255	
2923.591	1	1	0	0	0.058928	0.33533	0.11355	0.253	0.21037	0.1719	0.17584	0.1536	0.16285	0.024077	0.17173	0.18907	0.10999	0.15287	0.070356	0.14361	-2.1958	-2.9208	-2.975	-2.4313	-3.0021	-2.9	-2.8583	-2.9354	-2.575	-2.8667	-2.8458	-2.5062	-3.0833	-2.8479	-2.7438	-3.1854	222.749	119.515	329.318	300.712	182.138	40.740	311.647	265.959	157.519	22.347	269.970	132.335	82.790	-14.083	140.433	274.846	4.333e-05	4.3327e-05	8.6545e-05	361.27	1.941e-06	2.4441e-06	478.54	127.72	7.8295e-07	4.8351e-06	160.36	49.707	36.894	13.442	2.4676e-06	17.012	0.0011341	0.0018455	0.00051585	359.35	1.8513e-05	2.0639e-05	470.23	127.25	1.9122e-05	2.0557e-05	160.5	60.388	38.454	13.744	2.002e-05	17.313	143.479	53.769	63.396	-3.550	68.313	90.879	-5.062	1.643	114.051	152.424	-0.531	5.918	7.651	12.145	42.613	8.773	-8191	255	
2923.687	1	1	0	0	0.11768	0.084213	0.046746	0.30744	0.15237	0.086792	0.20815	0.17371	0.28413	0.22371	0.2879	0.21308	0.19448	0.13655	0.062242	0.28254	-2.0771	-2.7625	-3.0708	-2.4958	-2.8354	-2.8917	-2.7208	-3.0687	-2.6958	-2.8063	-3.0833	-2.5167	-2.9333	-2.7458	-2.525	-2.9313	25.931	339.789	76.673	232.089	-1.036	231.434	126.931	233.237	-16.253	7.767	23.696	84.005	187.381	6.316	48.977	-14.237	8.7508e-05	0.00050665	1.9726e-05	366.53	2.5321e-06	5.8401e-06	476.03	128.67	2.2283e-06	5.6711e-06	164.81	51.255	36.997	13.634	3.8697e-06	17.08	0.0011671	0.0019079	0.0005383	362.8	1.9986e-05	2.2077e-05	472.24	128.89	2.0647e-05	2.2383e-05	164.47	62.287	38.827	13.864	2.1502e-05	17.525	124.276	122.567	49.258	-3.638	120.133	83.354	-4.882	1.569	90.193	117.183	-0.934	6.034	7.586	12.726	38.524	8.934	-8191	255	
2923.808	1	1	0	0	0.32995	0.19744	0.28094	0.050309	0.17986	0.15927	0.22979	0.17567	0.022292	0.20703	0.085051	0.2736	0.15184	0.12957	0.099679	0.29926	-2.3104	-2.7042	-3.1271	-2.5146	-2.8667	-3.0167	-2.5687	-3.0521	-2.6792	-2.8	-2.9896	-2.3563	-2.7208	-2.8521	-2.4562	-2.9896	82.234	42.816	328.548	210.373	178.096	72.034	325.483	193.062	108.328	79.556	220.039	267.282	296.416	195.007	147.875	301.039	0.00010286	6.9293e-05	0.00012129	365.94	1.2493e-06	2.1326e-06	476.59	126.81	4.2119e-06	4.0417e-06	156.62	49.383	36.182	13.392	3.8266e-06	16.796	0.0012358	0.0020557	0.00056926	362.3	2.0972e-05	2.3287e-05	470.19	127.02	2.1399e-05	2.3593e-05	157.84	61.54	38.276	13.753	2.3371e-05	17.235	155.486	320.056	42.620	-3.443	216.722	134.833	-5.153	1.312	74.812	55.614	-0.308	5.012	7.054	12.265	214.346	8.565	-8191	255	
2923.904	1	1	0	0	0.20418	0.19831	0.22078	0.20465	0.058551	0.16085	0.13273	0.28844	0.13864	0.12965	0.12092	0.096749	0.17249	0.16427	0.32735	0.16639	-2.2396	-2.6417	-2.9604	-2.6396	-2.8542	-2.9708	-2.5896	-3.0583	-2.8708	-2.7167	-3.2021	-2.7146	-2.8854	-2.9208	-2.45	-2.9271	19.489	273.641	167.306	260.818	326.472	159.395	239.350	252.298	290.900	110.995	342.428	29.097	81.599	274.432	-2.493	318.153	7.1739e-05	0.00014102	2.6224e-05	364.48	4.2726e-06	3.3032e-06	474.75	125.54	3.8267e-06	2.2767e-06	156	49.328	36.133	13.322	2.6921e-06	16.775	0.0013349	0.0022148	0.00060116	361.85	2.1858e-05	2.417e-05	468.28	126.69	2.2094e-05	2.437e-05	157.49	61.05	38.122	13.713	2.3006e-05	17.251	151.591	29.789	284.229	-3.293	77.673	66.674	-4.756	1.824	202.264	181.174	-0.018	4.919	7.608	12.475	96.639	8.115	-8191	255	
2924.000	1	1	0	0	0.22739	0.21872	0.18804	0.11373	0.10912	0.114	0.31842	0.035727	0.13482	0.25591	0.12088	0.16747	0.31597	0.2396	0.16547	0.2163	-2.3333	-2.6375	-2.9458	-2.6854	-2.7167	-2.9146	-2.6333	-2.7062	-2.8104	-2.7292	-2.8521	-2.5479	-2.4771	-2.9958	-2.5146	-2.8604	150.867	86.227	278.201	11.570	-0.730	17.588	237.840	200.181	78.388	220.221	65.949	178.043	268.988	298.081	184.097	316.534	0.00010107	0.00054822	0.00012885	364.46	5.1176e-06	3.9952e-06	477.63	127.89	3.6924e-06	8.9061e-06	159.82	49.972	36.976	13.408	2.4163e-06	17.078	0.001294	0.0021523	0.00059367	361.75	2.1603e-05	2.3621e-05	469.93	127.5	2.1055e-05	2.3068e-05	159.83	61.216	38.391	13.71	2.0404e-05	17.349	126.250	74.470	155.273	-3.677	164.576	108.585	-4.826	1.514	205.645	266.049	-0.632	4.815	7.046	12.141	85.261	8.448	-8191	255	
2924.096	1	1	0	0	0.12559	0.30158	0.1908	0.24313	0.29256	0.22383	0.075146	0.044175	0.15202	0.32443	0.082618	0.28647	0.047018	0.17658	0.13455	0.0070056	-2.4604	-2.4542	-3.0625	-2.5417	-2.6042	-3.1729	-2.5896	-2.8	-2.9292	-2.4667	-2.9292	-2.7875	-2.6146	-2.9458	-2.4708	-2.7896	60.527	54.628	278.273	224.658	19.868	266.444	294.070	38.620	155.654	260.199	313.394	299.817	320.844	218.372	90.535	113.044	9.109e-05	0.00054684	0.00010458	367.93	1.1124e-06	3.4812e-06	478.69	128.75	2.8432e-06	5.6493e-06	162.77	51.989	36.831	13.606	4.2998e-06	17.071	0.0011334	0.0018225	0.000506	361.86	1.8529e-05	1.9796e-05	471.72	128.28	1.8347e-05	2.0097e-05	163.11	61.444	38.386	13.839	1.9481e-05	17.455	119.584	-4.695	142.185	-3.807	44.589	-15.206	-4.991	1.736	187.004	315.642	-0.418	5.186	7.585	11.584	139.119	9.132	-8191	255	
2924.215	1	1	0	0	0.031283	0.062652	0.13246	0.4393	0.080322	0.27589	0.22499	0.19896	0.15141	0.16827	0.079651	0.32512	0.15678	0.1982	0.22683	0.17227	-2.4396	-2.4729	-2.7583	-2.6562	-2.4625	-2.9229	-2.6437	-2.7854	-2.9292	-2.4875	-2.9146	-2.6417	-2.4083	-2.8771	-2.6542	-2.6292	31.803	223.502	207.161	179.736	304.609	261.140	223.954	263.356	227.123	93.442	312.367	13.662	286.465	27.380	125.783	272.881	8.1618e-05	0.00040996	1.8207e-05	369.27	3.3411e-06	6.1651e-06	484.42	129.17	2.0999e-06	3.4414e-06	159.83	50.331	36.401	13.502	1.4345e-06	17.024	0.0011041	0.001812	0.00050956	364.49	1.8802e-05	2.0605e-05	475.24	129.16	1.9224e-05	2.0859e-05	160.15	60.631	38.225	13.767	2.0397e-05	17.333	143.692	101.415	157.751	-3.503	267.035	99.032	-4.724	1.670	193.094	233.518	-0.822	5.219	6.545	11.676	178.328	8.697	-8191	255	
2924.287	1	1	0	0	0.14136	0.20031	0.11479	0.37039	0.311	0.11564	0.26418	0.038487	0.34152	0.041329	0.15984	0.12788	0.23623	0.2469	0.2586	0.22069	-2.5438	-2.525	-2.8229	-2.8667	-2.5896	-2.975	-2.8604	-2.6125	-2.9646	-2.6937	-2.8375	-2.8396	-2.4542	-2.9667	-2.6354	-2.5021	29.450	186.515	300.129	266.001	249.461	50.878	70.180	124.655	278.186	301.490	122.546	295.438	319.053	54.113	78.249	251.828	9.675e-05	5.9787e-05	3.2361e-05	367.58	3.4539e-06	3.7367e-06	481.4	127.46	2.8859e-06	2.5262e-06	158.29	50.15	36.459	13.241	2.5038e-06	16.806	0.0011539	0.0019191	0.00052909	363.39	1.8985e-05	2.0731e-05	471.24	127.77	1.9262e-05	2.1237e-05	158.29	60.352	38.12	13.655	1.9636e-05	17.194	143.381	238.144	229.854	-3.634	87.062	58.883	-5.134	1.612	282.834	87.844	-1.090	5.769	6.829	12.200	154.627	8.863	-8191	255	
2924.383	1	1	0	0	0.33363	0.19002	0.026171	0.14616	0.066558	0.10934	0.16928	0.057366	0.2021	0.21897	0.11776	0.16559	0.17128	0.071846	0.15607	0.20228	-2.5583	-2.4396	-2.8021	-2.9104	-2.5563	-3.0833	-2.8979	-2.6021	-3.1021	-2.6333	-2.825	-2.9	-2.4771	-3.0375	-2.7729	-2.7771	17.640	-10.392	337.650	256.966	211.695	259.433	128.840	20.329	112.741	296.995	130.068	260.269	329.185	188.936	254.911	169.036	8.0225e-05	0.00015026	0.00013906	369.46	2.2583e-06	8.3777e-07	481.14	129.43	1.1935e-06	4.3766e-06	160.98	50.756	36.689	13.515	2.2554e-06	17.039	0.0011141	0.0018042	0.00051029	364.11	1.8675e-05	2.0119e-05	473.3	128.38	1.8436e-05	1.9711e-05	160.44	59.986	38.26	13.773	1.8925e-05	17.318	115.117	27.065	52.393	-3.618	102.429	132.232	-4.861	2.011	92.976	128.936	-0.597	4.361	7.832	12.354	215.597	8.392	-8191	255	
2924.479	1	1	0	0	0.23316	0.21368	0.088147	0.14619	0.044812	0.12359	0.12554	0.11607	0.096225	0.059437	0.12933	0.20282	0.1114	0.085427	0.37178	0.15235	-2.4333	-2.7146	-2.8	-3.1125	-2.5042	-3.0625	-3.0396	-2.5229	-3.125	-2.6083	-2.8917	-3.05	-2.5583	-2.9271	-3.0333	-2.6271	88.436	-6.032	70.460	271.186	-7.490	228.144	183.364	27.201	58.413	34.241	282.931	196.712	142.628	68.610	163.201	289.341	3.9723e-05	0.00030446	6.4235e-05	369.88	3.1887e-06	4.9512e-06	484.3	129.61	3.1092e-06	1.1679e-06	163.47	50.423	36.876	13.641	6.3073e-06	17.027	0.0010986	0.0017833	0.00050511	365.56	1.8151e-05	2.0082e-05	475.2	129.1	1.8328e-05	1.9486e-05	163.33	60.607	38.51	13.819	1.8817e-05	17.426	113.285	273.960	307.761	-3.401	186.036	240.071	-5.451	1.952	143.028	150.931	-0.339	4.635	7.371	12.634	160.179	8.813	-8191	255	
2924.600	1	1	0	0	0.11651	0.12383	0.14962	0.074915	0.19153	0.049353	0.071757	0.071163	0.13257	0.16233	0.32126	0.20874	0.14909	0.097789	0.16134	0.17879	-2.6979	-2.7771	-2.4417	-3.0146	-2.5604	-3.0604	-3.0417	-2.5792	-3.0021	-2.7458	-2.7396	-3.0333	-2.4708	-2.8312	-3.0563	-2.4583	237.754	277.824	57.451	139.131	213.227	274.789	281.145	254.849	84.833	90.454	338.392	293.773	316.955	263.137	148.849	189.582	7.0146e-05	0.00043715	3.0726e-05	370.32	6.2465e-07	2.5905e-06	484.96	131.01	2.0853e-06	5.9982e-06	164.99	51.696	37.04	13.573	1.4995e-06	16.986	0.0010705	0.0017308	0.00049053	365.98	1.7517e-05	1.9203e-05	479.29	129.88	1.785e-05	1.9214e-05	164.33	61.059	38.527	13.813	1.8383e-05	17.369	160.524	127.454	172.797	-3.426	176.112	35.703	-5.254	1.455	148.492	218.513	-0.582	4.024	7.258	12.183	303.987	8.414	-8191	255	
2924.696	1	1	0	0	0.12001	0.23921	0.060081	0.10618	0.048866	0.095672	0.11524	0.31376	0.10727	0.14164	0.35596	0.073481	0.17638	0.038229	0.18062	0.1209	-2.5938	-2.8125	-2.6125	-3.0958	-2.7417	-2.7687	-3.1229	-2.4854	-3.1208	-2.7854	-2.7188	-2.9021	-2.8479	-2.8	-3.0375	-2.5833	125.899	157.453	332.169	282.699	38.522	275.896	258.750	193.908	255.596	39.652	206.262	63.647	316.736	44.606	297.096	293.123	6.5733e-05	0.00028154	8.5262e-05	370.74	3.5543e-07	8.3413e-07	478.74	128.57	2.6998e-06	4.8339e-06	160.8	50.418	36.687	13.457	3.6874e-06	16.793	0.0010519	0.0016812	0.00047792	365.31	1.7115e-05	1.8893e-05	473.43	128.07	1.7635e-05	1.97e-05	159.87	59.86	38.003	13.747	1.793e-05	17.176	146.453	170.672	154.672	-3.470	141.839	221.028	-4.942	1.878	277.707	167.648	-0.477	5.849	7.327	12.310	111.388	8.912	-8191	255	
2924.792	1	1	0	0	0.14915	0.1098	0.052122	0.18296	0.088409	0.35435	0.11994	0.10586	0.065642	0.27701	0.15075	0.16551	0.34082	0.21096	0.36165	0.14474	-2.4896	-2.9167	-2.7146	-2.9479	-2.8187	-2.7271	-3.0292	-2.5333	-2.8312	-3.0125	-2.6437	-2.8917	-2.6729	-2.7375	-3.1375	-2.5354	338.135	333.276	291.127	125.199	104.864	16.533	132.937	231.640	123.637	292.112	232.810	311.294	43.417	211.939	272.785	72.315	0.00010731	0.00031682	6.6431e-05	371.79	2.6496e-06	1.2837e-06	485.95	130.02	2.608e-06	3.714e-06	162.1	49.669	37.139	13.642	1.6677e-06	17.018	0.0010594	0.0017501	0.00048243	365.15	1.7258e-05	1.9504e-05	475.97	129.17	1.7426e-05	1.9086e-05	162.07	60.233	38.387	13.769	1.7519e-05	17.349	161.166	301.113	79.352	-3.688	144.198	292.962	-4.879	1.797	133.995	59.023	-0.574	4.411	6.974	12.331	132.377	8.956	-8191	255	
2924.888	1	1	0	0	0.14651	0.095373	0.070562	0.076378	0.16223	0.11317	0.19299	0.37451	0.10591	0.2612	0.12484	0.077936	0.11403	0.38521	0.24053	0.048943	-2.3458	-2.8854	-2.4437	-2.8063	-2.6542	-2.6688	-3.3	-2.5875	-2.6562	-2.9938	-2.4583	-2.9354	-2.8438	-2.525	-2.9875	-2.6063	188.987	198.635	207.610	212.032	307.254	320.466	55.214	46.729	99.216	112.698	225.832	-10.330	329.265	311.170	258.538	340.237	7.9419e-05	0.00035903	4.305e-05	372.8	1.2597e-06	4.5104e-06	487.85	131.04	2.3985e-06	2.5709e-06	167.35	50.894	37.517	13.68	2.0193e-06	17.352	0.0010233	0.0016544	0.00046895	366.65	1.7138e-05	1.8708e-05	479.57	130.47	1.7561e-05	1.8781e-05	166.23	60.949	38.545	13.874	1.7678e-05	17.566	139.073	118.069	163.839	-3.440	186.584	129.882	-4.997	1.760	97.777	111.055	-0.594	6.175	7.366	12.497	76.451	8.650	-8191	255	
2924.985	1	1	0	0	0.13862	0.14745	0.3083	0.073051	0.17824	0.11039	0.23634	0.12871	0.053443	0.18892	0.03095	0.094004	0.19114	0.17374	0.18148	0.29553	-2.3167	-2.8604	-2.5458	-2.9625	-2.8521	-2.5917	-3.0917	-2.775	-3	-3.0354	-2.6833	-2.9417	-2.95	-2.5625	-3.0812	-2.7542	33.225	267.194	133.320	7.836	311.184	165.754	320.926	298.483	268.518	277.437	103.257	262.080	238.672	22.192	264.133	299.675	6.8851e-05	9.9944e-05	0.0001058	372.19	3.9781e-06	5.1928e-06	492.79	132.31	4.189e-06	4.0895e-06	172.13	51.827	37.705	13.737	4.2116e-06	17.507	0.0010313	0.001667	0.00046119	368.44	1.6887e-05	1.8591e-05	483.01	132.08	1.6548e-05	1.8515e-05	171.38	61.381	38.97	13.939	1.7796e-05	17.664	143.708	44.214	73.228	-3.331	144.244	94.005	-4.720	1.733	147.082	97.687	-0.915	6.349	7.253	12.141	171.853	8.839	-8191	255	
2925.081	1	1	0	0	0.12259	0.13765	0.16043	0.12461	0.27853	0.12754	0.21522	0.2026	0.046216	0.13219	0.16089	0.14834	0.21019	0.074706	0.14608	0.19131	-2.3104	-3.0479	-2.6562	-2.6667	-2.8083	-2.5333	-2.9792	-2.8271	-2.7938	-3.1729	-2.6458	-2.7375	-2.975	-2.6333	-3.1813	-2.8021	49.931	161.326	103.028	245.085	244.571	99.425	271.272	174.281	5.325	-3.509	91.770	63.752	199.790	297.845	118.610	302.841	4.5042e-05	0.00042713	0.00013365	374.81	9.3949e-07	4.8776e-06	490.27	130.11	3.7955e-06	1.7218e-06	162.51	50.951	37.147	13.478	4.3165e-06	17.125	0.0010083	0.0016608	0.00046275	368.05	1.6536e-05	1.8605e-05	479.97	130.08	1.6829e-05	1.8127e-05	162.71	60.371	38.278	13.761	1.7514e-05	17.396	155.217	154.677	69.854	-3.500	233.994	75.571	-5.141	1.737	45.076	272.026	-0.604	4.185	7.312	12.478	177.908	8.262	-8191	255	
2925.201	1	1	0	0	0.11173	0.16784	0.12056	0.2683	0.38771	0.20617	0.36642	0.52806	0.11717	0.22549	0.09342	0.18243	0.17815	0.24117	0.099574	0.14236	-2.2917	-3.0458	-2.6146	-2.6146	-2.9479	-2.6312	-3.0708	-2.8667	-2.5583	-3.1188	-2.6146	-2.7417	-2.8542	-2.4813	-2.95	-2.8792	331.067	275.825	109.622	283.150	76.515	-6.721	310.082	84.286	304.813	222.549	181.966	-3.370	134.702	315.213	80.819	311.867	9.6896e-05	0.00043002	9.5886e-05	375.19	2.3108e-06	4.1772e-06	484.4	129.31	2.8845e-06	2.9873e-06	163.84	50.926	37.095	13.595	4.1996e-06	17.244	0.0010175	0.0016491	0.00046992	368.24	1.6685e-05	1.849e-05	477.91	129.08	1.6835e-05	1.8038e-05	163.21	60.249	38.507	13.788	1.7304e-05	17.421	137.156	50.666	76.946	-3.675	83.299	189.452	-4.678	1.853	101.966	134.758	-0.698	4.775	7.771	12.437	201.935	8.879	-8191	255	
2925.296	1	1	0	0	0.20933	0.10978	0.18436	0.20016	0.1657	0.11435	0.30679	0.17578	0.22876	0.1807	0.14471	0.072282	0.10551	0.15765	0.056715	0.43215	-2.2687	-3.0896	-2.6375	-2.5667	-2.875	-2.4396	-2.8333	-2.7729	-2.4021	-3.2438	-2.9021	-2.7833	-2.9333	-2.65	-2.8125	-2.8333	88.201	309.553	298.116	101.590	-0.652	175.564	198.960	5.202	22.720	128.184	338.268	256.165	15.748	285.167	94.490	294.520	0.00010018	7.5673e-05	9.5603e-05	373.33	3.3383e-06	2.2466e-06	486.87	129.98	2.1138e-06	6.8373e-07	166.62	52.399	37.9	13.727	3.2554e-06	17.281	0.001042	0.0016652	0.00046075	366.79	1.6937e-05	1.888e-05	479.65	129.93	1.667e-05	1.8046e-05	165.93	60.896	38.839	13.832	1.7465e-05	17.571	142.999	68.972	79.183	-3.782	144.353	199.920	-5.217	1.745	220.380	325.368	-0.686	5.002	8.300	12.222	183.314	8.480	-8191	255	
2925.392	1	1	0	0	0.20438	0.10442	0.18646	0.095785	0.12043	0.22632	0.16766	0.15238	0.057725	0.075022	0.12381	0.21129	0.091706	0.18486	0.10796	0.047556	-2.2542	-2.9479	-2.7375	-2.8812	-3.125	-2.7083	-2.8521	-2.8083	-2.6271	-3.0417	-2.9104	-2.4062	-2.9854	-2.6208	-2.7604	-2.9792	167.023	172.785	336.189	60.149	231.005	220.807	331.254	9.042	207.737	-5.715	185.213	23.350	314.472	300.996	-11.333	146.743	9.7855e-05	0.00025263	0.00010463	373.9	3.9969e-06	4.4448e-06	491.22	131.86	3.5836e-06	4.9975e-06	171.71	52.53	37.499	13.576	4.1664e-07	17.36	0.0009978	0.0016453	0.00045711	368.1	1.6778e-05	1.8234e-05	483.74	131.17	1.7426e-05	1.8534e-05	169.65	61.637	38.758	13.891	1.7641e-05	17.715	123.405	67.411	72.992	-3.946	83.998	252.697	-5.147	1.872	43.100	180.483	-1.085	5.495	7.314	12.064	131.615	8.362	-8191	255	
2925.512	1	1	0	0	0.16081	0.059876	0.11324	0.16408	0.045753	0.0069198	0.1494	0.13071	0.13421	0.12642	0.12624	0.05357	0.21692	0.15897	0.12548	0.023214	-2.1833	-2.7792	-2.8229	-2.6042	-3.1229	-2.7021	-2.8812	-2.9021	-2.6125	-2.9354	-2.9979	-2.575	-2.9479	-2.4771	-2.6562	-3.0229	96.662	59.802	309.049	19.885	284.376	21.167	9.778	75.913	56.302	32.340	100.595	116.365	218.643	42.450	168.777	162.725	7.2274e-05	0.00052926	6.9972e-05	375.34	1.2931e-06	2.0091e-06	488.13	130.23	9.0699e-07	3.0844e-06	163.97	51.209	37.055	13.595	3.4969e-06	16.976	0.0010099	0.0016382	0.00045257	368.31	1.6557e-05	1.8435e-05	480.91	130.12	1.6919e-05	1.8121e-05	163.02	60.071	38.393	13.754	1.7436e-05	17.344	158.346	57.374	83.993	-3.568	-15.062	67.808	-5.003	1.726	61.491	18.199	-0.484	4.419	6.824	12.058	81.735	8.431	-8191	255	
2925.584	1	1	0	0	0.1651	0.096236	0.19586	0.37427	0.14744	0.11475	0.20162	0.13652	0.37975	0.17663	0.26801	0.13576	0.10942	0.084057	0.21416	0.12724	-2.2562	-3.0292	-3.0292	-2.475	-2.9521	-2.7792	-2.8208	-3.2125	-2.6417	-2.7604	-2.9813	-2.4188	-3.1021	-2.8333	-2.6729	-3.0208	-7.656	-5.978	86.657	265.464	-15.006	93.982	238.426	317.802	293.094	83.343	90.895	40.334	196.715	277.122	27.622	199.046	6.4726e-05	0.00049765	4.7401e-05	369.49	3.0091e-06	1.6407e-06	485.79	129.22	3.0166e-06	2.7957e-06	162.09	50.683	36.844	13.469	1.595e-06	17.023	0.00099559	0.0016242	0.00046461	366.08	1.6308e-05	1.8452e-05	477.45	128.86	1.7217e-05	1.8515e-05	161.28	59.876	38.388	13.772	1.7386e-05	17.338	171.253	74.404	27.028	-3.508	137.181	229.578	-4.985	1.939	232.066	321.130	-0.777	5.681	7.136	12.511	163.934	8.946	-8191	255	
2925.679	1	1	0	0	0.065057	0.14872	0.21882	0.28439	0.11274	0.069111	0.090132	0.095204	0.16691	0.23067	0.19738	0.10027	0.052209	0.19817	0.1956	0.4183	-2.3	-2.7958	-3.1604	-2.4917	-3.0479	-2.6875	-2.7396	-3.0708	-2.8375	-2.825	-3.0083	-2.5438	-2.8979	-2.9562	-2.5958	-3.1063	208.652	150.420	177.269	5.365	5.164	245.214	235.533	150.393	149.160	63.237	1.302	248.541	151.265	186.634	35.365	258.822	8.1805e-05	0.00081255	0.00012116	372.57	3.4693e-06	1.8269e-06	487.87	130	2.7154e-06	2.4415e-06	164.9	51.052	37.306	13.52	1.9116e-06	17.191	0.0010233	0.0016539	0.00046798	367.55	1.6614e-05	1.869e-05	479.87	129.86	1.7264e-05	1.859e-05	164.67	60.584	38.467	13.843	1.7668e-05	17.49	179.191	62.382	103.537	-3.469	174.798	104.211	-4.864	1.913	93.187	40.481	-0.835	5.928	7.044	12.533	160.622	8.819	-8191	255	
2925.775	1	1	0	0	0.1548	0.35519	0.28022	0.027369	0.040203	0.18638	0.28954	0.1054	0.23003	0.24853	0.15903	0.12295	0.15195	0.10224	0.1686	0.12342	-2.3333	-2.6042	-3.0667	-2.5458	-2.9375	-3.1063	-2.6958	-3.0938	-2.7812	-2.8229	-3.0042	-2.4417	-3.0563	-2.8729	-2.5896	-2.8854	188.381	170.221	167.980	57.765	-2.294	229.812	265.706	179.014	11.673	157.812	69.990	133.331	158.716	216.903	31.028	115.950	0.0001041	0.00067389	2.0831e-05	373.15	1.7614e-06	3.2749e-06	489.5	130.6	5.9261e-07	6.1549e-06	168.92	51.581	37.639	13.628	1.9477e-06	17.396	0.0010238	0.0016483	0.0004733	367.65	1.7191e-05	1.912e-05	482.79	130.77	1.7074e-05	1.8864e-05	168.17	61.419	38.874	13.892	1.8189e-05	17.693	136.479	7.218	143.835	-3.703	115.431	126.948	-4.851	1.998	-15.097	183.235	-0.371	5.020	8.083	12.181	144.188	8.323	-8191	255	
2925.895	1	1	0	0	0.19385	0.22018	0.2447	0.19283	0.19573	0.11234	0.18719	0.068557	0.045846	0.18045	0.26548	0.3195	0.18087	0.11963	0.12031	0.24398	-2.2938	-2.6333	-3.0208	-2.4958	-2.8458	-2.9917	-2.5625	-2.9208	-2.7083	-2.6354	-3.0375	-2.5958	-2.8021	-2.9625	-2.6688	-3.0917	78.190	111.619	335.472	72.068	329.893	243.031	245.806	13.448	125.246	240.751	200.397	114.768	73.124	339.132	18.684	114.485	7.407e-05	0.0004346	0.00010095	374.91	4.7827e-06	2.6786e-06	490.78	132.01	3.6795e-06	2.9877e-06	166.63	51.836	37.794	13.661	4.1187e-06	17.292	0.0010581	0.0016706	0.00047357	368.71	1.7436e-05	1.88e-05	483.06	131.49	1.7181e-05	1.884e-05	165.53	60.732	38.816	13.853	1.8269e-05	17.58	127.526	109.490	109.231	-3.377	178.672	181.220	-4.979	1.833	119.860	267.671	-0.855	5.889	7.848	12.258	115.472	8.677	-8191	255	
2925.991	1	1	0	0	0.18839	0.26792	0.20685	0.071892	0.29178	0.067312	0.21333	0.10565	0.14084	0.068425	0.27101	0.22738	0.50727	0.078077	0.14211	0.12442	-2.4667	-2.6104	-3.1333	-2.6708	-2.8729	-2.8542	-2.6167	-2.9458	-2.7958	-2.6875	-3.3479	-2.7021	-2.6979	-2.8979	-2.5312	-2.925	63.076	160.727	140.659	37.727	21.149	260.743	146.295	87.049	104.686	-7.032	318.074	208.178	-15.289	80.886	220.334	258.286	9.8119e-05	0.00018782	0.00016728	371.38	2.4743e-06	6.4577e-06	485.7	129.27	7.9985e-07	4.4748e-06	163.43	50.49	37.259	13.434	2.2095e-06	17.233	0.0010566	0.0016893	0.00047611	367.05	1.7358e-05	1.9055e-05	479.78	129.59	1.725e-05	1.8581e-05	162.59	60.261	38.439	13.758	1.8086e-05	17.453	150.687	111.466	113.191	-3.432	241.212	249.471	-5.076	1.853	104.720	64.349	-0.717	5.265	7.688	12.359	127.935	8.433	-8191	255	
2926.088	1	1	0	0	0.09385	0.23788	0.16251	0.04283	0.0514	0.066629	0.21944	0.095485	0.15543	0.37965	0.1108	0.26919	0.32639	0.32515	0.25125	0.23701	-2.4062	-2.5917	-3.1021	-2.8438	-2.7625	-3.0771	-2.5625	-2.9354	-2.7625	-2.5604	-2.9583	-2.7521	-2.5438	-3.0542	-2.5375	-2.8333	332.639	233.034	204.352	-5.783	19.793	58.534	258.870	184.940	56.433	112.606	77.459	301.439	272.928	296.437	318.267	322.479	3.9698e-05	0.00046957	0.00014137	374.49	2.7728e-07	4.826e-06	492.68	130.79	1.5448e-06	4.6797e-06	166.97	51.923	37.454	13.749	4.0878e-06	17.29	0.0010282	0.0016816	0.00047006	368.57	1.7087e-05	1.8613e-05	482.73	130.6	1.7335e-05	1.9156e-05	165.63	61.157	38.764	13.915	1.8235e-05	17.595	161.703	72.427	50.051	-3.661	242.522	122.245	-5.214	1.611	334.087	124.388	-0.544	4.881	7.189	12.703	97.209	8.683	-8191	255	
#DATA ENDS
