BOXY.EXE: ISS Imagent and Oximeter Data Acquisition Program Version 0.80
Ascii Record File

#ACQ INFORMATION
2  Detector Channels 
16  External MUX Channels 
1  Auxiliary Channels 
5000  Waveform (CCF) Frequency (Hz)
1  Waveforms Skipped 
30  Waveforms Averaged 
1  Cycles Averaged 
16  Acquisitions per Waveform 
10.0806  Updata Rate (Hz) 

#FILE INFORMATION
TRUE -- External MUX Channel results are PARSED.
FALSE -- AC DC and Phase are NOT grouped.
TRUE -- Companion Program Settings File CREATED.
FALSE -- AC data not excluded
FALSE -- DC data not excluded
FALSE -- Phase data not excluded
FALSE -- Auxillary Chn. data not excluded
Tab delimiters

#CALIBRATION STATE
TRUE -- Waveform Calibration Values APPLIED.


#AUX CALIBRATION VALUES
Val Type	aux-1	

Term	1.0000e+00	
Factor	0.0000e+00	


#WF CALIBRATION VALUES
A = Detector Channel
Val Type	A-AC1	A-AC2	A-AC3	A-AC4	A-AC5	A-AC6	A-AC7	A-AC8	A-AC9	A-AC10	A-AC11	A-AC12	A-AC13	A-AC14	A-AC15	A-AC16	A-DC1	A-DC2	A-DC3	A-DC4	A-DC5	A-DC6	A-DC7	A-DC8	A-DC9	A-DC10	A-DC11	A-DC12	A-DC13	A-DC14	A-DC15	A-DC16	A-Ph1	A-Ph2	A-Ph3	A-Ph4	A-Ph5	A-Ph6	A-Ph7	A-Ph8	A-Ph9	A-Ph10	A-Ph11	A-Ph12	A-Ph13	A-Ph14	A-Ph15	A-Ph16	

Term	0.00000e+00	0.00000e+00	0.00000e+00	0.00000e+00	0.00000e+00	0.00000e+00	0.00000e+00	0.00000e+00	0.00000e+00	0.00000e+00	0.00000e+00	0.00000e+00	0.00000e+00	0.00000e+00	0.00000e+00	0.00000e+00	0.00000e+00	0.00000e+00	0.00000e+00	0.00000e+00	0.00000e+00	0.00000e+00	0.00000e+00	0.00000e+00	0.00000e+00	0.00000e+00	0.00000e+00	0.00000e+00	0.00000e+00	0.00000e+00	0.00000e+00	0.00000e+00	0.00000e+00	0.00000e+00	0.00000e+00	0.00000e+00	0.00000e+00	0.00000e+00	0.00000e+00	0.00000e+00	0.00000e+00	0.00000e+00	0.00000e+00	0.00000e+00	0.00000e+00	0.00000e+00	0.00000e+00	0.00000e+00	
Factor	1.00000e+00	1.00000e+00	1.00000e+00	1.00000e+00	1.00000e+00	1.00000e+00	1.00000e+00	1.00000e+00	1.00000e+00	1.00000e+00	1.00000e+00	1.00000e+00	1.00000e+00	1.00000e+00	1.00000e+00	1.00000e+00	1.00000e+00	1.00000e+00	1.00000e+00	1.00000e+00	1.00000e+00	1.00000e+00	1.00000e+00	1.00000e+00	1.00000e+00	1.00000e+00	1.00000e+00	1.00000e+00	1.00000e+00	1.00000e+00	1.00000e+00	1.00000e+00	X	X	X	X	X	X	X	X	X	X	X	X	X	X	X	X	

B = Detector Channel
Val Type	B-AC1	B-AC2	B-AC3	B-AC4	B-AC5	B-AC6	B-AC7	B-AC8	B-AC9	B-AC10	B-AC11	B-AC12	B-AC13	B-AC14	B-AC15	B-AC16	B-DC1	B-DC2	B-DC3	B-DC4	B-DC5	B-DC6	B-DC7	B-DC8	B-DC9	B-DC10	B-DC11	B-DC12	B-DC13	B-DC14	B-DC15	B-DC16	B-Ph1	B-Ph2	B-Ph3	B-Ph4	B-Ph5	B-Ph6	B-Ph7	B-Ph8	B-Ph9	B-Ph10	B-Ph11	B-Ph12	B-Ph13	B-Ph14	B-Ph15	B-Ph16	

Term	0.00000e+00	0.00000e+00	0.00000e+00	0.00000e+00	0.00000e+00	0.00000e+00	0.00000e+00	0.00000e+00	0.00000e+00	0.00000e+00	0.00000e+00	0.00000e+00	0.00000e+00	0.00000e+00	0.00000e+00	0.00000e+00	0.00000e+00	0.00000e+00	0.00000e+00	0.00000e+00	0.00000e+00	0.00000e+00	0.00000e+00	0.00000e+00	0.00000e+00	0.00000e+00	0.00000e+00	0.00000e+00	0.00000e+00	0.00000e+00	0.00000e+00	0.00000e+00	-1.23800e+02	-1.29605e+02	-1.18317e+02	-1.81384e+02	-6.66720e+01	-6.49322e+01	-1.54429e+02	-1.62015e+02	-6.47790e+01	-5.86214e+01	-1.69550e+02	-1.78216e+02	-1.82278e+02	-1.75921e+02	-6.55031e+01	-1.48295e+02	
Factor	1.82523e-05	2.02462e-04	5.46020e-05	1.59639e-01	1.48313e-06	2.22676e-06	1.61345e-01	6.10527e-02	1.51134e-06	2.21112e-06	9.03854e-02	2.02187e-01	4.85540e-02	9.32913e-03	1.59883e-06	1.33881e-02	1.11608e-05	1.90474e-05	5.34503e-06	8.05254e-02	1.92326e-07	2.14060e-07	7.69818e-02	3.09569e-02	1.94649e-07	2.13805e-07	4.45233e-02	1.01031e-01	2.48173e-02	4.77762e-03	2.01464e-07	6.64615e-03	X	X	X	X	X	X	X	X	X	X	X	X	X	X	X	X	



#DISTANCE SETTINGS
A = Detector Channel
A-1	A-2	A-3	A-4	A-5	A-6	A-7	A-8	A-9	A-10	A-11	A-12	A-13	A-14	A-15	A-16	

2.5000e+00	3.0000e+00	2.5000e+00	3.0000e+00	2.0000e+00	3.0000e+00	1.5000e+00	3.0000e+00	3.0000e+00	3.0000e+00	3.0000e+00	3.0000e+00	3.0000e+00	3.0000e+00	1.5000e+00	3.0000e+00	

B = Detector Channel
B-1	B-2	B-3	B-4	B-5	B-6	B-7	B-8	B-9	B-10	B-11	B-12	B-13	B-14	B-15	B-16	

1.0000e+01	1.0000e+01	1.0000e+01	1.4400e+00	1.0000e+01	1.0000e+01	1.5100e+00	1.9400e+00	1.0000e+01	1.0000e+01	1.9900e+00	2.4900e+00	2.4100e+00	2.9000e+00	1.0000e+01	2.9800e+00	




#DATA BEGINS
time	group	step	mark	flag	A-AC1	A-AC2	A-AC3	A-AC4	A-AC5	A-AC6	A-AC7	A-AC8	A-AC9	A-AC10	A-AC11	A-AC12	A-AC13	A-AC14	A-AC15	A-AC16	A-DC1	A-DC2	A-DC3	A-DC4	A-DC5	A-DC6	A-DC7	A-DC8	A-DC9	A-DC10	A-DC11	A-DC12	A-DC13	A-DC14	A-DC15	A-DC16	A-Ph1	A-Ph2	A-Ph3	A-Ph4	A-Ph5	A-Ph6	A-Ph7	A-Ph8	A-Ph9	A-Ph10	A-Ph11	A-Ph12	A-Ph13	A-Ph14	A-Ph15	A-Ph16	B-AC1	B-AC2	B-AC3	B-AC4	B-AC5	B-AC6	B-AC7	B-AC8	B-AC9	B-AC10	B-AC11	B-AC12	B-AC13	B-AC14	B-AC15	B-AC16	B-DC1	B-DC2	B-DC3	B-DC4	B-DC5	B-DC6	B-DC7	B-DC8	B-DC9	B-DC10	B-DC11	B-DC12	B-DC13	B-DC14	B-DC15	B-DC16	B-Ph1	B-Ph2	B-Ph3	B-Ph4	B-Ph5	B-Ph6	B-Ph7	B-Ph8	B-Ph9	B-Ph10	B-Ph11	B-Ph12	B-Ph13	B-Ph14	B-Ph15	B-Ph16	aux-1	digaux	

2784.432	1	1	0	256	0.13262	0.24155	0.097747	0.37572	0.26032	0.19534	0.1376	0.087597	0.14758	0.15282	0.11034	0.05253	0.19274	0.22032	0.19305	0.060379	-2.6271	-2.5958	-3.0312	-2.9229	-2.6667	-3.1646	-2.8042	-2.8312	-2.9958	-2.6333	-3.0979	-2.875	-2.7875	-3.2313	-2.7271	-2.8875	30.528	38.450	26.095	221.347	126.746	175.987	-12.393	122.998	70.842	-53.843	-34.178	240.173	-59.407	-48.610	73.616	102.014	0.00015524	0.00039213	0.00013076	612.27	1.8376e-06	4.9808e-06	662.22	220.52	1.9084e-06	2.8641e-06	287.8	95.757	84.323	28.341	3.1421e-06	47.102	0.00017674	9.115e-05	2.4275e-05	591.42	1.1524e-06	9.5881e-07	645.05	215.38	1.0535e-06	9.8439e-07	279.88	98.711	82.163	28.113	1.1013e-06	46.343	188.722	8.861	3.581	-76.318	59.574	67.922	-77.078	-70.700	34.557	43.859	-72.328	-68.650	-65.972	-62.078	64.300	-64.093	-8191	255	
2784.528	1	1	0	0	0.051383	0.1318	0.31529	0.19161	0.11198	0.10767	0.10833	0.21048	0.072027	0.08563	0.18727	0.027113	0.12499	0.041615	0.25431	0.19763	-2.5708	-2.7208	-3.0687	-2.9292	-2.6583	-3.2729	-2.9792	-2.8958	-3.1208	-2.6125	-3.1854	-3.1167	-2.6854	-3.1896	-2.6729	-2.6917	157.576	196.868	176.752	189.988	-58.512	183.567	216.834	107.957	-62.826	40.465	216.256	178.818	-83.465	189.990	212.205	-63.002	0.00016097	0.000438	0.00010801	615.06	3.0908e-06	3.8547e-06	669.28	220.56	1.2217e-06	3.0548e-06	290.82	97.132	84.436	28.612	1.9808e-06	47.717	0.00017076	9.5078e-05	2.4654e-05	594.84	1.2121e-06	8.4019e-07	649.95	216.18	1.1067e-06	8.4275e-07	282.96	99.552	82.931	28.33	1.1018e-06	46.942	191.333	-15.462	-11.993	-76.062	55.583	62.410	-76.933	-70.474	36.578	59.009	-72.172	-68.218	-65.771	-61.980	47.010	-63.956	-8191	255	
2784.649	1	1	0	0	0.16261	0.19425	0.21109	0.17262	0.071257	0.12807	0.10309	0.31185	0.074988	0.289	0.27947	0.098668	0.16562	0.19946	0.028272	0.24091	-2.6667	-2.6688	-2.9917	-3.175	-2.6688	-3.2146	-3.1104	-2.8354	-3.1667	-2.7854	-3.0271	-3.0708	-2.5938	-2.9667	-2.9042	-2.8646	106.084	69.805	230.427	249.775	138.607	242.526	255.629	-80.404	212.611	223.369	93.675	266.464	258.252	145.582	101.891	143.132	0.00016011	0.00031557	0.00010028	612.52	2.1611e-06	3.119e-06	669.88	222	2.2528e-06	5.3009e-06	288.39	95.562	84.616	28.275	2.0546e-06	47.084	0.00017934	9.611e-05	2.1146e-05	593.47	1.1127e-06	8.3305e-07	650.61	216.4	1.0864e-06	1.012e-06	281.3	98.847	82.354	28.156	1.0703e-06	46.358	190.493	1.943	16.708	-76.335	44.038	66.533	-77.078	-70.638	30.051	68.370	-72.478	-68.550	-66.026	-61.879	72.556	-63.714	-8191	255	
2784.721	1	1	0	0	0.1799	0.10294	0.049121	0.14844	0.32815	0.16572	0.38428	0.30949	0.12599	0.13744	0.13392	0.26451	0.21196	0.24903	0.10017	0.064619	-2.7917	-2.5792	-2.7833	-3.0833	-2.4542	-3.1208	-2.9354	-2.6292	-3.0708	-2.8042	-2.8771	-3.0104	-2.5896	-2.9917	-2.8396	-2.6854	257.845	173.245	168.982	181.064	258.612	28.701	184.831	246.851	17.284	148.763	179.621	-59.975	266.050	216.264	-87.387	268.762	0.00016347	0.00036357	9.6623e-05	611.4	1.9451e-06	4.476e-06	659.02	218.25	2.2856e-06	3.8574e-06	284.92	94.982	83.65	28.245	3.0867e-06	46.471	0.00017367	8.9919e-05	2.3941e-05	589.73	9.9729e-07	8.9192e-07	640.76	213.4	1.1107e-06	8.2449e-07	276.64	97.564	81.456	27.911	1.1001e-06	45.832	192.389	-0.898	20.740	-76.362	74.210	47.568	-77.091	-70.652	36.012	59.937	-72.162	-68.444	-65.891	-61.796	57.607	-63.977	-8191	255	
2784.841	1	1	0	0	0.046215	0.076401	0.057832	0.13345	0.1288	0.10798	0.17934	0.23282	0.31003	0.11206	0.19264	0.11271	0.09156	0.15721	0.17921	0.14117	-2.6542	-2.7917	-2.6729	-3.2292	-2.6646	-3.025	-3.0021	-2.6854	-3.0417	-2.7958	-2.8104	-3.1125	-2.5938	-3.0938	-2.9292	-2.5479	130.251	-28.575	-57.314	109.162	266.393	-14.702	258.663	124.862	61.080	-76.740	85.132	159.676	59.745	197.047	100.377	131.538	0.00015948	0.00037157	9.2496e-05	607.09	1.975e-06	3.0479e-06	657.59	218.07	1.4e-06	2.9339e-06	282.99	93.656	82.592	28.313	2.1543e-06	46.709	0.00017032	8.4999e-05	2.4019e-05	586.87	1.0931e-06	8.8211e-07	639.63	212.94	1.0677e-06	9.1179e-07	276.68	97.297	81.242	27.935	1.0602e-06	45.987	191.956	-7.472	-2.991	-76.285	63.731	79.117	-76.815	-70.537	34.656	57.035	-71.924	-68.072	-65.813	-61.562	65.226	-63.752	-8191	255	
2784.937	1	1	0	0	0.19996	0.019805	0.11223	0.059171	0.22767	0.24688	0.14445	0.089009	0.22277	0.11814	0.3514	0.18467	0.22685	0.10641	0.092924	0.24228	-2.6417	-2.7646	-2.7	-3.1854	-2.8125	-2.9688	-3.1396	-2.6292	-3.0375	-2.8917	-2.7229	-3.1167	-2.6625	-2.9792	-3.1188	-2.7042	237.537	214.222	-75.238	-79.201	254.028	-7.664	198.768	-70.925	207.158	72.489	227.864	227.877	14.261	189.910	-72.603	-43.403	0.00015473	0.00041262	9.142e-05	606.99	1.8018e-06	4.9185e-06	655.55	215.86	1.2251e-06	3.2123e-06	281.46	94.714	83.27	28.331	1.673e-06	46.436	0.00017634	8.5118e-05	2.3863e-05	585.21	1.0562e-06	8.6293e-07	636.82	211.15	9.6351e-07	8.6457e-07	274.82	97.568	81.474	28.011	9.9137e-07	45.986	193.544	-2.441	1.964	-76.178	49.501	54.287	-77.205	-70.615	63.240	49.120	-71.938	-68.820	-66.154	-61.796	71.241	-63.995	-8191	255	
2785.032	1	1	0	0	0.33401	0.21366	0.17434	0.075255	0.038334	0.06806	0.32206	0.036907	0.10473	0.23086	0.17567	0.18259	0.066876	0.046456	0.23932	0.20198	-2.3688	-2.9854	-2.4	-3.0875	-2.6771	-2.8542	-3.125	-2.5833	-2.875	-3.0187	-2.5604	-3.1354	-2.7083	-2.7812	-3.1688	-2.8417	180.961	164.935	36.367	144.857	181.137	251.233	254.028	234.041	36.108	133.781	154.373	-82.321	144.266	-49.443	26.577	253.620	0.00016542	0.00041953	8.9526e-05	599.37	2.1597e-06	3.2728e-06	653.94	215.28	1.7679e-06	3.368e-06	284.29	96.024	83.277	28.197	2.4153e-06	46.688	0.00017332	9.6546e-05	2.5901e-05	579.14	9.9248e-07	8.5981e-07	636.4	210.86	1.1136e-06	8.3607e-07	276.71	98.209	81.279	27.967	9.5527e-07	45.967	190.673	1.355	0.993	-76.010	32.390	46.892	-76.745	-70.475	53.299	64.426	-72.189	-69.286	-66.088	-61.859	60.285	-63.868	-8191	255	
2785.128	1	1	0	0	0.36094	0.17827	0.057048	0.19143	0.19123	0.10306	0.27631	0.31268	0.096431	0.20859	0.14945	0.20173	0.11215	0.16861	0.035209	0.12226	-2.5	-2.9542	-2.4833	-3.2646	-2.8917	-2.7625	-3.1729	-2.7062	-2.8896	-3.0667	-2.7354	-3.0146	-2.9271	-2.6417	-3.1396	-2.7438	-3.365	-1.735	-51.255	261.479	249.885	176.779	158.324	266.087	23.097	97.698	148.159	-38.368	108.062	-54.490	-16.483	243.631	0.00014974	0.00039724	7.2472e-05	606.52	2.533e-06	4.1233e-06	659	217.12	1.5431e-06	2.9831e-06	282.21	93.427	82.198	28.18	1.5124e-06	46.528	0.00016864	8.6824e-05	2.6825e-05	586.28	1.0466e-06	8.6338e-07	639.33	211.9	1.1334e-06	8.5611e-07	274.43	96.745	80.689	27.833	8.9651e-07	45.7	195.597	-6.480	9.446	-76.103	80.451	72.721	-76.638	-70.560	44.422	66.455	-72.201	-68.612	-65.597	-61.966	42.307	-64.077	-8191	255	
2785.249	1	1	0	0	0.084086	0.083107	0.35542	0.079875	0.1406	0.031261	0.26159	0.14227	0.22521	0.036862	0.18855	0.3033	0.16868	0.053097	0.14783	0.22454	-2.3542	-3	-2.3021	-3.1437	-2.9729	-2.6208	-3.2146	-2.8854	-2.6917	-3.1937	-2.7229	-3.1354	-2.9958	-2.6146	-3.2188	-2.8104	122.637	-4.936	-4.860	67.488	221.932	132.423	173.464	119.640	-52.457	8.702	191.647	191.402	-62.043	253.645	70.029	248.570	0.00015567	0.00039815	9.7299e-05	605.04	2.427e-06	3.4041e-06	657.16	217.37	2.4823e-06	3.605e-06	281.32	95.233	83.008	28.35	2.5036e-06	46.579	0.00016937	8.23e-05	2.2572e-05	586.05	1.0606e-06	9.9137e-07	637.05	212.15	1.0799e-06	9.1223e-07	274.11	97.457	80.881	28.055	9.5737e-07	45.94	193.867	3.045	9.480	-76.200	42.979	66.678	-76.823	-70.847	47.326	52.774	-72.258	-69.072	-66.231	-61.715	64.461	-63.963	-8191	255	
2785.345	1	1	0	0	0.1066	0.20058	0.11678	0.18289	0.13337	0.09626	0.25319	0.21834	0.1801	0.18773	0.42041	0.077906	0.22406	0.040826	0.046879	0.20792	-2.2812	-3.0521	-2.5604	-3.0125	-2.9688	-2.6375	-3.0438	-2.8438	-2.9854	-3.1979	-2.8396	-2.95	-3.0312	-2.7375	-3.0292	-2.8438	93.454	138.774	11.665	233.450	-32.431	44.709	186.870	-86.748	76.537	-0.001	248.708	153.477	167.283	223.138	187.330	175.387	0.00016362	0.00051599	9.8395e-05	611.27	1.8636e-06	4.3372e-06	660.89	218.17	2.0045e-06	5.3855e-06	286.78	95	83.189	28.51	2.5433e-06	47.218	0.00017648	8.8134e-05	2.442e-05	590.27	1.0662e-06	9.267e-07	644.52	213.14	1.1679e-06	8.6903e-07	278.4	98.127	81.529	28.182	1.1635e-06	46.481	193.833	-0.449	14.324	-76.091	88.382	58.536	-76.842	-70.649	40.685	57.920	-72.492	-67.832	-66.010	-61.580	64.597	-64.278	-8191	255	
2785.416	1	1	0	0	0.2384	0.019999	0.26172	0.081475	0.16102	0.085634	0.20321	0.32431	0.15803	0.094716	0.21499	0.16739	0.18792	0.025614	0.13193	0.16471	-2.4458	-3.1188	-2.6521	-2.85	-2.8	-2.6375	-3.1458	-2.8271	-2.6833	-3.1792	-2.7771	-2.9396	-3.0563	-2.6229	-3.0438	-2.8271	259.899	116.821	83.343	121.808	-59.957	-71.789	-62.554	145.039	219.420	171.884	151.814	240.012	45.196	244.793	13.603	143.957	0.00016123	0.00034167	8.5887e-05	614.9	1.1323e-06	4.4628e-06	668.48	220.11	2.0359e-06	2.7311e-06	288.85	98.094	84.181	28.618	2.3837e-06	47.772	0.00017529	7.8055e-05	2.3819e-05	594.81	9.6443e-07	9.2849e-07	651.04	215.38	1.1817e-06	7.599e-07	282.69	100.08	82.536	28.368	1.158e-06	46.966	193.058	-5.219	0.414	-76.268	95.118	53.189	-76.706	-70.285	12.323	33.412	-72.018	-68.329	-66.164	-61.936	45.373	-63.769	-8191	255	
2785.537	1	1	0	0	0.18859	0.2694	0.20185	0.25539	0.11549	0.041323	0.13272	0.22701	0.15481	0.085559	0.1734	0.31271	0.081543	0.097686	0.3878	0.17497	-2.25	-3.0646	-2.8229	-2.9479	-2.9542	-2.5979	-2.9771	-2.8458	-2.5583	-3.1	-2.8312	-2.8979	-3.0042	-2.7667	-2.7333	-2.5687	153.054	105.058	-74.406	225.852	143.182	25.572	254.089	259.994	-44.633	164.395	18.513	233.985	178.382	189.834	248.179	144.523	0.00015847	0.00027973	7.4989e-05	608.17	2.365e-06	4.182e-06	666.3	219.3	1.6205e-06	1.7737e-06	285.11	94.637	83.015	28.379	2.5845e-06	46.744	0.00017734	8.4046e-05	2.5322e-05	588.37	1.0338e-06	9.713e-07	645.86	213.81	1.1622e-06	8.3206e-07	276.99	97.861	81.316	28.067	1.0166e-06	45.955	190.456	-27.322	22.469	-75.909	74.100	83.759	-76.822	-70.344	38.087	55.368	-71.869	-69.045	-66.519	-61.768	75.958	-63.935	-8191	255	
2785.633	1	1	0	0	0.053766	0.19292	0.16692	0.19478	0.19448	0.17191	0.1752	0.11708	0.040905	0.18181	0.4001	0.23262	0.10873	0.21764	0.20991	0.2966	-2.0604	-3.0542	-2.8479	-2.7271	-3.1437	-2.6458	-2.9833	-2.9792	-2.4229	-3.2333	-2.9208	-2.7438	-3.2438	-2.6292	-2.8417	-3.0333	240.460	9.917	-76.667	207.241	185.678	95.818	172.664	89.025	50.646	192.424	225.228	12.396	145.003	-64.067	259.450	170.964	0.00015929	0.00042259	0.00010576	603.34	1.518e-06	4.8972e-06	656.85	217.44	2.605e-06	5.6139e-06	283.82	96.732	83.195	28.457	1.1074e-06	47.18	0.00017869	8.0753e-05	2.4765e-05	586.04	9.8847e-07	9.5837e-07	639.15	212.42	1.2356e-06	8.9798e-07	276.59	98.247	81.66	28.177	9.6871e-07	46.278	193.013	3.699	13.720	-76.237	33.308	66.213	-76.964	-70.714	51.078	51.025	-72.384	-68.736	-65.613	-61.859	54.876	-64.145	-8191	255	
2785.729	1	1	0	0	0.18068	0.13528	0.13602	0.047064	0.17213	0.20236	0.25461	0.045705	0.24752	0.12033	0.1021	0.1259	0.11181	0.072052	0.13927	0.056222	-2.1396	-3.1646	-2.7562	-2.6521	-2.9625	-2.6792	-2.8438	-3.1833	-2.6396	-3.0479	-2.9042	-2.5896	-3.1917	-2.6979	-2.7521	-2.9354	226.574	-80.326	62.171	-14.531	243.535	3.453	191.324	244.108	221.783	42.913	-51.504	19.274	160.451	255.668	103.694	-63.460	0.00016602	0.000544	0.00011244	610.41	3.3066e-06	3.9049e-06	666.3	219.7	2.1652e-06	2.9014e-06	286.49	96.093	84.311	28.552	2.0394e-06	47.365	0.00018483	8.1666e-05	2.0289e-05	589.46	9.8928e-07	9.0485e-07	645.96	214.02	1.1156e-06	8.4542e-07	279.5	99.347	82.375	28.279	1.1509e-06	46.749	190.981	4.678	11.195	-76.395	63.510	56.565	-76.709	-70.599	13.159	57.504	-72.008	-68.732	-65.709	-61.865	73.394	-63.990	-8191	255	
2785.825	1	1	0	0	0.21198	0.030712	0.16298	0.24785	0.043858	0.05951	0.045225	0.18109	0.26707	0.050746	0.35521	0.17507	0.23296	0.093167	0.048114	0.15043	-2.2458	-2.9146	-2.9146	-2.8125	-3.1271	-2.8396	-2.8667	-3.1	-2.6625	-2.9917	-2.9188	-2.5604	-3.0625	-2.8354	-2.8354	-3.0812	186.520	-75.768	195.150	108.999	173.689	188.156	-6.709	-60.505	183.682	160.034	180.702	7.132	269.415	-50.674	-82.935	243.459	0.00015584	0.00041952	0.00010457	611.34	1.7718e-06	5.3091e-06	672.39	220.91	2.4161e-06	4.2014e-06	292.19	98.18	84.373	28.736	2.4269e-06	48.044	0.00017771	8.0396e-05	2.2638e-05	592.15	1.0193e-06	9.9984e-07	655.16	216.05	1.2153e-06	8.7348e-07	284.23	100.57	82.975	28.425	1.2226e-06	47.176	194.097	3.619	18.334	-76.054	63.852	66.417	-76.768	-70.444	30.398	55.042	-72.044	-68.557	-66.411	-61.836	61.243	-63.672	-8191	255	
2785.922	1	1	0	0	0.046309	0.097632	0.25764	0.022396	0.074869	0.16221	0.15785	0.019492	0.20343	0.13265	0.10606	0.26366	0.32386	0.29763	0.06074	0.044104	-2.2583	-2.8271	-2.9083	-2.6604	-2.9333	-2.8396	-2.7042	-3.1312	-2.5771	-3.125	-3.075	-2.5125	-2.9562	-2.9062	-2.7938	-3.2125	261.930	-78.554	169.217	108.775	44.492	6.714	225.309	-48.762	245.748	107.024	167.970	56.221	205.058	-9.809	172.085	78.603	0.00016171	0.00038368	7.5848e-05	616.55	1.6257e-06	3.5686e-06	671.62	221.29	2.1894e-06	3.6801e-06	290.15	97.6	83.778	28.761	2.516e-06	47.205	0.00017943	9.0475e-05	2.2794e-05	595.61	1.0101e-06	8.17e-07	652.99	215.77	1.1659e-06	8.766e-07	281.26	99.609	82.19	28.292	1.082e-06	46.518	190.218	11.584	-13.481	-76.224	65.024	78.570	-76.762	-70.596	41.078	59.491	-72.093	-68.502	-65.863	-61.683	47.376	-63.867	-8191	255	
2786.016	1	1	0	0	0.074267	0.14111	0.083062	0.19294	0.12399	0.097143	0.088901	0.089527	0.14255	0.22073	0.25428	0.15575	0.19286	0.13443	0.11092	0.093733	-2.2792	-2.7292	-2.8688	-2.6458	-3.0604	-3.0479	-2.7396	-3.0104	-2.7062	-2.8312	-3.1188	-2.6437	-3.0604	-2.8896	-2.5312	-3.0812	263.486	162.740	-49.765	-83.304	109.573	239.841	256.042	158.600	-26.437	44.636	145.480	44.449	-15.973	73.754	-71.649	262.452	0.00016709	0.00040923	0.00011781	608.93	2.3732e-06	3.6198e-06	664.12	220.38	1.742e-06	4.1119e-06	286.72	96.699	83.86	28.573	2.6071e-06	47.343	0.00017825	8.3689e-05	2.2338e-05	590.69	1.0309e-06	8.4242e-07	644.61	214.62	1.2255e-06	9.7549e-07	278.79	98.579	82.238	28.203	1.1408e-06	46.441	191.993	-4.222	22.483	-76.208	74.600	57.233	-76.952	-70.600	42.445	73.016	-72.091	-68.586	-65.491	-61.881	54.653	-63.890	-8191	255	
2786.112	1	1	0	0	0.11784	0.35865	0.13798	0.1007	0.064295	0.2815	0.18424	0.172	0.12262	0.19127	0.095735	0.088012	0.22835	0.092577	0.19283	0.2611	-2.15	-2.7375	-2.95	-2.7625	-2.8521	-3.0438	-2.5667	-3.0521	-2.7375	-2.8021	-3.2479	-2.6354	-2.6667	-3.0312	-2.5646	-3.075	172.075	168.873	127.668	96.576	-4.157	218.683	255.628	141.679	104.328	229.085	213.690	38.301	128.974	127.009	253.555	226.369	0.00016724	0.00038061	0.00012051	611.45	8.1994e-07	4.1111e-06	664.3	219.69	1.641e-06	4.1011e-06	286.52	95.91	84.254	28.607	2.762e-06	47.254	0.00017153	8.9205e-05	2.1313e-05	590.35	9.9248e-07	8.7943e-07	645.73	215.04	1.2822e-06	8.7348e-07	279.67	98.863	82.504	28.295	1.1593e-06	46.54	190.511	-18.500	13.643	-76.367	40.355	67.652	-76.569	-70.503	41.262	63.233	-71.935	-68.728	-65.642	-61.910	72.217	-63.837	-8191	255	
2786.208	1	1	0	0	0.11103	0.26416	0.063618	0.10671	0.17072	0.090941	0.17069	0.22382	0.18428	0.089718	0.12557	0.19227	0.10665	0.11635	0.16813	0.18579	-2.3479	-2.4021	-3.0729	-2.6562	-2.9667	-2.9146	-2.7521	-3.0938	-2.9604	-2.7042	-3.3396	-2.5708	-2.9708	-2.975	-2.7521	-2.9542	249.281	40.036	91.046	268.138	-59.595	-39.705	248.852	-77.319	264.274	73.138	181.744	179.286	-65.144	240.944	-28.483	-58.295	0.00014717	0.00036821	8.6242e-05	608.37	1.9323e-06	3.7776e-06	665.61	219.28	2.5572e-06	4.6991e-06	288.84	96.935	83.939	28.627	2.6017e-06	47.273	0.00017297	9.1031e-05	2.0601e-05	588.78	1.0394e-06	9.2447e-07	646.45	215.16	1.0998e-06	9.5811e-07	281.17	99.805	82.44	28.336	1.1244e-06	46.828	189.948	-1.259	29.120	-76.074	52.107	68.176	-76.797	-70.519	54.162	77.318	-72.082	-68.513	-66.155	-61.775	51.065	-63.846	-8191	255	
2786.329	1	1	0	0	0.18693	0.087342	0.1305	0.28669	0.3492	0.12874	0.07099	0.081024	0.20939	0.19402	0.17056	0.25383	0.36774	0.089215	0.10983	0.23298	-2.3875	-2.6208	-2.9667	-2.9062	-2.9146	-2.9313	-2.6083	-3.1375	-2.9458	-2.7812	-3.0896	-2.775	-2.8792	-3.0667	-2.6646	-2.8458	-9.214	-24.562	34.298	-54.866	178.135	-74.090	12.020	10.253	230.441	154.255	94.539	-43.188	125.686	154.110	43.639	228.942	0.00017426	0.00042153	0.00010206	607.41	1.9845e-06	3.9651e-06	661.79	219.44	1.8274e-06	4.3995e-06	285.82	96.865	83.975	28.526	2.717e-06	47.266	0.00017406	9.3332e-05	2.2304e-05	588.38	1.1419e-06	7.7864e-07	644.47	214.98	1.0276e-06	9.3851e-07	279.09	99.17	82.204	28.228	1.1286e-06	46.519	193.952	-9.207	17.969	-76.307	64.884	72.783	-76.866	-70.521	37.960	54.676	-72.202	-68.057	-66.290	-61.805	57.519	-63.894	-8191	255	
2786.425	1	1	0	0	0.06411	0.12337	0.21592	0.030545	0.013677	0.10051	0.12617	0.088201	0.082302	0.075644	0.083933	0.18651	0.21287	0.036783	0.13115	0.18713	-2.4792	-2.7188	-3.0958	-2.8083	-2.7042	-3.225	-2.7188	-2.8792	-2.9208	-2.525	-2.9562	-2.825	-2.6542	-3.1562	-2.5875	-3.0229	-53.159	56.694	206.742	204.665	93.297	85.490	267.398	161.082	235.116	22.788	233.569	31.692	-87.052	-40.948	76.261	140.416	0.00017293	0.00046731	8.4935e-05	603.2	2.5923e-06	5.0117e-06	655.28	218.04	1.5877e-06	3.5391e-06	284.31	96.717	84.44	28.574	2.1503e-06	47.372	0.00017167	9.0911e-05	1.9699e-05	583.91	1.0662e-06	8.0005e-07	636.05	213.37	1.1018e-06	9.0333e-07	276.62	98.791	82.395	28.26	1.0602e-06	46.477	195.787	0.233	13.837	-76.272	53.410	41.358	-76.788	-70.625	41.734	85.284	-72.099	-68.617	-65.899	-61.589	72.462	-63.836	-8191	255	
2786.521	1	1	0	0	0.17611	0.070732	0.14492	0.17545	0.17032	0.077494	0.31741	0.12706	0.16487	0.14619	0.1979	0.23452	0.20167	0.037559	0.22078	0.23805	-2.5938	-2.5854	-2.925	-2.8667	-2.6229	-3.0333	-2.7792	-2.8021	-2.9417	-2.6625	-2.9646	-2.8667	-2.6708	-2.9729	-2.725	-2.9188	192.829	23.787	68.933	162.286	17.191	220.117	225.235	95.786	20.918	16.909	239.247	119.688	91.300	2.046	145.149	245.773	0.00016639	0.00028222	9.6808e-05	602.53	3.055e-06	2.9095e-06	654.19	218.3	2.6509e-06	4.095e-06	284.79	96.202	84.453	28.843	2.1937e-06	47.767	0.00017774	9.4007e-05	2.246e-05	583.16	1.0862e-06	7.8132e-07	635.75	214.22	1.116e-06	8.4943e-07	278.69	99.324	82.669	28.539	1.0237e-06	46.967	191.328	-6.813	5.906	-75.911	40.543	42.596	-76.966	-70.438	66.351	82.132	-72.184	-68.817	-65.969	-61.834	56.115	-64.025	-8191	255	
2786.642	1	1	0	0	0.13123	0.064778	0.29367	0.23434	0.10632	0.20715	0.25977	0.065697	0.16272	0.15224	0.1438	0.056809	0.037365	0.20619	0.13411	0.049518	-2.6667	-2.5062	-2.9729	-2.9125	-2.4583	-2.9813	-2.8667	-2.8312	-3.1958	-2.7938	-3.0521	-2.8604	-2.5667	-3.0833	-2.7042	-2.75	171.573	154.287	173.725	149.099	142.843	45.904	126.026	225.780	159.864	-60.363	195.201	80.502	19.390	-86.784	188.359	0.872	0.00018026	0.00044302	0.00013009	603.84	2.0978e-06	3.0804e-06	658.94	220.08	2.1503e-06	3.7488e-06	287.75	99.18	85.134	29.044	2.324e-06	48.199	0.00016913	9.1626e-05	2.3529e-05	583.28	1.0594e-06	7.84e-07	640.12	215.26	1.1152e-06	9.6747e-07	281.12	101.06	83.377	28.705	1.0816e-06	47.439	191.899	-0.005	2.626	-76.095	52.195	60.584	-76.767	-70.444	32.852	43.707	-72.067	-68.958	-65.552	-61.831	63.847	-63.689	-8191	255	
2786.714	1	1	0	0	0.19977	0.15374	0.083384	0.10777	0.21556	0.23421	0.13153	0.20319	0.20922	0.098217	0.15365	0.043733	0.052733	0.10863	0.18529	0.0058545	-2.5667	-2.7062	-2.9271	-3.2167	-2.6208	-3.0354	-2.8417	-2.6646	-3.0625	-2.7938	-2.95	-2.8854	-2.7	-3.0312	-2.7354	-2.6479	25.134	114.328	259.021	180.988	51.043	162.929	145.688	63.409	-53.770	-69.602	7.645	3.745	245.616	174.688	-58.338	246.591	0.00015636	0.00043389	8.2315e-05	604.5	2.3413e-06	4.7362e-06	662.04	220.96	1.129e-06	3.3469e-06	289.87	98.283	86.128	28.962	2.3034e-06	48.314	0.00017283	8.9046e-05	2.2137e-05	585.46	1.1339e-06	9.2135e-07	643.54	216.38	1.0548e-06	8.864e-07	282.55	101.39	83.93	28.784	1.017e-06	47.428	189.042	12.155	22.243	-76.368	66.601	46.172	-76.877	-70.437	39.906	76.584	-72.171	-68.092	-65.993	-61.546	43.777	-63.930	-8191	255	
2786.810	1	1	0	0	0.068812	0.25386	0.057584	0.16026	0.18353	0.32065	0.20856	0.21276	0.016025	0.06694	0.14152	0.23789	0.080222	0.13871	0.38273	0.22872	-2.7146	-2.6188	-2.8375	-3.0187	-2.7708	-2.8521	-2.9188	-2.6333	-2.9458	-2.8167	-2.7958	-2.9188	-2.525	-2.9229	-2.7875	-2.5292	236.444	-38.892	86.444	262.853	-88.154	-34.132	245.768	58.870	165.479	163.066	-80.795	-16.978	196.711	117.525	60.045	-29.969	0.00017082	0.00034404	9.0049e-05	602.93	2.5575e-06	2.9872e-06	655.89	221.36	2.0822e-06	3.6679e-06	287.45	97.121	85.103	29.144	2.3972e-06	48.247	0.00017671	9.2777e-05	2.2293e-05	584.21	1.1259e-06	8.2592e-07	638.44	215.79	1.0746e-06	8.5567e-07	280.17	99.918	83.583	28.807	9.8298e-07	47.372	191.230	4.603	14.018	-76.157	51.012	61.672	-76.417	-70.693	31.794	51.702	-72.163	-68.592	-65.911	-62.047	39.725	-64.054	-8191	255	
2786.929	1	1	0	0	0.10042	0.095168	0.18187	0.10983	0.11465	0.052507	0.10468	0.20266	0.2464	0.21422	0.25711	0.20612	0.16235	0.2969	0.10378	0.13584	-2.7146	-2.7417	-2.5563	-2.9521	-2.75	-2.9146	-3.0542	-2.7188	-2.8854	-2.8667	-2.7354	-2.9896	-2.825	-2.9854	-2.9854	-2.8771	-36.370	226.949	54.674	52.098	231.832	-85.596	183.854	29.885	-27.766	247.158	265.730	69.144	14.936	253.391	34.028	198.302	0.00015759	0.00035528	9.0597e-05	601.93	2.6111e-06	3.0915e-06	656.55	221.64	2.4313e-06	3.5311e-06	288.75	97.438	86.114	29.232	1.1562e-06	48.403	0.00017137	8.242e-05	2.2115e-05	583.3	1.1047e-06	8.7676e-07	639.16	216.27	1.131e-06	8.717e-07	280.92	100.91	84.003	28.91	9.6409e-07	47.454	193.474	-2.263	-2.305	-76.125	52.394	31.999	-76.933	-70.595	14.749	74.230	-72.258	-68.347	-65.820	-61.804	67.081	-64.071	-8191	255	
2787.025	1	1	0	0	0.15101	0.17551	0.13103	0.073624	0.35811	0.12511	0.064611	0.1777	0.17646	0.091669	0.32073	0.1288	0.094514	0.16836	0.23612	0.12745	-2.6292	-2.8479	-2.6	-3.2812	-2.7354	-2.8438	-3.1437	-2.6792	-3.0667	-2.8979	-2.825	-3.0208	-2.8937	-2.7375	-3.0979	-2.7229	161.689	-48.679	62.388	229.735	-85.637	96.507	215.970	-24.841	4.386	152.905	189.941	88.098	30.845	-62.920	36.577	173.093	0.00017119	0.00031463	9.2086e-05	605.8	2.5562e-06	3.1402e-06	661.01	221.26	1.4978e-06	3.9024e-06	290.43	98.968	86.385	29.279	1.3564e-06	48.341	0.00018204	8.0594e-05	2.2984e-05	585.55	1.0774e-06	9.5792e-07	642.33	216.38	1.1428e-06	9.0511e-07	282.76	101.63	84.442	28.97	9.6157e-07	47.817	189.731	-6.133	10.371	-76.035	66.523	66.789	-76.555	-70.610	44.259	58.519	-72.015	-68.570	-65.897	-62.124	61.255	-63.865	-8191	255	
2787.121	1	1	0	0	0.21816	0.12785	0.17323	0.012889	0.083585	0.14095	0.25523	0.075074	0.21432	0.25176	0.03237	0.35202	0.13539	0.17053	0.15629	0.22755	-2.7083	-2.8937	-2.675	-3.1813	-2.8354	-3.0792	-2.9542	-2.5521	-3.0396	-2.9938	-2.6854	-3.1813	-2.9354	-2.8563	-3.0542	-2.8083	217.294	-23.794	24.489	139.932	73.966	167.402	208.032	150.283	98.589	-15.554	70.962	11.618	238.923	176.924	247.553	157.974	0.00016276	0.00042282	9.106e-05	604.27	2.5875e-06	3.5655e-06	669.59	222.51	1.2727e-06	3.8795e-06	291.28	98.82	86.309	29.194	2.0797e-06	48.413	0.00017436	8.1626e-05	2.3774e-05	587.06	1.0382e-06	8.1833e-07	646.95	217.58	1.1204e-06	8.3829e-07	284.17	101.24	84.195	28.943	1.0715e-06	47.65	190.028	-4.208	1.295	-76.124	43.293	48.093	-76.933	-70.465	63.012	74.486	-71.883	-68.308	-66.100	-61.604	49.458	-63.740	-8191	255	
2787.241	1	1	0	0	0.16834	0.14523	0.20695	0.22415	0.14331	0.07602	0.10787	0.22579	0.18049	0.24413	0.13537	0.069534	0.2464	0.15696	0.21381	0.19259	-2.4938	-2.8063	-2.6958	-3.2083	-2.7333	-2.775	-3.2	-2.8833	-3.0687	-3.0292	-2.6375	-3.075	-3.0125	-2.8625	-3.1833	-2.8333	29.789	260.015	257.441	175.657	46.323	4.416	2.236	140.434	-17.466	176.852	-80.211	-65.457	153.233	254.843	11.766	116.364	0.00015761	0.00034799	8.4849e-05	604.04	2.7229e-06	3.3807e-06	656.16	221.19	1.6724e-06	4.7933e-06	286.64	97.349	85.173	29.069	2.8044e-06	47.766	0.00017574	7.4285e-05	2.452e-05	583.65	1.0442e-06	9.1778e-07	638.9	215.56	1.1419e-06	8.4542e-07	279.36	100.53	83.521	28.734	1.0354e-06	47.064	191.242	-2.112	3.633	-76.070	69.265	72.827	-77.054	-70.584	42.143	73.376	-72.205	-68.095	-66.144	-61.971	66.315	-63.984	-8191	255	
2787.313	1	1	0	0	0.17159	0.12758	0.18547	0.15036	0.15617	0.16812	0.18968	0.26295	0.19354	0.15425	0.17992	0.24406	0.10906	0.079052	0.063249	0.10967	-2.4875	-3.1125	-2.5312	-2.9958	-2.8896	-2.5708	-3.1958	-2.7188	-2.9083	-3.1437	-2.8958	-3.075	-2.9271	-2.8271	-3.25	-2.9875	245.558	-26.044	233.292	168.621	-40.246	210.885	25.698	207.260	146.360	93.770	197.068	2.781	-72.953	-45.730	-21.934	166.430	0.00016979	0.000347	0.00010858	601.5	1.4771e-06	3.5596e-06	651.92	221.38	1.4513e-06	5.3955e-06	285.29	97.122	85.201	28.928	2.3127e-06	47.936	0.00017629	7.861e-05	2.4465e-05	581.91	9.8086e-07	8.8077e-07	634.31	214.81	1.0365e-06	8.5477e-07	279	100.06	83.319	28.682	9.6661e-07	47.105	192.849	13.024	7.085	-76.528	57.526	48.867	-76.818	-70.769	57.329	73.711	-72.248	-68.879	-65.942	-61.960	42.543	-64.097	-8191	255	
2787.409	1	1	0	0	0.24809	0.30069	0.30396	0.11841	0.27145	0.30665	0.14707	0.28771	0.13248	0.066073	0.10573	0.063963	0.1072	0.12067	0.14768	0.23794	-2.375	-3.1188	-2.5375	-2.9833	-2.9396	-2.6646	-3.1104	-2.9333	-2.6542	-3.15	-2.8896	-2.8667	-3.1292	-2.7854	-3.075	-2.9396	164.344	50.866	198.189	77.899	47.040	37.089	215.923	194.820	-54.891	-53.886	39.409	254.384	-42.116	248.372	72.303	269.995	0.00017418	0.00040412	0.0001067	598.27	2.7328e-06	3.7131e-06	658.93	219.81	2.0389e-06	3.9992e-06	287.4	97.881	86.22	28.993	2.5638e-06	48.12	0.00017053	7.7896e-05	2.5656e-05	580.5	1.0209e-06	8.9459e-07	638.23	215.41	1.1152e-06	7.9286e-07	280.96	100.48	83.705	28.746	9.9263e-07	47.479	197.938	11.000	22.839	-76.054	75.038	60.196	-76.617	-70.571	48.441	60.940	-71.978	-68.238	-66.033	-61.575	62.089	-64.186	-8191	255	
2787.505	1	1	0	0	0.43176	0.1817	0.23273	0.093845	0.095082	0.10086	0.29504	0.35421	0.25224	0.055487	0.23179	0.1546	0.15604	0.1571	0.049178	0.29565	-2.275	-3.05	-2.7625	-2.9167	-3.0396	-2.6813	-3.2875	-2.7792	-2.675	-3.1354	-2.8083	-2.9042	-2.9583	-2.6583	-3.0667	-3.1396	112.025	-88.164	-58.712	133.319	214.756	-51.202	206.117	-73.629	108.284	59.027	197.404	-25.984	38.751	264.584	19.137	205.821	0.00017521	0.00034166	0.00011871	604.91	2.7823e-06	4.7046e-06	664.35	220.81	1.7395e-06	4.2598e-06	288.67	98.588	86.052	29.179	1.9783e-06	47.9	0.00018094	7.742e-05	2.4376e-05	583.26	9.6964e-07	9.7933e-07	643.31	216.16	1.1273e-06	7.6346e-07	281.78	100.9	83.771	28.792	9.9683e-07	47.316	193.137	-6.777	2.622	-76.102	45.943	52.959	-76.864	-70.481	32.183	75.653	-72.228	-68.726	-66.203	-61.764	43.872	-64.049	-8191	255	
2787.602	1	1	0	0	0.15562	0.15126	0.15573	0.12286	0.18015	0.22216	0.4543	0.12805	0.037133	0.089007	0.090604	0.16132	0.040973	0.10316	0.13572	0.047282	-2.2062	-3.1479	-2.6271	-2.8104	-3.1646	-2.6271	-3.1479	-3.0125	-2.8854	-2.9521	-2.9125	-2.7562	-3.1854	-2.5812	-2.8937	-3.0729	142.032	99.843	-72.851	-71.457	110.927	-38.679	214.008	128.174	2.539	-74.995	234.861	10.584	228.899	242.712	83.974	102.323	0.00017044	0.00040551	9.1663e-05	603.3	2.457e-06	4.9054e-06	654.44	220.03	1.448e-06	4.1521e-06	286.08	96.935	84.429	29.106	1.9689e-06	47.592	0.00017892	7.7658e-05	2.3396e-05	582.35	9.7205e-07	9.4766e-07	635.26	214.94	1.1265e-06	8.227e-07	278.93	99.921	83.3	28.752	1.064e-06	46.934	193.060	10.510	-1.865	-76.237	59.765	60.432	-76.924	-70.668	59.773	47.192	-71.848	-68.877	-66.043	-61.964	57.712	-64.055	-8191	255	
2787.720	1	1	0	0	0.0095294	0.050656	0.088998	0.034264	0.22476	0.28104	0.32861	0.24009	0.10797	0.20505	0.040524	0.019462	0.11107	0.16994	0.073739	0.16579	-2.125	-3.1562	-2.7458	-2.8125	-2.9729	-2.8812	-2.8688	-3.0938	-2.5563	-3.0521	-3.0125	-2.6792	-3.1229	-2.6688	-2.6958	-3.1312	35.124	-43.731	249.961	-60.923	-37.257	149.604	230.696	236.282	-58.355	147.603	3.254	16.114	-59.644	-61.058	249.130	241.030	0.00017367	0.00026188	9.5709e-05	601.07	2.3477e-06	2.6709e-06	653.51	219.14	1.8669e-06	4.2024e-06	288.02	98.48	84.808	29.013	2.8724e-06	47.951	0.00018248	7.0197e-05	2.1102e-05	580.82	8.7148e-07	8.6293e-07	635.82	214.26	1.1391e-06	7.2872e-07	279.31	100.15	83.274	28.73	9.3765e-07	47.088	192.226	9.275	14.772	-76.340	46.514	68.586	-76.887	-70.640	45.654	40.641	-72.438	-68.695	-65.800	-61.960	68.708	-64.005	-8191	255	
2787.817	1	1	0	0	0.17282	0.070324	0.011742	0.18337	0.109	0.16511	0.27999	0.16807	0.23882	0.2355	0.14278	0.16457	0.21864	0.15696	0.22317	0.071214	-2.3021	-2.9333	-2.9333	-2.6208	-3.2833	-2.7	-2.8979	-3.0708	-2.725	-3.0896	-3.0396	-2.7125	-2.9938	-2.9104	-2.8708	-3.2792	-75.608	166.078	203.814	126.583	116.850	45.898	240.262	-60.591	203.898	112.817	80.485	8.916	33.600	246.039	173.748	153.202	0.00017349	0.00037408	8.8263e-05	599.04	3.1479e-06	4.1568e-06	653.42	220.96	1.9302e-06	4.3128e-06	287.26	99.095	85.08	29.049	2.5341e-06	47.992	0.00017906	7.8372e-05	2.2282e-05	581.73	1.0293e-06	8.7453e-07	636.82	215.64	1.1732e-06	7.8172e-07	280.36	101.3	83.538	28.747	1.0749e-06	47.362	193.060	-4.369	20.928	-76.044	72.017	53.770	-76.856	-70.899	39.633	55.944	-72.047	-68.376	-66.335	-62.006	49.836	-64.196	-8191	255	
2787.890	1	1	0	0	0.35069	0.25191	0.072104	0.29433	0.15577	0.16986	0.13471	0.15473	0.12308	0.064827	0.07234	0.095945	0.12766	0.28746	0.043576	0.099669	-2.0625	-2.9542	-2.9479	-2.7292	-3.1292	-3.0083	-2.9979	-3.375	-2.5604	-2.9396	-2.9708	-2.5521	-3.0625	-2.7979	-2.8167	-3.1542	240.872	82.628	120.324	156.619	172.486	192.648	120.206	231.947	161.755	-51.142	-49.655	120.514	-27.889	193.845	12.027	-21.530	0.00016265	0.0003825	0.00011282	605.61	1.5836e-06	3.584e-06	660.3	221.29	2.0871e-06	3.4987e-06	287.91	98.512	85.735	28.889	2.2109e-06	48.161	0.00017443	7.5158e-05	2.2605e-05	583.57	1.0137e-06	8.1165e-07	641.3	215.97	1.1732e-06	8.138e-07	281.85	100.45	83.637	28.754	1.1744e-06	47.386	190.290	1.782	2.202	-76.239	68.459	67.037	-77.034	-70.641	43.600	51.082	-72.212	-68.773	-66.051	-62.078	46.573	-64.034	-8191	255	
2788.011	1	1	0	0	0.055059	0.17714	0.13922	0.25663	0.039375	0.11423	0.12541	0.098918	0.19708	0.15426	0.157	0.18542	0.099816	0.25115	0.22964	0.10116	-2.3458	-2.8146	-3.0875	-2.7042	-3.1479	-2.825	-2.5854	-3.0104	-2.6583	-2.7396	-3.075	-2.6542	-2.9396	-2.8812	-2.7271	-3.3146	170.421	-83.174	-39.118	184.972	235.136	154.329	136.590	167.937	200.385	197.758	116.315	59.624	-64.070	265.527	-30.356	261.662	0.00016008	0.00035127	0.00010344	597.88	1.8202e-06	3.2573e-06	653.35	219.16	1.3447e-06	3.6925e-06	283.56	96.712	84.448	28.896	1.5565e-06	47.569	0.00017385	8.2142e-05	2.0422e-05	580.98	1.0149e-06	8.3082e-07	634.89	214.39	1.047e-06	7.9286e-07	277.52	99.373	83.077	28.627	9.8549e-07	46.81	194.697	6.230	2.210	-76.348	44.445	54.728	-76.875	-70.526	39.911	62.461	-71.880	-68.816	-65.752	-62.190	53.397	-64.097	-8191	255	
2788.105	1	1	0	0	0.14964	0.28238	0.054823	0.13209	0.145	0.17128	0.10513	0.2481	0.11313	0.1537	0.088	0.10135	0.13402	0.084659	0.094885	0.22315	-2.3688	-3.0729	-3.0687	-2.8937	-3.0896	-2.7958	-2.6271	-3.1792	-2.7938	-2.9146	-3.3	-2.6854	-2.9646	-2.9417	-2.7479	-3.2396	204.589	9.944	-70.624	234.926	138.961	271.123	65.913	251.092	240.693	49.404	117.301	35.871	164.650	137.001	166.181	186.689	0.00015287	0.00039962	0.0001122	596.42	2.7647e-06	4.048e-06	648.88	218.54	6.0438e-07	3.6512e-06	285.2	96.861	84.584	28.957	1.2896e-06	47.736	0.00017983	8.1547e-05	2.2215e-05	578.58	1.0546e-06	8.7096e-07	630.58	214.19	1.0191e-06	7.9241e-07	277.69	99.09	82.908	28.596	1.035e-06	46.857	189.939	4.932	9.257	-76.097	49.126	73.348	-76.933	-70.547	-1.281	81.964	-72.204	-68.776	-65.867	-61.666	36.395	-64.005	-8191	255	
2788.201	1	1	0	0	0.23503	0.093047	0.12147	0.11082	0.1038	0.18684	0.1376	0.13686	0.056039	0.10182	0.061221	0.13798	0.21586	0.11426	0.38892	0.072499	-2.3563	-2.7854	-3.1562	-2.7687	-2.95	-3.1312	-2.7188	-3.2521	-2.8208	-2.85	-3.1688	-2.7333	-2.8688	-3.05	-2.6792	-3.0167	24.401	23.955	-12.231	212.651	-52.061	75.935	155.571	46.553	183.739	214.403	81.473	174.444	237.697	-35.556	89.629	260.163	0.00016219	0.00049508	8.9908e-05	598.09	2.1296e-06	3.3336e-06	650.07	219.45	2.4232e-06	3.8765e-06	286.91	95.966	85.058	29.007	1.2305e-06	48.014	0.00017436	9.3927e-05	2.3006e-05	579.44	1.0025e-06	7.5679e-07	633.53	214.62	1.0564e-06	8.7126e-07	279.14	99.814	83.278	28.662	1.1387e-06	47.28	194.447	-10.116	8.750	-75.993	56.598	58.947	-76.669	-70.625	48.805	65.614	-72.358	-68.728	-65.820	-61.813	47.150	-64.154	-8191	255	
2788.322	1	1	0	0	0.1592	0.35866	0.12166	0.22776	0.048665	0.1171	0.21424	0.12538	0.2845	0.28629	0.1101	0.073565	0.025949	0.31951	0.39981	0.063914	-2.2458	-2.6229	-3.1437	-2.7271	-2.8063	-3.0917	-2.7208	-3.2188	-2.7062	-2.7771	-3.1792	-2.6771	-2.7271	-3.0208	-2.5854	-3.0312	54.516	-3.630	75.825	154.189	45.905	48.027	205.662	-79.855	93.181	-42.269	265.102	96.430	-9.050	-31.816	-5.445	-32.883	0.00015991	0.00050975	0.00012724	600.74	3.2384e-06	3.6921e-06	658.1	221.34	2.0414e-06	4.708e-06	289.58	98.622	85.3	29.131	2.6512e-06	48.081	0.00017599	8.6745e-05	1.8841e-05	581.64	1.0694e-06	7.0328e-07	638.96	215.97	1.0985e-06	8.717e-07	282.27	101.44	83.758	28.834	1.111e-06	47.33	188.137	-13.674	-9.849	-76.394	60.078	59.734	-76.827	-70.736	34.196	48.768	-72.136	-68.260	-65.857	-62.155	57.489	-63.741	-8191	255	
2788.418	1	1	0	0	0.19408	0.13361	0.21636	0.045428	0.034121	0.21263	0.1022	0.056881	0.07184	0.26169	0.3863	0.070946	0.05099	0.15115	0.0411	0.08357	-2.5563	-2.6542	-3.1042	-2.7833	-2.8083	-3.15	-2.8021	-3.0854	-2.9604	-2.5542	-3.2042	-2.7458	-2.7333	-3.0979	-2.7583	-3.0208	37.137	51.972	178.183	117.378	24.371	53.998	153.987	149.435	203.122	143.659	149.385	120.367	-22.977	-64.799	24.199	8.949	0.00016292	0.00031176	0.00014201	597.51	2.9247e-06	4.2088e-06	653.2	218.67	1.8272e-06	4.6561e-06	287.02	96.865	84.896	29.07	2.6259e-06	47.329	0.00017602	8.5435e-05	2.2505e-05	580.12	1.0498e-06	8.2235e-07	633.32	214.14	1.0689e-06	9.4564e-07	278.27	99.641	83.042	28.636	1.0342e-06	46.711	193.709	8.986	6.683	-76.235	47.642	60.440	-76.949	-70.783	34.464	59.548	-71.992	-68.662	-66.019	-61.848	60.293	-63.833	-8191	255	
2788.514	1	1	0	0	0.22126	0.23495	0.091542	0.13112	0.032371	0.14691	0.26169	0.13167	0.15458	0.31376	0.32594	0.070399	0.054531	0.09595	0.26576	0.18038	-2.5104	-2.6604	-3.0208	-3	-2.75	-2.975	-2.725	-2.9771	-2.9542	-2.7313	-3.1958	-2.8063	-2.6396	-3.175	-2.6271	-2.8646	25.294	120.195	164.731	-17.018	264.765	124.488	151.007	49.978	-10.090	-10.854	-75.610	-4.219	230.917	255.848	132.168	177.149	0.00016389	0.00046599	0.0001364	598.18	2.4495e-06	3.4751e-06	649.34	218.76	1.5166e-06	4.4121e-06	285.28	97.676	84.464	29.026	1.6368e-06	47.474	0.00017371	8.8134e-05	1.9788e-05	578.46	1.0125e-06	7.5724e-07	630.78	214.04	1.0511e-06	9.6435e-07	277.82	99.817	83.248	28.627	1.022e-06	46.829	190.310	-1.867	10.412	-76.357	41.108	72.940	-76.996	-70.569	14.408	56.395	-71.881	-68.417	-66.234	-61.881	63.809	-63.795	-8191	255	
2788.610	1	1	0	0	0.2473	0.13809	0.11018	0.13936	0.076373	0.11553	0.035841	0.11109	0.25064	0.27088	0.15017	0.096353	0.13887	0.14985	0.21593	0.13112	-2.6312	-2.7771	-3.0146	-2.8667	-2.7104	-3.0667	-2.8229	-2.8375	-3.0083	-2.3875	-3.1875	-2.8917	-2.5396	-3.0729	-2.6833	-2.9417	147.549	247.539	96.896	163.771	222.623	27.739	259.417	254.805	96.208	117.703	6.367	-66.892	96.371	-19.318	184.510	4.255	0.00016766	0.00043094	0.00010925	599.56	1.5973e-06	4.6375e-06	653.68	219.63	2.2786e-06	3.4048e-06	286.77	97.365	85.424	29.129	2.1026e-06	47.924	0.00017109	9.5951e-05	2.2048e-05	579.51	1.0073e-06	7.2379e-07	633.93	214.76	1.0227e-06	8.2404e-07	279.24	99.866	83.593	28.772	1.0094e-06	47.286	191.009	-3.006	-1.691	-76.219	49.960	70.346	-76.770	-70.953	42.005	62.010	-72.186	-69.333	-66.103	-61.833	59.309	-63.767	-8191	255	
2788.706	1	1	0	0	0.28832	0.17688	0.25228	0.071962	0.20194	0.26369	0.22356	0.02726	0.11175	0.21646	0.2278	0.15014	0.099422	0.010887	0.22434	0.12905	-2.8625	-2.6083	-2.8896	-3.2542	-2.8854	-3.1542	-2.8771	-2.7354	-3.0208	-2.7354	-2.8354	-3.0312	-2.7042	-3.1167	-2.8	-2.8063	-9.052	168.252	181.221	-45.977	-44.468	130.692	182.196	240.383	37.642	232.908	147.738	257.061	30.692	-26.437	21.287	262.823	0.0001609	0.00033797	7.93e-05	597.36	3.4546e-06	3.9208e-06	655.02	221.07	1.4449e-06	4.1064e-06	287.57	98.053	85.316	29.225	2.7933e-06	47.748	0.00017476	8.1269e-05	2.1859e-05	579.53	1.1407e-06	7.4832e-07	636.28	215.43	1.0592e-06	8.8685e-07	280.56	100.21	83.598	28.848	1.0824e-06	47.158	190.162	0.390	15.623	-76.381	50.619	54.231	-77.107	-70.421	19.889	65.033	-72.370	-69.817	-66.041	-61.920	57.204	-64.061	-8191	255	
2788.803	1	1	0	0	0.028036	0.070604	0.017389	0.22028	0.080149	0.12364	0.13205	0.091262	0.065337	0.087246	0.37946	0.046045	0.038465	0.066749	0.19017	0.18728	-2.7104	-2.6292	-2.6833	-2.9771	-2.7583	-3.0833	-2.9208	-2.8042	-3.3438	-2.7229	-3.0958	-3.0458	-2.6417	-3.0958	-2.8833	-2.8333	15.581	81.788	240.384	105.455	35.201	72.638	160.391	254.359	-9.170	181.808	-61.156	142.154	16.189	-13.722	-31.290	90.464	0.0001511	0.00035166	0.00011578	597.61	2.6203e-06	4.4022e-06	651.48	218.88	1.0766e-06	4.4265e-06	282.53	95.634	85.05	28.994	2.2683e-06	47.554	0.00016706	7.8015e-05	2.1391e-05	578.35	1.1011e-06	8.335e-07	631.36	214.22	9.6635e-07	8.8506e-07	276.63	98.627	83.222	28.704	9.9347e-07	46.669	191.989	-19.526	10.008	-76.570	62.111	65.452	-76.775	-70.476	49.307	63.625	-72.271	-69.365	-66.035	-61.970	72.037	-64.138	-8191	255	
2788.899	1	1	0	0	0.037063	0.22866	0.16706	0.39882	0.18942	0.086373	0.12133	0.10433	0.1783	0.091595	0.20973	0.10074	0.083341	0.078607	0.14469	0.20468	-2.8312	-2.5354	-2.8208	-2.9771	-2.4771	-3.05	-3	-2.6125	-3.175	-2.7833	-2.825	-3.1688	-2.7021	-2.9604	-2.9271	-2.6792	2.500	57.563	163.644	-35.672	181.437	15.752	188.481	-36.489	177.223	-34.366	122.323	52.948	15.940	-56.031	-25.798	245.703	0.00016412	0.00034056	8.3937e-05	596.39	1.9562e-06	3.2927e-06	643.83	219.05	9.8328e-07	5.5387e-06	284.23	96.6	85.407	28.859	1.5808e-06	47.282	0.00018027	8.2499e-05	2.2505e-05	576.14	1.0662e-06	8.1031e-07	627.55	213.81	9.9109e-07	9.2916e-07	276.38	98.638	83.25	28.619	9.515e-07	46.644	191.432	-27.145	10.933	-75.950	47.793	59.591	-77.105	-70.642	30.134	67.028	-72.460	-68.491	-65.862	-61.820	65.479	-64.229	-8191	255	
2789.018	1	1	0	0	0.14319	0.3092	0.073326	0.081746	0.10507	0.1915	0.11706	0.17347	0.14083	0.10495	0.25363	0.32184	0.17739	0.15719	0.3172	0.21385	-2.7562	-2.7104	-2.7979	-3.1375	-2.475	-2.9604	-3.1375	-2.5354	-3.1188	-2.9062	-2.7896	-2.9896	-2.8563	-2.9854	-3.0125	-2.7958	189.923	114.690	-3.074	-16.885	264.647	9.322	114.762	254.670	217.585	183.656	245.444	64.344	149.268	187.025	94.741	97.019	0.00015743	0.00039745	8.5577e-05	593.29	1.952e-06	4.1706e-06	644.22	218.51	9.3746e-07	4.1644e-06	284.83	97.203	84.952	29.222	2.2162e-06	47.722	0.0001712	7.7658e-05	2.3774e-05	577.14	1.0406e-06	8.1343e-07	629.43	214.2	1.0726e-06	8.5611e-07	277.54	99.641	83.148	28.81	9.792e-07	46.962	188.661	-11.531	13.900	-76.228	70.723	55.083	-76.751	-70.601	63.955	68.022	-72.094	-68.663	-66.485	-61.892	37.582	-64.358	-8191	255	
2789.114	1	1	0	0	0.077047	0.11474	0.35022	0.20108	0.20632	0.19282	0.11126	0.18578	0.11494	0.012789	0.10948	0.18641	0.47601	0.080323	0.085055	0.1342	-2.7396	-2.8271	-2.5542	-3.0646	-2.6958	-2.8667	-3.2083	-2.7208	-2.8646	-3.0542	-2.6771	-3.0792	-2.6729	-2.8042	-3.0708	-2.75	25.650	140.443	2.410	74.639	158.464	131.280	-75.412	5.927	123.220	-5.260	5.131	122.732	138.095	14.245	241.654	155.259	0.00016237	0.00036266	0.00013205	597.11	2.7461e-06	3.4186e-06	655.57	218.84	2.3231e-06	5.9969e-06	287.3	98.157	85.581	29.188	2.8373e-06	47.755	0.00016967	7.6626e-05	2.5389e-05	578.92	1.0374e-06	8.5357e-07	634.81	214.37	1.0645e-06	8.6324e-07	279.32	100.22	83.545	28.831	1.0044e-06	47.12	195.732	-11.657	6.109	-76.363	71.287	63.376	-76.848	-70.650	40.341	70.505	-71.839	-68.412	-66.131	-61.774	59.886	-64.094	-8191	255	
2789.185	1	1	0	0	0.42704	0.33335	0.27311	0.055473	0.083424	0.093788	0.23105	0.22114	0.26604	0.088854	0.077691	0.039213	0.11459	0.10015	0.041618	0.10886	-2.5938	-3.0521	-2.6583	-3.1833	-2.8479	-2.925	-3.1458	-2.6188	-3.125	-2.8875	-2.7833	-3.0896	-2.8729	-2.75	-3.1083	-2.8354	-74.389	134.800	196.189	-33.982	122.930	215.038	174.001	153.460	-50.503	-26.154	112.012	237.998	226.870	-52.044	-69.584	194.097	0.00017524	0.00041221	0.00010156	596.78	1.7157e-06	3.1962e-06	645.74	218.88	1.6301e-06	5.1327e-06	283.35	96.878	84.895	29.013	2.2886e-06	47.249	0.00017829	8.611e-05	2.452e-05	577.55	1.0117e-06	7.8533e-07	628.03	213.96	1.0734e-06	7.4075e-07	275.56	98.899	83.014	28.658	1.027e-06	46.47	186.229	2.541	13.037	-76.197	61.336	56.213	-76.934	-70.618	59.293	74.313	-72.508	-69.129	-66.010	-61.723	67.253	-64.003	-8191	255	
2789.282	1	1	0	0	0.25351	0.073264	0.20882	0.066255	0.20264	0.18256	0.24964	0.05799	0.040387	0.16696	0.18064	0.06093	0.16429	0.089881	0.20599	0.27589	-2.4708	-3.0292	-2.7021	-2.9146	-2.9437	-2.8708	-3.1167	-2.6375	-2.7812	-2.975	-2.7542	-2.9604	-2.875	-2.6271	-3.1417	-2.7521	-57.629	153.363	-43.108	49.759	99.919	90.545	224.400	-67.579	111.016	-86.756	195.645	264.076	7.555	110.932	255.263	178.452	0.0001519	0.00048178	5.9134e-05	593.13	2.387e-06	3.0564e-06	642.14	216.99	1.8879e-06	4.1577e-06	279.81	97.181	84.835	28.892	1.5751e-06	47.308	0.0001745	7.9324e-05	2.197e-05	575.38	9.5682e-07	8.2324e-07	624.21	213.15	1.1253e-06	7.2204e-07	273.99	98.649	82.791	28.632	9.3849e-07	46.457	192.921	-2.837	14.227	-76.240	67.642	49.419	-76.861	-70.593	53.190	70.851	-72.103	-69.324	-65.945	-61.732	54.703	-63.761	-8191	255	
2789.402	1	1	0	0	0.077663	0.1897	0.22924	0.16371	0.12169	0.161	0.10628	0.20211	0.141	0.07869	0.14982	0.21213	0.16243	0.065123	0.30799	0.092064	-2.4521	-3.0292	-2.4292	-3.125	-3.0062	-2.7896	-3.1188	-2.9396	-2.6896	-3.1083	-2.6833	-2.9333	-2.9146	-2.725	-3.0396	-2.7	186.356	26.844	36.138	-64.737	248.001	199.234	182.282	-53.398	48.450	234.955	-62.299	108.761	17.973	-21.610	16.309	104.954	0.00016008	0.00046962	8.9184e-05	593.96	2.231e-06	3.2341e-06	646.39	218.54	1.552e-06	3.6842e-06	282.99	96.82	85.021	28.994	2.0112e-06	47.508	0.00017143	7.5277e-05	2.2705e-05	577.1	1.0041e-06	8.5357e-07	627.8	214.07	1.1006e-06	7.5544e-07	275.43	98.618	83.239	28.699	9.3387e-07	46.672	193.776	-5.617	19.174	-76.064	54.729	57.947	-76.635	-70.521	27.135	81.342	-72.215	-67.802	-65.958	-61.887	56.797	-63.986	-8191	255	
2789.498	1	1	0	0	0.25898	0.35484	0.061893	0.17849	0.043076	0.13127	0.2287	0.16554	0.17245	0.14671	0.28272	0.27702	0.27886	0.25968	0.061348	0.15635	-2.4208	-3.1792	-2.6792	-2.9583	-3.1063	-2.5729	-3.0104	-2.8979	-2.7667	-3.2125	-2.6458	-2.8375	-3.0583	-2.5896	-2.95	-2.8354	212.729	8.495	-58.728	232.084	44.229	-7.920	217.685	264.970	-45.790	25.697	218.083	225.877	-53.983	247.773	92.182	123.638	0.00018138	0.00033808	0.00010588	594.94	2.1267e-06	4.418e-06	649.73	219.84	1.7038e-06	4.9315e-06	285.42	97.574	85.256	29.157	2.4961e-06	47.633	0.00017576	7.4443e-05	2.2193e-05	577.74	1.0558e-06	8.3261e-07	630.24	214.58	1.0122e-06	8.0489e-07	277.64	99.872	83.486	28.716	1.0132e-06	46.872	192.998	-4.217	21.207	-76.024	86.841	55.892	-76.796	-70.682	40.132	73.007	-72.034	-68.334	-65.864	-61.980	52.432	-64.014	-8191	255	
2789.595	1	1	0	0	0.0704	0.17633	0.025763	0.14213	0.34029	0.22577	0.052319	0.13514	0.17253	0.019859	0.19765	0.23771	0.21273	0.1973	0.085422	0.18591	-2.2812	-3.1208	-2.7667	-2.9583	-2.9354	-2.8354	-2.9271	-2.8833	-2.7625	-3.1521	-2.8312	-2.7604	-3.0854	-2.575	-2.9917	-2.8229	193.332	88.089	31.164	-69.198	185.744	173.829	95.562	-4.435	45.939	-28.140	233.485	104.974	28.401	256.671	117.537	195.484	0.0001609	0.00040612	5.3496e-05	600.14	2.3322e-06	3.1683e-06	643.66	218.9	1.4686e-06	3.9617e-06	281.32	96.124	84.21	28.934	1.9277e-06	47.101	0.00017327	8.3808e-05	2.1035e-05	578.66	1.0269e-06	8.8701e-07	624.92	213.57	1.028e-06	7.8128e-07	274.06	98.455	82.828	28.581	9.6913e-07	46.279	193.310	3.026	6.616	-76.056	57.294	71.019	-76.767	-70.477	54.440	62.164	-72.123	-68.518	-65.568	-61.903	39.636	-64.194	-8191	255	
2789.691	1	1	0	0	0.1111	0.27025	0.21782	0.071791	0.070104	0.25295	0.14608	0.22512	0.18669	0.096193	0.2415	0.18126	0.086191	0.019667	0.091127	0.18465	-2.05	-3.0729	-2.6979	-2.6708	-3.1021	-2.6917	-2.9958	-2.95	-2.6813	-3.1292	-2.9083	-2.8167	-3.0375	-2.8104	-2.9604	-3.2562	194.414	107.299	-86.273	193.020	147.008	76.435	103.743	222.349	-70.269	190.835	160.747	-69.135	193.560	168.298	115.905	-10.547	0.00015193	0.00034961	9.833e-05	591.28	1.8734e-06	4.0632e-06	637.75	218.18	1.4725e-06	3.8525e-06	281.32	94.562	84.44	28.891	2.9909e-06	46.836	0.00016902	7.2697e-05	2.1736e-05	572.99	9.8246e-07	8.9236e-07	621.61	213.35	1.0957e-06	7.6792e-07	273.36	97.93	82.732	28.546	1.1647e-06	46.207	191.716	-2.500	13.166	-76.085	68.862	64.884	-76.793	-70.744	39.978	78.231	-72.124	-68.703	-65.730	-61.675	74.760	-63.831	-8191	255	
2789.811	1	1	0	0	0.14219	0.23711	0.11103	0.10745	0.12568	0.064157	0.08302	0.17497	0.10575	0.21419	0.11024	0.11536	0.14032	0.050752	0.15875	0.095785	-2.2979	-3.05	-2.775	-2.8604	-3.1604	-2.6354	-3.0021	-3.2375	-2.6813	-3.0979	-2.9896	-2.7708	-2.9437	-2.6875	-2.7938	-3.1104	-32.758	-35.623	139.956	-88.779	114.705	10.108	-29.017	252.029	126.166	45.600	125.760	35.912	167.305	166.323	256.417	-41.774	0.00014973	0.00043636	0.0001283	598.28	2.5355e-06	3.6208e-06	644.47	219.36	8.8413e-07	3.172e-06	282.27	95.896	84.905	28.99	2.7526e-06	47.658	0.00017262	7.7618e-05	2.099e-05	576.84	9.444e-07	8.4777e-07	625.02	213.71	1.1788e-06	8.2849e-07	274.76	98.703	83.396	28.712	1.0199e-06	46.706	191.731	-6.197	8.022	-76.132	49.622	51.188	-76.642	-70.866	47.132	60.587	-72.233	-68.068	-66.367	-62.013	48.328	-64.070	-8191	255	
2789.883	1	1	0	0	0.15206	0.094469	0.074274	0.13582	0.19919	0.22417	0.07097	0.19177	0.17746	0.047562	0.17193	0.25097	0.16391	0.30744	0.15728	0.19461	-2.1562	-2.925	-2.9062	-2.7792	-2.9938	-2.5687	-2.9708	-3.0375	-2.7292	-2.9083	-2.9208	-2.6333	-3.0542	-2.8021	-2.8688	-3.0729	35.127	266.632	56.229	4.690	151.167	-29.456	-51.228	-85.554	-62.325	113.316	180.514	191.995	220.125	40.847	152.827	261.927	0.00017537	0.00051662	0.00010895	599.27	1.7861e-06	3.234e-06	646.83	219.76	1.0938e-06	3.8978e-06	284.47	97.575	85.421	29.086	2.6938e-06	47.468	0.00018029	8.6626e-05	1.8774e-05	578.67	8.9832e-07	8.8255e-07	628.76	215.11	1.1407e-06	7.942e-07	277.12	99.619	83.508	28.833	1.0627e-06	46.818	192.399	-3.408	5.446	-76.050	46.566	62.791	-76.883	-70.628	56.700	62.533	-72.368	-69.290	-65.844	-61.827	58.192	-63.921	-8191	255	
2790.002	1	1	0	0	0.1733	0.097755	0.13602	0.11249	0.1416	0.081093	0.19139	0.079195	0.054961	0.31812	0.33826	0.14537	0.21138	0.040501	0.16284	0.31488	-2.1688	-3.0729	-2.8896	-2.7313	-3.1937	-2.9354	-2.8479	-3.3583	-2.7	-3.125	-3.0625	-2.7146	-3.1875	-2.9021	-2.9333	-3.0896	-9.555	57.324	234.997	161.465	65.688	-54.023	228.807	140.485	-51.436	98.331	244.694	32.940	-52.997	227.304	241.076	212.667	0.00015268	0.00041626	0.00010648	596.6	2.2872e-06	3.6524e-06	641.41	219.9	1.8502e-06	5.4816e-06	280.82	96.094	84.884	28.877	2.7533e-06	47.055	0.00017462	7.9761e-05	2.1191e-05	577.2	9.5081e-07	8.0852e-07	624.89	214.56	1.0852e-06	8.2003e-07	273.37	98.49	82.849	28.616	1.1341e-06	46.201	191.804	10.425	-7.115	-76.142	68.433	46.408	-76.973	-70.664	53.118	64.136	-71.924	-69.094	-65.965	-61.960	50.747	-63.694	-8191	255	
2790.098	1	1	0	0	0.11489	0.0059783	0.20033	0.19728	0.14718	0.13559	0.36686	0.16694	0.092481	0.15285	0.23628	0.21334	0.077401	0.099324	0.10496	0.25817	-2.1875	-2.7083	-3.0104	-2.5771	-3.0521	-2.8542	-2.6354	-3.0417	-2.8271	-3.1229	-3.0875	-2.7021	-3.1292	-3.0104	-2.5438	-3.1312	245.844	-19.059	224.522	108.431	249.254	-51.414	217.259	-20.547	157.437	-75.638	-61.628	-2.960	269.021	254.036	-1.690	-78.680	0.0001739	0.00033448	9.0932e-05	594.2	1.7971e-06	4.6378e-06	640.13	218.08	1.7035e-06	4.2622e-06	280	94.404	84.355	28.923	2.9466e-06	47.128	0.00016878	7.5991e-05	2.02e-05	574.5	9.9689e-07	7.4609e-07	621.15	213.15	1.0316e-06	8.3963e-07	272.69	98.219	82.654	28.636	1.106e-06	46.319	194.338	-7.536	2.680	-76.173	66.941	68.397	-76.959	-70.538	45.069	63.604	-72.067	-68.815	-66.243	-62.018	74.481	-63.930	-8191	255	
2790.194	1	1	0	0	0.078647	0.34797	0.20686	0.11106	0.13783	0.17227	0.15549	0.31619	0.062058	0.14067	0.055876	0.13181	0.10469	0.08648	0.14351	0.33633	-2.2479	-2.8312	-2.9667	-2.7833	-3.1021	-2.95	-2.7354	-3.2875	-2.7896	-2.6458	-3.1083	-2.65	-2.95	-2.9271	-2.4625	-3.0667	268.713	144.055	37.388	-88.117	-12.110	191.643	-85.694	209.843	22.611	-66.921	79.054	62.243	78.707	-41.501	204.420	163.343	0.00016861	0.00029832	0.00010774	595.19	2.3385e-06	5.0769e-06	637.1	218.84	2.6616e-06	3.7018e-06	281.64	95.703	84.936	28.899	3.385e-06	47.166	0.00017188	8.2499e-05	2.099e-05	574.57	9.7726e-07	7.7106e-07	620.26	213.49	1.0892e-06	8.129e-07	274.02	98.156	83.162	28.63	1.124e-06	46.454	189.402	10.951	9.534	-76.205	68.088	64.337	-76.906	-70.791	61.154	64.542	-72.195	-68.721	-66.031	-61.843	56.128	-63.842	-8191	255	
2790.290	1	1	0	0	0.12929	0.055966	0.034283	0.098682	0.0693	0.13036	0.1511	0.068576	0.20835	0.045353	0.1424	0.1425	0.14068	0.16438	0.19161	0.16177	-2.2604	-2.55	-3.1104	-2.6771	-2.7792	-3.0375	-2.6583	-3.2396	-2.7479	-2.925	-3.0146	-2.5854	-2.7604	-3.1437	-2.4813	-2.9646	263.269	267.080	99.953	-27.461	-58.622	133.913	206.032	237.410	-26.327	-1.520	-9.124	120.569	-29.959	-67.519	-49.732	-84.115	0.00016984	0.00036677	9.7996e-05	592.1	2.0155e-06	3.3842e-06	641.21	218.66	2.0021e-06	4.4642e-06	283.27	96.504	85.034	29.247	1.9717e-06	47.867	0.00017378	7.6943e-05	1.8696e-05	575.03	9.1074e-07	7.7017e-07	624.35	213.78	1.086e-06	9.8395e-07	275.57	99.352	83.519	28.893	1.0904e-06	47	191.041	-0.838	12.559	-76.283	60.507	46.710	-76.720	-70.552	66.580	76.645	-72.250	-68.109	-66.127	-61.817	41.922	-64.096	-8191	255	
2790.411	1	1	0	0	0.22324	0.16798	0.031613	0.13138	0.21553	0.042009	0.3754	0.27353	0.10841	0.062975	0.34101	0.1213	0.22758	0.11268	0.22452	0.26473	-2.4333	-2.5979	-2.9729	-2.7083	-3.0333	-3.0438	-2.8542	-3.0771	-2.9979	-2.6	-3.0667	-2.5542	-2.75	-3.1458	-2.6458	-2.9833	263.806	12.504	206.679	210.965	2.287	248.681	151.952	-56.422	215.128	266.948	184.721	19.549	-73.838	-78.092	-81.755	234.961	0.00017123	0.00046554	8.9047e-05	594.92	1.994e-06	3.9243e-06	640.37	219.58	2.3249e-06	4.5547e-06	280.61	95.811	85.495	28.996	1.5654e-06	47.089	0.00017457	8.4523e-05	1.873e-05	576.3	9.7806e-07	7.5858e-07	622.8	214.14	1.0556e-06	8.9709e-07	273.24	98.219	83.056	28.691	1.0388e-06	46.24	194.391	-11.345	23.228	-76.347	58.719	61.859	-76.945	-70.600	38.629	71.659	-72.247	-68.501	-66.226	-61.902	59.291	-63.757	-8191	255	
2790.483	1	1	0	0	0.24266	0.21756	0.18695	0.027772	0.17345	0.19597	0.10267	0.11336	0.096843	0.10202	0.17278	0.051009	0.03641	0.11881	0.080175	0.07293	-2.3438	-2.4896	-2.9958	-2.8292	-2.7729	-3.1417	-2.7812	-2.9625	-3.0479	-2.4792	-3.2208	-2.7854	-2.7792	-3.0458	-2.7562	-2.8312	175.780	-87.488	-10.502	34.236	42.788	-82.346	31.918	148.252	16.753	140.763	262.740	189.501	75.040	218.292	-18.345	193.735	0.0001539	0.00044641	0.00010598	588.64	2.5156e-06	4.325e-06	637.96	217.63	1.8782e-06	3.6257e-06	278.61	96.066	85.056	29.097	2.7775e-06	47.406	0.00017211	7.8729e-05	2.2015e-05	571.67	9.8647e-07	7.4876e-07	617.19	212.63	1.002e-06	9.1179e-07	271.63	98.042	83.095	28.786	1.0866e-06	46.619	189.693	1.833	14.383	-76.292	62.834	61.085	-77.005	-70.559	26.731	74.836	-72.187	-68.947	-65.870	-61.477	36.127	-64.012	-8191	255	
2790.579	1	1	0	0	0.2401	0.27291	0.13756	0.10055	0.23667	0.10102	0.077128	0.12575	0.20708	0.12237	0.29006	0.18224	0.070671	0.14671	0.089501	0.19179	-2.6562	-2.5354	-2.9083	-2.7583	-2.6521	-3.1188	-2.7979	-2.9354	-3.1521	-2.5833	-3.1521	-2.8625	-2.6125	-3.0292	-2.8187	-2.8354	242.974	39.591	6.861	-29.822	-13.085	32.583	143.921	-40.304	-9.742	185.061	2.826	236.771	-47.992	-16.237	126.096	-84.745	0.00015766	0.00051024	0.00011167	591.59	2.1801e-06	4.6611e-06	637.2	218.88	2.539e-06	3.6074e-06	280.82	96.482	85.433	29.275	2.1311e-06	47.484	0.00016953	9.353e-05	1.7527e-05	573.95	1.0109e-06	8.054e-07	620.33	214.34	1.0641e-06	8.864e-07	273.79	98.54	83.618	28.919	9.8969e-07	46.778	194.047	-8.466	-0.491	-76.283	64.776	77.290	-76.878	-70.427	49.532	63.374	-71.977	-67.965	-66.105	-62.020	64.730	-63.914	-8191	255	
2790.699	1	1	0	0	0.22086	0.27581	0.29264	0.23477	0.16224	0.32837	0.12897	0.13756	0.15774	0.050019	0.20766	0.128	0.24096	0.18335	0.15756	0.05402	-2.6542	-2.6125	-2.9521	-2.9542	-2.5375	-3.25	-2.8563	-3.1146	-3.05	-2.6917	-2.9479	-2.8896	-2.825	-3.1875	-2.875	-2.8604	190.920	243.800	52.042	-80.164	1.691	13.280	191.548	-71.753	53.488	-36.875	-81.079	-75.851	-65.176	-77.762	220.071	136.982	0.0001621	0.00050002	0.00013921	594.61	1.733e-06	3.9496e-06	641.8	218.13	1.846e-06	3.777e-06	281.5	96.736	85.377	29.092	2.6754e-06	47.941	0.00017662	9.2459e-05	2.314e-05	574.04	1.0626e-06	7.3182e-07	622.59	213.85	9.1363e-07	8.0266e-07	274.63	98.718	83.461	28.842	1.0174e-06	46.936	193.897	4.293	5.412	-76.073	59.550	61.761	-76.931	-70.566	61.493	64.137	-72.020	-68.865	-66.100	-61.461	38.367	-64.082	-8191	255	
2790.794	1	1	0	0	0.091043	0.040899	0.01951	0.095884	0.12243	0.13482	0.14786	0.19711	0.081689	0.19655	0.026345	0.081316	0.16495	0.19446	0.19196	0.085108	-2.7188	-2.6979	-2.9021	-3.0708	-2.5542	-3.2729	-2.9771	-2.9062	-3.1542	-2.8	-2.8937	-3.0542	-2.6813	-3.1063	-2.7979	-2.8438	75.744	242.612	-30.379	111.715	222.598	169.663	203.839	182.902	257.277	59.267	42.350	61.672	69.455	215.642	-15.600	159.449	0.0001774	0.00044849	0.00010197	595.23	2.1085e-06	4.1821e-06	644.84	218.12	1.8323e-06	4.2377e-06	280.57	95.135	84.535	29.16	2.407e-06	47.281	0.00016978	8.7896e-05	2.0634e-05	575.95	1.0321e-06	7.3048e-07	624.71	213.94	9.5297e-07	9.2604e-07	274.83	98.393	83.257	28.837	1.0497e-06	46.632	189.339	-7.440	4.906	-76.256	72.442	59.240	-76.811	-70.594	52.120	76.109	-72.181	-68.573	-66.044	-61.749	55.294	-64.073	-8191	255	
2790.890	1	1	0	0	0.15633	0.31578	0.12939	0.2792	0.14114	0.17495	0.12441	0.24828	0.18175	0.25597	0.092904	0.2586	0.0097063	0.28012	0.092123	0.21581	-2.6312	-2.6917	-2.775	-3.0958	-2.7875	-3.1396	-2.9188	-2.7938	-3.2979	-2.7333	-2.8542	-3.2146	-2.6021	-3.0062	-2.9437	-2.7417	-82.629	38.191	225.943	163.247	151.384	-55.819	-24.319	-88.251	-76.366	253.024	103.132	-79.066	242.643	222.886	0.093	219.424	0.00015166	0.00035965	0.00010419	594.09	2.437e-06	2.6997e-06	637.38	217.79	1.5061e-06	4.0512e-06	278.86	94.426	84.182	28.733	2.0457e-06	47.016	0.00017327	8.5118e-05	2.236e-05	572.83	1.0221e-06	7.4163e-07	619.83	212.77	9.923e-07	7.9375e-07	271.58	97.16	82.459	28.518	1.0657e-06	46.173	190.570	-2.761	11.473	-76.052	69.854	85.137	-76.751	-70.576	67.450	57.263	-72.267	-68.857	-65.979	-61.772	56.486	-63.797	-8191	255	
2790.986	1	1	0	0	0.29461	0.12769	0.26704	0.2461	0.092697	0.056977	0.15366	0.2283	0.17822	0.11722	0.19263	0.32353	0.039271	0.119	0.18019	0.08944	-2.55	-2.625	-3.0146	-3.3167	-2.7938	-3.0583	-3.0375	-2.8042	-3.0042	-2.825	-2.6917	-3.0875	-2.7062	-3.0854	-3.1333	-2.6854	251.434	110.899	202.509	16.050	59.566	111.708	126.551	-38.368	-24.767	-34.863	-38.744	237.883	184.969	173.747	97.940	55.738	0.00016467	0.00028732	5.1634e-05	593.19	2.5359e-06	4.3487e-06	639.16	218.25	1.6267e-06	3.3996e-06	281.04	95.831	85.475	29.264	2.2942e-06	47.545	0.0001676	7.742e-05	2.2204e-05	574.61	1.0462e-06	8.5e-07	620.75	213.8	9.9109e-07	7.3495e-07	273.65	98.558	83.394	28.936	1.0275e-06	46.76	193.858	-10.821	-12.331	-76.057	48.138	60.108	-76.676	-70.527	36.674	77.840	-72.190	-69.149	-66.073	-61.936	49.728	-64.013	-8191	255	
2791.082	1	1	0	0	0.12335	0.14571	0.18004	0.17255	0.27897	0.17252	0.23839	0.27314	0.10196	0.096875	0.20996	0.045892	0.13175	0.092322	0.10955	0.25233	-2.7979	-2.9104	-2.7354	-3.4083	-2.6833	-2.9062	-3.1521	-2.7	-3.0896	-2.8521	-2.7875	-3.2875	-2.7271	-3.0542	-3.2188	-2.7833	225.779	51.738	77.306	224.898	177.539	246.620	-48.909	-86.824	270.293	17.880	206.166	116.416	65.180	204.658	113.444	168.660	0.00017067	0.00035132	0.00011989	596.23	2.4898e-06	1.8496e-06	641.14	219.55	1.2902e-06	3.1512e-06	280.38	95.779	85.284	28.987	1.9574e-06	47.722	0.00016841	8.7062e-05	2.3607e-05	576.42	1.0301e-06	7.4832e-07	625.04	214.44	1.002e-06	8.1959e-07	274.44	98.506	83.366	28.809	9.8675e-07	46.865	192.097	-8.185	8.267	-76.258	48.715	62.430	-76.723	-70.579	3.955	60.042	-72.329	-67.713	-66.081	-61.852	87.335	-64.147	-8191	255	
2791.178	1	1	0	0	0.17702	0.14966	0.095306	0.38682	0.092584	0.1018	0.24943	0.069025	0.13092	0.083194	0.18759	0.16854	0.20345	0.11084	0.20275	0.11692	-2.6312	-2.9313	-2.6375	-3.1271	-2.6458	-2.8292	-3.1625	-2.7812	-2.9979	-2.8854	-2.7104	-3.0479	-2.7479	-2.8833	-3.0771	-2.7917	39.203	233.404	245.993	159.743	105.584	109.242	239.371	25.898	-82.331	30.322	222.521	246.769	203.190	-47.679	194.236	-11.021	0.00016105	0.00043905	8.8337e-05	591.74	2.218e-06	4.3654e-06	646.03	219.22	1.0528e-06	5.1002e-06	283.75	96.47	84.932	29.47	1.8465e-06	47.673	0.00017402	8.3888e-05	2.1558e-05	575.49	1.0806e-06	7.996e-07	626.6	214.01	9.5256e-07	7.9197e-07	276.48	99.616	83.3	28.958	9.1372e-07	46.89	193.842	-2.541	-9.413	-76.171	67.355	67.899	-76.853	-70.505	53.266	58.460	-72.137	-68.483	-66.357	-61.758	59.550	-64.047	-8191	255	
2791.275	1	1	0	0	0.31699	0.27092	0.086442	0.21524	0.094871	0.22911	0.21011	0.13126	0.15412	0.12854	0.34518	0.16522	0.11948	0.21976	0.054981	0.013167	-2.5812	-2.8875	-2.6479	-3.0583	-2.6646	-2.7812	-3.0687	-2.6542	-2.8458	-2.9854	-2.6937	-3.0021	-2.7438	-2.8917	-3.1583	-2.7354	180.155	209.626	-65.670	228.547	103.321	175.583	148.383	16.658	144.257	-67.045	180.645	138.716	251.149	119.079	191.867	255.621	0.00015368	0.00035836	9.7879e-05	589.61	1.5161e-06	3.7025e-06	636.66	217.51	2.1726e-06	5.0518e-06	278.71	95.952	84.797	29.294	2.2326e-06	47.092	0.00017513	8.5713e-05	2.4376e-05	571.28	9.9649e-07	8.219e-07	618.52	212.03	1.1038e-06	7.501e-07	271.91	98.306	82.982	28.857	8.9442e-07	46.516	191.259	12.887	-2.395	-76.143	44.935	65.072	-76.904	-70.953	44.405	48.407	-72.333	-69.314	-66.120	-62.092	66.410	-63.926	-8191	255	
2791.371	1	1	0	0	0.16463	0.13142	0.15279	0.025526	0.063714	0.08129	0.022874	0.26174	0.29348	0.12512	0.15284	0.17929	0.097028	0.16133	0.11549	0.33317	-2.4479	-2.9896	-2.4771	-3.0729	-2.925	-2.8771	-3.1646	-2.875	-3.0542	-3.0208	-2.7708	-2.8583	-3.05	-2.8354	-3.0938	-2.875	167.502	6.279	159.887	136.690	219.010	177.084	-52.730	199.744	225.105	233.338	54.456	143.283	-38.529	197.442	29.696	108.325	0.0001545	0.00039107	8.4879e-05	584.26	2.1673e-06	3.8272e-06	629.15	215.47	1.0976e-06	2.9677e-06	277.89	97.449	84.863	29.233	1.9679e-06	47.13	0.00016962	7.861e-05	1.9921e-05	565.7	9.1395e-07	8.3885e-07	612.71	210.73	1.0211e-06	6.2627e-07	270.85	98.653	82.754	28.86	8.7889e-07	46.518	193.003	-8.705	8.284	-76.060	68.056	53.371	-76.711	-70.512	64.562	74.953	-72.292	-68.444	-66.230	-61.989	48.898	-64.233	-8191	255	
2791.491	1	1	0	0	0.1424	0.30254	0.092659	0.088758	0.041506	0.10198	0.080433	0.11269	0.27595	0.29225	0.10141	0.033047	0.10844	0.14899	0.19536	0.09868	-2.3312	-3.0312	-2.5708	-3.1146	-2.8167	-2.6625	-3.0042	-2.85	-2.8729	-3.3396	-2.6104	-2.8937	-2.9	-2.6833	-3.2229	-2.9292	234.268	-19.744	-86.032	119.443	129.107	-3.484	-52.304	265.392	-32.247	163.259	158.299	219.494	196.067	52.430	-58.476	-16.889	0.00015006	0.00040642	8.8192e-05	586.06	1.5188e-06	4.8576e-06	632.98	216.19	1.5506e-06	3.3933e-06	280.7	94.864	85.313	29.462	2.1391e-06	47.725	0.00017346	8.3015e-05	2.3518e-05	567.14	9.9649e-07	8.2993e-07	615.96	211.61	1.0324e-06	7.207e-07	272.25	98.637	83.52	29.153	1.0346e-06	46.986	186.094	-13.220	16.639	-76.043	59.427	65.141	-76.494	-70.706	62.022	77.392	-72.092	-69.368	-66.012	-61.973	63.921	-64.105	-8191	255	
2791.587	1	1	0	0	0.15655	0.28606	0.10913	0.083598	0.17832	0.0304	0.30837	0.042625	0.11943	0.072704	0.13155	0.34775	0.071863	0.2075	0.15672	0.15462	-2.2833	-2.9729	-2.5979	-2.9958	-2.9	-2.4562	-2.9688	-2.9667	-2.7208	-3.1063	-2.7458	-2.95	-2.9125	-2.5854	-3.0146	-2.8979	-65.000	-61.571	255.359	-81.683	190.205	-33.072	-20.788	134.605	180.548	61.251	70.609	220.101	96.382	219.921	68.486	161.653	0.00017284	0.00038847	0.00010028	592.03	2.4028e-06	2.0999e-06	639.34	216.57	1.6475e-06	3.9748e-06	282.02	97.795	85.628	29.464	1.9167e-06	48.153	0.00017985	7.6666e-05	2.2349e-05	571.47	9.1435e-07	8.7453e-07	620.37	212.34	1.0608e-06	6.8685e-07	274.11	99.828	83.728	29.206	9.4688e-07	47.352	192.415	11.205	13.021	-76.267	50.936	59.515	-76.897	-70.431	22.204	71.159	-72.367	-68.606	-65.960	-61.785	57.103	-64.021	-8191	255	
2791.684	1	1	0	0	0.06753	0.15823	0.29458	0.12183	0.0034919	0.098916	0.24109	0.25872	0.18705	0.16218	0.33764	0.2859	0.13584	0.2954	0.2558	0.17154	-2.2771	-3.1854	-2.7521	-2.8979	-3.1542	-2.5979	-2.9875	-2.9646	-2.5646	-3.1479	-2.7083	-2.8333	-3.1667	-2.7229	-2.9542	-3.0792	242.084	233.144	162.810	197.809	95.854	113.980	172.768	124.762	174.275	-70.950	174.676	203.253	149.144	190.187	265.442	237.271	0.00017157	0.00036252	0.00012301	590.01	2.5586e-06	3.9792e-06	638.38	216.66	2.1285e-06	4.4454e-06	280.47	96.773	84.473	29.425	2.2454e-06	47.638	0.00017678	7.6467e-05	2.4108e-05	571.57	9.1275e-07	8.5178e-07	620.09	211.83	1.0698e-06	7.6792e-07	272.46	99.283	82.937	29.061	1.0287e-06	46.898	192.289	-16.364	5.754	-76.268	52.528	71.639	-77.040	-70.440	48.498	48.519	-72.350	-68.629	-66.036	-62.068	42.948	-63.941	-8191	255	
2791.780	1	1	0	0	0.080529	0.15065	0.036258	0.13528	0.25088	0.15498	0.22366	0.25104	0.1405	0.12438	0.18201	0.14485	0.27111	0.081933	0.12785	0.099092	-2.3187	-3.1917	-2.6833	-2.9271	-3.1437	-2.6979	-2.9729	-3.1792	-2.7125	-3.0854	-2.7625	-2.8125	-3.1646	-2.7021	-2.6875	-3.0438	184.021	191.869	212.238	-39.078	123.704	91.938	202.894	127.776	-43.775	-86.075	9.419	-71.338	232.958	-62.870	215.915	199.158	0.00016514	0.00050032	9.1308e-05	588.96	2.7158e-06	4.6784e-06	631.3	215.62	2.2103e-06	3.9585e-06	278.41	96.211	84.641	29.446	2.1467e-06	47.317	0.00016976	7.9443e-05	2.2416e-05	568.8	9.5482e-07	8.8612e-07	613.53	210.96	1.1403e-06	6.962e-07	270.66	97.905	83.104	29.069	1.0547e-06	46.735	186.622	-0.850	7.612	-76.368	60.899	73.336	-76.976	-70.629	35.252	71.365	-72.213	-69.051	-65.923	-62.251	58.636	-64.082	-8191	255	
2791.876	1	1	0	0	0.1608	0.090614	0.24035	0.063034	0.18039	0.028807	0.17747	0.010017	0.095463	0.3124	0.26837	0.03916	0.068648	0.14721	0.12441	0.14674	-2.1042	-2.9708	-2.9417	-2.6896	-3.1333	-2.6688	-3.1167	-3.0708	-2.5979	-2.9833	-2.9625	-2.7021	-3.0042	-2.6875	-2.8063	-3.0938	198.230	-61.642	183.572	-24.348	-41.604	-36.042	-63.870	222.058	-40.418	31.822	6.816	44.610	245.368	-59.527	-40.213	33.489	0.00016796	0.00040817	0.00010343	586.9	2.3165e-06	4.2401e-06	629.86	215.95	1.8765e-06	4.2122e-06	278.95	97.02	84.798	29.429	2.7222e-06	47.729	0.00017883	8.0912e-05	2.0912e-05	568.89	1.0378e-06	9.1243e-07	615.09	210.98	1.0884e-06	7.0645e-07	271.78	98.853	83.111	29.111	9.8633e-07	47.066	188.831	1.251	6.912	-76.161	71.174	42.551	-77.091	-70.675	32.701	71.754	-72.124	-69.180	-65.824	-62.042	60.325	-64.026	-8191	255	
2791.972	1	1	0	0	0.12783	0.030986	0.24668	0.14016	0.15453	0.31097	0.14601	0.092277	0.14266	0.2587	0.17126	0.11101	0.36687	0.056289	0.17229	0.19021	-2.1688	-2.9104	-2.8417	-2.5542	-3.0271	-2.6375	-2.8667	-3.025	-2.6604	-3.0604	-3.0083	-2.4417	-3.1146	-3.0146	-2.6896	-3.0625	66.832	213.420	165.273	237.960	128.392	181.135	246.419	100.561	171.187	-17.933	100.039	258.290	-54.454	238.356	-73.454	266.419	0.00017578	0.00031408	0.00012676	587.97	2.5382e-06	3.7193e-06	639.83	217.1	5.1253e-07	2.8607e-06	281.06	99.134	85.71	29.54	1.5147e-06	48.267	0.00018064	7.9404e-05	2.0144e-05	570.82	9.3358e-07	8.6427e-07	621.78	212.1	1.0357e-06	7.9019e-07	274.63	100.26	83.787	29.283	1.0497e-06	47.547	193.208	-4.077	3.092	-76.256	59.572	62.735	-76.807	-70.626	31.533	75.643	-72.057	-68.440	-66.340	-61.909	73.737	-64.047	-8191	255	
2792.091	1	1	0	0	0.22317	0.086472	0.16797	0.04166	0.12138	0.10417	0.15197	0.060871	0.14739	0.19274	0.02005	0.37797	0.16221	0.10533	0.15377	0.36138	-2.175	-2.9271	-3	-2.5792	-3.0812	-2.7438	-2.6771	-3.1292	-2.5854	-2.7062	-3.1917	-2.6042	-2.9958	-2.7625	-2.5208	-3.0521	-13.566	206.327	-88.563	5.433	169.298	129.747	55.597	192.727	-21.942	208.325	151.279	125.738	-50.208	-53.571	-81.480	-52.256	0.00016335	0.00042238	8.7333e-05	595.71	1.9288e-06	3.5874e-06	644.26	218.07	2.2024e-06	4.642e-06	283.21	97.225	85.473	29.498	2.1929e-06	47.973	0.00017157	7.6428e-05	1.8763e-05	575.54	1.0354e-06	7.9604e-07	628.19	213.06	1.1537e-06	8.3651e-07	275.29	99.944	83.918	29.237	1.03e-06	47.312	192.089	-14.302	-3.438	-76.331	82.667	58.271	-76.994	-70.966	52.352	64.240	-72.509	-69.563	-66.054	-61.960	44.589	-64.047	-8191	255	
2792.187	1	1	0	0	0.04763	0.39089	0.15369	0.23459	0.1249	0.18609	0.25161	0.093735	0.064158	0.16617	0.1446	0.117	0.29304	0.052992	0.281	0.10671	-2.0417	-2.7938	-2.9	-2.7396	-3.0521	-2.8604	-2.7833	-3.1833	-2.6104	-2.8125	-3.2479	-2.7292	-3.0125	-2.9667	-2.7083	-3.0458	39.475	69.377	199.758	143.314	-19.130	0.695	194.935	-10.583	17.331	65.789	-61.447	142.988	-23.623	36.408	-39.139	163.666	0.0001621	0.00038152	9.4166e-05	587.11	1.7818e-06	4.8582e-06	634.42	216.16	2e-06	3.1659e-06	276.84	95.7	84.215	29.298	1.339e-06	47.341	0.00017127	8.4245e-05	1.9353e-05	569.84	9.5762e-07	8.2502e-07	616.92	210.99	1.0543e-06	7.7415e-07	270.31	98.533	82.121	28.833	1.027e-06	46.546	191.091	-18.555	-11.396	-76.016	47.337	69.534	-76.745	-70.931	28.998	72.163	-72.290	-68.925	-66.027	-61.936	38.511	-63.873	-8191	255	
2792.283	1	1	0	0	0.11935	0.083593	0.14807	0.28557	0.12511	0.22014	0.12876	0.30576	0.20271	0.089986	0.10851	0.29086	0.21055	0.16666	0.062326	0.16301	-2.1562	-2.6708	-2.9229	-2.725	-3.0708	-2.9542	-2.5812	-2.9333	-2.7729	-2.9125	-2.9646	-2.5604	-2.75	-2.85	-2.5708	-3.1937	51.659	17.557	137.612	218.009	43.297	-53.991	99.259	199.961	-63.863	128.783	180.853	-57.226	240.380	36.000	179.315	223.963	0.00016893	0.00036626	0.00012227	584.93	2.2329e-06	4.4666e-06	628.39	213.92	1.7232e-06	2.8131e-06	275.85	95.58	83.592	28.962	2.3713e-06	47.161	0.0001716	8.5396e-05	2.0589e-05	565.06	9.8367e-07	8.5312e-07	612.49	209.17	9.7892e-07	7.9241e-07	269.44	97.965	81.977	28.644	1.0594e-06	46.499	193.102	-15.108	2.318	-76.360	68.396	75.266	-76.770	-70.715	65.122	69.542	-72.200	-68.806	-66.236	-62.052	59.891	-64.306	-8191	255	
2792.379	1	1	0	0	0.31496	0.13431	0.14224	0.23132	0.11776	0.20035	0.30798	0.11585	0.090251	0.11704	0.04337	0.24167	0.18585	0.090259	0.3233	0.079051	-2.3708	-2.5979	-3.0208	-2.5687	-3.0333	-3.1208	-2.8292	-3.1333	-2.9417	-2.725	-3.1083	-2.7938	-2.85	-3.1229	-2.5833	-3.1813	105.171	29.810	32.243	225.242	223.785	31.588	206.782	-32.387	55.901	-80.508	122.201	222.282	120.864	101.310	141.334	228.532	0.00016702	0.00028153	0.00011545	584.84	2.5422e-06	3.8917e-06	633.76	215.13	1.3929e-06	2.1281e-06	277.69	95.628	84.257	28.825	2.0131e-06	47.537	0.00016904	8.1229e-05	1.9877e-05	565.37	9.3719e-07	7.5947e-07	614.76	209.73	1.0146e-06	7.991e-07	270.4	98.149	82.2	28.613	1.0149e-06	46.651	193.564	-8.183	-4.968	-76.323	66.125	56.889	-77.005	-70.548	38.858	76.256	-71.936	-69.134	-66.039	-61.995	69.603	-64.090	-8191	255	
2792.476	1	1	0	0	0.21642	0.23351	0.27357	0.24477	0.061898	0.039149	0.14061	0.17276	0.28277	0.072559	0.19817	0.083633	0.1736	0.22505	0.31387	0.045644	-2.3771	-2.6229	-3.1917	-2.9229	-2.8937	-3.0479	-2.7729	-2.9188	-3.0958	-2.6708	-3.1937	-2.6813	-2.7562	-2.9813	-2.6542	-3.1229	135.742	13.422	196.410	36.262	-18.047	95.824	95.228	8.870	236.248	233.383	-18.295	119.937	235.772	-38.723	66.667	240.902	0.00016548	0.00040595	9.4891e-05	586.08	2.0376e-06	3.2782e-06	636.64	214.61	2.1242e-06	3.8139e-06	280.84	97.007	83.952	29.047	2.7378e-06	47.426	0.00017899	9.7419e-05	1.9955e-05	567.5	1.0382e-06	7.2691e-07	618.65	209.93	1.0957e-06	7.7014e-07	273.08	99.255	82.247	28.692	1.0296e-06	46.782	184.960	-25.882	6.767	-76.264	56.546	51.127	-76.756	-70.549	41.946	57.606	-72.302	-68.827	-65.576	-62.011	69.664	-63.793	-8191	255	
2792.572	1	1	0	0	0.13945	0.20502	0.14882	0.11923	0.10722	0.14421	0.3003	0.21114	0.11629	0.087611	0.01803	0.4025	0.25265	0.10109	0.26079	0.085834	-2.4979	-2.5438	-2.8792	-2.7625	-2.7583	-3.1104	-2.6354	-3.0167	-2.9688	-2.5104	-3.0667	-2.8021	-2.7229	-3.1208	-2.6104	-2.8688	29.693	135.560	245.230	-51.126	184.979	269.241	-79.428	207.622	-23.577	87.277	-78.837	189.870	42.053	86.838	65.777	-76.805	0.00015728	0.0004101	0.00010384	584.55	1.8935e-06	3.0417e-06	635.49	212.96	1.3997e-06	2.4141e-06	275.7	93.502	82.534	28.676	1.4648e-06	47.281	0.00017006	8.3094e-05	1.9576e-05	564.87	1.0526e-06	7.0372e-07	615.51	208.31	9.6757e-07	7.8752e-07	269.56	97.386	81.302	28.397	1.0065e-06	46.359	191.397	-3.952	8.336	-76.286	62.414	84.541	-76.986	-70.566	70.080	64.336	-72.085	-68.709	-65.657	-61.822	67.326	-64.169	-8191	255	
2792.668	1	1	0	0	0.2007	0.25647	0.13256	0.18765	0.26527	0.1868	0.091915	0.23647	0.061896	0.13741	0.2439	0.10219	0.24502	0.070824	0.025025	0.21715	-2.5083	-2.5396	-3.1604	-2.8917	-2.5896	-2.9979	-2.7896	-3.0021	-3.125	-2.5667	-3.0667	-2.8729	-2.6854	-3.2062	-2.9542	-3.0042	-64.223	60.685	-48.998	175.285	239.260	79.913	178.774	-20.877	228.085	180.748	238.440	2.452	74.962	178.504	30.371	-4.321	0.0001669	0.00032276	0.00011434	580.62	2.8541e-06	3.5342e-06	626.04	212.98	1.9454e-06	3.1762e-06	276.86	95.843	83.228	28.614	1.9489e-06	46.999	0.00016785	8.9483e-05	1.8374e-05	562.25	9.9489e-07	5.851e-07	609.79	207.95	1.041e-06	7.1936e-07	268.98	97.359	81.501	28.305	9.431e-07	46.405	191.497	-8.821	-4.976	-76.300	78.436	61.877	-76.577	-70.593	30.417	26.649	-72.285	-68.936	-66.257	-62.067	47.615	-63.829	-8191	255	
2792.764	1	1	0	0	0.25119	0.049359	0.10564	0.20904	0.22035	0.13221	0.22983	0.24547	0.21395	0.16562	0.15657	0.031306	0.25986	0.31524	0.16329	0.19094	-2.7854	-2.6292	-2.925	-2.9958	-2.6771	-2.9854	-2.8937	-2.7417	-2.9292	-2.6854	-3.05	-3.0438	-2.6104	-2.925	-2.8292	-2.85	246.183	-27.980	217.915	103.168	-3.753	157.008	235.699	29.523	90.249	138.246	67.384	189.533	198.638	191.243	-76.462	232.006	0.00016281	0.00033799	8.6448e-05	586.43	2.0069e-06	3.094e-06	633.08	214	1.6143e-06	3.5496e-06	278.37	97.008	83.502	28.858	2.6517e-06	47.721	0.00016665	8.0356e-05	2.0879e-05	565.22	9.7485e-07	7.2112e-07	615.35	208.75	9.6473e-07	7.3228e-07	271.74	98.611	81.956	28.542	1.0283e-06	46.805	194.909	-11.436	-4.431	-75.991	75.974	61.211	-76.776	-70.794	24.293	75.700	-72.013	-68.851	-65.912	-61.896	58.786	-64.231	-8191	255	
2792.883	1	1	0	0	0.25146	0.27119	0.16137	0.20671	0.11382	0.046539	0.1331	0.22842	0.072421	0.18891	0.050446	0.13314	0.073531	0.11495	0.072768	0.058678	-2.6979	-2.6875	-2.9417	-3.0458	-2.7146	-3.0479	-2.8229	-2.7917	-3.1729	-2.6521	-2.975	-2.8958	-2.5438	-2.9729	-2.7854	-2.8417	-15.888	203.891	119.177	-72.730	12.181	-5.197	87.688	254.590	134.837	-86.418	222.501	-84.181	244.710	221.150	246.067	146.422	0.0001616	0.0002818	0.00010521	585.39	2.339e-06	4.1162e-06	641.24	215.52	2.049e-06	3.7245e-06	283.24	96.769	83.713	29.017	2.993e-06	47.683	0.00017171	8.0515e-05	2.0667e-05	567.12	1.0818e-06	7.5679e-07	622.1	210.34	1.0183e-06	8.1647e-07	274.63	99.464	81.994	28.664	1.0119e-06	46.974	190.491	1.127	22.222	-76.306	87.140	53.923	-76.830	-70.637	51.554	86.781	-72.001	-68.336	-66.340	-61.784	47.711	-63.881	-8191	255	
2792.979	1	1	0	0	0.13177	0.14265	0.11788	0.20597	0.14743	0.10849	0.16312	0.28408	0.065013	0.2137	0.25067	0.2853	0.098753	0.086048	0.31699	0.12179	-2.6562	-2.8979	-2.7021	-2.9813	-2.675	-3.1354	-3.0375	-2.8187	-3.2354	-2.8854	-2.95	-3.1333	-2.3667	-3.0479	-2.8125	-2.6188	267.077	59.741	199.565	192.476	78.928	221.478	256.858	220.492	100.038	126.776	227.009	241.465	105.926	162.166	221.898	110.335	0.00017768	0.00032958	0.00013076	584.6	2.3303e-06	4.1156e-06	636.19	213.09	2.8963e-06	3.6025e-06	278.7	95.927	82.914	28.612	1.9284e-06	47.245	0.00017074	8.1269e-05	2.314e-05	565.95	1.0009e-06	7.8533e-07	619.9	208.5	1.0122e-06	9.0555e-07	272.08	98.872	81.256	28.338	9.3933e-07	46.612	194.183	5.925	1.418	-76.197	54.862	48.033	-76.643	-70.674	45.806	56.626	-72.310	-69.396	-66.033	-61.853	73.981	-63.808	-8191	255	
2793.052	1	1	0	0	0.23968	0.15673	0.14085	0.19043	0.013363	0.040376	0.15797	0.17296	0.25585	0.12347	0.30823	0.14955	0.13877	0.10325	0.15919	0.1661	-2.8917	-2.8625	-2.9958	-3.3438	-2.875	-2.9146	-2.975	-2.5458	-3.2271	-2.8271	-2.8042	-3.1562	-2.4583	-2.8688	-3.0604	-2.6542	227.881	106.825	74.547	-2.765	-58.916	48.475	162.314	249.199	183.037	-4.004	245.475	190.226	258.929	216.227	144.948	-75.611	0.00016679	0.00037315	0.00011322	581.61	1.9022e-06	3.4253e-06	631.34	212.02	7.6023e-07	4.0321e-06	276.2	94.462	82.411	28.569	2.5555e-06	47.284	0.00016441	7.3015e-05	2.1892e-05	560.56	1.0033e-06	7.7508e-07	612.44	206.98	1.0426e-06	6.5255e-07	269.13	97.062	80.835	28.242	9.3219e-07	46.347	190.335	-9.698	6.212	-76.040	71.236	66.490	-76.818	-70.614	63.726	64.502	-72.222	-68.749	-66.547	-61.847	61.687	-64.080	-8191	255	
2793.171	1	1	0	0	0.21411	0.19473	0.17878	0.37151	0.22906	0.25826	0.24832	0.31807	0.1107	0.2231	0.16479	0.014526	0.10975	0.10264	0.075511	0.11956	-2.5604	-2.6604	-2.6688	-3.0292	-2.7604	-2.9333	-3.0229	-2.4896	-2.9146	-2.9437	-2.7729	-3.0854	-2.7417	-2.8042	-3.1188	-2.6792	-59.674	18.018	152.242	232.846	65.800	269.066	254.776	204.279	-59.918	88.404	60.549	-76.084	148.139	251.371	164.135	41.310	0.00014796	0.00033403	9.4843e-05	577.45	2.7176e-06	3.9699e-06	631.78	213.26	2.0995e-06	2.3371e-06	278.72	95.848	82.989	28.743	2.4889e-06	47.49	0.00016964	7.6904e-05	2.0656e-05	560.48	1.0269e-06	8.4152e-07	614.28	207.33	1.0081e-06	7.7326e-07	270.73	98.208	81.02	28.363	9.8046e-07	46.61	193.928	6.689	6.314	-76.454	46.584	77.351	-76.835	-70.690	26.047	37.837	-72.095	-68.689	-65.957	-61.818	28.096	-64.191	-8191	255	
2793.267	1	1	0	0	0.21625	0.072362	0.098314	0.19261	0.16901	0.10172	0.30857	0.19097	0.037514	0.095849	0.15029	0.17814	0.11554	0.032154	0.048609	0.28443	-2.5438	-2.8479	-2.7188	-3.1208	-2.6896	-2.8771	-3.2604	-2.5938	-2.9813	-2.9125	-2.6604	-3.0375	-2.6958	-2.8917	-3	-2.7208	257.467	109.586	29.796	-20.764	82.433	103.370	193.364	-36.393	116.818	-46.660	202.435	220.509	261.614	213.650	14.964	210.838	0.00017943	0.00030399	0.00010107	581.38	2.2709e-06	2.7969e-06	636.34	212.3	2.1129e-06	3.6675e-06	280.12	94.535	82.592	28.571	2.6442e-06	47.796	0.00016957	7.3134e-05	2.216e-05	562.58	9.8767e-07	7.8132e-07	617.6	207.58	9.8176e-07	7.501e-07	272.16	98.358	81.212	28.335	9.8298e-07	46.982	192.947	6.493	14.526	-76.503	47.653	52.460	-77.128	-70.755	48.699	51.320	-72.250	-69.442	-66.054	-61.520	66.736	-63.946	-8191	255	
2793.364	1	1	0	0	0.24211	0.46306	0.025272	0.11683	0.22536	0.20122	0.06239	0.24333	0.16051	0.085296	0.16904	0.15459	0.28577	0.23015	0.030501	0.16628	-2.4917	-2.8625	-2.5812	-3.0792	-2.8792	-2.8187	-3.1417	-2.5458	-2.775	-2.9583	-2.7812	-3.05	-2.7625	-2.8125	-3.0354	-2.8792	107.275	175.306	269.108	15.034	-50.784	87.462	118.375	112.355	156.149	167.560	161.492	34.546	232.637	-18.629	114.437	64.079	0.00016834	0.00036983	8.5694e-05	582.83	1.4597e-06	2.9125e-06	639.79	212.78	1.5385e-06	4.2575e-06	282.34	96.801	83.385	28.751	2.2403e-06	47.792	0.00016825	7.2063e-05	2.1002e-05	564.1	1.0053e-06	7.3093e-07	620.67	208.25	1.0572e-06	6.8239e-07	274.56	99.334	81.589	28.444	9.2757e-07	46.958	191.134	4.409	17.789	-76.204	55.096	92.284	-76.738	-70.588	48.649	63.065	-71.995	-68.271	-65.965	-62.131	75.293	-63.806	-8191	255	
2793.484	1	1	0	0	0.24013	0.21585	0.062821	0.18161	0.25287	0.13247	0.089843	0.50741	0.22766	0.25311	0.20472	0.1341	0.2319	0.21064	0.087968	0.19031	-2.2625	-3.0625	-2.6	-3.0292	-2.9458	-2.7646	-3.0958	-2.6792	-2.7146	-3.1333	-2.5938	-3.1063	-2.7833	-2.7896	-3.1792	-2.6125	-74.760	63.809	-87.368	119.391	-34.305	130.831	-24.947	-0.168	-81.580	74.284	251.671	13.239	241.419	-6.073	264.779	153.008	0.00016781	0.00037813	0.00010761	579.18	2.724e-06	3.9619e-06	635.51	212.18	1.8869e-06	3.1688e-06	278.32	95.462	82.099	28.356	2.0406e-06	47.19	0.00017157	8.6229e-05	2.1826e-05	562.31	1.0914e-06	8.7765e-07	617.55	206.95	1.0592e-06	7.4431e-07	270.28	97.939	80.233	28.073	9.7962e-07	46.382	191.070	12.805	0.868	-76.324	56.607	59.486	-76.773	-70.663	38.836	68.142	-72.166	-68.713	-66.179	-61.951	63.641	-63.777	-8191	255	
2793.580	1	1	0	0	0.15577	0.184	0.11493	0.13179	0.10082	0.088986	0.23187	0.17987	0.15344	0.19173	0.11246	0.1747	0.15441	0.15759	0.082302	0.11071	-2.1583	-2.8042	-2.4042	-2.875	-3.0292	-2.6833	-3.0062	-2.875	-2.9417	-3.0833	-2.6437	-2.7438	-3.0458	-2.5312	-2.9792	-2.8354	242.213	187.510	-77.362	-24.061	180.944	90.450	253.857	250.255	109.670	67.031	38.045	-78.315	224.310	210.977	237.357	256.675	0.00016763	0.00049013	8.1891e-05	576.88	2.995e-06	2.9893e-06	632.66	210.38	1.6174e-06	2.546e-06	276.95	95.363	81.839	28.437	2.2607e-06	47.123	0.00016634	8.2459e-05	2.4721e-05	559.22	9.6243e-07	8.3573e-07	614.01	205.65	1.0057e-06	6.3607e-07	269.69	97.272	79.891	28.066	9.9515e-07	46.374	192.409	0.202	11.650	-76.106	42.236	59.759	-77.084	-70.697	40.465	79.172	-72.209	-68.139	-66.301	-62.119	54.768	-63.913	-8191	255	
2793.652	1	1	0	0	0.20195	0.23021	0.12317	0.18132	0.25715	0.16005	0.091622	0.21997	0.15732	0.093415	0.11345	0.189	0.27617	0.12862	0.20268	0.19692	-2.4	-3.1292	-2.5833	-2.9292	-2.8354	-2.6125	-3.1	-3.1271	-2.6188	-3.0667	-2.6396	-2.7958	-2.8229	-2.7417	-3.0187	-2.9813	-54.506	78.166	252.552	-30.019	26.629	-41.363	256.896	242.413	42.493	269.680	-50.418	70.435	-29.135	-44.564	-24.491	131.162	0.00016351	0.00033162	8.9131e-05	577.39	1.1646e-06	4.4548e-06	633.38	209.89	1.047e-06	3.9616e-06	278.43	94.921	82.184	28.349	2.7446e-06	47.347	0.00017164	7.4642e-05	2.1425e-05	558.58	9.452e-07	8.5892e-07	615.63	205.7	1.088e-06	6.5344e-07	270.74	97.859	80.374	28.063	1.0623e-06	46.815	187.810	12.783	13.817	-76.312	57.201	46.845	-76.866	-70.779	63.726	70.500	-72.039	-68.043	-65.859	-62.095	59.828	-63.873	-8191	255	
2793.773	1	1	0	0	0.20524	0.26244	0.256	0.20133	0.087434	0.088619	0.22195	0.32049	0.087893	0.19005	0.21304	0.062387	0.084427	0.1359	0.17106	0.13653	-2.1771	-3.0146	-2.8167	-3	-3.0271	-2.6583	-2.9542	-2.8792	-2.7833	-3.0917	-2.7812	-2.7896	-2.9479	-2.7188	-3.0563	-3.0396	73.339	103.742	215.132	218.769	79.364	149.153	264.265	200.032	190.113	42.798	195.689	69.908	175.180	236.615	106.342	220.039	0.0001621	0.00057421	0.00011666	581.76	8.997e-07	3.928e-06	636.42	212.48	1.864e-06	3.1476e-06	281.86	95.972	82.045	28.534	2.022e-06	48.077	0.00016976	7.234e-05	2.1235e-05	563.94	8.7628e-07	8.2458e-07	621.87	207.41	1.0998e-06	6.4587e-07	273.68	99.1	80.418	28.259	9.9599e-07	47.388	197.038	9.590	-0.368	-76.504	67.143	75.012	-76.765	-70.715	74.278	80.163	-72.135	-69.223	-66.166	-62.144	55.582	-63.727	-8191	255	
2793.867	1	1	0	0	0.24118	0.14066	0.15446	0.064356	0.14508	0.24318	0.24099	0.21749	0.21681	0.083208	0.1558	0.23438	0.12889	0.10975	0.095144	0.055734	-2.3063	-3.0021	-2.6271	-2.7521	-3.1188	-2.5896	-3.2875	-2.8521	-2.4729	-3.0875	-2.9521	-2.8187	-3.1521	-2.6792	-2.9646	-3.1437	-84.527	-33.577	128.423	108.224	202.289	-30.881	234.858	208.504	205.377	147.277	-35.869	-63.241	-53.881	255.257	-12.256	-37.599	0.00015974	0.00046239	8.9337e-05	588.28	2.1008e-06	3.0554e-06	644.42	212.91	1.5106e-06	4.6167e-06	280.96	96.787	81.784	28.401	1.4801e-06	47.352	0.00017343	7.9721e-05	2.0211e-05	568.38	8.9512e-07	8.2101e-07	626.23	207.59	1.017e-06	7.5054e-07	273.56	98.829	80.221	28.011	9.4016e-07	46.83	191.233	-7.769	4.448	-76.399	70.277	38.961	-77.077	-70.673	39.002	55.955	-72.230	-68.607	-65.784	-62.212	69.345	-63.592	-8191	255	
2793.963	1	1	0	0	0.092809	0.18032	0.083534	0.24009	0.16467	0.097937	0.17431	0.087028	0.056875	0.060643	0.13421	0.14935	0.048979	0.12492	0.33579	0.30083	-2.0333	-2.9771	-2.8625	-2.7208	-2.9792	-2.7812	-3	-3.0229	-2.6646	-3.0187	-2.8688	-2.5062	-3.2417	-2.7208	-2.9146	-3.1437	227.750	-12.290	78.834	-67.735	-2.642	140.654	4.590	82.160	256.807	215.102	-48.543	-11.588	231.797	218.509	31.131	177.174	0.00016891	0.00041547	6.3032e-05	575.8	2.4152e-06	3.9731e-06	634	209.61	2.12e-06	4.619e-06	276.96	95.143	81.129	28.022	2.0149e-06	46.974	0.00017555	8.0991e-05	2.0935e-05	559.5	8.839e-07	8.2146e-07	616.07	204.9	1.0827e-06	8.0667e-07	270.09	97.311	79.386	27.7	9.4688e-07	46.341	189.880	2.313	15.238	-76.219	75.700	62.195	-76.822	-70.448	43.649	77.159	-72.236	-68.691	-65.924	-62.359	32.818	-63.780	-8191	255	
2794.059	1	1	0	0	0.13323	0.13639	0.087598	0.055353	0.20822	0.16489	0.060546	0.11045	0.049623	0.084422	0.19789	0.1619	0.052239	0.16612	0.15949	0.059545	-2.2479	-3.0417	-2.9792	-2.7167	-3.1125	-2.8458	-2.8563	-2.9583	-2.6437	-2.9813	-3.1	-2.6833	-3.025	-2.8604	-2.7667	-3.0458	172.308	-50.933	153.855	136.688	107.538	242.150	161.195	170.466	178.067	70.642	224.903	164.712	-29.582	165.880	-61.290	248.824	0.00017021	0.00033218	0.00011303	571.96	2.1041e-06	4.5828e-06	633.76	209.53	1.7341e-06	3.9022e-06	277.57	93.699	80.349	28.007	2.412e-06	47.358	0.00017069	6.3531e-05	1.7382e-05	556.63	8.8029e-07	8.4688e-07	615.63	204.31	1.0775e-06	7.1268e-07	269.8	97.165	79.185	27.738	1.0224e-06	46.493	190.167	6.405	-5.252	-76.146	64.847	64.848	-76.599	-70.495	59.068	65.746	-71.699	-68.555	-65.999	-61.947	58.048	-64.027	-8191	255	
2794.180	1	1	0	0	0.16243	0.24546	0.23529	0.069626	0.22167	0.093745	0.23117	0.26437	0.16966	0.25731	0.17184	0.24053	0.29279	0.235	0.099689	0.16105	-2.0875	-2.9667	-3.0146	-2.7583	-3.0187	-2.9021	-2.7938	-3.2	-2.8	-2.8604	-3.2104	-2.5438	-3.025	-3.0458	-2.8604	-3.35	230.154	237.150	-73.157	258.693	251.939	251.873	205.775	259.690	66.808	229.810	236.356	102.280	267.659	242.592	188.017	-80.924	0.00016131	0.00038698	8.7778e-05	578.95	2.4419e-06	3.7645e-06	637.08	209.73	1.8317e-06	3.5342e-06	278.59	95.876	80.805	28.126	2.3015e-06	47.455	0.00017578	7.3213e-05	1.9632e-05	558.64	9.2717e-07	7.6036e-07	619.55	204.78	1.0507e-06	6.138e-07	271.81	97.819	79.352	27.755	9.9599e-07	46.747	193.872	-10.691	7.128	-76.424	52.274	53.345	-76.724	-70.617	36.604	63.797	-71.974	-68.692	-65.744	-62.123	64.679	-63.904	-8191	255	
2794.252	1	1	0	0	0.41186	0.22687	0.090774	0.18967	0.27421	0.20104	0.12547	0.16302	0.14751	0.083933	0.35246	0.35178	0.18719	0.27247	0.053668	0.17616	-2.3125	-2.8208	-2.9771	-2.5333	-3	-2.8229	-2.6292	-2.8875	-2.7167	-2.9667	-3.2083	-2.6875	-3.05	-2.8187	-2.6417	-3.2562	23.513	-76.158	10.497	167.077	70.421	126.816	-21.009	145.320	-9.544	104.292	259.539	73.745	-28.446	186.365	64.999	188.753	0.00015628	0.00035545	0.00012153	580.92	2.3898e-06	4.2842e-06	644.35	210.53	1.392e-06	4.2695e-06	280.8	96	82.505	28.296	2.194e-06	47.847	0.00017216	7.9562e-05	1.8296e-05	561.85	9.416e-07	6.6091e-07	624.25	205.68	1.0081e-06	8.1246e-07	273.55	98.972	80.173	27.925	1.0564e-06	47.118	193.186	5.067	17.353	-76.190	47.405	59.813	-76.812	-70.723	32.131	74.772	-72.237	-69.418	-66.242	-61.849	52.780	-63.980	-8191	255	
#DATA ENDS
