BOXY.EXE: ISS Imagent and Oximeter Data Acquisition Program Version 0.80
Ascii Record File

#ACQ INFORMATION
2  Detector Channels 
16  External MUX Channels 
1  Auxiliary Channels 
5000  Waveform (CCF) Frequency (Hz)
1  Waveforms Skipped 
30  Waveforms Averaged 
1  Cycles Averaged 
16  Acquisitions per Waveform 
10.0806  Updata Rate (Hz) 

#FILE INFORMATION
TRUE -- External MUX Channel results are PARSED.
FALSE -- AC DC and Phase are NOT grouped.
TRUE -- Companion Program Settings File CREATED.
FALSE -- AC data not excluded
FALSE -- DC data not excluded
FALSE -- Phase data not excluded
FALSE -- Auxillary Chn. data not excluded
Tab delimiters

#CALIBRATION STATE
TRUE -- Waveform Calibration Values APPLIED.


#AUX CALIBRATION VALUES
Val Type	aux-1	

Term	1.0000e+00	
Factor	0.0000e+00	


#WF CALIBRATION VALUES
A = Detector Channel
Val Type	A-AC1	A-AC2	A-AC3	A-AC4	A-AC5	A-AC6	A-AC7	A-AC8	A-AC9	A-AC10	A-AC11	A-AC12	A-AC13	A-AC14	A-AC15	A-AC16	A-DC1	A-DC2	A-DC3	A-DC4	A-DC5	A-DC6	A-DC7	A-DC8	A-DC9	A-DC10	A-DC11	A-DC12	A-DC13	A-DC14	A-DC15	A-DC16	A-Ph1	A-Ph2	A-Ph3	A-Ph4	A-Ph5	A-Ph6	A-Ph7	A-Ph8	A-Ph9	A-Ph10	A-Ph11	A-Ph12	A-Ph13	A-Ph14	A-Ph15	A-Ph16	

Term	0.00000e+00	0.00000e+00	0.00000e+00	0.00000e+00	0.00000e+00	0.00000e+00	0.00000e+00	0.00000e+00	0.00000e+00	0.00000e+00	0.00000e+00	0.00000e+00	0.00000e+00	0.00000e+00	0.00000e+00	0.00000e+00	0.00000e+00	0.00000e+00	0.00000e+00	0.00000e+00	0.00000e+00	0.00000e+00	0.00000e+00	0.00000e+00	0.00000e+00	0.00000e+00	0.00000e+00	0.00000e+00	0.00000e+00	0.00000e+00	0.00000e+00	0.00000e+00	0.00000e+00	0.00000e+00	0.00000e+00	0.00000e+00	0.00000e+00	0.00000e+00	0.00000e+00	0.00000e+00	0.00000e+00	0.00000e+00	0.00000e+00	0.00000e+00	0.00000e+00	0.00000e+00	0.00000e+00	0.00000e+00	
Factor	1.00000e+00	1.00000e+00	1.00000e+00	1.00000e+00	1.00000e+00	1.00000e+00	1.00000e+00	1.00000e+00	1.00000e+00	1.00000e+00	1.00000e+00	1.00000e+00	1.00000e+00	1.00000e+00	1.00000e+00	1.00000e+00	1.00000e+00	1.00000e+00	1.00000e+00	1.00000e+00	1.00000e+00	1.00000e+00	1.00000e+00	1.00000e+00	1.00000e+00	1.00000e+00	1.00000e+00	1.00000e+00	1.00000e+00	1.00000e+00	1.00000e+00	1.00000e+00	X	X	X	X	X	X	X	X	X	X	X	X	X	X	X	X	

B = Detector Channel
Val Type	B-AC1	B-AC2	B-AC3	B-AC4	B-AC5	B-AC6	B-AC7	B-AC8	B-AC9	B-AC10	B-AC11	B-AC12	B-AC13	B-AC14	B-AC15	B-AC16	B-DC1	B-DC2	B-DC3	B-DC4	B-DC5	B-DC6	B-DC7	B-DC8	B-DC9	B-DC10	B-DC11	B-DC12	B-DC13	B-DC14	B-DC15	B-DC16	B-Ph1	B-Ph2	B-Ph3	B-Ph4	B-Ph5	B-Ph6	B-Ph7	B-Ph8	B-Ph9	B-Ph10	B-Ph11	B-Ph12	B-Ph13	B-Ph14	B-Ph15	B-Ph16	

Term	0.00000e+00	0.00000e+00	0.00000e+00	0.00000e+00	0.00000e+00	0.00000e+00	0.00000e+00	0.00000e+00	0.00000e+00	0.00000e+00	0.00000e+00	0.00000e+00	0.00000e+00	0.00000e+00	0.00000e+00	0.00000e+00	0.00000e+00	0.00000e+00	0.00000e+00	0.00000e+00	0.00000e+00	0.00000e+00	0.00000e+00	0.00000e+00	0.00000e+00	0.00000e+00	0.00000e+00	0.00000e+00	0.00000e+00	0.00000e+00	0.00000e+00	0.00000e+00	-1.23800e+02	-1.29605e+02	-1.18317e+02	-1.81384e+02	-6.66720e+01	-6.49322e+01	-1.54429e+02	-1.62015e+02	-6.47790e+01	-5.86214e+01	-1.69550e+02	-1.78216e+02	-1.82278e+02	-1.75921e+02	-6.55031e+01	-1.48295e+02	
Factor	1.82523e-05	2.02462e-04	5.46020e-05	1.59639e-01	1.48313e-06	2.22676e-06	1.61345e-01	6.10527e-02	1.51134e-06	2.21112e-06	9.03854e-02	2.02187e-01	4.85540e-02	9.32913e-03	1.59883e-06	1.33881e-02	1.11608e-05	1.90474e-05	5.34503e-06	8.05254e-02	1.92326e-07	2.14060e-07	7.69818e-02	3.09569e-02	1.94649e-07	2.13805e-07	4.45233e-02	1.01031e-01	2.48173e-02	4.77762e-03	2.01464e-07	6.64615e-03	X	X	X	X	X	X	X	X	X	X	X	X	X	X	X	X	



#DISTANCE SETTINGS
A = Detector Channel
A-1	A-2	A-3	A-4	A-5	A-6	A-7	A-8	A-9	A-10	A-11	A-12	A-13	A-14	A-15	A-16	

2.5000e+00	3.0000e+00	2.5000e+00	3.0000e+00	2.0000e+00	3.0000e+00	1.5000e+00	3.0000e+00	3.0000e+00	3.0000e+00	3.0000e+00	3.0000e+00	3.0000e+00	3.0000e+00	1.5000e+00	3.0000e+00	

B = Detector Channel
B-1	B-2	B-3	B-4	B-5	B-6	B-7	B-8	B-9	B-10	B-11	B-12	B-13	B-14	B-15	B-16	

1.0000e+01	1.0000e+01	1.0000e+01	1.4400e+00	1.0000e+01	1.0000e+01	1.5100e+00	1.9400e+00	1.0000e+01	1.0000e+01	1.9900e+00	2.4900e+00	2.4100e+00	2.9000e+00	1.0000e+01	2.9800e+00	




#DATA BEGINS
time	group	step	mark	flag	A-AC1	A-AC2	A-AC3	A-AC4	A-AC5	A-AC6	A-AC7	A-AC8	A-AC9	A-AC10	A-AC11	A-AC12	A-AC13	A-AC14	A-AC15	A-AC16	A-DC1	A-DC2	A-DC3	A-DC4	A-DC5	A-DC6	A-DC7	A-DC8	A-DC9	A-DC10	A-DC11	A-DC12	A-DC13	A-DC14	A-DC15	A-DC16	A-Ph1	A-Ph2	A-Ph3	A-Ph4	A-Ph5	A-Ph6	A-Ph7	A-Ph8	A-Ph9	A-Ph10	A-Ph11	A-Ph12	A-Ph13	A-Ph14	A-Ph15	A-Ph16	B-AC1	B-AC2	B-AC3	B-AC4	B-AC5	B-AC6	B-AC7	B-AC8	B-AC9	B-AC10	B-AC11	B-AC12	B-AC13	B-AC14	B-AC15	B-AC16	B-DC1	B-DC2	B-DC3	B-DC4	B-DC5	B-DC6	B-DC7	B-DC8	B-DC9	B-DC10	B-DC11	B-DC12	B-DC13	B-DC14	B-DC15	B-DC16	B-Ph1	B-Ph2	B-Ph3	B-Ph4	B-Ph5	B-Ph6	B-Ph7	B-Ph8	B-Ph9	B-Ph10	B-Ph11	B-Ph12	B-Ph13	B-Ph14	B-Ph15	B-Ph16	aux-1	digaux	

2968.923	1	1	0	512	0.028496	0.14375	0.18997	0.033286	0.063475	0.2147	0.14145	0.14979	0.055587	0.14282	0.1291	0.38953	0.34711	0.14926	0.14246	0.17017	-2.2833	-3.0187	-2.8458	-2.6688	-3.1167	-2.7812	-2.7271	-3.0604	-2.7687	-3.0458	-3.0292	-2.8146	-3.1708	-3.0042	-2.7792	-3.2771	195.626	286.422	323.922	377.383	168.713	469.146	342.153	380.842	201.910	393.349	314.237	437.482	329.730	133.265	120.304	454.293	0.00037706	0.00049728	4.8317e-05	278.61	1.3002e-06	1.4603e-06	435.27	95.231	1.8962e-06	1.1428e-06	181.08	69.138	46.686	19.291	1.9206e-06	37.51	0.0004342	0.00045095	0.00012358	272.92	4.6919e-06	5.0853e-06	425.71	93.41	4.6493e-06	5.0302e-06	178.37	68.796	45.989	19.149	5.0572e-06	37.354	180.459	206.538	252.171	126.982	230.633	244.377	125.894	130.590	309.212	221.295	129.216	132.822	134.900	138.313	258.036	135.956	-8191	255	
2969.044	1	1	0	0	0.23646	0.39866	0.23677	0.41802	0.24691	0.14431	0.18103	0.0877	0.20538	0.11897	0.24432	0.1934	0.10329	0.030753	0.045009	0.09487	-2.2938	-2.9271	-3.0458	-2.65	-3.1146	-2.9458	-2.8083	-3.2271	-2.8646	-3.0042	-3.05	-2.4167	-3.2229	-2.9188	-2.6917	-3.2917	371.724	400.813	448.016	225.353	257.921	398.901	309.233	249.503	309.258	201.273	181.823	439.399	291.461	252.126	419.970	138.465	0.00039066	0.00024468	8.333e-05	278.22	2.2357e-06	4.5616e-06	436.83	95.391	1.6783e-06	1.7233e-06	183.21	68.151	46.881	19.316	2.8649e-06	37.973	0.00044581	0.00043738	0.00012421	273.17	4.5293e-06	4.9591e-06	428.21	93.691	4.936e-06	5.1246e-06	179.81	68.923	46.106	19.225	4.9346e-06	37.756	182.838	233.511	225.796	126.586	239.943	296.986	125.623	131.329	240.002	355.550	129.313	131.999	135.389	137.916	260.700	136.143	-8191	255	
2969.138	1	1	0	0	0.16749	0.10273	0.2947	0.06621	0.059329	0.25055	0.17286	0.13749	0.015309	0.35163	0.14529	0.07326	0.25803	0.16561	0.050696	0.052439	-2.2208	-2.9229	-3.1583	-2.7542	-3.1458	-2.9062	-2.7667	-3.2521	-2.85	-2.8937	-3.1208	-2.6417	-2.8333	-2.9646	-2.6875	-3.1083	353.488	373.019	392.340	209.819	457.055	119.321	392.352	187.472	190.543	269.173	288.286	444.192	428.063	405.466	184.276	133.253	0.00039139	0.00032721	6.3145e-05	283.24	3.1047e-06	2.0357e-06	439.49	95.821	3.0025e-06	4.4294e-06	184.7	69.476	47.672	19.569	2.3023e-06	38.022	0.00042997	0.00044424	0.00012287	276.43	4.6467e-06	4.9872e-06	429.96	94.443	4.7677e-06	5.134e-06	181.69	69.766	46.761	19.404	4.8964e-06	38.061	181.679	174.671	228.401	127.178	239.020	282.338	125.884	130.766	240.360	264.718	128.932	131.790	135.286	138.542	254.410	136.088	-8191	255	
2969.235	1	1	0	0	0.20429	0.12327	0.1642	0.18582	0.072664	0.092258	0.35152	0.23937	0.081602	0.10576	0.2362	0.20691	0.16363	0.20454	0.0361	0.059296	-2.4167	-2.7583	-3.2229	-2.5396	-2.925	-3.0396	-2.7083	-3.3042	-2.9042	-2.8417	-3.1646	-2.7604	-2.9208	-3.0167	-2.5146	-3.2854	221.554	272.153	420.399	456.744	214.192	227.134	436.858	194.771	382.862	212.804	345.010	418.270	421.192	127.168	252.262	372.550	0.00039911	0.0002301	1.5751e-05	284.88	1.6488e-06	1.5061e-06	440.78	96.386	1.0234e-06	3.1654e-06	184.63	69.497	46.784	19.261	7.6212e-07	37.824	0.0004415	0.00046694	0.00012451	277	4.6082e-06	4.9805e-06	431.69	94.78	4.8305e-06	5.0088e-06	181.1	69.611	46.381	19.24	4.8754e-06	37.559	182.704	204.146	121.970	126.888	277.769	150.342	126.040	131.126	283.235	287.002	128.998	132.368	135.001	138.096	268.093	136.066	-8191	255	
2969.355	1	1	0	0	0.12454	0.1137	0.14967	0.087925	0.11909	0.16304	0.21968	0.14548	0.13906	0.34683	0.058684	0.23669	0.16103	0.20576	0.33525	0.11444	-2.5083	-2.5979	-3.1688	-2.6146	-2.8333	-3.0854	-2.6917	-3.1042	-2.9375	-2.7771	-3.2167	-2.9042	-2.9896	-3.2396	-2.7833	-3.1813	357.873	127.924	357.405	395.212	421.771	135.201	410.589	431.671	407.188	373.506	332.650	133.397	335.226	406.220	310.457	299.833	0.00038982	0.00045889	8.7893e-05	282.55	2.39e-06	1.5419e-06	441.94	96.597	4.0005e-06	2.8104e-06	183.62	70.409	46.913	19.336	4.5715e-06	37.62	0.00045011	0.00046015	0.00012425	275.93	4.6122e-06	5.0286e-06	430.79	94.559	4.867e-06	5.1157e-06	180.55	69.089	46.411	19.224	5.2112e-06	37.522	183.104	138.844	291.852	126.883	270.178	273.923	125.569	130.945	218.478	327.501	128.870	131.406	135.015	138.475	276.305	136.277	-8191	255	
2969.427	1	1	0	0	0.2286	0.1689	0.069854	0.20481	0.19834	0.10333	0.25809	0.33768	0.19902	0.29133	0.12454	0.17495	0.3528	0.047219	0.19964	0.1707	-2.5208	-2.6271	-3.1896	-2.9042	-2.9354	-3.0104	-2.8187	-2.9542	-2.8958	-2.8333	-3.0854	-2.8625	-2.9375	-3.0438	-2.6917	-3.0542	462.094	169.050	153.548	430.523	144.727	199.208	267.776	429.462	385.976	435.229	467.161	327.017	205.053	312.038	418.050	185.294	0.0003869	0.00031048	9.5778e-05	281.14	2.1749e-06	1.7895e-06	437.32	96.188	2.9493e-06	3.5632e-06	184.2	69.107	46.966	19.384	1.6581e-06	37.544	0.00042095	0.00046142	0.00012251	275.22	4.7456e-06	4.9644e-06	430.31	94.627	4.7871e-06	5.2168e-06	180.63	68.66	46.49	19.216	4.8721e-06	37.52	182.529	179.649	173.234	126.850	276.069	221.334	125.847	130.956	272.597	265.799	129.034	132.020	135.556	138.735	252.733	136.028	-8191	255	
2969.523	1	1	0	0	0.20064	0.16054	0.059694	0.1716	0.084664	0.14619	0.16717	0.071801	0.17287	0.052801	0.19717	0.27295	0.32363	0.23404	0.11118	0.098487	-2.6125	-2.6083	-3.0333	-2.9104	-2.8771	-3.1208	-2.6625	-2.7938	-3.1312	-2.6083	-3.0625	-2.9771	-2.7979	-3.2521	-2.6646	-2.975	281.800	385.869	331.543	165.373	373.087	233.260	336.162	317.011	179.585	234.472	210.559	407.600	303.379	209.881	214.864	341.368	0.0003452	0.00031878	3.1138e-05	281.43	1.6292e-06	2.6715e-06	441.14	96.038	2.2625e-06	2.1152e-06	183.1	69.377	46.721	19.424	1.8097e-06	37.864	0.00042604	0.00046864	0.00012995	275.23	4.7264e-06	5.0474e-06	430.78	94.295	4.5986e-06	5.2124e-06	180.61	69.028	46.396	19.219	4.9443e-06	37.645	182.311	229.341	143.824	126.857	282.906	264.223	126.100	130.997	246.524	342.969	129.099	131.912	135.387	138.440	268.756	135.836	-8191	255	
2969.619	1	1	0	0	0.16006	0.07908	0.28529	0.05038	0.03179	0.1469	0.31014	0.064151	0.067818	0.077258	0.27846	0.17904	0.30959	0.26923	0.15141	0.11694	-2.5125	-2.4875	-3.1125	-2.9104	-2.7125	-3.1833	-2.6854	-2.8438	-3.2146	-2.6729	-3.125	-2.8292	-2.4646	-3.2062	-2.8521	-2.8167	406.131	414.652	130.263	400.282	155.082	170.124	411.680	240.048	153.208	155.734	138.234	437.487	275.825	469.626	320.640	338.729	0.00040736	0.00027254	3.9246e-05	281.89	3.0183e-06	2.3063e-06	440.43	95.008	8.6621e-07	3.021e-06	182.1	69.018	46.8	19.143	1.9681e-06	37.464	0.00045487	0.00046079	0.0001224	274.95	4.9376e-06	5.0639e-06	429.58	94.023	4.7283e-06	5.0013e-06	179.43	68.64	46.152	19.079	4.8032e-06	37.164	181.324	174.092	201.948	127.070	267.820	228.293	125.727	130.771	200.070	331.765	129.408	132.582	135.273	138.264	216.546	135.747	-8191	255	
2969.740	1	1	0	0	0.26144	0.23171	0.2309	0.13539	0.1816	0.071644	0.035103	0.13875	0.21043	0.22058	0.28141	0.23666	0.10815	0.35316	0.017785	0.073232	-2.5625	-2.5458	-2.8521	-2.925	-2.5667	-3.1104	-2.7167	-2.775	-3.1146	-2.7708	-3.0042	-3	-2.625	-3.0646	-2.6937	-2.8146	255.673	246.897	265.215	424.798	212.789	256.926	328.021	466.711	180.436	333.484	175.183	117.180	141.916	441.770	187.048	254.745	0.00038868	0.0002894	3.4012e-05	279.1	1.3321e-06	1.3248e-06	434.86	95.418	2.2365e-06	1.0592e-06	180.77	69.185	46.43	19.069	3.4511e-06	37.21	0.00043455	0.00045333	0.00012552	273.52	4.7621e-06	5.0157e-06	427.14	93.607	4.7807e-06	5.33e-06	178.54	68.327	46.044	19.037	4.8729e-06	37.029	186.831	211.355	153.930	126.982	262.383	239.631	125.869	131.070	262.668	327.626	128.872	132.980	134.882	138.275	246.637	135.987	-8191	255	
2969.836	1	1	0	0	0.101	0.31515	0.12413	0.063564	0.13891	0.060835	0.17463	0.15158	0.21803	0.19987	0.19028	0.20298	0.10918	0.089592	0.2968	0.036717	-2.625	-2.7917	-2.7333	-2.9896	-2.7562	-3.0646	-2.9	-2.7146	-3.1354	-2.7208	-2.8521	-2.8708	-2.6292	-3.0917	-2.7854	-2.8021	294.567	349.502	353.503	129.224	191.579	398.085	340.410	146.663	248.783	239.974	328.980	407.312	409.542	243.766	147.950	388.473	0.00038222	0.00016578	6.8584e-05	278.09	2.3776e-06	2.9242e-06	433.98	95.05	1.9405e-06	1.9423e-06	182.09	68.68	46.86	19.284	3.9914e-06	37.617	0.00043588	0.0004711	0.0001273	272.84	4.6599e-06	5.0215e-06	426.1	93.372	4.6898e-06	5.065e-06	178.88	69.066	46.244	19.148	4.8821e-06	37.314	185.919	183.816	192.113	127.345	263.342	260.416	125.951	131.046	249.821	337.890	129.545	132.331	135.275	138.807	272.897	135.997	-8191	255	
2969.932	1	1	0	0	0.23221	0.26376	0.089432	0.14826	0.16806	0.15842	0.14868	0.17873	0.19086	0.18854	0.18171	0.16873	0.082389	0.097427	0.19284	0.36951	-2.8187	-2.6208	-2.7417	-2.8771	-2.5708	-3.1021	-2.8521	-2.8438	-3.0021	-2.7667	-2.9562	-3.1125	-2.8063	-3.0208	-3.0125	-2.7625	327.755	192.218	378.918	340.983	145.643	280.825	165.691	275.876	449.078	438.213	362.249	412.809	422.399	327.334	346.856	393.103	0.00036396	0.00038474	0.00010111	279.25	3.0685e-06	3.2882e-06	433.43	94.613	1.7068e-06	4.8109e-06	182.53	68.747	46.886	19.464	2.5833e-06	38.081	0.00042316	0.00046063	0.00012857	273.36	4.7729e-06	4.9024e-06	426.13	93.63	4.7409e-06	5.0819e-06	179.77	69.268	46.563	19.327	5.0164e-06	37.731	186.829	191.441	212.769	126.423	232.228	288.262	125.451	130.898	281.950	290.997	129.702	132.473	134.861	138.449	281.651	136.157	-8191	255	
2970.004	1	1	0	0	0.054425	0.085535	0.10762	0.095819	0.23164	0.1656	0.23704	0.052014	0.083741	0.16978	0.26415	0.29932	0.11849	0.060903	0.0987	0.31732	-2.8021	-2.7375	-2.9146	-3.0417	-2.6021	-2.9542	-3.0396	-2.6042	-3.1833	-2.7042	-2.7313	-3.0667	-2.7812	-2.9021	-3.0833	-2.7042	247.097	422.737	326.289	428.800	257.399	327.155	361.019	286.898	283.547	319.738	339.856	220.887	164.674	402.494	363.344	304.517	0.00038129	0.00035546	0.00014823	278.71	3.3505e-06	4.2906e-06	437.43	95.288	1.2809e-06	2.0662e-06	182.59	67.891	47.24	19.254	1.584e-06	37.268	0.00043592	0.00046837	0.00012755	272.93	4.6074e-06	5.0768e-06	427.04	93.963	4.7531e-06	4.942e-06	179.1	68.328	46.571	19.112	4.8993e-06	37.047	183.479	226.177	194.168	126.912	238.394	279.032	125.848	131.280	288.021	247.039	129.082	131.459	135.412	138.223	303.432	136.220	-8191	255	
2970.123	1	1	0	0	0.11955	0.14327	0.25906	0.16682	0.14747	0.22093	0.11519	0.20253	0.082362	0.22371	0.17965	0.13377	0.043081	0.15656	0.11099	0.18399	-2.6729	-2.7771	-2.6958	-2.975	-2.6375	-2.9938	-3.0667	-2.6667	-2.9688	-3.0479	-2.6396	-3.1271	-2.4771	-2.825	-3.0396	-2.6667	444.714	262.117	129.348	303.193	151.175	452.116	152.830	354.359	256.878	120.292	350.495	314.799	305.344	441.749	142.403	232.721	0.00037907	0.00016632	3.1208e-05	279.63	1.8798e-06	2.205e-06	436.2	94.935	1.6602e-06	3.3241e-06	181.12	67.669	46.873	19.182	1.2811e-06	37.074	0.00044076	0.00044297	0.00012611	272.59	4.6278e-06	5.0469e-06	426	93.33	4.7827e-06	4.6672e-06	177.68	68.337	46.244	19.015	4.6207e-06	36.844	183.567	465.702	140.910	127.053	289.157	251.161	125.600	131.153	301.289	282.980	129.299	132.542	135.407	138.456	223.072	136.098	-8191	255	
2970.219	1	1	0	0	0.20225	0.18297	0.10509	0.070471	0.23713	0.031438	0.33714	0.2142	0.17687	0.045109	0.21097	0.066453	0.12074	0.24099	0.18298	0.033606	-2.4562	-2.8104	-2.7	-3.0479	-2.6979	-2.7938	-3.1167	-2.5979	-3.1021	-2.9917	-2.6396	-3.2375	-2.5896	-2.6813	-3.0854	-2.5187	284.658	470.017	357.392	192.610	424.131	267.965	444.766	426.544	191.732	322.998	254.705	185.766	249.570	447.232	216.364	280.547	0.00037683	0.00022534	7.7978e-05	275.81	2.646e-06	4.6948e-06	436.47	94.539	2.9127e-06	3.9019e-06	180.17	67.892	46.718	19.207	2.2706e-06	37.248	0.00043076	0.00046674	0.000127	271.08	4.6595e-06	5.063e-06	425.09	93.05	4.6639e-06	5.0886e-06	178.23	68.664	46.426	19.168	4.8183e-06	37.137	183.382	208.452	163.722	126.711	266.184	247.742	125.854	131.069	265.888	306.149	129.380	132.606	135.059	137.971	250.643	136.235	-8191	255	
2970.317	1	1	0	0	0.15363	0.13885	0.46335	0.19086	0.36029	0.13075	0.24812	0.1451	0.16915	0.027228	0.18006	0.22053	0.083151	0.28495	0.1713	0.18271	-2.3937	-2.8042	-2.6958	-3.1771	-2.85	-2.5875	-3.1188	-2.6312	-3.0229	-3.1063	-2.6875	-2.9458	-2.9583	-2.8354	-2.9146	-2.7938	308.127	214.405	320.248	142.985	158.241	403.797	428.416	433.550	384.111	428.367	380.245	461.634	458.045	405.236	292.464	399.286	0.00039728	0.00019341	2.8254e-05	279.34	2.0007e-06	2.3487e-06	436.3	95.439	1.9736e-06	2.8455e-06	182.64	70.144	47.468	19.47	1.9391e-06	37.825	0.00044302	0.0004421	0.00012578	273.38	4.5693e-06	5.3297e-06	427.58	93.93	4.8731e-06	4.9857e-06	179.58	69.422	46.907	19.406	4.9132e-06	37.525	180.325	282.504	257.879	126.895	258.190	310.969	125.831	130.590	263.528	272.762	129.507	132.573	135.462	138.425	284.057	135.762	-8191	255	
2970.436	1	1	0	0	0.070266	0.1387	0.136	0.34315	0.071143	0.3182	0.052672	0.11216	0.073518	0.21653	0.24902	0.018685	0.25312	0.14976	0.015525	0.13524	-2.45	-2.95	-2.7667	-2.8937	-2.7771	-2.7583	-3.1458	-2.7583	-2.8271	-3.1292	-2.6542	-3.0833	-2.9271	-2.7396	-3.0042	-2.7604	160.940	255.311	119.249	117.168	329.282	179.072	328.241	432.407	430.766	223.198	362.031	447.778	374.500	350.418	256.909	384.057	0.00037374	0.00042413	8.8325e-05	280.17	1.8152e-06	5.057e-06	438.06	95.46	2.2429e-06	3.4699e-06	183.67	68.866	47.57	19.58	2.9512e-06	37.577	0.0004395	0.0004465	0.00012929	274.46	4.8322e-06	5.1401e-06	429.55	94.166	4.7251e-06	4.9808e-06	180.7	69.232	46.95	19.398	5.0068e-06	37.299	184.887	192.908	232.304	127.033	269.794	222.573	125.750	130.799	233.202	246.190	129.345	131.392	134.887	138.378	232.160	136.238	-8191	255	
2970.532	1	1	0	0	0.038608	0.14189	0.076872	0.26885	0.051125	0.10902	0.26351	0.34525	0.21033	0.07995	0.12799	0.34619	0.11405	0.31673	0.059346	0.10281	-2.4333	-3.2271	-2.5521	-3.0021	-2.8167	-2.5479	-3.1437	-2.6021	-2.7729	-3.125	-2.5812	-2.9667	-2.9708	-2.6771	-3.2021	-2.8646	175.700	304.350	224.562	184.067	127.637	458.140	424.355	168.864	301.551	312.070	326.765	388.898	191.012	385.588	130.309	333.882	0.00040563	0.00029026	0.00012613	280.06	1.0671e-06	2.5127e-06	437.97	96.187	3.671e-06	3.8189e-06	182.74	69.016	47.507	19.356	3.4764e-06	37.131	0.00045339	0.00044888	0.0001261	274.32	4.5802e-06	5.1343e-06	430.24	94.104	5.0142e-06	4.9469e-06	180.04	68.893	47.005	19.264	4.9065e-06	37.078	184.504	187.921	185.410	126.651	255.164	268.014	125.640	130.862	283.722	276.546	129.214	132.581	134.789	138.491	260.287	136.063	-8191	255	
2970.628	1	1	0	0	0.16286	0.15661	0.14309	0.1514	0.24589	0.16678	0.14254	0.18455	0.17574	0.15867	0.19828	0.11985	0.16845	0.114	0.10102	0.23026	-2.4417	-3.0979	-2.625	-2.9521	-3.0125	-2.6729	-3.0896	-2.9042	-2.9646	-3.375	-2.6646	-2.875	-3.0458	-2.725	-3.2229	-3.0396	246.611	122.901	468.751	433.208	129.840	268.706	374.240	191.671	317.127	320.651	381.870	261.405	420.370	138.634	452.759	384.152	0.00040014	9.8402e-05	6.2085e-05	277.98	1.6171e-06	1.4117e-06	438.35	96.364	1.7674e-06	1.6438e-06	183.76	69.147	47.595	19.487	2.6091e-06	37.866	0.00044504	0.00044595	0.00012461	273.95	4.6234e-06	5.2048e-06	428.85	94.486	4.8439e-06	4.8765e-06	180.25	68.77	46.98	19.377	4.9703e-06	37.384	182.426	243.492	220.179	126.741	258.749	324.677	125.744	130.751	267.210	284.315	129.102	131.576	134.836	138.462	307.818	136.154	-8191	255	
2970.724	1	1	0	0	0.27273	0.21636	0.13198	0.098626	0.031853	0.10893	0.12127	0.079707	0.14432	0.18118	0.2586	0.10907	0.096206	0.20224	0.087212	0.16127	-2.3229	-3.0833	-2.7396	-2.85	-3.0958	-2.7313	-3.1521	-2.9875	-2.7167	-3.1542	-2.8354	-2.7521	-2.8187	-2.6958	-3.1312	-3.0417	277.381	198.570	315.564	392.677	203.228	432.589	402.016	394.744	136.854	115.939	385.296	432.953	457.290	198.718	412.566	234.384	0.0004224	0.00040969	9.9688e-05	280.09	2.829e-06	1.3059e-06	438.46	96.664	2.208e-06	8.0462e-07	182.44	68.298	47.694	19.629	2.6504e-06	37.626	0.00045569	0.0004548	0.00013115	274.26	4.5806e-06	5.1513e-06	428.75	94.338	4.7239e-06	4.9024e-06	179.8	68.992	47.068	19.496	4.9434e-06	37.541	184.593	195.408	207.510	126.777	319.939	248.604	125.535	131.053	260.713	382.342	129.238	131.612	134.687	138.531	243.597	135.907	-8191	255	
2970.820	1	1	0	0	0.22686	0.19873	0.25447	0.13045	0.018028	0.23373	0.20463	0.16454	0.18904	0.16894	0.10308	0.12645	0.070806	0.033963	0.2448	0.17762	-2.2979	-3.1271	-2.8438	-2.7146	-3.2146	-2.8688	-3.0833	-3.1354	-2.8021	-3.0812	-2.9583	-2.6458	-3.2583	-2.8083	-3.1688	-3.0729	294.138	292.760	324.442	155.399	425.575	415.957	329.396	142.551	189.710	456.455	228.647	289.362	213.397	245.558	147.167	309.727	0.00039979	0.00043411	7.9329e-05	279.7	1.6699e-06	2.5883e-06	437.72	95.736	2.723e-06	2.1875e-06	183.32	68.456	48.012	19.718	3.2688e-06	37.85	0.00045657	0.00045638	0.00012791	273.99	4.6206e-06	5.0951e-06	429.97	94.229	4.9392e-06	4.9037e-06	180.24	69.335	47.25	19.537	5.0475e-06	37.447	186.088	193.316	234.195	127.296	279.299	187.771	126.148	131.271	234.837	286.806	129.153	132.649	134.755	138.549	239.768	136.187	-8191	255	
2970.916	1	1	0	0	0.32392	0.087974	0.080974	0.27228	0.094013	0.17512	0.21043	0.089193	0.05791	0.14428	0.078278	0.44987	0.19492	0.2135	0.2657	0.21667	-2.05	-3.0042	-2.9375	-2.6271	-3.2333	-2.7146	-3.0854	-3.0187	-2.5042	-2.9979	-2.8812	-2.7396	-3.1521	-2.7896	-2.8333	-3.1667	167.262	375.380	303.450	421.268	156.293	365.622	405.683	445.151	282.327	272.991	291.239	212.590	132.766	394.698	280.187	324.980	0.00036369	0.00033435	3.4873e-05	279.43	1.8694e-06	2.9277e-06	435.48	94.696	2.5678e-06	6.2221e-06	181.73	67.506	47.144	19.178	1.115e-06	36.999	0.00043857	0.00045416	0.00012689	272.82	4.631e-06	5.1767e-06	426.45	93.64	5.0195e-06	5.0489e-06	178.41	68.383	46.733	19.138	5.0941e-06	36.773	184.416	170.041	222.358	126.882	251.010	259.251	125.480	131.068	243.266	235.970	129.149	132.463	134.656	137.996	286.780	136.310	-8191	255	
2971.037	1	1	0	0	0.026667	0.14043	0.12459	0.12114	0.14479	0.16764	0.11722	0.19453	0.081672	0.09066	0.072445	0.34077	0.18182	0.19632	0.082873	0.16343	-2.1396	-2.9083	-2.8812	-2.4646	-3.2146	-2.8563	-2.8104	-3.1417	-2.7333	-3.0125	-2.9708	-2.6167	-3.0625	-2.9625	-2.675	-3.2333	130.306	374.387	248.051	252.255	118.160	243.513	399.154	237.910	199.165	418.984	294.984	308.192	399.178	227.077	281.733	126.364	0.00035679	8.7334e-05	8.8375e-05	279.14	2.5912e-06	1.94e-06	436.09	95.242	4.1126e-06	3.5713e-06	181.92	68.415	46.975	19.362	3.0758e-06	37.148	0.00042711	0.00045686	0.00012504	271.98	4.718e-06	5.1954e-06	425.35	93.613	4.8751e-06	4.9478e-06	178.4	68.573	46.753	19.291	4.9182e-06	36.874	184.624	211.339	229.080	127.067	253.920	337.940	125.916	130.820	220.089	241.044	129.126	131.686	134.657	138.380	234.845	135.742	-8191	255	
2971.131	1	1	0	0	0.1394	0.11391	0.17777	0.11408	0.12999	0.16705	0.24836	0.18355	0.18078	0.25908	0.20956	0.1583	0.1088	0.29617	0.066711	0.20368	-2.1604	-2.7687	-2.9375	-2.7417	-3.0104	-3.0083	-2.9313	-3.0938	-2.8229	-2.9813	-2.9458	-2.675	-2.9813	-2.85	-2.6854	-3.2396	140.731	185.615	430.348	189.776	273.883	173.696	372.421	433.451	462.718	247.045	471.963	402.094	268.698	414.856	288.723	346.183	0.00036268	0.00047851	0.00012636	276.58	1.6637e-06	1.4271e-06	436.16	95.123	2.6061e-06	1.0626e-06	180.22	69.588	47.68	19.592	2.3385e-06	37.788	0.0004306	0.00046773	0.00012563	271.6	4.6607e-06	5.1602e-06	424.49	93.775	4.9335e-06	5.0168e-06	178.39	68.941	47.16	19.468	4.9774e-06	37.332	184.942	199.123	204.872	126.774	215.611	270.608	125.657	131.189	273.505	226.785	129.397	132.259	134.768	138.211	256.820	135.866	-8191	255	
2971.228	1	1	0	0	0.21025	0.10441	0.074805	0.16127	0.040996	0.14151	0.14845	0.03398	0.083526	0.1075	0.21903	0.17275	0.25517	0.094662	0.11084	0.19405	-2.1646	-2.8563	-2.8646	-2.4479	-2.975	-2.7188	-2.7729	-3.0542	-2.7667	-2.8312	-3.1542	-2.6521	-2.9875	-3.0771	-2.8625	-3.2875	150.745	145.234	272.612	358.720	378.748	379.148	263.737	172.295	329.200	372.696	402.514	162.298	426.261	452.085	387.485	425.904	0.00036165	0.0003086	9.4971e-05	276.72	1.7176e-06	3.6458e-06	437.17	96.052	1.1608e-06	4.7357e-06	182.31	68.803	47.921	19.693	2.819e-06	37.913	0.00044408	0.00047301	0.00012463	272.05	4.712e-06	5.0772e-06	426.77	94.127	4.9534e-06	5.1389e-06	179.11	69.24	47.362	19.598	4.9443e-06	37.399	184.452	125.960	182.650	126.628	194.409	229.158	125.496	131.372	251.025	272.853	129.352	131.337	135.003	137.791	259.474	135.685	-8191	255	
2971.301	1	1	0	0	0.17044	0.1968	0.054635	0.17971	0.15736	0.14635	0.17147	0.16716	0.20265	0.19914	0.16454	0.065132	0.23187	0.11386	0.23769	0.14413	-2.1917	-2.7167	-3.0021	-2.5625	-2.925	-3.0021	-2.8375	-3.1771	-2.9083	-2.8021	-3.5146	-2.6833	-2.8063	-3.0542	-2.7938	-3.2188	135.058	255.703	229.722	137.742	323.838	206.901	285.309	391.308	328.862	167.882	325.778	189.212	331.009	426.858	429.557	116.424	0.00039509	0.00012773	0.00010185	276.25	1.0751e-06	3.8926e-06	435.82	95.275	2.9174e-06	2.8642e-06	181.82	69.517	47.598	19.63	6.42e-07	37.199	0.00045115	0.00047226	0.0001279	271.36	4.827e-06	5.0193e-06	425.31	94.116	4.8163e-06	5.2333e-06	178.35	69.226	47.266	19.523	5.2414e-06	37.016	183.447	147.170	223.587	126.913	185.217	307.266	125.956	130.587	291.911	294.935	129.162	132.864	134.473	138.512	285.103	135.767	-8191	255	
2971.420	1	1	0	0	0.16224	0.19946	0.1479	0.13766	0.17225	0.17688	0.015531	0.1076	0.11601	0.17578	0.25826	0.2366	0.089576	0.095663	0.25884	0.25157	-2.375	-2.775	-3.1229	-2.7792	-2.8292	-3	-2.5604	-3.0771	-2.7708	-2.6958	-3.1354	-2.7604	-2.6979	-2.9437	-2.4521	-2.9708	349.123	128.462	428.438	337.646	301.179	234.538	320.869	204.188	381.877	363.293	407.244	127.035	429.390	156.529	354.688	422.926	0.00039001	0.00027673	2.5171e-05	277.57	2.1881e-06	4.4908e-06	436.13	95.373	2.8768e-06	1.7152e-06	179.74	68.501	47.612	19.594	2.3912e-06	37.176	0.00043446	0.00047718	0.00012981	270.79	4.694e-06	4.918e-06	424.28	93.502	4.8792e-06	5.1416e-06	177.32	68.695	47.323	19.476	4.9535e-06	37.134	184.307	184.798	447.069	126.838	265.676	293.309	125.956	130.944	274.888	295.720	129.528	131.386	135.071	138.233	264.590	135.946	-8191	255	
2971.516	1	1	0	0	0.083727	0.083025	0.12347	0.13319	0.10125	0.047026	0.30951	0.21159	0.15468	0.15502	0.22881	0.17323	0.029777	0.10087	0.16263	0.18213	-2.4229	-2.7708	-3.0062	-2.7	-2.8167	-2.9771	-2.6854	-3.0792	-2.8271	-2.625	-3.2521	-2.8312	-2.9354	-3.0375	-2.7229	-3.1396	179.038	215.517	268.094	272.144	280.690	397.468	391.999	281.406	424.402	115.488	327.318	291.096	214.729	341.919	353.814	115.184	0.0004054	0.00030465	0.00016185	276.78	3.0148e-06	1.6497e-06	435.7	95.458	8.8164e-07	4.0005e-06	183.04	68.91	48.532	19.825	2.568e-06	37.749	0.00044041	0.00046872	0.00012454	270.63	4.744e-06	5.0353e-06	424.52	93.888	4.8723e-06	5.3563e-06	179.36	69.323	47.952	19.73	5.0034e-06	37.562	184.378	190.070	198.496	127.286	242.243	220.599	125.665	131.052	185.245	218.938	129.270	132.292	134.562	138.669	259.048	135.979	-8191	255	
2971.612	1	1	0	0	0.090375	0.30908	0.16071	0.12055	0.044324	0.1485	0.111	0.15095	0.11688	0.15203	0.22815	0.099788	0.14116	0.28921	0.15579	0.16176	-2.3833	-2.5542	-3.2562	-2.7646	-2.7771	-3.1958	-2.7938	-2.9375	-3.0833	-2.6063	-3.1396	-2.8958	-2.6729	-3.0708	-2.5854	-2.9875	165.759	141.842	138.747	198.848	464.376	262.843	438.197	382.116	276.748	289.513	312.915	246.610	272.497	137.372	218.068	371.458	0.00039996	0.00021598	7.9908e-05	278.05	3.1593e-06	1.292e-06	439.1	97.374	3.7045e-06	1.6756e-06	185.33	70.731	48.587	19.905	2.6017e-06	38.331	0.00044771	0.0004598	0.00012838	272.41	4.9099e-06	5.2752e-06	427.61	95.164	4.822e-06	5.2863e-06	181.17	69.965	48.33	19.93	5.1361e-06	38.01	181.913	219.202	150.575	126.600	293.953	221.436	125.651	131.246	263.226	243.882	129.122	132.773	134.939	138.125	278.397	135.811	-8191	255	
2971.708	1	1	0	0	0.20438	0.077979	0.4231	0.14147	0.30995	0.19429	0.15979	0.21453	0.14004	0.1532	0.13678	0.046009	0.14131	0.15243	0.20692	0.19309	-2.5729	-2.5167	-2.9979	-2.725	-2.6146	-3.0792	-2.7021	-2.8292	-3.0875	-2.6188	-3.0479	-2.8625	-2.6354	-3.0396	-2.775	-2.7104	239.813	397.339	230.209	273.655	386.926	436.068	404.373	407.340	157.484	194.087	181.691	431.140	163.299	449.838	133.605	375.708	0.00036338	0.00044955	9.0983e-05	279.42	1.1828e-06	3.7578e-06	441.88	96.484	4.1259e-06	3.4871e-06	184.81	70.781	49.027	19.944	1.4581e-06	37.895	0.00044785	0.00045559	0.00012877	274.61	4.7773e-06	4.9243e-06	430.45	95.256	4.8528e-06	5.2182e-06	181.48	69.981	48.359	19.946	5.0886e-06	37.676	183.649	198.911	194.764	126.582	279.193	250.798	125.561	131.086	242.505	250.627	129.395	131.898	135.334	138.144	289.657	136.343	-8191	255	
2971.804	1	1	0	0	0.15997	0.11324	0.18281	0.41792	0.27322	0.15037	0.091313	0.11224	0.15277	0.19011	0.29975	0.05759	0.29583	0.12364	0.084689	0.096032	-2.6354	-2.6437	-2.9896	-2.7792	-2.5292	-3.1937	-2.7667	-2.9833	-3.0396	-2.8625	-2.9625	-2.9042	-2.6708	-3.1208	-2.7667	-2.5833	467.416	116.206	401.356	389.603	394.971	302.357	208.925	456.390	380.226	209.289	126.808	406.802	276.221	278.245	401.469	350.292	0.0003937	0.00023152	9.0049e-05	281.02	1.8534e-06	4.7495e-06	437.84	97.336	1.6154e-06	2.382e-06	184.82	71.074	48.872	19.928	2.2153e-06	37.688	0.00044397	0.00048309	0.00012742	275.01	4.7188e-06	4.9921e-06	429.64	95.366	4.7369e-06	5.0053e-06	181.05	69.893	48.416	19.858	4.9203e-06	37.482	183.371	362.578	205.559	127.019	290.167	251.803	125.673	130.785	293.876	213.942	129.129	132.220	135.060	138.196	292.308	136.041	-8191	255	
2971.901	1	1	0	0	0.064075	0.10147	0.26708	0.16377	0.25649	0.2168	0.32301	0.11147	0.080761	0.06149	0.25717	0.048549	0.1287	0.067776	0.051517	0.13658	-2.4146	-2.5938	-2.7562	-2.8083	-2.6479	-2.8792	-2.7875	-2.7896	-2.9188	-2.6396	-2.9542	-2.8396	-2.7083	-3.0646	-2.7521	-2.6708	266.351	146.102	267.569	400.357	265.527	453.509	416.926	161.018	286.193	404.375	329.628	221.340	294.387	209.300	116.539	374.267	0.00040252	0.00028031	0.00010251	280.56	2.516e-06	2.6932e-06	439.73	97.225	1.8996e-06	1.34e-06	184.04	70.64	48.867	20.071	2.4486e-06	37.846	0.00045355	0.0004542	0.00012876	275.16	4.746e-06	5.1602e-06	429.41	95.329	4.8723e-06	5.0988e-06	180.98	69.902	48.325	19.903	4.9585e-06	37.569	183.600	176.751	192.433	126.882	256.261	259.156	125.846	130.912	270.173	215.298	129.126	132.876	135.355	138.469	275.623	135.748	-8191	255	
2971.997	1	1	0	0	0.036444	0.10363	0.14415	0.34123	0.15685	0.058196	0.28565	0.19711	0.050361	0.2466	0.028006	0.075453	0.11431	0.16289	0.20956	0.18323	-2.8438	-2.4917	-2.7521	-2.9	-2.675	-2.7812	-2.9333	-2.6021	-3.05	-2.875	-2.9292	-3.0104	-2.4875	-3.1604	-2.9583	-2.9146	172.535	458.147	192.762	383.063	408.211	408.205	417.099	297.431	239.558	232.361	404.515	453.673	203.099	214.077	231.132	151.278	0.00041209	0.00040428	2.5488e-05	282.28	2.7014e-06	1.1021e-06	439.13	96.743	2.4312e-06	4.777e-07	182.84	68.899	48.567	20.057	2.5993e-06	38.162	0.00044613	0.00047055	0.00012629	274.63	4.7541e-06	5.0367e-06	428.81	95.416	4.8123e-06	5.1099e-06	181.05	69.672	48.359	19.999	4.8595e-06	37.882	185.161	210.736	202.040	126.871	286.304	298.877	125.729	131.101	218.513	312.170	128.790	132.522	135.181	138.175	237.350	135.803	-8191	255	
2972.117	1	1	0	0	0.15983	0.078106	0.090177	0.16156	0.19548	0.25218	0.22672	0.11355	0.23047	0.2295	0.19495	0.042191	0.20655	0.14693	0.11279	0.08624	-2.5604	-2.6896	-2.8479	-2.9437	-2.65	-2.9208	-2.9271	-2.5812	-3.0729	-2.8292	-2.6646	-3.1063	-2.7562	-2.9125	-3.0521	-2.5458	324.870	180.425	365.251	312.472	454.003	452.771	129.594	272.574	373.727	389.248	132.557	202.762	145.130	443.170	147.706	426.448	0.00039001	0.00026014	0.00010948	282.44	2.5453e-06	2.0728e-06	440.34	96.752	3.762e-06	2.0963e-06	185.89	71.667	48.848	20.253	4.4106e-06	37.826	0.00044708	0.00047587	0.0001325	275.57	4.8767e-06	5.2324e-06	430.46	95.273	4.9867e-06	5.101e-06	182.17	71.038	48.738	20.14	4.904e-06	37.711	186.168	242.812	173.627	127.107	289.261	273.113	126.042	130.795	246.848	277.679	128.938	131.403	134.982	138.478	261.912	136.160	-8191	255	
2972.212	1	1	0	0	0.011364	0.15975	0.098164	0.036163	0.10535	0.15551	0.1525	0.21589	0.16188	0.21356	0.15719	0.19066	0.12004	0.057141	0.27028	0.13404	-2.6479	-2.9375	-2.7042	-3.0896	-2.6896	-2.9583	-3.0042	-2.6583	-3.075	-2.8521	-2.7375	-3.0771	-2.7917	-3.0396	-3.0771	-2.5792	290.598	138.504	280.445	417.668	355.478	292.946	352.948	191.486	280.372	469.077	414.305	356.039	118.928	159.367	221.241	230.385	0.00039061	0.00051032	0.00010624	278.66	2.325e-06	2.8881e-06	439.62	97.882	4.3718e-07	2.4785e-06	184.68	69.233	49.254	20.307	2.7213e-06	37.839	0.00045487	0.00048698	0.00013184	273.94	4.8029e-06	5.1785e-06	428.15	95.812	4.7681e-06	5.3629e-06	181.51	69.769	48.673	20.143	4.9955e-06	37.61	183.632	231.323	225.980	126.943	275.126	244.143	125.782	130.958	426.083	306.092	129.007	132.923	135.159	138.521	259.884	135.818	-8191	255	
2972.308	1	1	0	0	0.055163	0.30062	0.16466	0.062915	0.12112	0.26557	0.24848	0.069626	0.13829	0.21451	0.13406	0.23067	0.18748	0.038695	0.032318	0.23743	-2.6375	-2.9146	-2.65	-3.1333	-2.7	-2.9625	-3.05	-2.7104	-3.0625	-2.9188	-2.6771	-3.2625	-2.9437	-2.7771	-3.1375	-2.7062	433.467	217.912	294.609	175.528	148.337	295.967	345.808	241.506	438.760	310.906	171.492	201.508	258.140	421.497	228.324	362.888	0.00041412	0.00036267	2.8435e-05	278.94	1.046e-06	3.2658e-06	439.13	97.162	3.346e-06	2.9522e-06	185.13	70.138	49.416	20.36	2.886e-06	38.032	0.00044957	0.00046452	0.0001322	273.86	4.7917e-06	5.2222e-06	427.68	95.479	5.1456e-06	5.1941e-06	181.45	69.991	48.842	20.199	5.0169e-06	37.786	181.014	198.544	229.392	126.957	272.626	214.253	125.779	131.239	240.043	276.136	129.478	131.779	135.186	138.366	301.369	135.592	-8191	255	
2972.404	1	1	0	0	0.057734	0.11785	0.14308	0.14914	0.14867	0.10088	0.28544	0.35747	0.28615	0.1285	0.075231	0.27361	0.16148	0.14661	0.16713	0.27874	-2.6521	-3.0167	-2.8417	-3.0875	-2.9333	-2.9104	-3.2146	-2.6437	-3.0062	-2.9583	-2.5875	-3.0479	-2.6437	-2.6271	-3.175	-2.7313	330.353	392.539	233.132	341.634	439.538	355.381	436.250	246.970	311.288	229.562	194.486	339.120	447.926	370.189	301.972	446.478	0.00038436	0.00018541	7.4174e-05	278.06	3.4557e-06	3.8495e-06	437.56	97.648	1.8304e-06	2.5137e-06	185.55	70.272	49.346	20.218	1.905e-06	38.187	0.00045236	0.00047071	0.00013629	273.23	4.8458e-06	5.2324e-06	428.03	95.723	5.0013e-06	5.2307e-06	182.35	70.819	48.925	20.2	4.99e-06	38.039	187.728	178.515	224.278	127.045	253.546	258.393	125.653	130.921	217.242	322.206	129.138	132.151	134.714	138.246	267.608	136.047	-8191	255	
2972.525	1	1	0	0	0.15251	0.1072	0.057165	0.28324	0.28396	0.12163	0.14511	0.25876	0.089859	0.38223	0.11974	0.31449	0.2534	0.30785	0.10813	0.045507	-2.625	-3.1	-2.575	-3.1	-3.0333	-2.6729	-3.2708	-2.7062	-2.9938	-3.0521	-2.6562	-3.0854	-2.8833	-2.7896	-3.0458	-2.8312	181.811	413.728	432.341	211.185	335.259	124.462	426.316	433.172	127.518	153.221	296.229	221.866	348.149	222.310	115.421	471.101	0.00035889	2.5466e-05	7.6348e-05	281.75	7.0888e-07	2.4837e-06	440.73	97.99	3.294e-06	2.8772e-06	185.76	70.618	49.358	20.447	3.2551e-06	38.13	0.00044304	0.00046388	0.00013439	275.38	4.8987e-06	5.3627e-06	429.01	96.163	4.8443e-06	5.2516e-06	182.75	70.865	49.255	20.356	4.9871e-06	38.059	183.019	146.985	168.830	127.140	189.627	252.435	125.645	130.911	281.419	305.063	129.375	133.059	135.055	138.321	276.298	135.714	-8191	255	
2972.596	1	1	0	0	0.23215	0.1394	0.19554	0.21774	0.14143	0.23798	0.24041	0.16819	0.094626	0.14288	0.31936	0.044353	0.30145	0.074707	0.07021	0.32223	-2.4104	-3.0521	-2.5979	-3.0521	-2.8229	-2.7625	-3.1729	-2.7333	-2.8396	-2.9708	-2.4583	-3.0125	-2.9896	-2.6937	-3.0062	-2.7625	194.920	383.304	140.504	304.856	123.168	243.969	363.788	466.250	322.103	150.876	378.940	197.225	156.777	342.146	217.182	347.266	0.00039275	0.00035634	6.6283e-05	279.1	1.6149e-07	2.6707e-06	437.45	96.984	3.3334e-06	1.8973e-06	185.12	69.773	49.273	20.225	4.4479e-06	37.807	0.0004599	0.00047924	0.00013445	273.95	4.7777e-06	5.4104e-06	427.5	96.077	4.8719e-06	4.889e-06	181.96	70.23	48.906	20.171	4.9426e-06	37.537	185.840	199.132	176.532	127.087	224.495	269.889	125.770	130.772	244.767	258.718	129.454	131.985	135.228	138.042	262.539	135.705	-8191	255	
2972.693	1	1	0	0	0.079132	0.088734	0.061034	0.034717	0.26377	0.12782	0.077058	0.22343	0.21618	0.29522	0.19847	0.16277	0.098326	0.020152	0.20162	0.16313	-2.4313	-3.0271	-2.6375	-3.0396	-2.9521	-2.7625	-3.0312	-2.7667	-2.6979	-3.2917	-2.7708	-2.8479	-3.0375	-2.4667	-2.9771	-2.8729	195.812	125.604	273.013	376.530	338.057	295.194	360.962	323.946	368.110	416.996	468.787	197.924	286.222	363.679	422.493	219.420	0.00039363	0.00022442	7.2366e-05	279.34	1.8718e-06	3.4979e-06	435.22	97.577	1.0841e-06	3.1287e-06	185.64	69.683	49.79	20.265	2.0303e-06	37.874	0.0004425	0.00046983	0.00013522	273.05	4.8815e-06	5.2962e-06	426.76	96.21	5.2137e-06	5.3126e-06	182.24	70.389	49.252	20.221	5.2368e-06	37.749	185.686	188.737	188.759	127.155	264.933	196.499	125.630	130.870	242.224	273.196	129.357	131.650	134.847	138.141	241.734	135.972	-8191	255	
2972.813	1	1	0	0	0.2234	0.13388	0.16062	0.10911	0.11229	0.18634	0.12184	0.32372	0.2281	0.097495	0.080486	0.078135	0.18804	0.18273	0.13968	0.10108	-2.4	-3.1646	-2.8167	-2.8625	-2.9708	-2.7146	-3.0604	-2.825	-2.9021	-3.2812	-2.6417	-2.9042	-3.1208	-2.6917	-2.925	-2.9729	305.792	263.239	422.051	264.721	232.220	232.583	354.174	449.420	432.128	326.490	357.264	274.974	331.446	157.688	221.110	443.202	0.00038608	0.00036713	4.2625e-05	276.23	1.0197e-06	3.795e-06	432.86	97.094	2.2283e-06	2.1949e-06	185.98	71.438	49.664	20.527	2.205e-06	38.554	0.00046501	0.00045837	0.00012882	272.62	4.8097e-06	5.2877e-06	426.49	96.139	4.8026e-06	5.0467e-06	182.73	71.016	49.339	20.371	5.126e-06	38.203	181.864	203.532	151.243	127.013	280.515	275.486	125.979	131.199	239.400	295.657	129.046	133.436	135.501	138.620	285.427	136.028	-8191	255	
2972.909	1	1	0	0	0.20816	0.17269	0.3244	0.10059	0.17475	0.24123	0.39877	0.18246	0.26659	0.26489	0.15429	0.17778	0.16646	0.2617	0.18082	0.42917	-2.275	-3.05	-2.9833	-2.9625	-3.1104	-2.7521	-3.0687	-3.05	-2.7729	-3.0146	-2.9313	-3.0583	-3.2062	-2.75	-3.0125	-3.3208	461.039	273.022	129.731	418.362	394.894	159.292	431.784	149.405	448.678	408.279	444.309	144.269	361.908	467.763	465.732	446.307	0.00039069	0.00019095	8.0146e-05	281.6	3.8766e-06	3.6958e-06	438.64	99.162	2.0739e-06	1.0061e-06	186.61	70.135	50.164	20.648	1.6877e-06	38.965	0.00045757	0.00047841	0.000137	275.21	4.8029e-06	5.492e-06	429.84	97.039	4.8382e-06	5.077e-06	184.06	71.211	49.595	20.575	5.147e-06	38.429	183.611	192.711	260.495	126.740	289.542	274.817	125.907	130.801	236.315	343.332	129.078	131.896	134.821	138.098	297.621	135.661	-8191	255	
2973.005	1	1	0	0	0.11654	0.19113	0.43203	0.1277	0.15672	0.15531	0.20607	0.23732	0.072156	0.23287	0.078461	0.14727	0.18344	0.087124	0.25045	0.16436	-2.1896	-3.0458	-2.8438	-2.7938	-3.3	-2.5854	-2.9583	-2.9521	-2.5854	-3.1063	-2.9104	-2.625	-2.9604	-2.8083	-3.025	-3.1188	216.008	266.942	463.154	386.622	136.825	430.571	371.932	440.968	365.356	228.407	443.290	376.076	132.336	454.682	356.780	449.118	0.00038224	0.0004055	6.4509e-05	281.9	2.3799e-06	4.3609e-06	440.61	98.538	1.7513e-06	3.5712e-06	187.01	70.355	49.775	20.561	2.3697e-06	38.047	0.0004579	0.00047345	0.00013111	275.85	4.8771e-06	5.463e-06	430.45	97.242	5.0544e-06	5.3714e-06	184.02	70.554	49.498	20.434	5.1973e-06	37.745	183.295	229.152	163.393	127.085	305.248	263.691	125.983	130.811	247.338	283.698	129.256	132.569	134.881	138.355	216.121	135.868	-8191	255	
2973.126	1	1	0	0	0.04972	0.0339	0.18582	0.094237	0.16108	0.061072	0.14914	0.040592	0.27716	0.16483	0.15258	0.13733	0.10605	0.048528	0.25368	0.13335	-2.0312	-3.0458	-2.9292	-2.8354	-3.0938	-2.7104	-2.8812	-3.1771	-2.8521	-3.1333	-2.9708	-2.5917	-2.9979	-2.9104	-2.6979	-3.1854	311.517	286.271	147.561	427.860	217.349	278.717	433.393	271.254	254.663	277.196	458.170	292.336	320.525	452.206	435.125	302.776	0.00038723	0.00023682	7.0285e-05	280.69	2.9417e-06	4.5277e-06	438.96	98.821	3.1513e-06	3.7893e-06	186.71	70.129	50.176	20.493	2.8734e-06	38.169	0.00045445	0.00046638	0.00012873	275.8	4.9159e-06	5.3823e-06	429.49	97.404	4.968e-06	5.3389e-06	183.81	70.919	49.691	20.463	5.1109e-06	38.072	187.627	268.338	190.319	126.761	266.784	247.097	125.731	131.225	242.038	260.978	128.973	132.053	135.034	138.418	295.515	135.852	-8191	255	
2973.196	1	1	0	0	0.063122	0.12228	0.14855	0.060022	0.29576	0.21482	0.077867	0.058487	0.22593	0.13508	0.30882	0.17501	0.10411	0.15659	0.26464	0.055627	-2.0917	-2.9813	-3.0812	-2.7604	-3.1625	-2.8708	-3.0187	-3.1917	-2.5687	-2.7729	-3.05	-2.6458	-2.9958	-2.8083	-2.7313	-3.2313	130.550	459.514	204.883	388.311	378.567	188.969	352.882	465.280	263.357	226.083	422.597	418.999	241.649	407.684	354.257	396.152	0.0003685	0.00027768	0.00011726	281.81	2.6524e-06	2.7233e-06	439.79	98.809	2.8717e-06	3.4499e-06	186.67	70.833	50.542	20.837	3.7238e-06	38.45	0.00045543	0.00047702	0.00013241	276.71	4.9536e-06	5.1811e-06	430.28	97.433	5.1059e-06	5.3157e-06	184.25	71.609	50.027	20.719	5.1827e-06	38.232	185.228	145.954	216.747	126.548	210.835	292.198	125.804	130.844	277.063	268.697	129.521	131.417	135.488	138.366	234.399	135.820	-8191	255	
2973.292	1	1	0	0	0.085463	0.053064	0.11439	0.20591	0.13261	0.080343	0.13171	0.26695	0.1893	0.2288	0.13494	0.15896	0.11195	0.20165	0.21905	0.22984	-2.2687	-2.875	-2.9604	-2.5687	-2.9938	-2.7938	-2.6937	-3.1042	-2.8	-2.7562	-2.9542	-2.625	-2.9771	-2.8042	-2.6875	-3.2521	468.256	225.845	150.596	340.227	335.425	313.606	418.674	121.946	351.365	283.808	406.329	197.653	280.676	163.348	166.584	343.200	0.00039305	0.00028341	5.1648e-05	281.51	2.7332e-06	3.9601e-06	440.65	99.783	1.6423e-06	1.5069e-06	188.8	71.557	51.334	20.923	6.7929e-07	39.034	0.00046452	0.00047099	0.00013273	276.84	4.9632e-06	5.372e-06	432.4	97.93	5.1282e-06	5.3313e-06	185.53	71.459	50.587	20.845	5.5037e-06	38.658	180.617	147.464	172.677	126.848	203.368	277.434	125.449	131.320	218.071	288.331	129.271	131.300	134.616	138.293	382.453	136.165	-8191	255	
2973.388	1	1	0	0	0.19279	0.1988	0.11755	0.28334	0.1021	0.10403	0.23076	0.090664	0.34859	0.11763	0.073619	0.085834	0.017463	0.19224	0.066675	0.07108	-2.4	-2.8396	-2.9125	-2.6396	-2.9583	-2.8875	-2.6917	-3.2438	-2.7687	-2.8187	-3.0687	-2.7125	-3.0771	-2.9396	-2.85	-3.0812	459.402	261.570	328.234	149.747	276.582	237.636	337.130	222.596	281.418	267.007	308.861	186.773	258.480	453.252	308.112	255.709	0.00040375	0.00027188	9.6709e-05	284.33	2.034e-06	8.1514e-07	441.07	100.48	3.945e-06	4.659e-06	189.95	72.171	51.072	20.926	2.7442e-06	38.339	0.00045278	0.00048241	0.00013386	278.38	4.9428e-06	5.2119e-06	432.54	98.336	5.2227e-06	5.3429e-06	185.57	71.584	50.546	20.79	5.429e-06	38.053	182.378	254.072	217.742	126.951	248.255	286.324	125.764	131.175	247.084	270.460	128.943	130.738	135.026	138.148	272.094	135.617	-8191	255	
2973.486	1	1	0	0	0.079595	0.20054	0.21213	0.14544	0.1249	0.30878	0.091612	0.20573	0.17801	0.07075	0.22481	0.17414	0.16184	0.053241	0.063191	0.12589	-2.4167	-2.6167	-2.925	-2.7396	-2.675	-2.9583	-2.7833	-2.9062	-2.9021	-2.875	-3.2021	-2.7479	-2.9896	-2.9396	-2.6604	-3.0333	251.495	301.777	194.169	459.932	167.753	417.167	436.406	156.061	391.953	337.574	460.822	314.874	268.621	177.028	439.883	463.243	0.00036957	0.00033752	6.3285e-05	282.69	1.5958e-06	3.7856e-06	439.26	100.47	3.3098e-06	3.5629e-06	187.67	70.355	51.158	20.793	8.2765e-07	38.561	0.00045341	0.00048654	0.00013129	277.43	4.9115e-06	5.3711e-06	430.84	98.343	4.9287e-06	5.3714e-06	184.8	71.687	50.515	20.754	5.3795e-06	38.189	183.064	229.536	280.795	126.948	262.471	261.306	125.779	131.156	277.253	233.537	129.218	132.334	135.052	138.181	264.258	135.555	-8191	255	
2973.605	1	1	0	0	0.2158	0.10593	0.12774	0.24631	0.081146	0.1082	0.17974	0.22368	0.066126	0.16392	0.12058	0.20221	0.3254	0.20307	0.08862	0.099737	-2.4979	-2.7875	-3.0604	-2.6188	-2.6688	-3.0896	-2.6792	-3.1771	-2.9229	-2.7896	-3.2188	-2.65	-2.875	-2.9458	-2.8396	-3.1458	356.710	144.043	436.057	113.446	321.379	442.885	367.600	411.762	120.464	140.930	444.840	210.692	173.670	390.307	116.346	145.056	0.00036869	0.00020114	2.7934e-05	281.47	2.7391e-06	2.2074e-06	441.69	100.3	1.747e-06	4.4164e-06	188.28	71.914	51.47	21.021	4.0939e-06	38.639	0.00045771	0.00047757	0.0001361	277.3	4.9388e-06	5.2338e-06	431.32	98.478	5.1509e-06	5.3188e-06	184.8	71.968	50.722	20.912	5.4253e-06	38.41	182.152	201.604	260.723	127.795	294.990	243.471	125.688	131.025	297.457	257.289	128.702	131.825	134.805	138.371	256.207	135.553	-8191	255	
2973.701	1	1	0	0	0.078672	0.0063476	0.27527	0.23548	0.20965	0.13294	0.30887	0.10386	0.20427	0.13077	0.055659	0.11243	0.052199	0.043839	0.33122	0.01003	-2.6958	-2.8292	-3.0271	-2.8771	-2.8375	-3.0812	-2.875	-2.9667	-2.9958	-2.6875	-3.0229	-2.775	-2.8229	-3.1854	-2.7042	-3.0979	235.248	231.136	151.113	419.825	192.500	132.712	411.179	315.075	385.170	273.577	253.492	256.490	166.220	201.023	316.331	204.022	0.00038974	0.00020879	6.4534e-05	283.86	2.687e-06	2.6691e-06	441.36	100.39	1.9303e-06	2.5158e-06	188.98	72.257	51.284	21.162	1.8654e-06	39.158	0.00044839	0.00049956	0.00013142	277.97	4.8093e-06	5.3042e-06	432.21	98.725	4.9558e-06	5.3696e-06	185.47	72.595	50.838	21.101	5.1642e-06	38.807	187.227	205.473	236.813	126.817	231.825	269.827	125.971	131.175	264.537	193.324	129.154	131.628	135.026	138.657	254.672	136.011	-8191	255	
2973.797	1	1	0	0	0.2168	0.14127	0.064285	0.1756	0.18526	0.067533	0.060529	0.1234	0.1332	0.16467	0.095018	0.20017	0.10501	0.28686	0.12033	0.056327	-2.6562	-2.5708	-2.9958	-3.0687	-2.7521	-3.1604	-2.7979	-2.9875	-3.1542	-2.7438	-2.925	-2.9062	-2.6354	-3.1188	-2.6896	-3.0229	368.954	319.130	443.208	461.524	404.679	248.337	291.827	128.353	391.917	246.544	442.317	301.785	265.883	138.874	126.801	362.514	0.00038918	0.00026404	7.1519e-05	282.28	3.0081e-06	2.9878e-06	440.72	100.06	2.987e-06	2.4872e-06	188.63	72.682	51.369	21.166	2.0456e-06	38.222	0.00046671	0.00048198	0.00013585	277.95	5.0882e-06	5.4617e-06	432.44	98.789	5.069e-06	5.481e-06	185.63	72.249	51.348	21.07	5.5109e-06	38.204	185.414	194.241	243.815	126.814	253.105	232.162	126.176	131.423	287.859	311.973	128.931	131.230	134.848	138.398	283.106	135.713	-8191	255	
2973.894	1	1	0	0	0.29852	0.1648	0.15439	0.37686	0.25284	0.26965	0.049888	0.10764	0.11852	0.20542	0.29928	0.14114	0.068368	0.070797	0.1771	0.059412	-2.8354	-2.4813	-2.9688	-2.8792	-2.5333	-3.1562	-2.8604	-2.9229	-3.0271	-2.5729	-3.0479	-2.8979	-2.575	-3.3146	-2.8521	-2.9313	218.935	319.178	213.604	356.150	239.876	317.202	297.469	268.826	412.161	204.841	398.052	209.604	119.358	248.708	355.205	198.539	0.0003703	0.00023052	7.7927e-05	283.32	3.0096e-06	6.3967e-06	441.45	100.32	2.8554e-06	2.4932e-06	188.29	71.255	51.491	21.169	3.0085e-06	38.55	0.00045701	0.0004911	0.00013799	278.02	4.9111e-06	5.4411e-06	431.36	98.931	5.1582e-06	5.7224e-06	184.77	72.227	51.227	21.087	5.5361e-06	38.28	181.672	180.462	212.135	126.365	241.568	254.196	125.644	131.217	238.903	274.855	128.995	131.089	134.586	137.929	256.381	135.853	-8191	255	
2973.990	1	1	0	0	0.16889	0.19646	0.022292	0.26962	0.12181	0.21666	0.13297	0.23901	0.084685	0.089281	0.069455	0.048256	0.10262	0.15195	0.14872	0.19862	-2.7229	-2.6792	-2.9396	-3.1146	-2.75	-3.1458	-3.0104	-2.7833	-3.2458	-2.725	-3.0208	-2.9667	-2.5438	-2.9854	-2.8646	-2.7167	131.468	441.894	315.354	152.098	453.147	433.409	318.283	346.211	291.168	141.528	128.558	120.002	389.961	469.268	311.499	393.638	0.00037539	0.00019882	8.4925e-05	283.27	6.909e-07	3.7398e-06	437.65	100.25	1.1014e-06	3.9818e-06	187.17	71.602	52.03	21.145	3.0702e-06	38.763	0.00044922	0.00049571	0.00013241	276.96	4.8911e-06	5.492e-06	428.73	99.06	5.0264e-06	5.3037e-06	184.28	71.565	51.334	21.118	5.2582e-06	38.438	185.519	223.253	201.312	126.549	174.607	254.945	125.843	130.812	313.346	232.691	129.137	132.629	134.551	138.037	244.351	135.531	-8191	255	
2974.086	1	1	0	0	0.12501	0.19812	0.010072	0.32781	0.29448	0.23737	0.27141	0.2399	0.14846	0.14191	0.18747	0.15046	0.14091	0.32435	0.27655	0.32657	-2.8729	-2.6604	-2.925	-3.0583	-2.5521	-3.1333	-2.775	-2.6688	-3.1729	-2.8021	-3.1125	-3.1292	-2.7958	-3.15	-2.9062	-2.8271	184.800	135.187	332.178	310.714	189.753	385.875	423.967	320.527	272.865	199.692	124.401	403.616	129.169	405.141	440.339	431.736	0.00037813	0.0002095	5.9821e-05	284.97	2.4895e-06	1.5789e-06	437.87	100.65	2.6307e-06	1.6736e-06	189.13	72.538	52.005	21.442	3.0682e-06	39.199	0.00045834	0.00049837	0.00013709	277.82	5.0381e-06	5.5317e-06	429.14	99.263	4.8974e-06	5.5879e-06	186.24	72.822	51.604	21.383	5.3061e-06	38.889	181.599	224.127	192.857	126.640	265.686	303.601	125.746	131.098	215.679	312.962	129.593	131.432	135.383	138.496	236.478	135.813	-8191	255	
2974.206	1	1	0	0	0.26412	0.10054	0.19757	0.30891	0.14127	0.042639	0.42938	0.29736	0.29084	0.10132	0.30249	0.13243	0.083155	0.07751	0.30458	0.15103	-2.7854	-2.5563	-2.7708	-2.8333	-2.3542	-2.9729	-2.9854	-2.5917	-3.1208	-2.8167	-2.7667	-2.9604	-2.675	-3.0896	-2.9688	-2.8208	299.475	212.137	197.855	341.844	158.630	314.987	416.419	138.584	461.348	443.489	168.277	145.710	437.241	388.102	352.574	199.619	0.00040988	0.00033992	9.2177e-05	283.9	7.5095e-07	2.7951e-06	438.26	100.87	3.8391e-06	4.341e-06	188.21	72.703	52.228	21.379	5.3719e-06	38.513	0.00047257	0.00051194	0.00013648	278.15	5.0486e-06	5.4184e-06	429.65	99.355	5.0041e-06	5.3006e-06	185.5	72.602	51.645	21.261	5.3199e-06	38.355	182.505	187.525	210.803	126.998	261.751	212.835	125.454	131.287	292.562	236.268	129.212	132.812	135.021	138.440	280.633	135.777	-8191	255	
2974.301	1	1	0	0	0.26627	0.082361	0.18117	0.075687	0.092519	0.098619	0.30466	0.12075	0.29511	0.074353	0.10544	0.09828	0.19076	0.1837	0.14335	0.35889	-2.5187	-2.8042	-2.6479	-2.9917	-2.4708	-2.9208	-2.8854	-2.6042	-3.0896	-2.8333	-2.8979	-3.1042	-2.7417	-2.8979	-2.9625	-2.7208	254.152	300.834	390.962	461.346	418.589	240.434	428.563	381.926	177.452	441.119	456.696	189.437	291.243	437.726	432.580	358.064	0.00038798	0.00039701	1.1843e-05	282.61	3.1594e-06	2.0117e-06	438.26	101.14	2.5361e-06	2.1629e-06	188.61	72.94	52.2	21.449	2.6006e-06	38.725	0.0004671	0.00049408	0.0001372	277.66	5.1014e-06	5.4327e-06	428.5	99.639	4.9838e-06	5.4035e-06	185.09	72.628	51.901	21.325	5.4215e-06	38.421	181.131	207.041	174.238	126.582	256.136	250.596	125.798	131.052	265.426	270.331	129.408	131.320	134.686	138.057	254.837	135.456	-8191	255	
2974.397	1	1	0	0	0.22373	0.12602	0.16925	0.13419	0.23858	0.084079	0.1554	0.12876	0.23533	0.12554	0.19892	0.079633	0.092458	0.11482	0.48335	0.2787	-2.6396	-2.7562	-2.7333	-3.1229	-2.7146	-2.925	-3.0958	-2.6167	-2.9896	-2.9396	-2.8	-3.1229	-2.7896	-2.7896	-2.9542	-2.5229	303.163	298.575	262.504	352.629	214.902	424.483	432.975	136.851	191.193	214.675	414.407	121.897	389.217	348.201	458.670	438.511	0.00042007	0.0003389	4.728e-05	284.47	2.9526e-06	2.9155e-06	437.38	102.27	3.7006e-07	1.7939e-06	187.19	70.672	52.026	21.534	1.2284e-06	38.84	0.00046615	0.00048146	0.00013668	278.59	5.1868e-06	5.4469e-06	428.84	99.967	5.0499e-06	5.3906e-06	184.64	72.312	51.904	21.425	5.2129e-06	38.671	186.476	177.463	239.968	127.188	251.375	263.744	125.541	131.065	434.585	260.095	129.421	132.224	135.212	138.744	282.449	135.713	-8191	255	
2974.493	1	1	0	0	0.17691	0.19228	0.13881	0.11022	0.34277	0.14706	0.26488	0.055052	0.13536	0.14347	0.20305	0.16325	0.36387	0.15858	0.17762	0.148	-2.5896	-2.8271	-2.7875	-3.2229	-2.7313	-2.8104	-3.0438	-2.4437	-2.9354	-2.9479	-2.8042	-3.0333	-2.875	-2.7958	-3.0208	-2.6813	145.509	248.102	308.275	383.552	165.224	298.497	335.201	194.418	174.293	469.674	401.167	412.775	397.958	293.244	216.101	443.379	0.00039066	0.00032779	0.00011467	285.11	2.2443e-06	2.6702e-06	437.36	100.77	2.3971e-06	3.1589e-06	189.65	73.658	52.653	21.63	1.2129e-06	39.458	0.0004701	0.00050337	0.00013732	278.42	5.0722e-06	5.5058e-06	431.59	100.06	5.1728e-06	5.444e-06	186.45	73.728	52.261	21.541	5.3774e-06	39.071	185.481	205.553	219.774	126.650	268.713	344.694	126.155	130.897	252.726	266.083	129.222	132.266	134.886	138.190	222.888	135.651	-8191	255	
2974.589	1	1	0	0	0.22833	0.17694	0.31745	0.075813	0.23346	0.34203	0.29652	0.067591	0.29383	0.18452	0.11221	0.15268	0.09003	0.12725	0.23328	0.12049	-2.5062	-2.8937	-2.5812	-2.9771	-2.8917	-2.7354	-3.075	-2.5938	-2.9604	-3.0625	-2.8229	-3.0479	-2.9	-2.6688	-3.1479	-2.8396	430.606	439.267	206.792	345.292	419.786	404.147	436.556	405.307	213.959	343.693	156.112	128.089	182.142	407.316	204.941	438.736	0.00041617	0.00028633	6.0607e-05	287.88	2.5194e-06	2.5946e-06	440.33	102.04	1.0392e-06	4.1936e-06	190.74	73.503	52.823	21.672	2.6216e-06	38.966	0.00046755	0.00049039	0.00014544	281.05	5.0305e-06	5.5566e-06	432.23	100.89	5.3277e-06	5.2957e-06	187.49	73.379	52.42	21.515	5.2725e-06	38.699	185.123	217.345	221.176	126.801	244.507	272.104	125.547	130.931	284.399	242.906	129.115	131.971	135.064	138.442	233.855	135.842	-8191	255	
2974.685	1	1	0	0	0.086308	0.081693	0.13236	0.032394	0.17059	0.20917	0.047365	0.47418	0.18439	0.20842	0.056827	0.19552	0.3636	0.16686	0.17015	0.20298	-2.3354	-3.1521	-2.4083	-3.0062	-2.8438	-2.7188	-3.2	-2.9021	-3.0167	-2.9542	-2.5917	-2.9729	-2.9167	-2.6042	-3.1771	-2.9479	344.221	338.674	457.073	431.699	411.850	301.005	400.601	399.202	369.450	123.441	188.148	242.362	427.792	127.692	363.794	171.201	0.00040258	0.0002212	8.5056e-05	286.56	2.3688e-06	2.4315e-06	444.59	101.72	4.7787e-06	2.9986e-06	188.88	72.057	52.354	21.45	4.0229e-06	38.68	0.00046943	0.00049495	0.00014332	281.73	5.0774e-06	5.5745e-06	433.93	100.27	5.1172e-06	5.5073e-06	185.93	72.772	52.074	21.41	5.4169e-06	38.495	184.812	193.918	223.715	126.892	247.185	320.666	126.152	131.188	259.986	243.784	129.028	131.221	135.286	138.107	258.466	135.855	-8191	255	
2974.782	1	1	0	0	0.16181	0.22352	0.27546	0.067229	0.1829	0.20749	0.1583	0.1272	0.17033	0.23585	0.13656	0.143	0.14966	0.19552	0.056588	0.17567	-2.3875	-3.1271	-2.5208	-3.0104	-2.9688	-2.6646	-3.1729	-2.7313	-2.7708	-3.1396	-2.65	-2.9417	-2.8583	-2.7458	-3.0354	-3.1479	260.759	270.299	431.909	428.265	249.747	459.619	457.764	236.498	136.094	214.974	467.654	347.574	438.282	189.412	217.899	358.437	0.00037331	0.00012489	7.8696e-05	290.95	1.4278e-06	9.5986e-07	443.88	102.82	3.8785e-06	3.6833e-06	190.63	73.085	52.623	21.675	3.0386e-06	38.732	0.00046336	0.0004921	0.00014562	283.3	5.0486e-06	5.6061e-06	433.59	101.05	5.1468e-06	5.5661e-06	186.88	72.77	52.342	21.571	5.2792e-06	38.747	182.506	169.381	203.002	127.095	302.979	299.292	125.588	131.383	251.871	260.132	128.874	132.088	135.206	138.242	225.686	135.769	-8191	255	
2974.902	1	1	0	0	0.15022	0.11448	0.15934	0.13261	0.036095	0.19268	0.22835	0.131	0.16863	0.20568	0.043504	0.30643	0.22962	0.29414	0.16388	0.10382	-2.4313	-3.0375	-2.7354	-2.8854	-3.0146	-2.6458	-3.0375	-2.7917	-2.6604	-3.2083	-2.8854	-2.9542	-3.1354	-2.7	-3.1188	-3.0292	384.802	312.018	167.010	463.947	283.284	299.671	329.004	413.489	224.317	435.212	130.199	385.735	204.749	115.119	322.728	296.093	0.00039977	0.00034215	9.1328e-05	289.08	1.727e-06	4.0179e-07	443.55	102.33	3.3991e-06	2.4347e-06	190.33	72.731	53.049	21.906	1.7727e-06	39.405	0.00047726	0.00049011	0.00014363	282.24	4.9957e-06	5.8398e-06	433.69	101.02	5.2202e-06	5.6017e-06	186.65	73.159	52.564	21.717	5.5759e-06	39.03	183.610	185.344	170.321	126.870	265.553	401.956	125.914	131.097	271.711	204.811	129.242	132.202	135.038	138.374	247.615	135.805	-8191	255	
2974.998	1	1	0	0	0.12668	0.191	0.31217	0.34343	0.074219	0.29239	0.18843	0.21142	0.09195	0.36065	0.35801	0.048651	0.20014	0.13127	0.10272	0.16684	-2.3917	-3.1813	-2.8021	-2.8	-3.0271	-2.8896	-3.2146	-3.1458	-2.7667	-3.0333	-2.7562	-2.9271	-3.0375	-2.6833	-3.075	-3.0438	233.063	468.564	240.278	328.574	338.127	354.925	151.139	336.437	411.520	305.495	437.623	464.271	352.262	351.685	226.369	451.454	0.00040154	0.00018925	7.5226e-05	288.76	2.0689e-06	1.705e-06	443.74	102.36	4.1032e-06	4.274e-06	189.24	72.58	52.989	21.74	3.4944e-06	38.793	0.00048619	0.00051003	0.0001444	282.31	5.0093e-06	5.3805e-06	434.1	101.02	5.3127e-06	5.6195e-06	186.64	73.274	52.492	21.604	5.4563e-06	38.541	184.831	222.837	193.369	126.907	276.340	217.486	125.527	130.945	277.195	269.542	129.288	132.966	135.509	138.153	259.787	135.997	-8191	255	
2975.070	1	1	0	0	0.096465	0.085904	0.1242	0.14922	0.063571	0.19011	0.15998	0.1235	0.029333	0.085046	0.1456	0.19457	0.20141	0.11181	0.042302	0.15228	-2.2167	-2.9583	-2.7208	-2.7875	-3.0312	-2.6437	-2.9333	-2.9792	-2.6292	-2.9771	-3.0333	-2.8396	-3.1458	-2.8979	-3.1146	-3.1271	447.761	167.018	167.320	364.777	149.163	361.412	376.862	200.380	411.523	423.804	386.452	285.098	348.341	448.698	319.711	245.753	0.00039977	0.00027158	2.7746e-05	287.63	2.537e-06	6.1646e-06	441.49	101.69	2.5712e-06	6.1597e-06	189.17	72.064	52.679	21.528	1.5222e-06	38.386	0.00046901	0.00050329	0.00014062	281.7	5.1067e-06	5.4452e-06	431.43	100.43	5.219e-06	5.4734e-06	185.33	72.518	52.106	21.428	5.408e-06	38.123	185.390	127.711	245.811	127.051	259.231	245.778	125.780	131.220	279.999	268.233	128.918	132.981	134.899	138.703	260.424	135.721	-8191	255	
2975.166	1	1	0	0	0.089128	0.13512	0.19666	0.15108	0.17818	0.11628	0.10915	0.12524	0.18228	0.12606	0.30892	0.13616	0.17346	0.21013	0.26364	0.21805	-2.3312	-2.9583	-2.7375	-2.8542	-3.1625	-2.7104	-2.9979	-3.0667	-2.6583	-3.1729	-2.9542	-2.8	-3.2083	-2.9458	-2.8146	-3.1937	463.852	199.183	139.641	168.873	141.815	193.844	445.810	427.693	472.644	392.650	275.126	466.123	462.731	472.316	311.476	433.061	0.0003797	0.00032379	0.00012569	285.4	3.262e-06	2.4656e-06	441.18	101.71	2.9285e-06	2.4486e-06	188.67	71.611	52.273	21.67	2.7743e-06	38.563	0.00046813	0.00049464	0.00014052	280.35	4.9796e-06	5.5201e-06	430.4	99.999	5.1602e-06	5.481e-06	184.76	71.934	52.085	21.557	5.4106e-06	38.288	180.846	170.945	202.354	127.090	278.838	227.379	125.585	130.856	260.126	254.375	128.997	131.780	135.333	138.124	236.737	135.731	-8191	255	
2975.285	1	1	0	0	0.11383	0.11021	0.094949	0.20669	0.14402	0.23621	0.16486	0.103	0.21437	0.087226	0.15393	0.096038	0.028561	0.23857	0.10866	0.077875	-2.1021	-2.8896	-2.9	-2.5812	-3.275	-2.8854	-2.9521	-3.1063	-2.6979	-3.0438	-2.9583	-2.6917	-3.1479	-2.7562	-2.875	-3.1958	257.030	285.915	407.408	326.626	282.121	405.464	401.261	398.075	220.857	222.947	380.057	118.410	336.397	371.685	241.851	471.807	0.00036291	0.00024152	0.00011781	286.91	1.5177e-06	1.7832e-06	438.95	101.59	4.329e-06	1.2478e-06	186.82	72.136	52.981	21.693	4.4227e-06	39.01	0.00046855	0.00048404	0.00013795	280.65	5.1876e-06	5.6102e-06	429.83	99.889	5.2884e-06	5.4569e-06	183.95	72.739	52.253	21.634	5.2981e-06	38.804	183.611	212.745	193.153	126.836	276.377	265.626	125.875	130.978	250.511	305.110	129.049	131.885	134.682	138.576	262.296	135.590	-8191	255	
2975.381	1	1	0	0	0.14105	0.20973	0.039473	0.074348	0.19647	0.16389	0.19579	0.23746	0.11395	0.16375	0.1869	0.13031	0.30705	0.23201	0.1092	0.012387	-2.3104	-2.9729	-2.8833	-2.725	-3.0479	-3.05	-2.7188	-3.1125	-2.8333	-2.8833	-3.1146	-2.5062	-3.1354	-2.7958	-2.8063	-3.2146	389.710	331.482	385.638	213.087	345.935	140.468	345.137	176.411	220.114	113.211	437.186	263.175	259.656	467.395	116.933	358.499	0.00041586	0.00037645	8.705e-05	286.96	3.3346e-06	4.9473e-07	440.17	102.39	3.0921e-06	4.06e-06	187.98	71.533	52.318	21.702	4.0127e-06	38.538	0.00047178	0.00049761	0.0001373	280.21	5.0558e-06	5.6356e-06	430.32	100.59	5.0941e-06	5.3171e-06	184.77	72.574	52.166	21.67	5.5558e-06	38.408	185.426	191.646	243.933	127.251	234.602	364.947	126.044	131.047	275.026	249.187	129.526	132.915	135.153	138.190	279.395	135.871	-8191	255	
2975.477	1	1	0	0	0.22496	0.080054	0.14617	0.19918	0.21427	0.15798	0.084139	0.33921	0.17	0.068856	0.071848	0.12144	0.2394	0.27383	0.035334	0.23925	-2.3021	-2.8708	-2.9917	-2.675	-3.0083	-3.0021	-2.8187	-2.9646	-2.6792	-2.8104	-3.0771	-2.3583	-3.0563	-3.0583	-2.5812	-3.1604	188.295	225.658	470.399	344.490	235.410	177.009	221.137	127.563	403.377	326.024	417.313	429.973	367.698	431.187	329.741	399.745	0.00040838	0.00031521	3.9512e-05	286.15	2.4367e-06	2.8408e-06	439.84	102.03	3.4058e-06	1.4615e-06	186.76	71.229	52.121	21.638	2.5067e-06	38.365	0.00046922	0.00049468	0.00013916	280.51	5.1287e-06	5.5665e-06	428.52	100.08	5.3407e-06	5.477e-06	183.64	71.912	51.91	21.513	5.4332e-06	38.131	182.513	126.674	168.459	127.041	226.821	281.528	125.809	131.100	236.451	258.767	129.256	131.921	135.316	138.443	217.340	135.871	-8191	255	
2975.598	1	1	0	0	0.23445	0.20749	0.12918	0.12553	0.42959	0.18843	0.12991	0.14209	0.086794	0.23233	0.33459	0.11014	0.18175	0.05514	0.25388	0.33451	-2.3146	-2.8583	-2.9667	-2.5146	-2.8792	-2.9479	-2.6188	-3.2229	-2.8646	-2.8146	-3.1042	-2.7708	-2.8375	-2.9688	-2.6375	-3.0667	235.418	397.139	366.618	468.969	273.355	356.247	413.702	294.823	427.495	425.478	449.158	466.594	452.251	187.754	298.963	411.725	0.00037131	0.00025024	9.9579e-05	286.56	1.5129e-06	3.4169e-06	437.9	101.97	6.7739e-07	3.3508e-06	186.94	71.234	52.033	21.699	2.0742e-06	38.802	0.0004588	0.00049404	0.00014124	279.56	4.9913e-06	5.5812e-06	428.26	100.33	5.335e-06	5.6511e-06	183.27	71.495	52.006	21.622	5.5222e-06	38.401	181.419	165.641	187.427	126.878	251.069	232.647	125.451	130.912	414.485	258.666	129.198	132.698	135.066	138.373	272.727	135.923	-8191	255	
2975.694	1	1	0	0	0.078469	0.055304	0.004263	0.31579	0.1288	0.20575	0.21309	0.13912	0.18753	0.12104	0.32007	0.20603	0.015093	0.12416	0.13484	0.19729	-2.4667	-2.6937	-3.0625	-2.6271	-2.9354	-3.1646	-2.7125	-2.8771	-2.7792	-2.7062	-3.1271	-2.7104	-2.8729	-3.1354	-2.6437	-3.025	340.499	213.980	201.548	450.651	399.032	185.734	330.871	349.988	277.715	173.759	227.428	247.370	154.574	430.014	224.985	384.397	0.00038704	0.00010049	6.0223e-05	283.79	1.0852e-06	9.6158e-07	437.96	101.3	3.1152e-06	2.5096e-06	185.98	72.469	52.274	21.818	1.9675e-06	38.757	0.00046836	0.00049297	0.00013622	278.91	5.1239e-06	5.5687e-06	428.84	99.667	5.1935e-06	5.5331e-06	183.64	72.293	51.735	21.665	5.2742e-06	38.602	180.984	269.833	247.430	126.726	253.146	232.607	125.738	131.031	244.396	311.105	128.730	131.970	135.387	137.978	252.576	135.980	-8191	255	
2975.766	1	1	0	0	0.26119	0.17993	0.30037	0.12332	0.033407	0.16535	0.1348	0.2076	0.023863	0.11707	0.12832	0.16151	0.21223	0.184	0.21372	0.2293	-2.55	-2.6125	-3.1521	-2.8104	-2.8854	-3.1646	-2.7354	-2.9021	-2.9813	-2.7687	-3.2854	-2.7125	-2.7208	-3.1625	-2.8646	-2.9875	129.606	168.853	368.209	122.828	409.882	457.783	466.999	247.781	132.248	255.888	129.040	291.009	329.680	453.268	307.814	416.925	0.00041358	0.00032917	8.5138e-05	288.46	1.8394e-06	2.1661e-06	438.78	102.73	3.6402e-06	6.3438e-06	187.67	71.797	52.587	21.754	3.0578e-06	38.8	0.00047752	0.00051289	0.00013536	281.67	5.0698e-06	5.5923e-06	431.77	100.56	5.2823e-06	5.7041e-06	185.19	72.445	52.391	21.783	5.4995e-06	38.672	183.692	181.838	238.955	127.085	236.293	259.829	125.891	131.284	231.905	245.439	129.137	131.513	135.079	138.263	247.080	135.949	-8191	255	
2975.886	1	1	0	0	0.1746	0.12986	0.1189	0.26439	0.093488	0.045877	0.042522	0.33707	0.10679	0.17349	0.25119	0.18286	0.17346	0.075151	0.20968	0.10381	-2.4979	-2.4458	-3.1583	-2.7979	-2.8917	-3.0333	-2.6146	-2.9375	-3.0354	-2.5521	-3.1896	-2.7667	-2.6125	-3.2521	-2.8208	-2.9583	216.327	217.430	259.645	435.393	122.738	375.094	310.160	281.374	125.561	242.990	405.824	403.559	370.971	455.978	121.512	401.089	0.00042913	0.00020771	6.2255e-05	285.98	2.3806e-06	2.8933e-06	443.51	102.26	3.3256e-06	4.2277e-06	189.69	72.397	53.186	21.981	3.7191e-06	38.897	0.00046778	0.00051023	0.00013497	282.16	5.3178e-06	5.6155e-06	432.1	100.79	5.0378e-06	5.5652e-06	185.07	72.54	52.512	21.765	5.2271e-06	38.558	182.508	215.642	217.067	127.006	240.934	282.704	125.228	130.999	226.466	272.877	129.099	132.521	135.400	138.175	260.481	135.738	-8191	255	
2975.983	1	1	0	0	0.2443	0.24934	0.18702	0.30393	0.1281	0.038178	0.1174	0.097584	0.11385	0.13151	0.040978	0.055924	0.11166	0.09945	0.11409	0.094849	-2.6667	-2.4604	-3.0479	-2.925	-2.8	-3.0458	-2.7562	-2.8229	-3.1667	-2.6229	-3.0625	-3.0042	-2.7979	-3.0938	-2.9479	-2.6729	471.668	456.150	437.431	240.925	327.169	365.422	468.380	140.853	184.098	242.220	137.910	430.198	126.304	184.689	427.466	342.855	0.00038531	0.00048775	7.1061e-05	287.79	2.165e-06	4.1018e-06	437.79	102.43	3.535e-06	5.7145e-06	188.58	71.168	52.993	21.978	2.2749e-06	38.87	0.00047275	0.00051575	0.00013917	281.49	4.9925e-06	5.603e-06	429.5	101.05	5.1022e-06	5.6177e-06	185.5	72.65	52.66	21.898	5.3526e-06	38.679	184.231	201.121	229.366	126.961	240.800	235.197	125.562	131.225	284.344	228.473	129.053	131.868	135.310	138.460	276.490	135.666	-8191	255	
2976.079	1	1	0	0	0.15401	0.12446	0.086261	0.13323	0.18753	0.14864	0.12367	0.080419	0.14682	0.09438	0.10811	0.24557	0.19443	0.12975	0.068098	0.1924	-2.6937	-2.5979	-2.9917	-2.7958	-2.6604	-3.2083	-2.7083	-2.7708	-2.9521	-2.5729	-3.0729	-3	-2.5979	-2.9833	-2.875	-2.7333	278.982	291.249	465.054	387.565	247.400	371.789	352.006	456.542	380.085	360.906	214.544	180.405	311.693	394.978	311.911	328.249	0.00036226	0.00023793	9.3454e-05	287.77	3.422e-06	1.9802e-06	441.27	102.04	3.2372e-06	4.1316e-06	189.2	72.427	52.273	21.886	3.655e-06	39.351	0.00045501	0.00051769	0.00014209	282.04	5.3086e-06	5.5522e-06	431.55	100.72	5.2644e-06	5.5473e-06	185.81	72.762	52.315	21.908	5.5528e-06	38.932	181.118	141.959	201.631	126.851	248.296	284.513	125.708	131.143	248.963	254.075	129.110	132.042	135.446	138.011	263.895	135.834	-8191	255	
2976.198	1	1	0	0	0.077594	0.29094	0.1893	0.35511	0.054171	0.11119	0.27276	0.19882	0.115	0.095564	0.38016	0.18554	0.12596	0.25542	0.13014	0.16249	-2.6917	-2.5125	-3.025	-3.0062	-2.5271	-3.0563	-2.8271	-2.8063	-3.0458	-2.5833	-2.7417	-3.0583	-2.8167	-3	-2.7812	-2.7292	229.817	203.378	393.060	303.957	456.343	114.098	408.859	359.425	178.790	348.667	464.861	227.190	418.426	121.559	387.026	466.462	0.00040762	0.0002623	8.424e-05	288.82	2.2402e-06	2.5664e-06	443.74	102.63	2.4137e-06	3.0623e-06	188.27	73.222	52.668	22.217	3.9104e-06	39.117	0.00047303	0.00050178	0.00013614	282.68	5.2405e-06	5.413e-06	433.94	101.28	5.3699e-06	5.5001e-06	186.34	73.556	52.514	22.052	5.5352e-06	38.979	180.347	216.930	223.734	127.344	201.393	247.932	125.595	131.058	219.799	251.715	129.002	132.719	134.772	138.255	241.095	135.751	-8191	255	
2976.294	1	1	0	0	0.091004	0.19567	0.087571	0.10816	0.25281	0.27864	0.22202	0.1089	0.033851	0.079485	0.25295	0.14972	0.067491	0.26752	0.16189	0.26447	-2.6792	-2.4583	-2.6896	-3.0167	-2.4708	-2.9292	-2.9938	-2.7417	-3.0667	-2.8542	-2.9437	-2.9437	-2.6479	-3.0042	-3.0208	-2.8042	199.904	201.859	254.600	311.157	319.938	199.338	410.987	450.095	240.995	379.092	298.200	127.050	340.594	200.910	117.877	345.682	0.00039778	0.00028383	8.9251e-05	291.19	2.1283e-06	3.943e-06	445.15	102.76	4.7354e-06	3.9129e-06	189.17	72.161	52.625	21.904	2.5598e-06	38.69	0.00046359	0.00050666	0.00013818	284.89	5.4088e-06	5.372e-06	434.13	101.2	5.1399e-06	5.3554e-06	185.41	72.052	52.284	21.768	5.1785e-06	38.427	181.468	190.370	224.823	127.219	301.775	270.060	125.805	131.415	247.621	256.818	129.170	132.317	135.148	138.347	265.080	135.918	-8191	255	
2976.365	1	1	0	0	0.2426	0.19339	0.1691	0.11227	0.16094	0.22978	0.13912	0.061633	0.22139	0.0028026	0.25112	0.28634	0.08934	0.25399	0.10854	0.11083	-2.65	-2.7062	-2.7562	-3.1458	-2.7854	-3.0417	-2.9771	-2.6458	-2.8854	-2.7917	-2.8708	-3.1042	-2.7125	-2.8771	-3.0042	-2.6521	329.974	432.968	175.367	420.162	259.463	366.838	451.454	332.527	137.415	246.201	365.620	237.185	466.923	377.083	289.349	411.379	0.00040359	0.00033625	2.9036e-05	291.76	5.2061e-06	2.5038e-06	442	104.15	2.0535e-06	3.7846e-06	189.84	71.937	52.994	21.977	2.8051e-06	38.909	0.00047417	0.00049154	0.00014034	285.8	5.0053e-06	5.4576e-06	433.16	101.91	5.318e-06	5.4391e-06	185.96	72.317	52.625	21.877	5.2956e-06	38.633	183.260	234.854	249.068	127.190	233.476	204.412	125.693	131.198	226.680	265.509	128.882	131.605	135.446	138.668	257.801	135.880	-8191	255	
2976.462	1	1	0	0	0.17245	0.15557	0.09833	0.22588	0.20019	0.28945	0.088926	0.065918	0.15941	0.23869	0.094915	0.068592	0.19177	0.15865	0.20475	0.19388	-2.6063	-2.8958	-2.6646	-3.0583	-2.8625	-2.9646	-3.075	-2.7354	-3.05	-2.9208	-2.7854	-3.0771	-2.9188	-2.8667	-3.1292	-2.7771	376.179	351.868	329.764	463.314	199.024	118.449	202.361	393.105	306.329	126.808	382.900	117.048	467.506	469.179	126.100	350.214	0.00038399	0.00035275	9.0626e-05	288.64	2.4978e-06	2.967e-06	441.62	103	2.4388e-06	2.7353e-06	189.74	71.893	53.357	22.037	3.2674e-06	39.184	0.00046271	0.0004969	0.00014307	284.9	5.2333e-06	5.4969e-06	432.93	101.58	5.187e-06	5.5986e-06	185.85	72.537	52.93	22.081	5.377e-06	38.929	186.160	177.133	227.827	127.279	240.505	257.053	126.115	131.189	223.631	223.825	128.909	132.376	135.658	138.355	241.410	135.804	-8191	255	
2976.582	1	1	0	0	0.2462	0.15978	0.065322	0.076576	0.47895	0.094203	0.32585	0.081537	0.01088	0.16561	0.1426	0.17338	0.10733	0.11869	0.14897	0.21448	-2.5563	-2.9437	-2.7854	-3.2354	-2.6979	-2.6333	-3.1333	-2.5458	-2.9604	-2.9479	-2.6708	-3.0604	-2.7271	-2.7646	-3.0312	-2.7833	118.292	460.879	407.088	377.954	180.174	450.863	448.739	278.575	326.045	123.139	293.035	313.118	118.189	252.543	247.375	418.574	0.00037295	0.00020982	3.3511e-05	290.83	2.1932e-06	2.0434e-06	443.4	104.07	2.4527e-06	2.3111e-06	189.89	74.041	53.305	22.569	3.0505e-06	39.461	0.00046799	0.00049614	0.00014184	285.22	5.1435e-06	5.6815e-06	433.98	101.92	4.9518e-06	5.5888e-06	186.81	73.641	53.131	22.334	5.4332e-06	39.225	179.937	173.369	190.519	126.737	253.737	258.252	125.403	131.287	253.214	222.924	129.318	132.621	135.338	138.382	257.901	135.678	-8191	255	
2976.678	1	1	0	0	0.072127	0.20572	0.052324	0.17124	0.063961	0.09757	0.15454	0.14037	0.1588	0.088253	0.24839	0.044332	0.13389	0.15614	0.18658	0.082754	-2.5271	-3.0083	-2.5896	-3.1167	-2.8708	-2.5167	-3.0792	-2.5542	-2.9396	-3.1146	-2.6125	-2.9562	-2.7521	-2.6792	-3.1042	-2.6542	196.601	128.252	252.282	442.999	130.679	144.279	340.595	333.764	150.552	400.738	396.816	461.970	365.854	353.516	247.533	167.751	0.00040114	0.00024852	7.8885e-05	290.14	3.4167e-06	4.9495e-06	444.36	103.45	1.108e-06	1.5919e-06	188.32	73.867	53.336	22.104	2.9965e-06	38.712	0.00046808	0.00050237	0.00013613	284.37	5.0814e-06	5.6953e-06	433.58	101.61	5.2742e-06	5.6832e-06	185.54	72.945	52.82	22.007	5.3686e-06	38.485	183.537	177.436	197.121	126.829	230.779	267.698	125.597	131.494	253.165	224.076	129.209	131.810	135.685	138.598	243.855	135.780	-8191	255	
2976.775	1	1	0	0	0.20759	0.17963	0.12592	0.016568	0.20725	0.23502	0.10579	0.15029	0.25052	0.27944	0.37873	0.33677	0.073566	0.12843	0.13533	0.24999	-2.6	-2.9417	-2.5062	-2.9271	-2.9375	-2.7792	-3.1917	-2.9646	-2.7625	-3.0646	-2.6875	-3.0333	-2.8417	-2.5167	-3.2042	-2.75	276.566	410.218	152.743	445.740	169.267	408.487	411.882	441.351	267.816	318.175	472.481	115.956	147.274	140.880	179.728	449.825	0.0004141	0.00014534	6.4038e-05	288.39	8.7346e-07	4.2051e-06	438.67	102.12	1.8201e-06	3.467e-06	187.14	73.112	52.667	22.12	3.9188e-06	38.662	0.00046985	0.00049527	0.00013537	282.63	4.9664e-06	5.6441e-06	430.16	101.21	5.2588e-06	5.3549e-06	184.61	72.724	52.52	21.993	5.3707e-06	38.504	183.135	226.836	196.256	127.159	271.489	237.259	125.893	131.340	256.326	284.456	129.522	131.721	135.351	138.459	254.509	135.678	-8191	255	
2976.871	1	1	0	0	0.27606	0.10942	0.25098	0.18612	0.27433	0.12548	0.26438	0.084778	0.18961	0.088317	0.092915	0.073408	0.13144	0.064993	0.074296	0.23761	-2.5125	-3.0042	-2.675	-3.0125	-2.9833	-2.7313	-3.0667	-2.7687	-2.675	-3.0687	-2.7854	-3.0375	-3.1312	-2.8021	-3.2625	-2.8792	385.620	231.234	114.438	416.705	251.116	374.902	280.386	264.818	339.302	133.823	140.557	147.204	160.187	249.600	368.772	395.017	0.00039219	0.00013646	0.00010878	290.14	2.9012e-06	3.3151e-06	438.46	102.55	1.8868e-06	1.3985e-06	189.28	71.781	53.051	22.139	3.6114e-06	38.838	0.00047259	0.00048761	0.00014249	283.48	5.0225e-06	5.6409e-06	429.37	101.09	5.1124e-06	5.5972e-06	184.78	72.738	52.664	22.063	5.2998e-06	38.625	183.315	272.617	212.654	127.087	283.448	273.515	125.838	131.311	249.885	282.984	129.197	131.179	134.149	138.360	245.216	135.664	-8191	255	
2976.990	1	1	0	0	0.13919	0.021021	0.17973	0.036042	0.11704	0.17136	0.060677	0.12721	0.21475	0.065007	0.1318	0.18042	0.10395	0.14698	0.1039	0.18402	-2.3375	-3.0979	-2.6479	-3.1354	-2.95	-2.5833	-3.05	-2.925	-2.7833	-3.1688	-2.8125	-2.8333	-3.15	-2.3646	-3.0667	-2.8438	236.562	178.951	421.012	389.025	166.983	174.363	359.224	374.832	454.210	393.075	360.161	289.116	335.953	251.561	376.739	375.506	0.0004094	0.00050118	0.00011987	287.3	9.318e-07	2.5181e-06	440.11	102.36	3.8368e-06	2.7683e-06	188.77	72.223	53.241	22.137	2.6821e-06	39.141	0.00047654	0.00048741	0.00013967	282.85	5.1135e-06	5.6829e-06	429.91	100.88	5.307e-06	5.5153e-06	185.16	72.665	52.857	22.095	5.2956e-06	39.004	185.920	229.656	171.451	126.861	237.150	183.983	125.943	130.987	281.362	297.276	129.408	132.779	135.099	138.198	241.224	135.719	-8191	255	
2977.063	1	1	0	0	0.12216	0.049815	0.19531	0.090065	0.2064	0.022234	0.073831	0.18698	0.090791	0.15496	0.17133	0.15914	0.15402	0.023419	0.041429	0.018246	-2.1375	-3.175	-2.7458	-2.875	-2.9625	-2.6917	-3	-2.9708	-2.7083	-3.2896	-2.9958	-2.7292	-2.9417	-2.6646	-3.0458	-2.8771	376.517	444.287	291.552	299.079	423.995	180.180	420.022	393.668	246.117	382.475	404.870	143.438	384.285	323.293	301.028	437.308	0.00041453	0.00042921	5.9886e-05	287.92	1.1487e-06	3.5771e-06	440.58	102.87	2.9609e-06	2.8836e-06	187.91	72.141	53.151	22.132	2.9574e-06	38.839	0.00046785	0.00049841	0.00014405	282.91	5.1543e-06	5.6021e-06	430.76	101.52	5.3184e-06	5.4231e-06	184.61	72.51	52.742	22.082	5.4672e-06	38.55	183.617	197.896	128.104	126.693	236.504	254.451	125.852	131.487	302.354	253.243	129.367	131.580	135.816	138.217	267.190	135.643	-8191	255	
2977.159	1	1	0	0	0.22311	0.20537	0.17118	0.21644	0.084938	0.15132	0.25168	0.11377	0.13471	0.23447	0.092047	0.038267	0.34228	0.10315	0.10781	0.29032	-2.2208	-3.1583	-2.8937	-2.7687	-3.2292	-2.5	-2.9583	-3.1625	-2.4479	-2.9979	-2.7854	-2.7292	-2.9208	-2.4979	-2.7896	-2.9104	301.390	152.151	250.384	304.866	201.207	372.615	472.487	306.738	171.959	417.621	169.318	361.520	412.358	193.989	135.408	447.103	0.00038671	0.00015374	0.00010121	288.71	1.5687e-06	4.8658e-06	439.26	103.05	2.7216e-06	1.5331e-06	186.46	72.006	53.44	22.236	3.1149e-06	38.782	0.0004678	0.00047745	0.00014099	282.98	5.0838e-06	5.5798e-06	429.17	101.34	5.3382e-06	5.4511e-06	183.93	72.565	53.08	22.119	5.419e-06	38.581	185.434	223.791	210.320	127.302	254.269	237.937	125.856	131.248	236.980	282.457	129.146	132.699	134.937	138.388	267.098	135.688	-8191	255	
2977.280	1	1	0	0	0.15499	0.14755	0.039398	0.28695	0.16129	0.046528	0.20132	0.11566	0.10498	0.12047	0.5029	0.1661	0.1928	0.15974	0.097066	0.22262	-2.2271	-2.9688	-2.7562	-2.5917	-3.0583	-2.5708	-2.8688	-3.0271	-2.725	-3.0229	-2.8479	-2.625	-3.2229	-2.8729	-2.8708	-3.0187	351.745	338.220	215.517	390.188	371.293	316.401	331.949	343.275	439.191	276.643	219.283	374.920	321.102	226.656	229.801	396.064	0.0003792	0.00035387	0.00011012	288.9	3.3485e-06	1.2465e-06	438.08	103.22	4.7259e-07	2.2629e-06	187.08	73.698	53.9	22.594	3.9925e-06	39.065	0.00046278	0.00050349	0.00013984	283.58	5.1391e-06	5.657e-06	428.59	101.26	5.4826e-06	5.6142e-06	184.35	73.151	53.381	22.432	5.4756e-06	39.014	183.455	172.127	209.972	127.027	267.795	353.373	125.728	131.025	353.694	281.028	129.288	131.841	135.268	138.390	267.045	135.662	-8191	255	
2977.374	1	1	0	0	0.11277	0.097974	0.19454	0.090633	0.10778	0.14393	0.16612	0.16484	0.080631	0.37511	0.0066048	0.10809	0.26728	0.13445	0.21198	0.22219	-2.1229	-2.975	-2.7562	-2.5458	-3.0396	-2.7667	-2.95	-2.9792	-2.7021	-3.0958	-3.0083	-2.6375	-2.9625	-2.8812	-2.7062	-3.1896	215.790	312.852	409.448	188.181	156.590	462.850	351.133	450.010	352.683	276.451	191.926	398.296	343.082	231.345	356.401	376.648	0.00038569	0.0004236	4.0119e-05	288.97	1.2526e-06	3.4307e-06	439.97	104.44	6.4667e-07	2.0122e-06	189.3	73.204	54.714	22.703	1.7709e-06	40.008	0.00048522	0.00050194	0.00014304	284.2	5.1888e-06	5.719e-06	431.09	102.65	5.3265e-06	5.7162e-06	186.55	74.156	54.004	22.688	5.6196e-06	39.584	182.594	194.712	193.732	127.021	316.729	266.547	125.812	131.526	350.600	265.449	129.136	131.959	135.004	138.331	289.381	135.547	-8191	255	
2977.470	1	1	0	0	0.2332	0.11829	0.1016	0.15122	0.14498	0.11533	0.25626	0.20156	0.22997	0.16429	0.33631	0.036544	0.079412	0.12952	0.22032	0.22753	-2.1271	-2.925	-2.9062	-2.6688	-3.0604	-2.8312	-2.825	-3.2917	-2.6792	-3.0021	-3.0771	-2.65	-3.0375	-2.9562	-2.7729	-3.0479	180.907	371.725	144.970	453.350	412.473	290.759	376.843	453.841	346.042	465.076	460.665	306.190	340.577	346.262	173.356	298.033	0.00040058	0.00027689	4.2346e-05	291.37	2.5913e-06	2.8494e-06	442.42	104.51	2.6316e-06	2.1381e-06	190.29	75.046	54.377	22.699	4.5742e-06	39.743	0.00047836	0.0005021	0.00014049	286.25	5.1964e-06	5.6668e-06	434.32	102.6	5.1906e-06	5.8048e-06	187	74.351	54.045	22.626	5.5105e-06	39.446	185.510	429.595	322.456	126.967	200.799	291.415	125.588	131.327	249.791	307.981	129.192	132.066	134.806	138.147	257.061	135.350	-8191	255	
2977.566	1	1	0	0	0.084789	0.23223	0.20161	0.19049	0.31976	0.25263	0.054986	0.14671	0.23673	0.21022	0.33231	0.12249	0.067956	0.17284	0.045656	0.1486	-2.35	-2.8438	-3.0625	-2.6646	-3.1458	-2.9042	-2.7583	-3.0917	-2.7292	-3.0292	-3.075	-2.475	-2.9479	-3.0729	-2.6813	-3.0958	167.656	312.817	456.184	331.840	217.663	128.052	427.102	253.305	471.336	236.082	285.635	455.451	287.810	306.585	173.603	446.351	0.00040351	0.0004276	3.7834e-05	295.16	3.0114e-06	2.7811e-06	443.16	104.77	3.9208e-06	1.873e-06	190.02	73.025	54.932	22.814	3.3492e-06	39.43	0.00048561	0.00050341	0.00014626	287.98	5.1311e-06	5.5054e-06	434.6	102.49	5.3236e-06	5.611e-06	186.7	73.626	54.116	22.664	5.6804e-06	39.222	183.782	204.393	251.369	127.524	276.229	277.652	125.661	131.611	243.444	269.833	129.263	132.113	135.410	138.355	251.068	135.701	-8191	255	
2977.663	1	1	0	0	0.20869	0.13764	0.20627	0.14376	0.11566	0.057369	0.26236	0.10654	0.14718	0.067156	0.12302	0.072244	0.14046	0.19516	0.14235	0.090793	-2.3792	-2.6333	-2.9188	-2.6875	-3.0333	-3.1958	-2.7146	-3.1667	-2.8667	-2.6333	-3.0812	-2.7396	-3.0604	-3.1292	-2.4979	-3.2333	458.894	133.844	448.729	360.261	192.455	468.778	389.614	386.213	386.239	286.770	272.532	221.331	404.449	132.077	222.798	247.710	0.00039097	0.0001489	4.7523e-05	292.32	1.9668e-06	2.787e-06	441.69	104.05	4.5154e-06	4.8919e-06	188.89	73.449	54.901	22.909	1.3017e-06	39.636	0.00047689	0.00049202	0.00013993	287.35	5.0482e-06	5.57e-06	433.91	102.64	5.3516e-06	5.9313e-06	186.96	73.887	54.149	22.693	5.5969e-06	39.301	186.272	224.820	203.893	126.875	253.906	256.960	126.027	131.264	293.088	298.932	129.238	132.855	135.407	138.346	250.437	135.798	-8191	255	
2977.759	1	1	0	0	0.085577	0.047508	0.11676	0.11684	0.13616	0.050028	0.17154	0.17992	0.16027	0.16697	0.040115	0.18329	0.049102	0.12546	0.16309	0.020567	-2.2062	-2.7083	-2.975	-2.8292	-3.0187	-2.8729	-2.4979	-3.2146	-2.8563	-2.7604	-3.1792	-2.4583	-2.8458	-3.2042	-2.7521	-2.9833	152.819	288.010	289.813	325.706	277.288	254.213	150.076	420.399	219.014	114.415	260.934	444.521	350.953	134.166	318.776	264.955	0.00039591	0.00019363	6.1656e-05	295.34	1.8614e-06	2.4245e-06	442.52	105.15	2.5887e-06	1.4733e-06	188.98	73.982	55.336	22.832	2.6593e-06	40.117	0.00047647	0.00049642	0.00014347	288.15	5.1026e-06	5.4898e-06	434.54	103.47	5.232e-06	5.7496e-06	186.68	74.087	54.511	22.858	5.6309e-06	39.833	183.024	164.505	307.129	126.975	285.787	301.168	125.618	130.809	234.721	295.647	129.207	132.224	134.975	138.044	271.455	135.794	-8191	255	
2977.879	1	1	0	0	0.26382	0.10318	0.028801	0.23291	0.37796	0.12464	0.20331	0.24694	0.077168	0.12674	0.095227	0.084758	0.11587	0.15557	0.13271	0.12376	-2.4729	-2.5708	-3.0708	-2.7542	-2.95	-2.9771	-2.5604	-2.9729	-2.8229	-2.9167	-3.2625	-2.8458	-2.8708	-3.0917	-2.6792	-3.1667	196.256	271.926	415.002	399.883	143.487	378.665	137.633	366.885	362.210	246.732	169.602	369.581	248.891	466.678	357.603	309.822	0.000388	0.0003031	8.5007e-05	295.24	1.5381e-06	4.601e-06	444.41	104.14	3.9456e-06	2.8082e-06	192.42	74.611	55.566	23.118	3.0148e-06	40.306	0.00047575	0.00053162	0.00014073	289.11	5.2777e-06	5.6169e-06	436.94	103.54	5.4169e-06	5.7469e-06	188.91	75.142	55.016	23.032	5.5482e-06	40.036	183.374	165.115	197.570	127.500	291.583	249.272	125.786	131.474	276.846	227.364	129.199	131.600	135.027	138.471	264.925	135.834	-8191	255	
2977.976	1	1	0	0	0.15201	0.27241	0.23142	0.1619	0.21759	0.069556	0.26885	0.16342	0.21711	0.087123	0.17285	0.31522	0.33034	0.01339	0.15228	0.21297	-2.5854	-2.6896	-3.0979	-2.6958	-2.8833	-2.9667	-2.6667	-2.8208	-2.8542	-2.5792	-2.9938	-2.7354	-2.6792	-3.1917	-2.6833	-2.9417	127.863	388.674	230.073	460.078	134.336	242.663	136.448	451.057	467.998	440.396	276.804	320.095	465.927	461.627	151.101	466.632	0.00040888	0.00043802	8.5995e-05	295.35	2.2772e-06	3.4765e-06	445.65	104.5	1.7599e-06	1.6459e-06	189.9	73.768	54.113	22.59	3.7245e-06	39.118	0.00048408	0.00049309	0.00014583	288.67	5.2136e-06	5.4456e-06	435.36	102.82	5.2811e-06	5.762e-06	185.99	73.572	53.695	22.477	5.5251e-06	38.947	185.527	206.063	189.039	127.285	261.717	257.534	125.378	130.863	321.168	264.795	129.242	132.137	135.116	138.249	259.919	135.959	-8191	255	
2978.072	1	1	0	0	0.12512	0.10873	0.11781	0.1273	0.047141	0.12855	0.11877	0.24968	0.28709	0.14141	0.18316	0.058369	0.40103	0.16063	0.13515	0.15978	-2.5833	-2.5229	-3.1437	-2.9417	-2.7229	-2.9833	-2.7604	-2.8292	-3.1583	-2.5625	-3.0458	-2.7833	-2.5771	-2.9917	-2.6875	-2.8667	131.280	443.173	116.702	248.631	454.799	447.205	425.281	144.325	247.208	204.409	323.109	221.510	157.125	119.033	465.345	391.091	0.00040483	0.00024422	6.6204e-05	292.64	1.3935e-06	2.3162e-06	443.16	104.55	1.8379e-06	2.0432e-06	189.22	74.163	54.368	22.717	1.7591e-06	39.33	0.00047771	0.00051785	0.00013805	286.8	5.4024e-06	5.5388e-06	432.46	102.97	5.2113e-06	5.7313e-06	186	73.501	53.975	22.582	5.4693e-06	39.057	183.284	206.135	177.721	127.139	195.533	251.395	125.622	131.358	319.646	252.978	129.346	131.947	134.891	138.414	257.009	135.763	-8191	255	
2978.166	1	1	0	0	0.1993	0.24248	0.014711	0.19991	0.18349	0.35894	0.19726	0.0089459	0.038724	0.075187	0.062813	0.39573	0.33755	0.29506	0.10225	0.098673	-2.525	-2.6729	-3.1104	-2.9875	-2.5958	-2.9604	-2.8604	-2.6229	-3.0854	-2.6021	-2.9354	-2.8292	-2.5917	-3.0958	-2.9146	-2.8167	432.589	442.037	237.100	422.613	236.288	137.952	469.206	236.938	349.531	163.589	140.092	126.011	124.558	288.154	213.060	220.150	0.00040829	0.00035654	0.00012989	292.2	9.1901e-07	2.5388e-06	441.04	104.49	1.9172e-06	3.5371e-06	189.68	72.296	54.082	22.934	1.9147e-06	39.711	0.00048173	0.00051106	0.00013969	286.53	5.3691e-06	5.7172e-06	432.41	102.72	5.1614e-06	5.5763e-06	185.89	73.734	53.915	22.732	5.4458e-06	39.346	181.672	177.804	235.716	127.383	304.503	251.985	125.640	131.259	250.631	285.212	129.199	132.519	135.273	138.051	265.247	135.818	-8191	255	
2978.240	1	1	0	0	0.343	0.020583	0.2095	0.060725	0.13583	0.24572	0.44604	0.25025	0.28831	0.26931	0.19226	0.11162	0.13991	0.14434	0.2355	0.13382	-2.65	-2.6646	-2.7729	-2.85	-2.7083	-3.2	-2.8125	-2.5104	-3.1167	-2.7979	-2.8875	-2.8021	-2.575	-2.9167	-2.9458	-2.7687	213.120	147.662	189.386	296.674	316.062	283.156	375.280	374.842	313.986	466.192	319.967	389.468	444.638	453.945	115.281	348.394	0.00040841	0.00034185	7.0992e-05	293.82	1.7585e-06	2.9516e-06	443.46	103.55	1.7798e-06	2.4382e-06	190.64	73.499	55.069	22.963	3.6159e-06	40.149	0.0004794	0.00051428	0.00014534	286.32	5.2753e-06	5.5553e-06	433.12	102.6	5.1416e-06	5.8471e-06	187.11	74.073	54.539	22.857	5.5189e-06	39.77	184.743	207.888	208.646	126.926	232.115	253.984	125.475	131.463	226.618	287.860	128.844	132.039	135.168	138.333	224.520	136.078	-8191	255	
2978.358	1	1	0	0	0.2191	0.18368	0.18426	0.071907	0.12887	0.16581	0.38558	0.16202	0.1686	0.23801	0.27595	0.090247	0.08642	0.27576	0.18274	0.3596	-2.6708	-2.5938	-2.9979	-3.1333	-2.7271	-3.0021	-2.7854	-2.6896	-3.1375	-2.7313	-2.8979	-3.1333	-2.7125	-3.0667	-2.8792	-2.6188	370.912	409.103	398.367	446.740	407.274	131.433	310.507	274.543	135.494	172.869	392.962	288.700	388.664	146.215	366.127	402.070	0.00041111	0.00047869	8.1181e-05	292.65	2.1593e-06	2.4716e-06	441.61	103.98	3.0379e-06	2.8883e-06	187.71	72.786	54.395	22.687	3.6399e-06	39.355	0.0004801	0.0005319	0.00014521	286.68	5.4368e-06	5.4924e-06	431.97	102.7	5.2328e-06	5.6066e-06	184.99	73.209	53.823	22.6	5.7875e-06	39.046	180.564	200.422	218.779	127.259	243.865	318.712	125.875	131.121	269.071	309.225	129.065	131.898	135.158	138.207	276.536	135.837	-8191	255	
2978.455	1	1	0	0	0.12714	0.12292	0.25977	0.068554	0.061746	0.13911	0.30481	0.29649	0.19843	0.14698	0.07441	0.12171	0.20253	0.151	0.21477	0.13019	-2.6146	-2.7604	-2.7375	-2.9146	-2.7021	-2.8854	-3.025	-2.6417	-3.0417	-2.7417	-2.7021	-3.1312	-2.8	-2.9021	-2.8729	-2.725	176.021	455.940	144.035	434.687	411.638	239.739	128.097	438.191	378.745	166.102	246.662	209.426	329.647	167.224	326.620	275.671	0.00040491	0.00018379	8.3864e-05	290.1	2.2833e-06	4.6404e-06	440.71	103.5	3.2022e-06	4.0008e-06	187.34	71.638	53.538	22.832	2.4962e-06	39.158	0.00047036	0.00050876	0.00014115	285	5.2164e-06	5.6409e-06	429.83	101.98	5.2413e-06	5.5589e-06	184.28	72.988	53.362	22.485	5.547e-06	38.78	182.041	203.146	195.325	127.134	279.192	263.996	125.893	131.090	283.763	272.522	129.086	131.211	135.710	138.453	276.972	135.995	-8191	255	
2978.551	1	1	0	0	0.26624	0.18233	0.20982	0.16956	0.079137	0.11444	0.1378	0.10638	0.083875	0.17567	0.070594	0.13364	0.12105	0.26008	0.085209	0.25166	-2.8333	-2.9771	-2.5104	-3.1437	-2.6104	-2.9354	-2.9208	-2.5938	-3.0458	-2.8708	-2.65	-3.1833	-2.6937	-2.8646	-3.3021	-2.6708	433.039	233.749	222.773	303.107	171.063	319.180	416.016	354.994	142.119	396.368	148.447	340.971	165.570	447.384	257.857	408.421	0.00042349	0.00047608	6.1953e-05	291.94	2.3141e-06	3.145e-06	437.4	103.06	1.6494e-06	1.7637e-06	187.22	72.666	54.042	22.601	3.0692e-06	39.079	0.00047461	0.00050321	0.00014341	284.89	5.1123e-06	5.6771e-06	427.84	101.68	5.1939e-06	5.5763e-06	183.64	73.064	53.416	22.512	5.5071e-06	38.98	185.256	203.862	194.259	126.700	279.805	266.800	125.851	131.200	305.218	268.885	129.104	131.921	135.172	138.312	263.627	135.785	-8191	255	
2978.647	1	1	0	0	0.19086	0.11159	0.18597	0.12498	0.10723	0.17253	0.23356	0.31639	0.11151	0.18457	0.16948	0.25628	0.18679	0.075652	0.22626	0.095875	-2.5646	-2.8417	-2.5229	-3.0583	-2.8063	-2.9396	-3.0771	-2.6146	-3.0104	-2.9479	-2.7708	-3.0104	-2.9271	-2.975	-3.1396	-2.5979	463.516	250.558	183.325	228.827	141.369	163.339	352.268	373.645	324.430	232.655	139.313	368.090	154.135	454.761	255.500	405.423	0.00038661	0.0002648	0.00012283	289.17	9.5941e-07	2.3118e-06	438.18	103.4	2.9327e-06	5.23e-06	189.09	72.768	54.319	22.982	1.5741e-06	39.752	0.00048315	0.00051686	0.00013662	284.14	5.1936e-06	5.6913e-06	428.89	101.94	5.5382e-06	5.5362e-06	185.65	73.117	53.809	22.829	5.39e-06	39.502	183.520	213.434	241.512	127.048	297.661	318.362	125.786	130.830	219.477	266.289	129.140	132.754	135.307	138.323	259.382	135.976	-8191	255	
2978.767	1	1	0	0	0.2287	0.1826	0.033879	0.11856	0.14251	0.17054	0.10035	0.18674	0.098521	0.284	0.019516	0.18894	0.062889	0.08415	0.204	0.071438	-2.4917	-2.8854	-2.4938	-3.1521	-2.7542	-2.7979	-3.0708	-2.6646	-2.8583	-3.0167	-2.6771	-3.0333	-2.8083	-2.8167	-3.1333	-2.6208	395.997	125.562	312.035	260.432	415.621	136.835	420.141	417.719	438.939	390.546	288.816	317.997	190.480	231.847	239.800	359.537	0.00042171	0.00043794	0.00013336	291.72	1.4168e-06	2.6996e-06	440.75	103.64	3.15e-06	2.6435e-06	187.45	74.614	54.44	22.939	3.0758e-06	39.34	0.00049384	0.00051178	0.00014369	285.62	5.2365e-06	5.7297e-06	431.75	102.26	5.1485e-06	5.6529e-06	184.88	73.817	53.819	22.765	5.6511e-06	39.246	184.103	201.356	188.968	127.002	255.850	273.482	125.806	131.322	232.857	249.473	129.407	132.262	135.413	138.420	259.299	135.977	-8191	255	
#DATA ENDS
