BOXY.EXE: ISS Imagent and Oximeter Data Acquisition Program Version 0.80
Ascii Record File

#ACQ INFORMATION
2  Detector Channels 
16  External MUX Channels 
1  Auxiliary Channels 
5000  Waveform (CCF) Frequency (Hz)
1  Waveforms Skipped 
30  Waveforms Averaged 
1  Cycles Averaged 
16  Acquisitions per Waveform 
10.0806  Updata Rate (Hz) 

#FILE INFORMATION
TRUE -- External MUX Channel results are PARSED.
FALSE -- AC DC and Phase are NOT grouped.
TRUE -- Companion Program Settings File CREATED.
FALSE -- AC data not excluded
FALSE -- DC data not excluded
FALSE -- Phase data not excluded
FALSE -- Auxillary Chn. data not excluded
Tab delimiters

#CALIBRATION STATE
TRUE -- Waveform Calibration Values APPLIED.


#AUX CALIBRATION VALUES
Val Type	aux-1	

Term	1.0000e+00	
Factor	0.0000e+00	


#WF CALIBRATION VALUES
A = Detector Channel
Val Type	A-AC1	A-AC2	A-AC3	A-AC4	A-AC5	A-AC6	A-AC7	A-AC8	A-AC9	A-AC10	A-AC11	A-AC12	A-AC13	A-AC14	A-AC15	A-AC16	A-DC1	A-DC2	A-DC3	A-DC4	A-DC5	A-DC6	A-DC7	A-DC8	A-DC9	A-DC10	A-DC11	A-DC12	A-DC13	A-DC14	A-DC15	A-DC16	A-Ph1	A-Ph2	A-Ph3	A-Ph4	A-Ph5	A-Ph6	A-Ph7	A-Ph8	A-Ph9	A-Ph10	A-Ph11	A-Ph12	A-Ph13	A-Ph14	A-Ph15	A-Ph16	

Term	0.00000e+00	0.00000e+00	0.00000e+00	0.00000e+00	0.00000e+00	0.00000e+00	0.00000e+00	0.00000e+00	0.00000e+00	0.00000e+00	0.00000e+00	0.00000e+00	0.00000e+00	0.00000e+00	0.00000e+00	0.00000e+00	0.00000e+00	0.00000e+00	0.00000e+00	0.00000e+00	0.00000e+00	0.00000e+00	0.00000e+00	0.00000e+00	0.00000e+00	0.00000e+00	0.00000e+00	0.00000e+00	0.00000e+00	0.00000e+00	0.00000e+00	0.00000e+00	0.00000e+00	0.00000e+00	0.00000e+00	0.00000e+00	0.00000e+00	0.00000e+00	0.00000e+00	0.00000e+00	0.00000e+00	0.00000e+00	0.00000e+00	0.00000e+00	0.00000e+00	0.00000e+00	0.00000e+00	0.00000e+00	
Factor	1.00000e+00	1.00000e+00	1.00000e+00	1.00000e+00	1.00000e+00	1.00000e+00	1.00000e+00	1.00000e+00	1.00000e+00	1.00000e+00	1.00000e+00	1.00000e+00	1.00000e+00	1.00000e+00	1.00000e+00	1.00000e+00	1.00000e+00	1.00000e+00	1.00000e+00	1.00000e+00	1.00000e+00	1.00000e+00	1.00000e+00	1.00000e+00	1.00000e+00	1.00000e+00	1.00000e+00	1.00000e+00	1.00000e+00	1.00000e+00	1.00000e+00	1.00000e+00	X	X	X	X	X	X	X	X	X	X	X	X	X	X	X	X	

B = Detector Channel
Val Type	B-AC1	B-AC2	B-AC3	B-AC4	B-AC5	B-AC6	B-AC7	B-AC8	B-AC9	B-AC10	B-AC11	B-AC12	B-AC13	B-AC14	B-AC15	B-AC16	B-DC1	B-DC2	B-DC3	B-DC4	B-DC5	B-DC6	B-DC7	B-DC8	B-DC9	B-DC10	B-DC11	B-DC12	B-DC13	B-DC14	B-DC15	B-DC16	B-Ph1	B-Ph2	B-Ph3	B-Ph4	B-Ph5	B-Ph6	B-Ph7	B-Ph8	B-Ph9	B-Ph10	B-Ph11	B-Ph12	B-Ph13	B-Ph14	B-Ph15	B-Ph16	

Term	0.00000e+00	0.00000e+00	0.00000e+00	0.00000e+00	0.00000e+00	0.00000e+00	0.00000e+00	0.00000e+00	0.00000e+00	0.00000e+00	0.00000e+00	0.00000e+00	0.00000e+00	0.00000e+00	0.00000e+00	0.00000e+00	0.00000e+00	0.00000e+00	0.00000e+00	0.00000e+00	0.00000e+00	0.00000e+00	0.00000e+00	0.00000e+00	0.00000e+00	0.00000e+00	0.00000e+00	0.00000e+00	0.00000e+00	0.00000e+00	0.00000e+00	0.00000e+00	-1.23800e+02	-1.29605e+02	-1.18317e+02	-1.81384e+02	-6.66720e+01	-6.49322e+01	-1.54429e+02	-1.62015e+02	-6.47790e+01	-5.86214e+01	-1.69550e+02	-1.78216e+02	-1.82278e+02	-1.75921e+02	-6.55031e+01	-1.48295e+02	
Factor	1.82523e-05	2.02462e-04	5.46020e-05	1.59639e-01	1.48313e-06	2.22676e-06	1.61345e-01	6.10527e-02	1.51134e-06	2.21112e-06	9.03854e-02	2.02187e-01	4.85540e-02	9.32913e-03	1.59883e-06	1.33881e-02	1.11608e-05	1.90474e-05	5.34503e-06	8.05254e-02	1.92326e-07	2.14060e-07	7.69818e-02	3.09569e-02	1.94649e-07	2.13805e-07	4.45233e-02	1.01031e-01	2.48173e-02	4.77762e-03	2.01464e-07	6.64615e-03	X	X	X	X	X	X	X	X	X	X	X	X	X	X	X	X	



#DISTANCE SETTINGS
A = Detector Channel
A-1	A-2	A-3	A-4	A-5	A-6	A-7	A-8	A-9	A-10	A-11	A-12	A-13	A-14	A-15	A-16	

2.5000e+00	3.0000e+00	2.5000e+00	3.0000e+00	2.0000e+00	3.0000e+00	1.5000e+00	3.0000e+00	3.0000e+00	3.0000e+00	3.0000e+00	3.0000e+00	3.0000e+00	3.0000e+00	1.5000e+00	3.0000e+00	

B = Detector Channel
B-1	B-2	B-3	B-4	B-5	B-6	B-7	B-8	B-9	B-10	B-11	B-12	B-13	B-14	B-15	B-16	

1.0000e+01	1.0000e+01	1.0000e+01	1.4400e+00	1.0000e+01	1.0000e+01	1.5100e+00	1.9400e+00	1.0000e+01	1.0000e+01	1.9900e+00	2.4900e+00	2.4100e+00	2.9000e+00	1.0000e+01	2.9800e+00	




#DATA BEGINS
time	group	step	mark	flag	A-AC1	A-AC2	A-AC3	A-AC4	A-AC5	A-AC6	A-AC7	A-AC8	A-AC9	A-AC10	A-AC11	A-AC12	A-AC13	A-AC14	A-AC15	A-AC16	A-DC1	A-DC2	A-DC3	A-DC4	A-DC5	A-DC6	A-DC7	A-DC8	A-DC9	A-DC10	A-DC11	A-DC12	A-DC13	A-DC14	A-DC15	A-DC16	A-Ph1	A-Ph2	A-Ph3	A-Ph4	A-Ph5	A-Ph6	A-Ph7	A-Ph8	A-Ph9	A-Ph10	A-Ph11	A-Ph12	A-Ph13	A-Ph14	A-Ph15	A-Ph16	B-AC1	B-AC2	B-AC3	B-AC4	B-AC5	B-AC6	B-AC7	B-AC8	B-AC9	B-AC10	B-AC11	B-AC12	B-AC13	B-AC14	B-AC15	B-AC16	B-DC1	B-DC2	B-DC3	B-DC4	B-DC5	B-DC6	B-DC7	B-DC8	B-DC9	B-DC10	B-DC11	B-DC12	B-DC13	B-DC14	B-DC15	B-DC16	B-Ph1	B-Ph2	B-Ph3	B-Ph4	B-Ph5	B-Ph6	B-Ph7	B-Ph8	B-Ph9	B-Ph10	B-Ph11	B-Ph12	B-Ph13	B-Ph14	B-Ph15	B-Ph16	aux-1	digaux	

2899.487	1	1	0	256	0.15824	0.30602	0.24612	0.15524	0.070172	0.043161	0.10907	0.1615	0.28337	0.15889	0.11692	0.065308	0.24412	0.34857	0.1622	0.12182	-2.2083	-2.9583	-2.9583	-2.7083	-3.1604	-2.9375	-2.7771	-3.1333	-2.8583	-2.9333	-3.1771	-2.75	-3.0083	-2.8438	-2.9417	-3.2604	80.989	15.465	225.011	-10.812	113.497	160.169	323.014	286.621	2.494	89.044	21.766	168.884	5.075	340.644	133.509	42.710	6.1428e-05	0.00034756	7.5571e-05	301.38	2.3045e-06	5.8998e-07	394.97	85.76	3.5945e-06	2.8546e-06	156.87	45.418	27.194	10.706	3.3481e-06	18.616	0.00047496	0.00070086	0.00019587	293.16	7.346e-06	8.0598e-06	385.46	84.791	7.3447e-06	8.1246e-06	154.68	49.36	27.483	10.692	7.8625e-06	18.537	133.017	161.160	30.670	-3.552	160.703	148.723	-4.767	1.845	213.077	112.800	-0.274	6.058	6.529	12.120	10.303	8.506	-8191	255	
2899.583	1	1	0	0	0.089843	0.20675	0.20408	0.24362	0.12421	0.20327	0.36593	0.071285	0.038796	0.20059	0.12983	0.12141	0.020249	0.28854	0.022811	0.16245	-2.3438	-2.9104	-2.9667	-2.5854	-3.0917	-3.0333	-2.8333	-3.0458	-2.8583	-3.0167	-3.075	-2.7188	-3.1208	-2.9792	-2.6917	-3.125	61.277	153.449	60.522	25.584	219.145	1.580	241.301	232.349	17.666	-2.197	219.046	286.236	238.752	156.346	226.562	289.495	6.081e-05	0.00020035	4.1493e-05	302.5	1.3245e-06	1.8191e-06	396.45	86.782	2.4594e-06	1.3873e-07	157.92	45.962	27.35	10.638	1.8177e-06	18.746	0.00047164	0.00069289	0.00020218	294.71	7.2675e-06	8.2213e-06	386.57	85.635	7.5909e-06	7.9348e-06	155.07	49.746	27.659	10.733	7.8172e-06	18.685	131.169	65.782	29.046	-3.765	108.914	157.718	-4.523	1.958	181.087	102.355	-0.216	6.736	6.278	12.124	85.420	9.227	-8191	255	
2899.678	1	1	0	0	0.078446	0.20767	0.20807	0.21719	0.21613	0.17287	0.18832	0.053404	0.16703	0.059178	0.24115	0.13961	0.24857	0.31038	0.093313	0.17868	-2.4479	-2.7625	-3.2167	-2.675	-2.9146	-3.0646	-2.7188	-2.9583	-2.8688	-2.9437	-3.1437	-2.8937	-3.0833	-3.0729	-2.9437	-3.2042	152.655	31.099	184.199	-8.885	272.606	237.989	323.618	93.133	102.196	335.854	47.148	67.236	30.950	188.316	138.415	331.066	5.4864e-05	0.0002647	4.3185e-05	300.76	1.9964e-06	1.7697e-06	398.5	86.961	3.1629e-06	1.2326e-06	160.02	45.162	27.784	10.761	2.0627e-06	18.965	0.00047408	0.00073138	0.00020251	294.78	7.4302e-06	8.1481e-06	388.58	86.084	7.6124e-06	8.2025e-06	156.75	49.76	27.892	10.799	7.8344e-06	18.878	144.220	53.793	98.279	-3.692	144.114	144.174	-4.664	1.834	107.361	132.483	-0.547	5.321	7.247	12.018	99.115	8.749	-8191	255	
2899.798	1	1	0	0	0.12844	0.11197	0.19461	0.21049	0.11829	0.17153	0.31369	0.088423	0.15359	0.24432	0.18879	0.25765	0.29131	0.16825	0.15548	0.2898	-2.5417	-2.8958	-3.2917	-3.0792	-2.8896	-3.0479	-2.9625	-3.0729	-2.8187	-2.8646	-3.325	-2.9333	-2.8312	-3.05	-2.7438	-3.3563	78.648	180.285	70.980	330.063	271.284	129.615	262.118	4.422	139.342	85.029	2.212	200.585	31.185	195.536	-2.991	239.870	9.6922e-05	0.00028231	2.5074e-05	301.43	2.2538e-06	2.2738e-06	399.13	87.545	1.6148e-06	2.1534e-06	159.25	45.624	27.916	10.769	1.9268e-06	18.714	0.00047931	0.00071344	0.00020285	295.78	7.5075e-06	7.9595e-06	389.61	86.366	7.7774e-06	8.4707e-06	156.18	50.109	27.998	10.777	7.9515e-06	18.588	144.534	44.980	29.037	-3.472	104.460	163.353	-4.419	1.742	186.465	44.586	-0.594	5.908	5.879	12.194	148.162	8.829	-8191	255	
2899.895	1	1	0	0	0.23336	0.11094	0.16439	0.21048	0.15882	0.10093	0.16217	0.1581	0.20412	0.11762	0.11052	0.13057	0.047926	0.023648	0.051616	0.15952	-2.5375	-2.8438	-3.1771	-2.8312	-2.9375	-3.4333	-2.7188	-2.9458	-2.9583	-2.7562	-3.2083	-2.8542	-2.8625	-3.15	-2.7771	-3.0187	111.251	194.974	89.637	198.195	272.235	120.542	46.086	15.092	324.489	150.294	241.573	190.471	52.090	273.581	39.173	218.991	7.4374e-05	0.00034796	0.00013156	303.9	1.6581e-06	1.8062e-06	397.29	87.632	3.4145e-06	3.0898e-06	158.53	44.658	27.475	10.714	2.2806e-06	18.439	0.0004891	0.00075047	0.00020685	296.27	7.461e-06	8.1998e-06	389	86.128	7.7426e-06	8.5446e-06	155.41	49.284	27.893	10.731	8.3494e-06	18.453	150.136	18.555	73.533	-4.052	270.881	94.698	-4.230	1.881	73.013	232.083	-0.678	7.708	6.423	12.426	163.557	9.046	-8191	255	
2899.991	1	1	0	0	0.22282	0.13493	0.031454	0.073383	0.075985	0.13744	0.10049	0.036972	0.018585	0.55944	0.20766	0.098224	0.326	0.23837	0.092855	0.064816	-2.6104	-2.4188	-3.1188	-2.9646	-2.7458	-3.2875	-2.8979	-3.225	-3.1688	-2.575	-3.3021	-2.8729	-2.7062	-3.3146	-2.8833	-2.9792	250.127	149.369	220.235	275.077	120.480	162.010	214.738	335.820	225.127	314.226	290.977	321.654	262.587	324.088	198.218	240.051	9.1828e-05	0.00019452	0.00015008	302.6	2.0768e-06	4.5121e-06	397.99	87.17	2.5061e-06	3.067e-06	158.29	45.342	27.752	10.658	3.2554e-06	18.707	0.00049938	0.00076185	0.0002152	296.9	7.7223e-06	8.5593e-06	388.98	86.402	7.9486e-06	8.4444e-06	155.92	49.693	28.058	10.76	8.1924e-06	18.643	157.531	49.849	13.215	-4.070	185.351	95.877	-4.511	1.876	103.828	210.431	-0.401	5.663	6.744	12.709	161.403	8.376	-8191	255	
2900.087	1	1	0	0	0.11233	0.11909	0.20536	0.23897	0.16292	0.25622	0.24373	0.067972	0.21527	0.23022	0.19355	0.083317	0.07787	0.093139	0.13624	0.096932	-2.8	-2.6333	-3.1583	-3.1667	-2.8375	-3.2146	-2.8375	-2.7146	-3.2833	-2.7771	-3.0583	-2.9125	-2.7479	-3.3083	-2.8354	-2.8625	242.896	127.054	250.633	298.658	77.387	337.322	268.140	153.249	95.544	35.653	255.403	274.571	10.155	32.422	234.642	271.668	7.5339e-05	0.00013146	3.1869e-05	304.1	1.6074e-06	1.1411e-06	400.98	88.008	3.2084e-06	5.4511e-07	160.21	45.059	27.821	10.777	1.7181e-06	18.723	0.00049724	0.00076626	0.0002127	298.32	7.7543e-06	8.6601e-06	391.35	87.35	7.7527e-06	8.5575e-06	156.86	49.833	28.246	10.869	8.132e-06	18.781	141.877	48.079	214.095	-3.811	237.720	178.564	-4.512	2.038	184.925	208.460	-0.371	5.895	7.407	12.100	243.898	8.793	-8191	255	
2900.183	1	1	0	0	0.14704	0.19484	0.1889	0.1864	0.061185	0.075006	0.12229	0.12842	0.084261	0.14953	0.16413	0.14051	0.19352	0.12902	0.061419	0.10357	-2.7083	-2.7438	-2.9833	-3.0396	-2.6479	-3.3354	-2.9542	-2.7417	-3.2229	-2.8229	-3.1021	-3.0708	-2.7542	-3.1083	-2.9542	-2.8208	231.823	56.420	-13.323	197.873	205.026	22.032	332.897	86.483	126.444	276.457	133.400	9.933	67.196	284.141	43.361	328.460	8.5112e-05	8.9041e-05	1.1814e-05	306.59	2.6265e-06	2.7742e-06	400.79	88.197	3.5121e-06	4.1639e-06	159.74	45.382	28.183	10.787	2.9169e-06	18.845	0.00049656	0.00075983	0.00021721	298.85	7.7363e-06	8.5981e-06	392.02	87.279	7.818e-06	8.5745e-06	157.1	49.798	28.298	10.84	8.2789e-06	18.656	136.551	118.805	37.279	-3.685	160.259	285.532	-4.401	1.909	198.210	38.251	-0.454	5.911	6.901	12.388	117.353	8.647	-8191	255	
2900.279	1	1	0	0	0.19673	0.11872	0.10338	0.16602	0.074288	0.10637	0.16274	0.13677	0.022021	0.15793	0.12602	0.11414	0.31362	0.047873	0.052528	0.29028	-2.8354	-2.6604	-3.0062	-3.1583	-2.5125	-3.125	-2.8271	-2.6125	-3.1312	-3.0083	-2.9417	-3.1063	-2.6063	-2.8917	-2.9	-2.875	296.890	61.889	55.587	138.107	122.124	81.361	340.813	20.881	246.803	56.401	210.883	14.392	48.252	132.441	202.166	161.940	7.5676e-05	0.00027744	6.3113e-05	305.37	1.9001e-06	3.0453e-06	398.87	88.186	1.6375e-06	1.0611e-06	159.62	45.6	27.903	10.772	2.5296e-06	18.45	0.00050098	0.00077479	0.00021705	298.62	8.0312e-06	8.562e-06	390.08	87.302	7.7645e-06	8.6297e-06	156.19	49.935	28.141	10.766	7.9721e-06	18.467	152.199	122.175	224.364	-3.600	310.722	170.953	-4.356	1.585	280.942	222.131	-0.684	5.695	6.552	12.451	111.562	8.741	-8191	255	
2900.375	1	1	0	0	0.24641	0.15518	0.10745	0.070159	0.21213	0.42641	0.20051	0.097167	0.068965	0.098777	0.2236	0.013063	0.13265	0.17299	0.078255	0.2545	-2.8583	-2.7562	-2.9083	-3.0542	-2.6042	-3.1479	-2.9771	-2.6042	-3.3167	-2.8375	-2.9792	-3.1063	-2.7646	-2.9479	-3.125	-2.8937	198.214	61.124	267.256	241.230	154.757	331.950	257.916	6.962	132.288	198.754	-6.995	278.221	97.066	-10.349	139.119	60.311	0.0001097	0.00031059	2.7325e-05	306.38	3.5601e-06	5.661e-07	399.17	87.239	6.4557e-07	2.9954e-06	159.77	45.965	28.079	10.795	7.3855e-07	18.736	0.00050198	0.00074598	0.00021774	299.25	7.812e-06	8.6195e-06	390.36	86.857	7.9376e-06	8.4961e-06	156.42	49.916	28.215	10.83	8.1975e-06	18.711	145.620	50.571	15.014	-4.201	116.290	307.990	-4.489	1.859	181.615	130.776	-0.600	6.316	6.367	12.960	45.096	9.184	-8191	255	
2900.471	1	1	0	0	0.082504	0.082438	0.18681	0.22543	0.051319	0.12185	0.1003	0.16117	0.12779	0.27551	0.11323	0.11503	0.031494	0.016792	0.19619	0.16229	-2.65	-2.8667	-2.7083	-3.3812	-2.6396	-3.1396	-3.1792	-2.6917	-3.1813	-2.9542	-2.7542	-3.3604	-2.9292	-2.9625	-3.1833	-2.7021	168.315	220.236	57.113	231.721	319.900	180.645	207.173	276.713	257.570	57.806	304.637	95.142	338.544	180.230	148.172	194.387	8.1361e-05	0.0002148	0.00011434	308.11	1.1596e-06	2.2438e-06	404.62	88.613	8.1563e-07	2.9639e-06	160.02	45.817	28.231	10.929	4.8712e-07	18.865	0.00048438	0.0007713	0.00022132	300.23	7.8261e-06	8.5018e-06	392.45	87.687	7.6335e-06	8.4743e-06	156.92	50.381	28.484	10.968	8.1408e-06	18.846	131.146	111.673	114.996	-3.654	54.053	202.857	-4.291	1.825	337.464	138.675	-0.254	5.534	7.005	12.300	182.929	8.692	-8191	255	
2900.592	1	1	0	0	0.013494	0.096829	0.12509	0.13256	0.19556	0.091238	0.11056	0.073306	0.13466	0.14239	0.23714	0.046364	0.021072	0.11914	0.25633	0.20616	-2.7396	-3.0417	-2.7896	-3.2417	-2.9083	-2.9583	-3.2229	-2.6667	-3.1	-3.1542	-2.8104	-3.2208	-2.8542	-2.9437	-3.2625	-2.7646	90.888	251.613	282.445	127.617	62.086	333.239	103.638	155.590	54.884	81.498	73.588	334.653	49.980	77.601	250.839	331.181	7.0032e-05	0.00015336	5.8007e-05	307.98	6.2739e-07	3.9036e-06	402.21	88.914	1.0012e-06	2.7901e-06	160.53	45.558	28.133	10.829	2.0848e-06	18.829	0.00051393	0.00076483	0.00021081	299.3	7.901e-06	8.5249e-06	393.88	87.713	7.8938e-06	8.252e-06	157.86	50.285	28.273	10.906	7.8155e-06	18.777	144.605	20.500	86.049	-3.587	211.183	171.027	-4.192	1.814	101.768	128.527	-0.469	8.294	7.092	12.311	124.804	9.051	-8191	255	
2900.687	1	1	0	0	0.16197	0.25343	0.063383	0.059634	0.045967	0.10119	0.19567	0.15535	0.16797	0.16646	0.045082	0.0695	0.052024	0.11217	0.19027	0.26238	-2.6542	-3.2042	-2.7917	-3.1	-2.8688	-2.9208	-3.1292	-2.7542	-3.025	-3.1979	-2.5687	-3.275	-2.9792	-2.7208	-3.1146	-2.6833	264.848	242.583	246.279	333.919	307.496	312.072	295.975	75.366	300.905	230.914	187.101	97.318	98.362	292.094	209.007	17.835	6.7041e-05	0.00048469	9.3896e-05	306.26	1.2921e-06	4.9853e-06	398.22	88.514	1.2867e-06	3.4738e-06	159.34	44.592	28.015	10.75	2.6469e-06	18.758	0.00049573	0.00074812	0.0002141	298.75	7.8533e-06	8.2186e-06	389.72	87.255	7.6809e-06	8.1188e-06	156.26	49.652	28.257	10.803	8.0111e-06	18.546	118.518	24.910	77.693	-3.449	126.327	163.125	-4.294	1.842	244.636	166.308	-0.590	5.644	6.386	12.043	119.454	8.971	-8191	255	
2900.784	1	1	0	0	0.11831	0.18585	0.11263	0.29693	0.06834	0.15291	0.18346	0.079496	0.20767	0.24926	0.3776	0.12009	0.2164	0.14675	0.16301	0.1635	-2.6167	-2.8646	-2.7333	-3.1396	-3.0229	-2.9	-3.2979	-2.8083	-2.9354	-3.1896	-2.7333	-3.0896	-3.0312	-2.9167	-3.1583	-2.9083	168.208	204.049	263.666	25.342	292.237	51.992	297.419	242.110	294.894	184.729	207.225	17.178	218.767	290.690	43.983	143.897	0.0001072	0.00020914	3.8155e-05	302.86	4.0929e-07	4.5148e-06	400.28	87.959	2.4723e-06	6.2087e-06	158	45.904	27.939	10.858	2.155e-06	18.655	0.00048222	0.00074745	0.00020723	298.31	7.6337e-06	8.3778e-06	391.3	87.184	7.6266e-06	8.2979e-06	155.87	49.671	28.244	10.879	7.8063e-06	18.599	154.686	194.220	109.948	-3.842	91.864	194.110	-4.597	1.733	199.361	180.997	-0.440	5.290	6.930	12.651	208.425	8.972	-8191	255	
2900.879	1	1	0	0	0.21383	0.12777	0.37568	0.41247	0.063994	0.067468	0.18768	0.18393	0.21457	0.16467	0.18034	0.14934	0.12225	0.1074	0.09377	0.16487	-2.5396	-3.1667	-2.7438	-3.1729	-3.2	-2.7542	-3.1146	-2.9104	-2.9792	-3.1979	-2.6583	-3.0375	-3.0917	-2.6167	-3.1625	-2.9646	203.792	191.378	243.950	318.154	121.848	197.758	334.806	334.238	242.133	172.779	283.178	208.645	10.084	61.783	24.621	219.651	8.6849e-05	0.00031858	0.00013788	304.43	1.2665e-06	4.1388e-06	403.25	89.424	4.4475e-07	3.4806e-06	160.37	45.855	28.125	10.929	1.4233e-06	18.996	0.00048594	0.00073491	0.00020947	298.11	7.6069e-06	8.3203e-06	392.14	88.023	7.5937e-06	8.2275e-06	157.25	50.186	28.378	10.959	7.9801e-06	18.813	144.583	3.674	28.785	-3.223	217.562	132.257	-4.457	1.677	120.048	133.220	-0.528	5.537	6.704	12.317	154.018	8.656	-8191	255	
2900.975	1	1	0	0	0.12516	0.17395	0.16189	0.077026	0.015504	0.095825	0.058509	0.10552	0.10352	0.068842	0.36213	0.043611	0.038147	0.11363	0.073483	0.17645	-2.4792	-3.0771	-2.8208	-3.2125	-3.1292	-2.775	-3.3458	-2.7667	-3.0187	-3.3521	-2.9	-2.9688	-3.2542	-2.7042	-3.0854	-3	120.810	145.200	20.545	226.535	141.368	313.324	-1.744	264.814	70.426	304.314	308.888	270.358	172.454	125.866	315.759	173.630	7.8571e-05	0.0002756	0.00012192	306.42	3.1043e-06	2.4383e-06	403.64	89.496	2.07e-06	3.2288e-06	160.2	45.437	28.451	10.933	9.0295e-07	18.905	0.0004888	0.00075059	0.00021241	298.85	7.784e-06	8.5031e-06	393.12	87.999	7.5605e-06	8.1103e-06	157.95	50.29	28.592	10.988	7.9184e-06	18.798	146.905	129.765	83.023	-3.902	79.838	173.881	-4.161	2.276	113.154	248.850	-0.681	6.735	6.374	12.483	31.407	8.759	-8191	255	
2901.071	1	1	0	0	0.24864	0.1031	0.15081	0.12033	0.16593	0.025628	0.32816	0.30682	0.10314	0.28766	0.26892	0.017728	0.3136	0.24815	0.083514	0.072899	-2.1771	-3.2833	-2.9792	-3.0854	-3.0208	-2.7333	-3.0979	-3.0292	-2.8438	-3.2896	-3.0042	-2.85	-3.0396	-2.65	-3.2146	-3.0583	-5.589	175.659	161.935	141.261	229.576	36.581	28.527	225.903	305.088	119.741	48.001	142.060	-0.217	330.533	288.752	317.489	9.169e-05	0.00051563	0.00011137	305.62	5.4275e-07	4.4594e-06	401.6	89.242	2.0117e-06	4.6309e-06	157.95	45.974	28.002	10.925	1.4809e-06	18.639	0.00049742	0.0007417	0.00021063	299.53	7.7616e-06	8.553e-06	391.97	87.953	8.2377e-06	8.3166e-06	156.41	49.843	28.37	10.89	8.1589e-06	18.575	127.152	61.057	15.229	-3.571	135.858	131.676	-4.370	1.698	131.141	121.607	-0.520	6.255	6.532	11.800	231.154	8.280	-8191	255	
2901.192	1	1	0	0	0.41703	0.2046	0.18281	0.19883	0.18778	0.15173	0.23641	0.094029	0.068801	0.16081	0.193	0.089348	0.016035	0.12875	0.093861	0.20546	-2.1	-3.0771	-2.9292	-3.0229	-3.2625	-2.8521	-2.9958	-2.9479	-2.8729	-3.2792	-2.8458	-2.8521	-3.0917	-2.9208	-3.0271	-3.1333	114.480	105.699	309.976	250.396	40.187	263.042	236.480	233.994	112.267	322.002	155.878	42.342	255.038	233.951	100.295	250.389	7.9983e-05	0.00030687	3.504e-05	305.91	2.1886e-06	2.6853e-06	402.62	88.395	8.6713e-07	1.6387e-06	158.91	46.721	27.685	10.861	2.1453e-06	18.597	0.00051161	0.00077717	0.00021809	300.11	8.0516e-06	8.8474e-06	391.55	87.746	8.1562e-06	8.5936e-06	156.2	49.805	28.38	10.911	8.5253e-06	18.576	140.637	-4.884	30.806	-3.895	118.499	81.869	-4.562	1.611	201.206	123.506	-0.786	6.226	6.713	12.506	85.413	8.486	-8191	255	
2901.288	1	1	0	0	0.12796	0.20414	0.18268	0.37512	0.22797	0.026488	0.35981	0.062306	0.087553	0.23312	0.25849	0.14615	0.24815	0.18801	0.18165	0.18346	-2.1708	-2.9792	-2.7313	-2.8125	-3.1354	-2.8083	-3.0917	-3.0938	-2.8708	-3.1896	-2.9813	-2.7604	-3.1958	-2.8854	-2.8563	-3.1583	263.556	160.579	333.180	33.451	337.959	316.410	262.104	330.006	18.413	187.144	305.124	95.609	316.297	142.710	76.967	64.363	6.5212e-05	0.00042596	2.3016e-05	311.79	2.2136e-06	1.291e-06	400.97	89.898	2.5629e-06	2.6842e-07	160.01	44.787	28.138	10.969	8.9376e-07	18.787	0.00052512	0.00079166	0.00021691	302.74	8.004e-06	8.7956e-06	392.37	88.45	8.1951e-06	8.7776e-06	157.61	50.085	28.623	10.991	8.5299e-06	18.772	140.216	110.994	220.545	-3.561	165.032	249.978	-4.424	1.816	162.780	313.572	-0.847	5.992	6.828	12.563	307.194	8.552	-8191	255	
2901.360	1	1	0	0	0.20559	0.14955	0.1735	0.2714	0.13763	0.17597	0.25299	0.1132	0.048597	0.082754	0.086376	0.19751	0.27843	0.054372	0.37748	0.014711	-2.2729	-3.0687	-2.975	-2.9292	-3.1729	-2.8542	-3.1521	-3.2542	-2.85	-2.975	-3.0354	-2.5812	-3.075	-2.9062	-2.8208	-3.2146	334.765	198.290	12.133	130.327	327.585	92.340	298.761	44.399	291.276	287.832	181.117	323.494	169.220	195.571	90.686	224.251	8.3277e-05	7.6971e-05	2.9258e-05	307.8	2.3539e-06	1.9821e-06	402.18	89.513	3.1255e-06	7.8444e-07	161.29	45.401	28.51	11.007	2.4773e-06	18.827	0.00051861	0.00081562	0.00021655	301.15	8.0488e-06	9.0503e-06	394.08	88.522	8.3711e-06	9.0542e-06	158.35	50.339	28.863	11.069	8.6915e-06	18.766	153.036	99.470	1.215	-3.751	80.140	152.734	-4.715	1.520	183.739	131.120	-0.526	5.376	6.345	12.242	206.196	8.734	-8191	255	
2901.456	1	1	0	0	0.19541	0.26978	0.0866	0.036227	0.065673	0.14326	0.3889	0.065293	0.11019	0.20027	0.081017	0.11385	0.13385	0.12914	0.17205	0.043955	-2.4188	-2.8979	-3.2438	-2.9625	-3.2438	-3.0042	-2.9688	-3.2271	-2.9292	-2.9938	-3.1896	-2.85	-3.2646	-3.0563	-3.0375	-3.3708	43.138	196.891	99.381	152.864	157.235	84.479	298.137	267.527	278.027	228.986	285.568	64.048	174.686	117.646	168.094	193.466	8.9431e-05	0.00024806	6.899e-05	307.82	3.9545e-06	2.0585e-06	402.75	88.443	1.5267e-06	1.8207e-06	160.22	45.622	27.988	10.924	5.0129e-06	18.606	0.00054016	0.00081019	0.00022488	301.9	8.2231e-06	9.0811e-06	392.64	88.1	8.5658e-06	9.1255e-06	157.02	50.221	28.529	10.969	8.8686e-06	18.572	158.432	60.361	8.609	-3.723	149.166	190.902	-4.526	1.358	224.415	121.677	-0.600	5.341	6.902	12.621	117.689	8.872	-8191	255	
2901.575	1	1	0	0	0.10954	0.076023	0.25431	0.16746	0.075897	0.15249	0.35504	0.19109	0.17604	0.24725	0.34493	0.098384	0.093357	0.11664	0.20617	0.07493	-2.5458	-3.0146	-3.2188	-2.8854	-3.2354	-3.0812	-2.8229	-3.2229	-2.8354	-2.9896	-3.0938	-2.7021	-3.1646	-3.2062	-2.8438	-3.1458	91.466	139.450	112.027	54.170	342.514	69.256	280.500	331.431	56.024	260.068	275.311	58.074	22.071	261.087	77.845	95.110	0.0001029	0.00023404	1.5909e-05	308.75	1.5146e-06	3.5163e-06	400.05	89.274	2.9307e-06	8.7324e-06	158.91	45.721	28.107	10.959	1.2229e-06	18.563	0.00054132	0.00082578	0.00022998	301.43	8.5617e-06	8.9709e-06	390.9	88.201	8.715e-06	9.3192e-06	155.92	50.081	28.61	10.98	8.9907e-06	18.513	157.835	64.944	-11.596	-3.781	101.319	107.971	-4.529	2.050	120.374	167.777	-0.780	5.290	7.415	12.105	202.176	8.878	-8191	255	
2901.671	1	1	0	0	0.1291	0.089421	0.20958	0.27103	0.070678	0.21577	0.075587	0.10551	0.10202	0.11514	0.11209	0.034156	0.2291	0.20764	0.15496	0.040636	-2.6271	-2.8354	-3.0771	-2.8021	-3.1437	-3.0958	-2.8396	-3.1896	-3.0292	-2.95	-3.2938	-2.9417	-3.1167	-3.2833	-2.8625	-3.1583	292.280	-8.389	141.843	176.167	165.493	210.939	41.319	278.581	146.877	60.649	236.063	54.093	83.704	315.364	45.000	100.332	6.4313e-05	0.00032716	5.248e-05	310.99	9.3711e-07	1.5368e-06	402.23	90.783	3.5617e-06	1.931e-06	160.3	45.492	28.246	11.063	1.0914e-06	18.757	0.00052898	0.00083122	0.00023674	302.99	8.4507e-06	9.2242e-06	392.6	88.89	8.7195e-06	9.2818e-06	157.19	50.251	28.739	11.05	8.8548e-06	18.694	162.388	-12.911	141.752	-3.448	50.869	177.404	-4.334	1.885	95.871	124.089	-0.381	5.241	6.945	12.080	49.984	8.597	-8191	255	
2901.767	1	1	0	0	0.16547	0.22779	0.1801	0.016809	0.11556	0.042872	0.13467	0.2206	0.06138	0.18983	0.18045	0.086507	0.13405	0.1924	0.045885	0.10852	-2.6312	-2.6583	-3.2083	-2.6208	-3.0438	-3.2542	-2.8208	-3.2562	-3.0563	-2.8583	-3.1458	-2.7875	-2.9313	-3.1229	-2.85	-2.9542	32.337	77.117	162.462	65.296	258.804	322.510	267.994	289.462	185.876	247.197	14.172	280.846	8.866	219.233	237.266	137.299	0.00010604	0.00022096	6.2285e-05	306.98	2.7571e-06	2.6797e-06	402.15	89.527	2.2327e-06	3.7996e-06	158.7	45.093	27.935	11.014	1.6694e-06	18.818	0.00054658	0.00083316	0.0002317	300.99	8.3578e-06	9.3308e-06	393.4	88.843	8.4117e-06	9.1941e-06	157.47	50.45	28.781	11.074	8.6042e-06	18.828	145.221	144.329	52.549	-3.666	182.470	163.378	-4.190	1.750	177.431	140.880	-0.965	5.167	6.736	12.304	92.244	8.321	-8191	255	
2901.863	1	1	0	0	0.45449	0.14385	0.18547	0.19149	0.19718	0.32845	0.1347	0.068544	0.11706	0.0088385	0.17941	0.1558	0.12951	0.14834	0.046718	0.060505	-2.5938	-2.7208	-3.1667	-2.8979	-3.0104	-3.2	-2.7438	-3.1167	-3.0417	-2.9083	-3.3021	-2.7875	-2.9437	-3.3104	-2.85	-3.2333	157.288	160.635	58.042	340.146	192.944	337.806	246.070	221.274	59.991	243.098	218.791	321.504	210.521	-0.095	339.918	178.263	7.2797e-05	0.00014204	4.0353e-05	309.07	2.2409e-06	4.4179e-06	397.31	89.905	8.6543e-07	2.8023e-06	160.29	46.29	28.376	10.875	2.0729e-06	18.621	0.00052881	0.00082023	0.0002174	301.65	8.2147e-06	9.1025e-06	391.06	88.739	8.2389e-06	8.8293e-06	157.41	50.2	28.699	11	8.4695e-06	18.549	153.420	128.541	139.501	-3.613	180.287	127.598	-4.409	1.881	209.072	191.369	-0.488	5.532	6.971	12.321	153.258	8.779	-8191	255	
2901.984	1	1	0	0	0.1554	0.091923	0.20778	0.12229	0.27751	0.15164	0.24849	0.1714	0.16315	0.065217	0.16038	0.25426	0.048302	0.10415	0.011021	0.1633	-2.8	-2.7646	-3.2021	-2.9958	-3	-3.3563	-2.9104	-3.1688	-3.1625	-2.8417	-3.2042	-3.1333	-2.7667	-3.2146	-2.9062	-2.8792	79.769	238.488	25.113	10.191	47.400	42.369	320.015	343.320	167.983	131.936	268.234	164.726	228.708	268.693	285.735	241.673	0.00010617	0.00033243	5.522e-05	307.18	2.882e-06	5.2988e-06	399.26	89.309	2.0817e-06	4.3674e-06	159.68	46.226	28.114	10.947	1.7591e-06	18.54	0.00052116	0.00078039	0.00021934	300.3	7.9527e-06	8.9789e-06	390.23	88.439	7.9457e-06	8.6239e-06	156.44	49.677	28.54	10.99	8.3704e-06	18.505	149.172	-15.116	43.030	-3.676	126.784	129.196	-4.427	2.177	145.010	191.456	-0.262	6.472	6.908	12.777	93.559	8.710	-8191	255	
2902.055	1	1	0	0	0.11401	0.090919	0.21159	0.1448	0.21394	0.12253	0.075374	0.10754	0.17568	0.12358	0.18444	0.209	0.083638	0.066354	0.097243	0.17475	-2.8083	-2.5667	-3.3	-2.8667	-2.8396	-3.2062	-3.1562	-2.9021	-3.3042	-2.9188	-3.1521	-2.9271	-2.8354	-3.0896	-3.075	-2.9875	42.741	259.360	193.743	199.466	8.820	114.010	28.485	260.350	274.917	258.715	3.817	159.008	73.830	249.858	17.378	109.575	9.2842e-05	0.00027906	0.00012394	306.1	1.6256e-06	8.6411e-07	398.07	90.167	1.6234e-06	1.9767e-06	158.51	46.068	28.533	11.029	5.5775e-07	18.725	0.00050066	0.00079146	0.00021319	300.45	7.8401e-06	8.7363e-06	391.15	88.749	7.7247e-06	8.6239e-06	156.61	50.175	28.776	11.031	8.0027e-06	18.613	150.149	156.532	12.838	-3.773	160.576	93.604	-4.517	2.250	99.085	148.381	-0.679	6.164	6.733	12.399	107.220	8.654	-8191	255	
2902.151	1	1	0	0	0.14227	0.34574	0.03243	0.20984	0.17629	0.28456	0.018978	0.019211	0.15515	0.13817	0.18461	0.24971	0.077682	0.12717	0.12646	0.1194	-2.775	-2.7042	-3.175	-2.9104	-2.7542	-3.2104	-2.9375	-2.9208	-3.2583	-2.6979	-3.0729	-3.0375	-2.7104	-3.2583	-2.9292	-2.9083	94.449	146.992	321.115	100.583	159.286	138.819	244.416	148.725	303.638	292.749	331.993	288.040	249.376	129.337	308.636	202.055	7.9593e-05	0.00018024	3.5184e-05	307.87	9.3477e-07	3.6071e-06	402.19	89.91	1.3168e-06	1.1234e-06	161.07	45.893	28.894	11.149	1.1945e-06	18.829	0.00050321	0.00079507	0.0002129	300.99	7.8293e-06	8.4728e-06	392.32	88.828	7.6473e-06	8.3504e-06	157.93	50.162	28.931	11.121	7.7992e-06	18.806	138.485	106.196	68.319	-3.842	117.612	256.133	-4.113	1.668	319.024	309.711	-0.674	5.469	5.924	12.128	148.020	8.884	-8191	255	
2902.272	1	1	0	0	0.28672	0.041142	0.10771	0.2751	0.10831	0.026411	0.37033	0.078667	0.25404	0.2717	0.14869	0.031433	0.22965	0.20372	0.13789	0.08608	-2.8271	-2.8375	-3.0771	-3.0833	-2.7562	-3.2958	-2.9562	-2.6542	-3.2333	-2.7104	-2.9625	-3.0979	-2.6583	-3.0479	-2.9396	-2.6937	117.697	54.689	229.482	86.446	46.009	87.541	190.992	168.098	179.721	239.301	133.590	-1.574	19.346	163.184	273.328	173.113	7.0266e-05	0.00018287	9.2978e-05	306.48	1.3848e-06	3.1976e-06	404.38	90.068	1.2332e-06	1.3068e-06	160.37	46.664	28.558	10.989	1.3265e-06	18.659	0.0004941	0.00074027	0.00021439	301.05	7.7239e-06	8.3015e-06	392.97	89.011	7.7969e-06	8.2965e-06	157.51	50.196	28.843	11.048	8.0262e-06	18.614	158.158	49.207	29.904	-3.480	139.619	120.793	-4.324	2.101	327.448	295.626	-0.534	5.799	6.721	12.620	40.688	8.118	-8191	255	
2902.368	1	1	0	0	0.21256	0.13688	0.13603	0.32551	0.15054	0.035286	0.057546	0.22967	0.1665	0.099343	0.14072	0.1037	0.23696	0.12386	0.14252	0.10503	-2.7292	-2.7208	-2.8917	-3.2	-2.65	-3.0958	-3.2021	-2.775	-3.2417	-3.0042	-2.8292	-3.1271	-2.8063	-3.0625	-3.1146	-2.8812	60.848	-9.706	294.556	0.193	162.274	85.011	91.266	212.095	44.455	128.534	108.826	208.852	196.853	49.586	222.495	6.911	7.0629e-05	0.00019775	3.532e-05	309.09	1.3817e-06	2.7671e-06	402.18	90.378	1.9761e-06	4.1917e-06	159.2	44.931	28.397	10.975	2.3531e-06	18.607	0.00050235	0.00073455	0.00020896	301.31	7.6902e-06	8.1856e-06	391.1	89.042	7.6988e-06	8.358e-06	156.83	49.394	28.769	11.011	7.693e-06	18.437	143.973	43.062	77.476	-3.717	78.949	99.221	-4.388	2.211	164.712	157.867	-0.433	6.235	6.384	12.398	157.024	8.440	-8191	255	
2902.464	1	1	0	0	0.21626	0.28256	0.25039	0.026811	0.10057	0.12437	0.14759	0.1711	0.22368	0.27272	0.28519	0.13005	0.10736	0.09832	0.096494	0.1105	-2.8771	-2.7896	-2.6917	-3.25	-2.8167	-3.0938	-3.2354	-2.6604	-3.2812	-2.9437	-2.6771	-3.1833	-2.9229	-3.0083	-3.0792	-2.7896	19.137	176.960	257.521	62.322	60.214	301.867	218.366	25.008	269.375	251.413	223.766	-6.935	143.898	338.474	46.070	-9.030	8.6263e-05	6.0511e-05	9.5081e-05	310.66	1.7312e-06	3.0813e-06	400.26	90.192	1.0092e-06	2.1473e-06	159.36	45.261	28.861	11.188	2.4214e-06	18.72	0.0004855	0.00075582	0.00020808	301.14	7.7844e-06	8.3301e-06	390.34	89.177	7.6278e-06	8.1446e-06	156.77	49.71	28.945	11.121	7.8071e-06	18.689	135.972	284.117	104.829	-3.833	154.957	140.321	-4.076	1.853	200.339	164.083	-0.300	4.826	7.197	12.028	159.521	8.831	-8191	255	
2902.583	1	1	0	0	0.10419	0.23255	0.045507	0.14393	0.13888	0.057069	0.25603	0.17191	0.15089	0.19948	0.18932	0.30419	0.17258	0.099381	0.16442	0.053829	-2.5458	-2.9333	-2.8521	-3.0979	-2.9604	-3.0208	-3.1167	-2.675	-3.0146	-3.0958	-2.8812	-3.1146	-2.8167	-2.9479	-3.0354	-2.7938	145.764	18.119	9.883	187.784	108.032	161.296	22.898	84.021	47.350	179.537	225.690	11.609	64.224	49.810	136.395	4.640	8.9206e-05	0.00027694	6.6691e-05	311.37	8.0295e-07	5.2408e-07	403.49	90.248	8.0606e-07	3.5204e-06	160.45	46.385	28.499	11.238	1.6988e-06	18.923	0.00048329	0.00074574	0.00021309	302.91	7.6061e-06	7.9251e-06	393.91	89.472	7.6935e-06	8.1295e-06	158.05	50.377	28.893	11.201	7.7618e-06	18.793	146.826	52.160	32.978	-4.113	31.147	320.070	-4.460	2.187	135.624	96.522	-0.354	6.135	6.677	12.262	39.240	8.507	-8191	255	
2902.655	1	1	0	0	0.12286	0.15996	0.28589	0.076128	0.024164	0.16905	0.17283	0.16188	0.2248	0.33943	0.17851	0.17083	0.24737	0.15995	0.21119	0.1026	-2.6521	-2.8917	-2.8417	-2.8542	-2.8312	-2.8042	-3.1125	-2.8667	-3.1063	-3.0438	-2.75	-3.15	-2.8646	-2.8563	-3.3125	-2.8083	38.330	283.386	37.360	33.827	104.964	224.370	331.009	185.826	305.974	251.977	3.639	-15.001	13.552	321.506	168.630	299.784	8.7919e-05	0.00035587	0.0001295	309.06	1.862e-06	1.2876e-06	402.63	90.034	1.0894e-06	5.4673e-06	161.08	44.782	28.665	11.197	2.5783e-06	18.646	0.00048361	0.00073912	0.0002077	303.14	7.4715e-06	8.5883e-06	394.05	89.536	7.7336e-06	8.2364e-06	158.32	49.457	28.961	11.157	8.0527e-06	18.608	140.269	44.128	59.617	-3.572	141.475	311.493	-4.116	1.702	190.619	149.915	-1.019	5.986	6.738	12.381	86.098	8.473	-8191	255	
2902.751	1	1	0	0	0.33703	0.14488	0.13069	0.30212	0.15364	0.046466	0.089347	0.14357	0.081801	0.074454	0.19854	0.13491	0.097333	0.37481	0.025251	0.22471	-2.7229	-3.1562	-2.7146	-3.0979	-2.9604	-2.9125	-3.2188	-3.0104	-3.0563	-3.0396	-2.625	-2.9875	-2.9583	-2.7938	-3.2583	-2.9521	265.251	19.097	64.238	219.084	21.681	260.052	343.090	99.478	-2.255	63.050	329.334	190.401	329.974	170.989	201.569	257.410	9.1871e-05	0.00018307	1.6862e-05	309.49	1.8016e-06	1.8315e-06	400.24	89.853	1.0786e-06	3.8271e-06	160.37	44.623	28.299	11.166	2.0862e-06	18.526	0.00048361	0.00074999	0.0002103	300.91	7.5528e-06	8.4937e-06	391.43	88.911	7.7949e-06	8.4653e-06	156.69	49.672	28.797	11.109	7.9721e-06	18.466	156.611	46.549	317.602	-3.863	80.924	126.687	-4.539	1.897	75.891	131.081	-0.633	5.233	6.310	11.854	168.096	9.266	-8191	255	
2902.872	1	1	0	0	0.20404	0.084194	0.12085	0.03269	0.16408	0.11283	0.23103	0.10954	0.24921	0.27297	0.1358	0.19725	0.14203	0.13799	0.011162	0.15268	-2.5687	-3.1562	-2.6271	-3.0229	-2.9688	-2.6729	-3.2542	-2.7979	-2.9813	-3.1604	-2.7667	-3.0021	-2.8563	-2.6104	-3.0708	-2.9313	333.258	160.955	260.001	102.698	65.615	8.095	283.592	23.921	175.056	213.430	199.604	216.015	282.184	145.254	294.311	311.759	0.00010139	0.00011885	5.2875e-05	310.93	1.8641e-06	1.4105e-06	400.18	89.61	6.5065e-07	1.1887e-06	159.27	45.099	28.695	11.188	8.5165e-07	18.487	0.00049708	0.00073475	0.00021152	301.66	7.8056e-06	8.4857e-06	390.98	89.262	8.0284e-06	8.4444e-06	156.88	49.84	29.034	11.221	8.1244e-06	18.577	152.533	82.865	311.781	-3.906	157.599	246.875	-4.387	1.928	78.453	105.319	-0.690	4.117	6.453	12.543	182.042	8.859	-8191	255	
2902.968	1	1	0	0	0.18337	0.14092	0.37757	0.016962	0.091367	0.25738	0.096737	0.063416	0.12849	0.10912	0.18524	0.1783	0.034229	0.2093	0.16595	0.087672	-2.3521	-3.1813	-2.8146	-3.0208	-3.0563	-2.6396	-3.2229	-2.9583	-2.775	-3.3729	-2.6292	-2.9729	-3	-2.6229	-3.2583	-2.9417	90.069	59.120	-14.399	137.256	161.441	205.646	98.392	-5.032	223.555	210.488	66.550	184.305	55.045	199.397	58.638	247.127	7.055e-05	0.00042492	3.0213e-05	308.95	2.7324e-06	1.0774e-06	403.58	90.769	5.212e-07	1.9161e-06	159.86	45.413	29.002	11.233	1.2857e-06	18.824	0.00049817	0.00074801	0.00021516	302.9	7.8661e-06	8.4786e-06	393.9	89.82	8.0499e-06	8.4956e-06	158.05	50.105	29.302	11.27	7.8659e-06	18.753	156.904	15.282	30.268	-3.970	194.481	292.295	-4.333	1.443	237.024	82.982	-0.880	5.516	7.066	11.815	175.173	8.649	-8191	255	
2903.064	1	1	0	0	0.1722	0.23305	0.1086	0.16526	0.21934	0.089546	0.29556	0.30679	0.27969	0.3604	0.14431	0.15136	0.057543	0.20312	0.06684	0.2124	-2.2687	-3.0354	-2.625	-2.7875	-3.05	-2.5083	-3.0833	-2.8729	-2.7542	-3.1375	-2.8708	-2.725	-3.0875	-2.575	-3.0167	-3.0458	265.885	317.356	272.267	332.319	44.450	231.733	193.831	271.670	23.673	306.911	237.418	41.839	47.891	232.282	32.373	323.850	8.3302e-05	0.00049099	2.9018e-05	312.82	1.6114e-06	2.6221e-06	403.37	91.269	3.1354e-06	3.5188e-06	161.59	47.034	29.055	11.255	2.2185e-06	18.72	0.00050505	0.00077245	0.0002155	303.59	7.9747e-06	8.5629e-06	394.71	90.322	7.919e-06	8.4083e-06	158.44	50.897	29.292	11.282	7.8944e-06	18.686	152.007	116.669	343.437	-3.838	107.331	162.599	-4.383	1.863	147.890	159.446	-1.125	5.529	7.690	12.447	231.865	8.557	-8191	255	
2903.160	1	1	0	0	0.088429	0.089155	0.16175	0.090162	0.10245	0.029245	0.091469	0.076517	0.25522	0.2796	0.13152	0.25078	0.20795	0.28328	0.12311	0.21196	-2.2583	-3.2354	-2.6479	-2.7875	-3.2292	-2.8521	-3.0354	-3.0104	-2.575	-3.2667	-2.9458	-2.8187	-3.2167	-2.5292	-2.9604	-3.025	79.974	328.930	343.436	189.665	242.868	68.621	261.302	133.205	-2.840	173.667	293.345	196.609	74.795	151.005	157.077	193.259	6.3467e-05	0.00023023	4.6412e-05	311.14	1.9331e-06	4.8491e-06	403.53	90.579	1.1653e-06	1.4716e-06	159.69	44.629	29.065	11.217	6.8896e-07	18.545	0.00050684	0.000769	0.0002075	302.62	7.8188e-06	8.2815e-06	391.34	89.735	8.0455e-06	8.3985e-06	157.11	49.604	29.102	11.207	7.8516e-06	18.513	138.985	53.848	-6.708	-3.723	165.973	214.682	-4.357	1.728	154.625	230.192	-1.032	5.034	7.287	12.215	-1.659	8.761	-8191	255	
2903.281	1	1	0	0	0.22065	0.22767	0.068197	0.079047	0.19576	0.20937	0.19831	0.30667	0.29005	0.13581	0.075085	0.14071	0.27738	0.046162	0.16124	0.1188	-2.4354	-2.9917	-2.8646	-2.7687	-3.2917	-2.8729	-3.0229	-3.1562	-2.8625	-3.1146	-2.8333	-2.7812	-3.3937	-2.8479	-2.9604	-3.2104	257.700	220.990	316.145	295.725	219.510	136.851	255.300	310.688	315.119	285.800	110.586	-6.705	72.759	251.423	274.297	188.943	9.9886e-05	0.00036683	2.5575e-05	309.53	2.2087e-06	6.4461e-06	400.65	90.626	1.7551e-06	5.1496e-06	158.82	45.137	28.22	11.157	2.4214e-06	18.557	0.00049868	0.00073924	0.00020934	303.09	7.7175e-06	8.5602e-06	391.16	89.707	8.0694e-06	8.0613e-06	156.96	49.471	29.064	11.213	8.0476e-06	18.533	125.230	74.695	119.726	-3.757	240.292	131.826	-4.356	1.468	301.333	83.797	-0.509	5.912	6.708	12.890	151.082	8.701	-8191	255	
2903.352	1	1	0	0	0.30017	0.10652	0.23476	0.26486	0.1318	0.11548	0.16683	0.1661	0.30048	0.15431	0.073361	0.10685	0.34254	0.080605	0.073957	0.0015726	-2.2542	-3.0479	-2.9542	-2.7333	-3.2667	-2.8208	-3.0521	-3.1354	-2.9375	-3.1437	-3.1021	-2.7104	-3.0146	-2.9229	-3.0375	-3.1813	135.100	39.211	159.796	235.544	183.222	310.468	123.303	284.010	326.226	269.215	202.435	17.815	315.843	286.435	334.652	180.000	6.5453e-05	0.00028472	0.00011818	312.64	1.237e-06	5.0633e-07	400.35	91.031	1.8593e-06	5.5346e-06	160.25	46.808	29.103	11.242	1.9513e-06	18.839	0.00049308	0.00072527	0.00020684	304.37	7.4667e-06	8.2132e-06	392.96	90.361	7.4648e-06	8.1371e-06	158.34	50.193	29.28	11.306	7.7547e-06	18.703	169.200	18.942	62.831	-3.684	192.603	160.191	-4.441	1.454	95.177	147.904	-0.785	5.479	6.816	12.605	170.185	9.295	-8191	255	
2903.449	1	1	0	0	0.37893	0.26487	0.41727	0.27214	0.38491	0.099625	0.090061	0.028112	0.21299	0.052718	0.10915	0.21937	0.097557	0.17938	0.12227	0.17483	-2.275	-2.9104	-3.0167	-2.6896	-3.1042	-2.8292	-2.9875	-3.1646	-2.775	-3.1271	-3.2812	-2.8021	-3.2396	-3.0125	-2.925	-3.2188	262.228	131.047	143.074	31.133	177.883	100.523	179.432	32.009	290.569	9.225	162.628	103.703	149.175	78.749	108.126	22.483	7.0828e-05	0.00030724	5.1639e-05	311.92	2.478e-06	4.4712e-06	403.01	91.535	1.8667e-06	3.4345e-06	162.65	47.123	28.923	11.314	1.1566e-06	18.666	0.00047589	0.00073098	0.00019788	304.15	7.1577e-06	8.2226e-06	394.59	90.594	7.3107e-06	7.9669e-06	159.57	50.738	29.273	11.333	7.7102e-06	18.749	138.006	120.254	137.470	-3.967	149.671	191.176	-4.289	2.103	92.117	179.522	-0.402	5.616	6.937	12.510	118.571	9.314	-8191	255	
2903.545	1	1	0	0	0.13284	0.21841	0.23183	0.13444	0.1764	0.14003	0.1431	0.026255	0.16237	0.12663	0.13997	0.27081	0.085295	0.1298	0.19695	0.31502	-2.2729	-2.9292	-3.1688	-2.7771	-3.1542	-2.9583	-2.8083	-3.1292	-2.8104	-3.0104	-3.1104	-2.6188	-3.1708	-2.9729	-2.925	-3.1625	276.698	38.691	220.322	49.968	316.278	194.422	341.478	293.004	165.486	-7.518	277.100	127.689	22.009	120.547	315.236	93.012	9.2558e-05	0.0002465	5.3845e-05	310.4	1.9399e-06	2.6655e-06	401.78	92.087	2.123e-06	5.3523e-06	160.39	45.728	28.8	11.2	1.5713e-07	18.495	0.00048203	0.00070741	0.00020041	302.78	7.2944e-06	7.9621e-06	393.09	90.691	7.4696e-06	8.0186e-06	157.68	49.788	29.066	11.246	7.7387e-06	18.442	142.305	23.251	83.527	-3.486	123.378	51.137	-4.567	1.800	137.773	175.462	-0.685	5.214	6.818	12.504	100.745	8.566	-8191	255	
2903.664	1	1	0	0	0.043176	0.29375	0.083125	0.11754	0.12424	0.17101	0.43602	0.1027	0.31764	0.076504	0.092824	0.23296	0.15558	0.044543	0.24975	0.025271	-2.4458	-2.8438	-3.1917	-2.9125	-3.15	-2.8333	-2.7792	-3.1229	-2.925	-2.9	-3.1292	-2.7687	-2.9333	-3.05	-2.6792	-3.3271	325.953	218.219	99.261	143.897	70.916	271.668	281.435	212.392	106.593	107.116	276.808	305.290	140.598	337.128	273.293	305.078	7.6485e-05	0.00014343	1.9326e-05	309.28	1.1376e-06	4.7247e-07	402.17	91.429	2.9274e-06	4.7213e-06	159.65	45.48	28.983	11.168	2.1958e-06	18.557	0.00047013	0.00071491	0.00020093	301.92	7.1337e-06	7.9532e-06	391.52	90.114	7.4757e-06	8.1393e-06	156.79	49.812	29.169	11.238	7.9477e-06	18.574	151.838	64.711	58.114	-3.776	114.582	286.838	-4.411	2.150	185.917	146.870	-0.514	6.440	6.637	12.501	204.638	8.719	-8191	255	
2903.760	1	1	0	0	0.18465	0.07266	0.20441	0.0059461	0.11822	0.091758	0.13231	0.19398	0.31483	0.2119	0.092379	0.13261	0.036154	0.11823	0.2334	0.1182	-2.5875	-2.7875	-3.0875	-2.8542	-2.9313	-3.2333	-2.65	-3.2104	-3	-2.8104	-3.2313	-2.8646	-2.8875	-3.0396	-2.9167	-3.1417	141.418	25.164	105.404	189.045	195.101	94.644	218.390	110.378	108.446	62.607	216.182	337.009	103.944	102.421	240.353	150.798	7.4675e-05	0.00047974	4.3655e-05	311.79	1.3396e-07	3.6253e-06	400.4	92.093	8.8283e-07	3.1231e-06	161.43	45.95	29.102	11.348	1.8737e-06	18.84	0.00047631	0.00072824	0.00020179	303.61	7.5588e-06	7.9608e-06	392.15	90.589	7.5297e-06	8.0061e-06	158.14	50.015	29.268	11.365	7.8168e-06	18.741	149.660	81.887	64.931	-3.657	204.306	156.792	-4.403	2.165	72.511	156.297	-0.284	6.082	6.608	12.168	103.447	9.088	-8191	255	
2903.856	1	1	0	0	0.13571	0.2158	0.082321	0.027289	0.055446	0.11034	0.27606	0.10392	0.061622	0.089672	0.08418	0.077311	0.07146	0.1274	0.016405	0.20792	-2.5854	-2.6458	-3.1562	-2.8354	-2.9354	-3.3875	-2.6688	-2.9833	-3.1125	-2.8187	-3.2042	-2.8146	-2.9938	-3.2562	-2.7104	-3.1271	44.323	217.442	102.225	25.713	39.862	298.068	-13.499	297.428	70.600	74.552	283.985	152.028	290.755	74.037	315.144	31.174	6.7206e-05	0.00020993	0.00013055	312.95	9.422e-07	3.8495e-06	402.35	90.67	2.0189e-06	3.9321e-06	162.36	46.728	29.362	11.374	3.9081e-06	18.868	0.00048368	0.00072848	0.00018951	303.65	7.1673e-06	7.8788e-06	393.32	90.278	7.2726e-06	8.0172e-06	159.19	50.284	29.585	11.387	7.5444e-06	18.895	156.005	96.888	25.279	-3.972	125.306	172.772	-4.525	1.913	123.327	187.156	-0.567	5.230	6.273	12.533	105.396	8.602	-8191	255	
2903.952	1	1	0	0	0.063417	0.11032	0.25345	0.27105	0.31833	0.1027	0.14318	0.22535	0.038805	0.21329	0.20404	0.17534	0.24431	0.023737	0.16536	0.31763	-2.8042	-2.7146	-3.1292	-3.1146	-2.9146	-3.2021	-2.8021	-3.0729	-3.1167	-2.7958	-3.2271	-3.0271	-2.7104	-3.2875	-2.8792	-3.025	228.046	298.642	247.698	326.545	268.781	92.676	3.888	18.785	141.295	189.653	-7.976	267.358	145.689	178.070	146.167	157.386	8.9211e-05	0.00031654	0.00010044	311.15	2.1312e-06	2.2687e-06	402.95	91.415	4.5326e-07	3.0145e-06	161.04	44.716	29.228	11.354	2.8205e-06	18.577	0.0004741	0.00071777	0.00019402	303.56	7.3941e-06	8.0054e-06	393.25	90.639	7.6027e-06	8.2132e-06	157.96	49.48	29.569	11.336	7.4806e-06	18.564	141.557	89.477	122.229	-3.767	152.126	99.199	-4.052	2.139	235.962	96.458	-0.578	5.934	7.180	11.821	175.859	9.104	-8191	255	
2904.048	1	1	0	0	0.32133	0.17588	0.12687	0.25321	0.21835	0.2099	0.068004	0.20082	0.20037	0.035575	0.23782	0.14365	0.094501	0.071924	0.058653	0.02956	-2.7625	-2.5417	-3.1188	-3.0875	-2.8771	-3.1708	-2.7521	-2.9313	-3.1	-2.7167	-3.0687	-3.1271	-2.6604	-3.1771	-2.7833	-3.0938	219.793	85.003	325.938	140.560	214.540	15.585	171.721	264.750	225.104	81.271	320.502	234.287	78.993	269.626	224.965	30.837	7.912e-05	0.00033775	9.3066e-05	309.78	4.7475e-07	6.9527e-07	400.46	91.279	4.0363e-06	1.5077e-06	159.45	45.344	29.203	11.302	9.5432e-07	18.606	0.00047466	0.00070289	0.00018689	302.26	7.2667e-06	7.716e-06	390.33	90.498	7.4392e-06	7.9727e-06	156.9	49.542	29.287	11.286	7.4093e-06	18.519	142.984	113.184	5.665	-3.794	335.227	295.598	-4.233	2.076	165.690	129.080	-0.667	5.084	7.144	12.583	11.830	8.608	-8191	255	
2904.144	1	1	0	0	0.072367	0.14051	0.090653	0.2353	0.36038	0.26789	0.39089	0.031436	0.14016	0.10221	0.092525	0.11582	0.13391	0.02525	0.15557	0.056774	-2.7729	-2.5604	-3.0083	-3.1042	-2.8125	-3.3604	-3.0021	-2.9646	-3.125	-2.8042	-3.1854	-3.1	-2.6604	-3.2021	-3.1167	-3.0771	243.668	74.604	153.711	10.247	4.944	139.090	240.320	253.378	284.889	123.151	237.389	42.509	149.648	23.162	16.398	297.867	7.8827e-05	0.00020851	0.00015028	310.48	1.3439e-06	1.5641e-06	402.71	91.797	3.079e-06	5.0475e-06	160.04	44.498	29.288	11.31	1.6723e-06	18.792	0.00047313	0.00071892	0.00019773	302.51	7.346e-06	7.741e-06	392.76	90.87	7.4364e-06	8.3629e-06	158.04	49.595	29.521	11.359	7.5964e-06	18.643	141.453	67.323	54.417	-3.708	200.502	335.767	-4.184	2.033	85.010	117.419	-1.070	6.072	6.939	12.413	130.998	8.840	-8191	255	
2904.265	1	1	0	0	0.033619	0.27756	0.083366	0.15005	0.04946	0.068774	0.37273	0.13067	0.14031	0.23024	0.064646	0.13036	0.11633	0.13811	0.24054	0.18552	-3.0062	-2.7833	-3.0104	-3.0958	-2.7062	-3.1125	-3.0083	-2.8292	-3.3708	-2.9292	-3.0333	-3.0687	-2.6917	-3.1208	-3.0146	-2.9042	82.440	224.839	269.474	237.699	257.392	147.559	9.937	319.974	236.211	93.593	109.180	287.725	327.588	102.835	244.600	317.640	6.1091e-05	0.00014872	4.85e-05	311.98	5.088e-07	4.2075e-06	401.88	92.474	1.2767e-06	1.981e-06	162.17	46.701	28.981	11.47	3.2763e-06	18.918	0.0004681	0.00071987	0.00020665	303.5	7.3709e-06	7.9403e-06	393.16	91.324	7.4705e-06	8.1847e-06	158.97	50.584	29.504	11.473	7.9834e-06	18.809	149.608	118.139	79.747	-3.650	229.020	228.731	-4.577	1.627	103.038	190.220	-0.441	5.927	7.241	12.775	177.167	8.909	-8191	255	
2904.361	1	1	0	0	0.14246	0.11898	0.014426	0.068064	0.11624	0.050257	0.11903	0.036665	0.16576	0.052396	0.20231	0.14194	0.11009	0.26059	0.18116	0.21702	-2.9292	-2.9021	-3.0417	-3.0646	-2.7292	-3.2042	-3.0854	-2.7812	-3.0333	-2.9313	-2.7958	-3.075	-2.8292	-3.1229	-3.2104	-2.5667	311.288	234.645	255.355	228.932	208.275	279.025	207.762	307.320	-15.016	-13.062	180.492	168.098	106.034	252.588	100.624	305.087	8.2316e-05	0.00024303	1.9729e-05	313.73	2.0878e-06	3.835e-06	403.07	93.018	5.7507e-07	4.2407e-06	161.02	45.926	29.494	11.424	6.1331e-07	18.591	0.00047327	0.00071205	0.00020391	305.54	7.5207e-06	8.1682e-06	394.23	91.656	7.4323e-06	8.3477e-06	158.29	50.025	29.583	11.393	7.9444e-06	18.555	170.308	94.308	187.577	-3.681	251.124	117.222	-4.383	1.816	252.892	84.738	-0.739	5.146	6.875	11.902	170.958	8.653	-8191	255	
2904.457	1	1	0	0	0.17676	0.10384	0.074034	0.14833	0.044899	0.1856	0.1885	0.2539	0.095473	0.26125	0.070168	0.23107	0.16697	0.15226	0.11107	0.21492	-2.6417	-3.0271	-2.8563	-3.1417	-2.8646	-3.0292	-3.2812	-2.625	-3.2333	-2.9708	-2.8125	-3.1729	-2.8708	-2.8812	-2.9625	-2.7167	99.855	292.051	165.788	67.040	51.254	270.422	242.385	336.389	337.251	296.541	144.602	174.602	49.129	58.361	211.091	153.813	7.3044e-05	0.00012173	7.7612e-05	310.97	2.0537e-06	5.0694e-06	403.19	92.347	3.0514e-07	4.2383e-06	159.29	46.242	29.28	11.275	6.6165e-07	18.572	0.00048015	0.00071781	0.00020771	304.7	7.6369e-06	8.2877e-06	392.26	90.941	7.6671e-06	8.4484e-06	156.8	49.932	29.426	11.365	7.8881e-06	18.5	135.636	95.904	146.011	-3.228	170.952	158.768	-4.613	1.681	50.148	156.846	-0.674	5.949	7.247	12.075	119.563	9.059	-8191	255	
2904.553	1	1	0	0	0.15222	0.12419	0.19351	0.19174	0.15187	0.20451	0.10803	0.2264	0.36989	0.20583	0.25266	0.2739	0.1251	0.15669	0.056705	0.16874	-2.7417	-2.9521	-2.6542	-3.1354	-2.7646	-2.8937	-3.2125	-2.7417	-3.0604	-2.8875	-2.7396	-3.2229	-2.9292	-2.9146	-3.0542	-2.6333	306.592	75.833	14.671	311.449	180.745	159.395	234.708	226.964	93.253	172.140	330.300	263.332	10.707	291.162	140.659	146.613	8.3818e-05	0.00044295	7.9274e-05	311.27	1.5683e-06	3.8882e-06	399.29	92.42	1.1883e-06	2.2807e-06	159.36	45.08	28.989	11.373	2.4841e-06	18.572	0.00049768	0.0007515	0.00021175	305.05	7.5195e-06	8.1686e-06	391.65	91.098	7.5751e-06	8.3001e-06	157.36	49.527	29.379	11.464	8.2403e-06	18.536	146.891	69.792	342.692	-3.529	132.532	21.258	-4.667	2.129	31.732	122.881	-1.032	5.592	6.904	12.356	153.969	8.541	-8191	255	
2904.648	1	1	0	0	0.091579	0.096849	0.073492	0.21848	0.045607	0.18039	0.069007	0.08397	0.11936	0.053843	0.18583	0.25363	0.20001	0.16834	0.055383	0.17928	-2.6646	-2.9479	-2.7229	-3.1833	-3.0542	-2.9896	-3.2938	-2.6229	-2.9313	-3.1375	-2.5792	-3.1875	-2.775	-2.9646	-3.1667	-2.8896	136.283	184.928	6.560	26.361	42.154	124.639	99.400	276.524	296.089	209.925	162.834	304.725	89.618	14.216	117.688	205.831	0.00010361	0.00032613	7.1616e-05	312.16	2.0788e-06	4.3078e-07	404.21	92.436	2.4532e-06	3.6682e-06	159.95	44.762	29.481	11.534	3.2942e-06	18.728	0.00050691	0.00078328	0.00021398	305.15	7.8513e-06	8.7167e-06	394.35	91.802	7.9668e-06	8.3834e-06	157.59	50.236	29.79	11.523	8.1114e-06	18.707	134.760	62.940	95.449	-3.434	113.086	193.094	-4.643	2.252	183.225	135.071	-0.627	5.708	6.742	12.728	235.826	8.860	-8191	255	
2904.744	1	1	0	0	0.038923	0.35514	0.076274	0.41807	0.2524	0.055931	0.19366	0.184	0.22303	0.27912	0.063129	0.066959	0.28911	0.17687	0.082599	0.23855	-2.5708	-2.975	-2.6792	-3.2208	-2.825	-2.8729	-3.3521	-2.8333	-3.0292	-3.1042	-2.6562	-3.1312	-2.8417	-2.7479	-3.15	-2.9062	25.528	117.580	88.206	321.104	202.329	-14.110	303.460	11.427	158.874	122.693	281.894	212.730	77.769	26.822	51.541	37.375	8.281e-05	0.00023912	4.1729e-05	312.7	4.5745e-07	3.7484e-06	404.37	93.067	2.8646e-06	3.0242e-06	160.59	45.574	29.902	11.42	2.3055e-06	18.507	0.00050275	0.00078888	0.0002233	305.82	7.9222e-06	8.735e-06	394.21	91.787	7.895e-06	8.5914e-06	158.02	50.049	29.891	11.497	8.0825e-06	18.497	145.021	117.320	26.590	-3.886	60.756	72.643	-4.316	1.768	173.836	163.707	-0.813	5.782	7.253	12.224	246.163	8.343	-8191	255	
2904.840	1	1	0	0	0.28098	0.041167	0.30857	0.095806	0.16436	0.14907	0.028661	0.20856	0.07508	0.17673	0.15387	0.19473	0.16847	0.073716	0.20965	0.22808	-2.5792	-3.1333	-2.7917	-3.0771	-2.9167	-2.9062	-3.2229	-2.8271	-2.8854	-2.9771	-2.8083	-2.9833	-2.9437	-2.6188	-3.25	-2.8187	132.083	73.589	32.304	6.488	97.795	229.541	276.731	134.125	276.970	109.749	306.123	153.167	-7.601	15.110	238.842	256.758	6.9734e-05	0.00037738	6.6496e-05	313.96	5.1885e-07	3.2884e-06	401.15	92.68	1.4001e-06	2.6177e-07	159.94	46.155	28.805	11.47	2.247e-06	18.26	0.00050584	0.00076785	0.0002184	305.84	7.9955e-06	8.7854e-06	391.65	91.617	7.8889e-06	8.7014e-06	156.94	49.675	29.531	11.435	8.1475e-06	18.313	150.400	43.223	15.546	-3.739	328.636	193.515	-4.308	2.079	171.092	116.647	-0.454	6.276	7.157	12.044	127.467	8.624	-8191	255	
2904.961	1	1	0	0	0.14677	0.11323	0.31672	0.055219	0.14093	0.22474	0.2057	0.079785	0.13809	0.25298	0.17161	0.029694	0.028103	0.06037	0.30378	0.14296	-2.4437	-3.1583	-2.5417	-3.0042	-3.1063	-2.6792	-3.4021	-2.9437	-2.8521	-3.3042	-2.8771	-3.1354	-3.1396	-2.7083	-3.1854	-2.8229	127.359	110.342	-7.532	256.712	28.268	154.920	182.466	-13.021	35.164	269.427	157.444	109.327	205.199	130.936	145.186	-11.747	7.4786e-05	0.00047609	4.2006e-05	316.26	3.0152e-06	4.1875e-07	404.09	92.524	1.6919e-06	1.518e-06	159.63	45.651	29.453	11.433	2.1002e-06	18.475	0.00050333	0.00076475	0.00021875	305.64	7.917e-06	8.8108e-06	393.27	91.735	8.187e-06	8.6903e-06	156.83	49.889	29.853	11.493	8.2739e-06	18.468	116.847	76.765	55.807	-3.368	120.796	-1.492	-4.346	2.188	336.079	136.297	-0.705	5.289	6.669	12.636	25.606	8.855	-8191	255	
2905.057	1	1	0	0	0.049642	0.1274	0.041244	0.47257	0.073417	0.15631	0.099589	0.11918	0.18628	0.14982	0.1463	0.26149	0.24073	0.11794	0.086188	0.30748	-2.275	-3.1	-2.7354	-2.9208	-3.0271	-2.6875	-3.1667	-2.8417	-2.8104	-3.2167	-2.9562	-3.0646	-3.1458	-2.8604	-2.9708	-2.9542	41.876	-2.060	24.816	9.237	33.391	36.444	182.480	193.971	57.877	58.805	249.958	278.160	245.181	258.295	228.561	132.225	9.4851e-05	0.00019367	3.9942e-05	314.78	2.2555e-06	3.2949e-06	403.17	92.856	1.8601e-06	2.2445e-06	160.19	45.41	29.748	11.515	8.0398e-07	18.767	0.00051389	0.00077015	0.00021895	306.22	7.8365e-06	8.6565e-06	393.49	91.786	7.934e-06	8.5558e-06	157.73	50.351	29.853	11.534	8.2118e-06	18.643	152.571	268.683	74.128	-3.644	153.064	150.062	-4.234	2.056	151.097	112.672	-0.490	6.362	6.773	12.289	74.796	8.536	-8191	255	
2905.153	1	1	0	0	0.11414	0.15657	0.18823	0.03475	0.20886	0.11944	0.1384	0.23298	0.15596	0.14664	0.26353	0.17636	0.39876	0.18062	0.19951	0.16067	-2.1521	-3.1479	-2.7646	-3.0083	-3.1167	-2.9333	-2.9083	-2.9979	-2.5208	-3.1583	-3.0396	-2.8271	-3.0687	-2.6917	-3.0396	-3.1937	5.461	205.621	145.312	106.199	102.029	290.244	263.757	324.681	30.273	335.593	256.935	200.027	49.174	334.529	170.274	89.948	8.0859e-05	0.00029817	3.9355e-05	314.27	2.8175e-06	3.3275e-06	403.55	93.231	3.1005e-06	1.6358e-06	160.49	45.663	29.697	11.549	1.5685e-06	18.631	0.00051714	0.00074019	0.00020569	306.45	7.7764e-06	8.7203e-06	394.47	92.278	7.7101e-06	8.4604e-06	157.73	50.229	29.832	11.532	7.9125e-06	18.547	141.443	172.751	155.373	-3.602	109.507	133.340	-4.463	2.313	168.570	197.967	-0.448	6.432	7.023	12.359	167.910	8.521	-8191	255	
2905.225	1	1	0	0	0.18848	0.065832	0.11899	0.21623	0.3381	0.14736	0.094881	0.048414	0.05685	0.12211	0.28806	0.094132	0.23205	0.16411	0.15414	0.24233	-2.3292	-3.2542	-2.9292	-2.9146	-3.1604	-2.7438	-3.0542	-3.2083	-2.575	-2.9813	-2.9458	-2.7792	-3.2167	-2.6833	-3.0958	-3.0833	308.946	10.118	62.066	40.217	317.907	150.896	333.438	341.240	1.525	72.173	301.477	136.668	4.531	266.883	72.432	12.652	9.3919e-05	0.00011567	2.4123e-05	311.33	8.7771e-07	4.52e-06	396.32	92.08	2.6354e-06	1.9602e-06	158.17	45.374	29.297	11.395	1.4615e-06	18.202	0.00050112	0.00074928	0.00021349	304.46	7.6734e-06	8.417e-06	388.94	91.257	7.8756e-06	8.1821e-06	156.51	49.447	29.559	11.414	8.0225e-06	18.298	136.914	193.470	187.346	-3.832	194.576	46.346	-4.512	1.921	343.020	36.708	-0.885	6.722	7.229	12.276	78.603	8.670	-8191	255	
2905.345	1	1	0	0	0.16128	0.097713	0.24821	0.16253	0.11979	0.16914	0.24935	0.043782	0.22981	0.17644	0.047712	0.11842	0.12793	0.040505	0.13687	0.25034	-2.2104	-3.0875	-2.9417	-2.6167	-3.2062	-2.8312	-3.0083	-3.2417	-2.8792	-3.0979	-3.1125	-2.7354	-3.0167	-2.7875	-2.9437	-3.1125	190.086	250.050	40.312	324.377	275.223	117.367	247.899	17.445	336.302	3.211	228.935	239.032	301.285	-5.237	14.157	-12.637	6.9034e-05	0.00013906	3.3373e-05	311.85	1.085e-06	4.1836e-06	396.96	91.758	2.2357e-06	3.3037e-06	158.99	44.494	29.301	11.46	1.354e-06	18.454	0.00050131	0.00073082	0.00020868	303.95	7.6454e-06	8.355e-06	389.49	91.071	7.9688e-06	8.6088e-06	156.37	49.038	29.57	11.47	8.1135e-06	18.401	159.503	208.020	179.872	-4.056	139.474	157.566	-4.261	1.484	108.406	199.697	-0.568	6.857	6.692	12.738	79.821	8.662	-8191	255	
2905.442	1	1	0	0	0.29271	0.15251	0.092987	0.16001	0.1211	0.22358	0.19097	0.085272	0.15852	0.15996	0.22682	0.033472	0.36527	0.30822	0.038167	0.095414	-2.325	-2.9437	-3.1646	-2.7479	-3.1875	-2.8187	-2.9375	-3.1146	-2.7062	-3.0438	-3.0042	-2.7875	-3.175	-2.9458	-2.825	-3.1833	227.921	163.331	9.067	210.246	203.486	337.650	32.036	63.307	133.735	187.221	115.669	117.682	23.950	94.825	38.892	271.962	9.6437e-05	0.00021339	4.1901e-05	313.91	3.3385e-07	2.3995e-06	397.98	93.3	1.3764e-06	4.962e-06	160.52	46.287	29.217	11.516	2.2082e-06	18.619	0.0004988	0.00075519	0.00021791	305.29	7.8818e-06	8.4808e-06	390.91	91.757	8.0041e-06	8.4475e-06	157.41	49.808	29.703	11.534	8.3041e-06	18.571	124.462	114.231	64.255	-3.510	302.607	151.189	-4.153	1.805	115.025	138.490	-0.578	6.088	6.777	12.189	166.041	8.661	-8191	255	
2905.538	1	1	0	0	0.23323	0.2215	0.13752	0.3065	0.053737	0.042565	0.08003	0.087078	0.18314	0.073185	0.099838	0.28497	0.25728	0.086083	0.10586	0.013074	-2.2188	-2.8646	-2.9854	-2.7542	-3.0625	-2.9333	-2.8667	-3.0646	-2.9146	-2.9708	-3.1729	-2.6229	-3.1167	-3.0875	-2.7438	-3.1771	231.774	312.899	92.250	257.448	313.655	309.512	107.791	27.353	133.956	45.707	116.730	168.429	184.875	250.619	132.485	305.111	6.0551e-05	0.00037662	7.1059e-05	313.25	1.4276e-06	2.7144e-06	403.06	92.599	2.916e-06	6.6442e-07	160.68	45.698	29.632	11.539	2.222e-06	18.57	0.00049496	0.00075785	0.00021448	304.97	7.7195e-06	8.4928e-06	392.85	91.925	7.8074e-06	8.2939e-06	157.99	49.863	29.851	11.554	8.1249e-06	18.469	157.433	68.587	71.308	-3.705	147.333	110.664	-4.439	2.284	246.257	126.377	-0.452	5.404	7.051	12.595	156.911	8.786	-8191	255	
2905.634	1	1	0	0	0.19626	0.054592	0.21681	0.15628	0.19682	0.31558	0.20845	0.22486	0.060556	0.071362	0.065015	0.11019	0.11187	0.087907	0.17322	0.038755	-2.4646	-2.8271	-3.2938	-2.6021	-2.9167	-3.0083	-2.6958	-3.0042	-2.8979	-2.8438	-3.1688	-2.7958	-2.775	-2.9958	-2.6083	-3.0833	110.875	304.360	87.605	269.766	220.443	152.512	199.347	98.769	34.053	257.216	25.985	275.353	250.197	55.561	196.947	83.845	7.7108e-05	0.00035888	9.881e-05	312.97	1.6703e-06	1.4706e-06	401.34	92.097	3.3261e-06	1.7214e-06	157.79	44.161	29.16	11.464	1.8484e-06	18.308	0.00050719	0.00076011	0.00021114	305.41	8.0084e-06	8.343e-06	391.65	91.353	8.0633e-06	8.5972e-06	156.06	49.158	29.61	11.48	8.1681e-06	18.281	157.075	103.199	30.441	-3.680	113.450	82.759	-4.741	2.372	107.175	144.719	-0.473	5.491	6.731	12.215	-4.420	8.758	-8191	255	
2905.753	1	1	0	0	0.10484	0.24293	0.24902	0.29829	0.059511	0.19656	0.26337	0.11436	0.25519	0.33167	0.18811	0.1068	0.15904	0.27961	0.10573	0.092814	-2.4854	-2.5187	-2.9083	-2.5375	-2.9792	-2.9229	-2.6354	-3	-2.9396	-2.6917	-3.0604	-2.7125	-2.8021	-3.0062	-2.3292	-2.9437	87.044	4.108	255.145	257.706	60.902	105.531	27.210	221.753	162.013	60.827	251.226	151.278	337.634	54.778	29.416	262.158	7.6714e-05	0.00027105	5.6499e-05	313.35	8.5997e-07	3.771e-06	397.65	92.759	1.6071e-06	4.0485e-06	158.25	45.494	29.427	11.495	2.7923e-06	18.501	0.00050921	0.00074943	0.00020897	304.68	7.8557e-06	8.5343e-06	389.24	91.615	7.6801e-06	8.317e-06	156.14	49.516	29.737	11.509	7.9838e-06	18.389	125.816	98.672	17.923	-3.553	41.550	111.184	-4.314	2.225	189.701	182.966	-0.667	6.301	6.812	12.761	167.261	8.443	-8191	255	
2905.826	1	1	0	0	0.13076	0.2531	0.55471	0.27909	0.11504	0.13173	0.093229	0.18815	0.069766	0.09928	0.19841	0.020114	0.062771	0.090304	0.19922	0.078894	-2.4208	-2.6271	-2.9833	-2.5396	-2.8854	-3.0292	-2.6792	-2.9979	-3.0708	-2.5771	-3.1708	-2.7229	-2.7625	-2.8729	-2.5958	-2.8937	305.494	146.925	236.505	10.285	68.399	42.040	9.856	287.080	119.225	25.055	-1.361	236.890	317.811	173.297	173.498	287.889	7.3921e-05	0.00021023	8.28e-05	313.66	3.0748e-06	1.5785e-06	401.44	93.137	1.4525e-06	1.2505e-06	159.57	45.658	29.348	11.547	1.5739e-06	18.615	0.00049096	0.00075515	0.0002081	306.55	7.7023e-06	8.3363e-06	392.42	92.254	7.9413e-06	8.2181e-06	157.29	49.7	29.774	11.591	8.012e-06	18.506	142.249	101.774	83.697	-3.645	185.342	50.181	-4.436	1.824	113.723	144.390	-0.900	5.788	7.842	12.520	98.889	8.507	-8191	255	
2905.945	1	1	0	0	0.40086	0.2009	0.032232	0.22497	0.34093	0.22178	0.11507	0.296	0.15023	0.070635	0.33461	0.28424	0.078544	0.2161	0.22899	0.21183	-2.4271	-2.5542	-2.8	-2.575	-2.7458	-3.1667	-2.8688	-2.8688	-2.8854	-2.7208	-3.0833	-2.7896	-2.6521	-2.9688	-2.6104	-2.9646	276.303	310.521	215.118	270.752	126.517	124.858	53.273	27.873	133.826	86.275	247.811	189.980	206.214	159.047	0.501	236.936	8.3689e-05	4.9681e-05	3.1436e-05	315.02	9.6089e-07	1.0289e-06	404.58	93.497	2.6632e-06	2.1382e-06	160.65	47.453	29.629	11.62	2.3433e-06	18.508	0.00050796	0.00078388	0.0002128	306.98	7.9719e-06	8.5285e-06	394.27	92.607	7.7377e-06	8.5767e-06	157.72	50.11	29.974	11.6	8.0762e-06	18.502	139.955	1.640	145.235	-3.524	38.795	89.536	-4.562	2.050	171.398	147.202	-0.540	4.921	6.957	12.503	63.389	8.742	-8191	255	
2906.041	1	1	0	0	0.20263	0.233	0.078434	0.21574	0.31686	0.16206	0.28707	0.079787	0.29185	0.050485	0.07089	0.16874	0.013588	0.19683	0.13409	0.099702	-2.6188	-2.725	-2.8125	-2.7833	-2.6167	-3.0312	-2.6437	-2.8417	-2.9854	-2.5854	-3.2167	-2.8354	-2.4729	-2.9562	-2.5354	-2.8146	104.140	222.859	179.801	189.796	0.248	325.740	107.550	69.187	8.232	-3.791	295.003	5.665	58.943	94.591	263.638	31.199	7.3115e-05	0.00013306	4.7194e-05	314.18	8.6618e-07	1.6523e-06	399.25	93.274	2.2459e-06	3.2741e-06	158.44	45.431	29.59	11.47	1.7405e-06	18.23	0.0004861	0.00073745	0.0002143	306.53	7.5199e-06	8.0268e-06	390.37	92.256	7.6773e-06	8.2417e-06	156	49.232	29.759	11.502	8.0061e-06	18.252	143.125	156.478	183.716	-3.335	127.690	69.168	-4.454	1.765	82.031	41.310	-1.124	6.127	7.118	12.144	132.394	8.642	-8191	255	
2906.137	1	1	0	0	0.075578	0.24363	0.036596	0.042465	0.16622	0.27178	0.063242	0.073632	0.18128	0.26331	0.21691	0.084801	0.11702	0.12581	0.047402	0.31884	-2.5292	-2.625	-2.8417	-2.9792	-2.6375	-3.0875	-2.8583	-2.5708	-3.0438	-2.5938	-2.9062	-2.8229	-2.5187	-2.9146	-2.6042	-2.6229	96.758	248.896	66.934	1.690	330.243	244.568	171.921	206.351	87.660	89.615	-12.492	75.200	278.582	209.502	149.442	244.322	7.4116e-05	0.00020761	3.3453e-05	314.27	5.9878e-07	1.3835e-06	399.77	93.053	2.4519e-06	6.5406e-06	159.39	45.295	29.457	11.603	2.5614e-06	18.409	0.00049177	0.00074705	0.00021054	306.17	7.7571e-06	8.1945e-06	389.99	92.067	7.6383e-06	8.187e-06	155.94	49.322	29.66	11.55	7.7127e-06	18.349	137.335	100.881	225.284	-3.690	191.107	107.211	-4.679	2.002	185.303	96.615	-0.546	6.146	7.061	12.315	121.673	8.231	-8191	255	
2906.233	1	1	0	0	0.11891	0.1189	0.030012	0.10359	0.21052	0.14581	0.30868	0.29147	0.12261	0.19932	0.18795	0.13484	0.15951	0.27184	0.049218	0.025028	-2.6813	-2.5042	-2.8333	-2.8354	-2.5896	-2.9562	-2.8729	-2.7396	-2.9167	-2.6271	-2.8104	-3.0625	-2.5312	-2.8812	-2.7604	-2.6833	327.456	13.149	75.792	315.021	316.705	41.483	279.460	308.088	78.093	307.695	288.628	185.032	121.490	262.979	58.300	48.499	8.7185e-05	0.00014757	7.8302e-05	313.81	2.7956e-06	2.7029e-06	403.67	94.033	1.9194e-06	2.2362e-06	160.83	45.898	29.458	11.659	3.3452e-07	18.654	0.00047313	0.00072372	0.00020104	306.76	7.4186e-06	7.8565e-06	393.8	92.913	7.1359e-06	7.9433e-06	158.19	49.701	29.969	11.675	7.7253e-06	18.55	144.681	254.899	300.382	-4.024	220.664	141.032	-4.634	1.983	114.908	208.452	-0.701	6.688	7.105	12.635	189.524	8.415	-8191	255	
2906.354	1	1	0	0	0.19158	0.27228	0.16739	0.16611	0.29254	0.1522	0.13635	0.063258	0.10974	0.034565	0.22012	0.26061	0.078796	0.091287	0.17876	0.10543	-2.5083	-2.6625	-2.6083	-2.9167	-2.4562	-2.9542	-2.8917	-2.5875	-3	-2.5979	-2.6521	-2.8771	-2.5792	-2.7896	-2.8896	-2.4896	59.828	127.178	296.823	319.720	40.286	148.793	292.251	219.663	81.675	239.585	180.358	59.599	66.467	264.355	248.659	171.095	8.5888e-05	0.00030441	0.00013224	315.41	6.9286e-08	3.4015e-06	406.06	94.647	2.4103e-06	3.0784e-06	162.18	45.93	30.313	11.725	7.9127e-07	18.665	0.00047817	0.0007267	0.0001983	309.25	7.3216e-06	8.1851e-06	396.04	93.748	7.2336e-06	7.9295e-06	159.12	49.849	30.419	11.77	7.6989e-06	18.639	154.032	90.783	138.522	-3.712	118.183	129.750	-4.311	2.300	98.976	249.284	-0.655	6.172	6.362	12.689	108.744	8.836	-8191	255	
2906.449	1	1	0	0	0.12018	0.28	0.12706	0.16551	0.12811	0.24812	0.067265	0.11707	0.21337	0.16715	0.28555	0.13948	0.17792	0.10903	0.17196	0.20446	-2.6937	-2.8021	-2.6042	-3.0979	-2.5646	-3.0229	-2.9771	-2.6562	-3.0896	-2.8063	-2.6167	-3.0333	-2.6479	-2.6542	-2.9437	-2.5042	343.047	209.899	219.962	333.970	3.429	63.140	-9.355	267.109	309.687	46.581	239.724	78.345	243.223	215.007	72.331	315.562	7.5132e-05	0.00047449	5.115e-05	317.57	1.1212e-06	2.4163e-06	403.69	94.484	2.1411e-06	2.113e-06	161.34	44.689	29.427	11.539	2.5554e-06	18.362	0.00047099	0.00070868	0.00019961	308.47	7.4795e-06	7.9046e-06	394.52	93.241	7.1156e-06	7.8792e-06	157.9	49.276	29.967	11.613	7.1751e-06	18.328	146.340	54.680	128.639	-3.502	120.053	120.317	-4.516	1.594	159.771	132.804	-0.578	5.449	6.537	12.709	101.387	8.255	-8191	255	
2906.522	1	1	0	0	0.193	0.20315	0.048342	0.23609	0.15985	0.01264	0.10832	0.23998	0.16934	0.26203	0.090968	0.12268	0.17607	0.17044	0.088746	0.30731	-2.4896	-2.6521	-2.5792	-3.1104	-2.6	-2.85	-2.8875	-2.4708	-3.0792	-2.8542	-2.5083	-2.8042	-2.4646	-2.9042	-3.0021	-2.6437	-1.304	127.392	216.740	21.423	146.160	312.255	236.065	214.423	147.664	327.874	274.272	155.906	234.941	208.307	225.328	310.536	8.6863e-05	9.4315e-05	9.176e-05	317.93	8.9547e-07	1.8477e-06	404.73	94.694	1.4029e-06	5.617e-06	159.99	45.033	30.058	11.677	2.0397e-06	18.604	0.00045831	0.00069749	0.00019669	308.49	7.2106e-06	7.6825e-06	394.86	93.433	7.2661e-06	8.0582e-06	157.68	49.256	30.165	11.712	7.353e-06	18.466	129.739	78.193	80.878	-3.456	82.056	105.150	-4.730	1.574	89.910	104.535	-0.402	5.816	6.792	12.625	327.737	8.700	-8191	255	
2906.643	1	1	0	0	0.451	0.20433	0.11571	0.17438	0.3643	0.22962	0.25102	0.10541	0.11622	0.098873	0.43893	0.12005	0.071821	0.08827	0.047704	0.10163	-2.3896	-2.7417	-2.5854	-3.0062	-2.6958	-2.8417	-2.9542	-2.5042	-2.8521	-2.8833	-2.6729	-2.9854	-2.7479	-2.725	-3.05	-2.8021	328.126	343.867	211.745	27.492	240.965	299.047	-10.632	228.576	248.115	169.372	319.686	156.463	13.562	86.012	75.472	274.478	9.7943e-05	0.00027283	8.7028e-05	316.73	4.298e-06	2.3307e-06	409.06	94.399	9.9096e-07	2.9144e-06	160.14	45.283	29.939	11.778	1.6653e-06	18.757	0.0004725	0.00072174	0.00019667	309.25	7.3352e-06	7.9456e-06	396.96	93.695	7.6209e-06	7.8903e-06	158.56	49.894	30.439	11.793	7.3799e-06	18.608	132.263	82.103	69.744	-3.957	152.231	190.191	-4.326	1.902	122.001	43.697	-0.174	7.002	7.154	12.444	198.923	8.441	-8191	255	
2906.737	1	1	0	0	0.18024	0.14909	0.12166	0.011353	0.30486	0.1551	0.12291	0.26831	0.084709	0.14475	0.074893	0.083651	0.16024	0.028485	0.081667	0.18005	-2.4417	-2.8583	-2.6333	-2.9167	-2.6354	-2.8021	-2.9792	-2.5708	-2.8354	-3.0083	-2.4875	-2.9958	-2.7562	-2.575	-3.0792	-2.55	201.608	-4.604	236.469	285.184	312.245	-15.331	66.792	297.181	61.504	223.843	142.841	-10.651	254.841	-14.844	28.501	91.853	8.6422e-05	0.00019872	6.1247e-05	316.03	1.6893e-06	8.9356e-07	407.72	95.04	2.2692e-06	5.5636e-06	161.78	45.882	30.514	11.755	1.0009e-06	18.734	0.00048006	0.00069809	0.00019978	309.16	7.1036e-06	7.9514e-06	396.64	93.997	7.3533e-06	7.8934e-06	159.62	49.998	30.436	11.813	7.3933e-06	18.596	139.563	170.560	82.385	-3.441	72.124	131.031	-4.305	2.359	155.377	136.740	-0.407	4.806	6.976	12.777	6.726	8.426	-8191	255	
2906.833	1	1	0	0	0.077115	0.19397	0.066227	0.11027	0.072433	0.028705	0.18139	0.0845	0.22062	0.29285	0.089873	0.18414	0.11149	0.022638	0.15157	0.14815	-2.3896	-2.9896	-2.4271	-3.0271	-2.9479	-2.6146	-3.0771	-2.725	-2.6417	-3.0958	-2.6021	-2.8312	-2.9875	-2.525	-3.1	-2.7271	74.065	67.828	221.472	117.832	206.510	125.223	43.798	-3.703	169.970	281.669	86.657	279.266	299.108	154.320	309.934	186.094	8.7403e-05	0.00036772	3.3388e-05	319.78	2.4071e-06	1.0621e-06	406.38	95.018	2.1983e-06	3.1189e-06	161.54	45.592	29.889	11.769	2.0024e-06	18.437	0.00046594	0.00069733	0.00019985	310.46	7.2992e-06	7.8805e-06	395.53	93.801	7.2389e-06	7.721e-06	158.14	49.93	30.242	11.73	7.4655e-06	18.338	142.282	108.284	92.175	-3.914	42.768	211.821	-4.529	1.827	160.242	171.649	-0.560	4.712	7.386	12.407	137.605	8.286	-8191	255	
2906.929	1	1	0	0	0.13845	0.085209	0.11598	0.13556	0.2682	0.23378	0.13717	0.19855	0.22021	0.25449	0.19289	0.29284	0.17472	0.12045	0.131	0.15495	-2.2458	-2.9667	-2.4917	-3.0417	-2.9875	-2.5396	-3.0375	-2.9854	-2.6937	-3.075	-2.5854	-2.9333	-2.8479	-2.4375	-2.9583	-2.7438	342.332	150.213	54.556	13.516	209.377	255.102	91.894	97.779	300.938	65.019	169.191	328.903	55.682	15.445	167.634	325.730	0.00011021	0.00017812	7.7258e-05	318.99	9.3963e-07	8.7179e-07	406.59	95.525	1.7759e-06	5.5606e-06	159.59	45.183	30.376	11.646	2.2333e-06	18.51	0.00046736	0.00065825	0.00019435	310.59	7.1321e-06	7.6816e-06	396	94.278	7.1769e-06	7.7095e-06	157.77	49.061	30.421	11.727	7.3916e-06	18.41	148.658	307.780	292.820	-3.791	140.404	81.670	-4.949	1.427	128.400	121.258	-0.794	4.864	7.838	12.665	222.756	9.017	-8191	255	
2907.050	1	1	0	0	0.19648	0.043717	0.04122	0.18357	0.13538	0.20675	0.24344	0.057003	0.10911	0.21969	0.26538	0.11679	0.17921	0.056503	0.26539	0.11825	-2.3479	-3.15	-2.5812	-2.8104	-2.8521	-2.6583	-2.9	-2.6667	-2.6792	-2.9813	-2.5563	-2.7167	-2.8958	-2.5625	-2.8417	-2.7687	76.462	248.921	212.393	5.093	305.532	309.794	280.654	37.493	22.715	231.162	321.165	281.452	142.181	57.871	320.619	63.548	9.5017e-05	0.00024763	7.0426e-05	321.75	1.2723e-06	3.2106e-06	405.75	94.809	1.171e-06	1.885e-06	161.4	45.018	30.716	11.76	1.9193e-06	18.637	0.00047059	0.00070943	0.00019582	311.93	7.187e-06	7.8953e-06	397.36	94.107	7.3115e-06	7.8729e-06	159.43	49.789	30.569	11.811	7.3677e-06	18.557	168.740	81.417	103.700	-3.716	162.242	185.912	-4.617	1.839	183.692	109.747	-0.810	6.089	5.991	12.426	159.033	8.922	-8191	255	
2907.122	1	1	0	0	0.10539	0.20636	0.12268	0.15512	0.18872	0.13464	0.27739	0.36608	0.14802	0.19367	0.09955	0.26147	0.064982	0.18983	0.22151	0.32448	-2.4437	-2.9375	-2.85	-2.7479	-2.9854	-2.5062	-2.925	-2.8333	-2.6562	-2.8396	-2.9125	-2.7	-2.8542	-2.4604	-2.8479	-3.0563	146.787	234.353	228.413	168.686	30.885	126.052	310.561	42.421	342.942	136.825	136.620	320.437	71.220	162.258	296.023	170.316	8.8741e-05	0.00017371	8.394e-05	320.02	2.5451e-07	4.8595e-06	407.13	95.764	1.013e-06	1.4672e-06	163.4	45.411	30.574	11.945	1.5115e-06	18.519	0.00046496	0.00068515	0.00019614	312.65	6.9241e-06	7.8382e-06	398.93	94.704	7.1846e-06	7.5798e-06	160.17	49.887	30.817	11.935	7.1507e-06	18.599	143.954	188.037	60.944	-3.486	247.341	97.775	-4.428	2.175	212.964	88.940	-0.834	5.392	7.521	12.566	162.307	8.300	-8191	255	
2907.218	1	1	0	0	0.099633	0.12215	0.14938	0.30647	0.16144	0.093185	0.13509	0.070405	0.10351	0.15302	0.25778	0.096967	0.36474	0.31728	0.1187	0.11796	-2.0208	-3.1125	-2.7354	-2.6583	-3.0729	-2.4604	-2.9417	-2.975	-2.4667	-3.0062	-2.6708	-2.7438	-2.9458	-2.6333	-2.8854	-2.9313	285.826	95.960	258.499	52.803	27.849	279.227	247.192	209.322	121.882	204.760	309.724	332.690	19.741	307.112	273.979	22.449	0.00010997	0.00027813	9.2315e-05	321.37	7.3753e-07	1.1307e-06	410.67	95.51	1.7857e-06	1.1705e-06	161.68	45.142	30.148	11.659	1.7561e-06	18.443	0.00044664	0.00068305	0.00018553	312.47	6.5928e-06	7.4283e-06	398.61	94.386	6.8942e-06	7.5237e-06	159.17	49.245	30.387	11.749	7.212e-06	18.353	137.298	70.594	104.489	-3.308	323.863	167.056	-4.440	2.068	226.444	193.505	-0.726	5.249	6.653	12.759	161.899	7.837	-8191	255	
2907.314	1	1	0	0	0.29598	0.11103	0.21439	0.12788	0.26397	0.19259	0.075725	0.11706	0.14204	0.12023	0.043183	0.15734	0.058483	0.064868	0.23981	0.25185	-2.0458	-2.9958	-2.7792	-2.6083	-3.1063	-2.5917	-2.7542	-3.0146	-2.5521	-3.1396	-2.8333	-2.6667	-3.1167	-2.5708	-2.7104	-2.95	263.973	124.522	337.435	47.456	159.107	119.381	281.940	54.662	136.912	118.490	8.550	7.380	23.729	149.791	174.505	130.917	6.9428e-05	0.00037796	4.6454e-05	320.65	2.4378e-06	1.7268e-06	408.41	96.377	8.6653e-07	4.1517e-06	162.25	45.551	30.474	11.86	1.5267e-06	18.455	0.00043899	0.00067178	0.000185	312.86	6.6048e-06	7.5354e-06	398.25	94.702	6.9007e-06	7.5393e-06	159.07	49.33	30.598	11.845	7.3593e-06	18.439	154.990	135.822	64.108	-3.470	196.541	87.874	-4.037	2.143	186.439	74.849	-0.464	5.248	7.068	12.863	136.879	8.373	-8191	255	
2907.435	1	1	0	0	0.23401	0.26506	0.11784	0.094072	0.2042	0.082229	0.17093	0.10352	0.22338	0.13851	0.28024	0.15601	0.068731	0.12452	0.14795	0.28685	-2.1667	-2.9333	-2.7854	-2.625	-3.1063	-2.8875	-2.7333	-3.0479	-2.6312	-2.9479	-2.9229	-2.6063	-2.9688	-2.5729	-2.4833	-3.05	60.692	192.152	71.825	46.786	132.916	335.605	122.586	237.194	20.998	25.581	191.384	90.476	278.851	17.440	101.629	79.335	8.4693e-05	3.0497e-05	0.00012956	320	1.2129e-06	3.0993e-06	407.39	97.243	1.9923e-06	1.6045e-06	161.9	46.532	30.416	11.885	1.1822e-06	18.644	0.00045129	0.00067932	0.00019008	313.27	6.8452e-06	7.4885e-06	399.02	95.381	6.7993e-06	7.5736e-06	159.75	49.887	30.632	11.908	7.2242e-06	18.549	158.938	93.038	101.590	-3.790	330.485	305.781	-4.622	2.000	205.035	175.233	-0.553	5.932	6.786	12.340	221.666	8.431	-8191	255	
2907.531	1	1	0	0	0.22207	0.075959	0.12846	0.18351	0.30309	0.17073	0.11354	0.19799	0.1782	0.11985	0.36628	0.076013	0.12121	0.13861	0.14084	0.14625	-2.0917	-2.9313	-3.0646	-2.5917	-2.8271	-2.7854	-2.6958	-3.0333	-2.625	-2.7833	-2.9417	-2.45	-2.8396	-2.8333	-2.8104	-3.1125	140.691	295.441	235.253	137.177	-11.509	134.986	230.477	311.816	113.364	176.584	-3.698	99.239	256.905	95.816	54.201	52.321	8.2794e-05	9.6236e-05	4.2029e-05	320.58	2.1145e-06	1.7615e-06	411.57	97.308	2.4915e-06	2.0551e-06	162.92	45.873	30.194	11.944	3.2932e-06	18.62	0.00045743	0.00066229	0.0001923	313.06	6.8909e-06	7.7878e-06	400.86	95.477	7.1809e-06	7.3304e-06	160.36	50.272	30.614	11.96	7.3345e-06	18.585	157.162	146.657	45.400	-3.347	170.535	74.646	-4.388	2.081	140.441	143.907	-0.609	5.016	6.647	12.439	139.357	8.771	-8191	255	
2907.627	1	1	0	0	0.0575	0.084204	0.03573	0.21346	0.17313	0.18461	0.20463	0.12465	0.017064	0.18685	0.1751	0.20178	0.13238	0.15993	0.33211	0.19837	-2.3479	-2.6083	-2.9583	-2.4792	-2.9583	-2.9188	-2.5042	-3.0146	-2.7542	-2.7812	-3.0375	-2.4583	-2.8479	-2.9479	-2.6333	-3.0771	207.753	32.957	107.914	2.433	319.447	181.308	263.381	252.534	145.456	110.164	17.330	241.023	70.113	-6.354	248.693	287.772	7.0447e-05	0.0003677	6.5351e-05	319.77	2.0753e-06	4.1917e-06	410.27	96.584	2.4383e-06	1.4522e-06	163.02	46.848	30.54	11.905	1.0532e-06	18.667	0.0004545	0.00068892	0.00018699	312.78	6.7591e-06	7.6197e-06	399.35	95.248	6.9222e-06	7.5032e-06	159.48	49.895	30.709	11.891	7.06e-06	18.401	139.095	58.862	90.985	-3.606	215.081	143.488	-4.549	1.851	146.465	93.211	-0.667	6.936	6.818	12.465	111.523	8.441	-8191	255	
2907.723	1	1	0	0	0.35885	0.064991	0.26746	0.049056	0.25951	0.091094	0.091124	0.072413	0.36743	0.3178	0.024174	0.14052	0.084887	0.21079	0.04181	0.16659	-2.3583	-2.6521	-2.9708	-2.4875	-2.7896	-2.9938	-2.75	-2.9375	-2.6	-2.7729	-2.8792	-2.6167	-2.8771	-3.0667	-2.7833	-3.1104	337.824	35.094	226.675	9.984	234.514	45.259	175.980	250.991	47.598	85.627	17.889	149.797	32.743	76.683	191.042	309.734	8.569e-05	7.52e-05	5.0681e-05	322.65	1.6968e-06	7.8506e-07	410.39	97.294	1.3273e-06	2.3058e-06	162.58	45.92	30.924	11.961	8.9587e-07	18.685	0.0004485	0.00066388	0.00018178	313.83	6.8055e-06	7.3721e-06	398.57	95.338	6.6639e-06	7.4752e-06	159.81	49.8	30.817	11.88	7.1935e-06	18.472	131.305	240.681	62.575	-3.906	108.161	138.053	-4.536	1.340	216.709	144.206	-0.695	6.596	6.910	12.934	209.897	8.511	-8191	255	
2907.817	1	1	0	0	0.098568	0.093261	0.074462	0.11082	0.16755	0.091989	0.29053	0.12294	0.11355	0.13258	0.10513	0.32509	0.26938	0.11892	0.22194	0.26166	-2.2792	-2.5021	-2.9958	-2.6333	-2.7083	-2.9604	-2.4771	-2.8042	-2.6312	-2.4813	-3.1979	-2.5292	-2.8104	-3.2	-2.6208	-2.8208	129.480	317.704	102.249	193.207	37.884	343.794	312.537	213.702	138.759	190.826	245.849	66.950	50.095	46.329	58.498	11.440	7.725e-05	0.00017976	0.00013994	320.49	7.6574e-07	3.7974e-06	410.25	96.817	1.4859e-06	1.4925e-06	163.95	45.845	30.729	11.926	2.3148e-06	18.892	0.00043148	0.00065654	0.00018414	313.4	6.5443e-06	7.1313e-06	402.22	95.88	6.6651e-06	6.9892e-06	161.3	49.852	30.867	11.983	6.7692e-06	18.728	128.210	71.904	125.305	-3.735	82.398	66.234	-4.213	1.844	104.761	182.043	-1.110	6.015	7.364	12.397	114.437	8.937	-8191	255	
2907.914	1	1	0	0	0.2601	0.26451	0.11157	0.22702	0.065204	0.037749	0.31584	0.21211	0.081487	0.086606	0.23456	0.1863	0.21107	0.10776	0.089292	0.068023	-2.3708	-2.4	-2.8229	-2.6229	-2.7979	-3	-2.6979	-3.0479	-3.1562	-2.6437	-3.025	-2.7417	-2.5375	-3.0687	-2.6625	-2.9062	102.754	198.390	52.890	38.480	231.553	57.113	202.053	230.245	326.023	322.411	24.951	53.859	169.485	207.321	208.465	6.719	8.652e-05	0.00027131	7.8581e-05	326.07	6.6182e-07	4.1728e-06	411.36	98.569	1.3022e-06	1.4149e-06	164.69	46.084	31.021	11.992	1.7405e-06	18.841	0.00043197	0.00065376	0.000173	315.38	6.4e-06	6.8049e-06	403.26	96.376	6.3691e-06	7.1825e-06	162	50.129	31.058	12.028	7.0894e-06	18.676	136.911	-15.375	81.758	-3.639	223.695	134.699	-4.473	1.718	114.693	251.801	-0.672	6.666	6.781	12.460	193.512	8.794	-8191	255	
2908.034	1	1	0	0	0.10336	0.16597	0.21695	0.06199	0.12814	0.17496	0.13036	0.25061	0.13145	0.06629	0.047769	0.32461	0.040903	0.098658	0.14051	0.13187	-2.6229	-2.4	-3.0771	-2.7375	-2.5542	-3.0208	-2.6729	-2.6958	-3.0062	-2.6625	-2.8208	-2.7896	-2.6167	-3	-2.7229	-2.7083	20.411	284.461	268.837	185.374	260.342	322.721	175.351	79.356	193.512	21.971	-10.380	186.809	-9.962	44.787	-8.722	276.970	6.0365e-05	0.00032685	5.2746e-05	323.86	1.032e-06	2.7916e-06	415.09	96.498	2.0265e-06	4.2853e-06	164.73	46.193	30.664	11.845	2.7589e-06	18.484	0.00042218	0.00063729	0.00017865	315.1	6.5779e-06	6.8633e-06	401.78	95.632	6.2957e-06	7.1126e-06	160.37	49.828	30.782	11.918	6.8422e-06	18.375	139.431	41.950	131.794	-3.763	107.550	62.004	-4.566	1.845	116.610	173.379	-0.775	6.992	6.753	12.683	146.242	7.742	-8191	255	
2908.129	1	1	0	0	0.17035	0.12317	0.31935	0.2223	0.16579	0.29087	0.24377	0.19244	0.16762	0.12046	0.16788	0.23887	0.17063	0.091971	0.078323	0.1304	-2.6458	-2.4979	-3.0812	-2.7708	-2.6167	-3.0229	-2.6542	-2.5896	-3.0375	-2.5875	-3.1229	-2.8312	-2.6688	-2.9333	-2.7833	-2.6146	270.927	54.360	224.068	245.993	18.257	267.111	115.321	149.428	19.942	57.039	13.342	256.951	257.723	184.051	320.143	174.082	6.866e-05	0.00022371	7.0655e-05	320.07	3.8442e-06	9.7721e-07	410.5	96.993	6.2977e-07	2.5916e-06	163.42	44.963	30.822	11.925	2.8793e-06	18.591	0.0004303	0.00063817	0.00018007	313.09	6.6545e-06	7.2856e-06	400.22	95.621	6.6882e-06	7.1838e-06	159.96	49.149	30.86	11.917	6.6626e-06	18.456	143.671	20.108	69.307	-3.268	85.367	27.323	-4.685	1.586	257.248	198.945	-0.564	4.999	6.818	12.403	96.706	8.789	-8191	255	
2908.225	1	1	0	0	0.11542	0.18403	0.18999	0.13922	0.21686	0.070848	0.24923	0.1704	0.179	0.15433	0.35624	0.049568	0.14118	0.033426	0.093119	0.16357	-2.6833	-2.6875	-2.8083	-2.85	-2.5854	-3.1437	-2.8625	-2.7313	-3.0604	-2.5208	-2.8396	-2.9917	-2.4979	-3.0521	-2.8187	-2.5312	206.323	273.961	342.505	271.567	135.251	152.037	302.993	281.114	134.695	246.148	342.287	27.299	310.358	45.935	196.999	71.248	0.00010586	0.00016431	3.8577e-05	324.05	1.5678e-06	2.3605e-06	411.64	96.047	1.0534e-06	2.2711e-06	164.02	46.44	30.827	12.007	9.1618e-07	18.695	0.000421	0.0006392	0.00018134	315.1	6.63e-06	6.9703e-06	400.64	95.747	6.6189e-06	7.1527e-06	160.96	49.888	30.864	12.029	6.744e-06	18.593	158.685	95.617	55.457	-3.832	147.563	164.903	-4.323	2.286	162.004	154.726	-0.517	5.844	7.356	12.646	124.085	8.739	-8191	255	
2908.345	1	1	0	0	0.20315	0.17628	0.2036	0.22224	0.2805	0.21951	0.38536	0.16469	0.18737	0.36633	0.19728	0.17708	0.20987	0.26807	0.12242	0.21057	-2.5667	-2.6833	-2.7062	-2.8708	-2.4542	-2.9542	-2.7979	-2.5792	-2.9375	-2.6708	-2.7562	-2.8604	-2.5667	-2.8542	-2.6188	-2.7396	79.489	-5.532	156.779	70.595	152.485	304.783	297.609	238.847	154.843	80.570	-10.355	51.690	10.467	232.585	322.184	264.832	8.3982e-05	0.00028127	8.302e-05	323.33	1.4611e-06	2.1434e-06	413.44	97.675	6.7831e-07	2.0498e-06	165.6	46.82	31.044	12.13	1.5996e-06	18.767	0.00043409	0.00063904	0.00017374	315.78	6.7086e-06	7.1411e-06	403.98	96.411	6.4684e-06	7.1558e-06	162.35	50.134	30.978	12.056	6.7167e-06	18.644	131.881	79.652	64.892	-3.214	143.957	163.981	-4.227	2.100	157.045	104.839	-0.455	6.687	6.155	12.495	196.151	8.688	-8191	255	
2908.417	1	1	0	0	0.12123	0.20581	0.19226	0.20318	0.33982	0.17795	0.12527	0.077916	0.3297	0.39282	0.11856	0.059734	0.075677	0.1567	0.15486	0.24219	-2.6542	-2.4833	-2.6375	-2.9292	-2.4667	-2.8146	-2.7917	-2.3542	-2.9896	-2.6375	-2.6875	-3.1521	-2.5708	-2.6854	-2.9875	-2.4437	38.791	49.295	100.891	330.309	341.097	115.246	164.086	91.165	236.162	63.041	39.784	335.039	140.365	292.521	146.880	68.670	6.7167e-05	0.00025797	6.1994e-05	322.67	2.3467e-06	7.5692e-06	415.51	97.917	1.8836e-06	4.6827e-06	163.73	45.901	30.857	12.001	1.4909e-06	18.584	0.00042767	0.0006592	0.00017396	315.22	6.5812e-06	7.1139e-06	402.67	96.106	6.5094e-06	7.0979e-06	160.42	49.449	30.788	11.928	6.5736e-06	18.376	168.088	143.157	150.502	-3.486	168.735	111.500	-4.430	1.955	129.392	70.283	-1.154	5.944	7.359	12.424	173.511	8.171	-8191	255	
2908.513	1	1	0	0	0.021891	0.20764	0.029077	0.24124	0.24697	0.21266	0.22557	0.25325	0.11015	0.16067	0.2068	0.1522	0.11038	0.099944	0.20073	0.17648	-2.5958	-2.6625	-2.5312	-2.8312	-2.4792	-3.0625	-3.0687	-2.4938	-2.9083	-2.6896	-2.5667	-3.0708	-2.6875	-2.6688	-3.0479	-2.4667	17.002	255.405	211.094	307.182	145.222	212.579	207.302	286.350	13.574	143.720	66.587	58.894	161.625	338.580	92.804	24.299	0.00010259	0.00047	5.9535e-05	321.3	2.3872e-06	2.3519e-06	409.42	96.6	2.5981e-06	1.5948e-06	162.79	45.42	30.923	12.069	3.9925e-06	18.663	0.00042181	0.00060245	0.00017179	314.51	6.513e-06	6.8107e-06	399.75	95.792	6.3991e-06	6.8912e-06	160.04	49.317	30.86	11.974	6.6391e-06	18.433	146.562	92.516	134.940	-3.535	109.140	63.756	-4.596	2.238	181.975	130.537	-0.911	6.578	6.772	12.348	164.985	8.632	-8191	255	
2908.609	1	1	0	0	0.093798	0.23386	0.19445	0.23629	0.12389	0.068596	0.070799	0.098529	0.11629	0.28404	0.31857	0.21165	0.20282	0.044518	0.1785	0.2943	-2.5083	-2.5917	-2.6688	-3.0271	-2.5646	-2.8521	-3.0667	-2.4625	-3.0229	-2.9625	-2.6458	-2.9396	-2.4479	-2.7896	-3.0667	-2.6542	191.492	178.361	200.220	246.994	33.963	111.468	58.066	307.684	214.096	179.493	306.672	21.105	59.491	111.238	219.530	296.548	5.9424e-05	0.0004489	7.5913e-05	323.37	2.3899e-06	2.357e-06	411.95	97.819	1.6134e-06	1.5002e-06	165.7	46.435	31.456	12.043	8.2259e-07	18.625	0.0004263	0.0006292	0.00017456	315.41	6.5166e-06	6.8312e-06	403.12	96.486	6.258e-06	7.0533e-06	161.62	49.817	31.119	12.018	6.6349e-06	18.593	149.948	2.335	119.631	-3.750	178.174	155.183	-4.657	2.470	161.401	261.293	-0.882	4.700	6.882	12.566	180.393	8.662	-8191	255	
2908.705	1	1	0	0	0.19596	0.14036	0.30818	0.24586	0.1166	0.28216	0.10855	0.18906	0.050826	0.1652	0.14613	0.11414	0.18499	0.13676	0.40434	0.0912	-2.3229	-2.8042	-2.5125	-3.1479	-2.7562	-2.6312	-2.8438	-2.725	-2.8812	-2.9854	-2.5021	-2.9792	-2.7667	-2.6479	-3.0687	-2.6437	213.392	73.081	211.417	5.339	301.896	71.914	139.006	336.089	-3.899	167.104	189.983	84.380	110.664	-4.623	63.876	8.813	9.2446e-05	0.00032403	9.3501e-05	325.31	1.0165e-06	6.0905e-06	415.71	98.226	2.2317e-06	2.6292e-06	165.52	46.759	30.976	12.038	1.7955e-06	18.754	0.0004163	0.00062229	0.00018011	316.91	6.354e-06	6.9842e-06	405.47	96.747	6.3987e-06	6.7856e-06	162.83	50.335	31.226	12.048	6.6806e-06	18.618	142.324	100.525	48.019	-4.107	219.220	155.175	-4.339	2.159	178.718	80.219	-0.801	4.994	7.401	12.244	138.935	8.774	-8191	255	
2908.826	1	1	0	0	0.19016	0.022139	0.095944	0.082509	0.13175	0.1722	0.22957	0.28854	0.14563	0.23782	0.19172	0.15592	0.13716	0.28067	0.060758	0.21969	-2.2938	-2.7854	-2.4583	-2.8438	-2.8021	-2.525	-3.2375	-2.8146	-2.7708	-3.0354	-2.6729	-3.0167	-2.7646	-2.5958	-2.9583	-2.7875	64.000	272.934	75.463	26.753	10.671	-8.122	244.877	198.813	144.604	158.133	230.013	199.113	279.223	42.652	335.714	67.196	9.6244e-05	0.00016734	9.4445e-05	326.15	6.6991e-07	1.0716e-06	413.11	97.961	1.4489e-06	2.8371e-06	162.54	44.96	30.33	11.992	1.1186e-06	18.483	0.00041795	0.00063079	0.00017631	316.73	6.4854e-06	7.0136e-06	403.36	96.362	6.5341e-06	6.9638e-06	160.77	49.427	30.81	11.978	6.5874e-06	18.373	153.563	146.229	25.353	-3.421	313.788	31.548	-4.261	1.608	106.615	155.633	-0.428	5.645	6.654	12.710	117.622	8.487	-8191	255	
2908.922	1	1	0	0	0.10216	0.18874	0.24885	0.02169	0.22404	0.12221	0.35821	0.17822	0.26642	0.19759	0.17217	0.15162	0.1053	0.29652	0.018548	0.15725	-2.2208	-3.0833	-2.3542	-2.9271	-2.9646	-2.4646	-3.0417	-2.6271	-2.6854	-2.9667	-2.875	-2.9542	-3.0417	-2.6021	-3.0729	-2.8417	-15.171	213.009	182.152	32.583	292.334	292.103	314.307	-11.136	270.193	310.329	234.263	186.716	144.059	38.928	78.116	20.672	6.6645e-05	0.00032649	6.5415e-05	321.78	1.3783e-06	2.2985e-06	413	97.445	1.1639e-06	3.4253e-06	163.8	45.549	30.956	12.02	1.1052e-06	18.377	0.00041974	0.00062622	0.00018159	315.3	6.3624e-06	7.0814e-06	402.25	96.258	6.6748e-06	7.0208e-06	160.81	49.594	30.869	12.003	6.898e-06	18.408	135.628	63.451	323.895	-3.232	201.551	145.037	-4.589	1.879	156.507	129.456	-0.585	5.601	7.276	12.647	192.256	8.181	-8191	255	
2908.994	1	1	0	0	0.095094	0.073828	0.11764	0.09475	0.12509	0.12258	0.069681	0.16853	0.36467	0.26397	0.17384	0.058466	0.086708	0.20893	0.2174	0.14189	-2.1521	-2.8542	-2.5729	-2.8354	-2.9708	-2.6375	-2.85	-2.6937	-2.6063	-2.9854	-2.6125	-2.7521	-2.8604	-2.4813	-2.9417	-2.8292	260.592	257.371	126.787	178.581	319.712	170.604	290.082	251.475	68.202	44.693	327.683	193.987	262.489	298.711	193.467	55.427	9.1199e-05	0.00034089	8.7161e-05	325.38	1.2295e-06	1.5547e-06	413.34	97.472	1.2976e-06	2.3966e-06	164.05	46.528	30.718	12.045	1.6392e-06	18.548	0.00042923	0.00064459	0.00018623	317.21	6.5182e-06	7.4868e-06	403.13	96.441	6.5726e-06	7.0493e-06	161.48	49.887	31.071	12.08	6.8603e-06	18.509	126.469	46.836	81.452	-3.443	121.055	181.219	-4.367	2.151	34.063	167.196	-0.780	5.288	6.375	12.264	124.866	8.101	-8191	255	
2909.115	1	1	0	0	0.067003	0.17659	0.12779	0.11981	0.19026	0.10202	0.1735	0.051609	0.1953	0.076192	0.23309	0.068405	0.054605	0.14332	0.16036	0.29525	-2.1583	-3.1229	-2.7542	-2.8187	-2.9833	-2.4729	-2.8333	-2.8021	-2.4396	-3.1542	-2.6354	-2.6583	-2.8729	-2.3417	-3	-2.8958	-10.752	277.303	142.172	200.424	185.170	-1.288	72.976	269.722	319.797	280.463	310.030	308.368	146.767	-4.426	305.218	191.511	9.1597e-05	0.00030254	1.2587e-05	322.85	1.1326e-06	3.6088e-06	414.78	97.791	1.3844e-06	2.9804e-06	164.29	46.235	30.969	12.022	1.7286e-06	18.658	0.00042451	0.000629	0.00017972	316.52	6.7635e-06	6.8976e-06	404.78	96.315	6.861e-06	7.0801e-06	161.61	50.002	31.017	12.079	6.7868e-06	18.566	148.725	86.113	266.217	-3.746	83.350	149.072	-4.373	1.959	195.192	174.358	-0.992	5.605	6.687	12.094	99.841	8.542	-8191	255	
2909.209	1	1	0	0	0.37305	0.17936	0.024233	0.34354	0.067695	0.30929	0.11318	0.17259	0.1538	0.18077	0.049665	0.095446	0.14121	0.0756	0.048486	0.14897	-2.0833	-3.1063	-2.6875	-2.6271	-2.9833	-2.5062	-2.8125	-2.8708	-2.6417	-3.0583	-2.7396	-2.5938	-2.9583	-2.5563	-2.5958	-3.0042	315.842	309.802	257.961	312.893	36.393	109.735	200.804	157.229	307.671	149.084	85.593	71.278	12.911	48.251	147.580	89.628	9.1278e-05	0.00018808	8.1499e-05	323	1.4617e-06	3.1303e-06	415.38	97.256	2.4813e-07	1.9835e-06	163.58	45.889	30.771	11.988	6.9076e-07	18.463	0.00042974	0.00063047	0.00018041	314.99	6.5126e-06	7.167e-06	403.17	96.107	6.5836e-06	7.0484e-06	160.02	49.7	30.858	11.941	6.6496e-06	18.289	155.331	119.631	56.119	-3.236	164.581	91.778	-4.438	1.537	-14.375	330.563	-0.901	6.151	6.312	12.677	6.119	8.489	-8191	255	
2909.305	1	1	0	0	0.16961	0.4193	0.21048	0.33225	0.12056	0.0301	0.32337	0.38138	0.22262	0.1935	0.022476	0.27279	0.093013	0.13503	0.15524	0.13877	-2.05	-2.8167	-2.6479	-2.6375	-3.15	-2.4375	-2.9062	-3.0354	-2.4042	-2.9979	-2.8563	-2.4167	-2.8354	-2.8771	-2.7562	-3.0312	-15.652	194.607	153.275	286.192	311.255	194.706	224.053	276.493	197.304	294.930	251.188	224.601	20.734	202.152	134.980	208.788	9.109e-05	0.00025393	0.00014459	324.05	1.9492e-06	2.8255e-06	411.87	96.57	3.4843e-06	1.8005e-06	162.33	46.055	30.355	11.965	9.0009e-07	18.413	0.00042832	0.00063995	0.00017978	314.29	6.6457e-06	7.0564e-06	401.02	95.568	6.64e-06	7.0003e-06	159.3	49.23	30.682	11.923	6.7583e-06	18.313	150.018	59.515	3.776	-3.871	135.696	151.449	-4.333	1.911	149.665	167.369	-1.046	4.287	7.092	12.187	199.710	8.543	-8191	255	
#DATA ENDS
