BOXY.EXE: ISS Imagent and Oximeter Data Acquisition Program Version 0.80
Ascii Record File

#ACQ INFORMATION
2  Detector Channels 
16  External MUX Channels 
1  Auxiliary Channels 
5000  Waveform (CCF) Frequency (Hz)
1  Waveforms Skipped 
30  Waveforms Averaged 
1  Cycles Averaged 
16  Acquisitions per Waveform 
10.0806  Updata Rate (Hz) 

#FILE INFORMATION
TRUE -- External MUX Channel results are PARSED.
FALSE -- AC DC and Phase are NOT grouped.
TRUE -- Companion Program Settings File CREATED.
FALSE -- AC data not excluded
FALSE -- DC data not excluded
FALSE -- Phase data not excluded
FALSE -- Auxillary Chn. data not excluded
Tab delimiters

#CALIBRATION STATE
TRUE -- Waveform Calibration Values APPLIED.


#AUX CALIBRATION VALUES
Val Type	aux-1	

Term	1.0000e+00	
Factor	0.0000e+00	


#WF CALIBRATION VALUES
A = Detector Channel
Val Type	A-AC1	A-AC2	A-AC3	A-AC4	A-AC5	A-AC6	A-AC7	A-AC8	A-AC9	A-AC10	A-AC11	A-AC12	A-AC13	A-AC14	A-AC15	A-AC16	A-DC1	A-DC2	A-DC3	A-DC4	A-DC5	A-DC6	A-DC7	A-DC8	A-DC9	A-DC10	A-DC11	A-DC12	A-DC13	A-DC14	A-DC15	A-DC16	A-Ph1	A-Ph2	A-Ph3	A-Ph4	A-Ph5	A-Ph6	A-Ph7	A-Ph8	A-Ph9	A-Ph10	A-Ph11	A-Ph12	A-Ph13	A-Ph14	A-Ph15	A-Ph16	

Term	0.00000e+00	0.00000e+00	0.00000e+00	0.00000e+00	0.00000e+00	0.00000e+00	0.00000e+00	0.00000e+00	0.00000e+00	0.00000e+00	0.00000e+00	0.00000e+00	0.00000e+00	0.00000e+00	0.00000e+00	0.00000e+00	0.00000e+00	0.00000e+00	0.00000e+00	0.00000e+00	0.00000e+00	0.00000e+00	0.00000e+00	0.00000e+00	0.00000e+00	0.00000e+00	0.00000e+00	0.00000e+00	0.00000e+00	0.00000e+00	0.00000e+00	0.00000e+00	0.00000e+00	0.00000e+00	0.00000e+00	0.00000e+00	0.00000e+00	0.00000e+00	0.00000e+00	0.00000e+00	0.00000e+00	0.00000e+00	0.00000e+00	0.00000e+00	0.00000e+00	0.00000e+00	0.00000e+00	0.00000e+00	
Factor	1.00000e+00	1.00000e+00	1.00000e+00	1.00000e+00	1.00000e+00	1.00000e+00	1.00000e+00	1.00000e+00	1.00000e+00	1.00000e+00	1.00000e+00	1.00000e+00	1.00000e+00	1.00000e+00	1.00000e+00	1.00000e+00	1.00000e+00	1.00000e+00	1.00000e+00	1.00000e+00	1.00000e+00	1.00000e+00	1.00000e+00	1.00000e+00	1.00000e+00	1.00000e+00	1.00000e+00	1.00000e+00	1.00000e+00	1.00000e+00	1.00000e+00	1.00000e+00	X	X	X	X	X	X	X	X	X	X	X	X	X	X	X	X	

B = Detector Channel
Val Type	B-AC1	B-AC2	B-AC3	B-AC4	B-AC5	B-AC6	B-AC7	B-AC8	B-AC9	B-AC10	B-AC11	B-AC12	B-AC13	B-AC14	B-AC15	B-AC16	B-DC1	B-DC2	B-DC3	B-DC4	B-DC5	B-DC6	B-DC7	B-DC8	B-DC9	B-DC10	B-DC11	B-DC12	B-DC13	B-DC14	B-DC15	B-DC16	B-Ph1	B-Ph2	B-Ph3	B-Ph4	B-Ph5	B-Ph6	B-Ph7	B-Ph8	B-Ph9	B-Ph10	B-Ph11	B-Ph12	B-Ph13	B-Ph14	B-Ph15	B-Ph16	

Term	0.00000e+00	0.00000e+00	0.00000e+00	0.00000e+00	0.00000e+00	0.00000e+00	0.00000e+00	0.00000e+00	0.00000e+00	0.00000e+00	0.00000e+00	0.00000e+00	0.00000e+00	0.00000e+00	0.00000e+00	0.00000e+00	0.00000e+00	0.00000e+00	0.00000e+00	0.00000e+00	0.00000e+00	0.00000e+00	0.00000e+00	0.00000e+00	0.00000e+00	0.00000e+00	0.00000e+00	0.00000e+00	0.00000e+00	0.00000e+00	0.00000e+00	0.00000e+00	-1.23800e+02	-1.29605e+02	-1.18317e+02	-1.81384e+02	-6.66720e+01	-6.49322e+01	-1.54429e+02	-1.62015e+02	-6.47790e+01	-5.86214e+01	-1.69550e+02	-1.78216e+02	-1.82278e+02	-1.75921e+02	-6.55031e+01	-1.48295e+02	
Factor	1.82523e-05	2.02462e-04	5.46020e-05	1.59639e-01	1.48313e-06	2.22676e-06	1.61345e-01	6.10527e-02	1.51134e-06	2.21112e-06	9.03854e-02	2.02187e-01	4.85540e-02	9.32913e-03	1.59883e-06	1.33881e-02	1.11608e-05	1.90474e-05	5.34503e-06	8.05254e-02	1.92326e-07	2.14060e-07	7.69818e-02	3.09569e-02	1.94649e-07	2.13805e-07	4.45233e-02	1.01031e-01	2.48173e-02	4.77762e-03	2.01464e-07	6.64615e-03	X	X	X	X	X	X	X	X	X	X	X	X	X	X	X	X	



#DISTANCE SETTINGS
A = Detector Channel
A-1	A-2	A-3	A-4	A-5	A-6	A-7	A-8	A-9	A-10	A-11	A-12	A-13	A-14	A-15	A-16	

2.5000e+00	3.0000e+00	2.5000e+00	3.0000e+00	2.0000e+00	3.0000e+00	1.5000e+00	3.0000e+00	3.0000e+00	3.0000e+00	3.0000e+00	3.0000e+00	3.0000e+00	3.0000e+00	1.5000e+00	3.0000e+00	

B = Detector Channel
B-1	B-2	B-3	B-4	B-5	B-6	B-7	B-8	B-9	B-10	B-11	B-12	B-13	B-14	B-15	B-16	

1.0000e+01	1.0000e+01	1.0000e+01	1.4400e+00	1.0000e+01	1.0000e+01	1.5100e+00	1.9400e+00	1.0000e+01	1.0000e+01	1.9900e+00	2.4900e+00	2.4100e+00	2.9000e+00	1.0000e+01	2.9800e+00	




#DATA BEGINS
time	group	step	mark	flag	A-AC1	A-AC2	A-AC3	A-AC4	A-AC5	A-AC6	A-AC7	A-AC8	A-AC9	A-AC10	A-AC11	A-AC12	A-AC13	A-AC14	A-AC15	A-AC16	A-DC1	A-DC2	A-DC3	A-DC4	A-DC5	A-DC6	A-DC7	A-DC8	A-DC9	A-DC10	A-DC11	A-DC12	A-DC13	A-DC14	A-DC15	A-DC16	A-Ph1	A-Ph2	A-Ph3	A-Ph4	A-Ph5	A-Ph6	A-Ph7	A-Ph8	A-Ph9	A-Ph10	A-Ph11	A-Ph12	A-Ph13	A-Ph14	A-Ph15	A-Ph16	B-AC1	B-AC2	B-AC3	B-AC4	B-AC5	B-AC6	B-AC7	B-AC8	B-AC9	B-AC10	B-AC11	B-AC12	B-AC13	B-AC14	B-AC15	B-AC16	B-DC1	B-DC2	B-DC3	B-DC4	B-DC5	B-DC6	B-DC7	B-DC8	B-DC9	B-DC10	B-DC11	B-DC12	B-DC13	B-DC14	B-DC15	B-DC16	B-Ph1	B-Ph2	B-Ph3	B-Ph4	B-Ph5	B-Ph6	B-Ph7	B-Ph8	B-Ph9	B-Ph10	B-Ph11	B-Ph12	B-Ph13	B-Ph14	B-Ph15	B-Ph16	aux-1	digaux	

2232.306	1	1	0	768	0.38526	0.18692	0.12281	0.25326	0.084159	0.24707	0.27488	0.017363	0.23237	0.15104	0.19089	0.078229	0.17093	0.28644	0.074756	0.18606	-2.7646	-3.4125	-2.95	-3.3958	-3.225	-3.0208	-3.5729	-2.9917	-3.2583	-3.4708	-2.8812	-3.2333	-3.2	-2.9229	-3.4646	-3.0708	-28.484	203.931	176.525	242.100	-12.967	208.410	208.752	60.150	195.691	75.594	68.535	-72.769	5.361	-57.678	-16.044	63.436	6.5671e-05	0.00026603	3.7416e-05	807.79	1.0047e-06	2.3372e-06	841.27	172.85	1.1997e-06	2.2287e-06	213.97	51.364	48.995	13.864	1.8667e-06	19.461	0.00010466	8.6745e-05	2.3373e-05	809.42	1.2109e-06	9.2492e-07	850.02	175.15	1.0758e-06	9.0422e-07	217.69	55.919	49.773	14.216	8.9861e-07	20.084	179.874	1.883	61.625	-67.453	42.422	54.265	-67.177	-60.229	41.221	56.027	-60.596	-53.787	-53.729	-46.386	52.445	-46.744	-8191	255	
2232.402	1	1	0	0	0.13312	0.049415	0.13311	0.17865	0.21842	0.3723	0.18559	0.16298	0.19159	0.075328	0.12543	0.1172	0.11775	0.1906	0.11494	0.20643	-2.5479	-3.3187	-3.0563	-3.2188	-3.1729	-2.9062	-3.4417	-3.2062	-3.1229	-3.2083	-2.9021	-3.2042	-3.2479	-2.9896	-3.2417	-3.15	-41.020	-32.794	205.418	259.341	48.954	-73.191	141.767	169.849	117.230	249.696	236.663	243.279	131.144	109.084	34.200	265.825	5.8578e-05	0.00022691	4.8317e-05	807.9	9.0296e-07	1.8223e-06	839.16	172.17	1.5317e-07	2.164e-06	213.64	51.644	49.011	13.901	1.0728e-06	19.479	0.00010721	7.5555e-05	2.5122e-05	809.79	1.2141e-06	9.9716e-07	850.75	175.07	1.1573e-06	8.3428e-07	217.33	56.265	49.767	14.25	1.014e-06	20.074	170.338	16.103	17.396	-67.390	76.273	90.699	-67.261	-60.452	87.305	63.630	-60.380	-54.516	-53.632	-46.640	67.002	-46.765	-8191	255	
2232.498	1	1	0	0	0.15984	0.090316	0.18645	0.23053	0.27651	0.12096	0.064541	0.15697	0.14855	0.18075	0.077532	0.17297	0.15712	0.15329	0.10644	0.13348	-2.4396	-3.4417	-2.9917	-3.1229	-3.275	-2.9625	-3.4479	-3.1604	-2.9729	-3.4313	-3.2042	-3.1292	-3.3792	-2.95	-3.2458	-3.3375	-72.718	17.251	25.831	-55.122	-8.576	-9.847	246.618	-63.766	233.588	139.505	11.880	253.079	-39.923	-4.935	194.762	188.166	5.4913e-05	0.00020579	7.6813e-05	808.29	1.1457e-06	2.0065e-06	839.73	172.3	9.3799e-07	2.3795e-06	213.56	51.779	48.845	13.734	1.2448e-06	19.589	0.00011086	8.4483e-05	2.3184e-05	810.37	1.1507e-06	9.6773e-07	850.18	175.31	1.1334e-06	8.5878e-07	217.51	56.058	49.783	14.238	9.9011e-07	20.105	176.168	-0.465	24.205	-67.157	122.718	77.254	-67.158	-60.343	47.541	63.742	-60.249	-54.468	-53.629	-46.661	82.271	-46.993	-8191	255	
2232.594	1	1	0	0	0.081809	0.02869	0.12618	0.26493	0.28899	0.12208	0.20937	0.21676	0.17362	0.12033	0.24157	0.11373	0.15608	0.23268	0.14414	0.098678	-2.5958	-3.4646	-2.9625	-3.25	-3.2812	-2.9354	-3.5	-3.1479	-2.9542	-3.3125	-3.3333	-3.0667	-3.4146	-3.0208	-3.2104	-3.3812	248.885	39.595	195.975	179.864	78.981	186.893	222.444	7.280	225.437	79.179	59.465	92.903	103.904	264.535	-58.783	23.135	5.9247e-05	0.00026781	6.3803e-05	810.13	1.8336e-06	2.1212e-06	843.47	172.83	7.9898e-07	2.6102e-06	212.88	51.395	48.971	13.832	1.0699e-06	19.458	0.0001087	8.0039e-05	2.4999e-05	810.85	1.1099e-06	9.4097e-07	850.54	175.37	1.1926e-06	8.3562e-07	217.12	56.148	49.903	14.226	9.729e-07	20.055	184.851	5.096	29.535	-67.107	91.954	70.362	-67.092	-59.958	74.380	78.970	-60.280	-53.753	-53.855	-46.334	76.581	-47.310	-8191	255	
2232.691	1	1	0	0	0.24565	0.20071	0.21042	0.030625	0.1897	0.066741	0.18232	0.20659	0.043515	0.17648	0.12103	0.093375	0.1033	0.17419	0.19644	0.07792	-2.4292	-3.4479	-3.2604	-3.0292	-3.4583	-3.0854	-3.2771	-3.2292	-2.9938	-3.3146	-3.4417	-2.7708	-3.5104	-3.2062	-2.9688	-3.4146	81.209	266.804	-68.863	-49.619	-31.217	-5.342	253.043	179.786	-6.511	174.261	-46.385	-7.188	191.359	4.367	81.368	22.971	6.1321e-05	0.00024202	5.9604e-05	806.79	1.8199e-06	1.6925e-06	839.99	172.32	1.1394e-06	1.5123e-06	213.45	51.32	48.877	13.854	1.2343e-06	19.428	0.00011393	8.4483e-05	2.4866e-05	809.96	1.1311e-06	8.6561e-07	850.94	175.16	1.1423e-06	9.9018e-07	217.46	55.987	49.787	14.246	1.0447e-06	20.07	169.940	-7.667	39.552	-67.063	46.224	81.458	-66.983	-60.153	15.161	67.786	-60.577	-54.202	-53.678	-46.146	44.347	-46.800	-8191	255	
2232.787	1	1	0	0	0.32632	0.21245	0.15696	0.22854	0.1965	0.20063	0.031074	0.13838	0.12442	0.14577	0.16422	0.21698	0.24103	0.1559	0.20351	0.29553	-2.7271	-3.2875	-3.2062	-2.9521	-3.3937	-3.1	-3.2146	-3.3812	-2.9396	-3.3271	-3.2854	-2.8771	-3.4562	-3.0771	-3.2333	-3.5042	47.043	-49.013	-12.071	265.059	25.327	13.102	229.135	135.991	25.050	103.353	220.936	163.105	199.161	-5.449	115.460	-17.319	4.3092e-05	0.00012	7.2575e-05	807.09	4.2561e-07	2.5947e-06	841.65	173.33	1.1477e-06	1.9924e-06	214.89	52.71	48.814	13.868	2.2342e-06	19.417	0.00010589	8.6348e-05	2.4275e-05	809.75	1.1411e-06	8.7453e-07	851.63	175.39	1.1273e-06	8.6057e-07	218.07	56.338	49.866	14.259	1.0233e-06	20.08	191.379	-4.508	10.350	-67.113	43.921	86.324	-66.939	-60.194	107.358	88.863	-60.567	-53.693	-53.953	-46.384	79.164	-47.126	-8191	255	
2232.907	1	1	0	0	0.2841	0.10717	0.19527	0.084932	0.089325	0.092354	0.1564	0.32155	0.24497	0.081496	0.034607	0.27813	0.090263	0.16879	0.33074	0.15743	-2.6271	-3.1542	-3.3417	-3.0542	-3.4625	-3.1208	-3.0938	-3.4479	-2.8646	-3.3104	-3.4729	-2.9437	-3.3167	-3.1688	-2.9729	-3.5854	242.388	264.512	25.542	209.900	266.385	48.001	212.959	271.014	101.066	167.576	23.161	251.918	161.487	164.697	198.249	167.431	6.1891e-05	0.0001148	5.8393e-05	806.98	1.2832e-06	1.7174e-06	843.11	172.95	4.399e-07	2.0272e-06	212.8	50.9	48.939	13.786	1.6294e-06	19.591	0.00010635	7.4801e-05	2.4921e-05	810.04	1.1167e-06	9.3562e-07	851.26	175.32	1.1387e-06	9.0823e-07	216.88	56.082	49.864	14.259	1.0543e-06	20.104	182.705	32.897	14.586	-67.194	78.224	76.300	-67.300	-60.368	2.165	84.513	-60.761	-54.015	-53.289	-46.525	58.689	-46.538	-8191	255	
2233.002	1	1	0	0	0.076842	0.11643	0.086722	0.076471	0.050827	0.07867	0.24043	0.30121	0.15946	0.070955	0.3631	0.14739	0.017374	0.12601	0.0948	0.03362	-2.5563	-3.2292	-3.3458	-3.1813	-3.2521	-3.2333	-2.9917	-3.4542	-3.2292	-3.2292	-3.3167	-2.8396	-3.2938	-3.2125	-3.0042	-3.4292	241.026	28.488	-0.300	-55.155	217.026	183.709	233.553	-31.437	207.601	68.060	9.826	155.295	-46.111	164.870	-10.277	-0.468	6.6095e-05	0.00018616	5.8385e-05	810.39	5.1097e-07	3.5084e-06	841.42	172.03	7.8771e-07	3.387e-06	213.61	51.832	49.073	13.834	7.704e-07	19.63	0.00010824	8.615e-05	2.1725e-05	810.59	1.1503e-06	8.6382e-07	851.13	175.34	1.1582e-06	8.6146e-07	217.82	56.31	49.806	14.263	1.0019e-06	20.127	177.187	-10.754	4.885	-67.258	161.113	57.652	-66.973	-60.081	131.103	86.680	-60.344	-54.082	-53.639	-46.726	98.857	-46.745	-8191	255	
2233.100	1	1	0	0	0.31178	0.072065	0.28142	0.35001	0.23751	0.063048	0.2578	0.089694	0.072348	0.050238	0.07514	0.12155	0.16566	0.12585	0.23781	0.14282	-2.7896	-3.1271	-3.3583	-3.0333	-3.15	-3.2771	-3.2354	-3.4583	-3.1396	-3.1437	-3.4458	-2.9896	-3.1979	-3.3271	-3.0896	-3.4	55.537	123.500	34.912	-24.747	100.961	40.914	202.633	14.351	108.397	201.545	217.781	-15.300	54.013	-46.015	147.009	136.639	7.1121e-05	0.00022868	7.993e-05	809.89	1.4058e-06	1.3277e-06	841.73	173.37	5.6228e-07	2.3124e-06	213.64	52.337	48.743	13.879	1.991e-06	19.489	0.00010494	9.111e-05	2.089e-05	809.65	1.2084e-06	8.384e-07	851.09	175.61	1.0933e-06	9.0377e-07	217.65	56.52	49.703	14.223	1.0296e-06	20.07	183.316	10.119	11.091	-67.097	91.241	55.998	-67.022	-60.075	7.074	90.234	-60.480	-53.427	-54.126	-46.181	73.478	-46.646	-8191	255	
2233.194	1	1	0	0	0.054361	0.15324	0.11581	0.23234	0.044486	0.18178	0.33057	0.074406	0.14862	0.085965	0.088362	0.11461	0.020335	0.19095	0.27103	0.075561	-2.7625	-2.9542	-3.4021	-3.1271	-3.0958	-3.3417	-3.0625	-3.4813	-3.1604	-3.1604	-3.6146	-3.075	-2.9979	-3.4021	-2.8375	-3.3417	54.340	-71.917	232.382	245.971	211.986	-62.740	214.541	-74.294	237.986	-27.287	239.274	118.608	260.910	72.013	209.471	28.261	5.3507e-05	0.00024508	3.1768e-05	807.23	6.0218e-07	1.4069e-06	842.82	172.73	1.576e-06	2.2228e-06	214.91	50.624	48.741	13.872	1.4635e-06	19.404	0.00010549	8.3927e-05	2.2071e-05	810.38	1.1904e-06	9.5792e-07	850.91	175.29	1.1067e-06	9.1936e-07	217.79	55.821	49.752	14.244	1.1131e-06	20.1	167.739	10.277	13.584	-67.181	49.781	81.045	-67.127	-60.383	123.557	63.596	-60.351	-53.966	-53.610	-46.770	71.513	-46.931	-8191	255	
2233.290	1	1	0	0	0.21078	0.063604	0.17464	0.065918	0.10411	0.078248	0.32246	0.043325	0.10434	0.065393	0.15766	0.20055	0.12645	0.031998	0.16643	0.11794	-2.8083	-2.9875	-3.2667	-3.1875	-3.0917	-3.2708	-3.1708	-3.3917	-3.3958	-2.9292	-3.5812	-3.1688	-3.0146	-3.3438	-2.9333	-3.2812	-60.740	-32.945	105.507	208.328	269.355	-70.963	236.490	233.713	172.174	209.451	101.095	-59.911	91.820	268.104	134.351	277.913	4.8281e-05	0.00030493	3.4036e-05	804.69	8.739e-07	1.5097e-06	841.86	172.01	4.6883e-07	1.9075e-06	216.11	50.97	48.953	13.782	1.7958e-06	19.513	0.00011021	9.48e-05	2.3774e-05	808.96	1.1948e-06	9.0217e-07	850.55	175.26	1.0223e-06	9.8974e-07	218.08	56.071	49.834	14.244	1.1534e-06	20.126	171.341	4.693	23.192	-67.399	62.832	71.706	-67.062	-60.410	-40.708	82.852	-60.455	-54.522	-53.878	-46.491	88.613	-47.129	-8191	255	
2233.386	1	1	0	0	0.088838	0.23738	0.19103	0.11746	0.15563	0.12853	0.09626	0.15976	0.15157	0.11466	0.16945	0.10233	0.11859	0.25684	0.097064	0.2111	-2.8729	-2.7938	-3.2292	-3.2875	-2.95	-3.5208	-3.0938	-3.2146	-3.3479	-3.025	-3.3604	-3.0438	-2.9437	-3.4437	-3.1854	-3.2812	141.950	-51.019	138.901	125.124	58.381	64.917	194.886	38.091	-38.639	96.108	173.505	26.657	-36.622	252.013	26.836	88.485	6.2834e-05	0.00032403	6.0989e-05	805.43	1.0969e-06	1.598e-06	844.35	172.63	3.653e-07	9.789e-07	213.48	51.703	48.61	13.85	8.7827e-07	19.561	0.00010731	0.00010091	2.2928e-05	810.31	1.2517e-06	9.4632e-07	851.32	175.18	1.1018e-06	1.0775e-06	217.58	56.136	49.765	14.231	1.1399e-06	20.155	188.676	25.304	35.697	-67.432	49.332	71.425	-67.241	-60.252	165.509	96.777	-60.622	-54.003	-53.259	-46.636	90.814	-46.951	-8191	255	
2233.507	1	1	0	0	0.29508	0.17929	0.23117	0.31885	0.061579	0.23412	0.056242	0.14389	0.11377	0.081927	0.19462	0.27231	0.11933	0.21838	0.21627	0.20915	-2.8375	-2.8708	-3.0646	-3.1875	-3.3167	-3.5458	-3.1792	-3.2146	-3.5312	-2.9437	-3.3375	-3.1	-2.9625	-3.3833	-2.9688	-3.1688	120.875	-27.444	114.041	247.028	-33.736	185.766	253.537	208.942	183.153	196.696	259.658	266.156	241.347	-17.825	245.537	117.239	5.8995e-05	0.00019874	7.5437e-05	803.75	4.9607e-08	1.9098e-06	841.18	171.74	1.5619e-07	1.9862e-06	215.71	50.989	48.501	13.866	9.3544e-07	19.433	0.00010182	9.9245e-05	2.6146e-05	809.56	1.2589e-06	9.6461e-07	851.12	175.35	1.1667e-06	9.8707e-07	218.01	55.905	49.747	14.281	1.0082e-06	20.105	181.548	-27.000	23.582	-67.345	52.655	41.124	-67.171	-60.349	20.315	71.677	-60.282	-54.153	-53.510	-46.404	101.829	-46.746	-8191	255	
2233.603	1	1	0	0	0.25337	0.15239	0.10897	0.25084	0.1246	0.14778	0.16914	0.19293	0.066161	0.10794	0.25691	0.059312	0.062685	0.17976	0.25948	0.13506	-2.8812	-2.9604	-3.25	-3.3125	-3.0563	-3.3833	-3.1188	-3.0479	-3.3396	-3.0958	-3.1312	-3.4646	-2.8375	-3.3187	-3	-3.075	131.498	82.389	121.735	-65.798	61.677	24.772	223.125	194.337	218.001	124.449	281.466	178.905	109.740	24.356	236.967	-5.677	6.7842e-05	0.00016971	5.1624e-05	806.69	1.0436e-06	3.0179e-06	842.91	171.94	1.3377e-06	8.9506e-07	214.7	51.646	49.197	13.872	1.7513e-06	19.537	0.00010428	9.7181e-05	2.4387e-05	810.08	1.3138e-06	9.2759e-07	851.17	175.07	1.1257e-06	1.0797e-06	218.27	56.109	49.919	14.255	1.1072e-06	20.108	177.677	-12.461	21.205	-67.356	61.917	60.752	-67.104	-60.388	41.494	108.378	-60.590	-54.725	-53.494	-46.542	65.871	-46.946	-8191	255	
2233.699	1	1	0	0	0.11928	0.10929	0.086244	0.22335	0.1243	0.05417	0.066895	0.15549	0.12793	0.16142	0.21774	0.20864	0.23515	0.062591	0.17605	0.12017	-2.9646	-3.0375	-3.2271	-3.3958	-2.9104	-3.2792	-3.4646	-2.9854	-3.2938	-3.0479	-3.1292	-3.3417	-2.8875	-3.4062	-3.3312	-3.05	137.666	-76.658	193.019	202.044	123.584	88.283	-61.975	81.193	199.312	-19.784	243.276	80.475	154.759	88.302	110.551	83.735	4.8843e-05	0.00022205	2.6781e-05	806.93	1.2898e-06	2.0175e-06	844.67	172.53	1.2207e-06	2.4874e-06	215.32	52.126	48.97	13.963	9.8777e-07	19.568	0.00010156	9.4959e-05	2.4877e-05	809.75	1.3547e-06	8.5802e-07	853.35	175.45	1.1046e-06	9.7415e-07	217.57	56.538	49.836	14.274	1.0413e-06	20.172	182.868	10.252	15.125	-67.123	101.708	102.156	-67.361	-60.308	49.322	59.877	-60.493	-53.851	-53.478	-46.451	67.942	-46.669	-8191	255	
2233.795	1	1	0	0	0.090974	0.31686	0.23686	0.13547	0.12385	0.19919	0.22868	0.13292	0.083525	0.1585	0.10707	0.11832	0.30087	0.13322	0.18297	0.22568	-2.9208	-3.0729	-2.9917	-3.5854	-3.0854	-3.4021	-3.4313	-3.0438	-3.45	-3.2292	-3.0625	-3.5	-3.1063	-3.3771	-3.3688	-2.9646	-53.436	105.843	28.640	266.224	227.712	45.106	-68.756	214.896	247.294	99.925	-60.719	38.161	278.473	137.001	-68.640	-53.287	5.6457e-05	0.00020738	0.00010261	805.37	1.3658e-06	2.2287e-06	843.46	171.98	6.0601e-07	2.9146e-06	214	51.875	49.085	13.83	1.6316e-06	19.484	0.00010631	8.7499e-05	2.6413e-05	810.32	1.2629e-06	9.3072e-07	850.78	175.03	9.6919e-07	9.6613e-07	217.58	56.273	49.904	14.277	1.0082e-06	20.065	171.866	20.133	35.851	-67.128	65.887	72.330	-67.131	-60.383	122.339	89.474	-60.504	-54.782	-53.293	-46.618	46.338	-46.875	-8191	255	
2233.867	1	1	0	0	0.11185	0.031166	0.16116	0.17065	0.07028	0.12558	0.21608	0.18184	0.072653	0.10754	0.066397	0.12204	0.088362	0.091338	0.14294	0.15139	-2.8937	-3.1729	-2.9896	-3.5708	-2.975	-3.225	-3.4271	-3.0938	-3.3208	-3.1021	-3.0062	-3.2896	-2.8021	-3.0458	-3.4104	-2.9333	120.892	250.290	281.323	-64.641	149.709	132.429	172.637	237.680	260.837	-19.330	-15.847	162.108	262.270	66.080	142.102	70.537	5.9344e-05	0.00028935	4.4146e-05	806.92	8.1375e-07	2.0557e-06	843.45	173.01	1.3785e-06	2.7202e-06	214.24	52.053	49.178	13.761	4.2881e-07	19.591	0.00011161	9.7062e-05	2.6447e-05	811.05	1.299e-06	9.2893e-07	851.43	175.47	1.0661e-06	1.0525e-06	217.83	56.037	50.038	14.238	9.7332e-07	20.166	173.909	-11.343	49.684	-67.102	54.151	73.487	-67.226	-60.311	54.080	74.018	-60.217	-54.737	-53.458	-46.605	97.849	-46.392	-8191	255	
2233.988	1	1	0	0	0.12464	0.23579	0.098886	0.089002	0.20264	0.29261	0.18414	0.21889	0.20485	0.23351	0.093051	0.26288	0.24831	0.059319	0.067652	0.25603	-2.7896	-3.2667	-2.9896	-3.5375	-3.2104	-3.2188	-3.3708	-3.0458	-3.2896	-3.1396	-3.2729	-3.1896	-3.1937	-3.0312	-3.5125	-3.0521	-37.458	49.920	-53.664	251.780	210.856	209.220	255.814	271.121	76.767	1.979	143.409	146.773	162.800	189.382	221.003	143.345	7.0236e-05	0.00026322	8.365e-05	808.23	7.9512e-07	1.8156e-06	840.36	172.59	6.1165e-07	2.8005e-06	215.38	51.564	49.226	13.868	1.5476e-06	19.453	0.00010875	8.7539e-05	2.4921e-05	810.87	1.2786e-06	9.3205e-07	850.55	175.35	1.15e-06	9.6123e-07	217.98	56.386	49.944	14.258	1.0556e-06	20.136	186.576	14.974	31.673	-67.119	32.618	100.859	-67.188	-60.280	78.497	86.990	-60.464	-54.809	-53.523	-46.318	70.377	-46.999	-8191	255	
2234.082	1	1	0	0	0.18599	0.22566	0.14866	0.10369	0.048834	0.10817	0.095536	0.2268	0.15509	0.20383	0.21994	0.10444	0.20899	0.13512	0.23361	0.10928	-2.825	-3.2042	-2.9104	-3.4729	-3.15	-2.8917	-3.4813	-2.9854	-3.3333	-3.4229	-2.9604	-3.3187	-3.2583	-3.1083	-3.3438	-2.9562	50.960	140.161	50.574	214.300	144.802	229.681	29.012	111.627	95.018	-40.148	29.729	222.196	175.554	213.190	267.628	196.774	6.5452e-05	0.00029601	3.3491e-05	807.46	1.5467e-06	2.8779e-06	842.36	172.43	3.809e-07	2.9595e-06	214.28	51.281	48.931	13.916	1.6199e-06	19.447	0.00010314	8.488e-05	2.805e-05	812.11	1.2525e-06	1.1269e-06	851.5	175.43	1.1728e-06	9.0689e-07	217.95	55.935	49.865	14.322	1.0485e-06	20.135	174.064	-9.413	-10.881	-67.121	56.283	68.941	-67.193	-60.238	27.868	92.169	-60.601	-53.785	-53.582	-46.468	78.682	-47.235	-8191	255	
2234.180	1	1	0	0	0.09053	0.10675	0.061269	0.24391	0.12384	0.047601	0.51728	0.11718	0.048733	0.1292	0.17117	0.13421	0.096249	0.1186	0.14395	0.068359	-2.9083	-3.0729	-2.8125	-3.6771	-2.9875	-2.9354	-3.5146	-3.1208	-3.2396	-3.4083	-3.0208	-3.2667	-3.2271	-3.0333	-3.3979	-3.0958	45.006	168.491	-68.353	178.554	103.929	3.866	237.709	-27.069	141.500	209.492	-25.885	277.504	85.160	-29.068	44.359	270.823	6.2633e-05	0.00030536	1.7722e-05	805.98	1.1193e-06	2.4149e-06	845.6	172.97	2.8715e-07	1.9909e-06	214.71	51.486	48.514	13.896	1.525e-06	19.572	0.00010898	9.3292e-05	2.7393e-05	811.59	1.2317e-06	1.0935e-06	853.5	175.89	1.161e-06	1.0116e-06	217.84	55.912	49.796	14.307	9.9431e-07	20.181	178.882	25.205	80.608	-67.306	122.912	74.214	-67.254	-60.293	30.491	73.822	-60.233	-54.417	-53.749	-46.154	64.099	-47.140	-8191	255	
2234.299	1	1	0	0	0.20813	0.12172	0.094434	0.097705	0.11834	0.11036	0.13145	0.099568	0.15697	0.13571	0.14011	0.25636	0.1614	0.11638	0.20262	0.14183	-2.7458	-3.3792	-2.8812	-3.4646	-3.2333	-3.0125	-3.5729	-3.1646	-3.175	-3.4208	-3.0042	-3.2562	-3.3438	-2.8563	-3.425	-3.2083	51.321	128.751	75.313	280.804	-77.290	-17.916	135.292	243.540	11.687	51.826	87.257	209.404	36.097	-64.100	140.367	200.613	5.8306e-05	0.00022122	6.6339e-05	812.6	1.2043e-06	2.4656e-06	844.75	173.24	3.3052e-07	1.7492e-06	215.44	51.968	48.835	13.839	1.9275e-06	19.478	0.00010928	8.6666e-05	2.7972e-05	812.23	1.2629e-06	1.0895e-06	853.95	175.66	1.1703e-06	8.6769e-07	218.46	56.262	50.075	14.279	9.7542e-07	20.145	167.483	12.426	35.288	-67.033	69.394	68.738	-67.136	-60.093	111.657	94.161	-60.471	-54.166	-53.426	-46.516	66.975	-46.983	-8191	255	
2234.395	1	1	0	0	0.17041	0.23414	0.13125	0.17908	0.13485	0.203	0.14514	0.084918	0.067457	0.072603	0.13242	0.15911	0.11051	0.2185	0.20355	0.080038	-2.3208	-3.2917	-2.8688	-3.4437	-3.2354	-2.9021	-3.4	-3.1688	-3.1354	-3.4625	-3.1063	-3.2562	-3.3229	-3.0104	-3.3563	-3.2833	-32.840	188.125	169.474	222.310	92.494	100.163	-56.462	18.908	105.653	69.158	138.841	102.479	131.540	253.559	-40.639	-34.311	4.8472e-05	0.00011292	6.1949e-05	809.32	2.5548e-07	2.0041e-06	842.87	173.24	5.8338e-07	2.295e-06	213.99	51.87	48.839	13.943	9.5761e-07	19.481	0.0001117	8.5951e-05	2.4698e-05	813.01	1.2702e-06	1.1189e-06	853.94	175.84	1.1744e-06	8.7749e-07	217.69	56.525	49.892	14.324	9.8507e-07	20.154	181.231	37.708	15.552	-67.234	31.654	96.154	-67.342	-60.307	179.525	77.407	-60.336	-54.193	-53.548	-46.645	62.987	-46.705	-8191	255	
2234.467	1	1	0	0	0.30296	0.12599	0.19595	0.036881	0.043779	0.17709	0.05249	0.023665	0.071737	0.24748	0.26774	0.18539	0.351	0.10269	0.064314	0.19125	-2.6708	-3.4917	-3.1937	-3.2562	-3.3104	-3.1792	-3.4083	-3.2042	-3.0625	-3.4604	-3.2271	-3.2438	-3.3875	-2.85	-3.475	-3.1813	110.998	20.037	-0.016	266.587	115.747	-42.362	258.516	110.292	264.518	-30.266	206.294	244.176	224.115	212.312	84.503	-7.736	5.9593e-05	0.00013943	4.4577e-05	809.31	8.6026e-07	3.0903e-06	844.76	173.85	1.1835e-06	1.7495e-06	215.45	51.22	49.08	14.003	1.5936e-06	19.485	0.000109	8.8729e-05	2.5667e-05	814.23	1.2068e-06	1.0043e-06	853.35	176.14	1.1618e-06	8.521e-07	218.02	56	50.008	14.315	1.0762e-06	20.16	170.182	15.597	41.866	-67.278	106.847	80.379	-67.117	-60.215	124.132	74.994	-60.375	-54.528	-54.277	-46.399	91.367	-47.025	-8191	255	
2234.587	1	1	0	0	0.14986	0.22882	0.1851	0.14705	0.1502	0.29043	0.070584	0.073682	0.12596	0.17007	0.29131	0.28711	0.12655	0.097638	0.081702	0.23028	-2.75	-3.4146	-3.0375	-3.2521	-3.3688	-2.9146	-3.4188	-3.2667	-2.8917	-3.5458	-2.9604	-3.1063	-3.5125	-3.0083	-3.2292	-3.3958	151.383	75.632	38.161	-20.382	191.292	-67.187	267.978	-48.111	-8.229	216.108	33.276	67.198	33.202	222.315	250.363	-19.208	6.0699e-05	0.0002904	5.9989e-05	810.2	8.4409e-07	1.8226e-06	843.07	172.03	1.3269e-06	2.3561e-06	215.68	51.532	49.123	13.852	6.9978e-07	19.457	0.00011117	8.0793e-05	2.5912e-05	813.94	1.1447e-06	1.0244e-06	852.77	175.75	1.2332e-06	9.1268e-07	218.55	56.08	50.018	14.331	1.0543e-06	20.17	172.162	53.905	36.900	-67.271	106.335	51.524	-66.964	-60.268	42.700	98.839	-60.364	-54.829	-53.870	-46.612	59.968	-46.855	-8191	255	
2234.684	1	1	0	0	0.15392	0.30709	0.37312	0.10673	0.20772	0.049313	0.14578	0.1491	0.14472	0.1726	0.09557	0.20258	0.12401	0.10189	0.11865	0.15201	-2.4646	-3.225	-3.0333	-3.1083	-3.4333	-3.0187	-3.4396	-3.2542	-3.0312	-3.3812	-3.2313	-2.9979	-3.5083	-2.9062	-3.0438	-3.3542	94.153	29.101	98.105	132.589	-52.343	3.740	-54.067	192.986	185.626	262.277	217.211	-32.803	242.047	122.885	120.833	14.613	6.2796e-05	0.00019381	6.9335e-05	810.32	1.0865e-06	2.4416e-06	848.21	173.07	5.8457e-07	1.5107e-06	214.39	51.412	49.308	13.85	8.1377e-07	19.647	0.00011135	8.7539e-05	2.4454e-05	814.87	1.1516e-06	1.0052e-06	855.08	175.99	1.2474e-06	9.0021e-07	218.38	56.504	50.12	14.316	1.0648e-06	20.225	175.606	18.690	2.616	-67.279	100.379	63.099	-67.162	-60.788	114.138	87.406	-60.581	-54.958	-53.844	-46.627	91.897	-47.042	-8191	255	
2234.780	1	1	0	0	0.1364	0.23503	0.1292	0.18145	0.25145	0.34295	0.25185	0.11738	0.18039	0.1878	0.45611	0.30277	0.10779	0.10743	0.19946	0.1786	-2.375	-3.2375	-3.0375	-3.0208	-3.5146	-3.2188	-3.2333	-3.3792	-3.0354	-3.3187	-3.2687	-2.8771	-3.3229	-3.0062	-3.1146	-3.4062	247.485	-60.427	166.757	249.208	117.601	122.698	205.546	250.634	52.152	66.083	-70.200	-64.021	203.638	-58.580	194.441	235.222	5.4867e-05	0.00023067	7.0331e-05	808.82	1.1411e-06	2.6131e-06	843.44	171.88	1.4921e-06	2.5304e-06	214.37	52.435	48.745	13.762	1.4029e-06	19.602	0.00011256	8.4126e-05	2.4854e-05	812.99	1.1844e-06	1.0493e-06	853.5	175.7	1.1379e-06	9.4787e-07	218.75	56.595	49.958	14.256	1.0119e-06	20.188	176.554	12.641	4.570	-67.289	80.242	80.715	-67.292	-60.521	72.209	79.533	-60.189	-53.796	-53.806	-45.999	64.840	-46.647	-8191	255	
2234.900	1	1	0	0	0.1738	0.20213	0.13288	0.11996	0.077077	0.10532	0.15347	0.1812	0.17257	0.042821	0.080592	0.059365	0.15673	0.14214	0.14672	0.053866	-2.6146	-3.1896	-3.3354	-3.1396	-3.4208	-3.225	-3.0062	-3.5146	-2.8542	-3.1729	-3.5187	-2.8417	-3.4354	-3.3979	-2.9146	-3.6375	-21.498	190.011	275.758	81.711	267.997	38.938	182.470	-19.170	64.043	-64.679	50.112	164.656	93.015	144.952	141.015	11.998	5.7831e-05	0.00013635	5.277e-05	813.55	5.8747e-07	2.1732e-06	847.55	173.67	1.1558e-06	3.0866e-06	214.46	51.534	49.258	13.975	1.0375e-06	19.775	0.00011519	7.9007e-05	2.4431e-05	815.31	1.1411e-06	9.9583e-07	855.21	175.84	1.2052e-06	1.0151e-06	218.57	56.19	50.086	14.325	1.0384e-06	20.238	185.232	4.712	42.653	-67.246	133.580	62.230	-67.261	-60.314	54.297	87.129	-60.227	-52.238	-53.598	-46.769	105.988	-47.099	-8191	255	
2234.996	1	1	0	0	0.13173	0.076589	0.20251	0.11058	0.16061	0.094836	0.27094	0.069869	0.22601	0.18965	0.10353	0.26378	0.19622	0.15681	0.076425	0.19775	-2.4729	-3.1396	-3.2375	-2.8875	-3.4083	-3.1042	-3.1042	-3.4771	-3.3125	-3.3167	-3.5854	-2.85	-3.3667	-3.1417	-2.9396	-3.4896	4.802	120.276	-70.458	-20.880	237.333	32.589	281.354	-20.876	-66.730	224.499	-61.162	-65.710	131.354	219.121	-58.551	38.760	6.592e-05	0.00014311	6.1215e-05	810.73	1.7872e-06	3.0548e-06	850.43	173.78	9.9994e-07	2.8185e-06	214.86	51.135	49.423	13.887	2.0438e-06	19.554	0.00011191	9.2896e-05	2.4988e-05	814.53	1.2902e-06	9.5703e-07	855.3	175.98	1.1991e-06	9.6524e-07	217.64	56.061	50.121	14.284	1.1114e-06	20.215	183.571	4.561	-6.188	-67.289	97.806	80.394	-67.035	-60.490	75.788	56.634	-60.397	-54.146	-53.945	-46.573	49.945	-46.914	-8191	255	
2235.091	1	1	0	0	0.21664	0.1331	0.17311	0.1803	0.30099	0.19826	0.20099	0.18306	0.083678	0.13915	0.096206	0.30968	0.22226	0.15058	0.22731	0.086063	-2.6604	-3.1375	-3.2875	-2.9062	-3.3	-3.3521	-2.8708	-3.5792	-3.1188	-3.1375	-3.3583	-3.1312	-3.3083	-3.3729	-3.0625	-3.3958	-59.398	88.418	15.434	243.315	70.398	28.783	218.044	203.925	167.185	-23.838	-8.051	225.044	-53.861	263.814	-29.416	74.796	6.1761e-05	0.00019268	4.4884e-05	812.67	7.0544e-07	3.1952e-06	849.08	173.26	1.1008e-06	2.6948e-06	215.43	51.793	48.945	13.867	1.8018e-06	19.623	0.00010898	9.3491e-05	2.3518e-05	814.4	1.1972e-06	9.1154e-07	856.3	176.29	1.2109e-06	9.9687e-07	218.81	56.277	49.973	14.295	1.1324e-06	20.217	179.444	-11.139	41.447	-67.296	110.542	71.305	-67.104	-60.450	74.551	87.564	-60.315	-54.624	-53.900	-46.596	50.259	-46.887	-8191	255	
2235.163	1	1	0	0	0.16835	0.06679	0.047485	0.046487	0.11782	0.16559	0.20756	0.1196	0.13503	0.12916	0.033724	0.28002	0.22891	0.061245	0.1423	0.12765	-2.7479	-3.0812	-3.4208	-2.9458	-3.1979	-3.3333	-3.0625	-3.3646	-3.3854	-3.175	-3.5938	-2.9479	-3.3208	-3.4083	-3.1979	-3.325	-46.492	195.041	62.121	-12.009	26.789	196.324	158.586	281.078	8.398	53.968	216.083	257.063	179.281	243.578	253.555	234.382	5.5733e-05	0.00025872	3.7275e-05	811.81	1.3083e-06	2.2298e-06	846.33	173.6	8.7979e-07	2.3507e-06	215.91	51.841	49.281	14.013	1.1309e-06	19.446	0.00010775	9.5038e-05	2.3808e-05	814.88	1.2217e-06	9.7397e-07	854.58	176.04	1.129e-06	1.0686e-06	218.86	56.331	50.023	14.343	1.0812e-06	20.185	180.956	3.303	21.102	-67.366	127.158	37.287	-67.214	-60.350	68.671	113.422	-60.622	-54.133	-53.260	-46.447	44.573	-47.085	-8191	255	
2235.283	1	1	0	0	0.10358	0.18449	0.10216	0.19434	0.10846	0.10648	0.24742	0.20644	0.013844	0.056518	0.21432	0.1358	0.1139	0.35802	0.26171	0.24299	-2.8167	-3.1813	-3.3438	-3.2146	-3.3104	-3.3937	-3.2958	-3.2875	-3.2333	-2.8646	-3.3229	-2.85	-2.9417	-3.2833	-2.9958	-3.1625	2.810	233.700	211.959	-4.939	114.601	33.862	230.662	89.078	171.660	141.017	223.481	-50.927	190.034	75.890	-67.408	134.075	6.1026e-05	0.00030886	6.9297e-05	813.9	8.0654e-07	3.1635e-06	846.27	173.8	1.1743e-06	1.7411e-06	215.22	52.011	48.896	13.946	1.776e-06	19.492	0.00010761	9.5872e-05	2.2594e-05	816.11	1.2653e-06	1.0137e-06	855.29	176.02	1.0738e-06	1.0352e-06	218.4	56.404	49.985	14.329	1.0594e-06	20.199	170.916	16.326	31.343	-67.255	91.093	74.086	-66.982	-60.203	82.187	82.463	-60.630	-54.655	-53.639	-46.423	79.550	-46.947	-8191	255	
2235.379	1	1	0	0	0.042365	0.091635	0.15368	0.16471	0.15724	0.11683	0.20343	0.25671	0.19781	0.088804	0.24454	0.047606	0.22869	0.23607	0.21212	0.21958	-2.7812	-2.9437	-3.3021	-3.0042	-2.9583	-3.3354	-3.0521	-3.0687	-3.2292	-2.8792	-3.2687	-3.0396	-2.8708	-3.4125	-2.9604	-3.1125	95.398	17.886	194.844	-6.274	244.187	109.669	268.568	270.595	170.997	199.348	276.270	122.783	-32.029	81.584	-45.559	165.787	5.6494e-05	0.00026829	7.1886e-05	808.58	1.0186e-06	1.2737e-06	843.24	172.41	1.5326e-06	2.3334e-06	214.53	51.473	49.564	13.934	8.2889e-07	19.492	0.00010524	8.8888e-05	2.1336e-05	814.38	1.2778e-06	8.5802e-07	854.61	175.96	1.1042e-06	9.5589e-07	218.42	56.112	50.199	14.33	1.0808e-06	20.221	175.065	32.395	9.372	-67.135	100.076	40.609	-67.132	-60.173	58.914	76.330	-60.407	-53.931	-53.994	-46.643	96.966	-46.700	-8191	255	
2235.475	1	1	0	0	0.26645	0.21981	0.14592	0.20095	0.13288	0.25599	0.36307	0.18264	0.11246	0.21522	0.076247	0.11135	0.17704	0.046204	0.15174	0.16304	-2.8104	-2.7479	-3.2396	-3.125	-2.9104	-3.2792	-3.2	-3.1312	-3.4	-2.8146	-3.3563	-3.1521	-3.1208	-3.3875	-2.9521	-2.8708	141.760	130.452	179.326	246.474	135.992	173.549	259.256	124.064	71.077	-49.718	228.275	108.212	21.009	242.408	-16.777	-53.038	5.352e-05	0.00030775	4.8784e-05	810.76	1.1212e-06	2.2774e-06	845.69	174.28	7.8869e-07	2.3658e-06	215.6	51.365	49.177	13.917	1.3134e-06	19.59	0.00010549	8.8967e-05	2.3039e-05	814.41	1.2605e-06	9.3741e-07	854.73	176.31	1.1525e-06	1.053e-06	218.76	56.504	50.098	14.322	1.0854e-06	20.24	169.987	6.712	22.592	-67.338	44.467	106.463	-67.186	-60.468	47.376	54.857	-60.497	-53.931	-54.117	-46.580	77.445	-46.950	-8191	255	
2235.572	1	1	0	0	0.223	0.13449	0.092361	0.20337	0.21217	0.16217	0.27699	0.14924	0.19771	0.16074	0.15178	0.38617	0.16193	0.10826	0.22773	0.20829	-2.9313	-3	-3.3396	-3.35	-2.8937	-3.3896	-3.0271	-2.9042	-3.3042	-2.7875	-3.05	-3.3583	-2.6833	-3.475	-3.3	-2.9854	116.764	63.800	-28.844	151.050	104.179	136.668	208.881	127.988	217.858	-23.004	-67.312	38.799	174.977	10.469	-32.374	84.406	6.4088e-05	0.00024564	6.5246e-05	810.26	1.0231e-06	2.0404e-06	846.32	172.48	1.2208e-06	2.0447e-06	215.44	52.138	48.967	13.956	2.1494e-06	19.719	0.00010654	9.484e-05	2.383e-05	814.09	1.299e-06	9.5346e-07	854.96	175.68	1.1845e-06	1.0174e-06	218.71	56.301	49.991	14.327	1.0291e-06	20.279	178.761	14.117	15.888	-67.298	82.630	86.973	-67.179	-60.083	31.531	67.311	-60.152	-54.567	-53.548	-46.275	94.218	-46.920	-8191	255	
2235.692	1	1	0	0	0.16151	0.19848	0.21386	0.20791	0.051114	0.18404	0.15606	0.28319	0.17703	0.059902	0.097649	0.18077	0.35232	0.2497	0.12707	0.27731	-2.9813	-2.875	-3.2146	-3.4062	-3.0167	-3.2812	-3.25	-3.1354	-3.5187	-3.0646	-3.1583	-3.3563	-3.0167	-3.4708	-3.0833	-2.9938	254.912	250.555	213.624	266.592	155.896	45.748	96.960	224.504	138.699	234.292	128.777	100.949	-13.161	-72.217	102.035	167.707	5.7692e-05	0.00019521	7.1646e-05	808.94	1.0292e-06	2.1856e-06	845.86	172.67	7.6707e-07	2.7006e-06	214.62	51.074	49.395	13.868	1.0742e-06	19.6	0.00010677	9.5197e-05	2.3886e-05	814.57	1.2641e-06	9.6238e-07	853.92	175.82	1.1042e-06	1.0214e-06	218.27	55.867	50.28	14.331	9.4226e-07	20.278	173.094	12.216	19.416	-67.176	86.706	55.930	-67.249	-60.536	71.437	60.543	-60.280	-54.814	-53.899	-46.722	109.442	-46.816	-8191	255	
2235.764	1	1	0	0	0.14285	0.090576	0.32862	0.07499	0.19393	0.1922	0.082585	0.20278	0.06983	0.1203	0.14845	0.11173	0.047239	0.14336	0.090384	0.21752	-3.0729	-2.9646	-3.0417	-3.1833	-2.8167	-3.0958	-3.2438	-3.0271	-3.3438	-2.8937	-3.1437	-3.1792	-3.1125	-3.1875	-3.3771	-2.9354	190.468	23.678	150.236	275.392	246.354	248.984	0.793	235.954	254.306	251.627	49.900	28.224	-16.598	-18.242	-50.278	-6.824	6.1958e-05	0.00025106	8.6105e-05	810.25	1.3515e-06	1.8673e-06	843.68	173.86	7.9128e-07	1.4494e-06	216.53	52.464	48.868	13.928	9.7963e-07	19.562	0.00010061	9.2499e-05	2.7315e-05	815.11	1.3078e-06	8.8166e-07	854.11	176	1.1363e-06	9.6079e-07	219.03	56.468	50.053	14.313	1.0287e-06	20.264	173.310	20.023	3.840	-67.323	116.198	110.048	-67.147	-60.156	113.762	104.424	-60.484	-53.221	-53.656	-46.514	45.148	-46.922	-8191	255	
2235.860	1	1	0	0	0.29139	0.15089	0.17756	0.21219	0.39426	0.20826	0.16898	0.2147	0.052345	0.13866	0.163	0.15007	0.24184	0.27375	0.070674	0.23647	-2.8604	-3.0521	-3.0687	-3.4854	-2.8625	-3.3187	-3.3688	-2.7792	-3.4229	-2.9604	-3.0604	-3.5479	-2.9688	-3.1375	-3.2375	-3.0062	276.631	67.700	245.382	227.791	44.011	-70.079	162.095	237.180	231.903	52.522	107.061	56.752	95.152	-49.872	271.604	270.381	5.4565e-05	0.00014464	7.1203e-05	811.24	3.2301e-07	2.5399e-06	847.3	172.9	6.0156e-07	2.404e-06	214.89	52.096	49.188	13.902	1.2011e-06	19.513	0.00010249	9.1864e-05	2.56e-05	814.78	1.2762e-06	9.4142e-07	856.7	175.97	1.1006e-06	9.4921e-07	218.98	56.526	50.072	14.313	1.056e-06	20.216	179.385	3.905	16.739	-67.468	24.983	62.417	-67.064	-60.524	33.034	86.287	-60.397	-53.643	-53.616	-46.742	114.777	-46.924	-8191	255	
2235.981	1	1	0	0	0.10417	0.10346	0.092754	0.046133	0.059139	0.16045	0.17887	0.21905	0.066469	0.072696	0.24858	0.13415	0.1425	0.19204	0.17275	0.10686	-2.8375	-3.0896	-3.1354	-3.5187	-3.1771	-3.1396	-3.3417	-2.8521	-3.4542	-3.2167	-3.0771	-3.425	-3.1417	-3.1312	-3.4146	-2.9167	219.483	179.303	232.310	176.805	67.692	-62.043	220.248	276.725	213.969	202.442	93.742	78.361	203.336	-75.526	186.042	58.328	6.3826e-05	0.00019502	4.5886e-05	812.24	8.9368e-07	2.634e-06	846.64	173.07	9.9872e-07	2.1621e-06	215.64	52.323	49.049	13.863	1.6657e-06	19.685	0.00010184	8.7181e-05	2.7404e-05	815.45	1.2557e-06	1.0016e-06	855.91	176.08	1.1642e-06	9.3673e-07	219.28	56.311	50.119	14.319	1.0799e-06	20.233	176.003	4.637	12.724	-67.356	71.230	69.087	-67.258	-59.928	37.535	66.320	-60.479	-53.486	-53.428	-46.855	67.793	-47.119	-8191	255	
2236.075	1	1	0	0	0.16253	0.10884	0.058405	0.14415	0.12006	0.1994	0.20449	0.091466	0.12634	0.13801	0.14023	0.14054	0.1299	0.061803	0.044406	0.1395	-3.0083	-3.1854	-2.9292	-3.4958	-3.1417	-3.3167	-3.5438	-3.0292	-3.3833	-3.3667	-3.0021	-3.3042	-3.2354	-3.2083	-3.6417	-3.1646	-15.398	145.611	79.859	215.167	236.632	165.778	180.036	248.169	-77.667	251.897	194.319	-12.735	-25.988	-67.326	181.943	46.114	6.9452e-05	0.00025444	5.4073e-05	811.45	1.1647e-06	2.7128e-06	848.5	173.56	7.8413e-07	2.0255e-06	215.93	52.086	49.334	13.855	1.3623e-06	19.58	0.00010821	8.2539e-05	2.442e-05	814.75	1.2369e-06	1.0101e-06	856.77	176.35	1.1087e-06	8.0221e-07	219.09	56.412	50.299	14.296	9.8591e-07	20.237	187.893	2.182	28.142	-67.375	50.808	91.481	-67.231	-60.428	90.734	70.561	-60.298	-54.223	-53.351	-46.551	75.425	-46.603	-8191	255	
2236.171	1	1	0	0	0.16048	0.18498	0.24372	0.18778	0.32762	0.20031	0.059673	0.16355	0.13484	0.06822	0.20203	0.10884	0.16138	0.19791	0.19238	0.24094	-2.8792	-3.1375	-2.9521	-3.3896	-3.2354	-3.1104	-3.5542	-3.1083	-3.2083	-3.1958	-2.9729	-3.3521	-3.2021	-3.1229	-3.3646	-3.0208	103.109	196.572	103.545	160.904	57.390	-53.381	219.772	235.662	4.521	200.141	220.364	169.985	25.975	-62.314	232.351	87.232	6.6589e-05	0.00023915	3.8185e-05	813.13	8.0831e-07	2.844e-06	847.08	173.56	1.2234e-06	2.5069e-06	216.09	51.559	48.859	13.936	8.8446e-07	19.701	0.00010793	9.1904e-05	2.7171e-05	815.41	1.1604e-06	9.8691e-07	856.6	176.28	1.208e-06	8.2137e-07	218.89	56.5	50.137	14.352	8.9484e-07	20.26	174.988	23.493	26.847	-67.380	117.738	78.383	-67.325	-60.385	60.933	113.617	-60.895	-54.309	-53.351	-46.559	79.250	-47.062	-8191	255	
2236.267	1	1	0	0	0.1193	0.075214	0.14984	0.1709	0.06728	0.24626	0.25698	0.10399	0.17718	0.15893	0.14661	0.038522	0.21438	0.18868	0.24999	0.11588	-2.6604	-3.2083	-2.9229	-3.4604	-3.2896	-3.125	-3.6625	-3.2271	-3.275	-3.5271	-2.9979	-3.3583	-3.2104	-2.9188	-3.3458	-3.275	63.320	176.238	166.737	64.488	218.819	-74.838	-70.554	160.663	-36.889	121.421	259.416	56.335	-61.340	49.319	-67.845	231.886	5.4187e-05	0.0001527	3.3564e-05	813.15	1.6014e-06	1.5418e-06	848.09	172.54	1.0352e-06	1.7587e-06	215.96	51.736	49.007	13.864	1.3368e-06	19.644	0.00010791	8.1427e-05	2.4943e-05	816.12	1.1507e-06	9.9627e-07	856.49	176.23	1.1809e-06	8.2003e-07	219.36	56.359	50.111	14.299	9.7962e-07	20.271	179.290	20.370	18.502	-67.161	80.962	80.462	-67.221	-60.365	23.959	83.421	-60.579	-54.730	-53.396	-46.075	49.963	-46.555	-8191	255	
2236.364	1	1	0	0	0.060263	0.1142	0.14655	0.14518	0.084807	0.25018	0.15353	0.15858	0.21345	0.058342	0.18078	0.16514	0.22994	0.29191	0.32565	0.20198	-2.675	-3.4104	-2.9688	-3.2271	-3.2667	-2.975	-3.3771	-3.2292	-3.1417	-3.5583	-2.9396	-3.4104	-3.3625	-2.9896	-3.2896	-3.0917	64.924	150.687	277.006	-40.434	41.146	211.997	198.991	141.708	85.977	138.906	216.070	1.111	178.482	71.148	167.228	185.350	5.2273e-05	0.00027398	4.9985e-05	813.27	1.198e-06	2.2622e-06	846.89	173.67	4.1371e-07	2.2815e-06	214.61	51.664	49.522	13.816	1.9995e-06	19.781	0.00010777	8.1983e-05	2.6603e-05	815.39	1.2465e-06	1.0279e-06	855.95	176.33	1.208e-06	9.0244e-07	218.69	56.374	50.279	14.313	1.0191e-06	20.277	171.581	-2.679	1.249	-67.603	87.458	80.920	-67.106	-60.160	38.193	77.804	-60.474	-53.674	-53.320	-46.755	38.424	-46.982	-8191	255	
2236.460	1	1	0	0	0.29156	0.18962	0.1225	0.20099	0.12964	0.21662	0.12154	0.19876	0.31458	0.18648	0.054267	0.18485	0.25554	0.092236	0.02822	0.084386	-2.6729	-3.3833	-2.95	-3.2833	-3.2062	-2.85	-3.5125	-3.2125	-3.1646	-3.4625	-3.1417	-3.0167	-3.3958	-2.8542	-3.1917	-3.3021	118.256	160.696	-16.773	168.648	107.769	200.072	55.538	44.808	49.593	127.520	7.522	167.452	-41.940	184.471	188.471	32.760	6.4007e-05	0.0002653	2.802e-05	813.74	5.4652e-07	1.5501e-06	850.02	173.84	9.7375e-07	2.1095e-06	215.61	51.986	49.577	13.893	2.1638e-06	19.576	0.00010638	8.7658e-05	2.4587e-05	815.37	1.2461e-06	9.8824e-07	856.94	176.39	1.0973e-06	8.7927e-07	218.7	56.775	50.282	14.348	8.9567e-07	20.3	175.875	23.839	26.063	-67.080	59.977	81.398	-67.115	-60.371	54.687	37.150	-60.593	-53.773	-53.509	-46.447	64.612	-46.865	-8191	255	
2236.580	1	1	0	0	0.14739	0.16633	0.20032	0.15309	0.18905	0.11275	0.054615	0.29655	0.11963	0.17144	0.24549	0.087612	0.24348	0.013054	0.18427	0.11846	-2.5187	-3.3354	-2.9021	-3.275	-3.375	-3.0521	-3.4021	-3.5146	-3.1104	-3.4458	-3.1229	-2.9396	-3.3417	-2.9104	-3.2521	-3.3896	-52.432	215.907	273.774	-73.725	193.527	-58.196	72.122	26.628	217.192	250.386	168.220	-78.264	69.109	-36.697	265.898	259.854	5.8302e-05	0.00010769	3.7234e-05	813.04	4.603e-07	1.3263e-06	847.83	173.51	4.8443e-07	3.1973e-06	215.22	51.603	49.237	13.985	1.3873e-06	19.715	0.00010966	8.73e-05	2.6892e-05	816.51	1.2157e-06	9.053e-07	856.3	176.45	1.1699e-06	9.2916e-07	218.76	56.323	50.205	14.388	1.0526e-06	20.227	182.811	25.044	15.583	-67.344	56.609	97.299	-67.129	-60.455	67.029	118.363	-60.693	-54.498	-53.469	-46.118	67.878	-46.909	-8191	255	
2236.676	1	1	0	0	0.19876	0.10877	0.1443	0.11992	0.35705	0.27286	0.18431	0.1273	0.14489	0.14964	0.35404	0.090952	0.051222	0.071743	0.13235	0.28017	-2.5854	-3.2938	-3.1188	-3.2	-3.325	-3.0312	-3.3812	-3.1063	-2.9854	-3.4396	-3.1333	-3.0021	-3.5104	-3.1542	-3.1688	-3.1729	19.974	-13.851	245.379	232.230	162.724	180.211	243.367	-32.531	46.351	206.080	270.732	-23.517	3.460	-6.036	-1.779	-22.076	6.6249e-05	0.00018326	9.9925e-05	815.85	1.4781e-06	2.5093e-06	846.39	172.51	6.8195e-07	2.4936e-06	216.45	52.004	49.354	14.017	2.429e-06	19.744	0.00010552	8.242e-05	2.4498e-05	817.88	1.1271e-06	1.0061e-06	855.29	176.15	1.2887e-06	9.2426e-07	219.18	56.946	50.318	14.358	1.0367e-06	20.313	182.676	-15.379	19.580	-67.119	84.470	61.491	-67.030	-60.197	39.714	92.809	-60.486	-54.495	-53.685	-46.809	81.361	-47.386	-8191	255	
2236.773	1	1	0	0	0.11335	0.18954	0.22428	0.096661	0.20294	0.067318	0.28474	0.20534	0.29593	0.030835	0.20529	0.15668	0.24997	0.13823	0.032607	0.055607	-2.3625	-3.3333	-3.0687	-3.0542	-3.3667	-3.1312	-3.3729	-3.325	-2.9604	-3.3292	-3.3167	-3.0042	-3.3521	-3.0812	-3.2208	-3.4229	100.028	-71.790	26.748	-61.129	187.762	-15.292	216.882	63.837	8.672	190.498	278.456	-8.712	257.207	184.723	37.202	220.388	4.969e-05	9.2845e-05	5.4975e-05	814.85	1.1812e-06	1.162e-06	849.62	173.98	1.7264e-06	2.9316e-06	215.19	51.811	48.909	13.978	1.0983e-06	19.661	0.00011182	8.6031e-05	2.5968e-05	817.58	1.1427e-06	1.0016e-06	857.66	176.16	1.279e-06	9.4119e-07	219.24	56.69	50.252	14.373	1.0035e-06	20.336	179.123	19.157	0.123	-67.178	84.617	65.962	-67.072	-60.615	96.276	80.380	-60.517	-53.560	-53.406	-46.560	104.491	-47.106	-8191	255	
2236.869	1	1	0	0	0.26067	0.076345	0.38188	0.084266	0.26048	0.24236	0.2433	0.22868	0.42102	0.1379	0.24805	0.26015	0.15633	0.086393	0.29803	0.042264	-2.6417	-3.4313	-3.0271	-3.0167	-3.4167	-3.125	-3.0479	-3.4667	-3.0708	-3.2958	-3.2875	-2.7958	-3.3604	-2.95	-2.9354	-3.4313	101.640	247.310	-10.470	102.102	-29.267	-7.636	200.019	188.184	109.794	237.680	204.621	50.394	141.263	143.195	171.891	139.851	6.2878e-05	0.00018634	5.8759e-05	815.43	1.3296e-06	3.0584e-06	851.45	173.12	1.1324e-06	7.8078e-07	215.98	51.606	49.005	14.022	1.0154e-06	19.713	0.00010719	8.4007e-05	2.2828e-05	818.88	1.1612e-06	1.0311e-06	858.87	176.26	1.1715e-06	9.541e-07	219.21	56.419	50.27	14.388	1.0644e-06	20.287	174.875	22.881	5.176	-67.374	119.693	66.938	-67.240	-60.427	54.366	101.125	-60.525	-53.590	-53.522	-46.640	70.538	-46.705	-8191	255	
2236.988	1	1	0	0	0.12481	0.12153	0.093983	0.090567	0.10273	0.28508	0.20022	0.12423	0.15172	0.15099	0.14485	0.071044	0.13659	0.039732	0.12099	0.062794	-2.5812	-3.0479	-3.2896	-2.9896	-3.3583	-3.2771	-3.1667	-3.2646	-3.1	-3.2042	-3.4604	-2.9458	-3.3083	-3.0625	-2.9813	-3.3583	75.526	-44.031	-67.511	242.157	37.201	169.025	159.483	-44.284	174.786	141.433	-8.060	144.775	238.090	-62.222	183.591	153.835	7.0713e-05	0.00016928	3.9421e-05	816.61	1.4752e-06	2.3847e-06	848.7	174.27	1.2764e-06	2.0869e-06	215.7	51.63	49.615	13.897	1.7472e-06	19.838	0.00010954	8.2777e-05	2.314e-05	818.06	1.1223e-06	9.7576e-07	859.04	176.42	1.1634e-06	9.256e-07	219.62	56.594	50.371	14.362	1.0149e-06	20.374	178.946	3.614	26.694	-67.321	74.929	79.455	-67.084	-60.381	31.284	94.205	-60.428	-53.763	-53.903	-46.570	106.653	-46.726	-8191	255	
2237.059	1	1	0	0	0.099946	0.16676	0.15718	0.10231	0.18403	0.19237	0.19513	0.22304	0.094957	0.32237	0.09723	0.12727	0.057834	0.0042083	0.37755	0.21379	-2.5646	-3.2646	-3.4062	-3.0417	-3.2687	-3.3021	-3.0229	-3.3771	-3.025	-3.2417	-3.4208	-2.8688	-3.3812	-3.3	-2.9437	-3.3167	-25.990	121.866	156.867	185.460	-44.584	145.590	220.106	242.525	206.331	253.163	202.867	276.581	273.694	37.545	199.522	107.678	5.7075e-05	0.00017345	7.1923e-05	814.56	1.2635e-06	1.7834e-06	852.26	173.73	6.9021e-07	2.3066e-06	217.27	51.106	49.409	13.886	1.231e-06	19.599	0.00010877	9.0991e-05	2.4086e-05	817.62	1.1704e-06	9.2224e-07	859.81	176.43	1.1768e-06	8.9843e-07	219.84	56.598	50.241	14.315	1.0598e-06	20.289	183.818	6.879	14.600	-67.336	62.116	74.569	-66.947	-60.417	110.592	92.839	-60.536	-54.136	-53.617	-46.199	91.770	-46.661	-8191	255	
2237.155	1	1	0	0	0.17167	0.23847	0.14698	0.12863	0.17075	0.33304	0.11216	0.073514	0.26429	0.15713	0.15082	0.032526	0.18616	0.026931	0.051978	0.11344	-2.6208	-3.1021	-3.3625	-3.1833	-3.2083	-3.2896	-3.0771	-3.475	-3.2062	-3.0583	-3.4625	-2.8583	-3.1521	-3.2792	-2.9583	-3.4458	63.396	167.629	-28.789	219.452	168.295	174.772	218.432	86.357	193.910	14.102	4.938	106.177	265.778	111.929	212.872	130.072	5.4253e-05	0.00024499	3.2015e-05	813.83	1.4726e-06	2.1066e-06	855.77	174.22	9.9367e-07	1.3548e-06	216.41	51.362	49.071	14	1.7704e-06	19.744	0.00010898	8.9602e-05	2.4342e-05	817.96	1.2557e-06	8.5847e-07	859.71	176.76	1.1545e-06	1.0735e-06	219.4	56.034	50.113	14.39	1.082e-06	20.39	174.428	20.266	-6.871	-67.323	76.625	110.964	-67.304	-60.263	14.053	93.001	-60.237	-54.338	-53.438	-46.721	95.305	-46.808	-8191	255	
2237.252	1	1	0	0	0.17115	0.14166	0.13731	0.061329	0.10543	0.10552	0.25084	0.37025	0.13947	0.16009	0.20779	0.14456	0.17959	0.11453	0.26407	0.19475	-2.7729	-3.0187	-3.2313	-3.0417	-3.2521	-3.4333	-3.2646	-3.2729	-3.175	-3.1146	-3.3604	-3.0208	-3.0812	-3.3667	-3.0062	-3.375	267.910	-57.909	-61.476	133.940	206.774	197.948	206.527	260.466	-37.511	257.400	192.680	213.034	-63.066	109.305	183.294	-0.058	5.8688e-05	0.00030232	4.6317e-05	816.38	4.3935e-07	2.6358e-06	850.62	173.5	8.8478e-07	1.9914e-06	216.97	51.909	49.53	13.989	1.7871e-06	19.667	0.00010824	8.8491e-05	2.5411e-05	818.55	1.275e-06	9.8245e-07	858.69	176.62	1.0807e-06	1.0334e-06	219.74	56.248	50.32	14.351	1.0812e-06	20.375	168.708	25.387	28.429	-67.431	41.788	95.730	-67.262	-60.520	-16.476	81.828	-60.712	-53.900	-53.446	-46.449	62.883	-47.210	-8191	255	
2237.348	1	1	0	0	0.15249	0.086593	0.1379	0.33188	0.095681	0.096312	0.24942	0.15537	0.19919	0.18726	0.15568	0.058363	0.16913	0.23333	0.20857	0.043815	-2.8375	-3.1708	-3.3979	-3.1688	-3.2333	-3.4021	-3.1063	-3.1688	-3.2854	-3.0292	-3.3604	-3.0812	-3.0042	-3.3375	-2.95	-3.3458	268.485	266.153	191.299	266.189	-69.953	250.353	206.699	233.110	171.508	121.390	215.625	127.012	198.543	207.079	174.132	-45.348	6.4865e-05	0.00011228	9.8347e-05	817.94	9.0134e-07	2.4967e-06	849.65	172.92	1.1639e-06	2.4044e-06	216.29	52.061	49.298	13.954	2.6084e-06	19.734	0.00010728	9.5554e-05	2.4387e-05	818.18	1.2137e-06	8.879e-07	858.52	176.25	1.0876e-06	8.8284e-07	219.91	56.496	50.274	14.375	1.1509e-06	20.311	169.039	-2.259	31.493	-67.472	78.886	93.857	-67.355	-60.532	88.427	61.700	-60.338	-53.272	-53.685	-46.809	79.731	-47.146	-8191	255	
2237.468	1	1	0	0	0.21471	0.088025	0.071945	0.19432	0.18419	0.051627	0.26647	0.1842	0.22141	0.14512	0.10754	0.21875	0.086348	0.11459	0.053638	0.39902	-2.825	-2.8771	-3.3563	-3.2667	-3.0896	-3.4917	-3.15	-3.2812	-3.3979	-2.8937	-3.4625	-3.0021	-2.8771	-3.5938	-3.15	-3.0479	62.562	92.517	134.764	185.445	155.344	211.652	20.884	232.321	-72.967	253.931	-51.741	-2.962	123.660	252.537	67.273	261.849	6.1458e-05	0.00024691	5.6657e-05	815.45	1.125e-06	3.3109e-06	846.04	173.87	6.9483e-07	1.1784e-06	215.43	51.365	49.136	13.938	2.4331e-06	19.836	0.00010117	0.00010274	2.1358e-05	818.31	1.2205e-06	8.9415e-07	857.28	176.54	1.1724e-06	9.786e-07	219.64	56.475	50.188	14.366	1.1009e-06	20.379	172.189	6.217	9.769	-67.033	40.654	48.317	-67.192	-60.343	82.330	66.768	-60.513	-54.576	-53.434	-46.683	54.319	-47.295	-8191	255	
2237.565	1	1	0	0	0.18977	0.26927	0.024628	0.1649	0.15539	0.22443	0.13397	0.050745	0.13715	0.027485	0.025657	0.25205	0.22082	0.084472	0.24841	0.11932	-2.9062	-3.025	-3.225	-3.1854	-3.0042	-3.3375	-3.1917	-3.0354	-3.3292	-3.0771	-3.3542	-3.0417	-3.0521	-3.2792	-3.0792	-3.1667	158.706	207.497	266.460	215.173	0.746	138.970	191.638	264.605	41.817	95.246	124.940	-37.735	258.850	-10.187	10.194	270.836	6.3725e-05	0.00028	8.5015e-05	817.13	5.951e-07	1.9609e-06	852.41	173.76	1.8268e-06	2.2198e-06	216.81	51.913	49.222	13.886	1.8095e-06	19.767	0.00010226	9.2856e-05	2.5066e-05	819.1	1.2822e-06	8.7631e-07	860.68	177.05	1.041e-06	9.884e-07	219.74	56.579	50.299	14.332	9.5569e-07	20.295	182.678	22.767	12.471	-67.353	180.612	67.913	-67.121	-59.926	81.842	68.910	-60.473	-54.488	-53.740	-46.372	83.595	-46.888	-8191	255	
2237.661	1	1	0	0	0.27223	0.08501	0.13114	0.049468	0.085105	0.079957	0.092227	0.071346	0.12928	0.047294	0.18057	0.2193	0.24024	0.13903	0.03478	0.12081	-3.0771	-2.9479	-3.0792	-3.3604	-2.8667	-3.3208	-3.1542	-3.0146	-3.2417	-2.9813	-3.1583	-3.1958	-2.8583	-3.2062	-3.1875	-2.9313	116.871	-51.241	131.836	173.099	255.758	135.686	-22.964	140.215	266.580	173.690	189.823	69.829	70.327	203.749	165.244	16.036	4.2522e-05	0.00018682	6.6623e-05	815.12	8.662e-07	1.8674e-06	855.05	173.75	8.0117e-07	2.0962e-06	214.11	52.387	49.123	13.864	1.509e-06	19.72	9.9238e-05	8.734e-05	2.4197e-05	818.63	1.2786e-06	8.8657e-07	860.83	176.91	1.1411e-06	1.073e-06	219.04	56.628	50.327	14.348	1.0451e-06	20.382	164.242	5.243	26.058	-67.369	81.308	79.134	-67.164	-60.104	77.384	55.306	-60.729	-53.544	-53.657	-46.588	56.610	-47.018	-8191	255	
2237.757	1	1	0	0	0.031309	0.2605	0.1576	0.1156	0.060294	0.33358	0.14238	0.28781	0.19217	0.12499	0.13023	0.15451	0.14195	0.19593	0.090827	0.17402	-2.925	-2.9771	-3.1083	-3.5354	-2.8771	-3.1896	-3.1229	-2.9646	-3.3312	-3.2771	-3.0479	-3.3875	-2.8417	-3.4062	-3.0854	-3.0354	142.479	90.231	213.885	149.265	93.369	-18.441	-42.370	-12.842	148.611	172.356	-29.213	207.035	88.656	-71.321	177.110	180.852	6.15e-05	0.00021508	6.4548e-05	812.55	8.8082e-07	1.3249e-06	854.58	173.87	7.2942e-07	2.8468e-06	216.59	52.117	49.02	13.947	1.376e-06	19.708	0.00010473	9.8927e-05	2.3919e-05	818.26	1.2629e-06	9.5391e-07	859.86	176.58	1.0998e-06	1.0713e-06	219.89	56.489	50.253	14.403	1.0363e-06	20.353	175.816	24.657	18.912	-67.432	106.829	40.906	-67.200	-60.295	60.337	84.217	-60.437	-54.005	-53.743	-46.644	74.913	-47.042	-8191	255	
2237.853	1	1	0	0	0.17765	0.16031	0.30258	0.092307	0.1421	0.050323	0.086879	0.13968	0.092849	0.049617	0.042043	0.24569	0.18194	0.10691	0.052861	0.12329	-2.9875	-2.9792	-3.2146	-3.475	-2.8521	-3.1875	-3.2458	-3.0229	-3.3521	-3.1042	-3.075	-3.2687	-2.8417	-3.2229	-3.3563	-2.8792	2.650	35.144	-55.751	-29.658	98.384	54.171	216.571	153.625	159.218	77.784	200.451	24.385	244.675	204.152	-32.259	259.703	5.4792e-05	0.00020863	6.546e-05	816.86	1.1844e-06	1.6872e-06	852.82	173.75	2.2521e-06	1.3027e-06	217.21	52.552	49.455	13.973	9.2329e-07	19.919	0.00010645	8.2539e-05	2.3964e-05	821.09	1.2573e-06	9.5123e-07	861.75	176.66	1.0539e-06	9.4653e-07	220.25	56.62	50.341	14.383	1.009e-06	20.407	177.252	32.570	28.062	-67.213	119.902	105.406	-67.270	-60.240	52.576	51.427	-60.495	-53.429	-53.988	-46.478	94.705	-47.314	-8191	255	
2237.949	1	1	0	0	0.14758	0.089297	0.27362	0.038587	0.17584	0.22361	0.17246	0.11111	0.21191	0.06936	0.095091	0.12456	0.24047	0.20387	0.331	0.19126	-2.975	-3.1646	-3.0312	-3.5479	-2.9938	-3.2729	-3.6625	-2.9604	-3.4729	-3.2521	-2.9792	-3.4062	-2.9125	-3.0958	-3.3438	-3.0604	191.065	-58.959	279.015	101.346	49.862	147.670	227.734	194.468	148.283	117.373	73.151	190.372	32.165	62.863	248.960	-60.155	5.0508e-05	0.00025065	6.048e-05	819.14	1.5553e-06	2.727e-06	853	174.07	9.6958e-07	1.4659e-06	216.68	51.918	49.437	13.984	1.7719e-06	19.742	0.0001021	9.3134e-05	2.4498e-05	820.3	1.1948e-06	9.1778e-07	861.44	177.23	1.0345e-06	1.0151e-06	219.84	56.587	50.507	14.368	9.1204e-07	20.417	170.990	-28.682	45.356	-67.264	179.037	57.059	-67.264	-60.584	82.359	76.888	-60.514	-53.918	-53.808	-46.685	69.597	-46.870	-8191	255	
2238.070	1	1	0	0	0.18268	0.27865	0.33576	0.13947	0.34936	0.18748	0.29081	0.22506	0.17639	0.062689	0.20856	0.20896	0.0895	0.13192	0.11312	0.054772	-2.7875	-3.0312	-2.8438	-3.5042	-3.0833	-3.1979	-3.3333	-2.9	-3.4521	-3.2125	-3.0125	-3.325	-3.0792	-3.0687	-3.4271	-3.0375	195.028	44.628	32.477	113.578	29.726	177.707	171.920	233.944	-67.021	31.439	232.564	110.547	277.320	224.993	7.328	246.357	4.6759e-05	0.00024589	5.1291e-05	820.78	1.3546e-06	2.6105e-06	852.79	174.51	5.304e-07	2.3555e-06	217.04	50.786	49.555	13.913	1.6244e-06	19.77	0.00010714	9.2261e-05	2.3975e-05	822.09	1.2056e-06	9.5926e-07	860.96	177.02	1.1099e-06	9.1713e-07	220.25	56.399	50.466	14.38	1.0715e-06	20.357	172.049	15.419	18.709	-67.318	70.583	76.490	-67.202	-60.158	23.692	107.106	-60.565	-53.981	-53.428	-46.569	67.117	-46.843	-8191	255	
2238.164	1	1	0	0	0.17271	0.16828	0.073102	0.19425	0.0956	0.077548	0.22824	0.29888	0.22914	0.11047	0.073751	0.25431	0.095163	0.30117	0.17876	0.20153	-2.7354	-3.3937	-2.9292	-3.3958	-3.025	-2.9604	-3.3875	-3.0812	-3.4604	-3.3229	-3.0125	-3.2854	-3.3063	-3.0083	-3.4854	-2.9083	-24.567	-68.227	58.422	-49.611	-22.956	276.075	177.978	186.356	268.974	91.139	106.270	123.383	44.555	-45.027	-39.887	66.364	5.7551e-05	0.00018428	6.0881e-05	817.08	8.5029e-07	2.8424e-06	856.37	173.48	5.907e-07	1.7005e-06	217.6	52.36	49.511	13.974	1.3569e-06	19.68	0.00010466	8.8412e-05	2.5211e-05	821.05	1.2297e-06	9.2804e-07	862.65	176.89	1.1346e-06	8.864e-07	219.8	56.895	50.388	14.392	9.6577e-07	20.37	184.011	-3.585	13.173	-67.574	65.418	79.940	-67.426	-60.344	75.844	73.222	-60.642	-54.822	-53.345	-46.584	72.156	-47.076	-8191	255	
2238.260	1	1	0	0	0.16673	0.22498	0.15538	0.41119	0.28246	0.23238	0.22133	0.23255	0.081683	0.22469	0.20263	0.11221	0.25496	0.12919	0.1066	0.28729	-2.8042	-3.2833	-2.8708	-3.3792	-3.1542	-2.9646	-3.3937	-3.075	-3.1958	-3.4333	-3.0812	-3.2917	-3.2062	-2.8125	-3.3104	-3.1167	-58.219	200.461	-23.695	-56.551	227.819	93.024	-63.197	259.521	97.266	61.824	276.105	226.057	-47.053	220.404	27.515	-5.215	5.3377e-05	0.00028856	7.0407e-05	819.39	8.7942e-07	2.6433e-06	854.58	174.47	5.5817e-07	3.0461e-06	217.94	51.824	49.52	14.009	8.9964e-07	19.65	0.0001027	8.5197e-05	2.3763e-05	822.57	1.1788e-06	1.0551e-06	861.53	177.19	1.1598e-06	9.452e-07	220.57	56.765	50.461	14.41	9.473e-07	20.356	179.304	36.900	39.998	-67.501	108.228	81.137	-67.086	-60.521	96.557	90.490	-60.410	-54.617	-53.487	-46.694	82.091	-46.895	-8191	255	
2238.356	1	1	0	0	0.064716	0.11074	0.19062	0.050472	0.20204	0.039516	0.28874	0.088766	0.089566	0.16021	0.43376	0.11894	0.13588	0.18486	0.036921	0.16599	-2.8104	-3.2083	-2.9729	-3.3771	-3.2792	-3.0729	-3.7396	-3.2083	-3.1271	-3.5062	-2.9938	-3.3271	-3.3979	-2.8792	-3.4583	-3.0438	131.706	254.184	246.978	166.820	-5.037	232.501	266.765	169.520	158.204	148.392	43.711	68.132	64.235	252.203	21.552	18.692	6.8292e-05	0.00019248	9.5986e-05	821.39	8.5295e-07	2.0891e-06	856.61	174.98	1.6601e-07	1.2789e-06	216.53	52.053	49.062	14.073	9.6113e-07	19.795	0.00011333	8.2737e-05	2.7727e-05	823.14	1.2529e-06	1.0859e-06	864.32	177.35	1.12e-06	8.8195e-07	220.24	56.929	50.27	14.427	9.8759e-07	20.448	176.325	8.697	24.241	-67.298	47.128	58.032	-67.240	-60.257	122.575	62.889	-60.550	-54.675	-53.271	-46.384	61.893	-46.825	-8191	255	
2238.453	1	1	0	0	0.12419	0.22242	0.17304	0.023377	0.075247	0.054288	0.22188	0.067876	0.29048	0.15147	0.14216	0.15392	0.093292	0.14593	0.065332	0.067708	-2.5354	-3.1458	-3.0542	-3.2396	-3.2792	-3.0438	-3.5	-3.1937	-3.0062	-3.375	-2.9896	-3.0938	-3.3146	-2.8229	-3.3812	-3.2938	-35.230	209.470	248.598	-60.504	65.470	80.469	260.100	40.867	126.519	90.313	-10.874	239.627	1.508	142.765	189.511	-9.363	5.309e-05	0.00030025	6.9181e-05	822.16	1.5153e-06	1.9476e-06	855.37	175.41	8.7758e-07	3.2582e-06	217.21	51.747	49.295	14.006	1.3563e-06	19.807	0.00011421	8.4364e-05	2.4242e-05	823.58	1.1371e-06	1.0079e-06	864.06	177.68	1.1598e-06	9.0021e-07	220.48	56.555	50.501	14.399	1.0287e-06	20.378	178.121	21.089	1.682	-67.253	145.694	63.910	-67.346	-60.620	71.264	71.156	-60.833	-53.841	-53.586	-46.590	111.104	-47.096	-8191	255	
2238.549	1	1	0	0	0.049207	0.032145	0.12736	0.062085	0.065228	0.05988	0.034758	0.20387	0.11298	0.11282	0.068345	0.081118	0.21123	0.050611	0.066852	0.1478	-2.5312	-3.4396	-2.9521	-3.2188	-3.3708	-2.9833	-3.5354	-3.2854	-2.9833	-3.5521	-3.1583	-3.0687	-3.3646	-2.8208	-3.1312	-3.1063	126.505	-67.592	162.235	180.058	52.891	151.011	-65.496	-73.741	-47.385	-14.229	208.233	188.216	238.644	-48.887	266.119	269.188	5.8038e-05	0.00014037	6.3608e-05	818.25	4.6083e-07	3.2828e-06	855.01	175.05	1.1456e-06	2.9949e-06	216.26	51.699	49.33	14.041	1.4838e-06	19.731	0.00011342	7.8015e-05	2.5088e-05	822.91	1.0814e-06	1.0846e-06	863.19	177.78	1.161e-06	8.4765e-07	220.32	56.591	50.47	14.444	9.7794e-07	20.47	182.580	31.146	-0.045	-67.293	11.591	83.197	-66.962	-60.261	16.825	60.389	-60.573	-54.310	-54.016	-46.724	64.466	-46.948	-8191	255	
2238.645	1	1	0	0	0.18669	0.23671	0.24933	0.15784	0.084842	0.16974	0.29326	0.15727	0.15487	0.11821	0.21752	0.24006	0.15444	0.12624	0.013618	0.15424	-2.4938	-3.3542	-3.0771	-3.1208	-3.4313	-2.9896	-3.3396	-3.2562	-2.9354	-3.5333	-3.2396	-2.9562	-3.4625	-2.9667	-3.2958	-3.4708	40.942	222.324	160.154	197.541	251.384	201.600	191.619	-56.404	96.382	178.234	255.484	-29.324	173.056	1.091	80.038	82.796	5.538e-05	0.00015124	9.8799e-05	821.5	1.6018e-06	2.4484e-06	859.42	173.78	8.8862e-07	2.6867e-06	216.97	52.025	49.363	14.032	9.8254e-07	19.696	0.0001034	8.1269e-05	2.3095e-05	823.17	1.1748e-06	1.0074e-06	864.24	176.84	1.1638e-06	8.8195e-07	220.34	56.831	50.485	14.411	1.0119e-06	20.378	178.752	1.013	22.162	-67.398	63.906	71.415	-67.204	-60.344	71.114	66.219	-60.715	-53.407	-53.179	-46.357	68.876	-47.191	-8191	255	
2238.766	1	1	0	0	0.44889	0.10811	0.24153	0.25986	0.16631	0.15481	0.17029	0.14699	0.16476	0.10179	0.148	0.1532	0.087633	0.14045	0.19789	0.25465	-2.375	-3.3	-3.2917	-3.0812	-3.4562	-2.9979	-3.1896	-3.4583	-2.8937	-3.1958	-3.05	-2.9458	-3.3563	-3.0146	-3.1417	-3.2938	177.991	169.055	196.631	243.227	127.997	188.457	279.036	-49.055	13.853	-12.901	37.450	122.919	117.957	142.871	-55.207	-0.678	6.4091e-05	0.00027198	5.1037e-05	817.36	1.169e-06	1.6337e-06	856.91	173.65	1.0549e-06	2.9395e-06	217.47	52.597	49.301	13.907	1.4534e-06	19.717	0.00011105	8.0356e-05	2.3418e-05	821.36	1.2197e-06	1.0043e-06	864.02	177.07	1.2028e-06	9.2515e-07	220.42	56.763	50.358	14.396	1.0887e-06	20.445	172.729	3.006	29.141	-67.389	82.555	48.131	-67.202	-60.221	60.459	94.659	-60.449	-53.569	-53.679	-46.350	44.242	-46.906	-8191	255	
2238.860	1	1	0	0	0.020757	0.26656	0.35588	0.44618	0.13583	0.15405	0.25479	0.18797	0.27418	0.058836	0.1763	0.096685	0.20374	0.2858	0.10423	0.081287	-2.4375	-3.1542	-3.2104	-3.0104	-3.375	-3.1229	-3.2375	-3.35	-2.9458	-3.2812	-3.2583	-2.8063	-3.4396	-2.9271	-3.1437	-3.4938	-32.743	180.911	137.793	218.323	-45.280	260.724	220.008	261.864	217.484	-49.647	209.829	-39.458	180.991	131.871	3.070	166.921	6.9311e-05	0.00025209	5.7672e-05	818.47	9.3624e-07	2.4385e-06	854.9	174.57	9.6281e-07	2.8727e-06	216.63	52.862	49.247	14.044	1.06e-06	19.655	0.00010547	8.1189e-05	2.0077e-05	821.89	1.1636e-06	8.7319e-07	862.64	177.32	1.0767e-06	8.3963e-07	220.25	56.992	50.429	14.436	1.0023e-06	20.392	176.058	-10.340	16.757	-67.441	82.506	40.055	-67.242	-60.101	77.432	65.014	-60.525	-53.646	-53.487	-47.194	85.039	-46.575	-8191	255	
2238.933	1	1	0	0	0.23551	0.27131	0.20561	0.11687	0.094178	0.24005	0.14026	0.097592	0.31134	0.1583	0.28166	0.11168	0.12622	0.12952	0.01165	0.06227	-2.5583	-3.2417	-3.1521	-3.0083	-3.3292	-3.1896	-3.1229	-3.5167	-3.1875	-3.1188	-3.3479	-2.8	-3.3083	-3.2271	-3.0146	-3.4667	104.023	176.331	25.429	96.928	61.974	83.275	-50.946	102.251	129.477	201.026	222.875	47.467	171.375	215.167	120.171	122.595	5.5963e-05	0.00023877	6.9366e-05	816.44	3.5963e-07	2.6566e-06	852.12	173.31	2.4795e-07	2.381e-06	215.88	51.475	49.765	14.056	1.3968e-06	19.632	0.000106	7.984e-05	2.1068e-05	819.57	1.1007e-06	9.0351e-07	860.51	176.5	1.0268e-06	8.913e-07	219.43	56.211	50.461	14.399	9.0365e-07	20.367	169.641	28.104	27.643	-67.300	61.845	58.317	-67.296	-60.335	166.996	67.362	-60.311	-53.244	-53.587	-46.417	71.415	-46.681	-8191	255	
2239.054	1	1	0	0	0.36423	0.20371	0.021411	0.23918	0.15318	0.17832	0.044198	0.15068	0.11548	0.15121	0.2866	0.19081	0.19652	0.11072	0.26046	0.27691	-2.4542	-3.0187	-3.1917	-2.8083	-3.2479	-3.0729	-3.0354	-3.3833	-2.95	-3.0938	-3.4146	-3.0292	-3.1458	-3.35	-2.7854	-3.2979	-22.977	280.489	102.328	232.876	3.289	6.812	112.526	147.738	219.869	274.909	254.794	76.125	200.426	-31.694	250.608	37.366	5.6719e-05	0.00031178	5.163e-05	813.75	1.0868e-06	2.4644e-06	848.81	173.34	5.8743e-07	1.9581e-06	216.65	51.621	49.161	13.955	1.9556e-06	19.636	0.00010266	8.5356e-05	2.2483e-05	817.48	1.0682e-06	8.6516e-07	857.91	176.55	1.135e-06	9.4252e-07	219.33	56.326	50.287	14.349	9.8298e-07	20.338	171.149	14.884	27.260	-67.440	118.750	79.013	-67.199	-60.128	98.351	66.405	-60.568	-54.284	-53.564	-46.460	73.821	-47.342	-8191	255	
2239.148	1	1	0	0	0.18578	0.24105	0.08931	0.26526	0.081001	0.10563	0.14003	0.2429	0.099652	0.2678	0.1523	0.15575	0.068126	0.15676	0.16537	0.047719	-2.7938	-2.9833	-3.2729	-2.9271	-3.2812	-3.2687	-3.0208	-3.3896	-3.0604	-3.0812	-3.3625	-2.8958	-3.1833	-3.3812	-2.9833	-3.2542	102.277	7.853	118.186	-50.923	143.162	274.005	225.041	-37.628	272.023	-36.156	216.365	141.603	264.714	120.227	259.833	-55.902	5.586e-05	0.00021525	5.4365e-05	814.19	7.5686e-07	2.2926e-06	852.43	172.54	1.0957e-06	1.4291e-06	215.85	52.126	49.402	13.939	1.1448e-06	19.676	0.00010087	7.9801e-05	2.1447e-05	818.63	1.1439e-06	7.889e-07	858.41	176.12	9.8622e-07	8.4809e-07	219.42	56.633	50.237	14.333	9.771e-07	20.334	176.139	7.420	15.937	-67.333	70.990	71.797	-66.992	-60.463	91.085	81.800	-60.629	-53.569	-53.906	-46.874	73.690	-46.929	-8191	255	
2239.245	1	1	0	0	0.086397	0.16853	0.1785	0.057074	0.05041	0.12014	0.30785	0.12533	0.029158	0.084256	0.15475	0.16672	0.19258	0.041547	0.37916	0.12833	-2.5896	-2.8958	-3.3688	-3.1417	-3.2667	-3.2896	-3.0083	-3.2354	-3.1479	-2.7792	-3.4521	-3.0083	-3.2083	-3.3937	-2.9667	-3.3438	238.762	19.122	37.350	207.197	219.229	57.901	152.647	228.136	-20.255	155.683	280.598	56.496	128.612	165.357	205.115	-4.344	6.1349e-05	0.00022861	7.0789e-05	813.22	1.7767e-06	3.207e-06	848.77	173.99	1.1255e-06	2.6856e-06	216.92	51.979	49.336	13.971	1.7811e-06	19.593	0.00010649	8.3808e-05	2.0612e-05	817.15	1.0726e-06	8.0451e-07	858.26	176.36	1.0454e-06	8.8239e-07	219.71	56.386	50.243	14.363	1.0082e-06	20.376	171.756	-15.886	25.669	-67.306	57.743	95.515	-67.163	-60.083	43.966	89.215	-60.621	-54.608	-53.271	-46.691	90.286	-46.713	-8191	255	
2239.341	1	1	0	0	0.25548	0.15061	0.12794	0.14558	0.16808	0.11344	0.28193	0.18237	0.12324	0.16498	0.10595	0.044528	0.0134	0.074789	0.0099304	0.33648	-2.7875	-2.8625	-3.5062	-3.1167	-3.1	-3.3792	-3.1792	-3.2604	-3.2708	-2.9479	-3.5292	-3.1271	-3.1917	-3.4104	-3.05	-3.4521	-38.758	233.798	255.348	189.878	167.253	59.747	256.003	206.241	274.596	72.049	125.487	-39.218	275.419	149.794	-6.298	205.647	6.2403e-05	0.00014416	4.0627e-05	813.6	1.26e-06	1.84e-06	851.06	173.91	8.5638e-07	2.7625e-06	216.11	51.972	49.475	13.998	1.5643e-06	19.829	0.00010003	7.857e-05	1.9242e-05	817.93	1.1187e-06	8.2592e-07	859.94	176.52	1.0154e-06	9.5945e-07	219.22	56.359	50.343	14.382	9.9221e-07	20.398	179.730	-11.052	23.179	-67.237	80.487	94.263	-66.956	-60.264	56.448	82.497	-60.220	-54.932	-53.528	-46.313	101.552	-47.078	-8191	255	
2239.461	1	1	0	0	0.076246	0.26491	0.23166	0.14248	0.13448	0.064839	0.17721	0.051842	0.1692	0.15728	0.11297	0.22619	0.12647	0.038249	0.068555	0.16535	-2.8312	-2.9458	-3.3833	-3.2729	-3.0208	-3.3833	-3.0771	-3.2521	-3.3937	-2.925	-3.4458	-3.1271	-2.9	-3.525	-3.0917	-3.3312	-17.733	92.504	131.127	116.931	277.245	-67.753	101.518	-70.454	-12.900	25.074	101.122	-5.765	232.828	180.030	-41.118	261.723	6.183e-05	0.00039241	5.8131e-05	812.94	1.1033e-06	2.181e-06	850.52	173.24	4.6384e-07	2.6891e-06	216.48	51.632	49.528	14.004	1.3983e-06	19.73	0.00010042	8.73e-05	2.0634e-05	816.43	1.2589e-06	8.4688e-07	858.09	176.54	9.9352e-07	8.8195e-07	219.55	56.456	50.309	14.377	9.4688e-07	20.399	180.118	6.577	8.349	-67.252	71.495	59.593	-67.160	-60.201	20.714	61.101	-60.499	-52.780	-53.644	-46.741	100.556	-47.187	-8191	255	
2239.533	1	1	0	0	0.011665	0.18156	0.13086	0.2858	0.13925	0.1614	0.29373	0.23738	0.040119	0.16461	0.094906	0.086886	0.41266	0.081354	0.083525	0.25745	-2.9271	-3.0104	-3.1979	-3.2729	-3.1437	-3.4458	-3.2062	-3.2396	-3.2583	-2.9417	-3.3333	-3.1688	-2.8708	-3.3312	-2.975	-3.0958	49.968	169.202	31.398	172.568	222.241	88.327	200.066	254.352	227.451	26.642	-25.795	259.298	51.303	184.366	108.209	150.287	6.5116e-05	0.00016045	5.058e-05	813.16	1.2354e-06	2.2489e-06	850.01	173.47	1.3787e-07	2.545e-06	215.22	51.485	49.645	13.977	1.7809e-06	19.82	0.00010214	7.7697e-05	2.0434e-05	817.66	1.1956e-06	8.9905e-07	859.09	176.46	1.0596e-06	9.1134e-07	219.2	56.643	50.43	14.386	1.0195e-06	20.441	178.933	2.939	24.441	-67.153	53.803	68.971	-67.147	-60.203	17.387	82.958	-60.028	-53.676	-53.246	-46.552	95.717	-46.803	-8191	255	
2239.629	1	1	0	0	0.10895	0.14374	0.31573	0.19146	0.26796	0.27709	0.13023	0.1397	0.1644	0.11384	0.26427	0.21682	0.15683	0.12566	0.28029	0.085194	-2.8479	-2.7917	-3.1188	-3.3354	-2.9083	-3.3625	-3.125	-3.0896	-3.3729	-2.8688	-3.2542	-3.1604	-2.9458	-3.3312	-3.0812	-3.0812	-24.701	178.744	128.453	241.333	171.352	93.251	190.177	222.124	155.551	126.222	188.629	30.629	6.390	-60.448	-30.522	48.525	6.0644e-05	0.00015973	4.8597e-05	812.45	1.1084e-06	3.306e-06	848.69	173.42	1.0385e-06	2.2353e-06	214.91	51.426	49.406	13.949	1.653e-06	19.849	0.0001044	8.1189e-05	1.9888e-05	817.31	1.1419e-06	8.8567e-07	858.36	176.19	9.6432e-07	9.3629e-07	219.38	56.288	50.413	14.382	9.6367e-07	20.498	174.088	7.919	2.126	-67.195	96.185	74.566	-67.261	-60.293	71.571	109.363	-60.463	-54.336	-53.441	-46.331	60.111	-47.149	-8191	255	
2239.750	1	1	0	0	0.21198	0.075463	0.15314	0.050274	0.06912	0.12153	0.16909	0.14334	0.16308	0.18204	0.036469	0.054905	0.18272	0.16165	0.071867	0.097549	-2.9229	-2.9917	-3.2542	-3.4729	-2.9708	-3.3646	-3.3667	-2.9437	-3.3563	-3.0542	-3.2375	-3.3917	-2.875	-3.2271	-3.1625	-2.9625	141.639	229.717	52.467	264.410	-0.409	86.317	230.268	216.322	90.862	95.340	-74.122	277.835	-52.476	271.843	93.165	144.456	5.6202e-05	0.000284	4.4874e-05	812.48	9.2425e-07	2.8165e-06	852.14	174.19	6.3077e-07	2.8087e-06	215.52	51.856	49.269	13.95	1.7064e-06	19.791	0.00010045	8.2777e-05	2.079e-05	817.07	1.2145e-06	8.4331e-07	858.78	176.57	9.7081e-07	8.8284e-07	219.7	56.458	50.301	14.409	8.9316e-07	20.457	192.400	-9.725	32.203	-67.328	86.749	83.218	-67.117	-60.291	134.426	102.122	-60.538	-54.650	-53.014	-46.515	97.261	-47.497	-8191	255	
2239.846	1	1	0	0	0.14517	0.17498	0.09819	0.093613	0.15458	0.1202	0.18612	0.082295	0.17043	0.03433	0.23225	0.059611	0.02947	0.29111	0.10439	0.10413	-2.975	-3.1188	-3.125	-3.5687	-2.9917	-3.3688	-3.3667	-3.0958	-3.3083	-3.0563	-3.1792	-3.4292	-2.7604	-3.2083	-3.1917	-3.0146	265.554	264.211	121.573	243.667	261.115	169.521	228.201	-39.071	78.869	271.265	228.327	-57.652	223.727	232.421	64.063	22.541	6.3134e-05	0.00027718	8.6599e-05	814.38	4.9274e-07	2.9466e-06	849.7	174.43	1.0274e-06	1.8871e-06	215.95	52.084	49.503	13.988	1.2745e-06	19.829	9.6634e-05	8.6745e-05	2.3797e-05	818.04	1.1788e-06	9.218e-07	858.96	176.67	9.8906e-07	8.2181e-07	219.49	56.476	50.417	14.429	9.5863e-07	20.4	177.873	-9.161	6.141	-67.268	77.653	101.507	-67.187	-60.249	46.512	71.332	-60.194	-52.987	-53.351	-46.549	88.035	-47.305	-8191	255	
2239.942	1	1	0	0	0.039693	0.062527	0.42527	0.092849	0.23467	0.17589	0.40487	0.19568	0.14207	0.19672	0.11222	0.25525	0.093254	0.067738	0.13586	0.40633	-2.9229	-3.0563	-2.9479	-3.3667	-3.1188	-3.2083	-3.375	-2.9125	-3.4083	-3.2542	-3.125	-3.2875	-2.8146	-3.1625	-3.2167	-2.875	236.084	-54.120	85.142	112.630	31.599	99.432	194.955	263.808	198.244	10.632	-50.194	186.808	230.065	27.742	129.021	115.334	5.5961e-05	0.0001827	6.8232e-05	816.65	1.0931e-06	2.1767e-06	849.71	173.71	3.0288e-07	3.221e-06	217.08	52.371	49.482	13.981	1.4839e-06	19.829	0.00010052	8.7777e-05	2.2694e-05	817.91	1.1564e-06	8.558e-07	859	176.23	9.4121e-07	1.0245e-06	219.43	56.664	50.335	14.408	1.0124e-06	20.468	176.651	33.019	27.633	-67.369	75.837	70.770	-67.278	-60.252	-45.510	57.282	-60.633	-54.520	-52.923	-46.360	40.945	-46.790	-8191	255	
2240.061	1	1	0	0	0.37778	0.18803	0.1922	0.12344	0.16024	0.25104	0.29102	0.18012	0.14066	0.25899	0.086201	0.3303	0.22179	0.18151	0.12534	0.078877	-2.8396	-2.9875	-2.85	-3.4479	-3.0229	-3.2188	-3.3688	-2.9646	-3.4604	-3.2646	-3.0229	-3.3833	-3.0646	-3.175	-3.4917	-3.0396	-20.244	185.730	281.220	-63.518	157.009	213.240	226.118	196.961	188.074	-14.080	246.937	-58.592	149.159	230.297	44.967	43.039	6.1428e-05	0.00023833	4.2365e-05	816.05	4.3391e-07	3.5735e-06	853.46	173.05	1.0712e-06	2.6364e-06	215.42	51.893	49.306	14.017	1.8482e-06	19.7	0.0001051	8.4007e-05	2.4643e-05	818.23	1.1323e-06	9.7085e-07	860.78	176.24	1.0953e-06	9.8885e-07	219.5	56.719	50.247	14.425	1.0568e-06	20.397	175.785	10.814	44.851	-67.066	86.296	78.487	-67.164	-60.335	68.441	64.164	-60.473	-54.809	-53.634	-46.769	84.515	-47.021	-8191	255	
2240.157	1	1	0	0	0.18184	0.10179	0.20728	0.088309	0.098422	0.36528	0.045749	0.0779	0.16016	0.11626	0.034338	0.12904	0.19645	0.0095312	0.15779	0.10472	-2.7917	-3.2	-2.8729	-3.4313	-2.9792	-3.0958	-3.4104	-2.9979	-3.0187	-3.2229	-3.1333	-3.2729	-3.2667	-3.0167	-3.4688	-2.8542	54.704	-19.301	235.613	113.132	242.331	194.479	248.769	176.901	238.133	199.582	201.567	228.269	80.534	-1.569	137.222	150.592	6.2572e-05	0.00021617	7.4993e-05	816.24	8.8303e-07	1.8169e-06	852.15	174	1.0942e-06	2.1661e-06	216.53	52.901	49.124	13.97	1.9703e-06	19.901	9.9587e-05	7.6983e-05	2.6269e-05	818.97	1.2698e-06	9.2313e-07	859.89	176.79	1.2178e-06	9.9108e-07	219.79	56.779	50.301	14.438	1.0056e-06	20.508	179.718	-3.650	15.922	-67.201	56.500	74.455	-67.026	-60.233	89.666	73.350	-60.522	-54.160	-53.305	-46.369	80.750	-46.575	-8191	255	
2240.229	1	1	0	0	0.21335	0.055967	0.27859	0.20926	0.12405	0.090742	0.29855	0.21766	0.20231	0.084493	0.076184	0.16999	0.072326	0.18519	0.19257	0.094537	-2.7188	-3.2083	-2.8979	-3.4021	-3.1479	-3.0125	-3.475	-2.9917	-3.3542	-3.3292	-2.8104	-3.2208	-3.1417	-3.0292	-3.3229	-2.95	237.845	228.351	43.365	-14.790	-67.793	-44.372	231.018	234.087	-50.941	140.734	55.391	223.798	-24.584	119.429	-8.504	252.296	5.3787e-05	0.00024398	5.0601e-05	813.51	1.0436e-06	2.6443e-06	851.12	173.54	6.8588e-07	2.2037e-06	216.5	52.519	49.623	14.029	1.1537e-06	19.737	0.00011103	8.3412e-05	2.7193e-05	819.65	1.2501e-06	1.0034e-06	859.59	176.68	1.1675e-06	9.305e-07	220.05	56.737	50.42	14.439	9.2883e-07	20.461	169.289	-15.475	30.218	-67.180	94.274	69.499	-67.319	-60.381	159.464	36.923	-60.299	-54.479	-53.299	-46.514	124.134	-46.610	-8191	255	
2240.325	1	1	0	0	0.058923	0.29643	0.17422	0.25224	0.11927	0.13199	0.29756	0.33839	0.069197	0.28854	0.055836	0.060528	0.15619	0.17672	0.16857	0.14388	-2.8063	-3.1917	-2.8646	-3.0833	-3.2229	-2.9104	-3.3937	-3.0479	-3.1	-3.3708	-2.9292	-3.2021	-3.2521	-3.0604	-3.2896	-3.1896	-8.916	165.478	74.451	-71.727	180.948	-1.367	153.503	222.972	-42.386	145.496	226.872	187.367	138.543	-57.882	103.450	234.198	4.3524e-05	0.00019564	6.5187e-05	815.43	1.2916e-06	2.5453e-06	853.21	173.63	1.6584e-07	1.3651e-06	216.84	52.286	50.033	14.076	1.5538e-06	19.705	0.00010993	8.5673e-05	2.6157e-05	820	1.2137e-06	9.9181e-07	860.26	177.01	1.1906e-06	9.5188e-07	220.09	56.616	50.552	14.449	1.0094e-06	20.41	183.523	-3.517	23.012	-67.144	92.314	86.134	-67.098	-60.183	242.444	129.374	-60.496	-54.573	-53.528	-46.423	50.385	-46.913	-8191	255	
2240.446	1	1	0	0	0.14189	0.18195	0.13797	0.12466	0.11856	0.19746	0.16058	0.16332	0.095659	0.1365	0.11668	0.04258	0.1138	0.21376	0.24621	0.18482	-2.5083	-3.3583	-2.9521	-3.1917	-3.2125	-2.8875	-3.5771	-2.9854	-3.1021	-3.2646	-2.9979	-3.15	-3.3604	-2.8042	-3.4021	-3.0333	214.220	260.836	13.176	250.721	-73.396	88.197	234.215	-3.971	274.677	259.777	262.733	243.986	249.757	35.521	180.170	4.632	6.2114e-05	0.00024663	4.5705e-05	818.96	5.8855e-07	1.3866e-06	853.68	173.7	6.0032e-07	2.9108e-06	216.55	52.287	49.607	14.062	1.5649e-06	19.869	0.000113	8.6031e-05	2.5734e-05	821.61	1.2048e-06	1.0948e-06	862.69	176.6	1.1805e-06	9.8039e-07	220.32	56.802	50.543	14.468	1.0228e-06	20.477	182.838	-3.600	34.869	-67.328	164.149	80.911	-67.265	-60.220	46.559	85.132	-60.486	-54.281	-53.682	-46.470	69.938	-46.679	-8191	255	
2240.542	1	1	0	0	0.11711	0.10581	0.13868	0.26433	0.026459	0.081622	0.084639	0.055351	0.13872	0.1965	0.10494	0.17472	0.076323	0.30022	0.19835	0.090873	-2.5396	-3.3312	-3.0708	-3.1979	-3.1667	-2.9813	-3.4688	-3.1208	-2.8917	-3.4896	-3.2333	-3.0729	-3.4771	-2.7792	-3.3125	-3.2167	-60.056	42.874	126.138	132.847	200.546	37.975	264.252	145.567	243.307	65.481	168.540	31.252	148.421	-70.714	112.879	42.382	4.9509e-05	0.00021524	5.4335e-05	818.54	9.5019e-07	3.1107e-06	856.25	174.38	6.9654e-07	2.1682e-06	216.91	51.582	49.857	14.007	1.907e-06	19.794	0.00011047	8.2935e-05	2.5311e-05	822.08	1.1924e-06	1.0337e-06	862.7	176.85	1.1817e-06	9.8528e-07	220.54	56.539	50.529	14.437	1.0048e-06	20.512	167.710	-4.435	14.891	-67.191	87.290	82.617	-67.155	-60.207	-6.471	78.811	-60.298	-54.289	-53.425	-46.674	90.583	-47.269	-8191	255	
2240.638	1	1	0	0	0.2675	0.083357	0.064683	0.2009	0.10736	0.33547	0.19119	0.18173	0.26746	0.2326	0.11621	0.098681	0.14621	0.085918	0.15401	0.15275	-2.3708	-3.4354	-3.0104	-3.1813	-3.2521	-2.7875	-3.1979	-3.3417	-2.9813	-3.3042	-3.1063	-3.0125	-3.275	-2.9583	-3.2896	-3.4062	37.742	215.087	233.592	228.663	71.679	1.650	-52.641	219.108	220.509	43.934	275.291	219.877	-58.232	-15.976	60.728	107.808	5.5394e-05	0.00028947	7.0361e-05	819.66	1.6189e-06	2.6875e-06	854.55	175.03	1.4145e-06	2.3839e-06	215.71	51.995	49.44	14.029	1.6032e-06	19.879	0.00011121	8.3015e-05	2.4632e-05	822.21	1.1231e-06	9.7799e-07	862.22	177.14	1.2713e-06	1.0347e-06	220.07	56.493	50.481	14.458	1.0363e-06	20.536	179.205	9.234	17.524	-67.234	96.416	62.745	-67.265	-60.422	64.553	89.881	-60.535	-54.730	-53.259	-46.559	50.044	-47.240	-8191	255	
2240.734	1	1	0	0	0.11031	0.11072	0.12689	0.36637	0.09199	0.10672	0.26899	0.21928	0.10724	0.19924	0.10757	0.23093	0.053474	0.21691	0.10226	0.16926	-2.4354	-3.3271	-3.225	-3.0062	-3.4813	-2.925	-3.2417	-3.375	-3.0167	-3.2958	-3.2396	-2.8792	-3.4708	-2.9938	-3.0271	-3.2479	-0.279	-12.657	44.817	276.257	206.716	-2.065	-65.293	13.756	10.500	208.111	206.448	123.513	112.130	-0.431	17.361	171.935	5.8137e-05	0.0002177	6.9915e-05	819.11	1.7027e-07	2.2673e-06	856.61	174.42	8.5756e-07	1.8581e-06	216.52	52.089	49.529	14.121	7.9155e-07	19.882	0.00011028	8.2816e-05	2.5845e-05	822.4	1.1864e-06	1.0083e-06	863.7	177.13	1.1861e-06	8.521e-07	220.26	57.116	50.386	14.462	1.0501e-06	20.535	190.371	3.430	42.368	-67.270	195.540	73.555	-67.125	-60.443	70.640	125.679	-60.780	-54.658	-53.468	-46.886	68.380	-46.924	-8191	255	
2240.830	1	1	0	0	0.10787	0.034337	0.20279	0.38055	0.035374	0.14182	0.1467	0.20541	0.027975	0.29233	0.12305	0.11969	0.10174	0.10239	0.278	0.24307	-2.3396	-3.1208	-2.9375	-3.0062	-3.3646	-3.0375	-3.1229	-3.5021	-2.9646	-3.3187	-3.5083	-2.825	-3.4271	-3.1646	-3.0833	-3.4833	143.168	37.516	-66.469	259.596	7.721	141.182	-43.282	160.082	254.580	-30.937	27.573	221.523	155.749	107.978	153.535	124.320	6.2143e-05	0.00015566	3.5549e-05	817.15	3.7101e-07	2.3995e-06	855.8	174.68	3.7994e-07	2.757e-06	217.6	52.376	49.796	14.076	1.0095e-06	19.88	0.00010942	8.8094e-05	2.5801e-05	821.23	1.1648e-06	1.0734e-06	864.03	177.4	1.2056e-06	9.8439e-07	220.85	56.843	50.687	14.493	1.0506e-06	20.532	180.731	-16.292	11.825	-67.385	63.225	87.246	-66.986	-60.076	-27.610	73.167	-60.478	-54.552	-53.158	-46.910	70.258	-47.065	-8191	255	
2240.926	1	1	0	0	0.058701	0.21148	0.082677	0.15769	0.22254	0.18926	0.27827	0.10731	0.16057	0.12232	0.28362	0.30758	0.14846	0.19225	0.28201	0.021921	-2.4833	-3.1896	-3.3479	-2.9771	-3.3312	-3.1854	-3.0458	-3.3604	-2.9229	-3.2062	-3.2	-2.9188	-3.2708	-3.1063	-3.1417	-3.3271	-16.702	107.084	-10.791	182.341	-78.020	212.881	233.108	255.944	217.196	-65.959	258.422	195.070	178.783	27.147	75.791	-28.752	6.1844e-05	0.00013539	6.7996e-05	816.28	9.1487e-07	3.1353e-06	854.62	174.31	7.3522e-07	1.7095e-06	217.3	51.739	49.62	14.01	9.7401e-07	19.886	0.000115	8.4721e-05	2.6202e-05	823.18	1.1708e-06	9.3696e-07	863.47	177.3	1.2157e-06	9.5856e-07	220.3	56.561	50.507	14.433	1.038e-06	20.548	182.041	8.417	37.461	-67.370	95.191	62.530	-66.976	-60.415	27.769	76.167	-60.258	-54.277	-53.545	-46.416	102.143	-46.751	-8191	255	
2241.022	1	1	0	0	0.13668	0.11839	0.068986	0.062019	0.23441	0.35212	0.33989	0.060401	0.15703	0.069007	0.11907	0.24687	0.18273	0.048707	0.20009	0.33118	-2.5708	-3.1	-3.2771	-3.0625	-3.3729	-3.1521	-3.0542	-3.4167	-3.0563	-3.0479	-3.2896	-2.9292	-3.3542	-3.1667	-2.9688	-3.4542	-28.407	80.017	214.929	275.586	8.037	153.270	189.892	220.229	271.066	230.754	211.230	-77.635	252.088	8.983	-15.690	-65.669	5.1027e-05	0.00023096	4.6734e-05	817.7	1.0395e-06	2.4072e-06	855.49	174.26	1.7244e-06	2.1472e-06	217.67	53.001	49.41	14.074	7.3851e-07	19.819	0.00010921	9.4483e-05	2.5634e-05	822.3	1.2024e-06	9.6104e-07	864.01	177.23	1.2401e-06	1.0236e-06	220.5	56.902	50.587	14.463	1.0333e-06	20.494	185.029	14.895	18.224	-67.264	56.786	62.189	-67.337	-60.183	48.564	40.625	-60.337	-55.192	-53.679	-46.617	38.488	-47.237	-8191	255	
2241.141	1	1	0	0	0.098176	0.11762	0.14469	0.16296	0.19279	0.13319	0.17261	0.1653	0.14455	0.0847	0.2663	0.30497	0.11985	0.068817	0.17737	0.21139	-2.5667	-3.1042	-3.3438	-3.1333	-3.3583	-3.1396	-2.9396	-3.1937	-2.9542	-3.1042	-3.4125	-3.025	-3.1333	-3.2812	-2.8208	-3.2833	4.548	234.401	-8.209	243.805	207.135	-16.182	224.218	106.510	11.691	43.706	-38.336	131.598	24.815	147.130	199.304	25.257	5.3184e-05	0.00027009	3.2504e-05	821.32	8.4226e-07	2.369e-06	852.56	174.51	1.5795e-06	1.9045e-06	218.96	52.099	49.689	14.057	1.8408e-06	19.958	0.00011451	9.6348e-05	2.3362e-05	823.84	1.2694e-06	9.8914e-07	862.44	177.49	1.1963e-06	9.4564e-07	221.22	56.756	50.628	14.471	1.2247e-06	20.564	186.450	8.388	-5.232	-67.137	90.994	44.331	-67.161	-60.418	31.427	71.167	-60.540	-54.104	-53.623	-46.312	62.316	-46.706	-8191	255	
2241.237	1	1	0	0	0.28588	0.10636	0.038807	0.17661	0.17827	0.053113	0.14675	0.14551	0.18996	0.11716	0.22024	0.25267	0.1024	0.081674	0.098738	0.12883	-2.5833	-3.0604	-3.2417	-3.2062	-2.9979	-3.3146	-3.1333	-3.3375	-3.2979	-2.9958	-3.3208	-2.9875	-3.2146	-3.2021	-2.8833	-3.2958	-75.531	-20.939	166.740	187.766	160.057	234.445	63.142	258.783	-73.944	-26.691	173.582	151.900	-26.198	248.982	144.290	273.897	5.1931e-05	0.00022207	6.0653e-05	820.09	7.6755e-07	2.0123e-06	852.65	174.14	2.3472e-06	2.937e-06	217.71	52.12	49.99	14.16	1.1203e-06	19.843	0.00011089	9.2023e-05	2.1748e-05	823.25	1.3162e-06	9.3651e-07	862.68	177.37	1.221e-06	1.0588e-06	220.94	56.582	50.699	14.484	1.171e-06	20.503	171.418	9.180	20.489	-67.387	76.791	89.825	-67.261	-59.958	53.820	82.641	-60.495	-54.727	-53.442	-46.407	61.987	-47.164	-8191	255	
2241.334	1	1	0	0	0.25719	0.080722	0.13965	0.39633	0.084133	0.22151	0.1865	0.39249	0.066612	0.16494	0.13608	0.088083	0.36142	0.10646	0.19845	0.12216	-2.7208	-2.8563	-3.35	-3.1583	-3.0854	-3.3521	-3.2458	-3.1854	-3.1167	-2.8521	-3.3187	-3.0438	-2.9854	-3.4313	-2.8854	-3.375	227.603	102.974	87.331	215.710	-32.458	201.738	197.937	249.637	166.174	-46.991	-1.455	-54.290	177.538	-4.611	-53.196	275.793	6.0223e-05	0.00026621	5.0628e-05	820.32	1.8419e-06	2.5498e-06	857.37	174.55	7.7145e-07	2.4511e-06	216.16	52.089	49.864	13.987	1.9667e-06	19.861	0.0001084	9.3332e-05	2.354e-05	823.69	1.2942e-06	9.6996e-07	864.15	177.57	1.1736e-06	1.1024e-06	220.54	56.929	50.665	14.434	1.1836e-06	20.507	177.675	7.200	21.639	-67.623	73.048	83.658	-67.409	-60.243	70.144	96.293	-60.165	-54.432	-52.963	-46.486	71.567	-47.372	-8191	255	
2241.430	1	1	0	0	0.28054	0.077797	0.18777	0.2158	0.11739	0.12125	0.24343	0.14445	0.12863	0.21636	0.32052	0.091785	0.14165	0.15133	0.050914	0.32565	-2.8333	-2.8479	-3.3521	-3.2854	-3.0792	-3.4729	-3.1875	-3.3604	-3.3438	-2.8979	-3.4042	-3.1625	-2.7917	-3.4646	-3.0625	-3.0417	117.917	177.402	24.215	86.498	188.780	40.638	221.646	143.996	88.803	-70.056	46.810	279.674	79.779	-57.997	225.867	147.141	5.6765e-05	0.0003131	6.7527e-05	817.37	1.0423e-06	2.1848e-06	855.55	175.72	1.3743e-06	2.1902e-06	216.95	52.436	49.746	14.053	1.4643e-06	19.886	0.0001104	0.0001025	2.314e-05	822.56	1.2401e-06	9.1689e-07	863.45	177.93	1.1513e-06	1.1243e-06	220.69	57.054	50.548	14.472	1.1295e-06	20.526	187.579	5.727	41.485	-67.198	67.963	87.093	-67.160	-60.466	87.326	86.869	-60.418	-54.899	-53.390	-46.472	56.836	-46.950	-8191	255	
2241.526	1	1	0	0	0.21871	0.21722	0.3441	0.060715	0.1603	0.066733	0.068503	0.16769	0.064983	0.27617	0.11957	0.088852	0.24779	0.13667	0.40337	0.17485	-2.8625	-2.9229	-3.2188	-3.3354	-2.8271	-3.4729	-2.9979	-3.2562	-3.1708	-3.1354	-3.4062	-3.2125	-2.925	-3.3583	-3.2271	-3.0292	-75.282	77.917	156.217	173.820	189.168	59.514	180.899	-77.341	-17.262	84.205	88.103	257.329	255.409	252.543	-42.004	107.569	6.2319e-05	0.00024831	7.4445e-05	822.36	5.9042e-07	1.8578e-06	860.96	175.24	1.0472e-06	3.0502e-06	218.17	53.243	49.969	14.223	1.3534e-06	19.926	0.00011063	0.0001119	2.3852e-05	825.32	1.2854e-06	9.7353e-07	866.09	177.82	1.1164e-06	1.0249e-06	221.36	56.881	50.588	14.52	1.1164e-06	20.547	162.249	-2.031	30.487	-67.526	36.551	93.954	-67.259	-60.338	48.587	55.910	-60.195	-54.648	-53.964	-46.590	71.063	-47.281	-8191	255	
2241.622	1	1	0	0	0.18318	0.11483	0.041503	0.1223	0.17351	0.096929	0.13266	0.16278	0.1511	0.20992	0.10386	0.18103	0.21756	0.089025	0.11831	0.10367	-3.0917	-2.7583	-3.2146	-3.2562	-2.9313	-3.4229	-3.0708	-3.0187	-3.2562	-2.925	-3.3354	-3.0229	-2.9062	-3.3271	-2.9313	-2.9667	61.853	65.795	45.934	-23.944	16.602	133.254	276.680	-22.841	85.433	19.798	-75.101	122.622	259.387	-66.107	174.743	-10.638	6.8272e-05	0.00023015	4.7427e-05	822.96	1.2e-06	1.3797e-06	855.16	174.62	6.3118e-07	3.766e-06	217.7	52.208	50.047	13.979	1.1366e-06	19.811	0.00010898	9.6269e-05	2.4164e-05	826.09	1.3371e-06	9.9761e-07	864.53	177.48	1.1204e-06	1.0632e-06	221.04	57.265	50.809	14.497	1.0258e-06	20.55	170.982	13.555	21.500	-67.080	91.958	38.522	-67.224	-60.483	15.478	84.557	-60.606	-53.527	-53.249	-46.690	60.161	-46.745	-8191	255	
2241.743	1	1	0	0	0.17377	0.1195	0.17359	0.23188	0.072924	0.29783	0.2877	0.085918	0.21888	0.12915	0.090633	0.22002	0.39527	0.20829	0.29097	0.1604	-3	-2.9583	-3.1708	-3.425	-2.8208	-3.4104	-3.2333	-2.9	-3.3958	-2.9167	-3.2875	-3.2583	-2.7958	-3.2979	-3.2188	-3.0125	271.552	133.874	141.422	219.943	56.797	244.313	245.840	269.112	61.841	226.842	194.621	125.778	229.702	-54.794	230.397	172.879	5.4947e-05	0.00020536	8.5611e-05	818.61	9.5372e-07	2.0068e-06	860.06	174.07	6.9551e-07	2.9639e-06	219	52.185	49.576	14.05	1.8461e-06	19.945	0.00010703	0.00010111	2.775e-05	825.28	1.3988e-06	9.4142e-07	866.81	177.56	1.1391e-06	1.0396e-06	221.98	56.75	50.606	14.483	1.0732e-06	20.508	186.493	27.002	43.625	-67.198	82.583	69.673	-67.521	-60.277	87.842	109.150	-60.249	-54.572	-54.139	-46.842	64.994	-47.177	-8191	255	
2241.839	1	1	0	0	0.090638	0.17561	0.12927	0.035574	0.085583	0.11283	0.23208	0.21778	0.14867	0.3867	0.14257	0.016208	0.095273	0.12867	0.29639	0.22042	-2.9813	-2.9833	-3.1708	-3.4875	-2.7917	-3.2708	-3.3563	-3.1188	-3.3438	-3.0583	-3.4	-3.4208	-2.9292	-3.0708	-3.2208	-2.9688	262.256	24.809	166.915	216.179	93.040	188.046	262.458	167.526	26.191	246.967	66.939	42.473	188.768	246.873	37.821	263.718	6.961e-05	0.00024336	5.9438e-05	821.81	1.0743e-06	2.4012e-06	856.85	176.02	2.8903e-07	2.9119e-06	217.78	52.72	50.043	14.222	1.5172e-06	20.011	0.00010261	0.00010167	2.3707e-05	826.45	1.3635e-06	1.0177e-06	866.86	178.15	1.0921e-06	9.4208e-07	221.6	56.815	50.878	14.543	1.0543e-06	20.56	184.583	-1.200	32.381	-67.260	74.019	90.806	-67.242	-60.024	56.049	67.179	-60.571	-53.594	-53.557	-46.348	54.155	-47.220	-8191	255	
2241.935	1	1	0	0	0.21098	0.11838	0.18099	0.28353	0.20672	0.042795	0.12101	0.25738	0.24464	0.063984	0.40437	0.096467	0.050826	0.14813	0.081494	0.11397	-2.8187	-3.2062	-2.9667	-3.4208	-2.9208	-3.0479	-3.3375	-3.0021	-3.2479	-3.0792	-2.9417	-3.3375	-3.0687	-3.2292	-3.2333	-2.8646	196.010	-2.204	208.065	214.031	105.350	220.644	127.979	249.365	103.233	278.947	252.409	164.353	6.599	15.937	250.555	-67.926	6.3796e-05	0.00013136	4.2029e-05	824.31	1.893e-06	2.2431e-06	860.14	175.09	1.8108e-06	2.7817e-06	217.1	52.458	49.642	14.146	1.5638e-06	19.897	0.00010919	9.6705e-05	2.854e-05	828.72	1.3623e-06	1.0355e-06	867.54	178.18	1.1213e-06	1.0205e-06	221.23	56.989	50.578	14.514	1.0518e-06	20.552	190.709	17.681	36.462	-67.397	68.221	45.969	-67.391	-60.316	40.449	72.147	-60.056	-53.325	-53.593	-46.336	61.857	-46.773	-8191	255	
2242.029	1	1	0	0	0.14775	0.043538	0.037464	0.19528	0.10921	0.055605	0.13781	0.10962	0.23019	0.080185	0.25382	0.15385	0.14277	0.07399	0.081212	0.17661	-2.9854	-3.1125	-2.7938	-3.3792	-3.0375	-3.15	-3.5146	-2.9188	-3.3042	-3.1583	-2.9604	-3.2917	-3.0812	-3.1354	-3.5708	-2.9833	229.701	152.305	171.095	242.673	20.224	79.339	-71.831	225.795	80.228	137.186	171.558	25.249	27.280	187.680	131.557	224.935	6.5345e-05	0.00019248	6.4784e-05	826.29	1.7011e-06	2.4157e-06	857.09	175.22	4.3432e-07	2.5187e-06	217.34	52.698	49.852	14.025	1.5047e-06	20.03	0.0001107	0.00010234	2.7861e-05	827.42	1.325e-06	1.0828e-06	868.13	178.15	1.1744e-06	1.0552e-06	221.74	57.076	50.841	14.522	1.0426e-06	20.637	165.800	7.997	43.817	-67.293	79.283	98.603	-67.234	-60.388	97.896	85.735	-60.462	-53.994	-53.320	-46.790	88.498	-46.783	-8191	255	
2242.126	1	1	0	0	0.21708	0.22903	0.12848	0.17614	0.28461	0.020081	0.35695	0.18348	0.047253	0.037758	0.15012	0.07876	0.19655	0.18778	0.039689	0.20943	-2.7042	-3.2562	-2.8396	-3.4646	-3.0417	-3.1229	-3.4958	-2.9458	-3.3479	-3.3125	-2.9646	-3.4396	-3.05	-3.0896	-3.425	-3.0687	197.758	272.315	279.252	175.399	185.629	235.085	180.326	33.410	-72.684	175.496	9.500	265.068	155.996	172.108	44.346	60.550	5.547e-05	0.00018922	6.8652e-05	826.44	5.8268e-07	2.5651e-06	860.75	175.18	8.3276e-07	2.2955e-06	218.11	52.16	49.622	14.121	1.8578e-06	19.926	0.00011307	0.00010139	2.7449e-05	827.8	1.2902e-06	1.0355e-06	868.43	178.35	1.1732e-06	9.2693e-07	222.1	56.884	50.779	14.538	9.75e-07	20.626	168.791	16.263	-0.009	-67.130	58.178	63.655	-67.289	-60.450	24.704	103.038	-60.646	-55.061	-53.811	-46.376	85.692	-47.018	-8191	255	
#DATA ENDS
