BOXY.EXE: ISS Imagent and Oximeter Data Acquisition Program Version 0.80
Ascii Record File

#ACQ INFORMATION
2  Detector Channels 
16  External MUX Channels 
1  Auxiliary Channels 
5000  Waveform (CCF) Frequency (Hz)
1  Waveforms Skipped 
30  Waveforms Averaged 
1  Cycles Averaged 
16  Acquisitions per Waveform 
10.0806  Updata Rate (Hz) 

#FILE INFORMATION
TRUE -- External MUX Channel results are PARSED.
FALSE -- AC DC and Phase are NOT grouped.
TRUE -- Companion Program Settings File CREATED.
FALSE -- AC data not excluded
FALSE -- DC data not excluded
FALSE -- Phase data not excluded
FALSE -- Auxillary Chn. data not excluded
Tab delimiters

#CALIBRATION STATE
TRUE -- Waveform Calibration Values APPLIED.


#AUX CALIBRATION VALUES
Val Type	aux-1	

Term	1.0000e+00	
Factor	0.0000e+00	


#WF CALIBRATION VALUES
A = Detector Channel
Val Type	A-AC1	A-AC2	A-AC3	A-AC4	A-AC5	A-AC6	A-AC7	A-AC8	A-AC9	A-AC10	A-AC11	A-AC12	A-AC13	A-AC14	A-AC15	A-AC16	A-DC1	A-DC2	A-DC3	A-DC4	A-DC5	A-DC6	A-DC7	A-DC8	A-DC9	A-DC10	A-DC11	A-DC12	A-DC13	A-DC14	A-DC15	A-DC16	A-Ph1	A-Ph2	A-Ph3	A-Ph4	A-Ph5	A-Ph6	A-Ph7	A-Ph8	A-Ph9	A-Ph10	A-Ph11	A-Ph12	A-Ph13	A-Ph14	A-Ph15	A-Ph16	

Term	0.00000e+00	0.00000e+00	0.00000e+00	0.00000e+00	0.00000e+00	0.00000e+00	0.00000e+00	0.00000e+00	0.00000e+00	0.00000e+00	0.00000e+00	0.00000e+00	0.00000e+00	0.00000e+00	0.00000e+00	0.00000e+00	0.00000e+00	0.00000e+00	0.00000e+00	0.00000e+00	0.00000e+00	0.00000e+00	0.00000e+00	0.00000e+00	0.00000e+00	0.00000e+00	0.00000e+00	0.00000e+00	0.00000e+00	0.00000e+00	0.00000e+00	0.00000e+00	0.00000e+00	0.00000e+00	0.00000e+00	0.00000e+00	0.00000e+00	0.00000e+00	0.00000e+00	0.00000e+00	0.00000e+00	0.00000e+00	0.00000e+00	0.00000e+00	0.00000e+00	0.00000e+00	0.00000e+00	0.00000e+00	
Factor	1.00000e+00	1.00000e+00	1.00000e+00	1.00000e+00	1.00000e+00	1.00000e+00	1.00000e+00	1.00000e+00	1.00000e+00	1.00000e+00	1.00000e+00	1.00000e+00	1.00000e+00	1.00000e+00	1.00000e+00	1.00000e+00	1.00000e+00	1.00000e+00	1.00000e+00	1.00000e+00	1.00000e+00	1.00000e+00	1.00000e+00	1.00000e+00	1.00000e+00	1.00000e+00	1.00000e+00	1.00000e+00	1.00000e+00	1.00000e+00	1.00000e+00	1.00000e+00	X	X	X	X	X	X	X	X	X	X	X	X	X	X	X	X	

B = Detector Channel
Val Type	B-AC1	B-AC2	B-AC3	B-AC4	B-AC5	B-AC6	B-AC7	B-AC8	B-AC9	B-AC10	B-AC11	B-AC12	B-AC13	B-AC14	B-AC15	B-AC16	B-DC1	B-DC2	B-DC3	B-DC4	B-DC5	B-DC6	B-DC7	B-DC8	B-DC9	B-DC10	B-DC11	B-DC12	B-DC13	B-DC14	B-DC15	B-DC16	B-Ph1	B-Ph2	B-Ph3	B-Ph4	B-Ph5	B-Ph6	B-Ph7	B-Ph8	B-Ph9	B-Ph10	B-Ph11	B-Ph12	B-Ph13	B-Ph14	B-Ph15	B-Ph16	

Term	0.00000e+00	0.00000e+00	0.00000e+00	0.00000e+00	0.00000e+00	0.00000e+00	0.00000e+00	0.00000e+00	0.00000e+00	0.00000e+00	0.00000e+00	0.00000e+00	0.00000e+00	0.00000e+00	0.00000e+00	0.00000e+00	0.00000e+00	0.00000e+00	0.00000e+00	0.00000e+00	0.00000e+00	0.00000e+00	0.00000e+00	0.00000e+00	0.00000e+00	0.00000e+00	0.00000e+00	0.00000e+00	0.00000e+00	0.00000e+00	0.00000e+00	0.00000e+00	-1.23800e+02	-1.29605e+02	-1.18317e+02	-1.81384e+02	-6.66720e+01	-6.49322e+01	-1.54429e+02	-1.62015e+02	-6.47790e+01	-5.86214e+01	-1.69550e+02	-1.78216e+02	-1.82278e+02	-1.75921e+02	-6.55031e+01	-1.48295e+02	
Factor	1.82523e-05	2.02462e-04	5.46020e-05	1.59639e-01	1.48313e-06	2.22676e-06	1.61345e-01	6.10527e-02	1.51134e-06	2.21112e-06	9.03854e-02	2.02187e-01	4.85540e-02	9.32913e-03	1.59883e-06	1.33881e-02	1.11608e-05	1.90474e-05	5.34503e-06	8.05254e-02	1.92326e-07	2.14060e-07	7.69818e-02	3.09569e-02	1.94649e-07	2.13805e-07	4.45233e-02	1.01031e-01	2.48173e-02	4.77762e-03	2.01464e-07	6.64615e-03	X	X	X	X	X	X	X	X	X	X	X	X	X	X	X	X	



#DISTANCE SETTINGS
A = Detector Channel
A-1	A-2	A-3	A-4	A-5	A-6	A-7	A-8	A-9	A-10	A-11	A-12	A-13	A-14	A-15	A-16	

2.5000e+00	3.0000e+00	2.5000e+00	3.0000e+00	2.0000e+00	3.0000e+00	1.5000e+00	3.0000e+00	3.0000e+00	3.0000e+00	3.0000e+00	3.0000e+00	3.0000e+00	3.0000e+00	1.5000e+00	3.0000e+00	

B = Detector Channel
B-1	B-2	B-3	B-4	B-5	B-6	B-7	B-8	B-9	B-10	B-11	B-12	B-13	B-14	B-15	B-16	

1.0000e+01	1.0000e+01	1.0000e+01	1.4400e+00	1.0000e+01	1.0000e+01	1.5100e+00	1.9400e+00	1.0000e+01	1.0000e+01	1.9900e+00	2.4900e+00	2.4100e+00	2.9000e+00	1.0000e+01	2.9800e+00	




#DATA BEGINS
time	group	step	mark	flag	A-AC1	A-AC2	A-AC3	A-AC4	A-AC5	A-AC6	A-AC7	A-AC8	A-AC9	A-AC10	A-AC11	A-AC12	A-AC13	A-AC14	A-AC15	A-AC16	A-DC1	A-DC2	A-DC3	A-DC4	A-DC5	A-DC6	A-DC7	A-DC8	A-DC9	A-DC10	A-DC11	A-DC12	A-DC13	A-DC14	A-DC15	A-DC16	A-Ph1	A-Ph2	A-Ph3	A-Ph4	A-Ph5	A-Ph6	A-Ph7	A-Ph8	A-Ph9	A-Ph10	A-Ph11	A-Ph12	A-Ph13	A-Ph14	A-Ph15	A-Ph16	B-AC1	B-AC2	B-AC3	B-AC4	B-AC5	B-AC6	B-AC7	B-AC8	B-AC9	B-AC10	B-AC11	B-AC12	B-AC13	B-AC14	B-AC15	B-AC16	B-DC1	B-DC2	B-DC3	B-DC4	B-DC5	B-DC6	B-DC7	B-DC8	B-DC9	B-DC10	B-DC11	B-DC12	B-DC13	B-DC14	B-DC15	B-DC16	B-Ph1	B-Ph2	B-Ph3	B-Ph4	B-Ph5	B-Ph6	B-Ph7	B-Ph8	B-Ph9	B-Ph10	B-Ph11	B-Ph12	B-Ph13	B-Ph14	B-Ph15	B-Ph16	aux-1	digaux	

2612.330	1	1	0	512	0.12337	0.14117	0.12109	0.1286	0.079717	0.18924	0.33889	0.15725	0.11728	0.094614	0.087149	0.081909	0.080274	0.18257	0.089315	0.19556	-2.7667	-2.8396	-3.25	-3.1875	-3.0708	-3.5	-2.9625	-3.4917	-3.0938	-3.0271	-3.3521	-2.8646	-3.0187	-3.4188	-2.8521	-3.175	166.091	186.447	258.712	174.307	1.852	-23.638	238.180	194.236	193.662	54.163	-48.146	217.068	102.680	202.711	-79.585	226.353	0.00020094	0.00068494	0.00015011	916.13	2.3942e-06	5.9738e-06	935.29	369.43	2.6815e-06	6.0729e-06	456.12	139.76	123.58	49.967	3.6414e-06	75.392	0.00040126	0.00041285	0.0001128	832.31	4.4828e-06	4.3026e-06	851.89	336.77	4.5592e-06	4.542e-06	417.17	136.04	113.76	46.213	4.7424e-06	69.913	186.428	22.125	36.399	-67.618	98.695	50.030	-68.400	-62.762	44.758	92.239	-64.076	-59.937	-58.053	-53.774	45.114	-56.313	-8191	255	
2612.426	1	1	0	0	0.12374	0.18616	0.01891	0.29819	0.16938	0.22207	0.088182	0.10874	0.036825	0.30631	0.13076	0.13764	0.29419	0.13294	0.062879	0.35025	-2.7229	-2.7958	-3.4938	-3.1708	-3.0062	-3.3208	-3.0708	-3.2292	-3.2229	-2.6937	-3.3854	-3.175	-2.8792	-3.4604	-2.9875	-3.3708	174.788	10.044	1.361	242.664	242.118	33.823	32.433	91.925	151.774	195.065	184.128	111.537	-19.128	170.586	271.319	184.042	0.00019997	0.00067876	0.00017944	928.95	2.4388e-06	4.1166e-06	952.57	372.13	3.0796e-06	4.3784e-06	458.64	143.45	124.56	50.398	4.2703e-06	76.719	0.00041865	0.00041472	0.0001148	842.72	4.367e-06	4.7347e-06	868.56	339.62	4.5276e-06	4.5157e-06	419.59	138.83	114.64	46.433	4.3071e-06	70.753	180.697	20.770	22.481	-67.358	61.631	50.500	-68.404	-62.937	61.189	111.957	-64.244	-59.968	-57.887	-53.758	48.529	-56.251	-8191	255	
2612.523	1	1	0	0	0.10346	0.10266	0.097092	0.10878	0.08869	0.060236	0.41281	0.17034	0.073973	0.12398	0.20302	0.14513	0.097549	0.13361	0.16399	0.2658	-2.9125	-2.8521	-3.3458	-3.25	-2.8792	-3.3563	-2.95	-3.1583	-3.2375	-2.8	-3.2938	-3.1188	-2.9688	-3.3708	-3.0771	-3.2542	130.861	247.371	182.704	174.058	-31.210	247.836	219.692	118.100	257.147	-57.442	247.801	-24.980	18.923	-19.703	228.929	142.598	0.00018851	0.00068233	0.00013085	934.39	2.6084e-06	6.1916e-06	963.16	370.16	3.7068e-06	4.1849e-06	459.5	141.9	125.02	50.014	3.5278e-06	75.945	0.00042558	0.00041611	0.00011325	848.9	4.1542e-06	4.4583e-06	877.03	340.14	4.4753e-06	4.5621e-06	419.69	136.71	114.2	46.253	4.6022e-06	70.386	189.270	-15.745	1.866	-67.604	47.973	64.529	-68.640	-62.622	28.013	67.248	-64.448	-60.587	-58.195	-53.626	71.471	-55.660	-8191	255	
2612.619	1	1	0	0	0.22331	0.32098	0.11533	0.20021	0.13262	0.16236	0.14699	0.18782	0.1189	0.21209	0.13571	0.1388	0.26731	0.13677	0.15367	0.42523	-3.0583	-2.9458	-3.1667	-3.4	-3.0417	-3.275	-3.1104	-3.0938	-3.3625	-2.8729	-3.1458	-3.3271	-2.875	-3.4042	-2.9021	-3.1625	8.605	39.506	43.549	159.114	158.962	105.001	231.015	-9.312	-22.429	-72.456	-44.323	180.417	206.703	195.740	141.163	173.669	0.00020405	0.00076439	0.00016622	925.36	3.72e-06	4.687e-06	934.27	366.39	7.4316e-07	5.2009e-06	453.64	140.99	124.07	50.392	4.9031e-06	76.51	0.00042451	0.00041404	0.0001089	838.81	4.6042e-06	4.4681e-06	851.94	336.41	4.4761e-06	4.6641e-06	415.3	136.6	113.98	46.296	4.5573e-06	70.498	186.812	3.133	12.377	-67.441	77.922	52.325	-68.406	-62.610	104.745	81.917	-64.212	-59.957	-58.031	-54.191	85.759	-55.659	-8191	255	
2612.738	1	1	0	0	0.26642	0.20476	0.11262	0.18866	0.14857	0.10215	0.11868	0.14773	0.08729	0.25852	0.065673	0.26507	0.45179	0.073546	0.17323	0.3453	-2.925	-3.0104	-3.2438	-3.3563	-2.6188	-3.2875	-3.25	-3.0396	-3.3854	-2.9437	-3.1396	-3.2146	-2.7583	-3.4042	-3.0729	-2.975	25.751	148.854	125.886	-71.659	155.202	236.332	179.581	226.222	-8.583	198.156	-14.317	-28.721	-79.239	120.669	276.749	187.423	0.00020491	0.00072223	0.00017781	922.38	2.0875e-06	4.7353e-06	939.95	368.87	2.6456e-06	7.6195e-06	457.6	142.64	124.95	50.066	3.252e-06	75.773	0.00040249	0.00040638	0.00011464	837.47	4.4696e-06	4.5688e-06	858.93	338.24	4.4473e-06	4.4984e-06	418.05	137.15	114.32	46.284	4.6811e-06	70.181	190.763	10.750	1.569	-67.645	18.610	79.124	-68.274	-62.791	104.943	76.376	-64.574	-60.252	-57.958	-53.703	62.276	-56.350	-8191	255	
2612.834	1	1	0	0	0.15589	0.27667	0.095124	0.13524	0.22692	0.17024	0.14882	0.19631	0.18865	0.2584	0.13222	0.13927	0.14057	0.21603	0.048131	0.15753	-3.0396	-3.0146	-3.0354	-3.4458	-2.8521	-3.2229	-3.1625	-2.9083	-3.4313	-3.1729	-3.1083	-3.3333	-2.8688	-3.4208	-3.3229	-2.7833	-65.380	117.218	-30.843	212.167	20.613	234.750	185.834	255.550	42.970	-6.618	226.897	109.614	-62.222	241.539	276.841	253.248	0.00020218	0.00072746	0.00018711	928.38	1.7143e-06	6.3418e-06	952.72	369.6	2.506e-06	3.8811e-06	460.95	144.35	124.42	50.237	4.8049e-06	76.862	0.00040846	0.00041376	0.00011373	840.9	4.4039e-06	4.7343e-06	869.28	338.72	4.5215e-06	4.6783e-06	420.04	137.77	114.41	46.438	4.6861e-06	70.722	188.903	19.698	0.034	-67.500	60.682	55.042	-68.632	-62.925	-19.259	67.196	-64.548	-60.429	-57.836	-53.712	67.664	-55.941	-8191	255	
2612.907	1	1	0	0	0.1426	0.038022	0.16364	0.17238	0.36943	0.21759	0.24758	0.16994	0.18698	0.18129	0.080815	0.21515	0.030455	0.11577	0.2621	0.029609	-2.8604	-2.8375	-2.9458	-3.3208	-2.9146	-3.2208	-3.3833	-2.95	-3.4583	-3.0563	-3	-3.1646	-2.9208	-3.1375	-3.2417	-2.8438	72.001	187.555	44.966	-44.724	95.261	114.567	168.746	190.870	238.102	133.400	243.148	-47.526	-80.022	98.976	-13.751	266.972	0.00023492	0.00088957	0.00016786	930.13	2.6874e-06	7.4561e-06	968.14	373.26	3.4193e-06	4.5233e-06	461.84	142.4	125.44	50.294	3.1831e-06	76.362	0.00041332	0.00041503	0.00011613	844.8	4.5353e-06	4.5675e-06	880.8	341.21	4.7851e-06	4.6672e-06	422.37	137.79	114.9	46.45	4.781e-06	70.678	179.763	7.109	30.188	-67.610	79.352	75.107	-68.455	-62.616	54.270	53.342	-64.432	-60.398	-58.005	-53.428	42.835	-55.925	-8191	255	
2613.026	1	1	0	0	0.1471	0.19495	0.2622	0.18926	0.11614	0.21802	0.27593	0.19682	0.14224	0.075271	0.083653	0.056353	0.23647	0.156	0.31623	0.2969	-2.8667	-3.0333	-2.7333	-3.3875	-2.9146	-3.2896	-3.2208	-2.9083	-3.2521	-3.0187	-2.9021	-3.3583	-3.0042	-3.2812	-3.2104	-3.0854	-52.005	117.776	75.422	226.620	222.045	90.760	227.692	-42.090	33.446	-53.553	6.263	179.716	-58.278	197.843	205.712	218.358	0.00026431	0.00069088	0.00016027	919.87	4.2274e-07	7.118e-06	937.63	368.02	2.9059e-06	3.7865e-06	453.05	140.59	124.67	49.844	3.8015e-06	75.671	0.00042946	0.00042495	0.0001137	838.05	4.4395e-06	4.8208e-06	853.66	337.17	4.6343e-06	4.4561e-06	414.83	136.9	114.11	46.313	4.5728e-06	70.091	186.496	14.442	44.510	-67.149	143.139	89.017	-68.808	-62.833	71.272	88.792	-64.274	-60.982	-57.707	-53.583	67.959	-56.055	-8191	255	
2613.122	1	1	0	0	0.17006	0.093528	0.15196	0.40617	0.16962	0.11782	0.22825	0.016725	0.1906	0.053422	0.3254	0.15791	0.072305	0.31221	0.091051	0.33667	-2.7062	-3.225	-2.8563	-3.3354	-3.0875	-3.0292	-3.5104	-2.9896	-3.2479	-3.2979	-3.1667	-3.2687	-2.9896	-3.025	-3.5167	-2.975	-65.701	35.457	-0.856	247.198	242.627	263.598	213.316	-27.310	52.806	179.394	256.827	-69.805	173.687	264.330	255.654	-62.861	0.00019081	0.000692	0.0001844	919.94	3.9475e-06	4.5268e-06	935.22	367.93	2.9037e-06	7.5726e-06	454.82	142.65	124.27	50.281	4.3231e-06	76.755	0.00042239	0.00038769	0.00011836	834.65	4.4211e-06	4.6068e-06	852.74	337.03	4.4635e-06	4.7594e-06	415.7	137.88	114.38	46.325	4.781e-06	70.713	181.074	12.783	16.732	-67.645	50.283	62.588	-68.513	-62.884	53.075	43.460	-64.383	-60.077	-57.864	-53.986	49.026	-55.976	-8191	255	
2613.218	1	1	0	0	0.20672	0.12135	0.094111	0.092174	0.11356	0.074873	0.16956	0.18697	0.10379	0.19876	0.085704	0.091713	0.18905	0.12599	0.18252	0.28051	-2.5938	-3.2438	-3.0646	-3.2896	-3.075	-3.0167	-3.2979	-3.2	-3.2104	-3.3312	-3.0375	-3.2604	-3.075	-2.9688	-3.3271	-2.8604	76.308	-70.591	77.336	-73.141	154.316	109.606	274.176	115.752	-67.888	3.531	240.868	-15.625	123.681	251.434	99.369	159.497	0.00021954	0.00060752	0.00017105	924.45	2.1016e-06	8.2339e-06	948.03	370.82	3.7382e-06	6.1403e-06	461.75	141.9	124.22	50.577	4.6494e-06	77.133	0.00041737	0.000399	0.00012361	840.74	4.3886e-06	4.4832e-06	866.17	339.23	4.7032e-06	4.5674e-06	420.68	137.91	114.71	46.718	4.5426e-06	71.01	184.909	10.337	13.234	-67.270	32.676	80.977	-68.604	-62.882	95.597	98.911	-64.539	-60.709	-58.206	-53.531	76.031	-56.016	-8191	255	
2613.339	1	1	0	0	0.11447	0.13975	0.065967	0.37152	0.075469	0.26665	0.13154	0.21492	0.13741	0.28112	0.25697	0.13289	0.1692	0.21687	0.15452	0.28148	-2.7687	-3.3042	-2.8854	-3.3458	-3.1854	-2.9104	-3.4604	-2.9479	-3.0271	-3.4292	-2.925	-3.3479	-3.1104	-2.9729	-3.3021	-3.2458	-38.369	62.612	-78.090	-71.426	-28.419	133.200	187.595	272.026	80.580	-77.909	185.674	38.879	-25.001	60.154	-59.758	219.176	0.00017927	0.00054209	0.00010739	930.72	4.2391e-06	6.6633e-06	970.08	373.59	3.8198e-06	6.2991e-06	462.35	141.46	124.76	50.58	4.9004e-06	76.986	0.00042395	0.00041972	0.00011708	847.94	4.5285e-06	4.7272e-06	882.06	341.51	4.4672e-06	4.489e-06	423.35	137.98	115.23	46.815	4.7562e-06	71.043	180.590	-7.877	56.684	-67.729	52.201	77.617	-68.543	-62.772	51.955	72.114	-64.562	-60.499	-58.047	-53.469	81.009	-56.125	-8191	255	
2613.435	1	1	0	0	0.062115	0.065119	0.18694	0.20107	0.2492	0.17541	0.20701	0.063461	0.13698	0.13725	0.21652	0.13303	0.16425	0.20723	0.19426	0.20572	-2.5521	-3.3167	-2.7333	-3.25	-3.2438	-2.9146	-3.5354	-3.1646	-3.0104	-3.3854	-2.8812	-3.1854	-3.3104	-3.0729	-3.175	-3.1854	10.523	-31.053	19.176	183.703	124.852	-1.331	248.839	65.014	49.154	84.782	-72.166	68.255	152.119	-52.652	98.781	257.334	0.00023922	0.00072113	0.00010485	930.97	4.6106e-06	5.5731e-06	942.15	371.67	3.8341e-06	6.4012e-06	456.11	144.69	125.14	50.565	2.9384e-06	76.454	0.00041514	0.00042023	0.00011083	841	4.3213e-06	4.4948e-06	860.94	338.86	4.8492e-06	4.5402e-06	417.44	138.94	114.5	46.759	4.4687e-06	70.737	190.968	-22.898	24.199	-67.764	73.895	83.045	-68.659	-62.773	56.231	75.221	-64.636	-60.714	-58.473	-53.523	59.040	-56.047	-8191	255	
2613.507	1	1	0	0	0.17152	0.28091	0.14093	0.36442	0.18428	0.1139	0.2165	0.41109	0.31435	0.093734	0.16168	0.12603	0.10822	0.13141	0.10856	0.19626	-2.6458	-3.3125	-2.9125	-3.1896	-3.2333	-2.9729	-3.4458	-2.9917	-2.9104	-3.3688	-3.2042	-3.0771	-3.2	-2.9667	-3.2646	-3.1104	-38.268	31.633	257.985	225.221	-25.191	-31.139	-11.786	212.995	112.172	228.388	272.335	99.364	-11.661	22.615	189.364	248.602	0.00020063	0.00085175	0.00017027	922.78	3.9e-06	6.4782e-06	946.45	369.84	4.6178e-06	5.4499e-06	457.04	140.75	125.02	50.543	3.3349e-06	76.94	0.00042197	0.00042257	0.00012046	838.45	4.4824e-06	4.6656e-06	860.04	338	4.7385e-06	4.3362e-06	418.2	137.77	114.81	46.715	4.543e-06	70.979	178.435	1.221	33.205	-67.587	73.653	79.966	-68.490	-62.851	44.442	71.903	-64.401	-60.627	-57.814	-53.757	58.203	-56.040	-8191	255	
2613.627	1	1	0	0	0.06757	0.042761	0.3428	0.20829	0.086448	0.33698	0.20442	0.36143	0.11133	0.1196	0.29036	0.13734	0.28463	0.12378	0.09146	0.30637	-2.4417	-3.2188	-2.8854	-3.1833	-3.15	-2.8896	-3.4417	-3.2792	-2.7938	-3.3396	-3.0958	-3	-3.3979	-3.0875	-3.2125	-3.4729	243.810	104.892	120.935	259.446	-50.221	20.199	161.274	190.427	141.480	-18.031	275.108	161.464	70.410	-65.404	244.724	236.039	0.00021786	0.00078292	8.2455e-05	928.86	4.9893e-06	8.1603e-06	965.56	372.41	4.2753e-06	5.0849e-06	463.08	143.16	124.96	50.621	3.391e-06	77.485	0.00041979	0.00042615	0.00012039	843.98	4.4295e-06	4.6018e-06	875.03	340.62	4.7851e-06	4.4552e-06	422.53	139.08	114.95	46.821	4.7445e-06	71.529	178.506	-2.999	34.667	-67.218	47.532	60.299	-68.457	-62.790	46.722	94.318	-64.404	-60.645	-58.094	-53.861	67.242	-55.934	-8191	255	
2613.722	1	1	0	0	0.23037	0.079992	0.0048304	0.10569	0.15808	0.28838	0.35147	0.14989	0.23341	0.086591	0.14234	0.32094	0.090488	0.38558	0.23384	0.081697	-2.3729	-3.2875	-2.9229	-3.0625	-3.3854	-2.8854	-3.4437	-3.2854	-2.8229	-3.4625	-3.2167	-3.1437	-3.3688	-3.1271	-3.0979	-3.4833	128.253	112.814	-43.272	122.429	235.817	25.433	189.949	142.592	0.697	73.197	-26.306	50.280	199.413	-59.774	187.324	4.771	0.00020588	0.00063073	0.00017312	936.07	4.6375e-06	5.8087e-06	976.75	373.16	3.0372e-06	4.2601e-06	466.59	143.12	125.49	50.883	3.9769e-06	77.893	0.00043183	0.00041226	0.00011447	850.87	4.5157e-06	4.7343e-06	887.54	341.5	4.7393e-06	4.5033e-06	425.84	139.64	115.49	46.95	4.658e-06	71.687	177.349	15.413	21.095	-67.404	68.950	61.278	-68.193	-62.981	55.467	83.052	-64.518	-60.776	-57.648	-53.512	48.713	-55.839	-8191	255	
2613.818	1	1	0	0	0.15935	0.18984	0.28754	0.25408	0.14817	0.092291	0.12372	0.15082	0.28297	0.089669	0.12813	0.30116	0.17464	0.20471	0.061573	0.085901	-2.4271	-3.3625	-3.0312	-3.0521	-3.4271	-3.0625	-3.2438	-3.4208	-2.8333	-3.2708	-3.3958	-3.0375	-3.4021	-2.7479	-3.1979	-3.3833	-14.576	-78.738	192.245	237.073	175.506	153.923	199.666	158.268	153.138	137.374	-72.048	182.392	78.345	224.210	242.224	170.998	0.00020057	0.00076893	0.00015212	928.51	3.8082e-06	3.4877e-06	947.93	369.83	3.1851e-06	6.784e-06	456.67	142.28	124.09	50.159	3.1952e-06	76.025	0.00044053	0.0004192	0.00012131	844.85	4.4091e-06	4.5858e-06	867.61	339.07	4.5459e-06	4.5157e-06	418.94	137.86	114.16	46.506	4.6924e-06	70.481	176.196	8.732	-1.235	-67.625	24.028	49.890	-68.458	-62.861	61.808	73.187	-64.543	-60.428	-58.024	-53.614	58.074	-55.979	-8191	255	
2613.914	1	1	0	0	0.14249	0.19831	0.14921	0.24423	0.22986	0.12206	0.047976	0.31772	0.17342	0.055562	0.038335	0.13395	0.13346	0.25187	0.12476	0.14306	-2.4604	-3.2396	-3.0208	-3.2354	-3.3312	-3.0292	-3.1667	-3.3979	-2.9583	-3.2417	-3.2896	-2.9542	-3.3729	-3.1125	-3.0396	-3.4875	113.304	27.549	67.497	190.123	183.557	236.528	-23.010	264.094	55.225	26.377	120.384	-54.990	-60.282	254.989	256.096	184.138	0.00022923	0.00087411	0.00017918	921.6	2.7563e-06	6.1554e-06	925.18	369.22	3.1976e-06	8.3142e-06	454.92	141.82	125.05	50.51	2.7781e-06	76.504	0.00043857	0.00041638	0.00011422	834.76	4.6178e-06	4.6157e-06	849.01	337.12	4.7912e-06	4.7318e-06	416.07	138.39	114.47	46.515	5.0278e-06	70.679	182.727	15.527	7.010	-67.269	97.610	37.222	-68.968	-62.763	8.037	57.766	-64.527	-60.511	-58.136	-53.566	66.752	-56.096	-8191	255	
2614.035	1	1	0	0	0.13465	0.11936	0.16048	0.40288	0.041991	0.27086	0.12267	0.17275	0.21499	0.16774	0.064159	0.11673	0.051239	0.17525	0.1743	0.064204	-2.3625	-3.0271	-3.1937	-3.0042	-3.2792	-3.15	-3.0563	-3.5021	-2.9729	-3.2292	-3.3417	-2.9333	-3.2042	-3.2125	-3.1625	-3.5292	-74.856	-22.193	13.025	-33.462	122.084	237.477	150.972	276.192	81.030	215.991	169.644	93.648	196.693	214.128	175.423	209.181	0.00017376	0.00049428	0.00010997	921.53	2.9035e-06	6.5557e-06	945.49	368.74	1.582e-06	4.5909e-06	460.54	141.47	124.79	50.376	3.6691e-06	76.722	0.00042658	0.00042472	0.00011506	837.95	4.2981e-06	4.4855e-06	862.88	338.05	4.6866e-06	4.4623e-06	420.1	137.94	114.66	46.567	4.475e-06	70.898	194.863	15.330	-0.106	-67.459	39.017	90.413	-68.437	-62.578	50.229	41.140	-64.217	-60.398	-57.933	-53.467	43.677	-55.894	-8191	255	
2614.106	1	1	0	0	0.048138	0.07414	0.38596	0.28314	0.24397	0.050336	0.12704	0.085672	0.1106	0.26472	0.10871	0.049721	0.14211	0.098032	0.21056	0.061784	-2.5146	-3.1375	-3.2521	-2.7833	-3.3417	-3.1146	-3.1562	-3.3937	-3.0354	-3.2562	-3.2958	-2.8271	-3.1729	-3.1542	-2.9229	-3.5396	266.410	141.999	255.732	-74.868	-79.609	26.126	251.225	4.774	266.852	92.298	-0.620	39.479	269.391	246.303	-17.102	140.649	0.00022055	0.00035923	0.00019471	934.81	3.1408e-06	3.3668e-06	962.43	370.29	4.541e-07	5.5113e-06	464.57	142.15	125.23	50.82	1.9106e-06	77.169	0.00042776	0.00043349	0.00011408	844.11	4.4019e-06	4.8302e-06	875.02	339.27	4.807e-06	4.6547e-06	422.98	138.49	115.35	46.832	4.6593e-06	71.434	184.942	1.467	5.218	-67.491	59.238	39.953	-68.276	-62.853	1.888	65.163	-64.486	-60.008	-57.895	-53.737	74.549	-55.955	-8191	255	
2614.203	1	1	0	0	0.19991	0.12717	0.11575	0.10998	0.14399	0.085989	0.20184	0.17221	0.086749	0.11274	0.40412	0.1364	0.14099	0.065931	0.19057	0.16856	-2.5583	-3.0062	-3.2479	-2.9604	-3.1792	-3.275	-2.9333	-3.4208	-3.0667	-2.9667	-3.4437	-2.9083	-3.3229	-3.3375	-2.8396	-3.4083	148.216	-51.022	61.061	165.151	142.047	167.632	189.718	-12.597	126.792	65.222	252.237	-19.234	38.482	231.015	8.306	-8.907	0.00020384	0.00071766	9.6029e-05	929.12	2.9164e-06	5.6145e-06	950.6	368.67	2.9876e-06	5.4824e-06	458.34	141.94	125.22	50.353	2.2578e-06	76.616	0.00042558	0.00042333	0.00012041	843.74	4.468e-06	4.737e-06	867.23	338.31	4.7729e-06	4.6204e-06	417.95	138.01	114.4	46.564	4.6786e-06	70.84	183.033	0.319	2.279	-67.804	48.340	78.244	-68.475	-62.795	67.391	81.671	-64.398	-61.487	-57.984	-53.659	83.888	-55.896	-8191	255	
2614.299	1	1	0	0	0.18995	0.26507	0.13942	0.27677	0.16418	0.22582	0.17009	0.25959	0.024061	0.28797	0.31015	0.25077	0.18849	0.12063	0.2279	0.16942	-2.6271	-2.9938	-3.4354	-2.9771	-3.2188	-3.3229	-3.0458	-3.4958	-2.9917	-2.8583	-3.6021	-2.9062	-3.2104	-3.4042	-2.9125	-3.4583	130.788	21.905	64.798	5.187	173.967	106.031	146.025	217.812	-31.964	241.061	195.820	220.935	-55.416	-20.016	-54.487	274.957	0.00024639	0.00082511	0.00013245	926.11	3.3325e-06	5.6202e-06	932.98	366.6	4.6404e-06	5.4203e-06	452.64	140.66	124.26	50.373	5.8749e-06	76.145	0.00044976	0.00041003	0.00011426	834.5	4.7565e-06	4.6728e-06	851.01	335.51	4.7519e-06	4.6111e-06	415.16	137.17	114.24	46.49	4.7176e-06	70.542	185.587	11.053	2.188	-67.745	95.363	84.671	-68.610	-62.679	56.333	73.695	-64.576	-59.966	-57.941	-53.772	73.868	-56.108	-8191	255	
2614.419	1	1	0	0	0.16242	0.24656	0.13839	0.10704	0.23515	0.16358	0.25048	0.1248	0.124	0.071501	0.080854	0.23198	0.33006	0.18977	0.046678	0.11519	-2.7812	-2.8708	-3.3021	-2.8458	-3.2188	-3.425	-2.9646	-3.3917	-3.1625	-3.0292	-3.3646	-2.9479	-3.2375	-3.4062	-2.8208	-3.4333	121.294	277.424	-64.960	-38.841	189.868	146.079	180.476	-50.161	211.003	156.642	121.872	73.618	165.380	-66.434	257.998	262.921	0.00022748	0.00034393	0.0001498	919.21	5.0231e-06	6.4394e-06	945.3	369.89	4.2875e-06	5.9434e-06	460.31	143.67	124.76	50.494	3.3625e-06	77.239	0.00042667	0.00042698	0.00011839	836.3	4.4439e-06	4.6621e-06	861.59	337.92	4.6197e-06	4.4993e-06	420.13	138.81	115.07	46.813	4.776e-06	71.337	188.806	9.178	29.692	-67.730	44.795	80.190	-68.621	-62.722	57.166	90.201	-64.271	-59.672	-58.368	-53.788	76.402	-56.164	-8191	255	
2614.515	1	1	0	0	0.037763	0.068469	0.12634	0.13672	0.16012	0.096536	0.057307	0.12239	0.12226	0.327	0.13946	0.049271	0.046331	0.10123	0.057493	0.17782	-2.7021	-2.8229	-3.2229	-3.0687	-2.9292	-3.4771	-2.9229	-3.3104	-3.1542	-2.6937	-3.4833	-2.9896	-2.85	-3.3729	-2.9479	-3.0333	129.125	226.472	-39.385	251.769	274.502	229.909	222.456	231.721	148.432	-11.124	67.364	-50.157	-54.100	271.252	17.414	240.591	0.00020299	0.00071228	0.00020378	930.34	2.9647e-06	6.3409e-06	968.25	372.92	4.4027e-06	4.8514e-06	464.31	144.96	125.7	51.128	2.4459e-06	77.624	0.00043534	0.00044257	0.00011467	845.81	4.6463e-06	4.8775e-06	882.2	341.38	4.7932e-06	4.4614e-06	423.99	139	115.57	47.096	4.9527e-06	71.775	184.947	0.720	5.977	-67.406	67.360	58.215	-68.814	-62.816	46.401	96.329	-64.822	-61.081	-58.213	-53.522	107.894	-55.750	-8191	255	
2614.612	1	1	0	0	0.13111	0.053754	0.23265	0.19246	0.11749	0.27686	0.22783	0.20307	0.13006	0.043175	0.099517	0.16356	0.12302	0.27659	0.065445	0.30104	-2.8792	-2.9417	-3.2458	-3.125	-3.0229	-3.3583	-3.1292	-3.3083	-3.425	-2.8125	-3.3979	-3.1813	-3.0687	-3.4167	-3.1437	-3.0062	232.508	77.189	220.622	-65.907	67.688	-72.773	239.382	95.376	-6.758	139.718	-74.082	-9.333	65.151	-45.158	108.627	222.882	0.00019878	0.00057027	0.00014351	938.49	3.8877e-06	8.8814e-06	972.64	372.27	4.2717e-06	5.6746e-06	461.82	143.54	124.99	50.715	3.5158e-06	77.533	0.00041881	0.00042476	0.00011676	853.54	4.4564e-06	4.7374e-06	883.77	341.75	5.0025e-06	4.7019e-06	422.37	139.5	115.48	46.98	4.8297e-06	71.474	184.467	-11.983	30.210	-67.464	57.066	82.339	-68.659	-62.784	47.093	67.217	-64.482	-59.985	-57.831	-53.833	93.464	-55.890	-8191	255	
2614.708	1	1	0	0	0.22252	0.24292	0.054308	0.21884	0.17733	0.23225	0.21133	0.26964	0.16838	0.20131	0.22061	0.22054	0.23146	0.081021	0.36979	0.22652	-2.9354	-2.8458	-3.2708	-3.1083	-2.8563	-3.2917	-3.2062	-3.1396	-3.3125	-2.9625	-3.2438	-3.1625	-2.8667	-3.6104	-3.0146	-3.0125	81.949	66.529	152.813	254.344	18.573	61.222	209.126	223.317	37.355	139.259	139.029	-42.941	164.430	257.612	197.070	226.287	0.00024708	0.00067025	0.00017591	923.13	3.9041e-06	5.7626e-06	941.22	368.48	2.123e-06	5.8567e-06	459.13	143.36	124.86	50.343	4.0785e-06	76.884	0.00043471	0.00042301	0.00012114	838.32	4.7216e-06	4.6192e-06	858.58	338.05	4.7348e-06	4.6338e-06	418.27	138.35	114.72	46.757	4.8498e-06	71.119	177.999	3.369	2.620	-67.537	80.369	49.323	-68.804	-62.753	38.661	59.825	-64.690	-60.108	-57.691	-53.830	60.219	-56.068	-8191	255	
2614.804	1	1	0	0	0.043015	0.14696	0.03296	0.26545	0.20562	0.059906	0.18696	0.33743	0.12894	0.20624	0.092181	0.1961	0.032161	0.061921	0.2034	0.49706	-2.8708	-2.7042	-3.1646	-3.2646	-2.8812	-3.3833	-3.2167	-3.2542	-3.3229	-2.9396	-3.2625	-3.2771	-2.9875	-3.3542	-3.2375	-3.0625	131.095	-19.819	0.090	247.640	-70.624	-51.006	-67.469	192.372	13.856	243.689	21.043	68.916	-18.789	195.382	253.800	271.757	0.00019055	0.00074025	0.00015583	922.76	4.0742e-06	9.7415e-06	942.51	371.43	2.9269e-06	3.9532e-06	460.65	142.1	124.19	50.526	4.1784e-06	77.089	0.00043246	0.00042845	0.00012085	837.41	4.7228e-06	4.815e-06	860.42	339.14	4.5986e-06	4.7193e-06	419.86	137.63	114.64	46.694	4.9291e-06	71.15	185.608	-8.823	36.009	-67.667	81.770	47.205	-68.262	-62.509	70.617	80.484	-64.366	-60.257	-58.067	-53.899	53.475	-56.028	-8191	255	
2614.900	1	1	0	0	0.11799	0.29927	0.16349	0.1485	0.27352	0.28757	0.070289	0.036385	0.078532	0.28956	0.24181	0.062375	0.207	0.23535	0.13899	0.26969	-2.9042	-2.8479	-3.0938	-3.2354	-2.7938	-3.2812	-3.2271	-2.925	-3.2604	-3.0312	-3.2458	-3.3875	-3.1875	-3.3771	-3.175	-3.0083	128.701	8.113	26.995	242.394	214.680	192.872	78.958	36.214	-14.081	120.845	227.469	183.206	136.099	188.581	199.720	205.107	0.00021685	0.00066968	0.00018408	926.48	2.6616e-06	8.3916e-06	956.83	371.72	3.6391e-06	3.8812e-06	462.72	141.38	125.95	50.416	3.4115e-06	77.382	0.0004359	0.00041884	0.00012203	840.98	4.714e-06	4.4743e-06	870.93	339.84	4.7125e-06	4.6739e-06	422.52	138.02	114.83	46.654	4.9422e-06	71.332	186.867	-8.668	15.658	-67.586	65.019	71.011	-68.474	-62.575	27.553	85.604	-64.440	-60.045	-57.994	-53.335	48.408	-55.816	-8191	255	
2615.019	1	1	0	0	0.10878	0.057965	0.29102	0.28427	0.17554	0.17009	0.37449	0.21785	0.13415	0.11828	0.23506	0.031208	0.19805	0.28598	0.12909	0.19063	-2.9604	-2.8292	-2.9896	-3.4375	-2.8083	-3.25	-3.1917	-2.8021	-3.4333	-3.0646	-3.1458	-3.3271	-2.9458	-3.2292	-3.0854	-2.9021	10.198	30.031	-25.511	205.487	23.917	276.477	160.839	226.104	177.213	145.688	263.975	-66.713	270.768	191.505	221.150	165.484	0.00023671	0.00057572	0.00017485	929.29	4.6488e-06	6.9043e-06	963.13	369.86	1.7712e-06	6.1179e-06	463.63	144.34	125.56	50.61	3.8206e-06	77.095	0.00041921	0.00040694	0.00011932	846.53	4.5593e-06	4.4288e-06	876.81	340.18	4.7365e-06	4.6917e-06	422.51	139.31	115.12	46.744	4.6219e-06	71.237	184.435	-23.286	34.005	-67.644	22.523	42.305	-68.507	-62.794	92.748	88.314	-64.314	-60.578	-58.058	-53.581	53.827	-55.921	-8191	255	
2615.115	1	1	0	0	0.13716	0.24496	0.17284	0.36819	0.1534	0.072931	0.12489	0.26339	0.20578	0.20084	0.073042	0.14053	0.37829	0.24984	0.085344	0.2594	-2.9521	-3	-3.0187	-3.4333	-3.0292	-3.0667	-3.3563	-2.975	-3.2104	-3.1229	-2.9875	-3.4	-2.875	-3.2104	-3.1958	-2.9667	150.249	104.827	13.131	205.392	185.029	115.319	246.974	213.427	155.456	99.188	196.511	138.173	12.209	-52.463	92.945	201.049	0.00021028	0.00054213	0.00017007	921.57	2.7184e-06	6.2155e-06	930.46	366.56	2.8536e-06	9.6278e-06	455.94	142.47	125.36	50.346	4.771e-06	76.532	0.00043039	0.00043519	0.0001146	834.6	4.6118e-06	4.423e-06	847.14	336.43	4.6651e-06	4.6507e-06	416.22	138.09	114.59	46.656	4.7264e-06	70.891	190.735	-17.825	29.665	-67.334	50.124	51.033	-68.533	-62.619	44.808	85.377	-64.561	-60.137	-57.907	-53.713	31.454	-55.848	-8191	255	
2615.211	1	1	0	0	0.34546	0.20178	0.083177	0.19452	0.096191	0.043933	0.33371	0.12284	0.087139	0.16258	0.20373	0.14692	0.16729	0.32867	0.11305	0.23376	-2.8688	-3.0812	-2.9854	-3.4333	-2.9146	-3.1729	-3.4271	-2.9333	-3.3375	-3.1333	-3.0396	-3.2521	-3.1396	-3.2521	-3.3438	-2.8958	-41.484	137.827	202.926	251.590	235.412	191.034	240.318	149.597	87.956	44.575	257.109	134.657	201.346	259.651	130.763	156.421	0.00018869	0.00057436	0.00019954	917.85	3.4697e-06	5.7298e-06	931.05	370.43	3.2807e-06	5.74e-06	457.38	142.05	124.95	50.524	4.5288e-06	77.583	0.00043571	0.00040492	0.00011612	831.93	4.26e-06	4.6888e-06	847.02	338.05	4.8188e-06	4.5055e-06	418.14	138.22	115.32	46.765	4.6714e-06	71.473	188.183	4.954	1.484	-67.592	68.288	64.036	-68.225	-62.905	33.190	87.744	-64.510	-59.267	-57.753	-53.586	44.348	-56.147	-8191	255	
2615.307	1	1	0	0	0.14571	0.25319	0.28913	0.3167	0.18615	0.036971	0.4214	0.21092	0.15926	0.12663	0.15922	0.2414	0.17876	0.1088	0.051418	0.068114	-2.6188	-3.2271	-2.925	-3.4708	-2.8292	-3.0542	-3.4042	-3	-3.0563	-3.3208	-3.0083	-3.3729	-3.0083	-3.1021	-3.4396	-2.9562	95.120	88.929	37.852	261.324	29.477	192.962	238.767	146.215	130.195	203.807	169.267	156.170	71.043	262.609	180.301	236.042	0.00022035	0.00081508	0.00014264	920.21	1.9848e-06	5.3454e-06	946.2	373.33	4.7471e-06	5.1257e-06	462.56	145.48	126.44	50.862	5.435e-06	77.586	0.00042534	0.00041706	0.00011219	836.46	4.4551e-06	4.5055e-06	859.5	341.69	4.4619e-06	4.3425e-06	422.57	140.11	116.19	47.166	4.9082e-06	71.854	179.438	21.249	11.911	-67.565	85.458	72.578	-68.309	-62.817	54.593	62.961	-64.255	-60.590	-58.128	-53.442	43.076	-56.117	-8191	255	
2615.404	1	1	0	0	0.15825	0.074664	0.27821	0.13084	0.066302	0.017909	0.1479	0.16568	0.19975	0.072918	0.17671	0.2664	0.25747	0.2758	0.096638	0.086154	-2.7021	-3.0646	-2.8229	-3.3292	-2.975	-2.8979	-3.3979	-2.9896	-3.1729	-3.3667	-3.1354	-3.1437	-3.1208	-2.875	-3.3979	-3.1396	20.155	66.508	-37.829	-71.530	-11.342	168.025	192.531	234.395	179.576	78.716	103.240	230.419	-52.911	262.840	74.938	137.993	0.0002138	0.00075225	0.00019766	928.01	3.4518e-06	3.9948e-06	953.08	377.01	4.7508e-06	6.9681e-06	463.84	143.92	127.08	51.233	3.0814e-06	78.163	0.00044043	0.00043269	0.00012774	843.27	4.6695e-06	4.7356e-06	867.13	344.78	4.9092e-06	4.8507e-06	424.52	140.21	116.08	47.316	4.5892e-06	72.234	188.794	3.083	1.919	-67.523	78.013	58.714	-68.720	-62.811	50.764	53.729	-64.484	-61.101	-58.094	-53.710	69.321	-55.958	-8191	255	
2615.500	1	1	0	0	0.061702	0.086068	0.27841	0.21308	0.23324	0.092116	0.23784	0.066497	0.12795	0.14475	0.16938	0.043835	0.18038	0.25135	0.10429	0.039602	-2.7604	-3.1854	-2.8396	-3.2896	-3.2708	-2.85	-3.5271	-3.2875	-3.1771	-3.4229	-2.8854	-3.0958	-3.4021	-2.9125	-3.1688	-3.1875	262.807	-17.026	235.848	-27.614	238.181	7.693	256.063	214.227	245.187	-10.628	216.054	-21.145	130.340	-65.400	11.807	206.149	0.0002399	0.00040241	0.00017159	923.35	2.485e-06	3.7214e-06	927.65	371	2.9081e-06	7.3108e-06	458.09	142.92	124.94	50.493	4.4135e-06	76.814	0.00042188	0.00040718	0.00011948	835.61	4.456e-06	4.6201e-06	845.1	339.98	4.5665e-06	4.4128e-06	417.93	138.36	115.06	46.818	4.5611e-06	71.123	183.836	37.217	30.624	-67.685	74.069	45.983	-68.637	-62.870	114.397	73.409	-64.480	-59.835	-58.195	-53.716	80.780	-56.140	-8191	255	
2615.596	1	1	0	0	0.13148	0.20518	0.1079	0.23441	0.24374	0.27761	0.25189	0.19502	0.25856	0.2165	0.084171	0.18354	0.059935	0.04391	0.22621	0.30375	-2.6167	-3.35	-2.8667	-3.3208	-3.2958	-2.9375	-3.4813	-3.3396	-2.9688	-3.3604	-2.9625	-3.1063	-3.2958	-3.0375	-3.3271	-3.2479	240.388	231.608	75.189	241.551	93.490	-61.363	244.225	3.322	139.923	33.291	-71.909	135.361	-72.164	72.179	160.676	242.839	0.00020678	0.00075259	0.00018967	915.15	2.9853e-06	6.2664e-06	931.16	370.46	2.5058e-06	4.2811e-06	460.68	145.02	127.06	51.381	3.8284e-06	78.022	0.00042837	0.00040372	0.00011815	832.3	4.6242e-06	4.691e-06	849.4	339.63	4.8026e-06	4.6703e-06	420.87	140.02	116.69	47.414	4.789e-06	72.118	187.150	8.130	21.421	-67.836	68.763	66.671	-68.408	-62.796	33.199	71.701	-64.400	-60.750	-57.862	-53.498	89.651	-56.134	-8191	255	
2615.692	1	1	0	0	0.23423	0.084121	0.12933	0.048857	0.1645	0.08457	0.17896	0.20978	0.15065	0.13306	0.22541	0.12799	0.17633	0.21247	0.043932	0.15312	-2.5479	-3.275	-3.075	-3.3479	-3.3354	-2.9708	-3.3125	-3.275	-3.0854	-3.3875	-2.9896	-3.125	-3.2146	-3.15	-3.2271	-2.9875	34.503	-6.403	247.458	-65.691	-79.674	154.277	219.342	117.531	-31.422	224.360	200.815	253.954	167.280	229.088	19.956	-70.256	0.00023813	0.00083137	0.00020261	924.91	4.546e-06	7.4253e-06	943.69	373.19	4.4866e-06	5.1329e-06	462	145.47	127.35	51.118	3.7423e-06	77.944	0.00042637	0.00041785	0.00011761	838.17	4.478e-06	4.5385e-06	860.76	341.99	4.9408e-06	4.5977e-06	424.29	139.79	116.89	47.408	4.5993e-06	72.168	186.263	-2.037	13.865	-67.821	73.901	96.740	-68.790	-62.899	68.886	82.537	-64.468	-59.691	-58.395	-53.946	69.882	-56.257	-8191	255	
2615.811	1	1	0	0	0.18935	0.24749	0.096467	0.13775	0.1263	0.23449	0.27398	0.22336	0.056413	0.081247	0.095407	0.025567	0.15255	0.37236	0.1509	0.2419	-2.4708	-3.2833	-2.8688	-3.2021	-3.2375	-2.9917	-3.2854	-3.2146	-2.9875	-3.45	-3.2875	-2.7938	-3.4021	-2.9375	-3.0729	-3.3354	-23.326	-2.753	-49.505	126.562	86.039	40.824	247.164	-49.536	-64.398	149.222	167.642	180.387	7.744	253.613	8.581	212.409	0.00022728	0.00098082	0.00016483	928.72	2.7205e-06	5.001e-06	954.31	375.69	3.7638e-06	1.0345e-05	467.76	144.95	127.01	51.229	4.3025e-06	78.236	0.00043476	0.00042741	0.0001206	842.8	4.4463e-06	4.819e-06	868.22	344.05	4.6785e-06	4.7202e-06	425.95	141.01	116.41	47.338	4.9191e-06	72.318	184.470	12.241	10.196	-67.395	47.734	62.002	-68.587	-62.794	46.392	72.246	-64.342	-60.610	-58.043	-53.728	90.494	-56.233	-8191	255	
2615.907	1	1	0	0	0.29793	0.2504	0.16143	0.20484	0.33326	0.064477	0.079248	0.15066	0.22	0.077455	0.33039	0.092524	0.14117	0.18465	0.15646	0.29588	-2.3396	-3.1833	-3.1104	-3.1771	-3.4104	-3.0042	-3.1604	-3.4188	-2.8958	-3.3854	-3.2417	-2.9062	-3.4313	-2.8937	-3.0833	-3.3625	43.865	-18.300	14.486	229.715	209.544	128.455	153.356	217.335	243.226	123.118	222.386	192.753	164.761	-42.380	152.360	173.367	0.00019177	0.00065096	0.00012983	920.56	2.3227e-06	6.4026e-06	925.01	369.73	2.5029e-06	8.6934e-06	458.51	142.69	126.32	51.356	3.0122e-06	78.041	0.00044697	0.00043432	0.00011905	833.07	4.6571e-06	4.8422e-06	844.19	338.88	4.7077e-06	4.5002e-06	418.46	139.83	116.09	47.452	4.5972e-06	72.074	183.673	20.307	6.609	-67.589	65.195	82.863	-68.390	-62.736	70.729	78.162	-64.413	-60.542	-58.371	-53.785	78.253	-56.263	-8191	255	
2616.003	1	1	0	0	0.33964	0.21398	0.041006	0.098021	0.10209	0.034084	0.1342	0.2513	0.20537	0.14261	0.030388	0.12392	0.22641	0.16655	0.07632	0.22731	-2.3083	-3.2479	-3.0667	-3.0583	-3.1958	-3.0792	-3.1917	-3.4083	-2.8688	-3.2042	-3.3438	-2.8771	-3.5083	-3.1854	-3.0708	-3.6458	153.856	72.937	74.708	96.522	277.216	111.365	193.047	278.881	233.050	181.671	-25.946	151.552	163.623	211.546	224.688	248.647	0.00020797	0.00057612	0.00017843	919.44	4.7702e-06	2.9029e-06	928.76	370.24	2.8009e-06	6.6768e-06	461.47	145.54	126.94	51.348	3.6447e-06	78.263	0.00043892	0.0004348	0.00011799	833.19	4.3866e-06	4.6415e-06	850.47	339.06	4.6209e-06	4.3567e-06	422.31	140.67	116.65	47.37	4.6207e-06	72.065	193.122	-3.032	18.801	-67.649	64.779	129.057	-68.744	-62.922	63.680	97.334	-64.804	-60.821	-58.084	-53.647	61.102	-56.038	-8191	255	
2616.099	1	1	0	0	0.14612	0.062383	0.15656	0.36748	0.20442	0.10402	0.27446	0.21794	0.25993	0.18667	0.38832	0.04857	0.071933	0.23679	0.19402	0.087531	-2.3042	-3.2417	-3.3125	-2.8479	-3.3187	-3.0708	-2.9792	-3.3333	-3.0292	-3.1354	-3.3583	-2.7875	-3.4021	-3.125	-2.9208	-3.5229	129.410	189.157	-77.509	236.050	223.723	-40.077	254.576	247.174	72.425	273.893	270.881	80.157	217.889	151.371	86.675	235.895	0.00020151	0.00047367	0.00018674	922.08	2.5608e-06	6.7911e-06	948.21	374.8	3.2733e-06	6.7349e-06	466.76	147.4	126.74	51.248	3.48e-06	78.799	0.00043302	0.0004219	0.0001136	834.27	4.4243e-06	4.5131e-06	862.32	341.83	4.4623e-06	4.6169e-06	425.96	142	116.88	47.556	4.8574e-06	72.772	183.367	19.066	11.433	-67.588	79.238	66.833	-68.524	-62.971	64.592	72.727	-64.581	-59.837	-58.157	-53.943	73.228	-56.070	-8191	255	
2616.194	1	1	0	0	0.07566	0.12311	0.029973	0.11036	0.16162	0.13859	0.16932	0.17508	0.11027	0.15213	0.089177	0.049079	0.22378	0.067352	0.18766	0.14531	-2.3458	-3.1771	-3.1021	-2.9167	-3.2729	-3.0687	-2.9917	-3.2729	-2.9667	-3.1458	-3.2896	-2.9521	-3.2667	-3.0958	-2.825	-3.3833	145.968	114.078	231.513	186.319	22.382	26.809	231.709	62.942	-63.256	60.354	227.571	212.478	-0.673	166.450	45.373	206.197	0.00024487	0.00069353	0.00020438	927.12	2.6289e-06	7.5722e-06	961.18	376.41	3.2259e-06	5.8844e-06	469.15	146.4	127.64	51.314	6.9089e-06	78.307	0.00042583	0.00043361	0.0001111	842.61	4.5433e-06	4.5367e-06	876.12	344.21	4.5321e-06	4.5612e-06	428.62	141.85	117.66	47.614	4.7021e-06	72.637	185.808	14.994	22.704	-67.571	100.314	79.399	-68.289	-63.166	63.586	85.820	-64.123	-60.844	-58.008	-53.919	78.696	-55.909	-8191	255	
2616.292	1	1	0	0	0.1701	0.3209	0.040431	0.051516	0.29433	0.058817	0.23612	0.38461	0.39877	0.11687	0.11099	0.067083	0.06369	0.25889	0.23736	0.084076	-2.5771	-2.8688	-3.25	-2.9833	-3.1708	-3.0458	-2.9562	-3.4062	-3.0833	-3.0417	-3.4667	-2.8729	-3.1979	-3.2625	-2.7188	-3.3667	243.395	217.786	64.611	177.317	36.887	72.424	205.357	217.579	211.846	273.290	76.025	65.655	56.182	79.758	166.743	82.132	0.00020105	0.00045548	0.00019464	918.06	2.4432e-06	2.5035e-06	933.49	369.98	2.0385e-06	5.2385e-06	461.47	144.81	126.29	51.512	4.2994e-06	78.467	0.00042911	0.00041075	0.00011576	832.71	4.3726e-06	4.514e-06	849.47	339.7	4.6241e-06	4.7126e-06	422.26	140.08	116.26	47.528	4.8813e-06	72.658	184.370	16.530	13.005	-67.719	81.968	86.122	-68.569	-62.570	49.844	64.643	-64.699	-60.793	-58.315	-53.725	50.537	-56.080	-8191	255	
2616.410	1	1	0	0	0.2913	0.1507	0.12311	0.18793	0.15345	0.28921	0.38431	0.20124	0.15038	0.19689	0.33129	0.11586	0.1654	0.060716	0.16303	0.19304	-2.5062	-2.8833	-3.2062	-2.8875	-3.1146	-3.2729	-2.8667	-3.3417	-3.0917	-3.1375	-3.3458	-2.9104	-3.125	-3.4	-2.9792	-3.4125	175.071	244.527	0.270	265.032	246.926	198.058	221.454	210.491	64.994	-34.046	195.768	238.730	1.603	127.706	5.091	271.206	0.00021924	0.00060911	0.00023615	917.23	1.9235e-06	6.4338e-06	940.1	372.54	2.4579e-06	7.1187e-06	464.59	144.63	127.94	51.641	4.0813e-06	78.802	0.00042623	0.00041218	0.00011519	832.03	4.5585e-06	4.584e-06	856.61	340.98	4.745e-06	4.5113e-06	425.03	140.87	117.02	47.685	4.7843e-06	72.661	182.514	-10.443	20.958	-67.300	30.270	78.373	-68.591	-63.010	75.020	76.721	-64.186	-60.391	-57.723	-53.818	69.915	-56.235	-8191	255	
2616.507	1	1	0	0	0.072438	0.10469	0.23883	0.20107	0.23985	0.19002	0.2756	0.15787	0.17072	0.36389	0.38422	0.050199	0.09913	0.22401	0.090405	0.13989	-2.6604	-2.9021	-3.3979	-2.8667	-3.0729	-3.2938	-3.1104	-3.2021	-3.1688	-2.9729	-3.5396	-2.8542	-3.2396	-3.4396	-2.9104	-3.4333	134.997	42.041	241.952	241.329	186.460	106.706	247.314	219.977	66.672	-48.508	222.584	156.817	5.304	265.130	-33.980	-68.122	0.00022964	0.00065839	0.00023489	922.69	2.6036e-06	5.0959e-06	950.27	373.96	1.9077e-06	1.06e-05	468.33	145.03	127.3	51.603	4.6372e-06	79.575	0.00041718	0.00042559	0.00011887	836.63	4.4708e-06	4.3445e-06	868.07	343.05	4.5223e-06	4.7215e-06	428.27	141.37	117.14	47.747	4.7344e-06	73.492	184.965	-8.318	9.634	-67.497	81.979	100.402	-68.733	-62.780	33.342	70.165	-64.366	-60.683	-58.056	-53.845	59.168	-55.992	-8191	255	
2616.603	1	1	0	0	0.38511	0.25525	0.06463	0.13103	0.080728	0.15626	0.13068	0.17623	0.20917	0.086202	0.17552	0.20086	0.23249	0.20326	0.12122	0.17751	-2.4667	-3.0812	-3.2958	-3.0958	-2.8771	-3.3583	-2.8958	-3.1979	-3.1083	-2.9271	-3.5604	-3.0833	-3.0812	-3.4021	-3.0563	-3.3896	160.304	94.031	180.147	172.303	101.281	178.134	262.841	173.038	-52.371	-62.797	241.619	7.086	177.410	229.514	-80.490	225.732	0.00023932	0.0008163	0.00023373	932.68	3.271e-06	6.722e-06	971.38	376.05	6.1414e-07	7.4973e-06	472.94	146.84	128.52	52.05	3.0805e-06	79.896	0.00042834	0.00039059	0.00011908	846.22	4.4163e-06	4.2883e-06	881.08	345.23	4.4915e-06	4.6253e-06	431.3	143.01	117.88	48.044	4.7264e-06	73.558	186.473	16.706	12.605	-67.432	70.645	74.623	-68.719	-62.938	22.982	96.548	-64.312	-60.783	-57.607	-53.635	79.249	-56.161	-8191	255	
2616.699	1	1	0	0	0.13111	0.26012	0.18974	0.25277	0.07179	0.047592	0.18704	0.34506	0.34694	0.17305	0.013605	0.23955	0.28837	0.3192	0.23646	0.053	-2.7604	-2.7854	-3.3063	-3.0375	-2.9646	-3.4229	-3.0687	-3.1042	-3.3479	-2.925	-3.4396	-3.0438	-2.9708	-3.4104	-2.9667	-3.2188	189.055	31.209	263.371	138.441	234.032	206.647	255.791	195.484	22.679	97.962	254.693	271.927	179.540	-75.471	8.529	241.737	0.00023143	0.0006196	0.00015578	920.49	5.0273e-06	9.1857e-06	939.24	374.43	2.5517e-06	8.033e-06	465.94	145.93	127.29	51.413	5.123e-06	78.601	0.0004276	0.00043785	0.00010964	836.37	4.5197e-06	4.5381e-06	857.28	341.61	4.7669e-06	4.5581e-06	425.18	141.36	116.7	47.606	4.6979e-06	72.717	186.338	12.354	-6.033	-67.566	59.854	49.363	-68.391	-62.687	49.679	83.911	-64.576	-59.986	-58.274	-53.365	46.695	-55.967	-8191	255	
2616.795	1	1	0	0	0.10574	0.15059	0.039579	0.092643	0.1879	0.17007	0.23945	0.21237	0.056838	0.23329	0.10629	0.21813	0.12823	0.21703	0.016584	0.087846	-2.7083	-2.7979	-3.2458	-3.2708	-2.9354	-3.3563	-3.0396	-3.2146	-3.35	-2.775	-3.4542	-3.0187	-3.0021	-3.4771	-2.9354	-3.2458	100.313	207.023	272.511	76.498	180.471	71.178	174.851	205.013	-38.952	123.854	163.368	-31.543	-67.282	213.739	141.926	197.142	0.00023796	0.00054077	0.00010089	916.75	4.3312e-06	6.6278e-06	936.51	372.36	1.6753e-06	4.6409e-06	463.99	144.18	126.38	51.581	5.4899e-06	78.66	0.00041832	0.00041583	0.00011466	831.92	4.599e-06	4.4431e-06	853.05	341.68	4.4481e-06	4.4712e-06	425.29	140.98	116.43	47.607	4.6261e-06	72.92	182.668	1.495	3.595	-67.487	80.407	80.963	-68.336	-62.854	93.937	67.015	-64.424	-60.635	-57.954	-53.704	71.736	-56.216	-8191	255	
2616.891	1	1	0	0	0.025284	0.13572	0.057029	0.33182	0.13683	0.3894	0.17891	0.032814	0.1819	0.07301	0.15848	0.23042	0.20132	0.10462	0.09508	0.12468	-2.9188	-2.8229	-3.1583	-3.4	-2.8292	-3.3521	-3.2687	-3.0917	-3.3521	-3.0729	-3.2479	-3.0938	-2.9062	-3.2917	-3.0479	-3.0854	163.751	-48.173	171.309	276.413	20.221	14.830	216.504	224.352	-31.311	196.332	7.594	-24.483	-20.100	210.804	5.125	266.844	0.00019557	0.00075519	0.00015306	916.96	5.7596e-06	5.0612e-06	952.48	373.73	4.0399e-06	8.9192e-06	470.05	146.8	128.12	51.354	2.33e-06	79.54	0.00043146	0.00041888	0.00011726	833.84	4.6619e-06	4.7209e-06	866.68	343.14	4.6841e-06	4.7977e-06	428.83	141.95	117.5	47.66	4.6463e-06	73.258	180.654	2.039	29.453	-67.393	63.830	67.044	-68.303	-62.749	59.875	96.857	-64.694	-60.175	-58.190	-53.652	32.428	-56.162	-8191	255	
2617.012	1	1	0	0	0.079757	0.029585	0.17192	0.11197	0.13642	0.11669	0.22396	0.27312	0.13195	0.031718	0.085469	0.12441	0.095791	0.20135	0.30582	0.092615	-2.9229	-2.7979	-2.9458	-3.4688	-2.9292	-3.4542	-3.0958	-3.1167	-3.3417	-2.8646	-3.2354	-3.1437	-2.8729	-3.2833	-3.1729	-3.1	158.970	-80.704	-46.786	10.854	244.054	-26.676	231.720	223.436	200.937	121.969	256.734	-12.512	208.428	33.308	-57.070	278.654	0.00021169	0.00098026	0.00014605	927.64	4.8637e-06	6.4272e-06	961.17	376.71	3.5018e-06	3.9816e-06	469.27	147.12	127.77	51.869	5.8297e-06	79.163	0.00042653	0.00042269	0.00011286	840.65	4.4523e-06	4.4087e-06	877.82	344.64	4.5118e-06	4.5447e-06	430.3	142.2	117.52	47.926	4.7109e-06	73.257	182.034	-7.698	21.338	-67.363	80.357	81.861	-68.675	-63.161	77.184	80.815	-64.534	-59.863	-57.985	-53.630	62.615	-56.019	-8191	255	
2617.108	1	1	0	0	0.075816	0.051004	0.099975	0.35865	0.092799	0.14852	0.13236	0.093917	0.051384	0.097279	0.1364	0.1512	0.1434	0.20848	0.16409	0.13781	-3.0083	-2.8792	-3.1063	-3.1771	-2.925	-3.1833	-3.2	-2.9896	-3.3312	-3.1271	-3.2083	-3.1854	-2.8688	-3.3125	-3.0062	-2.9583	160.862	29.497	221.756	231.144	172.163	273.304	211.103	247.084	-73.620	262.654	271.533	55.139	238.169	217.570	260.714	232.791	0.00021439	0.00077007	0.00019144	916.74	4.3656e-06	4.6064e-06	936.65	372.4	3.8764e-06	6.7494e-06	460.97	144.53	128.27	51.41	2.3223e-06	78.761	0.0004372	0.00044269	0.00011071	831.78	4.5854e-06	4.679e-06	853.12	341.11	4.7202e-06	4.8231e-06	423.1	141.36	116.84	47.511	4.4994e-06	72.91	195.191	-0.294	-14.419	-67.506	65.897	77.838	-68.670	-62.685	70.414	93.047	-64.488	-60.404	-58.294	-53.795	54.240	-55.936	-8191	255	
2617.202	1	1	0	0	0.077244	0.20536	0.23198	0.13706	0.076234	0.098691	0.047597	0.34231	0.13437	0.18331	0.18294	0.12929	0.25863	0.16914	0.038159	0.15738	-2.725	-2.9271	-3.0458	-3.4125	-2.8958	-2.9854	-3.4167	-3.025	-3.3667	-3.0917	-3.0896	-3.3042	-2.9021	-3.3167	-3.1875	-3.0146	238.966	83.935	42.572	197.571	178.120	-66.925	115.740	278.239	186.622	-8.778	-73.419	183.488	-35.153	244.138	84.869	252.665	0.00022575	0.00043076	0.00019544	911.65	5.1595e-06	6.3067e-06	939.52	372.77	2.0313e-06	3.9199e-06	463.99	143.97	126.81	51.632	3.3864e-06	79.134	0.0004262	0.00041515	0.0001189	828.82	4.5713e-06	4.6986e-06	854.02	340.25	4.5811e-06	4.3171e-06	424.33	141.16	116.8	47.747	4.6454e-06	73.085	186.814	24.178	28.989	-67.608	71.604	71.353	-68.789	-62.850	65.616	55.113	-64.666	-60.388	-57.768	-53.809	76.184	-55.967	-8191	255	
2617.276	1	1	0	0	0.035786	0.1552	0.1864	0.28386	0.14485	0.30282	0.27598	0.17037	0.075449	0.21419	0.054867	0.15107	0.12213	0.15237	0.28857	0.22812	-2.7771	-2.9313	-2.9208	-3.5333	-3.0021	-3.1417	-3.3042	-3.0979	-3.1458	-3.2188	-3.0125	-3.2229	-3.0333	-3.3167	-3.4521	-3.2062	1.696	-35.448	150.430	-63.576	237.896	143.757	-74.434	116.260	231.808	9.081	-24.663	-52.120	142.437	167.253	-21.312	188.291	0.0001957	0.00060097	0.00014762	920.24	3.8399e-06	4.4796e-06	950.47	374.18	2.1809e-06	4.7189e-06	468.75	146.3	127.03	51.954	3.523e-06	79.564	0.00042765	0.00043047	0.00011141	834.29	4.3902e-06	4.7722e-06	865.97	341.69	4.6939e-06	4.3015e-06	428.13	142.23	117.15	47.879	4.7747e-06	73.423	185.033	-8.718	-9.417	-67.814	77.950	60.361	-68.531	-62.805	51.357	70.867	-64.564	-60.426	-58.121	-53.656	62.682	-55.921	-8191	255	
2617.372	1	1	0	0	0.23185	0.17911	0.066251	0.35785	0.10476	0.11236	0.12494	0.13832	0.2212	0.11672	0.36982	0.19901	0.13007	0.12814	0.17036	0.18597	-2.8146	-2.9646	-2.9646	-3.3646	-3.025	-3.3729	-3.4104	-2.9375	-3.1437	-3.3646	-3.0521	-3.3958	-2.975	-3.1417	-3.5604	-3.1333	-23.384	221.374	-41.988	279.115	269.031	-4.033	195.901	251.430	-41.138	257.596	251.675	167.826	-60.437	216.747	109.027	178.304	0.00021608	0.0008842	0.00020349	923.79	3.8947e-06	5.4905e-06	962.68	372.67	2.7327e-06	7.5792e-06	471.78	148.17	128.3	51.796	2.9484e-06	80.173	0.00041948	0.00042662	0.00011728	839.23	4.6114e-06	4.625e-06	878.28	343.15	4.5929e-06	4.5246e-06	432.6	142.78	118.04	47.88	4.6983e-06	73.852	189.934	13.890	1.365	-67.592	43.430	58.053	-68.808	-62.830	10.960	83.074	-64.295	-60.374	-58.334	-53.666	60.278	-55.936	-8191	255	
2617.491	1	1	0	0	0.1867	0.10216	0.19765	0.18447	0.10267	0.21707	0.035388	0.077092	0.36519	0.17431	0.096798	0.059562	0.1729	0.12466	0.25749	0.32228	-2.7104	-3.2125	-2.95	-3.2687	-3.1667	-2.9917	-3.3229	-3.0333	-3.1833	-3.2062	-2.8063	-3.3354	-3.1188	-2.95	-3.4521	-3.0396	164.394	-64.296	208.960	179.876	9.820	-56.528	140.388	186.833	-79.054	117.035	161.316	-53.384	4.873	263.051	21.429	222.065	0.00022325	0.00061482	0.00022124	921.52	5.5251e-06	5.9183e-06	945.35	373.77	3.6187e-06	6.5942e-06	465.24	145.27	128.43	51.668	3.5515e-06	79.553	0.00043364	0.00040095	0.00011909	836.51	4.5381e-06	4.4449e-06	860.88	342.33	4.7405e-06	4.5955e-06	424.93	141.92	117.32	47.764	4.8209e-06	73.211	194.109	6.135	30.284	-67.593	38.566	78.817	-68.469	-62.635	51.994	70.460	-64.621	-59.970	-57.805	-53.478	46.324	-56.017	-8191	255	
2617.587	1	1	0	0	0.24638	0.062269	0.090753	0.1029	0.038092	0.068114	0.08586	0.14852	0.030785	0.19114	0.33894	0.2436	0.18397	0.31233	0.0822	0.18255	-2.6688	-3.4875	-2.8187	-3.2625	-3.0729	-3.025	-3.3708	-3.0521	-3.0167	-3.3479	-2.9292	-3.2125	-3.2146	-2.9417	-3.3104	-3.1937	-62.574	38.376	254.181	-39.579	90.481	-42.604	50.804	78.821	-22.063	143.549	226.158	-23.261	42.299	208.327	21.289	193.366	0.00021232	0.00052046	0.00023573	915.9	3.8531e-06	7.3366e-06	941.22	372.58	3.0007e-06	7.6925e-06	465.57	146.1	126.97	51.998	3.2348e-06	79.182	0.00042976	0.00042206	0.00012446	831.96	4.4215e-06	4.865e-06	857.22	341.76	4.6448e-06	4.656e-06	426.39	142.38	116.94	47.831	4.6374e-06	73.278	185.007	14.807	30.949	-67.433	53.781	66.753	-68.508	-62.929	70.819	69.406	-64.821	-60.213	-57.827	-53.843	54.525	-56.185	-8191	255	
2617.683	1	1	0	0	0.29448	0.30235	0.23173	0.10802	0.10011	0.16996	0.22822	0.18983	0.15622	0.19741	0.089577	0.19683	0.16424	0.21735	0.27288	0.22121	-2.4917	-3.1562	-2.7458	-3.2604	-3.275	-2.8667	-3.2833	-3.1896	-2.9562	-3.3125	-3.0125	-3.0812	-3.3896	-2.8833	-3.2438	-3.2583	260.163	87.896	185.827	184.163	47.305	62.173	220.813	194.263	37.201	66.714	217.427	51.630	169.237	237.546	84.306	-80.082	0.00025249	0.00050097	0.00016405	920.03	2.1238e-06	5.6745e-06	954.45	375.7	3.0296e-06	6.3294e-06	468.55	145.38	128.43	51.82	3.9269e-06	79.993	0.00045611	0.00042273	0.00011663	836.68	4.4063e-06	5.0077e-06	869.39	343.71	4.7133e-06	4.7741e-06	429.78	143.18	117.89	47.907	4.6618e-06	73.866	186.948	13.703	8.213	-67.584	83.926	87.214	-68.708	-62.633	42.275	66.175	-64.688	-59.998	-58.234	-53.806	75.731	-56.055	-8191	255	
2617.779	1	1	0	0	0.36533	0.24216	0.090701	0.16083	0.22805	0.014911	0.037148	0.377	0.21926	0.22249	0.35945	0.26683	0.21116	0.22227	0.13713	0.13159	-2.5708	-3.2333	-2.8458	-3.0938	-3.1729	-2.6646	-3.4583	-3.125	-2.9396	-3.2729	-3.0375	-3.1188	-3.2021	-2.8917	-3.3479	-3.1937	204.730	61.700	136.015	219.808	12.026	182.795	12.644	243.075	-23.842	-4.858	232.322	-60.507	-63.733	230.709	260.483	272.096	0.00022075	0.00052542	0.00019187	931.58	5.2289e-06	8.5051e-06	966.64	376.65	3.5027e-06	7.1642e-06	472.51	147.28	129.45	52.15	5.2642e-06	80.39	0.00044432	0.00041472	0.00011663	842.65	4.3442e-06	4.5715e-06	882.22	344.83	4.7044e-06	4.465e-06	432.11	143.58	118.55	48.051	4.5573e-06	74.061	190.694	38.118	28.071	-67.475	91.038	63.826	-68.746	-63.071	18.361	43.451	-64.257	-60.612	-58.047	-53.666	76.228	-56.047	-8191	255	
2617.900	1	1	0	0	0.30406	0.13994	0.13267	0.21281	0.17181	0.16052	0.30093	0.21214	0.15222	0.059861	0.076477	0.14228	0.17412	0.021988	0.21443	0.21528	-2.5896	-3.3958	-2.9604	-3.2792	-3.2667	-2.9562	-3.3354	-3.2396	-2.8521	-3.2667	-3.15	-2.95	-3.4562	-2.9208	-3.0687	-3.1396	228.277	43.815	86.715	193.405	79.022	9.169	217.725	186.222	204.921	83.969	259.484	40.353	237.958	-10.138	-8.660	-42.162	0.00024329	0.00040701	0.00018364	924.99	2.7507e-06	4.84e-06	948.08	374.98	1.8218e-06	1.0019e-05	465.51	144.71	128.33	51.957	3.8245e-06	79.482	0.00043771	0.00039999	0.0001189	838.48	4.3954e-06	4.708e-06	862.72	342	4.6756e-06	4.6783e-06	425.71	141.94	117.29	47.88	4.7294e-06	73.331	190.976	7.007	25.651	-67.671	89.072	80.317	-68.574	-63.094	64.668	74.836	-64.275	-60.700	-58.086	-53.556	79.583	-56.141	-8191	255	
2617.972	1	1	0	0	0.10607	0.19201	0.092012	0.34544	0.13047	0.1715	0.1991	0.31155	0.12085	0.16334	0.23754	0.13708	0.15956	0.21998	0.046795	0.12691	-2.5521	-3.1458	-3.0292	-3.1229	-3.225	-2.95	-3.2833	-3.3271	-2.775	-3.2542	-3.1354	-2.9708	-3.4042	-2.9625	-3.0958	-3.3604	-32.714	148.004	64.998	188.118	237.625	2.701	230.081	240.813	30.720	139.592	190.827	181.177	247.584	171.207	25.385	172.992	0.00021377	0.00036757	0.00015792	914.22	3.1267e-06	5.6721e-06	936.28	371.73	2.353e-06	5.7103e-06	464.52	144.12	128.08	51.49	1.947e-06	79.487	0.00044106	0.00041305	0.00012181	828.87	4.4107e-06	4.5666e-06	852.35	340.61	4.5718e-06	4.5852e-06	425.45	140.81	117.57	47.745	4.7046e-06	73.451	186.872	-4.478	27.660	-67.533	15.383	79.495	-68.415	-62.903	26.299	48.308	-64.306	-60.342	-58.096	-53.702	51.362	-55.946	-8191	255	
2618.092	1	1	0	0	0.22489	0.19858	0.077457	0.24298	0.055782	0.056475	0.20408	0.20237	0.16728	0.13748	0.20371	0.14642	0.12986	0.10603	0.17109	0.094411	-2.5271	-3.2083	-3.0292	-3.0792	-3.2917	-2.9375	-3.2667	-3.5458	-2.7521	-3.2146	-3.1708	-2.9917	-3.3375	-3.1021	-3.1333	-3.4	70.477	76.582	47.355	209.623	-78.069	-51.308	234.054	141.139	197.735	206.751	189.694	251.241	95.491	162.643	255.183	70.668	0.00025261	0.00080234	6.0089e-05	916.22	3.9864e-06	5.4937e-06	943.79	375.73	3.0937e-06	6.333e-06	468.3	147.64	128.87	52.137	3.707e-06	80.409	0.00042606	0.00042488	0.00011919	832.94	4.4195e-06	4.8141e-06	863.2	342.84	4.8496e-06	4.7224e-06	429.38	142.42	117.93	48.073	4.7491e-06	74.101	185.310	-4.554	22.672	-67.331	70.707	80.223	-68.324	-62.931	3.410	79.683	-64.483	-60.462	-57.929	-53.768	69.446	-55.756	-8191	255	
2618.188	1	1	0	0	0.17179	0.21146	0.22882	0.19227	0.099465	0.11188	0.030803	0.21014	0.26963	0.26546	0.26099	0.091392	0.30084	0.34757	0.43972	0.20619	-2.2938	-3.1875	-3.1312	-3.0271	-3.2167	-3.1542	-3.1729	-3.4208	-2.8479	-3.4042	-3.3167	-2.8875	-3.3229	-2.9875	-2.8458	-3.4896	190.535	-53.446	108.641	225.629	162.139	1.424	184.969	269.844	229.910	151.996	243.692	263.892	-57.948	255.620	-27.617	254.502	0.00021597	0.00072273	0.00020062	926.75	2.6552e-06	6.1928e-06	964.72	377.77	4.28e-06	7.2035e-06	473.47	147.85	129.35	51.931	3.2873e-06	80.323	0.00043595	0.00043019	0.00011275	840.79	4.6158e-06	4.7553e-06	878.57	345.49	4.6647e-06	4.4347e-06	433.55	143.83	118.61	48.139	4.9879e-06	74.354	183.329	-12.376	-2.598	-67.529	35.893	75.365	-68.565	-63.004	72.649	90.261	-64.481	-61.046	-57.489	-53.800	79.184	-55.939	-8191	255	
2618.283	1	1	0	0	0.19898	0.12707	0.10572	0.069699	0.05667	0.15195	0.09602	0.19476	0.14755	0.083357	0.07487	0.13946	0.16614	0.10659	0.27481	0.29338	-2.6188	-3.1146	-3.1083	-2.8792	-3.3875	-3.1146	-3.1104	-3.3667	-2.9208	-3.1562	-3.5521	-2.9688	-3.4625	-3.1458	-2.8729	-3.4729	165.051	209.848	90.399	215.735	30.676	85.343	196.830	263.633	116.462	-43.664	212.841	-73.707	143.232	200.627	254.223	184.370	0.000261	0.00087161	0.00016427	925.9	3.0926e-06	8.1896e-06	945.02	376.17	3.2033e-06	5.2976e-06	468.49	146.38	128.22	51.673	3.4803e-06	79.484	0.00043992	0.00040785	0.00011867	838.68	4.3193e-06	4.3945e-06	862.83	343.77	4.6399e-06	4.3723e-06	427.72	142.73	117.93	47.79	4.833e-06	73.461	186.177	-0.786	-13.512	-67.673	56.723	74.503	-68.611	-63.009	33.981	61.657	-64.565	-60.454	-57.669	-53.681	62.318	-56.230	-8191	255	
2618.381	1	1	0	0	0.12173	0.12468	0.20305	0.17512	0.079925	0.088655	0.066178	0.13576	0.1462	0.26559	0.3922	0.20481	0.12547	0.15781	0.19312	0.15655	-2.7021	-2.8042	-3.3187	-2.9542	-3.2542	-3.2271	-3.0625	-3.6	-3.15	-3.1896	-3.5854	-2.7792	-3.1792	-3.2479	-2.8688	-3.4375	-19.754	83.688	-77.631	229.510	65.812	52.734	237.174	212.561	227.242	128.020	245.652	83.594	-68.778	223.662	178.113	154.505	0.0002374	0.00068399	8.1643e-05	913.81	4.9545e-06	2.8531e-06	936.64	373.57	3.74e-06	5.1937e-06	468.28	147.54	128.41	51.954	3.4042e-06	79.929	0.00043225	0.00040563	0.00011088	828.67	4.4692e-06	4.7343e-06	854.88	341.6	4.6854e-06	4.2957e-06	427.09	142.32	118.1	47.984	4.7965e-06	73.757	195.508	8.803	28.150	-67.619	64.232	57.638	-68.790	-63.013	70.943	64.391	-64.516	-60.622	-58.068	-53.447	57.031	-56.026	-8191	255	
2618.500	1	1	0	0	0.058941	0.24668	0.13235	0.31411	0.04611	0.23274	0.093012	0.24045	0.14339	0.20379	0.34342	0.21496	0.18752	0.2242	0.25818	0.087664	-2.9542	-2.8771	-3.1875	-3.0417	-3.3063	-3.3042	-2.9708	-3.5979	-3.075	-2.9354	-3.5083	-2.8875	-3.1146	-3.275	-2.9917	-3.4479	169.864	104.998	271.428	249.582	117.009	-0.580	192.186	201.647	94.021	78.703	-39.220	159.554	7.786	-80.468	-38.633	177.578	0.00021638	0.0006973	0.00014219	920.47	5.2837e-06	3.5315e-06	954.3	376.38	1.5384e-06	8.0138e-06	472.78	147.89	128.81	51.841	3.7679e-06	80.264	0.00043567	0.0004421	0.00011358	836.31	4.351e-06	4.7138e-06	868.81	344.86	4.7652e-06	4.8863e-06	432.17	143.62	118.55	48.014	4.8893e-06	74.061	181.083	-23.758	37.340	-67.427	59.227	53.948	-68.487	-62.828	60.347	93.610	-64.436	-60.678	-58.108	-53.618	63.150	-56.090	-8191	255	
2618.571	1	1	0	0	0.11988	0.14851	0.09523	0.15501	0.29396	0.16289	0.29136	0.24253	0.22225	0.14377	0.21017	0.11907	0.32467	0.14582	0.081827	0.18139	-2.6729	-2.8375	-3.5292	-3.0083	-3.2125	-3.25	-3.0458	-3.2812	-3.1458	-2.8396	-3.4	-3.0292	-3.0792	-3.2812	-2.8271	-3.3458	37.786	261.389	89.683	110.762	99.989	-71.512	208.418	216.429	265.647	183.422	165.168	66.777	-15.713	157.661	263.080	249.801	0.00019739	0.00037329	0.00023412	926.53	3.6682e-06	1.0403e-05	964.31	380.01	1.6272e-06	5.9356e-06	472.58	147.77	129.32	52.182	3.4653e-06	80.501	0.00043113	0.00040626	0.00011738	840.4	4.4327e-06	4.7495e-06	880.75	346.99	4.7385e-06	4.7509e-06	434	144.22	118.81	48.216	4.9997e-06	74.319	185.906	-6.734	4.100	-67.446	69.775	94.552	-68.631	-63.083	41.280	60.891	-64.653	-60.437	-58.125	-53.704	90.842	-55.907	-8191	255	
2618.667	1	1	0	0	0.34749	0.17936	0.1865	0.23451	0.21101	0.1786	0.16631	0.22842	0.050073	0.26404	0.40143	0.11252	0.23718	0.30847	0.11933	0.25178	-2.6958	-2.7125	-3.3146	-3.0667	-3.0292	-3.3063	-3.0354	-3.1917	-3.2167	-2.9813	-3.4979	-3.0708	-3.0021	-3.4604	-2.9646	-3.2271	84.443	48.684	93.727	211.474	141.293	136.883	226.388	271.355	149.103	-49.882	189.230	185.868	107.899	233.558	100.388	211.569	0.00022207	0.00077811	0.00023372	925.54	4.5049e-06	5.8917e-06	949.52	377.38	2.442e-06	7.799e-06	470.1	148.12	128.66	51.661	3.6497e-06	79.527	0.00044634	0.00044099	0.00011868	841.24	4.5633e-06	4.6059e-06	868.04	345.21	4.721e-06	4.8017e-06	429.17	143.58	118.38	47.933	4.8007e-06	73.677	190.270	-4.569	12.966	-67.500	70.024	68.716	-68.657	-62.820	66.928	62.685	-64.482	-60.713	-58.036	-54.069	38.641	-55.950	-8191	255	
2618.788	1	1	0	0	0.16886	0.21905	0.38421	0.1994	0.09332	0.12394	0.39629	0.32238	0.15038	0.082805	0.14374	0.21322	0.085562	0.17663	0.1299	0.11743	-2.8979	-2.9146	-3.2104	-3.1688	-3.0646	-3.3354	-3.1042	-3.3021	-3.3604	-2.9417	-3.5083	-3.3292	-3.0646	-3.3646	-2.8812	-3.3104	80.174	34.031	119.320	203.609	263.833	89.194	213.572	235.262	155.014	139.245	-80.625	195.071	54.584	201.171	82.048	173.761	0.00023837	0.0006957	0.0001741	918.37	4.4702e-06	3.6892e-06	937.7	372.14	4.1418e-06	7.4055e-06	465.9	147.77	128.1	51.478	3.8809e-06	79.497	0.00043009	0.00044884	0.00011374	830.8	4.5982e-06	4.4101e-06	854.79	341.57	4.7535e-06	4.9184e-06	426.7	143.32	117.61	47.858	4.6135e-06	73.482	182.693	-13.605	15.327	-67.760	59.479	46.331	-68.838	-62.952	46.417	71.136	-64.474	-60.427	-58.377	-53.748	77.034	-55.955	-8191	255	
2618.884	1	1	0	0	0.10461	0.079527	0.06186	0.28726	0.016773	0.074833	0.27209	0.19398	0.083168	0.25561	0.16007	0.14054	0.2208	0.30858	0.041672	0.43343	-2.8854	-2.7396	-3.2812	-3.2042	-2.7958	-3.5812	-3.1208	-3.2125	-3.3375	-2.8604	-3.4062	-3.1479	-3.0458	-3.4542	-2.8271	-3.1562	95.749	176.712	-12.042	254.081	211.276	-43.617	198.736	190.018	161.744	250.770	-76.277	228.571	162.493	203.616	-12.108	245.514	0.000219	0.00052976	0.00015394	919.55	3.6681e-06	8.0541e-06	944.8	375.92	3.876e-06	6.7027e-06	470.79	146.66	129.07	52.006	3.5432e-06	80.6	0.00041746	0.00043114	0.00011517	834.01	4.6475e-06	4.5568e-06	861.66	343.77	4.4469e-06	4.6284e-06	430.71	143.17	118.38	48.082	4.776e-06	74.124	188.398	-5.446	7.917	-67.694	83.395	84.349	-68.754	-62.832	66.732	61.891	-64.499	-61.068	-57.912	-54.012	87.963	-55.987	-8191	255	
2618.980	1	1	0	0	0.35585	0.041383	0.27065	0.14657	0.14555	0.05585	0.13192	0.27745	0.04128	0.20211	0.091401	0.057177	0.40445	0.16196	0.19011	0.24887	-3.025	-2.9229	-3.3396	-3.2958	-2.8125	-3.4188	-3.0729	-3.2	-3.3646	-2.9562	-3.2583	-3.2208	-2.6875	-3.275	-3.1958	-3.2313	119.579	225.159	118.673	106.007	-36.371	176.306	149.032	266.018	-11.616	-61.117	166.614	67.302	129.112	260.389	42.501	193.222	0.00018917	0.00027951	0.00015812	920.82	2.9232e-06	5.3196e-06	958.1	377.93	4.0587e-06	7.5655e-06	473.68	150.11	129.77	52.048	2.4901e-06	80.682	0.00044057	0.00042015	0.00011001	838.15	4.7917e-06	4.3918e-06	875.09	346.18	4.6622e-06	4.587e-06	433.56	144.95	118.97	48.139	4.5972e-06	74.32	185.877	39.132	31.530	-67.742	74.453	78.040	-68.681	-62.923	52.752	85.016	-64.279	-60.848	-57.959	-53.753	9.076	-56.240	-8191	255	
2619.076	1	1	0	0	0.064801	0.29314	0.1074	0.37088	0.20297	0.087085	0.12796	0.28491	0.31843	0.067184	0.22373	0.22648	0.12228	0.36389	0.10787	0.19018	-2.975	-2.9062	-3.2438	-3.1229	-2.8688	-3.4125	-3.2917	-3.0875	-3.3917	-3.0479	-3.2521	-3.4458	-2.8792	-3.3479	-2.9917	-3.2333	60.423	-48.280	-6.699	-72.234	147.823	-65.965	216.483	229.089	188.758	244.243	262.122	118.725	235.844	-47.905	220.311	248.585	0.00023589	0.00072555	0.00015792	925.38	3.7564e-06	4.6263e-06	946.22	375.72	5.8399e-07	5.4859e-06	469.12	145.4	128.55	51.522	5.5413e-06	79.669	0.00042862	0.00045388	0.00011463	841.41	4.6375e-06	4.5011e-06	861.22	344.12	4.6772e-06	4.6944e-06	427.56	142.26	117.8	47.75	4.671e-06	73.473	187.452	1.591	1.816	-67.485	87.599	55.922	-68.421	-62.840	49.558	76.136	-64.373	-59.696	-58.445	-53.807	68.410	-56.063	-8191	255	
2619.195	1	1	0	0	0.10006	0.30249	0.14802	0.10851	0.18121	0.18926	0.091561	0.33786	0.14008	0.13052	0.12939	0.17313	0.15368	0.34767	0.088924	0.16995	-2.8625	-3.0208	-3.0792	-3.4313	-2.9646	-3.3375	-3.2438	-2.9958	-3.2542	-2.9688	-2.9792	-3.2812	-2.9396	-3.4458	-3.3125	-3.0083	-6.121	213.332	53.430	217.275	257.741	223.108	265.733	197.274	273.687	261.635	15.216	244.222	204.030	276.641	-34.038	210.475	0.00023226	0.00056654	0.00013203	912.3	4.026e-06	8.2869e-06	928.42	373.46	2.2353e-06	7.227e-06	468.88	144.46	128.9	51.982	4.8627e-06	79.364	0.00041765	0.00043468	0.00011561	827.88	4.7292e-06	4.4114e-06	850.13	341.2	4.7669e-06	4.4454e-06	426.68	141.47	117.65	47.869	4.5451e-06	73.282	186.548	1.149	14.989	-67.389	79.248	73.419	-68.711	-62.902	56.582	63.159	-64.604	-60.419	-58.158	-53.589	89.773	-55.996	-8191	255	
2619.267	1	1	0	0	0.22911	0.28305	0.22541	0.13996	0.058897	0.10784	0.29854	0.017977	0.35529	0.18224	0.16486	0.13924	0.10421	0.37214	0.067197	0.2254	-2.8646	-3.0167	-2.9938	-3.3104	-2.9958	-3.2313	-3.3917	-3.0396	-3.3417	-3.1458	-3.1125	-3.3479	-3.1458	-3.2	-3.1646	-3.1042	251.474	-74.914	271.433	212.189	-52.061	48.252	186.441	228.163	172.575	221.567	206.666	91.513	254.208	269.215	236.407	160.382	0.00023562	0.00042167	0.0001609	915.07	4.567e-06	3.9806e-06	948.67	375.51	4.8445e-06	5.1471e-06	468.38	147.47	129.14	51.912	1.2514e-06	79.828	0.00043585	0.0004192	0.00011846	831.5	4.6134e-06	4.621e-06	862.6	344.25	4.7292e-06	4.583e-06	429.5	143.85	118.26	48.024	4.7428e-06	73.998	186.729	18.604	39.851	-67.304	54.087	110.951	-68.643	-62.537	51.494	57.310	-64.364	-60.657	-57.756	-53.843	64.037	-56.172	-8191	255	
2619.363	1	1	0	0	0.176	0.16338	0.13251	0.19096	0.13919	0.13735	0.090287	0.14599	0.045168	0.11725	0.12673	0.21657	0.23937	0.16894	0.30726	0.15775	-2.8646	-2.9813	-2.9562	-3.4583	-3.0146	-3.1729	-3.3646	-2.8917	-3.1875	-3.1396	-3.1667	-3.2958	-2.9938	-3.3292	-3.2146	-3.05	-67.867	98.915	234.559	243.566	-9.061	139.744	210.126	251.653	-53.898	-0.632	270.642	77.077	111.526	216.610	207.236	239.988	0.00021007	0.00062067	0.00020522	925.45	3.5543e-06	6.3139e-06	959.66	378.97	1.9847e-06	2.769e-06	476.07	147.15	129.58	52.245	2.6062e-06	80.627	0.00042655	0.00041789	0.00012106	839.25	4.3806e-06	4.5492e-06	874.57	346.39	4.8646e-06	4.5059e-06	435.08	144.11	118.99	48.315	4.7247e-06	74.601	187.302	-1.051	19.232	-67.573	88.036	40.296	-68.384	-62.686	62.592	90.635	-64.424	-59.931	-58.365	-53.923	27.169	-55.955	-8191	255	
2619.461	1	1	0	0	0.12102	0.18386	0.10373	0.23795	0.17354	0.1748	0.298	0.12708	0.12414	0.098069	0.22206	0.16504	0.21243	0.15722	0.17697	0.1779	-2.9479	-3.0312	-2.8292	-3.4313	-3.0833	-3.1833	-3.3125	-3.0167	-3.1708	-3.1333	-2.8333	-3.3375	-3.1792	-3.0083	-3.1417	-3.0438	56.567	-4.292	110.301	257.745	32.368	27.775	276.756	233.899	196.082	179.878	241.999	126.664	-67.774	257.639	97.542	137.870	0.00023051	0.0004543	0.0002265	928.37	2.7696e-06	6.4356e-06	951.88	377.2	2.956e-06	6.7668e-06	471.54	147.02	128.87	51.869	4.8191e-06	79.658	0.00042474	0.00042753	0.00012376	841.86	4.5874e-06	4.4984e-06	866.65	345.24	4.6756e-06	4.6079e-06	430.59	143.19	118.53	48.004	4.8137e-06	73.699	182.387	-4.300	0.552	-67.572	26.619	98.217	-68.417	-62.774	83.916	79.988	-64.344	-60.821	-57.733	-53.566	66.541	-56.171	-8191	255	
2619.580	1	1	0	0	0.24223	0.23533	0.15146	0.25254	0.12318	0.22511	0.063797	0.081671	0.048749	0.19547	0.18772	0.12628	0.13074	0.1405	0.15388	0.21967	-2.6813	-3.025	-2.9188	-3.3646	-3.1396	-3.1583	-3.5687	-3.0208	-3.0875	-3.1708	-2.8104	-3.3917	-3.1229	-3.1667	-3.3979	-3.0854	96.313	118.650	273.908	224.459	227.834	-27.818	194.644	80.852	15.271	238.487	256.370	261.600	113.947	173.700	192.296	269.725	0.00020982	0.00065225	0.00018436	911.35	4.4888e-06	8.9392e-06	936.89	373.26	3.7283e-06	1.2701e-06	469.68	146.03	128.88	51.825	3.8518e-06	79.377	0.00042116	0.00044412	0.00012451	829.58	4.4155e-06	4.7521e-06	852.28	342.04	4.7008e-06	4.4832e-06	426.99	141.83	117.74	47.834	4.6278e-06	73.247	181.018	-8.685	22.979	-67.412	39.271	91.795	-68.466	-62.918	52.915	74.455	-64.790	-60.875	-58.477	-53.908	43.577	-55.996	-8191	255	
2619.676	1	1	0	0	0.24669	0.098554	0.1269	0.15667	0.14092	0.088765	0.14219	0.27797	0.19783	0.18345	0.12773	0.12873	0.17189	0.2402	0.29724	0.20109	-2.5625	-3.3229	-3.0333	-3.4458	-3.1625	-2.9188	-3.4271	-3.0792	-2.9354	-3.3229	-2.7979	-3.1667	-3.1708	-3.1375	-3.4208	-3.0438	-64.603	-44.333	-29.436	-61.816	0.302	246.092	188.869	248.382	-4.565	110.296	78.856	41.817	88.616	239.735	55.352	161.873	0.00021809	0.00067971	0.00014818	909.74	3.166e-06	6.7057e-06	942.07	373.41	3.2854e-06	6.0178e-06	471.04	144.67	128.25	51.56	2.8814e-06	79.651	0.00043397	0.00041888	0.00011776	828.29	4.4808e-06	4.6714e-06	857.44	342.86	4.7734e-06	4.5901e-06	429.49	141.53	117.83	47.695	4.5653e-06	73.657	188.250	-1.192	0.089	-67.422	63.313	52.760	-68.452	-62.861	42.004	40.345	-64.503	-60.781	-58.231	-53.960	52.788	-55.998	-8191	255	
2619.772	1	1	0	0	0.10616	0.022977	0.10278	0.22134	0.13481	0.2536	0.19791	0.073116	0.32688	0.092181	0.20955	0.1523	0.044829	0.23889	0.2	0.34209	-2.7625	-3.1333	-2.8333	-3.2542	-3.3458	-2.7479	-3.5125	-3.1604	-3.2	-3.3917	-2.9375	-3.3	-3.1979	-3.0021	-3.3333	-3.175	-23.805	0.822	-28.179	220.385	274.022	-17.148	209.564	107.230	179.010	268.539	248.913	261.478	12.548	225.590	164.664	246.007	0.00023112	0.00064643	0.00020067	924	3.4911e-06	8.6989e-06	948.79	375.93	3.3692e-06	5.8366e-06	473.83	148.61	129.44	51.826	3.4991e-06	80.273	0.00043304	0.00043174	0.00011746	836.82	4.3798e-06	4.7771e-06	868.22	345.3	4.5556e-06	4.424e-06	433.76	144.56	118.62	48.036	4.6828e-06	74.196	184.138	-15.653	20.900	-67.175	36.853	69.159	-68.585	-63.045	84.965	93.509	-64.576	-60.286	-58.275	-53.916	44.203	-56.285	-8191	255	
2619.868	1	1	0	0	0.089669	0.054003	0.19371	0.21723	0.087239	0.3524	0.10788	0.48872	0.37483	0.20098	0.14347	0.28501	0.19808	0.20683	0.08299	0.1464	-2.3937	-3.4437	-3.0375	-3.1292	-3.3271	-2.9229	-3.3271	-3.2979	-3.0479	-3.5979	-3.0208	-3.1458	-3.3312	-3.0833	-3.4458	-3.2	278.024	-20.377	126.160	247.445	76.906	275.707	-71.065	199.878	211.725	9.953	208.368	272.949	40.764	-43.339	135.763	220.723	0.00022737	0.00030423	0.00021854	919.57	3.2056e-06	6.8013e-06	939.58	375.18	3.7687e-06	5.7349e-06	465.28	146.88	128.07	51.733	3.3837e-06	79.142	0.00044667	0.00040674	0.00011551	835.92	4.4411e-06	4.5287e-06	855.12	343.76	4.4575e-06	4.5799e-06	426.64	142.01	117.74	47.771	4.4654e-06	73.214	189.257	-40.183	25.715	-67.556	63.058	94.152	-68.397	-62.949	34.028	77.663	-64.623	-60.471	-57.905	-53.617	86.173	-56.248	-8191	255	
2619.965	1	1	0	0	0.21694	0.19212	0.27598	0.11231	0.23134	0.20271	0.098526	0.29135	0.11982	0.2189	0.090206	0.25719	0.22521	0.41739	0.086675	0.057718	-2.4979	-3.4833	-3.025	-3.1417	-3.3646	-2.7687	-3.4271	-3.2021	-2.9542	-3.4083	-3.1042	-3.0646	-3.2708	-3.0083	-3.1375	-3.2667	151.043	191.073	106.464	262.182	-11.326	-65.838	243.257	252.029	-55.847	252.532	194.827	10.409	111.257	208.368	268.388	198.390	0.00019626	0.00084104	0.00020995	908.88	3.4357e-06	7.1018e-06	926.79	373.27	4.3411e-06	7.3176e-06	466.02	147.81	129.2	51.923	4.1986e-06	79.693	0.00043323	0.00041722	0.00011298	827.04	4.4067e-06	4.5764e-06	847.08	341.19	4.6943e-06	4.5995e-06	426.16	143.05	118.36	47.967	4.6521e-06	73.58	177.555	-7.653	21.213	-67.539	54.834	57.316	-68.319	-62.917	58.982	50.110	-64.683	-60.043	-58.139	-53.872	79.428	-56.409	-8191	255	
2620.061	1	1	0	0	0.06124	0.21769	0.20501	0.22602	0.35673	0.026251	0.35219	0.061727	0.21593	0.1836	0.18551	0.44612	0.11448	0.20214	0.31293	0.23714	-2.6875	-3.2146	-2.9979	-3.0792	-3.3375	-2.9479	-3.25	-3.2604	-2.9333	-3.4708	-3.2604	-2.9562	-3.4625	-3.1417	-3.2542	-3.45	-5.020	64.455	103.164	-33.004	207.010	116.280	201.329	-16.577	267.884	-78.749	260.359	263.173	17.683	246.390	12.077	219.207	0.00019669	0.00064666	0.00018821	912.76	3.1007e-06	6.5298e-06	935.54	374.1	1.6154e-06	2.0256e-06	468.92	148.24	128.79	51.743	4.9438e-06	79.803	0.00043655	0.00042186	0.00012091	830.05	4.4419e-06	4.7981e-06	855.51	343.18	4.7681e-06	4.4699e-06	429.21	143.46	118.24	47.981	4.6463e-06	73.604	185.379	-4.389	59.636	-67.546	87.582	73.000	-68.585	-62.860	25.593	55.758	-64.438	-60.450	-58.054	-53.820	57.734	-55.901	-8191	255	
2620.181	1	1	0	0	0.1122	0.13107	0.20691	0.17949	0.15784	0.052791	0.19929	0.1439	0.28294	0.18637	0.38453	0.27684	0.16891	0.2706	0.15547	0.042821	-2.5542	-3.3333	-2.9375	-3.1625	-3.5167	-3.05	-3.2854	-3.1396	-2.9188	-3.3229	-3.3896	-2.7687	-3.4646	-3.1604	-3.0542	-3.3708	-42.110	223.763	159.092	242.561	156.744	151.925	157.299	116.968	251.760	261.026	254.387	211.312	46.104	-68.860	-5.341	138.885	0.00021566	0.00061995	0.00016805	918.33	6.1612e-06	6.6093e-06	951.33	376.49	3.3983e-06	7.6403e-06	473.59	150.06	131.11	51.731	3.3771e-06	80.456	0.00043667	0.00039642	0.00011547	834.23	4.464e-06	4.6585e-06	866.19	345.16	4.6209e-06	4.3126e-06	432.93	143.61	119.11	48.112	4.7382e-06	74.185	183.867	21.750	34.192	-67.361	71.111	59.692	-68.392	-63.035	81.429	86.587	-64.679	-60.626	-58.376	-53.808	59.125	-56.136	-8191	255	
2620.276	1	1	0	0	0.084606	0.14764	0.33299	0.30829	0.19859	0.084714	0.1696	0.17983	0.080102	0.19723	0.235	0.21083	0.19871	0.20207	0.40254	0.14185	-2.2938	-3.3042	-3.0667	-3.0438	-3.3625	-3.0479	-3.0958	-3.3063	-2.7417	-3.2646	-3.2333	-2.9333	-3.45	-3.0542	-2.9167	-3.3667	115.957	272.013	181.497	253.281	56.811	-28.161	185.184	158.732	135.271	111.293	247.919	264.140	-20.564	162.216	215.743	235.764	0.00021677	0.00050167	0.0001724	923.5	2.3146e-06	6.7391e-06	937.05	373.38	2.1448e-06	5.4277e-06	465.53	148.19	129.21	51.87	4.8752e-06	79.597	0.00043806	0.00040575	0.0001181	836.83	4.377e-06	4.7245e-06	853.65	342.6	4.5884e-06	4.746e-06	426.58	143	118.42	47.967	4.7323e-06	73.517	185.653	-1.885	29.209	-67.573	105.857	32.574	-68.610	-62.840	7.928	80.871	-64.717	-60.310	-58.351	-54.050	59.999	-56.256	-8191	255	
2620.372	1	1	0	0	0.032539	0.34836	0.10616	0.24988	0.049848	0.14126	0.13704	0.028749	0.15611	0.17202	0.18653	0.050944	0.29039	0.15014	0.022104	0.26533	-2.5104	-3.1562	-3.1729	-2.9333	-3.4979	-2.9917	-3.1896	-3.575	-3.0917	-3.2021	-3.2438	-2.9062	-3.3521	-3.175	-2.9521	-3.4708	29.267	207.274	187.232	171.146	105.775	112.632	-61.014	76.268	-10.087	228.962	123.475	110.551	218.975	261.863	115.860	-80.726	0.00022382	0.00055882	0.00015562	911.22	4.6509e-06	4.5953e-06	931.66	373.85	4.6616e-06	7.6705e-06	468.16	147.94	128.71	51.84	2.9025e-06	79.54	0.00044183	0.00040884	0.00011306	828.43	4.5742e-06	4.7428e-06	846.79	342.14	4.6505e-06	4.6587e-06	425.71	142.4	118.44	48.041	4.5716e-06	73.46	182.208	-9.058	13.690	-67.562	49.199	63.212	-68.704	-62.929	35.424	78.173	-64.283	-60.322	-58.143	-53.886	106.640	-56.266	-8191	255	
2620.468	1	1	0	0	0.44641	0.2238	0.058805	0.10253	0.25224	0.13822	0.18627	0.21266	0.073098	0.037483	0.15979	0.11788	0.036974	0.24011	0.064439	0.2412	-2.5375	-2.9313	-3.2104	-2.925	-3.1542	-3.2917	-3.0146	-3.5083	-2.8563	-3.3021	-3.5333	-2.8563	-3.2271	-3.2313	-2.9	-3.55	-67.289	100.457	257.329	252.857	-15.079	-17.774	155.238	161.203	99.095	-8.960	37.722	127.660	191.148	240.079	-25.884	-49.424	0.00020473	0.00054296	0.00021183	914.33	4.4349e-06	5.4195e-06	934.58	376.62	4.1713e-06	7.5982e-06	469.14	146.26	130.13	52.146	5.5949e-06	80.057	0.0004333	0.00043738	0.00012166	831.31	4.6883e-06	4.6255e-06	852.12	343.78	4.7247e-06	4.8445e-06	429.26	142.98	119.31	48.278	4.9833e-06	74.017	185.676	22.302	53.662	-67.907	93.906	83.071	-68.669	-63.182	55.023	101.011	-64.342	-60.965	-58.358	-53.824	91.354	-56.225	-8191	255	
2620.564	1	1	0	0	0.23804	0.051089	0.20494	0.32118	0.11965	0.11322	0.16603	0.21655	0.31766	0.14273	0.1394	0.1563	0.18976	0.17927	0.18655	0.31961	-2.5979	-3.0083	-3.2792	-3.05	-3.2938	-3.1479	-3.0333	-3.5146	-3.0604	-3.0729	-3.5354	-2.925	-3.2313	-3.325	-2.8438	-3.5021	61.524	-69.135	99.254	148.347	115.720	58.353	-73.984	246.519	107.100	171.204	31.554	186.742	233.886	-80.682	222.384	205.297	0.00023257	0.00056446	0.0002045	924.25	3.5443e-06	7.9587e-06	952.58	377.84	2.9249e-06	7.8441e-06	471.2	149.27	129.61	52.388	6.525e-06	80.791	0.00043167	0.00043611	0.00012005	835.46	4.385e-06	4.8632e-06	865.39	346.56	4.6391e-06	4.767e-06	431.72	144.82	119.14	48.546	4.8385e-06	74.723	192.142	9.433	36.282	-67.554	65.498	57.561	-68.790	-62.787	59.559	62.241	-64.621	-60.290	-58.028	-53.840	88.538	-56.008	-8191	255	
2620.660	1	1	0	0	0.23072	0.2349	0.1536	0.23965	0.029976	0.18511	0.25956	0.13645	0.16595	0.068963	0.052359	0.2066	0.1547	0.19727	0.10321	0.10148	-2.625	-3.0271	-3.3646	-2.9604	-3.1083	-3.2021	-3.0667	-3.4896	-2.9708	-3.1583	-3.2229	-2.9375	-3.2292	-3.3312	-2.725	-3.4062	-25.675	-79.907	-78.829	-50.750	182.352	196.243	222.170	237.221	273.389	224.139	-25.147	36.237	263.233	248.853	44.968	59.457	0.00022256	0.0010716	0.00012943	920.87	6.0275e-06	8.5329e-06	945.49	377.05	5.63e-06	5.7772e-06	469.77	147.02	129.37	52.24	3.6786e-06	79.848	0.00044025	0.00044218	0.00011867	836.64	4.5641e-06	4.4979e-06	859.24	345.19	4.9279e-06	4.5719e-06	429.5	143.07	118.8	48.232	4.525e-06	73.777	186.146	6.347	9.759	-67.415	64.986	68.163	-68.685	-63.100	74.397	91.632	-64.534	-60.568	-58.266	-53.853	72.024	-56.237	-8191	255	
2620.756	1	1	0	0	0.081698	0.079007	0.11492	0.30757	0.11449	0.066482	0.15398	0.13784	0.069115	0.023347	0.16213	0.08015	0.22665	0.03639	0.028627	0.044787	-2.4833	-2.8458	-3.2958	-2.9875	-3.1729	-3.3937	-2.7625	-3.3229	-3.1354	-2.9021	-3.3458	-3.0396	-3.0187	-3.3333	-2.9229	-3.2854	276.832	66.046	175.157	203.608	165.263	152.442	127.955	192.964	99.374	39.119	49.602	-39.785	226.404	256.448	-41.943	88.292	0.00019353	0.00051176	0.00021231	909.11	4.8858e-06	7.0455e-06	925.04	372.47	4.5737e-06	8.1427e-06	464.48	144.74	128.88	51.998	3.8398e-06	79.341	0.00042088	0.00042785	0.00011583	824.43	4.4868e-06	4.4453e-06	842.83	341.69	4.7198e-06	4.7438e-06	424.88	141.12	118.22	48.045	4.9056e-06	73.337	180.259	-7.425	7.347	-67.689	46.325	79.981	-68.519	-62.864	72.226	46.707	-64.525	-60.121	-57.846	-53.931	102.648	-56.126	-8191	255	
2620.877	1	1	0	0	0.15939	0.17808	0.11685	0.16918	0.1685	0.17372	0.15497	0.035012	0.062817	0.17405	0.24357	0.40346	0.19686	0.10003	0.26168	0.48089	-2.6	-2.6771	-3.1229	-3.0458	-3.1521	-3.2958	-3.0187	-3.2521	-3.2167	-2.6875	-3.475	-3.0083	-2.9375	-3.4313	-2.8104	-3.2208	249.879	78.120	250.232	4.050	212.532	231.078	208.905	214.674	177.996	-66.063	213.009	252.625	-66.250	167.824	257.511	222.668	0.00022243	0.00068626	0.00018592	908.01	4.3735e-06	8.1348e-06	930.02	374.28	2.3189e-06	8.9877e-06	463.82	146.99	128.6	51.926	3.639e-06	80.139	0.00043692	0.00041261	0.0001216	825.18	4.4539e-06	4.7227e-06	847.78	341.79	4.7287e-06	4.7589e-06	426.36	142.45	118.26	47.925	4.8112e-06	73.859	196.818	-4.851	17.671	-67.626	65.449	62.557	-68.688	-62.937	106.359	88.800	-64.769	-60.310	-58.097	-54.230	72.998	-56.016	-8191	255	
2620.973	1	1	0	0	0.23507	0.17394	0.31509	0.14986	0.18482	0.1091	0.27058	0.31925	0.15751	0.038451	0.17409	0.18498	0.13765	0.21798	0.056287	0.20016	-2.8333	-2.7396	-3.2083	-3.0875	-2.8979	-3.4021	-3.0208	-3.175	-3.1896	-2.9604	-3.3167	-3.1521	-2.9146	-3.4583	-2.8708	-3.2292	6.818	213.475	-80.196	259.371	3.540	5.113	217.133	256.851	120.997	209.068	235.102	235.019	-58.284	-31.463	179.702	191.090	0.00023923	0.00054256	0.00015087	906.74	3.2934e-06	7.3483e-06	932.89	374.6	2.6793e-06	6.3152e-06	469.64	146.56	128.9	52.035	5.8488e-06	80.411	0.00042841	0.00041519	0.0001201	826.59	4.339e-06	4.2817e-06	852	344.44	4.8488e-06	4.7287e-06	430.32	142.77	118.93	48.096	5.0269e-06	74.188	182.067	-12.890	25.429	-67.380	87.391	61.213	-68.399	-62.739	28.074	81.747	-64.828	-60.810	-57.965	-53.757	53.503	-56.041	-8191	255	
2621.069	1	1	0	0	0.15148	0.25232	0.23737	0.11083	0.15772	0.24633	0.25104	0.25376	0.097161	0.11559	0.077819	0.057833	0.016767	0.23519	0.09715	0.22995	-2.7458	-2.8271	-3.225	-3.3479	-2.9833	-3.3187	-3.0625	-3.2708	-3.4792	-2.8792	-3.4667	-3.1104	-2.9062	-3.4708	-3.0792	-3.2313	42.809	180.010	122.618	228.638	189.127	223.530	210.174	265.761	247.693	94.666	-79.862	177.941	-33.083	230.533	-8.817	144.887	0.00022602	0.0006621	0.00020382	914.67	3.747e-06	6.0941e-06	936.15	376.86	3.5511e-06	4.2369e-06	469.3	146.84	128.68	52.116	3.9725e-06	79.294	0.00042781	0.000394	0.00011779	829.95	4.6643e-06	4.2977e-06	854.37	344	4.7592e-06	4.4538e-06	427.7	142.64	118.32	47.984	4.5606e-06	73.493	182.618	8.012	10.171	-67.661	81.766	77.950	-68.769	-62.832	57.386	71.369	-64.466	-60.288	-57.999	-53.545	77.741	-56.183	-8191	255	
2621.141	1	1	0	0	0.066019	0.13845	0.23666	0.21993	0.10514	0.20268	0.27663	0.27035	0.051116	0.057643	0.24533	0.14972	0.070921	0.08662	0.15767	0.17675	-3.0312	-2.975	-3.2458	-3.2208	-2.8937	-3.2417	-3.2083	-3.1188	-3.2625	-3.0354	-3.2479	-3.1333	-2.8333	-3.3187	-3.1146	-3.0062	-69.277	224.043	32.039	206.693	-70.294	119.445	242.350	204.458	205.819	218.128	207.915	-71.798	171.911	35.506	246.867	225.142	0.00020259	0.00063127	0.00012233	904.39	4.3077e-06	5.4896e-06	917.83	371.67	4.7909e-06	6.7146e-06	461.37	147.2	128.56	51.556	5.249e-06	79.18	0.00040697	0.00041067	0.00011333	820.7	4.4555e-06	4.295e-06	834.38	340.33	4.4303e-06	4.5647e-06	422.02	141.62	118.03	47.725	4.6425e-06	73.202	185.909	20.557	15.163	-67.529	77.881	76.054	-68.603	-62.619	79.153	50.805	-64.617	-60.717	-58.435	-53.685	79.450	-56.106	-8191	255	
2621.260	1	1	0	0	0.13046	0.1706	0.15955	0.056599	0.18503	0.1046	0.26967	0.14705	0.02831	0.19567	0.18335	0.075074	0.25923	0.25014	0.098238	0.18375	-2.9875	-2.9125	-2.9562	-3.2979	-2.9375	-3.3208	-3.175	-3.0292	-3.2979	-3.0875	-3.1583	-3.4479	-2.9729	-3.3958	-3.2354	-3.0167	21.055	-28.024	-5.065	152.928	278.983	83.143	228.070	-28.658	22.517	-72.217	-66.296	183.100	254.341	222.419	260.570	238.091	0.00020301	0.00068751	0.00020336	906.3	1.6804e-06	3.0375e-06	924.2	374.8	2.095e-06	4.9118e-06	465.5	147.47	129.64	51.999	5.3978e-06	79.987	0.00042279	0.00040646	0.00011504	822.08	4.4195e-06	4.3873e-06	843.54	342.61	4.4112e-06	4.6436e-06	427.47	142.79	118.5	48.023	4.6433e-06	73.862	180.312	24.446	39.935	-67.625	61.113	93.442	-69.090	-62.879	57.384	75.047	-64.474	-60.873	-58.172	-53.890	85.882	-56.067	-8191	255	
2621.356	1	1	0	0	0.15847	0.10995	0.13728	0.15751	0.13659	0.12579	0.21102	0.282	0.029009	0.12678	0.087597	0.43896	0.24464	0.27812	0.1623	0.25341	-2.9583	-3.025	-2.9833	-3.4667	-2.9042	-3.4062	-3.3542	-3.0417	-3.2979	-3.0625	-3.1625	-3.3292	-2.8542	-3.3438	-3.1583	-2.9896	67.334	-15.474	17.498	272.783	117.762	273.588	-51.821	-33.330	60.479	123.871	211.749	228.598	267.702	-68.176	153.084	177.998	0.00021853	0.00072159	0.0002119	914.13	4.8368e-06	7.0793e-06	943.31	378.59	2.124e-06	6.2649e-06	474.31	145.98	130.54	52.849	5.5922e-06	80.625	0.00042983	0.00042904	0.00011843	829.12	4.6984e-06	4.5978e-06	858.16	346.73	4.6022e-06	4.6543e-06	433.27	144.01	119.8	48.613	4.7042e-06	74.546	188.565	13.892	23.369	-67.543	69.981	80.156	-68.354	-62.628	39.104	80.781	-64.713	-61.054	-57.809	-53.618	67.632	-56.084	-8191	255	
2621.452	1	1	0	0	0.19139	0.1431	0.16813	0.10973	0.1747	0.18248	0.2454	0.11388	0.08312	0.08857	0.1763	0.10721	0.1402	0.26103	0.09529	0.080253	-2.9813	-3.0896	-2.8833	-3.5	-2.9229	-3.2854	-3.4042	-2.9958	-3.2708	-3.1188	-3.0271	-3.2313	-3.0167	-3.1583	-3.4708	-3.0292	112.789	19.107	243.489	204.969	64.593	224.463	225.266	175.778	-39.102	133.372	230.945	109.743	247.042	227.210	-62.901	15.076	0.00021038	0.00077466	0.00021105	917.97	5.9458e-06	7.3037e-06	953.23	382.3	2.0234e-06	7.61e-06	475.93	151.7	130.59	52.694	5.5471e-06	80.78	0.00044171	0.00040507	0.00011541	835.33	4.4383e-06	4.8199e-06	869.41	349.07	4.3492e-06	4.7108e-06	435.22	145.53	119.73	48.752	4.6303e-06	74.685	188.204	2.222	26.129	-67.481	49.831	72.054	-68.863	-62.711	34.040	88.876	-64.484	-60.977	-57.796	-53.983	49.440	-56.163	-8191	255	
2621.573	1	1	0	0	0.076215	0.15627	0.33245	0.22326	0.12703	0.15742	0.19998	0.17081	0.10463	0.088081	0.31317	0.12153	0.14416	0.14338	0.12589	0.040988	-2.6896	-3.1	-2.7542	-3.3479	-3.0687	-3.1958	-3.4562	-3.05	-3.2313	-3.2938	-3.0167	-3.3333	-2.8396	-3.025	-3.4104	-2.9688	-1.756	101.920	55.515	195.081	92.731	106.195	2.336	273.039	43.791	51.630	263.595	-35.003	98.941	-45.859	96.591	240.846	0.00020491	0.00070339	0.00019592	912.4	5.0382e-06	4.7477e-06	928.73	377.28	2.7216e-06	3.6204e-06	467.01	147.64	130.25	52.27	3.7834e-06	80.109	0.0004459	0.00043345	0.00011314	828.24	4.4447e-06	4.5568e-06	846.87	344.29	4.7247e-06	4.2895e-06	427.82	143.49	119.47	48.454	4.7403e-06	74.092	186.956	10.717	-7.859	-67.374	79.954	30.957	-68.752	-63.018	81.863	68.814	-64.536	-60.356	-58.124	-53.752	70.883	-56.159	-8191	255	
2621.669	1	1	0	0	0.14452	0.14394	0.27783	0.15995	0.18145	0.098215	0.29625	0.20958	0.099351	0.1208	0.26394	0.099808	0.083978	0.12753	0.30776	0.30828	-2.7271	-3.1458	-2.75	-3.4271	-2.7917	-3.1021	-3.3667	-2.9271	-3.1063	-3.1854	-2.8875	-3.1083	-3.1312	-3.0125	-3.3271	-2.9896	147.352	-2.841	124.138	-66.834	71.512	59.010	182.618	180.341	22.127	211.799	215.234	-35.990	-22.209	211.979	145.124	186.463	0.00021473	0.00077525	0.00012127	906.54	4.6616e-06	8.0218e-06	923.36	375.49	5.0104e-06	6.7694e-06	469.87	149.22	130.17	52.54	3.6274e-06	80.559	0.00042695	0.00041357	0.00011899	825.69	4.5189e-06	4.6335e-06	846.58	344.15	4.7912e-06	4.538e-06	429.3	143.94	119.54	48.675	4.5749e-06	74.418	188.704	4.530	23.636	-67.389	71.707	70.135	-68.463	-62.728	73.639	97.380	-64.460	-61.045	-58.043	-53.558	91.275	-56.473	-8191	255	
2621.741	1	1	0	0	0.16595	0.092121	0.15709	0.18425	0.15567	0.18789	0.057838	0.19164	0.13703	0.26704	0.11118	0.079136	0.014504	0.071719	0.12149	0.25811	-2.7	-3.1542	-2.7479	-3.2708	-3.1042	-3.0354	-3.5167	-2.7188	-2.9875	-3.2	-3.0479	-3.1146	-3.0729	-3.1542	-3.225	-2.9854	53.405	-41.013	-65.420	208.116	-8.972	221.737	262.425	220.526	147.726	114.227	212.724	21.288	261.246	-19.512	-44.355	198.023	0.00021064	0.00083738	0.00013738	912.29	3.7161e-06	4.5681e-06	936.47	376.93	1.9347e-06	1.0413e-05	471.07	148.9	131.19	52.743	3.6689e-06	80.834	0.00044053	0.00041789	0.00011578	827.05	4.3722e-06	4.5978e-06	854.09	345.95	4.8358e-06	4.6427e-06	431.68	144.79	120.14	48.776	4.7214e-06	74.812	185.681	14.687	16.465	-67.648	60.590	98.294	-68.608	-62.873	48.787	81.764	-64.546	-60.511	-58.430	-53.382	39.831	-56.270	-8191	255	
2621.861	1	1	0	0	0.20881	0.10863	0.035841	0.22836	0.16313	0.20069	0.12611	0.23578	0.17673	0.054387	0.12497	0.037002	0.29924	0.08509	0.077257	0.27494	-2.5146	-3.2938	-2.8146	-3.3438	-3.1854	-2.975	-3.4437	-3.0271	-3.1604	-3.3729	-2.8375	-3.2333	-3.2208	-2.9188	-3.2771	-3.2938	112.170	262.862	256.929	-77.780	-27.872	189.732	244.083	228.811	158.422	144.593	176.927	220.440	179.279	144.635	149.192	178.360	0.00022552	0.00060986	0.00022071	919.35	2.7473e-06	1.5013e-06	945.29	380.3	2.2991e-06	4.7782e-06	475.4	148.74	130.16	52.96	6.192e-06	81.498	0.00043671	0.00041567	0.00011295	832.84	4.3402e-06	4.518e-06	861.55	348.06	4.6712e-06	4.2382e-06	435.13	145.83	119.94	48.951	4.7344e-06	75.1	182.076	2.617	10.072	-67.534	39.277	38.287	-68.703	-63.156	41.206	86.376	-64.592	-59.776	-58.341	-53.707	46.865	-56.073	-8191	255	
2621.957	1	1	0	0	0.053799	0.16094	0.067493	0.078431	0.17453	0.11758	0.1546	0.20951	0.048487	0.18911	0.12822	0.12979	0.18322	0.19197	0.092335	0.26904	-2.5187	-3.3021	-2.8438	-3.1479	-3.2729	-2.8063	-3.575	-3.2229	-3.0521	-3.3396	-3.1188	-3.05	-3.2896	-2.9875	-3.5354	-3.175	-60.251	-50.385	-30.821	183.539	263.777	-68.828	229.641	205.913	-2.521	190.793	170.621	220.107	181.206	224.593	98.685	267.758	0.00023992	0.0010489	0.00016895	914.5	3.7248e-06	4.3334e-06	929.27	378.89	3.1863e-06	8.4718e-06	467.83	149.62	130.01	52.666	5.0605e-06	80.613	0.0004246	0.00043567	0.00012093	828.86	4.5277e-06	4.6313e-06	848.1	344.75	4.8472e-06	4.7202e-06	428.42	145.09	119.94	48.772	4.5426e-06	74.426	184.448	18.348	34.947	-67.530	63.219	81.170	-68.312	-63.076	44.684	69.641	-64.731	-61.127	-58.343	-53.798	75.961	-56.502	-8191	255	
2622.054	1	1	0	0	0.2305	0.3127	0.31399	0.20263	0.22089	0.40937	0.075796	0.080063	0.1356	0.20205	0.26266	0.15769	0.036433	0.13489	0.038695	0.26602	-2.5875	-3.2667	-2.8	-3.1354	-3.2042	-2.7854	-3.3438	-3.3271	-2.8542	-3.3958	-3.1646	-3.3125	-3.2271	-2.8583	-3.35	-3.3396	-30.712	83.908	123.881	259.661	7.786	89.166	247.130	-42.860	109.651	-32.165	246.054	-16.154	182.679	271.231	254.427	251.974	0.00019975	0.00071198	0.00012662	905.64	3.284e-06	9.9385e-06	930.74	375.46	3.2534e-06	2.1772e-06	469.71	147.82	131.44	52.928	3.043e-06	80.968	0.00043743	0.00042055	0.00011952	826	4.6603e-06	4.8489e-06	847.4	344.33	4.8054e-06	4.416e-06	428.9	144.35	120.69	48.99	4.8859e-06	74.483	190.513	-0.250	29.891	-67.436	80.177	68.150	-68.583	-62.733	65.206	57.236	-64.663	-60.522	-58.221	-53.880	85.514	-56.077	-8191	255	
2622.174	1	1	0	0	0.16553	0.062747	0.14326	0.3169	0.085061	0.044309	0.17322	0.10771	0.25006	0.084558	0.066755	0.17619	0.12464	0.085609	0.17045	0.26288	-2.4146	-3.0563	-3.0792	-3.1792	-3.5042	-2.8604	-3.25	-3.4375	-2.9833	-3.5271	-3.2375	-2.8208	-3.4896	-2.9875	-3.1104	-3.2458	37.763	218.145	108.970	231.144	118.373	-1.710	166.903	255.554	1.165	81.455	174.297	215.571	244.202	258.972	140.521	193.529	0.0002082	0.00058315	0.00017386	918.72	2.3731e-06	4.7429e-06	943.45	377.64	3.4214e-06	6.4434e-06	474.95	152.59	132.65	53.494	3.347e-06	82.007	0.00046031	0.00042333	0.00011862	834.42	4.6679e-06	5.298e-06	857.96	347	4.7786e-06	5.0128e-06	432.08	147.51	122.06	49.645	4.7747e-06	75.624	186.657	12.066	-12.393	-67.322	68.102	71.579	-68.595	-63.086	61.490	79.295	-64.535	-60.879	-58.008	-54.082	36.221	-56.382	-8191	255	
#DATA ENDS
