BOXY.EXE: ISS Imagent and Oximeter Data Acquisition Program Version 0.80
Ascii Record File

#ACQ INFORMATION
2  Detector Channels 
16  External MUX Channels 
1  Auxiliary Channels 
5000  Waveform (CCF) Frequency (Hz)
1  Waveforms Skipped 
30  Waveforms Averaged 
1  Cycles Averaged 
16  Acquisitions per Waveform 
10.0806  Updata Rate (Hz) 

#FILE INFORMATION
TRUE -- External MUX Channel results are PARSED.
FALSE -- AC DC and Phase are NOT grouped.
TRUE -- Companion Program Settings File CREATED.
FALSE -- AC data not excluded
FALSE -- DC data not excluded
FALSE -- Phase data not excluded
FALSE -- Auxillary Chn. data not excluded
Tab delimiters

#CALIBRATION STATE
TRUE -- Waveform Calibration Values APPLIED.


#AUX CALIBRATION VALUES
Val Type	aux-1	

Term	1.0000e+00	
Factor	0.0000e+00	


#WF CALIBRATION VALUES
A = Detector Channel
Val Type	A-AC1	A-AC2	A-AC3	A-AC4	A-AC5	A-AC6	A-AC7	A-AC8	A-AC9	A-AC10	A-AC11	A-AC12	A-AC13	A-AC14	A-AC15	A-AC16	A-DC1	A-DC2	A-DC3	A-DC4	A-DC5	A-DC6	A-DC7	A-DC8	A-DC9	A-DC10	A-DC11	A-DC12	A-DC13	A-DC14	A-DC15	A-DC16	A-Ph1	A-Ph2	A-Ph3	A-Ph4	A-Ph5	A-Ph6	A-Ph7	A-Ph8	A-Ph9	A-Ph10	A-Ph11	A-Ph12	A-Ph13	A-Ph14	A-Ph15	A-Ph16	

Term	0.00000e+00	0.00000e+00	0.00000e+00	0.00000e+00	0.00000e+00	0.00000e+00	0.00000e+00	0.00000e+00	0.00000e+00	0.00000e+00	0.00000e+00	0.00000e+00	0.00000e+00	0.00000e+00	0.00000e+00	0.00000e+00	0.00000e+00	0.00000e+00	0.00000e+00	0.00000e+00	0.00000e+00	0.00000e+00	0.00000e+00	0.00000e+00	0.00000e+00	0.00000e+00	0.00000e+00	0.00000e+00	0.00000e+00	0.00000e+00	0.00000e+00	0.00000e+00	0.00000e+00	0.00000e+00	0.00000e+00	0.00000e+00	0.00000e+00	0.00000e+00	0.00000e+00	0.00000e+00	0.00000e+00	0.00000e+00	0.00000e+00	0.00000e+00	0.00000e+00	0.00000e+00	0.00000e+00	0.00000e+00	
Factor	1.00000e+00	1.00000e+00	1.00000e+00	1.00000e+00	1.00000e+00	1.00000e+00	1.00000e+00	1.00000e+00	1.00000e+00	1.00000e+00	1.00000e+00	1.00000e+00	1.00000e+00	1.00000e+00	1.00000e+00	1.00000e+00	1.00000e+00	1.00000e+00	1.00000e+00	1.00000e+00	1.00000e+00	1.00000e+00	1.00000e+00	1.00000e+00	1.00000e+00	1.00000e+00	1.00000e+00	1.00000e+00	1.00000e+00	1.00000e+00	1.00000e+00	1.00000e+00	X	X	X	X	X	X	X	X	X	X	X	X	X	X	X	X	

B = Detector Channel
Val Type	B-AC1	B-AC2	B-AC3	B-AC4	B-AC5	B-AC6	B-AC7	B-AC8	B-AC9	B-AC10	B-AC11	B-AC12	B-AC13	B-AC14	B-AC15	B-AC16	B-DC1	B-DC2	B-DC3	B-DC4	B-DC5	B-DC6	B-DC7	B-DC8	B-DC9	B-DC10	B-DC11	B-DC12	B-DC13	B-DC14	B-DC15	B-DC16	B-Ph1	B-Ph2	B-Ph3	B-Ph4	B-Ph5	B-Ph6	B-Ph7	B-Ph8	B-Ph9	B-Ph10	B-Ph11	B-Ph12	B-Ph13	B-Ph14	B-Ph15	B-Ph16	

Term	0.00000e+00	0.00000e+00	0.00000e+00	0.00000e+00	0.00000e+00	0.00000e+00	0.00000e+00	0.00000e+00	0.00000e+00	0.00000e+00	0.00000e+00	0.00000e+00	0.00000e+00	0.00000e+00	0.00000e+00	0.00000e+00	0.00000e+00	0.00000e+00	0.00000e+00	0.00000e+00	0.00000e+00	0.00000e+00	0.00000e+00	0.00000e+00	0.00000e+00	0.00000e+00	0.00000e+00	0.00000e+00	0.00000e+00	0.00000e+00	0.00000e+00	0.00000e+00	-1.23800e+02	-1.29605e+02	-1.18317e+02	-1.81384e+02	-6.66720e+01	-6.49322e+01	-1.54429e+02	-1.62015e+02	-6.47790e+01	-5.86214e+01	-1.69550e+02	-1.78216e+02	-1.82278e+02	-1.75921e+02	-6.55031e+01	-1.48295e+02	
Factor	1.82523e-05	2.02462e-04	5.46020e-05	1.59639e-01	1.48313e-06	2.22676e-06	1.61345e-01	6.10527e-02	1.51134e-06	2.21112e-06	9.03854e-02	2.02187e-01	4.85540e-02	9.32913e-03	1.59883e-06	1.33881e-02	1.11608e-05	1.90474e-05	5.34503e-06	8.05254e-02	1.92326e-07	2.14060e-07	7.69818e-02	3.09569e-02	1.94649e-07	2.13805e-07	4.45233e-02	1.01031e-01	2.48173e-02	4.77762e-03	2.01464e-07	6.64615e-03	X	X	X	X	X	X	X	X	X	X	X	X	X	X	X	X	



#DISTANCE SETTINGS
A = Detector Channel
A-1	A-2	A-3	A-4	A-5	A-6	A-7	A-8	A-9	A-10	A-11	A-12	A-13	A-14	A-15	A-16	

2.5000e+00	3.0000e+00	2.5000e+00	3.0000e+00	2.0000e+00	3.0000e+00	1.5000e+00	3.0000e+00	3.0000e+00	3.0000e+00	3.0000e+00	3.0000e+00	3.0000e+00	3.0000e+00	1.5000e+00	3.0000e+00	

B = Detector Channel
B-1	B-2	B-3	B-4	B-5	B-6	B-7	B-8	B-9	B-10	B-11	B-12	B-13	B-14	B-15	B-16	

1.0000e+01	1.0000e+01	1.0000e+01	1.4400e+00	1.0000e+01	1.0000e+01	1.5100e+00	1.9400e+00	1.0000e+01	1.0000e+01	1.9900e+00	2.4900e+00	2.4100e+00	2.9000e+00	1.0000e+01	2.9800e+00	




#DATA BEGINS
time	group	step	mark	flag	A-AC1	A-AC2	A-AC3	A-AC4	A-AC5	A-AC6	A-AC7	A-AC8	A-AC9	A-AC10	A-AC11	A-AC12	A-AC13	A-AC14	A-AC15	A-AC16	A-DC1	A-DC2	A-DC3	A-DC4	A-DC5	A-DC6	A-DC7	A-DC8	A-DC9	A-DC10	A-DC11	A-DC12	A-DC13	A-DC14	A-DC15	A-DC16	A-Ph1	A-Ph2	A-Ph3	A-Ph4	A-Ph5	A-Ph6	A-Ph7	A-Ph8	A-Ph9	A-Ph10	A-Ph11	A-Ph12	A-Ph13	A-Ph14	A-Ph15	A-Ph16	B-AC1	B-AC2	B-AC3	B-AC4	B-AC5	B-AC6	B-AC7	B-AC8	B-AC9	B-AC10	B-AC11	B-AC12	B-AC13	B-AC14	B-AC15	B-AC16	B-DC1	B-DC2	B-DC3	B-DC4	B-DC5	B-DC6	B-DC7	B-DC8	B-DC9	B-DC10	B-DC11	B-DC12	B-DC13	B-DC14	B-DC15	B-DC16	B-Ph1	B-Ph2	B-Ph3	B-Ph4	B-Ph5	B-Ph6	B-Ph7	B-Ph8	B-Ph9	B-Ph10	B-Ph11	B-Ph12	B-Ph13	B-Ph14	B-Ph15	B-Ph16	aux-1	digaux	

2768.347	1	1	0	256	0.28028	0.07204	0.25516	0.086268	0.18756	0.12568	0.32547	0.20554	0.087676	0.17563	0.16956	0.12016	0.092357	0.10763	0.10983	0.18708	-2.4625	-2.8021	-2.6104	-3.0563	-2.5354	-2.8563	-3.0521	-2.7229	-2.8583	-3.0167	-2.7292	-3.0271	-2.6688	-2.9042	-2.9604	-2.6021	-71.090	187.931	149.563	-14.521	179.349	47.568	195.517	163.170	194.625	-60.131	-8.139	243.785	-53.300	-42.903	169.185	172.907	0.00015499	0.00045703	0.00010066	585.36	2.4412e-06	2.7131e-06	658.11	202.79	1.7267e-06	4.1238e-06	283.12	94.775	75.685	25.36	1.4474e-06	46.508	0.0001729	9.0713e-05	2.3607e-05	564.77	1.0766e-06	9.5346e-07	639.88	197.71	1.1728e-06	7.9999e-07	276.81	97.102	73.868	25.103	1.061e-06	45.671	190.881	-14.675	2.733	-76.296	50.502	71.585	-76.925	-70.938	53.231	68.581	-72.333	-69.097	-66.166	-62.441	76.810	-64.138	-8191	255	
2768.466	1	1	0	0	0.16877	0.15449	0.11643	0.25906	0.10813	0.24773	0.24797	0.24476	0.28623	0.23621	0.19459	0.22828	0.26044	0.17642	0.19946	0.35369	-2.575	-2.9208	-2.4062	-3.1125	-2.8	-2.7812	-3.1375	-2.6458	-2.7479	-2.8979	-2.7167	-2.9875	-2.9333	-2.7042	-3.1604	-2.5625	-3.913	109.392	90.773	135.456	-80.836	48.155	-51.015	209.750	52.069	-42.887	-82.414	-8.120	62.140	27.722	-24.441	215.299	0.00016034	0.0004664	8.4896e-05	580.74	1.2626e-06	3.0723e-06	647.81	200.43	1.8296e-06	3.2776e-06	279.31	93.322	74.119	25.087	2.2938e-06	46.001	0.00017085	8.3253e-05	2.3062e-05	561.69	9.9489e-07	8.9994e-07	633.05	196.23	1.103e-06	7.7905e-07	272.69	96.071	73.001	24.906	9.4016e-07	45.236	191.220	-0.906	10.181	-76.219	72.910	69.951	-76.945	-70.923	30.223	79.510	-72.395	-69.577	-66.187	-62.165	28.474	-64.027	-8191	255	
2768.562	1	1	0	0	0.21585	0.10519	0.097439	0.24391	0.13926	0.12557	0.17016	0.1071	0.067261	0.070303	0.038152	0.11527	0.26038	0.22401	0.19762	0.11975	-2.4188	-3.025	-2.6354	-2.875	-2.7646	-2.5604	-3.1896	-2.5187	-2.9229	-2.825	-2.4562	-2.9083	-2.8729	-2.5646	-2.9042	-2.8146	260.189	87.456	108.533	173.080	67.009	-4.265	-76.021	-68.238	219.164	84.629	-3.960	12.315	-54.901	255.360	83.043	170.844	0.00016134	0.00033501	9.1295e-05	576.89	3.1143e-06	3.6143e-06	647.97	200.92	1.6472e-06	2.939e-06	280.03	93.797	73.898	25.05	3.1489e-06	45.857	0.00016758	7.5197e-05	2.3418e-05	559.2	1.0526e-06	8.2413e-07	630.37	195.54	1.0406e-06	7.9999e-07	272.19	95.622	72.832	24.805	1.061e-06	45.079	188.301	-3.863	18.030	-76.469	61.404	78.168	-77.165	-70.507	58.190	53.783	-72.322	-68.839	-66.325	-62.069	64.688	-64.191	-8191	255	
2768.658	1	1	0	0	0.075388	0.13448	0.068476	0.27295	0.095687	0.060522	0.20418	0.15301	0.20336	0.096757	0.13088	0.12419	0.042386	0.13498	0.035517	0.16169	-2.4667	-2.8771	-2.4208	-2.825	-2.7687	-2.5542	-2.8792	-2.5375	-2.8542	-2.9667	-2.6813	-2.8438	-2.8958	-2.6813	-2.9396	-2.5854	-85.033	-58.971	-1.654	159.708	-32.694	26.814	139.012	69.069	184.389	138.478	178.467	155.564	115.330	208.034	-13.441	188.092	0.00015118	0.00039678	0.00010634	578.32	1.9067e-06	3.4092e-06	652.44	200.49	2.1476e-06	3.9627e-06	281.95	93.65	74.998	25.177	2.2836e-06	46.058	0.00016546	8.2499e-05	2.5946e-05	560.03	9.6483e-07	8.3573e-07	633.13	196.04	1.1115e-06	7.3362e-07	273.92	96.27	73.304	24.88	9.5485e-07	45.322	193.340	20.273	8.527	-76.358	43.426	66.954	-76.899	-70.643	42.925	64.568	-72.011	-69.047	-66.386	-62.170	62.093	-64.217	-8191	255	
2768.754	1	1	0	0	0.099569	0.23204	0.099194	0.18885	0.2696	0.2034	0.029361	0.2404	0.095345	0.029907	0.12264	0.19544	0.22094	0.22086	0.30724	0.19713	-2.2167	-2.8812	-2.4271	-2.7979	-2.9083	-2.6688	-3.1125	-2.8125	-2.7229	-3.1854	-2.7667	-2.9604	-2.9458	-2.5062	-2.8146	-2.7979	45.134	-17.417	51.774	198.229	-40.243	29.825	90.763	125.595	103.894	131.604	215.443	67.885	200.714	180.461	57.741	270.702	0.0001561	0.00037003	8.4138e-05	579.54	1.764e-06	2.9091e-06	657.39	201.03	8.218e-07	3.4099e-06	282.66	94.12	75.301	25.121	2.4713e-06	46.056	0.0001736	7.992e-05	2.3863e-05	562.8	9.7525e-07	8.5936e-07	637.42	196.95	1.0256e-06	6.4943e-07	274.91	96.39	73.536	24.948	9.9599e-07	45.257	195.239	-14.477	5.092	-76.296	49.754	57.892	-76.684	-70.703	76.955	71.128	-72.142	-68.530	-66.192	-62.082	60.417	-64.161	-8191	255	
2768.851	1	1	0	0	0.19253	0.079912	0.032192	0.15767	0.080702	0.11263	0.2451	0.1353	0.037991	0.081498	0.094154	0.064473	0.072455	0.30435	0.17788	0.27533	-2.1188	-3.025	-2.6729	-2.9146	-2.9396	-2.5479	-3.0792	-2.9021	-2.6542	-3.1396	-2.7792	-2.7146	-2.9771	-2.7604	-3.0354	-2.7917	109.880	136.637	-74.381	28.301	200.011	155.686	212.003	-31.738	84.429	195.172	263.917	-69.625	227.056	-32.216	44.187	220.236	0.00017503	0.00039402	0.00011805	580.04	1.9266e-06	2.619e-06	650.48	200.2	2.077e-06	4.2197e-06	278.02	93.102	74.699	24.941	9.8408e-07	45.452	0.00017016	7.6428e-05	2.1881e-05	560.43	8.831e-07	8.4777e-07	630.95	195.52	1.1991e-06	7.7593e-07	270.37	95.14	72.89	24.733	9.7374e-07	44.665	189.081	-9.971	13.407	-76.693	35.524	55.162	-76.728	-70.557	59.950	76.671	-72.198	-68.157	-66.542	-62.044	57.410	-64.048	-8191	255	
2768.947	1	1	0	0	0.13809	0.10923	0.085644	0.067681	0.13115	0.07026	0.068184	0.12967	0.3075	0.057898	0.056141	0.15081	0.064361	0.1303	0.064225	0.15231	-2.1063	-3.0854	-2.6771	-2.6833	-2.9396	-2.5396	-2.8667	-3.025	-2.5771	-3.0938	-2.9688	-2.6833	-2.9958	-2.6562	-2.9417	-3.0187	-35.774	226.415	61.048	209.258	224.187	6.960	37.865	198.378	252.775	41.997	170.996	174.939	-34.700	190.443	97.345	24.405	0.0001542	0.00037124	6.7401e-05	580	2.2484e-06	4.5635e-06	645.06	200.26	1.7235e-06	3.3873e-06	277.32	92.223	74.834	25.009	2.5557e-06	45.511	0.00017543	8.0039e-05	2.1948e-05	558.25	9.0153e-07	9.4454e-07	628.53	195.31	1.0174e-06	7.2337e-07	270.49	95.042	73.013	24.788	1.0023e-06	44.809	188.534	-18.049	6.352	-76.525	58.142	77.311	-76.959	-70.545	53.743	55.700	-72.102	-68.349	-66.199	-61.951	56.819	-63.990	-8191	255	
2769.043	1	1	0	0	0.24012	0.11546	0.08024	0.11467	0.22452	0.13334	0.23594	0.057841	0.13657	0.024379	0.11574	0.057782	0.19481	0.088975	0.15433	0.099224	-2.2354	-3.0333	-2.7208	-2.6792	-3.1396	-2.7521	-2.9083	-2.9417	-2.5563	-3.1021	-2.9688	-2.6917	-3.1188	-2.5792	-2.9771	-2.9292	96.762	-85.322	-71.857	222.648	122.367	-87.634	230.234	169.629	-58.831	154.835	116.384	136.650	-1.840	-69.899	-64.239	77.828	0.00015619	0.00043219	8.3802e-05	575.98	2.018e-06	3.8765e-06	647.92	202.39	1.3753e-06	3.5028e-06	279.98	92.992	74.636	25.243	2.3205e-06	46.182	0.00018078	7.9047e-05	2.2071e-05	560.08	9.9689e-07	8.7096e-07	632.16	196.53	1.0308e-06	7.893e-07	272.6	96.008	73.357	24.941	1.0346e-06	45.234	188.375	1.977	-18.553	-76.355	50.239	60.387	-76.934	-70.726	82.798	54.716	-72.071	-68.509	-66.302	-62.105	55.199	-63.986	-8191	255	
2769.163	1	1	0	0	0.19303	0.0959	0.12329	0.22379	0.020448	0.27712	0.21252	0.24812	0.26862	0.14785	0.084798	0.22068	0.042156	0.29854	0.050226	0.05171	-2.025	-2.9062	-2.8708	-2.6292	-2.9313	-2.7667	-2.9354	-2.9167	-2.6417	-2.8604	-2.9437	-2.5521	-2.9979	-2.8125	-2.6104	-3.1458	-52.909	52.061	36.462	182.625	-67.107	102.974	257.956	-56.212	23.600	79.614	254.473	258.385	-67.843	267.082	21.293	134.747	0.00016163	0.00042354	8.6771e-05	588.16	2.1376e-06	2.8903e-06	653.92	202.26	6.7055e-07	2.6598e-06	283.05	94.25	75.597	25.322	1.0792e-06	46.097	0.00017948	7.3332e-05	1.9866e-05	565.36	9.8006e-07	7.5055e-07	636.92	198.02	1.1233e-06	9.5945e-07	275.65	96.785	73.821	25.052	9.3051e-07	45.326	191.287	5.241	-1.352	-76.036	68.678	45.924	-76.771	-70.913	14.413	70.831	-72.447	-67.574	-66.036	-62.119	89.004	-63.776	-8191	255	
2769.260	1	1	0	0	0.20944	0.078802	0.050954	0.33913	0.22307	0.062262	0.07141	0.16131	0.18744	0.11589	0.2193	0.20684	0.27445	0.17875	0.17651	0.11002	-2.2375	-2.9208	-2.7854	-2.475	-3.1896	-2.6792	-2.7729	-2.9146	-2.5354	-2.8063	-3.0646	-2.6208	-2.9146	-2.8229	-2.7313	-3.0271	-43.007	199.128	56.158	222.626	242.592	103.578	99.450	54.386	254.980	-25.161	183.445	256.594	90.393	136.969	227.102	-88.883	0.00016819	0.00029004	0.00011997	582.59	2.8711e-06	3.6778e-06	656.5	202.34	1.5986e-06	4.8027e-06	278.98	93.2	74.509	24.988	2.3067e-06	45.258	0.00017118	7.0436e-05	2.3585e-05	562.39	1.0734e-06	8.9504e-07	634.42	196.76	1.1034e-06	7.9954e-07	271.53	95.103	73.179	24.85	1.0287e-06	44.613	193.929	-17.274	-0.537	-76.589	69.859	54.262	-76.947	-70.968	52.550	59.024	-72.105	-69.289	-66.463	-62.093	49.181	-64.116	-8191	255	
2769.354	1	1	0	0	0.19542	0.080197	0.27928	0.16397	0.099961	0.10536	0.24972	0.22605	0.17606	0.34721	0.14053	0.05952	0.34692	0.2233	0.11973	0.3288	-2.4583	-2.9625	-2.9875	-2.6021	-3.0417	-2.7646	-2.75	-3.0896	-2.5396	-2.8292	-2.9125	-2.7125	-3.0083	-2.7708	-2.7146	-3.0896	157.521	186.807	171.220	166.541	7.582	168.979	117.640	224.704	150.132	12.054	199.288	48.407	261.159	-62.432	108.968	-62.391	0.00015008	0.00024743	0.00011111	580.33	1.428e-06	2.7905e-06	652.98	200.61	1.5348e-06	4.3529e-06	278.96	92.221	74.42	25.195	1.6553e-06	45.681	0.00016818	8.1189e-05	1.9276e-05	560.33	9.9128e-07	7.9648e-07	630.75	196.12	1.041e-06	8.3428e-07	271.4	94.773	73.188	24.9	1.0539e-06	44.86	194.914	17.352	12.048	-76.370	59.998	67.576	-76.986	-70.673	20.380	66.020	-72.363	-68.661	-66.305	-61.789	58.325	-64.038	-8191	255	
2769.452	1	1	0	0	0.036461	0.034866	0.036278	0.11617	0.18845	0.16383	0.34989	0.12345	0.28633	0.1786	0.17989	0.18496	0.052377	0.23671	0.14169	0.19844	-2.2854	-2.8229	-2.9083	-2.5917	-2.9229	-2.7458	-2.6479	-3.1229	-2.7646	-2.875	-3.1458	-2.6604	-2.8958	-2.9479	-2.6021	-3.1729	-79.877	266.984	-4.185	-52.426	197.173	148.793	230.088	249.620	-13.460	-40.601	-4.507	198.260	211.233	-28.789	75.781	-7.375	0.00016088	0.00037763	8.2393e-05	579.32	2.0733e-06	3.1504e-06	652.7	201.54	1.6364e-06	3.028e-06	279.96	93.53	76.036	25.459	1.9124e-06	46.329	0.00017097	8.4285e-05	2.1369e-05	561.65	9.5482e-07	8.1566e-07	632.54	196.92	1.0823e-06	7.7816e-07	272.81	96.167	74.01	25.105	1.0413e-06	45.309	192.278	-16.941	9.875	-76.098	61.730	68.482	-77.103	-70.772	44.485	55.962	-71.906	-68.655	-66.249	-62.242	42.530	-63.775	-8191	255	
2769.546	1	1	0	0	0.32434	0.091233	0.11008	0.1233	0.1141	0.17026	0.13216	0.21821	0.16292	0.10996	0.084505	0.13813	0.36798	0.057298	0.26058	0.22913	-2.4542	-2.8396	-2.8875	-2.7354	-2.9229	-2.8875	-2.6833	-3.0667	-2.7417	-2.6854	-3.3792	-2.7021	-2.8312	-3.0521	-2.6146	-3.1917	37.979	-32.306	192.236	241.871	96.287	205.546	100.794	-65.259	121.956	190.929	127.191	247.482	255.989	222.623	245.640	254.029	0.00016626	0.00046409	0.00010702	586.91	2.6797e-06	3.2335e-06	657.75	202.43	2.1724e-06	4.7887e-06	282.39	95.57	75.31	25.541	3.5081e-06	46.067	0.00016504	7.5277e-05	1.981e-05	564.66	9.6684e-07	8.1789e-07	636.36	198.34	1.032e-06	8.9887e-07	275.56	97.171	74.244	25.215	1.0245e-06	45.386	190.874	7.501	5.490	-76.337	66.530	51.530	-76.618	-70.691	44.056	46.053	-71.985	-68.832	-66.056	-62.265	46.432	-64.124	-8191	255	
2769.642	1	1	0	0	0.079521	0.22816	0.13468	0.048561	0.26601	0.12907	0.28451	0.214	0.16878	0.16635	0.16721	0.36378	0.085768	0.087633	0.12484	0.22517	-2.3958	-2.7042	-3	-2.4875	-2.6979	-2.9417	-2.7542	-3.1292	-2.825	-2.6021	-3.0563	-2.6167	-2.8563	-3.1063	-2.4958	-2.9896	-58.097	77.794	150.558	-13.831	215.477	167.637	261.187	-66.764	143.157	240.461	246.004	107.591	248.074	232.151	-79.637	186.493	0.00015503	0.0002485	8.9465e-05	585.3	2.0703e-06	1.9966e-06	652.45	202.18	1.1747e-06	3.2909e-06	277.53	93.36	75.166	25.246	2.2635e-06	45.507	0.00016871	8.5912e-05	2.1313e-05	564.63	1.0494e-06	7.5099e-07	633.42	197.79	1.056e-06	8.276e-07	270.81	95.325	73.41	24.909	1.0317e-06	44.704	195.627	-14.399	1.889	-76.420	54.382	42.811	-76.965	-70.579	67.250	49.251	-72.069	-68.461	-66.099	-61.904	60.646	-63.993	-8191	255	
2769.763	1	1	0	0	0.046916	0.09267	0.10418	0.26811	0.18677	0.076541	0.17164	0.15931	0.11439	0.16375	0.26068	0.097058	0.2268	0.13196	0.17329	0.05604	-2.4938	-2.6104	-2.9208	-2.8021	-2.825	-2.9813	-2.6292	-2.9396	-2.8937	-2.5229	-3.2062	-2.6917	-2.7229	-2.8833	-2.5854	-2.9813	-31.174	17.401	-1.025	253.566	197.302	134.927	16.712	-61.904	-61.930	198.209	108.632	-67.820	37.263	259.135	62.767	230.796	0.00016934	0.00037935	7.3978e-05	576.47	1.2916e-06	3.4791e-06	643.2	200.51	1.4195e-06	3.9299e-06	277.39	91.053	74.999	25.421	1.9298e-06	45.316	0.00017127	8.1189e-05	1.8752e-05	559.4	1.0366e-06	7.6527e-07	624.87	196.21	1.0369e-06	8.9531e-07	269.43	94.183	73.099	24.981	1.0426e-06	44.563	195.296	17.837	-0.345	-76.339	65.124	47.526	-76.669	-70.713	48.733	67.223	-72.457	-68.135	-65.664	-62.037	33.634	-63.854	-8191	255	
2769.859	1	1	0	0	0.15781	0.054823	0.30709	0.3156	0.24671	0.092129	0.15976	0.1301	0.099895	0.10268	0.17647	0.058819	0.18771	0.076324	0.28085	0.19663	-2.4458	-2.475	-3.1333	-2.9062	-2.6125	-3.0812	-2.7479	-2.9021	-2.9729	-2.5958	-3.0687	-2.8375	-2.725	-3.2542	-2.7229	-2.9146	13.263	81.302	-21.724	268.982	242.384	-55.015	-6.370	-17.987	121.394	-49.143	129.044	190.313	129.032	212.222	57.551	205.639	0.00016389	0.00032526	0.00012117	577.33	1.3646e-06	3.0962e-06	649.63	200.77	1.0284e-06	3.3616e-06	276.95	92.202	75.251	25.238	2.7899e-06	45.601	0.00016346	8.5912e-05	2.1202e-05	560.64	1.0538e-06	6.8588e-07	629.82	196.5	1.0073e-06	8.3785e-07	270.37	95.031	73.48	25.026	1.0405e-06	44.766	195.662	-13.607	6.226	-76.288	36.003	49.375	-77.080	-70.614	27.048	86.946	-72.111	-68.971	-65.952	-61.868	51.820	-63.788	-8191	255	
2769.955	1	1	0	0	0.059125	0.13582	0.15892	0.011543	0.25361	0.17935	0.17997	0.10624	0.16722	0.33472	0.17646	0.21503	0.19523	0.17919	0.18497	0.20857	-2.5958	-2.5938	-2.7854	-2.9375	-2.675	-3.1146	-2.7333	-2.7292	-2.9771	-2.4625	-3.0583	-2.85	-2.3875	-3.0292	-2.7917	-2.7229	-83.211	153.220	233.608	12.287	-9.363	146.422	226.074	17.598	-48.474	216.055	245.524	164.507	-65.318	205.624	165.602	206.294	0.00015711	0.00031877	9.6257e-05	583.59	1.9849e-06	3.1297e-06	653.61	201.86	1.5745e-06	4.5717e-06	281.62	92.885	75.313	25.306	2.8108e-06	45.7	0.00016102	8.9165e-05	1.9108e-05	563.52	1.0325e-06	7.9336e-07	633.29	197.79	9.6757e-07	8.8061e-07	272.87	96.071	73.886	25.152	9.4688e-07	45.097	190.474	-4.776	-6.993	-76.242	79.071	48.723	-77.062	-70.752	93.475	64.803	-72.047	-68.475	-66.099	-62.177	55.979	-63.858	-8191	255	
2770.052	1	1	0	0	0.107	0.076599	0.37407	0.18282	0.2523	0.093834	0.13283	0.084806	0.165	0.30119	0.10745	0.17084	0.22151	0.19415	0.11352	0.10592	-2.5271	-2.4417	-2.9604	-2.9833	-2.55	-2.9292	-2.7375	-2.6146	-3.1542	-2.5958	-2.9625	-3.0438	-2.6854	-2.9729	-2.7917	-2.8563	176.420	191.875	1.805	237.717	221.718	121.594	-37.737	-35.534	261.378	97.602	102.631	201.289	199.324	246.737	161.530	267.125	0.00015865	0.00039942	0.0001211	582.22	2.1428e-06	3.1256e-06	650.33	203.17	1.4027e-06	2.5613e-06	276.8	92.478	75.455	25.246	2.132e-06	45.356	0.00016813	0.00010024	2.2516e-05	563.63	1.0806e-06	7.9827e-07	631.59	197.89	9.2945e-07	8.1647e-07	270.11	94.934	73.468	24.978	9.175e-07	44.411	193.887	-0.346	3.782	-76.300	36.901	57.971	-77.148	-70.880	42.657	73.205	-72.287	-68.512	-66.301	-62.296	63.835	-63.985	-8191	255	
2770.123	1	1	0	0	0.26996	0.067556	0.23014	0.39875	0.053123	0.18277	0.28686	0.061141	0.27112	0.078435	0.22043	0.047082	0.13445	0.12656	0.17402	0.078741	-2.7062	-2.6021	-2.6625	-3.1042	-2.5729	-3.0708	-2.9917	-2.5771	-3.0438	-2.6729	-2.9042	-2.8312	-2.5396	-3.0687	-2.8771	-2.5812	89.689	-19.865	249.808	264.254	245.232	57.323	138.736	263.531	122.637	72.101	157.192	212.953	47.694	141.711	215.592	80.963	0.00014762	0.00037534	6.7887e-05	575.4	2.7653e-06	3.5954e-06	643.93	201.36	2.5291e-06	2.5826e-06	274.85	91.033	74.681	25.242	1.039e-06	44.874	0.00016467	8.0396e-05	1.9253e-05	559.26	1.0325e-06	7.0952e-07	624.63	196.24	1.002e-06	7.9598e-07	267.85	94.1	73.037	24.898	8.7259e-07	44.254	191.623	-6.441	-12.287	-76.253	71.495	79.635	-77.043	-70.932	54.935	76.026	-72.257	-69.495	-66.021	-62.218	58.735	-63.914	-8191	255	
2770.244	1	1	0	0	0.039648	0.11859	0.23825	0.072625	0.30626	0.04331	0.047327	0.031041	0.18032	0.12599	0.084717	0.26987	0.25454	0.057156	0.053401	0.21895	-2.6042	-2.6396	-2.7	-3.0021	-2.4813	-2.8271	-2.9729	-2.7292	-3.0812	-2.8667	-2.8271	-2.8583	-2.7396	-2.8021	-2.9708	-2.7396	-77.999	59.850	-48.327	50.144	-49.451	114.884	-72.327	-8.506	-81.818	145.736	211.513	223.981	190.404	71.160	9.552	188.275	0.00016324	0.00033184	9.5578e-05	582.25	1.9602e-06	4.0535e-06	648.31	201.56	7.0286e-07	3.8885e-06	276.09	92.7	74.613	25.325	1.6641e-06	45.168	0.00016697	7.8372e-05	2.3629e-05	561.68	1.0342e-06	7.0551e-07	628.33	196.57	9.112e-07	9.3807e-07	268.94	94.378	73.363	24.972	1.0157e-06	44.481	192.726	-0.613	-9.979	-76.136	54.400	63.522	-77.125	-70.679	41.975	63.306	-72.129	-68.444	-66.268	-62.164	70.501	-64.009	-8191	255	
2770.340	1	1	0	0	0.16001	0.012417	0.10571	0.21541	0.21493	0.13881	0.17897	0.14859	0.12339	0.18677	0.22445	0.2547	0.14628	0.1377	0.03588	0.029535	-2.4458	-2.5792	-2.6042	-3.0563	-2.6229	-2.9167	-3.0417	-2.6375	-3.0729	-2.8438	-2.7167	-3.2292	-2.6521	-2.9146	-3.0792	-2.6125	67.898	-70.673	265.463	126.370	-13.197	47.264	193.532	234.781	-48.301	225.818	177.806	213.559	220.752	109.201	252.885	131.166	0.0001589	0.00040777	0.00010661	583.7	2.1211e-06	3.289e-06	649.58	202.55	2.0014e-06	4.358e-06	277.2	93.405	75.608	25.521	1.5077e-06	45.662	0.00016732	7.611e-05	2.0634e-05	564.08	9.9929e-07	8.4732e-07	631.09	197.94	9.9474e-07	7.6213e-07	270.97	95.465	73.95	25.2	9.4142e-07	44.943	190.268	-3.448	3.813	-76.209	48.947	49.413	-76.874	-70.694	31.824	64.833	-72.213	-68.680	-66.300	-62.155	69.749	-64.345	-8191	255	
2770.434	1	1	0	0	0.19954	0.041663	0.080103	0.12764	0.25358	0.22089	0.4576	0.16195	0.089139	0.18399	0.084495	0.18706	0.18344	0.26205	0.059041	0.066971	-2.6271	-2.7958	-2.6167	-3.2604	-2.7167	-2.8229	-2.9771	-2.6667	-2.8958	-2.8521	-2.7667	-3.3187	-2.7875	-2.9542	-3.1104	-2.7229	-52.204	-0.299	104.633	-47.298	132.782	7.732	205.685	237.843	196.447	-51.529	103.234	270.154	27.942	181.193	45.322	-76.536	0.00015277	0.00021336	8.8123e-05	588.71	1.4268e-06	4.3157e-06	653.96	203.45	1.9273e-06	3.427e-06	281.1	93.91	75.653	25.462	1.5653e-06	45.154	0.0001609	7.7618e-05	2.4342e-05	567.99	9.6363e-07	7.5635e-07	634.85	198.5	9.7811e-07	7.8262e-07	272.27	95.899	73.932	25.194	9.6073e-07	44.589	189.299	0.558	9.185	-76.259	77.038	71.489	-76.931	-70.867	30.438	64.391	-72.272	-68.396	-65.758	-62.200	95.881	-64.206	-8191	255	
2770.532	1	1	0	0	0.12138	0.087725	0.15925	0.1557	0.084871	0.22973	0.18827	0.12613	0.11818	0.11249	0.25289	0.12994	0.14958	0.28026	0.30909	0.28896	-2.5229	-2.825	-2.6146	-3.1271	-2.7417	-2.7021	-3.1583	-2.8896	-2.9646	-2.9375	-2.7625	-3.0792	-2.7896	-2.7875	-3.1792	-2.7208	104.369	-57.631	24.298	251.854	184.638	227.938	263.784	206.311	199.823	42.267	199.690	167.119	136.181	-78.136	-73.477	-41.197	0.00014084	0.00032041	8.4267e-05	585.38	1.4681e-06	3.2494e-06	645.14	200.85	1.4972e-06	2.9269e-06	277.23	91.323	74.274	25.371	1.9299e-06	44.976	0.00016927	7.1745e-05	2.4142e-05	564.58	9.7525e-07	8.219e-07	626.2	196.79	9.5621e-07	6.8685e-07	268.48	93.888	73.303	25.052	8.9945e-07	44.271	194.755	-1.135	4.626	-76.339	70.868	67.234	-77.003	-70.821	42.171	51.683	-72.346	-68.712	-66.276	-61.979	56.559	-64.224	-8191	255	
2770.651	1	1	0	0	0.19626	0.10059	0.20377	0.14578	0.20647	0.089904	0.10532	0.1526	0.12239	0.13622	0.22768	0.10694	0.059227	0.040914	0.17104	0.12284	-2.55	-3.0458	-2.4375	-2.9313	-2.9458	-2.7188	-2.9104	-2.7083	-2.8542	-2.9896	-2.6458	-3.0292	-2.7687	-2.7521	-3.1896	-2.7042	222.337	193.095	235.345	261.630	160.079	241.290	137.273	-62.515	44.268	91.807	-48.691	225.346	-38.291	158.886	228.001	185.391	0.00015002	0.00039152	0.00010149	582.51	2.044e-06	3.4767e-06	650.57	203.66	1.6635e-06	3.9754e-06	278.9	92.354	75.457	25.615	1.2342e-06	45.234	0.00016858	7.2261e-05	2.3975e-05	564.25	9.9969e-07	9.044e-07	628.9	198.34	1.0243e-06	7.452e-07	271.02	94.868	74.013	25.221	8.6084e-07	44.547	190.872	2.535	4.916	-76.165	70.994	65.819	-77.220	-70.735	48.086	62.448	-72.185	-68.706	-66.416	-61.884	47.118	-63.833	-8191	255	
2770.747	1	1	0	0	0.12314	0.11377	0.030751	0.11848	0.11197	0.17415	0.13149	0.17052	0.3183	0.17397	0.23356	0.20124	0.14614	0.19789	0.020954	0.42058	-2.3542	-2.9938	-2.4458	-2.9083	-2.8917	-2.7021	-3.1167	-2.6958	-2.7667	-3.1729	-2.5958	-2.9417	-2.8896	-2.7667	-3.1542	-2.6708	234.124	53.092	-39.480	153.012	239.703	25.876	182.945	-37.417	19.924	80.299	-24.361	37.516	-32.341	229.629	221.689	214.458	0.00016496	0.00038853	0.00010485	583.25	1.9205e-06	3.3563e-06	648.58	202.83	1.9085e-06	4.668e-06	279.91	94.044	76.15	25.562	1.1924e-06	45.499	0.00016483	7.9721e-05	2.2638e-05	565.81	9.8527e-07	9.1422e-07	632.23	198.66	1.0418e-06	7.6836e-07	272.46	95.715	74.428	25.28	8.9148e-07	44.888	193.981	-24.049	8.783	-76.386	40.421	78.166	-76.764	-70.864	28.228	57.473	-72.083	-67.810	-66.135	-62.030	73.379	-64.465	-8191	255	
2770.843	1	1	0	0	0.16822	0.14656	0.073542	0.14806	0.10664	0.148	0.012678	0.19689	0.36887	0.21125	0.12581	0.31902	0.030986	0.28652	0.13872	0.11793	-2.1396	-2.925	-2.5333	-3.0375	-2.8812	-2.6229	-3.175	-2.8375	-2.7021	-3.0229	-2.6583	-2.9583	-2.9667	-2.5938	-2.9229	-2.9208	-16.228	156.818	80.743	262.266	115.380	153.643	257.540	148.679	-80.102	193.024	234.267	156.250	-66.035	-85.197	202.964	179.215	0.00016397	0.00031912	0.00012108	588.42	1.9417e-06	3.0231e-06	653.06	204.92	1.965e-06	3.0093e-06	278.87	93.874	75.622	25.668	2.2465e-06	45.227	0.00017002	6.6824e-05	2.3696e-05	568.31	9.8166e-07	9.325e-07	634.19	199.72	1.1083e-06	7.0823e-07	271.63	95.845	73.973	25.298	1.0061e-06	44.607	193.429	8.174	18.993	-76.177	65.606	50.757	-77.134	-70.761	30.560	47.935	-72.233	-69.054	-65.860	-61.747	67.913	-63.873	-8191	255	
2770.940	1	1	0	0	0.27989	0.31703	0.13362	0.31261	0.25873	0.035742	0.28933	0.078149	0.20763	0.34798	0.13904	0.15872	0.064608	0.18449	0.30124	0.20192	-2.1312	-2.9854	-2.7625	-3.0187	-2.9646	-2.5771	-3.0917	-2.8063	-2.6083	-3.0958	-2.7271	-2.9729	-3.0792	-2.5417	-3.1583	-2.9146	14.338	266.158	-17.654	256.971	84.947	235.918	238.737	-9.728	19.258	-47.810	18.599	118.779	-64.870	-77.493	-71.927	-1.607	0.00016718	0.00026891	0.00012699	582.01	1.7568e-06	5.0619e-06	644.21	202.12	2.2707e-06	3.4223e-06	275.28	92.532	75.954	25.46	2.3395e-06	44.746	0.0001755	7.0356e-05	2.2638e-05	563.52	9.3959e-07	8.5178e-07	626.94	197.9	1.0519e-06	6.9041e-07	268.29	94.401	73.983	25.165	9.708e-07	44.249	191.809	-8.626	10.863	-76.250	41.887	64.695	-77.088	-70.828	30.126	83.654	-72.211	-68.822	-65.840	-62.147	43.996	-64.005	-8191	255	
2771.036	1	1	0	0	0.061504	0.105	0.18034	0.19521	0.18193	0.095684	0.14372	0.29108	0.16819	0.12659	0.25162	0.12853	0.030405	0.17296	0.2164	0.16638	-2.2604	-3.0708	-2.7438	-2.8875	-3.05	-2.65	-3.0563	-3.0104	-2.5375	-2.9479	-2.9062	-2.8604	-3.0854	-2.7021	-2.8854	-2.9104	-62.101	196.664	94.850	-80.710	14.579	224.812	-38.388	232.487	-55.738	234.887	263.149	67.120	244.158	18.234	-85.223	164.940	0.00017086	0.00043815	8.1048e-05	582	1.628e-06	2.9892e-06	644.05	201.93	1.7402e-06	3.3437e-06	276.5	91.918	75.6	25.461	1.9361e-06	45.067	0.0001672	7.0594e-05	2.2705e-05	563.57	9.1114e-07	9.1466e-07	626.7	197.79	1.0706e-06	7.256e-07	268.95	94.521	74.093	25.248	9.4016e-07	44.405	194.079	-8.471	34.125	-76.262	47.520	71.828	-76.902	-70.596	35.793	81.594	-72.047	-68.584	-65.766	-61.950	43.731	-63.879	-8191	255	
2771.132	1	1	0	0	0.043161	0.15316	0.076688	0.077975	0.27282	0.17765	0.16493	0.11376	0.19796	0.25073	0.045768	0.1091	0.086556	0.24212	0.3158	0.40984	-2.1958	-3.0646	-2.6542	-2.7167	-3.1333	-2.6396	-2.8458	-2.9125	-2.6521	-3.0458	-2.8375	-2.6417	-3.0563	-2.6229	-2.8438	-2.8479	225.334	255.274	194.237	-36.124	-6.493	52.912	9.606	135.567	180.903	65.951	186.152	40.357	83.346	244.672	249.410	-38.200	0.00015038	0.00032358	8.069e-05	586.36	2.2029e-06	4.1939e-06	647.17	203.83	1.8181e-06	2.6937e-06	278.12	92.532	76.238	25.571	1.0164e-06	45.447	0.0001709	7.1547e-05	1.9353e-05	566.46	8.4663e-07	8.3439e-07	629.06	199.02	1.0811e-06	7.501e-07	270.79	95.246	74.562	25.376	9.0113e-07	44.796	191.983	7.108	-0.742	-76.393	50.416	63.700	-77.056	-70.822	8.494	69.367	-72.561	-69.165	-66.067	-62.150	42.223	-64.072	-8191	255	
2771.253	1	1	0	0	0.20484	0.15613	0.12089	0.1816	0.17692	0.16927	0.22482	0.061219	0.12992	0.060892	0.22738	0.099492	0.37203	0.071817	0.19171	0.11494	-1.925	-2.9375	-2.8958	-2.5521	-3.1521	-2.6271	-3.0771	-3.0604	-2.6167	-3	-3.0854	-2.5458	-2.9833	-2.8979	-2.8625	-3.1146	240.857	154.907	51.155	254.289	173.461	78.381	223.658	262.822	210.763	66.078	209.841	-85.748	118.176	177.347	-35.389	207.733	0.00016479	0.00031526	7.8068e-05	589.13	2.6931e-06	3.7476e-06	651.31	205.46	9.9749e-07	3.7289e-06	278.71	92.001	76.833	25.749	2.8232e-06	45.587	0.00017676	7.242e-05	1.9431e-05	568.81	9.3559e-07	8.4821e-07	633.06	200.14	9.408e-07	6.9665e-07	271.83	95.658	74.936	25.395	1.048e-06	44.663	191.458	-0.026	-7.135	-76.152	60.161	53.642	-77.063	-70.793	66.234	64.351	-72.094	-68.504	-66.172	-62.239	57.996	-64.205	-8191	255	
2771.347	1	1	0	0	0.11906	0.27641	0.13633	0.13395	0.19792	0.27497	0.12986	0.096792	0.27651	0.065255	0.19008	0.22485	0.18007	0.089916	0.28767	0.12857	-2.1417	-2.9875	-2.9167	-2.5646	-2.9625	-2.575	-2.7771	-3.1208	-2.7062	-2.8542	-3.0938	-2.5708	-2.9708	-2.9271	-2.6708	-3.0875	77.685	136.055	221.139	232.760	209.281	-49.093	-25.909	-69.896	106.648	51.249	163.720	251.256	187.292	-44.707	156.251	51.287	0.00015661	0.00035659	0.00010649	583.22	2.6216e-06	3.8339e-06	645.7	203.26	1.7679e-06	3.8058e-06	274.07	90.951	75.829	25.41	1.6733e-06	44.758	0.0001726	7.238e-05	2.0255e-05	564.06	8.9752e-07	8.6115e-07	625.64	198.56	1.0397e-06	8.1335e-07	267.86	93.465	74.181	25.234	1.0417e-06	44.121	192.802	-3.905	-1.646	-76.239	69.585	57.232	-77.116	-70.989	67.600	67.309	-72.236	-69.234	-66.068	-62.093	66.082	-64.072	-8191	255	
2771.445	1	1	0	0	0.26725	0.39181	0.16868	0.39309	0.11891	0.26026	0.15019	0.29389	0.28716	0.10402	0.19404	0.27544	0.12654	0.083435	0.15349	0.20098	-1.9583	-2.8417	-2.9396	-2.5104	-3.0896	-2.8271	-2.7	-3.0229	-2.525	-2.7458	-3.0646	-2.8521	-3.1729	-2.8021	-2.6125	-3.05	175.045	-35.332	146.264	245.932	-80.565	139.991	111.341	126.402	237.597	10.012	-9.091	182.518	93.457	121.230	4.697	261.649	0.00015894	0.00036162	7.4927e-05	586.21	2.4809e-06	3.5384e-06	645.47	203.9	1.5408e-06	4.2528e-06	276.37	91.659	75.844	25.814	2.0075e-06	45.164	0.0001692	7.857e-05	1.9242e-05	565.77	9.6443e-07	7.3762e-07	625.92	198.85	1.0649e-06	7.403e-07	268.51	94.399	74.535	25.392	1.0409e-06	44.425	194.464	5.591	11.657	-76.240	68.616	64.819	-76.877	-70.849	53.593	75.037	-72.205	-68.806	-65.960	-62.207	48.960	-63.978	-8191	255	
2771.539	1	1	0	0	0.15332	0.10157	0.11933	0.24934	0.25323	0.16436	0.24548	0.12965	0.024618	0.1867	0.35554	0.11779	0.21042	0.23162	0.11417	0.13363	-2.3104	-2.8312	-2.7562	-2.7896	-2.875	-2.9562	-2.6771	-2.9333	-2.6896	-2.8146	-3.0375	-2.6271	-3.0396	-2.8271	-2.6021	-3.0708	116.871	-1.563	226.836	14.638	112.269	37.182	-87.314	-25.721	225.236	146.489	263.934	-82.982	-56.953	194.233	18.006	184.742	0.00017419	0.00035103	0.00010292	587.96	3.0068e-06	4.0084e-06	647.9	203.55	1.4886e-06	3.4937e-06	278.14	93.968	76.905	25.917	2.4718e-06	45.603	0.00017032	7.8015e-05	2.1892e-05	567.54	1.0474e-06	7.8801e-07	629.81	199.45	1.0791e-06	8.1959e-07	271.39	95.351	75.067	25.571	1.0971e-06	44.853	193.527	-22.769	4.320	-76.674	46.703	85.589	-77.095	-70.593	79.849	62.291	-72.018	-69.103	-66.038	-61.884	53.956	-64.046	-8191	255	
2771.635	1	1	0	0	0.15949	0.073014	0.28404	0.131	0.040952	0.12664	0.22509	0.17737	0.10979	0.032502	0.076216	0.055714	0.39874	0.16809	0.19832	0.16677	-2.1271	-2.8812	-3.1562	-2.825	-2.7396	-3.1875	-2.6625	-3.1292	-2.7083	-2.6771	-3.1542	-2.5604	-2.9938	-3.0604	-2.6583	-3.1271	142.803	111.806	-24.408	225.026	173.381	75.402	203.409	-81.369	123.490	136.445	131.867	101.213	192.947	82.114	269.727	269.598	0.00015858	0.00037891	6.1402e-05	589.14	1.5999e-06	3.6187e-06	652.16	205.38	1.7618e-06	2.3448e-06	279.36	92.801	77.018	25.812	3.2209e-06	45.625	0.0001712	7.6031e-05	1.8986e-05	569.66	9.9729e-07	7.3093e-07	634.68	201.12	1.056e-06	7.8484e-07	273.42	95.968	75.494	25.603	1.0623e-06	44.86	194.740	5.814	6.885	-76.118	52.362	59.020	-76.995	-70.652	34.206	61.356	-72.228	-69.218	-66.403	-62.098	48.002	-64.084	-8191	255	
2771.732	1	1	0	0	0.12696	0.21852	0.26781	0.119	0.28567	0.12135	0.07856	0.13512	0.15617	0.13813	0.062872	0.10801	0.096725	0.11058	0.06839	0.090776	-2.5271	-2.8479	-3.2062	-2.7229	-2.8	-3.1208	-2.6458	-3.1437	-2.9042	-2.6229	-3.2521	-2.85	-2.9167	-2.9583	-2.7104	-3.1833	-20.138	24.030	149.793	-18.710	62.051	251.749	48.885	190.898	-35.476	36.245	43.666	-33.834	223.391	-77.467	105.608	14.458	0.00016465	0.00046649	0.00010799	587.05	1.7179e-06	3.6197e-06	648.6	204.01	9.3759e-07	4.0617e-06	276.85	90.717	76.33	25.939	1.8324e-06	45.045	0.00016495	8.7142e-05	1.8162e-05	567.72	9.8046e-07	7.7686e-07	629.7	199.66	9.8784e-07	8.2226e-07	269.37	94.597	75.011	25.54	9.5066e-07	44.344	190.292	1.121	13.336	-76.577	70.795	55.910	-76.558	-70.601	104.069	62.198	-72.148	-69.027	-66.092	-61.829	65.057	-63.851	-8191	255	
2771.852	1	1	0	0	0.13445	0.16847	0.10919	0.16773	0.22771	0.22079	0.29675	0.12476	0.24312	0.21904	0.069195	0.27788	0.21578	0.14845	0.089966	0.29191	-2.5312	-2.7125	-3.1521	-2.7854	-2.8708	-3.1979	-2.7542	-3.0271	-2.9	-2.5958	-3.1333	-2.7021	-2.8042	-3.1667	-2.8708	-2.9667	120.014	51.420	-41.900	252.552	179.008	-2.876	169.689	-29.273	139.924	11.563	268.719	238.086	194.059	184.060	103.072	-69.084	0.0001557	0.00034562	8.5823e-05	583.87	2.0296e-06	4.6952e-06	644.45	205.79	1.5959e-06	4.2451e-06	277.01	93.87	76.771	25.805	1.6654e-06	45.23	0.00016632	7.8531e-05	2.1436e-05	566.64	1.0029e-06	7.4654e-07	625.31	200.17	9.8379e-07	9.4876e-07	269.52	94.943	74.862	25.513	9.238e-07	44.524	196.386	-12.417	9.957	-76.356	56.731	58.126	-76.821	-70.723	56.628	75.592	-72.121	-69.580	-66.334	-62.501	53.717	-64.230	-8191	255	
2771.948	1	1	0	0	0.10419	0.078766	0.10452	0.12122	0.12016	0.21291	0.11045	0.09401	0.14006	0.099025	0.28316	0.14079	0.12537	0.22455	0.16316	0.23092	-2.6167	-2.5438	-3.0771	-2.8312	-2.7208	-3.0729	-2.9479	-3.1042	-2.9333	-2.6375	-3.1354	-2.925	-2.8667	-3.1104	-2.8333	-2.9229	179.039	185.017	-73.988	204.012	-84.806	237.685	88.100	96.811	-88.460	-48.728	-56.709	252.737	45.611	227.028	46.263	-76.321	0.00015555	0.00030428	9.2492e-05	587.81	2.0448e-06	3.6549e-06	653.79	206.41	1.282e-06	3.2617e-06	278.91	92.969	77.104	25.938	2.5799e-06	45.408	0.00016262	8.1547e-05	1.9465e-05	569.58	1.0658e-06	6.8588e-07	631.87	201.41	9.7689e-07	8.7616e-07	270.86	95.283	75.544	25.659	1.0363e-06	44.772	190.695	-5.974	0.919	-76.299	40.689	61.125	-76.996	-70.682	44.370	53.603	-72.094	-68.217	-66.010	-62.249	58.120	-63.852	-8191	255	
2772.020	1	1	0	0	0.21402	0.16277	0.10357	0.16887	0.20577	0.17306	0.13619	0.051047	0.25434	0.31062	0.25187	0.15921	0.2738	0.18654	0.24144	0.40214	-2.6688	-2.4729	-2.8354	-2.9792	-2.6937	-3.1917	-2.8	-2.8542	-3.0229	-2.6688	-3.125	-2.7979	-2.7375	-3.2083	-2.9146	-3.0312	118.263	-86.236	88.690	161.200	33.003	128.603	-72.782	-4.876	38.254	206.616	-75.865	-38.650	169.797	-39.938	122.349	203.832	0.00015797	0.00036945	9.0227e-05	589.1	1.8846e-06	3.3958e-06	655.57	207.91	1.5174e-06	3.1435e-06	279.75	93.219	76.914	26.218	1.7461e-06	45.676	0.00016613	8.5753e-05	1.8574e-05	571.1	1.0033e-06	7.1755e-07	633.97	202.29	1.0535e-06	7.9776e-07	273.2	95.728	75.565	25.782	1.0228e-06	44.817	191.406	3.648	9.746	-76.322	45.522	48.892	-76.944	-70.786	50.521	52.289	-72.209	-68.398	-66.237	-61.762	52.581	-63.712	-8191	255	
2772.116	1	1	0	0	0.19247	0.18659	0.1268	0.16167	0.26321	0.11407	0.21025	0.11018	0.097277	0.30809	0.14931	0.18494	0.24339	0.14506	0.041107	0.25638	-2.6896	-2.7812	-2.9437	-3.0979	-2.6646	-3.2438	-2.8417	-2.8083	-3.15	-2.8104	-3.0875	-2.8167	-2.4	-3.025	-2.8667	-2.6625	117.866	237.149	72.400	-77.077	236.614	-46.352	-82.286	-17.520	-48.143	150.343	184.033	170.926	152.847	-78.770	31.457	189.610	0.00016421	0.00037904	0.00012821	591.44	2.041e-06	3.2807e-06	645.26	204.63	1.382e-06	3.5489e-06	273.37	91.12	76.309	25.61	2.4491e-06	44.895	0.00015646	8.2578e-05	2.0088e-05	570.24	1.0442e-06	7.8043e-07	628	200.16	9.9149e-07	8.3295e-07	268.03	94.492	74.782	25.501	9.0659e-07	44.117	198.063	-5.613	6.840	-76.566	51.686	65.608	-77.089	-70.641	37.086	64.421	-71.921	-68.398	-66.037	-62.080	78.610	-63.907	-8191	255	
2772.212	1	1	0	0	0.10335	0.023385	0.10337	0.26145	0.21347	0.083192	0.064861	0.21185	0.18216	0.36201	0.27566	0.012443	0.22935	0.16834	0.1335	0.10615	-2.6417	-2.6229	-2.8625	-3.0938	-2.4417	-3.0938	-2.9146	-2.7354	-2.9854	-2.5125	-2.7875	-2.8937	-2.6708	-2.9625	-2.8958	-2.7854	33.200	98.958	84.096	81.832	-3.992	116.382	246.520	210.952	144.845	17.472	263.745	109.050	132.612	259.921	34.482	-59.726	0.00017317	0.00033934	7.0491e-05	582.28	1.9715e-06	4.004e-06	641.57	204.75	8.8086e-07	3.8478e-06	275.82	92.153	77.11	25.904	2.0656e-06	44.814	0.00016334	7.8848e-05	1.7371e-05	565.47	1.0093e-06	7.0863e-07	622.6	200.03	9.5094e-07	8.9976e-07	267.66	94.497	75.164	25.562	9.3555e-07	44.181	192.172	3.513	7.447	-76.279	64.967	50.491	-77.088	-70.465	63.586	83.231	-71.896	-68.940	-66.282	-61.671	42.658	-63.982	-8191	255	
2772.331	1	1	0	0	0.10705	0.16909	0.15728	0.015115	0.052003	0.25589	0.39257	0.28185	0.075793	0.13787	0.21448	0.092975	0.0026825	0.28835	0.25957	0.058338	-2.6979	-2.6583	-2.7292	-2.9813	-2.6063	-3.0646	-3.1354	-2.7917	-3.1292	-2.8583	-2.8875	-2.9562	-2.7729	-2.9417	-2.9729	-2.6229	230.943	39.778	-83.971	28.541	169.492	131.418	220.854	182.566	-74.413	150.803	40.935	191.808	173.088	270.354	-7.758	-49.106	0.00015217	0.00028877	0.00010153	585.91	1.7758e-06	4.5638e-06	644.05	205.53	1.6088e-06	3.5697e-06	277.12	92.96	77.85	25.973	2.7878e-06	45.225	0.00015995	7.9801e-05	2.1035e-05	567.66	9.6203e-07	7.6839e-07	626.29	200.79	9.4972e-07	8.4631e-07	269.57	95.137	75.749	25.691	1.0317e-06	44.526	195.257	-7.672	-7.491	-76.198	40.256	50.126	-77.002	-70.653	-3.718	76.295	-72.341	-68.157	-65.887	-61.969	69.239	-64.158	-8191	255	
2772.427	1	1	0	0	0.06773	0.31529	0.18209	0.2122	0.10173	0.29727	0.12655	0.15521	0.079593	0.15184	0.13209	0.14057	0.29159	0.15684	0.13454	0.13176	-2.7812	-2.8292	-2.7313	-2.9458	-2.8125	-2.9896	-3.075	-2.725	-3.1937	-2.8083	-2.7333	-2.9188	-2.6917	-2.7646	-3.0729	-2.8187	271.112	174.811	112.879	226.336	-73.344	-31.008	-53.229	166.507	8.177	105.925	176.205	155.392	166.010	53.958	100.375	14.754	0.00015831	0.00036703	0.00010829	587.73	2.8426e-06	4.1277e-06	652.32	206.66	1.1395e-06	1.8571e-06	276.99	93.36	78.284	26.117	2.5663e-06	45.686	0.00016299	8.1229e-05	2.0189e-05	570.13	1.0802e-06	6.8009e-07	631.18	202.15	1.0256e-06	7.1892e-07	272.08	95.726	76.208	25.848	9.3219e-07	44.82	191.465	-6.910	28.945	-76.148	59.272	69.716	-77.092	-70.368	57.993	81.164	-72.136	-68.853	-65.838	-61.941	62.146	-64.083	-8191	255	
2772.525	1	1	0	0	0.069059	0.21158	0.10047	0.14277	0.13988	0.12213	0.188	0.10596	0.11435	0.13579	0.23226	0.21612	0.075412	0.2857	0.17221	0.25118	-2.5312	-2.7625	-2.5771	-2.9813	-2.7125	-2.9813	-2.975	-2.6208	-2.7646	-2.8396	-2.6875	-3.2146	-2.7604	-2.9708	-3.1521	-2.6708	125.139	-54.023	-83.607	164.561	233.612	-73.237	117.742	240.944	77.339	170.645	196.939	236.690	263.401	117.743	193.877	256.164	0.0001588	0.00048641	0.00010346	589.82	2.1482e-06	2.3919e-06	643.26	206.88	1.4353e-06	2.9649e-06	276.53	91.996	76.986	26.02	1.9807e-06	44.959	0.0001612	8.3689e-05	2.2672e-05	571	9.9088e-07	7.6036e-07	626.23	201.73	1.0389e-06	7.7905e-07	268.93	94.186	75.577	25.792	7.9872e-07	44.276	193.985	4.878	17.540	-76.295	50.031	35.299	-76.583	-70.410	55.711	53.426	-72.223	-67.925	-65.584	-62.225	67.312	-63.999	-8191	255	
2772.644	1	1	0	0	0.12136	0.20364	0.13632	0.2145	0.22304	0.15275	0.081207	0.27241	0.1928	0.059623	0.23581	0.15822	0.12133	0.1693	0.29974	0.23072	-2.4562	-2.925	-2.6104	-3.15	-2.8479	-2.7542	-3.275	-2.7021	-2.8625	-2.8708	-2.5979	-2.9333	-2.7958	-2.7521	-3.0833	-2.7708	-64.707	70.313	-51.786	-32.503	134.078	56.581	-0.530	260.924	201.789	88.951	42.350	-75.707	29.621	207.530	212.281	246.261	0.00014086	0.0004141	8.4891e-05	586.34	2.3396e-06	4.9005e-06	640.37	205.44	1.4079e-06	3.8446e-06	274.82	91.76	76.858	26.06	2.5094e-06	45.133	0.00016246	7.5555e-05	2.3373e-05	567.48	8.6547e-07	7.9648e-07	622.64	200.57	1.0077e-06	7.4832e-07	267.79	94.027	75.196	25.748	9.0071e-07	44.311	191.588	7.040	26.863	-76.139	43.505	73.475	-76.782	-70.521	52.394	78.874	-72.172	-68.612	-66.171	-61.794	56.755	-63.833	-8191	255	
2772.716	1	1	0	0	0.17286	0.1936	0.057967	0.35919	0.11821	0.33938	0.29727	0.12268	0.12448	0.15135	0.16568	0.057126	0.14018	0.13423	0.23618	0.23185	-2.3292	-3.0083	-2.4562	-3.0104	-2.9396	-2.6146	-3.1813	-2.6042	-2.9583	-3.1021	-2.5854	-2.9792	-2.7667	-2.5229	-2.9125	-2.7125	-74.120	129.795	19.808	260.561	85.991	72.201	224.129	147.685	152.568	257.482	-74.587	264.879	14.376	158.952	45.052	215.454	0.00015433	0.00058058	0.0001228	590.99	1.7717e-06	4.5584e-06	646.04	207.6	1.9841e-06	4.3241e-06	277.87	92.788	77.512	26.299	2.3567e-06	45.735	0.0001682	7.7816e-05	2.2182e-05	571.62	9.3839e-07	8.8523e-07	628.19	202.27	1.0069e-06	8.1602e-07	270.16	94.877	75.902	25.935	9.2631e-07	44.89	187.207	-3.540	7.079	-76.225	43.896	47.119	-76.960	-70.529	21.539	70.014	-72.356	-68.129	-65.986	-61.878	58.368	-64.060	-8191	255	
2772.812	1	1	0	0	0.30187	0.13597	0.20106	0.11451	0.22821	0.12698	0.078282	0.17496	0.23964	0.15081	0.23986	0.08095	0.20451	0.091926	0.087009	0.12347	-2.3125	-3.0542	-2.3417	-3.0375	-2.9708	-2.6625	-3.2417	-2.9667	-2.7771	-3.025	-2.6063	-3.0542	-2.8792	-2.7229	-3.0333	-2.8083	94.668	256.177	265.888	211.878	-53.005	58.343	-49.851	197.192	226.681	121.596	247.395	240.824	-60.836	50.455	162.968	28.355	0.00015778	0.00034575	8.4103e-05	592.41	3.1586e-06	3.4258e-06	652.15	207.76	1.6353e-06	4.0781e-06	281.33	93.441	78.069	26.237	2.0823e-06	45.87	0.00016897	7.484e-05	2.0857e-05	574.38	9.6403e-07	8.1789e-07	635.9	203.49	1.0746e-06	8.4898e-07	274.27	96.331	76.504	26.106	9.7878e-07	45.184	193.181	-3.120	11.087	-76.361	65.936	56.627	-76.918	-70.476	48.162	50.199	-72.381	-68.295	-65.642	-61.885	56.315	-63.851	-8191	255	
2772.933	1	1	0	0	0.25094	0.055746	0.053655	0.18711	0.14171	0.2372	0.19401	0.23083	0.11775	0.24322	0.17505	0.093952	0.066321	0.10313	0.087428	0.16888	-2.3708	-2.9708	-2.6063	-2.8271	-2.975	-2.6625	-3.1125	-2.7479	-2.8271	-3.0521	-2.7021	-2.9292	-3.0625	-2.6354	-2.8937	-2.9208	65.408	182.584	-38.321	232.516	-37.105	267.351	154.422	213.632	158.818	105.928	-63.658	-81.674	251.944	107.694	91.724	238.944	0.00015851	0.0002878	9.2653e-05	594.49	1.254e-06	2.7133e-06	652.57	207.49	1.8461e-06	1.9605e-06	279.2	92.188	77.917	26.194	2.5264e-06	45.564	0.00016502	7.1428e-05	2.1959e-05	575.04	9.5642e-07	8.4777e-07	633.03	203	1.0187e-06	7.1936e-07	271.12	95.479	76.274	25.951	9.792e-07	44.673	189.431	-4.698	2.397	-76.135	71.806	69.865	-77.206	-70.614	47.820	69.617	-71.776	-67.925	-66.271	-61.702	49.820	-64.142	-8191	255	
2773.029	1	1	0	0	0.30581	0.28841	0.037226	0.22951	0.059384	0.013615	0.19769	0.17494	0.17039	0.14934	0.12586	0.14061	0.19721	0.17057	0.073073	0.10169	-2.2292	-2.9875	-2.4521	-2.9062	-2.8563	-2.4875	-3.0687	-2.9229	-2.7104	-3.1958	-2.7062	-2.6625	-2.8792	-2.6375	-2.9875	-2.825	228.854	262.210	81.292	156.688	56.032	-16.609	226.778	-67.843	72.057	200.690	190.863	-20.910	205.234	235.871	102.640	229.405	0.00016149	0.00039702	9.8966e-05	589.71	1.8029e-06	2.8145e-06	641.56	207.5	2.2609e-06	3.2264e-06	276.58	93.561	78.669	26.673	2.5588e-06	45.624	0.00016969	7.0118e-05	2.1402e-05	570.85	8.839e-07	9.0485e-07	624.03	202.42	1.176e-06	6.8863e-07	269.67	95.501	77.018	26.306	9.3303e-07	44.963	192.772	-22.684	2.745	-76.278	52.795	72.690	-76.966	-70.556	48.069	50.982	-71.969	-69.026	-66.288	-62.200	79.262	-64.084	-8191	255	
2773.125	1	1	0	0	0.13739	0.2818	0.11222	0.096273	0.21223	0.19922	0.007187	0.078777	0.14312	0.11739	0.26612	0.088982	0.086214	0.057545	0.094825	0.16793	-2.2771	-3.0458	-2.4875	-2.725	-2.9938	-2.7396	-2.9688	-2.8604	-2.6771	-3.1667	-2.7542	-2.5917	-3.1437	-2.7104	-2.9292	-2.9854	150.289	149.112	166.568	-62.370	207.502	3.360	-75.595	172.074	-52.373	188.367	-86.025	167.019	-44.348	230.917	66.793	191.623	0.00016532	0.00036715	0.00010071	586.7	2.2555e-06	4.7856e-06	645.28	208.21	1.8063e-06	3.7183e-06	277.89	94.225	78.208	26.435	1.6056e-06	45.981	0.00017185	7.607e-05	2.1759e-05	569.63	9.8407e-07	9.2224e-07	625.83	203.22	1.0856e-06	7.8841e-07	270.92	96.1	76.926	26.227	9.4184e-07	45.042	193.138	13.784	-6.236	-76.152	47.470	67.517	-76.962	-70.892	52.639	57.610	-72.291	-67.837	-66.230	-62.181	64.599	-64.029	-8191	255	
2773.245	1	1	0	0	0.07984	0.43658	0.19399	0.13885	0.14412	0.1312	0.098739	0.051829	0.15012	0.14662	0.197	0.14681	0.22037	0.11566	0.028404	0.2154	-2.1312	-2.8958	-2.7375	-2.6625	-3.1354	-2.7208	-3.1083	-3.0979	-2.4708	-3.1646	-2.7604	-2.5417	-3.0458	-2.5667	-2.9146	-3.1021	-49.943	49.783	186.247	182.149	163.646	20.767	236.938	63.079	75.635	37.761	-81.088	-31.530	200.327	-8.216	103.938	24.394	0.0001612	0.00043686	0.00014132	587.53	2.1162e-06	2.5161e-06	649.52	207.87	2.2693e-06	4.757e-06	279.07	92.601	79.095	26.665	2.8011e-06	45.809	0.00017202	7.615e-05	2.1079e-05	570.35	9.2837e-07	7.8355e-07	629.68	203.31	1.1107e-06	7.501e-07	271.06	96.051	77.096	26.302	9.2589e-07	45.139	191.088	-2.740	17.842	-76.188	63.525	84.978	-77.221	-70.663	37.983	72.133	-72.311	-68.747	-65.832	-62.171	67.580	-63.783	-8191	255	
2773.317	1	1	0	0	0.12616	0.21316	0.11369	0.1992	0.19805	0.10284	0.11199	0.23172	0.060887	0.10075	0.18134	0.034425	0.21262	0.16444	0.04645	0.2259	-2.1833	-2.9188	-2.9708	-2.7167	-3.0187	-2.6146	-3.0542	-3.0542	-2.7167	-2.8521	-2.8896	-2.5958	-3.1458	-2.6063	-2.8125	-3.0563	-35.223	85.912	220.797	144.340	-0.352	208.799	-77.580	208.747	253.107	94.156	-20.314	148.769	249.653	116.849	251.546	140.922	0.00016894	0.00031236	0.00010242	590.37	2.3861e-06	3.9872e-06	646.24	206.99	1.6493e-06	3.2829e-06	276.14	93.23	77.813	26.603	2.1758e-06	45.319	0.00017743	6.8174e-05	2.0244e-05	570.75	9.2557e-07	8.8121e-07	627.94	202.96	1.0937e-06	7.8974e-07	269.56	95.571	76.532	26.226	9.7248e-07	44.706	196.631	-2.000	33.142	-76.158	61.156	70.416	-76.904	-70.517	38.366	65.988	-72.415	-68.707	-66.332	-61.747	76.972	-63.932	-8191	255	
2773.412	1	1	0	0	0.19658	0.12256	0.25464	0.032449	0.066997	0.26587	0.2643	0.17475	0.20592	0.22159	0.12167	0.27168	0.075716	0.084763	0.11876	0.053028	-2.0792	-2.7167	-2.8958	-2.4917	-3.0792	-2.8333	-2.9854	-3.2042	-2.7708	-3.0729	-2.9458	-2.5396	-3.0458	-2.8958	-2.8438	-3.0167	112.696	-75.833	140.270	120.537	102.137	159.795	1.697	221.235	86.427	-52.167	-62.109	11.059	-85.568	232.454	124.928	178.398	0.00015235	0.00022132	9.7492e-05	591.59	1.8364e-06	4.2912e-06	643.47	206.49	1.2796e-06	3.2226e-06	274.25	93.336	78.485	26.338	2.3151e-06	45.296	0.00016932	7.857e-05	2.2471e-05	569.35	9.2837e-07	7.724e-07	622.68	202.19	1.0961e-06	7.403e-07	267.43	94.747	76.775	26.128	1.001e-06	44.535	193.189	-4.749	17.047	-76.109	74.581	55.693	-76.592	-70.581	15.096	48.737	-72.014	-68.552	-66.029	-61.957	52.781	-64.247	-8191	255	
2773.508	1	1	0	0	0.19223	0.19242	0.19202	0.23617	0.3112	0.18239	0.2342	0.17331	0.084486	0.070447	0.09275	0.092864	0.080839	0.18029	0.26405	0.19548	-2.3438	-2.9646	-3.0792	-2.6208	-3.0958	-2.6437	-2.7583	-3.1146	-2.8083	-2.7479	-3.0979	-2.5896	-3.05	-3.075	-2.5771	-3.2875	109.016	25.660	163.236	76.743	75.398	-41.695	100.605	-9.141	-31.450	-86.316	166.001	194.911	-71.395	-75.048	-28.207	220.112	0.00015744	0.00048679	9.2522e-05	587.8	1.7594e-06	4.8178e-06	641.51	207.19	2.1289e-06	3.5103e-06	274.58	91.614	78.39	26.585	2.8629e-06	45.434	0.00016862	7.5237e-05	2.0489e-05	568.63	9.6363e-07	8.2502e-07	621.73	202.38	1.0795e-06	7.9999e-07	268.12	94.438	76.653	26.256	1.0359e-06	44.711	191.274	-5.335	9.854	-75.947	61.021	67.592	-76.746	-70.549	37.295	67.451	-72.295	-69.226	-66.042	-61.920	35.811	-64.220	-8191	255	
2773.628	1	1	0	0	0.18396	0.19295	0.097453	0.032359	0.31274	0.15302	0.41053	0.18047	0.1055	0.080216	0.19045	0.26738	0.07153	0.051776	0.24368	0.28153	-2.3479	-2.6646	-2.9875	-2.5812	-2.9146	-2.7188	-2.7229	-3.2417	-2.7542	-2.7521	-3.1167	-2.55	-2.9562	-2.9833	-2.525	-3.1562	200.204	189.919	224.961	3.605	161.269	229.068	167.647	-2.115	193.867	-75.255	197.823	-10.043	93.066	120.833	90.685	240.305	0.00015882	0.00032996	0.00013185	585.09	2.2326e-06	3.1371e-06	643.69	207.65	8.999e-07	2.6644e-06	278.25	91.726	79.025	26.572	1.5237e-06	45.677	0.00016539	6.9166e-05	2.1024e-05	568.54	9.5682e-07	8.4509e-07	623.83	203.33	1.0511e-06	8.7482e-07	270.59	95.414	77.17	26.265	1.1479e-06	44.9	190.983	7.696	0.106	-75.907	76.968	50.636	-76.868	-70.637	48.749	79.629	-72.437	-68.880	-66.183	-61.746	37.667	-63.902	-8191	255	
2773.724	1	1	0	0	0.22171	0.11217	0.048413	0.18974	0.26423	0.2429	0.22989	0.17193	0.1479	0.11005	0.15506	0.30527	0.084631	0.12563	0.2558	0.15063	-2.35	-2.5292	-3	-2.6458	-3.1375	-2.9708	-2.4792	-3.1188	-2.9042	-2.7021	-3.2396	-2.5958	-2.9688	-3.2188	-2.7021	-3.1521	-11.701	215.078	-11.216	217.258	184.017	110.657	267.573	266.593	245.927	94.865	12.349	82.095	-15.073	135.407	140.998	179.696	0.00016429	0.00030584	0.00011636	592.89	2.3848e-06	3.8928e-06	648.92	209.5	1.9939e-06	4.0385e-06	277.37	94.262	78.845	26.651	1.89e-06	45.585	0.00016274	7.1309e-05	2.0935e-05	573.1	1.0037e-06	7.9202e-07	631.7	204.24	9.5175e-07	8.8373e-07	270.38	95.694	77.006	26.267	1.0837e-06	44.77	196.580	7.812	10.825	-76.170	61.608	69.444	-77.059	-70.631	29.763	75.066	-72.438	-68.092	-65.999	-61.948	57.931	-64.064	-8191	255	
2773.821	1	1	0	0	0.16586	0.16281	0.1851	0.054302	0.16515	0.25486	0.13272	0.068269	0.26039	0.098093	0.20286	0.062479	0.2102	0.20091	0.056712	0.37883	-2.2625	-2.5396	-3.0979	-2.8917	-2.9813	-3.075	-2.6729	-3.1167	-2.8063	-2.6437	-3.125	-2.5354	-2.7792	-3.0854	-2.4646	-2.9979	127.164	-15.316	141.501	-29.459	88.124	230.346	187.589	-42.919	0.824	226.691	-8.883	19.261	254.202	-75.477	6.579	227.741	0.00016527	0.00044137	0.00010868	589.63	1.6738e-06	3.905e-06	645.06	207.46	1.6229e-06	4.6966e-06	275.26	92.108	78.287	26.416	1.5719e-06	45.204	0.00016148	8.2499e-05	2.0768e-05	570.34	1.051e-06	7.8177e-07	624.49	203.41	1.0746e-06	8.5789e-07	268.06	94.533	76.612	26.133	1.0866e-06	44.452	192.103	-29.345	8.844	-76.405	58.399	55.243	-76.835	-70.783	21.476	61.815	-72.077	-68.762	-65.919	-61.858	54.612	-63.999	-8191	255	
2773.917	1	1	0	0	0.18906	0.17962	0.044563	0.2671	0.35457	0.062455	0.14126	0.25879	0.16536	0.15914	0.04563	0.28846	0.28467	0.1064	0.24135	0.19696	-2.2583	-2.5604	-3.0396	-2.75	-2.5271	-2.9938	-2.6188	-3.0521	-2.7438	-2.6354	-2.9958	-2.8208	-2.8812	-3.1521	-2.4583	-2.9313	164.219	-11.649	-80.570	165.851	6.197	-88.390	267.226	265.404	3.280	-53.021	-11.266	160.371	21.144	173.663	17.819	148.152	0.00016035	0.0003469	8.4356e-05	588.87	2.571e-06	3.2015e-06	641.33	207.62	2.3957e-06	4.6741e-06	276.75	92.021	78.633	26.498	2.7648e-06	45.172	0.00016286	8.0316e-05	1.9643e-05	569.69	1.0293e-06	7.2335e-07	623.36	203.19	1.0256e-06	8.2359e-07	268.88	94.492	76.784	26.206	1.106e-06	44.599	192.453	-15.153	19.733	-76.224	66.907	51.982	-76.764	-70.833	42.763	62.959	-72.475	-68.881	-66.136	-61.933	52.664	-63.782	-8191	255	
2774.013	1	1	0	0	0.19649	0.25633	0.30781	0.23762	0.21849	0.022759	0.10714	0.11024	0.19222	0.14744	0.10499	0.13466	0.14588	0.36266	0.077935	0.21023	-2.4583	-2.4667	-2.8979	-2.8375	-2.6813	-2.9542	-2.6583	-2.8167	-3.0417	-2.5875	-2.9458	-2.6688	-2.6292	-2.9313	-2.7271	-2.9021	254.114	26.595	-57.891	-59.708	-19.458	95.676	-28.644	263.653	-28.968	-10.518	-14.025	139.375	3.855	231.308	211.772	231.333	0.00015542	0.00030986	8.6079e-05	590.36	1.5805e-06	2.6959e-06	651.47	209.27	1.222e-06	4.3932e-06	280.07	94.308	79.369	26.713	1.711e-06	45.726	0.00015839	8.3253e-05	1.8062e-05	572.14	9.9609e-07	7.6616e-07	630.57	204.91	9.4972e-07	9.2738e-07	272.3	95.64	77.264	26.377	9.6871e-07	45.079	190.325	-2.720	14.952	-76.337	43.392	63.685	-76.908	-70.660	27.864	75.674	-72.154	-69.105	-66.056	-61.975	72.914	-64.047	-8191	255	
2774.109	1	1	0	0	0.3363	0.10065	0.22308	0.16323	0.11865	0.049424	0.17849	0.13013	0.071304	0.2082	0.253	0.20212	0.13282	0.10298	0.077994	0.1178	-2.6375	-2.4688	-2.8604	-2.7979	-2.7438	-3.0687	-2.7938	-2.8354	-2.9542	-2.5875	-2.9417	-2.8229	-2.7458	-3.1729	-2.8604	-3.0271	36.292	37.609	58.973	42.744	95.007	-52.567	147.015	42.357	160.141	121.695	19.742	81.468	86.312	34.178	116.615	110.005	0.00015731	0.00036638	9.7581e-05	596.33	1.9975e-06	4.3933e-06	653.55	211.08	1.8248e-06	5.2867e-06	282.75	93.868	79.687	26.988	2.1656e-06	45.912	0.00016444	8.1983e-05	2.0656e-05	577.46	1.053e-06	8.1789e-07	637.45	206.36	9.7365e-07	8.815e-07	275.17	96.317	77.893	26.523	1.0187e-06	45.156	191.694	5.557	7.216	-76.382	52.204	60.171	-76.962	-70.563	58.110	70.172	-72.504	-68.565	-66.234	-61.786	56.140	-64.002	-8191	255	
2774.205	1	1	0	0	0.070208	0.096304	0.060785	0.073468	0.21934	0.065086	0.082266	0.082464	0.11898	0.18609	0.1979	0.16031	0.093449	0.029755	0.13406	0.078077	-2.4708	-2.575	-2.7625	-2.8708	-2.5604	-3.125	-2.8625	-2.7438	-3.05	-2.7833	-2.9333	-2.9521	-2.3958	-2.9729	-2.7167	-2.7625	168.533	13.166	144.179	240.633	236.094	237.038	186.575	265.909	-56.331	33.097	205.784	134.680	142.238	247.700	68.178	164.951	0.00015946	0.00028146	7.3154e-05	593.67	2.846e-06	2.4509e-06	646.47	209.57	1.4634e-06	4.3597e-06	278.8	93.441	78.516	26.579	1.8792e-06	45.305	0.00016709	8.5991e-05	1.9175e-05	574.69	1.0923e-06	7.8801e-07	627.67	204.68	1.0024e-06	8.9041e-07	270.41	95.782	77.061	26.323	9.8717e-07	44.564	196.492	6.102	8.296	-76.366	54.323	39.504	-77.091	-70.872	27.309	54.599	-72.417	-68.277	-66.279	-61.987	69.474	-64.081	-8191	255	
2774.326	1	1	0	0	0.16934	0.13533	0.06373	0.15975	0.16819	0.19105	0.10507	0.080647	0.22709	0.025014	0.24357	0.05032	0.058229	0.1948	0.17139	0.17743	-2.5542	-2.4979	-3.1479	-2.9167	-2.6083	-3.0208	-2.825	-2.6479	-2.95	-2.7021	-2.9	-2.8187	-2.4875	-2.9917	-2.8042	-2.6104	-68.892	190.658	271.640	-55.618	164.355	243.628	233.762	151.319	143.007	78.268	244.824	250.456	3.072	-53.709	229.335	172.914	0.0001589	0.00029226	0.00011614	590.39	2.3896e-06	4.4255e-06	643.1	208.51	1.1332e-06	2.7333e-06	277.29	92.35	78.544	26.669	2.827e-06	45.391	0.00016076	8.0197e-05	2.1581e-05	571.9	1.0338e-06	7.6571e-07	624.4	204.15	9.7203e-07	7.844e-07	269.99	94.746	77.083	26.294	9.41e-07	44.727	191.635	-3.599	-8.493	-76.089	31.031	45.853	-77.088	-70.338	61.780	78.699	-72.207	-68.932	-66.084	-62.036	56.336	-63.922	-8191	255	
2774.420	1	1	0	0	0.097275	0.099622	0.24533	0.35473	0.28779	0.14649	0.1243	0.2345	0.021067	0.338	0.20682	0.14935	0.08112	0.15501	0.21562	0.1364	-2.7562	-2.5625	-2.7854	-3.0646	-2.4896	-2.8896	-2.7875	-2.3458	-2.9729	-2.7896	-2.9062	-2.9667	-2.6417	-2.9479	-2.8167	-2.6292	55.529	60.428	-54.556	239.914	-33.468	154.846	260.856	-23.178	-17.354	52.419	3.064	185.351	220.491	62.890	9.248	194.644	0.00015258	0.0005266	9.8664e-05	592.16	1.9663e-06	3.2154e-06	649.12	209.19	2.1685e-06	2.815e-06	279.7	92.621	79.312	26.754	2.3354e-06	45.754	0.00016176	8.9959e-05	2.1402e-05	574.15	1.1075e-06	8.2369e-07	630.89	204.75	1.058e-06	7.8351e-07	272.14	95.603	77.758	26.426	9.0491e-07	45.033	192.110	-8.057	18.460	-76.342	67.968	57.023	-76.901	-70.555	45.623	46.897	-72.209	-68.429	-66.074	-61.925	67.402	-63.897	-8191	255	
2774.516	1	1	0	0	0.34011	0.079479	0.28963	0.28565	0.023265	0.16566	0.4428	0.056222	0.22823	0.046863	0.18318	0.22974	0.38834	0.051533	0.26844	0.080515	-2.5687	-2.8396	-2.3833	-3.0917	-2.4354	-3.0021	-2.875	-2.6479	-3.1188	-2.775	-2.6542	-2.9604	-2.6937	-2.9667	-2.8896	-2.5812	92.185	162.550	244.430	154.907	159.530	-65.777	207.917	205.549	186.055	214.669	106.655	223.137	175.218	18.414	102.039	161.296	0.00017235	0.00046325	9.2794e-05	594.08	1.7404e-06	4.6208e-06	653.72	210.07	1.8001e-06	3.9237e-06	281.1	92.889	79.602	26.848	2.728e-06	45.907	0.0001636	8.1189e-05	2.0567e-05	576.06	1.0137e-06	9.2135e-07	633.35	205.9	9.9717e-07	8.3829e-07	274.72	96.457	77.936	26.528	9.75e-07	45.179	195.513	2.974	0.790	-76.288	68.006	41.795	-76.798	-70.258	63.620	64.951	-72.424	-68.288	-65.685	-61.579	46.085	-63.593	-8191	255	
2774.613	1	1	0	0	0.42872	0.21611	0.036915	0.37375	0.3169	0.27937	0.089951	0.078461	0.16504	0.1699	0.19123	0.1267	0.19873	0.20022	0.049838	0.2796	-2.4583	-2.6083	-2.5271	-3.0229	-2.5979	-2.7417	-2.9625	-2.4646	-2.8292	-2.8937	-2.4896	-3.1583	-2.8	-2.7625	-2.9437	-2.4188	59.863	105.272	224.205	269.210	13.470	186.121	150.089	-11.564	67.048	201.395	128.179	-51.939	-27.990	221.174	146.248	173.587	0.00014234	0.00040927	7.0761e-05	590.75	2.3318e-06	2.9074e-06	642.77	209.73	1.8474e-06	3.1128e-06	278.45	91.663	78.635	26.654	2.8921e-06	45.098	0.00016181	8.8412e-05	2.1425e-05	573.18	1.0009e-06	9.4989e-07	625.92	204.61	1.0389e-06	7.599e-07	270.52	94.82	76.993	26.311	9.8046e-07	44.422	192.647	0.596	14.074	-76.023	60.605	61.975	-76.953	-70.618	65.687	67.356	-72.388	-67.578	-66.529	-62.010	68.140	-63.879	-8191	255	
2774.709	1	1	0	0	0.3912	0.15119	0.11702	0.20904	0.0076786	0.048261	0.14885	0.40948	0.10971	0.22384	0.078102	0.18676	0.15971	0.17545	0.15004	0.14939	-2.5604	-2.75	-2.6312	-2.9521	-2.7042	-2.7354	-3.0604	-2.7667	-2.8979	-2.8438	-2.5667	-3.025	-2.7062	-2.7208	-3.0583	-2.5042	205.065	78.123	114.610	255.680	268.798	32.350	149.231	213.531	141.687	102.211	-82.744	35.838	172.961	-12.081	-3.253	216.815	0.00015315	0.00046542	7.8129e-05	591.55	2.2988e-06	3.7457e-06	639.5	209.83	2.4042e-06	3.8001e-06	276.4	92.883	78.747	26.649	3.0627e-06	45.087	0.00016781	8.3689e-05	2.2115e-05	572.01	1.057e-06	8.9772e-07	622.7	204.62	9.6838e-07	7.991e-07	268.93	95.045	77.127	26.344	9.6577e-07	44.501	190.933	7.984	5.635	-76.263	44.386	43.866	-77.057	-70.299	48.221	64.005	-72.437	-68.363	-66.033	-61.828	65.965	-64.186	-8191	255	
2774.805	1	1	0	0	0.15516	0.10545	0.042212	0.26448	0.19207	0.27633	0.43891	0.039184	0.17931	0.26339	0.25504	0.12155	0.068052	0.079247	0.1714	0.1486	-2.2021	-2.7271	-2.5687	-3.0854	-2.6813	-2.7083	-3.025	-2.6937	-2.8604	-2.8979	-2.5917	-3.0083	-2.8688	-2.6125	-2.9188	-2.8917	-14.423	-6.707	-83.947	-85.513	46.558	32.800	175.223	-55.257	-8.207	41.176	190.132	38.186	-13.877	209.163	-11.692	216.540	0.00014471	0.00035711	0.00013166	597.14	1.8542e-06	4.7917e-06	643.8	210.41	1.3508e-06	2.6205e-06	278.21	92.076	78.809	26.81	1.7023e-06	45.59	0.00016939	7.0872e-05	2.3797e-05	574.96	9.7245e-07	7.9024e-07	627.14	205.27	1.0158e-06	7.697e-07	271.15	95.414	77.505	26.482	9.4478e-07	44.913	189.908	-6.559	17.341	-76.218	61.196	52.632	-77.251	-70.691	26.502	56.849	-72.188	-68.015	-66.236	-61.702	71.630	-63.889	-8191	255	
2774.925	1	1	0	0	0.11961	0.08441	0.16755	0.15557	0.0873	0.11465	0.25521	0.18906	0.042124	0.094508	0.12619	0.43465	0.25372	0.2411	0.38847	0.19704	-2.4104	-2.9208	-2.6771	-3.1396	-2.8708	-2.7604	-3.2083	-2.6104	-2.7667	-2.9521	-2.5187	-3.0375	-2.7458	-2.5396	-3.0187	-2.7146	29.210	28.493	157.502	229.022	-46.296	140.176	-26.180	-8.447	210.905	269.656	223.239	213.236	213.404	159.136	259.155	-80.648	0.00016829	0.00036929	0.0001316	596.56	2.0158e-06	3.6232e-06	653.41	211.01	2.4689e-06	2.6687e-06	280.7	94.185	80.333	26.922	2.5411e-06	45.938	0.00016502	7.1705e-05	2.2716e-05	575.76	9.8928e-07	9.0619e-07	634.41	205.94	1.0576e-06	7.3406e-07	274.41	96.771	78.23	26.607	9.1918e-07	45.256	194.667	-18.510	1.080	-76.257	44.702	52.052	-76.888	-70.611	36.342	46.476	-72.347	-68.348	-65.711	-62.026	69.899	-64.020	-8191	255	
2775.022	1	1	0	0	0.18257	0.2426	0.09336	0.043474	0.11281	0.12444	0.15641	0.26312	0.14659	0.26758	0.050721	0.12474	0.10302	0.17364	0.16516	0.085063	-2.225	-2.9437	-2.6458	-3.0104	-2.8729	-2.4188	-3.1271	-2.9125	-2.7604	-3.1271	-2.6729	-2.6813	-3.0104	-2.6625	-3.0792	-3.0687	3.177	243.314	100.630	193.227	18.169	220.225	169.379	257.743	-67.079	68.894	64.096	16.521	-79.976	125.884	23.543	65.895	0.00016102	0.00043035	0.00010695	593.33	2.2588e-06	2.1312e-06	646.16	210.82	1.5647e-06	2.4988e-06	278.17	92.836	79.489	26.779	2.1228e-06	45.167	0.00017246	8.4959e-05	2.4565e-05	576.13	9.5322e-07	9.102e-07	628.14	205.47	1.0945e-06	7.2605e-07	270.63	94.932	77.757	26.5	9.4856e-07	44.473	189.161	-11.701	22.211	-76.257	63.701	48.352	-76.771	-70.496	29.885	58.404	-72.198	-68.599	-66.311	-61.903	71.869	-63.989	-8191	255	
2775.118	1	1	0	0	0.084415	0.15064	0.23533	0.09339	0.085968	0.12942	0.13842	0.35192	0.22941	0.051949	0.1201	0.15583	0.12389	0.1487	0.16239	0.058081	-2.1646	-3.0417	-2.7042	-2.9479	-2.9604	-2.6937	-3.0625	-2.7771	-2.6167	-3.1583	-2.7604	-2.8104	-2.9854	-2.4437	-2.9479	-2.8	113.903	-31.050	142.514	258.990	68.791	79.008	141.881	178.849	-47.862	243.094	269.024	208.380	36.598	-22.889	14.129	59.221	0.00016577	0.00044584	0.00010435	594.01	2.0517e-06	3.8835e-06	643.22	210.47	2.5524e-06	2.4312e-06	275.4	91.94	79.148	26.726	2.3163e-06	45.105	0.00017397	7.361e-05	2.4832e-05	572.96	8.843e-07	8.219e-07	625.13	205.33	1.12e-06	6.8507e-07	269.19	94.612	77.502	26.422	9.0911e-07	44.552	191.565	-4.977	37.685	-76.458	60.033	53.827	-76.885	-70.403	33.954	67.599	-72.346	-69.195	-65.925	-62.136	52.068	-63.661	-8191	255	
2775.189	1	1	0	0	0.32091	0.17141	0.18665	0.06186	0.21296	0.14808	0.061369	0.03148	0.1273	0.21301	0.16861	0.14081	0.22695	0.092011	0.20524	0.31141	-2.1792	-3.1875	-2.6417	-2.8833	-3.1	-2.3958	-3.2479	-2.8688	-2.7875	-3.0521	-2.9854	-2.7313	-3.1896	-2.7333	-2.8104	-3.1021	191.949	-86.388	-31.422	154.067	182.910	24.490	-55.464	4.629	196.431	71.182	264.713	100.303	169.978	265.456	29.789	137.890	0.00014401	0.00038829	9.7213e-05	595.59	1.7867e-06	1.6432e-06	649.31	209.52	1.3102e-06	3.2604e-06	277.75	92.615	79.829	26.822	2.0224e-06	45.748	0.00017106	6.7856e-05	2.0422e-05	576.1	1.0121e-06	8.9147e-07	629.93	205.29	1.1906e-06	7.4965e-07	271.49	95.469	77.804	26.546	9.8801e-07	44.928	187.109	-1.520	14.269	-76.328	68.464	36.319	-77.038	-70.525	65.714	74.194	-72.209	-69.424	-66.095	-61.802	54.663	-64.026	-8191	255	
2775.310	1	1	0	0	0.31474	0.11129	0.16136	0.20901	0.055684	0.1649	0.073821	0.048115	0.12537	0.22921	0.20196	0.16096	0.22132	0.26583	0.058953	0.17226	-2.2167	-3.0583	-2.7604	-2.8354	-3.1188	-2.7313	-2.9521	-3.1354	-2.425	-3.1521	-2.8667	-2.7979	-2.8292	-2.7271	-2.8021	-2.9708	-85.023	8.199	-54.181	261.027	-39.362	-8.440	-37.823	246.222	39.838	146.798	195.353	213.647	121.247	-51.973	-42.589	67.334	0.00016763	0.00046506	6.9607e-05	601.26	2.5763e-06	3.2771e-06	653.48	212.81	1.6018e-06	2.9018e-06	283.21	94.756	80.439	27.064	1.2875e-06	46.444	0.0001746	7.1507e-05	2.1692e-05	580.12	9.6684e-07	8.1967e-07	635.4	207.56	1.088e-06	7.9152e-07	275.83	96.991	78.601	26.757	9.9851e-07	45.613	186.809	15.408	26.810	-76.143	53.641	54.543	-77.089	-70.782	51.835	58.638	-71.859	-68.062	-65.771	-61.813	67.310	-63.986	-8191	255	
2775.404	1	1	0	0	0.1175	0.10609	0.33388	0.077872	0.16206	0.18857	0.22029	0.11019	0.23122	0.17648	0.21526	0.20918	0.078753	0.11182	0.23687	0.26062	-2.0042	-2.8646	-2.7375	-2.6771	-3.0812	-2.5896	-2.8854	-3.0667	-2.4917	-2.9292	-2.8917	-2.6271	-3.0667	-2.6479	-2.9229	-3.0979	85.868	29.181	54.084	127.579	20.768	57.295	-80.040	215.985	-38.955	60.337	236.859	229.993	-9.314	110.490	176.572	176.296	0.00016268	0.0003657	7.4759e-05	601.04	2.8969e-06	3.4802e-06	656.26	213.14	2.1556e-06	2.7802e-06	280.46	93.213	79.584	26.84	1.8782e-06	45.656	0.00017543	8.6824e-05	2.1659e-05	581.76	9.7485e-07	7.4118e-07	636.69	207.93	1.1975e-06	8.0221e-07	273.96	96.245	78.396	26.65	1.0568e-06	45.067	192.478	18.569	24.313	-76.139	69.246	49.310	-77.004	-70.796	50.106	78.491	-72.382	-68.014	-65.791	-62.104	51.546	-64.058	-8191	255	
2775.501	1	1	0	0	0.17741	0.13048	0.26222	0.17057	0.14673	0.12226	0.27555	0.10672	0.30664	0.022661	0.051767	0.22277	0.15338	0.27182	0.063032	0.12128	-2.3396	-2.7812	-2.875	-2.7354	-2.975	-2.8833	-2.6979	-3.0521	-2.8083	-3.1083	-2.9938	-2.6479	-3.0521	-2.7542	-2.7062	-3.1792	2.613	53.523	33.231	-17.622	108.097	210.983	146.793	115.858	-39.347	199.075	4.571	29.143	218.224	76.594	249.988	182.505	0.00016107	0.00034139	0.00012937	596.07	2.4824e-06	3.5083e-06	651.77	211.04	1.6981e-06	2.5188e-06	277.9	90.895	79.415	26.839	1.9421e-06	45.314	0.00016758	6.9364e-05	2.1068e-05	577.09	1.0161e-06	7.7017e-07	630.41	206.1	1.0243e-06	7.5767e-07	270.93	95.144	77.887	26.572	9.7836e-07	44.685	194.938	-3.742	-1.920	-75.977	57.025	63.919	-77.353	-70.682	40.303	83.681	-72.524	-68.278	-66.016	-61.989	32.523	-64.085	-8191	255	
2775.597	1	1	0	0	0.23343	0.16006	0.28521	0.11506	0.23909	0.11351	0.15817	0.19603	0.14522	0.21759	0.23678	0.2467	0.058197	0.057277	0.050721	0.21812	-2.2	-2.7917	-2.9979	-2.7604	-3.1729	-2.7833	-2.8271	-3.2562	-2.7458	-2.8125	-3.0687	-2.5958	-3.0021	-2.8771	-2.7708	-3.225	197.369	135.978	132.419	201.703	238.549	-68.840	219.206	76.940	-9.449	111.137	114.086	161.004	-47.729	168.291	70.248	181.667	0.00015534	0.00037003	0.00010188	598.96	1.3397e-06	3.814e-06	648.2	212.16	1.4562e-06	3.3744e-06	279.67	93.708	80.303	26.909	2.8421e-06	45.554	0.00016718	7.6388e-05	2.1124e-05	577.13	9.5442e-07	8.1432e-07	629.65	206.89	1.0787e-06	8.1691e-07	272.23	95.859	78.467	26.627	1.0073e-06	44.999	193.522	8.797	6.665	-76.089	53.719	50.849	-76.798	-70.569	35.339	78.797	-72.190	-69.007	-65.825	-62.040	38.095	-63.922	-8191	255	
2775.717	1	1	0	0	0.1015	0.20643	0.075516	0.18861	0.25979	0.11388	0.23372	0.16683	0.055727	0.0099288	0.089788	0.27461	0.06026	0.1623	0.2052	0.2149	-2.0979	-2.8521	-2.9833	-2.6667	-2.9562	-2.9688	-2.5458	-3.0396	-3.0542	-2.7854	-3.0875	-2.4729	-2.8229	-2.8333	-2.6167	-3.1312	124.387	225.261	-18.981	255.879	-2.040	118.423	-61.650	-86.037	42.883	5.557	213.208	204.719	57.416	-17.032	261.834	267.364	0.00016512	0.00041008	0.00010305	598.05	2.2897e-06	4.0324e-06	650.17	212.93	2.5215e-06	3.5316e-06	281.85	93.459	80.209	27.202	2.033e-06	46.124	0.00016855	8.6864e-05	2.0924e-05	579.83	9.5802e-07	7.7106e-07	632.03	207.38	1.0839e-06	8.7972e-07	273.8	96.334	78.514	26.854	1.0644e-06	45.354	197.538	-2.150	8.219	-76.150	69.451	57.147	-77.007	-70.573	33.850	64.007	-72.224	-68.784	-66.164	-61.596	52.888	-64.111	-8191	255	
2775.814	1	1	0	0	0.13833	0.32946	0.15143	0.10087	0.1843	0.06618	0.059474	0.16996	0.20574	0.068671	0.22145	0.16481	0.091014	0.35894	0.10332	0.17864	-2.4938	-2.9292	-3.0792	-2.6646	-2.8937	-3.0917	-2.6375	-3.1104	-2.7917	-2.8063	-3.1542	-2.6667	-2.9542	-3.0646	-2.5875	-3.1417	161.128	129.580	224.279	-88.358	-66.448	-77.197	263.130	238.906	266.457	63.429	-82.205	13.028	230.576	209.891	-36.630	102.505	0.00015058	0.00049517	0.00011806	600.03	2.0402e-06	3.0507e-06	650.59	213.03	1.2639e-06	3.8994e-06	282.2	92.633	80.405	27.257	2.7913e-06	45.783	0.00017676	8.3253e-05	1.9933e-05	581.35	9.0193e-07	8.6382e-07	635.55	207.95	1.0284e-06	8.3295e-07	273.97	95.822	78.589	26.776	1.0929e-06	45.08	192.349	2.839	-13.394	-76.299	50.501	50.883	-76.938	-70.625	47.592	81.160	-72.002	-68.534	-65.839	-62.094	82.344	-63.720	-8191	255	
2775.885	1	1	0	0	0.17328	0.29507	0.081232	0.16503	0.21852	0.19646	0.09394	0.25413	0.16598	0.12477	0.1445	0.13058	0.19321	0.27301	0.31277	0.095255	-2.2938	-2.6417	-2.9854	-2.7146	-3.0417	-3.0583	-2.7208	-3.1396	-2.8833	-2.7292	-3.2083	-2.5917	-2.7958	-2.9042	-2.4646	-3.2438	244.699	12.887	-31.302	50.622	99.706	18.334	-65.971	241.208	98.896	223.590	-11.352	270.225	239.604	-68.751	121.725	-23.385	0.00016452	0.00049639	0.00010285	600.25	2.0071e-06	3.4378e-06	647.84	210.85	2.1977e-06	3.8145e-06	275.12	91.487	79.491	26.836	1.3661e-06	45.504	0.00016685	8.48e-05	2.0612e-05	577.91	1.0113e-06	8.3751e-07	628.24	206.62	1.0572e-06	8.6012e-07	268.68	94.955	77.824	26.585	1.0434e-06	44.544	189.315	-11.914	-15.245	-75.858	59.295	66.948	-76.853	-70.651	27.252	59.300	-72.390	-68.557	-65.970	-61.922	73.817	-64.103	-8191	255	
2776.006	1	1	0	0	0.22268	0.19074	0.10051	0.17999	0.098272	0.081689	0.14697	0.23861	0.25565	0.46184	0.033098	0.40261	0.061685	0.18439	0.29605	0.077528	-2.4604	-2.5438	-3.1646	-2.8958	-2.9938	-3.0729	-2.8646	-3.0042	-2.8479	-2.6312	-3.0729	-2.8771	-2.8667	-3.0104	-2.8812	-3.0646	135.721	78.812	-32.438	194.789	112.151	-10.531	-53.483	224.011	181.523	165.975	188.898	152.462	161.682	259.193	68.687	-27.023	0.00015526	0.00021385	9.0537e-05	595.39	1.4853e-06	3.5539e-06	648.99	210.89	2.3997e-06	4.0655e-06	276.98	90.962	80.015	26.821	1.883e-06	45.58	0.00016597	8.4562e-05	1.9777e-05	577.18	9.7766e-07	7.3137e-07	628.48	206.18	1.0726e-06	8.766e-07	270.14	94.807	78.104	26.629	1.0396e-06	44.819	197.558	7.402	9.455	-76.325	51.303	67.060	-77.120	-70.609	58.469	64.931	-72.450	-68.630	-66.067	-62.001	49.615	-64.035	-8191	255	
2776.102	1	1	0	0	0.22998	0.060145	0.19924	0.26103	0.076938	0.096238	0.12986	0.14038	0.15682	0.042392	0.068496	0.1407	0.2048	0.13321	0.078317	0.19644	-2.4854	-2.4688	-3.0396	-2.7354	-2.6625	-3.1063	-2.7583	-2.8854	-3.0667	-2.7521	-3.1521	-2.7896	-2.6542	-3.15	-2.7938	-2.9833	62.823	-7.417	-70.382	-64.214	-59.173	243.523	164.756	-79.228	134.565	5.783	230.387	-4.642	116.682	23.940	-54.881	224.684	0.00014942	0.00049164	7.3297e-05	600.86	2.1685e-06	2.653e-06	655.93	212.37	1.9161e-06	3.6561e-06	279.64	91.994	80.499	27.063	2.4388e-06	45.655	0.00016174	8.0832e-05	1.8774e-05	579.84	1.035e-06	8.0228e-07	635.42	207.47	1.0337e-06	9.1268e-07	272.71	95.483	78.511	26.799	1.0812e-06	45.111	191.473	8.155	-9.328	-76.282	52.639	30.872	-76.952	-70.442	63.302	62.127	-72.517	-68.516	-66.221	-62.199	46.244	-63.943	-8191	255	
2776.198	1	1	0	0	0.033838	0.32628	0.21555	0.16997	0.12446	0.12626	0.16668	0.14967	0.32792	0.19047	0.1267	0.13167	0.2624	0.088672	0.18961	0.24165	-2.4458	-2.5417	-3.0479	-3.0187	-2.6271	-3.2	-2.7812	-2.8563	-2.975	-2.6833	-3.1542	-2.9458	-2.6979	-3.0812	-2.6813	-2.7562	-53.271	166.732	259.475	102.498	-36.824	-0.838	-35.744	267.241	259.525	-6.375	-58.937	211.081	187.152	143.990	192.978	220.124	0.0001545	0.00043219	0.00010562	600.8	2.4617e-06	3.7493e-06	657.38	213.73	2.0315e-06	3.8149e-06	283.45	94.408	80.728	27.192	3.0049e-06	45.98	0.00016451	9.2499e-05	1.814e-05	583.25	1.1151e-06	7.6304e-07	640.01	209.02	1.0016e-06	9.5945e-07	276.12	96.547	78.853	26.869	1.0119e-06	45.221	191.840	-7.668	4.495	-76.223	75.266	59.721	-76.974	-70.371	25.787	64.050	-72.175	-68.028	-66.382	-61.791	45.156	-64.130	-8191	255	
2776.294	1	1	0	0	0.21056	0.055941	0.12049	0.48865	0.082045	0.067092	0.059478	0.19769	0.12095	0.08475	0.060648	0.20406	0.12387	0.055394	0.17531	0.18526	-2.7354	-2.5708	-2.8854	-2.9688	-2.7229	-2.9479	-2.8063	-2.8167	-3.0917	-2.6417	-2.9313	-2.8771	-2.4813	-3.0458	-2.8042	-2.9271	189.974	-0.105	59.683	142.398	130.856	68.229	146.619	226.924	265.041	64.465	115.478	-79.918	251.671	224.386	215.618	-76.119	0.0001552	0.00035764	9.1949e-05	602.84	2.0661e-06	2.3516e-06	648.06	212.58	1.4447e-06	3.7848e-06	277.52	93.303	78.784	26.909	3.0592e-06	45.24	0.00016962	7.8531e-05	2.0333e-05	581.56	1.0686e-06	6.6894e-07	629.98	207.67	1.0673e-06	8.6413e-07	269.82	95.204	77.885	26.596	9.8717e-07	44.525	191.317	6.329	-9.111	-75.805	47.663	60.099	-77.069	-70.776	18.584	64.691	-72.319	-68.148	-65.305	-61.739	48.026	-63.731	-8191	255	
2776.413	1	1	0	0	0.11523	0.17608	0.11383	0.13353	0.41186	0.30566	0.36596	0.31033	0.081938	0.10098	0.018294	0.016148	0.060683	0.041664	0.20789	0.2519	-2.6667	-2.6417	-2.9396	-3.0875	-2.3583	-3.1	-3.0542	-2.8458	-3.1063	-2.7646	-3.025	-2.9521	-2.7375	-3.1125	-2.8896	-2.7729	-60.518	165.897	-7.138	185.278	-41.525	129.967	244.503	39.078	-0.748	70.802	184.324	244.359	240.134	-41.192	-29.702	240.015	0.00014313	0.00050419	9.3031e-05	597.76	2.8352e-06	3.3551e-06	650.33	211.86	2.5686e-06	4.3096e-06	278.73	91.32	79.601	26.914	3.2131e-06	45.529	0.0001576	8.9681e-05	2.3941e-05	579.5	1.0562e-06	8.1967e-07	630.99	206.98	1.0345e-06	8.6636e-07	271.08	95.165	77.936	26.691	1.0543e-06	44.828	192.700	8.843	9.301	-76.195	64.305	71.243	-76.866	-70.627	23.896	80.405	-72.462	-67.463	-66.308	-61.672	59.730	-64.120	-8191	255	
2776.487	1	1	0	0	0.11955	0.16536	0.046982	0.15624	0.049972	0.076954	0.2607	0.29858	0.16332	0.12801	0.149	0.13592	0.12567	0.059864	0.16482	0.10271	-2.7979	-2.8312	-2.7729	-3.0854	-2.7479	-2.9854	-2.9813	-2.7958	-3.1063	-2.8563	-3.0187	-3.0396	-2.7125	-2.8812	-3.0083	-2.7771	118.700	-15.097	-67.095	19.192	232.092	1.377	208.648	195.868	-47.039	38.263	162.101	9.225	240.901	-72.639	106.068	217.818	0.00015724	0.00042712	8.707e-05	605.33	2.3546e-06	4.443e-06	661.92	214.33	1.9333e-06	4.2827e-06	282.16	93.564	80.468	27.17	2.4872e-06	46.086	0.00016176	8.3372e-05	2.2004e-05	583.28	1.0494e-06	8.7363e-07	639.73	209.52	9.8744e-07	8.0311e-07	275	96.351	78.763	26.84	1.0447e-06	45.306	189.541	-9.888	17.844	-76.152	79.212	68.108	-77.116	-70.524	30.347	44.751	-72.097	-68.842	-65.944	-61.757	53.593	-64.047	-8191	255	
2776.605	1	1	0	0	0.21056	0.36126	0.036533	0.12393	0.20278	0.025966	0.13317	0.017413	0.085753	0.11447	0.10218	0.06394	0.17445	0.24172	0.20199	0.15427	-2.7458	-2.8396	-2.7625	-3.0604	-2.7021	-3.0938	-3.0583	-2.6188	-3.0229	-2.925	-2.725	-3.1063	-2.5333	-2.9542	-3.0062	-2.625	225.619	70.079	108.599	119.227	165.371	-77.763	166.254	-87.079	160.141	73.130	-27.041	173.686	-18.831	-41.147	4.629	46.098	0.00016198	0.00044901	0.00011122	607.2	1.8546e-06	4.9289e-06	665.27	214.4	1.8179e-06	3.0972e-06	286.62	95.713	81.48	27.324	2.5821e-06	46.393	0.00016883	8.5515e-05	2.2761e-05	588.14	1.091e-06	8.4866e-07	645.05	210.52	9.4851e-07	8.864e-07	278.79	97.648	79.554	26.991	9.5695e-07	45.568	198.428	-8.800	-1.887	-76.229	72.171	62.118	-76.896	-70.362	41.436	74.389	-72.052	-68.440	-65.779	-61.778	78.292	-63.965	-8191	255	
2776.702	1	1	0	0	0.18258	0.3324	0.14168	0.011124	0.11075	0.34494	0.089274	0.17151	0.13708	0.032456	0.25719	0.16974	0.0079052	0.096241	0.091573	0.31797	-2.4458	-2.8688	-2.5875	-3.0563	-2.6188	-2.8208	-3.0563	-2.6583	-3.0187	-3.0417	-3.0229	-3.3271	-2.8271	-2.8667	-3.1896	-2.6583	225.533	93.123	263.916	119.446	150.660	21.399	-85.077	58.701	24.057	192.182	156.390	90.122	-21.244	216.796	127.060	134.106	0.00015316	0.0004332	7.455e-05	607.14	2.1449e-06	4.051e-06	659.58	214.03	2.2411e-06	4.3777e-06	281.27	94.928	79.929	27.104	1.9598e-06	46.036	0.0001692	8.6745e-05	2.275e-05	586.59	1.051e-06	8.8657e-07	641.01	209.46	1.1379e-06	8.3384e-07	274.39	96.327	78.496	26.813	9.6535e-07	45.07	190.601	-9.706	-5.675	-76.330	54.796	59.909	-77.324	-70.530	65.441	68.296	-72.180	-68.717	-66.007	-61.703	52.630	-63.803	-8191	255	
2776.798	1	1	0	0	0.35716	0.16064	0.2542	0.05632	0.049724	0.087351	0.13462	0.10993	0.037841	0.15934	0.062243	0.14142	0.070737	0.052606	0.17788	0.15184	-2.6167	-2.9542	-2.6458	-3.1271	-2.9062	-2.9062	-3.1312	-2.8833	-2.825	-3.1583	-2.6542	-2.9938	-2.7667	-2.9083	-3.2958	-2.7062	157.537	165.477	166.051	16.714	-2.130	55.690	237.396	118.772	103.611	-49.614	241.517	164.619	172.228	-39.639	-72.730	-67.074	0.00016775	0.00028698	0.00011987	604.94	1.188e-06	3.1782e-06	656.02	213.51	1.423e-06	3.1099e-06	282.23	92.899	80.638	27.097	2.7219e-06	45.573	0.00016955	7.2737e-05	2.1915e-05	585.07	1.0402e-06	8.2324e-07	638.55	208.77	1.0937e-06	7.4253e-07	274.4	95.685	78.802	26.789	9.1246e-07	45.055	188.457	-8.504	0.464	-76.305	76.877	54.904	-76.882	-70.392	18.480	62.769	-72.122	-68.452	-65.817	-61.497	58.111	-63.864	-8191	255	
2776.894	1	1	0	0	0.17831	0.1026	0.22348	0.10546	0.27447	0.064938	0.11863	0.37152	0.11943	0.12367	0.10542	0.1226	0.044075	0.07121	0.40139	0.083099	-2.4396	-3.0854	-2.6729	-3.0583	-2.7833	-2.7062	-3.2354	-2.4271	-2.8542	-3.0375	-2.6375	-3.1063	-2.8167	-2.5896	-3.2146	-2.8937	133.538	42.225	240.338	236.106	200.265	215.604	157.578	210.203	219.083	61.895	245.250	-31.396	89.042	68.331	141.341	187.671	0.00015187	0.00029971	0.00011044	604.97	2.0648e-06	4.1912e-06	659.39	213.56	1.7861e-06	3.6217e-06	284.35	94.932	81.407	27.308	2.8828e-06	46.186	0.00016481	7.6666e-05	2.373e-05	585.86	9.6804e-07	8.4554e-07	640.57	209.43	1.0503e-06	8.1647e-07	275.94	96.78	79.285	27.002	9.3177e-07	45.423	186.999	0.323	11.577	-76.101	74.477	37.950	-76.862	-70.646	42.906	58.696	-72.590	-67.869	-65.920	-62.212	78.776	-64.173	-8191	255	
2777.015	1	1	0	0	0.11398	0.18396	0.11648	0.42355	0.19221	0.20295	0.19856	0.22335	0.20147	0.12778	0.0079404	0.092772	0.15607	0.021868	0.099918	0.19716	-2.4146	-3.0542	-2.6833	-3.0104	-2.9917	-2.7021	-3.1562	-2.8312	-2.9188	-3.1167	-2.7833	-2.9667	-2.9479	-2.5229	-3.0312	-2.7896	-34.355	-23.555	254.679	224.255	131.178	265.267	203.808	104.984	253.798	-51.903	25.806	154.173	-51.379	-86.643	180.973	-33.958	0.00016056	0.00036523	9.0073e-05	607.67	2.3381e-06	2.8103e-06	663.52	215.85	1.6023e-06	2.5699e-06	286.31	94.18	81.287	27.466	2.5491e-06	46.339	0.00016953	7.9642e-05	2.295e-05	587.48	9.8447e-07	8.6694e-07	644.24	210.89	1.0629e-06	7.648e-07	278.19	97.721	79.685	27.121	1.0023e-06	45.707	194.045	5.583	13.680	-76.165	54.926	56.245	-76.860	-70.565	22.044	88.560	-72.237	-67.919	-66.274	-62.056	70.432	-63.890	-8191	255	
2777.111	1	1	0	0	0.22414	0.21662	0.086904	0.18379	0.23118	0.053234	0.24986	0.16222	0.05292	0.094305	0.19493	0.26126	0.081161	0.13169	0.28362	0.2373	-2.3063	-3.0396	-2.6583	-3.1583	-3.0167	-2.6437	-3.2792	-2.8854	-2.6458	-3.1146	-2.8187	-2.9562	-2.9437	-2.7812	-2.9521	-2.7771	124.423	-70.568	54.962	213.760	143.368	167.422	166.622	-63.246	-81.642	201.471	256.518	120.977	218.302	132.202	266.412	158.272	0.00016971	0.00027216	0.00011611	606.55	2.41e-06	3.4338e-06	657.77	214.45	1.3367e-06	4.3853e-06	280.63	92.833	80.771	27.321	2.5341e-06	45.465	0.00017423	7.7062e-05	2.5957e-05	587.31	9.7485e-07	9.2849e-07	640.01	209.91	1.0519e-06	6.7571e-07	274.56	95.949	78.936	26.901	9.1414e-07	44.887	191.367	-16.250	2.058	-75.950	50.243	61.312	-76.864	-70.427	57.710	83.443	-72.258	-68.909	-65.713	-61.858	38.192	-63.982	-8191	255	
2777.182	1	1	0	0	0.28833	0.18073	0.10277	0.045189	0.26644	0.17703	0.1405	0.16134	0.23751	0.27979	0.15112	0.1479	0.21285	0.093999	0.19524	0.085338	-2.4292	-3.1437	-2.5979	-2.9667	-3.0604	-2.5875	-3.3417	-2.8104	-2.6646	-3.0583	-2.7229	-2.9521	-3.0979	-2.675	-3.0229	-3.0687	228.037	-8.224	132.546	11.441	202.545	129.380	167.702	126.076	173.211	110.293	-87.021	-55.771	56.619	218.669	151.291	241.685	0.00015016	0.00036355	0.00011548	603.96	1.2401e-06	4.7762e-06	652.68	214.67	1.5196e-06	3.0755e-06	279.94	92.736	80.769	27.132	2.3399e-06	45.433	0.00017062	6.9563e-05	2.0924e-05	583.54	8.9872e-07	9.4811e-07	634.58	209.02	1.1959e-06	7.0689e-07	272.84	95.786	78.802	26.828	9.9011e-07	44.904	193.203	-6.381	0.366	-76.069	46.015	55.705	-76.892	-70.652	42.110	85.815	-72.433	-68.733	-66.155	-61.703	45.874	-64.012	-8191	255	
2777.279	1	1	0	0	0.17492	0.063175	0.2235	0.10567	0.073271	0.25063	0.14546	0.20082	0.15187	0.19479	0.19621	0.19479	0.09433	0.12557	0.40076	0.15309	-2.1521	-3.0771	-2.7938	-2.8771	-3.1146	-2.6562	-3.2083	-3.0042	-2.7229	-3.2167	-2.8667	-2.8708	-3.0521	-2.7812	-2.8667	-3.1125	-32.496	-7.838	97.191	-42.231	252.025	136.967	178.227	-45.629	270.284	120.763	205.992	143.268	-52.896	220.685	-44.494	163.765	0.00015455	0.00034048	9.1197e-05	603.54	1.9563e-06	4.5544e-06	662.41	215.77	1.3896e-06	3.2056e-06	284.08	93.965	81.076	27.366	1.7553e-06	46.014	0.00016669	7.4245e-05	2.2416e-05	587.24	1.0077e-06	7.8578e-07	642.37	210.35	1.1602e-06	7.8128e-07	276.23	96.454	79.292	27.048	9.9599e-07	45.353	192.193	-6.706	7.115	-76.202	54.762	68.528	-76.960	-70.447	62.852	70.508	-72.331	-68.332	-65.885	-62.024	38.070	-64.067	-8191	255	
2777.375	1	1	0	0	0.2219	0.061553	0.12189	0.090529	0.072713	0.058347	0.15997	0.31049	0.22561	0.13558	0.11088	0.18038	0.13922	0.15581	0.093729	0.14458	-2.1729	-3.0083	-2.8292	-2.6958	-3.0792	-2.6896	-3.0312	-3.0604	-2.8187	-3.325	-3.0542	-2.6979	-3.0646	-2.8771	-2.875	-3.0479	194.327	93.278	-12.883	266.385	258.730	33.964	164.525	167.663	62.188	18.103	265.712	151.869	168.863	193.330	84.001	200.269	0.00015156	0.00037419	9.3268e-05	607.17	3.4406e-06	4.9517e-06	668.05	216.76	2.4019e-06	3.8944e-06	286.94	94.64	82.434	27.497	2.177e-06	46.782	0.00017006	8.4483e-05	2.0289e-05	588.62	9.6684e-07	9.1288e-07	647.57	211.57	1.1164e-06	7.3718e-07	279.55	97.439	79.879	27.189	1.051e-06	45.912	192.544	-6.022	4.931	-75.974	71.972	60.046	-77.148	-70.633	20.424	68.999	-72.167	-68.492	-65.792	-61.806	50.590	-64.181	-8191	255	
2777.494	1	1	0	0	0.22693	0.09053	0.12349	0.31301	0.13024	0.022079	0.17023	0.22506	0.21724	0.18098	0.2619	0.17954	0.090483	0.12105	0.1488	0.058106	-2.2146	-3.2125	-2.8458	-2.7938	-3.1417	-2.8583	-3.0062	-3.0604	-2.675	-3.0563	-2.8937	-2.6562	-3.0438	-2.7333	-3.075	-3.125	158.563	-81.481	56.194	226.775	86.322	-64.124	-64.267	-62.552	23.435	79.636	179.315	171.070	100.937	77.020	181.547	240.568	0.00016161	0.00038769	9.88e-05	611.95	2.3831e-06	3.7762e-06	665.6	216.3	1.1011e-06	2.6351e-06	283.64	94.746	81.35	27.379	1.9207e-06	45.774	0.00017964	7.8094e-05	2.0979e-05	592.6	9.1595e-07	8.2458e-07	645.93	211.17	1.1269e-06	6.8373e-07	275.79	96.711	79.349	27.011	9.9767e-07	45.133	189.532	-14.125	10.759	-76.539	35.462	70.951	-77.196	-70.727	24.060	79.934	-72.208	-69.023	-66.129	-61.721	64.622	-63.826	-8191	255	
2777.590	1	1	0	0	0.1714	0.14226	0.19217	0.15791	0.20724	0.2397	0.059459	0.15284	0.15183	0.099676	0.2216	0.12408	0.13659	0.12357	0.10135	0.068516	-2.3125	-2.9125	-2.9583	-2.6604	-3.3	-2.75	-3.0104	-3.2083	-2.6937	-3.0333	-3.0458	-2.6875	-2.9979	-2.7667	-2.6104	-3.1542	156.561	-49.520	29.891	165.595	198.693	153.417	63.159	248.882	-3.355	-7.860	131.940	149.467	-11.031	-12.439	-24.783	126.896	0.00016153	0.00031517	9.3191e-05	602.02	1.6211e-06	2.7909e-06	655.78	215.07	2.0023e-06	4.6084e-06	279.68	93.778	80.848	27.208	2.4882e-06	45.729	0.00016853	8.2737e-05	1.9053e-05	584.85	9.7485e-07	7.7998e-07	637.93	209.54	1.1014e-06	7.3629e-07	273.26	95.773	79.045	26.903	1.1022e-06	44.969	191.861	-13.092	15.065	-76.063	50.244	71.907	-76.969	-70.608	37.860	74.029	-71.973	-68.244	-65.658	-61.871	53.215	-63.830	-8191	255	
2777.686	1	1	0	0	0.22371	0.28304	0.11408	0.24446	0.21189	0.011472	0.10428	0.13981	0.22671	0.23073	0.097412	0.2539	0.17516	0.14536	0.090167	0.22441	-2.2896	-2.8187	-2.8146	-2.5687	-3.0875	-2.7812	-2.8917	-3.1833	-2.5667	-2.8229	-3.0375	-2.5687	-2.8333	-2.8812	-2.7062	-3.1583	-57.003	103.396	-27.586	149.938	144.022	124.828	185.844	26.856	-18.993	75.105	178.540	219.982	257.469	114.448	132.166	-32.532	0.00016275	0.00038942	0.00010195	610.23	2.7261e-06	3.3742e-06	664.13	215.12	1.5433e-06	2.2548e-06	283.77	93.424	81.369	27.377	1.989e-06	46.112	0.00017078	8.8927e-05	2.0734e-05	588.46	8.8229e-07	8.1566e-07	644.46	210.84	1.0949e-06	8.4141e-07	276.84	97.172	79.369	27.001	1.0107e-06	45.492	194.330	-2.800	-3.747	-76.158	52.371	61.530	-76.971	-70.646	61.120	50.934	-72.582	-68.782	-65.826	-61.903	57.317	-64.155	-8191	255	
2777.782	1	1	0	0	0.12082	0.062117	0.0054746	0.17073	0.24089	0.10981	0.015117	0.20921	0.21026	0.26083	0.078473	0.089191	0.13089	0.11057	0.19291	0.12111	-2.2062	-2.9354	-3.1104	-2.6458	-3.025	-2.8521	-2.7292	-3.2083	-2.8354	-2.7271	-3.2083	-2.6937	-3.0646	-2.9375	-2.5583	-3.1542	133.145	162.921	-67.493	-45.579	-86.600	66.103	130.784	-69.594	45.729	239.764	186.026	224.716	213.846	225.245	101.196	235.380	0.0001769	0.00032449	9.3103e-05	612.62	1.8733e-06	3.5344e-06	675.65	217.94	1.4363e-06	4.2562e-06	288.15	95.4	81.546	27.616	2.7648e-06	47.036	0.00016404	8.5554e-05	2.0055e-05	593.91	9.8527e-07	7.9336e-07	651.89	212.6	1.1184e-06	8.9709e-07	280.27	98.325	80.255	27.266	1.1127e-06	46.142	192.786	31.467	4.989	-76.366	59.405	31.460	-76.939	-70.596	31.357	67.914	-72.386	-68.123	-66.124	-62.043	48.501	-63.984	-8191	255	
2777.878	1	1	0	0	0.074229	0.26079	0.062001	0.33396	0.1905	0.22518	0.18617	0.18528	0.17134	0.16886	0.13946	0.17325	0.26593	0.2259	0.20368	0.074253	-2.3167	-2.6917	-3.1396	-2.6417	-2.8854	-2.9729	-2.6167	-3.0354	-2.8979	-2.6813	-3.2188	-2.675	-2.7938	-3.0417	-2.6958	-3.1042	-40.472	139.225	179.240	228.469	137.049	100.160	234.336	185.981	-54.831	6.643	-29.088	15.610	214.448	177.388	236.080	227.909	0.00016111	0.00036943	0.00010982	616.19	2.5743e-06	3.7498e-06	679.69	218.21	2.4225e-06	2.2572e-06	288.42	96.645	81.177	27.49	2.3644e-06	46.343	0.00017371	8.4404e-05	2.1213e-05	595.95	9.46e-07	8.5089e-07	658.33	213.32	1.1569e-06	8.6591e-07	281.45	98.607	79.864	27.18	9.8298e-07	45.694	193.587	5.194	9.104	-76.133	55.064	64.478	-76.940	-70.585	59.149	70.846	-72.398	-68.417	-66.080	-62.033	35.303	-63.946	-8191	255	
2777.974	1	1	0	0	0.092648	0.1798	0.095139	0.11994	0.17767	0.08767	0.067401	0.10185	0.22104	0.10484	0.19573	0.089807	0.073514	0.26643	0.14276	0.098813	-2.4333	-2.6396	-3.1583	-2.9188	-3.0583	-3.0479	-2.7562	-3.0854	-2.9125	-2.5521	-3.2938	-2.675	-2.7646	-3.1437	-2.7042	-3.0729	207.925	163.319	175.704	70.409	81.871	-15.124	215.661	264.623	-64.238	-42.839	115.208	220.859	14.821	98.075	104.731	-83.600	0.00015655	0.00034525	0.00012358	607.13	2.7364e-06	4.2095e-06	663.93	216.63	1.8876e-06	4.3471e-06	283.36	93.873	81.397	27.244	2.6088e-06	45.882	0.00017223	8.6467e-05	2.1814e-05	588.74	1.0939e-06	8.9861e-07	643.56	211.17	1.0284e-06	8.864e-07	276.8	96.547	79.489	27.003	1.0266e-06	45.243	191.576	-4.778	7.009	-76.161	50.709	65.588	-77.049	-70.783	30.883	68.411	-72.071	-68.960	-65.778	-61.673	63.976	-63.881	-8191	255	
2778.095	1	1	0	0	0.15745	0.36323	0.13993	0.17534	0.2529	0.085209	0.10968	0.19827	0.24872	0.16439	0.19149	0.085254	0.25415	0.025119	0.12358	0.068023	-2.4167	-2.8187	-3.1396	-2.7042	-2.9104	-3.0438	-2.7562	-2.9542	-2.9167	-2.5979	-3.0854	-2.8125	-2.8792	-3.2	-2.6583	-2.9729	70.561	-82.748	84.004	160.178	17.512	219.930	189.564	164.428	83.385	91.039	213.439	-62.876	230.858	-57.298	249.693	150.491	0.00014421	0.00041251	0.0001107	610.17	1.7848e-06	2.9425e-06	656.95	214.99	2.2459e-06	3.1556e-06	283.36	95.573	81.726	27.328	2.1992e-06	46.174	0.00017395	8.8372e-05	2.1514e-05	588.87	1.0217e-06	7.6214e-07	642.59	210.75	1.0848e-06	9.207e-07	276.91	97.749	79.9	27.076	1.004e-06	45.52	191.623	10.966	13.309	-76.558	57.820	68.230	-77.118	-70.581	55.800	57.226	-72.347	-69.335	-65.799	-61.547	76.571	-64.028	-8191	255	
2778.191	1	1	0	0	0.24444	0.12404	0.2106	0.2704	0.36617	0.048076	0.1338	0.06198	0.079845	0.15656	0.22121	0.29106	0.10084	0.17498	0.12913	0.076343	-2.5792	-2.7354	-3.0521	-2.8812	-2.9	-3.2396	-2.7979	-2.9667	-3.0083	-2.5875	-3.1271	-2.7229	-2.8187	-3.0625	-2.7625	-2.9979	-30.221	248.346	186.267	212.445	243.534	26.827	192.094	-21.542	156.773	-10.807	-33.622	98.233	75.357	189.140	228.226	175.657	0.00016992	0.00035977	9.198e-05	611.88	2.046e-06	4.489e-06	671.26	216.96	2.2124e-06	2.9052e-06	288.41	94.473	81.373	27.498	2.5181e-06	46.529	0.00016567	7.7062e-05	1.9621e-05	590.99	9.7325e-07	6.9436e-07	647.84	211.63	1.1371e-06	9.0021e-07	279.93	98.197	80.124	27.244	1.1022e-06	45.868	195.590	-9.817	9.210	-76.145	70.147	70.292	-76.895	-70.720	71.489	57.433	-72.523	-68.415	-65.758	-61.622	75.892	-63.911	-8191	255	
#DATA ENDS
