BOXY.EXE: ISS Imagent and Oximeter Data Acquisition Program Version 0.80
Ascii Record File

#ACQ INFORMATION
2  Detector Channels 
16  External MUX Channels 
1  Auxiliary Channels 
5000  Waveform (CCF) Frequency (Hz)
1  Waveforms Skipped 
30  Waveforms Averaged 
1  Cycles Averaged 
16  Acquisitions per Waveform 
10.0806  Updata Rate (Hz) 

#FILE INFORMATION
TRUE -- External MUX Channel results are PARSED.
FALSE -- AC DC and Phase are NOT grouped.
TRUE -- Companion Program Settings File CREATED.
FALSE -- AC data not excluded
FALSE -- DC data not excluded
FALSE -- Phase data not excluded
FALSE -- Auxillary Chn. data not excluded
Tab delimiters

#CALIBRATION STATE
TRUE -- Waveform Calibration Values APPLIED.


#AUX CALIBRATION VALUES
Val Type	aux-1	

Term	1.0000e+00	
Factor	0.0000e+00	


#WF CALIBRATION VALUES
A = Detector Channel
Val Type	A-AC1	A-AC2	A-AC3	A-AC4	A-AC5	A-AC6	A-AC7	A-AC8	A-AC9	A-AC10	A-AC11	A-AC12	A-AC13	A-AC14	A-AC15	A-AC16	A-DC1	A-DC2	A-DC3	A-DC4	A-DC5	A-DC6	A-DC7	A-DC8	A-DC9	A-DC10	A-DC11	A-DC12	A-DC13	A-DC14	A-DC15	A-DC16	A-Ph1	A-Ph2	A-Ph3	A-Ph4	A-Ph5	A-Ph6	A-Ph7	A-Ph8	A-Ph9	A-Ph10	A-Ph11	A-Ph12	A-Ph13	A-Ph14	A-Ph15	A-Ph16	

Term	0.00000e+00	0.00000e+00	0.00000e+00	0.00000e+00	0.00000e+00	0.00000e+00	0.00000e+00	0.00000e+00	0.00000e+00	0.00000e+00	0.00000e+00	0.00000e+00	0.00000e+00	0.00000e+00	0.00000e+00	0.00000e+00	0.00000e+00	0.00000e+00	0.00000e+00	0.00000e+00	0.00000e+00	0.00000e+00	0.00000e+00	0.00000e+00	0.00000e+00	0.00000e+00	0.00000e+00	0.00000e+00	0.00000e+00	0.00000e+00	0.00000e+00	0.00000e+00	0.00000e+00	0.00000e+00	0.00000e+00	0.00000e+00	0.00000e+00	0.00000e+00	0.00000e+00	0.00000e+00	0.00000e+00	0.00000e+00	0.00000e+00	0.00000e+00	0.00000e+00	0.00000e+00	0.00000e+00	0.00000e+00	
Factor	1.00000e+00	1.00000e+00	1.00000e+00	1.00000e+00	1.00000e+00	1.00000e+00	1.00000e+00	1.00000e+00	1.00000e+00	1.00000e+00	1.00000e+00	1.00000e+00	1.00000e+00	1.00000e+00	1.00000e+00	1.00000e+00	1.00000e+00	1.00000e+00	1.00000e+00	1.00000e+00	1.00000e+00	1.00000e+00	1.00000e+00	1.00000e+00	1.00000e+00	1.00000e+00	1.00000e+00	1.00000e+00	1.00000e+00	1.00000e+00	1.00000e+00	1.00000e+00	X	X	X	X	X	X	X	X	X	X	X	X	X	X	X	X	

B = Detector Channel
Val Type	B-AC1	B-AC2	B-AC3	B-AC4	B-AC5	B-AC6	B-AC7	B-AC8	B-AC9	B-AC10	B-AC11	B-AC12	B-AC13	B-AC14	B-AC15	B-AC16	B-DC1	B-DC2	B-DC3	B-DC4	B-DC5	B-DC6	B-DC7	B-DC8	B-DC9	B-DC10	B-DC11	B-DC12	B-DC13	B-DC14	B-DC15	B-DC16	B-Ph1	B-Ph2	B-Ph3	B-Ph4	B-Ph5	B-Ph6	B-Ph7	B-Ph8	B-Ph9	B-Ph10	B-Ph11	B-Ph12	B-Ph13	B-Ph14	B-Ph15	B-Ph16	

Term	0.00000e+00	0.00000e+00	0.00000e+00	0.00000e+00	0.00000e+00	0.00000e+00	0.00000e+00	0.00000e+00	0.00000e+00	0.00000e+00	0.00000e+00	0.00000e+00	0.00000e+00	0.00000e+00	0.00000e+00	0.00000e+00	0.00000e+00	0.00000e+00	0.00000e+00	0.00000e+00	0.00000e+00	0.00000e+00	0.00000e+00	0.00000e+00	0.00000e+00	0.00000e+00	0.00000e+00	0.00000e+00	0.00000e+00	0.00000e+00	0.00000e+00	0.00000e+00	-1.23800e+02	-1.29605e+02	-1.18317e+02	-1.81384e+02	-6.66720e+01	-6.49322e+01	-1.54429e+02	-1.62015e+02	-6.47790e+01	-5.86214e+01	-1.69550e+02	-1.78216e+02	-1.82278e+02	-1.75921e+02	-6.55031e+01	-1.48295e+02	
Factor	1.82523e-05	2.02462e-04	5.46020e-05	1.59639e-01	1.48313e-06	2.22676e-06	1.61345e-01	6.10527e-02	1.51134e-06	2.21112e-06	9.03854e-02	2.02187e-01	4.85540e-02	9.32913e-03	1.59883e-06	1.33881e-02	1.11608e-05	1.90474e-05	5.34503e-06	8.05254e-02	1.92326e-07	2.14060e-07	7.69818e-02	3.09569e-02	1.94649e-07	2.13805e-07	4.45233e-02	1.01031e-01	2.48173e-02	4.77762e-03	2.01464e-07	6.64615e-03	X	X	X	X	X	X	X	X	X	X	X	X	X	X	X	X	



#DISTANCE SETTINGS
A = Detector Channel
A-1	A-2	A-3	A-4	A-5	A-6	A-7	A-8	A-9	A-10	A-11	A-12	A-13	A-14	A-15	A-16	

2.5000e+00	3.0000e+00	2.5000e+00	3.0000e+00	2.0000e+00	3.0000e+00	1.5000e+00	3.0000e+00	3.0000e+00	3.0000e+00	3.0000e+00	3.0000e+00	3.0000e+00	3.0000e+00	1.5000e+00	3.0000e+00	

B = Detector Channel
B-1	B-2	B-3	B-4	B-5	B-6	B-7	B-8	B-9	B-10	B-11	B-12	B-13	B-14	B-15	B-16	

1.0000e+01	1.0000e+01	1.0000e+01	1.4400e+00	1.0000e+01	1.0000e+01	1.5100e+00	1.9400e+00	1.0000e+01	1.0000e+01	1.9900e+00	2.4900e+00	2.4100e+00	2.9000e+00	1.0000e+01	2.9800e+00	




#DATA BEGINS
time	group	step	mark	flag	A-AC1	A-AC2	A-AC3	A-AC4	A-AC5	A-AC6	A-AC7	A-AC8	A-AC9	A-AC10	A-AC11	A-AC12	A-AC13	A-AC14	A-AC15	A-AC16	A-DC1	A-DC2	A-DC3	A-DC4	A-DC5	A-DC6	A-DC7	A-DC8	A-DC9	A-DC10	A-DC11	A-DC12	A-DC13	A-DC14	A-DC15	A-DC16	A-Ph1	A-Ph2	A-Ph3	A-Ph4	A-Ph5	A-Ph6	A-Ph7	A-Ph8	A-Ph9	A-Ph10	A-Ph11	A-Ph12	A-Ph13	A-Ph14	A-Ph15	A-Ph16	B-AC1	B-AC2	B-AC3	B-AC4	B-AC5	B-AC6	B-AC7	B-AC8	B-AC9	B-AC10	B-AC11	B-AC12	B-AC13	B-AC14	B-AC15	B-AC16	B-DC1	B-DC2	B-DC3	B-DC4	B-DC5	B-DC6	B-DC7	B-DC8	B-DC9	B-DC10	B-DC11	B-DC12	B-DC13	B-DC14	B-DC15	B-DC16	B-Ph1	B-Ph2	B-Ph3	B-Ph4	B-Ph5	B-Ph6	B-Ph7	B-Ph8	B-Ph9	B-Ph10	B-Ph11	B-Ph12	B-Ph13	B-Ph14	B-Ph15	B-Ph16	aux-1	digaux	

2629.809	1	1	0	256	0.23714	0.10405	0.13068	0.14852	0.21641	0.067395	0.11012	0.077656	0.082389	0.13924	0.12622	0.21302	0.29967	0.19622	0.20115	0.296	-2.7646	-2.9708	-2.9646	-3.3604	-2.7458	-3.3646	-3.2875	-3.1562	-3.2854	-3.0396	-2.9896	-3.3417	-2.8104	-3.1729	-3.3125	-3.1	88.891	32.130	-58.918	124.281	231.330	269.363	-63.813	263.514	221.881	193.186	246.749	143.651	267.953	259.984	-78.691	244.476	0.0002608	0.0008211	0.00013793	1015.9	7.0316e-06	5.9961e-06	994.88	393.24	1.9971e-06	6.7984e-06	472.78	162.74	143.43	61.958	9.0493e-07	94.577	0.00048452	0.00047495	0.00012777	918.29	5.0922e-06	5.2173e-06	906.88	358.27	4.8468e-06	5.3175e-06	433.14	157.67	131.3	57.388	5.3153e-06	87.137	186.890	7.717	35.962	-67.512	83.047	61.819	-68.708	-62.706	62.698	83.961	-64.669	-60.845	-58.207	-54.728	46.174	-57.080	-8191	255	
2629.905	1	1	0	0	0.052426	0.11245	0.14691	0.23222	0.18369	0.18221	0.087177	0.1323	0.11194	0.24216	0.30084	0.054773	0.22032	0.13971	0.0833	0.28435	-2.8146	-2.9708	-3.0083	-3.5104	-2.8187	-3.2083	-3.2208	-2.8187	-3.3021	-3.3917	-3.2771	-3.55	-3.0208	-3.2521	-3.3792	-3.1083	205.877	72.793	142.737	232.479	122.188	215.934	229.400	-41.990	229.474	-23.409	245.930	116.774	223.084	-35.615	204.555	-50.406	0.0002627	0.00058755	0.00013749	1014.7	5.6402e-06	7.5294e-06	1007.2	394.12	4.267e-06	7.0251e-06	479.77	163.45	142.77	62.199	3.9505e-06	94.892	0.00050119	0.00047055	0.00012444	919.53	4.9748e-06	5.092e-06	916.54	359.59	5.3958e-06	5.0369e-06	437.84	158.29	131.59	57.527	5.2028e-06	87.56	192.023	-12.420	15.180	-67.862	76.673	57.095	-68.793	-63.032	55.573	74.613	-64.991	-61.173	-58.487	-54.710	60.984	-57.151	-8191	255	
2629.976	1	1	0	0	0.13621	0.20978	0.057611	0.1163	0.37962	0.27345	0.28371	0.21793	0.20502	0.32884	0.05433	0.028562	0.10817	0.10551	0.16119	0.32997	-2.775	-2.9437	-2.8	-3.3729	-2.8125	-3.1604	-3.4021	-2.9375	-3.2125	-3.1562	-3.0354	-3.2854	-3.1208	-3.1937	-3.2458	-3.1063	161.731	13.268	-28.483	178.772	86.278	-23.249	188.170	219.373	40.585	-57.306	-43.158	211.341	236.795	92.223	196.172	235.365	0.00026994	0.00070017	0.0002022	1017.5	4.0721e-06	7.3754e-06	1022.6	395.83	2.275e-06	6.1642e-06	481.38	160.36	142.75	62.05	3.341e-06	94.75	0.00049487	0.00044226	0.00013031	924.07	5.0209e-06	4.9073e-06	929.8	361.21	5.0357e-06	4.8529e-06	439.92	156.94	131.56	57.554	5.0504e-06	87.682	189.129	5.850	26.020	-67.764	66.838	52.823	-68.935	-62.793	23.106	80.323	-64.873	-61.109	-58.291	-54.723	59.054	-57.297	-8191	255	
2630.097	1	1	0	0	0.18296	0.19805	0.18231	0.063705	0.14906	0.22407	0.11499	0.094661	0.34901	0.14314	0.35712	0.090649	0.33136	0.18067	0.053686	0.065924	-3.0208	-3.1396	-2.9437	-3.3812	-3.1271	-2.9021	-3.35	-3.0604	-3.3312	-3.2896	-2.9896	-3.1729	-3.0812	-3.0792	-3.3625	-3.0563	275.629	-64.281	30.672	26.545	-76.401	133.945	-48.091	-41.042	12.382	230.987	-80.675	-39.829	25.982	270.629	-21.537	112.023	0.00025135	0.0006558	0.0002015	1024.8	3.2433e-06	7.6979e-06	1011.2	393.64	3.5763e-06	4.9967e-06	475.09	163.78	143.48	62.062	5.4516e-06	94.666	0.00049956	0.00044305	0.00013199	928.39	4.9468e-06	4.8632e-06	919.59	360.54	5.1695e-06	4.9772e-06	434.15	157.49	131.18	57.565	5.424e-06	87.276	184.775	-24.297	11.206	-67.556	91.753	60.716	-68.982	-63.120	64.976	83.044	-64.729	-61.269	-58.836	-54.678	56.280	-57.254	-8191	255	
2630.193	1	1	0	0	0.22396	0.054482	0.15571	0.24324	0.12003	0.057604	0.24018	0.16036	0.042888	0.13513	0.10436	0.10614	0.24436	0.44647	0.050913	0.30109	-2.775	-3.2333	-2.6667	-3.4062	-3.2708	-2.9562	-3.5042	-3.0646	-3.2313	-3.2333	-2.9521	-3.4125	-3.1813	-2.9396	-3.3271	-3.1479	30.890	-70.045	73.608	150.987	42.164	40.329	206.038	1.054	168.185	-53.351	196.493	221.698	161.272	252.620	165.991	230.119	0.00026872	0.00086674	0.00018057	997.84	3.7528e-06	7.2919e-06	969.64	388.08	3.0393e-06	5.2191e-06	467.31	161.39	141.34	61.936	5.3351e-06	94.025	0.00049308	0.00049495	0.00013573	906.81	4.813e-06	5.1633e-06	887.75	354.91	5.1691e-06	4.9941e-06	427.5	156.16	130.46	57.487	5.2133e-06	86.972	183.235	23.274	7.389	-67.451	70.958	52.580	-68.874	-63.114	40.067	99.642	-64.590	-61.486	-58.391	-54.717	54.177	-57.251	-8191	255	
2630.288	1	1	0	0	0.091809	0.11529	0.15441	0.21876	0.046743	0.070379	0.21879	0.24524	0.17384	0.10548	0.12485	0.27916	0.04907	0.058796	0.13272	0.10023	-2.6479	-3.1813	-2.6771	-3.2958	-3.0292	-2.7792	-3.5333	-3.0729	-3.175	-3.4542	-3.0062	-3.1875	-3.175	-2.9458	-3.3021	-3.1292	17.778	266.079	-47.571	-44.284	130.112	264.574	234.444	275.292	125.536	220.385	-46.364	171.802	112.124	-1.157	69.330	138.817	0.00024574	0.00046328	0.00017369	992.62	3.1021e-06	7.2655e-06	976.96	388.23	5.0798e-06	4.4034e-06	471.69	163.33	142.5	61.94	3.5972e-06	94.445	0.00050017	0.00048071	0.00012896	902.9	5.0393e-06	5.4973e-06	889.08	355.52	5.1257e-06	4.9514e-06	429.84	156.49	131.12	57.491	5.1113e-06	87.176	189.020	17.731	-16.773	-67.399	61.641	57.460	-68.688	-62.963	47.819	61.957	-64.720	-61.066	-58.707	-54.741	112.162	-57.035	-8191	255	
2630.385	1	1	0	0	0.13242	0.048076	0.26923	0.13427	0.25027	0.14373	0.30138	0.40802	0.19533	0.067505	0.18981	0.14483	0.11392	0.15288	0.096933	0.27873	-2.4792	-3.2104	-2.825	-3.3229	-3.0979	-2.725	-3.3917	-3.0271	-2.8646	-3.3875	-2.95	-3.1146	-3.3104	-3.0062	-3.2042	-3.2062	-38.383	38.532	275.015	206.605	124.707	-14.922	242.186	212.111	-56.322	233.616	195.132	-78.082	257.493	-68.778	187.491	227.269	0.00027977	0.00084156	0.00017238	1003	3.6728e-06	4.9064e-06	989.96	392.2	3.2827e-06	4.9047e-06	474.52	163.29	143.79	62.605	2.6771e-06	95.027	0.00050784	0.0004665	0.00013502	908.25	5.1231e-06	5.3725e-06	898.34	358.08	5.3678e-06	4.8903e-06	433.33	156.89	131.96	58.024	5.4911e-06	87.838	187.755	17.244	19.128	-67.256	60.737	59.077	-68.906	-62.965	61.764	51.450	-64.747	-61.535	-58.495	-54.494	81.000	-57.294	-8191	255	
2630.504	1	1	0	0	0.14214	0.022595	0.0611	0.28141	0.1169	0.067613	0.22255	0.24146	0.43591	0.24722	0.23164	0.12166	0.19859	0.24854	0.094257	0.14861	-2.3521	-3.2104	-2.9083	-3.2354	-3.1792	-2.8875	-3.2521	-3.1729	-2.8854	-3.5438	-3.125	-3.1875	-3.2042	-2.8146	-3.1646	-3.3292	196.957	256.680	187.756	117.399	39.071	231.932	150.263	269.559	261.723	80.938	194.124	244.651	219.002	200.983	199.556	257.369	0.00026899	0.00060576	0.00020741	999.85	5.6355e-06	5.4455e-06	995.56	393.69	3.8386e-06	5.2846e-06	471.57	163.4	143.56	63.226	4.3443e-06	94.7	0.00048908	0.00046384	0.00013255	910.67	4.9131e-06	5.3163e-06	905.45	359.77	5.3119e-06	5.0596e-06	432.56	157.91	132.21	58.185	5.408e-06	87.776	179.608	12.229	35.110	-67.396	58.753	71.620	-68.460	-62.950	84.898	45.619	-64.809	-61.215	-58.459	-54.814	70.265	-57.244	-8191	255	
2630.600	1	1	0	0	0.21054	0.22611	0.20506	0.26185	0.093785	0.15201	0.19189	0.26758	0.045951	0.12666	0.207	0.18613	0.31515	0.10631	0.077177	0.23586	-2.3521	-3.3417	-2.7625	-3.2104	-3.3375	-2.9208	-3.3083	-3.2542	-2.7812	-3.4167	-3.2188	-2.9708	-3.4229	-3.1688	-3.1146	-3.3521	125.013	-75.247	269.198	268.847	216.753	198.093	209.369	270.758	270.004	-67.105	195.080	-56.943	-79.083	252.224	64.324	255.281	0.00026544	0.00060368	0.00019191	997.39	4.7833e-06	4.1997e-06	967.64	388.47	3.0812e-06	5.1996e-06	468.92	162.67	142.42	62.572	3.6416e-06	95.125	0.0005121	0.00046805	0.00013033	901.78	4.9873e-06	5.3421e-06	883.4	355.27	5.245e-06	5.2195e-06	427.84	156.14	131.2	57.803	5.1474e-06	87.415	188.039	-8.762	3.942	-67.596	86.675	91.892	-68.786	-63.103	45.289	100.875	-65.157	-60.820	-58.480	-54.554	79.553	-57.318	-8191	255	
2630.672	1	1	0	0	0.0092051	0.074624	0.068027	0.35002	0.0867	0.17625	0.14792	0.30812	0.17034	0.11174	0.16975	0.18801	0.20636	0.061534	0.14258	0.098984	-2.6354	-3.2562	-2.8854	-3.0438	-3.3	-3.0458	-3.2604	-3.2083	-2.8792	-3.2667	-3.1083	-2.9375	-3.4896	-3.1458	-3.2292	-3.3271	269.542	13.800	146.254	263.362	147.355	143.049	237.591	203.010	120.534	-55.897	202.426	-52.394	246.659	107.199	107.267	155.847	0.00028503	0.00061938	0.00019601	990.6	4.6234e-06	7.3917e-06	972.19	388.73	2.8518e-06	8.3562e-06	471.79	164.97	143.55	62.47	4.7544e-06	95.609	0.00049166	0.0004542	0.00013302	900.65	4.9772e-06	5.2681e-06	883.93	355.52	5.2912e-06	5.0529e-06	428.9	157.56	131.68	58.06	5.2926e-06	87.862	185.987	23.932	13.367	-67.416	50.757	53.849	-68.756	-63.155	60.383	90.987	-65.027	-60.546	-58.315	-54.678	70.291	-57.183	-8191	255	
2630.793	1	1	0	0	0.051504	0.074948	0.036799	0.19556	0.083028	0.28593	0.081388	0.22186	0.26743	0.23279	0.05095	0.16589	0.061638	0.52841	0.092889	0.25686	-2.5438	-3.275	-3.0312	-3.0896	-3.3063	-2.9688	-3.1896	-3.3729	-2.8187	-3.3063	-3.2104	-2.8	-3.2438	-2.8854	-3.0896	-3.5583	175.136	88.236	130.381	171.985	8.555	37.779	20.949	186.686	19.361	-27.526	154.860	-36.434	204.552	-68.788	162.075	149.114	0.00027282	0.0007981	0.00015792	994.07	5.2579e-06	5.6575e-06	975.92	387.73	3.9803e-06	7.5439e-06	473.55	163.43	143.92	62.923	3.8715e-06	95.718	0.00050926	0.00043809	0.00012757	902.82	4.8414e-06	5.0549e-06	890.88	356.19	5.2681e-06	4.9523e-06	431.65	157.45	131.73	58.215	5.3195e-06	88.346	188.932	-14.334	0.357	-67.637	66.744	51.753	-68.929	-63.137	74.988	55.702	-64.754	-60.872	-58.487	-54.536	79.196	-56.877	-8191	255	
2630.889	1	1	0	0	0.21072	0.25835	0.16411	0.18383	0.23654	0.095724	0.057652	0.3459	0.17734	0.13049	0.17418	0.26724	0.20502	0.12852	0.039979	0.14668	-2.3042	-3.3104	-3.0646	-2.9646	-3.1917	-2.9854	-3.0187	-3.4625	-2.8396	-3.0583	-3.4167	-2.8021	-3.2979	-3.1729	-2.8604	-3.4958	218.820	126.901	-22.778	234.171	150.261	218.342	273.268	213.527	239.532	101.383	-44.260	183.320	251.028	-42.512	10.624	137.695	0.00025336	0.00082387	0.00011632	996.7	4.6037e-06	5.9665e-06	989.5	390.87	1.6702e-06	2.7072e-06	476.99	164.63	143.92	62.994	4.1435e-06	95.567	0.00049859	0.00046134	0.00012649	906.43	4.9792e-06	5.2587e-06	902.9	357.65	5.131e-06	5.2636e-06	434.87	158.24	132.09	58.137	5.3908e-06	88.164	191.780	29.459	14.816	-67.452	48.345	65.689	-68.577	-63.032	89.066	100.877	-64.782	-60.740	-58.529	-54.771	34.427	-57.062	-8191	255	
2630.985	1	1	0	0	0.22934	0.19049	0.052492	0.21546	0.11439	0.29162	0.15302	0.16865	0.096925	0.15003	0.25371	0.050192	0.18232	0.12855	0.082661	0.279	-2.6688	-3.1604	-3.0521	-2.9313	-3.2833	-3.0333	-3.0896	-3.2896	-2.7771	-3.1667	-3.4521	-2.9521	-3.3375	-3.1229	-2.8375	-3.3104	-21.543	144.086	-73.872	244.285	110.373	-19.048	272.305	217.395	44.451	190.740	260.019	61.006	103.226	-30.947	85.948	212.775	0.00027629	0.00062996	0.00018475	989.71	5.0374e-06	6.749e-06	962.26	387.43	3.4187e-06	7.3787e-06	465.26	161.3	142.57	62.632	4.2478e-06	94.372	0.00050461	0.00044305	0.00013392	898.28	4.861e-06	4.8275e-06	878.94	354.29	5.219e-06	5.0676e-06	424.83	156.01	130.8	57.937	5.2053e-06	87.445	183.811	-9.375	44.426	-67.219	57.561	56.342	-68.860	-62.920	32.100	80.622	-64.538	-61.231	-58.458	-54.729	119.465	-57.283	-8191	255	
2631.081	1	1	0	0	0.13063	0.027772	0.11557	0.06281	0.036488	0.19874	0.22361	0.14416	0.3437	0.28194	0.1917	0.21871	0.2794	0.26665	0.035337	0.36725	-2.4792	-3.0521	-3.2458	-2.9104	-3.3063	-3.1333	-2.9708	-3.5521	-2.9167	-3.1479	-3.2167	-2.8271	-3.2771	-3.15	-2.9333	-3.5458	140.245	39.775	231.538	-47.904	-14.935	-30.372	170.010	267.104	63.771	-22.709	244.637	74.887	278.363	202.820	-36.316	241.154	0.00026221	0.00075852	0.00016197	982.23	2.5206e-06	4.3932e-06	953.07	383.69	1.6768e-06	9.6307e-06	464.59	159.59	143.82	62.611	3.3446e-06	95.102	0.00049549	0.00043928	0.00013175	888.88	4.9768e-06	4.8217e-06	869.65	351.98	5.3058e-06	4.897e-06	423.03	154.78	130.84	57.944	5.2792e-06	87.655	181.590	26.200	16.298	-67.361	71.589	75.104	-68.892	-62.742	80.512	62.234	-65.094	-60.781	-58.613	-54.643	60.924	-57.192	-8191	255	
2631.200	1	1	0	0	0.16656	0.28216	0.054111	0.016806	0.097694	0.17214	0.24229	0.21727	0.16573	0.099209	0.13276	0.12322	0.3319	0.32788	0.13764	0.32705	-2.5229	-3.0396	-3.4188	-3.0354	-3.2625	-3.2583	-3.0187	-3.4313	-3.025	-2.9271	-3.2958	-3.0187	-3.2292	-3.2167	-3	-3.3354	270.551	233.028	116.464	219.064	-32.816	145.925	234.367	260.572	269.685	205.216	-69.681	190.990	185.760	257.828	133.027	249.288	0.00025635	0.00080015	0.00017688	979.59	3.928e-06	6.0177e-06	962.75	385.17	1.789e-06	8.4936e-06	465.58	160.11	142.93	62.611	7.4329e-06	95.715	0.00049435	0.00045237	0.00012654	888.55	4.708e-06	4.9047e-06	876.95	352.79	5.0519e-06	4.9264e-06	425.57	155.91	131.2	58.086	5.5642e-06	88.253	181.525	5.595	17.767	-67.591	79.173	71.981	-68.752	-63.010	89.030	69.006	-64.890	-60.917	-58.178	-54.435	46.656	-57.356	-8191	255	
2631.274	1	1	0	0	0.24521	0.307	0.12184	0.32465	0.072408	0.12889	0.23629	0.15051	0.20912	0.10575	0.12863	0.16158	0.18154	0.10658	0.14671	0.20932	-2.6646	-2.9083	-3.3167	-3.0417	-3.0625	-2.9792	-2.9333	-3.4208	-2.9958	-2.8729	-3.3438	-2.9458	-3.0979	-3.3396	-2.8396	-3.5563	58.442	163.806	174.812	237.562	51.431	49.179	-28.189	253.887	162.230	267.838	233.855	-44.564	-64.302	226.983	179.027	217.653	0.00027711	0.00065608	0.00017391	979.03	3.8563e-06	7.4672e-06	970.64	386.58	2.93e-06	9.764e-06	474.87	162.68	143.73	63.057	9.2707e-07	96.073	0.00050245	0.00047761	0.00012751	892.22	4.746e-06	5.2712e-06	886.45	354.7	5.0536e-06	5.0151e-06	431.63	157.72	132.03	58.409	5.2347e-06	88.894	189.251	19.920	19.207	-67.264	85.265	78.604	-68.744	-63.005	42.815	69.080	-64.926	-60.805	-58.275	-54.593	80.528	-57.252	-8191	255	
2631.368	1	1	0	0	0.078754	0.16349	0.19641	0.15645	0.11225	0.13118	0.32245	0.41492	0.17229	0.22893	0.13118	0.14611	0.13301	0.027483	0.36813	0.21295	-2.7854	-2.7292	-3.2958	-3.1396	-3.0958	-3.3417	-2.9479	-3.5021	-3.05	-3.0125	-3.5625	-2.9792	-3.0833	-3.3333	-2.6854	-3.4062	145.876	264.422	163.276	160.837	258.981	41.818	188.555	181.804	105.737	-8.030	257.464	68.678	32.726	224.112	107.906	174.356	0.00029162	0.00077966	0.00012814	988.31	3.1089e-06	7.4058e-06	961.58	386.23	3.6205e-06	7.5797e-06	465.25	163.4	143.43	62.566	4.7595e-06	94.946	0.00049273	0.000474	0.00012739	896.28	5.1471e-06	5.083e-06	877.76	353.53	5.2158e-06	5.2293e-06	424.68	157.1	131.14	58.111	5.3594e-06	87.898	190.451	-4.183	26.460	-67.620	69.614	61.369	-68.733	-62.899	53.093	75.666	-64.823	-60.858	-58.456	-54.826	68.398	-57.401	-8191	255	
2631.466	1	1	0	0	0.13552	0.21427	0.12516	0.14941	0.13744	0.058849	0.15682	0.19161	0.095459	0.15338	0.015533	0.12535	0.35825	0.27413	0.1734	0.128	-2.725	-2.6875	-3.1063	-3.1854	-2.9667	-3.3312	-3.0563	-3.2438	-3.2604	-2.9479	-3.3521	-3.0125	-2.8792	-3.45	-2.9437	-3.2438	106.050	36.299	53.247	225.042	-20.272	73.228	16.137	162.810	189.652	40.396	177.872	-66.726	-61.804	-77.211	-10.222	182.832	0.00027373	0.00081632	0.00020948	977.63	5.9019e-06	7.8222e-06	945.41	382.82	4.3981e-06	5.5502e-06	462.37	161.22	143.1	62.796	3.9697e-06	95.165	0.00050268	0.00047257	0.00012838	885.32	4.9917e-06	5.0906e-06	863.27	350.86	5.0702e-06	5.2137e-06	422.36	155.62	131.18	58.084	5.1705e-06	87.723	184.299	-11.284	13.242	-67.667	69.682	72.283	-68.821	-62.961	42.348	80.031	-64.657	-60.716	-58.521	-54.709	68.950	-57.093	-8191	255	
2631.585	1	1	0	0	0.053918	0.22114	0.060462	0.23907	0.24588	0.045468	0.2319	0.11245	0.16804	0.15069	0.18215	0.18037	0.20142	0.18332	0.19643	0.11509	-2.8292	-2.8875	-3.1958	-3.1688	-2.9583	-3.3	-3.0292	-3.1625	-3.2833	-2.875	-3.3396	-3.0104	-3.0354	-3.3271	-2.8563	-3.3312	-72.382	158.287	243.151	157.425	1.152	-47.774	218.696	-39.336	148.683	6.176	-18.452	262.262	144.378	253.510	68.352	230.479	0.00028337	0.00083726	0.00015477	972.7	6.6477e-06	7.7437e-06	954.07	384.28	4.3129e-06	7.6539e-06	463.44	159.73	143.72	62.87	3.0189e-06	95.827	0.00049084	0.00048825	0.00012297	882.95	4.96e-06	4.9328e-06	870.35	351.43	5.0925e-06	5.0347e-06	424.31	155.82	131.63	58.166	5.1012e-06	88.421	189.172	9.854	3.909	-67.199	45.233	61.436	-69.050	-62.631	61.281	68.507	-65.039	-60.986	-58.552	-54.633	72.654	-57.194	-8191	255	
2631.681	1	1	0	0	0.096122	0.073175	0.077547	0.068345	0.073117	0.1436	0.24766	0.17922	0.11625	0.37762	0.10046	0.17971	0.070485	0.27842	0.14916	0.30962	-2.8771	-2.8708	-3.3312	-3.3375	-2.9396	-3.5417	-3.0604	-3.025	-3.2917	-2.9938	-3.3625	-3.0333	-2.9188	-3.3896	-3.0583	-3.1792	51.175	94.371	60.169	260.582	64.676	19.074	144.733	177.062	-3.055	-76.779	261.889	-21.494	255.180	263.244	-27.689	210.633	0.00031491	0.00090857	0.00021083	982.04	2.9714e-06	9.5477e-06	969.1	387.2	3.7752e-06	7.4675e-06	466.76	161.05	144.08	63.015	7.1354e-08	96.351	0.00049561	0.00049293	0.00012689	890.33	5.1042e-06	4.8556e-06	885.75	353.48	4.983e-06	5.1242e-06	426.85	156.23	131.73	58.471	5.1109e-06	88.978	183.630	12.215	23.517	-67.357	56.505	65.590	-69.003	-62.796	38.718	63.848	-64.652	-61.204	-58.171	-54.709	-9.988	-56.944	-8191	255	
2631.777	1	1	0	0	0.063412	0.2688	0.13785	0.12459	0.16997	0.039889	0.081845	0.41001	0.26638	0.048168	0.29056	0.22301	0.042472	0.21767	0.22669	0.20338	-2.8833	-2.7458	-3.0917	-3.4042	-2.8	-3.3	-3.3042	-3.1188	-3.3875	-2.6792	-3.3333	-3.15	-2.6833	-3.3021	-3.2021	-3	161.676	253.472	242.393	170.304	10.975	252.061	165.243	248.456	139.626	112.919	197.116	165.497	0.831	-17.981	153.188	193.946	0.00026406	0.00064013	0.00013299	991.23	6.6827e-06	6.9163e-06	979.3	387.48	3.6535e-06	4.61e-06	469.39	162.47	142.61	62.987	3.6622e-06	95.728	0.00049059	0.00046769	0.00012514	897.55	5.065e-06	4.9207e-06	892.1	354.38	5.0532e-06	5.2124e-06	427.61	156.76	131.14	58.362	5.1117e-06	88.318	192.019	32.696	7.109	-67.483	97.687	89.243	-68.895	-62.722	58.880	52.131	-64.603	-60.149	-58.190	-54.733	61.235	-56.918	-8191	255	
2631.898	1	1	0	0	0.14276	0.14234	0.16931	0.34482	0.20701	0.064309	0.17248	0.25096	0.19579	0.14852	0.28294	0.12951	0.14632	0.10895	0.014498	0.28046	-3.0187	-2.9479	-3.2042	-3.4833	-2.8708	-3.175	-3.1542	-3.05	-3.4042	-2.9417	-3.0292	-3.3208	-2.8438	-3.3937	-3.2604	-2.9688	47.315	111.128	92.662	242.218	99.910	79.996	143.397	-56.940	166.031	78.042	-14.152	-27.340	60.421	251.828	-19.751	200.372	0.00026112	0.00058269	0.00015161	975.45	3.8669e-06	9.2892e-06	949.48	383.21	5.1514e-06	6.9536e-06	463.04	160.61	141.53	62.944	4.572e-06	95.42	0.00048926	0.00045781	0.00012561	884.93	4.8426e-06	5.199e-06	866.24	350.85	5.1971e-06	5.0315e-06	421.91	154.84	130.92	58.138	5.3442e-06	87.922	186.151	23.052	-12.395	-67.475	81.144	58.174	-68.916	-63.078	17.568	73.477	-64.678	-60.908	-58.409	-54.592	73.823	-57.151	-8191	255	
2631.969	1	1	0	0	0.162	0.20682	0.10044	0.10691	0.23863	0.1595	0.21379	0.33937	0.24267	0.19817	0.18742	0.10025	0.1611	0.2834	0.19006	0.20066	-2.8729	-3.1375	-2.9688	-3.3521	-2.9062	-3.2458	-3.3063	-2.9417	-3.2333	-2.9667	-3.175	-3.3979	-2.9979	-3.25	-3.2875	-2.925	-29.733	142.905	164.876	-61.640	207.405	278.527	205.626	226.741	29.215	56.284	-29.543	-56.446	164.280	149.291	-47.970	196.882	0.00027755	0.00050587	0.00021297	967.6	4.1227e-06	8.648e-06	952.23	382.54	5.2006e-06	3.26e-06	461.57	160.37	142.81	63.013	3.5325e-06	95.021	0.00048977	0.000464	0.00013516	879.74	5.0181e-06	5.0839e-06	869.67	349.66	5.1667e-06	4.893e-06	422.86	156.11	131.01	58.275	5.2876e-06	87.985	183.527	17.476	22.888	-67.654	70.022	59.384	-68.839	-63.000	59.722	88.610	-64.314	-60.997	-58.615	-54.631	47.579	-57.123	-8191	255	
2632.065	1	1	0	0	0.30906	0.15191	0.34849	0.16906	0.048526	0.14204	0.10704	0.029976	0.17844	0.061643	0.22822	0.27366	0.24775	0.22413	0.10904	0.20588	-2.9938	-2.9146	-2.9062	-3.4479	-2.8708	-3.1917	-3.2958	-2.9229	-3.3458	-3.2562	-3.1125	-3.3812	-3.1021	-3.0271	-3.1396	-3.0646	213.036	210.380	9.335	242.817	131.254	78.887	279.248	-38.575	78.609	-38.030	45.107	-40.890	222.454	-77.821	260.645	244.251	0.0002787	0.0007712	0.00021841	973.76	2.7378e-06	6.8778e-06	956.98	383.96	4.4599e-06	5.8959e-06	466.17	163.03	142.96	63.179	4.25e-06	95.661	0.0004938	0.00045912	0.00012671	882.65	4.8538e-06	5.0549e-06	872.88	351.39	4.9352e-06	4.9091e-06	424.57	156.77	130.95	58.312	5.084e-06	88.307	188.055	-1.171	33.352	-67.555	72.812	100.351	-68.812	-62.701	66.380	61.106	-64.655	-61.248	-58.439	-54.502	59.046	-57.116	-8191	255	
2632.186	1	1	0	0	0.13049	0.086415	0.25512	0.20783	0.1338	0.12601	0.19001	0.35655	0.22372	0.25293	0.35942	0.20377	0.1247	0.16298	0.061493	0.12333	-2.8333	-3.1917	-2.9729	-3.3979	-3.0896	-3.2542	-3.3271	-2.9188	-3.3167	-3.0896	-2.9479	-3.3021	-2.9104	-3.0312	-3.1688	-3.3	237.015	-58.052	200.054	66.851	161.584	169.717	255.116	-26.537	50.371	44.226	191.205	146.175	-29.723	-52.590	-6.704	198.997	0.00026587	0.00046199	0.00019868	973.31	5.6372e-06	8.4488e-06	963.39	382.92	4.8976e-06	3.4137e-06	468.8	161.51	142.78	62.917	2.7234e-06	95.55	0.00049001	0.00045142	0.00013302	885.71	4.9087e-06	5.1825e-06	880.42	351.46	5.1448e-06	5.0565e-06	425.83	156.06	131.13	58.272	5.2431e-06	88.171	183.625	-25.750	-5.363	-67.268	72.183	73.365	-68.722	-62.922	41.024	94.797	-64.567	-61.170	-58.401	-54.401	90.873	-57.279	-8191	255	
2632.281	1	1	0	0	0.031494	0.16677	0.14641	0.12515	0.20311	0.13533	0.32022	0.061628	0.15808	0.18604	0.056031	0.09737	0.14874	0.2776	0.13486	0.12514	-2.7583	-3.25	-2.8771	-3.475	-3.125	-3.0396	-3.5167	-3.0875	-3.1354	-3.3521	-3.0979	-3.2812	-3.1396	-3	-3.3833	-2.9958	40.338	214.655	145.748	190.873	172.338	79.943	217.148	176.242	-21.787	277.588	-14.007	194.974	-29.271	-62.486	200.157	216.633	0.00028566	0.00070185	0.00022811	966.52	3.3305e-06	6.5172e-06	942.03	379.69	3.2336e-06	7.0002e-06	454.03	157.09	140.9	62.897	1.4362e-06	94.422	0.00048429	0.00046575	0.00013207	875.69	5.0221e-06	5.1071e-06	856.81	346.43	5.129e-06	5.0556e-06	415.46	153.48	129.38	57.914	5.0975e-06	87.199	187.670	1.884	12.331	-67.501	47.015	80.095	-68.842	-62.856	95.694	57.790	-64.672	-61.110	-58.192	-54.424	26.283	-57.166	-8191	255	
2632.377	1	1	0	0	0.11504	0.055632	0.11816	0.25905	0.16576	0.18859	0.19448	0.14928	0.027255	0.17528	0.19893	0.082291	0.060722	0.20698	0.20529	0.025447	-2.7313	-3.2896	-2.6854	-3.2875	-2.9146	-2.8854	-3.3812	-3.1396	-3.0979	-3.1792	-2.8958	-3.2667	-3.1437	-3.1188	-3.2229	-3.1396	204.622	22.791	-57.483	244.990	91.762	49.927	208.179	-13.148	166.366	27.262	158.235	121.526	27.758	-76.274	117.052	191.543	0.00026127	0.00082838	0.00017418	953.7	5.1609e-06	7.6123e-06	937	375.68	4.85e-06	3.3229e-06	454.58	157.59	141.59	62.694	4.7399e-06	94.608	0.00048998	0.00045551	0.0001284	866.68	4.9508e-06	5.1428e-06	852.42	345.28	5.1201e-06	5.1456e-06	414.89	153.21	129.68	57.865	5.2754e-06	87.427	187.050	6.515	24.179	-67.420	67.103	76.480	-68.641	-62.883	52.455	63.942	-64.735	-60.973	-58.464	-54.609	55.406	-57.143	-8191	255	
2632.497	1	1	0	0	0.086615	0.26209	0.19341	0.33868	0.3373	0.27092	0.12867	0.23406	0.17887	0.065898	0.16338	0.11318	0.098617	0.14652	0.30919	0.56761	-2.7188	-3.1604	-2.8208	-3.1813	-2.9125	-2.9896	-3.3708	-3.1	-2.9708	-3.2146	-2.8333	-3.2146	-3.2708	-2.9667	-3.3667	-3.075	-39.690	97.292	53.576	268.242	122.494	-73.005	209.565	52.448	0.068	-76.944	237.642	272.507	244.343	-14.124	-25.678	270.355	0.00029236	0.00073394	0.00018796	956.38	1.7068e-06	8.3778e-06	939.32	379.5	2.2968e-06	5.013e-06	456.71	159.02	142.11	62.952	3.5474e-06	95.644	0.00048833	0.00046718	0.00013163	869.28	4.8743e-06	5.1227e-06	856.49	346.57	5.1399e-06	5.0948e-06	417.36	154.07	130.6	58.169	5.1948e-06	87.977	183.849	23.332	8.938	-67.460	72.779	91.467	-68.741	-62.660	37.979	95.074	-65.193	-60.415	-58.270	-54.536	88.471	-57.077	-8191	255	
2632.569	1	1	0	0	0.13456	0.16051	0.077514	0.34191	0.14236	0.12923	0.2288	0.3335	0.075423	0.14032	0.077535	0.25102	0.060386	0.21401	0.0090475	0.14945	-2.3937	-3.3604	-2.8375	-3.2646	-3.2104	-2.8271	-3.2979	-3.0563	-2.8312	-3.2438	-3.0583	-3.0417	-3.3792	-2.9229	-3.2188	-3.2083	-24.713	253.075	37.581	241.833	143.764	89.253	226.309	221.249	230.300	-46.629	182.650	192.436	165.162	229.063	16.827	236.921	0.00028896	0.0008726	0.00017637	958.32	4.9366e-06	7.3915e-06	949.09	381.95	5.3204e-06	5.8335e-06	460.26	160.44	142.08	63.109	5.9104e-06	95.951	0.0004997	0.00045928	0.00012794	871.87	4.811e-06	5.1388e-06	863.35	348.74	5.4149e-06	4.9126e-06	421.1	155.49	131.02	58.488	5.3447e-06	88.647	184.478	-5.801	18.952	-67.547	53.841	62.562	-68.906	-62.857	69.669	100.368	-64.791	-61.778	-58.558	-54.575	64.843	-57.259	-8191	255	
2632.665	1	1	0	0	0.10711	0.022478	0.11703	0.15638	0.19885	0.31393	0.059071	0.29213	0.14658	0.14921	0.099926	0.12173	0.20451	0.10357	0.1537	0.18757	-2.35	-3.275	-2.9688	-3.1646	-3.2958	-2.6875	-3.3583	-3.1792	-2.8146	-3.2667	-3.0187	-2.9625	-3.3583	-2.9042	-3.1917	-3.3958	-36.759	56.388	207.148	-48.409	142.272	166.139	227.623	216.235	118.900	-51.613	151.749	226.537	129.231	-45.156	-63.765	171.740	0.00028139	0.00041827	0.00018066	960.03	6.111e-06	4.7681e-06	938.66	379.78	2.3226e-06	6.8011e-06	456.91	158.34	143.96	63.082	1.2771e-06	95.556	0.00051884	0.00045999	0.00013212	871.4	5.0966e-06	5.3065e-06	854.31	347.38	5.2904e-06	5.0084e-06	416.63	154.84	131.41	58.368	5.0198e-06	87.962	182.524	-22.545	27.388	-67.347	47.265	66.760	-68.704	-62.851	103.814	53.680	-64.776	-60.377	-58.286	-54.594	79.480	-57.156	-8191	255	
2632.761	1	1	0	0	0.073483	0.025473	0.15416	0.24776	0.26874	0.25823	0.097152	0.11325	0.14244	0.073844	0.30535	0.12944	0.083105	0.062848	0.14678	0.25188	-2.3563	-3.3729	-2.9208	-3.0854	-3.35	-2.95	-3.4542	-3.3625	-2.6083	-3.3479	-3.2188	-3.0021	-3.2875	-3.075	-3.1479	-3.3646	236.418	256.226	41.157	252.830	26.885	-53.707	173.738	-59.140	2.197	-73.942	198.078	-30.473	258.916	252.383	124.416	248.207	0.00029302	0.00055152	0.00015711	956.03	2.6545e-06	5.0553e-06	925.93	376.89	2.3877e-06	1.1105e-05	455.16	159.12	142.22	63.265	4.1225e-06	95.349	0.00050412	0.00047222	0.00013268	864.31	4.8286e-06	5.1098e-06	844.81	345.02	5.1768e-06	4.8164e-06	415.07	154.86	130.29	58.443	5.2057e-06	88.114	183.260	-9.622	-0.946	-67.493	44.087	74.854	-68.687	-62.763	52.883	87.649	-64.885	-60.536	-58.491	-54.731	68.926	-57.173	-8191	255	
2632.882	1	1	0	0	0.36728	0.13431	0.026541	0.09245	0.045792	0.30071	0.16446	0.13475	0.053219	0.26267	0.23172	0.12304	0.12479	0.25294	0.20378	0.23965	-2.5292	-3.2521	-2.9354	-3.0062	-3.3083	-2.8688	-3.2562	-3.5292	-2.9458	-3.1583	-3.1188	-2.8563	-3.4813	-3.1875	-3.1771	-3.2375	267.126	84.765	-11.926	111.797	-30.486	-39.288	225.708	229.786	-13.586	185.263	165.372	25.703	-53.481	259.230	54.316	-69.346	0.00028526	0.00065304	0.00017987	952.9	1.0985e-06	7.525e-06	928.37	380.43	3.5186e-06	6.2082e-06	457.45	160.37	142.42	63.305	2.6184e-06	96.155	0.00050368	0.00047436	0.00013347	865.62	4.9812e-06	5.0813e-06	849.96	347.41	5.1505e-06	5.0102e-06	417.37	155.22	131.12	58.671	5.4916e-06	88.568	188.890	6.438	28.083	-67.299	27.072	88.305	-68.801	-62.891	58.868	80.189	-64.700	-60.439	-58.243	-54.539	52.629	-57.337	-8191	255	
2632.978	1	1	0	0	0.17516	0.16079	0.12237	0.26625	0.21372	0.18508	0.086537	0.35949	0.16349	0.087661	0.28526	0.17552	0.044211	0.28188	0.19115	0.059609	-2.4458	-3.1979	-3.1417	-2.9313	-3.4146	-3.1792	-3.2396	-3.3667	-2.8229	-3.2313	-3.2417	-2.8063	-3.3063	-3.0187	-2.9646	-3.5208	49.749	71.353	256.177	230.241	186.149	69.791	-17.991	194.875	149.978	151.055	257.329	158.128	123.350	169.716	130.745	216.400	0.0002836	0.000676	0.00025253	959.25	5.0082e-06	7.1859e-06	939.79	381.11	1.9866e-06	7.385e-06	459.91	159.85	142.98	63.762	4.4722e-06	96.715	0.00050817	0.00046642	0.00013604	871.39	5.0534e-06	5.0862e-06	859.83	347.97	5.2807e-06	5.2814e-06	419.98	156.21	131.47	58.86	5.338e-06	89.126	185.817	32.537	16.821	-67.326	90.412	69.909	-68.584	-63.093	41.872	41.030	-64.818	-61.216	-58.209	-54.639	102.991	-57.389	-8191	255	
2633.074	1	1	0	0	0.11523	0.040141	0.34513	0.10437	0.14263	0.13236	0.22078	0.073285	0.17221	0.20861	0.14383	0.077338	0.21612	0.076523	0.011265	0.16301	-2.4938	-3.025	-3.1021	-2.9792	-3.2583	-2.9604	-3.1958	-3.3292	-3.1208	-3.1312	-3.2188	-2.7917	-3.2708	-3.0854	-2.8604	-3.3333	166.845	117.488	238.133	180.128	215.259	61.592	247.303	32.155	158.408	65.588	75.565	195.997	105.638	240.802	46.109	265.973	0.00026893	0.00059416	0.00011288	961.28	3.1371e-06	4.6959e-06	943.58	381.8	2.496e-06	6.5177e-06	458.52	161.17	142.09	63.312	4.4431e-06	95.825	0.00050663	0.0004569	0.00012749	870.93	5.2573e-06	4.9493e-06	857.56	348.52	5.307e-06	5.2756e-06	417.72	155.61	131	58.693	5.492e-06	88.655	183.466	-2.680	8.281	-67.486	61.991	83.514	-68.726	-62.984	51.135	66.652	-64.646	-60.552	-58.275	-54.616	96.291	-57.404	-8191	255	
2633.146	1	1	0	0	0.29757	0.11617	0.19564	0.0388	0.04887	0.088692	0.15756	0.32872	0.04399	0.40037	0.10055	0.074825	0.12719	0.12061	0.1871	0.3293	-2.4479	-3.15	-3.2646	-2.9875	-3.1396	-3.0771	-2.8729	-3.3146	-2.9729	-3.225	-3.4896	-2.9146	-3.2938	-3.1188	-2.9396	-3.3896	155.686	26.398	235.840	134.838	250.770	76.519	244.182	230.754	-11.924	12.873	198.459	-6.854	197.657	198.779	84.952	222.426	0.00028641	0.0004812	0.00017286	949.72	5.34e-06	9.0312e-06	921.63	377.48	4.0994e-06	7.1083e-06	451.85	156.84	142.33	63.067	4.2629e-06	95.288	0.00050373	0.00050519	0.00012904	861.72	5.2637e-06	5.2333e-06	840.84	345.36	5.3569e-06	5.0543e-06	412.74	153.52	130.67	58.609	5.4731e-06	88.138	189.633	28.229	49.471	-67.568	71.719	67.307	-68.852	-62.949	91.066	54.404	-64.861	-60.804	-58.335	-54.700	66.743	-57.142	-8191	255	
2633.265	1	1	0	0	0.26535	0.21143	0.061155	0.11869	0.25706	0.077819	0.23855	0.27168	0.16569	0.30941	0.29168	0.19352	0.28722	0.27226	0.031209	0.0705	-2.6333	-3.0083	-3.1937	-3.0062	-3.2125	-3.1792	-2.9521	-3.4167	-2.9646	-3.0896	-3.4917	-2.8958	-3.2125	-3.2604	-2.9	-3.45	59.135	113.644	-67.071	-40.891	62.157	-59.322	208.868	276.280	136.965	90.863	261.066	252.774	16.867	264.502	116.594	-26.717	0.00025771	0.00068393	0.0001245	945.66	3.4776e-06	4.0288e-06	918.6	375.9	3.2572e-06	8.2386e-06	451.86	159.12	143.03	63.575	4.5359e-06	96.211	0.00051417	0.00046567	0.00012602	858.68	5.1255e-06	5.2512e-06	840.16	344.94	5.0175e-06	5.2489e-06	413.44	154.93	131.57	58.942	5.3892e-06	88.903	180.754	16.434	-2.635	-67.231	37.891	67.081	-68.396	-62.728	67.007	91.851	-65.042	-61.286	-58.111	-54.534	65.692	-57.284	-8191	255	
2633.361	1	1	0	0	0.13672	0.037632	0.31535	0.098706	0.14507	0.12177	0.12253	0.10908	0.29626	0.090178	0.25144	0.1154	0.32291	0.041284	0.14084	0.17635	-2.55	-2.8708	-3.225	-3.0979	-3.1937	-3.2229	-2.9813	-3.3792	-3.1583	-2.8958	-3.3354	-3	-3.0333	-3.3104	-2.8646	-3.4979	-59.982	86.096	123.109	-19.752	-33.453	197.816	238.450	175.804	148.184	76.725	233.889	157.754	164.261	248.939	258.220	122.637	0.00027915	0.00062758	0.00022748	945.72	3.263e-06	6.2202e-06	925.09	379.52	5.8018e-06	4.8947e-06	455.01	161.98	143.57	63.406	5.2919e-06	96.213	0.00050091	0.00049095	0.0001273	859.52	4.8815e-06	5.2507e-06	844.32	346.69	5.2774e-06	5.1563e-06	416.23	156.07	131.73	58.783	5.4198e-06	89.14	189.182	16.884	40.791	-67.734	59.883	85.323	-68.935	-62.604	80.563	63.047	-64.914	-61.161	-58.190	-54.558	93.140	-57.197	-8191	255	
2633.459	1	1	0	0	0.26704	0.090402	0.048217	0.28373	0.30374	0.11132	0.15818	0.1911	0.24128	0.01188	0.1979	0.24432	0.10175	0.19133	0.16861	0.25535	-2.6771	-3.0229	-3.3688	-2.9125	-3.1396	-3.2938	-2.8479	-3.3458	-3.1792	-3.0417	-3.4771	-2.95	-3.0146	-3.2979	-2.8917	-3.3333	11.051	121.024	-40.482	207.666	67.058	-64.711	200.202	238.823	52.564	195.770	270.934	125.142	187.177	263.837	202.333	197.010	0.00028674	0.00057687	0.00021493	957.08	4.0296e-06	6.9213e-06	930.95	379.72	4.6735e-06	7.9079e-06	453.97	159.44	143.03	63.309	1.9984e-06	95.501	0.00049196	0.00047765	0.000131	866.03	5.0345e-06	5.2824e-06	847.91	348.17	5.2393e-06	5.3482e-06	414	155.29	130.9	58.689	5.4647e-06	88.537	185.869	11.266	1.810	-67.634	78.537	71.636	-68.734	-62.704	67.725	87.338	-64.753	-61.540	-58.314	-54.791	68.003	-57.400	-8191	255	
2633.578	1	1	0	0	0.11953	0.23846	0.20665	0.29808	0.07602	0.17832	0.18504	0.38739	0.30268	0.2385	0.29461	0.20746	0.0181	0.12089	0.20882	0.22026	-2.7979	-2.9396	-3.3167	-3.2042	-2.9292	-3.2167	-3.0208	-3.3333	-3.1	-2.8854	-3.3125	-3.0542	-2.95	-3.3646	-2.8604	-3.2	83.966	86.996	275.281	269.776	65.556	30.575	178.827	242.746	52.040	81.803	230.966	23.859	114.758	191.269	-38.900	205.424	0.00024913	0.00049141	0.00017261	938.96	4.7083e-06	5.8165e-06	912.05	375.77	3.8477e-06	1.2195e-05	449.02	158.99	141.8	63.181	2.4972e-06	95.345	0.00050077	0.00047702	0.00012437	854.07	5.0862e-06	5.0157e-06	833.07	343.64	5.2004e-06	5.1099e-06	409.46	153.41	129.93	58.422	5.317e-06	87.677	187.155	28.909	-4.649	-67.644	86.505	63.128	-68.535	-62.890	58.052	90.909	-64.801	-60.495	-58.478	-54.869	62.522	-57.400	-8191	255	
2633.672	1	1	0	0	0.15095	0.080442	0.23207	0.27258	0.046629	0.12527	0.41717	0.25857	0.084793	0.13591	0.098736	0.11519	0.17066	0.13782	0.11486	0.39977	-2.7417	-2.9375	-3.1896	-3.1167	-3.0875	-3.3563	-3.0667	-3.075	-3.1146	-2.9792	-3.3667	-3.1896	-2.9521	-3.2438	-2.825	-3.1396	-51.441	224.561	-52.506	244.174	-40.063	104.467	30.691	274.651	125.689	259.594	-27.507	81.654	229.112	158.586	171.786	241.430	0.00028175	0.00081891	0.00022281	938.66	3.5203e-06	8.4397e-06	913.49	375.28	1.846e-06	8.7925e-06	446.19	157.35	141.64	63.315	5.1515e-06	95.483	0.00048666	0.00045523	0.000123	852.77	4.7985e-06	5.1062e-06	831.51	343.59	4.8853e-06	5.0204e-06	407.9	153.24	130.07	58.488	5.3287e-06	88.288	184.585	-22.284	-9.021	-67.185	124.515	51.520	-68.839	-63.175	25.925	66.347	-64.765	-61.266	-58.235	-54.672	42.380	-57.119	-8191	255	
2633.768	1	1	0	0	0.15164	0.03214	0.16861	0.39133	0.21354	0.23522	0.31817	0.23683	0.035224	0.081006	0.098933	0.19039	0.14828	0.20261	0.098457	0.15097	-2.8688	-2.9979	-3.2562	-3.4125	-3.0771	-3.2833	-3.1958	-3.1333	-3.2729	-2.8708	-3.2604	-3.2396	-2.7542	-3.4562	-3.0604	-3.0396	131.700	52.244	147.229	242.671	166.310	250.385	234.728	149.710	73.819	179.912	243.414	93.853	-67.085	232.598	1.224	189.598	0.00029667	0.00096504	0.00018127	945.93	2.8298e-06	2.203e-06	926.56	378.07	1.2068e-06	4.2158e-06	451.11	156.14	142.8	63.367	4.4707e-06	95.447	0.00048591	0.00047515	0.00012468	858.95	4.8903e-06	4.9203e-06	843.06	345.51	5.0629e-06	5.1901e-06	411.41	153.85	130.31	58.535	5.1319e-06	88.159	185.054	37.640	8.691	-67.359	47.855	48.570	-68.779	-62.638	158.833	76.541	-64.862	-61.098	-58.528	-54.702	66.840	-57.319	-8191	255	
2633.864	1	1	0	0	0.1362	0.14852	0.11802	0.18875	0.080914	0.21587	0.21124	0.15373	0.052544	0.1279	0.087927	0.32276	0.16203	0.37567	0.25333	0.13758	-2.9146	-2.9604	-3.3312	-3.3979	-2.9521	-3.3583	-3.4333	-3.0917	-3.3375	-2.9375	-3.0958	-3.1229	-2.7583	-3.3688	-2.9146	-3.0479	114.214	271.570	-78.272	198.858	127.251	249.713	245.222	204.309	37.880	181.597	178.420	251.722	-14.475	233.043	172.892	223.721	0.00026874	0.00082408	0.00017877	942.79	5.6823e-06	8.9461e-06	925.12	374.78	3.8988e-06	5.4686e-06	448.5	158.48	140.37	62.811	2.6188e-06	94.478	0.00048901	0.00045523	0.00011867	857.68	4.9211e-06	4.6585e-06	844.85	344.26	4.5479e-06	4.9451e-06	408.61	152.56	129.06	58.037	4.8914e-06	87.317	185.448	10.771	25.924	-67.579	82.029	65.412	-68.954	-63.035	68.725	63.302	-64.816	-61.273	-58.456	-54.377	65.313	-57.190	-8191	255	
2633.961	1	1	0	0	0.19017	0.24034	0.10496	0.087749	0.18779	0.077597	0.125	0.18216	0.14283	0.17131	0.16718	0.0904	0.12899	0.065232	0.010006	0.26445	-2.9875	-2.8042	-3.0625	-3.3021	-2.9625	-3.3521	-3.2792	-2.8854	-3.4875	-2.9875	-3.2458	-3.2917	-2.8583	-3.4229	-3.0917	-3.0604	131.139	56.518	43.417	133.096	139.012	229.357	-73.468	209.345	-69.971	157.591	260.440	-64.046	222.206	155.494	133.124	273.303	0.00029871	0.00054415	0.00014662	942.29	2.6186e-06	6.9854e-06	908.47	370.32	4.6103e-06	5.4056e-06	442.17	158.56	139.94	62.278	3.4204e-06	94.278	0.00045957	0.00045559	0.0001182	855.75	4.575e-06	4.77e-06	828.57	340.7	4.792e-06	4.7068e-06	403.42	151.47	128.34	57.848	5.0311e-06	87.039	178.808	-16.876	-6.561	-67.532	57.008	90.293	-68.744	-62.894	71.385	53.218	-64.558	-61.253	-58.096	-54.830	63.529	-57.198	-8191	255	
2634.057	1	1	0	0	0.18449	0.098158	0.25726	0.21639	0.26113	0.12765	0.17774	0.31597	0.12938	0.17316	0.22408	0.10849	0.22731	0.22332	0.1451	0.13128	-2.8292	-2.8438	-3.0021	-3.3646	-2.8271	-3.3312	-3.4229	-2.9583	-3.4521	-2.8458	-3.0229	-3.3833	-2.7875	-3.3625	-3.3625	-2.975	-77.044	118.065	50.083	-26.405	205.080	42.976	17.091	227.833	57.634	36.805	193.903	-25.755	167.594	165.409	-51.532	-13.953	0.00030564	0.00056696	0.00020662	938.51	3.4842e-06	6.4459e-06	903.85	371.2	4.6891e-06	8.6637e-06	440.41	157.7	140.12	63.15	2.4571e-06	94.93	0.0004824	0.00043472	0.00011615	849.21	4.5277e-06	4.5956e-06	826.07	339.75	4.8472e-06	4.9781e-06	403.71	151.99	129.38	58.375	4.9573e-06	87.919	183.683	16.133	2.418	-67.475	30.709	52.202	-68.817	-62.749	55.368	64.918	-64.726	-60.809	-58.393	-54.653	93.232	-57.455	-8191	255	
2634.177	1	1	0	0	0.031056	0.20649	0.25678	0.044809	0.1152	0.12407	0.30977	0.23318	0.14541	0.080867	0.27278	0.07973	0.26452	0.067292	0.056635	0.25572	-2.9896	-3.125	-2.9354	-3.4437	-2.8625	-3.2854	-3.2917	-2.8917	-3.6292	-3.1021	-3.0938	-3.3583	-2.7479	-3.2188	-3.3854	-2.9062	45.708	-28.293	172.483	233.744	217.279	-62.333	239.016	223.579	4.763	166.218	267.033	40.351	255.588	264.961	182.108	221.142	0.00029345	0.00029545	0.00020482	942.55	3.6778e-06	4.3791e-06	920.13	372.26	3.5123e-06	8.721e-06	446.48	160.28	142.22	63.537	1.5686e-06	96.31	0.00047268	0.00044611	0.00011739	855.43	4.7092e-06	4.6826e-06	836.43	342.45	4.7287e-06	4.6427e-06	409.13	155.06	130.69	58.794	4.9707e-06	88.712	187.648	-13.774	-5.952	-67.296	64.231	50.508	-68.637	-62.786	38.658	61.719	-64.799	-61.183	-58.440	-54.826	69.254	-57.270	-8191	255	
2634.273	1	1	0	0	0.075113	0.1326	0.17416	0.25437	0.21941	0.20089	0.18402	0.1084	0.251	0.10768	0.15937	0.17066	0.2354	0.21911	0.014549	0.27246	-2.8208	-3.0938	-2.8708	-3.4042	-3.0062	-2.9417	-3.4208	-2.8812	-3.1312	-3.2625	-2.8604	-3.1958	-2.9	-3.2625	-3.1813	-3.0333	253.285	174.774	143.661	209.048	212.247	193.197	208.555	213.078	-60.961	5.736	-54.585	100.414	77.904	247.602	80.309	256.918	0.00027021	0.00076436	0.00019659	945.59	5.2159e-06	6.5031e-06	927.63	377.37	3.6781e-06	4.609e-06	456.17	159.95	144.06	63.561	3.8688e-06	96.854	0.00048715	0.00046301	0.00012546	859.97	4.962e-06	5.1151e-06	844.42	345.46	5.0073e-06	4.9153e-06	414.99	155.1	131.72	59.098	5.0609e-06	89.148	182.911	12.397	-12.705	-67.558	53.922	73.949	-68.453	-62.874	62.514	67.311	-64.789	-61.366	-58.285	-54.714	60.451	-57.323	-8191	255	
2634.370	1	1	0	0	0.1425	0.10723	0.1466	0.11463	0.149	0.1433	0.061676	0.35338	0.24083	0.25002	0.14301	0.1331	0.12266	0.091679	0.035317	0.28128	-2.8333	-3.0417	-2.9042	-3.4375	-3.05	-3.1021	-3.45	-3.0042	-3.2375	-3.4188	-3.0896	-3.0771	-3.2104	-3.1937	-3.2021	-2.9354	274.534	136.104	21.423	192.584	153.569	-64.375	-67.681	240.395	278.160	-4.998	239.766	175.611	-26.125	267.580	16.544	204.988	0.00029067	0.00079006	0.00019543	942.24	4.4665e-06	7.8565e-06	912.99	378.01	4.4994e-06	8.5155e-06	449.35	160.79	143.12	63.829	2.5654e-06	96.376	0.00049752	0.000444	0.00013327	855.37	4.841e-06	5.4006e-06	829.14	345.4	5.0909e-06	5.0681e-06	410.38	155.16	131.41	59.191	5.2062e-06	88.985	186.966	-19.362	9.415	-67.384	60.657	92.319	-68.768	-62.869	62.027	80.216	-64.737	-61.381	-58.393	-54.679	45.574	-57.311	-8191	255	
2634.441	1	1	0	0	0.12722	0.057017	0.093065	0.22602	0.24812	0.20109	0.15401	0.26366	0.16593	0.15383	0.18648	0.12011	0.20973	0.048637	0.18208	0.077241	-2.6792	-3.0958	-2.8937	-3.2583	-2.975	-2.9521	-3.4375	-3.0021	-3.2104	-3.1937	-2.9375	-3.3771	-3.0938	-3.0625	-3.4	-3.0583	163.469	-5.224	236.365	-58.969	201.642	257.355	100.054	198.427	44.817	31.126	199.730	88.006	-58.819	266.908	22.300	-41.862	0.00026792	0.0007693	0.00021253	937.32	6.0088e-06	7.5526e-06	906.54	376.51	4.7596e-06	5.1535e-06	448.78	162.97	144.82	64.548	3.1714e-06	97.791	0.00049673	0.00047051	0.00013443	849.69	5.0958e-06	5.0313e-06	824.93	345.82	4.9498e-06	4.852e-06	411.44	155.53	132.72	59.8	5.1432e-06	89.863	188.000	10.327	19.162	-67.431	48.034	81.365	-68.768	-62.728	85.059	62.059	-64.829	-60.607	-58.535	-54.629	63.984	-57.363	-8191	255	
2634.562	1	1	0	0	0.046689	0.13748	0.078437	0.41026	0.11223	0.056832	0.38329	0.22078	0.15186	0.17278	0.1798	0.25021	0.15093	0.21837	0.17444	0.1376	-2.6083	-3.4313	-2.7562	-3.3625	-3.1396	-3.0167	-3.3979	-3.1708	-3.0958	-3.4208	-2.9437	-3.1146	-3.1417	-2.9417	-3.2938	-3.0771	-17.297	-22.326	-56.664	229.419	193.618	244.708	169.135	-57.418	194.553	153.417	265.998	94.658	148.556	-72.776	-35.654	247.383	0.00027862	0.00083993	0.00018715	942.15	3.047e-06	7.5871e-06	913	382.94	4.5811e-06	1.0103e-05	453.74	162.34	146.9	65.317	3.728e-06	98.752	0.00050842	0.00047761	0.00013045	853.79	5.101e-06	5.3662e-06	831.5	349.75	5.2628e-06	5.3242e-06	416.8	157.23	134.51	60.454	5.3434e-06	91.08	185.684	-6.780	28.680	-67.216	61.536	64.343	-68.666	-62.905	63.673	87.536	-64.996	-61.100	-58.601	-54.600	75.148	-57.555	-8191	255	
2634.658	1	1	0	0	0.089526	0.068904	0.21641	0.047264	0.060612	0.051964	0.15435	0.16691	0.17513	0.093812	0.17878	0.093909	0.081952	0.19218	0.16108	0.16964	-2.6146	-3.3917	-2.85	-3.3333	-3.275	-2.7938	-3.4479	-3.1604	-2.9979	-3.3833	-3.0354	-3.0125	-3.2104	-2.9479	-3.2854	-3.0083	-42.249	-21.642	86.379	-71.805	-47.115	155.953	232.452	190.437	82.222	61.705	265.074	124.265	133.626	223.458	24.066	161.040	0.00025506	0.00068218	0.00018655	947.13	2.3045e-06	6.4069e-06	921.91	385.82	2.3437e-06	7.2092e-06	459.62	162.82	148.13	65.71	3.7147e-06	99.477	0.0004951	0.00048226	0.00013178	862.02	5.0882e-06	5.1789e-06	841.66	352.86	5.3021e-06	5.3327e-06	420.85	159.9	135.74	60.98	5.7077e-06	91.815	188.258	-11.080	38.716	-67.201	66.094	79.198	-68.657	-63.003	82.126	68.482	-65.037	-60.641	-58.436	-54.775	40.982	-57.118	-8191	255	
2634.754	1	1	0	0	0.21141	0.1508	0.19247	0.12797	0.12	0.11263	0.14138	0.26517	0.16539	0.0377	0.032624	0.12793	0.22443	0.22227	0.11829	0.12109	-2.4854	-3.3542	-2.9667	-3.2292	-3.3771	-2.9083	-3.3312	-3.1771	-2.825	-3.3937	-3.1208	-3.1312	-3.5062	-2.9208	-3.2146	-3.45	-61.544	97.088	164.570	-57.001	97.355	223.374	146.540	81.050	249.497	114.556	-4.400	137.615	251.676	240.960	161.813	130.033	0.00032211	0.00071359	0.00020085	946.19	4.1514e-06	5.2076e-06	917.75	385.04	2.7343e-06	8.885e-06	457.24	165.78	146.47	66	3.2229e-06	98.888	0.00052747	0.00048956	0.00013796	862.16	5.1656e-06	5.1722e-06	837.34	351.94	5.3699e-06	5.2859e-06	417.13	159.13	134.43	61.029	5.3375e-06	91.278	190.188	7.404	26.190	-67.639	56.744	58.055	-68.998	-62.949	52.266	74.399	-64.872	-61.358	-58.523	-54.754	114.925	-57.499	-8191	255	
2634.849	1	1	0	0	0.037732	0.082621	0.14908	0.24349	0.14847	0.032929	0.11659	0.099612	0.20783	0.10203	0.27918	0.2482	0.1646	0.1606	0.031896	0.2473	-2.3292	-3.3812	-3.0833	-3.0896	-3.2938	-2.8896	-3.4854	-3.3937	-2.9646	-3.2333	-3.1042	-2.8917	-3.3104	-3	-3.2375	-3.3083	-69.251	254.726	215.650	-17.643	-8.619	255.498	277.470	247.422	219.953	48.879	214.586	-49.392	13.787	259.046	-26.457	219.334	0.00027412	0.0008998	0.00025179	936.65	4.0585e-06	6.9255e-06	909.26	383.3	4.2728e-06	8.5299e-06	455.76	163.88	147.38	65.864	4.093e-06	99.288	0.00050414	0.00046999	0.00013329	854.6	5.1151e-06	5.1611e-06	827.97	350.62	5.159e-06	5.1335e-06	416.05	158.76	134.97	61.082	5.2204e-06	91.451	186.502	9.785	13.179	-67.244	56.016	57.340	-68.720	-62.851	44.441	102.583	-65.087	-61.116	-58.819	-54.791	89.014	-57.398	-8191	255	
2634.969	1	1	0	0	0.21184	0.12953	0.049147	0.039347	0.17725	0.20034	0.10976	0.11742	0.19406	0.26264	0.26598	0.23531	0.3695	0.10846	0.15041	0.27385	-2.4271	-3.1625	-2.9604	-3.1	-3.3021	-2.9188	-3.4021	-3.2521	-2.9229	-3.3833	-3.2167	-2.95	-3.3	-3.0583	-3.1375	-3.5062	145.111	135.272	-75.864	-59.608	-66.033	91.996	201.094	120.601	-78.583	-43.590	276.555	197.808	263.066	-63.254	69.916	207.311	0.0002849	0.00046627	0.00022061	944.62	2.6061e-06	5.9403e-06	910.91	383.23	2.4127e-06	8.0934e-06	454.42	163.6	144.84	65.496	3.8522e-06	99.036	0.000523	0.00048638	0.00013301	856.64	4.9941e-06	5.0777e-06	831.48	350.11	5.0674e-06	5.1736e-06	415.5	157.74	133.81	60.636	5.3396e-06	91.301	185.335	-12.595	6.182	-67.684	126.448	86.197	-68.698	-62.861	39.955	73.138	-64.975	-61.310	-58.399	-54.840	48.749	-57.531	-8191	255	
2635.065	1	1	0	0	0.1932	0.10201	0.1902	0.17966	0.11227	0.043103	0.087683	0.23446	0.069664	0.35484	0.17805	0.06339	0.17984	0.14198	0.21009	0.21221	-2.3792	-3.25	-3.0354	-3.0229	-3.2792	-2.8479	-3.2333	-3.4354	-3.0167	-3.35	-3.2708	-2.9521	-3.4167	-3.1979	-3.1167	-3.5125	251.294	140.072	226.278	215.150	45.692	135.058	156.029	184.036	-51.727	203.601	-63.364	-33.036	226.009	203.391	202.279	183.094	0.00028751	0.0007203	0.0002533	944.64	5.8276e-06	5.0813e-06	920.15	380.16	1.8494e-06	8.8199e-06	455.52	160.89	144.76	64.603	4.8345e-06	97.437	0.00051112	0.00047047	0.00012801	856.02	4.9304e-06	5.0518e-06	839.55	347.37	5.2993e-06	4.6222e-06	413.82	156.7	132.43	59.732	5.1541e-06	89.785	187.324	9.383	10.590	-67.450	61.674	68.326	-68.490	-62.754	89.194	71.338	-64.949	-60.949	-58.365	-54.507	74.313	-57.596	-8191	255	
2635.137	1	1	0	0	0.12222	0.077414	0.11793	0.16952	0.22703	0.075813	0.10257	0.14344	0.18177	0.088373	0.21011	0.23147	0.25096	0.29887	0.046373	0.21481	-2.4792	-3.3021	-3.2208	-3.0229	-3.3375	-3.1083	-3.3583	-3.375	-2.9542	-3.2812	-3.3229	-2.9729	-3.5	-3.175	-3.1271	-3.5625	174.985	-31.726	49.215	241.288	272.899	124.762	249.640	198.268	207.413	73.456	-75.268	45.314	-14.511	245.349	77.900	-65.861	0.00027265	0.00081464	0.00021987	932.12	3.5586e-06	6.9228e-06	913.57	374.53	3.0707e-06	3.8701e-06	443.38	160.54	140.7	63.663	3.6451e-06	96.124	0.00048629	0.00045662	0.00012668	850.78	4.8238e-06	5.0166e-06	829.47	342.42	5.234e-06	5.085e-06	405.61	153.55	129.68	58.922	5.2221e-06	88.579	189.115	20.727	22.945	-67.326	53.498	67.893	-68.508	-62.416	64.785	94.179	-65.079	-60.582	-58.479	-54.499	70.013	-57.118	-8191	255	
2635.258	1	1	0	0	0.24447	0.17833	0.13148	0.1506	0.21778	0.26856	0.1239	0.30963	0.146	0.093727	0.14797	0.1491	0.076298	0.26962	0.19561	0.20373	-2.5583	-3.2771	-3.2396	-3.0042	-3.3563	-3.2292	-3.0083	-3.5521	-2.9938	-3.3104	-3.4042	-2.8854	-3.4854	-3.2687	-2.9917	-3.4771	21.626	-48.706	200.677	258.116	158.035	76.232	-53.595	255.536	215.385	10.595	195.673	261.000	-23.028	202.514	245.982	167.251	0.00026117	0.00061356	0.000193	927.56	4.6174e-06	6.2068e-06	893.31	371.01	1.927e-06	7.6976e-06	443.45	159.38	141.14	63.63	5.0899e-06	96.214	0.00049756	0.00046178	0.00012825	841.1	4.9816e-06	4.9399e-06	818.41	340.7	5.2742e-06	5.0266e-06	404.43	153.51	130.06	58.875	5.1944e-06	88.648	185.344	-16.444	20.540	-67.396	50.173	53.410	-69.035	-62.686	25.037	54.386	-64.887	-61.298	-58.400	-54.519	63.330	-57.317	-8191	255	
2635.354	1	1	0	0	0.11693	0.029703	0.11899	0.1559	0.2541	0.1735	0.2177	0.20238	0.092886	0.17452	0.11364	0.098012	0.16714	0.12581	0.14232	0.12856	-2.6104	-3.05	-3.2854	-3.2542	-3.175	-3.2833	-3.0271	-3.4792	-3.0333	-3.0375	-3.4667	-2.9021	-3.3646	-3.2292	-3	-3.3563	37.928	197.124	243.477	156.836	144.785	51.213	238.331	159.153	-38.869	193.654	-19.648	8.143	14.560	181.256	273.100	85.236	0.00023751	0.00060769	0.00011773	929.09	3.1861e-06	6.6633e-06	907.23	374.44	1.8759e-06	2.5272e-06	447.3	156.91	142.06	63.991	4.2944e-06	96.524	0.00049645	0.00046384	0.00012949	842.41	4.6082e-06	4.9707e-06	825.12	342.53	4.9879e-06	5.3073e-06	406.69	152.67	130.64	59.267	5.0601e-06	89.16	187.455	1.774	8.956	-67.295	75.754	66.330	-68.904	-62.800	36.429	45.593	-64.722	-61.699	-57.763	-54.497	42.651	-57.469	-8191	255	
2635.450	1	1	0	0	0.041077	0.035646	0.23014	0.18201	0.12739	0.16725	0.12072	0.067058	0.15608	0.092647	0.12325	0.1385	0.35342	0.15317	0.11755	0.24718	-2.6479	-3.0146	-3.2583	-3.0833	-3.1562	-3.2146	-2.9646	-3.4979	-3.1188	-3.025	-3.5354	-2.8375	-3.2104	-3.4208	-3.0875	-3.3917	42.403	76.290	99.522	43.870	145.962	54.345	204.541	202.628	115.102	220.216	184.812	69.815	168.337	246.721	83.500	207.332	0.00026715	0.00072946	0.0001355	933.39	5.6691e-06	2.84e-06	909.32	375.34	4.9129e-06	7.5259e-06	446.5	159.43	142.37	64.206	2.7185e-06	97.491	0.00048789	0.00045579	0.00012882	845.28	4.9913e-06	5.2244e-06	829.68	344.39	5.0491e-06	5.0765e-06	409.55	155.27	131.49	59.594	5.4546e-06	89.872	189.184	21.385	-2.161	-67.615	69.105	68.298	-68.702	-62.435	56.324	73.294	-64.584	-61.955	-58.321	-54.449	59.732	-57.444	-8191	255	
2635.546	1	1	0	0	0.086283	0.13475	0.1962	0.14179	0.33275	0.23847	0.090827	0.094412	0.18577	0.2999	0.17852	0.055939	0.26624	0.26573	0.098491	0.26655	-2.775	-3.0292	-3.3667	-3.0167	-3.1729	-3.2333	-2.95	-3.2979	-3.2271	-3.0479	-3.4375	-2.9458	-3.0896	-3.4062	-2.9646	-3.5312	57.455	149.655	187.822	-30.615	95.133	93.949	198.646	181.703	16.146	67.754	249.722	-48.340	18.783	-64.850	11.617	207.845	0.00025239	0.0011263	0.00010479	934.97	4.4463e-06	8.2925e-06	908.48	376.14	3.4606e-06	4.7754e-06	446.1	157.49	143.1	64.445	4.4816e-06	96.658	0.00049215	0.00048309	0.00012731	847.4	5.0109e-06	4.7718e-06	825.6	344.09	5.0495e-06	5.1126e-06	406.88	153.2	131.71	59.631	5.2444e-06	89.057	185.536	7.928	20.753	-67.362	106.552	51.658	-68.641	-62.850	32.589	71.710	-64.962	-60.614	-58.230	-54.706	81.951	-57.255	-8191	255	
2635.667	1	1	0	0	0.072197	0.16616	0.25847	0.3047	0.18792	0.26767	0.20343	0.17146	0.074496	0.043068	0.32507	0.18152	0.12498	0.13452	0.22671	0.08611	-2.8583	-2.8312	-3.3521	-3.2417	-3.2604	-3.4542	-2.9625	-3.3146	-3.3521	-3.0021	-3.4167	-3.0229	-2.9979	-3.5604	-3.0167	-3.2208	72.135	-79.943	43.578	231.921	-68.239	169.678	49.785	215.300	-71.632	250.710	251.772	274.849	-0.593	210.107	263.489	53.915	0.00029603	0.00072883	0.00028612	924.05	4.727e-06	5.6785e-06	895.92	372.97	3.7047e-06	6.2757e-06	443.07	156.86	142.61	64.009	5.3296e-06	96.541	0.00049219	0.00046785	0.00012937	838.27	4.7128e-06	5.1308e-06	815.9	341.83	5.1116e-06	5.1736e-06	404.18	152.1	130.93	59.502	5.1948e-06	89.265	190.420	-2.129	31.974	-67.430	85.281	36.680	-69.080	-62.604	81.930	70.762	-65.019	-60.221	-58.334	-54.741	56.248	-57.408	-8191	255	
2635.738	1	1	0	0	0.031825	0.14013	0.32833	0.070354	0.192	0.015712	0.077089	0.14106	0.19965	0.15103	0.064017	0.19068	0.22802	0.23323	0.15437	0.24567	-2.8708	-2.9083	-3.1604	-3.175	-2.9583	-3.3438	-2.8771	-3.3542	-3.3708	-3	-3.3458	-3.1229	-2.8333	-3.3438	-2.9917	-3.2854	29.368	134.758	27.313	212.830	23.684	105.009	203.076	-55.249	205.551	-41.617	274.414	82.702	-28.607	257.714	-51.327	224.163	0.00026361	0.00073921	0.00021275	927.51	4.772e-06	9.1992e-06	902.12	375.57	3.9097e-06	9.0244e-06	446.39	161.7	144.39	64.531	4.6661e-06	97.364	0.00048208	0.00046134	0.00012733	842.47	4.7629e-06	5.1473e-06	821.89	344.23	5.1172e-06	5.3465e-06	407.56	155.08	132.24	59.933	5.2897e-06	89.976	178.105	-9.373	25.844	-67.386	84.821	64.997	-68.712	-62.654	36.177	75.436	-64.790	-61.131	-58.252	-54.614	30.513	-57.122	-8191	255	
2635.857	1	1	0	0	0.3104	0.075321	0.061384	0.11271	0.1007	0.13922	0.082587	0.013355	0.070704	0.036405	0.15794	0.061063	0.10519	0.19797	0.27335	0.29764	-2.9062	-2.7729	-3.2875	-3.2313	-2.9479	-3.4542	-3.0125	-3.3021	-3.2417	-2.9583	-3.3688	-3.0917	-2.9437	-3.4021	-3.2354	-3.1083	58.302	217.546	256.071	240.309	-60.010	154.517	58.026	101.720	137.347	79.490	142.608	105.024	-38.954	-39.085	114.168	227.340	0.00028524	0.00091424	0.00014119	928.73	5.4495e-06	6.1743e-06	911.72	378.46	2.318e-06	5.4274e-06	451.78	161.26	144.85	65.148	3.8629e-06	98.315	0.00049294	0.0004813	0.00013204	845.42	5.093e-06	4.9782e-06	830.44	346.38	4.9064e-06	4.979e-06	412.05	155.02	132.56	60.29	5.212e-06	90.802	185.104	12.033	0.717	-67.300	66.645	70.086	-68.820	-62.892	15.902	77.519	-64.964	-61.214	-57.903	-54.574	55.518	-57.294	-8191	255	
2635.953	1	1	0	0	0.16447	0.15633	0.11304	0.16588	0.32918	0.12516	0.34784	0.032597	0.14757	0.10836	0.32714	0.16268	0.15025	0.051968	0.067452	0.24915	-2.8292	-2.8812	-3.4021	-3.3146	-2.8792	-3.3979	-3.0167	-3.0333	-3.35	-2.8312	-3.2188	-3.1937	-3.0354	-3.4875	-3.1604	-3.2667	-8.053	-17.882	49.648	207.389	61.245	-57.913	256.386	-2.926	188.043	-28.928	238.114	30.533	-52.149	271.290	11.653	194.315	0.00030149	0.00070788	0.00018586	931.53	4.4482e-06	5.3111e-06	907.72	377.1	2.0601e-06	6.6559e-06	446.39	159.53	143.36	64.661	4.938e-06	97.793	0.0004951	0.00047376	0.00013112	848.72	5.0818e-06	5.0514e-06	826.61	346.36	5.204e-06	5.4338e-06	408.47	153.9	132.3	60.052	5.4324e-06	90.074	182.811	8.511	31.961	-67.334	59.807	58.675	-68.652	-62.759	61.645	72.146	-64.821	-61.767	-58.250	-54.811	88.626	-57.457	-8191	255	
2636.050	1	1	0	0	0.13255	0.40172	0.15131	0.2344	0.21881	0.15031	0.20533	0.1478	0.11393	0.04028	0.30331	0.20445	0.23497	0.065152	0.22137	0.46455	-2.8542	-3.1125	-3.2438	-3.325	-2.7854	-3.3375	-3.2646	-3.0771	-3.4979	-3	-3.225	-3.2125	-2.9333	-3.3292	-3.175	-2.975	185.804	32.352	-13.946	122.213	53.483	94.643	-24.101	-62.275	-38.266	124.381	217.599	-26.398	271.232	251.787	-59.402	204.553	0.00027871	0.00079975	0.00016591	923.02	4.0819e-06	6.9036e-06	901.71	378.77	2.2593e-06	7.7289e-06	445.44	161.64	145.17	64.899	3.632e-06	97.459	0.00048884	0.00049408	0.00012502	841.56	5.0466e-06	4.8989e-06	818.88	344.76	4.9737e-06	5.1776e-06	406.71	155.05	132.64	60.164	5.0954e-06	89.893	186.463	5.559	7.878	-67.444	92.556	61.471	-69.087	-62.744	25.023	87.345	-64.487	-60.898	-58.348	-54.735	29.468	-57.252	-8191	255	
2636.146	1	1	0	0	0.18989	0.21373	0.14734	0.15097	0.06744	0.25424	0.0027275	0.14097	0.12967	0.17564	0.073193	0.17852	0.1308	0.093693	0.36854	0.18165	-3.0312	-2.7417	-2.7562	-3.4604	-2.95	-3.0812	-3.1854	-3.1354	-3.4271	-3.1104	-3.4625	-3.3521	-2.9771	-3.2583	-3.1167	-3.0021	112.628	74.871	256.450	220.663	62.637	5.704	180.000	37.992	76.982	132.347	244.803	151.268	160.594	187.799	46.730	258.039	0.0002901	0.00087151	0.00027588	924.68	3.7748e-06	8.2212e-06	898.18	378.55	4.657e-06	4.0398e-06	449	158.17	143.94	65.123	4.4004e-06	98.209	0.00049538	0.00046888	0.00013005	841.37	4.8887e-06	4.6959e-06	820.47	346.02	4.8946e-06	4.9523e-06	409.33	153.95	132.52	60.224	5.1822e-06	90.391	191.363	-14.041	22.864	-67.537	85.871	74.811	-68.858	-62.758	74.836	46.796	-64.671	-60.730	-58.670	-54.946	81.289	-57.336	-8191	255	
2636.266	1	1	0	0	0.13629	0.10638	0.0454	0.2405	0.045275	0.19435	0.11507	0.4012	0.086553	0.26509	0.17069	0.1108	0.16037	0.20192	0.16395	0.074947	-2.9333	-3.0458	-3.0396	-3.5125	-2.9938	-3.2896	-3.275	-2.8771	-3.25	-2.9979	-3.0917	-3.4	-2.9562	-3.3292	-3.2917	-2.9188	28.747	53.617	205.731	177.117	22.109	-35.520	182.474	237.715	9.813	48.579	174.804	180.725	126.677	244.760	-45.350	262.191	0.00025977	0.00090017	0.00017803	927.86	1.4062e-06	5.9075e-06	906.47	379.12	3.9151e-06	7.2553e-06	448	162.68	144.83	65.347	3.1703e-06	98.001	0.00050389	0.00047087	0.00012965	844.48	4.8474e-06	5.0166e-06	827.1	346.87	5.0722e-06	5.0387e-06	410.61	156.15	133.35	60.478	5.1407e-06	90.713	181.835	26.162	28.899	-67.400	140.014	39.603	-68.687	-62.816	37.186	90.465	-64.880	-60.907	-58.158	-54.307	29.588	-57.060	-8191	255	
2636.338	1	1	0	0	0.17425	0.065383	0.23368	0.15941	0.086173	0.11679	0.22333	0.22756	0.15635	0.23502	0.27981	0.17887	0.049635	0.24393	0.28458	0.2204	-2.8479	-3.0396	-2.7833	-3.3521	-2.9708	-3.2812	-3.2812	-3.0604	-3.1854	-3.1146	-3.0271	-3.4729	-3.0187	-3.175	-3.3229	-3	217.381	103.042	154.496	127.789	-41.627	194.496	243.424	214.970	20.368	118.250	183.806	243.902	214.917	189.956	242.900	128.735	0.00030666	0.00061667	0.00015422	933.01	5.1146e-06	8.2497e-06	898.6	379.81	3.3819e-06	5.0631e-06	444.84	158.43	144.63	65.41	3.0264e-06	97.969	0.00049942	0.00045511	0.00012802	847.91	4.8662e-06	4.9497e-06	822.54	347.29	5.0799e-06	5.0119e-06	407.52	153.88	132.57	60.342	5.1302e-06	90.266	184.345	-0.493	19.262	-67.290	47.199	57.861	-68.296	-62.774	58.288	60.496	-64.558	-61.095	-58.680	-54.441	78.858	-57.222	-8191	255	
2636.434	1	1	0	0	0.075159	0.025448	0.23021	0.2276	0.060324	0.092	0.10231	0.28423	0.31067	0.18636	0.23762	0.043586	0.14733	0.10086	0.13479	0.38597	-2.7104	-3.025	-2.7479	-3.4313	-2.9729	-3.1312	-3.2833	-3.1833	-3.2875	-3.1708	-2.8688	-3.4271	-3.0687	-3.2021	-3.4125	-2.9917	141.068	18.024	36.905	217.910	50.201	-31.040	177.749	156.707	-39.664	44.217	266.672	170.375	244.544	257.526	139.686	162.277	0.00027146	0.00038768	0.00015938	925.15	2.1775e-06	9.4045e-06	894.16	378.29	4.863e-06	5.8616e-06	443.11	158.57	144.64	65.255	2.7841e-06	98.064	0.00049238	0.00046555	0.00012903	840.55	4.7989e-06	5.3091e-06	812.84	345.89	4.865e-06	4.9964e-06	405.67	153.99	132.85	60.413	5.3644e-06	90.522	184.264	10.020	42.954	-67.609	78.741	56.505	-68.504	-63.141	81.770	78.865	-64.787	-60.488	-58.255	-54.795	41.131	-57.209	-8191	255	
2636.530	1	1	0	0	0.13797	0.1729	0.10956	0.083631	0.095492	0.08953	0.19815	0.084016	0.12828	0.078414	0.11175	0.1021	0.17002	0.19897	0.035218	0.26292	-2.7812	-3.2042	-3.05	-3.3187	-3.0938	-2.9562	-3.4646	-3.0958	-3.3625	-3.4313	-3.1229	-3.4729	-3.2458	-3.3563	-3.4062	-3.1479	86.368	16.704	132.991	114.138	107.456	162.729	-21.878	3.622	259.084	136.637	156.212	145.110	177.376	171.173	-3.229	199.471	0.00029797	0.00088457	0.0001525	926.85	5.7879e-06	9.3488e-06	894.51	377.84	2.5916e-06	6.7013e-06	445.81	160.57	145.44	65.621	3.2826e-06	98.935	0.00049908	0.00047491	0.00013112	839.44	4.8542e-06	5.1629e-06	816.05	345.77	5.0629e-06	5.0275e-06	408.36	155.47	133.32	60.715	5.2825e-06	91.326	187.765	-1.957	11.203	-67.473	61.095	71.255	-68.844	-62.786	50.234	56.836	-64.967	-60.813	-58.454	-54.814	70.292	-57.221	-8191	255	
2636.626	1	1	0	0	0.15538	0.13894	0.24098	0.28426	0.24231	0.17427	0.10574	0.084319	0.10436	0.10972	0.15972	0.12164	0.087069	0.13608	0.0073285	0.057223	-2.7313	-3.1542	-2.7896	-3.2208	-3.1583	-2.9396	-3.5083	-3.175	-2.9729	-3.325	-2.9417	-3.1667	-3.2167	-3.0021	-3.4188	-3.1333	-21.033	-1.419	55.119	212.384	149.338	65.557	-30.465	31.526	198.200	235.697	220.961	-31.300	194.724	-8.993	199.250	19.313	0.00030185	0.00071418	0.00019749	930.46	5.5525e-06	4.8064e-06	899.52	380.76	2.3992e-06	4.1189e-06	450.34	160.82	146.84	66.264	4.2354e-06	99.67	0.00051489	0.00043047	0.00013043	844.15	4.9484e-06	5.0746e-06	821.01	348.49	5.133e-06	4.8494e-06	411.29	155.82	134.34	61.246	5.212e-06	92.083	182.594	-27.219	13.192	-67.037	57.524	85.923	-68.974	-62.704	96.175	111.682	-64.960	-60.812	-58.523	-54.764	75.740	-57.547	-8191	255	
2636.745	1	1	0	0	0.13425	0.125	0.047516	0.20231	0.072224	0.33715	0.19231	0.11227	0.19299	0.20465	0.17346	0.068806	0.14143	0.34867	0.031274	0.22749	-2.5875	-3.3083	-2.7104	-3.2625	-3.2188	-3.0646	-3.5542	-3.0021	-2.95	-3.4292	-2.9667	-3.2875	-3.2854	-3.0125	-3.2083	-3.2062	132.549	-36.348	-70.255	236.356	105.757	253.312	215.507	12.249	159.531	150.558	-24.774	174.474	237.163	224.751	210.241	209.846	0.00029872	0.00082835	0.00021263	933.76	5.303e-06	9.4174e-06	899.8	380.56	3.3593e-06	6.8342e-06	446.75	163.21	145.65	66.391	5.1298e-06	98.886	0.00051958	0.00046043	0.00013101	846.91	4.9716e-06	5.2387e-06	821.09	348.54	5e-06	4.9068e-06	409.17	156.84	133.89	61.231	5.3627e-06	91.191	187.246	-7.306	26.755	-67.156	79.140	66.950	-68.561	-62.658	48.950	87.020	-64.786	-60.286	-58.184	-54.616	67.896	-57.424	-8191	255	
2636.842	1	1	0	0	0.31864	0.041845	0.17473	0.16031	0.11863	0.13345	0.19562	0.16817	0.15292	0.13084	0.31518	0.046587	0.27142	0.35382	0.059652	0.04667	-2.4146	-3.3021	-2.9396	-3.1792	-3.2479	-2.9062	-3.3396	-3.1958	-3.0229	-3.4104	-3.0917	-3.2104	-3.3729	-3.2188	-3.3479	-3.2625	94.563	68.339	260.574	226.742	76.143	226.611	222.066	244.179	206.933	43.805	197.408	112.701	112.374	251.877	240.315	-37.589	0.00029496	0.00068198	0.00018297	926.78	4.5422e-06	8.1266e-06	893.05	380.22	4.0268e-06	5.0991e-06	444.78	159.37	145.23	66.283	4.0016e-06	98.991	0.00051149	0.00048785	0.00012737	841.47	4.9584e-06	5.2289e-06	813.24	348.16	5.1262e-06	4.9607e-06	407.33	154.51	133.5	61.211	5.0341e-06	91.302	188.066	2.698	18.170	-67.392	69.481	72.111	-68.938	-62.736	28.815	52.932	-64.788	-61.203	-58.234	-54.559	56.609	-57.382	-8191	255	
2636.938	1	1	0	0	0.14735	0.17312	0.20018	0.12476	0.090424	0.23953	0.41652	0.07559	0.1486	0.0063858	0.33543	0.043418	0.049901	0.51975	0.024435	0.21261	-2.625	-3.25	-3	-3.1729	-3.4458	-2.9	-3.4458	-3.1542	-3.0604	-3.4417	-3.2042	-3.025	-3.2708	-3.1292	-3.225	-3.4542	275.416	191.370	-16.848	-23.146	56.868	145.295	222.289	193.377	130.662	157.896	217.556	-12.011	165.952	243.549	222.558	257.238	0.00031912	0.00093967	0.00018709	926.57	3.2761e-06	1.0227e-05	899.32	381.35	2.4778e-06	4.0975e-06	447.57	160.58	145.58	65.905	3.4383e-06	98.925	0.0005041	0.00045491	0.00012709	841.94	4.952e-06	5.1566e-06	816.21	347.62	5.1643e-06	4.8988e-06	409.02	155.47	133.42	61.052	5.1386e-06	91.287	190.366	6.892	19.139	-67.621	65.098	52.490	-68.793	-62.882	64.830	56.418	-64.841	-61.287	-58.239	-54.638	68.016	-57.337	-8191	255	
2637.034	1	1	0	0	0.30907	0.23785	0.28097	0.020344	0.26659	0.16348	0.24483	0.16795	0.37464	0.032674	0.23064	0.15726	0.14557	0.46316	0.098972	0.22287	-2.5375	-3.2708	-2.9667	-3.3229	-3.2396	-3.0208	-3.2396	-3.3104	-2.9479	-3.375	-3.2854	-2.9729	-3.425	-3.1458	-3.1958	-3.4167	23.928	194.757	-31.013	-65.669	6.013	224.386	101.085	186.231	236.338	190.645	-70.683	65.391	253.635	215.711	-63.488	204.587	0.00032836	0.00075995	0.00023354	925.41	4.7247e-06	6.4933e-06	895.42	379.13	2.3128e-06	4.4351e-06	443.56	160.26	145.13	65.854	3.8995e-06	99.526	0.00049589	0.00042408	0.0001257	839.6	4.484e-06	4.8529e-06	816.26	347.31	4.8419e-06	4.6632e-06	408.1	155.38	133.53	61.081	5.2528e-06	91.732	188.083	-4.376	11.954	-67.059	51.168	76.621	-68.815	-62.732	53.194	66.909	-64.672	-61.333	-58.418	-54.516	72.559	-57.103	-8191	255	
2637.130	1	1	0	0	0.10837	0.25015	0.062471	0.14387	0.24934	0.16234	0.10936	0.24555	0.14712	0.09281	0.084661	0.41161	0.22068	0.29599	0.17098	0.20828	-2.6417	-3.2583	-3.0104	-3.0854	-3.2708	-2.9917	-3.1417	-3.3979	-2.7542	-3.3083	-3.1688	-2.9667	-3.4167	-3.1937	-3.0333	-3.5583	-25.298	230.376	40.319	245.845	120.582	14.438	263.544	231.641	41.872	19.507	171.051	171.651	5.481	218.357	40.116	252.819	0.00029417	0.00081418	0.0001415	922.21	2.6946e-06	6.0625e-06	892.71	378.07	4.4777e-06	5.7501e-06	443.33	158.64	145.14	65.725	2.6986e-06	98.435	0.00050549	0.00045023	0.00013168	839.24	4.6755e-06	4.9577e-06	814.31	346.54	4.7324e-06	4.9091e-06	405.39	153.95	133.02	60.927	5.0383e-06	90.839	191.508	10.595	20.026	-67.499	65.830	71.433	-68.835	-63.022	54.928	67.415	-64.939	-61.305	-58.094	-54.613	42.556	-57.220	-8191	255	
2637.226	1	1	0	0	0.07193	0.14063	0.11456	0.27471	0.1665	0.07566	0.29747	0.05048	0.40149	0.12863	0.11215	0.022033	0.22135	0.086557	0.17604	0.30478	-2.5333	-3.1854	-3.1688	-3.0417	-3.2583	-3.1167	-3.0604	-3.4542	-2.9292	-3.3688	-3.3	-2.9313	-3.3333	-3.1125	-2.7917	-3.45	258.418	-24.272	14.629	267.186	201.833	-49.503	274.073	219.417	-34.097	270.387	-69.452	34.231	-66.555	-79.048	7.916	268.632	0.00033855	0.00070392	0.00016234	920.95	3.6675e-06	6.5177e-06	882.42	374.56	4.967e-07	6.8619e-06	441.51	157.16	144.44	65.549	3.2437e-06	98.34	0.00049494	0.00045801	0.00012045	834.87	4.8662e-06	4.8369e-06	805.57	344.28	4.7831e-06	5.1304e-06	402.92	153.06	132.45	60.72	5.2334e-06	90.72	186.132	11.034	26.088	-67.468	32.423	96.465	-68.737	-62.709	-33.551	46.356	-65.043	-61.096	-57.887	-54.572	40.977	-57.486	-8191	255	
2637.347	1	1	0	0	0.034397	0.013993	0.21527	0.16699	0.24458	0.21111	0.4309	0.27902	0.048439	0.11975	0.1324	0.066166	0.20958	0.29855	0.025733	0.23914	-2.4292	-3.2021	-3.1542	-3.05	-3.2354	-2.975	-3.0833	-3.4833	-3.0208	-3.3458	-3.3042	-2.9167	-3.4458	-3.1292	-3.0458	-3.6229	153.300	45.552	204.571	212.242	17.393	192.785	233.001	-52.081	-68.478	-53.790	-55.989	174.514	221.958	240.161	77.001	203.848	0.00028059	0.00075273	0.00016456	922.64	2.232e-06	8.0139e-06	887.89	379.33	3.2125e-06	5.1304e-06	443.28	160.78	144.42	66.253	4.8076e-06	98.944	0.000507	0.00045737	0.00011732	834.83	4.7561e-06	4.8605e-06	810.12	346.46	5.1034e-06	4.7674e-06	405.85	154.97	133.19	61.251	5.1776e-06	91.532	182.190	-16.191	15.524	-67.434	76.866	79.268	-68.782	-62.952	43.856	41.592	-64.628	-61.599	-58.492	-54.910	58.657	-57.576	-8191	255	
2637.443	1	1	0	0	0.25207	0.28099	0.098863	0.20866	0.18173	0.17247	0.14638	0.16867	0.066754	0.11836	0.063484	0.027566	0.13039	0.27814	0.27776	0.29088	-2.6021	-3.0604	-3.1708	-2.975	-3.3187	-3.1396	-2.9417	-3.4771	-2.7979	-3.1375	-3.3271	-2.8542	-3.3917	-3.1854	-2.8937	-3.5208	-62.880	273.279	63.036	210.573	141.815	47.523	147.913	228.330	-57.251	-41.078	-56.554	-43.526	227.916	248.158	-41.416	227.918	0.00029514	0.00064981	0.00020684	919.93	3.2108e-06	7.5447e-06	895.09	380.24	3.2689e-06	5.6613e-06	447.93	162	146.13	66.344	4.9153e-06	99.962	0.00050426	0.00045476	0.00012287	838.88	4.7272e-06	4.8311e-06	816.57	348.2	4.8151e-06	5.0814e-06	410.12	155.74	134.19	61.456	5.1692e-06	92.119	186.906	3.292	25.918	-67.224	67.472	69.603	-68.507	-62.648	107.729	68.980	-64.902	-60.973	-58.403	-54.926	83.513	-57.443	-8191	255	
2637.539	1	1	0	0	0.15739	0.093634	0.098075	0.16336	0.15479	0.046059	0.46177	0.16343	0.22453	0.058261	0.15017	0.076268	0.20297	0.044495	0.15413	0.20827	-2.7417	-3.2604	-3.2417	-2.8354	-3.2854	-3.2146	-2.9646	-3.6792	-3.2167	-3.2	-3.4083	-3.0604	-3.1937	-3.1917	-2.8521	-3.5125	213.873	253.178	258.235	-77.538	1.174	216.593	197.579	165.916	5.151	139.429	-70.875	-61.017	-29.207	-21.559	171.642	261.359	0.00032922	0.00076029	0.00028781	927.92	3.1512e-06	5.1419e-06	892.54	380.77	3.0996e-06	8.3993e-06	447.37	158.29	145.48	66.141	4.341e-06	99.845	0.00050633	0.00044849	0.00012014	843.07	4.597e-06	4.9252e-06	815.4	349.16	5.0041e-06	4.8511e-06	407.87	154.66	133.95	61.448	5.2355e-06	91.844	187.711	7.588	21.107	-67.577	58.781	62.045	-68.606	-62.758	40.240	84.300	-64.735	-61.128	-58.482	-54.397	72.694	-57.260	-8191	255	
2637.635	1	1	0	0	0.023129	0.22385	0.11533	0.23083	0.1651	0.041032	0.14886	0.22915	0.10344	0.026779	0.25036	0.080097	0.1366	0.1916	0.15865	0.21004	-2.6	-3.1375	-3.3979	-3.0812	-3.1792	-3.2417	-3.0646	-3.4167	-3.0854	-2.8708	-3.5833	-2.8812	-3.1229	-3.4292	-2.9208	-3.3667	120.092	118.755	69.627	278.508	209.376	-2.085	-56.892	184.523	145.991	236.546	188.723	272.154	-26.811	-69.821	52.928	232.883	0.0002867	0.00053749	0.00010218	924.25	3.902e-06	7.4746e-06	887.11	380.21	2.5179e-06	6.9105e-06	445.57	160.12	145.58	66.47	3.7606e-06	99.354	0.00049938	0.00044956	0.00011904	839.52	4.75e-06	4.786e-06	807.24	347.7	4.9562e-06	5.0204e-06	405.73	154.39	133.77	61.475	5.1579e-06	91.68	185.929	31.187	-12.407	-67.357	74.742	73.861	-69.021	-62.688	67.536	89.331	-64.720	-60.819	-58.106	-54.640	65.777	-57.441	-8191	255	
2637.730	1	1	0	0	0.23758	0.22052	0.18558	0.12282	0.084533	0.25332	0.28107	0.20818	0.025055	0.2781	0.017783	0.19401	0.19391	0.24416	0.10356	0.29634	-2.5917	-2.9208	-3.3312	-3.2021	-3.2104	-3.4646	-2.9896	-3.3521	-3.15	-2.8167	-3.4146	-2.9542	-2.9979	-3.5312	-2.9792	-3.3563	215.086	161.993	-7.619	229.826	242.401	190.926	-30.022	210.791	119.635	57.219	233.613	92.407	201.626	269.751	7.849	248.357	0.00028136	0.00063411	0.00020624	924.26	3.4493e-06	9.5049e-06	886	378.89	1.8144e-06	8.4134e-06	447.05	161.2	145.48	66.45	3.6254e-06	99.686	0.00049663	0.00045825	0.00012141	839.08	4.8871e-06	5.104e-06	808.04	348.19	5.0499e-06	4.7514e-06	407.33	155.76	134.51	61.578	5.1218e-06	92.065	184.586	35.145	9.313	-67.093	78.078	70.966	-69.034	-62.836	19.049	88.418	-64.761	-61.383	-58.358	-54.629	52.961	-57.296	-8191	255	
2637.826	1	1	0	0	0.080423	0.15653	0.21371	0.10413	0.314	0.26586	0.12778	0.096732	0.1087	0.064351	0.30621	0.090898	0.21858	0.37406	0.23665	0.10721	-2.7812	-2.9083	-3.4042	-3.0729	-3.0125	-3.4792	-2.9938	-3.2792	-3.1979	-2.9292	-3.4146	-3.2146	-2.9729	-3.3479	-2.8583	-3.2896	18.443	267.742	15.434	197.418	7.332	209.880	197.308	242.491	94.674	119.101	221.313	255.022	46.537	-53.292	244.852	187.268	0.00027924	0.0005649	0.00024786	926.36	4.1962e-06	5.9312e-06	890.95	380.88	4.9251e-06	4.0984e-06	448.97	161.57	146.63	66.367	5.0681e-06	99.973	0.00049868	0.00046583	0.00012006	840.91	4.8931e-06	5.0264e-06	813.4	349.29	5.0442e-06	4.9968e-06	408.86	156.41	134.46	61.775	5.2821e-06	92.342	191.528	-5.441	-9.611	-67.499	61.431	43.691	-68.854	-62.588	85.147	74.772	-64.924	-61.515	-58.408	-54.379	53.095	-57.200	-8191	255	
2637.922	1	1	0	0	0.27118	0.15936	0.16898	0.068396	0.016806	0.22502	0.39988	0.33625	0.34655	0.24382	0.11972	0.019851	0.042925	0.2214	0.068168	0.22715	-2.9625	-2.8708	-3.225	-3.2208	-2.9062	-3.4979	-3.0771	-3.3333	-3.3229	-2.9146	-3.3375	-3.2083	-3.0708	-3.3833	-2.9354	-3.2646	165.052	125.999	115.612	274.698	96.525	198.275	250.917	251.728	86.393	273.037	209.897	-37.639	-10.166	250.451	265.419	151.075	0.00028629	0.00068824	0.00024977	923.58	3.5763e-06	6.8267e-06	891.5	378.52	4.5469e-06	6.0525e-06	440.17	159.62	145.72	66.109	3.9149e-06	98.737	0.00049222	0.00045535	0.00012598	839.09	4.8322e-06	4.6852e-06	811.44	346.75	4.8561e-06	4.877e-06	404.03	154.43	133.57	61.091	5.0479e-06	91.31	189.905	-1.486	25.298	-66.880	101.303	51.286	-68.787	-62.787	50.579	106.423	-64.801	-60.483	-57.872	-54.594	56.994	-57.372	-8191	255	
2638.043	1	1	0	0	0.24146	0.29416	0.10811	0.19148	0.13718	0.065428	0.49193	0.27858	0.23527	0.31271	0.092877	0.24138	0.21452	0.3584	0.22966	0.27934	-2.9708	-2.7083	-3.1896	-3.2542	-2.8917	-3.4042	-3.1354	-3.1771	-3.4792	-2.7125	-3.2833	-3.2854	-2.9688	-3.3187	-2.9521	-3.2167	-35.692	265.590	168.443	242.090	222.783	155.505	236.157	272.458	81.750	219.453	206.522	108.349	239.605	230.475	-78.135	152.625	0.00031982	0.00048932	0.00017967	907.95	2.4034e-06	6.6738e-06	884.28	374.92	3.5896e-06	9.8098e-06	440.53	157.53	145.48	65.639	7.4981e-06	98.856	0.0004957	0.00043587	0.00013046	829.91	4.6847e-06	5.0028e-06	806.24	344.11	4.8565e-06	4.7875e-06	402.21	153.07	133.01	61.032	5.1382e-06	91.256	185.978	-2.284	29.700	-67.238	89.532	54.863	-68.683	-62.503	37.922	79.100	-64.775	-60.995	-58.673	-54.789	39.541	-57.532	-8191	255	
2638.139	1	1	0	0	0.14477	0.14683	0.063616	0.15	0.071548	0.088007	0.21269	0.055966	0.086886	0.12973	0.11271	0.22848	0.21116	0.35974	0.18109	0.24948	-2.9688	-2.9479	-3.1354	-3.3792	-2.9083	-3.3312	-3.3604	-2.9979	-3.3833	-3.1417	-3.2104	-3.2458	-2.9104	-3.4188	-3.1729	-3.3187	171.068	-21.462	46.954	-41.707	33.405	86.748	190.715	213.583	126.942	-23.092	119.742	196.359	184.488	-59.920	27.333	241.881	0.00026247	0.00084322	0.00022837	915.24	4.2325e-06	9.0454e-06	889.72	375.37	1.4364e-06	6.9661e-06	444.49	156.6	145.75	66.256	5.0671e-06	99.465	0.00049663	0.00044245	0.00013094	832.84	4.7785e-06	5.1004e-06	812.14	345.03	4.6176e-06	4.9313e-06	406.35	153.5	133.71	61.342	5.0609e-06	91.983	189.792	4.242	14.270	-67.380	89.950	65.426	-68.633	-62.746	93.629	65.840	-64.626	-61.750	-58.514	-54.945	68.536	-57.432	-8191	255	
2638.235	1	1	0	0	0.16293	0.19625	0.12431	0.37926	0.14636	0.24703	0.2816	0.22406	0.223	0.20083	0.076062	0.16223	0.11497	0.22212	0.14869	0.10293	-3.1229	-3.05	-2.9396	-3.3312	-2.75	-3.4208	-3.3583	-3.1208	-3.4021	-3.1625	-3.2375	-3.3625	-3.0146	-3.2667	-3.1208	-3.1708	238.974	4.875	157.650	222.029	101.172	185.086	194.700	202.757	105.960	78.782	227.013	191.428	22.826	-75.833	23.195	-47.922	0.00028193	0.00067127	0.00025554	923.1	4.7428e-06	7.9325e-06	899.24	378.37	4.7204e-06	7.8168e-06	447.46	160.91	145.67	66.54	1.8224e-06	100.85	0.00048494	0.00044861	0.00012572	838.46	4.8947e-06	5.0353e-06	817.9	347.43	5.0309e-06	4.9803e-06	408.98	155.65	133.81	61.652	5.0597e-06	92.707	183.884	1.787	13.189	-67.186	75.992	64.521	-68.596	-62.528	41.048	53.944	-64.850	-61.075	-58.038	-54.563	105.029	-57.549	-8191	255	
2638.306	1	1	0	0	0.31088	0.057548	0.15571	0.058144	0.1229	0.14684	0.36441	0.1143	0.05259	0.1301	0.17492	0.13716	0.02971	0.14229	0.25717	0.24426	-2.8729	-3.0187	-3.0646	-3.45	-2.9958	-3.2667	-3.325	-3.1208	-3.4875	-3.0854	-3.0333	-3.3083	-3.1083	-3.3396	-3.2438	-3.0375	-17.293	117.229	208.182	-74.352	7.356	77.467	81.577	80.168	136.816	101.755	223.458	188.047	189.396	260.175	43.699	182.510	0.00031142	0.00063077	0.00016542	922.79	3.7931e-06	1.1714e-05	896.61	380.43	1.4375e-06	8.8509e-06	448.25	160.32	145.09	66.257	1.2207e-06	99.73	0.00050126	0.00045932	0.00012644	839.74	4.6038e-06	4.7985e-06	816.73	347.93	4.9996e-06	5.1625e-06	407.67	155.34	133.5	61.351	5.2775e-06	91.859	184.610	-27.200	30.292	-67.432	54.758	67.337	-68.560	-62.584	59.645	48.793	-64.976	-61.440	-58.150	-54.462	84.181	-57.210	-8191	255	
2638.427	1	1	0	0	0.17619	0.19978	0.24505	0.16814	0.22872	0.11623	0.20315	0.074212	0.024212	0.086656	0.23766	0.077796	0.11094	0.22801	0.15971	0.082816	-2.9958	-2.9417	-2.8667	-3.3979	-3	-3.2854	-3.2583	-2.9625	-3.175	-2.9958	-3.2604	-3.2833	-3.1125	-3.2167	-3.4	-3.2229	217.901	51.766	88.865	-64.563	252.492	-21.015	45.699	244.117	50.210	-14.315	201.570	147.770	277.429	259.534	56.019	228.984	0.0002927	0.00077703	0.00015759	914.81	5.674e-06	7.0995e-06	885.96	377.74	6.3036e-06	5.3268e-06	442.5	160.43	145.44	66.043	4.0549e-06	99.628	0.00048764	0.00043297	0.00012468	832.63	5.0818e-06	4.9149e-06	808.15	345.72	5.0077e-06	4.9193e-06	404.69	154.22	133.31	61.202	5.1965e-06	91.741	183.376	8.512	25.482	-67.254	81.250	63.076	-68.403	-62.594	51.923	70.461	-64.786	-60.986	-58.183	-54.612	78.881	-57.429	-8191	255	
2638.523	1	1	0	0	0.10594	0.11083	0.1122	0.2135	0.33718	0.079514	0.27227	0.30456	0.23787	0.23804	0.095028	0.21523	0.1498	0.088985	0.27852	0.2283	-2.9021	-3.0438	-3.0146	-3.4146	-3.0833	-3.0896	-3.3771	-3.1021	-3.1625	-3.3458	-3.075	-3.3875	-3.0917	-3.2042	-3.3396	-3.0062	-77.993	40.144	130.815	271.531	76.902	271.162	150.015	-70.978	-45.436	28.454	48.721	236.555	-37.718	148.805	42.604	108.318	0.00031149	0.00088071	0.00016184	913.91	1.4164e-06	7.2339e-06	889.62	378.91	4.5664e-06	9.6826e-06	445.68	160.22	145.8	66.259	5.4867e-06	100.07	0.00049061	0.00044924	0.00013025	832.99	4.6639e-06	5.0135e-06	810.95	347	4.9712e-06	5.0801e-06	407.26	155.27	133.99	61.481	5.241e-06	92.338	190.602	-15.949	19.272	-67.335	109.014	68.450	-68.528	-62.624	77.964	78.191	-64.840	-60.629	-58.398	-54.648	74.409	-57.165	-8191	255	
2638.619	1	1	0	0	0.29587	0.10397	0.19669	0.16942	0.18094	0.087394	0.31882	0.33774	0.11286	0.13311	0.1998	0.25111	0.22345	0.12557	0.12216	0.051236	-2.85	-3.2042	-2.7042	-3.3917	-3.0396	-2.8937	-3.3521	-3.1271	-3.0833	-3.2979	-3.0229	-3.2812	-3.3521	-3.2458	-3.3958	-3.1188	48.297	234.747	144.881	209.983	273.427	-25.155	273.346	229.924	108.287	148.990	-39.936	140.790	177.178	-67.048	220.791	-29.326	0.00029297	0.00059092	0.00024103	923.39	5.4474e-06	8.2082e-06	900.64	380.77	2.6273e-06	4.8343e-06	448.73	161.58	147.16	67.404	6.1399e-06	101.34	0.00049824	0.00047726	0.00012861	839.23	4.9067e-06	4.8596e-06	820.85	348.89	5.3066e-06	4.9491e-06	410.18	156.58	135.07	62.266	5.1894e-06	93.539	189.157	29.223	11.602	-67.255	72.962	74.514	-68.739	-62.988	100.632	77.329	-64.800	-61.360	-58.382	-54.624	103.183	-57.400	-8191	255	
2638.740	1	1	0	0	0.23541	0.16426	0.061938	0.29351	0.098559	0.13185	0.20241	0.17766	0.24359	0.20864	0.3923	0.1499	0.20381	0.25026	0.14589	0.11278	-2.5938	-3.2542	-2.8729	-3.3146	-3.1396	-3.0292	-3.4167	-3.1188	-3.2438	-3.4042	-3.0521	-3.2354	-3.1375	-3.0021	-3.3125	-3.0729	63.498	212.812	152.788	229.055	-53.491	60.980	107.793	198.110	64.456	153.821	207.803	-37.540	-31.372	232.247	139.304	77.652	0.00031042	0.00049311	0.00023524	928.2	3.958e-06	6.1612e-06	907.48	381.73	3.6015e-06	6.1167e-06	446.92	163.51	145.78	66.896	5.5927e-06	100.85	0.00050733	0.00046761	0.00012814	844.53	5.1127e-06	5.1646e-06	824.19	350.42	5.3334e-06	4.9514e-06	410.52	157.75	134.74	61.893	5.3178e-06	92.876	185.458	0.202	7.714	-67.192	74.129	72.219	-68.759	-62.712	39.619	66.268	-64.688	-61.193	-58.365	-54.738	75.592	-57.620	-8191	255	
2638.834	1	1	0	0	0.094002	0.23297	0.13208	0.094716	0.047562	0.094941	0.28906	0.31749	0.065502	0.12158	0.15565	0.17336	0.28336	0.15411	0.22275	0.092085	-2.5563	-3.2396	-2.8167	-3.3646	-3.3417	-2.8563	-3.5125	-3.1521	-2.9667	-3.3896	-2.9125	-3.3042	-3.2562	-2.8771	-3.3854	-3.1271	-46.192	17.556	-55.207	-57.989	-0.255	153.007	181.385	263.436	-39.018	123.393	154.770	189.835	140.651	275.090	160.392	-75.970	0.0002765	0.00085881	0.00021269	920.4	3.4862e-06	6.8981e-06	893.78	378.49	5.469e-06	4.8169e-06	448.07	161.7	146.25	66.284	3.6609e-06	99.915	0.00050007	0.00046329	0.00012487	836.63	4.8979e-06	5.1205e-06	814.73	347.41	5.2839e-06	5.0846e-06	407.92	155.64	133.98	61.452	5.0781e-06	92.238	186.553	8.923	21.229	-67.157	98.953	74.115	-68.764	-62.467	67.582	89.737	-64.964	-61.628	-58.604	-54.851	69.211	-57.491	-8191	255	
2638.908	1	1	0	0	0.26074	0.13781	0.30892	0.31092	0.16963	0.2204	0.24181	0.079332	0.16892	0.13894	0.23218	0.17413	0.0048657	0.38474	0.12597	0.24926	-2.7271	-3.2687	-2.8333	-3.0958	-3.2521	-2.95	-3.3958	-3.0208	-3.1292	-3.375	-3.1125	-3.2958	-3.3646	-2.9104	-3.4313	-3.2833	276.710	-16.533	226.762	256.813	-16.163	147.143	-54.515	23.016	-74.404	69.717	220.802	213.095	172.000	278.168	253.599	194.835	0.00028826	0.00084368	0.0002658	918.76	3.9371e-06	9.2283e-06	892.71	381.99	3.1992e-06	6.9777e-06	448.03	159.79	145.96	66.678	1.63e-06	100.35	0.00049817	0.00045638	0.00013385	835.37	4.9636e-06	4.8507e-06	814.15	348.83	4.9299e-06	4.8347e-06	409.26	155.39	134.18	61.595	5.1134e-06	92.53	184.008	7.401	7.829	-67.315	87.242	72.611	-68.660	-62.669	71.570	92.681	-64.849	-61.916	-58.572	-54.825	70.957	-57.376	-8191	255	
2639.027	1	1	0	0	0.13708	0.13221	0.065277	0.14813	0.071015	0.092981	0.2213	0.066844	0.20629	0.069061	0.1685	0.15675	0.18216	0.29855	0.086766	0.29835	-2.5583	-3.3854	-2.9667	-3.1208	-3.2583	-2.8937	-3.4979	-3.2646	-3.0167	-3.225	-3.1292	-3.1271	-3.3917	-2.9604	-3.3896	-3.3229	37.130	67.352	131.236	186.072	177.721	-52.993	216.464	217.986	159.490	-26.179	-52.226	146.302	-28.225	184.658	66.822	223.276	0.00033346	0.00086843	0.00019581	921.59	4.7223e-06	6.2423e-06	899.74	381.38	2.7469e-06	7.4567e-06	449.41	161.81	147.11	66.454	4.5649e-06	100.76	0.00051565	0.00045261	0.00012643	836.79	4.8963e-06	5.1071e-06	818.46	348.61	5.1083e-06	4.9269e-06	410.35	156.59	134.64	61.67	5.0945e-06	92.959	180.511	8.209	32.048	-67.334	43.847	60.564	-68.606	-62.533	79.464	42.889	-64.551	-60.927	-58.062	-54.547	88.868	-57.577	-8191	255	
2639.123	1	1	0	0	0.27783	0.088888	0.060099	0.4017	0.078259	0.057896	0.25073	0.28073	0.07741	0.11958	0.2605	0.24096	0.10512	0.2192	0.074105	0.17362	-2.4625	-3.2396	-3.1979	-3.1021	-3.3604	-3.0021	-3.3292	-3.3708	-2.9875	-3.3958	-3.1354	-3.1229	-3.4042	-3.0729	-3.0917	-3.5208	272.590	255.201	269.650	256.891	47.007	123.857	74.913	260.735	181.868	184.229	181.419	222.414	272.233	255.897	-37.252	59.294	0.00028126	0.00036354	0.00013029	923.26	3.9046e-06	8.8922e-06	905.13	382.41	3.3009e-06	7.762e-06	449.81	161.43	145.52	66.948	2.9075e-06	100.56	0.00051737	0.00046372	0.00012198	837.61	4.8434e-06	4.8694e-06	823.16	350.26	5.0094e-06	4.9776e-06	411.2	156.43	134.46	61.827	5.3581e-06	92.95	183.561	-1.285	-3.875	-67.467	95.502	71.976	-68.597	-62.674	4.033	90.476	-65.066	-61.326	-58.279	-54.685	92.546	-57.463	-8191	255	
2639.219	1	1	0	0	0.11687	0.28134	0.28505	0.34582	0.13583	0.074826	0.048522	0.069402	0.22621	0.11021	0.32353	0.13202	0.019625	0.42311	0.12953	0.16947	-2.4938	-3.3917	-2.9896	-2.9333	-3.4729	-2.9521	-3.3146	-3.2479	-2.8083	-3.2271	-3.2042	-2.8917	-3.2625	-3.2229	-3.0646	-3.4083	89.682	80.524	138.279	256.539	219.544	160.466	175.888	258.489	161.843	69.105	243.337	6.998	-34.102	241.214	216.893	-75.875	0.00027635	0.0005132	0.00011653	915.34	2.7576e-06	3.7754e-06	887.39	379.08	3.6915e-06	1.5877e-06	447.95	158.57	145.64	66.472	3.0622e-06	100.32	0.00051493	0.00047063	0.0001338	831.81	4.7529e-06	4.8369e-06	810.35	346.97	5.0828e-06	5.0801e-06	407.69	154.48	133.76	61.461	5.523e-06	92.397	181.701	7.845	-7.465	-67.818	63.415	69.558	-68.654	-62.598	46.024	108.434	-64.892	-61.168	-58.479	-54.457	89.998	-57.429	-8191	255	
2639.340	1	1	0	0	0.44724	0.023621	0.15211	0.18672	0.20455	0.16489	0.13558	0.24759	0.17952	0.099509	0.082072	0.3089	0.33044	0.18305	0.027305	0.32704	-2.4271	-3.3083	-3.0646	-3.0062	-3.2708	-3.2062	-3.1292	-3.3479	-2.9396	-3.1896	-3.2792	-3.0125	-3.4188	-3.1104	-2.9792	-3.5104	83.468	249.473	69.246	228.753	161.876	35.149	164.263	246.512	21.992	-2.530	75.062	116.511	-55.202	247.850	-44.107	274.009	0.00028553	0.00078896	0.00024078	914.94	4.6534e-06	6.588e-06	892.98	381.21	5.1077e-06	7.7425e-06	450.19	164.14	147.49	66.772	4.3267e-06	100.45	0.00050549	0.00047666	0.00012746	831.21	4.9989e-06	5.2271e-06	813.27	347.43	5.1549e-06	4.897e-06	409.65	156.86	134.91	61.842	5.4643e-06	92.896	183.838	-4.622	6.895	-67.280	61.842	73.283	-68.598	-62.889	55.977	72.657	-64.896	-61.355	-58.317	-54.783	51.999	-57.412	-8191	255	
2639.436	1	1	0	0	0.24287	0.086428	0.17929	0.1797	0.10322	0.068772	0.030401	0.17541	0.14954	0.20365	0.28622	0.23467	0.18689	0.24918	0.13051	0.089638	-2.4292	-3.1437	-3.0625	-2.9896	-3.4188	-3.1458	-3.0875	-3.3312	-2.9729	-3.2	-3.3292	-2.8979	-3.2292	-3.2083	-2.8333	-3.3792	191.181	253.747	93.987	-49.129	218.681	259.901	76.562	257.288	112.144	207.574	202.563	221.145	-56.920	254.467	-28.373	196.011	0.00030993	0.00088916	0.00014911	920.73	5.5324e-06	7.9532e-06	899.33	383.35	4.3154e-06	8.069e-06	450.44	163.06	146.39	66.775	3.0152e-06	100.86	0.00051275	0.00044611	0.00012933	834.97	5.0518e-06	5.1655e-06	817.42	349.32	5.0013e-06	4.7594e-06	411.52	156.71	134.66	61.708	5.131e-06	93.142	186.808	9.537	42.877	-67.266	84.253	65.933	-68.807	-62.673	87.814	64.779	-64.881	-61.361	-58.033	-54.725	77.761	-57.390	-8191	255	
2639.508	1	1	0	0	0.10655	0.18959	0.19776	0.21473	0.23777	0.1617	0.18277	0.33872	0.047246	0.13439	0.061867	0.15957	0.13147	0.31158	0.12928	0.21851	-2.4917	-3.0021	-3.1396	-2.9125	-3.2167	-3.1333	-2.8	-3.5187	-2.8208	-3.2396	-3.4354	-2.7729	-3.3583	-3.2646	-3.0292	-3.5479	125.143	-75.571	125.770	261.083	221.752	196.899	160.290	188.694	150.115	170.163	11.977	-50.775	0.159	192.469	28.310	257.182	0.00029485	0.00044973	0.00022589	917.22	4.2437e-06	5.4998e-06	899.72	382.36	2.7513e-06	7.8452e-06	452.69	160.39	146.5	66.188	2.7396e-06	100.34	0.00050456	0.00046194	0.00012602	835.95	4.6146e-06	4.9613e-06	820.12	348.48	5.043e-06	5.1558e-06	412.95	156.22	134.4	61.304	5.2851e-06	92.708	187.703	-24.918	20.270	-67.281	57.147	74.261	-68.865	-62.693	51.744	76.800	-65.291	-60.747	-58.306	-54.668	18.245	-57.457	-8191	255	
2639.604	1	1	0	0	0.072958	0.18304	0.1406	0.30072	0.10234	0.060642	0.44723	0.26346	0.092699	0.090642	0.28428	0.10124	0.15693	0.25718	0.038864	0.22989	-2.5187	-2.95	-3.1437	-2.9021	-3.0521	-3.3792	-2.9396	-3.4854	-2.9604	-3.125	-3.5458	-3.0104	-3.1125	-3.3333	-2.9729	-3.5312	99.909	185.606	276.976	220.944	-17.544	172.517	198.748	267.351	193.699	-13.096	137.690	109.960	261.432	270.674	246.937	248.772	0.0002725	0.00068723	0.00013268	917.48	4.499e-06	9.1376e-06	898.17	375.91	3.1824e-06	8.4122e-06	448.59	158.14	144.95	65.938	5.6096e-06	99.296	0.00049801	0.00046182	0.00012641	833.76	4.6563e-06	5.1526e-06	814.6	345.71	5.0296e-06	5.1759e-06	409.27	155.62	133.01	60.964	5.1319e-06	91.581	191.523	4.047	13.406	-67.380	113.881	74.118	-68.897	-62.477	22.442	80.327	-64.800	-60.842	-58.135	-54.320	58.734	-57.104	-8191	255	
#DATA ENDS
