BOXY.EXE: ISS Imagent and Oximeter Data Acquisition Program Version 0.80
Ascii Record File

#ACQ INFORMATION
2  Detector Channels 
16  External MUX Channels 
1  Auxiliary Channels 
5000  Waveform (CCF) Frequency (Hz)
1  Waveforms Skipped 
30  Waveforms Averaged 
1  Cycles Averaged 
16  Acquisitions per Waveform 
10.0806  Updata Rate (Hz) 

#FILE INFORMATION
TRUE -- External MUX Channel results are PARSED.
FALSE -- AC DC and Phase are NOT grouped.
TRUE -- Companion Program Settings File CREATED.
FALSE -- AC data not excluded
FALSE -- DC data not excluded
FALSE -- Phase data not excluded
FALSE -- Auxillary Chn. data not excluded
Tab delimiters

#CALIBRATION STATE
TRUE -- Waveform Calibration Values APPLIED.


#AUX CALIBRATION VALUES
Val Type	aux-1	

Term	1.0000e+00	
Factor	0.0000e+00	


#WF CALIBRATION VALUES
A = Detector Channel
Val Type	A-AC1	A-AC2	A-AC3	A-AC4	A-AC5	A-AC6	A-AC7	A-AC8	A-AC9	A-AC10	A-AC11	A-AC12	A-AC13	A-AC14	A-AC15	A-AC16	A-DC1	A-DC2	A-DC3	A-DC4	A-DC5	A-DC6	A-DC7	A-DC8	A-DC9	A-DC10	A-DC11	A-DC12	A-DC13	A-DC14	A-DC15	A-DC16	A-Ph1	A-Ph2	A-Ph3	A-Ph4	A-Ph5	A-Ph6	A-Ph7	A-Ph8	A-Ph9	A-Ph10	A-Ph11	A-Ph12	A-Ph13	A-Ph14	A-Ph15	A-Ph16	

Term	0.00000e+00	0.00000e+00	0.00000e+00	0.00000e+00	0.00000e+00	0.00000e+00	0.00000e+00	0.00000e+00	0.00000e+00	0.00000e+00	0.00000e+00	0.00000e+00	0.00000e+00	0.00000e+00	0.00000e+00	0.00000e+00	0.00000e+00	0.00000e+00	0.00000e+00	0.00000e+00	0.00000e+00	0.00000e+00	0.00000e+00	0.00000e+00	0.00000e+00	0.00000e+00	0.00000e+00	0.00000e+00	0.00000e+00	0.00000e+00	0.00000e+00	0.00000e+00	0.00000e+00	0.00000e+00	0.00000e+00	0.00000e+00	0.00000e+00	0.00000e+00	0.00000e+00	0.00000e+00	0.00000e+00	0.00000e+00	0.00000e+00	0.00000e+00	0.00000e+00	0.00000e+00	0.00000e+00	0.00000e+00	
Factor	1.00000e+00	1.00000e+00	1.00000e+00	1.00000e+00	1.00000e+00	1.00000e+00	1.00000e+00	1.00000e+00	1.00000e+00	1.00000e+00	1.00000e+00	1.00000e+00	1.00000e+00	1.00000e+00	1.00000e+00	1.00000e+00	1.00000e+00	1.00000e+00	1.00000e+00	1.00000e+00	1.00000e+00	1.00000e+00	1.00000e+00	1.00000e+00	1.00000e+00	1.00000e+00	1.00000e+00	1.00000e+00	1.00000e+00	1.00000e+00	1.00000e+00	1.00000e+00	X	X	X	X	X	X	X	X	X	X	X	X	X	X	X	X	

B = Detector Channel
Val Type	B-AC1	B-AC2	B-AC3	B-AC4	B-AC5	B-AC6	B-AC7	B-AC8	B-AC9	B-AC10	B-AC11	B-AC12	B-AC13	B-AC14	B-AC15	B-AC16	B-DC1	B-DC2	B-DC3	B-DC4	B-DC5	B-DC6	B-DC7	B-DC8	B-DC9	B-DC10	B-DC11	B-DC12	B-DC13	B-DC14	B-DC15	B-DC16	B-Ph1	B-Ph2	B-Ph3	B-Ph4	B-Ph5	B-Ph6	B-Ph7	B-Ph8	B-Ph9	B-Ph10	B-Ph11	B-Ph12	B-Ph13	B-Ph14	B-Ph15	B-Ph16	

Term	0.00000e+00	0.00000e+00	0.00000e+00	0.00000e+00	0.00000e+00	0.00000e+00	0.00000e+00	0.00000e+00	0.00000e+00	0.00000e+00	0.00000e+00	0.00000e+00	0.00000e+00	0.00000e+00	0.00000e+00	0.00000e+00	0.00000e+00	0.00000e+00	0.00000e+00	0.00000e+00	0.00000e+00	0.00000e+00	0.00000e+00	0.00000e+00	0.00000e+00	0.00000e+00	0.00000e+00	0.00000e+00	0.00000e+00	0.00000e+00	0.00000e+00	0.00000e+00	-1.23800e+02	-1.29605e+02	-1.18317e+02	-1.81384e+02	-6.66720e+01	-6.49322e+01	-1.54429e+02	-1.62015e+02	-6.47790e+01	-5.86214e+01	-1.69550e+02	-1.78216e+02	-1.82278e+02	-1.75921e+02	-6.55031e+01	-1.48295e+02	
Factor	1.82523e-05	2.02462e-04	5.46020e-05	1.59639e-01	1.48313e-06	2.22676e-06	1.61345e-01	6.10527e-02	1.51134e-06	2.21112e-06	9.03854e-02	2.02187e-01	4.85540e-02	9.32913e-03	1.59883e-06	1.33881e-02	1.11608e-05	1.90474e-05	5.34503e-06	8.05254e-02	1.92326e-07	2.14060e-07	7.69818e-02	3.09569e-02	1.94649e-07	2.13805e-07	4.45233e-02	1.01031e-01	2.48173e-02	4.77762e-03	2.01464e-07	6.64615e-03	X	X	X	X	X	X	X	X	X	X	X	X	X	X	X	X	



#DISTANCE SETTINGS
A = Detector Channel
A-1	A-2	A-3	A-4	A-5	A-6	A-7	A-8	A-9	A-10	A-11	A-12	A-13	A-14	A-15	A-16	

2.5000e+00	3.0000e+00	2.5000e+00	3.0000e+00	2.0000e+00	3.0000e+00	1.5000e+00	3.0000e+00	3.0000e+00	3.0000e+00	3.0000e+00	3.0000e+00	3.0000e+00	3.0000e+00	1.5000e+00	3.0000e+00	

B = Detector Channel
B-1	B-2	B-3	B-4	B-5	B-6	B-7	B-8	B-9	B-10	B-11	B-12	B-13	B-14	B-15	B-16	

1.0000e+01	1.0000e+01	1.0000e+01	1.4400e+00	1.0000e+01	1.0000e+01	1.5100e+00	1.9400e+00	1.0000e+01	1.0000e+01	1.9900e+00	2.4900e+00	2.4100e+00	2.9000e+00	1.0000e+01	2.9800e+00	




#DATA BEGINS
time	group	step	mark	flag	A-AC1	A-AC2	A-AC3	A-AC4	A-AC5	A-AC6	A-AC7	A-AC8	A-AC9	A-AC10	A-AC11	A-AC12	A-AC13	A-AC14	A-AC15	A-AC16	A-DC1	A-DC2	A-DC3	A-DC4	A-DC5	A-DC6	A-DC7	A-DC8	A-DC9	A-DC10	A-DC11	A-DC12	A-DC13	A-DC14	A-DC15	A-DC16	A-Ph1	A-Ph2	A-Ph3	A-Ph4	A-Ph5	A-Ph6	A-Ph7	A-Ph8	A-Ph9	A-Ph10	A-Ph11	A-Ph12	A-Ph13	A-Ph14	A-Ph15	A-Ph16	B-AC1	B-AC2	B-AC3	B-AC4	B-AC5	B-AC6	B-AC7	B-AC8	B-AC9	B-AC10	B-AC11	B-AC12	B-AC13	B-AC14	B-AC15	B-AC16	B-DC1	B-DC2	B-DC3	B-DC4	B-DC5	B-DC6	B-DC7	B-DC8	B-DC9	B-DC10	B-DC11	B-DC12	B-DC13	B-DC14	B-DC15	B-DC16	B-Ph1	B-Ph2	B-Ph3	B-Ph4	B-Ph5	B-Ph6	B-Ph7	B-Ph8	B-Ph9	B-Ph10	B-Ph11	B-Ph12	B-Ph13	B-Ph14	B-Ph15	B-Ph16	aux-1	digaux	

2751.996	1	1	0	256	0.15659	0.20566	0.36557	0.22445	0.12461	0.16099	0.071557	0.26714	0.12772	0.17176	0.038995	0.12186	0.12311	0.29841	0.12349	0.15544	-2.3875	-3.0979	-2.4792	-2.9854	-3.0958	-2.5792	-2.8792	-3.0083	-2.6813	-3.0458	-2.9021	-2.9333	-3.0917	-2.5083	-3.05	-3.0187	266.597	25.859	-76.001	123.771	117.562	111.624	196.213	203.259	81.276	-46.699	129.203	107.613	160.440	-42.255	169.225	173.607	0.00018405	0.0004691	7.3665e-05	625.02	2.2934e-06	3.9469e-06	688.17	216.27	1.8964e-06	4.1253e-06	292.66	98.005	81.63	27.925	1.6373e-06	48.232	0.0001846	9.2578e-05	2.3863e-05	604.75	1.0554e-06	9.548e-07	668.57	211.74	1.174e-06	7.7415e-07	285.48	100.5	79.534	27.627	1.0375e-06	47.614	193.755	0.927	21.314	-76.252	36.838	52.075	-76.972	-70.804	36.819	54.931	-72.527	-68.827	-65.704	-61.688	54.483	-64.129	-8191	255	
2752.092	1	1	0	0	0.21992	0.073176	0.17526	0.058294	0.053045	0.13379	0.23391	0.23235	0.19425	0.12992	0.27161	0.066114	0.26472	0.1752	0.16163	0.12938	-2.2833	-3.1083	-2.725	-2.7438	-3.0396	-2.7167	-3.0042	-3.1104	-2.55	-2.9021	-2.7646	-2.7146	-3.0917	-2.7708	-3	-2.9875	265.842	167.136	81.013	32.344	151.496	74.928	147.820	246.745	263.848	-33.021	196.748	97.210	81.427	129.803	154.918	134.959	0.00017215	0.0002991	0.00010983	623.52	2.6843e-06	2.9627e-06	681.1	214.06	1.3183e-06	4.0371e-06	289.8	97.923	80.683	27.666	2.0454e-06	47.945	0.00018043	8.7261e-05	2.4242e-05	601.51	9.9368e-07	9.655e-07	664.19	210.09	1.1229e-06	8.2582e-07	282.46	99.567	78.95	27.449	9.3597e-07	47.077	191.874	-5.456	8.887	-76.220	51.732	61.462	-76.965	-70.568	43.068	59.865	-72.422	-68.526	-65.769	-61.791	48.280	-64.133	-8191	255	
2752.189	1	1	0	0	0.12563	0.10537	0.10547	0.0412	0.21278	0.24408	0.14963	0.16885	0.14467	0.023876	0.20771	0.066201	0.088632	0.27495	0.30248	0.10209	-2.175	-2.9813	-2.8146	-2.8083	-3.0292	-2.8438	-2.9813	-3.1479	-2.5833	-3.0917	-2.7292	-2.7125	-3.0833	-2.6917	-2.7917	-3.2396	185.109	-27.611	-49.023	134.524	98.535	149.926	253.196	194.393	242.648	147.452	103.767	-1.929	-56.238	202.028	88.961	-46.028	0.00015631	0.00033765	0.00011269	618.66	2.3504e-06	3.7547e-06	676.29	213.56	1.5866e-06	4.2688e-06	288.16	96.758	79.543	27.686	2.9473e-06	47.748	0.0001839	7.992e-05	2.3284e-05	600.03	1.0013e-06	8.8523e-07	658.25	208.91	1.1221e-06	8.2939e-07	280.89	98.688	78.184	27.351	1.0489e-06	46.805	193.122	0.728	8.261	-76.232	73.353	65.494	-77.315	-70.506	39.288	63.061	-72.405	-67.947	-65.923	-62.145	43.797	-63.964	-8191	255	
2752.285	1	1	0	0	0.16086	0.1156	0.077776	0.28773	0.20247	0.071647	0.17569	0.056333	0.10576	0.20249	0.12209	0.13829	0.17264	0.17272	0.13803	0.08814	-2.0917	-2.9583	-3.0563	-2.6979	-3.0083	-2.8854	-2.8583	-3.3917	-2.7542	-3.1063	-3.1063	-2.7188	-3.125	-2.6854	-2.7125	-3.0979	218.027	163.735	210.998	113.802	-79.316	-47.564	247.650	219.227	-83.651	136.698	-79.588	111.985	-71.167	257.717	72.918	146.610	0.00016475	0.00047055	8.5585e-05	620.04	2.3047e-06	3.2274e-06	679.54	213.86	1.5777e-06	4.051e-06	288.74	96.04	81.131	27.727	2.7321e-06	47.84	0.00018913	8.2539e-05	2.2794e-05	598.47	9.9449e-07	9.9538e-07	659.23	208.94	1.2149e-06	8.4364e-07	280.48	98.458	78.829	27.373	1.124e-06	47.096	188.300	-4.386	-8.429	-76.197	36.023	41.650	-77.112	-70.379	36.863	59.419	-72.279	-68.513	-65.622	-61.594	57.442	-64.005	-8191	255	
2752.381	1	1	0	0	0.18675	0.079984	0.031967	0.17263	0.28024	0.079718	0.050479	0.15534	0.084603	0.16833	0.13215	0.18767	0.11802	0.11897	0.099494	0.043641	-2.3417	-3.0917	-2.8438	-2.7042	-2.975	-2.8229	-2.8292	-3.1708	-2.7479	-2.9729	-3.0687	-2.6229	-3.0271	-2.725	-2.7562	-2.9813	6.892	58.445	204.389	175.887	-52.387	144.391	266.268	180.404	224.794	-19.628	-68.432	264.466	208.993	233.994	-81.139	182.984	0.00016994	0.00036569	9.8184e-05	621.11	1.13e-06	4.0881e-06	685.16	216.09	2.5443e-06	3.3635e-06	291.63	97.715	80.643	27.753	1.8673e-06	48.216	0.00017699	9.3491e-05	2.4197e-05	599.84	9.4881e-07	9.4677e-07	664.72	210.89	1.1922e-06	8.9709e-07	284.14	100.13	79.262	27.557	1.0799e-06	47.46	188.659	7.452	-9.438	-76.451	36.579	64.600	-77.164	-70.571	34.040	63.670	-72.591	-68.928	-66.039	-61.973	60.959	-64.063	-8191	255	
2752.477	1	1	0	0	0.13822	0.049908	0.20394	0.03725	0.066462	0.19764	0.16991	0.13008	0.10976	0.18826	0.15108	0.028798	0.27182	0.20561	0.15466	0.099991	-2.4208	-2.8167	-2.8354	-2.6958	-3.0083	-2.9313	-2.8208	-3.1104	-2.6646	-2.8979	-3.1333	-2.7396	-3.0458	-2.825	-2.8667	-2.9813	236.847	119.274	-15.332	156.756	-8.067	222.040	199.721	264.039	219.686	245.938	260.746	235.387	-81.514	180.670	106.712	105.717	0.00017045	0.00050408	9.2465e-05	623.4	2.4699e-06	3.988e-06	681.56	216.37	1.8154e-06	3.9081e-06	289.11	95.415	80.305	27.534	2.0315e-06	47.313	0.00017946	9.3848e-05	2.1336e-05	603.22	1.0229e-06	8.7453e-07	663.29	210.52	1.1286e-06	8.7749e-07	281.33	97.395	78	27.149	1.137e-06	46.344	191.531	-2.002	2.582	-76.544	64.419	52.119	-77.162	-70.551	32.874	58.050	-72.390	-68.463	-65.944	-61.701	64.961	-63.844	-8191	255	
2752.598	1	1	0	0	0.34487	0.12786	0.079655	0.12694	0.3367	0.13216	0.1899	0.30373	0.10585	0.21158	0.23692	0.016119	0.2119	0.12829	0.13719	0.24334	-2.3417	-2.7167	-3.1146	-2.5479	-2.8729	-3.1104	-2.7125	-3.125	-2.8021	-2.8312	-3.2438	-2.6083	-2.7646	-3.1542	-2.5542	-3.1042	146.587	-47.692	132.650	222.112	169.173	199.310	192.028	224.192	76.222	64.971	244.413	13.128	-69.520	18.616	-78.624	252.713	0.00015975	0.00042071	0.00011513	617.45	1.5668e-06	3.3127e-06	680.1	212.88	1.7743e-06	4.7912e-06	284.06	93.925	79.01	27.349	1.7946e-06	47.298	0.00017902	8.7142e-05	2.2015e-05	597.5	1.0157e-06	8.4509e-07	657.47	207.94	1.1168e-06	9.2782e-07	277.32	96.943	77.366	27.041	1.0808e-06	46.364	191.807	-18.856	0.602	-76.467	34.336	72.182	-77.039	-70.736	33.550	47.569	-72.402	-68.574	-65.875	-61.827	36.671	-63.890	-8191	255	
2752.694	1	1	0	0	0.17333	0.15433	0.13325	0.20985	0.29488	0.21185	0.17435	0.070591	0.10322	0.0086908	0.19182	0.1016	0.39526	0.034671	0.37394	0.018704	-2.4188	-2.6792	-3.1188	-2.6937	-3.2021	-3.0708	-2.5854	-3.2125	-2.8792	-2.9208	-3.1208	-2.7792	-2.85	-3.0708	-2.7583	-3.1292	47.721	229.615	265.388	240.334	-71.075	24.582	144.186	197.100	255.653	183.756	140.046	134.806	200.635	242.791	37.673	247.576	0.00016216	0.00040827	0.00011876	615.12	2.0911e-06	4.4357e-06	674.39	212.54	1.1209e-06	3.2108e-06	285.81	95.237	78.728	27.617	2.7795e-06	47.313	0.00018101	9.1427e-05	2.1002e-05	595.92	1.0426e-06	8.2146e-07	655.57	207.61	1.1204e-06	9.6435e-07	278.47	97.672	77.399	27.167	1.0363e-06	46.617	194.536	8.948	24.343	-76.354	69.652	68.596	-77.240	-70.569	33.929	63.104	-72.388	-68.514	-66.279	-62.154	56.193	-64.095	-8191	255	
2752.788	1	1	0	0	0.16104	0.15487	0.089472	0.11069	0.08647	0.25518	0.15945	0.12488	0.066759	0.17808	0.225	0.2221	0.19671	0.11926	0.034096	0.1361	-2.4729	-2.6562	-3.0729	-2.7729	-2.7646	-3.0687	-2.7125	-3.1333	-2.9083	-2.7208	-3.3042	-2.7812	-2.8396	-3.1208	-2.7833	-3.1562	67.232	199.575	76.149	178.117	232.801	3.340	-38.807	254.146	158.128	61.254	237.544	106.105	-23.396	-80.926	210.624	208.749	0.00017412	0.00029942	9.4924e-05	614.64	2.1625e-06	4.2914e-06	676.46	211.07	2.3655e-06	4.1293e-06	287.14	95.771	78.975	27.265	1.5156e-06	47.812	0.00017402	8.2697e-05	2.0255e-05	594.82	1.0626e-06	8.0317e-07	658.18	207.1	1.105e-06	9.109e-07	278.99	98.047	77.444	27.062	1.0997e-06	46.83	191.928	10.711	6.273	-76.065	57.667	62.471	-76.886	-70.684	46.821	69.581	-72.237	-68.693	-65.844	-62.070	62.060	-63.782	-8191	255	
2752.884	1	1	0	0	0.17753	0.22241	0.078244	0.31438	0.17969	0.086237	0.25262	0.2001	0.20308	0.18758	0.25829	0.072432	0.1069	0.10912	0.2713	0.1779	-2.5729	-2.6625	-3.1333	-2.7625	-2.825	-3.2917	-2.8042	-3.1604	-2.9167	-2.6063	-3.1771	-3.0062	-2.95	-3.1625	-2.8063	-3.0229	0.696	-38.058	185.904	242.785	242.020	-31.458	189.341	193.742	139.077	63.688	198.960	123.822	144.417	213.465	-77.184	169.604	0.00016722	0.00028473	7.1987e-05	615.29	1.9168e-06	4.3259e-06	680.14	213.29	1.7986e-06	3.292e-06	286.23	94.846	79.509	27.504	3.004e-06	47.279	0.00017443	8.9602e-05	2.1391e-05	594.9	1.063e-06	8.0852e-07	659.19	208.03	1.0835e-06	9.3762e-07	279.38	97.784	77.767	27.134	1.0686e-06	46.554	195.467	-21.198	4.041	-76.138	41.035	39.314	-76.919	-70.816	25.816	48.924	-72.434	-69.111	-65.699	-62.029	70.791	-64.068	-8191	255	
2752.958	1	1	0	0	0.063042	0.18833	0.11958	0.15107	0.23364	0.086353	0.16969	0.23076	0.15398	0.19575	0.22155	0.10815	0.14309	0.26498	0.11321	0.21189	-2.7146	-2.6312	-3.1042	-2.9875	-2.6813	-3.4208	-2.8917	-3.1	-3.0792	-2.6771	-3.0938	-2.9479	-2.7479	-3.1833	-2.9313	-2.9979	-34.072	232.416	-6.706	126.239	27.632	191.229	248.924	256.921	248.060	26.725	116.491	188.509	78.984	193.127	189.355	262.591	0.00015573	0.0004452	7.7832e-05	612.98	2.7076e-06	3.3169e-06	669.43	211.04	8.2402e-07	3.4089e-06	283.32	93.316	78.861	27.33	2.1216e-06	46.85	0.00017462	8.7539e-05	2.0701e-05	589.92	1.067e-06	7.7195e-07	649.42	206.17	9.8257e-07	8.6057e-07	275.49	96.205	76.713	26.91	1.0774e-06	46.172	191.874	-3.019	25.554	-76.181	59.437	58.202	-76.965	-70.633	14.721	57.696	-72.273	-67.908	-65.972	-61.737	59.721	-64.194	-8191	255	
2753.077	1	1	0	0	0.1111	0.11996	0.1326	0.11125	0.2433	0.12236	0.2317	0.18645	0.061631	0.26325	0.12591	0.22873	0.13313	0.22571	0.064275	0.14619	-2.6396	-2.8	-3.1	-2.9375	-2.7229	-3.1583	-2.9354	-2.8312	-3.1167	-2.6125	-3.0625	-3.0312	-2.6708	-3.1958	-2.8708	-2.9604	15.248	226.033	32.439	152.255	-35.672	27.942	214.393	49.904	-75.241	94.995	208.155	36.741	250.520	-37.446	33.903	124.011	0.00017126	0.0002946	9.5479e-05	608.42	2.2902e-06	3.9195e-06	669.26	210.22	2.2261e-06	3.7894e-06	283.64	95.153	79.376	27.41	2.8939e-06	47.212	0.0001712	8.365e-05	2.1369e-05	590.47	1.0522e-06	8.0228e-07	650.64	206.52	1.0694e-06	9.1936e-07	276.44	97.501	77.593	27.073	9.5527e-07	46.456	191.108	-13.446	-5.712	-76.297	61.948	82.696	-77.139	-70.548	61.295	71.054	-72.270	-68.314	-65.986	-61.659	46.379	-64.136	-8191	255	
2753.173	1	1	0	0	0.15561	0.19116	0.15616	0.33468	0.15521	0.11335	0.1185	0.25749	0.29925	0.23093	0.19981	0.24761	0.16556	0.073642	0.28492	0.11882	-2.7667	-2.5729	-2.675	-3.1833	-2.5417	-3.175	-2.8563	-2.7917	-3.1771	-2.7562	-3.1646	-3.0917	-2.6063	-3.1562	-2.8917	-2.7521	-50.858	263.610	171.757	-69.262	-75.703	250.729	208.802	207.216	44.052	77.561	207.685	-74.914	-28.223	239.345	212.040	-41.382	0.00016213	0.00053253	0.0001202	612.64	2.1585e-06	2.6904e-06	671.52	212.7	1.5774e-06	2.9004e-06	287.08	96.694	80.096	27.615	1.7393e-06	47.706	0.00016572	9.6507e-05	2.4676e-05	591.86	1.1039e-06	7.6081e-07	653.83	207.42	9.846e-07	8.0622e-07	279.05	98.336	78.132	27.304	1.0073e-06	47.015	190.000	-9.647	8.598	-76.294	57.911	49.011	-77.008	-70.768	28.036	82.615	-72.254	-68.549	-65.959	-61.943	24.000	-63.991	-8191	255	
2753.269	1	1	0	0	0.14868	0.19414	0.053676	0.25871	0.09652	0.085312	0.0877	0.096439	0.19625	0.16551	0.14081	0.33102	0.24912	0.15456	0.16512	0.15745	-2.6146	-2.8	-2.9021	-3.0042	-2.7833	-2.975	-2.9271	-2.5271	-3.0312	-2.7271	-2.9313	-3.0062	-2.6646	-3.1417	-3.0083	-2.6479	-87.003	58.558	68.082	175.037	76.371	44.010	229.730	231.829	67.218	-70.884	266.179	250.403	-6.377	175.341	53.660	267.566	0.00017783	0.00037555	0.00011901	613.73	1.9979e-06	3.4407e-06	679.42	212.16	1.779e-06	4.2509e-06	289.68	96.847	80.319	27.752	2.6863e-06	48.073	0.00017867	8.1467e-05	2.1324e-05	593.69	1.1059e-06	8.3617e-07	657.47	207.59	1.0418e-06	9.7638e-07	281.54	99.619	78.358	27.418	1.0052e-06	47.322	192.566	5.268	7.829	-76.183	43.309	75.409	-76.976	-70.679	63.248	72.015	-72.436	-67.741	-65.476	-61.857	72.910	-64.189	-8191	255	
2753.365	1	1	0	0	0.10768	0.16007	0.044554	0.35918	0.038909	0.086896	0.11942	0.20682	0.16121	0.08897	0.19017	0.10285	0.21209	0.23049	0.15201	0.10265	-2.7708	-2.7708	-2.6833	-3.0875	-2.8917	-3.0271	-3.1083	-2.675	-3.1688	-2.9437	-2.8	-3.1896	-2.7292	-3.1208	-2.9917	-2.6458	93.207	-87.114	228.542	200.639	85.640	-25.297	93.906	180.262	68.582	-6.202	252.462	25.808	-78.100	-26.210	260.577	230.025	0.00016721	0.00038356	0.00011705	611.31	2.2008e-06	3.2161e-06	673.18	211.59	2.4727e-06	4.0788e-06	283.99	96.25	78.999	27.223	2.4021e-06	47.234	0.00017211	8.5277e-05	2.3574e-05	591.06	1.0498e-06	8.5089e-07	655.04	206.62	1.0852e-06	8.7036e-07	278.16	98.555	77.304	27.034	9.3849e-07	46.502	190.389	7.643	21.810	-76.192	47.227	56.229	-77.165	-70.968	9.555	48.354	-72.110	-68.560	-66.713	-61.999	64.155	-64.138	-8191	255	
2753.486	1	1	0	0	0.19394	0.04522	0.055699	0.14186	0.076321	0.18545	0.11899	0.084576	0.28115	0.10871	0.19523	0.11768	0.27155	0.051164	0.061092	0.10175	-2.6417	-2.7854	-2.9417	-3.1396	-2.5833	-3.0354	-3.05	-2.6875	-3.0187	-2.9083	-2.9833	-3.2333	-2.9021	-2.9417	-3.0687	-2.6792	223.553	68.005	33.978	-54.921	193.129	190.891	145.973	101.284	-78.125	186.403	25.470	158.691	130.040	-50.691	25.074	195.878	0.00016464	0.00037313	9.5887e-05	608.19	1.0663e-06	5.2411e-06	665.64	211.19	1.7074e-06	3.6389e-06	282.89	94.754	78.21	27.071	3.2696e-06	46.836	0.00017027	8.361e-05	2.1614e-05	587.99	1.0566e-06	8.7363e-07	647.51	205.82	9.7689e-07	8.6101e-07	275.26	96.745	76.595	26.837	1.0119e-06	46.182	196.002	-22.787	21.465	-76.201	47.390	58.393	-77.009	-70.630	41.145	66.168	-72.165	-68.743	-65.943	-62.044	50.722	-64.082	-8191	255	
2753.582	1	1	0	0	0.18365	0.36171	0.039218	0.12485	0.20818	0.24739	0.10265	0.18343	0.20176	0.064567	0.18129	0.054376	0.092416	0.19019	0.19525	0.27401	-2.6646	-2.9813	-2.6063	-3.4354	-2.8792	-2.8521	-3.1063	-2.6458	-2.8958	-2.9667	-2.8417	-3.0625	-2.7313	-3.0104	-3.0354	-2.6521	254.243	-58.098	-24.748	244.353	223.834	38.139	-46.686	185.594	30.956	69.704	21.709	268.185	44.417	145.341	10.072	56.911	0.00014961	0.00034884	8.7672e-05	608.98	2.044e-06	3.5615e-06	671.49	211.48	1.6677e-06	2.7594e-06	284.38	95.76	78.766	27.378	2.8131e-06	47.142	0.00016983	7.1864e-05	2.2271e-05	589.06	1.037e-06	8.5446e-07	650.05	205.8	1.0393e-06	7.697e-07	276.81	97.713	77.079	27.047	9.6157e-07	46.563	190.120	-1.673	6.651	-75.926	58.293	65.216	-77.135	-70.697	14.814	84.802	-72.409	-68.048	-65.527	-61.847	66.295	-63.985	-8191	255	
2753.678	1	1	0	0	0.16008	0.26906	0.19883	0.07634	0.15523	0.14891	0.12161	0.172	0.1344	0.10898	0.21864	0.36988	0.16046	0.37542	0.10357	0.2442	-2.6167	-2.9333	-2.5646	-3.2479	-2.7604	-2.8708	-3.3271	-2.6167	-3.0687	-3.0042	-2.7458	-3.0667	-2.8792	-2.7729	-3.1771	-2.6833	268.314	-75.226	-79.750	265.569	136.442	121.412	124.024	33.965	256.202	10.573	144.065	19.641	82.833	-81.458	114.735	198.678	0.00016194	0.00044058	9.3521e-05	609.43	2.0747e-06	3.8625e-06	672.83	211.39	1.5573e-06	3.6184e-06	284.56	94.63	79.518	27.14	2.4647e-06	47.681	0.00018248	8.1785e-05	2.2961e-05	589.62	1.0738e-06	7.8801e-07	651.59	206.07	1.0633e-06	7.9375e-07	277.1	98.051	77.509	26.968	9.536e-07	46.706	194.156	-4.652	16.211	-76.314	86.102	60.230	-76.851	-70.730	46.064	60.899	-72.270	-68.345	-65.730	-61.965	51.893	-63.976	-8191	255	
2753.774	1	1	0	0	0.19288	0.14444	0.26092	0.093447	0.25931	0.028856	0.2317	0.14206	0.26929	0.32021	0.048157	0.20308	0.12275	0.19702	0.13443	0.18845	-2.4896	-2.8937	-2.5187	-3.1104	-2.8104	-2.7583	-3.1917	-2.6792	-2.9708	-3.0938	-2.775	-3.1875	-2.9521	-2.7188	-3.0667	-2.8729	-46.108	137.046	248.011	255.051	-2.422	268.678	227.632	224.996	124.441	45.377	109.255	-7.064	187.579	-60.072	72.049	28.124	0.00016874	0.00051604	0.0001157	609.47	2.9605e-06	4.2982e-06	674.39	210.7	2.4411e-06	3.0725e-06	286.68	93.78	78.511	27.264	1.3543e-06	47.117	0.00017202	8.8332e-05	2.4041e-05	589.97	1.0935e-06	8.5981e-07	654.03	206.22	1.1359e-06	8.2849e-07	277.09	97.015	76.924	26.909	8.4363e-07	46.307	191.160	8.662	16.780	-76.160	46.707	53.906	-76.871	-70.283	60.102	69.105	-72.396	-68.741	-65.797	-61.828	58.749	-64.099	-8191	255	
2753.869	1	1	0	0	0.099016	0.1847	0.23846	0.19026	0.18858	0.20152	0.038763	0.13969	0.29404	0.031781	0.08092	0.11346	0.090102	0.2505	0.014766	0.32928	-2.4813	-3.0563	-2.5104	-3.0438	-3.0292	-2.6625	-3.2333	-2.8146	-2.9125	-3.1792	-2.4792	-3.1521	-2.9688	-2.7917	-3.2521	-2.825	56.172	92.604	86.229	-47.011	88.389	43.085	121.493	24.770	97.761	-70.652	86.988	119.028	109.671	-83.105	181.743	237.726	0.00015615	0.00021862	0.00010789	604.65	2.1653e-06	5.0033e-06	664.09	209.12	2.0353e-06	3.5925e-06	279.8	94.069	78.487	26.939	1.8841e-06	46.425	0.00016771	7.9324e-05	2.3474e-05	586.67	9.8046e-07	9.1511e-07	647.44	203.93	1.0077e-06	8.04e-07	273	95.789	76.215	26.655	9.3135e-07	45.792	191.690	1.749	2.948	-76.050	56.734	50.614	-77.031	-70.498	48.627	75.045	-72.453	-67.971	-66.105	-62.008	72.267	-64.033	-8191	255	
2753.966	1	1	0	0	0.13511	0.053405	0.04683	0.3466	0.19433	0.24297	0.14125	0.13138	0.1556	0.1708	0.27019	0.068419	0.17882	0.09714	0.12122	0.19086	-2.275	-3.1167	-2.6104	-2.8438	-2.8708	-2.5938	-3.0229	-3.0396	-2.8312	-3.1167	-2.6354	-2.9875	-3.0542	-2.5458	-3.0042	-2.9688	122.362	123.167	193.652	217.525	155.237	149.682	33.765	32.725	125.803	19.205	107.278	188.878	-82.795	176.580	80.920	216.688	0.0001659	0.00030096	8.416e-05	605.66	2.5549e-06	3.1252e-06	663.9	208.01	1.7339e-06	3.1624e-06	279.06	92.909	77.707	27.097	2.2115e-06	46.551	0.00017237	7.9443e-05	2.305e-05	584.64	1.0229e-06	8.2993e-07	645.86	203.46	1.161e-06	7.9642e-07	272.99	95.775	76.135	26.648	9.75e-07	45.834	190.534	5.002	9.542	-75.918	79.612	54.167	-77.110	-70.664	39.164	49.584	-72.196	-69.114	-66.069	-61.490	35.144	-64.144	-8191	255	
2754.085	1	1	0	0	0.20944	0.18305	0.084156	0.21637	0.27532	0.21824	0.17556	0.14076	0.21297	0.066173	0.10832	0.16259	0.061825	0.25064	0.054841	0.016332	-2.2687	-3.2021	-2.7583	-2.9313	-2.8667	-2.7771	-3.0333	-2.9479	-2.5396	-3.3937	-2.7479	-2.9229	-3.0792	-2.575	-3.0021	-3.1375	22.716	264.905	144.571	-40.054	18.321	-72.253	238.344	43.413	33.225	120.034	259.694	195.338	268.674	223.963	-52.153	147.519	0.00017179	0.00038473	6.7311e-05	606.79	2.5948e-06	3.8992e-06	665.42	208.68	1.7876e-06	4.3883e-06	284.15	94.599	77.999	27.041	1.9874e-06	46.775	0.00017962	7.0832e-05	2.2972e-05	586.64	1.0229e-06	8.6382e-07	647.01	203.87	1.1071e-06	6.5834e-07	275.15	96.373	76.469	26.701	9.4772e-07	46.077	183.122	-11.674	-18.149	-76.156	40.529	61.246	-77.071	-70.609	55.255	78.815	-72.288	-68.548	-65.751	-61.950	55.986	-63.730	-8191	255	
2754.182	1	1	0	0	0.11658	0.083602	0.23632	0.16928	0.19536	0.22514	0.18633	0.065715	0.20647	0.19493	0.10239	0.23021	0.17933	0.07098	0.096485	0.049626	-2.2333	-2.7792	-2.7792	-2.8833	-3.1771	-2.6625	-3.1771	-2.8521	-2.5958	-3.1396	-2.9729	-2.8104	-3.1896	-2.9083	-2.9417	-2.9708	-36.069	20.536	71.085	237.159	118.058	244.750	-86.894	122.630	-10.233	260.629	195.662	91.499	-51.953	-0.560	47.211	164.520	0.00016351	0.00046452	0.00012061	604.3	1.8883e-06	4.5864e-06	669.52	208.28	1.849e-06	4.2212e-06	282.54	94.774	78.619	26.972	1.9984e-06	46.613	0.00017813	7.2856e-05	2.2605e-05	586.21	9.7445e-07	9.0842e-07	649.92	204.09	1.0831e-06	8.3696e-07	275.7	97.059	76.631	26.742	1.0199e-06	45.999	190.487	-1.981	-4.015	-76.019	53.097	53.231	-77.048	-70.455	53.774	75.532	-72.283	-68.958	-65.611	-61.879	56.351	-64.026	-8191	255	
2754.253	1	1	0	0	0.17155	0.12418	0.018771	0.23741	0.17785	0.11922	0.13187	0.19263	0.072134	0.19118	0.089104	0.061023	0.079844	0.089615	0.21969	0.093339	-2.1479	-2.9104	-2.8312	-2.8292	-3.1437	-2.75	-2.9229	-3.2458	-2.7354	-3.2542	-2.8583	-2.525	-3.0208	-2.75	-2.7354	-2.9708	250.084	-27.273	225.092	265.284	36.624	26.643	234.314	-54.319	133.344	-45.534	80.999	-22.391	2.773	159.586	145.181	-73.699	0.00015565	0.00042707	0.00012313	606.47	1.9997e-06	4.6873e-06	665.22	208.24	1.8676e-06	2.9965e-06	279.34	91.451	77.321	26.997	2.9081e-06	46.372	0.00017102	8.1904e-05	2.1781e-05	583.84	9.3719e-07	9.3161e-07	643.86	202.98	1.1748e-06	8.3696e-07	271.24	95.48	75.611	26.53	1.0187e-06	45.442	183.968	5.223	20.086	-76.437	48.314	46.687	-76.898	-70.294	51.817	70.531	-72.545	-68.501	-65.980	-61.816	76.648	-64.227	-8191	255	
2754.374	1	1	0	0	0.12581	0.067468	0.26826	0.33825	0.047225	0.26471	0.3587	0.22502	0.12076	0.051266	0.11976	0.32354	0.033851	0.16892	0.2081	0.2305	-2.1417	-2.9146	-2.7375	-2.7396	-3.2062	-2.775	-2.9208	-3.1	-2.7458	-3.1188	-2.9771	-3.0042	-3.0438	-2.9229	-2.8708	-3.15	57.797	40.363	-59.195	269.474	110.963	33.171	187.228	225.582	77.886	-88.304	-42.340	161.679	38.194	52.486	22.168	217.409	0.00016279	0.000373	8.5533e-05	600.16	1.7386e-06	2.1999e-06	659.83	206.71	7.7591e-07	3.3242e-06	278.18	92.966	77.042	26.844	2.5167e-06	46.359	0.00017318	7.988e-05	2.0768e-05	581.61	9.9168e-07	8.4019e-07	640.76	202.38	1.1075e-06	8.1736e-07	270.81	95.604	75.602	26.489	1.1127e-06	45.537	190.037	-1.878	4.063	-76.186	63.575	48.097	-76.933	-70.879	-4.847	64.729	-72.213	-68.689	-65.783	-61.734	59.536	-64.126	-8191	255	
2754.470	1	1	0	0	0.097792	0.18606	0.23717	0.18052	0.15213	0.11162	0.24076	0.20507	0.14752	0.14563	0.19543	0.14092	0.099104	0.098364	0.26976	0.060295	-2.3063	-2.7917	-2.925	-2.5812	-3.0354	-2.9958	-2.6667	-3.2833	-2.7271	-2.9167	-2.9083	-2.5729	-2.9396	-2.8521	-2.6875	-3.3667	158.205	170.822	35.018	250.981	66.343	-57.093	54.985	123.454	101.902	66.822	226.118	-18.713	179.665	193.749	98.932	-67.437	0.00015578	0.00043761	9.1257e-05	599.98	2.6267e-06	3.2148e-06	664.46	207.85	1.8564e-06	2.6087e-06	279.24	92.212	77.499	26.661	2.4051e-06	46.424	0.00016911	8.0753e-05	2.0589e-05	582.36	1.0249e-06	8.1878e-07	643.36	202.71	1.146e-06	7.6346e-07	272.75	96.09	76.061	26.491	1.0682e-06	45.706	186.007	-0.311	29.907	-76.305	73.358	69.123	-76.830	-70.679	48.243	69.693	-72.515	-68.421	-66.034	-61.918	79.409	-64.199	-8191	255	
2754.566	1	1	0	0	0.21493	0.14305	0.054457	0.17285	0.25612	0.23313	0.091862	0.16431	0.053928	0.18748	0.15894	0.16769	0.19841	0.3157	0.094127	0.016423	-2.0604	-2.8458	-2.9813	-2.5792	-2.9646	-2.7042	-2.7812	-3.1583	-2.6583	-2.7604	-3.0646	-2.5167	-3.0417	-2.7708	-2.6625	-3.1708	-44.737	57.533	227.628	6.435	-24.995	238.222	44.196	-31.159	-32.088	-50.419	166.271	191.424	-85.357	236.234	-65.516	126.954	0.00015703	0.00036307	0.00011792	607.74	2.0286e-06	4.1032e-06	666.78	208.2	2.1374e-06	3.7902e-06	281.11	94.935	77.808	27.04	2.2999e-06	46.961	0.00017648	8.5277e-05	1.9944e-05	585.89	1.0069e-06	8.7854e-07	647.53	204.11	1.133e-06	7.6658e-07	274.78	97.23	76.404	26.674	1.0715e-06	46.17	189.043	6.831	-5.394	-76.153	74.444	65.377	-77.138	-70.581	33.800	69.782	-71.836	-68.780	-66.009	-61.917	65.441	-64.227	-8191	255	
2754.662	1	1	0	0	0.1494	0.17787	0.22019	0.47387	0.091226	0.052527	0.13704	0.13466	0.17754	0.41415	0.16031	0.23096	0.044048	0.32701	0.21369	0.15746	-2.2333	-2.8187	-3.0812	-2.7771	-3.0125	-2.7708	-2.7271	-3.3854	-2.8917	-2.8104	-3.0125	-2.7188	-3.0563	-2.9188	-2.6813	-3.2417	39.000	111.581	123.412	-46.192	48.223	-29.480	124.907	250.467	106.890	243.050	-18.256	13.235	-38.322	0.850	-30.723	218.313	0.00017084	0.0004035	0.00011558	607.39	1.5519e-06	2.4134e-06	668.75	209.69	2.111e-06	3.9058e-06	281.89	93.883	78.145	27.074	2.9017e-06	46.675	0.00017453	8.1229e-05	1.9921e-05	589.04	9.6483e-07	8.6025e-07	650.52	204.91	1.0888e-06	8.9175e-07	274.56	96.536	76.159	26.714	1.2088e-06	45.904	194.920	-3.592	13.979	-76.223	60.028	45.078	-77.045	-70.509	21.527	61.169	-72.299	-67.251	-66.119	-61.806	67.823	-64.036	-8191	255	
2754.781	1	1	0	0	0.22383	0.13078	0.15236	0.27085	0.03952	0.088584	0.2682	0.1592	0.17641	0.29785	0.07506	0.083242	0.027537	0.12437	0.17722	0.12654	-2.6063	-2.6167	-3.05	-2.5896	-3.025	-2.9479	-2.8083	-3.0646	-2.6896	-2.8521	-3.1458	-2.7333	-2.8479	-3.0396	-2.6208	-3.0812	117.199	9.512	28.545	240.491	90.715	-17.683	200.665	200.508	189.488	164.154	214.009	115.798	54.203	271.051	109.449	55.863	0.00016548	0.00034513	0.00010523	602.64	1.4068e-06	3.6205e-06	665.05	206.47	1.6471e-06	3.205e-06	278.16	92.939	77.164	26.813	1.5072e-06	46.376	0.00016511	8.5792e-05	2.1603e-05	583.33	9.6724e-07	7.9737e-07	643.33	202.37	1.0827e-06	8.6012e-07	271.41	95.541	75.74	26.462	1.0363e-06	45.617	193.564	16.311	-2.557	-76.413	44.636	59.115	-77.338	-70.646	48.967	57.527	-72.280	-68.189	-65.614	-61.822	60.300	-64.246	-8191	255	
2754.877	1	1	0	0	0.069146	0.16623	0.18211	0.14715	0.2552	0.092429	0.29295	0.19039	0.12231	0.18721	0.092203	0.28237	0.091106	0.11533	0.20967	0.47758	-2.2104	-2.8063	-3.0417	-2.6312	-2.9229	-2.9833	-2.6646	-2.9396	-2.7687	-2.5854	-3.2146	-2.5646	-2.9708	-3.1854	-2.6229	-3.1875	83.275	200.104	5.769	-68.899	93.634	34.719	-82.068	203.615	134.776	58.922	251.033	127.060	198.017	-13.691	233.514	159.611	0.00015725	0.00033107	8.4235e-05	600.87	1.9323e-06	3.7866e-06	661.43	206.67	1.8908e-06	3.9769e-06	278.62	93.123	77.222	26.993	1.824e-06	46.64	0.00016497	7.7499e-05	1.9587e-05	581.17	1.0702e-06	7.9247e-07	643.72	202.51	9.8946e-07	8.1112e-07	271.92	95.265	75.563	26.53	9.6325e-07	45.726	189.410	0.436	11.348	-76.105	80.791	43.197	-76.894	-70.818	50.470	76.162	-72.416	-68.406	-65.890	-61.682	67.224	-63.736	-8191	255	
2754.949	1	1	0	0	0.1402	0.29302	0.018081	0.05551	0.12285	0.10583	0.12544	0.078944	0.19557	0.094169	0.087817	0.20239	0.46146	0.024433	0.12789	0.17986	-2.5229	-2.5875	-3.2292	-2.8375	-2.7417	-3.1375	-2.5208	-2.9104	-2.8646	-2.5687	-3.2292	-2.7354	-2.6208	-3.0687	-2.5521	-3.0417	194.079	-47.030	52.345	98.677	91.049	263.362	79.556	138.526	58.974	15.480	47.769	110.420	259.495	73.791	199.582	184.578	0.00016573	0.00036033	9.3258e-05	607.76	2.3169e-06	4.2967e-06	665.19	209.28	1.7605e-06	2.6745e-06	282.93	94.298	78.274	26.778	2.2744e-06	46.754	0.0001713	8.4523e-05	2.0222e-05	584.48	1.0097e-06	7.9604e-07	647.13	204.21	1.0203e-06	9.4787e-07	274.35	96.565	76.31	26.58	1.0283e-06	46.009	193.502	-1.926	9.574	-76.227	52.924	48.359	-76.957	-70.588	40.662	63.537	-72.219	-69.134	-65.598	-61.911	72.582	-64.012	-8191	255	
2755.047	1	1	0	0	0.1298	0.28258	0.22045	0.096916	0.15539	0.21161	0.28059	0.23067	0.18986	0.073429	0.042919	0.17427	0.062276	0.26484	0.04467	0.1805	-2.7146	-2.5125	-2.9875	-3.0417	-2.6937	-3.1521	-2.8167	-2.9354	-2.9688	-2.5875	-3.0646	-2.85	-2.6667	-3.1625	-2.6437	-2.9542	166.772	209.089	-4.964	204.051	22.421	-29.882	157.993	103.864	99.662	211.504	195.072	-30.450	6.486	229.507	188.817	-45.387	0.0001613	0.00046717	0.00012059	607.84	1.5785e-06	4.5144e-06	667.08	209.19	3.0826e-06	3.2889e-06	283.39	94.881	77.705	27.073	2.2826e-06	47.206	0.00016904	8.73e-05	2.0345e-05	587.47	9.0674e-07	7.5679e-07	649.77	204.83	1.0166e-06	8.5567e-07	276.42	97.784	76.547	26.837	1.0547e-06	46.364	190.627	-1.438	8.901	-76.187	37.517	64.843	-77.160	-70.493	34.717	89.832	-71.940	-68.467	-65.939	-61.858	63.568	-63.845	-8191	255	
2755.166	1	1	0	0	0.23258	0.10343	0.07452	0.076553	0.20194	0.20853	0.046413	0.24245	0.17166	0.13473	0.21552	0.10408	0.12525	0.10169	0.17448	0.18921	-2.4729	-2.5854	-2.8458	-2.9813	-2.5667	-3.2396	-2.9458	-2.9042	-2.9729	-2.6625	-3.1417	-2.8021	-2.6542	-3.025	-2.8625	-2.8542	235.589	174.888	123.500	150.006	65.251	-18.213	-41.360	-15.058	250.333	78.328	-83.501	185.538	148.237	193.349	-34.129	20.235	0.00017465	0.00032393	0.00012517	608.94	2.1474e-06	4.0823e-06	671.05	209.23	2.6494e-06	3.7198e-06	282.09	94.025	77.708	26.837	2.5619e-06	46.666	0.00017832	8.6348e-05	2.3429e-05	588.14	1.041e-06	7.8667e-07	651.16	204.33	1.0466e-06	8.5299e-07	275.29	96.412	76.072	26.604	1.0837e-06	45.942	193.594	21.732	14.925	-76.043	57.567	40.876	-77.077	-70.482	41.898	89.392	-72.175	-68.476	-66.044	-61.835	63.440	-64.035	-8191	255	
2755.262	1	1	0	0	0.14834	0.0565	0.27309	0.10218	0.22	0.26539	0.33963	0.21736	0.092031	0.245	0.1178	0.1239	0.0859	0.3145	0.035101	0.082068	-2.6583	-2.5125	-3.0187	-3.0146	-2.6521	-3.1083	-2.7771	-2.6813	-3.0771	-2.5292	-2.9667	-3.0958	-2.5604	-2.9979	-2.9333	-2.9083	127.357	-13.669	-51.232	134.742	230.085	78.442	172.429	242.058	16.829	41.490	48.273	48.070	16.315	-14.541	120.316	63.386	0.00015831	0.0003875	8.2779e-05	602.61	1.7681e-06	4.6346e-06	662.65	207.01	1.8506e-06	3.3327e-06	280.04	93.535	77.24	26.636	1.9834e-06	46.421	0.00016532	9.115e-05	2.0857e-05	582.49	1.089e-06	8.1833e-07	641.74	202.34	9.9028e-07	8.3295e-07	272.51	95.721	75.473	26.344	9.0323e-07	45.594	192.641	-4.188	25.331	-76.199	73.994	77.826	-77.036	-70.577	58.487	78.926	-72.328	-69.039	-65.776	-61.639	56.358	-64.071	-8191	255	
2755.358	1	1	0	0	0.080632	0.092329	0.090529	0.11764	0.056778	0.35434	0.014294	0.20898	0.083225	0.064434	0.14177	0.071779	0.21087	0.10863	0.011283	0.095373	-2.6521	-2.5438	-2.7583	-3.0229	-2.6375	-2.9917	-2.6937	-2.7979	-3.1375	-2.7042	-2.9042	-2.9313	-2.5792	-3.025	-2.9188	-2.7625	15.198	187.000	223.911	160.123	89.208	176.763	52.011	178.364	-82.074	140.790	217.974	73.880	152.495	35.799	-71.855	241.563	0.00015677	0.00037538	9.2654e-05	598.28	1.6719e-06	4.4966e-06	661.99	207.19	1.5264e-06	3.3137e-06	279.17	92.618	77.569	26.798	1.3592e-06	46.618	0.00016841	8.5277e-05	2.2483e-05	581.08	1.0382e-06	8.5446e-07	641.97	202.17	1.0199e-06	8.9085e-07	272.6	95.476	75.811	26.44	9.9725e-07	45.707	192.076	6.276	-1.046	-76.260	58.833	65.278	-77.214	-70.592	53.881	76.121	-72.125	-68.816	-65.884	-61.753	62.603	-64.122	-8191	255	
2755.479	1	1	0	0	0.22437	0.0077387	0.1718	0.27507	0.12704	0.032357	0.21217	0.23573	0.082874	0.18318	0.37173	0.10277	0.14108	0.25182	0.15779	0.28516	-2.7604	-2.8125	-2.8646	-3.0896	-2.5771	-3.0354	-3.025	-2.7083	-3.1813	-2.6833	-2.9417	-3.0792	-2.4646	-2.9188	-2.9188	-2.8417	254.186	-34.223	-54.105	153.546	217.454	-72.614	-67.304	20.180	220.887	-23.385	206.242	123.154	-27.343	-16.750	-70.399	241.886	0.00015033	0.00030209	8.0499e-05	602.6	2.9099e-06	3.021e-06	662.3	207.85	1.3982e-06	3.7168e-06	281	93.285	77.82	26.899	2.1768e-06	46.71	0.00016439	8.8292e-05	2.0589e-05	582.23	1.1131e-06	8.1655e-07	644.74	202.9	9.8419e-07	8.325e-07	274.13	96.487	76.076	26.58	9.708e-07	45.999	191.595	12.233	-6.474	-76.261	42.358	68.308	-77.133	-70.740	54.854	73.903	-72.172	-69.046	-65.990	-61.634	72.510	-63.835	-8191	255	
2755.550	1	1	0	0	0.11687	0.21607	0.20311	0.09321	0.1796	0.24065	0.20125	0.064815	0.17926	0.1028	0.05011	0.15797	0.11696	0.14425	0.092044	0.17005	-2.5396	-2.6833	-2.8958	-3.3729	-2.5083	-3.0167	-3.1104	-2.6063	-3.0333	-2.8375	-2.8792	-3.1146	-2.7083	-2.7812	-2.8167	-2.6833	-53.516	51.057	-0.010	-55.241	24.899	224.880	74.722	260.306	137.336	243.379	-18.422	109.897	-61.637	134.272	-48.807	179.807	0.00016197	0.00046267	9.3003e-05	605.22	2.4835e-06	4.4237e-06	667.95	208.8	1.3907e-06	3.4312e-06	284.53	94.605	78.206	26.994	1.5906e-06	47.044	0.00017076	8.7261e-05	2.2226e-05	584.49	1.0614e-06	8.2369e-07	648.77	204.3	1.0848e-06	8.7259e-07	276.62	96.88	76.439	26.717	9.133e-07	46.396	190.437	-4.353	21.143	-76.377	76.953	67.436	-77.060	-70.364	49.016	82.495	-72.221	-68.842	-65.595	-61.958	68.444	-63.960	-8191	255	
2755.646	1	1	0	0	0.23659	0.1288	0.24732	0.15503	0.14239	0.064062	0.24104	0.06681	0.19733	0.3337	0.15652	0.054903	0.2338	0.16854	0.31805	0.13735	-2.5	-2.9854	-2.5333	-2.9521	-2.8771	-2.8937	-3.1521	-2.6875	-3.1271	-2.9646	-2.6937	-2.9979	-2.7875	-2.9313	-3.1646	-2.7917	112.683	-40.413	232.700	139.333	127.891	259.504	186.142	183.278	-77.584	131.307	171.522	105.535	211.666	-85.962	78.017	-66.594	0.00016106	0.00026398	9.6019e-05	604.15	1.5403e-06	3.4056e-06	665.31	208.88	1.2057e-06	3.3249e-06	280.99	94.921	77.618	27.002	1.6262e-06	46.749	0.0001686	7.7697e-05	2.3184e-05	584.44	9.3759e-07	8.8924e-07	647.47	203.47	9.6716e-07	7.3495e-07	274.18	96.836	75.978	26.624	9.2715e-07	46.01	192.181	-3.701	2.499	-76.518	44.393	44.186	-77.301	-70.435	30.681	76.753	-72.278	-68.223	-66.112	-61.773	51.602	-63.836	-8191	255	
2755.767	1	1	0	0	0.13088	0.13433	0.076088	0.35552	0.20035	0.2832	0.19233	0.085229	0.11368	0.22368	0.16401	0.2682	0.19717	0.070054	0.086347	0.1407	-2.5771	-2.6979	-2.5062	-3.1979	-3.0625	-2.7917	-3.1312	-2.7812	-2.9521	-3.0042	-2.7458	-3.0563	-2.6896	-2.7625	-3.1188	-2.8396	14.587	10.339	-79.876	201.096	33.636	-70.150	251.963	187.816	-57.648	205.134	188.519	195.182	208.295	26.314	-28.200	189.849	0.00016635	0.00038497	9.6738e-05	600.34	2.1696e-06	3.1649e-06	658.36	207.04	1.7723e-06	3.1618e-06	280.09	93.235	76.861	26.699	1.8308e-06	46.621	0.00016788	8.111e-05	2.3251e-05	580.29	1.0486e-06	8.3127e-07	641.42	202.08	1.0033e-06	6.4275e-07	272.15	95.501	75.424	26.426	9.3891e-07	45.822	192.266	3.581	15.721	-76.378	64.316	44.724	-76.777	-70.523	30.830	60.452	-72.012	-68.552	-65.723	-61.780	62.090	-63.876	-8191	255	
2755.862	1	1	0	0	0.16122	0.29964	0.13785	0.045678	0.13292	0.28938	0.065651	0.18138	0.099662	0.26285	0.053747	0.2296	0.18723	0.20253	0.34475	0.20195	-2.5563	-2.9646	-2.4667	-3.2354	-2.7854	-2.7125	-3.2771	-2.8458	-2.9917	-2.9521	-2.6792	-2.9667	-2.8604	-2.8563	-3.2458	-2.7917	9.238	101.240	150.761	100.514	120.295	164.704	102.911	219.039	-32.499	28.208	131.187	142.108	151.730	-60.771	115.649	141.628	0.00016353	0.00036338	7.8705e-05	600.47	1.7159e-06	4.8125e-06	662.2	207.09	2.2263e-06	3.477e-06	282.02	92.774	77.929	26.93	1.7223e-06	46.782	0.0001723	8.3808e-05	2.3919e-05	581.15	9.9408e-07	9.4677e-07	642.17	202.24	1.1054e-06	8.0711e-07	273.49	95.699	75.923	26.555	8.814e-07	46.061	190.213	6.302	15.116	-76.122	58.537	57.899	-77.192	-70.659	44.747	49.927	-72.028	-68.904	-65.889	-61.838	54.935	-63.719	-8191	255	
2755.958	1	1	0	0	0.056983	0.14518	0.19186	0.041759	0.28087	0.15615	0.3175	0.16349	0.19022	0.2779	0.10031	0.14642	0.032114	0.085173	0.28594	0.14677	-2.4104	-3.1271	-2.5625	-3.1646	-2.8542	-2.7812	-3.0917	-2.8583	-2.7979	-3.2521	-2.7229	-2.7979	-2.8833	-2.5396	-3.0646	-2.8854	68.039	-73.476	195.252	-8.712	84.335	-0.161	212.185	268.854	-62.123	100.408	-16.985	-37.795	-51.134	-63.038	92.908	61.242	0.00015769	0.00044439	9.6104e-05	601.46	2.3746e-06	4.7519e-06	669.08	208.69	2.2324e-06	3.9311e-06	283.92	93.597	78.207	26.837	1.7758e-06	47.21	0.00017732	8.107e-05	2.2037e-05	583.37	9.9769e-07	8.8211e-07	647.93	204.03	1.1144e-06	7.3184e-07	276.15	96.826	76.492	26.704	9.494e-07	46.452	192.179	-5.058	14.555	-76.229	38.335	58.908	-77.207	-70.632	46.050	51.665	-72.126	-68.202	-65.893	-61.903	61.300	-63.730	-8191	255	
2756.078	1	1	0	0	0.087208	0.22883	0.048573	0.068124	0.053523	0.10176	0.27365	0.24469	0.16354	0.035584	0.066378	0.099181	0.28055	0.27161	0.15843	0.1479	-2.2938	-3.1479	-2.55	-2.8312	-2.9938	-2.7042	-3.1979	-3.0208	-2.7229	-3.2208	-2.7104	-2.9354	-2.9938	-2.5583	-3.0667	-3.0687	-6.456	137.903	-32.262	-77.604	163.622	42.669	158.683	43.054	-2.262	58.414	248.595	122.973	111.541	230.797	156.886	175.700	0.00015316	0.00033992	0.00011905	608.12	2.7903e-06	4.5588e-06	672.55	210.05	1.6346e-06	5.2467e-06	285.57	93.959	77.829	27.076	2.1487e-06	47.587	0.00017413	7.3094e-05	2.3062e-05	587.71	1.0045e-06	8.6917e-07	653.06	204.81	1.1241e-06	7.8885e-07	278.97	97.838	76.655	26.831	9.5318e-07	46.736	189.774	-0.367	15.724	-76.229	64.571	57.062	-77.112	-70.469	49.828	50.730	-72.075	-68.191	-65.739	-61.749	59.557	-64.007	-8191	255	
2756.150	1	1	0	0	0.13292	0.090011	0.083333	0.18039	0.15352	0.1919	0.076189	0.29157	0.17528	0.27181	0.15678	0.13684	0.24325	0.21483	0.22069	0.23475	-2.2833	-2.9917	-2.7562	-2.9188	-3.1625	-2.7083	-3.1167	-3.05	-2.7229	-3	-2.7146	-3.025	-2.95	-2.7583	-3.1292	-2.875	96.358	-39.236	122.831	216.117	-12.885	26.881	128.204	146.616	55.423	231.997	50.372	146.677	267.660	-62.616	160.803	249.140	0.00017844	0.00031797	0.00012011	604.3	2.2649e-06	3.9628e-06	668.28	209.6	1.9379e-06	4.3787e-06	285.32	94.756	77.86	27.064	2.91e-06	47.134	0.0001766	7.6229e-05	2.3552e-05	586.59	9.5001e-07	9.0039e-07	649.66	204.72	1.1614e-06	8.0711e-07	276.42	97.332	76.355	26.675	9.3639e-07	46.313	190.361	-6.737	8.179	-76.095	57.019	74.327	-76.871	-70.580	57.992	87.134	-72.391	-68.202	-65.831	-61.615	63.868	-63.974	-8191	255	
2756.246	1	1	0	0	0.11735	0.071323	0.16661	0.13305	0.26145	0.10033	0.16216	0.13104	0.32586	0.13934	0.19739	0.17637	0.012297	0.123	0.06701	0.17582	-2.1479	-2.8833	-2.725	-2.8812	-2.9771	-2.5312	-3.0521	-3.1188	-2.7208	-3.0312	-2.8542	-2.6854	-3.2271	-2.7854	-2.95	-3.1542	5.036	3.914	119.089	-52.485	32.106	188.631	238.850	161.709	-70.855	-13.698	265.639	45.849	252.232	-57.344	-73.275	-11.013	0.00016247	0.00040294	8.4049e-05	598.6	3.015e-06	3.0631e-06	662.72	207.71	1.2026e-06	3.2279e-06	282.08	94.288	78.185	27.003	1.5544e-06	47.038	0.00017209	7.6904e-05	2.2895e-05	582.14	9.1996e-07	8.6293e-07	644.73	203.39	1.1472e-06	6.53e-07	274.83	96.986	76.379	26.641	1.022e-06	46.186	189.447	9.097	14.302	-75.957	66.667	46.777	-77.348	-70.468	26.310	70.540	-72.301	-68.446	-66.074	-61.589	62.012	-64.058	-8191	255	
2756.342	1	1	0	0	0.054188	0.15087	0.2785	0.10525	0.10938	0.12515	0.35543	0.20178	0.14375	0.18358	0.099817	0.1534	0.12793	0.050561	0.065894	0.14031	-2.1042	-3.1667	-2.85	-2.8563	-3.05	-2.7104	-2.9104	-3.1146	-2.6646	-3.1021	-2.8688	-2.7646	-3.1625	-2.525	-3.0563	-3.0396	-33.913	206.162	125.947	-87.408	156.268	254.665	-87.919	51.607	80.566	152.201	214.987	-79.098	189.836	208.394	72.839	195.831	0.00015636	0.00047831	7.1911e-05	602.63	2.4117e-06	4.812e-06	666.47	208.34	1.8336e-06	4.424e-06	282.66	95.137	77.959	26.992	2.9117e-06	46.894	0.00016874	7.2102e-05	2.2583e-05	583.93	9.3559e-07	9.1288e-07	646.42	203.54	1.1878e-06	7.0244e-07	275.82	97.493	76.256	26.731	1.0275e-06	46.321	193.057	-4.686	-4.692	-75.828	61.006	59.600	-76.878	-70.441	38.902	76.709	-72.238	-68.064	-66.339	-61.884	43.972	-63.989	-8191	255	
2756.463	1	1	0	0	0.23771	0.23125	0.1765	0.18482	0.1268	0.13462	0.13655	0.14401	0.038939	0.11032	0.26627	0.20162	0.25251	0.15746	0.041115	0.05831	-2.0771	-2.9042	-2.8792	-2.6229	-3.1458	-2.9167	-2.9354	-3.1312	-2.7146	-3.0208	-3.0375	-2.6375	-3.2229	-2.7479	-2.7771	-3.0708	212.886	-47.135	59.514	-6.605	263.882	-81.889	70.019	176.205	-5.953	-35.250	262.474	-44.801	252.135	-31.242	-23.526	30.364	0.00016342	0.00054223	7.5431e-05	603.18	1.3587e-06	3.4612e-06	667.81	209.73	2.0241e-06	3.8433e-06	286.26	94.788	78.493	26.958	2.4638e-06	47.358	0.0001712	8.1229e-05	2.1525e-05	585.07	1.0097e-06	9.1778e-07	649.48	204.56	1.1492e-06	7.1714e-07	277.51	97.85	76.651	26.741	1.0858e-06	46.595	195.241	-0.243	3.544	-76.039	53.387	53.537	-76.895	-70.592	63.740	83.422	-72.278	-68.151	-66.185	-61.729	43.284	-64.056	-8191	255	
2756.559	1	1	0	0	0.16885	0.082775	0.19504	0.14768	0.48486	0.067011	0.1254	0.051875	0.068002	0.1334	0.14479	0.1397	0.057506	0.074255	0.19802	0.1285	-2.2	-2.9292	-2.9979	-2.7667	-3.0438	-2.9083	-2.9417	-3.1021	-2.6312	-2.9792	-3.1396	-2.4813	-2.9458	-2.8312	-2.8021	-3.2542	247.937	269.090	14.385	115.916	-69.667	100.632	114.439	267.285	43.942	193.849	91.738	134.255	-5.760	239.468	83.898	204.804	0.00016715	0.00032923	0.00011732	608.59	2.1578e-06	2.6575e-06	671.51	210.51	1.4444e-06	2.7751e-06	286.53	96.555	78.037	27.095	1.9917e-06	47.297	0.00016844	7.4523e-05	2.0155e-05	587.89	8.9231e-07	7.675e-07	652.77	205.2	1.0726e-06	7.3095e-07	278.83	98.198	76.601	26.759	1.0321e-06	46.612	193.166	-1.069	16.669	-76.141	34.246	58.546	-76.562	-70.402	48.326	76.702	-72.228	-68.525	-65.985	-61.953	29.881	-63.935	-8191	255	
2756.655	1	1	0	0	0.038713	0.18575	0.21305	0.19661	0.22455	0.10544	0.12619	0.15186	0.25439	0.21721	0.10428	0.027016	0.15025	0.086696	0.24379	0.17118	-2.0292	-2.8521	-3	-2.6167	-2.9083	-2.9562	-2.7333	-3.1437	-2.6708	-2.8042	-3.2979	-2.5708	-2.8458	-3	-2.6813	-3.1875	-63.661	233.349	147.807	-71.180	-67.010	117.332	133.451	249.415	-64.396	-78.100	252.483	9.508	-37.434	-42.644	-86.348	224.787	0.00017876	0.00031053	8.7937e-05	604.48	2.1941e-06	3.2834e-06	668.85	207.49	2.0281e-06	4.4233e-06	281.8	93.355	77.477	26.716	2.3142e-06	46.778	0.00017332	8.0674e-05	1.9966e-05	586.4	9.3118e-07	8.7453e-07	649.22	203.31	1.0564e-06	8.6947e-07	275.23	96.796	75.849	26.536	1.1013e-06	46.114	198.161	2.965	-9.661	-76.076	55.431	66.236	-76.852	-70.556	43.243	69.469	-71.934	-68.982	-65.711	-62.132	79.910	-63.931	-8191	255	
2756.751	1	1	0	0	0.22045	0.20731	0.11981	0.14382	0.20145	0.16032	0.31161	0.15565	0.199	0.20443	0.26015	0.26564	0.13847	0.1602	0.14413	0.048309	-2.5021	-2.7938	-2.8458	-2.7604	-3.0917	-2.9146	-2.7417	-2.9729	-2.725	-2.9167	-3.1458	-2.5583	-2.9542	-3.0708	-2.8458	-3.1458	124.818	-26.405	182.813	56.017	-41.604	244.243	171.225	-40.471	-8.549	-14.307	229.285	-66.127	199.060	149.350	5.368	51.830	0.00016739	0.00034211	7.7062e-05	603.82	1.9923e-06	4.1334e-06	662.76	207.91	1.1902e-06	2.7331e-06	282.85	93.456	78.086	26.699	1.8304e-06	46.953	0.00017178	8.1189e-05	2.0812e-05	583.38	9.8888e-07	8.5446e-07	645.63	203.26	1.0466e-06	8.5255e-07	274.11	96.078	75.902	26.505	1.0187e-06	46.22	188.037	8.974	-4.785	-76.326	70.712	59.640	-77.223	-70.350	34.231	68.675	-71.929	-68.947	-65.846	-61.635	55.665	-64.015	-8191	255	
2756.846	1	1	0	0	0.086288	0.19169	0.23366	0.11013	0.17511	0.050199	0.19398	0.23579	0.020182	0.14971	0.17135	0.23893	0.20271	0.15076	0.029335	0.30074	-2.3479	-2.6771	-3.1312	-2.675	-3.0292	-3.0375	-2.5229	-3.0958	-2.7083	-2.7792	-3.1437	-2.5667	-2.9458	-2.9396	-2.7104	-3.225	-24.650	-72.087	144.017	87.416	-34.482	218.695	17.365	166.361	67.017	-38.392	270.895	-16.468	92.003	228.737	56.723	229.098	0.00016579	0.0002878	0.00013309	602.48	2.4519e-06	4.1998e-06	667.93	208.1	1.7628e-06	2.8119e-06	283.38	93.646	77.411	26.741	1.7287e-06	47.188	0.00017348	7.7856e-05	1.9342e-05	584.14	1.0017e-06	7.3628e-07	648.95	203.54	1.0535e-06	8.374e-07	275.8	96.539	75.794	26.513	9.3974e-07	46.471	190.138	-3.527	1.504	-76.092	82.598	58.704	-76.694	-70.423	46.068	94.116	-72.295	-68.066	-65.663	-61.699	50.047	-63.948	-8191	255	
2756.942	1	1	0	0	0.23141	0.45689	0.14678	0.12359	0.09345	0.20307	0.26308	0.078937	0.069472	0.15641	0.22452	0.38373	0.2574	0.20794	0.25272	0.10405	-2.3792	-2.6917	-3.1875	-2.7188	-2.9042	-2.9208	-2.7125	-3.2146	-2.825	-2.6813	-3.1458	-2.8396	-3.0229	-3.025	-2.4938	-2.9562	213.972	94.611	37.373	128.716	119.026	172.587	233.760	82.735	23.993	122.822	123.286	75.521	150.037	26.102	16.305	256.146	0.00015966	0.00034246	7.1836e-05	605.85	1.4275e-06	2.7945e-06	671.43	209.88	1.9155e-06	3.5409e-06	285.39	97.053	78.064	27.029	2.6459e-06	47.624	0.00017123	8.3967e-05	2.0044e-05	587.06	1.0069e-06	7.6036e-07	653.11	204.7	1.0515e-06	8.5656e-07	278.44	98.027	76.583	26.772	1.1975e-06	46.799	193.824	11.112	16.323	-76.363	60.354	53.171	-76.933	-70.753	62.310	66.892	-72.435	-68.503	-65.570	-61.775	70.430	-63.967	-8191	255	
2757.040	1	1	0	0	0.37657	0.050101	0.056947	0.13508	0.16671	0.1069	0.21184	0.19679	0.30688	0.11858	0.20432	0.18105	0.12623	0.27669	0.3588	0.12573	-2.2792	-2.6667	-3.1729	-2.8854	-2.8312	-3.1646	-2.8104	-3.0667	-2.9667	-2.5312	-3.2208	-2.8563	-2.7687	-3.0896	-2.7021	-3.0938	12.769	31.228	148.391	181.216	184.312	73.939	-84.139	-77.282	181.257	231.136	196.608	11.439	175.788	247.772	103.179	126.521	0.00017116	0.00034567	0.0001195	609.64	2.0348e-06	3.8436e-06	675.25	209.96	1.5871e-06	3.6193e-06	284.99	94.595	77.91	27.052	3.0404e-06	47.371	0.00017564	8.7102e-05	2.226e-05	590.17	1.0321e-06	7.3405e-07	655.72	205.03	1.0625e-06	9.0644e-07	278.14	97.244	76.273	26.693	9.6996e-07	46.551	196.868	-11.075	4.331	-76.127	62.761	57.421	-76.777	-70.798	48.532	55.490	-72.290	-68.495	-65.404	-61.761	45.158	-64.117	-8191	255	
2757.159	1	1	0	0	0.029481	0.059496	0.17483	0.22883	0.011059	0.073715	0.26568	0.073167	0.11771	0.15433	0.11058	0.27295	0.23349	0.28174	0.10519	0.13729	-2.5396	-2.6208	-3.0667	-2.7792	-2.5938	-3.3229	-2.7458	-2.9125	-3.0687	-2.8146	-3.0938	-2.7812	-2.6417	-3.0312	-2.7375	-2.9333	-77.241	-26.173	8.246	113.881	115.677	233.526	168.194	240.550	256.634	126.704	249.350	-46.323	-71.238	168.968	168.334	129.435	0.00016618	0.00032816	9.8273e-05	605.46	1.9696e-06	5.035e-06	670.52	208.35	1.6886e-06	3.4151e-06	284.36	95.114	77.828	27.041	2.9293e-06	46.978	0.00017616	8.3927e-05	1.9654e-05	586.11	9.6043e-07	8.0986e-07	649.71	203.72	9.6027e-07	9.4564e-07	275.87	96.897	76.042	26.612	9.9179e-07	46.209	193.791	-0.380	4.206	-76.011	53.366	50.103	-76.653	-70.707	29.502	70.506	-72.233	-68.318	-65.506	-61.937	61.210	-63.867	-8191	255	
2757.255	1	1	0	0	0.13785	0.1748	0.2474	0.095854	0.25878	0.12635	0.27173	0.20668	0.07959	0.14019	0.2047	0.22209	0.12169	0.019638	0.19009	0.087158	-2.5229	-2.4437	-2.9021	-2.9917	-2.7604	-3.0438	-2.9625	-2.7188	-2.8646	-2.7604	-3.1083	-3.0271	-2.5438	-3.0125	-2.8146	-2.7729	-68.129	193.184	226.680	187.026	124.186	227.677	238.420	176.257	-87.589	-38.730	180.316	230.169	-74.483	252.245	-3.088	10.348	0.00017027	0.00047664	0.00010459	606.48	2.0213e-06	4.0146e-06	670.41	208.22	7.4035e-07	4.1424e-06	284.56	93.631	77.678	26.942	1.9554e-06	47.356	0.00016492	8.4642e-05	2.0322e-05	585.85	1.0558e-06	8.3171e-07	650.4	203.83	9.6392e-07	9.6613e-07	276.94	97.052	76.08	26.631	9.6661e-07	46.505	190.562	-5.652	9.467	-76.207	65.633	48.920	-77.152	-70.271	31.629	61.085	-71.879	-68.484	-65.977	-61.558	77.579	-63.883	-8191	255	
2757.351	1	1	0	0	0.20094	0.28888	0.18974	0.21291	0.18441	0.067544	0.21597	0.25427	0.087454	0.27502	0.11476	0.22855	0.11173	0.1882	0.30147	0.15468	-2.6521	-2.7271	-2.8979	-3.0187	-2.7896	-3.1437	-2.85	-2.7479	-3.1937	-2.6146	-3.0604	-3.0187	-2.5896	-3.1688	-2.7417	-2.5479	79.436	78.266	67.075	243.477	-53.110	139.763	126.629	6.817	258.113	142.942	-67.714	1.918	-53.697	122.619	198.533	151.265	0.00017138	0.00041996	7.8665e-05	611.15	1.5792e-06	3.0561e-06	672.24	208.91	2.354e-06	2.9264e-06	285.32	94.817	78.739	26.861	2.7375e-06	47.428	0.00016974	8.6348e-05	2.265e-05	589.51	1.0654e-06	7.8489e-07	654.72	204.83	1.0795e-06	7.6747e-07	278.97	97.721	76.691	26.673	1.0115e-06	46.845	189.596	-10.309	-7.345	-76.242	54.705	59.783	-76.933	-70.554	34.773	50.507	-71.900	-68.483	-65.938	-61.715	57.614	-64.126	-8191	255	
2757.447	1	1	0	0	0.23652	0.23672	0.13573	0.10673	0.14169	0.24879	0.03692	0.051317	0.21496	0.044772	0.15305	0.084873	0.21741	0.098664	0.075932	0.2032	-2.4354	-2.6542	-2.9208	-3.0771	-2.5083	-3.1542	-2.8312	-2.8708	-3.0729	-2.7062	-2.9604	-3.0104	-2.5792	-3.1833	-2.8646	-2.7021	161.185	-26.819	90.218	220.488	-18.022	210.748	190.162	-31.018	210.628	-38.005	216.927	-73.044	46.219	216.646	-66.882	239.031	0.0001631	0.00040401	9.1567e-05	612.04	2.064e-06	3.6409e-06	680.01	210.41	1.7895e-06	3.6295e-06	286.91	96.505	78.478	27.119	2.2634e-06	47.893	0.00017192	9.1031e-05	2.0812e-05	590.29	1.059e-06	7.287e-07	658.37	206.14	1.071e-06	8.9085e-07	280.87	98.528	76.845	26.819	1.0174e-06	46.962	191.287	-2.957	10.495	-76.074	65.591	49.824	-77.102	-70.406	53.797	51.371	-71.873	-68.938	-66.127	-61.916	50.539	-63.868	-8191	255	
2757.543	1	1	0	0	0.1268	0.058669	0.107	0.24675	0.11016	0.075489	0.23029	0.24426	0.11221	0.15703	0.065386	0.18899	0.096805	0.10529	0.12297	0.20361	-2.5875	-2.6688	-2.8667	-3.1625	-2.7083	-3.0604	-3.0375	-2.7458	-3.2771	-2.7375	-2.8729	-3.0312	-2.6958	-2.7812	-3.0146	-2.6521	137.349	99.071	-34.141	171.504	230.533	95.470	159.488	166.244	168.345	-76.359	232.756	158.401	22.592	56.154	70.920	239.278	0.00017744	0.00043961	8.0676e-05	607.99	1.4211e-06	4.0596e-06	674.27	209.88	1.9992e-06	3.5618e-06	283.97	95.608	77.382	26.967	2.0212e-06	46.994	0.00016818	8.5753e-05	2.1079e-05	589.97	1.0137e-06	7.6393e-07	654.43	204.87	1.0353e-06	9.403e-07	276.74	97.102	76.074	26.626	9.3765e-07	46.337	191.240	0.297	16.047	-75.957	51.593	60.720	-76.929	-70.544	23.869	63.293	-72.155	-68.374	-65.646	-61.834	55.425	-63.837	-8191	255	
2757.639	1	1	0	0	0.1084	0.36001	0.33844	0.1422	0.12636	0.25261	0.39009	0.10533	0.11851	0.13681	0.20149	0.18123	0.15281	0.19653	0.16051	0.25472	-2.6583	-2.8021	-2.725	-3.1688	-2.7667	-2.8833	-3.0812	-2.6021	-3.1125	-2.8333	-2.7021	-3.0187	-2.6958	-2.8521	-2.8833	-2.6312	109.560	15.230	-64.964	-18.537	109.100	227.633	190.976	127.332	31.865	116.776	223.078	79.881	-47.723	174.502	47.478	237.504	0.0001574	0.0004006	9.3758e-05	604.12	2.5369e-06	2.6885e-06	670.24	209.62	2.0158e-06	3.7552e-06	282.97	95.791	77.771	26.933	1.1519e-06	47.043	0.00016992	8.3848e-05	2.2683e-05	585.88	1.0722e-06	7.336e-07	650.44	204.43	9.4851e-07	8.3384e-07	276.32	97.405	76.226	26.605	1.0375e-06	46.423	190.645	1.586	12.576	-76.044	81.426	70.269	-77.020	-70.456	46.931	80.899	-72.264	-68.134	-65.630	-61.973	78.719	-63.888	-8191	255	
2757.760	1	1	0	0	0.14352	0.32514	0.083987	0.25958	0.24593	0.25086	0.17321	0.11942	0.21337	0.068872	0.30149	0.1708	0.17348	0.25706	0.18311	0.29312	-2.5521	-2.9542	-2.7333	-3.1958	-2.4729	-2.8688	-3.1396	-2.75	-3.1521	-2.8979	-2.6917	-3.0625	-2.6562	-2.8521	-2.925	-2.6583	204.054	112.871	-57.775	182.369	-0.996	123.625	262.983	227.745	243.344	67.577	203.230	82.126	-30.456	64.484	101.448	234.059	0.00015779	0.00050457	0.00010886	607.34	2.5023e-06	3.4975e-06	674.38	209.66	1.9616e-06	4.9019e-06	283.59	95.974	77.339	27.016	2.4686e-06	47.157	0.00017302	8.5356e-05	2.226e-05	587.47	1.047e-06	8.1343e-07	652.05	204.75	1.0365e-06	8.3384e-07	277.24	97.761	76.109	26.629	9.9179e-07	46.579	193.426	-8.065	23.310	-76.215	60.388	61.749	-77.246	-70.367	44.208	71.566	-72.165	-67.809	-65.700	-61.933	51.803	-63.950	-8191	255	
2757.856	1	1	0	0	0.17241	0.456	0.088656	0.14829	0.071154	0.11263	0.051145	0.17634	0.036205	0.11218	0.088263	0.16219	0.18196	0.054477	0.1172	0.15927	-2.7146	-2.6125	-2.5854	-3.2125	-2.7729	-2.8208	-3.0229	-2.7417	-3.0854	-3.0354	-2.575	-3.0333	-2.6146	-2.8333	-3.1792	-2.9458	93.169	-80.289	-44.694	134.983	135.744	149.197	86.464	265.672	270.159	203.247	233.901	31.959	220.743	249.707	176.578	226.604	0.00016655	0.00040039	8.3515e-05	608.75	2.204e-06	2.9972e-06	670.71	209.65	2.5318e-06	4.2994e-06	288.06	95.387	78.259	27.187	1.9482e-06	47.625	0.00017318	7.9086e-05	2.285e-05	589.57	1.0722e-06	9.2447e-07	654.43	205.09	1.1034e-06	8.1335e-07	279.67	98.024	76.538	26.816	9.133e-07	46.837	191.120	-3.252	18.293	-75.976	52.274	76.593	-77.031	-70.619	31.580	74.588	-72.341	-68.722	-66.214	-61.855	40.851	-63.881	-8191	255	
2757.951	1	1	0	0	0.21565	0.080177	0.26409	0.19349	0.12303	0.12879	0.23097	0.2702	0.21558	0.32798	0.054402	0.18579	0.1633	0.2244	0.2115	0.39176	-2.5854	-3.1188	-2.6542	-3.2188	-2.8042	-2.8042	-3.2854	-2.7021	-3	-2.9875	-2.7479	-3.0104	-2.9813	-2.8187	-3.1146	-2.9062	207.024	-13.441	-5.754	161.216	59.849	-21.643	178.540	183.754	26.443	-50.456	113.028	246.702	12.910	-61.949	247.632	177.513	0.00016471	0.00042251	9.0046e-05	611.71	2.2743e-06	3.5488e-06	671.56	210.14	1.8297e-06	5.1777e-06	283.73	94.255	77.919	26.881	2.0001e-06	47.574	0.00017569	8.2539e-05	2.2705e-05	590.43	1.0518e-06	8.8434e-07	654.76	204.63	9.9352e-07	8.2449e-07	277.35	97.319	76.095	26.591	9.4016e-07	46.537	193.846	-16.888	2.789	-76.085	45.576	57.155	-76.978	-70.240	75.501	65.078	-72.010	-68.543	-66.203	-61.809	79.973	-63.882	-8191	255	
2758.047	1	1	0	0	0.10348	0.1491	0.19567	0.13814	0.24784	0.20526	0.11379	0.15408	0.089824	0.1368	0.042402	0.096502	0.3194	0.13138	0.15838	0.21779	-2.3917	-2.9896	-2.4708	-2.9896	-3.0083	-2.6312	-3.2	-2.8396	-2.7375	-3.0917	-2.65	-3.0458	-2.8479	-2.625	-3.0833	-2.9188	24.329	-61.714	27.758	142.858	217.363	257.752	13.546	201.113	-69.457	29.925	243.265	83.393	-65.512	-85.167	203.174	113.623	0.00016436	0.00035823	8.0253e-05	603.74	2.4499e-06	4.0827e-06	669.77	208.57	2.232e-06	3.0362e-06	282.42	94.222	77.436	26.895	1.6892e-06	47.11	0.00017067	7.7856e-05	2.3874e-05	584.94	9.9208e-07	7.8132e-07	648.49	203.7	1.0783e-06	6.8017e-07	275.01	96.477	75.606	26.493	8.7637e-07	46.302	193.006	-5.488	32.587	-76.219	63.833	65.703	-77.027	-70.223	26.500	63.879	-72.271	-68.755	-65.985	-61.790	53.856	-63.780	-8191	255	
2758.143	1	1	0	0	0.16528	0.29779	0.091479	0.061999	0.10877	0.14937	0.099128	0.14132	0.1706	0.26378	0.061424	0.14145	0.064478	0.14844	0.18505	0.33391	-2.2875	-3.2083	-2.6417	-3.0187	-3.0521	-2.5104	-3.4	-2.8542	-2.7333	-3.3187	-2.7146	-2.8479	-3.0604	-2.5854	-3.1333	-2.9437	-31.724	-15.055	93.676	179.655	24.526	2.875	212.656	-4.743	31.166	76.244	105.312	-21.102	116.078	155.627	210.509	-78.052	0.00016798	0.0004541	0.00010736	603.62	2.5488e-06	3.3339e-06	666.57	207.89	1.9507e-06	3.0368e-06	284.24	94.061	77.298	26.909	2.5201e-06	47.479	0.00017178	7.1943e-05	2.3039e-05	584.8	1.0213e-06	8.9727e-07	648.38	203.25	1.0762e-06	7.3095e-07	276.62	97.045	75.878	26.561	9.4562e-07	46.67	191.121	7.447	15.376	-76.288	54.232	43.845	-77.029	-70.865	20.485	66.696	-72.055	-68.066	-66.043	-61.884	58.592	-63.922	-8191	255	
2758.239	1	1	0	0	0.35584	0.078476	0.13126	0.198	0.058258	0.16171	0.1286	0.22483	0.31421	0.14061	0.083215	0.059826	0.21353	0.040062	0.13651	0.29522	-2.3083	-2.9708	-2.7146	-2.7979	-3.0271	-2.5479	-3.0458	-2.9271	-2.6937	-3.0312	-2.5646	-2.8646	-3.1625	-2.725	-3.0938	-2.85	146.121	-30.118	102.446	126.558	48.616	35.693	-61.652	-71.091	237.033	111.304	78.283	139.981	129.435	34.601	172.470	168.411	0.00017192	0.00032928	9.041e-05	604.27	2.1627e-06	2.6466e-06	674.41	209.22	2.2517e-06	4.8547e-06	287.17	95.818	78.561	26.965	2.2307e-06	47.755	0.00017336	7.4443e-05	2.2238e-05	585.89	9.7966e-07	9.8379e-07	653.82	204.65	1.1225e-06	7.5411e-07	279.13	98.503	76.838	26.756	9.3093e-07	47.051	191.189	-10.207	7.324	-76.392	72.713	48.012	-77.046	-70.619	52.544	65.237	-72.224	-67.850	-65.722	-61.957	52.032	-63.886	-8191	255	
2758.335	1	1	0	0	0.33219	0.096899	0.067605	0.1746	0.17311	0.11946	0.13198	0.17655	0.11732	0.20004	0.14952	0.071959	0.1213	0.29841	0.24185	0.065147	-2.3854	-3.0042	-2.6312	-2.8979	-3.0333	-2.8083	-3.3187	-2.8312	-2.7708	-3.0729	-2.9188	-2.9083	-3.0667	-2.6479	-2.9146	-3.2062	210.271	257.508	-1.801	116.435	-4.207	120.010	267.346	145.745	117.813	-70.616	103.229	-19.971	-52.670	-72.176	107.185	134.273	0.00016618	0.00054004	7.7176e-05	609.29	1.906e-06	3.4905e-06	680.84	210.53	2.0826e-06	3.8964e-06	288.78	96.653	79.443	27.142	1.7523e-06	47.927	0.00017346	6.988e-05	2.148e-05	590.92	1.0173e-06	8.6739e-07	660.18	205.67	1.0625e-06	7.7638e-07	281.61	99.034	77.066	26.797	9.5108e-07	47.057	190.555	-5.889	4.269	-76.221	78.861	69.868	-76.929	-70.551	23.792	52.219	-72.158	-69.057	-65.913	-61.847	56.478	-63.937	-8191	255	
2758.431	1	1	0	0	0.1867	0.2226	0.17655	0.18782	0.085174	0.056054	0.15038	0.22266	0.20908	0.19433	0.29734	0.058719	0.11737	0.22271	0.14721	0.18374	-2.325	-2.9396	-2.6937	-2.8375	-2.9146	-2.675	-2.975	-2.9083	-2.775	-3.1396	-2.8688	-2.7896	-3.0792	-2.725	-2.8604	-3.1146	120.077	-30.585	147.238	-73.975	33.783	121.852	-56.380	135.366	93.948	173.464	256.145	89.800	100.712	194.542	-15.892	80.665	0.00016288	0.00038102	0.00010339	605	1.3972e-06	4.4236e-06	670.95	208.86	2.4984e-06	4.241e-06	285.56	97.576	77.724	27.029	2.0424e-06	47.426	0.00017083	8.3372e-05	2.3362e-05	586.71	9.8046e-07	8.3706e-07	652.72	204.48	1.2157e-06	8.2359e-07	278.06	98.133	76.161	26.652	9.8507e-07	46.735	189.779	3.126	9.339	-75.972	41.023	66.118	-76.755	-70.790	56.953	76.129	-72.182	-68.732	-65.814	-61.540	33.437	-63.965	-8191	255	
2758.528	1	1	0	0	0.31269	0.024678	0.076024	0.23061	0.17256	0.12022	0.11851	0.040917	0.1321	0.20092	0.117	0.12878	0.26248	0.18876	0.21512	0.13612	-2.1521	-3.1292	-2.7938	-2.7438	-3.1437	-2.8021	-3.025	-3.0333	-2.5583	-3.1271	-2.8125	-2.575	-2.9708	-2.8187	-2.8771	-3.0875	118.531	29.603	-63.980	-62.909	234.089	241.903	228.805	154.166	161.802	262.069	118.914	163.072	-81.172	37.242	212.216	131.101	0.0001709	0.00033427	6.8329e-05	606.08	1.8213e-06	3.9019e-06	671.63	209.17	1.9244e-06	3.2774e-06	286.83	95.165	78.419	27.078	1.446e-06	47.62	0.00017423	7.6467e-05	2.2293e-05	585.58	9.3198e-07	8.1566e-07	650.76	204.65	1.1947e-06	8.2181e-07	278.15	97.661	76.616	26.727	1.0237e-06	46.888	191.254	-10.829	20.490	-76.097	66.333	56.752	-76.981	-70.541	45.475	71.130	-72.092	-68.333	-66.169	-61.876	48.043	-63.834	-8191	255	
2758.648	1	1	0	0	0.18241	0.11595	0.26692	0.23458	0.076862	0.068187	0.14143	0.31177	0.014833	0.063407	0.13587	0.12557	0.11105	0.20715	0.14602	0.2432	-2.2812	-2.9188	-2.7708	-2.55	-3.1625	-2.75	-2.8792	-3.1042	-2.5167	-2.8833	-3.0833	-2.5312	-2.8917	-2.7188	-2.9646	-3.0625	-80.358	206.968	-77.097	264.091	-48.540	-79.629	228.508	161.919	178.918	216.779	217.226	171.327	-11.189	243.332	-76.640	220.435	0.00017275	0.00033279	0.00013465	604.38	2.3801e-06	3.4294e-06	674.07	209.9	1.7872e-06	4.3639e-06	286.34	95.576	79.588	27.053	2.4798e-06	48.015	0.00017713	7.9443e-05	2.1959e-05	586.62	9.7125e-07	9.5391e-07	654.39	205.44	1.1273e-06	8.7705e-07	279.96	98.541	77.199	26.854	9.8843e-07	47.312	189.572	0.603	18.323	-76.380	68.916	56.147	-76.781	-70.631	35.762	71.472	-72.043	-68.532	-66.157	-61.841	53.732	-63.954	-8191	255	
2758.720	1	1	0	0	0.065016	0.069621	0.036768	0.099838	0.13339	0.18968	0.28533	0.22936	0.29776	0.04062	0.070591	0.10361	0.1123	0.19509	0.16041	0.20696	-2.1604	-2.775	-2.9729	-2.7479	-3.1146	-2.8521	-2.7458	-3.1021	-2.7354	-2.9146	-2.9833	-2.4917	-3.1771	-2.8458	-2.7146	-3.1	170.219	43.784	-34.701	8.509	158.445	-83.282	117.163	193.107	-75.703	21.054	38.554	209.119	240.212	207.302	71.610	234.844	0.00016557	0.00034765	9.5333e-05	607.28	1.9648e-06	3.7118e-06	677.28	211.93	1.0321e-06	2.8311e-06	288.78	97.141	78.803	27.405	1.924e-06	48.15	0.00018134	7.9523e-05	2.1636e-05	587.23	8.5465e-07	7.6259e-07	656.47	206.66	1.0503e-06	8.717e-07	281.72	99.59	77.237	27.041	1.0648e-06	47.521	192.781	-7.499	8.603	-76.131	67.033	55.868	-77.209	-70.719	26.707	77.804	-72.299	-68.373	-66.032	-61.972	20.783	-63.753	-8191	255	
2758.840	1	1	0	0	0.092077	0.083142	0.32302	0.31637	0.17921	0.16283	0.20342	0.23957	0.25019	0.090137	0.049584	0.13174	0.050023	0.11235	0.14182	0.26509	-2.3917	-2.8604	-3.0771	-2.6	-3.0354	-2.8229	-2.6312	-3.1854	-2.8042	-2.9542	-2.9604	-2.4375	-3.05	-2.9708	-2.675	-3.2646	10.918	-62.439	254.504	222.363	178.500	99.512	226.332	-55.655	145.411	167.066	196.624	223.246	57.787	256.912	-49.709	-54.622	0.00017315	0.00038141	8.7167e-05	605.41	2.1791e-06	4.4859e-06	672.41	209.5	1.9305e-06	3.6518e-06	285.84	96	78.621	27.148	2.2719e-06	47.882	0.00017904	7.4166e-05	2.138e-05	586.89	9.6363e-07	8.5223e-07	653.42	205.08	1.0714e-06	7.9108e-07	279.22	98.862	76.75	26.797	1.1055e-06	47.042	194.552	-8.170	-4.011	-76.073	66.075	62.877	-76.935	-70.334	35.815	56.575	-72.238	-68.455	-65.929	-61.851	54.152	-63.824	-8191	255	
2758.937	1	1	0	0	0.082655	0.094125	0.20426	0.058391	0.027155	0.2327	0.29356	0.29265	0.1259	0.08836	0.1467	0.14197	0.12205	0.18547	0.21704	0.059391	-2.2729	-2.8667	-3.0438	-2.6854	-2.9042	-2.8063	-2.7042	-3.0979	-2.7792	-2.7958	-3.0938	-2.5792	-2.8458	-2.9542	-2.6083	-3.0354	49.985	-76.889	-65.904	-40.301	-74.200	64.579	84.305	173.126	234.705	238.273	38.922	39.960	89.851	-75.428	-19.303	217.028	0.0001638	0.0003961	8.28e-05	601.69	1.6492e-06	4.3528e-06	666.19	208.29	1.6245e-06	3.1502e-06	283.37	94.561	78.212	26.932	1.9234e-06	47.648	0.00017157	9.5515e-05	2.1269e-05	581.86	9.7645e-07	7.3048e-07	647.54	203.95	1.0734e-06	8.4631e-07	276.87	97.712	76.531	26.694	1.0845e-06	46.813	192.591	-9.581	-0.472	-76.303	64.015	64.883	-76.815	-70.572	57.473	76.539	-72.148	-68.185	-65.755	-61.602	80.968	-63.858	-8191	255	
2759.031	1	1	0	0	0.17385	0.21075	0.021739	0.069109	0.14073	0.26228	0.24775	0.24918	0.26256	0.16803	0.12676	0.22385	0.015378	0.23229	0.20467	0.23437	-2.3604	-2.8604	-3.0896	-2.7458	-2.9313	-2.9604	-2.775	-3.0229	-2.7875	-2.5563	-3.0792	-2.6021	-2.925	-3.1292	-2.5208	-2.9646	-13.231	-32.268	-38.690	164.768	45.651	243.181	234.851	-73.717	8.197	128.654	199.036	-18.210	161.665	245.831	19.529	231.673	0.00016701	0.00027789	8.8592e-05	604.09	2.1182e-06	4.1927e-06	665.37	208.49	1.2048e-06	4.0095e-06	286.24	95.629	78.614	27.209	2.5282e-06	47.981	0.00017667	7.4602e-05	1.7338e-05	583.49	1.0666e-06	7.6437e-07	647.67	204.05	1.0904e-06	8.6279e-07	278.51	97.992	76.838	26.823	1.1211e-06	47.152	191.223	14.218	9.407	-76.077	68.881	53.331	-77.069	-70.675	64.255	77.554	-72.192	-67.841	-65.852	-61.879	38.027	-64.002	-8191	255	
2759.127	1	1	0	0	0.19356	0.088423	0.12353	0.22843	0.12128	0.06235	0.051201	0.043937	0.084758	0.077307	0.21126	0.12917	0.042915	0.099848	0.090774	0.097197	-2.4688	-2.8396	-3.0875	-2.7562	-2.7396	-3.0812	-2.6125	-3.1458	-2.9188	-2.5625	-3.0812	-2.7792	-2.8063	-3.1188	-2.6354	-3.0938	171.421	-23.214	270.210	180.276	186.838	181.144	127.785	141.152	63.286	95.667	182.419	257.306	166.429	117.211	109.853	266.076	0.00014631	0.0004514	0.00012882	604.51	2.2653e-06	4.3295e-06	672.29	210.13	1.6698e-06	3.9515e-06	289.3	96.348	78.974	27.289	2.1465e-06	48.135	0.00017841	8.7261e-05	1.9008e-05	584.96	9.5923e-07	8.4911e-07	653.22	205.47	1.0779e-06	8.7883e-07	280.66	98.465	77.187	27.027	1.1114e-06	47.455	188.382	-13.655	-6.170	-76.317	48.854	46.851	-76.971	-70.576	32.469	83.538	-72.354	-68.164	-65.844	-61.849	47.365	-63.841	-8191	255	
2759.248	1	1	0	0	0.06504	0.16263	0.23604	0.32545	0.30055	0.21909	0.12695	0.22748	0.19413	0.1467	0.093708	0.20024	0.067728	0.18941	0.18408	0.06971	-2.4188	-2.5479	-3.0375	-2.8979	-2.6583	-3.0687	-2.7208	-2.875	-3.0104	-2.6042	-3.1583	-2.7479	-2.7062	-3.075	-2.5667	-2.9833	54.519	138.785	63.905	268.137	52.558	178.017	-55.519	215.999	227.072	42.600	168.775	192.109	-23.991	256.762	117.698	187.875	0.00016126	0.00058035	0.00010517	604.96	2.262e-06	4.3084e-06	672.95	210.37	1.4256e-06	3.5502e-06	288.63	95.36	78.264	27.198	1.2804e-06	47.744	0.00017495	9.8491e-05	2.2405e-05	586.71	1.0638e-06	7.3539e-07	654.3	205.48	1.0641e-06	8.9887e-07	280.51	98.665	77.122	26.84	1.0753e-06	47.075	191.613	-2.319	5.934	-76.121	38.250	75.644	-77.233	-70.527	26.351	64.476	-72.053	-68.192	-65.733	-61.817	46.101	-63.799	-8191	255	
2759.319	1	1	0	0	0.19031	0.1788	0.10843	0.25261	0.12188	0.085387	0.15842	0.24513	0.16876	0.090232	0.18543	0.079523	0.085835	0.057165	0.13149	0.087779	-2.5146	-2.6125	-3	-3.0312	-2.8896	-3.0833	-2.7417	-2.9479	-2.9479	-2.6125	-3.0458	-2.9146	-2.6396	-3.075	-2.7938	-2.7604	215.846	18.998	-77.844	-15.834	210.020	-1.806	160.857	194.172	80.031	202.598	204.911	158.009	-24.502	52.936	174.550	186.889	0.00015929	0.00041298	9.6615e-05	600.49	1.7071e-06	3.6545e-06	660.43	208.83	1.7168e-06	4.5513e-06	283.05	94.668	78.336	27.113	3.1409e-06	47.871	0.00017241	9.7856e-05	1.9699e-05	581.65	1.1171e-06	7.8444e-07	645.43	204.53	9.8216e-07	9.0956e-07	276.8	97.804	76.494	26.761	1.0035e-06	46.884	188.957	9.244	16.157	-76.098	69.030	68.103	-76.914	-70.626	29.056	68.401	-72.000	-68.420	-66.202	-61.728	53.844	-63.971	-8191	255	
2759.416	1	1	0	0	0.22525	0.061169	0.071495	0.381	0.18248	0.41636	0.16311	0.21154	0.13562	0.091513	0.17232	0.13639	0.20275	0.2431	0.26239	0.19332	-2.6729	-2.5833	-2.8917	-2.9437	-2.6521	-3.0646	-2.8167	-2.9104	-2.9417	-2.6167	-2.9333	-2.9667	-2.5854	-3.0938	-2.7542	-2.7479	86.749	248.409	84.477	166.204	-64.394	173.295	161.490	128.550	119.875	-31.071	119.434	248.930	-73.240	265.560	235.011	188.326	0.00016247	0.00039574	0.00011422	601.63	2.5211e-06	4.9565e-06	662	208.85	1.6157e-06	4.4006e-06	285.03	95.875	78.127	27.119	1.6098e-06	47.605	0.00017209	9.1745e-05	2.2471e-05	581.17	1.0249e-06	7.6393e-07	644.29	204.03	9.8298e-07	8.8774e-07	277.54	98.088	76.63	26.762	1.0283e-06	46.876	194.408	1.134	19.229	-76.107	45.672	68.138	-76.914	-70.441	58.095	49.887	-72.091	-68.432	-66.201	-61.845	74.071	-63.644	-8191	255	
2759.536	1	1	0	0	0.12937	0.052301	0.10273	0.32377	0.33199	0.19203	0.21351	0.23534	0.14624	0.13467	0.14679	0.13232	0.35521	0.10314	0.089713	0.096061	-2.6042	-2.5729	-2.7854	-3.0625	-2.7292	-3.0875	-2.9313	-2.8271	-3.2375	-2.7271	-2.9479	-2.8229	-2.4729	-2.8917	-2.7833	-2.9021	209.374	-2.249	156.091	238.334	69.122	129.500	171.913	109.025	179.977	43.776	147.553	264.293	242.404	209.803	-84.756	155.872	0.00016522	0.0004325	0.00012409	601.89	1.5254e-06	4.8275e-06	666.27	210.23	1.4687e-06	2.1873e-06	287.47	96.468	78.215	27.146	2.9575e-06	48.01	0.00017088	9.0911e-05	2.2082e-05	581.98	9.9929e-07	8.1566e-07	647.31	204.9	1.0272e-06	8.6324e-07	279.08	98.617	77.114	26.847	1.0615e-06	47.167	192.542	9.393	-9.242	-76.294	70.391	65.098	-77.080	-70.245	45.010	70.877	-71.867	-68.928	-65.768	-61.706	61.782	-64.062	-8191	255	
2759.632	1	1	0	0	0.23457	0.27875	0.10843	0.27445	0.13248	0.15891	0.19594	0.16234	0.10827	0.23063	0.11925	0.24329	0.16555	0.32873	0.15549	0.29849	-2.6708	-2.8333	-2.8604	-3.2042	-2.6063	-3.0417	-2.9396	-2.5917	-3.0687	-2.6333	-2.8979	-3.0312	-2.5083	-2.9458	-2.9688	-2.7979	183.967	6.962	158.314	-20.583	149.663	64.007	191.144	187.056	161.468	116.186	133.721	108.102	171.147	-50.459	-61.830	202.548	0.00017017	0.00037622	0.00011836	599.47	2.2269e-06	2.4982e-06	671.13	210.5	1.7436e-06	3.5208e-06	287.86	96.397	78.702	27.176	1.7003e-06	47.697	0.00017025	8.4443e-05	2.3084e-05	582.38	1.1107e-06	7.5991e-07	651.29	205.43	9.9798e-07	9.3629e-07	279.69	98.801	77.075	26.852	1.0237e-06	47.071	195.313	-5.102	1.312	-76.395	60.130	62.427	-76.818	-70.381	27.822	62.989	-72.233	-68.198	-65.639	-61.808	59.151	-63.998	-8191	255	
2759.729	1	1	0	0	0.064283	0.1943	0.1684	0.18213	0.14089	0.22873	0.02797	0.31398	0.24481	0.29747	0.083911	0.15313	0.16312	0.35217	0.1342	0.29062	-2.7479	-2.6167	-2.8229	-3.1396	-2.65	-2.9542	-2.9813	-2.7354	-2.8937	-2.7729	-2.675	-3	-2.6063	-3.0187	-3.0312	-2.6708	8.565	76.941	82.897	-55.011	268.080	-83.857	127.247	123.924	53.280	170.676	9.170	-22.482	193.167	165.194	-11.631	111.887	0.00016858	0.00037745	4.4903e-05	600.46	1.8696e-06	3.1955e-06	661.57	207.76	1.4951e-06	3.1571e-06	284.38	95.268	78.123	27.006	2.7489e-06	46.989	0.00017841	7.857e-05	2.0768e-05	580.68	1.0354e-06	7.6482e-07	643.8	203.81	1.0142e-06	7.7059e-07	277.4	97.558	76.345	26.646	1.0132e-06	46.557	190.239	-6.837	5.785	-76.367	39.981	68.068	-76.831	-70.678	44.074	64.589	-72.229	-67.602	-66.141	-61.600	67.959	-64.023	-8191	255	
2759.847	1	1	0	0	0.053051	0.075021	0.14927	0.13168	0.092843	0.019376	0.032009	0.1653	0.050158	0.12369	0.29364	0.11242	0.16186	0.16448	0.16894	0.16625	-2.6354	-2.8937	-2.8375	-3.0438	-2.7417	-3.1188	-3.1167	-2.6375	-3.0417	-2.9188	-2.6958	-3.025	-2.6646	-3.0563	-3.0896	-2.5875	94.697	1.644	208.173	133.981	-48.240	-85.943	4.103	230.126	-80.742	-10.150	-27.707	-65.615	240.537	-67.450	-56.075	191.615	0.00015527	0.00035499	7.5126e-05	598.85	2.633e-06	4.2466e-06	660.73	209.12	2.1115e-06	3.8759e-06	283.58	94.484	78.434	26.859	2.1954e-06	47.517	0.00017464	8.98e-05	2.0088e-05	579.56	1.0462e-06	7.4475e-07	643.83	203.93	1.0361e-06	8.4809e-07	276.05	97.287	76.475	26.601	9.2547e-07	46.625	191.452	-3.838	-4.608	-76.196	60.036	60.412	-76.672	-70.219	34.045	62.077	-72.138	-67.981	-65.839	-61.793	39.953	-63.926	-8191	255	
2759.944	1	1	0	0	0.12781	0.11618	0.23147	0.080833	0.038279	0.18494	0.12145	0.20433	0.12719	0.13969	0.1879	0.25452	0.16943	0.17894	0.087552	0.39856	-2.4938	-2.8771	-2.675	-3.1396	-2.7625	-2.9042	-3.1333	-2.65	-2.9375	-3.1063	-2.5875	-2.9792	-2.6208	-2.8396	-3.0375	-2.7958	190.743	64.662	34.550	172.743	-37.068	66.090	222.427	-79.095	-0.284	265.850	202.318	270.540	36.024	56.303	48.536	76.899	0.00017753	0.00043009	0.00010813	605.83	2.9987e-06	3.6538e-06	666.58	209.22	1.9489e-06	4.1597e-06	285.81	95.475	78.728	26.986	1.8519e-06	47.722	0.00017276	7.7459e-05	2.4698e-05	583.31	1.0546e-06	7.9827e-07	647.46	204.44	1.0487e-06	8.8729e-07	278.64	98.262	77.044	26.705	9.2086e-07	47.054	194.558	-0.258	-7.755	-76.202	63.146	57.122	-77.093	-70.689	55.890	62.467	-72.106	-68.546	-66.127	-61.893	59.642	-63.808	-8191	255	
2760.015	1	1	0	0	0.2637	0.23601	0.071856	0.13791	0.20895	0.12746	0.10535	0.18788	0.32103	0.077052	0.092694	0.12694	0.24903	0.056013	0.14143	0.34055	-2.4792	-3.05	-2.6688	-3.1917	-2.8417	-2.7625	-3.2458	-2.6875	-2.7375	-3.1042	-2.5438	-2.9479	-2.9667	-2.6833	-3.1333	-2.6604	204.917	73.907	42.618	142.884	165.114	-48.385	111.033	232.085	256.282	9.063	120.387	56.060	158.269	169.372	-11.149	194.353	0.00016686	0.00032813	8.6687e-05	600.15	1.7534e-06	5.018e-06	670.24	209.57	2.0348e-06	4.8802e-06	287.87	97.294	78.842	27.013	2.2906e-06	47.953	0.00017485	7.3928e-05	2.4866e-05	584.53	1.0678e-06	9.1377e-07	651.27	205.37	1.1269e-06	8.1023e-07	280.85	98.854	77.128	26.743	8.8015e-07	47.173	193.266	-10.671	14.834	-76.024	59.903	51.346	-76.870	-70.281	53.206	60.449	-71.918	-68.126	-66.158	-61.613	49.075	-63.853	-8191	255	
2760.111	1	1	0	0	0.060844	0.22295	0.17447	0.32206	0.15775	0.11874	0.063415	0.19073	0.24516	0.24506	0.17111	0.22887	0.088234	0.11203	0.24945	0.12668	-2.4792	-3.0479	-2.6333	-3.1833	-2.8917	-2.6063	-3.1437	-2.7604	-2.7188	-3.1188	-2.7292	-2.8875	-2.7854	-2.6521	-3.0167	-2.8146	215.936	149.319	195.361	-88.638	83.434	179.570	250.390	244.044	29.096	95.279	62.056	129.960	111.947	2.567	210.822	155.441	0.00016731	0.00038763	0.00015481	603.11	3.1047e-06	3.7176e-06	669.24	209.35	1.373e-06	4.539e-06	285.01	95.647	78.359	26.709	1.8967e-06	47.268	0.00017406	7.8253e-05	2.3195e-05	584.37	1.0129e-06	9.7041e-07	649.16	204.77	9.3837e-07	8.276e-07	277.63	97.789	76.53	26.537	9.8507e-07	46.588	195.226	-23.461	10.628	-75.997	66.823	59.507	-77.111	-70.970	35.431	64.107	-72.134	-68.602	-66.049	-62.100	63.800	-64.188	-8191	255	
2760.208	1	1	0	0	0.093528	0.21499	0.13874	0.082571	0.1649	0.13213	0.18491	0.1067	0.28813	0.19686	0.18337	0.09932	0.074757	0.042888	0.091566	0.14014	-2.4854	-2.9458	-2.5104	-3.0292	-2.8688	-2.5604	-3.1708	-2.8583	-2.6833	-3.15	-2.6646	-2.9729	-2.9625	-2.8021	-2.925	-2.9854	169.139	-38.099	-82.744	86.400	220.457	-24.400	141.829	-1.932	36.556	187.720	35.017	236.571	-45.632	238.242	83.444	188.680	0.0001658	0.00040571	8.9492e-05	601.58	2.5134e-06	2.9718e-06	666.11	210.81	1.8662e-06	3.5529e-06	283.75	95.587	78.455	26.931	2.1272e-06	47.203	0.00017376	7.9404e-05	2.3641e-05	582.71	1.0486e-06	9.0084e-07	646.61	204.55	1.0625e-06	7.501e-07	276.83	97.503	76.563	26.638	9.8675e-07	46.598	193.219	3.889	-5.013	-76.122	73.250	40.668	-77.023	-70.443	43.895	62.819	-71.908	-67.791	-65.942	-61.973	55.287	-63.809	-8191	255	
2760.328	1	1	0	0	0.091989	0.131	0.2934	0.54494	0.065179	0.10478	0.047301	0.1834	0.42599	0.072099	0.13528	0.15418	0.11143	0.30461	0.051369	0.11876	-2.0271	-3.05	-2.6688	-2.9729	-2.9792	-2.6229	-3.2979	-2.8458	-2.7958	-2.9833	-2.4979	-2.9417	-3.1458	-2.6292	-3.0479	-2.8875	0.214	61.160	21.413	-52.501	-78.541	205.244	185.700	99.641	143.534	102.269	142.777	-59.465	19.662	-72.943	22.344	26.639	0.00016921	0.00042577	0.0001017	603.35	2.0597e-06	5.0436e-06	673.55	208.56	1.4836e-06	3.1302e-06	287.62	95.195	78.508	26.813	1.8389e-06	47.972	0.00017962	7.5118e-05	2.2494e-05	584.23	9.7165e-07	9.218e-07	652.76	204.58	1.2101e-06	6.432e-07	279.22	97.837	76.807	26.65	9.5989e-07	47.028	187.269	4.779	7.819	-76.110	63.020	53.542	-77.104	-70.252	52.932	76.423	-72.222	-68.319	-65.973	-61.636	64.389	-64.043	-8191	255	
2760.424	1	1	0	0	0.21958	0.14539	0.2945	0.018646	0.16817	0.17184	0.15655	0.16536	0.060945	0.15626	0.16023	0.047011	0.083369	0.28751	0.050438	0.17976	-2.0479	-3.1146	-2.6542	-2.8812	-3.0875	-2.5917	-3.0312	-2.9688	-2.6625	-3.1271	-2.8396	-2.8396	-3.0042	-2.6646	-3.0896	-2.9771	-5.909	261.105	228.393	228.962	-65.107	-58.112	115.974	-86.165	-42.874	158.403	40.443	197.195	99.202	189.668	149.956	-70.483	0.00015767	0.00034141	8.8374e-05	607.07	2.1754e-06	3.7592e-06	673.41	210.91	2.084e-06	4.2954e-06	288.89	94.748	78.155	27.039	1.8767e-06	47.765	0.00018283	7.4959e-05	2.3685e-05	587.44	9.5923e-07	8.8255e-07	654.61	205.83	1.1249e-06	7.893e-07	280.82	98.655	76.677	26.74	9.7542e-07	46.969	194.032	12.016	17.588	-76.155	82.173	58.363	-77.037	-70.603	27.671	59.163	-72.020	-68.039	-65.552	-61.980	65.301	-64.004	-8191	255	
2760.520	1	1	0	0	0.15092	0.26687	0.08697	0.062811	0.11962	0.15189	0.079482	0.14372	0.15432	0.27546	0.17751	0.29061	0.20278	0.24916	0.25547	0.26107	-2.1104	-2.9813	-2.6562	-2.7021	-3.1146	-2.65	-2.9417	-2.9562	-2.7	-3.0271	-2.7854	-2.675	-3.0146	-2.6083	-2.9271	-2.95	82.853	-56.006	264.741	-20.879	4.522	-0.230	132.823	19.506	0.048	179.033	-26.614	75.677	110.409	-42.094	32.827	188.303	0.00016907	0.00038513	0.00011345	606.43	2.5104e-06	3.8915e-06	668.3	210.2	2.7709e-06	3.7177e-06	283.73	95.492	78.37	26.991	1.879e-06	47.245	0.00017806	7.5832e-05	2.4821e-05	586.08	9.7846e-07	9.2403e-07	650.02	204.98	1.1452e-06	7.9731e-07	277.87	97.84	76.511	26.584	1.0791e-06	46.493	192.470	-6.060	1.040	-76.439	62.047	62.619	-77.089	-70.370	39.961	50.447	-72.287	-68.148	-66.419	-62.006	41.944	-64.064	-8191	255	
2760.617	1	1	0	0	0.22566	0.15853	0.086438	0.079734	0.12517	0.30999	0.049606	0.13667	0.055112	0.018166	0.31581	0.12473	0.11019	0.27438	0.082753	0.14905	-2.1	-3.0854	-2.8	-2.8417	-3.0479	-2.6792	-3.0583	-3.0354	-2.5896	-3.0417	-3.0625	-2.6146	-3.1437	-2.6937	-2.8417	-3.0438	31.459	-17.801	113.972	195.973	-41.912	38.073	7.622	60.810	180.555	167.119	150.550	67.258	2.271	156.810	116.652	87.978	0.00016159	0.00039695	7.6079e-05	603.81	2.7504e-06	3.8892e-06	666.01	207.89	2.1411e-06	4.5836e-06	285.02	95.768	78.796	26.876	2.6725e-06	47.164	0.00017813	6.9959e-05	2.3073e-05	583.34	9.4761e-07	7.7195e-07	646.79	204.08	1.2149e-06	7.648e-07	277.44	97.745	76.745	26.514	1.0199e-06	46.446	192.792	-10.837	26.945	-76.155	43.894	66.546	-77.248	-70.523	56.433	68.611	-71.960	-67.726	-65.824	-61.628	58.688	-63.769	-8191	255	
2760.713	1	1	0	0	0.064979	0.17212	0.028234	0.083842	0.079854	0.15963	0.10181	0.077976	0.1832	0.1548	0.28063	0.049004	0.28918	0.04595	0.073332	0.181	-2.2521	-2.8625	-2.9229	-2.7521	-3.0125	-2.7271	-3.0167	-3.0896	-2.6188	-3.1333	-3.0083	-2.5417	-3	-2.7521	-2.8521	-3.1312	-39.144	46.473	49.523	181.195	162.950	127.484	127.934	-7.649	169.382	194.475	181.422	56.184	222.232	45.933	250.641	60.723	0.00014736	0.00041921	0.00011191	608.01	2.7422e-06	3.7367e-06	669.01	210.33	1.69e-06	3.1954e-06	284.91	97.269	78.985	26.912	3.0003e-06	47.534	0.00018132	8.3491e-05	2.1458e-05	586.27	1.0486e-06	8.4554e-07	651.29	205.89	1.088e-06	8.4097e-07	278.69	98.541	76.835	26.568	1.0938e-06	46.795	190.070	8.911	20.152	-76.516	73.796	52.726	-77.169	-70.769	56.878	63.203	-71.884	-68.710	-66.557	-61.728	65.372	-63.573	-8191	255	
2760.809	1	1	0	0	0.19409	0.12504	0.27463	0.23374	0.094169	0.078542	0.1501	0.2218	0.1695	0.13034	0.10346	0.075545	0.080759	0.19155	0.089247	0.054977	-2.1833	-2.9354	-2.8917	-2.5708	-3.0146	-2.8417	-2.7021	-3.2792	-2.6167	-2.8604	-2.875	-2.5125	-3.1042	-2.7708	-2.6667	-3.0687	242.511	219.773	85.844	256.895	128.422	124.483	264.222	223.428	-36.222	-31.951	196.200	115.792	209.404	170.098	56.329	108.104	0.00016522	0.00039417	0.0001197	609.65	2.2983e-06	3.6828e-06	679.24	211.88	2.1066e-06	3.9142e-06	288.14	96.444	79.535	27.244	2.0111e-06	47.764	0.00017871	8.4364e-05	2.2249e-05	588.78	9.3158e-07	8.3706e-07	657.14	206.58	1.1318e-06	8.1513e-07	281.76	98.837	77.548	26.873	1.0921e-06	47.112	192.457	-18.849	-2.703	-76.314	58.410	77.664	-76.995	-70.580	40.818	70.573	-72.364	-68.448	-65.750	-61.709	51.620	-64.014	-8191	255	
2760.928	1	1	0	0	0.20312	0.055602	0.045004	0.31544	0.37561	0.25173	0.14418	0.2602	0.10134	0.17987	0.15642	0.074236	0.11797	0.34203	0.36046	0.16597	-2.2604	-2.9	-2.9437	-2.5896	-3.0042	-2.8979	-2.7604	-3.1958	-2.7271	-2.8354	-3.1083	-2.5896	-3.1312	-2.9417	-2.5854	-3.2375	80.829	-4.741	49.860	-73.797	-44.703	128.599	37.430	180.755	116.436	65.811	146.805	198.203	-41.972	160.548	-65.602	-62.026	0.00015999	0.00041549	0.00012831	610.29	1.8788e-06	3.6005e-06	669.23	209.04	2.0708e-06	3.4156e-06	285.41	94.357	78.838	26.874	3.3633e-06	46.946	0.00017311	8.4166e-05	2.2338e-05	589.03	9.4119e-07	8.7898e-07	652.59	205.33	1.1521e-06	8.374e-07	278.64	97.147	76.647	26.545	1.1697e-06	46.436	191.528	-22.847	5.145	-76.139	78.506	69.032	-77.079	-70.471	66.253	80.450	-72.184	-68.196	-65.968	-62.009	47.093	-64.121	-8191	255	
2761.024	1	1	0	0	0.17279	0.32543	0.0082925	0.28229	0.13045	0.079971	0.067531	0.013158	0.16102	0.19028	0.10364	0.26345	0.10624	0.17608	0.051327	0.17541	-2.2042	-2.85	-3.0625	-2.7375	-2.8458	-2.9542	-2.8667	-3.0833	-2.7021	-2.875	-3.0938	-2.7083	-3.0083	-3.0167	-2.7146	-2.9938	14.333	270.265	163.605	209.814	58.586	81.513	105.143	63.663	135.690	142.075	31.024	68.232	112.398	126.536	87.126	143.748	0.00016969	0.00041217	9.9629e-05	604.23	1.825e-06	2.9859e-06	665.64	210.27	1.5775e-06	4.2501e-06	283.52	94.237	78.648	26.731	1.8352e-06	47.263	0.00017443	8.0435e-05	2.0667e-05	585.98	9.9609e-07	8.5847e-07	648.88	204.92	1.105e-06	9.0956e-07	276.92	97.104	76.208	26.443	1.1194e-06	46.415	191.853	15.843	10.141	-76.255	65.291	53.329	-77.051	-70.632	44.212	80.922	-72.068	-68.387	-65.882	-61.566	55.378	-63.902	-8191	255	
2761.120	1	1	0	0	0.17771	0.23044	0.072775	0.13689	0.12977	0.073969	0.25924	0.2083	0.2336	0.2742	0.2218	0.041079	0.20455	0.1119	0.20162	0.19104	-2.4104	-2.6312	-3.0187	-2.7625	-3.0458	-2.9313	-2.5271	-2.8604	-2.7333	-2.8063	-3.3104	-2.8708	-2.925	-3.0792	-2.7708	-3.2521	52.512	32.096	139.436	172.855	241.983	-83.575	72.944	250.630	175.489	179.158	-77.882	87.265	-21.591	-49.125	40.415	112.439	0.0001691	0.00040265	0.00011583	607.78	2.3796e-06	3.5088e-06	667.42	210.22	1.4651e-06	4.7183e-06	287.55	93.432	78.624	26.861	2.3989e-06	47.464	0.00017269	8.3253e-05	1.9632e-05	587.55	9.2356e-07	7.2558e-07	651.13	205.64	1.0402e-06	8.5611e-07	278.74	97.892	76.632	26.534	1.0741e-06	46.599	190.071	6.699	9.523	-75.899	81.086	48.826	-76.922	-70.460	62.706	65.047	-72.014	-67.902	-65.862	-61.689	57.951	-63.905	-8191	255	
2761.241	1	1	0	0	0.040796	0.19623	0.091334	0.23636	0.2972	0.032985	0.093667	0.21497	0.069065	0.25363	0.26565	0.25775	0.095446	0.26831	0.15931	0.16566	-2.4188	-2.6104	-3.125	-2.8021	-2.8229	-3.0875	-2.8021	-3.0333	-2.9208	-2.8063	-3.1937	-2.7042	-2.8625	-3.2354	-2.7833	-3.0875	-72.248	249.964	62.977	58.666	-30.113	-61.482	74.847	-59.690	153.255	219.515	-69.104	35.501	199.997	214.467	22.882	-17.399	0.000163	0.0003584	0.00010177	609.24	2.5574e-06	5.2675e-06	676.96	210.29	1.3844e-06	4.4515e-06	288.95	96.012	79.17	27.078	2.5729e-06	47.845	0.00017385	8.4324e-05	1.9242e-05	589.18	1.0005e-06	8.7898e-07	656.42	206.15	9.777e-07	1.0062e-06	281.2	98.873	77.094	26.635	1.0522e-06	47.003	195.575	10.574	33.635	-76.340	58.516	51.896	-77.097	-70.331	37.111	52.404	-72.023	-68.523	-65.713	-62.008	74.138	-63.667	-8191	255	
2761.312	1	1	0	0	0.32724	0.08993	0.099479	0.22365	0.03775	0.23482	0.26185	0.010641	0.04415	0.16656	0.14617	0.065172	0.26291	0.14583	0.22142	0.049694	-2.55	-2.6958	-2.9875	-3.0708	-2.8688	-3.1958	-2.8187	-2.9708	-3.0625	-2.7208	-3.2833	-2.7396	-2.7542	-3.1917	-2.7729	-2.9583	50.906	239.469	150.850	-26.280	265.991	83.317	250.519	165.933	130.989	-75.836	-36.952	51.765	158.352	261.436	4.202	251.404	0.00017279	0.00040792	0.00012573	607.08	2.4755e-06	3.8041e-06	670.55	209.86	1.985e-06	4.5583e-06	286.98	95.998	78.812	26.905	1.701e-06	47.327	0.00017316	7.9047e-05	2.1135e-05	588.16	1.1067e-06	6.8276e-07	654.13	205.79	1.1156e-06	8.9041e-07	278.9	98.35	76.718	26.532	9.5653e-07	46.524	192.594	-4.024	2.131	-76.211	70.594	67.178	-77.089	-70.407	32.524	58.438	-72.147	-69.070	-65.916	-61.847	72.183	-63.770	-8191	255	
2761.407	1	1	0	0	0.029256	0.13572	0.092404	0.13902	0.34293	0.16398	0.30385	0.14734	0.25531	0.17783	0.15886	0.089323	0.30336	0.1152	0.14032	0.13228	-2.6396	-2.6667	-3.175	-3.1208	-2.9146	-3.0583	-2.7792	-2.9167	-2.8896	-2.5292	-3.2167	-2.85	-2.6167	-3.0167	-2.7729	-2.8729	85.321	47.723	86.378	270.879	105.981	88.993	192.185	106.392	-25.209	-68.581	127.449	157.022	225.427	-12.091	-9.352	99.032	0.00015649	0.00044353	6.4369e-05	606.04	2.3075e-06	3.743e-06	666.7	209.95	1.4229e-06	3.3366e-06	284.46	95.702	77.712	26.703	1.7233e-06	47.014	0.00016925	8.484e-05	1.9665e-05	585.76	1.0774e-06	7.4029e-07	647.51	204.82	9.0228e-07	9.1045e-07	277.64	98.458	76.375	26.467	9.8382e-07	46.397	189.286	-4.744	16.618	-76.160	93.557	65.867	-77.049	-70.351	76.357	52.627	-72.221	-67.942	-66.201	-61.684	68.810	-63.836	-8191	255	
2761.503	1	1	0	0	0.022711	0.12159	0.14612	0.099024	0.18034	0.12417	0.13756	0.33451	0.10857	0.18108	0.42499	0.2135	0.13874	0.36065	0.42931	0.22037	-2.7562	-2.4813	-3.1437	-3	-2.5917	-3.1104	-3.0833	-2.9854	-3.2271	-2.5563	-3.0187	-2.9604	-2.6958	-3.2229	-2.9042	-2.9125	36.935	130.783	16.908	-81.115	-19.881	113.935	161.330	231.626	-24.716	-3.565	223.530	-63.559	63.203	202.723	-4.989	111.813	0.00017567	0.00038986	0.00010674	603.08	2.4487e-06	3.3994e-06	670.16	209.86	2.4789e-06	4.0058e-06	285.27	96.904	78.498	26.902	2.3067e-06	47.22	0.00016755	8.0594e-05	1.9899e-05	585.11	1.0598e-06	6.4129e-07	650.44	205.53	1.0077e-06	8.2226e-07	277.95	98.208	76.891	26.543	9.6325e-07	46.612	191.941	-3.231	1.861	-76.376	65.242	68.207	-77.031	-70.461	53.114	61.164	-72.052	-68.964	-66.352	-61.836	42.022	-63.621	-8191	255	
2761.624	1	1	0	0	0.2571	0.076182	0.1335	0.2351	0.15695	0.24132	0.1549	0.18477	0.081997	0.2111	0.23434	0.0020191	0.19952	0.066164	0.17062	0.072407	-2.7479	-2.7167	-2.7562	-2.8042	-2.6125	-3.0792	-2.9021	-2.8667	-3.1479	-2.6583	-3.1375	-2.9437	-2.6813	-2.8917	-2.7708	-2.6583	-63.665	-63.845	-56.112	163.619	112.794	-48.021	252.018	203.769	-45.520	-44.619	216.708	180.000	-34.045	-50.498	109.601	0.993	0.00016524	0.00044685	0.00010936	604.7	1.6504e-06	4.7437e-06	677.22	210.41	1.305e-06	2.4413e-06	287.01	96.451	78.976	26.986	2.7158e-06	47.979	0.00016804	8.234e-05	1.9799e-05	586.55	1.0149e-06	7.4029e-07	655.65	206.29	1.0126e-06	7.6569e-07	280.82	98.94	77.105	26.702	1.0333e-06	47.253	187.603	-4.358	1.311	-76.497	56.562	45.957	-76.868	-70.562	45.948	69.284	-72.325	-67.867	-65.628	-61.751	67.226	-63.855	-8191	255	
2761.720	1	1	0	0	0.056269	0.18002	0.10465	0.075003	0.19756	0.14255	0.11072	0.028859	0.15858	0.093255	0.10027	0.17854	0.239	0.22289	0.093862	0.18618	-2.8042	-2.7042	-2.6896	-3.1292	-2.5271	-3.1437	-2.9938	-2.6937	-3.1583	-2.8396	-2.9125	-3.0396	-2.6917	-2.8917	-2.8604	-3.0312	202.176	80.227	-9.175	251.541	-29.548	165.568	169.774	191.021	168.467	-67.445	242.117	224.773	5.645	218.614	213.078	179.406	0.00017723	0.00035053	0.00010512	610.15	1.5288e-06	3.6508e-06	674.17	211.45	2.3065e-06	3.6398e-06	288.98	96.354	78.868	26.916	2.3759e-06	47.715	0.00017092	8.4285e-05	2.2995e-05	590.11	1.1015e-06	8.005e-07	656.42	206.55	1.0418e-06	7.8395e-07	281.46	99.03	77.134	26.633	1.0321e-06	46.87	191.538	14.619	-1.088	-76.232	61.713	50.144	-76.994	-70.635	63.330	68.658	-72.084	-68.897	-65.912	-61.905	63.828	-63.766	-8191	255	
2761.816	1	1	0	0	0.096448	0.30267	0.1153	0.23913	0.12932	0.10316	0.20516	0.078419	0.10058	0.17279	0.32661	0.10696	0.14559	0.2535	0.012027	0.23551	-2.8104	-2.7479	-2.6479	-3.1792	-2.6417	-3.0125	-2.95	-2.6875	-3.0438	-2.7375	-2.8604	-3.0875	-2.7229	-2.9188	-3.1271	-2.6833	239.751	-25.733	213.087	250.784	106.612	116.561	201.061	-76.459	208.159	176.515	54.771	250.275	18.907	220.016	-15.181	132.764	0.00016868	0.00041759	9.1925e-05	602.14	1.6563e-06	4.3482e-06	666.42	210.19	1.6295e-06	4.6763e-06	285.32	95.484	78.919	26.812	2.134e-06	47.18	0.00016604	8.2816e-05	2.1202e-05	583.68	1.0494e-06	8.9013e-07	649.34	205.12	1.0917e-06	8.374e-07	277.85	98.211	76.781	26.519	9.5611e-07	46.512	187.474	-4.662	-4.927	-76.185	55.115	59.379	-77.211	-70.618	48.418	68.844	-72.101	-68.760	-65.864	-61.937	38.131	-63.874	-8191	255	
#DATA ENDS
