BOXY.EXE: ISS Imagent and Oximeter Data Acquisition Program Version 0.80
Ascii Record File

#ACQ INFORMATION
2  Detector Channels 
16  External MUX Channels 
1  Auxiliary Channels 
5000  Waveform (CCF) Frequency (Hz)
1  Waveforms Skipped 
30  Waveforms Averaged 
1  Cycles Averaged 
16  Acquisitions per Waveform 
10.0806  Updata Rate (Hz) 

#FILE INFORMATION
TRUE -- External MUX Channel results are PARSED.
FALSE -- AC DC and Phase are NOT grouped.
TRUE -- Companion Program Settings File CREATED.
FALSE -- AC data not excluded
FALSE -- DC data not excluded
FALSE -- Phase data not excluded
FALSE -- Auxillary Chn. data not excluded
Tab delimiters

#CALIBRATION STATE
TRUE -- Waveform Calibration Values APPLIED.


#AUX CALIBRATION VALUES
Val Type	aux-1	

Term	1.0000e+00	
Factor	0.0000e+00	


#WF CALIBRATION VALUES
A = Detector Channel
Val Type	A-AC1	A-AC2	A-AC3	A-AC4	A-AC5	A-AC6	A-AC7	A-AC8	A-AC9	A-AC10	A-AC11	A-AC12	A-AC13	A-AC14	A-AC15	A-AC16	A-DC1	A-DC2	A-DC3	A-DC4	A-DC5	A-DC6	A-DC7	A-DC8	A-DC9	A-DC10	A-DC11	A-DC12	A-DC13	A-DC14	A-DC15	A-DC16	A-Ph1	A-Ph2	A-Ph3	A-Ph4	A-Ph5	A-Ph6	A-Ph7	A-Ph8	A-Ph9	A-Ph10	A-Ph11	A-Ph12	A-Ph13	A-Ph14	A-Ph15	A-Ph16	

Term	0.00000e+00	0.00000e+00	0.00000e+00	0.00000e+00	0.00000e+00	0.00000e+00	0.00000e+00	0.00000e+00	0.00000e+00	0.00000e+00	0.00000e+00	0.00000e+00	0.00000e+00	0.00000e+00	0.00000e+00	0.00000e+00	0.00000e+00	0.00000e+00	0.00000e+00	0.00000e+00	0.00000e+00	0.00000e+00	0.00000e+00	0.00000e+00	0.00000e+00	0.00000e+00	0.00000e+00	0.00000e+00	0.00000e+00	0.00000e+00	0.00000e+00	0.00000e+00	0.00000e+00	0.00000e+00	0.00000e+00	0.00000e+00	0.00000e+00	0.00000e+00	0.00000e+00	0.00000e+00	0.00000e+00	0.00000e+00	0.00000e+00	0.00000e+00	0.00000e+00	0.00000e+00	0.00000e+00	0.00000e+00	
Factor	1.00000e+00	1.00000e+00	1.00000e+00	1.00000e+00	1.00000e+00	1.00000e+00	1.00000e+00	1.00000e+00	1.00000e+00	1.00000e+00	1.00000e+00	1.00000e+00	1.00000e+00	1.00000e+00	1.00000e+00	1.00000e+00	1.00000e+00	1.00000e+00	1.00000e+00	1.00000e+00	1.00000e+00	1.00000e+00	1.00000e+00	1.00000e+00	1.00000e+00	1.00000e+00	1.00000e+00	1.00000e+00	1.00000e+00	1.00000e+00	1.00000e+00	1.00000e+00	X	X	X	X	X	X	X	X	X	X	X	X	X	X	X	X	

B = Detector Channel
Val Type	B-AC1	B-AC2	B-AC3	B-AC4	B-AC5	B-AC6	B-AC7	B-AC8	B-AC9	B-AC10	B-AC11	B-AC12	B-AC13	B-AC14	B-AC15	B-AC16	B-DC1	B-DC2	B-DC3	B-DC4	B-DC5	B-DC6	B-DC7	B-DC8	B-DC9	B-DC10	B-DC11	B-DC12	B-DC13	B-DC14	B-DC15	B-DC16	B-Ph1	B-Ph2	B-Ph3	B-Ph4	B-Ph5	B-Ph6	B-Ph7	B-Ph8	B-Ph9	B-Ph10	B-Ph11	B-Ph12	B-Ph13	B-Ph14	B-Ph15	B-Ph16	

Term	0.00000e+00	0.00000e+00	0.00000e+00	0.00000e+00	0.00000e+00	0.00000e+00	0.00000e+00	0.00000e+00	0.00000e+00	0.00000e+00	0.00000e+00	0.00000e+00	0.00000e+00	0.00000e+00	0.00000e+00	0.00000e+00	0.00000e+00	0.00000e+00	0.00000e+00	0.00000e+00	0.00000e+00	0.00000e+00	0.00000e+00	0.00000e+00	0.00000e+00	0.00000e+00	0.00000e+00	0.00000e+00	0.00000e+00	0.00000e+00	0.00000e+00	0.00000e+00	-1.23800e+02	-1.29605e+02	-1.18317e+02	-1.81384e+02	-6.66720e+01	-6.49322e+01	-1.54429e+02	-1.62015e+02	-6.47790e+01	-5.86214e+01	-1.69550e+02	-1.78216e+02	-1.82278e+02	-1.75921e+02	-6.55031e+01	-1.48295e+02	
Factor	1.82523e-05	2.02462e-04	5.46020e-05	1.59639e-01	1.48313e-06	2.22676e-06	1.61345e-01	6.10527e-02	1.51134e-06	2.21112e-06	9.03854e-02	2.02187e-01	4.85540e-02	9.32913e-03	1.59883e-06	1.33881e-02	1.11608e-05	1.90474e-05	5.34503e-06	8.05254e-02	1.92326e-07	2.14060e-07	7.69818e-02	3.09569e-02	1.94649e-07	2.13805e-07	4.45233e-02	1.01031e-01	2.48173e-02	4.77762e-03	2.01464e-07	6.64615e-03	X	X	X	X	X	X	X	X	X	X	X	X	X	X	X	X	



#DISTANCE SETTINGS
A = Detector Channel
A-1	A-2	A-3	A-4	A-5	A-6	A-7	A-8	A-9	A-10	A-11	A-12	A-13	A-14	A-15	A-16	

2.5000e+00	3.0000e+00	2.5000e+00	3.0000e+00	2.0000e+00	3.0000e+00	1.5000e+00	3.0000e+00	3.0000e+00	3.0000e+00	3.0000e+00	3.0000e+00	3.0000e+00	3.0000e+00	1.5000e+00	3.0000e+00	

B = Detector Channel
B-1	B-2	B-3	B-4	B-5	B-6	B-7	B-8	B-9	B-10	B-11	B-12	B-13	B-14	B-15	B-16	

1.0000e+01	1.0000e+01	1.0000e+01	1.4400e+00	1.0000e+01	1.0000e+01	1.5100e+00	1.9400e+00	1.0000e+01	1.0000e+01	1.9900e+00	2.4900e+00	2.4100e+00	2.9000e+00	1.0000e+01	2.9800e+00	




#DATA BEGINS
time	group	step	mark	flag	A-AC1	A-AC2	A-AC3	A-AC4	A-AC5	A-AC6	A-AC7	A-AC8	A-AC9	A-AC10	A-AC11	A-AC12	A-AC13	A-AC14	A-AC15	A-AC16	A-DC1	A-DC2	A-DC3	A-DC4	A-DC5	A-DC6	A-DC7	A-DC8	A-DC9	A-DC10	A-DC11	A-DC12	A-DC13	A-DC14	A-DC15	A-DC16	A-Ph1	A-Ph2	A-Ph3	A-Ph4	A-Ph5	A-Ph6	A-Ph7	A-Ph8	A-Ph9	A-Ph10	A-Ph11	A-Ph12	A-Ph13	A-Ph14	A-Ph15	A-Ph16	B-AC1	B-AC2	B-AC3	B-AC4	B-AC5	B-AC6	B-AC7	B-AC8	B-AC9	B-AC10	B-AC11	B-AC12	B-AC13	B-AC14	B-AC15	B-AC16	B-DC1	B-DC2	B-DC3	B-DC4	B-DC5	B-DC6	B-DC7	B-DC8	B-DC9	B-DC10	B-DC11	B-DC12	B-DC13	B-DC14	B-DC15	B-DC16	B-Ph1	B-Ph2	B-Ph3	B-Ph4	B-Ph5	B-Ph6	B-Ph7	B-Ph8	B-Ph9	B-Ph10	B-Ph11	B-Ph12	B-Ph13	B-Ph14	B-Ph15	B-Ph16	aux-1	digaux	

3013.892	1	1	0	256	0.22469	0.075517	0.16824	0.3461	0.060287	0.11533	0.17123	0.13273	0.040161	0.037249	0.15071	0.12294	0.2272	0.10606	0.20236	0.11637	-2.4562	-2.4938	-2.9833	-2.8333	-2.6729	-3.1708	-2.7833	-2.8937	-3.0062	-2.6104	-2.9583	-2.7458	-2.4667	-3.0458	-2.5729	-2.6833	215.470	244.524	325.454	446.354	238.430	257.798	465.667	409.231	213.342	186.581	294.363	242.553	256.318	279.286	269.014	389.880	0.00029418	0.00033142	4.5685e-05	267.58	4.2235e-07	3.8355e-06	380.05	74.249	1.2564e-06	2.6445e-06	144.78	51.082	29.508	11.537	2.1399e-06	25.358	0.00036482	0.00041738	0.00011201	261.87	4.1174e-06	4.6402e-06	371	73.461	4.2498e-06	4.6449e-06	142.53	50.568	29.171	11.545	4.5736e-06	25.169	186.523	140.174	262.306	126.070	334.955	253.673	125.948	130.980	226.128	280.407	128.184	133.125	134.457	138.963	234.849	135.707	-8191	255	
3013.988	1	1	0	0	0.32039	0.069297	0.14557	0.11418	0.13629	0.14118	0.062508	0.17667	0.077921	0.25776	0.1904	0.22727	0.17678	0.096595	0.12597	0.13319	-2.4271	-2.5542	-2.8958	-2.7354	-2.5271	-3.0479	-2.8479	-2.8187	-2.8958	-2.5833	-2.8625	-2.9396	-2.7333	-3.1375	-2.7146	-2.9875	126.948	248.366	197.690	431.613	179.209	193.895	397.664	423.029	229.083	268.567	451.267	391.469	387.002	417.188	439.706	144.859	0.0002703	0.00024931	1.6135e-05	268.3	1.8891e-06	1.7756e-06	377.11	74.507	1.0317e-06	1.8641e-06	148.73	50.616	29.395	11.316	2.0264e-06	25.091	0.00036612	0.00043547	0.00011929	262.55	4.5729e-06	4.7227e-06	370.47	73.634	4.5292e-06	4.9768e-06	146.88	50.804	29.121	11.318	4.6551e-06	24.934	183.729	240.558	271.683	126.566	279.175	290.181	125.691	131.314	230.182	241.958	129.415	132.272	135.059	139.477	285.429	136.269	-8191	255	
3014.084	1	1	0	0	0.08666	0.13665	0.059208	0.14884	0.062369	0.097817	0.24384	0.21865	0.17856	0.24233	0.23387	0.075322	0.28154	0.25134	0.28079	0.14384	-2.5167	-2.4979	-2.9208	-2.8875	-2.6583	-3.0125	-2.9417	-2.6896	-3.1229	-2.8688	-2.7021	-3.0875	-2.7354	-3.0438	-2.8958	-2.8396	149.695	273.689	315.159	369.592	153.432	338.155	382.445	154.992	148.938	204.269	392.365	440.889	347.304	312.215	351.507	295.456	0.00025896	0.0003505	2.5851e-05	272.24	1.3362e-06	4.2748e-06	396.69	74.921	1.8599e-06	7.4945e-07	153.7	48.495	28.125	10.878	1.836e-06	24.406	0.00038561	0.0004763	0.00012955	267.09	4.7196e-06	5.174e-06	388.54	74.504	4.6087e-06	5.3344e-06	150.7	49.525	28.109	10.836	4.8842e-06	24.21	183.581	268.740	190.170	126.102	284.832	183.590	125.509	130.966	251.503	339.194	129.250	132.790	135.152	139.822	290.505	136.525	-8191	255	
3014.180	1	1	0	0	0.16739	0.063475	0.27984	0.33919	0.23897	0.10763	0.1242	0.12115	0.16627	0.14334	0.1547	0.077906	0.38	0.35794	0.26092	0.16872	-2.6688	-2.7479	-2.7042	-3.2375	-2.7625	-3.1875	-2.9458	-2.7	-3.2188	-2.7208	-2.8292	-2.9458	-2.7271	-2.875	-2.8854	-2.4833	351.232	149.376	344.227	431.263	119.648	372.357	453.294	454.265	372.132	181.154	214.986	267.508	136.627	389.525	269.075	254.861	0.00023315	0.00032326	4.8119e-05	265.85	1.1808e-06	2.2937e-06	425.33	76.139	2.8441e-06	2.9037e-06	160.02	49.359	28.166	10.585	2.2409e-06	24.067	0.00038154	0.00045702	0.00012757	259.91	4.7797e-06	4.9475e-06	414.06	75.176	4.715e-06	5.2801e-06	156.71	49.485	27.9	10.611	5.0051e-06	24.043	187.480	254.826	201.615	126.847	198.280	292.476	124.751	131.947	246.687	291.670	129.563	133.257	135.994	140.329	274.817	136.613	-8191	255	
3014.299	1	1	0	0	0.11911	0.19763	0.225	0.37052	0.16416	0.19656	0.075184	0.25249	0.10924	0.1163	0.032024	0.13653	0.11461	0.083432	0.20725	0.062607	-2.7188	-2.7938	-2.8229	-3.1396	-2.5875	-3.0687	-3.1188	-2.5667	-3.0521	-3.0062	-2.6562	-3.1333	-2.6125	-2.7938	-2.8646	-2.6542	178.002	270.547	342.304	418.448	179.684	205.875	234.103	125.259	380.881	427.214	404.560	401.716	450.025	443.072	208.015	195.346	0.00026187	0.00032755	9.2417e-05	269	3.0429e-06	3.9166e-06	440.1	80.495	1.7071e-07	4.854e-07	165.86	50.073	28.174	10.728	1.4389e-06	24.356	0.00037605	0.00045309	0.00012924	263.91	4.8274e-06	5.0068e-06	428.77	78.856	4.6631e-06	5.0307e-06	162.39	50.531	28.188	10.65	5.0404e-06	24.223	183.171	209.885	202.821	127.428	245.045	256.192	124.929	131.602	308.688	350.167	128.939	133.906	135.956	139.077	338.760	136.309	-8191	255	
3014.396	1	1	0	0	0.23322	0.079856	0.11701	0.1557	0.31283	0.055511	0.22611	0.17817	0.10195	0.31177	0.11293	0.12396	0.071869	0.049833	0.073243	0.091882	-2.7167	-2.7313	-2.7479	-3.2271	-2.6437	-3.0542	-3.1458	-2.5896	-2.8292	-2.7687	-2.5938	-3.0875	-2.5521	-2.8333	-3.1979	-2.6875	427.901	251.723	140.010	175.692	407.371	219.109	202.350	380.402	343.457	434.928	441.561	135.102	151.828	208.630	319.616	243.574	0.0002542	0.00013139	3.73e-05	269.8	6.0111e-07	5.5098e-07	452.32	81.865	1.8066e-06	2.2581e-06	169.21	49.657	28.852	10.658	1.0806e-06	24.347	0.00037426	0.00044642	0.00012137	263.7	4.6587e-06	4.7307e-06	442.7	80.361	4.6513e-06	4.9549e-06	166.37	50.354	28.552	10.675	4.4037e-06	24.241	181.771	241.186	234.581	126.747	378.712	389.710	125.220	131.569	244.916	229.549	128.961	132.300	135.268	139.625	309.691	136.441	-8191	255	
3014.467	1	1	0	0	0.13926	0.33962	0.10168	0.15186	0.082425	0.25885	0.072551	0.25231	0.15793	0.13435	0.17078	0.046992	0.13508	0.065412	0.16763	0.032927	-2.6271	-2.8688	-2.4958	-2.8896	-2.8208	-2.8646	-3.1521	-2.6854	-3.0354	-2.9437	-2.6208	-3.1375	-2.7042	-2.8187	-3.0375	-2.7125	309.363	424.422	434.500	152.234	461.940	130.342	421.205	403.995	210.869	197.054	386.214	321.553	450.456	366.497	347.082	435.448	0.00025288	0.00026082	3.3931e-05	266.51	1.2707e-06	1.967e-06	460.13	81.986	1.526e-06	2.0767e-06	171.46	50.792	28.838	10.752	5.7752e-07	24.288	0.00037014	0.00043444	0.00012317	259.7	4.4047e-06	4.9724e-06	449.81	80.348	4.2912e-06	4.6921e-06	168.19	50.721	28.568	10.683	4.5669e-06	24.204	185.492	204.349	199.391	126.638	308.852	225.076	125.038	131.616	164.325	269.059	128.989	133.675	135.397	139.708	241.519	136.853	-8191	255	
3014.565	1	1	0	0	0.16432	0.24692	0.097685	0.060894	0.09473	0.20148	0.10189	0.18428	0.21189	0.12533	0.28016	0.057124	0.26247	0.14535	0.10648	0.3103	-2.4396	-2.9104	-2.6375	-2.9854	-2.85	-2.8229	-3.2271	-2.6792	-3.0375	-3.0771	-2.65	-3.0708	-2.9271	-2.8688	-3.1979	-2.6583	270.700	172.421	313.963	176.663	181.411	254.120	422.734	366.072	230.239	223.505	441.095	330.097	205.457	423.510	304.875	391.593	0.00024102	8.059e-05	4.5586e-05	267.99	1.4644e-06	2.8994e-06	471.96	83.344	1.2026e-06	2.4092e-06	173.67	51.27	28.923	10.823	1.0024e-06	24.39	0.0003488	0.00041464	0.00011788	263.13	4.1606e-06	4.6054e-06	460.34	81.175	4.251e-06	4.6115e-06	171	50.811	29.028	10.743	4.2211e-06	24.239	187.265	459.040	115.993	126.776	297.003	204.262	124.970	131.273	288.068	150.456	128.545	132.590	134.252	139.805	321.020	136.546	-8191	255	
3014.684	1	1	0	0	0.097559	0.054129	0.13221	0.2201	0.1097	0.16107	0.2543	0.038422	0.33076	0.11593	0.076159	0.19603	0.13814	0.19872	0.16334	0.098067	-2.5438	-3.0792	-2.6063	-2.9833	-2.9083	-2.7938	-3.2958	-2.6354	-2.95	-3.0104	-2.6542	-3.1292	-2.8417	-2.5187	-3.1	-2.8	259.676	122.096	285.245	446.355	330.121	331.993	118.674	310.059	304.776	383.919	166.818	198.221	180.992	152.176	244.752	280.040	0.00028109	0.00013324	6.2947e-05	281.01	1.457e-06	4.3113e-06	480.4	84.271	1.2172e-06	2.7664e-06	183.46	52.383	29.677	10.872	1.5092e-06	24.588	0.00036849	0.00039761	0.00011799	274.57	4.1218e-06	4.3338e-06	469.52	83.015	4.2243e-06	4.3652e-06	179.59	52.371	29.43	10.862	4.1443e-06	24.513	184.424	221.901	251.437	126.938	286.047	226.761	125.208	131.397	221.890	282.643	128.619	133.235	135.597	140.032	219.513	136.694	-8191	255	
3014.780	1	1	0	0	0.20858	0.18327	0.32045	0.25374	0.32677	0.21947	0.23976	0.32115	0.10183	0.14417	0.028624	0.26611	0.22454	0.16072	0.13091	0.2437	-2.4271	-2.9542	-2.7167	-2.9479	-2.9333	-2.6937	-3.0563	-2.7604	-2.7896	-2.8833	-2.7521	-2.8125	-3.0938	-2.7125	-3.0854	-2.8146	218.858	144.269	371.235	466.382	193.874	172.365	383.078	141.140	270.336	369.931	291.995	309.687	189.260	329.175	214.048	254.274	0.00024575	0.00019506	8.4481e-05	290.73	1.4055e-06	3.1714e-06	492.91	88.435	9.0987e-07	2.3436e-06	192.06	54.126	31.16	11.026	2.5899e-06	24.391	0.0003424	0.0003846	0.00010797	285.73	3.9066e-06	4.1291e-06	482.5	86.85	4.0759e-06	4.1919e-06	188.16	53.956	30.719	11.023	3.9441e-06	24.16	183.147	183.744	262.029	126.621	249.055	253.939	125.333	131.476	240.686	261.797	128.630	132.100	135.008	139.379	252.568	136.163	-8191	255	
3014.876	1	1	0	0	0.074223	0.076468	0.20517	0.07276	0.24993	0.28743	0.077814	0.1139	0.20184	0.092887	0.10621	0.086642	0.25403	0.17401	0.15654	0.13582	-2.2938	-2.9375	-2.6917	-2.8271	-3.0229	-2.6833	-3.1396	-2.8521	-2.6604	-3.0396	-2.7146	-2.9313	-2.9583	-2.6542	-3.0333	-2.8792	279.539	139.972	345.882	472.189	332.358	295.002	454.787	133.235	402.919	198.587	441.719	357.329	411.573	201.314	195.623	210.386	0.00025787	0.00010599	0.00010435	313.48	1.3565e-06	2.4662e-06	513.53	92.725	2.0511e-06	3.1408e-06	197	56.119	32.021	11.151	2.6358e-06	24.147	0.00033708	0.00037055	0.00010691	305.26	4.0469e-06	4.3749e-06	500.48	90.98	4.1744e-06	4.2048e-06	192.67	55.295	31.546	11.119	4.01e-06	23.924	185.576	169.841	205.575	126.511	226.756	220.410	125.264	131.528	248.093	333.925	128.770	131.795	135.107	139.742	241.098	136.087	-8191	255	
3014.972	1	1	0	0	0.17824	0.10747	0.20617	0.064891	0.093131	0.10377	0.13673	0.074685	0.16026	0.12345	0.12987	0.23456	0.19589	0.082927	0.051918	0.1585	-2.1917	-3.2167	-2.6437	-2.9313	-2.9958	-2.5896	-3.1875	-2.8479	-2.6729	-3.2042	-2.8146	-2.8063	-3.0167	-2.6813	-2.8979	-2.7104	464.690	239.554	121.987	374.831	285.732	340.778	114.057	457.652	117.452	184.618	354.759	124.452	172.514	383.925	168.895	126.132	0.00023542	0.00022214	0.00010747	317.64	2.729e-06	7.2065e-07	524.58	94.348	1.9411e-06	2.524e-06	199.78	56.26	32.04	11.314	2.0956e-06	24.525	0.0003385	0.00038869	0.00010882	311.31	4.1242e-06	4.2701e-06	510.69	92.666	4.1164e-06	4.3621e-06	195.54	55.734	31.86	11.339	4.3386e-06	24.518	179.043	253.508	206.373	126.378	253.290	294.124	125.089	131.143	276.421	264.931	128.904	132.471	135.588	139.953	257.296	136.291	-8191	255	
3015.093	1	1	0	0	0.20874	0.33031	0.063863	0.24588	0.15565	0.20185	0.31244	0.13004	0.11635	0.15245	0.15094	0.26533	0.15917	0.10209	0.11871	0.21387	-2.0375	-3.3438	-2.7167	-2.8812	-3.1771	-2.6292	-2.8937	-2.9083	-2.8896	-3.0479	-2.7521	-2.8021	-3.0625	-2.5521	-2.9083	-3.1104	309.792	381.796	264.579	410.594	287.060	215.975	412.671	191.043	158.887	219.751	171.530	330.825	358.718	265.381	204.091	437.746	0.00025567	0.00033986	7.3693e-05	319.5	1.6969e-06	2.1334e-06	526.22	95.313	1.4775e-06	1.3328e-06	201.94	56.463	32.377	11.44	1.6572e-06	24.712	0.00035773	0.00040126	0.00011159	312.84	4.0172e-06	4.5871e-06	513.97	93.643	4.2373e-06	4.4801e-06	197.34	56.251	32.111	11.465	4.4167e-06	24.616	183.754	176.337	182.952	126.447	283.211	301.088	125.541	131.261	272.931	297.151	128.793	132.259	135.233	139.683	261.992	136.749	-8191	255	
3015.165	1	1	0	0	0.14878	0.14761	0.19721	0.22141	0.30923	0.075897	0.13171	0.11515	0.042628	0.17065	0.1785	0.20039	0.028436	0.24214	0.092502	0.33329	-2.1729	-3.075	-2.8354	-2.6063	-3.1333	-2.8271	-2.975	-3.0542	-2.5104	-3.1063	-3.0687	-2.5812	-3.2062	-2.5875	-2.7521	-3.0812	146.565	452.828	173.637	152.856	434.931	144.685	451.971	324.241	280.125	302.463	358.294	345.262	180.614	187.120	375.016	448.102	0.00024226	0.00023762	5.0799e-05	322.35	7.5149e-07	2.4382e-06	524.61	95.018	3.1443e-06	3.606e-06	200.85	56.334	32.915	11.371	4.709e-07	24.038	0.00036884	0.00040615	0.00012006	314.8	4.361e-06	4.6696e-06	512.56	93.835	4.5025e-06	4.8939e-06	196.95	56.199	32.643	11.323	4.598e-06	23.87	186.570	231.837	189.880	126.286	193.555	291.525	125.242	131.066	275.800	227.190	128.914	131.968	135.730	139.265	441.250	136.809	-8191	255	
3015.285	1	1	0	0	0.17714	0.014664	0.084552	0.19731	0.19025	0.13445	0.2237	0.11805	0.20999	0.23716	0.20127	0.070866	0.19988	0.12017	0.11873	0.059933	-2.1333	-2.9958	-2.8333	-2.5396	-3.0646	-2.7438	-2.6396	-2.8812	-2.5729	-2.925	-2.9625	-2.4396	-2.95	-2.85	-2.775	-3.0667	362.956	389.214	232.069	226.537	387.703	267.281	375.057	384.120	350.751	389.776	456.589	390.396	435.769	458.688	355.164	350.162	0.00024177	0.00035704	7.1376e-05	320.73	2.6505e-06	4.1766e-06	521.38	95.253	3.0287e-06	3.0996e-06	200.66	56.421	32.932	11.39	2.1601e-06	23.538	0.00036415	0.00041412	0.00012288	315.53	4.3862e-06	4.848e-06	509.76	93.774	4.5596e-06	5.0271e-06	196.54	56.368	32.649	11.34	4.8087e-06	23.529	187.821	155.137	170.076	126.230	236.561	278.913	125.280	131.180	224.548	303.966	128.571	130.911	135.395	139.614	252.649	136.629	-8191	255	
3015.380	1	1	0	0	0.17996	0.21732	0.10387	0.36944	0.20738	0.15392	0.10571	0.085025	0.27015	0.1214	0.21068	0.13312	0.18838	0.32315	0.19827	0.27629	-2.2896	-3.0083	-2.9125	-2.7188	-3.1063	-2.6854	-2.8167	-3.2333	-2.6042	-2.9979	-3.0229	-2.6667	-3.1167	-2.7687	-2.6521	-3.2104	170.396	386.980	335.958	222.039	466.078	396.532	454.171	138.842	388.324	235.763	296.060	177.487	247.397	443.699	466.650	141.973	0.00025223	7.0407e-05	7.0332e-05	320.03	1.9093e-06	3.144e-06	515.75	96.027	1.829e-06	2.6567e-06	199.71	55.603	32.288	11.325	1.4947e-06	23.664	0.00037068	0.00045051	0.00012	313.64	4.587e-06	4.9689e-06	505.36	93.608	4.5787e-06	5.1763e-06	194.84	55.892	32.238	11.34	4.6878e-06	23.427	180.486	326.466	254.132	126.705	261.584	292.438	125.160	131.503	286.556	322.078	128.685	132.535	135.295	139.769	265.389	136.291	-8191	255	
3015.476	1	1	0	0	0.044089	0.26514	0.18607	0.071033	0.076648	0.15961	0.35269	0.13245	0.09344	0.038496	0.18982	0.25139	0.030357	0.21291	0.24485	0.061714	-2.2271	-2.7771	-2.7646	-2.5729	-3.0375	-2.9542	-2.6813	-3.0729	-2.5625	-2.9792	-3.0104	-2.5729	-2.8479	-2.8563	-2.7021	-2.9083	149.106	344.296	350.958	454.046	369.708	308.062	288.320	226.432	155.706	172.981	405.388	348.186	396.405	439.977	159.571	274.412	0.00024278	0.00028374	6.6453e-05	313.29	2.4595e-06	2.4744e-07	506.34	92.587	2.0674e-06	1.849e-06	196.53	56.189	32.88	11.191	2.4853e-06	22.554	0.0003711	0.00043301	0.00012162	306.85	4.3874e-06	4.8057e-06	495.64	91.793	4.3861e-06	4.7487e-06	193.27	55.672	32.642	11.179	4.556e-06	22.353	185.739	190.111	140.168	126.819	304.152	176.205	125.281	131.244	256.934	149.385	128.920	132.823	134.779	139.326	280.371	136.346	-8191	255	
3015.572	1	1	0	0	0.019019	0.27361	0.20967	0.30568	0.018277	0.10156	0.22983	0.19361	0.095896	0.3435	0.069664	0.10659	0.17411	0.031441	0.32305	0.10596	-2.0646	-2.8688	-3.1042	-2.5396	-2.9208	-3.1208	-2.6271	-3.1104	-2.5979	-2.6542	-2.9854	-2.6833	-2.9646	-2.9062	-2.7604	-3.1667	402.659	214.834	226.416	455.098	320.198	145.938	441.956	152.731	283.143	338.219	308.388	260.210	309.992	288.326	269.979	431.244	0.00023283	0.00039574	5.9063e-05	314.47	2.211e-06	1.7567e-06	504.19	94.458	1.2431e-06	4.1377e-06	194.12	54.588	32.546	11.218	1.3667e-06	22.255	0.00035522	0.00042107	0.00011269	307.81	4.1839e-06	4.5207e-06	491.6	92.195	4.2543e-06	4.6846e-06	190.6	54.678	32.411	11.179	4.475e-06	22.092	187.362	156.395	189.733	126.427	271.518	228.596	125.388	131.663	247.551	290.743	128.706	132.783	135.360	139.695	267.372	136.394	-8191	255	
3015.693	1	1	0	0	0.087964	0.19234	0.12617	0.18381	0.17167	0.11136	0.17998	0.1157	0.19547	0.26793	0.26138	0.13977	0.14185	0.15982	0.15268	0.15105	-2.3708	-2.6979	-3.0729	-2.5417	-2.8292	-2.9708	-2.3896	-2.9458	-2.75	-2.875	-3.0104	-2.5042	-2.9979	-3.0333	-2.5771	-3.0396	437.921	398.909	334.551	162.688	376.686	277.646	385.706	423.932	171.959	419.298	439.427	164.993	274.772	333.237	320.147	330.336	0.00023926	8.1793e-05	0.00010779	312.98	2.2505e-06	8.4563e-07	503	94.255	1.9415e-06	2.3315e-06	195.22	55.528	33.498	11.337	3.4131e-06	22.266	0.00033957	0.00040436	0.00011037	306.17	4.0713e-06	4.3276e-06	490.64	92.292	4.1922e-06	4.4645e-06	191.39	55.281	33.147	11.248	4.2274e-06	22.085	188.130	244.239	216.966	126.290	251.730	229.179	125.499	131.617	225.065	255.121	128.654	132.114	134.706	139.809	265.656	136.565	-8191	255	
3015.764	1	1	0	0	0.023437	0.066478	0.21597	0.042628	0.1002	0.13126	0.28279	0.28478	0.20104	0.24362	0.1936	0.14758	0.24578	0.26773	0.1225	0.28871	-2.35	-2.6479	-2.9854	-2.6229	-2.8	-3.0146	-2.6604	-2.9437	-2.8917	-2.5604	-3.2625	-2.7812	-2.7687	-2.9771	-2.4562	-2.9938	188.390	416.883	189.944	128.118	254.378	239.918	406.156	399.603	208.689	117.201	420.230	181.203	118.861	450.570	442.252	362.930	0.00021845	0.00022852	4.6547e-05	312.64	8.1132e-07	2.7261e-06	511.15	94.635	2.2269e-06	1.45e-06	196.5	57.074	33.731	11.415	2.734e-06	22.436	0.00033155	0.0004044	0.00011056	307.33	4.1663e-06	4.3396e-06	496.1	93.517	4.1805e-06	4.3647e-06	193.06	55.787	33.328	11.445	4.1367e-06	22.277	183.807	210.868	285.129	126.173	172.917	258.557	125.287	131.648	274.064	276.537	128.704	132.112	135.800	139.393	273.202	136.670	-8191	255	
3015.860	1	1	0	0	0.2243	0.16	0.028341	0.12827	0.18704	0.16994	0.15543	0.29837	0.12727	0.16099	0.072109	0.2385	0.053377	0.066006	0.18774	0.13715	-2.5375	-2.4813	-3.0354	-2.7188	-2.6208	-3.2167	-2.8167	-3.025	-2.9792	-2.6063	-3.1396	-2.7292	-2.7396	-3.0708	-2.7208	-3.0521	393.938	278.306	449.427	174.002	384.361	339.367	406.414	164.008	119.501	141.339	255.337	117.086	126.107	334.028	152.456	445.241	0.0002449	0.00030674	4.2611e-05	320.54	1.8717e-06	3.9513e-06	518.05	96.255	1.6423e-06	2.4184e-06	199.12	56.609	34.26	11.209	1.6117e-06	21.711	0.00033403	0.0003838	0.0001103	313.59	4.0453e-06	4.192e-06	505.4	94.657	4.0499e-06	4.2552e-06	194.79	56.569	33.776	11.249	4.041e-06	21.619	185.606	201.308	188.957	126.250	302.321	247.337	125.549	131.371	284.005	313.957	128.950	133.325	135.328	139.636	216.328	136.442	-8191	255	
3015.981	1	1	0	0	0.088471	0.31237	0.097007	0.43824	0.077294	0.098941	0.10578	0.10038	0.089299	0.1149	0.095721	0.22135	0.27179	0.082178	0.10371	0.28273	-2.725	-2.5229	-3.0042	-2.8292	-2.7271	-3.2146	-2.6104	-3.0083	-3.0875	-2.7042	-3.0417	-2.6646	-2.6104	-3.1417	-2.8187	-2.8063	411.437	417.800	124.143	169.202	124.362	293.839	378.046	202.003	237.757	270.631	207.438	255.625	229.645	359.646	242.529	132.879	0.00022368	0.00025458	6.7928e-05	322.48	7.8719e-07	1.0498e-06	520.36	97.525	2.5923e-06	2.325e-06	200.37	57.071	34.683	11.378	2.718e-06	21.439	0.00031908	0.000384	0.00010319	315.08	3.9723e-06	4.0212e-06	507.62	95.651	3.9915e-06	4.138e-06	196.19	56.63	34.335	11.284	3.9919e-06	21.286	187.297	168.810	218.126	126.450	261.402	222.275	125.382	131.539	299.316	197.788	128.665	131.862	136.238	139.550	265.768	136.639	-8191	255	
3016.077	1	1	0	0	0.19759	0.13468	0.15154	0.19813	0.17095	0.21496	0.17763	0.11659	0.25381	0.17872	0.068107	0.18291	0.31177	0.19877	0.26657	0.12462	-2.6979	-2.5542	-2.8979	-2.8667	-2.5208	-3.1937	-2.7938	-2.8229	-3.0708	-2.6125	-3.075	-2.9354	-2.6333	-2.9979	-2.7354	-2.6667	471.415	232.187	213.253	165.341	401.955	220.511	427.392	264.549	259.230	423.496	378.408	335.830	441.639	238.744	225.768	380.511	0.00022119	0.00017651	1.8247e-05	324.21	2.3958e-06	2.2043e-06	525.87	99.184	1.6723e-06	5.0942e-06	204.2	58.691	35.931	11.785	1.3102e-06	21.899	0.0003165	0.00037507	0.00010172	316.48	3.9042e-06	4.0275e-06	513.71	96.771	3.8808e-06	4.073e-06	200.8	58.413	35.251	11.747	4.2265e-06	21.762	187.053	184.758	456.069	125.947	249.774	306.448	125.477	131.034	303.691	250.994	128.439	134.041	134.563	139.413	315.136	136.062	-8191	255	
3016.173	1	1	0	0	0.079879	0.13712	0.16134	0.11189	0.074814	0.061055	0.090129	0.15986	0.023728	0.22839	0.18193	0.057362	0.10162	0.42241	0.11736	0.059674	-2.7396	-2.5187	-3.1188	-2.9417	-2.5625	-3.0833	-2.7771	-2.7729	-3.3	-2.6083	-2.9479	-2.8979	-2.6063	-3.0292	-2.8729	-2.7833	165.323	358.303	295.063	113.917	134.680	187.990	409.525	197.037	351.132	458.640	440.053	438.080	350.451	354.442	462.506	342.604	0.00022803	0.00012813	7.4095e-05	332.59	1.3545e-06	8.964e-07	535.66	100.39	1.6227e-06	2.9509e-06	207.79	60	35.713	12.023	8.5378e-07	22.176	0.00031864	0.00039948	0.00010568	324.3	4.0328e-06	4.1831e-06	524.45	98.84	3.9534e-06	4.452e-06	203.97	59.208	35.467	11.994	4.1711e-06	21.946	192.951	222.099	224.806	126.351	299.191	233.945	125.007	131.250	196.271	232.613	128.861	131.717	134.793	139.454	266.984	136.358	-8191	255	
3016.268	1	1	0	0	0.1772	0.23543	0.24655	0.16485	0.21951	0.095969	0.30687	0.063976	0.11998	0.049018	0.14223	0.15898	0.019487	0.27718	0.37366	0.068884	-2.5625	-2.5792	-2.7729	-2.9729	-2.6271	-3.2	-2.85	-2.6979	-3.0625	-2.7083	-2.725	-2.9646	-2.5	-2.9708	-2.7938	-2.7479	218.343	272.975	168.304	455.540	270.230	325.610	315.457	376.730	339.524	392.895	180.279	161.403	219.214	304.188	202.604	226.452	0.00022	0.00033681	8.337e-05	336.97	2.2113e-06	3.0217e-06	540.83	101.59	3.4972e-06	1.7861e-06	209.17	60.661	35.444	12.14	2.6287e-06	21.934	0.00032343	0.00039091	0.00010614	328.3	4.133e-06	4.3378e-06	526.64	99.853	3.9599e-06	4.4632e-06	204.21	60.373	35.587	12.114	4.1972e-06	21.783	184.848	199.199	221.081	126.305	269.460	283.102	125.261	130.809	257.365	246.122	128.695	133.352	134.869	139.007	260.442	136.240	-8191	255	
3016.364	1	1	0	0	0.1825	0.25053	0.14753	0.06005	0.22077	0.16106	0.076653	0.29115	0.10285	0.040487	0.11815	0.02864	0.10711	0.35465	0.19501	0.29229	-2.7042	-2.7188	-2.625	-2.8521	-2.6208	-3.0208	-2.95	-2.6521	-3.0479	-2.95	-2.6542	-3.0521	-2.6667	-2.9729	-3.1021	-2.6146	310.285	374.031	326.848	283.956	450.825	219.558	404.000	376.094	227.741	229.276	414.593	182.403	180.275	381.921	283.035	301.300	0.00022689	0.00016135	5.9148e-05	338.86	1.8728e-06	4.0067e-06	538.84	102.35	3.5997e-06	2.3836e-06	209.04	60.407	36.358	12.308	1.8419e-06	22.153	0.00032906	0.00038964	0.00011328	330.15	4.26e-06	4.2964e-06	526.72	100.6	4.0698e-06	4.3108e-06	205.24	60.219	35.948	12.254	4.2521e-06	22.067	186.806	146.813	199.312	126.412	284.892	257.903	125.421	130.886	260.542	259.541	128.489	133.498	134.704	139.360	264.283	136.384	-8191	255	
3016.460	1	1	0	0	0.029528	0.13316	0.11308	0.04417	0.037733	0.11829	0.21836	0.045422	0.08885	0.22654	0.30981	0.12815	0.12311	0.18753	0.042375	0.20156	-2.6771	-2.8917	-2.5417	-3.2292	-2.5438	-2.9562	-2.9938	-2.8333	-3.0375	-2.8833	-2.7062	-3.0917	-2.7417	-2.7458	-2.8625	-2.7438	424.317	217.636	337.738	204.476	339.887	283.724	181.780	181.449	343.211	248.484	429.612	353.008	274.374	236.289	454.606	423.390	0.00025863	0.00037519	0.00011033	333.81	3.0918e-06	2.1747e-06	534.14	100.94	2.2814e-06	1.9331e-06	207.98	59.723	35.924	12.548	7.9868e-07	22.887	0.00034245	0.00040492	0.00011142	326.69	4.1687e-06	4.3097e-06	522.23	100.28	4.2356e-06	4.4062e-06	205.27	59.616	35.595	12.497	4.4309e-06	22.902	185.675	233.014	183.431	126.611	262.229	280.532	125.119	131.231	248.831	297.515	129.096	133.192	134.936	139.217	248.995	136.184	-8191	255	
3016.556	1	1	0	0	0.052918	0.085528	0.12661	0.073685	0.24816	0.26084	0.12895	0.20083	0.056349	0.20894	0.26823	0.13809	0.20093	0.065016	0.2039	0.10976	-2.625	-2.8208	-2.6854	-3.1125	-2.8354	-2.7479	-3.2625	-2.6833	-2.9146	-2.7208	-2.8104	-3.0896	-2.5938	-2.8063	-3.0563	-2.5958	342.406	292.740	308.603	321.066	308.595	409.653	336.659	165.933	183.417	432.034	266.072	366.609	120.798	272.196	168.703	310.882	0.00024399	0.00029888	4.0489e-05	329.03	3.2945e-06	2.6421e-06	534.36	102.54	2.3131e-06	3.7992e-06	209.89	59.931	36.201	12.498	1.9538e-06	22.989	0.00035359	0.0003973	0.0001147	321.02	4.2869e-06	4.6687e-06	520.01	100.58	4.3816e-06	4.595e-06	206.87	59.681	35.778	12.51	4.2777e-06	22.949	184.525	238.692	185.710	126.638	212.362	353.298	125.243	131.148	266.413	208.826	128.514	132.444	134.603	139.580	238.504	136.361	-8191	255	
3016.652	1	1	0	0	0.053521	0.11291	0.20676	0.10393	0.21144	0.25183	0.17073	0.25747	0.13124	0.088391	0.17948	0.099391	0.1079	0.19693	0.4501	0.10247	-2.4146	-2.9375	-2.5375	-3.125	-2.9271	-2.8937	-3.2812	-2.7146	-2.8542	-3.1333	-2.5312	-3.0771	-2.95	-2.7833	-2.9771	-2.5625	214.387	325.744	162.222	426.898	376.747	217.268	356.561	114.360	300.932	153.217	360.788	249.771	180.848	141.345	441.612	406.139	0.00024602	0.00019726	3.9455e-05	323.73	8.1544e-07	3.4909e-06	521.56	101.59	1.023e-06	3.6589e-06	208.34	58.794	35.843	12.454	4.0579e-06	22.919	0.00034799	0.00040428	0.00011651	316.26	4.3634e-06	4.5474e-06	510.27	99.242	4.4656e-06	4.6658e-06	204.34	58.723	35.478	12.373	4.0943e-06	22.733	183.109	168.564	200.179	126.264	220.224	246.606	125.312	131.477	279.063	260.520	128.420	132.826	134.720	139.392	277.211	136.199	-8191	255	
3016.771	1	1	0	0	0.14056	0.095977	0.13436	0.24399	0.24548	0.29448	0.49067	0.081862	0.23749	0.32226	0.13906	0.051767	0.11091	0.14435	0.34438	0.24947	-2.4979	-2.9938	-2.5708	-3.0667	-2.8854	-2.7313	-3.0271	-2.7021	-2.9479	-2.9146	-2.6875	-2.9292	-2.8167	-2.7167	-3.2062	-2.7646	302.368	374.439	318.228	369.603	274.241	348.629	402.050	253.125	386.774	370.358	359.716	367.317	422.596	351.834	126.907	446.423	0.0002245	0.00018989	5.3713e-05	316.5	1.3928e-06	9.2279e-07	520.94	99.133	7.6913e-07	3.9297e-06	202.31	58.11	35.126	12.919	3.9753e-06	24.656	0.00034901	0.00040702	0.00011477	309.32	4.3554e-06	4.6134e-06	507.5	97.295	4.378e-06	4.5634e-06	199.97	57.692	34.791	12.831	4.4721e-06	24.583	189.883	153.287	225.982	126.550	262.049	220.644	125.277	131.381	222.437	281.710	129.237	132.445	134.777	139.428	237.313	136.154	-8191	255	
3016.867	1	1	0	0	0.17649	0.087697	0.2828	0.07358	0.15362	0.24758	0.36037	0.11727	0.089497	0.13869	0.23278	0.16686	0.15168	0.28363	0.14271	0.24173	-2.2583	-3.0438	-2.6437	-3.0125	-2.8646	-2.6021	-3.0083	-2.6646	-2.8458	-3.0187	-2.6042	-3.1583	-2.9521	-2.6958	-3.1042	-2.825	357.669	129.236	320.207	281.046	330.495	359.042	381.142	148.096	440.292	435.154	370.528	156.825	472.210	331.874	238.895	469.146	0.00025387	0.00018398	8.3472e-05	307.93	2.5116e-06	2.1002e-06	507.94	97.462	2.4591e-06	4.1421e-06	203.36	58.307	35.176	13.695	2.0063e-06	27.233	0.00035954	0.00041281	0.000115	301.49	4.3017e-06	4.7686e-06	498.44	95.869	4.3995e-06	4.387e-06	199.29	57.735	34.901	13.692	4.4519e-06	27.135	184.504	176.444	171.187	126.844	241.655	254.116	125.564	131.203	251.501	246.237	129.141	133.205	135.008	139.782	269.340	136.801	-8191	255	
3016.964	1	1	0	0	0.08984	0.21188	0.055041	0.19363	0.10871	0.24079	0.13973	0.11311	0.11102	0.06328	0.1849	0.057757	0.091292	0.12375	0.074723	0.085759	-2.3375	-2.9062	-2.7333	-2.9146	-2.9458	-2.4979	-3.1958	-2.7417	-2.8333	-3.2417	-2.6229	-2.7771	-2.9708	-2.5458	-3.0333	-2.8063	212.410	313.495	129.212	358.986	161.798	317.948	365.793	269.181	289.432	171.913	399.776	176.182	173.063	119.119	289.241	374.258	0.00026843	0.00010335	5.5238e-05	295.27	1.9198e-06	1.0068e-06	501.23	94.546	1.5224e-06	2.8128e-06	203.38	57.468	35.659	14.441	2.1612e-06	28.89	0.00037656	0.00040849	0.000115	289.96	4.4499e-06	4.7004e-06	489.24	92.289	4.2908e-06	4.5197e-06	199.45	58.187	35.37	14.368	4.4956e-06	28.593	188.483	205.485	276.219	127.246	251.025	316.706	125.489	131.812	254.787	299.100	129.006	133.475	135.289	139.788	266.640	136.793	-8191	255	
3017.060	1	1	0	0	0.18432	0.060561	0.1457	0.11946	0.13169	0.18357	0.23038	0.15856	0.20379	0.084769	0.10835	0.2735	0.10146	0.17758	0.25578	0.192	-2.2958	-3.2313	-2.6229	-2.8125	-3.1646	-2.5021	-3.1437	-2.9146	-2.7646	-3.1437	-2.8937	-2.7292	-3.0146	-2.6583	-2.9021	-3.15	370.175	472.220	156.677	305.208	462.048	315.649	409.080	239.369	198.312	414.449	161.856	207.886	419.112	241.956	281.285	431.870	0.00031131	0.00019039	0.000112	291.32	2.9332e-06	1.4994e-06	494.28	94.445	2.212e-06	1.1908e-06	206.43	59.303	35.871	14.744	3.8538e-06	29.165	0.00038254	0.00039892	0.00011397	285.46	4.1715e-06	4.7102e-06	484.1	92.157	4.3674e-06	4.4035e-06	201.94	58.604	35.681	14.672	4.512e-06	29.171	182.779	202.751	192.421	126.949	261.828	310.174	125.679	131.876	253.351	356.122	128.923	132.572	135.030	140.097	246.535	137.184	-8191	255	
3017.156	1	1	0	0	0.17519	0.22414	0.22703	0.032025	0.26637	0.14639	0.080176	0.17772	0.15865	0.21425	0.14156	0.12665	0.19834	0.23788	0.14414	0.33033	-2.0792	-2.9188	-2.7208	-2.8375	-2.9917	-2.7958	-2.9417	-3.0333	-2.825	-3.0792	-2.7229	-2.6729	-3.3917	-2.8646	-2.875	-3.1646	235.286	461.324	355.891	431.069	470.754	204.187	317.478	336.669	281.220	317.200	315.003	289.204	308.798	450.685	164.076	381.756	0.00030357	0.0002002	9.7304e-05	292.16	1.2613e-06	3.3242e-06	495.54	94.061	1.3137e-06	2.7975e-06	207.8	59.115	36.592	14.813	1.8087e-06	29.402	0.00037833	0.00039543	0.00011473	285.71	4.141e-06	4.7098e-06	484.86	92.614	4.2912e-06	4.6351e-06	203.82	59.038	36.224	14.808	4.457e-06	29.329	181.201	258.445	209.244	126.533	239.866	252.374	125.397	131.748	207.527	263.940	129.001	132.923	135.496	139.542	284.545	136.753	-8191	255	
3017.277	1	1	0	0	0.12358	0.13535	0.1531	0.20119	0.033247	0.13125	0.22131	0.044792	0.42248	0.02136	0.032134	0.29138	0.28395	0.22427	0.085012	0.039986	-2.2062	-2.9021	-2.65	-2.7771	-3.0896	-2.7729	-3.0354	-2.9521	-2.4854	-3.1771	-2.9521	-2.6146	-2.9521	-2.6958	-2.8521	-3.1458	227.946	261.725	321.100	377.299	313.974	121.680	414.608	126.240	273.857	261.689	271.196	320.006	288.267	315.553	207.120	404.019	0.00032346	0.00036066	0.00012063	297.57	2.4855e-06	3.0727e-06	505.58	96.359	2.7258e-06	2.6739e-06	209.56	59.683	36.382	14.98	2.2208e-06	30.155	0.000387	0.00043249	0.00011811	290.3	4.0841e-06	4.4279e-06	493.77	93.744	4.3224e-06	4.6088e-06	205.36	59.471	36.079	14.924	4.3852e-06	29.924	184.319	224.273	184.742	126.979	244.157	300.716	125.537	131.142	268.731	279.187	129.232	133.184	134.959	139.885	225.380	137.171	-8191	255	
3017.373	1	1	0	0	0.14671	0.23776	0.31303	0.26059	0.063637	0.42088	0.16813	0.14003	0.064668	0.16141	0.045611	0.083747	0.22285	0.080228	0.091949	0.17759	-2.0917	-2.9271	-2.8042	-2.75	-2.9771	-2.7354	-2.8833	-2.9688	-2.6375	-3.2479	-2.9625	-2.5604	-3.075	-2.7729	-2.65	-3.0604	271.578	142.627	391.980	423.900	303.057	141.657	379.449	301.300	235.736	460.116	373.365	418.254	206.650	251.470	367.342	438.250	0.00029409	0.00034686	3.0065e-05	296.32	1.0873e-06	2.3175e-06	506.87	95.621	2.4028e-06	2.1038e-06	210.94	58.97	36.468	15.002	6.6497e-07	29.829	0.00038068	0.00040868	0.00011872	290.36	4.0977e-06	4.4364e-06	494.36	94.141	4.2932e-06	4.452e-06	207.64	59.161	36.039	14.911	4.3281e-06	29.726	185.053	191.513	211.168	127.134	234.316	294.055	125.711	131.592	296.201	213.811	129.061	132.549	135.044	139.985	344.505	136.847	-8191	255	
3017.469	1	1	0	0	0.23687	0.058973	0.18191	0.085253	0.068497	0.062065	0.25142	0.16058	0.2971	0.26663	0.018105	0.08486	0.027814	0.1349	0.0985	0.25275	-2.325	-2.8688	-2.8792	-2.6229	-3.0667	-2.75	-2.6792	-3.1458	-2.6958	-3.1063	-3.0354	-2.5604	-3.1542	-2.7042	-2.5875	-2.9458	439.885	137.903	265.469	436.844	273.893	448.522	361.513	405.913	309.128	452.296	435.945	173.592	442.357	383.774	161.618	423.054	0.00028411	0.0002791	2.257e-05	300.1	2.1849e-06	2.3797e-06	510.48	96.825	2.4354e-06	2.9563e-06	212.87	59.969	36.747	15.057	3.0055e-06	29.991	0.0003787	0.00039142	0.00010885	293.4	4.1879e-06	4.4899e-06	497.11	94.741	4.2328e-06	4.5785e-06	207.72	59.208	36.213	14.899	4.4628e-06	29.866	186.335	174.344	289.036	126.954	239.432	255.009	125.296	132.113	249.174	289.424	129.131	132.375	134.508	139.623	261.260	136.750	-8191	255	
3017.565	1	1	0	0	0.21071	0.13951	0.084514	0.16021	0.11857	0.12351	0.037763	0.092005	0.15399	0.13896	0.16236	0.24728	0.06654	0.13526	0.13521	0.14684	-2.2438	-2.9562	-2.9	-2.5354	-2.9854	-3.0062	-2.8583	-2.9958	-2.6667	-2.9229	-3.0708	-2.6208	-2.8979	-2.8708	-2.7375	-2.9958	289.565	329.819	299.089	226.362	178.750	463.514	435.987	124.195	139.085	114.741	162.503	335.177	245.724	258.512	229.288	171.247	0.00030828	0.00021904	0.00012038	302.43	2.5799e-06	1.2819e-06	510.32	97.176	2.1069e-06	3.2045e-06	210.3	59.619	36.632	14.986	3.7995e-06	30.261	0.00037865	0.00037773	0.0001121	295.34	4.1723e-06	4.4007e-06	500.05	95.259	4.2571e-06	4.3296e-06	207.95	59.015	36.217	15.028	4.5627e-06	30.149	180.843	214.623	173.012	126.857	271.075	313.278	125.675	131.721	225.686	315.051	128.610	132.877	134.877	139.765	221.679	136.855	-8191	255	
3017.659	1	1	0	0	0.088293	0.17656	0.11366	0.14497	0.26942	0.13904	0.15049	0.20266	0.13082	0.031035	0.10136	0.24946	0.11983	0.24931	0.045752	0.070443	-2.2771	-2.9188	-2.9625	-2.6021	-3.15	-2.9813	-2.6896	-3.1146	-2.7313	-2.925	-3.1958	-2.6083	-3.0896	-2.8771	-2.5542	-3.2583	454.439	404.074	332.448	405.472	336.225	157.715	221.469	234.205	320.324	222.980	335.290	151.804	351.335	459.820	448.374	203.594	0.00027848	0.00021883	4.13e-05	304.03	1.6952e-06	1.0396e-06	513.66	97.42	2.4361e-06	2.3975e-06	214.21	60.214	36.408	15.162	1.171e-06	30.839	0.00036466	0.00039777	0.00011122	296.43	3.917e-06	4.3963e-06	501.79	95.645	4.3455e-06	4.5108e-06	210.43	59.97	36.369	15.132	4.441e-06	30.592	185.196	194.259	183.061	126.823	255.773	419.887	125.532	131.323	235.177	240.987	128.793	133.049	135.390	139.840	199.194	136.989	-8191	255	
3017.756	1	1	0	0	0.043244	0.049462	0.094288	0.2122	0.11784	0.20884	0.23275	0.18157	0.061821	0.20215	0.11223	0.25606	0.35803	0.19533	0.16473	0.10484	-2.3688	-2.8667	-2.9208	-2.7646	-2.9646	-3.0542	-2.5354	-3.0854	-2.8042	-2.7771	-3.1396	-2.7125	-2.9167	-2.9813	-2.525	-3.0875	356.282	125.695	332.312	447.400	140.978	314.468	340.090	177.401	376.401	131.304	208.576	128.406	403.091	305.919	388.129	223.618	0.00031858	0.00012921	0.00010037	302.45	2.2696e-06	3.4916e-06	513.62	97.824	1.9978e-06	5.6679e-07	213.52	59.491	36.876	15.165	3.4316e-06	30.701	0.00037377	0.0003971	0.00010863	295.63	3.9968e-06	4.4609e-06	500.26	95.984	4.1683e-06	4.367e-06	209.98	59.35	36.456	15.146	4.4801e-06	30.56	184.844	182.320	194.438	126.769	264.457	268.968	125.292	131.723	299.848	154.580	128.706	132.374	134.915	139.601	240.165	136.859	-8191	255	
3017.852	1	1	0	0	0.14763	0.067291	0.16938	0.14873	0.080693	0.16082	0.31404	0.11627	0.21217	0.046795	0.13276	0.1179	0.067211	0.19601	0.14182	0.27996	-2.4417	-2.6479	-3.0271	-2.5146	-2.825	-2.8979	-2.7812	-2.9313	-2.8688	-2.7313	-3.2271	-2.6646	-2.8729	-2.975	-2.4896	-2.9854	175.159	181.893	341.378	389.570	246.667	393.831	340.297	219.874	200.307	341.500	178.763	466.827	267.098	433.401	346.533	382.309	0.00029648	5.4457e-05	7.788e-05	302.44	3.011e-06	1.4638e-06	510	98.487	3.8229e-06	2.4393e-06	215.53	60.879	37.083	15.356	2.4156e-06	30.937	0.00036728	0.00039527	0.00010898	294.96	4.1406e-06	4.5706e-06	497.38	96.613	4.1529e-06	4.4939e-06	210.59	59.789	36.916	15.301	4.211e-06	30.794	186.225	225.875	177.237	127.187	266.435	248.141	125.278	131.471	253.381	260.380	128.770	134.019	135.340	139.641	262.296	136.734	-8191	255	
3017.948	1	1	0	0	0.069059	0.045901	0.18562	0.11553	0.089438	0.079433	0.14324	0.17742	0.17338	0.2168	0.03506	0.23352	0.0016764	0.18216	0.12572	0.057358	-2.5167	-2.5854	-2.9458	-2.775	-2.7625	-2.9979	-2.6396	-2.8771	-2.9542	-2.8229	-3.0438	-2.8187	-2.7104	-3.0208	-2.7021	-3.0292	221.529	308.582	269.826	422.667	279.420	270.756	285.340	182.276	148.068	306.944	468.749	332.964	180.000	196.672	365.704	251.134	0.00030468	0.00020339	8.1107e-05	301.79	1.7227e-06	1.3889e-06	509.86	98.172	2.1253e-06	2.4246e-06	215.12	59.51	37.033	15.355	2.2559e-06	30.836	0.0003767	0.00039087	0.00011133	294.72	4.1695e-06	4.2549e-06	498.45	96.622	4.2551e-06	4.5148e-06	211.5	59.611	36.725	15.287	4.4393e-06	30.697	185.828	219.662	252.147	126.704	214.510	276.070	125.444	131.978	238.787	277.112	128.887	132.510	135.244	139.697	251.139	136.671	-8191	255	
3018.044	1	1	0	0	0.21611	0.32231	0.12778	0.10585	0.14776	0.12307	0.20946	0.13271	0.17376	0.20421	0.16564	0.18498	0.42385	0.43111	0.1303	0.15221	-2.4813	-2.7271	-2.7646	-2.6708	-2.5563	-2.8	-2.8396	-2.7958	-2.9146	-2.4583	-3.0875	-2.8646	-2.4313	-2.9542	-2.525	-2.7542	235.630	143.927	409.640	384.155	287.556	458.388	359.450	223.205	298.150	385.210	443.573	195.269	426.005	161.812	403.363	157.508	0.00034854	3.2899e-05	8.2189e-05	303.8	9.7747e-07	4.0784e-06	512.62	99.162	3.5765e-06	4.9262e-06	215.62	60.506	36.852	15.216	2.0121e-06	30.828	0.00037098	0.00038583	0.00010385	296.02	3.9864e-06	4.3138e-06	501.21	97.014	4.1456e-06	4.4623e-06	212.57	59.946	36.645	15.188	4.2261e-06	30.736	183.763	256.085	178.815	126.701	228.575	282.313	125.584	131.657	259.822	268.091	128.691	132.776	135.495	139.653	230.961	136.870	-8191	255	
3018.165	1	1	0	0	0.052348	0.074313	0.35201	0.15843	0.15017	0.093434	0.48393	0.073663	0.18937	0.20683	0.053083	0.23504	0.020037	0.10834	0.134	0.24594	-2.5479	-2.5938	-2.9125	-2.7396	-2.7062	-3.3021	-2.8438	-2.6562	-3.0542	-2.7271	-2.9021	-2.8667	-2.6	-3.0396	-2.6229	-2.8583	337.980	395.821	182.575	289.234	352.210	441.928	448.729	258.090	215.564	283.008	325.755	181.356	180.798	392.615	453.495	118.827	0.00032297	0.00031391	7.9801e-05	303.24	1.3598e-06	3.4344e-06	510.83	98.339	1.9728e-06	2.6118e-06	217.19	59.6	37.292	15.225	1.1582e-06	30.794	0.00037098	0.00040369	0.00010483	297.26	4.1254e-06	4.398e-06	500.94	97.04	4.1967e-06	4.4378e-06	212.41	59.485	36.782	15.253	4.2328e-06	30.671	184.442	197.894	233.252	126.577	238.808	273.625	125.403	131.622	283.319	296.582	128.926	131.687	135.549	139.696	179.692	136.753	-8191	255	
3018.261	1	1	0	0	0.28773	0.26859	0.26328	0.13825	0.22303	0.13359	0.17919	0.30881	0.085115	0.15665	0.22812	0.22288	0.036202	0.15153	0.21373	0.098005	-2.7208	-2.9146	-2.9062	-2.9292	-2.6063	-3.3083	-2.7396	-2.7188	-3.0958	-2.6021	-2.8979	-3.0021	-2.8979	-3.0333	-2.875	-2.7708	298.809	407.304	426.300	330.024	470.510	376.173	425.153	440.852	157.021	447.658	392.452	224.428	344.082	409.174	139.297	225.777	0.00030901	0.00033131	6.8995e-05	302.69	2.3244e-06	1.9908e-06	510.89	98.697	2.5093e-06	4.1197e-06	218.91	60.938	37.052	15.255	1.7173e-06	30.876	0.00036905	0.0003821	0.00011311	296.25	4.1719e-06	4.1443e-06	499.57	97.321	4.0763e-06	4.3977e-06	212.61	60.123	36.878	15.265	4.3227e-06	30.863	184.368	207.966	236.421	126.444	289.593	243.178	125.626	131.741	271.158	295.381	129.098	132.908	135.117	139.983	261.318	136.930	-8191	255	
3018.357	1	1	0	0	0.14391	0.26068	0.14685	0.28306	0.12827	0.11742	0.30676	0.15635	0.18431	0.26958	0.15415	0.28918	0.21952	0.007102	0.18058	0.057135	-2.8083	-2.8521	-2.8021	-2.8792	-2.5458	-3.2854	-2.9188	-2.6833	-3.2604	-2.8021	-3.0125	-2.9562	-2.725	-2.9708	-2.85	-2.7417	343.782	123.719	271.264	356.061	293.111	302.951	360.660	369.922	310.987	164.641	417.659	153.834	316.477	449.938	253.293	255.920	0.00031473	0.00021732	8.2908e-05	303.97	2.4504e-06	1.1308e-06	513.51	98.893	2.8446e-06	3.4648e-06	216.71	60.341	36.875	15.378	3.3842e-06	31.405	0.00037612	0.00038999	0.00010628	296.2	4.0557e-06	4.2785e-06	500.22	97.492	3.9761e-06	4.5171e-06	213.12	60.224	36.768	15.371	4.2681e-06	31.163	184.865	147.223	198.937	126.681	253.480	255.760	125.599	132.175	244.915	268.376	128.560	132.384	135.677	139.681	240.711	137.024	-8191	255	
3018.453	1	1	0	0	0.2401	0.027381	0.31051	0.020352	0.2406	0.090594	0.18889	0.073908	0.14608	0.069554	0.14618	0.12232	0.20778	0.12681	0.021604	0.17663	-2.7438	-2.7542	-2.7062	-2.8417	-2.6708	-2.9958	-3.0417	-2.6292	-3.1896	-2.6958	-2.7438	-3.0604	-2.5896	-3.0229	-2.8563	-2.6604	210.551	231.617	275.521	217.684	178.900	133.535	377.321	282.632	173.977	375.097	124.554	283.909	116.165	342.970	370.406	445.769	0.00030447	0.00040978	6.6612e-05	303.34	1.0935e-06	2.5311e-06	516.3	100.04	2.1588e-06	3.2188e-06	217.75	60.715	37.502	15.462	2.5771e-06	31.244	0.00037114	0.00039448	0.00010701	296.63	4.0877e-06	4.1751e-06	502.94	97.931	3.9201e-06	4.3144e-06	215.14	60.762	36.993	15.399	4.0175e-06	31.133	181.311	218.320	267.334	126.545	235.427	251.680	125.736	131.457	238.290	283.845	128.898	133.046	134.774	139.663	267.033	136.769	-8191	255	
3018.549	1	1	0	0	0.22227	0.075425	0.28069	0.26393	0.028171	0.32379	0.075748	0.036224	0.0074631	0.089951	0.25825	0.10636	0.060873	0.063489	0.30052	0.2069	-2.7021	-2.7333	-2.6208	-3.0604	-2.6354	-2.9104	-3.0417	-2.475	-3	-2.7458	-2.7854	-3	-2.5625	-2.9125	-3.0438	-2.75	271.388	219.508	357.173	155.338	422.172	170.821	130.149	281.317	128.643	471.826	469.515	125.116	395.769	464.200	227.059	389.201	0.0003357	0.00019488	0.00011183	302.47	2.9698e-06	5.6105e-06	512.83	99.679	1.9846e-06	2.6884e-06	219.25	60.596	36.842	15.268	2.7829e-06	31.046	0.00037256	0.00038408	0.00010539	297.74	4.1927e-06	4.233e-06	503.11	98.097	3.9416e-06	4.3719e-06	214.98	60.024	36.604	15.22	4.0712e-06	30.784	182.439	199.636	237.713	127.090	270.942	214.889	125.635	131.607	270.758	226.397	128.840	132.772	136.116	140.165	311.107	136.993	-8191	255	
3018.645	1	1	0	0	0.24623	0.16302	0.088192	0.21505	0.18975	0.11182	0.12652	0.016145	0.055563	0.29525	0.23359	0.046765	0.20233	0.34107	0.27472	0.10955	-2.6729	-2.8021	-2.5563	-3.2354	-2.6729	-2.8937	-2.9792	-2.5208	-3.125	-2.925	-2.7417	-3.1625	-2.6625	-2.8417	-3.0479	-2.7812	121.235	367.879	382.417	115.700	432.246	169.369	248.154	414.027	115.548	453.485	412.471	248.645	334.943	403.720	130.456	441.308	0.00033001	0.00017042	6.1403e-05	307.44	1.4188e-06	3.1092e-06	517.32	99.342	6.7506e-07	3.1548e-06	219.91	61.525	36.664	15.294	1.7876e-06	31.205	0.0003611	0.00037595	0.00010994	299.77	3.895e-06	4.0355e-06	504.56	97.759	4.0325e-06	4.1175e-06	215.95	60.351	36.447	15.24	3.8597e-06	31.109	186.147	192.377	208.841	126.650	230.383	232.261	125.493	131.645	247.104	270.839	129.024	132.678	135.212	139.959	271.304	136.794	-8191	255	
3018.764	1	1	0	0	0.29086	0.30541	0.11666	0.14979	0.077145	0.078112	0.041516	0.27225	0.20198	0.28836	0.35773	0.10043	0.16607	0.13574	0.11554	0.20803	-2.4042	-2.8396	-2.5542	-3.1125	-2.6917	-2.7354	-3.2	-2.7042	-2.9062	-2.8792	-2.6375	-2.9167	-2.8083	-2.6104	-3.1521	-2.65	306.130	219.636	306.251	422.769	285.297	114.844	420.724	451.886	194.544	325.579	455.165	294.366	427.950	201.080	273.160	115.636	0.00033414	0.00028208	7.7568e-05	309.58	2.578e-06	4.8188e-06	522.27	99.807	1.1906e-06	1.5769e-06	222.04	61.673	37.413	15.582	1.7439e-06	31.802	0.00036675	0.00038765	0.0001066	301.26	3.8842e-06	4.3209e-06	508.42	98.783	3.9972e-06	4.1919e-06	218.15	60.715	37.201	15.577	3.9953e-06	31.617	182.457	163.600	218.147	126.548	259.153	283.436	125.433	131.524	296.852	237.327	129.274	132.581	135.981	139.810	214.960	136.709	-8191	255	
3018.860	1	1	0	0	0.1955	0.23739	0.31209	0.22934	0.078656	0.12017	0.061765	0.21585	0.16133	0.13074	0.20746	0.02021	0.096527	0.20602	0.20647	0.18427	-2.6813	-2.9208	-2.5479	-3.0125	-2.9021	-2.7729	-3.1375	-2.6271	-3.1167	-3.1354	-2.6208	-3.0458	-2.9062	-2.7687	-3.3917	-2.7521	341.263	339.187	459.331	397.904	315.683	375.227	375.809	297.300	443.731	183.963	404.527	197.355	435.413	423.491	280.548	417.526	0.00031625	0.00027697	9.6568e-05	309.22	2.2061e-06	1.3383e-06	521.07	101.59	2.5791e-06	5.2258e-06	225.06	61.795	37.663	15.626	3.8864e-06	32.108	0.00036384	0.0003796	0.00010644	301.76	3.9287e-06	4.2384e-06	508.69	99.464	3.9064e-06	4.1906e-06	220.11	61.38	37.296	15.657	4.0112e-06	31.839	180.651	188.627	242.361	126.638	244.180	255.537	125.347	131.929	261.081	276.780	128.919	133.614	135.750	139.834	260.872	136.694	-8191	255	
3018.957	1	1	0	0	0.037853	0.15547	0.062367	0.15645	0.076294	0.14466	0.19057	0.28391	0.20244	0.0074743	0.10964	0.16765	0.20063	0.26135	0.052095	0.24914	-2.4271	-3.1	-2.6354	-3.0458	-2.8312	-2.6708	-3.1125	-2.8271	-2.7812	-3.1021	-2.7146	-2.9313	-2.8854	-2.5875	-3.2833	-2.8312	257.512	251.944	137.275	389.252	419.945	273.777	443.655	426.466	245.389	269.203	319.345	357.615	346.824	142.156	153.234	220.943	0.00029957	0.00014998	0.0001306	312.79	2.2944e-06	4.0948e-06	525.68	102.14	3.4564e-06	5.0131e-06	222.99	61.539	37.812	15.638	2.1719e-06	31.874	0.00035917	0.00037119	0.00010794	305.8	3.8197e-06	4.258e-06	514.29	100.14	4.015e-06	4.3166e-06	219.86	61.129	37.38	15.617	4.0805e-06	31.717	185.163	215.477	239.163	126.861	261.262	272.489	125.552	131.890	242.596	295.427	129.527	132.349	135.352	140.111	281.187	137.060	-8191	255	
3019.053	1	1	0	0	0.10149	0.03222	0.25146	0.049489	0.034062	0.054277	0.26125	0.06551	0.073156	0.10656	0.19068	0.27988	0.16715	0.10872	0.16949	0.36732	-2.375	-3.1542	-2.4521	-2.9313	-2.9271	-2.8021	-3.1937	-2.6688	-2.7104	-2.9958	-2.5417	-2.6625	-3.025	-2.6375	-3.0354	-2.8229	236.470	472.094	234.884	226.171	421.549	239.914	337.784	433.780	210.141	331.604	325.876	459.488	459.097	324.478	445.238	352.624	0.00033956	0.00034792	2.84e-05	315.07	2.3082e-06	2.9723e-06	527.48	101.9	2.0838e-06	1.1446e-06	224	62.755	37.817	15.779	1.2742e-06	31.845	0.00037405	0.00038281	0.00010803	307.74	4.0136e-06	4.1831e-06	515.01	100.16	3.9753e-06	4.2106e-06	220.29	61.228	37.474	15.772	4.1451e-06	31.78	183.502	212.012	201.559	126.898	254.713	261.913	125.305	131.730	277.591	310.967	128.875	133.490	135.370	140.473	280.153	137.056	-8191	255	
3019.149	1	1	0	0	0.27436	0.079932	0.091553	0.2618	0.10576	0.23464	0.073934	0.21461	0.18104	0.04114	0.059298	0.053344	0.27884	0.11233	0.061782	0.046019	-2.2521	-3.2167	-2.7	-2.9375	-3.0729	-2.7812	-3.0083	-2.7625	-2.7792	-3.1708	-2.9083	-2.9021	-2.9375	-2.5646	-3.0146	-2.85	186.121	309.309	336.712	413.445	464.852	322.412	126.409	250.448	183.897	280.727	377.056	216.857	467.257	428.247	248.506	260.282	0.00032669	0.00025954	4.7097e-05	316.13	1.1662e-06	2.5657e-06	530.41	102.65	1.4846e-06	1.8035e-06	226.6	63.215	39.152	16.04	2.7655e-06	32.34	0.00037456	0.00035873	0.00010482	308.55	3.9279e-06	4.2781e-06	516.94	100.5	4.0158e-06	4.1416e-06	221.94	61.668	38.181	15.984	4.0843e-06	32.271	181.196	209.525	215.919	126.546	276.434	225.773	125.880	131.622	221.376	310.207	128.775	133.203	135.167	140.063	247.027	137.181	-8191	255	
3019.245	1	1	0	0	0.16327	0.10225	0.17733	0.070346	0.17653	0.16211	0.18045	0.068395	0.13205	0.21913	0.17717	0.032657	0.1087	0.1228	0.23932	0.054729	-2.1625	-2.9625	-2.6021	-2.8271	-3	-2.6375	-3.0312	-2.9313	-2.7417	-3.0333	-2.7042	-2.7375	-3.0438	-2.7917	-2.8833	-3.0604	254.480	174.351	401.293	126.592	178.370	188.678	187.310	326.540	419.564	321.512	397.959	249.274	208.857	214.426	247.541	346.626	0.00032077	0.00030723	8.5854e-05	318.43	1.1912e-06	3.6459e-06	536.45	103.3	1.1112e-06	2.876e-06	226.06	61.972	38.375	15.971	3.3534e-06	32.662	0.00037898	0.00038293	0.00010965	310.24	3.8942e-06	4.2134e-06	522.97	100.95	3.9725e-06	4.1616e-06	222.2	61.78	38.151	15.992	4.1329e-06	32.426	183.545	207.245	183.438	126.705	319.332	190.904	125.698	131.456	291.239	267.101	128.887	133.396	134.967	139.996	232.827	136.909	-8191	255	
3019.366	1	1	0	0	0.12688	0.16973	0.14983	0.27867	0.13187	0.14044	0.25437	0.18536	0.058804	0.10298	0.37121	0.25952	0.17495	0.30849	0.15141	0.17497	-2.2229	-3.1854	-2.6396	-2.65	-3.1292	-2.5542	-2.8417	-2.7979	-2.5271	-2.9125	-2.8042	-2.6875	-3.1458	-2.3688	-2.7771	-2.925	417.811	282.873	200.754	147.862	193.727	400.936	314.782	264.258	467.328	129.263	123.073	407.732	370.468	410.760	406.460	410.442	0.00036176	0.00019172	9.7275e-05	324.51	2.045e-06	1.3521e-06	545.09	104.58	2.8157e-06	2.8348e-06	225.92	61.288	38.492	15.959	2.2458e-06	31.815	0.00038198	0.00038182	0.00010839	316.13	4.0144e-06	4.2491e-06	532.44	102.21	3.9648e-06	4.171e-06	221.09	60.469	38.039	15.808	4.0419e-06	31.757	183.382	228.285	176.905	126.699	225.517	242.696	125.306	131.877	244.342	232.736	129.002	133.324	134.681	140.066	279.901	136.386	-8191	255	
3019.462	1	1	0	0	0.079606	0.031348	0.36918	0.21113	0.19694	0.058567	0.1207	0.062912	0.22857	0.046489	0.1719	0.099663	0.10439	0.091879	0.13482	0.28595	-2.1292	-2.9917	-2.7854	-2.675	-2.975	-2.7854	-2.8438	-2.9958	-2.6396	-3.0958	-2.8792	-2.6729	-3	-2.6458	-2.8563	-3.0729	192.975	257.789	444.105	459.004	267.414	354.482	230.643	205.248	152.264	458.827	417.563	326.927	359.600	341.718	333.437	378.529	0.00032283	0.0004953	2.871e-05	330.49	1.9041e-06	3.2004e-06	554.26	105.03	2.3334e-06	3.9827e-06	223.58	59.556	38.321	15.764	4.1881e-06	31.632	0.00036177	0.00037988	0.00010295	323.44	3.9158e-06	4.2643e-06	541.71	103.75	3.9096e-06	4.0988e-06	219.31	59.992	37.679	15.673	4.3017e-06	31.511	180.084	188.679	229.151	126.434	242.061	235.984	125.184	131.507	263.877	292.756	128.983	133.961	135.138	140.164	225.295	136.620	-8191	255	
3019.533	1	1	0	0	0.096086	0.22057	0.26922	0.34366	0.17766	0.25194	0.090315	0.16103	0.088896	0.10082	0.13164	0.30911	0.28466	0.11421	0.089352	0.074735	-2.2458	-2.9083	-2.8271	-2.6354	-3.0833	-2.7625	-2.9313	-3.0104	-2.5479	-3.1125	-3.0083	-2.625	-3.0771	-2.7062	-2.8479	-3.1729	220.277	315.791	159.270	423.539	394.606	403.619	165.100	312.421	386.842	292.979	311.130	452.000	386.281	340.488	339.704	127.690	0.00034461	0.00026422	5.9835e-05	334.99	1.9396e-06	1.3836e-06	557.7	107.97	1.5168e-06	2.8033e-06	223.42	60.452	38.467	15.439	2.4929e-06	30.649	0.00037328	0.00038206	0.0001009	328.48	3.8569e-06	4.2023e-06	544.06	106.02	3.9007e-06	4.0757e-06	219.21	60.074	38.384	15.41	4.2022e-06	30.509	183.585	279.371	211.400	126.968	211.462	224.993	125.421	131.455	270.463	263.431	128.619	132.673	134.686	139.843	315.507	136.796	-8191	255	
3019.630	1	1	0	0	0.18318	0.34295	0.18769	0.18792	0.24254	0.1011	0.15308	0.26531	0.17351	0.095169	0.030632	0.026558	0.20868	0.12134	0.17476	0.15881	-2.0375	-2.8187	-2.9729	-2.6021	-3.1229	-2.8104	-2.7708	-3.1646	-2.7833	-2.9125	-3.0312	-2.4396	-3.0938	-2.8167	-2.6063	-3.1333	297.531	230.191	282.790	375.755	247.645	233.314	339.383	404.819	407.364	230.724	203.289	340.412	119.638	463.333	388.018	337.212	0.00032191	0.00027024	7.3454e-05	345.94	2.8129e-06	2.5216e-06	570.75	110.77	2.1795e-06	1.3841e-06	222.21	61.306	38.655	14.583	1.9513e-06	28.54	0.00035875	0.00036384	0.00010739	338.03	3.8445e-06	4.1987e-06	555.45	108.46	3.9299e-06	3.9318e-06	218.77	60.841	38.124	14.5	4.0234e-06	28.499	183.145	217.141	229.250	126.635	241.869	265.102	124.934	131.374	275.059	225.646	128.620	133.049	135.115	139.402	243.477	136.719	-8191	255	
3019.726	1	1	0	0	0.20044	0.1028	0.24745	0.10352	0.22257	0.088073	0.24344	0.12256	0.19933	0.1618	0.046894	0.21446	0.18714	0.073403	0.12095	0.08258	-2.2875	-2.7812	-2.9083	-2.5771	-3.0333	-2.8	-2.9396	-3.0458	-2.7875	-2.8438	-3.0479	-2.6104	-2.8896	-2.7708	-2.7042	-3.1771	404.006	277.445	427.064	234.151	229.380	410.545	396.110	368.524	264.116	428.073	293.600	471.205	372.913	216.516	183.209	284.869	0.00029724	0.00023153	9.3984e-05	356.53	3.7033e-06	2.131e-06	584.07	113.44	2.7543e-06	2.3301e-06	221.49	62.454	38.291	13.798	9.8615e-07	26.884	0.00034666	0.0003648	9.9462e-05	347.51	3.8425e-06	3.9677e-06	567.83	111.81	4.0771e-06	4.1108e-06	217.27	61.664	37.917	13.73	3.8719e-06	26.875	183.938	212.003	215.135	126.314	217.202	215.453	125.391	130.807	265.690	273.944	128.995	133.408	134.823	139.553	318.494	137.027	-8191	255	
3019.845	1	1	0	0	0.22887	0.15048	0.12358	0.1628	0.11939	0.19062	0.071236	0.20367	0.15693	0.1275	0.24828	0.2232	0.21125	0.027674	0.045557	0.025292	-2.4313	-2.7667	-2.9833	-2.5542	-2.8271	-3.0146	-2.5938	-2.9542	-2.5646	-2.8417	-3.0521	-2.4562	-2.7729	-2.8583	-2.6896	-3.1	134.753	346.503	203.899	347.889	194.285	449.234	442.427	135.675	175.725	279.823	155.439	413.727	234.810	301.461	193.775	336.064	0.00027453	0.0001825	5.1778e-05	366.36	1.7067e-06	2.2584e-06	585.92	120.19	3.3039e-06	3.5735e-06	219.52	62.723	38.111	12.953	3.0548e-06	25.917	0.00033564	0.00036678	9.6923e-05	357.49	3.7175e-06	3.8125e-06	573.93	118.17	3.702e-06	4.0556e-06	214.48	63.184	37.966	12.899	3.9076e-06	25.703	186.466	233.742	213.740	126.565	253.654	215.482	125.183	130.590	288.616	272.201	129.183	133.004	134.963	139.881	303.964	136.286	-8191	255	
3019.941	1	1	0	0	0.022765	0.15818	0.13003	0.10396	0.13769	0.19361	0.24885	0.14648	0.082824	0.25743	0.20929	0.10144	0.16279	0.26104	0.094376	0.15639	-2.3875	-2.6021	-3.0417	-2.7	-2.7604	-2.8333	-2.5875	-3.1917	-2.8917	-2.6562	-3.0125	-2.7021	-2.8958	-2.8979	-2.5812	-3.2104	252.640	432.641	259.417	231.932	334.608	117.925	413.505	445.801	334.275	161.034	318.326	338.841	414.056	326.443	151.890	309.823	0.00025454	0.00017611	6.0534e-05	380.23	2.581e-06	1.3052e-06	571.91	128.44	2.4166e-06	2.2932e-06	214.26	67.426	39.263	11.889	1.678e-06	24.249	0.0003209	0.00036035	9.4997e-05	370.7	3.6177e-06	3.8277e-06	557.59	126.13	3.7373e-06	4.0093e-06	210.46	66.471	38.734	11.891	3.9067e-06	24.006	183.332	164.916	182.903	126.390	276.904	215.703	125.139	130.818	280.898	223.573	129.146	132.122	135.292	139.962	219.795	136.145	-8191	255	
3020.037	1	1	0	0	0.046104	0.37421	0.0869	0.30043	0.14091	0.10597	0.25272	0.095246	0.067047	0.11575	0.061242	0.16949	0.1039	0.074912	0.16599	0.32844	-2.5125	-2.5687	-3.1167	-2.675	-2.9208	-3.1708	-2.6667	-2.9354	-2.7104	-2.7938	-3.2625	-2.6042	-2.7708	-3.1417	-2.8063	-3.1229	274.093	142.431	312.515	142.511	344.824	345.767	449.292	223.234	280.200	116.708	318.238	342.680	385.323	196.756	149.629	385.911	0.00023967	0.00042051	8.4772e-05	383.1	2.8288e-06	4.0176e-06	554.81	128.89	1.8819e-06	4.1235e-06	207.86	67.421	39.654	12.428	3.065e-06	26.692	0.00032015	0.00037103	9.6188e-05	375.19	3.6165e-06	3.8473e-06	540.52	126.09	3.6797e-06	4.0436e-06	204.09	66.487	38.954	12.467	3.8971e-06	26.645	182.905	217.656	185.937	126.279	231.423	243.872	125.243	130.783	261.582	278.787	128.849	132.783	135.525	139.550	242.562	136.170	-8191	255	
3020.158	1	1	0	0	0.20661	0.071675	0.14382	0.30214	0.075001	0.041678	0.031539	0.12651	0.097053	0.2873	0.12614	0.19264	0.04044	0.12796	0.15821	0.15278	-2.4979	-2.7021	-3.1854	-2.8417	-2.7792	-3.1188	-2.6167	-2.7958	-2.9062	-2.5958	-3.1104	-2.8083	-2.65	-3.075	-2.7438	-2.8625	472.876	140.975	300.545	306.975	212.970	148.613	159.405	428.980	372.751	369.814	319.507	259.108	388.661	320.804	328.149	250.458	0.00026889	0.00017533	6.667e-05	374.92	1.9924e-06	1.165e-06	541.73	125.58	3.0264e-06	2.1505e-06	199.85	63.946	37.695	14.223	1.543e-06	29.916	0.00032908	0.00036579	9.9651e-05	365.29	3.7652e-06	3.8616e-06	528.65	122.37	3.7981e-06	3.9866e-06	195.92	63.876	37.296	14.071	3.9139e-06	29.707	183.657	264.480	184.398	126.644	282.858	221.532	125.384	131.116	248.991	222.619	128.870	132.308	134.869	139.258	234.669	136.099	-8191	255	
3020.229	1	1	0	0	0.10685	0.082752	0.36658	0.2062	0.033112	0.16759	0.10018	0.025665	0.17682	0.29334	0.31402	0.19614	0.067027	0.014636	0.072251	0.13565	-2.4542	-2.4979	-3.1208	-2.9146	-2.7542	-3.075	-2.6833	-2.9792	-3.1104	-2.6417	-2.8854	-2.75	-2.7	-3.0604	-2.9125	-2.7812	246.818	148.354	383.887	433.267	263.928	289.574	139.688	345.698	295.730	360.815	428.419	154.983	194.560	140.330	310.330	432.468	0.00029911	0.00038327	7.0281e-05	358.37	2.4519e-06	2.935e-06	532.34	122.43	3.013e-06	3.638e-06	196.12	64.623	37.171	14.743	1.3592e-06	30.94	0.0003448	0.00036571	9.846e-05	352.66	3.9319e-06	4.0172e-06	518.12	119.56	3.6772e-06	4.0454e-06	192.43	63.722	36.93	14.724	3.7372e-06	30.836	181.577	184.383	218.921	126.682	244.945	232.785	125.534	131.127	251.072	265.523	128.872	132.522	135.804	139.221	269.294	136.266	-8191	255	
3020.325	1	1	0	0	0.21488	0.1906	0.084076	0.24463	0.26044	0.077104	0.22404	0.065593	0.15236	0.20044	0.17243	0.18915	0.058328	0.052281	0.12675	0.098844	-2.6479	-2.5875	-2.9604	-2.8583	-2.7854	-3.1792	-2.8146	-2.6688	-3.2396	-2.7229	-3.125	-3.0271	-2.7062	-3.2333	-2.8146	-2.7042	207.278	375.755	370.854	361.879	156.726	298.273	309.102	216.155	460.359	298.216	236.490	212.422	411.801	361.859	321.466	448.251	0.00031213	5.9733e-05	4.7093e-05	357.85	3.2708e-06	2.852e-06	524.3	121.22	2.5344e-06	5.868e-06	195.31	65.505	37.495	15.015	3.4732e-06	31.645	0.00035182	0.00034797	0.00010027	349.29	3.8662e-06	3.8384e-06	510.71	119.34	3.8074e-06	4.1309e-06	191.82	64.879	37.124	14.961	3.9227e-06	31.282	180.337	225.482	194.127	126.636	275.972	255.185	125.552	131.094	249.630	293.325	128.921	132.485	135.187	139.518	224.554	136.265	-8191	255	
3020.446	1	1	0	0	0.14156	0.24909	0.4697	0.081863	0.1156	0.28488	0.15728	0.16254	0.056816	0.16937	0.22153	0.23541	0.08372	0.30928	0.19047	0.15109	-2.6771	-2.5812	-2.8708	-3.0062	-2.5833	-3.025	-2.8458	-2.8479	-3.2083	-2.9271	-3.1417	-3.1604	-2.8083	-2.9479	-2.9708	-2.8042	401.772	118.599	305.786	212.994	156.866	135.337	441.467	153.240	412.935	261.654	199.013	259.715	271.048	115.095	349.747	372.592	0.00032752	0.00026416	5.4965e-05	354.5	2.396e-06	1.3733e-06	521.8	122.08	2.9249e-06	3.8884e-06	198.46	66.423	37.318	15.031	1.6762e-06	31.557	0.00035431	0.00036781	9.7346e-05	344.86	3.9174e-06	4.0564e-06	507.2	119.56	3.6886e-06	4.1402e-06	194.58	65.799	37.209	15.022	3.9571e-06	31.497	182.502	191.952	253.500	126.331	237.811	291.253	125.385	131.083	282.778	279.908	129.008	132.998	135.016	139.737	234.639	136.604	-8191	255	
3020.542	1	1	0	0	0.11866	0.11725	0.31616	0.076456	0.16511	0.11792	0.084236	0.15898	0.12938	0.040881	0.22613	0.17843	0.12522	0.20081	0.19958	0.19174	-2.8021	-2.7729	-2.9354	-3.1146	-2.6833	-3.075	-2.9667	-2.9167	-3.2854	-3.0021	-2.9375	-3.0417	-2.6333	-2.9333	-2.9729	-2.7188	257.045	242.568	183.067	396.454	443.446	203.126	126.914	376.682	425.520	338.878	343.697	141.443	450.319	257.610	124.637	422.693	0.00030837	0.00020697	5.837e-05	352.59	3.228e-06	2.6912e-06	519.49	122.83	2.2631e-06	3.2038e-06	199.92	66.045	37.516	15.188	3.0564e-06	31.342	0.00034364	0.00036349	9.9841e-05	343.27	3.9471e-06	3.9454e-06	506.29	120.18	3.7275e-06	4.0231e-06	195.53	65.621	37.366	15.072	3.7162e-06	31.237	183.884	225.045	236.591	126.760	263.502	321.051	125.184	130.869	303.369	256.891	129.074	132.316	136.075	139.530	215.888	136.315	-8191	255	
3020.637	1	1	0	0	0.16274	0.18533	0.16019	0.052151	0.081564	0.084355	0.14287	0.19516	0.22196	0.006919	0.15314	0.11736	0.1092	0.12861	0.058966	0.20882	-2.7042	-2.7229	-2.7062	-3.0938	-2.6292	-3.0292	-2.9729	-2.7083	-3.1396	-2.8167	-2.8042	-3.1958	-2.6312	-3.1521	-3.0896	-2.7438	417.127	410.055	472.842	333.058	236.923	383.812	377.062	377.501	343.533	251.238	196.374	147.668	444.669	249.355	171.949	326.894	0.00033475	0.00030074	4.559e-05	350.89	2.9442e-06	2.2974e-06	518.78	124.32	2.527e-06	2.7797e-06	200.84	67.041	37.317	15.023	3.0758e-06	31.445	0.00035949	0.000359	0.00010103	341.44	3.7708e-06	3.9182e-06	503.9	121.52	3.8646e-06	3.8783e-06	197.42	66.107	37.439	15.036	3.8992e-06	31.38	181.913	224.412	198.511	126.705	241.236	205.563	125.692	131.156	275.212	327.875	128.778	132.615	135.204	140.026	255.262	136.591	-8191	255	
3020.757	1	1	0	0	0.0076594	0.072077	0.24787	0.15656	0.2645	0.24682	0.13079	0.070812	0.16134	0.029574	0.16662	0.0050662	0.12925	0.19797	0.057307	0.11849	-2.5167	-2.85	-2.7271	-3.2188	-2.8354	-3.1521	-3.1542	-2.7292	-3.0438	-3.0687	-2.8812	-3.1875	-2.875	-2.8708	-3.1125	-2.7188	324.712	409.927	166.492	398.714	425.390	359.677	415.484	302.276	195.342	281.642	408.731	252.949	450.929	115.403	308.376	195.025	0.0003078	0.00027579	5.4614e-05	349.64	4.0908e-07	3.1154e-06	520.54	126.51	1.8929e-06	3.1974e-06	205.41	67.345	38.66	15.338	3.4384e-06	32.269	0.00035191	0.00035396	0.00010226	340.95	3.7564e-06	4.044e-06	507.11	123.62	3.702e-06	4.1336e-06	200.32	67.214	38.182	15.291	3.8924e-06	31.96	182.187	192.550	176.894	126.524	293.568	275.039	125.341	130.939	237.990	272.693	129.367	133.608	134.698	139.731	233.102	136.670	-8191	255	
3020.829	1	1	0	0	0.087915	0.051975	0.24336	0.083703	0.19302	0.19967	0.22079	0.090211	0.16185	0.35785	0.056092	0.11251	0.16013	0.14321	0.12536	0.30197	-2.6333	-2.9042	-2.6521	-3.3417	-2.9813	-2.9458	-3.0646	-2.7521	-3.075	-2.9979	-2.7854	-3.2167	-2.9437	-2.975	-3.1292	-2.7542	326.873	252.160	407.305	119.354	129.769	454.092	462.409	303.936	468.459	185.825	312.004	342.377	386.217	339.845	193.063	396.811	0.00033352	0.00013175	6.4657e-05	352.36	1.9684e-06	2.9037e-06	523.12	127.76	2.603e-06	1.6245e-06	206.22	69.065	38.894	15.559	1.0115e-06	32.319	0.00034715	0.00035055	0.00010035	342.91	3.7912e-06	3.9445e-06	510.21	124.98	3.8605e-06	4.0293e-06	202.47	67.913	38.562	15.403	3.8383e-06	32.21	185.784	186.076	215.651	126.627	201.236	235.785	125.673	131.033	235.892	246.377	128.937	132.202	134.977	139.456	276.778	136.418	-8191	255	
3020.925	1	1	0	0	0.27898	0.35897	0.25605	0.076189	0.028833	0.09183	0.17266	0.22927	0.1326	0.18478	0.056763	0.17934	0.099709	0.35108	0.079963	0.15607	-2.5958	-2.9604	-2.6417	-3.1479	-2.9021	-2.6583	-3.175	-2.7104	-2.9146	-3.0229	-2.7646	-3.0833	-2.8937	-2.8146	-3.1167	-2.9604	449.167	192.058	277.620	396.864	179.728	421.590	369.051	373.364	402.019	298.163	414.882	259.414	378.827	430.952	312.555	327.485	0.00032436	0.00012824	0.00010807	355.37	3.0853e-06	4.1492e-06	523.48	128.69	2.9607e-06	4.1925e-06	207.56	68.33	39.3	15.461	2.1665e-06	32.473	0.0003697	0.0003617	0.00010386	345.82	3.8261e-06	4.1394e-06	511.48	126.12	3.9157e-06	3.8788e-06	203.04	67.832	38.56	15.38	3.8643e-06	32.246	182.500	132.816	225.776	126.761	268.666	252.650	125.587	131.009	248.228	277.776	128.952	132.100	135.441	139.636	237.503	136.405	-8191	255	
3021.021	1	1	0	0	0.3274	0.14949	0.1997	0.011299	0.13791	0.2991	0.19307	0.27701	0.033507	0.11884	0.14272	0.12348	0.1496	0.18176	0.23387	0.046115	-2.4938	-2.9313	-2.5812	-3.0667	-3.0563	-2.9	-3.2771	-2.6625	-2.9562	-3.2208	-2.6771	-3.1417	-2.8812	-2.7313	-3.0542	-2.9688	284.534	268.576	263.058	249.466	164.035	199.667	265.696	359.428	409.426	300.823	175.168	445.122	338.670	194.419	293.181	393.978	0.00031092	0.00027021	7.3069e-05	353.06	2.9663e-06	5.5464e-07	522.02	129.08	2.8983e-06	3.1876e-06	207.51	67.865	39.199	15.574	1.0053e-06	32.365	0.00035691	0.00036908	0.00010275	344.64	3.7972e-06	4.2781e-06	510.56	126.24	3.8135e-06	3.8712e-06	203.3	67.571	38.638	15.483	3.9147e-06	32.324	186.675	191.234	190.832	126.606	251.341	203.886	125.362	131.110	258.788	246.120	128.900	133.500	135.787	139.563	261.121	136.803	-8191	255	
3021.142	1	1	0	0	0.20831	0.17231	0.22308	0.11086	0.09507	0.039999	0.22061	0.20132	0.218	0.020329	0.13145	0.10403	0.23273	0.097854	0.12274	0.19576	-2.6604	-3.1	-2.7521	-3.2646	-2.9708	-2.7667	-3.1729	-2.9604	-3.0083	-3.1937	-2.625	-2.9917	-2.9875	-2.5938	-3.3146	-2.8063	310.827	186.264	347.178	165.653	336.474	269.639	428.710	440.016	397.404	147.504	137.390	186.142	140.521	327.143	211.522	432.073	0.00033071	0.00030411	7.6901e-05	352.32	2.9966e-06	3.2654e-06	523.64	128.87	1.4299e-06	2.1098e-06	207.69	68.04	39.322	15.68	5.4178e-07	32.734	0.00036538	0.00035746	9.7992e-05	343.67	3.7768e-06	4.1728e-06	510.42	126.54	4.0045e-06	4.0828e-06	203.83	68.285	38.774	15.573	3.7733e-06	32.562	184.571	211.513	205.016	126.379	256.704	305.255	125.382	131.043	256.381	254.548	128.963	133.014	135.655	139.452	275.208	136.754	-8191	255	
3021.238	1	1	0	0	0.27491	0.18532	0.22642	0.32015	0.22312	0.04218	0.26791	0.19409	0.15745	0.045021	0.2171	0.1652	0.11488	0.063555	0.10323	0.34593	-2.3875	-3.1458	-2.6729	-2.875	-3.0896	-2.7458	-3.2042	-2.7771	-2.6813	-3.0812	-2.7104	-2.95	-3.1208	-2.6188	-3.0375	-2.8812	184.682	359.235	369.431	228.862	466.192	348.866	392.255	336.214	370.754	409.868	380.345	396.013	250.044	116.048	282.650	400.546	0.00033676	5.7434e-05	4.0315e-05	351.76	3.6609e-06	3.5598e-06	524.19	129.68	3.3184e-06	1.6349e-06	208.64	68.44	39.587	15.681	2.9579e-06	32.741	0.00036828	0.00035464	0.0001003	344.73	3.8565e-06	4.1314e-06	511.92	126.97	3.9895e-06	3.9652e-06	205.18	68.243	39.035	15.614	3.8228e-06	32.491	185.399	226.502	250.696	126.778	232.380	286.663	125.577	131.044	285.233	325.767	129.020	132.578	135.665	139.627	278.403	136.637	-8191	255	
3021.334	1	1	0	0	0.22343	0.063924	0.27807	0.14306	0.21088	0.23816	0.11921	0.15592	0.17183	0.28975	0.17312	0.081239	0.31923	0.092349	0.078895	0.045505	-2.2271	-3.1979	-2.7292	-2.8521	-3.0187	-2.5875	-3.0083	-3.0542	-2.525	-3.0938	-2.7729	-2.9208	-3.0333	-2.6583	-2.9146	-3.0604	428.823	266.447	398.108	273.090	159.355	239.185	133.551	191.851	171.862	359.164	408.189	174.561	199.129	147.287	414.782	464.358	0.00035329	0.00028901	7.2331e-05	353.09	2.0291e-06	1.9337e-06	521.13	129.86	2.9726e-06	2.4978e-06	208.74	69.924	38.96	15.547	1.6729e-06	32.483	0.00035959	0.00035	0.0001031	345.68	3.7748e-06	3.8955e-06	510.2	127.1	3.6983e-06	4.0195e-06	204.79	68.061	38.72	15.537	3.7636e-06	32.294	181.206	170.328	186.218	126.763	266.683	328.968	125.872	130.832	236.866	268.667	128.953	133.232	135.493	139.734	261.845	136.507	-8191	255	
3021.430	1	1	0	0	0.073714	0.044454	0.19672	0.17709	0.081589	0.11724	0.16316	0.092107	0.157	0.22459	0.12045	0.26262	0.22745	0.16118	0.034786	0.24331	-2.1292	-3.1604	-2.7375	-2.7687	-3.025	-2.6271	-3.0563	-3.0125	-2.7062	-3.0667	-2.7583	-2.9417	-3.0646	-2.4646	-2.9313	-3.0354	383.914	416.147	177.265	295.400	197.707	122.369	347.919	236.276	361.389	225.392	405.671	166.376	383.473	312.274	457.922	346.438	0.00032129	0.00015639	4.2296e-05	351.26	1.2819e-06	4.0411e-06	525.05	130.87	1.474e-06	1.1355e-06	209.22	68.939	39.408	15.757	4.197e-07	32.833	0.00037031	0.00034781	0.00010286	344.99	3.9271e-06	4.0676e-06	510.98	127.53	3.983e-06	4.0449e-06	205.05	68.669	39.069	15.71	3.9722e-06	32.626	186.639	192.914	188.862	126.687	267.839	258.496	125.699	131.132	237.234	289.552	129.142	133.392	135.284	139.840	241.998	136.693	-8191	255	
3021.526	1	1	0	0	0.1657	0.21202	0.057075	0.12634	0.13478	0.12044	0.1872	0.1364	0.044457	0.099024	0.19552	0.26403	0.17804	0.076282	0.038192	0.12542	-2.1667	-3.0125	-2.8312	-2.8417	-3.2021	-2.8292	-3.05	-3.1312	-2.6083	-3.075	-2.9333	-2.6188	-3.0146	-2.7667	-2.7958	-3.1542	119.234	421.965	466.858	373.841	460.851	441.676	163.971	322.579	355.897	423.499	372.704	355.724	286.903	319.341	284.736	458.769	0.00032899	0.00016133	2.9317e-05	349.49	2.8378e-06	2.2564e-06	524.81	130.26	2.9377e-06	3.3576e-06	211.01	69.656	39.375	15.731	3.3163e-06	33.177	0.00036152	0.00034559	9.9685e-05	343.93	3.7968e-06	4.0801e-06	511.01	127.62	3.9583e-06	4.077e-06	206.11	68.852	39.045	15.75	3.9839e-06	32.982	182.639	233.001	211.532	126.748	300.971	335.722	125.765	131.051	244.930	319.776	128.967	133.222	135.798	140.048	268.854	136.619	-8191	255	
3021.623	1	1	0	0	0.13844	0.10026	0.22694	0.16537	0.09242	0.078977	0.17781	0.17367	0.18751	0.091003	0.22301	0.27084	0.17294	0.14757	0.16439	0.097678	-2.0875	-2.9104	-2.8604	-2.7375	-2.9875	-2.8479	-3.0667	-3.1937	-2.5708	-2.9604	-2.7833	-2.6771	-3.1771	-2.8708	-2.8021	-3.1458	370.365	273.663	417.202	278.995	264.408	129.974	409.384	407.140	180.861	281.784	366.053	346.996	245.320	307.451	368.964	431.511	0.00033743	0.00031116	6.0086e-05	354.76	2.4499e-06	3.9375e-06	526.41	130.48	1.5645e-06	5.2085e-06	210.25	68.791	39.449	15.791	2.4974e-06	32.77	0.0003717	0.00035535	0.00010389	345.13	3.5781e-06	4.0819e-06	512.76	127.64	3.9956e-06	3.967e-06	206.26	68.954	39.083	15.767	3.9202e-06	32.738	181.954	227.482	206.065	126.526	267.105	259.711	125.539	131.020	257.812	274.251	129.149	132.586	135.605	139.429	250.208	136.466	-8191	255	
3021.719	1	1	0	0	0.090161	0.080379	0.06978	0.37747	0.23529	0.043773	0.13392	0.056593	0.15269	0.097255	0.17506	0.067898	0.093417	0.080314	0.093799	0.10291	-1.925	-3.0521	-2.8875	-2.5042	-3.0917	-2.8542	-2.8479	-3.0667	-2.6375	-2.9979	-2.9083	-2.5917	-2.9792	-2.9	-2.6375	-3.3312	347.107	213.606	147.601	401.304	397.393	357.566	380.894	214.102	405.495	169.305	459.755	335.929	135.720	158.855	243.154	399.490	0.00034968	0.00034925	6.9698e-05	351.76	2.3837e-06	2.2989e-06	520.77	130.33	2.9265e-06	3.2389e-06	211.23	67.358	39.474	15.9	1.7065e-06	33.119	0.00036642	0.0003588	9.9507e-05	344.67	3.7327e-06	4.1091e-06	509.66	128.01	3.8565e-06	3.9861e-06	205.85	67.869	39.123	15.821	3.7858e-06	32.789	183.170	180.010	171.156	126.449	269.341	254.929	125.347	130.762	250.273	266.345	128.908	132.710	135.291	139.182	253.156	136.717	-8191	255	
3021.838	1	1	0	0	0.0078392	0.091297	0.23363	0.061647	0.27164	0.16109	0.11422	0.17513	0.080938	0.21945	0.048195	0.30385	0.10117	0.18176	0.1589	0.27093	-2.2646	-3.0187	-2.8646	-2.5896	-3.1271	-2.8667	-2.675	-3.1875	-2.6229	-3.0979	-3.0563	-2.5	-3.0938	-2.8771	-2.7167	-3.1229	320.363	367.371	394.055	444.093	384.389	451.775	431.299	385.671	113.502	278.506	213.398	356.577	123.860	402.393	322.939	404.933	0.00033707	0.00046485	0.00013431	352.43	2.2156e-06	2.4502e-06	524.21	130.41	1.7109e-06	1.736e-06	210.88	69.681	39.676	15.986	3.6834e-06	33.08	0.00037586	0.00035865	0.00010119	343.59	3.7439e-06	3.9615e-06	511.27	127.92	3.7263e-06	4.1122e-06	206.82	69.124	39.239	15.954	3.9592e-06	33.025	188.162	222.366	204.247	126.786	273.634	195.689	125.676	130.894	265.334	260.745	129.191	132.283	135.917	139.546	261.941	136.526	-8191	255	
3021.934	1	1	0	0	0.14456	0.15059	0.15499	0.26503	0.10778	0.22095	0.10859	0.17286	0.09345	0.17666	0.1446	0.09625	0.16493	0.11804	0.20648	0.26076	-2.4417	-2.7479	-2.9292	-2.6208	-2.9688	-2.85	-2.6729	-3.1875	-2.75	-2.8063	-3.3167	-2.6312	-2.8125	-2.8187	-2.8063	-3.2396	343.304	435.391	148.785	335.936	137.471	237.539	378.841	227.288	333.254	256.084	258.040	327.508	126.360	117.317	234.541	418.773	0.00034294	0.00031074	5.1031e-05	349.54	2.4525e-06	3.8394e-06	523.12	131.3	9.4008e-07	2.9248e-06	211.12	71.49	39.969	16.044	1.2655e-06	33.45	0.00036924	0.00036825	0.00010193	343.11	3.6955e-06	4.0591e-06	510.62	128.48	3.8459e-06	3.9688e-06	207.39	69.778	39.414	15.952	3.8904e-06	33.276	182.481	205.583	249.639	126.383	248.103	267.552	125.655	131.152	349.329	274.548	129.213	133.377	135.305	139.520	235.835	136.558	-8191	255	
3022.030	1	1	0	0	0.11042	0.29377	0.12421	0.12955	0.052773	0.10408	0.25232	0.17398	0.020998	0.1843	0.3718	0.1459	0.094123	0.13851	0.18641	0.18878	-2.4708	-2.7062	-3.0375	-2.6542	-3.0458	-3.0062	-2.5583	-3.0875	-2.8229	-2.6458	-2.9833	-2.6813	-2.8	-3	-2.6167	-3.1646	205.949	219.723	253.413	214.262	253.329	293.510	433.198	367.444	189.614	362.982	412.259	358.298	262.866	234.426	271.195	334.125	0.00036113	0.0002936	7.2304e-05	350.75	8.8965e-07	2.4878e-06	525.3	131.81	2.9991e-06	2.1846e-06	211.37	69.834	39.658	15.827	1.8627e-06	33.359	0.00038037	0.00036392	0.00010144	342.48	3.7564e-06	4.0346e-06	511.28	129	3.9088e-06	4.0659e-06	208.12	69.304	39.377	15.824	4.0423e-06	33.049	183.510	176.965	162.231	127.153	262.256	273.473	125.359	131.310	231.835	214.514	128.970	132.367	135.532	139.732	200.913	136.697	-8191	255	
3022.126	1	1	0	0	0.12078	0.10074	0.22229	0.16092	0.054821	0.086035	0.22432	0.13401	0.16855	0.087144	0.16844	0.23118	0.33411	0.090767	0.054768	0.28244	-2.5312	-2.7062	-3.0917	-2.6729	-2.8937	-2.9354	-2.6167	-3.15	-2.8979	-2.7562	-3.1188	-2.8042	-2.8667	-3.125	-2.6354	-3.2	214.793	238.980	134.954	199.547	392.666	324.635	116.470	459.107	188.166	308.400	439.349	465.732	132.782	191.635	378.046	352.776	0.00031534	0.00041149	8.7072e-05	351.54	2.4463e-06	2.0602e-06	518.46	131.91	2.0166e-06	1.9596e-06	211.31	70.847	40.214	16.096	3.7085e-06	33.117	0.00036512	0.00037559	0.00010149	342.8	3.9142e-06	3.9271e-06	509.01	129.49	3.8682e-06	4.0979e-06	207.92	69.318	39.59	15.981	4.0948e-06	33.079	184.924	215.045	216.051	126.689	222.959	303.403	125.389	130.665	232.417	386.923	128.919	132.938	135.256	139.496	258.489	136.404	-8191	255	
3022.222	1	1	0	0	0.22584	0.15005	0.14281	0.24215	0.097264	0.3235	0.1953	0.27855	0.082115	0.32513	0.12934	0.15966	0.29517	0.14075	0.09401	0.18132	-2.6292	-2.7167	-3.0792	-2.7292	-2.6875	-3.1562	-2.9396	-3.05	-3.0271	-2.6875	-3.1417	-2.8542	-2.7438	-3.0083	-2.8563	-2.8917	401.105	134.786	213.973	454.213	242.132	175.414	431.379	429.207	237.253	235.840	465.391	206.803	276.712	443.921	402.865	337.356	0.00036383	0.00034918	9.0431e-05	353.46	2.0254e-06	2.96e-06	522.66	131.98	2.3482e-06	3.8368e-06	212.67	71.465	39.746	16.072	4.1447e-06	33.411	0.00037056	0.0003644	0.00010151	343.62	3.7752e-06	4.1122e-06	509.37	129.08	3.8711e-06	4.1803e-06	208.26	69.999	39.662	15.963	4.0708e-06	33.326	185.667	231.418	188.949	126.917	221.697	244.931	125.727	131.099	272.569	292.560	129.013	132.881	135.621	139.444	260.397	136.369	-8191	255	
3022.318	1	1	0	0	0.15948	0.35152	0.19091	0.24943	0.15303	0.18878	0.50837	0.12628	0.05467	0.12394	0.14621	0.1503	0.26965	0.033428	0.13428	0.21938	-2.5604	-2.5	-3.0167	-3.0187	-2.7375	-3.1792	-2.6583	-2.8875	-2.8812	-2.6833	-3.0563	-2.7979	-2.7708	-3.3083	-2.7271	-2.925	343.417	348.532	176.984	140.659	327.437	263.126	436.625	134.848	446.169	320.782	385.384	339.031	172.686	426.673	409.924	441.601	0.00036032	0.00027976	0.00010054	350.17	4.0538e-06	1.8458e-06	523.14	131.61	3.8381e-06	3.3621e-06	212.49	69.803	40.313	16.189	3.0935e-06	33.995	0.00037084	0.00038123	0.00010222	342.33	3.788e-06	4.1193e-06	511.16	129.31	3.9542e-06	3.934e-06	209.2	69.886	39.747	16.098	3.9231e-06	33.594	182.893	150.437	257.855	126.534	242.153	253.114	125.997	131.055	241.883	249.841	129.134	132.243	134.808	139.507	277.456	136.431	-8191	255	
3022.439	1	1	0	0	0.15952	0.39186	0.042108	0.099044	0.14466	0.18779	0.061624	0.15456	0.18272	0.12314	0.14486	0.4212	0.080703	0.12849	0.033879	0.28434	-2.6271	-2.5604	-2.8771	-2.7917	-2.6333	-3.0938	-2.8354	-2.8	-3.0792	-2.6188	-2.875	-2.6396	-2.6771	-3.15	-2.6875	-2.5771	141.571	352.042	336.770	118.670	192.889	418.850	135.138	269.407	363.729	422.425	119.568	307.740	277.269	253.583	335.223	191.397	0.00033526	0.00016871	6.7732e-05	351.02	3.3031e-06	1.5641e-06	525.19	132.35	3.2416e-06	2.7691e-06	216.4	70.858	40.4	16.148	3.1746e-06	33.421	0.00037168	0.00039904	0.00010113	343.15	3.7736e-06	3.8932e-06	513.01	129.76	3.8662e-06	4.0325e-06	210.71	70.261	39.971	16.152	4.1476e-06	33.396	181.047	188.222	194.532	126.681	255.989	277.591	125.503	130.943	250.731	274.292	129.177	133.534	135.576	139.761	243.187	136.989	-8191	255	
3022.535	1	1	0	0	0.064685	0.16614	0.1888	0.087283	0.10236	0.12068	0.15747	0.14669	0.15138	0.089653	0.11174	0.1199	0.30268	0.11024	0.11967	0.074151	-2.525	-2.5708	-2.7417	-2.8937	-2.6208	-3.0708	-2.9979	-2.8021	-3.1833	-2.6312	-3.0167	-3.1833	-2.6292	-3.0375	-2.8021	-2.8104	137.529	147.436	199.963	421.587	411.367	250.364	400.417	416.988	363.575	185.352	386.991	408.011	336.666	321.634	179.190	123.178	0.00033631	0.00016332	4.8145e-05	353.49	1.0391e-06	4.1345e-06	527.36	131.66	3.1776e-06	2.4873e-06	214.66	70.45	40.06	15.946	3.1277e-06	33.506	0.00037107	0.00036432	0.00010123	344.23	3.9058e-06	3.949e-06	512.72	129.15	3.7673e-06	4.0178e-06	209.35	69.653	39.72	16.011	4.0948e-06	33.316	183.358	228.518	201.701	126.485	257.706	303.363	125.547	131.079	275.510	250.731	129.013	132.074	135.472	139.565	292.357	136.265	-8191	255	
3022.631	1	1	0	0	0.049695	0.23567	0.10758	0.28101	0.17417	0.25982	0.16258	0.064332	0.21051	0.24737	0.32057	0.14157	0.2113	0.073071	0.26831	0.22285	-2.5396	-2.6729	-2.8375	-2.9396	-2.4104	-3.0104	-2.9813	-2.6104	-3.05	-2.7292	-2.8208	-3	-2.5896	-3.1	-3.0458	-2.7479	128.101	243.528	457.351	423.411	468.736	313.160	395.997	321.415	132.297	383.187	309.185	437.091	167.855	444.272	252.021	463.972	0.00032554	0.00037167	6.3165e-05	350.38	1.9417e-06	1.815e-06	525.94	132.52	4.7608e-06	2.344e-06	213.68	70.396	40.5	16.323	2.5423e-06	33.927	0.00036147	0.00038309	0.00010146	344.03	3.9607e-06	3.9066e-06	512.06	129.74	3.8597e-06	3.9821e-06	209.99	69.932	40.072	16.204	3.9193e-06	33.644	185.219	207.703	334.739	126.717	305.292	263.396	125.648	131.183	259.164	274.931	129.519	133.099	135.582	139.775	228.156	136.388	-8191	255	
3022.703	1	1	0	0	0.16546	0.25834	0.157	0.11963	0.14945	0.20591	0.16292	0.19012	0.21351	0.23254	0.10787	0.16314	0.04349	0.14393	0.066599	0.033795	-2.4333	-2.8708	-2.8271	-3.1104	-2.7104	-2.9208	-3.0062	-2.5167	-3.2604	-2.8854	-2.8354	-2.8854	-2.6396	-2.9271	-2.9146	-2.6229	344.164	351.922	255.899	350.278	434.409	263.775	174.192	350.215	202.088	171.651	177.675	201.731	440.192	180.911	246.723	241.732	0.00036412	0.0002115	3.9944e-05	352.29	4.2639e-07	4.1813e-06	526.75	133.21	1.8957e-06	4.924e-06	215.42	70.831	40.095	16.373	2.938e-06	34.07	0.00037421	0.00036337	9.9752e-05	344.51	4.0108e-06	4.0596e-06	514.44	130.31	3.8504e-06	4.0276e-06	211.69	70.581	40.155	16.242	3.9764e-06	33.91	182.603	203.379	274.470	126.222	204.023	257.232	125.532	131.073	256.462	251.134	129.118	131.825	135.697	139.551	240.047	136.532	-8191	255	
3022.822	1	1	0	0	0.087213	0.2289	0.11854	0.12721	0.19068	0.15642	0.17236	0.15653	0.14743	0.25867	0.2056	0.30954	0.15415	0.090526	0.13052	0.2102	-2.3604	-2.7188	-2.8333	-3.0812	-2.5833	-2.9229	-3.0625	-2.6417	-2.8438	-2.8812	-2.6354	-3.1021	-2.5333	-2.9083	-2.9479	-2.725	190.106	369.558	244.094	127.651	216.220	228.296	206.776	473.047	136.340	184.346	430.361	137.208	168.132	224.073	274.022	445.282	0.00034314	9.5482e-05	7.6546e-05	354.4	1.3502e-06	4.5095e-06	533.81	134.06	2.8742e-06	1.1918e-06	218.17	71.232	40.745	16.325	1.4928e-06	34.024	0.00036935	0.00037182	0.00010196	346.11	3.8902e-06	4.1702e-06	520.19	131.06	3.9019e-06	4.212e-06	213.51	71.435	40.352	16.313	3.9416e-06	34.036	185.950	167.449	248.332	126.888	258.420	247.903	125.779	131.122	252.763	271.409	129.494	132.457	135.882	139.799	239.303	136.974	-8191	255	
3022.918	1	1	0	0	0.1225	0.12819	0.17484	0.17881	0.060377	0.17576	0.10654	0.27375	0.18812	0.096701	0.21244	0.080955	0.25282	0.11059	0.13826	0.1316	-2.6667	-2.7771	-2.7812	-2.9583	-2.5667	-2.9667	-3.1083	-2.4583	-2.8833	-3.0417	-2.8604	-2.9313	-2.6354	-2.7833	-2.9938	-2.825	276.608	371.028	170.067	429.784	354.936	160.755	394.837	125.557	301.574	311.172	378.346	428.335	221.158	394.762	158.389	383.757	0.00035499	0.00016673	6.0588e-05	355.97	1.7785e-06	3.7839e-06	533.27	134.85	2.8261e-06	3.8371e-06	217.58	73.402	40.403	16.432	2.5347e-06	34.039	0.00036554	0.00036904	0.00010237	348.43	3.8225e-06	4.1849e-06	519.92	131.95	3.88e-06	4.167e-06	213.24	71.916	40.46	16.356	3.9944e-06	33.946	184.219	195.937	197.099	126.896	234.670	237.130	125.479	130.724	251.941	243.796	129.324	131.985	135.604	139.524	273.758	136.445	-8191	255	
3023.014	1	1	0	0	0.12629	0.092515	0.10119	0.077624	0.19928	0.33974	0.16691	0.21905	0.16065	0.19427	0.13979	0.024145	0.19665	0.13774	0.0761	0.18573	-2.4437	-2.7667	-2.4229	-3.0021	-2.8292	-2.8187	-3.1979	-2.7396	-3.075	-2.8771	-2.7687	-3.1146	-2.7875	-2.6417	-3.0354	-2.6562	124.475	193.241	219.018	180.537	260.687	461.504	154.775	340.575	408.300	336.294	155.964	441.994	362.100	312.537	212.795	262.511	0.00033171	0.00020612	9.899e-05	359.34	2.0188e-06	1.5077e-06	532.77	134.28	2.2614e-06	2.8964e-06	217.29	72.083	41.143	16.416	3.4424e-06	34.287	0.00036363	0.00036063	0.00010555	349.78	3.8052e-06	4.184e-06	520.76	131.74	3.8561e-06	4.0632e-06	213.21	71.451	40.447	16.322	4.0754e-06	34.142	186.391	189.549	200.135	126.740	255.141	289.618	125.594	131.437	279.976	263.722	129.554	134.144	135.956	139.706	275.880	136.862	-8191	255	
3023.110	1	1	0	0	0.095073	0.10346	0.14234	0.085035	0.24356	0.1423	0.21305	0.29666	0.30107	0.097986	0.32105	0.046697	0.10545	0.20326	0.092217	0.011516	-2.3375	-3.0583	-2.4604	-3.0646	-2.8625	-2.6958	-3.0396	-2.5812	-2.7583	-2.9313	-2.6437	-2.9542	-2.9	-2.5563	-3.1771	-2.6125	214.010	158.718	299.367	366.636	469.247	212.585	356.090	417.054	380.856	170.641	441.712	394.111	437.817	418.796	289.190	353.112	0.00035549	0.00017866	8.0969e-05	356.35	2.613e-06	1.7048e-06	535.69	134.47	1.4553e-06	3.3566e-06	217.75	72.71	40.671	16.479	2.4812e-06	34.56	0.00037833	0.00035448	0.00010303	349.18	3.9255e-06	4.3561e-06	523.19	131.49	3.9611e-06	4.0534e-06	214.27	71.929	40.495	16.351	3.7653e-06	34.328	183.462	185.029	207.020	126.987	237.653	235.717	125.680	131.028	263.275	300.460	129.290	133.601	135.588	139.807	256.306	136.945	-8191	255	
3023.231	1	1	0	0	0.16928	0.23949	0.10737	0.011488	0.0905	0.14442	0.19343	0.069577	0.133	0.10276	0.20903	0.12976	0.11127	0.17454	0.21879	0.20841	-2.4896	-2.8167	-2.6771	-2.9958	-2.9229	-2.5354	-3.3375	-2.8479	-2.8125	-3.0417	-2.7542	-2.9458	-2.9354	-2.7438	-3.1479	-2.7917	337.684	383.340	132.342	247.919	116.085	429.269	459.018	448.153	228.640	118.505	396.475	460.819	298.426	227.435	273.938	339.231	0.00034518	0.00020762	8.2319e-05	357.95	3.4176e-06	3.928e-06	540.63	134.87	4.0652e-06	3.1282e-06	219.17	72.967	41.102	16.451	2.2801e-06	34.645	0.00036784	0.00037222	0.00010211	350.44	3.9531e-06	4.2018e-06	526.33	132.21	4.0892e-06	4.0921e-06	214.94	72.555	40.614	16.387	3.9231e-06	34.483	184.366	193.307	209.079	126.640	242.835	237.737	125.737	131.170	249.043	255.732	129.319	133.378	135.766	139.700	276.306	136.723	-8191	255	
3023.327	1	1	0	0	0.076248	0.25162	0.19093	0.033562	0.11412	0.11099	0.099459	0.45167	0.15926	0.067021	0.044062	0.20013	0.28699	0.36379	0.044058	0.18609	-2.3438	-3.1688	-2.5125	-3.0354	-2.7833	-2.7	-3.0979	-2.8812	-2.675	-3.1167	-2.5917	-3.0646	-2.9792	-2.5604	-3.3625	-2.8333	453.979	410.277	368.444	136.928	354.278	420.006	117.842	450.892	201.954	449.295	192.476	239.849	343.900	464.663	319.439	412.198	0.00037683	0.00031238	7.5497e-05	359.19	1.1558e-06	2.2141e-06	536.64	135.65	1.7413e-06	6.8137e-07	218.78	72.236	40.779	16.434	1.9655e-06	34.205	0.00038714	0.00037369	0.00010166	350.32	3.8044e-06	4.085e-06	525.23	132.25	3.9481e-06	4.0534e-06	215.08	71.407	40.373	16.311	4.1837e-06	34.034	180.652	234.174	224.650	126.788	266.143	266.893	125.759	130.949	257.415	240.195	129.115	131.751	135.748	139.395	298.081	136.596	-8191	255	
3023.399	1	1	0	0	0.13046	0.10086	0.19765	0.26096	0.15848	0.19659	0.13398	0.16296	0.17485	0.1075	0.25276	0.10076	0.15423	0.19609	0.094038	0.25265	-2.3646	-2.9229	-2.6437	-2.75	-2.9042	-2.7146	-3.0708	-2.6854	-2.6354	-3.1562	-2.6792	-2.7271	-2.9708	-2.6604	-2.9604	-2.8812	370.366	155.739	168.784	431.215	235.327	403.415	403.357	277.556	382.704	447.671	382.360	453.953	396.174	390.957	210.439	443.270	0.00033949	0.0002536	5.475e-05	357.3	2.7077e-06	3.9612e-06	535.28	133.72	2.5485e-06	1.9554e-06	218.08	72.398	40.71	16.391	1.782e-06	34.467	0.00037296	0.00037567	0.00010613	350.11	3.7652e-06	4.2379e-06	525.01	131.85	3.8078e-06	4.22e-06	214.17	71.268	40.405	16.29	3.874e-06	34.16	185.319	198.266	189.273	126.846	256.032	268.604	125.782	131.303	247.566	262.985	129.585	133.445	136.169	139.908	181.082	136.776	-8191	255	
3023.519	1	1	0	0	0.20943	0.12483	0.095801	0.11832	0.081317	0.31977	0.13532	0.1853	0.06493	0.08941	0.18919	0.16487	0.056089	0.077442	0.11456	0.20834	-2.1437	-2.9938	-2.6583	-2.9792	-3.05	-2.5938	-2.8438	-2.9688	-2.6104	-3.1771	-2.7667	-2.8583	-2.9667	-2.6562	-3.15	-3.0333	255.107	210.016	240.332	462.444	197.860	215.811	198.024	137.617	250.198	465.716	231.369	184.644	297.460	240.970	419.965	219.019	0.00034663	0.00015854	8.9858e-05	359.24	2.2631e-06	1.8889e-06	539.72	134.1	1.4101e-06	3.4784e-06	219.44	73.454	40.724	16.437	3.3215e-06	34.424	0.0003797	0.0003496	0.00010593	350.45	3.6746e-06	4.0453e-06	525.3	131.93	4.0179e-06	4.2088e-06	214.71	71.762	40.381	16.335	4.0473e-06	34.243	182.633	214.615	182.653	126.700	245.649	253.373	125.677	131.385	303.676	256.700	129.227	132.335	136.089	140.067	257.508	136.728	-8191	255	
3023.615	1	1	0	0	0.2061	0.13051	0.19415	0.038625	0.11596	0.27393	0.23677	0.19851	0.13744	0.10954	0.2046	0.15622	0.19466	0.079531	0.20978	0.15475	-2.2542	-3.0354	-2.9521	-2.7333	-3.0687	-2.7667	-3.0438	-3.1646	-2.7229	-2.9979	-3.025	-2.5333	-3.0938	-2.6104	-2.9625	-3.1	225.512	270.246	164.441	464.038	361.050	378.892	429.823	355.721	429.968	210.241	462.455	312.908	287.280	140.552	412.308	237.622	0.00031955	0.00014507	6.0888e-05	357.76	1.726e-06	1.8832e-06	540.96	135.22	2.5632e-06	4.1801e-06	218.79	72.431	40.717	16.448	1.3858e-06	34.375	0.00036801	0.00035357	0.00010847	350.27	3.8425e-06	4.2214e-06	526.99	132.22	4.0625e-06	4.1478e-06	215.2	72.018	40.462	16.397	3.9193e-06	34.377	183.389	199.294	247.215	126.938	252.789	301.879	125.694	130.964	256.398	292.490	129.493	133.045	135.830	139.468	265.202	136.950	-8191	255	
3023.712	1	1	0	0	0.14487	0.072673	0.15149	0.034663	0.17566	0.34414	0.053511	0.14143	0.14248	0.20785	0.13276	0.44963	0.041361	0.18994	0.13316	0.22731	-2.0167	-3.0271	-2.7396	-2.7604	-2.9292	-2.6917	-3.0708	-3.1979	-2.825	-3.0667	-2.95	-2.7792	-3.2354	-2.7729	-2.9333	-3.1042	251.798	276.536	120.524	471.672	371.846	288.548	243.157	403.659	454.347	192.427	187.604	334.058	227.475	166.555	222.324	123.903	0.00033412	0.00027017	9.9349e-05	358.22	3.7236e-06	3.2325e-06	539.93	134.76	3.1741e-06	3.0865e-06	219.79	72.555	40.66	16.28	3.2914e-06	34.378	0.00037514	0.00037107	0.00010438	350.95	3.7548e-06	4.0828e-06	526.32	132	3.938e-06	4.057e-06	214.75	71.699	40.33	16.223	4.0414e-06	34.147	181.983	216.654	229.089	126.737	243.828	325.106	125.597	131.011	253.687	280.296	129.263	133.464	135.743	139.502	252.957	136.723	-8191	255	
#DATA ENDS
