BOXY.EXE: ISS Imagent and Oximeter Data Acquisition Program Version 0.80
Ascii Record File

#ACQ INFORMATION
2  Detector Channels 
16  External MUX Channels 
1  Auxiliary Channels 
5000  Waveform (CCF) Frequency (Hz)
1  Waveforms Skipped 
30  Waveforms Averaged 
1  Cycles Averaged 
16  Acquisitions per Waveform 
10.0806  Updata Rate (Hz) 

#FILE INFORMATION
TRUE -- External MUX Channel results are PARSED.
FALSE -- AC DC and Phase are NOT grouped.
TRUE -- Companion Program Settings File CREATED.
FALSE -- AC data not excluded
FALSE -- DC data not excluded
FALSE -- Phase data not excluded
FALSE -- Auxillary Chn. data not excluded
Tab delimiters

#CALIBRATION STATE
TRUE -- Waveform Calibration Values APPLIED.


#AUX CALIBRATION VALUES
Val Type	aux-1	

Term	1.0000e+00	
Factor	0.0000e+00	


#WF CALIBRATION VALUES
A = Detector Channel
Val Type	A-AC1	A-AC2	A-AC3	A-AC4	A-AC5	A-AC6	A-AC7	A-AC8	A-AC9	A-AC10	A-AC11	A-AC12	A-AC13	A-AC14	A-AC15	A-AC16	A-DC1	A-DC2	A-DC3	A-DC4	A-DC5	A-DC6	A-DC7	A-DC8	A-DC9	A-DC10	A-DC11	A-DC12	A-DC13	A-DC14	A-DC15	A-DC16	A-Ph1	A-Ph2	A-Ph3	A-Ph4	A-Ph5	A-Ph6	A-Ph7	A-Ph8	A-Ph9	A-Ph10	A-Ph11	A-Ph12	A-Ph13	A-Ph14	A-Ph15	A-Ph16	

Term	0.00000e+00	0.00000e+00	0.00000e+00	0.00000e+00	0.00000e+00	0.00000e+00	0.00000e+00	0.00000e+00	0.00000e+00	0.00000e+00	0.00000e+00	0.00000e+00	0.00000e+00	0.00000e+00	0.00000e+00	0.00000e+00	0.00000e+00	0.00000e+00	0.00000e+00	0.00000e+00	0.00000e+00	0.00000e+00	0.00000e+00	0.00000e+00	0.00000e+00	0.00000e+00	0.00000e+00	0.00000e+00	0.00000e+00	0.00000e+00	0.00000e+00	0.00000e+00	0.00000e+00	0.00000e+00	0.00000e+00	0.00000e+00	0.00000e+00	0.00000e+00	0.00000e+00	0.00000e+00	0.00000e+00	0.00000e+00	0.00000e+00	0.00000e+00	0.00000e+00	0.00000e+00	0.00000e+00	0.00000e+00	
Factor	1.00000e+00	1.00000e+00	1.00000e+00	1.00000e+00	1.00000e+00	1.00000e+00	1.00000e+00	1.00000e+00	1.00000e+00	1.00000e+00	1.00000e+00	1.00000e+00	1.00000e+00	1.00000e+00	1.00000e+00	1.00000e+00	1.00000e+00	1.00000e+00	1.00000e+00	1.00000e+00	1.00000e+00	1.00000e+00	1.00000e+00	1.00000e+00	1.00000e+00	1.00000e+00	1.00000e+00	1.00000e+00	1.00000e+00	1.00000e+00	1.00000e+00	1.00000e+00	X	X	X	X	X	X	X	X	X	X	X	X	X	X	X	X	

B = Detector Channel
Val Type	B-AC1	B-AC2	B-AC3	B-AC4	B-AC5	B-AC6	B-AC7	B-AC8	B-AC9	B-AC10	B-AC11	B-AC12	B-AC13	B-AC14	B-AC15	B-AC16	B-DC1	B-DC2	B-DC3	B-DC4	B-DC5	B-DC6	B-DC7	B-DC8	B-DC9	B-DC10	B-DC11	B-DC12	B-DC13	B-DC14	B-DC15	B-DC16	B-Ph1	B-Ph2	B-Ph3	B-Ph4	B-Ph5	B-Ph6	B-Ph7	B-Ph8	B-Ph9	B-Ph10	B-Ph11	B-Ph12	B-Ph13	B-Ph14	B-Ph15	B-Ph16	

Term	0.00000e+00	0.00000e+00	0.00000e+00	0.00000e+00	0.00000e+00	0.00000e+00	0.00000e+00	0.00000e+00	0.00000e+00	0.00000e+00	0.00000e+00	0.00000e+00	0.00000e+00	0.00000e+00	0.00000e+00	0.00000e+00	0.00000e+00	0.00000e+00	0.00000e+00	0.00000e+00	0.00000e+00	0.00000e+00	0.00000e+00	0.00000e+00	0.00000e+00	0.00000e+00	0.00000e+00	0.00000e+00	0.00000e+00	0.00000e+00	0.00000e+00	0.00000e+00	-1.23800e+02	-1.29605e+02	-1.18317e+02	-1.81384e+02	-6.66720e+01	-6.49322e+01	-1.54429e+02	-1.62015e+02	-6.47790e+01	-5.86214e+01	-1.69550e+02	-1.78216e+02	-1.82278e+02	-1.75921e+02	-6.55031e+01	-1.48295e+02	
Factor	1.82523e-05	2.02462e-04	5.46020e-05	1.59639e-01	1.48313e-06	2.22676e-06	1.61345e-01	6.10527e-02	1.51134e-06	2.21112e-06	9.03854e-02	2.02187e-01	4.85540e-02	9.32913e-03	1.59883e-06	1.33881e-02	1.11608e-05	1.90474e-05	5.34503e-06	8.05254e-02	1.92326e-07	2.14060e-07	7.69818e-02	3.09569e-02	1.94649e-07	2.13805e-07	4.45233e-02	1.01031e-01	2.48173e-02	4.77762e-03	2.01464e-07	6.64615e-03	X	X	X	X	X	X	X	X	X	X	X	X	X	X	X	X	



#DISTANCE SETTINGS
A = Detector Channel
A-1	A-2	A-3	A-4	A-5	A-6	A-7	A-8	A-9	A-10	A-11	A-12	A-13	A-14	A-15	A-16	

2.5000e+00	3.0000e+00	2.5000e+00	3.0000e+00	2.0000e+00	3.0000e+00	1.5000e+00	3.0000e+00	3.0000e+00	3.0000e+00	3.0000e+00	3.0000e+00	3.0000e+00	3.0000e+00	1.5000e+00	3.0000e+00	

B = Detector Channel
B-1	B-2	B-3	B-4	B-5	B-6	B-7	B-8	B-9	B-10	B-11	B-12	B-13	B-14	B-15	B-16	

1.0000e+01	1.0000e+01	1.0000e+01	1.4400e+00	1.0000e+01	1.0000e+01	1.5100e+00	1.9400e+00	1.0000e+01	1.0000e+01	1.9900e+00	2.4900e+00	2.4100e+00	2.9000e+00	1.0000e+01	2.9800e+00	




#DATA BEGINS
time	group	step	mark	flag	A-AC1	A-AC2	A-AC3	A-AC4	A-AC5	A-AC6	A-AC7	A-AC8	A-AC9	A-AC10	A-AC11	A-AC12	A-AC13	A-AC14	A-AC15	A-AC16	A-DC1	A-DC2	A-DC3	A-DC4	A-DC5	A-DC6	A-DC7	A-DC8	A-DC9	A-DC10	A-DC11	A-DC12	A-DC13	A-DC14	A-DC15	A-DC16	A-Ph1	A-Ph2	A-Ph3	A-Ph4	A-Ph5	A-Ph6	A-Ph7	A-Ph8	A-Ph9	A-Ph10	A-Ph11	A-Ph12	A-Ph13	A-Ph14	A-Ph15	A-Ph16	B-AC1	B-AC2	B-AC3	B-AC4	B-AC5	B-AC6	B-AC7	B-AC8	B-AC9	B-AC10	B-AC11	B-AC12	B-AC13	B-AC14	B-AC15	B-AC16	B-DC1	B-DC2	B-DC3	B-DC4	B-DC5	B-DC6	B-DC7	B-DC8	B-DC9	B-DC10	B-DC11	B-DC12	B-DC13	B-DC14	B-DC15	B-DC16	B-Ph1	B-Ph2	B-Ph3	B-Ph4	B-Ph5	B-Ph6	B-Ph7	B-Ph8	B-Ph9	B-Ph10	B-Ph11	B-Ph12	B-Ph13	B-Ph14	B-Ph15	B-Ph16	aux-1	digaux	

2983.713	1	1	0	256	0.1801	0.13901	0.34199	0.15085	0.19559	0.14053	0.17946	0.11695	0.065436	0.30803	0.11356	0.095758	0.31494	0.12118	0.068136	0.21504	-2.0583	-2.8729	-2.8979	-2.5146	-2.9854	-2.6479	-2.8042	-3.2083	-2.7313	-2.9271	-2.8563	-2.5708	-3.0292	-2.8458	-2.6937	-3.0917	216.100	360.221	360.639	451.163	293.968	117.817	441.951	127.380	226.434	386.559	346.943	201.569	384.174	119.275	272.356	134.881	0.0004183	0.00032429	6.0622e-05	297.77	1.5026e-06	5.0283e-06	439.51	109.69	3.2904e-06	2.8678e-06	198.39	73.924	48.724	21.695	1.7679e-06	38.133	0.00047361	0.00050785	0.00014157	290.23	5.1792e-06	5.5241e-06	429.78	108.12	5.5398e-06	5.6275e-06	194.87	74.245	48.427	21.684	5.4072e-06	37.881	186.272	170.326	218.811	127.196	221.783	249.371	126.249	131.371	247.666	232.795	129.393	132.683	135.735	139.057	240.356	136.050	-8191	255	
2983.832	1	1	0	0	0.0098365	0.07616	0.2951	0.27143	0.13359	0.061052	0.3356	0.18787	0.095267	0.10845	0.098445	0.15625	0.39906	0.34084	0.039105	0.17082	-2.1562	-2.975	-3.05	-2.6021	-3.2333	-2.8625	-2.75	-3.1104	-2.6979	-2.8104	-2.8563	-2.6937	-2.9667	-2.7708	-2.7146	-3.0979	463.292	453.113	314.078	126.292	169.303	235.605	425.833	326.586	255.488	173.562	155.796	407.997	215.091	178.139	332.082	403.151	0.0003794	0.0004111	6.1294e-05	295.07	1.5878e-06	5.8906e-06	435.62	109.2	3.2581e-06	4.2466e-07	197.97	73.617	48.389	21.596	9.8615e-07	38	0.00047322	0.00050559	0.00014462	288.7	5.2285e-06	5.4728e-06	427.36	107.72	5.3167e-06	5.5197e-06	194.65	73.739	48.084	21.552	5.6129e-06	37.699	183.701	190.893	177.142	126.536	246.021	308.233	126.269	131.105	230.770	346.584	128.893	132.198	135.629	138.983	198.409	136.203	-8191	255	
2983.928	1	1	0	0	0.22015	0.24522	0.10747	0.026691	0.090353	0.16877	0.24112	0.19034	0.27467	0.29093	0.1435	0.069551	0.12666	0.15595	0.10386	0.1725	-2.2646	-2.7208	-2.9646	-2.5417	-3.0604	-2.9479	-2.5563	-3	-2.725	-2.8771	-2.8063	-2.5625	-3.0021	-2.8354	-2.5083	-3.1208	260.202	197.851	162.654	129.908	463.332	164.217	428.339	302.861	449.951	198.380	368.531	319.390	304.702	420.915	431.770	388.307	0.00035567	0.00034695	8.4738e-05	294.12	2.8541e-06	5.1396e-06	438.91	110.72	3.957e-06	1.3029e-06	197.99	74.299	48.197	21.671	2.8467e-06	38.269	0.00046436	0.00051737	0.0001414	289.15	5.1836e-06	5.7743e-06	428.2	108.16	5.4027e-06	5.6578e-06	194.75	74.338	47.939	21.616	5.4765e-06	37.991	182.917	194.106	294.143	126.950	241.132	303.547	126.166	131.369	281.983	331.487	129.631	132.148	135.567	139.202	245.394	135.962	-8191	255	
2984.000	1	1	0	0	0.2253	0.014867	0.25878	0.042088	0.10871	0.17547	0.15225	0.093185	0.13991	0.2137	0.18776	0.19744	0.15192	0.10031	0.22093	0.060979	-2.2729	-2.6625	-2.9896	-2.5458	-2.9813	-2.8688	-2.6104	-3.1042	-2.6917	-2.7521	-3.0229	-2.7188	-2.9146	-3.0062	-2.5979	-3.2104	351.889	162.458	284.920	120.897	351.110	196.168	127.505	368.672	402.606	154.740	369.207	418.583	287.582	276.576	259.254	262.940	0.00038891	0.00019468	8.3374e-05	294.5	2.175e-06	2.921e-06	441.25	109.99	2.1941e-06	2.8279e-06	200.09	75.602	49.221	22.143	3.372e-06	39.021	0.00047778	0.00051301	0.00013757	288.33	5.1187e-06	5.5781e-06	428.89	108.42	5.2352e-06	5.5963e-06	196.44	75.352	48.998	22.143	5.6091e-06	38.797	182.414	177.582	203.606	126.571	250.820	232.556	126.262	131.714	250.941	262.998	129.286	132.634	135.021	139.117	246.889	135.842	-8191	255	
2984.120	1	1	0	0	0.25237	0.18255	0.12768	0.15649	0.18074	0.40748	0.23215	0.087023	0.11595	0.33011	0.01951	0.08878	0.14057	0.27575	0.16941	0.16158	-2.3292	-2.8167	-3.0104	-2.6521	-2.9167	-3.0771	-2.7208	-2.9688	-2.7938	-2.7125	-3.1937	-2.7625	-2.8833	-2.9271	-2.5563	-3.0292	156.797	284.640	331.740	271.969	297.302	228.087	422.228	307.837	252.811	366.948	132.732	237.950	470.033	422.579	363.256	340.440	0.00037782	0.00030305	5.6539e-05	296.06	1.662e-06	1.7886e-06	436.95	109.63	1.929e-06	2.1065e-06	198.36	75.15	49.243	22.031	3.5746e-06	38.635	0.0004784	0.00052281	0.0001433	288.83	5.323e-06	5.7961e-06	428.15	108.05	5.4903e-06	5.8302e-06	195.35	75.015	48.924	21.975	5.7778e-06	38.451	181.331	134.798	220.225	126.954	262.747	311.001	125.918	131.598	245.585	289.144	129.188	131.945	135.992	139.018	248.929	135.942	-8191	255	
2984.217	1	1	0	0	0.051911	0.24438	0.20581	0.12834	0.013646	0.20165	0.17815	0.2839	0.34471	0.12701	0.1157	0.10604	0.17932	0.19328	0.19804	0.22352	-2.2792	-2.4271	-3.0292	-2.5417	-2.8958	-3.0271	-2.6542	-3.1333	-2.8458	-2.5479	-3.1125	-2.8167	-2.7708	-3.0125	-2.6625	-3.1063	286.808	457.053	307.722	298.490	461.163	154.482	243.039	193.488	420.189	365.350	259.768	273.020	302.313	132.610	254.203	331.322	0.00039324	0.00031518	8.93e-05	294.24	1.6526e-06	4.3627e-07	433.33	109.76	3.1899e-06	8.4373e-07	198.72	74.206	49.02	22.002	2.5815e-06	38.489	0.00048573	0.00051047	0.00014482	288.14	5.3086e-06	5.6441e-06	425.44	107.99	5.2409e-06	5.5879e-06	194.86	75.066	48.587	21.848	5.6981e-06	38.236	185.041	180.434	190.739	126.779	275.916	348.602	126.151	131.596	269.820	317.000	129.460	132.444	135.810	138.954	245.275	135.508	-8191	255	
2984.313	1	1	0	0	0.14748	0.13681	0.019257	0.1471	0.3148	0.14203	0.23338	0.30482	0.20674	0.22776	0.1591	0.26094	0.069517	0.092193	0.23537	0.23398	-2.3979	-2.4896	-3.0854	-2.7042	-2.6917	-3.1583	-2.5958	-2.9875	-2.8896	-2.4562	-3.0333	-2.6708	-2.7938	-3.2958	-2.6167	-2.85	408.858	295.023	188.634	267.998	203.963	295.717	373.372	445.889	400.792	188.717	153.062	437.778	252.803	410.063	450.017	163.832	0.00036843	0.00042995	5.0776e-06	293.33	4.1743e-07	4.7844e-06	437.6	109.31	3.5907e-06	5.8251e-06	197.84	74.901	48.046	21.68	2.9851e-06	38.36	0.00046285	0.00051813	0.00013875	286.03	5.1315e-06	5.5674e-06	425.73	107.52	5.3224e-06	5.5963e-06	194.39	74.949	48.079	21.723	5.5856e-06	38.129	183.832	212.937	325.956	126.825	289.824	310.172	126.199	131.472	232.447	257.203	128.910	133.096	135.550	138.838	268.639	136.045	-8191	255	
2984.433	1	1	0	0	0.18418	0.091246	0.084216	0.043243	0.093434	0.11163	0.12566	0.21558	0.22422	0.085402	0.19923	0.22407	0.29175	0.12713	0.13158	0.096923	-2.6292	-2.5708	-3.1479	-2.8937	-2.7875	-3.075	-2.5979	-2.8479	-3.0312	-2.6208	-3.1208	-2.9	-2.5854	-3.1104	-2.6396	-2.7708	343.226	277.110	437.488	409.435	344.315	351.554	362.444	196.646	249.804	364.354	142.001	330.007	410.265	436.634	453.150	188.500	0.00037014	0.00012649	7.6926e-05	293.37	3.0124e-06	3.4049e-06	436.89	110.14	2.1511e-06	4.2262e-06	198.84	75.571	49.22	21.916	1.9656e-06	38.769	0.00046931	0.00050741	0.0001403	286.17	5.3374e-06	5.6342e-06	426.56	107.95	5.2332e-06	5.5603e-06	195.71	74.916	48.63	21.811	5.6813e-06	38.463	186.664	173.661	219.387	127.266	233.999	254.044	126.102	131.559	262.675	274.226	129.563	132.757	135.578	139.106	225.333	135.934	-8191	255	
2984.530	1	1	0	0	0.11927	0.2233	0.04015	0.14564	0.092748	0.10991	0.31466	0.34995	0.057413	0.19196	0.11771	0.10428	0.26625	0.015417	0.2188	0.20275	-2.6125	-2.7292	-2.9667	-2.8604	-2.5833	-3.2354	-2.7146	-2.6854	-3.0771	-2.6188	-3.0062	-2.9542	-2.5521	-3.1417	-2.7083	-2.8292	453.549	349.413	435.177	339.710	170.074	161.221	395.948	329.336	400.896	295.159	322.461	366.036	153.688	279.748	465.869	369.264	0.000389	0.00030427	8.1171e-05	292.34	4.7709e-06	1.4232e-06	433.73	109.62	3.7614e-06	2.3312e-06	199.33	74.784	49.07	21.75	4.2393e-06	37.747	0.0004622	0.00053662	0.00014553	286.43	5.3162e-06	5.6021e-06	426.67	107.72	5.4485e-06	5.5295e-06	195.53	74.847	48.415	21.647	5.6418e-06	37.78	180.018	220.567	211.990	126.868	238.807	266.476	126.020	131.279	259.314	320.054	129.379	133.229	135.319	139.219	261.227	135.879	-8191	255	
2984.601	1	1	0	0	0.03542	0.32449	0.029445	0.18675	0.03693	0.29728	0.13221	0.27213	0.3522	0.21609	0.10028	0.28897	0.063438	0.18698	0.30236	0.04877	-2.7208	-2.6417	-3.0042	-2.8833	-2.6417	-3.1	-2.6417	-2.6396	-2.9417	-2.6104	-2.9854	-2.8042	-2.5042	-3.1146	-2.625	-2.9083	351.488	297.485	304.979	158.916	211.405	413.083	413.718	114.800	471.192	362.108	196.802	367.048	334.119	340.434	208.825	236.223	0.00037812	0.00037862	0.00011183	293.33	3.5476e-06	2.2555e-06	433.18	109.25	3.4939e-06	5.3311e-06	197.72	74.852	48.433	21.663	4.2085e-06	38.117	0.00047082	0.00050356	0.00014223	286.16	5.3539e-06	5.5125e-06	425.1	107.4	5.303e-06	5.7144e-06	194.76	74.504	48.288	21.55	5.7069e-06	37.838	182.998	187.024	187.353	126.912	265.059	231.961	126.165	131.232	280.498	265.803	129.602	132.243	135.586	139.008	263.632	135.895	-8191	255	
2984.722	1	1	0	0	0.046162	0.15138	0.163	0.18932	0.13667	0.083567	0.031469	0.14616	0.23193	0.18264	0.13131	0.13365	0.039171	0.020547	0.18728	0.061731	-2.5625	-2.5771	-2.7104	-2.9875	-2.5958	-3.0833	-2.8354	-2.6646	-2.9917	-2.6458	-2.7125	-2.8667	-2.4958	-2.9771	-2.7729	-2.4917	383.767	366.632	467.031	384.929	212.231	139.320	315.726	357.729	138.012	284.540	315.930	266.403	352.641	277.813	166.764	182.319	0.00037175	0.00024417	0.00010827	293.04	1.2457e-06	3.1882e-06	437.04	109.68	3.4797e-06	3.5537e-06	199.01	74.623	48.652	21.821	1.0805e-06	38.651	0.00046485	0.00051313	0.00014355	285.51	5.2633e-06	5.5959e-06	426.9	107.8	5.294e-06	5.8128e-06	195.82	74.882	48.538	21.725	5.5398e-06	38.297	185.595	216.969	214.230	127.100	250.661	261.757	126.062	131.349	259.360	311.316	129.577	132.396	135.103	139.121	258.543	136.124	-8191	255	
2984.816	1	1	0	0	0.10132	0.17498	0.083598	0.26117	0.15061	0.15627	0.1222	0.18028	0.089202	0.10811	0.18874	0.088612	0.17521	0.15592	0.11678	0.13867	-2.6479	-2.5687	-2.9042	-3.0208	-2.5917	-3.1437	-2.8563	-2.7021	-2.9313	-2.6521	-2.9167	-3	-2.6542	-2.8	-2.8292	-2.5333	142.417	332.913	248.581	127.428	162.859	253.358	370.449	282.477	302.866	259.393	116.056	378.610	390.501	387.736	231.383	201.163	0.00038856	0.00054035	6.6864e-05	292.26	2.5945e-06	4.5408e-06	436.8	109.95	2.2016e-06	2.9966e-06	200.09	75.75	48.473	21.942	2.4238e-06	38.713	0.00047943	0.00051737	0.00014322	286.24	5.3146e-06	5.7863e-06	429.12	108.11	5.4348e-06	5.7554e-06	196.74	75.526	48.624	21.847	5.3967e-06	38.53	184.606	195.461	207.575	126.980	300.937	239.967	125.968	131.419	266.439	262.943	129.336	132.473	135.305	138.952	268.657	136.117	-8191	255	
2984.912	1	1	0	0	0.14534	0.1875	0.14238	0.15745	0.06727	0.097273	0.18361	0.16341	0.15996	0.02818	0.066743	0.069935	0.045315	0.107	0.030844	0.21484	-2.6354	-2.775	-2.775	-3.1875	-2.4833	-3	-3.0083	-2.5833	-3.0667	-2.8104	-2.8271	-3.0542	-2.5125	-2.9521	-3.0458	-2.5979	367.410	339.596	378.301	353.317	433.504	250.889	247.419	356.871	464.250	350.925	442.531	347.477	393.979	347.435	279.737	150.318	0.00038936	0.00037905	0.00012569	293.79	1.9828e-06	3.9442e-06	438.8	110.85	1.2111e-06	3.6288e-06	200.78	75.496	49.792	22.016	4.4844e-06	38.949	0.00048736	0.00050071	0.00014445	289.07	5.3615e-06	5.5165e-06	430.69	108.59	5.2734e-06	5.5781e-06	198.11	75.925	49.112	21.88	5.3405e-06	38.663	181.155	201.593	239.459	127.327	287.796	295.247	126.202	131.028	293.552	272.123	129.454	133.544	135.773	138.946	257.588	136.323	-8191	255	
2985.009	1	1	0	0	0.21526	0.051846	0.26084	0.20247	0.038348	0.22055	0.18182	0.30212	0.14412	0.15195	0.30622	0.20819	0.10192	0.10481	0.054415	0.29081	-2.5021	-2.7958	-2.5708	-3.0208	-2.7646	-2.9333	-3.0812	-2.4958	-2.9083	-2.9646	-2.4979	-2.9979	-2.6937	-2.9042	-3.1	-2.7396	150.100	291.526	279.698	376.587	180.813	353.203	421.227	434.850	213.273	244.303	445.262	155.061	149.134	347.312	283.508	400.805	0.00038637	0.00037895	7.8301e-05	294.34	1.83e-06	4.4612e-06	442.29	109.94	2.5074e-06	4.3031e-06	199.97	75.385	49.596	21.874	4.3221e-06	38.652	0.00046759	0.00051448	0.00014587	289.35	5.3094e-06	5.7493e-06	430.88	108.59	5.3837e-06	5.7402e-06	197.63	75.594	49.219	21.825	5.466e-06	38.441	185.764	230.333	220.073	127.076	257.733	272.326	126.523	131.444	237.210	290.312	129.375	132.159	135.402	138.931	264.271	136.386	-8191	255	
2985.105	1	1	0	0	0.19998	0.15214	0.22027	0.11841	0.20494	0.12868	0.041092	0.30439	0.27553	0.064707	0.063443	0.35744	0.04786	0.43706	0.14903	0.24054	-2.6083	-2.7771	-2.45	-3.05	-2.8729	-2.6896	-3.0521	-2.5438	-3.0458	-2.9896	-2.6479	-3.1104	-2.7271	-2.6229	-3.1125	-2.6729	150.792	419.221	469.141	259.967	221.249	320.210	113.700	165.436	305.041	461.080	340.686	347.968	205.774	423.425	309.134	405.677	0.00040202	0.00014144	7.3918e-05	297.38	3.5179e-06	2.6794e-06	440.45	110.04	1.6925e-06	4.6955e-06	200.2	76.316	49.245	22.077	2.2716e-06	38.832	0.00048154	0.00051218	0.00014356	290.16	5.1768e-06	6.0004e-06	431.03	108.84	5.176e-06	5.522e-06	197.29	76.336	48.848	21.941	5.5239e-06	38.543	183.905	239.995	202.413	127.145	259.824	251.470	126.266	131.328	273.209	235.049	129.552	133.133	135.279	139.162	286.484	135.977	-8191	255	
2985.225	1	1	0	0	0.11251	0.191	0.14486	0.33403	0.22781	0.10918	0.16876	0.093916	0.1667	0.12127	0.04442	0.15874	0.19656	0.11516	0.13874	0.23453	-2.4667	-2.8708	-2.5875	-3.1042	-2.7833	-2.7229	-3.2167	-2.725	-2.7667	-2.9771	-2.7396	-3.1021	-2.7938	-2.5958	-3.0542	-2.7625	403.830	217.501	341.302	169.079	416.398	416.497	345.939	386.170	453.500	402.094	325.987	255.120	148.311	356.622	460.191	354.218	0.00039452	0.00041457	5.2139e-05	295.48	3.9805e-06	2.7122e-06	439.44	111.35	2.4642e-06	4.0129e-06	201.87	76.005	48.913	21.981	1.4094e-06	38.913	0.00047478	0.00051039	0.0001453	289.26	5.1764e-06	5.7439e-06	430.74	109.01	5.4587e-06	5.5683e-06	197.8	75.567	48.706	21.868	5.4139e-06	38.727	180.370	182.685	192.771	127.200	274.224	198.403	126.673	131.404	257.372	319.363	129.094	132.690	135.639	139.008	287.952	136.274	-8191	255	
2985.297	1	1	0	0	0.19765	0.11557	0.051497	0.26212	0.12623	0.20942	0.01907	0.11517	0.11563	0.18813	0.18671	0.14749	0.14495	0.20028	0.12451	0.16195	-2.3417	-2.9396	-2.5	-2.9875	-2.8729	-2.6875	-3.1521	-2.7917	-2.725	-2.8771	-2.6188	-2.95	-2.9792	-2.6458	-3	-2.8146	360.151	315.173	274.115	450.029	141.563	240.810	239.826	218.752	410.464	316.262	382.251	192.378	364.978	288.857	466.507	359.136	0.00035633	0.00030979	7.8602e-05	296.47	1.9989e-06	1.9661e-06	442.76	111.43	3.2667e-06	3.777e-06	202.88	75.508	49.429	21.904	3.022e-06	38.671	0.00047154	0.00049761	0.00013974	289.67	5.2373e-06	5.7511e-06	433.08	109.49	5.3995e-06	5.8035e-06	198.9	75.538	49.156	21.902	5.3992e-06	38.517	184.261	222.777	212.194	126.963	277.447	274.204	126.268	131.377	239.607	288.888	129.582	132.660	135.679	138.950	236.046	135.730	-8191	255	
2985.393	1	1	0	0	0.30471	0.15156	0.13106	0.086516	0.12371	0.16429	0.098512	0.19507	0.11953	0.17385	0.047855	0.20562	0.11337	0.065493	0.11862	0.26489	-2.2125	-2.9271	-2.6292	-2.9604	-2.9521	-2.6146	-2.8417	-2.9417	-2.8167	-3.0854	-2.6875	-2.75	-2.875	-2.5708	-2.9562	-2.8292	366.776	296.911	446.761	279.268	177.924	309.915	164.064	312.469	260.697	397.826	366.173	440.017	160.802	158.167	224.307	378.285	0.000409	0.00012905	6.4594e-05	294.31	3.1737e-06	2.8028e-06	441.33	109.86	3.2254e-06	4.721e-06	200.05	75.881	49.295	21.79	1.8079e-06	38.767	0.00047813	0.00049817	0.00014567	288.71	5.2321e-06	5.7199e-06	431.4	108.7	5.2831e-06	5.7309e-06	197.04	75.251	48.844	21.677	5.5944e-06	38.22	185.453	227.483	416.827	127.017	243.306	216.612	126.347	131.472	274.268	270.950	129.306	131.866	135.454	139.353	261.990	135.750	-8191	255	
2985.514	1	1	0	0	0.21241	0.088316	0.26645	0.11071	0.11458	0.10542	0.15653	0.13941	0.065257	0.15274	0.3218	0.18674	0.11979	0.030287	0.29348	0.14739	-2.2625	-3.0479	-2.65	-2.7729	-2.9708	-2.5333	-2.9979	-2.9062	-2.5687	-3.0167	-2.7917	-2.6958	-2.85	-2.6875	-2.7729	-3.0021	399.956	400.643	437.773	310.052	328.074	337.992	450.594	352.386	153.157	448.530	205.953	276.220	215.858	271.904	448.849	452.947	0.00040491	0.00019951	9.7962e-05	291.01	1.7998e-06	3.2895e-06	440.5	110.74	1.3811e-06	9.6882e-07	201.45	74.656	49.012	21.948	4.5437e-06	38.624	0.0004808	0.00050757	0.00014557	286.89	5.2277e-06	5.917e-06	430.64	108.74	5.3269e-06	5.7536e-06	197.18	75.029	48.59	21.728	5.6729e-06	38.404	184.804	268.292	186.305	126.821	267.401	270.722	126.293	131.449	197.808	321.947	129.312	132.790	135.032	139.201	274.722	135.935	-8191	255	
2985.608	1	1	0	0	0.24948	0.067846	0.054804	0.098075	0.20142	0.096859	0.20082	0.14206	0.3216	0.18034	0.12574	0.20754	0.097937	0.17707	0.2121	0.17215	-2.1354	-2.9333	-2.5771	-2.7375	-2.8812	-2.5687	-3.0833	-2.8646	-2.5875	-2.9542	-2.7396	-2.7604	-2.8542	-2.5375	-2.8729	-2.8417	245.644	280.495	176.566	118.346	174.822	173.796	441.095	128.122	406.518	390.232	178.916	212.274	333.752	459.873	374.102	143.081	0.00039074	0.00030311	7.6128e-05	294.72	2.6477e-06	2.6805e-06	440.16	109.24	1.0844e-06	2.5913e-06	203.1	75.669	49.315	21.767	2.5067e-06	38.988	0.00046869	0.00051269	0.00014557	288.24	5.2541e-06	5.702e-06	428.95	108.28	5.2766e-06	5.5865e-06	198.48	75.422	48.747	21.76	5.335e-06	38.602	184.247	232.578	178.055	126.858	257.407	306.685	126.430	131.188	303.216	261.022	129.405	132.097	135.803	139.131	235.572	136.056	-8191	255	
2985.704	1	1	0	0	0.14501	0.076333	0.19316	0.22891	0.11089	0.29901	0.090319	0.020197	0.059197	0.19469	0.15198	0.1689	0.14856	0.25639	0.20095	0.038868	-2.15	-2.9146	-2.775	-2.7292	-3.2083	-2.6333	-2.7979	-2.9229	-2.6458	-2.8521	-2.8292	-2.5187	-3.0271	-2.5312	-3.0187	-3.0104	332.125	166.562	427.716	424.695	364.257	118.783	332.569	463.581	388.507	213.616	135.626	347.387	113.090	246.590	341.786	397.906	0.00040734	0.00033783	0.00011951	292.88	4.1829e-06	4.287e-06	435.65	110.47	3.2174e-06	4.9138e-06	201.58	75.804	49.418	22.109	3.751e-06	38.81	0.00048826	0.00051531	0.0001444	287.28	5.1587e-06	5.793e-06	429.74	108.8	5.5175e-06	5.7874e-06	198.64	76.188	49.06	21.906	5.7518e-06	38.71	181.837	237.741	212.911	126.856	272.734	256.149	126.227	131.030	287.866	248.653	129.200	131.513	135.438	139.255	244.875	135.913	-8191	255	
2985.802	1	1	0	0	0.18114	0.11972	0.067019	0.075309	0.17687	0.24644	0.2604	0.085432	0.19779	0.15679	0.030613	0.046453	0.18282	0.2233	0.29058	0.18853	-2.0146	-3.1146	-2.7938	-2.5542	-3.0042	-2.6542	-2.6312	-2.9813	-2.625	-3.0625	-2.7542	-2.4271	-2.9583	-2.6125	-2.7979	-3.0083	246.265	351.552	459.681	376.517	382.483	154.113	321.830	117.712	408.185	159.269	158.419	193.187	466.568	127.278	266.110	387.945	0.00039537	0.0004467	5.8496e-05	291.93	1.9537e-06	4.8807e-06	438.25	110.6	2.7337e-06	2.2734e-06	200.37	74.422	48.621	21.933	1.8325e-06	38.461	0.00048433	0.00050321	0.00014427	287.12	5.2801e-06	5.616e-06	429.28	108.64	5.4315e-06	5.575e-06	197.08	75.521	48.485	21.781	5.6569e-06	38.193	181.612	206.958	169.064	126.824	271.637	259.987	126.341	131.269	210.874	323.834	129.629	131.790	135.545	138.960	232.922	136.102	-8191	255	
2985.897	1	1	0	0	0.3041	0.23891	0.19345	0.080224	0.1672	0.15321	0.21718	0.21074	0.089834	0.010208	0.036073	0.053385	0.14359	0.17215	0.19804	0.11698	-2.0354	-2.7938	-2.8708	-2.6958	-3.0708	-2.8708	-2.8667	-3.05	-2.5521	-2.9417	-2.9792	-2.5667	-2.9896	-2.8708	-2.6375	-3.2146	335.576	368.809	327.888	391.537	203.397	452.406	431.046	244.189	244.895	255.931	147.049	407.931	368.973	251.125	198.807	469.015	0.00039132	0.00023434	0.00011844	294.46	2.9181e-06	3.598e-06	436.68	109.4	2.5799e-06	4.8002e-06	200.74	74.903	48.809	21.669	2.8416e-06	38.617	0.00048982	0.00052352	0.00014544	287.44	5.2581e-06	5.7462e-06	427.97	108.14	5.3549e-06	5.7545e-06	196.48	75.863	48.375	21.68	5.6154e-06	38.224	184.205	219.494	253.615	127.165	283.868	309.900	126.327	131.314	239.935	249.754	129.288	132.722	134.638	139.202	287.053	135.756	-8191	255	
2985.993	1	1	0	0	0.23065	0.1667	0.14539	0.15607	0.082019	0.23528	0.053952	0.21011	0.10804	0.028054	0.15927	0.020277	0.10709	0.24474	0.16284	0.14983	-2.0771	-2.6354	-2.7125	-2.4479	-2.9875	-2.7417	-2.7667	-3.1125	-2.75	-2.9562	-3.0271	-2.5458	-3.1375	-2.8771	-2.4458	-3.1646	410.271	386.897	270.812	261.563	453.650	226.273	290.055	410.513	201.351	301.218	115.619	360.129	470.114	470.599	336.169	391.747	0.0003774	0.00052343	7.5853e-05	290.8	1.9036e-06	4.5873e-06	435.6	109.83	2.4237e-06	5.6259e-06	200.19	76.469	49.565	21.917	3.4366e-06	38.969	0.00048326	0.0005165	0.00014434	286	5.2721e-06	5.3988e-06	426.87	107.96	5.4526e-06	5.6498e-06	196.69	75.851	49.035	21.817	5.6632e-06	38.512	182.362	183.728	175.956	127.051	223.760	223.777	126.408	131.113	260.060	255.474	129.521	132.540	135.604	139.085	257.841	136.031	-8191	255	
2986.113	1	1	0	0	0.13747	0.11694	0.21056	0.091919	0.22314	0.091287	0.22678	0.10373	0.17681	0.13978	0.10993	0.23034	0.17405	0.22129	0.092943	0.10711	-2.2062	-2.7917	-3.0125	-2.5729	-2.7021	-2.8542	-2.5917	-2.8688	-2.6312	-2.8479	-3.0625	-2.5312	-2.9875	-2.8812	-2.4479	-3.1646	422.797	364.624	271.319	307.924	365.077	424.174	458.086	190.810	339.124	219.021	181.858	339.401	452.245	458.959	136.944	371.071	0.0003795	0.00026457	7.7971e-05	291.51	3.0432e-06	2.8064e-06	438.92	109.9	4.617e-06	2.4252e-06	201.61	75.901	49.433	22.046	3.4076e-06	39.266	0.00048875	0.00051265	0.00014174	286.99	5.2513e-06	5.5156e-06	429.15	108.05	5.3995e-06	5.6369e-06	198.08	76.36	49.172	22.03	5.8219e-06	39.025	185.253	201.501	157.549	127.157	242.226	309.977	126.260	131.045	254.796	311.032	129.351	132.218	135.848	138.997	223.396	136.110	-8191	255	
2986.210	1	1	0	0	0.18139	0.10656	0.076504	0.081413	0.14462	0.24045	0.15332	0.2667	0.0071996	0.16323	0.13887	0.096161	0.29328	0.10802	0.12503	0.25018	-2.3563	-2.7646	-2.8958	-2.6333	-2.9479	-3.0667	-2.675	-2.9729	-2.7708	-2.6417	-3.1854	-2.5375	-2.8625	-2.9979	-2.6354	-3.175	193.599	424.562	280.715	353.610	235.354	240.020	411.556	322.412	326.183	288.570	309.097	248.696	229.115	346.378	385.492	222.721	0.00039607	0.00046058	9.7942e-05	293.55	2.7974e-06	3.1001e-06	434.73	110.34	5.065e-06	5.6152e-06	200.74	76.382	49.6	22.065	3.7146e-06	38.801	0.00047222	0.00051321	0.00014276	287.67	5.2801e-06	5.7408e-06	429.13	108.67	5.4761e-06	5.6881e-06	197.96	76.346	49.342	21.999	5.6062e-06	38.664	186.319	225.622	245.491	127.282	269.792	269.985	126.542	131.414	259.100	272.355	129.572	133.285	135.716	139.048	234.507	135.971	-8191	255	
2986.306	1	1	0	0	0.11798	0.26071	0.024504	0.11019	0.095769	0.15827	0.16618	0.047351	0.13713	0.21789	0.058217	0.025829	0.30423	0.094143	0.16007	0.26906	-2.2958	-2.5104	-2.9979	-2.5396	-2.7167	-2.9021	-2.5979	-2.9854	-2.8542	-2.7062	-3.0458	-2.6792	-2.9229	-2.8271	-2.6937	-2.8688	381.096	232.566	377.631	129.806	347.789	152.204	309.898	460.668	266.900	387.154	437.436	341.041	190.391	411.965	314.960	424.586	0.00038613	0.00025069	7.1961e-05	292.69	1.9523e-06	4.4233e-06	437.99	110.57	3.2292e-06	5.467e-06	199.68	74.947	49.852	22.199	1.5481e-06	39.006	0.00048205	0.0005088	0.00014443	287.51	5.1491e-06	5.8042e-06	428.92	109	5.3528e-06	5.9032e-06	196.98	76.048	49.311	22.087	5.7123e-06	38.714	182.566	217.143	166.474	127.337	305.064	258.189	126.249	131.666	272.097	351.937	128.952	132.098	136.048	139.049	260.312	135.913	-8191	255	
2986.402	1	1	0	0	0.26642	0.16134	0.12611	0.071878	0.047982	0.23308	0.12717	0.12551	0.096668	0.128	0.2779	0.17367	0.043541	0.14714	0.2342	0.099786	-2.5687	-2.5854	-3.0417	-2.8354	-2.9208	-2.925	-2.5896	-2.9542	-2.9042	-2.6083	-3.075	-2.5375	-2.7083	-3.0729	-2.6396	-2.8312	246.306	444.374	375.184	240.120	405.153	154.306	261.584	182.685	136.865	304.532	466.606	418.484	195.046	119.859	227.391	379.643	0.00038885	0.00036344	4.019e-05	294.82	3.0484e-06	9.8126e-07	435.57	111.01	2.3491e-06	3.845e-06	201.19	76.482	49.676	22.228	1.6067e-06	39.215	0.00047813	0.00053035	0.00013916	287.37	5.3831e-06	5.6151e-06	428.77	109.14	5.3382e-06	5.8182e-06	198.22	76.486	49.445	22.134	5.638e-06	39.018	182.004	168.947	239.712	126.726	266.389	188.534	125.980	131.844	215.204	285.068	129.183	132.301	135.142	138.885	246.846	135.991	-8191	255	
2986.522	1	1	0	0	0.26542	0.27074	0.22147	0.14681	0.17332	0.16345	0.20801	0.15655	0.25655	0.34464	0.04531	0.023861	0.27223	0.074091	0.17186	0.1316	-2.3312	-2.6208	-3.0083	-2.7687	-2.8375	-2.9771	-2.6042	-2.6375	-2.9854	-2.5521	-3.1125	-2.7167	-2.5771	-2.9938	-2.8625	-2.9396	216.661	350.028	157.248	356.458	447.828	331.283	473.198	195.130	328.139	416.508	244.669	346.211	439.478	218.431	386.455	137.291	0.00040286	7.6138e-05	9.7632e-05	296.29	2.1737e-06	2.1254e-06	439.7	111.03	1.8366e-06	2.507e-06	201.81	76.697	50.667	22.492	1.9421e-06	39.714	0.00048312	0.00051321	0.00014206	289.2	5.557e-06	6.0419e-06	430.95	109.22	5.4952e-06	5.6387e-06	199.09	76.62	49.932	22.355	5.8001e-06	39.481	178.228	135.734	196.216	126.658	241.587	272.018	126.005	131.531	212.894	292.424	129.074	132.809	135.406	139.220	286.184	136.055	-8191	255	
2986.594	1	1	0	0	0.3779	0.20694	0.10484	0.10891	0.060873	0.10789	0.27047	0.14619	0.066839	0.12341	0.16518	0.28626	0.2466	0.16729	0.11236	0.14415	-2.525	-2.5563	-2.8125	-2.8646	-2.7208	-2.9354	-2.6437	-2.7292	-2.9875	-2.7021	-3.0354	-2.6479	-2.6875	-2.9354	-2.7458	-2.8917	183.539	438.400	309.009	126.829	452.237	220.748	176.790	132.019	373.723	138.534	204.097	446.317	232.774	348.112	263.085	362.305	0.00041152	0.00032736	3.0843e-05	295.88	2.0267e-06	1.7383e-07	439.08	111.43	1.596e-06	3.7175e-06	203.17	77.49	50.158	22.399	1.5378e-06	39.085	0.00048836	0.00052503	0.00014278	290.45	5.5422e-06	5.669e-06	432.93	109.54	5.2774e-06	5.7251e-06	199.82	77.215	49.906	22.247	5.4916e-06	39.067	183.785	191.561	174.566	127.009	307.526	458.131	126.001	131.486	238.916	293.655	129.812	132.124	135.850	139.207	275.884	135.615	-8191	255	
2986.690	1	1	0	0	0.1162	0.15603	0.18119	0.087105	0.12413	0.28164	0.11157	0.060018	0.28461	0.065432	0.14964	0.10017	0.15388	0.27457	0.12516	0.25652	-2.6646	-2.6188	-2.9229	-2.8688	-2.6688	-3.1146	-2.6688	-2.8104	-3.0521	-2.7062	-2.9271	-2.8792	-2.6229	-3.1792	-2.675	-2.675	161.832	168.489	471.675	230.581	398.356	251.187	470.413	379.306	380.450	397.373	381.615	429.215	303.095	459.542	364.262	164.432	0.00039535	0.00032072	4.8462e-05	298.66	6.929e-07	3.5496e-06	441.2	110.81	2.9487e-06	1.4052e-06	201.53	76.238	49.987	22.089	2.839e-06	39.102	0.00047801	0.00052968	0.00014317	291.58	5.3306e-06	5.8256e-06	431.95	109.37	5.397e-06	5.7937e-06	198.27	76.185	49.507	22.082	5.5096e-06	38.878	181.843	180.555	249.514	126.862	255.701	213.573	126.207	131.388	231.682	205.159	129.317	131.731	135.002	138.861	197.931	135.808	-8191	255	
2986.809	1	1	0	0	0.22117	0.1906	0.058086	0.22392	0.22399	0.2068	0.18782	0.1398	0.053389	0.1272	0.42981	0.077703	0.10349	0.16764	0.081661	0.30266	-2.4417	-2.5833	-2.6937	-2.9271	-2.5417	-2.9229	-2.7479	-2.4479	-3.0625	-2.6792	-2.8312	-2.8583	-2.525	-2.9813	-2.7	-2.5542	472.471	472.399	156.360	142.744	181.063	446.020	210.869	391.940	120.174	333.673	242.153	216.712	334.381	242.099	300.694	466.448	0.00041206	0.000483	9.1326e-05	294.34	2.3285e-06	3.4218e-06	441.74	111.38	2.8908e-06	3.8693e-06	202.69	76.868	50.087	22.152	1.062e-06	39.376	0.00048164	0.00051305	0.00014498	289.58	5.4284e-06	5.6726e-06	432.09	109.31	5.3768e-06	5.856e-06	198.91	76.521	49.53	22.141	5.5818e-06	39.085	184.782	237.852	202.350	126.790	269.207	257.896	126.113	131.888	238.405	231.260	129.437	132.236	135.850	139.325	253.269	136.211	-8191	255	
2986.905	1	1	0	0	0.078869	0.20235	0.15057	0.16631	0.1446	0.19242	0.1828	0.019491	0.084528	0.12195	0.25267	0.20372	0.053198	0.125	0.13602	0.085227	-2.4979	-2.475	-2.7812	-2.8125	-2.5729	-2.9125	-2.8771	-2.4854	-2.9021	-2.8854	-2.7188	-2.9354	-2.5417	-2.8604	-3.0646	-2.4625	408.255	293.586	374.884	180.165	174.696	242.589	420.597	326.156	414.149	291.333	384.347	158.511	391.442	234.936	362.136	334.517	0.000398	0.00034304	8.611e-05	294.47	2.8502e-06	4.2712e-06	440.48	111.54	2.4019e-06	5.8653e-06	203.66	76.289	49.984	22.347	2.3832e-06	39.462	0.00048036	0.00051464	0.00014538	288.92	5.4641e-06	5.6405e-06	431.04	109.6	5.249e-06	5.9335e-06	199.41	76.869	49.709	22.255	5.5684e-06	39.316	185.103	191.160	216.888	126.691	235.180	327.083	126.154	131.480	275.088	266.076	129.415	131.971	136.011	139.482	274.585	136.293	-8191	255	
2987.001	1	1	0	0	0.25068	0.15434	0.012972	0.016217	0.22989	0.18416	0.34131	0.08094	0.06977	0.18188	0.059258	0.015342	0.05278	0.18092	0.17661	0.10731	-2.6542	-2.7292	-2.5292	-3.1229	-2.5583	-2.8979	-2.9646	-2.4292	-2.9938	-2.7229	-2.6458	-3.0854	-2.6437	-2.9208	-2.8458	-2.5833	302.664	291.715	335.084	289.109	447.852	153.357	429.853	307.001	375.258	233.595	353.640	431.051	302.393	465.116	168.468	435.845	0.0003805	0.00018731	9.5487e-05	293.85	1.2364e-06	3.2402e-06	445.29	110.96	2.8182e-06	3.9458e-06	202.53	77.451	49.884	22.273	1.0318e-06	39.387	0.00048652	0.00051908	0.00014472	289.76	5.3719e-06	5.8233e-06	432.61	109.45	5.4575e-06	5.7482e-06	199.35	77.041	49.628	22.224	5.6141e-06	39.182	183.887	189.327	247.703	127.519	273.436	302.272	126.026	131.402	262.011	253.005	129.690	132.985	134.711	139.217	229.416	136.212	-8191	255	
2987.098	1	1	0	0	0.20436	0.12244	0.16973	0.16834	0.25123	0.054706	0.1629	0.082715	0.18261	0.21671	0.13101	0.069511	0.1209	0.12917	0.2621	0.18496	-2.5167	-2.6667	-2.4792	-2.9833	-2.7875	-2.8438	-2.9271	-2.5958	-3.0542	-2.7521	-2.6188	-2.9458	-2.6354	-2.7812	-2.9646	-2.5896	283.918	178.592	363.161	342.051	411.488	143.668	185.515	331.960	453.168	471.479	132.287	252.373	361.880	434.585	429.506	420.150	0.00043229	0.00037724	9.6125e-05	294.44	2.3074e-06	4.506e-06	438.28	110.96	3.819e-06	3.1682e-06	200.97	76.941	49.943	22.164	2.2638e-06	38.888	0.0004944	0.0005142	0.00013934	288.15	5.3322e-06	5.5736e-06	429.39	109.16	5.4198e-06	5.5046e-06	198.11	76.472	49.575	22.125	5.5898e-06	38.845	186.814	248.166	242.339	126.949	283.940	291.775	126.076	131.551	245.661	245.703	129.473	132.447	135.696	139.521	264.695	136.006	-8191	255	
2987.194	1	1	0	0	0.059823	0.11259	0.14702	0.11101	0.085471	0.022618	0.22505	0.17993	0.19059	0.28706	0.13171	0.049251	0.28446	0.049581	0.25153	0.20789	-2.3812	-2.7313	-2.5729	-3.0271	-2.7	-2.7958	-3.0708	-2.4917	-2.9479	-2.8063	-2.7354	-2.925	-2.5833	-2.7667	-2.9833	-2.6542	298.469	387.775	120.631	264.745	236.603	350.476	274.363	225.149	160.553	183.119	466.939	388.493	399.953	378.055	392.097	432.270	0.00040085	0.00011417	0.00013787	294.69	9.6064e-07	2.9264e-06	437.89	110.74	3.6436e-06	3.3347e-06	200.4	75.597	49.672	22.233	3.9082e-06	39.271	0.00047445	0.00052023	0.00014557	287.88	5.4304e-06	5.7863e-06	428.81	108.91	5.466e-06	5.7754e-06	197.55	76.787	49.371	22.218	5.6095e-06	39.039	180.753	270.082	214.682	126.795	262.819	254.298	125.877	131.366	250.469	275.000	129.572	132.446	135.756	139.157	247.867	135.768	-8191	255	
2987.290	1	1	0	0	0.18627	0.23585	0.22048	0.15594	0.3519	0.15103	0.025362	0.15113	0.13371	0.11091	0.11579	0.071899	0.23707	0.20438	0.082105	0.20951	-2.5083	-2.8458	-2.3896	-2.9292	-3	-2.8458	-3.1312	-2.6688	-2.8896	-2.925	-2.6333	-2.9292	-2.8187	-2.5958	-3.1125	-2.6896	369.220	333.479	325.789	115.351	359.135	248.718	365.963	296.346	417.802	242.932	119.667	311.446	133.623	410.497	350.171	392.893	0.00038545	0.00020294	9.7415e-05	292.64	1.3704e-06	2.1852e-06	438.47	111.02	2.9063e-06	3.9344e-06	201.44	77.135	50.199	22.31	1.9884e-06	39.44	0.00048729	0.00051801	0.00014665	287.14	5.2573e-06	5.7078e-06	427.8	108.94	5.4429e-06	5.7665e-06	198.17	76.728	49.743	22.184	5.5894e-06	39.26	181.919	189.064	219.815	126.929	266.364	237.312	126.165	131.095	241.825	269.438	129.271	133.453	135.953	139.608	247.721	135.956	-8191	255	
2987.386	1	1	0	0	0.25183	0.23186	0.062474	0.25331	0.24892	0.19181	0.14752	0.26446	0.080036	0.155	0.12415	0.37294	0.1696	0.075275	0.14156	0.18871	-2.3563	-2.9854	-2.5083	-2.9562	-2.6437	-2.525	-3.1667	-2.5375	-2.8604	-3	-2.5646	-2.8187	-2.7083	-2.4542	-3.0979	-2.6521	337.930	343.864	412.833	471.735	256.294	168.571	323.396	461.279	455.225	131.439	353.323	358.268	350.034	183.109	191.020	428.510	0.00040138	0.00028987	8.928e-05	294.27	1.0937e-06	2.2972e-06	439.68	111.28	1.9789e-06	3.5586e-06	203.17	76.176	49.897	22.546	8.8483e-07	39.488	0.00048991	0.00050428	0.00014374	287.82	5.1439e-06	5.764e-06	429.41	109.47	5.3691e-06	5.5669e-06	199.03	76.853	49.632	22.314	5.5222e-06	39.308	185.015	169.360	192.603	127.018	212.033	173.772	126.223	131.250	214.302	283.847	129.192	131.727	135.496	139.098	211.613	136.015	-8191	255	
2987.482	1	1	0	0	0.12643	0.18931	0.12841	0.16914	0.38378	0.021615	0.11148	0.074673	0.16409	0.18515	0.048862	0.11555	0.035579	0.10748	0.053019	0.23072	-2.3083	-2.8979	-2.5792	-2.8271	-2.7542	-2.5354	-2.9292	-2.6875	-2.8187	-3.0625	-2.6229	-2.7854	-2.9688	-2.5833	-2.7812	-2.7979	241.144	180.322	277.608	357.785	128.063	156.540	133.218	202.612	387.480	273.887	195.971	380.580	229.023	193.024	245.562	440.877	0.00038488	0.00030924	9.0687e-05	293.08	2.5964e-06	3.2807e-06	435.01	109.93	1.797e-06	8.3122e-07	200.74	75.588	49.57	22.214	4.5387e-06	39.202	0.00047201	0.00052118	0.00014457	286.81	5.2377e-06	5.739e-06	425.93	108.68	5.3987e-06	5.5785e-06	197.4	76.191	49.28	22.143	5.6393e-06	38.814	184.732	216.708	216.522	127.214	248.993	233.470	126.317	131.530	294.405	236.834	129.628	132.181	135.557	139.350	268.266	135.981	-8191	255	
2987.603	1	1	0	0	0.055966	0.10919	0.14561	0.069267	0.16565	0.043804	0.40185	0.1616	0.25541	0.12427	0.28329	0.15326	0.1701	0.29432	0.13137	0.028195	-2.3083	-2.975	-2.5208	-2.9271	-2.7417	-2.5917	-3.0729	-2.7854	-2.4396	-3.1646	-2.6	-2.7833	-2.8937	-2.5792	-2.7896	-2.75	368.496	306.674	301.645	139.168	387.988	309.771	458.061	325.167	326.590	130.888	117.303	415.150	203.307	214.095	178.431	358.918	0.00040649	0.00033824	0.00010789	293	2.4231e-06	3.4364e-06	437.04	110.81	2.1275e-06	1.9836e-06	201.3	77.401	49.888	22.07	4.8906e-06	39.001	0.00048194	0.00050948	0.0001486	286.95	5.2994e-06	5.682e-06	426.78	108.78	5.676e-06	5.6142e-06	197.03	76.563	49.58	22.123	5.4949e-06	38.853	183.917	186.120	225.581	126.964	202.534	222.490	126.300	131.572	218.449	238.809	129.167	131.912	135.786	139.125	260.491	135.929	-8191	255	
2987.697	1	1	0	0	0.34841	0.22516	0.16283	0.07937	0.13951	0.15047	0.13042	0.080943	0.19814	0.059237	0.045848	0.16831	0.1653	0.34756	0.018683	0.01967	-2.1146	-3.05	-2.5917	-2.9646	-3.0792	-2.5521	-3.0438	-3.0083	-2.6188	-2.8792	-2.8083	-2.7042	-2.925	-2.5646	-2.9375	-2.9208	280.460	128.781	319.453	392.221	293.792	219.188	340.792	423.233	398.057	167.640	398.256	157.402	181.829	151.065	248.537	387.093	0.00041134	0.00047204	5.949e-05	292.38	2.6704e-06	3.6413e-06	436.6	109.94	2.4718e-06	3.8591e-06	201.34	76.836	49.905	22.343	1.9954e-06	39.722	0.00048338	0.00050781	0.00013908	286.86	4.9881e-06	5.7832e-06	426.98	108.46	5.3966e-06	5.6502e-06	198.3	76.67	49.65	22.3	5.4802e-06	39.343	184.183	174.323	222.431	127.193	281.463	275.296	126.401	131.756	245.782	273.007	129.579	132.673	135.359	139.315	255.431	136.359	-8191	255	
2987.795	1	1	0	0	0.2088	0.18358	0.086212	0.29079	0.14813	0.15332	0.18869	0.19567	0.069109	0.11299	0.26876	0.086606	0.036628	0.13487	0.23212	0.33856	-2.0646	-2.9958	-2.6708	-2.7104	-3.025	-2.7458	-3.0167	-2.7271	-2.4646	-3.1542	-2.775	-2.5229	-2.9813	-2.5896	-2.975	-3.1708	451.279	238.876	231.101	402.410	284.234	128.865	117.490	173.154	245.582	410.945	424.845	212.908	442.442	472.599	195.953	375.145	0.00040676	0.00041981	1.4038e-05	293.66	1.8397e-06	3.4489e-06	439.45	112.21	3.2429e-06	2.6378e-06	203.29	76.113	50.375	22.639	3.3879e-06	39.923	0.00048968	0.00050567	0.00014799	287.33	5.3334e-06	5.7533e-06	429.04	109.68	5.4291e-06	5.5291e-06	200.07	77.162	50.076	22.524	5.5596e-06	39.686	182.681	191.601	195.597	126.916	227.839	260.671	126.307	131.522	241.313	244.532	129.390	132.482	135.535	139.328	212.114	135.904	-8191	255	
2987.890	1	1	0	0	0.18916	0.15985	0.41441	0.14046	0.33099	0.21905	0.076197	0.04979	0.14572	0.13004	0.043655	0.15398	0.17244	0.22107	0.067932	0.092787	-2.1583	-3.1021	-2.7771	-2.8	-3.0167	-2.6188	-2.7083	-2.9896	-2.5479	-2.9167	-2.7542	-2.4562	-2.9833	-2.8208	-2.8	-3.1625	232.608	436.811	358.760	119.107	362.624	296.342	122.053	439.074	406.832	316.237	235.977	417.031	471.631	125.040	200.669	396.819	0.00041976	0.0003005	5.744e-05	293.82	2.3714e-06	3.7093e-06	438.38	111.33	3.6973e-06	2.8829e-06	202.25	77.345	50.772	22.533	2.2465e-06	39.353	0.00049496	0.00051801	0.00014442	288.4	5.1571e-06	5.6053e-06	429.46	109.63	5.4822e-06	5.5322e-06	198.76	77.021	50.215	22.409	5.6452e-06	39.267	182.430	227.214	190.591	127.101	245.665	246.414	126.509	131.159	238.828	288.830	129.288	131.607	135.885	139.438	243.617	135.904	-8191	255	
2987.986	1	1	0	0	0.080838	0.034571	0.23135	0.13609	0.1677	0.22054	0.17203	0.15244	0.15307	0.1148	0.20368	0.16385	0.094492	0.28697	0.13655	0.12571	-1.9958	-2.9083	-2.8875	-2.6688	-3.125	-2.7208	-2.9146	-2.9771	-2.4792	-2.9583	-2.8583	-2.6479	-3.0333	-2.7938	-2.6333	-3.1146	322.475	386.487	125.663	205.648	183.031	198.453	327.698	464.702	165.677	282.041	193.920	143.487	396.132	402.619	326.892	132.879	0.00036183	0.00037671	6.9703e-05	293.54	2.176e-06	2.71e-06	436.65	110.46	3.682e-06	2.7715e-06	201.12	75.466	50.673	22.516	2.0658e-06	39.414	0.0004844	0.00052154	0.00014459	287.62	5.333e-06	5.8488e-06	428.57	109.18	5.4887e-06	5.6694e-06	198.22	76.897	50.1	22.473	5.6179e-06	39.427	185.320	202.936	151.083	127.165	231.919	345.057	126.393	131.678	255.396	282.085	129.144	132.315	135.254	139.215	266.723	135.606	-8191	255	
2988.082	1	1	0	0	0.12897	0.12542	0.12707	0.13991	0.11955	0.10183	0.31015	0.11959	0.15912	0.13426	0.12997	0.22804	0.025995	0.16105	0.025514	0.086831	-2.1937	-2.8292	-2.9271	-2.6646	-3.0458	-2.8208	-2.5792	-3.0229	-2.5271	-2.7854	-2.9917	-2.4625	-2.7938	-2.9083	-2.5125	-3.0667	276.091	386.253	148.742	206.551	253.168	455.966	458.345	407.260	262.278	400.448	114.324	240.963	221.491	218.546	361.566	363.828	0.00037495	0.00030704	6.7953e-05	293.49	2.235e-06	3.3059e-06	438.08	111.59	1.3988e-06	3.0689e-06	201.85	76.019	50.522	22.629	1.2225e-06	40.018	0.00048464	0.0005163	0.00014429	288.32	5.291e-06	5.7957e-06	429.25	109.87	5.5816e-06	5.6814e-06	198.21	76.848	50.178	22.514	5.8131e-06	39.724	185.810	165.270	245.012	126.915	218.642	284.002	126.009	131.818	267.794	291.636	129.472	132.217	135.922	139.012	240.916	136.018	-8191	255	
2988.202	1	1	0	0	0.17862	0.14887	0.15509	0.24558	0.058455	0.15258	0.031629	0.12193	0.10036	0.051405	0.18004	0.14217	0.13621	0.039025	0.17311	0.04351	-2.2062	-2.7792	-2.8604	-2.4625	-2.8583	-2.8604	-2.6083	-3.0792	-2.55	-2.9792	-3.0812	-2.6771	-2.9354	-2.8042	-2.4896	-3.1521	157.878	344.098	437.083	387.344	393.088	346.744	181.506	152.170	127.847	443.164	191.057	458.393	173.728	168.280	194.058	294.910	0.00041903	0.00041187	6.1178e-05	293.72	4.9551e-07	3.6214e-06	441.44	112.01	3.5187e-06	2.3595e-06	203.21	79.277	51.16	22.811	1.5551e-06	40.271	0.00049263	0.00051777	0.00014279	289.25	5.2617e-06	5.7239e-06	430.74	110.31	5.2705e-06	5.7701e-06	200.42	78.14	50.57	22.742	5.6989e-06	40.118	183.562	217.455	196.849	126.970	320.498	253.311	126.545	131.333	257.100	244.136	129.235	132.680	135.347	139.210	218.458	135.931	-8191	255	
2988.299	1	1	0	0	0.058259	0.014601	0.048252	0.21727	0.022286	0.26703	0.10035	0.18555	0.11092	0.044169	0.22571	0.23201	0.096764	0.048842	0.045802	0.066254	-2.1937	-2.7708	-3.0292	-2.6562	-2.9479	-2.8458	-2.6875	-3.0917	-2.7042	-2.7542	-3.2458	-2.6562	-2.8729	-3.1792	-2.4167	-3.0938	451.473	161.034	190.574	467.263	394.789	287.373	325.569	197.172	195.142	124.011	358.455	216.929	471.721	349.297	376.311	368.387	0.00038924	0.00038408	6.9722e-05	295.51	1.5152e-06	2.8401e-06	441.46	112.87	3.1626e-06	2.5038e-06	203.11	77.343	50.968	22.704	9.6916e-07	39.861	0.00049077	0.00050432	0.00014537	290.22	5.2228e-06	5.7283e-06	431.81	110.43	5.3354e-06	5.9643e-06	200.19	77.971	50.507	22.684	5.7115e-06	39.766	182.134	212.051	190.590	126.949	248.951	274.579	126.507	131.290	258.226	212.784	129.312	132.100	135.472	138.961	219.717	135.950	-8191	255	
2988.395	1	1	0	0	0.11634	0.021012	0.31296	0.17997	0.17428	0.15554	0.30021	0.03537	0.10808	0.44962	0.0022453	0.10128	0.10643	0.27852	0.19975	0.055086	-2.1958	-2.65	-2.9854	-2.6417	-2.9771	-3.0167	-2.6708	-2.9125	-2.7188	-2.9083	-3.1042	-2.6729	-2.9417	-3.1625	-2.6833	-2.9542	281.786	160.011	259.077	147.333	447.092	371.649	388.784	365.899	472.481	429.230	180.000	231.515	397.823	355.758	195.648	182.295	0.0004175	0.00028913	9.3594e-05	295.07	3.0751e-06	1.7566e-06	441.17	111.84	2.2853e-06	1.6053e-06	202.74	77.584	51.122	22.744	1.8283e-06	40.024	0.0004934	0.00050178	0.00014583	290.04	5.3995e-06	5.7542e-06	430.26	110.05	5.2876e-06	5.9491e-06	199.15	77.58	50.407	22.591	5.8907e-06	39.701	184.553	230.833	234.321	126.865	265.542	282.901	126.347	131.209	246.093	372.004	129.268	132.158	135.698	139.136	271.295	136.138	-8191	255	
2988.466	1	1	0	0	0.023245	0.11941	0.15873	0.38121	0.079987	0.22044	0.047461	0.097048	0.17251	0.087307	0.036342	0.14853	0.092316	0.19193	0.28178	0.41095	-2.3396	-2.5896	-3.0729	-2.6354	-2.8104	-2.9729	-2.6688	-2.7896	-2.975	-2.8229	-2.9188	-2.7938	-2.6625	-2.9458	-2.4333	-3.1083	152.353	373.146	406.142	390.952	291.967	114.718	203.846	340.620	286.193	181.423	323.306	164.737	162.692	450.652	397.426	445.900	0.00038991	0.00010741	0.0001202	296.42	1.5591e-06	3.8895e-06	437.72	112.09	3.4025e-06	6.8696e-07	203.42	76.15	50.523	22.718	2.2561e-06	39.924	0.00047492	0.00051452	0.00014713	289.88	5.2613e-06	5.7975e-06	429.36	110.24	5.526e-06	5.8449e-06	199.6	77.37	50.162	22.693	5.7652e-06	39.895	184.994	212.958	208.871	127.252	228.956	294.979	126.180	131.204	272.791	243.826	129.574	132.005	135.759	139.212	336.425	136.239	-8191	255	
2988.587	1	1	0	0	0.2115	0.24414	0.034432	0.1766	0.08337	0.22349	0.3198	0.15961	0.075647	0.033373	0.12454	0.11182	0.063709	0.12651	0.13279	0.040075	-2.3583	-2.5917	-2.8312	-2.7292	-2.7833	-3.1104	-2.7021	-2.8271	-2.9042	-2.6979	-2.875	-2.625	-2.6583	-2.9	-2.525	-3.0125	443.356	309.858	465.086	175.381	180.060	238.555	406.037	418.534	156.144	461.323	203.316	241.571	283.485	121.137	419.609	285.983	0.00040407	0.00041589	8.1287e-05	294.16	1.8958e-06	2.2441e-06	438.72	111.74	2.2724e-06	5.376e-06	203.32	76.518	50.545	22.706	2.4682e-06	40.281	0.00047592	0.00053702	0.00014283	288.8	5.3667e-06	5.5174e-06	429.7	109.89	5.3703e-06	5.6476e-06	199.81	77.65	50.277	22.667	5.7761e-06	40.119	184.645	191.928	201.964	127.031	228.091	220.719	126.041	131.617	283.451	226.412	129.314	132.408	136.145	139.428	247.720	135.849	-8191	255	
2988.681	1	1	0	0	0.14686	0.17844	0.25083	0.065692	0.22181	0.088642	0.14703	0.11934	0.11034	0.21362	0.055143	0.20992	0.14497	0.16098	0.10071	0.13787	-2.4729	-2.4229	-3.1125	-2.7208	-2.5521	-3.0104	-2.7167	-2.75	-2.9	-2.5667	-3.1417	-2.85	-2.5	-3.1146	-2.8375	-2.6562	131.244	205.542	379.601	121.916	451.739	428.115	306.909	315.965	297.983	312.569	454.761	445.200	382.168	468.566	363.265	411.007	0.00039896	0.0003194	8.9867e-05	295.87	2.4583e-06	3.9376e-06	438.27	112.06	3.4755e-06	2.6794e-06	203.39	78.448	50.404	22.699	3.1975e-06	39.999	0.00047859	0.00053289	0.0001412	290.02	5.3975e-06	5.7694e-06	428.68	110.24	5.5787e-06	5.8502e-06	199.91	78.172	50.234	22.656	5.5071e-06	39.835	184.149	216.997	236.864	127.244	250.185	262.554	126.444	131.368	264.356	249.160	129.523	132.070	135.690	139.091	256.116	136.088	-8191	255	
2988.778	1	1	0	0	0.13484	0.30746	0.253	0.1692	0.23042	0.046457	0.31179	0.044826	0.062531	0.11979	0.20553	0.15785	0.1453	0.092671	0.11318	0.13901	-2.5625	-2.75	-2.9708	-2.825	-2.5521	-3.0146	-2.7146	-2.7375	-3.1146	-2.5271	-3.0187	-2.9229	-2.4917	-3.0646	-2.5604	-2.7542	385.843	303.031	214.238	456.002	444.140	164.107	388.920	245.027	233.326	327.483	360.738	461.317	139.885	172.137	370.905	422.204	0.00040444	0.00014349	9.6884e-05	293.9	2.6993e-06	3.4892e-06	434.79	111.04	5.1222e-06	2.2199e-06	201.74	76.596	50.198	22.63	1.0379e-06	39.915	0.00047515	0.00051031	0.00014684	288.36	5.3663e-06	5.7413e-06	426.99	109.57	5.2969e-06	5.8093e-06	198.14	77.061	50.115	22.578	5.4865e-06	39.721	185.501	246.493	170.222	127.196	276.252	254.334	126.403	131.397	216.049	281.602	129.638	132.591	135.342	139.455	238.220	135.800	-8191	255	
2988.875	1	1	0	0	0.13399	0.023228	0.12876	0.30795	0.16482	0.27374	0.17525	0.14196	0.081628	0.11178	0.16033	0.36647	0.011232	0.28739	0.21833	0.31181	-2.4271	-2.5521	-3.0042	-3.1437	-2.7167	-2.9437	-2.7812	-2.6729	-2.9667	-2.7083	-2.85	-2.9521	-2.7062	-2.9896	-2.6583	-2.6542	162.717	231.372	359.549	437.059	412.507	246.088	410.673	390.717	335.206	260.312	441.276	240.298	463.094	145.696	242.851	382.731	0.0004084	0.00024528	5.1637e-05	294.75	6.8277e-07	8.3409e-07	438.95	110.49	3.2844e-06	5.3186e-06	201.88	77.517	50.616	22.935	2.1122e-06	40.057	0.00048875	0.00051269	0.00013985	287.66	5.3447e-06	5.7471e-06	426.42	109.32	5.3318e-06	5.6912e-06	198.34	77.267	50.379	22.771	5.876e-06	39.962	184.389	224.490	148.945	126.748	254.113	379.787	126.263	131.682	264.975	281.856	129.345	132.487	135.345	139.349	236.299	135.877	-8191	255	
2988.994	1	1	0	0	0.06834	0.12768	0.10562	0.21883	0.13537	0.13142	0.23797	0.072204	0.11899	0.078958	0.17698	0.13949	0.28698	0.15288	0.15102	0.40291	-2.7167	-2.6042	-2.9104	-2.9583	-2.4562	-2.9646	-2.7562	-2.6562	-3.175	-2.7229	-2.7375	-2.9479	-2.6208	-2.9292	-2.9083	-2.6625	127.134	358.560	348.702	388.538	373.149	381.820	354.321	161.133	342.184	153.018	313.979	460.717	330.790	354.659	316.897	406.769	0.00041353	0.00047075	2.7792e-05	294.11	1.1261e-06	3.6571e-06	437.64	111.72	2.3265e-06	4.1035e-06	203.02	77.296	50.476	23.072	2.5084e-06	40.619	0.00051217	0.00052364	0.00014153	288.16	5.3655e-06	5.7159e-06	428.36	109.87	5.4064e-06	5.7224e-06	199.88	78.155	50.526	22.986	5.5868e-06	40.512	181.151	208.097	139.716	126.904	355.167	288.360	125.959	131.422	279.464	324.358	129.218	132.626	134.999	139.287	261.509	136.051	-8191	255	
2989.066	1	1	0	0	0.13899	0.12551	0.071159	0.031533	0.1167	0.16802	0.070042	0.23391	0.069747	0.13376	0.35802	0.10959	0.23942	0.18137	0.042146	0.14361	-2.5646	-2.7062	-2.6833	-2.9771	-2.4313	-2.9458	-2.9604	-2.7208	-3.0938	-2.7125	-2.7625	-2.925	-2.65	-2.7479	-2.9021	-2.6875	177.030	266.762	331.151	272.941	166.369	178.013	401.227	419.668	405.739	445.371	406.736	379.435	256.163	179.722	347.434	417.235	0.00042824	0.00045683	0.00014399	297.97	1.7249e-06	3.0205e-06	441.91	113.27	2.5478e-06	4.8082e-06	203.29	77.988	50.961	23.137	2.0888e-06	40.812	0.00048838	0.00051277	0.00014636	289.59	5.214e-06	5.7043e-06	429.46	110.57	5.5236e-06	5.7585e-06	200.3	78.618	50.74	23.054	5.4416e-06	40.485	182.687	210.134	199.439	126.979	325.239	224.251	126.318	131.382	245.014	288.647	129.862	132.075	135.323	139.108	212.231	135.732	-8191	255	
2989.162	1	1	0	0	0.19233	0.17046	0.17337	0.2199	0.069456	0.10495	0.14987	0.17026	0.080143	0.023872	0.040254	0.203	0.11352	0.1952	0.064453	0.20346	-2.6167	-2.7208	-2.6979	-2.9792	-2.6521	-2.8979	-2.9562	-2.5687	-3.0125	-2.8542	-2.7229	-3.1604	-2.4896	-2.7792	-2.9562	-2.6063	313.819	243.034	328.083	184.821	454.765	357.681	140.004	402.890	122.970	350.594	288.873	362.581	250.298	150.878	165.981	315.628	0.00040507	0.00043188	6.9699e-05	295.62	2.2683e-06	4.0433e-06	439.66	112.72	2.9213e-06	1.3596e-06	203.78	78	51.267	23.094	2.0138e-06	40.787	0.00049219	0.0005144	0.00014171	290.36	5.2325e-06	5.9857e-06	429.37	110.57	5.0256e-06	5.7099e-06	199.72	77.954	50.864	23.005	5.599e-06	40.528	180.430	182.059	231.593	127.113	255.181	291.151	126.243	131.512	248.996	202.468	129.524	133.826	135.820	139.429	204.905	135.976	-8191	255	
2989.283	1	1	0	0	0.097844	0.11469	0.15847	0.1229	0.31627	0.1284	0.12715	0.13978	0.20756	0.13527	0.37655	0.26758	0.23116	0.24356	0.15962	0.28199	-2.5042	-2.7812	-2.5667	-3.1646	-2.8771	-2.6667	-3.05	-2.5229	-2.8417	-2.9458	-2.55	-2.9667	-2.8104	-2.7354	-3.0646	-2.5646	290.773	124.048	249.863	449.820	427.430	308.046	432.548	388.386	374.657	275.834	421.578	130.535	142.769	471.805	182.622	201.322	0.00039358	0.00024499	9.478e-05	295.94	2.8233e-06	4.7915e-06	440.2	111.72	3.4694e-06	2.9859e-06	203.71	79.054	51.45	23.469	3.2022e-06	41.265	0.00047092	0.00052753	0.00014144	291.15	5.1531e-06	5.6944e-06	429.35	110.66	5.2912e-06	5.8716e-06	200.95	79.159	51.192	23.355	5.6011e-06	41.074	185.810	189.592	230.467	126.949	283.709	292.370	125.819	131.736	254.045	265.552	129.252	132.147	135.969	139.247	226.235	135.902	-8191	255	
2989.379	1	1	0	0	0.11283	0.063818	0.093624	0.079845	0.23791	0.22617	0.33673	0.25592	0.16267	0.14169	0.34595	0.34314	0.14841	0.31136	0.23481	0.15419	-2.5	-2.9167	-2.6667	-2.9437	-3.0208	-2.8042	-3.1104	-2.6396	-2.7938	-2.9562	-2.6813	-2.9667	-2.8375	-2.7583	-3.0292	-2.8292	420.956	331.709	290.874	345.068	330.650	320.156	118.780	361.035	204.875	396.790	424.234	166.456	444.301	452.761	438.842	203.811	0.00043859	0.0002883	0.000126	299.1	1.1859e-06	3.3917e-06	437.93	112.5	3.0422e-06	1.869e-06	206.43	79.686	52.399	23.942	1.8777e-06	42.191	0.00048933	0.00053043	0.00014564	291.37	5.4224e-06	5.6476e-06	430.43	111.05	5.5094e-06	5.6774e-06	202.08	80.224	51.851	23.803	5.4983e-06	41.922	184.578	222.410	215.354	126.986	237.447	242.138	126.201	131.115	273.942	260.387	129.219	132.384	135.480	139.304	258.233	136.010	-8191	255	
2989.475	1	1	0	0	0.18307	0.19203	0.094399	0.10352	0.084178	0.18068	0.12168	0.02137	0.049343	0.1373	0.079806	0.027514	0.1341	0.068758	0.10021	0.038183	-2.4125	-3.0146	-2.6958	-3.0833	-2.7104	-2.6813	-3.1021	-2.5229	-2.8292	-2.9792	-2.5729	-2.8708	-3.1021	-2.6312	-2.9146	-2.7208	281.940	114.449	310.559	440.161	352.582	115.503	400.242	250.583	210.336	135.975	205.954	282.668	185.140	262.617	140.967	142.900	0.00040703	0.0004408	8.5756e-05	298.55	2.796e-06	2.4107e-06	441.69	113.51	2.5817e-06	3.5241e-06	206.14	81.199	52.403	23.782	3.5454e-06	42.352	0.00049184	0.00053876	0.00014782	293.02	5.3014e-06	5.6173e-06	433.73	111.97	5.4781e-06	5.7522e-06	203.08	80.6	52.115	23.899	5.6397e-06	41.963	182.574	181.200	186.308	126.429	253.833	232.244	126.368	131.596	278.566	267.007	129.072	132.545	135.230	139.248	271.901	135.834	-8191	255	
2989.596	1	1	0	0	0.033236	0.1653	0.016525	0.13426	0.03642	0.21607	0.29796	0.10591	0.10445	0.086984	0.16465	0.18425	0.20757	0.061516	0.091656	0.11025	-2.525	-3.0771	-2.6854	-2.9792	-2.8	-2.5896	-3.0625	-2.7604	-2.5729	-2.975	-2.5625	-2.9479	-2.8667	-2.5958	-3.0312	-2.5312	430.635	145.833	131.064	149.432	270.747	430.095	127.164	283.848	398.857	419.018	405.305	150.948	381.180	268.831	462.688	337.564	0.00043629	0.00035548	0.00015311	299.17	3.4997e-06	1.4832e-06	444.05	113.07	2.1854e-06	4.7738e-06	205.83	79.028	52.246	23.726	2.0063e-06	41.693	0.00049524	0.00052833	0.00015152	294.6	5.4424e-06	5.9571e-06	433.29	111.34	5.4927e-06	5.6943e-06	202.27	79.879	51.642	23.737	5.7216e-06	41.461	180.948	167.580	192.590	126.957	269.752	284.007	126.084	131.792	237.278	270.326	129.172	132.161	135.395	139.294	226.876	136.140	-8191	255	
2989.692	1	1	0	0	0.12595	0.058771	0.19138	0.091035	0.114	0.2166	0.040914	0.2095	0.20977	0.057862	0.17887	0.17208	0.24611	0.38935	0.04056	0.17855	-2.15	-2.9813	-2.7792	-2.7125	-2.875	-2.525	-2.9708	-2.7354	-2.7	-3.1063	-2.5833	-2.8917	-2.9688	-2.5521	-3.0125	-2.7562	400.337	228.958	221.140	235.018	354.794	472.310	471.448	139.875	384.707	263.380	265.268	261.551	326.830	126.203	413.590	353.075	0.00042905	0.00039378	0.00013948	298.17	1.8388e-06	2.195e-06	442.65	112.64	3.5752e-06	1.8995e-06	207.2	79.336	52.107	23.564	2.854e-06	41.445	0.00050726	0.00050531	0.00014675	292.61	5.2433e-06	5.8207e-06	430.76	111.41	5.4631e-06	5.7946e-06	202.12	79.736	51.652	23.598	5.3824e-06	41.344	184.006	250.643	195.173	126.696	249.489	258.542	126.457	131.390	251.031	220.311	129.379	131.982	135.683	138.989	255.261	136.052	-8191	255	
2989.764	1	1	0	0	0.12351	0.18606	0.18043	0.13266	0.1238	0.2881	0.16743	0.28947	0.14335	0.13206	0.32416	0.28513	0.093881	0.051211	0.19114	0.13351	-2.2646	-3.075	-2.5833	-2.6917	-2.9375	-2.7854	-3.0229	-2.9458	-2.6688	-2.8625	-2.7188	-2.8396	-2.9646	-2.6854	-2.7792	-2.8104	205.425	451.031	171.049	119.984	235.004	314.782	425.343	154.893	230.040	206.045	461.177	188.086	438.816	183.493	452.111	355.142	0.00041668	0.00043512	6.0564e-05	297.98	2.1096e-06	3.8249e-06	440.17	112.45	2.0713e-06	3.9104e-06	204.1	78.855	52.139	23.698	4.0969e-06	41.821	0.00049947	0.0005244	0.00014582	292.18	5.3571e-06	5.8666e-06	430.54	111.27	5.3496e-06	5.7865e-06	201.94	79.724	51.706	23.692	5.5268e-06	41.705	183.656	261.457	201.830	126.644	292.212	291.595	126.089	131.453	224.225	268.845	129.415	131.851	134.810	139.032	236.425	136.007	-8191	255	
2989.882	1	1	0	0	0.19179	0.029323	0.10684	0.069927	0.10654	0.14768	0.25072	0.089984	0.16268	0.023068	0.17934	0.19032	0.19125	0.061781	0.23284	0.18259	-2.1167	-3.1417	-2.7104	-2.6708	-2.9729	-2.5396	-2.9583	-2.8229	-2.6479	-3.0771	-2.7188	-2.7229	-3.1896	-2.7188	-2.7875	-3.0917	344.052	463.984	406.060	283.148	166.196	181.934	308.596	171.177	445.521	293.310	132.356	404.466	195.521	118.921	272.841	135.013	0.00041741	0.00026004	3.9316e-05	298.38	1.4583e-06	3.3554e-06	440.47	113.17	2.3691e-06	5.5187e-06	205.18	79.734	51.597	23.84	3.2787e-06	41.689	0.00050119	0.00051475	0.00014067	292.56	5.1696e-06	5.7618e-06	431.2	111.55	5.3983e-06	5.6654e-06	202.1	79.805	51.495	23.644	5.5826e-06	41.53	181.700	183.917	183.789	126.759	240.122	224.496	126.274	131.942	240.749	270.489	129.298	132.941	135.157	139.137	279.560	136.257	-8191	255	
2989.979	1	1	0	0	0.102	0.12526	0.13538	0.19847	0.07254	0.093488	0.1566	0.40077	0.25971	0.33529	0.21482	0.20149	0.1976	0.41012	0.067862	0.097925	-2.0604	-2.9375	-2.6688	-2.5208	-2.925	-2.6417	-2.9062	-3.125	-2.6896	-3.2271	-2.8542	-2.7188	-2.9417	-2.7167	-2.8438	-3.1188	398.758	214.693	182.332	470.357	249.345	396.938	289.785	453.321	428.579	381.148	329.281	200.871	398.907	315.072	285.290	172.657	0.0004131	0.00020595	0.00010635	297.51	1.5009e-06	4.333e-06	438.22	112.53	2.0756e-06	2.2648e-06	204.45	79.396	52.15	23.578	2.3513e-06	41.409	0.00049735	0.00049547	0.00014184	291.63	5.329e-06	6.0842e-06	428.71	110.97	5.5345e-06	5.6485e-06	201.25	79.523	51.454	23.508	5.5822e-06	41.142	185.582	188.444	207.396	126.831	310.241	266.931	126.195	131.176	256.708	249.037	129.592	132.965	135.709	139.208	275.759	136.036	-8191	255	
2990.075	1	1	0	0	0.06934	0.10578	0.26453	0.23318	0.079446	0.23058	0.27239	0.19518	0.29502	0.1017	0.29991	0.19843	0.15409	0.16808	0.11892	0.077702	-2.1229	-2.8312	-3.0396	-2.6854	-3.0896	-2.725	-2.85	-2.9958	-2.7458	-3.0458	-3.0583	-2.6479	-3.1458	-2.8583	-2.8896	-3.325	149.864	143.875	349.271	375.680	239.639	138.913	390.380	142.992	173.047	358.434	322.880	370.951	226.526	441.517	354.102	307.404	0.00039066	0.0003199	0.00010597	297.69	3.4253e-06	3.1749e-06	437.03	111.45	2.7415e-06	1.6423e-06	202.63	77.553	51.536	23.331	3.6962e-06	41.549	0.00047461	0.00050714	0.00014615	290.79	5.1603e-06	5.7912e-06	427.48	110.39	5.3597e-06	5.8133e-06	200.13	78.421	51.13	23.34	5.7384e-06	41.193	185.849	173.676	187.715	127.006	216.029	265.601	126.602	131.644	251.973	343.826	129.663	132.545	135.403	139.348	245.355	136.112	-8191	255	
2990.171	1	1	0	0	0.11728	0.22684	0.24922	0.21563	0.059396	0.28955	0.13338	0.099163	0.074969	0.04636	0.23673	0.18687	0.1874	0.17443	0.28444	0.22993	-2.2938	-2.9792	-2.9688	-2.4229	-3.0708	-2.7333	-2.8229	-3.0021	-2.5479	-3.0438	-2.9854	-2.6271	-2.9333	-2.9	-2.65	-3.1646	182.344	412.250	236.202	439.573	319.194	137.833	330.224	339.824	304.734	276.289	327.845	315.330	136.030	454.085	178.750	382.904	0.00040778	0.00034424	6.583e-05	294.99	4.0484e-06	3.9981e-06	437.05	112.26	2.0694e-06	4.1672e-06	203.91	78.512	51.329	23.487	1.765e-06	41.43	0.00049791	0.00051404	0.00014265	289.83	5.2473e-06	5.7511e-06	427.55	110.66	5.4615e-06	5.8124e-06	200.4	79.031	51.019	23.401	5.6011e-06	41.311	181.985	195.808	215.659	127.172	256.972	258.911	126.432	131.683	270.844	276.981	129.401	132.541	135.839	139.513	252.468	135.923	-8191	255	
2990.292	1	1	0	0	0.21894	0.048041	0.21759	0.13806	0.27258	0.19033	0.38508	0.24844	0.1678	0.18244	0.1611	0.066644	0.24137	0.21354	0.1599	0.20626	-2.2125	-2.9292	-2.8354	-2.5479	-2.8646	-2.8104	-2.7479	-3.0229	-2.75	-2.8312	-3.0187	-2.5187	-2.8937	-2.9562	-2.7	-3.2083	255.666	202.104	429.029	118.297	380.941	131.095	420.290	464.651	409.601	424.784	299.116	256.794	370.919	146.150	279.462	440.744	0.00042777	0.00025416	6.6924e-05	295.3	2.4337e-06	3.0418e-06	438.88	112.2	1.6111e-06	3.6408e-06	203.29	78.078	52.179	23.474	3.9327e-06	41.718	0.00049696	0.00053075	0.00014816	290.01	5.2649e-06	5.7341e-06	429.24	110.77	5.5876e-06	5.7612e-06	200.81	79.116	51.199	23.376	5.6943e-06	41.358	184.047	222.789	181.917	126.988	254.861	250.451	126.339	132.016	212.915	293.111	129.410	132.378	135.271	139.441	270.461	135.865	-8191	255	
2990.363	1	1	0	0	0.001513	0.090337	0.21088	0.13749	0.072148	0.21667	0.12347	0.16857	0.16898	0.10843	0.064671	0.32179	0.19403	0.17113	0.26334	0.15784	-2.325	-2.8187	-2.9771	-2.525	-2.8417	-2.7833	-2.8438	-2.8771	-2.8479	-2.6333	-2.9896	-2.6188	-2.9896	-2.8229	-2.6562	-2.9646	180.000	291.322	219.838	147.232	380.553	324.697	449.817	349.805	190.269	129.580	444.199	321.104	126.092	351.700	134.841	377.995	0.00040418	0.00027658	0.00010124	295.15	3.5944e-06	4.1313e-06	437.14	111.92	2.5294e-06	3.062e-06	203.58	78.245	51.439	23.365	3.2124e-06	41.356	0.0004958	0.00051535	0.00014322	289.26	5.2809e-06	5.7792e-06	426.85	110.45	5.4781e-06	5.6427e-06	199.9	78.121	50.83	23.283	5.5688e-06	41.024	185.071	202.282	212.996	126.957	273.618	232.323	126.291	131.354	285.265	306.306	129.670	132.480	136.307	139.590	282.356	136.130	-8191	255	
2990.459	1	1	0	0	0.082881	0.11687	0.30023	0.1338	0.19639	0.031974	0.1539	0.25067	0.074956	0.25817	0.19596	0.083461	0.20776	0.10353	0.1624	0.048577	-2.2667	-2.6	-2.9333	-2.5417	-2.8083	-2.8583	-2.4875	-3.0875	-2.8958	-2.7333	-3.2229	-2.6813	-3.0042	-2.9938	-2.6521	-3.0417	328.848	324.229	273.940	346.178	135.452	212.994	445.555	328.288	230.794	287.140	409.606	151.572	269.879	414.987	299.920	386.374	0.00041722	0.00034473	0.00013843	296.04	2.8561e-06	3.2003e-06	436.3	111.91	2.757e-06	2.6993e-06	202.42	78.053	51.303	23.405	2.2312e-06	41.772	0.00048443	0.00051626	0.00013684	289.33	5.1323e-06	5.6066e-06	426.93	110.32	5.4234e-06	5.6921e-06	199.68	78.94	51.038	23.287	5.7652e-06	41.369	187.703	185.894	180.796	127.231	277.595	291.831	125.863	131.556	265.622	261.345	129.282	132.035	135.874	138.973	320.173	136.064	-8191	255	
2990.556	1	1	0	0	0.11822	0.13403	0.15991	0.14991	0.27761	0.20064	0.11449	0.18753	0.087464	0.02722	0.068472	0.080947	0.020763	0.10636	0.10944	0.24733	-2.4271	-2.6521	-2.9708	-2.5521	-2.8875	-3.0938	-2.6646	-2.9375	-2.8958	-2.8208	-3.275	-2.6021	-2.575	-3.0563	-2.5833	-3.0187	127.929	384.398	146.506	437.132	287.640	139.630	270.391	422.453	254.117	270.826	398.652	379.645	349.279	301.162	134.867	221.987	0.00042065	0.00041452	6.5514e-05	295.72	2.671e-06	1.8938e-06	435.54	112.05	2.9992e-06	2.98e-06	204.83	79.784	51.673	23.679	2.3387e-06	41.868	0.00050975	0.00052829	0.00014257	290.4	5.333e-06	5.7328e-06	427.42	110.76	5.5637e-06	5.803e-06	201.41	80.208	51.48	23.588	5.7018e-06	41.823	188.415	208.541	208.307	127.036	223.486	242.669	126.323	131.664	252.777	290.049	129.414	132.575	135.907	139.208	297.411	136.060	-8191	255	
2990.674	1	1	0	0	0.017396	0.20325	0.23375	0.16266	0.13927	0.18007	0.022953	0.12311	0.070116	0.22645	0.27393	0.13909	0.097359	0.3229	0.13221	0.16386	-2.4833	-2.6333	-2.8875	-2.6417	-2.6937	-3.0125	-2.7062	-2.9188	-2.8812	-2.5604	-3.1771	-2.7479	-2.7229	-3.1958	-2.5187	-2.8312	280.432	322.391	415.507	460.465	375.409	178.057	339.806	175.399	160.082	464.229	421.807	348.921	386.177	412.294	313.712	431.534	0.00043122	0.00054292	0.00015643	298	3.031e-06	3.1999e-06	440.76	112.53	6.3992e-07	4.1243e-06	205.04	80.604	52.547	23.879	3.6195e-06	42.247	0.00050382	0.00054229	0.00014291	292.02	5.3551e-06	5.6793e-06	430.66	111.32	5.5803e-06	5.5821e-06	202.64	80.477	51.906	23.799	5.6754e-06	42.099	183.674	175.644	203.908	126.926	262.063	253.508	126.348	131.311	182.159	223.968	129.472	132.714	135.809	139.259	236.246	136.039	-8191	255	
2990.771	1	1	0	0	0.18283	0.32215	0.055949	0.021512	0.1345	0.26085	0.1235	0.083353	0.033682	0.1336	0.35645	0.022021	0.12867	0.14386	0.087605	0.29451	-2.4917	-2.2542	-3.0208	-2.7333	-2.5687	-2.975	-2.75	-2.7625	-3.0292	-2.5292	-3.0167	-2.7646	-2.55	-3.1	-2.8125	-2.7917	301.870	350.629	263.543	302.390	168.044	347.750	378.448	380.599	133.888	308.930	473.593	249.456	155.780	386.789	317.098	117.128	0.00042929	0.00042502	7.9551e-05	299.61	1.7931e-06	3.9755e-06	443.07	113	2.3799e-06	1.9641e-06	204.91	79.397	52.374	23.989	2.8987e-06	41.971	0.00051017	0.00053829	0.0001402	293.58	5.3743e-06	5.7489e-06	432.03	111.76	5.303e-06	6.0097e-06	202.31	79.99	51.945	23.789	5.8714e-06	41.841	185.824	205.761	172.849	126.937	222.624	254.606	126.470	131.932	298.463	253.182	129.300	131.857	135.780	139.383	253.830	135.801	-8191	255	
2990.867	1	1	0	0	0.18157	0.16136	0.37062	0.27073	0.025994	0.20207	0.093719	0.25501	0.04604	0.33104	0.064247	0.10482	0.38256	0.10745	0.18087	0.13318	-2.4146	-2.4479	-2.8917	-2.7458	-2.5438	-2.9813	-2.7708	-2.8125	-3.0417	-2.5771	-2.8625	-2.9542	-2.5583	-3.0604	-2.7542	-2.7729	350.540	150.000	189.916	425.581	441.087	253.933	206.800	371.971	123.559	395.884	397.657	318.835	313.066	126.565	439.234	314.222	0.00042307	0.00030679	8.7599e-05	298.62	1.3249e-06	4.2587e-06	438.27	113.38	3.2738e-06	2.5959e-06	205.76	80.986	52.46	23.891	2.3785e-06	42.212	0.00049084	0.00052333	0.00015146	292.34	5.3911e-06	5.7127e-06	430.71	111.49	5.5718e-06	5.8868e-06	202.9	80.663	52.067	23.811	5.5793e-06	42.089	183.187	162.440	172.132	126.698	277.908	234.066	126.300	131.491	264.113	247.608	129.683	132.158	135.637	138.957	255.131	135.900	-8191	255	
2990.963	1	1	0	0	0.12604	0.16208	0.13519	0.073973	0.27418	0.20672	0.2878	0.048469	0.11155	0.39024	0.02329	0.14084	0.085734	0.19702	0.20297	0.15928	-2.5396	-2.6917	-2.85	-2.9833	-2.5979	-2.9521	-2.8187	-2.6771	-3.1292	-2.5271	-2.9146	-2.9521	-2.5896	-3.0771	-2.7333	-2.8646	440.872	372.636	351.218	377.697	361.076	128.474	467.416	240.512	200.313	245.146	424.642	303.713	319.387	386.866	179.101	466.920	0.00042848	0.0005326	0.00012547	297.99	1.0941e-06	4.0675e-06	441.11	112.85	1.9998e-06	1.6723e-06	206.99	80.77	52.708	23.841	2.7749e-06	42.652	0.00049773	0.00053194	0.00014955	292.44	5.3743e-06	5.8465e-06	431.52	111.48	5.659e-06	5.9032e-06	202.98	80.661	52.105	23.805	5.6712e-06	42.343	184.608	201.784	205.229	126.793	234.852	266.207	126.234	131.745	261.191	234.585	129.322	132.170	136.143	139.115	281.498	136.072	-8191	255	
2991.059	1	1	0	0	0.10282	0.085434	0.18853	0.14529	0.25819	0.041365	0.051254	0.14693	0.20636	0.10138	0.18358	0.22055	0.11236	0.24998	0.26081	0.098174	-2.5646	-2.6979	-2.7479	-2.9667	-2.4479	-2.9375	-2.8458	-2.7958	-3.0125	-2.7313	-2.7917	-3.0938	-2.4396	-2.9562	-2.8854	-2.6958	438.914	165.450	325.650	472.792	294.838	320.808	246.932	306.555	292.467	222.812	358.099	190.150	122.782	205.675	257.629	262.009	0.00043595	0.00029991	8.5103e-05	300.61	1.792e-06	4.7426e-06	440.29	114.21	2.6944e-06	2.8711e-06	207.69	80.936	52.129	23.962	2.6108e-06	42.253	0.00049831	0.00052698	0.0001502	293.09	5.5943e-06	5.9803e-06	432.89	112.26	5.5333e-06	5.7616e-06	203.47	81.018	52.093	23.853	5.6603e-06	42.159	184.744	141.090	185.297	126.883	310.280	241.149	126.373	131.447	228.942	161.391	129.301	132.556	135.752	138.903	243.983	135.973	-8191	255	
2991.155	1	1	0	0	0.17755	0.29602	0.13017	0.046626	0.21224	0.23133	0.19206	0.24245	0.1185	0.22786	0.18927	0.060033	0.1514	0.21843	0.069198	0.16678	-2.6375	-2.7292	-2.7188	-3.0167	-2.5083	-2.9813	-2.8063	-2.5875	-2.9125	-2.7396	-2.6479	-3.1437	-2.4979	-2.8937	-2.8	-2.65	282.449	215.643	202.527	128.088	253.088	464.414	375.844	352.833	349.920	450.938	134.400	461.168	319.162	410.122	317.236	447.702	0.00043898	0.00049505	8.1852e-05	299.85	3.2344e-06	2.0342e-06	439.27	113.69	2.5824e-06	1.4874e-06	205.69	79.9	52.288	23.734	2.6902e-06	41.982	0.00049861	0.00052392	0.00015033	292.79	5.4392e-06	5.9125e-06	430.72	111.65	5.4039e-06	5.8663e-06	202.71	80.403	52.062	23.702	5.646e-06	41.822	184.248	206.550	195.442	127.104	248.032	344.084	126.278	131.771	247.870	279.257	129.488	132.315	135.556	139.392	344.641	135.932	-8191	255	
2991.276	1	1	0	0	0.23504	0.13826	0.15741	0.075139	0.12689	0.084392	0.20578	0.14863	0.19832	0.24691	0.03778	0.11306	0.14259	0.1473	0.08954	0.010166	-2.6917	-2.5708	-2.6542	-3.0167	-2.5104	-2.8458	-3.025	-2.5604	-3.1208	-2.6979	-2.6146	-3.0875	-2.6146	-2.9146	-3.0708	-2.7188	352.536	217.076	273.575	217.849	288.941	448.980	470.776	424.360	219.152	472.469	472.384	163.524	140.074	185.471	116.943	233.075	0.00039857	0.00032805	0.00012577	299.54	2.7039e-06	1.145e-06	436.05	112.96	2.3859e-06	1.1543e-06	203.64	80.093	52.59	23.83	1.9795e-06	42.006	0.00050542	0.00051626	0.00014488	291.16	5.428e-06	5.6195e-06	428.69	111.28	5.5183e-06	5.8565e-06	201.45	80.477	51.883	23.713	5.6909e-06	41.93	182.616	157.663	218.733	126.623	248.516	382.451	125.982	131.660	209.562	333.997	129.317	132.139	135.548	138.872	303.691	135.624	-8191	255	
2991.372	1	1	0	0	0.13369	0.034627	0.15393	0.27337	0.076992	0.17667	0.13182	0.14364	0.19583	0.2606	0.19833	0.10197	0.27077	0.056749	0.17523	0.045612	-2.5458	-2.8146	-2.5542	-2.9542	-2.6667	-2.6917	-3.1354	-2.5271	-2.9688	-2.7458	-2.6562	-3.0125	-2.7042	-2.875	-3.0958	-2.6792	404.063	239.221	188.263	174.345	403.683	322.246	272.703	424.120	385.018	245.477	162.082	233.634	429.157	253.265	430.331	255.964	0.00040631	0.00024706	6.5991e-05	296.07	2.0648e-06	5.5161e-06	437.72	112.02	5.4797e-06	2.514e-06	206.33	81.011	51.541	23.835	4.8883e-06	42.241	0.00048924	0.00051932	0.00014781	290.81	5.3511e-06	5.962e-06	428.93	111.28	5.6103e-06	5.8453e-06	202.34	80.432	51.537	23.683	5.8164e-06	42.127	181.508	199.070	233.428	126.826	264.861	246.327	126.494	131.469	260.710	315.018	129.492	132.706	135.355	139.322	266.608	135.934	-8191	255	
2991.468	1	1	0	0	0.191	0.40456	0.21111	0.22156	0.26425	0.14767	0.062871	0.21186	0.17115	0.097438	0.079418	0.12568	0.13383	0.21679	0.042242	0.11236	-2.3521	-3.0438	-2.6208	-3.0375	-2.6146	-2.7979	-3.1771	-2.675	-2.8688	-3.0125	-2.5917	-3.0333	-2.8604	-2.7646	-2.9875	-2.6792	329.257	178.121	343.502	443.589	391.658	170.269	377.310	459.979	170.001	171.923	137.800	393.270	370.624	405.237	194.869	309.774	0.00045127	0.00030786	4.4122e-05	295.14	1.9721e-06	3.6974e-06	436.47	112.9	3.7806e-06	5.6076e-06	206.86	80.679	52.142	23.7	3.1382e-06	42.233	0.00051056	0.00051317	0.00014614	289.92	5.3903e-06	5.9263e-06	428.24	111.28	5.4656e-06	5.8342e-06	202.86	80.445	51.59	23.62	5.5356e-06	41.734	182.896	197.882	180.235	126.568	300.087	278.939	126.271	131.857	265.493	276.361	129.512	132.444	135.369	139.120	209.193	136.087	-8191	255	
2991.564	1	1	0	0	0.16184	0.14816	0.18957	0.048051	0.084911	0.1098	0.2697	0.27278	0.092123	0.31899	0.15255	0.14994	0.042632	0.19377	0.05794	0.1664	-2.6646	-2.8812	-2.4938	-3.0667	-2.8812	-2.7313	-3.0396	-2.7375	-2.9854	-3.125	-2.6542	-2.9208	-2.9083	-2.6958	-3.1437	-2.7083	286.236	443.183	252.536	169.837	305.651	178.933	408.107	381.579	370.559	214.317	416.637	410.139	125.726	426.385	226.600	182.401	0.00043112	0.00019482	7.1197e-05	294.59	1.6123e-06	3.9357e-06	437.35	111.91	3.0407e-06	6.0516e-06	204.07	80	51.876	23.476	2.2179e-06	41.423	0.00050507	0.0005163	0.00014609	289.59	5.2228e-06	5.876e-06	427.49	110.39	5.2782e-06	5.4725e-06	200.84	79.419	51.409	23.391	5.7665e-06	41.368	185.501	165.732	208.368	127.200	253.858	213.290	126.292	131.336	281.052	284.297	129.552	133.506	135.523	139.274	239.866	136.057	-8191	255	
2991.659	1	1	0	0	0.2335	0.0856	0.082513	0.12237	0.22749	0.23185	0.11972	0.21266	0.4636	0.18327	0.25827	0.2516	0.1789	0.15708	0.12453	0.34883	-2.3646	-3.0875	-2.4875	-3.1771	-3.2542	-2.7771	-3.1604	-2.8125	-2.7687	-2.8979	-2.7521	-2.9813	-2.8083	-2.5833	-3.3375	-2.7417	382.024	215.379	256.254	393.515	348.644	131.390	187.534	439.990	308.697	361.209	436.274	184.524	125.497	118.681	236.349	367.355	0.00041681	0.00028584	9.1078e-05	294.37	3.7928e-06	5.2764e-06	436.32	111.84	2.456e-06	2.1533e-06	203.66	78.203	51.531	23.526	2.4174e-06	41.835	0.00049715	0.000519	0.00014405	288.93	5.4108e-06	5.9932e-06	426.5	110.44	5.4603e-06	5.6899e-06	200.66	78.84	50.861	23.357	5.4685e-06	41.496	181.647	230.530	216.296	126.777	269.624	269.840	126.177	131.682	233.514	255.681	129.448	132.549	135.608	139.365	300.529	135.980	-8191	255	
2991.755	1	1	0	0	0.11334	0.20311	0.23625	0.23661	0.1146	0.26692	0.21947	0.17982	0.067937	0.1611	0.23858	0.13798	0.20993	0.113	0.02983	0.25425	-2.175	-3.0042	-2.6854	-3.0375	-2.9458	-2.625	-3.0979	-2.8688	-2.825	-3.1604	-2.5271	-2.9167	-3.0187	-2.55	-3.0458	-2.8479	461.797	330.792	239.899	292.410	240.317	426.319	361.115	139.996	259.534	307.725	367.247	284.628	423.939	381.188	417.799	318.704	0.00042479	0.00020069	8.8514e-05	294.41	1.3588e-06	4.7193e-06	437.98	112.07	2.4657e-06	3.981e-06	205.02	79.438	51.361	23.451	4.0235e-06	42.134	0.0004971	0.00050773	0.00014305	289.04	5.4136e-06	5.9018e-06	426.15	110.52	5.4964e-06	5.7367e-06	200.59	79.268	50.95	23.431	5.675e-06	41.823	187.777	217.504	218.220	126.947	254.695	260.469	126.499	131.334	269.005	247.453	129.339	133.287	135.738	139.156	259.013	136.139	-8191	255	
2991.851	1	1	0	0	0.18297	0.25283	0.14908	0.083975	0.11378	0.11251	0.23203	0.13764	0.18217	0.07943	0.16074	0.13247	0.15668	0.24986	0.15862	0.25772	-2.0479	-2.9479	-2.6167	-2.8604	-3.0833	-2.4625	-2.9646	-2.8542	-2.6708	-3.0542	-2.6604	-2.7	-2.8979	-2.5146	-2.8125	-2.6937	309.037	140.290	417.290	462.609	143.408	435.599	380.029	262.139	241.462	379.960	451.758	301.042	420.391	437.839	469.894	463.984	0.00045925	0.00023004	5.4513e-05	296.35	3.1772e-06	1.7883e-06	438.82	111.81	2.9864e-06	3.5636e-06	204.85	80.823	51.641	23.489	4.3841e-06	42.011	0.00050938	0.00052079	0.00014355	289.63	5.2866e-06	5.9611e-06	429.66	110.66	5.6412e-06	5.7919e-06	201.58	80.072	51.242	23.45	5.6439e-06	41.804	184.015	192.106	231.171	126.822	213.326	220.021	126.713	131.577	251.959	266.193	129.564	132.865	135.521	139.425	252.669	135.993	-8191	255	
2991.947	1	1	0	0	0.12724	0.076312	0.07973	0.22882	0.26114	0.18048	0.22803	0.17543	0.079005	0.18702	0.024514	0.14521	0.045998	0.13397	0.20511	0.048314	-2.1979	-2.9938	-2.5792	-2.675	-3.1083	-2.6333	-3.0479	-2.8667	-2.6896	-3.0479	-2.6854	-2.6479	-3.0542	-2.5542	-2.6896	-3.0542	147.390	282.906	214.713	181.946	247.851	465.529	192.456	334.463	296.692	140.661	246.692	427.353	453.576	336.509	417.469	248.540	0.00044176	0.00038374	0.00010602	295.37	1.0584e-06	4.0991e-06	435.62	112.74	1.6776e-06	2.2163e-06	203.36	79.616	51.344	23.465	2.8163e-06	42.119	0.0005021	0.00050551	0.00014375	289.49	5.4296e-06	6.0383e-06	426.5	110.43	5.7563e-06	5.8044e-06	200.03	79.232	51.106	23.368	5.5898e-06	41.532	184.688	182.890	211.182	127.118	376.299	293.225	126.309	131.238	284.859	224.396	129.556	132.783	135.214	139.523	256.923	136.059	-8191	255	
2992.068	1	1	0	0	0.11393	0.22722	0.10099	0.12758	0.18967	0.31421	0.18717	0.2307	0.11229	0.21033	0.23025	0.24991	0.1289	0.17343	0.30197	0.052295	-2.3354	-3.0354	-2.7125	-2.8375	-3.0021	-2.6104	-2.9313	-2.8583	-2.5917	-2.9875	-2.8042	-2.3417	-3.0625	-2.6896	-2.8729	-2.9646	378.809	416.559	396.138	197.494	385.947	194.568	420.935	467.737	286.849	206.842	162.152	424.894	173.614	190.882	464.787	309.604	0.00041742	0.00047839	7.402e-05	293.66	3.1833e-06	4.7602e-06	434.34	112.05	2.2224e-06	4.9126e-06	203.08	79.192	51.08	23.52	3.0439e-06	41.949	0.00049966	0.00052698	0.00014631	288.33	5.214e-06	5.9023e-06	425.33	110.11	5.4952e-06	5.8311e-06	200.16	79.23	50.879	23.434	5.7342e-06	41.7	186.158	206.901	230.123	126.541	280.642	261.747	126.474	131.237	261.499	264.723	129.221	132.601	135.914	139.051	246.799	136.206	-8191	255	
2992.164	1	1	0	0	0.17968	0.25913	0.30019	0.17239	0.099252	0.11211	0.067277	0.1824	0.22953	0.17286	0.10144	0.15156	0.22491	0.2191	0.25057	0.10866	-2.1375	-2.9458	-2.7208	-2.6583	-3.1	-2.7354	-2.9688	-3.1083	-2.6833	-2.9375	-3.0125	-2.5729	-3.125	-2.9208	-2.8208	-3.025	470.569	324.678	398.821	261.726	183.455	401.658	301.341	459.784	242.188	333.258	282.564	426.496	243.937	456.711	342.629	422.480	0.00039638	0.00013948	0.00012213	292.8	2.6824e-06	1.8759e-06	438.02	112.54	2.7089e-06	3.9376e-06	204.75	80.834	52.276	23.718	2.5034e-06	42.328	0.00049768	0.00054694	0.00014398	287.88	5.3951e-06	5.9045e-06	426.85	110.58	5.6371e-06	5.811e-06	201.47	79.909	51.447	23.629	5.8001e-06	42.177	184.932	253.566	180.466	126.936	272.198	281.875	126.210	131.387	252.638	248.661	129.250	132.092	135.510	138.992	259.175	135.666	-8191	255	
2992.236	1	1	0	0	0.3459	0.21637	0.16102	0.10631	0.051154	0.3178	0.18292	0.12897	0.14941	0.10283	0.18494	0.22136	0.28112	0.17789	0.086059	0.33634	-2.1667	-2.7792	-2.8833	-2.6292	-3.0271	-2.725	-2.7729	-3.0062	-2.7479	-2.9854	-2.9437	-2.4938	-2.8937	-2.9458	-2.5875	-3.2687	217.217	356.674	429.055	401.589	359.357	132.112	393.867	192.207	194.627	342.030	176.438	141.517	303.675	374.712	376.754	438.279	0.0004532	0.0002963	8.2154e-05	297.91	1.668e-06	6.0871e-06	435.92	113.11	3.0582e-06	2.1025e-06	206.16	80.126	52.092	23.855	3.7279e-06	43.019	0.00050084	0.00053479	0.00014498	290.84	5.4685e-06	5.8782e-06	429.27	111.19	5.558e-06	5.673e-06	202.75	80.832	51.654	23.779	6.0082e-06	42.551	183.404	214.062	230.853	126.765	255.979	262.568	126.504	131.576	257.087	232.136	129.421	132.284	135.528	139.431	244.543	135.883	-8191	255	
2992.356	1	1	0	0	0.1444	0.1348	0.077797	0.17653	0.26674	0.19296	0.18157	0.10778	0.040406	0.29618	0.17334	0.17082	0.025959	0.35703	0.12848	0.11884	-2.2104	-2.6312	-2.8333	-2.6146	-3.1083	-2.7667	-2.7438	-3.0125	-2.8312	-2.9604	-3.1021	-2.5583	-3.0625	-2.7521	-2.625	-3.175	386.098	346.644	210.959	439.714	269.204	349.692	461.166	192.777	329.695	426.701	433.090	220.995	142.489	193.725	450.059	318.823	0.00044259	0.0002961	6.47e-05	297.79	2.4147e-06	3.6473e-06	436.04	113.17	1.4963e-06	1.7852e-06	206.64	79.814	52.187	23.745	2.7419e-06	42.451	0.00051626	0.00053479	0.000149	291.8	5.5202e-06	5.9299e-06	428.98	111.44	5.4579e-06	5.8431e-06	202.76	80.114	51.648	23.69	5.7476e-06	42.144	184.241	253.872	170.302	126.862	273.931	183.937	126.232	131.659	326.062	302.391	129.332	133.294	135.991	139.318	230.191	136.110	-8191	255	
2992.452	1	1	0	0	0.05103	0.11275	0.20544	0.29334	0.22393	0.1815	0.19026	0.11943	0.11777	0.045064	0.09713	0.20929	0.099592	0.2411	0.21103	0.055839	-2.2958	-2.8354	-2.9646	-2.4792	-3.1229	-2.9646	-2.6104	-3.0583	-2.775	-2.8083	-3.1521	-2.7146	-2.8417	-2.9729	-2.4542	-3.125	352.152	258.234	365.924	446.363	396.132	184.033	415.678	115.871	160.385	125.607	185.810	436.891	263.882	125.520	160.112	396.948	0.00044097	0.00024913	8.5094e-05	298.83	3.0543e-06	6.0391e-06	439.29	113.12	3.5807e-06	2.9079e-06	205.56	80.221	51.865	23.777	2.0227e-06	42.844	0.00050563	0.00053472	0.00014218	291.36	5.5775e-06	5.88e-06	429.77	111.21	5.4725e-06	5.9634e-06	202.74	80.268	51.615	23.793	5.8139e-06	42.502	183.649	191.242	179.777	127.004	267.684	256.427	126.306	131.395	258.732	227.761	129.701	132.143	135.774	139.229	342.341	135.953	-8191	255	
2992.548	1	1	0	0	0.22122	0.074899	0.064354	0.12465	0.17914	0.15138	0.089271	0.17336	0.1914	0.062434	0.11692	0.14707	0.21727	0.025069	0.10734	0.25876	-2.2417	-2.6021	-3.0563	-2.4646	-2.7542	-2.9875	-2.7	-2.9375	-2.8104	-2.7687	-3.0917	-2.5687	-2.9	-2.9125	-2.4979	-3	254.289	236.738	188.530	167.256	286.586	390.172	283.730	369.317	336.582	385.095	177.069	319.450	406.606	186.675	295.105	443.065	0.00041406	0.00034961	6.8934e-05	297.97	2.2663e-06	2.1878e-06	438.99	113.09	2.3074e-06	1.7289e-06	207.16	79.98	51.877	23.964	3.6542e-06	43.212	0.0004958	0.00053809	0.0001436	291.85	5.5005e-06	5.797e-06	430.52	111.65	5.4623e-06	6.0017e-06	203.94	80.558	51.886	23.924	5.7652e-06	42.87	183.383	191.832	279.795	127.014	256.777	210.176	126.109	131.819	290.679	256.112	129.249	132.400	135.731	139.341	255.719	135.990	-8191	255	
2992.645	1	1	0	0	0.16078	0.046014	0.14658	0.19158	0.25983	0.061026	0.096739	0.058417	0.1431	0.28878	0.11007	0.077034	0.031858	0.31595	0.10532	0.13096	-2.375	-2.5875	-3.0083	-2.5708	-2.8688	-2.9437	-2.6333	-2.9125	-3.0042	-2.5667	-3.025	-2.6521	-2.7771	-3.0292	-2.5729	-3.0875	117.089	119.267	242.542	229.975	180.169	135.738	454.864	142.252	177.373	184.352	296.350	225.941	463.841	461.335	410.450	123.927	0.00042925	0.00029253	9.9541e-05	300.52	1.1649e-06	4.254e-06	440.4	114.16	1.5034e-06	1.3428e-06	208.44	79.575	52.037	24.131	3.4577e-06	43.158	0.00050107	0.00053043	0.00014739	293.52	5.329e-06	5.8916e-06	431.57	112.12	5.4522e-06	5.8649e-06	205	80.775	52.01	24.03	5.936e-06	42.934	185.696	183.340	208.094	127.043	275.691	242.104	126.135	131.617	202.203	313.101	128.961	132.345	135.885	139.069	292.587	136.115	-8191	255	
2992.763	1	1	0	0	0.14638	0.1823	0.21264	0.23541	0.089182	0.060754	0.23131	0.13063	0.16167	0.3503	0.24349	0.086318	0.073149	0.089342	0.12451	0.15334	-2.4938	-2.5479	-3.1167	-2.7354	-2.8854	-3.1583	-2.7146	-2.8708	-2.8354	-2.6396	-2.975	-2.75	-2.7104	-3.0021	-2.4708	-2.9125	272.301	385.637	235.413	194.872	299.514	386.976	123.286	273.490	215.142	206.868	466.217	191.028	457.436	139.420	403.893	399.963	0.00042606	0.00023433	6.0873e-05	298.99	1.0406e-06	4.2219e-06	441.41	114.25	2.9356e-06	2.836e-06	206.59	79.43	52.62	23.835	4.3557e-06	42.568	0.00051382	0.00053761	0.00014775	293.33	5.5025e-06	5.8742e-06	432.47	112.19	5.4915e-06	5.9897e-06	203.16	80.433	51.836	23.796	5.8559e-06	42.43	184.257	192.465	152.857	126.968	245.709	277.455	126.238	131.386	246.874	271.378	129.509	132.021	136.537	139.153	278.968	135.825	-8191	255	
2992.860	1	1	0	0	0.089641	0.09049	0.27081	0.17618	0.090648	0.14676	0.35644	0.12684	0.11914	0.14167	0.2266	0.21911	0.24426	0.24162	0.096669	0.093181	-2.4979	-2.4521	-3.0062	-2.8479	-2.6104	-3.075	-2.6813	-2.925	-3.1063	-2.7583	-3.1292	-2.8063	-2.7771	-3.1667	-2.6792	-2.8771	117.383	163.140	298.346	241.896	329.420	291.517	380.157	424.122	363.149	442.995	267.668	316.834	427.614	459.600	137.267	275.099	0.00041998	0.00032362	0.00011235	301.9	3.2017e-06	3.7453e-06	439.82	113.22	2.6979e-06	2.3964e-06	207.21	79.045	52.134	23.718	5.0333e-06	42.327	0.00050603	0.00052829	0.00014394	293.15	5.5013e-06	5.9076e-06	430.44	111.88	5.6006e-06	5.9202e-06	202.94	80.351	51.589	23.688	5.8227e-06	42.233	183.692	195.728	225.477	126.717	273.505	242.952	125.996	131.629	202.587	215.494	129.499	131.972	135.401	139.299	260.964	135.989	-8191	255	
2992.956	1	1	0	0	0.15655	0.091834	0.1887	0.12425	0.15635	0.18977	0.22463	0.26849	0.25734	0.17777	0.032171	0.20051	0.27521	0.10868	0.24271	0.21882	-2.6167	-2.5833	-3.0021	-2.7896	-2.5458	-2.9208	-2.9229	-2.8021	-2.9813	-2.5792	-3.0896	-2.8479	-2.6625	-3.0875	-2.8167	-2.7208	239.864	293.418	232.712	183.047	349.573	393.096	405.223	138.242	410.827	199.632	145.516	415.548	305.651	423.676	216.309	383.702	0.00041509	0.00034184	3.787e-05	296.66	1.2973e-06	3.4001e-06	437.94	112.57	2.7338e-06	3.3151e-06	205.85	79.838	51.689	23.836	3.4085e-06	42.703	0.00051626	0.00052972	0.00014752	292.14	5.4917e-06	5.8777e-06	429.56	111.38	5.6566e-06	5.8756e-06	203.03	80.36	51.505	23.738	5.8173e-06	42.551	180.127	212.582	131.308	127.039	219.685	255.007	126.474	131.838	253.791	212.390	129.262	131.729	135.143	139.271	270.799	136.308	-8191	255	
2993.052	1	1	0	0	0.06094	0.1493	0.13812	0.045155	0.37973	0.28245	0.073588	0.050862	0.051839	0.07196	0.23214	0.20563	0.1088	0.12831	0.053244	0.059494	-2.7146	-2.4562	-2.8708	-3.0896	-2.6063	-3.1167	-2.8896	-2.8	-3.025	-2.6771	-2.8042	-3	-2.6854	-3.0479	-2.8438	-2.85	428.427	472.385	131.117	383.923	279.301	286.922	233.932	370.263	182.112	369.367	171.475	241.855	158.068	468.649	249.963	122.304	0.00043776	0.00033782	0.00012452	298.65	2.967e-06	3.191e-06	437.6	113.01	3.8904e-06	4.1608e-06	206.63	81.469	51.808	23.959	1.3385e-06	43.091	0.0005177	0.00052706	0.00014548	291.79	5.5053e-06	5.8131e-06	430.1	111.62	5.612e-06	6.1001e-06	203.79	80.537	51.63	23.874	5.8458e-06	42.799	183.759	213.036	214.518	126.622	254.743	281.214	126.506	131.089	256.703	257.087	129.087	132.620	135.470	139.592	253.294	135.701	-8191	255	
2993.148	1	1	0	0	0.25391	0.043679	0.17059	0.39891	0.26714	0.11901	0.17849	0.14526	0.27596	0.020524	0.24081	0.044343	0.18726	0.25299	0.12196	0.11299	-2.7083	-2.6646	-2.9604	-3.0521	-2.6562	-3.0938	-2.8688	-2.7729	-2.9333	-2.6479	-2.9125	-3.1042	-2.6063	-3.0354	-2.8792	-2.8125	444.677	257.650	394.841	327.569	377.002	179.232	176.368	196.737	161.641	384.841	459.286	182.593	160.016	251.907	125.023	244.673	0.00044235	0.00032787	9.5298e-05	298.73	3.9219e-06	5.1077e-06	440.21	113.4	3.475e-06	3.1072e-06	207.98	79.41	52.038	23.759	2.3717e-06	42.56	0.00051133	0.00053491	0.00015032	292.56	5.686e-06	5.8412e-06	429.9	111.83	5.6797e-06	5.779e-06	204.06	80.027	51.609	23.665	5.701e-06	42.279	183.129	153.616	268.166	127.052	259.698	252.857	126.320	131.558	235.150	217.768	129.351	132.398	135.848	139.129	249.473	136.304	-8191	255	
2993.244	1	1	0	0	0.25634	0.08201	0.051809	0.15103	0.089193	0.065626	0.23521	0.14232	0.08813	0.29401	0.16147	0.10878	0.11478	0.050961	0.15675	0.12682	-2.5875	-2.625	-2.7771	-2.8937	-2.5979	-3.1583	-2.9354	-2.6312	-2.9833	-2.7146	-2.7812	-2.9896	-2.7604	-2.9083	-2.9542	-2.7646	306.622	273.836	378.344	448.214	302.056	276.478	377.443	240.451	197.301	139.792	408.053	216.678	399.614	357.840	387.481	445.520	0.00043978	0.00018324	0.00012034	296.83	1.3782e-06	2.6091e-06	434.15	114.05	2.453e-06	3.3189e-06	205.87	79.387	51.449	23.697	2.7949e-06	42.369	0.00049959	0.00052654	0.00014469	291.13	5.2914e-06	5.8184e-06	427.13	111.74	5.5933e-06	5.962e-06	201.81	79.562	51.329	23.56	5.7115e-06	42.034	180.162	194.713	194.965	127.261	287.056	297.066	126.158	131.226	273.408	242.975	129.162	133.078	135.369	139.461	302.686	135.911	-8191	255	
2993.365	1	1	0	0	0.078488	0.11692	0.08918	0.14085	0.1323	0.068323	0.14053	0.31376	0.25089	0.23635	0.39096	0.26816	0.22931	0.23201	0.072632	0.10744	-2.4958	-2.6	-2.8458	-2.9292	-2.575	-2.8375	-3.0021	-2.5208	-2.9896	-2.825	-2.6271	-3.0042	-2.7854	-2.7667	-2.8625	-2.5917	341.868	254.156	329.549	218.097	298.288	173.809	323.315	380.698	313.113	225.757	414.533	416.760	320.448	125.352	189.439	130.482	0.00043411	0.00057779	3.4781e-05	295.73	1.7385e-06	2.0527e-06	435.85	112.88	4.2352e-06	2.8415e-06	204.94	79.192	52.097	23.66	2.2016e-06	42.575	0.0004988	0.00053118	0.00014624	290.57	5.4316e-06	5.8661e-06	427.14	111.07	5.4903e-06	5.807e-06	202.14	79.982	51.347	23.569	5.6145e-06	42.28	183.387	195.667	170.206	126.767	276.600	275.574	126.318	132.055	263.104	309.408	129.309	131.993	135.885	139.370	317.717	136.063	-8191	255	
2993.461	1	1	0	0	0.11802	0.15621	0.36154	0.081235	0.14331	0.19998	0.31909	0.13978	0.066811	0.12523	0.21073	0.028652	0.06268	0.15668	0.06727	0.10422	-2.5687	-2.9	-2.6354	-3.1312	-2.7	-2.9875	-3.05	-2.5	-2.9833	-3	-2.6396	-3.0479	-2.6229	-2.6542	-3.0417	-2.8583	347.154	137.490	232.789	438.143	427.228	198.078	268.650	258.461	290.712	180.998	402.051	115.790	470.297	394.902	166.776	440.572	0.00041804	0.00027128	3.643e-05	295.84	6.2141e-07	4.8255e-06	438.1	112.5	2.6072e-06	4.4592e-06	204.05	79.967	51.832	23.745	3.0086e-06	42.932	0.0005044	0.00050805	0.00014511	290.17	5.5266e-06	5.9e-06	428.17	111.19	5.6975e-06	5.9389e-06	201.96	80.236	51.279	23.693	5.7812e-06	42.539	184.346	227.984	291.127	127.415	222.438	236.687	126.296	131.380	278.864	307.735	129.275	133.113	135.681	139.001	242.661	136.189	-8191	255	
2993.533	1	1	0	0	0.14366	0.1184	0.21119	0.25856	0.13013	0.2785	0.23257	0.010541	0.14456	0.099034	0.42348	0.16405	0.12958	0.13374	0.11145	0.22477	-2.6583	-2.9813	-2.575	-2.9833	-2.65	-2.5729	-2.8958	-2.525	-2.9021	-2.8937	-2.6229	-3.05	-2.6979	-2.6646	-3.2812	-2.6896	406.359	157.680	140.492	136.136	273.953	385.509	451.751	248.151	362.064	128.151	143.238	424.855	181.729	473.946	334.712	455.478	0.0004262	0.00038275	2.4779e-05	298.49	2.5787e-06	2.8728e-06	440.28	112.12	4.5181e-06	2.2586e-06	205.74	79.809	51.901	23.664	1.3538e-06	42.441	0.00051203	0.00052265	0.00014946	291.21	5.4677e-06	5.8706e-06	429.42	111.07	5.5171e-06	5.7211e-06	202.62	79.842	51.367	23.585	5.8588e-06	42.266	182.884	180.556	176.198	126.874	253.453	221.157	126.511	131.989	267.310	305.964	129.272	131.807	135.563	139.278	241.865	136.087	-8191	255	
#DATA ENDS
