BOXY.EXE: ISS Imagent and Oximeter Data Acquisition Program Version 0.80
Ascii Record File

#ACQ INFORMATION
2  Detector Channels 
16  External MUX Channels 
1  Auxiliary Channels 
5000  Waveform (CCF) Frequency (Hz)
1  Waveforms Skipped 
30  Waveforms Averaged 
1  Cycles Averaged 
16  Acquisitions per Waveform 
10.0806  Updata Rate (Hz) 

#FILE INFORMATION
TRUE -- External MUX Channel results are PARSED.
FALSE -- AC DC and Phase are NOT grouped.
TRUE -- Companion Program Settings File CREATED.
FALSE -- AC data not excluded
FALSE -- DC data not excluded
FALSE -- Phase data not excluded
FALSE -- Auxillary Chn. data not excluded
Tab delimiters

#CALIBRATION STATE
TRUE -- Waveform Calibration Values APPLIED.


#AUX CALIBRATION VALUES
Val Type	aux-1	

Term	1.0000e+00	
Factor	0.0000e+00	


#WF CALIBRATION VALUES
A = Detector Channel
Val Type	A-AC1	A-AC2	A-AC3	A-AC4	A-AC5	A-AC6	A-AC7	A-AC8	A-AC9	A-AC10	A-AC11	A-AC12	A-AC13	A-AC14	A-AC15	A-AC16	A-DC1	A-DC2	A-DC3	A-DC4	A-DC5	A-DC6	A-DC7	A-DC8	A-DC9	A-DC10	A-DC11	A-DC12	A-DC13	A-DC14	A-DC15	A-DC16	A-Ph1	A-Ph2	A-Ph3	A-Ph4	A-Ph5	A-Ph6	A-Ph7	A-Ph8	A-Ph9	A-Ph10	A-Ph11	A-Ph12	A-Ph13	A-Ph14	A-Ph15	A-Ph16	

Term	0.00000e+00	0.00000e+00	0.00000e+00	0.00000e+00	0.00000e+00	0.00000e+00	0.00000e+00	0.00000e+00	0.00000e+00	0.00000e+00	0.00000e+00	0.00000e+00	0.00000e+00	0.00000e+00	0.00000e+00	0.00000e+00	0.00000e+00	0.00000e+00	0.00000e+00	0.00000e+00	0.00000e+00	0.00000e+00	0.00000e+00	0.00000e+00	0.00000e+00	0.00000e+00	0.00000e+00	0.00000e+00	0.00000e+00	0.00000e+00	0.00000e+00	0.00000e+00	0.00000e+00	0.00000e+00	0.00000e+00	0.00000e+00	0.00000e+00	0.00000e+00	0.00000e+00	0.00000e+00	0.00000e+00	0.00000e+00	0.00000e+00	0.00000e+00	0.00000e+00	0.00000e+00	0.00000e+00	0.00000e+00	
Factor	1.00000e+00	1.00000e+00	1.00000e+00	1.00000e+00	1.00000e+00	1.00000e+00	1.00000e+00	1.00000e+00	1.00000e+00	1.00000e+00	1.00000e+00	1.00000e+00	1.00000e+00	1.00000e+00	1.00000e+00	1.00000e+00	1.00000e+00	1.00000e+00	1.00000e+00	1.00000e+00	1.00000e+00	1.00000e+00	1.00000e+00	1.00000e+00	1.00000e+00	1.00000e+00	1.00000e+00	1.00000e+00	1.00000e+00	1.00000e+00	1.00000e+00	1.00000e+00	X	X	X	X	X	X	X	X	X	X	X	X	X	X	X	X	

B = Detector Channel
Val Type	B-AC1	B-AC2	B-AC3	B-AC4	B-AC5	B-AC6	B-AC7	B-AC8	B-AC9	B-AC10	B-AC11	B-AC12	B-AC13	B-AC14	B-AC15	B-AC16	B-DC1	B-DC2	B-DC3	B-DC4	B-DC5	B-DC6	B-DC7	B-DC8	B-DC9	B-DC10	B-DC11	B-DC12	B-DC13	B-DC14	B-DC15	B-DC16	B-Ph1	B-Ph2	B-Ph3	B-Ph4	B-Ph5	B-Ph6	B-Ph7	B-Ph8	B-Ph9	B-Ph10	B-Ph11	B-Ph12	B-Ph13	B-Ph14	B-Ph15	B-Ph16	

Term	0.00000e+00	0.00000e+00	0.00000e+00	0.00000e+00	0.00000e+00	0.00000e+00	0.00000e+00	0.00000e+00	0.00000e+00	0.00000e+00	0.00000e+00	0.00000e+00	0.00000e+00	0.00000e+00	0.00000e+00	0.00000e+00	0.00000e+00	0.00000e+00	0.00000e+00	0.00000e+00	0.00000e+00	0.00000e+00	0.00000e+00	0.00000e+00	0.00000e+00	0.00000e+00	0.00000e+00	0.00000e+00	0.00000e+00	0.00000e+00	0.00000e+00	0.00000e+00	-1.23800e+02	-1.29605e+02	-1.18317e+02	-1.81384e+02	-6.66720e+01	-6.49322e+01	-1.54429e+02	-1.62015e+02	-6.47790e+01	-5.86214e+01	-1.69550e+02	-1.78216e+02	-1.82278e+02	-1.75921e+02	-6.55031e+01	-1.48295e+02	
Factor	1.82523e-05	2.02462e-04	5.46020e-05	1.59639e-01	1.48313e-06	2.22676e-06	1.61345e-01	6.10527e-02	1.51134e-06	2.21112e-06	9.03854e-02	2.02187e-01	4.85540e-02	9.32913e-03	1.59883e-06	1.33881e-02	1.11608e-05	1.90474e-05	5.34503e-06	8.05254e-02	1.92326e-07	2.14060e-07	7.69818e-02	3.09569e-02	1.94649e-07	2.13805e-07	4.45233e-02	1.01031e-01	2.48173e-02	4.77762e-03	2.01464e-07	6.64615e-03	X	X	X	X	X	X	X	X	X	X	X	X	X	X	X	X	



#DISTANCE SETTINGS
A = Detector Channel
A-1	A-2	A-3	A-4	A-5	A-6	A-7	A-8	A-9	A-10	A-11	A-12	A-13	A-14	A-15	A-16	

2.5000e+00	3.0000e+00	2.5000e+00	3.0000e+00	2.0000e+00	3.0000e+00	1.5000e+00	3.0000e+00	3.0000e+00	3.0000e+00	3.0000e+00	3.0000e+00	3.0000e+00	3.0000e+00	1.5000e+00	3.0000e+00	

B = Detector Channel
B-1	B-2	B-3	B-4	B-5	B-6	B-7	B-8	B-9	B-10	B-11	B-12	B-13	B-14	B-15	B-16	

1.0000e+01	1.0000e+01	1.0000e+01	1.4400e+00	1.0000e+01	1.0000e+01	1.5100e+00	1.9400e+00	1.0000e+01	1.0000e+01	1.9900e+00	2.4900e+00	2.4100e+00	2.9000e+00	1.0000e+01	2.9800e+00	




#DATA BEGINS
time	group	step	mark	flag	A-AC1	A-AC2	A-AC3	A-AC4	A-AC5	A-AC6	A-AC7	A-AC8	A-AC9	A-AC10	A-AC11	A-AC12	A-AC13	A-AC14	A-AC15	A-AC16	A-DC1	A-DC2	A-DC3	A-DC4	A-DC5	A-DC6	A-DC7	A-DC8	A-DC9	A-DC10	A-DC11	A-DC12	A-DC13	A-DC14	A-DC15	A-DC16	A-Ph1	A-Ph2	A-Ph3	A-Ph4	A-Ph5	A-Ph6	A-Ph7	A-Ph8	A-Ph9	A-Ph10	A-Ph11	A-Ph12	A-Ph13	A-Ph14	A-Ph15	A-Ph16	B-AC1	B-AC2	B-AC3	B-AC4	B-AC5	B-AC6	B-AC7	B-AC8	B-AC9	B-AC10	B-AC11	B-AC12	B-AC13	B-AC14	B-AC15	B-AC16	B-DC1	B-DC2	B-DC3	B-DC4	B-DC5	B-DC6	B-DC7	B-DC8	B-DC9	B-DC10	B-DC11	B-DC12	B-DC13	B-DC14	B-DC15	B-DC16	B-Ph1	B-Ph2	B-Ph3	B-Ph4	B-Ph5	B-Ph6	B-Ph7	B-Ph8	B-Ph9	B-Ph10	B-Ph11	B-Ph12	B-Ph13	B-Ph14	B-Ph15	B-Ph16	aux-1	digaux	

2040.995	1	1	0	256	0.17656	0.029965	0.27725	0.14651	0.12152	0.14003	0.13506	0.17196	0.070203	0.13062	0.25996	0.070023	0.22361	0.044226	0.11058	0.10104	-2.9125	-2.8292	-3.0375	-3.2125	-2.8354	-3.1583	-3.2938	-2.9188	-3.1708	-2.8417	-3.3396	-3.1958	-2.7479	-3.3583	-2.8792	-2.7708	227.215	460.774	331.731	365.109	372.384	130.283	371.488	243.053	157.664	190.343	139.724	163.073	228.583	478.133	125.706	432.429	0.00022044	0.00020716	5.1013e-05	823.06	2.5694e-06	2.6886e-06	872.64	179.2	2.6069e-06	2.1915e-06	226.03	65.324	50.112	14.417	1.6791e-06	20.477	0.00011549	4.8412e-05	8.7413e-06	838.95	8.1738e-07	4.2232e-07	891.47	183.59	6.3423e-07	4.4186e-07	232.71	65.218	51.796	14.997	5.4815e-07	21.312	189.249	201.421	213.805	135.045	255.766	272.060	135.030	142.101	284.765	242.254	141.477	146.589	148.465	155.422	293.201	154.874	-8191	255	
2041.091	1	1	0	0	0.15822	0.10191	0.1541	0.14617	0.066547	0.28211	0.040945	0.13275	0.20294	0.099347	0.094993	0.18501	0.18057	0.10995	0.18738	0.17098	-2.9062	-2.9854	-2.9917	-3.2188	-2.8979	-3.2188	-3.2896	-3	-3.4229	-3.175	-3.1104	-3.2792	-2.9729	-3.2083	-3.1937	-2.9146	270.851	453.563	147.693	472.195	419.182	137.546	435.558	266.177	466.563	480.589	135.082	164.653	468.742	269.251	137.598	403.731	0.00021286	0.00015464	7.0267e-05	829.7	1.7978e-06	2.1046e-06	873.73	180.01	2.5825e-06	2.421e-06	226.15	63.949	50.635	14.375	1.6876e-06	20.209	0.00011493	4.742e-05	1.1369e-05	841.25	7.9855e-07	4.3481e-07	891.31	183.66	6.0301e-07	4.0489e-07	232.19	64.778	51.943	14.945	5.4731e-07	21.234	189.932	223.799	231.282	135.067	253.537	286.053	134.983	142.097	261.059	286.583	141.720	146.418	148.798	155.514	290.071	154.759	-8191	255	
2041.187	1	1	0	0	0.23978	0.24488	0.14749	0.16253	0.050875	0.14487	0.13556	0.13168	0.14301	0.19377	0.34217	0.20802	0.16764	0.32275	0.23297	0.059918	-2.9083	-2.9875	-3.0708	-3.3896	-2.8083	-3.2062	-3.2167	-3.0042	-3.2021	-3.0604	-3.1042	-3.2125	-2.9229	-3.2479	-3.1729	-2.9562	150.556	385.189	416.897	129.002	421.075	456.391	401.264	377.041	154.803	419.234	147.397	238.880	473.474	350.075	203.227	145.883	0.00020998	0.00027873	6.765e-05	831.35	2.1755e-06	2.3795e-06	877.76	179.59	2.4435e-06	3.0514e-06	227.04	64.038	50.595	14.282	9.5118e-07	20.148	0.000116	4.2301e-05	1.2383e-05	840.8	8.4623e-07	4.58e-07	891.54	183.15	6.4802e-07	4.4053e-07	232.05	64.888	51.691	14.851	5.7039e-07	21.064	190.083	213.052	226.897	134.833	257.562	251.246	135.013	141.978	288.614	287.183	141.601	146.625	148.638	155.828	269.351	154.900	-8191	255	
2041.282	1	1	0	0	0.1399	0.10609	0.071702	0.11204	0.23572	0.0073052	0.23165	0.031596	0.22946	0.11001	0.029603	0.094342	0.11303	0.090252	0.2559	0.14803	-2.8917	-3.05	-2.95	-3.4604	-2.9062	-3.0792	-3.3479	-2.9083	-3.2562	-3.1729	-2.8042	-3.4083	-2.8229	-3.1542	-3.3521	-3.1229	371.726	457.731	156.077	405.351	125.622	435.739	444.153	316.824	483.368	411.293	197.824	357.966	243.776	164.814	466.836	310.282	0.00021061	0.00030357	6.7612e-05	824.32	2.2486e-06	1.9558e-06	870.48	177.86	3.2817e-06	1.5604e-06	222.47	63.183	49.953	14.177	2.307e-06	19.998	0.00011861	5.0991e-05	1.2616e-05	837.86	8.0376e-07	5.463e-07	887.44	181.86	6.691e-07	4.7349e-07	229.81	64.14	51.241	14.717	5.5612e-07	20.921	191.622	213.042	239.683	134.857	259.586	299.329	134.898	142.362	268.183	283.715	142.046	147.184	148.607	155.509	269.228	154.843	-8191	255	
2041.378	1	1	0	0	0.11742	0.090951	0.21573	0.27855	0.1132	0.31092	0.14734	0.23338	0.22711	0.19685	0.16265	0.25551	0.047243	0.070429	0.052169	0.25139	-3.0042	-3.1479	-2.925	-3.4583	-3.0729	-3.1042	-3.4833	-2.9188	-3.1021	-3.2479	-2.9083	-3.4167	-3.1875	-3.0438	-3.2104	-2.9125	401.210	327.994	194.997	425.941	314.447	271.739	437.588	385.880	412.491	270.782	351.655	249.681	461.210	441.867	232.925	445.239	0.00022704	0.00017371	4.9788e-05	828.16	2.0354e-06	2.7985e-06	877.16	177.81	2.2542e-06	2.3062e-06	224.08	62.982	49.512	14.109	1.5059e-06	19.901	0.00013009	4.742e-05	1.3585e-05	840.29	8.2941e-07	5.2043e-07	892.08	181.67	6.7275e-07	4.3875e-07	230.12	64.026	51.175	14.666	5.3934e-07	20.782	190.289	195.255	232.887	134.846	251.955	282.807	134.908	142.001	274.883	294.096	141.725	146.817	149.237	155.148	283.719	154.793	-8191	255	
2041.474	1	1	0	0	0.26527	0.11468	0.023928	0.059249	0.019235	0.036726	0.13882	0.10468	0.07279	0.29767	0.2241	0.1696	0.09749	0.23754	0.36316	0.058744	-2.8708	-3.2062	-2.9104	-3.3292	-3.1229	-2.9396	-3.5042	-2.9167	-3.0729	-3.2229	-3.0729	-3.2562	-3.0938	-2.9313	-3.4875	-2.8937	192.082	274.596	160.483	132.379	453.639	354.142	433.959	387.856	219.118	401.243	172.385	405.198	399.039	378.176	156.601	379.658	0.00022376	0.00025915	5.2935e-05	832.6	1.8428e-06	2.2827e-06	881.22	177.21	2.9591e-06	1.5899e-06	223.71	63.204	49.579	13.94	1.7305e-06	19.657	0.00012637	5.2182e-05	1.6848e-05	844.1	8.7108e-07	6.3638e-07	897.67	181.01	8.0374e-07	5.697e-07	228.77	63.745	50.694	14.538	5.876e-07	20.597	186.592	198.195	208.396	134.869	258.850	285.634	134.641	142.098	263.896	258.344	141.468	146.916	148.488	155.567	278.022	154.877	-8191	255	
2041.570	1	1	0	0	0.14867	0.22667	0.26071	0.18137	0.083899	0.17978	0.25654	0.059292	0.080499	0.16818	0.083388	0.14571	0.18307	0.17657	0.25347	0.2607	-2.7167	-3.2875	-2.8854	-3.35	-3.2104	-2.9583	-3.4042	-3.1792	-2.9833	-3.3125	-2.9313	-3.2396	-3.2771	-2.8563	-3.3979	-3.0646	306.160	214.413	339.287	157.891	336.879	181.367	343.634	258.480	370.024	428.165	361.828	250.745	242.382	358.712	368.850	136.506	0.00021703	0.00023927	7.1758e-05	832.47	3.1792e-06	2.2616e-06	878.71	175.62	2.0318e-06	1.7393e-06	222.78	62.133	49.352	14.129	2.3479e-06	19.785	0.00012749	4.5991e-05	1.5868e-05	845.1	9.7285e-07	5.7796e-07	896.13	179.68	7.3034e-07	3.6302e-07	228.4	63.449	50.774	14.687	5.3598e-07	20.789	191.162	184.178	204.978	134.839	267.174	270.720	134.657	142.268	264.848	314.069	141.807	146.794	148.543	155.177	277.350	154.857	-8191	255	
2041.691	1	1	0	0	0.086371	0.15926	0.11354	0.25198	0.23903	0.12566	0.16095	0.090632	0.20276	0.064836	0.026429	0.22817	0.094207	0.042108	0.09635	0.22561	-2.6229	-3.25	-2.8542	-3.4083	-3.2	-2.95	-3.5312	-3.0271	-3.0604	-3.2854	-3.0646	-3.2125	-3.2042	-2.6854	-3.2792	-3.0542	304.950	290.108	424.782	128.777	273.120	135.311	131.364	432.012	415.944	316.689	410.334	283.603	298.146	422.943	346.354	377.585	0.00021967	0.00030796	4.9469e-05	837.26	2.3166e-06	2.8015e-06	887.09	175.71	2.3121e-06	1.7538e-06	223.22	62.83	48.831	13.953	2.3272e-06	19.745	0.00012851	4.4761e-05	1.5267e-05	851.02	8.234e-07	5.5789e-07	900.83	180.12	7.5751e-07	4.7438e-07	228.55	64.161	50.578	14.519	6.2622e-07	20.626	188.495	203.201	231.360	134.775	275.275	275.776	134.733	141.906	268.197	291.327	141.589	146.395	148.316	155.669	264.601	154.884	-8191	255	
2041.787	1	1	0	0	0.04733	0.27595	0.16616	0.2246	0.10227	0.3548	0.1037	0.11258	0.088591	0.17104	0.23645	0.16267	0.14674	0.18593	0.26196	0.33769	-2.3771	-3.2042	-2.8604	-3.2646	-3.2333	-2.7188	-3.2417	-3.0021	-2.9667	-3.4083	-3.1146	-3.2458	-3.1562	-2.8	-3.2104	-2.9833	223.339	129.490	474.940	186.094	403.480	482.393	436.326	472.045	481.805	303.278	299.144	256.512	323.699	220.776	330.389	387.730	0.00020875	0.00024233	6.5653e-05	836.07	2.4926e-06	2.5032e-06	883.92	175.07	2.6248e-06	3.3676e-06	220.61	62.992	49.543	13.856	1.5597e-05	19.564	0.0001254	5.4206e-05	1.5389e-05	848.36	9.0473e-07	6.8098e-07	898.62	179.19	9.0512e-07	5.3273e-07	226.24	63.577	50.458	14.462	1.5945e-06	20.511	190.378	222.414	207.473	134.840	268.679	261.582	134.959	141.881	279.674	288.878	141.572	146.406	148.199	155.614	277.914	154.825	-8191	255	
2041.859	1	1	0	0	0.14418	0.22498	0.30354	0.41329	0.18711	0.21518	0.09632	0.091362	0.16956	0.17809	0.18376	0.1238	0.085296	0.10947	0.058607	0.044817	-2.6708	-3.3729	-3	-3.1417	-3.325	-3.0979	-3.2458	-3.3229	-2.8146	-3.2458	-3.0625	-2.95	-3.3208	-3	-3.2417	-3.1854	354.838	432.440	443.267	465.212	476.366	227.743	328.053	131.895	464.413	479.475	156.527	402.942	235.210	248.392	413.391	459.831	0.0002171	0.00020416	7.0527e-05	838.15	2.3505e-06	3.3013e-06	883.53	174.23	2.5193e-06	3.2056e-06	220.03	61.749	48.928	13.772	1.9124e-06	19.589	0.0001323	5.4483e-05	1.608e-05	849.72	8.4623e-07	7.2067e-07	897.92	178.55	8.6254e-07	5.2249e-07	225.02	63.219	50.246	14.386	6.4175e-07	20.437	189.166	212.003	230.357	135.055	264.472	259.031	134.717	142.087	264.552	289.846	141.879	146.124	148.634	155.278	271.288	155.081	-8191	255	
2041.979	1	1	0	0	0.12896	0.21757	0.2854	0.34276	0.251	0.29241	0.33722	0.042057	0.16032	0.22916	0.16172	0.22418	0.22029	0.093318	0.075626	0.16296	-2.5125	-3.4604	-3.1104	-3.05	-3.4646	-3.0312	-3.3688	-3.2667	-2.8146	-3.3854	-3.2271	-2.8208	-3.2875	-2.9667	-3.2167	-3.2062	344.764	416.408	283.473	467.263	290.312	475.608	456.042	226.642	133.110	212.200	262.380	349.696	380.763	437.056	287.050	375.123	0.00022174	0.00026439	3.9753e-05	832.52	1.976e-06	2.611e-06	875.9	173.38	2.2121e-06	2.2171e-06	217.28	63.031	48.905	13.884	2.0821e-06	19.454	0.00012565	4.2182e-05	1.3173e-05	844.85	8.6106e-07	6.1542e-07	892.31	177.2	7.8711e-07	3.5812e-07	223.42	63.475	50.156	14.433	5.8383e-07	20.399	191.061	229.621	242.059	134.786	267.350	259.529	134.706	142.035	276.806	283.890	141.740	147.155	148.213	155.494	254.514	154.926	-8191	255	
2042.075	1	1	0	0	0.18866	0.20913	0.16072	0.070087	0.22969	0.10795	0.080476	0.15169	0.13081	0.061384	0.12165	0.26333	0.12482	0.087491	0.10484	0.12371	-2.5146	-3.3104	-3.1375	-2.9833	-3.3292	-3.1229	-3.2479	-3.2542	-2.8333	-3.3937	-3.5896	-2.9333	-3.275	-2.9854	-3.1833	-3.4229	128.868	221.184	154.795	407.767	341.610	166.012	426.208	411.667	318.504	213.851	416.711	402.468	209.829	246.141	301.782	413.543	0.00021351	0.00028182	6.827e-05	833.85	2.6466e-06	2.4485e-06	879.82	173.49	2.4651e-06	1.4602e-06	218.74	62.031	48.468	13.839	1.9834e-06	19.517	0.0001267	4.5753e-05	1.3273e-05	845.94	8.0777e-07	5.6057e-07	892.68	176.92	8.4713e-07	5.0422e-07	223.54	62.939	50.056	14.351	5.8718e-07	20.385	188.814	212.210	217.032	135.017	268.992	276.625	134.754	142.066	273.320	305.476	141.656	146.448	148.974	155.895	286.607	155.072	-8191	255	
2042.172	1	1	0	0	0.23103	0.1453	0.092772	0.21514	0.053186	0.18841	0.30605	0.11026	0.12793	0.16337	0.23802	0.0073865	0.070673	0.14053	0.10775	0.072267	-2.4479	-3.375	-3.3125	-2.9667	-3.5792	-3.2146	-3.1667	-3.5583	-3.0333	-3.3	-3.4292	-2.9896	-3.1354	-3.1458	-2.9708	-3.3812	186.718	330.043	149.890	452.410	400.837	127.263	435.011	147.382	219.054	442.171	442.959	318.044	446.827	300.749	309.447	239.579	0.00023736	0.00021247	4.9828e-05	828.34	2.7083e-06	3.1356e-06	874.46	172.71	2.3001e-06	2.2836e-06	216.8	62.132	48.145	13.856	1.9557e-06	19.406	0.00013498	4.4444e-05	1.1971e-05	842.5	8.4143e-07	5.4987e-07	890.37	176.69	7.5913e-07	5.0645e-07	222.53	62.548	49.774	14.372	6.5476e-07	20.338	188.423	224.626	212.044	134.887	242.520	286.430	134.851	141.883	261.181	252.888	141.804	146.875	148.699	155.134	271.712	155.032	-8191	255	
2042.290	1	1	0	0	0.043834	0.20398	0.056961	0.15453	0.21318	0.10932	0.23115	0.090969	0.11662	0.082844	0.15221	0.071319	0.20748	0.1277	0.091337	0.067426	-2.6021	-3.1688	-3.2	-3.0938	-3.2271	-3.3583	-3.0938	-3.425	-3.1063	-3.1813	-3.4021	-3.0229	-3.2812	-3.1042	-2.9875	-3.3917	472.773	253.265	146.457	371.515	253.877	250.394	404.849	240.437	130.276	328.939	418.584	226.907	362.583	480.310	127.195	383.114	0.00021309	0.00015791	8.3371e-05	829.71	2.634e-06	1.6958e-06	878.6	173.46	2.5346e-06	1.7141e-06	215.36	62.068	48.699	13.766	2.5888e-06	19.366	0.00012886	5.111e-05	1.2539e-05	843.48	8.6827e-07	5.2489e-07	891.34	176.53	7.3399e-07	4.7126e-07	221.94	62.87	49.829	14.316	7.0638e-07	20.266	190.108	196.116	225.054	134.983	256.919	278.743	134.941	142.411	261.208	280.915	141.672	146.791	148.767	155.637	261.446	155.012	-8191	255	
2042.387	1	1	0	0	0.16001	0.051924	0.12563	0.18038	0.19912	0.0091983	0.17036	0.057964	0.12803	0.30687	0.10944	0.21929	0.20878	0.014569	0.14596	0.034826	-2.6188	-3.0875	-3.4708	-3.1125	-3.2042	-3.2667	-2.9833	-3.2021	-3.0646	-3.1458	-3.5062	-2.9458	-3.2542	-3.1667	-3.0021	-3.4542	248.665	151.500	414.528	441.323	365.314	263.774	369.568	314.142	152.410	238.083	276.072	470.997	370.506	276.857	217.941	465.033	0.00020935	0.00024696	5.1693e-05	829.72	2.8578e-06	1.9133e-06	868.61	172.3	2.6313e-06	2.7088e-06	217.94	61.751	48.67	13.763	1.4036e-06	19.492	0.00012309	5.111e-05	1.128e-05	840.47	8.5465e-07	4.8431e-07	889.07	176.15	7.7495e-07	4.9977e-07	222.37	62.758	49.784	14.295	6.8246e-07	20.328	190.518	206.658	198.476	135.038	260.046	254.194	134.854	142.152	276.227	266.422	141.589	146.604	148.630	155.567	259.507	154.892	-8191	255	
2042.458	1	1	0	0	0.22645	0.27494	0.19186	0.14582	0.17802	0.070825	0.2179	0.075679	0.16923	0.091253	0.16601	0.14658	0.14904	0.26639	0.3165	0.07684	-2.7625	-2.8958	-3.3396	-3.1167	-3.1562	-3.225	-2.9479	-3.2938	-3.1063	-3.125	-3.4562	-2.8708	-3.2271	-3.4708	-3.0812	-3.35	348.039	154.126	131.412	449.108	393.180	311.755	415.509	470.729	304.014	375.372	165.819	221.901	381.840	306.591	171.367	136.910	0.00021733	0.00021833	7.4555e-05	830.02	2.453e-06	3.6052e-06	872.77	172.84	3.0318e-06	2.3197e-06	216.25	61.288	48.739	13.805	2.1775e-06	19.522	0.00012716	5.1904e-05	1.236e-05	840.46	8.278e-07	4.5577e-07	888.38	176.42	7.0722e-07	5.9821e-07	221.75	62.609	49.855	14.327	6.7574e-07	20.378	188.198	203.073	221.534	135.026	264.373	279.149	134.600	142.260	269.548	281.793	141.766	147.055	149.127	155.393	258.924	155.659	-8191	255	
2042.579	1	1	0	0	0.20238	0.12478	0.041549	0.23336	0.13531	0.080414	0.29458	0.023843	0.12303	0.18713	0.17349	0.18109	0.02833	0.21531	0.084762	0.074517	-2.7562	-2.9958	-3.3312	-3.0333	-3.2062	-3.3896	-3.0875	-3.3604	-3.1937	-3.0729	-3.5958	-3.1521	-2.9333	-3.4042	-3.0312	-3.275	355.608	198.080	338.378	149.062	198.925	254.234	440.896	199.892	307.272	339.751	200.874	466.409	267.023	277.744	389.443	198.142	0.000209	0.00028619	7.8758e-05	823.55	2.45e-06	2.9866e-06	874.45	173.48	2.7067e-06	1.8078e-06	215.81	61.152	48.147	13.735	1.9392e-06	19.361	0.0001213	5.1825e-05	1.1882e-05	837.87	8.2941e-07	4.1519e-07	887.73	176.61	7.8752e-07	5.2471e-07	221.71	62.312	49.703	14.292	5.7921e-07	20.256	189.565	192.595	241.824	134.968	251.943	265.123	134.961	142.274	264.713	253.821	141.427	146.618	148.484	155.590	276.454	155.571	-8191	255	
2042.675	1	1	0	0	0.2147	0.15687	0.19907	0.087972	0.0078131	0.12846	0.21534	0.077927	0.16289	0.16763	0.029211	0.10592	0.1497	0.30644	0.043211	0.18579	-3.0896	-2.9062	-3.2167	-3.2708	-3.1667	-3.3792	-2.9646	-3.3125	-3.3229	-3.0333	-3.2438	-3.1479	-3.1	-3.2896	-3.0021	-3.4104	192.882	324.203	211.223	358.230	173.164	373.262	390.449	343.571	469.446	462.868	161.379	300.391	391.271	423.134	393.875	286.269	0.00022296	0.00021904	6.3921e-05	824	2.4469e-06	1.4531e-06	868.13	172.2	1.7992e-06	2.0411e-06	216.93	62.426	48.406	13.731	1.9052e-06	19.403	0.00012788	5.8848e-05	1.2694e-05	836.19	8.2059e-07	4.2723e-07	883.35	175.64	7.2101e-07	5.3674e-07	221.79	62.644	49.572	14.303	6.7574e-07	20.229	188.676	209.976	210.098	134.801	265.826	270.526	134.889	142.490	264.423	261.042	141.950	147.292	148.886	155.348	279.238	155.094	-8191	255	
2042.771	1	1	0	0	0.11876	0.20387	0.070697	0.32433	0.31451	0.16527	0.31065	0.20775	0.24246	0.15334	0.35357	0.28763	0.38169	0.11385	0.14845	0.075883	-2.7708	-2.8542	-3.4104	-3.4188	-2.9896	-3.4125	-3.1708	-3.3354	-3.3667	-2.9938	-3.3479	-3.2062	-2.7604	-3.2792	-3.0333	-3.1667	139.212	157.067	289.142	441.074	214.202	277.728	383.507	480.704	337.769	424.360	350.955	431.841	464.540	350.532	236.477	126.886	0.00022205	0.00021118	6.5032e-05	823.15	2.0162e-06	2.148e-06	871.51	172.73	2.6996e-06	2.6175e-06	215.57	62.647	48.061	13.763	1.7748e-06	19.488	0.00012247	5.5198e-05	1.0556e-05	835.43	8.8069e-07	4.3347e-07	884.92	175.65	6.8898e-07	6.3785e-07	221.52	62.785	49.653	14.27	5.8299e-07	20.317	189.941	219.897	234.838	134.814	264.729	264.244	134.983	142.451	258.989	279.186	141.693	146.424	148.970	155.658	262.103	155.091	-8191	255	
2042.867	1	1	0	0	0.052138	0.29778	0.30299	0.25159	0.14336	0.084232	0.23655	0.10949	0.15806	0.2432	0.049756	0.14538	0.12524	0.15956	0.14585	0.27575	-3.0604	-2.9729	-3.3125	-3.3792	-3.0958	-3.3875	-3.2729	-3.1021	-3.5229	-3.0687	-3.3667	-3.1937	-3	-3.4688	-3.2188	-3.2562	140.866	440.813	148.932	445.168	393.201	446.607	132.892	219.182	133.447	318.304	142.833	335.672	473.092	288.182	477.270	415.427	0.00020977	0.00027627	6.0915e-05	825.76	2.591e-06	2.6656e-06	872.35	172.32	2.0807e-06	1.9653e-06	216.06	62.488	48.187	13.711	1.7361e-06	19.346	0.00011965	5.4087e-05	1.1715e-05	835.95	8.879e-07	4.5042e-07	884.58	175.86	6.6708e-07	5.4208e-07	220.99	62.548	49.641	14.303	6.3839e-07	20.233	191.464	205.936	215.302	134.911	253.074	273.849	134.793	142.083	279.161	293.363	141.781	147.782	148.478	155.569	259.072	155.189	-8191	255	
2042.988	1	1	0	0	0.21281	0.10469	0.14036	0.095137	0.15193	0.23708	0.36698	0.070906	0.15553	0.19264	0.11439	0.14781	0.15302	0.17982	0.028267	0.06009	-2.9562	-3.0146	-3.3396	-3.4479	-2.875	-3.5125	-3.2271	-3.0438	-3.5458	-3.0125	-3.2417	-3.2917	-2.9208	-3.5187	-3.1667	-3.1104	381.874	328.018	449.421	167.833	234.132	177.789	442.027	262.114	353.887	348.983	477.597	270.706	393.249	128.634	307.386	425.606	0.00020806	0.00024522	7.067e-05	821.88	1.4801e-06	3.3962e-06	868.57	171.88	2.5289e-06	1.7809e-06	215.39	61.737	48.152	13.764	2.0144e-06	19.331	0.00011979	4.869e-05	1.1893e-05	834.03	8.5465e-07	4.4016e-07	883.07	175.36	6.249e-07	5.3273e-07	220.87	62.49	49.406	14.294	6.1992e-07	20.262	190.276	210.290	204.901	134.710	256.712	270.895	134.723	142.197	276.807	281.009	141.841	146.762	148.550	155.529	251.123	155.745	-8191	255	
2043.082	1	1	0	0	0.12419	0.14161	0.21984	0.2129	0.048542	0.11795	0.14618	0.15994	0.18727	0.079246	0.18143	0.29109	0.027825	0.047989	0.20364	0.089499	-3.2146	-2.925	-3.0375	-3.5521	-3.0583	-3.3417	-3.3771	-2.7792	-3.3625	-2.95	-3.0312	-3.4896	-2.9896	-3.3229	-3.1562	-3.0187	405.973	215.759	162.022	405.250	182.663	408.316	481.477	149.696	199.166	437.003	430.617	341.320	167.298	302.744	287.757	400.181	0.0002188	0.00018897	6.6722e-05	822.92	2.1951e-06	1.6064e-06	867.28	172.54	3.1792e-06	1.4086e-06	214.74	61.033	47.902	13.689	2.636e-06	19.419	0.00012405	4.7737e-05	1.3752e-05	833.57	8.6907e-07	4.2946e-07	882.42	175.92	6.9425e-07	4.8997e-07	221.01	62.616	49.553	14.284	6.2286e-07	20.286	189.330	197.711	213.914	134.811	263.743	270.569	134.810	142.370	277.051	287.197	141.867	147.137	148.716	155.428	253.342	154.777	-8191	255	
2043.156	1	1	0	0	0.14314	0.12887	0.1827	0.15198	0.19425	0.22489	0.17509	0.15471	0.17096	0.35953	0.14946	0.040641	0.15461	0.067644	0.055849	0.078	-2.9437	-2.8667	-3.1312	-3.5979	-3.1688	-3.3292	-3.3375	-3.0771	-3.4313	-3.1729	-3.0687	-3.5333	-2.9292	-3.1688	-3.2313	-2.95	253.164	173.114	150.807	185.215	272.014	204.297	392.682	142.367	262.206	155.863	204.655	393.635	239.038	344.265	167.204	286.354	0.00021224	0.00019404	5.042e-05	825.51	2.3463e-06	2.5574e-06	867.64	171.62	2.1068e-06	3.3284e-06	216.1	61.765	48.179	13.75	2.3965e-06	19.629	0.00011758	4.865e-05	1.3385e-05	835.9	9.3318e-07	4.7138e-07	884.3	175.4	7.2304e-07	5.4743e-07	221.67	62.692	49.583	14.327	5.2548e-07	20.375	190.840	206.452	217.908	135.001	249.440	289.738	134.715	142.193	260.195	265.679	142.052	147.124	149.086	155.894	272.835	155.464	-8191	255	
2043.252	1	1	0	0	0.14408	0.18555	0.12543	0.15253	0.26188	0.27258	0.19798	0.20139	0.11158	0.23707	0.13779	0.076178	0.054979	0.082066	0.17951	0.3898	-2.9417	-3.0354	-2.825	-3.525	-3.0917	-3.1417	-3.4958	-2.8146	-3.3729	-3.2646	-3.0521	-3.2958	-3.1437	-3.15	-3.2875	-3.15	171.908	168.369	260.534	450.489	236.249	312.196	410.496	417.438	215.951	176.729	436.634	323.363	442.224	163.605	129.119	171.484	0.0002217	0.00017768	6.6911e-05	821.24	2.6584e-06	2.8703e-06	869.54	172.05	2.4175e-06	2.5002e-06	215.56	62.281	48.362	13.821	2.277e-06	19.397	0.00012628	4.8571e-05	1.6737e-05	835.94	8.7949e-07	5.0438e-07	885.41	175.99	7.713e-07	4.138e-07	221.43	62.807	49.647	14.307	5.6326e-07	20.336	190.211	210.331	233.396	135.065	257.628	272.227	134.837	142.032	267.775	291.198	141.605	147.135	148.861	155.931	276.097	155.335	-8191	255	
2043.371	1	1	0	0	0.23171	0.078124	0.08723	0.028398	0.097714	0.022724	0.21165	0.11769	0.24052	0.1254	0.1437	0.10064	0.14396	0.068836	0.3067	0.12245	-2.9104	-3.1396	-3.1396	-3.3354	-3.2292	-3.1688	-3.5417	-3.1229	-3.3354	-3.3146	-3.0146	-3.4104	-3.2208	-2.975	-3.4125	-2.925	226.109	210.846	351.490	323.580	243.525	311.136	409.485	406.964	319.741	362.499	473.755	233.814	397.615	229.341	298.414	476.412	0.00023738	0.00022076	3.9758e-05	824.07	2.4963e-06	2.1037e-06	869.44	172.75	2.5789e-06	2.6505e-06	215.87	62.946	48.348	13.776	1.9152e-06	19.612	0.00013072	4.4007e-05	1.3262e-05	835.97	8.1819e-07	5.5834e-07	883.44	175.8	6.9019e-07	4.8373e-07	221.62	63.031	49.72	14.334	4.7386e-07	20.349	186.864	213.863	233.463	134.964	253.882	270.887	134.803	142.020	266.153	275.086	141.710	146.382	148.801	155.730	288.549	154.847	-8191	255	
2043.467	1	1	0	0	0.34169	0.082701	0.27724	0.23206	0.086394	0.11955	0.072656	0.15848	0.19109	0.29544	0.14618	0.1285	0.16915	0.10277	0.026228	0.13191	-2.8	-3.35	-3.0229	-3.4313	-3.275	-3.0812	-3.4938	-2.9854	-3.1833	-3.1917	-2.9083	-3.3417	-3.1458	-3.0833	-3.4688	-2.9146	448.246	191.503	368.851	479.303	257.581	231.322	436.101	453.549	178.453	314.354	189.027	360.555	466.196	191.576	286.812	458.757	0.00022627	0.00023137	5.9972e-05	818.42	2.4562e-06	1.5431e-06	868.29	171.82	1.5947e-06	1.6572e-06	215.33	61.993	48.214	13.724	1.7976e-06	19.509	0.00012105	3.8095e-05	1.2884e-05	833.98	8.3101e-07	5.3247e-07	882.79	175.96	7.3074e-07	4.2895e-07	221.13	62.753	49.698	14.317	6.0901e-07	20.351	187.611	228.334	233.826	134.833	256.818	259.463	134.684	142.127	276.715	286.754	141.722	146.028	148.392	155.816	269.685	155.320	-8191	255	
2043.563	1	1	0	0	0.19226	0.20906	0.12902	0.12858	0.19255	0.015955	0.14964	0.1228	0.22356	0.20659	0.3012	0.16649	0.11029	0.19755	0.14539	0.15043	-2.6729	-3.2521	-2.8563	-3.3208	-3.2104	-3.0333	-3.4583	-3.2042	-3.1979	-3.3479	-3.1396	-3.3063	-3.3917	-2.9688	-3.3521	-3.1729	272.328	258.162	340.207	453.502	338.086	294.252	411.001	208.439	417.106	471.986	310.973	210.120	163.494	288.283	131.443	384.579	0.00020547	0.00025139	6.1867e-05	824.12	3.115e-06	2.7501e-06	867.68	172.82	2.6245e-06	2.3364e-06	216.38	61.381	48.533	13.72	2.4609e-06	19.294	0.00011898	4.2301e-05	1.5077e-05	834.59	8.282e-07	6.5913e-07	882.18	176.06	8.232e-07	4.432e-07	221.36	62.635	49.546	14.306	5.7501e-07	20.279	190.181	207.608	229.998	134.920	278.325	292.803	134.868	142.329	267.570	280.658	141.799	146.998	148.460	155.266	268.227	155.114	-8191	255	
2043.659	1	1	0	0	0.3013	0.54754	0.063695	0.24033	0.088224	0.17387	0.15136	0.18496	0.09939	0.1423	0.2012	0.14519	0.24361	0.15115	0.13629	0.054139	-2.6354	-3.4208	-2.9146	-3.3542	-3.4813	-2.8646	-3.2125	-3.1813	-3.15	-3.525	-2.9437	-3.3	-3.2562	-2.9688	-3.3271	-3.2562	279.226	380.647	271.105	470.796	308.293	319.735	317.302	375.773	221.436	163.379	482.159	127.794	455.299	357.658	364.230	478.699	0.00021967	0.00018671	6.8814e-05	824.51	2.7702e-06	2.3197e-06	866.58	172.81	2.9383e-06	1.8859e-06	215.2	62.319	48.299	13.75	1.7751e-06	19.502	0.00012891	4.9801e-05	1.3218e-05	835.76	8.27e-07	5.4853e-07	882.47	176.27	8.0982e-07	4.5656e-07	221.54	63.058	49.707	14.354	5.5906e-07	20.327	190.128	214.322	247.980	134.842	272.766	293.194	134.714	142.127	265.704	281.543	141.836	146.993	148.662	155.897	268.288	155.041	-8191	255	
2043.755	1	1	0	0	0.24137	0.094958	0.072625	0.21546	0.1334	0.09081	0.13061	0.089428	0.21619	0.086207	0.11435	0.088683	0.091962	0.15933	0.17659	0.028015	-2.4083	-3.3063	-2.9521	-3.2812	-3.3187	-3.0333	-3.4458	-3.2833	-2.9667	-3.4	-2.9979	-3.15	-3.425	-2.9562	-3.4938	-3.2458	372.367	418.375	409.335	414.462	435.273	146.180	150.440	362.311	326.238	201.068	183.174	380.264	166.223	371.348	324.606	361.612	0.00021051	0.0002372	6.4753e-05	824.54	2.0221e-06	1.5489e-06	866.71	173.18	2.6995e-06	1.8124e-06	215.77	61.658	48.464	13.768	1.7227e-06	19.355	0.000126	3.9007e-05	1.3351e-05	835.63	8.4223e-07	5.3738e-07	883.91	176.38	7.3723e-07	4.1558e-07	221.23	62.65	49.702	14.318	5.4479e-07	20.282	191.028	204.015	238.423	134.838	273.166	280.286	134.768	142.258	268.696	249.062	141.662	146.901	148.944	155.631	280.387	155.273	-8191	255	
2043.852	1	1	0	0	0.061636	0.20618	0.12105	0.13808	0.17294	0.19718	0.17638	0.27504	0.12602	0.18426	0.072809	0.14005	0.24001	0.11696	0.27395	0.119	-2.6021	-3.2833	-3.2042	-3.3375	-3.2875	-3.0167	-3.4021	-3.1833	-3.0062	-3.5896	-3.1271	-2.9938	-3.3042	-2.8937	-3.2625	-3.2146	409.397	309.509	198.622	392.702	311.099	251.309	142.786	357.827	217.292	162.640	368.784	222.759	435.405	221.508	263.745	279.425	0.00020722	0.0001803	5.932e-05	822.91	2.0518e-06	1.9751e-06	865.5	173.02	2.6397e-06	2.3703e-06	216	61.668	48.626	13.695	1.8499e-06	19.52	0.00012247	4.1388e-05	1.3886e-05	835.5	8.1899e-07	5.5254e-07	883.48	175.96	7.79e-07	4.5834e-07	221.9	62.642	49.752	14.297	6.2034e-07	20.308	191.035	198.815	230.212	134.902	261.320	290.668	134.759	142.536	272.639	285.191	141.821	146.711	148.971	155.775	282.222	154.867	-8191	255	
2043.972	1	1	0	0	0.11559	0.096223	0.19966	0.093479	0.27315	0.17563	0.043751	0.31162	0.092486	0.19987	0.079413	0.19748	0.087792	0.24203	0.19177	0.32952	-2.3812	-3.2708	-3.1771	-3.2958	-3.4771	-3.0312	-3.2188	-3.225	-2.8958	-3.2771	-3.1729	-2.9896	-3.4625	-3.225	-3.1521	-3.4042	138.685	439.675	246.118	425.802	259.510	277.034	184.168	209.185	454.227	387.446	167.103	356.677	256.943	449.052	359.891	218.410	0.00021073	0.00017046	7.7292e-05	823.71	1.6377e-06	2.0976e-06	867.72	172.22	2.8475e-06	2.3139e-06	216.39	62.869	48.187	13.821	1.4043e-06	19.462	0.00012668	4.9682e-05	1.4487e-05	835.14	7.9455e-07	6.2791e-07	884.46	176.03	8.6375e-07	5.0333e-07	221.04	63.204	49.665	14.314	5.7543e-07	20.328	189.805	212.998	235.522	135.116	265.112	305.136	134.824	142.369	259.088	271.075	141.823	146.331	148.673	155.806	270.367	154.798	-8191	255	
2044.068	1	1	0	0	0.29666	0.14917	0.18319	0.11245	0.16282	0.15959	0.11153	0.20071	0.083829	0.20104	0.06637	0.26154	0.14927	0.063268	0.14018	0.14611	-2.5708	-3.2479	-3.3396	-3.2271	-3.5146	-2.9437	-3.175	-3.3083	-2.9354	-3.4938	-3.1771	-2.9229	-3.3979	-3.1063	-3.0875	-3.3875	320.242	413.359	435.446	401.104	324.011	461.290	440.722	132.716	406.331	415.561	395.866	279.194	433.216	456.869	396.873	399.269	0.00019559	0.00017764	6.5409e-05	824.06	2.6767e-06	1.9374e-06	869.47	171.89	2.6096e-06	1.9637e-06	216.38	62.171	48.298	13.783	1.7403e-06	19.357	0.00012177	5.2817e-05	1.5812e-05	837.25	8.266e-07	5.4675e-07	885.42	175.79	8.1671e-07	5.2382e-07	221.28	62.911	49.611	14.301	7.366e-07	20.243	191.157	172.210	247.868	135.087	254.700	297.543	134.729	142.007	276.401	257.895	141.908	147.642	149.220	155.433	263.566	155.051	-8191	255	
2044.163	1	1	0	0	0.25144	0.22455	0.20323	0.23385	0.071601	0.12266	0.20872	0.12222	0.047323	0.12906	0.25068	0.08747	0.18962	0.17345	0.14196	0.30117	-2.5208	-3.3104	-3.2917	-3.1583	-3.4625	-3.1667	-3.1354	-3.5375	-2.9437	-3.1708	-3.3646	-2.8625	-3.4521	-3.0375	-3.1188	-3.6	332.759	464.259	196.433	462.946	362.290	385.731	393.895	317.138	141.956	423.734	366.080	433.796	181.152	246.145	163.559	378.778	0.00022056	0.00028237	6.6897e-05	821.17	2.0168e-06	2.1764e-06	869.19	172.52	2.54e-06	3.2824e-06	218.08	61.389	48.03	13.672	2.2592e-06	19.496	0.0001314	5.8928e-05	1.4354e-05	836.16	8.1298e-07	4.7495e-07	885.3	176.16	8.2158e-07	5.3808e-07	221.58	62.698	49.714	14.273	7.0428e-07	20.309	190.176	215.384	211.922	135.068	258.044	280.977	134.882	142.364	259.484	262.204	141.343	146.240	149.187	155.446	264.700	155.675	-8191	255	
2044.261	1	1	0	0	0.23659	0.13088	0.3433	0.0034455	0.18985	0.1139	0.12163	0.15262	0.072247	0.10365	0.25662	0.2542	0.087869	0.17534	0.11333	0.16603	-2.5458	-3.2396	-3.4	-3.0333	-3.3083	-3.3542	-3.1813	-3.4333	-3.1688	-3.0521	-3.35	-2.8125	-3.3167	-3.1875	-3.0062	-3.35	392.949	220.948	447.530	272.957	351.842	404.732	332.125	152.237	457.176	223.937	130.094	380.260	347.679	172.743	203.080	296.682	0.00021083	0.000358	7.1032e-05	824.88	2.2064e-06	1.6521e-06	870.26	172.3	2.4312e-06	1.9278e-06	214.96	61.744	48.76	13.736	1.6796e-06	19.351	0.00012656	5.9721e-05	1.3908e-05	837.32	8.4744e-07	5.2802e-07	885.04	176.36	7.7373e-07	4.9398e-07	221.13	62.656	49.869	14.29	6.7658e-07	20.248	186.897	221.011	229.809	135.033	257.921	282.335	134.751	142.202	283.148	279.600	141.828	147.205	148.972	155.890	277.054	155.032	-8191	255	
2044.380	1	1	0	0	0.075317	0.24362	0.19939	0.16872	0.10115	0.051518	0.080497	0.11314	0.15855	0.21175	0.070242	0.15111	0.068675	0.065779	0.14261	0.27824	-2.7208	-3.05	-3.2687	-3.0479	-3.1354	-3.2812	-3.1688	-3.3937	-3.0021	-2.9854	-3.4729	-3.0167	-3.3417	-3.3917	-2.9708	-3.4562	238.419	448.030	453.745	452.684	126.348	163.861	437.620	245.033	154.582	178.097	434.999	408.914	386.439	153.382	160.193	406.370	0.00021055	0.00019199	5.193e-05	824.24	2.5756e-06	3.9968e-07	868.96	172.68	3.1306e-06	3.2394e-06	216.59	62.822	48.205	13.81	2.0591e-06	19.356	0.00012728	6.0952e-05	1.2683e-05	836.6	8.7027e-07	5.3114e-07	885.24	176.07	8.962e-07	6.3473e-07	221.76	62.832	49.63	14.325	7.4038e-07	20.291	188.852	194.389	219.622	134.995	262.057	195.625	134.856	142.168	278.279	271.730	141.737	147.449	149.197	155.738	266.494	155.057	-8191	255	
2044.451	1	1	0	0	0.1538	0.31233	0.11827	0.20187	0.068918	0.19449	0.20944	0.19172	0.18954	0.22912	0.19877	0.1943	0.1285	0.19944	0.15044	0.06874	-2.7583	-3.0708	-3.3729	-3.1146	-3.1562	-3.4125	-3.1021	-3.3708	-3.1417	-2.9833	-3.475	-3.0479	-3.0812	-3.4667	-3.0646	-3.3854	184.164	340.670	469.949	355.877	426.266	175.816	371.685	466.478	450.294	183.421	227.698	183.679	412.677	469.142	451.701	189.258	0.00019809	0.000254	8.0165e-05	822.08	2.2196e-06	2.5681e-06	871.17	172.13	3.468e-06	1.297e-06	215.2	62.62	48.721	13.801	1.9717e-06	19.457	0.00012368	5.119e-05	1.4086e-05	835.94	8.5425e-07	4.6246e-07	885.96	176.02	7.3561e-07	4.971e-07	222.29	62.83	49.737	14.322	7.387e-07	20.306	190.226	224.178	225.943	135.069	265.029	300.210	134.941	142.126	259.879	262.726	141.780	146.109	149.178	155.721	261.902	155.337	-8191	255	
2044.547	1	1	0	0	0.14815	0.23738	0.27071	0.34091	0.085678	0.019496	0.20417	0.13685	0.22449	0.082659	0.095679	0.11362	0.24294	0.096235	0.12321	0.072283	-2.8521	-3.0187	-3.3667	-3.2979	-3.2417	-3.4458	-3.0771	-3.3688	-3.1667	-3.1333	-3.5062	-3.0458	-3.2313	-3.3688	-2.9396	-3.2188	220.285	374.328	369.225	446.274	224.152	316.749	373.594	283.620	179.420	176.518	372.973	469.226	234.439	389.978	186.511	286.008	0.00022038	0.00030186	3.1641e-05	824.78	2.7395e-06	3.5554e-06	864.38	172.69	2.2471e-06	2.3473e-06	217.05	62.4	48.424	13.755	2.4437e-06	19.474	0.00012607	5.3214e-05	1.03e-05	836.47	9.2116e-07	4.9055e-07	883.19	176.13	7.4007e-07	5.648e-07	221.67	62.743	49.65	14.3	6.8456e-07	20.304	187.998	212.720	234.937	134.883	254.318	252.838	134.736	142.286	274.279	279.589	142.051	146.455	148.670	155.454	245.551	155.100	-8191	255	
2044.643	1	1	0	0	0.18454	0.22885	0.18174	0.041419	0.43184	0.11116	0.12735	0.17067	0.25328	0.27112	0.056475	0.12363	0.15654	0.12309	0.081822	0.22289	-2.9625	-2.9271	-3.5667	-3.15	-3.0792	-3.4	-3.3875	-3.2792	-3.2292	-2.9875	-3.5792	-3.3125	-3.0229	-3.4875	-3.0854	-3.2562	326.964	353.853	268.693	411.667	202.785	179.720	408.110	362.004	339.016	251.672	144.992	290.858	151.156	205.508	460.168	273.337	0.00020137	0.00027585	5.9241e-05	823.52	2.9134e-06	2.4215e-06	871.02	172.69	2.8058e-06	1.8156e-06	217.28	60.651	48.456	13.715	1.6804e-06	19.486	0.00011426	5.984e-05	1.2026e-05	836.43	9.9449e-07	4.7227e-07	884.78	176.2	7.0033e-07	5.5857e-07	221.75	62.539	49.669	14.293	6.9967e-07	20.24	191.169	229.942	227.379	134.944	262.709	267.853	134.963	142.254	280.237	267.248	141.930	146.672	148.698	155.196	251.217	155.054	-8191	255	
2044.764	1	1	0	0	0.026749	0.21524	0.28727	0.043499	0.028574	0.26481	0.18813	0.10452	0.064748	0.05714	0.14787	0.25684	0.25865	0.032496	0.098677	0.029727	-2.8479	-2.9167	-3.3937	-3.2062	-3.075	-3.4542	-3.2625	-3.2021	-3.4167	-3.0833	-3.4771	-3.2396	-2.9396	-3.4208	-3.2021	-3.2104	150.728	288.986	267.318	354.683	396.140	139.332	151.982	353.495	425.572	300.090	383.959	256.064	461.691	216.127	242.730	189.517	0.00020588	0.00020594	5.3386e-05	825.76	2.1482e-06	1.8292e-06	870.06	173.2	2.4493e-06	2.1253e-06	215.69	61.903	48.521	13.744	2.2079e-06	19.32	0.00012119	6.2023e-05	1.3273e-05	836.8	9.0874e-07	4.7093e-07	884.79	176.32	7.7576e-07	6.6725e-07	221.68	62.671	49.599	14.296	5.981e-07	20.223	187.605	228.130	201.339	135.059	257.478	254.064	134.933	142.103	265.983	263.411	141.716	147.003	148.585	155.286	262.411	155.183	-8191	255	
2044.860	1	1	0	0	0.26336	0.18632	0.21273	0.17986	0.22468	0.015082	0.23946	0.18183	0.069309	0.17029	0.2634	0.24893	0.30053	0.1731	0.106	0.10234	-3.1063	-2.9396	-3.2229	-3.4292	-2.9375	-3.3354	-3.2375	-3.1896	-3.5187	-3.0104	-3.3812	-3.4646	-3.0312	-3.4771	-3.1521	-2.9875	356.813	170.991	324.406	453.050	184.032	279.746	407.709	242.092	246.173	468.113	375.646	246.760	414.095	333.363	300.790	298.954	0.00022131	0.00023883	6.2307e-05	826.84	1.8353e-06	2.8109e-06	869.45	172.53	1.7461e-06	2.8197e-06	217.12	62.239	48.15	13.77	1.6248e-06	19.417	0.00013367	6.6388e-05	1.4554e-05	837.69	1.0061e-06	4.8654e-07	884.94	176.19	6.8492e-07	6.0845e-07	221.94	62.836	49.7	14.308	7.1436e-07	20.269	190.180	213.136	238.657	134.867	281.200	270.526	134.667	142.170	259.319	297.022	141.843	147.069	148.477	155.129	259.320	155.070	-8191	255	
2044.956	1	1	0	0	0.22289	0.075323	0.3507	0.11087	0.11725	0.19764	0.30631	0.089933	0.146	0.15405	0.086747	0.16565	0.26397	0.15568	0.11625	0.20723	-3.0604	-2.7917	-3.2021	-3.4417	-2.8021	-3.4396	-3.075	-3.1729	-3.4208	-3.1354	-3.2438	-3.4542	-2.8688	-3.2458	-3.0604	-2.9229	378.360	215.246	227.712	436.610	467.389	170.970	141.499	289.878	380.738	451.309	246.919	201.688	172.641	371.342	212.666	368.965	0.00021589	0.00028149	5.1436e-05	825.27	2.2865e-06	3.2753e-06	871.35	172.34	2.0625e-06	2.1088e-06	217.38	62.819	48.467	13.812	1.6254e-06	19.655	0.00012826	6.0793e-05	1.4643e-05	836.08	9.6724e-07	5.793e-07	886.43	176.13	7.2709e-07	6.5879e-07	222.33	63.025	49.699	14.31	6.493e-07	20.377	192.030	221.991	221.570	134.973	245.054	275.714	135.004	142.420	274.164	256.309	141.679	146.907	148.967	155.805	272.169	155.009	-8191	255	
2045.053	1	1	0	0	0.18566	0.40175	0.2394	0.12289	0.059452	0.21817	0.18543	0.072117	0.23318	0.084886	0.1907	0.14448	0.13742	0.0042575	0.16282	0.28878	-2.9188	-2.9083	-3.0958	-3.3917	-3.1208	-3.2812	-3.325	-3.0604	-3.3875	-3.0458	-3.1208	-3.3667	-2.9479	-3.2917	-3.3833	-2.8229	130.191	465.054	227.082	136.041	429.649	310.139	381.033	445.729	213.386	140.799	354.389	243.827	386.238	167.017	376.402	441.337	0.0002148	0.00031503	4.4492e-05	827.24	2.45e-06	2.2338e-06	870.85	173.12	2.1303e-06	1.8867e-06	216.97	63.835	48.26	13.749	1.9955e-06	19.628	0.00013102	6.1666e-05	1.6247e-05	838.85	9.7044e-07	5.6012e-07	887.07	176.81	7.5102e-07	5.3629e-07	222.24	63.388	49.771	14.276	6.8792e-07	20.307	188.902	197.408	245.397	134.908	262.751	260.333	134.856	142.070	266.934	271.167	141.695	147.284	149.181	155.814	273.563	155.250	-8191	255	
2045.149	1	1	0	0	0.081089	0.28257	0.04991	0.17634	0.082115	0.054561	0.17177	0.16243	0.19415	0.043344	0.22771	0.16375	0.33309	0.13513	0.13149	0.096385	-3.1208	-2.8583	-3.1021	-3.4354	-2.9958	-3.2333	-3.3625	-2.9667	-3.4583	-3.1917	-3.1958	-3.4208	-2.9875	-3.3438	-3.375	-3.0521	126.449	460.652	188.815	462.111	233.230	372.048	254.112	431.159	144.329	432.636	392.026	225.665	395.979	342.278	405.439	266.682	0.00020509	0.00024454	4.3743e-05	827.62	2.4087e-06	2.0244e-06	874.89	172.37	2.5347e-06	2.1925e-06	217.04	62.172	48.263	13.846	2.7088e-06	19.421	0.00012435	5.361e-05	1.4253e-05	836.96	8.4062e-07	5.5299e-07	886.29	176.51	6.7275e-07	5.4788e-07	221.94	62.738	49.622	14.34	6.1027e-07	20.308	188.258	188.136	194.624	134.941	275.763	258.554	134.787	142.372	254.545	273.539	141.650	146.773	148.877	155.983	272.381	154.885	-8191	255	
2045.245	1	1	0	0	0.19549	0.090696	0.045464	0.10747	0.18195	0.1886	0.18617	0.064218	0.023506	0.13633	0.074778	0.073538	0.10644	0.053942	0.12768	0.10933	-2.8104	-3.15	-3.025	-3.3146	-3.0563	-3.1042	-3.3167	-2.9271	-3.3625	-3.1083	-3.0875	-3.3708	-3.0479	-3.1125	-3.3521	-3.0646	309.737	384.079	475.791	395.311	134.046	230.192	359.461	435.122	265.073	172.450	144.510	172.749	382.135	156.743	178.139	476.270	0.0002124	0.00023932	5.9043e-05	822.27	2.23e-06	2.4102e-06	869.03	172.03	2.5365e-06	2.2069e-06	216.63	62.074	48.164	13.821	1.2556e-06	19.437	0.00012109	4.5952e-05	1.8674e-05	836.89	9.5322e-07	5.8198e-07	884.29	176.09	7.2182e-07	6.4008e-07	222.15	62.767	49.699	14.325	5.8089e-07	20.29	190.134	252.950	228.416	134.791	248.106	288.366	134.406	142.344	258.315	287.323	142.155	147.295	148.929	155.941	271.298	155.259	-8191	255	
2045.341	1	1	0	0	0.16501	0.14869	0.14421	0.10692	0.34392	0.091041	0.11222	0.0035772	0.14655	0.13923	0.11412	0.096108	0.083933	0.2236	0.14029	0.1823	-2.9021	-3.1271	-2.8646	-3.5396	-3.0687	-3.0125	-3.5271	-2.9521	-3.3167	-3.5479	-3.1604	-3.4083	-3.1708	-3.3	-3.4958	-3.2208	356.040	191.316	230.572	369.936	466.358	172.965	258.731	184.732	254.217	469.343	226.323	372.471	304.352	233.218	379.295	449.752	0.00021473	0.00020908	4.4019e-05	825.4	2.8936e-06	1.8832e-06	871.46	172.33	2.2358e-06	2.2226e-06	216.46	62.752	48.256	13.82	1.9137e-06	19.377	0.00012728	4.7857e-05	1.6124e-05	837.88	9.2356e-07	5.8599e-07	886.14	176.29	7.6075e-07	5.0511e-07	221.94	63.166	49.632	14.336	5.4395e-07	20.302	191.962	202.947	206.435	134.748	274.431	311.250	134.698	142.178	264.140	312.934	141.580	146.976	149.112	155.663	291.200	154.851	-8191	255	
2045.460	1	1	0	0	0.077927	0.10517	0.19003	0.33579	0.16607	0.11127	0.10863	0.082187	0.36604	0.054119	0.16174	0.21097	0.12359	0.21202	0.22775	0.21312	-2.85	-3.3729	-2.75	-3.4167	-3.1479	-3.125	-3.6229	-3.0854	-3.1271	-3.1813	-3.0062	-3.2083	-3.1688	-2.8167	-3.4458	-3.2979	373.106	226.558	481.016	473.103	354.451	450.885	400.282	185.666	411.749	194.791	140.528	458.586	478.911	410.877	382.675	248.513	0.00021828	0.00026782	5.2368e-05	825.31	2.3944e-06	2.3844e-06	871.16	172.45	2.6357e-06	2.4496e-06	217.39	62.973	48.766	13.831	1.7497e-06	19.435	0.00012628	5.4206e-05	1.5623e-05	837.98	8.9432e-07	5.7217e-07	886.58	176.35	7.9198e-07	4.6324e-07	222.7	62.885	49.851	14.352	5.6368e-07	20.336	190.915	240.858	218.886	134.840	261.204	280.925	134.789	142.267	273.291	294.463	141.537	147.166	148.474	155.499	270.371	154.731	-8191	255	
2045.556	1	1	0	0	0.22717	0.13689	0.19389	0.25799	0.21999	0.22105	0.061528	0.1179	0.147	0.29905	0.013828	0.25626	0.14	0.14446	0.026104	0.15131	-2.7771	-3.2854	-2.8208	-3.4938	-3.2458	-3.0604	-3.7083	-3.0583	-3.2313	-3.4042	-3.125	-3.3083	-3.1042	-3.0312	-3.3563	-3.1771	161.258	315.353	201.865	423.539	165.469	175.503	171.579	405.184	281.031	181.113	314.806	401.383	348.747	336.395	407.663	324.138	0.00022313	0.0002469	6.5581e-05	827.37	2.6605e-06	1.9263e-06	871.86	172.58	2.2249e-06	1.9818e-06	216.17	61.8	48.439	13.811	1.7679e-06	19.43	0.00013295	5.1745e-05	1.4777e-05	839.19	9.1755e-07	6.4798e-07	885.91	176.51	7.3602e-07	5.2649e-07	222.03	62.914	49.774	14.335	5.7543e-07	20.357	190.813	197.765	214.897	134.898	260.929	287.400	134.659	142.193	266.284	301.435	142.114	147.168	148.587	155.613	255.997	155.263	-8191	255	
2045.652	1	1	0	0	0.18842	0.30665	0.21931	0.24738	0.16329	0.19711	0.084687	0.21673	0.2116	0.20492	0.31221	0.3564	0.18912	0.039096	0.14238	0.44687	-2.875	-3.4208	-2.8146	-3.2562	-3.2521	-2.9979	-3.5875	-3.2125	-2.9771	-3.4188	-2.9667	-3.0354	-3.2375	-2.9146	-3.4188	-3.125	149.075	191.263	228.628	409.236	409.200	338.995	265.914	408.006	336.212	399.762	423.799	232.359	417.567	135.143	376.417	338.339	0.00020487	0.00023322	5.4804e-05	826.8	2.0597e-06	2.5539e-06	873.35	172.83	2.7542e-06	2.1435e-06	217.67	62.226	48.431	13.855	1.9811e-06	19.351	0.00012507	5.2341e-05	1.5846e-05	838.13	9.2036e-07	5.8688e-07	887.36	176.7	8.0374e-07	4.9799e-07	222.46	62.985	49.85	14.363	5.5906e-07	20.315	188.134	210.324	235.459	134.873	258.809	261.663	134.816	142.108	265.378	269.601	142.101	146.463	148.725	155.409	243.832	155.381	-8191	255	
2045.748	1	1	0	0	0.39559	0.11985	0.21524	0.1218	0.087527	0.16382	0.068555	0.13328	0.29506	0.12686	0.23364	0.021451	0.19496	0.050208	0.11836	0.19818	-2.5021	-3.2354	-2.9479	-3.3417	-3.3438	-3.1646	-3.3583	-3.4604	-2.9167	-3.3292	-3.1167	-3.2604	-3.35	-3.0938	-3.3667	-3.1688	150.997	164.574	378.578	325.088	407.999	148.703	132.838	131.942	480.830	134.423	416.922	383.389	230.099	339.968	197.188	225.277	0.0002225	0.00014354	6.8642e-05	825.01	2.877e-06	2.2204e-06	870.73	173.61	2.2429e-06	1.6772e-06	215.99	61.811	48.576	13.761	1.9913e-06	19.466	0.0001347	4.6071e-05	1.4944e-05	839.16	9.2837e-07	6.0472e-07	886.5	176.96	8.4794e-07	4.3875e-07	222.56	63.179	49.881	14.327	6.6357e-07	20.338	190.173	229.511	189.337	134.844	255.347	274.883	134.698	142.213	258.468	287.520	141.743	146.649	148.979	155.701	261.544	154.975	-8191	255	
2045.844	1	1	0	0	0.081769	0.064413	0.15602	0.10301	0.026324	0.11868	0.082874	0.037306	0.21966	0.092632	0.26217	0.14346	0.075966	0.051823	0.12944	0.13677	-2.5083	-3.3958	-3.1063	-3.2333	-3.3042	-2.9813	-3.3271	-3.3458	-3.1188	-3.425	-3.2938	-3.0354	-3.5125	-2.9062	-3.2979	-3.3292	164.130	205.422	263.693	415.529	160.243	152.556	294.790	247.551	159.674	139.976	404.857	220.920	447.348	477.297	402.875	433.690	0.00022676	0.00029383	5.051e-05	826.69	3.0392e-06	3.1321e-06	874.18	173.68	2.2763e-06	2.2005e-06	217.49	61.74	48.698	13.774	2.7102e-06	19.6	0.00013646	5.0753e-05	1.5534e-05	838.22	8.4704e-07	5.9758e-07	887.35	176.74	7.7859e-07	5.4698e-07	222.35	62.9	49.952	14.354	6.8414e-07	20.325	191.256	194.421	240.911	134.985	259.395	291.731	134.775	142.105	279.111	293.370	141.541	147.107	148.566	155.289	270.367	154.812	-8191	255	
2045.941	1	1	0	0	0.18758	0.14196	0.13083	0.17485	0.20433	0.21096	0.18073	0.2514	0.18959	0.057819	0.15746	0.12507	0.16788	0.38212	0.070475	0.12129	-2.3792	-3.3104	-3.0479	-3.3208	-3.3854	-2.9896	-3.4479	-3.4208	-2.8417	-3.3312	-3.2229	-2.9708	-3.4104	-3.0417	-3.1271	-3.3396	319.515	205.366	362.959	412.565	290.138	196.772	435.185	378.723	194.722	186.377	286.931	469.090	482.080	125.454	434.060	243.534	0.00021676	0.00027658	4.8872e-05	826.51	2.5938e-06	1.4006e-06	870.76	173.13	2.4852e-06	1.5365e-06	216.81	62.806	48.091	13.716	1.9488e-06	19.553	0.00013247	4.8849e-05	1.5055e-05	838.04	8.3902e-07	5.9848e-07	886.11	176.84	8.674e-07	5.5901e-07	221.96	63.098	49.782	14.309	6.0481e-07	20.359	189.710	202.963	205.156	134.910	262.563	281.575	134.806	142.116	281.913	296.979	141.700	146.632	148.777	155.439	269.971	155.212	-8191	255	
2046.061	1	1	0	0	0.16292	0.093198	0.17833	0.20492	0.19505	0.19328	0.073391	0.13473	0.2155	0.10784	0.15651	0.10513	0.20444	0.090991	0.074562	0.1224	-2.6083	-3.3708	-3.2708	-3.0062	-3.4271	-3.1937	-3.1125	-3.4917	-2.7292	-3.3167	-3.2083	-2.9917	-3.3667	-3.1	-3.1917	-3.4562	394.474	372.390	238.194	392.171	265.253	406.640	474.654	332.153	414.771	148.346	440.595	206.960	138.363	447.747	183.453	472.339	0.00021736	0.00017658	5.4279e-05	826.77	1.9389e-06	1.7169e-06	870.05	172.59	1.9786e-06	2.0891e-06	216.24	62.627	48.419	13.787	1.6607e-06	19.391	0.00013088	5.488e-05	1.5133e-05	837.55	8.1338e-07	5.8733e-07	885.7	176.32	8.0982e-07	5.7148e-07	222.27	62.814	49.826	14.334	6.8708e-07	20.334	191.226	225.824	234.877	135.021	272.353	270.171	134.925	141.743	261.708	264.434	141.998	146.530	148.488	155.497	269.361	155.021	-8191	255	
2046.156	1	1	0	0	0.12141	0.1862	0.10348	0.20027	0.066337	0.24202	0.16094	0.15973	0.12259	0.26514	0.295	0.25667	0.17017	0.043415	0.29483	0.16841	-2.5812	-3.1167	-3.1396	-3.025	-3.3563	-3.2188	-3.2313	-3.5146	-3.2771	-3.2729	-3.2271	-2.8896	-3.4229	-3.3292	-2.9625	-3.5854	397.629	311.221	286.809	394.639	257.741	134.617	385.309	445.773	250.839	360.683	157.916	213.567	354.395	464.808	433.976	351.819	0.00022768	0.0001375	8.7019e-05	826.83	3.0659e-06	1.2618e-06	870.25	172.68	2.3711e-06	2.3507e-06	216.72	61.985	48.376	13.832	2.1889e-06	19.507	0.00013349	4.6071e-05	1.4387e-05	837.5	8.1618e-07	5.7975e-07	885.81	176.39	7.9522e-07	4.7483e-07	222.15	62.69	49.798	14.338	6.9631e-07	20.358	193.326	228.771	236.342	135.080	272.007	314.442	134.742	142.342	264.036	318.905	142.048	147.072	148.905	155.798	262.197	154.899	-8191	255	
2046.252	1	1	0	0	0.14046	0.076762	0.22287	0.26417	0.09803	0.33279	0.054314	0.10021	0.1255	0.13838	0.074484	0.22541	0.1226	0.11751	0.22394	0.2439	-2.6021	-3.1583	-3.2854	-3.1167	-3.3375	-3.3229	-2.9729	-3.4042	-3.1562	-3.2	-3.4083	-3.0354	-3.2687	-3.3312	-3.1042	-3.4792	273.152	316.005	468.605	475.622	241.650	360.425	397.144	334.054	472.782	168.028	380.123	189.217	219.000	149.276	281.898	362.407	0.00020786	0.00015599	5.1143e-05	822.66	2.7792e-06	2.2866e-06	868.46	172.47	1.9869e-06	2.167e-06	216.62	63.484	48.422	13.778	3.182e-06	19.513	0.00012658	5.5793e-05	1.4432e-05	837.55	9.1715e-07	5.8956e-07	886.02	176.72	7.4169e-07	5.3808e-07	222.28	63.355	49.819	14.35	7.45e-07	20.357	190.296	202.210	222.077	135.028	249.083	292.700	134.840	142.121	263.441	253.033	141.646	147.287	148.824	155.482	284.130	155.473	-8191	255	
2046.325	1	1	0	0	0.061586	0.15965	0.3388	0.29639	0.27621	0.23859	0.17885	0.12709	0.024433	0.14882	0.098276	0.054554	0.12203	0.14472	0.18713	0.16804	-2.7917	-3.0396	-3.3625	-3.0271	-3.2354	-3.2979	-3.0333	-3.5354	-3.2417	-3.1667	-3.4417	-3.1667	-3.2229	-3.2458	-2.7792	-3.2771	205.365	141.892	185.978	422.213	226.391	282.853	285.387	432.695	384.893	388.835	310.581	483.297	304.702	422.568	162.154	191.459	0.00020429	0.00028017	5.4762e-05	825.29	2.7578e-06	2.8997e-06	870.17	172.94	2.8263e-06	3.1125e-06	216.74	62.074	48.157	13.8	2.1471e-06	19.572	0.00012289	5.6031e-05	1.216e-05	838.7	8.5305e-07	5.9536e-07	886.39	176.73	8.7065e-07	6.2003e-07	222.4	62.805	49.724	14.349	7.5381e-07	20.351	191.164	204.234	230.550	134.830	247.381	283.027	134.840	142.147	269.367	294.237	141.681	146.531	148.898	155.533	256.628	154.941	-8191	255	
2046.444	1	1	0	0	0.14384	0.16201	0.24062	0.090514	0.34718	0.19126	0.085696	0.09662	0.093277	0.18226	0.073756	0.042036	0.10694	0.041344	0.079065	0.045168	-2.6146	-2.9083	-3.4437	-3.2417	-3.3792	-3.375	-3.0458	-3.2021	-3.3667	-3.0438	-3.4042	-2.9604	-3.2729	-3.4313	-2.9417	-3.3604	388.488	359.113	403.987	383.039	130.580	294.009	289.339	392.505	353.143	188.161	161.456	193.008	465.161	136.232	174.656	374.889	0.00022136	0.00015831	7.5878e-05	823.6	1.955e-06	1.9622e-06	872.84	172.78	2.6353e-06	1.9678e-06	216.91	62.127	48.477	13.803	1.4345e-06	19.347	0.00013009	6.369e-05	1.1091e-05	838.35	9.0593e-07	5.7306e-07	886.91	176.61	7.4859e-07	6.864e-07	222.27	63.009	49.791	14.366	6.9673e-07	20.268	188.678	199.431	232.248	134.797	272.665	269.469	134.824	142.448	267.684	281.496	141.769	145.833	149.218	155.769	275.792	155.366	-8191	255	
2046.540	1	1	0	0	0.1015	0.2295	0.25276	0.23277	0.27293	0.26956	0.46359	0.15536	0.01579	0.11055	0.18841	0.080691	0.27134	0.37552	0.1783	0.2333	-2.7396	-2.9333	-3.3604	-3.0729	-3.3667	-3.4521	-3.0187	-3.3083	-3.2521	-3.0417	-3.3812	-3.0479	-3.2146	-3.3208	-2.8333	-3.2125	301.289	270.509	148.543	434.032	373.242	183.080	390.051	359.560	296.473	403.679	334.540	252.227	204.912	469.712	313.608	432.790	0.00021719	0.00020448	9.67e-05	825.19	2.5711e-06	1.8023e-06	870.35	173.28	2.2472e-06	1.5054e-06	218.06	62.486	48.888	13.764	2.1938e-06	19.445	0.00012265	5.6706e-05	1.4142e-05	839.07	9.3799e-07	5.7573e-07	886.3	177.17	7.644e-07	5.2026e-07	222.77	63.167	49.938	14.312	7.3954e-07	20.38	191.477	202.999	228.462	134.899	270.365	321.035	134.921	141.976	252.088	265.921	141.669	146.945	148.641	155.623	272.395	155.050	-8191	255	
2046.636	1	1	0	0	0.23123	0.25611	0.054095	0.098273	0.19571	0.30428	0.13838	0.055218	0.16605	0.10087	0.21303	0.16356	0.19731	0.08507	0.35674	0.066753	-2.9646	-2.7792	-3.2625	-3.1667	-3.1208	-3.4604	-3.125	-3.1	-3.3688	-2.8917	-3.4333	-2.9771	-2.9062	-3.3063	-3.0542	-3.1312	126.359	211.907	404.407	124.604	226.261	391.528	426.504	423.074	189.542	168.918	174.748	379.452	221.975	327.714	208.451	419.631	0.00021665	0.00023565	7.3076e-05	825.04	2.1999e-06	2.3063e-06	869.8	172.69	2.8313e-06	3.4469e-06	217.14	62.268	48.679	13.714	2.3581e-06	19.452	0.00012654	5.9801e-05	1.3196e-05	838.55	9.1595e-07	4.4462e-07	885.87	176.66	7.1939e-07	6.4721e-07	222.58	62.987	49.801	14.338	7.3828e-07	20.342	188.231	211.974	234.433	135.128	259.211	299.017	134.816	142.134	278.253	294.458	141.881	146.971	148.149	155.565	264.922	154.765	-8191	255	
2046.733	1	1	0	0	0.34802	0.074303	0.26379	0.13485	0.15928	0.11238	0.24856	0.11966	0.13886	0.10955	0.29063	0.23973	0.035781	0.15453	0.17892	0.17017	-2.9417	-2.9146	-3.4208	-3.3792	-2.9083	-3.3625	-3.35	-3.5042	-3.1375	-2.925	-3.4188	-3.0583	-2.9313	-3.4333	-3.2729	-3.1292	340.982	315.985	177.543	312.155	299.824	178.797	409.808	385.701	473.784	221.201	152.721	283.216	429.831	403.589	316.666	277.586	0.00022365	0.00018071	4.2162e-05	826.33	2.6429e-06	2.7015e-06	869.64	172.59	2.1038e-06	2.8343e-06	217.83	61.733	48.286	13.872	1.8915e-06	19.45	0.00012609	6.0912e-05	1.2082e-05	838	9.7325e-07	5.3604e-07	886.37	176.47	7.4453e-07	6.8239e-07	222.19	62.692	49.802	14.336	7.1604e-07	20.33	188.668	202.988	232.143	134.929	264.995	259.455	134.843	142.244	276.889	283.329	141.712	147.561	148.578	155.676	281.632	155.023	-8191	255	
2046.853	1	1	0	0	0.2745	0.27517	0.22122	0.13562	0.21292	0.029352	0.042243	0.069185	0.026053	0.19655	0.12947	0.10446	0.33608	0.15293	0.10009	0.28946	-2.9938	-2.9979	-3.2146	-3.3042	-2.9729	-3.4437	-3.2104	-3.1417	-3.4167	-3.1063	-3.4062	-3.2896	-3.0062	-3.3229	-3.1604	-2.9833	174.651	275.654	430.439	131.801	375.567	397.558	465.871	280.463	379.434	156.431	230.348	395.498	368.563	480.343	250.072	395.041	0.00022177	0.00030925	8.0144e-05	823.94	3.3605e-06	2.4223e-06	868.4	173.3	2.1668e-06	2.8051e-06	216.55	62.337	48.382	13.795	1.7301e-06	19.422	0.00012372	6.6031e-05	1.4832e-05	838.22	1.0265e-06	5.1374e-07	885.78	176.74	7.5994e-07	5.7104e-07	222.4	62.939	49.807	14.36	6.6693e-07	20.273	188.115	221.114	223.203	134.955	271.283	268.056	134.715	142.352	281.761	290.149	141.552	146.818	148.580	155.847	280.861	155.059	-8191	255	
2046.925	1	1	0	0	0.24009	0.20833	0.11491	0.28755	0.13699	0.10239	0.090799	0.26282	0.15393	0.10912	0.35102	0.25055	0.083821	0.28604	0.13645	0.0035377	-2.9167	-2.9146	-3.1917	-3.3833	-2.85	-3.275	-3.3187	-3.0354	-3.4396	-3.1896	-3.1458	-3.3479	-2.9958	-3.3021	-3.3167	-3.0229	421.996	131.323	278.797	445.326	400.660	452.785	124.429	416.824	260.003	265.816	341.862	399.288	477.644	431.998	160.002	212.442	0.00020933	0.00030505	3.9485e-05	824.52	2.4394e-06	2.7122e-06	871.37	173.71	2.4432e-06	3.1481e-06	215.98	62.045	48.783	13.783	2.1426e-06	19.484	0.00012477	6.2777e-05	1.4543e-05	837.63	1.0542e-06	5.6458e-07	886.34	176.69	6.8654e-07	6.2003e-07	221.76	62.985	49.806	14.317	6.4972e-07	20.283	188.855	190.355	196.344	135.026	250.320	270.893	134.652	142.209	277.022	285.369	141.540	146.649	148.766	155.764	286.343	155.067	-8191	255	
2047.021	1	1	0	0	0.14599	0.081049	0.19111	0.043329	0.11123	0.028567	0.040588	0.38813	0.16715	0.093762	0.11181	0.17738	0.26623	0.23164	0.020926	0.13639	-3.0042	-3.0208	-3.0438	-3.3708	-2.9313	-3.3958	-3.4375	-2.9958	-3.2896	-3.2396	-3.2292	-3.6458	-2.7687	-3.3708	-3.2292	-2.9	278.468	296.543	239.197	182.265	262.960	310.792	271.987	382.091	192.625	341.979	352.086	424.206	462.711	415.688	174.757	367.277	0.00020818	0.00029631	5.3801e-05	822.99	2.9903e-06	1.6616e-06	870.43	173.65	2.7483e-06	2.1238e-06	217.11	62.274	48.574	13.803	1.826e-06	19.479	0.00012633	6.4801e-05	1.7839e-05	837.9	1.0458e-06	4.6603e-07	887.48	176.87	7.1615e-07	6.187e-07	222.44	63.063	49.925	14.293	6.7448e-07	20.335	188.899	200.163	220.688	134.895	279.264	264.780	134.766	142.000	271.880	290.236	141.770	146.387	148.328	155.847	297.341	155.587	-8191	255	
2047.142	1	1	0	0	0.3361	0.22666	0.17582	0.15085	0.24358	0.23072	0.18802	0.32131	0.16893	0.038391	0.20377	0.12603	0.17902	0.14659	0.10156	0.22507	-2.8896	-3.1771	-3.1375	-3.5083	-3.1021	-3.3771	-3.4708	-2.9583	-3.2229	-3.1375	-3.1083	-3.575	-2.9542	-3.2104	-3.2521	-2.8937	248.847	144.746	364.525	424.460	454.777	328.163	193.882	371.515	180.468	240.569	431.764	288.932	440.630	348.859	330.366	402.232	0.00022074	0.00031985	6.736e-05	828.33	1.9779e-06	3.3603e-06	864.6	173.2	2.6779e-06	2.3473e-06	216.03	61.301	48.114	13.772	2.3793e-06	19.388	0.000126	6.5674e-05	1.6425e-05	838.05	1.0277e-06	6.5645e-07	885.25	176.75	7.713e-07	5.5946e-07	221.62	62.74	49.738	14.317	6.7448e-07	20.345	190.075	196.544	242.952	134.747	270.402	281.149	134.843	142.124	284.341	278.555	141.583	147.134	148.537	155.726	277.537	155.207	-8191	255	
2047.236	1	1	0	0	0.076123	0.093161	0.15582	0.053595	0.16033	0.13987	0.092968	0.092101	0.067781	0.17592	0.077218	0.063703	0.061349	0.10022	0.092277	0.18973	-2.8958	-3.0604	-2.9625	-3.525	-3.0062	-3.3292	-3.5708	-2.8646	-3.3042	-3.2979	-3.1312	-3.4458	-3.2125	-3.0167	-3.4542	-3.0125	420.388	466.462	329.107	270.427	446.619	463.135	421.904	222.812	170.501	219.645	360.107	151.333	195.403	331.733	168.412	475.111	0.00020259	0.00022537	5.2064e-05	829.47	2.5217e-06	1.1532e-06	870.46	173.06	1.5916e-06	2.2929e-06	217.27	61.973	48.232	13.708	1.397e-06	19.461	0.00012307	5.0793e-05	1.6748e-05	840.25	9.7245e-07	5.3604e-07	886.83	176.43	7.7738e-07	5.0957e-07	222.18	62.796	49.806	14.316	6.7113e-07	20.319	190.405	206.421	215.718	134.883	275.046	236.900	134.531	142.231	285.603	267.012	142.108	146.866	148.663	155.409	294.808	155.006	-8191	255	
2047.334	1	1	0	0	0.1099	0.023545	0.17665	0.063798	0.074648	0.25456	0.10021	0.054488	0.14408	0.062176	0.10042	0.1071	0.076784	0.073179	0.25192	0.12234	-2.8271	-3.1562	-3.0542	-3.4562	-3.1063	-3.2625	-3.4562	-2.9146	-3.2125	-3.3125	-3	-3.5563	-3.0458	-3.1479	-3.5187	-3.0958	308.830	432.364	412.921	303.481	283.074	283.967	342.204	457.866	253.249	464.165	277.897	422.669	251.440	384.268	198.571	443.738	0.0002281	0.00021563	6.0868e-05	827.55	2.9671e-06	1.9531e-06	867.05	172.6	2.4856e-06	2.2376e-06	216.41	61.089	48.489	13.825	2.2327e-06	19.355	0.00013054	5.2975e-05	1.6113e-05	839.65	9.9088e-07	6.0695e-07	886.78	176.58	8.1347e-07	5.1759e-07	222.25	62.777	49.729	14.354	6.3713e-07	20.337	190.256	215.543	230.780	134.966	268.069	268.369	134.730	142.070	272.142	290.354	141.754	145.560	148.537	155.660	273.944	154.945	-8191	255	
2047.453	1	1	0	0	0.09122	0.2628	0.087638	0.20758	0.090935	0.32793	0.33632	0.18856	0.069308	0.26053	0.19638	0.069718	0.08734	0.063663	0.21346	0.063609	-2.6271	-3.2812	-3.0312	-3.4125	-3.1437	-3.1604	-3.6375	-3.0771	-3.175	-3.325	-2.8958	-3.3396	-3.075	-3	-3.4688	-3.1146	237.587	376.800	424.051	377.458	231.910	390.449	401.966	393.283	201.318	157.675	415.371	383.300	472.158	145.598	412.308	340.439	0.00021556	0.00023245	6.6969e-05	831.73	1.6397e-06	2.069e-06	871.26	173	2.072e-06	2.3126e-06	216.6	62.351	48.714	13.872	1.6687e-06	19.38	0.00012835	5.2023e-05	1.5411e-05	840.48	8.0096e-07	5.851e-07	887.42	176.96	7.3074e-07	5.2783e-07	222.5	63.241	49.891	14.397	5.855e-07	20.339	189.436	224.352	207.950	135.055	271.392	260.359	134.774	142.025	254.072	291.386	141.722	146.338	148.713	155.792	258.178	154.827	-8191	255	
2047.549	1	1	0	0	0.068903	0.2459	0.094668	0.33493	0.20457	0.26563	0.077445	0.11496	0.057173	0.1047	0.064777	0.15165	0.24722	0.17612	0.1569	0.19515	-2.7104	-3.1625	-2.925	-3.3958	-3.0979	-3.0396	-3.4833	-3.1437	-3.1	-3.4042	-2.9292	-3.4396	-3.3396	-3.0292	-3.3792	-3.1729	319.223	414.482	275.454	458.056	451.649	272.013	307.089	371.449	482.079	431.871	274.614	419.341	425.095	449.920	247.766	163.493	0.00021644	0.00023693	5.0992e-05	825.37	2.1785e-06	2.5666e-06	873.92	173.9	2.5544e-06	3.0464e-06	217.2	61.884	48.625	13.854	2.6069e-06	19.494	0.00012619	5.488e-05	1.6592e-05	838.96	8.9151e-07	5.793e-07	889.1	177.22	8.5483e-07	5.6881e-07	222.91	62.681	49.987	14.381	6.4007e-07	20.369	189.750	191.459	212.804	134.758	260.278	274.730	135.010	142.325	253.948	256.342	141.731	147.041	148.507	155.525	273.376	155.162	-8191	255	
2047.621	1	1	0	0	0.14937	0.088666	0.24279	0.28541	0.19571	0.070809	0.20147	0.11915	0.20314	0.30849	0.24665	0.091039	0.26801	0.16559	0.062933	0.15491	-2.7188	-3.4896	-2.6833	-3.3854	-3.2104	-2.9854	-3.5146	-3.1042	-2.9521	-3.4958	-2.9562	-3.325	-3.2896	-2.8583	-3.3604	-3.2021	334.773	414.867	236.747	420.221	302.514	235.455	429.510	428.504	449.786	307.295	135.534	282.663	231.669	425.070	423.086	219.931	0.00020996	0.00025358	4.6251e-05	826.86	2.9975e-06	3.0797e-06	873.41	173.06	2.8185e-06	2.99e-06	217.1	62.267	49.006	13.856	2.0593e-06	19.518	0.0001314	4.9523e-05	1.6124e-05	839.87	9.2757e-07	6.7206e-07	887.68	177.11	8.4834e-07	4.2271e-07	222.77	63.082	50.075	14.386	6.7952e-07	20.328	189.784	226.824	207.634	135.167	268.253	281.682	134.753	142.351	267.348	271.264	141.626	147.182	149.384	155.361	272.893	155.063	-8191	255	
2047.741	1	1	0	0	0.18019	0.29503	0.16312	0.22849	0.21567	0.32667	0.16776	0.12331	0.11607	0.061425	0.1851	0.2584	0.088319	0.25788	0.25039	0.3321	-2.6146	-3.4083	-2.9375	-3.3104	-3.5021	-3.1646	-3.4313	-3.2562	-2.95	-3.4562	-3.2625	-3.1958	-3.4062	-2.8646	-3.4062	-3.0438	220.428	190.852	301.093	474.879	140.648	394.988	152.921	200.918	202.319	298.933	177.078	188.364	468.547	373.784	291.192	453.684	0.00021773	0.00021561	6.3342e-05	826.7	2.5804e-06	1.8441e-06	871.64	173.51	2.8096e-06	2.8475e-06	215.94	63.291	48.363	13.753	1.9603e-06	19.581	0.0001257	4.5079e-05	1.8106e-05	838.99	8.6106e-07	5.8108e-07	887.25	177.26	9.1566e-07	4.1558e-07	222.61	63.239	49.852	14.371	5.5864e-07	20.41	190.187	209.141	242.386	134.755	260.436	295.007	134.950	141.957	258.535	289.394	141.737	146.585	148.709	155.416	280.734	155.109	-8191	255	
2047.837	1	1	0	0	0.10737	0.22962	0.43065	0.06198	0.096222	0.093393	0.20043	0.043972	0.26365	0.14807	0.428	0.12587	0.044998	0.063877	0.045477	0.11232	-2.4729	-3.2729	-3.1125	-3.15	-3.4042	-3.0563	-3.2458	-3.4021	-3.1875	-3.5792	-3.1167	-3.0896	-3.4562	-3.2375	-3.4479	-3.4813	314.944	354.599	137.114	216.608	150.677	398.484	429.073	380.998	436.377	196.244	387.501	335.127	483.985	367.491	185.822	164.619	0.0002227	0.0001964	7.8873e-05	828.29	2.8125e-06	2.9614e-06	872.96	173.02	2.4553e-06	2.2093e-06	217.31	62.419	48.722	13.985	1.6907e-06	19.638	0.00013009	4.369e-05	1.5322e-05	840.28	8.4343e-07	5.9536e-07	889.06	177.2	7.6602e-07	4.2004e-07	223.21	63.687	50.069	14.426	5.3808e-07	20.429	191.023	202.609	216.692	134.830	277.669	283.970	134.730	142.163	278.161	293.457	141.668	147.089	148.627	155.586	282.386	155.110	-8191	255	
2047.934	1	1	0	0	0.1881	0.19703	0.003399	0.06141	0.17079	0.14112	0.073585	0.11104	0.19649	0.22914	0.23994	0.20391	0.2047	0.16416	0.19263	0.21765	-2.5771	-3.4979	-3.1937	-3.2125	-3.5042	-2.9875	-3.2125	-3.2375	-3.0917	-3.2396	-3.2792	-2.9292	-3.3146	-3.0875	-3.15	-3.4333	296.337	480.712	333.910	171.755	167.193	367.523	125.435	249.347	287.892	255.537	143.146	280.566	431.371	470.940	221.915	348.779	0.00022411	0.00030813	7.9959e-05	829.38	2.8043e-06	1.7017e-06	872.47	173.28	2.3874e-06	2.2164e-06	217.75	62.523	48.657	13.801	1.874e-06	19.462	0.00012477	4.8174e-05	1.4521e-05	840.72	7.7171e-07	5.2489e-07	888.09	177.12	7.5345e-07	4.3073e-07	222.88	62.837	50.15	14.392	6.472e-07	20.412	191.706	235.977	207.593	135.119	265.396	304.198	134.722	142.274	271.346	296.117	141.660	146.586	148.630	155.420	300.961	154.989	-8191	255	
2048.030	1	1	0	0	0.1956	0.12975	0.24766	0.096803	0.27658	0.20107	0.062595	0.066074	0.19108	0.18999	0.2135	0.24426	0.42271	0.21793	0.068379	0.16983	-2.475	-3.4896	-3.2208	-3.1667	-3.4458	-3.2313	-3.2979	-3.3792	-2.8187	-3.2646	-3.2646	-2.7812	-3.3479	-3.1104	-3.0354	-3.4271	140.140	230.001	318.530	419.251	125.544	420.779	361.206	392.710	149.605	166.414	447.854	169.994	275.724	226.849	390.596	379.171	0.0002232	0.0002023	7.2088e-05	828.05	2.0938e-06	1.652e-06	873.05	173.65	2.5187e-06	2.9405e-06	217.39	62.123	48.354	13.808	1.7661e-06	19.684	0.00013028	4.9682e-05	1.3095e-05	839.47	8.2941e-07	6.3683e-07	887.82	177.23	8.451e-07	4.9264e-07	222.9	62.934	50.031	14.449	6.6315e-07	20.415	187.890	203.111	237.561	134.847	255.807	259.697	134.753	141.922	272.796	294.756	141.831	146.975	148.909	155.620	252.560	155.073	-8191	255	
2048.149	1	1	0	0	0.19825	0.070206	0.14406	0.16247	0.15159	0.21272	0.17021	0.20498	0.23022	0.29202	0.14449	0.0261	0.27821	0.17901	0.22305	0.094847	-2.6437	-3.2917	-3.2021	-3	-3.2687	-3.2104	-3.1708	-3.4313	-3.0354	-3.3604	-3.2792	-2.8458	-3.3875	-3.3208	-2.9729	-3.5187	292.713	141.063	126.264	223.542	461.557	431.341	429.377	392.321	373.383	351.000	399.020	311.503	178.620	472.625	383.205	452.172	0.00021561	0.00021787	7.3096e-05	830.05	3.069e-06	2.233e-06	877.22	173.89	2.5564e-06	3.4229e-06	217.85	62.437	48.606	13.802	2.2703e-06	19.557	0.00013223	5.0753e-05	1.1425e-05	840.47	9.0994e-07	5.133e-07	890.13	177.21	8.2117e-07	5.0422e-07	223.32	63.241	50.024	14.403	7.1688e-07	20.438	185.977	221.025	215.832	134.770	266.247	280.255	134.758	142.018	258.484	257.814	141.602	146.813	148.099	155.356	277.957	155.016	-8191	255	
2048.222	1	1	0	0	0.20473	0.26154	0.16235	0.27204	0.088564	0.036328	0.17113	0.15613	0.21831	0.15456	0.29049	0.097263	0.080772	0.18921	0.034405	0.108	-2.6542	-3.3021	-3.2854	-3.1104	-3.3333	-3.1854	-3.1042	-3.6354	-3.0333	-3.3167	-3.4792	-2.7854	-3.3625	-3.1625	-3.1771	-3.5792	434.212	374.593	234.101	412.583	139.088	281.274	397.673	444.918	262.558	428.614	392.794	141.210	448.749	170.250	283.150	381.579	0.00021524	0.00029244	5.8341e-05	828.31	2.5664e-06	3.5342e-06	873.84	173.23	2.5969e-06	2.3636e-06	217.71	62.773	48.423	13.897	1.9047e-06	19.579	0.00013237	4.7737e-05	1.4231e-05	840.87	8.5305e-07	5.628e-07	888.54	177.18	7.9928e-07	5.1892e-07	222.77	63.059	49.897	14.413	6.791e-07	20.429	189.652	217.112	202.786	135.134	255.189	266.483	134.775	142.276	273.052	285.792	142.031	147.545	149.317	155.611	289.410	154.978	-8191	255	
2048.316	1	1	0	0	0.28242	0.26151	0.10107	0.2885	0.043483	0.25049	0.28141	0.086149	0.066503	0.16077	0.15367	0.12233	0.30199	0.11056	0.086422	0.10372	-2.6	-3.0854	-3.2875	-3.1146	-3.0479	-3.1979	-2.9771	-3.3688	-3.2167	-3.0167	-3.2521	-2.8167	-3.1396	-3.1854	-2.7729	-3.4292	273.859	463.014	284.197	430.378	394.302	391.814	401.953	481.031	131.563	148.723	200.714	468.824	192.801	136.365	305.810	168.393	0.00021083	0.00023184	8.1107e-05	828.57	2.1528e-06	2.2663e-06	872.46	173.78	2.2804e-06	6.2587e-07	217.11	62.822	48.406	13.858	1.4736e-06	19.577	0.0001247	5.7182e-05	1.1904e-05	839.49	8.4343e-07	5.4496e-07	888.5	177.29	7.6724e-07	5.55e-07	222.91	63.274	49.785	14.394	6.8708e-07	20.386	189.626	219.751	205.462	135.104	253.479	301.258	134.859	141.913	266.234	312.305	141.901	146.193	148.725	155.640	279.398	155.110	-8191	255	
2048.414	1	1	0	0	0.069848	0.097189	0.048323	0.10177	0.26121	0.28015	0.32639	0.11062	0.22346	0.14373	0.27207	0.13094	0.26447	0.14669	0.33895	0.073865	-2.6542	-2.8	-3.425	-2.9938	-3.2479	-3.3271	-2.925	-3.5354	-3.2083	-3.0187	-3.5042	-3.0333	-3.225	-3.3312	-2.9625	-3.2458	263.383	341.297	430.138	448.067	432.729	310.271	425.160	340.504	433.613	480.717	379.458	478.237	416.337	136.829	346.207	289.135	0.00020393	0.00023136	7.6433e-05	823.49	2.3727e-06	3.0042e-06	873.04	172.67	2.5199e-06	2.3246e-06	217.02	62.836	48.729	13.817	1.578e-06	19.515	0.00012582	5.8253e-05	1.1625e-05	837.32	8.4623e-07	5.5254e-07	886.65	176.72	7.9319e-07	5.7505e-07	223.15	63.214	49.964	14.387	6.3587e-07	20.383	192.024	212.452	239.913	134.947	265.718	293.302	134.771	142.212	273.417	260.462	141.544	146.769	148.725	155.451	255.951	155.316	-8191	255	
2048.533	1	1	0	0	0.19659	0.26321	0.25068	0.098311	0.11088	0.21961	0.20105	0.15631	0.21022	0.17656	0.15626	0.18143	0.21845	0.10431	0.14188	0.2074	-2.8542	-2.8896	-3.325	-3.0229	-3.2708	-3.3625	-3.0687	-3.3854	-3.3396	-3.0271	-3.5625	-3.2521	-3.0333	-3.3958	-2.975	-3.4604	182.193	234.999	392.425	395.276	426.761	138.340	298.755	413.878	259.790	345.549	411.477	139.588	167.651	190.654	277.950	214.967	0.00022753	0.00023358	5.2104e-05	824.15	2.8471e-06	2.1755e-06	871.67	173.19	2.6885e-06	2.2317e-06	216.38	62.389	48.757	13.87	2.9183e-06	19.512	0.00012791	5.9166e-05	1.324e-05	838.22	9.2316e-07	4.9546e-07	886.55	177.07	7.3318e-07	6.4409e-07	222.71	63.155	50.03	14.421	7.622e-07	20.387	187.783	212.416	235.414	134.915	257.885	284.532	134.877	142.283	275.241	278.156	141.663	146.864	149.118	155.799	281.272	154.808	-8191	255	
2048.629	1	1	0	0	0.10663	0.32426	0.074136	0.21089	0.14123	0.19352	0.26477	0.35018	0.086819	0.30571	0.1779	0.20224	0.25966	0.29302	0.17729	0.22678	-2.8958	-2.9292	-3.2958	-3.1333	-3.1937	-3.4437	-3.0687	-3.2521	-3.2104	-2.9417	-3.3708	-3.0854	-3.0375	-3.4521	-2.875	-3.4146	194.365	161.640	376.300	377.301	233.510	386.241	410.053	419.038	442.194	358.859	251.821	352.899	343.745	418.722	129.804	461.231	0.00021993	0.00013794	7.67e-05	827.64	2.9775e-06	1.4955e-06	873.34	173.84	1.9702e-06	1.414e-06	217.23	62.109	48.801	13.932	2.2261e-06	19.523	0.00013116	5.8253e-05	1.2416e-05	839.42	9.5762e-07	4.5309e-07	886.02	177.34	7.2344e-07	5.7193e-07	223.03	63.085	50.127	14.43	7.1184e-07	20.411	190.292	205.901	219.890	135.023	267.754	280.471	134.879	142.226	262.428	292.583	141.557	147.814	148.615	155.170	256.717	155.355	-8191	255	
2048.725	1	1	0	0	0.29519	0.31883	0.31448	0.13229	0.14576	0.13708	0.41819	0.15062	0.18882	0.18298	0.099254	0.18368	0.22884	0.27648	0.15821	0.14384	-2.8604	-3.1042	-3.325	-3.5	-3.0458	-3.5146	-3.2292	-3.25	-3.3854	-2.9917	-3.4458	-3.1958	-2.7917	-3.3271	-3.0396	-3.15	413.103	477.913	475.473	443.791	366.464	152.914	467.901	248.551	367.785	306.412	467.062	313.408	324.693	402.220	456.360	282.342	0.00021297	0.00032109	7.4616e-05	824.05	2.4313e-06	2.1252e-06	872.8	172.9	2.097e-06	2.367e-06	218.02	61.626	48.664	13.852	2.0625e-06	19.71	0.0001224	6.3769e-05	1.2683e-05	837.15	9.1114e-07	4.7985e-07	886.54	176.94	6.1193e-07	6.2983e-07	223.19	62.913	50.201	14.408	6.3755e-07	20.458	189.998	229.992	236.444	134.871	265.270	291.735	134.842	142.066	269.728	289.879	141.795	145.936	148.692	155.330	257.765	155.192	-8191	255	
2048.822	1	1	0	0	0.19435	0.12381	0.10058	0.12733	0.087933	0.086146	0.29619	0.24287	0.054086	0.25263	0.10918	0.16896	0.2872	0.068545	0.10895	0.12825	-2.7604	-2.9271	-3.3083	-3.2875	-2.8896	-3.3646	-3.2917	-3.3479	-3.3875	-3.0792	-3.2708	-3.2438	-2.8771	-3.2521	-3.075	-3.0354	440.058	140.382	168.403	243.237	326.664	274.112	413.196	346.814	446.712	188.081	477.893	240.534	271.848	264.178	236.228	316.897	0.00021231	0.00018165	6.8941e-05	824.14	3.2216e-06	2.2842e-06	872.04	172.92	2.8908e-06	2.425e-06	217.2	61.133	48.844	13.995	2.165e-06	19.533	0.00012247	5.5317e-05	1.3775e-05	836.78	9.5322e-07	4.3704e-07	884.78	176.82	7.6643e-07	6.2983e-07	223.14	62.809	50.001	14.408	6.493e-07	20.429	191.358	229.389	251.144	134.998	257.587	303.664	134.829	142.154	267.337	296.700	142.103	147.835	148.978	155.445	266.497	155.113	-8191	255	
2048.918	1	1	0	0	0.049589	0.20997	0.3514	0.13109	0.18013	0.12621	0.33237	0.082882	0.15364	0.099626	0.24899	0.08636	0.16077	0.024693	0.23213	0.21361	-2.9417	-3.0125	-3.1771	-3.3854	-2.9708	-3.4292	-3.2313	-3.0687	-3.4521	-2.9771	-3.175	-3.3479	-2.9583	-3.4938	-3.2229	-3.05	146.005	135.354	321.168	462.222	408.630	214.936	349.962	416.307	130.075	158.764	441.846	129.314	192.675	413.901	465.147	370.338	0.0002205	0.00027785	4.6032e-05	827.13	2.8417e-06	2.4092e-06	870.67	173.83	2.7171e-06	1.8004e-06	217.33	62.189	48.811	13.833	2.3541e-06	19.571	0.00012651	5.7856e-05	1.6269e-05	837.98	8.6707e-07	4.7718e-07	885.61	177.12	7.3439e-07	6.1068e-07	222.33	62.888	50.003	14.397	6.7784e-07	20.395	190.439	205.967	224.976	134.943	257.245	275.643	134.928	142.337	263.271	270.926	141.881	146.913	149.082	155.901	263.785	155.056	-8191	255	
2049.014	1	1	0	0	0.17693	0.15308	0.054181	0.073028	0.24484	0.11278	0.16633	0.15067	0.075257	0.098305	0.21156	0.21831	0.10175	0.13886	0.21136	0.030844	-2.8917	-3.1562	-3.1021	-3.4396	-3.0854	-3.2146	-3.2771	-2.9208	-3.4	-3.1771	-3.1042	-3.3146	-2.8958	-3.375	-3.3646	-2.9583	169.285	164.091	168.134	147.246	390.497	189.729	127.380	198.142	157.528	269.342	431.236	481.206	335.414	465.824	288.412	180.007	0.00021788	0.0002907	6.6981e-05	826.38	3.1575e-06	2.0105e-06	877.11	173.77	1.9362e-06	2.2265e-06	218.09	63.019	48.491	13.886	2.0301e-06	19.538	0.00012275	6.3809e-05	1.6013e-05	838.35	9.9008e-07	3.8397e-07	888.92	177.39	7.0195e-07	5.6213e-07	223.06	63.226	50.004	14.435	5.8676e-07	20.449	190.154	207.508	218.765	134.907	272.949	287.298	134.787	142.386	269.647	282.372	142.076	146.615	148.903	155.558	258.295	155.000	-8191	255	
2049.135	1	1	0	0	0.076549	0.26169	0.12911	0.20632	0.1193	0.26134	0.094162	0.07293	0.24216	0.15043	0.12437	0.2625	0.31595	0.14842	0.05552	0.18193	-3.1604	-2.9479	-2.9062	-3.5771	-2.9938	-3.2521	-3.4896	-3.225	-3.3854	-3.2083	-3.1604	-3.3604	-2.8688	-3.2646	-3.4333	-2.8875	333.344	410.980	149.624	441.782	135.896	278.902	468.500	263.429	377.331	429.354	411.932	370.057	339.821	191.268	423.058	280.347	0.00021663	0.00018726	5.2721e-05	825.83	2.8727e-06	2.5723e-06	871.03	173.35	1.9311e-06	2.3586e-06	217.64	62.17	48.692	13.838	2.071e-06	19.563	0.00012272	5.611e-05	1.4799e-05	838.59	9.3599e-07	5.0795e-07	885.96	177.48	6.9344e-07	5.5144e-07	223.24	62.949	50.109	14.374	6.451e-07	20.448	190.522	202.047	262.339	135.155	243.105	291.030	134.825	142.144	278.707	294.597	141.836	146.934	148.572	155.812	300.426	155.145	-8191	255	
2049.229	1	1	0	0	0.11747	0.21086	0.068552	0.18734	0.26069	0.16512	0.26361	0.15349	0.052102	0.13535	0.13127	0.15237	0.090076	0.21825	0.22787	0.14095	-2.8479	-3.1479	-2.9188	-3.5062	-2.9708	-3.1813	-3.3896	-3.0083	-3.1792	-3.0896	-2.9479	-3.3417	-3.1271	-3.1896	-3.1958	-2.8312	288.507	413.491	312.998	418.799	357.605	222.920	432.520	471.776	332.258	464.456	346.855	317.868	376.873	347.518	401.362	386.935	0.00021112	0.00019529	7.0786e-05	822.69	2.7588e-06	2.7994e-06	868.85	173.62	2.6598e-06	1.8492e-06	217.87	62.286	48.869	13.877	1.7169e-06	19.419	0.00012505	4.9206e-05	1.5634e-05	837.12	9.2116e-07	5.2266e-07	887.05	177.15	7.4413e-07	5.0734e-07	223.1	63.028	50.049	14.419	5.7165e-07	20.388	192.485	205.804	236.680	134.793	253.824	279.049	134.846	142.155	263.035	305.507	141.852	147.025	148.921	155.787	280.058	154.890	-8191	255	
2049.325	1	1	0	0	0.067357	0.1523	0.19439	0.39087	0.098213	0.070947	0.079474	0.044316	0.33878	0.16047	0.11055	0.11132	0.21226	0.21432	0.23558	0.093274	-2.9167	-3.1625	-2.8021	-3.5021	-2.9979	-3.1542	-3.6875	-2.7875	-3.0833	-3.0521	-2.8917	-3.3083	-3.0938	-3.0854	-3.3854	-2.9188	346.222	475.699	339.427	147.765	174.057	152.620	165.289	479.934	453.869	481.774	224.260	415.230	144.452	414.308	305.619	481.161	0.00022085	0.00026921	6.0088e-05	823.02	2.4397e-06	1.8911e-06	869.98	173.5	3.0555e-06	1.2749e-06	218.22	62.249	48.41	13.911	1.5396e-06	19.502	0.00012665	5.4126e-05	1.589e-05	836.79	9.3078e-07	5.8376e-07	885.6	177.22	7.8508e-07	5.0734e-07	223.69	62.878	50.036	14.443	5.557e-07	20.446	188.934	190.100	230.506	135.098	261.282	269.314	134.841	142.076	266.620	316.894	141.381	146.612	149.001	155.408	289.361	154.899	-8191	255	
2049.421	1	1	0	0	0.25774	0.14183	0.077145	0.037876	0.10688	0.37751	0.18514	0.26183	0.16275	0.18064	0.16222	0.14579	0.17284	0.14843	0.17106	0.073075	-2.7875	-3.4208	-2.9813	-3.5187	-3.1271	-3.0979	-3.5938	-3.0125	-3.1375	-3.1604	-2.8125	-3.1896	-3.125	-2.9062	-3.425	-3.2146	426.559	267.322	227.766	379.163	482.387	281.641	458.225	374.933	185.778	255.274	199.548	426.350	381.317	347.218	288.000	310.274	0.00021779	0.00029846	4.8318e-05	825.01	2.3437e-06	2.5068e-06	871.21	173.82	2.3742e-06	2.4238e-06	217.37	62.052	48.542	13.856	1.5551e-06	19.638	0.00012879	5.0793e-05	1.5579e-05	837.22	9.1114e-07	6.0071e-07	887.33	177.39	7.2872e-07	5.3095e-07	223.05	63.007	50.104	14.413	6.4343e-07	20.485	188.425	215.460	236.577	135.110	257.202	313.836	134.867	142.105	259.568	279.380	141.886	147.223	148.798	155.654	253.064	155.028	-8191	255	
2049.517	1	1	0	0	0.093209	0.36804	0.1327	0.082256	0.2615	0.099506	0.077855	0.23456	0.13597	0.071696	0.13387	0.1024	0.10011	0.18574	0.15518	0.05885	-2.6896	-3.3083	-2.8729	-3.4771	-3.1	-2.7812	-3.4583	-2.8667	-3.1063	-3.1312	-3.0208	-3.1792	-3.1917	-2.7042	-3.3667	-2.9188	400.049	234.920	354.066	314.747	138.079	334.291	395.152	353.729	264.717	126.782	402.301	321.668	360.305	211.882	239.882	345.417	0.00021449	0.00012795	6.2816e-05	825.07	2.1655e-06	1.8486e-06	872.45	172.79	2.492e-06	2.0971e-06	217.52	61.859	48.901	13.908	2.7237e-06	19.591	0.00012605	4.7182e-05	1.6302e-05	836.35	8.5946e-07	6.1988e-07	886.71	176.85	7.8265e-07	4.6369e-07	223.17	62.868	50.235	14.466	6.4175e-07	20.45	191.599	240.664	218.307	134.946	266.677	241.557	134.752	142.159	289.373	267.035	141.771	147.247	148.594	155.382	246.353	155.238	-8191	255	
2049.614	1	1	0	0	0.2171	0.28116	0.21096	0.10674	0.11186	0.12439	0.32177	0.15317	0.13929	0.13863	0.086095	0.15364	0.23736	0.21959	0.25813	0.24687	-2.5708	-3.2479	-3.0271	-3.1875	-3.2896	-2.8646	-3.3958	-3.15	-3.0292	-3.3896	-2.9542	-3.1583	-3.4	-2.7792	-3.4813	-3.1688	399.573	472.244	428.382	275.728	222.647	245.256	367.937	281.706	268.752	153.215	316.513	330.603	146.818	232.754	428.247	301.562	0.00020466	0.00023371	6.2975e-05	823.9	2.1753e-06	3.2494e-06	869.26	172.9	2.8718e-06	1.8127e-06	217.1	61.344	48.956	13.839	2.0853e-06	19.49	0.00012774	5.4761e-05	1.5267e-05	837.63	7.7531e-07	6.6492e-07	886.37	177.03	8.1874e-07	4.7171e-07	223.25	62.956	50.158	14.415	5.855e-07	20.385	190.390	213.171	201.893	134.681	252.007	256.968	134.769	142.132	269.737	281.075	141.673	146.222	148.748	155.485	287.495	155.149	-8191	255	
2049.710	1	1	0	0	0.0060297	0.19966	0.18181	0.18364	0.17458	0.15015	0.090114	0.11784	0.2301	0.10344	0.043899	0.19949	0.14617	0.098994	0.13699	0.038639	-2.6958	-3.4562	-2.8958	-3.3292	-3.1333	-2.7958	-3.35	-2.9938	-3.1458	-3.6167	-3.1188	-3.1167	-3.3854	-2.8021	-3.3229	-2.9938	263.696	315.542	308.181	142.967	413.276	283.499	163.000	127.430	139.324	332.918	342.081	270.853	163.061	234.979	462.434	192.279	0.00020431	0.00031104	4.7385e-05	824.78	2.1117e-06	2.4911e-06	871.07	173.38	2.5983e-06	2.1226e-06	217.38	63.295	49.108	13.933	1.9508e-06	19.623	0.00012695	4.7222e-05	1.6781e-05	836.48	8.1218e-07	5.5745e-07	887.34	177.51	8.2117e-07	4.6102e-07	223.56	63.488	50.219	14.439	5.9894e-07	20.488	188.409	204.404	203.456	134.967	268.701	304.879	134.681	142.265	263.015	262.962	141.597	146.517	148.839	155.471	279.193	155.133	-8191	255	
2049.806	1	1	0	0	0.13485	0.080639	0.16635	0.31133	0.094984	0.084251	0.25777	0.27371	0.11445	0.10795	0.14398	0.095751	0.22628	0.12637	0.060084	0.2103	-2.6521	-3.3042	-2.8917	-3.2104	-3.4146	-2.9458	-3.4083	-3.3042	-2.9354	-3.35	-3.0958	-2.9104	-3.3438	-2.8292	-3.3688	-3.1521	142.361	130.429	254.314	441.376	137.697	287.717	255.983	401.152	396.017	408.999	239.303	285.986	236.694	369.398	456.532	220.763	0.0001987	0.00022589	4.3707e-05	827.14	1.8924e-06	2.9165e-06	872.23	173.75	1.9284e-06	1.9208e-06	217.17	63.542	48.798	13.847	2.0737e-06	19.724	0.00012519	4.9166e-05	1.491e-05	839.08	7.5368e-07	6.2746e-07	886.6	177.18	8.4834e-07	5.216e-07	223.47	63.789	50.146	14.464	5.8173e-07	20.506	188.516	217.166	215.859	135.061	276.388	279.068	134.710	142.267	278.919	288.462	141.712	148.235	148.565	155.743	253.901	155.473	-8191	255	
2049.927	1	1	0	0	0.22499	0.20396	0.052441	0.16601	0.023399	0.26691	0.089478	0.090479	0.11774	0.27717	0.31653	0.15317	0.27791	0.25437	0.20581	0.072385	-2.4729	-3.1333	-3.0854	-3.1583	-3.4292	-3.075	-3.4354	-3.1917	-2.9271	-3.3792	-3.1271	-3.0167	-3.5708	-2.9771	-3.0604	-3.3583	205.317	209.313	396.640	440.305	404.275	254.631	285.026	413.284	455.304	423.685	417.070	191.736	367.675	424.273	282.372	139.231	0.00021467	0.00023132	6.0798e-05	820.26	2.1158e-06	2.6642e-06	866.84	174.73	2.09e-06	2.878e-06	218.81	62.919	48.842	14.021	1.8318e-06	19.868	0.00012947	4.6309e-05	1.3819e-05	836.45	8.8029e-07	5.5789e-07	885.86	177.79	7.6886e-07	4.138e-07	223.88	63.591	50.218	14.521	6.0103e-07	20.604	189.060	200.759	229.355	134.900	270.207	279.451	134.907	142.162	286.076	258.316	141.542	147.273	148.862	155.275	273.405	155.192	-8191	255	
2050.023	1	1	0	0	0.22699	0.1761	0.12863	0.16538	0.040678	0.050975	0.14911	0.15791	0.19982	0.32873	0.054385	0.17349	0.17025	0.32585	0.10795	0.24534	-2.5333	-3.3667	-3.1063	-3.2833	-3.3937	-3.0438	-3.1354	-3.1625	-2.9604	-3.1875	-3.3583	-2.7896	-3.3604	-3.0333	-3.1708	-3.2333	222.123	210.298	188.327	401.471	442.263	394.546	437.324	337.341	417.714	269.758	125.461	202.336	155.121	161.390	136.540	201.381	0.00023609	0.00028262	7.1419e-05	830.16	2.3364e-06	2.1097e-06	876.46	174.23	1.9284e-06	2.3018e-06	218.35	62.482	49.373	13.913	1.8686e-06	19.826	0.00013363	5.1944e-05	1.4955e-05	840.37	7.649e-07	6.0115e-07	889.67	177.65	8.0617e-07	4.9398e-07	224.17	63.381	50.445	14.529	5.9348e-07	20.613	188.521	203.667	224.097	135.099	263.080	274.296	134.889	142.048	276.854	281.424	141.749	146.578	148.892	155.335	279.376	154.957	-8191	255	
2050.094	1	1	0	0	0.090106	0.16027	0.19096	0.42766	0.15354	0.068258	0.27115	0.085728	0.26813	0.16002	0.099896	0.16382	0.19435	0.15031	0.034425	0.2631	-2.6146	-3.1083	-3.0667	-3.0604	-3.3458	-3.0229	-3.1125	-3.1604	-3.0042	-3.2313	-3.4437	-2.8812	-3.4708	-3.1479	-3.0438	-3.375	436.736	354.765	216.431	423.979	380.122	222.833	444.464	178.983	291.155	385.309	162.297	151.718	366.396	155.693	287.899	462.300	0.00021948	0.00031195	4.634e-05	824.4	2.3551e-06	3.0676e-06	870.32	173.47	2.1539e-06	1.9983e-06	217.29	62.574	48.585	13.966	1.0708e-06	19.72	0.00012612	4.3214e-05	1.3908e-05	837.51	8.3622e-07	5.3515e-07	886.55	177.68	7.8508e-07	4.7082e-07	223.67	63.315	50.248	14.503	6.1027e-07	20.586	190.269	197.567	241.487	134.765	259.726	277.431	135.066	142.276	275.745	245.563	141.716	146.416	148.755	155.198	264.559	154.870	-8191	255	
2050.213	1	1	0	0	0.15016	0.16887	0.21497	0.098082	0.068723	0.26174	0.21312	0.12402	0.28978	0.11	0.23552	0.060058	0.20826	0.14224	0.057932	0.11963	-2.675	-3.1312	-3.4083	-3.1896	-3.3021	-3.3521	-2.9771	-3.3312	-2.9313	-3.1562	-3.3604	-3.0354	-3.2333	-3.0771	-2.9562	-3.3375	371.750	188.613	404.367	427.388	126.529	401.926	367.935	281.939	313.985	272.846	404.081	366.659	424.340	289.553	482.841	171.104	0.00021518	0.00022913	6.2122e-05	825.59	2.9482e-06	2.0091e-06	872.24	173.7	2.4256e-06	2.8116e-06	218.63	62.15	48.93	13.965	2.1586e-06	19.675	0.0001284	4.8214e-05	1.1692e-05	837.52	8.0777e-07	5.3872e-07	886.21	177.45	7.79e-07	5.3496e-07	224.06	63.331	50.225	14.511	6.4678e-07	20.591	189.788	225.632	221.759	134.978	254.905	283.400	135.107	142.383	268.353	267.619	141.869	146.753	148.802	155.620	271.153	154.748	-8191	255	
2050.309	1	1	0	0	0.10144	0.14148	0.27466	0.12974	0.12222	0.095269	0.25323	0.37349	0.18816	0.1988	0.040455	0.14086	0.17778	0.36955	0.08689	0.20132	-2.7479	-3.025	-3.2729	-2.8771	-3.2083	-3.3396	-3.1188	-3.4062	-2.9542	-3.2562	-3.2979	-2.9792	-3.3396	-3.0187	-2.9437	-3.4521	155.635	356.162	240.104	432.912	324.542	466.762	429.617	445.538	233.864	166.139	407.987	346.228	257.872	433.039	389.806	442.651	0.00021565	0.00027033	6.4817e-05	824.71	2.6034e-06	2.1696e-06	872.01	173.97	2.4912e-06	1.7905e-06	217.07	62.199	49.123	13.957	2.1326e-06	19.706	0.00012814	5.4206e-05	1.2494e-05	837.58	8.3902e-07	4.4373e-07	887.3	177.96	7.5467e-07	5.4387e-07	223.55	63.335	50.238	14.482	6.9799e-07	20.562	191.180	225.770	239.272	135.019	264.620	280.711	134.791	142.307	273.861	299.755	141.714	147.341	148.655	155.496	273.787	154.980	-8191	255	
2050.406	1	1	0	0	0.084603	0.2445	0.33901	0.13768	0.17014	0.075907	0.33192	0.16024	0.093054	0.13422	0.052269	0.21771	0.1563	0.18926	0.32329	0.10447	-2.6354	-3.2146	-3.2646	-3.0917	-3.2417	-3.2542	-3.1833	-3.3354	-3.0687	-3.1458	-3.3729	-2.9437	-3.2938	-3.2313	-3.0438	-3.2667	421.848	135.862	357.575	453.541	198.928	362.563	436.977	206.279	367.927	246.257	420.730	152.611	127.626	171.298	171.946	429.432	0.00022165	0.00021177	5.1338e-05	819.05	2.2904e-06	2.2789e-06	868.33	174.16	3.1079e-06	2.9304e-06	217.92	62.98	48.498	13.841	1.9849e-06	19.6	0.00012363	5.5952e-05	1.3841e-05	835.08	8.8229e-07	5.133e-07	884.71	177.65	7.8265e-07	6.0979e-07	223.87	63.512	50.236	14.479	7.471e-07	20.503	188.599	237.814	230.683	135.017	264.369	276.433	134.816	142.087	279.898	271.300	141.675	146.525	148.497	155.509	279.018	155.479	-8191	255	
2050.502	1	1	0	0	0.16396	0.34706	0.080734	0.13538	0.27468	0.08355	0.19333	0.1247	0.31825	0.14392	0.28131	0.45785	0.16442	0.24885	0.10852	0.061666	-2.6708	-2.9521	-3.2896	-3.0167	-3.0354	-3.2729	-2.975	-3.4833	-3.1729	-3.0312	-3.2375	-2.9458	-3.0729	-3.3458	-3.0042	-3.3187	309.484	348.764	323.870	408.990	295.201	245.388	438.838	222.135	409.503	456.867	222.655	173.132	221.547	143.759	429.642	154.082	0.00022738	0.0001486	6.2933e-05	823.14	2.4298e-06	2.2666e-06	868.1	174.02	2.1739e-06	1.9249e-06	217.98	62.204	48.927	13.93	2.1175e-06	19.44	0.00013074	5.7698e-05	1.1837e-05	836.41	8.6467e-07	4.8743e-07	884.7	177.42	7.0641e-07	6.0177e-07	223.75	63.026	50.15	14.487	6.7994e-07	20.429	188.052	206.249	220.618	134.816	255.790	251.792	134.736	141.936	263.756	276.244	141.655	146.375	148.777	155.714	261.008	155.128	-8191	255	
2050.622	1	1	0	0	0.1099	0.15864	0.21312	0.071577	0.19878	0.10413	0.29529	0.16358	0.26398	0.10345	0.030131	0.1749	0.041528	0.1023	0.17202	0.061407	-2.7229	-2.8937	-3.3438	-3.1146	-3.2292	-3.3146	-2.8354	-3.2625	-3.1979	-3.0271	-3.3625	-3.0563	-3.1104	-3.3917	-2.8708	-3.2417	458.245	309.575	264.435	411.870	387.339	312.729	379.704	347.987	360.712	147.819	480.714	327.776	141.544	423.688	447.536	150.139	0.00020242	0.00016034	9.4387e-05	819.45	2.4146e-06	2.2313e-06	868.28	172.82	2.192e-06	1.7146e-06	218.78	63.018	48.59	13.791	1.7292e-06	19.516	0.00011761	5.9444e-05	1.1191e-05	834.61	8.7588e-07	4.4105e-07	882.95	176.96	7.0276e-07	6.5211e-07	223.25	63.245	50.059	14.407	6.8582e-07	20.437	191.852	203.984	239.096	134.968	266.563	297.050	134.939	142.116	271.407	282.591	141.668	146.865	148.724	155.723	306.526	155.142	-8191	255	
2050.718	1	1	0	0	0.088445	0.14064	0.13975	0.11232	0.065149	0.15546	0.31859	0.22649	0.19317	0.21278	0.22367	0.20793	0.17919	0.041554	0.11488	0.14453	-2.9396	-2.9417	-3.3937	-3.1167	-2.925	-3.4562	-3.0521	-3.2125	-3.3833	-2.8792	-3.2833	-3.1312	-3.1437	-3.3312	-3.0896	-3.2292	460.176	147.661	374.757	348.918	135.062	131.714	387.195	429.173	151.666	268.135	371.481	468.582	405.918	417.448	436.282	251.341	0.0002065	0.00031466	3.6962e-05	820.86	2.2448e-06	2.1351e-06	866.11	173.42	2.1233e-06	3.0354e-06	216.44	62.746	48.844	13.821	2.0623e-06	19.631	0.00012091	6.0158e-05	1.2227e-05	834	8.6667e-07	4.1251e-07	882.69	177.34	7.0682e-07	5.6747e-07	222.92	63.04	50.117	14.402	6.4175e-07	20.415	190.132	209.636	242.584	134.940	256.027	286.652	134.807	141.986	263.467	286.684	141.926	146.972	149.230	155.662	269.830	155.035	-8191	255	
2050.815	1	1	0	0	0.32471	0.18576	0.18261	0.19122	0.065454	0.26614	0.082938	0.12517	0.20692	0.14422	0.27851	0.13223	0.2324	0.035947	0.19862	0.25602	-2.6542	-2.7396	-3.325	-3.4	-3.0208	-3.4271	-3.1354	-3.0062	-3.3792	-2.9771	-3.2125	-3.3937	-2.95	-3.3625	-3.0542	-3.0146	399.336	207.730	289.520	469.003	258.832	309.666	322.642	377.995	345.940	147.811	477.034	360.600	204.737	168.222	223.339	171.939	0.00021618	0.00015982	5.8171e-05	820.27	2.4349e-06	2.7049e-06	864.2	174	2.4026e-06	1.6482e-06	218.22	62.513	48.399	13.903	2.9227e-06	19.628	0.00012189	5.3968e-05	1.2973e-05	834.09	9.5201e-07	4.6959e-07	881.54	177.68	7.7778e-07	5.9554e-07	223.28	62.828	49.818	14.441	6.2202e-07	20.476	191.704	190.674	227.870	134.999	266.496	269.615	134.692	142.122	265.811	275.873	142.181	146.077	148.550	155.625	267.109	155.130	-8191	255	
#DATA ENDS
