BOXY.EXE: ISS Imagent and Oximeter Data Acquisition Program Version 0.80
Ascii Record File

#ACQ INFORMATION
2  Detector Channels 
16  External MUX Channels 
1  Auxiliary Channels 
5000  Waveform (CCF) Frequency (Hz)
1  Waveforms Skipped 
30  Waveforms Averaged 
1  Cycles Averaged 
16  Acquisitions per Waveform 
10.0806  Updata Rate (Hz) 

#FILE INFORMATION
TRUE -- External MUX Channel results are PARSED.
FALSE -- AC DC and Phase are NOT grouped.
TRUE -- Companion Program Settings File CREATED.
FALSE -- AC data not excluded
FALSE -- DC data not excluded
FALSE -- Phase data not excluded
FALSE -- Auxillary Chn. data not excluded
Tab delimiters

#CALIBRATION STATE
TRUE -- Waveform Calibration Values APPLIED.


#AUX CALIBRATION VALUES
Val Type	aux-1	

Term	1.0000e+00	
Factor	0.0000e+00	


#WF CALIBRATION VALUES
A = Detector Channel
Val Type	A-AC1	A-AC2	A-AC3	A-AC4	A-AC5	A-AC6	A-AC7	A-AC8	A-AC9	A-AC10	A-AC11	A-AC12	A-AC13	A-AC14	A-AC15	A-AC16	A-DC1	A-DC2	A-DC3	A-DC4	A-DC5	A-DC6	A-DC7	A-DC8	A-DC9	A-DC10	A-DC11	A-DC12	A-DC13	A-DC14	A-DC15	A-DC16	A-Ph1	A-Ph2	A-Ph3	A-Ph4	A-Ph5	A-Ph6	A-Ph7	A-Ph8	A-Ph9	A-Ph10	A-Ph11	A-Ph12	A-Ph13	A-Ph14	A-Ph15	A-Ph16	

Term	0.00000e+00	0.00000e+00	0.00000e+00	0.00000e+00	0.00000e+00	0.00000e+00	0.00000e+00	0.00000e+00	0.00000e+00	0.00000e+00	0.00000e+00	0.00000e+00	0.00000e+00	0.00000e+00	0.00000e+00	0.00000e+00	0.00000e+00	0.00000e+00	0.00000e+00	0.00000e+00	0.00000e+00	0.00000e+00	0.00000e+00	0.00000e+00	0.00000e+00	0.00000e+00	0.00000e+00	0.00000e+00	0.00000e+00	0.00000e+00	0.00000e+00	0.00000e+00	0.00000e+00	0.00000e+00	0.00000e+00	0.00000e+00	0.00000e+00	0.00000e+00	0.00000e+00	0.00000e+00	0.00000e+00	0.00000e+00	0.00000e+00	0.00000e+00	0.00000e+00	0.00000e+00	0.00000e+00	0.00000e+00	
Factor	1.00000e+00	1.00000e+00	1.00000e+00	1.00000e+00	1.00000e+00	1.00000e+00	1.00000e+00	1.00000e+00	1.00000e+00	1.00000e+00	1.00000e+00	1.00000e+00	1.00000e+00	1.00000e+00	1.00000e+00	1.00000e+00	1.00000e+00	1.00000e+00	1.00000e+00	1.00000e+00	1.00000e+00	1.00000e+00	1.00000e+00	1.00000e+00	1.00000e+00	1.00000e+00	1.00000e+00	1.00000e+00	1.00000e+00	1.00000e+00	1.00000e+00	1.00000e+00	X	X	X	X	X	X	X	X	X	X	X	X	X	X	X	X	

B = Detector Channel
Val Type	B-AC1	B-AC2	B-AC3	B-AC4	B-AC5	B-AC6	B-AC7	B-AC8	B-AC9	B-AC10	B-AC11	B-AC12	B-AC13	B-AC14	B-AC15	B-AC16	B-DC1	B-DC2	B-DC3	B-DC4	B-DC5	B-DC6	B-DC7	B-DC8	B-DC9	B-DC10	B-DC11	B-DC12	B-DC13	B-DC14	B-DC15	B-DC16	B-Ph1	B-Ph2	B-Ph3	B-Ph4	B-Ph5	B-Ph6	B-Ph7	B-Ph8	B-Ph9	B-Ph10	B-Ph11	B-Ph12	B-Ph13	B-Ph14	B-Ph15	B-Ph16	

Term	0.00000e+00	0.00000e+00	0.00000e+00	0.00000e+00	0.00000e+00	0.00000e+00	0.00000e+00	0.00000e+00	0.00000e+00	0.00000e+00	0.00000e+00	0.00000e+00	0.00000e+00	0.00000e+00	0.00000e+00	0.00000e+00	0.00000e+00	0.00000e+00	0.00000e+00	0.00000e+00	0.00000e+00	0.00000e+00	0.00000e+00	0.00000e+00	0.00000e+00	0.00000e+00	0.00000e+00	0.00000e+00	0.00000e+00	0.00000e+00	0.00000e+00	0.00000e+00	-1.23800e+02	-1.29605e+02	-1.18317e+02	-1.81384e+02	-6.66720e+01	-6.49322e+01	-1.54429e+02	-1.62015e+02	-6.47790e+01	-5.86214e+01	-1.69550e+02	-1.78216e+02	-1.82278e+02	-1.75921e+02	-6.55031e+01	-1.48295e+02	
Factor	1.82523e-05	2.02462e-04	5.46020e-05	1.59639e-01	1.48313e-06	2.22676e-06	1.61345e-01	6.10527e-02	1.51134e-06	2.21112e-06	9.03854e-02	2.02187e-01	4.85540e-02	9.32913e-03	1.59883e-06	1.33881e-02	1.11608e-05	1.90474e-05	5.34503e-06	8.05254e-02	1.92326e-07	2.14060e-07	7.69818e-02	3.09569e-02	1.94649e-07	2.13805e-07	4.45233e-02	1.01031e-01	2.48173e-02	4.77762e-03	2.01464e-07	6.64615e-03	X	X	X	X	X	X	X	X	X	X	X	X	X	X	X	X	



#DISTANCE SETTINGS
A = Detector Channel
A-1	A-2	A-3	A-4	A-5	A-6	A-7	A-8	A-9	A-10	A-11	A-12	A-13	A-14	A-15	A-16	

2.5000e+00	3.0000e+00	2.5000e+00	3.0000e+00	2.0000e+00	3.0000e+00	1.5000e+00	3.0000e+00	3.0000e+00	3.0000e+00	3.0000e+00	3.0000e+00	3.0000e+00	3.0000e+00	1.5000e+00	3.0000e+00	

B = Detector Channel
B-1	B-2	B-3	B-4	B-5	B-6	B-7	B-8	B-9	B-10	B-11	B-12	B-13	B-14	B-15	B-16	

1.0000e+01	1.0000e+01	1.0000e+01	1.4400e+00	1.0000e+01	1.0000e+01	1.5100e+00	1.9400e+00	1.0000e+01	1.0000e+01	1.9900e+00	2.4900e+00	2.4100e+00	2.9000e+00	1.0000e+01	2.9800e+00	




#DATA BEGINS
time	group	step	mark	flag	A-AC1	A-AC2	A-AC3	A-AC4	A-AC5	A-AC6	A-AC7	A-AC8	A-AC9	A-AC10	A-AC11	A-AC12	A-AC13	A-AC14	A-AC15	A-AC16	A-DC1	A-DC2	A-DC3	A-DC4	A-DC5	A-DC6	A-DC7	A-DC8	A-DC9	A-DC10	A-DC11	A-DC12	A-DC13	A-DC14	A-DC15	A-DC16	A-Ph1	A-Ph2	A-Ph3	A-Ph4	A-Ph5	A-Ph6	A-Ph7	A-Ph8	A-Ph9	A-Ph10	A-Ph11	A-Ph12	A-Ph13	A-Ph14	A-Ph15	A-Ph16	B-AC1	B-AC2	B-AC3	B-AC4	B-AC5	B-AC6	B-AC7	B-AC8	B-AC9	B-AC10	B-AC11	B-AC12	B-AC13	B-AC14	B-AC15	B-AC16	B-DC1	B-DC2	B-DC3	B-DC4	B-DC5	B-DC6	B-DC7	B-DC8	B-DC9	B-DC10	B-DC11	B-DC12	B-DC13	B-DC14	B-DC15	B-DC16	B-Ph1	B-Ph2	B-Ph3	B-Ph4	B-Ph5	B-Ph6	B-Ph7	B-Ph8	B-Ph9	B-Ph10	B-Ph11	B-Ph12	B-Ph13	B-Ph14	B-Ph15	B-Ph16	aux-1	digaux	

2881.913	1	1	0	512	0.14754	0.24603	0.033052	0.23916	0.10136	0.33298	0.14336	0.068396	0.22571	0.27969	0.092188	0.027094	0.21947	0.10836	0.01029	0.21622	-2.6125	-2.6146	-2.9104	-2.9625	-2.7083	-3.1312	-2.7271	-2.8208	-2.9688	-2.5917	-3.0292	-3.0271	-2.7	-3.0708	-2.7062	-2.8688	234.238	235.168	281.105	330.082	123.118	84.372	272.089	124.256	233.173	71.612	216.597	233.178	6.952	37.312	-0.661	76.532	7.4812e-05	0.00020997	6.1851e-05	413.94	3.0827e-07	7.6585e-07	558.88	117.18	1.1612e-06	3.4833e-06	179.04	42.801	23.862	7.1538	1.2032e-06	17.412	0.00012258	0.00014413	3.6625e-05	401	1.6232e-06	1.7611e-06	541.68	114.98	1.9209e-06	2.1127e-06	174.38	45.159	23.444	7.1104	2.3676e-06	17.237	152.361	49.548	69.678	-3.871	205.958	68.398	-4.532	2.202	134.257	154.655	0.377	7.650	7.949	12.625	151.766	9.746	-8191	255	
2882.033	1	1	0	0	0.30882	0.13468	0.17501	0.28614	0.12835	0.13712	0.30117	0.17444	0.20502	0.10698	0.15765	0.1439	0.20303	0.14649	0.15465	0.14953	-2.6833	-2.4896	-3.0187	-2.9167	-2.625	-3.2042	-2.8333	-2.9042	-3.0104	-2.7042	-2.9104	-2.825	-2.5083	-3.0687	-2.7396	-2.7687	185.134	296.249	313.535	43.232	140.489	247.456	260.266	107.231	303.580	317.577	-1.201	154.575	98.815	278.730	117.269	257.905	9.3964e-05	0.00011593	5.3709e-05	420.26	1.4582e-06	8.2028e-07	597.26	118.91	9.9492e-07	6.9521e-07	185.97	43.806	24.151	7.3158	2.0386e-06	16.851	0.00018062	0.00023984	6.3673e-05	407.97	2.6477e-06	2.8876e-06	580.51	117.34	2.9834e-06	3.216e-06	180.65	46.302	23.984	7.2361	3.5307e-06	16.652	138.019	63.483	96.696	-3.154	123.194	174.460	-4.498	2.170	144.250	237.073	0.126	6.630	7.895	12.444	160.067	9.390	-8191	255	
2882.128	1	1	0	0	0.11698	0.15171	0.11383	0.22512	0.22855	0.039605	0.34385	0.076947	0.21693	0.084186	0.03882	0.22867	0.084923	0.10055	0.33591	0.2071	-2.7646	-2.7938	-3.0042	-3.1	-2.7854	-3.2333	-2.8688	-2.7792	-3.2167	-2.7208	-2.9188	-3.1667	-2.625	-3.1042	-2.9417	-2.8625	60.093	80.160	228.911	333.427	208.763	212.726	237.926	94.617	47.989	59.243	150.248	206.027	68.493	84.502	5.934	312.295	7.4978e-05	3.2031e-05	9.936e-05	456.26	1.4007e-06	1.8481e-06	664.5	122.27	3.6334e-06	2.7508e-06	186.87	44.032	25.115	7.5816	1.7259e-06	16.336	0.00025888	0.00036849	0.00010131	441.5	4.4355e-06	4.7619e-06	646.88	119.66	4.942e-06	5.2556e-06	182.61	47.42	25.026	7.5504	5.7954e-06	16.25	148.228	107.416	94.004	-3.576	98.796	144.551	-5.213	1.723	180.070	178.657	-0.111	6.756	7.748	12.886	86.573	10.019	-8191	255	
2882.224	1	1	0	0	0.080173	0.05942	0.15263	0.033573	0.33776	0.057548	0.10191	0.19094	0.082085	0.27665	0.16471	0.15446	0.18109	0.172	0.21461	0.19212	-2.7771	-2.9125	-2.9458	-2.9313	-2.6667	-3.0458	-3.1063	-2.6625	-3.1542	-2.8688	-2.825	-3.1083	-2.6042	-3.0667	-3.0375	-2.6833	322.820	15.956	255.862	-2.529	225.564	324.237	340.893	293.604	95.917	305.576	241.131	3.921	205.065	272.174	290.833	277.044	0.00010109	0.0003363	3.4295e-05	462.65	1.155e-06	5.0677e-07	657.03	117.45	1.2955e-06	1.8305e-06	182.72	44.76	26.467	8.0288	2.8627e-07	15.1	0.00037398	0.00059475	0.00016094	450.32	6.1484e-06	6.6104e-06	638.77	116.05	6.3922e-06	7.0916e-06	179.05	48.247	26.385	8.0005	7.3119e-06	15.077	139.628	52.055	312.143	-4.015	62.124	20.705	-5.075	1.623	85.402	169.683	-0.076	5.953	6.521	12.002	134.320	10.220	-8191	255	
2882.320	1	1	0	0	0.14058	0.16503	0.068493	0.096437	0.23994	0.34551	0.19414	0.19666	0.13578	0.23104	0.10162	0.30302	0.10892	0.12148	0.092588	0.097128	-2.5771	-2.7833	-2.9125	-3.0792	-2.6958	-3.0229	-2.8958	-2.6979	-3.0708	-2.8333	-2.8333	-3.0979	-2.6437	-2.8854	-3.0625	-2.6167	137.468	141.135	288.862	316.630	62.885	25.279	245.513	241.608	289.958	333.306	337.556	167.261	40.586	204.859	18.348	117.704	7.0804e-05	0.00044071	4.4789e-05	445.41	1.5212e-06	5.8995e-06	639.64	115.62	1.4749e-06	2.9775e-06	177.27	44.133	28.887	8.2172	2.3629e-06	13.462	0.00046004	0.00073999	0.00020891	435.1	7.7431e-06	8.3929e-06	622.82	114.36	8.2004e-06	8.868e-06	173.79	49.152	29.02	8.2729	9.9179e-06	13.617	161.305	24.441	105.947	-4.002	93.312	140.439	-5.008	2.040	238.664	285.579	-0.105	6.184	5.854	12.023	9.165	10.994	-8191	255	
2882.416	1	1	0	0	0.019548	0.12358	0.32326	0.37563	0.28521	0.15797	0.078169	0.30386	0.1268	0.18315	0.082303	0.075822	0.097112	0.093932	0.20242	0.2564	-2.6854	-2.7542	-2.9125	-3.1521	-2.7271	-3.0125	-3.0438	-2.6333	-3.0604	-2.8708	-2.6854	-3.1312	-2.6729	-3.0208	-3.1063	-2.6333	22.662	126.089	-7.613	296.971	99.294	68.721	141.725	37.734	246.745	271.947	291.065	220.774	295.154	327.926	336.182	83.823	7.2252e-05	8.0991e-05	5.5119e-05	366.64	3.463e-06	3.7624e-06	501.92	100.09	3.4469e-06	3.3335e-06	146.65	39.399	26.748	6.9785	2.5582e-06	12.04	0.00061833	0.0010249	0.00029931	356.6	1.1442e-05	1.2795e-05	489.61	99.339	1.2395e-05	1.2862e-05	145.34	44.964	27.308	7.0954	9.3693e-06	12.081	161.083	70.668	8.135	-3.881	187.314	134.950	-4.605	1.831	276.354	125.574	0.214	6.769	6.596	12.227	110.403	10.473	-8191	255	
2882.512	1	1	0	0	0.2157	0.11793	0.066165	0.26107	0.045284	0.20278	0.088951	0.26	0.307	0.11742	0.14721	0.31986	0.28047	0.056395	0.13972	0.15948	-2.6458	-2.8833	-2.5104	-3.0396	-2.6937	-2.7875	-3.1854	-2.6688	-2.9167	-3.1188	-2.8208	-3.1	-2.7687	-2.8979	-3.1833	-2.6646	75.807	18.810	239.785	20.137	201.822	61.286	218.990	264.500	17.711	99.386	255.134	87.144	15.792	217.573	212.088	77.694	5.2963e-05	0.00040365	3.8504e-05	251.47	2.2447e-06	2.3267e-06	372.46	88.425	1.4149e-06	3.7503e-06	142.28	39.543	27.367	6.9406	2.2723e-06	11.68	0.00051056	0.00079011	0.00022821	245.75	8.7288e-06	9.6764e-06	364.01	87.392	8.9526e-06	9.1976e-06	140.35	44.235	27.474	6.9788	7.5008e-06	11.682	140.694	126.904	166.256	-3.284	171.022	287.756	-4.184	2.263	169.562	112.440	0.206	6.300	5.946	11.372	156.083	10.334	-8191	255	
2882.609	1	1	0	0	0.23876	0.11219	0.11567	0.19347	0.22286	0.047164	0.25483	0.063942	0.22307	0.05434	0.27983	0.14204	0.17024	0.16284	0.26683	0.017598	-2.4875	-2.9958	-2.6042	-3.0708	-2.8667	-2.9208	-3.0833	-2.7479	-2.9667	-2.8417	-2.6417	-3.1312	-2.9583	-2.7438	-3.2625	-2.7125	341.225	338.038	19.706	150.578	327.945	67.762	319.833	175.639	195.025	310.986	252.603	77.358	314.321	129.709	339.380	335.477	4.631e-05	0.00016087	8.8951e-05	258.02	1.792e-06	1.7184e-06	380.05	90.323	2.3206e-06	4.5225e-06	142.73	42.473	31.057	7.5858	3.4898e-06	12.545	0.00043823	0.00069142	0.00020556	251.46	9.5434e-06	1.2147e-05	372.35	90.622	1.8503e-05	2.3418e-05	144.31	56.26	33.828	8.2466	3.7183e-05	13.56	118.167	129.661	29.457	-3.238	22.921	127.531	-4.276	2.353	187.507	68.198	0.015	5.536	4.940	11.010	179.223	9.276	-8191	255	
2882.729	1	1	0	0	0.14124	0.16446	0.11678	0.07838	0.19929	0.37191	0.31355	0.29655	0.080721	0.12727	0.19295	0.15421	0.088634	0.151	0.36599	0.23339	-2.6625	-3.0875	-2.5583	-3.0542	-2.7646	-2.6937	-3.1437	-2.6813	-2.8167	-3.2062	-2.7896	-2.7938	-2.8604	-2.7271	-3.225	-2.85	281.194	342.278	244.763	17.831	250.624	304.077	110.256	203.879	43.653	-10.109	166.517	215.151	68.934	255.825	337.829	62.155	9.1646e-05	0.00090302	9.4485e-05	269.19	1.0238e-06	2.2469e-06	389.89	95.771	2.3524e-06	2.1709e-06	143.11	43.357	31.452	7.7646	7.4585e-06	12.666	0.0023718	0.0041904	0.0012374	277.56	4.6197e-05	5.2395e-05	399.27	100	4.5618e-05	4.8307e-05	149.33	65.27	35.978	8.6375	4.2049e-05	13.783	119.866	37.753	327.590	-4.029	322.195	302.095	-4.514	1.175	17.933	58.073	-0.170	6.405	5.131	10.648	196.519	9.087	-8191	255	
2882.825	1	1	0	0	0.16811	0.058474	0.14024	0.29799	0.17141	0.16499	0.1631	0.098353	0.09871	0.062451	0.16464	0.078747	0.15614	0.10024	0.2157	0.22995	-2.3333	-3.05	-2.6188	-2.7771	-2.9854	-2.65	-3.0354	-2.6354	-2.6917	-3.1208	-2.675	-2.8958	-2.8958	-2.7146	-3.0833	-2.6917	154.005	22.638	139.798	-5.743	216.244	86.545	153.237	177.407	241.612	285.683	122.432	7.280	169.853	173.149	66.064	195.098	7.463e-05	0.00067265	2.0605e-05	272.49	3.737e-06	1.9257e-06	384.54	85.559	3.6861e-06	3.0975e-06	129.51	40.316	29.671	7.3026	1.0844e-06	11.669	0.002317	0.0038113	0.0010412	277.63	3.6216e-05	3.9473e-05	387.14	87.828	3.3581e-05	3.6406e-05	132.7	57.589	32.877	7.9009	3.3674e-05	12.722	137.514	-13.630	301.322	-4.026	198.169	288.204	-4.613	1.736	72.526	197.652	0.345	6.784	5.304	10.771	104.884	9.607	-8191	255	
2882.921	1	1	0	0	0.33449	0.1158	0.11466	0.11692	0.10758	0.099482	0.25579	0.14487	0.08572	0.20548	0.073464	0.18109	0.13296	0.21907	0.17157	0.11292	-2.4167	-3.1104	-2.65	-2.9437	-3.075	-2.5708	-2.9625	-2.6813	-2.6958	-3.1375	-2.4792	-2.8208	-2.8896	-2.5771	-2.8875	-2.7229	119.408	312.762	295.441	70.719	282.362	151.315	281.374	166.159	131.174	27.414	57.088	131.329	-10.573	323.741	211.769	71.739	9.775e-05	0.00028046	9.464e-05	261.78	2.3251e-06	1.6335e-06	370.81	79.425	1.3118e-06	6.5275e-06	120.57	37.197	27.425	6.6798	4.03e-06	11.104	0.0019427	0.0031999	0.00090603	266.48	3.2126e-05	3.5607e-05	370.41	82.008	3.018e-05	3.3099e-05	124.18	52.986	30.2	7.2536	2.9088e-05	11.8	156.327	282.618	151.342	-3.627	4.433	127.969	-4.328	1.813	50.242	78.134	0.189	5.062	5.581	11.536	114.449	9.250	-8191	255	
2882.993	1	1	0	0	0.27886	0.17565	0.18792	0.30758	0.17962	0.21969	0.13246	0.069832	0.26095	0.17615	0.14711	0.15899	0.20611	0.19617	0.20403	0.20749	-2.4062	-3.1521	-2.6312	-2.9271	-3.0333	-2.7938	-2.9208	-2.9437	-2.6896	-3.1833	-2.8521	-2.7875	-2.9437	-2.5292	-3.0042	-2.9896	34.327	98.050	76.347	-12.809	234.906	92.404	343.123	167.532	236.977	297.982	93.296	13.265	332.030	231.043	323.997	132.361	6.2315e-05	0.0005056	8.8066e-05	256.32	4.1032e-06	5.9234e-06	360.58	76.588	4.1679e-06	4.1458e-06	117.87	35.728	25.775	6.4085	4.5725e-06	10.781	0.0015981	0.00261	0.00070149	256.17	2.2992e-05	2.3878e-05	357.71	77.645	1.9727e-05	2.088e-05	119.19	45.783	27.167	6.722	1.8602e-05	11.223	143.609	145.389	89.058	-4.039	284.881	133.513	-4.230	1.475	232.596	115.306	0.452	5.227	6.159	10.884	202.385	10.299	-8191	255	
2883.112	1	1	0	0	0.25026	0.082548	0.17256	0.053046	0.087851	0.16585	0.13403	0.057123	0.064326	0.21584	0.11677	0.2295	0.092778	0.088286	0.23572	0.23427	-2.1188	-2.9229	-2.6979	-2.7104	-3.0229	-2.7042	-3.0521	-3.0042	-2.6333	-3.0667	-2.7521	-2.6396	-3.1396	-2.5396	-2.8042	-3.1562	309.498	122.248	-4.204	288.177	208.375	81.419	-2.976	215.505	288.610	87.742	125.918	256.807	80.792	-6.448	87.469	278.451	6.5994e-05	0.00041122	5.8383e-05	253.01	4.7376e-06	1.9505e-06	372.52	80.513	2.037e-06	2.3655e-06	123.91	35.503	25.666	6.3952	1.4692e-06	10.747	0.0010256	0.0015871	0.00042666	251.42	1.364e-05	1.4478e-05	365.65	80.552	1.1306e-05	1.1913e-05	123	41.757	26.139	6.5144	1.0017e-05	10.913	115.593	33.833	57.210	-3.819	73.066	65.864	-4.218	1.877	147.211	55.709	0.705	5.496	6.687	12.143	135.262	10.468	-8191	255	
2883.208	1	1	0	0	0.082132	0.15623	0.12998	0.16173	0.36146	0.14398	0.23873	0.096054	0.21119	0.27748	0.16327	0.1664	0.23676	0.11579	0.26042	0.15312	-2.2021	-3.0167	-2.6188	-2.5667	-3.0229	-2.8104	-3.1104	-3.1396	-2.5896	-3.0333	-3.0125	-2.6354	-3.0083	-2.7062	-2.8604	-3.0854	14.272	47.995	143.288	14.202	110.064	286.337	276.176	16.985	-12.737	172.189	252.332	340.602	59.410	183.659	300.404	313.418	5.4579e-05	0.00032352	7.2155e-05	281.59	1.3261e-06	2.5875e-07	404.34	85.927	2.022e-06	3.5755e-06	130.24	36.59	26.038	6.4996	3.3506e-06	10.749	0.00054532	0.00084681	0.00022318	276.45	7.9763e-06	8.5522e-06	395.39	84.246	7.6732e-06	8.2186e-06	128.01	40.366	26.159	6.5532	7.016e-06	10.769	162.396	222.121	190.044	-4.092	263.204	135.539	-4.324	1.730	156.898	113.057	0.569	7.942	6.896	12.190	177.481	10.711	-8191	255	
2883.304	1	1	0	0	0.15125	0.14992	0.22778	0.040119	0.096557	0.16995	0.096275	0.072773	0.065658	0.056863	0.11756	0.059465	0.17341	0.013701	0.1384	0.15719	-2.1813	-3.0271	-2.6792	-2.6333	-3.2625	-2.6958	-2.8167	-3.1188	-2.6229	-3.1542	-2.925	-2.7021	-3.05	-2.8458	-2.5687	-3.1917	257.517	220.874	197.179	-13.585	303.445	207.549	262.191	236.244	253.913	137.228	109.847	216.254	154.301	23.302	299.068	0.752	1.7495e-05	0.00016067	6.2244e-05	304.01	2.3912e-06	1.2018e-06	436.15	92.684	2.6218e-06	1.2009e-06	138.76	37.841	27.537	7.1814	4.1625e-06	11.425	0.00039054	0.00059087	0.00015932	295.54	5.6728e-06	5.9406e-06	425.12	90.876	5.4603e-06	5.6257e-06	136.51	41.044	27.398	7.1562	5.3186e-06	11.502	142.430	-6.351	148.281	-3.655	164.167	27.594	-4.237	1.511	114.336	280.689	0.889	6.657	6.514	11.838	151.928	10.114	-8191	255	
2883.425	1	1	0	0	0.09666	0.12088	0.16951	0.096112	0.20539	0.20195	0.26576	0.12554	0.066161	0.1931	0.018289	0.087083	0.052201	0.10456	0.060961	0.084092	-2.1979	-2.8438	-2.8333	-2.5625	-3.1375	-2.9083	-2.7458	-3.0125	-2.4771	-2.8812	-3.0104	-2.5687	-2.9896	-2.9562	-2.7125	-3.0729	6.532	265.777	87.988	222.680	212.635	153.810	15.250	233.284	87.079	307.424	-8.644	89.008	274.826	199.245	252.114	62.211	5.2637e-05	0.00025354	1.942e-05	330.24	4.3634e-07	3.7991e-06	481.16	102.72	1.2054e-06	7.1371e-07	150.35	41.208	30.322	8.4509	1.6417e-06	13.642	0.0003119	0.00045039	0.00012839	321.56	4.5778e-06	4.8636e-06	469	100.18	4.2474e-06	4.4422e-06	148.01	43.145	29.867	8.3777	3.9441e-06	13.591	130.570	60.958	252.897	-3.883	10.884	27.646	-4.077	2.008	142.031	64.725	0.078	6.569	6.396	11.799	119.726	10.544	-8191	255	
2883.521	1	1	0	0	0.037857	0.16336	0.18001	0.15631	0.066865	0.20222	0.095593	0.22921	0.094894	0.23207	0.19037	0.11817	0.13251	0.17813	0.043277	0.17237	-2.3229	-2.975	-2.925	-2.6104	-3.0083	-2.8958	-2.6771	-3.05	-2.575	-2.8729	-3.2042	-2.5979	-3.0354	-2.8667	-2.5979	-2.9688	281.561	321.347	168.833	105.216	178.352	224.629	6.326	39.983	298.628	116.999	259.161	271.957	250.876	77.381	195.811	184.398	6.9683e-05	0.00010681	4.8769e-05	387.31	1.0098e-06	2.3466e-06	543.62	113.51	2.1777e-06	2.6981e-06	162.91	44.289	32.15	9.5808	1.4287e-06	14.946	0.00025698	0.00036964	0.00010062	373.02	3.7095e-06	3.8638e-06	527.31	111.15	3.44e-06	3.546e-06	158.72	46.137	31.635	9.4636	3.2713e-06	14.865	136.162	45.679	181.569	-4.100	185.083	116.098	-4.026	1.285	148.275	172.696	-0.121	6.673	6.558	11.433	206.053	10.460	-8191	255	
2883.593	1	1	0	0	0.15423	0.10809	0.16566	0.11676	0.083933	0.057277	0.03267	0.23315	0.22094	0.16671	0.13037	0.1602	0.15191	0.037344	0.25307	0.031532	-2.3479	-2.825	-2.8646	-2.6792	-3.1854	-3.0938	-2.6396	-3.0208	-2.7667	-2.8396	-3.2146	-2.6437	-2.9917	-2.9167	-2.5604	-3.1146	214.052	318.154	91.089	227.933	19.713	237.546	225.187	42.006	232.292	-13.859	314.987	105.711	27.182	48.487	1.951	82.562	6.8682e-05	4.6573e-05	5.2926e-05	441.04	2.0911e-06	2.3482e-06	585.95	113.96	9.4575e-07	1.2127e-06	163.14	43.663	31.289	9.3153	1.9039e-06	14.515	0.00020959	0.00028908	7.5164e-05	425.52	2.8616e-06	2.8439e-06	568.94	111.73	2.6821e-06	2.6173e-06	159.52	45.158	30.656	9.2369	2.5061e-06	14.377	140.996	21.864	28.592	-3.644	103.824	116.201	-4.649	1.465	96.440	107.364	0.501	8.327	6.785	12.049	145.770	11.134	-8191	255	
2883.713	1	1	0	0	0.16846	0.11139	0.2003	0.24092	0.16121	0.10304	0.38778	0.082945	0.079419	0.075106	0.21846	0.22114	0.18575	0.17724	0.060009	0.18031	-2.4396	-2.8021	-3.1146	-2.6771	-3.0542	-3.0208	-2.7146	-2.9771	-2.8958	-2.8083	-3.0458	-2.7625	-2.9083	-2.9083	-2.85	-3.1021	53.222	-15.547	208.877	62.685	258.855	-12.635	245.635	119.320	332.493	25.881	228.360	89.985	154.114	221.865	196.359	303.660	6.6654e-05	6.6778e-05	8.0233e-05	430.04	7.317e-07	2.226e-06	573.67	109.55	1.7063e-06	1.6091e-06	156.77	40.311	30.067	8.6045	5.3661e-07	13.365	0.00017522	0.00022345	6.2069e-05	416.39	2.3708e-06	2.2347e-06	556.5	107.25	2.1375e-06	2.2619e-06	152.28	42.457	29.225	8.5417	2.0188e-06	13.262	122.883	43.422	86.828	-3.675	104.613	179.564	-4.344	1.831	144.974	166.357	0.597	7.741	6.431	12.339	37.503	10.520	-8191	255	
2883.810	1	1	0	0	0.10786	0.08086	0.12195	0.12377	0.057571	0.16632	0.11613	0.2522	0.11149	0.16517	0.072855	0.16887	0.058409	0.022344	0.1473	0.081631	-2.5062	-2.675	-3.1271	-2.8812	-2.8563	-3.0667	-2.7	-3.0708	-2.8104	-2.6833	-2.9875	-2.7542	-2.8104	-3.0625	-2.7271	-2.8812	7.589	152.058	102.618	290.576	235.476	105.810	279.900	292.409	6.960	254.116	19.638	286.940	251.509	278.286	272.506	340.599	6.7273e-05	0.00021942	5.0462e-05	400.89	1.6984e-06	9.3925e-07	547.14	102.92	2.3273e-08	1.8178e-06	147.2	39.343	28.568	7.9618	1.6618e-06	12.649	0.00014342	0.00019301	4.4998e-05	389.11	1.7618e-06	1.7339e-06	531.9	100.8	1.8816e-06	1.9376e-06	142.98	40.767	27.887	7.871	1.9038e-06	12.559	153.694	10.222	122.813	-3.210	162.373	114.642	-4.450	1.642	28.581	137.264	0.761	6.673	7.364	12.705	100.535	10.894	-8191	255	
2883.906	1	1	0	0	0.15813	0.26386	0.061329	0.051293	0.14054	0.15307	0.10222	0.22104	0.087379	0.14608	0.055111	0.1276	0.28531	0.065177	0.17037	0.10152	-2.6354	-2.6146	-3.0083	-2.9188	-2.7188	-3.1104	-2.6125	-2.8937	-3.0062	-2.6854	-3.0125	-2.7917	-2.7562	-3.0812	-2.6813	-2.9833	99.334	232.727	126.531	250.189	89.267	109.942	-4.681	269.113	242.872	43.234	34.796	45.830	36.306	-10.716	144.996	269.921	4.5682e-05	0.00029243	9.9039e-06	391.02	1.6567e-06	2.5731e-06	538.81	98.579	8.1347e-07	3.0793e-06	138.76	36.987	26.721	7.3741	1.1817e-06	12.072	0.00013212	0.00016492	4.0722e-05	379.55	1.666e-06	1.7036e-06	521.82	95.91	1.5268e-06	1.669e-06	135.17	38.684	26.333	7.3138	1.7087e-06	11.855	147.292	59.977	138.786	-3.386	195.620	144.044	-4.477	1.986	98.942	148.179	1.098	7.648	7.080	12.694	114.572	10.794	-8191	255	
2884.026	1	1	0	0	0.081804	0.14817	0.12065	0.081062	0.063712	0.14157	0.12751	0.28419	0.15085	0.099638	0.3193	0.31132	0.036315	0.13172	0.22314	0.093628	-2.6667	-2.5625	-3.0354	-2.9229	-2.7687	-3.2562	-2.85	-2.8688	-2.9583	-2.6479	-2.9021	-2.9542	-2.625	-3.0396	-2.6875	-2.5938	105.873	299.763	324.288	222.955	39.495	189.491	310.763	291.405	283.283	109.030	201.320	118.701	220.465	211.443	231.731	37.140	4.4029e-05	0.00012324	6.1072e-05	387.46	4.5078e-07	1.192e-06	530.65	93.938	6.5887e-07	8.0159e-07	133.2	36.239	25.593	7.1633	5.2357e-07	11.518	0.00012661	0.00015111	4.1424e-05	374.38	1.7289e-06	1.6973e-06	515.6	91.885	1.7814e-06	1.7942e-06	129.97	37.264	25.19	7.0382	1.801e-06	11.397	154.542	42.346	79.956	-3.851	214.052	143.814	-4.676	2.276	74.915	254.712	0.715	7.220	6.632	11.645	325.645	10.647	-8191	255	
2884.121	1	1	0	0	0.15575	0.090496	0.25499	0.17239	0.2486	0.10471	0.14082	0.064559	0.34133	0.077284	0.18375	0.22255	0.15205	0.20583	0.22643	0.13944	-2.6	-2.5458	-3.0167	-2.8917	-2.5167	-3.1729	-2.9813	-2.8333	-3.0979	-2.6042	-2.9667	-2.8333	-2.4854	-3.1271	-2.8208	-2.7062	206.713	191.021	76.227	242.563	54.151	338.335	290.505	290.126	78.243	184.764	-2.642	205.214	132.207	58.886	224.121	251.337	5.6894e-05	0.00028112	2.0561e-05	373.79	1.4087e-07	1.3172e-06	516.19	87.384	3.4077e-07	2.3715e-06	123.54	34.115	23.909	6.8671	1.7053e-06	10.951	0.00012754	0.0001819	4.6034e-05	361.57	1.9874e-06	1.9475e-06	498.76	85.677	1.9623e-06	2.098e-06	120.95	35.492	23.79	6.746	2.1636e-06	10.804	156.561	65.361	210.371	-3.431	165.723	205.078	-4.850	1.948	125.960	167.764	1.259	7.466	7.050	12.234	133.256	10.471	-8191	255	
2884.217	1	1	0	0	0.039543	0.23654	0.26979	0.16616	0.059456	0.23066	0.19202	0.14711	0.3791	0.27798	0.15476	0.20353	0.26919	0.052282	0.33832	0.079999	-2.7396	-2.7917	-3.0208	-3.0521	-2.5896	-3.2083	-2.9437	-2.7667	-3.1562	-2.8063	-2.8771	-2.9917	-2.4979	-3.0479	-2.7458	-2.7646	91.445	100.152	279.602	26.649	278.390	300.191	327.001	306.231	205.091	-10.974	129.428	140.046	297.993	304.594	299.033	136.357	5.0296e-05	0.00030948	5.0723e-05	350.62	7.6015e-07	2.8334e-06	487.03	81.139	8.8825e-07	2.2866e-06	117.4	32.284	23.444	6.6188	1.7552e-06	10.725	0.00015718	0.00020821	5.6412e-05	338.14	2.5082e-06	2.5148e-06	474.5	79.278	2.4879e-06	2.738e-06	114.58	34.05	23.057	6.5708	2.6925e-06	10.6	132.336	81.812	133.363	-3.357	123.953	131.933	-4.813	2.016	107.465	130.024	0.816	6.492	7.373	12.818	63.774	10.821	-8191	255	
2884.289	1	1	0	0	0.1281	0.31658	0.16728	0.2449	0.11007	0.39994	0.23187	0.17265	0.14083	0.24314	0.2951	0.072195	0.20451	0.03356	0.26927	0.17168	-2.7396	-2.7771	-2.7521	-3.2042	-2.7125	-3.0667	-3.0187	-2.5896	-3.2583	-2.7062	-2.9083	-3.0354	-2.6667	-2.8854	-3.0083	-2.7458	104.832	162.004	102.563	16.160	-3.080	251.164	222.622	141.644	-1.397	58.096	291.066	279.921	190.862	228.313	21.149	66.919	4.3458e-05	0.00021524	1.8211e-05	352.31	1.1869e-06	1.319e-06	491.07	80.684	2.8816e-06	3.3741e-06	114.5	32.678	22.736	6.5587	4.8939e-07	10.276	0.00018534	0.00025686	7.5309e-05	341.89	2.9318e-06	2.9228e-06	478.22	78.683	3.1197e-06	3.5015e-06	111.56	34.4	22.817	6.5692	3.6973e-06	10.318	137.627	53.794	0.173	-3.452	171.566	156.798	-4.716	1.472	140.366	127.793	0.203	6.543	6.345	11.628	209.798	10.638	-8191	255	
2884.409	1	1	0	0	0.1553	0.27675	0.29066	0.23187	0.24709	0.17624	0.04526	0.1593	0.21409	0.17016	0.14227	0.12838	0.069376	0.098724	0.12125	0.18797	-2.6417	-2.9125	-2.7604	-3.1375	-2.5417	-3.0667	-3.25	-2.6333	-2.9979	-2.6937	-2.8417	-3.2375	-2.7271	-2.9292	-2.9875	-2.6396	290.909	272.178	52.024	266.259	50.463	52.517	219.725	286.608	177.464	32.966	190.570	286.875	271.020	323.842	241.211	282.800	4.5474e-05	0.00010506	5.4608e-05	335.25	1.9879e-06	1.2337e-06	464.76	79.089	7.0525e-07	7.4229e-07	113.68	32.053	23.137	6.9774	6.7234e-07	11.284	0.00023819	0.00034261	0.00010171	325.36	3.998e-06	4.2116e-06	452.1	77.636	3.9489e-06	4.2445e-06	111.14	34.457	23.047	6.9231	3.4899e-06	11.266	139.998	111.843	119.610	-3.161	141.733	99.430	-4.593	2.086	175.514	0.714	0.795	7.629	6.827	11.957	201.610	10.571	-8191	255	
2884.505	1	1	0	0	0.21828	0.1707	0.10438	0.12718	0.078972	0.090438	0.11409	0.20618	0.082228	0.21793	0.10332	0.23487	0.25051	0.17186	0.075082	0.26041	-2.6521	-2.8604	-2.6042	-3.0167	-2.7042	-3.0521	-3.2771	-2.5812	-3.1083	-2.9313	-2.6292	-2.9771	-2.5875	-2.8729	-3.1854	-2.5208	-3.929	215.438	225.208	4.047	264.759	199.897	52.478	246.086	265.666	73.073	277.122	21.183	270.962	43.853	180.744	79.365	5.5122e-05	0.00039631	3.0385e-05	335.36	1.3762e-06	2.6726e-06	472.03	82.551	5.6595e-07	1.7332e-06	121.43	35.097	24.165	7.9676	1.4254e-06	13.315	0.0002208	0.0003117	9.3616e-05	325.77	3.3966e-06	3.4504e-06	461	80.683	3.3029e-06	3.3331e-06	118.72	36.547	23.766	7.8587	3.0085e-06	13.082	139.214	33.581	280.878	-3.502	201.309	99.384	-4.443	1.809	188.466	139.190	0.799	7.132	6.645	11.583	212.529	10.372	-8191	255	
2884.601	1	1	0	0	0.30881	0.25666	0.15911	0.14395	0.18606	0.20232	0.31531	0.11458	0.081159	0.22049	0.19125	0.18146	0.13923	0.11531	0.091608	0.16952	-2.6208	-3.0542	-2.7562	-3.125	-2.9896	-2.9104	-3.2438	-2.7104	-2.9375	-2.9813	-2.6479	-3.0812	-2.9	-2.7625	-3.1375	-2.8521	-10.823	343.758	18.570	292.215	340.443	160.757	281.358	322.976	156.049	71.091	165.573	333.986	284.039	69.175	3.749	0.185	7.6382e-05	0.00024314	4.2817e-05	360.11	1.917e-06	2.2251e-06	504.6	85.589	1.5989e-06	2.2953e-06	140.99	39.495	26.237	8.7812	1.3796e-06	14.502	0.00019571	0.00025476	7.3728e-05	348.17	2.6669e-06	2.8185e-06	492.32	83.864	2.6371e-06	2.755e-06	138.23	41.272	25.911	8.6056	2.5003e-06	14.353	142.947	18.346	158.406	-3.049	170.510	105.453	-4.615	2.121	141.843	125.684	0.470	6.378	6.478	12.744	143.521	10.448	-8191	255	
2884.698	1	1	0	0	0.24215	0.31877	0.16759	0.41032	0.18953	0.19276	0.19731	0.23136	0.051307	0.32471	0.26869	0.17866	0.12342	0.23801	0.14123	0.045956	-2.3979	-2.9771	-2.625	-3.0771	-2.7833	-2.7021	-3.2479	-2.6583	-2.7542	-3.0542	-2.6604	-2.8521	-2.9417	-2.7812	-3.0896	-2.7583	47.155	242.721	135.151	8.970	12.836	215.400	289.451	37.448	333.431	297.924	296.525	170.061	43.754	161.336	261.872	303.034	6.2659e-05	0.00020907	7.5663e-05	376.89	8.0153e-07	1.8178e-06	534.9	91.496	1.5247e-06	1.8044e-06	166.61	43.13	26.571	9.8973	1.4277e-06	18.244	0.00017048	0.00021849	5.9642e-05	364.56	2.239e-06	2.2615e-06	520.79	89.765	2.0994e-06	1.9532e-06	163.41	44.806	25.989	9.7855	1.9999e-06	17.973	151.669	92.619	41.910	-2.765	154.592	110.265	-4.684	2.328	136.743	158.623	-0.444	5.984	6.751	12.185	53.736	9.355	-8191	255	
2884.818	1	1	0	0	0.39133	0.048987	0.17055	0.21346	0.21333	0.22724	0.216	0.092126	0.071181	0.13611	0.11392	0.011549	0.090307	0.099634	0.42631	0.22468	-2.5542	-3.1146	-2.7188	-2.9771	-2.8771	-2.6896	-3.0292	-2.7042	-2.7625	-3.1771	-2.6833	-3	-3.0833	-2.4958	-3.1562	-2.9083	311.039	77.886	339.021	285.709	341.260	285.124	314.411	82.571	325.920	33.825	305.837	343.549	214.090	140.043	283.723	261.565	8.6243e-05	6.6996e-05	2.0795e-05	403.17	2.7766e-06	2.2936e-06	562.69	95.752	1.4478e-06	2.0115e-06	183.86	46.505	25.953	11.06	1.6152e-06	19.879	0.00015479	0.00017099	4.9386e-05	392.9	1.9569e-06	1.9234e-06	546.34	94.289	2.0426e-06	1.7732e-06	177.86	47.669	25.605	10.898	1.8887e-06	19.585	147.425	16.636	34.028	-2.824	137.349	72.390	-4.524	2.559	134.195	130.942	0.288	5.685	6.506	11.671	92.627	9.985	-8191	255	
2884.890	1	1	0	0	0.094626	0.2076	0.10567	0.11117	0.17815	0.14068	0.26587	0.050098	0.20019	0.16244	0.038538	0.077375	0.072739	0.17285	0.25994	0.10113	-2.2854	-2.9583	-2.5708	-2.9688	-2.9875	-2.6312	-3.1542	-2.8042	-2.7708	-3.1542	-2.6083	-3.0167	-3.0083	-2.5083	-3.1583	-3.0021	185.428	225.193	235.674	268.590	299.760	5.931	285.088	205.861	30.906	213.087	104.706	113.812	248.194	164.695	80.494	301.884	9.6945e-05	0.00029785	8.4105e-05	433.08	9.6277e-07	1.6947e-06	562.05	102.78	9.5723e-07	2.8493e-06	204.26	48.945	27.103	11.491	2.0312e-06	20.162	0.00016225	0.00016936	5.1891e-05	420.57	1.8175e-06	2.0287e-06	545.41	100.92	1.914e-06	1.9857e-06	199.27	50.139	26.893	11.28	1.9101e-06	19.933	141.128	112.553	69.445	-2.656	138.728	158.180	-4.465	2.457	160.421	158.601	-0.262	6.793	6.889	12.005	128.985	8.926	-8191	255	
2884.986	1	1	0	0	0.078802	0.074496	0.15688	0.066619	0.24972	0.1154	0.21239	0.038463	0.14671	0.1459	0.13778	0.076208	0.091339	0.13048	0.10771	0.13132	-2.2875	-3.0604	-2.7292	-2.9021	-3.0125	-2.6208	-3.075	-2.7646	-2.5917	-3.0958	-2.7125	-2.8708	-3.1167	-2.5687	-2.9646	-2.8354	185.574	148.822	286.854	11.919	244.323	163.712	271.080	-6.777	254.610	327.347	254.509	255.204	122.544	75.068	215.961	342.473	9.0269e-05	0.00014086	4.2819e-05	439.07	1.6396e-06	1.3333e-06	529.37	108.64	1.4839e-06	2.6106e-06	215.65	51.338	28.312	11.935	1.0081e-06	20.648	0.00016969	0.00018123	4.9809e-05	427.02	1.9445e-06	1.9872e-06	515.04	106.33	1.9234e-06	1.8249e-06	209.43	52.859	27.897	11.736	1.7406e-06	20.282	139.159	90.538	95.615	-3.202	132.078	115.560	-4.023	2.575	153.173	145.149	-0.528	6.312	5.946	11.861	166.778	8.888	-8191	255	
2885.107	1	1	0	0	0.088148	0.25043	0.080445	0.31177	0.080556	0.12763	0.12608	0.054101	0.10939	0.29333	0.20207	0.19121	0.40383	0.19323	0.37737	0.11172	-2.2833	-2.95	-2.7333	-2.7542	-3.1312	-2.6604	-2.9062	-2.9042	-2.4854	-3.0479	-2.7917	-2.5687	-2.9688	-2.5604	-3.0292	-3.0208	259.633	336.098	309.528	258.205	124.699	155.313	-9.899	217.517	-1.444	313.645	184.865	320.079	295.931	9.407	190.326	34.079	7.7561e-05	0.00016846	4.9185e-05	442.59	1.8598e-06	2.2254e-06	524.67	108.62	1.0168e-06	3.4498e-06	210.95	48.739	28.026	11.724	2.7881e-06	20.493	0.0001563	0.00016373	4.1847e-05	429.19	1.8311e-06	1.8128e-06	508.79	106.05	1.8467e-06	1.6347e-06	206.04	50.985	27.486	11.475	1.6478e-06	20.255	144.089	79.691	65.573	-3.429	113.830	140.148	-3.985	2.139	159.651	127.542	-0.145	6.290	6.720	10.974	150.317	8.714	-8191	255	
2885.201	1	1	0	0	0.23138	0.10164	0.19011	0.071904	0.12983	0.21869	0.10462	0.036723	0.1681	0.039558	0.28604	0.3007	0.13931	0.15107	0.22615	0.37904	-2.0292	-3.1562	-2.7125	-2.8187	-3.0062	-2.7271	-2.8563	-3.0312	-2.5625	-3.0583	-2.7979	-2.7625	-3.1333	-2.7708	-2.9042	-3.0792	138.174	128.275	13.473	173.344	-7.520	227.510	270.233	263.307	224.102	337.840	319.910	228.773	-13.502	308.349	50.837	-8.803	8.1396e-05	0.00012431	2.7059e-05	432.45	2.2236e-06	1.756e-06	512.48	102.63	1.6445e-06	1.0308e-06	198.85	48.196	27.365	11.303	5.2694e-07	19.967	0.00015293	0.00015127	4.4163e-05	420.39	1.6195e-06	1.7272e-06	495.6	100.08	1.7685e-06	1.722e-06	194.74	49.561	26.667	11.142	1.8426e-06	19.686	143.937	66.136	61.089	-3.636	150.841	123.154	-4.171	2.794	160.919	75.901	-0.318	5.855	6.942	12.049	190.738	9.518	-8191	255	
2885.297	1	1	0	0	0.27062	0.29091	0.18816	0.091501	0.10866	0.19268	0.18801	0.065633	0.070198	0.20609	0.099638	0.18784	0.095528	0.14705	0.19161	0.11186	-2.3833	-2.7521	-2.8083	-2.6188	-3.1813	-2.8458	-2.8271	-2.9979	-2.4958	-3.1333	-2.9854	-2.5583	-3.0375	-2.7333	-2.5833	-3.1875	15.453	115.926	258.212	222.413	257.463	172.543	134.309	121.376	30.956	25.858	189.961	-0.206	291.732	340.785	15.391	306.106	8.9604e-05	0.00029099	5.8449e-05	417.22	1.8185e-06	4.0437e-06	486.29	98.066	1.336e-06	1.6358e-06	193.31	46.828	26.682	11.028	1.5691e-06	19.859	0.00015813	0.00016067	4.6557e-05	402.74	1.8744e-06	1.9537e-06	473.38	94.941	1.8098e-06	1.8605e-06	188.34	48.336	26.047	10.932	1.8879e-06	19.516	143.202	68.021	69.521	-3.398	166.152	159.937	-4.406	2.818	124.073	167.093	-0.047	7.659	7.016	12.876	84.134	9.198	-8191	255	
2885.393	1	1	0	0	0.12225	0.23518	0.20765	0.20467	0.1894	0.22443	0.309	0.23292	0.095999	0.038691	0.25609	0.084008	0.18663	0.011749	0.038332	0.13311	-2.0021	-2.9021	-2.8521	-2.6167	-3.1042	-2.7833	-2.7625	-3.1229	-2.4604	-2.8417	-3.0229	-2.5542	-3.0604	-2.8146	-2.6396	-3.0812	69.352	89.776	150.412	297.479	42.805	2.947	291.763	-2.171	60.861	284.076	299.964	61.126	108.970	239.673	305.575	11.453	7.6095e-05	0.00011236	6.2957e-05	399.83	1.8613e-06	1.5674e-06	463.64	92.307	9.3388e-07	2.161e-06	183.94	45.143	25.361	10.546	1.3068e-06	18.906	0.00017143	0.00017428	5.0945e-05	386.07	1.9677e-06	2.1977e-06	449.41	90.487	2.2324e-06	2.1585e-06	179.19	46.538	25.034	10.437	2.2681e-06	18.672	137.096	50.146	58.754	-3.438	96.182	143.555	-3.976	2.999	125.201	145.710	-0.126	5.537	5.971	12.328	107.594	9.307	-8191	255	
2885.490	1	1	0	0	0.17787	0.17969	0.066635	0.087033	0.099126	0.059287	0.14489	0.24004	0.22946	0.52276	0.15832	0.10212	0.065039	0.17533	0.12032	0.15094	-2.1479	-2.8792	-3.0333	-2.6083	-2.9813	-2.9458	-2.7083	-3.1437	-2.6312	-3.0229	-3.0604	-2.4354	-2.9625	-2.825	-2.5542	-3.1333	164.670	245.610	132.078	335.618	33.369	212.983	176.204	342.171	118.192	-9.019	244.999	215.617	111.477	169.812	138.209	26.935	9.5644e-05	0.00015488	5.481e-05	369.07	1.4664e-06	2.3369e-06	432.89	86.475	8.9586e-07	1.4196e-06	172.77	43.591	24.371	10.144	6.0541e-07	18.163	0.00018334	0.00021357	5.5199e-05	356.09	2.2394e-06	2.5736e-06	419.34	85.132	2.4197e-06	2.379e-06	169.39	44.678	24.127	10.007	2.4553e-06	17.977	152.688	108.346	150.013	-3.686	118.961	123.154	-3.530	2.836	224.602	135.502	0.016	5.145	7.396	12.138	103.553	9.717	-8191	255	
2885.586	1	1	0	0	0.045994	0.15128	0.095879	0.18734	0.14218	0.12261	0.24133	0.23406	0.11665	0.097255	0.27556	0.34327	0.18839	0.12795	0.097012	0.07353	-2.2917	-2.7042	-3.1521	-2.6188	-2.8187	-2.9646	-2.7208	-2.9229	-2.5958	-2.7542	-2.9437	-2.5458	-2.8917	-3.0563	-2.5354	-2.9833	335.044	214.460	344.951	205.648	316.735	134.956	238.323	120.398	314.056	252.645	161.842	335.423	30.538	-3.249	189.428	163.667	9.0215e-05	0.00020665	2.7571e-05	352.4	3.4328e-07	3.8764e-06	417.4	84.87	1.4564e-06	1.4623e-06	171.53	42.272	23.698	9.8397	1.1985e-06	17.938	0.00017788	0.00023012	6.0054e-05	341.9	2.3111e-06	2.5081e-06	406.07	82.837	2.4286e-06	2.4601e-06	166.19	43.563	23.374	9.768	2.5716e-06	17.664	145.744	76.671	119.591	-3.391	51.305	127.792	-3.761	3.153	136.272	192.681	0.348	6.628	6.611	13.001	101.989	9.888	-8191	255	
2885.706	1	1	0	0	0.2063	0.13726	0.3725	0.23386	0.15279	0.031216	0.16674	0.26616	0.088275	0.24804	0.05106	0.14618	0.28428	0.083428	0.14807	0.065842	-2.2833	-2.7208	-2.9854	-2.5312	-2.925	-2.9833	-2.6604	-3.0208	-2.8292	-2.7687	-3.0812	-2.5354	-2.6917	-3.025	-2.6854	-2.8729	71.447	226.161	101.433	291.049	165.558	197.701	171.259	328.584	82.977	120.706	338.252	46.905	246.779	260.610	19.360	193.400	7.223e-05	0.00034072	5.9465e-05	341.99	1.9338e-06	1.8985e-06	408.11	81.681	2.6593e-07	2.1039e-06	166.03	40.258	22.388	9.6719	1.8468e-06	17.922	0.00019492	0.00023829	6.9151e-05	331.22	2.5475e-06	2.7386e-06	396.43	79.836	2.573e-06	2.8445e-06	161.41	42.43	22.539	9.587	2.8285e-06	17.658	148.591	63.609	104.579	-3.512	161.946	195.131	-3.535	3.406	158.543	122.834	0.235	6.901	7.073	12.448	212.777	9.542	-8191	255	
2885.802	1	1	0	0	0.22408	0.3069	0.15617	0.10346	0.072816	0.19526	0.2158	0.17105	0.079627	0.070758	0.10646	0.12506	0.26351	0.078487	0.30657	0.1169	-2.3646	-2.6979	-3.1063	-2.6021	-2.7854	-3.1104	-2.5771	-3.0979	-2.9375	-2.6521	-3.0896	-2.7479	-2.7667	-3.2125	-2.5896	-2.9792	56.864	154.494	339.048	259.714	286.894	184.006	7.952	-1.004	148.348	197.960	244.818	272.974	59.887	243.253	94.248	154.354	8.081e-05	0.00025475	7.179e-05	340.82	1.3773e-06	2.4922e-06	407.45	81.723	1.53e-06	1.3135e-06	165.49	39.595	22.661	9.6756	1.0743e-06	17.534	0.0002048	0.0002675	8.0075e-05	331.38	2.9494e-06	3.2149e-06	397.48	80.441	3.0868e-06	3.2939e-06	161.48	42.059	22.539	9.5778	3.3519e-06	17.469	153.116	73.978	115.368	-3.540	107.775	159.080	-3.629	2.852	231.821	78.869	0.322	7.808	6.658	13.289	169.031	9.980	-8191	255	
2885.899	1	1	0	0	0.10015	0.17503	0.18811	0.076164	0.048841	0.078894	0.1091	0.15705	0.21437	0.27313	0.2118	0.076242	0.2007	0.28684	0.20863	0.20204	-2.5938	-2.6188	-3.075	-2.7021	-2.8458	-3.1562	-2.6583	-2.8333	-2.8458	-2.5833	-3.0583	-2.6021	-2.5604	-3.0479	-2.7292	-2.8958	76.859	302.418	231.662	7.950	53.537	167.740	196.182	303.736	132.557	160.476	163.117	200.110	-9.584	236.637	110.836	145.204	7.0115e-05	0.00014663	5.7241e-05	338.89	2.1491e-06	2.3001e-06	399.54	82.546	1.2708e-06	6.5327e-07	165.57	39.987	22.919	9.4479	2.3688e-06	17.576	0.00023619	0.00032273	8.3494e-05	328.53	3.5436e-06	3.5882e-06	390.05	80.754	3.5004e-06	3.7545e-06	161.5	42.206	22.532	9.4484	3.662e-06	17.341	148.903	72.290	115.741	-3.521	109.658	155.244	-3.797	3.039	167.905	337.509	0.537	6.688	7.188	13.463	115.647	10.159	-8191	255	
2885.995	1	1	0	0	0.17984	0.16498	0.059529	0.17403	0.17087	0.083888	0.29053	0.15323	0.10836	0.27178	0.22546	0.082652	0.18426	0.3066	0.05019	0.27103	-2.5292	-2.6229	-3.0167	-2.8125	-2.6875	-3.1312	-2.7542	-2.9104	-2.9229	-2.5938	-3.0917	-2.9062	-2.7354	-3.0729	-2.65	-2.925	117.037	230.819	180.209	-10.572	-6.098	318.965	332.845	289.290	115.911	113.309	261.547	125.856	160.624	332.254	308.247	337.352	7.6917e-05	0.00011455	0.00010266	335.3	2.0193e-06	2.3231e-06	397.84	84.956	1.4907e-06	3.8492e-06	172.03	40.86	23.603	9.736	1.9002e-06	17.838	0.00025051	0.0003444	9.0888e-05	324.36	3.5985e-06	3.5775e-06	389.49	83.49	3.382e-06	3.6405e-06	167.99	43.227	23.211	9.6337	3.4547e-06	17.741	134.119	104.272	45.089	-3.321	159.674	109.762	-3.760	2.716	104.705	183.564	0.526	8.979	7.595	13.341	173.514	10.479	-8191	255	
2886.114	1	1	0	0	0.27245	0.16832	0.072797	0.11928	0.12352	0.28567	0.27307	0.079308	0.31814	0.1689	0.096983	0.21321	0.26107	0.10571	0.10353	0.093444	-2.5708	-2.5812	-2.8854	-2.9271	-2.5938	-2.9437	-2.6604	-2.8312	-3.0042	-2.6208	-3.1729	-2.8979	-2.4917	-3.0833	-2.8208	-2.7021	213.452	324.854	97.175	252.810	58.395	316.701	341.188	103.208	67.186	107.442	120.327	170.727	142.123	266.605	272.689	165.051	4.8822e-05	0.00020233	1.9899e-05	341.52	1.6708e-06	1.5235e-06	407.17	90.815	1.8754e-06	1.8314e-06	178.39	43.354	24.75	9.905	1.2957e-06	18.266	0.00023349	0.00032619	8.2057e-05	332.26	3.4851e-06	3.3706e-06	396.45	88.675	3.2389e-06	3.4512e-06	174.72	45.317	24.66	9.9079	3.3493e-06	18.025	137.164	137.412	83.997	-3.617	135.612	118.454	-3.709	2.807	149.319	118.023	0.409	7.789	7.239	13.037	147.786	10.213	-8191	255	
2886.185	1	1	0	0	0.016647	0.13969	0.22206	0.17132	0.10638	0.17313	0.24896	0.20832	0.21958	0.13351	0.19708	0.18284	0.2757	0.26592	0.13434	0.10674	-2.6562	-2.5375	-2.8	-2.8958	-2.8146	-2.9167	-2.9437	-2.6479	-2.9208	-2.5396	-2.8771	-2.9021	-2.6229	-3.0667	-2.8896	-2.7521	81.377	272.530	40.148	176.138	301.314	38.675	243.197	225.916	196.550	45.952	304.858	303.651	13.538	-9.401	220.219	322.821	7.7386e-05	0.00019993	1.8747e-05	350.12	1.0813e-06	2.9235e-06	410.31	95.553	1.2968e-06	2.0052e-06	181.48	44.064	24.948	10.041	8.4452e-07	18.104	0.0002287	0.00031797	8.6222e-05	337.91	3.1954e-06	3.1627e-06	400	92.874	3.2502e-06	3.236e-06	176.69	45.399	24.972	9.9225	3.388e-06	17.888	147.798	87.593	335.799	-3.725	161.374	102.798	-4.206	2.741	143.882	138.234	0.356	7.677	7.265	13.318	237.366	10.165	-8191	255	
2886.281	1	1	0	0	0.1186	0.1687	0.11928	0.13181	0.10813	0.027138	0.33431	0.19684	0.16246	0.11285	0.091008	0.096818	0.31422	0.29687	0.15078	0.26073	-2.8187	-2.4938	-2.8563	-2.9458	-2.6583	-2.9813	-2.8792	-2.6	-2.9292	-2.7646	-2.8937	-3.0104	-2.4021	-2.8667	-2.8417	-2.5208	206.993	35.287	237.584	217.065	120.885	315.548	285.137	262.300	295.298	312.957	127.192	241.052	20.550	125.523	181.674	205.368	7.8819e-05	0.00012719	8.5815e-05	345.7	1.0259e-06	8.6575e-07	399.86	90.425	2.2538e-06	4.7545e-06	171.19	42.491	23.788	9.5478	1.9075e-06	17.442	0.00023524	0.00028623	8.9084e-05	335.7	3.3749e-06	3.5235e-06	388.1	88.819	3.4055e-06	3.6587e-06	167.26	44.105	23.885	9.4718	3.9403e-06	17.255	143.847	67.464	83.089	-3.662	174.328	123.384	-3.517	2.596	86.543	159.345	0.435	7.900	7.873	12.973	167.766	10.605	-8191	255	
2886.378	1	1	0	0	0.16354	0.10039	0.22249	0.070834	0.19382	0.1816	0.26463	0.14835	0.018102	0.3115	0.23392	0.092885	0.22179	0.18421	0.14308	0.022386	-2.75	-2.7146	-2.6708	-2.8438	-2.4958	-2.7938	-2.7979	-2.6042	-2.9479	-2.7396	-2.7042	-3.1708	-2.5604	-2.8812	-2.9729	-2.6542	126.366	175.588	88.778	66.638	124.043	219.977	310.237	217.175	79.458	226.707	256.239	138.882	184.892	157.008	330.905	83.371	6.8699e-05	0.00027057	0.00011685	320.56	6.5264e-07	2.4373e-06	364.72	79.289	6.7525e-07	2.8228e-06	152.19	38.002	22.621	8.8913	1.7602e-06	16.363	0.00025935	0.00037936	0.00010676	311.41	3.9751e-06	4.2219e-06	355.02	78.24	4.2166e-06	4.7104e-06	149.35	41.109	22.304	8.8722	4.4813e-06	16.241	148.140	87.434	90.963	-4.022	188.342	172.667	-3.938	2.851	253.028	77.440	0.619	7.488	6.798	13.359	192.267	10.574	-8191	255	
2886.474	1	1	0	0	0.15575	0.21564	0.1396	0.15384	0.18184	0.23809	0.026259	0.19239	0.088257	0.18226	0.22167	0.095579	0.09237	0.20933	0.24465	0.038379	-2.6167	-2.6312	-2.5771	-3.0708	-2.5563	-2.95	-3.0771	-2.5167	-2.9042	-3.0396	-2.5708	-2.9542	-2.6292	-2.8542	-2.9521	-2.7354	319.337	30.055	18.342	161.327	137.916	290.504	221.606	301.867	182.897	86.294	-4.947	103.193	120.791	306.554	95.362	44.814	7.2276e-05	7.8052e-05	8.1204e-05	283.68	2.2247e-06	5.9375e-07	328.03	70.661	2.9591e-06	1.9681e-06	137.28	36.86	21.321	8.6965	2.5566e-06	15.867	0.00031143	0.00046567	0.00013173	275.72	4.8642e-06	5.5696e-06	321.41	69.951	5.1675e-06	5.7536e-06	135.42	40.047	21.483	8.6991	5.7782e-06	15.908	142.914	51.208	73.718	-3.481	121.881	104.596	-3.514	2.171	123.736	143.353	0.606	6.677	6.210	12.855	106.523	9.856	-8191	255	
2886.594	1	1	0	0	0.18811	0.18265	0.15327	0.13715	0.071327	0.084019	0.10776	0.23692	0.21422	0.19096	0.21313	0.021887	0.14414	0.063251	0.28521	0.19407	-2.625	-2.9021	-2.5479	-3.0854	-2.7417	-2.6312	-3.0958	-2.6229	-2.9417	-2.9625	-2.6583	-3.1458	-2.8167	-2.7708	-3.0729	-2.3521	199.430	336.893	273.990	31.091	233.518	328.206	-6.297	262.934	51.486	239.667	250.848	265.018	10.953	245.900	247.373	139.453	6.4696e-05	0.00013044	2.6468e-05	265.65	1.9029e-06	3.9375e-06	314.15	68.659	2.0469e-06	2.7374e-06	132.78	35.565	21.251	8.6961	1.9327e-06	15.888	0.00037103	0.00056527	0.00016056	259.05	5.91e-06	6.519e-06	306.94	67.547	5.9688e-06	6.5972e-06	131.11	39.384	21.465	8.7305	6.2139e-06	15.81	148.001	222.380	-1.685	-4.145	181.251	78.827	-3.588	2.489	164.925	121.970	0.369	7.108	7.723	13.125	143.035	9.987	-8191	255	
2886.691	1	1	0	0	0.14082	0.22382	0.22694	0.11111	0.097728	0.10728	0.13207	0.064709	0.075203	0.1599	0.23177	0.15726	0.10648	0.32078	0.2048	0.17635	-2.5375	-2.9437	-2.1937	-2.8792	-2.6437	-2.5917	-2.8354	-2.5708	-2.7667	-3.0104	-2.7438	-3.0604	-2.5979	-2.6229	-3.1188	-2.6917	299.216	55.816	61.813	324.644	310.955	283.280	35.950	262.230	248.311	172.568	315.075	-3.960	76.098	240.043	310.237	172.303	5.7182e-05	0.00026549	8.0094e-05	264.19	1.314e-06	2.9525e-06	312.94	66.825	1.0913e-06	2.8324e-06	133.63	35.919	21.102	8.714	1.2948e-06	15.927	0.00039528	0.00061261	0.00017355	257.15	6.1284e-06	6.5404e-06	306.25	66.76	6.1858e-06	6.6672e-06	130.73	39.507	21.562	8.776	6.6429e-06	15.927	127.544	31.136	45.759	-3.890	-4.322	105.062	-3.597	3.077	134.584	78.423	0.224	7.102	6.585	12.772	314.389	9.595	-8191	255	
2886.787	1	1	0	0	0.24319	0.21957	0.16174	0.085726	0.32269	0.1418	0.15936	0.42381	0.31561	0.16515	0.10424	0.14675	0.25607	0.15407	0.15323	0.12163	-2.4958	-2.8417	-2.6479	-3.0229	-2.9667	-2.6896	-3.1437	-2.6312	-2.625	-3.0708	-2.6625	-3.0271	-2.8875	-2.6604	-3.0146	-2.7438	2.525	141.787	214.137	223.951	-12.353	1.776	19.154	261.910	133.413	170.732	265.840	270.733	113.649	194.628	84.879	96.543	8.2839e-05	0.00041125	6.6871e-05	263.5	1.727e-06	1.0858e-06	314.39	68.026	8.2015e-07	1.5838e-06	132.02	35.839	21.646	8.8015	1.7153e-06	16.346	0.00041097	0.00061198	0.0001811	256.15	6.4341e-06	7.1706e-06	307.6	67.057	6.588e-06	6.905e-06	130.21	39.989	21.919	8.8643	6.8926e-06	16.18	155.262	52.712	183.995	-4.185	113.413	298.118	-3.768	2.689	116.135	249.850	0.638	7.510	7.385	13.101	99.601	10.033	-8191	255	
2886.883	1	1	0	0	0.075365	0.16495	0.075223	0.058829	0.17214	0.05353	0.094806	0.25245	0.17434	0.28601	0.026761	0.2447	0.25958	0.048886	0.0071375	0.14946	-2.3208	-3.0417	-2.625	-2.8375	-2.9667	-2.625	-3.1	-2.6792	-2.5021	-3.1583	-2.8063	-2.775	-2.8688	-2.4	-3.0604	-2.9313	291.907	43.053	22.923	81.736	86.318	44.552	28.244	282.100	149.586	251.715	343.401	231.254	176.864	79.607	231.759	103.023	6.0699e-05	8.802e-05	3.3621e-05	261.3	1.875e-06	2.2643e-06	317.58	66.579	8.2236e-07	2.1505e-06	131.52	37.098	21.514	8.8103	1.8541e-06	16.104	0.00044034	0.0006467	0.00017938	256.05	6.628e-06	7.1831e-06	308.85	66.379	7.0122e-06	7.5763e-06	130.05	40.614	22.009	8.914	7.0919e-06	16.157	134.039	29.236	59.581	-4.069	189.656	137.402	-4.033	3.380	88.520	228.762	0.484	7.109	6.982	12.412	341.758	9.245	-8191	255	
2886.979	1	1	0	0	0.14097	0.1209	0.18252	0.090433	0.11459	0.18617	0.18217	0.17304	0.16722	0.16841	0.074867	0.20726	0.14493	0.1041	0.15497	0.15457	-2.075	-2.9771	-2.5125	-2.7125	-3.0563	-2.5604	-2.9625	-2.7687	-2.5354	-3.0542	-2.7292	-2.7771	-2.8958	-2.5208	-2.9104	-2.7792	231.352	274.769	308.222	123.570	110.800	75.063	251.683	67.042	280.110	343.710	76.513	154.402	199.682	237.389	-6.994	215.560	6.2934e-05	0.00028173	6.5192e-05	263.43	2.619e-06	3.2314e-06	314.18	67.439	1.6893e-06	1.8513e-06	131.96	36.257	21.853	8.9453	1.1455e-06	16.31	0.00044434	0.00067297	0.00019286	256.63	7.2282e-06	7.555e-06	306.56	66.872	7.1278e-06	7.6885e-06	129.61	40.82	22.246	9.0346	7.6044e-06	16.299	152.586	47.954	105.712	-3.394	192.776	184.154	-4.323	2.908	176.693	81.209	0.386	6.578	6.857	12.915	322.837	9.551	-8191	255	
2887.075	1	1	0	0	0.081301	0.12889	0.086579	0.13289	0.27212	0.083267	0.093551	0.16815	0.29074	0.053317	0.25508	0.19523	0.23308	0.14905	0.1999	0.13122	-2.1188	-3.0354	-2.5917	-3.1292	-2.9396	-2.4542	-2.8667	-2.8438	-2.5521	-3.125	-2.7208	-2.5271	-2.9896	-2.7062	-2.9437	-3.0438	313.586	269.205	245.041	104.694	220.502	178.714	128.044	281.708	318.974	262.238	272.955	123.698	259.106	220.130	40.098	273.598	9.1154e-05	0.00018782	7.5055e-05	266.21	2.404e-06	1.6491e-06	318.29	68.295	1.6496e-06	1.9712e-06	133.99	37.961	21.978	9.1419	1.3228e-06	16.561	0.00047055	0.00071182	0.00021116	258.79	7.4991e-06	8.2721e-06	310.75	67.838	7.6027e-06	8.2778e-06	131.21	42.065	22.698	9.1932	8.0262e-06	16.571	134.434	71.765	80.925	-3.632	196.564	279.873	-4.113	2.751	204.241	213.639	0.842	6.417	6.374	13.025	256.315	9.343	-8191	255	
2887.194	1	1	0	0	0.037171	0.29625	0.096979	0.093552	0.20028	0.10404	0.36454	0.14609	0.12715	0.19184	0.13067	0.099398	0.2336	0.26402	0.2634	0.11028	-2.1188	-3.0208	-2.7062	-2.5021	-3.0062	-2.4896	-2.9771	-2.8625	-2.5833	-2.9167	-3.0021	-2.8604	-3.0542	-2.7833	-2.8729	-2.9667	258.636	300.238	36.073	17.503	113.429	87.724	254.609	337.384	100.500	189.066	267.399	227.311	215.045	142.413	248.560	5.225	8.4157e-05	0.00013288	3.4737e-05	269.8	1.9161e-06	1.136e-06	322.21	69.679	1.7374e-06	8.5351e-07	135.18	38.598	23.025	9.3184	1.8677e-06	16.789	0.0005183	0.00075372	0.00020966	262.38	7.7531e-06	8.277e-06	315.6	68.962	7.7685e-06	8.3308e-06	133.17	42.55	23.239	9.349	7.7371e-06	16.825	142.807	38.875	109.842	-3.846	223.403	206.876	-3.876	2.094	126.252	300.802	0.321	6.617	6.735	12.812	145.638	9.908	-8191	255	
2887.290	1	1	0	0	0.34821	0.16689	0.067909	0.24248	0.15167	0.26718	0.021666	0.12667	0.13869	0.22495	0.1422	0.026285	0.086369	0.053475	0.18511	0.18115	-2.3542	-2.8417	-2.9625	-2.8333	-3.2	-2.7958	-2.8542	-2.9417	-2.6167	-3.0208	-2.9417	-2.4875	-3.1042	-2.7438	-2.8958	-3.0375	48.158	125.091	147.096	274.395	222.610	302.195	128.075	128.526	-4.580	63.592	38.189	188.117	64.584	142.183	77.799	194.747	7.9649e-05	0.00022398	5.0095e-05	268.84	2.2047e-06	3.2914e-06	324.26	69.467	9.2207e-07	3.6195e-06	135.67	39.261	22.679	9.3556	2.0403e-06	16.925	0.00046992	0.00070864	0.00020387	263.92	7.3697e-06	8.1062e-06	319.07	69.158	7.3889e-06	8.1549e-06	134.06	42.983	23.185	9.3903	7.8646e-06	16.848	142.001	46.358	58.381	-3.877	141.954	80.997	-3.529	2.991	101.037	205.632	0.725	7.175	6.926	12.356	157.341	9.813	-8191	255	
2887.386	1	1	0	0	0.13545	0.29472	0.064258	0.17134	0.18312	0.28934	0.07567	0.12196	0.17312	0.0423	0.18188	0.060129	0.15214	0.26364	0.14319	0.17426	-2.1	-2.9417	-2.8771	-2.4833	-3.1396	-2.6396	-2.6396	-2.9396	-2.7208	-2.9542	-3.0083	-2.6813	-3.0812	-2.7604	-2.6813	-2.9667	197.054	20.453	69.916	291.535	111.398	109.864	267.467	76.403	-9.181	173.083	247.412	259.753	286.941	77.697	122.931	255.806	9.3532e-05	0.00012801	5.0086e-05	272.18	8.4875e-07	1.8428e-06	324.72	70.509	2.5543e-06	3.4398e-06	136.84	39.082	23.079	9.3466	1.4754e-06	16.913	0.00048898	0.00071094	0.00020617	265.97	7.4602e-06	8.2551e-06	319.47	69.783	7.4713e-06	7.9611e-06	135.15	43.195	23.517	9.4612	7.6556e-06	16.974	127.782	331.845	127.600	-4.387	68.422	338.011	-4.093	2.613	157.686	146.994	0.692	6.655	6.393	12.949	-6.652	9.271	-8191	255	
2887.482	1	1	0	0	0.25661	0.18183	0.22873	0.1191	0.062511	0.17121	0.07965	0.24763	0.066941	0.057724	0.13458	0.075784	0.32918	0.052131	0.056521	0.16657	-2.2396	-2.9437	-2.975	-2.7208	-3.0312	-2.8729	-2.7521	-2.9729	-2.7479	-2.9542	-3.0979	-2.6917	-2.8563	-2.7479	-2.8333	-2.9729	276.959	294.734	134.964	335.513	278.785	249.322	31.483	298.283	19.595	67.931	-7.759	311.945	33.068	133.960	198.844	213.673	8.2785e-05	0.00045765	3.892e-05	276.09	1.1961e-06	1.0628e-06	331.07	70.917	2.295e-06	3.1792e-06	138.58	39.283	23.13	9.5977	2.8796e-06	17.202	0.00045873	0.00069547	0.00019786	268.33	7.1116e-06	7.889e-06	324.07	70.348	7.1221e-06	7.7682e-06	136.38	43.346	23.588	9.5878	7.4877e-06	17.219	161.133	102.217	58.105	-3.923	216.448	207.425	-3.909	2.660	90.150	159.297	-0.132	6.214	7.359	12.525	67.551	9.881	-8191	255	
2887.579	1	1	0	0	0.051596	0.20589	0.12655	0.20021	0.19933	0.12541	0.067447	0.25076	0.2289	0.1804	0.23713	0.052483	0.17938	0.20911	0.24197	0.20089	-2.3	-2.6604	-2.9583	-2.6042	-2.9313	-2.8146	-2.5917	-3.0062	-2.7167	-2.7979	-3.0208	-2.6188	-2.6979	-2.8125	-2.4875	-3.0479	53.471	298.878	235.649	232.019	40.015	238.303	121.396	83.916	299.506	211.651	275.538	-14.157	19.627	293.731	56.439	-2.818	8.3699e-05	5.0207e-05	4.0669e-05	276.49	4.6296e-07	2.4539e-06	332.4	71.843	1.7222e-06	1.8697e-06	139.87	38.713	23.462	9.7356	1.7185e-06	17.408	0.00046443	0.00069678	0.00019023	270.07	7.1978e-06	7.8163e-06	326.79	71.106	7.0511e-06	7.7723e-06	137.84	43.738	23.941	9.7359	7.1075e-06	17.392	166.431	341.993	68.706	-3.528	13.728	189.325	-4.213	2.659	122.193	221.370	0.183	5.846	6.755	12.351	49.831	9.555	-8191	255	
2887.675	1	1	0	0	0.17671	0.10399	0.16355	0.25196	0.11721	0.18141	0.17083	0.040049	0.15839	0.28582	0.19741	0.25666	0.096921	0.28074	0.10662	0.070306	-2.125	-2.6792	-2.8917	-2.7375	-2.7896	-2.9458	-2.5292	-3.0292	-2.6562	-2.5979	-3.0687	-2.4708	-2.7854	-2.85	-2.4479	-2.9542	90.355	145.057	98.989	15.204	45.833	48.735	271.725	93.288	321.569	163.678	119.947	60.649	258.496	68.865	124.302	219.027	5.9685e-05	0.00019655	8.0897e-05	279.67	1.1752e-06	6.9283e-07	335.66	72.606	5.929e-07	3.093e-06	140.37	39.02	23.693	9.6497	4.9343e-07	17.499	0.00044729	0.00067912	0.00018078	271.09	6.7827e-06	7.4145e-06	326.8	71.343	6.953e-06	7.2725e-06	138.05	43.561	23.773	9.6796	6.9106e-06	17.319	161.230	39.816	60.081	-4.100	106.960	344.410	-3.885	3.139	108.396	141.406	0.671	6.642	6.542	12.570	309.840	9.390	-8191	255	
2887.795	1	1	0	0	0.062517	0.12994	0.053336	0.14983	0.10869	0.065532	0.15006	0.23628	0.13169	0.19544	0.049386	0.2146	0.12585	0.16192	0.14238	0.11123	-2.6063	-2.7292	-3.0375	-2.7083	-2.6542	-3.0729	-2.6771	-2.9875	-2.7375	-2.6292	-3.0271	-2.7021	-2.7208	-2.8521	-2.6042	-3.0812	166.757	48.715	252.528	31.789	49.260	239.857	140.164	311.704	217.868	126.521	220.500	210.838	164.663	64.862	148.399	225.782	8.0385e-05	0.0001156	2.9293e-05	279.05	1.0657e-06	7.5551e-07	335.02	72.557	3.3731e-06	1.9044e-06	140.22	39.845	23.807	9.6544	1.3285e-06	17.592	0.00042532	0.00064575	0.00017305	271.63	6.5848e-06	7.2731e-06	328.26	71.6	6.6979e-06	7.032e-06	138.31	43.787	23.999	9.7127	6.5723e-06	17.446	144.143	272.776	174.666	-4.189	153.221	241.842	-4.083	2.774	195.872	82.731	-0.001	6.640	6.492	12.113	165.737	9.550	-8191	255	
2887.892	1	1	0	0	0.28367	0.19139	0.063411	0.11745	0.13136	0.062337	0.073433	0.023526	0.034389	0.26936	0.191	0.23348	0.19712	0.10706	0.28771	0.10124	-2.4333	-2.4646	-2.7562	-2.6979	-2.8271	-3.0333	-2.6417	-2.9896	-2.8229	-2.7313	-3.0625	-2.7625	-2.6833	-2.9917	-2.5792	-2.8333	10.994	165.857	69.193	0.418	223.927	157.567	241.847	15.420	179.497	253.288	302.383	285.606	213.204	82.783	215.052	263.883	7.9408e-05	0.00024033	7.4041e-05	279.07	1.6169e-06	2.1677e-06	335.43	72.117	2.6964e-06	2.0522e-06	141.89	40.697	23.868	9.8836	1.7277e-06	17.774	0.00040116	0.00063555	0.00017709	272.22	6.2754e-06	6.8085e-06	329.57	71.989	6.4023e-06	6.6819e-06	139.55	43.993	24.073	9.8519	6.5291e-06	17.674	164.422	58.427	45.390	-3.763	279.352	222.483	-3.798	2.346	145.526	140.514	0.694	6.513	7.770	12.351	32.754	9.469	-8191	255	
2887.986	1	1	0	0	0.14635	0.14205	0.1551	0.15378	0.042195	0.15614	0.2668	0.22038	0.32977	0.049634	0.075274	0.13803	0.092226	0.25114	0.14297	0.24471	-2.6167	-2.5438	-3	-2.6542	-2.6125	-3.0875	-2.5333	-2.8021	-3.0042	-2.5146	-2.9375	-2.7479	-2.6312	-3.1125	-2.5979	-2.7833	87.301	163.384	260.688	70.146	168.085	190.960	91.177	211.613	92.140	255.273	2.857	275.255	316.727	343.571	77.443	231.029	9.5283e-05	0.00019067	7.8867e-05	279.29	1.6521e-06	1.9582e-06	340.51	73.477	9.9768e-07	2.8678e-06	143.1	40.39	23.948	9.9528	1.3392e-06	18.01	0.0004026	0.00060745	0.00016655	273.14	6.0318e-06	6.7389e-06	332.58	72.734	6.2482e-06	6.6814e-06	141.04	44.548	24.152	9.9268	6.4137e-06	17.819	153.030	130.629	173.132	-4.289	223.938	143.048	-3.657	2.613	289.812	90.562	0.394	6.595	6.328	12.746	170.727	9.821	-8191	255	
2888.059	1	1	0	0	0.040296	0.15127	0.19817	0.088963	0.11863	0.20764	0.13785	0.29918	0.084124	0.20091	0.21699	0.14326	0.22169	0.090874	0.043625	0.072127	-2.7125	-2.5687	-2.8312	-2.8229	-2.475	-2.8563	-2.7062	-2.8125	-2.8625	-2.5646	-2.9729	-2.675	-2.5125	-3.0583	-2.5479	-2.7292	32.649	123.596	-14.756	244.519	130.482	237.921	94.360	339.954	298.177	312.749	200.704	76.092	15.196	89.634	167.509	51.469	7.3941e-05	7.1886e-05	6.9788e-05	280.83	1.4733e-06	2.3402e-06	339.52	73.408	6.0985e-07	8.2742e-07	143.01	39.462	23.87	9.816	1.8128e-06	17.72	0.00039202	0.00058388	0.00016676	273.76	6.142e-06	6.2885e-06	331.06	72.652	5.8634e-06	6.7692e-06	140.46	43.896	24.222	9.8456	6.025e-06	17.59	147.281	343.669	103.865	-3.774	149.573	98.344	-4.010	1.911	60.089	193.260	0.726	7.959	7.544	12.643	148.733	9.472	-8191	255	
2888.156	1	1	0	0	0.10582	0.39015	0.13581	0.091977	0.27988	0.27054	0.013504	0.18865	0.10334	0.22993	0.13336	0.15419	0.24357	0.11192	0.1834	0.23429	-2.4729	-2.6042	-2.9583	-2.9604	-2.5271	-3.0125	-2.7833	-2.525	-3.0438	-2.5812	-2.9188	-2.875	-2.4104	-2.9604	-2.6063	-2.6667	158.862	156.731	41.099	126.267	277.030	107.673	325.711	213.194	276.124	5.252	304.874	338.290	135.123	321.126	124.858	221.343	0.00010626	0.00010373	2.4986e-05	281.95	1.0466e-06	1.7768e-06	340.84	73.474	1.2133e-06	2.9605e-06	142.92	41.863	23.976	9.8903	8.1056e-07	17.874	0.00039574	0.00059781	0.00016262	274.15	5.9793e-06	6.4098e-06	332.56	72.521	5.8034e-06	6.5032e-06	141.23	44.521	24.347	9.9167	6.0082e-06	17.817	169.101	277.704	69.814	-4.029	191.380	139.872	-3.634	2.679	165.461	165.350	0.108	6.277	7.732	11.779	43.749	9.623	-8191	255	
2888.274	1	1	0	0	0.10261	0.18742	0.23896	0.079579	0.10173	0.021364	0.1553	0.11778	0.28135	0.11074	0.24135	0.20408	0.055639	0.05422	0.05352	0.21613	-2.5604	-2.4792	-2.6167	-3.1292	-2.5729	-3.0875	-2.9167	-2.6583	-3.2562	-2.7771	-3.0312	-3.1375	-2.7167	-2.9562	-2.9646	-2.7771	130.766	244.625	277.723	125.998	156.001	178.831	131.361	296.887	47.442	14.352	295.360	136.402	21.083	73.228	328.589	284.882	6.6661e-05	0.00010595	1.9619e-05	282.5	1.7796e-06	3.381e-06	346.5	73.539	1.5047e-06	6.8968e-07	145.61	41.019	24.162	10.144	1.2308e-06	17.912	0.00038149	0.00056471	0.00015663	276.32	5.7349e-06	6.1542e-06	337.22	73.055	5.4867e-06	6.101e-06	142.66	44.299	24.423	10.039	5.8609e-06	17.988	145.734	-7.297	301.034	-3.622	47.019	176.048	-4.113	2.346	174.455	313.556	0.429	7.605	6.780	12.336	120.811	9.656	-8191	255	
2888.371	1	1	0	0	0.26905	0.29668	0.038834	0.22098	0.28753	0.16497	0.15776	0.12253	0.10125	0.086842	0.24527	0.17232	0.07807	0.13585	0.059481	0.14494	-2.7104	-2.6667	-2.7062	-3.1021	-2.5854	-2.8708	-2.9542	-2.6875	-3.1188	-2.95	-2.8063	-2.8604	-2.5229	-2.9938	-2.9271	-2.5208	113.897	38.333	274.700	292.235	55.310	340.860	323.708	283.187	177.576	65.608	175.752	214.745	38.022	146.147	-6.028	112.705	9.1887e-05	0.00012565	3.4721e-05	287.55	2.0638e-06	3.4835e-07	350.56	74.07	9.9725e-07	2.4878e-06	147.53	41.89	24.311	10.026	3.5513e-06	18.177	0.00037789	0.00053444	0.00015126	278.9	5.5238e-06	6.1038e-06	341.18	73.455	5.4222e-06	5.8787e-06	143.85	44.763	24.526	9.9651	5.4496e-06	18.077	144.433	78.143	95.030	-3.612	99.836	214.765	-3.617	2.477	45.008	127.307	-0.028	6.119	6.229	12.679	187.629	9.440	-8191	255	
2888.467	1	1	0	0	0.18079	0.070738	0.09918	0.16065	0.090894	0.11644	0.10426	0.26706	0.09232	0.17674	0.12897	0.082394	0.14245	0.24076	0.15215	0.13353	-2.5729	-2.7208	-2.6479	-3.2125	-2.8479	-2.9062	-3.1042	-2.5604	-3.0438	-2.8688	-2.6604	-3.0375	-2.7708	-2.8688	-2.9875	-2.5479	216.566	28.910	41.058	337.421	113.538	110.013	92.366	1.852	238.175	283.054	275.843	24.198	232.570	216.569	305.636	177.918	5.7429e-05	0.00010516	2.7911e-05	286.81	1.548e-06	1.7433e-06	346.84	75.167	1.1235e-06	1.4889e-06	146.6	41.884	24.205	10.069	1.4105e-06	18.125	0.00035684	0.00054733	0.00014522	279.46	5.2677e-06	5.9036e-06	339.08	73.698	5.3147e-06	5.5491e-06	143.62	44.61	24.348	10.024	5.5738e-06	18.039	137.032	49.511	98.252	-3.719	120.603	140.566	-3.441	2.773	184.829	60.790	0.382	6.948	6.606	13.007	165.748	9.531	-8191	255	
2888.587	1	1	0	0	0.35163	0.25952	0.18526	0.19971	0.19853	0.12921	0.17567	0.23471	0.072673	0.083022	0.066024	0.25006	0.21881	0.30873	0.26628	0.13222	-2.5667	-2.8917	-2.5979	-3.1292	-2.6896	-2.7313	-2.9833	-2.6458	-2.9292	-3.0167	-2.6625	-3	-2.8104	-2.8438	-3.0521	-2.5542	339.317	262.595	-11.885	52.051	128.975	329.116	261.675	239.705	303.130	10.312	55.356	141.537	290.174	94.674	22.612	9.145	9.971e-05	0.00019502	1.6814e-05	289.88	3.9296e-07	2.8301e-06	353.19	74.659	2.7669e-06	1.9784e-06	146.45	42.249	24.597	10.025	1.0682e-06	18.297	0.00035475	0.00052329	0.00014768	281.47	5.2681e-06	5.9647e-06	342.42	73.79	5.2884e-06	5.9839e-06	144.06	45.037	24.472	10.061	5.3484e-06	18.148	141.870	78.836	85.177	-3.795	48.782	158.751	-4.303	2.875	160.498	148.936	0.215	6.612	6.746	12.288	174.026	9.682	-8191	255	
2888.659	1	1	0	0	0.032245	0.27661	0.097319	0.17384	0.17338	0.15619	0.065913	0.14353	0.34459	0.13889	0.099115	0.11564	0.13816	0.083836	0.05968	0.18691	-2.3958	-2.8667	-2.6063	-2.9229	-2.65	-2.4958	-3.0396	-2.6729	-2.7417	-2.9292	-2.5021	-3.0938	-2.7562	-2.6896	-2.9917	-2.6396	269.624	161.436	203.248	294.861	156.275	4.167	288.942	182.467	280.676	68.678	122.253	73.936	99.370	274.091	273.403	36.007	9.6481e-05	0.00042902	8.0633e-05	290.48	2.2566e-06	2.155e-06	354.12	75.397	1.0629e-06	2.1114e-06	149.15	42.274	24.509	10.182	7.1725e-07	18.356	0.00035617	0.00051876	0.00014306	283.45	5.406e-06	6.0271e-06	345.07	74.475	5.3058e-06	5.7117e-06	145.7	45.221	24.655	10.154	5.5092e-06	18.373	147.885	19.971	26.721	-3.988	199.072	169.718	-3.631	2.628	68.847	103.180	0.371	6.341	7.058	12.726	92.965	9.372	-8191	255	
2888.755	1	1	0	0	0.34891	0.10059	0.27289	0.22562	0.19839	0.21493	0.11426	0.17023	0.12523	0.25066	0.27396	0.19796	0.046661	0.050138	0.24254	0.16438	-2.4104	-2.8104	-2.4083	-2.8104	-2.7375	-2.6479	-2.9833	-2.625	-2.775	-2.9771	-2.6083	-2.8271	-2.7521	-2.5479	-3.0417	-2.6292	40.385	85.140	32.468	211.536	-11.057	128.294	148.481	213.862	141.642	262.911	276.684	311.406	47.577	127.652	80.807	316.552	8.3027e-05	0.00014346	0.00013883	292.02	4.9747e-07	1.4506e-06	356.15	75.136	1.4236e-06	2.1122e-06	148.3	41.84	24.781	10.136	2.5573e-06	18.564	0.00036161	0.00050741	0.00014866	284.65	5.2633e-06	5.7966e-06	348.43	74.695	5.5686e-06	5.6667e-06	145.57	45.055	24.808	10.134	5.3468e-06	18.244	142.286	125.979	86.418	-4.086	233.362	282.201	-3.895	2.430	152.842	203.379	0.467	5.127	6.975	12.991	183.015	9.763	-8191	255	
2888.876	1	1	0	0	0.080279	0.18518	0.03717	0.23278	0.21715	0.17175	0.24352	0.2373	0.4965	0.33758	0.18104	0.19673	0.15222	0.075966	0.04989	0.17944	-2.3187	-2.8438	-2.5417	-2.6521	-3.0104	-2.4542	-2.9375	-2.8292	-2.6146	-2.8729	-2.4896	-2.7812	-2.9042	-2.5979	-2.9938	-2.7083	207.535	45.945	138.541	309.006	117.366	222.523	176.901	280.075	120.876	1.135	258.568	4.161	223.740	177.773	321.631	265.616	7.3063e-05	0.00021982	3.8112e-05	292.94	2.5404e-06	4.154e-06	351.39	76.082	2.7993e-07	2.6657e-06	147.58	42.012	24.885	10.113	1.4967e-06	18.252	0.00034106	0.00049059	0.00014635	283.73	5.1331e-06	5.7484e-06	344.1	74.734	5.4283e-06	5.5821e-06	144.92	44.934	24.766	10.113	5.2024e-06	18.167	144.931	124.724	110.105	-4.153	124.062	130.213	-4.088	2.637	325.861	127.050	0.020	7.274	6.906	12.673	66.132	9.184	-8191	255	
2888.972	1	1	0	0	0.16095	0.070458	0.16336	0.098627	0.011351	0.063658	0.39997	0.17798	0.19364	0.32651	0.07025	0.1899	0.11506	0.22822	0.12768	0.055161	-2.1542	-2.8729	-2.6271	-2.7417	-2.9167	-2.6771	-3.0958	-2.7938	-2.5042	-3.0833	-2.7292	-2.7604	-2.9583	-2.4854	-2.9104	-2.7083	343.905	291.999	-6.886	176.614	90.699	118.831	203.709	342.271	316.847	232.380	119.930	57.532	196.953	30.924	312.211	233.819	6.4477e-05	7.8707e-05	7.7533e-05	293.79	3.1422e-06	4.4656e-06	352.54	77.044	2.3131e-06	2.3285e-06	148.86	42.365	24.833	10.239	1.5449e-06	18.255	0.00035229	0.00049456	0.00014248	285.22	5.0305e-06	5.566e-06	345.26	75.09	5.0893e-06	5.4449e-06	145.73	45.281	24.818	10.195	5.1457e-06	18.237	146.124	140.349	126.781	-3.773	136.193	61.252	-4.076	2.546	70.646	156.248	0.440	6.925	6.921	12.459	61.435	9.694	-8191	255	
2889.066	1	1	0	0	0.19705	0.26756	0.17304	0.02861	0.2192	0.23462	0.13535	0.067569	0.10185	0.084213	0.13833	0.15956	0.12472	0.079057	0.24164	0.34854	-2.2562	-2.9688	-2.4771	-2.7812	-2.8104	-2.6958	-2.975	-2.7	-2.5187	-2.8646	-2.6729	-2.9313	-2.8875	-2.7687	-2.8646	-2.7062	107.304	97.872	29.214	212.770	300.389	273.280	244.931	299.216	26.296	23.644	20.232	100.530	262.240	26.831	289.892	154.022	7.9478e-05	0.00012609	6.7925e-05	296.22	2.7243e-06	3.5143e-06	357.12	76.069	2.1753e-06	1.7395e-06	150.54	41.653	25.003	10.253	7.9688e-07	18.698	0.00034496	0.00049694	0.0001435	287.48	5.1419e-06	5.7618e-06	348.76	75.476	5.0487e-06	5.6431e-06	147.33	45.425	25.066	10.257	5.2326e-06	18.487	157.962	306.638	21.582	-4.206	121.544	102.067	-4.413	2.961	168.203	201.965	0.178	7.530	6.558	12.844	104.404	9.313	-8191	255	
2889.187	1	1	0	0	0.10607	0.12275	0.13485	0.35783	0.17718	0.31718	0.18781	0.081225	0.14457	0.15843	0.23684	0.071528	0.11552	0.16689	0.14524	0.16888	-2.0146	-2.9542	-2.6604	-2.8063	-3.0042	-2.4521	-2.8354	-2.8979	-2.6146	-3.0375	-2.9229	-2.5708	-2.9562	-2.6354	-2.7458	-2.9646	304.583	88.930	167.794	309.022	163.177	135.487	252.188	5.471	36.971	328.106	312.658	310.548	8.793	283.155	292.335	11.590	6.9939e-05	0.00033561	5.6269e-05	294.01	1.0865e-06	3.6284e-06	357.93	76.452	1.6524e-06	1.5474e-06	149.05	42.283	24.868	10.219	2.8908e-06	18.414	0.00035443	0.00048507	0.00013755	286.55	5.057e-06	5.5013e-06	349.42	75.413	5.395e-06	5.4231e-06	146.67	45.261	24.968	10.186	5.3359e-06	18.298	143.910	158.831	80.221	-3.927	199.346	104.139	-4.398	2.771	205.605	218.479	0.187	6.379	7.427	12.666	138.676	9.556	-8191	255	
2889.283	1	1	0	0	0.30071	0.13041	0.076581	0.23272	0.16278	0.2143	0.063186	0.22462	0.29116	0.0065381	0.12314	0.22475	0.32756	0.32023	0.15415	0.23128	-2.0604	-2.9667	-2.7938	-2.6208	-3.0333	-2.6229	-2.7958	-2.9854	-2.4417	-2.9708	-2.8229	-2.5812	-2.9729	-2.6854	-2.6604	-2.9333	112.388	260.317	282.032	173.262	183.038	279.089	186.094	254.494	165.345	247.669	198.026	159.348	74.933	335.886	26.214	145.327	8.244e-05	0.00015876	4.8739e-05	293.32	2.8458e-06	4.2508e-06	353.96	76.355	4.8556e-07	4.0223e-06	149	41.9	24.702	10.219	1.9139e-06	18.245	0.00034308	0.00048543	0.00013924	286.3	5.1868e-06	5.8715e-06	346.34	75.499	5.4064e-06	5.5901e-06	146.28	45.152	24.798	10.214	5.4391e-06	18.191	136.761	24.925	48.537	-3.960	105.645	101.689	-4.353	2.590	188.762	161.228	0.131	6.558	6.457	12.486	144.584	9.481	-8191	255	
2889.355	1	1	0	0	0.15357	0.18188	0.13728	0.24007	0.091817	0.20191	0.0063124	0.12567	0.012882	0.12557	0.17373	0.11122	0.068473	0.18597	0.15134	0.38431	-2.2396	-2.85	-2.75	-2.5875	-2.8854	-2.6937	-2.7188	-3.0979	-2.675	-2.8312	-2.7583	-2.3583	-2.9688	-2.8187	-2.6604	-3.0187	232.460	184.855	179.113	310.732	58.849	257.672	319.999	303.239	197.905	18.561	161.980	82.457	217.338	-8.312	320.953	235.690	7.707e-05	0.00038603	6.2849e-05	296.45	1.041e-06	6.2654e-07	357.83	76.201	1.3721e-06	3.8395e-07	149.51	42.811	24.744	10.202	2.7138e-06	18.45	0.00036222	0.00050142	0.00014071	287.16	4.9788e-06	5.772e-06	348.89	75.397	5.2069e-06	5.5358e-06	146.86	45.403	24.965	10.216	5.4974e-06	18.358	133.086	117.269	96.804	-4.026	145.035	140.888	-3.898	2.305	56.190	51.927	0.388	7.168	6.460	13.283	171.159	9.614	-8191	255	
2889.451	1	1	0	0	0.15803	0.063553	0.099644	0.11631	0.092878	0.18014	0.096952	0.12114	0.23511	0.40194	0.17611	0.063651	0.28829	0.21463	0.17314	0.037086	-2.2208	-2.8812	-2.9437	-2.2833	-2.9813	-2.8229	-2.7271	-3.0667	-2.5042	-2.9125	-3.0646	-2.6917	-2.9313	-2.8479	-2.55	-2.9	169.114	103.525	271.847	33.704	28.171	173.402	23.805	112.670	195.143	311.959	329.713	223.262	312.975	58.102	100.432	54.735	8.121e-05	0.00024775	9.9586e-05	294.92	1.4356e-06	1.0398e-06	359.44	76.415	5.824e-07	3.1913e-06	151.15	42.342	24.964	10.375	9.6692e-07	18.761	0.00035543	0.00050031	0.00013843	287.59	5.214e-06	5.7645e-06	350.11	75.45	5.2713e-06	5.6654e-06	147.94	45.793	25.19	10.326	5.395e-06	18.516	140.780	93.034	-3.330	-4.031	149.984	318.483	-3.877	2.498	206.411	164.142	0.323	6.220	6.356	11.779	135.053	8.832	-8191	255	
2889.572	1	1	0	0	0.069919	0.12132	0.14748	0.085441	0.15076	0.1715	0.21887	0.20859	0.091688	0.088824	0.20946	0.19965	0.11755	0.11109	0.21471	0.098232	-2.2542	-2.7812	-2.9229	-2.5354	-3.0375	-2.8396	-2.6688	-2.9313	-2.8583	-2.7583	-2.9333	-2.6646	-2.725	-3.025	-2.6146	-3.0104	-10.444	328.591	138.257	317.019	159.332	-6.218	304.529	326.759	219.028	256.896	303.356	273.958	122.324	261.577	239.633	226.471	8.4626e-05	0.00025976	2.609e-05	294.78	1.1364e-06	5.1969e-07	358.87	77.437	2.6041e-06	2.6981e-06	149.26	42.614	25.108	10.287	2.3146e-06	18.389	0.00036082	0.00050622	0.00014204	286.88	5.2561e-06	5.5642e-06	349.3	75.909	5.3139e-06	5.6155e-06	146.78	45.408	25.085	10.234	5.3673e-06	18.2	148.813	122.738	-5.782	-4.005	12.858	181.424	-3.934	2.788	162.133	59.559	0.237	7.506	7.048	12.556	147.220	9.368	-8191	255	
2889.668	1	1	0	0	0.090024	0.082987	0.12164	0.13422	0.1952	0.18041	0.11485	0.11842	0.080718	0.15808	0.11354	0.20408	0.20633	0.24991	0.093856	0.061689	-2.1458	-2.7708	-2.9125	-2.5563	-2.8396	-2.975	-2.6437	-2.9125	-2.6583	-2.55	-3.1146	-2.6063	-2.7792	-2.8833	-2.4896	-3.1292	58.869	61.673	108.199	176.615	223.417	332.321	287.846	131.091	167.030	19.565	117.151	76.505	13.516	78.352	44.629	188.133	7.3499e-05	0.00029636	4.6425e-05	295.95	1.1771e-06	2.0224e-06	357.14	76.901	2.1711e-06	3.2116e-06	149.33	43.218	24.931	10.31	1.6852e-06	18.283	0.00033431	0.00050329	0.00014064	287.14	5.1034e-06	5.6606e-06	347	75.832	5.378e-06	5.8338e-06	146.3	45.486	25.045	10.223	5.4664e-06	18.194	151.691	44.178	63.699	-3.935	114.099	176.559	-4.178	2.802	149.982	178.626	-0.124	6.235	6.099	12.628	190.717	9.607	-8191	255	
2889.764	1	1	0	0	0.041864	0.16406	0.066321	0.14958	0.16792	0.19508	0.14616	0.11834	0.081718	0.10645	0.10994	0.20199	0.13583	0.14372	0.11975	0.049868	-2.3208	-2.6437	-2.9292	-2.3917	-2.5875	-2.9208	-2.6813	-3.0563	-2.8292	-2.7375	-3.1146	-2.6521	-2.7646	-2.9979	-2.7875	-3.0646	229.475	240.010	335.360	174.066	76.711	109.828	206.607	310.144	247.667	193.813	63.248	-10.350	135.797	157.767	335.066	344.277	7.2256e-05	0.00034728	1.6251e-05	295.66	2.5516e-06	3.973e-06	357.91	77.218	1.9578e-06	1.3176e-06	149.45	44.148	25.042	10.343	2.0458e-06	18.551	0.00035673	0.0005142	0.00014704	287.3	5.2589e-06	5.7337e-06	349.46	76.032	5.2312e-06	5.7665e-06	147.04	46.162	25.065	10.273	5.6569e-06	18.386	158.053	64.996	182.909	-4.051	143.896	137.079	-3.965	2.757	116.051	203.698	0.166	6.347	6.515	12.187	73.095	9.254	-8191	255	
2889.860	1	1	0	0	0.14356	0.22453	0.047075	0.17854	0.20149	0.15508	0.068118	0.078992	0.16057	0.16792	0.15183	0.13059	0.080056	0.020123	0.16663	0.10322	-2.6042	-2.5604	-2.9083	-2.7667	-2.7229	-2.9562	-2.5042	-2.9958	-2.8812	-2.7167	-3.0042	-2.7646	-2.7729	-3.0771	-2.6333	-2.9458	47.483	212.749	295.050	126.534	207.531	227.466	52.355	100.426	295.321	273.720	333.074	299.389	125.370	156.337	238.358	94.308	7.8806e-05	0.00011326	7.715e-05	295.16	1.6175e-06	2.9079e-06	358.87	77.539	1.2464e-06	2.8211e-06	149.63	42.22	24.879	10.324	1.1184e-06	18.618	0.00034836	0.00052472	0.00014826	287.58	5.1371e-06	5.4906e-06	350.63	76.313	5.4826e-06	5.938e-06	147.64	45.564	25.167	10.328	5.5843e-06	18.482	148.803	39.748	55.261	-3.798	183.038	117.102	-3.990	2.354	188.277	126.808	0.532	5.732	6.669	12.532	15.976	9.201	-8191	255	
2889.956	1	1	0	0	0.24018	0.21464	0.1639	0.18843	0.011955	0.15325	0.12346	0.47152	0.028669	0.4162	0.095459	0.081988	0.15045	0.12469	0.11097	0.09347	-2.3833	-2.4208	-2.9896	-2.8271	-2.7396	-3.0021	-2.6479	-2.9188	-2.9667	-2.4229	-3.0979	-2.8729	-2.6458	-3.1292	-2.7958	-2.7854	266.113	309.559	231.796	110.422	169.372	40.706	267.922	260.314	321.850	87.859	281.216	214.996	50.361	139.968	167.917	38.307	8.301e-05	0.00011974	3.7303e-05	297.31	2.3041e-06	1.4788e-06	357.31	77.086	1.4028e-06	1.4314e-06	148.95	41.653	24.89	10.22	1.833e-07	18.242	0.00035329	0.00054297	0.00014059	287.73	5.2497e-06	5.6779e-06	348.2	75.946	5.2466e-06	5.8988e-06	146.85	45.207	25.08	10.216	5.5982e-06	18.122	144.624	82.186	49.865	-3.777	210.731	142.713	-4.064	2.459	163.411	287.087	0.381	5.457	7.159	12.954	77.430	9.087	-8191	255	
2890.052	1	1	0	0	0.17057	0.33194	0.30502	0.12708	0.12816	0.17008	0.12745	0.081969	0.15793	0.10965	0.14438	0.10643	0.15308	0.19955	0.22914	0.21874	-2.5563	-2.45	-3.1	-2.9333	-2.6729	-3.0958	-2.5875	-2.8958	-3.0708	-2.6833	-2.8271	-2.6688	-2.5438	-2.9604	-2.7271	-2.8458	206.797	50.609	331.181	141.785	185.944	104.307	297.030	26.230	31.261	298.565	330.321	185.488	119.515	21.640	154.242	-1.232	6.1785e-05	0.00022426	4.7323e-05	293.72	1.1038e-06	3.2535e-06	354.82	76.07	1.9406e-06	3.1807e-06	148.89	41.696	24.736	10.186	1.8638e-06	18.255	0.00034617	0.00052055	0.00014025	286.38	5.3847e-06	5.5201e-06	345.57	75.484	5.2369e-06	5.7117e-06	146.13	45.028	24.93	10.188	5.5432e-06	18.169	166.355	35.761	43.903	-4.008	177.273	143.545	-4.059	2.903	140.665	209.387	0.886	5.758	6.508	12.556	64.724	9.017	-8191	255	
2890.148	1	1	0	0	0.27148	0.21824	0.0042346	0.12246	0.17647	0.18105	0.15536	0.11786	0.11549	0.19769	0.043596	0.11826	0.19973	0.082865	0.043968	0.20277	-2.75	-2.6937	-3.1021	-2.8688	-2.6	-2.975	-2.7562	-2.775	-3.0083	-2.5375	-2.9167	-2.9021	-2.4437	-2.9521	-2.6958	-2.7313	335.143	-8.059	88.117	259.517	257.986	18.744	287.672	60.723	310.976	176.790	278.886	-6.185	278.751	223.394	37.424	63.245	8.9201e-05	0.00019136	5.8043e-05	295.59	1.892e-06	2.7603e-06	355.79	76.446	9.5426e-07	3.9595e-06	149.28	42.564	24.534	10.21	9.3601e-07	18.359	0.00036759	0.00052503	0.00014749	287.38	5.3663e-06	5.88e-06	348.15	75.64	5.277e-06	5.6079e-06	146.81	45.683	25.012	10.26	5.5163e-06	18.261	142.690	67.171	38.010	-3.748	37.377	95.756	-3.925	2.279	100.054	164.544	0.422	7.667	6.877	12.892	223.547	9.572	-8191	255	
2890.267	1	1	0	0	0.27605	0.23219	0.2171	0.3005	0.13059	0.23362	0.22806	0.20919	0.32744	0.2156	0.080197	0.36584	0.29259	0.12263	0.24244	0.14807	-2.6458	-2.5521	-2.9542	-2.9938	-2.5833	-2.9125	-2.7104	-2.6333	-2.9938	-2.6937	-2.675	-3.0021	-2.3208	-2.9938	-2.6854	-2.6479	34.384	243.230	236.689	-3.978	21.421	209.662	253.559	83.615	-10.511	60.126	219.836	211.577	117.478	207.539	289.715	200.887	0.00010637	0.00015896	2.156e-05	296.04	2.0517e-06	1.4963e-06	358.25	76.938	2.0681e-06	2.6812e-06	149.35	42.794	24.984	10.428	1.5735e-06	18.542	0.0003581	0.00051725	0.00014728	287.82	5.5081e-06	5.6454e-06	350.11	76.085	5.3991e-06	5.7865e-06	147.08	45.785	25.215	10.323	5.5575e-06	18.408	145.839	77.173	201.335	-3.889	103.141	121.740	-4.325	2.178	195.707	176.807	0.233	6.855	6.945	12.846	209.160	9.442	-8191	255	
2890.363	1	1	0	0	0.2993	0.053303	0.31304	0.16952	0.13971	0.11141	0.098459	0.13026	0.27633	0.17299	0.2053	0.20134	0.11983	0.014161	0.1654	0.15459	-2.4125	-2.5438	-2.6875	-2.9792	-2.4646	-2.7896	-2.9458	-2.6458	-3.2521	-2.7292	-2.6813	-2.9333	-2.6208	-2.8688	-2.8187	-2.5833	287.614	15.989	335.415	193.514	7.302	104.601	221.603	231.960	198.762	285.767	330.799	265.120	123.204	275.134	57.440	77.393	0.00011284	8.6953e-05	4.4202e-05	295.85	1.3341e-07	1.3289e-06	356.22	77.225	1.351e-06	4.6808e-06	148.26	42.034	25.033	10.169	1.2233e-06	18.23	0.00035301	0.00051257	0.00014361	287.39	5.4436e-06	5.7636e-06	348.56	75.787	5.2389e-06	5.9255e-06	146.24	45.569	25.014	10.18	5.654e-06	18.054	151.025	313.044	112.838	-4.034	10.827	327.957	-4.117	2.719	166.814	173.217	-0.052	6.300	7.176	12.911	103.616	9.248	-8191	255	
2890.460	1	1	0	0	0.15332	0.18428	0.15839	0.17482	0.091148	0.12559	0.13924	0.073331	0.057397	0.16171	0.21445	0.11398	0.36168	0.24095	0.078581	0.1011	-2.5479	-2.7792	-2.6333	-3.0917	-2.5417	-2.8937	-2.8333	-2.4729	-3.0625	-3.0458	-2.5771	-3.1375	-2.5667	-2.8208	-3.0083	-2.5833	140.783	-12.935	79.014	138.313	83.249	115.905	235.007	271.237	165.005	301.312	131.130	71.638	33.922	11.853	293.873	316.559	8.7793e-05	5.7755e-05	9.0628e-05	293.66	1.1526e-06	1.4064e-06	355.43	76.427	2.611e-06	3.0641e-06	149.14	42.374	24.928	10.249	1.5441e-06	18.331	0.00035464	0.0005267	0.00014368	287.28	5.3046e-06	5.6476e-06	346.84	75.664	5.3382e-06	5.8008e-06	146.11	45.235	24.974	10.186	5.3837e-06	18.131	150.808	86.408	5.741	-3.826	163.108	-4.629	-3.927	2.867	150.124	152.007	0.069	6.566	6.581	12.299	105.897	9.398	-8191	255	
2890.556	1	1	0	0	0.30092	0.13789	0.085574	0.010091	0.079157	0.031538	0.13574	0.093672	0.1625	0.13629	0.14162	0.12868	0.26413	0.17616	0.085695	0.36558	-2.5979	-2.8104	-2.3354	-3.0563	-2.7354	-2.8458	-2.9208	-2.6021	-2.9854	-3.0312	-2.5604	-2.9125	-2.7062	-2.7542	-2.9875	-2.35	281.940	236.188	236.218	158.652	46.878	118.238	5.341	-0.898	220.785	21.930	245.556	84.033	72.757	39.249	-0.920	243.674	9.2825e-05	7.0762e-05	5.5426e-05	296.02	1.0081e-06	2.4789e-06	357.72	77.343	1.6192e-06	3.7991e-06	150.08	42.97	24.812	10.28	1.9223e-06	18.464	0.00036312	0.00051575	0.00014943	287.33	5.3194e-06	5.6655e-06	349.56	75.937	5.3415e-06	5.4725e-06	147.2	45.866	25.074	10.246	5.2259e-06	18.25	154.259	278.199	80.596	-3.948	104.842	199.519	-4.054	3.061	183.242	167.983	0.644	6.287	6.364	12.269	80.171	9.576	-8191	255	
2890.650	1	1	0	0	0.21046	0.13041	0.4608	0.25761	0.087735	0.36769	0.15017	0.10934	0.1133	0.13773	0.10436	0.087061	0.098549	0.19616	0.14875	0.18451	-2.4729	-2.7917	-2.4813	-2.9667	-2.7792	-2.7646	-2.9292	-2.4875	-2.9313	-2.9375	-2.6104	-2.95	-2.8417	-2.7083	-3.2104	-2.5687	251.988	134.181	35.474	285.074	309.154	110.707	264.719	32.389	328.200	116.356	276.433	172.167	184.950	277.197	333.144	320.296	6.4773e-05	0.0003669	8.1514e-05	294.58	3.2862e-06	3.1891e-06	357.57	77.525	2.1092e-06	4.8906e-07	151.53	42.428	25.189	10.287	8.2668e-07	18.535	0.00035057	0.0005311	0.00014135	287.69	5.4232e-06	5.8568e-06	350.93	76.451	5.3159e-06	5.6894e-06	148.71	45.98	25.2	10.332	5.3657e-06	18.461	142.910	116.107	121.712	-4.045	189.232	105.907	-4.138	2.284	183.289	160.757	0.113	6.619	6.529	12.756	80.726	9.669	-8191	255	
2890.746	1	1	0	0	0.25438	0.049118	0.12712	0.27541	0.22512	0.021353	0.054631	0.15122	0.11057	0.014214	0.13997	0.17592	0.14982	0.24477	0.13122	0.13468	-2.2146	-2.925	-2.5333	-2.9292	-2.7083	-2.7562	-3.0208	-2.7917	-2.9521	-3.075	-2.5146	-2.7562	-2.9333	-2.5125	-3.1479	-2.7188	141.853	236.730	327.804	262.885	144.741	290.984	-8.345	274.991	311.457	133.257	1.443	336.793	51.037	280.333	43.854	194.252	8.8577e-05	0.00014664	3.7529e-05	296.62	1.4238e-06	4.1581e-06	358.41	77.49	1.3627e-06	1.8613e-06	150.9	43.675	25.4	10.3	3.2785e-06	18.373	0.00035178	0.00052174	0.00014361	288.84	5.2994e-06	5.6815e-06	351.1	76.605	5.232e-06	5.6226e-06	147.83	46.158	25.185	10.258	5.4807e-06	18.237	144.143	119.954	97.526	-3.826	317.802	144.825	-4.119	2.002	142.504	181.713	0.113	6.832	6.350	12.661	150.572	9.145	-8191	255	
2890.867	1	1	0	0	0.15935	0.22895	0.15774	0.071685	0.13129	0.12075	0.17503	0.19699	0.3316	0.018442	0.21879	0.09121	0.13762	0.19836	0.085267	0.16873	-2.3438	-3.0542	-2.5708	-2.9313	-2.6958	-2.4729	-2.85	-2.9021	-2.7292	-2.9875	-2.525	-3.0979	-2.8771	-2.6083	-3.0417	-2.7667	218.340	169.638	112.364	13.078	294.778	224.498	45.315	-9.317	105.947	60.169	197.301	250.932	14.621	48.019	0.037	215.021	0.00011102	0.00021857	4.8862e-05	295.03	1.0211e-06	3.228e-06	356.78	77.604	2.0687e-06	2.3678e-06	150.55	42.632	24.782	10.194	3.3459e-07	18.134	0.00036238	0.00052289	0.00014461	287.57	5.0461e-06	5.752e-06	349.57	76.233	5.4522e-06	5.5959e-06	147.15	45.391	25.03	10.209	5.3077e-06	18.138	148.885	49.380	200.152	-3.946	154.079	169.996	-4.130	2.668	207.221	162.494	0.209	5.747	7.126	12.396	95.404	9.137	-8191	255	
2890.963	1	1	0	0	0.089919	0.25356	0.12631	0.096927	0.12594	0.27195	0.12605	0.27546	0.055762	0.19152	0.21686	0.13036	0.068438	0.18511	0.057165	0.22268	-2.2958	-2.8438	-2.5104	-2.8563	-2.9	-2.5875	-3.0042	-2.7917	-2.8167	-3.0625	-2.6208	-2.6979	-3.0646	-2.4583	-2.9479	-3.0771	243.127	273.884	203.839	12.900	126.670	201.769	4.383	33.085	213.680	138.103	319.371	313.148	308.675	271.996	33.238	330.371	9.321e-05	0.00023061	5.7264e-05	295.99	1.3761e-06	1.2211e-06	363.62	77.422	3.1309e-06	3.5723e-06	149.87	43.39	25.126	10.421	1.5927e-06	18.443	0.00034817	0.00050789	0.00014168	288.79	5.1752e-06	5.7346e-06	352.25	76.401	5.2446e-06	5.7759e-06	147.19	45.875	25.115	10.338	5.3421e-06	18.319	155.251	114.235	95.630	-4.529	53.849	89.138	-3.985	1.800	116.110	168.455	-0.059	6.197	7.227	12.780	312.077	9.373	-8191	255	
2891.059	1	1	0	0	0.10656	0.04687	0.19635	0.078693	0.24397	0.060316	0.23349	0.30459	0.18849	0.1192	0.22268	0.16284	0.037905	0.078105	0.053087	0.1179	-2.1333	-3.025	-2.4458	-2.5938	-3.0396	-2.6375	-2.8396	-2.8083	-2.5	-3.0958	-2.7146	-2.6292	-3.1146	-2.6104	-2.8563	-2.9646	315.434	100.174	47.686	203.837	113.799	33.990	9.344	231.840	192.803	210.883	239.907	297.109	152.186	36.370	97.165	157.403	7.507e-05	0.00032142	3.8103e-05	298.3	1.8654e-06	1.3254e-06	362.22	77.856	2.6769e-06	2.0772e-06	151.53	42.534	25.259	10.352	1.511e-06	18.592	0.0003594	0.00051277	0.00014051	289.22	5.206e-06	5.8773e-06	353.17	76.734	5.4198e-06	5.6191e-06	148.63	45.81	25.244	10.317	5.4412e-06	18.427	147.379	69.101	126.321	-3.699	122.396	112.300	-4.064	2.648	119.962	173.080	0.311	5.903	6.406	13.051	141.442	9.391	-8191	255	
2891.155	1	1	0	0	0.16814	0.040344	0.21943	0.41737	0.1163	0.1566	0.25746	0.16459	0.18536	0.22654	0.23998	0.17903	0.15861	0.20978	0.19267	0.087138	-2.2313	-2.9854	-2.7646	-2.6708	-2.9583	-2.6083	-2.8396	-2.9188	-2.4979	-3.0854	-2.7542	-2.6979	-2.9167	-2.5687	-2.825	-2.9	233.553	247.629	88.192	-1.602	221.991	337.264	308.728	221.057	28.471	6.047	183.815	324.637	116.605	316.286	4.845	2.989	8.4351e-05	0.00017987	1.8769e-05	298.68	2.1788e-06	8.9462e-07	361.58	78.096	7.4131e-07	3.4036e-06	152.08	42.214	25.087	10.259	5.3352e-07	18.245	0.00036315	0.00052305	0.00014108	289.07	5.1768e-06	5.6829e-06	352.88	76.668	5.5021e-06	5.7433e-06	148.39	45.978	25.119	10.228	5.3098e-06	18.209	144.308	52.434	303.251	-3.927	142.734	71.463	-3.898	2.419	188.314	135.050	0.226	6.205	6.162	12.734	139.982	9.104	-8191	255	
2891.252	1	1	0	0	0.10674	0.027534	0.065002	0.1074	0.083467	0.22831	0.11233	0.19724	0.31449	0.33362	0.042997	0.2128	0.15242	0.14978	0.10152	0.15145	-2.1188	-2.9062	-2.75	-2.7	-3.0438	-2.5875	-2.8792	-3.0229	-2.5521	-2.9646	-2.7188	-2.4729	-3.0062	-2.6979	-2.7708	-3.1208	141.340	133.689	66.608	334.881	123.163	192.505	14.019	122.463	-8.583	172.913	340.351	171.160	286.390	212.120	150.594	129.623	5.8718e-05	0.00019427	5.1067e-05	296.29	1.6839e-06	1.3178e-06	359.22	78.023	8.6556e-07	1.3409e-06	150.23	42.391	25.193	10.203	1.9819e-06	18.113	0.00036031	0.00050654	0.00014492	287.91	5.329e-06	5.6008e-06	349.97	76.346	5.322e-06	5.5411e-06	147.04	45.205	25.111	10.186	5.3375e-06	18.058	152.329	9.790	54.235	-3.887	109.053	298.727	-4.036	2.451	94.350	239.613	0.345	6.455	6.444	12.770	176.528	8.881	-8191	255	
2891.348	1	1	0	0	0.10122	0.27222	0.27194	0.16966	0.18059	0.16214	0.022525	0.20994	0.20557	0.28045	0.082271	0.19914	0.26645	0.071727	0.15769	0.1674	-2.0125	-2.8396	-2.7896	-2.5875	-3.0375	-2.6229	-2.7292	-3.1188	-2.4729	-3.0583	-3.0458	-2.6271	-3.0708	-2.8333	-2.6896	-3.1229	68.814	340.145	222.743	1.468	111.100	-10.088	235.474	113.262	145.849	156.226	31.472	33.548	126.166	184.740	264.926	83.443	7.68e-05	0.00025956	3.3626e-05	294.76	1.0458e-06	3.0751e-06	359.02	78.217	1.5235e-06	2.5071e-06	150.9	42.744	24.921	10.266	1.8908e-06	18.397	0.00035133	0.00049698	0.00014015	287.51	5.3262e-06	5.7092e-06	350.76	76.701	5.1489e-06	5.5687e-06	147.27	45.792	24.96	10.238	5.5805e-06	18.207	146.704	121.456	14.087	-3.866	170.800	150.739	-4.188	2.185	143.434	140.605	0.125	7.333	6.514	12.268	132.547	8.949	-8191	255	
2891.444	1	1	0	0	0.23256	0.12094	0.30587	0.22687	0.11754	0.2197	0.20778	0.2987	0.28242	0.11463	0.2969	0.14186	0.20462	0.19967	0.16453	0.14437	-2.2833	-2.975	-3.0833	-2.8187	-3.1167	-2.8688	-2.6854	-3.1042	-2.7854	-2.8354	-3.0021	-2.6354	-2.85	-2.7979	-2.8167	-3.0833	116.759	54.484	239.031	147.585	248.920	302.491	300.476	120.956	113.644	222.331	315.595	201.117	298.906	64.162	53.243	184.656	7.9542e-05	0.00019069	7.6841e-05	296.75	2.0175e-06	5.2135e-07	361.02	77.479	1.7401e-06	3.362e-06	150.1	42.876	25.02	10.383	2.3193e-06	18.523	0.00035884	0.00049694	0.00014066	288.28	5.2954e-06	5.7649e-06	352.28	76.636	5.202e-06	5.6266e-06	148.07	45.726	25.3	10.339	5.4907e-06	18.376	145.384	65.665	50.235	-3.938	158.889	159.325	-4.206	1.901	103.471	144.493	0.228	5.649	6.468	12.207	113.397	8.811	-8191	255	
2891.540	1	1	0	0	0.081975	0.07533	0.1246	0.15797	0.14888	0.30717	0.05214	0.066776	0.16452	0.17751	0.2645	0.092636	0.10065	0.1468	0.27845	0.11423	-2.0771	-2.9333	-3.1	-2.5625	-2.9979	-2.7812	-2.7354	-3.0792	-2.5917	-2.8521	-3.1042	-2.5062	-3.0271	-2.7729	-2.6813	-3.0333	30.852	341.397	104.696	86.656	93.663	30.237	309.195	11.048	161.414	314.663	311.750	242.048	48.619	269.148	314.786	229.478	7.8612e-05	0.00025316	6.8798e-05	296.84	1.9123e-06	1.7874e-06	363.35	77.573	3.1608e-06	2.6501e-06	150.94	42.626	25.328	10.296	1.9447e-06	18.334	0.00035368	0.0005169	0.0001459	289.54	5.192e-06	5.5705e-06	354.89	76.799	5.2661e-06	5.644e-06	149.11	45.885	25.224	10.273	5.3132e-06	18.236	166.335	46.685	120.005	-3.756	223.758	87.810	-4.119	2.234	105.421	79.473	-0.144	6.355	5.948	12.418	121.331	8.837	-8191	255	
2891.659	1	1	0	0	0.10777	0.15067	0.098483	0.15229	0.20995	0.19096	0.027449	0.051194	0.11122	0.076619	0.092904	0.053426	0.1035	0.11468	0.29289	0.32461	-2.3187	-2.7354	-2.9896	-2.7271	-2.9021	-3.1542	-2.625	-3.0042	-2.8979	-2.6667	-3.1	-2.4396	-2.8917	-3.0104	-2.4854	-2.9354	177.312	308.093	-7.375	314.261	324.699	141.156	306.902	67.566	94.745	35.301	113.992	116.927	124.207	295.428	326.546	291.240	8.9159e-05	0.0001515	6.4282e-05	294	1.7806e-06	1.6899e-06	357.62	77.484	1.6735e-06	9.9116e-07	150.32	42.224	25.069	10.194	1.5819e-06	18.109	0.0003538	0.00051352	0.00013973	288.18	4.9047e-06	5.4385e-06	350.44	76.635	5.1257e-06	5.5309e-06	147.57	45.226	25.189	10.209	5.3761e-06	18.01	137.848	102.973	82.809	-3.982	212.221	176.415	-4.110	2.304	119.931	31.770	0.065	8.175	7.043	12.120	88.585	9.135	-8191	255	
2891.755	1	1	0	0	0.17293	0.21353	0.23328	0.1943	0.12972	0.15126	0.092195	0.12784	0.14773	0.13353	0.14114	0.10046	0.18809	0.13641	0.17074	0.072149	-2.4292	-2.7229	-2.9583	-2.4208	-2.8312	-3.0104	-2.4604	-2.9188	-2.6521	-2.7083	-2.9938	-2.6042	-2.7104	-2.8771	-2.5729	-3.0396	44.615	53.210	77.358	180.778	194.541	125.492	237.663	2.540	200.006	99.061	270.640	97.318	332.234	16.805	298.581	117.099	7.3795e-05	0.00018176	4.0324e-05	295.92	2.8201e-06	2.3096e-06	360.61	76.93	1.5759e-06	3.8467e-07	149.49	42.808	25.141	10.345	2.8669e-06	18.259	0.00034331	0.00049841	0.00013981	287.81	5.1391e-06	5.6017e-06	351.19	76.62	5.2348e-06	5.7634e-06	147.29	45.45	25.275	10.293	5.4802e-06	18.118	150.651	79.996	326.680	-3.862	141.289	149.980	-4.159	2.221	225.718	289.122	0.271	6.852	6.552	12.694	49.502	9.403	-8191	255	
#DATA ENDS
