BOXY.EXE: ISS Imagent and Oximeter Data Acquisition Program Version 0.80
Ascii Record File

#ACQ INFORMATION
2  Detector Channels 
16  External MUX Channels 
1  Auxiliary Channels 
5000  Waveform (CCF) Frequency (Hz)
1  Waveforms Skipped 
30  Waveforms Averaged 
1  Cycles Averaged 
16  Acquisitions per Waveform 
10.0806  Updata Rate (Hz) 

#FILE INFORMATION
TRUE -- External MUX Channel results are PARSED.
FALSE -- AC DC and Phase are NOT grouped.
TRUE -- Companion Program Settings File CREATED.
FALSE -- AC data not excluded
FALSE -- DC data not excluded
FALSE -- Phase data not excluded
FALSE -- Auxillary Chn. data not excluded
Tab delimiters

#CALIBRATION STATE
TRUE -- Waveform Calibration Values APPLIED.


#AUX CALIBRATION VALUES
Val Type	aux-1	

Term	1.0000e+00	
Factor	0.0000e+00	


#WF CALIBRATION VALUES
A = Detector Channel
Val Type	A-AC1	A-AC2	A-AC3	A-AC4	A-AC5	A-AC6	A-AC7	A-AC8	A-AC9	A-AC10	A-AC11	A-AC12	A-AC13	A-AC14	A-AC15	A-AC16	A-DC1	A-DC2	A-DC3	A-DC4	A-DC5	A-DC6	A-DC7	A-DC8	A-DC9	A-DC10	A-DC11	A-DC12	A-DC13	A-DC14	A-DC15	A-DC16	A-Ph1	A-Ph2	A-Ph3	A-Ph4	A-Ph5	A-Ph6	A-Ph7	A-Ph8	A-Ph9	A-Ph10	A-Ph11	A-Ph12	A-Ph13	A-Ph14	A-Ph15	A-Ph16	

Term	0.00000e+00	0.00000e+00	0.00000e+00	0.00000e+00	0.00000e+00	0.00000e+00	0.00000e+00	0.00000e+00	0.00000e+00	0.00000e+00	0.00000e+00	0.00000e+00	0.00000e+00	0.00000e+00	0.00000e+00	0.00000e+00	0.00000e+00	0.00000e+00	0.00000e+00	0.00000e+00	0.00000e+00	0.00000e+00	0.00000e+00	0.00000e+00	0.00000e+00	0.00000e+00	0.00000e+00	0.00000e+00	0.00000e+00	0.00000e+00	0.00000e+00	0.00000e+00	0.00000e+00	0.00000e+00	0.00000e+00	0.00000e+00	0.00000e+00	0.00000e+00	0.00000e+00	0.00000e+00	0.00000e+00	0.00000e+00	0.00000e+00	0.00000e+00	0.00000e+00	0.00000e+00	0.00000e+00	0.00000e+00	
Factor	1.00000e+00	1.00000e+00	1.00000e+00	1.00000e+00	1.00000e+00	1.00000e+00	1.00000e+00	1.00000e+00	1.00000e+00	1.00000e+00	1.00000e+00	1.00000e+00	1.00000e+00	1.00000e+00	1.00000e+00	1.00000e+00	1.00000e+00	1.00000e+00	1.00000e+00	1.00000e+00	1.00000e+00	1.00000e+00	1.00000e+00	1.00000e+00	1.00000e+00	1.00000e+00	1.00000e+00	1.00000e+00	1.00000e+00	1.00000e+00	1.00000e+00	1.00000e+00	X	X	X	X	X	X	X	X	X	X	X	X	X	X	X	X	

B = Detector Channel
Val Type	B-AC1	B-AC2	B-AC3	B-AC4	B-AC5	B-AC6	B-AC7	B-AC8	B-AC9	B-AC10	B-AC11	B-AC12	B-AC13	B-AC14	B-AC15	B-AC16	B-DC1	B-DC2	B-DC3	B-DC4	B-DC5	B-DC6	B-DC7	B-DC8	B-DC9	B-DC10	B-DC11	B-DC12	B-DC13	B-DC14	B-DC15	B-DC16	B-Ph1	B-Ph2	B-Ph3	B-Ph4	B-Ph5	B-Ph6	B-Ph7	B-Ph8	B-Ph9	B-Ph10	B-Ph11	B-Ph12	B-Ph13	B-Ph14	B-Ph15	B-Ph16	

Term	0.00000e+00	0.00000e+00	0.00000e+00	0.00000e+00	0.00000e+00	0.00000e+00	0.00000e+00	0.00000e+00	0.00000e+00	0.00000e+00	0.00000e+00	0.00000e+00	0.00000e+00	0.00000e+00	0.00000e+00	0.00000e+00	0.00000e+00	0.00000e+00	0.00000e+00	0.00000e+00	0.00000e+00	0.00000e+00	0.00000e+00	0.00000e+00	0.00000e+00	0.00000e+00	0.00000e+00	0.00000e+00	0.00000e+00	0.00000e+00	0.00000e+00	0.00000e+00	-1.23800e+02	-1.29605e+02	-1.18317e+02	-1.81384e+02	-6.66720e+01	-6.49322e+01	-1.54429e+02	-1.62015e+02	-6.47790e+01	-5.86214e+01	-1.69550e+02	-1.78216e+02	-1.82278e+02	-1.75921e+02	-6.55031e+01	-1.48295e+02	
Factor	1.82523e-05	2.02462e-04	5.46020e-05	1.59639e-01	1.48313e-06	2.22676e-06	1.61345e-01	6.10527e-02	1.51134e-06	2.21112e-06	9.03854e-02	2.02187e-01	4.85540e-02	9.32913e-03	1.59883e-06	1.33881e-02	1.11608e-05	1.90474e-05	5.34503e-06	8.05254e-02	1.92326e-07	2.14060e-07	7.69818e-02	3.09569e-02	1.94649e-07	2.13805e-07	4.45233e-02	1.01031e-01	2.48173e-02	4.77762e-03	2.01464e-07	6.64615e-03	X	X	X	X	X	X	X	X	X	X	X	X	X	X	X	X	



#DISTANCE SETTINGS
A = Detector Channel
A-1	A-2	A-3	A-4	A-5	A-6	A-7	A-8	A-9	A-10	A-11	A-12	A-13	A-14	A-15	A-16	

2.5000e+00	3.0000e+00	2.5000e+00	3.0000e+00	2.0000e+00	3.0000e+00	1.5000e+00	3.0000e+00	3.0000e+00	3.0000e+00	3.0000e+00	3.0000e+00	3.0000e+00	3.0000e+00	1.5000e+00	3.0000e+00	

B = Detector Channel
B-1	B-2	B-3	B-4	B-5	B-6	B-7	B-8	B-9	B-10	B-11	B-12	B-13	B-14	B-15	B-16	

1.0000e+01	1.0000e+01	1.0000e+01	1.4400e+00	1.0000e+01	1.0000e+01	1.5100e+00	1.9400e+00	1.0000e+01	1.0000e+01	1.9900e+00	2.4900e+00	2.4100e+00	2.9000e+00	1.0000e+01	2.9800e+00	




#DATA BEGINS
time	group	step	mark	flag	A-AC1	A-AC2	A-AC3	A-AC4	A-AC5	A-AC6	A-AC7	A-AC8	A-AC9	A-AC10	A-AC11	A-AC12	A-AC13	A-AC14	A-AC15	A-AC16	A-DC1	A-DC2	A-DC3	A-DC4	A-DC5	A-DC6	A-DC7	A-DC8	A-DC9	A-DC10	A-DC11	A-DC12	A-DC13	A-DC14	A-DC15	A-DC16	A-Ph1	A-Ph2	A-Ph3	A-Ph4	A-Ph5	A-Ph6	A-Ph7	A-Ph8	A-Ph9	A-Ph10	A-Ph11	A-Ph12	A-Ph13	A-Ph14	A-Ph15	A-Ph16	B-AC1	B-AC2	B-AC3	B-AC4	B-AC5	B-AC6	B-AC7	B-AC8	B-AC9	B-AC10	B-AC11	B-AC12	B-AC13	B-AC14	B-AC15	B-AC16	B-DC1	B-DC2	B-DC3	B-DC4	B-DC5	B-DC6	B-DC7	B-DC8	B-DC9	B-DC10	B-DC11	B-DC12	B-DC13	B-DC14	B-DC15	B-DC16	B-Ph1	B-Ph2	B-Ph3	B-Ph4	B-Ph5	B-Ph6	B-Ph7	B-Ph8	B-Ph9	B-Ph10	B-Ph11	B-Ph12	B-Ph13	B-Ph14	B-Ph15	B-Ph16	aux-1	digaux	

2001.738	1	1	0	768	0.13288	0.12791	0.26282	0.036405	0.22713	0.047059	0.25363	0.095975	0.26932	0.094182	0.11081	0.10833	0.28557	0.10531	0.078076	0.22611	-2.6042	-3.2604	-3.3021	-3.1771	-3.3958	-3.1562	-2.95	-3.5542	-3.0958	-3.2229	-3.4042	-2.9333	-3.2979	-3.1042	-2.9958	-3.3875	183.547	82.143	42.507	47.570	-56.673	175.647	176.394	-85.517	112.114	-19.514	40.924	-61.167	133.182	123.551	231.397	-6.428	8.2391e-05	0.0002776	9.2501e-05	1170.3	1.7878e-06	2.8285e-06	1229.7	243.45	1.2246e-06	2.8317e-06	310.25	79.933	68.812	19.393	2.7083e-06	27.596	0.00012456	9.1308e-05	2.1046e-05	1138.8	1.2657e-06	8.9236e-07	1200.3	241.02	1.1375e-06	8.6725e-07	305.09	83.994	67.653	19.405	9.9934e-07	27.73	199.707	-13.529	6.942	-89.956	30.336	44.372	-89.989	-83.234	80.451	63.403	-83.243	-77.968	-76.055	-69.259	44.397	-69.693	-8191	255	
2001.834	1	1	0	0	0.2129	0.23794	0.079978	0.21939	0.051856	0.19624	0.1503	0.074207	0.11239	0.17019	0.06332	0.28	0.23268	0.11841	0.23925	0.16447	-2.6417	-2.8333	-3.2229	-2.9979	-3.1583	-3.0875	-2.9646	-3.4708	-2.8438	-2.9854	-3.4479	-2.75	-3.1458	-3.175	-2.8979	-3.3271	255.939	142.381	11.261	134.284	134.658	27.477	183.502	217.757	45.145	-26.481	44.621	14.574	172.524	154.680	215.397	205.216	8.5592e-05	0.00037676	7.8962e-05	1169.6	1.004e-06	3.3625e-06	1225	244.39	1.3306e-06	2.6518e-06	309.47	81.571	68.515	19.428	2.0648e-06	27.571	0.00012593	9.3491e-05	2.1447e-05	1137.2	1.2858e-06	8.1967e-07	1199.2	240.55	1.1825e-06	8.1602e-07	304.11	84.532	67.619	19.32	1.0321e-06	27.621	200.186	-11.325	-0.985	-89.916	27.930	55.186	-89.789	-83.069	18.888	42.166	-83.010	-78.752	-76.309	-69.552	66.380	-69.595	-8191	255	
2001.928	1	1	0	0	0.24507	0.12022	0.2051	0.18846	0.11696	0.32744	0.1047	0.085495	0.11181	0.091616	0.22383	0.20257	0.15252	0.23206	0.11246	0.11819	-2.675	-2.7271	-3.4875	-3.0438	-3.3104	-3.3063	-3.0104	-3.3417	-3.0583	-3.1917	-3.3937	-2.9604	-3.0271	-3.4229	-2.7396	-3.3396	238.886	-8.108	137.040	257.092	240.091	-32.233	-41.500	-52.503	114.234	-7.287	193.285	137.497	114.798	249.599	92.607	-79.906	0.00010153	0.00026393	8.4815e-05	1167.6	1.8432e-06	4.2396e-06	1217.6	244.19	1.1834e-06	4.7003e-06	308.8	80.148	68.379	19.42	1.0652e-06	27.634	0.00012647	7.9761e-05	2.0712e-05	1136.5	1.2902e-06	7.8355e-07	1194.9	240.66	1.1233e-06	8.7794e-07	303.98	84.133	67.476	19.314	9.6996e-07	27.695	197.378	-13.374	6.065	-89.763	35.744	52.469	-89.896	-82.983	18.220	61.260	-83.230	-77.030	-76.490	-69.452	84.363	-69.897	-8191	255	
2002.026	1	1	0	0	0.10463	0.1982	0.090167	0.29896	0.13121	0.22661	0.2017	0.27711	0.027674	0.05262	0.21382	0.063241	0.074044	0.17959	0.10758	0.24449	-2.6354	-3.0125	-3.4396	-3.2125	-3.2042	-3.4208	-3.0042	-3.3417	-3.3146	-3.0312	-3.3083	-3.0396	-3.0771	-3.4042	-2.9188	-3.3312	90.570	227.725	253.482	218.921	89.933	160.897	234.316	179.837	-33.146	-41.385	212.335	58.402	-39.616	-29.213	-72.967	205.672	9.7393e-05	0.0002311	8.2688e-05	1169.5	1.1656e-06	4.2255e-06	1216	244.86	1.9235e-06	3.4521e-06	309.35	80.368	68.058	19.338	2.2194e-06	27.539	0.00011647	8.1467e-05	2.0322e-05	1135.3	1.1868e-06	7.9737e-07	1194.8	240.19	1.1622e-06	8.4809e-07	303.48	84.056	67.393	19.322	1.0472e-06	27.693	198.124	-5.572	7.396	-89.911	30.792	55.229	-89.807	-83.413	13.246	60.011	-82.904	-78.405	-76.168	-69.844	36.818	-69.512	-8191	255	
2002.121	1	1	0	0	0.25859	0.14545	0.14453	0.15906	0.12426	0.14973	0.14249	0.17673	0.22256	0.1639	0.040512	0.12772	0.079632	0.13796	0.17775	0.13729	-2.7604	-2.9271	-3.2208	-3.1396	-3.0792	-3.4188	-3.0604	-3.3458	-3.2812	-2.9125	-3.475	-3.0104	-2.7917	-3.3958	-3.0354	-3.2667	123.592	-73.184	-54.834	234.217	118.182	238.122	159.383	-100.656	149.376	244.345	144.349	221.302	210.697	-79.895	40.503	24.480	0.00010292	0.00018886	6.8189e-05	1165	8.8694e-07	3.1663e-06	1218.3	243.95	1.417e-06	2.7237e-06	308.92	80.536	68.657	19.305	2.3498e-06	27.581	0.00012049	8.7062e-05	2.0779e-05	1133	1.2718e-06	8.1878e-07	1193.5	239.91	1.1428e-06	8.9175e-07	303.46	84.152	67.495	19.313	9.9809e-07	27.581	204.396	-3.568	3.095	-90.054	33.208	65.663	-89.797	-82.890	36.508	55.264	-83.194	-77.860	-75.948	-69.404	68.054	-69.761	-8191	255	
2002.217	1	1	0	0	0.18736	0.16774	0.17735	0.20074	0.08282	0.28578	0.10072	0.16334	0.095369	0.16504	0.069207	0.18537	0.087995	0.239	0.21437	0.1194	-3.0104	-2.8625	-3.1354	-3.3063	-3.0396	-3.3021	-3.0375	-3.1813	-3.2479	-2.7938	-3.1937	-3.2188	-2.9854	-3.3937	-3.0333	-3.2562	-1.042	34.832	29.361	236.968	200.694	6.742	-76.806	189.314	-32.697	-76.131	258.163	146.752	24.379	158.242	30.065	206.921	8.437e-05	0.00041722	8.9559e-05	1163.7	1.485e-06	1.9279e-06	1218.3	243.04	1.2039e-06	3.0466e-06	308.12	79.402	68.275	19.328	1.5179e-06	27.49	0.00012326	8.2142e-05	2.0122e-05	1133.1	1.2922e-06	8.1254e-07	1191.7	239.36	1.0028e-06	8.4987e-07	302.3	84.147	67.375	19.246	9.9851e-07	27.59	193.847	-4.025	-15.611	-90.047	-12.142	79.614	-90.016	-83.077	-8.303	54.654	-82.874	-78.733	-76.845	-69.615	41.190	-69.461	-8191	255	
2002.337	1	1	0	0	0.044811	0.14415	0.26058	0.32368	0.072322	0.16701	0.092056	0.071165	0.21646	0.1484	0.045521	0.085379	0.35504	0.15581	0.148	0.20396	-2.8604	-2.95	-3.1396	-3.2438	-2.8292	-3.2812	-3.2646	-3.1521	-3.3625	-2.7188	-3.3646	-3.0729	-2.9042	-3.3708	-3.0583	-3.025	145.627	103.042	179.080	162.144	256.318	197.161	112.207	104.574	219.579	232.974	46.253	173.213	-2.502	56.563	36.531	127.146	0.00010345	0.00029243	8.0815e-05	1160.6	3.2429e-07	2.8969e-06	1212.7	242.49	1.2637e-06	3.318e-06	307.33	80.049	67.781	19.213	1.4746e-06	27.359	0.00011533	8.2658e-05	1.8207e-05	1128.6	1.2878e-06	7.8712e-07	1187.3	238.64	1.1131e-06	7.9776e-07	302.38	84.054	66.93	19.207	8.6042e-07	27.494	201.387	-4.549	-5.067	-89.793	43.912	59.966	-89.831	-82.695	15.632	82.192	-82.920	-77.912	-75.958	-69.474	48.886	-70.096	-8191	255	
2002.434	1	1	0	0	0.098598	0.27841	0.18502	0.35749	0.029862	0.2697	0.32809	0.33599	0.181	0.24568	0.21151	0.1046	0.19421	0.21231	0.12521	0.12182	-2.9333	-2.8729	-3.1437	-3.425	-2.9146	-3.2583	-3.2208	-3.0979	-3.5271	-3.0979	-3.3292	-3.2188	-3.0083	-3.3063	-3.1646	-2.9896	13.793	16.165	70.877	181.182	-8.628	116.665	142.250	201.232	59.855	152.990	57.119	-60.610	194.174	-70.646	169.661	253.299	9.4586e-05	0.00036624	7.2344e-05	1156.2	1.7725e-06	3.1492e-06	1210.1	242.65	1.4112e-06	3.3507e-06	306.02	81.257	68.051	19.267	3.1182e-06	27.443	0.0001171	8.0872e-05	2.0656e-05	1125.4	1.3166e-06	7.4341e-07	1184.7	238.57	1.073e-06	6.6458e-07	301.49	83.833	67.034	19.218	9.5569e-07	27.443	196.863	-3.635	-11.566	-89.706	34.835	65.254	-90.068	-83.090	-4.049	63.807	-82.807	-78.050	-76.386	-69.834	41.398	-69.780	-8191	255	
2002.530	1	1	0	0	0.12411	0.26755	0.31212	0.12663	0.20492	0.036076	0.089809	0.28196	0.084962	0.21969	0.19285	0.16196	0.12548	0.10562	0.042527	0.21338	-2.9271	-2.9854	-2.9208	-3.525	-2.9646	-3.3333	-3.3896	-2.9813	-3.5354	-3.0667	-3.3021	-3.3958	-2.9062	-3.1667	-3.2458	-2.8396	204.735	-51.591	-26.299	-98.643	-5.791	106.206	188.596	-92.643	-40.694	-35.662	-90.377	217.502	4.357	82.593	146.395	48.756	0.00010247	0.0002937	0.00010098	1153.5	2.151e-06	3.6334e-06	1204.6	241.16	1.7385e-06	3.7654e-06	307.96	81.086	67.19	19.259	2.2625e-06	27.446	0.00011856	7.3531e-05	2.0957e-05	1124	1.4196e-06	7.229e-07	1183.5	237.97	1.032e-06	7.7193e-07	301.61	84.08	66.611	19.194	8.7427e-07	27.495	194.619	-1.189	-9.000	-89.799	50.469	68.374	-90.040	-82.989	26.697	67.239	-83.217	-79.043	-76.170	-69.438	12.531	-69.640	-8191	255	
2002.626	1	1	0	0	0.16793	0.0789	0.36061	0.15109	0.22896	0.094269	0.24283	0.18584	0.15467	0.19366	0.22834	0.14316	0.081562	0.14089	0.20988	0.1383	-2.9042	-2.8958	-2.9625	-3.4604	-2.9583	-3.1229	-3.3875	-2.9354	-3.2896	-3.1917	-3.2146	-3.3958	-2.9125	-3.2021	-3.3146	-2.9062	-59.714	-74.147	207.595	178.670	58.172	147.404	-96.706	48.781	46.216	-50.543	194.246	201.748	130.668	144.054	-90.846	122.070	9.8284e-05	0.00029797	5.9721e-05	1148.5	6.8715e-07	2.432e-06	1201.3	242.71	7.9062e-07	3.4315e-06	303.98	79.697	67.794	19.285	2.043e-06	27.355	0.00011663	6.988e-05	1.9977e-05	1119.8	1.18e-06	6.4887e-07	1179.1	237.75	1.0239e-06	8.1201e-07	300.14	83.216	66.662	19.165	8.218e-07	27.423	193.277	-4.481	-12.308	-89.939	35.990	53.768	-89.918	-82.924	37.213	50.444	-83.126	-77.853	-76.204	-69.499	50.734	-69.547	-8191	255	
2002.722	1	1	0	0	0.313	0.1038	0.2975	0.25361	0.13796	0.07466	0.39302	0.21182	0.34355	0.28594	0.2154	0.27197	0.3512	0.22335	0.18234	0.28023	-3.0687	-3.2188	-3	-3.4458	-3.05	-3.0417	-3.3688	-3.0396	-3.3292	-3.075	-3	-3.3417	-3.0104	-3.0604	-3.4437	-2.95	87.844	57.785	-82.395	146.093	168.633	226.085	197.927	90.663	48.881	70.974	190.632	102.959	183.361	12.511	-74.446	199.926	8.1903e-05	0.00032332	4.6452e-05	1146.7	1.1533e-06	3.4449e-06	1201.5	241.24	1.8147e-06	2.9326e-06	304.96	79.103	67.302	19.175	3.0095e-06	27.254	0.00012196	7.6507e-05	2.0879e-05	1117.4	1.2209e-06	7.2022e-07	1178.3	236.86	1.1286e-06	7.893e-07	300.17	83.513	66.275	19.124	8.4237e-07	27.41	182.441	-9.375	0.138	-89.942	28.597	33.797	-89.795	-83.160	19.895	74.705	-83.112	-78.284	-76.036	-69.973	53.674	-69.276	-8191	255	
2002.818	1	1	0	0	0.228	0.20944	0.081395	0.062324	0.12851	0.18327	0.19125	0.039473	0.14392	0.3235	0.13783	0.086022	0.32513	0.34045	0.095051	0.067455	-2.7521	-3.2208	-2.825	-3.5479	-3.0062	-3.0854	-3.5958	-3.0792	-3.1958	-3.2042	-2.7833	-3.1854	-3.0229	-3.0333	-3.2458	-3.0042	-47.771	-76.379	225.704	-43.578	3.494	249.795	219.324	234.738	-27.608	16.163	252.477	32.035	232.166	159.636	127.416	68.803	9.4436e-05	0.00028986	3.6155e-05	1147.9	1.394e-06	2.882e-06	1195.6	240.09	1.396e-06	2.9468e-06	304.51	79.81	67.311	19.166	1.8343e-06	27.427	0.00012305	6.5078e-05	2.1191e-05	1116.9	1.1572e-06	7.5902e-07	1174.4	236.53	1.0146e-06	6.9175e-07	299.26	83.39	66.455	19.126	7.9662e-07	27.369	196.595	10.350	2.687	-90.004	40.828	54.606	-89.505	-82.997	19.078	50.112	-82.946	-77.642	-76.564	-69.467	59.469	-69.271	-8191	255	
2002.937	1	1	0	0	0.23631	0.3011	0.1821	0.25849	0.17517	0.086181	0.12847	0.15135	0.14582	0.10669	0.12506	0.16341	0.10143	0.057003	0.077377	0.10329	-2.8167	-3.0958	-2.9188	-3.3396	-3.1229	-2.9521	-3.6375	-3.0208	-3.0271	-3.3354	-2.8021	-3.3042	-3.1708	-2.8292	-3.4375	-3.0187	-80.036	45.206	-1.621	-88.883	230.945	117.563	217.904	206.196	182.815	88.337	-18.604	57.587	201.357	118.651	17.767	210.044	0.00010439	0.00039615	9.0539e-05	1143.6	1.3576e-06	4.6259e-06	1197.1	239.24	1.5546e-06	3.2416e-06	303.07	79.128	67.278	19.265	2.1812e-06	27.381	0.00012333	6.9602e-05	2.1202e-05	1114.4	1.1111e-06	7.4163e-07	1173.4	235.45	9.6676e-07	6.3741e-07	298.95	83.204	66.455	19.135	7.8109e-07	27.349	200.957	-13.435	-1.003	-89.678	55.702	74.209	-89.789	-82.719	1.579	48.049	-83.078	-77.881	-76.286	-69.564	50.930	-69.169	-8191	255	
2003.033	1	1	0	0	0.18304	0.085373	0.18947	0.21262	0.091189	0.10287	0.20002	0.20563	0.047598	0.048431	0.12409	0.1374	0.15782	0.12074	0.11914	0.13852	-2.8583	-3.2271	-2.975	-3.2729	-3.125	-2.9521	-3.6333	-3.0896	-3.0792	-3.5083	-3.1667	-3.2438	-3.2083	-2.8958	-3.4354	-3.1479	65.660	-42.230	104.798	246.858	95.091	149.968	207.352	244.193	249.965	216.208	68.018	243.883	81.529	249.945	195.679	166.825	8.5872e-05	0.00029743	9.4601e-05	1145.5	9.0307e-07	2.5131e-06	1199.9	240.17	2.3096e-06	2.3428e-06	303.02	78.952	67.084	19.21	1.9217e-06	27.213	0.00011749	6.5396e-05	2.1558e-05	1113.1	1.1175e-06	7.782e-07	1173.7	236.22	1.0941e-06	6.4231e-07	299.19	82.993	66.224	19.093	7.6934e-07	27.268	186.987	-2.171	-9.475	-89.870	10.004	49.685	-89.677	-83.009	45.392	38.723	-83.063	-78.030	-76.724	-69.472	58.884	-69.797	-8191	255	
2003.129	1	1	0	0	0.11306	0.008813	0.069324	0.11005	0.12159	0.036256	0.27045	0.19067	0.17607	0.36064	0.1987	0.14008	0.34233	0.098898	0.20037	0.13099	-2.5396	-3.2062	-2.9583	-3.3354	-3.3375	-2.9417	-3.4625	-3.1771	-3.0583	-3.3646	-3.0604	-3.2	-3.3271	-2.9771	-3.3083	-3.1271	-36.336	-70.933	3.798	113.923	252.916	101.009	154.904	-93.257	18.920	-1.756	118.503	75.644	-55.346	31.905	122.963	111.465	8.3618e-05	0.00021339	7.5698e-05	1140.8	1.2558e-06	3.7871e-06	1196.1	239.23	9.4114e-07	2.5068e-06	304.44	79.15	67.344	19.12	2.7092e-06	27.321	0.00012691	5.8729e-05	2.0467e-05	1111.4	1.1431e-06	8.2993e-07	1172.3	235.86	1.0633e-06	5.8752e-07	298.92	82.856	66.443	19.07	8.2097e-07	27.354	193.618	-17.756	6.464	-89.910	-11.314	42.288	-89.819	-83.187	23.914	68.607	-83.028	-78.233	-75.895	-69.763	42.725	-69.671	-8191	255	
2003.225	1	1	0	0	0.19933	0.19578	0.15377	0.43744	0.049798	0.11029	0.25056	0.25945	0.1573	0.17286	0.040643	0.1256	0.09915	0.17607	0.12999	0.29675	-2.4958	-3.275	-2.9437	-3.1208	-3.3063	-2.8125	-3.3542	-3.1708	-2.9083	-3.3458	-2.9792	-3.0667	-3.3417	-2.8438	-3.3458	-3.2646	-69.611	245.795	34.905	233.759	-90.527	221.495	187.747	-56.262	169.764	110.287	7.043	208.632	204.814	71.485	226.519	-52.830	9.7046e-05	0.00030275	9.2021e-05	1141.4	8.6452e-07	3.7594e-06	1192.4	239.25	1.6582e-06	2.7429e-06	304.28	80.379	67.072	18.902	1.7828e-06	27.344	0.00012151	6.4483e-05	1.834e-05	1109.5	1.0734e-06	7.7151e-07	1170.4	235.46	1.1136e-06	7.305e-07	299.3	83.517	66.244	19.02	8.6839e-07	27.427	193.571	-23.863	24.113	-89.860	-17.585	59.354	-89.823	-83.074	21.191	48.938	-82.987	-77.273	-75.800	-69.389	63.875	-69.548	-8191	255	
2003.299	1	1	0	0	0.14034	0.019987	0.12075	0.061735	0.1438	0.27336	0.07594	0.29952	0.4114	0.33176	0.19117	0.1509	0.40806	0.15624	0.11217	0.12562	-2.3667	-3.3229	-3.1271	-3.2354	-3.3354	-2.8958	-3.2958	-3.3625	-2.8187	-3.3542	-3.0229	-2.9938	-3.4062	-3.0979	-3.3208	-3.4146	-69.783	238.283	-11.236	200.036	186.016	141.683	80.120	-42.899	252.668	189.691	258.067	33.647	250.546	-7.358	54.206	258.369	0.00010221	0.00043089	9.2777e-05	1141.2	5.1572e-07	4.0423e-06	1195.4	240.31	1.8858e-06	3.5187e-06	304.57	80.229	67.556	19.173	2.4462e-06	27.433	0.00012005	6.1388e-05	1.8418e-05	1110.4	1.0702e-06	7.9336e-07	1173.1	235.86	1.1034e-06	7.0333e-07	299	83.694	66.44	19.116	8.4489e-07	27.368	187.398	-12.705	-1.159	-89.755	66.942	50.929	-89.853	-82.986	5.768	79.441	-83.011	-77.938	-76.400	-69.537	41.271	-69.685	-8191	255	
2003.418	1	1	0	0	0.19624	0.13327	0.13885	0.13173	0.14894	0.18025	0.17631	0.22339	0.12072	0.28514	0.018468	0.25308	0.083638	0.27504	0.058563	0.10371	-2.3979	-3.3104	-3.1396	-3.1271	-3.3688	-2.9938	-3.2854	-3.2792	-2.9958	-3.2667	-3.2083	-2.9437	-3.5417	-2.9792	-3.2396	-3.4083	42.349	72.921	13.750	209.625	116.594	112.222	204.017	96.495	254.786	94.610	72.414	94.021	-51.336	146.538	40.551	174.724	9.922e-05	0.00032074	9.1542e-05	1142.7	8.8047e-07	3.0457e-06	1192.8	239.51	6.7333e-07	2.6387e-06	305.36	79.633	67.369	19.155	1.5216e-06	27.332	0.000127	7.119e-05	2.1235e-05	1111.3	1.1091e-06	9.053e-07	1171.5	236.05	1.1022e-06	6.5032e-07	299.33	83.278	66.366	19.099	7.983e-07	27.355	202.108	8.812	-2.480	-89.885	36.316	60.848	-89.761	-83.139	19.048	13.293	-82.921	-77.823	-75.984	-69.235	57.515	-69.618	-8191	255	
2003.514	1	1	0	0	0.26187	0.25644	0.1902	0.51242	0.34364	0.05465	0.073746	0.44453	0.13421	0.20369	0.074419	0.21055	0.14616	0.024382	0.15783	0.33265	-2.6208	-3.0604	-3.2083	-2.9083	-3.4062	-3.1125	-3.3688	-3.3	-2.9479	-3.2458	-3.3292	-2.8417	-3.2979	-3.0396	-3.0563	-3.3646	171.905	27.003	-60.252	206.897	-61.107	122.917	175.248	-77.053	27.657	238.574	159.348	-50.703	188.413	244.317	-98.419	238.284	9.6848e-05	0.00037764	7.3778e-05	1143.2	1.3417e-06	4.2285e-06	1194	238.89	5.0049e-07	2.3641e-06	303.49	79.697	68.092	19.21	2.6632e-06	27.259	0.00011735	6.611e-05	2.0356e-05	1112.8	1.1159e-06	7.3093e-07	1173	235.48	1.0138e-06	8.0132e-07	298.63	83.142	66.69	19.088	9.2296e-07	27.296	191.937	-17.514	8.376	-89.822	84.662	56.131	-89.838	-82.926	0.266	50.117	-83.106	-78.549	-76.601	-69.770	37.221	-69.928	-8191	255	
2003.610	1	1	0	0	0.25372	0.10293	0.048872	0.31012	0.22158	0.18987	0.19902	0.1923	0.099728	0.18825	0.11682	0.11034	0.41457	0.094904	0.22099	0.05136	-2.4188	-3.1792	-3.3042	-3.0854	-3.3063	-3.0646	-3.1646	-3.4667	-2.9646	-3.3063	-3.4667	-2.7542	-3.3229	-2.9646	-3.0292	-3.35	123.911	29.033	75.282	186.761	159.551	29.300	213.820	188.534	1.891	-88.194	66.042	-30.633	115.942	130.372	158.352	109.113	9.6467e-05	0.0003628	7.4881e-05	1140.9	1.3298e-06	2.8439e-06	1197.3	239.71	1.449e-06	3.9942e-06	303.41	78.858	68.135	19.243	1.5927e-06	27.263	0.00012282	6.7142e-05	1.8674e-05	1112.9	1.1043e-06	7.2647e-07	1173.5	235.81	1.1253e-06	6.2583e-07	298.47	83.306	66.686	19.07	9.238e-07	27.38	194.673	-12.902	-0.590	-89.925	36.264	52.760	-89.724	-82.986	41.779	56.289	-83.207	-78.264	-76.183	-69.571	25.214	-69.538	-8191	255	
2003.706	1	1	0	0	0.35271	0.11567	0.078294	0.14659	0.15968	0.079913	0.10285	0.15716	0.18882	0.22714	0.063113	0.12856	0.21116	0.1938	0.13444	0.1441	-2.3771	-3.1208	-3.3625	-2.9917	-3.175	-3.2146	-3.2333	-3.4917	-2.8688	-3.2354	-3.3917	-2.8771	-3.2062	-3.1833	-2.975	-3.375	29.230	94.897	126.454	132.031	201.509	130.439	126.430	-100.201	246.657	-10.672	234.316	172.680	-42.146	224.938	68.267	200.876	0.0001013	0.00031546	6.7478e-05	1144	5.7289e-07	3.2678e-06	1201.8	238.66	1.6028e-06	2.8232e-06	302.98	80.513	67.295	19.006	1.7632e-06	27.418	0.00011644	8.4681e-05	1.7071e-05	1113.9	1.1319e-06	7.2379e-07	1175.2	235.83	1.1261e-06	7.5945e-07	299.11	83.641	66.544	19.1	9.175e-07	27.372	189.710	-12.916	0.093	-89.930	8.252	32.387	-89.846	-83.026	-1.355	68.301	-83.288	-77.699	-75.964	-69.459	34.962	-69.663	-8191	255	
2003.827	1	1	0	0	0.037446	0.10094	0.2156	0.11353	0.12789	0.16926	0.54076	0.1288	0.051952	0.22493	0.29987	0.20574	0.078528	0.2963	0.099457	0.25179	-2.4813	-2.8146	-3.3312	-3.0187	-3.0396	-3.3271	-2.9813	-3.3812	-2.9917	-3.1396	-3.2625	-2.8333	-3.3646	-3.2667	-2.8979	-3.4021	65.176	3.385	-3.432	209.708	194.861	64.793	131.404	217.257	107.265	241.995	183.963	-86.753	-59.617	185.389	202.923	206.245	0.00010535	0.00022914	0.00010653	1143.8	1.703e-06	2.6958e-06	1197.4	239.13	5.3608e-07	4.5037e-06	305.41	79.068	67.642	19.181	1.8844e-06	27.431	0.00011972	7.6824e-05	1.795e-05	1113.3	1.271e-06	7.1398e-07	1174.1	235.66	1.1217e-06	8.8373e-07	299.35	83.469	66.594	19.088	8.2516e-07	27.375	196.732	-3.094	1.242	-89.882	27.414	63.881	-89.568	-83.089	38.828	59.674	-83.129	-77.908	-76.228	-69.316	38.288	-69.616	-8191	255	
2003.899	1	1	0	0	0.067022	0.10352	0.21989	0.16456	0.077325	0.15858	0.13384	0.27342	0.092834	0.1501	0.23112	0.091158	0.10468	0.27639	0.10316	0.28781	-2.5667	-3.1188	-3.3125	-2.9458	-3.15	-3.3146	-3.0854	-3.3333	-3.175	-3.1125	-3.4688	-2.9125	-3.075	-3.2021	-3.0042	-3.4583	79.081	23.426	6.232	251.487	225.987	172.113	206.943	240.040	128.692	205.528	-73.367	137.369	60.624	57.408	17.019	243.320	9.0709e-05	0.00037938	8.3777e-05	1147.2	1.7993e-06	3.6301e-06	1195.3	239.52	1.5604e-06	3.0517e-06	302.47	79.679	67.28	19.168	1.4007e-06	27.235	0.00012079	7.5078e-05	1.7839e-05	1114.4	1.1748e-06	7.4252e-07	1173.8	235.49	1.0917e-06	7.7103e-07	298.44	83.303	66.599	19.099	9.6073e-07	27.316	194.932	0.398	-4.725	-89.859	59.846	49.425	-89.816	-82.959	22.860	51.803	-83.011	-77.306	-76.232	-69.879	45.084	-69.935	-8191	255	
2004.019	1	1	0	0	0.11214	0.19791	0.029978	0.37028	0.21665	0.095667	0.15137	0.059667	0.096322	0.16595	0.11547	0.052415	0.30462	0.418	0.12526	0.12814	-2.8625	-3.0083	-3.375	-3.0542	-3.2125	-3.425	-2.9229	-3.2979	-2.9833	-3.0583	-3.3646	-3.0292	-2.8937	-3.3312	-2.9	-3.1958	247.986	16.501	240.951	253.962	-73.532	117.725	213.976	170.972	208.426	58.616	-35.217	144.612	122.277	-90.294	196.509	2.781	0.00010561	0.00045535	0.00010374	1144	1.0658e-06	3.3357e-06	1197	238.65	1.4789e-06	2.6853e-06	303.71	79.349	67.782	19.159	1.554e-06	27.292	0.00011965	8.1229e-05	2.0055e-05	1114	1.2281e-06	7.0551e-07	1172.3	235.86	1.1338e-06	7.8262e-07	299.44	83.143	66.634	19.129	9.1582e-07	27.374	198.322	-28.179	15.389	-89.939	-0.519	42.096	-89.802	-83.142	4.465	51.939	-83.153	-77.541	-76.208	-69.492	60.473	-69.346	-8191	255	
2004.114	1	1	0	0	0.1032	0.12298	0.30393	0.086555	0.3152	0.017324	0.30043	0.21176	0.038354	0.070551	0.053276	0.21775	0.19833	0.10168	0.15256	0.29907	-2.6833	-3.0062	-3.2188	-3.0625	-3.0375	-3.4771	-3.0604	-3.1854	-3.2104	-2.8333	-3.225	-3.1729	-3.0104	-3.3417	-3.0083	-3.2958	13.551	91.921	-41.281	-75.143	244.177	198.603	155.526	150.819	216.449	22.033	34.232	97.092	-73.072	102.435	-89.949	243.162	8.8403e-05	0.00037903	0.00010159	1144.9	1.0533e-06	4.3758e-06	1204.8	239.46	1.5623e-06	2.317e-06	304.06	81.839	67.327	19.112	2.3939e-06	27.497	0.00012316	8.2697e-05	1.9843e-05	1114.8	1.2044e-06	7.0863e-07	1176.2	236.19	9.9839e-07	7.8752e-07	299.47	83.796	66.607	19.059	9.196e-07	27.406	197.035	-31.758	9.851	-89.717	-4.628	47.123	-89.782	-82.916	27.527	65.776	-82.836	-77.386	-76.137	-69.325	29.439	-69.241	-8191	255	
2004.210	1	1	0	0	0.16993	0.058752	0.17887	0.29883	0.041332	0.06528	0.32612	0.13825	0.1172	0.14004	0.090705	0.081592	0.16271	0.057665	0.20521	0.13196	-2.7333	-2.7583	-3.1042	-3.0521	-2.8833	-3.3521	-3.1125	-3.1625	-3.3438	-2.7958	-3.3708	-3.1229	-3.1521	-3.4542	-3.0563	-2.9542	2.395	80.306	152.666	232.179	99.029	243.545	161.993	-64.176	26.207	132.892	191.677	-4.776	-8.373	-9.751	243.799	76.647	9.9025e-05	0.00029821	9.3257e-05	1139.5	9.9983e-07	2.4513e-06	1201.2	239.61	1.7162e-06	3.4672e-06	304.62	78.691	68.1	19.077	1.0044e-06	27.552	0.00011563	7.9721e-05	1.7405e-05	1113.2	1.202e-06	7.2379e-07	1172.9	236.06	1.0203e-06	8.5834e-07	299.51	83.229	66.582	19.072	8.9651e-07	27.419	198.316	7.475	4.555	-90.004	-1.057	45.669	-89.780	-83.096	-19.460	64.055	-83.130	-78.698	-76.129	-69.506	42.013	-69.643	-8191	255	
2004.306	1	1	0	0	0.10707	0.12368	0.085964	0.076802	0.017677	0.20625	0.11137	0.052146	0.16885	0.21874	0.058416	0.12414	0.2413	0.21062	0.22993	0.076574	-3.0729	-2.7854	-3.1958	-3.1625	-3.0146	-3.2771	-3.1375	-3.0229	-3.1604	-2.7271	-3.2708	-3.0396	-2.8187	-3.2938	-3.1917	-2.9792	139.455	92.400	-47.665	137.657	-19.694	83.026	88.731	220.749	-71.797	125.314	217.771	-70.211	207.113	93.935	115.725	192.105	0.00010139	0.00041237	7.5368e-05	1143.8	2.0019e-06	3.5335e-06	1194.5	239.64	1.006e-06	2.8714e-06	304.47	80.497	67.572	19.255	1.0626e-06	27.457	0.000123	7.5951e-05	1.8585e-05	1111.2	1.2617e-06	7.6928e-07	1172	235.78	9.6716e-07	7.7727e-07	298.8	83.592	66.652	19.107	8.5916e-07	27.364	199.791	-17.558	12.547	-90.026	64.999	40.879	-89.924	-83.144	47.997	50.709	-83.064	-78.561	-76.570	-69.505	42.180	-69.724	-8191	255	
2004.426	1	1	0	0	0.20248	0.1482	0.15771	0.13516	0.14369	0.10522	0.14225	0.26121	0.056587	0.27361	0.2518	0.11787	0.20293	0.081229	0.082014	0.1605	-2.9688	-2.7771	-3.1063	-3.275	-2.8542	-3.3542	-3.2812	-3.0708	-3.2958	-3.0312	-3.1375	-3.1521	-2.8125	-3.1208	-3.0625	-2.9833	189.212	-36.369	119.357	-64.649	255.114	-47.984	118.647	160.777	44.696	32.218	207.464	74.917	-36.471	145.944	243.843	258.684	9.0922e-05	0.00026791	9.0488e-05	1138.8	9.8042e-07	3.5914e-06	1193.4	237.77	1.5773e-06	2.898e-06	302.26	80.552	66.81	19.157	2.4566e-06	27.165	0.00011049	6.9324e-05	1.716e-05	1106.4	1.1784e-06	7.2513e-07	1167.7	234.73	1.0065e-06	7.1357e-07	298.06	83.111	66.284	19.068	8.537e-07	27.325	202.020	-15.588	0.112	-89.685	4.690	47.206	-89.671	-83.126	7.444	52.664	-82.914	-77.804	-76.390	-69.620	43.435	-69.424	-8191	255	
2004.523	1	1	0	0	0.1724	0.1244	0.12125	0.23037	0.16919	0.25921	0.15901	0.23193	0.1018	0.11594	0.16598	0.26114	0.069059	0.12096	0.060727	0.19551	-2.8646	-3.0771	-3.0896	-3.4708	-2.9375	-3.2042	-3.1958	-2.9583	-3.4479	-3.0646	-3.1729	-3.3	-2.8187	-3.2583	-3.1354	-2.8438	63.016	-63.650	149.298	-56.184	215.837	-43.337	173.128	194.028	155.380	-19.256	242.560	69.164	167.283	144.163	81.977	8.237	9.293e-05	0.00034253	6.9358e-05	1133.8	1.2417e-06	3.3707e-06	1193	237.63	1.0313e-06	3.0451e-06	302.55	78.85	66.575	19.157	2.011e-06	27.128	0.000113	7.1467e-05	1.8541e-05	1103.1	1.2333e-06	6.9614e-07	1166.3	234.66	9.7122e-07	6.57e-07	297.78	83.361	66.157	19.02	7.4164e-07	27.32	195.529	5.420	5.346	-90.003	18.280	36.664	-89.828	-83.089	16.238	66.038	-83.064	-78.492	-76.389	-69.371	49.472	-69.600	-8191	255	
2004.594	1	1	0	0	0.17412	0.28138	0.1416	0.15972	0.0074052	0.13955	0.071829	0.22216	0.16922	0.12036	0.089752	0.29839	0.049777	0.047955	0.33841	0.017514	-2.6604	-3.0167	-2.9542	-3.3	-3.0187	-3.3896	-3.1771	-2.8937	-3.2354	-3.0521	-2.9708	-3.4104	-2.9562	-3.0271	-3.0958	-2.9688	69.057	232.330	131.466	175.139	52.904	72.192	184.532	157.454	181.653	-82.929	152.253	50.424	122.958	93.997	30.146	-65.395	9.4761e-05	0.00034005	5.3395e-05	1129.6	7.9048e-07	4.2751e-06	1184.7	237.37	8.7169e-07	2.9929e-06	301.88	78.682	66.415	19.128	1.5698e-06	27.327	0.00011117	6.1983e-05	1.8474e-05	1101.7	1.1708e-06	6.9793e-07	1160.9	233.99	9.3918e-07	6.7705e-07	297.12	82.935	65.962	19.014	7.3702e-07	27.224	196.445	-2.790	-29.307	-89.936	33.431	51.359	-89.707	-82.839	-0.199	61.853	-83.030	-78.782	-76.000	-69.774	8.159	-69.678	-8191	255	
2004.715	1	1	0	0	0.15712	0.14427	0.18831	0.11589	0.18199	0.25461	0.15566	0.10359	0.066936	0.18912	0.14749	0.11703	0.084958	0.13232	0.23753	0.28259	-2.8854	-3.0792	-2.9667	-3.4313	-2.95	-3.1188	-3.4479	-2.9688	-3.1312	-3.2875	-3.1167	-3.4062	-2.9437	-3.0479	-3.2542	-2.8125	144.931	-88.497	199.324	241.356	-64.466	156.478	129.448	165.880	40.646	50.633	250.769	235.609	244.469	-6.518	-21.794	4.250	9.3e-05	0.0002023	0.00010923	1130	7.9543e-07	3.5003e-06	1182	237.64	1.4958e-06	2.1976e-06	301.21	79.077	66.945	19.018	2.2584e-06	27.203	0.00011461	7.4959e-05	2.1993e-05	1098.6	1.1451e-06	8.0852e-07	1159.6	234.13	9.2783e-07	7.0155e-07	296.67	82.996	66.025	19.006	7.2695e-07	27.234	189.698	3.541	2.222	-89.847	14.670	38.512	-89.789	-83.086	-3.708	69.309	-83.026	-77.697	-76.258	-69.372	36.806	-69.493	-8191	255	
2004.809	1	1	0	0	0.13107	0.074414	0.21694	0.054669	0.055918	0.15568	0.11517	0.1007	0.13724	0.014844	0.12259	0.21797	0.055427	0.13779	0.20516	0.11344	-2.7958	-3.1	-2.9458	-3.5042	-2.9062	-3.0333	-3.2854	-2.8812	-3.1646	-3.1063	-2.9792	-3.2104	-2.8917	-2.9542	-3.325	-2.9125	15.477	65.118	-57.304	165.158	138.542	103.583	160.616	-79.475	230.507	-61.033	-10.296	238.682	177.374	198.418	-27.574	-20.076	9.9661e-05	0.00032821	8.0073e-05	1129.4	1.1793e-06	3.9209e-06	1186.1	236.91	1.528e-06	3.3702e-06	302.19	79.494	67.203	19.136	1.8401e-06	27.087	0.0001071	6.2618e-05	1.9309e-05	1099.5	1.1548e-06	7.4163e-07	1160.1	233.82	1.0081e-06	6.9219e-07	297.36	82.789	66.193	19.057	6.8624e-07	27.228	198.581	-16.000	-0.236	-90.005	33.919	43.162	-89.827	-82.687	10.676	45.007	-82.987	-77.612	-76.151	-69.460	60.780	-69.374	-8191	255	
2004.907	1	1	0	0	0.22871	0.077563	0.032768	0.22821	0.026161	0.14084	0.3223	0.25623	0.19698	0.22454	0.0088049	0.078248	0.22752	0.25689	0.072652	0.061814	-2.7	-3.1708	-2.8	-3.0729	-3.0917	-2.9938	-3.3146	-3.0229	-3.1646	-3.5208	-3.0146	-3.4125	-3.0563	-2.9104	-3.3333	-3.0396	-31.082	-72.189	226.556	45.356	126.311	204.102	181.359	164.823	-92.905	42.115	212.869	182.715	34.824	-38.285	-40.159	-60.485	9.6315e-05	0.00025885	4.8252e-05	1130.2	1.1433e-06	2.9052e-06	1184	237.75	1.1659e-06	3.6353e-06	302.1	80.469	67.629	19.088	2.5927e-06	27.279	0.00010924	5.9563e-05	1.9175e-05	1099.4	1.0931e-06	7.8756e-07	1159.4	234.31	1.0008e-06	5.6926e-07	297.04	83.463	66.069	18.999	7.3115e-07	27.185	192.558	-14.437	10.362	-89.863	59.058	53.376	-89.796	-82.903	24.871	68.067	-82.876	-77.843	-76.658	-69.324	77.232	-69.693	-8191	255	
2005.002	1	1	0	0	0.13353	0.18042	0.17039	0.14097	0.094641	0.17281	0.17552	0.21029	0.059953	0.10013	0.049062	0.04293	0.035043	0.19171	0.11903	0.056066	-2.7396	-3.3438	-2.8083	-3.5708	-3.1875	-3.0417	-3.5687	-3.0375	-3.2042	-3.3292	-2.7	-3.1104	-3.1208	-2.9958	-3.375	-3.125	254.358	58.969	128.954	140.315	258.491	116.639	209.349	167.235	-31.345	-51.472	-74.491	161.727	-87.428	-50.169	-82.132	220.304	9.9688e-05	0.00023454	7.4318e-05	1125.6	1.1179e-06	2.4967e-06	1180.8	236.96	8.642e-07	3.0564e-06	301.12	79.777	66.652	19.008	1.996e-06	27.184	0.00011177	6.5872e-05	1.8051e-05	1097.2	1.1195e-06	7.3226e-07	1158.9	234.02	1.0045e-06	6.0444e-07	296.71	82.695	65.708	18.934	7.7689e-07	27.149	203.100	-22.795	-8.441	-89.753	20.276	39.043	-89.790	-83.031	22.577	60.162	-82.952	-77.244	-76.860	-69.221	56.378	-69.647	-8191	255	
2005.122	1	1	0	0	0.092853	0.24277	0.13341	0.12329	0.15678	0.1808	0.18174	0.15357	0.15696	0.13416	0.074326	0.26799	0.076212	0.081043	0.20839	0.055817	-2.6	-3.2354	-2.8396	-3.3333	-3.2021	-2.9771	-3.4833	-3.1646	-3.0396	-3.4167	-2.7583	-3.1875	-3.2292	-2.8417	-3.2333	-3.1354	161.268	-60.196	81.379	-17.665	-77.585	136.104	191.749	56.760	-1.356	-58.460	-77.888	122.446	180.617	206.356	147.946	-44.255	9.7702e-05	0.00034719	8.69e-05	1122.9	1.1211e-06	3.719e-06	1177.8	237.5	8.031e-07	3.3964e-06	300.49	79.251	66.895	19.005	2.1308e-06	27.057	0.00012016	7.6189e-05	2.04e-05	1094.9	1.043e-06	7.831e-07	1156	233.3	1.0491e-06	7.0377e-07	296.06	82.828	65.807	18.899	8.6378e-07	27.103	200.208	1.324	-10.964	-89.800	56.398	49.963	-89.782	-82.957	5.946	53.676	-83.150	-78.197	-76.451	-69.165	75.065	-69.534	-8191	255	
2005.194	1	1	0	0	0.17692	0.11051	0.21567	0.18773	0.1169	0.078952	0.15756	0.12877	0.11525	0.08237	0.089602	0.21212	0.093934	0.047613	0.14186	0.20003	-2.6875	-3.2938	-3.1083	-3.1688	-3.2	-2.6667	-3.5	-2.9771	-2.9646	-3.3708	-3.0312	-2.9708	-3.3729	-2.7792	-3.2771	-3.0625	242.788	238.043	3.444	239.010	-88.945	-11.296	245.104	-20.983	116.256	94.629	-35.324	130.996	99.480	-17.579	51.819	202.759	9.7296e-05	0.00018419	0.00010304	1119.4	1.0186e-06	2.4377e-06	1178.7	235.9	1.5905e-06	2.6432e-06	299.15	78.607	66.3	18.942	1.4134e-06	27.052	0.00011907	6.0555e-05	1.9398e-05	1092.3	1.1167e-06	8.1254e-07	1155.3	233.01	1.099e-06	7.7772e-07	295.56	82.48	65.801	18.895	7.2611e-07	27.14	197.341	-16.176	-1.275	-89.650	40.515	27.726	-89.995	-82.773	30.440	68.301	-83.163	-77.347	-75.657	-69.279	48.117	-69.611	-8191	255	
2005.290	1	1	0	0	0.24044	0.09975	0.037484	0.30486	0.10435	0.13444	0.091417	0.24597	0.13916	0.065436	0.19048	0.18461	0.095372	0.16783	0.22309	0.26881	-2.4583	-3.1437	-2.9875	-3.1125	-3.3312	-2.8083	-3.2792	-3.2	-2.975	-3.4292	-2.9771	-3.0521	-3.2792	-2.9813	-3.1688	-3.3708	-60.605	97.805	80.166	203.880	25.160	56.547	152.349	252.643	242.018	50.560	242.483	252.670	206.762	248.524	6.917	105.748	9.1452e-05	0.00026737	0.00011245	1123.2	1.1003e-06	3.0909e-06	1176.7	237.23	1.4794e-06	3.5781e-06	301.57	78.406	66.335	18.888	1.4925e-06	27.048	0.00012384	6.2142e-05	2.1636e-05	1094.4	1.1079e-06	7.3316e-07	1155.8	232.75	1.0775e-06	6.4186e-07	295.75	82.354	65.636	18.854	7.4416e-07	27.093	200.991	-14.327	4.740	-89.889	63.562	38.299	-89.833	-83.013	13.535	64.054	-83.011	-77.928	-75.820	-69.351	34.827	-69.670	-8191	255	
2005.386	1	1	0	0	0.18004	0.13946	0.13293	0.40884	0.13398	0.23081	0.20384	0.22801	0.14031	0.068949	0.20986	0.18033	0.053318	0.24441	0.18404	0.095738	-2.5479	-3.3167	-3.1208	-3.0792	-3.2958	-2.8771	-3.4	-3.3854	-2.8063	-3.3146	-3.0396	-2.9188	-3.2479	-2.9583	-3.2979	-3.2896	123.819	74.154	-36.525	202.830	-14.796	251.311	144.872	-51.130	-64.418	-60.493	188.305	24.530	-79.421	234.816	-36.752	160.955	0.00010064	0.00039756	0.00010669	1119.5	1.088e-06	3.2673e-06	1179.9	235.9	1.3464e-06	3.1645e-06	299.57	77.479	66.654	18.915	1.9292e-06	27.049	0.00012068	6.6428e-05	1.7215e-05	1092.7	1.0694e-06	8.0139e-07	1153.6	232.19	1.0657e-06	6.677e-07	294.88	82.545	65.666	18.795	7.387e-07	27.009	203.652	8.371	10.022	-89.741	40.914	42.485	-89.584	-82.844	54.508	73.702	-82.831	-77.540	-75.680	-69.448	49.561	-69.393	-8191	255	
2005.507	1	1	0	0	0.18539	0.07131	0.21075	0.12414	0.13932	0.16043	0.30975	0.041251	0.20735	0.046283	0.018549	0.14147	0.1687	0.059898	0.30907	0.23727	-2.3792	-3.3312	-3.0542	-2.9875	-3.2667	-3.0271	-3.1708	-3.225	-2.875	-3.1708	-3.35	-2.9562	-3.3417	-2.9313	-3.2271	-3.3896	134.886	-51.275	258.982	128.577	-74.774	122.625	190.322	254.598	243.980	24.002	187.896	-44.972	-31.145	234.654	200.946	144.427	0.00010041	0.00038571	0.00010097	1126	1.1797e-06	2.7167e-06	1182.8	237.08	1.4188e-06	2.4251e-06	299.18	77.39	66.249	18.926	1.6404e-06	27.107	0.00012093	7.1428e-05	1.8941e-05	1092.6	1.0842e-06	6.8811e-07	1155.5	232.56	1.1452e-06	6.7037e-07	295.35	82.498	65.651	18.92	8.7049e-07	27.083	193.269	3.213	-0.527	-89.839	61.330	53.264	-89.764	-82.752	15.479	63.648	-82.783	-78.159	-75.885	-68.820	73.832	-69.426	-8191	255	
2005.603	1	1	0	0	0.11336	0.22058	0.26235	0.17426	0.062933	0.13382	0.27293	0.13547	0.17373	0.11905	0.037201	0.12717	0.11952	0.13074	0.092299	0.018881	-2.4104	-3.1562	-3.125	-3.1229	-3.3708	-2.9708	-3.1646	-3.4354	-2.8604	-3.4042	-3.0125	-2.8167	-3.2646	-3.075	-3.1104	-3.3458	46.298	113.205	66.524	202.258	171.594	120.786	153.895	8.295	54.825	51.290	-20.508	163.207	206.832	32.942	123.908	-76.652	9.63e-05	0.00048545	8.5237e-05	1119.5	1.9963e-06	2.3075e-06	1177.2	236.36	9.4458e-07	2.5785e-06	298.87	78.906	66.477	18.922	2.3108e-06	26.97	0.0001197	6.9801e-05	1.6725e-05	1093.2	1.1019e-06	7.5679e-07	1153.5	232.82	1.0552e-06	6.2627e-07	295.27	83.212	65.595	18.821	8.1509e-07	27.033	191.964	-17.135	6.030	-89.874	67.991	50.713	-89.768	-83.097	11.368	57.001	-82.956	-77.485	-76.123	-69.426	49.382	-69.407	-8191	255	
2005.699	1	1	0	0	0.22222	0.20564	0.10088	0.29148	0.21969	0.26936	0.12802	0.11552	0.076637	0.33242	0.23566	0.24	0.14584	0.18263	0.22738	0.11278	-2.4417	-3.0896	-3.0729	-2.9792	-3.1292	-3.0167	-2.8042	-3.3333	-3.0312	-3.1771	-3.3896	-2.9125	-3.0938	-3.05	-2.9417	-3.3625	114.021	221.800	-61.364	202.188	131.910	193.664	212.969	49.023	88.355	105.553	-74.628	196.337	146.929	-78.638	179.488	75.027	9.3994e-05	0.00027394	9.0184e-05	1121.5	1.2688e-06	2.4537e-06	1177.7	235.45	1.3437e-06	2.3677e-06	297.76	79.032	65.976	18.904	1.9181e-06	26.916	0.00011807	6.2023e-05	2.0055e-05	1093.4	1.1383e-06	7.559e-07	1153.6	232.35	1.0608e-06	6.8774e-07	294.73	82.811	65.566	18.872	8.642e-07	27.051	200.794	-4.481	-9.448	-89.908	39.410	70.285	-89.754	-83.058	3.897	48.491	-83.509	-78.765	-75.969	-69.860	37.255	-69.761	-8191	255	
2005.795	1	1	0	0	0.21811	0.3417	0.38029	0.059286	0.10053	0.15868	0.036964	0.03547	0.16653	0.09435	0.40438	0.080493	0.14333	0.41084	0.0728	0.10825	-2.5104	-2.9479	-3.2812	-2.9417	-3.2604	-3.2604	-3.0458	-3.3354	-3.05	-2.9208	-3.3542	-2.6208	-3.3021	-3.2271	-2.9292	-3.3771	175.104	-86.199	115.376	-32.295	1.830	129.328	182.105	232.352	252.360	193.982	161.113	82.057	156.649	254.338	-89.524	-26.482	9.3576e-05	0.00032659	7.6749e-05	1120.9	1.1175e-06	3.7731e-06	1176.3	235.99	7.0994e-07	2.1569e-06	300.31	78.837	66.166	18.805	2.2554e-06	26.924	0.0001151	7.2578e-05	1.8552e-05	1092.7	1.0057e-06	6.0026e-07	1153.2	232.35	9.6919e-07	7.1981e-07	295.57	82.416	65.501	18.831	8.9567e-07	26.998	197.102	-30.317	19.444	-89.792	31.363	27.000	-89.857	-82.815	-24.851	26.682	-82.620	-77.020	-76.517	-69.256	32.715	-69.550	-8191	255	
2005.891	1	1	0	0	0.046408	0.11729	0.19354	0.18129	0.19373	0.14123	0.17736	0.14152	0.087121	0.080675	0.10742	0.08393	0.08896	0.051212	0.094374	0.16571	-2.5521	-2.9813	-3.3	-2.8812	-3.0563	-3.3271	-3.0771	-3.3104	-3	-2.9604	-3.3937	-2.7792	-3.1667	-3.1688	-2.9604	-3.1229	111.010	143.139	-99.899	164.974	241.935	194.765	223.527	165.511	10.539	-2.803	-42.763	-42.903	193.190	30.043	195.131	-90.070	8.9303e-05	0.00032678	7.1909e-05	1119.2	1.8408e-06	3.5596e-06	1181.3	235.04	8.8184e-07	4.169e-06	299.42	78.089	66.322	18.863	1.0746e-06	26.912	0.00011819	6.8571e-05	1.7962e-05	1092.1	1.1544e-06	6.3638e-07	1153.4	232	9.7365e-07	7.5322e-07	295.08	82.291	65.643	18.821	8.7637e-07	27.022	196.701	-18.110	-3.366	-89.701	34.775	31.966	-89.972	-82.917	12.865	51.291	-82.960	-77.761	-76.456	-69.091	57.116	-69.439	-8191	255	
2005.988	1	1	0	0	0.17945	0.28617	0.16678	0.32292	0.01677	0.15547	0.22177	0.13503	0.1192	0.10043	0.12299	0.034795	0.15915	0.1977	0.1277	0.033906	-2.8542	-3.0417	-3.2396	-2.8729	-2.9208	-3.5042	-2.8458	-3.2625	-3.1521	-2.8083	-3.4396	-3.0271	-3.0375	-3.3542	-2.7021	-3.2854	-45.889	73.492	-58.664	239.148	164.788	190.072	221.978	138.042	83.310	-24.307	-64.476	-73.005	222.481	84.363	-84.984	103.759	9.8971e-05	0.00022541	7.3917e-05	1122.3	7.6228e-07	2.723e-06	1175.8	236.84	1.7786e-06	4.1357e-06	298.09	79.117	66.455	18.869	2.8028e-06	27.007	0.0001161	6.3769e-05	1.7093e-05	1092.4	1.0269e-06	7.0863e-07	1152.1	232.46	1.0239e-06	7.8217e-07	294.44	82.528	65.554	18.825	9.6619e-07	26.969	195.042	-7.187	-9.975	-89.853	19.471	50.940	-89.912	-82.909	-1.495	52.080	-82.907	-77.773	-76.405	-69.604	71.027	-69.166	-8191	255	
2006.106	1	1	0	0	0.1469	0.11539	0.20112	0.097715	0.11445	0.10508	0.28524	0.11314	0.094151	0.29716	0.18896	0.047957	0.11141	0.061382	0.074298	0.13742	-2.7354	-2.7375	-3.1604	-3.3167	-2.9104	-3.2438	-3.0625	-3.2042	-3.2438	-2.7375	-3.3375	-2.8417	-3.0417	-3.2958	-2.7271	-3.3375	-25.537	56.261	33.386	222.511	218.869	205.880	-81.141	183.907	82.059	48.510	-33.938	245.509	-37.205	-22.536	164.832	239.494	9.8794e-05	0.00031697	8.6183e-05	1121	1.5803e-06	3.0801e-06	1175.4	236.26	1.2484e-06	4.72e-06	299.01	78.208	66.62	18.952	2.1187e-06	26.908	0.00011503	7.6507e-05	1.8518e-05	1089.9	1.1431e-06	6.3772e-07	1150.5	232.11	9.6594e-07	8.4987e-07	294.98	82.626	65.66	18.868	9.2128e-07	26.977	199.387	-17.589	-25.072	-89.669	69.644	54.734	-89.916	-82.981	48.420	46.799	-82.916	-77.635	-76.214	-69.263	28.145	-69.639	-8191	255	
2006.203	1	1	0	0	0.10574	0.15068	0.17816	0.17679	0.34552	0.11987	0.14525	0.10561	0.072303	0.1759	0.10077	0.10452	0.25488	0.057396	0.14359	0.12403	-2.8458	-2.6583	-3.1958	-3.1604	-2.7	-3.4333	-3.1	-3.2958	-3.3771	-2.675	-3.1625	-3.0583	-2.8917	-3.4417	-2.8333	-3.1042	159.619	-66.110	-35.398	187.564	215.429	196.471	192.926	253.453	134.480	10.982	-19.623	14.712	226.247	153.777	-38.085	235.330	9.0239e-05	0.00027945	7.6027e-05	1125.1	3.0106e-07	2.9184e-06	1172.3	234.97	1.8167e-06	3.0578e-06	301.3	78.694	66.31	18.863	2.0415e-06	26.912	0.00011159	8.0118e-05	1.8418e-05	1092.9	1.1339e-06	6.1007e-07	1150.9	232	9.6229e-07	7.2738e-07	295.52	82.253	65.71	18.848	8.2726e-07	27.016	200.001	-11.438	1.362	-89.858	131.167	58.343	-89.814	-82.734	34.691	54.166	-83.160	-77.909	-76.032	-69.373	72.794	-69.390	-8191	255	
2006.299	1	1	0	0	0.085603	0.2381	0.082105	0.2092	0.027771	0.15846	0.32408	0.17044	0.12566	0.1763	0.11929	0.073342	0.18033	0.21139	0.14748	0.26338	-3.0229	-2.8667	-3.0833	-3.2417	-2.8708	-3.2979	-3.0292	-3.0521	-3.1583	-2.8542	-3.2354	-3.2167	-2.7687	-3.3292	-2.9208	-2.8917	-95.639	65.767	136.307	191.514	64.426	-47.578	208.736	173.604	-24.873	187.248	90.930	155.462	-64.200	-96.743	-34.871	226.203	9.839e-05	0.00024683	7.3598e-05	1119	7.2613e-07	3.0249e-06	1173.3	234.65	1.6857e-06	3.296e-06	298.97	78.205	66.012	18.899	2.3712e-06	27.063	0.00011386	7.7221e-05	1.795e-05	1090	1.1556e-06	6.618e-07	1151.3	232.01	9.7203e-07	7.4609e-07	294.65	82.172	65.568	18.863	7.5591e-07	27.065	200.928	5.728	-1.152	-89.670	35.001	39.209	-89.816	-83.018	17.109	69.978	-83.089	-78.344	-76.013	-69.493	58.326	-69.664	-8191	255	
2006.419	1	1	0	0	0.11791	0.13403	0.1924	0.36201	0.2084	0.030839	0.037137	0.20724	0.28587	0.092163	0.18533	0.17779	0.24121	0.24332	0.051666	0.16809	-2.7854	-2.775	-3.1271	-3.5271	-2.7625	-3.3458	-3	-3.1375	-3.2292	-2.8083	-3.1	-3.1958	-2.9333	-3.1479	-2.9292	-2.9229	71.029	247.692	-35.646	226.318	69.822	15.229	19.730	117.739	120.150	66.003	117.802	103.488	-75.402	254.068	182.399	228.132	9.3784e-05	0.00029334	8.6199e-05	1120.5	1.4905e-06	4.2936e-06	1176.5	236.08	8.68e-07	3.7032e-06	301.01	79.035	66.67	18.836	2.1124e-06	27.059	0.00011307	7.3729e-05	1.9031e-05	1090.6	1.192e-06	8.1387e-07	1152.2	232.36	8.5524e-07	7.9731e-07	295.5	82.569	65.758	18.795	8.5958e-07	27.074	192.494	-7.465	-11.998	-90.088	37.934	67.269	-89.631	-83.082	-30.864	32.524	-83.163	-77.811	-75.560	-69.130	39.177	-69.501	-8191	255	
2006.491	1	1	0	0	0.19347	0.19096	0.050906	0.21707	0.10004	0.11433	0.17144	0.069761	0.081815	0.28752	0.1868	0.21555	0.065919	0.069758	0.13308	0.18736	-2.8979	-2.7417	-2.85	-3.3458	-2.6021	-3.2708	-3.175	-2.8604	-3.2729	-2.9562	-3.1917	-3.2708	-2.8	-3.35	-3.2188	-2.9125	219.307	-68.741	-32.952	180.559	101.233	231.101	151.169	140.859	43.132	253.460	141.990	198.500	76.534	-1.488	100.049	106.355	9.0667e-05	0.00034935	7.5796e-05	1125	2.0917e-06	3.6123e-06	1173.5	235.61	1.8888e-06	3.0444e-06	298.85	78.379	66.046	18.82	2.2661e-06	26.989	0.00011775	6.1825e-05	1.863e-05	1092.7	1.2213e-06	6.1007e-07	1151.8	232.34	1.0292e-06	7.9954e-07	294.75	82.37	65.46	18.822	8.0753e-07	27.031	197.487	-20.313	-24.795	-89.859	38.903	61.408	-89.623	-82.894	55.750	46.990	-82.685	-78.277	-76.575	-69.229	39.194	-69.594	-8191	255	
2006.587	1	1	0	0	0.054897	0.12776	0.041057	0.12312	0.17908	0.056583	0.076548	0.14504	0.1845	0.12514	0.35859	0.23801	0.15519	0.23989	0.067832	0.31197	-2.8146	-2.9292	-3.0146	-3.4875	-2.9062	-3.1312	-3.4333	-2.8375	-3.1729	-3.0458	-3.0062	-3.3417	-2.8667	-3.2417	-3.1979	-2.8833	22.721	255.179	59.060	207.892	179.337	-19.664	136.745	180.521	-25.517	190.555	196.499	61.899	220.798	-11.705	-12.126	6.756	9.3559e-05	0.00038959	8.7981e-05	1124.8	8.1529e-07	4.3727e-06	1176	236.08	1.7106e-06	2.9387e-06	298.41	79.483	66.981	18.942	2.3349e-06	27.217	0.00010742	6.9404e-05	1.8284e-05	1092.9	1.1624e-06	6.2925e-07	1153	232.51	8.9741e-07	7.0155e-07	295.09	82.402	65.701	18.857	8.1089e-07	27.118	190.293	-7.763	-0.825	-90.152	35.323	37.767	-89.685	-83.113	5.219	54.969	-83.063	-77.377	-76.123	-69.751	46.194	-69.579	-8191	255	
2006.683	1	1	0	0	0.16567	0.17604	0.26256	0.34933	0.10819	0.14368	0.17532	0.43758	0.012057	0.099957	0.2615	0.29612	0.17666	0.12749	0.10706	0.15725	-2.9375	-3.1458	-3	-3.4604	-2.8312	-3	-3.3688	-3.0604	-3.2687	-3.0625	-2.9542	-3.2583	-2.8438	-3.1292	-3.2896	-2.7583	-75.109	122.560	39.043	246.524	-69.842	195.751	169.215	243.327	162.568	71.215	-83.806	72.368	61.365	144.076	-30.828	-72.401	0.00010008	0.00031157	8.0572e-05	1120.7	1.6297e-06	2.8307e-06	1173.7	237.24	2.2957e-06	2.1407e-06	299.35	78.162	66.323	18.939	2.0853e-06	27.061	0.00011661	6.5158e-05	1.9342e-05	1091.1	1.1455e-06	5.9714e-07	1153.9	232.72	9.6757e-07	7.5945e-07	293.97	82.43	65.597	18.849	8.1383e-07	27.102	191.709	-17.174	-0.754	-89.677	42.183	55.425	-89.673	-83.034	25.755	31.866	-83.035	-78.826	-76.132	-69.621	76.922	-69.348	-8191	255	
2006.802	1	1	0	0	0.13731	0.21648	0.17361	0.26845	0.1346	0.19509	0.13252	0.080716	0.20083	0.094024	0.21389	0.055781	0.14496	0.1409	0.020939	0.17117	-2.8479	-3.1354	-2.7562	-3.6104	-2.9521	-3.0917	-3.3875	-2.9458	-3.3104	-3.1562	-2.9917	-3.3792	-3.125	-2.9958	-3.225	-2.9875	124.419	202.025	182.333	179.976	170.217	257.336	189.386	81.756	227.607	-49.318	-45.359	-48.283	117.043	198.944	150.054	192.165	9.3332e-05	0.00033578	5.3964e-05	1121.4	2.0073e-06	2.8558e-06	1176.3	235.29	1.4446e-06	2.5313e-06	301.67	77.666	66.55	18.864	1.621e-06	27.101	0.00011644	6.6586e-05	2.0166e-05	1090.7	1.1463e-06	5.521e-07	1152.5	232.13	9.992e-07	7.3006e-07	295.33	82.055	65.707	18.88	8.0628e-07	27.113	194.150	-9.199	-6.438	-89.791	52.922	47.800	-89.752	-82.868	38.985	63.627	-83.310	-77.969	-76.857	-69.115	38.397	-69.594	-8191	255	
2006.898	1	1	0	0	0.12276	0.15518	0.056584	0.14019	0.14122	0.16111	0.086123	0.20728	0.11778	0.32054	0.026009	0.12729	0.15238	0.23603	0.2853	0.17376	-2.8021	-2.9958	-2.7458	-3.4396	-2.9729	-2.9062	-3.4229	-3.1813	-3.2396	-3.3583	-2.875	-3.3604	-3.1542	-2.9417	-3.3875	-2.9771	67.470	-76.100	70.372	161.840	-27.278	155.844	106.850	-29.553	153.738	-30.237	177.866	-32.343	142.534	201.885	-77.489	163.331	0.00010383	0.00024399	3.142e-05	1122.6	9.8393e-07	3.4751e-06	1175.1	235.99	1.0792e-06	2.1261e-06	300.53	78.865	66.362	18.904	1.8283e-06	26.939	0.00011533	6.7261e-05	1.7761e-05	1090.7	1.1131e-06	6.9614e-07	1153	232.5	9.7527e-07	5.3095e-07	294.99	82.414	65.719	18.877	7.387e-07	27.077	197.795	-14.323	-9.149	-89.816	101.062	81.119	-89.640	-83.046	-3.495	50.801	-82.852	-78.082	-76.257	-69.026	50.052	-70.103	-8191	255	
2006.995	1	1	0	0	0.056721	0.15423	0.26098	0.15034	0.090911	0.23799	0.1071	0.25897	0.082634	0.050588	0.25501	0.16875	0.035133	0.10823	0.10962	0.037322	-2.6375	-3.2208	-2.825	-3.4667	-2.975	-2.9333	-3.4688	-2.9833	-3.0604	-3.3167	-2.9354	-3.2771	-3.0896	-2.9542	-3.2583	-3.1979	252.552	144.166	-72.156	148.448	60.637	61.957	185.955	-93.995	-41.573	84.200	187.041	18.851	-80.194	-27.854	-33.342	34.343	9.3848e-05	0.00028839	8.2786e-05	1117.6	1.7247e-06	2.894e-06	1172.7	236.43	1.2387e-06	3.4686e-06	300.52	77.651	66.498	18.858	1.8062e-06	27.148	0.0001217	7.1507e-05	1.8875e-05	1090.2	1.1784e-06	7.3539e-07	1150.5	232.39	1.0381e-06	7.2426e-07	295.18	82.299	65.634	18.86	7.8655e-07	27.099	201.523	-1.676	-6.660	-90.033	69.325	57.996	-89.678	-83.199	28.905	61.885	-83.015	-79.187	-76.237	-69.615	33.416	-69.286	-8191	255	
2007.068	1	1	0	0	0.14642	0.038773	0.18721	0.42195	0.04366	0.16666	0.070781	0.084871	0.13317	0.048226	0.16017	0.13756	0.14757	0.17524	0.10875	0.061144	-2.5458	-3.2792	-2.6937	-3.3312	-3.0458	-3.0271	-3.3625	-3.0646	-3.1354	-3.3396	-3.0521	-3.2729	-3.1542	-2.8104	-3.3729	-3.1417	69.839	174.734	140.749	-88.803	78.796	195.689	238.292	31.475	158.020	-33.484	-67.454	14.424	-72.382	171.029	14.724	138.945	9.2102e-05	0.00037567	7.9828e-05	1124.6	1.1457e-06	2.8582e-06	1174.4	236.06	2.313e-06	3.023e-06	301.81	78.457	66.202	18.988	1.3351e-06	27.069	0.00011561	6.2896e-05	1.7783e-05	1093.6	1.0862e-06	8.0317e-07	1151.4	232.32	1.0118e-06	5.8529e-07	295.41	82.173	65.472	18.901	6.9463e-07	27.145	197.777	-17.668	-9.538	-89.895	47.352	64.676	-89.662	-82.519	-6.602	72.069	-82.971	-78.135	-76.506	-69.660	48.480	-69.599	-8191	255	
2007.187	1	1	0	0	0.12566	0.097295	0.044695	0.31016	0.13941	0.09501	0.043575	0.039405	0.17968	0.10726	0.14612	0.22091	0.021623	0.20177	0.21374	0.2148	-2.4917	-3.1917	-2.9333	-3.2458	-3	-2.8208	-3.3708	-3.1771	-2.8438	-3.2083	-2.9938	-3.1521	-3.1667	-2.8792	-3.1271	-2.9958	-38.849	107.019	225.751	194.505	258.184	49.109	208.616	-70.259	29.485	45.241	93.191	253.835	131.317	230.233	-39.077	99.432	9.9853e-05	0.00026978	8.2457e-05	1124	1.9521e-06	2.8697e-06	1176.5	236	9.6157e-07	3.6912e-06	300.5	79.073	66.334	18.91	1.6968e-06	26.994	0.00011651	6.0555e-05	2.2572e-05	1092.1	1.0674e-06	7.4431e-07	1153.1	232.81	1.0166e-06	6.6903e-07	295.18	82.592	65.697	18.871	8.4993e-07	27.096	193.916	-9.785	-17.305	-89.838	35.001	46.135	-89.724	-83.021	54.677	83.907	-83.045	-77.653	-75.928	-69.310	44.562	-69.023	-8191	255	
2007.283	1	1	0	0	0.22951	0.10207	0.11466	0.34786	0.17231	0.33621	0.23971	0.31178	0.13697	0.3383	0.13293	0.34903	0.27489	0.31354	0.10771	0.064926	-2.5792	-3.175	-2.8937	-3.1396	-3.1896	-2.8146	-3.3021	-3.2021	-2.7562	-3.2396	-2.9979	-2.9417	-3.2542	-2.8479	-3.1646	-3.0125	68.095	107.203	-10.625	189.594	194.886	69.828	210.301	234.593	229.607	59.393	208.171	-19.506	4.781	62.062	24.429	-1.955	9.3876e-05	0.0003033	8.5424e-05	1121.2	1.3668e-06	3.4849e-06	1172.9	236.34	1.7109e-06	2.9872e-06	299.05	78.248	66.239	18.929	2.3097e-06	27.045	0.00011558	6.9086e-05	2.0445e-05	1092.9	1.1003e-06	6.8901e-07	1152.4	232.46	1.0872e-06	7.1625e-07	295.22	82.729	65.645	18.859	7.983e-07	27.042	196.912	-31.155	-3.053	-89.882	55.643	56.605	-89.929	-82.988	-10.830	67.636	-83.209	-78.225	-75.997	-69.658	34.346	-69.474	-8191	255	
2007.379	1	1	0	0	0.097684	0.11937	0.20492	0.271	0.26189	0.15416	0.20787	0.045464	0.10131	0.13527	0.2544	0.10269	0.044763	0.042304	0.26687	0.19067	-2.4833	-3.2313	-3	-2.9604	-3.2896	-2.8063	-3.3458	-3.1333	-2.9417	-3.1771	-3.2104	-2.8312	-3.3604	-2.9271	-2.9813	-3.2438	-85.187	177.681	-55.144	224.504	-93.623	136.380	-95.405	-98.286	243.336	220.959	-77.984	208.358	-47.681	105.459	232.489	154.793	0.00010333	0.00024292	6.5875e-05	1120.7	1.3011e-06	3.2869e-06	1178.2	237.49	1.3146e-06	3.8033e-06	300.84	78.355	66.718	19.048	1.5538e-06	27.164	0.0001197	6.8253e-05	1.9008e-05	1091.5	1.1491e-06	7.501e-07	1152.9	232.77	1.0418e-06	6.5968e-07	295.73	82.43	65.661	18.901	8.0124e-07	27.127	198.354	1.176	8.779	-89.869	39.468	51.193	-89.825	-83.297	7.107	73.393	-83.154	-78.210	-76.642	-69.539	26.483	-69.907	-8191	255	
2007.500	1	1	0	0	0.21138	0.10304	0.12745	0.17928	0.14577	0.15267	0.27096	0.21613	0.052269	0.18559	0.063098	0.17866	0.13659	0.051662	0.06846	0.084982	-2.2792	-3.2229	-3.1063	-3.2021	-3.2854	-2.9896	-3.0812	-3.3833	-2.8667	-3.1042	-3.1521	-2.8667	-3.2729	-2.8792	-3.1063	-3.3125	156.393	230.846	-8.663	192.436	15.806	75.093	165.425	129.782	119.230	-92.270	124.148	-75.785	215.160	-1.938	-85.358	157.628	9.686e-05	0.00025092	9.3215e-05	1120.8	9.443e-07	2.5307e-06	1178.3	236.38	1.7126e-06	3.0074e-06	298.37	78.059	66.791	18.951	2.2848e-06	27.04	0.00011923	6.5753e-05	1.7438e-05	1091.6	1.0406e-06	6.7964e-07	1153.3	232.89	1.1334e-06	6.6413e-07	294.87	82.433	65.823	18.874	9.1372e-07	27.044	202.547	-14.293	-24.365	-89.527	47.407	58.009	-89.859	-83.070	26.899	64.055	-83.320	-78.140	-76.265	-69.099	54.108	-69.284	-8191	255	
2007.596	1	1	0	0	0.066814	0.30016	0.2302	0.36099	0.12164	0.304	0.082897	0.061	0.085943	0.21051	0.25751	0.10762	0.16845	0.13547	0.21763	0.25079	-2.2979	-3.0667	-3.0271	-2.9646	-3.4208	-3.0375	-3.3104	-3.1729	-3.0625	-3.1792	-3.3021	-2.8333	-3.2896	-2.9917	-2.9938	-3.2646	-70.912	-23.716	-27.549	194.843	173.026	157.801	102.621	117.152	165.018	-77.821	226.925	248.331	91.839	-75.420	27.013	160.287	9.2942e-05	0.00028756	0.00010047	1121.5	1.4366e-06	2.4539e-06	1178.1	236.44	8.6883e-07	2.882e-06	299.57	79.116	66.671	18.832	1.4656e-06	26.968	0.00012254	6.8134e-05	1.9855e-05	1092	1.0906e-06	7.3093e-07	1154.2	232.71	9.9717e-07	7.4208e-07	295.43	82.584	65.901	18.851	8.5035e-07	27.058	194.978	14.726	0.745	-89.742	9.741	47.588	-89.912	-82.836	13.357	48.523	-83.068	-77.309	-76.577	-69.299	60.734	-69.429	-8191	255	
2007.692	1	1	0	0	0.085741	0.033206	0.18968	0.25192	0.15235	0.27425	0.10614	0.27653	0.095204	0.24542	0.17269	0.12827	0.19775	0.18833	0.17147	0.26209	-2.5208	-3.075	-3.1375	-3.0604	-3.225	-3.1146	-3.1479	-3.3708	-2.8563	-3.3104	-3.2562	-2.9146	-3.2521	-3.1229	-2.875	-3.3458	254.363	67.548	50.041	202.628	95.000	-24.713	126.664	-57.238	108.034	11.426	209.395	202.990	-90.049	-55.159	174.445	67.047	0.00011082	0.00029711	6.5362e-05	1121.4	6.5161e-07	3.2963e-06	1173.2	235.98	9.3354e-07	2.0706e-06	300.44	77.553	66.215	18.903	2.2758e-06	27.14	0.0001203	7.2975e-05	1.8619e-05	1093	1.0898e-06	7.1353e-07	1152.3	232.9	1.0227e-06	7.305e-07	295	82.023	65.648	18.877	9.5527e-07	27.074	202.290	-24.698	1.899	-89.911	50.945	41.901	-89.695	-82.886	-30.604	53.757	-82.838	-77.334	-76.142	-69.284	61.309	-69.722	-8191	255	
2007.788	1	1	0	0	0.22533	0.1495	0.13971	0.19229	0.38793	0.075993	0.13727	0.20248	0.20545	0.22146	0.14793	0.20023	0.13917	0.31852	0.12888	0.11224	-2.3063	-2.9854	-3.3396	-2.8125	-3.3083	-3.1833	-3.175	-3.2479	-2.9188	-2.9458	-3.3	-2.6667	-3.2542	-3.175	-2.8187	-3.4792	117.408	-30.635	-72.711	245.503	-28.357	137.336	191.992	185.275	52.202	172.276	52.946	203.920	166.147	8.496	148.565	139.829	9.8178e-05	0.00026749	8.0543e-05	1123.8	6.9874e-07	2.8785e-06	1177.1	236.54	1.2973e-06	2.8537e-06	299.98	78.032	66.816	18.929	1.8523e-06	27.074	0.00011721	7.9126e-05	1.9008e-05	1092.8	1.1031e-06	7.3628e-07	1153.2	232.43	1.1472e-06	8.2493e-07	295.08	82.344	65.95	18.863	8.5328e-07	27.114	200.908	-36.964	16.819	-89.895	46.349	67.011	-89.650	-82.838	57.674	64.427	-82.767	-77.562	-76.711	-69.458	56.566	-69.969	-8191	255	
2007.884	1	1	0	0	0.17982	0.080774	0.070442	0.1169	0.24882	0.16622	0.21618	0.22486	0.2059	0.094373	0.24819	0.16816	0.1256	0.092277	0.14049	0.069138	-2.5917	-3.0479	-3.1396	-3.0333	-3.1833	-3.0229	-2.9917	-3.3271	-2.9021	-3.1063	-3.3063	-2.8417	-3.1688	-3.0938	-2.9792	-3.2833	-92.206	-32.188	227.524	168.802	112.087	45.257	136.242	77.476	-21.690	-63.910	190.225	-65.559	-80.796	165.330	24.285	241.259	9.7984e-05	0.00030802	8.6456e-05	1123.4	6.6246e-07	3.4565e-06	1175.3	235.23	6.3854e-07	2.9579e-06	299.45	78.019	66.606	18.852	2.2057e-06	26.94	0.0001197	6.9285e-05	1.8875e-05	1093.8	1.0726e-06	7.3539e-07	1153.4	232.51	1.0888e-06	7.9152e-07	295.21	82.618	65.667	18.842	9.1036e-07	27.178	192.856	-12.291	-4.915	-89.836	14.340	50.885	-89.884	-82.976	67.911	43.008	-83.052	-78.585	-76.756	-69.802	62.652	-69.670	-8191	255	
2007.979	1	1	0	0	0.13473	0.057909	0.12861	0.07098	0.20491	0.07583	0.27126	0.24552	0.10102	0.27069	0.10038	0.19546	0.053338	0.28367	0.18925	0.22996	-2.65	-2.8979	-3.3333	-2.8208	-3.0333	-3.2458	-2.7687	-3.4	-3.0062	-2.7104	-3.3542	-3.0667	-3.1875	-3.2125	-2.8187	-3.2521	13.002	-45.754	193.597	203.478	120.161	126.848	157.365	176.503	173.520	179.674	150.876	87.896	79.720	105.624	68.910	192.014	9.7604e-05	0.00038429	6.7896e-05	1126	1.1949e-06	3.238e-06	1174.7	235.41	4.5155e-07	3.1212e-06	300.03	77.48	66.714	18.77	1.8252e-06	27.141	0.00011561	7.7539e-05	1.5812e-05	1094.7	1.1696e-06	7.4341e-07	1153.4	232.74	9.335e-07	7.6703e-07	295.28	82.337	65.759	18.849	8.9316e-07	27.122	196.312	3.408	0.804	-89.850	67.957	36.882	-89.675	-82.956	32.143	64.642	-83.019	-77.637	-76.282	-69.116	47.134	-69.593	-8191	255	
2008.099	1	1	0	0	0.038914	0.10372	0.23526	0.039249	0.37961	0.19968	0.27525	0.29416	0.1813	0.069529	0.32706	0.18306	0.21413	0.32423	0.25994	0.10095	-2.6896	-2.8875	-3.4917	-3.0917	-2.9813	-3.2875	-3.0229	-3.25	-3.1875	-2.8271	-3.4542	-3.1333	-2.925	-3.5375	-2.8396	-3.475	84.631	7.261	111.691	225.162	81.385	-32.492	69.959	196.742	134.201	-68.683	-94.071	252.933	233.771	178.890	100.307	-78.264	9.25e-05	0.0002545	6.3438e-05	1122.5	1.4095e-06	3.5862e-06	1175.9	235.03	1.0108e-06	4.4805e-06	301.15	78.019	67.299	18.862	1.6072e-06	26.964	0.00011758	7.0277e-05	1.5534e-05	1092.3	1.1227e-06	6.9168e-07	1152.4	232.43	9.8014e-07	8.0711e-07	295.27	82.178	65.879	18.87	8.621e-07	27.022	203.854	-11.713	-6.930	-89.954	48.571	59.428	-89.793	-83.292	22.404	76.288	-82.920	-77.699	-76.232	-69.094	53.941	-69.402	-8191	255	
2008.196	1	1	0	0	0.11574	0.15456	0.26857	0.27812	0.16238	0.090282	0.21212	0.22914	0.13454	0.27448	0.058144	0.19896	0.18273	0.18227	0.089973	0.15239	-2.7958	-2.8333	-3.1146	-3.1125	-2.9458	-3.3104	-2.8979	-3.0917	-3.3208	-2.8792	-3.2771	-3.0687	-3.1167	-3.2562	-3.0917	-3.0875	31.376	113.002	-65.591	218.777	-88.019	175.540	161.727	-96.946	-93.017	120.971	166.062	95.829	-17.126	1.011	131.584	209.093	9.8611e-05	0.00026467	9.978e-05	1123.5	1.7081e-06	3.1475e-06	1173.5	236.6	1.2379e-06	3.1784e-06	300	78.18	66.498	18.952	2.0075e-06	26.9	0.00011496	7.0594e-05	1.6013e-05	1092.2	1.1948e-06	5.4541e-07	1150.3	232.63	9.481e-07	7.7415e-07	295.18	82.513	65.505	18.878	8.1677e-07	27.037	196.154	-15.610	8.214	-89.902	34.845	66.513	-89.785	-82.819	43.868	57.834	-83.034	-77.506	-76.285	-69.457	78.238	-69.769	-8191	255	
2008.292	1	1	0	0	0.28408	0.14003	0.2177	0.27825	0.21548	0.30434	0.26543	0.39027	0.2678	0.22766	0.082838	0.2611	0.076221	0.20311	0.26853	0.07364	-2.8187	-2.8208	-2.9792	-3.0938	-2.825	-3.4375	-3.0354	-3.0292	-3.1042	-2.7875	-3.2292	-3.1646	-2.7646	-3.2521	-2.9375	-2.9333	177.542	31.843	258.093	131.294	242.885	-16.424	142.685	238.446	62.162	124.373	185.619	-28.606	222.571	-68.862	57.572	-96.320	9.9382e-05	0.000422	0.0001097	1120.8	1.3063e-06	3.3636e-06	1180.9	235.13	1.7221e-06	2.8618e-06	299.24	78.468	67.085	18.943	1.9501e-06	27.108	0.00011528	7.4523e-05	1.8284e-05	1091.8	1.1668e-06	6.5511e-07	1154.7	232.14	1.0106e-06	7.8128e-07	295.18	82.13	65.884	18.878	8.4447e-07	27.126	195.781	-9.286	-4.035	-89.922	46.535	44.114	-89.823	-82.821	1.642	54.393	-82.982	-78.012	-76.609	-69.451	42.358	-69.398	-8191	255	
2008.363	1	1	0	0	0.070578	0.13436	0.10085	0.10688	0.065125	0.072594	0.16203	0.1294	0.18342	0.24393	0.0062019	0.13608	0.10098	0.13517	0.18312	0.31419	-2.9417	-2.8438	-3.1167	-3.1542	-3.0271	-3.3917	-3.0271	-3.0458	-3.2125	-2.7792	-3.1271	-3.2125	-2.8083	-3.4771	-2.9458	-2.9583	-22.445	-54.475	104.229	248.106	40.369	83.657	-83.748	-84.396	-26.232	121.053	8.739	149.381	-41.045	-64.001	133.241	-75.452	0.00010069	0.00024278	6.383e-05	1119.5	1.9353e-06	2.3333e-06	1174.7	236.59	1.4073e-06	2.293e-06	301.15	78.323	66.685	19.015	1.6158e-06	27.075	0.00011203	7.3491e-05	1.8039e-05	1093.4	1.2109e-06	6.6626e-07	1153	232.72	9.6473e-07	6.383e-07	295.99	82.37	65.779	18.898	8.0628e-07	27.066	196.637	3.975	-1.222	-89.941	48.124	9.149	-89.810	-82.947	27.224	70.055	-83.028	-78.177	-76.708	-69.386	41.967	-69.683	-8191	255	
2008.484	1	1	0	0	0.13509	0.10334	0.099414	0.10494	0.20687	0.35984	0.2813	0.15266	0.35187	0.24567	0.048138	0.16677	0.26746	0.11513	0.11396	0.17192	-2.975	-2.7625	-2.9708	-3.3458	-2.7292	-3.3063	-3.2625	-2.9729	-3.25	-2.9125	-3.15	-3.275	-2.9	-3.1167	-3.1896	-2.8646	99.474	119.460	255.519	43.379	150.422	147.937	215.379	-81.521	61.471	85.255	210.894	-64.518	-74.848	-82.724	118.142	200.759	0.00010491	0.0003655	4.7929e-05	1122.5	2.2734e-06	3.7982e-06	1170.9	236.57	1.7439e-06	2.5891e-06	300.32	79.279	66.028	18.951	1.2423e-06	26.858	0.00011798	7.2142e-05	1.618e-05	1092.8	1.2297e-06	7.501e-07	1151.3	232.51	1.0389e-06	7.8707e-07	295.43	82.439	65.764	18.877	8.0124e-07	27.017	199.528	9.324	-7.795	-89.834	55.753	42.986	-89.678	-83.095	7.328	62.731	-83.009	-78.694	-76.094	-68.995	41.634	-69.465	-8191	255	
2008.580	1	1	0	0	0.14347	0.15052	0.15657	0.16721	0.21318	0.10956	0.175	0.2381	0.21031	0.038624	0.20471	0.043135	0.090192	0.18517	0.085979	0.18342	-2.975	-2.9708	-3.0542	-3.2583	-2.8896	-3.175	-3.2792	-2.9479	-3.3021	-3.0125	-3.1875	-3.2271	-2.8958	-3.3104	-3.2062	-2.8354	-100.873	177.631	127.841	218.218	245.778	46.272	173.595	170.068	-97.253	-33.518	206.553	19.507	203.175	256.197	125.660	194.977	9.6322e-05	0.00033283	8.1779e-05	1122.2	1.1601e-06	3.0117e-06	1174.1	235.92	8.2866e-07	3.5648e-06	300.46	77.947	66.303	18.993	2.599e-06	27.122	0.00011177	7.6983e-05	1.7828e-05	1091.7	1.178e-06	7.7062e-07	1152.9	232.61	9.4161e-07	7.1803e-07	295.33	82.571	65.555	18.92	9.217e-07	27.124	198.664	-11.722	-18.004	-89.867	5.870	61.267	-89.922	-82.977	35.555	50.280	-82.948	-77.993	-76.122	-69.335	60.511	-69.518	-8191	255	
2008.676	1	1	0	0	0.047984	0.16219	0.12222	0.12223	0.10832	0.042322	0.27767	0.13079	0.041645	0.23368	0.22689	0.22948	0.23346	0.071698	0.081157	0.13277	-2.5896	-3.1271	-2.9083	-3.3333	-2.8604	-3.3417	-3.3896	-2.7854	-3.5396	-3.05	-3.0479	-3.3542	-2.9188	-3.1437	-3.4167	-2.8688	-17.225	52.540	-35.163	230.888	58.900	132.544	-83.426	171.288	102.150	28.505	228.556	71.017	257.569	235.966	225.242	157.813	9.3374e-05	0.00035454	9.24e-05	1119.3	5.1293e-07	3.1644e-06	1178.2	236.16	6.5557e-07	2.5728e-06	301.07	78.755	66.698	19.076	2.7858e-06	27.134	0.00011438	7.2102e-05	1.9565e-05	1091.7	1.1936e-06	6.9882e-07	1152.5	233.08	9.2985e-07	7.1714e-07	295.8	82.083	65.799	18.871	8.4699e-07	27.096	199.845	-10.106	1.972	-89.733	30.447	43.018	-89.719	-83.145	37.068	54.662	-83.054	-78.363	-75.782	-69.933	64.911	-69.638	-8191	255	
2008.772	1	1	0	0	0.1721	0.037945	0.33986	0.17577	0.42413	0.19894	0.033266	0.14426	0.10008	0.13868	0.097049	0.075717	0.18296	0.18383	0.073188	0.21832	-2.7354	-3.1979	-2.7542	-3.4833	-2.7917	-3.0708	-3.3333	-2.7625	-3.1729	-3.2375	-3.0521	-3.3354	-2.9521	-3.1729	-3.4271	-2.7979	-67.237	246.962	-13.919	211.766	27.042	5.365	24.438	227.728	-88.745	122.153	246.436	31.584	53.917	218.370	112.683	26.017	9.9338e-05	0.00023323	6.5561e-05	1118.2	1.1028e-06	2.9938e-06	1180.9	236.03	1.1369e-06	3.6665e-06	301.54	79.314	66.721	19.089	1.9238e-06	27.17	0.00011684	5.988e-05	2.0957e-05	1091.1	1.188e-06	7.0952e-07	1154.6	232.23	9.6229e-07	6.4008e-07	295.32	82.622	65.937	18.963	7.622e-07	27.145	191.938	2.191	6.314	-89.876	24.266	31.473	-89.783	-82.927	1.563	70.349	-82.898	-77.973	-76.094	-69.307	53.610	-69.784	-8191	255	
2008.869	1	1	0	0	0.24921	0.16326	0.28645	0.35059	0.12088	0.20201	0.21977	0.31649	0.34428	0.23715	0.27543	0.11976	0.020394	0.17425	0.18622	0.18404	-2.6896	-3.1562	-2.7521	-3.5125	-2.8875	-3.1396	-3.2604	-2.8146	-3.1729	-3.1979	-2.9604	-3.2604	-3.0354	-2.9479	-3.4292	-2.8979	-15.642	-80.807	-79.307	-100.376	-48.010	3.417	226.520	-74.649	-65.266	149.233	-86.950	216.280	-16.429	225.946	74.151	208.876	9.7866e-05	0.00049419	5.4535e-05	1122.4	8.6338e-07	3.0763e-06	1177.6	235.24	1.3438e-06	2.574e-06	299.94	78.96	66.883	18.938	2.0852e-06	26.98	0.00011598	6.7856e-05	1.9977e-05	1091.8	1.1524e-06	8.0496e-07	1153.2	232.34	9.85e-07	7.8039e-07	295.37	82.688	65.794	18.908	7.8697e-07	27.05	194.622	-11.148	-0.139	-89.822	50.236	33.665	-89.848	-82.969	31.966	68.368	-82.731	-77.589	-76.027	-69.353	46.621	-69.903	-8191	255	
2008.965	1	1	0	0	0.16299	0.17947	0.11636	0.17365	0.20742	0.15664	0.20928	0.26608	0.36396	0.22513	0.027877	0.051619	0.069503	0.19212	0.19703	0.1338	-2.6646	-3.0479	-2.8688	-3.2062	-2.9271	-2.8292	-3.3875	-3.0667	-3.1229	-3.0979	-2.9354	-3.1417	-3.1813	-2.7458	-3.3333	-2.9104	191.881	63.428	169.930	235.086	32.660	24.564	214.333	175.964	137.845	-54.378	184.591	142.352	69.601	193.120	-38.861	169.353	0.00010092	0.00020256	9.0556e-05	1121.5	7.9263e-07	3.8298e-06	1174.9	235.95	9.0202e-07	2.4193e-06	299.47	79.452	66.717	18.914	2.3113e-06	26.965	0.00011635	6.1944e-05	1.9632e-05	1092.5	1.1984e-06	7.9737e-07	1151.8	232.48	9.992e-07	6.5077e-07	294.91	82.72	65.678	18.908	8.2055e-07	27.062	196.754	-8.704	4.489	-89.776	71.260	51.682	-89.765	-82.797	8.917	90.986	-83.274	-78.018	-76.512	-69.580	57.124	-70.050	-8191	255	
2009.061	1	1	0	0	0.11275	0.044188	0.14332	0.18322	0.26428	0.24112	0.26134	0.031898	0.13571	0.066549	0.081377	0.30588	0.079737	0.11826	0.055146	0.16978	-2.6354	-3.0854	-2.8937	-3.3792	-3.0896	-2.9625	-3.2396	-3.1854	-3.1021	-3.3167	-3.0104	-3.1792	-3.1417	-2.9333	-3.3458	-3.1562	-17.874	-15.816	18.981	-34.517	163.058	-21.420	239.551	147.587	137.425	29.308	115.903	41.040	175.869	249.686	74.033	245.687	9.216e-05	0.00035545	9.872e-05	1122.3	1.8274e-06	2.324e-06	1175.6	237.11	1.5401e-06	3.9929e-06	301.08	81.009	67.36	18.905	1.9991e-06	27.005	0.00011947	5.8253e-05	2.2148e-05	1094.3	1.0866e-06	7.4341e-07	1154	232.82	9.8135e-07	6.9754e-07	295.78	82.945	65.87	18.922	7.9117e-07	27.11	202.429	3.562	-9.243	-89.930	43.117	32.704	-89.584	-82.841	4.528	59.505	-83.358	-77.790	-76.471	-69.646	46.338	-69.243	-8191	255	
2009.180	1	1	0	0	0.32661	0.2758	0.075625	0.09291	0.28336	0.079109	0.2238	0.04125	0.071321	0.21447	0.15114	0.29327	0.11768	0.06162	0.19766	0.1335	-2.525	-3.3771	-2.8542	-3.3625	-3.1	-2.9208	-3.5792	-2.9042	-2.8708	-3.3833	-2.9354	-3.1729	-3.1979	-2.8354	-3.1729	-3.1021	134.001	189.794	-99.631	100.518	112.186	-68.756	138.007	-90.499	-55.376	167.789	207.007	15.183	-21.035	18.963	239.456	151.000	9.8976e-05	0.00029832	0.00010199	1124.8	1.7148e-06	3.6954e-06	1174.7	235.9	4.7446e-07	3.2035e-06	300.31	78.744	66.742	18.957	2.9722e-06	26.959	0.0001147	6.115e-05	1.9944e-05	1094.6	1.1083e-06	7.3985e-07	1153.3	232.36	9.9636e-07	7.1936e-07	295.83	82.48	65.856	18.88	7.9536e-07	27.145	201.174	-1.583	-10.563	-89.932	55.844	47.498	-89.878	-83.067	-42.336	46.132	-82.902	-77.622	-76.048	-69.391	47.207	-69.498	-8191	255	
2009.276	1	1	0	0	0.29898	0.078082	0.32007	0.046958	0.26319	0.10408	0.15086	0.17047	0.04779	0.158	0.25124	0.20788	0.22256	0.23372	0.044807	0.13771	-2.5792	-3.3417	-2.9271	-3.2708	-3.225	-2.8125	-3.3375	-3.1146	-2.9813	-3.2167	-3.0979	-3.1104	-3.2188	-2.9938	-3.3083	-3.1958	141.476	239.260	-54.086	30.379	-22.204	-98.102	213.285	-100.191	137.207	-22.648	178.426	242.008	78.359	129.412	242.138	125.451	9.5127e-05	0.00026439	0.00010027	1124.4	1.7033e-06	2.7564e-06	1176.2	236.75	1.1008e-06	3.621e-06	300.21	77.977	67.393	19.079	2.313e-06	27.19	0.00011484	6.3332e-05	1.9353e-05	1093.4	1.1003e-06	7.3539e-07	1153.2	233.05	1.011e-06	6.3429e-07	295.17	82.168	65.781	18.945	7.4793e-07	27.104	194.152	-14.206	0.364	-89.883	15.432	58.863	-89.625	-82.835	2.184	48.255	-83.018	-78.289	-76.274	-69.465	23.518	-69.211	-8191	255	
2009.372	1	1	0	0	0.093803	0.10099	0.060692	0.44471	0.25744	0.12061	0.55748	0.28787	0.18548	0.14162	0.1234	0.086794	0.094227	0.2019	0.26979	0.18807	-2.4813	-3.275	-2.9104	-3.2625	-3.2979	-2.9938	-3.4688	-3.2333	-2.9646	-3.3729	-3.325	-3.0104	-3.3063	-2.8646	-3.025	-3.2146	-56.235	202.659	222.926	243.151	157.980	37.813	210.268	27.365	-13.610	-81.735	-31.290	-54.948	219.391	187.910	189.178	-10.640	0.00010309	0.00028595	8.1616e-05	1121.2	1.587e-06	3.1999e-06	1180.7	236.51	7.2152e-07	2.9187e-06	300.87	78.601	66.253	18.984	2.1009e-06	27.218	0.00011533	6.3134e-05	1.9777e-05	1093	1.0217e-06	8.1387e-07	1154.2	233.16	1.0612e-06	6.1647e-07	295.39	82.37	65.639	18.911	8.6e-07	27.073	192.595	-15.695	10.430	-89.753	31.978	41.775	-89.720	-82.951	-20.944	55.463	-83.094	-77.686	-76.137	-69.476	40.991	-69.820	-8191	255	
2009.468	1	1	0	0	0.21983	0.11068	0.21357	0.15681	0.079513	0.11204	0.20026	0.17155	0.17236	0.21428	0.11718	0.17236	0.20109	0.18238	0.26259	0.49904	-2.4813	-3.3333	-2.9729	-3.1688	-3.4667	-2.9125	-3.2687	-3.225	-2.8	-3.1208	-3.2208	-2.8688	-3.2771	-2.8958	-3.0875	-3.2146	-25.274	225.731	128.437	-6.224	186.256	-46.892	217.416	249.549	68.591	101.280	23.063	79.693	-64.797	-10.144	76.272	188.739	9.2172e-05	0.00025013	5.8447e-05	1121.8	1.493e-06	3.5502e-06	1172.3	236.67	1.1822e-06	2.6858e-06	299.39	78.114	66.949	18.96	2.319e-06	27.337	0.00012068	7.0078e-05	1.8797e-05	1092.6	1.0682e-06	8.7765e-07	1150.3	232.68	1.1075e-06	6.7883e-07	294.74	81.764	65.782	18.882	8.4615e-07	27.147	195.330	-15.774	0.108	-89.850	35.779	38.122	-89.872	-82.733	50.421	40.414	-82.920	-78.100	-76.264	-69.317	34.776	-69.842	-8191	255	
2009.589	1	1	0	0	0.17895	0.14589	0.27491	0.35761	0.38067	0.087597	0.12069	0.23416	0.018469	0.094149	0.2788	0.10304	0.19813	0.096235	0.3419	0.047455	-2.3146	-3.2125	-3.0833	-3.0771	-3.325	-2.9542	-3.1708	-3.2333	-2.8187	-3.1688	-3.15	-2.9125	-3.1604	-3.0354	-2.9042	-3.1292	241.119	164.342	143.439	214.833	226.292	36.355	99.684	199.444	73.607	240.579	186.135	137.553	169.753	212.577	128.057	23.393	9.1707e-05	0.00029131	8.5587e-05	1119.8	1.6623e-06	2.8169e-06	1173.7	236	1.0554e-06	3.8342e-06	300.38	78.428	66.662	18.992	1.3897e-06	27.002	0.00012151	7.9523e-05	1.9554e-05	1091.7	1.079e-06	7.5813e-07	1151.1	232.56	1.1188e-06	6.5656e-07	295.28	82.408	65.565	18.894	8.1929e-07	27.072	194.759	-25.218	-16.439	-89.870	15.791	52.514	-89.873	-82.651	15.583	55.027	-82.837	-77.156	-76.003	-69.368	25.176	-69.262	-8191	255	
2009.661	1	1	0	0	0.10331	0.13317	0.05082	0.2622	0.28618	0.086712	0.28023	0.19222	0.16733	0.15309	0.21345	0.11091	0.23312	0.069805	0.060968	0.16595	-2.4458	-3.3312	-3.0896	-2.9583	-3.2729	-3.1167	-3.225	-3.5333	-2.7729	-3.3	-3.3729	-2.8271	-3.3146	-3.05	-3.075	-3.3583	109.769	30.693	144.757	226.951	220.269	81.839	226.974	-88.004	224.944	238.749	-60.792	8.116	167.656	168.079	-19.665	181.247	9.6441e-05	0.0003113	7.8974e-05	1121.9	1.0972e-06	3.072e-06	1175.6	235.79	1.2922e-06	3.0253e-06	300.29	78.399	66.453	18.813	2.2099e-06	27.173	0.00011868	6.8451e-05	1.6993e-05	1092.1	1.0754e-06	7.0506e-07	1151.6	232.61	1.0268e-06	6.6636e-07	295.52	82.233	65.706	18.863	8.7511e-07	27.04	198.930	5.455	23.788	-89.757	22.698	51.911	-89.841	-83.158	0.036	62.401	-83.090	-77.297	-76.446	-69.711	28.585	-69.864	-8191	255	
2009.781	1	1	0	0	0.21404	0.25922	0.070803	0.20692	0.080478	0.10942	0.22498	0.13526	0.038689	0.10776	0.18593	0.058652	0.30891	0.25147	0.15536	0.012873	-2.5646	-3.0875	-3.1958	-3.1479	-3.4188	-3.0771	-3.0833	-3.3229	-2.9875	-3.175	-3.2396	-3.0604	-3.2104	-3.1437	-3.0146	-3.4437	174.953	196.304	-31.248	-87.396	59.752	-8.632	140.267	168.617	-5.707	-21.386	258.613	234.107	157.360	-78.654	-11.796	248.320	8.2787e-05	0.00030794	9.6212e-05	1123.1	1.4268e-06	2.8867e-06	1175.1	237.27	1.4005e-06	2.7406e-06	299.54	78.143	66.815	18.887	1.745e-06	26.975	0.00011833	6.9404e-05	1.6581e-05	1091.8	1.0422e-06	6.792e-07	1152.3	232.85	9.9311e-07	6.815e-07	295.29	82.534	65.87	18.876	8.7595e-07	27.108	197.174	-14.594	-3.538	-89.891	17.919	52.025	-89.644	-82.980	39.639	55.431	-82.916	-77.428	-76.377	-69.257	51.268	-69.509	-8191	255	
2009.877	1	1	0	0	0.14216	0.091238	0.14209	0.14341	0.056756	0.26008	0.17071	0.068691	0.21474	0.13877	0.28523	0.11106	0.15548	0.10899	0.12678	0.2895	-2.4542	-2.9771	-3.3646	-2.8396	-3.3958	-3.2375	-2.95	-3.2833	-2.8667	-3.0917	-3.3937	-2.9125	-3.2354	-3.2208	-2.8583	-3.2958	96.971	108.550	251.997	230.026	-77.613	164.718	256.535	63.700	6.647	41.454	187.654	204.170	53.962	-9.934	7.346	51.821	9.0563e-05	0.0003193	9.4066e-05	1120.6	6.1867e-07	4.3052e-06	1182.1	235.96	1.529e-06	2.545e-06	302.73	77.883	65.867	18.854	1.6023e-06	27.115	0.00011675	7.6626e-05	1.7227e-05	1090.9	1.0297e-06	7.9916e-07	1154.3	232.46	1.0268e-06	7.3941e-07	295.7	82.506	65.492	18.858	8.9861e-07	27.083	198.834	-21.307	-6.362	-89.638	76.874	54.107	-89.684	-82.823	54.088	35.476	-82.984	-77.957	-76.667	-69.136	65.325	-69.500	-8191	255	
2009.972	1	1	0	0	0.18779	0.026646	0.1752	0.23701	0.058229	0.14402	0.13045	0.20166	0.14398	0.14323	0.31665	0.38025	0.37723	0.17916	0.2687	0.1455	-2.5167	-2.8688	-3.3021	-3.0062	-3.0792	-3.2646	-3.0146	-3.3875	-2.975	-2.9313	-3.4146	-3.0062	-3.1917	-3.1396	-2.7667	-3.3063	57.162	250.819	-43.465	243.832	147.420	-45.428	200.491	109.782	-52.948	-80.738	205.579	102.701	189.418	-49.780	95.061	93.382	0.0001021	0.00024129	8.1883e-05	1119.9	1.6141e-06	3.4876e-06	1176.9	236.73	1.1604e-06	2.8565e-06	300.83	79.277	66.312	18.993	1.4392e-06	26.889	0.00011868	7.2777e-05	1.9765e-05	1091.9	1.0045e-06	7.1353e-07	1152.4	232.89	9.8419e-07	7.7014e-07	295.36	82.769	65.531	18.905	8.0921e-07	27.038	198.575	-11.669	3.314	-89.895	48.392	50.229	-89.770	-82.923	-7.528	77.521	-82.829	-78.116	-76.308	-69.728	59.740	-69.574	-8191	255	
2010.068	1	1	0	0	0.14227	0.039717	0.13502	0.37129	0.13561	0.22755	0.19173	0.2815	0.088184	0.15873	0.14444	0.13808	0.15472	0.12668	0.25861	0.083647	-2.6646	-2.9813	-3.3229	-3.1458	-3.0917	-3.3896	-3.0812	-3.1917	-3.0708	-2.7771	-3.4042	-2.9771	-3.0021	-3.2708	-2.8104	-3.2104	245.650	206.702	146.045	163.206	209.672	146.874	174.203	212.808	139.840	256.842	254.470	147.003	-77.270	254.508	-32.193	231.026	0.00010144	0.00033041	7.5676e-05	1117.2	7.3679e-07	3.2431e-06	1178.2	236.78	1.4101e-06	2.5673e-06	299.14	78.523	66.523	19.007	2.7126e-06	26.988	0.00011698	7.357e-05	1.6414e-05	1091.4	1.0802e-06	5.9402e-07	1153.1	232.79	9.8987e-07	7.1447e-07	294.73	82.689	65.855	18.902	8.6671e-07	27.074	197.808	-23.606	-15.555	-90.025	33.608	75.229	-89.644	-82.894	-15.914	44.913	-82.927	-77.165	-76.173	-69.621	55.366	-69.480	-8191	255	
2010.188	1	1	0	0	0.14543	0.066528	0.2026	0.16123	0.30088	0.21546	0.25146	0.21625	0.10936	0.19541	0.2204	0.18497	0.095399	0.32443	0.088393	0.20523	-2.6875	-2.8458	-3.3021	-3.0875	-2.9604	-3.1917	-3.1333	-3.3312	-3.1896	-2.8958	-3.5479	-2.9833	-2.8937	-3.3792	-2.8375	-2.9479	-50.499	156.451	168.227	137.229	18.954	153.409	225.034	69.613	111.419	-29.698	24.033	-44.635	101.711	233.524	206.263	98.841	9.1591e-05	0.00028113	8.12e-05	1123.8	1.5045e-06	2.1657e-06	1177.7	237.91	8.7548e-07	3.3533e-06	299.41	78.354	66.641	18.961	2.0238e-06	26.93	0.00011963	7.9801e-05	1.6302e-05	1092.9	1.2032e-06	5.8911e-07	1152.6	233.05	9.627e-07	7.5233e-07	295.81	82.37	65.707	18.922	9.8004e-07	27.065	196.555	-34.098	-15.703	-90.007	49.852	39.767	-89.828	-82.936	-7.810	77.250	-83.043	-77.413	-76.278	-69.357	64.026	-69.710	-8191	255	
2010.260	1	1	0	0	0.23563	0.12431	0.1614	0.23161	0.055787	0.097046	0.19596	0.3323	0.20596	0.084032	0.24645	0.028378	0.12733	0.18094	0.13491	0.13043	-2.9917	-2.7042	-3.1063	-3.0354	-2.8917	-3.3333	-3.0104	-3.175	-3.2292	-2.7833	-3.225	-2.9604	-2.9125	-3.3458	-3.0646	-3.0187	-77.838	-98.317	51.367	-22.656	198.834	119.041	157.336	219.952	13.854	92.813	-7.915	195.594	-72.189	111.400	-38.482	254.371	9.9082e-05	0.00030791	0.00012589	1125.6	6.2075e-07	4.2388e-06	1175.2	234.94	6.3819e-07	1.9729e-06	301.86	78.874	66.561	18.858	2.8579e-06	27.067	0.00011514	7.988e-05	1.9064e-05	1092.9	1.1656e-06	6.9793e-07	1152.8	232.32	9.6229e-07	7.7504e-07	296.08	82.626	65.807	18.848	9.3135e-07	27.037	198.138	3.214	-6.021	-89.827	46.295	70.927	-89.949	-82.901	76.024	49.962	-83.004	-77.385	-76.556	-69.347	37.102	-69.395	-8191	255	
2010.356	1	1	0	0	0.27808	0.12738	0.11923	0.23926	0.1024	0.28954	0.3069	0.14708	0.068934	0.39092	0.089108	0.083248	0.32035	0.11665	0.032367	0.30328	-2.7729	-2.8792	-3.0354	-3.3396	-2.8438	-3.3729	-3.2854	-2.9479	-3.3542	-2.8583	-3.1896	-3.0021	-2.7729	-3.2417	-3.0438	-3.0792	-11.542	11.363	-84.655	216.279	72.060	147.373	237.361	230.092	-51.765	-99.603	-84.707	6.642	250.816	-6.279	25.265	225.181	8.8208e-05	0.00035488	8.6378e-05	1125.7	8.131e-07	3.5568e-06	1174.2	235.3	1.9463e-06	3.1793e-06	301.48	78.613	67.46	19.017	1.1128e-06	27.01	0.00011679	7.1983e-05	1.9008e-05	1095.5	1.156e-06	6.6671e-07	1153.6	233.01	9.6473e-07	8.0221e-07	295.62	82.333	65.825	18.861	8.6587e-07	27.036	203.829	-6.056	-7.545	-89.946	21.271	49.590	-89.811	-82.851	14.642	70.783	-83.052	-78.402	-76.346	-69.573	26.388	-69.688	-8191	255	
2010.452	1	1	0	0	0.26746	0.032945	0.089732	0.28852	0.053829	0.15623	0.15189	0.12965	0.12686	0.11975	0.3035	0.093312	0.032266	0.029386	0.14194	0.27134	-3.0333	-2.8146	-3.1604	-3.3958	-2.9646	-3.4125	-3.1208	-2.9437	-3.3479	-2.8771	-3.225	-3.2958	-2.8812	-3.2896	-3.1146	-2.9125	215.167	173.646	204.097	200.669	-32.645	0.195	219.316	235.927	-6.330	-56.847	196.348	124.868	-35.668	-23.072	-47.589	212.689	9.5922e-05	0.00013984	9.812e-05	1121.1	1.2614e-06	4.4825e-06	1177.3	236.86	1.6075e-06	2.7106e-06	300.19	79.384	66.574	18.987	1.6793e-06	27.278	0.00011358	6.9523e-05	1.912e-05	1092.7	1.2413e-06	6.792e-07	1154.6	232.77	9.8946e-07	6.4052e-07	295.8	82.681	65.871	18.908	7.7144e-07	27.204	198.642	2.144	-5.626	-90.115	36.425	74.863	-89.779	-82.832	2.045	49.641	-82.932	-78.465	-76.562	-69.033	59.315	-69.542	-8191	255	
2010.549	1	1	0	0	0.23311	0.093781	0.057309	0.24757	0.093808	0.14145	0.17179	0.40451	0.24829	0.20339	0.1283	0.20402	0.17479	0.14107	0.25837	0.089364	-2.9417	-2.8	-3.1688	-3.4292	-2.9125	-3.2354	-3.275	-2.9854	-3.2833	-3.1125	-3.1375	-3.35	-3.0083	-3.1292	-3.0896	-3.025	-96.887	128.526	47.783	210.896	-92.540	26.357	96.843	220.189	20.149	59.606	-94.594	243.607	-70.669	34.267	16.630	228.151	8.4534e-05	0.00044208	6.0729e-05	1125.2	8.3307e-07	3.8217e-06	1180.7	236.98	1.0324e-06	3.2381e-06	301.71	79.713	66.701	18.964	1.4584e-06	27.142	0.00011324	6.7102e-05	2.0155e-05	1094.1	1.1347e-06	7.2379e-07	1154.9	233.06	9.2336e-07	6.2404e-07	296.21	82.552	65.696	18.943	7.8193e-07	27.148	187.637	-13.866	0.292	-89.775	35.436	36.029	-89.850	-82.615	13.544	65.378	-82.677	-78.603	-76.505	-69.359	60.858	-69.506	-8191	255	
2010.669	1	1	0	0	0.13772	0.10205	0.17196	0.27992	0.11731	0.20297	0.15329	0.21199	0.35411	0.031368	0.10577	0.2496	0.054196	0.22596	0.21148	0.081928	-2.7792	-2.7812	-2.8667	-3.4104	-2.7271	-3.1083	-3.4146	-2.8833	-3.3208	-3.0312	-3.0625	-3.1646	-3.0125	-3.0771	-3.2292	-3.0062	45.727	19.838	248.773	-94.361	-100.169	202.708	-90.913	-71.570	29.019	65.288	134.764	163.710	238.288	182.228	23.424	0.051	9.5873e-05	0.00025898	8.2922e-05	1122.4	1.867e-06	2.801e-06	1183.8	237.29	1.1106e-06	3.0415e-06	299.59	80.857	66.422	19.073	1.2069e-06	27.155	0.00011535	6.6944e-05	1.9142e-05	1093.7	1.2084e-06	6.4842e-07	1157.1	233.16	8.9457e-07	6.5032e-07	295.75	83.056	65.943	18.947	8.9484e-07	27.161	194.032	4.415	2.425	-90.081	32.848	28.178	-89.824	-82.804	28.517	84.766	-83.374	-78.303	-76.049	-69.399	34.593	-69.250	-8191	255	
2010.765	1	1	0	0	0.13626	0.17255	0.13295	0.24257	0.23518	0.33492	0.2802	0.081794	0.24021	0.22326	0.22034	0.050063	0.061957	0.16411	0.32851	0.18606	-2.9208	-3.0646	-2.8396	-3.5021	-2.8417	-3.0875	-3.3792	-2.8708	-3.3812	-3.2104	-3.0187	-3.1875	-2.9813	-3.1771	-3.2542	-2.7604	124.784	121.495	-29.009	209.671	-22.217	214.614	113.052	143.557	-37.582	85.771	151.956	93.377	-63.022	-78.468	169.061	205.353	8.4994e-05	0.00029119	8.8737e-05	1124.7	2.0094e-06	2.1643e-06	1181.4	236.87	1.6166e-06	2.3566e-06	301.47	78.089	66.384	19.076	1.5014e-06	27.186	0.00011858	6.5991e-05	1.7583e-05	1094.8	1.2389e-06	7.0372e-07	1157	233.23	9.9839e-07	7.4075e-07	296.31	82.191	65.714	18.939	7.6304e-07	27.169	198.648	-0.774	-21.807	-90.049	43.653	77.222	-89.883	-83.145	30.683	61.720	-82.925	-76.691	-76.240	-69.556	31.423	-69.548	-8191	255	
2010.862	1	1	0	0	0.15939	0.24442	0.033412	0.19049	0.077198	0.090028	0.1482	0.17979	0.13146	0.24614	0.076236	0.11977	0.22881	0.23826	0.20166	0.062647	-2.9875	-3.0563	-2.9938	-3.45	-3.0271	-3.1146	-3.4938	-2.8187	-3.1604	-3.0042	-2.9125	-3.175	-3.1688	-3.0396	-3.3042	-2.7729	176.814	167.213	23.978	12.345	37.984	-20.457	214.461	183.191	247.052	86.917	246.133	-97.050	207.377	216.720	-37.720	0.592	9.2624e-05	0.0002833	0.00010537	1122.7	1.4072e-06	3.1763e-06	1178.9	236.5	1.9581e-06	2.132e-06	301.3	79.381	67.51	18.951	2.6655e-06	27.17	0.00011342	6.6864e-05	2.216e-05	1094.6	1.1063e-06	7.394e-07	1155.4	232.98	9.9028e-07	6.8061e-07	296.78	82.954	65.82	18.949	8.4951e-07	27.135	197.180	-16.075	-0.569	-89.906	16.534	65.740	-89.742	-82.843	22.902	38.853	-83.003	-78.038	-75.938	-69.587	38.648	-69.755	-8191	255	
2010.958	1	1	0	0	0.21363	0.18111	0.045109	0.16913	0.23823	0.053611	0.28829	0.29068	0.16206	0.1085	0.15132	0.043924	0.22294	0.12072	0.08227	0.2916	-2.8812	-3.2	-2.8042	-3.3812	-2.9896	-3.0708	-3.5083	-2.9958	-3.0542	-3.3646	-2.8896	-3.1375	-2.975	-2.8146	-3.4104	-3.0563	104.679	-13.869	3.926	80.968	216.560	-10.749	207.761	141.267	-33.466	146.257	175.503	-29.025	-67.026	208.158	237.822	188.093	0.00010243	0.00052704	7.3557e-05	1124.2	1.0838e-06	3.1151e-06	1181.7	237.32	1.7831e-06	2.2802e-06	300.07	78.603	66.648	18.873	1.2741e-06	27.287	0.00011765	6.7856e-05	2.0077e-05	1095.6	1.1307e-06	7.0952e-07	1156.4	233.33	9.9109e-07	6.6146e-07	296.27	82.584	65.935	18.921	7.1184e-07	27.195	199.246	-13.113	-19.408	-90.033	11.938	81.340	-89.823	-82.992	17.260	75.194	-83.248	-78.577	-76.319	-69.572	41.619	-69.776	-8191	255	
2011.052	1	1	0	0	0.23211	0.12211	0.064564	0.27566	0.12495	0.18653	0.14707	0.12298	0.22092	0.093891	0.26967	0.03542	0.019697	0.11759	0.077701	0.057445	-2.7646	-3.2729	-2.7417	-3.3771	-2.9813	-2.8438	-3.4896	-3.0021	-3.0708	-3.3958	-2.875	-3.2313	-3.0187	-2.8333	-3.2396	-3.0083	230.263	21.651	175.782	258.681	141.407	71.856	229.152	199.162	139.213	237.710	125.612	123.080	-10.947	215.357	227.663	192.715	9.7474e-05	0.00030191	8.5223e-05	1125.8	6.9444e-07	2.9239e-06	1179.7	236.76	1.0763e-06	3.7574e-06	301.85	79.024	67.55	19.033	1.6521e-06	27.145	0.0001191	6.4285e-05	2.0478e-05	1095.6	1.168e-06	7.4208e-07	1157.1	233.24	9.9676e-07	6.6591e-07	296.82	82.817	66.098	18.948	7.1897e-07	27.203	197.029	1.994	5.716	-90.026	63.524	33.602	-89.907	-83.086	25.117	61.023	-82.950	-78.663	-76.172	-69.654	78.384	-69.602	-8191	255	
2011.150	1	1	0	0	0.24771	0.24316	0.066568	0.028782	0.050867	0.16	0.11522	0.11347	0.26337	0.25305	0.30598	0.12781	0.22774	0.18688	0.2854	0.14049	-2.375	-3.2917	-2.7021	-3.2354	-3.1562	-2.9	-3.6104	-3.1229	-2.9771	-3.3917	-3.1042	-3.1896	-3.1958	-2.6271	-3.1083	-3.2042	-56.667	183.949	-9.978	-31.833	-70.585	-17.550	256.686	29.275	53.221	-60.763	230.322	239.770	200.480	139.496	-11.432	169.735	9.18e-05	0.00031904	9.6381e-05	1129.4	5.5929e-07	3.6103e-06	1179.8	237.89	1.9625e-06	2.1176e-06	301.64	78.713	66.705	18.992	1.8423e-06	27.24	0.00011872	6.5277e-05	2.1547e-05	1097	1.0261e-06	7.5144e-07	1155.8	233.84	9.8135e-07	6.0355e-07	296.36	82.487	65.957	18.981	7.4751e-07	27.178	195.287	-17.036	-23.647	-89.770	55.623	60.138	-89.769	-83.185	39.229	71.870	-82.934	-78.094	-76.149	-69.416	33.470	-69.898	-8191	255	
2011.269	1	1	0	0	0.10298	0.27319	0.10736	0.3351	0.11542	0.088414	0.15816	0.25307	0.16284	0.18318	0.20647	0.32875	0.24773	0.16667	0.31504	0.14937	-2.5271	-3.3458	-2.9354	-3.4188	-3.3563	-2.7917	-3.3563	-3.3708	-2.8521	-3.3208	-3.15	-2.9646	-3.2229	-2.75	-3.1458	-3.3063	173.004	109.133	63.257	250.683	32.792	98.143	188.478	244.652	95.254	90.520	-45.446	94.913	-71.402	91.997	141.113	150.930	9.0929e-05	0.00036288	8.84e-05	1125.9	1.4195e-06	3.176e-06	1184.7	236.77	1.2643e-06	3.7621e-06	300.76	79.011	67.948	19.005	2.1259e-06	27.1	0.00011719	5.9721e-05	2.03e-05	1097	1.1752e-06	7.3405e-07	1157.9	233.38	1.0523e-06	6.2137e-07	296.32	82.854	66.188	18.98	8.1341e-07	27.195	191.710	-21.320	-7.341	-89.951	18.802	52.862	-89.950	-83.070	4.866	57.748	-83.015	-78.187	-77.032	-69.350	36.712	-69.630	-8191	255	
2011.365	1	1	0	0	0.15335	0.050152	0.082785	0.13503	0.091839	0.12014	0.092464	0.16322	0.058064	0.21401	0.022391	0.17235	0.054379	0.24222	0.26496	0.049732	-2.4729	-3.2417	-2.9083	-3.2292	-3.1688	-2.85	-3.5125	-3.1437	-2.8458	-3.4229	-2.9896	-3.0875	-3.3083	-3.0646	-3.1104	-3.175	199.694	81.621	176.116	-34.177	-52.764	27.593	196.374	200.565	28.869	-63.525	152.826	239.736	172.547	103.410	102.805	-2.293	9.817e-05	0.00023967	6.3205e-05	1123	2.0151e-06	3.5848e-06	1182.3	236.75	1.5195e-06	3.323e-06	300.37	79.428	66.735	19.042	1.9568e-06	27.106	0.00011772	6.9047e-05	1.9142e-05	1096.9	1.1291e-06	8.219e-07	1158.1	233.89	1.0491e-06	5.991e-07	296.62	83.155	66.171	18.998	8.046e-07	27.24	201.049	-43.877	6.424	-89.894	53.063	42.439	-89.756	-83.181	18.698	67.770	-82.961	-78.559	-76.059	-69.435	51.645	-69.404	-8191	255	
2011.461	1	1	0	0	0.23511	0.020833	0.054989	0.18065	0.039907	0.096559	0.18214	0.3154	0.15566	0.18775	0.11808	0.1749	0.058582	0.21027	0.21294	0.11715	-2.5104	-3.3292	-3.0729	-2.8646	-3.4104	-2.8417	-3.1271	-3.3542	-2.8563	-3.3208	-3.1604	-2.9042	-3.2333	-2.9958	-3.1583	-3.3688	-66.743	-43.399	-93.745	166.407	-30.622	72.967	243.406	184.074	51.620	50.250	198.700	-90.879	30.918	82.266	-27.957	244.332	0.00010257	0.00028562	9.8009e-05	1126.5	1.2055e-06	3.113e-06	1185.1	237.1	1.6457e-06	4.4217e-06	300.97	79.438	66.627	18.87	2.6483e-06	27.2	0.00011975	6.3769e-05	1.8496e-05	1097	1.0017e-06	7.0239e-07	1157.3	233.79	1.0203e-06	6.4899e-07	296.65	83.088	66.099	18.997	8.4279e-07	27.205	199.255	-14.995	-21.746	-89.801	84.607	49.693	-89.898	-83.101	20.704	78.423	-83.275	-77.971	-76.683	-69.447	83.918	-69.422	-8191	255	
2011.557	1	1	0	0	0.18184	0.17407	0.22077	0.20776	0.082	0.080882	0.15152	0.20466	0.18326	0.063363	0.31383	0.052208	0.09815	0.19957	0.1704	0.088753	-2.4875	-3.2687	-3.1396	-2.9813	-3.425	-2.9729	-3.15	-3.3917	-2.7542	-3.2521	-3.0458	-2.8875	-3.4083	-2.925	-3.0792	-3.4562	254.050	28.591	92.171	229.316	178.776	240.714	147.161	176.742	-57.916	143.523	206.271	88.741	206.481	186.912	185.265	119.759	0.00010282	0.00035564	0.0001048	1132.2	7.8004e-07	2.4029e-06	1185.1	237.15	2.0135e-06	4.0369e-06	301.88	78.374	66.947	19.121	2.3635e-06	27.151	0.00012044	6.9404e-05	1.8351e-05	1098.7	1.075e-06	7.831e-07	1159.8	234.06	1.1144e-06	6.8329e-07	296.82	82.816	66.144	19.016	8.9945e-07	27.195	195.059	-23.421	4.933	-89.882	45.337	45.671	-89.575	-83.169	36.952	75.298	-83.496	-78.413	-76.013	-69.345	42.468	-69.925	-8191	255	
#DATA ENDS
