BOXY.EXE: ISS Imagent and Oximeter Data Acquisition Program Version 0.80
Ascii Record File

#ACQ INFORMATION
2  Detector Channels 
16  External MUX Channels 
1  Auxiliary Channels 
5000  Waveform (CCF) Frequency (Hz)
1  Waveforms Skipped 
30  Waveforms Averaged 
1  Cycles Averaged 
16  Acquisitions per Waveform 
10.0806  Updata Rate (Hz) 

#FILE INFORMATION
TRUE -- External MUX Channel results are PARSED.
FALSE -- AC DC and Phase are NOT grouped.
TRUE -- Companion Program Settings File CREATED.
FALSE -- AC data not excluded
FALSE -- DC data not excluded
FALSE -- Phase data not excluded
FALSE -- Auxillary Chn. data not excluded
Tab delimiters

#CALIBRATION STATE
TRUE -- Waveform Calibration Values APPLIED.


#AUX CALIBRATION VALUES
Val Type	aux-1	

Term	1.0000e+00	
Factor	0.0000e+00	


#WF CALIBRATION VALUES
A = Detector Channel
Val Type	A-AC1	A-AC2	A-AC3	A-AC4	A-AC5	A-AC6	A-AC7	A-AC8	A-AC9	A-AC10	A-AC11	A-AC12	A-AC13	A-AC14	A-AC15	A-AC16	A-DC1	A-DC2	A-DC3	A-DC4	A-DC5	A-DC6	A-DC7	A-DC8	A-DC9	A-DC10	A-DC11	A-DC12	A-DC13	A-DC14	A-DC15	A-DC16	A-Ph1	A-Ph2	A-Ph3	A-Ph4	A-Ph5	A-Ph6	A-Ph7	A-Ph8	A-Ph9	A-Ph10	A-Ph11	A-Ph12	A-Ph13	A-Ph14	A-Ph15	A-Ph16	

Term	0.00000e+00	0.00000e+00	0.00000e+00	0.00000e+00	0.00000e+00	0.00000e+00	0.00000e+00	0.00000e+00	0.00000e+00	0.00000e+00	0.00000e+00	0.00000e+00	0.00000e+00	0.00000e+00	0.00000e+00	0.00000e+00	0.00000e+00	0.00000e+00	0.00000e+00	0.00000e+00	0.00000e+00	0.00000e+00	0.00000e+00	0.00000e+00	0.00000e+00	0.00000e+00	0.00000e+00	0.00000e+00	0.00000e+00	0.00000e+00	0.00000e+00	0.00000e+00	0.00000e+00	0.00000e+00	0.00000e+00	0.00000e+00	0.00000e+00	0.00000e+00	0.00000e+00	0.00000e+00	0.00000e+00	0.00000e+00	0.00000e+00	0.00000e+00	0.00000e+00	0.00000e+00	0.00000e+00	0.00000e+00	
Factor	1.00000e+00	1.00000e+00	1.00000e+00	1.00000e+00	1.00000e+00	1.00000e+00	1.00000e+00	1.00000e+00	1.00000e+00	1.00000e+00	1.00000e+00	1.00000e+00	1.00000e+00	1.00000e+00	1.00000e+00	1.00000e+00	1.00000e+00	1.00000e+00	1.00000e+00	1.00000e+00	1.00000e+00	1.00000e+00	1.00000e+00	1.00000e+00	1.00000e+00	1.00000e+00	1.00000e+00	1.00000e+00	1.00000e+00	1.00000e+00	1.00000e+00	1.00000e+00	X	X	X	X	X	X	X	X	X	X	X	X	X	X	X	X	

B = Detector Channel
Val Type	B-AC1	B-AC2	B-AC3	B-AC4	B-AC5	B-AC6	B-AC7	B-AC8	B-AC9	B-AC10	B-AC11	B-AC12	B-AC13	B-AC14	B-AC15	B-AC16	B-DC1	B-DC2	B-DC3	B-DC4	B-DC5	B-DC6	B-DC7	B-DC8	B-DC9	B-DC10	B-DC11	B-DC12	B-DC13	B-DC14	B-DC15	B-DC16	B-Ph1	B-Ph2	B-Ph3	B-Ph4	B-Ph5	B-Ph6	B-Ph7	B-Ph8	B-Ph9	B-Ph10	B-Ph11	B-Ph12	B-Ph13	B-Ph14	B-Ph15	B-Ph16	

Term	0.00000e+00	0.00000e+00	0.00000e+00	0.00000e+00	0.00000e+00	0.00000e+00	0.00000e+00	0.00000e+00	0.00000e+00	0.00000e+00	0.00000e+00	0.00000e+00	0.00000e+00	0.00000e+00	0.00000e+00	0.00000e+00	0.00000e+00	0.00000e+00	0.00000e+00	0.00000e+00	0.00000e+00	0.00000e+00	0.00000e+00	0.00000e+00	0.00000e+00	0.00000e+00	0.00000e+00	0.00000e+00	0.00000e+00	0.00000e+00	0.00000e+00	0.00000e+00	-1.55424e+02	-1.27235e+02	-1.24166e+02	-1.80391e+02	-7.40752e+01	-6.35377e+01	-1.56642e+02	-1.62015e+02	-7.80018e+01	-6.24457e+01	-1.75242e+02	-1.71364e+02	-1.79620e+02	-1.76316e+02	-7.26602e+01	-1.49562e+02	
Factor	2.32168e-05	1.44619e-04	3.90176e-05	1.53962e-01	1.28637e-06	1.68364e-06	1.74380e-01	5.13261e-02	1.26631e-06	1.62331e-06	9.43026e-02	3.18907e-02	2.43581e-02	9.34159e-03	1.41395e-06	1.29416e-02	1.42752e-05	2.56240e-05	7.09592e-06	7.92124e-02	2.49870e-07	2.88134e-07	8.45014e-02	2.65240e-02	2.52790e-07	2.91573e-07	4.71960e-02	1.60623e-02	1.27823e-02	4.86681e-03	2.69113e-07	6.54773e-03	X	X	X	X	X	X	X	X	X	X	X	X	X	X	X	X	



#DISTANCE SETTINGS
A = Detector Channel
A-1	A-2	A-3	A-4	A-5	A-6	A-7	A-8	A-9	A-10	A-11	A-12	A-13	A-14	A-15	A-16	

2.5000e+00	3.0000e+00	2.5000e+00	3.0000e+00	2.0000e+00	3.0000e+00	1.5000e+00	3.0000e+00	3.0000e+00	3.0000e+00	3.0000e+00	3.0000e+00	3.0000e+00	3.0000e+00	1.5000e+00	3.0000e+00	

B = Detector Channel
B-1	B-2	B-3	B-4	B-5	B-6	B-7	B-8	B-9	B-10	B-11	B-12	B-13	B-14	B-15	B-16	

1.0000e+01	1.0000e+01	1.0000e+01	1.4400e+00	1.0000e+01	1.0000e+01	1.5100e+00	1.9400e+00	1.0000e+01	1.0000e+01	1.9900e+00	2.4900e+00	2.4100e+00	2.9000e+00	1.0000e+01	2.9800e+00	




#DATA BEGINS
time	group	step	mark	flag	A-AC1	A-AC2	A-AC3	A-AC4	A-AC5	A-AC6	A-AC7	A-AC8	A-AC9	A-AC10	A-AC11	A-AC12	A-AC13	A-AC14	A-AC15	A-AC16	A-DC1	A-DC2	A-DC3	A-DC4	A-DC5	A-DC6	A-DC7	A-DC8	A-DC9	A-DC10	A-DC11	A-DC12	A-DC13	A-DC14	A-DC15	A-DC16	A-Ph1	A-Ph2	A-Ph3	A-Ph4	A-Ph5	A-Ph6	A-Ph7	A-Ph8	A-Ph9	A-Ph10	A-Ph11	A-Ph12	A-Ph13	A-Ph14	A-Ph15	A-Ph16	B-AC1	B-AC2	B-AC3	B-AC4	B-AC5	B-AC6	B-AC7	B-AC8	B-AC9	B-AC10	B-AC11	B-AC12	B-AC13	B-AC14	B-AC15	B-AC16	B-DC1	B-DC2	B-DC3	B-DC4	B-DC5	B-DC6	B-DC7	B-DC8	B-DC9	B-DC10	B-DC11	B-DC12	B-DC13	B-DC14	B-DC15	B-DC16	B-Ph1	B-Ph2	B-Ph3	B-Ph4	B-Ph5	B-Ph6	B-Ph7	B-Ph8	B-Ph9	B-Ph10	B-Ph11	B-Ph12	B-Ph13	B-Ph14	B-Ph15	B-Ph16	aux-1	digaux	

2713.622	1	1	0	256	0.1155	0.092204	0.14451	0.23192	0.051583	0.21829	0.088543	0.11052	0.054316	0.15577	0.30417	0.22897	0.18538	0.11827	0.11172	0.19837	-2.2604	-2.6125	-2.0438	-2.9417	-2.3375	-2.2667	-3.1813	-2.1562	-2.6229	-2.6646	-2.1667	-2.8917	-2.5833	-2.4333	-2.9333	-2.3229	-49.180	-91.871	-22.389	105.768	-117.906	-10.198	41.524	-103.516	118.722	8.397	215.151	-116.398	185.747	-99.551	14.406	168.876	0.00071816	0.00022876	0.00014056	734.77	2.3837e-06	7.3949e-06	768.85	282.03	4.8051e-06	7.9019e-06	339.29	150	124.22	66.649	3.511e-06	87.637	0.001878	0.0026395	0.00071691	799.61	2.5551e-05	2.9366e-05	839.82	309.11	2.6406e-05	3.0024e-05	372.85	165.94	137.75	73.879	2.8592e-05	97.009	178.119	-86.498	-55.703	-120.171	6.377	25.179	-121.026	-114.783	-13.471	33.267	-116.109	-111.439	-109.879	-104.279	-19.527	-107.028	-8191	255	
2713.720	1	1	0	0	0.060027	0.13223	0.13631	0.20823	0.039351	0.15575	0.099329	0.05914	0.095079	0.17373	0.041834	0.31349	0.040562	0.32069	0.20508	0.038116	-2.0563	-2.6979	-2.0583	-2.9188	-2.5396	-2.1667	-3.1063	-2.2646	-2.2687	-2.9896	-2.1021	-3.0354	-2.5563	-2.3063	-3.0292	-2.3583	114.805	-29.159	-130.394	168.834	92.854	-104.198	23.953	138.971	-79.893	87.356	-100.935	132.534	17.437	191.947	-131.798	-99.704	0.00077584	0.00035259	0.00018357	734.15	2.8182e-06	4.2074e-06	770.88	283.33	5.1869e-06	7.7395e-06	341.05	150.18	124.59	66.76	6.7127e-06	87.48	0.0018549	0.0025827	0.00069957	798.76	2.5156e-05	2.8741e-05	841.25	310	2.5952e-05	2.9166e-05	374.16	166.05	137.97	73.929	2.7919e-05	97.141	171.186	-38.942	-57.264	-120.155	-19.908	11.596	-121.075	-114.672	-14.239	27.892	-115.982	-111.283	-109.748	-104.173	-19.154	-106.723	-8191	255	
2713.839	1	1	0	0	0.062594	0.17764	0.37722	0.25465	0.10613	0.12421	0.21456	0.31807	0.051674	0.21652	0.18822	0.18499	0.088566	0.12194	0.10963	0.20951	-1.8396	-3.0583	-1.9146	-2.8583	-2.5312	-2.2583	-3.1146	-2.3812	-2.4729	-3.0604	-2.2042	-2.7229	-2.9896	-2.325	-2.9917	-2.4125	113.679	-97.364	153.234	194.120	-29.066	-76.788	-38.259	223.485	215.398	-124.943	120.873	150.604	-95.703	196.372	106.470	172.087	0.00079343	0.00053226	0.0001171	739.4	5.6912e-06	5.811e-06	774.26	283.48	4.7522e-06	8.0048e-06	343.21	150.55	125.32	66.764	4.3855e-06	88.009	0.0018138	0.0025717	0.00069011	802.6	2.488e-05	2.7968e-05	844.96	310.77	2.5643e-05	2.9219e-05	375.65	166.95	138.75	74.05	2.7965e-05	97.554	173.373	-28.221	-32.640	-120.054	-4.708	29.534	-121.064	-114.711	1.984	28.337	-116.007	-111.213	-109.609	-104.038	-9.797	-106.666	-8191	255	
2713.935	1	1	0	0	0.045368	0.24714	0.065966	0.24084	0.028962	0.1326	0.075106	0.20915	0.11469	0.26012	0.39439	0.10251	0.14997	0.19581	0.078259	0.15578	-1.7854	-2.9583	-2.2021	-2.6583	-2.8875	-2.0917	-2.9458	-2.7208	-2.0938	-3.0708	-2.1729	-2.5417	-2.8333	-2.1083	-2.8958	-2.5542	90.686	205.042	98.093	-114.569	128.185	118.052	179.740	82.491	190.873	210.694	169.853	-127.837	150.869	141.934	148.782	176.332	0.0007741	0.00045703	0.00015084	740.75	5.3404e-06	5.9096e-06	774.75	283.5	4.45e-06	7.351e-06	340.64	150.18	124.86	66.59	5.0998e-06	87.201	0.0018073	0.0025384	0.0006823	804.41	2.5023e-05	2.804e-05	845.01	310.83	2.5305e-05	2.8968e-05	374.42	165.76	138.05	73.773	2.7254e-05	96.736	172.743	-41.702	-38.254	-120.038	5.402	2.834	-120.813	-114.512	-13.895	13.667	-116.089	-111.434	-109.850	-104.152	-15.781	-106.768	-8191	255	
2714.031	1	1	0	0	0.35952	0.16848	0.24799	0.27312	0.16218	0.084222	0.094487	0.16671	0.15086	0.26652	0.21845	0.18755	0.13434	0.2352	0.14923	0.30777	-1.8167	-2.8771	-2.1021	-2.5771	-2.9979	-2.3146	-2.8458	-2.7833	-2.1917	-2.9917	-2.4458	-2.4729	-2.8854	-2.1458	-2.8688	-2.9313	218.179	129.751	147.032	190.510	-1.797	218.960	145.946	197.949	192.653	60.241	-121.623	223.087	-125.039	197.988	68.838	146.973	0.00076559	0.00045653	0.00019908	738.84	5.8949e-06	4.8741e-06	771.87	283.71	4.6688e-06	7.3925e-06	341.55	150.16	124.76	66.509	4.1686e-06	87.66	0.0018046	0.0025637	0.00067083	802.14	2.5211e-05	2.7371e-05	842.37	311.01	2.4456e-05	2.8779e-05	374.41	165.86	137.99	73.712	2.6849e-05	97.007	171.789	-35.486	-45.615	-119.961	-10.007	11.717	-120.933	-114.517	-0.839	32.154	-115.956	-111.297	-109.547	-104.105	-1.658	-106.781	-8191	255	
2714.127	1	1	0	0	0.19302	0.29693	0.13514	0.05651	0.12196	0.2593	0.16867	0.19861	0.099008	0.13201	0.21614	0.078239	0.24305	0.13305	0.11689	0.3606	-1.6708	-2.8688	-2.1229	-2.2708	-2.8771	-2.0104	-2.7229	-2.7854	-2.1562	-2.9	-2.6	-2.3854	-3.2021	-2.3438	-2.5896	-2.8521	-6.262	-112.705	18.639	75.917	136.796	111.221	85.917	67.130	218.894	-12.375	80.501	147.583	154.304	58.167	-28.545	171.106	0.0007726	0.00040518	0.00013779	741.93	3.9618e-06	4.4016e-06	776.78	284.63	4.4686e-06	5.3622e-06	342.22	150.23	124.92	66.533	5.159e-06	88.066	0.0017381	0.0024956	0.00065989	803.45	2.4533e-05	2.6489e-05	845.35	311.62	2.3513e-05	2.7679e-05	375.22	166.44	138.29	73.802	2.5269e-05	97.384	172.800	-61.023	-37.746	-119.976	5.611	29.473	-120.703	-114.366	-11.774	29.055	-116.059	-111.285	-109.802	-103.897	2.797	-106.626	-8191	255	
2714.223	1	1	0	0	0.18604	0.24991	0.23732	0.28642	0.072758	0.01275	0.19868	0.26701	0.10757	0.27534	0.25111	0.28223	0.090601	0.13394	0.30476	0.3084	-1.7188	-2.8979	-2.425	-2.3354	-3.0479	-2.2792	-2.6792	-2.8292	-2.0667	-2.7646	-2.625	-2.2333	-2.9208	-2.4729	-2.5146	-3.1229	218.671	38.758	216.607	-102.921	117.139	156.484	187.876	218.952	119.543	-64.885	-54.180	161.331	-122.725	222.387	87.974	155.978	0.00074388	0.00057061	0.00016336	740.62	4.8218e-06	3.1283e-06	777.62	284.76	5.0712e-06	5.0905e-06	342.03	150.84	125.22	66.795	5.3418e-06	88.135	0.0016855	0.002398	0.00064588	804.53	2.3649e-05	2.5494e-05	847.78	312.06	2.3249e-05	2.6602e-05	376.29	166.5	138.42	73.985	2.4751e-05	97.354	173.367	-47.483	-33.477	-120.146	35.125	51.294	-120.654	-114.424	-24.594	6.897	-116.013	-111.041	-109.566	-103.961	-11.708	-106.324	-8191	255	
2714.319	1	1	0	0	0.13179	0.073048	0.10935	0.12552	0.074617	0.24845	0.10122	0.16632	0.16072	0.23273	0.18244	0.131	0.1645	0.28503	0.053951	0.34036	-1.6313	-2.7917	-2.5708	-2.1354	-2.9062	-2.4021	-2.4229	-3.2438	-2.1354	-2.7771	-2.6125	-2.4229	-3.0687	-2.4625	-2.3688	-3.1229	-12.510	-107.027	122.648	213.159	121.673	202.873	152.986	171.143	12.975	16.179	-9.280	85.472	-77.269	20.191	-93.109	100.288	0.00076435	0.00085627	0.00013718	737.93	3.1694e-06	7.2356e-06	772.09	283.83	3.9252e-06	4.3688e-06	341.91	150.25	124.89	66.823	4.6034e-06	87.733	0.0016722	0.002337	0.00064707	801.36	2.3333e-05	2.5368e-05	842.31	310.91	2.3061e-05	2.6214e-05	374.67	165.82	138.04	73.947	2.4762e-05	97.042	173.516	-64.549	-22.461	-120.042	15.863	41.871	-120.747	-114.263	-28.493	41.245	-115.988	-111.512	-109.669	-104.182	9.947	-106.787	-8191	255	
2714.440	1	1	0	0	0.11955	0.16795	0.18089	0.089692	0.16986	0.19186	0.19335	0.10792	0.15887	0.29706	0.075289	0.10456	0.2004	0.10636	0.1656	0.26367	-1.7875	-2.7771	-2.6896	-2.2313	-2.8854	-2.3271	-2.3375	-3.0521	-1.9521	-2.7958	-2.875	-2.2146	-2.9917	-2.6542	-2.1271	-3.1542	-51.052	68.464	171.522	-123.196	196.755	-34.861	38.734	155.848	-60.149	213.291	223.632	148.524	201.547	209.062	-29.202	220.614	0.00078522	0.00068654	0.00015944	737.84	2.7761e-06	7.7378e-06	773.69	283.63	4.0435e-06	5.3868e-06	341.79	149.73	124.53	66.476	4.4834e-06	87.839	0.0016799	0.0023433	0.00064427	801.09	2.2846e-05	2.5271e-05	843.38	310.95	2.2507e-05	2.5756e-05	375.33	165.73	137.94	73.615	2.4001e-05	97.115	170.592	-61.231	-46.791	-119.995	-11.156	16.544	-120.575	-114.222	-28.297	21.263	-115.684	-111.002	-109.347	-104.014	18.676	-106.539	-8191	255	
2714.536	1	1	0	0	0.20597	0.13176	0.21313	0.1248	0.30729	0.26909	0.10056	0.2013	0.096108	0.15035	0.22942	0.19626	0.32676	0.26709	0.08172	0.42167	-1.7458	-2.4521	-2.7229	-2.1521	-2.9125	-2.7687	-2.2583	-2.9792	-2.1813	-2.4375	-3.0104	-2.2083	-2.9062	-2.6604	-2.0563	-2.9833	68.615	127.411	55.425	179.241	-36.930	174.608	114.159	192.567	28.987	-62.357	-89.998	139.522	-129.149	178.930	60.183	181.605	0.00074951	0.00040298	0.00014041	737.94	3.5249e-06	6.2291e-06	781.17	284.58	3.0047e-06	7.0661e-06	343.06	150.53	125.18	66.607	3.4713e-06	88.139	0.0016437	0.002265	0.00063257	801.7	2.2565e-05	2.5233e-05	847.6	311.3	2.2189e-05	2.513e-05	376.64	166.36	138.3	73.789	2.3706e-05	97.644	172.917	-42.400	-61.369	-119.856	14.831	30.766	-120.630	-114.329	-37.885	31.625	-116.085	-111.516	-109.685	-104.287	-43.397	-106.575	-8191	255	
2714.631	1	1	0	0	0.23724	0.081435	0.17499	0.14671	0.15188	0.14262	0.13153	0.12728	0.13505	0.11758	0.10762	0.26364	0.26202	0.262	0.1301	0.28291	-1.6646	-2.2875	-2.9437	-2.1125	-2.6042	-2.5896	-2.1125	-3.0083	-2.3125	-2.2604	-2.9417	-2.1333	-2.7646	-2.8563	-1.9937	-2.9813	78.544	206.871	94.585	-75.061	61.977	-115.309	139.172	171.079	-53.410	62.538	70.402	118.587	172.014	-95.459	123.914	161.803	0.00077356	0.00047306	0.00012552	740.06	4.5726e-06	5.6572e-06	775.04	284.77	2.9524e-06	5.9704e-06	343.04	150.36	124.81	66.737	4.6616e-06	87.914	0.0016404	0.0022545	0.00063717	802.48	2.2103e-05	2.5346e-05	846.51	311.74	2.2365e-05	2.5124e-05	375.89	165.76	137.85	73.778	2.3062e-05	97.174	172.392	-55.265	-40.057	-120.158	22.562	15.928	-120.837	-114.512	-1.025	24.261	-115.808	-111.356	-109.528	-104.187	12.947	-106.746	-8191	255	
2714.727	1	1	0	0	0.18955	0.11918	0.06797	0.39674	0.20547	0.21731	0.27972	0.22164	0.22445	0.035486	0.23613	0.25438	0.17349	0.20404	0.1004	0.35013	-1.95	-2.3896	-2.85	-2.175	-2.5771	-2.6396	-2.1354	-3.0521	-2.375	-2.1562	-3.0812	-2.2667	-2.7542	-2.9437	-1.9458	-2.9625	163.054	220.697	153.669	210.433	55.788	1.336	138.862	194.639	-30.188	195.929	225.752	114.603	-103.592	-123.743	-120.900	168.512	0.00073654	0.00051786	9.5624e-05	739.05	4.6981e-06	5.0808e-06	774.03	285.08	3.0846e-06	6.2638e-06	342.23	150.25	124.62	66.667	4.8207e-06	87.652	0.0016134	0.0021797	0.0006236	801.64	2.1322e-05	2.4775e-05	843.65	311.36	2.2129e-05	2.4195e-05	375.49	165.94	137.71	73.688	2.28e-05	97.037	170.610	-43.253	-65.986	-120.083	3.677	13.010	-120.914	-114.555	-26.176	15.695	-115.983	-111.560	-109.872	-104.174	-1.851	-106.666	-8191	255	
2714.823	1	1	0	0	0.073791	0.20585	0.085609	0.12084	0.045959	0.33156	0.09154	0.42597	0.10204	0.079828	0.19571	0.26285	0.3248	0.30835	0.23493	0.32226	-2.1708	-2.1354	-2.8812	-2.2646	-2.3354	-2.9021	-2.0021	-3.0979	-2.6646	-2.1625	-3.1833	-2.3312	-2.5208	-3.0062	-2.0104	-2.9729	95.711	28.543	218.192	-82.683	226.504	196.290	-107.810	199.140	-19.459	6.232	91.955	127.162	-89.680	183.393	151.379	172.394	0.00077905	0.00058882	0.0001575	738.54	4e-06	6.8119e-06	778.22	285.32	4.097e-06	6.4808e-06	342.92	150.8	125.08	66.612	4.7686e-06	88.204	0.0016158	0.0021347	0.00060933	801.36	2.1225e-05	2.4294e-05	845.3	311.81	2.1723e-05	2.3668e-05	375.57	166.4	138.02	73.714	2.2678e-05	97.545	173.388	-36.336	-41.695	-119.944	-5.117	15.056	-120.730	-114.332	7.003	9.205	-115.809	-111.240	-109.477	-103.763	1.033	-106.506	-8191	255	
2714.919	1	1	0	0	0.13501	0.23571	0.22047	0.018774	0.10983	0.2943	0.12882	0.23969	0.17851	0.082244	0.25775	0.11528	0.16851	0.18677	0.13537	0.1474	-2.1604	-2.0958	-2.9938	-2.2812	-2.1813	-3.1708	-2.1729	-2.8187	-2.7104	-2.1437	-3.0104	-2.4354	-2.4417	-3.1021	-2.2271	-2.8688	139.851	-33.855	-70.783	-96.067	210.626	220.040	186.850	116.993	31.961	50.441	168.886	-120.528	-83.524	177.223	152.686	153.691	0.00076334	0.00053964	0.0001672	743.98	4.5829e-06	6.2117e-06	781.03	285.42	3.5256e-06	5.893e-06	346.8	151.66	125.26	66.78	1.7663e-06	88.347	0.0016101	0.0020807	0.00059288	804.6	2.0653e-05	2.4163e-05	849.3	312.34	2.15e-05	2.3131e-05	378.82	167.24	138.45	73.991	2.2378e-05	97.627	175.751	-44.023	-43.724	-119.939	-5.623	25.755	-120.613	-114.233	-7.772	21.932	-115.678	-111.203	-109.419	-103.876	51.934	-106.373	-8191	255	
2715.015	1	1	0	0	0.33669	0.1482	0.064421	0.27158	0.13739	0.097626	0.084672	0.19646	0.32976	0.1292	0.22089	0.031998	0.18293	0.27181	0.093855	0.18808	-2.2062	-2.0417	-2.9167	-2.6937	-2.2625	-2.9062	-2.2208	-2.6937	-2.9062	-2.2396	-2.9688	-2.5938	-2.2062	-3.0687	-2.1667	-2.5146	-104.852	47.199	134.939	113.244	0.326	-51.850	199.517	160.595	-66.701	-69.017	19.862	159.011	165.206	203.382	70.909	-118.838	0.00076126	0.00043783	0.00014464	740.97	4.1423e-06	6.8354e-06	778.76	284.76	4.0692e-06	4.8013e-06	344.14	150.01	124.48	66.396	2.2983e-06	87.5	0.0016011	0.0020841	0.00059317	804.55	2.0914e-05	2.4299e-05	848.18	312.13	2.1735e-05	2.3479e-05	376.21	165.63	137.56	73.465	2.3107e-05	96.678	170.693	-30.974	-34.995	-119.746	-34.185	25.114	-120.442	-114.040	-12.203	25.224	-115.543	-110.908	-109.194	-103.728	7.597	-106.190	-8191	255	
2715.136	1	1	0	0	0.079181	0.11417	0.24904	0.34985	0.013537	0.099158	0.17597	0.12922	0.23851	0.069702	0.060998	0.26188	0.28512	0.26691	0.31831	0.13886	-2.5854	-2.1479	-2.8917	-2.7854	-2.0604	-2.9437	-2.3187	-2.5125	-2.95	-1.9917	-2.7854	-2.6771	-2.2583	-3.1292	-2.2417	-2.6167	99.323	-33.667	176.541	-124.413	208.628	116.619	-99.829	-42.937	172.675	202.563	214.611	-103.166	216.713	-107.776	121.832	141.380	0.00076003	0.00053916	0.00019529	741.38	5.3546e-06	7.6942e-06	779.81	284.26	5.3281e-06	5.0536e-06	342.52	149.74	124.51	65.952	4.7365e-06	87.06	0.0016353	0.0020805	0.00059451	804.48	2.0799e-05	2.4157e-05	847.96	311.38	2.2075e-05	2.3402e-05	375.62	165.32	137.36	72.968	2.306e-05	96.483	172.603	-46.509	-47.465	-119.479	14.215	17.444	-120.859	-114.451	-15.526	32.420	-115.980	-111.466	-109.643	-103.960	-12.282	-106.549	-8191	255	
2715.232	1	1	0	0	0.2748	0.25517	0.14285	0.21458	0.25623	0.12866	0.095639	0.24811	0.22392	0.080277	0.30661	0.023547	0.16617	0.18951	0.092573	0.30406	-2.4667	-2.1562	-2.4854	-2.85	-2.0938	-2.9708	-2.5729	-2.2958	-2.9646	-2.2396	-2.7438	-2.8438	-2.0667	-2.8563	-2.2729	-2.1792	-29.404	11.957	148.595	155.906	-74.366	-45.565	-120.281	117.671	-43.469	-87.451	214.277	-32.848	-105.035	-77.431	44.822	210.247	0.00072417	0.00052087	0.00019332	743.48	4.4774e-06	6.3848e-06	777.22	285.28	2.9062e-06	7.0859e-06	344.1	150.68	125	66.357	4.8969e-06	87.784	0.0015995	0.0020548	0.00057632	805.94	2.0275e-05	2.3635e-05	849.58	311.77	2.1325e-05	2.3653e-05	376.59	166.04	137.64	73.359	2.3034e-05	97.183	172.413	-35.644	-36.000	-120.220	-2.510	17.443	-120.923	-114.421	12.351	23.522	-116.087	-111.318	-109.766	-104.191	1.164	-106.492	-8191	255	
2715.304	1	1	0	0	0.11394	0.22428	0.15284	0.29899	0.10297	0.3523	0.13676	0.22764	0.096548	0.10461	0.25767	0.15321	0.10761	0.20603	0.065246	0.078904	-2.7083	-2.0458	-2.5396	-2.775	-1.9708	-2.6271	-2.6896	-2.1625	-2.9562	-2.2625	-2.4396	-2.9104	-2.2021	-2.9979	-2.5396	-2.3333	57.368	26.213	140.905	131.459	-110.002	-55.615	215.577	-69.442	111.487	-28.075	-117.154	-121.491	136.199	198.268	-114.926	186.509	0.00074732	0.00070402	0.00016897	745.21	5.0682e-06	5.2282e-06	782.21	285.73	3.3223e-06	3.831e-06	345.83	150.63	124.33	66.388	4.5553e-06	87.813	0.001595	0.0020792	0.00058037	807.72	2.022e-05	2.3282e-05	850.28	312.17	2.142e-05	2.3723e-05	377.17	166.24	137.64	73.532	2.3468e-05	96.912	172.271	-45.140	-40.004	-120.293	15.751	13.531	-120.985	-114.549	-23.730	-9.903	-115.994	-111.472	-109.878	-104.098	-12.221	-106.690	-8191	255	
2715.400	1	1	0	0	0.23314	0.16732	0.042547	0.3011	0.21444	0.26382	0.049643	0.31472	0.10386	0.07638	0.042417	0.034096	0.30867	0.2361	0.11913	0.32167	-2.5187	-2.3396	-2.3417	-2.9583	-2.025	-2.675	-2.7083	-2.1833	-2.9542	-2.3167	-2.3771	-3.0521	-2.2146	-2.7271	-2.7604	-2.1354	93.687	-48.404	141.863	175.126	145.016	13.395	146.584	193.811	57.525	92.806	-76.533	145.947	218.718	-132.007	167.647	119.570	0.00076538	0.00040299	0.00016582	739.79	4.7916e-06	6.7564e-06	776.71	284.66	4.8883e-06	4.3801e-06	343.51	150.77	124.58	66.893	4.6858e-06	88.077	0.0015976	0.0021238	0.00057949	803.65	2.0267e-05	2.3132e-05	846.34	311.67	2.122e-05	2.3603e-05	375.96	166.13	138.01	73.838	2.2821e-05	97.319	172.272	-49.160	-36.788	-119.871	4.206	14.454	-120.956	-114.574	-28.474	-8.090	-115.837	-111.265	-109.568	-104.021	-1.489	-106.651	-8191	255	
2715.519	1	1	0	0	0.11655	0.28288	0.028749	0.20951	0.1615	0.011497	0.074374	0.2999	0.20539	0.19805	0.04947	0.19405	0.18947	0.26118	0.061453	0.33608	-2.6458	-2.5479	-2.2625	-3.3125	-2.2979	-2.7042	-3.1167	-2.3875	-2.7146	-2.5729	-2.1208	-3.1167	-2.3208	-2.5646	-3.0021	-2.1854	217.493	-69.270	178.401	180.330	-40.625	-3.007	-81.234	206.766	-117.769	-16.509	101.911	15.154	108.413	192.261	38.023	196.760	0.00075227	0.00047659	0.00016393	741.74	5.5684e-06	5.4158e-06	777.45	286.71	3.7794e-06	5.2334e-06	345.85	151.62	125.69	67.42	4.1127e-06	89.386	0.0015834	0.0021182	0.00056176	804.66	2.0207e-05	2.28e-05	847.72	313.21	2.0981e-05	2.3566e-05	377.95	167.42	138.85	74.44	2.2394e-05	98.518	172.052	-28.601	-43.680	-120.029	11.332	19.408	-120.834	-114.505	-14.353	1.305	-115.795	-111.401	-109.456	-103.932	-6.979	-106.414	-8191	255	
2715.615	1	1	0	0	0.35432	0.17846	0.29522	0.37531	0.30421	0.22231	0.086487	0.013563	0.040165	0.19202	0.189	0.18096	0.052904	0.31934	0.06674	0.08899	-2.6	-2.5333	-2.1583	-3.0229	-2.1771	-2.4854	-3.0271	-2.1521	-2.9917	-2.6792	-2.2229	-3.1958	-2.1146	-2.3479	-2.8833	-2.2667	77.671	8.984	48.523	-117.937	7.852	-62.214	111.730	-126.856	181.094	-44.408	-45.792	157.784	200.737	-116.118	139.448	175.398	0.0007807	0.00051935	0.00018655	739.84	4.6214e-06	4.5375e-06	779.6	286.19	4.106e-06	5.1319e-06	347.51	152.77	125.88	67.537	3.9952e-06	89.305	0.0015565	0.0020858	0.00055543	804	2.0276e-05	2.2471e-05	849.54	313.55	2.0301e-05	2.3477e-05	379.87	168.42	139.19	74.702	2.2653e-05	98.63	174.924	-21.424	-30.145	-120.084	15.292	32.808	-120.829	-114.324	2.601	18.749	-115.783	-111.137	-109.710	-103.957	1.932	-106.374	-8191	255	
2715.711	1	1	0	0	0.09176	0.11729	0.17734	0.26569	0.16119	0.093593	0.28568	0.20592	0.15627	0.19723	0.27269	0.073448	0.1447	0.32151	0.070952	0.083225	-2.3792	-2.6417	-2.0333	-3.1229	-2.4979	-2.2646	-3.0104	-2.2333	-2.65	-2.9333	-2.0167	-2.9375	-2.6813	-2.2229	-2.9437	-2.3229	-106.824	39.427	56.815	165.529	-30.555	180.717	173.917	120.791	24.540	-30.967	-115.265	141.281	179.526	141.683	163.904	-99.601	0.0007587	0.000498	0.00015489	738.76	5.5405e-06	5.3736e-06	776.47	285.71	5.1891e-06	4.0146e-06	344.07	151.86	125.78	67.337	3.8616e-06	89.073	0.0015219	0.0020596	0.00055054	801.89	2.0465e-05	2.2308e-05	846.94	312.91	2.0425e-05	2.3381e-05	377.3	167.22	138.64	74.454	2.2082e-05	98.269	173.322	-33.520	-34.092	-119.765	16.097	28.045	-120.893	-114.468	-20.757	22.798	-115.989	-111.258	-109.526	-103.447	2.610	-106.250	-8191	255	
2715.807	1	1	0	0	0.15698	0.077274	0.17571	0.12926	0.13547	0.026985	0.24134	0.40809	0.11031	0.119	0.12855	0.02809	0.26579	0.13768	0.20248	0.4152	-2.1437	-2.7146	-2.2354	-2.85	-2.5958	-2.1437	-3.0687	-2.5271	-2.3917	-2.95	-2.2792	-2.9771	-2.7125	-2.4208	-2.9771	-2.5438	-115.798	27.335	219.179	-129.217	-31.442	-86.295	130.881	-124.060	-62.535	-67.441	202.048	-54.964	167.243	-60.670	-20.415	190.131	0.00080032	0.00050811	0.00016428	735.06	4.6926e-06	7.3531e-06	777.39	285.3	3.1198e-06	6.9782e-06	344.89	152.2	125.71	67.747	4.4459e-06	89.589	0.0015198	0.0021115	0.00054819	797.9	2.0527e-05	2.2319e-05	846.52	312.49	2.01e-05	2.3401e-05	377.8	167.72	138.81	74.72	2.2024e-05	98.796	172.025	-55.310	-48.964	-119.523	1.769	20.360	-120.435	-113.999	-11.368	7.002	-115.325	-111.082	-109.326	-103.498	1.738	-105.957	-8191	255	
2715.928	1	1	0	0	0.16701	0.21948	0.18762	0.22953	0.19361	0.21507	0.043951	0.19133	0.11443	0.14387	0.2402	0.14093	0.094542	0.17381	0.2424	0.079411	-2.0792	-2.7812	-2.1854	-2.8229	-2.5521	-2.2125	-3.1458	-2.4667	-2.2479	-2.9979	-2.1729	-2.6	-3.0312	-2.1771	-2.9625	-2.6958	32.624	83.568	-75.687	-36.969	-85.179	-16.423	206.722	48.665	38.361	75.694	197.743	217.404	-111.367	162.549	-30.144	226.023	0.0007921	0.00054399	0.00016185	737.73	5.5608e-06	6.4226e-06	774.58	286.2	4.9305e-06	6.7869e-06	347.48	153.02	126.05	67.597	4.6622e-06	89.969	0.001536	0.0020753	0.00055069	797.08	2.0388e-05	2.1983e-05	847.93	313.46	2.0146e-05	2.3045e-05	379.85	168.93	139.53	75.168	2.1921e-05	99.811	173.517	-61.561	-46.854	-119.337	-15.519	18.243	-119.207	-113.998	-19.610	39.764	-114.926	-110.037	-108.389	-102.581	-11.189	-105.293	-8191	255	
2715.999	1	1	0	0	0.23347	0.12407	0.16458	0.21879	0.035826	0.21225	0.14524	0.2082	0.20736	0.11384	0.12922	0.25521	0.20457	0.14379	0.19476	0.31614	-1.9604	-3.1063	-2.2958	-2.8458	-2.7375	-2.2812	-3.1312	-2.6479	-2.3	-3.0938	-2.2854	-2.5187	-3.0042	-2.2417	-3.0042	-2.4625	201.247	172.489	-121.288	198.732	23.177	-130.492	220.867	180.343	88.024	-105.930	226.288	-113.889	192.304	160.428	204.316	98.788	0.00080308	0.00051682	0.0001486	734.6	4.2779e-06	9.6988e-06	774.21	284.49	5.0807e-06	5.7878e-06	345.1	152.49	125.91	67.204	5.3873e-06	90.287	0.0015327	0.0020335	0.0005533	798.35	2.031e-05	2.2126e-05	848.76	313.82	2.012e-05	2.3196e-05	379.75	169.06	139.72	75.269	2.2038e-05	99.674	171.242	-46.886	-35.002	-118.487	13.801	15.960	-119.134	-112.978	-40.418	18.806	-114.410	-109.654	-108.234	-102.297	-23.232	-105.910	-8191	255	
2716.120	1	1	0	0	0.050453	0.2981	0.20562	0.147	0.1567	0.12512	0.067159	0.23902	0.22243	0.18346	0.10529	0.13802	0.077801	0.27798	0.29646	0.095816	-1.725	-2.8438	-2.0792	-2.5146	-2.9125	-2.0479	-2.9979	-2.6312	-2.3146	-2.9896	-2.5583	-2.6479	-3.0146	-2.3417	-2.675	-2.8479	49.989	-59.924	-12.137	-75.293	137.573	-88.273	-2.104	-109.575	167.206	204.225	-45.873	201.255	-3.527	180.222	-41.920	-28.626	0.00077617	0.00055485	0.00017236	730.5	3.1798e-06	4.7634e-06	771.69	283.61	3.7739e-06	6.6448e-06	342.93	151.75	125.93	67.881	3.2935e-06	89.888	0.0015368	0.0020895	0.00057093	795.08	2.0678e-05	2.2732e-05	843.9	312.57	2.0469e-05	2.3616e-05	378.16	168.92	139.62	75.482	2.239e-05	99.939	171.932	-48.361	-64.580	-118.332	6.801	11.419	-119.472	-112.900	-29.144	11.856	-114.390	-109.470	-108.105	-102.626	-9.623	-105.372	-8191	255	
2716.216	1	1	0	0	0.22815	0.15678	0.31774	0.16388	0.22488	0.30983	0.21448	0.31044	0.17963	0.22925	0.28643	0.14374	0.16766	0.18217	0.28992	0.025159	-1.725	-2.9021	-2.2583	-2.6646	-2.9146	-2.0833	-2.7958	-3.0021	-2.1667	-2.9667	-2.4708	-2.4292	-2.9417	-2.4021	-2.5563	-3.0833	104.581	-130.223	94.327	181.076	-95.656	48.611	167.244	-119.396	215.150	-21.867	135.746	-61.495	-73.766	163.067	10.013	158.122	0.00079169	0.00060349	0.0001228	729.37	6.3344e-06	4.4805e-06	775.91	286.08	4.2881e-06	6.759e-06	343.39	153.46	126.39	68.379	3.8174e-06	90.675	0.0015397	0.0020579	0.00058667	793.18	2.0805e-05	2.3105e-05	843.92	312.96	2.0184e-05	2.326e-05	378.86	169.75	140.33	75.854	2.1863e-05	100.65	172.444	-36.425	-47.090	-118.559	0.104	36.871	-119.574	-113.275	-21.038	38.650	-114.697	-109.800	-108.354	-102.789	-3.232	-105.345	-8191	255	
2716.312	1	1	0	0	0.15733	0.22019	0.038584	0.067593	0.057201	0.11262	0.18257	0.25722	0.074041	0.090967	0.054979	0.23259	0.10278	0.050158	0.18923	0.028018	-1.7354	-2.8708	-2.6042	-2.3063	-3.1271	-2.0479	-2.6854	-3.0812	-1.9708	-2.7562	-2.7083	-2.2583	-3.025	-2.2938	-2.5354	-3.0563	83.153	-113.498	67.550	224.796	15.420	163.348	128.024	-119.178	-108.942	86.776	151.901	-112.628	221.595	138.446	-57.191	120.758	0.00077123	0.00071724	0.00016152	727.53	3.5118e-06	9.7057e-06	772.01	286.01	3.5459e-06	7.1931e-06	348.62	155.05	127.34	68.892	4.6948e-06	91.566	0.0015396	0.0020442	0.00057959	792.06	2.039e-05	2.3583e-05	844.79	313.52	2.0211e-05	2.3463e-05	381.09	170.94	140.77	76.255	2.1427e-05	101.17	171.765	-40.162	-34.798	-118.460	11.640	13.806	-119.524	-113.082	-20.217	25.072	-114.873	-110.080	-108.364	-102.859	-16.199	-105.432	-8191	255	
2716.408	1	1	0	0	0.29552	0.1293	0.17634	0.066585	0.33526	0.1273	0.42854	0.23559	0.16792	0.21443	0.27994	0.10087	0.24729	0.21454	0.17642	0.41189	-1.8646	-2.9062	-2.5458	-2.2958	-3.0146	-2.4083	-2.6104	-3.1312	-2.1833	-2.7292	-2.7896	-2.2792	-2.9771	-2.3875	-2.4417	-3.2354	200.353	121.539	4.918	29.539	192.095	83.657	167.535	-30.318	80.272	48.382	164.266	223.004	201.202	-85.976	206.897	-129.431	0.00076731	0.00040673	0.00016381	727.65	3.3164e-06	4.9205e-06	767.59	283.14	3.6585e-06	4.8213e-06	343.83	152.24	125.95	68.316	4.9547e-06	90.563	0.0015583	0.0020497	0.0005863	791.62	2.0265e-05	2.3488e-05	841.36	312.31	2.0677e-05	2.2885e-05	378.7	169.37	140.03	75.954	2.1574e-05	100.59	173.211	-39.445	-38.423	-118.466	-21.906	30.030	-119.159	-112.776	-6.328	29.738	-114.359	-109.819	-108.114	-102.631	-5.021	-105.251	-8191	255	
2716.527	1	1	0	0	0.17563	0.039489	0.14745	0.2121	0.28394	0.22794	0.058645	0.42606	0.16403	0.15724	0.088417	0.22552	0.19961	0.35078	0.037925	0.23526	-1.7792	-2.6646	-2.6417	-2.1188	-3.0958	-2.3104	-2.5146	-3.2646	-2.0729	-2.7229	-2.9292	-2.2271	-2.9479	-2.5187	-2.2833	-3.2333	165.742	75.832	48.262	162.173	-22.820	109.671	196.262	159.972	172.893	-33.990	-95.685	223.927	173.402	176.367	112.555	94.779	0.00076696	0.00073169	0.00015207	724.19	4.5345e-06	6.9365e-06	773.64	285.69	4.727e-06	7.0902e-06	346.18	153.99	127.18	68.944	4.8204e-06	91.412	0.0015788	0.0020281	0.0005935	789.34	2.0737e-05	2.3812e-05	841.9	312.59	2.11e-05	2.3323e-05	379.23	169.99	140.43	76.276	2.1813e-05	101.16	175.614	-30.725	-50.603	-118.698	4.873	15.748	-119.638	-113.383	-17.951	34.518	-114.907	-110.735	-109.180	-103.847	-25.362	-106.386	-8191	255	
2716.599	1	1	0	0	0.26817	0.027449	0.25031	0.27106	0.12983	0.10638	0.17999	0.13743	0.16883	0.13724	0.12547	0.11312	0.21331	0.19473	0.11015	0.13897	-1.7687	-2.4813	-2.8	-2.1104	-2.8312	-2.6229	-2.3354	-2.9458	-2.1771	-2.6646	-2.9542	-2.2333	-3.0062	-2.7583	-2.1396	-3.2542	57.389	139.057	195.106	165.454	-19.994	-4.476	191.557	-62.871	-114.752	-90.146	111.817	-48.265	211.158	160.050	102.057	198.953	0.00079732	0.00049983	0.0001813	730.76	4.2098e-06	5.8836e-06	771.54	286.5	2.4083e-06	4.3108e-06	348.1	154.73	127.32	69.437	3.4578e-06	92.091	0.0016183	0.0020677	0.00059887	791.08	2.0506e-05	2.3776e-05	842.57	312.9	2.1778e-05	2.3064e-05	380.65	170.81	140.93	76.668	2.2022e-05	101.88	172.384	-47.051	-37.604	-119.883	0.190	29.290	-120.507	-114.325	-34.633	23.967	-115.841	-111.059	-109.495	-104.128	8.183	-106.423	-8191	255	
2716.695	1	1	0	0	0.23148	0.080029	0.20876	0.090784	0.085744	0.035429	0.23377	0.1793	0.12005	0.29249	0.17646	0.10985	0.070393	0.38292	0.032794	0.48162	-1.9042	-2.5917	-2.8646	-2.275	-2.8354	-2.5979	-2.3521	-3.0958	-2.4083	-2.2896	-2.9229	-2.25	-2.9688	-2.7562	-2.1146	-2.9604	184.301	119.631	26.310	86.883	39.448	-3.239	-78.229	-121.882	44.274	158.232	-99.548	-4.002	208.145	-124.239	139.792	191.467	0.00078922	0.00067259	0.00018825	731.13	4.0588e-06	7.3461e-06	778.72	287.99	4.656e-06	6.6187e-06	346.62	154.56	127.67	69.222	4.01e-06	91.815	0.0016226	0.0020436	0.00058667	791.76	2.0405e-05	2.3828e-05	844.36	313.66	2.1666e-05	2.3004e-05	380.23	170.58	140.82	76.516	2.2068e-05	101.47	174.595	-59.559	-53.127	-120.126	6.681	13.815	-120.851	-114.452	-39.276	35.683	-115.667	-111.412	-109.526	-104.211	-10.852	-106.941	-8191	255	
2716.791	1	1	0	0	0.20412	0.19893	0.21449	0.13709	0.13658	0.17655	0.070112	0.24712	0.095812	0.015017	0.1882	0.33137	0.23743	0.22608	0.082954	0.30285	-1.9229	-2.3312	-2.9646	-2.3729	-2.7354	-2.9417	-2.1958	-2.8667	-2.3958	-2.3667	-3.1146	-2.3458	-2.7167	-3.0083	-2.0687	-3.0354	-85.780	188.874	91.250	-85.520	174.830	37.683	84.173	150.546	9.273	209.936	124.451	190.650	-128.963	211.789	133.886	139.184	0.0007644	0.00068152	0.00010717	728.63	4.9627e-06	6.3613e-06	770.16	284.69	4.8334e-06	6.4092e-06	345.81	154.04	127.05	68.935	6.0074e-06	91.404	0.0016112	0.0020702	0.00058092	789.96	2.0486e-05	2.3868e-05	839.59	312.18	2.1439e-05	2.2995e-05	379.12	169.92	140.28	76.322	2.2443e-05	101.19	172.814	-36.201	-50.215	-119.867	-2.274	4.817	-121.040	-114.364	-26.489	2.454	-115.928	-111.502	-109.694	-104.228	11.155	-106.845	-8191	255	
2716.912	1	1	0	0	0.04199	0.11927	0.11003	0.28839	0.2018	0.39897	0.22687	0.26975	0.094988	0.048806	0.20674	0.089214	0.21922	0.16798	0.051519	0.10946	-2.2292	-2.1792	-2.9125	-2.2042	-2.4292	-2.8021	-2.2562	-2.9667	-2.6146	-2.2021	-3.1479	-2.2687	-2.3937	-2.9979	-2.1167	-2.825	-103.400	80.129	88.344	191.443	224.075	190.431	163.727	215.325	-38.348	31.166	-62.888	189.080	203.349	201.188	139.533	96.606	0.00080294	0.00044322	0.00011736	728.46	6.313e-06	7.2095e-06	768.89	284.56	4.3406e-06	5.1565e-06	346.82	154.41	126.92	69.289	3.7166e-06	92.269	0.001602	0.0020622	0.00057882	790.28	2.054e-05	2.3603e-05	839.04	312.44	2.156e-05	2.2968e-05	379.97	170.56	140.54	76.595	2.2762e-05	101.87	174.707	-44.151	-49.118	-120.111	7.323	-2.686	-120.881	-114.400	-31.391	13.453	-116.081	-111.310	-109.624	-104.475	-16.109	-106.757	-8191	255	
2717.008	1	1	0	0	0.45847	0.47252	0.16702	0.31641	0.066146	0.15911	0.1085	0.26232	0.062172	0.24606	0.35908	0.078081	0.24822	0.26469	0.23326	0.17452	-2.1458	-2.1396	-2.8604	-2.3688	-2.3833	-2.8917	-2.1	-2.7708	-2.8333	-2.125	-3.0833	-2.5125	-2.2167	-3.0792	-2.1458	-2.8812	-18.938	69.470	212.084	154.086	170.007	185.350	58.781	187.519	124.866	17.082	166.688	-121.805	221.089	222.417	138.023	211.530	0.00082909	0.00069464	0.00013558	728.41	3.6081e-06	5.2319e-06	774.36	285.75	5.0526e-06	7.3348e-06	349.09	155.22	127.81	69.526	4.5136e-06	92.86	0.0016196	0.0020263	0.00056949	790.4	2.0127e-05	2.3141e-05	843.45	313.49	2.1674e-05	2.271e-05	382.22	171.58	141.27	77.063	2.2885e-05	102.59	173.620	-42.626	-19.533	-119.841	3.983	24.104	-120.914	-114.282	-4.051	9.384	-115.819	-111.296	-109.581	-104.197	-16.999	-106.697	-8191	255	
2717.104	1	1	0	0	0.10945	0.096303	0.14069	0.095947	0.015819	0.2987	0.16268	0.083379	0.099369	0.33883	0.041468	0.096673	0.16517	0.20609	0.27741	0.30636	-2.3583	-1.9937	-2.9021	-2.6667	-2.1896	-3.1042	-2.3438	-2.4437	-2.9917	-1.7958	-3.0417	-2.6271	-2.275	-3.3021	-2.1688	-2.6292	-15.749	-10.011	164.193	-116.891	112.103	168.414	117.794	199.174	-122.217	140.965	223.583	-86.692	227.018	214.017	-120.693	-100.225	0.00078944	0.00069534	0.0001742	730.25	6.5304e-06	3.2145e-06	771.56	286.53	4.5937e-06	5.1424e-06	346.9	154.24	127.42	69.263	4.7497e-06	91.839	0.0016214	0.0020677	0.0005768	791.97	2.0354e-05	2.3626e-05	842.09	313.54	2.1719e-05	2.3422e-05	380.2	170.66	140.85	76.749	2.3323e-05	101.59	174.676	-17.813	-40.692	-120.301	7.112	20.785	-120.811	-114.278	-13.278	34.966	-115.802	-111.285	-109.842	-104.164	-10.958	-106.820	-8191	255	
2717.200	1	1	0	0	0.034876	0.11374	0.13237	0.32118	0.2277	0.19543	0.24651	0.22921	0.039016	0.16897	0.29926	0.19365	0.096253	0.37878	0.19461	0.2167	-2.4813	-2.1312	-2.7792	-2.6292	-2.2771	-2.9979	-2.3104	-2.5625	-2.9146	-2.1646	-2.95	-2.7687	-2.1104	-3.025	-2.3104	-2.6792	-25.353	-121.266	-39.269	-58.167	141.120	213.743	155.170	-120.378	211.503	-101.571	216.131	212.365	-129.224	189.440	128.735	195.699	0.00081619	0.00057491	0.00018732	725.06	2.9785e-06	4.1804e-06	771	285.09	3.4442e-06	5.743e-06	347.02	153.76	127.53	69.1	4.9455e-06	91.752	0.0016163	0.0021088	0.00057481	789	2.0494e-05	2.355e-05	841.02	312.66	2.15e-05	2.4024e-05	380.01	170.25	140.48	76.464	2.3597e-05	101.49	172.865	-58.385	-15.116	-120.066	-4.958	23.989	-120.970	-114.242	-10.118	24.597	-115.740	-111.380	-109.621	-104.142	5.428	-106.749	-8191	255	
2717.295	1	1	0	0	0.096879	0.22425	0.17926	0.038475	0.18486	0.051914	0.21967	0.22025	0.028995	0.12982	0.07723	0.26369	0.21125	0.23529	0.12511	0.27945	-2.6271	-2.1354	-2.7708	-2.7729	-2.0604	-2.9333	-2.4938	-2.475	-2.9917	-2.2375	-2.7583	-3.0208	-2.2188	-3.1063	-2.4562	-2.5812	77.099	93.746	85.808	43.089	-32.804	18.832	146.263	187.784	-106.903	-127.537	208.010	145.791	-94.180	148.447	197.547	183.426	0.00078239	0.00075201	0.00012227	725.14	3.4943e-06	6.6625e-06	772.97	286.08	5.3555e-06	6.9611e-06	348.08	154.62	127.24	69.08	4.0619e-06	92.016	0.0016019	0.0021526	0.0005778	788.79	2.0691e-05	2.3255e-05	841.91	312.64	2.1645e-05	2.4516e-05	380.67	170.75	140.54	76.409	2.3737e-05	101.62	173.595	-45.921	-27.388	-119.972	-11.096	32.181	-120.865	-114.410	8.428	11.626	-115.708	-111.423	-109.564	-104.215	11.211	-106.759	-8191	255	
2717.391	1	1	0	0	0.13074	0.064075	0.029477	0.11205	0.21959	0.21098	0.2776	0.26028	0.083879	0.054582	0.074623	0.23348	0.1883	0.23629	0.057789	0.15382	-2.7375	-2.0604	-2.6083	-2.9917	-2.0875	-2.9021	-2.7104	-2.2229	-3.0146	-2.4479	-2.5729	-3.0187	-2.2375	-3.0146	-2.6333	-2.3958	-8.110	217.342	-58.725	-112.515	149.321	-72.360	94.604	180.229	120.113	118.922	195.240	159.707	-128.886	-131.053	-102.294	38.703	0.00080559	0.00052076	0.00015932	727.75	2.9509e-06	4.5515e-06	774.28	286.31	3.0628e-06	6.6114e-06	347.25	154.84	126.97	68.7	4.257e-06	91.332	0.0016236	0.002197	0.00057731	790.3	2.0972e-05	2.4159e-05	844.4	313.33	2.2135e-05	2.527e-05	380.75	170.56	140.28	76.124	2.4044e-05	101.05	173.930	-48.988	-33.492	-120.108	19.223	19.821	-120.897	-114.479	-5.130	10.030	-115.788	-111.469	-109.667	-103.971	-13.916	-106.667	-8191	255	
2717.487	1	1	0	0	0.11049	0.11647	0.10857	0.13776	0.10483	0.12491	0.19076	0.22302	0.042208	0.076825	0.13028	0.36047	0.16524	0.15615	0.10278	0.20144	-2.7146	-2.3271	-2.4021	-3.0896	-2.0979	-2.8146	-2.75	-2.2146	-2.9938	-2.4667	-2.5812	-3.2188	-2.0646	-2.9437	-2.8187	-2.2208	-24.157	-59.992	-112.713	-34.095	128.987	194.831	194.921	97.276	48.868	-61.729	-96.299	210.001	178.949	196.519	144.127	224.283	0.00078693	0.00063285	0.00018456	725.94	4.2277e-06	4.227e-06	769.78	285.1	4.9534e-06	6.6461e-06	345.98	152.77	125.91	68.544	5.6157e-06	91.122	0.0016331	0.0022602	0.00059084	789.27	2.1725e-05	2.4495e-05	840.49	311.55	2.1976e-05	2.5308e-05	378.16	169.01	139.57	75.832	2.4209e-05	100.5	172.634	-48.651	-42.375	-120.235	0.656	13.183	-120.835	-114.462	2.117	19.481	-115.758	-111.368	-109.598	-104.178	9.163	-106.791	-8191	255	
2717.608	1	1	0	0	0.10646	0.11287	0.23491	0.11509	0.15961	0.043215	0.20691	0.1461	0.14328	0.1398	0.3623	0.33297	0.051387	0.38318	0.13404	0.11051	-2.5396	-2.3771	-2.1937	-2.9062	-2.0604	-2.7125	-3.0104	-2.2333	-2.9521	-2.4125	-2.4417	-3.1083	-2.2917	-2.8229	-2.8875	-2.2375	102.402	191.193	24.354	167.894	190.072	-104.521	197.299	217.871	-90.233	53.150	-109.550	184.404	88.530	-120.940	-15.383	-127.671	0.0007777	0.00056174	0.0001076	727.63	5.2296e-06	5.6169e-06	772.21	284.3	4.5387e-06	5.0036e-06	345.7	153.42	126.67	68.524	3.4601e-06	91.201	0.0016094	0.0022275	0.00058448	789.29	2.1863e-05	2.3459e-05	839.87	311.48	2.1417e-05	2.493e-05	378.45	169.56	139.76	75.911	2.3019e-05	100.85	171.150	-39.499	-23.960	-120.077	4.121	26.958	-121.055	-114.337	-16.410	26.436	-115.855	-111.305	-109.689	-104.205	-16.176	-106.822	-8191	255	
2717.704	1	1	0	0	0.29202	0.11825	0.032769	0.086099	0.16488	0.14671	0.15108	0.19307	0.18107	0.24541	0.2037	0.10877	0.41038	0.070793	0.13392	0.37374	-2.5292	-2.4958	-2.0187	-3.1562	-2.4667	-2.6583	-3.2313	-2.0938	-2.8083	-2.5833	-2.2021	-3.0458	-2.275	-2.6646	-2.9	-2.4688	152.479	22.567	-97.086	-28.873	214.583	160.938	161.424	207.421	2.621	101.757	112.717	30.369	209.201	124.213	-49.986	133.557	0.00077689	0.00055864	0.00012519	729.08	4.4893e-06	6.5178e-06	773.73	284.81	4.2448e-06	5.8414e-06	348.14	154.48	126.69	68.783	5.256e-06	91.756	0.0016011	0.0021937	0.0005787	789.97	2.1662e-05	2.3171e-05	842.14	312.03	2.056e-05	2.4286e-05	380.84	170.52	140.18	76.153	2.2616e-05	101.48	170.940	-45.838	-29.297	-120.045	12.255	9.754	-120.864	-114.489	-30.537	29.266	-115.948	-111.446	-109.885	-104.211	0.930	-106.766	-8191	255	
2717.800	1	1	0	0	0.28902	0.24695	0.12141	0.08285	0.10378	0.31715	0.11692	0.33995	0.19514	0.16715	0.030789	0.24547	0.20702	0.37972	0.084406	0.11508	-2.375	-2.5479	-2.1646	-2.9875	-2.3896	-2.4042	-3.1792	-2.325	-2.7	-2.7229	-2.2687	-3.0729	-2.4854	-2.5271	-3.0146	-2.5583	-15.601	207.786	80.520	-45.909	188.186	96.304	74.953	169.728	210.847	-18.725	166.099	159.710	-77.616	175.365	-26.844	123.481	0.00078016	0.00054851	0.00017857	731.11	3.4389e-06	5.7398e-06	773.7	285.81	5.2215e-06	6.7895e-06	345.48	154.04	126.77	68.986	4.1317e-06	91.688	0.001552	0.0021407	0.00056052	792.71	2.0988e-05	2.2377e-05	843.88	312.57	2.0459e-05	2.3935e-05	379.79	170.18	140.06	76.259	2.2267e-05	101.27	169.414	-66.154	-43.552	-120.124	-4.404	4.370	-121.086	-114.560	-6.914	10.792	-116.023	-111.322	-109.778	-104.190	2.634	-106.857	-8191	255	
2717.896	1	1	0	0	0.21768	0.24139	0.16602	0.15143	0.10832	0.14092	0.33778	0.10916	0.15933	0.13615	0.21512	0.099529	0.22058	0.21211	0.16592	0.17633	-2.4813	-2.7812	-2.1813	-2.9229	-2.4958	-2.2458	-3.1688	-2.375	-2.6542	-2.9708	-2.1729	-3.1229	-2.7792	-2.3521	-3.1063	-2.3792	-89.809	-57.897	213.540	185.145	164.257	143.088	160.015	152.412	-4.326	15.144	180.868	9.488	167.846	159.339	50.241	-129.801	0.00081081	0.00064002	0.00015565	730.27	4.528e-06	4.8566e-06	774.12	285.39	4.048e-06	5.3011e-06	343.77	154.38	126.78	68.928	3.6656e-06	91.73	0.0015705	0.002111	0.00058799	791.89	2.1383e-05	2.2905e-05	842.61	312.34	2.0971e-05	2.4211e-05	378.48	170.16	140.22	76.276	2.2577e-05	101.49	171.958	-39.274	-47.353	-120.113	-10.783	4.316	-120.944	-114.463	12.008	20.051	-115.894	-111.451	-109.867	-104.363	-11.787	-106.877	-8191	255	
2717.991	1	1	0	0	0.2819	0.19985	0.010881	0.24215	0.23458	0.20958	0.089107	0.16701	0.29834	0.134	0.17719	0.17914	0.11565	0.20808	0.22171	0.12961	-2.1583	-3.0458	-1.9896	-3.0167	-2.6958	-2.3208	-3.0125	-2.5542	-2.55	-3.0187	-2.1792	-2.8812	-2.8312	-2.325	-2.8792	-2.3708	-65.023	148.999	109.540	205.272	125.576	-118.237	222.897	161.961	196.778	105.737	116.064	148.615	-115.482	210.455	157.865	156.592	0.00079574	0.00068536	0.00017119	727.16	4.0507e-06	7.9552e-06	775.38	285.27	4.6476e-06	6.3746e-06	346.95	154.01	127.2	69.298	6.038e-06	92.214	0.0015683	0.0021034	0.00059807	791.65	2.1329e-05	2.3039e-05	844.08	312.3	2.082e-05	2.3667e-05	380.57	170.2	140.29	76.473	2.2382e-05	101.81	171.574	-42.202	-30.138	-120.013	18.025	9.844	-120.843	-114.511	-8.055	11.732	-115.923	-111.301	-109.868	-104.268	-11.285	-106.858	-8191	255	
2718.088	1	1	0	0	0.11518	0.11286	0.20337	0.16279	0.021703	0.28066	0.11472	0.0998	0.23452	0.070643	0.078877	0.30028	0.0059955	0.026388	0.20037	0.21373	-1.925	-2.9417	-1.9479	-2.8354	-2.6146	-2.1771	-3.0187	-2.4875	-2.1979	-2.8708	-2.2188	-2.6437	-2.8708	-2.2875	-2.9375	-2.6125	187.262	38.420	-1.031	-56.555	189.144	193.024	208.705	71.116	140.008	-116.688	171.482	179.964	-40.739	-88.081	-21.920	99.652	0.000826	0.00069799	0.00016707	731.77	3.6748e-06	5.0801e-06	777.7	286.3	4.0171e-06	6.0535e-06	348.16	154.85	127.46	69.046	4.5055e-06	91.876	0.0015531	0.0020901	0.00059207	791.62	2.0886e-05	2.3093e-05	845.25	313.61	2.0283e-05	2.3434e-05	381.12	170.73	140.64	76.479	2.2412e-05	101.56	170.493	-37.863	-41.889	-120.037	-9.836	53.227	-120.808	-114.637	-14.108	24.054	-115.892	-111.339	-109.799	-104.470	4.234	-106.927	-8191	255	
2718.207	1	1	0	0	0.097897	0.11312	0.40145	0.37895	0.26317	0.16017	0.13025	0.16356	0.11017	0.10904	0.070144	0.10531	0.011861	0.25895	0.075145	0.26058	-1.7333	-3.0229	-2.1792	-2.4958	-2.9229	-2.1437	-3.0312	-2.6437	-2.1625	-3.0438	-2.2375	-2.5854	-3.025	-2.25	-2.9188	-2.6854	48.148	-49.664	152.400	175.521	19.070	-45.619	143.667	182.551	42.991	180.063	-131.072	169.499	78.803	221.840	6.583	161.187	0.00079937	0.00036734	0.00018059	732.55	3.5465e-06	6.4051e-06	771.58	285.41	3.6062e-06	4.7632e-06	345.94	152.79	126.56	68.551	3.6826e-06	91.108	0.0015508	0.0020685	0.00059904	791.7	2.0701e-05	2.3556e-05	841.9	312.03	2.083e-05	2.3688e-05	378.61	169.18	139.54	75.921	2.2146e-05	100.87	172.835	-76.222	-33.840	-120.096	4.324	1.832	-120.930	-114.524	-27.844	30.672	-115.982	-111.364	-109.823	-104.328	18.363	-106.794	-8191	255	
2718.303	1	1	0	0	0.30069	0.18988	0.074629	0.14792	0.15055	0.19323	0.11789	0.18622	0.18889	0.095564	0.068374	0.22083	0.21184	0.10028	0.06275	0.090954	-1.7958	-3.1	-2.3771	-2.5146	-2.9396	-2.0062	-2.7083	-2.6813	-1.9854	-2.8792	-2.5062	-2.4813	-3	-2.3688	-2.8083	-2.8	-111.283	80.064	125.963	-124.139	207.656	-7.585	-19.233	-56.947	92.903	51.684	-66.577	214.776	215.019	159.751	71.308	216.268	0.00081559	0.00038839	0.00017635	729.01	5.9203e-06	6.2726e-06	773.83	283.95	3.7489e-06	5.1933e-06	344.47	153.88	126.33	68.714	4.452e-06	91.728	0.0015878	0.0020581	0.00060377	790.7	2.0642e-05	2.3888e-05	841.86	311.3	2.1245e-05	2.3578e-05	378.79	169.56	139.52	75.959	2.2223e-05	101.19	171.298	-45.916	-39.577	-120.044	14.116	33.231	-120.875	-114.569	1.065	23.720	-116.069	-111.352	-109.864	-104.361	-4.885	-106.802	-8191	255	
2718.400	1	1	0	0	0.27428	0.14207	0.36555	0.32582	0.19263	0.29259	0.29457	0.16693	0.044547	0.30123	0.13952	0.059181	0.21977	0.09137	0.26887	0.43659	-1.7687	-2.8729	-2.4938	-2.3854	-2.9938	-2.2208	-2.7438	-2.8958	-1.9208	-2.7896	-2.5583	-2.2292	-3.0187	-2.3854	-2.4396	-2.9688	62.187	53.526	175.514	188.441	-81.388	2.836	132.931	98.894	198.387	-77.110	159.850	-58.322	192.623	19.319	64.594	163.958	0.00082449	0.00056804	0.00015727	728	3.9234e-06	7.9116e-06	773.28	285.43	5.4856e-06	6.8786e-06	346.87	154.55	127.1	68.966	3.8692e-06	92.043	0.0016119	0.002029	0.00059591	790.73	2.0307e-05	2.3732e-05	842.85	312.41	2.1194e-05	2.2721e-05	379.74	170.3	140.1	76.26	2.2269e-05	101.81	171.782	-39.216	-46.146	-120.028	-0.325	24.916	-120.760	-114.601	-28.504	29.914	-116.004	-111.578	-109.872	-104.373	14.405	-106.731	-8191	255	
2718.471	1	1	0	0	0.19138	0.29603	0.086871	0.18452	0.085617	0.3231	0.17446	0.13162	0.25665	0.068884	0.28487	0.29494	0.26596	0.36978	0.092929	0.20627	-1.5917	-2.8146	-2.5771	-2.0542	-2.8563	-2.1437	-2.4562	-2.8854	-2.0104	-2.7833	-2.6021	-2.1542	-2.9833	-2.4854	-2.4229	-3.0396	226.519	-78.015	-46.806	-129.674	221.393	69.215	197.816	159.019	-48.999	-93.256	189.801	-129.889	159.919	-115.508	117.585	156.474	0.00081958	0.00058245	0.00012892	730.67	3.7915e-06	7.2748e-06	774.66	284.65	4.7226e-06	6.1993e-06	346.09	153.43	126.3	68.639	4.5392e-06	91.239	0.0015918	0.002035	0.00058852	792.75	2.0475e-05	2.399e-05	843.69	311.92	2.1608e-05	2.3111e-05	379.04	169.56	139.46	76.012	2.2091e-05	101.11	173.983	-38.751	-21.773	-119.864	13.294	-3.553	-120.695	-114.620	-2.150	41.975	-116.067	-111.475	-110.000	-104.364	-4.345	-106.846	-8191	255	
2718.592	1	1	0	0	0.10208	0.14274	0.22151	0.62078	0.29887	0.059609	0.23112	0.26321	0.25689	0.067932	0.15498	0.2299	0.38509	0.34578	0.24972	0.09773	-1.6333	-2.5438	-2.6063	-2.0354	-2.9062	-2.2958	-2.2833	-3.0271	-2.0875	-2.6792	-2.9125	-2.2292	-3.0187	-2.4104	-2.3271	-3.2146	201.844	-8.905	150.865	165.845	83.289	136.723	-86.163	-46.772	74.351	-77.877	136.947	210.110	168.893	-122.206	207.298	197.966	0.00079566	0.00045456	0.0001291	728.54	2.7176e-06	6.475e-06	770.83	283.71	4.528e-06	4.7481e-06	344.29	153.21	125.98	68.473	4.915e-06	91.017	0.0016373	0.0020329	0.00059526	791	2.0414e-05	2.4451e-05	840.49	310.84	2.2031e-05	2.311e-05	377.84	168.82	139.28	75.746	2.2016e-05	100.83	172.142	-19.951	-28.477	-120.180	-8.132	23.520	-120.853	-114.594	-35.412	33.153	-115.947	-111.417	-109.939	-104.424	-11.196	-106.764	-8191	255	
2718.688	1	1	0	0	0.24688	0.17046	0.15143	0.10021	0.03742	0.22793	0.10285	0.18772	0.066585	0.12508	0.20369	0.10789	0.12954	0.11856	0.11694	0.23279	-1.75	-2.5375	-2.7458	-2.1292	-2.7896	-2.4333	-2.4292	-3.0771	-2.3583	-2.5521	-3.0292	-2.1021	-2.9188	-2.5292	-1.9125	-3.1708	77.026	73.600	35.179	186.413	-43.281	166.930	188.019	227.109	-34.196	-58.542	-125.262	197.761	154.380	142.696	-91.577	182.359	0.00082727	0.00055158	0.00014623	729.58	5.7987e-06	4.6786e-06	771.03	283.92	4.7992e-06	3.691e-06	345.02	153.76	125.81	68.504	6.5202e-06	91.426	0.0016298	0.0020383	0.00057733	791.37	2.028e-05	2.3877e-05	841.73	310.68	2.1741e-05	2.2861e-05	378.46	169.4	139.11	75.686	2.2035e-05	101.03	171.802	-44.861	-26.391	-120.051	-3.732	0.333	-120.873	-114.702	-15.401	36.993	-116.053	-111.534	-109.672	-104.406	-12.554	-106.836	-8191	255	
2718.784	1	1	0	0	0.21276	0.25061	0.31654	0.1066	0.095714	0.094829	0.19427	0.29165	0.20713	0.21862	0.19758	0.3987	0.18623	0.25254	0.22211	0.086478	-1.7896	-2.4729	-2.8604	-2.0833	-2.85	-2.675	-2.0687	-3.2	-2.3146	-2.35	-3.0062	-2.2375	-2.8187	-2.75	-1.9667	-3.1688	-11.587	198.355	52.111	186.501	200.751	-104.023	202.127	176.685	-103.024	70.595	177.411	191.108	151.169	-115.450	16.696	167.456	0.00082632	0.00073168	0.00013731	729.85	4.5311e-06	6.9315e-06	775.71	285.48	4.4522e-06	6.8807e-06	347.62	153.76	126.47	68.348	5.5941e-06	91.568	0.0016018	0.0019941	0.00056574	792.03	1.9501e-05	2.2965e-05	844.84	311.92	2.1306e-05	2.2211e-05	380.33	169.63	139.51	75.624	2.2269e-05	100.9	172.953	-50.027	-49.090	-120.134	5.611	-7.855	-120.917	-114.780	-24.896	25.716	-115.851	-111.392	-109.745	-104.312	-17.687	-106.903	-8191	255	
2718.880	1	1	0	0	0.13848	0.13716	0.1002	0.10887	0.18619	0.060751	0.35255	0.27424	0.24524	0.089196	0.064354	0.21573	0.37936	0.23174	0.11226	0.36164	-1.9375	-2.2375	-2.9958	-2.2542	-2.4938	-2.6646	-2.2438	-3.0271	-2.4417	-2.2062	-2.7271	-2.2333	-2.7167	-2.8583	-2.0187	-3.2229	-95.441	97.999	15.639	133.328	98.959	-116.851	191.545	-119.006	54.268	-8.645	133.845	134.552	-120.107	182.680	222.693	158.594	0.00078243	0.00033204	8.9644e-05	731.48	4.2573e-06	5.4945e-06	774.61	284.3	4.6168e-06	7.6237e-06	343.96	152.35	125.66	67.962	4.6078e-06	90.794	0.0015881	0.0019672	0.00055845	793.74	1.9636e-05	2.2644e-05	844.5	311.02	2.0888e-05	2.2506e-05	377.14	168.54	138.71	75.238	2.2287e-05	100.28	175.400	-74.148	-47.535	-120.307	-4.427	2.913	-120.968	-114.553	-32.995	23.317	-115.979	-111.536	-109.911	-104.278	-17.236	-106.820	-8191	255	
2718.999	1	1	0	0	0.10576	0.11083	0.22836	0.13311	0.20531	0.27668	0.37272	0.1379	0.19302	0.14716	0.22418	0.32577	0.24187	0.26367	0.20492	0.0894	-2.0708	-2.2188	-2.9562	-2.3312	-2.6583	-2.8937	-2.1708	-2.8937	-2.6437	-2.2604	-3.0917	-2.5042	-2.5917	-3.0708	-2.0521	-2.9875	60.331	-83.452	93.238	-36.146	134.285	99.883	145.666	213.328	-43.165	214.909	166.329	200.236	210.563	168.083	140.447	167.098	0.00074209	0.00053344	0.00016228	730.94	5.3564e-06	7.4047e-06	774.24	284.79	6.5423e-06	6.6409e-06	344.85	152.73	125.38	68.006	4.5055e-06	90.909	0.0015647	0.0019879	0.00054945	793.59	1.9229e-05	2.2507e-05	843.48	310.99	2.0401e-05	2.2901e-05	377.56	168.43	138.63	75.165	2.189e-05	100.37	172.808	-35.795	-22.232	-120.244	-4.507	30.934	-120.905	-114.503	-15.513	13.572	-116.320	-111.249	-109.678	-104.475	-17.571	-106.788	-8191	255	
2719.095	1	1	0	0	0.24254	0.13851	0.1883	0.29599	0.12731	0.025996	0.09596	0.11837	0.19875	0.19197	0.33114	0.084648	0.31398	0.25418	0.31023	0.46017	-2.4042	-2.1688	-2.9125	-2.3146	-2.4646	-3.0542	-2.2625	-2.9333	-2.8792	-2.0458	-3.1729	-2.5375	-2.3688	-2.9771	-2.2896	-2.7646	-42.382	182.969	100.830	164.445	199.635	-9.217	-45.561	193.437	-117.907	54.587	-85.743	222.902	-124.553	126.147	103.908	140.364	0.00080651	0.00042471	0.00013703	733.68	5.2986e-06	5.9789e-06	774.67	285.08	4.9434e-06	6.3579e-06	346.74	153.31	125.49	67.854	4.0345e-06	90.731	0.0015446	0.0019819	0.00053536	794.35	1.8865e-05	2.1705e-05	844.61	311.31	1.9978e-05	2.2609e-05	378.64	169.14	138.7	75.149	2.1816e-05	100.55	169.892	-54.764	-60.466	-120.139	1.398	28.281	-121.007	-114.660	13.920	15.135	-116.010	-111.337	-109.919	-104.539	-33.302	-106.846	-8191	255	
2719.169	1	1	0	0	0.21688	0.023165	0.21827	0.32454	0.16558	0.19801	0.37681	0.27636	0.196	0.12595	0.048825	0.13968	0.098853	0.15748	0.28924	0.1528	-2.4042	-2.3271	-2.6792	-2.4646	-2.2833	-3.1854	-2.2854	-2.6521	-2.8688	-2.2562	-2.8937	-2.5687	-2.0812	-2.9917	-2.2062	-2.6875	106.145	180.546	112.270	194.784	-35.108	-13.700	182.027	164.572	103.182	-56.347	213.827	179.950	222.262	197.501	142.213	-66.495	0.00081956	0.00046823	0.00014217	735.3	5.0686e-06	6.0406e-06	775.3	284.01	4.3471e-06	5.196e-06	345.52	153.21	125.5	67.631	2.8383e-06	90.33	0.0015231	0.0020019	0.00052804	796.85	1.9223e-05	2.1455e-05	846.63	311.38	1.9871e-05	2.2391e-05	378.27	168.68	138.33	74.812	2.21e-05	99.897	172.778	-29.848	-47.743	-120.319	-1.100	4.584	-121.078	-114.561	-18.248	4.110	-115.987	-111.221	-109.877	-104.384	-15.830	-106.649	-8191	255	
2719.288	1	1	0	0	0.22959	0.23206	0.30674	0.32636	0.22102	0.31082	0.080748	0.17359	0.054821	0.12852	0.24715	0.24138	0.14193	0.078779	0.028183	0.042408	-2.5604	-2.1292	-2.8625	-2.675	-2.1437	-3.0812	-2.3729	-2.6167	-2.8979	-2.1021	-2.9188	-2.7458	-2.1979	-3.0563	-2.1625	-2.65	164.917	44.378	-18.339	156.204	-11.037	-13.891	38.661	-131.822	226.322	114.018	-120.324	-60.863	-45.022	-30.450	205.386	-119.291	0.00078646	0.00039797	0.00012731	729.79	4.2494e-06	6.0875e-06	771.36	284.12	4.0205e-06	6.4644e-06	345.1	152.08	125.55	67.828	3.4746e-06	90.867	0.0015105	0.0020174	0.00053157	792.91	1.9488e-05	2.1744e-05	842.49	309.85	1.948e-05	2.2564e-05	376.7	168.05	138.31	74.949	2.1936e-05	100.29	171.346	-37.664	-45.317	-120.120	-2.869	39.333	-120.984	-114.437	-17.746	21.560	-115.977	-111.328	-109.822	-104.428	-8.883	-106.859	-8191	255	
2719.384	1	1	0	0	0.0561	0.34476	0.058662	0.2083	0.057225	0.1329	0.16876	0.1895	0.29492	0.13514	0.036385	0.19449	0.0027732	0.20179	0.23849	0.095467	-2.5833	-2.1583	-2.7229	-2.8042	-2.0896	-2.9583	-2.55	-2.4583	-3.0979	-2.0333	-2.8146	-2.8417	-2.3229	-3.1854	-2.55	-2.6021	145.032	-97.822	148.611	-119.992	202.772	38.986	-130.730	168.577	180.513	-96.351	24.672	171.512	-112.642	79.977	-61.549	113.415	0.00078316	0.00062726	0.00014518	729.27	2.832e-06	6.223e-06	774.59	283.75	3.9503e-06	3.942e-06	345.79	153.37	125.75	68.006	5.0394e-06	91.243	0.0014998	0.0020351	0.00052406	792.11	1.9525e-05	2.1021e-05	841.73	310.52	1.9385e-05	2.253e-05	377.82	168.87	138.74	75.265	2.1275e-05	100.82	174.116	-30.422	-45.920	-120.012	19.429	21.989	-121.058	-114.452	1.264	9.677	-115.922	-111.408	-110.000	-104.232	-2.271	-106.662	-8191	255	
2719.480	1	1	0	0	0.18056	0.03436	0.14083	0.2132	0.15934	0.088144	0.13736	0.14397	0.20737	0.20012	0.22045	0.066822	0.1833	0.24584	0.32941	0.30111	-2.6396	-1.9917	-2.6063	-2.8146	-2.0417	-2.9979	-2.6708	-2.3937	-3.0521	-2.2812	-2.6542	-2.9958	-2.4938	-3.0875	-2.5625	-2.2542	-80.303	154.197	-11.043	206.169	94.163	-115.299	-123.774	147.149	-24.450	90.143	158.544	-66.200	-132.271	187.402	201.550	186.277	0.00082052	0.00050395	0.00020181	730.33	2.2056e-06	5.0914e-06	774.27	283.65	4.4591e-06	5.7746e-06	345.87	153.69	125.72	68.345	4.2539e-06	91.673	0.0014846	0.0019956	0.00052267	791.55	1.963e-05	2.1003e-05	842.53	310.79	1.9253e-05	2.2779e-05	378.91	169.74	138.98	75.572	2.0518e-05	101.26	173.641	-39.271	-41.574	-120.109	14.515	17.377	-120.960	-114.478	-20.908	24.079	-115.930	-111.287	-109.860	-104.279	11.177	-106.806	-8191	255	
2719.601	1	1	0	0	0.16117	0.13033	0.071476	0.11293	0.080656	0.036667	0.02368	0.1508	0.25178	0.15975	0.25489	0.19302	0.34627	0.070781	0.15299	0.083068	-2.5333	-2.1708	-2.3417	-3.0625	-2.2979	-2.8604	-2.6063	-2.3292	-2.9062	-2.3396	-2.4125	-2.9771	-2.2521	-2.8667	-2.6688	-2.3063	38.812	107.966	-5.143	172.830	-107.463	-98.405	-97.793	-44.453	21.977	3.201	102.620	120.813	201.592	133.457	-93.790	164.098	0.00077647	0.00043514	0.00012177	729.58	3.4437e-06	6.2245e-06	773.46	283.9	4.3741e-06	5.1107e-06	345.21	152.97	125.66	68.199	5.06e-06	91.018	0.001474	0.0019963	0.00051102	791.34	1.9625e-05	2.0805e-05	841.56	310.74	1.9207e-05	2.234e-05	377.6	168.77	138.64	75.331	2.11e-05	100.6	171.649	-29.277	-43.317	-120.031	19.903	20.441	-121.087	-114.558	-5.657	15.274	-116.094	-111.338	-109.569	-104.253	-3.029	-106.779	-8191	255	
2719.697	1	1	0	0	0.1626	0.20627	0.18752	0.11734	0.16282	0.17307	0.048962	0.1115	0.12948	0.10646	0.12641	0.23027	0.20562	0.19489	0.25158	0.09011	-2.7812	-2.4167	-2.1688	-3.0104	-1.9937	-2.7438	-2.9271	-2.2917	-2.9625	-2.2875	-2.2562	-3.1146	-2.3083	-2.75	-2.7188	-2.4292	-75.091	-104.323	27.887	213.878	224.038	-100.500	156.391	165.577	-37.456	82.916	20.252	94.206	187.836	-25.502	10.934	113.878	0.00081	0.00062587	0.00016237	729.29	4.173e-06	5.581e-06	771.9	282.73	5.0129e-06	7.5391e-06	345.42	152.6	125.63	68.112	3.9184e-06	90.986	0.0014763	0.0019527	0.00052491	791.52	1.9741e-05	2.0711e-05	838.99	310.03	1.8912e-05	2.2044e-05	377.24	168.68	138.6	75.274	2.0724e-05	100.59	172.940	-50.557	-28.874	-120.046	10.996	19.831	-121.072	-114.569	-30.191	31.108	-115.857	-111.413	-109.799	-104.202	-3.611	-106.730	-8191	255	
2719.768	1	1	0	0	0.10356	0.10592	0.069275	0.15415	0.15928	0.10564	0.11007	0.20725	0.10505	0.14535	0.12878	0.32634	0.1578	0.39746	0.09312	0.26445	-2.6229	-2.4396	-2.2062	-3.3292	-2.3042	-2.45	-3.2271	-2.0062	-2.9562	-2.4646	-2.2562	-3.05	-2.4271	-2.6146	-2.8479	-2.3125	41.302	-51.315	118.953	174.447	-62.068	-64.003	176.730	128.866	-16.654	97.086	123.724	176.271	124.538	162.496	-46.210	185.270	0.00077963	0.00059174	0.00016222	730.32	4.1009e-06	7.7708e-06	775.97	283.93	6.044e-06	4.9224e-06	345.42	153.73	125.22	68.299	3.9988e-06	91.427	0.0014626	0.0019536	0.00052992	792.05	1.955e-05	2.084e-05	842.34	310.75	1.8929e-05	2.1849e-05	378.4	169.17	138.47	75.306	2.0042e-05	100.95	173.429	-37.480	-45.311	-120.090	-10.651	10.216	-120.971	-114.575	-12.552	5.625	-115.845	-111.219	-109.625	-104.223	7.871	-106.806	-8191	255	
2719.889	1	1	0	0	0.16433	0.32285	0.14473	0.15835	0.16847	0.13659	0.22685	0.15322	0.11579	0.1451	0.26238	0.12402	0.17724	0.24789	0.19087	0.18083	-2.4188	-2.525	-1.8188	-2.9958	-2.2562	-2.425	-3.0604	-2.1146	-2.6542	-2.6208	-2.175	-3.0542	-2.3083	-2.4437	-2.7833	-2.2708	-128.922	-122.104	-19.150	-117.873	191.847	169.337	151.834	-6.066	84.448	16.427	173.467	206.954	93.499	-122.223	40.260	159.517	0.00080136	0.00055951	0.00013276	732.69	4.8448e-06	5.6634e-06	775.73	284.34	5.578e-06	6.4904e-06	347.51	153.7	125.71	68.15	2.7789e-06	91.197	0.0014517	0.0019307	0.00053855	794.06	1.9282e-05	2.0915e-05	843.3	310.75	1.8716e-05	2.1417e-05	378.6	169.28	138.73	75.264	2.0111e-05	100.61	169.133	-43.878	-19.415	-120.081	-24.734	12.761	-120.838	-114.437	-7.504	26.394	-115.896	-111.370	-109.873	-104.198	19.475	-106.777	-8191	255	
2719.984	1	1	0	0	0.14121	0.1089	0.10215	0.036732	0.085939	0.41237	0.078697	0.11172	0.081113	0.016078	0.34809	0.31535	0.36852	0.17297	0.33354	0.24139	-2.2125	-2.7104	-2.1479	-3.0187	-2.4583	-2.3646	-2.9417	-2.1979	-2.4667	-2.875	-2.1813	-2.7979	-2.6375	-2.2188	-2.9646	-2.2708	98.845	-33.526	-40.110	-98.412	160.927	-68.940	-87.639	176.551	-105.772	12.083	207.861	177.111	193.354	191.060	-30.891	142.716	0.00080847	0.00068525	0.00016823	734.68	3.845e-06	5.4676e-06	769.61	283.29	4.084e-06	6.9183e-06	343.23	152.31	125.18	68.072	4.3093e-06	90.855	0.0014498	0.0019064	0.00053941	793.31	1.8838e-05	2.1514e-05	839.28	309.79	1.8447e-05	2.1431e-05	376.73	168.21	138.32	75.136	2.0139e-05	100.34	171.855	-39.487	-54.917	-119.996	25.367	-5.723	-120.720	-114.908	-2.749	29.870	-115.826	-111.436	-109.927	-104.305	14.901	-106.836	-8191	255	
2720.080	1	1	0	0	0.20716	0.20428	0.18446	0.084333	0.11857	0.17878	0.17707	0.23772	0.1166	0.24709	0.17144	0.14211	0.14088	0.30053	0.047884	0.15446	-2.0854	-2.7667	-2.1562	-2.8083	-2.5208	-2.1604	-3.0208	-2.3917	-2.45	-2.8896	-2.1021	-2.8104	-2.8417	-2.3146	-2.9021	-2.4417	-42.046	167.160	51.869	-126.014	179.929	28.661	122.572	154.600	-114.671	213.378	-67.509	221.407	184.313	195.933	-43.160	103.081	0.0008123	0.00058876	0.00015616	731.53	4.1623e-06	5.8871e-06	771.58	283.59	4.2437e-06	5.8452e-06	344.52	152.62	125.01	67.777	3.8657e-06	90.861	0.0014448	0.0018552	0.00053431	792.48	1.8887e-05	2.1195e-05	840.06	309.88	1.8585e-05	2.0767e-05	376.97	168.53	138.3	74.986	1.9571e-05	100.4	172.573	-34.559	-57.761	-120.041	-12.576	22.181	-120.887	-114.565	-18.097	13.692	-115.882	-111.304	-109.856	-104.211	-13.616	-106.743	-8191	255	
2720.176	1	1	0	0	0.21434	0.15355	0.12394	0.13234	0.21246	0.23269	0.12521	0.11124	0.33358	0.097182	0.07893	0.31042	0.26772	0.23657	0.086586	0.36755	-2.0354	-2.9771	-2.0104	-2.8979	-2.7083	-2.0875	-3.1083	-2.5271	-2.2354	-2.95	-2.175	-2.5667	-2.9667	-2.375	-2.8958	-2.7375	183.531	22.594	-76.344	-16.407	14.776	-94.975	-127.173	38.520	80.495	-43.970	-54.419	197.057	200.604	171.324	-121.952	131.829	0.00079176	0.00045058	8.2654e-05	734.24	3.7029e-06	6.6327e-06	772.97	284.09	2.7589e-06	4.5449e-06	345.62	153.66	125.67	67.721	3.1605e-06	90.684	0.0014541	0.0017951	0.00053206	795.29	1.8104e-05	2.0818e-05	842.92	310.5	1.8474e-05	2.0101e-05	378.13	169.12	138.46	74.803	1.9017e-05	100.31	172.601	-44.094	-28.084	-119.982	2.844	37.943	-120.686	-114.469	-6.669	-0.609	-115.912	-111.199	-109.922	-104.200	-1.026	-106.699	-8191	255	
2720.296	1	1	0	0	0.26278	0.26274	0.020943	0.12501	0.1481	0.20613	0.11546	0.16975	0.10179	0.21027	0.2511	0.050461	0.20811	0.05239	0.11652	0.13665	-1.7208	-2.85	-2.2625	-2.7458	-2.7104	-2.0396	-2.9583	-2.6646	-2.1312	-2.8792	-2.2146	-2.7062	-2.9958	-2.2042	-2.9083	-2.7333	167.735	38.297	61.600	143.710	90.071	115.479	151.156	184.505	185.089	127.791	-92.816	-109.708	220.049	109.747	-87.471	154.101	0.0007891	0.00049455	0.00021033	737.19	4.7181e-06	6.2128e-06	777.56	284.2	4.2486e-06	7.4682e-06	344.76	152.47	125.28	67.383	4.298e-06	90.401	0.0014376	0.0017718	0.00052576	796.89	1.7788e-05	2.0833e-05	844.23	310.41	1.8816e-05	1.9768e-05	377.17	168.05	138.11	74.607	1.9177e-05	99.767	171.241	-45.523	-29.222	-119.955	-12.213	26.750	-120.730	-114.576	-24.792	11.157	-115.813	-111.304	-109.730	-104.262	-12.679	-106.795	-8191	255	
2720.393	1	1	0	0	0.13042	0.24049	0.08431	0.16944	0.13199	0.081345	0.26103	0.064284	0.1681	0.18658	0.42909	0.27192	0.21902	0.41039	0.31027	0.10896	-1.7604	-2.7729	-2.2938	-2.7062	-2.7333	-2.1521	-2.7771	-2.7896	-2.075	-2.7271	-2.4583	-2.3563	-2.9938	-2.2417	-2.6688	-2.825	109.229	65.888	188.957	-94.203	-36.091	177.848	137.519	37.458	62.958	-80.116	175.231	173.369	216.132	-104.651	185.393	-13.360	0.00080959	0.00055711	0.00017354	735.07	4.4041e-06	5.9417e-06	775.44	283.56	3.2404e-06	5.7958e-06	345.35	151.91	124.85	67.701	5.3473e-06	90.17	0.0014412	0.0017469	0.0005117	795.58	1.7403e-05	2.0903e-05	842.12	310.1	1.8545e-05	1.9672e-05	377.01	167.95	138.16	74.691	1.8933e-05	99.823	172.941	-56.986	-43.336	-119.900	-21.233	25.292	-120.796	-114.452	-7.331	32.424	-115.928	-111.010	-109.754	-104.206	-11.010	-106.817	-8191	255	
2720.464	1	1	0	0	0.09616	0.066431	0.10419	0.090701	0.10887	0.02273	0.19241	0.27895	0.16602	0.40475	0.063479	0.1708	0.15612	0.30393	0.089366	0.34821	-1.7708	-2.8312	-2.2583	-2.3167	-2.9604	-2.1271	-2.8479	-2.8438	-1.9792	-2.8104	-2.5958	-2.4062	-3.0563	-2.3354	-2.7521	-2.8417	-108.275	-108.822	-67.822	-57.928	174.607	120.888	155.042	191.863	128.463	45.951	-117.017	-96.751	-98.355	77.417	73.838	173.525	0.00079516	0.00052614	0.00011634	734.7	4.4685e-06	6.5357e-06	775.54	283.98	3.1479e-06	5.0584e-06	345.12	152.85	125.53	67.643	5.1122e-06	90.499	0.0014441	0.0017469	0.00050869	796	1.7422e-05	2.0621e-05	843.25	310.33	1.8807e-05	1.961e-05	377.44	168.23	138.21	74.611	1.8957e-05	100.03	171.554	-39.066	-24.947	-119.848	-4.886	23.282	-120.803	-114.541	3.858	20.593	-116.031	-111.150	-109.715	-104.203	-7.624	-106.669	-8191	255	
2720.560	1	1	0	0	0.085052	0.17587	0.18242	0.086411	0.13873	0.088071	0.14599	0.1412	0.069603	0.11436	0.27542	0.22865	0.32897	0.16517	0.2712	0.24611	-1.7042	-2.9313	-2.6104	-2.2396	-3.1333	-2.1708	-2.625	-2.8812	-2.0417	-2.9271	-2.5875	-2.4354	-3.1063	-2.3438	-2.5729	-3.0667	-19.622	-74.550	-69.245	127.095	-71.063	-46.185	140.411	171.573	151.561	-9.607	226.177	144.146	-112.282	129.110	213.364	124.736	0.00080083	0.0006466	0.00019991	734.56	4.2209e-06	8.5737e-06	776.07	284.63	4.7323e-06	6.833e-06	344.83	152	125.14	67.525	5.0738e-06	90.383	0.0014232	0.00173	0.00049627	796.56	1.6782e-05	2.0396e-05	845.87	311.26	1.8566e-05	1.947e-05	378.2	168.42	138.04	74.572	1.9283e-05	99.922	173.107	-31.467	-38.389	-119.952	-6.810	23.230	-120.662	-114.402	-1.560	28.276	-115.805	-111.328	-109.617	-104.030	-15.572	-106.631	-8191	255	
2720.681	1	1	0	0	0.1705	0.052759	0.087159	0.22428	0.34111	0.14518	0.20388	0.18537	0.15988	0.13218	0.20366	0.15425	0.38284	0.37691	0.061546	0.12357	-1.8271	-2.7938	-2.5687	-2.2417	-2.9917	-2.5	-2.4625	-2.9188	-2.1958	-2.7458	-2.8292	-2.3146	-3.0542	-2.4083	-2.3812	-3.1917	141.071	-92.549	-67.946	177.431	-123.725	197.298	-66.957	87.422	-123.749	181.986	148.728	68.524	-82.931	-49.268	212.205	47.446	0.00078002	0.00051643	0.00014709	733.74	6.5698e-06	4.3743e-06	773.22	283.41	3.8632e-06	6.6357e-06	344.09	152.84	125.71	67.708	5.2678e-06	90.952	0.0014331	0.0017396	0.00049784	794.24	1.7184e-05	1.9936e-05	841.07	309.76	1.8626e-05	1.9473e-05	376.81	168.27	138.48	74.961	1.9548e-05	100.4	171.655	-45.260	-42.406	-120.034	20.543	24.867	-120.537	-114.368	1.960	17.072	-115.988	-111.171	-109.600	-104.141	1.865	-106.674	-8191	255	
2720.777	1	1	0	0	0.18422	0.18098	0.090137	0.24482	0.098871	0.21967	0.28304	0.18162	0.11726	0.20886	0.080916	0.27279	0.084334	0.45502	0.27383	0.042214	-1.6542	-2.5479	-2.6937	-2.2583	-3.0292	-2.3875	-2.3833	-3.0083	-2.2042	-2.7229	-2.8125	-2.2167	-2.9396	-2.5187	-2.1771	-3.325	98.209	-120.351	145.425	211.772	140.911	9.006	6.160	-82.548	-19.035	-53.205	7.310	210.769	136.342	188.923	100.826	160.370	0.00082109	0.00039514	0.00011888	731.27	2.7206e-06	5.7667e-06	769.14	283.85	4.1405e-06	5.3915e-06	345.23	153.3	125.45	68.016	3.9954e-06	91.626	0.0014496	0.0017337	0.0004835	791.78	1.7123e-05	1.9764e-05	839.35	310.27	1.8555e-05	1.9421e-05	377.2	168.94	138.66	75.099	1.9616e-05	100.79	173.257	-35.416	-47.521	-120.067	14.655	29.793	-120.473	-114.295	-10.132	31.760	-115.831	-111.155	-109.639	-104.163	0.245	-106.556	-8191	255	
2720.873	1	1	0	0	0.12891	0.28649	0.063471	0.30054	0.24966	0.067537	0.094886	0.091679	0.15272	0.066436	0.26093	0.23903	0.25232	0.33033	0.23624	0.17592	-1.8062	-2.7125	-2.7833	-2.1896	-2.8312	-2.5542	-2.3271	-3.2104	-2.3333	-2.4917	-3.0104	-2.2479	-3.0104	-2.85	-2.1625	-3.1604	-125.440	168.714	68.692	158.516	183.823	184.061	208.318	-123.496	58.815	124.207	163.380	155.855	178.144	197.004	215.283	215.951	0.00078754	0.00045424	0.00017731	733.78	3.435e-06	6.7201e-06	778.23	283.66	3.5143e-06	5.5431e-06	347.11	153.88	125.97	68.039	4.155e-06	91.321	0.0014124	0.0017459	0.00048025	793.87	1.7028e-05	1.9586e-05	843.2	310.67	1.803e-05	1.9534e-05	378.94	169.52	138.84	75.129	1.9286e-05	100.99	173.553	-62.514	-32.621	-119.852	-10.785	23.180	-120.743	-114.382	-2.078	28.929	-115.632	-111.237	-109.550	-104.225	7.475	-106.521	-8191	255	
2720.969	1	1	0	0	0.22429	0.15721	0.11002	0.32317	0.20681	0.13145	0.27355	0.23136	0.18999	0.21728	0.14262	0.2916	0.29107	0.21219	0.21032	0.21199	-1.9646	-2.5479	-3.0042	-2.0792	-2.7188	-2.6167	-2.2146	-2.9854	-2.4021	-2.3354	-3.175	-2.2208	-2.6167	-2.9604	-2.0458	-3.0333	123.889	-35.459	220.812	-66.962	133.611	182.600	167.848	155.114	-37.559	111.796	123.589	199.029	-107.931	225.583	-47.987	178.403	0.00081078	0.0003326	0.00014637	731.95	4.8423e-06	5.8357e-06	774.91	283.65	5.3188e-06	6.7429e-06	344.67	152.75	125.55	67.473	3.0978e-06	90.526	0.0014201	0.0017753	0.00046366	793.1	1.6983e-05	1.9248e-05	841.86	310.29	1.8053e-05	1.9962e-05	377.04	168.5	138.31	74.655	1.9563e-05	100.08	171.774	-36.545	-39.227	-119.890	8.118	19.291	-120.743	-114.522	-12.821	40.407	-115.871	-111.249	-109.728	-104.203	6.727	-106.802	-8191	255	
2721.064	1	1	0	0	0.12728	0.095857	0.21723	0.12609	0.1724	0.11352	0.29211	0.077138	0.33231	0.072686	0.4742	0.16154	0.25654	0.13055	0.17197	0.37404	-2.05	-2.375	-2.8104	-2.475	-2.5729	-2.9021	-2.2146	-3.1229	-2.4896	-2.3958	-3.1292	-2.3521	-2.7896	-3.0979	-2.0458	-3.0771	137.217	223.011	177.725	185.357	-129.301	51.558	143.728	-49.854	-33.278	-81.514	202.384	-104.719	-130.394	20.404	133.455	167.291	0.00082063	0.00050022	0.00014868	728.62	4.5059e-06	6.9429e-06	774.24	284.39	3.4012e-06	5.3295e-06	344.61	152.72	125.24	67.742	2.0017e-06	90.958	0.0013997	0.0018057	0.0004751	791.2	1.7076e-05	1.9429e-05	840.81	310.24	1.7806e-05	2.0047e-05	376.71	168.35	138.3	74.836	1.9639e-05	100.35	174.736	-35.914	-37.325	-120.006	21.148	36.057	-120.638	-114.459	-35.472	14.420	-115.884	-111.311	-109.626	-104.150	-6.923	-106.668	-8191	255	
2721.162	1	1	0	0	0.24859	0.11653	0.17068	0.22522	0.11346	0.1884	0.26124	0.25139	0.21237	0.19432	0.25838	0.13893	0.14807	0.047	0.035121	0.22294	-2.2687	-2.0104	-2.9146	-2.3479	-2.4604	-2.8333	-2.2438	-3.0938	-2.7729	-2.0812	-2.9896	-2.1437	-2.3063	-3.0563	-2.1063	-2.9896	103.786	-122.420	115.721	204.907	65.390	118.836	138.915	104.460	220.656	109.022	190.777	159.292	166.669	59.713	97.836	127.357	0.00079403	0.00047502	0.0001387	731.52	5.9794e-06	4.6157e-06	774.28	284.86	3.4319e-06	4.5919e-06	345.91	153.35	125.73	67.893	4.4413e-06	91.585	0.0014012	0.0018017	0.00046987	791.68	1.7126e-05	1.8811e-05	841.61	310.53	1.7343e-05	2.0079e-05	377.42	168.81	138.42	74.863	1.9434e-05	100.77	172.364	-39.548	-41.907	-120.078	7.617	31.598	-120.852	-114.454	-43.099	23.378	-116.047	-111.313	-109.598	-104.183	-31.992	-106.625	-8191	255	
2721.281	1	1	0	0	0.20986	0.16377	0.1121	0.027595	0.085832	0.050136	0.18514	0.15207	0.073346	0.24824	0.30583	0.20678	0.3902	0.12176	0.2703	0.21164	-2.4354	-2.0271	-2.8021	-2.5604	-2.425	-3.0062	-2.4792	-2.7687	-2.8729	-2.0042	-3.2396	-2.4938	-2.3146	-2.9938	-2.2188	-2.775	202.110	-113.033	-116.914	68.112	-4.803	92.798	217.671	134.102	177.402	147.680	-111.804	66.501	-110.120	-102.651	144.815	167.824	0.00079606	0.0005838	0.00015905	731.88	3.2327e-06	6.9266e-06	777.48	285.28	3.6386e-06	7.8682e-06	345.8	153.55	126.02	67.843	4.8887e-06	91.286	0.0013844	0.001796	0.00046793	792.69	1.7459e-05	1.8819e-05	845.74	311.6	1.7217e-05	2.0227e-05	378.01	169.18	138.75	75.024	1.9221e-05	100.74	173.220	-27.092	-19.398	-120.074	-19.676	38.555	-120.631	-114.444	8.338	10.372	-115.665	-111.375	-109.692	-104.222	19.012	-106.527	-8191	255	
2721.377	1	1	0	0	0.15418	0.11774	0.15267	0.049915	0.069692	0.13586	0.31481	0.071994	0.14569	0.11378	0.20346	0.06535	0.57266	0.30024	0.056492	0.10977	-2.4271	-2.1458	-2.8812	-2.7271	-2.2917	-2.9583	-2.375	-2.6125	-3.0187	-2.0458	-2.9458	-2.6646	-2.1542	-3.0354	-2.2938	-2.5062	123.968	-118.662	-38.306	-37.100	-87.029	-50.943	113.971	70.231	65.480	114.956	174.620	-2.800	176.757	223.927	0.622	65.733	0.00081369	0.00051909	0.0001559	732.08	4.235e-06	6.0097e-06	773.28	284.49	3.7147e-06	4.5823e-06	345.4	152.7	125.23	67.791	4.0249e-06	90.97	0.0013521	0.0017935	0.00045173	791.92	1.7317e-05	1.8439e-05	841.23	310.72	1.6868e-05	2.0129e-05	377.42	168.31	138.26	74.89	1.8865e-05	100.42	173.065	-46.997	-51.310	-119.736	-10.223	16.093	-120.607	-114.381	-13.627	30.748	-115.532	-111.028	-109.443	-103.874	-10.476	-106.456	-8191	255	
2721.473	1	1	0	0	0.15451	0.12679	0.084063	0.20835	0.019586	0.092615	0.082093	0.14613	0.1589	0.15505	0.17901	0.44484	0.38607	0.14551	0.12285	0.25182	-2.6937	-1.8917	-2.6604	-2.7875	-2.2	-2.7729	-2.1521	-2.5542	-2.9875	-2.2083	-2.8229	-2.7562	-2.0521	-3.0563	-2.575	-2.35	-78.239	-25.530	152.140	144.376	116.989	86.311	9.322	222.690	-50.777	140.984	-108.868	143.145	206.411	210.451	77.895	205.031	0.00078816	0.00059079	0.00010462	730.9	3.3133e-06	5.8801e-06	774.11	285.19	3.2426e-06	7.6815e-06	346.32	153.17	125.75	67.893	3.7697e-06	91.12	0.0013579	0.0017721	0.0004606	792.53	1.7342e-05	1.8519e-05	842.83	310.98	1.6521e-05	1.985e-05	378.03	168.7	138.47	74.962	1.8365e-05	100.63	171.424	-56.108	-30.738	-119.892	3.295	3.371	-120.610	-114.232	-19.331	14.164	-115.733	-111.322	-109.553	-104.092	-3.261	-106.393	-8191	255	
2721.569	1	1	0	0	0.012618	0.10374	0.10634	0.094729	0.18158	0.19863	0.097754	0.28196	0.049856	0.15235	0.088994	0.32529	0.24474	0.29565	0.16211	0.16893	-2.6562	-2.1521	-2.7167	-2.9083	-2.0875	-2.9458	-2.6646	-2.1937	-2.8458	-2.1708	-2.6583	-2.8021	-2.2104	-2.9396	-2.3583	-2.3583	-69.618	-65.447	157.665	174.684	-10.955	220.341	75.085	199.514	208.755	124.974	-10.736	160.026	200.320	-79.877	152.028	93.513	0.00080816	0.00065126	0.0001495	732.95	3.1855e-06	4.9637e-06	777.77	285.16	2.5193e-06	6.2038e-06	347.93	153.72	125.54	67.976	4.5555e-06	91.638	0.0013221	0.001702	0.00045575	794.26	1.7123e-05	1.795e-05	845.08	311.4	1.6496e-05	1.9241e-05	379.24	169.25	138.4	74.979	1.8001e-05	100.96	174.820	-52.436	-42.404	-119.740	6.715	12.169	-120.772	-114.260	6.491	1.498	-115.487	-111.016	-109.550	-104.135	28.083	-106.341	-8191	255	
2721.665	1	1	0	0	0.068951	0.074902	0.11055	0.36707	0.16841	0.12659	0.23209	0.2002	0.04988	0.23867	0.19872	0.41186	0.066848	0.25694	0.050179	0.12537	-2.6375	-2.2167	-2.4729	-2.9083	-1.9479	-2.9437	-2.9146	-2.0896	-2.9646	-2.1917	-2.4083	-3.0125	-2.1375	-2.7771	-2.8187	-2.2417	48.195	-90.542	38.542	184.203	40.764	-37.312	199.122	152.833	98.552	116.228	-97.692	151.529	-66.444	163.488	26.981	-84.559	0.00079798	0.00050329	0.00014996	736.41	4.7229e-06	5.9839e-06	775.77	285.34	4.6931e-06	4.4946e-06	346.59	152.98	125.65	67.722	4.5906e-06	90.896	0.0013266	0.0016656	0.00046403	795.94	1.6937e-05	1.7885e-05	844.84	311.31	1.6438e-05	1.8831e-05	378.67	168.86	138.49	74.795	1.7883e-05	100.33	172.177	-40.647	-23.598	-119.965	-0.748	9.495	-120.676	-114.300	-40.259	21.033	-115.906	-111.141	-109.610	-104.082	-5.938	-106.483	-8191	255	
2721.761	1	1	0	0	0.16824	0.085027	0.2569	0.15175	0.1563	0.14222	0.12286	0.22812	0.10332	0.03752	0.063927	0.18203	0.24958	0.39314	0.22583	0.091713	-2.6771	-2.2375	-2.2646	-2.9667	-2.1562	-2.6042	-2.7479	-2.1604	-2.9146	-2.3479	-2.2854	-3.1292	-2.1833	-2.6792	-2.6562	-2.0979	102.623	-67.907	-127.414	121.243	92.752	-117.470	169.395	-117.323	208.921	91.660	175.959	-118.083	185.893	-116.515	91.116	-31.638	0.00077663	0.00044473	0.00018682	732.68	3.4137e-06	6.0868e-06	775.18	284.37	3.7819e-06	6.3344e-06	346.61	153.18	125.27	67.743	6.3277e-06	91.008	0.0013083	0.0016846	0.00046777	793.16	1.6727e-05	1.8039e-05	842.6	310.81	1.6272e-05	1.8599e-05	378.2	168.61	138.36	74.868	1.7696e-05	100.56	173.750	-29.020	-55.113	-120.038	17.465	9.424	-120.851	-114.459	-26.822	22.576	-115.882	-110.994	-109.655	-104.175	13.941	-106.598	-8191	255	
2721.858	1	1	0	0	0.21097	0.24262	0.24428	0.10926	0.22945	0.36164	0.020328	0.1487	0.12954	0.097743	0.059968	0.1981	0.21584	0.19953	0.27878	0.27815	-2.6188	-2.4417	-2.1333	-2.9208	-2.1604	-2.5375	-2.825	-2.1271	-2.9688	-2.3167	-2.2146	-3.0083	-2.2812	-2.6208	-2.6375	-2.1917	156.626	186.096	-130.341	165.230	-71.024	-6.499	214.295	-64.684	-88.495	-115.911	12.306	-61.527	198.934	186.962	131.937	151.002	0.00081494	0.00047129	0.00014677	730.28	3.7644e-06	4.6345e-06	775.5	285.38	5.519e-06	5.4011e-06	347.03	153.68	125.58	67.879	4.6415e-06	91.207	0.0013056	0.0016427	0.00046508	791.91	1.6729e-05	1.8216e-05	842.5	311.47	1.6279e-05	1.841e-05	379.21	169.36	138.68	75.005	1.7148e-05	100.93	173.135	-50.723	-50.410	-119.985	8.455	30.725	-120.649	-114.315	-20.643	34.727	-115.602	-111.009	-109.527	-103.966	-20.651	-106.690	-8191	255	
2721.976	1	1	0	0	0.26165	0.18117	0.13384	0.38649	0.080344	0.10503	0.058014	0.11399	0.046413	0.25515	0.048676	0.28793	0.19892	0.27267	0.085338	0.12805	-2.4083	-2.5646	-2.2208	-2.9833	-2.2146	-2.4229	-3.0167	-2.1354	-2.8896	-2.6854	-2.2792	-2.9667	-2.3417	-2.8875	-2.7542	-2.3396	13.357	172.531	171.001	201.835	-103.826	-117.464	198.911	-50.064	-12.767	105.685	135.284	143.229	137.835	176.630	167.878	167.964	0.00080488	0.00058851	0.00018814	733.35	5.076e-06	7.1137e-06	774.3	286.12	3.7775e-06	6.9725e-06	348.74	154.8	126.39	68.265	4.1669e-06	92.129	0.0013175	0.001604	0.00046696	794.29	1.6309e-05	1.8472e-05	844.81	312.46	1.6409e-05	1.8266e-05	380.47	170.49	139.33	75.449	1.7574e-05	101.47	171.355	-39.519	-29.734	-119.930	1.679	20.347	-120.705	-114.294	-47.875	17.062	-115.931	-110.908	-109.603	-103.892	-7.055	-106.515	-8191	255	
2722.073	1	1	0	0	0.22134	0.20909	0.14919	0.17584	0.13433	0.36342	0.078274	0.28759	0.1762	0.1116	0.15845	0.20001	0.23379	0.18758	0.16271	0.31916	-2.4792	-2.825	-1.9688	-2.9104	-2.4292	-2.3563	-3.0708	-2.3167	-2.5875	-2.8375	-2.0146	-3.0833	-2.5938	-2.2979	-3.0812	-2.3604	-120.823	136.970	72.779	218.852	-23.491	186.180	200.155	203.089	5.183	95.147	-22.651	151.365	13.021	215.377	116.009	179.699	0.00081394	0.00046754	0.00013226	726.57	4.0737e-06	6.5721e-06	773.2	284.26	4.8767e-06	7.8368e-06	345.83	153.56	125.91	68.209	3.7504e-06	92.161	0.0013597	0.001621	0.00047346	788.48	1.6558e-05	1.8709e-05	838.41	310.57	1.693e-05	1.841e-05	378.1	169.54	138.94	75.519	1.7811e-05	101.57	171.634	-41.960	-28.823	-120.488	6.515	8.768	-121.257	-114.856	-26.697	21.088	-116.510	-111.647	-110.349	-104.730	2.137	-107.180	-8191	255	
2722.169	1	1	0	0	0.10501	0.11165	0.067183	0.30153	0.11706	0.3616	0.089836	0.29963	0.023089	0.26529	0.2391	0.21954	0.22126	0.44534	0.13283	0.36403	-2.1979	-2.7562	-1.9354	-2.8125	-2.5125	-2.1771	-3.0708	-2.3271	-2.6521	-2.9208	-2.2521	-2.9729	-2.6542	-2.3479	-3.0417	-2.5312	-128.915	-122.942	58.273	209.067	-84.963	-32.706	78.322	155.926	-120.596	-32.289	-122.104	91.594	-95.783	219.227	-113.057	203.735	0.00081485	0.0005373	0.00018983	725.83	4.461e-06	5.1096e-06	769.82	284.36	4.2055e-06	6.5259e-06	344.35	153.86	125.55	68.503	4.4284e-06	92.028	0.0013874	0.0016655	0.00048397	786.6	1.6719e-05	1.9301e-05	837.57	310.6	1.7596e-05	1.8494e-05	378.32	169.54	139.03	75.706	1.7697e-05	101.73	170.910	-48.393	-28.164	-120.477	12.580	38.803	-121.034	-114.977	-20.841	10.904	-116.402	-111.773	-110.296	-104.870	-6.176	-107.299	-8191	255	
2722.265	1	1	0	0	0.24205	0.19973	0.08925	0.21899	0.17729	0.15933	0.047415	0.078905	0.093008	0.1289	0.21617	0.26639	0.2136	0.29941	0.12187	0.36349	-1.9813	-2.7521	-2.2188	-2.7542	-2.6333	-2.25	-3.0104	-2.4042	-2.3396	-3.0646	-2.1292	-2.7292	-2.6333	-2.3667	-3.0208	-2.5208	107.987	-59.260	63.520	190.556	-110.366	160.550	20.962	150.521	-130.153	64.082	168.448	128.361	120.145	-75.600	58.768	183.417	0.00082634	0.00059622	0.00017733	727.41	3.5786e-06	5.1628e-06	772.61	284.3	3.3875e-06	4.7404e-06	346.83	154.69	126.52	68.587	3.4622e-06	92.261	0.0013837	0.0016415	0.00047651	788.89	1.6419e-05	1.9378e-05	839.09	310.89	1.7524e-05	1.8275e-05	379.24	170.46	139.4	75.669	1.7764e-05	101.9	171.946	-54.987	-43.809	-120.300	-0.800	7.879	-121.057	-114.939	-14.026	24.044	-116.404	-111.812	-110.449	-104.849	5.805	-107.483	-8191	255	
2722.361	1	1	0	0	0.14404	0.15611	0.10092	0.059846	0.15683	0.21666	0.22907	0.24605	0.32882	0.13054	0.16254	0.116	0.16366	0.14688	0.30206	0.12364	-1.9083	-2.9875	-2.0938	-2.7542	-2.6875	-2.0958	-3.0208	-2.5271	-2.2354	-2.8958	-2.3083	-2.7646	-2.8167	-2.2687	-2.8958	-2.5729	16.386	133.400	192.889	72.436	-45.975	112.238	177.348	110.983	72.715	-92.078	124.545	115.853	187.000	205.705	-47.446	164.083	0.00084694	0.00062444	0.00017507	729.91	4.2458e-06	7.5938e-06	773.96	284.95	3.9175e-06	4.8213e-06	346.14	153.59	125.38	68.133	3.9348e-06	91.42	0.0013936	0.0016466	0.0004737	790.69	1.6262e-05	1.9528e-05	841.13	311.32	1.7491e-05	1.8086e-05	379.05	169.54	138.51	75.201	1.7748e-05	101.04	171.564	-44.397	-24.460	-120.500	-5.273	31.343	-121.227	-115.151	-14.950	2.512	-116.460	-111.816	-110.358	-104.930	-5.325	-107.344	-8191	255	
2722.457	1	1	0	0	0.25365	0.18932	0.1176	0.065035	0.15386	0.27765	0.34105	0.37549	0.20066	0.1619	0.073973	0.19576	0.19978	0.27321	0.045701	0.26711	-1.7583	-2.8521	-2.2208	-2.5438	-2.8063	-2.0563	-2.8271	-2.6667	-2.1375	-2.9833	-2.3958	-2.2146	-2.9458	-2.1042	-2.7271	-2.7375	211.089	108.303	-105.200	191.240	71.343	69.441	132.380	145.445	-44.701	-109.658	151.162	-105.301	105.207	189.716	45.918	123.204	0.00079098	0.00049055	0.00018732	723.55	3.2802e-06	5.6595e-06	768.46	282.82	4.6468e-06	7.1522e-06	346.67	154.25	125.93	68.724	4.5346e-06	92.682	0.0013795	0.00164	0.00046121	784.15	1.599e-05	1.9116e-05	833.99	309.41	1.7433e-05	1.8265e-05	378.1	170.19	139.08	75.975	1.7852e-05	102.2	172.059	-38.831	-40.073	-120.345	0.469	2.404	-121.279	-115.013	-22.117	12.363	-116.400	-111.810	-110.373	-104.921	7.421	-107.411	-8191	255	
2722.553	1	1	0	0	0.30463	0.12413	0.010251	0.32189	0.09423	0.10745	0.22609	0.17556	0.1931	0.24186	0.16581	0.14296	0.15316	0.3743	0.078069	0.175	-1.6958	-2.9104	-2.1646	-2.35	-2.9417	-2.0229	-2.7979	-2.7792	-2.0792	-2.7771	-2.5271	-2.2146	-3.1375	-2.3063	-2.5812	-3.1104	191.091	-113.413	19.721	192.896	137.334	106.727	147.943	217.152	182.782	120.500	219.210	136.153	129.809	174.899	-24.515	141.480	0.00080863	0.0005029	0.00016138	720.04	4.6567e-06	7.1957e-06	765.86	283.13	4.2152e-06	6.6963e-06	347.27	155.28	126.41	68.872	3.5439e-06	93.242	0.0013994	0.0016051	0.00047025	781.2	1.5982e-05	1.8697e-05	833.64	310.11	1.7374e-05	1.8607e-05	379.01	171.4	139.71	76.33	1.8323e-05	102.98	172.017	-52.368	-45.879	-120.322	6.939	18.024	-121.137	-114.857	0.991	31.877	-116.398	-111.886	-110.272	-104.843	-12.701	-107.361	-8191	255	
2722.649	1	1	0	0	0.038224	0.22935	0.16657	0.14062	0.12927	0.23329	0.35054	0.33086	0.22971	0.027464	0.33821	0.14557	0.13018	0.14856	0.21411	0.30421	-1.6979	-2.9458	-2.2125	-2.3563	-3.0812	-2.1083	-2.7062	-2.9062	-1.9062	-2.9292	-2.5771	-2.3333	-3.2271	-2.3792	-2.4771	-3.1354	42.146	172.549	-48.724	148.041	89.286	219.820	156.166	196.476	-92.326	171.970	186.987	-50.408	216.095	209.954	30.341	204.889	0.00085722	0.00043606	0.00017473	723.17	4.5697e-06	5.6338e-06	767.8	283.69	4.4857e-06	4.9499e-06	347.47	155.6	126.96	69.143	2.6938e-06	93.285	0.0013944	0.0016399	0.00045387	783.44	1.5759e-05	1.885e-05	836.43	310.45	1.7291e-05	1.8567e-05	380.76	171.83	140.02	76.466	1.8625e-05	103.07	170.672	-30.473	-38.347	-120.293	3.423	20.583	-121.124	-115.048	-0.460	19.468	-116.313	-111.554	-110.072	-104.738	28.659	-107.398	-8191	255	
2722.770	1	1	0	0	0.23042	0.1542	0.18648	0.094116	0.088046	0.32303	0.1058	0.12468	0.073818	0.077036	0.098057	0.077119	0.074061	0.40026	0.10852	0.10428	-1.6938	-2.6771	-2.5479	-2.2604	-3.0146	-2.3167	-2.4604	-3.0229	-2.1229	-2.675	-2.7021	-2.1229	-3.0896	-2.4354	-2.2521	-3.0687	89.683	115.452	155.808	-83.584	129.402	80.662	186.694	142.930	173.744	189.813	159.099	191.552	10.520	207.469	-28.658	223.119	0.00080354	0.00057922	0.00015972	721.31	4.5151e-06	5.7954e-06	766.18	283.33	4.8799e-06	5.476e-06	346.26	154.36	126.79	68.967	4.0843e-06	92.543	0.0013935	0.0016795	0.00045893	782.59	1.6223e-05	1.8726e-05	834.17	310.12	1.7341e-05	1.941e-05	378.26	170.42	139.62	76.209	1.9048e-05	102.27	173.574	-20.118	-38.941	-120.367	-2.981	25.579	-121.075	-114.879	-1.807	30.050	-116.352	-111.754	-110.197	-104.868	-3.829	-107.262	-8191	255	
2722.865	1	1	0	0	0.11592	0.36026	0.10697	0.3143	0.27322	0.033611	0.13398	0.16364	0.24257	0.12364	0.29968	0.30172	0.21806	0.3079	0.14947	0.082614	-1.6792	-2.7354	-2.5542	-2.1521	-2.9479	-2.3854	-2.4688	-3	-1.9875	-2.7812	-2.9167	-2.1875	-3.075	-2.5083	-2.1229	-3.0458	3.871	217.805	90.171	-126.877	42.883	208.670	160.605	134.864	54.762	-107.768	-10.814	-115.814	221.253	191.246	29.804	221.880	0.00082521	0.00048439	0.00017409	720.6	3.9099e-06	4.2664e-06	765.22	284.11	3.6503e-06	8.4578e-06	346.65	154.09	126.45	68.68	3.7155e-06	92.606	0.0013954	0.0017319	0.00046053	782.11	1.6627e-05	1.9198e-05	833.23	309.92	1.7694e-05	1.948e-05	378.76	170.31	139.5	76.014	1.8835e-05	102.34	172.644	-44.427	-31.523	-120.498	9.743	20.703	-121.267	-114.993	-0.768	30.316	-116.495	-111.642	-110.284	-104.810	0.406	-107.156	-8191	255	
2722.962	1	1	0	0	0.025675	0.24626	0.12253	0.13037	0.16668	0.10952	0.18959	0.13328	0.027494	0.37052	0.14037	0.14512	0.35869	0.1201	0.13398	0.098671	-1.6708	-2.5396	-2.8312	-1.9813	-3.0333	-2.5333	-2.35	-2.95	-2.2229	-2.5687	-2.8333	-2.0104	-2.9083	-2.6771	-2.1417	-3.1042	214.043	-84.077	43.954	168.910	119.900	-92.087	178.895	187.877	-110.816	-13.164	-105.562	-118.267	194.478	-123.590	10.023	121.589	0.00082148	0.00052169	0.0001929	721.75	3.9754e-06	6.7965e-06	766.82	284.6	3.4148e-06	5.5089e-06	347.4	154.91	126.95	69.165	4.7496e-06	92.933	0.0013993	0.0017161	0.00045812	783.06	1.6752e-05	1.8459e-05	835.75	310.89	1.7327e-05	1.947e-05	379.98	171.11	140.22	76.361	1.8976e-05	102.94	173.126	-40.638	-42.372	-120.275	23.541	22.862	-121.044	-114.766	-14.002	7.995	-116.435	-111.784	-110.308	-104.738	-9.209	-107.200	-8191	255	
2723.057	1	1	0	0	0.046736	0.011733	0.22118	0.11792	0.21561	0.18838	0.067035	0.34985	0.046038	0.2348	0.090716	0.18034	0.17875	0.38199	0.30809	0.25567	-1.8958	-2.3563	-2.9354	-2.1437	-2.6646	-2.7375	-2.1208	-2.9813	-2.35	-2.3438	-2.9771	-2.05	-2.9208	-2.8854	-2.1396	-3.0583	189.578	179.821	45.949	207.280	186.892	-103.175	93.416	138.788	-34.430	157.064	218.087	127.935	-108.930	128.725	216.603	-125.075	0.00079561	0.00071881	0.00015516	723.92	4.774e-06	6.1113e-06	769.06	284.92	3.512e-06	5.547e-06	346.9	155.36	126.79	68.813	5.3252e-06	92.445	0.0013876	0.0017373	0.00044017	786.5	1.6688e-05	1.8303e-05	838.31	311.62	1.7083e-05	1.9329e-05	379.9	171.1	139.72	76.037	1.8834e-05	102.23	173.797	-36.454	-16.150	-120.481	11.844	16.152	-121.074	-114.726	-15.846	22.486	-116.386	-111.838	-110.175	-104.641	8.653	-107.240	-8191	255	
2723.153	1	1	0	0	0.040438	0.1899	0.19335	0.25922	0.17414	0.131	0.24668	0.09152	0.097634	0.081001	0.15843	0.30672	0.17039	0.34463	0.19222	0.1396	-1.9417	-2.3229	-3.0104	-2.2042	-2.65	-2.925	-2.2771	-3.0396	-2.4271	-2.2083	-2.9625	-2.275	-2.625	-3.1688	-2.0604	-2.9542	177.048	-33.439	-90.783	199.616	213.908	156.462	197.860	180.607	148.084	-72.328	208.120	120.724	77.153	-121.042	-125.391	134.823	0.00079729	0.00027544	0.00016065	724.68	4.9867e-06	5.282e-06	766.98	283.76	5.2998e-06	7.5645e-06	346.25	154.15	126.44	68.683	4.744e-06	92.081	0.001366	0.0017352	0.00046129	784.14	1.731e-05	1.8709e-05	834.35	310.04	1.7156e-05	2.0164e-05	378.57	169.94	139.33	75.821	1.9346e-05	101.92	172.930	-47.366	-35.103	-120.423	14.100	0.672	-121.178	-114.579	-16.756	21.671	-116.277	-111.729	-110.064	-104.739	-2.848	-107.038	-8191	255	
2723.249	1	1	0	0	0.059283	0.3561	0.13419	0.10191	0.10036	0.24278	0.075293	0.1123	0.29506	0.18839	0.098197	0.099487	0.22598	0.21235	0.30235	0.13111	-2.0875	-2.2083	-2.9896	-2.4167	-2.4771	-2.9042	-2.1271	-2.7812	-2.6792	-2.1562	-3.1229	-2.3875	-2.5604	-3.1417	-2.0771	-2.9667	11.806	-66.744	148.607	201.302	-99.722	55.649	-48.384	222.589	-100.025	-51.458	7.484	-61.400	155.502	196.383	159.374	-62.527	0.00081842	0.00055029	0.00012659	724.89	4.4842e-06	4.4564e-06	767.71	283.98	5.8174e-06	5.2793e-06	346.12	155.21	126.51	68.602	4.0647e-06	92.371	0.0013575	0.0017866	0.00046248	783.83	1.7488e-05	1.8162e-05	835.06	310.61	1.7294e-05	2.0069e-05	378.91	170.76	139.51	75.867	1.9013e-05	102.19	172.321	-38.704	-43.611	-120.237	2.340	22.349	-121.176	-114.711	-28.843	15.705	-116.244	-111.581	-109.901	-104.623	-15.220	-107.055	-8191	255	
2723.370	1	1	0	0	0.26218	0.18016	0.1357	0.20942	0.030191	0.16284	0.26389	0.33034	0.15134	0.068151	0.13409	0.32977	0.18499	0.17902	0.069604	0.15512	-2.4021	-2.1854	-2.9938	-2.3604	-2.4625	-3.05	-2.1312	-2.6875	-2.6042	-1.9354	-2.9083	-2.6188	-2.3667	-3.0125	-2.1208	-2.7771	-107.468	-63.377	-1.328	182.051	205.247	108.427	184.127	224.779	219.975	46.786	195.108	192.096	51.858	224.490	156.006	133.079	0.00085728	0.0005719	0.00016096	722.41	4.9493e-06	5.7334e-06	768.82	284.47	4.3059e-06	5.025e-06	349.21	155.16	127.09	68.71	4.5953e-06	93.085	0.0013674	0.0017708	0.00046487	784.09	1.7552e-05	1.8491e-05	836.7	311.02	1.7034e-05	1.959e-05	381.26	171.37	140.03	76.096	1.8867e-05	102.69	172.596	-38.666	-41.968	-120.419	9.560	21.344	-121.102	-114.752	12.876	22.536	-116.000	-111.601	-109.873	-104.624	-1.491	-106.946	-8191	255	
2723.466	1	1	0	0	0.038018	0.30032	0.17117	0.063636	0.20192	0.093633	0.15723	0.32448	0.020538	0.21771	0.061932	0.24594	0.19191	0.18644	0.22126	0.31209	-2.3458	-2.0875	-2.8833	-2.575	-2.1729	-2.9771	-2.3271	-2.8333	-2.7812	-2.1292	-2.9562	-2.4771	-2.2104	-3.075	-2.3271	-2.5521	72.879	-81.077	216.527	-113.275	-54.552	172.341	81.733	170.169	209.049	-120.218	142.655	111.293	87.708	-99.499	211.010	186.527	0.00084591	0.00053044	0.00010549	723.02	4.5833e-06	4.8651e-06	764.99	284.58	4.8113e-06	4.5713e-06	347.75	154.27	125.81	68.372	3.9898e-06	91.943	0.0013471	0.0017645	0.00047519	784.36	1.7815e-05	1.8408e-05	834.19	310.72	1.6923e-05	1.962e-05	378.94	169.94	139.01	75.594	1.8814e-05	101.49	172.552	-35.659	-15.502	-120.266	9.398	19.311	-121.009	-114.559	-20.258	25.280	-116.210	-111.762	-110.127	-104.713	-8.409	-106.886	-8191	255	
#DATA ENDS
