BOXY.EXE: ISS Imagent and Oximeter Data Acquisition Program Version 0.80
Ascii Record File

#ACQ INFORMATION
2  Detector Channels 
16  External MUX Channels 
1  Auxiliary Channels 
5000  Waveform (CCF) Frequency (Hz)
1  Waveforms Skipped 
30  Waveforms Averaged 
1  Cycles Averaged 
16  Acquisitions per Waveform 
10.0806  Updata Rate (Hz) 

#FILE INFORMATION
TRUE -- External MUX Channel results are PARSED.
FALSE -- AC DC and Phase are NOT grouped.
TRUE -- Companion Program Settings File CREATED.
FALSE -- AC data not excluded
FALSE -- DC data not excluded
FALSE -- Phase data not excluded
FALSE -- Auxillary Chn. data not excluded
Tab delimiters

#CALIBRATION STATE
TRUE -- Waveform Calibration Values APPLIED.


#AUX CALIBRATION VALUES
Val Type	aux-1	

Term	1.0000e+00	
Factor	0.0000e+00	


#WF CALIBRATION VALUES
A = Detector Channel
Val Type	A-AC1	A-AC2	A-AC3	A-AC4	A-AC5	A-AC6	A-AC7	A-AC8	A-AC9	A-AC10	A-AC11	A-AC12	A-AC13	A-AC14	A-AC15	A-AC16	A-DC1	A-DC2	A-DC3	A-DC4	A-DC5	A-DC6	A-DC7	A-DC8	A-DC9	A-DC10	A-DC11	A-DC12	A-DC13	A-DC14	A-DC15	A-DC16	A-Ph1	A-Ph2	A-Ph3	A-Ph4	A-Ph5	A-Ph6	A-Ph7	A-Ph8	A-Ph9	A-Ph10	A-Ph11	A-Ph12	A-Ph13	A-Ph14	A-Ph15	A-Ph16	

Term	0.00000e+00	0.00000e+00	0.00000e+00	0.00000e+00	0.00000e+00	0.00000e+00	0.00000e+00	0.00000e+00	0.00000e+00	0.00000e+00	0.00000e+00	0.00000e+00	0.00000e+00	0.00000e+00	0.00000e+00	0.00000e+00	0.00000e+00	0.00000e+00	0.00000e+00	0.00000e+00	0.00000e+00	0.00000e+00	0.00000e+00	0.00000e+00	0.00000e+00	0.00000e+00	0.00000e+00	0.00000e+00	0.00000e+00	0.00000e+00	0.00000e+00	0.00000e+00	0.00000e+00	0.00000e+00	0.00000e+00	0.00000e+00	0.00000e+00	0.00000e+00	0.00000e+00	0.00000e+00	0.00000e+00	0.00000e+00	0.00000e+00	0.00000e+00	0.00000e+00	0.00000e+00	0.00000e+00	0.00000e+00	
Factor	1.00000e+00	1.00000e+00	1.00000e+00	1.00000e+00	1.00000e+00	1.00000e+00	1.00000e+00	1.00000e+00	1.00000e+00	1.00000e+00	1.00000e+00	1.00000e+00	1.00000e+00	1.00000e+00	1.00000e+00	1.00000e+00	1.00000e+00	1.00000e+00	1.00000e+00	1.00000e+00	1.00000e+00	1.00000e+00	1.00000e+00	1.00000e+00	1.00000e+00	1.00000e+00	1.00000e+00	1.00000e+00	1.00000e+00	1.00000e+00	1.00000e+00	1.00000e+00	X	X	X	X	X	X	X	X	X	X	X	X	X	X	X	X	

B = Detector Channel
Val Type	B-AC1	B-AC2	B-AC3	B-AC4	B-AC5	B-AC6	B-AC7	B-AC8	B-AC9	B-AC10	B-AC11	B-AC12	B-AC13	B-AC14	B-AC15	B-AC16	B-DC1	B-DC2	B-DC3	B-DC4	B-DC5	B-DC6	B-DC7	B-DC8	B-DC9	B-DC10	B-DC11	B-DC12	B-DC13	B-DC14	B-DC15	B-DC16	B-Ph1	B-Ph2	B-Ph3	B-Ph4	B-Ph5	B-Ph6	B-Ph7	B-Ph8	B-Ph9	B-Ph10	B-Ph11	B-Ph12	B-Ph13	B-Ph14	B-Ph15	B-Ph16	

Term	0.00000e+00	0.00000e+00	0.00000e+00	0.00000e+00	0.00000e+00	0.00000e+00	0.00000e+00	0.00000e+00	0.00000e+00	0.00000e+00	0.00000e+00	0.00000e+00	0.00000e+00	0.00000e+00	0.00000e+00	0.00000e+00	0.00000e+00	0.00000e+00	0.00000e+00	0.00000e+00	0.00000e+00	0.00000e+00	0.00000e+00	0.00000e+00	0.00000e+00	0.00000e+00	0.00000e+00	0.00000e+00	0.00000e+00	0.00000e+00	0.00000e+00	0.00000e+00	-1.55424e+02	-1.27235e+02	-1.24166e+02	-1.80391e+02	-7.40752e+01	-6.35377e+01	-1.56642e+02	-1.62015e+02	-7.80018e+01	-6.24457e+01	-1.75242e+02	-1.71364e+02	-1.79620e+02	-1.76316e+02	-7.26602e+01	-1.49562e+02	
Factor	2.32168e-05	1.44619e-04	3.90176e-05	1.53962e-01	1.28637e-06	1.68364e-06	1.74380e-01	5.13261e-02	1.26631e-06	1.62331e-06	9.43026e-02	3.18907e-02	2.43581e-02	9.34159e-03	1.41395e-06	1.29416e-02	1.42752e-05	2.56240e-05	7.09592e-06	7.92124e-02	2.49870e-07	2.88134e-07	8.45014e-02	2.65240e-02	2.52790e-07	2.91573e-07	4.71960e-02	1.60623e-02	1.27823e-02	4.86681e-03	2.69113e-07	6.54773e-03	X	X	X	X	X	X	X	X	X	X	X	X	X	X	X	X	



#DISTANCE SETTINGS
A = Detector Channel
A-1	A-2	A-3	A-4	A-5	A-6	A-7	A-8	A-9	A-10	A-11	A-12	A-13	A-14	A-15	A-16	

2.5000e+00	3.0000e+00	2.5000e+00	3.0000e+00	2.0000e+00	3.0000e+00	1.5000e+00	3.0000e+00	3.0000e+00	3.0000e+00	3.0000e+00	3.0000e+00	3.0000e+00	3.0000e+00	1.5000e+00	3.0000e+00	

B = Detector Channel
B-1	B-2	B-3	B-4	B-5	B-6	B-7	B-8	B-9	B-10	B-11	B-12	B-13	B-14	B-15	B-16	

1.0000e+01	1.0000e+01	1.0000e+01	1.4400e+00	1.0000e+01	1.0000e+01	1.5100e+00	1.9400e+00	1.0000e+01	1.0000e+01	1.9900e+00	2.4900e+00	2.4100e+00	2.9000e+00	1.0000e+01	2.9800e+00	




#DATA BEGINS
time	group	step	mark	flag	A-AC1	A-AC2	A-AC3	A-AC4	A-AC5	A-AC6	A-AC7	A-AC8	A-AC9	A-AC10	A-AC11	A-AC12	A-AC13	A-AC14	A-AC15	A-AC16	A-DC1	A-DC2	A-DC3	A-DC4	A-DC5	A-DC6	A-DC7	A-DC8	A-DC9	A-DC10	A-DC11	A-DC12	A-DC13	A-DC14	A-DC15	A-DC16	A-Ph1	A-Ph2	A-Ph3	A-Ph4	A-Ph5	A-Ph6	A-Ph7	A-Ph8	A-Ph9	A-Ph10	A-Ph11	A-Ph12	A-Ph13	A-Ph14	A-Ph15	A-Ph16	B-AC1	B-AC2	B-AC3	B-AC4	B-AC5	B-AC6	B-AC7	B-AC8	B-AC9	B-AC10	B-AC11	B-AC12	B-AC13	B-AC14	B-AC15	B-AC16	B-DC1	B-DC2	B-DC3	B-DC4	B-DC5	B-DC6	B-DC7	B-DC8	B-DC9	B-DC10	B-DC11	B-DC12	B-DC13	B-DC14	B-DC15	B-DC16	B-Ph1	B-Ph2	B-Ph3	B-Ph4	B-Ph5	B-Ph6	B-Ph7	B-Ph8	B-Ph9	B-Ph10	B-Ph11	B-Ph12	B-Ph13	B-Ph14	B-Ph15	B-Ph16	aux-1	digaux	

2859.506	1	1	0	768	0.144	0.068182	0.18323	0.043045	0.092303	0.14538	0.1946	0.13043	0.19521	0.076831	0.10481	0.16567	0.14812	0.071711	0.093229	0.24986	-1.7458	-3.2313	-2.6063	-2.5563	-3.0396	-2.2708	-2.8208	-2.9375	-2.1521	-3.0875	-2.525	-2.3896	-3.1312	-2.3667	-2.5896	-3.0583	399.091	204.038	165.426	258.024	153.626	289.028	229.411	458.327	358.367	291.235	451.076	157.767	312.820	243.747	386.373	372.699	0.00065236	0.00031175	8.6083e-05	480.67	3.4866e-06	2.6304e-06	551.56	155.86	3.2006e-06	3.4678e-06	215.29	87.357	60.177	29.87	3.3591e-06	44.899	0.00057788	0.00050415	0.00013509	530.1	5.0937e-06	5.5844e-06	609.19	172.8	5.3771e-06	5.484e-06	239.38	97.405	67.095	33.745	5.5213e-06	50.698	161.152	246.757	240.773	162.637	294.240	324.073	161.318	167.793	272.146	299.734	165.987	170.845	172.840	178.063	273.658	175.136	-8191	255	
2859.602	1	1	0	0	0.22774	0.10877	0.19558	0.14887	0.19169	0.19521	0.089064	0.083713	0.17834	0.087672	0.14663	0.1404	0.18098	0.26318	0.025175	0.21414	-1.9562	-2.8708	-2.5187	-2.4188	-3.0021	-2.2938	-2.6917	-3.0542	-2.2854	-3.0042	-2.6104	-2.3396	-3.1083	-2.3312	-2.5771	-3.0938	475.891	356.900	380.108	403.574	283.544	220.252	178.142	155.429	352.426	384.959	429.728	395.859	506.405	495.186	431.016	445.975	0.00064966	0.00029656	6.4629e-05	481.67	3.7949e-06	2.2648e-06	553.96	156.46	2.6114e-06	2.7169e-06	216.64	86.852	60.271	29.605	3.0017e-06	44.288	0.00057657	0.00048659	0.00013771	531.85	5.1838e-06	5.3179e-06	611.53	173.87	5.2744e-06	5.5873e-06	240.51	97.286	67.328	33.436	5.8005e-06	50.04	162.437	249.036	262.286	162.462	282.075	315.933	161.660	167.567	271.503	306.176	166.017	170.921	172.358	178.096	286.231	175.394	-8191	255	
2859.699	1	1	0	0	0.31182	0.068299	0.16642	0.40795	0.050417	0.26428	0.23428	0.14535	0.21974	0.13073	0.095203	0.17725	0.1043	0.12986	0.056361	0.18278	-1.875	-2.8167	-2.8937	-2.1021	-3.1167	-2.4333	-2.4313	-3.2167	-2.2833	-2.7521	-2.8083	-2.2229	-2.9208	-2.5396	-2.4583	-3.2167	187.086	458.260	454.030	453.446	194.286	335.446	394.842	434.184	444.673	267.166	376.561	461.333	475.202	272.139	326.894	386.329	0.00064678	0.00033961	7.436e-05	492.01	3.1972e-06	3.624e-06	557.2	156.23	2.7236e-06	3.655e-06	215.05	86.405	59.631	29.036	2.8967e-06	43.715	0.00057297	0.00051424	0.00014556	542.25	5.201e-06	5.7279e-06	616.82	173.58	5.5361e-06	5.8497e-06	239.1	96.273	66.524	32.822	5.9653e-06	49.266	161.681	247.327	228.372	162.290	276.848	293.989	161.454	167.595	274.493	304.190	165.776	170.672	172.414	177.935	289.332	175.180	-8191	255	
2859.795	1	1	0	0	0.12704	0.062877	0.094365	0.1314	0.4325	0.2419	0.080094	0.2387	0.045838	0.046067	0.28312	0.25032	0.062129	0.28251	0.15743	0.21484	-1.9729	-2.8292	-2.9083	-2.2833	-2.8646	-2.5625	-2.4562	-3.0062	-2.2396	-2.6833	-3.2146	-2.2729	-3.0812	-2.7667	-2.2292	-3.2167	372.497	429.086	283.927	421.270	335.770	168.808	255.426	477.194	496.523	225.809	164.810	497.525	258.858	413.754	167.465	501.507	0.00064481	0.00021312	5.9596e-05	488.66	2.5024e-06	3.1313e-06	560.4	156.49	3.3829e-06	3.7559e-06	216.13	86.055	59.621	28.871	2.9964e-06	43.416	0.00057119	0.00054024	0.00014637	540.88	5.4649e-06	5.9656e-06	618.23	173.73	5.6467e-06	5.894e-06	239.87	96.022	66.413	32.596	5.934e-06	48.94	162.821	251.000	237.664	162.427	271.276	317.138	161.379	167.463	274.511	294.275	165.936	170.862	172.374	177.791	283.686	175.217	-8191	255	
2859.891	1	1	0	0	0.14269	0.029247	0.078859	0.14301	0.073546	0.09184	0.16607	0.11935	0.15688	0.1197	0.069121	0.13327	0.095699	0.11226	0.26827	0.13693	-1.8563	-2.4979	-2.9917	-2.175	-2.8104	-2.7583	-2.3167	-3.0583	-2.4292	-2.5625	-3.225	-2.1542	-2.8875	-2.9271	-2.2	-3.1188	253.146	249.610	244.145	445.841	477.989	423.072	223.896	404.510	266.304	324.930	392.408	367.681	249.980	287.140	156.407	490.225	0.00063594	0.00030066	7.3377e-05	492.52	1.835e-06	2.7568e-06	557.69	156.36	2.8919e-06	3.4298e-06	215.54	85.61	59.232	28.777	3.3986e-06	43.199	0.00058178	0.00052417	0.0001417	543.61	5.127e-06	5.6534e-06	617.99	173.3	5.6077e-06	5.874e-06	239.44	95.6	66.004	32.445	5.9031e-06	48.786	162.827	250.300	251.441	162.319	268.877	299.236	161.278	167.907	277.588	316.991	166.044	170.847	172.529	178.012	279.461	175.016	-8191	255	
2859.987	1	1	0	0	0.1761	0.068923	0.19217	0.06693	0.14072	0.16788	0.31404	0.1709	0.020165	0.046841	0.1308	0.12896	0.28253	0.098804	0.12048	0.034346	-2.0958	-2.5146	-3.2438	-2.3271	-2.8521	-3.05	-2.3896	-3.1208	-2.5667	-2.4146	-3.2708	-2.3021	-2.7896	-2.9833	-2.2479	-3.0458	176.570	306.201	276.799	196.828	339.937	217.475	507.230	422.898	255.460	240.099	339.240	440.301	449.965	377.652	309.616	479.625	0.0006584	0.00025273	9.777e-05	486.68	3.0708e-06	2.8673e-06	554.99	155.45	2.4091e-06	3.2584e-06	213.74	85.075	58.446	28.408	2.8645e-06	42.827	0.00058276	0.00053613	0.00014224	537	5.1806e-06	5.8095e-06	612.95	172.25	5.3971e-06	5.8345e-06	237.83	94.892	65.505	32.067	5.8325e-06	48.2	163.997	223.461	241.577	162.380	267.921	317.331	161.467	167.607	266.793	304.643	166.082	170.696	172.738	178.075	273.827	175.423	-8191	255	
2860.108	1	1	0	0	0.18555	0.097578	0.25196	0.19277	0.17789	0.13914	0.35934	0.082209	0.11697	0.34153	0.12671	0.16467	0.19751	0.40807	0.141	0.18108	-2.3333	-2.1229	-3.1	-2.3292	-2.8271	-3.0896	-2.4021	-2.9667	-2.6937	-2.3	-3.1271	-2.4625	-2.6375	-3.0125	-2.2062	-2.9521	419.389	467.010	309.678	469.483	322.885	461.935	210.039	400.612	247.970	215.564	338.396	508.539	500.978	194.967	208.225	168.421	0.00059291	0.00036112	6.7357e-05	483.71	4.0739e-06	4.2388e-06	553.05	155.34	3.2905e-06	2.1701e-06	213.96	85.212	58.614	28.458	2.794e-06	42.917	0.00056572	0.00054136	0.00015379	534.4	5.5169e-06	5.9314e-06	612.13	172.11	5.6019e-06	6.1783e-06	237.83	94.817	65.472	32.108	6.0943e-06	48.409	161.718	241.958	264.587	162.393	273.967	305.958	161.576	167.535	270.159	294.971	166.118	170.954	172.820	177.927	292.647	175.230	-8191	255	
2860.204	1	1	0	0	0.14498	0.15662	0.12313	0.1258	0.23631	0.2519	0.25449	0.30574	0.24917	0.038805	0.11082	0.074053	0.077443	0.21059	0.035646	0.018015	-2.5229	-2.2917	-2.9146	-2.4771	-2.5917	-3.0563	-2.3708	-2.7604	-2.6021	-2.0896	-2.9188	-2.6333	-2.3083	-3.3583	-2.3792	-2.8667	317.647	412.775	226.577	208.185	229.334	202.978	287.766	247.885	486.794	308.267	208.499	336.762	388.019	170.308	500.694	242.619	0.00062111	0.00021614	8.7443e-05	484.9	3.16e-06	3.7658e-06	553.45	155.28	3.2099e-06	3.4118e-06	214.41	85.558	58.692	28.826	3.8617e-06	43.524	0.00056994	0.00055567	0.00014789	534.29	5.5414e-06	5.8239e-06	612.44	172.09	5.4524e-06	6.0757e-06	238.3	95.314	65.7	32.489	5.8762e-06	49.09	162.735	229.625	244.073	162.395	285.630	305.402	161.690	167.912	291.417	307.661	166.075	170.785	172.755	178.090	280.358	175.353	-8191	255	
2860.300	1	1	0	0	0.26195	0.13039	0.15501	0.21255	0.040856	0.21828	0.10631	0.070325	0.13601	0.18503	0.27352	0.29774	0.11959	0.23117	0.10764	0.10456	-2.4167	-2.1437	-2.9521	-2.3854	-2.7125	-3.15	-2.3	-2.7625	-2.8958	-2.2	-3.0917	-2.6583	-2.3375	-3.0479	-2.4208	-2.7667	173.079	507.885	185.618	180.358	465.527	440.260	306.912	299.574	388.824	496.090	500.390	478.225	224.555	438.700	480.154	340.072	0.00062516	0.00028786	9.9788e-05	485.29	3.3098e-06	2.6454e-06	553.93	154.5	3.5882e-06	3.5786e-06	212.89	84.341	58.546	28.775	3.127e-06	43.039	0.00056265	0.00054056	0.00014655	535.17	5.4685e-06	5.7501e-06	611.6	171.6	5.5251e-06	6.2008e-06	236.77	94.557	65.445	32.423	5.7972e-06	48.567	164.486	221.260	220.334	162.323	291.286	296.624	161.430	167.791	274.649	301.319	166.331	171.151	172.815	178.331	286.935	175.374	-8191	255	
2860.396	1	1	0	0	0.14568	0.062746	0.10201	0.16708	0.22601	0.048035	0.17606	0.28841	0.047312	0.028479	0.18929	0.10456	0.13735	0.17758	0.19163	0.18729	-2.6667	-2.0563	-3.0833	-2.7396	-2.2188	-3.0833	-2.3917	-2.6	-3.0417	-2.3271	-2.95	-2.7687	-2.2271	-3.2229	-2.4042	-2.3979	279.385	435.570	387.092	191.955	471.473	165.965	429.623	503.743	261.678	412.262	211.992	410.396	184.166	396.924	415.906	351.677	0.00062141	0.00021062	6.6775e-05	480.41	2.9078e-06	3.0391e-06	549.95	153.59	2.7652e-06	3.5648e-06	211.45	84.137	58.227	28.554	3.2583e-06	42.674	0.0005788	0.00054056	0.00014507	529.67	5.404e-06	5.8209e-06	607.63	170.46	5.3349e-06	5.9718e-06	235.92	93.995	65.051	32.157	5.7086e-06	48.135	162.594	244.529	244.985	162.654	264.073	288.325	161.430	168.012	288.928	298.508	166.317	170.908	172.871	178.312	294.617	175.302	-8191	255	
2860.490	1	1	0	0	0.15564	0.12916	0.075899	0.13997	0.10577	0.31166	0.23975	0.19124	0.17431	0.17501	0.18002	0.10649	0.27738	0.090792	0.08125	0.088174	-2.4729	-2.1854	-2.8042	-2.9146	-2.1042	-2.9646	-2.75	-2.4667	-3.2812	-2.3271	-3.0354	-3.1063	-2.4417	-3.2125	-2.7167	-2.2979	152.535	292.568	399.036	463.172	451.878	379.877	408.055	172.194	163.206	391.187	504.455	155.301	378.661	415.889	465.807	374.206	0.00060718	0.00029022	0.00010288	477.82	2.6735e-06	2.4923e-06	549.76	153.5	3.744e-06	3.2631e-06	212.35	84.43	58.481	28.437	3.4719e-06	42.77	0.0005675	0.00054643	0.00014492	527.59	5.6575e-06	5.7213e-06	606.75	170.76	5.3929e-06	6.1279e-06	236.6	94.314	65.097	32.051	5.856e-06	48.241	162.141	240.777	259.040	162.459	295.923	280.461	161.255	167.436	285.598	311.436	166.052	170.891	172.466	178.084	285.085	175.293	-8191	255	
2860.587	1	1	0	0	0.15334	0.032708	0.15808	0.36061	0.069183	0.18085	0.17829	0.21214	0.088557	0.30208	0.3088	0.069493	0.12025	0.25173	0.10811	0.072894	-2.9417	-2.2958	-2.8042	-2.9375	-2.1083	-3.1292	-2.6333	-2.4375	-3.15	-2.4354	-2.7375	-3.1354	-2.35	-2.8708	-2.6875	-2.4292	213.286	240.360	350.142	444.730	399.543	439.736	460.477	399.343	161.347	371.885	382.622	349.812	431.717	454.625	415.594	170.311	0.00061665	0.00025133	7.4938e-05	478.8	3.6333e-06	3.8533e-06	548.79	154.46	2.5783e-06	3.9663e-06	212.61	85.337	58.686	28.746	2.4621e-06	43.133	0.00057181	0.00053426	0.00014909	526.82	5.6002e-06	5.8071e-06	607.1	171.3	5.5477e-06	6.052e-06	236.99	94.955	65.402	32.395	5.6648e-06	48.665	162.322	264.029	229.761	162.402	279.135	295.846	161.355	167.967	278.742	311.640	166.177	171.026	172.514	178.331	290.326	175.290	-8191	255	
2860.707	1	1	0	0	0.058704	0.11654	0.073106	0.081696	0.11495	0.11006	0.066064	0.31378	0.32871	0.26318	0.062911	0.2554	0.14142	0.094334	0.065228	0.094786	-2.8604	-2.2125	-2.4521	-3.0979	-2.2396	-3.0854	-2.8125	-2.475	-3.2771	-2.5771	-2.6208	-3.0958	-2.2625	-2.9667	-2.8479	-2.2604	297.745	380.223	423.178	186.369	473.532	397.340	475.286	370.924	159.450	413.696	186.364	193.448	466.293	346.720	502.104	150.203	0.00062541	0.00030357	7.907e-05	480.63	3.2913e-06	1.8838e-06	551.27	154.71	2.7212e-06	3.3757e-06	213.29	84.574	58.643	28.613	2.5832e-06	42.941	0.00056072	0.00052647	0.00014307	529.57	5.43e-06	5.4811e-06	608.9	171.47	5.2507e-06	5.679e-06	237.12	94.578	65.403	32.324	5.5224e-06	48.399	162.117	232.954	236.441	162.300	290.928	290.314	161.443	167.779	275.698	307.522	166.118	170.874	172.903	178.319	285.474	175.177	-8191	255	
2860.803	1	1	0	0	0.16229	0.34115	0.33825	0.10273	0.12115	0.12969	0.26725	0.25994	0.091971	0.18762	0.10486	0.30064	0.40068	0.31015	0.14693	0.1742	-2.7333	-2.5542	-2.3583	-3.2104	-2.3563	-2.9083	-3.1333	-2.2083	-3.1917	-2.5208	-2.4125	-3.2979	-2.3479	-2.6833	-3.1917	-2.35	203.372	205.030	191.665	471.410	344.318	441.221	287.459	166.711	474.704	180.789	207.338	488.063	204.794	499.879	264.334	162.299	0.00061802	0.00019084	8.3547e-05	481.09	3.2293e-06	3.7033e-06	553.08	154.35	2.8092e-06	3.0103e-06	214.04	84.685	58.665	28.438	3.665e-06	42.704	0.00056069	0.00052673	0.00014051	530.04	5.2036e-06	5.5598e-06	611.07	171.71	5.1785e-06	5.6832e-06	238.21	94.485	65.485	32.163	5.6217e-06	48.27	165.260	234.218	226.483	162.472	291.415	299.500	161.486	167.800	279.619	311.857	165.949	170.761	172.499	177.848	273.266	175.097	-8191	255	
2860.900	1	1	0	0	0.1396	0.082971	0.1855	0.2262	0.12715	0.15405	0.13918	0.13353	0.23474	0.13719	0.12862	0.20998	0.068652	0.23797	0.11889	0.084667	-2.7271	-2.5417	-2.3729	-3.3625	-2.3896	-2.6167	-2.9188	-2.1229	-2.9917	-2.9188	-2.4729	-3.2	-2.4521	-2.5208	-3.0208	-2.3688	276.323	330.126	386.268	495.183	211.264	381.652	422.995	186.655	192.942	351.911	459.273	218.367	495.514	208.055	238.859	334.076	0.00063017	0.00028536	0.00010212	483.4	1.7593e-06	3.966e-06	558.92	155.8	2.5273e-06	3.8382e-06	215.08	85.29	58.692	28.291	3.3136e-06	42.757	0.00055929	0.00050207	0.00014482	534.13	5.2296e-06	5.6984e-06	615.78	172.64	5.2633e-06	5.6772e-06	239.05	95.182	65.513	31.999	5.6441e-06	48.252	162.646	236.887	236.590	162.280	275.656	311.949	161.236	167.605	287.556	303.359	166.115	170.937	172.518	178.207	288.924	175.127	-8191	255	
2860.996	1	1	0	0	0.12814	0.26767	0.28436	0.15772	0.13164	0.12685	0.23097	0.08405	0.14865	0.076612	0.22971	0.2336	0.1178	0.28177	0.2761	0.038345	-2.6625	-2.9396	-2.3083	-3.1688	-2.4604	-2.5083	-3.3229	-2.2042	-2.9354	-2.9667	-2.4958	-3.0854	-2.5771	-2.5667	-3.1229	-2.4083	346.748	189.815	394.034	461.029	434.400	459.376	398.271	241.266	309.344	509.259	444.409	264.560	501.157	394.672	503.819	482.340	0.00063197	0.00027097	6.9773e-05	485.44	3.4054e-06	2.6956e-06	558.17	155.45	3.1445e-06	3.6826e-06	215.29	85.203	58.805	28.404	2.7868e-06	42.831	0.00056024	0.00051179	0.00014875	535.65	5.3644e-06	5.8917e-06	616.13	172.76	5.5108e-06	5.9451e-06	239.52	95.24	65.667	32.087	5.9048e-06	48.276	163.281	234.741	246.261	162.283	278.938	300.841	161.285	167.648	279.999	325.906	166.109	170.844	172.545	177.829	295.221	175.072	-8191	255	
2861.067	1	1	0	0	0.16916	0.1489	0.10492	0.22528	0.20651	0.077294	0.22544	0.43922	0.17896	0.34008	0.28794	0.11634	0.061349	0.29559	0.057587	0.068512	-2.4938	-2.8646	-2.2583	-3.0875	-2.5938	-2.3521	-3.1771	-2.2542	-2.5771	-3.025	-2.3146	-2.9917	-2.9021	-2.3063	-3.2979	-2.3708	316.707	504.934	462.829	460.826	230.995	388.948	462.868	426.855	380.216	495.503	476.926	261.517	402.896	457.680	309.977	405.966	0.00062622	0.00022144	7.1099e-05	482.2	3.1789e-06	3.3698e-06	553.14	154.25	3.358e-06	3.2062e-06	214.43	85.261	58.468	28.731	3.3668e-06	43.198	0.00056691	0.00053421	0.00015055	532.06	5.3925e-06	5.9067e-06	612.21	171.69	5.4603e-06	5.6978e-06	238.24	95.045	65.536	32.39	5.6979e-06	48.61	162.386	224.085	242.718	162.424	268.604	301.034	161.285	167.653	285.886	302.501	166.107	170.981	172.673	178.323	282.435	175.089	-8191	255	
2861.188	1	1	0	0	0.2291	0.1456	0.11875	0.12496	0.28977	0.1049	0.080688	0.18984	0.13724	0.12735	0.10747	0.1786	0.27571	0.035654	0.20874	0.20045	-2.0896	-3.1083	-2.1271	-2.9646	-2.6583	-2.2292	-3.1604	-2.4458	-2.7292	-3.1646	-2.4396	-2.9813	-2.8917	-2.15	-2.9354	-2.5542	226.728	476.404	185.155	435.453	172.771	425.257	413.902	244.005	384.406	402.081	407.341	490.940	399.954	194.592	240.791	384.082	0.0006176	0.00031212	9.0574e-05	484.1	3.203e-06	3.3947e-06	554.5	154.58	3.3222e-06	2.899e-06	214.8	85.469	59.209	28.877	3.184e-06	43.459	0.00056423	0.00051531	0.0001456	534.37	5.0817e-06	5.537e-06	615.06	172.12	5.2975e-06	5.6772e-06	239	95.549	66.043	32.659	5.5493e-06	49.001	162.615	237.335	247.830	162.503	293.036	286.185	161.311	167.591	282.952	299.577	165.904	170.886	172.670	178.250	288.833	175.191	-8191	255	
2861.284	1	1	0	0	0.18644	0.096306	0.2197	0.2725	0.203	0.10511	0.13317	0.091253	0.23333	0.23434	0.21677	0.13171	0.095771	0.1867	0.15292	0.30397	-2.2208	-3.3042	-2.2625	-3.0271	-2.9167	-2.2833	-2.9271	-2.6125	-2.0667	-3.0208	-2.3333	-2.8396	-3.0729	-2.3812	-3.1917	-2.6292	354.675	275.858	474.091	162.255	207.307	208.746	416.363	475.916	320.549	258.107	202.558	332.616	369.042	464.710	498.096	169.143	0.00062784	0.00026129	7.0243e-05	486.26	2.7581e-06	2.7423e-06	559.9	156.62	3.7356e-06	3.5433e-06	217.18	86.069	59.271	28.915	2.5473e-06	43.603	0.00055209	0.00050885	0.00014096	536.39	4.9605e-06	5.8011e-06	619.28	173.34	5.3992e-06	5.5138e-06	240.79	96.013	66.215	32.613	5.5331e-06	48.977	163.090	272.107	237.886	162.471	289.394	321.462	161.729	167.784	289.657	301.058	166.165	170.935	172.754	178.062	284.836	175.212	-8191	255	
2861.380	1	1	0	0	0.13199	0.23159	0.16805	0.39295	0.16372	0.22257	0.067903	0.18561	0.13044	0.09312	0.14746	0.24841	0.23888	0.25345	0.10772	0.14095	-1.9917	-3.0896	-2.1583	-2.675	-3.0792	-2.1688	-3.0771	-2.6896	-2.35	-3.2188	-2.425	-2.7521	-3.0938	-2.1854	-3.0354	-2.8229	392.552	306.818	232.542	483.904	287.691	170.757	283.604	443.888	197.583	431.482	357.031	376.292	165.891	498.685	254.994	395.946	0.00063947	0.00031048	6.4461e-05	488.15	1.3574e-06	3.5684e-06	563.21	156.06	3.019e-06	3.1376e-06	215.89	85.517	58.996	28.636	3.0944e-06	42.751	0.00056292	0.00051328	0.00014216	538.56	5.1015e-06	5.9019e-06	620.91	173.34	5.6351e-06	5.5478e-06	240.31	95.45	66.032	32.15	5.7691e-06	48.199	161.677	260.002	247.759	162.559	293.134	306.295	161.611	167.619	277.761	302.367	166.391	171.187	172.691	178.115	305.699	175.207	-8191	255	
2861.476	1	1	0	0	0.21486	0.23512	0.27182	0.14058	0.065491	0.25363	0.17739	0.20841	0.19399	0.21963	0.083842	0.042779	0.098749	0.16606	0.26564	0.16579	-1.8958	-2.9646	-2.2375	-2.4688	-3.1188	-2.2604	-2.8875	-2.7313	-2.3187	-3.1104	-2.5229	-2.5708	-3.0938	-2.2354	-2.7792	-2.8396	416.035	455.747	222.768	502.049	255.124	261.395	179.303	491.240	229.701	415.342	297.387	494.757	298.406	316.184	257.423	179.640	0.00061456	0.0002733	9.7285e-05	494.16	2.4453e-06	2.5877e-06	564.27	156.27	3.4547e-06	3.9755e-06	215.63	85.226	59.27	28.422	3.7801e-06	42.618	0.00058032	0.00053084	0.0001447	544.64	5.4342e-06	5.9878e-06	625.54	173.48	5.7315e-06	6.0386e-06	240.56	95.255	65.95	31.96	5.9614e-06	48.093	163.523	228.286	251.694	162.664	294.820	312.065	161.651	167.710	271.169	297.591	166.179	171.063	172.724	178.159	285.365	175.191	-8191	255	
2861.595	1	1	0	0	0.13894	0.085551	0.16075	0.25995	0.1667	0.1772	0.22451	0.24105	0.18036	0.31692	0.097144	0.23357	0.16733	0.20722	0.13867	0.082755	-1.8896	-3.1063	-2.5417	-2.4437	-2.9938	-2.3187	-2.9042	-2.9146	-2.4146	-3.1583	-2.6562	-2.3375	-3.2792	-2.25	-2.7188	-2.9062	475.379	450.354	296.668	468.374	228.590	235.241	468.343	152.020	236.575	417.852	439.116	422.328	458.796	451.411	175.417	183.438	0.00061374	0.00022325	9.3722e-05	494.75	3.0795e-06	3.3321e-06	566.91	155.91	3.1006e-06	2.3617e-06	216.68	85.653	59.314	28.62	1.6597e-06	43.34	0.0005772	0.00051889	0.00014671	545.64	5.3613e-06	6.0556e-06	625.95	173.51	5.7383e-06	5.8892e-06	241.13	95.824	66.283	32.295	5.7125e-06	48.822	164.620	246.623	234.979	162.376	289.282	289.273	161.438	167.636	280.516	305.994	166.269	171.039	172.984	178.138	280.573	175.167	-8191	255	
2861.669	1	1	0	0	0.037685	0.026278	0.14056	0.20598	0.17942	0.11176	0.075983	0.036284	0.070837	0.20841	0.15172	0.42074	0.15536	0.044153	0.089711	0.33304	-1.8271	-3.0563	-2.7271	-2.4229	-3.2833	-2.5146	-2.6833	-3.1125	-2.2146	-2.8875	-2.8438	-2.225	-2.9604	-2.3312	-2.4292	-3.2125	477.348	335.739	425.495	382.566	390.034	350.421	436.270	399.778	491.024	407.932	486.024	454.061	469.905	208.487	223.292	469.339	0.00063871	0.00019119	8.2845e-05	499.69	3.6273e-06	2.9337e-06	574.59	157.84	2.9636e-06	3.5792e-06	218.26	87.001	59.783	29.004	3.3224e-06	43.616	0.00058317	0.00051168	0.0001384	551.03	5.1171e-06	5.5772e-06	634.63	175.21	5.5187e-06	5.6426e-06	243.17	96.719	66.806	32.725	5.6693e-06	49.2	165.928	242.701	251.921	162.283	294.731	300.887	161.469	167.426	278.326	281.243	166.100	171.059	172.439	178.303	303.865	175.319	-8191	255	
2861.788	1	1	0	0	0.14066	0.13814	0.086059	0.02929	0.073125	0.21219	0.1762	0.056949	0.1061	0.10904	0.2299	0.152	0.21122	0.17727	0.1243	0.21529	-1.9667	-2.9688	-2.7188	-2.3604	-3.0687	-2.4542	-2.4208	-3.1917	-2.2812	-2.9333	-3.1063	-2.4042	-3.1583	-2.6625	-2.3812	-3.3208	201.330	412.282	305.234	209.439	302.120	444.724	472.410	451.911	439.156	330.325	184.644	431.789	381.774	167.712	271.115	161.152	0.00064262	0.0002833	7.1759e-05	502.62	2.4285e-06	3.4271e-06	577.13	156.7	3.0585e-06	3.0798e-06	217.08	86.13	59.582	28.725	2.6084e-06	43.197	0.00057122	0.00049993	0.00014122	555.2	5.1151e-06	5.5328e-06	636.46	174.51	5.4166e-06	5.6881e-06	241.65	96.013	66.401	32.474	5.8145e-06	48.691	162.752	243.972	241.647	162.622	284.354	320.927	161.712	168.039	276.377	300.601	166.368	171.059	172.879	178.425	284.310	175.315	-8191	255	
2861.884	1	1	0	0	0.30806	0.31476	0.11129	0.10146	0.17678	0.12434	0.11294	0.27919	0.19989	0.027707	0.12322	0.10339	0.27258	0.25348	0.17183	0.27549	-1.8271	-2.6604	-3.0417	-2.2438	-3.2354	-2.5646	-2.3625	-3.2479	-2.3458	-2.675	-3.1708	-2.3438	-3.0625	-2.6437	-2.225	-3.1917	384.412	403.544	448.145	305.851	428.494	463.155	155.102	392.256	178.137	392.071	363.524	387.578	458.276	228.868	311.700	156.505	0.00062392	0.00029621	8.013e-05	500.66	2.894e-06	3.4921e-06	576.17	157.14	3.1615e-06	2.9656e-06	217.2	85.695	59.143	28.504	3.0728e-06	42.637	0.00057458	0.00052881	0.00014869	552.51	5.3634e-06	5.8905e-06	634.75	174.1	5.6546e-06	5.8442e-06	241.64	95.581	65.978	32.079	6.0186e-06	48.176	163.681	234.007	239.070	162.755	289.034	305.646	161.603	167.690	274.185	292.722	166.263	171.138	172.950	178.301	268.357	175.557	-8191	255	
2861.980	1	1	0	0	0.17056	0.058047	0.21301	0.059903	0.27539	0.1677	0.052082	0.043707	0.11063	0.11146	0.13639	0.10724	0.20354	0.1049	0.11896	0.21418	-1.9729	-2.5812	-3.0396	-2.225	-2.9417	-2.6771	-2.3583	-3.2208	-2.4542	-2.625	-3.2271	-2.1833	-2.9333	-2.8958	-2.2021	-3.1833	398.849	312.423	276.115	479.156	256.397	414.049	251.267	470.160	261.860	506.527	390.396	149.869	159.370	162.544	410.386	213.381	0.00060304	0.00020312	9.8824e-05	499.18	2.1824e-06	2.7616e-06	571.06	156.28	2.8962e-06	3.1479e-06	216.42	85.329	58.999	27.986	4.1769e-06	42.476	0.00056343	0.00053293	0.00014519	551.44	5.3441e-06	5.7651e-06	632.55	173.59	5.8326e-06	6.0459e-06	241.04	95.25	65.624	31.604	6.1391e-06	47.723	163.617	233.418	234.457	162.315	279.037	310.635	161.441	167.749	285.565	284.040	166.384	170.934	172.873	178.136	292.618	175.645	-8191	255	
2862.076	1	1	0	0	0.21289	0.061136	0.33041	0.12336	0.091838	0.20196	0.27729	0.19951	0.16558	0.026736	0.43681	0.048281	0.11587	0.29239	0.072803	0.070793	-1.9813	-2.5042	-3.0792	-2.2792	-2.7812	-2.85	-2.2729	-3.2604	-2.5167	-2.5083	-3.2167	-2.2875	-2.6771	-2.9062	-2.2833	-3.1542	411.320	331.882	261.746	484.876	396.816	214.146	179.188	418.296	347.203	164.102	221.511	274.977	479.611	395.611	361.223	173.281	0.00063042	0.00026122	8.8077e-05	495.38	3.1897e-06	3.1544e-06	570.48	155.43	3.6687e-06	2.712e-06	216.17	85.1	58.522	28.098	3.434e-06	42.013	0.00058567	0.00056891	0.00015355	547.38	5.6814e-06	6.1036e-06	630.3	172.49	5.7878e-06	6.3733e-06	240.21	94.816	65.423	31.61	6.3141e-06	47.473	162.887	234.337	254.319	162.291	277.801	300.678	161.689	167.967	271.816	303.975	166.269	171.026	172.932	178.247	292.558	175.256	-8191	255	
2862.197	1	1	0	0	0.16407	0.13436	0.2069	0.21977	0.2693	0.083657	0.16391	0.11689	0.24034	0.28677	0.037522	0.11568	0.17227	0.1958	0.13435	0.25491	-2.2729	-2.1583	-3.0292	-2.3792	-2.5438	-2.9792	-2.4	-3.0229	-2.6958	-2.5875	-3.2083	-2.5333	-2.5396	-3.0833	-2.2292	-3.0354	384.837	190.785	275.168	460.121	165.079	440.372	267.311	351.107	428.274	481.935	335.800	353.442	336.340	160.628	190.347	502.481	0.0005908	0.00035544	7.3119e-05	496.08	2.4247e-06	2.5686e-06	571.5	155.58	3.0269e-06	2.5306e-06	215.77	85.423	58.789	28.299	2.8435e-06	42.6	0.00058365	0.00056367	0.00015406	549.2	5.6247e-06	6.1318e-06	631.14	172.62	5.751e-06	6.2208e-06	240.82	94.943	65.638	31.867	6.0528e-06	47.988	162.967	234.274	257.675	162.234	301.654	311.711	161.329	167.671	281.437	300.654	166.211	170.887	172.898	178.066	290.358	175.233	-8191	255	
2862.293	1	1	0	0	0.068307	0.37781	0.21008	0.33577	0.29094	0.27568	0.083219	0.183	0.17432	0.12201	0.15529	0.1281	0.14685	0.21802	0.1999	0.12594	-2.3604	-2.4583	-3.1229	-2.4896	-2.4833	-3.1979	-2.1833	-3.0208	-2.9354	-2.3375	-2.9667	-2.3937	-2.4958	-3.1854	-2.2167	-2.95	357.341	250.890	269.706	419.050	417.933	405.752	453.099	302.009	292.688	178.211	396.796	435.012	379.122	308.963	495.729	172.316	0.00062401	0.00032503	7.918e-05	505.3	2.5927e-06	2.4974e-06	578.95	157.65	2.7502e-06	3.3918e-06	217.85	85.769	59.437	28.528	2.9792e-06	42.869	0.00057217	0.00055022	0.00014595	558.36	5.3207e-06	5.7627e-06	640.95	174.72	5.3865e-06	5.9517e-06	242.75	95.785	66.412	32.159	5.763e-06	48.349	162.227	247.258	254.619	162.215	285.284	301.140	161.393	167.506	274.093	292.191	166.213	170.711	173.163	178.256	285.408	175.450	-8191	255	
2862.365	1	1	0	0	0.029474	0.11912	0.08963	0.55089	0.18394	0.17282	0.14185	0.12493	0.17208	0.16306	0.042671	0.2751	0.1277	0.099847	0.10729	0.21171	-2.575	-2.3083	-3.1312	-2.625	-2.4604	-3.1208	-2.325	-2.8458	-2.9604	-2.2083	-3.0521	-2.6688	-2.3542	-3.2521	-2.4271	-2.8083	359.148	370.098	462.692	410.898	181.162	472.601	492.727	331.848	290.681	448.703	204.303	470.025	383.474	178.483	456.641	472.369	0.00063975	0.00030003	7.8627e-05	511.3	1.9698e-06	3.2837e-06	587.42	159.12	3.8116e-06	3.8418e-06	220.26	86.041	59.456	28.425	4.1885e-06	42.39	0.00057131	0.00055423	0.0001443	564.36	5.4191e-06	5.8917e-06	648.55	176.7	5.5951e-06	6.117e-06	244.65	96.049	66.464	31.949	5.9895e-06	47.904	162.731	221.302	260.217	162.093	284.455	316.797	161.157	167.218	270.164	314.578	165.956	170.484	172.258	177.806	291.169	174.986	-8191	255	
2862.483	1	1	0	0	0.12068	0.045573	0.1163	0.22307	0.17833	0.079592	0.22497	0.31703	0.18567	0.090712	0.23724	0.056359	0.24495	0.26955	0.18338	0.26011	-2.7188	-1.9646	-2.825	-2.7583	-2.2146	-3.2354	-2.5563	-2.5771	-2.9313	-2.1604	-2.7917	-2.9875	-2.3792	-3.2062	-2.425	-2.4604	492.562	467.265	481.257	345.800	343.807	357.798	456.603	466.992	475.859	269.867	437.882	458.455	369.224	184.892	238.898	198.285	0.00062976	0.00038872	9.3173e-05	511.96	2.6741e-06	2.1437e-06	585.21	158.54	2.5625e-06	2.6001e-06	218.5	85.302	59.335	28.035	2.8339e-06	41.962	0.00057824	0.00055727	0.0001461	566.17	5.5815e-06	5.8665e-06	646.6	175.76	5.5698e-06	6.2664e-06	243.54	95.111	66.077	31.545	5.8302e-06	47.329	160.755	242.600	254.774	162.181	291.950	326.631	161.130	167.290	263.235	294.033	166.089	170.408	172.282	178.010	291.846	175.169	-8191	255	
2862.580	1	1	0	0	0.092883	0.2132	0.31024	0.31953	0.10626	0.15139	0.23487	0.19921	0.38154	0.022484	0.1891	0.063934	0.20488	0.16834	0.22366	0.2297	-2.6583	-2.0979	-2.9146	-2.8417	-2.2375	-3.1104	-2.4729	-2.4125	-3.1	-2.3125	-2.8333	-3.0875	-2.2917	-3.0708	-2.3583	-2.4833	245.818	264.992	176.225	478.859	482.315	409.625	495.344	278.746	498.573	172.516	391.027	404.418	297.451	499.986	443.574	504.992	0.00060858	0.00031307	5.6143e-05	515.33	3.199e-06	3.6695e-06	588.7	159.46	3.1909e-06	3.4658e-06	220.5	85.828	58.939	27.655	3.0395e-06	41.674	0.00056399	0.0005468	0.00014819	568.38	5.8163e-06	5.9458e-06	650.5	176.84	5.4987e-06	6.4158e-06	244.41	95.264	65.907	31.21	6.1504e-06	47.054	163.943	248.470	254.682	162.065	257.495	310.877	161.239	167.078	270.627	332.593	165.786	170.614	172.354	177.968	296.578	175.229	-8191	255	
2862.676	1	1	0	0	0.097396	0.20418	0.1435	0.27081	0.086143	0.11476	0.10375	0.20425	0.23637	0.2548	0.22828	0.067773	0.27654	0.14054	0.21569	0.074285	-2.7292	-2.3937	-2.9021	-2.9417	-2.3	-3.1083	-2.7896	-2.3167	-3.1146	-2.1833	-2.7604	-2.9479	-2.2708	-2.8917	-2.7625	-2.2729	257.932	448.968	379.358	313.976	496.179	216.293	484.514	344.960	422.679	149.680	156.403	430.593	403.350	455.108	411.317	465.862	0.00059017	0.00025466	9.3311e-05	515.8	3.4509e-06	3.4762e-06	590.12	159.94	3.1751e-06	2.8425e-06	221.03	85.589	59.562	27.902	2.9232e-06	42.185	0.00057693	0.00058076	0.00015984	569.56	6.0817e-06	6.1192e-06	652.62	177.41	5.8532e-06	6.4638e-06	245.62	95.769	66.446	31.499	6.082e-06	47.594	164.062	247.615	237.006	162.408	277.733	313.897	161.335	167.105	274.168	298.420	166.066	170.672	172.394	178.023	282.628	175.234	-8191	255	
2862.772	1	1	0	0	0.13658	0.31917	0.29147	0.31004	0.13688	0.27301	0.038916	0.32646	0.25855	0.18301	0.18816	0.18202	0.09451	0.068269	0.047011	0.062178	-2.7896	-2.3771	-2.6417	-2.9062	-2.0458	-2.9625	-2.875	-2.3042	-3.1771	-2.4188	-2.6562	-3.1396	-2.3167	-2.8542	-2.9271	-2.1896	163.755	206.973	278.503	424.744	161.283	504.089	355.318	479.531	502.382	323.561	447.788	448.893	428.703	346.918	465.949	349.304	0.00060913	0.00032029	8.392e-05	520.45	2.2715e-06	2.7218e-06	594.6	160.84	3.4776e-06	2.6208e-06	222.51	86.465	60.066	28.199	3.6089e-06	42.533	0.00058198	0.00056378	0.0001558	573.76	5.9854e-06	6.1288e-06	657.59	178.62	5.8474e-06	6.1978e-06	246.87	96.369	66.941	31.838	5.9373e-06	47.857	162.021	228.038	242.007	162.307	285.320	330.650	161.214	167.077	280.143	317.025	165.973	170.594	172.548	178.268	295.223	175.241	-8191	255	
2862.892	1	1	0	0	0.2148	0.047049	0.076429	0.1837	0.18402	0.23623	0.37322	0.23602	0.093589	0.075895	0.05975	0.22212	0.15791	0.087413	0.28617	0.21456	-2.8312	-2.3208	-2.5896	-3.1854	-2.2604	-2.9	-2.9646	-2.2625	-3.0521	-2.4688	-2.3292	-3.0292	-2.2521	-2.7146	-2.9854	-2.2271	288.580	485.641	327.973	458.726	294.473	394.697	420.683	402.538	268.321	454.417	494.165	469.044	494.842	321.593	221.208	390.003	0.00060876	0.00026004	8.1306e-05	522.74	2.601e-06	2.8905e-06	599.92	161.61	3.4748e-06	3.1408e-06	222.1	85.621	59.858	28.446	3.7371e-06	42.652	0.00056702	0.00054141	0.00015037	577.69	5.6356e-06	5.6072e-06	660.34	179.08	5.3444e-06	5.8436e-06	246.97	96.126	66.822	31.993	5.6503e-06	48.059	162.690	241.010	241.496	162.195	280.430	309.296	161.318	167.415	279.196	324.083	166.095	170.827	172.401	178.228	289.287	175.360	-8191	255	
2862.964	1	1	0	0	0.15385	0.10038	0.013341	0.25263	0.18019	0.16532	0.06906	0.1615	0.17251	0.089408	0.086829	0.11092	0.089873	0.20483	0.037189	0.017195	-2.6021	-2.5854	-2.3937	-3.1396	-2.4	-2.625	-3.125	-2.2042	-2.9396	-2.5583	-2.4083	-3.1292	-2.2125	-2.5292	-3.1708	-2.1958	211.722	310.504	169.079	449.726	355.129	195.128	168.615	407.595	283.359	253.675	471.057	431.903	154.755	357.502	313.675	262.741	0.00062299	0.00029107	7.8499e-05	521.56	1.9937e-06	2.392e-06	599.08	161.86	4.0113e-06	2.4071e-06	222.58	87.09	60.154	28.597	3.3749e-06	42.995	0.00057395	0.00054595	0.00014702	577.06	5.329e-06	5.7201e-06	660.56	179.22	5.4066e-06	5.9013e-06	247.78	97.106	67.219	32.204	5.7972e-06	48.479	162.486	249.949	246.319	162.383	294.220	311.786	161.520	167.720	275.709	292.500	166.257	171.268	172.790	178.257	292.269	175.376	-8191	255	
2863.060	1	1	0	0	0.28765	0.13713	0.12453	0.17828	0.22163	0.22299	0.082807	0.090758	0.16753	0.14316	0.20377	0.34808	0.1992	0.18195	0.24519	0.033074	-2.45	-2.7146	-2.1083	-3.1292	-2.4062	-2.4313	-3.0708	-2.425	-2.8646	-2.8042	-2.0979	-3.1458	-2.5333	-2.5083	-3.0104	-2.3312	378.180	476.504	328.816	261.118	435.086	273.471	211.487	419.439	375.839	275.798	466.426	421.359	427.286	458.138	482.155	194.337	0.00061553	0.00029287	0.00010238	529.42	2.509e-06	2.714e-06	603.22	163.43	2.3879e-06	2.1321e-06	225.33	87.494	60.906	28.558	3.2883e-06	42.999	0.00055992	0.00053127	0.0001502	583.9	5.3654e-06	5.7507e-06	666.95	180.94	5.3107e-06	5.7403e-06	249.89	97.641	67.73	32.212	5.9087e-06	48.392	163.241	273.694	259.227	162.559	282.242	316.739	161.346	167.415	279.002	321.369	165.928	170.760	172.425	177.980	293.388	175.445	-8191	255	
2863.156	1	1	0	0	0.03443	0.13906	0.17354	0.35949	0.28337	0.12195	0.28439	0.18268	0.11318	0.044187	0.22332	0.16136	0.17022	0.11401	0.24684	0.093678	-2.2542	-2.9146	-2.1688	-3.0396	-2.5604	-2.3833	-3.2104	-2.3063	-2.7833	-2.9938	-2.2021	-3.0708	-2.6542	-2.3875	-3.1208	-2.4042	444.866	165.379	362.295	424.120	188.954	318.160	460.894	154.806	200.809	172.499	356.328	337.088	197.630	274.891	504.847	427.754	0.00061225	0.00035412	6.5157e-05	526.83	2.049e-06	2.1477e-06	603.22	162.4	3.5548e-06	3.264e-06	223.41	86.625	59.658	28.068	3.8029e-06	41.909	0.00056628	0.0005159	0.0001478	583.43	5.202e-06	5.8089e-06	664.15	180.02	5.4755e-06	5.8989e-06	247.9	96.576	66.802	31.58	5.717e-06	47.381	162.285	232.207	234.080	162.387	260.714	306.543	161.597	167.354	271.578	312.001	165.921	171.008	172.558	178.393	276.110	175.488	-8191	255	
2863.277	1	1	0	0	0.20866	0.30613	0.026528	0.066528	0.18449	0.07989	0.22783	0.20565	0.059555	0.061579	0.11518	0.16736	0.25911	0.17953	0.18324	0.14348	-2.2354	-2.9542	-2.2542	-3.0375	-2.7417	-2.1792	-3.0854	-2.2604	-2.4896	-3.1354	-2.2687	-2.9146	-2.6646	-2.0229	-2.9708	-2.4875	263.245	349.987	503.190	188.379	353.177	372.259	335.535	352.529	443.372	448.782	229.144	329.341	470.735	274.250	442.403	486.844	0.00058802	0.00030023	8.822e-05	518.65	3.251e-06	4.0382e-06	591.54	160.13	3.5859e-06	2.9303e-06	220.84	85.667	59.653	27.763	3.5864e-06	41.781	0.00056384	0.00051686	0.00015345	571.12	5.505e-06	5.9566e-06	653.17	177.53	5.6615e-06	5.8491e-06	245.43	95.768	66.447	31.225	5.962e-06	47.073	163.066	229.395	233.460	162.587	262.737	310.863	161.412	167.650	271.284	304.721	166.569	171.253	172.860	178.415	282.958	175.676	-8191	255	
2863.371	1	1	0	0	0.14046	0.11608	0.28949	0.086677	0.27684	0.16774	0.067656	0.15056	0.10063	0.17413	0.14073	0.1423	0.086756	0.37829	0.16263	0.11578	-1.8917	-3.025	-2.175	-2.7208	-2.8604	-2.1229	-3.1708	-2.5917	-2.3812	-3.05	-2.275	-2.8375	-3.0187	-2.2188	-2.9688	-2.5958	159.904	446.609	400.242	347.255	424.610	366.511	507.431	369.620	169.698	196.371	494.726	151.324	232.871	192.903	318.904	489.864	0.00060795	0.00034926	0.00010257	521.11	3.5529e-06	4.134e-06	596.57	162.23	2.9586e-06	3.8544e-06	223.88	86.922	60.066	27.981	3.2692e-06	42.296	0.00057604	0.00055503	0.00015512	574.67	5.4659e-06	6.1865e-06	659.35	179.62	5.8321e-06	6.2239e-06	248.81	96.886	67.117	31.522	6.1195e-06	47.727	162.679	236.234	261.872	162.813	290.530	289.900	161.889	168.066	285.307	312.666	166.038	170.785	172.347	177.760	270.201	174.899	-8191	255	
2863.469	1	1	0	0	0.21873	0.053333	0.029943	0.27948	0.14211	0.144	0.10792	0.22936	0.3648	0.1165	0.19968	0.08967	0.10485	0.11496	0.041239	0.10024	-1.8292	-2.9958	-2.1729	-2.8042	-2.9292	-2.0854	-2.9333	-2.7833	-2.2979	-3.1917	-2.3292	-2.6333	-3.0187	-2.3271	-2.8104	-2.7708	449.095	399.967	457.193	175.321	362.394	185.793	269.969	506.756	182.118	183.256	159.564	403.279	360.261	446.031	382.672	496.405	0.00059591	0.00032122	7.507e-05	526.93	2.1145e-06	3.519e-06	604.33	163.62	3.5225e-06	3.3457e-06	225.15	87.033	60.449	28.109	4.1543e-06	42.418	0.00058225	0.00055978	0.00016298	582.73	5.6903e-06	6.408e-06	668.64	181.64	6.1017e-06	6.3016e-06	251.07	97.182	67.478	31.732	6.2614e-06	47.848	164.665	235.076	254.446	162.052	284.446	285.630	161.236	166.947	268.592	291.036	165.671	170.399	172.262	177.786	279.790	174.909	-8191	255	
2863.564	1	1	0	0	0.081348	0.099316	0.31551	0.056748	0.03847	0.04683	0.18869	0.19933	0.09868	0.11321	0.19675	0.15331	0.21762	0.12903	0.20431	0.18609	-1.7729	-3.0208	-2.4271	-2.5042	-3.0458	-2.1104	-2.8625	-2.8417	-2.2812	-3.1167	-2.4771	-2.5667	-2.9208	-2.3396	-2.8646	-2.8812	195.003	452.080	447.472	281.096	345.459	305.503	205.454	346.106	228.798	212.023	190.306	453.503	439.476	329.312	155.548	472.367	0.00061408	0.00037502	7.0932e-05	528.81	2.5648e-06	2.4114e-06	599.92	162.87	3.0987e-06	2.861e-06	224.03	86.204	60.024	27.934	2.9878e-06	42.116	0.00060512	0.00057846	0.00015756	583	5.9225e-06	6.4998e-06	665.47	180.56	6.2724e-06	6.5142e-06	248.66	96.504	66.878	31.624	6.1913e-06	47.659	164.107	246.866	242.459	161.985	299.531	276.286	161.272	166.944	276.129	324.045	165.636	170.454	172.075	177.699	287.362	174.962	-8191	255	
2863.660	1	1	0	0	0.053479	0.22336	0.1124	0.30717	0.074748	0.13247	0.14952	0.13468	0.18335	0.1994	0.010574	0.28988	0.17577	0.13996	0.10441	0.054867	-1.8708	-3.1271	-2.6188	-2.375	-3.0187	-2.4333	-2.8438	-3.0062	-2.3167	-3.1021	-2.8167	-2.2812	-3.0812	-2.4062	-2.6125	-2.9	175.254	371.176	243.186	156.637	460.783	484.144	213.716	444.463	362.931	428.231	468.683	489.255	503.211	405.673	378.343	186.904	0.00062168	0.00023803	3.8105e-05	528.91	3.2249e-06	4.081e-06	606.93	163.03	3.7623e-06	2.7058e-06	225.48	87.068	60.579	28.272	3.192e-06	42.685	0.00061241	0.00058156	0.0001608	584.34	5.7434e-06	6.5514e-06	670.96	181.37	6.226e-06	6.4164e-06	250.48	97.194	67.521	31.831	6.175e-06	48.071	162.168	239.874	250.089	162.130	281.767	289.553	161.387	166.983	298.128	313.670	165.555	170.724	172.445	177.859	277.789	174.961	-8191	255	
2863.756	1	1	0	0	0.086783	0.21868	0.059674	0.34877	0.13202	0.093045	0.31178	0.29555	0.35163	0.17141	0.20105	0.22025	0.15247	0.18224	0.13157	0.11908	-1.7833	-2.9917	-2.5708	-2.3021	-3.0583	-2.2438	-2.6854	-3.1	-2.2021	-2.9396	-2.8729	-2.2729	-3.1042	-2.5021	-2.425	-3.0687	406.435	263.984	467.243	492.027	265.638	494.886	484.574	170.123	340.231	486.562	245.927	156.632	480.543	419.243	500.397	153.479	0.00061608	0.00031742	8.0683e-05	534.33	2.798e-06	2.8827e-06	608.53	164.27	3.2945e-06	2.725e-06	226.27	87.219	60.465	28.205	3.4652e-06	42.617	0.00060768	0.00056068	0.0001555	589.77	5.796e-06	6.4056e-06	673.59	182.34	6.126e-06	6.3083e-06	251.55	97.486	67.647	31.807	6.1375e-06	48.098	163.762	241.298	223.460	162.101	284.702	307.837	161.388	167.021	283.126	298.412	165.733	170.661	172.480	177.979	280.873	175.034	-8191	255	
2863.877	1	1	0	0	0.076635	0.21568	0.29338	0.16124	0.24465	0.16833	0.077144	0.13153	0.12614	0.21081	0.24975	0.085636	0.044942	0.3498	0.23704	0.18638	-1.7979	-2.9521	-2.6833	-2.2562	-3.1167	-2.3917	-2.5125	-2.9896	-2.1125	-2.8521	-3.025	-2.3375	-3.1333	-2.5125	-2.4188	-3.2458	166.790	307.525	169.930	408.128	262.509	229.817	379.091	405.954	421.544	288.489	488.311	202.336	233.277	162.157	480.543	339.649	0.00063318	0.00027572	7.8642e-05	535.1	2.3893e-06	2.6854e-06	612.34	165.13	3.1861e-06	2.9088e-06	226.69	87.745	60.534	28.219	2.6271e-06	42.491	0.00060013	0.00055385	0.0001559	591.31	5.7798e-06	6.3497e-06	676.1	183.07	6.0749e-06	6.315e-06	252.05	97.402	67.653	31.822	6.3258e-06	48.007	162.077	237.376	229.486	162.029	291.658	298.664	161.019	167.217	281.959	294.198	165.621	170.538	172.320	177.929	280.525	174.998	-8191	255	
2863.973	1	1	0	0	0.099988	0.36564	0.19648	0.071884	0.24307	0.069413	0.1519	0.038433	0.13989	0.076251	0.036156	0.32092	0.12695	0.26283	0.17302	0.092787	-1.7917	-2.7771	-2.8792	-2.1729	-3.075	-2.6521	-2.3667	-3.2875	-2.2479	-2.6021	-3.0146	-2.1562	-3.0667	-2.7833	-2.2667	-3.1312	194.160	162.264	269.607	152.777	420.846	401.258	165.496	197.150	302.409	465.917	208.439	266.904	422.814	418.727	155.948	420.055	0.00060358	0.00026622	7.6705e-05	541.12	1.8785e-06	2.0087e-06	617.66	167.37	4.512e-06	2.878e-06	228.62	88.326	61.049	28.524	3.6032e-06	42.838	0.00059337	0.00056661	0.0001537	597.38	5.6226e-06	6.3311e-06	682.46	185.38	6.1618e-06	6.4031e-06	254.07	98.072	68.108	32.034	6.3892e-06	48.272	162.747	235.848	234.897	162.211	284.268	300.090	161.262	166.962	279.816	309.974	165.535	170.513	172.240	177.848	283.625	175.119	-8191	255	
2864.069	1	1	0	0	0.077593	0.10754	0.1488	0.21099	0.25201	0.16256	0.22796	0.12434	0.17504	0.21686	0.17359	0.12888	0.09645	0.19066	0.13244	0.10961	-2.0458	-2.5333	-2.9458	-2.2083	-3.0354	-2.7521	-2.4021	-3.1708	-2.5208	-2.5333	-2.9792	-2.1271	-3.0021	-2.7875	-2.0667	-3.1354	423.490	335.513	382.164	182.542	167.526	289.352	459.328	153.864	451.192	261.521	446.198	416.373	394.017	444.926	377.623	447.444	0.00061335	0.00027464	6.9062e-05	542.11	3.0837e-06	4.0568e-06	615.51	165.93	3.4576e-06	2.8381e-06	227.65	87.884	60.993	28.272	2.4791e-06	42.613	0.00059391	0.0005483	0.00015516	597.19	5.5711e-06	6.0718e-06	680.5	184.52	5.9337e-06	6.3569e-06	253.69	98.025	67.922	31.851	6.078e-06	48.17	163.876	235.008	256.553	162.165	287.954	308.523	161.242	167.070	278.824	308.880	165.711	170.603	172.427	177.832	290.545	175.134	-8191	255	
2864.190	1	1	0	0	0.16388	0.19912	0.15955	0.10533	0.22181	0.16658	0.36171	0.091676	0.091967	0.15567	0.073826	0.24766	0.18443	0.13764	0.28236	0.1834	-2.0729	-2.4354	-3.1375	-2.3312	-2.8937	-2.9583	-2.0354	-2.8583	-2.4583	-2.2562	-3.0917	-2.3625	-2.8563	-2.85	-2.1729	-2.9375	253.208	178.095	434.897	203.763	309.893	464.452	414.548	306.285	506.960	292.071	195.423	408.153	155.938	469.911	217.786	289.745	0.00062312	0.00041365	5.3076e-05	538.85	2.3996e-06	3.8836e-06	613.5	165.24	3.4355e-06	2.5217e-06	226.57	87.212	60.484	28.023	3.0178e-06	42.428	0.00057767	0.00054083	0.00014944	594.1	5.4425e-06	6.0784e-06	677.71	183.68	5.5967e-06	6.2354e-06	251.82	97.303	67.543	31.628	6.0231e-06	47.759	163.566	222.994	242.422	162.169	288.868	304.722	161.290	167.088	270.140	296.396	165.858	170.835	172.714	178.062	288.722	175.193	-8191	255	
2864.261	1	1	0	0	0.26244	0.38257	0.31083	0.097809	0.18997	0.14544	0.27698	0.13602	0.13618	0.10179	0.12772	0.19652	0.1345	0.054026	0.14062	0.20195	-2.4729	-2.2833	-3.1437	-2.4104	-2.6375	-2.9854	-2.1875	-3.0938	-2.6542	-2.3396	-3.0708	-2.2479	-2.5667	-3.0229	-2.2146	-2.9813	192.953	391.067	397.799	505.893	414.520	346.213	186.418	341.125	211.387	463.329	504.428	463.248	316.492	463.425	430.021	363.177	0.00064619	0.00042479	9.2114e-05	532.73	2.17e-06	3.5855e-06	608.39	163.77	3.4005e-06	2.4853e-06	225.84	86.701	60.342	28.049	2.5396e-06	42.607	0.0005763	0.0005483	0.00014655	587.92	5.4144e-06	6.0022e-06	672.38	181.91	5.6393e-06	6.1595e-06	250.93	97.192	67.394	31.592	6.0366e-06	47.8	161.814	223.166	225.471	162.058	285.385	316.652	161.248	167.199	267.425	322.357	165.766	170.712	172.550	177.820	303.815	175.142	-8191	255	
2864.357	1	1	0	0	0.1236	0.017639	0.20365	0.16673	0.14469	0.44694	0.22283	0.26914	0.14098	0.10039	0.062419	0.19005	0.099835	0.20935	0.18207	0.019365	-2.4083	-2.0917	-2.9792	-2.3708	-2.4771	-2.9729	-2.2333	-2.9042	-2.7812	-2.2188	-3.0979	-2.4625	-2.4333	-3.1104	-2.1479	-2.775	484.013	310.654	347.028	411.452	420.020	242.688	454.101	445.093	279.593	259.483	426.696	432.440	424.120	314.017	402.266	464.046	0.00061048	0.00043987	6.5868e-05	532.94	3.0146e-06	3.8108e-06	608.87	164.17	3.8446e-06	3.0706e-06	225.84	87.038	60.415	28.06	3.1108e-06	42.371	0.00057059	0.0005585	0.00014801	588.96	5.5383e-06	5.9374e-06	673.64	182.25	5.633e-06	6.3423e-06	250.87	97.214	67.428	31.634	6.0786e-06	47.829	163.013	230.049	247.869	162.059	290.475	316.656	161.233	167.265	286.523	308.039	165.755	170.599	172.378	177.864	294.518	175.116	-8191	255	
2864.454	1	1	0	0	0.13778	0.16589	0.12935	0.085195	0.21923	0.15432	0.20057	0.21615	0.14097	0.071038	0.12466	0.022499	0.19165	0.11873	0.14472	0.28037	-2.3625	-2.2083	-2.9562	-2.6729	-2.2229	-3.1521	-2.2938	-2.8792	-3.1667	-2.2958	-3.1521	-2.6396	-2.3333	-3.2104	-2.1667	-2.7	459.423	153.265	198.275	422.744	304.188	233.262	433.722	449.125	357.215	180.016	173.172	159.444	163.902	177.197	411.853	397.453	0.00062699	0.00030275	9.5116e-05	530.32	3.2347e-06	3.3413e-06	603.19	162.57	3.045e-06	3.3508e-06	223.71	86.981	59.725	28.023	2.6298e-06	42.38	0.00057256	0.00055572	0.00014859	583.56	5.7184e-06	5.9896e-06	666.52	180.37	5.5229e-06	6.0751e-06	249.17	96.952	66.818	31.61	6.1021e-06	47.808	163.442	247.374	254.933	162.199	276.810	294.493	161.280	167.300	261.892	318.892	165.861	170.624	172.530	178.080	287.721	175.273	-8191	255	
2864.572	1	1	0	0	0.16236	0.17208	0.14279	0.37196	0.052823	0.047328	0.21746	0.28643	0.18799	0.081875	0.041538	0.07942	0.045146	0.11035	0.19768	0.22655	-2.8063	-2.0646	-2.9062	-2.8	-2.4146	-3.2042	-2.4875	-2.5875	-3.0875	-2.3208	-2.9188	-2.7104	-2.3063	-3.2292	-2.4437	-2.4625	450.828	339.684	214.579	466.643	374.660	221.424	465.863	304.474	216.887	363.659	348.984	492.977	290.002	292.796	227.737	230.556	0.00063752	0.00022249	9.5844e-05	523.57	2.6227e-06	2.6601e-06	601.67	162.46	2.4881e-06	3.4884e-06	222.83	87.063	60.002	28.107	3.3938e-06	42.334	0.00058047	0.00056784	0.00014953	579.29	5.7366e-06	5.9476e-06	665.07	179.95	5.534e-06	6.2166e-06	248.03	96.87	66.861	31.63	5.8897e-06	47.709	162.646	241.091	264.375	162.076	287.769	327.909	161.353	167.422	276.754	316.132	165.978	170.826	172.673	178.090	288.744	175.358	-8191	255	
2864.669	1	1	0	0	0.053378	0.28923	0.18933	0.26263	0.055324	0.17279	0.20564	0.079323	0.11987	0.20726	0.0050064	0.30281	0.30683	0.10665	0.17681	0.26137	-2.6458	-2.25	-2.8812	-2.8646	-2.2021	-3.1146	-2.6229	-2.4667	-3.1813	-2.2146	-2.8187	-3.0375	-2.2292	-3.0896	-2.4979	-2.3979	311.827	363.157	317.340	211.268	266.612	267.391	425.656	347.197	150.603	155.977	475.018	429.031	403.307	408.043	488.236	239.609	0.00059716	0.00034396	8.0562e-05	521.82	3.1406e-06	3.9117e-06	596.69	160.57	3.9605e-06	3.5559e-06	222.36	86.474	59.684	28.16	3.634e-06	42.365	0.00056462	0.0005649	0.00014354	575.26	5.7408e-06	5.8161e-06	659.63	178.59	5.5461e-06	6.2142e-06	247.21	96.697	66.706	31.659	6.0702e-06	47.842	163.702	237.982	251.260	162.181	267.879	324.746	161.248	167.428	281.877	302.718	165.913	170.508	172.433	177.876	276.271	175.266	-8191	255	
2864.765	1	1	0	0	0.18931	0.17877	0.081655	0.087956	0.056637	0.13393	0.093647	0.12246	0.13006	0.18778	0.11079	0.21959	0.12513	0.18532	0.1812	0.086663	-2.5958	-2.1937	-2.6354	-3.0187	-2.2062	-2.8854	-2.5729	-2.3146	-3.0396	-2.2708	-2.7875	-3.0771	-2.2271	-2.8729	-2.7854	-2.4917	488.764	345.422	354.907	494.433	369.567	195.513	473.373	493.046	489.146	478.873	345.265	452.103	269.459	395.560	491.775	334.890	0.00062088	0.00034805	6.7561e-05	523.65	2.5976e-06	3.0762e-06	604.66	162.74	3.1195e-06	3.6884e-06	226.07	88.058	60.821	28.426	4.1608e-06	43.164	0.00057244	0.00057617	0.00015162	577.86	5.9677e-06	6.2183e-06	668.39	180.53	5.8447e-06	6.3484e-06	251.61	98.072	67.823	32.068	6.1229e-06	48.72	163.018	233.335	238.834	162.011	281.955	292.708	161.175	167.189	281.144	296.841	166.027	170.435	172.439	177.821	284.364	175.079	-8191	255	
2864.838	1	1	0	0	0.21699	0.049177	0.29842	0.066449	0.1926	0.14752	0.097599	0.096366	0.31981	0.19092	0.19341	0.19748	0.4073	0.095621	0.14914	0.13427	-2.8604	-2.2104	-2.4604	-3.125	-2.25	-3.0312	-2.7375	-2.2354	-3.0479	-2.5292	-2.5833	-3.05	-2.2667	-2.9917	-2.8812	-2.3688	298.774	196.643	290.080	149.759	478.807	160.445	207.972	452.758	150.447	413.625	370.016	438.083	491.857	194.537	472.664	253.865	0.00063137	0.00026314	6.723e-05	542.04	2.5562e-06	2.9571e-06	620.11	166.59	3.4177e-06	4.1603e-06	229.53	88.636	60.878	28.419	3.5622e-06	43.048	0.00058746	0.00058876	0.00015441	598.32	5.9407e-06	6.2021e-06	685.39	184.78	5.8732e-06	6.3976e-06	254.92	98.655	67.984	32.018	6.2513e-06	48.549	163.454	245.637	229.940	162.270	280.428	303.778	161.414	167.331	280.187	290.569	165.866	170.636	172.297	177.953	304.293	175.200	-8191	255	
2864.957	1	1	0	0	0.16993	0.23173	0.12737	0.23499	0.15436	0.20813	0.035869	0.19752	0.11632	0.24686	0.16542	0.12584	0.2785	0.2252	0.027212	0.082089	-2.5625	-2.4083	-2.3812	-3.2542	-2.2417	-2.6771	-2.9896	-2.1896	-2.8042	-2.6396	-2.4375	-3.0854	-2.3083	-2.7833	-3.0687	-2.1437	396.629	460.084	369.361	322.901	437.032	344.913	217.503	158.223	474.531	495.458	374.461	204.030	478.340	312.738	449.841	207.139	0.00064475	0.00032372	6.7677e-05	546.34	3.193e-06	2.8509e-06	623.86	167.02	3.1484e-06	3.8381e-06	229.87	88.353	61.328	28.463	3.3647e-06	43.216	0.00059126	0.00057456	0.00015896	602.35	5.8069e-06	6.106e-06	689.21	185.24	5.9e-06	6.2773e-06	255.35	98.657	68.292	32.095	6.1134e-06	48.739	162.951	237.812	245.479	162.292	278.582	289.442	161.211	167.055	280.185	311.872	165.876	170.694	172.207	178.126	299.853	175.386	-8191	255	
2865.053	1	1	0	0	0.30276	0.17544	0.38807	0.28619	0.30121	0.25555	0.28439	0.13795	0.15229	0.182	0.32695	0.14827	0.26484	0.23999	0.056413	0.1106	-2.5812	-2.5646	-2.3479	-3.0812	-2.3812	-2.5708	-2.9833	-2.2021	-2.85	-2.6542	-2.3438	-3.2625	-2.5833	-2.5917	-3.0479	-2.3542	205.156	471.602	170.768	181.811	419.219	242.542	494.468	178.220	293.363	417.853	490.228	152.159	277.858	165.447	324.953	478.284	0.00061922	0.00032006	9.5641e-05	555.51	3.3291e-06	3.9209e-06	639.01	172.14	4.4612e-06	4.2981e-06	236.53	89.691	61.647	28.655	3.9469e-06	43.504	0.0005932	0.00058497	0.00016393	611.95	6.0734e-06	6.4296e-06	705.66	191.09	6.1396e-06	6.6606e-06	263.1	100.03	69.049	32.293	6.5462e-06	48.972	163.397	249.243	237.675	162.222	289.690	299.732	161.599	167.139	281.291	300.896	165.994	170.774	172.564	178.257	294.656	175.465	-8191	255	
2865.149	1	1	0	0	0.3045	0.078505	0.22357	0.11436	0.28756	0.29405	0.26264	0.12028	0.20295	0.18752	0.35201	0.074265	0.13053	0.14089	0.14643	0.17834	-2.6042	-2.7396	-2.2542	-3.3063	-2.4854	-2.3667	-3.2021	-2.225	-2.7958	-2.8646	-2.2438	-3.1021	-2.4104	-2.3229	-3.1604	-2.3187	228.448	451.783	179.369	331.413	363.912	468.944	496.918	248.527	311.182	171.474	504.953	413.782	446.659	158.345	465.379	489.252	0.00064688	0.00032688	7.5239e-05	559.18	2.3581e-06	2.6647e-06	639.46	170.79	3.413e-06	2.4553e-06	234.78	89.242	61.294	28.479	2.3006e-06	43.285	0.00060387	0.00059709	0.0001707	616.51	6.1505e-06	6.7333e-06	705.51	189.75	6.0391e-06	6.7256e-06	261.01	99.424	68.467	32.047	6.5428e-06	48.737	163.171	251.300	245.759	162.343	289.941	322.351	161.337	166.995	269.058	305.898	165.643	170.591	172.597	177.997	288.819	175.304	-8191	255	
2865.270	1	1	0	0	0.24329	0.12294	0.092289	0.21277	0.14838	0.19299	0.10482	0.22508	0.13251	0.1286	0.040584	0.20999	0.30285	0.21424	0.28905	0.26675	-2.3792	-3.1771	-2.15	-2.9083	-2.5354	-2.575	-3.075	-2.3187	-2.6458	-2.9167	-2.3458	-3.1	-2.7396	-2.2833	-3.0438	-2.3354	222.228	478.802	243.784	169.316	187.720	162.379	454.169	452.816	327.524	152.553	258.971	426.014	434.982	258.876	368.645	445.513	0.00063101	0.00034481	8.3846e-05	554.36	2.9717e-06	4.1878e-06	632.89	169.98	3.3204e-06	2.9348e-06	233.42	88.074	60.968	28.285	2.8318e-06	42.973	0.00061568	0.00062127	0.00017403	612.44	6.1968e-06	6.8612e-06	699.25	188.69	6.2487e-06	6.7323e-06	258.85	98.351	68.109	31.871	6.7172e-06	48.34	164.808	249.371	230.624	162.411	284.458	309.755	161.415	167.105	263.558	313.014	166.008	170.865	172.550	177.996	279.417	175.280	-8191	255	
2865.366	1	1	0	0	0.19939	0.14171	0.018073	0.057394	0.37661	0.039345	0.17222	0.10107	0.18208	0.13562	0.23137	0.072025	0.14935	0.18125	0.093901	0.13861	-2.2875	-3.0771	-2.3333	-2.9521	-2.7667	-2.4208	-3.1104	-2.5542	-2.5167	-3.1458	-2.2396	-2.8688	-2.8208	-2.1208	-3.2042	-2.6437	384.534	358.950	197.482	391.407	314.885	155.868	487.774	339.246	428.195	317.587	480.410	495.437	397.463	433.796	415.189	234.086	0.00064544	0.00029002	0.00010811	556.1	2.8691e-06	3.6417e-06	638.08	171.37	3.8756e-06	3.1635e-06	235.01	88.849	61.791	28.531	3.8229e-06	43.353	0.00062873	0.00060969	0.00018135	613	6.5086e-06	7.1163e-06	703.54	190.26	6.4941e-06	7.0512e-06	261.97	99.179	68.684	32.144	6.8209e-06	48.854	163.724	236.293	236.347	162.306	300.254	311.662	161.472	166.861	273.343	325.499	165.634	170.699	172.379	178.128	292.510	175.079	-8191	255	
2865.461	1	1	0	0	0.18868	0.18276	0.17323	0.10101	0.18855	0.16862	0.23364	0.18659	0.14947	0.082857	0.12403	0.13277	0.18492	0.14167	0.076124	0.27953	-2.2229	-3.1646	-2.3563	-3.0146	-2.8604	-2.2771	-3.1521	-2.5146	-2.2438	-3.1667	-2.1292	-2.625	-2.8688	-2.1958	-3.1458	-2.7021	290.828	171.596	500.682	487.019	223.413	456.114	446.483	456.462	219.659	350.789	287.803	477.821	451.774	459.880	491.703	441.193	0.0006181	0.00025741	9.6449e-05	562.66	2.0619e-06	2.8408e-06	646.58	174.86	2.9039e-06	2.6418e-06	241.03	90.107	62.751	28.848	3.7439e-06	43.896	0.00062076	0.00061369	0.00017874	621.41	6.3592e-06	7.1247e-06	713.28	194.02	6.6921e-06	6.9886e-06	267.41	100.6	69.852	32.524	6.7688e-06	49.584	163.403	256.552	216.889	162.182	274.788	305.542	161.252	166.881	280.832	328.065	165.572	170.486	172.218	178.151	285.593	175.329	-8191	255	
2865.558	1	1	0	0	0.14059	0.10496	0.25106	0.17239	0.046503	0.11463	0.041288	0.17495	0.16605	0.16485	0.050223	0.18631	0.17355	0.14722	0.18723	0.29026	-2.0792	-3.0563	-2.2229	-2.6562	-2.9521	-2.2188	-2.9792	-2.6771	-2.1688	-3.1729	-2.4083	-2.5229	-3.0042	-2.2917	-2.8646	-2.6937	379.263	321.472	165.240	172.999	150.530	475.226	448.656	401.952	151.299	367.818	423.944	449.020	434.051	467.419	274.889	402.114	0.00065435	0.00035902	7.8131e-05	571.47	2.6565e-06	4.2852e-06	660.68	179.43	2.8275e-06	1.5962e-06	245.64	91.461	63.141	29.065	2.8243e-06	44.147	0.00065883	0.0006454	0.00018507	631.13	6.4675e-06	7.3876e-06	727.64	199.02	6.7579e-06	7.1867e-06	272.7	101.93	70.632	32.801	7.0923e-06	49.764	163.919	260.525	233.703	162.423	290.712	314.338	161.624	166.855	269.394	284.503	165.682	170.648	172.288	178.043	290.206	175.397	-8191	255	
2865.653	1	1	0	0	0.1688	0.16524	0.10283	0.19774	0.11068	0.2812	0.14826	0.18766	0.11289	0.13985	0.11758	0.2201	0.18531	0.065017	0.13372	0.20537	-1.7458	-3.0146	-2.3292	-2.5333	-2.9604	-2.2417	-2.9542	-2.8396	-2.1208	-2.9854	-2.5354	-2.45	-3.0979	-2.3583	-2.85	-2.8208	160.692	289.792	380.165	185.304	297.414	380.821	270.930	153.070	368.852	386.716	376.689	209.635	305.560	471.133	375.940	455.190	0.00064931	0.00029266	9.471e-05	570.82	3.7707e-06	3.8324e-06	655.23	177.44	2.2348e-06	3.3992e-06	243.82	90.854	62.961	28.949	2.893e-06	43.96	0.00065401	0.0006375	0.00017701	629.1	6.5086e-06	7.3276e-06	723.02	197.29	6.8238e-06	7.1028e-06	270.58	101.31	70.156	32.684	6.9543e-06	49.598	163.620	231.551	253.830	162.266	257.891	319.483	161.753	166.820	294.606	287.809	165.734	170.868	172.229	178.034	279.489	175.336	-8191	255	
2865.749	1	1	0	0	0.22706	0.049928	0.12847	0.089537	0.27557	0.035743	0.20317	0.21397	0.075167	0.064169	0.2708	0.31459	0.14687	0.29745	0.091298	0.11921	-1.8021	-3.025	-2.5229	-2.45	-3.0854	-2.1271	-2.8854	-2.9688	-2.1708	-3.0104	-2.6417	-2.3688	-3.1875	-2.4917	-2.8688	-2.925	192.152	249.498	492.491	190.845	185.995	508.486	347.332	413.387	358.435	483.872	202.592	506.192	387.917	501.676	438.606	341.054	0.0006531	0.00027658	7.5767e-05	572.76	2.363e-06	3.7454e-06	658.75	179.35	2.8076e-06	1.8367e-06	246.92	91.535	63.995	29.066	3.93e-06	44.143	0.00065428	0.00064354	0.00017972	631.87	6.3441e-06	7.252e-06	728.14	199.68	6.9091e-06	7.1855e-06	274.56	102.14	71.23	32.803	7.1052e-06	49.816	164.103	243.764	248.124	162.473	283.480	265.282	161.417	166.707	260.263	275.800	165.779	170.676	172.218	177.907	288.178	175.188	-8191	255	
2865.870	1	1	0	0	0.15329	0.12591	0.24178	0.079568	0.24483	0.15958	0.20422	0.21431	0.20047	0.16228	0.19292	0.23419	0.18218	0.1403	0.12025	0.22656	-1.8375	-2.975	-2.7458	-2.3479	-3.1292	-2.3688	-2.6958	-3.1	-2.0271	-2.8771	-2.6937	-2.2896	-3.2812	-2.3792	-2.3729	-3.1604	201.456	178.197	431.748	209.995	490.723	207.074	209.865	385.853	188.911	216.402	484.832	390.144	411.579	178.258	464.063	354.087	0.00063563	0.00025338	6.808e-05	580.61	3.0774e-06	3.2626e-06	665.66	181.94	3.9899e-06	3.1753e-06	248.52	91.828	63.482	28.987	3.0387e-06	43.926	0.00065452	0.00065501	0.00017882	641.98	6.5065e-06	7.3618e-06	738.13	202.63	7.0534e-06	7.2766e-06	276.93	102.44	71.069	32.677	7.0665e-06	49.591	163.302	242.537	240.205	162.558	292.340	302.208	161.672	166.747	273.437	299.755	165.689	170.884	172.549	178.328	257.638	175.464	-8191	255	
2865.966	1	1	0	0	0.12728	0.20521	0.16947	0.35679	0.060824	0.082305	0.16769	0.078927	0.12279	0.13496	0.078779	0.079069	0.25217	0.22972	0.11438	0.30651	-2.1104	-2.8208	-2.6854	-2.3375	-3.0021	-2.4562	-2.3688	-3.0375	-2.1167	-2.7188	-3.0333	-2.0917	-3.1792	-2.5333	-2.2958	-3.1708	359.238	277.232	304.490	464.788	195.504	219.132	469.056	500.355	355.886	349.885	432.170	210.206	156.153	165.791	335.301	472.730	0.00064748	0.00033393	9.0456e-05	574.97	2.2014e-06	3.7947e-06	658.21	179.02	3.2007e-06	3.9185e-06	244.92	91.119	62.951	28.709	4.3286e-06	43.672	0.00064598	0.00062127	0.00017398	634	6.4274e-06	6.9458e-06	727.19	198.66	6.7274e-06	6.8471e-06	271.99	101.38	70.318	32.437	7.067e-06	49.251	164.194	228.454	239.488	162.597	271.801	314.637	161.753	167.118	270.463	306.366	165.775	170.788	172.642	178.265	290.749	175.503	-8191	255	
2866.062	1	1	0	0	0.33072	0.26186	0.13177	0.17266	0.04603	0.014767	0.10661	0.15747	0.11581	0.22044	0.091938	0.14697	0.071982	0.20142	0.14997	0.056229	-1.825	-2.5979	-2.9625	-2.3104	-2.9437	-2.6208	-2.5354	-2.9333	-2.2646	-2.6125	-2.8292	-2.1125	-2.9146	-2.7	-2.225	-3.1083	435.947	483.820	315.828	504.956	363.238	378.220	466.997	219.996	187.231	325.341	373.725	280.667	489.650	395.149	209.049	208.779	0.00065842	0.00032266	7.6823e-05	570.81	3.1911e-06	3.1736e-06	655.98	178.28	3.1351e-06	2.8247e-06	243.79	90.81	63.087	28.695	3.8772e-06	43.596	0.00064694	0.0006264	0.00016973	631.15	6.3196e-06	7.0563e-06	726.05	197.99	6.6436e-06	6.8271e-06	271.73	101.16	70.287	32.364	6.9285e-06	49.103	163.219	237.033	217.586	162.648	286.154	301.727	161.809	167.061	273.123	300.105	165.855	170.907	172.628	178.334	280.779	175.640	-8191	255	
2866.134	1	1	0	0	0.18277	0.10695	0.27101	0.14957	0.14338	0.1961	0.14609	0.24808	0.10448	0.10727	0.17288	0.28685	0.12317	0.15093	0.17971	0.17875	-1.8854	-2.3375	-2.9437	-2.4229	-2.7625	-2.7458	-2.2229	-3.1583	-2.4375	-2.2479	-2.9771	-2.1813	-2.8542	-3.0229	-2.2604	-2.9562	188.774	403.552	390.837	454.608	468.238	334.632	465.270	469.952	473.656	359.852	401.915	369.878	176.260	195.015	295.755	339.458	0.00063304	0.00035703	7.3321e-05	572.96	3.349e-06	2.9965e-06	659.24	178.49	4.0951e-06	3.1214e-06	244.75	90.663	62.99	28.731	3.498e-06	43.444	0.00063114	0.00062859	0.00017494	632.43	6.2171e-06	6.7147e-06	728.33	198.35	6.6278e-06	6.8672e-06	271.77	101.2	70.213	32.289	7.0328e-06	49.017	162.703	261.460	227.213	162.610	279.610	296.895	161.792	167.204	283.416	301.320	166.020	170.968	172.707	178.427	289.322	175.678	-8191	255	
2866.254	1	1	0	0	0.15954	0.20547	0.28191	0.045611	0.11187	0.065203	0.16488	0.16747	0.2288	0.049219	0.030932	0.15551	0.42168	0.15267	0.074576	0.11434	-1.9312	-2.4917	-2.9521	-2.3563	-2.6333	-2.85	-2.2208	-2.9729	-2.3854	-2.3375	-3.1875	-2.3125	-2.7604	-2.7833	-2.0521	-2.8125	184.740	222.008	476.242	204.145	385.644	326.481	484.513	478.943	333.073	227.585	457.824	154.057	471.482	156.097	482.529	461.233	0.00065734	0.00035636	0.00010601	571.22	2.407e-06	4.1075e-06	653.64	176.89	3.7763e-06	2.5817e-06	243.67	90.808	62.72	28.592	3.5574e-06	43.424	0.0006326	0.00063206	0.00017052	629.33	6.2691e-06	6.7789e-06	723.86	196.66	6.4688e-06	7.1788e-06	270.32	101.16	69.985	32.296	6.9953e-06	48.989	162.419	247.080	235.197	162.643	288.369	308.263	161.691	167.369	291.406	327.083	165.820	171.036	172.765	178.609	295.251	175.665	-8191	255	
2866.350	1	1	0	0	0.30916	0.17214	0.08482	0.15352	0.20943	0.23209	0.016908	0.15981	0.075475	0.13743	0.15261	0.17256	0.077424	0.15692	0.1205	0.138	-2.0354	-2.2146	-3.1125	-2.2562	-2.5979	-3.0375	-2.2354	-2.9062	-2.7479	-2.2708	-3.025	-2.4958	-2.5021	-2.9792	-2.0729	-2.9021	393.449	177.464	362.464	440.376	280.375	501.423	388.976	240.106	301.888	508.182	183.982	417.648	266.353	415.118	394.230	282.055	0.00062251	0.00045177	8.4951e-05	565.26	2.0425e-06	3.724e-06	648.75	173.44	3.2734e-06	1.7707e-06	236.41	89.368	61.445	28.332	2.8044e-06	43.024	0.00063376	0.00063633	0.00016878	623.61	6.2775e-06	7.0563e-06	715.35	192.19	6.5889e-06	7.1527e-06	263	99.488	68.671	31.942	7.2593e-06	48.499	162.413	237.482	225.371	162.713	292.527	301.597	162.024	167.502	292.655	313.648	166.295	171.339	172.960	178.700	285.407	175.824	-8191	255	
2866.447	1	1	0	0	0.15104	0.23295	0.13486	0.068627	0.056269	0.11316	0.13821	0.32937	0.28333	0.145	0.34911	0.11507	0.094238	0.12426	0.13276	0.07123	-2.3792	-2.2729	-3.1708	-2.4229	-2.35	-3.05	-2.1292	-2.7313	-2.7687	-2.1083	-3.0875	-2.3208	-2.3458	-3.0125	-2.2333	-2.9125	251.914	282.669	500.024	495.130	389.123	225.165	417.956	431.426	454.084	388.428	465.230	401.992	409.623	451.201	364.035	420.532	0.00060573	0.00029261	9.1722e-05	556.37	3.4127e-06	2.4867e-06	633.46	169.77	4.4653e-06	2.662e-06	233.07	88.499	61.147	28.37	3.4004e-06	43.014	0.00062228	0.00066991	0.00017514	612.96	6.4284e-06	7.0647e-06	701.8	187.44	6.6568e-06	7.4509e-06	258.62	98.773	68.057	31.915	7.0766e-06	48.544	163.169	233.630	237.650	162.806	301.706	290.263	162.114	167.769	275.738	293.032	166.414	171.326	172.937	178.799	261.021	175.627	-8191	255	
2866.541	1	1	0	0	0.23069	0.229	0.165	0.25528	0.14958	0.092586	0.2913	0.17853	0.19814	0.15579	0.1409	0.14731	0.15776	0.14587	0.1575	0.28175	-2.4313	-2.0271	-2.8812	-2.6271	-2.2854	-3.2125	-2.4333	-2.75	-2.8812	-2.2104	-2.9083	-2.7396	-2.2333	-3.3875	-2.2313	-2.6312	265.863	301.757	376.950	181.423	161.953	290.501	441.603	365.210	421.214	498.334	436.535	174.756	494.103	472.820	448.914	507.124	0.00063739	0.00027082	6.0467e-05	548.03	3.293e-06	3.5517e-06	628.79	167.54	3.9108e-06	3.8436e-06	231.76	88.394	60.743	28.385	3.4443e-06	43.123	0.0006334	0.00064866	0.00017304	604.54	6.4529e-06	7.0821e-06	695.18	185.41	6.5173e-06	7.5226e-06	256.9	98.518	67.794	31.959	7.1394e-06	48.633	163.110	229.921	225.663	162.947	290.733	317.743	162.107	167.668	282.326	313.023	166.637	171.293	173.133	178.453	291.133	175.951	-8191	255	
2866.662	1	1	0	0	0.15763	0.14228	0.068888	0.10261	0.29906	0.11064	0.15135	0.19308	0.26175	0.18732	0.0097838	0.23778	0.0046573	0.1939	0.078218	0.022614	-2.7062	-1.975	-2.9125	-2.6708	-2.0458	-3.1375	-2.4646	-2.4833	-3.0396	-2.1417	-2.95	-2.8229	-2.2062	-3.0979	-2.4271	-2.6813	468.439	401.719	468.018	387.999	276.122	248.442	153.815	272.681	407.576	458.500	184.898	394.973	408.214	209.758	170.794	475.019	0.00060614	0.00024398	0.00012675	545	3.8531e-06	3.5531e-06	628.23	166.38	4.3658e-06	3.4513e-06	230.65	88.913	60.983	28.582	3.4114e-06	43.39	0.00062642	0.00065987	0.00017416	601.13	6.6809e-06	6.8894e-06	694.6	184.75	6.5762e-06	7.3659e-06	256.23	98.835	68.053	32.151	6.9813e-06	48.876	163.620	259.155	248.387	162.587	282.637	309.493	161.438	167.455	290.909	299.767	166.141	170.815	173.000	178.274	281.812	175.495	-8191	255	
2866.733	1	1	0	0	0.15153	0.23187	0.10351	0.24297	0.13258	0.083389	0.19372	0.28155	0.10132	0.30771	0.17338	0.22391	0.097976	0.075573	0.048405	0.023699	-2.5771	-2.1521	-2.725	-2.7667	-2.1292	-3.0979	-2.575	-2.2896	-3.1479	-2.2917	-2.7562	-2.9354	-2.1375	-2.8667	-2.6813	-2.3333	173.453	426.035	500.973	426.141	385.061	453.084	501.396	367.554	395.175	384.275	428.152	187.803	202.742	357.812	222.327	395.485	0.00063424	0.00033977	8.893e-05	544.38	3.571e-06	3.6145e-06	627.15	166.19	2.9602e-06	3.409e-06	229.95	88.948	60.978	28.53	3.466e-06	43.554	0.0006279	0.00064332	0.00017132	601.1	6.6455e-06	6.8564e-06	692.26	184.44	6.4609e-06	7.0148e-06	255.91	99.073	68.082	32.171	6.7458e-06	49.029	161.459	237.682	234.797	162.562	280.513	305.370	161.707	167.618	255.886	323.929	166.259	170.980	172.804	178.104	287.632	175.363	-8191	255	
2866.829	1	1	0	0	0.11298	0.092481	0.094497	0.15767	0.15574	0.16383	0.1699	0.11553	0.061066	0.37242	0.31219	0.21227	0.11478	0.21564	0.042238	0.13565	-2.7458	-2.1562	-2.7	-2.8542	-2.1437	-2.9083	-2.5542	-2.4313	-3.0583	-2.3563	-2.6146	-2.9208	-2.2667	-3.0187	-2.6562	-2.3354	491.640	438.316	310.607	419.119	458.167	412.250	469.832	446.519	289.342	196.308	331.217	453.222	486.567	425.017	388.081	408.927	0.00061881	0.00024497	0.00010571	541.83	2.9338e-06	3.6551e-06	621.55	165.48	4.1115e-06	2.9603e-06	228.93	88.551	60.724	28.443	3.4415e-06	43.324	0.00062073	0.00062725	0.00016989	597.65	6.4998e-06	6.6631e-06	687.33	183.02	6.3377e-06	6.968e-06	254.64	98.882	67.785	32.084	6.6611e-06	48.782	164.034	261.740	237.164	162.255	298.914	304.801	161.543	167.700	280.698	321.214	166.265	170.974	173.004	178.514	293.423	175.542	-8191	255	
2866.950	1	1	0	0	0.20747	0.11061	0.19895	0.1253	0.077093	0.246	0.11241	0.27603	0.18569	0.29883	0.22094	0.11918	0.18104	0.1426	0.27821	0.17377	-2.8708	-2.3833	-2.5208	-3.1562	-2.2958	-2.8854	-2.9021	-2.2687	-3.1146	-2.3937	-2.5729	-2.9062	-2.1729	-2.8104	-2.9521	-2.275	261.462	389.469	262.131	203.926	278.195	226.914	225.238	414.500	474.004	451.725	187.232	455.106	505.126	468.168	266.480	507.915	0.00063293	0.00020689	8.0486e-05	532.56	2.811e-06	5.491e-06	611.92	161.98	3.0874e-06	3.359e-06	224.53	88.098	59.861	28.193	3.3321e-06	42.962	0.00061957	0.00061951	0.00017375	587.93	6.2723e-06	6.6037e-06	676.94	179.53	6.246e-06	6.6995e-06	250.73	98.208	66.926	31.837	6.4901e-06	48.506	163.229	237.018	237.681	162.628	272.591	305.231	161.394	167.634	271.303	286.728	166.191	170.654	172.686	178.452	279.883	175.616	-8191	255	
2867.046	1	1	0	0	0.22157	0.11139	0.13616	0.096224	0.2321	0.097653	0.050636	0.10414	0.15233	0.040114	0.13169	0.13739	0.36389	0.20756	0.093179	0.15819	-2.6896	-2.3833	-2.3104	-3.1188	-2.325	-2.9333	-2.8875	-2.2104	-2.9833	-2.6146	-2.3688	-3.1813	-2.2854	-2.7708	-3.1875	-2.3875	461.009	201.653	283.929	437.665	235.905	212.009	304.695	190.440	457.758	495.500	328.977	450.873	446.670	405.217	197.100	163.943	0.00063941	0.00034195	0.00010735	516.2	3.6201e-06	3.7325e-06	597.03	158.4	2.8353e-06	3.445e-06	222.94	86.346	59.38	27.844	3.1322e-06	42.28	0.00059346	0.0005861	0.00016714	570.51	6.1083e-06	6.3095e-06	658.78	175.61	5.9869e-06	6.4371e-06	246.83	96.742	66.227	31.616	6.1363e-06	48.085	161.462	226.110	245.327	162.582	287.955	288.574	161.868	168.226	266.303	280.918	166.769	172.043	173.562	179.612	278.836	176.741	-8191	255	
2867.142	1	1	0	0	0.25339	0.4176	0.071243	0.15054	0.12484	0.09506	0.15702	0.071949	0.090396	0.32682	0.22054	0.22154	0.11434	0.17824	0.14687	0.17758	-2.7188	-2.5708	-2.175	-3.0833	-2.3917	-2.6792	-3.2125	-2.3	-2.8563	-2.7708	-2.2771	-3.0771	-2.4104	-2.5625	-2.9479	-2.4021	363.349	454.001	199.963	424.499	367.124	309.746	193.161	416.125	167.925	376.018	151.888	447.050	475.845	240.871	227.895	475.683	0.00062168	0.00028684	9.7078e-05	513.53	2.2712e-06	2.2169e-06	597.34	159.15	2.3869e-06	2.4492e-06	222.03	87.069	59.49	28.132	3.0095e-06	42.755	0.00058183	0.00055999	0.00016259	566.89	5.8605e-06	6.3533e-06	659.1	175.92	5.8558e-06	6.3229e-06	247.21	97.147	66.403	31.755	6.2563e-06	48.34	163.110	239.539	248.280	162.951	294.413	308.395	161.604	167.717	284.371	299.401	166.231	171.255	172.860	178.571	271.698	175.533	-8191	255	
2867.238	1	1	0	0	0.11489	0.041321	0.14179	0.34637	0.046143	0.13802	0.11321	0.12291	0.24347	0.1391	0.063788	0.16046	0.29296	0.21591	0.20785	0.30357	-2.5187	-2.8104	-2	-3.0875	-2.5625	-2.4958	-3.1792	-2.1771	-2.8146	-2.9625	-2.1792	-2.9521	-2.5958	-2.5271	-3.0542	-2.5208	475.544	224.467	392.677	251.944	368.363	183.088	425.446	240.891	386.737	361.735	203.825	303.877	223.099	421.670	367.944	312.669	0.00059742	0.0002914	6.9751e-05	514.76	2.2429e-06	3.3102e-06	597.46	158.79	3.6972e-06	2.9151e-06	222.29	86.7	59.591	28.164	3.7141e-06	42.825	0.00058829	0.00056666	0.00016142	568.21	5.9204e-06	6.4908e-06	659.53	175.75	5.9606e-06	6.462e-06	247.28	97.079	66.402	31.773	6.3012e-06	48.291	161.895	239.767	223.769	162.658	302.674	306.955	162.167	168.543	261.462	307.794	166.939	171.716	173.358	179.063	300.446	176.168	-8191	255	
2867.359	1	1	0	0	0.2593	0.33625	0.15748	0.19873	0.12351	0.29817	0.031599	0.14883	0.27544	0.12983	0.22804	0.14217	0.11953	0.04983	0.33048	0.095854	-2.3896	-2.9021	-2.1813	-2.975	-2.8104	-2.3792	-3.1375	-2.3271	-2.9021	-3.1937	-2.1958	-2.9104	-2.8479	-2.3292	-3.1417	-2.5521	420.041	395.652	205.296	210.974	216.753	275.137	214.805	366.015	303.919	294.001	160.232	445.320	428.441	448.655	448.954	318.516	0.00063377	0.00032711	6.1722e-05	510.28	1.9776e-06	2.8574e-06	589.28	156.05	2.8105e-06	3.3414e-06	219.23	85.563	58.468	27.579	3.5763e-06	41.939	0.00060497	0.00057611	0.00016372	561.54	5.9339e-06	6.797e-06	651.68	173.48	6.2092e-06	6.6035e-06	244.01	95.598	65.128	31.078	6.5983e-06	47.273	162.635	236.163	245.022	162.899	283.868	296.526	161.643	167.822	265.048	291.420	166.463	171.151	173.053	178.614	300.469	175.540	-8191	255	
2867.431	1	1	0	0	0.40589	0.035516	0.21388	0.14841	0.18518	0.079325	0.11337	0.2173	0.36296	0.25489	0.21621	0.13526	0.16166	0.32183	0.12902	0.17836	-2.1604	-3.1375	-2.1021	-3.0021	-2.6937	-2.1708	-3.0333	-2.3771	-2.625	-3.0917	-2.0812	-2.9479	-2.6521	-2.0854	-2.9938	-2.5396	283.048	214.809	159.225	446.772	217.322	261.076	403.494	493.431	269.405	322.194	380.729	437.313	257.633	421.414	504.699	477.304	0.00062088	0.00034547	8.8696e-05	500.48	2.9986e-06	3.1661e-06	583.42	154.24	3.2141e-06	2.6135e-06	217.97	84.71	58.015	27.307	3.2269e-06	41.534	0.00060628	0.00060003	0.00017159	552.23	6.1593e-06	7.0281e-06	644.6	171.15	6.2897e-06	6.5902e-06	242.22	94.451	64.502	30.742	6.5041e-06	46.895	162.446	236.891	256.780	162.821	285.306	296.557	162.070	168.296	283.265	294.434	166.881	171.730	173.417	178.745	284.855	176.101	-8191	255	
2867.550	1	1	0	0	0.06525	0.24693	0.21342	0.12337	0.30644	0.15744	0.10371	0.28023	0.32433	0.079309	0.38028	0.031911	0.11558	0.062245	0.17599	0.15991	-2.075	-3.1521	-2.1896	-2.8833	-2.8417	-2.3396	-3.0125	-2.5062	-2.3812	-3.2021	-2.2938	-2.9333	-3.2979	-2.4104	-3.1437	-2.6542	251.037	294.702	388.784	416.904	498.163	397.086	360.149	431.711	265.589	239.267	437.655	333.826	227.725	303.226	480.434	184.993	0.00061504	0.0002651	7.5409e-05	508.11	3.3131e-06	3.0252e-06	588.78	155.88	2.8153e-06	3.2202e-06	219.84	85.627	58.21	27.515	3.3557e-06	41.973	0.00060619	0.00058535	0.00017243	559.57	6.0568e-06	6.7831e-06	652.73	173.21	6.1655e-06	6.4164e-06	245.12	95.773	65.211	31.115	6.3774e-06	47.482	161.507	241.822	235.193	163.238	283.489	297.817	162.548	168.771	296.346	324.266	167.162	172.003	173.588	179.495	279.718	176.459	-8191	255	
2867.646	1	1	0	0	0.21387	0.2114	0.31049	0.34807	0.16709	0.18774	0.16743	0.12182	0.16926	0.19047	0.14159	0.1321	0.23429	0.19901	0.14176	0.054322	-1.8583	-3.1188	-2.225	-2.6833	-3.1167	-2.2083	-3.1083	-2.7021	-2.2104	-3.1354	-2.4667	-2.4188	-3.2062	-2.3625	-2.9458	-2.9896	365.222	462.721	338.916	479.565	415.905	493.846	482.686	446.348	325.932	368.034	213.174	240.053	493.534	443.280	344.835	336.631	0.00060475	0.00021957	7.3419e-05	513.89	3.687e-06	1.6674e-06	595.51	157.21	4.5157e-06	2.7541e-06	221.31	86.312	58.948	27.744	2.9883e-06	42.368	0.00059379	0.00058198	0.00016813	567.37	6.1083e-06	6.7321e-06	660.94	175.08	6.2176e-06	6.5318e-06	247.54	96.709	65.946	31.362	6.4172e-06	47.853	163.012	259.456	246.116	163.449	288.397	300.211	162.584	168.631	276.523	305.643	167.402	172.166	173.774	179.149	291.664	176.276	-8191	255	
2867.742	1	1	0	0	0.14501	0.18288	0.3575	0.10601	0.1771	0.10331	0.26506	0.17581	0.17623	0.12827	0.11753	0.18654	0.036773	0.26273	0.19405	0.10242	-2.0021	-3.1354	-2.5187	-2.5167	-3.025	-2.3021	-2.9979	-2.9646	-2.2542	-3.125	-2.4542	-2.4583	-3.2625	-2.1042	-2.9333	-2.8271	186.035	328.736	430.792	153.038	232.835	164.422	445.897	464.155	459.718	358.634	334.882	430.790	495.565	162.073	432.012	462.024	0.00062789	0.0002589	5.6958e-05	515.56	3.2723e-06	2.6773e-06	595	157.21	3.419e-06	3.8827e-06	220.63	85.37	58.567	27.505	2.8789e-06	41.97	0.00062065	0.00058679	0.00016633	567.72	6.1708e-06	6.6955e-06	658.21	174.57	6.2186e-06	6.7353e-06	245.87	95.836	65.457	31.125	6.5002e-06	47.405	163.894	260.653	242.634	163.153	285.325	315.687	162.452	168.432	277.204	325.381	167.361	172.081	173.909	179.121	275.191	176.115	-8191	255	
2867.838	1	1	0	0	0.24493	0.28215	0.23326	0.039709	0.14337	0.090666	0.10176	0.029167	0.15544	0.28164	0.042096	0.16323	0.1401	0.22523	0.056737	0.25185	-2.0104	-2.9646	-2.5396	-2.4125	-2.9667	-2.2542	-2.9521	-2.9542	-2.3771	-2.8833	-2.5104	-2.3271	-3.1	-2.4521	-2.6583	-2.8937	274.982	365.870	415.526	416.533	221.549	280.140	488.782	170.181	351.667	395.156	484.258	495.700	459.554	377.178	464.538	210.797	0.00059709	0.00026631	8.2505e-05	511.42	3.1444e-06	2.8757e-06	593.17	156.65	3.6734e-06	4.131e-06	220.09	86.051	59.007	27.798	2.7519e-06	42.345	0.00061354	0.00058193	0.00016321	562.73	5.9443e-06	6.7381e-06	655.69	173.91	6.2539e-06	6.5574e-06	245.26	96.126	65.574	31.349	6.4027e-06	47.802	163.285	243.170	251.736	163.509	272.959	332.882	162.578	168.525	274.371	322.759	167.036	172.137	173.643	179.204	277.169	176.214	-8191	255	
2867.959	1	1	0	0	0.17362	0.20718	0.12955	0.090533	0.045446	0.026526	0.12171	0.12892	0.19512	0.17414	0.25187	0.27351	0.2395	0.15672	0.2233	0.097554	-1.8083	-2.8625	-2.6417	-2.1813	-3.0854	-2.4479	-2.6896	-3.0792	-2.2646	-2.7333	-2.8292	-2.3479	-2.9708	-2.4437	-2.5917	-3.1896	158.191	263.114	451.111	378.419	498.401	425.268	409.312	448.044	381.863	414.734	411.549	299.675	412.740	281.660	496.708	353.481	0.00062927	0.00045539	6.7444e-05	514.62	2.6065e-06	3.3074e-06	598.74	158.41	4.5299e-06	4.2913e-06	224.2	87.058	59.622	28.039	3.262e-06	42.912	0.00060899	0.00057307	0.00015985	568.98	5.9001e-06	6.6121e-06	662.54	175.77	6.2381e-06	6.4492e-06	248.42	97.277	66.425	31.667	6.4884e-06	48.313	162.483	227.658	248.933	163.267	277.906	308.233	162.003	167.933	274.121	303.999	166.721	171.330	173.006	178.588	296.819	175.771	-8191	255	
2868.030	1	1	0	0	0.078362	0.19953	0.095595	0.1289	0.2212	0.15868	0.24287	0.19379	0.1408	0.2435	0.23112	0.33395	0.15834	0.21549	0.10694	0.060301	-1.9	-2.8729	-2.7375	-2.1688	-3.0021	-2.3729	-2.4437	-3.1833	-2.4313	-2.6875	-2.9375	-2.175	-3.0583	-2.5938	-2.3583	-3.2	192.577	271.641	247.929	166.564	242.815	313.755	156.475	389.375	180.666	297.562	421.887	477.194	499.761	481.206	248.450	233.767	0.00062285	0.00024015	8.8278e-05	521.79	3.044e-06	1.6119e-06	600.25	159.34	3.6135e-06	2.8702e-06	223.56	87.228	59.378	27.951	3.9029e-06	42.576	0.00060726	0.00057307	0.00015814	574.04	5.8137e-06	6.2849e-06	667.59	177.04	6.2239e-06	6.4887e-06	249.21	97.342	66.352	31.572	6.5585e-06	48.032	163.458	260.891	237.188	163.122	285.969	326.484	162.810	168.703	280.388	331.978	166.806	172.106	173.721	179.186	282.353	176.446	-8191	255	
2868.127	1	1	0	0	0.046351	0.19112	0.17703	0.24011	0.26257	0.19498	0.32632	0.12229	0.088689	0.077253	0.13703	0.085154	0.058271	0.19414	0.085562	0.26082	-2.0458	-2.8396	-2.9688	-2.2625	-2.9396	-2.5812	-2.2938	-3.2083	-2.3896	-2.6813	-2.9271	-2.3583	-3.0646	-2.8458	-2.1583	-3.0438	223.841	473.439	489.783	455.515	359.807	360.238	359.330	379.348	349.890	379.777	212.296	268.245	440.079	510.053	461.624	468.088	0.00061606	0.0002782	8.6512e-05	516.51	3.2652e-06	2.572e-06	593.66	157.07	3.1838e-06	3.11e-06	220.16	86.689	58.798	27.963	4.298e-06	42.435	0.00061077	0.0005822	0.00015904	569.21	5.8444e-06	6.438e-06	658.75	174.5	5.9506e-06	6.5221e-06	245.77	96.199	65.569	31.439	6.4526e-06	47.752	162.991	256.652	253.631	163.222	279.061	301.245	162.723	168.637	282.538	314.154	167.067	171.682	173.473	178.450	291.551	175.886	-8191	255	
2868.223	1	1	0	0	0.12785	0.10621	0.21023	0.1409	0.20172	0.13283	0.1728	0.16009	0.11424	0.23562	0.15432	0.17285	0.20094	0.28401	0.26267	0.20277	-2.075	-2.5542	-3.1021	-2.2771	-2.7896	-2.9188	-2.2792	-3.1312	-2.5583	-2.4979	-3.2833	-2.3312	-2.9354	-2.8125	-2.3083	-3.1396	195.710	395.262	474.209	375.906	287.058	376.518	287.925	386.101	488.010	305.232	296.231	401.054	465.478	495.243	380.683	184.217	0.00063466	0.00026691	8.7346e-05	509.14	2.2881e-06	2.7639e-06	592.14	156.71	2.6869e-06	3.145e-06	220.34	85.744	58.63	27.686	3.5909e-06	42.438	0.00060319	0.00058823	0.00015787	562.35	5.8423e-06	6.2915e-06	654.75	174	5.9785e-06	6.5671e-06	246.16	96.192	65.574	31.426	6.4436e-06	47.952	162.146	241.788	249.943	163.123	290.581	292.959	162.646	168.555	286.653	307.076	167.323	172.098	173.913	179.083	285.480	176.350	-8191	255	
2868.319	1	1	0	0	0.08382	0.24579	0.033615	0.20127	0.24498	0.17069	0.19279	0.18008	0.30167	0.25116	0.21587	0.26996	0.11479	0.096558	0.25093	0.24363	-2.2438	-2.4271	-3.0792	-2.2854	-2.8521	-2.9	-2.2146	-3.0896	-2.6542	-2.2479	-3.2354	-2.5104	-2.6896	-3.1167	-2.1479	-3.0833	160.221	180.225	454.522	168.711	417.458	484.452	466.952	449.395	477.329	479.457	206.936	164.321	340.586	487.215	493.320	460.448	0.00062283	0.00033232	4.7623e-05	510.54	2.8109e-06	3.6263e-06	594.56	157.15	2.8169e-06	3.7121e-06	222.85	86.764	58.863	28.021	3.5465e-06	42.961	0.00058781	0.00057296	0.00015756	565.91	5.7241e-06	6.2399e-06	659.69	175.03	5.9506e-06	6.5859e-06	247.64	96.958	66.02	31.627	6.5344e-06	48.27	164.008	243.666	243.760	163.426	297.914	294.340	162.755	168.499	271.985	299.415	167.114	171.612	173.870	179.150	281.402	176.017	-8191	255	
2868.438	1	1	0	0	0.094288	0.16838	0.1549	0.12198	0.046215	0.23348	0.25042	0.17165	0.22077	0.16054	0.12954	0.27292	0.13131	0.19571	0.18281	0.13374	-2.2875	-2.1625	-3.0187	-2.4667	-2.4313	-2.9542	-2.1604	-2.9979	-2.6479	-2.2333	-3.0354	-2.3312	-2.6208	-3.0917	-2.175	-2.9167	155.264	345.990	365.887	459.237	154.918	344.010	171.353	291.549	276.747	196.994	448.856	256.073	183.502	440.099	462.011	435.311	0.00060883	0.00036652	0.00010037	515.12	3.1855e-06	2.4899e-06	596.49	158.2	3.9321e-06	2.5748e-06	222.37	87.154	58.712	27.78	3.7815e-06	42.346	0.00058778	0.00059165	0.00015722	567.41	5.8532e-06	6.3612e-06	659.57	175.33	5.9938e-06	6.7123e-06	247.18	96.596	65.74	31.449	6.5753e-06	47.834	162.146	225.725	235.890	162.852	275.878	311.846	162.287	168.556	284.882	321.010	166.978	171.860	173.476	178.955	287.565	176.603	-8191	255	
2868.534	1	1	0	0	0.32857	0.13075	0.10899	0.27367	0.20851	0.33768	0.19781	0.19639	0.14065	0.24387	0.12824	0.013874	0.30876	0.090539	0.19416	0.10428	-2.4833	-2.1771	-3.1083	-2.7042	-2.4417	-3.1292	-2.3312	-2.8958	-3.0354	-2.2854	-3.175	-2.6625	-2.3833	-3.0708	-2.3125	-2.9062	183.169	282.163	181.636	446.977	441.247	192.214	354.576	254.719	209.938	262.050	449.473	195.802	199.468	434.391	293.548	456.873	0.00060423	0.00022485	5.6256e-05	513.12	3.4109e-06	1.927e-06	597.11	157.55	3.0296e-06	2.3563e-06	220.08	85.56	58.447	27.779	3.9847e-06	42.095	0.00058674	0.00059656	0.00016009	567.43	5.9927e-06	6.4212e-06	660.93	175.04	5.8779e-06	6.708e-06	246.57	95.949	65.425	31.384	6.4554e-06	47.647	163.597	252.720	252.773	163.419	263.753	296.811	162.467	168.524	299.332	310.328	167.385	171.992	173.815	179.286	281.608	176.504	-8191	255	
2868.632	1	1	0	0	0.078741	0.10827	0.23257	0.25058	0.12869	0.17793	0.32535	0.35208	0.040345	0.086114	0.20333	0.0665	0.29589	0.26509	0.092508	0.34647	-2.7313	-2.45	-3.1396	-2.8125	-2.55	-3.2979	-2.3208	-2.8229	-3.0604	-2.1625	-3.2354	-2.6937	-2.4625	-3.1	-2.5208	-2.7542	220.228	300.461	212.757	433.615	429.082	448.356	328.477	161.361	492.174	238.842	426.127	412.780	466.415	411.917	281.323	421.589	0.00062955	0.00041209	9.3528e-05	509.14	2.9074e-06	3.3784e-06	589.83	155.86	2.883e-06	2.8834e-06	219.48	85.744	58.154	27.821	2.7538e-06	42.248	0.00060155	0.0006036	0.00015817	564.25	6.1312e-06	6.3287e-06	655.5	173.74	6.0654e-06	6.7827e-06	245.67	95.965	65.327	31.423	6.4178e-06	47.892	164.658	248.601	256.182	163.408	282.523	310.927	162.414	168.750	280.507	290.441	167.452	172.243	174.093	179.616	304.731	176.598	-8191	255	
2868.726	1	1	0	0	0.19676	0.21819	0.23745	0.14567	0.082222	0.10016	0.11462	0.21814	0.15731	0.18078	0.18703	0.14946	0.096176	0.22087	0.16276	0.12174	-2.8854	-2.3396	-2.9417	-2.7562	-2.2896	-3.2062	-2.4521	-2.7146	-3.1833	-2.4521	-2.8563	-2.9104	-2.4083	-3.1875	-2.4854	-2.575	361.289	218.764	401.743	189.141	427.351	504.723	441.809	229.930	394.846	368.030	487.263	193.683	403.707	475.071	497.367	291.082	0.00062225	0.00035604	9.4994e-05	510.78	1.6957e-06	3.3187e-06	594.52	156.87	3.1973e-06	3.7674e-06	221.5	86.248	58.561	27.95	3.8263e-06	42.418	0.00059097	0.00060366	0.00015772	567.14	6e-06	6.3407e-06	660.1	174.68	6.0032e-06	6.5428e-06	247.11	96.33	65.573	31.548	6.3494e-06	48.045	164.008	254.724	228.315	163.542	278.983	307.904	162.528	168.678	280.445	313.374	167.191	172.068	173.685	179.262	293.505	176.480	-8191	255	
2868.822	1	1	0	0	0.063598	0.06774	0.0039151	0.10057	0.12511	0.18357	0.14861	0.21392	0.30134	0.098429	0.10097	0.1013	0.14815	0.33009	0.38733	0.148	-2.5958	-2.2479	-2.9229	-3.0333	-2.4708	-3.1458	-2.7854	-2.6437	-3.0771	-2.3271	-2.7438	-2.8875	-2.4	-3.1354	-2.7604	-2.4917	379.017	495.048	402.100	483.906	451.783	229.161	423.408	170.358	339.329	264.829	202.300	174.618	425.310	505.671	364.238	305.220	0.00062063	0.00029075	7.3181e-05	511.92	2.7991e-06	2.7152e-06	593.07	156.64	3.2664e-06	2.6058e-06	220.96	86.028	58.927	27.91	3.2753e-06	42.392	0.00059733	0.00059634	0.000157	568.44	6.1239e-06	6.3569e-06	661.03	174.51	6.1439e-06	6.855e-06	246.34	96.179	65.823	31.546	6.4262e-06	47.928	163.913	235.065	247.227	163.440	293.989	304.385	162.555	168.696	281.924	301.989	167.118	172.029	173.959	179.294	276.832	176.373	-8191	255	
2868.918	1	1	0	0	0.037362	0.27197	0.17461	0.10612	0.078712	0.24341	0.084967	0.10852	0.1517	0.14133	0.23884	0.33633	0.18089	0.046875	0.32106	0.11697	-2.8271	-2.3646	-2.7625	-2.9708	-2.3083	-3.1437	-2.75	-2.3792	-3.2146	-2.3875	-2.5938	-3.1354	-2.1437	-2.9938	-2.6063	-2.4542	327.608	268.781	305.479	504.528	503.033	355.799	407.926	349.428	326.980	274.781	313.891	440.015	447.458	430.401	439.671	168.585	0.00059929	0.00022264	7.8427e-05	514.48	3.3436e-06	2.9364e-06	598.19	157.92	3.4899e-06	3.0312e-06	220.97	85.712	58.626	28.029	2.8039e-06	42.234	0.00059566	0.00059709	0.00016618	572.07	6.2915e-06	6.3503e-06	665.06	175.58	6.087e-06	6.8544e-06	247.18	96.216	65.687	31.52	6.3662e-06	47.929	163.815	224.002	254.814	163.456	295.022	314.627	162.209	168.786	292.534	308.619	167.339	171.902	173.306	179.115	268.987	176.647	-8191	255	
2869.039	1	1	0	0	0.11468	0.24088	0.16623	0.16108	0.092673	0.12086	0.18767	0.11461	0.14835	0.21162	0.18955	0.3214	0.31077	0.10662	0.23178	0.12245	-2.7812	-2.4417	-2.6354	-3.0396	-2.2438	-2.9146	-2.825	-2.2396	-3.1	-2.6125	-2.5833	-3.2062	-2.4083	-2.9646	-2.9958	-2.375	320.217	428.173	462.914	410.289	494.429	295.897	438.005	408.528	239.957	332.700	372.553	388.924	451.966	213.147	355.403	287.062	0.00061416	0.00015987	0.00010442	515.95	2.7643e-06	3.8027e-06	603.22	158.45	2.3641e-06	3.841e-06	221.77	86.504	58.637	27.621	2.1962e-06	42.334	0.00060661	0.00058284	0.00016174	573.15	6.0719e-06	6.2591e-06	666.48	175.54	5.9253e-06	6.3842e-06	247.77	96.43	65.676	31.412	6.1722e-06	47.967	163.721	249.298	248.622	163.661	283.990	305.730	161.863	167.926	281.385	290.997	167.117	171.949	173.863	179.653	291.055	176.620	-8191	255	
2869.135	1	1	0	0	0.15503	0.1432	0.2141	0.13633	0.19191	0.24338	0.089268	0.19605	0.12709	0.18875	0.23642	0.29014	0.13953	0.043759	0.058976	0.036537	-2.6229	-2.575	-2.3854	-3.3063	-2.3958	-2.8875	-3.1375	-2.3208	-3.1958	-2.5792	-2.4104	-3.3146	-2.2167	-2.6417	-3.0812	-2.1417	267.433	329.045	488.567	314.034	472.283	310.820	283.129	478.004	508.421	465.526	489.832	470.687	483.530	351.274	274.596	199.661	0.00062422	0.00036408	9.1221e-05	514.86	2.5513e-06	3.2705e-06	600.69	157.43	3.2016e-06	2.6643e-06	221.42	85.234	58.607	27.537	2.6101e-06	42.005	0.00059299	0.00057072	0.00016508	575.37	6.1005e-06	6.3137e-06	667.99	175.8	5.8747e-06	6.2603e-06	247.62	96.043	65.735	31.296	6.2283e-06	47.625	163.220	240.540	245.125	163.744	288.382	310.723	162.714	168.782	277.715	301.120	167.644	172.063	174.028	179.284	277.528	176.571	-8191	255	
2869.231	1	1	0	0	0.082532	0.18738	0.18896	0.17721	0.17206	0.13261	0.07446	0.16649	0.019521	0.14864	0.068452	0.27137	0.052685	0.24546	0.19802	0.11435	-2.7458	-2.5979	-2.2479	-3.0646	-2.4125	-2.5854	-3.0542	-2.275	-3.1396	-2.8583	-2.3146	-3.1458	-2.2687	-2.6	-2.9979	-2.3063	376.781	388.625	247.183	240.972	454.850	415.473	487.829	346.054	154.017	467.417	311.790	192.220	166.410	168.616	155.157	406.353	0.00063518	0.00031474	8.9966e-05	523.53	2.9184e-06	2.6039e-06	606.77	159.11	2.9933e-06	3.5534e-06	224.55	86.513	59.444	27.719	3.2209e-06	42.004	0.00059632	0.00056816	0.00016684	578.5	6.0068e-06	6.492e-06	671.96	176.74	5.9601e-06	6.3593e-06	249.51	96.517	65.963	31.242	6.4587e-06	47.467	163.949	266.971	220.898	162.738	280.542	289.304	161.754	167.794	274.525	302.692	166.726	171.239	173.227	178.801	281.597	176.175	-8191	255	
2869.328	1	1	0	0	0.14485	0.17035	0.099049	0.21468	0.050214	0.10657	0.087786	0.1733	0.14853	0.20084	0.034589	0.19965	0.18423	0.34722	0.13829	0.22623	-2.4625	-2.9229	-2.2062	-3.35	-2.3833	-2.7104	-3.3146	-2.3646	-2.8688	-2.9854	-2.2938	-3.2354	-2.6646	-2.3583	-3.0917	-2.2313	182.756	325.085	403.724	407.540	160.391	326.400	226.882	428.353	237.876	208.736	267.822	505.287	350.101	421.485	378.709	428.716	0.00063003	0.00026383	6.7331e-05	526	2.9493e-06	2.4879e-06	607.71	159.73	3.1179e-06	3.3001e-06	223.66	86.342	58.928	27.619	4.5772e-06	42.597	0.00060241	0.00060296	0.00017491	582.98	6.0864e-06	6.6925e-06	675.44	177.75	6.1075e-06	6.5312e-06	250.05	96.978	66.154	31.41	6.3365e-06	48.07	163.992	251.168	222.621	163.463	284.399	299.623	162.584	168.519	276.169	293.164	167.211	172.010	173.747	179.619	273.008	175.672	-8191	255	
#DATA ENDS
