BOXY.EXE: ISS Imagent and Oximeter Data Acquisition Program Version 0.80
Ascii Record File

#ACQ INFORMATION
2  Detector Channels 
16  External MUX Channels 
1  Auxiliary Channels 
5000  Waveform (CCF) Frequency (Hz)
1  Waveforms Skipped 
30  Waveforms Averaged 
1  Cycles Averaged 
16  Acquisitions per Waveform 
10.0806  Updata Rate (Hz) 

#FILE INFORMATION
TRUE -- External MUX Channel results are PARSED.
FALSE -- AC DC and Phase are NOT grouped.
TRUE -- Companion Program Settings File CREATED.
FALSE -- AC data not excluded
FALSE -- DC data not excluded
FALSE -- Phase data not excluded
FALSE -- Auxillary Chn. data not excluded
Tab delimiters

#CALIBRATION STATE
TRUE -- Waveform Calibration Values APPLIED.


#AUX CALIBRATION VALUES
Val Type	aux-1	

Term	1.0000e+00	
Factor	0.0000e+00	


#WF CALIBRATION VALUES
A = Detector Channel
Val Type	A-AC1	A-AC2	A-AC3	A-AC4	A-AC5	A-AC6	A-AC7	A-AC8	A-AC9	A-AC10	A-AC11	A-AC12	A-AC13	A-AC14	A-AC15	A-AC16	A-DC1	A-DC2	A-DC3	A-DC4	A-DC5	A-DC6	A-DC7	A-DC8	A-DC9	A-DC10	A-DC11	A-DC12	A-DC13	A-DC14	A-DC15	A-DC16	A-Ph1	A-Ph2	A-Ph3	A-Ph4	A-Ph5	A-Ph6	A-Ph7	A-Ph8	A-Ph9	A-Ph10	A-Ph11	A-Ph12	A-Ph13	A-Ph14	A-Ph15	A-Ph16	

Term	0.00000e+00	0.00000e+00	0.00000e+00	0.00000e+00	0.00000e+00	0.00000e+00	0.00000e+00	0.00000e+00	0.00000e+00	0.00000e+00	0.00000e+00	0.00000e+00	0.00000e+00	0.00000e+00	0.00000e+00	0.00000e+00	0.00000e+00	0.00000e+00	0.00000e+00	0.00000e+00	0.00000e+00	0.00000e+00	0.00000e+00	0.00000e+00	0.00000e+00	0.00000e+00	0.00000e+00	0.00000e+00	0.00000e+00	0.00000e+00	0.00000e+00	0.00000e+00	0.00000e+00	0.00000e+00	0.00000e+00	0.00000e+00	0.00000e+00	0.00000e+00	0.00000e+00	0.00000e+00	0.00000e+00	0.00000e+00	0.00000e+00	0.00000e+00	0.00000e+00	0.00000e+00	0.00000e+00	0.00000e+00	
Factor	1.00000e+00	1.00000e+00	1.00000e+00	1.00000e+00	1.00000e+00	1.00000e+00	1.00000e+00	1.00000e+00	1.00000e+00	1.00000e+00	1.00000e+00	1.00000e+00	1.00000e+00	1.00000e+00	1.00000e+00	1.00000e+00	1.00000e+00	1.00000e+00	1.00000e+00	1.00000e+00	1.00000e+00	1.00000e+00	1.00000e+00	1.00000e+00	1.00000e+00	1.00000e+00	1.00000e+00	1.00000e+00	1.00000e+00	1.00000e+00	1.00000e+00	1.00000e+00	X	X	X	X	X	X	X	X	X	X	X	X	X	X	X	X	

B = Detector Channel
Val Type	B-AC1	B-AC2	B-AC3	B-AC4	B-AC5	B-AC6	B-AC7	B-AC8	B-AC9	B-AC10	B-AC11	B-AC12	B-AC13	B-AC14	B-AC15	B-AC16	B-DC1	B-DC2	B-DC3	B-DC4	B-DC5	B-DC6	B-DC7	B-DC8	B-DC9	B-DC10	B-DC11	B-DC12	B-DC13	B-DC14	B-DC15	B-DC16	B-Ph1	B-Ph2	B-Ph3	B-Ph4	B-Ph5	B-Ph6	B-Ph7	B-Ph8	B-Ph9	B-Ph10	B-Ph11	B-Ph12	B-Ph13	B-Ph14	B-Ph15	B-Ph16	

Term	0.00000e+00	0.00000e+00	0.00000e+00	0.00000e+00	0.00000e+00	0.00000e+00	0.00000e+00	0.00000e+00	0.00000e+00	0.00000e+00	0.00000e+00	0.00000e+00	0.00000e+00	0.00000e+00	0.00000e+00	0.00000e+00	0.00000e+00	0.00000e+00	0.00000e+00	0.00000e+00	0.00000e+00	0.00000e+00	0.00000e+00	0.00000e+00	0.00000e+00	0.00000e+00	0.00000e+00	0.00000e+00	0.00000e+00	0.00000e+00	0.00000e+00	0.00000e+00	-1.55424e+02	-1.27235e+02	-1.24166e+02	-1.80391e+02	-7.40752e+01	-6.35377e+01	-1.56642e+02	-1.62015e+02	-7.80018e+01	-6.24457e+01	-1.75242e+02	-1.71364e+02	-1.79620e+02	-1.76316e+02	-7.26602e+01	-1.49562e+02	
Factor	2.32168e-05	1.44619e-04	3.90176e-05	1.53962e-01	1.28637e-06	1.68364e-06	1.74380e-01	5.13261e-02	1.26631e-06	1.62331e-06	9.43026e-02	3.18907e-02	2.43581e-02	9.34159e-03	1.41395e-06	1.29416e-02	1.42752e-05	2.56240e-05	7.09592e-06	7.92124e-02	2.49870e-07	2.88134e-07	8.45014e-02	2.65240e-02	2.52790e-07	2.91573e-07	4.71960e-02	1.60623e-02	1.27823e-02	4.86681e-03	2.69113e-07	6.54773e-03	X	X	X	X	X	X	X	X	X	X	X	X	X	X	X	X	



#DISTANCE SETTINGS
A = Detector Channel
A-1	A-2	A-3	A-4	A-5	A-6	A-7	A-8	A-9	A-10	A-11	A-12	A-13	A-14	A-15	A-16	

2.5000e+00	3.0000e+00	2.5000e+00	3.0000e+00	2.0000e+00	3.0000e+00	1.5000e+00	3.0000e+00	3.0000e+00	3.0000e+00	3.0000e+00	3.0000e+00	3.0000e+00	3.0000e+00	1.5000e+00	3.0000e+00	

B = Detector Channel
B-1	B-2	B-3	B-4	B-5	B-6	B-7	B-8	B-9	B-10	B-11	B-12	B-13	B-14	B-15	B-16	

1.0000e+01	1.0000e+01	1.0000e+01	1.4400e+00	1.0000e+01	1.0000e+01	1.5100e+00	1.9400e+00	1.0000e+01	1.0000e+01	1.9900e+00	2.4900e+00	2.4100e+00	2.9000e+00	1.0000e+01	2.9800e+00	




#DATA BEGINS
time	group	step	mark	flag	A-AC1	A-AC2	A-AC3	A-AC4	A-AC5	A-AC6	A-AC7	A-AC8	A-AC9	A-AC10	A-AC11	A-AC12	A-AC13	A-AC14	A-AC15	A-AC16	A-DC1	A-DC2	A-DC3	A-DC4	A-DC5	A-DC6	A-DC7	A-DC8	A-DC9	A-DC10	A-DC11	A-DC12	A-DC13	A-DC14	A-DC15	A-DC16	A-Ph1	A-Ph2	A-Ph3	A-Ph4	A-Ph5	A-Ph6	A-Ph7	A-Ph8	A-Ph9	A-Ph10	A-Ph11	A-Ph12	A-Ph13	A-Ph14	A-Ph15	A-Ph16	B-AC1	B-AC2	B-AC3	B-AC4	B-AC5	B-AC6	B-AC7	B-AC8	B-AC9	B-AC10	B-AC11	B-AC12	B-AC13	B-AC14	B-AC15	B-AC16	B-DC1	B-DC2	B-DC3	B-DC4	B-DC5	B-DC6	B-DC7	B-DC8	B-DC9	B-DC10	B-DC11	B-DC12	B-DC13	B-DC14	B-DC15	B-DC16	B-Ph1	B-Ph2	B-Ph3	B-Ph4	B-Ph5	B-Ph6	B-Ph7	B-Ph8	B-Ph9	B-Ph10	B-Ph11	B-Ph12	B-Ph13	B-Ph14	B-Ph15	B-Ph16	aux-1	digaux	

2485.875	1	1	0	768	0.32504	0.28386	0.26831	0.24711	0.23645	0.044447	0.111	0.15195	0.085343	0.11267	0.26435	0.070641	0.29717	0.14801	0.097015	0.45823	-1.8958	-2.9896	-2.2604	-2.4688	-3.1437	-2.3896	-3.0625	-2.7625	-2.2167	-3.0729	-2.5542	-2.3458	-3.2042	-2.2979	-2.7229	-3.075	101.999	-123.309	87.662	175.907	-16.164	205.554	102.786	202.954	-14.928	-3.648	-138.154	-74.582	-131.306	-22.937	92.733	192.264	0.00025134	0.0002502	0.00011725	1123.8	2.9886e-06	4.4203e-06	1225.5	225.71	2.6748e-06	3.8284e-06	286.83	82.85	65.108	19.217	2.8822e-06	26.468	0.00026115	0.00020884	6.3169e-05	1110.6	2.6882e-06	2.6556e-06	1216.5	224.99	2.7623e-06	2.3393e-06	285.79	83.742	65.183	19.399	2.5734e-06	26.98	178.133	-48.962	-67.099	-142.495	-41.863	-3.213	-142.585	-135.468	-36.817	15.669	-135.203	-129.024	-128.394	-121.151	-15.286	-121.302	-8191	255	
2485.971	1	1	0	0	0.067311	0.27443	0.052651	0.36318	0.089418	0.08265	0.26369	0.29074	0.22317	0.15252	0.17863	0.18299	0.11972	0.20826	0.16039	0.12668	-2.0958	-3.0458	-2.4146	-2.4708	-3.1542	-2.4167	-3.0062	-3.1625	-2.0979	-3.0979	-2.7479	-2.3937	-2.9604	-2.5146	-2.6688	-2.9708	160.943	-61.976	-91.907	176.737	190.823	176.606	184.166	146.921	137.291	-139.104	-122.224	48.952	154.527	59.979	-85.152	115.292	0.00023857	0.00022913	5.4952e-05	1123.3	2.0574e-06	3.5068e-06	1225.7	225.22	2.4697e-06	3.3406e-06	286.9	83.104	64.899	19.23	2.6215e-06	26.364	0.00024904	0.00021161	6.1483e-05	1111	2.658e-06	2.5488e-06	1217.4	224.53	2.7775e-06	2.5209e-06	286.1	83.726	65.246	19.396	2.5465e-06	26.916	179.650	-51.888	-49.083	-142.371	-21.726	5.763	-142.485	-135.573	-30.885	2.115	-135.583	-129.217	-128.395	-120.830	-18.956	-121.501	-8191	255	
2486.067	1	1	0	0	0.17692	0.24379	0.10908	0.45359	0.07247	0.068225	0.27438	0.20486	0.18529	0.18482	0.12145	0.18685	0.48408	0.1888	0.14234	0.24563	-1.8042	-2.8792	-2.7333	-2.3875	-3.3604	-2.3854	-2.8479	-3.1375	-2.1479	-2.9688	-2.9437	-2.4396	-3.1667	-2.5062	-2.5833	-3.2979	3.776	131.853	194.278	165.999	21.447	-109.551	123.664	67.137	146.471	-73.693	-121.991	109.625	-119.012	0.573	200.674	121.226	0.00024924	0.0003201	6.7404e-05	1126.6	1.8615e-06	2.2975e-06	1229.2	226.5	2.6063e-06	1.6081e-06	286.34	83.176	64.987	19.251	2.7998e-06	26.4	0.00025008	0.000217	5.9532e-05	1110.6	2.6976e-06	2.3585e-06	1217.3	224.87	2.6901e-06	2.2518e-06	285.64	83.949	65.202	19.433	2.4523e-06	26.898	178.004	-59.575	-56.300	-142.589	-40.939	23.829	-142.801	-135.054	-48.728	6.646	-135.456	-128.941	-128.422	-120.639	-12.768	-121.479	-8191	255	
2486.164	1	1	0	0	0.26774	0.14534	0.21308	0.24155	0.26494	0.25854	0.2525	0.1539	0.090296	0.050256	0.072012	0.084635	0.032032	0.18447	0.34393	0.15277	-1.8396	-2.8125	-2.7833	-2.4313	-2.9792	-2.4667	-2.3688	-3.1437	-2.3021	-2.8375	-3.0062	-2.2729	-3.2438	-2.6833	-2.3104	-3.2958	42.782	-116.096	-14.038	176.451	-115.365	198.020	198.031	160.910	134.099	50.289	156.123	1.137	51.224	162.157	-60.275	184.107	0.00022535	0.00023726	3.3259e-05	1125.4	2.2072e-06	2.5885e-06	1228.8	226.33	2.9093e-06	2.2074e-06	286.63	82.756	65.018	19.066	2.356e-06	26.637	0.00024544	0.00020798	5.8763e-05	1111.4	2.5971e-06	2.3375e-06	1215.8	225.05	2.8033e-06	2.256e-06	286.2	83.611	65.312	19.391	2.4843e-06	26.927	177.119	-63.307	-73.801	-142.397	-33.984	23.179	-142.390	-135.321	-66.675	-27.509	-135.211	-129.258	-128.750	-120.558	-15.029	-121.008	-8191	255	
2486.258	1	1	0	0	0.095047	0.16275	0.11479	0.38058	0.30048	0.11854	0.38365	0.12924	0.20647	0.090755	0.12883	0.15724	0.2079	0.01595	0.30934	0.052442	-2.1146	-2.8625	-2.9771	-2.425	-2.8625	-2.8229	-2.3958	-3.1562	-2.3542	-2.575	-3.0021	-2.225	-2.8375	-2.7833	-2.3104	-3.1042	106.142	-74.786	114.871	134.322	-131.962	-133.167	165.329	150.278	122.226	178.300	20.381	120.700	-50.639	-68.216	-5.589	159.378	0.00024773	0.00023737	7.085e-05	1124.8	1.5847e-06	2.5123e-06	1226.2	226.36	2.1144e-06	2.581e-06	287.14	83.301	64.777	19.094	2.4897e-06	26.58	0.00025071	0.00022282	5.7758e-05	1108.7	2.7762e-06	2.3393e-06	1216.3	225.3	2.7175e-06	2.4219e-06	285.61	83.747	65.215	19.413	2.5661e-06	26.957	181.351	-58.492	-52.972	-142.391	-61.471	4.466	-142.636	-135.570	-43.734	-32.129	-135.798	-129.267	-129.023	-120.925	-9.198	-121.276	-8191	255	
2486.356	1	1	0	0	0.14396	0.052572	0.21771	0.30831	0.069642	0.21741	0.065028	0.055514	0.03821	0.14672	0.07849	0.25038	0.33993	0.11391	0.32464	0.02489	-1.9813	-2.3521	-3.1583	-2.4083	-2.8125	-2.8708	-2.55	-3.1646	-2.2938	-2.4625	-3.0979	-2.3312	-2.7375	-2.9813	-2.1417	-3.0333	110.597	49.379	-135.996	189.713	79.695	94.117	167.167	140.140	53.031	95.548	85.762	122.377	111.953	53.097	-35.274	50.866	0.00026138	0.00038675	9.7415e-05	1123.2	2.3923e-06	3.1087e-06	1223.5	225.97	2.6053e-06	2.5357e-06	287.26	82.813	65.191	19.055	2.023e-06	26.487	0.00025267	0.00021572	5.6871e-05	1108.8	2.7855e-06	2.3633e-06	1214.5	224.54	2.4852e-06	2.3162e-06	285.81	83.636	65.311	19.345	2.6166e-06	26.933	182.573	-51.232	-67.323	-142.623	-22.846	9.763	-142.440	-135.664	-30.089	23.717	-134.981	-129.035	-128.303	-120.710	-11.123	-121.324	-8191	255	
2486.475	1	1	0	0	0.1736	0.17634	0.24218	0.18991	0.12886	0.13673	0.2706	0.14889	0.2242	0.12491	0.20379	0.097571	0.054194	0.1207	0.21879	0.082662	-2.1604	-2.3833	-3.0438	-2.3292	-2.7667	-3.0062	-2.475	-3.1083	-2.7458	-2.3937	-3.2333	-2.3458	-2.8583	-3.1333	-2.1917	-3.0458	70.596	-68.222	121.519	105.827	-85.417	-39.211	159.632	87.113	106.624	72.386	-148.368	121.037	112.497	89.415	46.524	195.051	0.00025923	0.00026624	5.6904e-05	1123.4	2.4885e-06	2.691e-06	1224.1	223.84	2.0829e-06	2.5688e-06	285.83	82.654	64.939	19.221	2.6382e-06	26.299	0.00025401	0.00022704	5.9798e-05	1109.1	2.733e-06	2.1358e-06	1212.9	223.98	2.6285e-06	2.4802e-06	285.82	83.602	65.212	19.332	2.6093e-06	26.829	181.446	-49.037	-69.082	-142.523	-24.308	-13.442	-142.630	-135.141	-30.246	-3.469	-135.421	-128.881	-128.198	-120.808	2.558	-121.288	-8191	255	
2486.571	1	1	0	0	0.035551	0.15551	0.11549	0.18137	0.27664	0.057551	0.25497	0.11237	0.32054	0.10491	0.078034	0.14497	0.072555	0.13062	0.29842	0.060616	-2.2042	-2.2542	-3.2125	-2.6354	-2.4208	-3.0646	-2.5021	-2.7583	-2.8583	-2.4271	-3.1979	-2.4062	-2.6937	-3.05	-2.1979	-2.8896	-34.203	18.238	-49.288	-144.405	-20.234	-16.681	184.099	179.424	24.675	138.771	-82.385	-142.153	11.919	62.240	97.163	191.302	0.00025992	0.00029397	8.4282e-05	1126.4	2.2155e-06	3.2137e-06	1218.8	225.35	2.2991e-06	3.0439e-06	284.82	82.899	65.2	19.083	3.3708e-06	26.333	0.00025579	0.00024514	5.9665e-05	1111.1	2.771e-06	2.2985e-06	1211.8	224.25	2.6164e-06	2.5142e-06	285.1	83.409	65.284	19.326	2.5599e-06	26.878	177.301	-47.295	-64.078	-142.434	-49.341	5.819	-142.762	-135.514	-42.185	20.205	-134.868	-129.203	-128.776	-120.726	-24.261	-121.178	-8191	255	
2486.667	1	1	0	0	0.077633	0.24745	0.077816	0.20899	0.051531	0.27083	0.23586	0.16838	0.15441	0.26045	0.1622	0.20568	0.10127	0.25917	0.13584	0.15816	-2.3208	-2.2979	-3.1458	-2.7208	-2.5271	-3.1479	-2.1813	-2.7458	-2.8604	-2.3146	-3.15	-2.5229	-2.325	-3.1167	-2.3625	-2.8667	-37.769	127.852	196.179	175.928	74.306	130.920	116.106	158.752	112.496	64.608	-133.860	149.664	35.630	-27.058	183.921	62.886	0.00025267	0.0003154	6.3708e-05	1122.2	2.3589e-06	2.3098e-06	1225.2	226.38	2.6377e-06	2.4823e-06	285.02	82.559	65.066	18.89	3.2105e-06	26.5	0.00024536	0.00024167	5.8275e-05	1107.2	2.9204e-06	2.3675e-06	1214.1	224.81	2.5706e-06	2.7548e-06	285.01	83.45	65.081	19.265	2.6749e-06	26.884	182.536	-46.459	-60.789	-142.561	-32.111	1.631	-142.653	-135.268	-50.410	9.988	-135.357	-129.250	-128.467	-120.828	-29.169	-121.175	-8191	255	
2486.763	1	1	0	0	0.1994	0.16442	0.22792	0.23571	0.29223	0.16859	0.074949	0.23809	0.28001	0.31674	0.11804	0.12554	0.10056	0.38434	0.28444	0.15065	-2.5896	-2.0958	-3.0021	-2.6604	-2.2479	-3.1104	-2.4896	-2.6688	-2.9625	-2.2417	-3.1458	-2.7896	-2.25	-3.0917	-2.4521	-2.7229	120.157	35.222	-81.273	142.426	107.826	15.959	-107.451	171.424	48.306	-4.485	4.962	-18.523	-40.082	-143.444	-23.136	-100.829	0.00025411	0.00031371	6.4422e-05	1124.8	2.7884e-06	2.8589e-06	1218.8	225.41	3.2597e-06	1.9109e-06	286.92	82.85	64.47	19.087	1.0249e-06	26.42	0.00024277	0.00022859	5.8275e-05	1108.6	2.8595e-06	2.616e-06	1212.6	224.59	2.618e-06	2.5652e-06	285.43	83.442	65.105	19.315	2.4405e-06	26.886	177.099	-74.279	-59.226	-142.635	-37.387	1.592	-142.816	-135.713	-28.923	-8.917	-135.593	-129.744	-128.571	-121.114	-16.159	-121.856	-8191	255	
2486.859	1	1	0	0	0.36637	0.17104	0.16044	0.10721	0.2301	0.15534	0.12083	0.3709	0.26977	0.17193	0.031698	0.11359	0.038243	0.13259	0.078726	0.25058	-2.5771	-2.2333	-3.0792	-3.0042	-2.1562	-3.1604	-2.6813	-2.5812	-3.0792	-2.2292	-3.0229	-2.8583	-2.3396	-3.275	-2.4354	-2.3937	69.612	4.254	-139.173	-130.718	37.515	-127.166	145.075	161.469	93.975	59.622	-151.375	-89.915	26.699	-144.580	142.804	174.092	0.00025164	0.00034733	5.0753e-05	1121.4	2.0851e-06	3.1585e-06	1219.2	225.8	2.6618e-06	3.1974e-06	285	82.661	64.86	18.973	2.8971e-06	26.453	0.00024274	0.00022891	6.2681e-05	1107.3	2.9813e-06	2.3627e-06	1211.1	224.31	2.5779e-06	2.544e-06	285.55	83.369	64.951	19.266	2.6485e-06	26.811	182.593	-59.004	-54.180	-142.616	-29.538	19.530	-142.574	-135.202	-23.246	8.050	-135.229	-129.276	-128.476	-120.239	-28.733	-121.239	-8191	255	
2486.956	1	1	0	0	0.090936	0.052744	0.17929	0.16995	0.1648	0.11317	0.16764	0.072767	0.25743	0.065695	0.2201	0.06691	0.19421	0.24353	0.19722	0.20473	-2.7479	-2.2958	-2.7333	-3.1604	-2.1833	-3.1333	-2.8792	-2.6792	-3.2021	-2.3604	-2.775	-2.9813	-2.2812	-3.0687	-2.6333	-2.1021	-81.761	140.638	147.536	-143.830	60.310	18.402	161.442	165.241	-110.863	25.863	-140.080	-64.253	-76.106	8.194	24.724	77.438	0.00024316	0.00034726	7.6557e-05	1124	2.2658e-06	3.3696e-06	1221.6	225.04	2.9595e-06	3.4664e-06	287.51	82.708	64.572	19.087	2.91e-06	26.263	0.00024892	0.0002485	6.7116e-05	1109.4	2.9578e-06	2.4978e-06	1212.2	224.43	2.6369e-06	2.5245e-06	285.72	83.333	64.96	19.281	2.5555e-06	26.711	179.809	-53.209	-73.205	-142.395	-16.444	16.758	-142.606	-135.364	-47.098	19.159	-135.547	-129.261	-128.617	-120.886	-16.320	-121.049	-8191	255	
2487.076	1	1	0	0	0.19059	0.023605	0.065897	0.24094	0.26241	0.044076	0.14615	0.38764	0.0988	0.27026	0.049941	0.24108	0.22155	0.22381	0.32171	0.14783	-2.8146	-2.3771	-2.775	-3.2167	-2.35	-3.05	-2.8583	-2.325	-2.9958	-2.2208	-2.5229	-3.1354	-2.2	-2.9313	-2.6312	-2.2062	-87.777	138.240	-149.239	151.303	-4.662	183.204	160.663	186.594	10.250	71.606	-124.684	200.162	165.515	-1.597	-118.929	25.609	0.00024718	0.00026006	9.4306e-05	1123.1	2.1052e-06	3.0496e-06	1223.8	227.21	2.3446e-06	2.7964e-06	285.45	82.867	64.795	19.021	1.8096e-06	26.478	0.00024223	0.00024049	6.1823e-05	1107.6	2.963e-06	2.4179e-06	1213.5	224.84	2.5937e-06	2.6096e-06	285.03	83.433	64.91	19.275	2.4506e-06	26.784	179.789	-56.857	-72.330	-142.546	-26.707	36.146	-142.444	-134.976	-44.763	15.532	-135.369	-129.167	-128.322	-120.404	-35.128	-121.602	-8191	255	
2487.171	1	1	0	0	0.26901	0.07917	0.16601	0.21545	0.10496	0.055294	0.22637	0.30192	0.059675	0.21215	0.33908	0.31226	0.14307	0.13056	0.11496	0.20127	-2.7208	-2.5875	-2.5375	-3.1979	-2.1458	-2.9146	-2.9375	-2.2646	-3.1083	-2.5896	-2.4625	-3.2125	-2.3875	-2.8958	-3.1188	-2.2771	-72.693	-115.461	-135.918	-138.871	-67.128	123.701	115.372	179.366	-8.904	-93.984	164.182	136.844	-40.680	-39.936	177.736	-2.475	0.00025818	0.00024262	7.8334e-05	1123	2.3937e-06	2.7289e-06	1224.2	224.57	3.367e-06	2.7076e-06	287.08	82.84	64.358	18.89	1.8663e-06	26.33	0.0002439	0.000239	6.3169e-05	1109.7	2.9422e-06	2.2492e-06	1211.3	224.01	2.7243e-06	2.5798e-06	285.57	83.311	64.915	19.224	2.4557e-06	26.744	184.667	-84.766	-55.611	-142.490	-34.628	4.582	-142.791	-134.870	-48.808	-19.188	-135.359	-129.456	-128.574	-120.692	15.627	-121.775	-8191	255	
2487.267	1	1	0	0	0.1098	0.14143	0.11469	0.16906	0.16533	0.18252	0.26392	0.24014	0.19763	0.22153	0.1014	0.12063	0.14037	0.24452	0.12757	0.074715	-2.7542	-2.5583	-2.3229	-3.1521	-2.2521	-2.8292	-3.0938	-2.2229	-3.125	-2.4792	-2.2375	-3.0854	-2.3229	-2.5958	-3.05	-2.3312	-99.908	167.689	4.918	118.220	153.865	-92.635	128.577	-137.831	158.393	102.538	-113.043	-121.578	169.636	33.056	-78.332	-40.201	0.00024654	0.00032067	7.4611e-05	1121	2.6153e-06	2.606e-06	1221.5	223.47	1.5875e-06	2.8447e-06	287.01	82.324	64.306	19.175	2.8498e-06	26.107	0.00024839	0.00022069	6.1956e-05	1107.2	2.8339e-06	2.5158e-06	1211.8	223.8	2.5453e-06	2.4972e-06	285.6	83.487	64.89	19.305	2.4551e-06	26.731	177.707	-74.162	-55.465	-142.674	-52.894	13.031	-142.821	-135.557	-64.200	-2.322	-135.454	-129.080	-128.673	-121.134	2.440	-121.643	-8191	255	
2487.363	1	1	0	0	0.22011	0.18391	0.17184	0.2047	0.18643	0.19207	0.24589	0.16982	0.33384	0.17309	0.048222	0.17732	0.098125	0.19397	0.11728	0.36189	-2.5021	-2.6875	-2.0563	-3.2438	-2.3854	-2.5187	-3.0167	-2.3833	-2.9104	-3.0875	-2.3	-3.1188	-2.4313	-2.4875	-2.9167	-2.3875	187.247	205.930	124.588	196.353	175.724	-95.471	111.678	3.456	45.272	166.957	13.411	174.375	182.552	-139.154	-18.071	110.694	0.00023077	0.00026194	7.5394e-05	1123.1	2.2858e-06	2.7847e-06	1225	226.6	2.2041e-06	2.5946e-06	286.47	82.315	64.542	18.9	3.4627e-06	26.303	0.00024506	0.00022223	6.9023e-05	1108.8	2.9391e-06	2.5026e-06	1213	224.58	2.687e-06	2.3794e-06	284.77	83.082	64.971	19.248	2.4764e-06	26.842	175.392	-54.255	-58.489	-142.677	-21.834	-3.361	-142.774	-135.368	-68.604	2.194	-135.708	-128.733	-128.373	-120.421	-17.216	-121.533	-8191	255	
2487.436	1	1	0	0	0.29897	0.1089	0.19171	0.16565	0.23471	0.085068	0.18858	0.34736	0.0094507	0.18743	0.19168	0.13274	0.29049	0.1124	0.16775	0.13453	-2.6708	-2.7271	-2.2812	-3.1479	-2.4938	-2.4833	-3.2292	-2.2062	-2.9458	-3	-2.2396	-3.1083	-2.7417	-2.4229	-3.1667	-2.3187	-22.228	13.502	-148.964	115.500	-57.357	133.945	116.032	116.661	91.899	73.981	78.659	-143.254	147.803	32.838	60.438	-112.325	0.00025002	0.00023652	5.7173e-05	1124.3	1.5849e-06	2.3693e-06	1222.1	225.17	2.2279e-06	2.0982e-06	286.02	82.806	64.571	19.074	2.4276e-06	26.305	0.00025591	0.0002288	6.3686e-05	1108.9	2.773e-06	2.538e-06	1213.7	224.17	2.6669e-06	2.4225e-06	285.39	83.535	64.931	19.28	2.4562e-06	26.74	182.697	-62.731	-50.972	-142.622	-9.234	31.664	-142.912	-135.436	-61.632	-1.648	-135.522	-129.306	-128.852	-120.571	3.227	-121.600	-8191	255	
2487.555	1	1	0	0	0.27128	0.12953	0.19277	0.32396	0.29549	0.079965	0.02081	0.2087	0.065472	0.092635	0.2645	0.27709	0.1979	0.22263	0.062846	0.36676	-2.3646	-2.7958	-2.1	-3.1437	-2.3792	-2.3333	-3.2604	-2.6229	-2.9167	-3.1188	-2.2333	-2.8771	-2.7604	-2.3771	-3.0771	-2.4938	107.241	-151.217	157.859	159.715	-22.978	201.522	33.325	175.844	-140.742	74.487	-147.375	156.204	53.474	-71.076	-47.371	146.525	0.00022237	0.00021375	6.3828e-05	1118.7	1.9073e-06	2.7093e-06	1226	225.13	1.7526e-06	3.8025e-06	286.2	82.698	64.588	19.078	3.4345e-06	26.261	0.00024241	0.00021022	6.7485e-05	1108.3	2.9188e-06	2.6676e-06	1213.7	224.15	2.5679e-06	2.2864e-06	284.96	83.37	64.879	19.246	2.4433e-06	26.796	179.856	-28.837	-64.340	-142.221	-27.821	8.430	-142.574	-135.170	-29.451	2.830	-135.135	-129.006	-128.354	-120.485	-38.109	-121.202	-8191	255	
2487.651	1	1	0	0	0.27857	0.16635	0.17679	0.24952	0.17365	0.063765	0.22813	0.33801	0.11427	0.086712	0.36413	0.061242	0.102	0.047279	0.033967	0.13511	-2.0875	-3.0687	-2.2479	-3.1042	-2.7708	-2.2104	-3.3375	-2.5938	-2.5917	-3.1125	-2.2687	-2.975	-2.9396	-2.3458	-3.0979	-2.4021	65.772	33.500	-123.548	-128.517	132.638	177.836	72.511	100.783	9.805	177.185	164.422	160.683	-71.343	93.500	6.560	196.339	0.00024667	0.00030605	7.8675e-05	1124.6	2.2154e-06	2.2061e-06	1226.1	225.1	2.0057e-06	2.6224e-06	285.29	83.016	64.601	19.068	3.4182e-06	26.513	0.00025175	0.00020766	7.0604e-05	1109.5	2.797e-06	2.6736e-06	1215.1	224.27	2.8992e-06	2.3326e-06	285.27	83.422	64.919	19.312	2.4747e-06	26.852	178.193	-74.177	-44.014	-142.459	-19.809	10.132	-142.885	-135.414	-29.022	15.470	-135.479	-129.747	-128.552	-120.974	-16.790	-121.708	-8191	255	
2487.747	1	1	0	0	0.11415	0.21539	0.037889	0.34038	0.044017	0.10081	0.27692	0.2825	0.13236	0.15336	0.051252	0.08169	0.12676	0.14377	0.1024	0.05316	-2.1688	-2.9938	-2.1958	-2.8438	-2.75	-2.0042	-3.2438	-2.6271	-2.4417	-3.1583	-2.3125	-2.675	-2.9062	-2.225	-2.9562	-2.6583	-51.685	-115.579	-55.727	156.431	179.032	177.339	65.563	147.787	202.102	162.711	80.856	-138.977	58.845	-114.021	-125.301	169.971	0.00024981	0.00035289	8.9336e-05	1123.7	1.7649e-06	2.8604e-06	1222.8	224.45	2.6661e-06	2.7731e-06	287.44	82.951	64.267	19.139	1.4771e-06	26.343	0.00024916	0.00021887	6.713e-05	1109	2.8235e-06	2.5968e-06	1214.1	224.26	2.767e-06	2.3204e-06	285.33	83.461	64.809	19.31	2.6743e-06	26.699	177.883	-66.979	-39.326	-142.847	11.211	-2.193	-142.936	-135.830	-47.150	17.767	-135.886	-129.371	-128.702	-121.193	-2.460	-121.877	-8191	255	
2487.868	1	1	0	0	0.14837	0.09223	0.26096	0.17151	0.13477	0.11219	0.26029	0.20349	0.066111	0.066125	0.3872	0.12407	0.17141	0.11779	0.083127	0.13137	-1.9604	-3.0375	-2.2458	-2.7417	-3.1021	-2.1667	-3.1937	-2.5812	-2.2625	-3.0917	-2.375	-2.5708	-3.1875	-2.2396	-2.9938	-2.7396	-34.886	-140.287	56.101	147.181	-17.532	83.207	-136.490	176.900	-70.758	-113.124	181.351	150.271	26.746	33.349	-64.389	43.851	0.00026282	0.00030527	9.7564e-05	1122.9	2.5049e-06	3.3912e-06	1225.2	224.76	2.135e-06	4.1147e-06	286.36	82.606	64.627	19.065	2.2034e-06	26.507	0.00026394	0.00021828	6.9244e-05	1109.2	2.7512e-06	2.6076e-06	1215.5	224.29	2.817e-06	2.4407e-06	284.89	83.398	65.036	19.26	2.5224e-06	26.77	180.116	-59.951	-48.125	-142.670	-31.676	0.124	-142.806	-135.583	-42.077	1.848	-135.845	-129.238	-128.961	-121.207	-1.302	-121.633	-8191	255	
2487.964	1	1	0	0	0.095511	0.11006	0.20867	0.12146	0.12485	0.092581	0.32797	0.076111	0.2078	0.049657	0.34005	0.22206	0.20188	0.40436	0.23098	0.039948	-1.9417	-3.1229	-2.4021	-2.6979	-3.1312	-2.1271	-3.1375	-2.9792	-2.2042	-3.1042	-2.5604	-2.3688	-2.8688	-2.3833	-2.8375	-3.1146	20.549	-75.658	74.932	39.392	-28.697	-46.465	174.820	185.870	-139.686	-48.754	188.453	120.058	158.392	166.633	112.299	-76.562	0.00026514	0.00023795	0.00010439	1124.1	1.9049e-06	2.3689e-06	1221.2	224.75	1.5829e-06	1.6284e-06	286.39	82.188	64.492	19.03	2.5331e-06	26.175	0.0002604	0.00022165	6.6125e-05	1108.7	2.6424e-06	2.5806e-06	1215.6	223.9	2.8065e-06	2.3496e-06	285.68	83.264	64.835	19.253	2.5751e-06	26.752	182.237	-43.157	-69.008	-142.690	-40.148	18.509	-142.695	-135.571	-21.084	11.691	-135.521	-129.195	-128.642	-121.041	-2.625	-121.591	-8191	255	
2488.036	1	1	0	0	0.2079	0.10761	0.19035	0.2453	0.076007	0.13596	0.10229	0.19031	0.19236	0.1164	0.24106	0.17047	0.18509	0.048519	0.1004	0.10724	-1.8062	-2.9354	-2.6208	-2.5833	-3.0625	-2.2979	-2.9042	-2.9125	-2.2479	-3.0979	-2.5021	-2.2667	-3.2479	-2.3542	-2.5604	-3.1458	143.663	-61.085	127.440	203.223	-92.982	-143.972	154.121	115.157	76.149	100.818	170.760	195.503	190.036	153.546	144.545	129.429	0.00024494	0.00036598	7.8233e-05	1128.2	2.4518e-06	3.3264e-06	1222.4	225.06	2.7734e-06	3.5287e-06	286.28	82.01	64.503	19.024	2.3356e-06	26.316	0.00024797	0.00023158	6.6317e-05	1109	2.6101e-06	2.6154e-06	1214	224.37	2.7375e-06	2.5543e-06	284.94	83.387	64.943	19.275	2.5156e-06	26.782	176.970	-59.127	-60.405	-142.623	-46.380	0.491	-142.461	-135.658	-31.873	4.364	-135.527	-128.912	-128.593	-121.542	-31.326	-121.466	-8191	255	
2488.157	1	1	0	0	0.22541	0.12831	0.11203	0.14252	0.26181	0.093616	0.11318	0.060499	0.2052	0.11275	0.10693	0.33349	0.23129	0.090082	0.20905	0.061162	-1.8937	-3.0729	-2.7062	-2.3104	-3.1167	-2.35	-2.7542	-3.2208	-2.2292	-2.8271	-2.825	-2.3563	-3.1375	-2.5125	-2.5375	-3.2083	101.487	106.796	-48.674	134.621	-133.447	53.795	68.538	108.315	-97.607	204.827	81.506	-135.622	164.381	-41.114	-73.948	-77.591	0.00024577	0.00025238	7.4928e-05	1122.6	2.0974e-06	3.9255e-06	1224.1	225.02	2.6411e-06	2.4549e-06	285.77	82.483	63.973	19.017	2.2549e-06	26.236	0.000261	0.00023542	6.0286e-05	1108.4	2.6778e-06	2.3945e-06	1214.2	224.38	2.8065e-06	2.3939e-06	284.88	83.542	64.755	19.287	2.4142e-06	26.777	175.722	-66.596	-67.645	-142.455	-25.496	-3.301	-142.793	-135.115	-21.737	-32.622	-135.386	-129.131	-128.496	-120.991	-28.124	-121.662	-8191	255	
2488.251	1	1	0	0	0.051051	0.34295	0.30285	0.28753	0.1206	0.019227	0.22401	0.13394	0.18963	0.16389	0.11167	0.1864	0.13257	0.088906	0.08728	0.016572	-1.75	-2.9313	-2.8063	-2.3229	-3.0771	-2.5271	-2.6479	-3.2583	-2.1167	-2.6667	-2.9146	-2.2729	-2.9938	-2.6458	-2.3292	-3.1542	-21.520	47.491	-150.999	185.443	113.627	28.072	118.064	187.005	-30.523	-66.265	159.700	92.552	138.845	-50.131	177.053	17.556	0.00024202	0.00031143	0.00010585	1125.4	1.6422e-06	1.9878e-06	1226.5	226.43	2.2978e-06	2.2967e-06	285.86	82.144	64.205	18.858	2.363e-06	26.318	0.00025883	0.00022538	6.2651e-05	1109.9	2.6226e-06	2.6136e-06	1213.1	224.88	2.7612e-06	2.4656e-06	285.59	83.22	64.872	19.201	2.5465e-06	26.778	174.311	-63.849	-68.213	-142.362	-29.192	-5.428	-142.722	-135.341	-60.228	6.085	-135.445	-129.153	-128.333	-120.930	-13.079	-121.022	-8191	255	
2488.349	1	1	0	0	0.093618	0.11203	0.18714	0.19642	0.16516	0.26581	0.41114	0.16103	0.10446	0.14057	0.055923	0.1489	0.17587	0.042706	0.18931	0.16625	-2.1208	-2.7604	-2.9021	-2.4021	-3.0083	-2.6833	-2.4875	-3.0792	-2.3292	-2.6854	-3.2042	-2.2792	-3.0708	-2.8104	-2.2083	-3.1833	114.359	-128.092	-149.275	-69.070	21.698	-12.336	184.792	-103.383	-55.338	151.911	42.673	-147.975	-104.723	-30.667	201.657	129.135	0.00026316	0.00025424	9.0795e-05	1122.4	2.1032e-06	3.3246e-06	1229.4	225.64	2.506e-06	2.3803e-06	285.52	82.661	65.055	19.007	2.6981e-06	26.4	0.00025303	0.00022442	5.4905e-05	1108	2.6044e-06	2.3597e-06	1215.1	224.1	2.7138e-06	2.5422e-06	285.38	83.257	65.036	19.209	2.6199e-06	26.824	178.274	-45.860	-65.576	-142.416	-22.430	-7.975	-142.278	-135.285	-57.096	9.328	-134.929	-129.399	-128.495	-120.896	-21.241	-121.417	-8191	255	
2488.468	1	1	0	0	0.040778	0.033365	0.27187	0.14358	0.14291	0.24272	0.28874	0.12961	0.056221	0.18813	0.19035	0.16049	0.11659	0.10947	0.19751	0.071817	-2.0104	-2.5708	-2.9813	-2.3542	-2.9208	-2.7104	-2.2687	-3.1896	-2.4667	-2.5187	-3.0792	-2.3229	-2.9	-3.0042	-2.1937	-3.0938	183.276	-37.982	15.823	-29.216	-40.840	-53.885	163.488	-132.677	181.748	87.085	186.402	-141.960	60.915	181.253	189.198	199.300	0.00025229	0.00032947	5.2921e-05	1121.8	1.477e-06	1.4684e-06	1222.3	224.63	2.3238e-06	2.2472e-06	286.4	81.786	64.729	19.063	2.0341e-06	26.263	0.0002516	0.00021375	5.6915e-05	1108.3	2.6002e-06	2.3369e-06	1212	224.33	2.5753e-06	2.4109e-06	285.17	83.158	65.103	19.236	2.542e-06	26.735	184.448	-54.024	-38.092	-142.077	-46.244	-10.880	-142.231	-135.028	-46.075	-29.150	-135.133	-128.969	-128.105	-120.599	3.041	-121.594	-8191	255	
2488.564	1	1	0	0	0.21918	0.091345	0.091853	0.12756	0.045144	0.12918	0.23161	0.27787	0.0080729	0.090078	0.058754	0.069438	0.14623	0.1239	0.1996	0.061682	-2.5021	-2.4708	-3.1271	-2.2146	-2.7771	-2.8854	-2.2771	-3.0417	-2.4896	-2.3167	-2.9896	-2.4813	-2.8083	-2.9813	-2.15	-2.9688	110.915	-8.548	-119.750	128.518	-17.005	34.413	85.957	197.288	36.187	-117.511	203.517	-90.822	8.420	-131.083	-8.553	147.890	0.00023646	0.00019502	7.8159e-05	1117.4	1.6009e-06	3.2387e-06	1221.5	225.24	3.4165e-06	2.2246e-06	287.48	82.459	64.652	19.047	2.1194e-06	26.327	0.00025181	0.00021764	5.489e-05	1105.5	2.7106e-06	2.23e-06	1213	224.39	2.747e-06	2.493e-06	285.42	83.277	64.999	19.264	2.5762e-06	26.762	182.458	-64.948	-67.977	-142.577	-53.469	18.439	-142.290	-135.009	-50.239	6.433	-135.783	-129.619	-128.709	-121.373	-18.298	-121.560	-8191	255	
2488.660	1	1	0	0	0.24894	0.15058	0.077694	0.22027	0.10404	0.037005	0.21448	0.19988	0.096549	0.18636	0.087386	0.37473	0.095027	0.045323	0.1389	0.10197	-2.3333	-2.4313	-3.1208	-2.3417	-2.6667	-2.8667	-2.3021	-2.9437	-2.6917	-2.2271	-3.1813	-2.4458	-2.3771	-3.0521	-2.1937	-3.1271	37.692	-48.620	-123.859	-135.616	-82.324	55.588	112.692	-139.481	145.153	69.598	105.843	180.204	171.600	-58.990	170.036	-118.387	0.00024102	0.00030883	8.7393e-05	1116	2.6466e-06	4.423e-06	1221.7	225.98	2.8096e-06	1.027e-06	286.58	83.035	65.046	18.86	2.5849e-06	26.126	0.00024155	0.00023072	5.866e-05	1105.8	2.7205e-06	2.5266e-06	1211	224.54	2.6306e-06	2.4261e-06	286.09	83.305	65.09	19.227	2.7848e-06	26.793	180.805	-62.649	-58.543	-142.774	-38.457	4.965	-142.910	-135.528	-43.806	27.710	-135.804	-129.311	-128.669	-120.841	-37.427	-121.689	-8191	255	
2488.732	1	1	0	0	0.11635	0.052559	0.24109	0.13874	0.069691	0.12841	0.35453	0.14037	0.23155	0.16685	0.062459	0.20209	0.15494	0.066173	0.077417	0.32432	-2.4833	-2.2375	-2.9958	-2.475	-2.4917	-3.0917	-2.1271	-2.8417	-2.9208	-2.2438	-3.0875	-2.5312	-2.3521	-3.0271	-2.1083	-2.9062	65.610	185.579	-81.515	114.135	187.794	168.631	78.704	138.982	34.648	72.397	168.783	140.119	168.160	42.223	45.855	145.587	0.00025947	0.00026715	6.5184e-05	1121.8	2.0323e-06	2.7937e-06	1223	225.6	2.48e-06	3.2513e-06	285.55	82.495	64.623	19.014	1.614e-06	26.376	0.00025181	0.00023296	6.1439e-05	1107.1	2.8064e-06	2.3825e-06	1214.2	224.44	2.5742e-06	2.5258e-06	285.51	83.333	65.047	19.258	2.5308e-06	26.755	177.874	-54.444	-48.339	-142.652	-39.403	-10.981	-142.875	-135.495	-46.599	-3.416	-135.540	-129.537	-128.514	-121.255	-20.963	-121.254	-8191	255	
2488.852	1	1	0	0	0.074044	0.20561	0.15989	0.26132	0.062931	0.13033	0.24346	0.36122	0.38414	0.1009	0.045899	0.11292	0.087405	0.13136	0.18154	0.16789	-2.6937	-2.0958	-2.8438	-2.6104	-2.3333	-3.1125	-2.4083	-2.8187	-2.9375	-2.05	-2.9021	-2.55	-2.2458	-3.075	-2.2208	-2.7188	161.418	-58.718	74.703	177.808	88.364	69.365	-80.514	203.497	200.006	87.741	-147.625	104.098	179.241	142.454	161.608	186.463	0.00025725	0.00020539	6.868e-05	1116.3	1.8924e-06	2.9639e-06	1218.3	224.86	3.0291e-06	2.8322e-06	285.96	83.3	64.617	19.051	1.9591e-06	26.191	0.00024084	0.00022378	5.9147e-05	1105.3	2.7569e-06	2.3153e-06	1212	224.19	2.5295e-06	2.5166e-06	285.05	83.484	65.2	19.287	2.6199e-06	26.837	179.411	-77.920	-67.365	-142.839	-34.829	13.936	-142.751	-135.501	-52.757	6.163	-135.484	-129.591	-128.372	-120.580	13.207	-121.744	-8191	255	
2488.948	1	1	0	0	0.13784	0.18765	0.31962	0.26333	0.11989	0.1198	0.359	0.18292	0.19462	0.16428	0.25374	0.10363	0.399	0.29711	0.20689	0.23541	-2.7146	-2.1688	-2.8125	-2.7104	-2.2896	-3.0479	-2.7771	-2.7	-2.9979	-2.2167	-3.0208	-2.7625	-2.2729	-3.1104	-2.4771	-2.5104	-88.373	-1.038	191.091	164.772	-127.459	17.105	59.341	-139.957	-97.894	193.835	180.199	38.924	-105.332	182.655	-34.448	107.737	0.00025281	0.00022684	7.2933e-05	1120.5	2.4249e-06	2.6642e-06	1222.2	225.62	2.1642e-06	2.9389e-06	285.25	82.442	64.333	19.151	2.5486e-06	26.127	0.00023971	0.00023926	5.4949e-05	1107	2.8183e-06	2.2739e-06	1212.2	224.26	2.5032e-06	2.5063e-06	285.48	83.26	64.884	19.361	2.3441e-06	26.76	180.704	-67.584	-50.049	-142.586	-16.833	26.358	-142.746	-135.357	-74.349	45.903	-135.469	-129.184	-128.270	-120.315	-6.788	-121.298	-8191	255	
2489.045	1	1	0	0	0.097439	0.20632	0.15331	0.2129	0.18988	0.14667	0.3307	0.073026	0.17785	0.34397	0.22097	0.061269	0.30019	0.19716	0.1692	0.22142	-2.7958	-2.2458	-2.8104	-3.0542	-2.2667	-3.1021	-2.6229	-2.3604	-3.1417	-2.1479	-2.6979	-2.85	-2.2417	-2.9125	-2.4458	-2.4375	59.667	-78.235	20.668	-28.835	-54.705	112.247	129.331	143.173	31.406	-151.041	-61.071	128.339	195.332	168.889	146.065	-108.311	0.00027181	0.00021048	5.8527e-05	1119.5	2.9236e-06	2.3201e-06	1221.8	225.86	1.9359e-06	2.6601e-06	286.35	82.93	64.824	19.061	2.3203e-06	26.341	0.00024345	0.00023419	5.9532e-05	1105.4	2.7866e-06	2.3027e-06	1212.5	224.52	2.4621e-06	2.5762e-06	285.32	83.385	65.166	19.343	2.5207e-06	26.832	175.881	-81.533	-41.805	-142.848	-37.363	5.483	-142.610	-135.497	-54.032	7.387	-135.159	-129.695	-128.766	-120.633	-20.447	-121.457	-8191	255	
2489.141	1	1	0	0	0.19816	0.09908	0.12255	0.041407	0.3006	0.048959	0.30834	0.17039	0.11546	0.32297	0.22157	0.31738	0.18495	0.14579	0.21896	0.073547	-2.75	-2.225	-2.7062	-3.1479	-2.0542	-2.7729	-2.7958	-2.2667	-3.0792	-2.3812	-2.6188	-3.0125	-2.1021	-2.8792	-2.6063	-2.2292	-49.148	121.649	142.046	-83.268	-74.119	-17.971	166.911	67.373	47.875	3.434	186.060	162.907	-4.126	167.549	29.197	-19.904	0.00025061	0.00023289	8.7522e-05	1120.8	1.3057e-06	2.6608e-06	1220.4	225.75	3.2982e-06	2.8419e-06	288.39	82.451	65.309	19.065	1.9248e-06	26.258	0.00023319	0.00023489	6.237e-05	1106.5	2.8876e-06	2.3207e-06	1211.4	224.54	2.5548e-06	2.2846e-06	285.96	83.445	65.071	19.287	2.3447e-06	26.82	180.353	-67.695	-55.264	-142.322	-75.725	-4.947	-142.793	-135.274	-42.493	4.682	-135.167	-128.966	-128.592	-120.334	-26.588	-120.997	-8191	255	
2489.260	1	1	0	0	0.065087	0.17915	0.22087	0.19479	0.16326	0.089717	0.11525	0.084109	0.053751	0.16564	0.27018	0.23445	0.19045	0.28528	0.12606	0.092415	-2.8063	-2.375	-2.5604	-3.15	-2.2687	-2.8458	-2.9646	-2.3271	-3.0271	-2.5271	-2.4437	-3.1771	-2.2271	-2.8438	-2.8729	-2.2062	92.299	-150.945	51.309	-115.711	-21.602	-5.135	-98.701	14.194	108.868	119.550	127.561	115.750	-96.992	-106.484	118.554	-145.061	0.00024055	0.00024823	6.6644e-05	1118.3	2.0708e-06	3.0517e-06	1218.4	224.65	3.4097e-06	2.804e-06	286.06	83.043	64.666	19.256	1.5685e-06	26.398	0.00024491	0.00024135	5.7285e-05	1105.8	2.9047e-06	2.2402e-06	1210.5	224.27	2.5458e-06	2.4419e-06	285.63	83.541	64.955	19.337	2.4209e-06	26.86	177.729	-68.522	-71.571	-142.468	-38.438	7.864	-142.490	-135.061	-25.386	4.321	-135.202	-129.260	-128.388	-120.574	-19.089	-121.638	-8191	255	
2489.331	1	1	0	0	0.18656	0.060572	0.17726	0.059925	0.062609	0.22728	0.2783	0.21838	0.15797	0.11094	0.057436	0.21851	0.10581	0.056383	0.05231	0.14734	-2.5917	-2.6104	-2.3354	-3.2208	-2.3563	-2.8521	-3.025	-2.125	-2.9854	-2.5187	-2.3917	-3.1417	-2.2854	-2.5687	-2.8979	-2.3083	-78.104	155.417	-3.374	4.024	45.114	-114.223	183.320	-35.689	-31.461	64.409	-125.638	201.748	-5.331	-101.397	-147.689	51.115	0.00024039	0.00024235	6.6041e-05	1123.9	1.714e-06	2.2178e-06	1222.3	225.3	3.1631e-06	1.7608e-06	286.03	82.653	64.594	19.106	1.8918e-06	26.296	0.00023878	0.00023531	6.1291e-05	1107.1	2.8287e-06	2.2252e-06	1211	224.13	2.5068e-06	2.3909e-06	285.31	83.449	64.92	19.325	2.3789e-06	26.82	177.515	-78.551	-70.313	-142.659	-12.540	5.078	-142.716	-135.582	-18.820	-11.686	-135.410	-129.269	-128.816	-120.708	-23.390	-120.934	-8191	255	
2489.429	1	1	0	0	0.019585	0.15787	0.33876	0.11396	0.11437	0.21218	0.29315	0.099746	0.1172	0.077205	0.14708	0.23022	0.23805	0.31152	0.20471	0.17843	-2.5604	-2.6042	-2.1479	-2.9979	-2.1229	-2.5938	-2.9771	-2.2167	-2.8708	-2.6937	-2.4313	-3.1021	-2.425	-2.5563	-2.9437	-2.0958	125.362	206.331	21.781	179.375	-41.475	8.785	159.694	142.479	6.019	-34.576	54.762	-141.578	24.522	142.848	17.909	160.074	0.00023223	0.000262	9.0328e-05	1118.3	2.2527e-06	3.8891e-06	1220.2	225.17	2.3868e-06	2.8107e-06	286.05	83.141	63.99	18.968	1.8074e-06	26.02	0.00024176	0.00022608	6.3316e-05	1105.4	2.7533e-06	2.1778e-06	1210.2	223.94	2.6132e-06	2.3727e-06	285.2	83.195	64.765	19.27	2.3783e-06	26.706	176.914	-81.243	-53.176	-142.758	-12.341	-7.474	-142.648	-135.358	-34.519	5.910	-135.268	-129.244	-128.745	-121.452	-18.450	-121.983	-8191	255	
2489.548	1	1	0	0	0.22497	0.20343	0.23896	0.039763	0.12131	0.31504	0.38844	0.10871	0.29422	0.20695	0.1468	0.030367	0.027041	0.21499	0.16255	0.090241	-2.5667	-2.8667	-2.1667	-3.1646	-2.4	-2.4375	-3.2562	-2.0938	-2.7562	-2.6667	-2.1208	-2.8729	-2.3667	-2.1542	-2.9875	-2.1854	204.717	7.121	38.258	160.467	70.366	170.440	116.478	-124.250	-47.395	112.998	-44.407	70.532	-46.081	-35.069	-150.290	-145.213	0.00023363	0.00023717	7.003e-05	1113.7	1.6903e-06	2.9605e-06	1212.9	225.27	3.1084e-06	3.2062e-06	285.23	82.41	64.49	19.165	2.6838e-06	26.105	0.00023721	0.0002019	6.6096e-05	1104.6	2.873e-06	2.5668e-06	1209.6	224.2	2.6195e-06	2.3545e-06	285.41	83.267	64.829	19.321	2.4377e-06	26.717	171.578	-88.698	-62.285	-142.606	-3.235	-1.013	-142.932	-135.538	-55.441	8.198	-135.695	-129.002	-128.489	-121.004	-25.676	-121.559	-8191	255	
2489.644	1	1	0	0	0.13449	0.25619	0.064407	0.14365	0.15131	0.22708	0.17679	0.34373	0.12243	0.058333	0.23751	0.33067	0.11156	0.091151	0.088904	0.12146	-2.4271	-2.7521	-2.1104	-3.1229	-2.6292	-2.3187	-3.1	-2.2979	-2.5792	-2.9333	-2.1792	-2.8	-2.6063	-2.1625	-3.05	-2.2771	124.900	11.402	192.874	186.669	8.462	64.446	123.181	178.778	32.847	-47.975	-115.660	158.498	-108.116	-136.559	10.308	43.110	0.00026057	0.00038982	5.647e-05	1117.8	2.8644e-06	1.5101e-06	1215.6	225.01	2.9949e-06	2.5743e-06	285.02	82.509	64.491	18.986	2.484e-06	26.154	0.000253	0.00021156	6.9023e-05	1105	2.684e-06	2.5374e-06	1207.6	224.63	2.6712e-06	2.2366e-06	284.93	83.373	64.953	19.209	2.44e-06	26.764	179.905	-68.023	-75.834	-142.433	-11.667	15.942	-142.964	-135.286	-41.951	-22.865	-135.387	-129.188	-128.794	-121.386	-5.152	-121.334	-8191	255	
2489.740	1	1	0	0	0.090467	0.28163	0.17643	0.056885	0.13785	0.11029	0.14922	0.29665	0.17735	0.32945	0.33505	0.21935	0.11828	0.091181	0.24197	0.041317	-2.2833	-2.9479	-2.0771	-2.9917	-2.725	-2.0167	-3.0458	-2.3104	-2.3792	-2.8896	-2.2062	-2.9125	-2.9833	-2.3625	-3.075	-2.6271	-77.034	33.048	53.331	52.879	111.414	97.663	130.564	196.521	33.556	43.347	-153.225	153.757	-80.265	-75.103	125.001	48.472	0.00023833	0.00021517	9.5349e-05	1116.8	1.851e-06	3.0915e-06	1215.3	223.98	2.302e-06	2.5876e-06	284.53	82.744	64.033	19.032	2.6607e-06	26.191	0.0002469	0.00020318	6.8032e-05	1105.2	2.6601e-06	2.5878e-06	1209.2	223.72	2.7738e-06	2.3538e-06	284.43	83.431	64.649	19.264	2.5319e-06	26.718	181.827	-54.748	-42.438	-142.517	-38.324	-11.354	-142.507	-135.337	-32.910	2.558	-135.295	-128.970	-128.220	-120.686	-19.306	-121.333	-8191	255	
2489.837	1	1	0	0	0.37759	0.46926	0.080704	0.097654	0.24976	0.16181	0.30014	0.18946	0.1407	0.17902	0.33295	0.069161	0.26184	0.082603	0.1042	0.042988	-2.0812	-2.8604	-2.0271	-3	-2.7667	-2.1958	-3.1312	-2.3937	-2.2646	-3.2417	-2.3042	-2.7917	-2.9917	-2.2646	-3.0479	-2.5646	154.198	141.199	-23.042	-138.214	27.611	-64.221	137.082	143.979	86.279	167.024	205.297	-123.300	171.974	156.738	204.314	-5.702	0.00025777	0.00023863	6.6041e-05	1114.9	2.0041e-06	2.3731e-06	1215.6	223.79	2.4899e-06	2.2022e-06	284.89	82.692	64.395	18.908	2.1148e-06	26.281	0.00025294	0.00021006	6.0995e-05	1104.3	2.8053e-06	2.6424e-06	1208.2	223.57	2.6522e-06	2.134e-06	285.57	83.284	64.742	19.209	2.4097e-06	26.756	176.172	-74.212	-46.552	-142.619	-42.037	16.591	-142.520	-135.450	-56.013	-20.593	-135.603	-128.986	-128.613	-120.510	-30.732	-121.588	-8191	255	
2489.933	1	1	0	0	0.17213	0.15816	0.094739	0.12044	0.32715	0.16994	0.25036	0.4025	0.32259	0.035148	0.062332	0.33456	0.20577	0.20177	0.061208	0.21448	-1.8563	-2.9896	-2.1021	-2.8271	-2.9813	-2.25	-3.0687	-2.7833	-2.1104	-3.2104	-2.4062	-2.6229	-2.9979	-2.0479	-2.8542	-2.8292	-20.009	-67.187	-111.849	177.759	51.056	-74.447	140.839	157.600	-88.016	-113.600	68.098	-151.227	96.859	39.739	96.573	123.443	0.00026288	0.00019834	4.5922e-05	1118.1	1.8281e-06	2.45e-06	1216.4	225.21	3.0446e-06	2.7348e-06	284.68	82.076	63.788	18.875	3.0183e-06	25.944	0.00025336	0.0002233	6.4957e-05	1104.8	2.6903e-06	2.6238e-06	1209.7	224.01	2.717e-06	2.27e-06	284.98	83.153	64.695	19.243	2.5308e-06	26.671	176.832	-43.651	-33.672	-142.532	-29.724	2.301	-142.427	-135.145	-56.717	3.949	-135.271	-129.122	-128.784	-120.903	9.721	-121.479	-8191	255	
2490.029	1	1	0	0	0.056291	0.16549	0.21457	0.50767	0.14578	0.15808	0.16986	0.046468	0.21366	0.19181	0.12012	0.16821	0.22928	0.2066	0.35425	0.38831	-2.2062	-3.0146	-2.3417	-2.5042	-2.9667	-2.1729	-3.0229	-2.7396	-2.2146	-3.05	-2.3896	-2.3563	-3.0375	-2.1792	-2.5938	-2.7188	191.796	78.768	179.398	173.187	176.118	35.518	165.631	-7.767	168.160	166.903	-74.617	-84.325	16.981	122.535	196.682	144.365	0.00023154	0.00033086	8.2217e-05	1112.5	2.8904e-06	2.072e-06	1213.1	223.53	2.2022e-06	4.0499e-06	284.74	82.297	63.786	18.827	2.4971e-06	26.181	0.0002552	0.00021524	6.1217e-05	1101.8	2.8792e-06	2.5692e-06	1208.5	223.36	2.6891e-06	2.3976e-06	284.76	83.203	64.598	19.204	2.4786e-06	26.707	183.712	-66.285	-43.841	-142.312	-38.605	-21.229	-143.018	-135.520	-42.063	8.119	-135.719	-129.312	-128.799	-120.469	-25.851	-121.515	-8191	255	
2490.149	1	1	0	0	0.24264	0.11795	0.29283	0.30474	0.10679	0.047986	0.16694	0.17052	0.36434	0.31025	0.23766	0.22004	0.035087	0.013765	0.10373	0.06719	-1.6562	-3.1104	-2.4667	-2.5667	-3.0521	-2.1396	-3.0208	-2.8646	-2.1979	-3.0083	-2.5812	-2.4021	-3.2354	-2.4188	-2.4938	-2.9729	99.086	-64.885	194.959	157.202	-33.368	37.808	195.289	-95.182	56.509	-121.086	160.859	173.791	179.086	200.405	14.151	88.915	0.00025746	0.00029369	9.1311e-05	1112.9	2.412e-06	2.5936e-06	1213.6	225.68	2.6552e-06	1.9471e-06	282	81.85	64.16	18.983	2.1641e-06	26.116	0.00026076	0.00021428	6.135e-05	1103.8	2.6179e-06	2.5314e-06	1206.3	224.26	2.7465e-06	2.349e-06	283.8	83.123	64.759	19.211	2.5067e-06	26.705	171.787	-77.971	-63.173	-142.256	-15.441	19.743	-142.140	-135.069	-29.599	-4.157	-135.923	-129.227	-128.993	-121.123	6.882	-121.735	-8191	255	
2490.246	1	1	0	0	0.11618	0.13123	0.25537	0.18638	0.11751	0.22072	0.082738	0.19798	0.467	0.14757	0.12257	0.18167	0.10797	0.10725	0.052378	0.26331	-1.675	-2.9854	-2.7	-2.4083	-3.0187	-2.3479	-2.6667	-3.0708	-2.1229	-2.9625	-2.75	-2.2104	-3.1146	-2.3458	-2.3563	-3.075	76.096	-60.042	193.070	136.990	-105.896	202.269	6.685	-47.396	161.519	111.114	-125.737	-123.121	-67.055	90.760	-96.059	-127.073	0.00023918	0.00033161	9.9158e-05	1115.4	2.4242e-06	3.8e-06	1211.3	223.29	3.3276e-06	3.0807e-06	283.95	82.215	63.797	18.928	2.8633e-06	25.939	0.00024788	0.00023232	6.1483e-05	1102.2	2.7095e-06	2.7529e-06	1207.7	223.4	2.8697e-06	2.4936e-06	284.44	83.062	64.491	19.218	2.4601e-06	26.654	174.635	-73.566	-63.499	-142.349	-34.338	-4.312	-142.360	-135.048	-38.016	25.274	-134.944	-129.107	-128.146	-120.356	-5.627	-122.144	-8191	255	
2490.340	1	1	0	0	0.35446	0.18995	0.18783	0.066557	0.088854	0.23177	0.14244	0.23911	0.092632	0.18476	0.078407	0.055223	0.17478	0.053131	0.10944	0.18337	-1.7708	-2.6667	-2.8354	-2.15	-2.9938	-2.3708	-2.4646	-3.1188	-2.3021	-2.9188	-2.9958	-2.2812	-3.1229	-2.3104	-2.2375	-3.1875	-127.361	-47.449	194.902	-71.890	-23.636	118.680	205.322	-121.017	-41.711	-35.303	127.158	173.968	167.161	2.804	80.522	-85.963	0.00026075	0.0002539	7.239e-05	1107.9	2.2484e-06	3.4593e-06	1213.8	222.38	3.108e-06	2.0561e-06	286.58	82.249	64.53	18.877	1.0372e-06	25.967	0.0002604	0.00022896	6.5016e-05	1099.9	2.7579e-06	2.4449e-06	1205.9	223.47	2.8028e-06	2.5379e-06	285.47	83.273	64.835	19.242	2.5498e-06	26.721	178.702	-57.671	-61.010	-142.924	-34.858	-12.301	-142.840	-135.713	-49.127	-1.078	-135.844	-129.551	-129.017	-121.610	-30.449	-121.830	-8191	255	
2490.436	1	1	0	0	0.11112	0.046932	0.10593	0.1434	0.11386	0.16158	0.042885	0.076723	0.11833	0.22101	0.19692	0.17986	0.1189	0.016492	0.049561	0.090345	-1.7833	-2.7438	-2.8937	-2.3229	-3.0563	-2.7729	-2.3979	-3.0333	-2.2271	-2.6604	-2.9396	-1.9917	-2.7854	-2.6292	-2.1167	-3.0396	54.539	49.368	39.948	-149.750	176.180	-118.957	119.427	204.721	-140.388	181.717	12.021	166.121	-145.986	-145.971	49.018	-13.406	0.00026338	0.00034785	8.2735e-05	1109.8	2.3524e-06	3.2817e-06	1214.4	224.09	2.3533e-06	2.8771e-06	283.94	82.808	64.577	18.908	2.3537e-06	26.252	0.00026611	0.00021892	6.2607e-05	1100.3	2.6793e-06	2.3951e-06	1206.2	223.42	2.7854e-06	2.4067e-06	284.49	83.363	64.806	19.217	2.5947e-06	26.705	180.956	-62.819	-54.825	-142.847	-38.267	17.629	-142.905	-135.338	-67.462	28.462	-135.816	-129.550	-128.957	-121.795	-0.803	-121.867	-8191	255	
2490.557	1	1	0	0	0.38734	0.1946	0.056163	0.22769	0.15946	0.13753	0.15518	0.16264	0.17787	0.30152	0.17276	0.056225	0.14685	0.28757	0.30991	0.0159	-2.0458	-2.4458	-2.8208	-2.2208	-2.7646	-2.7292	-2.6042	-3.2271	-2.35	-2.4	-3.1229	-2.2271	-2.7313	-2.8646	-1.9188	-3.1	133.636	-101.475	-84.523	175.411	118.866	-66.005	124.344	149.022	-72.079	-96.623	-77.600	78.982	47.458	167.900	39.422	76.169	0.00026964	0.00026844	5.1381e-05	1108.6	1.2637e-06	2.7776e-06	1204.2	223.54	3.1854e-06	3.4739e-06	285.35	81.984	63.74	18.79	2.6222e-06	26.156	0.00026275	0.00023355	5.9e-05	1099.9	2.7855e-06	2.3897e-06	1202.9	223.19	2.7696e-06	2.6776e-06	284.84	83.113	64.619	19.155	2.5655e-06	26.723	183.359	-78.855	-77.293	-142.947	-1.491	-2.351	-143.060	-135.834	-55.859	-4.306	-135.768	-129.839	-129.129	-121.149	-0.836	-122.179	-8191	255	
2490.628	1	1	0	0	0.094811	0.25951	0.16502	0.13379	0.13247	0.11543	0.19948	0.23767	0.31737	0.10829	0.26473	0.14009	0.28079	0.15413	0.19	0.20114	-1.8875	-2.3563	-2.9896	-2.2458	-2.8375	-2.8667	-2.3646	-3.1896	-2.375	-2.1792	-3.2458	-2.3438	-2.7542	-2.9125	-2.2604	-3.1146	9.575	146.220	103.719	163.152	-110.497	31.007	120.630	196.070	-119.293	-93.867	188.003	-91.453	-151.316	164.472	128.536	-95.534	0.00024656	0.00029878	8.2575e-05	1108.3	2.4618e-06	3.7798e-06	1207.4	222.56	2.3994e-06	3.1229e-06	283.29	81.759	64.14	18.942	1.8679e-06	26.13	0.00025776	0.00024572	6.2193e-05	1098.9	2.7933e-06	2.3753e-06	1204.7	223.66	2.7138e-06	2.5324e-06	284.31	83.018	64.761	19.223	2.6317e-06	26.71	179.615	-65.713	-59.986	-143.142	-19.035	6.170	-143.102	-135.885	-27.842	3.444	-136.244	-129.823	-129.208	-121.643	-23.227	-122.014	-8191	255	
2490.725	1	1	0	0	0.094898	0.11941	0.17461	0.35142	0.10312	0.014854	0.17979	0.26386	0.06535	0.29408	0.18511	0.32689	0.11784	0.23077	0.2615	0.20238	-2.1083	-2.3333	-3.1979	-2.4083	-2.6083	-2.9542	-2.3396	-3.0792	-2.675	-2.2562	-3.1521	-2.2438	-2.675	-3.0708	-2.1063	-3.0812	-80.446	-14.647	194.000	185.276	193.510	89.586	95.143	131.761	-22.207	5.062	114.627	180.225	136.767	46.361	82.409	115.956	0.00024578	0.00027958	8.9772e-05	1110	2.0918e-06	2.5541e-06	1212.5	223.66	3.0101e-06	2.8627e-06	282.02	81.608	64.122	18.844	1.1786e-06	25.994	0.00024446	0.000239	5.9e-05	1101.6	2.6861e-06	2.3759e-06	1204.1	223.73	2.6332e-06	2.5318e-06	284.17	82.883	64.835	19.22	2.6216e-06	26.737	178.915	-75.142	-60.035	-143.082	-26.990	-6.034	-143.287	-135.552	-38.196	10.689	-135.748	-129.439	-128.737	-121.599	-39.605	-122.055	-8191	255	
2490.821	1	1	0	0	0.12262	0.21013	0.25962	0.21518	0.077656	0.14205	0.12117	0.15804	0.10846	0.062485	0.083193	0.16759	0.22645	0.090454	0.1127	0.17778	-2.15	-2.1604	-3.0812	-2.4813	-2.5479	-3.0062	-2.3396	-2.9354	-2.7229	-2.2208	-3.1646	-2.5417	-2.3958	-3.0896	-2.2479	-2.6833	-68.680	89.806	100.153	110.034	151.427	141.167	68.984	154.791	-8.126	23.156	0.763	-143.534	-128.789	7.070	89.284	174.200	0.00023767	0.00033282	9.5134e-05	1107	1.873e-06	3.2498e-06	1211.6	222.74	2.4274e-06	3.1425e-06	283.81	82.08	64.123	18.837	2.559e-06	26.163	0.00024292	0.0002351	6.104e-05	1100.6	2.8824e-06	2.5482e-06	1207.7	223.48	2.7112e-06	2.8872e-06	284.76	83.034	64.78	19.175	2.6895e-06	26.699	175.806	-70.064	-50.896	-142.801	-31.283	2.115	-142.845	-135.672	-31.196	-9.051	-136.141	-129.511	-128.455	-121.233	-23.788	-121.788	-8191	255	
2490.941	1	1	0	0	0.17805	0.16741	0.21596	0.37795	0.16768	0.23146	0.51312	0.25944	0.097097	0.11827	0.030243	0.25093	0.073396	0.18809	0.2253	0.19631	-2.4938	-2.0833	-2.8958	-2.5708	-2.4625	-2.9917	-2.4479	-2.6583	-2.7917	-2.0771	-2.9188	-2.6667	-2.3563	-2.9854	-2.4104	-2.5083	130.947	99.537	14.401	122.757	-71.793	186.283	172.404	159.355	80.115	124.777	-8.038	176.080	-90.224	60.001	24.110	194.006	0.0002346	0.00024403	0.00010215	1110.7	1.2709e-06	2.5349e-06	1208.7	223.19	2.697e-06	3.0611e-06	283.23	81.726	63.6	18.721	2.476e-06	26.094	0.00024678	0.0002454	6.2828e-05	1102.8	2.9448e-06	2.5164e-06	1207	223.96	2.6891e-06	2.6442e-06	284.68	83.133	64.68	19.211	2.6508e-06	26.746	182.269	-80.366	-40.694	-143.047	-16.872	-35.676	-143.197	-135.533	-48.105	-5.451	-135.768	-129.890	-128.904	-121.256	-13.752	-122.040	-8191	255	
2491.038	1	1	0	0	0.16215	0.23699	0.13082	0.26878	0.08967	0.099068	0.16651	0.074328	0.24658	0.041014	0.35686	0.20491	0.21639	0.15599	0.40214	0.22948	-2.375	-2.1312	-2.925	-2.7125	-2.3125	-2.9979	-2.4437	-2.5854	-2.9125	-2.0646	-3.0417	-2.9313	-2.2167	-3.0333	-2.5083	-2.5396	202.144	70.001	-15.457	151.040	-71.296	-40.807	186.351	-152.076	98.261	136.285	60.683	-109.652	-51.117	54.642	185.865	179.589	0.00024176	0.00022822	5.4525e-05	1107.9	2.0445e-06	2.9898e-06	1212.2	223.53	2.5476e-06	3.2429e-06	284.56	82.268	64.363	18.849	2.069e-06	26.042	0.00025086	0.000243	5.8527e-05	1101.8	2.9552e-06	2.4882e-06	1209.9	223.73	2.5816e-06	2.7955e-06	284.84	83.129	64.873	19.221	2.5229e-06	26.792	179.492	-65.660	-54.696	-143.249	-38.961	19.746	-143.124	-135.599	-48.004	-22.796	-135.718	-129.504	-128.575	-121.276	-32.780	-121.715	-8191	255	
2491.132	1	1	0	0	0.12133	0.20057	0.13341	0.020262	0.15246	0.16264	0.20642	0.11735	0.19206	0.15883	0.29947	0.31725	0.17133	0.060956	0.085223	0.36889	-2.7229	-2.1063	-2.9167	-3.0458	-2.2687	-3.0458	-2.5854	-2.5604	-3.0667	-2.4354	-2.9833	-2.9146	-2.3146	-3	-2.6771	-2.4021	-87.028	114.280	-106.991	-0.355	37.564	41.809	62.138	89.704	-120.937	177.024	157.609	85.674	-36.199	-134.054	-146.503	144.754	0.00025371	0.00026085	8.3837e-05	1104.4	2.8741e-06	2.9394e-06	1211.2	223.78	2.3561e-06	2.7956e-06	284.68	81.714	64.062	18.87	1.4116e-06	26.145	0.00024324	0.00024935	5.9694e-05	1102.2	3.0229e-06	2.4131e-06	1206.5	223.78	2.6159e-06	2.6873e-06	285.93	83.1	64.704	19.243	2.5426e-06	26.777	179.603	-49.499	-46.056	-142.826	-16.660	13.351	-143.007	-135.425	-57.359	-8.144	-135.550	-129.639	-128.753	-121.457	15.961	-121.913	-8191	255	
2491.230	1	1	0	0	0.35714	0.20693	0.22322	0.12895	0.11437	0.28879	0.21023	0.11261	0.28418	0.090949	0.21669	0.17688	0.12141	0.20935	0.10769	0.14909	-2.7812	-2.0438	-2.8375	-3.1021	-2.2396	-2.9104	-2.7479	-2.5958	-3.0042	-2.3229	-2.6937	-2.9396	-2.1896	-2.9729	-2.6917	-2.2792	-138.763	-84.129	-125.482	36.468	-14.737	119.078	138.596	-149.435	26.326	122.810	202.584	100.993	105.453	-120.130	170.115	129.945	0.00027253	0.00026793	7.9438e-05	1108.5	2.2958e-06	4.2569e-06	1210.5	223.48	2.3354e-06	3.6228e-06	283.7	82.302	64.103	18.958	2.7091e-06	26.007	0.0002505	0.00023008	6.0389e-05	1100.9	2.847e-06	2.5608e-06	1206.5	223.59	2.6548e-06	2.6254e-06	284.96	83.369	64.835	19.243	2.5398e-06	26.611	179.654	-64.838	-57.953	-142.949	-27.221	-6.023	-143.169	-135.810	-39.632	-9.869	-135.394	-129.885	-129.069	-120.919	-3.042	-121.973	-8191	255	
2491.326	1	1	0	0	0.045468	0.31471	0.077195	0.24642	0.27673	0.10843	0.21343	0.15402	0.22352	0.27411	0.082685	0.13391	0.10477	0.28043	0.2056	0.1194	-2.6	-2.2646	-2.3646	-3.2375	-2.2	-2.8042	-2.7646	-2.4167	-3	-2.2917	-2.4854	-3.1104	-2.1292	-2.8312	-2.7854	-2.0542	142.608	9.037	55.220	-143.455	-0.729	181.753	60.459	-117.964	-101.746	15.847	80.363	89.940	190.188	175.624	-14.091	126.063	0.0002363	0.00024656	7.6665e-05	1105.9	2.1918e-06	3.5737e-06	1207.9	223.64	2.1053e-06	3.7794e-06	282.2	81.716	63.831	18.9	3.3318e-06	26.168	0.00024194	0.00023515	6.4602e-05	1103.3	2.9589e-06	2.5644e-06	1205.8	223.86	2.4758e-06	2.4978e-06	284.63	83.25	64.662	19.254	2.422e-06	26.764	176.898	-74.336	-56.308	-142.857	-21.921	-19.089	-143.208	-135.986	-14.065	-7.111	-136.092	-129.623	-128.850	-121.447	-21.432	-121.608	-8191	255	
2491.420	1	1	0	0	0.21104	0.14639	0.087307	0.10927	0.28248	0.19717	0.058928	0.058513	0.13944	0.098984	0.20056	0.093395	0.23795	0.14468	0.15265	0.11179	-2.8146	-2.4188	-2.4271	-3.2854	-2.3187	-2.8021	-3.025	-2.1854	-3.05	-2.4375	-2.5271	-3.1229	-2.4417	-2.5646	-2.7938	-2.1292	195.206	104.307	134.144	77.842	127.900	78.939	-121.990	157.734	66.512	35.572	140.167	149.331	147.618	-47.418	138.024	164.401	0.00026341	0.00029908	6.2683e-05	1107.4	2.0961e-06	2.6593e-06	1210.6	221.5	1.2417e-06	2.8284e-06	283.16	81.396	64.326	18.925	1.9914e-06	25.97	0.00024895	0.00021487	5.8601e-05	1101.1	2.8053e-06	2.0938e-06	1208	222.99	2.4968e-06	2.3259e-06	285.09	83.085	64.788	19.232	2.1366e-06	26.745	181.271	-39.653	-63.123	-143.129	-39.789	-13.886	-143.053	-135.627	-64.529	-0.577	-135.907	-129.861	-129.039	-121.328	-51.998	-121.915	-8191	255	
2491.517	1	1	0	0	0.15633	0.26084	0.16373	0.12015	0.30581	0.096304	0.069559	0.24262	0.015903	0.038623	0.21147	0.12042	0.2038	0.025208	0.24464	0.15602	-2.5417	-2.55	-2.3063	-3.1312	-2.2979	-2.5375	-3.1229	-2.1521	-2.9292	-2.5771	-2.4375	-3.1854	-2.3146	-2.7521	-2.8125	-2.1167	43.818	93.391	-107.370	-123.127	-42.833	118.055	164.533	51.875	122.148	-89.543	-37.794	78.575	155.429	104.639	72.474	-129.053	0.00024163	0.00020711	8.3772e-05	1102.3	1.7414e-06	1.8042e-06	1209.6	224.83	2.9111e-06	2.7561e-06	284.41	82.168	64.521	18.862	2.2833e-06	25.895	0.00024631	0.00021417	6.5903e-05	1101.1	2.7647e-06	2.4485e-06	1207.1	224.36	2.5716e-06	2.3277e-06	284.85	83.13	64.908	19.254	2.3379e-06	26.662	178.974	-41.688	-64.875	-143.085	-46.285	15.883	-143.358	-135.650	-39.679	-9.457	-135.787	-129.228	-129.056	-121.400	-0.498	-122.169	-8191	255	
2491.637	1	1	0	0	0.20865	0.025825	0.10328	0.16201	0.26354	0.23416	0.28186	0.1476	0.25179	0.094538	0.21995	0.15341	0.10102	0.14483	0.042548	0.17584	-2.5583	-2.7479	-2.0708	-3.3042	-2.1646	-2.2479	-3.2938	-2.5979	-2.8708	-2.8375	-2.3042	-3.1021	-2.5312	-2.5625	-3.05	-2.4396	-98.871	18.667	28.479	-152.399	108.706	169.821	28.402	-118.048	-33.073	197.503	-98.455	172.628	129.457	-131.205	-8.623	-116.090	0.00024925	0.00030753	4.8298e-05	1110	2.3432e-06	3.3851e-06	1210	223.06	2.0393e-06	3.0225e-06	284.46	82.194	64.276	18.95	2.2268e-06	26.296	0.00024482	0.00022667	6.3257e-05	1102	2.7814e-06	2.2805e-06	1204.2	223.68	2.6111e-06	2.2554e-06	284.34	83.224	64.809	19.253	2.3245e-06	26.769	178.263	-71.265	-44.593	-142.817	-17.037	-2.058	-143.017	-135.356	-54.356	-20.751	-135.590	-129.533	-128.890	-121.181	-22.413	-121.854	-8191	255	
2491.733	1	1	0	0	0.19687	0.28119	0.080751	0.25189	0.31019	0.18346	0.23172	0.22067	0.17195	0.11741	0.28199	0.21029	0.20851	0.18919	0.10213	0.19775	-2.5479	-2.8167	-2.1688	-3.3333	-2.4792	-2.3729	-3.35	-2.2542	-2.7938	-2.9813	-2.2687	-3.1417	-2.6833	-2.4042	-2.95	-2.2646	-59.276	89.391	16.639	156.085	169.168	-129.568	149.588	-29.721	205.970	41.032	-70.782	123.411	166.945	192.582	-69.457	146.121	0.00023414	0.00022253	7.4695e-05	1115.2	1.5067e-06	3.2445e-06	1215.7	224.58	1.6831e-06	1.9464e-06	284.93	82.482	64.316	19.028	2.1142e-06	26.289	0.00024298	0.00021161	6.3494e-05	1103.9	2.7751e-06	2.5638e-06	1207.4	223.78	2.6496e-06	2.3739e-06	285.1	83.174	64.711	19.325	2.3396e-06	26.698	177.670	-53.356	-62.818	-142.673	1.893	4.722	-142.912	-135.814	-43.671	22.588	-135.574	-129.747	-128.787	-121.265	-28.228	-121.846	-8191	255	
2491.829	1	1	0	0	0.088856	0.21214	0.24371	0.096226	0.042522	0.13087	0.29515	0.39259	0.20221	0.025754	0.045446	0.35627	0.082797	0.080217	0.27735	0.18562	-2.1833	-3.0479	-2.3917	-3.0729	-2.8125	-2.0729	-3.2917	-2.2958	-2.5417	-2.9396	-2.225	-2.975	-2.8187	-2.1875	-3.0396	-2.5438	51.768	-144.930	85.297	-23.167	180.916	-112.455	137.255	190.520	124.070	-23.353	77.889	119.030	135.545	-55.866	-84.464	-104.736	0.00022718	0.00033495	7.6452e-05	1115.6	2.6328e-06	4.3658e-06	1215.5	224.15	2.226e-06	2.3553e-06	285.5	82.888	64.512	18.937	2.2173e-06	26.362	0.00023944	0.00021802	6.7308e-05	1104.8	2.6799e-06	2.5542e-06	1209.1	223.8	2.6248e-06	2.2949e-06	284.65	83.425	64.992	19.264	2.4377e-06	26.707	176.231	-61.337	-57.497	-142.802	-28.554	-0.380	-142.941	-135.565	-33.012	10.964	-135.644	-129.616	-129.020	-120.941	25.181	-121.556	-8191	255	
2491.926	1	1	0	0	0.11862	0.19147	0.19797	0.044269	0.083121	0.19247	0.14633	0.23137	0.0052462	0.064596	0.039876	0.09531	0.21889	0.15824	0.15665	0.33119	-2.2188	-2.9896	-2.2458	-3.0062	-2.6771	-2.4208	-3.1542	-2.4583	-2.4542	-3.0917	-2.2667	-2.5938	-2.9875	-2.2812	-2.9979	-2.65	-89.474	-24.204	175.267	164.361	4.341	33.418	169.286	111.610	62.704	-114.757	-7.458	126.525	-131.798	160.885	117.799	-22.032	0.00024782	0.00033175	9.358e-05	1118.3	1.7825e-06	2.8182e-06	1219.7	224.78	2.8376e-06	3.2569e-06	287.3	82.002	64.506	19.056	1.818e-06	26.373	0.00025469	0.00021316	6.5135e-05	1103.7	2.6101e-06	2.5524e-06	1208.4	223.72	2.7422e-06	2.3168e-06	285.47	83.206	64.877	19.252	2.5241e-06	26.767	178.631	-64.395	-54.984	-142.691	-23.373	-31.105	-142.881	-135.659	-59.967	-11.536	-135.716	-129.580	-129.083	-121.451	-9.762	-121.924	-8191	255	
2492.022	1	1	0	0	0.29371	0.13236	0.1868	0.21518	0.12399	0.36084	0.037246	0.24982	0.11178	0.088796	0.04517	0.14518	0.28645	0.060029	0.13497	0.086385	-1.8083	-3.1042	-2.1979	-2.7771	-2.8688	-2.1958	-3.1667	-2.7	-2.3708	-3.1604	-2.3792	-2.6229	-3.0917	-2.1354	-3.05	-2.825	79.665	119.047	25.559	150.955	18.591	-140.848	-148.144	201.179	41.056	58.871	153.769	-21.225	125.069	107.327	47.031	-89.305	0.00025042	0.00029229	6.9379e-05	1121.5	2.4736e-06	2.4967e-06	1213.3	225.18	3.0269e-06	2.82e-06	286.58	82.327	64.284	19.001	1.9722e-06	26.308	0.00024762	0.00019474	6.1114e-05	1104.7	2.5804e-06	2.4479e-06	1206.9	223.98	2.5895e-06	2.3374e-06	284.94	83.122	64.723	19.262	2.4198e-06	26.726	182.142	-62.242	-65.710	-142.642	-18.925	10.138	-142.834	-135.726	-45.238	-15.544	-135.745	-129.259	-128.819	-121.271	-29.365	-121.533	-8191	255	
2492.118	1	1	0	0	0.17475	0.11136	0.21867	0.19013	0.24493	0.16866	0.078744	0.14656	0.1716	0.10683	0.16438	0.10763	0.24642	0.080061	0.28839	0.031326	-1.9083	-3.05	-2.2875	-2.7417	-2.875	-2.2667	-3.0938	-2.6896	-2.2396	-3.1729	-2.4313	-2.5125	-3.0438	-2.2604	-2.7458	-2.9771	-12.312	-24.828	180.837	-109.968	78.159	53.417	-116.643	201.569	203.055	-77.023	-2.005	148.718	31.118	12.935	126.040	204.486	0.00024808	0.00026695	9.2928e-05	1112.1	2.4409e-06	3.1974e-06	1215	224.5	2.4625e-06	2.4559e-06	286.39	83.194	64.621	18.989	2.0156e-06	26.004	0.00025044	0.00020868	6.3361e-05	1102.8	2.5851e-06	2.3807e-06	1208.7	223.98	2.6822e-06	2.386e-06	284.8	83.489	64.908	19.22	2.2987e-06	26.593	181.203	-76.509	-66.381	-142.662	-23.372	7.158	-143.096	-135.371	-38.933	-4.557	-135.713	-129.591	-129.017	-120.938	-11.536	-121.865	-8191	255	
2492.237	1	1	0	0	0.10926	0.07799	0.14991	0.10887	0.14436	0.10141	0.086429	0.10221	0.16584	0.26273	0.021424	0.16471	0.23032	0.3207	0.0671	0.055356	-1.8687	-3.0708	-2.3833	-2.6063	-3.2104	-2.3229	-2.7896	-2.9042	-2.2125	-3.0771	-2.6417	-2.5292	-3.1708	-2.3417	-2.6896	-2.9604	-147.805	23.565	-67.079	41.439	44.380	192.015	131.653	199.189	144.369	-59.469	-64.903	-103.625	191.563	-12.121	30.600	-7.397	0.00024753	0.00024833	8.6687e-05	1112.8	2.4612e-06	2.8992e-06	1218.4	223.71	2.5066e-06	3.1137e-06	285.1	82.908	64.512	19.068	2.2479e-06	26.19	0.00024381	0.00021791	5.7847e-05	1101.9	2.6845e-06	2.5938e-06	1207.3	223.49	2.6827e-06	2.3198e-06	285.33	83.376	64.816	19.241	2.5207e-06	26.66	180.201	-98.203	-59.461	-142.820	-42.142	1.782	-142.812	-135.872	-36.129	-4.578	-135.418	-129.110	-128.814	-121.164	-22.861	-121.619	-8191	255	
2492.333	1	1	0	0	0.30759	0.10002	0.04252	0.15921	0.069072	0.14406	0.21341	0.31403	0.26053	0.13614	0.065878	0.1448	0.087665	0.044695	0.079392	0.1839	-1.8188	-2.9833	-2.5812	-2.5354	-3.15	-2.4417	-2.6479	-3.0146	-2.1437	-3.0938	-2.775	-2.3083	-3.1792	-2.1208	-2.4708	-3.0667	52.185	-104.552	72.697	125.056	36.660	-126.060	121.462	174.063	168.510	-48.728	-87.867	159.526	-84.404	156.666	-86.966	-111.426	0.00023398	0.00030778	8.3585e-05	1121.7	1.3493e-06	2.7927e-06	1216.7	223.81	2.4069e-06	2.129e-06	285.24	82.425	64.609	18.965	2.4225e-06	26.41	0.00026216	0.00021321	5.7802e-05	1104.2	2.6273e-06	2.4149e-06	1208.6	223.87	2.688e-06	2.3903e-06	285.21	83.357	64.987	19.233	2.5706e-06	26.729	180.472	-67.433	-71.283	-142.681	-21.464	8.520	-142.778	-135.784	-35.248	35.704	-135.889	-129.078	-128.691	-121.063	-40.021	-121.988	-8191	255	
2492.429	1	1	0	0	0.19993	0.40909	0.061313	0.08541	0.13953	0.24062	0.081384	0.10722	0.060497	0.13018	0.21328	0.034712	0.10416	0.20188	0.26329	0.12035	-1.8521	-3	-2.8271	-2.3083	-3.0708	-2.4062	-2.7104	-3.2604	-2.2542	-2.9833	-2.9604	-2.2625	-3.1437	-2.5792	-2.5042	-3.0104	184.264	203.340	-112.323	-134.546	75.239	15.066	111.288	162.072	165.774	-93.550	181.954	173.518	157.515	174.532	67.207	-82.493	0.00026178	0.00036398	7.3068e-05	1117.1	1.8725e-06	2.1982e-06	1221.3	223.99	2.8015e-06	3.6444e-06	285.52	82.802	64.637	19.155	1.5742e-06	26.162	0.00025874	0.00021855	5.8793e-05	1104.4	2.6002e-06	2.4455e-06	1209.1	223.65	2.6464e-06	2.3897e-06	284.83	83.5	65.025	19.303	2.5084e-06	26.767	179.617	-52.766	-39.399	-142.621	-39.714	9.685	-142.832	-135.477	-42.535	12.134	-135.812	-129.228	-128.625	-121.110	-13.146	-121.600	-8191	255	
2492.501	1	1	0	0	0.27458	0.32348	0.17917	0.2694	0.15004	0.072473	0.32017	0.26511	0.22284	0.30181	0.29712	0.055694	0.054218	0.059187	0.0058869	0.20977	-1.9396	-2.7562	-2.8937	-2.3104	-3.1375	-2.6146	-2.675	-3.1312	-2.2646	-2.7875	-3.0625	-2.2417	-2.9583	-2.6688	-2.375	-3.1417	27.379	-135.668	154.308	-106.531	-133.406	-67.594	145.953	200.749	-45.958	136.388	141.396	133.361	100.998	-70.994	-153.282	180.414	0.000248	0.00022208	5.9337e-05	1116.7	2.0245e-06	3.8778e-06	1214.5	224.74	1.7251e-06	2.4732e-06	285.66	82.007	64.377	19.179	2.3301e-06	26.205	0.00025294	0.00020574	5.3619e-05	1102.8	2.6268e-06	2.2949e-06	1208.4	223.99	2.5948e-06	2.4219e-06	284.91	83.15	64.824	19.315	2.4893e-06	26.705	178.242	-46.836	-51.267	-142.725	-30.808	11.440	-142.605	-135.526	-63.756	9.017	-135.796	-129.346	-128.563	-121.003	-12.678	-121.956	-8191	255	
2492.621	1	1	0	0	0.047495	0.16881	0.41508	0.14646	0.20244	0.15085	0.27183	0.30853	0.22513	0.15605	0.12372	0.016071	0.26491	0.11765	0.071089	0.057915	-1.9688	-2.7313	-3.0083	-2.325	-2.8063	-2.6979	-2.3229	-3.0583	-2.2979	-2.7	-3.1354	-2.2604	-2.9229	-2.6875	-2.2354	-3.1333	82.231	-94.994	121.031	-67.308	-113.654	26.975	167.570	153.078	118.149	-98.157	-140.365	-87.355	153.563	17.716	-126.657	58.925	0.00025625	0.00023678	9.7694e-05	1116.5	2.2639e-06	3.599e-06	1218.6	224.8	3.4915e-06	3.3679e-06	285.11	82.4	63.975	19.048	2.8411e-06	26.131	0.00024976	0.00023126	5.965e-05	1103.3	2.7543e-06	2.3615e-06	1209.3	223.91	2.836e-06	2.4723e-06	285.02	83.276	64.792	19.26	2.6239e-06	26.643	180.653	-73.504	-79.200	-142.724	-44.119	-2.426	-142.717	-135.480	-28.384	-1.400	-135.695	-129.391	-128.723	-121.485	-10.741	-121.298	-8191	255	
2492.718	1	1	0	0	0.14044	0.10477	0.24436	0.30483	0.13731	0.067647	0.19837	0.1589	0.15232	0.19629	0.23896	0.2171	0.11918	0.31363	0.18426	0.32319	-2.0917	-2.2687	-3.1021	-2.3604	-2.8438	-2.7021	-2.4667	-3.0979	-2.6167	-2.5354	-3.1562	-2.3625	-2.7479	-3	-2.2229	-3.0229	-126.926	-151.894	179.397	-112.768	35.044	46.245	27.992	85.550	180.381	174.536	192.133	175.082	170.508	188.570	-100.236	-125.652	0.00026584	0.00043201	0.00010651	1117.6	2.3129e-06	2.78e-06	1211.7	224.6	3.6634e-06	2.503e-06	285.79	82.425	64.783	19.025	1.7611e-06	26.192	0.00024919	0.00022453	5.761e-05	1101.9	2.5549e-06	2.3219e-06	1205.6	223.81	2.6043e-06	2.2931e-06	285.55	83.122	64.87	19.235	2.5028e-06	26.732	178.082	-58.267	-54.361	-142.774	-61.357	-19.035	-142.837	-135.259	-38.882	15.208	-135.372	-129.838	-129.000	-121.310	-9.090	-121.576	-8191	255	
2492.814	1	1	0	0	0.25053	0.08181	0.19237	0.35854	0.16195	0.12458	0.32831	0.16661	0.16714	0.29582	0.087379	0.19968	0.12366	0.06161	0.10839	0.031093	-2.2562	-2.4542	-3.2042	-2.5625	-2.8063	-2.9771	-2.275	-3.0729	-2.7188	-2.3354	-3.1896	-2.3667	-2.6792	-2.9625	-2.2687	-3.0917	-124.388	-151.181	-29.297	167.603	-27.462	136.354	140.173	43.372	-53.668	-122.425	9.431	-151.224	108.352	-141.412	189.231	65.712	0.00026324	0.00019424	7.8923e-05	1118.4	1.2942e-06	2.7924e-06	1217	225.2	1.9199e-06	2.6591e-06	286.33	82.253	64.569	19.011	2.4248e-06	26.138	0.000258	0.00021492	5.6013e-05	1102.4	2.7007e-06	2.3177e-06	1206.1	224.04	2.6517e-06	2.4717e-06	285.06	83.168	64.898	19.247	2.403e-06	26.641	178.215	-62.486	-57.319	-142.705	-53.325	14.659	-142.831	-135.408	-8.547	24.881	-135.846	-129.290	-128.507	-121.258	-10.384	-121.676	-8191	255	
2492.910	1	1	0	0	0.1316	0.13668	0.058992	0.2955	0.25624	0.061487	0.26188	0.13967	0.19535	0.27239	0.1072	0.41277	0.12948	0.15339	0.24703	0.15145	-2.3521	-2.1625	-3.1604	-2.6188	-2.5167	-3.025	-2.4167	-3.0062	-2.8396	-2.2938	-3.2479	-2.375	-2.5958	-3.0604	-2.0417	-2.9375	-84.588	-128.072	134.019	98.258	200.782	-0.023	132.100	67.791	50.041	-35.320	96.287	124.017	-113.772	-23.448	77.668	161.527	0.00022753	0.00029487	6.7871e-05	1114.1	2.3114e-06	2.2038e-06	1218.2	224.78	2.7075e-06	2.7014e-06	284.93	82.196	64.674	19.006	2.411e-06	26.112	0.00024339	0.00022538	5.418e-05	1100.9	2.7756e-06	2.224e-06	1207.4	223.65	2.6353e-06	2.5251e-06	285.3	82.943	64.721	19.285	2.6177e-06	26.746	174.355	-42.221	-63.751	-142.712	-35.468	-3.923	-142.868	-135.443	-29.072	-2.340	-135.553	-129.786	-128.500	-121.291	-2.378	-121.766	-8191	255	
2493.030	1	1	0	0	0.099958	0.042446	0.10068	0.32392	0.11182	0.18465	0.41359	0.10844	0.032447	0.068477	0.12534	0.15452	0.20013	0.074858	0.23824	0.11339	-2.4604	-2.1958	-3.1562	-2.6729	-2.5771	-2.9875	-2.5354	-2.8229	-2.8208	-2.1375	-3.1167	-2.6604	-2.4229	-3.1292	-2.4	-2.7729	-97.276	-65.521	35.372	140.092	-6.483	11.478	179.294	124.363	-85.677	-64.442	89.933	102.794	127.339	122.934	-81.670	-100.802	0.00022126	0.00030821	8.4037e-05	1119.6	2.1464e-06	1.9981e-06	1221.3	224.82	3.5992e-06	3.2109e-06	284.92	82.271	64.182	19.089	2.212e-06	26.177	0.00023634	0.00023211	5.625e-05	1102.2	2.6819e-06	2.2e-06	1206	223.77	2.5542e-06	2.5367e-06	285.03	83.022	64.691	19.259	2.5409e-06	26.649	179.234	-45.529	-62.810	-142.760	-24.067	14.678	-142.796	-135.559	-52.158	-1.891	-135.692	-129.312	-128.546	-121.154	-33.863	-121.512	-8191	255	
2493.102	1	1	0	0	0.18481	0.1314	0.038377	0.46124	0.093028	0.11762	0.13212	0.24985	0.15727	0.26342	0.1277	0.22066	0.19593	0.10292	0.29663	0.19843	-2.5917	-1.9479	-2.8312	-2.7687	-2.3063	-3.35	-2.6542	-2.6104	-2.9062	-2.15	-2.9938	-2.6937	-2.4313	-3.2229	-2.375	-2.6854	-149.558	3.701	-47.965	140.784	51.473	69.929	153.591	-148.306	192.177	134.240	147.501	87.419	49.394	12.968	-145.868	55.793	0.00025565	0.00039282	6.7324e-05	1110.1	2.2238e-06	3.2072e-06	1220.7	224.52	2.4355e-06	2.0073e-06	285.64	82.621	64.34	18.915	2.6456e-06	26.419	0.00025196	0.00025934	5.8039e-05	1101	2.7918e-06	2.3597e-06	1208.5	223.2	2.619e-06	2.5507e-06	284.94	83.169	64.643	19.228	2.667e-06	26.787	179.316	-69.578	-72.145	-142.545	-58.835	-2.878	-142.867	-135.554	-43.469	20.795	-135.460	-129.532	-128.394	-121.164	-11.408	-121.908	-8191	255	
2493.198	1	1	0	0	0.076398	0.13253	0.17801	0.2398	0.27723	0.041413	0.29028	0.099527	0.089917	0.13804	0.14387	0.12071	0.13717	0.098689	0.18097	0.17852	-2.8312	-2.3	-2.8271	-3.1	-2.2917	-3.2687	-2.6229	-2.4771	-3.1813	-2.1437	-2.875	-3.0187	-2.4208	-3.1292	-2.6063	-2.5271	135.530	-143.758	-113.412	-135.867	64.238	192.826	190.936	173.259	190.830	-96.994	153.880	-144.470	-125.424	63.223	-130.226	141.142	0.00025715	0.0002528	5.117e-05	1117.2	1.5711e-06	3.5426e-06	1215.6	224.43	2.4724e-06	3.7041e-06	286.37	82.748	64.469	18.858	3.0978e-06	26.343	0.00024393	0.00022763	6.1158e-05	1102.4	2.9329e-06	2.2498e-06	1205	223.61	2.5026e-06	2.5707e-06	285.44	83.367	64.983	19.226	2.5661e-06	26.674	177.184	-59.292	-82.546	-142.823	-32.786	20.922	-143.068	-135.706	-33.603	23.819	-135.782	-129.435	-129.091	-120.875	-16.650	-121.653	-8191	255	
2493.317	1	1	0	0	0.28865	0.014492	0.16613	0.11254	0.084976	0.17836	0.21072	0.11274	0.23018	0.25089	0.25283	0.10622	0.023583	0.30364	0.15453	0.27314	-2.6417	-2.0354	-2.7083	-3.0354	-2.1875	-3.1292	-2.625	-2.575	-3.0146	-2.1583	-2.6833	-3.0708	-2.325	-2.9208	-2.7083	-2.4417	-143.658	17.085	-85.649	-149.145	-26.868	19.573	33.038	139.793	144.353	-77.062	186.356	-22.199	-2.074	158.559	146.791	85.592	0.00024924	0.00029981	7.2883e-05	1113.5	1.2645e-06	3.2478e-06	1213.5	222.95	2.644e-06	2.7089e-06	285.36	82.149	64.211	18.828	2.1419e-06	26.211	0.00023623	0.00024225	5.6531e-05	1100.2	2.7397e-06	2.3321e-06	1207	223.32	2.5458e-06	2.5671e-06	285.01	82.984	64.652	19.19	2.4316e-06	26.715	176.470	-77.796	-17.836	-142.978	-48.107	6.514	-142.836	-135.450	-48.856	2.109	-135.624	-129.197	-128.557	-121.388	-10.660	-121.702	-8191	255	
2493.413	1	1	0	0	0.25407	0.21913	0.13185	0.291	0.16094	0.041304	0.20121	0.083834	0.099359	0.18576	0.2237	0.27423	0.19403	0.32762	0.073335	0.12003	-2.75	-2.3708	-2.55	-3.2104	-2.1417	-3.0708	-2.8917	-2.1562	-3.2792	-2.4396	-2.6396	-3.1542	-2.2417	-2.7562	-2.6792	-2.5271	-88.480	-47.792	62.066	195.760	-100.405	7.871	121.641	145.957	135.999	154.096	170.155	125.396	-20.368	165.886	50.856	194.151	0.0002501	0.0003297	6.3215e-05	1120	1.0267e-06	3.3416e-06	1213.7	224.69	2.52e-06	3.2737e-06	285.21	82.041	64.278	18.976	2.325e-06	26.323	0.00023852	0.00024818	6.1247e-05	1102.9	2.8527e-06	2.592e-06	1206.8	223.58	2.5179e-06	2.482e-06	284.75	83.052	64.725	19.271	2.3015e-06	26.778	176.192	-60.915	-45.359	-142.836	-43.721	1.739	-142.949	-135.455	-36.275	-3.217	-135.668	-129.330	-128.982	-120.923	-19.301	-121.258	-8191	255	
2493.509	1	1	0	0	0.11033	0.061366	0.095892	0.069192	0.25084	0.10674	0.17384	0.27118	0.04876	0.23454	0.28589	0.18371	0.10015	0.060025	0.19983	0.074426	-2.7458	-2.3354	-2.4458	-3.3375	-2.275	-2.75	-2.9792	-2.3187	-3.0271	-2.5708	-2.6937	-3.2604	-2.2812	-2.825	-2.9396	-2.2708	-111.340	124.506	157.668	-57.656	-125.066	-3.916	-84.534	-66.063	-140.700	189.099	156.637	-33.062	-40.116	183.198	-35.540	48.603	0.00023667	0.00031138	6.3137e-05	1117.7	1.8497e-06	3.2864e-06	1213.6	224.33	2.3645e-06	2.5397e-06	284.51	82.509	64.653	19.053	1.0154e-06	26.24	0.0002439	0.0002257	6.3715e-05	1103.1	2.8418e-06	2.3963e-06	1207.1	223.8	2.5527e-06	2.434e-06	284.7	83.227	64.835	19.254	2.3609e-06	26.72	177.624	-67.491	-62.515	-142.835	-31.396	9.554	-142.742	-135.601	-41.406	6.885	-135.383	-129.358	-128.765	-120.937	-41.892	-121.979	-8191	255	
2493.630	1	1	0	0	0.17459	0.094856	0.25149	0.22669	0.38872	0.17389	0.074959	0.1858	0.12268	0.29967	0.2839	0.16131	0.15017	0.064193	0.13788	0.13273	-2.65	-2.5042	-2.3396	-3.2896	-2.4167	-2.7083	-3.0771	-2.225	-2.8875	-2.4458	-2.5938	-3.0062	-2.3896	-2.7812	-3.0542	-2.2229	-27.467	-56.179	-149.092	140.216	-146.080	6.492	98.870	190.341	-9.100	-72.864	-145.195	158.878	119.997	162.195	-151.109	7.091	0.00027491	0.00023655	8.9662e-05	1115	1.9841e-06	1.791e-06	1215.8	224.43	2.0003e-06	3.3212e-06	285.25	81.891	64.706	18.993	2.9658e-06	26.155	0.00024607	0.00021711	6.6169e-05	1103.1	2.8949e-06	2.3837e-06	1205.3	223.43	2.4821e-06	2.3265e-06	284.94	83.169	64.941	19.266	2.4747e-06	26.708	178.229	-69.630	-79.050	-142.551	-28.666	2.701	-142.642	-135.615	-31.343	-4.087	-135.614	-129.522	-128.788	-120.986	-22.361	-121.630	-8191	255	
2493.726	1	1	0	0	0.13477	0.32366	0.098591	0.12258	0.060789	0.2263	0.27671	0.10179	0.22798	0.069575	0.21965	0.079703	0.071435	0.1706	0.13558	0.18873	-2.6437	-2.8167	-2.3083	-3.1479	-2.4104	-2.6542	-3.2646	-2.2208	-2.9208	-3.0625	-2.3021	-3.0625	-2.5	-2.5021	-3.1437	-2.1312	-101.864	140.951	103.901	199.085	185.198	-124.542	153.006	177.944	8.207	53.335	-141.548	134.287	0.329	188.736	67.919	201.014	0.00023739	0.00025822	7.1127e-05	1114.5	2.9468e-06	2.3384e-06	1214	224.68	2.7463e-06	3.1558e-06	284.37	82.643	64.6	18.908	3.035e-06	26.257	0.00024699	0.00022362	6.1173e-05	1103.1	2.8246e-06	2.2594e-06	1206	224.11	2.6195e-06	2.3739e-06	284.27	83.302	64.813	19.231	2.436e-06	26.703	176.685	-53.410	-70.399	-142.553	-12.309	-8.519	-142.642	-135.304	-47.285	-1.630	-135.529	-129.150	-128.677	-120.923	-17.294	-121.906	-8191	255	
2493.798	1	1	0	0	0.10333	0.24858	0.076851	0.13635	0.12783	0.42135	0.23092	0.023369	0.14865	0.18773	0.23373	0.18267	0.20808	0.19246	0.18003	0.31506	-2.4938	-2.8	-2.0542	-3.2292	-2.6042	-2.5125	-3.3104	-2.225	-2.725	-2.9479	-2.4646	-3.0958	-2.5458	-2.5187	-3.0896	-2.5104	-116.810	22.806	14.373	161.574	73.998	-37.393	122.946	25.315	-56.130	64.020	-86.946	-59.905	-63.621	200.685	-67.706	161.938	0.00023341	0.00027447	5.4879e-05	1113.8	2.557e-06	2.002e-06	1219.4	225.05	3.1688e-06	3.1781e-06	284.98	82.836	64.684	18.988	3.2323e-06	26.441	0.00024595	0.00021455	6.2562e-05	1101.9	2.6341e-06	2.3891e-06	1208	223.91	2.6611e-06	2.2366e-06	285.02	83.435	64.834	19.198	2.2247e-06	26.781	179.549	-57.748	-77.940	-142.536	-0.308	8.013	-143.050	-135.859	-40.172	7.981	-135.252	-129.341	-128.414	-120.963	-24.231	-122.119	-8191	255	
2493.894	1	1	0	0	0.21252	0.11561	0.22299	0.29572	0.085624	0.4497	0.27053	0.078816	0.03641	0.17215	0.18516	0.093719	0.23885	0.13666	0.045677	0.20576	-2.2646	-2.8167	-2.2208	-3.0396	-2.7438	-2.3417	-3.4167	-2.525	-2.5917	-2.8688	-2.2125	-3.0229	-2.8167	-2.2812	-3.1521	-2.4938	-58.828	167.320	12.887	148.463	58.602	-1.768	99.788	127.181	-62.074	180.163	-32.357	78.193	188.886	142.287	-9.160	-7.040	0.0002612	0.00035276	7.5888e-05	1115.3	2.4481e-06	2.3667e-06	1215.2	223.9	2.3724e-06	2.4653e-06	286.96	82.801	64.615	18.97	2.8536e-06	26.275	0.00024205	0.00022544	6.3863e-05	1102.8	2.5633e-06	2.4431e-06	1207.9	223.55	2.52e-06	2.171e-06	285.3	83.603	64.796	19.271	2.3088e-06	26.705	179.475	-69.498	-45.827	-142.597	-18.529	10.024	-142.587	-135.483	-66.340	2.598	-135.584	-129.272	-128.731	-120.987	-11.024	-121.521	-8191	255	
2494.015	1	1	0	0	0.044799	0.10411	0.23791	0.18106	0.090001	0.23895	0.25569	0.20123	0.23973	0.16912	0.16925	0.11249	0.10561	0.19432	0.27549	0.10527	-2.3271	-3.0229	-2.2167	-2.9896	-2.6854	-2.1583	-3.3146	-2.5729	-2.45	-3.0792	-2.3417	-2.8312	-2.8875	-2.1958	-3.1271	-2.4062	-45.593	-71.529	-49.755	150.282	123.149	105.493	160.317	191.069	-29.003	153.009	108.470	75.167	-153.023	36.734	-104.778	12.599	0.00023136	0.00037113	6.1826e-05	1111.2	2.1335e-06	2.8268e-06	1212.5	224.26	2.0624e-06	2.0552e-06	286.25	81.896	64.6	18.908	2.1044e-06	26.215	0.00023976	0.00021748	6.2222e-05	1102	2.5669e-06	2.3897e-06	1206	223.48	2.5737e-06	2.1212e-06	285.07	83.082	64.916	19.29	2.4349e-06	26.724	175.440	-67.629	-71.207	-142.457	-62.367	2.280	-142.863	-135.677	-54.789	12.726	-135.386	-129.128	-128.548	-121.249	-34.375	-121.687	-8191	255	
2494.111	1	1	0	0	0.050369	0.16697	0.055162	0.21523	0.082114	0.057192	0.26238	0.10438	0.16342	0.086474	0.25455	0.20819	0.18047	0.08109	0.042934	0.076004	-2.125	-3.0187	-2.2188	-2.9292	-2.9792	-2.1167	-3.1896	-2.4188	-2.3292	-3.1	-2.4521	-2.65	-2.9688	-2.1958	-3.1417	-2.8021	93.978	132.500	124.689	-88.246	9.093	38.468	119.857	75.736	184.347	124.946	-128.409	55.434	168.807	112.659	112.440	-139.537	0.0002314	0.0002137	5.5059e-05	1116.7	1.9764e-06	2.3979e-06	1220.2	224.68	1.5388e-06	2.9579e-06	285.27	82.32	64.342	19.094	2.8267e-06	26.455	0.00024363	0.00019266	6.0419e-05	1102.5	2.5627e-06	2.5152e-06	1207.6	223.75	2.4826e-06	2.3295e-06	284.85	83.274	64.675	19.263	2.3912e-06	26.782	178.061	-67.807	-46.362	-142.499	-49.042	9.913	-142.546	-135.707	-43.810	-17.459	-135.792	-129.414	-128.617	-120.859	-26.784	-121.933	-8191	255	
2494.205	1	1	0	0	0.14505	0.24698	0.36491	0.13229	0.057139	0.13751	0.19574	0.16547	0.14041	0.16879	0.099521	0.23828	0.10117	0.069274	0.076099	0.062835	-1.9542	-2.9333	-2.3396	-2.7667	-3.0687	-2.2625	-3.0292	-2.7687	-2.2167	-3.2	-2.5979	-2.6167	-3.2687	-2.1063	-2.8917	-2.775	43.344	-24.113	30.828	-149.546	-23.551	-121.384	191.066	169.767	-91.959	20.325	-33.402	-144.931	97.397	-100.641	19.572	48.085	0.0002501	0.00026217	9.9538e-05	1111.4	3.4199e-06	2.7223e-06	1212.6	224.24	2.9611e-06	2.2823e-06	284.86	83.493	64.78	19.071	3.4508e-06	26.3	0.00024985	0.00020275	6.1025e-05	1102.2	2.4862e-06	2.5206e-06	1206.5	223.67	2.6511e-06	2.1722e-06	284.63	83.635	65.02	19.287	2.3121e-06	26.746	179.959	-53.708	-70.114	-142.600	-51.632	-10.536	-142.773	-135.237	-54.013	36.001	-135.534	-129.283	-128.450	-121.024	-13.690	-121.650	-8191	255	
2494.326	1	1	0	0	0.15231	0.032995	0.19991	0.28845	0.39323	0.076074	0.22154	0.1201	0.13476	0.12989	0.11489	0.17054	0.16169	0.12086	0.17009	0.21808	-1.9354	-3	-2.5083	-2.6229	-3.1792	-2.3375	-2.9667	-3.125	-2.0667	-3.1396	-2.4958	-2.3729	-2.9479	-2.2604	-2.7812	-2.8271	-138.641	-8.506	87.221	150.440	52.611	128.379	119.522	123.834	-54.409	61.537	-146.616	-126.577	196.290	15.777	95.713	-144.388	0.00024595	0.00022464	7.4005e-05	1114.9	2.1265e-06	4.3586e-06	1215.6	222.85	2.8554e-06	1.5064e-06	286.61	82.924	64.701	19.117	2.386e-06	26.46	0.00024081	0.00020328	5.6605e-05	1101.4	2.5003e-06	2.5062e-06	1207.3	223.51	2.6633e-06	2.1303e-06	285.13	83.472	64.897	19.325	2.3351e-06	26.904	178.457	-73.139	-49.686	-142.614	-42.233	6.896	-142.673	-135.462	-31.695	-9.756	-135.391	-129.346	-128.383	-121.007	9.329	-121.827	-8191	255	
2494.398	1	1	0	0	0.034621	0.021139	0.067742	0.4233	0.23926	0.42769	0.20491	0.29114	0.1017	0.067919	0.21026	0.03867	0.21558	0.085362	0.16358	0.046813	-1.6917	-3.0479	-2.5604	-2.4646	-3.1417	-2.3688	-2.7938	-2.9688	-2.3479	-3.1437	-2.7542	-2.4938	-3.1021	-2.3063	-2.6208	-2.9938	-75.633	-7.047	-113.983	139.602	-10.853	-38.343	-122.994	114.507	97.104	-39.095	-139.811	131.251	33.094	-104.930	90.932	198.461	0.00023562	0.00025995	8.8538e-05	1117.1	1.9174e-06	2.8604e-06	1214.8	223.57	1.9047e-06	2.579e-06	285.84	82.741	64.319	19.125	1.7943e-06	26.147	0.00025336	0.00021001	5.9635e-05	1102.7	2.4893e-06	2.3981e-06	1207.1	223.6	2.5648e-06	2.1182e-06	285.03	83.361	64.823	19.359	2.228e-06	26.77	178.226	-73.143	-67.458	-142.567	-39.462	8.746	-142.763	-135.332	-53.713	26.036	-135.618	-129.226	-128.755	-120.851	-33.884	-121.671	-8191	255	
2494.494	1	1	0	0	0.34997	0.14002	0.13288	0.28757	0.13671	0.059442	0.19455	0.17519	0.2681	0.15181	0.1413	0.25232	0.14174	0.31076	0.12074	0.28344	-1.7583	-2.9833	-2.6167	-2.1	-3.1229	-2.375	-2.6792	-3.0687	-2.2354	-2.9646	-2.7812	-2.2104	-3.1292	-2.4479	-2.5792	-3.2479	-35.047	29.061	189.423	169.307	10.946	-52.489	52.615	189.330	-34.261	113.821	175.041	132.420	187.104	198.385	-49.157	126.542	0.00023768	0.00030347	7.1769e-05	1114.4	2.1402e-06	2.7201e-06	1212.4	225.39	2.7244e-06	2.4417e-06	284.43	81.78	64.087	19.174	2.4292e-06	26.339	0.00025115	0.00020355	5.5747e-05	1102.2	2.6507e-06	2.3891e-06	1207	223.64	2.7233e-06	2.0945e-06	284.14	83.234	64.921	19.311	2.3564e-06	26.815	177.770	-64.332	-75.085	-142.410	-61.174	12.994	-142.702	-135.595	-49.324	1.946	-135.570	-129.171	-128.429	-121.004	-17.172	-121.445	-8191	255	
2494.590	1	1	0	0	0.035125	0.14425	0.05491	0.15343	0.14461	0.16367	0.15283	0.26421	0.11425	0.068623	0.16802	0.20653	0.21293	0.14439	0.050776	0.2169	-1.7271	-2.8292	-2.9292	-2.4458	-3.0104	-2.5167	-2.5521	-3.1875	-2.3146	-2.7125	-3.0625	-2.2896	-3.1167	-2.6104	-2.4042	-3.0729	127.149	184.594	145.285	105.503	104.133	-69.041	137.082	182.568	98.830	68.371	143.400	-54.178	103.415	-94.160	25.176	175.702	0.00023977	0.00030496	6.2765e-05	1113.6	2.7191e-06	2.595e-06	1215.4	223.93	2.2e-06	2.8145e-06	283.64	82.268	64.34	19.124	2.5919e-06	26.018	0.00025805	0.00020312	5.7314e-05	1102.2	2.5924e-06	2.2997e-06	1208.2	223.8	2.6232e-06	2.2293e-06	285.09	83.116	64.916	19.299	2.5252e-06	26.715	181.860	-61.307	-37.986	-142.725	-17.179	13.640	-142.881	-135.592	-54.840	1.946	-135.570	-129.439	-128.458	-121.231	-19.167	-121.527	-8191	255	
2494.710	1	1	0	0	0.16474	0.26203	0.30611	0.32851	0.15726	0.15663	0.23647	0.27503	0.15114	0.27571	0.040593	0.30457	0.080558	0.23662	0.24872	0.072955	-1.8354	-2.6875	-2.7979	-2.3479	-2.9688	-2.7062	-2.3937	-3.2375	-2.3604	-2.55	-3.0833	-2.2188	-3.0854	-2.8542	-2.3208	-3.1979	194.584	-9.158	98.517	162.999	110.090	96.470	87.995	111.855	-147.281	49.490	-85.541	-136.632	-148.778	44.465	-94.855	195.724	0.00023748	0.00025908	6.1973e-05	1119	2.6976e-06	2.3724e-06	1221.9	224.74	2.8604e-06	2.7692e-06	284.26	82.403	64.532	19.05	2.5856e-06	26.304	0.00024295	0.00022549	5.5614e-05	1103	2.5346e-06	2.3165e-06	1208.5	223.53	2.4726e-06	2.397e-06	284.39	83.226	64.97	19.333	2.4871e-06	26.802	180.491	-63.545	-61.176	-142.624	-39.353	-15.215	-142.990	-135.541	-54.679	-0.583	-135.814	-129.477	-128.516	-121.283	-23.922	-121.696	-8191	255	
2494.807	1	1	0	0	0.11238	0.060171	0.082927	0.29931	0.15989	0.1052	0.1073	0.038257	0.15988	0.23189	0.060805	0.24804	0.16308	0.045942	0.12057	0.092642	-1.9104	-2.4542	-3.0792	-2.4521	-2.9562	-2.8375	-2.3958	-3.1208	-2.4208	-2.3521	-3.1125	-2.2833	-2.6396	-2.8187	-2.0479	-2.9833	77.027	115.600	-108.653	168.620	-133.219	49.692	139.499	197.162	78.316	-148.565	-61.888	197.579	-105.281	-38.378	30.491	45.031	0.00024105	0.00024465	9.1132e-05	1109.5	3.3985e-06	1.1383e-06	1204.1	222.62	2.8579e-06	3.938e-06	283.34	82.229	64.559	19.104	2.8781e-06	26.172	0.00023994	0.00021108	5.3781e-05	1100.5	2.7147e-06	2.2679e-06	1204.2	223.22	2.5384e-06	2.4571e-06	284.48	83.152	65.005	19.336	2.4271e-06	26.735	182.126	-49.804	-62.462	-143.032	-44.107	12.339	-142.766	-135.039	-40.746	10.797	-135.591	-129.382	-128.818	-121.184	-10.902	-121.426	-8191	255	
2494.903	1	1	0	0	0.10199	0.095798	0.27405	0.1422	0.10165	0.0873	0.23414	0.35891	0.13586	0.12958	0.16233	0.2351	0.13734	0.097164	0.24058	0.23002	-2.0333	-2.1396	-2.9604	-2.2771	-2.7146	-3.0375	-2.2604	-3.0187	-2.6813	-2.3417	-3.1125	-2.4917	-2.5375	-3.0208	-2.3	-3.0354	-138.349	-137.176	-81.090	-126.688	-32.665	169.595	138.376	184.617	132.231	21.679	-116.629	201.404	-144.100	35.153	94.502	118.309	0.00025766	0.00025954	8.71e-05	1108.6	1.6699e-06	2.4889e-06	1210.5	223.46	1.8274e-06	2.9595e-06	283	82.211	63.986	18.774	2.4923e-06	25.998	0.00023498	0.00022261	5.6013e-05	1100.7	2.5872e-06	2.1478e-06	1204.4	223.6	2.5737e-06	2.4037e-06	283.84	83.286	64.73	19.227	2.6003e-06	26.649	176.666	-47.538	-50.299	-142.832	-18.902	15.668	-142.845	-135.384	-51.105	-9.315	-135.692	-129.517	-128.618	-121.405	-12.434	-121.477	-8191	255	
2494.999	1	1	0	0	0.051314	0.20787	0.058134	0.39115	0.22665	0.33025	0.29225	0.49913	0.041544	0.30214	0.14117	0.32978	0.37234	0.12401	0.17396	0.29358	-2.3292	-2.25	-2.9437	-2.5625	-2.6125	-3.0479	-2.3	-3.0146	-2.8958	-2.075	-3.1375	-2.3521	-2.675	-3.0333	-2.3271	-2.9146	36.690	157.293	-99.344	-146.505	36.176	185.232	97.182	-141.066	-8.411	-132.244	174.785	-99.184	62.989	60.585	157.827	183.780	0.0002494	0.00038596	8.1207e-05	1109.2	2.3981e-06	2.8798e-06	1210.1	224.56	3.0082e-06	2.1604e-06	282.66	82.155	64.312	18.91	2.6394e-06	26.097	0.0002331	0.00021786	5.3604e-05	1099.9	2.6825e-06	2.0848e-06	1204.6	224.02	2.6027e-06	2.4298e-06	284.51	83.126	64.837	19.188	2.5532e-06	26.685	174.779	-58.318	-46.460	-142.721	-26.542	-0.898	-142.695	-135.451	-42.093	-9.591	-135.520	-129.331	-128.532	-120.937	-31.044	-121.558	-8191	255	
2495.095	1	1	0	0	0.12692	0.27625	0.098112	0.20006	0.048273	0.040936	0.27613	0.18543	0.28972	0.045949	0.011728	0.11779	0.055686	0.27557	0.10731	0.15496	-2.3896	-2.2229	-3.1562	-2.4854	-2.6063	-3.1479	-2.1	-2.85	-2.75	-2.1979	-3.1688	-2.5542	-2.3229	-3.0958	-2.3104	-2.7438	-94.795	18.159	161.110	142.363	-21.090	39.543	89.289	190.062	147.512	-15.080	-7.961	-104.630	125.544	166.219	181.141	188.425	0.00022936	0.00030517	8.4975e-05	1108.9	2.311e-06	3.1512e-06	1206.9	223.1	2.6754e-06	2.2355e-06	286.57	82.259	64.523	18.989	1.6324e-06	26.393	0.00024119	0.00021081	5.5126e-05	1099.6	2.6585e-06	2.08e-06	1203.6	223.63	2.4652e-06	2.4146e-06	284.99	83.19	64.915	19.33	2.3323e-06	26.834	181.124	-79.641	-74.039	-142.846	1.781	-10.009	-142.820	-135.653	-48.563	-15.875	-135.626	-129.547	-128.477	-121.044	30.840	-121.347	-8191	255	
2495.191	1	1	0	0	0.1083	0.20579	0.10058	0.29392	0.15665	0.16472	0.082992	0.14229	0.19473	0.13313	0.061109	0.1357	0.14011	0.18895	0.092672	0.39566	-2.4604	-2.1292	-2.9562	-2.6271	-2.1771	-2.9854	-2.325	-2.8	-2.825	-2.075	-2.9938	-2.5687	-2.1021	-3.0333	-2.2604	-2.4375	-121.139	113.967	195.743	116.893	-4.863	174.481	54.462	87.661	139.559	96.143	77.890	175.259	-36.120	-151.790	-119.239	-138.101	0.00024779	0.00016999	7.7879e-05	1112.2	1.7896e-06	1.9067e-06	1210.9	224.88	2.3187e-06	2.3984e-06	282.89	82.492	64.598	18.976	1.9443e-06	26.275	0.00023358	0.00022843	6.0552e-05	1100.4	2.709e-06	2.116e-06	1205.3	223.57	2.5948e-06	2.5215e-06	284.16	83.358	65.077	19.292	2.4332e-06	26.849	175.682	-67.790	-56.105	-142.731	-37.600	9.086	-143.018	-135.026	-51.282	1.490	-135.525	-129.414	-128.583	-120.976	-4.798	-121.615	-8191	255	
2495.310	1	1	0	0	0.056048	0.11414	0.020327	0.21496	0.32921	0.11207	0.41302	0.29102	0.040559	0.079304	0.085586	0.094288	0.52137	0.12523	0.093741	0.20048	-2.4188	-2.125	-2.8896	-2.7833	-2.0521	-2.9229	-2.4313	-2.5167	-2.9646	-2.225	-2.9208	-2.8958	-2.1688	-3.0042	-2.2938	-2.4146	120.655	-85.733	11.372	185.190	164.708	108.419	91.909	166.056	55.277	72.779	185.421	99.862	72.896	-149.975	-45.749	158.521	0.00022989	0.00036161	4.8692e-05	1108	1.6268e-06	4.1754e-06	1208.4	223.39	2.8689e-06	3.4711e-06	284.67	81.875	63.912	18.904	2.7657e-06	26.064	0.00023694	0.00022971	6.0123e-05	1099.6	2.7861e-06	2.2787e-06	1204.9	223.38	2.3952e-06	2.5853e-06	284.96	83.343	64.792	19.279	2.3985e-06	26.805	181.652	-75.686	-70.867	-142.588	9.338	-6.489	-142.748	-135.448	-44.228	-2.446	-135.480	-129.442	-128.533	-121.055	-39.722	-121.653	-8191	255	
2495.406	1	1	0	0	0.17013	0.07248	0.029415	0.31303	0.22572	0.18179	0.4001	0.28528	0.26537	0.27705	0.17682	0.181	0.24118	0.2238	0.10594	0.021709	-2.7354	-2.075	-2.7604	-2.8542	-2.0375	-3.2	-2.4792	-2.4125	-3.125	-2.1125	-2.7917	-2.7479	-2.1125	-2.8854	-2.4125	-2.4062	121.222	141.696	141.101	127.173	-95.032	181.859	168.757	141.251	5.772	136.424	120.198	-137.192	51.988	107.744	182.959	-86.018	0.00023706	0.00025614	7.6217e-05	1111.5	1.5467e-06	2.9014e-06	1208.8	223.67	3.5088e-06	1.8485e-06	284.36	82.076	64.396	19.037	2.2327e-06	26.281	0.0002224	0.00022912	5.7152e-05	1099.8	2.7689e-06	2.4179e-06	1203.2	223.58	2.6374e-06	2.3709e-06	284.01	83.272	64.826	19.3	2.3217e-06	26.793	176.852	-60.357	-43.509	-142.537	-38.787	13.241	-142.647	-135.368	-58.033	-12.561	-135.848	-128.758	-128.446	-120.959	-15.572	-121.822	-8191	255	
2495.502	1	1	0	0	0.20819	0.32143	0.22264	0.079105	0.2633	0.28754	0.28371	0.13766	0.068264	0.18339	0.13629	0.17722	0.18763	0.2613	0.22616	0.13675	-2.5729	-2.1833	-2.7896	-2.9521	-2.1604	-2.7854	-2.7687	-2.4542	-3.1542	-2.2479	-2.7562	-3.0708	-2.2479	-3.0271	-2.7542	-2.1813	-26.418	182.140	-20.509	201.258	104.968	-56.151	45.996	-97.041	-69.150	-52.776	-110.053	164.725	-73.150	134.063	11.396	-50.918	0.00025333	0.00035425	5.4981e-05	1109.5	1.5685e-06	3.4533e-06	1206.3	224.49	2.0822e-06	3.5189e-06	284.17	82.667	64.611	18.938	2.5006e-06	26.496	0.00023168	0.00022357	5.9428e-05	1098.4	2.7678e-06	2.1412e-06	1204.2	223.63	2.2793e-06	2.3034e-06	284.73	83.226	64.813	19.299	2.3469e-06	26.803	177.273	-63.505	-80.691	-142.779	-51.102	-13.263	-142.542	-135.378	-34.520	-1.626	-135.030	-129.430	-129.028	-120.666	-9.330	-121.519	-8191	255	
2495.599	1	1	0	0	0.051839	0.07993	0.030064	0.24023	0.26058	0.035698	0.41463	0.35314	0.1889	0.21814	0.25924	0.3099	0.2372	0.15285	0.30257	0.1809	-2.7354	-2.2333	-2.4958	-3.1333	-2.1042	-2.9708	-2.8063	-2.3063	-2.8771	-2.4542	-2.6417	-2.9833	-2.275	-3	-2.8896	-2.4437	115.144	77.137	140.942	111.555	-24.705	-39.849	116.447	-64.617	114.273	74.923	115.794	150.392	140.818	196.492	104.989	-134.298	0.00024529	0.00021808	9.6278e-05	1102.9	1.9688e-06	4.3016e-06	1203.8	222.29	2.5137e-06	3.9191e-06	284.82	82.03	63.615	19.066	1.95e-06	26.149	0.00023275	0.00021022	5.9768e-05	1094.6	2.8397e-06	2.26e-06	1199.2	222.55	2.4157e-06	2.4267e-06	284.3	82.989	64.507	19.273	2.399e-06	26.664	182.214	-29.815	-45.154	-142.699	-57.175	13.549	-142.679	-135.664	-62.921	3.091	-135.328	-129.588	-128.779	-121.098	-41.757	-121.856	-8191	255	
2495.695	1	1	0	0	0.10733	0.27418	0.068102	0.087944	0.074821	0.035098	0.17235	0.4042	0.25944	0.062862	0.18878	0.13037	0.18704	0.24505	0.27014	0.13907	-2.5417	-2.5396	-2.3438	-3.2438	-2.0479	-2.6063	-3.1417	-2.3667	-3.0563	-2.5187	-2.4292	-3.0542	-2.4125	-2.8312	-3.0354	-2.3042	190.146	82.030	129.187	90.511	125.272	-90.906	108.027	125.825	-123.639	145.629	-52.866	103.344	-137.015	170.431	-85.810	177.795	0.00023866	0.00029084	6.6548e-05	1100.8	1.5276e-06	3.3918e-06	1199	222.19	2.4415e-06	3.0213e-06	284.72	82.374	64.381	19.042	1.8416e-06	25.93	0.00023569	0.00022079	6.0759e-05	1094.7	2.7866e-06	2.3627e-06	1198.2	222.74	2.3036e-06	2.3217e-06	283.99	83.177	64.751	19.294	2.4063e-06	26.626	175.813	-79.950	-60.484	-142.839	-10.348	2.910	-142.762	-135.240	-48.453	7.596	-135.469	-129.306	-128.749	-120.533	-13.760	-121.829	-8191	255	
#DATA ENDS
