BOXY.EXE: ISS Imagent and Oximeter Data Acquisition Program Version 0.80
Ascii Record File

#ACQ INFORMATION
2  Detector Channels 
16  External MUX Channels 
1  Auxiliary Channels 
5000  Waveform (CCF) Frequency (Hz)
1  Waveforms Skipped 
30  Waveforms Averaged 
1  Cycles Averaged 
16  Acquisitions per Waveform 
10.0806  Updata Rate (Hz) 

#FILE INFORMATION
TRUE -- External MUX Channel results are PARSED.
FALSE -- AC DC and Phase are NOT grouped.
TRUE -- Companion Program Settings File CREATED.
FALSE -- AC data not excluded
FALSE -- DC data not excluded
FALSE -- Phase data not excluded
FALSE -- Auxillary Chn. data not excluded
Tab delimiters

#CALIBRATION STATE
TRUE -- Waveform Calibration Values APPLIED.


#AUX CALIBRATION VALUES
Val Type	aux-1	

Term	1.0000e+00	
Factor	0.0000e+00	


#WF CALIBRATION VALUES
A = Detector Channel
Val Type	A-AC1	A-AC2	A-AC3	A-AC4	A-AC5	A-AC6	A-AC7	A-AC8	A-AC9	A-AC10	A-AC11	A-AC12	A-AC13	A-AC14	A-AC15	A-AC16	A-DC1	A-DC2	A-DC3	A-DC4	A-DC5	A-DC6	A-DC7	A-DC8	A-DC9	A-DC10	A-DC11	A-DC12	A-DC13	A-DC14	A-DC15	A-DC16	A-Ph1	A-Ph2	A-Ph3	A-Ph4	A-Ph5	A-Ph6	A-Ph7	A-Ph8	A-Ph9	A-Ph10	A-Ph11	A-Ph12	A-Ph13	A-Ph14	A-Ph15	A-Ph16	

Term	0.00000e+00	0.00000e+00	0.00000e+00	0.00000e+00	0.00000e+00	0.00000e+00	0.00000e+00	0.00000e+00	0.00000e+00	0.00000e+00	0.00000e+00	0.00000e+00	0.00000e+00	0.00000e+00	0.00000e+00	0.00000e+00	0.00000e+00	0.00000e+00	0.00000e+00	0.00000e+00	0.00000e+00	0.00000e+00	0.00000e+00	0.00000e+00	0.00000e+00	0.00000e+00	0.00000e+00	0.00000e+00	0.00000e+00	0.00000e+00	0.00000e+00	0.00000e+00	0.00000e+00	0.00000e+00	0.00000e+00	0.00000e+00	0.00000e+00	0.00000e+00	0.00000e+00	0.00000e+00	0.00000e+00	0.00000e+00	0.00000e+00	0.00000e+00	0.00000e+00	0.00000e+00	0.00000e+00	0.00000e+00	
Factor	1.00000e+00	1.00000e+00	1.00000e+00	1.00000e+00	1.00000e+00	1.00000e+00	1.00000e+00	1.00000e+00	1.00000e+00	1.00000e+00	1.00000e+00	1.00000e+00	1.00000e+00	1.00000e+00	1.00000e+00	1.00000e+00	1.00000e+00	1.00000e+00	1.00000e+00	1.00000e+00	1.00000e+00	1.00000e+00	1.00000e+00	1.00000e+00	1.00000e+00	1.00000e+00	1.00000e+00	1.00000e+00	1.00000e+00	1.00000e+00	1.00000e+00	1.00000e+00	X	X	X	X	X	X	X	X	X	X	X	X	X	X	X	X	

B = Detector Channel
Val Type	B-AC1	B-AC2	B-AC3	B-AC4	B-AC5	B-AC6	B-AC7	B-AC8	B-AC9	B-AC10	B-AC11	B-AC12	B-AC13	B-AC14	B-AC15	B-AC16	B-DC1	B-DC2	B-DC3	B-DC4	B-DC5	B-DC6	B-DC7	B-DC8	B-DC9	B-DC10	B-DC11	B-DC12	B-DC13	B-DC14	B-DC15	B-DC16	B-Ph1	B-Ph2	B-Ph3	B-Ph4	B-Ph5	B-Ph6	B-Ph7	B-Ph8	B-Ph9	B-Ph10	B-Ph11	B-Ph12	B-Ph13	B-Ph14	B-Ph15	B-Ph16	

Term	0.00000e+00	0.00000e+00	0.00000e+00	0.00000e+00	0.00000e+00	0.00000e+00	0.00000e+00	0.00000e+00	0.00000e+00	0.00000e+00	0.00000e+00	0.00000e+00	0.00000e+00	0.00000e+00	0.00000e+00	0.00000e+00	0.00000e+00	0.00000e+00	0.00000e+00	0.00000e+00	0.00000e+00	0.00000e+00	0.00000e+00	0.00000e+00	0.00000e+00	0.00000e+00	0.00000e+00	0.00000e+00	0.00000e+00	0.00000e+00	0.00000e+00	0.00000e+00	-1.55424e+02	-1.27235e+02	-1.24166e+02	-1.80391e+02	-7.40752e+01	-6.35377e+01	-1.56642e+02	-1.62015e+02	-7.80018e+01	-6.24457e+01	-1.75242e+02	-1.71364e+02	-1.79620e+02	-1.76316e+02	-7.26602e+01	-1.49562e+02	
Factor	2.32168e-05	1.44619e-04	3.90176e-05	1.53962e-01	1.28637e-06	1.68364e-06	1.74380e-01	5.13261e-02	1.26631e-06	1.62331e-06	9.43026e-02	3.18907e-02	2.43581e-02	9.34159e-03	1.41395e-06	1.29416e-02	1.42752e-05	2.56240e-05	7.09592e-06	7.92124e-02	2.49870e-07	2.88134e-07	8.45014e-02	2.65240e-02	2.52790e-07	2.91573e-07	4.71960e-02	1.60623e-02	1.27823e-02	4.86681e-03	2.69113e-07	6.54773e-03	X	X	X	X	X	X	X	X	X	X	X	X	X	X	X	X	



#DISTANCE SETTINGS
A = Detector Channel
A-1	A-2	A-3	A-4	A-5	A-6	A-7	A-8	A-9	A-10	A-11	A-12	A-13	A-14	A-15	A-16	

2.5000e+00	3.0000e+00	2.5000e+00	3.0000e+00	2.0000e+00	3.0000e+00	1.5000e+00	3.0000e+00	3.0000e+00	3.0000e+00	3.0000e+00	3.0000e+00	3.0000e+00	3.0000e+00	1.5000e+00	3.0000e+00	

B = Detector Channel
B-1	B-2	B-3	B-4	B-5	B-6	B-7	B-8	B-9	B-10	B-11	B-12	B-13	B-14	B-15	B-16	

1.0000e+01	1.0000e+01	1.0000e+01	1.4400e+00	1.0000e+01	1.0000e+01	1.5100e+00	1.9400e+00	1.0000e+01	1.0000e+01	1.9900e+00	2.4900e+00	2.4100e+00	2.9000e+00	1.0000e+01	2.9800e+00	




#DATA BEGINS
time	group	step	mark	flag	A-AC1	A-AC2	A-AC3	A-AC4	A-AC5	A-AC6	A-AC7	A-AC8	A-AC9	A-AC10	A-AC11	A-AC12	A-AC13	A-AC14	A-AC15	A-AC16	A-DC1	A-DC2	A-DC3	A-DC4	A-DC5	A-DC6	A-DC7	A-DC8	A-DC9	A-DC10	A-DC11	A-DC12	A-DC13	A-DC14	A-DC15	A-DC16	A-Ph1	A-Ph2	A-Ph3	A-Ph4	A-Ph5	A-Ph6	A-Ph7	A-Ph8	A-Ph9	A-Ph10	A-Ph11	A-Ph12	A-Ph13	A-Ph14	A-Ph15	A-Ph16	B-AC1	B-AC2	B-AC3	B-AC4	B-AC5	B-AC6	B-AC7	B-AC8	B-AC9	B-AC10	B-AC11	B-AC12	B-AC13	B-AC14	B-AC15	B-AC16	B-DC1	B-DC2	B-DC3	B-DC4	B-DC5	B-DC6	B-DC7	B-DC8	B-DC9	B-DC10	B-DC11	B-DC12	B-DC13	B-DC14	B-DC15	B-DC16	B-Ph1	B-Ph2	B-Ph3	B-Ph4	B-Ph5	B-Ph6	B-Ph7	B-Ph8	B-Ph9	B-Ph10	B-Ph11	B-Ph12	B-Ph13	B-Ph14	B-Ph15	B-Ph16	aux-1	digaux	

2454.938	1	1	0	768	0.4139	0.19554	0.17146	0.20522	0.19577	0.18244	0.30706	0.24802	0.25665	0.076995	0.10596	0.20435	0.12625	0.32493	0.29109	0.22505	-1.8604	-3.0479	-2.7125	-2.4396	-3.2167	-2.5042	-2.9229	-3.3438	-2.3792	-3.1604	-2.8646	-2.6646	-3.2396	-2.6708	-2.7938	-3.025	-4.809	95.389	-7.994	190.868	23.511	248.982	213.172	243.989	30.443	-27.247	238.690	217.393	223.081	200.754	1.506	115.689	0.00023025	0.00057742	0.00013873	1552.2	3.7852e-06	4.6444e-06	1541.9	404.27	2.012e-06	5.4179e-06	455.08	155.51	136.38	46.673	4.165e-06	56.265	0.0003233	0.0002028	5.3471e-05	1567.5	2.7314e-06	2.1562e-06	1559	410.24	2.9166e-06	2.3144e-06	462.64	158.97	139.26	47.797	2.6928e-06	57.836	160.966	4.898	5.192	-74.189	58.149	71.884	-74.262	-69.909	27.683	76.322	-70.165	-66.038	-65.570	-61.071	41.511	-61.550	-8191	255	
2455.034	1	1	0	0	0.04006	0.15204	0.33789	0.23538	0.055881	0.16607	0.27554	0.30671	0.18246	0.066944	0.14294	0.09752	0.341	0.05301	0.21136	0.18275	-1.9312	-2.9437	-2.6667	-2.5229	-3.1375	-2.3958	-2.7979	-3.1813	-2.3187	-2.9875	-3.0417	-2.25	-3.3	-2.6479	-2.6521	-3.2146	57.758	186.478	143.962	-48.462	17.118	201.302	184.940	127.819	-69.333	18.125	-46.456	-10.845	242.397	29.544	208.016	251.163	0.00022031	0.00050376	0.00011976	1549.8	3.8789e-06	5.129e-06	1529.2	403.01	2.7812e-06	5.8206e-06	455.09	153.86	135.35	46.264	3.6095e-06	56.204	0.00033148	0.00020868	5.591e-05	1563.5	2.7772e-06	2.2468e-06	1553.3	409.72	3.1241e-06	2.4231e-06	461.11	157.61	138.34	47.27	2.7724e-06	57.456	155.621	3.560	1.285	-74.062	60.018	65.018	-74.243	-69.842	31.033	68.774	-70.412	-66.303	-65.680	-60.908	43.133	-61.619	-8191	255	
2455.130	1	1	0	0	0.1568	0.17409	0.15211	0.2962	0.25647	0.1291	0.25872	0.30354	0.29552	0.18265	0.12848	0.14112	0.17792	0.072664	0.13149	0.13591	-1.9417	-2.8729	-2.8792	-2.6875	-3.1917	-2.5917	-2.6542	-3.1604	-2.3167	-2.8146	-3.1271	-2.5187	-3.0979	-2.6917	-2.3063	-3.2708	86.408	-83.705	266.253	176.020	91.769	38.344	-18.381	210.451	-37.830	257.704	192.031	148.193	235.993	-78.558	71.034	-85.978	0.00022228	0.00050396	0.000127	1540.9	3.0188e-06	5.2581e-06	1528.8	401.61	2.2837e-06	4.618e-06	453.59	153.52	134.62	46.114	3.9765e-06	55.879	0.00032708	0.00023307	6.4795e-05	1556	2.8704e-06	2.2637e-06	1546.8	408.13	3.0514e-06	2.2688e-06	459.69	157.09	137.68	47.148	2.8257e-06	57.19	158.061	10.618	16.480	-74.117	45.014	69.076	-74.372	-69.939	35.963	74.527	-70.326	-66.088	-65.482	-60.825	62.530	-61.341	-8191	255	
2455.226	1	1	0	0	0.09547	0.2305	0.21939	0.12188	0.2242	0.19041	0.16185	0.11376	0.12508	0.11258	0.24653	0.29352	0.30335	0.13987	0.093493	0.33765	-1.9125	-2.7438	-3.0104	-2.4292	-2.9479	-2.6521	-2.5646	-3.3979	-2.4542	-2.7667	-3.2854	-2.3563	-2.9896	-2.9083	-2.3563	-3.1625	-6.791	129.441	62.646	-15.585	251.749	20.823	189.921	270.502	51.418	-58.704	265.367	203.844	172.930	261.954	126.675	174.890	0.00023178	0.00052904	0.00016682	1538.2	2.7531e-06	4.6144e-06	1517.5	399.99	3.1667e-06	4.2303e-06	452.61	152.83	134.47	45.792	3.3388e-06	55.827	0.00032432	0.00020868	5.7078e-05	1547.5	2.7371e-06	2.1472e-06	1537	406.47	2.9139e-06	2.0872e-06	459.46	156.57	137.54	47.063	2.6895e-06	57.124	160.884	-1.022	2.215	-74.120	65.972	64.072	-74.270	-69.759	26.519	74.317	-70.083	-66.085	-65.240	-60.669	60.779	-61.225	-8191	255	
2455.320	1	1	0	0	0.083802	0.14336	0.06105	0.16102	0.043146	0.11422	0.308	0.23481	0.12504	0.2234	0.23333	0.29227	0.27443	0.080861	0.13235	0.22586	-2.3083	-2.4146	-2.9104	-2.1542	-2.9042	-2.7521	-2.4083	-3.2208	-2.4625	-2.4146	-3.15	-2.4042	-2.9896	-2.95	-2.1542	-3.0625	22.228	47.924	261.851	210.454	-58.808	19.262	199.417	-56.374	255.251	-33.789	-39.147	139.735	262.501	-19.430	121.233	162.300	0.00022925	0.00051573	0.00013183	1526.7	3.438e-06	4.7975e-06	1517.2	400.22	3.7198e-06	4.8314e-06	452.68	151.99	134.15	45.795	3.4008e-06	55.77	0.00031563	0.00023563	5.9266e-05	1544.6	3.012e-06	2.3207e-06	1537.9	407.17	3.0045e-06	2.4188e-06	458.42	156.27	137.41	46.982	3.0012e-06	57.163	161.298	2.113	4.723	-74.191	53.475	77.684	-74.279	-69.821	31.555	63.639	-70.267	-66.018	-65.426	-60.712	44.905	-61.321	-8191	255	
2455.418	1	1	0	0	0.17199	0.22615	0.078197	0.19852	0.21962	0.18079	0.21512	0.41692	0.12798	0.067744	0.31254	0.17918	0.3354	0.12992	0.21542	0.25382	-2.1125	-2.4437	-3.0312	-2.4896	-2.6021	-2.7708	-2.4021	-3.1375	-2.6042	-2.2854	-3.1958	-2.2667	-2.8375	-2.9667	-2.3	-2.9875	262.947	85.440	175.838	-79.617	-85.488	158.745	215.092	238.120	226.197	227.151	229.016	-41.691	228.469	-32.394	221.989	203.260	0.00022352	0.00053448	0.00014959	1529.5	2.8021e-06	4.8729e-06	1521.8	401.6	3.4141e-06	6.1361e-06	455.22	152.5	134.05	45.897	3.929e-06	55.937	0.00032182	0.00023852	6.2917e-05	1543.2	3.062e-06	2.2691e-06	1538.8	407.38	3.0472e-06	2.6296e-06	459.91	156.2	137.52	47.069	2.7158e-06	57.294	161.301	11.779	11.510	-74.305	58.747	67.866	-74.525	-69.793	38.828	68.665	-70.212	-66.106	-65.709	-60.763	67.797	-61.280	-8191	255	
2455.537	1	1	0	0	0.17372	0.083311	0.3015	0.2359	0.0097002	0.41591	0.077845	0.2322	0.2028	0.20131	0.14164	0.030857	0.11483	0.35271	0.15667	0.22672	-2.0958	-2.2938	-3.2042	-2.425	-2.5021	-2.9833	-2.3937	-3.1312	-2.7438	-2.1667	-3.0708	-2.4333	-2.5792	-3.1292	-2.2833	-2.9313	223.841	-46.007	106.812	164.260	154.276	-61.914	213.344	144.124	112.675	-14.154	11.499	146.154	161.710	198.499	169.604	248.424	0.00023034	0.00041641	0.00014606	1523.4	2.9101e-06	4.0662e-06	1510	400.2	3.3451e-06	4.1382e-06	452.37	152.69	133.99	46.011	4.1056e-06	55.843	0.00031319	0.0002469	5.9813e-05	1542.3	3.1531e-06	2.2582e-06	1536	407.08	3.0772e-06	2.417e-06	459.14	156.67	137.44	47.073	2.9047e-06	57.234	158.204	-3.593	6.710	-74.364	33.794	73.211	-74.455	-69.921	37.003	74.989	-70.536	-66.223	-65.604	-61.110	54.638	-61.530	-8191	255	
2455.633	1	1	0	0	0.054915	0.1225	0.1723	0.13417	0.076185	0.24411	0.28979	0.15691	0.10765	0.22266	0.012829	0.10285	0.26125	0.18786	0.14847	0.14797	-2.3646	-2.2458	-2.9688	-2.575	-2.3833	-3.0667	-2.4042	-2.8333	-2.725	-2.15	-3.2729	-2.5708	-2.4979	-3.1	-2.2167	-2.95	218.540	169.082	221.923	-64.121	34.874	268.964	198.699	235.135	230.194	-81.744	248.347	-8.986	-61.918	-72.994	-75.690	215.971	0.00022153	0.00046963	0.00012344	1525.4	3.1209e-06	5.3177e-06	1515.5	400.26	2.5253e-06	5.8896e-06	450.26	152.61	134.05	45.789	3.9856e-06	55.708	0.00032443	0.00024599	6.1631e-05	1541.9	3.0843e-06	2.4569e-06	1536.1	406.38	3.064e-06	2.7092e-06	457.9	156.59	137.52	47.012	2.9137e-06	57.159	156.836	2.965	9.603	-74.270	45.697	78.145	-74.433	-69.838	35.928	57.837	-70.251	-66.679	-65.720	-61.014	62.425	-61.541	-8191	255	
2455.729	1	1	0	0	0.1355	0.034626	0.20584	0.23945	0.10533	0.19993	0.30152	0.18949	0.087343	0.15914	0.13178	0.2083	0.030585	0.13671	0.17234	0.19252	-2.7333	-2.1937	-2.8563	-2.9062	-2.45	-3.0771	-2.4604	-2.6396	-2.7208	-2.4479	-3.0708	-2.7729	-2.1375	-2.9896	-2.2292	-2.6333	194.686	-40.463	-23.055	257.985	58.481	46.922	213.724	-86.190	27.959	-14.658	144.509	133.290	271.785	-9.285	20.459	187.339	0.00021248	0.00056273	0.00014084	1521.3	3.0542e-06	5.4063e-06	1512.1	399.9	2.8414e-06	4.7637e-06	450.97	152.06	133.49	45.929	3.384e-06	55.832	0.00032518	0.00024428	6.3878e-05	1538.5	3.1765e-06	2.254e-06	1532.2	406.41	3.005e-06	2.5501e-06	457.69	156.2	137.07	47.063	2.7225e-06	57.105	159.164	-1.290	6.482	-74.503	60.405	69.977	-74.668	-69.879	15.423	67.027	-70.583	-66.435	-65.844	-60.799	49.793	-61.608	-8191	255	
2455.826	1	1	0	0	0.056573	0.032953	0.15996	0.20393	0.18613	0.080823	0.15846	0.25225	0.20232	0.045132	0.10298	0.0805	0.34535	0.31442	0.10614	0.19663	-2.6854	-2.1875	-2.8396	-3.0062	-2.2812	-3.0792	-2.6833	-2.4604	-2.975	-2.2458	-2.8563	-2.9229	-2.4417	-3.1771	-2.4354	-2.4417	-16.759	-66.794	50.149	-51.342	266.324	102.732	206.446	254.649	149.381	166.943	167.411	232.318	-69.240	263.052	183.256	155.183	0.00023261	0.00056137	0.00015412	1519.8	3.5547e-06	5.6449e-06	1507.7	397.96	2.3274e-06	4.5159e-06	449.88	151.53	133.45	45.906	4.0516e-06	55.692	0.0003104	0.00024636	5.9369e-05	1532.8	3.0724e-06	2.2354e-06	1528.4	405.43	2.7459e-06	2.281e-06	457.68	155.64	136.83	47.012	2.5807e-06	57.144	164.083	1.893	-1.779	-74.640	58.147	65.231	-74.734	-69.990	32.852	66.434	-70.385	-66.428	-65.803	-60.814	45.052	-61.812	-8191	255	
2455.922	1	1	0	0	0.059804	0.26732	0.11948	0.30992	0.11777	0.083996	0.37936	0.16755	0.17147	0.19878	0.022672	0.099054	0.22266	0.2675	0.18047	0.18845	-2.5667	-2.2	-2.6708	-3.1562	-2.2042	-2.95	-2.7687	-2.4583	-2.95	-2.3521	-2.6896	-3.0146	-2.4	-3.1417	-2.5938	-2.4188	147.941	158.813	14.292	253.633	95.397	-53.678	259.752	227.489	251.230	249.021	264.397	240.063	-55.091	-60.285	179.318	119.175	0.00020512	0.00047367	0.00013877	1515.1	3.3951e-06	4.7784e-06	1499.5	397.26	1.6345e-06	4.827e-06	450.6	151.23	133.33	45.652	3.1754e-06	55.422	0.00032226	0.00023505	6.169e-05	1530.7	3.1067e-06	2.1808e-06	1524.8	404.23	2.9856e-06	2.3125e-06	456.84	155.33	136.33	46.884	2.6917e-06	56.824	152.958	4.440	9.420	-74.506	66.994	59.219	-74.570	-69.899	25.686	75.880	-70.390	-66.416	-65.759	-60.899	44.804	-61.752	-8191	255	
2456.018	1	1	0	0	0.28719	0.17631	0.10231	0.20836	0.27792	0.10958	0.19187	0.063425	0.27771	0.039665	0.27654	0.073158	0.16603	0.20924	0.19975	0.26241	-2.7188	-2.2896	-2.6937	-3.3375	-2.2625	-2.9688	-2.8125	-2.3896	-3.2396	-2.4604	-2.725	-3.0229	-2.3104	-3.0979	-2.7125	-2.2667	22.304	176.637	157.912	259.213	-23.041	-80.632	139.811	-59.951	161.908	210.165	203.167	47.784	145.490	260.814	240.857	-28.788	0.00021629	0.00046439	0.00013345	1513	2.6357e-06	5.7443e-06	1500.6	397.49	2.6979e-06	4.3923e-06	449.8	151.47	133.38	45.641	3.3896e-06	55.73	0.00030992	0.00022255	5.9532e-05	1527.6	2.8038e-06	2.2673e-06	1521.1	404.34	2.9713e-06	2.3885e-06	456.69	155.4	136.34	46.801	2.7119e-06	57.038	159.027	-14.097	0.200	-74.480	67.114	65.216	-74.613	-70.058	36.489	72.992	-70.456	-66.578	-65.880	-60.981	45.488	-61.571	-8191	255	
2456.139	1	1	0	0	0.14356	0.34704	0.14189	0.18357	0.13073	0.21838	0.13891	0.25844	0.089801	0.22914	0.27013	0.1817	0.53344	0.14103	0.29064	0.26121	-2.6937	-2.4062	-2.5375	-3.1354	-2.0729	-2.9875	-2.9146	-2.4208	-3.0625	-2.6354	-2.5167	-3.3292	-2.1917	-2.9042	-2.9	-2.2667	188.554	99.714	162.435	260.640	-78.561	73.228	221.945	269.364	-55.700	-13.923	256.311	264.170	268.256	245.176	-55.811	125.780	0.00022708	0.00049307	0.00012782	1511.2	3.4272e-06	4.3017e-06	1496.7	398.41	2.5431e-06	4.9513e-06	449.96	151.93	133.13	45.819	3.8756e-06	55.432	0.000309	0.00021716	6.3715e-05	1526.6	3.0599e-06	2.2991e-06	1520.4	404.29	2.8671e-06	2.4601e-06	455.91	155.38	136.31	46.893	2.6452e-06	56.919	159.315	-3.542	11.871	-74.464	53.153	66.893	-74.678	-70.118	38.601	59.958	-70.212	-66.185	-65.756	-61.071	60.230	-61.711	-8191	255	
2456.233	1	1	0	0	0.22001	0.15269	0.14741	0.10255	0.14014	0.23668	0.20987	0.35011	0.17527	0.10457	0.23884	0.19601	0.030286	0.16764	0.20231	0.086888	-2.5396	-2.7062	-2.5062	-3.2792	-2.1146	-2.5667	-3.0583	-2.2521	-3.0021	-2.5687	-2.5271	-3.0083	-2.3688	-2.6417	-2.975	-2.3542	183.735	69.352	231.964	-80.203	129.092	-41.506	188.654	214.298	266.712	-19.206	-42.841	197.436	166.084	153.975	-85.496	230.094	0.00023086	0.00053072	0.00010801	1507.2	2.9805e-06	5.3795e-06	1497.6	397.71	2.0426e-06	5.1939e-06	450.34	151.56	133.8	45.819	3.661e-06	55.492	0.00032018	0.00023179	6.0508e-05	1522.5	3.1203e-06	2.4017e-06	1516.9	403.48	2.8112e-06	2.479e-06	456.24	155.26	136.56	46.935	2.7304e-06	56.963	158.369	4.473	17.476	-74.421	54.165	68.397	-74.653	-70.035	38.667	61.563	-70.314	-66.506	-65.828	-60.883	55.210	-61.474	-8191	255	
2456.329	1	1	0	0	0.022572	0.17192	0.10022	0.3217	0.19235	0.13179	0.21026	0.30759	0.08869	0.28519	0.072423	0.2108	0.2157	0.19954	0.42896	0.30453	-2.5333	-2.7	-2.0625	-3.25	-2.4104	-2.6208	-3.0958	-2.3042	-2.8625	-2.775	-2.3333	-3.2458	-2.5812	-2.8	-2.9396	-2.3354	180.024	-36.990	217.645	252.134	255.663	118.883	224.103	189.507	20.658	-24.501	206.038	239.918	241.580	-84.222	-14.500	183.630	0.00021946	0.00056553	0.0001417	1504	2.5316e-06	4.5293e-06	1494.5	394.47	1.7651e-06	5.9826e-06	450.05	151.04	133.33	45.938	3.1326e-06	55.685	0.00031432	0.00022683	6.2148e-05	1518.9	2.8501e-06	2.233e-06	1515	402.78	2.6801e-06	2.2998e-06	455.74	155.14	136.42	46.986	2.5325e-06	56.893	155.980	3.251	8.212	-74.369	46.993	77.468	-74.599	-70.087	25.556	69.622	-70.532	-66.249	-65.914	-60.788	45.691	-61.953	-8191	255	
2456.425	1	1	0	0	0.17202	0.27289	0.07984	0.34451	0.079724	0.018094	0.27174	0.40391	0.2398	0.1406	0.020472	0.33382	0.37146	0.18039	0.11818	0.16308	-2.4542	-2.8542	-1.9979	-3.2292	-2.4479	-2.3312	-3.1292	-2.3812	-3.0542	-2.8771	-2.3646	-3.1188	-2.6271	-2.4104	-3.1875	-2.4437	60.252	137.982	268.609	-72.305	-55.079	242.740	188.226	238.219	92.942	201.370	87.660	234.988	144.288	-59.080	66.313	-80.561	0.00020319	0.00046087	0.00014273	1503	3.1994e-06	5.2727e-06	1495.9	396.02	2.7726e-06	5.7086e-06	446.63	151.59	133.58	45.876	4.3917e-06	55.265	0.00032191	0.00021855	6.4248e-05	1516.6	2.9865e-06	2.3981e-06	1514.5	403.12	2.8966e-06	2.3223e-06	454.86	155.21	136.56	46.88	2.5964e-06	56.82	160.923	-1.728	3.534	-74.322	36.963	49.822	-74.609	-70.061	17.896	70.945	-70.547	-66.385	-66.115	-60.862	51.964	-61.696	-8191	255	
2456.499	1	1	0	0	0.27691	0.30341	0.16878	0.44666	0.10251	0.20263	0.26915	0.4307	0.14744	0.26466	0.11615	0.29946	0.28368	0.28462	0.059274	0.09854	-2.2479	-3.0146	-2.1583	-3.1708	-2.3021	-2.5104	-3.2188	-2.5708	-2.5979	-3.0021	-2.2417	-3.1417	-2.9042	-2.4271	-3.0917	-2.5125	168.889	118.058	199.537	207.959	43.913	269.151	221.967	271.790	-25.774	135.513	-22.209	260.615	211.818	268.238	246.663	122.963	0.00022411	0.00046506	0.00013107	1492	3.9613e-06	5.2212e-06	1486.1	395.39	2.3163e-06	4.5154e-06	447.14	151.7	132.78	45.616	3.6545e-06	55.564	0.00030873	0.00021417	6.3479e-05	1509.4	3.0521e-06	2.3507e-06	1508.2	401.86	2.995e-06	2.2062e-06	454.11	155.02	136.01	46.753	2.4742e-06	56.838	158.128	-0.142	4.063	-74.372	53.411	71.761	-74.694	-70.013	28.789	64.846	-70.476	-66.547	-65.888	-61.224	52.839	-61.806	-8191	255	
2456.618	1	1	0	0	0.19027	0.16226	0.069338	0.29227	0.096261	0.32156	0.18542	0.10971	0.15527	0.11859	0.097638	0.47556	0.11273	0.030966	0.22023	0.20796	-2.3229	-2.9813	-2.0708	-3.1063	-2.625	-2.2083	-3.2333	-2.5708	-2.7083	-3.2167	-2.3312	-2.8542	-2.7667	-2.4562	-3.0854	-2.5729	226.813	155.092	3.020	249.839	181.185	108.941	202.035	175.715	-15.173	223.028	212.421	240.880	172.106	20.240	203.230	163.550	0.00019602	0.00044138	0.00011245	1499.6	3.2314e-06	4.8725e-06	1489.8	396.92	2.7949e-06	5.2345e-06	449.39	152.6	133.36	45.572	3.485e-06	55.686	0.00032137	0.00019811	6.4662e-05	1514.1	2.7871e-06	2.5158e-06	1513.6	402.97	3.1067e-06	2.2797e-06	454.99	155.43	136.11	46.704	2.5874e-06	56.855	155.192	12.129	9.757	-74.332	79.747	72.071	-74.847	-69.953	44.041	62.555	-70.429	-66.494	-65.778	-60.855	54.110	-61.933	-8191	255	
2456.714	1	1	0	0	0.18674	0.19843	0.031306	0.36379	0.20731	0.15785	0.24334	0.26366	0.11592	0.35424	0.29029	0.11034	0.11267	0.21124	0.19526	0.27558	-1.8896	-3.0375	-2.0083	-2.9833	-2.8396	-2.2375	-3.3104	-2.6208	-2.3583	-2.9833	-2.4958	-2.7417	-3.1167	-2.1729	-2.8833	-2.7542	-45.745	-5.381	15.405	204.081	220.092	60.475	169.955	137.176	-85.849	-68.328	197.727	-33.209	252.716	-79.418	193.334	194.172	0.00021801	0.00044526	0.00013749	1493.2	2.3331e-06	5.6176e-06	1491.6	396.08	2.5746e-06	5.0175e-06	446.62	150.96	132.64	45.536	2.9079e-06	55.006	0.00032345	0.00023019	6.4218e-05	1512.3	2.8501e-06	2.502e-06	1513.4	402.57	3.1588e-06	2.2002e-06	454.42	154.93	135.89	46.727	2.6384e-06	56.714	153.634	2.708	0.639	-74.439	56.415	66.621	-74.697	-70.220	28.623	54.202	-70.629	-66.329	-65.984	-61.175	53.772	-61.884	-8191	255	
2456.810	1	1	0	0	0.0867	0.21531	0.15389	0.22538	0.17837	0.13272	0.22063	0.2173	0.060453	0.14201	0.19522	0.28047	0.21527	0.22435	0.0052451	0.16851	-2	-2.9062	-2.2229	-2.7167	-3.0458	-2.3875	-2.9792	-2.8083	-2.2521	-3.0438	-2.4938	-2.6063	-3.2583	-2.2167	-2.8125	-2.8208	146.648	213.841	-36.359	259.537	179.274	226.247	182.343	149.566	241.326	265.729	234.595	-48.706	267.230	261.394	267.001	169.299	0.00020695	0.00041839	0.00012416	1495.8	3.2787e-06	4.87e-06	1490.5	395.05	2.3039e-06	4.1583e-06	446.62	150.2	132.14	45.505	4.3365e-06	55.146	0.00032562	0.0002248	6.2991e-05	1514	2.9849e-06	2.5056e-06	1516.2	401.98	3.1393e-06	2.2609e-06	454.14	154.6	135.85	46.669	2.7707e-06	56.689	158.808	10.077	-6.407	-74.427	60.205	61.969	-74.651	-70.078	21.775	61.210	-70.545	-66.315	-66.076	-61.070	63.583	-62.061	-8191	255	
2456.906	1	1	0	0	0.071109	0.22292	0.13908	0.14025	0.064866	0.066187	0.33203	0.061772	0.20451	0.11802	0.19682	0.069995	0.19649	0.065583	0.27116	0.18288	-2.0021	-3.0271	-2.4667	-2.6021	-3.0021	-2.3979	-3.0896	-2.8875	-2.1875	-3.1562	-2.6354	-2.5333	-3.1542	-2.375	-2.9042	-2.8208	-75.730	120.436	-10.494	240.154	56.869	108.601	234.152	-78.156	246.681	77.797	241.403	257.112	-88.260	208.666	-22.250	72.120	0.0002228	0.00053074	0.00012986	1500.4	3.306e-06	5.4968e-06	1495.9	395.79	2.4284e-06	5.3142e-06	449.14	150.68	132.71	45.556	3.2402e-06	55.022	0.00033362	0.00022186	6.4972e-05	1515.6	2.9886e-06	2.508e-06	1515.8	402.36	3.2705e-06	2.1838e-06	454.83	155.13	135.97	46.704	2.6098e-06	56.66	158.186	10.753	15.264	-74.361	49.147	73.766	-74.632	-70.281	45.311	64.445	-70.388	-66.433	-66.152	-60.911	54.303	-62.039	-8191	255	
2457.027	1	1	0	0	0.11367	0.23461	0.2143	0.44642	0.17654	0.35377	0.27038	0.11808	0.20375	0.079661	0.16639	0.068029	0.22673	0.3055	0.12571	0.10135	-1.8	-3.1292	-2.5417	-2.6583	-2.9771	-2.2604	-2.9708	-3.0542	-2.2062	-2.9958	-2.6604	-2.4854	-3.1333	-2.4688	-2.6312	-3.0854	143.675	127.682	96.379	-45.973	99.536	144.994	227.697	-35.180	63.232	215.845	-36.407	-36.285	-77.278	-50.838	217.407	221.406	0.00022567	0.00049074	0.00012511	1503.9	2.7743e-06	4.6703e-06	1492	395.51	1.6559e-06	4.6391e-06	445.69	151.57	132.62	45.579	3.6535e-06	55.311	0.00032797	0.00022816	6.3937e-05	1517.6	2.7772e-06	2.4287e-06	1516	402.66	3.1367e-06	2.4146e-06	454.2	155.13	135.99	46.736	2.8947e-06	56.751	160.298	9.441	10.319	-74.528	59.805	59.167	-74.754	-70.088	37.684	65.863	-70.740	-66.158	-65.869	-61.093	54.956	-61.901	-8191	255	
2457.098	1	1	0	0	0.18393	0.28046	0.060021	0.34624	0.080553	0.27638	0.1541	0.22829	0.23567	0.17108	0.20744	0.087026	0.094688	0.082623	0.20524	0.092603	-1.6354	-2.9146	-2.6271	-2.3479	-3.0708	-2.3958	-2.8979	-3.3375	-2.2208	-2.8729	-2.8792	-2.4875	-3.2229	-2.4854	-2.4208	-3.0812	78.905	-57.587	-84.502	220.346	220.067	69.651	182.746	-66.879	118.821	198.208	220.441	257.587	7.227	222.789	66.947	133.831	0.00023077	0.00055304	0.00014264	1498.5	2.6688e-06	5.8336e-06	1495.6	395.95	3.0911e-06	4.8757e-06	446.51	151.37	133.45	45.452	3.1356e-06	55.352	0.00033139	0.00022821	6.407e-05	1519.1	2.8058e-06	2.5842e-06	1518.4	402.85	3.1409e-06	2.4328e-06	454.89	155.18	136.2	46.766	2.7629e-06	56.783	157.557	1.310	6.193	-74.357	54.573	66.580	-74.625	-70.171	35.444	73.808	-70.503	-66.818	-65.783	-61.192	73.836	-61.890	-8191	255	
2457.219	1	1	0	0	0.10396	0.10611	0.045271	0.36757	0.25699	0.10159	0.25714	0.2113	0.17951	0.022989	0.1224	0.21815	0.29516	0.051913	0.21921	0.22967	-1.8625	-3.0292	-2.8521	-2.4896	-3.1021	-2.5417	-2.6688	-3.3583	-2.2292	-2.7896	-3.0229	-2.4375	-2.9833	-2.6458	-2.4	-3.3229	-53.901	140.095	243.683	235.533	0.432	119.747	212.801	228.741	219.359	205.332	174.421	-71.978	-76.376	225.679	50.146	167.288	0.00021025	0.00047863	0.00014125	1502.8	2.9446e-06	6.0341e-06	1497.5	396.43	2.2913e-06	5.5592e-06	446.37	150.73	132.32	45.6	4.1607e-06	55.413	0.00032414	0.00021407	7.0087e-05	1518.1	2.9917e-06	2.4755e-06	1516	402.82	3.1725e-06	2.4808e-06	454.35	154.87	135.82	46.647	2.9356e-06	56.755	160.610	8.395	-2.462	-74.461	48.863	68.048	-74.768	-70.173	48.820	57.052	-70.576	-66.454	-65.906	-61.061	46.152	-61.735	-8191	255	
2457.313	1	1	0	0	0.32939	0.085827	0.15288	0.22389	0.13095	0.20217	0.1195	0.26615	0.12474	0.1287	0.22051	0.29434	0.11991	0.1683	0.0051115	0.085072	-2.1583	-2.7729	-2.7771	-2.35	-2.8229	-2.6688	-2.5229	-3.2354	-2.2979	-2.3937	-3.2104	-2.3021	-3.1854	-2.6604	-2.2354	-3.1979	131.839	214.597	59.618	222.778	106.915	42.881	-57.879	199.686	190.339	255.894	183.592	242.971	-84.310	257.249	10.069	149.453	0.00021661	0.00046523	0.00015749	1504	2.9988e-06	5.4581e-06	1500.4	395.53	2.5421e-06	5.3535e-06	448.32	151.59	132.83	45.66	4.0491e-06	55.438	0.00033437	0.00022394	6.5253e-05	1517.7	2.936e-06	2.3813e-06	1515	402.47	3.0561e-06	2.5567e-06	455.32	155.16	135.95	46.792	2.8178e-06	56.827	157.055	7.873	1.664	-74.456	75.456	73.908	-74.672	-70.089	41.986	64.943	-70.696	-66.468	-65.767	-61.186	51.561	-61.842	-8191	255	
2457.409	1	1	0	0	0.1907	0.11374	0.16969	0.21992	0.17804	0.070872	0.43116	0.080221	0.14859	0.20345	0.38481	0.13782	0.13867	0.050732	0.20905	0.20248	-2.05	-2.6396	-2.825	-2.3333	-2.9792	-2.7271	-2.4688	-3.1604	-2.4042	-2.5687	-2.9521	-2.3438	-3.1229	-2.8604	-2.3812	-3.1542	30.489	-67.492	251.251	249.758	99.025	50.367	249.194	239.996	-64.636	208.155	-62.514	-0.453	18.868	243.184	149.701	253.569	0.00023571	0.00053222	0.00012978	1498.6	3.6106e-06	4.8687e-06	1493.6	394.31	2.9242e-06	4.9992e-06	446.48	150.9	132.55	45.578	5.0327e-06	55.474	0.00032229	0.0002304	6.2429e-05	1517.1	2.8652e-06	2.3201e-06	1514.8	401.95	3.043e-06	2.4334e-06	454.38	155.07	136.19	46.791	3.0572e-06	56.787	158.703	1.960	8.789	-74.471	63.943	59.364	-74.939	-70.001	44.471	58.009	-70.533	-66.368	-65.985	-61.220	65.607	-61.810	-8191	255	
2457.506	1	1	0	0	0.17953	0.33352	0.2658	0.31866	0.096118	0.24321	0.22741	0.12948	0.14578	0.10519	0.11292	0.31581	0.27934	0.23987	0.23595	0.31095	-2.0062	-2.3937	-3.0396	-2.5583	-2.7938	-2.8125	-2.3	-3.2417	-2.7167	-2.2771	-3.3375	-2.3583	-2.7646	-2.9833	-1.9583	-2.9958	76.505	41.851	-79.283	205.862	228.861	15.114	146.344	-1.233	252.131	43.582	-83.231	-76.853	247.256	-54.857	-87.293	153.816	0.00021415	0.0004895	0.0001225	1498.1	3.4207e-06	4.7818e-06	1490.4	395.62	2.2323e-06	5.3246e-06	448.29	151.44	133.09	45.573	3.9999e-06	55.536	0.00031337	0.00024343	6.1335e-05	1519.1	2.9828e-06	2.3939e-06	1515.1	402.69	2.9598e-06	2.5179e-06	454.87	155.19	136.23	46.752	2.9098e-06	56.917	159.010	-0.151	14.405	-74.370	48.396	69.879	-74.848	-70.015	45.744	70.721	-70.520	-66.427	-65.772	-61.107	69.022	-61.689	-8191	255	
2457.626	1	1	0	0	0.14943	0.31321	0.034836	0.10971	0.1331	0.15944	0.213	0.13914	0.12603	0.2341	0.15705	0.048935	0.28113	0.17213	0.21977	0.19479	-2.2458	-2.1396	-3.0667	-2.5083	-2.5646	-2.9562	-2.3208	-3.0854	-2.8292	-2.4188	-3.2167	-2.3542	-2.7562	-2.9938	-2.2208	-2.9229	-86.969	200.471	138.316	150.142	-77.804	124.345	238.471	-79.552	223.960	33.293	237.395	-39.695	270.115	149.872	162.024	260.324	0.00022588	0.00054743	0.00013691	1504.4	4.4507e-06	5.8755e-06	1491.9	394.65	2.0927e-06	5.5554e-06	447.77	151.23	133.37	45.603	4.4245e-06	55.633	0.00031679	0.00024642	6.0463e-05	1518.5	3.1093e-06	2.4017e-06	1517	402.63	2.9271e-06	2.6837e-06	455.3	155.38	136.35	46.793	2.9496e-06	56.886	161.789	-2.802	3.425	-74.439	52.432	71.930	-74.674	-70.023	40.037	78.211	-70.580	-66.281	-65.789	-61.189	60.980	-61.938	-8191	255	
2457.722	1	1	0	0	0.11651	0.25853	0.081114	0.12474	0.18885	0.11935	0.07226	0.16905	0.10143	0.13394	0.22963	0.21766	0.3131	0.12631	0.12533	0.24001	-2.3812	-2.1167	-3.0083	-2.6333	-2.5146	-3.0417	-2.4583	-3.0417	-2.6875	-2.2542	-3.1833	-2.4396	-2.4292	-3.225	-2.0896	-2.8688	59.624	62.540	210.466	225.554	186.506	-38.287	204.133	188.629	217.864	-51.617	110.683	205.673	204.112	-71.747	89.263	-75.462	0.00022687	0.0005401	0.00011956	1499.7	3.3681e-06	4.7537e-06	1489.6	394.5	2.9367e-06	4.9223e-06	448.02	150.96	132.66	45.612	3.5093e-06	55.513	0.00031985	0.00024583	5.7536e-05	1517.2	2.9912e-06	2.2516e-06	1515.2	402.38	3.0825e-06	2.5974e-06	455.45	155.16	136.21	46.799	2.8072e-06	56.877	165.123	6.056	3.668	-74.553	55.751	78.338	-74.780	-70.086	22.185	59.232	-70.251	-66.475	-65.884	-61.072	53.618	-61.566	-8191	255	
2457.794	1	1	0	0	0.13408	0.13448	0.32797	0.066484	0.054633	0.17651	0.38524	0.14167	0.050699	0.25687	0.069608	0.16192	0.22162	0.040276	0.089776	0.13659	-2.4479	-2.0604	-3.0479	-2.5958	-2.3375	-3.1771	-2.3937	-2.7938	-2.925	-2.1396	-3.0271	-2.5938	-2.3958	-3.3208	-2.1375	-2.8021	-73.172	-64.661	202.805	-9.551	-51.526	-37.772	253.918	270.420	-76.570	-74.503	270.263	197.128	228.771	98.892	-77.777	-54.967	0.00021988	0.00050659	0.00016444	1496.8	4.1719e-06	5.9111e-06	1493.8	394.31	2.2096e-06	5.9445e-06	447.63	150.77	132.93	45.518	3.9764e-06	55.455	0.00031783	0.00023387	6.4617e-05	1515.2	2.9886e-06	2.1694e-06	1514.8	402.47	2.9777e-06	2.6193e-06	455.14	154.73	136.32	46.715	2.8862e-06	56.792	156.649	7.402	-2.427	-74.599	47.115	72.550	-74.560	-69.939	52.352	56.383	-70.612	-66.331	-65.884	-60.960	61.583	-61.930	-8191	255	
2457.915	1	1	0	0	0.071011	0.19685	0.060361	0.35028	0.18871	0.22876	0.22716	0.26745	0.11407	0.12013	0.21644	0.21102	0.14787	0.0514	0.20947	0.21291	-2.6708	-2.0542	-2.8104	-2.8146	-2.2833	-3.1542	-2.5938	-2.4729	-2.7729	-2.1562	-3.0625	-2.8083	-2.1146	-3.0896	-2.4292	-2.4646	4.687	103.155	-43.388	270.876	110.199	70.264	268.053	220.024	113.083	-78.584	175.074	120.936	82.061	266.004	181.373	136.047	0.00021951	0.00047062	0.00013335	1500.5	2.6577e-06	5.9329e-06	1495.5	394.89	2.608e-06	4.9016e-06	447.15	151.68	132.94	45.665	3.5159e-06	55.281	0.0003231	0.00023649	6.203e-05	1515.8	3.0604e-06	2.2126e-06	1515.1	402.06	2.9603e-06	2.5239e-06	454.91	155.52	136.1	46.796	2.7315e-06	56.84	159.837	6.751	19.353	-74.415	63.646	61.790	-74.744	-69.982	42.672	72.931	-70.676	-66.331	-65.688	-61.269	57.756	-61.435	-8191	255	
2458.011	1	1	0	0	0.19339	0.23701	0.14596	0.25204	0.04675	0.41066	0.26487	0.12911	0.16881	0.21004	0.26853	0.20737	0.11779	0.10188	0.17691	0.26957	-2.6667	-2.2083	-2.8063	-2.9583	-2.275	-3.0167	-2.7625	-2.7542	-3.1667	-2.2646	-2.9188	-2.9625	-2.3438	-3.1542	-2.7292	-2.5375	126.563	104.495	179.953	264.455	138.230	241.847	-76.108	202.440	-72.411	153.783	177.235	-72.003	188.838	268.738	124.435	236.735	0.00021836	0.00047875	0.00012282	1498.5	3.3731e-06	5.3807e-06	1493	395.3	2.2883e-06	6.0196e-06	447.38	151.07	132.78	45.777	2.5828e-06	55.89	0.00032672	0.00023942	6.1291e-05	1517.1	3.1812e-06	2.2901e-06	1515.8	402.47	2.9882e-06	2.5616e-06	454.54	155.09	136.14	46.898	2.662e-06	56.896	157.796	5.286	9.893	-74.452	54.738	66.716	-74.773	-70.004	46.263	60.392	-70.315	-66.493	-65.760	-61.013	55.567	-61.537	-8191	255	
2458.107	1	1	0	0	0.16993	0.22719	0.11667	0.2518	0.12156	0.16391	0.22999	0.21673	0.02079	0.11832	0.17401	0.086958	0.34232	0.056691	0.22276	0.29612	-2.6396	-2.075	-2.5458	-3.0687	-2.2833	-3.0167	-2.6688	-2.3896	-3.1479	-2.3667	-2.8396	-3.1208	-2.3042	-2.9938	-2.7583	-2.3729	267.011	84.938	-60.747	211.894	246.090	147.359	211.500	-69.347	137.509	166.641	-48.416	258.490	204.423	179.309	-21.864	114.834	0.00021989	0.00062806	0.00012648	1499.7	3.5843e-06	4.7067e-06	1481.9	396.45	2.7066e-06	5.0854e-06	447.2	151.24	133.24	45.68	3.7003e-06	55.603	0.00031718	0.00024519	6.1661e-05	1515.5	3.101e-06	2.2871e-06	1512.5	402.6	2.8597e-06	2.2567e-06	454.31	155.18	136.21	46.785	2.7483e-06	56.863	158.421	10.776	13.868	-74.620	57.689	66.386	-74.831	-70.165	28.079	76.154	-70.607	-66.612	-65.778	-61.110	62.573	-61.443	-8191	255	
2458.201	1	1	0	0	0.28926	0.05198	0.23526	0.089878	0.27091	0.28233	0.34512	0.23184	0.059435	0.32399	0.051754	0.1094	0.044374	0.041757	0.18559	0.22946	-2.7604	-2.275	-2.5563	-3.0208	-2.1042	-2.8146	-2.7958	-2.3417	-3.2104	-2.5917	-2.6896	-3.2417	-2.4875	-2.9771	-2.7375	-2.3875	230.956	95.978	-81.395	-30.822	157.666	-55.222	229.013	231.292	-64.666	110.048	67.253	21.209	213.185	199.768	245.780	190.463	0.00024572	0.0006548	0.00015045	1496.1	2.6517e-06	5.1934e-06	1492.9	394.36	2.5746e-06	5.9539e-06	449.12	151.1	133.32	45.529	3.3163e-06	55.492	0.00031977	0.00024337	6.7056e-05	1516.6	3.0328e-06	2.3111e-06	1514.5	402.54	2.8102e-06	2.3119e-06	455.2	154.84	136.35	46.755	2.6906e-06	56.791	156.774	-4.999	10.189	-74.414	47.366	73.906	-74.740	-70.090	28.924	62.103	-70.542	-66.384	-65.915	-61.065	57.072	-61.675	-8191	255	
2458.322	1	1	0	0	0.049705	0.084075	0.15101	0.099433	0.23326	0.12512	0.18	0.43382	0.18567	0.19131	0.22266	0.04693	0.16212	0.051326	0.20323	0.2873	-2.8146	-2.5042	-2.3104	-3.2208	-2.1396	-2.8229	-3.1208	-2.3125	-3.0667	-2.7146	-2.3229	-3.2062	-2.3542	-2.95	-3.0958	-2.2917	-25.036	83.583	17.306	186.103	88.130	-70.443	121.344	251.518	117.187	93.018	171.402	122.183	-63.075	210.693	103.313	240.908	0.00021121	0.00049535	0.00014785	1503.6	2.8668e-06	5.0047e-06	1496.4	395.35	2.7651e-06	6.0506e-06	447.25	151.19	133.22	45.877	3.1929e-06	55.454	0.00030219	0.00022501	6.5209e-05	1518.4	3.001e-06	2.4143e-06	1517.7	402.61	2.9966e-06	2.5494e-06	455.16	155.37	136.22	46.867	2.7052e-06	56.852	157.944	-4.843	2.653	-74.367	63.639	61.967	-74.817	-69.782	46.280	63.412	-70.594	-66.274	-65.888	-60.997	61.492	-61.608	-8191	255	
2458.394	1	1	0	0	0.12065	0.17841	0.18901	0.094679	0.13674	0.13751	0.23848	0.30708	0.11922	0.20656	0.029681	0.25321	0.11112	0.20576	0.059675	0.29571	-2.5479	-2.5438	-2.3521	-3.2854	-2.3708	-2.5625	-3.2167	-2.4562	-2.8208	-2.6958	-2.3875	-3.1688	-2.4542	-2.6708	-2.8854	-2.2333	-87.042	70.280	247.876	223.222	-8.293	192.121	187.313	218.292	243.142	29.466	-23.166	202.975	-36.664	-71.674	-26.260	175.648	0.00022643	0.00052506	0.00011337	1501.6	3.3885e-06	7.0901e-06	1499.7	396.93	1.2683e-06	5.8439e-06	449.51	151.63	132.91	45.856	3.2297e-06	55.661	0.00031765	0.00022554	6.2592e-05	1517.4	3.0078e-06	2.5674e-06	1519.2	403.18	2.7444e-06	2.4638e-06	455.84	155.5	136.19	46.818	2.5728e-06	56.954	159.283	6.250	4.421	-74.459	51.096	51.223	-74.749	-69.976	29.788	68.557	-70.593	-66.248	-65.863	-60.967	51.023	-61.833	-8191	255	
2458.490	1	1	0	0	0.26716	0.17906	0.16335	0.16193	0.043949	0.077786	0.19225	0.41117	0.31658	0.23867	0.063282	0.24979	0.18223	0.16361	0.13635	0.16204	-2.6375	-2.8146	-2.2208	-3.3187	-2.4396	-2.425	-3.1979	-2.3125	-2.9625	-2.7438	-2.3708	-3.2	-2.7167	-2.4437	-3.0458	-2.3271	116.013	264.114	-49.297	-18.490	-49.966	247.330	242.445	244.604	56.493	-14.231	208.435	151.943	252.490	-85.366	8.321	170.818	0.000222	0.00043349	0.00015069	1502.5	3.3268e-06	4.4367e-06	1500	395.53	2.0352e-06	4.9457e-06	448.47	150.93	133.38	45.574	3.7619e-06	55.125	0.0003236	0.00021892	6.4425e-05	1520.2	3.0713e-06	2.4035e-06	1518.4	402.6	2.9203e-06	2.4693e-06	455.58	155.06	136.36	46.82	2.6805e-06	56.77	159.318	6.965	-0.934	-74.573	67.730	75.781	-74.821	-69.954	17.992	61.809	-70.604	-66.342	-65.673	-61.015	58.656	-61.672	-8191	255	
2458.586	1	1	0	0	0.19897	0.090697	0.21786	0.10632	0.078641	0.11941	0.43719	0.33244	0.071118	0.20852	0.24392	0.13822	0.11658	0.42432	0.28688	0.17712	-2.3625	-2.9229	-2.175	-3.2229	-2.5292	-2.45	-3.3354	-2.4375	-2.6708	-2.8479	-2.3271	-3.1125	-2.6604	-2.5646	-3.075	-2.4	-40.441	243.832	204.822	46.624	253.872	89.306	195.114	230.609	262.418	227.896	246.374	201.091	-24.901	171.271	65.862	141.913	0.00021079	0.00053649	0.00013887	1505	2.7419e-06	5.586e-06	1502.5	396.7	2.6306e-06	5.1707e-06	448.58	151.56	133.37	45.816	3.4813e-06	55.686	0.00032286	0.00023686	7.0176e-05	1518.1	2.9589e-06	2.562e-06	1519.8	402.89	3.0203e-06	2.3866e-06	455.61	155.18	136.24	46.832	2.745e-06	56.937	158.474	7.854	5.603	-74.414	56.651	65.293	-74.774	-70.005	29.035	60.763	-70.295	-66.506	-65.841	-60.999	53.330	-61.477	-8191	255	
2458.707	1	1	0	0	0.17727	0.1401	0.34249	0.21379	0.080256	0.066056	0.22176	0.088561	0.2242	0.063171	0.020265	0.14172	0.21635	0.31331	0.22547	0.14143	-2.4	-2.8167	-2.2646	-3.1458	-2.8479	-2.2729	-3.275	-2.7875	-2.6542	-3.0896	-2.2458	-2.9604	-2.8563	-2.1437	-3.0958	-2.5187	25.325	108.004	102.865	206.247	-66.442	-67.977	-68.399	267.050	66.156	-67.096	169.403	-86.555	227.798	-58.075	39.110	214.593	0.00021008	0.00048939	0.00013696	1503.8	2.5043e-06	4.7475e-06	1496.4	396.32	1.9542e-06	4.9365e-06	449.31	151.68	133.08	45.479	4.4922e-06	55.43	0.00032223	0.00021578	6.4455e-05	1520.5	2.9355e-06	2.6472e-06	1519.1	403.1	3.0361e-06	2.3265e-06	455.4	155.42	136.26	46.731	2.6911e-06	56.842	157.498	-10.598	9.013	-74.260	53.540	61.025	-74.835	-70.064	41.779	61.800	-70.475	-66.055	-65.750	-60.915	49.348	-61.922	-8191	255	
2458.803	1	1	0	0	0.37635	0.038013	0.10613	0.01614	0.10758	0.20319	0.21534	0.28047	0.32263	0.16772	0.16914	0.11074	0.14965	0.33774	0.12272	0.12325	-1.9354	-2.9333	-2.0792	-3.1375	-2.9354	-2.2542	-3.1083	-2.65	-2.2833	-3.2167	-2.4104	-2.6917	-2.8875	-2.0854	-2.9521	-2.5104	251.129	-22.517	-44.821	236.737	258.279	-70.352	207.901	216.681	-7.272	-64.237	179.824	238.544	131.979	-78.757	-74.216	187.881	0.00022165	0.00054453	0.00014518	1504.4	3.1236e-06	5.8614e-06	1498.6	394.98	1.5138e-06	6.332e-06	450.32	151.86	132.69	45.708	3.1503e-06	55.599	0.00032916	0.00022725	6.8535e-05	1521.8	2.9844e-06	2.6436e-06	1522	403.11	3.083e-06	2.3933e-06	456.74	155.46	136.27	46.838	2.6547e-06	56.951	158.663	2.097	-0.772	-74.313	46.953	64.512	-74.737	-70.069	43.577	60.423	-70.631	-66.397	-65.978	-60.985	63.167	-61.779	-8191	255	
2458.899	1	1	0	0	0.12276	0.029554	0.072757	0.13672	0.24409	0.13081	0.10636	0.34439	0.18525	0.14889	0.17601	0.23773	0.088402	0.17564	0.11496	0.15164	-1.8917	-3.2146	-2.1729	-2.95	-2.975	-2.2625	-3.1208	-2.8146	-2.3937	-3.0438	-2.4542	-2.7021	-3.1021	-2.325	-2.7604	-3.0146	-44.856	51.949	250.107	-87.159	-52.987	61.772	198.837	200.570	66.009	17.820	209.031	261.341	15.230	264.863	102.074	216.380	0.00019391	0.00060517	0.00013131	1508.4	2.5211e-06	4.9692e-06	1502.5	395.72	1.8312e-06	5.778e-06	448.89	150.7	132.88	45.636	3.8826e-06	55.316	0.00032363	0.00022592	6.5002e-05	1523.6	2.9974e-06	2.502e-06	1524.4	402.88	3.1214e-06	2.3338e-06	455.8	155.11	136.36	46.814	2.7394e-06	56.851	156.315	5.879	2.338	-74.339	56.730	82.901	-74.529	-70.134	31.251	66.499	-70.564	-66.159	-65.826	-60.843	52.987	-61.684	-8191	255	
2458.995	1	1	0	0	0.11152	0.068517	0.31785	0.29801	0.052798	0.19805	0.34355	0.28259	0.25269	0.036027	0.27323	0.25571	0.13301	0.17986	0.15821	0.21338	-1.6771	-3.025	-2.3021	-2.6208	-3.0583	-2.3187	-3.0542	-2.9958	-2.2167	-3.2167	-2.4813	-2.3812	-3.1146	-2.3	-2.9188	-2.8625	162.804	28.352	-4.360	182.077	-35.722	29.735	240.017	196.180	171.011	-48.508	208.946	-69.158	265.471	189.146	217.555	166.887	0.00021223	0.00050692	0.00013967	1502.6	2.4967e-06	4.818e-06	1498.6	394.94	2.632e-06	6.0064e-06	446.87	152.24	133.18	45.692	3.5774e-06	55.385	0.00033291	0.00022218	6.6243e-05	1521.7	3.0505e-06	2.5788e-06	1523.1	402.9	3.1067e-06	2.4049e-06	454.81	155.9	136.33	46.803	2.8403e-06	56.897	157.008	4.171	5.105	-74.477	56.384	69.488	-74.733	-70.069	30.744	56.475	-70.534	-66.506	-65.872	-60.902	47.609	-61.729	-8191	255	
2459.091	1	1	0	0	0.43549	0.084839	0.074238	0.34052	0.083822	0.10432	0.13165	0.18912	0.27454	0.096925	0.060404	0.15843	0.25041	0.074404	0.15381	0.10523	-1.7	-2.9875	-2.5333	-2.7729	-3.2458	-2.2	-3.0375	-2.9292	-2.1958	-3.2104	-2.8083	-2.5375	-3.2146	-2.4604	-2.7125	-3.1708	234.065	7.089	63.626	242.059	5.244	-43.347	254.110	-67.937	4.544	40.713	119.829	-87.401	229.146	-61.414	-18.357	234.063	0.00022614	0.00041339	0.00012309	1505	3.7209e-06	4.7045e-06	1497.1	394.38	2.2293e-06	5.8446e-06	448.18	151	132.76	45.619	4.1222e-06	55.486	0.00032467	0.0002178	6.203e-05	1519.7	2.975e-06	2.5272e-06	1518.7	402.44	3.0904e-06	2.3204e-06	455	155.43	136.25	46.765	2.7663e-06	56.876	159.499	-0.408	6.746	-74.261	57.175	64.010	-74.582	-70.137	47.600	59.885	-70.758	-66.209	-65.756	-61.045	60.343	-61.823	-8191	255	
2459.187	1	1	0	0	0.21531	0.29376	0.23607	0.2204	0.21871	0.15125	0.18975	0.2336	0.29211	0.055458	0.30225	0.040489	0.073206	0.23244	0.14833	0.1794	-1.65	-2.825	-2.6042	-2.3854	-3.125	-2.4875	-2.8583	-3.1271	-2.1562	-2.9792	-2.7958	-2.1917	-3.0708	-2.5417	-2.6167	-3.2313	167.653	267.888	36.348	256.299	-79.448	257.191	121.424	-17.792	-33.933	235.656	225.479	137.670	-46.294	252.771	-75.867	210.281	0.00022673	0.00057556	0.00013327	1500.5	2.5517e-06	5.8633e-06	1499.4	395.46	3.1198e-06	4.2516e-06	450.04	150.98	133.67	45.74	3.6986e-06	55.483	0.00032283	0.00023403	6.2828e-05	1521.1	2.9381e-06	2.3375e-06	1520.5	403.29	3.2989e-06	2.434e-06	456.29	155.43	136.68	46.854	2.7769e-06	56.973	163.541	3.598	-2.667	-74.346	68.739	60.598	-74.545	-70.108	36.956	71.191	-70.536	-66.114	-65.801	-60.785	46.428	-61.737	-8191	255	
2459.306	1	1	0	0	0.091371	0.09398	0.01591	0.27639	0.15265	0.05945	0.26617	0.20411	0.17755	0.27005	0.27933	0.23157	0.18087	0.030492	0.08331	0.089241	-1.7792	-2.8792	-2.7438	-2.4188	-3.1458	-2.45	-2.6729	-3.3438	-2.5125	-2.8479	-2.9917	-2.3187	-3.1688	-2.6208	-2.4313	-3.2833	86.659	86.497	58.923	190.423	203.251	79.374	262.537	224.513	99.390	225.398	172.093	262.948	237.561	191.709	-8.105	123.693	0.00023195	0.00053198	0.00011532	1505.1	3.1102e-06	5.5256e-06	1498.3	396.58	2.8797e-06	4.3353e-06	449.67	152.37	134.2	45.876	3.576e-06	55.644	0.00032327	0.00022715	6.5135e-05	1523	2.961e-06	2.4431e-06	1521.2	403.59	3.2073e-06	2.3344e-06	455.99	155.83	136.72	46.898	2.9227e-06	56.953	158.112	9.404	7.867	-74.511	53.567	69.369	-74.648	-69.984	23.798	65.943	-70.212	-66.190	-65.830	-60.889	58.708	-61.698	-8191	255	
2459.402	1	1	0	0	0.11209	0.092501	0.31304	0.094366	0.19124	0.021581	0.23222	0.38195	0.21807	0.17863	0.07165	0.27191	0.37761	0.092343	0.1754	0.24641	-1.7375	-2.7958	-2.8979	-2.3667	-3.0354	-2.5167	-2.475	-3.25	-2.3187	-2.7125	-3.0083	-2.3875	-3.1521	-2.9292	-2.4646	-3.175	47.097	98.802	-82.418	153.246	-15.479	2.151	261.125	235.932	30.557	-18.718	44.021	-68.439	-85.467	-12.018	-53.333	227.213	0.00022726	0.00052149	0.00012601	1504.8	3.0401e-06	4.178e-06	1500.6	395.27	2.8298e-06	6.1897e-06	450.74	151.1	132.97	45.629	4.1248e-06	55.665	0.00032571	0.00023355	6.2636e-05	1521	2.9625e-06	2.4053e-06	1522.4	403.31	3.162e-06	2.5124e-06	456.83	155.63	136.61	46.766	2.944e-06	57.015	159.954	12.127	12.358	-74.409	53.551	57.601	-74.647	-70.114	32.482	70.497	-70.702	-66.519	-65.784	-60.936	66.597	-61.785	-8191	255	
2459.499	1	1	0	0	0.036012	0.044732	0.23702	0.22664	0.14522	0.18233	0.18983	0.18345	0.29465	0.096986	0.054836	0.059407	0.18385	0.19346	0.040974	0.14794	-1.8604	-2.5812	-3.05	-2.4667	-2.8125	-2.6354	-2.5354	-3.1854	-2.3979	-2.6063	-3.2208	-2.3937	-2.9583	-2.8917	-2.2396	-3.2792	-60.180	221.841	193.678	242.656	267.785	80.582	236.950	177.716	-33.378	268.848	241.644	188.670	-79.992	-66.786	80.139	224.517	0.00021317	0.00052003	0.00012713	1503.4	3.8584e-06	5.1602e-06	1497.2	395.95	2.1584e-06	5.3336e-06	449.31	151.42	133.6	45.722	3.8407e-06	55.655	0.00032185	0.00022917	6.6495e-05	1521	3.0167e-06	2.4269e-06	1519	402.84	2.9466e-06	2.5434e-06	455.54	155.13	136.61	46.914	3.0079e-06	57.021	157.375	2.125	10.899	-74.449	57.405	66.662	-74.643	-69.968	14.310	69.661	-70.519	-66.609	-65.834	-60.966	47.831	-61.710	-8191	255	
2459.619	1	1	0	0	0.22816	0.046676	0.12439	0.057923	0.081223	0.050509	0.24949	0.14407	0.031376	0.18118	0.22035	0.21276	0.23333	0.091302	0.075868	0.09678	-2.0729	-2.3979	-3.1792	-2.4104	-2.9562	-2.8792	-2.1813	-3.1292	-2.3521	-2.4021	-3.2313	-2.3021	-2.8854	-3.1833	-2.2979	-3.2729	213.254	9.822	236.422	-62.981	240.383	-55.195	-84.706	127.767	-31.108	109.369	205.009	-82.890	176.047	-49.339	-72.312	224.032	0.00023041	0.00060788	0.00013557	1506.2	2.6658e-06	4.5745e-06	1497.9	397.82	2.7342e-06	5.0298e-06	449.88	151.57	133.43	45.754	3.3325e-06	55.685	0.00032503	0.00025074	6.5209e-05	1521.3	2.8803e-06	2.3027e-06	1521.8	404.09	2.9734e-06	2.5592e-06	456.77	155.43	136.56	46.96	3.0651e-06	57.094	160.857	12.166	3.002	-74.425	57.063	53.265	-74.479	-69.953	32.881	63.813	-70.492	-66.258	-65.871	-61.141	62.956	-61.634	-8191	255	
2459.691	1	1	0	0	0.14358	0.19329	0.10994	0.35283	0.059326	0.18229	0.29133	0.17329	0.11966	0.090267	0.12463	0.16612	0.1036	0.21387	0.25831	0.25508	-2.0958	-2.3125	-3.0875	-2.5167	-2.7292	-3.0146	-2.3583	-3.2042	-2.7083	-2.3354	-3.2396	-2.4688	-2.7271	-2.9667	-2.3792	-2.975	65.550	130.921	248.577	256.860	188.185	170.354	233.337	-58.713	247.147	-70.752	-83.342	131.739	157.106	248.576	23.964	262.330	0.00022009	0.00050216	0.00012036	1506.8	3.1989e-06	5.4205e-06	1497.5	397.93	2.6783e-06	4.8986e-06	448.52	151.63	133.34	45.876	2.8388e-06	55.628	0.00031908	0.00024652	5.9916e-05	1521.4	3.0385e-06	2.3981e-06	1522.7	403.8	3.1388e-06	2.5549e-06	456.28	155.82	136.65	46.929	2.8812e-06	57.03	160.512	-4.709	19.117	-74.356	54.775	72.427	-74.409	-69.896	55.691	62.156	-70.249	-66.434	-65.686	-60.812	50.120	-61.376	-8191	255	
2459.787	1	1	0	0	0.06108	0.10592	0.04634	0.41263	0.26027	0.11992	0.29299	0.23491	0.22747	0.10798	0.29267	0.16132	0.20251	0.20912	0.090241	0.073405	-2.4021	-2.1	-3.0167	-2.3438	-2.4188	-3.0187	-2.4333	-3.0771	-2.7438	-2.1854	-3.3271	-2.4375	-2.5812	-3.0625	-2.1583	-2.9479	-16.410	64.540	35.823	200.190	-65.654	3.841	213.905	191.807	5.541	210.482	262.927	252.330	205.049	-60.877	252.592	-31.619	0.00020179	0.00057707	0.00012826	1503.5	3.6535e-06	5.8866e-06	1506.4	397.72	2.4481e-06	5.9888e-06	450.26	151.15	133.43	45.689	3.4214e-06	55.428	0.0003291	0.00024103	6.2947e-05	1522.3	3.1015e-06	2.5134e-06	1523.5	404.21	3.0403e-06	2.7548e-06	456.88	155.55	136.67	46.915	3.0853e-06	57	155.199	4.076	-0.468	-74.333	48.097	76.008	-74.603	-69.926	23.338	69.573	-70.184	-66.267	-65.667	-61.406	51.894	-61.653	-8191	255	
2459.883	1	1	0	0	0.10052	0.052665	0.079317	0.11342	0.10125	0.049165	0.29313	0.13241	0.059609	0.25315	0.06489	0.38747	0.032337	0.17106	0.064103	0.15641	-2.2354	-2.2979	-3.0229	-2.6813	-2.4188	-3.1021	-2.4833	-2.9979	-2.9229	-2.2687	-3.0646	-2.6708	-2.4521	-3.1625	-2.2396	-2.7167	192.349	79.910	230.271	221.701	-3.559	-64.215	246.462	-56.913	122.061	92.466	-14.374	204.942	170.127	203.482	67.613	193.829	0.00021209	0.00052885	0.00010624	1509.7	2.2425e-06	5.2767e-06	1512.3	399.96	2.2517e-06	5.473e-06	450.81	152.45	133.95	45.835	4.0743e-06	56.006	0.00032518	0.00025736	5.9709e-05	1522.8	3.1754e-06	2.4257e-06	1525.8	404.58	2.9935e-06	2.7942e-06	456.75	155.62	136.74	46.884	3.0309e-06	57.078	157.532	14.637	1.271	-74.337	55.687	71.192	-74.589	-69.760	20.920	67.752	-70.243	-66.426	-65.773	-61.025	61.286	-61.377	-8191	255	
2460.004	1	1	0	0	0.16128	0.1164	0.022108	0.22332	0.14172	0.13289	0.20614	0.30637	0.14841	0.26019	0.12728	0.17341	0.086813	0.2601	0.092742	0.028707	-2.5208	-2.0979	-3.0333	-2.8708	-2.4042	-3.2896	-2.5354	-2.825	-2.8354	-2.2271	-3.0458	-2.6917	-2.5062	-3.1271	-2.4604	-2.5458	13.138	-5.536	95.125	201.327	162.324	130.567	217.773	233.506	120.307	227.862	-41.672	-81.627	250.307	-69.341	-21.849	27.658	0.00019763	0.00045132	0.00014491	1509.5	3.4873e-06	5.2611e-06	1501.6	397.69	1.8663e-06	4.4422e-06	451.68	152.77	134.52	46.085	4.3309e-06	56.045	0.00032851	0.00025389	6.3612e-05	1523.2	3.177e-06	2.2456e-06	1521.6	404.04	3.0409e-06	2.7207e-06	456.62	155.59	136.95	46.971	2.926e-06	57.091	157.071	4.945	15.548	-74.259	70.148	58.112	-74.640	-69.760	48.058	64.205	-70.156	-66.434	-65.536	-60.890	46.787	-61.518	-8191	255	
2460.100	1	1	0	0	0.12262	0.041267	0.21583	0.38469	0.077293	0.071815	0.13728	0.18558	0.049436	0.13015	0.11292	0.20544	0.069707	0.21133	0.25359	0.052847	-2.7292	-2.1813	-2.8167	-2.7125	-2.0521	-3.0792	-2.5771	-2.5646	-3.0146	-2.125	-2.85	-2.8167	-2.2854	-3.1312	-2.5979	-2.2583	-80.791	246.624	228.419	-72.480	-15.802	197.631	229.110	183.407	108.311	-0.702	133.820	-65.914	225.770	260.031	38.411	240.640	0.00021689	0.00041386	0.00013997	1513.3	4.2164e-06	4.7723e-06	1494.4	395.19	2.4787e-06	4.3614e-06	448.77	151.75	133.16	45.89	4.2897e-06	55.359	0.00033041	0.00024434	6.0966e-05	1523	3.3842e-06	2.3543e-06	1519.8	403.41	3.0124e-06	2.6017e-06	455.77	155.63	136.55	46.901	2.8363e-06	56.936	159.369	0.654	0.719	-74.228	49.680	73.417	-74.797	-69.892	46.438	68.514	-70.381	-66.262	-65.734	-60.759	38.778	-61.689	-8191	255	
2460.194	1	1	0	0	0.31677	0.30462	0.16702	0.23484	0.074492	0.1456	0.16936	0.1128	0.17344	0.029822	0.058235	0.20615	0.21975	0.079422	0.21149	0.2395	-2.8063	-2.1104	-2.8292	-3.1937	-2.2625	-3.075	-2.6562	-2.5	-3.1292	-2.3604	-2.85	-3.1854	-2.4958	-2.8063	-2.7083	-2.3979	20.301	252.721	264.538	256.080	-85.666	120.823	256.058	48.524	113.874	-24.409	-85.045	141.176	256.199	110.834	112.437	198.376	0.00022594	0.00053728	0.00013169	1504	2.5772e-06	5.4267e-06	1496.6	396.55	1.5757e-06	5.7737e-06	451.28	152.22	133.49	45.929	3.5528e-06	55.289	0.00032104	0.00024225	6.2607e-05	1520.8	3.1557e-06	2.3981e-06	1520	403.92	2.8281e-06	2.5993e-06	456.2	155.57	136.49	46.902	2.8672e-06	56.916	159.670	-0.258	-1.291	-74.315	66.449	81.536	-74.839	-69.860	37.164	69.167	-70.436	-66.218	-65.613	-61.070	53.348	-61.351	-8191	255	
2460.268	1	1	0	0	0.064361	0.088459	0.17013	0.40351	0.031992	0.17099	0.32489	0.20819	0.28996	0.059248	0.13272	0.025216	0.1848	0.19557	0.25283	0.10341	-2.8583	-2.425	-2.4458	-3.1833	-2.275	-2.8542	-2.8979	-2.5	-3.1333	-2.5292	-2.7479	-3.3979	-2.3542	-2.9417	-2.8583	-2.3063	256.444	104.679	-68.285	261.027	107.069	139.406	220.879	173.536	-9.865	155.898	-7.234	88.945	264.036	227.349	256.841	233.459	0.00023075	0.00045447	0.00012852	1507	3.478e-06	5.0258e-06	1507.8	397.83	2.2949e-06	4.7032e-06	450.21	151.56	133.46	45.519	3.6161e-06	55.469	0.0003123	0.00023083	6.5874e-05	1521.3	3.1489e-06	2.505e-06	1520.6	403.91	2.9308e-06	2.5233e-06	456.33	155.34	136.5	46.818	2.7881e-06	56.915	157.153	9.866	11.601	-74.313	56.034	77.176	-74.547	-69.988	30.954	77.304	-70.441	-66.373	-65.792	-60.610	48.549	-61.763	-8191	255	
2460.387	1	1	0	0	0.12008	0.10485	0.13597	0.10323	0.07877	0.1929	0.30712	0.19927	0.072306	0.16424	0.10821	0.20423	0.1595	0.22293	0.16424	0.085711	-2.5917	-2.3604	-2.475	-3.2729	-2.2104	-2.8354	-3.0062	-2.675	-2.9396	-2.6063	-2.4938	-3.375	-2.3958	-2.9625	-2.9333	-2.3271	241.386	43.757	202.301	251.937	161.537	152.899	218.067	229.582	1.045	110.322	204.509	225.576	185.226	234.765	33.706	67.846	0.00021722	0.00052519	0.00016003	1505.7	3.6024e-06	5.5127e-06	1503.1	396.66	1.682e-06	6.4606e-06	449.9	150.98	133.31	45.746	3.8011e-06	55.431	0.00032768	0.00023761	6.8757e-05	1520.7	3.1572e-06	2.4924e-06	1520.1	403.57	3.0756e-06	2.7985e-06	456.12	155.18	136.39	46.769	2.7954e-06	56.904	153.612	-2.166	3.372	-74.201	61.675	64.489	-74.498	-69.777	19.320	71.132	-70.403	-66.093	-65.586	-60.883	46.907	-61.792	-8191	255	
2460.483	1	1	0	0	0.35997	0.15475	0.19825	0.15102	0.13238	0.17984	0.194	0.2126	0.079566	0.15694	0.14132	0.12059	0.089513	0.20599	0.22652	0.048522	-2.7708	-2.5417	-2.3375	-3.2042	-2.2771	-2.8	-3.2625	-2.3417	-3.1083	-2.6896	-2.45	-3.3417	-2.575	-2.7812	-3.1063	-2.3479	-27.713	123.966	-22.299	230.803	-1.128	68.902	193.473	-73.999	190.549	259.949	176.163	126.618	112.052	207.952	-29.831	211.858	0.00022324	0.00054509	0.000127	1505.2	3.0741e-06	4.7325e-06	1502.5	397.85	2.4216e-06	4.7582e-06	449.33	151.38	132.94	45.668	4.0019e-06	55.616	0.00032042	0.00024999	7.2171e-05	1521.7	3.2223e-06	2.7019e-06	1521.3	403.76	2.9482e-06	2.5464e-06	455.59	155.05	136.26	46.719	2.8453e-06	56.806	160.979	8.131	1.088	-74.252	60.963	62.356	-74.424	-69.846	19.335	53.811	-70.282	-66.130	-65.627	-60.903	53.141	-61.783	-8191	255	
2460.579	1	1	0	0	0.13586	0.12056	0.081102	0.23298	0.021397	0.030325	0.18326	0.098215	0.23737	0.20376	0.16718	0.20705	0.077475	0.17023	0.071171	0.14257	-2.5625	-2.7938	-2.1458	-3.4542	-2.5396	-2.55	-3.35	-2.2896	-2.8396	-2.8167	-2.3063	-3.2313	-2.5333	-2.4729	-2.9313	-2.2708	-52.883	-86.395	-30.603	266.015	232.019	168.540	143.302	225.090	252.945	-22.726	195.361	268.021	106.390	226.303	182.376	-77.517	0.00020486	0.00041209	0.00016294	1509	2.5513e-06	5.681e-06	1500.6	397.56	2.7522e-06	5.4675e-06	451.89	151.49	133.5	45.769	3.5437e-06	55.551	0.00032842	0.00022699	7.022e-05	1520.8	3.2228e-06	2.505e-06	1522.8	403.58	3.0614e-06	2.51e-06	457.02	155.46	136.47	46.864	2.8459e-06	56.829	161.564	14.926	3.394	-74.239	51.490	56.719	-74.268	-69.781	28.211	69.087	-70.443	-65.886	-65.668	-60.928	34.358	-61.660	-8191	255	
2460.700	1	1	0	0	0.16761	0.10518	0.067516	0.20047	0.13063	0.032018	0.22126	0.23701	0.20249	0.15822	0.22468	0.075017	0.062971	0.22815	0.054697	0.092594	-2.45	-2.9062	-2.2875	-3.2708	-2.5042	-2.3146	-3.3479	-2.4854	-2.8146	-2.7917	-2.3771	-3.1208	-2.6854	-2.4333	-3.3375	-2.6437	-72.968	147.568	207.600	-80.305	197.210	216.110	215.334	169.892	91.826	15.244	-46.542	143.014	-77.068	-20.480	227.081	268.153	0.00022264	0.00046125	0.00015435	1508.4	3.7521e-06	6.2896e-06	1503.6	397.67	3.341e-06	5.1308e-06	449.37	151.02	133.41	45.797	3.2962e-06	55.379	0.00032185	0.00023675	7.3014e-05	1522.9	2.9854e-06	2.7937e-06	1522.7	403.76	3.1256e-06	2.5658e-06	455.76	155.55	136.41	46.838	2.7203e-06	56.789	156.875	-4.132	5.746	-74.102	65.535	81.868	-74.668	-69.645	30.210	73.078	-70.203	-66.278	-65.592	-60.910	67.866	-61.558	-8191	255	
2460.796	1	1	0	0	0.13081	0.048806	0.22991	0.3353	0.19181	0.083516	0.22593	0.21823	0.14985	0.1375	0.055447	0.064216	0.17533	0.31595	0.21893	0.062948	-2.4875	-3.125	-2.2146	-3.2583	-2.9146	-2.3542	-3.2354	-2.4875	-2.8937	-3.15	-2.4021	-3.25	-2.8167	-2.2042	-3.0625	-2.5812	137.848	-64.373	-44.574	235.592	160.533	173.822	208.370	213.641	266.389	64.353	-57.654	209.417	-70.803	-45.758	158.400	232.111	0.00019965	0.00058996	0.00013655	1510.8	3.1388e-06	5.2779e-06	1504.9	396.55	3.3279e-06	5.7782e-06	450.09	152.01	133	45.874	4.4516e-06	55.801	0.0003352	0.00024636	6.7722e-05	1522.4	3.0271e-06	2.7337e-06	1522.7	403.4	3.0503e-06	2.4638e-06	456.58	155.71	136.32	46.872	2.8005e-06	57.012	160.235	7.579	1.153	-74.219	36.365	68.002	-74.308	-69.718	30.767	62.887	-69.967	-66.200	-65.699	-60.623	43.896	-61.359	-8191	255	
2460.892	1	1	0	0	0.12375	0.28204	0.014745	0.051311	0.19824	0.14489	0.041867	0.09328	0.074885	0.072397	0.20395	0.090978	0.056464	0.080172	0.062185	0.20494	-2.2438	-3.2521	-1.9667	-3.1542	-2.7	-2.175	-3.2729	-2.5042	-2.4208	-3.1792	-2.4542	-2.7604	-3.0292	-2.3917	-3.1417	-2.525	-28.738	105.125	63.131	240.358	155.852	225.498	196.452	169.588	130.287	21.630	234.736	203.888	77.019	139.125	177.594	-23.295	0.00021599	0.00045998	0.00012495	1507.2	3.1246e-06	5.3543e-06	1503.4	398.65	1.9073e-06	4.727e-06	452.06	151.99	132.6	45.709	3.2781e-06	55.308	0.00032964	0.00022912	7.059e-05	1521	2.9584e-06	2.7301e-06	1522.7	404.05	3.1367e-06	2.5428e-06	457.26	155.44	136.28	46.792	2.7674e-06	56.68	157.393	-2.456	8.771	-74.057	49.890	66.623	-74.304	-69.721	21.993	64.974	-70.246	-66.272	-65.383	-60.873	50.459	-61.400	-8191	255	
2460.988	1	1	0	0	0.30195	0.15126	0.14153	0.2437	0.1132	0.25531	0.10554	0.14895	0.094132	0.046662	0.27328	0.0705	0.10523	0.44254	0.25798	0.16613	-2.0229	-3.0458	-2.1167	-2.9208	-2.8979	-2.3729	-3.1875	-2.5938	-2.2188	-3.0875	-2.3583	-2.925	-2.9688	-2.3271	-2.95	-2.7833	24.135	155.225	165.393	193.105	33.002	81.896	213.898	171.668	97.059	14.369	246.141	211.896	233.948	-69.908	128.373	238.156	0.00021529	0.00052941	0.00015622	1507.7	3.9164e-06	4.765e-06	1502.8	396.68	2.921e-06	5.3299e-06	447.18	151.22	132.49	45.61	2.9698e-06	55.422	0.0003438	0.00023958	6.8446e-05	1521.9	3.1078e-06	2.7409e-06	1521.5	403.03	3.3031e-06	2.5179e-06	454.57	154.98	135.77	46.649	2.7377e-06	56.677	161.424	0.957	4.933	-74.142	60.856	66.607	-74.542	-69.739	52.380	63.047	-70.342	-65.983	-65.629	-60.836	68.231	-61.313	-8191	255	
2461.084	1	1	0	0	0.1006	0.027107	0.1618	0.55153	0.14157	0.32401	0.10781	0.21351	0.18195	0.20992	0.29194	0.19817	0.30124	0.063904	0.19217	0.19432	-1.8854	-3.0604	-2.3312	-3.075	-3.0438	-2.3229	-3.1729	-2.8583	-2.375	-3.1208	-2.6521	-2.8271	-3.0812	-2.1562	-2.8438	-2.9292	199.253	92.974	201.332	234.901	61.233	-28.655	-87.292	180.113	209.168	25.539	152.182	-62.651	-60.732	-33.537	33.545	227.940	0.00023169	0.00054482	0.00013424	1508.8	2.5567e-06	5.3033e-06	1501.9	395.38	2.9792e-06	5.244e-06	448.3	151.35	132.81	45.564	3.1401e-06	55.577	0.00034264	0.0002532	6.8816e-05	1521.2	3.0968e-06	2.7349e-06	1521.3	403.02	3.3985e-06	2.5677e-06	455.13	155.42	136.06	46.673	2.8167e-06	56.835	157.274	-3.285	19.563	-73.946	49.861	69.871	-74.308	-69.829	44.415	67.326	-70.275	-65.769	-65.624	-60.706	46.665	-61.383	-8191	255	
2461.179	1	1	0	0	0.20691	0.088591	0.14459	0.2415	0.058229	0.33914	0.3388	0.21011	0.13183	0.074054	0.15297	0.062999	0.31533	0.047848	0.19766	0.029471	-1.6125	-3.0812	-2.3688	-2.8417	-3.0646	-2.1646	-2.9437	-2.8937	-2.1312	-3.0896	-2.5792	-2.5187	-3.2146	-2.3333	-2.7062	-3.1271	201.095	85.710	-28.642	251.259	72.500	-18.398	191.448	194.749	86.896	41.214	-81.569	21.037	260.228	107.204	36.459	242.012	0.00022249	0.00050369	0.00014645	1506.5	3.3911e-06	5.5134e-06	1498.9	395.53	2.264e-06	4.3788e-06	447.9	151.43	132.84	45.856	3.3607e-06	55.651	0.00033523	0.00023248	7.0575e-05	1521.6	3.2103e-06	2.7337e-06	1524.5	402.97	3.3152e-06	2.3891e-06	455.7	155.2	136.3	46.797	2.9031e-06	56.889	156.179	0.431	12.677	-73.901	52.195	73.484	-74.398	-69.648	48.969	62.377	-70.470	-66.133	-65.390	-61.132	56.420	-61.418	-8191	255	
2461.299	1	1	0	0	0.094811	0.094853	0.1229	0.35009	0.13359	0.11281	0.27358	0.35051	0.03227	0.17115	0.11719	0.070355	0.075092	0.21186	0.15763	0.10108	-1.7563	-3.0125	-2.6333	-2.7083	-3.3458	-2.2562	-2.9688	-3.1833	-2.3104	-3.0479	-2.6729	-2.5417	-3.2833	-2.5187	-2.4333	-3.1771	-54.498	166.475	92.310	244.073	116.124	193.644	216.459	-84.438	184.040	59.258	-62.137	120.370	55.364	264.276	254.405	177.454	0.00021263	0.00058621	0.00016346	1503.9	2.2781e-06	6.2791e-06	1501.7	397.45	2.4403e-06	4.3582e-06	448.7	151.72	133.81	45.91	3.3765e-06	55.659	0.00032771	0.00024364	7.2497e-05	1522.7	3.0385e-06	2.6328e-06	1522.9	403.87	3.2963e-06	2.5428e-06	456.43	155.48	136.62	46.941	2.912e-06	57.008	160.669	14.310	1.799	-73.914	65.245	60.852	-74.298	-69.807	33.361	66.101	-70.366	-66.029	-65.407	-60.717	56.868	-61.358	-8191	255	
2461.395	1	1	0	0	0.1794	0.04303	0.19137	0.37048	0.30588	0.16432	0.3007	0.16503	0.15829	0.18677	0.13796	0.21591	0.27923	0.24634	0.22355	0.16316	-1.9	-2.9021	-2.6688	-2.3229	-2.9313	-2.4396	-2.725	-3.3083	-2.0646	-2.8146	-2.8417	-2.3417	-3.1167	-2.3688	-2.5229	-3.1542	-46.692	108.514	156.540	254.791	151.959	212.869	178.635	236.496	64.796	65.353	195.184	-76.382	210.178	227.506	223.456	203.985	0.00021941	0.00045368	0.00013584	1506.8	3.5022e-06	6.621e-06	1502.1	395.55	1.9548e-06	5.5358e-06	450.37	151.84	133.84	45.945	3.9807e-06	55.442	0.00033297	0.00023926	6.5637e-05	1522.5	3.1041e-06	2.7055e-06	1523.3	402.99	3.2326e-06	2.5677e-06	455.68	155.67	136.62	46.864	2.9731e-06	56.89	160.208	9.166	7.231	-73.876	50.344	75.873	-74.175	-69.628	56.232	71.149	-69.942	-65.883	-65.572	-60.785	53.084	-61.331	-8191	255	
2461.491	1	1	0	0	0.20198	0.25385	0.096489	0.24972	0.40964	0.10697	0.3877	0.26819	0.26256	0.22018	0.15025	0.15998	0.37493	0.33118	0.21481	0.14644	-1.9396	-2.9	-2.8563	-2.4521	-2.9208	-2.4562	-2.5667	-3.2229	-2.2167	-2.825	-2.9958	-2.1188	-3.0229	-2.7917	-2.1458	-3.1708	104.130	1.715	57.122	224.307	107.022	-66.150	205.596	220.171	223.505	10.572	21.082	172.521	269.948	262.285	-69.847	16.580	0.00022702	0.0005181	0.00012336	1509.8	3.6237e-06	5.8241e-06	1501.5	396.85	2.4936e-06	6.3672e-06	449.11	151.81	133.91	45.591	3.8553e-06	55.694	0.00033939	0.00022982	6.6391e-05	1523.7	3.0885e-06	2.5176e-06	1524.1	403.76	3.0698e-06	2.7839e-06	455.39	155.24	136.58	46.829	2.9681e-06	56.993	154.546	7.328	3.175	-73.881	53.141	60.412	-74.160	-69.596	19.421	66.701	-70.161	-66.041	-65.550	-60.992	65.842	-61.166	-8191	255	
2461.563	1	1	0	0	0.05038	0.081927	0.096334	0.23415	0.16857	0.035491	0.22482	0.031537	0.2504	0.087661	0.054298	0.16901	0.35557	0.44871	0.1199	0.11524	-1.7708	-2.6083	-2.8104	-2.6562	-3.0563	-2.6479	-2.5104	-3.0312	-2.3771	-2.7104	-2.9333	-2.0812	-2.9292	-2.8625	-2.3542	-3.1896	147.711	9.237	270.810	250.081	259.395	-77.075	220.896	253.330	253.259	189.966	191.004	231.438	-61.068	233.608	-31.124	126.095	0.00020842	0.00050368	0.00013383	1508.7	3.3921e-06	6.0811e-06	1508.2	396.28	2.7408e-06	5.4775e-06	448.57	151.33	133.94	45.775	4.6783e-06	55.347	0.00033336	0.00023852	6.6066e-05	1523.2	3.0338e-06	2.613e-06	1522.3	403.37	3.281e-06	2.6387e-06	456	155.3	136.75	46.834	3.1761e-06	56.904	163.890	12.788	10.275	-73.857	48.579	53.821	-74.199	-69.444	37.507	71.735	-70.155	-65.992	-65.317	-60.740	62.131	-61.218	-8191	255	
2461.684	1	1	0	0	0.1048	0.26494	0.22227	0.24058	0.076143	0.043623	0.22791	0.32909	0.12737	0.21516	0.17886	0.08531	0.08004	0.22267	0.15614	0.03051	-1.9375	-2.4562	-2.9542	-2.3792	-2.9437	-2.6458	-2.4125	-3.1188	-2.4729	-2.6708	-3.2562	-2.4125	-2.6937	-2.9062	-2.3187	-3.0438	131.531	-22.049	-61.897	218.628	-34.864	17.719	213.544	242.931	171.942	57.192	217.034	225.850	198.612	213.804	43.721	236.982	0.00019802	0.00039046	0.00012256	1507.4	3.32e-06	6.626e-06	1503.9	397.52	3.0576e-06	5.6548e-06	449.81	151.99	133.92	45.936	4.0295e-06	55.512	0.00032964	0.00024103	6.3435e-05	1521.8	2.974e-06	2.5794e-06	1523.1	403.51	3.2868e-06	2.7037e-06	456.62	155.65	136.61	46.881	3.1402e-06	56.859	156.995	6.546	4.804	-74.141	47.899	79.286	-74.266	-69.722	27.401	79.401	-69.980	-66.048	-65.651	-60.621	51.782	-61.383	-8191	255	
2461.780	1	1	0	0	0.15539	0.23097	0.051942	0.44183	0.14515	0.046003	0.23511	0.30977	0.22157	0.29048	0.18513	0.36124	0.23405	0.18378	0.10828	0.16804	-2.225	-2.2438	-3.0792	-2.4708	-2.85	-2.8646	-2.2875	-3.1792	-2.5396	-2.3125	-3.3104	-2.2542	-2.8604	-3.1021	-2.0521	-2.9708	179.111	-70.418	33.983	234.619	132.762	30.102	236.952	216.187	150.954	-44.352	151.483	-86.635	264.392	-67.826	29.496	272.102	0.00021979	0.00059817	0.00015768	1507.6	2.8313e-06	4.9604e-06	1503.3	397.24	2.4293e-06	5.0176e-06	450.22	152.05	132.89	45.917	3.9562e-06	55.342	0.00033288	0.00025629	6.5327e-05	1521.4	3.0989e-06	2.4942e-06	1521.8	403.85	3.1725e-06	2.6661e-06	456.53	155.5	136.37	46.847	3.0673e-06	56.863	165.634	-1.559	12.717	-73.996	90.559	76.475	-74.210	-69.617	39.032	65.630	-70.120	-65.980	-65.259	-60.546	60.340	-61.441	-8191	255	
2461.876	1	1	0	0	0.11079	0.23136	0.060799	0.26989	0.35977	0.10583	0.21136	0.33362	0.20096	0.043655	0.41719	0.18435	0.2444	0.053469	0.203	0.099561	-2.1979	-2.2854	-3.0708	-2.5083	-2.7	-2.9729	-2.4958	-3.0979	-2.7271	-2.3187	-3.0521	-2.5438	-2.8375	-3.1437	-2.0187	-2.9146	14.224	158.402	183.086	248.152	157.799	6.428	176.385	237.110	186.837	51.305	269.049	230.624	263.335	118.015	269.269	89.756	0.00021582	0.00047201	0.00011886	1509.3	3.5628e-06	5.3167e-06	1500.4	397.94	2.9148e-06	4.4526e-06	449.65	151.51	133.66	45.906	4.8746e-06	55.638	0.00033835	0.00025549	6.6524e-05	1520.5	3.1817e-06	2.6106e-06	1520.7	403.75	3.1472e-06	2.8489e-06	456.01	155.35	136.55	46.956	3.1094e-06	56.984	158.964	-3.331	4.288	-74.082	60.165	68.705	-74.406	-69.411	40.292	69.733	-70.143	-65.853	-65.058	-60.564	69.429	-60.999	-8191	255	
2461.972	1	1	0	0	0.10402	0.18168	0.062815	0.19537	0.17748	0.11122	0.092387	0.25003	0.1333	0.1598	0.077176	0.15721	0.33136	0.16098	0.24915	0.17104	-2.4896	-2.1333	-3.0479	-2.5604	-2.5292	-3.1021	-2.4646	-3.0396	-2.8667	-2.3229	-3.1708	-2.6292	-2.5125	-3.3104	-2.3271	-2.9146	24.651	-72.641	37.109	173.675	165.124	223.191	137.032	182.820	192.891	-72.215	-50.154	230.384	213.223	-69.097	272.055	268.405	0.00023572	0.00055079	0.0001342	1507.3	2.9534e-06	5.52e-06	1500.1	397.78	2.9419e-06	4.8897e-06	450.49	151.71	133.47	45.889	3.4514e-06	55.6	0.00032699	0.00025789	6.2282e-05	1522	3.1562e-06	2.565e-06	1519.9	404.19	3.0045e-06	2.5057e-06	456.22	155.46	136.48	46.907	2.9317e-06	56.963	157.559	-5.070	1.934	-74.109	53.310	66.081	-74.401	-69.474	36.730	77.501	-70.043	-66.004	-65.381	-60.850	62.202	-61.023	-8191	255	
2462.068	1	1	0	0	0.11542	0.050839	0.1115	0.34213	0.20957	0.2633	0.11227	0.19814	0.094907	0.083546	0.11297	0.24091	0.33089	0.16657	0.31424	0.1544	-2.4333	-2.1646	-3.0708	-2.8625	-2.3875	-3.1729	-2.4062	-2.8521	-3.1042	-2.3937	-3.0729	-2.7458	-2.4521	-3.0896	-2.4667	-2.7521	83.447	200.622	137.312	234.646	119.297	73.085	224.790	214.501	122.003	248.684	227.160	205.986	-75.609	-60.584	72.889	267.532	0.00021543	0.00050268	0.00014763	1506.3	3.6523e-06	5.5007e-06	1500.3	398.37	2.2767e-06	4.6639e-06	449.98	151.08	133.38	45.794	4.6618e-06	55.506	0.00032553	0.00026654	6.6879e-05	1520.6	3.1921e-06	2.2781e-06	1518.8	404.13	3.0761e-06	2.5671e-06	455.87	155.05	136.41	46.848	2.8296e-06	56.943	161.072	12.400	2.144	-74.177	60.324	66.052	-74.229	-69.562	41.056	80.052	-70.072	-66.012	-65.104	-60.625	58.979	-61.191	-8191	255	
2462.165	1	1	0	0	0.077824	0.12324	0.095394	0.28192	0.19036	0.11033	0.071333	0.11209	0.091468	0.18661	0.12874	0.24007	0.13291	0.29702	0.055692	0.41976	-2.7521	-2.2208	-3.0667	-2.8792	-2.3563	-3.225	-2.7917	-2.7583	-3.1875	-2.2458	-3.0187	-2.9229	-2.3438	-3.1396	-2.4771	-2.6437	73.515	65.771	-86.915	256.900	98.388	13.687	7.406	150.241	-38.336	139.944	163.750	-75.854	-48.284	182.680	40.115	239.909	0.00021655	0.00049394	0.00014499	1504.2	3.4999e-06	5.1702e-06	1499.8	396.71	2.5031e-06	4.8075e-06	450.24	151.15	133.76	45.725	4.2083e-06	55.59	0.00031676	0.00024967	6.5223e-05	1519.8	3.2056e-06	2.4798e-06	1518.2	403.56	2.9877e-06	2.6898e-06	455.57	155.01	136.46	46.792	3.0533e-06	56.896	156.678	0.080	3.127	-73.915	50.112	61.679	-74.244	-69.435	33.936	78.571	-70.154	-66.080	-65.534	-60.634	54.612	-61.224	-8191	255	
2462.261	1	1	0	0	0.078258	0.078343	0.034966	0.20719	0.25117	0.048488	0.18414	0.1933	0.24181	0.11852	0.25049	0.17749	0.10096	0.20649	0.17061	0.15505	-2.6937	-2.2146	-2.6417	-3.0292	-2.2521	-2.9688	-2.6146	-2.5854	-3.0104	-2.2188	-2.9146	-3	-2.3583	-3.1271	-2.6167	-2.5208	195.390	-69.166	148.246	195.915	-8.128	-8.602	174.525	-43.355	173.081	-61.219	-48.740	230.338	270.601	-31.532	117.223	206.793	0.00022825	0.0005046	0.00012546	1501.6	1.7227e-06	4.8338e-06	1511	396.98	1.8931e-06	3.9854e-06	451	151.45	133.19	45.598	3.1211e-06	55.587	0.00032197	0.00025688	6.1779e-05	1516.4	3.0953e-06	2.3807e-06	1520.1	403.59	2.9798e-06	2.5513e-06	456.44	155.32	136.42	46.824	2.8016e-06	56.929	161.506	3.845	0.910	-74.020	66.433	65.873	-74.358	-69.709	33.279	66.694	-70.027	-66.211	-65.421	-60.592	55.762	-61.208	-8191	255	
2462.380	1	1	0	0	0.21917	0.224	0.14124	0.2934	0.40282	0.21278	0.30073	0.3492	0.26242	0.49833	0.14302	0.13375	0.11836	0.25375	0.14577	0.23459	-2.6729	-2.3937	-2.5604	-3.1333	-2.2083	-2.9417	-2.8521	-2.3917	-3.1063	-2.1042	-2.7521	-3.1479	-2.3458	-3	-2.7021	-2.4437	218.495	-83.336	29.384	187.137	42.352	57.427	199.023	249.404	166.388	152.927	197.560	218.705	24.058	-15.379	194.813	224.461	0.00022496	0.00049501	0.00013001	1506.9	3.6083e-06	4.7802e-06	1503.8	397.15	2.4915e-06	5.5611e-06	450	151.53	132.92	45.809	3.3011e-06	55.682	0.00032449	0.00023729	6.5135e-05	1519.8	3.2723e-06	2.3777e-06	1520.8	403.25	2.9745e-06	2.598e-06	455.83	155.17	136.13	46.845	2.7685e-06	56.847	156.958	-13.262	9.971	-73.820	53.203	56.319	-74.335	-69.386	50.969	70.615	-69.994	-66.143	-65.325	-60.406	60.050	-61.134	-8191	255	
2462.476	1	1	0	0	0.10884	0.22329	0.14196	0.12528	0.084509	0.15978	0.40846	0.10707	0.13572	0.24548	0.058206	0.28265	0.083071	0.080611	0.12608	0.17106	-2.6479	-2.275	-2.5812	-3.2896	-2.2396	-2.8958	-2.8958	-2.4562	-3.175	-2.4437	-2.5708	-3.3063	-2.3771	-2.925	-2.9458	-2.4104	2.125	174.447	208.406	2.735	17.820	94.967	200.868	234.649	227.007	231.314	263.032	-56.021	265.033	157.673	-39.851	234.307	0.0002131	0.00047122	0.00011045	1510.6	4.1491e-06	5.5515e-06	1503	396.3	1.81e-06	4.5459e-06	450.08	151.41	133.46	45.913	3.8898e-06	55.403	0.00032536	0.00026419	6.818e-05	1521.6	3.253e-06	2.5038e-06	1523.1	403.31	2.9993e-06	2.5986e-06	456.02	155.18	136.34	46.855	2.9204e-06	56.856	158.180	10.027	14.258	-73.995	59.614	68.580	-74.107	-69.714	25.152	67.647	-69.870	-65.891	-65.219	-60.598	54.559	-61.146	-8191	255	
2462.572	1	1	0	0	0.12157	0.037603	0.066364	0.055061	0.10249	0.066316	0.013331	0.28825	0.10872	0.20544	0.20184	0.14701	0.10209	0.13815	0.10182	0.20692	-2.6104	-2.5396	-2.4625	-3.2229	-2.2438	-2.8542	-3.225	-2.3479	-3.0625	-2.5312	-2.5271	-2.9125	-2.5125	-2.7562	-2.8312	-2.3563	109.206	129.951	-76.716	218.909	214.225	254.843	12.921	238.977	73.944	150.298	228.109	-84.613	215.154	232.894	171.339	228.633	0.00022564	0.00047215	0.00014872	1503.6	3.7231e-06	6.4876e-06	1500.6	395.48	2.0753e-06	5.4399e-06	449.79	151.68	133.58	45.669	4.0072e-06	55.551	0.00031902	0.00024615	6.9348e-05	1520.2	3.177e-06	2.5152e-06	1520.6	403.13	3.0503e-06	2.6229e-06	455.86	155.5	136.27	46.796	2.9064e-06	56.866	159.524	10.014	-0.444	-73.925	49.870	71.544	-74.114	-69.475	40.792	69.653	-69.842	-66.017	-65.242	-60.511	66.814	-61.314	-8191	255	
2462.668	1	1	0	0	0.22948	0.12157	0.20695	0.11506	0.062594	0.24325	0.29999	0.21399	0.018407	0.077755	0.28358	0.10603	0.23716	0.069446	0.15612	0.14754	-2.8146	-2.6063	-2.4	-3.3833	-2.3063	-2.6562	-3.0812	-2.3729	-3.0083	-2.9271	-2.4667	-3.1021	-2.4396	-2.4375	-2.9771	-2.3438	175.762	99.775	13.712	250.511	70.132	269.045	179.196	-41.443	130.097	26.371	249.455	244.414	-62.219	182.824	-19.022	86.214	0.00023136	0.00050146	0.00012136	1499.5	3.441e-06	5.1965e-06	1502	396.1	2.0601e-06	4.7605e-06	449.85	151.14	133.38	45.765	3.47e-06	55.759	0.00031655	0.00023291	6.8136e-05	1518.4	3.292e-06	2.6268e-06	1521.8	403.38	2.9408e-06	2.7566e-06	455.61	155.24	136.45	46.815	2.8251e-06	56.849	157.871	3.028	15.142	-73.816	54.005	63.466	-74.130	-69.302	44.381	64.757	-69.612	-65.808	-65.178	-60.410	50.666	-61.018	-8191	255	
2462.789	1	1	0	0	0.094667	0.13349	0.17279	0.058668	0.11812	0.2329	0.20562	0.16067	0.091448	0.3003	0.33345	0.035491	0.20973	0.21445	0.07906	0.16716	-2.625	-2.6771	-2.1542	-3.1646	-2.4938	-2.5458	-3.275	-2.4292	-2.725	-2.8187	-2.1458	-3.0708	-2.6542	-2.35	-3.1312	-2.3042	196.853	178.565	246.260	16.861	168.340	216.086	176.690	-73.249	71.100	32.580	228.487	228.510	208.033	-58.990	-28.856	-40.420	0.00022095	0.00046425	0.00015316	1507.7	2.4609e-06	4.8942e-06	1501.5	397.16	2.0352e-06	4.6965e-06	449.86	151.27	133.28	45.79	3.5982e-06	55.742	0.0003231	0.00023622	7.1418e-05	1523.2	3.1052e-06	2.6718e-06	1523.4	403.5	3.1562e-06	2.646e-06	457.11	155.41	136.29	46.806	2.8021e-06	56.96	155.097	6.090	12.398	-73.664	44.312	56.316	-74.079	-69.619	1.167	63.334	-69.763	-65.854	-65.636	-60.487	59.952	-61.327	-8191	255	
2462.860	1	1	0	0	0.20553	0.13145	0.19215	0.062547	0.19162	0.19053	0.1777	0.3089	0.085767	0.079305	0.083582	0.20038	0.13824	0.098106	0.074875	0.30092	-2.3521	-2.8146	-2.0792	-3.2792	-2.4688	-2.3333	-3.1792	-2.4292	-2.675	-3.1375	-2.1479	-2.9146	-2.7812	-2.2438	-3.1813	-2.5583	245.386	142.111	231.512	95.807	-14.545	24.272	240.321	244.042	-81.592	-44.724	-36.687	247.796	133.963	210.845	-47.203	167.892	0.00021954	0.00044421	0.0001292	1506.9	3.7945e-06	5.4361e-06	1506.5	396.82	2.0759e-06	4.0278e-06	450.6	151.41	132.4	45.838	3.6577e-06	55.65	0.00032185	0.00024151	6.8697e-05	1522.7	3.203e-06	2.607e-06	1523.1	403.63	3.3073e-06	2.5124e-06	456.57	155.44	136	46.883	2.819e-06	56.934	156.707	1.202	3.067	-74.106	50.047	63.976	-74.236	-69.659	46.371	79.119	-70.110	-66.281	-65.641	-60.972	47.583	-61.093	-8191	255	
2462.981	1	1	0	0	0.10968	0.12744	0.20413	0.12907	0.089673	0.131	0.3446	0.18526	0.30786	0.20175	0.088257	0.12124	0.1423	0.24956	0.19343	0.28996	-2.2625	-2.8479	-2.1604	-3.1625	-2.7438	-2.3771	-3.2229	-2.4062	-2.4625	-3.1458	-2.4938	-2.9562	-2.9771	-2.2854	-3.0833	-2.7	2.572	266.300	-53.989	-47.217	155.387	-34.205	238.741	226.956	133.573	19.665	-26.257	-63.862	23.561	195.160	213.635	262.470	0.00022159	0.00053279	0.00012915	1506.1	3.55e-06	5.1405e-06	1507.5	396.59	2.9008e-06	5.0014e-06	449.62	151	133.4	45.755	3.6394e-06	55.704	0.00032818	0.00024385	6.8313e-05	1522.9	3.0562e-06	2.6977e-06	1525.2	403.32	3.3026e-06	2.4018e-06	456.23	155.52	136.35	46.863	2.7164e-06	56.952	157.951	6.477	11.248	-74.034	60.580	72.534	-74.451	-69.561	32.120	56.201	-70.272	-65.861	-65.577	-60.791	48.813	-61.412	-8191	255	
2463.077	1	1	0	0	0.21192	0.14416	0.26574	0.13605	0.080364	0.093193	0.34854	0.2933	0.27951	0.18441	0.14752	0.21473	0.24983	0.24858	0.075753	0.18156	-1.9958	-3.0229	-2.0438	-2.9708	-2.8458	-2.3125	-3.225	-2.5625	-2.35	-3.2042	-2.4292	-2.8167	-3.1396	-2.4021	-3.0875	-2.7083	-4.385	100.197	191.353	240.612	172.832	270.296	209.899	248.291	207.417	-42.714	154.000	198.443	-58.538	155.978	42.119	1.383	0.00022312	0.0004728	0.00013429	1508.5	2.623e-06	5.56e-06	1509.5	397.07	2.0416e-06	6.2177e-06	448.39	152.31	133.74	45.788	4.4256e-06	55.337	0.00033252	0.00023569	7.3472e-05	1522.7	3.0281e-06	2.8843e-06	1526.2	403.93	3.2542e-06	2.4832e-06	456.4	155.73	136.51	46.882	2.7814e-06	56.884	161.367	4.565	7.538	-74.181	48.024	69.562	-74.173	-69.624	40.464	77.202	-70.457	-66.259	-65.424	-60.804	59.230	-61.307	-8191	255	
2463.171	1	1	0	0	0.11575	0.15193	0.063847	0.26952	0.093022	0.15238	0.14327	0.35732	0.34904	0.18592	0.3102	0.24464	0.094349	0.22665	0.12071	0.29008	-1.8333	-3.0375	-2.3271	-2.9667	-3.075	-2.1792	-3.1167	-2.7271	-2.2833	-3.1292	-2.5438	-2.6125	-3.1104	-2.3729	-3.0646	-2.8417	80.798	251.489	36.424	251.310	62.302	205.726	266.470	240.916	7.896	226.752	216.234	170.420	271.094	113.403	-44.516	-47.877	0.00022036	0.00046153	0.00014627	1514.2	2.9344e-06	6.5513e-06	1514.3	398.87	2.7101e-06	4.1995e-06	449.46	151.55	133.14	45.751	3.594e-06	55.598	0.00032884	0.0002272	6.8343e-05	1527.5	2.9256e-06	2.6886e-06	1529.9	404.38	3.4211e-06	2.4559e-06	456.7	155.55	136.45	46.843	2.9255e-06	56.916	159.088	-2.350	10.106	-74.051	47.180	66.991	-74.461	-69.904	25.637	75.487	-70.329	-66.245	-65.630	-60.825	56.987	-61.346	-8191	255	
2463.268	1	1	0	0	0.12764	0.15522	0.1338	0.25747	0.14323	0.11839	0.22259	0.18829	0.087432	0.073925	0.25803	0.18494	0.27998	0.16082	0.10616	0.083377	-1.9104	-2.9271	-2.4542	-2.6542	-3.1354	-2.275	-3.1063	-2.9521	-2.125	-3.0333	-2.6521	-2.6542	-3.0687	-2.3312	-2.7396	-3.0229	213.040	-85.548	174.752	226.593	181.676	-72.872	201.687	168.912	-32.889	208.181	153.083	54.403	254.516	252.176	124.366	15.975	0.00021628	0.00051448	0.00014166	1517	3.2991e-06	4.3837e-06	1510.1	398.43	2.8172e-06	5.4591e-06	451.67	151.85	133.67	45.933	3.4356e-06	55.68	0.00033568	0.00023542	6.7411e-05	1529.9	3.1463e-06	2.7043e-06	1528.3	404.67	3.3505e-06	2.5476e-06	457.2	155.68	136.6	46.927	2.9373e-06	57.005	158.558	7.208	3.766	-74.006	62.584	61.299	-74.310	-69.748	41.692	76.502	-70.110	-66.038	-65.649	-60.550	51.093	-61.495	-8191	255	
2463.364	1	1	0	0	0.21139	0.14163	0.17545	0.45328	0.28639	0.065683	0.26436	0.21814	0.083226	0.12638	0.15944	0.2257	0.14277	0.17861	0.091248	0.094856	-1.7229	-3.1521	-2.3937	-2.4729	-3.2104	-2.2104	-3.0479	-3.0333	-2.2708	-3.0792	-2.8083	-2.425	-3.0604	-2.3896	-2.7958	-2.9188	214.636	95.620	-7.464	248.229	222.690	150.741	206.300	192.608	22.814	213.589	264.538	103.602	203.926	-7.599	77.889	158.107	0.00022587	0.00050679	0.00010992	1515.9	2.7104e-06	4.5529e-06	1506.2	399.12	3.1099e-06	4.3293e-06	450.11	151.94	133.86	45.816	3.943e-06	55.711	0.00034427	0.00022426	7.1831e-05	1528.7	3.0042e-06	2.5086e-06	1527.8	405.33	3.3616e-06	2.4887e-06	457.48	155.71	136.88	46.922	3.055e-06	57.05	161.613	-16.005	12.083	-73.987	55.615	63.256	-74.337	-69.631	45.299	70.754	-69.942	-65.920	-65.355	-60.677	48.794	-61.424	-8191	255	
2463.460	1	1	0	0	0.23373	0.089368	0.18226	0.26719	0.25336	0.084594	0.077786	0.30371	0.12056	0.18781	0.21986	0.11902	0.17622	0.1428	0.052904	0.1161	-1.8896	-2.7896	-2.5167	-2.4583	-3.0854	-2.5062	-2.9062	-3.25	-2.1896	-3.0687	-2.9167	-2.2229	-3.1521	-2.5146	-2.4167	-3.2521	217.622	-17.046	-78.853	261.128	59.458	68.758	-52.286	203.820	222.227	11.848	256.668	234.997	110.272	75.827	49.336	-40.790	0.00022292	0.0005555	0.00016027	1515.2	3.2314e-06	5.6463e-06	1508.8	399.41	2.5341e-06	4.1266e-06	449.61	152.29	133.72	45.943	4.3403e-06	55.565	0.00034094	0.00024204	6.7884e-05	1527.7	2.9297e-06	2.6262e-06	1528.5	404.47	3.3179e-06	2.3447e-06	456.17	155.8	136.73	47.026	2.9614e-06	57.127	154.636	-0.442	14.077	-73.911	60.775	59.073	-74.186	-69.623	53.422	59.390	-70.243	-65.855	-65.313	-60.648	54.017	-61.176	-8191	255	
2463.556	1	1	0	0	0.15291	0.074643	0.21526	0.070067	0.070664	0.19505	0.54076	0.2968	0.26144	0.22712	0.067275	0.12305	0.14005	0.093418	0.10701	0.29243	-1.8458	-2.8417	-2.8063	-2.425	-3.1271	-2.6479	-2.5396	-3.1896	-2.2396	-2.7562	-3.1229	-2.3063	-3.0521	-2.7458	-2.4208	-3.1167	-3.592	-38.989	18.940	-58.081	58.739	102.226	222.031	242.626	208.453	20.931	202.491	-48.278	-27.307	93.151	-56.682	-31.256	0.00021614	0.00050793	0.00017111	1512.8	2.5745e-06	4.5197e-06	1512.7	397.53	3.0465e-06	5.8531e-06	450.82	151.4	133.92	45.854	3.7575e-06	55.509	0.00033719	0.00023788	7.0767e-05	1528.4	2.986e-06	2.6478e-06	1528	404.71	3.4e-06	2.5877e-06	457.3	155.65	136.72	46.891	3.1116e-06	56.943	158.815	7.148	2.681	-73.839	49.465	79.544	-74.228	-69.563	48.875	64.983	-70.101	-65.779	-65.708	-60.796	51.233	-60.981	-8191	255	
2463.652	1	1	0	0	0.1589	0.158	0.02307	0.27067	0.11001	0.13575	0.27504	0.11202	0.19535	0.1847	0.052517	0.16649	0.10463	0.028077	0.25287	0.15033	-2.0396	-2.7417	-2.8417	-2.4104	-2.8417	-2.5792	-2.6083	-3.2375	-2.3937	-2.7021	-3.2479	-2.2854	-3.1792	-2.9188	-2.4354	-3.3042	14.624	129.644	-26.606	246.248	110.669	52.691	231.344	62.257	139.595	122.582	241.402	153.733	-73.215	209.278	179.779	163.120	0.00022216	0.00052123	0.00015198	1515.5	2.0009e-06	5.5461e-06	1509.5	397.18	1.6879e-06	4.5219e-06	448.9	152.19	133.76	45.982	3.6221e-06	55.72	0.00032836	0.00025069	6.9924e-05	1528.9	3.0203e-06	2.514e-06	1527.6	404.37	3.123e-06	2.6096e-06	456.83	155.52	136.87	46.983	3.106e-06	57.039	160.713	5.510	12.037	-73.798	48.626	68.917	-73.811	-69.410	38.044	81.528	-69.576	-65.268	-64.890	-60.314	64.877	-60.445	-8191	255	
2463.748	1	1	0	0	0.10514	0.11975	0.30395	0.155	0.19856	0.11792	0.36761	0.25153	0.11683	0.11814	0.15462	0.083931	0.06643	0.15101	0.16089	0.11655	-2.1083	-2.5833	-3.1167	-2.4604	-3.0104	-2.7313	-2.3708	-3.4875	-2.3583	-2.6333	-3.1271	-2.1958	-3	-2.9208	-2.2562	-3.2604	157.058	151.903	173.862	134.837	-47.270	61.988	232.096	174.786	7.101	-6.295	169.042	-78.310	161.078	227.042	215.595	226.420	0.00021841	0.00050205	0.00011315	1514.5	4.2141e-06	6.2456e-06	1505.9	399.43	2.7065e-06	4.2494e-06	451.88	152.3	133.65	45.75	3.925e-06	55.943	0.00032985	0.00025667	6.2415e-05	1528.2	3.0469e-06	2.6592e-06	1526.1	404.48	3.1973e-06	2.7019e-06	457.94	155.72	136.79	46.948	2.9922e-06	57.118	157.440	1.061	11.751	-72.746	59.133	74.492	-73.495	-68.989	40.259	71.050	-69.626	-65.180	-64.974	-60.182	44.005	-60.983	-8191	255	
2463.869	1	1	0	0	0.10399	0.046441	0.08499	0.18816	0.028103	0.24393	0.21983	0.11416	0.24037	0.29583	0.20582	0.27734	0.048796	0.27046	0.16326	0.16317	-2.1625	-2.3917	-3.1458	-2.2917	-2.8146	-2.9042	-2.3021	-3.2646	-2.4917	-2.3438	-3.1021	-2.3063	-2.7208	-2.9354	-2.1042	-2.9813	270.709	-46.649	255.192	-86.540	238.954	-62.434	235.280	178.510	271.371	130.283	204.026	-79.475	221.832	-73.195	-57.714	203.704	0.00021652	0.00046968	0.00015781	1515.7	2.5986e-06	6.0067e-06	1508.4	398.74	1.6118e-06	4.7867e-06	450.4	152.13	133.92	45.832	3.8922e-06	55.755	0.00034317	0.00024914	6.4558e-05	1528.9	3.1812e-06	2.5332e-06	1529	404.78	3.0672e-06	2.6849e-06	457.62	155.83	136.92	46.972	3.1526e-06	57.137	154.783	5.959	2.375	-73.638	51.545	62.678	-73.803	-69.441	26.722	79.131	-69.822	-65.817	-65.593	-61.023	50.711	-61.320	-8191	255	
2463.965	1	1	0	0	0.19192	0.10221	0.23192	0.37134	0.17516	0.20415	0.25584	0.11491	0.07199	0.067215	0.32298	0.1331	0.010083	0.058148	0.12729	0.15584	-2.1917	-2.3771	-3.0708	-2.5812	-2.5646	-2.8	-2.4479	-3.0896	-2.6292	-2.3479	-3.2896	-2.4542	-2.525	-3.0625	-2.0667	-2.8979	33.689	15.525	56.102	219.366	55.260	66.001	197.739	178.275	154.907	191.720	208.360	241.190	-14.536	-33.421	213.939	205.244	0.00022221	0.00059846	0.00015266	1511.7	3.45e-06	4.5499e-06	1508.5	397.34	2.0357e-06	4.1635e-06	450.7	151.8	133.1	46.003	4.1081e-06	55.74	0.00032782	0.00027402	6.5815e-05	1527.1	3.1681e-06	2.52e-06	1528.6	404.66	3.152e-06	2.6831e-06	458.16	155.74	136.72	47.167	3.1542e-06	57.092	161.639	7.911	11.663	-74.140	54.769	76.285	-74.536	-69.820	25.933	47.241	-70.440	-66.338	-65.477	-61.315	59.061	-61.275	-8191	255	
2464.061	1	1	0	0	0.14855	0.10058	0.076094	0.29977	0.084303	0.09534	0.21181	0.35793	0.074974	0.14414	0.18849	0.15265	0.25961	0.20809	0.084946	0.077234	-2.4042	-2.2021	-3.2917	-2.7792	-2.4875	-2.8771	-2.4625	-2.9313	-2.8688	-2.3167	-3.2083	-2.5771	-2.5458	-3.0687	-2.3937	-2.8312	-48.720	96.807	68.635	220.043	-86.160	146.346	176.291	212.349	200.926	13.275	-24.112	-84.666	-49.683	247.165	-11.806	252.737	0.00025042	0.0004404	0.00013584	1511.4	3.0738e-06	5.7246e-06	1501.9	397.83	2.8984e-06	4.539e-06	449.8	152.03	133.83	45.848	3.5559e-06	55.964	0.0003275	0.00026702	6.0848e-05	1527.7	3.0989e-06	2.5374e-06	1526.7	404.91	3.242e-06	2.8173e-06	457.26	155.96	137	47.016	2.9143e-06	57.404	163.654	-6.069	10.951	-74.223	66.021	74.569	-74.528	-69.748	40.353	57.044	-70.387	-66.350	-65.398	-61.036	65.811	-61.370	-8191	255	
2464.157	1	1	0	0	0.10966	0.055937	0.13843	0.34423	0.20956	0.10186	0.18975	0.25989	0.11833	0.29618	0.30397	0.08234	0.13266	0.14502	0.16198	0.21474	-2.5979	-2.1792	-3.1146	-2.6542	-2.4625	-3.1708	-2.5187	-3.0583	-2.8625	-2.1208	-3.1958	-2.6146	-2.3729	-3.1021	-2.4083	-2.9208	-41.554	92.270	145.369	235.713	39.655	-13.957	183.841	239.558	80.883	-49.894	265.198	-19.180	-50.981	117.953	56.378	-1.020	0.00021761	0.0004935	0.00013643	1514.6	3.8687e-06	3.7321e-06	1507	396.68	1.7637e-06	5.4148e-06	449.77	152.05	134.24	46.263	3.7358e-06	55.941	0.00032818	0.00025768	6.5194e-05	1527.2	3.063e-06	2.3591e-06	1527.2	404.84	3.0514e-06	2.7991e-06	457.26	155.81	137.13	47.172	2.9294e-06	57.225	164.528	2.059	22.681	-74.478	56.274	80.594	-74.686	-69.805	36.760	58.219	-70.314	-66.163	-65.664	-60.923	45.791	-61.315	-8191	255	
2464.252	1	1	0	0	0.33596	0.048687	0.24152	0.073252	0.012698	0.16285	0.07696	0.44413	0.11573	0.12408	0.25539	0.33611	0.32613	0.22139	0.13058	0.081259	-2.6562	-2.1708	-2.9542	-2.9479	-2.2896	-3.05	-2.5542	-2.7021	-3.1646	-2.0708	-3	-2.7438	-2.4896	-3.2167	-2.4583	-2.4792	156.789	64.610	203.265	256.680	26.003	161.503	-66.685	231.215	-16.823	-63.408	207.934	247.002	257.705	202.646	-46.801	-80.696	0.00021983	0.0004742	0.00012675	1512.6	2.8321e-06	6.5961e-06	1509.6	396.9	1.9676e-06	4.8929e-06	451.13	152.03	134.23	46.031	4.0295e-06	55.78	0.00032134	0.00026387	6.4455e-05	1530.2	3.3363e-06	2.5812e-06	1528.6	404.66	3.0867e-06	2.8362e-06	458	156.2	137.04	47.147	2.9395e-06	57.252	156.336	3.299	0.128	-74.272	51.675	79.675	-74.538	-69.644	26.765	66.763	-70.215	-66.191	-65.467	-60.783	51.520	-61.592	-8191	255	
2464.350	1	1	0	0	0.26456	0.4026	0.37391	0.32864	0.35191	0.10697	0.13346	0.12265	0.048428	0.11	0.072313	0.23372	0.041528	0.21792	0.39592	0.17059	-2.7479	-2.1896	-2.7917	-3.025	-2.2438	-3.0958	-2.7833	-2.6	-2.9625	-2.4917	-2.9271	-2.8792	-2.2062	-3.2854	-2.5708	-2.5604	40.994	203.592	199.744	226.016	-86.633	172.509	12.438	223.354	-67.594	16.192	-6.308	192.146	145.664	266.492	-24.891	-30.597	0.00020227	0.00046821	0.00013717	1517.5	2.9927e-06	4.6063e-06	1507	399.99	1.8485e-06	5.5931e-06	449.41	151.92	133.78	45.922	3.9693e-06	55.794	0.00032295	0.00026067	6.4322e-05	1531.1	3.2603e-06	2.3087e-06	1527.2	405.61	3.0145e-06	2.7256e-06	457.75	156.06	137	47.117	3.1324e-06	57.201	161.817	3.061	-1.857	-74.289	63.143	53.184	-74.617	-69.851	50.674	58.681	-70.190	-66.328	-65.950	-60.883	46.077	-61.665	-8191	255	
2464.469	1	1	0	0	0.074192	0.13456	0.14458	0.24279	0.13881	0.21099	0.27777	0.25686	0.13684	0.05675	0.16004	0.24313	0.086581	0.25668	0.10832	0.16085	-2.8833	-2.2896	-2.75	-2.8375	-2.1354	-3.0396	-2.8396	-2.6042	-3.0542	-2.4625	-2.8979	-3.0875	-2.3292	-3.0229	-2.7771	-2.375	-53.136	-23.793	-26.728	270.536	188.439	87.661	233.971	252.955	14.671	83.901	210.813	117.417	-80.995	218.011	7.753	205.851	0.00020929	0.00052836	0.00017198	1512.4	2.8043e-06	4.649e-06	1507.4	398.1	1.6518e-06	4.9471e-06	451.7	152.2	134.04	46.004	4.041e-06	55.979	0.00032066	0.00025069	7.1211e-05	1530.3	3.3441e-06	2.3093e-06	1529.4	404.96	2.9576e-06	2.7043e-06	457.84	156.08	137.16	47.068	2.9614e-06	57.244	157.910	1.949	5.065	-74.317	66.239	73.834	-74.539	-69.886	37.954	73.088	-70.258	-66.352	-65.811	-60.907	57.273	-61.656	-8191	255	
2464.565	1	1	0	0	0.2256	0.10288	0.20427	0.021864	0.35518	0.082117	0.19291	0.35845	0.040904	0.23164	0.33633	0.10943	0.032738	0.18178	0.11805	0.24806	-2.6833	-2.3042	-2.6958	-3.2542	-2.3083	-2.9479	-2.9229	-2.4458	-3.0354	-2.4083	-2.5938	-3.0771	-2.2125	-3.0771	-2.6729	-2.3958	154.516	242.179	159.634	134.030	202.665	88.796	219.874	252.008	259.103	-7.757	-41.119	-34.112	-73.276	233.328	-75.464	187.679	0.00021445	0.00052925	0.00013701	1516.3	2.7697e-06	6.0349e-06	1507.1	397.2	2.3466e-06	4.9891e-06	451.29	152.74	134.28	46.023	3.4014e-06	56.099	0.00032788	0.00024748	7.4197e-05	1530.4	3.1557e-06	2.5638e-06	1529.5	404.84	3.0956e-06	2.7214e-06	458.34	156.24	137.07	47.138	2.7696e-06	57.332	158.989	5.514	-2.394	-74.270	66.666	66.933	-74.561	-69.732	33.761	63.706	-70.307	-66.363	-65.705	-61.050	53.476	-61.384	-8191	255	
2464.661	1	1	0	0	0.23772	0.12664	0.16108	0.29665	0.21431	0.33905	0.16256	0.29481	0.052293	0.19636	0.29646	0.32972	0.02869	0.19702	0.10245	0.12438	-2.7271	-2.3917	-2.4354	-3.275	-2.2062	-2.9729	-3.0792	-2.4437	-3.0042	-2.6125	-2.4354	-3.1833	-2.4104	-2.7667	-2.9167	-2.2938	92.332	163.644	-55.649	264.005	119.652	256.941	231.730	217.097	127.526	12.339	214.452	236.222	-77.541	261.219	104.330	215.022	0.00021134	0.00050126	0.00012846	1517.1	3.0859e-06	5.3921e-06	1508.7	398.22	1.1154e-06	6.1197e-06	449.7	152.56	133.67	46.12	3.653e-06	55.927	0.00032741	0.00024631	7.1979e-05	1530.7	3.2629e-06	2.5812e-06	1529.5	405.31	3.0145e-06	2.7378e-06	457.08	156.26	137.12	47.117	3.0729e-06	57.172	157.425	5.400	10.832	-74.225	50.490	87.145	-74.640	-69.948	12.020	78.223	-70.531	-66.541	-65.569	-61.102	65.527	-61.618	-8191	255	
2464.757	1	1	0	0	0.13644	0.15301	0.28065	0.2606	0.22171	0.13101	0.27825	0.26466	0.22606	0.31852	0.2266	0.26822	0.2355	0.51393	0.24392	0.45537	-2.5604	-2.625	-2.3187	-3.3563	-2.2062	-2.6396	-3.1458	-2.4229	-2.9729	-2.7667	-2.35	-3.0917	-2.3167	-2.5104	-3.0042	-2.2708	101.931	80.898	15.227	230.535	112.367	220.994	219.895	153.785	169.069	-68.730	185.928	255.576	-27.191	242.964	130.377	239.728	0.00022296	0.0004559	0.00013562	1515.6	3.5054e-06	5.2607e-06	1509.6	399.63	2.4415e-06	4.7195e-06	450.68	152.33	133.77	46.163	3.3939e-06	55.826	0.00032054	0.00025058	6.9377e-05	1531.3	3.2348e-06	2.631e-06	1530.1	405.37	3.0287e-06	2.6478e-06	458.3	156.1	137.02	47.177	2.8302e-06	57.264	156.223	-2.363	3.781	-74.263	57.563	67.338	-74.557	-70.121	29.715	62.833	-70.387	-66.528	-65.895	-60.843	59.118	-61.547	-8191	255	
#DATA ENDS
