BOXY.EXE: ISS Imagent and Oximeter Data Acquisition Program Version 0.80
Ascii Record File

#ACQ INFORMATION
2  Detector Channels 
16  External MUX Channels 
1  Auxiliary Channels 
5000  Waveform (CCF) Frequency (Hz)
1  Waveforms Skipped 
30  Waveforms Averaged 
1  Cycles Averaged 
16  Acquisitions per Waveform 
10.0806  Updata Rate (Hz) 

#FILE INFORMATION
TRUE -- External MUX Channel results are PARSED.
FALSE -- AC DC and Phase are NOT grouped.
TRUE -- Companion Program Settings File CREATED.
FALSE -- AC data not excluded
FALSE -- DC data not excluded
FALSE -- Phase data not excluded
FALSE -- Auxillary Chn. data not excluded
Tab delimiters

#CALIBRATION STATE
TRUE -- Waveform Calibration Values APPLIED.


#AUX CALIBRATION VALUES
Val Type	aux-1	

Term	1.0000e+00	
Factor	0.0000e+00	


#WF CALIBRATION VALUES
A = Detector Channel
Val Type	A-AC1	A-AC2	A-AC3	A-AC4	A-AC5	A-AC6	A-AC7	A-AC8	A-AC9	A-AC10	A-AC11	A-AC12	A-AC13	A-AC14	A-AC15	A-AC16	A-DC1	A-DC2	A-DC3	A-DC4	A-DC5	A-DC6	A-DC7	A-DC8	A-DC9	A-DC10	A-DC11	A-DC12	A-DC13	A-DC14	A-DC15	A-DC16	A-Ph1	A-Ph2	A-Ph3	A-Ph4	A-Ph5	A-Ph6	A-Ph7	A-Ph8	A-Ph9	A-Ph10	A-Ph11	A-Ph12	A-Ph13	A-Ph14	A-Ph15	A-Ph16	

Term	0.00000e+00	0.00000e+00	0.00000e+00	0.00000e+00	0.00000e+00	0.00000e+00	0.00000e+00	0.00000e+00	0.00000e+00	0.00000e+00	0.00000e+00	0.00000e+00	0.00000e+00	0.00000e+00	0.00000e+00	0.00000e+00	0.00000e+00	0.00000e+00	0.00000e+00	0.00000e+00	0.00000e+00	0.00000e+00	0.00000e+00	0.00000e+00	0.00000e+00	0.00000e+00	0.00000e+00	0.00000e+00	0.00000e+00	0.00000e+00	0.00000e+00	0.00000e+00	0.00000e+00	0.00000e+00	0.00000e+00	0.00000e+00	0.00000e+00	0.00000e+00	0.00000e+00	0.00000e+00	0.00000e+00	0.00000e+00	0.00000e+00	0.00000e+00	0.00000e+00	0.00000e+00	0.00000e+00	0.00000e+00	
Factor	1.00000e+00	1.00000e+00	1.00000e+00	1.00000e+00	1.00000e+00	1.00000e+00	1.00000e+00	1.00000e+00	1.00000e+00	1.00000e+00	1.00000e+00	1.00000e+00	1.00000e+00	1.00000e+00	1.00000e+00	1.00000e+00	1.00000e+00	1.00000e+00	1.00000e+00	1.00000e+00	1.00000e+00	1.00000e+00	1.00000e+00	1.00000e+00	1.00000e+00	1.00000e+00	1.00000e+00	1.00000e+00	1.00000e+00	1.00000e+00	1.00000e+00	1.00000e+00	X	X	X	X	X	X	X	X	X	X	X	X	X	X	X	X	

B = Detector Channel
Val Type	B-AC1	B-AC2	B-AC3	B-AC4	B-AC5	B-AC6	B-AC7	B-AC8	B-AC9	B-AC10	B-AC11	B-AC12	B-AC13	B-AC14	B-AC15	B-AC16	B-DC1	B-DC2	B-DC3	B-DC4	B-DC5	B-DC6	B-DC7	B-DC8	B-DC9	B-DC10	B-DC11	B-DC12	B-DC13	B-DC14	B-DC15	B-DC16	B-Ph1	B-Ph2	B-Ph3	B-Ph4	B-Ph5	B-Ph6	B-Ph7	B-Ph8	B-Ph9	B-Ph10	B-Ph11	B-Ph12	B-Ph13	B-Ph14	B-Ph15	B-Ph16	

Term	0.00000e+00	0.00000e+00	0.00000e+00	0.00000e+00	0.00000e+00	0.00000e+00	0.00000e+00	0.00000e+00	0.00000e+00	0.00000e+00	0.00000e+00	0.00000e+00	0.00000e+00	0.00000e+00	0.00000e+00	0.00000e+00	0.00000e+00	0.00000e+00	0.00000e+00	0.00000e+00	0.00000e+00	0.00000e+00	0.00000e+00	0.00000e+00	0.00000e+00	0.00000e+00	0.00000e+00	0.00000e+00	0.00000e+00	0.00000e+00	0.00000e+00	0.00000e+00	-1.55424e+02	-1.27235e+02	-1.24166e+02	-1.80391e+02	-7.40752e+01	-6.35377e+01	-1.56642e+02	-1.62015e+02	-7.80018e+01	-6.24457e+01	-1.75242e+02	-1.71364e+02	-1.79620e+02	-1.76316e+02	-7.26602e+01	-1.49562e+02	
Factor	2.32168e-05	1.44619e-04	3.90176e-05	1.53962e-01	1.28637e-06	1.68364e-06	1.74380e-01	5.13261e-02	1.26631e-06	1.62331e-06	9.43026e-02	3.18907e-02	2.43581e-02	9.34159e-03	1.41395e-06	1.29416e-02	1.42752e-05	2.56240e-05	7.09592e-06	7.92124e-02	2.49870e-07	2.88134e-07	8.45014e-02	2.65240e-02	2.52790e-07	2.91573e-07	4.71960e-02	1.60623e-02	1.27823e-02	4.86681e-03	2.69113e-07	6.54773e-03	X	X	X	X	X	X	X	X	X	X	X	X	X	X	X	X	



#DISTANCE SETTINGS
A = Detector Channel
A-1	A-2	A-3	A-4	A-5	A-6	A-7	A-8	A-9	A-10	A-11	A-12	A-13	A-14	A-15	A-16	

2.5000e+00	3.0000e+00	2.5000e+00	3.0000e+00	2.0000e+00	3.0000e+00	1.5000e+00	3.0000e+00	3.0000e+00	3.0000e+00	3.0000e+00	3.0000e+00	3.0000e+00	3.0000e+00	1.5000e+00	3.0000e+00	

B = Detector Channel
B-1	B-2	B-3	B-4	B-5	B-6	B-7	B-8	B-9	B-10	B-11	B-12	B-13	B-14	B-15	B-16	

1.0000e+01	1.0000e+01	1.0000e+01	1.4400e+00	1.0000e+01	1.0000e+01	1.5100e+00	1.9400e+00	1.0000e+01	1.0000e+01	1.9900e+00	2.4900e+00	2.4100e+00	2.9000e+00	1.0000e+01	2.9800e+00	




#DATA BEGINS
time	group	step	mark	flag	A-AC1	A-AC2	A-AC3	A-AC4	A-AC5	A-AC6	A-AC7	A-AC8	A-AC9	A-AC10	A-AC11	A-AC12	A-AC13	A-AC14	A-AC15	A-AC16	A-DC1	A-DC2	A-DC3	A-DC4	A-DC5	A-DC6	A-DC7	A-DC8	A-DC9	A-DC10	A-DC11	A-DC12	A-DC13	A-DC14	A-DC15	A-DC16	A-Ph1	A-Ph2	A-Ph3	A-Ph4	A-Ph5	A-Ph6	A-Ph7	A-Ph8	A-Ph9	A-Ph10	A-Ph11	A-Ph12	A-Ph13	A-Ph14	A-Ph15	A-Ph16	B-AC1	B-AC2	B-AC3	B-AC4	B-AC5	B-AC6	B-AC7	B-AC8	B-AC9	B-AC10	B-AC11	B-AC12	B-AC13	B-AC14	B-AC15	B-AC16	B-DC1	B-DC2	B-DC3	B-DC4	B-DC5	B-DC6	B-DC7	B-DC8	B-DC9	B-DC10	B-DC11	B-DC12	B-DC13	B-DC14	B-DC15	B-DC16	B-Ph1	B-Ph2	B-Ph3	B-Ph4	B-Ph5	B-Ph6	B-Ph7	B-Ph8	B-Ph9	B-Ph10	B-Ph11	B-Ph12	B-Ph13	B-Ph14	B-Ph15	B-Ph16	aux-1	digaux	

2425.002	1	1	0	256	0.28683	0.25578	0.22379	0.081187	0.055507	0.2396	0.30385	0.17274	0.24491	0.14949	0.34027	0.11858	0.1751	0.13935	0.10671	0.016263	-2.0083	-2.6542	-2.975	-2.425	-3.0417	-2.6521	-2.5417	-3.3146	-2.2146	-2.8312	-3.0271	-2.1813	-3.1188	-2.8312	-2.3396	-3.0667	172.073	-1.372	27.764	30.848	18.035	109.147	-61.679	245.173	152.590	-64.311	247.118	-26.957	189.429	168.252	152.632	277.464	7.6261e-05	0.00036987	6.9509e-05	1120.9	1.5328e-06	3.4411e-06	1223.6	224.13	1.0753e-06	3.5464e-06	285.39	82.576	64.844	19.113	2.1533e-06	26.511	0.0002364	0.00025715	6.5149e-05	1103.4	2.9381e-06	2.496e-06	1206.8	222.18	2.885e-06	2.6041e-06	282.82	83.154	64.677	19.28	2.801e-06	27.011	136.872	19.074	16.525	-63.131	59.432	76.397	-62.826	-55.673	65.674	73.775	-55.527	-48.735	-48.393	-41.199	70.634	-41.498	-8191	255	
2425.073	1	1	0	0	0.14331	0.12212	0.19317	0.19591	0.14838	0.22585	0.23372	0.069654	0.15358	0.2479	0.090149	0.31586	0.20428	0.036323	0.16387	0.11333	-2.0125	-2.6854	-3.1688	-2.3521	-2.9854	-2.8792	-2.3146	-3.2562	-2.3125	-2.6521	-3.2062	-2.2833	-2.9813	-3.0771	-2.3354	-3.1646	265.274	112.068	223.860	275.419	137.299	-52.582	212.215	9.166	-7.386	231.372	23.734	138.373	267.551	84.948	45.834	-56.122	9.4173e-05	0.00028053	6.7185e-05	1130.1	1.1607e-06	3.5307e-06	1233.3	224.14	1.028e-06	2.0381e-06	285.81	83.123	64.779	19.117	2.8788e-06	26.805	0.00022323	0.00025613	6.2799e-05	1111.9	2.9886e-06	2.4755e-06	1217.3	222.95	2.717e-06	2.6649e-06	284.12	83.67	65.058	19.361	2.7052e-06	27.091	139.948	30.303	9.034	-62.573	58.671	73.092	-62.771	-55.896	13.565	75.570	-55.956	-49.437	-48.416	-41.421	102.777	-41.996	-8191	255	
2425.194	1	1	0	0	0.10968	0.22007	0.2402	0.28062	0.22327	0.10289	0.1899	0.25701	0.2545	0.19782	0.097288	0.046712	0.29035	0.2499	0.034989	0.060105	-2.4229	-2.4958	-3.0333	-2.3292	-2.7208	-2.9	-2.3708	-3.0333	-2.6042	-2.4896	-3.2208	-2.3	-2.625	-2.9958	-2.2271	-3.0708	135.738	-23.489	129.496	255.970	78.605	-18.073	244.866	11.793	-29.389	163.007	187.724	40.838	265.836	212.252	13.316	131.339	8.1489e-05	0.00033601	8.9193e-05	1128.3	2.3215e-06	1.6724e-06	1236.4	224.73	2.3038e-06	3.2088e-06	287	82.986	65.011	19.104	2.1323e-06	26.514	0.00021249	0.00024615	6.4617e-05	1112.2	2.7684e-06	2.5818e-06	1217.6	222.83	2.8007e-06	2.7699e-06	284.12	83.568	65.065	19.329	2.7758e-06	26.95	150.221	25.401	22.990	-62.918	109.097	88.508	-62.767	-55.403	67.042	82.438	-55.458	-48.941	-48.869	-41.389	68.047	-41.758	-8191	255	
2425.290	1	1	0	0	0.20648	0.21279	0.20615	0.18893	0.03008	0.26024	0.16276	0.085651	0.11033	0.22734	0.10652	0.235	0.22881	0.18467	0.21391	0.18149	-2.2979	-2.4292	-3.2438	-2.4688	-2.5646	-2.9896	-2.3229	-3.1729	-2.8583	-2.2146	-3.2396	-2.2354	-2.4417	-3.0208	-2.2562	-2.9562	241.392	17.088	284.618	158.469	-59.804	145.353	202.710	-57.434	273.014	53.751	-42.575	62.161	214.367	194.384	216.007	222.515	9.2551e-05	0.00028053	7.5108e-05	1133.7	1.0912e-06	3.4193e-06	1231.1	225.74	1.4298e-06	3.6249e-06	284.68	83.036	65.064	19.095	3.0681e-06	26.697	0.00022263	0.00026441	6.1661e-05	1114.5	2.9657e-06	2.4005e-06	1215.4	223.38	2.926e-06	2.8161e-06	283.73	83.762	65.089	19.341	2.8846e-06	27.028	137.189	23.013	18.716	-62.834	100.859	87.676	-62.554	-55.399	64.469	79.391	-55.580	-49.024	-48.726	-41.419	67.047	-41.495	-8191	255	
2425.386	1	1	0	0	0.33864	0.33695	0.08296	0.34754	0.24874	0.16474	0.28173	0.024805	0.045219	0.13172	0.12352	0.066825	0.13478	0.17699	0.25539	0.15246	-2.3688	-2.1458	-3.1042	-2.6771	-2.45	-3.1562	-2.4813	-2.8729	-2.9292	-2.275	-3.1729	-2.5521	-2.5938	-3.2042	-2.2812	-2.9562	7.733	110.958	-51.764	265.404	31.844	-30.017	186.728	225.887	265.664	-59.993	-24.495	168.845	270.017	-2.864	191.867	213.293	8.3245e-05	0.00027837	6.8592e-05	1141.6	1.7042e-06	4.1638e-06	1239.2	226.45	2.3724e-06	2.7067e-06	285.36	82.846	65.089	19.171	2.5052e-06	26.973	0.00022644	0.00024455	6.4056e-05	1116	2.911e-06	2.4359e-06	1217.3	224.05	2.6285e-06	2.7135e-06	284.53	83.651	65.373	19.423	2.6188e-06	27.173	143.706	23.269	21.705	-62.887	89.255	90.813	-63.111	-55.029	58.456	86.033	-55.614	-49.020	-48.499	-41.299	89.828	-41.631	-8191	255	
2425.507	1	1	0	0	0.2378	0.18719	0.17516	0.22617	0.047554	0.13966	0.12958	0.30748	0.26229	0.21291	0.19493	0.074058	0.081473	0.069932	0.22217	0.032602	-2.3271	-2.2042	-2.8958	-2.6896	-2.2646	-3.0708	-2.4521	-2.8312	-2.9125	-2.2479	-3.1188	-2.6333	-2.3271	-3.1937	-2.475	-2.6479	-61.959	-34.422	31.967	263.720	56.939	224.769	221.652	266.129	150.598	117.457	22.705	82.082	209.807	-24.083	63.787	228.906	8.0044e-05	0.00027275	5.3668e-05	1139.5	1.8211e-06	2.5923e-06	1243.2	225.98	1.5583e-06	2.746e-06	288.16	82.878	65.295	19.188	1.819e-06	26.928	0.00020964	0.00024247	6.5948e-05	1121.8	3.0349e-06	2.3237e-06	1224.5	223.84	2.5611e-06	2.5986e-06	285.82	83.951	65.514	19.441	2.6827e-06	27.16	132.601	13.806	17.051	-62.846	85.082	79.856	-62.742	-55.110	90.742	68.446	-56.225	-49.354	-48.783	-41.502	44.754	-42.245	-8191	255	
2425.601	1	1	0	0	0.14635	0.19412	0.19197	0.087513	0.37968	0.06068	0.26912	0.1361	0.20345	0.048531	0.30806	0.11946	0.33248	0.15999	0.2222	0.23167	-2.7083	-2.3063	-2.9458	-2.9917	-2.35	-3.0917	-2.4542	-2.8042	-3.1646	-2.2917	-3.0354	-2.775	-2.425	-3.1583	-2.4188	-2.5042	179.358	153.241	162.064	260.942	263.754	232.241	192.361	31.724	218.461	155.602	-53.168	-0.926	276.823	17.957	33.901	-5.676	0.00010154	0.00027869	7.0217e-05	1134.6	1.1449e-06	2.3012e-06	1228.8	224.12	2.0568e-06	3.5642e-06	287.19	82.848	64.624	18.994	1.5043e-06	26.439	0.00021053	0.00024508	6.1261e-05	1110.8	2.8938e-06	2.7175e-06	1209.9	222.58	2.6148e-06	2.8854e-06	284.13	83.374	64.728	19.158	2.7534e-06	26.778	138.393	13.481	11.623	-63.282	82.870	111.506	-63.355	-55.715	63.652	89.071	-55.951	-49.153	-49.176	-40.960	66.870	-41.905	-8191	255	
2425.675	1	1	0	0	0.18746	0.24834	0.063897	0.18763	0.19754	0.3152	0.19043	0.23444	0.1992	0.15955	0.30362	0.32805	0.22198	0.069016	0.10504	0.10045	-2.7438	-2.2292	-2.9208	-2.8958	-2.2292	-3.1146	-2.6354	-2.6229	-3.0375	-2.2167	-2.8917	-2.9583	-2.3458	-3.1854	-2.5312	-2.6021	146.565	65.783	154.171	282.821	220.729	-11.619	167.249	278.112	110.366	-18.610	201.741	256.247	260.819	-34.093	150.952	266.524	8.0495e-05	0.0002482	5.9599e-05	1126.6	1.3991e-06	3.3343e-06	1222.7	223.68	1.6847e-06	2.8459e-06	283.72	81.876	64.643	18.921	2.2384e-06	26.64	0.00023191	0.00027706	6.5371e-05	1106.6	3.0557e-06	2.6562e-06	1208.4	222.45	2.8149e-06	2.7772e-06	282.47	83.076	64.638	19.191	2.6743e-06	26.878	145.263	20.593	15.541	-63.040	81.775	70.906	-62.987	-55.546	52.105	76.403	-55.998	-49.416	-48.916	-41.047	63.108	-41.915	-8191	255	
2425.794	1	1	0	0	0.017692	0.081691	0.12684	0.19817	0.027628	0.11587	0.07029	0.11782	0.17346	0.032304	0.11923	0.27438	0.065895	0.25197	0.055114	0.15237	-2.575	-2.2271	-2.6833	-3.0854	-2.225	-3.175	-2.7917	-2.4083	-3.1396	-2.5583	-2.7083	-2.9979	-2.2062	-3.05	-2.675	-2.4562	101.826	-64.024	174.594	258.446	69.025	200.698	-31.169	42.054	214.400	162.538	95.042	259.444	247.838	259.660	174.895	-24.972	8.3087e-05	0.00030799	7.975e-05	1132.8	1.7668e-06	3.2469e-06	1232.1	224.35	1.0211e-06	2.6344e-06	285.59	82.465	64.799	19.117	1.8179e-06	26.676	0.00021981	0.00026612	6.75e-05	1112.4	3.0135e-06	2.6742e-06	1214.2	222.54	2.6891e-06	2.8598e-06	284.02	83.554	64.967	19.29	2.6098e-06	26.975	131.990	11.261	27.007	-63.147	88.091	94.234	-63.091	-55.267	45.136	104.943	-55.558	-49.458	-48.954	-41.468	68.846	-41.427	-8191	255	
2425.890	1	1	0	0	0.28481	0.047593	0.14624	0.36047	0.080186	0.12054	0.10345	0.13091	0.22351	0.054326	0.3259	0.10381	0.13567	0.10433	0.1312	0.21554	-2.825	-2.3729	-2.5812	-3.1833	-2.15	-2.8438	-2.9229	-2.4354	-2.975	-2.5208	-2.5042	-3.1083	-2.3833	-2.825	-2.9437	-2.0125	15.331	217.699	220.467	-6.630	174.925	44.958	173.108	259.964	284.560	236.565	-72.221	262.994	283.461	-26.415	25.933	-56.068	7.5997e-05	0.00037142	6.7391e-05	1136.4	1.7276e-06	3.1932e-06	1229.3	224.44	1.8536e-06	2.8048e-06	286.26	82.284	64.003	19.243	1.6188e-06	26.626	0.00022894	0.00026387	6.9584e-05	1112.8	3.0302e-06	2.6148e-06	1212.4	222.64	2.8139e-06	2.7292e-06	283.2	83.044	64.575	19.337	2.5768e-06	26.836	139.821	-2.933	-7.702	-63.101	84.865	71.342	-63.117	-55.760	89.762	112.604	-55.796	-49.272	-48.762	-41.504	87.136	-41.838	-8191	255	
2425.986	1	1	0	0	0.12287	0.073666	0.24629	0.22585	0.069285	0.23551	0.21038	0.18669	0.10591	0.054571	0.26413	0.24227	0.17054	0.18678	0.23918	0.26898	-2.7583	-2.4208	-2.4313	-3.275	-2.1458	-2.8146	-3.1125	-2.3521	-3.0563	-2.5833	-2.5729	-3.15	-2.1958	-2.7083	-2.8771	-2.2708	209.709	120.155	-29.451	-47.790	-27.600	64.917	216.173	210.343	97.480	-17.430	219.998	217.701	-67.150	-24.360	179.151	269.488	8.9638e-05	0.00025005	8.1482e-05	1134.2	1.4832e-06	3.0148e-06	1230.5	223.13	1.1904e-06	1.9367e-06	285.2	83.154	64.566	19.197	1.854e-06	26.433	0.0002306	0.00026099	7.0678e-05	1113.9	3.2483e-06	2.7481e-06	1214.4	222.35	2.9734e-06	2.9941e-06	283.81	83.52	64.701	19.316	2.5336e-06	26.941	136.710	16.055	36.347	-63.211	83.777	59.489	-63.029	-55.532	32.787	64.986	-55.942	-49.344	-48.939	-41.794	88.187	-42.127	-8191	255	
2426.106	1	1	0	0	0.2264	0.11771	0.14771	0.25784	0.055617	0.17716	0.033704	0.20695	0.17155	0.15013	0.24486	0.24633	0.10611	0.10318	0.033503	0.095112	-2.5938	-2.7354	-2.3625	-3.1708	-2.2917	-3.0458	-3.0417	-2.2771	-2.7771	-2.5938	-2.2833	-3.2271	-2.4458	-2.5625	-3.0646	-2.2125	79.934	18.239	36.830	261.049	255.347	-2.051	200.827	250.972	-67.549	68.363	-69.371	-54.057	234.370	132.424	261.315	200.511	9.2527e-05	0.00029747	6.6069e-05	1138.5	9.8045e-07	3.1396e-06	1234.6	225.16	1.2918e-06	3.4798e-06	286.96	83.223	64.769	19.216	1.6852e-06	26.884	0.00022549	0.00026681	7.5172e-05	1116.1	3.2082e-06	2.7943e-06	1217.3	223.18	2.9571e-06	2.7311e-06	284.21	83.574	65.02	19.348	2.6754e-06	27.014	143.268	31.270	25.076	-63.245	74.719	94.774	-63.236	-55.624	106.237	78.905	-56.100	-49.519	-48.382	-41.528	73.489	-42.058	-8191	255	
2426.203	1	1	0	0	0.045514	0.2316	0.1957	0.23712	0.054408	0.15034	0.13272	0.19496	0.11978	0.18532	0.078373	0.086931	0.19695	0.14443	0.21342	0.17424	-2.5417	-2.6	-2.0354	-3.125	-2.5833	-2.4333	-3.2	-2.2521	-2.7875	-2.725	-2.2792	-3.1833	-2.3292	-2.5021	-3.0687	-2.2438	17.591	91.846	66.594	195.483	256.247	161.665	132.204	-5.514	66.586	113.601	-39.543	214.138	-56.044	159.004	-68.601	268.317	8.6215e-05	0.00031248	5.9213e-05	1143.4	1.7869e-06	3.9326e-06	1237.5	225.66	1.7265e-06	2.1545e-06	286.56	83.015	65.005	19.246	2.3587e-06	26.774	0.00022712	0.00025528	7.0309e-05	1117.4	3.0989e-06	2.6953e-06	1215.9	222.88	2.7006e-06	2.7827e-06	283.47	83.567	64.861	19.343	2.7595e-06	27.032	127.822	24.448	24.882	-63.103	67.074	75.159	-63.074	-55.796	63.869	79.918	-55.707	-49.364	-48.857	-41.047	89.446	-41.731	-8191	255	
2426.299	1	1	0	0	0.1372	0.25623	0.15872	0.0075142	0.13879	0.15985	0.14393	0.14214	0.10596	0.22321	0.24269	0.066026	0.16309	0.088033	0.060842	0.36644	-2.45	-3.0958	-2.2625	-3.15	-2.5938	-2.4667	-3.2229	-2.4104	-2.8167	-3	-2.3583	-3.1437	-2.7354	-2.35	-2.9667	-2.2354	278.706	-17.234	21.160	-5.848	141.749	124.853	178.679	259.838	-58.507	15.399	-55.214	44.658	93.712	286.032	-24.739	201.037	8.8153e-05	0.00015189	6.1609e-05	1139.8	1.3788e-06	2.0882e-06	1237.4	225.02	1.643e-06	3.2208e-06	285.16	83.555	65.346	19.377	2.603e-06	27.073	0.00023795	0.00023115	7.2083e-05	1114.8	2.8829e-06	2.6514e-06	1216.9	222.81	2.8697e-06	2.7985e-06	284.55	83.76	65.383	19.512	2.6087e-06	27.259	140.276	25.222	25.685	-62.958	112.501	58.281	-63.207	-55.688	71.666	99.556	-55.900	-49.433	-48.495	-41.460	75.446	-41.964	-8191	255	
2426.370	1	1	0	0	0.086453	0.18746	0.1892	0.079958	0.16074	0.36993	0.3222	0.20031	0.1714	0.18636	0.026371	0.070101	0.12674	0.093793	0.13847	0.037175	-2.3542	-2.9125	-2.0438	-3.0687	-2.6896	-2.2479	-3.3187	-2.2812	-2.6458	-3.1417	-2.2562	-3.0208	-2.7271	-2.2208	-3.2917	-2.5396	170.425	-12.428	103.144	191.125	62.112	12.788	202.657	258.741	36.584	92.068	82.562	-4.213	203.263	282.195	-0.556	-58.957	8.4249e-05	0.0002651	6.9192e-05	1146.9	1.821e-06	3.1791e-06	1243	226.82	1.1416e-06	2.9258e-06	290.99	84.221	66.405	19.653	2.3328e-06	27.471	0.00021633	0.00024252	7.2704e-05	1122.3	2.9386e-06	2.7829e-06	1223.1	224.39	2.7712e-06	2.3399e-06	287.67	84.823	66.077	19.772	2.5061e-06	27.574	131.698	-4.676	28.360	-62.944	37.837	91.435	-62.855	-55.716	39.530	57.833	-56.167	-49.063	-48.749	-41.187	66.853	-42.115	-8191	255	
2426.489	1	1	0	0	0.056033	0.037316	0.33967	0.20749	0.28106	0.24332	0.10682	0.079787	0.069475	0.25919	0.17333	0.23117	0.33343	0.13742	0.23163	0.17607	-2.2812	-2.9771	-2.1917	-3.0396	-2.8021	-2.1729	-3.3479	-2.4354	-2.5687	-3.2208	-2.3292	-3.0021	-2.9083	-2.1021	-3.1271	-2.7687	221.039	203.089	-16.140	282.917	194.177	128.485	138.786	24.430	42.436	249.934	270.966	222.662	29.612	36.891	110.246	-66.876	9.3646e-05	0.00025529	7.8256e-05	1151.2	1.4257e-06	2.5202e-06	1249.7	226.67	1.9007e-06	2.9602e-06	290.79	84.671	66.077	19.703	1.4333e-06	27.325	0.00022989	0.0002209	6.9141e-05	1128.1	2.7392e-06	2.7793e-06	1228.6	224.89	2.8318e-06	2.6521e-06	287.1	85.159	66.216	19.82	2.602e-06	27.557	139.059	12.578	8.101	-63.093	73.696	84.430	-63.014	-55.860	47.654	83.432	-56.048	-49.283	-48.924	-41.668	81.190	-41.924	-8191	255	
2426.585	1	1	0	0	0.046102	0.35075	0.076082	0.093081	0.10276	0.13385	0.25681	0.21226	0.0493	0.16529	0.27569	0.25038	0.2082	0.26637	0.11274	0.14894	-2.1833	-3.1646	-2.3375	-2.8979	-2.975	-2.4	-3.2479	-2.6604	-2.3583	-3.0687	-2.3979	-2.7396	-2.9333	-2.2104	-3.0833	-2.6667	-42.533	239.705	-42.441	-2.106	-49.616	227.323	233.153	210.103	27.309	142.985	263.925	235.212	-37.817	160.666	246.273	7.033	7.2457e-05	0.00027712	5.811e-05	1143.3	2.0317e-06	3.3654e-06	1244.7	226.57	1.6223e-06	3.3766e-06	288.99	84.446	65.145	19.49	1.7376e-06	27.128	0.0002317	0.00023932	6.4913e-05	1121.8	3.0396e-06	2.5782e-06	1224	224.96	2.9534e-06	2.564e-06	286.88	85.102	65.874	19.697	2.7579e-06	27.45	153.904	45.980	25.682	-62.968	97.866	91.287	-63.123	-55.651	79.806	78.261	-56.132	-49.423	-49.071	-41.419	78.574	-42.132	-8191	255	
2426.682	1	1	0	0	0.07256	0.13223	0.15105	0.34137	0.21101	0.071572	0.28123	0.23198	0.15571	0.21068	0.14593	0.036716	0.22455	0.27387	0.25833	0.2032	-2.0208	-3.2708	-2.4604	-2.7438	-3.0667	-2.1542	-3.0375	-2.7062	-2.1813	-2.8458	-2.6063	-2.5604	-3.0062	-2.3042	-2.9562	-2.8563	-3.705	5.315	17.157	239.725	279.754	134.593	225.839	138.252	196.049	249.511	265.552	206.760	-45.016	-68.096	-62.788	103.497	0.00010299	0.0002391	9.3883e-05	1138.9	2.3075e-06	3.473e-06	1240.8	224.72	1.7722e-06	3.0007e-06	288.6	84.096	65.798	19.461	1.928e-06	27.218	0.00022891	0.00021786	7.3147e-05	1120.3	2.8949e-06	2.8603e-06	1224.6	224.62	2.8123e-06	2.5282e-06	286.74	85.096	66.101	19.686	2.551e-06	27.518	139.138	4.100	14.351	-62.934	77.138	72.689	-62.985	-55.919	50.777	82.758	-56.157	-49.297	-48.821	-41.610	113.799	-42.289	-8191	255	
2426.778	1	1	0	0	0.10807	0.092076	0.19601	0.15718	0.3025	0.31791	0.13787	0.090914	0.098308	0.18308	0.027709	0.088282	0.25529	0.049216	0.053457	0.17834	-1.7563	-3.2146	-2.3958	-2.4458	-3.1708	-2.2104	-2.7792	-2.8771	-2.3521	-3.0375	-2.7271	-2.4479	-3.2188	-2.3438	-2.9146	-2.9896	-40.482	-17.396	200.217	-31.620	69.969	54.922	213.150	59.278	57.682	87.277	194.599	12.823	217.494	51.968	253.128	267.498	0.00010426	0.00035942	9.8852e-05	1146.5	1.3003e-06	2.9014e-06	1242.3	226.56	1.6945e-06	2.9525e-06	290.13	85.196	66.081	19.421	1.7393e-06	27.265	0.00022739	0.00023579	6.6879e-05	1125.2	2.8095e-06	2.7649e-06	1225.2	225.15	2.8365e-06	2.5908e-06	287.39	85.559	66.245	19.703	2.6676e-06	27.488	128.542	5.153	40.392	-63.190	129.305	71.165	-63.168	-55.962	56.188	74.777	-56.117	-49.728	-48.821	-41.186	85.146	-42.185	-8191	255	
2426.898	1	1	0	0	0.075329	0.18256	0.07308	0.50432	0.26517	0.1898	0.32073	0.20442	0.12662	0.046062	0.16264	0.17916	0.094752	0.20719	0.18652	0.14845	-1.825	-2.9792	-2.725	-2.5375	-3.1667	-2.2979	-2.8583	-3.0604	-2.2062	-2.9792	-2.6646	-2.3417	-3.1208	-2.3563	-2.7062	-2.9813	277.579	-16.575	66.918	-63.946	201.357	56.120	264.826	162.081	91.185	-57.791	-47.199	-22.338	21.690	257.462	261.786	167.472	8.3038e-05	0.00025645	0.00011	1143.7	2.7036e-06	2.6198e-06	1243	226.25	1.4513e-06	2.3746e-06	287.85	83.94	65.433	19.502	2.3385e-06	27.029	0.00022781	0.0002241	6.5312e-05	1123.3	2.8938e-06	2.7067e-06	1225.8	225.06	2.8155e-06	2.5233e-06	286.76	85.015	65.87	19.67	2.8106e-06	27.431	136.373	12.359	16.642	-63.055	90.871	62.337	-63.019	-55.729	36.779	96.362	-56.139	-49.379	-48.923	-41.857	74.393	-42.117	-8191	255	
2426.970	1	1	0	0	0.15273	0.13894	0.058794	0.13884	0.1542	0.23071	0.24281	0.16212	0.13544	0.15253	0.17293	0.24061	0.23018	0.17043	0.12537	0.20548	-1.9125	-2.8458	-2.6833	-2.3563	-3.0563	-2.2729	-2.7021	-3.1792	-2.1688	-2.7729	-2.9917	-2.25	-3.0708	-2.65	-2.4958	-3.0229	186.581	158.512	100.147	199.405	17.212	94.961	167.055	207.594	227.077	-49.682	-53.546	269.862	275.917	171.670	161.975	89.546	9.7629e-05	0.0002154	6.8883e-05	1140.5	2.0605e-06	2.3385e-06	1241.4	226.55	2.2001e-06	3.3271e-06	289.29	84.367	65.631	19.473	1.9574e-06	26.908	0.00023968	0.00022773	6.6613e-05	1121.1	2.8662e-06	2.5908e-06	1223.6	224.89	3.2157e-06	2.6478e-06	286.98	85.088	65.983	19.657	2.704e-06	27.302	137.203	14.150	18.784	-63.041	95.956	101.339	-62.768	-55.861	51.934	69.615	-56.108	-49.238	-48.909	-41.225	71.182	-42.582	-8191	255	
2427.066	1	1	0	0	0.26105	0.21646	0.10395	0.32302	0.1721	0.16638	0.15785	0.18209	0.26232	0.27878	0.22127	0.18825	0.07083	0.17772	0.22424	0.16855	-1.8521	-2.8646	-2.8729	-2.5375	-3.075	-2.7104	-2.6188	-3.1396	-2.2854	-2.8875	-2.8479	-2.3646	-3.1437	-2.5479	-2.4083	-3.2687	168.890	166.987	277.756	264.832	277.791	177.536	220.549	263.803	278.537	207.846	247.300	16.179	-54.940	-14.264	201.153	268.009	9.0826e-05	0.00018562	5.5971e-05	1137.5	1.7373e-06	2.1538e-06	1239.9	226.06	1.6506e-06	3.3852e-06	288.74	83.966	65.561	19.47	4.0101e-06	26.996	0.00022959	0.00021599	6.6569e-05	1117.9	2.8923e-06	2.6244e-06	1220.5	224.53	3.0777e-06	2.6594e-06	286.36	84.689	65.89	19.648	2.6822e-06	27.377	133.240	29.103	24.537	-62.909	75.601	111.222	-62.978	-55.678	59.725	91.101	-56.092	-49.298	-49.071	-41.233	84.217	-42.289	-8191	255	
2427.187	1	1	0	0	0.061966	0.2968	0.060245	0.32796	0.21031	0.093993	0.1803	0.15771	0.18586	0.23589	0.20504	0.27657	0.09072	0.28679	0.082102	0.12554	-1.9083	-2.7313	-3.05	-2.3563	-3.0938	-2.5312	-2.3625	-3.2229	-2.4062	-2.5958	-3.0542	-2.2854	-3.0812	-2.7313	-2.2833	-3.1125	-32.071	-48.761	-50.709	190.672	11.482	35.741	255.556	269.730	264.442	220.950	-34.760	273.638	54.509	108.841	118.986	281.917	7.1176e-05	0.00024965	9.7271e-05	1136.3	1.7568e-06	3.0255e-06	1236.2	226.66	4.5757e-07	2.2125e-06	288.19	84.903	65.711	19.417	1.8044e-06	27.307	0.00022745	0.00024044	6.5445e-05	1119	2.8615e-06	2.3969e-06	1220.8	224.83	2.8339e-06	2.6527e-06	286.27	85.026	65.917	19.671	2.7864e-06	27.469	133.311	24.645	19.962	-62.834	60.236	89.267	-62.690	-55.318	47.465	77.306	-55.865	-48.999	-48.443	-41.796	108.400	-41.925	-8191	255	
2427.283	1	1	0	0	0.11002	0.17201	0.075539	0.27095	0.29583	0.17898	0.16438	0.15282	0.077049	0.20526	0.1789	0.10157	0.17552	0.12052	0.20966	0.19821	-2.1188	-2.4417	-2.8937	-2.2812	-2.7812	-2.8917	-2.4417	-3.1667	-2.4437	-2.3292	-3.0938	-2.2687	-3.0146	-2.9313	-2.3104	-3.0042	44.086	-40.094	-11.592	181.826	-39.725	10.909	127.968	262.731	166.147	187.556	-35.233	-20.385	-26.593	-42.099	28.770	195.244	9.4712e-05	0.00026676	5.4712e-05	1136.4	1.8771e-06	2.9413e-06	1234.6	226.75	2.2541e-06	2.4995e-06	288.09	84.535	65.634	19.458	3.0611e-06	27.176	0.00023075	0.0002532	6.339e-05	1117.1	2.8891e-06	2.4389e-06	1219.9	224.69	2.7875e-06	2.5695e-06	286.24	84.982	65.927	19.597	2.7108e-06	27.345	135.395	24.966	6.957	-63.191	78.772	72.270	-62.855	-55.405	41.222	72.974	-55.651	-49.076	-48.913	-41.579	78.192	-42.061	-8191	255	
2427.379	1	1	0	0	0.071479	0.16984	0.25107	0.18118	0.12466	0.033528	0.34544	0.14202	0.24727	0.03673	0.18436	0.31084	0.19722	0.095841	0.12649	0.15049	-2.2583	-2.4062	-3.0812	-2.4792	-2.8896	-2.9208	-2.4062	-3.1688	-2.4646	-2.3625	-3.1354	-2.3708	-2.7125	-3.2062	-2.2979	-2.9167	44.726	56.532	249.020	247.643	283.367	-62.712	228.452	267.227	259.396	153.408	230.251	184.629	232.089	39.563	37.179	142.298	6.456e-05	0.00039109	6.9497e-05	1133.6	2.0177e-06	2.4562e-06	1234.7	226.45	8.7032e-07	3.3528e-06	289.29	84.354	65.819	19.511	1.3314e-06	27.216	0.00023435	0.0002493	6.7234e-05	1117.2	2.8876e-06	2.6004e-06	1219.5	224.93	2.7259e-06	2.7469e-06	286.83	84.73	65.905	19.682	2.7937e-06	27.374	126.562	47.513	10.835	-62.739	106.233	69.682	-62.969	-55.295	68.421	73.544	-55.955	-49.016	-48.637	-41.479	67.482	-41.758	-8191	255	
2427.475	1	1	0	0	0.12483	0.22521	0.099179	0.34324	0.099848	0.12067	0.3523	0.1105	0.074925	0.28578	0.1196	0.15101	0.046425	0.22851	0.16669	0.24257	-2.1833	-2.3208	-3.0708	-2.3667	-2.7167	-2.9083	-2.5292	-2.875	-2.6146	-2.2854	-3.1333	-2.4646	-2.6125	-3.0167	-2.3333	-2.9458	-42.055	284.626	276.193	246.686	24.704	-60.184	194.079	240.292	244.858	-47.907	198.605	144.825	134.635	26.263	69.438	138.702	9.7663e-05	0.00025316	4.3975e-05	1137.8	8.0694e-07	4.7187e-06	1230.8	226.5	1.0359e-06	2.4638e-06	287.38	84.129	65.611	19.429	1.8458e-06	27.148	0.00022338	0.00025122	6.0123e-05	1119	2.988e-06	2.5014e-06	1217.7	224.48	2.6717e-06	2.8258e-06	285.85	84.561	65.845	19.6	2.7926e-06	27.326	137.842	21.827	5.403	-62.940	124.505	89.696	-63.173	-55.597	40.322	76.904	-55.698	-49.437	-48.852	-41.946	52.221	-41.838	-8191	255	
2427.571	1	1	0	0	0.073813	0.37589	0.093886	0.41653	0.050588	0.10578	0.14583	0.31747	0.16131	0.16313	0.10246	0.10527	0.32421	0.14628	0.17007	0.05675	-2.3438	-2.2396	-3.1604	-2.6437	-2.4417	-3.0167	-2.4271	-2.9521	-2.8583	-2.2188	-3.2562	-2.6292	-2.5375	-3.05	-2.4979	-3.075	79.697	-18.697	42.378	258.189	96.098	-51.497	115.728	-8.346	42.263	158.419	13.514	144.123	-47.592	13.709	191.860	180.793	8.5987e-05	0.00031173	8.1339e-05	1131.7	8.7122e-07	3.5242e-06	1232.1	225	1.4822e-06	2.43e-06	288.48	84.551	65.64	19.418	2.128e-06	26.935	0.00023626	0.00025587	6.6243e-05	1114.5	2.9063e-06	2.5308e-06	1215.5	223.87	2.648e-06	2.8009e-06	286.69	84.924	65.899	19.573	2.6513e-06	27.378	126.300	33.716	28.921	-63.157	17.179	100.636	-63.157	-55.529	57.569	94.785	-55.942	-49.302	-48.528	-41.599	54.245	-41.375	-8191	255	
2427.666	1	1	0	0	0.1303	0.20511	0.21644	0.14493	0.080284	0.14327	0.26229	0.18256	0.023622	0.060657	0.22999	0.16093	0.23922	0.28011	0.22345	0.34649	-2.5583	-2.1875	-2.9833	-2.9375	-2.3458	-3.1125	-2.3458	-2.7667	-2.8958	-2.225	-3.0708	-2.6167	-2.3812	-3.1437	-2.2917	-2.6479	188.334	225.954	208.146	190.345	219.346	216.708	268.462	229.982	184.481	236.609	189.040	-67.650	231.580	202.085	257.609	-52.881	8.9778e-05	0.00035358	7.9188e-05	1137.9	2.2272e-06	2.454e-06	1232.7	225.89	2.6674e-06	3.7584e-06	286.35	83.71	65.862	19.375	2.6261e-06	27.178	0.00021713	0.00025523	6.0818e-05	1116.2	2.9292e-06	2.4996e-06	1217.3	224.65	2.7154e-06	2.9504e-06	285.22	84.595	65.836	19.583	2.6026e-06	27.401	129.959	2.469	-2.481	-63.014	107.391	64.428	-62.915	-55.501	76.044	80.097	-55.707	-49.605	-48.800	-41.386	74.949	-41.881	-8191	255	
2427.786	1	1	0	0	0.12597	0.29003	0.11225	0.15754	0.23401	0.025033	0.21313	0.1267	0.26489	0.14307	0.16354	0.055234	0.12835	0.20427	0.11525	0.16917	-2.6917	-2.1958	-3.0896	-2.7771	-2.4688	-3.1021	-2.7417	-2.5042	-3.2125	-2.1792	-2.9667	-2.7667	-2.3208	-3.2188	-2.4667	-2.3521	171.530	247.115	195.760	201.785	-71.581	250.671	283.221	212.188	202.511	-52.334	-33.111	23.135	140.306	-40.720	20.387	1.969	9.2381e-05	0.00029796	9.2568e-05	1134.4	1.2714e-06	2.2253e-06	1229.5	226.66	8.2443e-07	2.666e-06	287.69	84.283	65.407	19.304	2.4197e-06	26.965	0.00020696	0.00025667	6.4026e-05	1114.1	3.024e-06	2.4191e-06	1216.9	224.56	2.7159e-06	2.8447e-06	286.16	84.754	65.616	19.556	2.5891e-06	27.388	142.053	41.485	19.271	-62.939	15.685	63.411	-63.002	-55.529	89.267	90.791	-55.828	-49.140	-48.902	-41.621	105.171	-41.507	-8191	255	
2427.883	1	1	0	0	0.11496	0.15087	0.1619	0.33647	0.039395	0.11675	0.16869	0.41728	0.26882	0.2446	0.071875	0.19102	0.34524	0.080936	0.20987	0.10048	-2.825	-2.3229	-2.7979	-2.9562	-2.2313	-3.0542	-2.7542	-2.6688	-3.0792	-2.2229	-2.7542	-3.0062	-2.1479	-3.025	-2.5646	-2.5687	128.305	79.862	32.330	273.329	250.060	41.174	56.104	-61.320	125.917	-13.914	134.137	207.346	226.003	110.328	-37.125	178.092	8.2605e-05	0.00031707	7.2688e-05	1130.5	1.3784e-06	3.8744e-06	1229.1	227.91	1.2304e-06	3.0466e-06	289.65	84.271	65.595	19.58	3.4764e-06	27.09	0.00022834	0.000273	5.897e-05	1115.4	2.9469e-06	2.4455e-06	1215.9	224.9	2.6896e-06	2.6636e-06	286.51	84.814	65.733	19.627	2.6396e-06	27.408	134.145	24.796	10.397	-63.063	79.750	80.832	-62.703	-55.777	12.745	87.748	-55.667	-49.374	-48.732	-40.819	73.010	-41.385	-8191	255	
2427.979	1	1	0	0	0.13132	0.15363	0.15298	0.11973	0.16701	0.1664	0.17053	0.16821	0.082491	0.093396	0.36685	0.15885	0.02247	0.0085305	0.10918	0.12104	-2.725	-2.4375	-2.7896	-3.1583	-2.3688	-3.1312	-2.7812	-2.4479	-3.25	-2.4979	-2.7625	-3.2021	-2.2479	-2.9771	-2.5917	-2.3583	144.186	-7.351	11.244	-68.290	136.780	177.765	-58.454	155.628	-14.468	60.987	192.379	230.164	92.223	41.219	121.701	179.932	9.4529e-05	0.00012798	0.00010658	1140.7	2.087e-06	3.2537e-06	1228.7	225.66	1.0741e-06	3.2255e-06	289.5	84.371	65.62	19.384	1.5788e-06	27.023	0.00022585	0.00023547	6.5223e-05	1117.5	3.0541e-06	2.4443e-06	1216.1	224.46	2.659e-06	2.739e-06	287.22	84.943	65.801	19.643	2.547e-06	27.471	149.090	-14.419	46.193	-62.913	65.192	86.932	-62.726	-55.234	117.099	79.552	-56.204	-49.520	-48.773	-41.291	58.181	-41.797	-8191	255	
2428.075	1	1	0	0	0.2296	0.2075	0.10183	0.22168	0.1905	0.18928	0.22588	0.24499	0.1931	0.26441	0.16669	0.15458	0.067451	0.18303	0.24351	0.28241	-2.8271	-2.2938	-2.4583	-3.2313	-2.2458	-2.9	-2.9313	-2.3792	-3.0312	-2.6375	-2.6708	-3.05	-2.3833	-2.9625	-2.7333	-2.2667	268.609	194.665	-39.475	259.628	-62.577	93.637	229.319	-49.848	279.973	153.612	-69.407	163.462	114.605	18.897	184.137	24.151	7.9847e-05	0.00018053	4.1587e-05	1140.9	1.4762e-06	3.1479e-06	1234.4	227.46	1.5485e-06	3.2677e-06	289.65	84.822	65.709	19.456	2.718e-06	27.331	0.00021086	0.00023275	6.8919e-05	1117.5	2.9755e-06	2.496e-06	1217.3	225.01	2.6216e-06	2.8841e-06	287.04	84.997	65.844	19.644	2.5285e-06	27.49	130.945	3.720	17.642	-62.705	78.814	99.649	-62.808	-55.237	30.777	68.584	-55.768	-48.933	-48.609	-40.835	93.998	-42.169	-8191	255	
2428.196	1	1	0	0	0.16371	0.18696	0.14563	0.20175	0.17712	0.094426	0.33253	0.33539	0.15863	0.2009	0.25885	0.10293	0.11363	0.15013	0.048365	0.3416	-2.8729	-2.5375	-2.5062	-3.1729	-2.1833	-2.7229	-3.0729	-2.2917	-3.1542	-2.6063	-2.5646	-3.4625	-2.2687	-2.8354	-2.9854	-2.2458	81.619	73.495	-44.157	236.540	167.029	-69.764	188.904	231.251	239.765	168.126	242.345	65.643	197.642	-59.766	-19.599	-56.943	8.6276e-05	0.0002557	8.1146e-05	1144.1	2.0087e-06	2.6474e-06	1227.8	226.86	1.5424e-06	4.0228e-06	289.48	84.38	65.81	19.418	2.0811e-06	26.996	0.00022058	0.0002351	6.7988e-05	1119.7	2.9443e-06	2.622e-06	1215.8	224.88	2.758e-06	2.7359e-06	286.59	85	65.992	19.63	2.4607e-06	27.388	129.377	14.769	17.460	-62.800	87.568	100.699	-62.977	-55.639	68.708	64.131	-55.865	-49.397	-49.144	-41.733	82.124	-42.123	-8191	255	
2428.267	1	1	0	0	0.12409	0.12588	0.22366	0.21428	0.13044	0.21673	0.27553	0.21452	0.23827	0.10475	0.16141	0.16123	0.081781	0.24995	0.18268	0.20791	-2.6792	-2.7354	-2.1875	-3.2979	-2.3979	-2.7354	-3.275	-2.4188	-2.9104	-2.8229	-2.45	-3.0938	-2.5187	-2.7562	-2.9146	-2.4042	231.761	124.697	122.892	284.592	44.723	-7.604	236.078	148.979	268.776	2.136	210.775	132.883	99.937	281.493	-17.722	54.039	9.8525e-05	0.00026997	7.5809e-05	1141.4	2.0723e-06	3.937e-06	1229.9	226.21	8.5609e-07	4.3403e-06	288.73	84.603	65.46	19.436	2.3113e-06	27.134	0.00022436	0.00023958	6.6953e-05	1119.4	2.8069e-06	2.6178e-06	1217.8	224.7	2.5679e-06	2.6084e-06	286.49	85.14	65.9	19.676	2.5442e-06	27.484	123.849	14.645	40.079	-62.917	103.411	77.364	-62.674	-55.586	61.734	95.698	-55.790	-49.002	-48.685	-40.851	63.769	-42.044	-8191	255	
2428.363	1	1	0	0	0.099819	0.066042	0.075184	0.17543	0.16546	0.19143	0.04335	0.024467	0.04143	0.15669	0.15645	0.24589	0.21276	0.21469	0.020774	0.22525	-2.425	-2.5917	-2.3063	-3.2812	-2.3896	-2.4792	-3.0875	-2.1	-2.8312	-2.9	-2.2021	-3.0354	-2.5792	-2.1937	-3.0271	-2.3833	55.846	-42.227	76.853	213.232	267.869	61.973	52.268	19.262	278.210	233.363	-15.507	-63.995	186.979	-66.611	-1.245	52.467	8.3488e-05	0.00024735	8.7701e-05	1142.1	2.5499e-06	3.5114e-06	1233.1	224.81	1.9669e-06	3.0228e-06	289.95	84.488	65.727	19.669	2.3439e-06	27.041	0.00021077	0.00023649	6.6672e-05	1119.9	2.8449e-06	2.571e-06	1217.6	224.43	2.7702e-06	2.3472e-06	287.3	85.236	66.11	19.734	2.5386e-06	27.389	134.377	25.807	29.644	-63.488	77.945	81.353	-63.523	-55.905	83.480	79.118	-56.188	-49.649	-49.428	-41.426	104.875	-42.863	-8191	255	
2428.459	1	1	0	0	0.12355	0.17319	0.13253	0.092224	0.22013	0.24484	0.41988	0.26653	0.21751	0.22437	0.05984	0.11072	0.15739	0.20809	0.029812	0.1369	-2.2708	-2.8792	-2.2021	-3.2833	-2.5479	-2.4792	-3.3167	-2.3312	-2.6646	-2.9208	-2.3417	-3.1292	-2.5771	-2.4396	-2.9979	-2.4688	280.869	116.489	169.716	177.401	117.880	81.613	197.078	157.703	94.188	170.686	-53.339	271.115	-63.222	200.231	260.645	87.249	9.0548e-05	0.0002268	7.4233e-05	1139.8	1.8233e-06	2.8942e-06	1235	226.51	9.284e-07	3.6086e-06	288.58	84.833	65.569	19.433	2.3832e-06	27.121	0.00022263	0.00022117	6.747e-05	1118.9	2.8574e-06	2.5104e-06	1220.1	224.72	2.855e-06	2.2901e-06	286.64	85.181	65.961	19.674	2.51e-06	27.454	128.697	25.887	22.078	-63.314	75.345	85.396	-63.537	-55.783	100.083	70.581	-56.559	-49.941	-49.075	-41.677	45.111	-42.511	-8191	255	
2428.578	1	1	0	0	0.10922	0.25897	0.030066	0.53599	0.23558	0.029587	0.18857	0.35059	0.21434	0.22023	0.15841	0.1434	0.07237	0.15928	0.13072	0.1706	-2.3208	-2.9562	-2.1896	-2.8604	-2.5167	-2.3604	-3.3104	-2.5021	-2.5083	-2.9833	-2.3896	-2.9354	-2.7708	-2.1813	-3.2292	-2.3458	254.764	-16.546	198.109	237.753	-6.313	45.007	179.818	-55.244	162.971	-32.215	273.995	279.697	3.123	9.589	78.095	248.646	8.1505e-05	0.00034028	7.9448e-05	1131.5	2.0429e-06	3.8399e-06	1229.4	225.15	1.3655e-06	3.0502e-06	288.59	83.95	65.915	19.396	2.8145e-06	26.994	0.00023563	0.00022752	6.8638e-05	1115.3	2.9183e-06	2.5182e-06	1216.7	224.48	2.8102e-06	2.3016e-06	286.55	84.787	65.95	19.608	2.4882e-06	27.327	128.525	20.982	21.539	-63.442	87.640	81.956	-63.230	-55.854	103.996	82.062	-56.308	-49.470	-48.907	-41.610	68.651	-42.254	-8191	255	
2428.675	1	1	0	0	0.19909	0.057118	0.26511	0.17567	0.22399	0.28328	0.26182	0.055756	0.10928	0.094152	0.16574	0.16855	0.15477	0.13544	0.04135	0.036615	-2.2292	-3.15	-2.15	-3.0333	-3.0104	-2.2146	-3.3583	-2.7146	-2.6167	-3.2917	-2.475	-2.8333	-2.8812	-2.35	-3.1771	-2.5771	260.762	19.510	17.882	235.459	140.705	94.756	222.710	88.218	190.922	3.358	-61.510	265.069	49.252	-1.087	219.240	-66.405	8.483e-05	0.00036373	8.0539e-05	1138.8	1.5289e-06	2.1423e-06	1233.1	225.72	1.3606e-06	2.3316e-06	288.88	84.65	65.648	19.409	1.3426e-06	26.932	0.00023209	0.00021161	6.6657e-05	1118	2.7402e-06	2.6058e-06	1217.4	224.31	2.856e-06	2.5525e-06	286.26	85.127	65.911	19.666	2.7691e-06	27.403	141.082	32.864	14.501	-63.306	61.876	98.494	-63.242	-55.830	51.966	85.958	-55.994	-49.193	-48.691	-41.669	105.569	-41.691	-8191	255	
2428.771	1	1	0	0	0.22771	0.12297	0.08975	0.11138	0.060078	0.097273	0.19495	0.11965	0.034374	0.25091	0.29197	0.099481	0.30714	0.11808	0.17841	0.055536	-2.2167	-3.0583	-2.3125	-2.9854	-2.9646	-2.2188	-3.2458	-2.6271	-2.425	-3.1063	-2.2104	-2.7375	-3.1604	-2.1417	-2.9062	-2.7542	-12.107	139.200	245.066	-49.611	135.622	-62.065	189.620	240.108	219.571	-52.998	262.936	12.149	196.247	273.453	207.732	227.945	7.7389e-05	0.00013917	4.1375e-05	1141.1	1.6574e-06	2.0246e-06	1235.4	225.72	1.499e-06	2.6244e-06	286.31	84.622	65.862	19.419	1.6304e-06	27.33	0.00022653	0.00023467	6.9215e-05	1118.7	2.8267e-06	2.6953e-06	1221.1	224.23	2.8418e-06	2.5154e-06	285.92	84.969	65.948	19.616	2.3789e-06	27.51	147.332	38.219	25.674	-63.189	102.224	64.972	-62.953	-55.679	78.761	75.078	-56.192	-49.651	-49.000	-41.763	61.601	-42.071	-8191	255	
2428.867	1	1	0	0	0.26114	0.080366	0.21157	0.20872	0.13419	0.19064	0.090268	0.51564	0.21376	0.12082	0.20032	0.22533	0.15195	0.18522	0.2486	0.10161	-1.9292	-3.1896	-2.5229	-2.8104	-3.0458	-2.2833	-3.1271	-2.85	-2.475	-3.0208	-2.3542	-2.5167	-3.1604	-2.1292	-2.8354	-2.9042	86.844	-0.945	50.365	215.732	-30.244	-54.865	81.544	185.316	-29.667	111.086	-40.679	258.714	-68.167	221.538	-56.159	125.666	9.1229e-05	0.0003056	8.5461e-05	1140	1.587e-06	2.0228e-06	1235.2	227.18	1.9921e-06	2.4188e-06	289.07	84.674	65.789	19.558	2.0293e-06	27.05	0.00021752	0.00022165	6.1128e-05	1118.7	2.7215e-06	2.673e-06	1220.5	224.8	2.9387e-06	2.468e-06	286.8	85.21	65.973	19.675	2.376e-06	27.392	141.087	30.205	36.705	-62.874	75.402	81.582	-63.126	-55.804	95.329	95.159	-56.127	-49.218	-48.512	-41.472	70.434	-42.057	-8191	255	
2428.963	1	1	0	0	0.25653	0.13822	0.14158	0.14474	0.083053	0.19654	0.10006	0.20963	0.040679	0.11467	0.23454	0.067808	0.2584	0.17538	0.067934	0.39048	-1.7812	-3.0458	-2.5167	-2.3875	-3.1458	-2.3396	-2.9208	-3.0021	-2.2438	-3.1312	-2.5229	-2.4333	-3.225	-2.3187	-2.6104	-2.7708	-8.132	-42.371	121.268	268.475	271.995	44.167	-48.704	249.306	236.371	189.993	15.958	42.300	232.030	66.908	56.036	-35.362	9.433e-05	0.00038089	4.7049e-05	1137.9	1.774e-06	2.5333e-06	1234.8	226.99	1.6489e-06	1.2343e-06	290.96	84.739	65.892	19.544	1.9846e-06	27.118	0.0002246	0.00023457	6.3715e-05	1118.4	2.7616e-06	2.8573e-06	1218.9	225.07	2.9882e-06	2.544e-06	287.81	85.273	66.18	19.668	2.6906e-06	27.472	130.489	19.038	28.930	-63.301	81.990	104.788	-63.132	-55.903	85.985	81.434	-56.013	-49.809	-49.586	-41.768	90.605	-42.083	-8191	255	
2429.059	1	1	0	0	0.073902	0.19105	0.20568	0.21609	0.10081	0.082107	0.29385	0.068052	0.1552	0.11416	0.11972	0.076727	0.075127	0.1025	0.11019	0.223	-1.7062	-2.8875	-2.4667	-2.425	-3.0458	-2.4167	-2.9792	-2.9833	-2.1417	-2.9521	-2.65	-2.4896	-2.975	-2.2625	-2.3875	-2.9583	5.638	-54.793	-45.620	194.363	120.465	67.397	248.381	204.406	34.054	94.984	-48.840	-5.804	273.043	197.772	253.051	186.794	0.00010328	0.00029095	8.0985e-05	1133.4	1.4229e-06	2.3842e-06	1236.3	226.01	1.6597e-06	2.238e-06	289.81	84.435	65.994	19.562	1.636e-06	27.105	0.00022207	0.0002264	6.271e-05	1118.2	2.8527e-06	2.6928e-06	1219.8	224.61	2.9297e-06	2.5798e-06	287.43	85.309	66.289	19.737	2.8111e-06	27.44	145.830	22.495	31.833	-63.315	5.015	84.273	-63.013	-55.772	46.019	55.298	-55.833	-49.444	-49.024	-41.614	86.349	-42.575	-8191	255	
2429.155	1	1	0	0	0.16538	0.16948	0.13227	0.23336	0.28592	0.33683	0.172	0.41032	0.12599	0.11259	0.12725	0.18008	0.17787	0.199	0.13649	0.14165	-1.8729	-2.7292	-2.6437	-2.3375	-3.0563	-2.3896	-2.4854	-3.125	-2.1396	-2.8958	-2.6542	-2.3	-3.0146	-2.4583	-2.4583	-3.1229	285.075	186.564	281.537	177.594	91.527	13.688	238.924	185.830	104.512	174.483	93.731	174.174	-20.533	185.724	198.918	18.053	8.6234e-05	0.00015361	7.2879e-05	1134.8	1.1665e-06	1.8904e-06	1233.3	226.16	1.0474e-06	3.2439e-06	291.29	83.718	65.561	19.696	1.6679e-06	27.038	0.00023263	0.00023158	6.2843e-05	1117.7	2.7621e-06	2.5392e-06	1219.6	224.73	2.8939e-06	2.5112e-06	287.65	84.865	66.076	19.748	2.7169e-06	27.391	142.249	-2.267	21.009	-63.388	96.409	111.038	-63.083	-55.801	71.531	96.629	-56.052	-49.452	-49.203	-41.798	69.710	-42.663	-8191	255	
2429.276	1	1	0	0	0.3263	0.058663	0.073002	0.3359	0.208	0.23816	0.27145	0.19812	0.2138	0.33188	0.23165	0.11823	0.19032	0.15401	0.13003	0.020785	-1.8583	-2.6083	-2.6958	-2.3354	-2.9604	-2.5333	-2.5708	-3.125	-2.1646	-2.7083	-2.9604	-2.175	-3.05	-2.4542	-2.3479	-3.15	137.921	246.143	239.474	-51.972	223.313	14.519	282.756	152.319	142.355	-8.937	-9.660	-70.272	238.847	103.419	283.216	31.379	9.3781e-05	0.00030617	8.5561e-05	1137.4	1.7692e-06	2.6108e-06	1239.5	226.25	5.4384e-07	2.3239e-06	289.18	84.676	65.639	19.642	3.6903e-06	26.997	0.00022585	0.00024257	6.3834e-05	1118.3	2.709e-06	2.6112e-06	1220.6	224.6	2.8486e-06	2.4006e-06	287.21	85.321	66.124	19.762	2.8453e-06	27.504	136.998	8.698	43.796	-63.207	121.943	84.297	-63.133	-55.989	25.743	87.682	-56.134	-49.761	-49.124	-41.915	64.128	-42.164	-8191	255	
2429.372	1	1	0	0	0.12433	0.19078	0.27955	0.24453	0.10085	0.13714	0.3783	0.12526	0.11283	0.27656	0.021932	0.28711	0.21754	0.13195	0.20275	0.12067	-1.6521	-2.6208	-2.8146	-2.325	-2.8312	-2.6021	-2.4479	-3.0354	-2.2667	-2.4875	-2.8937	-2.0938	-2.8396	-2.6521	-2.35	-3.0604	111.357	-47.648	121.944	-73.557	221.440	88.914	226.793	200.957	247.154	243.375	138.632	280.077	136.810	262.780	-46.989	124.820	7.4156e-05	0.00041635	8.9129e-05	1135.8	1.2944e-06	2.4053e-06	1236.7	226.59	1.5606e-06	3.7609e-06	288.82	84.216	65.948	19.644	2.3631e-06	27.318	0.00022956	0.00024791	6.5179e-05	1119.7	2.7022e-06	2.3915e-06	1219.8	224.91	2.9271e-06	2.6813e-06	286.12	85.198	66.211	19.754	2.7792e-06	27.486	148.599	23.125	25.751	-62.957	88.610	67.402	-63.385	-55.934	47.494	98.199	-56.468	-49.556	-48.950	-41.826	88.858	-41.929	-8191	255	
2429.468	1	1	0	0	0.11424	0.074061	0.1231	0.20474	0.098736	0.27007	0.42762	0.12579	0.20745	0.15215	0.19199	0.26063	0.21794	0.18974	0.1027	0.21377	-1.9896	-2.6104	-3.0646	-2.2167	-2.8271	-2.675	-2.3229	-3.1271	-2.5708	-2.4896	-2.975	-2.1375	-2.6917	-2.8146	-2.1312	-2.8521	249.957	-17.624	125.349	-33.101	121.685	159.278	181.206	262.312	12.600	26.987	6.181	226.903	-31.256	263.344	35.663	34.379	8.0187e-05	0.00026026	8.8375e-05	1142.6	7.4354e-07	3.7125e-06	1241.7	228.02	1.0031e-06	3.1876e-06	292.12	84.884	66.051	19.588	2.7448e-06	27.33	0.00021844	0.00024615	6.3198e-05	1119.3	2.7632e-06	2.5314e-06	1222.5	225.1	2.669e-06	2.7207e-06	287.32	85.268	66.319	19.764	2.764e-06	27.634	140.981	21.776	34.783	-63.039	59.559	91.895	-63.155	-55.830	59.846	74.441	-55.800	-49.687	-48.885	-41.593	67.925	-42.131	-8191	255	
2429.564	1	1	0	0	0.27951	0.057408	0.13535	0.35209	0.20016	0.17602	0.20535	0.20044	0.17196	0.062929	0.2791	0.35925	0.32487	0.13303	0.12844	0.095534	-1.9729	-2.3229	-3.1521	-2.3042	-2.5625	-3.0062	-2.2271	-2.9104	-2.5604	-2.1854	-3.1021	-2.2083	-2.4813	-2.8271	-2.1875	-2.8458	118.189	1.209	237.573	248.274	198.755	253.284	217.556	52.970	-10.555	74.467	242.517	240.979	276.210	-72.226	129.757	36.782	0.00010032	0.000186	6.1302e-05	1146.2	1.3585e-06	3.4615e-06	1241.8	226.8	1.3822e-06	3.7941e-06	290.04	85.448	66.403	19.632	2.3402e-06	27.211	0.00022204	0.00023862	6.1616e-05	1123	2.8506e-06	2.4155e-06	1223.7	225.38	2.8313e-06	2.8106e-06	286.92	85.632	66.604	19.754	2.6508e-06	27.526	139.535	6.767	22.478	-63.077	114.200	81.143	-63.159	-55.895	49.786	82.748	-56.294	-49.414	-48.856	-41.004	57.317	-42.002	-8191	255	
2429.659	1	1	0	0	0.17041	0.16319	0.03451	0.15677	0.11249	0.038732	0.26495	0.29551	0.08232	0.054455	0.11464	0.18802	0.28411	0.34748	0.10284	0.25119	-2.225	-2.3146	-3.0438	-2.2729	-2.5729	-2.9021	-2.5125	-2.9875	-2.5125	-2.35	-3.1875	-2.4	-2.5917	-3.1583	-2.3146	-2.7583	189.883	-8.430	108.769	259.049	123.404	147.623	244.308	271.708	273.282	39.846	141.884	253.132	264.578	9.653	105.348	133.353	0.00010445	0.00029643	5.7359e-05	1145	9.3906e-07	4.4798e-06	1239.4	226.81	1.9619e-06	2.3443e-06	289.39	85.073	66.604	19.72	2.6731e-06	27.236	0.00022139	0.00024999	6.3893e-05	1120.8	2.8652e-06	2.6316e-06	1222.7	225.06	2.7723e-06	2.6254e-06	286.98	85.375	66.433	19.76	2.7096e-06	27.609	141.739	37.416	13.847	-63.174	77.949	78.315	-62.946	-55.658	71.753	118.746	-56.021	-49.464	-48.973	-41.676	82.530	-42.353	-8191	255	
2429.755	1	1	0	0	0.17644	0.097432	0.075811	0.14711	0.071258	0.29744	0.3107	0.21835	0.10409	0.11431	0.17348	0.12392	0.2716	0.084531	0.14432	0.33759	-2.1625	-1.9167	-3.0792	-2.5	-2.5521	-3.0667	-2.3333	-2.8812	-2.6167	-2.1063	-2.8604	-2.3896	-2.25	-2.9875	-2.3312	-2.7125	272.101	-24.311	266.743	-34.639	-37.112	-17.754	250.722	185.171	-65.019	-47.840	210.316	200.168	-35.700	164.147	48.314	16.470	9.3052e-05	0.00023791	0.00010191	1139.6	1.6068e-06	4.0077e-06	1241.8	227.66	1.0534e-06	2.315e-06	290.19	85.065	65.929	19.423	2.3307e-06	27.251	0.0002202	0.00026606	5.9014e-05	1118.3	2.9667e-06	2.5734e-06	1220.8	225.37	2.55e-06	2.838e-06	287.32	85.57	66.217	19.654	2.6665e-06	27.517	129.210	22.995	25.864	-63.006	101.847	79.846	-62.964	-55.741	95.599	80.361	-55.919	-49.499	-48.834	-41.240	73.981	-41.696	-8191	255	
2429.876	1	1	0	0	0.13631	0.25305	0.094881	0.25664	0.18592	0.15556	0.1286	0.30823	0.038704	0.18106	0.31357	0.028739	0.095551	0.024129	0.042042	0.32801	-2.4562	-2.0854	-2.8937	-2.5646	-2.1521	-2.9979	-2.3812	-2.6437	-2.6896	-2.1437	-2.9771	-2.6292	-2.2167	-3.0458	-2.2646	-2.5938	42.881	254.845	112.113	261.913	195.182	116.437	234.744	210.557	130.079	163.848	254.227	99.919	-6.589	174.089	-48.513	-31.576	6.3622e-05	0.00025744	8.0399e-05	1144.1	1.9548e-06	2.073e-06	1237.8	228.05	8.323e-07	2.3739e-06	291.1	85.039	65.902	19.64	2.536e-06	27.3	0.00022421	0.00025138	6.1572e-05	1118.5	3.026e-06	2.649e-06	1219.8	225.11	2.7212e-06	2.8046e-06	287.37	85.502	66.24	19.752	2.7825e-06	27.571	137.309	-0.160	51.836	-63.193	61.378	64.433	-63.280	-55.821	93.574	92.590	-56.194	-49.602	-48.949	-41.510	59.573	-42.241	-8191	255	
2429.972	1	1	0	0	0.031645	0.14961	0.022541	0.30118	0.02594	0.17506	0.33744	0.12355	0.3303	0.046045	0.24082	0.13589	0.015613	0.33181	0.10095	0.34366	-2.5979	-2.1771	-2.8958	-2.7417	-2.1771	-2.9646	-2.3396	-2.5354	-2.8396	-2.3167	-3.0271	-2.6896	-2.2229	-2.9437	-2.1792	-2.4375	186.234	-31.429	119.250	273.927	31.885	281.202	140.696	273.934	154.663	277.895	-15.790	192.924	-31.192	6.736	224.575	-73.123	7.922e-05	0.00021765	8.945e-05	1142	2.0415e-06	1.7021e-06	1234.2	226.08	1.7276e-06	3.1141e-06	288.07	84.307	65.863	19.627	1.9597e-06	27.152	0.00020973	0.00025165	6.2015e-05	1117.9	2.9474e-06	2.4767e-06	1217.7	225.22	2.6338e-06	2.739e-06	287.15	85.204	66.178	19.775	2.4871e-06	27.503	130.191	30.689	40.972	-63.226	86.658	80.282	-63.334	-55.662	57.213	94.162	-56.224	-49.860	-49.026	-41.479	75.331	-41.900	-8191	255	
2430.068	1	1	0	0	0.26519	0.18465	0.20404	0.30659	0.082354	0.17236	0.14347	0.12457	0.086701	0.087	0.097167	0.17555	0.15179	0.16854	0.1682	0.24474	-2.6312	-2.2062	-2.6542	-2.8875	-1.925	-3.0708	-2.5417	-2.3583	-2.8792	-2.2375	-2.8083	-2.5917	-2.1479	-3.0708	-2.5458	-2.1958	-23.250	190.718	268.685	228.771	277.837	143.239	155.224	40.171	118.207	-54.215	-34.083	221.406	267.097	64.122	-19.734	218.572	7.1094e-05	0.00026838	0.00010302	1138.1	1.6886e-06	3.2348e-06	1236.4	227.27	1.5402e-06	2.5443e-06	290.82	84.906	66.169	19.83	2.9519e-06	27.207	0.00023066	0.0002382	6.4115e-05	1119.2	2.9105e-06	2.5692e-06	1219.4	225.24	2.6027e-06	2.6448e-06	287.47	85.361	66.238	19.789	2.4254e-06	27.535	133.333	8.893	18.912	-63.215	47.553	78.281	-63.334	-55.690	66.074	91.609	-55.866	-49.625	-49.317	-41.448	92.579	-41.924	-8191	255	
2430.139	1	1	0	0	0.031095	0.064706	0.11864	0.42166	0.22808	0.14437	0.23885	0.11901	0.12918	0.098047	0.29767	0.14866	0.25634	0.3399	0.33728	0.070139	-2.5604	-2.2375	-2.6271	-2.8667	-2.0854	-2.9354	-2.6271	-2.3854	-2.8417	-2.3792	-2.6708	-2.8167	-2.0667	-2.9313	-2.6813	-2.3271	233.311	-13.896	190.999	220.592	215.284	6.434	252.127	254.695	-10.807	66.494	-67.448	35.837	-48.536	244.786	-21.114	232.650	7.1848e-05	0.0002719	7.1126e-05	1133.9	1.4551e-06	3.8301e-06	1239.5	226.45	1.2898e-06	2.6202e-06	285.7	83.898	65.928	19.492	2.396e-06	27.117	0.00021359	0.00023766	6.3597e-05	1116.4	3.127e-06	2.3861e-06	1218.9	225.13	2.6169e-06	2.7614e-06	286.02	85.043	66.209	19.741	2.4484e-06	27.479	132.645	27.265	6.375	-63.188	56.194	90.456	-62.953	-55.569	77.884	80.483	-56.324	-49.505	-48.611	-41.888	89.477	-42.061	-8191	255	
2430.236	1	1	0	0	0.13129	0.10974	0.064314	0.20558	0.15876	0.11669	0.078637	0.22632	0.21677	0.061457	0.3107	0.20609	0.25794	0.22874	0.13703	0.039912	-2.6042	-2.2417	-2.4021	-3.0917	-2.0146	-2.7229	-2.9437	-2.2271	-2.7542	-2.3125	-2.4417	-3.0604	-2.2125	-2.7083	-2.8563	-2.1354	125.328	-50.323	265.918	261.053	87.939	-61.813	-32.515	178.749	-44.793	225.535	-73.067	7.763	258.066	238.840	275.795	149.002	8.91e-05	0.00029914	6.7556e-05	1133.8	1.5818e-06	2.7622e-06	1235.1	225.94	1.1806e-06	3.3395e-06	286.7	84.666	65.881	19.545	3.0134e-06	27.112	0.00022144	0.00024049	6.0286e-05	1118	2.9776e-06	2.3837e-06	1218.7	225.21	2.5727e-06	2.5409e-06	286.86	85.504	66.299	19.775	2.5605e-06	27.57	139.401	21.469	19.798	-63.438	62.200	86.621	-63.467	-55.616	93.454	59.708	-56.043	-49.503	-49.492	-41.800	79.848	-42.236	-8191	255	
2430.356	1	1	0	0	0.15776	0.12596	0.28322	0.15861	0.20368	0.1318	0.29074	0.33571	0.14836	0.11286	0.19768	0.072007	0.23348	0.11771	0.024114	0.18403	-2.6104	-2.4437	-2.4562	-3.125	-2.1479	-2.6896	-3.0271	-2.2833	-3.0292	-2.5312	-2.4417	-2.9729	-2.3229	-2.7542	-2.9125	-2.1542	239.537	231.045	-55.992	-28.221	140.310	-38.761	224.055	242.538	-3.151	152.346	274.267	135.309	-33.288	231.198	1.068	278.265	8.0405e-05	0.00041113	4.5092e-05	1141.5	1.5177e-06	2.4181e-06	1234.9	225.71	1.4149e-06	2.2681e-06	290.12	84.691	65.909	19.595	2.03e-06	27.155	0.00021466	0.00023409	6.7337e-05	1120.4	2.9344e-06	2.4996e-06	1220.4	224.8	2.6901e-06	2.5999e-06	287.16	85.45	66.289	19.773	2.5358e-06	27.563	129.060	36.781	22.886	-63.225	40.940	62.341	-63.239	-55.812	57.170	95.935	-56.006	-50.026	-48.984	-41.842	74.037	-42.322	-8191	255	
2430.452	1	1	0	0	0.070711	0.13888	0.12932	0.12063	0.15374	0.30504	0.070231	0.12431	0.14529	0.103	0.21722	0.077926	0.075462	0.1159	0.095233	0.12762	-2.5083	-2.4813	-2.3521	-2.95	-2.2979	-2.6083	-3.2729	-2.0354	-2.9083	-2.6354	-2.3208	-3.1104	-2.2188	-2.4708	-3.0146	-2.2833	282.721	-44.846	184.650	198.507	191.517	240.032	210.328	159.011	109.000	213.069	241.654	105.378	119.681	108.125	135.590	-57.724	7.3027e-05	0.00025315	5.4464e-05	1137.4	1.7811e-06	3.4724e-06	1232.7	226.24	1.0435e-06	3.707e-06	288.69	84.604	65.722	19.511	2.0646e-06	27.323	0.00021234	0.00022538	6.9791e-05	1118.5	2.9422e-06	2.5836e-06	1218.5	225.23	2.7143e-06	2.4146e-06	287.45	85.564	66.218	19.748	2.5145e-06	27.492	145.553	9.077	-7.811	-63.507	96.332	85.062	-63.280	-56.067	80.461	72.634	-55.941	-49.583	-49.175	-41.519	63.026	-42.587	-8191	255	
2430.549	1	1	0	0	0.38443	0.16082	0.13392	0.32047	0.136	0.30897	0.2862	0.28717	0.26145	0.17305	0.1592	0.20766	0.36575	0.077601	0.33019	0.12042	-2.5354	-2.6917	-2.1604	-3.0312	-2.4646	-2.3312	-2.9771	-2.4062	-2.7729	-2.7812	-2.1521	-2.95	-2.5667	-2.5521	-2.8875	-2.2125	-27.459	-36.756	22.957	216.711	70.545	168.146	271.458	228.623	73.430	263.663	-53.671	237.581	282.080	160.017	71.551	247.926	9.3894e-05	0.00025897	6.5967e-05	1138.1	2.4196e-06	3.9864e-06	1229.7	226.1	1.1867e-06	3.6858e-06	289.94	85.025	65.761	19.47	1.5426e-06	27.061	0.00022495	0.00022773	6.7456e-05	1119.3	2.8917e-06	2.6778e-06	1219.3	225.48	2.6132e-06	2.5859e-06	287.91	85.496	66.207	19.709	2.4601e-06	27.488	133.757	26.118	23.670	-63.290	51.467	74.048	-63.306	-55.986	70.182	76.140	-55.852	-49.827	-48.705	-41.475	86.039	-41.807	-8191	255	
2430.667	1	1	0	0	0.12829	0.25496	0.15686	0.087355	0.2278	0.070846	0.068831	0.099129	0.21032	0.12603	0.21676	0.17339	0.10617	0.12659	0.30377	0.11688	-2.3083	-2.9	-2.1667	-2.9667	-2.6833	-2.4854	-3.2188	-2.1354	-2.5917	-2.7917	-2.1167	-3.1771	-2.4979	-2.4583	-3.0062	-2.3	242.988	263.773	273.069	197.929	174.938	204.972	199.363	235.937	151.514	108.418	200.542	-15.876	134.778	228.369	107.211	125.731	8.4231e-05	0.00038857	8.2664e-05	1136.2	2.2159e-06	2.5545e-06	1235.8	226.89	9.074e-07	3.2832e-06	289.01	84.388	65.841	19.535	2.5025e-06	27.149	0.00021457	0.00023531	7.1994e-05	1119.3	2.8256e-06	2.5416e-06	1219.9	225.22	2.7559e-06	2.5379e-06	287.35	85.384	66.215	19.74	2.5229e-06	27.506	134.897	16.205	17.575	-63.333	92.619	68.305	-63.548	-55.950	74.396	82.318	-56.494	-49.565	-49.492	-41.573	78.523	-42.624	-8191	255	
2430.739	1	1	0	0	0.20985	0.32691	0.14604	0.31427	0.15197	0.15917	0.17365	0.058481	0.11067	0.10863	0.18875	0.099615	0.095966	0.26075	0.17955	0.016472	-2.2375	-2.75	-2.2146	-2.9813	-2.5229	-2.1833	-3.2146	-2.1917	-2.3563	-2.9458	-2.05	-2.7812	-2.875	-2.15	-3.0438	-2.2979	253.155	38.814	48.232	210.481	-19.335	145.293	245.119	222.952	149.010	123.920	136.206	-24.174	62.617	-46.167	-19.060	26.201	9.7105e-05	0.00029253	8.8995e-05	1136.1	1.8643e-06	3.576e-06	1235.6	225.94	2.1364e-06	2.7361e-06	287.78	84.405	66.403	19.482	1.6434e-06	27.217	0.00022885	0.00022426	6.339e-05	1118	2.81e-06	2.7673e-06	1220.8	225.24	2.7749e-06	2.4377e-06	286.88	85.284	66.444	19.756	2.4831e-06	27.467	148.950	15.838	12.089	-63.354	113.193	91.879	-63.192	-55.770	68.863	99.260	-56.109	-49.445	-49.332	-41.469	31.546	-41.973	-8191	255	
2430.837	1	1	0	0	0.20859	0.31859	0.17457	0.26825	0.12583	0.091927	0.28012	0.18283	0.20165	0.40316	0.38149	0.20077	0.25055	0.13461	0.25173	0.031869	-1.9792	-2.975	-2.1688	-2.9854	-2.7271	-2.1958	-3.125	-2.6063	-2.3854	-3.1146	-2.1646	-2.7792	-2.9167	-2.3	-3.1312	-2.4708	213.647	93.730	24.676	-68.708	211.467	61.420	246.838	234.667	207.359	-5.712	182.809	218.551	-67.639	-73.319	277.579	275.411	7.8168e-05	0.00038632	5.8938e-05	1141	1.8055e-06	3.0911e-06	1238.4	226.8	1.5785e-06	3.035e-06	289.29	84.537	65.935	19.571	2.3743e-06	27.247	0.00023147	0.00022469	6.8283e-05	1119.7	2.6814e-06	2.8075e-06	1221.9	225.22	2.8054e-06	2.7262e-06	287.18	85.53	66.264	19.784	2.5627e-06	27.556	133.820	-0.422	35.645	-63.274	65.618	86.528	-63.324	-55.826	46.404	81.348	-56.518	-50.062	-49.353	-41.842	47.783	-42.206	-8191	255	
2430.956	1	1	0	0	0.19361	0.083134	0.1986	0.043438	0.045073	0.23415	0.10886	0.11594	0.34316	0.077947	0.2395	0.23601	0.14322	0.094924	0.1647	0.13162	-1.7208	-2.8521	-2.0458	-2.7792	-2.7792	-2.1125	-3.0917	-2.5771	-2.1917	-2.9792	-2.1021	-2.5542	-2.9583	-2.025	-2.8854	-2.5438	138.148	-41.489	274.546	261.978	241.677	121.362	-41.374	1.235	210.834	241.955	208.618	265.413	81.133	42.838	110.199	150.567	8.3836e-05	0.00022651	7.0885e-05	1140.4	1.3585e-06	3.1571e-06	1238	226.61	2.1765e-06	2.6577e-06	290.11	84.094	66.372	19.61	2.1205e-06	27.337	0.00022918	0.00022437	6.5371e-05	1120.2	2.8756e-06	2.6965e-06	1220.6	225.46	2.786e-06	2.4565e-06	287.11	85.247	66.522	19.814	2.4557e-06	27.635	147.939	7.939	14.882	-63.241	60.021	80.711	-63.390	-56.172	107.682	106.933	-56.395	-49.654	-49.732	-41.589	92.650	-42.273	-8191	255	
2431.052	1	1	0	0	0.087356	0.36359	0.11152	0.31239	0.15141	0.2503	0.11085	0.21271	0.084013	0.17999	0.20161	0.052001	0.086388	0.34488	0.26073	0.32533	-1.6812	-2.8979	-2.1646	-2.4938	-2.9708	-2.1958	-3.1521	-2.7646	-2.2354	-3.05	-2.3021	-2.4208	-2.9271	-2.1312	-2.5271	-2.7812	59.957	187.190	186.081	221.720	-8.439	177.381	202.628	246.675	59.428	0.478	283.840	-52.539	-66.752	-56.866	260.282	1.176	8.4777e-05	0.00028494	5.3636e-05	1142.2	1.0845e-06	3.6698e-06	1239.8	227.85	2.2749e-06	3.055e-06	289.82	84.592	66.095	19.539	1.4601e-06	27.204	0.0002315	0.0002233	6.6376e-05	1120.4	2.7111e-06	2.6862e-06	1222	225.86	2.9361e-06	2.5136e-06	287.27	85.58	66.315	19.786	2.3295e-06	27.53	130.186	25.761	23.384	-63.199	47.418	83.618	-63.205	-55.933	14.193	70.833	-56.672	-49.369	-49.391	-41.612	64.383	-42.613	-8191	255	
2431.148	1	1	0	0	0.34954	0.15268	0.27239	0.081941	0.042781	0.080804	0.20009	0.121	0.29756	0.16245	0.25196	0.10548	0.27263	0.19907	0.12514	0.062735	-1.8687	-2.9938	-2.4146	-2.5729	-3.1104	-2.1521	-2.9292	-2.8521	-2.2938	-3.0812	-2.4208	-2.2125	-2.9333	-2.1208	-2.6562	-2.9062	268.842	-70.699	192.333	-44.939	169.148	235.869	241.377	-49.667	148.534	33.381	218.982	22.827	76.129	-65.965	212.700	-45.769	8.722e-05	0.00025579	6.6906e-05	1140.3	1.8367e-06	3.243e-06	1236.2	225.83	2.0362e-06	2.272e-06	288.42	83.794	65.85	19.291	1.0146e-06	27.12	0.00023676	0.00020569	6.5756e-05	1121.5	2.7626e-06	2.4353e-06	1220.5	225.35	2.9587e-06	2.397e-06	286.59	85.15	66.281	19.661	2.4938e-06	27.484	146.557	13.488	13.459	-63.359	86.018	66.759	-63.350	-56.233	50.366	80.037	-56.282	-49.808	-49.281	-42.115	71.611	-42.274	-8191	255	
2431.269	1	1	0	0	0.18899	0.093425	0.075666	0.25079	0.17556	0.27753	0.15888	0.10081	0.26404	0.23889	0.077946	0.30244	0.18861	0.11954	0.11816	0.031552	-1.6542	-2.8563	-2.4313	-2.3917	-2.9896	-2.1771	-2.8333	-2.8542	-2.1604	-2.8042	-2.6312	-2.1104	-3.0917	-2.4146	-2.5687	-2.9708	201.565	54.087	112.604	-66.546	252.330	196.720	281.955	28.139	195.176	-45.511	74.053	57.698	3.648	285.874	25.760	101.823	8.7313e-05	0.00028581	8.3902e-05	1132.8	1.1675e-06	2.1738e-06	1239.6	226.05	1.7143e-06	1.9119e-06	290.07	84.927	66.347	19.462	2.7443e-06	27.25	0.00022897	0.00023649	6.5578e-05	1117.2	2.8199e-06	2.4323e-06	1220	225.3	2.8866e-06	2.4225e-06	287.48	85.524	66.452	19.651	2.6704e-06	27.505	138.961	19.527	28.116	-63.320	73.897	115.264	-63.261	-56.022	71.088	94.269	-56.154	-49.780	-49.361	-41.657	84.453	-42.515	-8191	255	
2431.365	1	1	0	0	0.21377	0.25985	0.2757	0.17576	0.24645	0.022783	0.20857	0.19593	0.19306	0.17794	0.20667	0.032701	0.099813	0.13609	0.1247	0.083213	-1.7542	-2.6875	-2.6562	-2.3958	-3.0438	-2.2438	-2.5667	-3.1167	-2.1312	-2.8625	-2.775	-2.0687	-2.9396	-2.5083	-2.5458	-3.1396	100.751	153.299	110.240	276.182	200.826	165.316	258.170	85.926	265.902	3.191	137.095	100.227	9.467	195.203	-40.776	-38.084	8.6252e-05	0.00033648	9.3095e-05	1133.6	1.1141e-06	2.1298e-06	1234.8	227.54	1.7942e-06	3.1749e-06	288.52	84.423	65.834	19.502	2.046e-06	27.293	0.00022632	0.00022976	6.5829e-05	1116.7	2.5929e-06	2.3561e-06	1217.4	225.8	2.8439e-06	2.5142e-06	286.95	85.275	66.125	19.688	2.6306e-06	27.6	139.607	12.650	24.334	-63.577	74.264	64.764	-63.202	-55.957	70.400	93.479	-56.363	-50.040	-49.110	-41.583	86.690	-42.218	-8191	255	
2431.437	1	1	0	0	0.15729	0.077994	0.26708	0.16543	0.16695	0.12949	0.42903	0.10879	0.18045	0.0671	0.21671	0.13171	0.17231	0.2641	0.11107	0.32455	-1.6063	-2.6937	-2.75	-2.2938	-2.975	-2.6312	-2.2792	-3.1042	-2.4479	-2.8917	-2.8688	-2.1042	-2.9604	-2.4771	-2.0479	-2.9042	184.642	93.397	-73.442	-28.763	29.413	80.176	185.721	263.352	62.304	39.358	-71.674	270.088	107.980	-48.478	187.154	75.075	7.1166e-05	0.000274	0.00010261	1137	2.1236e-06	2.6006e-06	1236.6	227.59	2.2457e-06	3.034e-06	288.79	85.124	66.429	19.513	2.2336e-06	27.255	0.00022653	0.00023942	6.5918e-05	1119.3	2.735e-06	2.6754e-06	1220.2	226.06	2.807e-06	2.4638e-06	287.18	85.587	66.615	19.733	2.7052e-06	27.572	133.628	41.993	29.115	-63.406	79.482	100.643	-63.612	-56.346	56.034	91.682	-56.440	-49.894	-49.379	-41.395	68.663	-42.511	-8191	255	
2431.533	1	1	0	0	0.17128	0.35943	0.22907	0.27192	0.21919	0.28935	0.14313	0.18369	0.12129	0.12188	0.10093	0.17815	0.10755	0.1712	0.14483	0.19098	-1.8521	-2.5854	-2.8292	-2.2771	-2.9479	-2.6937	-2.5667	-3.1188	-2.25	-2.3667	-3.025	-2.0771	-3.0438	-2.775	-2.1083	-2.9854	18.379	-0.059	282.711	251.433	238.707	155.903	276.007	242.320	10.739	48.358	-49.276	151.789	113.856	265.399	222.335	233.283	9.734e-05	0.00033339	7.9142e-05	1143	2.3699e-06	3.3285e-06	1240.9	228.55	1.6835e-06	2.8667e-06	289.64	84.785	66.12	19.58	2.7702e-06	27.188	0.000224	0.00024225	6.577e-05	1122.9	3.013e-06	2.4359e-06	1225	226.57	2.58e-06	2.6053e-06	287.7	85.732	66.515	19.814	2.856e-06	27.53	141.998	20.421	29.054	-63.383	89.750	87.361	-63.393	-56.009	68.072	65.588	-56.139	-49.852	-49.081	-41.778	88.010	-42.509	-8191	255	
2431.652	1	1	0	0	0.10576	0.071591	0.051149	0.43812	0.31118	0.20956	0.36984	0.29421	0.28842	0.04812	0.18515	0.15122	0.16738	0.19086	0.38927	0.067565	-2.0812	-2.3708	-3.0021	-2.2354	-2.8	-2.6729	-2.2667	-3.1375	-2.1667	-2.5917	-2.9875	-1.9958	-2.9333	-2.8042	-2.0854	-3.0438	-43.074	44.900	-2.219	214.863	33.890	71.854	257.371	274.978	61.055	268.969	103.598	12.450	175.151	244.951	93.659	260.722	0.00011461	0.00029302	7.4497e-05	1132.9	1.6488e-06	2.8156e-06	1234.8	226.8	1.6354e-06	3.5429e-06	290.12	85.014	65.908	19.596	2.1273e-06	27.161	0.00022891	0.00023809	6.0079e-05	1118	2.6236e-06	2.4179e-06	1220	225.93	2.6627e-06	2.5197e-06	287.73	85.652	66.209	19.761	2.7293e-06	27.531	138.360	13.143	30.261	-63.684	72.340	93.096	-63.218	-55.904	33.761	88.364	-56.166	-49.646	-49.378	-41.828	56.089	-42.055	-8191	255	
2431.748	1	1	0	0	0.21935	0.13172	0.1691	0.093111	0.136	0.13174	0.11559	0.25771	0.24601	0.16053	0.11798	0.18623	0.077896	0.086046	0.26852	0.27878	-2.0375	-2.2979	-2.8521	-2.3104	-2.5938	-2.8479	-2.2771	-2.9771	-2.3479	-2.3271	-3.1958	-2.2812	-2.5292	-2.8688	-1.9438	-2.8812	193.607	198.222	254.181	185.936	-58.050	-45.346	274.750	252.177	212.618	53.753	39.935	-61.954	-54.990	-72.673	256.914	255.707	7.9552e-05	0.00021092	6.5667e-05	1142	1.6276e-06	2.044e-06	1240.7	228.06	1.1961e-06	3.4076e-06	290.52	84.509	66.751	19.676	1.3165e-06	27.112	0.0002226	0.00023355	6.4307e-05	1120.2	2.8027e-06	2.5416e-06	1220.6	226.32	2.7006e-06	2.8191e-06	287.65	85.378	66.618	19.766	2.8728e-06	27.543	136.123	21.892	19.500	-63.261	78.612	71.677	-63.445	-55.779	42.481	83.571	-56.452	-49.964	-49.110	-41.577	71.143	-41.884	-8191	255	
2431.844	1	1	0	0	0.14305	0.24319	0.12859	0.063469	0.13259	0.025605	0.21481	0.1604	0.0924	0.1333	0.259	0.2519	0.15049	0.10715	0.071093	0.17972	-2.0792	-2.0938	-3.1833	-2.3521	-2.4375	-2.9792	-2.3625	-2.9333	-2.6875	-2.1688	-2.9688	-2.5542	-2.6083	-3.0208	-2.2188	-3.0458	236.847	139.927	227.285	0.707	163.353	236.344	-49.956	51.284	27.737	29.649	3.242	276.244	237.857	-67.100	152.081	145.293	8.9866e-05	0.00028637	9.3934e-05	1134	1.7996e-06	3.4939e-06	1232.9	226.63	2.2334e-06	2.501e-06	288.88	85.137	66.128	19.606	1.371e-06	27.206	0.0002243	0.0002462	5.9399e-05	1117.5	2.936e-06	2.3867e-06	1219.9	226.07	2.6985e-06	2.6958e-06	287.5	85.63	66.388	19.749	2.6042e-06	27.513	127.321	3.471	14.478	-63.370	74.278	94.591	-63.390	-55.567	64.313	129.559	-55.985	-49.550	-49.124	-41.570	83.594	-42.437	-8191	255	
2431.940	1	1	0	0	0.11312	0.19832	0.14548	0.24892	0.13845	0.026721	0.16873	0.24778	0.027707	0.1118	0.20676	0.097922	0.28794	0.10692	0.15248	0.25816	-2.2833	-1.9917	-2.9042	-2.475	-2.4417	-2.9771	-2.2917	-2.7792	-2.7042	-2.2042	-2.9833	-2.4354	-2.4542	-3.1021	-2.1396	-2.8271	-13.639	-28.896	263.308	265.724	33.580	99.433	220.776	280.615	201.813	-34.851	20.756	-42.690	61.223	189.913	156.248	121.906	7.6407e-05	0.00029081	0.00010459	1141.6	1.7457e-06	2.7982e-06	1236.6	227.71	1.518e-06	2.8707e-06	290.33	85.098	66.479	19.641	3.3334e-06	27.131	0.00021231	0.00025597	6.2888e-05	1118	2.9365e-06	2.4023e-06	1219.9	226.37	2.7465e-06	2.5883e-06	287.74	85.612	66.498	19.744	2.6199e-06	27.503	141.901	7.596	24.582	-63.336	81.092	101.234	-63.289	-55.741	44.079	76.701	-56.362	-49.637	-49.157	-41.393	81.704	-42.139	-8191	255	
2432.036	1	1	0	0	0.12205	0.27904	0.096111	0.19262	0.33505	0.062732	0.13156	0.13787	0.16792	0.11608	0.29453	0.085038	0.19041	0.24621	0.23119	0.12909	-2.6396	-2.0479	-2.8396	-2.5375	-2.2562	-3.0583	-2.5292	-2.9062	-2.8979	-2.25	-2.9813	-2.7917	-2.3896	-2.9792	-2.1646	-2.6	212.139	223.786	-0.378	89.007	238.964	-13.104	113.194	257.389	111.810	-16.793	2.128	108.831	233.877	-29.089	175.723	234.177	6.2654e-05	0.0002643	9.0316e-05	1139.5	1.6638e-06	3.0069e-06	1237.3	227.99	2.014e-06	2.8669e-06	291.35	85.148	66.233	19.535	2.4947e-06	27.23	0.00022695	0.00024076	6.0256e-05	1119.8	2.7897e-06	2.4119e-06	1219.3	226.23	2.737e-06	2.6879e-06	287.98	85.868	66.429	19.795	2.6872e-06	27.607	131.513	5.628	50.079	-63.235	101.920	83.795	-63.055	-55.699	60.761	76.367	-55.911	-49.583	-48.683	-41.624	74.540	-42.373	-8191	255	
2432.132	1	1	0	0	0.12734	0.1291	0.12669	0.18274	0.12486	0.087859	0.23782	0.19979	0.20278	0.17575	0.31495	0.14804	0.24108	0.18194	0.16512	0.17066	-2.5438	-2.1333	-2.7708	-2.8229	-2.0375	-3.1521	-2.5646	-2.6208	-2.975	-2.1104	-3.0375	-2.8438	-2.3563	-2.9396	-2.3792	-2.5687	110.252	283.188	40.284	233.577	240.181	284.029	178.802	-52.672	258.276	102.801	167.553	202.175	234.934	210.474	131.205	-72.905	6.0864e-05	0.00026037	0.0001052	1139.8	1.6986e-06	4.1108e-06	1233.2	226.91	2.3193e-06	4.0874e-06	286.49	85.209	66.146	19.481	1.8623e-06	27.113	0.00021823	0.00023537	6.1069e-05	1118.9	3.0401e-06	2.3441e-06	1222	225.52	2.6501e-06	2.6618e-06	287.12	85.799	66.637	19.773	2.6771e-06	27.623	133.939	28.740	22.886	-63.159	81.305	101.984	-63.295	-55.761	62.591	85.061	-56.077	-49.890	-48.869	-42.022	71.312	-42.050	-8191	255	
2432.229	1	1	0	0	0.11467	0.15887	0.069655	0.14556	0.14962	0.32142	0.10333	0.25028	0.28615	0.099116	0.10885	0.15818	0.21389	0.18118	0.24434	0.20661	-2.6562	-2.1458	-2.9229	-2.9625	-2.3271	-3.0375	-2.6125	-2.2042	-3.0917	-2.3792	-2.7646	-2.9396	-2.1875	-2.8438	-2.4583	-2.4979	183.311	199.682	-5.074	172.939	73.299	-56.325	229.567	259.752	65.644	-34.912	-31.185	206.973	66.944	12.664	4.757	254.880	8.2735e-05	0.00037618	9.4352e-05	1139.9	1.5427e-06	2.9374e-06	1232	227.7	1.4488e-06	2.9114e-06	287.26	84.613	65.363	19.615	2.3086e-06	27.164	0.00021291	0.00023894	6.1365e-05	1120.9	2.8584e-06	2.4161e-06	1219.9	226.66	2.5948e-06	2.6588e-06	287.65	85.692	66.439	19.785	2.5869e-06	27.601	143.657	12.273	41.386	-63.516	82.043	92.365	-63.607	-55.815	60.893	73.076	-56.101	-49.639	-49.369	-41.230	89.480	-42.279	-8191	255	
2432.349	1	1	0	0	0.38486	0.052519	0.13418	0.14707	0.07633	0.30589	0.21825	0.16765	0.051551	0.19045	0.16498	0.23866	0.085857	0.37687	0.21176	0.12995	-2.6937	-2.1146	-2.5729	-2.8979	-2.0875	-2.8396	-2.8146	-2.3042	-3.1396	-2.1708	-2.6042	-2.9729	-2.0938	-3.0354	-2.7646	-2.2	155.870	-67.543	180.801	188.948	264.923	-42.451	228.919	150.690	166.594	263.247	35.426	231.549	263.768	-55.285	-25.714	1.763	9.559e-05	0.00036051	0.0001072	1139.1	1.4654e-06	3.0604e-06	1236.1	227.95	9.2008e-07	3.2835e-06	290.03	85.369	65.983	19.568	3.1644e-06	27.29	0.00021826	0.00024215	6.6421e-05	1119.6	2.8053e-06	2.3447e-06	1222	226.44	2.6211e-06	2.6278e-06	288.35	85.957	66.576	19.81	2.611e-06	27.582	148.796	23.889	22.091	-63.312	100.958	66.955	-63.151	-55.622	62.883	96.820	-56.183	-49.629	-48.851	-41.742	61.347	-42.468	-8191	255	
2432.445	1	1	0	0	0.41883	0.19537	0.20861	0.19363	0.091852	0.22335	0.49708	0.092873	0.060628	0.12802	0.18811	0.13042	0.23826	0.037059	0.072141	0.13838	-2.675	-2.2562	-2.4979	-3.05	-2.1104	-2.8146	-2.9979	-2.3375	-3.1146	-2.3021	-2.4979	-3.1042	-2.2062	-2.7583	-2.7625	-2.3625	266.534	-19.337	153.358	281.797	159.327	197.806	211.266	33.919	204.531	252.134	234.684	233.845	230.991	-45.919	-51.853	152.695	9.3268e-05	0.00037653	9.4114e-05	1132.7	2.3124e-06	2.407e-06	1236	227.14	1.2956e-06	3.2237e-06	287.83	84.182	65.976	19.665	1.7147e-06	27.002	0.00022141	0.00023302	6.0921e-05	1118.9	2.8949e-06	2.3363e-06	1220.2	226.37	2.6791e-06	2.4875e-06	287.47	85.597	66.468	19.847	2.6255e-06	27.564	143.864	18.808	-4.779	-63.167	87.598	82.544	-63.311	-55.661	66.561	80.827	-55.925	-49.576	-48.985	-41.510	86.202	-42.316	-8191	255	
2432.540	1	1	0	0	0.027465	0.132	0.077849	0.033534	0.13593	0.16295	0.37318	0.25254	0.10382	0.16693	0.25916	0.16488	0.071652	0.26811	0.12347	0.17495	-2.6813	-2.6146	-2.3521	-3.1	-2.2729	-2.8063	-2.9625	-2.3521	-3.0125	-2.4833	-2.1688	-3.1521	-2.2083	-2.6792	-2.9875	-2.2687	-38.632	165.148	255.426	195.183	193.319	-14.633	199.084	276.285	241.743	89.936	241.963	-37.735	181.778	57.511	-63.989	-71.947	9.168e-05	0.00024006	8.7307e-05	1143.9	8.8249e-07	2.2994e-06	1234.3	227.37	7.2873e-07	2.5258e-06	290.17	85.1	66.717	19.674	1.7191e-06	27.344	0.00022162	0.00022432	6.4691e-05	1122.5	2.9323e-06	2.5716e-06	1220.4	226.51	2.6654e-06	2.6096e-06	287.89	86.146	66.97	19.895	2.3301e-06	27.701	138.170	17.967	22.675	-63.076	108.835	69.575	-63.257	-56.044	89.719	89.627	-56.348	-49.596	-49.208	-41.566	105.745	-42.070	-8191	255	
2432.638	1	1	0	0	0.1172	0.036294	0.30291	0.19081	0.070826	0.25979	0.16843	0.16364	0.18322	0.3628	0.039616	0.055639	0.2046	0.028646	0.32577	0.20915	-2.6958	-2.5104	-2.1375	-3.0521	-2.4271	-2.4875	-3.0687	-2.2521	-2.7854	-2.7708	-2.2708	-3.3083	-2.3417	-2.5062	-3.025	-2.3625	-33.656	127.416	139.403	-1.025	198.645	-1.120	252.465	246.661	201.152	19.127	234.497	209.634	-30.684	-17.905	268.475	-43.553	7.9028e-05	0.0002795	8.4235e-05	1146.2	2.588e-06	3.3859e-06	1242.2	228.3	1.3217e-06	2.5683e-06	292.06	85.012	66.255	19.679	2.9735e-06	27.456	0.00021565	0.00023542	6.546e-05	1125	2.835e-06	2.6382e-06	1224.4	226.87	2.6411e-06	2.2791e-06	288.66	86.04	66.595	19.897	2.7035e-06	27.768	143.016	35.932	24.215	-63.365	94.620	74.164	-63.357	-55.802	66.552	72.454	-55.770	-49.391	-49.096	-41.605	66.080	-42.292	-8191	255	
2432.732	1	1	0	0	0.30922	0.35867	0.021433	0.2015	0.23924	0.089982	0.18998	0.11344	0.2228	0.16591	0.12676	0.084194	0.40543	0.15534	0.14539	0.12315	-2.4604	-2.8708	-2.1708	-3.3396	-2.3521	-2.4854	-3.1021	-2.2917	-2.6625	-2.8646	-2.2333	-3.1083	-2.3854	-2.4208	-3.0271	-2.1458	225.023	115.103	81.269	271.786	257.423	78.892	264.867	162.093	-19.477	38.050	-37.031	3.295	205.710	282.100	107.834	71.724	7.4838e-05	0.00039948	7.8052e-05	1137.1	2.0394e-06	3.3889e-06	1236.5	227.82	2.0797e-06	2.0424e-06	289.74	85.835	66.501	19.648	1.8312e-06	27.295	0.00020699	0.00023232	6.4957e-05	1123.7	3.0208e-06	2.4972e-06	1224.5	226.9	2.8097e-06	2.4043e-06	287.58	86.291	66.945	19.862	2.4299e-06	27.677	140.557	-4.923	25.033	-63.305	59.919	88.098	-63.404	-55.879	61.562	77.817	-56.181	-49.364	-48.876	-41.260	69.293	-42.310	-8191	255	
2432.828	1	1	0	0	0.096	0.095932	0.19137	0.17439	0.30789	0.10423	0.16984	0.18185	0.14924	0.15294	0.16962	0.22555	0.1666	0.15137	0.076143	0.026746	-2.3958	-3	-2.2042	-3.1562	-2.4771	-2.4021	-3.1	-2.2146	-2.625	-2.9938	-2.2604	-2.9188	-2.6667	-2.0875	-3.1354	-2.2646	198.317	224.239	283.859	268.467	-4.379	145.848	28.350	207.449	137.218	15.028	222.400	45.199	252.906	123.859	221.072	-6.841	7.5152e-05	0.00022969	7.3562e-05	1139.1	1.6022e-06	2.1787e-06	1237.3	228.48	9.8641e-07	2.8737e-06	289.62	85.09	66.18	19.533	2.2339e-06	26.852	0.00021562	0.000232	6.3642e-05	1122	2.7913e-06	2.5404e-06	1223.5	226.89	2.7317e-06	2.4128e-06	288.56	85.715	66.569	19.724	2.3884e-06	27.492	129.158	25.585	-9.116	-63.205	74.244	83.825	-63.308	-55.872	134.708	81.892	-56.337	-49.546	-49.236	-41.597	79.107	-41.918	-8191	255	
2432.949	1	1	0	0	0.1348	0.19345	0.33642	0.23647	0.16701	0.25645	0.23512	0.097776	0.23231	0.21101	0.20999	0.090569	0.19875	0.49146	0.17086	0.18768	-2.1813	-2.825	-2.05	-2.95	-2.8104	-2.1958	-3.1188	-2.3083	-2.5167	-2.7708	-2.45	-2.9938	-2.6229	-2.2646	-3.0375	-2.4125	15.102	184.717	-66.298	273.767	73.514	-65.133	211.015	1.156	246.125	57.397	-43.174	248.016	136.099	247.721	-46.134	211.102	7.317e-05	0.00028702	4.6373e-05	1142	2.8929e-06	2.7652e-06	1239.4	228.43	1.5267e-06	2.6054e-06	289.22	85.47	66.252	19.612	7.9559e-07	27.219	0.00022257	0.00023558	7.0871e-05	1119.9	2.9261e-06	2.6664e-06	1221.5	226.92	2.8392e-06	2.315e-06	287.98	85.879	66.554	19.817	2.5583e-06	27.582	149.881	13.571	37.583	-63.299	73.350	87.275	-63.183	-55.698	83.603	79.557	-56.263	-49.293	-48.958	-41.582	84.376	-42.442	-8191	255	
2433.043	1	1	0	0	0.22004	0.055098	0.24697	0.19412	0.20446	0.2338	0.086893	0.10403	0.29209	0.17503	0.093046	0.24664	0.25001	0.098791	0.066215	0.24848	-2.1562	-2.9479	-2.1479	-2.8792	-2.7146	-2.2479	-3.0896	-2.4917	-2.3917	-3.05	-2.4479	-2.8604	-2.9417	-2.1708	-3.1083	-2.6875	-73.560	84.583	246.415	261.252	188.275	91.797	-53.471	-38.291	143.841	27.715	55.846	212.648	234.113	271.899	283.257	-73.619	8.7554e-05	0.00026265	8.6544e-05	1135.8	1.4636e-06	3.662e-06	1238.8	227.26	1.8113e-06	3.6292e-06	288.96	84.621	65.82	19.56	1.8184e-06	27.285	0.00023489	0.00022047	6.577e-05	1120.5	2.9584e-06	2.6508e-06	1224	226.91	2.7433e-06	2.4255e-06	287.63	85.606	66.531	19.804	2.2634e-06	27.609	141.249	42.155	3.677	-63.418	98.143	88.256	-62.927	-55.747	53.624	99.630	-56.210	-49.225	-49.018	-41.806	103.514	-42.083	-8191	255	
2433.139	1	1	0	0	0.055906	0.049473	0.12774	0.31831	0.14754	0.052251	0.2486	0.17513	0.10859	0.048568	0.26546	0.17092	0.20124	0.1365	0.09616	0.095689	-2.0271	-2.9208	-2.4062	-2.7771	-2.9688	-2.2854	-3.1021	-2.5396	-2.3292	-2.9396	-2.3792	-2.625	-3.0667	-2.2438	-2.9125	-2.5687	232.127	117.225	82.745	256.422	66.999	65.499	209.722	16.282	107.436	-26.679	-55.567	24.519	6.327	-21.452	49.815	280.930	9.1384e-05	0.00021067	8.627e-05	1141.5	1.658e-06	3.0346e-06	1235.6	228.92	1.2213e-06	2.8931e-06	288.42	85.147	66.404	19.649	3.3194e-06	27.129	0.00022014	0.00022448	6.5726e-05	1122.3	2.5784e-06	2.6406e-06	1222.6	226.76	2.7791e-06	2.5045e-06	287.65	85.881	66.722	19.81	2.3979e-06	27.573	134.937	6.917	26.071	-63.046	103.537	81.593	-62.901	-55.938	45.131	50.354	-55.942	-49.424	-49.158	-41.427	78.315	-42.154	-8191	255	
2433.236	1	1	0	0	0.15474	0.14467	0.077016	0.26609	0.079742	0.17377	0.14302	0.26525	0.090084	0.2761	0.11722	0.10688	0.16958	0.25236	0.063332	0.1102	-1.8854	-3.0521	-2.35	-2.6896	-2.9958	-2.0146	-2.9021	-2.8833	-2.1437	-3.1583	-2.5083	-2.5854	-3.2708	-2.15	-2.7125	-2.7979	58.676	12.756	-73.271	217.743	-5.736	281.270	236.123	214.314	192.492	80.458	-21.168	166.190	192.859	186.879	90.306	101.288	7.7329e-05	0.00028993	8.2841e-05	1144	1.5814e-06	3.3331e-06	1242.4	228.82	1.5746e-06	2.7527e-06	291.43	85.14	66.495	19.635	1.1629e-06	27.571	0.00023135	0.000217	5.9207e-05	1123.9	2.6028e-06	2.4936e-06	1226	227.01	2.7028e-06	2.3374e-06	288.34	86.02	66.875	19.854	2.4607e-06	27.732	142.676	24.685	9.961	-63.064	60.461	95.228	-62.880	-56.036	81.499	71.013	-56.007	-49.185	-48.869	-41.037	75.427	-41.814	-8191	255	
2433.332	1	1	0	0	0.19157	0.14616	0.17308	0.19898	0.16537	0.11112	0.22109	0.17449	0.11701	0.1587	0.10683	0.21791	0.22449	0.23765	0.15282	0.024209	-1.6958	-2.9333	-2.4292	-2.5521	-2.9833	-2.2188	-2.825	-2.9583	-2.0896	-2.9208	-2.4396	-2.4042	-3.075	-2.3625	-2.7854	-2.9854	157.363	164.085	36.834	-44.980	-63.008	-16.920	171.058	-26.088	149.858	10.746	-54.122	228.074	34.330	276.098	-66.647	221.897	0.00010241	0.00038281	7.581e-05	1138.5	7.7834e-07	2.4756e-06	1237.4	227.65	1.188e-06	3.5884e-06	287.23	84.49	66.238	19.557	1.7942e-06	27.157	0.00023096	0.00023483	5.9694e-05	1121.5	2.7345e-06	2.5452e-06	1223.4	226.78	2.827e-06	2.4717e-06	287.22	85.88	66.478	19.758	2.5089e-06	27.447	139.869	14.377	17.589	-62.816	109.015	58.304	-62.935	-55.476	79.959	87.993	-56.090	-49.552	-48.992	-41.189	91.115	-42.082	-8191	255	
2433.428	1	1	0	0	0.17212	0.38438	0.061843	0.3059	0.12275	0.1395	0.081812	0.17733	0.088127	0.24269	0.16254	0.23092	0.12332	0.13684	0.26358	0.14896	-1.8521	-2.8792	-2.425	-2.3875	-2.9021	-2.2375	-2.775	-2.9208	-2.0146	-2.9188	-2.6771	-2.15	-3.0042	-2.2938	-2.5167	-2.8875	-58.705	266.151	122.541	225.386	87.790	-1.487	-29.411	134.831	52.074	33.515	277.647	183.180	-52.323	275.547	-38.247	115.590	7.4412e-05	0.00036147	3.9784e-05	1140	1.3759e-06	1.6425e-06	1232.3	228.67	1.4011e-06	2.3137e-06	288.56	84.919	65.898	19.562	2.5306e-06	27.07	0.00022998	0.00022448	6.2947e-05	1121.6	2.8043e-06	2.5782e-06	1221.1	226.91	2.7559e-06	2.4984e-06	287.71	85.755	66.381	19.755	2.7371e-06	27.52	135.364	29.889	13.227	-62.793	67.790	103.711	-62.889	-55.849	70.384	77.539	-55.865	-49.542	-48.885	-41.217	58.966	-42.027	-8191	255	
2433.524	1	1	0	0	0.27102	0.063339	0.15301	0.17617	0.099449	0.087315	0.24797	0.13603	0.062165	0.1535	0.28444	0.19054	0.15043	0.087849	0.025131	0.11533	-1.8188	-2.825	-2.6521	-2.2687	-2.9167	-2.4104	-2.6271	-3.1583	-2.0792	-2.8729	-2.85	-2.3146	-3.0354	-2.4333	-2.4229	-3.0604	57.854	-72.358	45.988	215.637	178.155	229.698	-73.453	273.307	-31.068	-57.145	13.247	-48.167	143.257	150.796	214.800	-10.239	6.8368e-05	0.00028858	5.8046e-05	1141	6.9868e-07	2.2724e-06	1230.1	227.52	1.834e-06	2.8275e-06	288.01	85.244	66.507	19.735	1.5274e-06	27.127	0.00021383	0.00024087	6.1572e-05	1121.9	2.6944e-06	2.5932e-06	1220.9	226.79	2.7001e-06	2.349e-06	286.94	85.861	66.608	19.769	2.7007e-06	27.574	141.468	28.061	19.134	-63.019	120.627	114.373	-63.156	-55.738	60.440	78.785	-56.193	-49.633	-48.533	-41.372	69.624	-41.908	-8191	255	
2433.620	1	1	0	0	0.10247	0.22366	0.082394	0.11608	0.14915	0.17856	0.10848	0.11733	0.33511	0.076216	0.05728	0.16958	0.094945	0.23739	0.034045	0.13724	-1.9542	-2.8083	-2.6771	-2.2583	-3.0208	-2.5563	-2.5667	-2.9979	-2.1896	-2.7896	-2.9396	-2.0938	-2.9792	-2.5271	-2.3312	-2.9875	242.724	210.006	-41.292	245.991	280.121	5.768	275.264	157.858	68.430	-63.745	-24.870	277.523	148.668	-43.427	90.105	87.822	9.8477e-05	0.00031116	7.431e-05	1143.9	1.3797e-06	2.4047e-06	1237.5	228.36	1.9114e-06	3.5308e-06	288.94	85.113	66.868	19.53	2.0908e-06	27.246	0.00022739	0.00022661	6.4396e-05	1124.3	2.7147e-06	2.5272e-06	1223.4	226.89	2.7207e-06	2.5665e-06	287.96	85.974	66.941	19.842	2.4198e-06	27.637	133.726	19.682	18.994	-62.977	99.619	69.821	-63.046	-55.683	61.229	76.667	-56.230	-49.177	-48.736	-41.505	53.838	-41.933	-8191	255	
2433.741	1	1	0	0	0.18478	0.34179	0.23942	0.36346	0.14964	0.10691	0.18482	0.1185	0.18509	0.139	0.20712	0.099279	0.19077	0.20864	0.11193	0.42931	-1.7563	-2.6646	-2.9875	-2.1292	-2.8187	-2.6458	-2.5104	-3.1771	-2.1625	-2.6104	-3.0333	-2.1729	-2.9062	-2.7896	-2.2313	-3.0042	-27.718	-66.825	102.189	-66.468	194.040	211.084	187.308	163.433	261.837	19.688	141.003	275.417	-62.519	193.251	16.335	211.379	8.2453e-05	0.00028136	8.527e-05	1140.9	1.8145e-06	2.773e-06	1237.9	228.96	1.4841e-06	3.0538e-06	291.2	85.596	66.29	19.721	1.672e-06	27.447	0.00022977	0.00023777	5.6501e-05	1123	2.8475e-06	2.5698e-06	1222.9	227	2.6022e-06	2.5094e-06	288.1	86.038	66.765	19.811	2.69e-06	27.64	141.968	14.845	28.983	-63.005	76.628	95.625	-62.945	-55.647	91.056	85.215	-55.812	-49.339	-48.648	-41.335	62.652	-41.898	-8191	255	
2433.837	1	1	0	0	0.10785	0.31141	0.28819	0.31982	0.042159	0.11833	0.29694	0.11746	0.30984	0.1652	0.13324	0.18981	0.15116	0.18127	0.11997	0.23279	-2.1458	-2.525	-2.7313	-2.2271	-2.8333	-2.7146	-2.3688	-3.0604	-2.5208	-2.3563	-3.1979	-2.3875	-2.875	-2.7979	-2.2021	-3.0938	280.025	236.764	89.380	233.065	164.499	182.345	204.776	243.977	142.295	110.625	115.084	215.137	-23.927	-23.893	-68.558	-27.881	9.586e-05	0.00030269	6.747e-05	1146.8	2.4649e-06	4.2078e-06	1243.8	228.81	1.108e-06	2.6984e-06	292.53	85.907	66.953	19.67	3.772e-06	27.312	0.00021663	0.00022848	6.2873e-05	1122.6	2.9047e-06	2.4431e-06	1224.3	227.15	2.6159e-06	2.6023e-06	289.15	85.967	66.788	19.805	2.7646e-06	27.514	143.059	14.950	6.589	-62.833	87.620	91.798	-62.890	-55.800	67.069	88.764	-55.627	-48.942	-48.437	-40.768	88.834	-42.097	-8191	255	
2433.909	1	1	0	0	0.19771	0.19211	0.19266	0.35618	0.11845	0.29848	0.12611	0.1704	0.17353	0.29686	0.13439	0.19167	0.23277	0.098631	0.21176	0.19317	-2.1667	-2.2646	-3.1104	-2.4208	-2.6937	-2.7292	-2.2313	-3.0542	-2.6792	-2.3208	-3.225	-2.4917	-2.6813	-2.8312	-2.1896	-3.0187	58.008	-71.401	-7.877	284.223	-64.074	-62.294	-57.818	222.133	131.454	110.808	-38.778	251.485	171.131	219.885	-48.873	281.431	0.00010399	0.00032905	9.5986e-05	1144.5	2.3646e-06	2.2705e-06	1240.2	229.39	2.0134e-06	3.4207e-06	289.88	85.048	66.115	19.662	2.2483e-06	27.097	0.00021722	0.00023553	6.3686e-05	1120.8	2.8464e-06	2.3477e-06	1222.2	227.01	2.6411e-06	2.6406e-06	288.53	85.882	66.641	19.837	2.5678e-06	27.585	151.653	11.151	10.234	-62.592	74.748	50.077	-62.785	-55.403	23.475	96.084	-55.789	-49.303	-48.848	-41.411	82.671	-42.224	-8191	255	
2434.029	1	1	0	0	0.25264	0.11816	0.01551	0.095307	0.17301	0.047613	0.29108	0.34611	0.23582	0.14368	0.057417	0.018599	0.39589	0.16158	0.22722	0.070523	-2.1146	-2.2875	-3.1521	-2.5062	-2.6729	-2.8875	-2.3875	-3.0104	-2.7583	-2.2083	-3.1875	-2.5021	-2.7062	-3.0104	-2.2313	-2.8333	192.516	15.813	176.602	-68.247	241.183	-26.068	189.417	-73.145	51.917	115.147	-12.848	139.754	205.608	-7.057	29.593	226.173	9.3157e-05	0.00021478	7.502e-05	1134.1	1.4424e-06	2.33e-06	1230.2	228.3	1.5687e-06	3.6673e-06	287.9	84.737	66.74	19.493	2.207e-06	27.358	0.00021413	0.00022154	5.6147e-05	1119.5	2.6101e-06	2.3537e-06	1220.4	227.08	2.6295e-06	2.5288e-06	288.24	85.842	66.951	19.79	2.6418e-06	27.613	133.145	11.333	29.895	-62.868	66.561	89.513	-62.671	-55.529	90.409	82.788	-55.711	-49.082	-48.199	-41.351	70.480	-41.735	-8191	255	
2434.124	1	1	0	0	0.11431	0.19541	0.037939	0.23118	0.14907	0.26142	0.2703	0.18568	0.18624	0.19029	0.28408	0.3595	0.44725	0.072149	0.30781	0.16483	-2.3688	-2.15	-3.0479	-2.4396	-2.4792	-2.8854	-2.3563	-2.7167	-2.7292	-2.3563	-3.025	-2.5042	-2.4708	-3.1604	-2.3312	-2.8104	-20.726	161.380	19.146	220.267	241.845	68.866	254.641	161.911	64.925	137.927	-54.940	227.450	-55.870	195.443	62.284	62.106	6.9661e-05	0.00028985	8.562e-05	1139.3	1.6894e-06	3.0694e-06	1243.2	228.44	2.2365e-06	4.2235e-06	289.59	85.006	66.146	19.658	2.3033e-06	27.178	0.00021107	0.00024311	5.9813e-05	1122.5	2.7647e-06	2.2955e-06	1225.7	227.17	2.6532e-06	2.612e-06	287.99	85.871	66.796	19.813	2.7663e-06	27.61	133.439	37.225	26.728	-62.829	76.647	65.529	-62.860	-55.406	43.791	76.430	-55.714	-49.233	-48.864	-41.365	81.295	-41.680	-8191	255	
2434.222	1	1	0	0	0.10347	0.28333	0.061353	0.39366	0.038048	0.35551	0.18747	0.31441	0.20273	0.22568	0.18721	0.22895	0.2641	0.22116	0.20143	0.33966	-2.6042	-2.25	-3.0021	-2.5792	-2.2979	-3.1083	-2.3396	-2.6771	-2.8812	-2.4042	-2.975	-2.5938	-2.2646	-3.0667	-2.275	-2.7229	251.273	84.665	16.605	236.188	-73.046	-60.988	173.421	3.137	112.786	284.673	202.206	237.940	218.672	-10.784	190.056	260.350	7.6429e-05	0.00026585	8.7942e-05	1135	1.663e-06	3.1653e-06	1235.3	227.57	1.2645e-06	2.2631e-06	287.36	84.668	66.166	19.434	2.3743e-06	27.244	0.00021776	0.00024022	5.7255e-05	1120.3	2.899e-06	2.2414e-06	1222.2	226.77	2.6274e-06	2.598e-06	287.04	85.813	66.625	19.773	2.7629e-06	27.576	150.360	38.251	41.705	-62.672	75.248	77.979	-62.952	-55.508	80.342	85.590	-55.715	-49.157	-48.567	-41.067	113.086	-41.440	-8191	255	
2434.340	1	1	0	0	0.14819	0.23749	0.043336	0.20932	0.10674	0.2145	0.14051	0.15662	0.15132	0.23572	0.20375	0.16922	0.10509	0.13592	0.192	0.090892	-2.5958	-2.2083	-2.7521	-2.6708	-2.1562	-2.9208	-2.4125	-2.475	-2.875	-2.1729	-2.9146	-2.6375	-2.3917	-3.1583	-2.4729	-2.1937	52.669	59.639	-64.668	275.727	41.067	118.171	175.046	270.196	-23.488	-6.881	-50.243	286.386	266.598	165.187	-60.961	174.980	8.0935e-05	0.00027112	9.5042e-05	1134.2	2.1557e-06	2.0468e-06	1228.7	227.26	1.4512e-06	3.2741e-06	287.72	84.831	65.717	19.482	1.642e-06	27.181	0.00021538	0.00023184	6.3213e-05	1118.4	3.101e-06	2.3873e-06	1217.4	226.74	2.6169e-06	2.4577e-06	286.62	85.62	66.338	19.693	2.6452e-06	27.446	132.306	31.687	11.981	-62.991	110.326	89.785	-62.742	-55.147	74.146	83.033	-55.516	-49.153	-48.266	-40.913	89.270	-41.915	-8191	255	
2434.437	1	1	0	0	0.070012	0.15829	0.066287	0.11638	0.21747	0.12341	0.24007	0.24864	0.26375	0.16118	0.18154	0.16963	0.055486	0.32531	0.17785	0.052595	-2.6	-2.1583	-2.8438	-2.9729	-2.1458	-3.1188	-2.4271	-2.4479	-2.9	-2.275	-2.7417	-2.8063	-2.1562	-3.0333	-2.625	-2.6583	247.134	247.527	280.573	275.764	-16.332	-31.785	225.003	282.387	121.638	85.180	-47.009	-65.000	181.102	214.154	15.411	182.946	8.7312e-05	0.00037095	8.1981e-05	1133.8	9.3648e-07	2.2127e-06	1227.6	228.44	4.5615e-07	2.7736e-06	290.89	85.198	66.052	19.541	2.4944e-06	27.216	0.00022873	0.00024119	6.4026e-05	1117.4	2.9204e-06	2.3801e-06	1215.5	226.65	2.6164e-06	2.7262e-06	286.86	85.551	66.329	19.698	2.7377e-06	27.449	133.681	21.631	12.268	-62.591	88.410	85.374	-62.711	-55.320	64.101	45.929	-55.521	-48.877	-48.297	-40.968	109.848	-41.354	-8191	255	
2434.533	1	1	0	0	0.13755	0.19242	0.068822	0.05215	0.34553	0.29872	0.21968	0.32088	0.14714	0.030705	0.12279	0.23961	0.045967	0.11548	0.13352	0.1583	-2.7562	-2.225	-2.5917	-2.9417	-2.0542	-2.9792	-2.6979	-2.3833	-3.1271	-2.3812	-2.6792	-3.0646	-2.0583	-2.9104	-2.5417	-2.2521	271.114	63.315	105.845	-54.576	10.769	-14.250	215.464	191.267	188.269	158.047	275.626	183.174	116.687	282.415	55.226	116.731	7.7917e-05	0.00027288	8.6077e-05	1141.1	2.2299e-06	3.1191e-06	1238.2	229.86	1.6808e-06	3.0289e-06	293.41	85.492	66.461	19.443	2.466e-06	27.209	0.00021811	0.00023579	7.1048e-05	1116.6	3.1046e-06	2.5248e-06	1217.9	227.08	2.6938e-06	2.5579e-06	288.42	85.69	66.55	19.699	2.5768e-06	27.429	135.268	39.454	17.107	-62.599	99.131	71.157	-62.348	-55.133	46.078	117.724	-55.330	-48.939	-48.553	-40.721	84.672	-41.567	-8191	255	
2434.629	1	1	0	0	0.18836	0.10096	0.017843	0.43282	0.15153	0.1308	0.14964	0.099792	0.12878	0.18448	0.42215	0.32888	0.11274	0.30736	0.070339	0.22995	-2.7104	-2.2333	-2.4583	-3.1937	-2.1771	-2.9271	-2.9313	-2.1854	-3.0479	-2.35	-2.4375	-3.0354	-2.3417	-2.8479	-2.9833	-2.1667	87.965	86.704	-26.336	235.317	134.082	108.925	228.611	-72.030	121.035	100.534	280.568	244.498	192.976	255.128	155.865	219.065	8.3531e-05	0.00022922	6.2803e-05	1139.6	2.279e-06	2.9795e-06	1231.1	230	1.0343e-06	2.2655e-06	291.47	85.206	66.291	19.648	2.9729e-06	27.22	0.00021371	0.0002383	6.3804e-05	1117.2	2.9141e-06	2.6634e-06	1217.2	227.21	2.688e-06	2.7706e-06	287.98	85.517	66.397	19.746	2.5145e-06	27.429	134.290	18.828	14.925	-63.200	79.088	86.957	-62.914	-55.787	81.316	96.693	-56.257	-49.283	-49.050	-41.378	73.247	-41.952	-8191	255	
2434.725	1	1	0	0	0.13804	0.24031	0.11505	0.18061	0.1809	0.18075	0.24281	0.28792	0.17585	0.034082	0.16333	0.093604	0.19755	0.31468	0.17759	0.23954	-2.5021	-2.4917	-2.4562	-3.2854	-2.2354	-2.9875	-3.1688	-2.1375	-3.0062	-2.4125	-2.5646	-3.1396	-2.3646	-2.725	-3.0146	-2.3667	14.485	34.708	195.555	172.693	190.977	-64.326	274.609	143.830	-21.429	-67.428	-14.606	-39.032	220.332	218.573	23.934	95.438	7.8968e-05	0.00025528	6.731e-05	1144.5	1.6625e-06	3.7216e-06	1238.9	228.9	1.6386e-06	3.4352e-06	289.45	84.756	66.413	19.58	7.915e-07	27.149	0.00021847	0.00025047	6.8298e-05	1119.4	2.9209e-06	2.6028e-06	1219	226.57	2.7149e-06	2.8155e-06	287.33	85.484	66.415	19.697	2.57e-06	27.505	124.556	15.976	30.928	-63.045	63.099	96.704	-63.142	-55.864	36.316	94.337	-56.268	-49.641	-48.837	-41.534	71.397	-42.004	-8191	255	
2434.821	1	1	0	0	0.097446	0.13758	0.19826	0.116	0.08533	0.2674	0.30331	0.2094	0.13494	0.088223	0.1408	0.087287	0.088106	0.045122	0.28555	0.34478	-2.5646	-2.4938	-2.025	-3.1521	-2.3063	-2.5771	-3.1688	-2.2625	-3.1604	-2.7375	-2.3021	-3.2104	-2.475	-2.4125	-2.9146	-2.2458	97.528	9.951	224.866	256.920	-49.347	258.648	113.405	67.105	263.585	223.369	-65.069	197.644	-58.382	232.963	250.141	273.164	8.8882e-05	0.00019269	8.5681e-05	1139	1.5255e-06	3.3373e-06	1238.6	228.77	1.2278e-06	2.5344e-06	290.5	85.199	66.341	19.683	2.5516e-06	27.331	0.00022141	0.00024428	7.1137e-05	1117.2	3.0245e-06	2.8585e-06	1220.2	226.58	2.639e-06	2.5847e-06	288.11	85.568	66.316	19.774	2.4994e-06	27.512	133.441	37.338	18.078	-62.801	61.738	67.699	-62.987	-55.085	72.970	87.435	-55.529	-49.416	-48.653	-41.224	68.194	-41.600	-8191	255	
#DATA ENDS
