BOXY.EXE: ISS Imagent and Oximeter Data Acquisition Program Version 0.80
Ascii Record File

#ACQ INFORMATION
2  Detector Channels 
16  External MUX Channels 
1  Auxiliary Channels 
5000  Waveform (CCF) Frequency (Hz)
1  Waveforms Skipped 
30  Waveforms Averaged 
1  Cycles Averaged 
16  Acquisitions per Waveform 
10.0806  Updata Rate (Hz) 

#FILE INFORMATION
TRUE -- External MUX Channel results are PARSED.
FALSE -- AC DC and Phase are NOT grouped.
TRUE -- Companion Program Settings File CREATED.
FALSE -- AC data not excluded
FALSE -- DC data not excluded
FALSE -- Phase data not excluded
FALSE -- Auxillary Chn. data not excluded
Tab delimiters

#CALIBRATION STATE
TRUE -- Waveform Calibration Values APPLIED.


#AUX CALIBRATION VALUES
Val Type	aux-1	

Term	1.0000e+00	
Factor	0.0000e+00	


#WF CALIBRATION VALUES
A = Detector Channel
Val Type	A-AC1	A-AC2	A-AC3	A-AC4	A-AC5	A-AC6	A-AC7	A-AC8	A-AC9	A-AC10	A-AC11	A-AC12	A-AC13	A-AC14	A-AC15	A-AC16	A-DC1	A-DC2	A-DC3	A-DC4	A-DC5	A-DC6	A-DC7	A-DC8	A-DC9	A-DC10	A-DC11	A-DC12	A-DC13	A-DC14	A-DC15	A-DC16	A-Ph1	A-Ph2	A-Ph3	A-Ph4	A-Ph5	A-Ph6	A-Ph7	A-Ph8	A-Ph9	A-Ph10	A-Ph11	A-Ph12	A-Ph13	A-Ph14	A-Ph15	A-Ph16	

Term	0.00000e+00	0.00000e+00	0.00000e+00	0.00000e+00	0.00000e+00	0.00000e+00	0.00000e+00	0.00000e+00	0.00000e+00	0.00000e+00	0.00000e+00	0.00000e+00	0.00000e+00	0.00000e+00	0.00000e+00	0.00000e+00	0.00000e+00	0.00000e+00	0.00000e+00	0.00000e+00	0.00000e+00	0.00000e+00	0.00000e+00	0.00000e+00	0.00000e+00	0.00000e+00	0.00000e+00	0.00000e+00	0.00000e+00	0.00000e+00	0.00000e+00	0.00000e+00	0.00000e+00	0.00000e+00	0.00000e+00	0.00000e+00	0.00000e+00	0.00000e+00	0.00000e+00	0.00000e+00	0.00000e+00	0.00000e+00	0.00000e+00	0.00000e+00	0.00000e+00	0.00000e+00	0.00000e+00	0.00000e+00	
Factor	1.00000e+00	1.00000e+00	1.00000e+00	1.00000e+00	1.00000e+00	1.00000e+00	1.00000e+00	1.00000e+00	1.00000e+00	1.00000e+00	1.00000e+00	1.00000e+00	1.00000e+00	1.00000e+00	1.00000e+00	1.00000e+00	1.00000e+00	1.00000e+00	1.00000e+00	1.00000e+00	1.00000e+00	1.00000e+00	1.00000e+00	1.00000e+00	1.00000e+00	1.00000e+00	1.00000e+00	1.00000e+00	1.00000e+00	1.00000e+00	1.00000e+00	1.00000e+00	X	X	X	X	X	X	X	X	X	X	X	X	X	X	X	X	

B = Detector Channel
Val Type	B-AC1	B-AC2	B-AC3	B-AC4	B-AC5	B-AC6	B-AC7	B-AC8	B-AC9	B-AC10	B-AC11	B-AC12	B-AC13	B-AC14	B-AC15	B-AC16	B-DC1	B-DC2	B-DC3	B-DC4	B-DC5	B-DC6	B-DC7	B-DC8	B-DC9	B-DC10	B-DC11	B-DC12	B-DC13	B-DC14	B-DC15	B-DC16	B-Ph1	B-Ph2	B-Ph3	B-Ph4	B-Ph5	B-Ph6	B-Ph7	B-Ph8	B-Ph9	B-Ph10	B-Ph11	B-Ph12	B-Ph13	B-Ph14	B-Ph15	B-Ph16	

Term	0.00000e+00	0.00000e+00	0.00000e+00	0.00000e+00	0.00000e+00	0.00000e+00	0.00000e+00	0.00000e+00	0.00000e+00	0.00000e+00	0.00000e+00	0.00000e+00	0.00000e+00	0.00000e+00	0.00000e+00	0.00000e+00	0.00000e+00	0.00000e+00	0.00000e+00	0.00000e+00	0.00000e+00	0.00000e+00	0.00000e+00	0.00000e+00	0.00000e+00	0.00000e+00	0.00000e+00	0.00000e+00	0.00000e+00	0.00000e+00	0.00000e+00	0.00000e+00	-1.55424e+02	-1.27235e+02	-1.24166e+02	-1.80391e+02	-7.40752e+01	-6.35377e+01	-1.56642e+02	-1.62015e+02	-7.80018e+01	-6.24457e+01	-1.75242e+02	-1.71364e+02	-1.79620e+02	-1.76316e+02	-7.26602e+01	-1.49562e+02	
Factor	2.32168e-05	1.44619e-04	3.90176e-05	1.53962e-01	1.28637e-06	1.68364e-06	1.74380e-01	5.13261e-02	1.26631e-06	1.62331e-06	9.43026e-02	3.18907e-02	2.43581e-02	9.34159e-03	1.41395e-06	1.29416e-02	1.42752e-05	2.56240e-05	7.09592e-06	7.92124e-02	2.49870e-07	2.88134e-07	8.45014e-02	2.65240e-02	2.52790e-07	2.91573e-07	4.71960e-02	1.60623e-02	1.27823e-02	4.86681e-03	2.69113e-07	6.54773e-03	X	X	X	X	X	X	X	X	X	X	X	X	X	X	X	X	



#DISTANCE SETTINGS
A = Detector Channel
A-1	A-2	A-3	A-4	A-5	A-6	A-7	A-8	A-9	A-10	A-11	A-12	A-13	A-14	A-15	A-16	

2.5000e+00	3.0000e+00	2.5000e+00	3.0000e+00	2.0000e+00	3.0000e+00	1.5000e+00	3.0000e+00	3.0000e+00	3.0000e+00	3.0000e+00	3.0000e+00	3.0000e+00	3.0000e+00	1.5000e+00	3.0000e+00	

B = Detector Channel
B-1	B-2	B-3	B-4	B-5	B-6	B-7	B-8	B-9	B-10	B-11	B-12	B-13	B-14	B-15	B-16	

1.0000e+01	1.0000e+01	1.0000e+01	1.4400e+00	1.0000e+01	1.0000e+01	1.5100e+00	1.9400e+00	1.0000e+01	1.0000e+01	1.9900e+00	2.4900e+00	2.4100e+00	2.9000e+00	1.0000e+01	2.9800e+00	




#DATA BEGINS
time	group	step	mark	flag	A-AC1	A-AC2	A-AC3	A-AC4	A-AC5	A-AC6	A-AC7	A-AC8	A-AC9	A-AC10	A-AC11	A-AC12	A-AC13	A-AC14	A-AC15	A-AC16	A-DC1	A-DC2	A-DC3	A-DC4	A-DC5	A-DC6	A-DC7	A-DC8	A-DC9	A-DC10	A-DC11	A-DC12	A-DC13	A-DC14	A-DC15	A-DC16	A-Ph1	A-Ph2	A-Ph3	A-Ph4	A-Ph5	A-Ph6	A-Ph7	A-Ph8	A-Ph9	A-Ph10	A-Ph11	A-Ph12	A-Ph13	A-Ph14	A-Ph15	A-Ph16	B-AC1	B-AC2	B-AC3	B-AC4	B-AC5	B-AC6	B-AC7	B-AC8	B-AC9	B-AC10	B-AC11	B-AC12	B-AC13	B-AC14	B-AC15	B-AC16	B-DC1	B-DC2	B-DC3	B-DC4	B-DC5	B-DC6	B-DC7	B-DC8	B-DC9	B-DC10	B-DC11	B-DC12	B-DC13	B-DC14	B-DC15	B-DC16	B-Ph1	B-Ph2	B-Ph3	B-Ph4	B-Ph5	B-Ph6	B-Ph7	B-Ph8	B-Ph9	B-Ph10	B-Ph11	B-Ph12	B-Ph13	B-Ph14	B-Ph15	B-Ph16	aux-1	digaux	

2728.628	1	1	0	256	0.10532	0.13116	0.14775	0.2725	0.18323	0.1607	0.25361	0.20224	0.11199	0.087517	0.19483	0.11103	0.10622	0.1823	0.30942	0.36163	-2.1021	-2.6667	-2.1354	-3.0396	-2.6	-2.0417	-2.8208	-2.2292	-2.3042	-2.9917	-2.1667	-2.9188	-2.7458	-2.1833	-2.9104	-2.4188	44.570	-93.311	220.694	96.598	-55.617	80.641	173.644	170.279	79.763	-62.041	-41.376	-98.460	-96.144	-62.928	100.059	135.425	0.00079975	0.00054959	0.00016927	738.4	4.5356e-06	7.1652e-06	782.34	283.08	3.6859e-06	5.8207e-06	347	153.92	125.81	68.584	5.0392e-06	91.051	0.0017051	0.0023765	0.00062651	801.22	2.3067e-05	2.5428e-05	853.67	310.66	2.318e-05	2.624e-05	380.22	170.43	139.24	75.763	2.4532e-05	100.73	172.420	-41.699	-31.214	-120.291	-10.160	29.230	-121.130	-114.764	8.760	7.838	-116.224	-111.563	-110.119	-104.539	-9.508	-107.084	-8191	255	
2728.700	1	1	0	0	0.22929	0.085048	0.14669	0.066786	0.14453	0.10756	0.057963	0.15764	0.11819	0.081465	0.147	0.29001	0.23947	0.22374	0.19623	0.26291	-2.0604	-2.7875	-1.9771	-2.7313	-2.7208	-2.1813	-2.9938	-2.3833	-2.4479	-2.8833	-2.3354	-2.8292	-2.875	-2.1875	-3.0875	-2.6542	137.979	-99.244	113.003	-126.742	110.484	92.817	144.301	195.759	195.064	61.771	138.797	-93.604	181.108	-125.922	95.769	152.087	0.00079813	0.00050442	0.00016525	737.79	1.9793e-06	3.8673e-06	777.86	282.5	4.1637e-06	4.2827e-06	345.8	153.71	125.9	68.662	2.3426e-06	91.031	0.0016701	0.0023041	0.00061089	800.97	2.2328e-05	2.4372e-05	850.65	309.97	2.1738e-05	2.5467e-05	379.16	169.6	139.03	75.817	2.306e-05	100.49	171.038	-24.461	-73.717	-120.374	-31.276	16.928	-120.974	-114.746	13.644	-4.360	-116.145	-111.372	-109.933	-104.622	-18.405	-107.004	-8191	255	
2728.821	1	1	0	0	0.066324	0.021179	0.19706	0.23642	0.1674	0.31231	0.18996	0.29388	0.041756	0.11121	0.093893	0.059293	0.077365	0.31717	0.30553	0.14488	-1.8188	-3.0083	-2.075	-2.7167	-2.9792	-2.175	-3.0292	-2.525	-2.2	-3.0563	-2.3937	-2.6417	-2.9813	-2.3354	-2.9396	-2.6646	45.116	-108.442	37.250	-124.929	3.424	67.288	138.129	146.087	160.110	-16.500	158.411	105.156	216.626	190.142	209.534	80.328	0.00083494	0.00082895	0.00013902	736.45	3.9682e-06	6.1057e-06	778.04	283.32	2.711e-06	6.2312e-06	346.18	153.71	126.19	68.88	3.738e-06	91.273	0.0015626	0.0021431	0.00056682	798.81	2.1129e-05	2.2973e-05	849.44	309.83	2.0903e-05	2.348e-05	378.91	169.81	139.45	76.019	2.2297e-05	100.81	172.050	-47.051	-28.532	-120.203	-0.934	34.570	-121.023	-114.643	-31.909	22.274	-116.295	-111.434	-109.846	-104.518	-0.047	-107.143	-8191	255	
2728.917	1	1	0	0	0.24146	0.18388	0.090932	0.24907	0.033119	0.11506	0.11342	0.17928	0.13987	0.26105	0.14562	0.11217	0.26973	0.029212	0.095492	0.18947	-1.6688	-3.0208	-2.225	-2.6063	-2.7646	-2.2229	-3.0354	-2.7021	-2.2542	-3.1771	-2.4479	-2.5854	-3.1125	-2.1479	-2.7708	-2.9313	-77.123	-49.217	124.156	-74.908	-0.895	165.319	195.249	213.434	169.191	-50.657	172.646	-106.532	107.194	217.550	110.147	176.137	0.00077798	0.00069961	0.00015045	737.23	4.2731e-06	4.5882e-06	785.33	284.28	4.6182e-06	6.7717e-06	347.13	153.8	126.39	68.838	4.6164e-06	91.631	0.0015369	0.0021154	0.00055699	799.88	2.0601e-05	2.1998e-05	852.36	310.87	2.003e-05	2.3389e-05	380.52	170.27	139.68	76.085	2.1754e-05	101.25	172.611	-49.696	-56.395	-120.094	-15.412	32.465	-120.889	-114.598	-6.454	27.593	-116.252	-111.439	-109.788	-104.420	5.311	-107.164	-8191	255	
2729.011	1	1	0	0	0.12431	0.16643	0.091432	0.14226	0.19818	0.19673	0.034109	0.41216	0.04644	0.26835	0.047064	0.23274	0.06513	0.19233	0.094996	0.14412	-1.7917	-2.875	-2.5083	-2.4104	-3.0042	-2.325	-2.9271	-2.7938	-2.025	-3.0312	-2.4208	-2.5104	-3.1083	-2.1729	-2.5271	-2.9583	183.241	-23.220	47.700	-80.914	-7.689	-51.582	-16.888	-107.377	157.685	91.198	-32.575	-98.168	186.526	173.367	42.212	11.377	0.00077038	0.00045899	0.00015747	739.62	3.5939e-06	4.5645e-06	782.27	284.75	3.0567e-06	8.2728e-06	348.16	154.07	126.56	68.764	4.7235e-06	91.147	0.0015164	0.0020226	0.00056349	801.69	2.0465e-05	2.1729e-05	852.73	311.32	1.9904e-05	2.2859e-05	380.41	170.03	139.82	76.006	2.1503e-05	100.73	173.419	-38.323	-17.117	-120.320	6.323	13.312	-120.947	-114.606	-40.497	49.775	-116.295	-111.304	-109.760	-104.509	-20.827	-107.094	-8191	255	
2729.107	1	1	0	0	0.17004	0.26307	0.28178	0.02016	0.069838	0.14888	0.16091	0.026321	0.11102	0.089653	0.24095	0.083037	0.31571	0.27202	0.18725	0.245	-1.6792	-2.8417	-2.5187	-2.3271	-2.9646	-2.2938	-2.6771	-2.8896	-2.0938	-2.8563	-2.5458	-2.225	-2.9958	-2.5312	-2.4833	-2.9625	-98.330	-122.997	205.305	-37.626	-75.193	109.801	206.434	26.585	3.643	-86.598	160.926	-104.747	-115.318	226.839	116.262	169.281	0.0007951	0.00060943	0.00010779	739.39	2.8222e-06	4.0395e-06	777.43	283.62	4.2622e-06	9.1462e-06	346.14	153.76	126.53	68.676	4.9744e-06	91.143	0.0015273	0.0020242	0.00056702	799.99	2.0258e-05	2.2339e-05	847.28	310.62	1.977e-05	2.2762e-05	379.02	169.63	139.73	76.097	2.1128e-05	100.8	173.763	-41.090	-40.823	-120.183	27.996	19.613	-121.080	-114.540	-34.836	25.514	-116.283	-111.488	-109.850	-104.625	4.321	-107.092	-8191	255	
2729.228	1	1	0	0	0.29777	0.1913	0.1788	0.074854	0.30403	0.28617	0.1097	0.26977	0.13457	0.069962	0.32126	0.24642	0.1019	0.13467	0.29011	0.059229	-1.7208	-2.75	-2.5667	-2.2042	-2.9958	-2.35	-2.5187	-3.0458	-2.1083	-2.8229	-2.7875	-2.1708	-3.0312	-2.5958	-2.2438	-3.0187	-77.814	104.128	-71.312	48.150	-116.302	3.054	175.531	155.851	45.951	187.354	-32.159	221.827	219.581	205.128	218.819	-71.228	0.00081091	0.00053843	0.00010441	738.95	4.8301e-06	6.7513e-06	779.84	284.87	4.2755e-06	4.3095e-06	347.21	154.66	126.86	69.057	3.3798e-06	91.777	0.0015254	0.0019874	0.00055827	800.08	1.9774e-05	2.2445e-05	850.16	311.8	1.9746e-05	2.1983e-05	380.31	170.39	140.21	76.401	2.0822e-05	101.39	173.893	-38.975	-49.721	-120.065	17.458	20.289	-120.906	-114.484	-23.268	19.266	-116.235	-111.550	-109.842	-104.595	10.795	-106.918	-8191	255	
2729.300	1	1	0	0	0.27055	0.079236	0.14902	0.19909	0.067872	0.29191	0.069182	0.29247	0.15043	0.14328	0.1559	0.25655	0.17996	0.22627	0.17693	0.2055	-1.8708	-2.5687	-2.7042	-2.1562	-2.825	-2.4917	-2.3583	-3.1271	-2.2062	-2.6396	-2.8125	-2.0833	-2.9771	-2.6021	-2.1271	-3.2	67.613	-98.346	-80.303	-99.927	-5.653	78.390	-5.532	169.829	194.023	203.101	201.428	143.924	194.496	136.675	175.114	90.845	0.00082467	0.000414	0.00013019	738.15	3.7991e-06	5.3678e-06	783.08	286.9	2.5447e-06	4.7036e-06	349.15	155.44	127.83	69.368	3.1787e-06	92.043	0.0015202	0.001909	0.00055116	802.12	1.9379e-05	2.1634e-05	853.83	313.35	1.9513e-05	2.168e-05	382.29	171.33	140.85	76.707	2.0481e-05	101.8	172.399	-50.986	-59.708	-120.214	-9.150	36.151	-120.999	-114.702	-23.191	21.611	-116.044	-111.476	-109.869	-104.506	11.413	-106.926	-8191	255	
2729.396	1	1	0	0	0.11601	0.23043	0.24054	0.13471	0.10145	0.11236	0.21964	0.14122	0.30438	0.20517	0.23731	0.24546	0.37132	0.23009	0.093048	0.18525	-1.8271	-2.4271	-2.7708	-2.0979	-2.8875	-2.5396	-2.4125	-3.1646	-2.2354	-2.5125	-3.0438	-2.0083	-2.9125	-2.6437	-2.2167	-3.1833	100.415	-78.332	-27.474	194.735	-20.565	-9.506	227.278	76.607	-62.929	159.915	118.215	219.307	216.904	-130.039	156.144	-128.295	0.00083884	0.00037691	0.00011296	740.64	3.9201e-06	5.8914e-06	785.41	286.39	4.7775e-06	6.5124e-06	346.81	154.35	127.64	69.441	5.5569e-06	91.777	0.001496	0.0019033	0.00054025	803.53	1.9315e-05	2.1608e-05	852.29	313.48	1.9512e-05	2.1355e-05	381.13	170.47	140.79	76.529	2.0417e-05	101.2	173.271	-49.760	-35.125	-120.305	28.012	7.799	-121.044	-114.629	-16.372	17.773	-116.231	-111.534	-109.925	-104.631	0.607	-107.155	-8191	255	
2729.492	1	1	0	0	0.26009	0.22116	0.34376	0.16685	0.062882	0.33068	0.17031	0.020367	0.16284	0.13253	0.16111	0.17213	0.22592	0.25972	0.18647	0.19403	-1.8583	-2.4521	-2.9271	-2.2313	-2.875	-2.5271	-2.1937	-3.1396	-2.2438	-2.2167	-3.1583	-2.0396	-2.7646	-2.7771	-2.0292	-2.9958	188.202	174.390	5.118	-8.977	59.628	224.217	156.886	-48.845	68.874	-13.349	222.909	183.293	155.257	126.544	199.918	183.124	0.0008215	0.00061587	0.00017927	738.65	3.8387e-06	6.9575e-06	784.57	286.49	3.9126e-06	7.958e-06	346.95	154.5	127.64	69.235	5.8374e-06	91.485	0.0014941	0.0018891	0.00053799	802.9	1.877e-05	2.1509e-05	852.53	313.05	1.9357e-05	2.0686e-05	380.79	170.55	140.74	76.472	1.9514e-05	101.1	172.342	-49.600	-52.324	-120.139	-23.576	-7.159	-121.190	-114.716	-30.757	27.597	-116.317	-111.443	-109.831	-104.653	-7.778	-107.045	-8191	255	
2729.613	1	1	0	0	0.082657	0.15361	0.35988	0.27445	0.090191	0.16518	0.19443	0.20901	0.042711	0.16629	0.14001	0.056776	0.10961	0.12154	0.11574	0.12887	-1.9208	-2.2021	-2.8708	-2.2521	-2.5229	-2.7333	-2.1354	-3	-2.4771	-2.375	-3.275	-2.3	-2.5333	-3.0146	-2.0979	-3.1708	57.422	1.839	-4.040	197.459	-108.397	23.272	-47.534	206.280	98.915	-11.589	102.867	85.933	219.674	-33.864	-51.346	221.532	0.00081837	0.00062427	0.00016541	741.83	3.9352e-06	4.5334e-06	786.11	286.27	5.1e-06	7.0535e-06	350.78	154.8	127.84	69.26	4.1004e-06	92.354	0.0014689	0.0018174	0.00052176	803.89	1.7926e-05	2.1069e-05	854.02	313.74	1.8917e-05	2.0139e-05	382.7	171.07	140.99	76.647	1.9491e-05	101.88	171.967	-40.033	-27.298	-120.235	-11.671	8.529	-121.129	-114.612	-17.886	37.857	-116.157	-111.759	-110.094	-104.675	10.185	-107.008	-8191	255	
2729.709	1	1	0	0	0.13808	0.056289	0.069866	0.27083	0.092759	0.26303	0.12408	0.27314	0.17487	0.19616	0.044567	0.26463	0.22227	0.10344	0.058495	0.2162	-2.25	-2.0021	-2.9333	-2.3812	-2.3167	-2.8917	-2.3042	-3.0521	-2.6896	-2.0396	-3.2313	-2.3208	-2.4125	-3.1083	-2.2625	-3.0167	-95.893	105.482	123.741	186.142	-120.147	-131.815	-109.965	197.621	78.051	138.259	10.309	176.250	191.578	-75.531	211.221	129.276	0.00082036	0.00049009	0.00019463	744.14	4.9344e-06	7.1887e-06	788.94	287.06	4.1433e-06	6.4489e-06	349.22	155.29	127.94	69.581	6.5181e-06	91.922	0.0014491	0.001783	0.00050774	805.31	1.7666e-05	2.0857e-05	856.1	314.51	1.8716e-05	2.0204e-05	382.95	171.34	141.23	76.781	2.0028e-05	101.56	172.528	-50.085	-41.964	-120.334	5.738	29.011	-121.171	-114.529	-6.974	11.718	-116.099	-111.465	-109.866	-104.328	-2.158	-106.885	-8191	255	
2729.805	1	1	0	0	0.28671	0.23014	0.13377	0.25476	0.17867	0.041944	0.26793	0.025997	0.34324	0.14482	0.13911	0.19294	0.10416	0.080789	0.073535	0.2223	-2.3063	-2.1792	-2.8563	-2.4708	-2.2396	-3.1771	-2.2729	-2.8292	-2.7708	-2.1104	-2.9396	-2.55	-2.3583	-3.1146	-2.2146	-2.6333	139.979	31.500	12.199	-87.154	183.360	78.577	87.520	-9.100	-32.999	2.202	-93.883	185.552	-112.171	103.610	-47.791	159.017	0.0007699	0.00038094	0.00012486	739.72	3.7567e-06	6.041e-06	780.7	286.84	5.0278e-06	5.1513e-06	348.57	154.3	127.66	69.262	3.599e-06	91.498	0.001474	0.0017975	0.00051482	802.47	1.7833e-05	2.0948e-05	850.98	313.42	1.9043e-05	2.0054e-05	381.51	170.55	140.86	76.593	1.9912e-05	101.24	172.178	-43.846	-39.343	-120.199	2.322	10.034	-120.694	-114.406	-19.240	37.529	-116.031	-111.545	-109.891	-104.238	-11.819	-106.825	-8191	255	
2729.925	1	1	0	0	0.16139	0.22944	0.18743	0.090569	0.081145	0.31512	0.12122	0.069453	0.12927	0.13242	0.1667	0.14389	0.16497	0.29983	0.21716	0.28328	-2.5312	-2.1063	-2.8167	-2.4146	-2.3583	-3.0208	-2.3333	-2.7708	-2.8396	-2.2979	-3.0146	-2.7292	-2.225	-3.0583	-2.2896	-2.5938	-77.203	-86.324	219.495	82.635	-127.331	116.292	-48.062	93.260	116.175	170.083	149.314	-70.018	155.151	202.687	48.148	184.306	0.00081185	0.00061167	0.0001366	739.73	4.9523e-06	4.9692e-06	785.73	287.17	4.4673e-06	4.9272e-06	349.96	155.2	127.89	69.328	2.8609e-06	92.087	0.0014761	0.0018267	0.00051138	802.8	1.7926e-05	2.06e-05	853.64	313.69	1.8831e-05	2.0725e-05	382.7	171.23	141.02	76.687	2.0176e-05	101.79	173.809	-28.185	-57.937	-120.133	-6.156	17.725	-120.929	-114.451	-14.418	6.729	-115.890	-111.532	-109.752	-104.446	4.147	-106.723	-8191	255	
2729.997	1	1	0	0	0.20117	0.2488	0.1551	0.037214	0.14781	0.13868	0.10599	0.10695	0.29687	0.13066	0.042734	0.11164	0.072783	0.2376	0.35022	0.33229	-2.7854	-2.0354	-2.85	-2.7979	-2.1813	-2.9813	-2.3417	-2.6021	-2.8729	-2.2521	-2.9375	-2.7958	-2.2208	-3.0771	-2.225	-2.3479	108.186	187.187	34.474	-51.178	219.547	102.989	192.118	-74.818	102.502	-96.257	224.875	207.544	119.332	179.863	214.336	205.737	0.00083197	0.00054434	0.00013822	743.27	4.9468e-06	6.3925e-06	785.44	287.44	3.9977e-06	4.89e-06	351.97	156.13	128.36	69.722	4.1715e-06	92.71	0.0014606	0.0018258	0.00050329	803.72	1.7732e-05	2.0609e-05	854.48	314.39	1.912e-05	2.0628e-05	384.21	172.18	141.48	76.994	2.0333e-05	102.07	172.866	-43.580	-38.797	-120.084	7.887	16.158	-121.042	-114.456	-22.043	0.717	-116.166	-111.638	-109.830	-104.355	-4.676	-106.954	-8191	255	
2730.093	1	1	0	0	0.05911	0.16532	0.17341	0.079679	0.13784	0.23516	0.081881	0.055274	0.11338	0.060842	0.011764	0.33409	0.25364	0.059905	0.26029	0.15093	-2.8646	-2.1896	-2.6854	-2.8208	-2.0167	-2.9917	-2.5521	-2.4125	-3.0687	-2.0396	-2.6479	-2.9667	-2.1896	-2.9667	-2.2708	-2.4833	-0.670	36.994	-128.895	-89.010	-124.981	67.347	100.065	141.064	-74.920	167.861	181.538	190.798	215.956	33.023	180.686	200.542	0.00082864	0.00049164	0.00014143	740.31	3.6348e-06	5.1034e-06	783.38	287.12	2.6552e-06	5.6857e-06	348.28	154.99	127.86	69.389	5.385e-06	91.782	0.001461	0.0018821	0.00050108	803.68	1.8093e-05	2.0794e-05	852.47	313.67	1.9484e-05	2.1785e-05	381.86	170.94	140.92	76.62	2.1063e-05	101.23	172.096	-19.292	-44.847	-120.290	2.584	8.642	-120.945	-114.511	-44.126	29.595	-115.921	-111.548	-109.949	-104.502	-15.093	-106.883	-8191	255	
2730.212	1	1	0	0	0.25398	0.14969	0.19244	0.44942	0.23243	0.23441	0.10659	0.41202	0.18091	0.33563	0.16888	0.084064	0.20368	0.074332	0.095329	0.34239	-2.5958	-2.0062	-2.5	-3.0792	-1.9896	-2.7167	-2.7604	-2.2896	-3.1021	-2.05	-2.6271	-2.9292	-2.3312	-3.2021	-2.5938	-2.2896	38.339	175.247	-19.666	196.833	191.160	-73.892	-35.565	215.875	166.460	45.645	-102.652	-108.128	-10.783	-90.412	-127.877	118.654	0.00080839	0.0007083	0.0001073	740.14	4.0602e-06	6.7054e-06	782.3	286.19	5.6699e-06	5.9387e-06	348.81	154.75	127.45	69.133	4.8716e-06	91.904	0.0014921	0.001912	0.00051373	801.76	1.8671e-05	2.0998e-05	852.36	313.06	1.9414e-05	2.2013e-05	381.7	170.88	140.85	76.465	2.098e-05	101.27	171.769	-44.291	-29.246	-120.165	-3.771	17.303	-121.132	-114.314	-20.490	10.732	-115.919	-111.395	-109.755	-104.271	-18.197	-106.790	-8191	255	
2730.308	1	1	0	0	0.13454	0.055469	0.30432	0.035344	0.17193	0.27429	0.17651	0.27999	0.015892	0.089237	0.21171	0.23472	0.30209	0.1489	0.08173	0.45809	-2.6833	-2.1521	-2.2687	-3.0729	-2.0875	-2.6375	-2.8208	-2.15	-3.0729	-2.5125	-2.3979	-3.2354	-2.2875	-2.8438	-2.7958	-2.2354	-109.180	-93.092	-53.262	179.798	142.725	-44.116	139.131	190.077	35.306	214.100	216.876	144.476	-131.517	191.340	14.773	97.150	0.00083857	0.00069229	0.00014197	740.57	2.119e-06	6.5047e-06	781.98	286.68	4.5968e-06	5.9935e-06	349.79	155.1	127.71	69.603	3.8921e-06	92.046	0.0014952	0.0019378	0.0005125	802.79	1.9056e-05	2.0663e-05	852.59	313.81	1.9689e-05	2.2099e-05	382.82	171.3	141.08	76.783	2.1114e-05	101.77	174.072	-43.048	-31.948	-120.197	0.179	37.903	-120.978	-114.432	-12.400	16.316	-115.677	-111.355	-109.587	-104.197	11.326	-106.668	-8191	255	
2730.404	1	1	0	0	0.17969	0.15818	0.12437	0.27447	0.041943	0.26493	0.1419	0.28966	0.1232	0.16854	0.11777	0.092609	0.24383	0.2614	0.12682	0.36289	-2.575	-2.5812	-2.2604	-3.0292	-2.2083	-2.7062	-2.95	-2.2958	-2.9604	-2.4292	-2.4854	-3.1771	-2.2833	-2.6375	-2.9229	-2.2604	13.931	179.217	176.001	-118.057	74.753	173.391	-122.699	-84.228	-38.174	164.330	96.739	156.980	133.826	223.771	223.708	215.532	0.00079859	0.00056644	0.00013768	743.92	4.1806e-06	4.4204e-06	786.35	287.54	2.1043e-06	5.0732e-06	350.15	155.45	128.18	69.362	3.259e-06	91.41	0.0014918	0.0019749	0.0005172	806.15	1.9285e-05	2.0926e-05	856.5	314.51	1.9664e-05	2.2163e-05	382.83	171.24	141.21	76.62	2.1741e-05	101.16	173.581	-44.599	-24.030	-119.981	5.834	32.161	-120.691	-114.364	-2.655	21.676	-115.739	-111.223	-109.599	-104.160	-15.438	-106.840	-8191	255	
2730.525	1	1	0	0	0.21401	0.13497	0.047915	0.21168	0.0539	0.15533	0.21418	0.25191	0.086327	0.075612	0.23104	0.21674	0.15215	0.27352	0.034296	0.10674	-2.6	-2.6583	-2.1375	-3.2354	-2.1562	-2.4521	-3.0646	-2.3646	-2.7479	-2.7021	-2.3438	-3.1375	-2.4729	-2.5812	-2.9104	-2.3083	-80.472	90.126	117.214	197.224	204.903	174.187	148.114	194.076	-19.612	-89.774	120.328	190.298	-39.370	-132.238	92.139	63.063	0.0008262	0.00047132	0.00010579	741.8	4.4682e-06	5.7663e-06	783.42	286.64	4.5944e-06	5.6361e-06	348.25	154.94	127.66	69.399	3.4391e-06	91.614	0.0015081	0.0019835	0.00052884	804.1	1.9988e-05	2.165e-05	853.57	313.62	1.953e-05	2.3029e-05	381.61	170.63	140.92	76.664	2.1796e-05	101.23	171.900	-47.921	-47.445	-120.090	-9.319	41.717	-120.894	-114.361	-15.192	24.595	-115.909	-111.240	-109.635	-104.314	15.966	-106.853	-8191	255	
2730.597	1	1	0	0	0.22803	0.19382	0.09	0.28679	0.23898	0.14179	0.29024	0.25093	0.16019	0.18467	0.38743	0.25392	0.13587	0.53639	0.18976	0.24157	-2.3417	-2.6937	-2.0833	-2.9458	-2.4958	-2.3	-3.1104	-2.2438	-2.7667	-2.9583	-2.1229	-2.9062	-2.4958	-2.3333	-2.9708	-2.2479	-86.891	98.460	65.689	133.328	76.063	94.237	131.033	220.396	74.851	109.056	213.233	54.823	170.367	224.402	28.211	159.164	0.00082114	0.00079968	0.00019229	742.82	3.3893e-06	6.6033e-06	784.97	287.72	4.4749e-06	4.6754e-06	349.85	155.23	128.17	69.989	4.1516e-06	91.963	0.0015166	0.0020251	0.00054587	804.99	2.023e-05	2.147e-05	855.16	314.62	1.9959e-05	2.2636e-05	382.39	171.22	141.66	77.236	2.1565e-05	101.89	170.504	-39.289	-40.919	-120.044	21.904	23.659	-120.760	-114.480	-12.565	-1.344	-115.605	-111.297	-109.626	-104.081	-45.343	-106.747	-8191	255	
2730.693	1	1	0	0	0.26143	0.12625	0.29535	0.14909	0.16042	0.23491	0.21867	0.33541	0.15208	0.13875	0.14637	0.12626	0.014625	0.31395	0.25021	0.26231	-2.1667	-2.8271	-2.0771	-2.9896	-2.5667	-2.1437	-3.1396	-2.3	-2.5312	-2.6979	-2.1417	-2.9562	-2.6833	-2.2646	-2.9104	-2.3187	81.056	109.856	-34.172	-80.326	-13.505	12.619	176.744	200.317	-123.141	162.338	164.755	172.530	102.081	202.082	72.031	131.666	0.00079277	0.00056381	0.00014349	744.23	2.8254e-06	4.9643e-06	785.84	288.96	2.7157e-06	6.3752e-06	351.22	156.58	129.19	70.539	3.5481e-06	93.192	0.0015201	0.0020519	0.00055125	805.35	2.0334e-05	2.168e-05	854.94	316.01	1.9886e-05	2.3175e-05	384.3	172.37	142.45	77.838	2.1747e-05	102.85	170.450	-32.070	-56.683	-119.800	9.892	14.354	-120.794	-114.350	-29.610	9.314	-115.929	-111.140	-109.573	-104.385	4.046	-106.696	-8191	255	
2730.789	1	1	0	0	0.048254	0.22406	0.29184	0.10688	0.22239	0.16154	0.39198	0.015244	0.13453	0.23957	0.33116	0.075759	0.14453	0.082849	0.069896	0.17677	-1.9813	-2.8	-2.0563	-2.8896	-2.4667	-2.2625	-2.9896	-2.5583	-2.3667	-2.9146	-2.2021	-2.9458	-2.6854	-2.2708	-2.975	-2.4354	-15.728	29.154	128.013	-119.287	-2.858	146.223	149.988	56.710	-89.833	77.541	191.548	131.069	47.569	183.968	37.696	86.109	0.00081075	0.00056617	0.00011556	743.95	3.5639e-06	7.0873e-06	785.36	289.03	4.9209e-06	7.3584e-06	350.24	154.98	129.11	70.45	3.8155e-06	92.679	0.0015437	0.0020843	0.00058327	806.51	2.1094e-05	2.2763e-05	854.1	316.24	2.0563e-05	2.3937e-05	382.68	171.28	142.39	77.915	2.2464e-05	102.41	171.382	-49.573	-59.910	-119.612	-4.352	13.212	-120.495	-114.213	-10.734	29.121	-115.708	-111.170	-109.487	-104.143	-9.186	-106.786	-8191	255	
2730.885	1	1	0	0	0.090308	0.020274	0.07643	0.35892	0.037723	0.22547	0.28222	0.18168	0.28251	0.024796	0.24235	0.22161	0.079478	0.19685	0.17488	0.17319	-1.8604	-2.9583	-2.0271	-2.7604	-2.6729	-2.2479	-3.1542	-2.5875	-2.3979	-3.0375	-2.1833	-2.8542	-2.8187	-2.1583	-2.9917	-2.5542	-78.686	221.732	82.086	118.974	11.384	81.891	209.291	160.044	-37.014	-92.448	-131.736	163.960	147.331	192.738	-37.622	122.681	0.00084148	0.00041211	0.0001594	738.77	2.1813e-06	3.3345e-06	781.61	288.41	4.688e-06	4.4843e-06	348.19	155.66	129.06	70.941	5.1859e-06	93.206	0.0015742	0.002111	0.00059513	801.89	2.1166e-05	2.2985e-05	849.9	315.59	2.0555e-05	2.4129e-05	381.87	171.79	142.53	78.38	2.2583e-05	103.02	171.352	-47.645	-37.087	-119.581	23.284	11.563	-120.655	-114.232	-9.530	34.315	-116.138	-111.748	-110.306	-104.960	-19.097	-107.643	-8191	255	
2731.004	1	1	0	0	0.090878	0.11118	0.23105	0.12295	0.082666	0.013142	0.26941	0.16196	0.14003	0.28003	0.12764	0.17043	0.18969	0.48377	0.045872	0.162	-1.6875	-3.0062	-2.0708	-2.6583	-2.7729	-2.0062	-2.8187	-2.5958	-2.3063	-2.9917	-2.3458	-2.4833	-3.0438	-2.3271	-2.775	-2.9417	-104.049	36.159	204.689	191.739	172.247	170.524	217.637	180.402	-65.828	-86.471	-61.218	-87.014	28.140	218.165	-31.294	153.888	0.00083296	0.00067712	0.0001313	736.54	3.4696e-06	5.4353e-06	781.94	288.42	4.2894e-06	4.6488e-06	349.67	156.41	129.96	71.101	3.7123e-06	93.446	0.00157	0.0020936	0.00059788	800.6	2.1044e-05	2.3655e-05	848.15	316.07	2.0874e-05	2.4223e-05	383.56	172.01	143.19	78.62	2.2159e-05	103.49	173.185	-46.485	-55.684	-120.670	36.838	28.917	-121.481	-115.048	-21.914	23.014	-116.722	-112.207	-110.475	-105.238	-15.189	-107.548	-8191	255	
2731.100	1	1	0	0	0.18635	0.11331	0.090875	0.054436	0.13992	0.12604	0.089753	0.090331	0.28805	0.24934	0.10715	0.18368	0.056697	0.25401	0.13791	0.15802	-1.6854	-2.9833	-2.2083	-2.5208	-2.8792	-2.1917	-2.8104	-2.7521	-2.15	-3.0208	-2.5	-2.5375	-3.0771	-2.2229	-2.8604	-2.9771	217.417	64.271	147.340	222.175	177.264	13.304	131.363	209.472	-124.420	-25.254	106.631	193.209	215.842	215.925	-84.912	183.531	0.00086322	0.00063781	0.00017536	738.49	6.1111e-06	6.4383e-06	778.18	289.32	2.0417e-06	4.9193e-06	350.26	155.49	129.62	70.966	4.8899e-06	92.881	0.0015992	0.0021188	0.00059607	800.89	2.1074e-05	2.4118e-05	847.15	317.11	2.1489e-05	2.4018e-05	383.39	171.53	143.13	78.487	2.2774e-05	102.81	170.444	-45.033	-49.261	-120.563	1.461	20.294	-121.232	-115.231	-41.879	39.487	-116.773	-111.942	-110.435	-105.017	-20.571	-107.491	-8191	255	
2731.174	1	1	0	0	0.23731	0.13691	0.18813	0.21424	0.1228	0.37804	0.1832	0.10214	0.13669	0.23022	0.13988	0.029626	0.18291	0.10994	0.26333	0.22709	-1.7021	-3.0542	-2.3208	-2.3312	-2.9208	-2.1125	-2.8229	-2.8563	-1.9375	-2.8896	-2.6375	-2.3979	-3.125	-2.3312	-2.45	-3.0625	127.494	67.638	-100.370	-126.036	19.600	167.976	109.908	158.737	204.478	-132.241	173.094	84.880	-54.180	82.324	-86.544	158.351	0.0008122	0.0003799	0.00016759	734.22	4.8852e-06	6.0112e-06	774.07	288.12	5.4911e-06	6.4882e-06	347.96	154.51	129.34	70.893	5.1729e-06	92.775	0.0016573	0.0021611	0.00061264	797.75	2.1262e-05	2.4916e-05	840.06	315.95	2.1726e-05	2.4199e-05	381.79	170.78	142.79	78.469	2.2139e-05	102.58	174.154	-46.536	-42.590	-120.615	7.836	-3.318	-121.598	-115.134	-24.577	36.089	-116.656	-111.966	-110.407	-105.041	-10.801	-107.684	-8191	255	
2731.293	1	1	0	0	0.16323	0.12271	0.24426	0.18256	0.039499	0.2188	0.068308	0.16821	0.11953	0.12649	0.17314	0.1665	0.17824	0.357	0.14816	0.2242	-1.6646	-2.7479	-2.7	-2.1458	-3.0229	-2.15	-2.5875	-2.9646	-2.0542	-2.7229	-2.8438	-2.2417	-3.0167	-2.3333	-2.2438	-2.9562	33.309	124.079	207.651	76.633	79.051	-93.562	37.958	145.252	106.784	141.924	182.360	17.583	-101.662	179.718	-59.470	221.802	0.00082011	0.00066975	0.00019983	733.94	5.3127e-06	6.7704e-06	774.49	288.97	3.957e-06	5.3812e-06	350.19	155.35	129.56	70.972	5.0453e-06	93.266	0.001632	0.002092	0.00059938	797.25	2.0776e-05	2.412e-05	841.5	316.7	2.1413e-05	2.3066e-05	383.39	171.63	143.36	78.649	2.1645e-05	103.15	173.800	-45.238	-31.809	-120.677	15.914	5.921	-121.415	-115.182	-9.379	-6.101	-116.658	-112.109	-110.421	-105.079	14.146	-107.611	-8191	255	
2731.389	1	1	0	0	0.077164	0.017999	0.1608	0.14939	0.10993	0.15332	0.045353	0.054829	0.045713	0.21722	0.32934	0.15231	0.039706	0.14739	0.15946	0.2396	-1.6583	-2.8563	-2.7208	-2.2583	-2.8521	-2.3042	-2.5979	-3.1167	-2.1333	-2.8917	-2.8187	-2.2375	-3.0896	-2.5229	-2.3417	-3.2	-101.114	-54.178	7.604	107.945	201.278	205.660	81.742	111.007	144.776	27.647	180.960	177.412	1.834	100.768	-81.193	142.132	0.00085583	0.00053107	0.00020559	736.6	6.4038e-06	6.0446e-06	776.88	289.94	5.6185e-06	6.572e-06	351.02	157.14	130.29	71.489	2.6425e-06	93.888	0.0016033	0.0019769	0.00058574	798.52	1.9979e-05	2.3423e-05	845.77	318.01	2.1362e-05	2.202e-05	384.66	172.95	144.06	79.095	2.1121e-05	103.81	174.162	-60.452	-38.935	-120.602	2.018	22.632	-121.617	-115.207	-23.234	21.239	-116.525	-112.034	-110.382	-105.137	-10.152	-107.565	-8191	255	
2731.485	1	1	0	0	0.1539	0.3201	0.31156	0.29328	0.26812	0.046298	0.085649	0.24243	0.1583	0.15431	0.13212	0.32105	0.21253	0.073035	0.23824	0.12188	-1.7583	-2.6125	-2.8979	-2.1854	-2.9542	-2.3563	-2.4396	-3.2479	-2.1896	-2.6229	-2.9458	-2.2583	-2.8937	-2.75	-2.225	-3.1979	-67.003	-85.820	46.020	175.354	188.060	-62.338	60.974	111.381	151.154	-7.967	173.951	203.350	-18.448	206.195	-55.182	170.448	0.00085217	0.00051256	0.0001471	737.03	4.4243e-06	6.561e-06	772.91	292.17	2.4873e-06	4.8618e-06	350.69	155.91	130.19	71.242	5.9013e-06	93.27	0.0015768	0.0019232	0.00055458	800.28	1.9155e-05	2.2218e-05	843.61	318.58	1.9564e-05	2.0586e-05	383.77	171.98	143.9	78.85	2.0082e-05	103.08	171.901	-18.000	-27.955	-120.479	3.086	31.044	-121.175	-115.136	-19.985	42.798	-116.568	-112.077	-110.223	-104.928	0.577	-107.409	-8191	255	
2731.605	1	1	0	0	0.1496	0.21981	0.3011	0.014591	0.1583	0.277	0.097977	0.1968	0.29329	0.12023	0.30718	0.11383	0.30893	0.072826	0.10258	0.32731	-1.8521	-2.4833	-2.9	-2.1792	-2.7062	-2.6312	-2.1937	-3.0146	-2.2521	-2.4417	-2.95	-2.0458	-2.9917	-2.8063	-2.0917	-3.1	105.003	13.793	-68.025	157.434	26.501	140.704	123.015	226.887	-74.313	141.530	140.602	186.392	-83.066	200.202	-96.097	134.638	0.00081808	0.00050551	0.00015578	735.97	3.5538e-06	6.3141e-06	773.82	290.99	3.9353e-06	6.6472e-06	350.7	156.39	130.63	71.462	2.5124e-06	93.502	0.0015096	0.0018015	0.00052012	798.72	1.8177e-05	2.125e-05	842.81	318.37	1.9514e-05	2.049e-05	384.11	172.41	144.19	79.01	1.9816e-05	103.48	173.119	-61.767	-45.912	-120.543	12.341	25.043	-121.332	-114.946	-31.049	21.527	-116.713	-111.984	-110.301	-104.797	-1.592	-107.338	-8191	255	
2731.702	1	1	0	0	0.20216	0.1687	0.12128	0.11322	0.26672	0.055265	0.17857	0.29801	0.17091	0.21359	0.17857	0.15102	0.35137	0.18402	0.21906	0.31452	-2.0271	-2.3542	-2.8083	-2.2646	-2.6979	-2.7771	-2.1479	-2.925	-2.475	-2.2562	-3.0417	-2.2021	-2.8292	-2.9958	-2.0396	-3.1312	204.225	-66.138	-64.713	222.762	-18.727	-1.292	146.178	155.025	221.671	174.318	-85.887	128.589	142.178	188.489	153.010	183.315	0.00085203	0.00055049	0.00014964	736.36	3.4058e-06	5.2036e-06	778.14	291.33	5.5578e-06	3.9223e-06	353.48	156.7	131.39	71.706	4.8083e-06	94.154	0.0015017	0.0017749	0.00050631	798.11	1.7465e-05	2.0726e-05	844.83	318.7	1.8889e-05	2.0023e-05	385.77	173.08	144.76	79.298	1.9924e-05	104.11	168.886	-39.941	-42.302	-120.449	-1.043	38.714	-121.254	-114.856	-14.568	6.605	-116.309	-111.682	-110.105	-104.817	-2.863	-107.084	-8191	255	
2731.798	1	1	0	0	0.15172	0.083039	0.10272	0.095188	0.15541	0.053445	0.17797	0.15763	0.040336	0.20548	0.22127	0.44832	0.18545	0.11677	0.2026	0.28059	-2.1417	-2.0604	-2.8875	-2.0646	-2.4729	-2.7896	-2.1208	-2.8708	-2.5062	-2.3021	-3.2188	-2.3771	-2.7292	-3.2146	-2.0708	-3.0708	218.314	105.486	217.688	205.665	149.863	11.803	63.932	201.413	173.339	130.471	-109.221	-123.854	56.511	215.506	184.241	179.655	0.00083482	0.00060124	0.00016679	737.5	5.3241e-06	4.5487e-06	776.22	293.53	4.6129e-06	5.9661e-06	353.53	156.95	131.28	71.754	3.3163e-06	94.21	0.001488	0.0017388	0.00049982	799.71	1.7471e-05	1.9846e-05	846.14	320.33	1.8503e-05	1.9832e-05	386.61	173.72	145.08	79.341	2.025e-05	104.06	171.892	-28.918	-40.425	-120.429	15.643	23.174	-121.025	-114.749	-19.736	13.721	-116.592	-112.110	-110.082	-104.773	-29.336	-107.258	-8191	255	
2731.894	1	1	0	0	0.24755	0.22594	0.23041	0.1997	0.13091	0.22956	0.16714	0.13911	0.25265	0.17691	0.21238	0.13409	0.18168	0.10722	0.22784	0.39067	-2.2104	-2.1396	-2.8937	-2.3229	-2.4354	-2.9125	-2.2375	-2.9375	-2.6854	-2.1875	-2.9229	-2.4437	-2.3271	-3.2583	-1.9917	-2.6854	62.491	-33.577	87.585	-73.366	80.523	14.878	196.015	134.022	219.920	208.985	160.597	119.757	97.127	217.183	-22.125	139.357	0.00081389	0.00050688	0.00019228	735.55	6.3546e-06	5.4769e-06	774.28	291.75	4.4867e-06	4.8804e-06	351.29	156.78	130.72	71.669	5.8982e-06	93.873	0.0014838	0.0018379	0.00050402	798.06	1.7599e-05	2.0458e-05	843.2	319.03	1.8936e-05	2.1087e-05	384.69	172.91	144.66	79.156	2.1026e-05	103.62	173.079	-56.595	-52.053	-120.425	-0.918	48.808	-121.221	-114.988	-19.037	25.740	-116.199	-111.897	-110.484	-104.806	-11.715	-107.454	-8191	255	
2731.990	1	1	0	0	0.17674	0.12456	0.28258	0.4688	0.11474	0.34841	0.084688	0.08221	0.17974	0.066425	0.33161	0.13729	0.13837	0.17081	0.15644	0.20967	-2.4167	-2.0125	-2.8396	-2.5187	-2.1146	-2.9667	-2.2917	-2.875	-2.9396	-2.2979	-3.0146	-2.5958	-2.3521	-3.1229	-2.3875	-2.8542	141.351	-96.410	99.544	165.707	2.695	13.840	143.693	152.741	180.733	-4.828	205.305	142.029	176.994	-105.224	-22.217	44.547	0.0008274	0.00053507	0.0001156	736.11	3.9535e-06	3.5899e-06	773.96	293.24	4.5475e-06	5.5182e-06	354.09	156.9	131.24	71.891	5.1652e-06	94.394	0.0014792	0.0018671	0.00050459	798.67	1.75e-05	2.0316e-05	842.68	319.63	1.818e-05	2.0719e-05	386.21	173.32	145	79.496	2.0276e-05	104.22	172.888	-29.509	-36.235	-120.666	-4.014	35.706	-121.239	-114.743	-17.257	17.324	-116.477	-111.973	-110.282	-104.877	8.778	-107.362	-8191	255	
2732.084	1	1	0	0	0.16992	0.21108	0.18381	0.21036	0.33012	0.22029	0.29862	0.17237	0.017492	0.22535	0.11973	0.33177	0.17586	0.2808	0.16424	0.12735	-2.5542	-2.0271	-2.7708	-2.5854	-2.4146	-3.0479	-2.1542	-2.6229	-2.8646	-2.175	-3.1167	-2.7354	-2.2875	-3.0708	-2.1312	-2.5583	22.438	71.280	-107.030	124.295	196.854	217.702	-73.220	218.961	-107.751	-130.208	-77.478	153.554	-111.889	224.497	-23.258	224.921	0.00082495	0.00060927	0.00012994	734.88	5.5073e-06	4.3665e-06	778.24	292.79	4.4993e-06	6.6715e-06	353.92	157.98	132.48	72.264	3.5154e-06	94.737	0.0014364	0.0018406	0.00048233	798.9	1.7663e-05	1.9777e-05	846.13	320.34	1.8361e-05	2.1129e-05	387.62	174.28	145.68	79.892	2.0339e-05	104.83	171.908	-44.763	-56.450	-120.517	-5.648	33.184	-121.439	-114.969	-20.036	14.071	-116.515	-112.069	-110.208	-104.860	24.181	-107.407	-8191	255	
2732.181	1	1	0	0	0.10003	0.16681	0.16923	0.10942	0.22856	0.091414	0.35739	0.25556	0.034779	0.084696	0.12208	0.21208	0.2341	0.32043	0.17099	0.22431	-2.6104	-2.0438	-2.5729	-2.6312	-2.1125	-3.1083	-2.3958	-2.5479	-2.9229	-2.2458	-2.8646	-2.9229	-2.2833	-3.0875	-2.5229	-2.5312	-91.149	70.902	145.643	168.234	-98.841	-87.625	202.048	-106.280	92.165	-36.039	181.150	153.411	204.820	190.696	63.422	82.366	0.00084978	0.00068343	9.0294e-05	737.02	2.9045e-06	8.5529e-06	776.28	292.73	4.646e-06	5.3277e-06	353	156.97	131.32	72.017	3.8356e-06	94.101	0.0014352	0.0018555	0.00047985	799.54	1.7984e-05	1.9786e-05	844.91	320.22	1.8298e-05	2.0974e-05	386.46	173.11	145.15	79.619	1.9865e-05	104.04	171.297	-35.108	-30.235	-120.470	-20.911	20.068	-121.294	-114.817	-22.921	21.925	-116.370	-111.851	-110.439	-104.833	-12.656	-107.442	-8191	255	
2732.301	1	1	0	0	0.23663	0.21096	0.056375	0.18777	0.28057	0.17712	0.26713	0.023462	0.019638	0.24861	0.10593	0.11223	0.23829	0.11317	0.17033	0.32933	-2.5479	-2.2229	-2.7542	-3.0875	-2.05	-3.0229	-2.5667	-2.3521	-3.1229	-2.2938	-2.8354	-2.9625	-2.175	-3.1083	-2.55	-2.4354	85.510	43.932	137.110	65.528	137.443	-1.806	165.411	-93.679	-50.956	196.212	211.555	76.350	10.036	156.697	154.130	98.950	0.00081645	0.00055899	0.0001168	736.01	5.19e-06	4.9876e-06	771.56	291.86	3.0388e-06	6.3183e-06	353.23	157.53	131.37	72.103	4.3064e-06	94.516	0.0014229	0.001846	0.00047107	797.85	1.7948e-05	1.8803e-05	840.17	319.48	1.7547e-05	2.0436e-05	386.02	173.65	145.23	79.755	1.9169e-05	104.35	173.835	-49.712	-45.543	-120.395	-2.574	27.161	-121.238	-114.834	-15.234	26.775	-116.400	-112.006	-110.228	-104.758	-10.331	-107.355	-8191	255	
2732.397	1	1	0	0	0.1467	0.084232	0.31442	0.10584	0.18715	0.21587	0.1343	0.14436	0.26104	0.23955	0.066741	0.23595	0.12357	0.23163	0.1007	0.1898	-2.4437	-2.3479	-2.6813	-3.0417	-2.2062	-2.8146	-2.6417	-2.3354	-3.0167	-2.4208	-2.2792	-3.0542	-2.2646	-2.8875	-2.525	-2.4333	-22.722	-40.963	-5.632	151.778	127.537	197.804	9.324	124.328	-44.893	59.640	213.445	208.479	200.128	212.422	55.382	-118.604	0.0008215	0.00051461	0.00013531	737.68	4.9112e-06	6.4806e-06	774.17	292.97	4.0047e-06	5.0144e-06	354.41	157.81	132.25	72.496	5.099e-06	95.214	0.001395	0.0018042	0.00046048	797.63	1.766e-05	1.8566e-05	842.38	320.38	1.7006e-05	1.993e-05	387.29	174.21	145.71	80.116	1.853e-05	105.14	170.859	-41.265	-44.527	-120.541	-2.210	40.466	-121.098	-114.772	-21.754	13.053	-116.317	-111.888	-110.052	-104.706	-2.819	-107.377	-8191	255	
2732.469	1	1	0	0	0.24268	0.12927	0.10049	0.13306	0.12197	0.091078	0.17932	0.1273	0.10537	0.16214	0.11872	0.1901	0.19875	0.27328	0.21342	0.40111	-2.6188	-2.0958	-2.4604	-3.1292	-1.9646	-2.7583	-2.9562	-2.2938	-3.0604	-2.4979	-2.5208	-3.2458	-2.3854	-2.8083	-2.8208	-2.2292	-94.417	0.762	-95.662	-109.660	141.129	215.117	-99.300	-72.844	-64.169	127.143	-22.185	159.712	162.829	214.249	175.231	194.332	0.00081083	0.00046877	0.00014871	736.33	5.144e-06	5.6975e-06	777.33	293.8	5.7762e-06	5.4161e-06	355.83	158.35	132.05	72.661	3.6307e-06	94.904	0.0013686	0.0017395	0.00045123	798.1	1.725e-05	1.8163e-05	844.7	321.33	1.6751e-05	1.9528e-05	388.28	174.7	145.96	80.214	1.8613e-05	104.82	171.402	-55.465	-33.084	-120.508	23.874	12.826	-121.239	-114.762	-32.506	12.594	-116.535	-111.858	-110.241	-104.764	-14.320	-107.454	-8191	255	
2732.565	1	1	0	0	0.20301	0.1349	0.16103	0.22023	0.29668	0.19044	0.16093	0.3863	0.35556	0.074192	0.22054	0.081317	0.25636	0.27788	0.086297	0.028903	-2.7938	-2.4521	-2.2771	-3.1729	-2.1667	-2.6354	-2.8563	-2.2229	-2.9667	-2.4854	-2.3208	-3.2417	-2.3208	-2.6708	-2.8479	-2.1854	-11.315	174.038	80.472	200.057	-68.773	7.667	63.055	127.863	-94.669	-51.579	110.729	-121.514	187.789	216.015	128.353	145.608	0.00083936	0.00053019	0.00016766	737.16	4.5303e-06	5.7716e-06	772.7	292.26	3.1757e-06	5.9449e-06	351.79	157.54	131.97	72.31	3.8838e-06	94.625	0.0013448	0.0016994	0.00045188	796.6	1.6913e-05	1.7751e-05	840.53	319.84	1.6027e-05	1.8833e-05	385.45	173.78	145.3	79.858	1.7688e-05	104.46	171.410	-54.031	-47.496	-120.362	-12.256	26.708	-121.466	-114.860	-2.841	29.531	-116.398	-111.814	-110.216	-104.886	24.928	-107.576	-8191	255	
2732.686	1	1	0	0	0.0554	0.29285	0.25088	0.13588	0.22941	0.096161	0.075935	0.13463	0.06528	0.20714	0.3951	0.1333	0.30693	0.36409	0.045539	0.21334	-2.5458	-2.575	-2.1229	-3.0771	-2.2833	-2.5479	-3.0667	-2.4042	-2.7771	-2.6542	-2.1479	-3.2062	-2.5521	-2.4938	-3.0896	-2.2542	207.528	-37.142	78.480	161.330	156.724	-7.865	28.598	189.668	35.517	-54.442	156.500	-121.805	186.444	203.971	66.899	177.997	0.00082821	0.00064113	0.00014844	732.82	4.2506e-06	7.5749e-06	774.08	293.12	4.3672e-06	6.4568e-06	352.83	157.87	131.7	72.737	5.1439e-06	95.291	0.0013291	0.0016676	0.00046199	794.96	1.6722e-05	1.7514e-05	841.67	320.04	1.5849e-05	1.8324e-05	386.31	174.17	145.52	80.312	1.7588e-05	105.23	173.704	-28.183	-39.345	-120.509	13.685	21.825	-121.491	-114.954	-26.996	10.468	-116.537	-112.134	-110.561	-105.100	-0.231	-107.387	-8191	255	
2732.782	1	1	0	0	0.25031	0.11789	0.12095	0.30123	0.24176	0.25657	0.10672	0.37789	0.056619	0.21578	0.073867	0.34655	0.28964	0.20129	0.13785	0.15384	-2.3833	-2.725	-2.0062	-3.1896	-2.4646	-2.4979	-3.0687	-2.4375	-2.5625	-2.7896	-2.3354	-3.1125	-2.5104	-2.3521	-3.0271	-2.3021	-76.741	1.281	143.439	179.268	153.569	-130.763	43.444	132.328	205.128	-119.246	-99.643	206.477	220.963	204.343	-8.610	-102.952	0.00083736	0.00074119	0.00020267	736.71	5.6645e-06	7.6485e-06	774.54	293.46	4.7137e-06	3.6693e-06	354.39	158.82	132.23	73.144	4.1396e-06	95.968	0.001322	0.001651	0.00046369	797.18	1.6408e-05	1.8044e-05	844.02	320.84	1.5938e-05	1.8461e-05	388.32	174.91	146.15	80.748	1.7388e-05	106.01	172.977	-36.821	-42.621	-120.345	-11.461	7.798	-121.277	-114.806	-19.532	-10.351	-116.456	-111.801	-110.194	-104.597	-9.917	-107.248	-8191	255	
2732.878	1	1	0	0	0.087907	0.15613	0.29086	0.16198	0.20442	0.10112	0.3556	0.21072	0.28042	0.051226	0.21925	0.22927	0.3322	0.16903	0.061703	0.38786	-2.2271	-2.8396	-2.1104	-3.1875	-2.5667	-2.325	-3.0896	-2.2646	-2.6354	-2.8563	-2.1937	-3.1396	-2.85	-2.2896	-2.9875	-2.5875	-13.250	138.483	158.940	-114.787	-17.228	-110.585	119.467	185.890	201.972	217.203	177.488	159.911	192.146	-128.198	-4.868	169.664	0.00081535	0.0005995	0.00016082	737.58	3.861e-06	5.1461e-06	777.35	295.02	3.5265e-06	5.2864e-06	354.27	158.49	132.34	72.517	3.9176e-06	95.258	0.0013287	0.0016216	0.00046116	798.62	1.6254e-05	1.8463e-05	844.76	322.13	1.6201e-05	1.8282e-05	387.58	174.33	145.87	80.335	1.7839e-05	105.08	172.423	-45.448	-50.167	-120.320	-6.444	7.327	-120.908	-114.614	-9.659	35.703	-116.273	-111.762	-110.032	-104.572	-2.473	-107.289	-8191	255	
2732.974	1	1	0	0	0.10312	0.088683	0.051315	0.11957	0.12671	0.17981	0.18922	0.33762	0.12019	0.075368	0.34677	0.044679	0.20501	0.24174	0.13575	0.13374	-2.0979	-3.0146	-2.0604	-2.9625	-2.7417	-2.1542	-3.2021	-2.3563	-2.5208	-2.9021	-2.2583	-2.9125	-2.9021	-2.1583	-3.0333	-2.6562	74.017	184.100	108.730	-109.221	-20.654	179.678	-108.777	104.698	174.491	221.257	186.897	129.535	174.999	213.532	200.346	130.545	0.00085505	0.00070425	0.00014014	736.57	3.745e-06	6.1497e-06	775.25	294.41	5.773e-06	4.8428e-06	354	158.08	132.29	72.527	5.6451e-06	94.971	0.0013382	0.0016255	0.00047371	797.83	1.6076e-05	1.8887e-05	841.93	321.3	1.6255e-05	1.8358e-05	386.73	173.89	145.59	80.105	1.7325e-05	104.9	173.237	-44.920	-25.932	-120.091	12.497	23.526	-121.177	-114.944	-9.278	33.111	-116.297	-111.919	-110.510	-104.822	-16.152	-107.459	-8191	255	
2733.093	1	1	0	0	0.022514	0.081051	0.062445	0.11964	0.18464	0.16734	0.15142	0.087391	0.27562	0.059116	0.18404	0.14382	0.1218	0.15751	0.26767	0.25652	-2.0208	-3.0292	-2.2208	-2.7042	-2.9542	-2.075	-3.0833	-2.5312	-2.1458	-3.0854	-2.2938	-2.6229	-2.9271	-2.275	-2.8563	-2.6146	-36.656	203.071	-130.047	-96.952	4.808	88.544	-124.778	178.619	-55.897	219.497	-77.198	211.752	-120.238	164.178	-58.541	126.712	0.00081609	0.0004957	0.00017952	735.65	3.4736e-06	7.9743e-06	774.41	294.13	2.4827e-06	4.529e-06	354.63	158.02	132.29	72.713	4.1768e-06	95.32	0.0013393	0.0016146	0.00046792	798.83	1.5857e-05	1.8586e-05	843.92	321.54	1.6302e-05	1.7786e-05	388.07	174.26	145.73	80.265	1.67e-05	105.24	173.060	-46.649	-44.006	-120.178	-12.369	30.173	-121.024	-114.730	-5.575	16.756	-116.325	-111.741	-110.183	-104.721	-1.672	-107.177	-8191	255	
2733.167	1	1	0	0	0.068263	0.13418	0.2402	0.041009	0.05027	0.11041	0.29251	0.22544	0.32013	0.015706	0.22043	0.16812	0.178	0.41462	0.19267	0.09278	-1.7708	-3.0458	-2.0917	-2.7854	-2.7896	-2.0229	-2.9813	-2.7792	-2.1146	-3.075	-2.4729	-2.3458	-2.9625	-2.2208	-2.925	-2.8542	12.034	-122.266	163.608	178.998	73.760	19.846	-71.433	-103.348	36.899	95.549	-73.516	-118.022	-40.383	-126.578	-20.749	136.375	0.00084765	0.00061316	0.00016088	740.44	4.6435e-06	7.3953e-06	778.43	295.24	3.7918e-06	8.7809e-06	355.13	159.05	132.56	72.955	4.8251e-06	95.367	0.0013517	0.0015235	0.00045213	800.91	1.532e-05	1.8217e-05	847.19	322.77	1.6178e-05	1.7095e-05	389.4	175.17	146.14	80.376	1.6147e-05	105.19	171.247	-62.263	-25.202	-120.235	-4.640	4.044	-121.023	-114.688	-25.646	17.111	-116.346	-111.726	-110.004	-104.605	-6.075	-107.302	-8191	255	
2733.285	1	1	0	0	0.2016	0.1869	0.09309	0.042206	0.062488	0.11034	0.17311	0.1961	0.14907	0.026933	0.3675	0.11952	0.059131	0.25277	0.087427	0.11046	-1.7125	-3.0062	-2.2521	-2.5146	-3.0458	-2.4021	-2.7146	-2.9021	-2.1833	-3.0396	-2.3167	-2.3604	-3.1063	-2.1771	-2.6417	-2.7479	-106.607	88.806	15.950	-123.103	94.499	6.897	-69.808	200.614	-87.159	28.596	-123.504	224.261	156.123	220.589	-65.924	202.971	0.00084379	0.00056132	0.0001538	740.59	3.5354e-06	6.9106e-06	776.34	293.75	5.7457e-06	5.7007e-06	354.04	157.69	132.23	72.515	3.7057e-06	94.925	0.0013269	0.0015011	0.0004338	799.7	1.5009e-05	1.8051e-05	844.4	321.47	1.6107e-05	1.6591e-05	386.59	173.58	145.52	79.945	1.6179e-05	104.65	173.282	-51.233	-30.601	-120.212	21.954	20.827	-120.950	-114.693	-28.943	24.538	-116.308	-111.668	-110.085	-104.704	-13.364	-107.114	-8191	255	
2733.382	1	1	0	0	0.23009	0.2321	0.31061	0.069531	0.026276	0.022413	0.25281	0.1467	0.11759	0.093012	0.028282	0.082675	0.255	0.17143	0.035972	0.092	-1.7458	-2.9896	-2.3167	-2.2646	-3.0042	-2.1542	-2.7104	-2.8875	-2.0917	-2.9021	-2.6063	-2.2396	-3.1875	-2.4	-2.5542	-3.1729	119.931	-44.858	-55.966	52.528	25.479	-122.912	211.204	172.761	-87.923	169.580	138.569	-111.659	153.151	-111.864	17.912	151.984	0.00087345	0.00042054	0.00016572	739.11	5.0445e-06	9.1128e-06	780.39	294.64	3.2098e-06	5.3735e-06	354.06	157.83	132.35	72.387	4.8387e-06	95.493	0.0013227	0.0014503	0.00042116	800.76	1.456e-05	1.7796e-05	844.31	321.49	1.5927e-05	1.6312e-05	386.93	173.92	145.62	80.16	1.6008e-05	105.13	171.937	-51.712	-56.356	-120.199	-15.741	29.825	-121.044	-114.716	-1.408	24.871	-116.122	-111.796	-110.040	-104.919	-17.623	-107.401	-8191	255	
2733.478	1	1	0	0	0.11563	0.15466	0.07972	0.16007	0.13491	0.093347	0.29217	0.26008	0.18025	0.2181	0.097413	0.39878	0.3422	0.13035	0.2491	0.27063	-1.7167	-2.6833	-2.5354	-2.2125	-3.1188	-2.3	-2.4562	-2.8708	-2.1625	-2.8625	-2.8438	-2.15	-3.1604	-2.4521	-2.5042	-3.0792	-131.114	104.060	-92.847	-2.747	78.808	204.887	211.694	202.365	-57.139	-75.880	205.032	-57.793	208.724	213.600	-106.514	184.076	0.00081773	0.00066901	0.00015747	736.63	3.7611e-06	7.3998e-06	779.33	295.03	3.6271e-06	4.6246e-06	356.25	158.96	132.91	72.822	5.2947e-06	95.687	0.0013023	0.0014299	0.00041017	800.4	1.4311e-05	1.6502e-05	846.59	322	1.5486e-05	1.5853e-05	389.06	174.93	146.29	80.396	1.5934e-05	105.71	172.733	-36.777	-33.248	-120.689	-14.963	14.388	-121.378	-115.244	-19.182	33.444	-116.690	-111.993	-110.282	-105.142	5.247	-107.617	-8191	255	
2733.574	1	1	0	0	0.067292	0.12635	0.14863	0.12993	0.12024	0.17083	0.33051	0.2583	0.17134	0.082814	0.11089	0.23819	0.23039	0.27376	0.11009	0.13273	-1.6688	-2.8875	-2.5062	-2.2313	-2.9333	-2.5333	-2.5042	-3.1063	-2.1479	-2.7896	-2.8729	-2.1521	-3.1437	-2.4854	-2.3125	-3.2313	5.753	51.996	-123.259	182.735	48.982	97.766	189.716	137.241	-64.737	206.399	177.686	134.116	180.889	218.022	198.248	71.851	0.00081188	0.00059735	0.00014312	742.5	4.0537e-06	5.892e-06	781.25	296.01	4.8286e-06	5.3095e-06	355.75	158.18	132.29	72.508	4.3824e-06	95.223	0.0012927	0.001405	0.00039981	803.45	1.4104e-05	1.6449e-05	848.45	322.78	1.5646e-05	1.5922e-05	387.86	174.27	145.76	80.137	1.6008e-05	104.94	174.040	-45.836	-28.503	-120.673	9.831	29.783	-121.441	-115.012	-9.307	6.397	-116.486	-112.091	-110.394	-105.003	-8.257	-107.532	-8191	255	
2733.695	1	1	0	0	0.31259	0.13476	0.18813	0.36734	0.12391	0.1197	0.14327	0.28587	0.083932	0.11726	0.27955	0.089911	0.16499	0.26346	0.35648	0.15213	-1.6437	-2.4854	-2.7812	-2.2062	-2.8208	-2.6354	-2.4521	-2.9333	-2.1167	-2.6625	-3.1437	-2.2146	-3.1146	-2.6792	-2.1375	-3.1792	-38.071	190.037	39.859	199.437	-83.734	52.256	143.604	113.044	48.713	-58.190	20.473	109.311	-98.014	162.950	84.820	102.089	0.00084187	0.0006502	0.00013638	742.75	4.212e-06	7.0162e-06	780.11	295.4	4.6011e-06	5.6533e-06	355.31	157.69	132.25	72.527	5.3308e-06	95.049	0.0012759	0.0014115	0.00039907	801.3	1.3731e-05	1.6156e-05	845.97	321.76	1.4949e-05	1.5875e-05	387.4	173.71	145.65	80.008	1.5938e-05	104.94	172.721	-41.562	-41.258	-120.396	-14.169	24.488	-121.340	-114.895	-24.349	28.711	-116.391	-112.090	-110.323	-105.088	-5.549	-107.577	-8191	255	
2733.766	1	1	0	0	0.062985	0.24688	0.34118	0.11301	0.31592	0.12556	0.11623	0.27557	0.085818	0.070318	0.20851	0.21028	0.20814	0.15679	0.434	0.38609	-2.0604	-2.2708	-2.8458	-2.1833	-2.7479	-2.8312	-2.2042	-3.1583	-2.4146	-2.2729	-2.9813	-2.1854	-2.9167	-2.7875	-2.1646	-3.0542	-50.765	224.861	-90.969	155.123	145.349	-114.949	194.018	97.142	-76.012	-25.968	-118.269	192.534	195.432	173.148	-46.616	133.922	0.00083751	0.00054989	0.00014822	742.13	3.5694e-06	5.4465e-06	782	294.8	4.2327e-06	6.342e-06	355.64	158.11	132.42	72.748	5.4528e-06	95.608	0.0012427	0.0014248	0.00038726	802.64	1.3724e-05	1.5461e-05	847.91	322.01	1.5043e-05	1.5891e-05	388.98	174.43	145.94	80.222	1.6285e-05	105.39	171.887	-42.880	-40.060	-120.650	16.742	21.431	-121.552	-115.105	-17.811	18.708	-116.759	-112.119	-110.598	-105.076	4.154	-107.749	-8191	255	
2733.862	1	1	0	0	0.13261	0.042086	0.13089	0.19134	0.14942	0.18927	0.1794	0.11329	0.053532	0.028176	0.18375	0.19848	0.33796	0.14172	0.080173	0.12447	-1.8229	-2.3667	-2.9708	-2.1667	-2.5438	-2.8229	-2.1146	-3.0729	-2.2875	-2.0438	-2.9479	-2.2354	-2.6979	-2.9	-1.9792	-3.2	5.511	224.482	130.948	168.325	-93.507	-9.441	184.084	49.156	207.022	-73.804	52.022	161.330	216.107	201.702	92.758	158.455	0.00084386	0.00047804	0.00017246	741.24	2.1679e-06	6.3488e-06	781.98	295.61	4.6469e-06	7.9419e-06	357.98	159.25	132.57	72.805	4.5172e-06	95.484	0.0012261	0.0014386	0.00038321	802.98	1.3168e-05	1.5642e-05	850.25	323.17	1.4314e-05	1.5864e-05	390.17	175.53	146.11	80.339	1.5834e-05	105.53	172.407	-49.747	-39.851	-120.566	23.297	22.570	-121.381	-115.117	-2.905	20.912	-116.774	-112.267	-110.637	-105.138	-8.047	-107.716	-8191	255	
2733.983	1	1	0	0	0.16705	0.070669	0.19136	0.17315	0.14412	0.17743	0.049059	0.10877	0.44856	0.19932	0.23712	0.11438	0.20972	0.11999	0.057863	0.10985	-2.1083	-1.9896	-2.9146	-2.3208	-2.4083	-2.7583	-2.25	-2.7792	-2.4958	-2.1042	-3.1479	-2.4542	-2.4354	-2.9583	-2.0563	-2.9396	201.788	137.102	1.548	187.684	-43.284	81.608	125.001	-18.728	155.015	158.771	177.975	-126.763	179.108	141.414	8.835	169.126	0.00086516	0.0003943	0.00012071	743.38	3.6664e-06	6.3746e-06	782.59	295.48	3.3367e-06	4.1473e-06	356.19	157.97	132.06	72.451	3.8914e-06	94.845	0.0012261	0.0014357	0.00037631	804.26	1.3723e-05	1.5178e-05	849.86	322.64	1.4374e-05	1.6122e-05	388.49	174.08	145.64	79.93	1.589e-05	104.77	173.333	-39.796	-53.424	-120.651	20.096	23.630	-121.346	-115.145	-3.017	-9.322	-116.717	-112.204	-110.478	-105.096	-15.109	-107.512	-8191	255	
2734.077	1	1	0	0	0.16483	0.24513	0.047559	0.12683	0.13591	0.079475	0.10301	0.16035	0.25621	0.22568	0.24232	0.30417	0.28435	0.17575	0.14996	0.31952	-2.0625	-2.1896	-2.9292	-2.5417	-2.3917	-2.9062	-2.1312	-2.7062	-2.5708	-2.1458	-3.1396	-2.4771	-2.3375	-3.1646	-2.0146	-2.7875	-12.021	164.931	16.410	155.968	168.612	129.988	152.847	167.108	-4.419	48.280	-19.356	71.196	190.520	222.986	88.389	166.696	0.00080421	0.00051453	0.00017115	741.92	4.6041e-06	6.3358e-06	779.59	295.36	3.945e-06	7.2891e-06	357.34	158.36	132.68	72.584	5.2969e-06	95.26	0.0012153	0.0014423	0.00037471	803.41	1.4028e-05	1.5187e-05	848.76	322.57	1.437e-05	1.6221e-05	389.13	174.53	145.82	79.995	1.5787e-05	105.22	172.157	-43.228	-52.135	-120.549	-2.040	4.651	-121.238	-115.101	-20.591	17.005	-116.555	-112.027	-110.546	-104.957	-2.425	-107.421	-8191	255	
2734.174	1	1	0	0	0.18476	0.17467	0.1546	0.20086	0.21125	0.093331	0.11311	0.071844	0.06134	0.12302	0.42343	0.34573	0.068892	0.092265	0.15491	0.35869	-2.2562	-1.9062	-2.9542	-2.5604	-2.2542	-2.9979	-2.2042	-2.6229	-2.9167	-2.1125	-2.9292	-2.3771	-2.1937	-3.0396	-2.0333	-2.675	175.337	124.081	-78.700	-107.670	158.644	-35.135	218.795	180.345	209.263	7.390	177.733	161.727	89.002	168.094	-27.819	146.326	0.0008705	0.0006827	0.00017034	740.39	4.7205e-06	5.7986e-06	783.74	295.68	3.66e-06	4.9209e-06	357.07	159.42	132.61	72.671	5.0718e-06	96.004	0.0012293	0.0014682	0.0003732	802.45	1.4127e-05	1.5059e-05	850.37	323.09	1.3921e-05	1.6207e-05	390.02	175.19	146.3	80.294	1.5485e-05	105.78	174.184	-40.200	-34.705	-120.362	5.918	28.096	-121.406	-114.866	-17.757	23.979	-116.355	-112.107	-110.482	-104.820	-20.397	-107.499	-8191	255	
2734.270	1	1	0	0	0.035103	0.21511	0.15358	0.085871	0.14201	0.18283	0.077722	0.18489	0.22869	0.19307	0.24998	0.045945	0.32877	0.32699	0.31461	0.28682	-2.4688	-1.7625	-2.8	-2.5167	-1.9458	-2.8771	-2.3667	-2.55	-3.0104	-2.0833	-2.7229	-2.6896	-2.2375	-3.0771	-2.1229	-2.5062	191.441	106.402	-60.034	-104.063	47.611	105.630	-66.823	115.251	-103.267	159.081	175.373	179.139	202.410	176.523	56.587	166.760	0.00085676	0.00033752	0.00013985	743.29	3.8805e-06	6.0885e-06	782.26	295.85	3.1493e-06	5.2167e-06	357.1	158.64	132.7	72.409	5.5213e-06	95.211	0.0012049	0.0014486	0.00036562	804.6	1.4225e-05	1.4814e-05	852.19	323.62	1.3949e-05	1.6082e-05	389.75	174.72	146.02	80.015	1.5453e-05	105.02	174.682	-24.487	-49.925	-120.545	11.606	8.011	-121.240	-114.949	-20.650	10.906	-116.420	-112.218	-110.560	-104.975	4.735	-107.518	-8191	255	
2734.366	1	1	0	0	0.047308	0.2599	0.19381	0.19393	0.27671	0.16458	0.17497	0.19461	0.13454	0.066454	0.053836	0.135	0.25669	0.17507	0.098405	0.2786	-2.5646	-1.9771	-2.7917	-2.8375	-1.9667	-2.8563	-2.4125	-2.3208	-2.875	-2.0958	-2.7396	-2.5229	-2.0667	-3.1833	-2.4958	-2.4479	65.813	-5.881	72.291	148.260	-68.510	7.494	47.736	170.395	186.706	-39.668	142.531	154.011	122.657	155.729	7.048	-130.458	0.00081064	0.0005263	0.00015505	740.81	5.0636e-06	5.2202e-06	780.07	294.36	3.264e-06	7.1098e-06	355.35	158.58	132.15	72.226	4.6273e-06	94.739	0.0012006	0.0014612	0.00037604	802.93	1.4427e-05	1.4999e-05	847.29	321.95	1.3911e-05	1.6391e-05	388.52	174.19	145.44	79.777	1.5271e-05	104.65	170.408	-56.486	-46.886	-120.454	-3.375	17.962	-121.314	-115.015	-16.929	19.779	-116.588	-112.168	-110.144	-104.803	-18.615	-107.394	-8191	255	
2734.462	1	1	0	0	0.12141	0.26358	0.17322	0.058389	0.21875	0.077574	0.22176	0.018436	0.15289	0.029905	0.19877	0.31828	0.06275	0.32504	0.15394	0.17237	-2.5667	-2.0604	-2.6937	-2.7771	-1.975	-2.775	-2.5917	-2.2062	-2.6917	-1.9937	-2.4646	-2.9938	-2.2646	-2.9688	-2.4854	-2.2979	-14.499	-122.069	-40.030	205.162	-96.763	-83.302	-115.012	175.573	-16.343	153.270	-106.564	196.611	88.947	220.385	-123.319	-107.269	0.00083744	0.00070973	7.974e-05	740.82	4.2378e-06	7.2616e-06	782.31	295.46	3.8907e-06	4.2655e-06	355.11	158.24	132.21	72.145	5.1619e-06	95.297	0.0012065	0.0014604	0.00038574	802.9	1.4581e-05	1.5147e-05	849.02	322.25	1.4055e-05	1.595e-05	388.6	174.39	145.55	79.756	1.5079e-05	104.94	173.584	-44.923	-26.103	-120.437	2.182	24.256	-121.204	-114.938	-10.993	43.011	-116.335	-111.969	-110.324	-105.009	-27.275	-107.501	-8191	255	
2734.558	1	1	0	0	0.2557	0.092238	0.29117	0.22822	0.11353	0.19648	0.083725	0.30266	0.15414	0.02034	0.21849	0.12951	0.11117	0.10846	0.15804	0.25277	-2.6042	-2.0208	-2.2542	-2.8708	-2.0771	-2.8458	-2.65	-2.1292	-3.0375	-2.3438	-2.4604	-3.0021	-2.1562	-2.9313	-2.5812	-2.3792	176.926	25.839	-12.324	114.056	-102.678	155.709	-85.348	156.513	-98.120	204.980	-118.851	9.345	181.793	170.785	110.171	57.722	0.00083523	0.00056563	0.00015069	742.9	4.6402e-06	4.1685e-06	784.87	296.03	3.7098e-06	7.6068e-06	359.51	159.11	132.31	72.357	5.2343e-06	95.652	0.0011938	0.0014005	0.00039022	804.05	1.4542e-05	1.5117e-05	851.25	323.01	1.3737e-05	1.5642e-05	391.03	175.39	145.89	80.002	1.5063e-05	105.35	172.691	-57.236	-34.650	-120.524	8.433	26.818	-121.403	-114.832	-29.108	22.259	-116.654	-112.112	-110.372	-104.753	3.388	-107.341	-8191	255	
2734.654	1	1	0	0	0.18744	0.1887	0.15271	0.18489	0.076821	0.16302	0.31333	0.34079	0.19138	0.18318	0.33806	0.22778	0.32756	0.14229	0.26225	0.20957	-2.6125	-2.1188	-2.2542	-3.2021	-2.0271	-2.725	-2.6042	-2.3187	-2.7417	-2.4562	-2.1792	-3.2562	-2.2438	-2.8563	-2.7812	-2.1958	-40.411	191.367	-83.678	-120.896	34.366	3.599	180.839	194.254	-54.795	222.787	205.524	187.218	165.356	201.070	112.051	83.306	0.00082826	0.00059291	0.00012484	741.63	2.8295e-06	6.3764e-06	780.46	295.03	4.0579e-06	4.5603e-06	356.71	157.56	131.82	71.9	4.576e-06	94.273	0.0011986	0.0013873	0.00039406	803.17	1.409e-05	1.5063e-05	849.52	322.75	1.3745e-05	1.5755e-05	389	173.84	145.36	79.431	1.5157e-05	103.98	173.193	-61.892	-38.881	-120.468	-10.479	11.595	-121.318	-115.056	-26.550	26.444	-116.685	-112.090	-110.418	-105.031	-8.870	-107.524	-8191	255	
2734.773	1	1	0	0	0.21267	0.13615	0.19745	0.052185	0.084105	0.087241	0.096531	0.14739	0.097377	0.14108	0.18083	0.1189	0.34483	0.32017	0.052323	0.20593	-2.5583	-2.4729	-2.1479	-2.85	-2.1188	-2.4562	-2.8896	-2.0583	-2.6958	-2.4979	-2.2146	-3.1021	-2.1521	-2.5187	-2.7333	-2.2062	134.193	213.314	14.020	-68.103	-8.329	79.049	-100.101	-105.380	3.467	-115.668	-127.407	92.357	-126.534	-95.467	199.806	-90.732	0.00088703	0.00047251	0.00015374	739.73	5.0507e-06	4.3786e-06	781.99	295.19	4.6198e-06	5.9325e-06	357.87	157.34	130.94	70.834	4.8169e-06	92.986	0.0011952	0.0013694	0.00039492	803.67	1.389e-05	1.5328e-05	850.33	322.98	1.3452e-05	1.5127e-05	389.42	172.9	144.58	78.273	1.4558e-05	102.69	172.620	-48.036	-31.377	-120.584	-0.158	26.528	-121.348	-115.169	-32.552	10.255	-116.404	-112.168	-110.499	-104.900	-1.838	-107.517	-8191	255	
2734.869	1	1	0	0	0.026466	0.10067	0.17547	0.064712	0.19316	0.084628	0.22601	0.23737	0.083521	0.054725	0.16646	0.17614	0.036243	0.32873	0.25451	0.12249	-2.5021	-2.5333	-2.1229	-2.9437	-2.1708	-2.3146	-2.9958	-2.2021	-2.6375	-2.7208	-2.2125	-2.9375	-2.4604	-2.3021	-2.7229	-2.4458	-14.924	144.757	22.622	75.836	46.441	-60.644	189.988	112.967	194.573	-5.988	-95.237	-115.379	27.759	161.874	-111.248	100.181	0.00082614	0.00062157	0.00018555	744.23	4.7976e-06	3.7773e-06	786.03	296.43	4.0381e-06	6.241e-06	359.14	158.96	132.04	71.387	5.4209e-06	94.327	0.0011777	0.0013387	0.00038725	805.08	1.3404e-05	1.5e-05	852.17	323.52	1.3639e-05	1.4905e-05	391.28	174.23	145.5	78.912	1.4365e-05	104.07	170.334	-48.753	-35.426	-120.685	-8.409	11.971	-121.316	-114.913	-11.400	26.243	-116.548	-111.994	-110.480	-104.723	-0.724	-107.412	-8191	255	
2734.965	1	1	0	0	0.17343	0.10765	0.2134	0.15822	0.10504	0.13875	0.13594	0.09497	0.19479	0.23521	0.068391	0.23143	0.30426	0.40325	0.1356	0.23853	-2.2729	-2.5917	-1.9958	-2.8438	-2.3917	-2.2729	-3.0292	-2.3896	-2.5521	-2.6292	-2.0083	-3.0792	-2.5083	-2.3187	-2.7562	-2.2354	-80.939	75.774	4.658	131.702	-54.114	-50.867	210.942	163.596	-2.898	-123.210	17.468	140.328	93.257	-115.303	-29.023	164.475	0.00085786	0.00057695	0.00016493	743.46	4.3256e-06	8.6963e-06	787.68	296.38	4.589e-06	7.3536e-06	357.4	159.1	132.18	71.68	5.5242e-06	94.278	0.0011871	0.0013124	0.00039091	805.81	1.3199e-05	1.5343e-05	855.36	324.16	1.4098e-05	1.5113e-05	391	174.89	145.61	79.213	1.4434e-05	103.95	173.892	-53.014	-44.936	-120.357	5.155	13.261	-121.099	-114.923	-19.686	12.459	-116.503	-111.964	-110.454	-104.794	-9.792	-107.163	-8191	255	
2735.062	1	1	0	0	0.17505	0.10933	0.054707	0.03796	0.121	0.15224	0.15649	0.14327	0.05189	0.27999	0.17864	0.19442	0.3007	0.26388	0.089858	0.33009	-1.9167	-2.8104	-2.0229	-2.7958	-2.7562	-2.1208	-3.1083	-2.3792	-2.2938	-2.9188	-2.0979	-2.8208	-2.6125	-2.2417	-2.9229	-2.3104	69.985	133.905	190.354	45.264	83.623	8.496	178.637	-102.495	-14.182	-112.495	24.687	180.602	179.781	-97.401	88.296	149.941	0.00083081	0.00079935	0.00015068	745.01	4.3095e-06	5.465e-06	781.3	295.8	4.2604e-06	6.0492e-06	355.38	158.59	131.87	71.712	3.6817e-06	94.207	0.0012021	0.00134	0.00038665	804.1	1.3533e-05	1.569e-05	850.97	322.66	1.4313e-05	1.5074e-05	389.2	174.07	145.51	79.134	1.4578e-05	103.94	173.123	-41.477	-49.245	-120.251	-6.240	17.651	-121.173	-114.829	-14.930	27.285	-116.472	-111.844	-110.396	-105.056	-9.463	-107.440	-8191	255	
2735.158	1	1	0	0	0.14346	0.13568	0.23576	0.18371	0.16831	0.35839	0.023264	0.33513	0.12662	0.3016	0.22107	0.3148	0.41069	0.25834	0.14577	0.31157	-1.7271	-2.8208	-1.8563	-2.8125	-2.5708	-2.0354	-3.05	-2.5375	-2.3396	-3.0563	-2.3542	-2.7625	-2.7271	-2.4042	-2.9125	-2.9021	139.019	222.109	147.041	175.241	83.039	27.303	-42.270	175.406	125.939	-53.547	68.462	185.503	201.490	184.629	220.733	176.764	0.00082876	0.00049056	0.00014008	744.42	4.3436e-06	5.2746e-06	784.38	297.01	4.6949e-06	4.6891e-06	358.58	158.98	132.36	72.034	4.705e-06	94.98	0.0012317	0.0013576	0.00040293	804.12	1.3723e-05	1.5995e-05	851.24	323.3	1.4424e-05	1.4812e-05	391.14	174.81	145.78	79.469	1.4717e-05	104.66	172.166	-49.602	-43.233	-120.578	29.696	12.861	-121.263	-115.036	-35.380	6.081	-116.303	-111.815	-110.098	-104.662	-10.524	-107.487	-8191	255	
2735.278	1	1	0	0	0.19257	0.20738	0.17495	0.12914	0.20163	0.080031	0.01481	0.16899	0.15994	0.050154	0.30825	0.21364	0.070609	0.39473	0.15143	0.24733	-1.6896	-2.9313	-2.0208	-2.4167	-2.7875	-2.0062	-2.9833	-2.6896	-2.1958	-2.8396	-2.2	-2.6646	-2.9146	-2.3063	-2.7333	-2.4813	-49.760	-6.293	85.263	-109.191	174.956	-3.494	-129.873	125.617	110.607	112.597	49.572	-88.557	99.100	224.547	-60.472	208.247	0.0008353	0.00051932	0.00015492	744.09	4.072e-06	7.9477e-06	784.73	296.59	4.4179e-06	7.9897e-06	358.35	159.5	133.02	72.208	4.3129e-06	95.612	0.0012343	0.0013256	0.00038609	805.4	1.3365e-05	1.5713e-05	852.28	323.77	1.4568e-05	1.4846e-05	392.19	176.01	146.44	79.781	1.4625e-05	105.38	172.163	-37.947	-45.738	-120.347	6.092	24.729	-121.093	-114.889	-27.765	15.295	-116.503	-111.650	-110.241	-104.945	-14.551	-107.266	-8191	255	
2735.375	1	1	0	0	0.22002	0.15862	0.24571	0.32328	0.06003	0.27879	0.16986	0.1553	0.19017	0.22539	0.11452	0.090106	0.18493	0.35878	0.16191	0.1169	-1.7646	-2.8667	-2.1875	-2.4917	-2.85	-1.9542	-2.8292	-2.7396	-2.0354	-2.8167	-2.275	-2.5104	-2.9646	-2.2687	-2.6437	-2.9042	-3.014	79.716	-23.254	165.208	-97.773	-92.743	190.527	-96.184	201.753	83.725	225.019	53.454	169.726	212.067	-62.675	-106.932	0.0008589	0.00067324	0.00016596	742.53	2.6054e-06	7.3138e-06	783.37	295.62	4.2042e-06	5.7077e-06	356.14	158.87	132.28	71.893	5.4894e-06	94.671	0.0012509	0.0013288	0.00037806	804.54	1.3314e-05	1.5828e-05	851.81	323.02	1.4659e-05	1.4891e-05	390.36	174.71	145.74	79.481	1.5106e-05	104.46	173.933	-47.580	-27.012	-120.486	14.318	16.352	-121.093	-114.962	-13.855	33.047	-116.557	-111.755	-110.374	-104.835	-3.431	-107.315	-8191	255	
2735.469	1	1	0	0	0.2219	0.1957	0.16009	0.10554	0.097243	0.16399	0.088591	0.22515	0.25138	0.25215	0.29451	0.24136	0.1314	0.12129	0.048334	0.085097	-1.7125	-3.0792	-2.1021	-2.2542	-2.9021	-1.9667	-2.7771	-2.7562	-1.9375	-2.8708	-2.3604	-2.3083	-2.9896	-2.275	-2.7021	-3.0104	208.649	-40.269	81.561	181.367	144.509	-65.857	154.334	117.885	142.238	123.687	190.886	-62.394	178.088	111.115	72.941	145.852	0.00084155	0.00057972	0.00016598	740.84	3.4629e-06	6.3108e-06	781.91	295.26	4.7292e-06	7.2235e-06	356.15	158.27	132.37	72.143	4.719e-06	95.136	0.0012498	0.0013552	0.00038757	802.23	1.3408e-05	1.5893e-05	848.91	321.88	1.5025e-05	1.5444e-05	388.94	174.45	145.81	79.639	1.5664e-05	104.97	172.344	-34.321	-30.125	-120.519	7.515	31.299	-121.154	-115.021	-16.568	21.734	-116.624	-111.855	-110.343	-104.978	-13.989	-107.521	-8191	255	
2735.565	1	1	0	0	0.075486	0.1077	0.058967	0.037144	0.20489	0.17374	0.3305	0.19178	0.23119	0.14153	0.044583	0.14172	0.16682	0.025592	0.14823	0.15292	-1.6688	-2.6229	-2.3021	-2.4729	-3.0104	-2.3729	-2.725	-2.7479	-1.9688	-2.9667	-2.4938	-2.3187	-3.1729	-2.1146	-2.4208	-3.0167	-29.586	94.714	93.033	-87.589	197.730	163.844	196.494	175.262	-119.755	109.073	172.536	-80.756	202.550	156.241	-114.562	203.749	0.00083822	0.00055278	0.00013526	741.96	3.2975e-06	7.3053e-06	782.43	294.76	3.9296e-06	5.5333e-06	359	158.99	132.57	72.478	6.0032e-06	95.784	0.0012639	0.0013951	0.00039189	802.83	1.3604e-05	1.5924e-05	850.26	322.57	1.4909e-05	1.565e-05	390.88	175.55	146.18	80.013	1.5782e-05	105.83	172.825	-52.442	-47.087	-120.397	-4.914	26.818	-121.316	-115.026	-19.729	15.569	-116.378	-111.862	-110.291	-105.073	-9.736	-107.479	-8191	255	
2735.661	1	1	0	0	0.097151	0.2768	0.082649	0.21336	0.18064	0.13758	0.10321	0.20898	0.25857	0.053491	0.10312	0.22865	0.11708	0.16821	0.17518	0.16291	-1.7396	-2.6896	-2.4833	-2.0021	-2.7521	-2.2021	-2.5563	-2.8583	-2.0083	-2.7271	-2.7292	-2.1063	-2.9104	-2.3688	-2.0583	-2.9458	-57.575	130.874	145.007	156.975	-70.005	212.452	208.197	128.566	128.368	-99.842	209.381	210.500	195.335	-118.040	142.928	207.626	0.00083628	0.00061971	0.00017127	742.97	5.5945e-06	8.1207e-06	784.87	296.25	4.1288e-06	7.1656e-06	361.24	159.94	132.87	72.489	4.4382e-06	95.861	0.001241	0.0013905	0.00037835	803.25	1.3369e-05	1.5632e-05	853.87	323.56	1.4631e-05	1.5469e-05	392.66	176.44	146.44	80.106	1.5552e-05	105.57	174.397	-50.313	-27.422	-120.294	-4.529	23.901	-121.034	-114.934	-13.422	25.250	-116.610	-111.789	-110.445	-104.917	-12.628	-107.390	-8191	255	
2735.757	1	1	0	0	0.20832	0.19431	0.13242	0.37001	0.15183	0.37703	0.23377	0.18581	0.18645	0.19734	0.26546	0.22869	0.31747	0.28796	0.37383	0.10443	-1.5729	-2.5708	-2.5646	-2.1729	-2.8771	-2.3146	-2.2583	-3.0729	-1.8708	-2.6437	-2.9792	-2.0312	-3.0375	-2.7208	-2.0042	-3.1083	-117.879	-130.833	-45.483	190.600	137.798	122.309	159.427	-119.667	-19.044	-34.950	169.170	-121.336	203.280	92.937	-5.297	170.421	0.00083492	0.00050093	0.00012516	740.38	4.5105e-06	4.5432e-06	783.28	295.18	4.1625e-06	5.8651e-06	357.76	159.16	132.02	72.19	4.8162e-06	94.931	0.0012311	0.0013962	0.00036668	802.42	1.3375e-05	1.4818e-05	849.91	322.4	1.4248e-05	1.5545e-05	390.12	175.08	145.7	79.557	1.5543e-05	104.92	172.613	-49.533	-38.761	-120.247	13.938	10.701	-121.153	-114.865	-12.164	21.820	-116.440	-111.895	-110.252	-104.874	-28.457	-107.317	-8191	255	
2735.854	1	1	0	0	0.1112	0.14573	0.056335	0.2599	0.037364	0.11519	0.2221	0.22343	0.14083	0.095629	0.077873	0.28865	0.21603	0.14131	0.01959	0.067348	-1.7896	-2.6063	-2.7875	-2.0333	-2.7917	-2.5396	-2.3458	-3.0125	-2.2729	-2.5312	-3.0083	-2.1188	-2.9979	-2.6771	-2.0958	-3.2	56.771	-15.115	-36.245	163.395	79.744	189.449	117.139	157.587	-85.063	-57.145	160.848	197.432	-114.546	204.046	58.118	123.939	0.00082023	0.00065191	0.00015724	742.59	4.7327e-06	6.6869e-06	785.46	295.98	4.1378e-06	7.3155e-06	358.88	159.53	132.49	72.222	6.2338e-06	95.738	0.0011967	0.0013731	0.00036659	802.28	1.3213e-05	1.4721e-05	851.79	323.13	1.4005e-05	1.5614e-05	391.21	175.52	146.23	79.767	1.5448e-05	105.35	171.715	-26.395	-36.135	-120.433	15.021	26.560	-121.317	-114.827	-41.360	45.500	-116.451	-111.995	-110.261	-104.939	-8.387	-107.211	-8191	255	
2735.950	1	1	0	0	0.077194	0.069341	0.14686	0.25084	0.21347	0.15073	0.12654	0.022047	0.0043201	0.20573	0.27633	0.24204	0.23806	0.13247	0.11736	0.043722	-1.8958	-2.3958	-2.6792	-2.0396	-2.7875	-2.7604	-2.0708	-3.1021	-2.2646	-2.3125	-3.0062	-2.2167	-2.9021	-2.8396	-1.8937	-3.2292	43.161	130.166	168.288	120.946	216.003	92.695	185.320	116.819	-128.563	4.089	164.980	-117.375	192.909	-90.284	82.352	171.342	0.00084038	0.00065066	0.00024187	743.13	3.7467e-06	6.8983e-06	783.44	297.22	3.8415e-06	5.5741e-06	361.26	160.34	133.33	72.51	4.9078e-06	96.309	0.0011866	0.0013915	0.00035521	804.49	1.3398e-05	1.4393e-05	853.15	324.22	1.3653e-05	1.5248e-05	393.08	176.44	146.9	80.015	1.5405e-05	106.05	171.886	-47.240	-47.489	-120.429	-21.514	33.940	-121.042	-114.857	-21.537	32.692	-116.554	-111.784	-110.201	-104.827	-7.087	-107.268	-8191	255	
2736.070	1	1	0	0	0.091242	0.084681	0.15205	0.39163	0.16369	0.085766	0.079906	0.18414	0.10287	0.11761	0.23057	0.20464	0.1571	0.098738	0.11705	0.09022	-1.9583	-2.0771	-3.0083	-2.2729	-2.5438	-2.9083	-2.175	-3.0125	-2.5583	-2.0083	-2.8563	-2.2167	-2.5875	-2.8937	-1.9708	-3.1229	140.989	164.451	-119.657	193.595	105.106	32.605	186.013	38.274	-17.752	77.607	117.013	195.180	-131.555	-14.360	-62.545	119.074	0.00084123	0.00058022	0.00017833	743.43	5.2904e-06	7.0101e-06	786.18	296.43	4.7796e-06	8.5637e-06	358.54	159.19	132.62	72.151	3.5336e-06	94.808	0.0011729	0.0013835	0.00036012	806.42	1.3441e-05	1.45e-05	854.55	323.96	1.3559e-05	1.5679e-05	391.8	175.52	146.23	79.742	1.5111e-05	104.94	173.605	-56.571	-34.485	-120.444	1.701	10.266	-121.036	-114.850	-21.045	29.808	-116.590	-111.916	-110.168	-104.921	-4.094	-107.178	-8191	255	
2736.166	1	1	0	0	0.10124	0.21566	0.11773	0.19798	0.18185	0.15973	0.31047	0.22029	0.10155	0.095714	0.087248	0.26298	0.16527	0.30087	0.060247	0.013951	-2.2062	-2.1042	-2.9083	-2.3604	-2.6021	-2.7833	-2.2417	-2.9104	-2.45	-2.1583	-3.0854	-2.2646	-2.4188	-3.2271	-1.8687	-2.9854	146.264	26.334	163.742	205.362	-47.145	-48.102	196.379	147.675	-21.918	110.653	176.204	191.810	115.060	-93.390	73.921	-63.605	0.00086763	0.00068619	0.00016497	742.09	4.8006e-06	7.8496e-06	781.98	295.56	4.4936e-06	6.7027e-06	358.22	159.42	132.82	72.233	5.6361e-06	95.177	0.001198	0.0014365	0.0003643	803.47	1.3838e-05	1.4338e-05	851.6	323.25	1.3658e-05	1.5683e-05	390.86	175.01	146.17	79.655	1.5129e-05	105.05	171.027	-49.790	-49.413	-120.374	-6.643	26.265	-121.316	-115.046	-7.822	14.566	-116.555	-112.187	-110.399	-105.139	-1.637	-107.506	-8191	255	
2736.263	1	1	0	0	0.076857	0.19142	0.18008	0.3171	0.20894	0.066215	0.13536	0.12386	0.084465	0.1142	0.066365	0.14682	0.22575	0.18799	0.23525	0.15225	-2.3208	-2.0021	-2.7417	-2.4958	-2.2958	-2.8979	-2.2958	-2.7958	-2.6625	-2.1021	-3.0417	-2.4125	-2.2792	-3.1292	-1.8958	-2.6958	-126.542	-127.638	-93.937	216.293	18.948	29.390	62.563	184.840	86.497	-29.199	71.652	139.770	204.199	146.825	-17.580	183.346	0.00084144	0.00077546	9.5877e-05	741.68	4.4272e-06	6.2953e-06	784.67	296.19	3.9734e-06	6.1437e-06	358.67	159.55	132.92	72.367	3.3646e-06	95.569	0.0011738	0.0013891	0.00036886	803.31	1.3744e-05	1.4443e-05	852.9	323.36	1.3557e-05	1.5647e-05	391.73	175.65	146.31	79.752	1.4749e-05	105.39	172.668	-34.728	-43.043	-120.490	7.465	29.137	-121.327	-115.038	-9.918	26.003	-116.707	-111.945	-110.274	-105.038	-18.760	-107.492	-8191	255	
2736.359	1	1	0	0	0.11962	0.12465	0.25711	0.042338	0.058568	0.20157	0.21788	0.16005	0.21896	0.14593	0.17718	0.32972	0.1783	0.37517	0.16795	0.44735	-2.5083	-2.0833	-2.8375	-2.3521	-2.2083	-2.925	-2.3688	-2.4896	-2.7	-2.0917	-2.7417	-2.5917	-2.1396	-2.9833	-2.0479	-2.2521	108.865	58.192	126.827	-122.855	23.198	-1.843	183.935	209.724	-81.551	-46.178	176.946	200.444	171.901	-83.547	1.058	200.638	0.00083171	0.00060956	0.0001702	742.77	4.3949e-06	8.306e-06	787.16	297.15	3.838e-06	4.6897e-06	360.32	159.93	133.09	72.316	7.8907e-06	95.524	0.0011786	0.0013821	0.00037588	804.31	1.3941e-05	1.4493e-05	855.45	324.53	1.3461e-05	1.5526e-05	393.54	176.1	146.73	79.847	1.4664e-05	105.28	171.205	-42.898	-31.964	-120.293	9.467	8.308	-121.361	-115.048	-10.242	23.832	-116.437	-111.993	-110.379	-105.036	-5.727	-107.413	-8191	255	
2736.455	1	1	0	0	0.025734	0.19136	0.27025	0.15044	0.10016	0.17864	0.25149	0.20215	0.25468	0.085322	0.22545	0.14136	0.21139	0.30266	0.12319	0.12314	-2.5	-2.0229	-2.7167	-2.6104	-2.0583	-2.675	-2.2396	-2.2062	-2.9083	-1.9146	-2.75	-2.5646	-2.1125	-3.1125	-2.25	-2.4833	168.195	126.558	-115.229	-85.107	-64.824	-43.869	-113.289	125.091	177.400	-10.584	179.276	113.169	-113.168	219.405	93.561	178.689	0.00084043	0.00050801	0.00018914	743.05	3.5188e-06	5.6651e-06	787.04	295.82	3.9894e-06	6.3924e-06	355.97	159.1	132.3	71.957	4.9731e-06	94.883	0.0011696	0.0013749	0.00037503	804.25	1.3791e-05	1.4513e-05	852.83	323.32	1.3432e-05	1.5332e-05	389.94	174.76	145.9	79.488	1.4677e-05	104.63	170.137	-33.944	-35.059	-120.490	14.794	30.897	-121.271	-114.831	-14.617	26.718	-116.499	-111.842	-110.253	-104.893	15.488	-107.395	-8191	255	
2736.549	1	1	0	0	0.098265	0.15035	0.10084	0.292	0.16041	0.2608	0.21379	0.096425	0.1108	0.22126	0.20378	0.1321	0.25226	0.070706	0.056762	0.21431	-2.4583	-1.9229	-2.6208	-2.7313	-2.1	-2.9896	-2.1896	-2.3875	-2.9813	-2.0229	-2.6271	-2.6958	-2.0938	-2.8417	-2.4313	-2.2604	146.302	142.679	39.873	58.018	173.424	-86.972	121.301	205.334	214.924	66.021	-119.629	-98.884	113.262	200.991	-29.248	190.260	0.00084423	0.00047522	0.00016911	743.75	5.0115e-06	5.4335e-06	784.12	295.63	4.0705e-06	5.2171e-06	358.56	158.95	132.81	72.035	5.2997e-06	95.076	0.0011784	0.0013552	0.00037536	804.55	1.3481e-05	1.4698e-05	853.47	323.51	1.3355e-05	1.5009e-05	391.36	175.09	146.07	79.516	1.4532e-05	104.91	172.740	-50.281	-38.476	-120.354	13.066	19.611	-121.234	-114.773	-13.308	13.518	-116.499	-112.102	-110.304	-105.017	15.635	-107.309	-8191	255	
2736.647	1	1	0	0	0.16225	0.26319	0.21998	0.041634	0.19258	0.16275	0.15624	0.072737	0.079828	0.14458	0.37934	0.27182	0.12629	0.15242	0.11713	0.17276	-2.5833	-2.0146	-2.5417	-2.9083	-2.1417	-2.9646	-2.6021	-2.3375	-2.9479	-2.1958	-2.5729	-2.8646	-2.1646	-3.0042	-2.6667	-2.3917	69.683	99.131	-73.281	66.572	134.832	196.283	130.348	131.317	-124.643	-69.698	217.977	80.232	-82.787	131.352	15.558	180.289	0.00086894	0.0006929	0.00014764	744.92	4.6744e-06	4.9844e-06	788.89	297.69	3.5432e-06	5.1987e-06	360.21	160.07	133.07	72.414	4.5399e-06	95.854	0.0011642	0.0013168	0.00037206	806.44	1.3561e-05	1.455e-05	856.11	324.38	1.3259e-05	1.4803e-05	393.82	176.02	146.69	79.901	1.4394e-05	105.68	172.269	-47.060	-50.266	-120.483	-6.408	-1.894	-121.372	-114.922	-26.948	34.623	-116.491	-111.992	-110.302	-104.891	-6.381	-107.469	-8191	255	
2736.766	1	1	0	0	0.1164	0.079401	0.18364	0.14912	0.18162	0.1725	0.37129	0.17205	0.32268	0.20733	0.25063	0.047241	0.19774	0.36511	0.11474	0.18786	-2.6042	-2.2313	-2.2521	-2.8958	-1.8375	-2.5708	-2.6333	-2.1333	-2.6104	-2.4667	-2.375	-2.9646	-2.1604	-2.6708	-2.6312	-2.2562	-28.901	104.141	-66.202	215.285	56.209	-12.227	130.326	75.068	34.851	95.017	145.769	-4.160	176.949	183.598	202.636	191.281	0.00083796	0.0006184	0.00017864	746.21	4.5538e-06	6.9524e-06	789.48	297.14	5.7052e-06	7.0528e-06	359.7	159.46	132.84	72.048	5.8676e-06	95.079	0.0011676	0.0013185	0.00037829	808.1	1.3317e-05	1.4824e-05	857.41	324.77	1.342e-05	1.4386e-05	392.42	175.51	146.27	79.566	1.4185e-05	104.8	171.506	-39.743	-36.450	-120.508	-12.792	22.496	-121.447	-114.939	-24.621	19.733	-116.538	-112.005	-110.429	-104.921	-1.218	-107.304	-8191	255	
2736.862	1	1	0	0	0.14425	0.12391	0.15524	0.17549	0.089911	0.14467	0.053243	0.15867	0.14515	0.15703	0.093675	0.096657	0.07076	0.071222	0.10221	0.28661	-2.5729	-2.3187	-2.0458	-3.025	-2.2062	-2.5125	-2.9979	-2.1688	-2.8792	-2.4833	-2.2333	-2.9917	-2.4271	-2.7146	-2.7687	-2.2667	-34.136	150.107	155.785	-132.371	196.843	-63.833	200.746	169.757	196.132	-45.481	-7.041	-69.358	-115.591	-131.443	94.240	160.396	0.00087691	0.0006039	0.00016846	746.15	5.0479e-06	6.1504e-06	788.93	296.5	3.0326e-06	5.3843e-06	358.18	159.06	132.42	71.855	5.9301e-06	94.798	0.001164	0.0013101	0.00038312	807.11	1.3439e-05	1.51e-05	855.16	323.92	1.3542e-05	1.4914e-05	391.33	174.93	145.82	79.399	1.4486e-05	104.6	173.279	-45.047	-41.639	-120.193	3.007	9.639	-121.160	-114.892	-35.874	7.879	-116.302	-111.867	-110.367	-104.948	-17.312	-107.348	-8191	255	
2736.958	1	1	0	0	0.16732	0.24415	0.22009	0.15058	0.22197	0.1113	0.15004	0.24728	0.2588	0.10859	0.14392	0.055465	0.15708	0.4548	0.11917	0.14271	-2.4	-2.4896	-2.0542	-3.0604	-2.2646	-2.5896	-3.0083	-2.2458	-2.8833	-2.6937	-2.2417	-2.8021	-2.4271	-2.4104	-2.9	-2.0938	83.484	88.873	193.414	131.376	65.661	-38.917	74.433	138.859	145.652	57.611	-103.004	220.398	-12.974	192.697	-2.871	149.647	0.00083373	0.00049181	0.00018505	746.51	5.0938e-06	6.7264e-06	788.31	296.71	4.2477e-06	8.2396e-06	360.4	159.41	132.62	72.317	3.9455e-06	95.325	0.0011723	0.0013124	0.00039415	807.65	1.3423e-05	1.5114e-05	856.88	323.96	1.367e-05	1.4712e-05	392.49	175.36	146	79.638	1.4123e-05	105.07	173.360	-35.713	-42.854	-120.327	14.320	22.576	-121.251	-114.995	-40.658	34.005	-116.632	-112.009	-110.408	-104.764	-4.000	-107.403	-8191	255	
2737.055	1	1	0	0	0.19237	0.014183	0.16332	0.078362	0.13991	0.20616	0.17848	0.17013	0.17763	0.20368	0.12376	0.090738	0.24251	0.20813	0.12373	0.21194	-2.3771	-2.6	-2.0375	-3.1042	-2.425	-2.2521	-3.1417	-2.2729	-2.6229	-2.6854	-2.2083	-3.0625	-2.4271	-2.4646	-2.7958	-2.2771	-43.234	177.555	118.355	67.835	197.092	9.432	180.991	184.967	64.127	191.543	148.813	-129.961	163.445	106.489	120.370	-82.010	0.00085048	0.00072181	0.00014586	746.79	4.8141e-06	5.3082e-06	790.77	298.24	5.1009e-06	7.882e-06	360	159.86	132.88	72.248	4.0144e-06	94.991	0.0011909	0.0013302	0.00039196	808.58	1.3274e-05	1.5352e-05	858.37	325	1.4126e-05	1.4617e-05	393.51	175.96	146.42	79.724	1.4029e-05	104.97	171.182	-32.583	-35.178	-120.273	2.758	33.049	-121.198	-115.061	-17.890	25.941	-116.501	-112.056	-110.436	-104.876	7.578	-107.473	-8191	255	
2737.151	1	1	0	0	0.30137	0.016871	0.055938	0.27149	0.066194	0.23502	0.11038	0.026894	0.16478	0.23241	0.1827	0.13294	0.11327	0.2141	0.042109	0.24449	-2.1146	-2.7583	-2.0854	-2.7958	-2.3646	-2.2646	-3.1167	-2.4146	-2.4271	-2.7479	-1.9813	-3.0062	-2.7188	-2.1521	-3.0458	-2.2542	-7.463	-125.002	-78.035	-97.519	-38.718	97.711	-112.749	-122.779	-10.801	-92.316	88.527	128.616	52.269	-104.601	83.252	189.298	0.00085449	0.00058629	0.00016087	746.66	4.4083e-06	7.5212e-06	787.02	295.68	4.5306e-06	6.9536e-06	356.85	158.44	132.52	71.587	3.3441e-06	94.123	0.0012051	0.0013037	0.00039038	808.5	1.3148e-05	1.5756e-05	855.01	323.12	1.4278e-05	1.4943e-05	389.66	174.31	145.56	79.119	1.4659e-05	104.1	173.124	-45.359	-33.538	-120.389	-3.957	17.464	-121.202	-114.750	-26.190	26.755	-116.623	-111.933	-110.368	-104.913	15.996	-107.360	-8191	255	
2737.247	1	1	0	0	0.24567	0.082177	0.26869	0.11421	0.32281	0.1602	0.17233	0.18611	0.21156	0.043495	0.19506	0.26394	0.079441	0.16794	0.036584	0.40096	-2.1375	-2.8917	-1.9104	-2.9833	-2.6479	-1.9458	-3.0979	-2.4667	-2.4542	-2.9271	-2.2854	-2.9688	-2.7	-2.3646	-3.0583	-2.6333	-122.075	-13.223	216.197	-125.238	8.949	201.046	165.430	-67.788	4.030	-130.380	108.201	191.331	175.979	207.786	41.422	159.912	0.00085106	0.00058413	0.00011998	743.86	3.9062e-06	5.4878e-06	782.73	294.94	4.2046e-06	4.8577e-06	357.05	158.47	132.18	71.624	6.4433e-06	94.216	0.0012159	0.0013194	0.00039538	805.97	1.3342e-05	1.5915e-05	853.14	322.61	1.4401e-05	1.478e-05	389.79	174.46	145.35	79.089	1.4621e-05	104.12	172.178	-37.969	-28.003	-120.189	5.089	18.039	-121.194	-114.940	-28.160	17.592	-116.436	-111.997	-110.144	-104.795	-17.971	-107.449	-8191	255	
2737.367	1	1	0	0	0.1469	0.090487	0.21594	0.065072	0.22292	0.023337	0.19657	0.35517	0.1418	0.23807	0.046201	0.14452	0.12816	0.2051	0.14308	0.08513	-1.8708	-2.7792	-2.1833	-2.8417	-2.5563	-2.0187	-2.9354	-2.4542	-2.1458	-3.0271	-2.1937	-2.6063	-3	-1.9604	-2.8292	-2.5646	48.838	32.942	124.196	204.494	165.313	-30.497	90.235	148.002	105.379	-8.475	-17.890	-28.945	186.451	194.757	76.136	88.459	0.00086226	0.00058325	0.00016927	745.23	4.49e-06	5.9305e-06	786.08	295.77	4.7658e-06	5.5522e-06	358.51	159.35	132.18	71.816	5.6189e-06	94.918	0.0012208	0.001317	0.00039316	807.17	1.315e-05	1.581e-05	854.62	323.03	1.4474e-05	1.4683e-05	390.64	175.32	145.68	79.316	1.47e-05	104.77	172.627	-52.355	-35.852	-120.338	-17.057	4.494	-121.257	-114.967	-2.071	27.972	-116.334	-111.801	-110.224	-104.901	-12.550	-107.389	-8191	255	
2737.462	1	1	0	0	0.046838	0.18767	0.097057	0.27728	0.076328	0.14919	0.2461	0.14092	0.2376	0.27805	0.19549	0.14476	0.15796	0.46999	0.19789	0.38194	-1.7062	-3.0271	-2.0958	-2.6604	-2.8604	-2.0521	-2.9146	-2.5396	-2.1958	-3.0042	-2.3667	-2.5062	-3.0979	-2.0917	-2.7167	-2.8	115.885	208.439	201.963	182.517	105.147	66.909	209.148	169.656	167.021	218.599	-122.026	205.498	163.556	-127.161	15.193	188.246	0.00080105	0.00065134	0.00016141	744.81	4.9373e-06	7.4678e-06	790.71	296.19	5.2115e-06	5.0938e-06	356.55	158.75	132.23	71.419	4.518e-06	94.129	0.0012425	0.0013204	0.00037963	808.53	1.2963e-05	1.5664e-05	857.67	323.12	1.4442e-05	1.4422e-05	389.89	174.69	145.54	79.002	1.4717e-05	103.85	170.904	-54.006	-45.443	-120.339	9.190	19.364	-120.952	-114.975	-21.463	11.279	-116.353	-111.770	-110.368	-104.951	-4.126	-107.409	-8191	255	
2737.535	1	1	0	0	0.18937	0.20338	0.26166	0.11394	0.24263	0.24883	0.20559	0.29622	0.032441	0.068913	0.36875	0.1469	0.04428	0.41245	0.16673	0.24401	-1.5	-3.1271	-2.1396	-2.5354	-2.8667	-2.2125	-2.8333	-2.7979	-1.8521	-3.0687	-2.3083	-2.4271	-3.0083	-2.25	-2.7146	-2.8833	133.389	213.031	-117.038	122.713	-91.355	36.974	196.693	116.351	167.597	-81.890	223.190	226.402	-31.861	197.155	-51.066	136.062	0.0008484	0.00049395	0.00017319	743.85	3.5194e-06	5.1963e-06	785.59	294.76	3.4999e-06	7.3425e-06	355.46	157.59	131.78	71.431	5.675e-06	94.08	0.0012421	0.0013336	0.00037215	806.05	1.2926e-05	1.5447e-05	852.49	321.84	1.4601e-05	1.5117e-05	388.94	173.9	145.3	78.809	1.5212e-05	103.71	173.403	-54.818	-37.119	-120.337	14.678	30.320	-121.419	-114.648	-5.182	40.391	-116.450	-111.734	-110.080	-104.914	-5.802	-107.326	-8191	255	
2737.630	1	1	0	0	0.12534	0.14357	0.12649	0.091742	0.17739	0.06823	0.12762	0.22675	0.27571	0.09654	0.17189	0.4965	0.42824	0.38214	0.087047	0.42633	-1.8229	-2.875	-2.35	-2.3604	-3.0438	-2.25	-2.6646	-2.9062	-2.0312	-2.925	-2.2958	-2.3312	-3.1292	-2.2188	-2.6021	-3.0812	142.686	150.153	23.061	93.653	75.681	220.451	6.535	97.172	27.298	35.813	211.603	216.543	-124.869	197.204	33.446	217.634	0.00083694	0.00069963	0.00014562	748.43	4.1612e-06	6.2502e-06	787.33	295.5	3.5945e-06	4.959e-06	357.41	158.66	132.26	71.683	5.2991e-06	94.481	0.0012119	0.0013408	0.00036296	807.24	1.3047e-05	1.529e-05	854.18	322.45	1.4321e-05	1.4905e-05	389.72	174.41	145.63	79.007	1.5032e-05	104.22	172.727	-41.253	-28.774	-120.177	0.342	10.941	-121.185	-115.001	-12.061	22.312	-116.494	-111.939	-110.439	-104.838	-13.319	-107.461	-8191	255	
2737.728	1	1	0	0	0.098881	0.19169	0.084403	0.15655	0.1836	0.097037	0.019331	0.098267	0.078188	0.1045	0.11434	0.12062	0.26577	0.17311	0.15568	0.11898	-1.6125	-2.8708	-2.4938	-2.0958	-2.9	-2.3083	-2.5917	-2.9771	-1.9292	-2.7646	-2.7042	-2.1562	-2.9146	-2.325	-2.4625	-3.1042	-120.502	0.556	176.392	-122.661	166.241	-117.702	205.474	85.502	66.138	184.158	-98.062	-125.976	226.793	216.010	164.446	173.163	0.00081918	0.00066086	0.00017493	748.11	3.4758e-06	5.7689e-06	790.75	296.43	5.5516e-06	6.3158e-06	359.51	159.19	132.76	71.87	5.2906e-06	95.388	0.0012229	0.0013573	0.00036053	808.52	1.2938e-05	1.4864e-05	857.5	323.65	1.4122e-05	1.4703e-05	391.79	175.58	146.31	79.392	1.5243e-05	104.86	172.923	-46.379	-36.923	-120.265	3.621	11.387	-121.281	-114.845	-28.460	30.219	-116.347	-112.082	-110.167	-104.828	-22.993	-107.423	-8191	255	
2737.846	1	1	0	0	0.063126	0.15448	0.037066	0.30866	0.11693	0.1152	0.02754	0.1908	0.051053	0.21842	0.39948	0.21211	0.26433	0.1107	0.13666	0.14758	-1.9	-2.8729	-2.5812	-2.2146	-2.9146	-2.4729	-2.6542	-2.8979	-2.075	-2.7542	-2.8187	-2.0958	-2.9813	-2.5333	-2.3792	-3.0563	6.504	-8.782	65.880	214.345	75.966	98.352	117.149	174.231	-59.074	146.153	173.607	224.892	185.203	207.854	190.715	43.889	0.00083735	0.00073653	0.00012159	745.86	4.5425e-06	7.1633e-06	791.42	296.47	3.5303e-06	5.4647e-06	358.02	158.06	132.46	71.538	3.7941e-06	94.434	0.0012031	0.0013619	0.00035373	808.85	1.2998e-05	1.4473e-05	856.11	323.33	1.3784e-05	1.5275e-05	390.24	174.35	145.73	79.08	1.5321e-05	104.01	173.126	-38.134	-45.959	-120.248	11.273	5.544	-121.056	-114.903	-29.650	35.359	-116.450	-111.944	-110.248	-104.743	-2.781	-107.340	-8191	255	
2737.943	1	1	0	0	0.13667	0.3134	0.1456	0.27633	0.18715	0.1174	0.14645	0.11875	0.19052	0.003354	0.1667	0.42626	0.39706	0.21481	0.21956	0.32198	-1.6708	-2.4188	-2.7792	-2.1167	-2.8042	-2.4479	-2.3688	-2.9854	-2.0438	-2.5062	-3.0979	-2.225	-2.8583	-2.6833	-2.1417	-2.9562	-92.452	22.359	35.051	207.468	-119.360	-21.306	192.539	207.365	-73.817	28.170	87.619	210.824	211.530	-115.652	-29.394	159.072	0.00082265	0.00071999	0.00013859	745.22	3.9088e-06	4.7956e-06	784.71	294.93	4.9678e-06	6.1755e-06	359.06	158.35	132.45	71.699	5.6101e-06	94.559	0.00119	0.0013687	0.00035033	806.92	1.3284e-05	1.4532e-05	853.17	322.6	1.3739e-05	1.5395e-05	389.98	174.47	145.83	79.092	1.5427e-05	104.22	172.451	-37.543	-35.719	-120.328	15.057	3.415	-121.193	-114.901	-5.694	11.008	-116.529	-111.665	-110.238	-104.738	-9.679	-107.406	-8191	255	
2738.039	1	1	0	0	0.17088	0.23223	0.050155	0.19678	0.020088	0.17638	0.14194	0.2771	0.18624	0.026337	0.12283	0.12707	0.34296	0.14725	0.18098	0.067964	-1.8833	-2.4583	-2.7979	-2.05	-2.7562	-2.6104	-2.1625	-3.2542	-2.2521	-2.4667	-3.0042	-2.075	-3.0521	-2.8208	-2.1771	-3.0438	-17.637	206.720	-105.270	-63.928	-9.456	-84.679	54.101	175.865	7.729	96.337	137.781	-16.367	-77.327	-83.847	-131.800	190.196	0.00082242	0.00064697	0.00014306	745.58	3.0981e-06	8.2905e-06	787.89	295.43	5.2934e-06	5.4148e-06	358.13	159.19	132.89	71.957	5.252e-06	95.409	0.0011826	0.0013711	0.00035765	806	1.3358e-05	1.437e-05	855.15	322.9	1.351e-05	1.5488e-05	390.98	175.29	146.28	79.476	1.5552e-05	105.01	171.884	-43.505	-30.708	-120.313	3.042	24.256	-121.112	-114.676	-23.331	16.866	-116.237	-111.908	-110.071	-104.845	-13.476	-107.227	-8191	255	
2738.159	1	1	0	0	0.13954	0.20987	0.17581	0.32622	0.12901	0.26172	0.14814	0.31657	0.2159	0.15207	0.26027	0.46326	0.18622	0.28608	0.14285	0.062136	-1.9042	-2.3333	-2.8521	-2.3125	-2.7333	-2.6813	-2.1042	-3.1979	-2.3271	-2.2208	-3.0187	-2.1604	-2.7542	-2.9417	-2.1458	-3.1937	-91.293	-43.030	104.956	-97.732	1.867	-92.683	141.969	-120.736	9.509	-1.224	225.210	-121.930	191.400	201.235	187.419	-44.963	0.00081674	0.00069939	0.0001481	744.56	4.7238e-06	7.5903e-06	788.99	295.78	5.6536e-06	4.4433e-06	356.75	159.05	132.66	71.926	4.9247e-06	94.662	0.0011707	0.0013947	0.00036018	807.05	1.37e-05	1.4198e-05	856.42	323.24	1.3521e-05	1.5888e-05	390.26	174.91	146	79.351	1.5249e-05	104.36	173.156	-44.403	-41.910	-120.223	-11.504	16.924	-121.099	-114.699	-18.164	13.898	-116.495	-111.591	-110.146	-104.969	-0.511	-107.083	-8191	255	
2738.231	1	1	0	0	0.035774	0.12266	0.19485	0.28723	0.15131	0.080232	0.16605	0.32352	0.053005	0.084702	0.21638	0.22151	0.25942	0.094304	0.073195	0.02745	-2.2646	-2.3146	-2.9771	-2.1729	-2.4521	-2.9188	-2.15	-2.8396	-2.3563	-2.2604	-3.0292	-2.1813	-2.5792	-3.0271	-2.2	-3.0375	-109.880	132.516	-59.756	212.660	-28.164	141.266	147.615	-122.665	53.193	-85.211	-36.751	-102.506	180.256	-40.404	173.280	-127.746	0.00083682	0.00050775	0.00014935	744.94	3.7493e-06	6.3873e-06	784.68	295.36	3.4745e-06	5.8786e-06	357.87	158.28	131.97	71.704	2.2113e-06	94.218	0.0011856	0.0014061	0.00036807	804.94	1.3739e-05	1.4369e-05	851.02	322.65	1.3344e-05	1.6194e-05	389.28	174.14	145.52	79.154	1.5229e-05	104.07	171.709	-51.592	-49.248	-120.031	8.892	15.710	-120.868	-114.596	-17.686	23.495	-116.454	-111.975	-110.050	-104.635	1.884	-107.217	-8191	255	
2738.327	1	1	0	0	0.13229	0.11365	0.24414	0.14097	0.046549	0.10049	0.28174	0.3076	0.10135	0.165	0.09058	0.34184	0.10353	0.27421	0.15189	0.18821	-2.2313	-2.075	-2.8604	-2.3729	-2.4583	-2.8854	-2.125	-2.8292	-2.8937	-2.0167	-3.3104	-2.5	-2.475	-2.9375	-1.9667	-2.925	116.580	215.392	69.436	-82.990	-38.390	52.686	159.623	118.949	128.058	-30.534	-19.122	-92.318	108.318	-123.401	68.282	121.281	0.00084553	0.00062331	0.00015026	744.72	3.9551e-06	6.99e-06	783.73	295.63	5.2538e-06	4.8909e-06	357.39	159.18	132.84	72.054	4.6746e-06	94.601	0.0011761	0.0014229	0.00037209	804.11	1.4049e-05	1.4376e-05	851.07	322.41	1.3462e-05	1.5859e-05	389.7	174.78	145.89	79.297	1.5015e-05	104.47	171.833	-56.265	-34.321	-120.328	5.087	19.003	-121.136	-114.712	-17.023	13.457	-116.210	-111.885	-110.169	-104.684	-0.514	-107.153	-8191	255	
2738.448	1	1	0	0	0.32954	0.29137	0.089898	0.20513	0.18358	0.1505	0.33819	0.35745	0.12687	0.13275	0.07755	0.072527	0.2622	0.093126	0.099312	0.24441	-2.275	-2.1542	-2.8708	-2.3792	-2.3917	-2.9417	-2.0333	-2.8063	-2.6646	-1.9354	-3.1271	-2.575	-2.3812	-3.0042	-2.0083	-2.5458	8.795	63.558	-12.409	159.928	190.520	-105.419	137.633	175.125	163.138	-23.124	66.571	181.207	216.659	196.855	94.546	173.579	0.00086323	0.00058716	0.00011834	744.79	3.5361e-06	4.6974e-06	788.75	296.25	3.1543e-06	5.5653e-06	359.33	159.29	132.63	72.247	4.2171e-06	95.165	0.0011664	0.0014312	0.00037503	805.34	1.4173e-05	1.4733e-05	854.17	322.84	1.3407e-05	1.5816e-05	391.4	175.49	146.15	79.733	1.4895e-05	104.99	170.983	-31.143	-48.567	-120.287	13.351	11.849	-120.968	-114.772	-13.818	7.833	-116.044	-111.858	-110.042	-104.825	-0.211	-107.087	-8191	255	
#DATA ENDS
