BOXY.EXE: ISS Imagent and Oximeter Data Acquisition Program Version 0.80
Ascii Record File

#ACQ INFORMATION
2  Detector Channels 
16  External MUX Channels 
1  Auxiliary Channels 
5000  Waveform (CCF) Frequency (Hz)
1  Waveforms Skipped 
30  Waveforms Averaged 
1  Cycles Averaged 
16  Acquisitions per Waveform 
10.0806  Updata Rate (Hz) 

#FILE INFORMATION
TRUE -- External MUX Channel results are PARSED.
FALSE -- AC DC and Phase are NOT grouped.
TRUE -- Companion Program Settings File CREATED.
FALSE -- AC data not excluded
FALSE -- DC data not excluded
FALSE -- Phase data not excluded
FALSE -- Auxillary Chn. data not excluded
Tab delimiters

#CALIBRATION STATE
TRUE -- Waveform Calibration Values APPLIED.


#AUX CALIBRATION VALUES
Val Type	aux-1	

Term	1.0000e+00	
Factor	0.0000e+00	


#WF CALIBRATION VALUES
A = Detector Channel
Val Type	A-AC1	A-AC2	A-AC3	A-AC4	A-AC5	A-AC6	A-AC7	A-AC8	A-AC9	A-AC10	A-AC11	A-AC12	A-AC13	A-AC14	A-AC15	A-AC16	A-DC1	A-DC2	A-DC3	A-DC4	A-DC5	A-DC6	A-DC7	A-DC8	A-DC9	A-DC10	A-DC11	A-DC12	A-DC13	A-DC14	A-DC15	A-DC16	A-Ph1	A-Ph2	A-Ph3	A-Ph4	A-Ph5	A-Ph6	A-Ph7	A-Ph8	A-Ph9	A-Ph10	A-Ph11	A-Ph12	A-Ph13	A-Ph14	A-Ph15	A-Ph16	

Term	0.00000e+00	0.00000e+00	0.00000e+00	0.00000e+00	0.00000e+00	0.00000e+00	0.00000e+00	0.00000e+00	0.00000e+00	0.00000e+00	0.00000e+00	0.00000e+00	0.00000e+00	0.00000e+00	0.00000e+00	0.00000e+00	0.00000e+00	0.00000e+00	0.00000e+00	0.00000e+00	0.00000e+00	0.00000e+00	0.00000e+00	0.00000e+00	0.00000e+00	0.00000e+00	0.00000e+00	0.00000e+00	0.00000e+00	0.00000e+00	0.00000e+00	0.00000e+00	0.00000e+00	0.00000e+00	0.00000e+00	0.00000e+00	0.00000e+00	0.00000e+00	0.00000e+00	0.00000e+00	0.00000e+00	0.00000e+00	0.00000e+00	0.00000e+00	0.00000e+00	0.00000e+00	0.00000e+00	0.00000e+00	
Factor	1.00000e+00	1.00000e+00	1.00000e+00	1.00000e+00	1.00000e+00	1.00000e+00	1.00000e+00	1.00000e+00	1.00000e+00	1.00000e+00	1.00000e+00	1.00000e+00	1.00000e+00	1.00000e+00	1.00000e+00	1.00000e+00	1.00000e+00	1.00000e+00	1.00000e+00	1.00000e+00	1.00000e+00	1.00000e+00	1.00000e+00	1.00000e+00	1.00000e+00	1.00000e+00	1.00000e+00	1.00000e+00	1.00000e+00	1.00000e+00	1.00000e+00	1.00000e+00	X	X	X	X	X	X	X	X	X	X	X	X	X	X	X	X	

B = Detector Channel
Val Type	B-AC1	B-AC2	B-AC3	B-AC4	B-AC5	B-AC6	B-AC7	B-AC8	B-AC9	B-AC10	B-AC11	B-AC12	B-AC13	B-AC14	B-AC15	B-AC16	B-DC1	B-DC2	B-DC3	B-DC4	B-DC5	B-DC6	B-DC7	B-DC8	B-DC9	B-DC10	B-DC11	B-DC12	B-DC13	B-DC14	B-DC15	B-DC16	B-Ph1	B-Ph2	B-Ph3	B-Ph4	B-Ph5	B-Ph6	B-Ph7	B-Ph8	B-Ph9	B-Ph10	B-Ph11	B-Ph12	B-Ph13	B-Ph14	B-Ph15	B-Ph16	

Term	0.00000e+00	0.00000e+00	0.00000e+00	0.00000e+00	0.00000e+00	0.00000e+00	0.00000e+00	0.00000e+00	0.00000e+00	0.00000e+00	0.00000e+00	0.00000e+00	0.00000e+00	0.00000e+00	0.00000e+00	0.00000e+00	0.00000e+00	0.00000e+00	0.00000e+00	0.00000e+00	0.00000e+00	0.00000e+00	0.00000e+00	0.00000e+00	0.00000e+00	0.00000e+00	0.00000e+00	0.00000e+00	0.00000e+00	0.00000e+00	0.00000e+00	0.00000e+00	-1.55424e+02	-1.27235e+02	-1.24166e+02	-1.80391e+02	-7.40752e+01	-6.35377e+01	-1.56642e+02	-1.62015e+02	-7.80018e+01	-6.24457e+01	-1.75242e+02	-1.71364e+02	-1.79620e+02	-1.76316e+02	-7.26602e+01	-1.49562e+02	
Factor	2.32168e-05	1.44619e-04	3.90176e-05	1.53962e-01	1.28637e-06	1.68364e-06	1.74380e-01	5.13261e-02	1.26631e-06	1.62331e-06	9.43026e-02	3.18907e-02	2.43581e-02	9.34159e-03	1.41395e-06	1.29416e-02	1.42752e-05	2.56240e-05	7.09592e-06	7.92124e-02	2.49870e-07	2.88134e-07	8.45014e-02	2.65240e-02	2.52790e-07	2.91573e-07	4.71960e-02	1.60623e-02	1.27823e-02	4.86681e-03	2.69113e-07	6.54773e-03	X	X	X	X	X	X	X	X	X	X	X	X	X	X	X	X	



#DISTANCE SETTINGS
A = Detector Channel
A-1	A-2	A-3	A-4	A-5	A-6	A-7	A-8	A-9	A-10	A-11	A-12	A-13	A-14	A-15	A-16	

2.5000e+00	3.0000e+00	2.5000e+00	3.0000e+00	2.0000e+00	3.0000e+00	1.5000e+00	3.0000e+00	3.0000e+00	3.0000e+00	3.0000e+00	3.0000e+00	3.0000e+00	3.0000e+00	1.5000e+00	3.0000e+00	

B = Detector Channel
B-1	B-2	B-3	B-4	B-5	B-6	B-7	B-8	B-9	B-10	B-11	B-12	B-13	B-14	B-15	B-16	

1.0000e+01	1.0000e+01	1.0000e+01	1.4400e+00	1.0000e+01	1.0000e+01	1.5100e+00	1.9400e+00	1.0000e+01	1.0000e+01	1.9900e+00	2.4900e+00	2.4100e+00	2.9000e+00	1.0000e+01	2.9800e+00	




#DATA BEGINS
time	group	step	mark	flag	A-AC1	A-AC2	A-AC3	A-AC4	A-AC5	A-AC6	A-AC7	A-AC8	A-AC9	A-AC10	A-AC11	A-AC12	A-AC13	A-AC14	A-AC15	A-AC16	A-DC1	A-DC2	A-DC3	A-DC4	A-DC5	A-DC6	A-DC7	A-DC8	A-DC9	A-DC10	A-DC11	A-DC12	A-DC13	A-DC14	A-DC15	A-DC16	A-Ph1	A-Ph2	A-Ph3	A-Ph4	A-Ph5	A-Ph6	A-Ph7	A-Ph8	A-Ph9	A-Ph10	A-Ph11	A-Ph12	A-Ph13	A-Ph14	A-Ph15	A-Ph16	B-AC1	B-AC2	B-AC3	B-AC4	B-AC5	B-AC6	B-AC7	B-AC8	B-AC9	B-AC10	B-AC11	B-AC12	B-AC13	B-AC14	B-AC15	B-AC16	B-DC1	B-DC2	B-DC3	B-DC4	B-DC5	B-DC6	B-DC7	B-DC8	B-DC9	B-DC10	B-DC11	B-DC12	B-DC13	B-DC14	B-DC15	B-DC16	B-Ph1	B-Ph2	B-Ph3	B-Ph4	B-Ph5	B-Ph6	B-Ph7	B-Ph8	B-Ph9	B-Ph10	B-Ph11	B-Ph12	B-Ph13	B-Ph14	B-Ph15	B-Ph16	aux-1	digaux	

2874.993	1	1	0	256	0.13387	0.20033	0.05731	0.26702	0.15546	0.17267	0.15411	0.1779	0.081407	0.10193	0.17465	0.23029	0.2148	0.097503	0.24595	0.20406	-2.6333	-2.15	-2.8521	-2.7792	-2.1562	-2.9729	-2.3896	-2.6021	-2.9188	-2.3021	-2.7292	-2.7188	-2.2	-3.1083	-2.6333	-2.5708	195.979	170.714	288.393	499.317	431.027	188.970	366.061	236.715	505.702	283.094	376.079	437.017	444.549	364.538	304.257	383.844	0.0006441	0.00035098	9.1982e-05	521.22	3.207e-06	2.3064e-06	615.33	155.33	3.0813e-06	3.8018e-06	233.84	91.752	60.037	27.793	2.4978e-06	44.022	0.00062243	0.0006319	0.00016773	576.02	6.5039e-06	6.7519e-06	678.84	172	6.335e-06	7.1369e-06	259.87	102.36	66.772	31.257	6.665e-06	49.471	162.676	259.495	252.404	162.199	286.369	291.671	161.532	167.433	291.158	301.470	165.884	170.664	172.001	177.819	278.297	174.957	-8191	255	
2875.065	1	1	0	0	0.063322	0.24548	0.11995	0.019118	0.31565	0.1444	0.031628	0.074308	0.062351	0.20207	0.20838	0.17511	0.16524	0.059427	0.32057	0.083075	-2.7188	-2.2917	-2.9021	-2.8667	-2.3604	-3.0458	-2.5187	-2.2896	-3.1521	-2.2229	-2.6333	-2.9479	-2.0375	-3.1896	-2.5896	-2.3063	491.686	268.911	170.715	409.997	341.755	348.182	179.774	495.281	216.007	152.638	152.363	493.463	151.477	473.607	298.124	233.620	0.00064574	0.00036517	7.7534e-05	512.46	2.6574e-06	3.2248e-06	611.12	154.32	2.4345e-06	3.9256e-06	235.06	91.593	60.194	28.048	2.9505e-06	44.12	0.00062642	0.00063628	0.00017181	567.26	6.5091e-06	6.7891e-06	673.29	171.51	6.4941e-06	7.2486e-06	260.29	102.36	66.898	31.49	6.725e-06	49.687	163.545	224.154	230.491	162.211	281.521	318.621	161.344	167.289	256.829	299.336	166.088	170.731	172.456	177.703	283.343	175.088	-8191	255	
2875.161	1	1	0	0	0.058081	0.16333	0.18169	0.25192	0.27618	0.013624	0.17184	0.079495	0.13868	0.22265	0.22131	0.01204	0.11694	0.28132	0.074927	0.064239	-2.6875	-2.0875	-2.6292	-3.0271	-2.0604	-2.9521	-2.85	-2.4021	-3.1104	-2.2979	-2.7438	-2.9833	-2.1271	-2.9375	-2.9979	-2.3875	508.506	410.115	497.324	498.305	172.477	459.151	447.885	227.783	410.647	333.374	164.541	379.974	303.186	457.414	159.911	177.997	0.00063669	0.0003458	0.00010412	520.8	4.0061e-06	3.0699e-06	613.05	155.85	3.0901e-06	2.2093e-06	235.41	92.671	60.375	28.333	3.22e-06	44.844	0.00062594	0.00061487	0.00017054	573.95	6.4659e-06	7.0221e-06	678.89	172.49	6.4835e-06	7.2073e-06	261.11	103.23	67.308	31.787	6.646e-06	50.277	162.537	233.786	236.553	161.993	292.806	287.366	161.285	167.520	283.770	315.267	165.930	170.650	172.239	177.708	269.868	175.036	-8191	255	
2875.282	1	1	0	0	0.25525	0.05796	0.028451	0.31909	0.026862	0.35332	0.112	0.30074	0.099991	0.3666	0.22741	0.14927	0.21199	0.16748	0.36368	0.16563	-2.65	-2.4625	-2.5625	-3.0917	-2.0875	-2.7458	-2.8417	-2.3208	-3.1146	-2.5062	-2.4021	-3.0479	-2.3792	-2.8021	-2.9042	-2.4917	192.190	307.370	412.101	404.437	172.952	340.462	213.992	170.112	212.261	491.830	248.653	481.757	497.386	409.983	301.007	457.647	0.00065472	0.00028354	5.0523e-05	525.78	3.3648e-06	3.1279e-06	621.68	156.97	2.5191e-06	1.8771e-06	237.09	93.207	60.644	28.289	3.4586e-06	44.648	0.00063804	0.00062405	0.00017144	579.51	6.4763e-06	6.953e-06	685.77	173.83	6.5009e-06	6.8222e-06	262.92	103.75	67.638	31.866	6.6891e-06	50.387	164.268	230.911	268.880	162.336	273.305	303.404	161.460	167.147	271.871	291.030	165.957	170.686	172.500	177.662	281.929	175.150	-8191	255	
2875.378	1	1	0	0	0.18872	0.31455	0.077524	0.033079	0.22375	0.072154	0.20092	0.27653	0.24044	0.12446	0.20522	0.1165	0.36155	0.2446	0.11365	0.11853	-2.6958	-2.3583	-2.4708	-3.0667	-2.0708	-2.9562	-2.9646	-2.2208	-3.1292	-2.5458	-2.2333	-3.1312	-2.4042	-2.6458	-2.9729	-2.3583	218.442	163.439	244.164	352.399	191.081	311.755	354.336	175.709	333.074	326.949	288.850	299.192	461.731	196.590	152.233	181.578	0.00063019	0.00029615	8.117e-05	523.47	2.5329e-06	3.4847e-06	619.05	156.61	3.4644e-06	3.9749e-06	235.69	92.724	60.017	27.927	2.4349e-06	44.018	0.00063418	0.00061855	0.00017728	577.31	6.4165e-06	6.7903e-06	683.21	173.23	6.364e-06	6.9243e-06	261.55	103.1	66.912	31.507	6.8187e-06	49.55	163.595	248.033	234.169	162.225	293.717	302.040	161.372	167.509	272.571	287.760	166.278	170.606	172.374	178.078	265.921	175.221	-8191	255	
2875.474	1	1	0	0	0.061551	0.10393	0.23415	0.22575	0.1649	0.14617	0.053061	0.15745	0.071573	0.12403	0.093736	0.14338	0.073838	0.069655	0.060265	0.083004	-2.6188	-2.7333	-2.2875	-3.2208	-2.2792	-2.4979	-3.1125	-2.2771	-2.9938	-2.7938	-2.3292	-3.075	-2.4792	-2.5	-3.1146	-2.1979	501.594	353.157	487.969	500.979	361.801	202.213	346.274	187.173	406.383	418.436	185.177	185.879	317.954	273.979	308.340	199.071	0.00064108	0.00031338	7.1688e-05	504.4	1.9681e-06	4.8714e-06	595.73	150.55	3.5714e-06	3.3065e-06	227.49	89.203	58.299	27.083	2.6674e-06	42.955	0.00063668	0.00063313	0.00018559	557.62	6.8761e-06	7.4669e-06	657.6	166.56	7.0576e-06	7.6034e-06	252.9	99.591	64.672	30.506	7.4303e-06	48.408	161.698	232.034	238.938	162.453	283.484	307.485	161.523	167.537	278.227	300.862	166.432	170.969	172.412	178.120	289.653	175.363	-8191	255	
2875.593	1	1	0	0	0.1387	0.31719	0.1083	0.33897	0.196	0.022435	0.11299	0.088426	0.34016	0.074149	0.07107	0.24432	0.12259	0.18757	0.31994	0.16818	-2.4208	-2.6792	-2.1875	-3.1813	-2.4437	-2.3417	-2.9	-2.3896	-2.8167	-3.0208	-2.2292	-3.0917	-2.6375	-2.4354	-2.9667	-2.5229	301.536	412.597	385.260	193.950	206.334	151.033	170.626	363.789	253.317	213.750	453.362	361.340	180.429	454.168	221.755	385.645	0.00062414	0.00023294	9.4918e-05	507.65	3.9293e-06	3.9108e-06	605.85	152.74	2.9704e-06	2.4272e-06	232.22	91.581	59.634	27.734	3.3739e-06	44.438	0.00065279	0.00067402	0.00019339	560.49	6.7861e-06	7.5683e-06	670.95	169.4	6.8132e-06	7.5754e-06	258.32	101.95	66.412	31.298	7.3204e-06	49.958	162.629	254.347	232.627	162.475	294.539	317.329	161.425	167.087	285.547	290.600	165.921	170.430	172.108	177.608	276.237	175.078	-8191	255	
2875.665	1	1	0	0	0.24135	0.11606	0.23735	0.14696	0.15333	0.11106	0.13371	0.32418	0.12584	0.13567	0.20641	0.11923	0.012919	0.17622	0.22679	0.28936	-2.3021	-2.7271	-2.2771	-3.1646	-2.4229	-2.5021	-3.0479	-2.3312	-2.6312	-3.0187	-2.1896	-2.9458	-2.6417	-2.4729	-3.2687	-2.35	337.415	445.551	389.798	217.787	248.897	200.187	486.679	468.637	286.674	369.401	164.617	461.649	502.789	435.513	150.642	183.910	0.00062624	0.00036987	6.1532e-05	526.98	3.0864e-06	3.1602e-06	623.16	156.35	3.0027e-06	3.6964e-06	236.87	93.073	60.587	28.112	3.0905e-06	44.828	0.00066038	0.00070092	0.00018979	580.87	6.9349e-06	7.758e-06	690.59	173.86	7.0602e-06	7.6246e-06	263.54	103.82	67.582	31.802	7.5296e-06	50.563	163.414	245.661	242.222	162.195	287.379	313.135	161.294	167.000	274.490	281.525	165.967	170.340	172.327	177.686	283.636	174.933	-8191	255	
2875.763	1	1	0	0	0.14984	0.14224	0.18679	0.26154	0.11129	0.21366	0.14747	0.25203	0.24107	0.093849	0.073036	0.19327	0.31723	0.24659	0.14143	0.29407	-2.1292	-3.0396	-2.1479	-2.9646	-2.625	-2.2188	-3.1458	-2.3917	-2.6125	-2.8896	-2.2979	-2.7687	-2.7708	-2.1104	-2.9042	-2.6188	234.980	496.514	343.764	472.698	179.649	372.951	428.031	454.348	318.687	405.138	244.946	304.317	180.395	416.210	451.315	172.419	0.00063677	0.00028536	7.3291e-05	531.88	2.7875e-06	3.7556e-06	626.13	157.3	3.1828e-06	2.4335e-06	237.59	93.01	60.387	27.739	3.3766e-06	44.091	0.00066924	0.00067108	0.0001915	586.17	6.7564e-06	7.773e-06	693.43	174.77	6.9607e-06	7.2498e-06	264.43	103.78	67.353	31.28	7.0054e-06	49.464	164.693	236.409	255.266	162.315	269.953	294.458	161.439	167.151	267.803	310.047	166.023	170.620	172.039	177.607	293.798	175.127	-8191	255	
2875.881	1	1	0	0	0.091612	0.10156	0.3012	0.189	0.2538	0.11636	0.25034	0.16614	0.065048	0.13446	0.13759	0.1262	0.28264	0.23412	0.30842	0.23081	-2.0771	-2.9104	-2.2042	-2.8229	-2.7979	-2.2125	-3.1958	-2.5917	-2.3167	-3.1562	-2.4333	-2.7438	-2.9854	-2.2729	-3.0938	-2.7104	169.578	374.486	333.862	256.359	391.695	184.754	416.672	461.452	484.872	410.713	481.067	272.795	300.372	462.941	325.749	427.248	0.00064932	0.00032327	7.4963e-05	521.4	3.1476e-06	3.9988e-06	619.69	155.36	3.6857e-06	2.5461e-06	236.27	92.462	59.964	27.457	2.9506e-06	43.918	0.00064509	0.0006509	0.00018408	575.42	6.6398e-06	7.5011e-06	684.12	172.64	6.8348e-06	7.2316e-06	261.95	102.93	66.905	30.941	6.8265e-06	49.268	162.509	229.206	251.461	162.393	285.945	289.106	161.752	167.023	285.287	297.082	166.060	170.708	172.439	178.140	281.823	175.393	-8191	255	
2875.978	1	1	0	0	0.079626	0.11374	0.24486	0.085806	0.21311	0.23378	0.22914	0.2468	0.23635	0.062397	0.17902	0.1745	0.23896	0.27919	0.20313	0.22827	-1.8292	-3.0417	-2.3896	-2.6167	-3.2021	-2.2646	-2.9604	-2.8667	-2.1	-3.1229	-2.2875	-2.5062	-3.1229	-2.2104	-2.7458	-2.8375	292.362	417.588	451.727	157.679	358.666	192.193	393.417	381.602	191.009	168.996	436.777	228.552	154.587	459.871	450.255	398.972	0.00063822	0.00039068	0.00010618	528.42	2.9357e-06	2.6981e-06	629.26	158.07	3.0289e-06	4.329e-06	238.11	93.865	61.051	27.916	3.7231e-06	44.734	0.00064417	0.00063035	0.00018024	582.16	6.4029e-06	7.2123e-06	695.65	175.32	6.8501e-06	7.1508e-06	265.8	104.69	68.003	31.418	7.0098e-06	50.261	161.960	247.109	239.086	162.650	283.872	308.915	161.652	167.197	270.731	290.399	166.151	170.697	172.432	177.775	279.793	175.054	-8191	255	
2876.074	1	1	0	0	0.070692	0.23137	0.29292	0.32713	0.21444	0.167	0.10467	0.12412	0.13302	0.21606	0.11924	0.10657	0.23722	0.14167	0.19261	0.14264	-1.8563	-2.9729	-2.4979	-2.5208	-2.95	-2.2021	-3.0479	-2.7208	-2.125	-3.1208	-2.5396	-2.4104	-3.0563	-2.2938	-2.6604	-2.8625	302.803	158.721	411.442	456.769	440.484	230.127	464.970	440.513	323.432	288.379	460.370	303.422	183.708	439.227	413.709	428.970	0.0006618	0.0003696	7.5819e-05	539.25	2.3329e-06	2.2135e-06	638.51	160.61	2.7696e-06	3.4688e-06	242.72	94.647	61.694	28.359	3.1081e-06	45.056	0.00065583	0.00065587	0.00017969	595.5	6.6538e-06	7.276e-06	706.69	178.57	6.8701e-06	7.1393e-06	269.4	105.76	68.73	31.886	6.9796e-06	50.763	163.266	242.639	251.025	162.587	289.794	299.893	161.653	167.095	272.766	296.723	165.860	170.519	171.942	177.465	289.358	174.865	-8191	255	
2876.194	1	1	0	0	0.2134	0.17167	0.18687	0.12217	0.23814	0.21163	0.27385	0.12213	0.17268	0.18997	0.035031	0.10908	0.13954	0.15807	0.080656	0.23494	-1.8333	-3.0208	-2.3583	-2.4708	-2.9958	-2.1917	-2.9354	-3.1208	-2.0271	-2.7771	-2.7438	-2.3646	-3.0042	-2.3563	-2.6354	-3.1667	232.882	162.305	506.558	151.512	378.680	305.845	170.459	454.740	453.779	320.490	191.524	388.507	357.172	380.352	462.786	156.166	0.00063834	0.00026656	0.00011642	539.32	2.9134e-06	3.9485e-06	636.51	160.08	4.1887e-06	2.7058e-06	239.4	93.428	60.825	27.925	3.4178e-06	44.296	0.00065232	0.00065416	0.00017585	595.14	6.4946e-06	7.3648e-06	703.13	177.44	6.9865e-06	7.2195e-06	266.58	104.52	67.849	31.471	7.0805e-06	49.937	164.241	257.667	237.253	162.104	274.411	281.811	161.232	166.784	281.622	304.681	165.791	170.280	171.758	177.079	285.449	174.796	-8191	255	
2876.266	1	1	0	0	0.22409	0.11057	0.087565	0.2876	0.14826	0.26219	0.061821	0.19724	0.21334	0.13196	0.12805	0.089713	0.14217	0.08721	0.090308	0.13135	-1.7604	-2.7042	-2.7562	-2.1417	-2.9375	-2.3396	-2.5375	-2.9042	-2.0083	-2.9646	-2.6562	-2.2396	-2.9833	-2.5438	-2.5333	-3.1271	223.043	421.600	157.950	431.803	327.808	255.633	198.689	482.953	158.874	382.074	189.651	412.372	241.221	156.775	191.535	462.922	0.00062038	0.00025547	7.8968e-05	528.12	2.3315e-06	3.972e-06	622.31	157.14	2.687e-06	3.7349e-06	237.03	92.913	60.165	27.76	3.7453e-06	44.205	0.0006641	0.00063798	0.00018061	582.38	6.6533e-06	7.2105e-06	690.36	173.79	6.8111e-06	7.3483e-06	262.92	103.45	66.977	31.154	7.0855e-06	49.757	162.296	236.304	242.428	161.904	272.907	309.868	161.347	166.871	288.544	305.867	165.609	170.295	171.948	177.323	280.569	174.999	-8191	255	
2876.362	1	1	0	0	0.22494	0.025809	0.364	0.087796	0.092903	0.055224	0.16964	0.19501	0.23635	0.20817	0.083113	0.15914	0.099868	0.26934	0.2104	0.25843	-1.8458	-2.625	-2.7875	-2.1542	-3.1104	-2.4333	-2.4125	-3.2021	-2.25	-2.8542	-2.9729	-2.1562	-3.0938	-2.6271	-2.2708	-3.325	440.146	188.013	212.483	211.531	451.600	498.553	346.334	282.053	393.404	193.955	431.430	499.896	290.693	507.222	442.537	451.681	0.00065223	0.00034912	9.5553e-05	523.59	3.3967e-06	3.0873e-06	625.82	157.44	3.912e-06	1.9134e-06	237.45	93.282	60.563	28.084	3.5265e-06	44.829	0.00065223	0.0006533	0.00018074	578.54	6.5581e-06	6.89e-06	690.62	174.33	6.7269e-06	7.084e-06	264.29	104.2	67.61	31.595	7.1651e-06	50.472	162.445	228.898	236.945	162.177	279.556	293.557	161.323	166.942	281.623	268.344	165.779	170.494	171.998	177.467	301.564	174.786	-8191	255	
2876.458	1	1	0	0	0.23146	0.048637	0.29918	0.24002	0.22392	0.11545	0.11825	0.21241	0.29174	0.1752	0.011002	0.1625	0.17826	0.1393	0.10592	0.17374	-1.9833	-2.7021	-2.7292	-2.2708	-3.0604	-2.6063	-2.3	-3.1708	-2.2146	-2.875	-2.9813	-2.1354	-2.8208	-2.6875	-2.1208	-3.2438	264.513	340.530	467.135	162.303	348.949	321.695	303.868	295.881	441.702	420.867	162.522	462.855	362.120	151.662	395.084	444.430	0.00065706	0.00026531	5.9441e-05	525.19	3.3286e-06	3.6035e-06	626.65	158.2	3.2504e-06	3.686e-06	237.82	94.058	60.851	28.138	2.7954e-06	44.839	0.00065372	0.00064204	0.00017493	579.8	6.3764e-06	6.8096e-06	691.64	175.23	6.7037e-06	7.1423e-06	264.94	104.45	67.73	31.663	7.016e-06	50.372	164.016	250.232	239.820	162.115	277.520	312.741	161.454	167.009	272.685	281.845	165.949	170.621	172.639	177.709	276.388	175.361	-8191	255	
2876.577	1	1	0	0	0.22947	0.061186	0.34906	0.1048	0.19109	0.27235	0.0925	0.14286	0.24568	0.16945	0.1509	0.16995	0.011169	0.047927	0.07712	0.20098	-1.9354	-2.5625	-3.0146	-2.2167	-2.7708	-2.9604	-2.0208	-3.1	-2.4854	-2.2042	-3.1625	-2.2	-2.8708	-2.8896	-2.0542	-3.1833	312.392	238.230	193.050	451.396	340.203	383.735	155.477	436.454	263.524	191.213	447.132	471.728	171.726	210.646	427.708	436.511	0.00065046	0.00018895	6.8547e-05	524.39	2.1746e-06	2.7521e-06	622.37	157.14	1.6697e-06	3.8758e-06	237.5	93.389	60.502	28.003	2.2238e-06	44.556	0.00063688	0.00064402	0.00017512	577.38	6.2629e-06	6.9002e-06	687.04	173.74	6.602e-06	7.1587e-06	263.73	103.91	67.466	31.47	7.067e-06	50.202	164.072	239.939	238.042	162.449	290.084	282.088	161.898	167.418	268.348	308.347	166.456	171.009	172.629	178.022	290.270	175.591	-8191	255	
2876.673	1	1	0	0	0.19495	0.15152	0.16817	0.17975	0.30376	0.15831	0.18052	0.1053	0.14127	0.19559	0.2436	0.33398	0.087809	0.15309	0.17407	0.037507	-2.1437	-2.4854	-3.1146	-2.25	-2.8729	-2.9437	-2.2771	-3.2	-2.6562	-2.3042	-3.3479	-2.3333	-2.7458	-3.0187	-2.2583	-3.1813	281.558	290.529	234.086	499.326	454.357	464.676	495.254	505.929	454.738	327.235	481.517	404.146	351.098	447.284	269.610	211.897	0.00063615	0.00027582	7.2543e-05	527.35	2.8572e-06	3.5839e-06	626.86	157.88	2.9833e-06	3.8732e-06	239.07	94.301	61.105	28.226	3.4282e-06	44.862	0.00063552	0.00063782	0.00017478	579.81	6.2754e-06	6.7879e-06	692.28	175.07	6.3572e-06	7.0986e-06	265.89	104.89	67.975	31.65	7.0132e-06	50.467	162.904	232.626	237.507	162.875	284.308	303.512	161.843	167.830	274.346	287.978	166.251	170.763	172.638	177.698	289.303	175.516	-8191	255	
2876.770	1	1	0	0	0.52878	0.19348	0.10223	0.36123	0.070772	0.15239	0.21761	0.055935	0.28524	0.20976	0.22034	0.17919	0.12327	0.18093	0.090407	0.15603	-2.3187	-2.1729	-3.1021	-2.2896	-2.7729	-3.0792	-2.3021	-2.9854	-2.8646	-2.1708	-3.1646	-2.5167	-2.4604	-3.0625	-2.1771	-3.0563	255.262	424.109	416.360	179.419	165.553	509.543	440.331	389.905	493.223	391.545	490.639	372.219	224.887	478.268	193.011	184.498	0.00064861	0.00034464	7.8096e-05	529.77	2.8155e-06	2.8283e-06	630.27	160.03	3.6268e-06	2.4492e-06	241.42	94.834	61.551	28.258	3.4997e-06	45.141	0.00063403	0.00063617	0.00017283	585.5	6.3129e-06	6.7759e-06	697.4	176.8	6.2829e-06	7.177e-06	267.64	105.61	68.447	31.873	7.034e-06	50.792	163.761	239.090	251.419	162.919	278.037	332.823	162.025	167.544	280.344	310.781	166.478	170.899	172.535	178.053	283.948	175.609	-8191	255	
2876.866	1	1	0	0	0.13704	0.10181	0.04785	0.30935	0.040451	0.29753	0.11341	0.2386	0.11602	0.21402	0.12207	0.11729	0.1906	0.19374	0.1664	0.11656	-2.4708	-2.1375	-3.0938	-2.4521	-2.3292	-2.9938	-2.4792	-2.8146	-2.8979	-2.3667	-3.2354	-2.5604	-2.4646	-3.3417	-2.3271	-2.8438	266.717	334.527	473.653	171.051	452.321	159.455	195.492	444.194	475.627	382.700	407.909	449.546	490.478	164.158	248.859	404.569	0.00064001	0.00022789	0.000105	532.3	3.5755e-06	4.4406e-06	625.44	158.89	3.4339e-06	2.9599e-06	239.12	93.842	60.924	27.918	3.0161e-06	44.482	0.00063388	0.00064423	0.00017422	587.09	6.4399e-06	6.6847e-06	696.32	176.2	6.1944e-06	7.1849e-06	266.73	105.19	68.238	31.642	6.8327e-06	50.403	163.089	264.027	246.864	162.910	283.315	297.313	162.630	168.073	270.346	295.163	166.893	171.543	173.273	178.826	285.824	176.286	-8191	255	
2876.962	1	1	0	0	0.16677	0.1437	0.17289	0.26876	0.16479	0.34413	0.14607	0.17777	0.28218	0.1059	0.10223	0.13782	0.26022	0.17317	0.10358	0.28598	-2.5958	-2.2604	-3.0458	-2.7062	-2.4646	-3.1458	-2.3271	-2.675	-2.8438	-2.3229	-3.0792	-2.9688	-2.2667	-3.1729	-2.2438	-2.725	243.947	225.925	480.408	498.986	191.659	321.765	432.424	468.499	419.418	277.340	509.298	163.147	461.186	214.505	343.866	501.298	0.00065433	0.00033828	9.5759e-05	528.86	2.4944e-06	2.0715e-06	624.39	158.27	3.7731e-06	2.2151e-06	239.36	93.672	61.08	28.23	3.0378e-06	44.792	0.00063224	0.00063195	0.00016758	586.58	6.3274e-06	6.7375e-06	697.68	176.66	6.1612e-06	7.0379e-06	267.69	105.13	68.345	31.766	6.8041e-06	50.613	163.571	241.511	233.021	163.381	282.032	318.148	162.893	168.177	264.708	326.361	166.986	171.380	173.164	178.547	301.743	176.067	-8191	255	
2877.056	1	1	0	0	0.10701	0.19625	0.12491	0.030552	0.32618	0.14905	0.19231	0.27979	0.12173	0.39518	0.16894	0.13142	0.14496	0.13254	0.069138	0.019537	-2.7333	-2.1292	-2.9354	-2.7812	-2.2396	-3.2146	-2.3375	-2.5604	-3.1375	-2.2896	-2.7875	-2.9062	-2.1063	-3.2875	-2.6458	-2.5104	455.631	339.882	162.979	436.906	255.479	494.243	423.983	452.289	195.560	218.508	398.737	216.271	214.537	278.513	496.587	400.090	0.00065484	0.00030815	9.7486e-05	533.45	2.2975e-06	4.1875e-06	636.42	159.56	3.1435e-06	2.8745e-06	241.81	95.06	61.458	28.264	2.7832e-06	45.308	0.00062814	0.00061999	0.0001648	589.09	6.2384e-06	6.7483e-06	703.01	177.37	6.3698e-06	7.0482e-06	269.35	105.92	68.532	31.847	6.8164e-06	50.907	164.044	229.477	226.775	162.868	277.071	285.807	162.152	168.099	286.926	313.322	166.816	171.265	172.598	177.777	268.360	175.502	-8191	255	
2877.154	1	1	0	0	0.39173	0.20673	0.1761	0.13766	0.17109	0.20109	0.068057	0.11268	0.073152	0.14251	0.13896	0.1557	0.22515	0.26527	0.13538	0.14676	-2.7604	-2.1813	-2.7542	-2.8833	-2.0625	-3.175	-2.7042	-2.3208	-3.1354	-2.1813	-2.9833	-2.9667	-2.2229	-2.9583	-2.55	-2.3917	331.574	344.524	434.766	440.515	150.707	308.374	366.946	452.845	307.161	395.984	354.354	272.251	181.246	170.564	471.859	494.731	0.00065793	0.00044682	8.7355e-05	533.87	1.7606e-06	3.0591e-06	636.77	160.83	3.2133e-06	3.6274e-06	241.56	94.713	61.318	28.312	2.9335e-06	45.214	0.0006332	0.00063152	0.00016924	589.32	6.3592e-06	6.7237e-06	702.72	177.62	6.3814e-06	6.9996e-06	269.01	105.82	68.602	31.949	6.6129e-06	50.801	163.367	233.964	243.550	162.804	267.499	305.793	162.154	167.801	274.469	296.545	166.760	171.407	173.115	178.801	288.526	175.899	-8191	255	
2877.273	1	1	0	0	0.03257	0.11248	0.20806	0.098857	0.22858	0.051396	0.028269	0.29117	0.095442	0.18606	0.10318	0.079888	0.16603	0.17013	0.24919	0.056349	-2.7583	-2.5187	-2.5583	-3.1625	-2.3854	-3.0208	-2.7583	-2.2562	-3.0875	-2.4229	-2.5958	-2.9917	-2.125	-3.0438	-2.8604	-2.425	294.674	411.036	182.385	243.362	249.669	464.472	248.878	430.402	363.885	309.621	401.381	454.005	283.049	442.027	395.537	425.822	0.00065615	0.00031056	7.5908e-05	532.47	3.345e-06	3.524e-06	631.54	159.87	4.3088e-06	3.4365e-06	242.7	95.133	61.861	28.551	3.319e-06	45.342	0.00063676	0.00061236	0.00016878	589.93	6.3556e-06	6.7345e-06	702.31	177.64	6.266e-06	6.8726e-06	269.67	106.04	68.757	32.012	6.7295e-06	50.984	163.174	248.508	245.328	163.404	268.901	310.414	162.311	167.965	272.454	291.888	166.487	171.221	172.942	177.910	285.166	175.238	-8191	255	
2877.369	1	1	0	0	0.28732	0.22945	0.1222	0.29661	0.088747	0.084378	0.047188	0.10908	0.13116	0.17579	0.15501	0.20477	0.11766	0.119	0.22475	0.12144	-2.6917	-2.3667	-2.4354	-2.9583	-2.3896	-3.0042	-2.9104	-2.2833	-3.0687	-2.5958	-2.5062	-3.2604	-2.1792	-2.9208	-2.9958	-2.1917	477.265	439.340	174.529	442.004	338.820	419.666	163.189	476.317	371.525	400.222	458.034	450.628	496.779	221.999	501.034	454.958	0.00065162	0.00032447	8.8026e-05	536.12	3.0894e-06	3.3426e-06	640.99	160.97	4.3285e-06	3.419e-06	242.24	95.186	61.703	28.344	3.3003e-06	45.248	0.00062442	0.00061209	0.00017021	591.81	6.3462e-06	6.6775e-06	705.62	178.14	6.2308e-06	6.7833e-06	269.74	106.19	68.767	31.936	6.6359e-06	50.87	163.089	252.913	248.831	162.527	282.206	294.583	161.997	167.641	273.661	299.416	167.016	171.166	172.943	178.361	295.629	175.699	-8191	255	
2877.465	1	1	0	0	0.13344	0.13896	0.30433	0.085504	0.19366	0.07698	0.1897	0.20706	0.071141	0.17994	0.19763	0.20552	0.12614	0.053488	0.12225	0.32111	-2.6479	-2.6354	-2.3083	-3.1271	-2.175	-2.7375	-3.1479	-2.4125	-3.0687	-2.7375	-2.275	-3.0146	-2.3021	-2.5208	-2.9313	-2.2854	227.903	200.225	188.020	307.272	176.746	419.975	210.680	480.425	195.075	249.547	179.407	354.857	180.791	508.290	271.638	166.628	0.00065862	0.00031281	7.7116e-05	536.77	2.4852e-06	2.7044e-06	639.03	161.48	4.2046e-06	2.1399e-06	243.51	95.76	62.051	28.411	3.2775e-06	45.381	0.00062856	0.00060494	0.00017055	591.86	6.3228e-06	6.7231e-06	706.26	178.59	6.3993e-06	6.7791e-06	271.31	106.99	69.162	32.058	6.5966e-06	51.161	163.925	227.280	241.357	162.979	274.419	286.935	162.205	167.699	279.796	281.319	166.967	171.306	172.915	178.686	295.437	175.890	-8191	255	
2877.561	1	1	0	0	0.04651	0.21748	0.23554	0.17829	0.096164	0.039705	0.14575	0.18214	0.050595	0.22257	0.067232	0.27027	0.062729	0.034229	0.10113	0.17826	-2.6875	-2.5917	-2.2313	-3.0146	-2.4979	-2.5479	-3.1625	-2.3792	-2.9271	-2.8458	-2.3396	-3.0417	-2.5563	-2.4625	-3.0833	-2.275	381.617	351.226	271.263	387.877	268.917	236.662	420.864	377.242	347.021	172.934	174.507	509.414	454.529	492.565	373.879	486.614	0.00064919	0.00028873	6.0324e-05	535.4	3.1171e-06	3.2197e-06	639.36	160.49	3.0954e-06	3.1226e-06	242.25	94.729	61.483	28.302	3.6372e-06	45.102	0.00062085	0.00059955	0.00017876	591.95	6.3025e-06	6.6853e-06	705.17	177.83	6.1396e-06	6.8356e-06	269.31	105.91	68.415	31.77	6.7402e-06	50.647	163.811	239.568	239.078	163.025	285.860	309.089	161.960	167.872	254.774	301.429	166.405	171.221	172.627	178.147	275.053	175.587	-8191	255	
2877.658	1	1	0	0	0.1269	0.22955	0.23067	0.19062	0.11665	0.20739	0.21993	0.13154	0.10488	0.15951	0.11184	0.16393	0.16182	0.24008	0.29078	0.10207	-2.5312	-2.7062	-2.2229	-3.0021	-2.3667	-2.4396	-3.0854	-2.3146	-2.8042	-2.9667	-2.2354	-3.1937	-2.4917	-2.4688	-3.2667	-2.2646	356.903	255.424	412.723	462.484	313.277	250.024	466.155	323.793	461.003	400.730	444.481	287.430	418.575	150.155	292.708	166.906	0.00065257	0.00030947	8.522e-05	531.31	2.8912e-06	3.0616e-06	634.07	159.54	4.1185e-06	1.9353e-06	242.89	95.478	61.49	28.282	2.9442e-06	45.295	0.00062222	0.00060515	0.00017023	586.83	6.1151e-06	6.5364e-06	701.13	176.78	6.305e-06	6.7153e-06	269.06	106.18	68.508	31.907	6.5955e-06	50.886	163.155	240.534	241.938	162.984	281.536	317.755	162.365	167.742	268.285	325.191	166.611	170.977	172.561	177.961	275.634	175.671	-8191	255	
2877.754	1	1	0	0	0.14583	0.27944	0.12611	0.044706	0.32683	0.067709	0.26482	0.036644	0.16145	0.22711	0.038445	0.080721	0.18218	0.25316	0.1106	0.21939	-2.4208	-2.9062	-2.1979	-3.0896	-2.6854	-2.4146	-3.2833	-2.3396	-2.65	-2.8625	-2.1208	-3.0625	-2.7812	-2.4	-3.2479	-2.4583	417.709	311.969	155.498	365.721	172.043	247.958	422.125	238.498	366.725	264.419	230.790	269.513	487.832	429.253	346.369	163.014	0.00066408	0.00026187	6.9734e-05	532.78	3.0783e-06	2.4612e-06	635.37	160.4	3.228e-06	4.5707e-06	243.16	95.894	61.818	28.566	2.7591e-06	45.625	0.00062537	0.00060793	0.00017388	586.06	6.2749e-06	7.0046e-06	701.48	177.59	6.2629e-06	6.9917e-06	269.57	106.57	68.806	32.047	6.8534e-06	51.201	163.389	252.970	244.861	163.133	266.643	299.261	162.008	167.414	291.933	291.477	166.458	170.773	172.490	178.160	292.781	175.383	-8191	255	
2877.874	1	1	0	0	0.091615	0.16874	0.23782	0.19617	0.21121	0.047584	0.15835	0.33201	0.14945	0.20813	0.21069	0.13687	0.093535	0.16291	0.1694	0.1231	-2.2812	-2.8917	-2.3167	-3.1063	-2.7938	-2.3	-3.2167	-2.5958	-2.4313	-2.9833	-2.2167	-2.9188	-2.9917	-2.2375	-3.0563	-2.5812	349.282	471.946	381.243	485.037	365.511	315.922	342.045	438.769	300.640	429.387	466.106	167.653	236.416	190.864	218.609	160.604	0.00065694	0.0002157	0.00010658	532.71	3.0043e-06	3.242e-06	636.89	159.9	3.7224e-06	3.2279e-06	243.13	95.735	61.681	28.229	2.7942e-06	45.064	0.00063882	0.00062192	0.00017344	587.49	6.1676e-06	6.9266e-06	702.99	177.6	6.3098e-06	6.8714e-06	269.6	106.62	68.601	31.83	6.5462e-06	50.807	163.362	242.021	244.406	163.109	259.836	313.251	162.235	167.753	271.833	325.642	165.915	171.076	172.401	178.525	297.260	175.855	-8191	255	
2877.969	1	1	0	0	0.0853	0.11452	0.25276	0.096704	0.20273	0.20719	0.25968	0.26323	0.084052	0.12854	0.093473	0.44283	0.30194	0.10371	0.14179	0.18596	-1.9708	-3.1125	-2.2979	-2.7562	-3.0604	-2.3896	-3.2229	-2.6583	-2.2438	-3.2542	-2.4062	-2.8208	-2.9521	-2.1958	-2.9292	-2.6875	176.543	195.352	439.093	437.388	489.494	448.398	394.966	194.888	241.822	497.326	466.432	367.343	165.020	173.743	321.080	350.916	0.00065016	0.00034383	9.191e-05	528.12	3.1528e-06	3.7833e-06	629.38	158.65	4.0393e-06	2.2367e-06	240.7	94.885	61.247	28.155	3.3252e-06	44.718	0.00062442	0.00059437	0.00017078	581.88	6.3368e-06	6.9518e-06	696.39	175.92	6.4467e-06	6.7208e-06	267.06	105.32	68.115	31.567	6.5737e-06	50.282	165.120	244.693	265.392	162.880	280.792	291.969	161.890	167.558	273.957	312.456	166.209	171.063	172.298	178.041	280.885	175.259	-8191	255	
2878.065	1	1	0	0	0.12786	0.017159	0.090846	0.26713	0.046237	0.081678	0.26548	0.29536	0.0902	0.25378	0.18117	0.11089	0.033989	0.20185	0.10844	0.051199	-1.9021	-2.9958	-2.4208	-2.5854	-2.9479	-2.2208	-3.0687	-2.6229	-2.1083	-3.0667	-2.3896	-2.5167	-2.9938	-2.0896	-2.9167	-2.7313	222.355	255.474	456.225	371.641	360.605	338.453	450.106	480.368	464.888	240.508	299.545	344.177	437.372	324.794	183.973	287.410	0.00063031	0.00036283	8.2358e-05	527.23	3.3806e-06	4.4242e-06	630.57	157.87	3.049e-06	2.9634e-06	240.34	94.517	61.144	28.064	2.6802e-06	44.961	0.00062758	0.0006028	0.00016749	580.43	6.1312e-06	6.7627e-06	694.38	175.05	6.3356e-06	6.852e-06	267.15	105.35	67.989	31.533	6.6387e-06	50.512	162.939	220.017	260.440	162.527	292.001	304.677	161.718	167.393	276.398	301.992	166.182	170.843	172.218	178.071	282.574	175.201	-8191	255	
2878.161	1	1	0	0	0.13274	0.16103	0.11253	0.16728	0.14863	0.16703	0.090321	0.15102	0.24336	0.11147	0.11276	0.097895	0.25349	0.14746	0.35208	0.23155	-1.8125	-2.8458	-2.6417	-2.6021	-3.1104	-2.3479	-2.9583	-2.8458	-2.2208	-3.3146	-2.6042	-2.3292	-2.9896	-2.3667	-2.7687	-2.8167	382.536	310.530	314.085	301.301	326.822	284.785	214.838	229.711	475.653	412.400	269.939	438.910	188.110	434.555	505.424	468.627	0.00066861	0.00031897	9.2697e-05	528.22	3.3864e-06	2.4468e-06	632.05	159.39	2.933e-06	3.4969e-06	241.47	95.084	61.35	28.241	2.7501e-06	45.2	0.00064417	0.00059149	0.00016996	582.97	6.0948e-06	7.0359e-06	698.66	176.28	6.4509e-06	6.7943e-06	268.48	106.1	68.414	31.741	6.6252e-06	50.948	164.036	247.725	266.320	162.584	293.167	290.691	161.711	167.299	276.380	304.442	166.052	170.595	172.436	177.811	269.890	175.193	-8191	255	
2878.257	1	1	0	0	0.10918	0.19382	0.18748	0.18694	0.27859	0.055841	0.097787	0.31619	0.21032	0.12768	0.22242	0.30468	0.097361	0.27603	0.1256	0.29811	-1.8708	-2.9813	-2.6688	-2.3417	-3.0687	-2.125	-2.7521	-3.0625	-2.1333	-3.125	-2.6437	-2.2542	-3.1688	-2.2854	-2.5458	-3.1479	408.589	399.944	360.187	358.672	412.023	321.677	247.833	487.470	167.867	366.893	413.486	157.868	264.102	443.300	386.733	361.314	0.00064147	0.00031303	7.6604e-05	534.74	2.5314e-06	2.3552e-06	638.12	160.43	2.345e-06	4.3374e-06	241.87	95.799	61.592	28.321	3.0423e-06	45.229	0.00063784	0.00060788	0.00017224	589.32	6.1541e-06	7.0221e-06	705.13	177.86	6.5489e-06	6.7542e-06	269.36	106.37	68.619	31.876	6.6404e-06	50.904	164.133	235.823	229.689	162.531	285.235	304.877	161.803	167.198	278.241	302.012	166.270	170.745	172.441	177.674	285.937	175.130	-8191	255	
2878.353	1	1	0	0	0.15097	0.07601	0.18297	0.28068	0.091158	0.015357	0.095639	0.17422	0.1091	0.16878	0.095301	0.2375	0.1856	0.22116	0.099215	0.38663	-1.825	-2.8438	-2.6625	-2.4521	-3.025	-2.4229	-2.5646	-3.2042	-2.0896	-2.8854	-2.8083	-2.1979	-2.9292	-2.4771	-2.3563	-3.1542	177.520	299.077	237.684	468.214	469.826	294.154	236.047	332.595	234.621	245.885	450.466	488.574	497.844	447.884	285.089	424.826	0.00065025	0.00026748	5.4579e-05	534.18	3.413e-06	3.2163e-06	637.27	160.2	2.9059e-06	3.4928e-06	243.72	95.613	61.668	28.553	3.5172e-06	45.538	0.00063938	0.0006075	0.00016826	589.5	6.1213e-06	6.6469e-06	704.5	177.63	6.4246e-06	6.6831e-06	270.2	106.53	68.803	32.013	6.7318e-06	51.226	163.575	222.905	234.225	162.471	282.159	285.317	162.042	166.912	289.941	304.662	166.006	170.910	172.173	177.788	285.120	175.200	-8191	255	
2878.450	1	1	0	0	0.28668	0.18986	0.06715	0.2555	0.1206	0.23771	0.034372	0.12166	0.30271	0.2213	0.12623	0.077352	0.15242	0.059572	0.033715	0.18474	-1.8333	-2.85	-2.7812	-2.2771	-3.1771	-2.5146	-2.4604	-3.1333	-2.1646	-2.7146	-3.0938	-2.3167	-3	-2.4437	-2.5438	-3.3271	327.700	285.032	245.091	438.959	256.726	383.383	473.981	438.685	476.224	178.893	416.866	267.950	271.704	446.010	279.852	221.454	0.00064764	0.00034093	8.8015e-05	534.81	3.3697e-06	3.2697e-06	639.68	159.67	3.0186e-06	3.8027e-06	242.2	95.695	61.371	28.458	3.877e-06	45.548	0.00063572	0.0006107	0.0001699	589.68	6.1796e-06	6.6859e-06	704.6	177	6.3598e-06	6.7135e-06	268.98	106.46	68.461	31.938	6.7732e-06	51.247	161.277	230.265	235.327	162.764	284.564	289.379	161.959	167.420	281.969	316.329	166.088	170.754	172.228	177.893	280.428	175.193	-8191	255	
2878.546	1	1	0	0	0.34254	0.063606	0.16529	0.2425	0.082907	0.32329	0.087034	0.19748	0.041632	0.14155	0.18738	0.20447	0.047437	0.2665	0.31034	0.19499	-2.1271	-2.7354	-2.9042	-2.1042	-2.9542	-2.7625	-2.3542	-3.1542	-2.3271	-2.8	-3.0729	-2.2562	-2.9333	-2.6333	-2.2188	-3.3083	463.436	185.880	150.169	463.381	280.528	192.166	462.274	157.881	225.289	470.738	460.372	281.823	200.866	362.619	392.040	473.142	0.00063616	0.00038661	8.6182e-05	532.59	3.352e-06	2.8434e-06	635.1	159.94	3.0393e-06	4.3456e-06	242.79	96.023	61.597	28.363	2.7764e-06	45.342	0.00062415	0.00060553	0.00017073	585.93	6.101e-06	6.6733e-06	701.32	176.65	6.4103e-06	6.8423e-06	269.06	106.62	68.544	31.883	6.7144e-06	51.023	163.169	235.362	241.669	162.497	294.113	298.406	161.714	167.349	265.639	297.590	166.622	170.839	172.797	178.102	284.032	175.051	-8191	255	
2878.666	1	1	0	0	0.1462	0.080174	0.11558	0.19754	0.12254	0.33808	0.14141	0.25536	0.10503	0.35419	0.14367	0.18848	0.094196	0.26692	0.28394	0.32292	-1.9542	-2.4562	-3.0062	-2.1458	-3.0896	-2.7687	-2.2354	-3.2125	-2.3271	-2.5375	-3.0292	-2.3292	-2.7667	-2.7833	-2.2083	-3.1271	400.260	438.749	419.342	477.838	257.630	458.999	505.065	466.602	369.245	363.791	412.136	268.650	225.314	495.604	177.937	502.094	0.00066439	0.00029599	6.7544e-05	527.39	2.7679e-06	2.1776e-06	632.5	158.4	3.4491e-06	3.6012e-06	240.88	94.833	60.984	27.973	2.5222e-06	44.936	0.00063427	0.00059768	0.00016647	581.63	6.0734e-06	6.5586e-06	697.16	175.48	6.4135e-06	6.8951e-06	267.35	105.47	67.9	31.592	6.7194e-06	50.55	163.593	244.378	244.622	162.801	282.926	313.820	161.956	167.656	274.433	292.968	166.402	170.849	172.633	177.612	288.182	175.620	-8191	255	
2878.763	1	1	0	0	0.023922	0.10964	0.10546	0.048595	0.091334	0.13422	0.10374	0.21814	0.2419	0.14489	0.19663	0.023219	0.21646	0.087058	0.24347	0.047492	-2.1333	-2.45	-3.0438	-2.35	-2.7792	-2.9958	-2.3625	-3.1063	-2.3688	-2.3187	-3.2354	-2.2833	-2.9458	-2.9979	-2.3521	-3.1021	386.550	348.761	253.563	252.359	183.213	392.282	365.507	428.730	454.391	166.460	251.409	163.379	480.339	209.462	294.855	433.866	0.0006594	0.0003303	9.4931e-05	524.25	3.2238e-06	4.4298e-06	627.82	158.22	3.7786e-06	3.2937e-06	241.03	94.775	61.116	28.086	4.338e-06	44.8	0.0006271	0.00059586	0.00016927	579.53	6.1885e-06	6.5869e-06	694.57	175	6.2845e-06	6.773e-06	267.47	105.45	67.94	31.546	6.7004e-06	50.572	162.290	241.817	237.855	162.510	280.416	305.940	162.184	167.642	285.548	306.791	166.187	170.697	172.172	177.712	276.670	175.132	-8191	255	
2878.834	1	1	0	0	0.44408	0.1302	0.016425	0.17466	0.28072	0.11306	0.1647	0.14915	0.17806	0.2258	0.084637	0.14192	0.075483	0.21523	0.070788	0.19832	-2.2958	-2.2854	-3.1458	-2.5687	-2.6042	-3.025	-2.4021	-3.0521	-2.7854	-2.3271	-3.1583	-2.4854	-2.4292	-3.0229	-2.1083	-3.0083	451.634	214.406	405.588	400.977	218.979	190.381	397.179	422.745	386.319	480.631	502.824	409.647	353.164	408.648	426.828	253.511	0.00065766	0.00025344	8.2889e-05	526.46	2.9378e-06	2.6574e-06	628.38	157.65	2.7945e-06	3.2809e-06	241.74	94.874	61.15	28.148	2.8943e-06	45.014	0.00061461	0.00060916	0.00016084	579.15	6.0167e-06	6.5761e-06	695.5	174.84	6.2255e-06	6.9577e-06	268.01	105.85	67.967	31.565	6.7217e-06	50.619	163.995	235.959	229.820	162.817	289.787	310.146	161.921	167.559	263.969	296.354	166.148	170.905	172.836	178.210	274.921	175.571	-8191	255	
2878.955	1	1	0	0	0.30077	0.15549	0.29838	0.1363	0.39237	0.088556	0.011385	0.22996	0.16313	0.10705	0.074583	0.19343	0.065428	0.24721	0.077688	0.17976	-2.4771	-2.0979	-3.0146	-2.5708	-2.6188	-3.0958	-2.3583	-2.7229	-2.9208	-2.1792	-3.2	-2.5167	-2.4208	-3.1208	-2.275	-2.7708	245.410	299.095	194.086	336.265	330.879	203.000	329.485	190.326	173.178	286.858	175.880	236.297	233.466	503.142	342.971	451.835	0.00061809	0.00043325	8.6006e-05	525.72	3.8938e-06	3.7612e-06	631.78	157.58	4.4058e-06	2.3585e-06	241.57	95.026	61.117	28.112	3.8243e-06	45.11	0.00061089	0.0006233	0.00016233	579.23	6.0484e-06	6.5604e-06	695.96	174.93	6.1749e-06	6.8981e-06	268.14	105.62	68.049	31.617	6.5041e-06	50.67	161.764	230.180	250.449	162.743	279.356	301.629	162.376	167.681	281.301	306.307	166.402	170.869	172.621	178.014	287.772	175.612	-8191	255	
2879.049	1	1	0	0	0.20311	0.21931	0.23615	0.23904	0.36441	0.15332	0.30351	0.13525	0.12517	0.059231	0.2469	0.14364	0.048602	0.097976	0.25614	0.24197	-2.3417	-2.1271	-2.8958	-2.6104	-2.3292	-3.1437	-2.3354	-2.725	-2.9417	-2.0896	-2.8667	-2.85	-2.4125	-3.0167	-2.4208	-2.7125	282.229	213.589	197.520	454.261	361.854	205.283	376.103	341.512	428.684	320.723	188.124	304.256	456.586	498.053	491.430	465.600	0.0006418	0.0002753	6.9404e-05	528.68	2.5876e-06	3.6588e-06	635.37	159.95	3.5413e-06	2.8892e-06	243.32	96.124	61.891	28.506	3.0941e-06	45.501	0.0006094	0.00061909	0.00016505	584.56	6.1484e-06	6.5214e-06	703.01	176.89	6.1591e-06	6.6782e-06	270.06	106.72	68.782	31.957	6.5131e-06	51.122	162.485	242.738	242.226	162.888	274.561	302.661	162.045	167.629	278.024	285.694	166.605	170.894	172.710	177.939	284.260	175.692	-8191	255	
2879.145	1	1	0	0	0.086499	0.22051	0.24679	0.12149	0.067347	0.2467	0.12928	0.2671	0.15914	0.084111	0.22809	0.13723	0.28223	0.079345	0.25678	0.19014	-2.6896	-2.1229	-2.8479	-2.8229	-2.1937	-3.1292	-2.5875	-2.5875	-3.0229	-2.3208	-3.0104	-3	-2.1854	-3.1354	-2.525	-2.5	478.600	414.405	171.143	220.267	286.133	197.494	352.477	422.500	291.194	275.965	149.588	408.721	162.445	449.581	236.865	368.183	0.00065821	0.00026505	7.5383e-05	536.48	3.3048e-06	3.5544e-06	644.11	161.59	3.4831e-06	2.6346e-06	245.72	96.641	62.144	28.514	2.9983e-06	45.661	0.00061232	0.00060478	0.00015951	591.63	6.2213e-06	6.3882e-06	709.17	178.88	6.1175e-06	6.6679e-06	272.28	107.3	69.088	32.088	6.4088e-06	51.411	164.357	254.115	230.229	162.777	279.023	307.181	161.992	167.484	283.852	331.319	166.385	170.756	172.446	177.856	284.128	175.473	-8191	255	
2879.266	1	1	0	0	0.09605	0.14827	0.13462	0.063346	0.21349	0.20593	0.20012	0.11608	0.097596	0.11608	0.21343	0.12138	0.32191	0.21116	0.1064	0.36067	-2.7667	-2.2208	-2.7354	-2.8812	-2.1833	-2.8542	-2.5187	-2.4146	-2.9458	-2.1792	-2.7083	-2.7875	-2.2188	-3.0292	-2.7271	-2.4604	304.914	152.844	286.195	153.192	278.293	259.336	412.071	378.781	236.274	284.109	422.538	426.231	410.630	337.136	199.871	498.138	0.00064522	0.00031418	8.6631e-05	540.45	3.7226e-06	4.2284e-06	649.64	163.55	3.9917e-06	4.0861e-06	249.35	98	63.04	28.988	3.249e-06	46.498	0.00061401	0.00061813	0.00016267	595.55	6.3535e-06	6.4716e-06	717.02	181.2	6.1865e-06	6.8101e-06	276.26	108.92	70.176	32.599	6.5484e-06	52.215	163.657	224.123	234.684	162.623	278.164	303.137	162.145	167.567	266.603	304.977	166.477	170.759	172.366	177.996	283.489	175.467	-8191	255	
2879.362	1	1	0	0	0.24373	0.3103	0.15597	0.066154	0.097988	0.15361	0.095234	0.15557	0.17781	0.13346	0.10676	0.1711	0.16735	0.15215	0.32185	0.11346	-2.6312	-2.2729	-2.6104	-3.0583	-2.2	-2.8063	-2.6083	-2.3646	-3.15	-2.35	-2.6813	-3.1042	-2.1229	-3.0542	-2.6958	-2.3104	242.816	456.052	182.878	267.913	445.390	314.180	185.393	176.513	284.609	470.047	169.258	480.681	434.237	470.522	401.387	154.775	0.0006721	0.00026325	6.1548e-05	544.52	3.0181e-06	3.3311e-06	648.71	162.95	3.3386e-06	3.8162e-06	246.1	96.688	62.272	28.558	3.8605e-06	45.458	0.00063091	0.00059768	0.0001634	600.05	6.1307e-06	6.3966e-06	715.23	180.57	6.0854e-06	6.7432e-06	273.22	107.6	69.218	32.028	6.6297e-06	51.127	164.114	226.090	237.823	162.538	284.086	300.945	161.926	167.411	272.147	291.694	166.755	171.155	172.957	178.470	284.710	175.561	-8191	255	
2879.434	1	1	0	0	0.20236	0.094016	0.14179	0.1623	0.37857	0.020062	0.14332	0.10063	0.19779	0.15495	0.059799	0.28186	0.20123	0.07961	0.071331	0.054664	-2.725	-2.3292	-2.4125	-3.0896	-2.2042	-2.7542	-2.9271	-2.1042	-3.0083	-2.5687	-2.6167	-3.1292	-2.2521	-2.9021	-2.8458	-2.2271	162.230	457.412	405.930	499.695	348.436	226.766	366.183	289.789	365.418	364.905	365.228	162.582	211.371	338.639	150.481	424.177	0.00066084	0.00036714	9.4971e-05	534.16	2.2802e-06	5.4991e-06	637.68	160.69	3.3564e-06	3.5233e-06	244.18	96.132	61.557	28.277	3.6855e-06	45.329	0.00062463	0.00059976	0.00016857	588.47	6.4571e-06	6.7903e-06	704.91	177.77	6.1028e-06	6.8143e-06	271.12	106.92	68.595	31.76	6.5781e-06	50.953	164.194	243.089	238.849	162.940	293.076	286.887	162.415	167.732	277.898	312.624	166.583	170.933	172.571	178.069	285.812	175.467	-8191	255	
2879.554	1	1	0	0	0.037309	0.19216	0.05238	0.10163	0.16995	0.13942	0.33374	0.28497	0.30355	0.042507	0.058644	0.092011	0.27459	0.060348	0.21049	0.24881	-2.7354	-2.5625	-2.4083	-2.9771	-2.3771	-2.7188	-2.9813	-2.2562	-3.1604	-2.7812	-2.2542	-3.2729	-2.3042	-2.5667	-3.1042	-2.1083	283.119	179.427	437.437	341.291	484.795	262.453	435.446	481.858	199.353	317.283	154.020	274.572	437.279	356.282	331.943	497.454	0.00066045	0.0003316	7.2863e-05	533.82	3.0791e-06	4.0159e-06	642.13	161.02	3.4177e-06	2.4925e-06	245.77	96.2	62.194	28.428	3.6496e-06	45.818	0.00062998	0.00060302	0.00016869	588.53	6.227e-06	6.5166e-06	707.84	178.2	6.2418e-06	6.7912e-06	272.32	107.41	68.953	31.954	6.5266e-06	51.429	163.186	239.795	259.307	162.751	282.034	298.090	162.127	167.667	275.867	288.525	166.353	170.497	172.257	178.042	284.856	175.712	-8191	255	
2879.651	1	1	0	0	0.23155	0.31857	0.060362	0.14034	0.29306	0.056482	0.1616	0.43521	0.065318	0.050173	0.066283	0.11856	0.2842	0.31331	0.12475	0.23054	-2.5104	-2.6312	-2.3187	-3.0833	-2.2104	-2.7271	-3.125	-2.3187	-2.9875	-2.8563	-2.1813	-3.3438	-2.4583	-2.5479	-2.8979	-2.2625	411.518	196.081	322.266	387.446	388.659	509.228	383.176	361.339	392.005	213.815	241.521	174.324	472.497	482.445	508.750	209.039	0.00066944	0.00018318	8.2604e-05	534.83	2.746e-06	3.0176e-06	643.15	161.22	2.9627e-06	4.5644e-06	245.5	96.7	61.737	28.495	3.9823e-06	45.409	0.0006315	0.00060841	0.00017163	590.64	6.3108e-06	6.6427e-06	708.43	178.45	6.097e-06	6.6977e-06	272.25	107.2	68.826	31.897	6.7435e-06	51.078	163.571	232.220	261.145	162.452	282.092	301.221	161.620	167.509	281.978	297.032	166.284	170.827	172.312	177.907	286.162	175.020	-8191	255	
2879.747	1	1	0	0	0.17222	0.20092	0.044968	0.11897	0.16852	0.068419	0.16723	0.27091	0.16897	0.13956	0.086512	0.10069	0.1459	0.34678	0.16603	0.18837	-2.4167	-2.7292	-2.1083	-3.1146	-2.5083	-2.4813	-3.1437	-2.1896	-2.6792	-2.8208	-2.3042	-3.0458	-2.5271	-2.5	-2.9625	-2.075	506.794	428.076	284.045	458.456	508.663	288.448	459.091	463.969	168.615	293.149	363.019	470.897	466.514	449.999	434.461	394.486	0.00067393	0.00026401	6.4361e-05	537.33	2.1903e-06	3.4525e-06	644.7	161.63	3.8206e-06	2.4369e-06	246.61	96.801	62.7	28.599	3.1261e-06	45.993	0.00062564	0.0006051	0.00017418	591.54	6.2124e-06	6.929e-06	711.74	179.5	6.1718e-06	6.8076e-06	274.32	107.97	69.611	32.257	6.3528e-06	51.7	163.283	242.237	267.612	162.356	280.721	312.781	161.510	166.798	289.914	303.717	165.714	170.025	171.467	177.031	285.085	174.521	-8191	255	
2879.843	1	1	0	0	0.074239	0.054862	0.058912	0.034327	0.02575	0.20508	0.24194	0.054321	0.11083	0.11354	0.29653	0.061733	0.14103	0.28082	0.11556	0.0036905	-2.1667	-2.9604	-2.2	-2.9188	-2.6271	-2.1771	-3.1354	-2.5208	-2.625	-2.9771	-2.2417	-2.975	-2.6458	-2.3646	-3.0125	-2.4688	474.317	164.173	214.365	263.943	214.736	294.592	357.119	222.002	413.315	263.650	364.169	463.874	248.982	446.262	264.002	315.086	0.00067013	0.00033567	6.7031e-05	547.66	3.5524e-06	3.4508e-06	653.59	164.73	3.363e-06	3.5101e-06	248.82	97.424	62.634	28.63	4.7358e-06	45.527	0.00063751	0.00060675	0.00017332	603.16	6.1151e-06	6.7453e-06	721.69	182.7	6.3335e-06	7.0026e-06	276.5	108.38	69.791	32.127	6.7267e-06	51.317	161.831	238.698	248.142	162.059	289.422	300.655	161.158	166.461	276.444	301.408	165.620	170.334	171.583	177.207	283.839	174.543	-8191	255	
2879.962	1	1	0	0	0.19306	0.12082	0.15708	0.17667	0.22978	0.17555	0.22308	0.18126	0.032209	0.08484	0.015951	0.17268	0.2038	0.12735	0.071443	0.040436	-2.0917	-3.0062	-2.1229	-2.9542	-2.6167	-2.2458	-3.1917	-2.3563	-2.4792	-3.2708	-2.2146	-3.0271	-3.05	-2.3187	-3.0854	-2.6854	424.853	494.226	429.445	471.194	471.206	407.629	408.106	249.953	311.471	492.604	506.248	485.150	411.867	159.831	189.135	172.135	0.0006528	0.00031041	6.6021e-05	541.43	2.6573e-06	3.4441e-06	643.61	162.87	3.089e-06	2.8973e-06	246.75	96.692	62.333	28.444	3.5896e-06	45.583	0.00062948	0.00061652	0.00017474	596.49	6.1843e-06	6.8972e-06	712.62	180.37	6.3677e-06	6.6564e-06	274.45	107.87	69.311	31.928	6.6208e-06	51.295	163.376	229.300	253.592	162.188	278.311	294.891	161.254	166.840	273.339	297.351	165.465	170.107	171.503	177.116	299.096	174.555	-8191	255	
2880.058	1	1	0	0	0.076786	0.10031	0.2403	0.11104	0.34591	0.13388	0.10054	0.052169	0.053264	0.17607	0.23527	0.032005	0.16213	0.05673	0.17154	0.27624	-2.0938	-3.025	-2.1312	-2.7792	-2.9104	-2.1354	-3.1063	-2.4229	-2.3563	-2.9792	-2.3479	-2.7375	-2.8896	-2.1292	-2.925	-2.55	444.131	480.743	406.629	258.943	300.396	365.825	446.778	404.396	165.331	266.694	488.555	447.345	463.903	499.926	506.659	492.796	0.00065491	0.00022953	9.6752e-05	540.29	2.7108e-06	3.2989e-06	646.26	163.43	3.9436e-06	3.6087e-06	247.44	96.878	62.406	28.405	3.5789e-06	45.388	0.00064054	0.00061321	0.00017114	595.36	6.1692e-06	6.7807e-06	714.7	181.16	6.4862e-06	6.7366e-06	275.04	108.01	69.628	32.002	6.7889e-06	51.193	163.482	221.415	256.362	162.098	289.514	274.542	161.310	166.353	271.235	305.768	165.643	170.140	171.790	177.187	281.786	174.599	-8191	255	
2880.130	1	1	0	0	0.14549	0.17699	0.18956	0.22888	0.033364	0.1259	0.22623	0.10066	0.087025	0.076962	0.27179	0.10049	0.20645	0.253	0.10085	0.23831	-1.8583	-3.1875	-2.3958	-2.6958	-3.0708	-2.1479	-2.8896	-2.6708	-2.2146	-2.9437	-2.3312	-2.65	-2.9917	-2.2771	-2.8937	-2.9333	188.939	326.557	369.997	160.655	259.486	457.114	419.597	282.718	263.146	440.514	448.702	340.397	155.277	490.005	207.101	409.931	0.00067501	0.00020457	0.00010618	543.82	3.2468e-06	3.7475e-06	649.96	163.74	3.263e-06	3.4331e-06	249.29	97.082	62.395	28.422	3.1033e-06	45.443	0.0006541	0.00061124	0.00017576	600.93	6.2301e-06	7.228e-06	719.28	181.96	6.5615e-06	6.8392e-06	276.09	108.03	69.536	31.927	6.6168e-06	51.151	162.181	235.949	242.345	161.894	285.745	292.279	161.250	166.433	267.563	295.108	165.633	170.154	171.457	177.213	269.976	174.502	-8191	255	
2880.227	1	1	0	0	0.2	0.084187	0.092429	0.026525	0.065589	0.39922	0.15987	0.19407	0.32069	0.12725	0.36833	0.14272	0.24369	0.065699	0.12516	0.23655	-1.8438	-3.175	-2.3312	-2.5292	-3.0417	-2.1354	-3.0104	-2.7562	-2.2687	-2.9979	-2.6979	-2.4938	-3.1146	-2.3625	-2.4729	-3.0208	185.089	455.381	233.866	479.353	209.562	438.513	477.137	168.520	472.958	435.544	483.911	427.220	466.505	476.762	243.179	427.975	0.00064729	0.00030069	8.9613e-05	543.62	2.8724e-06	2.8924e-06	652.83	163.85	2.7355e-06	1.8552e-06	248.69	97.081	62.491	28.363	3.4179e-06	45.55	0.00063977	0.00061818	0.00017253	599.98	6.1296e-06	7.0647e-06	718.95	181.39	6.384e-06	6.9656e-06	275.77	108.13	69.483	31.893	6.6252e-06	51.181	161.937	245.625	232.745	162.076	300.800	309.786	161.358	166.477	252.026	300.038	165.528	170.111	171.791	177.029	298.253	174.656	-8191	255	
2880.346	1	1	0	0	0.18713	0.1359	0.11882	0.20825	0.23766	0.22704	0.17761	0.2405	0.068282	0.15992	0.18275	0.2375	0.10177	0.13574	0.13457	0.14828	-1.7563	-3.0771	-2.5083	-2.5542	-3.1771	-2.1146	-2.7438	-2.9083	-2.1333	-2.9792	-2.6521	-2.3479	-3.1542	-2.3438	-2.4562	-2.9708	364.249	494.286	328.843	462.241	325.404	251.125	159.323	406.797	440.106	251.091	309.255	452.545	253.725	188.526	492.084	396.346	0.00068052	0.00036138	8.7514e-05	536.16	3.1254e-06	3.1666e-06	640.71	161.07	2.467e-06	3.5831e-06	244.74	96.21	62.095	28.071	3.4933e-06	45.286	0.00063974	0.00060499	0.00017039	590.99	6.165e-06	6.893e-06	707.85	178.7	6.5736e-06	6.7785e-06	272.18	107.19	68.808	31.57	6.6992e-06	50.81	163.400	235.546	237.074	162.056	268.965	322.153	161.231	166.760	261.936	298.104	165.810	170.143	171.863	177.296	289.153	174.819	-8191	255	
2880.443	1	1	0	0	0.077111	0.091723	0.034194	0.15614	0.319	0.16962	0.0884	0.10039	0.070636	0.17803	0.2072	0.12658	0.21746	0.14265	0.19082	0.063892	-1.6958	-2.8083	-2.5396	-2.4333	-3.0333	-2.4479	-2.6104	-2.8937	-2.3146	-2.8479	-2.725	-2.3417	-3.1813	-2.4833	-2.475	-3.0583	331.841	448.886	356.527	348.565	473.128	192.980	245.548	455.449	184.006	426.970	284.875	181.235	203.421	319.141	297.380	445.682	0.0006419	0.00029416	7.6141e-05	529.85	2.8514e-06	4.2329e-06	636.62	160.34	3.7638e-06	2.6185e-06	244.89	96.175	61.637	28.257	2.2238e-06	45.434	0.00064048	0.00060158	0.00017007	586.01	6.0843e-06	6.9788e-06	704.01	177.7	6.7105e-06	6.6758e-06	272.07	107.14	68.757	31.727	6.7923e-06	51.077	163.597	234.153	241.248	162.126	273.101	318.436	161.254	166.855	278.623	300.869	165.693	170.199	171.774	177.029	274.834	174.636	-8191	255	
2880.539	1	1	0	0	0.05962	0.12757	0.16947	0.26941	0.038513	0.099953	0.0089531	0.16907	0.16517	0.18152	0.14124	0.11739	0.15524	0.13071	0.23087	0.088798	-1.5104	-2.7875	-2.7625	-2.2687	-3.1875	-2.4792	-2.6625	-3.1896	-2.2354	-2.7021	-2.8146	-2.2896	-3.1083	-2.5542	-2.375	-3.1646	389.956	402.023	152.899	189.439	216.312	242.498	361.238	327.352	389.839	279.660	296.036	260.152	264.879	158.658	182.791	172.825	0.00064427	0.00030584	8.3432e-05	538.4	3.103e-06	3.837e-06	647.3	163.3	3.4892e-06	4.0367e-06	249.66	97.774	63.255	28.775	3.6288e-06	46.149	0.00065012	0.00060323	0.00016908	593.77	6.3389e-06	6.8006e-06	715.74	180.96	6.7948e-06	7.0536e-06	277.14	109.06	70.247	32.339	7.025e-06	51.956	164.073	240.371	236.538	161.842	272.026	312.418	161.289	166.318	267.875	308.130	165.212	169.857	171.479	177.073	282.075	174.563	-8191	255	
2880.635	1	1	0	0	0.13348	0.1155	0.17945	0.15161	0.1394	0.21206	0.16155	0.34389	0.1221	0.23808	0.1182	0.17101	0.064424	0.095099	0.1567	0.25131	-2.0042	-2.7583	-2.9958	-2.2146	-3.0646	-2.6854	-2.2917	-3.2	-2.2896	-2.55	-3.0687	-2.2562	-2.9458	-2.7292	-2.2542	-3.1958	432.495	409.986	396.419	493.439	230.484	160.000	409.327	184.926	445.896	384.452	317.589	241.203	379.517	499.633	374.214	448.231	0.00066094	0.00030405	0.00010362	548.2	2.8144e-06	3.2047e-06	655.29	165.29	3.2373e-06	2.4526e-06	251.45	97.491	62.678	28.452	3.4724e-06	45.624	0.00064845	0.00061556	0.0001761	605.83	6.2665e-06	6.8366e-06	724.6	183.2	6.6963e-06	7.0713e-06	277.68	108.54	69.694	31.936	7.3126e-06	51.343	163.055	249.462	240.271	161.841	278.446	299.147	161.089	166.275	264.609	304.751	165.438	169.969	171.688	177.062	290.576	174.639	-8191	255	
2880.731	1	1	0	0	0.24833	0.48558	0.11045	0.32703	0.049155	0.060641	0.13369	0.14094	0.20443	0.19492	0.057001	0.21688	0.24717	0.30112	0.1928	0.26846	-1.7833	-2.4813	-2.9833	-2.2646	-2.925	-2.8104	-2.4771	-3.1542	-2.3937	-2.3646	-2.95	-2.3667	-2.9021	-2.8896	-2.2021	-3.1104	483.910	238.689	405.021	441.059	507.019	289.130	471.487	473.873	267.703	384.755	365.488	418.944	366.838	318.132	289.755	164.355	0.00067976	0.00033115	5.661e-05	540.97	2.6797e-06	5.1672e-06	646.34	162.35	3.4686e-06	3.0493e-06	245.84	95.675	61.84	27.988	3.4894e-06	44.905	0.00065627	0.00065688	0.0001787	596.13	6.582e-06	7.2436e-06	714.2	180.22	6.7395e-06	7.313e-06	273.74	106.92	68.899	31.537	7.3227e-06	50.624	164.844	213.386	256.651	161.967	280.317	306.328	161.079	166.555	270.672	300.951	165.183	169.978	171.399	177.054	285.978	174.492	-8191	255	
2880.827	1	1	0	0	0.27285	0.10884	0.2922	0.31872	0.11616	0.32288	0.079642	0.1785	0.071048	0.25	0.075822	0.23131	0.10793	0.090637	0.107	0.16153	-1.9458	-2.2687	-3.0146	-2.2729	-2.6792	-2.9604	-2.3937	-2.9521	-2.5062	-2.3479	-3.3	-2.3729	-2.4896	-2.9854	-2.1833	-2.9771	342.934	477.031	246.868	330.919	436.045	195.197	189.022	382.650	439.363	476.224	499.229	162.539	355.022	174.246	326.294	148.423	0.00062778	0.00033714	0.00010013	537.13	2.5972e-06	3.2431e-06	646.79	162.4	2.4861e-06	4.159e-06	247.8	96.739	61.951	28.145	3.9154e-06	44.982	0.00065315	0.00065533	0.00018028	593.86	6.5419e-06	7.1895e-06	713.16	180.27	6.7021e-06	7.6435e-06	274.69	107.24	69.001	31.6	7.2425e-06	50.686	163.084	214.875	231.302	161.691	289.474	296.808	160.946	166.399	295.278	299.717	165.104	169.764	171.344	176.799	279.983	174.437	-8191	255	
2880.948	1	1	0	0	0.036212	0.035772	0.080267	0.14134	0.069454	0.096507	0.082948	0.2025	0.2706	0.11986	0.22561	0.086989	0.15682	0.15442	0.1934	0.25797	-1.9312	-2.3083	-3.1	-2.225	-2.6188	-2.8229	-2.2	-2.8917	-2.7771	-2.1917	-3.0167	-2.4292	-2.6	-3.2979	-2.1875	-2.9437	155.024	233.562	265.252	440.737	301.556	257.825	348.881	353.173	415.166	306.031	165.097	202.551	155.183	404.847	342.632	152.761	0.00063508	0.00036013	0.00010012	538.51	2.2897e-06	3.8969e-06	646.68	163.16	1.9303e-06	2.7124e-06	247.54	96.211	61.857	27.903	3.5512e-06	44.879	0.00065443	0.00066932	0.00017732	595.11	6.5955e-06	7.1601e-06	715.37	180.35	6.641e-06	7.4303e-06	274.87	107.13	68.801	31.465	7.2683e-06	50.534	163.482	248.788	251.907	161.771	287.058	298.788	161.104	166.263	289.059	303.716	165.375	169.948	171.665	176.739	278.468	174.520	-8191	255	
2881.044	1	1	0	0	0.30477	0.092224	0.15631	0.087562	0.12756	0.1511	0.16356	0.073711	0.14581	0.20094	0.14159	0.19109	0.15576	0.055952	0.11619	0.17655	-2.4646	-2.2	-2.9542	-2.4146	-2.3125	-3.0438	-2.0521	-3.0062	-2.6437	-2.1125	-3.1021	-2.6354	-2.4813	-3.2792	-2.3125	-2.6083	231.412	350.718	233.232	410.633	343.755	276.495	196.086	322.166	270.666	458.713	216.338	472.071	451.079	326.896	356.086	399.140	0.0006371	0.00032907	7.9366e-05	534.43	2.4764e-06	3.0918e-06	643.18	161.79	3.1644e-06	3.224e-06	246.83	95.768	61.601	27.707	4.1153e-06	44.416	0.00065021	0.00067872	0.00018118	590.22	6.6179e-06	7.2382e-06	709.84	179.42	6.6484e-06	7.669e-06	273.91	106.67	68.381	31.101	7.1668e-06	49.983	161.794	233.903	258.980	161.604	266.981	309.808	161.007	166.320	278.072	325.803	165.178	169.907	171.477	176.809	293.698	174.485	-8191	255	
2881.138	1	1	0	0	0.2419	0.10589	0.11834	0.23202	0.36424	0.055729	0.17007	0.15314	0.13706	0.16096	0.12456	0.24451	0.11852	0.18115	0.1255	0.16618	-2.5396	-2.1646	-3.0563	-2.6646	-2.425	-3.0104	-2.3312	-2.875	-3.0021	-2.3646	-3.0875	-2.7083	-2.325	-3.1292	-2.0458	-2.6521	279.258	258.641	294.811	409.971	198.707	239.640	482.104	444.521	334.054	432.317	246.848	186.338	169.978	220.609	274.207	402.562	0.00063619	0.0003558	7.6214e-05	533.68	2.7505e-06	3.3962e-06	643.48	162.07	2.9312e-06	2.8623e-06	246.4	96.239	61.879	27.852	3.9258e-06	44.902	0.00064479	0.00067578	0.00017595	590.93	6.8204e-06	7.0263e-06	711.67	179.54	6.6368e-06	7.5815e-06	274.34	106.91	68.814	31.351	6.859e-06	50.428	162.547	234.098	234.780	161.452	295.699	313.576	160.919	166.224	280.724	305.413	165.429	170.088	171.379	176.908	282.032	174.309	-8191	255	
2881.234	1	1	0	0	0.042779	0.16568	0.19159	0.24641	0.12189	0.11238	0.30357	0.24857	0.076063	0.15547	0.29984	0.28034	0.088926	0.30346	0.16995	0.30629	-2.7042	-2.4604	-2.9813	-2.8479	-2.1208	-3.0896	-2.4917	-2.4896	-3.0771	-2.2854	-2.8396	-2.8	-2.1479	-3.1042	-2.4375	-2.4938	499.426	416.611	302.203	259.196	484.013	305.884	450.590	342.158	264.805	355.359	181.176	325.392	187.367	485.007	205.166	444.130	0.00067203	0.00030125	8.0982e-05	543.77	3.0985e-06	4.7361e-06	660.38	166.73	3.481e-06	3.006e-06	252.55	98.505	63.597	28.737	4.2176e-06	46.29	0.00065824	0.00065362	0.00017483	602.49	6.6726e-06	7.0263e-06	728.31	185.04	6.6668e-06	7.4995e-06	281.82	109.71	70.769	32.325	7.1539e-06	52.121	162.020	236.063	237.815	161.661	286.625	299.406	160.851	166.056	282.992	319.778	165.316	169.814	171.443	176.853	281.087	174.154	-8191	255	
2881.355	1	1	0	0	0.23198	0.11821	0.046672	0.25922	0.19307	0.30527	0.4656	0.028726	0.085818	0.1627	0.10172	0.11961	0.063616	0.21059	0.16487	0.2951	-2.5792	-2.1479	-2.9	-2.8833	-2.1312	-3.0604	-2.5729	-2.4	-3.0812	-2.2771	-2.6521	-2.8937	-2.1813	-3.1042	-2.5771	-2.4583	494.861	463.356	253.863	353.958	324.005	423.955	406.856	458.780	252.788	461.293	242.120	486.814	485.213	263.718	271.902	491.783	0.00068459	0.00040943	7.0847e-05	564.94	4.1107e-06	2.9645e-06	685.49	175.71	3.8025e-06	4.069e-06	266.12	102.29	66.565	29.918	3.542e-06	47.862	0.00065422	0.0006666	0.00017762	624.89	6.8917e-06	7.0605e-06	757.07	195.23	6.8622e-06	7.3938e-06	295.42	113.99	73.883	33.647	7.3558e-06	53.904	164.425	241.504	255.599	161.494	283.471	288.856	160.898	165.900	272.172	299.176	165.233	169.674	171.247	176.821	272.359	174.217	-8191	255	
2881.427	1	1	0	0	0.090383	0.33409	0.085819	0.026609	0.10641	0.17897	0.15504	0.27055	0.31644	0.14168	0.094148	0.15093	0.088207	0.072555	0.21682	0.12527	-2.6354	-2.2958	-2.5438	-3.0021	-2.2333	-3.075	-2.8312	-2.2396	-3.0292	-2.2333	-2.6063	-2.9062	-2.3187	-2.8625	-2.7896	-2.1167	504.214	374.671	439.053	445.268	166.476	218.093	506.356	436.099	443.853	494.775	494.166	180.160	213.058	499.525	375.135	181.059	0.00068843	0.00033831	0.00011375	567.57	3.4392e-06	2.2872e-06	680.08	174.18	3.4867e-06	2.6376e-06	259.35	99.791	64.284	28.808	3.4562e-06	45.833	0.00067873	0.00069249	0.00018917	629.24	7.139e-06	7.2448e-06	751.49	193.26	6.9533e-06	7.5329e-06	288.09	111.39	71.613	32.402	7.0665e-06	51.592	161.900	248.856	245.942	161.598	290.432	295.251	160.764	166.021	291.223	296.799	165.017	169.741	171.307	176.917	278.635	174.281	-8191	255	
2881.523	1	1	0	0	0.092242	0.072215	0.17543	0.22828	0.20263	0.14858	0.067441	0.15096	0.29054	0.1678	0.21094	0.057663	0.074065	0.20573	0.081154	0.40555	-2.6583	-2.2396	-2.3812	-2.9583	-2.1312	-2.8542	-2.8417	-2.1229	-3.1458	-2.4604	-2.4688	-3.0396	-2.0958	-2.8229	-2.8479	-2.1437	418.080	268.085	271.832	429.349	286.981	360.337	430.065	471.138	504.386	398.999	482.902	212.254	257.114	406.147	471.995	484.372	0.00066098	0.00035692	0.00011534	544.25	2.6218e-06	3.4175e-06	648.75	165.19	2.9576e-06	3.4641e-06	248.61	96.465	61.748	27.915	2.6281e-06	44.619	0.00065241	0.00066622	0.00018012	600.63	6.7163e-06	7.1313e-06	717.46	182.32	6.5984e-06	7.276e-06	276.68	107.37	68.863	31.34	6.8803e-06	50.374	162.915	246.635	241.154	161.726	267.788	306.684	161.002	166.249	287.202	323.846	165.392	169.750	171.327	176.800	270.942	174.515	-8191	255	
2881.619	1	1	0	0	0.12592	0.065046	0.12981	0.21506	0.38085	0.32257	0.33063	0.093719	0.21081	0.38464	0.21485	0.18847	0.04835	0.1551	0.15748	0.15959	-2.7229	-2.5687	-2.3021	-2.9771	-2.2479	-2.5917	-3.0583	-2.2604	-2.9	-2.6458	-2.4229	-3.0646	-2.2188	-2.6833	-2.95	-2.1333	456.398	345.906	343.202	183.867	353.895	434.343	407.228	332.549	463.225	339.815	417.140	245.355	401.620	195.078	457.023	392.622	0.00066086	0.00034651	6.6724e-05	539.35	2.664e-06	3.3223e-06	646.25	163.22	3.3945e-06	2.3262e-06	248.6	96.392	61.742	27.98	3.102e-06	44.951	0.00064363	0.00064615	0.00018046	593.69	6.6294e-06	6.824e-06	713.18	180.54	6.2992e-06	6.9886e-06	276.05	107.47	68.977	31.49	6.5821e-06	50.56	162.298	231.158	235.135	161.729	277.080	298.787	160.946	166.325	268.928	311.977	165.460	169.900	171.350	177.016	277.542	174.362	-8191	255	
2881.740	1	1	0	0	0.19115	0.12458	0.04876	0.10028	0.16306	0.20556	0.12526	0.2305	0.20233	0.0299	0.089544	0.2006	0.29653	0.23016	0.45706	0.066687	-2.6229	-2.7042	-2.2875	-3.2104	-2.3708	-2.6542	-3.0354	-2.1958	-2.9146	-2.75	-2.1708	-3.1104	-2.3688	-2.5687	-2.875	-2.0354	444.592	276.571	291.451	400.934	455.935	468.574	484.314	163.484	394.163	442.946	341.290	210.380	431.512	229.699	151.615	380.904	0.00064811	0.00028	7.3027e-05	540.99	3.1393e-06	3.368e-06	648.08	162.87	3.6234e-06	5.196e-06	248.41	96.092	61.674	27.857	3.9752e-06	44.695	0.0006205	0.00061871	0.00017873	595.99	6.4165e-06	6.9452e-06	715.78	180.79	6.2745e-06	6.9777e-06	276.07	107.08	68.649	31.253	6.8366e-06	50.301	164.196	242.885	254.188	161.535	272.029	290.733	161.082	166.323	267.954	305.792	165.250	170.074	171.328	177.023	279.841	174.516	-8191	255	
2881.836	1	1	0	0	0.13801	0.21721	0.26087	0.13386	0.13485	0.1563	0.077743	0.11135	0.12827	0.25358	0.17285	0.24272	0.18841	0.19801	0.051998	0.057074	-2.3312	-2.7562	-2.1625	-3.1688	-2.4688	-2.5208	-3.1458	-2.0771	-2.7708	-2.8417	-2.0187	-3.0354	-2.3625	-2.275	-2.8979	-2.2146	485.050	155.944	349.844	231.992	248.925	458.254	397.512	443.951	400.807	253.180	384.923	407.088	254.872	280.971	389.625	271.197	0.00064392	0.00034039	5.6145e-05	541.22	3.3875e-06	2.9109e-06	648.25	162.68	3.5118e-06	2.9299e-06	246.84	95.618	61.501	27.58	4.4927e-06	44.353	0.00063998	0.00064108	0.00017917	596.05	6.3243e-06	7.1373e-06	715.9	180.32	6.4267e-06	7.0318e-06	274.55	106.44	68.364	31.021	6.8545e-06	49.796	164.754	240.510	233.814	161.598	278.761	290.487	160.770	166.611	284.677	302.328	165.490	169.899	171.165	177.012	284.080	174.576	-8191	255	
2881.930	1	1	0	0	0.19037	0.05918	0.069588	0.25546	0.029162	0.014973	0.14481	0.20281	0.11096	0.3047	0.11852	0.14799	0.15985	0.39195	0.24776	0.16041	-2.4271	-2.7146	-2.0875	-2.8375	-2.5687	-2.3563	-2.9625	-2.2083	-2.5542	-2.8917	-2.2229	-2.9792	-2.6521	-2.3896	-2.9625	-2.1312	294.398	292.013	289.518	472.750	345.227	161.881	466.048	473.202	492.202	326.660	440.316	185.091	314.571	172.250	274.679	414.559	0.00062096	0.00026298	7.0792e-05	534.16	3.2834e-06	4.1744e-06	641.75	161.85	3.2918e-06	2.8348e-06	246.09	95.713	61.217	27.351	3.732e-06	43.921	0.0006362	0.0006366	0.00018633	590.02	6.5487e-06	7.2982e-06	709.16	179.36	6.4283e-06	7.1417e-06	274.3	106.5	68.189	30.751	6.7407e-06	49.487	163.605	224.607	249.143	161.559	282.011	307.710	161.011	166.608	288.108	290.978	165.234	169.797	171.201	176.839	291.549	174.554	-8191	255	
2882.028	1	1	0	0	0.13326	0.1517	0.10904	0.2413	0.12408	0.07218	0.27037	0.14082	0.092324	0.18774	0.078201	0.21287	0.12212	0.094673	0.12815	0.324	-2.2271	-2.9979	-2.0458	-2.7729	-2.6375	-2.2625	-3.1396	-2.5083	-2.5187	-3.1021	-2.0875	-2.9271	-2.7958	-2.0458	-3.0042	-2.5146	363.834	361.703	150.116	153.837	422.946	379.596	494.576	458.217	348.598	281.313	347.654	201.933	456.611	313.265	311.203	487.978	0.00064609	0.00024954	5.4577e-05	533.76	3.3759e-06	4.6295e-06	645.33	162.62	2.813e-06	2.5033e-06	248.62	96.413	61.942	27.675	4.4205e-06	44.857	0.00064494	0.00064391	0.00018557	588.81	6.3733e-06	7.417e-06	713.01	180.14	6.6521e-06	7.0488e-06	275.77	107.22	68.617	31.216	6.6269e-06	50.423	162.331	273.173	238.548	161.879	272.721	294.126	160.956	166.411	268.779	305.627	165.085	169.894	171.400	177.038	297.913	174.462	-8191	255	
2882.123	1	1	0	0	0.076906	0.2198	0.12435	0.27674	0.13449	0.061717	0.21942	0.18012	0.14213	0.048495	0.072257	0.059611	0.29882	0.13512	0.17932	0.18483	-2.1646	-3.175	-2.1625	-2.7208	-2.9688	-2.1562	-3.0187	-2.5375	-2.3396	-3.2042	-2.3917	-2.8688	-2.9	-2.2938	-2.9542	-2.525	480.786	284.334	194.340	199.322	502.552	206.192	460.667	485.240	254.469	435.416	480.165	445.528	486.100	397.105	294.501	359.985	0.00067149	0.00024942	8.1193e-05	543.37	2.7547e-06	4.1464e-06	649.27	163.31	3.4849e-06	3.3914e-06	248.06	96.118	61.569	27.776	3.947e-06	44.598	0.00063697	0.00061455	0.00017512	597.41	6.2889e-06	7.0131e-06	717.83	180.7	6.5288e-06	6.8119e-06	275.69	107.12	68.633	31.247	6.6712e-06	50.194	163.657	227.851	236.759	161.776	286.039	307.593	160.966	166.364	269.344	310.389	165.386	169.790	171.333	177.090	274.184	174.393	-8191	255	
2882.219	1	1	0	0	0.12634	0.31427	0.040114	0.19568	0.17319	0.18942	0.14647	0.15528	0.22363	0.072347	0.082045	0.094268	0.12474	0.3286	0.041641	0.2421	-1.8333	-3.1583	-2.1917	-2.7	-2.7792	-2.0458	-2.8833	-2.5312	-2.0917	-3.0833	-2.3521	-2.6333	-3.0875	-2.1208	-2.8042	-2.9292	207.170	505.507	378.642	185.622	288.453	226.066	204.199	412.381	433.917	173.550	423.316	484.927	438.979	474.462	168.818	187.063	0.0006526	0.00031693	7.9901e-05	541.22	3.1581e-06	2.6679e-06	646.06	162.05	2.819e-06	3.5009e-06	247.8	96.041	61.569	27.665	2.9106e-06	44.503	0.00065083	0.00061684	0.0001742	596.51	6.3597e-06	7.2574e-06	715.61	180.03	6.5399e-06	7.0184e-06	275	106.96	68.58	31.197	6.6768e-06	50.058	161.689	225.940	247.118	161.554	293.295	320.095	161.204	166.308	267.724	312.246	165.294	170.118	171.515	177.062	278.935	174.353	-8191	255	
2882.315	1	1	0	0	0.27488	0.02739	0.30578	0.24029	0.10606	0.38531	0.36021	0.10901	0.15476	0.080713	0.077599	0.088468	0.077118	0.32548	0.25912	0.13065	-1.7437	-3.0271	-2.4	-2.5396	-3.0708	-2.1292	-2.95	-2.7125	-2.025	-2.9208	-2.575	-2.4437	-3.0583	-2.2729	-2.9146	-2.8979	386.631	329.060	391.325	389.797	292.304	463.714	504.629	187.589	196.609	254.699	318.168	429.436	338.406	166.949	384.952	165.205	0.00066336	0.00027606	8.5841e-05	538.73	2.6983e-06	3.4139e-06	649	162.22	2.7603e-06	2.4153e-06	247	96.117	61.728	27.533	1.9623e-06	44.546	0.00064929	0.00061962	0.00017466	594.01	6.2093e-06	7.1841e-06	716.17	179.84	6.7063e-06	7.0652e-06	275.5	106.91	68.605	31.04	6.8512e-06	50.042	164.453	242.897	252.150	161.803	290.416	317.940	161.116	166.367	270.743	299.740	165.205	170.053	171.595	177.067	277.605	174.496	-8191	255	
2882.435	1	1	0	0	0.29896	0.080759	0.029617	0.28367	0.23767	0.029027	0.10799	0.33919	0.19647	0.11681	0.098663	0.13806	0.042449	0.12527	0.39848	0.08035	-1.8604	-2.9896	-2.4938	-2.2333	-3.0854	-1.9708	-2.7292	-2.9062	-2.0062	-2.9979	-2.4875	-2.1229	-3.1375	-2.1583	-2.5312	-2.9938	393.818	447.358	310.647	491.442	418.755	182.635	157.023	464.809	295.807	203.214	178.135	328.753	208.033	495.139	199.789	441.179	0.00065367	0.00032316	7.7173e-05	538.71	2.4323e-06	3.8786e-06	650.23	164.09	3.4559e-06	3.8464e-06	250.72	97.435	62.761	27.861	3.3338e-06	44.846	0.00065648	0.00064396	0.00017852	596.16	6.6257e-06	7.1757e-06	719.34	182.07	6.7858e-06	7.1757e-06	279.01	108.58	69.635	31.38	6.7519e-06	50.445	162.317	231.515	235.111	161.811	291.357	308.965	161.149	166.191	261.147	296.389	165.513	169.868	171.157	177.010	263.411	174.587	-8191	255	
2882.532	1	1	0	0	0.20415	0.10066	0.26023	0.077901	0.41634	0.074363	0.12425	0.19257	0.034096	0.20598	0.34258	0.031115	0.072779	0.29682	0.093339	0.14089	-1.7271	-2.7979	-2.6333	-2.3563	-3.0229	-2.4208	-2.7396	-3.0708	-2.1396	-2.7229	-2.7771	-2.1021	-2.9417	-2.2687	-2.3479	-3.1708	292.905	230.585	222.688	388.404	443.910	395.803	159.998	394.306	340.119	423.450	498.641	396.083	166.160	161.369	454.880	187.336	0.00065255	0.00040372	7.6277e-05	542.8	3.4922e-06	3.5629e-06	651.85	164.77	3.5584e-06	2.9695e-06	250.9	97.282	62.637	28.189	3.4231e-06	45.175	0.00066017	0.00063094	0.00017568	597.23	6.4633e-06	7.1883e-06	720.63	182.48	6.7585e-06	7.0524e-06	278.73	108.68	69.702	31.614	7.0149e-06	50.818	162.792	226.109	237.316	162.017	284.645	307.372	161.083	166.342	279.477	315.092	165.346	169.942	171.224	176.622	285.755	174.517	-8191	255	
2882.628	1	1	0	0	0.08466	0.096457	0.0903	0.2968	0.063266	0.036224	0.10895	0.19035	0.094338	0.093121	0.18449	0.09688	0.10792	0.25563	0.23701	0.29152	-1.7417	-2.8833	-2.8271	-2.1604	-2.9417	-2.4833	-2.3771	-3.3	-2.1583	-2.8521	-3.0583	-2.2708	-3.0125	-2.6375	-2.3104	-3.1271	366.877	308.625	256.845	469.074	200.838	457.268	423.017	189.691	174.362	340.639	498.185	346.084	276.858	390.758	325.979	343.773	0.00067027	0.00028698	8.4046e-05	548.68	3.5253e-06	2.072e-06	661.62	165.82	3.1112e-06	3.1765e-06	253.28	98.461	63.225	28.413	3.8022e-06	45.82	0.00064622	0.00061316	0.00016776	605.54	6.2801e-06	6.8294e-06	729.46	183.87	6.5973e-06	6.8161e-06	281.29	109.54	70.378	31.966	7.081e-06	51.523	162.175	239.617	241.441	161.829	280.170	310.664	161.028	166.195	264.652	312.969	165.373	170.013	171.363	176.938	293.112	174.399	-8191	255	
2882.724	1	1	0	0	0.10771	0.22825	0.23695	0.24316	0.11062	0.045068	0.1574	0.1423	0.23398	0.12543	0.098061	0.26173	0.327	0.16633	0.16077	0.18881	-1.8729	-2.5396	-2.9792	-2.3792	-2.9771	-2.7313	-2.2854	-3.125	-2.3729	-2.6583	-3.0979	-2.1292	-2.875	-2.8063	-2.3479	-3.1021	345.043	506.000	286.887	484.832	192.061	186.072	485.356	464.141	405.511	382.458	495.304	502.225	436.038	439.529	399.367	452.614	0.00066579	0.00034335	7.0949e-05	554.97	3.8719e-06	3.1066e-06	667.7	168.26	3.1724e-06	3.1933e-06	254.57	99.166	63.542	28.378	2.7048e-06	45.624	0.00065494	0.00064562	0.00017452	613.16	6.3129e-06	6.9188e-06	737.71	186.59	6.6579e-06	6.9808e-06	283.51	110.09	70.727	31.952	7.0323e-06	51.272	164.988	243.831	229.584	161.693	288.936	292.373	161.021	166.248	271.710	298.335	165.300	169.705	171.299	176.886	283.214	174.605	-8191	255	
2882.820	1	1	0	0	0.27609	0.070856	0.1543	0.062802	0.21456	0.14807	0.22805	0.15361	0.075096	0.34303	0.076486	0.1834	0.13551	0.22306	0.18195	0.14131	-1.9667	-2.6354	-2.8396	-2.3021	-2.8208	-2.9021	-2.2938	-3.0312	-2.4146	-2.4479	-3.1021	-2.2	-3.0292	-2.85	-2.2062	-2.9625	466.235	214.562	339.144	261.696	265.881	317.893	231.026	404.762	285.124	252.998	155.836	495.020	253.646	152.809	287.583	234.937	0.00065232	0.00022086	8.3296e-05	549.93	3.3347e-06	3.3893e-06	658.15	165.52	2.3758e-06	2.883e-06	252.17	97.33	62.295	27.779	3.3585e-06	44.502	0.00064247	0.00062277	0.00017234	605.65	6.3858e-06	6.8378e-06	727.38	183.49	6.6336e-06	6.9091e-06	279.95	108.38	69.375	31.245	7.3244e-06	50.13	162.103	251.917	235.776	161.807	288.452	304.794	161.051	166.217	272.383	296.570	165.459	169.765	171.258	177.113	269.905	174.505	-8191	255	
2882.916	1	1	0	0	0.11326	0.19499	0.059254	0.092043	0.15468	0.1466	0.27994	0.11764	0.22346	0.049076	0.13614	0.11013	0.12765	0.19249	0.26972	0.078772	-2.0604	-2.5729	-2.9854	-2.2313	-2.7229	-2.8521	-2.0896	-3.1521	-2.4562	-2.2812	-3.0354	-2.4208	-2.6688	-2.9208	-2.1854	-3.125	286.393	497.463	307.160	169.354	258.557	370.106	391.448	214.817	199.217	478.385	284.255	473.746	202.669	474.260	321.753	349.971	0.00066008	0.00034111	0.0001063	538.19	3.3323e-06	2.7138e-06	652.81	163.81	4.2301e-06	3.2317e-06	250.65	97.301	62.563	27.795	2.711e-06	44.829	0.00064176	0.00062747	0.0001733	594.43	6.431e-06	7.0497e-06	718.86	181.77	6.5562e-06	7.0099e-06	278.42	108.56	69.837	31.376	7.2223e-06	50.474	164.354	229.638	247.385	161.718	284.472	317.279	161.151	166.443	282.402	294.574	165.472	169.950	171.490	176.776	289.464	174.321	-8191	255	
2883.035	1	1	0	0	0.15951	0.31064	0.075532	0.15573	0.2652	0.19759	0.31475	0.33006	0.25875	0.10277	0.17591	0.22177	0.075089	0.058776	0.17654	0.21713	-2.2208	-2.2771	-3.0146	-2.2292	-2.4604	-2.8104	-2.3229	-2.8333	-2.7083	-2.3229	-2.9875	-2.4271	-2.3396	-3.0292	-2.2458	-2.9833	377.364	256.974	411.376	353.192	501.719	272.750	413.422	502.175	445.045	448.680	361.623	174.819	214.426	336.372	324.308	413.419	0.0006477	0.00021596	9.8197e-05	546.42	2.9126e-06	3.5543e-06	659.2	167.8	4.0845e-06	3.4049e-06	255.27	99.189	64.068	28.491	3.6321e-06	45.917	0.00063626	0.000639	0.0001716	601.92	6.2947e-06	7.0599e-06	729.8	185.84	6.3866e-06	7.1575e-06	284.26	110.57	71.139	32.03	7.173e-06	51.6	163.504	242.973	249.466	161.728	273.917	286.690	161.151	166.272	271.278	295.136	165.423	169.700	171.297	176.621	278.415	174.460	-8191	255	
2883.131	1	1	0	0	0.16999	0.23366	0.27229	0.17186	0.15652	0.15736	0.1955	0.048492	0.12077	0.24846	0.13041	0.19668	0.1381	0.090512	0.22443	0.32625	-2.4396	-2.0875	-2.9562	-2.4583	-2.3771	-3.0333	-2.3438	-2.8937	-2.6813	-2.1667	-3.1708	-2.5812	-2.5187	-3.1562	-2.3958	-2.8917	489.069	309.079	283.947	173.057	401.938	211.020	354.286	247.700	413.377	332.739	466.363	454.917	279.510	468.000	306.470	459.515	0.00067724	0.00029506	5.9426e-05	559.9	3.6773e-06	3.0736e-06	673.76	170.38	3.0994e-06	2.7482e-06	257.7	100.43	64.548	28.969	3.9708e-06	46.544	0.00065271	0.00065309	0.00017249	617.94	6.4545e-06	6.9272e-06	744.35	188.83	6.4878e-06	7.2705e-06	287.31	111.69	71.894	32.551	6.9005e-06	52.299	163.941	244.113	232.095	161.993	266.805	298.376	161.042	166.048	264.495	302.045	165.276	169.972	171.715	176.868	289.017	174.561	-8191	255	
2883.227	1	1	0	0	0.063782	0.16901	0.16411	0.11994	0.09734	0.051709	0.071931	0.13467	0.022474	0.26193	0.1897	0.21859	0.17142	0.067158	0.24972	0.2797	-2.5438	-2.3312	-3.0083	-2.5083	-2.3354	-3.1063	-2.4	-2.7979	-2.8708	-2.0521	-3.1312	-2.6063	-2.3	-3.1333	-2.1021	-2.7583	355.185	397.703	322.986	368.707	185.755	343.407	314.775	350.136	500.194	403.144	460.136	151.977	169.035	224.163	260.372	460.118	0.00066427	0.0003125	9.7295e-05	562.42	3.5404e-06	3.5202e-06	677.36	171.08	3.9972e-06	5.0593e-06	259.08	100.37	64.681	28.974	4.51e-06	46.224	0.00064723	0.00066665	0.00017038	619.8	6.7554e-06	7.1259e-06	747.69	189.8	6.5199e-06	7.4315e-06	288.61	111.68	72.009	32.527	6.8904e-06	52.089	162.601	231.048	252.328	161.879	282.055	308.278	161.087	166.420	286.655	303.947	165.540	169.849	171.514	177.123	296.175	174.507	-8191	255	
2883.299	1	1	0	0	0.066272	0.35714	0.22509	0.12767	0.15889	0.11771	0.081525	0.083034	0.36732	0.050693	0.12661	0.27602	0.37929	0.062706	0.18171	0.204	-2.6542	-2.1562	-2.6792	-2.5583	-2.1229	-2.9354	-2.4458	-2.7	-3.1833	-2.2375	-2.9146	-2.8042	-2.325	-2.9479	-2.5083	-2.4833	288.953	356.648	395.140	377.178	347.055	367.546	487.570	257.242	334.929	304.073	312.173	440.164	419.150	504.092	199.988	365.403	0.00068616	0.00038221	8.0658e-05	562.87	3.1502e-06	3.4995e-06	676.61	170.62	3.2523e-06	1.6041e-06	260.31	101	64.896	28.837	3.4705e-06	46.354	0.000655	0.00064887	0.00017493	619.91	6.6767e-06	6.8744e-06	747.13	189.58	6.3672e-06	7.228e-06	289.11	112.06	72.169	32.445	6.8708e-06	52.052	163.152	238.357	230.525	161.979	280.988	313.477	161.433	166.494	284.861	299.618	165.420	169.661	171.456	177.056	269.688	174.688	-8191	255	
2883.420	1	1	0	0	0.13661	0.213	0.032509	0.29549	0.061556	0.33882	0.11748	0.016333	0.087306	0.30804	0.12333	0.24968	0.030857	0.2457	0.13153	0.14289	-2.6896	-2.175	-2.8063	-2.7583	-2.1625	-3.0354	-2.7396	-2.45	-3.1937	-2.1333	-3	-2.8375	-2.5542	-3.0625	-2.5917	-2.2896	422.746	460.940	245.843	474.482	472.681	455.389	385.375	345.825	325.990	338.915	190.009	495.240	164.725	460.880	312.212	412.740	0.00065869	0.00045901	0.00010865	561.94	3.9608e-06	3.6022e-06	674.57	170.6	3.8683e-06	3.0453e-06	258.79	100.52	64.332	28.421	3.3108e-06	45.562	0.00063807	0.00065656	0.00017094	618.85	6.6174e-06	6.6799e-06	744.02	189.34	6.4841e-06	7.2444e-06	287.9	111.64	71.629	31.969	6.9022e-06	51.341	162.358	231.562	236.681	161.961	279.928	313.086	161.024	166.514	269.376	323.755	165.572	170.010	171.470	177.126	276.300	174.606	-8191	255	
2883.516	1	1	0	0	0.33831	0.13528	0.14144	0.25171	0.074349	0.077014	0.20218	0.08254	0.072912	0.19928	0.249	0.1297	0.12349	0.21209	0.14505	0.23961	-2.7625	-2.3812	-2.8083	-2.9458	-2.1375	-3.0479	-2.7896	-2.2729	-3.3	-2.3917	-2.7062	-3.1042	-2.275	-3.0187	-2.8375	-2.4208	474.393	348.333	326.161	497.299	474.260	384.096	418.369	385.410	190.184	320.107	495.267	215.665	405.591	233.723	260.539	257.432	0.00063456	0.00045327	0.00010323	553.33	3.194e-06	3.1538e-06	663.48	168.77	3.1961e-06	3.7048e-06	257.07	99.664	64.004	28.057	3.2739e-06	44.913	0.00064212	0.00063996	0.00017616	610.05	6.6028e-06	6.9392e-06	735.28	186.77	6.541e-06	7.2754e-06	285.17	110.66	71.035	31.542	6.9291e-06	50.58	162.136	237.125	246.637	162.010	297.549	296.101	161.455	166.611	283.361	305.549	165.741	170.094	171.514	177.244	261.760	174.258	-8191	255	
2883.612	1	1	0	0	0.20187	0.19624	0.051542	0.29491	0.16631	0.11188	0.42808	0.14896	0.27348	0.29548	0.18969	0.13196	0.10452	0.12589	0.23287	0.1405	-2.7479	-2.3917	-2.3833	-3.1	-2.125	-2.8875	-2.7667	-2.4562	-3.2438	-2.3396	-2.4583	-3.1604	-2.3208	-2.8021	-2.7542	-2.3042	340.078	215.455	248.682	393.006	432.762	267.572	484.884	473.057	470.710	167.982	471.645	310.983	272.246	431.410	209.933	424.287	0.00063373	0.00030807	0.00010789	551.93	4.4299e-06	3.3854e-06	664.62	169.48	3.3694e-06	4.2605e-06	258.19	99.97	64.389	28.479	3.1896e-06	45.5	0.00063343	0.0006272	0.00017493	607.05	6.6502e-06	6.7459e-06	735.62	187.58	6.2808e-06	7.1211e-06	286.57	111.07	71.453	32.001	6.6219e-06	51.231	163.738	246.099	231.385	161.667	276.505	299.563	160.833	166.131	272.000	290.787	165.251	169.514	171.041	176.726	287.695	174.205	-8191	255	
2883.708	1	1	0	0	0.048584	0.29889	0.20271	0.056273	0.12423	0.10064	0.12559	0.31004	0.11207	0.1963	0.34344	0.088492	0.37666	0.17088	0.182	0.234	-2.7646	-2.6125	-2.4562	-3.1021	-2.2562	-2.8354	-3.1042	-2.2104	-2.9188	-2.5479	-2.325	-3.0125	-2.1917	-2.6458	-2.8854	-2.3542	490.027	499.438	459.255	234.958	400.128	386.419	443.345	495.902	446.571	386.800	163.616	225.126	410.880	180.768	204.055	494.135	0.00067481	0.00029298	9.4556e-05	559.49	2.3619e-06	2.8089e-06	677.09	171.03	3.1405e-06	2.8557e-06	260.74	100.23	64.795	28.613	2.0364e-06	46.095	0.00062984	0.00061065	0.00017243	617.78	6.5102e-06	6.5082e-06	747.21	189.84	6.2624e-06	6.5859e-06	289.38	111.71	71.996	32.218	6.6381e-06	51.8	163.602	250.201	237.423	161.684	289.574	300.785	161.007	166.178	266.262	305.321	165.194	169.632	171.053	176.778	296.337	174.453	-8191	255	
2883.827	1	1	0	0	0.15864	0.26855	0.073104	0.13339	0.13873	0.020075	0.076512	0.14631	0.091783	0.21864	0.08429	0.21205	0.24909	0.099507	0.12146	0.19309	-2.7354	-2.7125	-2.3063	-3.1375	-2.3708	-2.6417	-3.1437	-2.1792	-2.8292	-2.6354	-2.5083	-3.2188	-2.3479	-2.6042	-3.1646	-2.2583	458.493	300.560	420.898	236.291	463.040	250.780	167.172	277.919	266.882	343.121	200.623	366.534	241.742	201.295	347.903	186.188	0.00067832	0.00041673	6.1819e-05	565.97	3.7221e-06	2.9359e-06	682.86	172.17	3.7192e-06	4.3734e-06	263.57	100.92	65.289	28.898	3.4621e-06	46.388	0.00063204	0.00063249	0.00017865	624.14	6.5888e-06	6.8936e-06	754.15	191.41	6.3845e-06	6.9425e-06	292.17	112.47	72.596	32.488	6.6852e-06	52.109	163.014	239.890	245.973	161.444	278.730	298.673	160.927	166.132	275.126	302.681	165.061	169.900	170.969	176.716	278.436	174.332	-8191	255	
2883.900	1	1	0	0	0.16105	0.23024	0.19442	0.29477	0.26886	0.03638	0.23986	0.16353	0.098853	0.056085	0.20665	0.038094	0.132	0.21729	0.20375	0.17691	-2.4583	-2.725	-2.1063	-3.0208	-2.4458	-2.4083	-3.1875	-2.0354	-2.7396	-2.9083	-2.3021	-3.125	-2.5583	-2.6125	-3.1708	-2.4125	158.347	245.856	246.230	477.880	278.502	162.402	453.588	339.606	290.518	373.810	159.315	421.134	499.790	387.426	291.526	492.318	0.00068026	0.00030071	9.5573e-05	569.02	3.3326e-06	2.8595e-06	687.69	174.51	4.2163e-06	4.4185e-06	265.21	101.16	65.357	28.757	3.7237e-06	46.134	0.00063792	0.00061396	0.00017836	629.01	6.4378e-06	6.9944e-06	759.55	193.47	6.4562e-06	7.0476e-06	294.38	112.68	72.702	32.384	6.7794e-06	51.748	163.090	243.472	254.551	161.541	291.874	281.857	160.896	166.140	283.681	299.547	164.955	169.526	170.903	176.744	288.748	174.115	-8191	255	
2883.997	1	1	0	0	0.11255	0.10164	0.2136	0.26336	0.30608	0.13761	0.12952	0.068389	0.1962	0.041378	0.04377	0.28161	0.17118	0.24777	0.25424	0.24632	-2.5	-2.85	-2.3187	-3.1604	-2.5042	-2.3	-3.2188	-2.2354	-2.6375	-2.9854	-2.3646	-3.0792	-2.6	-2.1312	-3.0396	-2.4521	260.626	433.761	307.039	409.799	151.515	291.522	263.590	194.318	476.610	303.974	417.108	392.034	416.463	435.039	295.430	479.506	0.00067423	0.00036861	9.6844e-05	565.45	2.9227e-06	2.5042e-06	682.75	172.55	4.2806e-06	3.7397e-06	263.15	100.59	65.133	28.444	3.5748e-06	45.518	0.00065345	0.00063926	0.00018344	624.26	6.5711e-06	7.2694e-06	753.92	191.99	6.8601e-06	7.2857e-06	291.97	112.11	72.296	31.991	7.108e-06	51.303	162.419	235.121	255.926	161.732	299.576	291.306	161.005	166.172	271.439	298.133	164.934	169.773	170.891	176.703	274.683	174.067	-8191	255	
2884.115	1	1	0	0	0.084277	0.14956	0.095722	0.1789	0.13647	0.10237	0.099376	0.29318	0.029338	0.13826	0.1333	0.15254	0.043096	0.32497	0.079506	0.069196	-2.3104	-3.0458	-2.05	-3.0271	-2.6146	-2.0812	-3.2208	-2.3292	-2.525	-2.9667	-2.1542	-3.0187	-2.8812	-2.2604	-3.1083	-2.7104	307.288	276.962	495.160	481.323	279.059	162.887	451.932	426.343	489.217	364.465	331.674	197.682	330.737	408.381	172.822	478.511	0.00066165	0.00031221	7.5441e-05	562.29	3.628e-06	3.4852e-06	678.22	171.21	3.9686e-06	3.6665e-06	261.82	100.37	64.473	28.346	4.1444e-06	45.453	0.00065556	0.00064834	0.00019254	620.43	6.697e-06	7.5173e-06	748.93	190.62	6.9365e-06	7.4813e-06	290	111.69	71.761	31.803	7.3232e-06	51.143	164.308	248.279	248.540	161.627	278.248	335.616	160.961	166.029	275.351	306.984	165.228	169.739	171.181	176.682	283.846	174.149	-8191	255	
2884.212	1	1	0	0	0.072863	0.2741	0.21064	0.10932	0.11577	0.13211	0.080146	0.28021	0.09883	0.23494	0.18283	0.21719	0.29525	0.29541	0.043088	0.17686	-2.2729	-3.0229	-2.325	-2.8604	-2.7854	-2.3104	-3.0875	-2.4271	-2.4917	-3.0729	-2.3479	-2.8542	-2.9896	-2.4021	-3.1437	-2.8292	496.480	372.425	378.010	244.353	195.327	478.596	490.224	469.335	286.679	225.782	228.986	325.456	506.513	267.980	150.480	476.150	0.00067285	0.00015571	8.0236e-05	563.06	2.1327e-06	4.2453e-06	682.59	171.67	4.2142e-06	3.3212e-06	260.78	100.5	64.165	28.514	3.0886e-06	45.515	0.00066692	0.00065042	0.00018841	622.05	6.6278e-06	7.5671e-06	752.85	190.45	6.9449e-06	7.2043e-06	290.05	111.51	71.542	32.076	6.7704e-06	51.347	163.143	229.880	229.589	161.746	276.633	310.446	160.876	166.297	291.334	303.762	165.167	169.798	171.432	176.952	280.095	174.332	-8191	255	
2884.308	1	1	0	0	0.10481	0.037885	0.12454	0.20229	0.20119	0.22456	0.22421	0.17213	0.045112	0.046649	0.17031	0.069454	0.30093	0.14264	0.0042318	0.042523	-1.9646	-3.1188	-2.3	-2.9333	-2.9938	-1.9333	-3.0938	-2.6312	-2.3625	-3.0104	-2.5021	-2.6937	-3.1292	-2.2125	-2.8479	-2.8958	170.200	394.102	459.497	219.420	215.111	343.345	187.002	451.254	475.833	234.258	273.081	503.311	183.735	261.210	156.680	375.436	0.00063984	0.00030873	0.00010838	562.68	3.2889e-06	3.4067e-06	678.02	170.66	3.6198e-06	2.3633e-06	259.56	99.744	64.282	28.512	2.9977e-06	45.58	0.00066109	0.00064044	0.00018161	620.87	6.2691e-06	7.2892e-06	749.24	189.45	7.0497e-06	6.982e-06	288.89	111.11	71.52	32.024	6.9179e-06	51.314	162.608	234.735	238.812	161.638	279.620	316.253	161.094	166.048	279.210	289.416	165.180	169.818	171.281	176.777	272.779	174.238	-8191	255	
2884.428	1	1	0	0	0.1357	0.12551	0.020488	0.24058	0.14508	0.18675	0.11152	0.23524	0.23667	0.16806	0.090307	0.15778	0.26852	0.11933	0.29102	0.35685	-1.9229	-3.1292	-2.425	-2.625	-3.1604	-2.3021	-2.9604	-2.8875	-2.2771	-3.1562	-2.3375	-2.5312	-3.0292	-2.2958	-2.7062	-2.8937	223.820	273.728	331.482	442.965	186.794	301.916	477.962	429.569	273.892	205.938	174.639	224.873	438.661	460.249	396.448	393.503	0.00065555	0.00018964	6.0558e-05	561.55	2.3366e-06	4.2402e-06	677.77	170.11	4.2715e-06	1.8112e-06	258.92	99.181	63.674	28.231	3.11e-06	45.432	0.00065934	0.00064765	0.00018058	619.05	6.4435e-06	7.5017e-06	747.23	188.68	7.0402e-06	7.2292e-06	287.26	110.37	70.986	31.782	7.0239e-06	51.09	162.726	234.975	221.786	161.672	281.702	297.462	160.831	166.246	286.121	297.803	164.961	169.992	171.175	176.682	274.105	174.340	-8191	255	
2884.525	1	1	0	0	0.29605	0.14086	0.21238	0.10735	0.17539	0.12526	0.12781	0.16386	0.061454	0.21163	0.30684	0.2688	0.14928	0.35519	0.22064	0.19529	-1.9188	-3.1229	-2.5	-2.6458	-3.175	-2.1937	-2.6833	-2.9542	-2.0938	-2.9813	-2.5875	-2.3479	-3.0229	-2.3354	-2.6458	-2.9458	424.973	324.706	458.210	394.975	197.775	356.465	455.629	361.011	189.563	454.917	471.210	419.189	496.799	486.847	464.428	495.739	0.00066083	0.00023022	7.8897e-05	562.91	3.2054e-06	3.2284e-06	677.77	170.69	2.9847e-06	3.0842e-06	259.68	99.523	64.198	28.292	3.5939e-06	45.348	0.00066305	0.0006556	0.00017867	619.44	6.417e-06	7.312e-06	748.44	188.89	6.848e-06	7.0968e-06	288.71	111	71.292	31.741	7.1046e-06	51.005	162.241	236.025	242.050	161.653	295.826	295.081	160.945	165.935	278.431	302.138	165.206	169.871	171.251	176.636	279.763	174.374	-8191	255	
2884.596	1	1	0	0	0.15539	0.2665	0.154	0.22467	0.22122	0.15686	0.18978	0.47041	0.17528	0.050379	0.28324	0.29516	0.26031	0.20846	0.05603	0.017999	-1.7104	-3.0354	-2.6354	-2.3417	-3.1333	-2.4375	-2.5896	-3.0958	-2.0479	-2.9042	-2.8167	-2.1688	-3	-2.5187	-2.45	-3.2708	446.690	339.120	350.558	177.264	196.611	308.137	217.093	418.467	408.781	148.199	318.061	428.274	480.948	478.770	500.926	189.820	0.0006225	0.00036609	8.9568e-05	556.24	2.0261e-06	4.0912e-06	671.3	169.64	3.8549e-06	2.5651e-06	258.28	99.451	63.911	28.103	4.1958e-06	44.698	0.00065934	0.00063579	0.00017704	614.92	6.7418e-06	7.4374e-06	742.45	188.3	7.0802e-06	7.259e-06	287.32	110.67	71.101	31.478	7.2498e-06	50.481	164.271	236.943	230.768	161.550	279.679	302.930	161.012	166.070	279.185	287.181	165.034	169.488	171.179	176.745	294.226	174.342	-8191	255	
2884.717	1	1	0	0	0.012905	0.040151	0.17157	0.17131	0.27513	0.34034	0.10464	0.3142	0.11272	0.025592	0.11239	0.17808	0.22519	0.18878	0.1925	0.15968	-1.7583	-2.9646	-2.6167	-2.2354	-2.9875	-2.55	-2.6333	-3.2125	-2.2958	-2.7875	-2.8396	-2.2188	-3.0812	-2.5229	-2.1792	-3.2208	198.612	303.279	394.372	325.534	387.914	491.515	155.360	500.974	326.145	229.308	412.298	492.947	360.257	503.484	261.360	389.997	0.00065732	0.00035228	0.00011015	556.17	2.4002e-06	3.5765e-06	668.94	169.32	3.203e-06	2.2784e-06	257.92	99.15	63.575	27.866	3.9238e-06	44.662	0.00067549	0.00064727	0.00018356	612.12	6.7512e-06	7.3372e-06	740.85	187.91	6.9849e-06	7.327e-06	287.05	110.44	70.867	31.352	7.3844e-06	50.39	163.606	229.418	235.920	161.781	291.018	292.380	161.014	165.909	275.175	270.671	164.992	169.438	171.349	176.628	283.090	174.109	-8191	255	
2884.813	1	1	0	0	0.085606	0.19129	0.17236	0.13534	0.13888	0.13935	0.26543	0.29965	0.13711	0.031562	0.17405	0.25106	0.10931	0.10563	0.18148	0.25899	-1.8438	-2.4479	-2.7479	-2.2917	-2.8896	-2.5875	-2.2229	-3.2833	-2.2562	-2.5667	-2.9437	-2.3187	-3.0187	-2.5417	-2.3896	-3.1979	166.814	184.366	199.590	409.258	265.981	424.036	389.687	463.287	354.105	218.485	426.385	450.378	474.795	200.069	222.720	374.594	0.00065553	0.00029228	5.9428e-05	552.32	3.1844e-06	3.4505e-06	670.46	169.51	3.3762e-06	3.2316e-06	257.96	99.219	63.552	27.923	3.0336e-06	45.006	0.00067364	0.00066435	0.00018225	610.42	6.6674e-06	7.3882e-06	739.81	187.6	7.0028e-06	7.4831e-06	287.03	110.56	70.829	31.368	7.4371e-06	50.605	163.721	238.870	244.593	161.839	282.755	310.362	160.736	165.893	270.758	299.867	165.023	169.516	171.240	176.670	284.009	174.260	-8191	255	
#DATA ENDS
