BOXY.EXE: ISS Imagent and Oximeter Data Acquisition Program Version 0.80
Ascii Record File

#ACQ INFORMATION
2  Detector Channels 
16  External MUX Channels 
1  Auxiliary Channels 
5000  Waveform (CCF) Frequency (Hz)
1  Waveforms Skipped 
30  Waveforms Averaged 
1  Cycles Averaged 
16  Acquisitions per Waveform 
10.0806  Updata Rate (Hz) 

#FILE INFORMATION
TRUE -- External MUX Channel results are PARSED.
FALSE -- AC DC and Phase are NOT grouped.
TRUE -- Companion Program Settings File CREATED.
FALSE -- AC data not excluded
FALSE -- DC data not excluded
FALSE -- Phase data not excluded
FALSE -- Auxillary Chn. data not excluded
Tab delimiters

#CALIBRATION STATE
TRUE -- Waveform Calibration Values APPLIED.


#AUX CALIBRATION VALUES
Val Type	aux-1	

Term	1.0000e+00	
Factor	0.0000e+00	


#WF CALIBRATION VALUES
A = Detector Channel
Val Type	A-AC1	A-AC2	A-AC3	A-AC4	A-AC5	A-AC6	A-AC7	A-AC8	A-AC9	A-AC10	A-AC11	A-AC12	A-AC13	A-AC14	A-AC15	A-AC16	A-DC1	A-DC2	A-DC3	A-DC4	A-DC5	A-DC6	A-DC7	A-DC8	A-DC9	A-DC10	A-DC11	A-DC12	A-DC13	A-DC14	A-DC15	A-DC16	A-Ph1	A-Ph2	A-Ph3	A-Ph4	A-Ph5	A-Ph6	A-Ph7	A-Ph8	A-Ph9	A-Ph10	A-Ph11	A-Ph12	A-Ph13	A-Ph14	A-Ph15	A-Ph16	

Term	0.00000e+00	0.00000e+00	0.00000e+00	0.00000e+00	0.00000e+00	0.00000e+00	0.00000e+00	0.00000e+00	0.00000e+00	0.00000e+00	0.00000e+00	0.00000e+00	0.00000e+00	0.00000e+00	0.00000e+00	0.00000e+00	0.00000e+00	0.00000e+00	0.00000e+00	0.00000e+00	0.00000e+00	0.00000e+00	0.00000e+00	0.00000e+00	0.00000e+00	0.00000e+00	0.00000e+00	0.00000e+00	0.00000e+00	0.00000e+00	0.00000e+00	0.00000e+00	0.00000e+00	0.00000e+00	0.00000e+00	0.00000e+00	0.00000e+00	0.00000e+00	0.00000e+00	0.00000e+00	0.00000e+00	0.00000e+00	0.00000e+00	0.00000e+00	0.00000e+00	0.00000e+00	0.00000e+00	0.00000e+00	
Factor	1.00000e+00	1.00000e+00	1.00000e+00	1.00000e+00	1.00000e+00	1.00000e+00	1.00000e+00	1.00000e+00	1.00000e+00	1.00000e+00	1.00000e+00	1.00000e+00	1.00000e+00	1.00000e+00	1.00000e+00	1.00000e+00	1.00000e+00	1.00000e+00	1.00000e+00	1.00000e+00	1.00000e+00	1.00000e+00	1.00000e+00	1.00000e+00	1.00000e+00	1.00000e+00	1.00000e+00	1.00000e+00	1.00000e+00	1.00000e+00	1.00000e+00	1.00000e+00	X	X	X	X	X	X	X	X	X	X	X	X	X	X	X	X	

B = Detector Channel
Val Type	B-AC1	B-AC2	B-AC3	B-AC4	B-AC5	B-AC6	B-AC7	B-AC8	B-AC9	B-AC10	B-AC11	B-AC12	B-AC13	B-AC14	B-AC15	B-AC16	B-DC1	B-DC2	B-DC3	B-DC4	B-DC5	B-DC6	B-DC7	B-DC8	B-DC9	B-DC10	B-DC11	B-DC12	B-DC13	B-DC14	B-DC15	B-DC16	B-Ph1	B-Ph2	B-Ph3	B-Ph4	B-Ph5	B-Ph6	B-Ph7	B-Ph8	B-Ph9	B-Ph10	B-Ph11	B-Ph12	B-Ph13	B-Ph14	B-Ph15	B-Ph16	

Term	0.00000e+00	0.00000e+00	0.00000e+00	0.00000e+00	0.00000e+00	0.00000e+00	0.00000e+00	0.00000e+00	0.00000e+00	0.00000e+00	0.00000e+00	0.00000e+00	0.00000e+00	0.00000e+00	0.00000e+00	0.00000e+00	0.00000e+00	0.00000e+00	0.00000e+00	0.00000e+00	0.00000e+00	0.00000e+00	0.00000e+00	0.00000e+00	0.00000e+00	0.00000e+00	0.00000e+00	0.00000e+00	0.00000e+00	0.00000e+00	0.00000e+00	0.00000e+00	-1.55424e+02	-1.27235e+02	-1.24166e+02	-1.80391e+02	-7.40752e+01	-6.35377e+01	-1.56642e+02	-1.62015e+02	-7.80018e+01	-6.24457e+01	-1.75242e+02	-1.71364e+02	-1.79620e+02	-1.76316e+02	-7.26602e+01	-1.49562e+02	
Factor	2.32168e-05	1.44619e-04	3.90176e-05	1.53962e-01	1.28637e-06	1.68364e-06	1.74380e-01	5.13261e-02	1.26631e-06	1.62331e-06	9.43026e-02	3.18907e-02	2.43581e-02	9.34159e-03	1.41395e-06	1.29416e-02	1.42752e-05	2.56240e-05	7.09592e-06	7.92124e-02	2.49870e-07	2.88134e-07	8.45014e-02	2.65240e-02	2.52790e-07	2.91573e-07	4.71960e-02	1.60623e-02	1.27823e-02	4.86681e-03	2.69113e-07	6.54773e-03	X	X	X	X	X	X	X	X	X	X	X	X	X	X	X	X	



#DISTANCE SETTINGS
A = Detector Channel
A-1	A-2	A-3	A-4	A-5	A-6	A-7	A-8	A-9	A-10	A-11	A-12	A-13	A-14	A-15	A-16	

2.5000e+00	3.0000e+00	2.5000e+00	3.0000e+00	2.0000e+00	3.0000e+00	1.5000e+00	3.0000e+00	3.0000e+00	3.0000e+00	3.0000e+00	3.0000e+00	3.0000e+00	3.0000e+00	1.5000e+00	3.0000e+00	

B = Detector Channel
B-1	B-2	B-3	B-4	B-5	B-6	B-7	B-8	B-9	B-10	B-11	B-12	B-13	B-14	B-15	B-16	

1.0000e+01	1.0000e+01	1.0000e+01	1.4400e+00	1.0000e+01	1.0000e+01	1.5100e+00	1.9400e+00	1.0000e+01	1.0000e+01	1.9900e+00	2.4900e+00	2.4100e+00	2.9000e+00	1.0000e+01	2.9800e+00	




#DATA BEGINS
time	group	step	mark	flag	A-AC1	A-AC2	A-AC3	A-AC4	A-AC5	A-AC6	A-AC7	A-AC8	A-AC9	A-AC10	A-AC11	A-AC12	A-AC13	A-AC14	A-AC15	A-AC16	A-DC1	A-DC2	A-DC3	A-DC4	A-DC5	A-DC6	A-DC7	A-DC8	A-DC9	A-DC10	A-DC11	A-DC12	A-DC13	A-DC14	A-DC15	A-DC16	A-Ph1	A-Ph2	A-Ph3	A-Ph4	A-Ph5	A-Ph6	A-Ph7	A-Ph8	A-Ph9	A-Ph10	A-Ph11	A-Ph12	A-Ph13	A-Ph14	A-Ph15	A-Ph16	B-AC1	B-AC2	B-AC3	B-AC4	B-AC5	B-AC6	B-AC7	B-AC8	B-AC9	B-AC10	B-AC11	B-AC12	B-AC13	B-AC14	B-AC15	B-AC16	B-DC1	B-DC2	B-DC3	B-DC4	B-DC5	B-DC6	B-DC7	B-DC8	B-DC9	B-DC10	B-DC11	B-DC12	B-DC13	B-DC14	B-DC15	B-DC16	B-Ph1	B-Ph2	B-Ph3	B-Ph4	B-Ph5	B-Ph6	B-Ph7	B-Ph8	B-Ph9	B-Ph10	B-Ph11	B-Ph12	B-Ph13	B-Ph14	B-Ph15	B-Ph16	aux-1	digaux	

2363.179	1	1	0	131840	0.28929	0.20698	0.33211	0.20139	0.15715	0.09078	0.23125	0.14872	0.11045	0.19595	0.31272	0.32142	0.16662	0.075957	0.20967	0.23167	-2.2812	-2.9938	-2.175	-3.4313	-2.625	-2.4313	-3.4792	-2.6667	-2.8604	-3.075	-2.5083	-3.2188	-3	-2.4708	-3.2958	-2.4854	-9.515	178.897	14.302	269.845	252.684	103.535	229.155	261.519	-24.442	4.011	213.846	201.519	33.704	106.686	92.252	261.708	0.00021389	0.00064131	0.00012738	1662.5	2.941e-06	5.7227e-06	1623	415.23	3.2454e-06	4.6756e-06	466.36	155.94	137.68	46.729	6.6969e-06	56.606	0.00079858	0.0010892	0.00030079	1686.8	1.114e-05	1.1482e-05	1646.6	423.85	1.0676e-05	1.082e-05	476.55	160.82	141.42	48.053	1.0042e-05	58.322	148.611	38.310	14.937	-65.301	77.173	50.975	-65.671	-60.934	52.217	91.339	-61.037	-57.138	-56.804	-51.874	84.820	-52.601	-8191	255	
2363.275	1	1	0	0	0.11988	0.17728	0.069035	0.32106	0.079101	0.19451	0.24853	0.052086	0.10787	0.23012	0.19804	0.082396	0.10305	0.075309	0.10178	0.052994	-2.3937	-3.0396	-2.3354	-3.1417	-3.0083	-2.3708	-3.6229	-2.7208	-2.7917	-3.1813	-2.4542	-3.0583	-2.9396	-2.4333	-3.0333	-2.7313	68.683	-72.912	116.921	-66.315	175.559	218.878	226.013	233.492	277.653	31.670	179.954	99.615	278.979	-64.342	8.204	145.490	0.0001952	0.00064688	0.00018098	1627.2	3.133e-06	6.8753e-06	1581.3	408.44	2.098e-06	4.6488e-06	458.11	152.08	133.41	45.555	4.1622e-06	55.673	0.00069568	0.00090501	0.00025735	1642.5	9.404e-06	1.0169e-05	1602.9	415.06	8.8535e-06	9.0333e-06	466.23	156.48	137.47	46.782	8.4014e-06	57.169	149.138	20.700	35.800	-65.091	90.862	71.346	-65.480	-60.931	38.241	86.105	-61.563	-57.651	-56.865	-52.138	70.072	-52.693	-8191	255	
2363.371	1	1	0	0	0.13999	0.11565	0.20551	0.24653	0.099831	0.1987	0.24877	0.13113	0.23882	0.15567	0.37724	0.099075	0.08594	0.39545	0.15685	0.17813	-2.1042	-3.0479	-2.45	-3.1063	-2.9313	-2.1813	-3.5792	-2.8812	-2.5521	-3.2896	-2.4229	-3.05	-3.2687	-2.4333	-3.1521	-2.8917	-55.738	-5.750	262.035	-74.548	-25.460	71.445	200.068	-59.145	59.113	8.838	264.891	172.088	152.691	191.199	185.035	215.937	0.00019499	0.00049512	0.00012428	1572.8	1.2663e-06	6.4542e-06	1531.3	395.97	2.9617e-06	6.5825e-06	451.67	149.07	130.92	44.688	4.1109e-06	54.838	0.0006202	0.00076824	0.00021428	1586.4	8.0104e-06	8.4081e-06	1552.2	403.31	8.0566e-06	7.9976e-06	456.87	153.4	134.45	45.84	7.8105e-06	56.296	147.571	9.960	20.220	-65.377	62.212	60.728	-65.610	-60.971	58.046	68.864	-61.360	-57.180	-56.689	-51.717	72.084	-52.364	-8191	255	
2363.467	1	1	0	0	0.18801	0.076331	0.073393	0.145	0.069195	0.29666	0.10024	0.31851	0.067378	0.041746	0.11331	0.12879	0.12603	0.26703	0.055869	0.21598	-2.1229	-3.25	-2.4021	-3.1833	-3.1188	-2.5	-3.4437	-3.0312	-2.6208	-3.2729	-2.4958	-2.9271	-3.2854	-2.4688	-3.1792	-3.0958	-65.884	219.138	171.066	236.434	175.447	-50.709	268.494	179.328	199.479	21.843	53.338	270.693	87.175	-72.708	-48.382	227.133	0.00020579	0.00050107	0.00015967	1521.4	2.0411e-06	3.8915e-06	1492.3	388.71	1.5991e-06	6.8431e-06	442.4	147.19	129.36	44.166	4.4935e-06	54.45	0.00058032	0.00068859	0.00019446	1542.9	7.404e-06	7.83e-06	1517.9	396.31	7.5068e-06	7.7352e-06	449.49	151.33	132.15	45.314	7.3765e-06	55.757	156.152	10.437	-0.819	-65.137	104.447	77.585	-65.476	-61.036	43.713	61.819	-60.965	-57.326	-56.437	-51.833	74.109	-52.429	-8191	255	
2363.563	1	1	0	0	0.14911	0.13361	0.11826	0.21567	0.10138	0.20396	0.16406	0.089978	0.12922	0.071916	0.2121	0.068089	0.22997	0.17218	0.34704	0.13801	-2.3104	-3.2938	-2.4875	-2.9562	-3.1771	-2.2479	-3.2917	-2.9896	-2.25	-3.3125	-2.825	-2.7062	-3.3833	-2.3146	-3.0354	-3.0729	22.071	-61.062	261.195	248.839	245.418	115.429	125.035	-39.996	-22.479	139.829	170.289	253.030	-27.031	60.836	197.090	150.534	0.00021075	0.00064881	0.00014825	1498.8	3.7439e-06	5.0671e-06	1473.3	388.32	2.6505e-06	4.8732e-06	444.23	147.16	127.43	43.909	4.4388e-06	53.951	0.0005772	0.00068854	0.00020593	1518.3	7.4748e-06	7.8504e-06	1496.5	393.41	7.6401e-06	7.4843e-06	446.83	150.03	130.92	44.82	7.136e-06	55.3	152.438	16.957	21.996	-65.025	58.666	60.524	-65.534	-60.870	35.243	99.005	-60.862	-56.695	-56.304	-51.732	83.700	-52.262	-8191	255	
2363.659	1	1	0	0	0.13918	0.24459	0.095134	0.17421	0.087777	0.22534	0.18424	0.11259	0.34232	0.19729	0.1847	0.071642	0.13137	0.25222	0.20555	0.13104	-2.0542	-3.2146	-2.6708	-2.8521	-3.2687	-2.5812	-3.1521	-3.1771	-2.4521	-3.1813	-2.9646	-2.5354	-3.1396	-2.4958	-2.8125	-3.1562	-47.006	118.245	137.551	170.684	-12.138	-68.893	173.559	212.326	257.345	251.689	258.061	156.643	24.546	163.603	206.644	23.120	0.00019578	0.00056276	0.00018346	1483.2	3.1822e-06	5.1753e-06	1457	382.75	1.6674e-06	5.8006e-06	435.59	144.74	127.46	43.61	2.5367e-06	53.811	0.00056149	0.00063526	0.00017806	1495.9	6.8626e-06	7.1025e-06	1476.1	388.8	7.1724e-06	6.8617e-06	441.89	148.53	129.93	44.487	6.5905e-06	55.015	144.292	6.940	17.181	-65.197	65.283	70.658	-65.463	-60.808	53.929	77.917	-61.373	-57.241	-56.609	-51.799	72.647	-52.196	-8191	255	
2363.780	1	1	0	0	0.21858	0.22819	0.32409	0.17396	0.19718	0.044166	0.38216	0.20916	0.10203	0.25814	0.12068	0.17874	0.14347	0.16123	0.17811	0.13565	-2.0104	-3.1312	-2.8667	-2.6896	-3.2042	-2.5167	-3.0458	-3.4437	-2.3187	-3.1625	-2.8271	-2.5208	-3.3333	-2.6562	-2.7646	-3.2792	94.960	11.760	-1.531	-60.707	23.169	-44.686	269.976	183.575	259.602	265.538	36.662	89.145	218.916	224.412	167.974	159.273	0.00016509	0.00041324	0.00016028	1459.1	3.3103e-06	3.874e-06	1434.6	378.63	2.3249e-06	4.6991e-06	429.67	143.29	126.19	43.301	4.6604e-06	53.319	0.00052699	0.00058994	0.0001613	1473.2	6.2348e-06	6.4026e-06	1452.6	384.26	6.4309e-06	6.1832e-06	436.45	147.08	128.41	44.174	6.4156e-06	54.436	152.345	22.241	10.166	-65.156	70.592	84.438	-65.225	-60.818	56.067	78.733	-61.019	-57.112	-56.686	-51.477	54.528	-52.271	-8191	255	
2363.874	1	1	0	0	0.14506	0.2657	0.17583	0.27469	0.077399	0.21355	0.11835	0.14234	0.17161	0.11837	0.16451	0.19624	0.074914	0.048539	0.13299	0.12018	-2.0583	-2.9771	-2.9396	-2.6479	-3.3083	-2.6437	-3.0208	-3.5312	-2.3375	-3.0646	-3.0458	-2.4604	-3.3646	-2.8958	-2.4771	-3.3354	52.116	33.467	97.536	203.443	164.011	138.465	246.901	233.034	168.170	196.826	36.481	-45.839	-16.574	48.127	67.185	202.864	0.00019982	0.00057079	0.00015646	1436.8	3.1897e-06	5.4876e-06	1426.8	376.78	2.7616e-06	5.5959e-06	429.07	142.88	124.62	42.934	3.1296e-06	53.029	0.00049907	0.00056314	0.00015985	1447.2	6.2145e-06	6.2357e-06	1437.6	381.02	6.5125e-06	6.2725e-06	434.48	146.41	127.51	43.95	6.2261e-06	54.113	147.784	20.707	15.074	-64.863	92.287	71.146	-65.143	-60.609	54.185	75.611	-60.981	-56.872	-56.231	-51.419	59.612	-52.129	-8191	255	
2363.972	1	1	0	0	0.23224	0.38123	0.18889	0.33699	0.12654	0.058054	0.10903	0.26458	0.15723	0.11565	0.053205	0.20429	0.080063	0.15449	0.15676	0.32807	-2.15	-3.0021	-3.0646	-2.7188	-3.2021	-2.8521	-2.6688	-3.3187	-2.6354	-2.9938	-3.1021	-2.4604	-3.2	-2.9813	-2.55	-3.2917	11.155	140.030	210.318	239.711	271.136	118.375	225.153	222.984	171.917	-15.525	14.625	209.848	178.515	-12.583	111.055	206.053	0.00020752	0.00057754	0.00013399	1430	3.9298e-06	5.6926e-06	1418.6	376.37	3.1508e-06	4.8868e-06	429.05	142.86	125.13	43.088	3.5013e-06	52.858	0.00048426	0.00053244	0.00015079	1440.7	5.8615e-06	5.7873e-06	1431.4	380.39	6.157e-06	5.8728e-06	433.23	146.06	127.37	43.979	6.1733e-06	53.966	152.469	7.900	27.217	-64.883	74.573	73.345	-65.212	-60.712	40.755	88.658	-61.140	-57.151	-56.612	-51.793	58.954	-52.397	-8191	255	
2364.069	1	1	0	0	0.38811	0.11212	0.095041	0.26377	0.063927	0.39511	0.19686	0.10578	0.25434	0.094534	0.23277	0.13737	0.13179	0.2047	0.056099	0.28945	-1.9688	-2.8146	-2.8063	-2.4437	-3.2229	-3.0875	-2.5083	-3.3625	-2.7479	-2.9437	-3.375	-2.4396	-3.1917	-3.0833	-2.3042	-3.5521	141.849	75.336	165.848	220.800	55.088	-0.027	248.757	248.720	67.790	-66.688	244.342	-28.962	137.476	-73.837	225.571	-55.833	0.00019044	0.00048705	0.00010038	1426.3	3.3298e-06	5.1708e-06	1412.2	373.33	2.0271e-06	4.4688e-06	426.77	142.84	125.03	43.094	3.418e-06	52.873	0.00048601	0.00053591	0.000146	1435.4	5.5867e-06	6.0046e-06	1427.3	378.57	5.9032e-06	6.1036e-06	432.25	146.06	127.29	43.932	6.0943e-06	53.868	156.758	1.746	7.114	-65.650	70.021	73.885	-65.611	-60.930	57.805	92.471	-61.277	-57.303	-56.915	-51.891	97.553	-52.554	-8191	255	
2364.163	1	1	0	0	0.26352	0.054449	0.047918	0.16228	0.19004	0.11777	0.23543	0.14074	0.21007	0.19407	0.2543	0.32808	0.23437	0.10269	0.10024	0.051891	-2.2062	-2.5708	-3.2188	-2.6417	-3.0917	-2.9437	-2.6354	-3.2458	-2.9	-2.6604	-3.5333	-2.4021	-2.8708	-3.2104	-2.2292	-3.2604	90.066	219.324	32.471	272.131	235.311	67.063	279.252	-59.565	101.097	274.051	-34.959	48.563	-63.370	-77.502	23.450	93.799	0.00019183	0.00057811	0.00010557	1424.6	2.0677e-06	5.9281e-06	1410.9	375.52	3.5595e-06	4.8495e-06	428.55	141.57	125	43.129	5.3342e-06	52.642	0.00048307	0.0005554	0.00014137	1432.6	5.8017e-06	6.1162e-06	1422.6	378.72	5.9495e-06	6.1625e-06	431.63	145.1	127.26	43.894	6.008e-06	53.807	151.974	12.488	31.687	-65.276	58.260	81.126	-65.435	-60.748	64.495	70.424	-61.524	-57.335	-56.767	-51.940	64.274	-52.435	-8191	255	
2364.259	1	1	0	0	0.17818	0.087304	0.078482	0.023679	0.10406	0.057687	0.27708	0.049958	0.053504	0.22003	0.12712	0.14488	0.29189	0.22073	0.16978	0.037917	-2.4813	-2.3896	-3.2438	-2.7271	-2.8854	-3.2438	-2.6229	-3.4062	-2.6833	-2.4771	-3.3542	-2.4771	-2.8521	-3.1167	-2.2062	-3.2729	171.466	-53.784	170.450	252.440	151.734	44.269	259.111	267.920	82.101	178.336	162.015	162.506	-37.985	228.955	-61.492	-18.989	0.00018408	0.00053051	0.00013619	1417.8	3.0949e-06	4.4723e-06	1414.9	373.91	2.2861e-06	3.2728e-06	425.7	142.5	123.81	43.18	3.1922e-06	52.814	0.00046707	0.00055599	0.00014266	1426.7	5.8995e-06	5.5166e-06	1422	377.44	5.6162e-06	5.7835e-06	429.91	145.62	126.62	43.878	5.833e-06	53.888	148.220	19.756	12.978	-65.182	73.663	73.890	-65.258	-60.745	58.279	107.315	-61.141	-57.191	-56.416	-51.957	91.290	-52.454	-8191	255	
2364.380	1	1	0	0	0.21486	0.2833	0.16189	0.25875	0.17036	0.093947	0.22732	0.26804	0.21443	0.21811	0.19256	0.089578	0.061034	0.26929	0.15838	0.39324	-2.6292	-2.3542	-3.1333	-2.6333	-2.7667	-3.3312	-2.6167	-3.2438	-2.9	-2.5	-3.3563	-2.8792	-2.7604	-3.2979	-2.3646	-3.225	56.552	-34.775	82.367	249.181	267.476	143.264	229.522	-34.615	150.503	241.967	213.075	26.934	220.513	142.413	148.965	261.338	0.00020498	0.00035011	0.00014214	1413.4	4.4485e-06	4.5711e-06	1406.1	373.41	2.6833e-06	4.769e-06	425.45	142.63	124.29	43.054	4.6434e-06	52.768	0.00045577	0.00051488	0.00013881	1422.3	5.5424e-06	5.4223e-06	1414.9	377.41	5.4213e-06	5.7853e-06	428.9	145.38	126.55	43.831	5.7798e-06	53.832	154.939	28.356	21.928	-65.043	79.092	47.515	-65.305	-60.441	90.896	65.195	-61.368	-57.193	-56.340	-51.538	69.951	-52.198	-8191	255	
2364.476	1	1	0	0	0.15558	0.17594	0.030198	0.42422	0.21074	0.16388	0.42305	0.11689	0.11834	0.15645	0.18034	0.31808	0.056844	0.23728	0.23687	0.13547	-2.6958	-2.3042	-3.3083	-2.8854	-2.5187	-3.3854	-2.7188	-3.1375	-3.0896	-2.2708	-3.5146	-2.6312	-2.7542	-3.2708	-2.3875	-3.2104	206.662	162.042	-30.445	195.396	151.348	218.478	208.237	21.969	238.672	78.399	220.221	260.926	271.980	255.245	197.238	194.742	0.00018524	0.00038376	0.00010423	1409.7	2.6776e-06	4.2936e-06	1396	371.9	1.5907e-06	5.7898e-06	424.41	143	123.76	42.953	4.6612e-06	52.71	0.0004544	0.00054867	0.00013837	1416.2	5.7288e-06	5.3779e-06	1410.6	376.08	5.6514e-06	5.7227e-06	429.24	145.4	126.37	43.813	5.9401e-06	53.677	143.177	11.024	18.674	-65.065	75.417	67.102	-65.281	-60.507	88.071	92.691	-60.805	-57.112	-56.194	-51.429	80.170	-52.234	-8191	255	
2364.572	1	1	0	0	0.24013	0.21461	0.056896	0.059528	0.20642	0.13868	0.24371	0.31529	0.22207	0.075371	0.19548	0.070605	0.038901	0.080443	0.10634	0.24128	-2.6063	-2.2708	-3.1229	-3.1021	-2.5792	-3.3937	-2.6271	-2.9854	-3.1708	-2.3792	-3.3312	-2.9521	-2.6375	-3.3063	-2.6104	-2.8104	197.702	181.700	267.924	-54.764	198.196	50.084	171.289	229.126	3.204	105.777	279.346	195.535	87.124	-2.043	98.482	245.008	0.00015689	0.00046411	0.00015349	1406.3	2.0198e-06	5.8982e-06	1402.2	373.27	2.1833e-06	5.8926e-06	426.59	142.36	124.94	42.746	3.7693e-06	52.706	0.00046002	0.00051477	0.00014357	1414.9	5.9344e-06	5.5376e-06	1409.9	375.99	5.7857e-06	5.874e-06	429.35	145.09	126.5	43.744	5.8375e-06	53.76	156.256	7.808	17.095	-64.715	47.698	75.353	-64.970	-60.185	83.159	76.222	-60.863	-56.821	-56.015	-51.648	46.959	-51.676	-8191	255	
2364.668	1	1	0	0	0.099557	0.15028	0.1717	0.18525	0.063544	0.1069	0.1541	0.36823	0.16015	0.29247	0.19682	0.1133	0.17801	0.53004	0.20103	0.10107	-2.6562	-2.4167	-2.9875	-3.0958	-2.475	-3.35	-2.7625	-2.7354	-3.3375	-2.475	-3.1917	-3.0375	-2.3375	-3.1771	-2.8333	-2.5812	127.228	-30.154	0.622	211.020	248.631	142.619	192.865	276.514	104.677	209.347	173.396	265.332	221.505	240.071	17.871	142.976	0.00020321	0.00053096	0.00011702	1412.6	1.8003e-06	5.2383e-06	1399.1	371.31	2.579e-06	3.9093e-06	422.99	142.49	124.26	43.166	3.6628e-06	52.799	0.00046508	0.00053629	0.00014038	1414.8	5.9542e-06	5.5142e-06	1408.5	375.01	5.5951e-06	5.7288e-06	427.89	144.93	126.33	43.91	5.5925e-06	53.786	148.943	1.699	18.834	-64.850	86.369	92.856	-65.595	-60.722	46.001	86.145	-61.406	-57.365	-56.700	-51.851	69.106	-52.529	-8191	255	
2364.740	1	1	0	0	0.23184	0.13369	0.17964	0.23117	0.43708	0.20855	0.35296	0.23185	0.13422	0.21775	0.16179	0.24221	0.20527	0.29338	0.098594	0.21002	-2.8375	-2.2854	-2.8708	-3.4167	-2.5146	-3.3375	-2.9292	-2.6625	-3.275	-2.5625	-2.9792	-3.2104	-2.4771	-3.2833	-3	-2.4521	11.442	47.332	224.577	-60.314	4.665	229.890	228.569	141.150	195.759	98.354	202.471	154.725	-1.556	-37.730	29.681	158.411	0.00017994	0.00053682	0.00012138	1410.2	3.3819e-06	7.0802e-06	1391.7	371.65	2.6454e-06	3.2243e-06	424.27	142.17	123.38	43.007	3.2267e-06	52.607	0.00044411	0.00050687	0.00013549	1409.9	5.6096e-06	5.3599e-06	1402.6	374.72	5.622e-06	5.385e-06	427.89	144.98	125.98	43.729	5.5667e-06	53.609	156.186	1.381	17.749	-65.387	65.655	65.087	-65.510	-60.850	63.455	88.196	-61.186	-57.358	-56.460	-51.734	51.811	-52.338	-8191	255	
2364.860	1	1	0	0	0.22679	0.19853	0.22638	0.2399	0.33918	0.12247	0.28255	0.18589	0.16749	0.027754	0.36406	0.22176	0.33451	0.29242	0.33278	0.13884	-3.0187	-2.4042	-2.8937	-3.3521	-2.3917	-3.2271	-3.0333	-2.5333	-3.2083	-2.4792	-2.8854	-3.2667	-2.3438	-3.1125	-2.9146	-2.4813	152.688	231.608	-39.816	226.937	277.778	70.979	253.048	222.499	-21.321	253.282	229.645	196.823	-71.932	218.343	158.076	157.725	0.00019638	0.00044484	0.00010617	1402.2	3.7811e-06	5.5782e-06	1393.1	369.98	2.2358e-06	3.8154e-06	426.16	142.11	123.98	42.831	4.282e-06	52.399	0.00045279	0.00051889	0.00014071	1408.5	5.949e-06	5.5898e-06	1405.3	374.75	5.5298e-06	5.8618e-06	428.65	144.76	125.97	43.66	5.9564e-06	53.52	144.630	10.341	2.098	-65.443	61.323	81.965	-65.447	-60.770	40.231	93.499	-61.240	-57.370	-56.758	-51.773	61.250	-52.060	-8191	255	
2364.955	1	1	0	0	0.23525	0.083495	0.030136	0.17251	0.10957	0.081929	0.085864	0.21796	0.18949	0.2696	0.28283	0.28116	0.43499	0.34344	0.0026991	0.20263	-2.9271	-2.4562	-2.7458	-3.275	-2.3729	-3.0958	-3.2438	-2.5708	-3.1333	-2.7	-2.6729	-3.1479	-2.5062	-3.2771	-3.0354	-2.4729	247.854	-34.527	135.217	272.669	240.713	196.195	205.390	118.309	-25.781	272.802	-40.724	-40.421	215.496	-21.272	2.022	-49.322	0.00020515	0.00050752	0.0001442	1398.9	3.0633e-06	5.5658e-06	1389.4	370.53	4.0256e-06	3.8086e-06	423.57	142.07	123.83	42.875	3.5903e-06	52.734	0.00046644	0.00054099	0.00014557	1406.6	5.7767e-06	5.645e-06	1400.6	374.03	5.7942e-06	5.6468e-06	427.86	144.59	126.03	43.702	5.6643e-06	53.613	153.602	28.338	21.716	-65.288	78.622	69.986	-65.508	-60.590	59.691	68.921	-60.719	-56.886	-56.539	-51.757	62.525	-52.218	-8191	255	
2365.053	1	1	0	0	0.25174	0.14883	0.092237	0.13532	0.19642	0.1868	0.26696	0.31534	0.10537	0.13705	0.05558	0.22559	0.1472	0.15646	0.15346	0.15095	-3.0667	-2.7729	-2.5604	-3.5312	-2.5792	-2.8708	-3.1188	-2.3979	-3.225	-2.8583	-2.5771	-3.2708	-2.5563	-3.0083	-3.0771	-2.4167	123.349	88.964	3.790	-47.899	65.696	-11.810	175.759	213.826	-19.055	69.469	149.461	271.028	15.795	260.133	234.961	-35.295	0.00018003	0.0005784	9.6666e-05	1400.6	3.3947e-06	5.512e-06	1387.2	370.34	1.5006e-06	5.17e-06	425.3	143.79	125.07	43.351	3.8671e-06	53.052	0.00045606	0.00051568	0.00014054	1405.7	5.4925e-06	5.4751e-06	1399.8	374.03	5.3997e-06	5.4488e-06	427.96	145.13	126.37	43.851	5.5813e-06	53.704	147.586	6.091	10.004	-65.072	63.648	71.888	-65.294	-60.672	33.052	69.423	-61.040	-56.669	-56.228	-51.414	74.678	-52.129	-8191	255	
2365.172	1	1	0	0	0.24989	0.24693	0.10481	0.13569	0.11526	0.057616	0.13989	0.14736	0.22209	0.025697	0.2537	0.051165	0.20888	0.16171	0.13103	0.10532	-2.7875	-2.7833	-2.4688	-3.3125	-2.5542	-2.6458	-3.4625	-2.4583	-3.05	-2.9437	-2.6188	-3.4417	-2.6937	-2.8417	-3.0375	-2.4292	54.949	32.868	-62.520	274.889	-39.091	80.810	195.585	280.714	215.282	165.252	-24.259	-58.750	224.421	276.912	23.018	196.666	0.00019441	0.00037846	0.00010992	1418.1	3.9441e-06	5.9348e-06	1403.9	373.84	2.8638e-06	4.8893e-06	427.67	142.95	124.41	43.26	3.0515e-06	53.154	0.00045303	0.00050437	0.00013617	1409	5.6715e-06	5.5508e-06	1402.7	375.4	5.4877e-06	5.3443e-06	428.7	145.02	125.93	43.777	5.4703e-06	53.807	146.439	18.728	29.942	-65.096	67.948	64.158	-64.979	-60.512	60.646	76.232	-60.713	-56.871	-56.348	-51.134	71.176	-52.152	-8191	255	
2365.268	1	1	0	0	0.078853	0.055514	0.11183	0.32355	0.1857	0.10369	0.27016	0.063684	0.14312	0.22973	0.16652	0.062286	0.039627	0.062852	0.086266	0.077144	-2.6271	-2.9167	-2.2938	-3.3542	-2.6417	-2.5042	-3.6813	-2.3979	-3.0687	-3.0979	-2.4688	-3.3854	-2.8521	-2.8792	-3.2229	-2.7042	216.599	250.263	74.956	257.881	266.273	-29.660	229.300	200.537	119.077	195.921	205.376	203.405	153.297	83.847	-61.617	226.163	0.00017076	0.00049608	0.0001298	1413.7	2.5339e-06	5.3984e-06	1397.6	371.77	3.0868e-06	6.5355e-06	428.97	142.81	124.69	43.268	3.6613e-06	53.019	0.00044313	0.00047981	0.00014026	1405.2	5.4061e-06	5.3689e-06	1400.1	374.04	5.6162e-06	5.275e-06	428.14	144.77	125.97	43.746	5.3778e-06	53.634	146.880	29.100	15.475	-64.842	64.616	85.094	-64.984	-60.334	54.951	79.976	-60.534	-56.616	-55.953	-51.212	66.686	-52.066	-8191	255	
2365.339	1	1	0	0	0.098842	0.21323	0.21493	0.40359	0.11918	0.22636	0.088143	0.086357	0.023171	0.35752	0.074809	0.2568	0.23103	0.16389	0.086206	0.12925	-2.575	-3.1562	-2.4979	-3.3875	-2.8771	-2.4583	-3.3792	-2.7271	-2.8646	-2.9875	-2.4792	-3.2896	-3.0563	-2.5583	-3.2833	-2.6333	273.733	126.685	-7.608	227.770	245.365	223.446	219.146	251.609	69.353	88.360	212.563	167.876	254.235	-1.868	-60.403	-70.237	0.00019149	0.0004761	0.00010982	1408.2	3.7103e-06	4.719e-06	1400.2	371.9	2.4141e-06	5.2028e-06	426.28	142.45	124.6	43.077	2.2765e-06	52.949	0.00044583	0.00049033	0.00013691	1406	5.3759e-06	5.6492e-06	1398	373.54	5.6499e-06	5.4962e-06	427.08	144.43	125.84	43.609	5.5499e-06	53.539	148.629	11.550	8.011	-64.724	79.115	80.903	-65.016	-60.392	51.768	88.036	-60.774	-56.836	-56.121	-51.369	83.219	-51.930	-8191	255	
2365.460	1	1	0	0	0.31458	0.19001	0.15216	0.30944	0.17012	0.12155	0.060088	0.13541	0.050803	0.51081	0.025235	0.13251	0.22061	0.19868	0.19236	0.19421	-2.4125	-3.1937	-2.4375	-3.1167	-2.8479	-2.3875	-3.4708	-2.7708	-2.6854	-3.3458	-2.3854	-3.1917	-3.2083	-2.5375	-3.2833	-2.7542	173.626	78.068	-15.866	263.000	125.197	245.805	114.285	250.533	225.369	-55.993	165.496	208.051	245.303	258.646	248.383	211.564	0.00018356	0.00053969	0.00010846	1408.2	3.0293e-06	4.4266e-06	1395.9	371.79	2.4607e-06	6.4333e-06	423.43	142.99	123.74	43.142	3.4148e-06	52.71	0.00046293	0.00050533	0.000144	1403.3	5.5508e-06	5.6198e-06	1397.2	373.07	5.5561e-06	5.5806e-06	426.04	144.61	125.34	43.568	5.4557e-06	53.453	149.020	22.807	15.153	-64.698	69.267	82.872	-64.867	-60.328	40.739	67.362	-60.475	-56.485	-55.783	-51.132	59.568	-52.345	-8191	255	
2365.556	1	1	0	0	0.10854	0.35016	0.3578	0.31747	0.030749	0.11231	0.18605	0.4093	0.1295	0.15539	0.27823	0.21664	0.27915	0.15553	0.18813	0.21046	-2.2875	-3.1958	-2.4417	-3.2021	-3.1354	-2.3896	-3.4437	-2.8271	-2.6188	-3.1958	-2.5687	-3.0792	-3.1688	-2.4354	-3.1312	-2.8875	-45.438	81.399	50.415	-76.668	171.314	214.539	198.764	214.465	49.735	249.373	-42.956	202.228	246.554	193.909	-5.150	159.299	0.00018684	0.00059945	0.00010153	1399.2	3.0967e-06	5.2108e-06	1387.4	370.26	3.0654e-06	5.7804e-06	419.58	140.99	123.19	42.731	3.6882e-06	52.304	0.00045532	0.00051654	0.00014112	1399.2	5.4555e-06	5.5886e-06	1396.2	372.68	5.8605e-06	5.3473e-06	424.87	144.03	125.32	43.506	5.754e-06	53.347	144.922	14.920	20.100	-64.525	62.814	74.594	-64.709	-60.250	61.357	69.120	-60.942	-56.574	-56.229	-51.345	53.556	-52.004	-8191	255	
2365.652	1	1	0	0	0.20701	0.1273	0.01354	0.19956	0.06432	0.39929	0.34054	0.14402	0.12723	0.12418	0.10744	0.1705	0.53965	0.079027	0.061039	0.11406	-2.1375	-3.1646	-2.5146	-2.9333	-3.2792	-2.225	-3.4021	-3.0292	-2.6417	-3.3125	-2.6896	-2.7729	-3.3771	-2.6	-3.0729	-2.9292	-50.056	-29.737	123.034	256.531	69.713	44.643	206.271	162.226	117.915	-4.663	107.121	196.708	245.074	-64.557	223.865	-6.379	0.0001953	0.00053968	0.00013306	1388	2.932e-06	5.5631e-06	1378	366.8	3.1981e-06	5.0969e-06	419.73	140.69	122.96	42.628	4.9803e-06	52.266	0.00047168	0.0005026	0.0001419	1396.8	5.379e-06	5.8059e-06	1392.2	371.91	5.9032e-06	5.5041e-06	425.62	143.84	124.97	43.41	5.8302e-06	53.311	150.218	19.664	19.576	-64.910	69.075	74.715	-65.011	-60.250	61.151	63.018	-60.676	-56.798	-56.179	-51.125	81.423	-52.044	-8191	255	
2365.773	1	1	0	0	0.14761	0.10756	0.13805	0.29118	0.15609	0.16184	0.11079	0.32302	0.13002	0.063065	0.21581	0.26113	0.18848	0.13905	0.098946	0.065555	-2.0271	-3.2021	-2.575	-2.9646	-3.1688	-2.6437	-3.3979	-3.1875	-2.3833	-3.5292	-2.6063	-2.7854	-3.3229	-2.4229	-2.9062	-3.0521	16.944	-29.181	165.743	208.965	-7.322	-72.298	271.852	249.478	76.333	243.780	244.841	273.027	-16.077	237.351	125.767	258.963	0.00016897	0.00052605	0.00013891	1386.8	3.7066e-06	6.4662e-06	1377.4	367.72	2.6611e-06	4.1606e-06	421.56	141.36	123.03	42.421	4.1381e-06	52.043	0.00046933	0.00049428	0.00014372	1395.8	5.6846e-06	5.7465e-06	1391.6	372.46	5.9369e-06	5.5186e-06	425.64	144.19	125.37	43.475	5.5292e-06	53.379	151.928	15.714	11.160	-64.764	57.248	80.225	-64.831	-60.437	48.239	85.838	-60.863	-56.719	-56.054	-51.312	40.004	-51.985	-8191	255	
2365.869	1	1	0	0	0.18208	0.13537	0.012134	0.38388	0.37179	0.094059	0.24578	0.10853	0.071999	0.13978	0.18441	0.21268	0.11866	0.099046	0.15951	0.23199	-1.7667	-3.2125	-2.6125	-2.6229	-3.1521	-2.4292	-2.9604	-3.25	-2.3792	-3.1479	-2.7396	-2.5479	-3.4542	-2.5	-2.8083	-3.2333	143.770	10.714	267.699	253.102	150.727	191.405	-74.601	167.235	272.588	-63.274	-17.145	193.521	-74.433	132.098	261.371	-24.975	0.00017476	0.0004853	0.00015008	1392.5	3.2788e-06	4.2528e-06	1383.1	368.52	2.3407e-06	3.3672e-06	420.39	141.01	123.17	42.472	3.1809e-06	52.262	0.00046177	0.00049545	0.00014164	1399.1	5.506e-06	5.4961e-06	1393.4	372.61	5.7383e-06	5.2046e-06	425.65	144.13	125.49	43.398	5.5112e-06	53.35	145.837	9.155	8.535	-64.659	88.058	74.408	-64.964	-60.376	46.382	64.849	-60.794	-56.731	-56.088	-51.423	69.899	-51.952	-8191	255	
2365.964	1	1	0	0	0.19115	0.20976	0.052676	0.25775	0.24372	0.10919	0.41601	0.066686	0.10435	0.14359	0.089325	0.15118	0.21833	0.018605	0.098093	0.10316	-2.0229	-3.1042	-3.0062	-2.6417	-3.1625	-2.6437	-3.1208	-3.4333	-2.5521	-3.0417	-3.2021	-2.5417	-3.3917	-2.6729	-2.8	-3.2062	151.058	21.099	102.086	270.487	153.435	143.689	250.704	-11.746	132.480	156.225	35.023	261.883	256.244	150.610	194.862	-13.820	0.00019327	0.00037549	0.00012089	1387.9	2.6875e-06	5.0147e-06	1380.4	368.03	2.5727e-06	3.7776e-06	421.91	141.3	123.55	42.756	4.2942e-06	52.37	0.00046047	0.00047399	0.00013703	1396.6	5.4087e-06	5.235e-06	1393.4	372.57	5.5967e-06	5.3097e-06	426.73	144.34	125.65	43.535	5.4596e-06	53.506	149.214	-1.501	26.319	-64.783	67.517	86.115	-64.894	-60.363	41.934	68.613	-61.013	-56.784	-56.089	-51.556	64.417	-52.118	-8191	255	
2366.037	1	1	0	0	0.12881	0.063573	0.19277	0.18871	0.12475	0.13043	0.18453	0.30887	0.30366	0.082334	0.22593	0.23717	0.045329	0.21802	0.2414	0.35197	-2.1083	-3.0583	-2.875	-2.4958	-3.2625	-2.6708	-2.6729	-3.3146	-2.4021	-2.9875	-3.2812	-2.5167	-3.2625	-2.7562	-2.5729	-3.3542	41.088	267.450	161.607	248.202	130.419	106.619	176.921	249.968	76.637	57.897	272.021	211.512	-14.930	253.196	245.602	-31.842	0.00018946	0.00052485	0.00015575	1385.8	3.6291e-06	5.8457e-06	1382.3	368.3	3.3287e-06	5.8204e-06	420.41	141.7	123.82	42.62	3.2588e-06	52.511	0.00045303	0.00047928	0.00013218	1397.5	5.3847e-06	5.3335e-06	1394.3	372.86	5.4518e-06	5.3291e-06	425.82	144.55	125.78	43.567	5.5606e-06	53.621	145.884	3.871	29.855	-64.795	47.743	89.708	-64.801	-60.488	45.128	64.009	-60.982	-56.656	-56.223	-51.479	74.047	-51.983	-8191	255	
2366.156	1	1	0	0	0.22403	0.38438	0.19845	0.30433	0.11389	0.2179	0.074268	0.10911	0.066457	0.33815	0.31714	0.27913	0.10175	0.17047	0.086697	0.15286	-1.875	-2.75	-3.1562	-2.5604	-3.0792	-2.725	-2.975	-3.4021	-2.4708	-2.8708	-3.0979	-2.5854	-3.1813	-3.0542	-2.4771	-3.3729	154.304	223.225	-62.580	256.721	2.167	208.754	226.332	204.342	-68.993	-30.679	-45.685	182.747	265.610	-61.257	275.708	128.502	0.00021461	0.00048667	0.00016947	1389.3	3.5674e-06	4.1817e-06	1379.7	368.16	2.5845e-06	3.3289e-06	420.58	141.26	123.43	42.589	3.2784e-06	52.581	0.00044551	0.00047847	0.00013215	1396.2	5.1827e-06	5.1252e-06	1391.4	372.77	5.267e-06	5.0977e-06	425.52	144.48	125.93	43.659	5.0997e-06	53.585	145.309	16.675	15.962	-64.806	79.698	69.124	-65.030	-60.373	44.223	86.384	-60.702	-56.861	-56.309	-51.520	62.132	-51.866	-8191	255	
2366.252	1	1	0	0	0.18823	0.14954	0.15263	0.37434	0.25875	0.18293	0.28415	0.10366	0.2672	0.14329	0.10695	0.33654	0.27988	0.16073	0.1227	0.13935	-2.0729	-2.75	-3.1813	-2.6771	-3.0771	-2.8604	-2.6188	-3.5042	-2.5938	-2.7771	-3.3042	-2.6292	-3.1958	-3.0229	-2.4417	-3.3167	-78.121	187.645	116.791	258.766	0.229	216.225	219.604	9.210	215.044	103.244	210.321	254.104	-18.479	235.095	120.072	211.767	0.00020688	0.00042471	0.00014048	1385.5	2.5749e-06	4.606e-06	1381.9	368.68	2.7642e-06	4.5777e-06	422.72	141.58	123.45	43.018	3.6916e-06	52.523	0.00043043	0.00047981	0.00012988	1394.9	5.0729e-06	4.9217e-06	1396.7	373.82	5.3597e-06	5.2586e-06	427.16	144.73	126.02	43.776	5.3868e-06	53.691	145.401	32.492	7.582	-64.759	74.027	78.011	-64.825	-60.457	61.289	75.879	-60.817	-56.859	-56.102	-51.336	51.806	-51.942	-8191	255	
2366.348	1	1	0	0	0.03349	0.1142	0.1175	0.35894	0.081727	0.37572	0.47932	0.16086	0.15912	0.27844	0.2216	0.29227	0.11825	0.44313	0.022158	0.20783	-2.25	-2.7438	-3.3479	-2.6021	-3.1792	-3.2333	-2.6229	-3.4542	-2.7896	-2.7104	-3.3208	-2.6375	-3.0521	-3.1229	-2.2687	-3.3979	151.349	258.718	89.215	239.179	265.607	187.326	205.922	-49.491	167.082	29.942	62.577	188.500	83.772	241.347	37.643	274.202	0.00018589	0.00032047	0.00013494	1382.8	2.8589e-06	6.7424e-06	1378.5	367.84	2.4236e-06	4.5354e-06	420.91	141.97	123.46	42.907	3.3424e-06	52.716	0.00044842	0.00047693	0.00012518	1393.2	5.2816e-06	5.2434e-06	1391.4	372.78	5.2649e-06	5.1894e-06	426.08	144.75	125.96	43.678	5.5224e-06	53.759	144.802	18.111	15.319	-64.849	82.106	84.402	-64.895	-60.336	42.460	68.763	-60.675	-56.439	-56.068	-51.325	77.943	-52.175	-8191	255	
2366.444	1	1	0	0	0.16411	0.2227	0.20246	0.17513	0.17187	0.049733	0.099695	0.42192	0.10873	0.31356	0.29441	0.14942	0.19271	0.082856	0.15883	0.20112	-2.4313	-2.5729	-3.3292	-2.6042	-2.7708	-3.2646	-2.5563	-3.2438	-2.8625	-2.4437	-3.2083	-2.5312	-2.8854	-3.4354	-2.2687	-3.2021	273.715	180.220	40.714	251.301	247.693	121.979	236.598	223.145	-24.591	135.091	-51.229	102.993	-52.329	30.941	-34.506	64.927	0.00018962	0.00061453	0.00012275	1385.6	3.0118e-06	6.3629e-06	1380.3	368.54	2.5724e-06	4.618e-06	421.64	141.44	123.29	42.527	4.8782e-06	52.367	0.00043881	0.00048654	0.00012564	1394.8	5.1609e-06	5.0778e-06	1391.5	372.45	5.326e-06	5.2483e-06	426.78	144.34	125.75	43.49	5.6306e-06	53.438	150.672	7.947	21.200	-64.801	76.308	88.982	-64.773	-60.238	49.187	81.467	-60.542	-56.541	-56.024	-51.166	70.073	-51.905	-8191	255	
2366.565	1	1	0	0	0.25138	0.23665	0.07523	0.054787	0.17532	0.13596	0.20785	0.45301	0.12438	0.32593	0.36357	0.08838	0.15361	0.068922	0.18418	0.17273	-2.5604	-2.3854	-3.3438	-2.7792	-2.7313	-3.3187	-2.6542	-3.1417	-3.1042	-2.5542	-3.3167	-2.5187	-2.9875	-3.4792	-2.2396	-3.0458	157.793	72.832	118.916	191.676	10.302	8.603	215.304	262.129	243.992	-32.964	14.240	254.992	255.727	196.664	279.314	257.959	0.00018108	0.00055956	0.00012303	1383.3	2.3808e-06	5.3984e-06	1369.4	366.06	2.6794e-06	5.6294e-06	420.4	140.05	123.13	42.277	2.7718e-06	52.069	0.00044509	0.00049694	0.0001303	1391.1	5.5909e-06	5.3893e-06	1385.2	371.37	5.5846e-06	5.9943e-06	424.61	143.35	125.08	43.249	5.7108e-06	53.143	151.512	10.901	12.152	-64.730	35.098	78.476	-64.874	-60.066	76.838	71.436	-60.791	-56.700	-55.890	-51.055	69.309	-51.755	-8191	255	
2366.637	1	1	0	0	0.03978	0.016558	0.10064	0.14173	0.11351	0.16613	0.28354	0.088805	0.16337	0.27794	0.10543	0.16748	0.13462	0.42418	0.14977	0.04069	-2.6229	-2.4104	-3.3	-2.9437	-2.5583	-3.3333	-2.6375	-2.9583	-3.0771	-2.3479	-3.2938	-2.8958	-2.5875	-3.4042	-2.5958	-3.0021	184.116	274.401	64.084	227.420	224.566	169.694	183.296	14.130	103.909	41.199	196.395	-10.690	-60.514	278.698	178.760	175.979	0.00018332	0.00050922	0.00014642	1386.9	2.8171e-06	5.3411e-06	1374.6	367.45	2.1476e-06	4.9801e-06	420.26	140.47	122.65	42.46	3.7571e-06	52.087	0.00046243	0.00053079	0.00013957	1390.3	5.8491e-06	5.7387e-06	1387	371.45	5.7431e-06	5.9602e-06	424.69	143.34	124.65	43.266	5.6463e-06	53.027	145.880	14.461	20.951	-64.778	71.587	79.324	-64.671	-60.051	20.065	69.650	-60.514	-56.643	-55.724	-50.928	87.029	-51.669	-8191	255	
2366.733	1	1	0	0	0.037971	0.22626	0.069776	0.039778	0.20024	0.19993	0.18913	0.037947	0.22876	0.14225	0.30383	0.18032	0.23761	0.083225	0.10721	0.045229	-2.7062	-2.3417	-3.0729	-3.0354	-2.5396	-3.3729	-2.7625	-3.1479	-3.1688	-2.4833	-3.3396	-2.9313	-2.375	-3.5125	-2.7062	-2.7333	44.240	17.877	29.711	-46.244	-53.856	22.184	255.254	265.993	-37.190	39.785	205.323	273.695	240.049	267.751	108.419	132.423	0.00017028	0.00043071	0.00010173	1380	3.3664e-06	4.8517e-06	1371.9	367.38	2.8438e-06	3.4147e-06	418.75	140.7	122.08	42.369	2.9872e-06	52.251	0.00045431	0.00053586	0.00013556	1387.6	5.6825e-06	5.3707e-06	1383.9	371.19	5.5029e-06	5.645e-06	423.88	143.8	124.67	43.229	5.4742e-06	53.159	141.646	-3.677	-0.320	-64.690	71.947	87.464	-64.828	-59.907	24.281	75.571	-60.721	-56.631	-56.013	-51.114	57.691	-51.912	-8191	255	
2366.853	1	1	0	0	0.2022	0.22314	0.20437	0.23122	0.2121	0.21517	0.37597	0.18926	0.11098	0.25614	0.29222	0.30623	0.13006	0.086246	0.20525	0.11078	-2.6896	-2.0312	-3.0125	-3.1292	-2.2292	-3.2292	-2.7229	-2.8542	-3.3229	-2.4271	-3.0938	-3.0167	-2.4375	-3.2125	-2.6417	-2.7292	74.768	201.930	46.780	262.990	-10.552	-9.455	219.226	235.209	151.423	-57.294	221.963	-74.336	225.601	40.992	-74.641	265.836	0.0001839	0.00049438	0.0001483	1373.2	4.1656e-06	5.6832e-06	1371.6	366.38	2.6128e-06	5.2354e-06	417.82	140.18	121.56	42.126	3.3415e-06	52.224	0.00044458	0.00051371	0.00013074	1384.8	5.722e-06	5.2722e-06	1382.5	371.01	5.5856e-06	5.4658e-06	424.42	143.37	124.67	43.19	5.625e-06	53.128	146.119	10.331	10.578	-64.540	89.940	81.533	-64.796	-60.094	53.936	74.730	-60.646	-56.647	-55.870	-51.075	60.004	-51.725	-8191	255	
2366.950	1	1	0	0	0.20061	0.27539	0.19752	0.36042	0.26816	0.23211	0.26766	0.24824	0.12312	0.24302	0.12028	0.30774	0.23498	0.1928	0.17024	0.1701	-2.9146	-2.4167	-2.9458	-3.2479	-2.3521	-3.2625	-2.8688	-2.6375	-3.3979	-2.5479	-2.8833	-3.3271	-2.5292	-3.1542	-2.8	-2.4729	277.608	149.501	250.397	213.014	198.088	-8.889	189.495	213.458	238.561	163.240	233.221	128.169	-75.343	-48.019	175.529	58.871	0.00018378	0.00042543	0.00013873	1375.3	3.2461e-06	3.9419e-06	1364.2	365.53	1.9211e-06	5.0824e-06	419.11	139.67	122.4	42.603	3.3494e-06	51.866	0.00045214	0.00049748	0.00013465	1385.2	5.7075e-06	5.3833e-06	1381.6	370.98	5.5093e-06	5.6164e-06	423.96	143.11	124.65	43.293	5.4327e-06	53.002	139.839	11.661	-0.854	-64.669	76.711	55.981	-64.925	-60.132	40.826	73.698	-60.538	-56.752	-55.921	-51.214	94.526	-51.969	-8191	255	
2367.044	1	1	0	0	0.12917	0.16085	0.15129	0.15863	0.14474	0.12391	0.096551	0.091132	0.24242	0.15846	0.21977	0.49362	0.4409	0.24922	0.080667	0.28413	-3.0042	-2.6625	-2.95	-3.375	-2.3583	-3.1208	-3.1646	-2.5333	-3.3312	-2.6875	-2.7583	-3.5167	-2.4667	-3.1229	-2.9854	-2.6167	210.602	-31.907	25.028	262.943	-45.924	87.339	236.229	1.599	78.466	86.492	249.039	191.737	253.601	-53.265	222.262	231.619	0.00017536	0.00042652	0.00012944	1375.3	1.6766e-06	5.1398e-06	1363.1	365.04	1.227e-06	3.6062e-06	417.65	140.7	122.22	42.352	3.8591e-06	51.979	0.00044167	0.00050613	0.00013728	1385.2	5.5268e-06	5.2782e-06	1377.7	370.08	5.2807e-06	5.2319e-06	422.96	143.37	124.57	43.259	5.204e-06	53.15	144.342	1.750	1.215	-64.636	58.235	64.747	-64.729	-59.996	50.231	55.993	-60.568	-56.785	-55.895	-51.430	65.181	-51.769	-8191	255	
2367.140	1	1	0	0	0.020425	0.17299	0.059747	0.29904	0.23967	0.25259	0.07818	0.25973	0.064094	0.16969	0.23216	0.036947	0.14607	0.067385	0.062316	0.11772	-3.0708	-2.4562	-2.6229	-3.3083	-2.3229	-3.0062	-3.175	-2.6396	-3.3063	-2.7042	-2.6604	-3.1188	-2.4729	-2.9146	-2.9583	-2.4521	8.294	-45.967	217.833	214.720	118.524	21.399	195.611	-74.684	56.985	156.233	251.607	-69.642	199.377	219.292	133.379	267.132	0.00018527	0.00054034	0.00015055	1377.7	3.1534e-06	4.1726e-06	1358.2	365.31	3.009e-06	4.784e-06	417.26	139.53	122.18	42.14	4.1326e-06	51.672	0.00044105	0.0004844	0.00013098	1381.4	5.3972e-06	5.241e-06	1376.2	370.19	5.3918e-06	5.5168e-06	423.4	142.97	124.55	43.073	5.5841e-06	52.907	147.831	9.068	20.279	-64.667	79.738	64.804	-64.977	-60.119	72.199	93.800	-60.500	-56.612	-56.048	-51.169	68.013	-51.706	-8191	255	
2367.236	1	1	0	0	0.23273	0.046217	0.17881	0.031758	0.22552	0.20087	0.19549	0.19204	0.27164	0.10048	0.062151	0.14385	0.18903	0.20561	0.14609	0.15657	-2.8146	-2.675	-2.3563	-3.5938	-2.4917	-2.8542	-3.25	-2.55	-3.1813	-2.8063	-2.5979	-3.4104	-2.6271	-2.7396	-3.1167	-2.725	96.058	181.338	218.900	260.976	66.883	-68.959	158.171	-70.510	279.623	54.283	267.607	250.898	277.560	266.465	-10.298	-24.222	0.00016749	0.00050063	0.00011703	1375.4	3.249e-06	5.469e-06	1365.6	366.35	2.1327e-06	5.9671e-06	418.47	140.57	122.51	42.437	3.9804e-06	51.925	0.00045226	0.00050255	0.00014522	1385.6	5.683e-06	5.8071e-06	1381.6	370.83	5.6646e-06	5.8418e-06	423.92	143.71	124.78	43.276	5.722e-06	53.157	152.726	1.535	20.079	-64.582	74.491	76.208	-64.629	-60.235	59.026	80.163	-60.591	-56.796	-56.176	-51.004	75.850	-51.954	-8191	255	
2367.332	1	1	0	0	0.16817	0.17754	0.2162	0.28311	0.081901	0.14202	0.20926	0.13155	0.021808	0.17056	0.1778	0.1236	0.2553	0.25868	0.23111	0.12876	-2.7271	-2.7729	-2.3542	-3.2938	-2.3708	-2.8	-3.3354	-2.5021	-3.0396	-2.8729	-2.4979	-3.2396	-2.6063	-2.6437	-3.3229	-2.6437	-60.951	3.731	100.624	222.991	106.070	-58.759	129.603	201.145	223.174	81.385	248.317	201.253	235.230	-50.001	-8.463	187.745	0.00016951	0.00045743	0.00014543	1378.9	3.0519e-06	5.0994e-06	1373.4	366.12	1.2574e-06	4.8028e-06	419.58	140.23	121.99	42.505	2.6847e-06	52.129	0.0004544	0.00051766	0.00014999	1389.4	5.7788e-06	5.4655e-06	1386	370.56	5.5888e-06	5.5332e-06	423.94	143.42	124.74	43.332	5.4294e-06	53.173	144.197	4.232	13.921	-64.663	80.315	70.210	-64.689	-60.258	103.936	87.523	-60.699	-56.338	-55.960	-51.255	74.275	-51.874	-8191	255	
2367.453	1	1	0	0	0.067075	0.14116	0.13745	0.26917	0.095499	0.2537	0.47512	0.083197	0.18063	0.22016	0.18401	0.064561	0.27151	0.086143	0.17503	0.079773	-2.7417	-3.0354	-2.4729	-3.4688	-2.7396	-2.8063	-3.5229	-2.5208	-2.9521	-3.0438	-2.5187	-3.275	-2.7354	-2.6125	-3.0729	-2.5771	29.586	27.977	98.084	232.195	76.753	58.044	211.296	152.814	-27.746	-1.872	274.796	-54.351	273.105	-70.524	201.620	190.965	0.00020123	0.00052636	9.6261e-05	1387.3	3.2102e-06	5.1036e-06	1375.7	368.59	2.5609e-06	4.4518e-06	420.08	140.71	122.6	42.365	3.9849e-06	52.039	0.00045609	0.00049951	0.00013711	1390	5.5799e-06	5.5676e-06	1385.2	371.27	5.573e-06	5.4366e-06	423.96	143.43	124.75	43.268	5.6974e-06	53.036	155.892	20.767	23.029	-64.578	83.861	73.256	-64.520	-60.298	63.648	70.209	-60.395	-56.493	-55.811	-51.070	61.067	-52.101	-8191	255	
2367.549	1	1	0	0	0.18258	0.27402	0.23692	0.26096	0.11701	0.097246	0.23862	0.24971	0.087201	0.064222	0.14474	0.15722	0.47051	0.12717	0.099722	0.10291	-2.5333	-3.1875	-2.5021	-3.2042	-2.8542	-2.4479	-3.4271	-2.7208	-2.7708	-3.1958	-2.6333	-3.0833	-3.1271	-2.5187	-3.2	-2.4708	238.303	176.286	204.919	-62.186	-21.738	12.942	239.669	196.561	-14.437	-76.213	-59.913	-64.533	222.798	22.635	90.058	276.208	0.00020628	0.00039356	0.00013382	1387.9	1.8947e-06	5.6579e-06	1370.3	367.85	1.7583e-06	4.4037e-06	419.88	140.65	122.71	42.43	3.4089e-06	52.267	0.00046323	0.00052177	0.00014567	1390.8	5.747e-06	5.7843e-06	1383.6	371.46	5.6035e-06	5.4828e-06	423.77	143.49	124.78	43.263	5.7209e-06	53.191	148.348	12.551	29.230	-64.464	49.457	77.117	-64.805	-60.116	52.181	68.731	-60.451	-56.333	-55.917	-50.817	73.373	-51.568	-8191	255	
2367.645	1	1	0	0	0.049083	0.18935	0.052262	0.13777	0.051516	0.24437	0.29791	0.24155	0.16234	0.18941	0.13011	0.11587	0.1701	0.20008	0.24095	0.059715	-2.2417	-3.3	-2.3937	-3.1854	-2.8792	-2.4062	-3.35	-2.6562	-2.6354	-2.9708	-2.5396	-3.0833	-2.9437	-2.4917	-3.0021	-2.5875	28.734	87.691	-14.237	249.100	34.279	90.994	-73.958	279.926	176.618	165.507	195.325	247.288	-18.712	184.191	102.735	170.813	0.00016907	0.00053655	0.00011053	1387.3	2.8835e-06	4.587e-06	1375.7	367.44	2.4005e-06	4.4185e-06	420.48	140.61	122.64	42.51	2.4427e-06	52.393	0.00047418	0.00050682	0.00014202	1390.2	5.6236e-06	5.7711e-06	1385.5	370.99	5.8705e-06	5.4804e-06	424.46	143.52	124.87	43.288	5.2774e-06	53.28	150.344	4.853	14.035	-64.603	56.076	67.832	-64.685	-60.239	58.335	86.960	-60.773	-56.575	-56.170	-51.122	92.799	-51.971	-8191	255	
2367.741	1	1	0	0	0.1256	0.22994	0.1179	0.29324	0.047211	0.10917	0.19713	0.12015	0.073397	0.026261	0.22079	0.1676	0.17892	0.32191	0.077255	0.076094	-2.05	-3.0375	-2.3438	-3.0208	-2.9083	-2.45	-3.3479	-2.7042	-2.4875	-3.3521	-2.4479	-2.9354	-3.2167	-2.2562	-3.0354	-2.8417	-26.935	152.340	160.133	227.819	166.504	16.963	273.350	-78.227	216.558	241.025	-19.859	237.614	231.078	278.218	139.067	53.473	0.00019726	0.00041917	0.00015566	1378.7	3.5024e-06	6.0617e-06	1370.2	365.64	2.1163e-06	5.044e-06	418.99	140.58	122.12	42.339	5.1795e-06	52.132	0.00045612	0.00046769	0.00014202	1386.4	5.4191e-06	5.6138e-06	1385.3	370.83	5.6457e-06	5.2696e-06	423.91	143.5	124.88	43.283	5.4445e-06	53.222	156.508	11.558	15.436	-64.886	76.453	78.821	-65.253	-60.341	36.066	82.217	-61.128	-56.629	-56.309	-51.477	62.331	-51.863	-8191	255	
2367.862	1	1	0	0	0.21823	0.20981	0.18061	0.19653	0.039175	0.0918	0.10784	0.30319	0.24955	0.23175	0.24416	0.10159	0.18266	0.20868	0.28975	0.29104	-2.0417	-3.2792	-2.2438	-3.0208	-3.1	-2.3688	-3.2167	-3.1104	-2.4521	-3.2188	-2.6646	-2.7479	-3.2271	-2.4146	-3.0208	-2.8854	194.894	8.712	108.153	252.630	-27.845	158.478	131.759	264.668	-49.291	-8.073	268.042	134.216	191.375	-39.359	263.314	-58.116	0.00017152	0.00046987	9.8444e-05	1377.9	2.4667e-06	3.3065e-06	1376	365.56	3.6598e-06	6.3245e-06	418.85	140.24	122.42	42.353	3.6879e-06	51.711	0.00046829	0.00049417	0.00014091	1386.8	5.3821e-06	5.7795e-06	1386.2	370.46	5.9264e-06	5.5308e-06	423.87	143.37	124.58	43.132	6.2552e-06	52.994	146.482	20.238	0.038	-64.741	81.122	92.604	-64.913	-60.340	62.270	68.059	-60.727	-56.519	-56.085	-50.972	49.276	-52.007	-8191	255	
2367.934	1	1	0	0	0.086006	0.067033	0.14302	0.22345	0.1838	0.2043	0.40887	0.20391	0.01716	0.13826	0.099576	0.11658	0.21124	0.24102	0.24196	0.11828	-1.7021	-3.1604	-2.6875	-2.7188	-3.1896	-2.3875	-3.1917	-3.1708	-2.3146	-3.3042	-2.4396	-2.4437	-3.3688	-2.4688	-2.8375	-3.0938	111.303	11.473	-58.464	223.495	158.510	31.428	193.663	212.920	64.249	199.715	98.395	270.280	148.341	180.588	237.454	-74.156	0.00017085	0.00045227	0.00015116	1385	3.4876e-06	4.7441e-06	1383.6	367.73	2.6729e-06	3.7532e-06	420.08	140.34	122.93	42.158	4.592e-06	52.023	0.00050472	0.00054494	0.0001527	1392.2	6.0932e-06	6.1384e-06	1392.1	372.07	6.414e-06	6.3083e-06	425.43	143.55	124.93	43.105	6.4514e-06	53.152	151.211	0.527	10.020	-64.634	61.913	84.316	-64.909	-60.016	91.483	89.665	-60.672	-56.527	-55.759	-51.164	57.036	-51.850	-8191	255	
2368.028	1	1	0	0	0.2511	0.16985	0.057356	0.25728	0.26149	0.13046	0.48752	0.23819	0.1672	0.15583	0.15394	0.27184	0.05202	0.17606	0.014336	0.19963	-1.8833	-3.1604	-2.5521	-2.8333	-3.1458	-2.4021	-3.0583	-3.3583	-2.1979	-3.2167	-2.8937	-2.5854	-3.4062	-2.6646	-2.7188	-3.3333	112.679	46.035	65.728	268.664	162.116	14.849	220.060	209.034	20.346	123.362	-43.459	237.138	235.646	1.527	209.436	156.135	0.00017867	0.00048014	0.00012629	1389.5	3.1468e-06	5.3972e-06	1384.2	369.71	2.361e-06	6.5452e-06	422.57	141.51	123.42	42.573	2.4047e-06	51.879	0.00052206	0.0005735	0.0001613	1395.7	6.114e-06	6.3011e-06	1390.6	372.66	6.4914e-06	6.0173e-06	425.32	143.57	124.88	43.227	5.9575e-06	53.048	143.903	11.304	3.693	-64.408	62.020	106.291	-64.639	-59.961	43.249	72.979	-60.681	-56.540	-56.092	-51.187	64.004	-51.890	-8191	255	
2368.124	1	1	0	0	0.40627	0.33505	0.082047	0.22835	0.23682	0.098228	0.30722	0.088782	0.21683	0.17943	0.14323	0.37558	0.10564	0.03048	0.11772	0.11066	-1.7729	-2.9542	-2.7646	-2.6354	-3.0458	-2.5375	-2.7104	-3.3625	-2.1188	-3.0438	-3.0083	-2.425	-3.425	-2.575	-2.6417	-3.2812	12.812	-48.316	109.850	-75.630	25.006	-36.465	190.471	-26.234	3.096	140.615	13.081	-51.220	238.713	175.745	202.378	60.288	0.00015119	0.00046712	0.00014446	1382.6	3.711e-06	5.7447e-06	1369.9	366.15	1.6652e-06	5.2228e-06	419.06	140.32	122.13	42.28	3.6514e-06	51.802	0.00048325	0.00052615	0.00014762	1391.4	5.456e-06	5.8329e-06	1383	370.62	6.0954e-06	5.4652e-06	424.74	143.2	124.55	43.177	5.893e-06	52.932	150.445	9.878	9.629	-64.732	79.766	95.217	-65.045	-60.380	60.114	78.842	-60.849	-56.578	-56.153	-51.553	71.296	-51.933	-8191	255	
2368.245	1	1	0	0	0.10526	0.11959	0.099738	0.32323	0.085033	0.20674	0.18805	0.22366	0.20358	0.11516	0.30053	0.038876	0.18832	0.044268	0.25694	0.23124	-1.8396	-2.8396	-2.9813	-2.4104	-3.225	-2.5542	-2.7333	-3.2854	-2.2542	-2.8479	-3.0625	-2.2833	-3.2646	-2.4854	-2.4813	-3.0083	-68.093	162.984	277.901	210.839	-42.106	233.917	213.235	274.868	-16.551	-24.951	213.177	223.696	223.200	200.555	122.433	258.045	0.00017702	0.00030748	0.00013455	1378.4	3.6854e-06	4.4539e-06	1369.4	366.68	2.365e-06	4.8231e-06	418.7	140.21	122.39	42.348	3.652e-06	52.065	0.0004693	0.000501	0.00014352	1386.7	5.7439e-06	5.8041e-06	1382.2	371.27	5.8537e-06	5.7185e-06	423.94	143.15	124.74	43.185	5.9788e-06	52.997	149.488	9.703	8.751	-64.564	69.318	84.688	-64.712	-60.243	20.476	92.450	-61.038	-56.869	-56.220	-51.160	77.701	-52.282	-8191	255	
2368.341	1	1	0	0	0.17017	0.12194	0.045484	0.13359	0.16477	0.21738	0.49783	0.19524	0.17333	0.13438	0.2349	0.14275	0.14424	0.21305	0.14569	0.17727	-1.9937	-2.8229	-2.9667	-2.4854	-3.2646	-2.7729	-2.5979	-3.3708	-2.2708	-2.625	-3.1375	-2.2521	-3.0062	-2.8667	-2.25	-3.3167	125.988	-77.733	-6.809	33.516	27.900	-11.891	201.511	253.993	46.784	130.072	265.936	224.342	190.264	168.373	-6.217	24.353	0.00020311	0.00054403	0.00014582	1378.6	3.2323e-06	6.0885e-06	1375	368.12	2.422e-06	4.9504e-06	419.16	139.8	122.2	42.178	3.544e-06	51.762	0.00047346	0.00053031	0.0001426	1386.4	5.4737e-06	5.9332e-06	1382.4	371.43	5.8284e-06	5.9681e-06	424.59	142.95	124.53	43.127	5.939e-06	53.024	143.898	1.445	7.859	-64.824	81.360	67.861	-64.851	-60.412	51.265	70.561	-60.803	-56.549	-56.158	-51.437	75.172	-51.674	-8191	255	
2368.437	1	1	0	0	0.2111	0.12238	0.33692	0.42106	0.23698	0.38248	0.16688	0.16009	0.096052	0.07987	0.078415	0.13671	0.15771	0.18625	0.21117	0.15121	-1.9708	-2.7229	-3.0396	-2.4313	-2.9437	-2.8688	-2.4167	-3.2062	-2.5583	-2.6312	-3.2333	-2.4437	-3.0687	-2.9458	-2.2438	-3.2958	166.095	-41.820	-63.723	231.073	161.173	81.452	239.960	272.332	245.073	173.683	-71.108	261.320	258.928	-4.910	275.382	218.775	0.00019589	0.00057541	0.00016034	1376.5	3.3574e-06	5.5228e-06	1367.5	366.8	3.4257e-06	3.6346e-06	416.71	140.24	121.85	42.366	3.5575e-06	51.979	0.00047192	0.00051435	0.00013819	1384.1	5.5102e-06	5.5364e-06	1381.3	370.74	5.652e-06	5.7531e-06	422.49	142.74	124.53	43.187	5.7848e-06	53.013	150.423	26.512	9.412	-64.509	72.425	84.658	-64.822	-59.931	31.217	61.558	-60.559	-56.368	-55.404	-50.963	71.861	-51.555	-8191	255	
2368.533	1	1	0	0	0.34213	0.014085	0.18241	0.27109	0.049216	0.19924	0.074402	0.38666	0.17216	0.20828	0.10465	0.24099	0.30043	0.28145	0.10012	0.19952	-2.0563	-2.5354	-3.0521	-2.3979	-2.9375	-2.9771	-2.5187	-3.2042	-2.6625	-2.5042	-3.4271	-2.3812	-2.9417	-3.1125	-2.4646	-3.3625	173.525	44.771	190.131	236.571	-37.577	167.324	226.844	230.128	104.712	87.562	145.584	259.582	213.486	235.748	-46.425	173.334	0.00018177	0.00033851	0.00013807	1376.1	2.7479e-06	4.7743e-06	1363.5	365.62	2.6649e-06	4.1156e-06	419.66	140.1	122.68	42.464	2.3389e-06	52.003	0.00047293	0.00053757	0.00014263	1383.1	5.5211e-06	5.4265e-06	1379.6	369.92	5.8579e-06	5.7161e-06	423.73	143.06	124.62	43.173	5.9255e-06	53.002	153.614	22.093	7.575	-64.441	58.981	81.108	-64.571	-60.112	54.778	76.210	-60.645	-56.342	-55.912	-50.932	102.695	-51.746	-8191	255	
2368.630	1	1	0	0	0.12173	0.16868	0.066722	0.38505	0.041815	0.21399	0.14257	0.11771	0.13873	0.14277	0.1665	0.23879	0.1201	0.41	0.30362	0.13338	-2.4729	-2.5292	-3.175	-2.5146	-2.7896	-3.1667	-2.5771	-3.2042	-2.7917	-2.2875	-3.2875	-2.4583	-2.6354	-3.2021	-2.2646	-3.0333	17.202	45.496	-0.071	231.841	180.494	35.783	227.680	230.042	-40.231	180.682	237.503	243.369	-32.124	-51.447	260.302	278.284	0.00019751	0.00035015	0.00014049	1379.1	3.8909e-06	7.0668e-06	1364.2	366.84	1.5991e-06	5.6591e-06	419.21	140.04	121.94	42.136	3.2656e-06	51.811	0.00046314	0.00053175	0.00013732	1383.7	5.6184e-06	5.5868e-06	1378.8	370.58	5.4455e-06	5.8078e-06	423.71	142.87	124.56	43.065	5.7192e-06	52.911	144.074	-0.396	18.994	-64.605	74.550	76.588	-65.109	-60.347	53.536	83.333	-60.615	-56.830	-56.079	-51.413	88.021	-52.139	-8191	255	
2368.726	1	1	0	0	0.26292	0.10851	0.23346	0.17152	0.1509	0.13918	0.4166	0.34764	0.13226	0.053852	0.1189	0.18671	0.12316	0.18999	0.19299	0.46487	-2.4521	-2.15	-3.2417	-2.6646	-2.625	-3.2646	-2.6333	-3.1562	-3.0125	-2.3333	-3.2479	-2.3875	-2.7333	-3.425	-2.5687	-3.0146	88.516	6.586	271.927	-72.372	12.766	141.704	244.531	188.776	48.793	-50.262	-32.078	218.293	201.222	-52.628	70.269	-10.022	0.0001785	0.00054764	0.00012208	1369.8	3.391e-06	5.892e-06	1358.4	364.25	1.4978e-06	5.0877e-06	417.39	139.62	121.94	42.214	3.882e-06	51.848	0.00044848	0.00052529	0.0001354	1379	5.5325e-06	5.3605e-06	1375.9	369.46	5.4729e-06	5.4779e-06	422.63	142.89	124.2	43.11	5.4243e-06	52.966	147.640	22.345	19.499	-64.719	59.399	75.789	-65.047	-60.175	35.325	57.022	-60.838	-56.859	-55.829	-51.489	75.070	-52.088	-8191	255	
2368.822	1	1	0	0	0.2763	0.13361	0.066639	0.2662	0.28414	0.2688	0.37858	0.44047	0.019255	0.23469	0.10103	0.06653	0.20713	0.088144	0.05696	0.16549	-2.5042	-2.1542	-3.2021	-2.9729	-2.4896	-3.175	-2.6729	-2.9542	-2.8167	-2.2938	-3.3125	-2.7583	-2.6667	-3.2979	-2.4646	-2.8771	237.434	26.490	41.266	273.757	20.195	-5.130	156.449	173.413	28.303	206.447	184.405	261.622	-34.129	171.942	86.193	274.468	0.00019057	0.00058848	0.00010907	1368.5	2.6938e-06	5.2854e-06	1360.8	364.63	1.1087e-06	3.8895e-06	418.02	140.17	122.04	42.342	3.8361e-06	52.2	0.00045223	0.00051136	0.00013408	1377.2	5.6122e-06	5.1918e-06	1374.6	369.65	5.3439e-06	5.3255e-06	421.79	142.92	124.36	43.223	5.2836e-06	53.107	143.846	12.327	31.674	-64.937	82.873	90.961	-64.820	-60.027	59.460	60.224	-60.966	-56.553	-56.016	-51.177	70.645	-51.964	-8191	255	
2368.942	1	1	0	0	0.15824	0.096211	0.17449	0.2061	0.065614	0.16832	0.19143	0.37495	0.037503	0.044369	0.16922	0.2196	0.40611	0.15861	0.25209	0.3258	-2.5896	-2.3625	-3.1688	-2.9417	-2.4729	-3.1958	-2.6188	-2.7896	-3.2396	-2.2625	-3.0896	-2.6458	-2.4208	-3.0062	-2.45	-2.5646	269.340	189.951	64.402	-39.322	-78.262	176.709	-26.126	180.561	238.195	223.214	-8.129	84.770	267.707	10.599	-26.400	26.553	0.0001633	0.00041886	0.00014793	1365.5	2.8755e-06	4.139e-06	1363.1	365.56	1.6107e-06	5.4749e-06	418.85	139.78	122.13	42.404	3.5392e-06	52.422	0.00044664	0.0005041	0.00012824	1377.1	5.3654e-06	5.2188e-06	1375.2	370.22	5.2596e-06	5.552e-06	422.97	143.1	124.84	43.292	5.4305e-06	53.271	147.932	28.886	13.879	-64.642	94.061	73.717	-65.118	-60.334	12.022	83.529	-60.836	-56.717	-56.181	-51.159	69.052	-51.619	-8191	255	
2369.037	1	1	0	0	0.11326	0.10655	0.021979	0.048509	0.1717	0.15561	0.21242	0.20121	0.28368	0.12158	0.10939	0.23313	0.29934	0.044859	0.13494	0.22092	-2.6833	-2.2313	-3.05	-3.1479	-2.3854	-3.2646	-2.7729	-2.6021	-3.0875	-2.2167	-2.9813	-2.9833	-2.2771	-3.3167	-2.4208	-2.6271	109.119	129.942	234.043	232.819	134.638	110.478	230.958	191.260	246.874	-67.371	163.396	274.267	257.813	273.272	66.996	-77.216	0.00019142	0.00059922	0.00013276	1370.7	3.4288e-06	4.4654e-06	1365.8	364.03	2.0157e-06	5.4802e-06	420.14	140.5	123	42.543	2.6833e-06	52.011	0.00043096	0.00050437	0.0001334	1379.2	5.5565e-06	4.9907e-06	1378.4	370.15	5.267e-06	5.4269e-06	424.04	143.29	124.85	43.364	5.352e-06	53.229	150.943	10.467	14.071	-64.725	82.859	69.654	-65.045	-60.008	71.358	93.831	-60.841	-56.561	-55.874	-51.192	80.616	-51.764	-8191	255	
2369.133	1	1	0	0	0.068993	0.1677	0.048015	0.16305	0.15759	0.096171	0.16437	0.12022	0.1612	0.28117	0.29407	0.21973	0.14127	0.20875	0.25873	0.18978	-2.9583	-2.2292	-2.7792	-3.0563	-2.4021	-3.1188	-2.9833	-2.5458	-3.1229	-2.2687	-2.6667	-3.0896	-2.3312	-3.1333	-2.6667	-2.4729	257.703	214.161	253.972	276.334	100.832	4.558	196.856	-63.857	48.304	186.392	277.739	141.550	275.456	262.780	171.942	248.980	0.00019179	0.00048818	0.00010325	1377.4	2.3041e-06	6.7304e-06	1363.1	365.24	2.035e-06	4.2198e-06	418.94	140.54	122.66	42.53	2.8516e-06	52.27	0.00043635	0.00047613	0.00013374	1383.4	5.3436e-06	5.3773e-06	1376.5	369.92	5.3786e-06	5.4214e-06	423.39	143.25	124.82	43.328	5.3598e-06	53.177	155.708	4.004	-2.036	-64.577	91.523	80.806	-64.779	-60.072	63.907	85.369	-60.704	-56.722	-56.078	-51.237	57.350	-51.838	-8191	255	
2369.229	1	1	0	0	0.30055	0.10977	0.194	0.18328	0.1646	0.20288	0.07753	0.22456	0.023933	0.27818	0.20341	0.097759	0.15372	0.23448	0.12995	0.051283	-2.6917	-2.3354	-2.7062	-3.2667	-2.2625	-3.0854	-3.0208	-2.3563	-3.2229	-2.5146	-2.6604	-3.1312	-2.3021	-3.1521	-2.7875	-2.5687	-21.756	27.231	96.931	241.661	43.294	-49.778	246.633	235.846	121.718	88.589	191.902	198.186	-24.536	-59.035	121.489	198.591	0.00017754	0.00055966	0.00012489	1375.1	1.7521e-06	4.157e-06	1370.6	367.71	2.904e-06	5.2891e-06	421.22	140.68	122.44	42.45	4.0798e-06	52.115	0.000445	0.00048974	0.00013629	1379.2	5.5804e-06	5.1678e-06	1375.6	370.66	5.4508e-06	5.4937e-06	423.4	143.14	124.63	43.338	5.463e-06	53.171	146.315	21.508	4.519	-64.532	98.604	72.408	-64.805	-60.045	68.793	72.593	-60.772	-56.449	-55.913	-51.220	56.249	-51.603	-8191	255	
2369.325	1	1	0	0	0.084888	0.22903	0.097163	0.20123	0.084368	0.055484	0.086713	0.29121	0.083629	0.18527	0.14767	0.077988	0.30492	0.19245	0.088751	0.14414	-2.8187	-2.5229	-2.5396	-3.4167	-2.4292	-2.9521	-3.075	-2.4146	-3.1292	-2.3396	-2.625	-3.3729	-2.4833	-3.0875	-3.025	-2.3688	168.423	97.640	240.731	226.728	262.193	112.291	-41.887	218.968	-68.567	108.433	191.477	-35.758	242.235	-3.085	-0.492	-55.517	0.00020912	0.00039001	0.00015218	1376.2	3.3929e-06	5.2737e-06	1363.8	366.46	1.6868e-06	4.8993e-06	419.52	141.14	123.03	42.759	4.4265e-06	52.352	0.00043236	0.00050244	0.00013793	1380.7	5.5919e-06	5.3425e-06	1377.9	370.29	5.3413e-06	5.3637e-06	423.56	143.49	124.99	43.468	5.3839e-06	53.307	151.724	4.993	14.083	-64.570	71.757	89.756	-64.960	-60.180	35.752	82.066	-60.437	-56.760	-55.807	-50.936	59.302	-52.080	-8191	255	
2369.421	1	1	0	0	0.076079	0.15288	0.34664	0.31812	0.24638	0.14913	0.28108	0.23823	0.4774	0.10885	0.19715	0.29498	0.074299	0.10549	0.16619	0.17474	-2.8146	-2.675	-2.4521	-3.3125	-2.3708	-2.75	-3.2292	-2.5146	-3.1	-2.9104	-2.5563	-3.2729	-2.5417	-2.9062	-3.2	-2.3396	72.290	76.581	-34.468	276.933	110.782	74.298	213.141	214.681	-63.198	252.667	278.058	262.590	208.278	-33.753	182.731	203.375	0.00019699	0.00046394	0.00013799	1378.6	2.2535e-06	4.7443e-06	1374.9	365.03	3.5512e-06	5.7127e-06	421.27	141.21	122.63	42.856	3.6697e-06	52.629	0.00044586	0.00049577	0.00013435	1384.8	5.5549e-06	5.3869e-06	1382	370.51	5.3876e-06	5.5284e-06	424.88	143.97	125.11	43.453	5.4966e-06	53.409	152.469	10.280	19.941	-64.691	65.963	84.917	-64.947	-60.154	57.126	61.775	-60.914	-56.878	-56.041	-51.191	70.468	-51.997	-8191	255	
2369.542	1	1	0	0	0.30275	0.13736	0.087376	0.34846	0.28765	0.15617	0.26659	0.27553	0.20839	0.25752	0.14257	0.20869	0.34175	0.083594	0.057208	0.18206	-2.5146	-3.05	-2.2313	-3.3104	-2.475	-2.5021	-3.3917	-2.5271	-2.8292	-2.9479	-2.3833	-3.225	-2.6271	-2.5938	-3.2438	-2.5583	246.645	78.994	242.588	268.598	89.860	103.696	247.616	257.666	19.478	223.824	229.403	243.137	224.561	-6.490	24.547	211.978	0.00018706	0.00052753	9.8303e-05	1377.6	2.5624e-06	4.2602e-06	1368.5	366.22	1.7963e-06	3.3393e-06	416.84	140.53	122.44	42.442	4.2577e-06	52.184	0.00044229	0.00049203	0.00013564	1385.4	5.455e-06	5.513e-06	1381.8	370.65	5.365e-06	5.2586e-06	423.43	143.68	124.7	43.369	5.195e-06	53.29	142.075	8.747	5.428	-64.777	89.621	71.959	-65.033	-60.134	14.748	55.419	-60.732	-56.697	-56.021	-51.010	62.747	-51.857	-8191	255	
2369.638	1	1	0	0	0.20836	0.26797	0.22562	0.25595	0.1306	0.22075	0.20504	0.15892	0.16813	0.050863	0.22047	0.31445	0.22945	0.23734	0.070258	0.23973	-2.6208	-2.9062	-2.2208	-3.4667	-2.4208	-2.625	-3.3292	-2.5438	-2.7812	-2.9333	-2.3312	-3.2542	-2.8312	-2.5292	-3.1271	-2.6417	43.438	70.048	170.162	239.539	105.000	274.375	206.572	173.176	146.170	-46.259	234.801	-41.924	264.147	-50.552	95.556	177.727	0.00017991	0.00048722	0.00010699	1372.1	2.5094e-06	5.4919e-06	1368.5	366.47	2.5372e-06	3.5749e-06	419.44	140.92	122.45	42.674	3.0415e-06	52.246	0.00044247	0.00049646	0.00014013	1382.5	5.4784e-06	5.3539e-06	1379.2	371.04	5.7531e-06	5.1323e-06	424.03	143.59	124.87	43.425	5.2477e-06	53.235	144.668	23.669	10.089	-64.597	74.743	75.780	-64.709	-60.101	68.773	72.576	-60.721	-56.471	-56.086	-50.903	69.153	-51.853	-8191	255	
2369.734	1	1	0	0	0.0084037	0.20408	0.0843	0.24517	0.078651	0.078178	0.22512	0.21031	0.067546	0.14839	0.31736	0.33308	0.18059	0.16731	0.22415	0.22165	-2.4854	-2.9542	-2.2125	-3.4729	-2.8042	-2.3208	-3.4271	-2.4958	-2.8354	-3.0292	-2.4437	-3.1708	-2.9979	-2.4458	-3.1104	-2.5896	-24.940	154.994	89.529	266.153	72.255	-40.202	164.036	236.715	122.951	24.880	116.850	265.968	250.345	-12.514	1.896	227.886	0.00017997	0.00053813	0.00016492	1373.4	2.1983e-06	6.6045e-06	1368.4	366.07	2.4641e-06	3.2231e-06	420.32	140.93	123.06	42.469	2.8161e-06	52.32	0.00045455	0.00049369	0.00013722	1383.4	5.329e-06	5.5088e-06	1380.5	370.4	5.4387e-06	5.3892e-06	424.28	144.02	125.08	43.421	5.0577e-06	53.471	143.352	7.253	16.430	-64.368	60.612	71.183	-64.693	-59.909	70.670	70.877	-60.562	-56.401	-55.966	-51.272	74.500	-51.674	-8191	255	
2369.806	1	1	0	0	0.096573	0.070194	0.15263	0.14526	0.23261	0.18498	0.20033	0.10773	0.28192	0.12272	0.011627	0.03447	0.05851	0.1183	0.18336	0.32741	-2.3771	-3.2854	-2.3146	-3.0417	-2.8688	-2.2917	-3.4625	-2.65	-2.4958	-3.2542	-2.5292	-3.075	-2.9771	-2.3833	-3.125	-2.6521	-5.856	-60.836	1.416	252.119	79.765	45.051	249.811	259.609	-44.116	-10.952	222.434	47.852	180.557	183.873	208.645	261.876	0.00022593	0.00054103	0.00015155	1381	3.1155e-06	4.5829e-06	1369.7	365.88	2.3721e-06	5.0198e-06	420.35	140.91	123.05	42.688	3.9074e-06	52.42	0.00045618	0.00046267	0.00013868	1387	5.2593e-06	5.3773e-06	1383	370.94	5.5214e-06	4.9561e-06	424.71	144.01	125.37	43.609	5.2404e-06	53.475	145.345	7.798	24.266	-64.296	50.586	73.480	-64.785	-60.146	17.270	78.985	-60.574	-56.392	-55.925	-51.230	83.250	-52.089	-8191	255	
2369.925	1	1	0	0	0.13706	0.05044	0.10234	0.24455	0.04617	0.076794	0.016816	0.20817	0.21925	0.12058	0.091483	0.14317	0.18822	0.14378	0.1847	0.15974	-2.3521	-3.2646	-2.3979	-3.0042	-3.0312	-2.3417	-3.3729	-2.8083	-2.4646	-3.2708	-2.4313	-2.8875	-3.0917	-2.5021	-3.1042	-2.7708	1.583	222.220	246.545	264.763	-55.933	77.757	152.556	218.596	75.598	71.273	-71.204	228.092	-63.995	215.491	-17.902	6.702	0.00017649	0.00038596	0.00016562	1383	2.5538e-06	5.2348e-06	1369.6	367.32	2.6894e-06	5.3921e-06	420.48	141.17	123.48	42.957	2.6052e-06	52.592	0.00044387	0.00045899	0.00013444	1386.3	5.2306e-06	5.3113e-06	1382.5	371.5	5.4218e-06	4.7812e-06	425.15	144.45	125.54	43.645	5.3296e-06	53.602	145.071	10.116	14.349	-64.485	50.877	77.168	-64.656	-60.145	47.641	75.670	-60.580	-56.280	-55.749	-51.104	62.011	-51.788	-8191	255	
2370.021	1	1	0	0	0.028554	0.10629	0.133	0.23202	0.081738	0.27176	0.10298	0.19961	0.10714	0.010769	0.23002	0.3159	0.21847	0.22699	0.078968	0.13869	-1.7958	-3.1396	-2.5229	-2.9729	-2.9896	-2.4375	-3.2687	-2.975	-2.4	-3.2583	-2.5958	-2.7438	-3.25	-2.4292	-3.2083	-2.9562	156.153	162.458	152.307	203.656	269.407	165.342	227.058	215.202	200.115	51.104	270.413	223.115	-67.802	275.855	279.407	213.140	0.00017663	0.00050072	0.00014109	1378.4	2.7542e-06	3.8607e-06	1379.9	366.79	1.858e-06	5.5308e-06	420.99	141.48	123.54	42.827	3.6026e-06	52.465	0.00044417	0.00047057	0.0001355	1385.6	5.3696e-06	5.1798e-06	1387	371.32	5.5456e-06	4.9167e-06	425.36	144.33	125.72	43.605	5.2029e-06	53.561	147.840	15.223	18.288	-64.554	57.976	82.371	-64.590	-59.956	17.044	83.058	-60.495	-56.185	-55.988	-51.486	81.183	-51.587	-8191	255	
2370.117	1	1	0	0	0.23513	0.13956	0.2022	0.24765	0.18947	0.10255	0.19065	0.28313	0.32456	0.22143	0.27087	0.18486	0.2786	0.13455	0.24126	0.093261	-2.0938	-3.2146	-2.5438	-2.8271	-3.175	-2.3167	-3.1646	-3.0583	-2.1312	-3.1021	-2.7875	-2.5771	-3.325	-2.4958	-2.8396	-3.0083	111.017	147.131	13.673	-66.055	43.202	110.308	224.320	-66.095	184.632	180.824	206.714	245.010	236.828	177.146	206.787	34.602	0.00019415	0.00054966	0.00010363	1381.2	3.263e-06	6.6767e-06	1378.4	368.42	2.3421e-06	5.0298e-06	421.64	141.34	123.17	42.785	3.4382e-06	52.525	0.00044589	0.00046251	0.00012867	1388.6	5.114e-06	5.106e-06	1388.1	372.18	5.356e-06	4.9944e-06	425.31	144.51	125.78	43.631	5.2477e-06	53.631	153.146	16.695	-0.959	-64.424	68.125	71.302	-64.637	-60.191	45.204	72.621	-60.464	-56.580	-56.030	-51.130	62.684	-51.561	-8191	255	
2370.213	1	1	0	0	0.068436	0.18711	0.054505	0.4307	0.17334	0.24699	0.29613	0.10213	0.13476	0.16732	0.076191	0.11779	0.23959	0.23265	0.17195	0.29577	-1.8271	-3.1896	-2.55	-2.5979	-3.2854	-2.2604	-3.1458	-3.1833	-2.3458	-2.9604	-2.8271	-2.5	-3.4333	-2.7313	-2.775	-3.1896	-15.633	130.003	56.023	262.489	39.391	63.234	207.471	232.919	26.831	270.317	222.666	256.844	-36.350	118.190	-32.099	196.400	0.00019334	0.0003703	0.0001004	1383	2.9743e-06	5.5593e-06	1372.8	367.53	1.922e-06	4.7159e-06	420.05	141.05	124.1	42.92	3.3701e-06	52.589	0.00044102	0.00044991	0.0001308	1390.2	5.0922e-06	5.2837e-06	1386.2	371.74	5.4187e-06	4.981e-06	425.58	144.32	126.06	43.705	5.2275e-06	53.568	146.029	18.365	7.204	-64.416	65.208	78.385	-64.496	-59.921	71.233	50.638	-60.575	-56.367	-55.656	-50.948	56.790	-51.625	-8191	255	
2370.334	1	1	0	0	0.16831	0.023941	0.105	0.20535	0.14737	0.16444	0.15729	0.1657	0.16085	0.019222	0.18358	0.072259	0.023253	0.28124	0.1193	0.19136	-1.8833	-2.9583	-2.7396	-2.5687	-3.1063	-2.5458	-2.9	-3.3333	-2.2208	-2.9938	-2.8792	-2.4833	-3.325	-2.3417	-2.5083	-3.2083	140.243	109.728	-67.509	202.860	101.833	78.857	58.780	169.225	-5.839	71.941	213.435	40.966	-17.060	225.543	231.284	-77.819	0.00018932	0.00045472	0.00011441	1384.5	3.2112e-06	3.7028e-06	1373.3	368.6	1.932e-06	4.771e-06	420.33	141.77	124.18	42.793	3.6078e-06	52.658	0.00043751	0.00045605	0.00012558	1389.8	5.0833e-06	5.1504e-06	1386.4	372.24	5.485e-06	5.2714e-06	425.08	144.54	126.05	43.634	5.4692e-06	53.632	155.045	32.654	-7.155	-64.357	42.176	92.290	-64.358	-59.955	47.006	75.735	-60.135	-56.046	-55.792	-50.977	43.857	-51.806	-8191	255	
2370.406	1	1	0	0	0.097976	0.29951	0.10179	0.2876	0.16179	0.1498	0.42909	0.097741	0.11238	0.085041	0.18408	0.32377	0.35679	0.13326	0.21241	0.15411	-1.9417	-2.9188	-2.9458	-2.4083	-2.9896	-2.5083	-2.8958	-3.3979	-2.4583	-2.9875	-3.0896	-2.2917	-3.0667	-2.8208	-2.4229	-3.1729	93.576	135.119	203.627	-67.121	-47.358	166.599	243.754	-32.303	17.840	108.590	206.285	245.954	267.139	214.920	-14.904	171.796	0.0001761	0.00055572	0.00013248	1387.2	2.7424e-06	6.2683e-06	1379.8	368.18	2.8525e-06	5.2604e-06	422.92	141.72	124.04	42.892	3.0849e-06	52.432	0.00043947	0.00045958	0.00012984	1390.7	5.2306e-06	5.1936e-06	1389.6	372.71	5.2812e-06	5.2799e-06	426.66	145.01	126.16	43.734	5.2819e-06	53.633	146.484	22.786	16.908	-64.385	59.275	86.697	-64.533	-60.085	40.262	77.990	-60.657	-56.399	-55.727	-50.978	82.125	-51.634	-8191	255	
2370.502	1	1	0	0	0.16815	0.16626	0.15267	0.38101	0.20211	0.093019	0.1574	0.14158	0.1258	0.052803	0.062528	0.32177	0.22165	0.33311	0.25076	0.13938	-1.9646	-2.8708	-2.8979	-2.7583	-3.0187	-2.9	-2.4854	-3.3917	-2.3875	-2.6437	-3.2438	-2.4271	-3.1562	-2.9542	-2.225	-3.3083	17.657	262.871	176.220	263.332	-75.563	124.629	248.440	185.310	135.878	-12.074	-10.879	188.298	271.950	255.779	261.231	257.213	0.0001966	0.0006075	0.00013288	1386.4	3.0057e-06	5.4355e-06	1381.1	367.67	1.2642e-06	4.7207e-06	421.35	141.28	124.02	42.87	3.5509e-06	52.899	0.00042841	0.00047372	0.00012481	1392.3	4.9256e-06	5.0459e-06	1390.8	372.56	5.1222e-06	5.0892e-06	425.62	144.93	126.16	43.791	5.3397e-06	53.767	150.783	10.601	19.335	-64.428	76.467	82.813	-64.337	-59.856	50.652	90.625	-60.345	-55.943	-55.719	-50.930	58.813	-51.449	-8191	255	
2370.622	1	1	0	0	0.15154	0.29047	0.17814	0.043988	0.091424	0.063888	0.16873	0.19143	0.31986	0.16732	0.15574	0.19438	0.058872	0.24079	0.086785	0.23977	-2.0875	-2.6646	-3.0104	-2.5042	-2.9146	-2.7833	-2.7708	-3.2729	-2.45	-2.7	-3.1646	-2.3729	-3.1021	-3.0458	-2.4292	-3.3312	-51.382	157.093	87.682	29.665	253.644	189.942	205.744	-58.858	170.383	267.622	184.841	-5.900	152.489	1.430	159.130	141.584	0.00019425	0.00054957	0.00011739	1384.4	2.5261e-06	6.0113e-06	1373.3	367.46	1.4401e-06	4.5705e-06	422.07	141.84	123.67	42.859	2.0614e-06	52.68	0.00042594	0.00044426	0.00011979	1390.7	4.9303e-06	4.9943e-06	1388.6	372.67	5.238e-06	5.0904e-06	426.46	144.87	126.28	43.814	5.1053e-06	53.72	142.942	26.046	25.161	-64.449	61.173	70.804	-64.375	-60.069	41.285	87.644	-60.349	-56.338	-55.650	-51.160	80.534	-51.497	-8191	255	
2370.719	1	1	0	0	0.28024	0.11651	0.22773	0.37787	0.16584	0.093137	0.28252	0.44995	0.089519	0.04436	0.053311	0.23095	0.052487	0.067817	0.12717	0.17107	-2.2125	-2.5458	-3.2625	-2.5083	-2.8896	-3.0375	-2.6292	-3.2917	-2.6063	-2.4917	-3.3979	-2.4917	-2.95	-3.0021	-2.2583	-3.3417	134.974	71.609	161.402	-71.537	171.210	-21.117	157.745	243.927	42.830	164.919	267.978	32.112	248.938	59.806	188.330	148.213	0.00017669	0.00051875	0.00017463	1382.3	2.4602e-06	4.7467e-06	1373.5	367.74	1.1412e-06	5.5405e-06	421.86	142.04	123.75	42.87	3.4758e-06	52.552	0.00044125	0.00048093	0.00012452	1390.7	5.0682e-06	4.8148e-06	1387.2	372.69	5.0332e-06	5.2058e-06	426.4	144.81	126.2	43.761	5.3341e-06	53.656	145.564	20.383	8.430	-64.346	67.223	55.553	-64.540	-59.677	34.456	67.394	-60.091	-56.327	-55.740	-51.012	77.028	-51.563	-8191	255	
2370.815	1	1	0	0	0.19755	0.11634	0.18009	0.031361	0.1839	0.13265	0.20229	0.23684	0.14431	0.15278	0.17921	0.11927	0.2679	0.19729	0.20459	0.16742	-2.3375	-2.3187	-3.1125	-2.7583	-2.7958	-3.0604	-2.6562	-3.05	-2.8063	-2.3937	-3.3917	-2.4875	-2.8854	-3.1917	-2.3063	-3.2542	102.904	114.452	253.545	186.418	199.080	39.781	231.009	-73.183	193.696	218.185	-43.679	193.756	256.315	280.359	87.199	163.502	0.00021132	0.00065133	0.00010552	1384.2	4.0573e-06	4.9044e-06	1373.3	367.97	3.5406e-06	4.4248e-06	419.96	141.28	124.01	42.922	3.4569e-06	52.615	0.00043138	0.000486	0.00012264	1391.4	5.2926e-06	5.0501e-06	1387.4	372.43	5.1743e-06	4.8996e-06	425.46	144.75	126.2	43.806	5.375e-06	53.788	145.277	-0.115	10.597	-64.465	75.248	78.708	-64.421	-59.897	59.387	91.840	-60.422	-56.622	-55.641	-50.882	54.547	-51.548	-8191	255	
2370.934	1	1	0	0	0.022249	0.13715	0.11591	0.13103	0.11162	0.21449	0.25936	0.12068	0.14482	0.29815	0.090888	0.24974	0.021018	0.13677	0.09612	0.22462	-2.3708	-2.2396	-3.1354	-2.7625	-2.5208	-3.1854	-2.4938	-3.1479	-2.9813	-2.4917	-3.4208	-2.7896	-2.5771	-3.3625	-2.2104	-3.0104	212.666	204.252	200.922	-75.454	-35.127	246.018	224.911	190.144	-24.863	-45.563	152.490	184.777	142.622	170.166	126.174	271.252	0.00019897	0.00051251	0.00012222	1382.4	3.431e-06	5.057e-06	1377	368.75	2.0991e-06	4.7748e-06	421.54	141.46	123.88	42.889	3.7456e-06	52.552	0.00043099	0.00047938	0.0001167	1391.5	5.2686e-06	4.8629e-06	1386.5	372.82	5.1164e-06	5.2356e-06	426.13	144.8	126.19	43.801	5.2651e-06	53.761	154.697	2.281	4.439	-64.533	85.158	66.319	-64.598	-59.901	49.519	65.873	-60.240	-56.514	-55.626	-51.046	67.674	-51.279	-8191	255	
2371.030	1	1	0	0	0.13837	0.16384	0.19162	0.18736	0.064623	0.1185	0.1454	0.28571	0.20176	0.023876	0.2916	0.20972	0.29359	0.23513	0.21876	0.30392	-2.6833	-2.5312	-3.0333	-2.8854	-2.6146	-3.1667	-2.5083	-3.0792	-3.0458	-2.3979	-3.2833	-2.7292	-2.5458	-3.1229	-2.5979	-2.9542	201.215	-39.150	67.317	200.887	-21.866	118.527	-64.999	266.878	149.656	142.850	-76.538	207.163	253.135	217.798	83.946	215.209	0.00018288	0.00053278	0.00010986	1379.9	2.9498e-06	3.6124e-06	1380	368.7	3.7392e-06	3.6218e-06	421.72	141.72	123.53	42.992	3.4327e-06	52.652	0.00042284	0.000482	0.00012434	1390	5.2723e-06	4.6924e-06	1388.6	373.11	5.0426e-06	5.0248e-06	426.22	144.74	126.1	43.797	5.3352e-06	53.745	145.084	16.403	15.926	-64.337	71.307	80.955	-64.584	-59.793	82.818	62.957	-60.378	-56.448	-55.702	-50.748	74.792	-51.606	-8191	255	
2371.101	1	1	0	0	0.037696	0.24015	0.15949	0.16127	0.32846	0.091092	0.11365	0.1892	0.11338	0.22142	0.070459	0.19432	0.21773	0.069378	0.10362	0.26338	-2.7375	-2.1646	-3.1104	-2.95	-2.3521	-3.3312	-2.5292	-2.9042	-3.3333	-2.2354	-3.0708	-2.925	-2.4333	-3.2333	-2.4625	-2.6458	-61.953	171.323	-67.831	-70.149	59.549	3.953	-21.578	256.604	207.590	178.812	9.845	214.264	-52.203	252.873	268.771	-59.381	0.0001713	0.00052887	0.00013544	1381.6	2.6269e-06	4.5698e-06	1376.6	367.89	2.5253e-06	6.3233e-06	421.19	142.31	123.6	42.934	3.6752e-06	52.613	0.00042873	0.00046582	0.00012731	1390.1	5.1151e-06	4.711e-06	1388	372.79	5.08e-06	5.1578e-06	425.28	144.95	125.95	43.821	5.1905e-06	53.706	141.243	6.002	7.009	-64.227	63.721	85.951	-64.597	-59.568	66.698	57.671	-60.242	-56.307	-55.449	-50.929	65.662	-51.706	-8191	255	
2371.198	1	1	0	0	0.038722	0.10722	0.14154	0.076787	0.27978	0.091382	0.2889	0.045796	0.10302	0.035709	0.14529	0.048732	0.040958	0.15434	0.10782	0.089099	-2.875	-2.2875	-3.0542	-3.1167	-2.2458	-3.1458	-2.7042	-2.5187	-3.2042	-2.2229	-2.9896	-3.1958	-2.2938	-3.0271	-2.5958	-2.5667	86.308	-34.476	148.676	159.755	199.333	19.063	165.368	237.234	135.045	-69.441	66.211	192.518	56.091	121.250	107.818	-77.426	0.0001746	0.00058359	0.00016113	1377.2	3.1686e-06	6.1604e-06	1378.4	366.95	2.5276e-06	5.2007e-06	421	142.27	123.85	42.92	4.2476e-06	52.421	0.00042522	0.00048413	0.00012898	1390.2	5.3124e-06	5.0651e-06	1388.1	372.02	5.1948e-06	5.1347e-06	425.53	144.7	126.1	43.824	5.3509e-06	53.697	146.874	4.833	6.456	-64.968	81.697	72.729	-65.215	-60.450	84.343	96.973	-60.614	-56.910	-56.094	-51.249	65.957	-51.870	-8191	255	
2371.318	1	1	0	0	0.179	0.17096	0.14986	0.37699	0.080841	0.11114	0.21768	0.18481	0.1717	0.050951	0.13613	0.16378	0.20499	0.10145	0.28793	0.14177	-2.7438	-2.4062	-2.8271	-2.9771	-2.1875	-3.2417	-2.8438	-2.5646	-3.3271	-2.4125	-2.8854	-3.2875	-2.3771	-3.2896	-2.7396	-2.4729	29.226	99.610	165.954	-77.254	-51.451	65.297	164.301	262.130	205.629	54.952	-72.092	-76.611	212.110	17.924	215.436	162.104	0.00018002	0.00056793	0.00011518	1377.7	2.4503e-06	5.7743e-06	1379.3	366.49	2.7562e-06	4.3448e-06	419.59	141.97	123.37	42.716	3.0768e-06	52.526	0.00042281	0.00047356	0.0001281	1389	5.1713e-06	4.7626e-06	1388.7	371.87	5.0516e-06	5.1372e-06	425.71	144.92	125.98	43.763	5.1451e-06	53.614	151.216	5.122	42.439	-64.774	45.730	62.911	-64.873	-60.240	45.844	70.052	-60.816	-56.589	-55.949	-51.174	70.893	-51.803	-8191	255	
2371.414	1	1	0	0	0.26587	0.091425	0.21091	0.12258	0.074911	0.075368	0.14086	0.23782	0.21912	0.15733	0.062951	0.19479	0.11124	0.28004	0.049833	0.16441	-2.9333	-2.475	-2.7167	-3.2458	-2.3146	-3.0979	-3.1708	-2.3375	-3.3542	-2.3708	-2.7875	-2.9	-2.3187	-3.2271	-2.8354	-2.5	185.842	-53.842	161.819	-61.526	97.280	118.343	274.952	274.204	-38.436	203.313	49.705	275.498	225.162	207.820	147.277	214.354	0.00017398	0.00041848	0.00012242	1374.9	2.1579e-06	5.5271e-06	1368.8	366.22	2.4491e-06	5.7617e-06	420.04	141.51	123.4	42.914	3.5423e-06	52.517	0.00042787	0.00046604	0.000126	1387.2	5.3124e-06	5.1924e-06	1384.8	371.79	5.2006e-06	5.1116e-06	425.36	144.88	126.01	43.77	4.9416e-06	53.615	147.296	10.065	4.273	-64.471	77.260	87.119	-64.871	-60.272	65.099	84.566	-60.578	-56.772	-56.086	-51.291	62.659	-52.102	-8191	255	
2371.511	1	1	0	0	0.18413	0.16286	0.19969	0.2959	0.087971	0.087912	0.24499	0.089577	0.034961	0.12866	0.22119	0.25051	0.25447	0.20077	0.042072	0.08031	-2.7	-2.4938	-2.6	-3.3021	-2.3729	-3.0042	-3.175	-2.2521	-3.0042	-2.4583	-2.8063	-3.3417	-2.2625	-2.9062	-2.9208	-2.4479	85.938	103.268	59.136	260.666	253.012	275.306	232.021	-31.727	1.057	124.442	272.554	123.641	-33.837	243.181	99.821	-74.698	0.00018997	0.00042501	0.00013375	1378	3.4946e-06	6.0296e-06	1369.4	366.49	2.1044e-06	5.2657e-06	420.11	141.22	123.86	42.828	2.9718e-06	52.68	0.00042882	0.00044853	0.00012614	1388.8	5.1749e-06	5.0051e-06	1385.2	371.85	5.1201e-06	4.9276e-06	425.58	144.52	126.03	43.715	5.1019e-06	53.719	153.171	15.470	13.689	-64.806	57.080	75.269	-64.683	-60.210	65.043	79.647	-60.563	-56.746	-56.022	-51.024	72.455	-51.621	-8191	255	
2371.607	1	1	0	0	0.10661	0.037005	0.35421	0.10682	0.068718	0.32012	0.33096	0.040302	0.092886	0.21321	0.064427	0.027238	0.30111	0.19636	0.075261	0.1483	-2.6729	-2.6917	-2.4833	-3.3979	-2.5271	-2.8854	-3.1979	-2.4167	-2.7667	-2.7458	-2.4646	-3.1271	-2.4479	-2.7146	-2.9417	-2.3875	128.080	11.307	83.420	226.643	127.747	-27.362	157.954	49.901	256.423	172.122	232.465	258.383	274.644	204.753	28.230	29.933	0.00017618	0.00054418	0.00010204	1381.3	4.0652e-06	4.7136e-06	1370.4	367.12	1.5784e-06	3.0808e-06	417.1	141.33	122.76	42.59	4.0349e-06	52.616	0.00042502	0.00045787	0.00012765	1389.6	5.3925e-06	5.0603e-06	1384.2	372.14	4.9931e-06	5.0892e-06	424.16	144.72	125.88	43.647	5.2001e-06	53.669	152.690	3.613	18.069	-64.859	70.599	51.963	-64.914	-60.315	55.103	73.772	-60.731	-56.683	-56.215	-51.062	70.158	-51.738	-8191	255	
2371.703	1	1	0	0	0.084323	0.16251	0.095501	0.28915	0.076331	0.043223	0.19663	0.14176	0.096537	0.21981	0.31358	0.11347	0.10178	0.12464	0.13093	0.22617	-2.5312	-2.7417	-2.3229	-3.475	-2.3	-2.7542	-3.3688	-2.3479	-3	-2.9417	-2.4292	-3.2354	-2.7021	-2.8375	-3.2208	-2.6208	276.276	182.130	222.602	-60.118	180.971	210.134	172.514	221.198	-29.280	220.226	-70.271	-72.772	12.822	-78.051	26.586	-13.670	0.00014684	0.00045706	0.00011662	1378.1	2.5894e-06	6.1211e-06	1365.5	367.03	1.1999e-06	4.86e-06	418.72	141.67	123.41	42.717	5.5096e-06	52.394	0.00043513	0.00046481	0.00012987	1389.5	5.1046e-06	5.133e-06	1382.8	372.14	5.2702e-06	5.159e-06	425.47	144.78	125.95	43.606	5.2001e-06	53.541	142.984	9.781	20.720	-64.693	61.808	78.013	-64.966	-60.114	47.739	95.108	-60.858	-56.623	-55.918	-51.212	77.346	-52.011	-8191	255	
2371.799	1	1	0	0	0.26373	0.080661	0.18121	0.15245	0.18594	0.057852	0.14371	0.49729	0.098601	0.26874	0.2269	0.12005	0.13582	0.13384	0.1187	0.17095	-2.625	-2.9542	-2.375	-3.4125	-2.5271	-2.6271	-3.3979	-2.6083	-3.1479	-3.0625	-2.3792	-3.2208	-2.6604	-2.7188	-3.1104	-2.4583	92.256	29.722	-40.974	259.700	-27.689	-73.280	239.594	-55.901	98.525	198.512	237.011	167.765	75.839	261.260	2.236	232.817	0.000192	0.00055131	0.00014058	1374.9	4.7141e-06	6.3718e-06	1369	368.17	1.9464e-06	4.3154e-06	419.13	140.69	123.18	42.679	3.636e-06	52.428	0.00043055	0.00046705	0.00013173	1387.3	5.5034e-06	5.3791e-06	1385	372.42	5.3186e-06	5.238e-06	424.48	144.5	125.78	43.65	5.0997e-06	53.593	149.823	14.719	18.460	-64.760	71.897	67.703	-64.967	-60.007	22.577	90.073	-61.074	-56.966	-56.458	-51.319	72.669	-51.931	-8191	255	
2371.895	1	1	0	0	0.11389	0.1192	0.073593	0.21201	0.10877	0.078334	0.37581	0.15076	0.2188	0.22853	0.31473	0.17296	0.079008	0.14733	0.10029	0.14712	-2.3167	-2.9938	-2.2	-3.2188	-2.7208	-2.3083	-3.1292	-2.5125	-2.5729	-3.1333	-2.1896	-3.0708	-3.0167	-2.4562	-3.1354	-2.6625	278.090	83.955	148.082	255.585	-57.518	49.820	199.636	200.056	66.429	81.440	255.673	210.102	223.045	256.406	266.278	-52.676	0.00020751	0.00037448	8.6771e-05	1375.5	2.4171e-06	4.8994e-06	1374.2	365.99	2.8713e-06	3.8789e-06	418.67	141.75	123.16	42.699	3.5846e-06	52.417	0.00044015	0.00047431	0.00012777	1388.9	5.2691e-06	5.22e-06	1386.1	371.94	5.3518e-06	5.0132e-06	425.39	144.68	125.78	43.708	5.1154e-06	53.576	144.314	12.471	-14.396	-64.633	84.931	62.557	-65.330	-60.642	52.832	87.399	-61.167	-56.999	-56.344	-51.395	69.571	-52.407	-8191	255	
2372.016	1	1	0	0	0.16405	0.081458	0.050699	0.084479	0.27017	0.12966	0.32644	0.32166	0.016651	0.13412	0.15088	0.25576	0.057975	0.1806	0.10223	0.13887	-2.2521	-3.0104	-2.1188	-3.2083	-2.7146	-2.3187	-3.4188	-2.7542	-2.7021	-3.1458	-2.35	-2.8854	-3.1125	-2.2479	-3.0875	-2.7208	131.414	162.236	73.124	206.638	42.820	-61.689	189.868	272.622	-58.407	-20.500	-8.675	222.079	-37.462	-53.575	135.288	-32.912	0.00017078	0.00047919	0.00015488	1381.2	3.0508e-06	6.0262e-06	1367.8	365.08	2.4619e-06	5.785e-06	417.99	141.18	123.38	42.988	1.7702e-06	52.501	0.00044699	0.00045824	0.00013127	1390.5	5.1249e-06	5.1624e-06	1384.8	371.3	5.2301e-06	4.8614e-06	425.25	144.86	125.82	43.739	4.9427e-06	53.7	149.187	16.728	9.923	-64.747	84.402	67.915	-65.007	-60.474	69.592	65.168	-60.744	-56.508	-56.361	-51.316	61.403	-51.967	-8191	255	
2372.110	1	1	0	0	0.26746	0.1718	0.064284	0.3516	0.048692	0.04352	0.067516	0.33801	0.22782	0.16041	0.15045	0.01973	0.17011	0.24597	0.070593	0.14444	-1.9813	-3.2438	-2.4042	-3.0021	-2.925	-2.0958	-3.2917	-2.7271	-2.3771	-3.15	-2.4938	-2.7542	-2.9854	-2.2729	-3.1042	-2.7687	105.920	-1.567	-54.375	260.327	-63.783	-14.494	219.413	212.807	267.072	-42.667	272.762	259.942	225.322	-43.617	154.642	131.224	0.00019433	0.00052557	0.00013715	1379.9	3.1924e-06	5.2822e-06	1370.5	367.58	2.069e-06	5.5149e-06	418.75	141.1	123.47	42.982	4.3024e-06	52.468	0.0004436	0.00045424	0.0001266	1388.8	5.1421e-06	5.0339e-06	1386.6	372.1	5.2796e-06	5.043e-06	424.6	144.66	125.83	43.831	4.9921e-06	53.659	149.390	13.902	13.758	-64.773	75.478	77.777	-64.971	-60.462	50.024	70.100	-60.878	-56.627	-56.054	-51.320	65.565	-52.194	-8191	255	
2372.206	1	1	0	0	0.26714	0.082928	0.095206	0.28502	0.14637	0.050987	0.39044	0.14415	0.15975	0.033653	0.21526	0.12906	0.2354	0.24127	0.18974	0.16769	-2.0458	-3.0708	-2.4854	-2.8417	-3.0521	-2.1958	-3.0896	-2.9938	-2.4188	-3.1229	-2.5896	-2.5792	-3.1854	-2.475	-3.0396	-2.9292	153.481	168.839	-73.027	253.019	75.630	146.061	231.845	212.342	53.426	-74.212	251.773	278.150	208.327	280.495	152.426	207.975	0.00019029	0.00035324	0.00016074	1379.2	3.2187e-06	4.7891e-06	1369.6	367.98	2.5646e-06	5.1623e-06	418.24	141.91	123.56	42.766	4.0203e-06	52.349	0.00043926	0.00043571	0.00013439	1388.4	5.0703e-06	5.0255e-06	1384.6	372.36	5.1611e-06	4.7958e-06	425.01	144.85	126.15	43.719	4.982e-06	53.599	148.567	-0.072	7.483	-65.017	58.164	63.319	-64.860	-60.403	44.736	86.883	-61.095	-56.634	-55.997	-51.310	66.146	-51.783	-8191	255	
2372.303	1	1	0	0	0.083594	0.24408	0.0089782	0.38938	0.19446	0.2873	0.17386	0.20402	0.040867	0.010557	0.18321	0.15851	0.24269	0.11086	0.23963	0.0963	-1.9042	-3.0938	-2.4938	-2.8271	-2.9813	-2.2646	-3.0333	-2.875	-2.2354	-3.1937	-2.5938	-2.55	-3.2542	-2.3958	-2.8271	-3.1854	177.102	96.671	158.790	262.542	-4.540	213.902	220.834	143.466	1.139	27.711	269.316	40.801	-53.067	170.884	87.656	277.390	0.00017273	0.00055625	0.000115	1380	2.2354e-06	5.8631e-06	1372.5	367.15	1.9129e-06	5.5996e-06	419.12	141.71	123.93	42.856	2.7893e-06	52.557	0.00044396	0.00045488	0.0001235	1387.7	4.9948e-06	5.0742e-06	1386	372.37	5.3639e-06	4.828e-06	424.82	145.05	126.02	43.777	5.0812e-06	53.592	144.746	17.395	30.154	-64.226	55.051	68.326	-64.587	-59.960	49.025	89.528	-60.507	-56.630	-55.952	-51.453	33.119	-51.947	-8191	255	
2372.399	1	1	0	0	0.17674	0.21215	0.27756	0.30511	0.22491	0.1349	0.12917	0.34929	0.037807	0.2522	0.15682	0.032537	0.29915	0.19408	0.14561	0.12187	-1.7479	-3.1458	-2.7021	-2.625	-3.2062	-2.375	-2.9792	-3.1521	-2.1188	-3.0312	-2.8563	-2.5062	-3.2188	-2.4708	-2.7479	-3.1271	216.792	236.862	-46.544	280.426	35.041	38.149	-50.147	212.845	158.089	231.360	53.774	223.449	262.338	270.373	-34.168	137.708	0.00019917	0.00053782	0.00012069	1378	2.6481e-06	5.3229e-06	1370.7	367.74	2.2078e-06	4.74e-06	420.18	141.84	123.66	42.864	4.1145e-06	52.575	0.00043664	0.00044308	0.0001281	1387.7	5.1197e-06	4.9733e-06	1385	371.97	5.2507e-06	5.0181e-06	424.51	144.93	126.06	43.675	5.2281e-06	53.629	148.699	29.280	16.918	-64.039	60.197	72.808	-64.237	-59.400	27.877	69.822	-61.555	-57.198	-56.724	-51.703	60.330	-52.286	-8191	255	
2372.495	1	1	0	0	0.1529	0.129	0.2414	0.10732	0.084855	0.11885	0.15663	0.077263	0.050228	0.19613	0.2003	0.25992	0.074743	0.21076	0.14307	0.08949	-2.0833	-2.9542	-2.7208	-2.4979	-3.2146	-2.3688	-2.6229	-3.3479	-2.0875	-2.9917	-3.0292	-2.2792	-3.0833	-2.6083	-2.4896	-3.2521	2.232	203.399	86.462	-31.011	251.349	206.406	245.863	205.573	268.667	77.480	242.831	222.689	173.347	97.242	256.059	182.098	0.00017902	0.00049563	0.00013391	1380.2	1.6336e-06	3.7906e-06	1377	368.07	2.074e-06	5.0542e-06	422.93	141.04	123.57	42.783	4.1128e-06	52.559	0.00043441	0.00044623	0.00012515	1387.4	4.949e-06	4.7152e-06	1386.2	372.22	5.1675e-06	4.9889e-06	425.95	144.59	126.03	43.689	5.2836e-06	53.732	156.862	12.194	0.753	-65.068	47.249	75.523	-65.357	-60.697	34.607	91.824	-61.205	-57.080	-56.549	-51.731	74.461	-52.486	-8191	255	
2372.615	1	1	0	0	0.044214	0.10183	0.2124	0.45933	0.23453	0.036763	0.15858	0.2047	0.1454	0.26488	0.1706	0.12709	0.38828	0.17373	0.073875	0.12189	-1.8438	-2.9	-2.8146	-2.5938	-3.0771	-2.7792	-2.5375	-3.2854	-2.1896	-2.9083	-3.1542	-2.375	-3.1583	-2.55	-2.35	-3.2833	186.343	259.942	86.958	269.680	201.377	45.218	260.041	221.419	-58.370	168.895	46.037	7.624	-55.427	242.344	45.464	182.730	0.0001934	0.00052312	0.00014833	1377.5	1.9736e-06	3.7764e-06	1364.4	368.16	2.0721e-06	4.4604e-06	419.48	141.68	123.69	42.972	4.0811e-06	52.707	0.00043652	0.00045269	0.00012388	1387.6	5.0104e-06	4.834e-06	1384.1	372.16	5.1643e-06	4.8395e-06	425.73	144.9	126.27	43.77	5.1204e-06	53.724	153.155	23.038	36.706	-65.254	74.371	77.938	-65.328	-60.821	78.488	57.530	-61.484	-57.241	-56.524	-51.727	71.631	-52.391	-8191	255	
2372.712	1	1	0	0	0.20896	0.11503	0.18775	0.31354	0.088565	0.04617	0.069089	0.064294	0.18166	0.13265	0.15605	0.26402	0.27745	0.16472	0.13074	0.099107	-1.9521	-2.6729	-2.9292	-2.4542	-3.1604	-2.9333	-2.5833	-3.3208	-2.2625	-2.5312	-3.125	-2.3625	-3.0354	-2.8333	-2.2292	-3.2792	16.674	-49.665	266.110	-68.003	242.127	212.726	155.595	59.794	115.401	-57.883	172.128	189.912	250.457	270.709	210.548	178.874	0.00017596	0.00057557	0.00018826	1384.4	2.2631e-06	4.0887e-06	1368.6	367.38	1.8669e-06	4.6758e-06	421.4	141.88	123.68	43.019	3.8418e-06	52.403	0.0004246	0.00045765	0.00012351	1389.9	4.9021e-06	5.0814e-06	1383.3	372.64	5.1522e-06	4.8875e-06	424.95	144.91	126.22	43.829	5.2242e-06	53.688	151.777	15.192	0.459	-65.309	76.160	53.280	-65.270	-60.644	50.111	77.708	-61.390	-57.110	-56.373	-51.925	64.716	-52.616	-8191	255	
2372.808	1	1	0	0	0.22042	0.17895	0.17237	0.17345	0.16998	0.30644	0.36462	0.3565	0.2309	0.27173	0.17228	0.067714	0.31243	0.13161	0.25521	0.19354	-1.9875	-2.6854	-3.0687	-2.3896	-3.0667	-2.6813	-2.5604	-3.2708	-2.5271	-2.3875	-3.3	-2.6063	-2.9938	-3.0104	-2.15	-3.1521	220.282	189.924	-68.922	184.073	134.290	-54.870	203.866	215.336	21.284	229.860	75.193	-36.081	-55.642	201.812	21.774	269.045	0.00018139	0.00046088	0.00012357	1373.4	3.2583e-06	6.5006e-06	1364.9	365.66	3.197e-06	6.0413e-06	419.06	141.43	123.28	42.869	4.5283e-06	52.594	0.00043364	0.00044372	0.00012103	1386.3	4.9495e-06	5.0555e-06	1383	371.95	5.039e-06	5.0995e-06	425.25	144.8	126.35	43.794	5.361e-06	53.685	147.102	5.804	2.827	-65.303	57.325	74.914	-65.335	-60.660	33.794	80.923	-61.335	-57.271	-56.506	-51.578	63.187	-52.598	-8191	255	
2372.902	1	1	0	0	0.21971	0.31635	0.35349	0.26374	0.17241	0.14078	0.23217	0.2608	0.19399	0.29893	0.1643	0.49062	0.36185	0.21503	0.2429	0.055263	-2.0187	-2.4271	-3.1229	-2.4667	-2.7	-3.0458	-2.4062	-3.225	-2.5979	-2.4667	-3.4021	-2.3458	-2.8688	-2.9896	-2.3167	-3.1854	113.585	280.867	243.624	271.989	-73.871	34.858	257.310	207.674	-36.872	258.564	269.038	259.079	260.340	10.577	136.600	180.270	0.00017366	0.00060628	9.8202e-05	1372.5	2.3229e-06	5.0484e-06	1369.1	366.82	2.0655e-06	4.4072e-06	419.79	141.37	124.03	42.713	3.0242e-06	52.613	0.00043278	0.00047639	0.00011954	1384.9	5.1234e-06	4.7392e-06	1383	372.59	5.3123e-06	5.2034e-06	424.98	144.79	126.53	43.728	5.2483e-06	53.731	158.002	13.127	31.490	-65.203	69.492	77.166	-65.515	-60.636	34.326	74.896	-61.451	-57.535	-56.516	-51.738	58.570	-52.519	-8191	255	
2372.998	1	1	0	0	0.083566	0.15028	0.039681	0.12486	0.16351	0.22091	0.21331	0.11386	0.16129	0.13615	0.12058	0.38182	0.1893	0.079012	0.17783	0.06647	-2.1896	-2.2771	-3.1104	-2.5167	-2.6104	-3.0979	-2.4313	-3.2542	-2.7792	-2.4083	-3.0938	-2.5042	-2.825	-3.1917	-2.3021	-3.0312	-76.703	142.302	258.589	-64.104	-2.067	34.499	197.224	241.696	118.826	134.984	252.687	246.741	253.403	265.399	105.233	-67.893	0.000191	0.00039415	0.00014382	1372.7	2.9326e-06	5.8939e-06	1365.5	366.99	1.9334e-06	5.7446e-06	417.9	141.74	123.78	42.676	3.5792e-06	52.47	0.00043721	0.00044564	0.00012045	1385.6	5.0474e-06	4.8917e-06	1384.1	372.12	5.2812e-06	5.0545e-06	424.63	144.93	126.15	43.685	5.2572e-06	53.752	149.035	16.506	14.356	-65.366	70.827	91.427	-65.341	-60.681	33.090	90.064	-60.948	-57.038	-56.311	-51.768	39.342	-52.382	-8191	255	
#DATA ENDS
