BOXY.EXE: ISS Imagent and Oximeter Data Acquisition Program Version 0.80
Ascii Record File

#ACQ INFORMATION
2  Detector Channels 
16  External MUX Channels 
1  Auxiliary Channels 
5000  Waveform (CCF) Frequency (Hz)
1  Waveforms Skipped 
30  Waveforms Averaged 
1  Cycles Averaged 
16  Acquisitions per Waveform 
10.0806  Updata Rate (Hz) 

#FILE INFORMATION
TRUE -- External MUX Channel results are PARSED.
FALSE -- AC DC and Phase are NOT grouped.
TRUE -- Companion Program Settings File CREATED.
FALSE -- AC data not excluded
FALSE -- DC data not excluded
FALSE -- Phase data not excluded
FALSE -- Auxillary Chn. data not excluded
Tab delimiters

#CALIBRATION STATE
TRUE -- Waveform Calibration Values APPLIED.


#AUX CALIBRATION VALUES
Val Type	aux-1	

Term	1.0000e+00	
Factor	0.0000e+00	


#WF CALIBRATION VALUES
A = Detector Channel
Val Type	A-AC1	A-AC2	A-AC3	A-AC4	A-AC5	A-AC6	A-AC7	A-AC8	A-AC9	A-AC10	A-AC11	A-AC12	A-AC13	A-AC14	A-AC15	A-AC16	A-DC1	A-DC2	A-DC3	A-DC4	A-DC5	A-DC6	A-DC7	A-DC8	A-DC9	A-DC10	A-DC11	A-DC12	A-DC13	A-DC14	A-DC15	A-DC16	A-Ph1	A-Ph2	A-Ph3	A-Ph4	A-Ph5	A-Ph6	A-Ph7	A-Ph8	A-Ph9	A-Ph10	A-Ph11	A-Ph12	A-Ph13	A-Ph14	A-Ph15	A-Ph16	

Term	0.00000e+00	0.00000e+00	0.00000e+00	0.00000e+00	0.00000e+00	0.00000e+00	0.00000e+00	0.00000e+00	0.00000e+00	0.00000e+00	0.00000e+00	0.00000e+00	0.00000e+00	0.00000e+00	0.00000e+00	0.00000e+00	0.00000e+00	0.00000e+00	0.00000e+00	0.00000e+00	0.00000e+00	0.00000e+00	0.00000e+00	0.00000e+00	0.00000e+00	0.00000e+00	0.00000e+00	0.00000e+00	0.00000e+00	0.00000e+00	0.00000e+00	0.00000e+00	0.00000e+00	0.00000e+00	0.00000e+00	0.00000e+00	0.00000e+00	0.00000e+00	0.00000e+00	0.00000e+00	0.00000e+00	0.00000e+00	0.00000e+00	0.00000e+00	0.00000e+00	0.00000e+00	0.00000e+00	0.00000e+00	
Factor	1.00000e+00	1.00000e+00	1.00000e+00	1.00000e+00	1.00000e+00	1.00000e+00	1.00000e+00	1.00000e+00	1.00000e+00	1.00000e+00	1.00000e+00	1.00000e+00	1.00000e+00	1.00000e+00	1.00000e+00	1.00000e+00	1.00000e+00	1.00000e+00	1.00000e+00	1.00000e+00	1.00000e+00	1.00000e+00	1.00000e+00	1.00000e+00	1.00000e+00	1.00000e+00	1.00000e+00	1.00000e+00	1.00000e+00	1.00000e+00	1.00000e+00	1.00000e+00	X	X	X	X	X	X	X	X	X	X	X	X	X	X	X	X	

B = Detector Channel
Val Type	B-AC1	B-AC2	B-AC3	B-AC4	B-AC5	B-AC6	B-AC7	B-AC8	B-AC9	B-AC10	B-AC11	B-AC12	B-AC13	B-AC14	B-AC15	B-AC16	B-DC1	B-DC2	B-DC3	B-DC4	B-DC5	B-DC6	B-DC7	B-DC8	B-DC9	B-DC10	B-DC11	B-DC12	B-DC13	B-DC14	B-DC15	B-DC16	B-Ph1	B-Ph2	B-Ph3	B-Ph4	B-Ph5	B-Ph6	B-Ph7	B-Ph8	B-Ph9	B-Ph10	B-Ph11	B-Ph12	B-Ph13	B-Ph14	B-Ph15	B-Ph16	

Term	0.00000e+00	0.00000e+00	0.00000e+00	0.00000e+00	0.00000e+00	0.00000e+00	0.00000e+00	0.00000e+00	0.00000e+00	0.00000e+00	0.00000e+00	0.00000e+00	0.00000e+00	0.00000e+00	0.00000e+00	0.00000e+00	0.00000e+00	0.00000e+00	0.00000e+00	0.00000e+00	0.00000e+00	0.00000e+00	0.00000e+00	0.00000e+00	0.00000e+00	0.00000e+00	0.00000e+00	0.00000e+00	0.00000e+00	0.00000e+00	0.00000e+00	0.00000e+00	-1.55424e+02	-1.27235e+02	-1.24166e+02	-1.80391e+02	-7.40752e+01	-6.35377e+01	-1.56642e+02	-1.62015e+02	-7.80018e+01	-6.24457e+01	-1.75242e+02	-1.71364e+02	-1.79620e+02	-1.76316e+02	-7.26602e+01	-1.49562e+02	
Factor	2.32168e-05	1.44619e-04	3.90176e-05	1.53962e-01	1.28637e-06	1.68364e-06	1.74380e-01	5.13261e-02	1.26631e-06	1.62331e-06	9.43026e-02	3.18907e-02	2.43581e-02	9.34159e-03	1.41395e-06	1.29416e-02	1.42752e-05	2.56240e-05	7.09592e-06	7.92124e-02	2.49870e-07	2.88134e-07	8.45014e-02	2.65240e-02	2.52790e-07	2.91573e-07	4.71960e-02	1.60623e-02	1.27823e-02	4.86681e-03	2.69113e-07	6.54773e-03	X	X	X	X	X	X	X	X	X	X	X	X	X	X	X	X	



#DISTANCE SETTINGS
A = Detector Channel
A-1	A-2	A-3	A-4	A-5	A-6	A-7	A-8	A-9	A-10	A-11	A-12	A-13	A-14	A-15	A-16	

2.5000e+00	3.0000e+00	2.5000e+00	3.0000e+00	2.0000e+00	3.0000e+00	1.5000e+00	3.0000e+00	3.0000e+00	3.0000e+00	3.0000e+00	3.0000e+00	3.0000e+00	3.0000e+00	1.5000e+00	3.0000e+00	

B = Detector Channel
B-1	B-2	B-3	B-4	B-5	B-6	B-7	B-8	B-9	B-10	B-11	B-12	B-13	B-14	B-15	B-16	

1.0000e+01	1.0000e+01	1.0000e+01	1.4400e+00	1.0000e+01	1.0000e+01	1.5100e+00	1.9400e+00	1.0000e+01	1.0000e+01	1.9900e+00	2.4900e+00	2.4100e+00	2.9000e+00	1.0000e+01	2.9800e+00	




#DATA BEGINS
time	group	step	mark	flag	A-AC1	A-AC2	A-AC3	A-AC4	A-AC5	A-AC6	A-AC7	A-AC8	A-AC9	A-AC10	A-AC11	A-AC12	A-AC13	A-AC14	A-AC15	A-AC16	A-DC1	A-DC2	A-DC3	A-DC4	A-DC5	A-DC6	A-DC7	A-DC8	A-DC9	A-DC10	A-DC11	A-DC12	A-DC13	A-DC14	A-DC15	A-DC16	A-Ph1	A-Ph2	A-Ph3	A-Ph4	A-Ph5	A-Ph6	A-Ph7	A-Ph8	A-Ph9	A-Ph10	A-Ph11	A-Ph12	A-Ph13	A-Ph14	A-Ph15	A-Ph16	B-AC1	B-AC2	B-AC3	B-AC4	B-AC5	B-AC6	B-AC7	B-AC8	B-AC9	B-AC10	B-AC11	B-AC12	B-AC13	B-AC14	B-AC15	B-AC16	B-DC1	B-DC2	B-DC3	B-DC4	B-DC5	B-DC6	B-DC7	B-DC8	B-DC9	B-DC10	B-DC11	B-DC12	B-DC13	B-DC14	B-DC15	B-DC16	B-Ph1	B-Ph2	B-Ph3	B-Ph4	B-Ph5	B-Ph6	B-Ph7	B-Ph8	B-Ph9	B-Ph10	B-Ph11	B-Ph12	B-Ph13	B-Ph14	B-Ph15	B-Ph16	aux-1	digaux	

2682.675	1	1	0	768	0.23153	0.204	0.19899	0.090956	0.36666	0.31702	0.25758	0.20054	0.10246	0.21032	0.17638	0.17953	0.28428	0.36746	0.010619	0.18954	-2.1521	-2.9688	-2.0875	-2.9417	-2.5438	-2.2292	-3.0062	-2.3812	-2.4125	-3.1042	-2.2271	-2.7979	-2.9625	-2.3354	-2.8479	-2.5687	144.352	146.546	-67.682	-83.159	-92.564	-124.930	193.428	150.713	184.729	222.778	52.340	210.304	152.501	-51.038	-0.073	147.180	0.00076057	0.00062203	0.00011629	687.24	4.3735e-06	5.1852e-06	716.29	262.17	4.86e-06	2.9078e-06	317.42	141.67	113.87	65.326	3.8367e-06	86.467	0.0018616	0.0025648	0.00071384	748.86	2.562e-05	2.8687e-05	782.43	287.87	2.554e-05	2.9165e-05	348.85	157.45	126.25	72.381	2.7086e-05	95.804	171.894	-56.779	-29.154	-120.363	30.050	24.651	-121.108	-114.416	-11.430	26.152	-115.857	-111.234	-109.471	-104.038	6.572	-107.022	-8191	255	
2682.772	1	1	0	0	0.26847	0.088183	0.15376	0.20124	0.061576	0.088645	0.0089865	0.05866	0.20996	0.28787	0.22126	0.37217	0.092867	0.15964	0.054124	0.086098	-1.9729	-3.0458	-2.2021	-2.7771	-2.8125	-2.2042	-2.9958	-2.4104	-2.3625	-3.0833	-2.4646	-2.7687	-2.9521	-2.4333	-2.8042	-2.6604	85.276	92.801	33.991	210.206	22.934	175.138	75.030	-1.295	117.279	-5.263	162.780	-119.445	-102.125	-127.520	56.997	182.251	0.00074841	0.00062891	0.00014493	691.22	3.5563e-06	4.5032e-06	717.9	264.75	3.9133e-06	4.6343e-06	319.86	141.87	113.14	63.933	6.7721e-06	84.392	0.0017801	0.0024565	0.00067224	751.02	2.3231e-05	2.6064e-05	785.63	290.35	2.2149e-05	2.4866e-05	351.19	157.23	125.73	70.814	2.2513e-05	93.497	171.721	-50.133	-52.403	-120.144	-21.215	-0.180	-121.173	-114.710	-15.706	24.747	-116.136	-111.512	-109.841	-104.178	-25.227	-106.946	-8191	255	
2682.868	1	1	0	0	0.38653	0.045941	0.21076	0.12453	0.089566	0.042415	0.16468	0.21972	0.16029	0.094658	0.21898	0.41943	0.21234	0.13888	0.10072	0.24837	-1.9417	-3.15	-2.0646	-2.7542	-2.9938	-2.2979	-2.9729	-2.7938	-2.1229	-3.0604	-2.4437	-2.5438	-3.0938	-2.3771	-2.9437	-3.0062	130.015	76.992	16.065	155.348	-78.693	169.320	108.485	-106.259	6.653	68.964	-80.925	-123.791	198.568	164.864	-96.371	209.234	0.00077787	0.00057342	0.00011788	699.38	2.8203e-06	7.5552e-06	727.99	266.09	3.3344e-06	5.6489e-06	322.42	142.51	114.88	64.078	5.419e-06	85.14	0.0015543	0.002064	0.00056923	758.2	2.0548e-05	2.2692e-05	795.2	291.85	2.0273e-05	2.3065e-05	353.35	157.56	126.88	70.958	2.2228e-05	94.295	173.922	-49.577	-70.307	-120.585	23.043	16.169	-121.351	-114.672	-14.151	15.459	-116.302	-111.443	-109.760	-104.206	37.344	-106.921	-8191	255	
2682.964	1	1	0	0	0.16721	0.17815	0.25511	0.12479	0.29737	0.11874	0.11863	0.082968	0.09685	0.28046	0.047059	0.023292	0.15632	0.27632	0.12969	0.27832	-1.7479	-2.9688	-2.4229	-2.7562	-3.0604	-2.1417	-2.8854	-2.8875	-2.3083	-3.0646	-2.5167	-2.5125	-3.0833	-2.4938	-2.6312	-3.1312	169.881	-103.759	191.221	210.042	-24.488	40.034	90.991	208.964	153.033	-117.598	-37.274	-110.020	75.245	-125.061	1.097	175.113	0.00074421	0.00068349	0.00016437	703.73	4.9582e-06	5.9391e-06	732.81	270.87	3.0882e-06	4.6478e-06	324.45	144.1	117.03	65.33	3.3276e-06	86.043	0.0015294	0.0020447	0.00057189	763.49	1.9938e-05	2.2494e-05	798.83	296.6	2.0406e-05	2.2902e-05	356.63	159.44	129.26	72.416	2.1999e-05	95.241	172.196	-38.141	-33.497	-120.402	8.275	32.348	-121.034	-114.751	-19.625	28.596	-116.249	-111.588	-109.738	-104.437	25.703	-106.863	-8191	255	
2683.058	1	1	0	0	0.056653	0.1477	0.2312	0.44365	0.067668	0.21115	0.085219	0.023235	0.064881	0.08442	0.19501	0.34774	0.13548	0.32454	0.24645	0.20553	-1.75	-3.0354	-2.4062	-2.2771	-2.9396	-2.0479	-2.8292	-3.0354	-2.0917	-2.7083	-2.5438	-2.2625	-3.1271	-2.4813	-2.4958	-2.9729	10.716	-29.447	-50.512	142.548	69.536	21.497	29.836	99.797	-131.555	-105.223	178.638	189.315	211.544	210.968	-124.033	190.050	0.00078627	0.00050219	0.00015727	704.52	3.5985e-06	5.4812e-06	725.82	269.49	3.5622e-06	6.3015e-06	321.25	143.17	116.02	65.293	5.9115e-06	85.836	0.0015479	0.0020681	0.00057923	764.43	2.0875e-05	2.3565e-05	791.41	294.81	2.1191e-05	2.4388e-05	352.66	158.18	128.49	72.396	2.3473e-05	95.067	171.781	-34.120	-29.195	-120.323	12.488	9.065	-121.107	-114.767	-35.055	14.347	-116.212	-111.418	-109.714	-104.208	1.226	-106.983	-8191	255	
2683.156	1	1	0	0	0.23746	0.13836	0.30792	0.1022	0.081738	0.021316	0.24885	0.36944	0.069995	0.15021	0.12165	0.093137	0.40103	0.38732	0.21068	0.20042	-1.7021	-2.8563	-2.5771	-2.1708	-2.9354	-2.1854	-2.625	-2.9437	-2.1292	-2.8937	-2.8958	-2.3542	-3.1854	-2.5333	-2.3625	-3.0875	-36.212	171.992	1.955	180.650	226.091	-102.963	-77.355	157.275	197.285	177.966	77.270	-98.135	205.338	-124.718	-93.518	181.029	0.00076385	0.00046792	0.00012893	697.98	4.6555e-06	4.8768e-06	714.47	264.2	3.3676e-06	5.9553e-06	318.11	142.41	115.14	66.485	3.8874e-06	87.294	0.0016243	0.0022284	0.00062372	757.74	2.2447e-05	2.5886e-05	782.74	290.29	2.3462e-05	2.6316e-05	348.7	157.88	127.68	73.483	2.5187e-05	96.755	170.577	-54.448	-46.786	-120.182	1.027	33.080	-120.976	-114.677	-32.647	-1.818	-116.066	-111.583	-109.447	-104.323	15.139	-106.964	-8191	255	
2683.275	1	1	0	0	0.1717	0.17458	0.18224	0.129	0.32375	0.19056	0.086554	0.23209	0.051574	0.11243	0.13001	0.11491	0.15392	0.22835	0.10765	0.022749	-1.7021	-2.6917	-2.7396	-1.9979	-2.8333	-2.2917	-2.4208	-3.1333	-2.1375	-2.5354	-2.9417	-2.1188	-2.9313	-2.6542	-2.2375	-3.2458	-118.098	46.582	-4.665	-77.900	74.998	-61.329	142.760	-118.033	200.399	-93.745	164.427	-63.788	202.541	183.381	200.673	46.284	0.00077531	0.00068589	0.00016941	688.88	5.187e-06	4.7604e-06	714.8	263.08	4.2752e-06	6.3397e-06	317.81	142.4	114.99	65.87	2.2587e-06	86.779	0.0017255	0.002352	0.00065735	749.77	2.3595e-05	2.6625e-05	779.86	289.01	2.4319e-05	2.713e-05	348.83	157.79	127.39	73.013	2.5574e-05	96.096	172.939	-45.750	-62.260	-120.444	-6.941	-1.788	-121.175	-114.376	-38.780	-7.004	-115.896	-111.165	-109.477	-104.238	-26.753	-107.008	-8191	255	
2683.371	1	1	0	0	0.059461	0.20859	0.19239	0.14784	0.13557	0.15558	0.33547	0.28094	0.025043	0.092632	0.15248	0.22015	0.11586	0.14385	0.15922	0.4051	-1.9396	-2.5396	-3.0083	-2.2083	-2.8563	-2.6833	-2.6125	-3.2083	-2.1667	-2.5271	-2.9417	-2.3	-3.0312	-2.8333	-2.1188	-3.2167	85.465	-66.606	5.231	-101.500	-90.409	215.729	167.648	148.918	143.824	217.281	-0.530	178.303	67.936	208.351	-104.829	163.702	0.00076652	0.00058559	0.00014912	690.66	2.5292e-06	7.7649e-06	713.64	263.16	5.0845e-06	5.3836e-06	314.6	140.09	113.25	64.518	4.7881e-06	84.597	0.0017301	0.0023962	0.00066894	751.87	2.3953e-05	2.7053e-05	781.84	288.26	2.3976e-05	2.7184e-05	346.07	155.08	125.42	71.363	2.4852e-05	93.716	174.448	-45.601	-29.403	-120.329	10.713	6.001	-121.077	-114.687	-28.530	26.751	-116.161	-111.335	-109.518	-104.493	-3.564	-106.894	-8191	255	
2683.467	1	1	0	0	0.23849	0.16671	0.11193	0.26759	0.23127	0.184	0.28937	0.15761	0.32281	0.34938	0.22929	0.31099	0.042914	0.25368	0.23474	0.31278	-2.0042	-2.5208	-2.6833	-2.3688	-2.8708	-2.6458	-2.2271	-3.1042	-2.4708	-2.2625	-3.1833	-2.2375	-2.9521	-3.0438	-1.9896	-3.0042	65.909	202.595	-2.788	107.299	-79.232	110.408	179.622	196.129	129.568	29.897	160.015	-111.569	97.204	132.993	91.671	193.754	0.00075895	0.00058535	0.000129	693.32	2.6811e-06	6.3284e-06	717.1	263.23	3.7509e-06	4.7244e-06	315.03	140.35	112.91	63.797	3.9626e-06	84.009	0.0016684	0.0022499	0.00061596	753.01	2.1556e-05	2.397e-05	781.97	288.13	2.1346e-05	2.3073e-05	346.15	154.66	125.02	70.643	2.0865e-05	93.141	171.979	-31.326	-30.630	-120.459	25.071	4.971	-121.139	-114.569	-12.973	18.436	-116.043	-111.395	-109.619	-104.269	16.956	-107.042	-8191	255	
2683.564	1	1	0	0	0.29616	0.22003	0.14348	0.3255	0.095875	0.10577	0.13588	0.27193	0.02969	0.078449	0.090701	0.18742	0.20639	0.27761	0.069195	0.16528	-1.9208	-2.1104	-2.9854	-2.3312	-2.5917	-2.8271	-2.3583	-2.9583	-2.5979	-2.3792	-3.0146	-2.4667	-2.6521	-2.925	-2.1042	-3.0729	-95.570	138.529	54.444	166.603	64.615	4.077	158.418	191.161	187.899	109.076	112.174	220.761	-32.698	171.845	-72.590	133.498	0.00076315	0.00044196	0.0001674	696.52	3.2544e-06	6.7611e-06	723.78	264.67	3.6236e-06	5.6119e-06	318.73	140.98	113.97	64.162	2.6316e-06	85.166	0.0014636	0.0019287	0.00052702	756.12	1.8562e-05	2.0662e-05	788.08	289.79	1.8493e-05	2.0837e-05	348.99	155.69	125.72	70.869	1.9236e-05	94.01	172.476	-50.679	-29.072	-120.521	-46.968	37.352	-121.317	-114.656	-37.280	26.083	-116.214	-111.556	-109.603	-104.414	-35.866	-106.931	-8191	255	
2683.660	1	1	0	0	0.21635	0.19008	0.14528	0.034094	0.30936	0.15196	0.1147	0.2503	0.16998	0.18071	0.30973	0.37011	0.17287	0.11854	0.17496	0.19137	-2.3833	-2.2646	-2.9417	-2.4	-2.5687	-3.0021	-2.3792	-3.0438	-2.7938	-2.2812	-3.1167	-2.4292	-2.5604	-3.2583	-2.3583	-2.9688	125.738	-8.889	164.249	133.866	1.096	208.178	65.785	63.187	-31.358	114.845	172.082	147.485	219.851	-119.198	-94.255	167.285	0.00075187	0.00049497	0.00016418	701.56	3.644e-06	4.5277e-06	729.3	268.07	4.5319e-06	4.7888e-06	323.31	143.38	115.95	65.144	4.3697e-06	86.302	0.0013622	0.0017297	0.00047637	761.84	1.6437e-05	1.8337e-05	794.67	293.56	1.5992e-05	1.7714e-05	354.03	158.15	128.14	72.035	1.6408e-05	95.282	170.908	-55.741	-51.955	-120.541	14.365	11.824	-121.352	-114.722	-19.400	11.769	-116.306	-111.633	-109.712	-104.448	-22.309	-107.141	-8191	255	
2683.756	1	1	0	0	0.37774	0.14948	0.043142	0.28109	0.10103	0.17831	0.076569	0.21129	0.25756	0.069741	0.27995	0.092617	0.40037	0.068773	0.097161	0.099594	-2.4354	-2.1458	-2.9708	-2.6562	-2.3792	-3.0292	-2.1813	-2.8875	-2.7979	-2.0687	-3.0833	-2.7021	-2.5292	-3.1354	-2.3083	-2.9208	-6.042	169.314	-17.863	209.270	57.383	-63.281	192.540	196.436	-61.234	-126.845	203.193	190.965	208.070	-44.174	-59.998	-87.139	0.00078172	0.0006119	0.00015533	706.85	4.2265e-06	6.0829e-06	734.1	270.77	2.9739e-06	5.1689e-06	324.19	143.49	116.5	65.027	5.2982e-06	85.618	0.0012374	0.0015188	0.00041606	766.05	1.4465e-05	1.626e-05	795.81	295.56	1.5027e-05	1.6389e-05	354.18	158	128.47	71.922	1.6103e-05	94.571	173.820	-23.828	-22.268	-120.597	-5.039	7.172	-121.281	-114.823	-26.612	40.025	-116.250	-111.708	-109.769	-104.467	-15.691	-107.063	-8191	255	
2683.852	1	1	0	0	0.098943	0.1982	0.15643	0.18166	0.13641	0.24481	0.019535	0.13915	0.16762	0.068095	0.12938	0.23063	0.095084	0.15302	0.23165	0.18913	-2.6292	-2.125	-2.8812	-2.6854	-2.3479	-3.1604	-2.4729	-2.6042	-2.9354	-2.1604	-3.0292	-2.9167	-2.1937	-3.2708	-2.5729	-2.6708	144.292	-74.797	-54.117	19.286	30.731	162.959	-64.819	174.523	143.521	93.974	189.045	17.615	-0.039	-8.988	188.850	-5.674	0.00073112	0.00043071	0.00014305	711.55	3.5886e-06	4.3015e-06	735.49	270.95	5.1189e-06	5.1456e-06	325.38	143.36	117.2	64.988	3.1271e-06	85.426	0.0012163	0.0015051	0.00040691	769.09	1.4574e-05	1.6529e-05	798.03	296.3	1.4847e-05	1.6635e-05	355.7	158.31	128.86	71.856	1.6307e-05	94.522	169.718	-50.694	-49.739	-120.598	-17.665	16.129	-121.106	-114.924	-19.951	30.314	-116.286	-111.688	-109.898	-104.400	18.160	-107.038	-8191	255	
2683.971	1	1	0	0	0.036403	0.14714	0.19435	0.35759	0.17404	0.075752	0.49185	0.35959	0.15771	0.14357	0.10963	0.11796	0.17805	0.2298	0.19662	0.19703	-2.6937	-2.1604	-2.8646	-2.7167	-2.1083	-3.0625	-2.3729	-2.4875	-3.0167	-2.0542	-2.9688	-2.8354	-2.2542	-3.2396	-2.4542	-2.55	224.763	168.604	-44.674	185.716	-62.592	128.100	70.589	202.184	77.186	-61.213	177.823	119.152	-119.612	91.717	-11.950	156.928	0.00074906	0.00041861	0.00015014	712.32	5.1228e-06	7.1898e-06	735.64	272.56	3.5619e-06	4.1887e-06	324.29	144.05	116.87	64.974	3.5827e-06	85.548	0.0012265	0.0015044	0.000425	771.4	1.4802e-05	1.6603e-05	801.99	297.66	1.5281e-05	1.7083e-05	356.18	158.9	129.17	71.839	1.6502e-05	94.671	172.082	-58.649	-28.620	-120.857	-21.413	5.298	-121.547	-114.766	-22.144	31.922	-116.270	-111.790	-109.874	-104.456	21.666	-107.039	-8191	255	
2684.067	1	1	0	0	0.10539	0.19177	0.064004	0.12145	0.24121	0.21432	0.15717	0.19916	0.12175	0.3505	0.25396	0.11574	0.33329	0.27914	0.13394	0.093007	-2.6625	-2.1208	-2.8021	-2.8875	-2.075	-3.0771	-2.6917	-2.5167	-3.1417	-2.2188	-2.6521	-3.0771	-2.2583	-2.9875	-2.5271	-2.4437	-75.488	108.959	182.153	181.608	70.159	-17.249	207.667	-112.612	-103.913	-64.413	88.761	117.079	-132.534	212.709	188.805	197.483	0.00076742	0.00055925	0.00010049	715.58	4.476e-06	5.9072e-06	737.58	272.98	3.2307e-06	5.6873e-06	325.93	142.83	116.2	64.166	2.9919e-06	84.184	0.0012407	0.0015491	0.00042617	775.23	1.5291e-05	1.7347e-05	803.16	297.89	1.5756e-05	1.7315e-05	355.9	157.63	128.25	70.929	1.677e-05	93.139	173.673	-54.741	-31.715	-120.552	2.458	10.967	-121.472	-114.777	-35.618	15.342	-116.326	-111.912	-109.906	-104.299	-10.229	-106.875	-8191	255	
2684.163	1	1	0	0	0.11	0.32523	0.045884	0.35279	0.060763	0.081778	0.27704	0.061946	0.28524	0.21449	0.12906	0.1828	0.058449	0.22789	0.21885	0.15063	-2.725	-2.3312	-2.6896	-3.2396	-2.15	-2.9229	-2.9583	-2.4021	-3.0021	-2.4313	-2.5208	-2.9979	-2.5146	-2.9896	-2.8417	-2.3896	111.077	102.565	-118.665	189.531	132.870	116.135	198.733	-124.555	221.952	139.291	-46.142	71.072	-74.877	73.951	206.585	166.789	0.00076778	0.00038189	0.00010891	715.52	3.3595e-06	3.9583e-06	737.01	271.97	4.4881e-06	3.5701e-06	325.84	142.74	116.38	63.989	3.6859e-06	84.342	0.0012643	0.0015556	0.00043066	774.5	1.5303e-05	1.7176e-05	801.56	297.96	1.579e-05	1.762e-05	355.46	157.26	128.43	70.823	1.7056e-05	93.078	171.144	-52.703	-38.707	-120.795	-5.308	41.264	-121.571	-115.122	-5.556	17.603	-116.211	-111.927	-110.021	-104.531	-21.830	-107.123	-8191	255	
2684.259	1	1	0	0	0.18757	0.099444	0.04237	0.1486	0.11963	0.12826	0.30775	0.24847	0.16349	0.18632	0.16807	0.12337	0.093245	0.40167	0.20632	0.20139	-2.6979	-2.4583	-2.3333	-3.0104	-2.2812	-2.8104	-3.0021	-2.2062	-3.1396	-2.2917	-2.3542	-3.2125	-2.3479	-2.7833	-2.9479	-2.5271	-81.402	189.753	213.689	136.647	-41.518	217.548	176.146	152.878	24.778	37.176	-123.093	213.361	-114.728	202.172	-115.910	79.162	0.00074358	0.00058406	0.00019361	718.9	2.8628e-06	4.4435e-06	738.18	272.36	1.7709e-06	5.3571e-06	324.61	142.44	116.5	64.032	3.634e-06	84.102	0.0012602	0.0015855	0.00042899	777.69	1.5706e-05	1.7212e-05	803.73	297.6	1.5798e-05	1.7785e-05	355.58	157.3	128.45	70.823	1.6965e-05	93.119	172.301	-25.628	-35.198	-120.630	-22.688	25.630	-121.436	-115.031	-22.227	38.432	-116.549	-111.802	-110.127	-104.355	4.524	-106.975	-8191	255	
2684.355	1	1	0	0	0.13123	0.28075	0.10867	0.21549	0.091006	0.31594	0.18245	0.2446	0.084094	0.2273	0.11418	0.16819	0.077591	0.12964	0.16237	0.32594	-2.6042	-2.5542	-2.1771	-3.2062	-2.1479	-2.6354	-3.0563	-2.1458	-3.0917	-2.7562	-2.3458	-3.1854	-2.2375	-2.6875	-2.8563	-2.35	8.732	33.984	151.989	-128.236	0.877	-114.267	205.608	187.275	-96.153	10.336	-70.992	219.320	32.069	-47.151	73.147	-48.638	0.00075852	0.00048294	0.00010982	721.79	3.3281e-06	4.3768e-06	742.28	272.43	5.3032e-06	5.509e-06	326.23	142.69	115.98	63.888	4.1656e-06	83.634	0.0012565	0.001558	0.00042852	780.14	1.5239e-05	1.6925e-05	806.92	297.97	1.5688e-05	1.7513e-05	356.5	157.26	128.04	70.544	1.677e-05	92.423	169.894	-32.338	-51.584	-120.569	-12.161	25.416	-121.393	-114.908	-13.003	13.659	-116.344	-111.556	-109.913	-104.328	15.072	-106.910	-8191	255	
2684.452	1	1	0	0	0.31661	0.094415	0.15177	0.37628	0.23538	0.093851	0.19728	0.30027	0.2155	0.25295	0.07906	0.19707	0.18661	0.1233	0.11928	0.18211	-2.4458	-2.6396	-2.1604	-3.0875	-2.3812	-2.3521	-3.1063	-2.1688	-2.7875	-2.7979	-2.2438	-3.2938	-2.5167	-2.5271	-3.1271	-2.2875	-10.918	-108.163	12.395	215.410	-129.744	-40.862	180.591	170.368	-72.833	150.063	67.778	218.157	-112.275	214.365	19.659	195.777	0.00075078	0.0003607	8.5179e-05	721.41	4.4996e-06	6.2724e-06	739.08	272	3.7647e-06	4.5617e-06	322.77	140.44	115.44	63.076	5.6674e-06	82.558	0.0012542	0.0015685	0.00042583	780.47	1.5469e-05	1.7202e-05	804.39	296.94	1.6001e-05	1.7623e-05	353.34	155.21	127.16	69.679	1.6859e-05	91.203	171.796	-32.018	-47.597	-120.594	1.455	4.072	-121.392	-115.043	-14.283	30.231	-116.384	-111.644	-109.880	-104.198	-10.581	-107.039	-8191	255	
2684.548	1	1	0	0	0.0778	0.10846	0.27248	0.30497	0.15692	0.069256	0.044074	0.1982	0.16427	0.18128	0.2274	0.36426	0.22777	0.025949	0.09433	0.38546	-2.4167	-2.6937	-2.1083	-2.9562	-2.5229	-2.2042	-3.075	-2.3229	-2.6854	-2.8	-2.1896	-3.0271	-2.7333	-2.4771	-3.0396	-2.3479	-14.660	-67.876	-108.454	-105.199	173.478	-35.193	-87.653	-132.584	195.947	75.854	150.868	205.638	222.020	10.257	19.841	188.173	0.00070809	0.00057117	0.00020626	720.14	4.2289e-06	5.041e-06	738.63	270.28	3.4619e-06	3.8861e-06	322.03	139.73	113.77	62.031	2.4648e-06	81.645	0.0012581	0.0015566	0.00043647	780.91	1.5539e-05	1.7188e-05	806.18	295.39	1.5865e-05	1.7564e-05	352.64	154.06	125.63	68.572	1.6744e-05	90.245	171.654	-45.807	-42.893	-120.476	5.522	23.834	-121.387	-115.042	-20.085	0.544	-116.495	-111.521	-109.937	-104.012	-54.241	-106.849	-8191	255	
2684.644	1	1	0	0	0.41167	0.12504	0.20379	0.12436	0.28355	0.013023	0.16413	0.10392	0.19688	0.19484	0.2544	0.1653	0.30326	0.27445	0.087886	0.013193	-2.1562	-3.0021	-1.9896	-3.0854	-2.5563	-2.3479	-3.175	-2.3854	-2.4875	-2.9125	-2.1417	-2.8354	-2.7646	-2.1646	-2.9938	-2.4333	-42.343	49.135	-45.623	193.490	51.070	-85.158	-100.488	88.419	-75.259	30.033	130.596	-29.959	176.922	209.480	38.310	215.694	0.0006924	0.00043544	0.00014302	722.73	4.0841e-06	4.4476e-06	741.92	270.26	3.1943e-06	4.404e-06	322.98	139.55	113.8	61.565	2.528e-06	81.204	0.0012213	0.0015267	0.000422	783.14	1.5076e-05	1.7146e-05	808.86	295.23	1.5339e-05	1.7008e-05	353.12	153.92	125.14	68.085	1.617e-05	89.743	174.158	-50.425	-32.704	-120.557	1.121	7.796	-121.133	-114.803	-25.380	40.037	-116.282	-111.391	-109.766	-104.188	-2.159	-106.744	-8191	255	
2684.763	1	1	0	0	0.045828	0.076376	0.19124	0.32598	0.10806	0.058261	0.052348	0.085653	0.031508	0.06365	0.08923	0.30557	0.072806	0.09766	0.079765	0.16918	-1.9292	-2.9688	-1.9604	-2.7167	-2.9042	-2.0438	-3.0542	-2.4333	-2.3063	-3.1125	-2.4688	-2.8812	-2.7438	-2.4146	-2.9792	-2.6167	-62.078	122.270	-128.729	-63.169	-130.198	-110.867	-22.849	123.848	-131.737	-110.258	225.185	194.569	-62.467	-106.669	85.013	173.502	0.00071755	0.00052122	0.00016791	727.28	3.7564e-06	4.1951e-06	744.8	270.32	3.7841e-06	4.3928e-06	322.17	138.53	112.99	60.741	5.1884e-06	79.927	0.0012105	0.0014852	0.00041785	786.47	1.4608e-05	1.6481e-05	810.4	294.9	1.5485e-05	1.692e-05	351.7	152.5	124.29	67.097	1.6385e-05	88.268	171.471	-35.569	-40.455	-120.499	15.286	31.866	-120.992	-114.700	-1.237	25.677	-116.149	-111.357	-109.558	-103.743	9.910	-106.531	-8191	255	
2684.836	1	1	0	0	0.17354	0.11032	0.048999	0.381	0.11985	0.17977	0.11094	0.11253	0.059813	0.19586	0.22357	0.30821	0.26599	0.42683	0.043919	0.051989	-1.7979	-3.0542	-2.3333	-2.7229	-2.7687	-2.4667	-3.1333	-2.8458	-2.2125	-3.0708	-2.5042	-2.5208	-3.0167	-2.2604	-3.0563	-2.7208	-124.221	-54.669	-83.455	207.479	-89.222	167.348	154.370	121.428	22.996	-26.247	-97.344	186.128	217.250	170.048	7.306	174.982	0.00068359	0.00028169	0.00010143	726.55	3.2486e-06	5.5496e-06	745.66	268.68	4.916e-06	4.5926e-06	318.89	136.82	111.31	59.589	3.8128e-06	78.34	0.0012064	0.0015065	0.00041693	784.34	1.4913e-05	1.6529e-05	808.72	292.88	1.5364e-05	1.688e-05	348.85	150.56	122.55	65.72	1.6134e-05	86.55	172.184	-32.337	-27.472	-120.219	-9.205	9.964	-120.757	-114.468	-39.911	25.589	-115.412	-110.489	-109.183	-103.329	1.646	-105.925	-8191	255	
2684.957	1	1	0	0	0.20776	0.24391	0.1127	0.076308	0.16763	0.082793	0.1945	0.22579	0.079423	0.17137	0.20297	0.21643	0.18478	0.28978	0.093056	0.22669	-1.8646	-2.9813	-2.4708	-2.5375	-3.0396	-2.0729	-2.8917	-2.8167	-2.125	-3.1625	-2.4583	-2.6479	-3.1708	-2.5	-2.7146	-3.0563	-39.624	3.533	-43.805	-9.982	-2.151	215.405	157.935	207.315	191.417	-109.475	-121.098	-124.652	-64.823	-120.743	220.375	187.204	0.00069446	0.00056056	8.4692e-05	724.77	3.6278e-06	4.7053e-06	744.25	267.18	3.7309e-06	6.2742e-06	319.73	135.7	110.04	58.539	4.3753e-06	77.494	0.0012014	0.0014826	0.00041626	784.62	1.4772e-05	1.6723e-05	809.25	291.56	1.5044e-05	1.6715e-05	348.35	149.54	121.4	64.631	1.5956e-05	85.625	171.922	-49.484	-33.297	-119.310	4.473	37.525	-120.483	-114.215	-24.227	29.753	-115.497	-110.534	-108.587	-103.123	-14.452	-105.564	-8191	255	
2685.051	1	1	0	0	0.19688	0.063531	0.15147	0.31245	0.12559	0.16834	0.30225	0.17951	0.10647	0.11216	0.034062	0.26097	0.27156	0.21735	0.12084	0.30054	-1.875	-2.9	-2.3354	-2.7021	-3.0167	-2.125	-2.95	-3.0729	-2.1854	-3.0646	-2.6875	-2.3312	-3.2208	-2.3688	-2.7104	-3.0438	-78.964	86.944	78.953	221.493	57.563	31.463	-47.358	209.601	167.599	-20.191	161.672	-80.875	-82.285	96.765	-48.685	171.912	0.00065695	0.00052257	0.00012544	727.92	6.5041e-06	5.7213e-06	749.7	267.05	2.6007e-06	7.0094e-06	318.29	134.16	108.87	57.442	5.6225e-06	76.476	0.0011969	0.0014793	0.00041258	787.2	1.4658e-05	1.6572e-05	814.9	290.88	1.5124e-05	1.6512e-05	347.7	148.52	120.4	63.732	1.5854e-05	84.338	175.501	-54.131	-29.320	-119.139	12.797	40.067	-119.800	-113.677	-25.448	21.077	-114.981	-110.028	-108.295	-102.475	18.485	-105.327	-8191	255	
2685.147	1	1	0	0	0.082239	0.201	0.16832	0.14625	0.23731	0.1078	0.22091	0.2939	0.21139	0.006732	0.15546	0.12064	0.087988	0.16442	0.3233	0.26329	-1.7229	-2.7313	-2.5646	-2.5062	-2.7687	-2.3625	-2.6188	-2.9938	-2.1875	-3.0521	-2.8104	-2.3792	-3.1292	-2.4646	-2.3563	-3.0083	-119.682	-81.728	157.003	132.595	201.935	31.396	178.410	122.128	20.546	-44.297	68.677	-8.155	-123.801	189.090	-116.187	213.880	0.00066626	0.00058414	0.00011029	726.17	2.4476e-06	7.5913e-06	745.94	265.74	3.2752e-06	4.7665e-06	314.97	132.01	107.19	56.047	2.3383e-06	74.269	0.0011846	0.001472	0.00041443	789.54	1.4805e-05	1.6581e-05	813.86	289.7	1.5313e-05	1.6572e-05	344.53	146.22	119.01	62.386	1.5911e-05	82.421	174.062	-34.682	-48.577	-118.832	24.472	23.936	-119.647	-114.283	11.607	19.891	-114.601	-109.958	-108.203	-102.486	7.232	-105.155	-8191	255	
2685.244	1	1	0	0	0.10271	0.14249	0.11068	0.25319	0.088867	0.11931	0.11963	0.048782	0.14558	0.048724	0.14388	0.17216	0.17214	0.12886	0.048563	0.16598	-1.8354	-2.8479	-2.675	-2.2958	-3.15	-2.5312	-2.5458	-3.1479	-2.2458	-2.8896	-2.9604	-2.4188	-3.3083	-2.8063	-2.4167	-3.3333	142.825	-108.776	33.004	-57.290	109.203	176.752	146.041	179.242	-97.486	184.808	-47.186	127.300	-119.886	226.104	4.634	136.054	0.00065439	0.00024442	0.00012863	724.51	4.4445e-06	7.1768e-06	747.55	263.47	3.4075e-06	5.0665e-06	312.22	130.76	106.35	55.521	4.7633e-06	73.68	0.0011584	0.0014634	0.00041082	788.98	1.4513e-05	1.6259e-05	813.55	287.78	1.4922e-05	1.658e-05	342.98	145.13	118.14	61.601	1.5997e-05	81.721	174.667	-62.637	-42.629	-119.034	7.275	35.441	-119.786	-113.879	-7.604	10.791	-114.630	-109.749	-107.897	-102.539	3.424	-105.218	-8191	255	
2685.364	1	1	0	0	0.18663	0.12402	0.096175	0.20016	0.080958	0.144	0.089773	0.19832	0.13266	0.24476	0.17196	0.12737	0.18878	0.22999	0.10398	0.11568	-1.8792	-2.7062	-2.7854	-2.2687	-2.9958	-2.7042	-2.2875	-3.2687	-2.3083	-2.3917	-3.1167	-2.3667	-3.0312	-2.8458	-2.2438	-3.2917	221.992	-126.972	160.127	202.842	56.322	160.844	-46.511	141.422	34.584	-78.993	61.243	10.109	-37.088	168.852	179.931	154.421	0.00065399	0.00055342	0.00010929	726.82	4.5711e-06	7.0213e-06	747.05	261.03	3.5737e-06	5.0715e-06	311.4	130.26	105.07	54.761	3.7651e-06	73.179	0.0011655	0.0014411	0.00040475	789.59	1.4178e-05	1.61e-05	815.39	287.12	1.4761e-05	1.6044e-05	343.14	144.62	117.09	60.891	1.5487e-05	81.403	173.587	-52.839	-50.434	-119.038	-10.053	6.882	-119.499	-113.273	-32.158	37.882	-114.406	-109.516	-107.935	-102.122	-16.499	-104.779	-8191	255	
2685.460	1	1	0	0	0.31081	0.11458	0.21568	0.20295	0.10789	0.35931	0.04567	0.12189	0.04735	0.27481	0.14999	0.22028	0.20475	0.04021	0.21937	0.19759	-1.8917	-2.4042	-3.0458	-2.3042	-2.9146	-2.7708	-2.3479	-3.0729	-2.4771	-2.4875	-3.175	-2.3	-2.8479	-2.8896	-2.2438	-3.1854	79.258	-65.526	-19.034	-57.974	180.639	89.303	36.765	185.790	5.731	5.624	7.216	33.366	-110.780	6.120	93.421	-93.777	0.00065118	0.00044991	6.677e-05	728.69	3.5379e-06	6.4107e-06	750.79	263.28	3.6641e-06	4.3905e-06	315.29	133.12	108.48	57.182	3.5762e-06	75.691	0.0011449	0.0014127	0.00039857	792.24	1.4289e-05	1.5944e-05	818.89	289.32	1.4886e-05	1.6206e-05	345.8	147.18	120.29	63.312	1.5789e-05	84.022	171.772	-33.656	-61.841	-118.680	6.401	33.790	-119.523	-113.279	-22.048	-8.500	-114.634	-109.988	-108.204	-102.587	15.407	-104.972	-8191	255	
2685.532	1	1	0	0	0.13817	0.11861	0.10511	0.1749	0.094289	0.055026	0.21561	0.23158	0.12709	0.08231	0.29278	0.12402	0.41616	0.24734	0.2268	0.034267	-2.0792	-2.2458	-3.0917	-2.2229	-2.7875	-2.9021	-2.2542	-3.0542	-2.5187	-2.3187	-3.0062	-2.5167	-2.7708	-3.2271	-2.1958	-3.1896	-41.225	118.703	-6.650	191.859	-58.672	-33.557	-77.318	94.795	-0.254	224.793	160.555	-44.719	198.220	224.351	217.025	80.718	0.00066743	0.00047114	0.00012134	726.59	4.383e-06	5.4546e-06	744.01	265.16	3.051e-06	5.3605e-06	314.19	133.47	108.95	57.754	4.9483e-06	75.926	0.001168	0.0014778	0.00039897	789.88	1.4444e-05	1.6325e-05	811.56	289.11	1.5002e-05	1.6437e-05	343.77	147.08	120.32	63.884	1.6206e-05	84.167	172.542	-40.285	-24.045	-119.069	4.901	14.495	-119.551	-113.431	-21.977	10.626	-114.790	-110.139	-108.356	-102.927	-2.595	-105.205	-8191	255	
2685.653	1	1	0	0	0.095244	0.31157	0.23647	0.027902	0.089616	0.19291	0.22018	0.26453	0.1119	0.27553	0.078352	0.3898	0.32963	0.21299	0.20819	0.34718	-2.2021	-2.2542	-3.1104	-2.3625	-2.6063	-3.0396	-2.3563	-3.1854	-2.6354	-2.1042	-3.1333	-2.5333	-2.5375	-3.125	-2.2271	-2.9229	87.934	100.055	-28.287	207.516	215.495	-109.614	156.439	185.360	76.750	-54.726	139.860	-117.938	-120.767	208.145	-111.500	176.621	0.00068978	0.00045371	0.00014	726.84	4.8338e-06	5.0405e-06	743.3	262.63	4.2739e-06	5.5222e-06	312.93	133.04	109.02	58.351	3.771e-06	77.126	0.0011958	0.0014977	0.00041443	789.71	1.5086e-05	1.7188e-05	810.46	287.62	1.5876e-05	1.7405e-05	342.97	147.25	120.73	64.656	1.7137e-05	85.51	172.999	-32.773	-49.561	-119.120	5.207	11.784	-119.702	-113.202	-41.517	18.727	-114.580	-110.044	-107.967	-102.516	14.211	-105.215	-8191	255	
2685.749	1	1	0	0	0.067819	0.16306	0.33264	0.21508	0.17392	0.093238	0.18585	0.17998	0.20968	0.11286	0.098441	0.25902	0.24186	0.17282	0.20434	0.1474	-2.1729	-2.0604	-3.0896	-2.5604	-2.4854	-3.0563	-2.3375	-2.8979	-2.7708	-2.0979	-2.9771	-2.3917	-2.5354	-3.0896	-2.3937	-2.9833	130.184	15.295	177.986	178.455	83.574	-82.773	-76.841	126.095	14.690	56.716	182.697	204.624	-125.605	-19.358	104.479	220.882	0.00071136	0.0004207	0.00011779	722.98	2.3118e-06	4.479e-06	743.31	263.17	3.1969e-06	5.0916e-06	313.84	135.06	110.25	59.432	3.883e-06	78.484	0.0012494	0.0015991	0.00044333	785.15	1.6039e-05	1.824e-05	807.77	288.12	1.6402e-05	1.8339e-05	344.16	149.19	122.05	65.927	1.7786e-05	87.26	172.789	-46.797	-37.591	-118.901	-6.715	14.450	-119.684	-113.285	-19.174	17.690	-114.563	-110.007	-108.174	-102.360	-10.206	-104.870	-8191	255	
2685.845	1	1	0	0	0.20938	0.16099	0.1687	0.11596	0.26442	0.16005	0.1992	0.15839	0.062987	0.18421	0.2042	0.30165	0.23862	0.21979	0.21668	0.16242	-2.5312	-2.3	-2.9146	-2.5271	-2.2375	-2.9813	-2.3396	-2.7667	-2.9688	-2.2812	-3.0187	-2.6021	-2.3042	-3.2562	-2.4854	-2.7021	220.933	110.231	-3.174	-98.594	143.110	-14.663	151.600	42.097	224.197	142.676	174.521	170.240	219.799	-96.514	-82.575	115.923	0.00069367	0.00054654	0.00012415	720.48	3.2457e-06	6.5778e-06	734.34	263.76	4.7976e-06	7.4838e-06	312.59	135.04	111.08	60.034	3.63e-06	78.685	0.0013048	0.0016909	0.00046629	783.84	1.6914e-05	1.9292e-05	804.48	288.85	1.7776e-05	1.9828e-05	343.21	149.45	122.88	66.512	1.8754e-05	87.311	173.273	-49.570	-43.651	-118.699	33.481	25.739	-119.516	-113.099	-17.570	28.311	-114.478	-109.895	-108.129	-102.560	-14.452	-104.795	-8191	255	
2685.941	1	1	0	0	0.48298	0.17118	0.32573	0.18722	0.15962	0.041901	0.27284	0.40571	0.13503	0.11586	0.13687	0.43886	0.20393	0.15589	0.094907	0.31471	-2.5979	-2.1833	-2.9208	-2.8042	-2.2062	-3.0563	-2.4062	-2.5667	-3.0375	-2.3083	-2.9875	-2.9542	-2.2271	-3.3396	-2.4667	-2.5333	-19.059	48.837	217.389	224.013	-42.697	133.600	110.764	201.268	44.524	144.767	-28.556	168.527	214.041	198.240	211.053	132.685	0.00067004	0.0003876	9.678e-05	720.18	3.5198e-06	6.0451e-06	740.45	264.37	4.2328e-06	5.3428e-06	314.1	135.12	110.75	59.648	4.5717e-06	78.238	0.0013312	0.0017473	0.00047587	782.65	1.7119e-05	1.9037e-05	803.86	288.6	1.7289e-05	1.9645e-05	343.72	149.02	122.23	65.847	1.847e-05	86.45	171.311	-53.467	-43.672	-119.025	-7.884	14.753	-119.899	-113.311	-5.357	24.957	-115.158	-110.607	-109.087	-103.509	6.038	-106.249	-8191	255	
2686.060	1	1	0	0	0.17448	0.19779	0.17819	0.066444	0.13465	0.14508	0.1849	0.072646	0.36271	0.17492	0.54379	0.039165	0.35884	0.239	0.36521	0.11638	-2.6667	-2.0146	-2.6292	-2.9	-2.0083	-2.9208	-2.6833	-2.5563	-3.1312	-2.225	-2.8771	-2.95	-2.1937	-3.2083	-2.5896	-2.4854	-100.301	150.510	118.089	90.035	57.227	203.644	24.023	-63.473	-46.782	-34.498	212.104	171.981	106.191	167.739	103.390	139.322	0.00068669	0.00055249	8.6468e-05	722.49	5.099e-06	4.0086e-06	737.67	263.63	4.3479e-06	6.1154e-06	313.46	134.09	108.98	57.89	3.7094e-06	77.025	0.0012959	0.001702	0.00045906	782.72	1.6725e-05	1.8217e-05	804.58	288.04	1.627e-05	1.8548e-05	343.07	147.87	120.31	64.129	1.7262e-05	85.026	171.911	-21.721	-40.281	-120.160	3.516	32.902	-120.868	-114.429	-37.474	15.138	-115.787	-111.226	-109.459	-103.532	-25.579	-106.253	-8191	255	
2686.132	1	1	0	0	0.13551	0.18572	0.11994	0.21456	0.17067	0.30411	0.16355	0.39237	0.059867	0.091255	0.030724	0.2682	0.24368	0.25492	0.11179	0.19662	-2.7458	-2.2021	-2.5625	-3.0938	-2.2125	-2.8438	-2.6104	-2.4917	-3.0333	-2.2396	-2.4938	-3.0312	-2.2438	-2.9521	-2.7542	-2.3688	146.660	70.735	-46.733	107.375	-127.977	192.862	149.449	219.032	-7.936	19.722	86.132	186.954	156.410	227.193	188.567	-42.920	0.00067829	0.00053104	0.00014348	725.63	3.4975e-06	6.0789e-06	741.55	264.82	3.759e-06	2.9651e-06	316.12	135.36	110.58	59.024	2.5536e-06	77.855	0.0012365	0.0015958	0.00043826	783.91	1.5583e-05	1.7332e-05	806.94	289.69	1.577e-05	1.7555e-05	345.2	149.27	121.95	65.316	1.6761e-05	86.203	173.713	-41.477	-28.030	-120.289	-5.383	29.036	-121.013	-114.742	-2.979	23.157	-116.058	-111.402	-109.860	-103.810	-11.458	-106.591	-8191	255	
2686.228	1	1	0	0	0.023868	0.078178	0.20869	0.20662	0.21682	0.087384	0.066243	0.26868	0.11887	0.12256	0.024229	0.28567	0.13915	0.22239	0.072406	0.17559	-2.6708	-2.375	-2.2958	-3.1604	-2.1458	-2.9062	-2.9125	-2.3271	-3.1792	-2.5833	-2.4125	-3.1729	-2.2687	-2.9208	-2.8271	-2.2812	185.148	131.287	-85.060	213.092	218.537	81.888	124.254	208.357	95.093	206.763	-50.922	171.838	112.155	222.897	209.149	145.074	0.00068738	0.00041704	0.00014302	724.68	3.5677e-06	5.987e-06	737.8	266.4	4.0604e-06	4.5695e-06	315.71	136.63	111.94	60.431	3.5349e-06	79.919	0.0012173	0.0015525	0.00043452	783.8	1.5421e-05	1.6846e-05	802.88	290.82	1.5547e-05	1.7869e-05	345.86	150.29	123.31	66.887	1.7207e-05	88.255	175.121	-54.501	-47.375	-120.485	-12.529	33.882	-121.434	-114.850	-29.666	26.383	-116.106	-111.522	-109.806	-104.010	-0.548	-106.630	-8191	255	
2686.324	1	1	0	0	0.17226	0.15059	0.23374	0.098285	0.40852	0.19908	0.21151	0.22626	0.23637	0.2261	0.15247	0.24102	0.043557	0.056686	0.076097	0.11475	-2.6667	-2.4458	-2.3125	-3.0729	-2.3208	-2.6479	-2.8667	-2.0479	-2.9354	-2.5	-2.2604	-3.1708	-2.175	-2.8104	-2.9521	-2.4188	59.276	-8.294	41.412	193.852	-70.938	137.872	-125.009	102.196	125.570	-65.685	166.829	-10.791	192.405	223.010	60.340	216.095	0.0006916	0.00057379	0.00012748	717.46	4.9744e-06	7.2211e-06	734.75	264.33	4.5661e-06	5.9348e-06	313.38	137.22	112.24	61.556	4.776e-06	81.331	0.0012587	0.0016119	0.00044265	777.13	1.6158e-05	1.7703e-05	799.3	289.09	1.6373e-05	1.8305e-05	344.27	151.24	123.75	68.087	1.8161e-05	89.816	173.285	-54.977	-25.909	-120.518	-4.308	14.448	-121.095	-114.662	-22.503	38.995	-115.813	-111.305	-109.674	-103.956	3.551	-106.705	-8191	255	
2686.445	1	1	0	0	0.17043	0.13824	0.084997	0.15886	0.094894	0.27079	0.1019	0.12289	0.15842	0.074145	0.13916	0.15117	0.066986	0.11556	0.17184	0.37142	-2.4083	-2.6125	-2.1271	-3.2188	-2.3208	-2.5687	-3.1458	-2.2125	-2.8646	-2.6188	-2.1521	-3.0812	-2.3187	-2.5521	-2.9208	-2.3521	-91.193	166.186	-107.106	-84.806	80.660	42.368	-36.955	160.462	216.690	189.007	159.340	179.170	225.881	-106.182	-29.389	193.021	0.0007292	0.00044475	0.0001172	715.78	5.3166e-06	5.7609e-06	730.32	263.07	4.3783e-06	3.614e-06	313.78	136.72	111.49	61.163	3.8146e-06	80.717	0.0013091	0.0016798	0.0004599	775.6	1.6617e-05	1.863e-05	798.02	287.25	1.7009e-05	1.9359e-05	342.91	150.67	123.14	67.689	1.8499e-05	89.275	173.742	-44.263	-41.845	-120.332	3.006	32.529	-121.077	-114.663	-59.036	9.542	-115.945	-111.252	-109.523	-103.818	-25.321	-106.703	-8191	255	
2686.541	1	1	0	0	0.15956	0.23381	0.19625	0.099575	0.08401	0.098555	0.09708	0.11935	0.279	0.084601	0.04541	0.10553	0.17016	0.15822	0.1676	0.34339	-2.4	-2.7542	-2.075	-3.1937	-2.4	-2.4625	-2.9604	-2.375	-2.7062	-2.7354	-2.3292	-3.0271	-2.4917	-2.4062	-2.9646	-2.3208	56.080	-38.428	168.703	-3.842	38.276	118.456	-7.104	186.439	-80.180	-28.692	65.010	-59.784	-122.440	185.354	69.802	182.737	0.00070077	0.00045675	0.00012053	716.62	3.7865e-06	7.9321e-06	733.83	262.16	3.0481e-06	5.5075e-06	311.27	135.69	111.29	61.216	5.4312e-06	80.553	0.0013098	0.0017207	0.00048239	776.75	1.7264e-05	1.9478e-05	795.21	286.61	1.7371e-05	1.9773e-05	340.61	149.99	123.17	67.734	1.9051e-05	88.917	172.380	-38.715	-37.587	-120.562	10.514	19.561	-121.321	-114.853	-39.365	35.745	-116.060	-111.127	-109.726	-104.102	-1.819	-106.703	-8191	255	
2686.637	1	1	0	0	0.18407	0.2625	0.2264	0.11655	0.36686	0.17834	0.10863	0.18993	0.072518	0.13338	0.12429	0.13982	0.13675	0.29665	0.085839	0.1942	-2.2396	-2.8104	-2.1375	-3.1167	-2.6042	-2.2188	-3.2979	-2.4125	-2.5021	-2.9896	-2.2479	-2.9708	-2.7833	-2.2062	-3.0792	-2.3542	159.986	-6.058	174.945	-124.374	205.118	39.497	-4.611	155.573	-26.566	36.092	162.287	202.344	90.768	-90.249	-124.843	66.677	0.00069611	0.00058467	0.00015098	713.52	2.6906e-06	4.0497e-06	729.53	261.64	2.9805e-06	3.3997e-06	310.33	136.52	111.69	61.169	3.704e-06	80.835	0.0013476	0.0017794	0.00049451	773.87	1.7393e-05	1.9647e-05	792.96	286.45	1.7607e-05	1.9577e-05	340.82	150.33	123.45	67.753	1.906e-05	89.222	172.760	-52.957	-41.473	-120.536	-11.506	13.378	-121.373	-114.831	3.207	12.301	-116.144	-111.290	-109.633	-104.017	-0.517	-106.817	-8191	255	
2686.733	1	1	0	0	0.12961	0.28599	0.115	0.064936	0.20902	0.21667	0.16983	0.22922	0.12995	0.16812	0.19955	0.18275	0.23757	0.27146	0.13574	0.090777	-2.0729	-2.8854	-2.1479	-3.0208	-2.7604	-2.1667	-2.9562	-2.5104	-2.5125	-3.0312	-2.3104	-2.7896	-2.9375	-2.2125	-2.8688	-2.5062	57.938	-104.593	61.895	-25.050	-104.406	2.678	146.902	220.653	-56.214	49.692	56.164	191.941	105.124	-106.663	131.562	-100.701	0.00069927	0.00032499	0.00010809	713.85	2.8233e-06	7.0467e-06	729.42	262.2	5.0272e-06	5.3884e-06	315.53	136.97	112.37	61.613	4.7751e-06	81.569	0.0013425	0.0017361	0.00048761	774.57	1.7336e-05	1.9668e-05	794.24	288	1.7377e-05	1.9599e-05	344.4	151.44	124.28	68.192	1.8837e-05	89.929	170.410	-33.369	-44.292	-120.489	-24.480	18.361	-121.184	-114.893	-44.096	22.616	-116.364	-111.491	-109.698	-104.327	-15.442	-106.789	-8191	255	
2686.829	1	1	0	0	0.37105	0.14118	0.14137	0.17987	0.23123	0.066348	0.38936	0.19448	0.16841	0.19675	0.32533	0.36732	0.16773	0.28239	0.14272	0.32814	-1.9479	-2.9521	-2.1042	-2.7313	-2.7958	-2.0833	-3.2521	-2.3042	-2.3333	-3.0625	-2.2229	-2.8208	-3.0667	-2.2938	-2.85	-2.7271	92.370	-82.053	170.530	97.024	112.143	69.950	69.656	-106.625	131.695	12.974	99.502	144.258	-94.550	-123.862	-3.162	175.236	0.00073221	0.0006339	0.00011723	719.4	3e-06	5.7625e-06	733.83	265.79	3.5096e-06	6.5439e-06	315.61	136.79	112.06	61.125	5.3658e-06	80.117	0.0013445	0.0017504	0.00048415	778.54	1.698e-05	1.9054e-05	800	290.36	1.7521e-05	1.9314e-05	345.5	151.45	123.97	67.557	1.8536e-05	88.619	174.692	-40.458	-1.468	-120.180	-2.744	10.139	-121.230	-114.844	-26.917	29.643	-116.374	-111.441	-110.002	-104.221	15.404	-106.932	-8191	255	
2686.925	1	1	0	0	0.19616	0.20327	0.13728	0.26137	0.1381	0.23184	0.23289	0.071818	0.16978	0.068716	0.097979	0.13808	0.11301	0.48121	0.28931	0.09032	-1.9521	-3.0354	-2.1688	-2.5958	-3.0083	-2.1854	-2.9146	-2.6875	-2.2208	-2.8833	-2.4771	-2.5958	-3.2042	-2.1333	-2.6396	-2.8979	-47.825	-3.000	-60.884	167.478	-89.186	109.954	153.033	181.993	-32.651	128.565	189.212	158.480	23.309	146.803	220.571	162.059	0.00069641	0.00038593	0.00013697	722.43	5.2977e-06	4.2154e-06	734.77	263.65	3.5851e-06	3.9684e-06	312.57	135.53	110.87	60.02	3.0951e-06	79.077	0.0013304	0.0017213	0.00047693	779.98	1.6882e-05	1.9086e-05	799.17	288.93	1.6917e-05	1.8415e-05	343.23	149.9	122.83	66.466	1.752e-05	87.456	171.397	-60.055	-48.158	-120.555	-11.217	24.746	-121.250	-114.915	-11.150	14.099	-116.214	-111.506	-109.979	-104.141	-0.462	-106.863	-8191	255	
2687.044	1	1	0	0	0.17568	0.049705	0.1928	0.085342	0.25542	0.1831	0.20888	0.046989	0.063089	0.17685	0.19377	0.088439	0.14451	0.084993	0.075825	0.28475	-1.7542	-2.8104	-2.4354	-2.3104	-3.05	-2.1708	-2.9479	-2.8104	-2.2958	-3.0312	-2.5729	-2.3833	-3.1125	-2.475	-2.7667	-3.2021	-88.781	152.524	110.835	81.741	87.342	-104.894	180.780	-126.009	164.124	226.291	219.104	102.888	9.001	226.550	-2.825	98.965	0.00071097	0.00057811	0.00011138	721.3	3.1357e-06	5.3121e-06	736.23	264.57	3.7097e-06	3.649e-06	315.11	135.35	111.06	59.491	3.0269e-06	78.792	0.0012651	0.0016065	0.0004423	781.01	1.5865e-05	1.7927e-05	802.65	288.99	1.6221e-05	1.7697e-05	344.4	149.52	122.58	65.782	1.6837e-05	86.904	171.699	-40.910	-38.084	-120.469	-13.618	11.067	-121.054	-115.036	-23.775	30.807	-116.334	-111.678	-110.030	-104.250	-29.946	-106.973	-8191	255	
2687.140	1	1	0	0	0.30265	0.085776	0.13469	0.077307	0.15704	0.07064	0.23119	0.18593	0.16936	0.12232	0.055801	0.12966	0.10638	0.22765	0.069686	0.13776	-1.7146	-3.05	-2.5229	-2.3875	-2.9542	-2.2667	-2.825	-2.9396	-1.95	-2.8854	-2.7375	-2.4979	-3.1667	-2.325	-2.6604	-3.0625	193.366	98.834	93.298	-130.743	80.160	-58.364	148.794	207.387	-76.316	172.959	-17.552	-110.526	-113.312	-129.063	-73.224	-128.990	0.00067498	0.0004438	0.0001549	726.52	4.2931e-06	4.8893e-06	746.78	266.51	3.305e-06	5.6233e-06	317.45	137.67	112.28	60.191	3.3309e-06	79.995	0.0012224	0.0015593	0.00042976	786.34	1.5281e-05	1.7118e-05	809.05	291.28	1.5437e-05	1.6739e-05	347.68	151.52	123.92	66.582	1.6192e-05	88.367	172.483	-59.440	-57.296	-120.497	-30.643	22.198	-121.326	-115.156	-3.910	13.718	-116.181	-111.614	-109.927	-104.228	-11.644	-106.995	-8191	255	
2687.236	1	1	0	0	0.25379	0.13116	0.064009	0.15035	0.28668	0.24468	0.058497	0.052885	0.17603	0.23757	0.2302	0.26959	0.31454	0.2359	0.1038	0.086044	-1.9229	-2.8146	-2.6271	-2.3187	-3.0042	-2.2479	-2.4729	-3.1	-2.1125	-2.9229	-2.8604	-2.1688	-3.0062	-2.4375	-2.4479	-3.2333	116.380	-8.414	61.601	164.092	-102.214	124.886	-112.038	-119.585	-93.291	192.245	219.473	-90.880	208.606	201.259	205.617	205.691	0.00071068	0.00053441	0.00014263	730.93	3.4234e-06	5.636e-06	746.56	267.33	3.2536e-06	4.2759e-06	319.02	137.47	113.2	60.775	4.7579e-06	80.062	0.0012045	0.0014613	0.00040716	790.95	1.4523e-05	1.6452e-05	811.51	292.61	1.4958e-05	1.6174e-05	348.31	151.7	124.7	67.228	1.62e-05	88.463	172.149	-56.572	-51.174	-120.645	-10.445	20.872	-121.335	-115.095	-12.312	9.074	-116.508	-111.657	-110.055	-104.305	-3.801	-107.051	-8191	255	
2687.357	1	1	0	0	0.17492	0.072332	0.24023	0.32074	0.13853	0.18482	0.071561	0.11178	0.10335	0.27225	0.18594	0.087832	0.13191	0.21286	0.15646	0.15238	-1.75	-2.7521	-2.6458	-2.2833	-2.9375	-2.4562	-2.2521	-3.1	-2.1083	-2.7083	-3.0208	-2.275	-2.9375	-2.5687	-2.35	-3.2625	130.179	-131.694	114.207	182.345	207.112	226.496	-63.952	161.450	-23.483	66.247	179.375	140.087	80.811	196.745	154.416	155.368	0.00070699	0.00048147	0.00014532	729.1	3.563e-06	4.6896e-06	742.34	266.07	3.3085e-06	5.6898e-06	315.25	135.94	112.04	60.581	2.3069e-06	79.467	0.0012119	0.0015041	0.00042283	787.68	1.5185e-05	1.7316e-05	807.44	290.54	1.5731e-05	1.7442e-05	344.81	150.44	123.58	66.836	1.708e-05	88.024	173.577	-40.791	-41.833	-120.635	7.526	43.384	-121.299	-115.247	-22.469	12.404	-116.397	-111.450	-109.863	-104.394	29.829	-106.922	-8191	255	
2687.429	1	1	0	0	0.17235	0.14183	0.33053	0.14703	0.16365	0.15781	0.17771	0.30375	0.33974	0.19622	0.16938	0.19891	0.10237	0.30959	0.11066	0.2227	-1.7167	-2.6125	-2.9729	-2.2542	-2.8354	-2.5125	-2.3542	-3.0792	-2.4938	-2.5375	-2.9521	-2.2458	-2.7458	-2.8979	-2.2229	-3.2646	199.667	-31.368	72.322	143.624	166.187	136.148	124.578	110.822	70.450	75.658	225.296	176.851	3.075	-97.784	13.376	180.267	0.0007217	0.00039518	0.00015251	726.01	3.0421e-06	6.2048e-06	744.51	265.83	4.5287e-06	4.2224e-06	314.75	136.05	111.33	60.093	4.0444e-06	79.203	0.0012623	0.0015646	0.00043225	787.73	1.5506e-05	1.7688e-05	808.06	290.6	1.6155e-05	1.7611e-05	344.9	150.01	123	66.429	1.7285e-05	87.598	172.378	-40.225	-36.796	-120.568	-3.397	37.120	-121.456	-114.936	-17.761	21.282	-116.577	-111.747	-109.950	-104.386	0.172	-106.913	-8191	255	
2687.525	1	1	0	0	0.083974	0.053333	0.21587	0.21061	0.073275	0.15787	0.035378	0.16332	0.10924	0.09487	0.35484	0.43973	0.12463	0.47032	0.21638	0.15633	-2.0167	-2.4333	-3.0229	-2.2104	-2.7562	-2.8417	-2.1437	-3.0229	-2.3667	-2.55	-3.1312	-2.3521	-2.7708	-2.9083	-2.1333	-2.925	153.586	-94.880	-79.643	-132.177	-12.729	194.713	-123.604	97.555	140.812	139.389	158.774	225.871	210.852	-121.113	-112.998	-9.848	0.00068269	0.00059845	0.00014718	727.87	4.899e-06	7.1864e-06	745.07	264.85	5.1675e-06	5.4595e-06	315.58	135.27	111.44	59.857	3.8155e-06	79.061	0.0012481	0.0015774	0.00043331	789.08	1.532e-05	1.7831e-05	810.22	289.86	1.6159e-05	1.7708e-05	344.51	149.4	122.74	66.108	1.7432e-05	87.201	172.520	-38.012	-42.880	-120.736	3.143	29.586	-121.625	-115.026	-15.515	32.809	-116.427	-111.526	-109.753	-104.433	13.119	-106.884	-8191	255	
2687.621	1	1	0	0	0.098156	0.27118	0.22127	0.31204	0.0090922	0.26663	0.20948	0.20975	0.35716	0.24655	0.31143	0.14637	0.27573	0.17078	0.099841	0.2397	-2.2396	-2.3042	-3.1229	-2.4437	-2.5271	-2.9021	-2.4104	-3.1063	-2.5938	-2.2333	-3.0604	-2.4458	-2.7771	-3.1375	-2.2	-3.075	-100.390	12.713	-18.526	171.920	181.749	25.764	-22.021	153.321	95.249	64.081	111.884	165.403	197.213	-106.244	-94.029	22.196	0.00068619	0.00063486	0.00011701	726.89	4.6963e-06	2.4725e-06	739.54	264.49	3.0836e-06	4.8752e-06	313.31	134.43	111.51	59.622	4.0834e-06	78.889	0.0012573	0.0015977	0.00044125	786.96	1.5664e-05	1.7907e-05	805.08	288.88	1.6152e-05	1.8055e-05	342.5	148.56	122.63	66.015	1.7728e-05	87.133	172.891	-34.459	-29.434	-120.489	8.050	33.566	-121.234	-114.940	-25.938	31.127	-116.354	-111.625	-109.821	-104.275	5.888	-107.047	-8191	255	
2687.742	1	1	0	0	0.046304	0.10168	0.07397	0.19053	0.20661	0.24255	0.18778	0.071126	0.14799	0.11754	0.098078	0.22622	0.16414	0.14132	0.088861	0.16	-2.5521	-2.1333	-2.8771	-2.4938	-2.4833	-3.0187	-2.2979	-2.9167	-2.6042	-2.1604	-3.0229	-2.3979	-2.5938	-3.125	-2.1542	-3.1354	108.353	-106.568	-68.820	145.337	68.239	188.649	175.256	160.803	-90.480	138.110	208.893	209.162	138.465	188.542	201.489	196.988	0.00070839	0.00057482	0.00012045	724.17	3.8524e-06	5.7549e-06	738.8	264.08	4.0654e-06	4.4628e-06	312.39	135.59	111.31	60.116	4.4118e-06	79.534	0.0012893	0.0016576	0.00044391	785.96	1.6017e-05	1.811e-05	803.48	289.08	1.6561e-05	1.8301e-05	342.19	149.27	122.89	66.574	1.7753e-05	87.74	172.884	-63.488	-52.839	-120.671	8.021	5.411	-121.345	-115.062	-31.967	20.707	-116.282	-111.550	-109.870	-104.303	-24.295	-106.883	-8191	255	
2687.836	1	1	0	0	0.17528	0.078796	0.018059	0.08289	0.13248	0.057058	0.15413	0.11359	0.13786	0.0678	0.18512	0.18133	0.092076	0.24132	0.093177	0.18433	-2.3667	-2.0833	-3.0979	-2.3458	-2.3063	-3.1333	-2.2854	-2.7021	-2.6104	-2.0854	-2.9521	-2.6042	-2.4333	-3.15	-2.1167	-2.7333	-16.186	107.642	105.957	153.607	-57.347	208.459	178.232	-100.175	208.622	149.763	-83.920	-118.198	69.423	3.278	94.503	-130.724	0.00069513	0.00044016	0.00013796	725.18	3.2235e-06	5.7275e-06	743.05	264.37	4.4062e-06	4.2825e-06	314.47	135.37	111.93	60.241	5.4168e-06	80.099	0.0012807	0.0016357	0.00044956	786.29	1.5998e-05	1.8219e-05	806.47	289.32	1.6339e-05	1.8691e-05	343.51	149.72	123.42	66.813	1.7528e-05	88.253	174.475	-40.361	-45.536	-120.599	-11.951	9.707	-121.440	-115.111	-36.672	31.772	-116.356	-111.717	-109.914	-104.300	-26.596	-106.968	-8191	255	
2687.932	1	1	0	0	0.18424	0.18697	0.20794	0.21427	0.14606	0.042781	0.20523	0.084147	0.10161	0.11008	0.36453	0.19602	0.10024	0.12883	0.027687	0.13985	-2.4521	-2.2062	-2.8917	-2.5687	-2.475	-3.2333	-2.4542	-2.6854	-2.8646	-2.2313	-2.8875	-2.8021	-2.2792	-3.0563	-2.3958	-2.7125	63.742	-36.221	-28.744	-68.429	94.609	4.603	160.841	215.648	-117.235	84.869	146.089	152.279	173.358	85.880	176.148	171.123	0.00069742	0.00054755	0.00013535	727.83	5.5287e-06	7.2769e-06	741.74	265.68	4.9988e-06	4.9549e-06	314.25	135.37	111.44	60.416	3.294e-06	79.457	0.0012788	0.0016455	0.00044117	788.09	1.6149e-05	1.7726e-05	806	290.19	1.6443e-05	1.8276e-05	343.48	149.5	122.95	66.599	1.7468e-05	87.65	171.097	-38.663	-55.542	-120.594	20.974	13.750	-121.436	-115.023	-32.229	41.455	-116.346	-111.811	-109.867	-104.351	-12.249	-106.959	-8191	255	
2688.006	1	1	0	0	0.069634	0.12185	0.12886	0.098505	0.10143	0.09666	0.10669	0.19715	0.26196	0.27218	0.23009	0.093452	0.29731	0.074929	0.15512	0.36041	-2.6229	-2.0333	-2.7958	-2.8792	-2.1083	-3.0792	-2.5292	-2.5312	-2.9583	-2.0708	-2.7208	-2.8354	-2.2292	-3.2792	-2.3229	-2.3833	140.317	-59.602	127.675	194.089	-51.334	-102.835	197.258	-74.871	-1.879	50.071	-114.234	168.458	-94.762	-124.152	68.786	122.412	0.00069819	0.00051416	0.00015193	724.17	3.6329e-06	4.7328e-06	740.19	264.99	4.3355e-06	5.0544e-06	313.67	134.89	111.38	59.915	3.4864e-06	79.09	0.0012574	0.0016056	0.00044216	786.88	1.6017e-05	1.7614e-05	805.92	289.99	1.6097e-05	1.7671e-05	343.57	148.97	122.86	66.318	1.7102e-05	87.273	173.673	-35.399	-55.395	-120.787	8.923	33.825	-121.435	-115.249	6.865	17.368	-116.302	-111.848	-110.097	-104.323	-16.516	-107.025	-8191	255	
2688.125	1	1	0	0	0.10474	0.13596	0.1267	0.149	0.13478	0.2127	0.15343	0.20089	0.17643	0.20352	0.11373	0.35351	0.30361	0.29911	0.1074	0.064277	-2.6479	-2.0187	-2.5708	-2.9604	-2.1521	-2.9667	-2.7292	-2.1792	-2.9437	-2.3167	-2.7396	-2.9458	-2.1417	-3.0417	-2.5542	-2.4833	-46.651	72.658	116.638	74.575	-85.777	-82.381	68.161	-132.372	64.020	111.148	165.119	223.683	182.424	-106.430	207.730	-65.004	0.00072728	0.00049462	0.0001369	729.73	4.1536e-06	6.2581e-06	743.19	265.05	3.4765e-06	5.9098e-06	316.68	135.09	111.71	59.921	2.1537e-06	79.17	0.001238	0.0015763	0.0004339	791.28	1.5567e-05	1.7142e-05	808.59	290.51	1.548e-05	1.7514e-05	344.98	149.18	123.35	66.335	1.6596e-05	87.526	173.747	-48.639	-46.279	-120.660	32.963	30.604	-121.623	-114.996	-24.077	25.365	-116.514	-111.950	-110.039	-104.456	-6.603	-106.994	-8191	255	
2688.221	1	1	0	0	0.16239	0.016539	0.081438	0.29618	0.12825	0.1945	0.18544	0.090544	0.26431	0.36573	0.063961	0.078447	0.28025	0.33862	0.082608	0.090089	-2.5354	-2.4604	-2.6771	-2.8625	-2.2188	-2.8563	-2.65	-2.2208	-3.0292	-2.2792	-2.4313	-3.0521	-2.2417	-3	-2.7229	-2.1688	218.826	-110.697	18.492	224.748	41.174	101.533	-127.753	-45.480	-133.147	21.821	196.986	41.324	-125.769	-119.146	113.055	130.054	0.00068387	0.00037869	9.5551e-05	733.36	4.1921e-06	4.7968e-06	747.14	267.71	4.3426e-06	5.0471e-06	317.58	135.51	112.1	60.218	2.8094e-06	79.204	0.0012009	0.0015335	0.00042051	794.5	1.5376e-05	1.6555e-05	813.29	292.43	1.507e-05	1.7202e-05	347	149.92	123.83	66.516	1.6415e-05	87.633	172.610	-44.573	-48.317	-120.857	-6.259	20.894	-121.559	-115.268	-8.292	22.771	-116.486	-111.794	-110.233	-104.414	-19.958	-107.027	-8191	255	
2688.317	1	1	0	0	0.18254	0.084656	0.13551	0.18866	0.14304	0.28887	0.27523	0.11902	0.24838	0.077681	0.13206	0.0534	0.12433	0.18829	0.24739	0.20244	-2.5125	-2.2938	-2.525	-3.025	-2.2375	-2.5708	-2.9271	-2.2	-3.1813	-2.5812	-2.2125	-3.05	-2.3063	-2.7167	-2.7729	-2.3625	-110.768	-4.380	42.458	116.584	-60.115	-49.006	136.935	164.917	102.642	170.654	190.977	73.622	213.362	200.768	124.377	-104.511	0.00069633	0.00033385	9.8763e-05	735.91	3.1484e-06	5.0511e-06	748.99	267.71	4.6548e-06	5.1398e-06	314.82	135.62	112.11	59.879	2.7327e-06	79.24	0.0012028	0.0015291	0.00041828	797.13	1.5183e-05	1.6765e-05	813.47	292.71	1.5223e-05	1.7347e-05	345.8	149.26	123.55	66.279	1.6367e-05	87.39	172.330	-52.828	-62.646	-121.080	31.345	18.460	-121.648	-115.371	-27.926	16.273	-116.475	-111.937	-110.336	-104.557	-0.258	-106.976	-8191	255	
2688.437	1	1	0	0	0.47738	0.20032	0.22891	0.14742	0.079084	0.26685	0.33531	0.25619	0.24804	0.049929	0.13756	0.12586	0.14452	0.1796	0.25948	0.29322	-2.6688	-2.6458	-2.1583	-3.0187	-2.2062	-2.6937	-3.0333	-2.2917	-2.8979	-2.6875	-2.3646	-3.1792	-2.3417	-2.8021	-2.9167	-2.3146	115.638	-75.574	73.549	214.482	-86.686	-107.826	179.940	157.821	-69.018	197.750	66.350	99.933	-72.363	177.312	-100.328	200.123	0.00069077	0.00065608	0.00015978	737.66	4.518e-06	4.5918e-06	750.37	267.9	4.0942e-06	4.7287e-06	317.39	135.74	112.42	60.252	3.6578e-06	79.301	0.0012105	0.0015085	0.00042184	797.15	1.5235e-05	1.6879e-05	813.93	292.85	1.4972e-05	1.7124e-05	346.47	149.7	124.05	66.57	1.6453e-05	87.818	171.786	-61.333	-29.845	-120.939	-14.682	34.938	-121.628	-115.277	-27.276	9.690	-116.908	-111.871	-110.093	-104.653	1.548	-107.079	-8191	255	
2688.534	1	1	0	0	0.098428	0.21576	0.092589	0.26153	0.22997	0.036685	0.16188	0.28419	0.076304	0.22134	0.19078	0.035168	0.18284	0.081704	0.22666	0.16548	-2.7083	-2.8458	-2.3063	-3.1542	-2.2146	-2.5958	-3.1021	-2.2271	-2.7438	-2.8479	-2.2333	-3.0812	-2.4583	-2.4437	-2.9167	-2.4479	-67.376	205.584	-123.475	114.091	170.470	-89.494	26.590	185.970	209.319	-51.786	208.272	122.839	188.585	213.177	-122.792	-104.104	0.00072151	0.00031296	8.0384e-05	740.64	3.3934e-06	2.3844e-06	749.29	269.79	3.8776e-06	4.6657e-06	318.26	136.75	113.56	60.673	3.663e-06	80.094	0.0012177	0.0015269	0.00042423	800.36	1.5036e-05	1.6892e-05	816.27	294.39	1.5059e-05	1.7073e-05	348.26	151.04	124.95	67.042	1.6106e-05	88.654	170.920	-53.265	-41.390	-120.740	-7.038	8.078	-121.515	-115.275	-9.034	27.635	-116.343	-111.819	-110.157	-104.487	-10.784	-106.990	-8191	255	
2688.630	1	1	0	0	0.1909	0.18864	0.30007	0.14697	0.18973	0.18826	0.26737	0.31433	0.10108	0.12602	0.18259	0.086498	0.28553	0.17525	0.072566	0.17836	-2.1542	-2.7646	-2.3104	-3.1771	-2.4583	-2.3688	-3.2479	-2.3646	-2.7083	-2.9625	-2.2271	-3.0083	-2.6188	-2.4437	-3.0021	-2.4333	130.038	131.399	0.615	-99.307	-83.917	223.916	157.727	129.015	-5.609	61.431	-47.127	62.792	-126.869	184.389	-44.050	224.934	0.0007166	0.00046786	0.00012348	740.52	3.9433e-06	5.7179e-06	752.63	270.33	4.6395e-06	5.503e-06	320.02	136.62	113.37	60.908	4.1135e-06	79.83	0.001211	0.0015149	0.00042704	802.06	1.5258e-05	1.6778e-05	818.9	295.25	1.554e-05	1.7341e-05	349.04	150.69	124.96	67.154	1.6382e-05	88.276	171.165	-44.707	-38.483	-120.790	12.299	12.570	-121.600	-115.406	-41.615	34.145	-116.429	-111.960	-110.305	-104.477	-18.430	-107.144	-8191	255	
2688.726	1	1	0	0	0.27337	0.12761	0.07048	0.038294	0.16808	0.085457	0.028742	0.24387	0.11365	0.059971	0.053872	0.17369	0.08842	0.093716	0.16412	0.18217	-2.3167	-2.9188	-2.1958	-3.0271	-2.575	-2.2542	-3.1854	-2.2812	-2.4479	-3.0208	-2.2375	-2.9667	-2.75	-2.2646	-3.1521	-2.4938	-132.972	-68.487	-101.759	21.244	-43.703	-75.110	-121.258	136.528	64.582	110.202	223.166	144.409	-92.464	-98.714	-99.024	68.298	0.00071646	0.00046032	0.0001442	740.13	5.2204e-06	5.9921e-06	751.46	269.5	3.6609e-06	5.2874e-06	318.4	136.27	113.42	60.632	4.3318e-06	79.699	0.0012266	0.0015443	0.00042587	801.36	1.5324e-05	1.7414e-05	816.33	295.38	1.543e-05	1.7161e-05	348.36	150.4	125.11	67.015	1.6114e-05	88.056	172.215	-48.197	-30.313	-120.914	-8.625	11.231	-121.587	-115.355	-33.435	6.845	-116.705	-111.848	-110.354	-104.543	-22.157	-107.117	-8191	255	
2688.822	1	1	0	0	0.30838	0.17044	0.14466	0.22724	0.22307	0.032771	0.19342	0.085408	0.010867	0.060255	0.087183	0.256	0.14106	0.090333	0.037895	0.30411	-1.9854	-2.9354	-2.3375	-2.8854	-2.6729	-2.175	-2.8792	-2.5	-2.3438	-3.0375	-2.1646	-2.6375	-2.7687	-2.0938	-3.0687	-2.6604	-78.019	157.796	-119.484	134.200	156.652	-90.038	33.420	95.001	222.963	9.014	43.985	206.386	152.577	125.466	-74.704	225.231	0.00068548	0.00054368	0.00015851	742.2	5.1221e-06	4.5615e-06	753.64	271.08	3.2533e-06	6.2213e-06	320.13	137.64	114.02	61.255	6.1682e-06	80.623	0.0012237	0.0015253	0.00042411	802.48	1.5162e-05	1.7369e-05	818.72	296.35	1.5851e-05	1.7073e-05	350.31	151.44	125.86	67.521	1.6557e-05	89.054	172.441	-48.185	-50.621	-120.764	-0.734	14.060	-121.611	-115.464	-28.996	22.603	-116.545	-111.833	-110.300	-104.447	4.463	-107.161	-8191	255	
2688.918	1	1	0	0	0.22386	0.067091	0.29789	0.11306	0.32487	0.082561	0.156	0.15071	0.1516	0.022924	0.071797	0.12452	0.12217	0.32563	0.067189	0.30531	-1.7146	-3	-2.2042	-2.725	-2.7854	-2.1167	-2.9083	-2.7313	-2.1125	-2.9333	-2.3667	-2.5542	-2.9875	-2.2625	-2.8146	-2.6937	124.622	129.455	-111.879	203.355	-128.164	188.975	54.047	108.983	87.257	25.880	-32.611	-115.267	212.721	182.043	71.771	188.481	0.00069547	0.0004425	9.4448e-05	743.9	3.5918e-06	3.9992e-06	755.57	272.5	4.7631e-06	5.3869e-06	321.61	138.29	115.17	61.75	2.7229e-06	81.309	0.0012353	0.0015444	0.00042623	804.52	1.5536e-05	1.7619e-05	821.92	298.13	1.579e-05	1.7262e-05	352.57	152.73	126.8	68.2	1.6484e-05	89.8	170.509	-55.272	-37.505	-120.803	7.326	-10.262	-121.411	-115.284	-9.881	24.202	-116.652	-111.699	-110.368	-104.540	12.280	-107.279	-8191	255	
2689.037	1	1	0	0	0.20708	0.070853	0.37688	0.067569	0.25828	0.2339	0.13517	0.19143	0.024014	0.13299	0.45035	0.31257	0.14387	0.26274	0.12022	0.32059	-1.7271	-2.9729	-2.4062	-2.4708	-2.8292	-2.0917	-3.05	-2.7854	-2.2583	-3.0583	-2.3625	-2.4875	-3.0062	-2.2188	-2.8208	-2.775	223.660	42.244	87.070	-95.916	23.102	164.454	-83.901	177.930	-1.491	166.742	142.740	-131.748	-46.062	153.838	117.780	190.302	0.00071945	0.00053474	0.00013848	741.12	3.9687e-06	5.7422e-06	753.98	273.35	3.3804e-06	4.6459e-06	322.92	138.64	115.63	61.896	4.2998e-06	81.484	0.0012452	0.0015238	0.00042969	802.91	1.5244e-05	1.7343e-05	819.1	299	1.5932e-05	1.6925e-05	352.25	152.98	127.32	68.624	1.6712e-05	90.014	173.730	-47.749	-41.770	-120.715	-5.272	10.520	-121.570	-115.406	-10.015	17.301	-116.727	-111.765	-110.517	-104.783	-34.594	-107.274	-8191	255	
2689.133	1	1	0	0	0.03199	0.070948	0.045349	0.1251	0.16895	0.10698	0.3492	0.26839	0.065632	0.15698	0.094692	0.19667	0.10083	0.13875	0.082616	0.078901	-1.6896	-3.0333	-2.3042	-2.4562	-2.8875	-2.1958	-2.7062	-2.8	-2.1958	-2.8292	-2.5833	-2.2729	-3.1083	-2.2583	-2.5792	-3.0229	92.924	187.127	-61.614	166.830	147.773	26.880	144.150	85.221	-79.746	175.497	-105.831	-99.135	49.738	143.004	111.261	34.557	0.0007352	0.000506	0.00013978	741.07	4.8099e-06	5.5535e-06	752.82	273.97	2.7714e-06	5.406e-06	323.14	139.73	115.82	62.122	4.4121e-06	81.702	0.0012334	0.0015058	0.000425	802.59	1.5012e-05	1.7043e-05	819.61	299.16	1.5664e-05	1.6898e-05	353.49	153.82	127.68	68.714	1.6006e-05	90.39	171.779	-48.376	-46.888	-120.920	15.103	33.040	-121.541	-115.354	-22.849	29.227	-116.571	-111.714	-110.410	-104.641	-13.413	-107.245	-8191	255	
2689.229	1	1	0	0	0.1346	0.068155	0.095398	0.072581	0.097755	0.20569	0.31429	0.24668	0.20037	0.25794	0.1146	0.13468	0.11971	0.20963	0.12533	0.25949	-1.6875	-2.8333	-2.5417	-2.2646	-3.0458	-2.2667	-2.7125	-2.8542	-2.3083	-2.8458	-2.8208	-2.1771	-3.1604	-2.525	-2.5833	-3.2021	124.283	-115.054	199.217	-72.166	-72.352	165.380	155.696	-133.329	188.724	26.675	-122.710	-64.836	213.824	-85.190	97.801	198.035	0.00072742	0.00052261	0.0001396	743.15	4.4005e-06	6.3609e-06	756.29	274.56	3.437e-06	3.9827e-06	324.7	139.82	115.71	61.993	4.3767e-06	81.769	0.0012203	0.001484	0.0004189	804.49	1.4467e-05	1.6538e-05	821.76	299.64	1.5181e-05	1.644e-05	354.12	154.27	127.67	68.534	1.5808e-05	90.381	171.350	-65.939	-42.413	-120.680	19.447	25.741	-121.610	-115.437	-8.546	21.713	-116.589	-111.906	-110.258	-104.650	-13.475	-107.105	-8191	255	
2689.301	1	1	0	0	0.12444	0.22619	0.14982	0.15685	0.21673	0.23772	0.21676	0.10226	0.26378	0.14212	0.18844	0.18541	0.18947	0.13737	0.22365	0.21095	-1.8312	-2.7917	-2.6688	-2.2646	-2.9813	-2.3896	-2.4375	-3.1354	-2.2208	-2.8125	-2.9229	-2.2104	-3.1583	-2.6437	-2.3021	-3.2542	21.473	0.136	25.942	-82.291	-119.364	-67.587	159.188	119.891	123.885	63.285	176.497	-45.191	185.072	-34.200	161.790	175.312	0.0007375	0.00058804	0.00013099	747.14	4.0503e-06	4.729e-06	761.24	275.54	4.6051e-06	5.2592e-06	326.21	139.38	114.96	61.364	4.099e-06	81.052	0.0011747	0.0014129	0.00040241	808.01	1.3831e-05	1.5734e-05	827.99	300.32	1.4476e-05	1.5714e-05	355.24	153.74	127.13	67.945	1.5172e-05	89.561	172.203	-51.280	-42.789	-120.830	-20.056	31.975	-121.597	-115.212	-16.679	20.288	-116.756	-111.828	-110.299	-104.599	-15.475	-107.044	-8191	255	
2689.397	1	1	0	0	0.18351	0.016898	0.19554	0.25903	0.1643	0.27292	0.15489	0.083582	0.10342	0.064467	0.15806	0.32399	0.070398	0.28861	0.28442	0.12686	-1.8979	-2.5667	-2.7708	-2.1854	-2.9229	-2.6562	-2.3187	-3.2042	-2.2729	-2.5875	-2.9854	-2.2104	-3.1042	-2.65	-2.2208	-3.2542	-99.868	114.206	-73.848	147.821	47.300	-68.067	-37.421	66.264	35.919	-53.185	187.613	183.269	163.809	-106.216	6.447	177.237	0.00070895	0.00052967	0.0001619	746.8	3.2441e-06	5.6714e-06	760.5	275.23	3.5016e-06	5.6864e-06	325.03	139.14	115.34	61.384	2.8938e-06	81.127	0.0011631	0.0013715	0.00038614	808.71	1.373e-05	1.5327e-05	826.31	300.33	1.4021e-05	1.5301e-05	354.13	153.61	127.43	67.851	1.4822e-05	89.54	172.154	-37.297	-22.801	-120.932	11.911	11.662	-121.529	-115.407	-12.893	15.728	-116.642	-111.982	-110.330	-104.657	-2.312	-107.020	-8191	255	
2689.518	1	1	0	0	0.20396	0.079728	0.086602	0.3215	0.17927	0.21781	0.28941	0.13551	0.056239	0.057213	0.12012	0.21447	0.071575	0.32276	0.14271	0.39109	-1.9375	-2.4167	-2.8688	-2.2083	-2.8021	-2.7396	-2.4896	-3.0896	-2.2062	-2.3875	-2.9625	-2.0729	-2.9125	-2.8083	-2.1	-3.1083	-115.487	-15.531	-74.150	166.420	-25.213	214.900	185.995	-70.102	190.540	123.666	164.038	4.489	-90.353	190.582	-106.244	125.226	0.00072196	0.00056218	0.00013192	748.66	3.4286e-06	6.0842e-06	762.37	276.32	3.083e-06	5.2504e-06	326.06	140.71	116.66	62.334	4.4024e-06	82.439	0.0011521	0.0013811	0.00037839	810.4	1.3349e-05	1.5282e-05	828.6	301.7	1.4047e-05	1.5415e-05	356.84	155.26	128.61	68.836	1.5173e-05	90.95	172.659	-43.763	-29.806	-120.714	-5.884	19.894	-121.721	-115.436	-22.174	32.828	-116.354	-112.045	-110.305	-104.731	-17.852	-107.185	-8191	255	
2689.614	1	1	0	0	0.3384	0.32167	0.14703	0.2723	0.087504	0.13391	0.13479	0.045464	0.14099	0.24957	0.35513	0.24838	0.2859	0.32301	0.25862	0.23303	-1.8854	-2.1875	-3.0604	-2.0917	-2.7021	-2.8229	-2.2729	-3.2083	-2.4688	-2.3417	-2.9729	-2.1917	-2.8271	-3.0438	-2.0458	-3.1896	41.473	158.664	56.998	203.858	222.856	-37.402	-75.809	-14.081	151.503	46.234	69.782	-53.147	-103.622	197.237	222.549	202.079	0.00074623	0.00063103	0.00014596	752.92	2.4436e-06	5.3453e-06	768.39	277.42	4.0028e-06	5.8988e-06	329.67	142.05	117.83	62.926	4.4349e-06	83.225	0.0011558	0.0013809	0.00037144	813.12	1.3557e-05	1.4988e-05	833.27	303.71	1.3804e-05	1.5512e-05	359.61	156.75	129.78	69.58	1.5041e-05	91.848	172.385	-41.457	-34.379	-120.906	-8.971	10.721	-121.526	-115.274	-17.598	-5.677	-116.607	-112.007	-110.535	-104.477	-9.069	-106.991	-8191	255	
2689.710	1	1	0	0	0.059974	0.2929	0.16369	0.22248	0.052865	0.23078	0.025823	0.18424	0.083739	0.13508	0.14965	0.14261	0.11129	0.12512	0.20923	0.17663	-2.2646	-2.175	-2.9292	-2.2979	-2.5479	-2.9813	-2.2771	-3.0125	-2.6979	-2.2271	-3.0271	-2.5062	-2.5812	-3.0729	-2.2354	-2.7812	-101.281	205.557	-52.376	-77.839	-49.667	187.844	186.578	69.499	47.893	46.594	96.652	209.541	115.874	148.560	-56.517	69.666	0.00074174	0.00042742	9.8752e-05	753.91	3.7304e-06	5.257e-06	762.46	279.09	4.6038e-06	7.9273e-06	328.26	141.12	117.23	62.713	3.7272e-06	82.415	0.0011529	0.0013753	0.00036315	816.11	1.3721e-05	1.5043e-05	832.21	304.06	1.3943e-05	1.5513e-05	358.43	155.91	129.45	69.232	1.5012e-05	90.967	172.042	-42.758	-62.048	-120.929	-13.444	33.321	-121.506	-115.195	-26.441	23.867	-116.719	-112.074	-110.156	-104.676	5.567	-107.171	-8191	255	
2689.829	1	1	0	0	0.097459	0.15223	0.20443	0.19614	0.080176	0.23534	0.0017354	0.19325	0.15853	0.22017	0.16826	0.16942	0.097722	0.13477	0.03231	0.11358	-2.1979	-2.1833	-2.975	-2.4188	-2.3958	-3.0292	-2.1937	-2.6417	-2.6708	-2.2958	-2.8479	-2.2125	-2.325	-3.175	-2.0438	-2.8417	151.027	2.702	178.203	216.925	190.284	218.193	180.000	-113.100	189.542	122.786	170.094	179.870	187.287	-94.258	-19.791	129.642	0.0007438	0.00049268	0.00014577	751.3	3.1408e-06	7.0765e-06	764.56	278.97	2.9231e-06	5.237e-06	329.33	140.91	117.61	62.314	4.1119e-06	82.172	0.0011627	0.0014011	0.00037568	814.24	1.3949e-05	1.5207e-05	832.15	304.43	1.4178e-05	1.5651e-05	359.8	155.5	129.38	69.011	1.4848e-05	90.764	172.452	-49.886	-42.639	-120.610	16.418	27.349	-121.597	-115.145	-28.929	17.940	-116.833	-112.064	-110.428	-104.630	-9.344	-107.029	-8191	255	
2689.902	1	1	0	0	0.3504	0.10247	0.055061	0.10063	0.3689	0.31291	0.27694	0.090982	0.075876	0.21311	0.23141	0.028814	0.18474	0.0099725	0.12335	0.13312	-2.4125	-2.1229	-2.9917	-2.5438	-2.4875	-3.0479	-2.2	-2.7792	-2.9083	-2.2	-3.0521	-2.8312	-2.4208	-3.1813	-2.0854	-2.6562	-80.278	163.494	-29.895	-42.123	226.329	95.470	208.275	169.428	104.130	-55.081	-127.110	-1.674	26.876	-124.277	-50.845	-115.585	0.00071825	0.00065098	0.00015103	759.98	1.6718e-06	6.2726e-06	770.47	279.58	4.1675e-06	4.4283e-06	331.15	142.23	117.79	62.752	3.766e-06	82.336	0.0011561	0.0013797	0.00037727	821.39	1.4108e-05	1.5184e-05	837.65	305.88	1.4047e-05	1.5849e-05	361.24	156.57	129.91	69.27	1.5254e-05	91.091	173.058	-41.122	-40.585	-120.868	22.960	13.273	-121.736	-115.147	-26.050	17.093	-116.502	-111.863	-110.255	-104.763	-3.668	-107.186	-8191	255	
2689.999	1	1	0	0	0.28027	0.21039	0.28388	0.27539	0.045328	0.05766	0.19258	0.23529	0.15538	0.19914	0.25865	0.37326	0.0031371	0.15752	0.098305	0.22389	-2.6063	-2.0958	-2.9167	-2.8958	-2.1854	-3.1437	-2.2521	-2.2521	-3.1396	-1.9688	-2.9208	-2.8187	-2.3146	-3.0354	-2.3125	-2.5021	89.077	-65.381	-42.707	140.691	46.462	128.262	180.980	154.159	136.553	-104.201	142.542	158.519	128.365	210.664	-81.040	146.228	0.00069811	0.00043312	0.00013541	762.65	4.2364e-06	6.6157e-06	774.21	280.95	3.2429e-06	5.1903e-06	329.71	140.42	116.93	61.977	3.657e-06	81.421	0.0011353	0.0013748	0.00037533	823.76	1.3787e-05	1.5003e-05	840.64	306.19	1.3635e-05	1.5543e-05	360.44	155.15	128.89	68.374	1.4776e-05	89.756	172.327	-30.562	-26.666	-120.898	-2.820	7.963	-121.870	-115.389	-14.578	39.272	-116.646	-111.924	-110.417	-104.687	-18.792	-107.108	-8191	255	
2690.117	1	1	0	0	0.049275	0.1626	0.1625	0.19187	0.17799	0.095473	0.069663	0.34947	0.080559	0.14424	0.28984	0.5621	0.20105	0.15932	0.058903	0.1743	-2.6396	-1.9875	-2.6063	-2.8104	-2.0979	-2.8271	-2.5187	-2.4188	-3.1271	-2.0917	-2.5917	-2.9646	-2.3	-3.0312	-2.5375	-2.3146	220.261	26.595	182.839	108.210	102.547	-67.115	221.204	159.037	-20.233	164.122	197.562	157.906	175.786	152.617	-87.636	118.265	0.00076873	0.00047517	0.00013179	760.94	3.2903e-06	4.3625e-06	768.93	280.72	5.1669e-06	5.5577e-06	328.36	140.77	116.44	61.857	4.1693e-06	81.39	0.0011365	0.0013699	0.00037601	822.43	1.3838e-05	1.4848e-05	837.43	305.62	1.3717e-05	1.5452e-05	359.14	154.86	128.71	68.251	1.5171e-05	89.763	170.798	-27.736	-25.396	-120.854	14.490	20.078	-121.714	-115.374	-5.636	12.403	-116.709	-111.993	-110.406	-104.698	-22.431	-107.184	-8191	255	
2690.214	1	1	0	0	0.2553	0.17199	0.067667	0.077404	0.049468	0.089286	0.065135	0.11701	0.2386	0.40123	0.34078	0.35025	0.36028	0.46436	0.25869	0.17545	-2.55	-2.3479	-2.6688	-3.025	-2.0646	-2.8583	-2.5875	-2.1833	-3.0958	-2.3021	-2.6167	-3.1292	-2.1625	-2.9354	-2.4625	-2.3937	46.736	30.971	78.733	131.181	93.798	211.710	33.268	114.942	99.890	129.809	154.757	166.992	-121.912	201.166	-30.098	-127.026	0.00073153	0.00057606	0.00015631	762.59	4.1357e-06	5.6935e-06	772.84	280.56	4.1162e-06	2.8298e-06	329.95	140.94	116.84	61.526	3.7911e-06	81.068	0.0011258	0.0013614	0.00037586	824.29	1.364e-05	1.4747e-05	839.43	305.56	1.3427e-05	1.5328e-05	360.08	155.1	128.65	68.007	1.4386e-05	89.686	174.456	-17.514	-30.861	-120.861	8.349	49.285	-121.820	-115.382	-32.914	32.618	-116.586	-112.185	-110.505	-104.656	-17.535	-107.136	-8191	255	
2690.310	1	1	0	0	0.15388	0.25209	0.30261	0.090789	0.18588	0.045471	0.10352	0.2174	0.24453	0.28461	0.15009	0.16493	0.073355	0.3222	0.12805	0.38692	-2.8083	-2.3417	-2.3583	-3.2021	-2.1292	-2.7271	-2.7792	-2.2354	-2.9833	-2.4208	-2.4604	-3.1021	-2.2167	-2.9042	-2.7438	-2.2271	61.416	-27.345	126.994	119.663	136.929	-51.280	-122.427	161.032	225.379	189.317	-120.364	114.297	-45.498	210.573	-67.383	179.193	0.00070363	0.00043463	0.00011428	763.24	2.7763e-06	6.5352e-06	775.74	280.88	4.3514e-06	6.131e-06	331.29	141.45	117.21	61.619	4.3803e-06	81.426	0.0011129	0.001349	0.00036818	825.04	1.3421e-05	1.4773e-05	843.32	306.21	1.3167e-05	1.5077e-05	362.04	155.95	129.04	68.155	1.4306e-05	89.959	173.738	-54.706	-17.759	-120.845	-8.836	23.892	-121.785	-115.421	-15.563	21.169	-116.701	-112.051	-110.373	-104.567	-3.290	-107.136	-8191	255	
2690.406	1	1	0	0	0.35512	0.17692	0.38264	0.067119	0.18315	0.09832	0.15741	0.07766	0.12646	0.12956	0.17743	0.074144	0.17222	0.23826	0.17979	0.046113	-2.4896	-2.4208	-2.1583	-2.9271	-2.0021	-2.6833	-3.0417	-2.0396	-2.8771	-2.4771	-2.4646	-3.0896	-2.4083	-2.7583	-2.9167	-2.1562	217.367	195.377	17.167	-64.416	-58.515	-13.372	158.537	138.746	-85.460	202.878	149.964	38.382	-76.319	165.634	32.445	-76.589	0.00073104	0.00041676	0.00014917	763.51	3.7583e-06	6.4038e-06	775.42	280.66	4.2832e-06	5.3743e-06	329.88	141.24	117.05	61.865	3.3585e-06	81.108	0.0011007	0.0013071	0.00035953	825.38	1.2931e-05	1.4568e-05	841.45	305.83	1.3214e-05	1.4854e-05	360.73	155.23	129	68.119	1.4273e-05	89.594	171.227	-45.846	-38.555	-120.901	5.297	22.421	-121.571	-115.463	-23.105	16.457	-116.608	-112.077	-110.625	-104.657	20.093	-107.189	-8191	255	
2690.527	1	1	0	0	0.053909	0.0028829	0.098693	0.17252	0.021387	0.0853	0.30916	0.065912	0.34758	0.15994	0.21764	0.31848	0.21335	0.10793	0.11247	0.20868	-2.5167	-2.5312	-2.2521	-3.0792	-2.2396	-2.4104	-3.1104	-2.1562	-2.8979	-2.5396	-2.2479	-3.0667	-2.225	-2.4292	-3.0646	-2.2646	-88.486	51.830	-86.646	172.256	-101.834	-49.729	208.583	-50.191	213.418	224.401	194.800	176.186	174.291	-104.551	145.836	171.862	0.0007259	0.0004146	0.00016124	762.02	3.2458e-06	4.3853e-06	773.88	280.11	3.693e-06	5.9282e-06	330.75	141.67	117.39	61.829	4.4592e-06	81.354	0.0010973	0.0013204	0.00036696	824.83	1.3338e-05	1.4429e-05	840.74	305.99	1.3363e-05	1.4886e-05	361.27	155.71	129.16	68.264	1.4339e-05	89.914	175.869	-18.248	-43.171	-120.765	0.195	-7.812	-121.675	-115.535	-12.297	22.797	-116.731	-112.056	-110.485	-104.636	-25.702	-107.159	-8191	255	
2690.598	1	1	0	0	0.13503	0.065139	0.11301	0.21933	0.10449	0.17589	0.028735	0.17009	0.16924	0.039301	0.10082	0.083139	0.10858	0.23328	0.18499	0.12238	-2.3979	-2.6688	-2.0229	-3.0187	-2.7229	-2.375	-3.0854	-2.3333	-2.6583	-2.8104	-2.2	-3.1188	-2.6042	-2.4917	-2.8958	-2.1583	112.191	36.729	-82.560	99.324	107.724	-73.652	164.692	-94.997	205.293	-28.943	-1.781	108.899	-84.082	-111.272	34.662	177.807	0.00070585	0.00064013	0.00016524	760.52	3.1188e-06	5.2339e-06	775.02	279.04	3.415e-06	3.6873e-06	330.93	141.81	117.48	61.918	3.453e-06	81.591	0.0011087	0.0013289	0.00036652	824.66	1.3336e-05	1.473e-05	842.01	305.49	1.3377e-05	1.4616e-05	361.59	155.92	129.33	68.309	1.3779e-05	90.151	174.886	-32.911	-41.688	-120.804	4.648	16.206	-121.681	-115.414	-20.239	19.204	-116.658	-111.970	-110.467	-104.584	-3.499	-107.098	-8191	255	
2690.719	1	1	0	0	0.089961	0.020685	0.11692	0.14319	0.22385	0.15504	0.37681	0.35094	0.26051	0.28379	0.18888	0.2738	0.14028	0.15441	0.26829	0.13059	-2.25	-2.7104	-2.0167	-3.0333	-2.5292	-2.2833	-2.9625	-2.2562	-2.4313	-2.9333	-2.1292	-2.8958	-2.7146	-2.2354	-2.8875	-2.5312	-95.930	161.491	-7.994	-37.172	-35.417	137.467	136.079	-113.159	19.202	97.902	-63.922	198.734	-122.522	138.731	212.728	122.884	0.00070781	0.00059617	0.00010322	765.74	2.5955e-06	5.4042e-06	781.73	280.66	4.4437e-06	4.1478e-06	332.41	140.68	116.96	61.499	4.7203e-06	80.751	0.0011205	0.0013266	0.00036888	829.11	1.3087e-05	1.4584e-05	846.96	306.73	1.3462e-05	1.4607e-05	362.14	155.24	128.73	67.836	1.4145e-05	89.082	172.625	-40.131	-60.833	-120.800	36.488	19.612	-121.506	-115.571	-1.154	19.748	-116.683	-112.095	-110.478	-104.675	-8.639	-107.200	-8191	255	
2690.815	1	1	0	0	0.080235	0.15916	0.31393	0.22495	0.13273	0.16707	0.15372	0.14067	0.21285	0.26359	0.062034	0.10663	0.14479	0.24791	0.11741	0.27835	-2.1021	-2.9271	-2.0104	-2.8396	-2.7521	-2.2167	-3.2146	-2.3292	-2.4146	-3.1375	-2.0958	-2.7562	-2.8479	-2.2458	-2.8021	-2.6792	-17.394	148.741	29.736	-109.679	-4.747	55.877	128.381	-66.002	213.748	226.107	-58.346	109.944	118.573	-102.394	-117.913	-98.700	0.00070881	0.00048522	0.00011207	765.91	3.6131e-06	5.956e-06	775.78	281.48	3.2186e-06	4.2551e-06	329.29	140.42	116.73	61.491	3.6729e-06	81.077	0.0011173	0.0013077	0.00036934	827.13	1.3118e-05	1.4851e-05	842.09	306.08	1.3717e-05	1.4588e-05	360.12	154.62	128.73	67.97	1.3922e-05	89.479	171.451	-32.957	-19.031	-120.769	-15.412	17.446	-121.525	-115.483	-31.598	38.779	-116.845	-112.015	-110.490	-104.672	6.464	-107.211	-8191	255	
2690.909	1	1	0	0	0.092408	0.1047	0.13798	0.37748	0.10672	0.12915	0.11073	0.21547	0.076708	0.090899	0.12045	0.20221	0.14561	0.32838	0.16883	0.098846	-1.9271	-2.9917	-2.0521	-2.9688	-2.8542	-1.9562	-3	-2.7104	-2.3792	-2.9146	-2.3	-2.5312	-2.8208	-2.15	-2.9562	-2.5854	155.054	33.425	-9.567	186.869	-78.970	-33.871	-94.323	164.796	42.713	-61.695	-13.532	-101.059	-96.169	-78.636	-62.100	194.077	0.00072555	0.00057118	0.0001348	761.21	5.4349e-06	5.6298e-06	773.14	279.79	3.2208e-06	4.9266e-06	331.29	141.53	117.57	62.112	3.5955e-06	81.887	0.001127	0.0012971	0.00037166	823.46	1.3064e-05	1.5092e-05	839.81	306.01	1.3541e-05	1.4433e-05	361.74	156.05	129.36	68.559	1.3933e-05	90.542	171.726	-48.496	-49.857	-120.851	3.779	7.341	-121.721	-115.461	2.300	37.347	-116.691	-111.763	-110.392	-104.792	-7.974	-107.148	-8191	255	
2691.006	1	1	0	0	0.17953	0.12119	0.051681	0.048861	0.25969	0.11543	0.04663	0.28524	0.27123	0.22747	0.0821	0.18303	0.09611	0.016491	0.091727	0.25167	-1.8	-3.0542	-2.0563	-2.4083	-2.9167	-2.0417	-3.0438	-2.7875	-2.1958	-2.9542	-2.3042	-2.3854	-2.9896	-2.2646	-2.6	-3.05	43.049	219.330	101.094	162.806	-103.115	43.575	16.675	172.639	17.427	-100.477	-13.304	-47.339	190.052	56.616	221.835	170.595	0.00069061	0.00032311	0.00014714	757.57	2.5194e-06	5.8802e-06	771.25	280.14	3.8616e-06	4.0517e-06	333.21	143.5	118.74	63.094	3.3177e-06	83.355	0.0011198	0.0012711	0.00036649	821.35	1.307e-05	1.4584e-05	838.4	306.77	1.3636e-05	1.4365e-05	363.38	157.77	130.71	69.544	1.4188e-05	91.933	172.202	-36.777	-55.491	-120.956	-14.773	26.018	-121.738	-115.569	-18.414	29.319	-116.845	-112.084	-110.441	-104.743	-24.946	-107.192	-8191	255	
2691.103	1	1	0	0	0.23314	0.16685	0.30606	0.18637	0.28051	0.23665	0.14041	0.21239	0.27723	0.082688	0.33011	0.053693	0.1954	0.40278	0.33686	0.090071	-1.6104	-2.7896	-2.3292	-2.5938	-2.9604	-2.1583	-2.9083	-2.8083	-1.9771	-3.0896	-2.4437	-2.4271	-3.0333	-2.1625	-2.7583	-2.9813	-6.531	-10.982	-22.094	163.846	-126.942	67.269	-77.889	130.015	86.203	120.737	161.727	71.914	167.812	196.046	39.898	78.702	0.00074431	0.00048529	0.00013135	756.41	3.9963e-06	5.8392e-06	770.01	282.54	3.2054e-06	5.9163e-06	332.42	142.86	118.79	63.057	4.3605e-06	82.995	0.0011095	0.001285	0.00036118	820.57	1.297e-05	1.4757e-05	838.14	308.08	1.3852e-05	1.5072e-05	362.92	157.54	131.02	69.748	1.5249e-05	91.642	172.544	-41.003	-36.973	-121.076	3.820	22.037	-121.440	-115.598	-16.658	10.431	-116.873	-112.283	-110.547	-105.110	-15.034	-107.417	-8191	255	
2691.198	1	1	0	0	0.12196	0.079945	0.071206	0.16308	0.11352	0.11125	0.091983	0.18635	0.19634	0.10279	0.079583	0.32469	0.062295	0.11305	0.064112	0.055665	-1.7188	-2.9792	-2.6417	-2.3625	-3.0042	-2.2604	-2.6333	-2.9125	-1.9417	-2.9396	-2.5187	-2.2729	-3.0917	-2.3604	-2.6854	-2.9562	50.108	157.801	109.802	219.829	-110.118	-26.925	-127.962	224.098	44.307	142.427	61.979	207.038	145.313	-84.505	24.114	47.147	0.00073904	0.00069294	0.00013589	754.65	4.1259e-06	3.8425e-06	765.92	280.94	4.3289e-06	4.495e-06	331.99	142.73	118.29	62.905	5.0587e-06	82.819	0.0011787	0.0013915	0.00039158	816.82	1.3773e-05	1.591e-05	834.66	306.93	1.492e-05	1.5994e-05	362.74	157.12	130.68	69.504	1.5874e-05	91.478	174.521	-40.721	-43.635	-120.967	-4.389	9.794	-121.741	-115.471	-17.686	4.811	-116.939	-112.327	-110.686	-104.918	-30.633	-107.577	-8191	255	
2691.294	1	1	0	0	0.13261	0.16776	0.3927	0.27574	0.2769	0.085354	0.18868	0.12526	0.20242	0.27056	0.15057	0.3107	0.090553	0.21387	0.25956	0.17237	-1.8208	-2.8354	-2.4604	-2.2354	-2.9188	-2.2708	-2.4292	-3.0542	-2.1417	-2.8708	-2.6917	-2.0812	-2.9792	-2.4813	-2.2313	-3.1771	-111.375	154.822	-73.035	190.473	-40.724	138.424	112.964	218.931	73.114	-40.153	33.714	214.514	-44.024	116.522	141.440	121.482	0.00072126	0.00052849	0.00011697	754.15	4.4751e-06	5.5037e-06	768.56	282.1	3.5899e-06	5.0934e-06	333.3	143.19	118.79	63.002	4.3378e-06	83.031	0.0012019	0.0014131	0.00040318	817.18	1.4145e-05	1.6051e-05	835.93	307.65	1.4922e-05	1.5859e-05	363.93	157.98	131.05	69.664	1.5789e-05	91.943	171.924	-46.314	-12.506	-121.075	3.568	27.784	-121.483	-115.560	-15.044	16.960	-116.759	-112.232	-110.725	-104.887	11.094	-107.411	-8191	255	
2691.390	1	1	0	0	0.10073	0.050147	0.078665	0.09104	0.20533	0.13629	0.094454	0.12974	0.29939	0.21598	0.026604	0.09304	0.30046	0.31162	0.15426	0.17636	-1.7875	-2.7208	-2.7	-2.2396	-2.9437	-2.5042	-2.325	-3.0938	-2.1417	-2.7208	-2.8812	-2.0729	-2.9771	-2.4854	-2.2271	-3.0187	-11.018	-42.762	109.389	-75.610	219.510	63.101	-0.652	21.503	-132.851	193.360	141.813	203.671	185.210	177.313	137.176	159.684	0.00073422	0.00055872	0.00015954	756.1	3.1523e-06	5.9735e-06	771.7	282.72	4.1797e-06	7.1787e-06	334.31	144.29	119.51	63.417	5.0493e-06	83.693	0.0011993	0.0014343	0.00039198	819.37	1.4231e-05	1.5949e-05	838.14	308.81	1.4996e-05	1.6261e-05	365.56	158.67	131.69	70.199	1.6053e-05	92.326	174.174	-30.861	-47.712	-120.999	-4.995	13.494	-121.691	-115.531	-25.778	31.223	-117.086	-112.162	-110.553	-105.030	-9.525	-107.327	-8191	255	
2691.486	1	1	0	0	0.13948	0.23785	0.053284	0.17546	0.18388	0.27247	0.20711	0.31532	0.16051	0.058252	0.074514	0.29876	0.10059	0.086685	0.16283	0.10581	-1.9167	-2.7562	-2.8729	-2.0979	-2.8854	-2.4792	-2.4562	-3.1437	-2.0854	-2.4521	-2.9521	-2.2542	-3.0583	-2.9333	-2.1646	-3.1229	-98.112	-22.793	208.674	214.386	202.688	-28.705	-45.123	179.294	211.794	80.027	-47.093	175.612	-117.658	159.240	-66.215	162.357	0.0007011	0.00054637	0.00017612	753.74	4.6273e-06	5.8598e-06	767.63	281.55	3.8951e-06	5.9704e-06	333.89	143.59	119.5	63.513	2.8218e-06	83.534	0.0012242	0.0014772	0.00039634	816.25	1.4622e-05	1.6555e-05	834.52	307.67	1.5178e-05	1.6547e-05	363.47	158.11	131.52	70.049	1.607e-05	92.21	170.855	-34.843	-52.169	-120.952	-5.292	22.600	-121.647	-115.598	-5.160	22.868	-116.794	-112.155	-110.626	-104.945	22.550	-107.242	-8191	255	
2691.607	1	1	0	0	0.098183	0.22676	0.10431	0.21899	0.11841	0.26204	0.059672	0.094535	0.17615	0.092724	0.14392	0.18262	0.18501	0.19893	0.21261	0.28042	-1.9542	-2.3708	-2.8958	-2.2042	-2.4875	-2.7313	-2.2292	-3.0354	-2.475	-2.525	-3.1646	-2.0833	-2.7667	-2.975	-1.9771	-3.1021	-98.108	-112.889	24.224	165.108	125.820	196.604	126.325	184.781	147.706	204.260	134.827	-113.958	-116.054	-54.581	98.125	163.020	0.00073159	0.00068958	0.00016118	751.69	4.8281e-06	5.6683e-06	765.42	281.8	3.2718e-06	4.3801e-06	333.43	143.54	119.45	63.472	4.2339e-06	83.777	0.0012108	0.0014739	0.00039227	814.97	1.4473e-05	1.6167e-05	833.35	307.27	1.4953e-05	1.6456e-05	364.21	158.32	131.63	70.099	1.586e-05	92.528	171.389	-35.577	-49.810	-120.913	35.117	18.362	-121.548	-115.213	-25.643	11.786	-116.679	-112.000	-110.424	-104.803	10.445	-107.145	-8191	255	
2691.703	1	1	0	0	0.11903	0.22017	0.21213	0.073959	0.037506	0.09328	0.0708	0.17114	0.16738	0.17958	0.20478	0.32247	0.15893	0.35379	0.17037	0.11711	-1.9708	-2.2667	-2.8625	-2.2625	-2.6125	-2.7687	-2.1021	-2.9271	-2.3937	-2.2875	-2.9313	-2.2417	-2.7479	-3.0708	-2.2479	-2.9813	206.337	218.092	-30.778	69.811	0.350	-18.398	35.106	222.571	169.433	136.558	146.717	-103.430	214.186	-80.469	-90.895	197.729	0.00072136	0.00060217	0.00015644	751.68	4.4892e-06	4.8181e-06	765.56	281.84	4.2955e-06	7.2526e-06	333.55	144.1	119.64	63.317	5.0418e-06	83.967	0.0011987	0.0014689	0.00038832	814.24	1.4442e-05	1.5568e-05	835.27	307.88	1.4576e-05	1.6268e-05	364.88	158.7	131.75	70.056	1.6059e-05	92.577	171.865	-39.927	-28.618	-120.758	6.871	29.173	-121.487	-115.283	-11.055	8.170	-116.552	-112.048	-110.409	-104.581	22.606	-107.078	-8191	255	
2691.799	1	1	0	0	0.13607	0.20734	0.2848	0.25112	0.063866	0.085138	0.41272	0.22578	0.26339	0.13002	0.20216	0.22326	0.2625	0.077249	0.045626	0.36051	-2.1292	-2.2542	-2.9083	-2.4938	-2.4708	-2.9354	-2.1104	-2.9562	-2.9208	-2.0542	-3.0792	-2.5062	-2.4458	-3.1354	-2.1208	-3.1042	65.745	185.312	-31.980	162.713	192.972	165.447	175.118	191.440	194.391	65.654	226.533	82.623	-127.611	154.470	121.392	106.611	0.00075046	0.00041376	0.00013379	754.67	3.152e-06	4.2041e-06	768.34	281.53	3.7481e-06	5.2537e-06	332.36	142.94	118.75	62.859	3.6428e-06	82.617	0.0011935	0.0014691	0.00038784	817.85	1.4345e-05	1.5823e-05	835.81	307.77	1.4476e-05	1.65e-05	363.49	157.6	130.92	69.574	1.6155e-05	91.312	170.565	-72.100	-43.072	-120.854	0.716	22.974	-121.347	-115.409	-37.390	9.241	-116.621	-112.084	-110.338	-104.607	-11.661	-107.104	-8191	255	
2691.895	1	1	0	0	0.035184	0.15027	0.27554	0.080152	0.069319	0.21086	0.21951	0.18187	0.15085	0.10453	0.068389	0.44907	0.35417	0.27038	0.091756	0.093525	-2.4729	-1.9604	-2.9188	-2.5396	-2.3479	-3.0875	-2.0938	-2.5438	-2.6833	-2.025	-3.0896	-2.4833	-2.4104	-3.1146	-2.1188	-2.8333	208.683	36.299	-97.973	124.801	86.011	119.317	220.074	215.442	-66.076	136.320	-113.103	190.557	187.255	224.016	194.061	49.729	0.00073513	0.00051759	0.00015732	753.44	3.595e-06	4.663e-06	766.5	281.23	3.8517e-06	4.698e-06	329.73	142.25	117.99	62.578	6.5611e-06	82.248	0.001195	0.0014847	0.00039918	816.75	1.4585e-05	1.5996e-05	834.09	306.89	1.4962e-05	1.6694e-05	362.49	156.78	130.24	69.092	1.5993e-05	91.066	173.516	-32.491	-44.091	-120.822	-16.286	7.335	-121.644	-115.369	-31.386	41.523	-116.755	-111.824	-110.510	-104.745	-11.106	-107.127	-8191	255	
2691.992	1	1	0	0	0.31413	0.28806	0.1185	0.047153	0.17244	0.049757	0.071264	0.26499	0.025406	0.20567	0.2333	0.16021	0.15398	0.11486	0.19428	0.189	-2.5021	-2.2104	-2.825	-2.5646	-2.4604	-3.0771	-2.3521	-2.6792	-2.9542	-2.1833	-2.8021	-2.7875	-2.1625	-3.0896	-2.2208	-2.725	-33.088	25.042	-77.801	69.554	116.487	-29.543	81.255	105.572	-72.330	50.097	197.193	186.208	154.654	-111.107	4.215	123.905	0.00072417	0.00055234	0.00016745	755.23	2.0306e-06	7.3679e-06	772.82	280.88	2.8469e-06	6.1338e-06	331.36	142.16	117.79	62.303	4.0292e-06	82.036	0.0011801	0.0014529	0.00039816	817.28	1.428e-05	1.5703e-05	836.37	306.26	1.4287e-05	1.6569e-05	362.24	156.57	129.71	68.683	1.548e-05	90.702	172.848	-60.100	-55.444	-120.675	-16.376	26.164	-121.661	-115.435	-22.500	15.976	-116.646	-112.058	-110.389	-104.673	-13.047	-107.085	-8191	255	
2692.088	1	1	0	0	0.1227	0.13245	0.051092	0.3472	0.081279	0.1055	0.37333	0.35495	0.27701	0.17802	0.25207	0.11898	0.35981	0.11256	0.19632	0.13646	-2.7083	-2.1125	-2.8958	-2.65	-1.9875	-2.9688	-2.4729	-2.5125	-3.0729	-2.2875	-2.8083	-2.6458	-2.3083	-3.0083	-2.4042	-2.4437	-100.275	29.320	-128.948	101.104	13.227	-118.088	177.293	-70.448	3.623	-107.157	-1.060	131.076	-120.531	4.004	225.091	-37.743	0.00071236	0.00053793	0.00014688	754.47	4.8102e-06	5.5789e-06	773.29	280.09	5.0675e-06	6.5816e-06	330.6	141.37	116.38	61.336	4.304e-06	81.037	0.0011536	0.0014146	0.0003864	817.03	1.4112e-05	1.5044e-05	838.59	305.29	1.3827e-05	1.5802e-05	361.58	155.76	128.45	67.771	1.5098e-05	89.653	173.733	-43.532	-31.655	-121.074	11.759	19.721	-121.583	-115.425	-18.875	11.943	-116.528	-112.105	-110.401	-104.725	-10.451	-107.091	-8191	255	
2692.207	1	1	0	0	0.082282	0.10556	0.12772	0.12807	0.15971	0.4182	0.20139	0.12731	0.28601	0.089281	0.064455	0.30613	0.25464	0.07311	0.13471	0.15363	-2.5646	-2.025	-2.7583	-2.8	-1.9875	-2.9208	-2.7062	-2.4896	-2.9125	-2.1708	-2.7646	-3.05	-2.2792	-3.0563	-2.7229	-2.2854	215.880	121.254	169.297	199.055	160.164	18.820	196.228	125.964	-21.219	-58.488	17.300	-9.253	201.203	129.831	127.988	189.492	0.00074047	0.00053611	9.7334e-05	750.81	4.2473e-06	4.5772e-06	766.11	276.93	4.0038e-06	6.9422e-06	327.48	139.68	115.37	60.492	3.232e-06	80.363	0.0011316	0.001391	0.00037246	813.7	1.3989e-05	1.5161e-05	832.23	302.55	1.384e-05	1.552e-05	357.57	153.95	127.11	66.964	1.4769e-05	88.716	172.797	-50.123	-32.208	-120.913	9.127	1.526	-121.584	-115.310	-18.619	14.420	-116.507	-112.105	-110.454	-104.591	-10.398	-107.085	-8191	255	
2692.303	1	1	0	0	0.094568	0.13486	0.17521	0.18836	0.14351	0.014593	0.21983	0.17008	0.06268	0.37211	0.22514	0.17798	0.22165	0.078259	0.12824	0.42616	-2.7667	-2.0687	-2.4458	-3.0167	-1.9521	-2.8417	-2.6771	-2.1396	-2.8729	-2.3083	-2.5083	-3.0146	-2.1	-2.8875	-2.8417	-2.1063	-20.631	-131.307	27.174	128.804	-104.938	96.052	188.768	-115.939	136.787	184.464	101.216	-106.193	187.869	-2.016	-35.036	132.024	0.00069362	0.00049252	0.00013534	754.22	2.909e-06	6.1949e-06	767.42	276.49	3.9797e-06	5.5705e-06	329.17	140.72	115.82	60.714	4.867e-06	80.377	0.0011208	0.0013503	0.00037802	813.99	1.3622e-05	1.4715e-05	833.73	302.24	1.3653e-05	1.5237e-05	358.93	154.4	127.5	67.073	1.4528e-05	89.059	171.416	-47.504	-50.634	-120.954	-17.081	36.596	-121.754	-115.241	1.041	12.503	-116.776	-111.992	-110.511	-104.707	-18.224	-106.969	-8191	255	
2692.399	1	1	0	0	0.23521	0.18607	0.20335	0.082137	0.16253	0.23007	0.08611	0.18095	0.19311	0.10854	0.15023	0.1203	0.26614	0.13644	0.14961	0.20449	-2.5542	-2.2083	-2.2479	-3.0729	-2.0062	-2.7729	-2.7438	-2.2812	-2.7833	-2.2667	-2.4021	-3.075	-2.2521	-2.9125	-2.6437	-2.1125	-37.138	74.354	-21.071	217.890	131.709	18.030	92.576	175.155	63.979	-15.398	-61.435	-14.674	197.133	163.056	192.873	204.362	0.00069713	0.00064123	0.00011853	751.42	4.7243e-06	4.7563e-06	768.13	276.43	4.4467e-06	5.2201e-06	328.73	140.93	115.44	60.569	5.7609e-06	80.882	0.0011036	0.0013469	0.00036976	813.57	1.3435e-05	1.4806e-05	836.02	302.12	1.3237e-05	1.4907e-05	359.2	154.94	127.44	66.859	1.4271e-05	89.209	171.862	-42.132	-46.211	-120.816	0.876	28.312	-121.564	-115.441	-41.666	33.266	-116.682	-111.880	-110.501	-104.537	-0.130	-106.972	-8191	255	
2692.495	1	1	0	0	0.18301	0.11625	0.17378	0.14201	0.21921	0.11204	0.29757	0.085407	0.10922	0.10496	0.082174	0.14425	0.14034	0.24875	0.087738	0.12746	-2.5875	-2.4	-2.2042	-3.0354	-2.2042	-2.6271	-2.9437	-2.3458	-2.7792	-2.5771	-2.3812	-3.1333	-2.3208	-2.7438	-2.95	-2.3083	-28.233	152.107	-104.326	198.262	6.550	75.270	119.702	146.454	-105.673	27.068	169.307	90.253	205.583	189.278	-119.655	146.748	0.00072808	0.00044543	0.00014851	754.9	3.5982e-06	6.1098e-06	772.73	276	3.326e-06	6.0885e-06	329.35	139.83	115.3	60.478	3.4979e-06	80.291	0.0010971	0.0013023	0.00036791	815.71	1.3116e-05	1.4781e-05	838.91	301.88	1.3306e-05	1.4991e-05	359.01	154.19	127.16	66.755	1.4297e-05	88.698	172.409	-36.770	-39.487	-120.739	19.969	42.063	-121.586	-115.144	-10.320	20.356	-116.536	-111.848	-110.505	-104.561	28.477	-107.133	-8191	255	
#DATA ENDS
