BOXY.EXE: ISS Imagent and Oximeter Data Acquisition Program Version 0.80
Ascii Record File

#ACQ INFORMATION
2  Detector Channels 
16  External MUX Channels 
1  Auxiliary Channels 
5000  Waveform (CCF) Frequency (Hz)
1  Waveforms Skipped 
30  Waveforms Averaged 
1  Cycles Averaged 
16  Acquisitions per Waveform 
10.0806  Updata Rate (Hz) 

#FILE INFORMATION
TRUE -- External MUX Channel results are PARSED.
FALSE -- AC DC and Phase are NOT grouped.
TRUE -- Companion Program Settings File CREATED.
FALSE -- AC data not excluded
FALSE -- DC data not excluded
FALSE -- Phase data not excluded
FALSE -- Auxillary Chn. data not excluded
Tab delimiters

#CALIBRATION STATE
TRUE -- Waveform Calibration Values APPLIED.


#AUX CALIBRATION VALUES
Val Type	aux-1	

Term	1.0000e+00	
Factor	0.0000e+00	


#WF CALIBRATION VALUES
A = Detector Channel
Val Type	A-AC1	A-AC2	A-AC3	A-AC4	A-AC5	A-AC6	A-AC7	A-AC8	A-AC9	A-AC10	A-AC11	A-AC12	A-AC13	A-AC14	A-AC15	A-AC16	A-DC1	A-DC2	A-DC3	A-DC4	A-DC5	A-DC6	A-DC7	A-DC8	A-DC9	A-DC10	A-DC11	A-DC12	A-DC13	A-DC14	A-DC15	A-DC16	A-Ph1	A-Ph2	A-Ph3	A-Ph4	A-Ph5	A-Ph6	A-Ph7	A-Ph8	A-Ph9	A-Ph10	A-Ph11	A-Ph12	A-Ph13	A-Ph14	A-Ph15	A-Ph16	

Term	0.00000e+00	0.00000e+00	0.00000e+00	0.00000e+00	0.00000e+00	0.00000e+00	0.00000e+00	0.00000e+00	0.00000e+00	0.00000e+00	0.00000e+00	0.00000e+00	0.00000e+00	0.00000e+00	0.00000e+00	0.00000e+00	0.00000e+00	0.00000e+00	0.00000e+00	0.00000e+00	0.00000e+00	0.00000e+00	0.00000e+00	0.00000e+00	0.00000e+00	0.00000e+00	0.00000e+00	0.00000e+00	0.00000e+00	0.00000e+00	0.00000e+00	0.00000e+00	0.00000e+00	0.00000e+00	0.00000e+00	0.00000e+00	0.00000e+00	0.00000e+00	0.00000e+00	0.00000e+00	0.00000e+00	0.00000e+00	0.00000e+00	0.00000e+00	0.00000e+00	0.00000e+00	0.00000e+00	0.00000e+00	
Factor	1.00000e+00	1.00000e+00	1.00000e+00	1.00000e+00	1.00000e+00	1.00000e+00	1.00000e+00	1.00000e+00	1.00000e+00	1.00000e+00	1.00000e+00	1.00000e+00	1.00000e+00	1.00000e+00	1.00000e+00	1.00000e+00	1.00000e+00	1.00000e+00	1.00000e+00	1.00000e+00	1.00000e+00	1.00000e+00	1.00000e+00	1.00000e+00	1.00000e+00	1.00000e+00	1.00000e+00	1.00000e+00	1.00000e+00	1.00000e+00	1.00000e+00	1.00000e+00	X	X	X	X	X	X	X	X	X	X	X	X	X	X	X	X	

B = Detector Channel
Val Type	B-AC1	B-AC2	B-AC3	B-AC4	B-AC5	B-AC6	B-AC7	B-AC8	B-AC9	B-AC10	B-AC11	B-AC12	B-AC13	B-AC14	B-AC15	B-AC16	B-DC1	B-DC2	B-DC3	B-DC4	B-DC5	B-DC6	B-DC7	B-DC8	B-DC9	B-DC10	B-DC11	B-DC12	B-DC13	B-DC14	B-DC15	B-DC16	B-Ph1	B-Ph2	B-Ph3	B-Ph4	B-Ph5	B-Ph6	B-Ph7	B-Ph8	B-Ph9	B-Ph10	B-Ph11	B-Ph12	B-Ph13	B-Ph14	B-Ph15	B-Ph16	

Term	0.00000e+00	0.00000e+00	0.00000e+00	0.00000e+00	0.00000e+00	0.00000e+00	0.00000e+00	0.00000e+00	0.00000e+00	0.00000e+00	0.00000e+00	0.00000e+00	0.00000e+00	0.00000e+00	0.00000e+00	0.00000e+00	0.00000e+00	0.00000e+00	0.00000e+00	0.00000e+00	0.00000e+00	0.00000e+00	0.00000e+00	0.00000e+00	0.00000e+00	0.00000e+00	0.00000e+00	0.00000e+00	0.00000e+00	0.00000e+00	0.00000e+00	0.00000e+00	-1.55424e+02	-1.27235e+02	-1.24166e+02	-1.80391e+02	-7.40752e+01	-6.35377e+01	-1.56642e+02	-1.62015e+02	-7.80018e+01	-6.24457e+01	-1.75242e+02	-1.71364e+02	-1.79620e+02	-1.76316e+02	-7.26602e+01	-1.49562e+02	
Factor	2.32168e-05	1.44619e-04	3.90176e-05	1.53962e-01	1.28637e-06	1.68364e-06	1.74380e-01	5.13261e-02	1.26631e-06	1.62331e-06	9.43026e-02	3.18907e-02	2.43581e-02	9.34159e-03	1.41395e-06	1.29416e-02	1.42752e-05	2.56240e-05	7.09592e-06	7.92124e-02	2.49870e-07	2.88134e-07	8.45014e-02	2.65240e-02	2.52790e-07	2.91573e-07	4.71960e-02	1.60623e-02	1.27823e-02	4.86681e-03	2.69113e-07	6.54773e-03	X	X	X	X	X	X	X	X	X	X	X	X	X	X	X	X	



#DISTANCE SETTINGS
A = Detector Channel
A-1	A-2	A-3	A-4	A-5	A-6	A-7	A-8	A-9	A-10	A-11	A-12	A-13	A-14	A-15	A-16	

2.5000e+00	3.0000e+00	2.5000e+00	3.0000e+00	2.0000e+00	3.0000e+00	1.5000e+00	3.0000e+00	3.0000e+00	3.0000e+00	3.0000e+00	3.0000e+00	3.0000e+00	3.0000e+00	1.5000e+00	3.0000e+00	

B = Detector Channel
B-1	B-2	B-3	B-4	B-5	B-6	B-7	B-8	B-9	B-10	B-11	B-12	B-13	B-14	B-15	B-16	

1.0000e+01	1.0000e+01	1.0000e+01	1.4400e+00	1.0000e+01	1.0000e+01	1.5100e+00	1.9400e+00	1.0000e+01	1.0000e+01	1.9900e+00	2.4900e+00	2.4100e+00	2.9000e+00	1.0000e+01	2.9800e+00	




#DATA BEGINS
time	group	step	mark	flag	A-AC1	A-AC2	A-AC3	A-AC4	A-AC5	A-AC6	A-AC7	A-AC8	A-AC9	A-AC10	A-AC11	A-AC12	A-AC13	A-AC14	A-AC15	A-AC16	A-DC1	A-DC2	A-DC3	A-DC4	A-DC5	A-DC6	A-DC7	A-DC8	A-DC9	A-DC10	A-DC11	A-DC12	A-DC13	A-DC14	A-DC15	A-DC16	A-Ph1	A-Ph2	A-Ph3	A-Ph4	A-Ph5	A-Ph6	A-Ph7	A-Ph8	A-Ph9	A-Ph10	A-Ph11	A-Ph12	A-Ph13	A-Ph14	A-Ph15	A-Ph16	B-AC1	B-AC2	B-AC3	B-AC4	B-AC5	B-AC6	B-AC7	B-AC8	B-AC9	B-AC10	B-AC11	B-AC12	B-AC13	B-AC14	B-AC15	B-AC16	B-DC1	B-DC2	B-DC3	B-DC4	B-DC5	B-DC6	B-DC7	B-DC8	B-DC9	B-DC10	B-DC11	B-DC12	B-DC13	B-DC14	B-DC15	B-DC16	B-Ph1	B-Ph2	B-Ph3	B-Ph4	B-Ph5	B-Ph6	B-Ph7	B-Ph8	B-Ph9	B-Ph10	B-Ph11	B-Ph12	B-Ph13	B-Ph14	B-Ph15	B-Ph16	aux-1	digaux	

2404.546	1	1	0	256	0.036868	0.18984	0.10515	0.24385	0.13271	0.16524	0.37071	0.10682	0.0448	0.064977	0.099214	0.47148	0.25315	0.13113	0.21926	0.14259	-2.4208	-2.9188	-2.1833	-3.3146	-2.6167	-2.4021	-3.4667	-2.4729	-2.8458	-3.0917	-2.4208	-3.0438	-2.9167	-2.5896	-3.0125	-2.525	237.519	39.312	149.007	246.212	67.182	132.843	209.603	-75.398	156.317	193.952	211.856	246.443	111.807	-49.147	178.128	-64.401	0.00020852	0.00033993	0.0001331	1522.7	2.1881e-06	6.2166e-06	1511.8	397.02	2.1344e-06	6.2781e-06	452.47	151.65	132.17	45.218	5.2704e-06	55.708	0.00050023	0.00054205	0.00015994	1528.1	6.0073e-06	5.9115e-06	1518.3	400.55	6.2265e-06	5.9706e-06	456.31	154.17	134.43	45.868	6.3909e-06	56.806	143.512	-8.642	22.234	-65.121	54.249	86.858	-65.484	-60.765	69.491	88.144	-61.217	-57.089	-56.457	-51.867	95.990	-52.430	-8191	255	
2404.667	1	1	0	0	0.11768	0.038849	0.1035	0.24043	0.21346	0.17912	0.43998	0.21405	0.17917	0.15748	0.094627	0.21774	0.12525	0.13626	0.1713	0.16086	-2.2583	-2.9979	-2.0625	-3.225	-2.675	-2.3146	-3.2792	-2.6312	-2.5833	-3.1354	-2.4542	-3.05	-3.0646	-2.4625	-3.0625	-2.5792	-42.591	255.719	-20.687	242.862	153.564	135.787	241.667	197.742	-2.201	150.231	212.180	154.576	-38.830	-39.826	118.237	64.091	0.00021021	0.00041319	0.00012357	1523	4.4783e-06	6.0502e-06	1509.6	398.91	3.9838e-06	6.1446e-06	454.25	151.26	132.14	45.096	4.4549e-06	55.796	0.00049065	0.00053864	0.00015673	1530	6.1416e-06	6.2417e-06	1519	401.37	6.3435e-06	5.9129e-06	456.81	154.32	134.43	45.906	6.2423e-06	56.947	153.618	13.008	29.112	-65.143	71.866	76.638	-65.256	-60.860	34.735	72.566	-61.206	-56.934	-56.574	-51.547	81.321	-52.148	-8191	255	
2404.738	1	1	0	0	0.20952	0.15706	0.15594	0.12249	0.2728	0.10435	0.27526	0.20064	0.23925	0.089676	0.21193	0.38677	0.326	0.063284	0.12214	0.069687	-1.9937	-3.0062	-2.2438	-3.025	-3.0375	-2.2479	-3.3021	-2.8167	-2.5125	-3.1625	-2.3667	-2.7792	-3.0083	-2.275	-2.9833	-2.8063	278.557	42.071	187.520	240.616	139.892	19.627	228.397	240.756	271.595	-10.307	221.219	-29.045	-62.769	242.502	-34.936	87.263	0.00018831	0.00058859	0.00016358	1530.7	3.4255e-06	4.4763e-06	1514.4	398.42	3.3543e-06	4.2532e-06	453.12	151.66	132.57	45.35	4.459e-06	55.969	0.00049978	0.00057873	0.00015932	1535	6.0568e-06	6.4494e-06	1523.4	401.54	6.473e-06	5.9687e-06	456.35	154.44	134.78	46.011	6.1369e-06	56.921	152.335	1.752	5.930	-64.966	78.353	71.028	-65.262	-60.916	33.757	76.204	-60.956	-56.995	-56.649	-51.630	67.296	-52.325	-8191	255	
2404.859	1	1	0	0	0.15381	0.13294	0.12137	0.29184	0.2715	0.13795	0.024486	0.3247	0.0095609	0.24276	0.24249	0.062864	0.10451	0.089292	0.1663	0.20904	-1.7854	-2.9521	-2.3104	-2.9125	-3.0458	-2.1813	-3.1417	-3.0104	-2.2021	-3.0083	-2.4854	-2.725	-3.2062	-2.2062	-2.8937	-2.9021	176.472	-76.218	175.535	247.641	-22.891	146.036	231.912	234.114	3.509	198.559	223.397	49.657	-76.014	271.966	132.799	255.910	0.00017798	0.00055106	0.00013894	1532.1	2.8853e-06	5.0095e-06	1516.6	396.62	2.3941e-06	6.0879e-06	449.62	151.45	131.66	44.875	3.6155e-06	55.83	0.00052622	0.00057195	0.00016143	1534.6	6.2712e-06	6.4764e-06	1526.7	401.49	6.345e-06	6.2318e-06	456.66	154.33	134.5	45.93	6.2793e-06	57	152.398	10.353	15.056	-65.239	65.538	68.407	-65.324	-60.750	38.472	68.844	-61.410	-57.445	-56.618	-51.863	58.468	-52.319	-8191	255	
2404.955	1	1	0	0	0.12311	0.10073	0.1095	0.21088	0.061391	0.1501	0.20549	0.26049	0.32825	0.24081	0.23486	0.16259	0.042641	0.030948	0.15903	0.15792	-1.7792	-3.0563	-2.4271	-2.7104	-2.9792	-2.2396	-3.0479	-3.1021	-2.2021	-3.0521	-2.5521	-2.7125	-3.2917	-2.2146	-2.875	-2.8708	199.638	-53.120	86.227	185.100	262.666	64.231	224.391	229.993	238.522	262.482	174.495	234.117	263.699	77.448	-8.612	219.909	0.00022114	0.00045466	0.00014224	1522	4.1636e-06	5.0387e-06	1500.5	395.69	3.1608e-06	4.0477e-06	450.77	151.42	132.22	45.28	2.778e-06	55.701	0.00052197	0.00056538	0.00015744	1532	6.2145e-06	6.3407e-06	1522.2	401.82	6.7706e-06	6.1394e-06	456.46	154.73	134.65	46.049	6.3006e-06	57.056	152.948	48.970	6.280	-65.184	87.316	70.128	-65.139	-60.821	51.192	75.598	-61.247	-57.026	-56.461	-51.884	66.912	-52.312	-8191	255	
2405.050	1	1	0	0	0.29595	0.13222	0.1661	0.11573	0.03622	0.33949	0.12564	0.19301	0.25446	0.10422	0.28636	0.25093	0.12262	0.13673	0.2717	0.12768	-1.8813	-3.0687	-2.6333	-2.5229	-3.1167	-2.3417	-2.9417	-2.9521	-2.3375	-2.975	-2.7375	-2.4313	-3.2729	-2.4458	-2.7438	-3.0104	257.115	111.749	130.581	249.715	-24.955	170.115	240.030	211.784	278.704	82.678	214.648	193.701	141.237	56.206	-49.899	-14.427	0.00020286	0.0004584	0.00012255	1521	2.5637e-06	5.5526e-06	1513.5	398.22	3.614e-06	4.6941e-06	452.6	151.37	132.79	44.973	3.8542e-06	55.442	0.00053062	0.00057558	0.00015178	1531.7	6.2275e-06	6.6721e-06	1524	402.36	6.7542e-06	6.3745e-06	456.88	154.73	134.84	46.03	6.5462e-06	57.029	148.348	3.693	3.505	-65.159	51.048	62.107	-65.252	-60.790	62.156	69.207	-60.896	-56.805	-56.201	-51.692	77.256	-52.125	-8191	255	
2405.147	1	1	0	0	0.1464	0.41313	0.19625	0.38143	0.035823	0.086462	0.29994	0.050488	0.078745	0.10151	0.1502	0.16051	0.1043	0.31256	0.084853	0.23115	-1.8833	-2.8979	-2.5854	-2.4729	-3.0938	-2.3896	-2.95	-3.2083	-2.2479	-3.0354	-2.8208	-2.3521	-3.1375	-2.3896	-2.5042	-3.3125	148.430	280.293	246.962	254.690	89.052	246.939	205.003	-68.492	238.664	267.272	68.507	242.551	36.369	-60.167	97.625	279.758	0.00018551	0.00059352	0.00011278	1522.4	3.6168e-06	5.4489e-06	1507.3	397.24	2.9752e-06	4.401e-06	451.95	151.67	132.86	45.335	3.3101e-06	56.101	0.00051989	0.00056271	0.00015901	1536.8	6.3478e-06	6.4944e-06	1524.5	402.74	6.6763e-06	6.4371e-06	457.09	154.93	135.28	46.099	6.5344e-06	57.121	143.409	6.680	9.304	-65.322	75.216	75.928	-65.418	-61.165	20.542	68.914	-61.342	-57.422	-56.740	-52.069	49.043	-52.485	-8191	255	
2405.266	1	1	0	0	0.22899	0.43369	0.1863	0.1166	0.16243	0.18894	0.17323	0.40491	0.1476	0.081651	0.14841	0.25498	0.37735	0.12087	0.043892	0.05763	-1.8979	-2.725	-2.8063	-2.4813	-3.3167	-2.525	-2.7438	-3.4062	-2.3875	-2.8229	-2.9708	-2.2771	-3.4958	-2.8063	-2.5708	-3.125	-61.482	57.088	31.789	-55.813	2.337	-44.667	-68.681	212.000	246.428	-17.367	166.378	226.246	238.071	-4.924	155.895	225.577	0.00021824	0.00054762	0.00014406	1533.3	3.9396e-06	5.4941e-06	1519.2	399.64	2.8015e-06	4.6037e-06	452.82	152.16	133.46	45.461	3.6351e-06	56.018	0.00053169	0.00057873	0.00016613	1539.4	6.3014e-06	6.4272e-06	1527.3	403.44	6.7321e-06	6.5288e-06	458.38	154.84	135.52	46.136	6.6219e-06	57.09	150.701	17.649	18.242	-65.185	70.680	82.857	-65.292	-61.064	42.020	80.936	-61.338	-57.168	-56.646	-51.928	59.931	-52.512	-8191	255	
2405.338	1	1	0	0	0.23496	0.10578	0.073008	0.32556	0.12817	0.19823	0.27408	0.29101	0.064489	0.091172	0.14493	0.15564	0.11369	0.13123	0.20376	0.078465	-1.7938	-2.5292	-2.7979	-2.4583	-3.0542	-2.6875	-2.5292	-3.4167	-2.3312	-2.7625	-3.2042	-2.4021	-3.0938	-2.7979	-2.4625	-3.2167	-6.796	131.430	26.214	229.390	269.662	-36.369	245.548	-22.802	-7.490	-27.988	240.271	264.250	-55.840	46.958	252.612	24.879	0.00019636	0.00049567	7.2539e-05	1538.7	3.538e-06	4.5454e-06	1521.3	400.43	2.7917e-06	4.391e-06	453.74	151.85	133.14	45.202	3.4886e-06	56.032	0.00051843	0.00059223	0.00015017	1543.2	6.7137e-06	6.5544e-06	1530	403.44	6.6473e-06	6.3478e-06	457.97	155.09	135.43	46.158	6.5075e-06	57.084	148.127	13.203	8.390	-65.225	71.982	73.640	-65.468	-60.813	48.321	71.602	-61.397	-57.293	-56.548	-51.950	71.295	-52.520	-8191	255	
2405.459	1	1	0	0	0.15925	0.31761	0.15556	0.18952	0.27711	0.090354	0.17387	0.23041	0.096695	0.077832	0.20916	0.22614	0.1403	0.047597	0.029308	0.10385	-1.8625	-2.4792	-2.8458	-2.3375	-2.9229	-2.6333	-2.475	-3.1437	-2.4562	-2.5417	-3.2604	-2.4333	-3.1083	-2.7896	-2.4875	-3.2417	229.858	-65.373	187.011	226.731	-60.078	15.350	271.939	198.353	18.815	-43.090	238.902	224.008	-58.402	-63.383	20.451	-3.170	0.00019912	0.00044124	0.00016461	1538.5	3.2822e-06	5.7721e-06	1519	398.61	2.4806e-06	3.9651e-06	455.57	152.54	133.29	45.471	4.6077e-06	56.016	0.0005038	0.0005656	0.00015428	1542.2	6.3899e-06	6.1997e-06	1529.2	403.05	6.5568e-06	6.3508e-06	458.73	155.1	135.27	46.139	6.5495e-06	57.129	148.002	17.783	5.633	-65.272	54.630	72.974	-65.327	-60.738	90.172	65.403	-61.328	-56.978	-56.529	-51.864	58.861	-52.476	-8191	255	
2405.555	1	1	0	0	0.11272	0.10278	0.16097	0.26043	0.12245	0.18235	0.24034	0.31874	0.14001	0.29649	0.066716	0.050852	0.15599	0.070107	0.1956	0.11422	-2.1917	-2.3917	-3.0292	-2.5125	-3.0333	-2.8771	-2.4833	-3.1063	-2.6542	-2.6458	-3.2604	-2.3625	-2.9313	-3.0333	-2.2687	-3.1458	-37.832	183.322	-51.623	220.759	81.886	47.959	232.582	245.212	74.475	153.627	33.100	1.878	8.367	30.484	-2.347	257.955	0.00021582	0.000546	0.00015738	1535.8	4.7664e-06	5.3925e-06	1516.4	399.36	2.3898e-06	4.1923e-06	454.07	151.78	133.26	45.278	2.4817e-06	56.216	0.00050368	0.00057996	0.00015574	1541.8	6.4352e-06	6.1162e-06	1527.7	403.34	6.3935e-06	6.4675e-06	457.95	154.82	135.16	46.04	6.3399e-06	57.103	155.130	5.239	3.882	-65.203	75.054	73.821	-65.236	-60.731	39.380	83.927	-61.114	-57.111	-56.446	-51.747	79.030	-52.241	-8191	255	
2405.651	1	1	0	0	0.29926	0.14681	0.054154	0.23199	0.0959	0.23164	0.11243	0.12433	0.20948	0.25181	0.11665	0.36131	0.046849	0.16353	0.21778	0.059896	-2.4167	-2.2792	-2.9208	-2.6375	-2.7292	-3.0896	-2.4938	-3.2042	-2.8333	-2.4167	-3.1271	-2.3646	-2.9271	-3.1063	-2.2083	-3.2562	274.965	-44.085	-13.285	225.342	179.770	150.841	273.344	-61.067	275.515	100.300	179.379	263.178	-49.754	280.173	5.214	250.429	0.00019223	0.00056062	0.00013421	1529.3	3.5397e-06	6.4607e-06	1515.1	397.7	2.5565e-06	5.8484e-06	454.46	151.71	132.47	45.317	5.8484e-06	56.236	0.00050695	0.00058476	0.00015376	1535.7	6.2056e-06	6.037e-06	1524.7	402.23	6.256e-06	6.4924e-06	457.49	154.59	134.77	46.008	6.5445e-06	57.077	156.760	6.409	15.506	-65.131	93.473	87.497	-65.097	-60.412	52.230	67.007	-61.174	-57.131	-56.547	-51.563	69.846	-52.147	-8191	255	
2405.747	1	1	0	0	0.22619	0.09181	0.12435	0.14854	0.28366	0.13895	0.077072	0.31334	0.15042	0.0697	0.055611	0.088199	0.10333	0.087271	0.15364	0.053295	-2.4292	-2.3	-3.1188	-2.6167	-2.5167	-3.0083	-2.4292	-3.1229	-2.9562	-2.3083	-3.3354	-2.5021	-2.6417	-3.3333	-2.3063	-2.9333	216.086	157.393	-40.142	257.804	126.093	60.875	161.085	267.153	279.654	253.936	179.052	95.279	252.745	123.125	155.987	222.518	0.00020268	0.00056293	0.00014905	1528.7	1.1689e-06	5.7819e-06	1509.3	398.88	3.1936e-06	3.5493e-06	454.07	151.83	132.59	45.232	3.9502e-06	55.959	0.00050341	0.00058359	0.00015039	1532.3	6.2233e-06	6.0562e-06	1519.6	401.78	6.4509e-06	6.3326e-06	457.23	154.56	134.8	45.983	6.5944e-06	57.029	142.225	17.015	11.792	-65.139	76.963	75.273	-65.068	-60.322	60.770	56.900	-60.748	-56.951	-56.157	-51.524	49.379	-51.783	-8191	255	
2405.843	1	1	0	0	0.28011	0.29961	0.16708	0.59585	0.24589	0.12782	0.14525	0.33419	0.078637	0.20306	0.12749	0.049956	0.091099	0.24591	0.31015	0.17203	-2.4542	-2.1042	-3.0187	-2.7	-2.3125	-3.0417	-2.5479	-2.9958	-2.9667	-2.1354	-3.0667	-2.7958	-2.5687	-3.1833	-2.3354	-2.9458	61.436	269.206	278.367	247.285	100.431	166.743	228.739	231.373	126.801	264.008	-74.990	-24.881	161.083	-2.868	89.660	67.528	0.00015612	0.00049894	0.00012926	1535.4	3.0592e-06	5.7863e-06	1519.5	398.33	2.2129e-06	3.8786e-06	451.9	151.79	133.12	45.297	5.0069e-06	56.123	0.0005032	0.00058567	0.00015349	1538.5	6.2556e-06	6.2273e-06	1525.5	402.61	6.4346e-06	6.4778e-06	457.62	154.62	135.12	46.142	6.5266e-06	56.957	144.242	9.104	23.316	-65.077	87.684	84.949	-65.151	-60.480	36.236	48.244	-60.947	-56.813	-56.175	-52.005	71.573	-52.328	-8191	255	
2405.962	1	1	0	0	0.22557	0.17381	0.083217	0.16888	0.17705	0.25159	0.25583	0.07618	0.21024	0.069232	0.11172	0.089224	0.084363	0.053675	0.30132	0.11298	-2.5875	-2.1146	-2.9917	-2.8312	-2.4146	-3.1625	-2.7125	-2.9562	-3.0667	-2.3833	-3.225	-2.8979	-2.3792	-3.1125	-2.325	-2.6542	157.755	30.768	-68.238	230.559	-42.310	-1.586	236.781	183.629	109.159	181.710	-1.622	-18.138	179.364	60.355	-10.100	216.407	0.00019769	0.00050754	0.00011673	1541.1	2.5984e-06	6.2231e-06	1517.7	398.72	1.3283e-06	6.4189e-06	454.85	152.73	132.99	45.452	4.3784e-06	56.11	0.00050088	0.00056544	0.00015101	1541.2	6.3353e-06	6.0982e-06	1527.1	402.97	5.9811e-06	6.414e-06	458.23	155.14	135.43	46.168	6.3096e-06	57.045	156.991	2.822	11.203	-65.294	59.773	91.592	-65.503	-61.068	62.993	78.708	-61.245	-57.105	-56.477	-51.895	73.467	-52.678	-8191	255	
2406.036	1	1	0	0	0.1525	0.098945	0.20238	0.11123	0.16423	0.10777	0.15908	0.29047	0.11706	0.20292	0.18193	0.037018	0.35185	0.2277	0.10536	0.30065	-2.7292	-2.1729	-2.8229	-3.0208	-2.3312	-3.2125	-2.7708	-2.8271	-3.0417	-2.3417	-3.1417	-2.8479	-2.1063	-3.1854	-2.5792	-2.6042	144.738	100.231	67.914	248.822	192.454	225.582	262.653	235.421	20.062	13.638	259.316	132.169	170.914	221.615	71.276	172.797	0.00018145	0.00048168	0.00014929	1539.6	3.9699e-06	5.1019e-06	1517	399.09	2.0615e-06	5.3384e-06	455.66	152.68	132.81	45.271	3.8449e-06	56.133	0.00049166	0.00057798	0.00015539	1542.9	6.4076e-06	5.9043e-06	1526.4	403.49	6.2318e-06	6.1115e-06	458.89	155.05	135.2	46.122	6.115e-06	56.929	158.617	10.470	16.259	-65.329	72.854	81.635	-65.385	-60.770	71.452	74.093	-61.141	-57.309	-56.489	-51.789	44.062	-52.271	-8191	255	
2406.130	1	1	0	0	0.075964	0.19061	0.3067	0.10162	0.18861	0.12441	0.099448	0.23057	0.23089	0.1969	0.047349	0.083203	0.27184	0.40177	0.27506	0.20015	-2.9292	-2.0938	-2.8771	-3.0646	-2.4313	-3.1208	-2.8208	-2.5604	-3.0292	-2.3604	-2.7271	-3.1208	-2.2146	-3.0771	-2.4979	-2.5292	-38.621	-73.824	-32.159	217.673	236.835	243.443	14.011	204.690	222.635	-70.659	-66.015	144.459	-21.254	231.336	258.049	195.197	0.00020865	0.00056546	0.00010973	1539.1	4.0142e-06	5.5085e-06	1519.4	399.91	2.4562e-06	5.916e-06	456.4	151.74	132.79	45.385	3.5443e-06	55.646	0.00047846	0.00053575	0.00015307	1545	6.3634e-06	6.007e-06	1529.1	403.3	6.2144e-06	6.349e-06	458.84	154.51	135.05	46.174	6.1106e-06	56.857	150.451	13.274	-7.423	-65.417	77.861	85.351	-65.469	-60.893	65.641	72.625	-61.272	-57.126	-56.517	-51.878	60.467	-52.408	-8191	255	
2406.228	1	1	0	0	0.17662	0.32291	0.080531	0.19515	0.19611	0.096156	0.22748	0.33309	0.14818	0.03508	0.30412	0.19854	0.20186	0.16045	0.10735	0.088253	-2.7792	-2.325	-2.7313	-3.1333	-2.3104	-3.0667	-2.9938	-2.3937	-3.1937	-2.6937	-2.6188	-3.2917	-2.5396	-3.0604	-2.7188	-2.4542	59.460	101.542	19.693	258.939	68.482	46.993	119.545	199.717	274.353	202.782	277.490	215.847	78.646	252.368	170.914	104.132	0.00019664	0.00064987	0.00011263	1537.9	2.4809e-06	6.4473e-06	1525.2	399.99	1.793e-06	5.9795e-06	456.54	152.59	132.7	45.347	4.1552e-06	55.75	0.00049633	0.00057104	0.00015783	1541.7	6.2577e-06	6.1691e-06	1531.2	403.4	6.3134e-06	6.4031e-06	458.08	155.11	134.82	46.082	6.452e-06	56.869	152.867	1.889	20.367	-65.218	50.068	67.139	-65.353	-60.661	60.725	69.847	-61.094	-56.981	-56.723	-51.577	67.099	-52.244	-8191	255	
2406.347	1	1	0	0	0.19472	0.3538	0.075775	0.17468	0.11006	0.1746	0.27866	0.21127	0.12651	0.32285	0.079009	0.16428	0.17586	0.073651	0.1215	0.034132	-2.7167	-2.3042	-2.5958	-3.3729	-2.2896	-2.9958	-3.1958	-2.4667	-3.0229	-2.4583	-2.4292	-3.3125	-2.4188	-2.85	-2.9688	-2.2396	-0.053	262.873	178.528	253.816	31.765	-73.084	159.256	249.934	190.153	163.431	-45.851	237.939	239.106	-64.390	112.813	19.844	0.00020961	0.00056317	0.00015783	1533.6	3.2016e-06	6.5094e-06	1515.8	398.41	3.7259e-06	6.1038e-06	452.72	151.44	132.77	45.11	4.075e-06	56.104	0.00049725	0.00058102	0.00015806	1537.2	6.2062e-06	6.0196e-06	1524	402.42	6.1149e-06	5.9773e-06	457.63	154.32	134.62	45.943	6.1408e-06	56.798	149.731	8.788	19.869	-65.086	82.311	82.144	-65.284	-60.664	41.284	86.919	-60.930	-57.120	-56.343	-51.576	64.758	-52.014	-8191	255	
2406.443	1	1	0	0	0.056579	0.14335	0.12127	0.15399	0.27741	0.018785	0.52959	0.07641	0.14946	0.1412	0.13741	0.20523	0.22638	0.14878	0.13064	0.44668	-2.6021	-2.6167	-2.2979	-3.3521	-2.3792	-2.5938	-3.0875	-2.4	-3.1437	-2.6312	-2.4542	-3.3125	-2.4562	-2.5854	-3.0229	-2.5021	135.092	-42.856	216.876	235.131	4.655	149.187	237.465	220.583	177.974	87.286	190.268	-17.451	231.616	239.605	202.366	236.123	0.00020789	0.00057886	0.00015333	1532.7	3.9881e-06	6.4058e-06	1511.7	397.99	2.162e-06	5.8546e-06	454.18	151.87	132.72	45.211	3.8322e-06	55.945	0.00050832	0.00055407	0.00015321	1535.6	6.1812e-06	5.7507e-06	1519.3	402.1	6.0528e-06	6.1285e-06	457.58	154.47	134.64	46.025	6.0276e-06	56.773	144.707	9.855	10.470	-65.058	48.149	70.064	-65.390	-60.435	40.936	63.542	-61.077	-56.721	-56.240	-51.268	77.876	-51.866	-8191	255	
2406.539	1	1	0	0	0.098075	0.15522	0.026757	0.38976	0.36645	0.48473	0.19235	0.18342	0.025579	0.25114	0.21024	0.17224	0.44842	0.2186	0.067861	0.062617	-2.5708	-2.6021	-2.2687	-3.4	-2.3792	-2.6604	-3.3229	-2.3438	-2.9125	-2.7687	-2.3854	-3.0771	-2.7083	-2.65	-3.0333	-2.2917	125.782	-53.684	80.053	213.906	-8.039	-44.196	213.234	270.086	205.857	108.994	258.668	-24.123	-40.804	40.117	-63.393	-36.507	0.00018109	0.00048782	0.00015548	1535.9	3.8196e-06	5.094e-06	1510	397.35	2.8015e-06	4.7716e-06	453.3	151.21	131.97	45.399	3.4804e-06	55.438	0.00048601	0.000546	0.00015457	1532.6	6.1801e-06	5.9914e-06	1516.7	401.32	5.8226e-06	5.8448e-06	455.63	153.98	134.24	46.023	6.0623e-06	56.537	149.782	18.255	8.050	-65.003	55.095	76.909	-65.114	-60.639	79.314	73.086	-60.742	-56.653	-56.356	-51.501	70.511	-52.208	-8191	255	
2406.635	1	1	0	0	0.25356	0.173	0.20011	0.29325	0.097374	0.15577	0.19969	0.39141	0.081337	0.12532	0.22489	0.25902	0.12528	0.1835	0.18833	0.15995	-2.4042	-2.6292	-2.1958	-3.1854	-2.4896	-2.3354	-3.1917	-2.4562	-2.6083	-2.8312	-2.2375	-3.1271	-2.3937	-2.3542	-3.0792	-2.3146	274.304	-17.492	107.061	173.959	270.003	184.578	269.485	177.339	-25.339	273.635	235.063	242.948	278.000	235.107	97.072	121.486	0.00019971	0.00060974	0.00011404	1523.6	4.1351e-06	5.346e-06	1503.2	397.1	2.1409e-06	4.6155e-06	451.76	151.35	132.74	45.222	3.8052e-06	55.556	0.00048586	0.00054638	0.00015413	1528.8	6.2218e-06	5.9392e-06	1516.7	401.03	5.9148e-06	5.9937e-06	455.4	154.04	134.44	45.972	5.8728e-06	56.543	151.097	9.310	17.735	-65.175	64.045	63.998	-65.468	-60.926	25.982	76.655	-61.141	-57.141	-56.533	-51.651	63.957	-52.425	-8191	255	
2406.731	1	1	0	0	0.033355	0.16006	0.13348	0.25193	0.25479	0.073694	0.1063	0.39285	0.10982	0.11733	0.32461	0.20052	0.16503	0.23769	0.21574	0.19533	-2.4062	-3	-2.0208	-3.1229	-2.3792	-2.2625	-3.2708	-2.3375	-2.4792	-2.95	-2.2583	-3.0083	-2.7958	-2.2438	-2.9646	-2.4813	-26.765	53.047	119.018	-47.918	277.060	242.923	-38.588	263.905	139.857	-29.085	250.215	-31.962	51.900	269.599	223.476	-66.532	0.0001998	0.00044534	0.00016254	1533.5	3.2149e-06	5.8549e-06	1511.6	396.75	1.6081e-06	4.1574e-06	453.46	151.58	132.22	45.329	2.4172e-06	55.581	0.00048714	0.00054093	0.00015255	1533.3	6.1536e-06	6.1186e-06	1519.3	400.65	5.9485e-06	5.9402e-06	457.44	154.31	134.51	46.053	6.0803e-06	56.628	147.309	10.246	9.495	-65.087	55.595	57.484	-65.332	-60.873	60.832	75.135	-61.310	-57.078	-56.202	-51.687	60.846	-52.506	-8191	255	
2406.827	1	1	0	0	0.24826	0.28862	0.12837	0.38677	0.16352	0.20556	0.48823	0.3883	0.14715	0.055968	0.35775	0.15806	0.059827	0.33229	0.037988	0.1704	-2.2125	-2.8937	-2.0104	-2.9313	-2.7229	-2.0229	-3.1375	-2.5229	-2.3167	-3.0417	-2.3063	-3.0146	-2.8292	-2.225	-3.0542	-2.6083	192.441	-18.196	170.206	-66.558	108.187	223.019	239.586	233.669	235.315	-76.101	-47.027	240.289	187.210	244.132	276.490	241.086	0.00019112	0.00058914	0.00016202	1528.6	2.9024e-06	5.7002e-06	1507.3	397.53	2.0826e-06	6.3196e-06	450.98	152.17	132.79	45.408	3.4385e-06	55.525	0.00048527	0.00054205	0.00015376	1532.1	5.8969e-06	6.3083e-06	1517.4	401.59	6.2023e-06	5.9973e-06	455.29	154.57	134.67	46.047	5.9592e-06	56.549	148.955	19.258	23.014	-65.112	84.455	74.695	-65.280	-60.823	33.038	65.360	-61.081	-56.940	-56.595	-51.989	85.476	-52.609	-8191	255	
2406.948	1	1	0	0	0.085199	0.14416	0.052753	0.42912	0.35951	0.42737	0.24976	0.35751	0.33679	0.29647	0.064435	0.34348	0.091272	0.30755	0.30986	0.074599	-1.9417	-2.875	-2.0187	-2.8542	-2.8021	-2.0083	-3.1188	-2.7125	-2.2292	-2.9333	-2.1958	-2.8937	-3.0667	-2.1729	-3.0062	-2.5833	147.234	163.901	175.058	230.313	138.014	-1.514	210.812	276.520	-63.621	149.904	139.746	254.242	-36.232	181.998	-1.895	-16.648	0.00020285	0.00059373	0.00017901	1532.3	2.2986e-06	6.1008e-06	1510	398.3	3.4307e-06	5.6889e-06	454	151.08	132.12	45.341	3.4976e-06	55.787	0.00048735	0.0005278	0.00015698	1533.2	5.6804e-06	6.0814e-06	1518.5	401.62	6.1354e-06	5.8977e-06	456.99	154.1	134.41	46.07	6.0455e-06	56.624	150.100	25.548	20.287	-65.220	57.949	82.911	-65.206	-60.734	36.627	74.967	-61.159	-57.205	-56.477	-51.611	58.574	-52.216	-8191	255	
2407.042	1	1	0	0	0.15694	0.13869	0.053568	0.40799	0.35896	0.044373	0.17712	0.19678	0.0044038	0.11817	0.35168	0.25419	0.07807	0.1275	0.22668	0.12071	-1.75	-2.9604	-2.4562	-2.7667	-2.8083	-2.075	-2.9667	-2.8312	-2.1646	-2.9917	-2.3479	-2.6771	-3.2229	-2.1208	-2.8479	-2.7417	87.482	128.853	250.724	260.925	39.174	275.045	274.724	-18.059	23.683	157.788	235.734	182.840	252.664	264.359	196.189	80.357	0.00019415	0.00056182	0.00015667	1532.6	2.5535e-06	5.5346e-06	1510.8	398.19	2.3531e-06	4.2422e-06	450	151.87	131.87	45.291	3.2642e-06	55.833	0.00049264	0.00052118	0.00015002	1531.6	5.9995e-06	5.9247e-06	1517.7	401.44	6.176e-06	5.5454e-06	454.99	154.13	134.24	46.065	6.2115e-06	56.575	147.119	11.389	11.082	-64.885	44.297	88.291	-64.887	-60.741	46.182	88.023	-60.799	-56.974	-56.505	-51.591	43.170	-52.347	-8191	255	
2407.139	1	1	0	0	0.26879	0.12008	0.097671	0.15062	0.22585	0.32561	0.36381	0.2541	0.15242	0.29107	0.19345	0.24361	0.2643	0.02999	0.33085	0.082959	-1.6042	-2.8771	-2.3104	-2.6583	-3.0979	-2.0875	-2.9229	-2.9042	-2.2667	-3.0271	-2.6188	-2.3187	-3.1542	-2.3458	-2.7229	-3.0187	248.854	211.746	21.138	-49.978	25.280	243.442	274.124	241.491	-34.030	-26.640	233.713	221.624	267.539	270.916	-20.417	204.200	0.00018142	0.00056897	0.00014063	1527.6	1.7204e-06	5.6555e-06	1517.3	397.63	2.5864e-06	5.4604e-06	453.75	151.44	132.02	45.085	3.8375e-06	55.518	0.00049779	0.00053437	0.00015101	1530.1	5.8688e-06	6.1036e-06	1520.6	401.08	6.423e-06	5.959e-06	455.57	154.12	134.4	45.943	5.9872e-06	56.448	148.558	4.446	14.559	-64.772	75.098	76.651	-64.904	-60.258	30.010	81.718	-60.712	-56.790	-56.253	-51.530	76.482	-52.188	-8191	255	
2407.259	1	1	0	0	0.14283	0.16591	0.18716	0.1826	0.22575	0.071974	0.23112	0.19542	0.29106	0.16756	0.21434	0.13399	0.42496	0.42861	0.22701	0.14241	-1.7333	-3.0146	-2.2896	-2.3354	-3.025	-2.1167	-2.7104	-2.9083	-1.8604	-3.0708	-2.5646	-2.4771	-3.1792	-2.2625	-2.4208	-2.9708	92.690	162.126	98.044	229.866	63.368	228.535	232.217	185.978	111.547	39.418	-26.398	146.343	216.755	254.637	-25.359	277.394	0.0002059	0.00037837	0.00017013	1528.5	3.1266e-06	4.749e-06	1511.1	395.48	2.6133e-06	8.4051e-06	453.54	151.14	132.07	45.35	3.128e-06	55.301	0.00049214	0.00051766	0.00014916	1529.1	5.8579e-06	5.9668e-06	1516.8	400.4	6.1302e-06	6.0987e-06	455.48	153.89	134.15	46.02	6.1072e-06	56.423	153.867	14.596	19.440	-64.921	72.215	77.024	-65.154	-61.083	54.562	67.529	-61.412	-57.200	-56.719	-51.951	76.931	-52.382	-8191	255	
2407.331	1	1	0	0	0.14845	0.23057	0.13166	0.19654	0.22718	0.15003	0.46652	0.31243	0.16637	0.057139	0.14123	0.3077	0.2612	0.085525	0.042013	0.090856	-1.6729	-2.9125	-2.6979	-2.4	-2.9604	-2.3708	-2.6875	-3.0083	-2.1312	-2.85	-2.8187	-2.2958	-3.2313	-2.4979	-2.4813	-3.1521	220.797	246.503	-75.727	258.739	180.849	173.763	273.374	270.647	-36.797	65.465	-0.532	262.264	253.928	191.005	265.310	230.092	0.00019383	0.00037205	0.00013355	1523.3	4.2755e-06	5.5999e-06	1510.2	397.35	3.4463e-06	4.5541e-06	451.87	151.37	132.16	45.13	3.5117e-06	55.741	0.00049874	0.00054056	0.00014569	1528.1	5.8704e-06	5.9097e-06	1518.8	400.98	6.098e-06	5.8837e-06	455.53	154	134.3	45.928	5.9822e-06	56.515	144.790	14.141	21.896	-65.204	71.450	82.049	-65.441	-60.985	44.094	73.413	-61.299	-57.311	-56.503	-52.020	70.320	-52.493	-8191	255	
2407.427	1	1	0	0	0.08597	0.13259	0.15915	0.56247	0.077591	0.24639	0.31173	0.10788	0.261	0.027265	0.26925	0.060097	0.079489	0.23033	0.132	0.27491	-1.8333	-2.6437	-2.7062	-2.3312	-3.1	-2.2812	-2.5708	-3.2604	-2.2	-2.7542	-2.9479	-2.35	-3.1167	-2.4646	-2.2938	-3.0771	-21.950	-71.511	257.970	237.413	-78.547	261.328	235.060	230.035	229.013	-34.370	240.490	-59.698	163.804	-9.154	-68.492	158.517	0.00019894	0.00060336	0.00014406	1519	2.8778e-06	5.219e-06	1507.7	396.46	2.4021e-06	4.452e-06	450.63	151.15	132.09	45.104	3.7852e-06	55.386	0.00050573	0.00051702	0.00014483	1527.1	5.7928e-06	5.8407e-06	1516	400.38	6.2608e-06	5.9123e-06	454.61	153.97	134.33	45.93	5.9183e-06	56.306	149.365	2.072	10.617	-65.117	92.051	67.494	-65.379	-60.726	29.003	75.923	-60.980	-57.221	-56.435	-51.876	67.460	-52.339	-8191	255	
2407.523	1	1	0	0	0.17258	0.077258	0.21057	0.21799	0.046138	0.088332	0.5201	0.085663	0.067874	0.1447	0.03339	0.10952	0.23495	0.10316	0.23948	0.149	-1.7938	-2.6562	-2.7104	-2.2458	-2.8667	-2.5292	-2.4792	-3.0521	-2.3375	-2.4896	-2.8896	-2.2083	-3.05	-2.6958	-2.2292	-2.9604	77.535	-54.073	241.092	-23.776	92.348	100.637	246.051	251.940	247.838	269.912	194.067	144.322	262.252	44.230	34.291	-63.010	0.00019817	0.00053966	0.0001682	1520.5	2.6827e-06	5.229e-06	1511.8	396.89	1.993e-06	5.4737e-06	450.9	151.34	132.63	45.151	4.4828e-06	55.261	0.00050296	0.0005112	0.00015286	1524.9	5.9412e-06	5.8377e-06	1516.5	400.37	5.9553e-06	5.9991e-06	454.45	153.65	134.3	45.943	6.286e-06	56.371	143.473	18.974	13.080	-65.103	59.128	71.477	-65.347	-60.690	91.033	81.840	-61.064	-56.904	-56.201	-51.631	73.485	-51.968	-8191	255	
2407.644	1	1	0	0	0.12361	0.088684	0.24483	0.22623	0.10658	0.051399	0.39076	0.37963	0.28181	0.27849	0.21263	0.1884	0.21095	0.074991	0.18563	0.34191	-1.8083	-2.525	-2.9062	-2.4688	-2.8625	-2.6	-2.3083	-3.1479	-2.4562	-2.5333	-3.1708	-2.375	-2.9604	-2.825	-2.2479	-3.2271	192.986	-16.004	210.506	261.093	49.044	206.466	239.549	224.690	134.487	63.851	261.364	-41.700	250.657	-30.486	92.679	140.919	0.00020282	0.00050609	0.00011641	1520.7	2.3675e-06	7.1426e-06	1512.3	396.5	2.7532e-06	5.0457e-06	450.49	151.31	132.95	45.463	3.9544e-06	55.565	0.0004809	0.00055273	0.00014464	1525.4	5.6955e-06	5.6882e-06	1514.6	399.93	5.8848e-06	5.7495e-06	454.8	153.92	134.43	45.991	6.0018e-06	56.456	149.700	15.704	7.520	-65.032	38.919	87.553	-65.052	-60.563	49.825	77.319	-60.815	-56.639	-56.211	-51.426	64.368	-52.085	-8191	255	
2407.740	1	1	0	0	0.12597	0.2213	0.13414	0.1216	0.059229	0.058899	0.20838	0.025194	0.036824	0.044168	0.36201	0.067024	0.16674	0.12994	0.039038	0.21361	-2.0083	-2.4479	-2.9542	-2.4896	-2.75	-2.775	-2.1646	-3.1937	-2.5167	-2.5375	-3.1	-2.2604	-2.7042	-2.8937	-2.0271	-3.1437	160.100	14.946	66.672	204.933	264.351	58.246	222.566	229.862	194.132	10.412	240.506	253.421	-58.466	-35.128	-40.377	200.361	0.00018444	0.00039464	0.00014832	1527.9	4.3522e-06	5.1906e-06	1508.6	398.3	2.8053e-06	4.5229e-06	450.66	151.2	132.26	45.18	3.1943e-06	55.596	0.00048884	0.00053987	0.00014801	1525.4	5.9063e-06	5.711e-06	1513.2	400.13	5.7942e-06	5.7987e-06	453.93	153.7	134.41	45.821	5.9485e-06	56.338	152.842	18.112	7.930	-65.022	83.226	61.246	-65.100	-60.225	60.653	81.434	-61.016	-56.839	-56.436	-51.761	86.090	-52.424	-8191	255	
2407.836	1	1	0	0	0.16228	0.23443	0.1475	0.26706	0.11321	0.17483	0.057815	0.37109	0.083539	0.15352	0.16487	0.15717	0.2649	0.14149	0.23464	0.34247	-2.1521	-2.1688	-2.9021	-2.4313	-2.4729	-2.9604	-2.3063	-3.1813	-2.7708	-2.425	-3.0917	-2.5104	-2.5458	-3.1292	-2	-2.8896	113.184	-78.374	256.066	252.466	182.466	204.001	-39.362	255.501	153.938	-64.564	0.742	236.214	-57.744	179.189	16.250	218.181	0.00020783	0.00053705	0.00014307	1517.1	4.0948e-06	5.4604e-06	1495.9	396.77	2.67e-06	4.5004e-06	450.83	150.97	132.4	45.383	2.2294e-06	55.523	0.00047337	0.00053693	0.00013998	1518	5.6861e-06	5.4247e-06	1503.8	399.91	5.7968e-06	5.7197e-06	454.04	153.56	134.23	46.026	5.9581e-06	56.353	151.983	-2.635	10.995	-65.389	54.101	87.540	-65.438	-60.821	29.548	75.078	-61.151	-57.193	-56.630	-51.818	90.841	-51.978	-8191	255	
2407.908	1	1	0	0	0.20167	0.087709	0.19086	0.14252	0.04663	0.13013	0.22923	0.20228	0.25898	0.1306	0.099067	0.23573	0.24984	0.16722	0.14288	0.38344	-2.4125	-2.1979	-2.7354	-2.675	-2.6042	-3	-2.4729	-2.9688	-2.7417	-1.9833	-3.2479	-2.4958	-2.525	-3.0292	-2.2375	-2.725	-35.081	112.404	-5.454	209.779	266.280	125.785	214.863	233.458	215.891	253.871	138.709	-76.709	231.199	280.589	274.604	175.572	0.00017068	0.00048493	0.00011533	1517.7	3.9782e-06	4.8482e-06	1505.5	396.58	3.0057e-06	5.4405e-06	452.77	151.34	132.59	45.149	2.4424e-06	55.289	0.0004588	0.0005523	0.0001384	1520.6	5.9818e-06	5.6666e-06	1510.5	400.1	5.8711e-06	5.7482e-06	454.52	153.87	134.39	45.991	5.9676e-06	56.276	155.911	2.965	23.972	-64.960	57.525	73.842	-64.994	-60.384	51.811	78.548	-61.146	-57.070	-56.193	-51.481	83.491	-52.317	-8191	255	
2408.028	1	1	0	0	0.11112	0.19202	0.18768	0.20843	0.1918	0.030977	0.31509	0.068084	0.25517	0.12268	0.058663	0.28386	0.051964	0.14452	0.13189	0.29397	-2.5229	-2.2375	-2.9729	-2.7792	-2.2833	-2.9813	-2.4562	-2.9271	-2.6354	-2.1021	-3.1083	-2.55	-2.4208	-3.1375	-2.3187	-2.5812	-70.371	-11.246	71.840	242.856	114.858	-68.949	265.698	281.257	-16.730	-27.618	217.144	237.494	-77.906	203.367	140.798	231.608	0.00017435	0.00053304	0.00012354	1520.3	3.9819e-06	5.559e-06	1504.3	399.39	2.6992e-06	4.5992e-06	452.17	151.58	132.66	45.283	5.0034e-06	55.681	0.00047519	0.00055129	0.00014492	1523.7	5.9297e-06	5.8305e-06	1512.7	400.68	5.9595e-06	5.9748e-06	454.39	153.95	134.49	46.036	5.8953e-06	56.408	150.887	6.085	22.262	-65.037	79.378	78.154	-65.104	-60.434	45.306	63.262	-60.766	-56.966	-56.158	-51.238	52.692	-51.802	-8191	255	
2408.123	1	1	0	0	0.21714	0.080631	0.038807	0.20418	0.37508	0.16473	0.25239	0.27143	0.14499	0.057156	0.11756	0.048461	0.22713	0.2225	0.040333	0.081149	-2.5	-2.0187	-2.8354	-2.9833	-2.2646	-3.0104	-2.375	-2.4729	-2.7604	-2.2417	-2.975	-2.7021	-2.1937	-3.1646	-2.4375	-2.7292	119.161	138.004	233.348	270.769	33.636	-48.016	209.651	270.833	6.024	265.111	181.391	278.496	204.092	273.480	71.411	-17.300	0.00019437	0.00063969	0.00013605	1525.2	3.8296e-06	5.9214e-06	1506.4	396.68	1.9833e-06	6.5865e-06	453.11	151.41	132.99	45.479	3.9525e-06	55.44	0.00048417	0.0005443	0.00015404	1527.3	5.9953e-06	5.8647e-06	1514.3	400.33	5.9732e-06	6.2567e-06	455.72	154.24	134.64	46.19	5.9435e-06	56.44	151.150	4.637	10.728	-64.912	67.831	86.416	-65.505	-60.630	64.185	64.240	-61.123	-57.508	-56.583	-52.077	59.364	-52.405	-8191	255	
2408.221	1	1	0	0	0.14598	0.18425	0.12877	0.13194	0.30922	0.050555	0.11692	0.16807	0.27927	0.057734	0.31748	0.25393	0.29258	0.051762	0.1908	0.17675	-2.4583	-2.0917	-2.8333	-2.975	-2.25	-3.0167	-2.6875	-2.5604	-2.9979	-2.0875	-2.7812	-2.7729	-2.0625	-2.9521	-2.4708	-2.3896	123.852	-45.844	-62.253	128.472	100.393	174.940	270.864	-68.728	53.493	28.600	-77.487	271.209	237.179	-63.767	237.869	147.689	0.00024325	0.00042473	0.00015639	1525	2.6488e-06	4.9222e-06	1508.5	397.32	3.3891e-06	7.0584e-06	451.85	152.11	133.11	45.405	3.37e-06	55.378	0.00049199	0.00056891	0.00014591	1530.1	6.063e-06	5.8917e-06	1518.5	401.13	6.1317e-06	6.2154e-06	456.25	154.46	134.93	46.143	6.0971e-06	56.447	150.202	-1.507	-2.540	-65.424	60.531	82.140	-65.368	-60.898	53.274	74.066	-61.316	-57.299	-56.524	-51.913	71.232	-52.517	-8191	255	
2408.340	1	1	0	0	0.10383	0.1325	0.29086	0.21863	0.18328	0.16025	0.37889	0.15546	0.21179	0.095418	0.13062	0.2697	0.027546	0.24337	0.24383	0.23857	-2.6437	-2.1937	-2.5729	-2.9958	-2.0021	-2.8854	-2.6188	-2.3792	-3.0479	-2.3542	-2.8271	-2.975	-2.0458	-3.0146	-2.5312	-2.4333	89.318	77.402	34.607	226.824	276.450	-41.352	193.283	-69.363	-32.824	51.262	205.968	277.860	230.214	188.231	229.477	278.269	0.00022389	0.00061003	0.00016384	1532.3	2.8269e-06	6.383e-06	1509.1	398.74	1.7664e-06	4.5724e-06	453.12	151.59	133.2	45.422	4.1805e-06	55.7	0.00047792	0.00055369	0.00014279	1533	6.1109e-06	5.8827e-06	1517.2	401.4	5.8779e-06	5.8959e-06	456.25	154.23	134.73	46.215	5.8499e-06	56.547	150.507	-3.918	6.302	-65.340	56.641	77.773	-65.632	-61.031	77.301	73.794	-61.233	-57.179	-56.685	-51.529	72.330	-52.404	-8191	255	
2408.436	1	1	0	0	0.27664	0.11407	0.10329	0.41419	0.14081	0.20178	0.13665	0.13519	0.23746	0.078722	0.13971	0.17742	0.096394	0.18307	0.13303	0.25521	-2.6958	-2.3771	-2.5854	-3.2375	-2.15	-2.8229	-2.9688	-2.4125	-3.0375	-2.4646	-2.4833	-3.1792	-2.2333	-2.9208	-2.8063	-2.375	174.206	-1.147	234.465	228.851	63.049	144.019	2.465	189.445	50.612	-12.393	96.260	-70.615	97.525	244.551	40.697	203.240	0.00016442	0.00059047	0.00010844	1525.3	3.4468e-06	5.2042e-06	1509.8	396.87	1.5672e-06	4.6143e-06	453.71	152.18	133.38	45.451	3.9947e-06	55.786	0.00046603	0.00054713	0.00014221	1528.5	6.0614e-06	5.666e-06	1516.6	400.77	5.88e-06	5.8436e-06	456.03	154.69	134.81	46.205	6.0416e-06	56.586	148.255	14.625	36.728	-65.191	74.087	49.574	-65.216	-60.590	68.222	80.247	-60.998	-56.886	-56.135	-51.554	68.982	-52.221	-8191	255	
2408.507	1	1	0	0	0.13687	0.093347	0.10455	0.32734	0.29115	0.075784	0.39143	0.17093	0.080469	0.14547	0.26255	0.30242	0.078409	0.27374	0.069652	0.074471	-2.5187	-2.4104	-2.375	-3.1896	-2.1625	-2.8625	-3.0938	-2.3854	-2.9417	-2.6708	-2.4833	-3.1167	-2.3229	-2.6396	-2.8063	-2.1646	35.683	195.528	84.514	243.086	-52.775	144.493	269.238	171.270	2.535	150.349	281.154	236.121	-11.433	29.861	243.166	56.732	0.00020625	0.00062064	0.00016196	1530.3	2.3832e-06	6.2897e-06	1508.5	398.68	2.3494e-06	5.4422e-06	454.26	152.64	132.82	45.625	3.5994e-06	55.718	0.00046847	0.0005317	0.00014829	1530.4	5.8673e-06	5.6336e-06	1514.5	400.92	5.8058e-06	5.7045e-06	456.31	154.45	134.72	46.306	5.629e-06	56.623	149.235	24.744	24.122	-64.909	75.795	81.320	-65.165	-60.348	48.402	83.119	-60.780	-56.804	-56.302	-51.601	71.619	-52.436	-8191	255	
2408.628	1	1	0	0	0.18205	0.31211	0.18008	0.31382	0.13861	0.10503	0.22677	0.33338	0.22634	0.15894	0.23458	0.15201	0.1779	0.12042	0.10341	0.27241	-2.6167	-2.5792	-2.3125	-3.2292	-2.2188	-2.7667	-3.0854	-2.3063	-2.8688	-2.6958	-2.4229	-3.0896	-2.55	-2.7938	-2.8896	-2.1958	122.969	116.601	126.040	249.042	238.600	-67.396	202.714	225.867	160.007	115.276	238.690	259.892	175.366	238.105	-64.462	213.462	0.00019937	0.00054353	0.00013165	1527.6	2.2886e-06	6.5195e-06	1506.9	396.7	2.8763e-06	5.8305e-06	450.53	151.44	132.96	45.57	3.3216e-06	55.591	0.00047664	0.0005349	0.00015395	1528.6	6.1036e-06	5.9314e-06	1514.7	400.73	5.9458e-06	5.8825e-06	455.62	154.39	134.62	46.259	5.9059e-06	56.468	151.392	9.340	3.620	-65.027	82.938	78.756	-65.380	-60.751	52.341	86.185	-60.999	-57.065	-56.633	-51.676	60.613	-52.177	-8191	255	
2408.724	1	1	0	0	0.27132	0.253	0.32229	0.39402	0.016494	0.28512	0.26345	0.26878	0.15033	0.20915	0.091072	0.34046	0.14479	0.1572	0.21472	0.25479	-2.6229	-2.7229	-2.2125	-3.4583	-2.4208	-2.5854	-3.1312	-2.4354	-2.8083	-2.7104	-2.2417	-3.0563	-2.5333	-2.4125	-2.8875	-2.3688	262.130	35.812	167.196	175.699	204.123	-22.086	-49.654	273.161	-16.476	278.418	5.018	218.729	239.681	-31.563	83.115	257.793	0.00016413	0.00056224	0.00013564	1527.9	3.0665e-06	6.0804e-06	1511.3	397.89	2.2681e-06	5.826e-06	453.24	151.63	132.82	45.533	3.481e-06	55.528	0.00048173	0.00053714	0.00014737	1528.6	5.9901e-06	5.7104e-06	1514.9	400.79	5.8115e-06	5.9183e-06	455.75	154.22	134.68	46.281	5.8756e-06	56.559	159.330	19.558	14.699	-65.003	65.783	69.796	-65.109	-60.586	32.306	78.825	-60.837	-56.561	-56.142	-51.130	82.665	-52.120	-8191	255	
2408.820	1	1	0	0	0.24387	0.078505	0.20243	0.22908	0.15956	0.18205	0.4068	0.38532	0.15669	0.19915	0.27184	0.097764	0.19984	0.23586	0.08755	0.14661	-2.5271	-2.7938	-2.1479	-3.1354	-2.35	-2.3833	-3.3417	-2.3292	-2.7375	-2.9146	-2.3167	-3.0354	-2.5104	-2.4854	-3.1771	-2.1792	219.547	208.243	39.545	244.857	189.495	24.200	239.902	258.306	97.844	66.291	192.072	212.933	242.727	281.107	20.861	250.052	0.00018094	0.0004766	0.00015305	1531	2.2463e-06	6.0073e-06	1513.6	398.42	2.1427e-06	3.6112e-06	453.64	152.06	132.9	45.35	2.6217e-06	55.835	0.00047022	0.0005325	0.00015326	1529.5	5.8277e-06	5.6798e-06	1515.9	400.77	5.8616e-06	5.6091e-06	455.14	154.56	134.69	46.146	5.703e-06	56.612	157.725	28.588	11.785	-64.867	58.797	95.572	-64.797	-60.238	41.267	71.145	-61.398	-57.042	-56.650	-51.768	60.691	-52.505	-8191	255	
2408.941	1	1	0	0	0.17483	0.14034	0.098446	0.099867	0.087472	0.13996	0.25575	0.051699	0.24927	0.13336	0.15931	0.16894	0.32778	0.19469	0.10513	0.091287	-2.3708	-2.8479	-2.1792	-3.1271	-2.5958	-2.175	-3.2188	-2.4437	-2.5292	-3.0542	-2.3229	-2.9458	-2.8708	-2.2979	-2.8875	-2.3458	277.848	219.185	-34.879	251.474	10.604	39.064	232.715	223.908	248.323	48.569	5.124	250.641	-74.777	278.361	266.146	137.234	0.00021333	0.00056754	9.9367e-05	1525.2	4.0295e-06	6.0322e-06	1503.5	397.3	3.0111e-06	6.0501e-06	452.54	151.61	132.49	45.485	3.8712e-06	55.52	0.00047748	0.00050896	0.000146	1526.9	5.81e-06	5.9554e-06	1511.4	400.19	6.2192e-06	5.5848e-06	454.46	154.15	134.5	46.129	5.7641e-06	56.406	152.629	-7.328	7.072	-65.264	51.095	78.405	-65.471	-60.847	53.245	70.498	-61.243	-57.465	-56.841	-51.810	65.667	-52.474	-8191	255	
2409.037	1	1	0	0	0.13876	0.1109	0.10826	0.24373	0.035625	0.36796	0.28374	0.25568	0.16189	0.041536	0.10665	0.29579	0.031949	0.13488	0.32916	0.062599	-2.0521	-2.8937	-2.0667	-3.0938	-2.6063	-2.1208	-3.3021	-2.5208	-2.3708	-3.0854	-2.1583	-2.9917	-2.8125	-2.0563	-2.8083	-2.3417	66.413	126.635	-54.758	274.682	97.774	-7.496	250.909	218.539	168.993	266.321	208.756	236.864	142.111	-4.520	59.098	127.757	0.00022005	0.00054016	9.8404e-05	1523.2	2.9603e-06	6.3526e-06	1505.3	395.74	2.9098e-06	5.9435e-06	450.12	151.14	132.74	45.295	4.1287e-06	55.488	0.00047655	0.00052705	0.00014554	1522.8	5.8277e-06	6.0826e-06	1510.9	399.27	6.1802e-06	5.7403e-06	454.04	153.92	134.46	46.028	5.7921e-06	56.28	155.750	13.752	29.340	-65.272	58.774	94.382	-65.146	-60.851	57.318	81.279	-61.391	-57.033	-56.528	-51.696	58.850	-52.552	-8191	255	
2409.132	1	1	0	0	0.28964	0.11824	0.18257	0.061712	0.1726	0.064226	0.29679	0.34848	0.20669	0.22505	0.070961	0.25113	0.12644	0.12836	0.10292	0.35482	-2.0062	-3.1	-2.2479	-2.8979	-2.8583	-2.1875	-3.1917	-2.7333	-2.2875	-3.0417	-2.3333	-2.5771	-3.0062	-2.1958	-2.9854	-2.7917	-66.719	-66.809	-28.839	211.860	-19.737	212.512	208.569	244.421	157.010	209.207	200.451	248.215	261.328	-17.729	-65.855	177.788	0.0001756	0.00055762	0.00013348	1521.1	3.6059e-06	5.0088e-06	1504.3	395.58	2.5693e-06	4.9025e-06	451.75	151.72	132.44	45.203	2.4224e-06	55.517	0.00049562	0.00053132	0.00015176	1524.1	6.062e-06	5.9193e-06	1512.2	399.38	6.1117e-06	5.8029e-06	454.08	153.87	134.36	45.968	5.9379e-06	56.262	146.320	18.350	2.136	-65.063	53.023	70.707	-65.115	-60.580	42.593	47.623	-61.014	-56.816	-55.944	-51.212	61.295	-52.065	-8191	255	
2409.203	1	1	0	0	0.12745	0.18897	0.04387	0.20009	0.098044	0.046117	0.17501	0.40657	0.17859	0.15118	0.34888	0.26632	0.35739	0.34296	0.0088219	0.16434	-1.6583	-3.0563	-2.3042	-2.7667	-2.8708	-2.0646	-3.0896	-2.8354	-2.0938	-3.0771	-2.525	-2.6167	-3.0667	-2.325	-2.7083	-2.7333	150.910	118.007	65.483	-74.056	262.329	129.195	246.557	208.089	272.995	19.021	238.977	231.408	260.152	262.009	231.064	238.814	0.0001859	0.00057061	0.00017307	1526.9	3.5619e-06	5.8242e-06	1502.9	397.29	2.3494e-06	4.5667e-06	451.14	151.97	132.16	45.089	3.4635e-06	55.39	0.00049053	0.00054723	0.00014167	1526.8	5.8006e-06	6.058e-06	1509.1	399.73	6.1349e-06	5.7847e-06	454.47	154.02	134.19	45.875	5.8672e-06	56.264	147.217	8.789	3.828	-64.695	92.774	63.729	-64.730	-60.472	53.513	87.804	-61.045	-56.536	-55.877	-51.349	85.910	-51.947	-8191	255	
2409.301	1	1	0	0	0.10211	0.08563	0.1147	0.27328	0.34085	0.26915	0.38363	0.06695	0.06197	0.072009	0.13749	0.16081	0.24567	0.085131	0.24582	0.24517	-1.8021	-2.8083	-2.4	-2.7188	-2.8563	-2.1917	-2.9104	-2.775	-2.275	-2.9792	-2.4	-2.3708	-3.2146	-2.3146	-2.7438	-2.9417	122.777	113.709	-66.522	230.624	-8.842	54.517	252.623	262.367	74.062	-3.743	-36.021	-48.685	182.366	2.791	28.319	182.264	0.00022023	0.00051408	0.00013041	1524.6	3.7413e-06	4.5379e-06	1504.6	397.35	2.1308e-06	4.784e-06	451.62	151.77	132.97	45.378	4.9367e-06	55.615	0.00048212	0.00053458	0.00014646	1524.9	5.8084e-06	5.7627e-06	1512	399.86	6.0986e-06	5.6237e-06	454.07	154	134.57	45.995	5.7405e-06	56.36	153.168	7.802	13.408	-64.867	56.952	68.947	-64.798	-60.759	35.036	71.526	-60.904	-56.609	-56.069	-51.462	58.148	-52.056	-8191	255	
2409.420	1	1	0	0	0.25068	0.12552	0.070887	0.11922	0.17982	0.2272	0.08416	0.23187	0.06168	0.26233	0.14176	0.22045	0.26126	0.25099	0.078474	0.098825	-1.8292	-2.9542	-2.3125	-2.5354	-3.0875	-2.05	-2.6833	-3.075	-2.0167	-2.7375	-2.6021	-2.3458	-3.0271	-2.2792	-2.5333	-2.9125	-53.191	119.292	196.766	-57.887	49.708	276.651	-17.079	221.635	158.576	274.680	-74.464	196.417	-21.814	270.575	-32.623	272.089	0.00021395	0.00056397	0.00012632	1521.3	3.1547e-06	4.7452e-06	1503	396.27	3.1557e-06	5.8075e-06	449.75	150.99	132.15	45.131	4.2128e-06	55.33	0.00048557	0.00051456	0.0001427	1522.4	5.6757e-06	5.8227e-06	1510.4	398.95	6.0412e-06	5.5284e-06	453.45	153.75	134.16	45.965	5.8016e-06	56.281	144.629	10.979	20.067	-64.891	96.588	81.513	-64.753	-60.370	45.393	75.049	-60.841	-57.067	-56.551	-51.923	77.179	-52.173	-8191	255	
2409.516	1	1	0	0	0.1637	0.28217	0.1714	0.56866	0.32153	0.083561	0.20458	0.27449	0.12785	0.19064	0.14391	0.33534	0.1254	0.17706	0.23641	0.27651	-1.8583	-2.8542	-2.5104	-2.5271	-2.8958	-2.3021	-2.7208	-3.25	-2.2604	-2.8854	-2.8104	-2.3375	-3.2229	-2.5	-2.4104	-3.0458	-8.130	22.380	231.374	179.099	69.418	-27.468	258.492	213.577	42.914	64.609	-30.821	-75.119	268.059	224.662	159.312	233.509	0.00016257	0.00062549	0.00013057	1512.6	2.9469e-06	5.0234e-06	1495.9	395.22	2.0985e-06	4.6331e-06	451.72	151	131.64	45.279	4.758e-06	55.449	0.00047293	0.00051376	0.00014043	1515.7	5.8345e-06	5.4487e-06	1504.2	398.29	5.889e-06	5.3759e-06	452.86	153.46	133.78	45.818	6.0736e-06	56.179	147.931	5.172	28.690	-64.810	51.729	85.175	-64.885	-60.207	60.925	73.187	-60.607	-56.801	-56.289	-51.547	51.609	-52.003	-8191	255	
2409.612	1	1	0	0	0.37527	0.16893	0.23187	0.45379	0.096477	0.14259	0.17142	0.19524	0.1416	0.19129	0.11798	0.24791	0.21541	0.25169	0.46352	0.1166	-1.6938	-2.7687	-2.825	-2.3646	-2.9688	-2.4875	-2.5687	-3.3854	-2.1813	-2.8354	-2.8063	-2.1792	-3.15	-2.475	-2.1063	-3.1292	246.672	194.575	197.614	255.895	210.155	72.328	-17.052	231.372	-38.527	177.472	-37.228	209.698	35.259	255.654	129.993	23.504	0.00019642	0.00052726	0.00015055	1521	3.8727e-06	3.8331e-06	1498.9	395.65	2.1051e-06	6.1205e-06	450.54	151.35	132	45.259	4.4649e-06	55.406	0.00047858	0.00051301	0.00013803	1517.3	5.6616e-06	5.669e-06	1505.8	398.36	5.9074e-06	5.8679e-06	453.11	153.65	133.73	45.785	5.9244e-06	56.118	143.114	8.685	15.107	-64.642	78.158	69.604	-64.718	-60.266	50.834	83.378	-61.077	-57.357	-56.627	-51.982	62.928	-52.138	-8191	255	
2409.708	1	1	0	0	0.16874	0.24444	0.25671	0.25996	0.15472	0.070146	0.19894	0.12441	0.035748	0.11707	0.071671	0.084631	0.34552	0.14499	0.21967	0.041118	-1.6667	-2.5729	-2.8688	-2.3646	-2.8729	-2.4125	-2.5208	-3.1771	-2.0812	-2.4688	-2.9375	-2.1542	-3.15	-2.7708	-2.3625	-3.075	187.304	264.692	182.134	-70.909	268.211	-54.494	198.155	257.066	265.707	-55.454	247.692	-3.837	222.107	-58.022	-29.275	57.460	0.00019047	0.00053796	0.00014844	1514.8	4.603e-06	7.1911e-06	1500.9	396.3	2.9134e-06	6.4497e-06	450.98	150.62	132.04	45.117	4.0232e-06	55.205	0.00046579	0.00051526	0.00014492	1517.2	5.6549e-06	5.7285e-06	1506.8	398.56	5.8774e-06	5.9208e-06	452.95	153.39	133.69	45.699	6.1616e-06	56.026	146.529	6.185	20.052	-65.183	58.833	57.777	-65.064	-60.308	58.617	59.837	-60.576	-56.696	-55.820	-51.079	68.141	-51.820	-8191	255	
2409.805	1	1	0	0	0.098916	0.092542	0.033074	0.17708	0.10778	0.27352	0.24044	0.32605	0.080391	0.25079	0.093618	0.19517	0.26024	0.088107	0.081662	0.15165	-1.9708	-2.3937	-2.9125	-2.1917	-2.7479	-2.7083	-2.4958	-3.2708	-2.3625	-2.4792	-3.1229	-2.2417	-2.8688	-2.6792	-2.3521	-3.125	206.518	195.009	107.536	229.733	196.495	270.780	220.431	243.099	21.081	147.420	233.627	-10.957	238.745	220.109	210.895	126.184	0.00020529	0.00051234	0.00014636	1512.9	3.2549e-06	6.4167e-06	1494.7	394.23	1.6055e-06	5.9094e-06	448.42	150.33	131.59	44.989	3.7484e-06	55.119	0.00047516	0.00052508	0.00014213	1515.3	5.7554e-06	5.6936e-06	1501.7	397.61	5.7131e-06	5.7215e-06	451.58	152.94	133.39	45.605	6.2294e-06	55.942	152.527	12.959	6.730	-65.155	85.373	85.322	-65.022	-60.369	61.900	73.691	-61.111	-56.831	-56.276	-51.721	62.964	-52.001	-8191	255	
2409.901	1	1	0	0	0.24783	0.33568	0.16943	0.21638	0.062662	0.2492	0.077955	0.11079	0.22265	0.12135	0.067491	0.15667	0.047948	0.21916	0.0421	0.28172	-2.0146	-2.3146	-3.1083	-2.3792	-2.8396	-2.7354	-2.2896	-3.0458	-2.4521	-2.4688	-3.2979	-2.3125	-2.9062	-2.95	-2.2104	-2.9458	81.458	9.622	103.301	198.020	173.358	0.220	187.113	248.635	269.168	20.999	199.375	181.061	-71.249	197.450	-0.672	121.218	0.00016173	0.00059469	0.00012074	1513.4	3.69e-06	5.3981e-06	1493.5	395.87	1.1942e-06	5.1251e-06	448.29	151.01	131.44	45.117	4.5197e-06	55.036	0.00049294	0.00054793	0.00014205	1514.2	5.8246e-06	5.8617e-06	1499.8	398.04	5.7141e-06	6.1309e-06	452.08	153.06	133.28	45.591	6.2731e-06	55.892	148.263	13.611	20.455	-64.971	72.908	87.361	-64.967	-60.441	62.294	94.499	-60.898	-56.543	-55.903	-51.217	73.003	-51.835	-8191	255	
2410.021	1	1	0	0	0.036437	0.083303	0.32249	0.2235	0.063597	0.29761	0.10164	0.37438	0.26001	0.11383	0.14627	0.30416	0.48591	0.23749	0.031969	0.25217	-2.1021	-2.2792	-3	-2.3729	-2.7375	-2.95	-2.3896	-3.0812	-2.3937	-2.4458	-3.2812	-2.4646	-2.7062	-3.0938	-2.1688	-2.975	257.242	77.821	36.549	163.887	73.454	205.273	220.578	216.825	112.327	-5.827	142.892	-4.524	-53.023	261.182	-27.820	224.338	0.00017563	0.00055205	0.00015793	1513.3	3.5395e-06	5.3459e-06	1488.4	393.52	2.4212e-06	6.0414e-06	448.11	150.15	131.48	44.964	4.3142e-06	55.088	0.00047587	0.00056533	0.00014588	1511.9	5.9152e-06	5.4493e-06	1499.2	396.85	5.9869e-06	5.9208e-06	451.87	152.83	133.27	45.642	6.0797e-06	55.996	151.608	22.094	10.030	-64.328	58.405	71.960	-65.471	-60.653	50.743	74.435	-61.254	-57.167	-56.518	-51.829	92.390	-52.408	-8191	255	
2410.118	1	1	0	0	0.2016	0.090595	0.036282	0.40093	0.073024	0.21491	0.1232	0.15703	0.2471	0.14281	0.12348	0.083702	0.14791	0.15057	0.14581	0.19765	-2.4021	-2.1813	-3.0125	-2.4729	-2.5396	-2.95	-2.3521	-2.9583	-2.8292	-2.1604	-3.1958	-2.55	-2.5187	-2.9771	-2.3208	-2.8375	73.844	28.211	274.280	254.054	270.873	160.775	91.247	264.264	163.419	-55.510	269.061	204.497	215.804	185.704	200.889	246.166	0.00020298	0.00047737	0.00011604	1507.7	3.1806e-06	5.7962e-06	1493.8	396.39	2.1078e-06	4.9817e-06	448.15	150.92	131.15	44.844	4.6422e-06	55.011	0.00047837	0.00054771	0.00014888	1511.3	5.81e-06	5.8221e-06	1501.8	397.75	6.0275e-06	5.9669e-06	451.98	152.93	133.27	45.545	6.133e-06	55.961	150.972	25.089	-1.835	-65.126	74.913	68.852	-65.503	-60.973	62.162	71.114	-61.342	-57.008	-56.480	-51.969	92.457	-52.208	-8191	255	
2410.212	1	1	0	0	0.36287	0.27369	0.085169	0.32748	0.13534	0.23965	0.42055	0.11539	0.15581	0.10286	0.12293	0.16801	0.2108	0.15875	0.26404	0.16642	-2.4562	-2.2396	-2.9167	-2.4854	-2.1229	-3.1	-2.3583	-2.7854	-2.9479	-2.2104	-3.0521	-2.6229	-2.55	-3.2167	-2.3208	-2.7458	-32.833	-38.969	87.304	249.771	143.899	-27.422	245.774	160.362	62.310	1.182	14.951	250.728	122.381	253.094	198.216	221.089	0.00019416	0.00051302	0.00011523	1512.5	2.4789e-06	4.3648e-06	1493.3	395.51	2.1648e-06	4.7397e-06	450.09	150.44	131.69	44.943	3.7181e-06	55.277	0.00048762	0.00055065	0.00013744	1511.3	5.9146e-06	5.4925e-06	1501.5	398.2	5.9158e-06	6.1273e-06	452.43	152.76	133.69	45.661	5.9132e-06	56.045	147.022	7.150	10.786	-64.502	83.065	89.015	-64.791	-60.115	36.914	88.271	-60.747	-56.600	-55.973	-51.069	69.577	-51.985	-8191	255	
2410.308	1	1	0	0	0.36182	0.074907	0.21318	0.30523	0.063384	0.1672	0.23786	0.25318	0.11497	0.18143	0.09682	0.25983	0.30375	0.18732	0.036049	0.10929	-2.6625	-2.1417	-2.8646	-2.8479	-2.3083	-3.0271	-2.3771	-2.5417	-2.8625	-2.2729	-2.9354	-2.8042	-2.1625	-3.2125	-2.2875	-2.45	-1.788	184.805	71.632	-71.886	202.401	-3.229	230.412	-41.415	152.781	232.734	-0.800	-72.822	-50.072	-65.113	126.924	274.947	0.00018386	0.00045449	0.00018147	1514.1	3.7757e-06	5.4466e-06	1496	394.69	3.5074e-06	4.5509e-06	449.98	149.79	131.53	45.08	4.202e-06	55.238	0.00047459	0.00053394	0.0001452	1515.9	6.228e-06	5.5964e-06	1502.6	397.55	6.0196e-06	6.0854e-06	452.41	152.78	133.49	45.749	6.064e-06	56.008	150.793	8.795	25.448	-64.474	87.956	87.792	-64.609	-59.967	48.993	85.617	-60.961	-56.973	-56.259	-51.409	66.618	-51.626	-8191	255	
2410.429	1	1	0	0	0.33779	0.14127	0.11358	0.054188	0.081689	0.33628	0.12223	0.20771	0.24354	0.16797	0.26237	0.017964	0.18336	0.10115	0.13235	0.089683	-2.6854	-2.3896	-2.7583	-3.025	-2.1625	-3.1021	-2.6063	-2.3937	-2.9646	-2.3833	-2.9271	-2.8542	-2.1104	-3.1312	-2.3542	-2.5167	260.439	-18.407	36.728	82.427	213.242	-35.724	197.755	223.193	275.775	-46.308	183.576	12.740	239.932	275.949	101.875	240.489	0.00017621	0.00060397	0.00010757	1511.8	3.8579e-06	5.7237e-06	1498	394.96	3.1124e-06	5.3313e-06	449.97	150.78	131.48	44.92	3.8354e-06	55.209	0.00047575	0.00053501	0.00014145	1513.5	6.1067e-06	5.7561e-06	1502	397.79	5.9337e-06	5.9542e-06	452.49	153.13	133.59	45.693	5.8106e-06	56.1	144.296	12.837	-0.654	-64.879	56.009	83.050	-65.031	-60.333	60.669	75.229	-60.748	-56.817	-55.946	-51.316	51.408	-51.897	-8191	255	
2410.500	1	1	0	0	0.28435	0.18268	0.19669	0.12561	0.12785	0.10179	0.13856	0.4059	0.12788	0.50881	0.27903	0.22159	0.098675	0.10404	0.097712	0.11254	-2.6083	-2.2125	-2.6333	-3.3187	-2.0583	-2.8604	-2.6792	-2.4792	-3.0333	-2.1937	-2.6396	-2.8688	-2.2521	-2.8979	-2.6833	-2.4229	-44.980	215.263	-30.452	33.970	234.053	67.314	237.889	229.011	7.427	80.764	172.560	195.392	130.921	-77.987	155.873	62.301	0.00020175	0.00043339	0.0001416	1513.1	4.3189e-06	5.9987e-06	1496.4	395.44	1.9146e-06	6.2012e-06	449.16	151.09	131.35	45	2.9595e-06	55.299	0.00047771	0.00052401	0.00014009	1514.3	5.872e-06	5.5892e-06	1503.2	398.28	5.6846e-06	5.8606e-06	452.65	153.21	133.61	45.791	5.9026e-06	56.145	150.443	16.251	6.918	-64.620	94.428	68.193	-65.371	-60.690	27.813	73.530	-61.014	-57.012	-56.528	-51.713	87.076	-52.264	-8191	255	
2410.621	1	1	0	0	0.055303	0.11467	0.18924	0.29654	0.16473	0.21462	0.46215	0.17098	0.16764	0.080197	0.068472	0.11091	0.28682	0.062453	0.16113	0.2203	-2.7687	-2.2229	-2.5042	-3.25	-2.0958	-2.9396	-2.9729	-2.1937	-3.0896	-2.4521	-2.5458	-2.9604	-2.4167	-2.925	-2.7792	-2.1708	-49.098	37.258	-59.429	242.659	249.773	281.128	208.460	58.612	-23.501	-67.594	195.286	52.745	254.258	118.299	11.647	248.317	0.00018309	0.00063737	0.00013435	1513.6	3.1287e-06	5.2189e-06	1499.6	395.2	2.8958e-06	5.8992e-06	448.86	150.65	131.97	45.03	4.1654e-06	55.241	0.00047513	0.00052636	0.00014558	1513.7	5.9235e-06	5.6696e-06	1504.9	398.09	5.7957e-06	5.6911e-06	452.71	153.33	133.95	45.856	5.7271e-06	56.136	145.656	13.277	20.633	-65.102	69.891	71.680	-65.256	-60.592	60.672	76.902	-61.327	-57.238	-56.490	-51.582	66.961	-52.268	-8191	255	
2410.717	1	1	0	0	0.2239	0.21439	0.11985	0.16254	0.16438	0.32875	0.13244	0.20252	0.31587	0.2131	0.16376	0.010649	0.114	0.028971	0.11985	0.065394	-2.8	-2.6083	-2.3542	-3.3771	-2.1813	-2.8875	-3.0708	-2.2375	-2.9917	-2.4854	-2.3312	-2.9604	-2.1917	-2.8583	-2.9625	-2.0625	206.059	-2.533	82.961	271.759	263.293	279.149	219.919	158.672	111.841	-36.006	274.782	-72.474	6.589	-32.814	144.800	224.695	0.00019328	0.00058836	0.00016091	1513	2.9715e-06	4.7616e-06	1496.7	395.4	2.499e-06	6.5508e-06	451.99	150.56	131.3	45.135	3.4038e-06	55.156	0.00046858	0.00051344	0.00015256	1516	5.7939e-06	5.6072e-06	1504.7	398.47	5.8668e-06	5.5642e-06	452.93	153.64	133.6	45.95	5.6374e-06	56.172	144.310	10.537	14.595	-65.222	56.243	67.276	-65.327	-60.733	59.261	96.776	-61.015	-57.027	-56.566	-51.512	46.295	-52.151	-8191	255	
2410.813	1	1	0	0	0.1122	0.16388	0.068714	0.28414	0.16816	0.12936	0.17382	0.21158	0.20552	0.21587	0.20647	0.10886	0.16574	0.23469	0.22318	0.029995	-2.5479	-2.3812	-2.1917	-3.2667	-2.2833	-2.6542	-2.9313	-2.2062	-2.85	-2.7562	-2.2188	-3.2188	-2.4958	-2.5354	-2.9083	-1.8771	68.359	157.000	-35.745	-72.584	216.965	32.280	187.902	250.513	61.379	210.513	95.930	151.726	267.420	252.372	134.343	187.255	0.00020486	0.00030631	0.00013832	1511.3	3.9775e-06	6.7302e-06	1495.6	395.37	2.7651e-06	5.7659e-06	450.58	151.23	131.37	45.343	3.9533e-06	55.31	0.00046855	0.00051771	0.00015006	1514.6	5.9209e-06	5.567e-06	1502.8	397.86	5.6888e-06	5.7246e-06	453.88	153.51	133.64	45.969	5.5589e-06	56.193	143.640	21.442	13.122	-65.077	61.378	87.349	-65.064	-60.600	57.988	68.425	-60.805	-56.824	-56.007	-51.158	77.252	-51.862	-8191	255	
2410.909	1	1	0	0	0.23019	0.075896	0.21645	0.2906	0.099972	0.1608	0.35301	0.22848	0.16447	0.15877	0.43451	0.091859	0.1525	0.2018	0.14289	0.23364	-2.5396	-2.7875	-2.2479	-3.1437	-2.1729	-2.5187	-3.1271	-2.1875	-2.8583	-2.7375	-2.2375	-3.2854	-2.6729	-2.5083	-2.9625	-2.3812	173.761	92.973	-14.724	269.488	201.443	171.561	239.491	238.022	178.912	52.326	195.013	275.369	150.115	213.793	162.327	255.547	0.00019698	0.00064505	0.00014609	1511.1	2.133e-06	5.3177e-06	1492.5	393.68	1.7374e-06	5.392e-06	448.66	151.13	131.95	45.098	4.662e-06	55.123	0.000464	0.0005309	0.00014703	1511.6	5.6408e-06	5.6936e-06	1499.4	397.65	5.5266e-06	5.3522e-06	451.61	153.49	133.77	45.881	5.4961e-06	56.076	156.487	4.345	20.471	-64.634	61.426	68.622	-65.339	-60.547	44.328	79.177	-60.834	-56.774	-56.262	-51.575	66.179	-52.033	-8191	255	
2411.006	1	1	0	0	0.1041	0.022403	0.22004	0.14854	0.27787	0.11614	0.22182	0.35552	0.095612	0.34398	0.043677	0.35583	0.098433	0.081701	0.04322	0.11074	-2.4875	-2.7354	-2.0312	-3.2042	-2.4583	-2.3583	-3.2646	-2.2021	-2.8083	-2.8312	-2.3312	-2.9292	-2.5812	-2.2833	-3	-2.3292	6.190	243.002	175.755	164.969	128.750	123.492	231.156	206.175	-15.958	-6.439	156.946	253.116	-35.121	-32.416	123.584	120.305	0.00018538	0.00045051	0.00016698	1505.8	1.972e-06	6.701e-06	1493.2	395.73	1.7587e-06	5.8453e-06	447.46	150.92	131.1	45.161	3.7916e-06	54.999	0.00047215	0.00051296	0.00014845	1511.7	5.6903e-06	5.8683e-06	1500.5	397.81	5.7878e-06	5.8485e-06	451.7	153.38	133.54	45.828	5.6088e-06	56.006	146.189	7.493	16.200	-65.128	47.800	57.882	-65.340	-60.852	21.068	88.153	-60.992	-56.969	-56.138	-51.449	72.349	-51.947	-8191	255	
2411.100	1	1	0	0	0.097796	0.22372	0.086901	0.30887	0.19494	0.1216	0.20451	0.22609	0.26399	0.38548	0.22584	0.053044	0.1764	0.087568	0.23268	0.08052	-2.2687	-2.9604	-2.1437	-3.0792	-2.675	-2.3479	-3.2188	-2.6042	-2.4458	-2.8979	-2.1958	-3.0396	-2.775	-2.1813	-3.0812	-2.3812	205.658	173.478	84.610	268.170	262.001	173.606	196.496	239.950	279.750	117.451	218.301	-64.557	204.026	226.065	182.961	192.248	0.00020881	0.00052274	0.00014414	1510.2	3.0268e-06	5.9335e-06	1493.9	393.61	2.7912e-06	3.7712e-06	447.79	151.18	131.19	45.116	4.6629e-06	55.066	0.00047197	0.00049999	0.00014153	1510.7	5.7678e-06	5.6696e-06	1499.1	396.79	5.6583e-06	5.422e-06	451.37	153.27	133.35	45.856	5.7534e-06	56.037	150.120	29.241	18.384	-64.609	48.050	57.090	-65.362	-60.854	83.057	99.292	-61.210	-57.217	-56.676	-51.951	72.898	-52.766	-8191	255	
2411.196	1	1	0	0	0.20299	0.24025	0.15708	0.43947	0.0324	0.17633	0.21112	0.062478	0.13363	0.13122	0.24968	0.41968	0.19816	0.20181	0.14078	0.36997	-2.0625	-2.9562	-1.9708	-3.1875	-2.6708	-2.0187	-3.2875	-2.375	-2.4417	-3.1792	-2.3604	-2.8208	-2.7583	-2.2792	-2.8146	-2.5042	265.403	169.205	116.926	219.275	261.054	-30.359	179.845	-24.032	82.923	128.703	255.622	-77.293	249.307	253.521	207.303	211.597	0.00018454	0.00052915	0.00016242	1504.9	3.2362e-06	4.6423e-06	1492.1	393.88	3.0315e-06	4.1855e-06	449.86	150.4	131.53	45.151	3.438e-06	55.175	0.00046171	0.00048968	0.000147	1508.6	5.847e-06	5.5844e-06	1496.2	396.71	5.9211e-06	5.3668e-06	451.23	153.11	133.54	45.801	5.5342e-06	56.073	147.387	12.952	5.883	-65.104	74.115	84.922	-65.506	-60.883	34.929	70.175	-61.055	-57.317	-56.655	-51.677	71.209	-52.453	-8191	255	
2411.292	1	1	0	0	0.37606	0.17145	0.24946	0.24961	0.17572	0.15761	0.11995	0.18855	0.28194	0.13361	0.24331	0.2672	0.10548	0.15348	0.35838	0.07962	-2.0187	-2.9813	-2.1417	-2.8833	-2.7271	-2.2958	-3.0792	-2.5271	-2.0896	-2.9958	-2.2667	-2.7479	-2.925	-2.2	-2.9875	-2.6396	147.138	202.448	264.191	229.565	262.315	9.732	-76.913	175.177	13.857	48.574	232.407	258.687	-11.852	133.354	55.312	244.211	0.00018563	0.00059321	0.00012221	1507.5	2.539e-06	6.412e-06	1486.8	392.64	2.9133e-06	5.8973e-06	447.09	150.72	131.33	45.051	3.6394e-06	55.217	0.00046864	0.00050709	0.00013939	1509.9	5.6033e-06	5.8263e-06	1497.4	396.22	5.8558e-06	5.4542e-06	451.71	153.09	133.3	45.783	5.4882e-06	56.086	146.418	6.646	38.226	-65.253	29.145	67.477	-65.542	-60.991	36.940	79.861	-61.217	-57.290	-56.659	-51.843	69.859	-52.235	-8191	255	
2411.388	1	1	0	0	0.13592	0.053453	0.12608	0.42056	0.13199	0.12191	0.36942	0.15523	0.22054	0.03958	0.10429	0.074719	0.2076	0.11263	0.22584	0.10611	-1.8937	-3.0833	-2.4083	-2.9333	-2.8937	-2.0292	-3.2271	-2.8688	-2.1854	-3.0083	-2.5687	-2.7583	-3.2812	-2.2042	-2.6937	-2.9062	25.369	8.005	257.951	247.416	-35.281	-75.248	276.754	232.349	272.181	201.145	248.730	180.062	-26.515	258.691	129.915	-23.113	0.00019029	0.000481	0.00011828	1509.4	3.6806e-06	5.1832e-06	1490.9	393.59	2.7282e-06	4.3982e-06	447.09	150.46	131.73	45.22	4.7559e-06	55.302	0.00047825	0.00049299	0.00014075	1509.7	5.697e-06	5.7621e-06	1497.3	396.97	5.8115e-06	5.2975e-06	450.92	152.97	133.49	45.786	5.7304e-06	55.957	154.055	24.899	3.956	-65.085	60.968	84.764	-65.312	-60.899	39.964	84.902	-61.189	-57.152	-56.585	-51.631	78.417	-52.490	-8191	255	
2411.509	1	1	0	0	0.079337	0.25712	0.097176	0.31983	0.2834	0.023687	0.13631	0.21268	0.1364	0.22945	0.15954	0.14469	0.039531	0.1535	0.21317	0.1221	-1.7542	-3	-2.2646	-2.4167	-3.0479	-2.1875	-2.8438	-2.7979	-2.0354	-3.0812	-2.5771	-2.5125	-3.0854	-2.3458	-2.925	-2.925	109.136	59.327	171.909	-66.868	109.733	118.622	275.055	-76.202	-63.987	220.373	-38.725	0.619	210.365	-49.193	124.461	43.217	0.00020088	0.00050521	9.2588e-05	1502.7	4.6882e-06	4.7617e-06	1485.9	393.78	2.9927e-06	3.2417e-06	447.4	150.71	131.31	45.316	3.6655e-06	54.883	0.00046995	0.00047089	0.00013793	1505.3	5.5851e-06	5.4613e-06	1495.7	396.1	5.8194e-06	5.4421e-06	450.82	152.92	133.31	45.739	5.3918e-06	55.916	151.132	4.732	14.969	-65.292	71.802	68.883	-65.335	-60.838	34.395	85.827	-61.177	-57.359	-56.567	-51.799	65.998	-52.584	-8191	255	
2411.605	1	1	0	0	0.12858	0.102	0.21063	0.3205	0.20482	0.21503	0.12986	0.30905	0.068476	0.14436	0.14441	0.21415	0.15107	0.42586	0.18251	0.11189	-1.7604	-2.9688	-2.5646	-2.4833	-2.9646	-2.3333	-2.8771	-3.0042	-2.1646	-3.0167	-2.4354	-2.3875	-3.0354	-2.3479	-2.4958	-2.9813	-17.712	117.568	235.293	267.987	92.451	92.591	213.963	222.404	94.167	144.352	187.915	176.995	173.866	180.466	-66.615	191.331	0.00019907	0.00060008	0.00013569	1505.7	2.723e-06	5.1541e-06	1487.9	392.9	2.9503e-06	4.5747e-06	448.66	150.03	131.83	44.866	2.2707e-06	54.889	0.00047661	0.00049187	0.00013877	1505.3	5.3519e-06	5.4679e-06	1494.1	396.49	5.7194e-06	5.3425e-06	450.55	152.66	133.34	45.638	5.7506e-06	55.897	149.400	17.727	2.349	-65.207	68.659	67.278	-65.317	-61.095	37.791	63.041	-61.279	-57.174	-56.448	-52.029	77.199	-52.440	-8191	255	
2411.701	1	1	0	0	0.044235	0.14154	0.090919	0.33257	0.063586	0.10456	0.31137	0.20111	0.24705	0.28308	0.25055	0.23087	0.12555	0.24224	0.10889	0.19146	-1.6625	-2.6583	-2.6917	-2.5	-3.0375	-2.3771	-2.6646	-3.0125	-2.1688	-2.9333	-2.7854	-2.2479	-3.1167	-2.5292	-2.4708	-3.2896	142.894	203.056	75.757	235.432	-30.371	171.556	239.420	229.137	-12.189	-7.352	200.352	161.475	179.638	-32.517	85.306	-38.506	0.00017316	0.00041816	0.00015529	1499.6	3.3981e-06	5.8828e-06	1484.7	393.63	3.1034e-06	4.3769e-06	446.02	150.12	131.16	44.917	3.7656e-06	55.005	0.0004765	0.00049572	0.0001396	1504	5.6273e-06	5.4565e-06	1493	396.24	5.8732e-06	5.5186e-06	449.95	152.55	133.14	45.648	5.7293e-06	55.952	143.437	13.432	35.617	-65.245	88.750	80.700	-65.302	-60.656	38.162	83.899	-61.273	-57.053	-56.554	-51.822	74.485	-52.464	-8191	255	
2411.798	1	1	0	0	0.3822	0.064361	0.040393	0.40407	0.25444	0.06971	0.19627	0.058897	0.33639	0.11938	0.066967	0.14715	0.042422	0.26589	0.27423	0.23815	-1.7563	-2.7333	-2.725	-2.4083	-3.0021	-2.6	-2.5417	-3.1021	-2.1417	-2.8292	-2.9417	-2.475	-2.9458	-2.5479	-2.3583	-3.3021	91.773	78.227	217.548	246.270	103.534	222.311	277.691	205.811	226.754	-45.849	206.291	139.201	40.432	251.614	224.481	234.963	0.00017299	0.00045222	0.00010823	1497.9	2.1495e-06	4.8488e-06	1488.8	392.16	1.4294e-06	5.1988e-06	446.16	150.56	130.97	45.064	3.3963e-06	55.282	0.00045868	0.0004796	0.0001337	1500.7	5.3628e-06	5.546e-06	1493.2	395.34	5.5814e-06	5.5715e-06	449.96	152.85	133.2	45.636	5.7288e-06	55.98	148.245	28.284	14.358	-65.234	58.376	86.081	-65.178	-60.796	19.805	71.202	-61.535	-57.186	-56.743	-51.781	69.621	-52.423	-8191	255	
2411.894	1	1	0	0	0.19995	0.20207	0.053319	0.17367	0.20635	0.042172	0.12119	0.17661	0.13802	0.16459	0.095562	0.25523	0.049927	0.1924	0.2091	0.24935	-1.9958	-2.6396	-2.7875	-2.3937	-3.0708	-2.5583	-2.4146	-3.1813	-2.3375	-2.6813	-2.9708	-2.1437	-2.8792	-2.7021	-2.0833	-3.0771	248.891	253.956	212.390	243.626	26.019	85.297	164.115	210.139	-61.938	182.845	59.666	-56.558	275.597	87.099	237.968	137.015	0.00017203	0.00055762	0.00012685	1497.8	3.5307e-06	5.7922e-06	1484.7	392.66	2.6846e-06	4.1673e-06	447.88	149.68	131.31	44.95	5.6402e-06	55.093	0.00045901	0.00049977	0.00013531	1500.4	5.4612e-06	5.4679e-06	1490.9	395.63	5.701e-06	5.5326e-06	450.64	152.5	133.2	45.696	5.7018e-06	55.917	146.576	11.757	8.626	-65.380	66.028	69.165	-65.287	-61.067	59.158	69.755	-61.236	-57.169	-56.665	-51.793	59.248	-52.429	-8191	255	
2411.990	1	1	0	0	0.16342	0.073445	0.079023	0.354	0.13738	0.33895	0.55232	0.31358	0.057709	0.15821	0.28914	0.34508	0.18296	0.19241	0.060198	0.18101	-1.9979	-2.5396	-3.0333	-2.4125	-2.6542	-2.6708	-2.3042	-2.9583	-2.2208	-2.5	-3.1729	-2.3333	-2.8854	-3.0354	-2.1979	-3.1437	-76.659	-36.470	139.506	251.506	-52.738	208.877	218.065	247.421	-50.093	239.145	240.641	265.892	176.336	149.112	135.493	-43.684	0.0001943	0.00055336	0.00013862	1498.3	4.4977e-06	4.3218e-06	1485.5	393.71	2.807e-06	5.1771e-06	447.13	149.9	131.31	44.936	3.9154e-06	54.98	0.00046829	0.0005175	0.00013599	1501.4	5.8006e-06	5.573e-06	1492	396.2	5.6004e-06	5.535e-06	450.48	152.71	133.21	45.646	5.6161e-06	56.034	144.778	24.751	26.015	-65.216	69.365	80.633	-65.401	-60.821	67.570	72.721	-61.276	-57.167	-56.466	-51.999	51.990	-52.357	-8191	255	
2412.109	1	1	0	0	0.12646	0.1534	0.24156	0.25574	0.19329	0.13584	0.13311	0.23755	0.21259	0.14304	0.33211	0.14422	0.12649	0.22473	0.17365	0.34663	-2.1396	-2.3979	-2.9146	-2.4188	-2.8354	-2.8542	-2.5417	-3.2229	-2.6521	-2.5021	-3.2167	-2.2667	-2.8771	-2.9854	-2.2125	-3.0771	106.170	-34.170	-21.172	223.866	-0.352	183.229	248.180	182.517	236.387	96.910	267.359	48.467	268.496	129.010	174.081	244.915	0.00018926	0.00049591	0.00017894	1499.7	3.8287e-06	5.129e-06	1483.5	392.19	1.773e-06	4.7524e-06	446.49	150.55	131.85	45.089	2.9575e-06	55.217	0.00046558	0.00050853	0.00013769	1502.2	5.6653e-06	5.4571e-06	1491.5	395.72	5.6867e-06	5.6523e-06	450.12	152.67	133.58	45.753	5.7837e-06	56.073	143.937	-7.226	0.560	-65.124	72.258	64.826	-65.333	-60.685	20.589	75.377	-61.338	-57.210	-56.552	-51.805	70.703	-52.543	-8191	255	
2412.205	1	1	0	0	0.10403	0.26475	0.21875	0.39602	0.28453	0.091547	0.24576	0.31633	0.15098	0.28068	0.17937	0.25335	0.438	0.11459	0.1484	0.27957	-2.2812	-2.2146	-3.0833	-2.3896	-2.575	-2.8479	-2.5604	-2.9958	-2.6708	-2.3083	-3.2417	-2.3604	-2.6354	-3.1625	-2.1125	-3.0104	2.119	-40.748	-2.979	198.282	264.039	70.988	256.708	251.051	130.356	114.501	-48.597	200.697	278.297	273.417	-5.992	262.362	0.00019259	0.00056637	0.00014187	1498.4	3.1033e-06	3.6759e-06	1483.2	391.51	2.6474e-06	5.6814e-06	448.06	150.35	131.24	45.063	3.8917e-06	55.199	0.00046632	0.00051403	0.00013327	1502.2	5.6851e-06	5.5256e-06	1491	395.89	5.6994e-06	5.8552e-06	450.34	152.69	133.29	45.698	5.7383e-06	56.071	154.300	19.764	7.004	-65.127	67.563	71.415	-65.268	-60.763	58.273	76.254	-60.959	-57.189	-56.530	-51.918	67.801	-52.347	-8191	255	
2412.301	1	1	0	0	0.031704	0.023654	0.19584	0.28254	0.076857	0.15152	0.45088	0.26366	0.31279	0.13473	0.19281	0.26997	0.24164	0.051144	0.09956	0.22495	-2.2	-2.0667	-3.025	-2.525	-2.3583	-3.0479	-2.2125	-3.0083	-2.8042	-2.2542	-3.2021	-2.6021	-2.3396	-3.1875	-2.2625	-2.7958	104.910	265.960	81.431	213.475	212.201	-8.874	213.192	-51.394	145.218	-58.340	269.169	212.439	202.717	277.530	105.541	200.811	0.00020925	0.00046209	0.00015433	1500.8	1.9139e-06	5.0434e-06	1484.4	394.14	2.1369e-06	6.6148e-06	448.36	150.12	131.13	44.838	5.1021e-06	55.108	0.00046424	0.00052054	0.00013321	1502.5	5.6825e-06	5.5646e-06	1494.8	396.67	5.6509e-06	5.7513e-06	450.42	152.78	133.41	45.748	5.5555e-06	56.078	144.534	15.471	21.085	-65.172	71.895	88.685	-65.339	-60.551	65.408	82.098	-61.031	-57.258	-56.492	-51.735	58.508	-52.450	-8191	255	
2412.397	1	1	0	0	0.25112	0.13057	0.052007	0.12333	0.19032	0.26448	0.3391	0.17671	0.10581	0.16774	0.11577	0.13383	0.19776	0.21549	0.22491	0.1364	-2.7104	-2.0646	-2.9813	-2.6958	-2.2854	-3.15	-2.5	-2.8458	-2.9646	-2.3438	-3.0771	-2.725	-2.4958	-3.0479	-2.3312	-2.7146	26.159	127.388	142.961	142.082	89.255	-65.069	253.990	217.044	271.968	132.516	-5.615	224.328	42.610	-68.605	58.839	222.122	0.00018698	0.00039273	0.00010955	1500.9	4.6034e-06	5.9675e-06	1487.4	392.96	3.0112e-06	5.7863e-06	448.49	150.38	131.92	45.329	2.8777e-06	54.956	0.00046011	0.00050447	0.00013101	1504.8	5.9313e-06	5.1828e-06	1494.1	396.87	5.3813e-06	5.7282e-06	451.38	152.9	133.81	45.96	5.4181e-06	56.075	149.139	13.633	27.564	-65.291	85.070	66.787	-65.330	-60.715	60.258	73.093	-61.267	-57.474	-56.576	-51.943	70.782	-52.575	-8191	255	
2412.493	1	1	0	0	0.10288	0.26373	0.20973	0.40945	0.12168	0.22824	0.15059	0.29345	0.16863	0.062147	0.13255	0.19624	0.25849	0.17379	0.14569	0.097097	-2.5333	-2.1333	-2.9396	-2.8083	-2.2438	-3.0812	-2.4854	-2.7812	-2.9792	-2.3229	-2.9167	-2.8042	-2.3354	-3.1792	-2.3229	-2.6542	74.138	274.717	-61.895	260.545	65.996	158.458	277.201	219.102	-2.423	216.455	270.731	-19.671	276.192	163.572	47.530	233.273	0.00020798	0.00052453	0.00016166	1501.2	2.615e-06	5.8229e-06	1483	393.68	2.5603e-06	4.0162e-06	446.56	149.87	131.37	44.992	4.5302e-06	55.261	0.00046058	0.00049065	0.00013343	1505	5.6679e-06	5.2344e-06	1492.4	396.72	5.5672e-06	5.5356e-06	450.37	153.15	133.32	45.763	5.6817e-06	56.112	148.232	7.186	25.878	-65.195	78.904	64.007	-65.489	-60.741	20.669	59.410	-61.223	-56.939	-56.335	-51.637	62.430	-52.435	-8191	255	
2412.589	1	1	0	0	0.22753	0.23389	0.18016	0.18571	0.11565	0.1049	0.10295	0.25942	0.11202	0.1264	0.26155	0.12465	0.211	0.12782	0.17629	0.10552	-2.6042	-2.1208	-2.9458	-2.9437	-1.9917	-3.0854	-2.75	-2.5625	-2.9125	-2.2062	-2.8875	-2.7125	-2.3146	-3.1792	-2.3458	-2.5375	110.308	111.120	1.509	235.018	200.666	92.752	194.055	236.079	173.672	143.847	275.808	-58.406	239.152	267.257	131.318	156.490	0.00021853	0.00048726	0.00014015	1505.4	2.7157e-06	6.2596e-06	1482.1	394.48	2.9667e-06	4.5533e-06	447.74	150.42	131.41	45.051	3.7939e-06	55.03	0.00046148	0.00052038	0.00013296	1503	5.6606e-06	5.4085e-06	1493.4	396.73	5.6499e-06	5.3832e-06	450.99	152.92	133.52	45.738	5.4507e-06	56.001	148.515	12.856	20.012	-65.216	66.583	66.413	-65.330	-60.465	50.082	75.610	-61.127	-57.158	-56.584	-51.741	67.052	-52.085	-8191	255	
2412.686	1	1	0	0	0.068863	0.14341	0.054579	0.21089	0.27062	0.068177	0.15615	0.26709	0.26086	0.076424	0.21525	0.39539	0.3334	0.10964	0.19563	0.16178	-2.5687	-2.3333	-2.7583	-3.0792	-2.2646	-2.7979	-2.8063	-2.4333	-3.0729	-2.3979	-2.8042	-3.0563	-2.2333	-3.0583	-2.5187	-2.4396	-2.951	-63.103	201.599	226.851	-60.660	-64.548	161.679	203.099	251.915	267.263	271.540	250.860	213.735	-14.961	20.971	145.029	0.00018244	0.00055159	0.00013003	1500.5	3.0063e-06	5.3798e-06	1489.3	393.53	1.0612e-06	6.0077e-06	449.41	150.27	131.12	45.119	4.2463e-06	55.017	0.0004516	0.00049011	0.00013717	1504.4	5.6518e-06	5.1972e-06	1493	396.77	5.4192e-06	5.4883e-06	450.93	152.97	133.46	45.869	5.5544e-06	56.092	151.514	10.078	11.048	-65.361	64.828	72.350	-65.535	-60.839	86.335	78.281	-61.027	-57.235	-56.658	-51.686	71.236	-52.450	-8191	255	
2412.806	1	1	0	0	0.20275	0.094326	0.071319	0.070512	0.079162	0.12991	0.19941	0.24216	0.027439	0.086532	0.13018	0.15047	0.06969	0.13169	0.18311	0.20098	-2.7521	-2.3333	-2.6937	-3.2542	-2.1375	-3.0292	-3.1521	-2.3854	-3.2625	-2.3958	-2.55	-3.0458	-2.3104	-3.0146	-2.8042	-2.3083	172.219	25.107	273.036	162.260	49.640	-8.886	146.004	253.363	-14.448	30.202	223.016	142.385	268.866	227.455	-70.084	116.563	0.00021212	0.00033793	0.00015075	1503.6	3.1449e-06	4.0675e-06	1487.3	393.19	2.8349e-06	4.4851e-06	449.2	150.36	131.46	45.084	4.6751e-06	55.138	0.00045993	0.00050533	0.00013775	1503.9	5.7059e-06	5.3257e-06	1493.2	396.31	5.4424e-06	5.3425e-06	451.28	152.9	133.51	45.827	5.8745e-06	56.123	145.647	23.766	8.554	-65.179	58.586	66.979	-65.120	-60.488	58.756	65.642	-60.758	-56.853	-56.295	-51.549	60.123	-52.355	-8191	255	
2412.901	1	1	0	0	0.29785	0.25351	0.126	0.28897	0.25682	0.081759	0.34889	0.097654	0.20585	0.063282	0.053184	0.17182	0.18834	0.13306	0.11677	0.10213	-2.6604	-2.4625	-2.1917	-3.175	-2.05	-2.7667	-3.0125	-2.3688	-3.0667	-2.65	-2.4125	-3.2646	-2.3479	-2.7521	-2.9271	-2.2875	92.821	128.526	189.010	205.614	-26.255	179.733	233.273	267.217	22.613	-45.882	174.991	73.336	-63.093	-36.375	88.855	94.267	0.00017526	0.00038116	0.00013389	1497.8	4.0736e-06	4.4388e-06	1478.4	392.75	1.9057e-06	4.8338e-06	448.13	149.94	131.77	45.113	4.4553e-06	55.215	0.0004566	0.00049833	0.00014072	1502.3	5.7345e-06	5.4049e-06	1491.3	395.85	5.3829e-06	5.4506e-06	451.33	152.82	133.54	45.782	5.5157e-06	56.058	155.268	25.004	21.642	-65.407	81.013	84.557	-65.427	-60.682	63.243	63.946	-61.050	-57.128	-56.603	-51.608	72.922	-52.255	-8191	255	
2412.974	1	1	0	0	0.11411	0.26937	0.23583	0.12873	0.20445	0.27284	0.081042	0.11304	0.050368	0.22323	0.28077	0.067942	0.22102	0.32511	0.18334	0.22522	-2.7771	-2.5062	-2.4417	-3.4125	-2.2042	-2.5667	-3.0833	-2.5875	-3.1104	-2.6	-2.425	-3.2396	-2.4938	-2.6708	-3	-2.3854	45.350	-45.447	249.664	243.393	113.427	90.552	177.222	156.259	1.148	128.259	209.867	57.915	-20.367	38.693	90.562	192.464	0.00016923	0.00048353	0.00013557	1498.5	3.3122e-06	2.6675e-06	1484.6	393.26	2.2809e-06	3.6533e-06	449.09	150.51	131.29	45.148	3.9545e-06	55.262	0.00046308	0.00047906	0.00013731	1502.4	5.5804e-06	5.2698e-06	1492.6	396.02	5.4597e-06	5.3072e-06	450.72	153.04	133.51	45.875	5.2931e-06	56.057	140.953	13.096	9.000	-65.202	79.366	90.396	-65.292	-60.601	52.892	84.615	-61.022	-56.991	-56.435	-51.881	55.565	-52.386	-8191	255	
2413.070	1	1	0	0	0.15026	0.1114	0.15537	0.37585	0.17074	0.088707	0.12354	0.28068	0.2397	0.17655	0.13342	0.16648	0.154	0.22225	0.039377	0.24501	-2.5667	-2.8417	-2.1854	-3.2875	-2.3625	-2.4938	-3.1479	-2.4208	-3.1479	-2.8875	-2.3667	-3.1646	-2.3917	-2.5729	-3.1	-2.3958	157.868	214.130	116.029	218.560	90.659	4.514	-34.597	236.375	188.702	37.555	264.271	57.607	235.335	229.537	158.742	122.528	0.00018486	0.00043221	0.00013969	1494	2.559e-06	4.9891e-06	1482.2	394.12	1.9043e-06	5.1451e-06	447.34	150.24	131.51	45.268	3.0255e-06	55.012	0.00046341	0.00048611	0.00013936	1499.9	5.5872e-06	5.3449e-06	1491.7	396.5	5.5266e-06	5.4621e-06	450.66	152.93	133.45	45.91	5.4972e-06	56.027	142.489	26.825	6.354	-65.227	62.051	71.313	-65.291	-60.738	32.039	78.877	-61.077	-57.191	-56.633	-51.594	81.753	-52.142	-8191	255	
2413.189	1	1	0	0	0.15324	0.16169	0.16772	0.20616	0.055572	0.31414	0.29595	0.093608	0.029614	0.132	0.18039	0.051957	0.35864	0.16344	0.085754	0.076107	-2.4604	-2.7146	-2.0312	-3.2354	-2.5708	-2.3958	-3.2229	-2.4396	-2.8396	-2.9896	-2.2542	-3.0563	-2.6667	-2.3875	-3.3771	-2.3771	-71.784	70.247	-47.147	272.206	51.401	-21.782	216.522	265.840	91.072	157.560	179.360	-77.106	243.661	-66.167	-10.701	201.154	0.00018811	0.00056751	0.00012522	1503.2	3.7909e-06	4.3707e-06	1479.7	394.11	2.9206e-06	4.5285e-06	447.91	150.69	131.57	45.103	4.6442e-06	55.124	0.0004552	0.00050469	0.00013646	1501.8	5.5846e-06	5.4061e-06	1489	396.15	5.6077e-06	5.4336e-06	450.42	152.99	133.45	45.809	5.4781e-06	56.031	140.147	12.012	12.852	-65.253	84.779	66.368	-65.313	-60.654	68.357	83.160	-61.092	-56.942	-56.426	-51.718	36.588	-52.303	-8191	255	
2413.285	1	1	0	0	0.13326	0.23313	0.17295	0.36983	0.37674	0.093848	0.14886	0.26742	0.15488	0.2394	0.30205	0.34601	0.061526	0.12244	0.20222	0.17964	-2.1708	-2.9354	-2.2896	-2.9854	-2.6979	-2.325	-3.2188	-2.5438	-2.5062	-3.0104	-2.275	-2.8979	-2.7333	-2.2354	-3.0687	-2.5812	-7.037	-47.375	139.873	226.895	21.975	273.171	194.977	235.500	109.223	19.780	240.070	213.666	-59.482	-42.099	111.692	-62.523	0.00018449	0.00054974	0.00011862	1498	2.9519e-06	4.6953e-06	1481.6	392.1	2.0367e-06	5.4157e-06	446.01	151.2	130.9	44.853	4.4496e-06	54.944	0.00046273	0.00049262	0.00013765	1500.5	5.6106e-06	5.3455e-06	1489.1	395.42	5.4303e-06	5.4299e-06	450.45	153.11	133.2	45.675	5.4041e-06	55.935	152.370	14.673	15.355	-64.927	79.583	73.129	-65.573	-61.078	25.907	66.218	-61.299	-57.301	-56.861	-52.039	42.269	-52.554	-8191	255	
2413.381	1	1	0	0	0.16513	0.088773	0.24958	0.2996	0.075881	0.3577	0.079418	0.15845	0.10679	0.084635	0.19526	0.16127	0.057758	0.036101	0.26249	0.15155	-2.0812	-2.9271	-2.2833	-3.1583	-2.5812	-2.2125	-3.3396	-2.7958	-2.6437	-3.1896	-2.3563	-2.8875	-2.9229	-2.1188	-3.025	-2.6542	154.362	249.870	83.803	-62.105	47.849	111.128	-22.289	261.247	143.049	192.568	206.159	-8.843	6.719	-32.820	-26.904	228.296	0.00019972	0.00052674	0.00013439	1493.5	4.0824e-06	5.2532e-06	1480.9	391.1	2.2929e-06	4.2085e-06	446.96	150.69	131.13	44.951	2.5861e-06	55	0.00047548	0.00048488	0.00013462	1497.3	5.4222e-06	5.6018e-06	1488	395.04	5.8e-06	5.5842e-06	450.54	152.93	133.12	45.623	5.2298e-06	55.941	148.751	7.329	7.941	-65.302	83.214	75.414	-65.560	-60.937	66.070	67.694	-61.574	-57.237	-56.846	-52.235	73.439	-52.599	-8191	255	
2413.502	1	1	0	0	0.21187	0.30456	0.31106	0.44423	0.12914	0.053327	0.27893	0.14322	0.16978	0.31464	0.21471	0.29607	0.045898	0.12753	0.26424	0.057603	-2.0687	-3.0771	-2.1792	-2.9271	-2.9333	-2.0854	-3.0187	-2.8979	-2.3604	-3.1437	-2.4167	-2.7562	-3.1063	-2.3021	-3.025	-2.6792	228.677	226.064	-64.697	261.112	155.768	207.693	257.462	8.779	149.022	225.363	-39.734	276.152	109.774	11.588	214.975	27.350	0.00018271	0.00045352	0.00015896	1494.6	4.072e-06	5.1003e-06	1478.6	393.48	1.1906e-06	6.3208e-06	444.78	150.33	131.2	45.087	3.5064e-06	55.033	0.00045871	0.00048851	0.00013915	1498.7	5.7153e-06	5.7789e-06	1490.6	395.84	5.7942e-06	5.6389e-06	449.44	153.16	133.43	45.75	5.5163e-06	55.944	149.582	25.916	18.231	-65.446	58.202	99.530	-65.453	-60.991	37.098	62.315	-61.610	-56.915	-56.799	-51.844	71.170	-52.566	-8191	255	
2413.598	1	1	0	0	0.16435	0.10213	0.21056	0.06628	0.10368	0.12897	0.27628	0.071355	0.17101	0.33632	0.37544	0.42158	0.2226	0.28862	0.2576	0.19563	-1.9417	-3.1104	-2.4104	-2.8729	-2.9833	-2.2667	-3.0917	-2.7562	-2.4167	-3.075	-2.4646	-2.6021	-3.1104	-2.2812	-2.8187	-2.8458	88.346	-10.332	-15.398	-29.781	92.827	142.073	235.205	-74.802	90.935	126.064	-59.018	220.359	-78.140	256.369	220.207	199.125	0.00019796	0.00063701	0.00013349	1499.5	2.1403e-06	4.5285e-06	1477.6	392.74	2.9667e-06	5.7319e-06	447.2	150.43	131.45	45.055	2.7693e-06	55.108	0.00047064	0.0004813	0.00013747	1500.8	5.253e-06	5.3989e-06	1488.1	395.89	5.6725e-06	5.5271e-06	450.5	153.01	133.3	45.775	5.4636e-06	56.07	147.536	9.229	23.448	-65.250	74.943	84.155	-65.460	-60.974	37.118	73.685	-61.134	-57.298	-56.653	-51.902	71.231	-52.372	-8191	255	
2413.670	1	1	0	0	0.063204	0.11897	0.13469	0.26015	0.039664	0.088776	0.21749	0.23162	0.1668	0.30579	0.12643	0.27049	0.15448	0.22425	0.029133	0.051336	-1.7167	-3.0187	-2.4917	-2.6375	-2.9583	-2.1312	-2.9938	-2.7604	-2.1292	-2.9417	-2.5979	-2.5062	-3.1854	-2.1521	-2.7583	-2.9958	213.908	-5.160	179.020	245.497	278.186	30.213	266.896	214.411	224.207	17.180	56.298	264.270	229.898	29.758	280.890	228.898	0.0001925	0.00060953	0.0001007	1496.6	3.2465e-06	6.8592e-06	1479.2	392.41	2.1766e-06	4.0353e-06	445.48	150.55	131.52	45.107	3.6442e-06	55.398	0.00047352	0.00047778	0.00013399	1498.3	5.2702e-06	5.2332e-06	1489	396.21	5.5193e-06	5.2216e-06	449.98	153.18	133.54	45.842	5.454e-06	56.073	143.953	6.732	19.078	-65.061	59.988	76.314	-65.436	-60.816	29.741	70.900	-61.317	-57.034	-56.565	-51.963	50.242	-52.753	-8191	255	
2413.790	1	1	0	0	0.36417	0.15324	0.048079	0.14186	0.14394	0.20414	0.39413	0.11909	0.16916	0.12383	0.040368	0.32377	0.21189	0.39885	0.20124	0.20955	-1.7417	-2.8125	-2.3979	-2.5438	-3.0854	-2.3417	-2.9458	-3.0333	-2.3792	-3.0042	-2.8187	-2.5104	-3.1208	-2.3875	-2.5687	-3.0729	83.577	-36.038	135.721	-31.953	202.943	86.053	230.620	225.752	67.348	244.355	31.634	277.466	14.983	-59.714	235.273	214.198	0.00018135	0.00054396	0.0001303	1491.9	3.8967e-06	6.4903e-06	1486.8	392.99	3.2305e-06	3.7697e-06	448.38	149.88	131.05	45.159	3.7278e-06	55.129	0.00045669	0.00046289	0.00013481	1497.6	5.4206e-06	5.4799e-06	1490.7	395.61	5.682e-06	5.0345e-06	450.35	153.19	133.36	45.798	5.5112e-06	56.052	146.243	10.642	26.965	-65.054	68.936	67.347	-65.282	-60.733	52.314	77.543	-61.314	-57.165	-56.656	-52.038	59.341	-52.677	-8191	255	
2413.887	1	1	0	0	0.19857	0.18345	0.11678	0.23816	0.1161	0.11664	0.22957	0.24426	0.14995	0.21555	0.22093	0.32831	0.15142	0.18883	0.13802	0.22245	-1.8229	-2.9979	-2.6833	-2.4583	-2.9417	-2.4125	-2.6479	-3.125	-2.2146	-2.9562	-2.9354	-2.3063	-3.0875	-2.5854	-2.5083	-3.2042	138.553	178.831	-72.441	218.614	166.049	-41.334	278.090	196.372	1.182	33.556	4.062	254.992	280.803	273.931	25.943	241.553	0.00016594	0.00056851	0.00013072	1498.7	3.9919e-06	6.2615e-06	1483.7	393.25	3.0981e-06	6.1209e-06	445.9	150.95	131.58	45.233	3.8198e-06	55.07	0.00045386	0.00047837	0.00013493	1500.8	5.3556e-06	5.4223e-06	1491.9	396.22	5.613e-06	5.3212e-06	449.43	153.12	133.5	45.784	5.4731e-06	56.024	152.883	5.440	15.895	-65.445	73.085	74.502	-65.467	-60.932	51.015	91.688	-61.178	-57.326	-56.758	-51.873	56.488	-52.432	-8191	255	
2413.983	1	1	0	0	0.020996	0.25581	0.047987	0.37919	0.22143	0.091378	0.16627	0.11259	0.20879	0.21609	0.011358	0.28105	0.070231	0.10186	0.18463	0.12147	-1.8062	-2.8083	-2.8583	-2.4417	-3.0771	-2.4458	-2.5021	-3.1562	-2.2167	-2.6958	-3.025	-2.1792	-3.0896	-2.6958	-2.2417	-3.2792	-41.816	163.786	274.035	264.764	142.769	199.055	150.517	276.079	144.531	-72.639	85.079	101.242	31.545	135.664	55.416	160.110	0.0001927	0.00055964	0.00013447	1499.7	1.8632e-06	5.1671e-06	1477.1	391.61	2.3765e-06	6.0693e-06	448.09	150.27	131.17	45.307	3.7088e-06	55.481	0.00045892	0.00050415	0.00013351	1499.9	5.1666e-06	5.3677e-06	1488.5	395.41	5.6125e-06	5.3801e-06	450.94	152.99	133.45	45.833	5.6772e-06	56.082	151.616	-2.877	-4.994	-65.171	106.167	95.646	-65.294	-61.004	55.855	85.449	-61.582	-57.277	-56.759	-51.766	93.511	-52.540	-8191	255	
2414.102	1	1	0	0	0.17656	0.32059	0.095586	0.43878	0.10054	0.1021	0.20903	0.19157	0.14024	0.36901	0.10758	0.071384	0.21426	0.15669	0.26983	0.017552	-1.8937	-2.5292	-2.8708	-2.4604	-3.0687	-2.6875	-2.5917	-3.1188	-2.2896	-2.7229	-3.1562	-2.3979	-3.0438	-2.6188	-2.3063	-3.125	83.810	161.418	225.309	238.640	114.890	123.205	247.877	198.686	138.710	31.940	143.785	61.943	165.736	267.902	177.941	112.948	0.00021307	0.00058429	0.00015763	1494.2	2.5578e-06	5.7656e-06	1480.9	392.08	2.1679e-06	5.7541e-06	447.07	150.52	131.29	44.868	3.2091e-06	55.393	0.00046644	0.00050666	0.00013343	1499.1	5.353e-06	5.5778e-06	1488.3	395.73	5.7304e-06	5.5903e-06	450.45	152.91	133.52	45.721	5.4501e-06	56.055	151.319	4.309	15.477	-65.160	67.444	70.606	-65.551	-60.868	73.604	79.162	-61.679	-57.182	-56.778	-51.941	98.331	-52.430	-8191	255	
2414.198	1	1	0	0	0.086107	0.11082	0.1483	0.22548	0.12264	0.18452	0.24107	0.022747	0.11228	0.080606	0.1852	0.42628	0.18524	0.22267	0.064108	0.19508	-1.9979	-2.45	-3.1104	-2.3583	-2.8375	-2.8729	-2.4271	-3.1792	-2.3479	-2.5229	-3.2417	-2.2833	-2.8708	-2.9021	-2.1688	-3.2021	83.698	162.061	-64.785	199.023	231.544	-43.312	189.102	215.731	70.304	135.681	-67.405	277.889	237.196	216.675	159.089	264.822	0.00018413	0.00051886	0.00014186	1492.4	3.6923e-06	5.2184e-06	1483.1	392.69	2.0432e-06	4.1908e-06	447.29	149.86	131.61	45.042	3.73e-06	55.239	0.00046582	0.00049481	0.00013237	1498.3	5.5575e-06	5.2843e-06	1488.2	396.28	5.4908e-06	5.4992e-06	449.96	152.65	133.71	45.766	5.6878e-06	56.058	152.168	12.902	11.916	-65.407	38.826	62.398	-65.401	-61.053	51.930	79.094	-61.484	-57.252	-56.762	-51.967	77.496	-52.592	-8191	255	
2414.269	1	1	0	0	0.1408	0.054867	0.10851	0.23856	0.1529	0.1943	0.28913	0.13561	0.30957	0.23391	0.34163	0.44073	0.06269	0.026306	0.15365	0.091886	-2.2333	-2.1729	-3.0896	-2.3875	-2.8	-2.8792	-2.4042	-3.2812	-2.4333	-2.5208	-3.2583	-2.425	-2.9313	-2.9979	-2.25	-3.0292	224.265	63.062	-28.294	206.293	4.839	146.350	149.028	138.114	158.252	8.281	151.224	231.878	245.847	15.410	169.144	232.258	0.00019384	0.00050454	9.3396e-05	1494.2	2.7616e-06	5.6859e-06	1477.5	391.44	2.3682e-06	6.163e-06	447.23	150.16	131.71	44.947	3.8764e-06	54.981	0.0004544	0.00049652	0.00013324	1496.1	5.4586e-06	5.2861e-06	1488.4	395.56	5.5272e-06	5.5642e-06	450.21	152.8	133.49	45.75	5.5819e-06	56.012	146.581	9.161	4.629	-65.241	67.159	63.723	-65.406	-60.866	47.718	80.695	-61.306	-57.160	-56.550	-51.898	71.858	-52.423	-8191	255	
2414.366	1	1	0	0	0.32998	0.27293	0.1908	0.27607	0.22407	0.10726	0.28515	0.097469	0.29685	0.074048	0.11053	0.3243	0.056486	0.27409	0.18591	0.2319	-2.2917	-2.3688	-3.1542	-2.3979	-2.7438	-2.8833	-2.5271	-2.9833	-2.6229	-2.3021	-3.2604	-2.5292	-2.5917	-3.0563	-2.3812	-2.8292	205.293	5.067	6.789	222.108	-6.031	186.096	243.733	7.705	91.800	152.069	167.292	249.854	205.111	273.367	278.897	260.850	0.00017973	0.00039273	0.0001456	1497	3.1938e-06	5.1862e-06	1483	393.26	1.9742e-06	4.751e-06	446.35	149.5	131.3	45.033	3.6499e-06	54.996	0.00046421	0.0005081	0.00012916	1496.6	5.5008e-06	5.2945e-06	1486.8	395.86	5.454e-06	5.5338e-06	449.9	152.77	133.52	45.691	5.4434e-06	56.001	150.434	14.499	9.357	-65.271	82.714	89.020	-65.431	-60.738	53.976	67.496	-61.127	-57.177	-56.701	-51.727	75.372	-52.512	-8191	255	
#DATA ENDS
