BOXY.EXE: ISS Imagent and Oximeter Data Acquisition Program Version 0.80
Ascii Record File

#ACQ INFORMATION
2  Detector Channels 
16  External MUX Channels 
1  Auxiliary Channels 
5000  Waveform (CCF) Frequency (Hz)
1  Waveforms Skipped 
30  Waveforms Averaged 
1  Cycles Averaged 
16  Acquisitions per Waveform 
10.0806  Updata Rate (Hz) 

#FILE INFORMATION
TRUE -- External MUX Channel results are PARSED.
FALSE -- AC DC and Phase are NOT grouped.
TRUE -- Companion Program Settings File CREATED.
FALSE -- AC data not excluded
FALSE -- DC data not excluded
FALSE -- Phase data not excluded
FALSE -- Auxillary Chn. data not excluded
Tab delimiters

#CALIBRATION STATE
TRUE -- Waveform Calibration Values APPLIED.


#AUX CALIBRATION VALUES
Val Type	aux-1	

Term	1.0000e+00	
Factor	0.0000e+00	


#WF CALIBRATION VALUES
A = Detector Channel
Val Type	A-AC1	A-AC2	A-AC3	A-AC4	A-AC5	A-AC6	A-AC7	A-AC8	A-AC9	A-AC10	A-AC11	A-AC12	A-AC13	A-AC14	A-AC15	A-AC16	A-DC1	A-DC2	A-DC3	A-DC4	A-DC5	A-DC6	A-DC7	A-DC8	A-DC9	A-DC10	A-DC11	A-DC12	A-DC13	A-DC14	A-DC15	A-DC16	A-Ph1	A-Ph2	A-Ph3	A-Ph4	A-Ph5	A-Ph6	A-Ph7	A-Ph8	A-Ph9	A-Ph10	A-Ph11	A-Ph12	A-Ph13	A-Ph14	A-Ph15	A-Ph16	

Term	0.00000e+00	0.00000e+00	0.00000e+00	0.00000e+00	0.00000e+00	0.00000e+00	0.00000e+00	0.00000e+00	0.00000e+00	0.00000e+00	0.00000e+00	0.00000e+00	0.00000e+00	0.00000e+00	0.00000e+00	0.00000e+00	0.00000e+00	0.00000e+00	0.00000e+00	0.00000e+00	0.00000e+00	0.00000e+00	0.00000e+00	0.00000e+00	0.00000e+00	0.00000e+00	0.00000e+00	0.00000e+00	0.00000e+00	0.00000e+00	0.00000e+00	0.00000e+00	0.00000e+00	0.00000e+00	0.00000e+00	0.00000e+00	0.00000e+00	0.00000e+00	0.00000e+00	0.00000e+00	0.00000e+00	0.00000e+00	0.00000e+00	0.00000e+00	0.00000e+00	0.00000e+00	0.00000e+00	0.00000e+00	
Factor	1.00000e+00	1.00000e+00	1.00000e+00	1.00000e+00	1.00000e+00	1.00000e+00	1.00000e+00	1.00000e+00	1.00000e+00	1.00000e+00	1.00000e+00	1.00000e+00	1.00000e+00	1.00000e+00	1.00000e+00	1.00000e+00	1.00000e+00	1.00000e+00	1.00000e+00	1.00000e+00	1.00000e+00	1.00000e+00	1.00000e+00	1.00000e+00	1.00000e+00	1.00000e+00	1.00000e+00	1.00000e+00	1.00000e+00	1.00000e+00	1.00000e+00	1.00000e+00	X	X	X	X	X	X	X	X	X	X	X	X	X	X	X	X	

B = Detector Channel
Val Type	B-AC1	B-AC2	B-AC3	B-AC4	B-AC5	B-AC6	B-AC7	B-AC8	B-AC9	B-AC10	B-AC11	B-AC12	B-AC13	B-AC14	B-AC15	B-AC16	B-DC1	B-DC2	B-DC3	B-DC4	B-DC5	B-DC6	B-DC7	B-DC8	B-DC9	B-DC10	B-DC11	B-DC12	B-DC13	B-DC14	B-DC15	B-DC16	B-Ph1	B-Ph2	B-Ph3	B-Ph4	B-Ph5	B-Ph6	B-Ph7	B-Ph8	B-Ph9	B-Ph10	B-Ph11	B-Ph12	B-Ph13	B-Ph14	B-Ph15	B-Ph16	

Term	0.00000e+00	0.00000e+00	0.00000e+00	0.00000e+00	0.00000e+00	0.00000e+00	0.00000e+00	0.00000e+00	0.00000e+00	0.00000e+00	0.00000e+00	0.00000e+00	0.00000e+00	0.00000e+00	0.00000e+00	0.00000e+00	0.00000e+00	0.00000e+00	0.00000e+00	0.00000e+00	0.00000e+00	0.00000e+00	0.00000e+00	0.00000e+00	0.00000e+00	0.00000e+00	0.00000e+00	0.00000e+00	0.00000e+00	0.00000e+00	0.00000e+00	0.00000e+00	-1.55424e+02	-1.27235e+02	-1.24166e+02	-1.80391e+02	-7.40752e+01	-6.35377e+01	-1.56642e+02	-1.62015e+02	-7.80018e+01	-6.24457e+01	-1.75242e+02	-1.71364e+02	-1.79620e+02	-1.76316e+02	-7.26602e+01	-1.49562e+02	
Factor	2.32168e-05	1.44619e-04	3.90176e-05	1.53962e-01	1.28637e-06	1.68364e-06	1.74380e-01	5.13261e-02	1.26631e-06	1.62331e-06	9.43026e-02	3.18907e-02	2.43581e-02	9.34159e-03	1.41395e-06	1.29416e-02	1.42752e-05	2.56240e-05	7.09592e-06	7.92124e-02	2.49870e-07	2.88134e-07	8.45014e-02	2.65240e-02	2.52790e-07	2.91573e-07	4.71960e-02	1.60623e-02	1.27823e-02	4.86681e-03	2.69113e-07	6.54773e-03	X	X	X	X	X	X	X	X	X	X	X	X	X	X	X	X	



#DISTANCE SETTINGS
A = Detector Channel
A-1	A-2	A-3	A-4	A-5	A-6	A-7	A-8	A-9	A-10	A-11	A-12	A-13	A-14	A-15	A-16	

2.5000e+00	3.0000e+00	2.5000e+00	3.0000e+00	2.0000e+00	3.0000e+00	1.5000e+00	3.0000e+00	3.0000e+00	3.0000e+00	3.0000e+00	3.0000e+00	3.0000e+00	3.0000e+00	1.5000e+00	3.0000e+00	

B = Detector Channel
B-1	B-2	B-3	B-4	B-5	B-6	B-7	B-8	B-9	B-10	B-11	B-12	B-13	B-14	B-15	B-16	

1.0000e+01	1.0000e+01	1.0000e+01	1.4400e+00	1.0000e+01	1.0000e+01	1.5100e+00	1.9400e+00	1.0000e+01	1.0000e+01	1.9900e+00	2.4900e+00	2.4100e+00	2.9000e+00	1.0000e+01	2.9800e+00	




#DATA BEGINS
time	group	step	mark	flag	A-AC1	A-AC2	A-AC3	A-AC4	A-AC5	A-AC6	A-AC7	A-AC8	A-AC9	A-AC10	A-AC11	A-AC12	A-AC13	A-AC14	A-AC15	A-AC16	A-DC1	A-DC2	A-DC3	A-DC4	A-DC5	A-DC6	A-DC7	A-DC8	A-DC9	A-DC10	A-DC11	A-DC12	A-DC13	A-DC14	A-DC15	A-DC16	A-Ph1	A-Ph2	A-Ph3	A-Ph4	A-Ph5	A-Ph6	A-Ph7	A-Ph8	A-Ph9	A-Ph10	A-Ph11	A-Ph12	A-Ph13	A-Ph14	A-Ph15	A-Ph16	B-AC1	B-AC2	B-AC3	B-AC4	B-AC5	B-AC6	B-AC7	B-AC8	B-AC9	B-AC10	B-AC11	B-AC12	B-AC13	B-AC14	B-AC15	B-AC16	B-DC1	B-DC2	B-DC3	B-DC4	B-DC5	B-DC6	B-DC7	B-DC8	B-DC9	B-DC10	B-DC11	B-DC12	B-DC13	B-DC14	B-DC15	B-DC16	B-Ph1	B-Ph2	B-Ph3	B-Ph4	B-Ph5	B-Ph6	B-Ph7	B-Ph8	B-Ph9	B-Ph10	B-Ph11	B-Ph12	B-Ph13	B-Ph14	B-Ph15	B-Ph16	aux-1	digaux	

2697.754	1	1	0	256	0.22336	0.077765	0.13823	0.36236	0.17154	0.13854	0.20194	0.16389	0.22565	0.023065	0.15701	0.12916	0.16234	0.21589	0.12736	0.17868	-1.7958	-2.4625	-2.7667	-2.2896	-2.9042	-2.7417	-2.2479	-3.0979	-2.3667	-2.5187	-3.0979	-2.0563	-2.6792	-2.9625	-2.0312	-3.0979	71.186	-89.867	16.754	102.814	-101.346	215.334	209.201	-113.007	119.980	100.905	85.687	138.644	146.042	190.708	109.564	-114.990	0.00087386	0.00062165	0.00015271	691.26	4.4328e-06	5.2748e-06	734.26	274.08	3.6559e-06	5.9733e-06	335.25	152.86	123.7	69.385	3.7711e-06	94.566	0.0014152	0.0017894	0.00048183	750.55	1.7477e-05	1.9485e-05	798.11	299.34	1.7776e-05	2.0171e-05	367.16	168.91	136.72	76.844	1.9362e-05	104.61	172.689	-28.994	-50.502	-120.390	-6.994	16.785	-121.067	-114.676	-11.860	25.397	-116.153	-111.357	-109.940	-104.674	-3.014	-106.970	-8191	255	
2697.850	1	1	0	0	0.20296	0.2193	0.10251	0.19358	0.073493	0.044889	0.12261	0.26998	0.2141	0.017359	0.29944	0.23492	0.044621	0.39455	0.11004	0.066819	-1.9813	-2.2479	-2.9583	-2.2542	-2.7438	-2.7604	-2.2313	-2.9021	-2.2354	-2.2896	-3.0979	-2.3063	-2.7313	-2.9042	-2.2083	-3.125	-67.897	99.800	7.715	134.332	176.498	-120.746	120.136	100.129	-66.891	-73.974	222.264	226.252	131.029	198.402	88.827	130.432	0.0008245	0.00044247	0.00014786	687.32	3.4078e-06	4.8906e-06	726.49	272.49	5.2171e-06	6.7555e-06	335.32	153.61	123.99	69.476	4.2181e-06	94.986	0.0014152	0.0017633	0.00049234	746.83	1.7854e-05	1.9406e-05	792.64	299.04	1.7724e-05	1.9926e-05	367.81	169.6	137.18	76.912	1.889e-05	104.85	171.827	-40.565	-36.074	-120.274	36.261	24.308	-120.952	-114.697	-8.026	45.978	-116.115	-111.571	-109.883	-104.775	-15.750	-106.931	-8191	255	
2697.970	1	1	0	0	0.047208	0.1119	0.079012	0.19487	0.23987	0.1163	0.083068	0.10665	0.15604	0.17896	0.12551	0.28015	0.33868	0.33348	0.13667	0.1858	-2.125	-2.1208	-2.9833	-2.2771	-2.6146	-2.8354	-2.0479	-2.8896	-2.5583	-2.1542	-3.0438	-2.2042	-2.525	-2.9583	-2.1437	-2.9062	18.292	-111.886	-68.244	-81.457	184.832	61.087	-83.331	119.767	-77.267	174.213	43.918	-111.619	119.787	-114.827	112.427	-120.711	0.00086207	0.00074286	0.00017445	697.18	2.3638e-06	5.514e-06	736.27	275.59	3.7602e-06	3.478e-06	337.4	153.34	123.97	68.894	3.78e-06	93.971	0.0014077	0.00176	0.00047024	754.16	1.7101e-05	1.9015e-05	799.86	300.84	1.7228e-05	1.9264e-05	369.57	169.46	136.85	76.223	1.8435e-05	103.91	171.491	-33.085	-30.062	-120.387	4.148	1.553	-120.889	-114.857	-7.156	39.899	-116.176	-111.704	-110.070	-104.545	-3.264	-106.880	-8191	255	
2698.065	1	1	0	0	0.21159	0.096007	0.22959	0.17311	0.028024	0.30028	0.02265	0.1008	0.26926	0.14425	0.1331	0.075041	0.40764	0.27554	0.066496	0.11256	-2.1937	-2.0646	-3.0354	-2.3917	-2.4437	-2.6646	-2.2771	-2.8854	-2.6521	-1.9979	-3.1708	-2.3333	-2.4188	-3.0146	-2.0583	-3.0125	208.316	29.270	-123.086	-92.253	40.202	64.481	-46.109	180.196	-76.164	-96.811	224.404	219.900	224.437	211.647	23.682	-56.254	0.00080333	0.00039676	0.00015875	701.03	3.5462e-06	5.4267e-06	742.59	275.64	5.3657e-06	7.2911e-06	337.55	152.17	122.5	67.709	4.8972e-06	92.153	0.0013797	0.0017003	0.00046422	760.34	1.6728e-05	1.872e-05	808.3	301	1.6512e-05	1.863e-05	369.3	167.87	135.28	74.805	1.8024e-05	101.83	172.273	-45.054	-34.397	-120.434	22.585	13.249	-121.000	-114.579	2.646	11.329	-116.055	-111.557	-109.818	-104.651	-30.743	-106.762	-8191	255	
2698.161	1	1	0	0	0.10721	0.22412	0.25533	0.11401	0.050223	0.24242	0.3752	0.2373	0.14175	0.18683	0.16633	0.39442	0.28942	0.2933	0.15124	0.17317	-2.3688	-2.0271	-2.9958	-2.3271	-2.3208	-3.0396	-2.0333	-2.8479	-2.9813	-2.1437	-3.1167	-2.4521	-2.225	-2.9562	-2.2	-3.0062	223.500	-117.835	30.100	-101.988	85.474	19.392	114.973	103.046	71.112	119.557	212.275	-101.612	-89.772	150.927	49.916	192.864	0.00078104	0.00065777	0.00012304	704.85	6.2187e-06	5.7292e-06	741.44	273.93	6.6405e-06	5.918e-06	334.84	149.82	121.26	66.894	5.232e-06	91.238	0.0013603	0.0016738	0.00046728	765.4	1.6978e-05	1.883e-05	809.09	299.64	1.7226e-05	1.9152e-05	366.07	165.34	133.96	73.924	1.8354e-05	100.74	171.308	-56.280	-51.238	-120.349	-4.660	27.308	-121.058	-114.681	-10.056	17.641	-116.199	-111.555	-109.904	-104.597	-39.831	-106.952	-8191	255	
2698.233	1	1	0	0	0.098102	0.044719	0.183	0.22915	0.14269	0.10935	0.17367	0.25139	0.17379	0.078131	0.24793	0.14942	0.2257	0.26519	0.11592	0.24968	-2.6375	-2.0625	-2.7979	-2.6333	-2.1063	-3.0271	-2.5375	-2.7333	-2.7104	-1.9229	-2.8458	-2.7292	-2.2562	-3.2313	-2.2542	-2.5	-109.825	156.948	-93.460	149.007	200.960	-82.448	69.917	197.807	-94.832	92.627	189.544	77.628	212.679	202.332	173.681	175.721	0.00075541	0.00054949	0.00012981	707.12	3.379e-06	5.7779e-06	745.26	273.97	4.9171e-06	4.3769e-06	334.57	149.55	121.02	66.408	3.1239e-06	90.838	0.0013705	0.0017007	0.00046143	766.76	1.6944e-05	1.8676e-05	812.07	299.58	1.7142e-05	1.9056e-05	366.54	164.99	133.52	73.306	1.8213e-05	100.17	172.187	-38.234	-43.254	-120.271	-6.540	15.312	-121.132	-114.796	-8.129	35.505	-116.169	-111.481	-110.003	-104.354	-7.144	-106.716	-8191	255	
2698.330	1	1	0	0	0.070765	0.26075	0.21408	0.089089	0.22308	0.20692	0.098879	0.058439	0.27983	0.17374	0.025376	0.1811	0.28488	0.39895	0.12578	0.33001	-2.4958	-2.1292	-2.6917	-2.7854	-2.2167	-3.0396	-2.6125	-2.3	-3.1063	-2.15	-2.6083	-2.8812	-2.15	-3.0271	-2.3333	-2.5146	-91.124	162.403	10.374	44.345	56.957	139.586	-45.475	191.641	57.745	-12.998	-86.584	168.342	216.533	190.149	220.509	185.330	0.00081956	0.00047597	0.00019826	706.42	3.9904e-06	3.2969e-06	745.43	274.27	4.7864e-06	6.0565e-06	335.18	149.69	121.8	66.289	3.7955e-06	90.573	0.0013462	0.0016806	0.00046359	766.93	1.6772e-05	1.855e-05	812.84	300.14	1.6681e-05	1.8876e-05	367.58	165.43	133.97	73.306	1.7716e-05	100.19	173.242	-52.669	-43.552	-120.424	4.744	3.735	-121.191	-114.654	-21.170	26.123	-115.900	-111.391	-109.881	-104.325	-20.993	-106.832	-8191	255	
2698.449	1	1	0	0	0.10891	0.092915	0.22917	0.061653	0.094958	0.099442	0.27999	0.28985	0.15579	0.17466	0.16145	0.11331	0.15949	0.19894	0.27271	0.05825	-2.6833	-2.0687	-2.5146	-2.9104	-2.1333	-2.9604	-2.5208	-2.1937	-2.9792	-2.1771	-2.6646	-2.9417	-2.3146	-3.0146	-2.5354	-2.4146	223.339	183.845	184.022	106.736	6.084	109.566	124.497	197.841	92.412	117.641	-31.046	225.512	-64.555	-123.408	-28.719	90.126	0.00081194	0.00059296	0.00015834	705.28	4.352e-06	6.1666e-06	747.04	275.05	5.9357e-06	4.948e-06	333.68	149.5	120.93	66.148	3.4757e-06	89.946	0.0013448	0.0016231	0.00045699	767.93	1.6173e-05	1.8283e-05	813.6	300.32	1.6648e-05	1.8437e-05	367.01	165.39	133.59	73.014	1.7948e-05	99.331	174.041	-41.113	-45.759	-120.198	-1.167	9.726	-121.158	-114.789	-26.765	11.332	-115.878	-111.475	-109.914	-104.501	-6.906	-106.808	-8191	255	
2698.545	1	1	0	0	0.22354	0.10453	0.22209	0.19466	0.082373	0.13144	0.18431	0.21757	0.06438	0.21286	0.16511	0.2334	0.29967	0.12731	0.047657	0.33259	-2.6646	-2.0083	-2.4646	-2.9146	-1.9854	-2.7083	-2.6021	-2.2417	-3.0312	-2.2979	-2.5271	-3.0208	-2.0125	-2.8521	-2.6083	-2.2167	-98.053	-109.174	178.325	192.910	124.024	213.529	8.279	135.534	47.898	167.312	79.586	202.986	-106.672	224.000	52.498	127.559	0.00079578	0.00055677	0.00014385	709.45	2.5529e-06	6.1281e-06	746.04	273.94	3.7333e-06	4.8958e-06	335.32	150.07	121.04	66.194	4.959e-06	90.376	0.0013471	0.0016679	0.00046901	768.39	1.6669e-05	1.8543e-05	812.76	299.66	1.7059e-05	1.8975e-05	367.2	165.16	133.84	73.204	1.8554e-05	100.12	172.072	-41.893	-38.165	-120.454	-16.799	20.670	-121.254	-114.832	-6.110	13.745	-116.220	-111.412	-109.888	-104.533	-6.060	-106.883	-8191	255	
2698.642	1	1	0	0	0.24366	0.33767	0.049064	0.32719	0.047523	0.093061	0.1116	0.16943	0.041526	0.21212	0.28469	0.15488	0.12549	0.26983	0.1785	0.1546	-2.5792	-2.3021	-2.1833	-2.8208	-1.9062	-2.4229	-2.7313	-2.1542	-2.8312	-2.3854	-2.2292	-2.9313	-2.1458	-2.8187	-2.6625	-2.2125	56.040	-62.087	207.601	161.444	-37.808	-78.257	227.366	173.208	133.332	146.092	191.481	176.469	215.910	-125.193	-63.284	68.338	0.00078036	0.00050745	0.00020451	705.22	3.6279e-06	6.8498e-06	746	275.58	3.6467e-06	4.884e-06	337	151.39	121.87	67.049	5.3227e-06	91.43	0.0013715	0.0016789	0.00047339	764.03	1.6401e-05	1.8879e-05	810.94	301.03	1.7072e-05	1.8838e-05	369.72	167.05	134.86	73.936	1.834e-05	100.97	173.355	-32.204	-46.466	-120.286	25.636	19.130	-121.150	-114.580	-9.176	41.581	-115.953	-111.442	-110.033	-104.422	-14.673	-106.799	-8191	255	
2698.762	1	1	0	0	0.11318	0.12125	0.29969	0.14553	0.18113	0.10344	0.33427	0.12669	0.15173	0.19379	0.38829	0.24612	0.14132	0.32586	0.1312	0.096269	-2.4	-2.2708	-2.1375	-2.9854	-2.0104	-2.5312	-2.9	-2.1146	-2.8146	-2.4479	-2.2792	-2.9833	-2.2583	-2.4604	-2.6792	-2.1396	130.638	52.679	-113.017	-93.301	31.133	86.891	94.808	198.787	203.099	138.933	115.100	-128.972	-120.162	-106.215	216.807	125.308	0.00080608	0.00050517	0.00018506	706.7	3.428e-06	7.2316e-06	746.15	275.31	4.3849e-06	6.364e-06	338.71	153.41	123.45	68.004	3.5341e-06	92.86	0.0013807	0.0016806	0.00047614	765.53	1.6993e-05	1.9109e-05	812.19	301.86	1.7426e-05	1.8893e-05	371.33	169.07	136.45	75.168	1.8384e-05	102.66	170.992	-57.184	-43.207	-120.484	11.105	10.361	-120.952	-114.840	-29.225	18.241	-116.058	-111.499	-110.052	-104.470	-11.634	-106.806	-8191	255	
2698.834	1	1	0	0	0.13941	0.28864	0.26762	0.067182	0.13431	0.14374	0.27884	0.24404	0.045472	0.093332	0.29279	0.11324	0.13044	0.24447	0.17218	0.28432	-2.2687	-2.5917	-2.0729	-3.05	-2.0667	-2.4479	-2.9854	-2.0833	-2.6063	-2.7313	-2.1625	-2.9854	-2.3917	-2.3521	-2.9021	-2.0333	95.313	-67.272	1.430	-62.365	-61.856	-69.745	192.068	-68.599	216.450	185.703	95.307	112.693	132.432	-115.201	129.083	118.349	0.00082922	0.00063668	0.00013574	701.79	4.2254e-06	4.9007e-06	739.72	276.22	4.6567e-06	4.2694e-06	338.51	153.02	123.87	68.253	4.1321e-06	92.715	0.0013743	0.0017204	0.00047869	761.03	1.7115e-05	1.9397e-05	805.77	301.87	1.7588e-05	1.9607e-05	370.37	168.75	136.76	75.443	1.8816e-05	102.47	171.884	-47.987	-30.284	-120.183	3.236	10.436	-121.075	-114.655	-18.211	22.187	-116.041	-111.380	-109.943	-104.462	7.880	-106.959	-8191	255	
2698.930	1	1	0	0	0.24028	0.035977	0.036969	0.19382	0.12396	0.14963	0.29997	0.16538	0.20349	0.074676	0.2241	0.087656	0.29396	0.21784	0.084891	0.16117	-2.375	-2.85	-2.1229	-3.0646	-2.3083	-2.125	-3.1	-2.2021	-2.6146	-2.8146	-2.0646	-2.8792	-2.5792	-2.1417	-2.7292	-2.1979	226.855	98.375	-5.495	-117.885	96.604	-130.765	137.840	155.273	79.410	142.428	169.779	184.698	209.734	-78.075	-121.853	159.651	0.00082072	0.00060446	0.00016509	701.15	5.2404e-06	8.2595e-06	739.72	276.16	5.8378e-06	3.6824e-06	337.8	153.12	123.52	68.143	4.2276e-06	92.835	0.001411	0.001741	0.00048681	758.36	1.7524e-05	1.9699e-05	804.63	301.31	1.7853e-05	1.9213e-05	369.91	168.9	136.33	75.313	1.8717e-05	102.68	172.620	-42.356	-39.056	-120.306	2.390	12.390	-120.949	-114.704	-22.885	63.354	-115.937	-111.495	-110.082	-104.718	-15.605	-106.870	-8191	255	
2699.051	1	1	0	0	0.14938	0.25894	0.17671	0.22484	0.26548	0.18597	0.24919	0.17384	0.091885	0.13323	0.093591	0.030702	0.3491	0.11921	0.15576	0.10883	-2.2687	-2.7188	-2.0667	-3.0229	-2.5083	-2.0729	-2.9833	-2.3917	-2.3438	-2.9396	-2.1979	-2.8688	-2.6042	-2.1937	-2.9333	-2.4667	15.526	-110.884	-128.507	142.292	-61.200	154.098	97.364	213.490	186.722	163.155	205.297	-41.889	212.381	216.597	35.947	197.791	0.00082217	0.0006356	0.00016941	699.7	3.1826e-06	6.5744e-06	741.03	275.89	3.2767e-06	5.524e-06	339.84	153.3	123.3	67.827	4.2391e-06	92.818	0.0013931	0.0017121	0.00047013	758.8	1.6587e-05	1.886e-05	806.85	302.01	1.7467e-05	1.9053e-05	371.45	168.94	136.25	75.081	1.8085e-05	102.44	172.278	-37.497	-43.718	-120.319	4.741	14.803	-121.051	-114.685	-15.012	16.185	-116.177	-111.586	-109.965	-104.425	-11.771	-106.925	-8191	255	
2699.145	1	1	0	0	0.12088	0.20174	0.14216	0.31772	0.18949	0.10119	0.11954	0.15131	0.20735	0.095179	0.059637	0.23439	0.17034	0.161	0.30875	0.33886	-2.0146	-2.9708	-2.0292	-2.85	-2.6167	-2.0146	-3.1021	-2.4437	-2.3354	-3.0104	-2.2042	-2.7354	-2.825	-2.1583	-2.7417	-2.4417	173.740	-128.317	17.434	188.612	65.306	85.410	188.534	-41.007	129.468	-81.194	137.330	193.096	-95.633	-110.157	156.819	201.608	0.0008267	0.00057202	0.00011181	703.21	6.2399e-06	4.8935e-06	744.2	276.47	4.0506e-06	5.7098e-06	337.52	152.4	123.28	67.504	5.0827e-06	91.774	0.0013853	0.0016846	0.00046027	762.82	1.6697e-05	1.8899e-05	809.86	301.86	1.7011e-05	1.8822e-05	369.74	167.83	135.95	74.617	1.8365e-05	101.5	173.880	-56.541	-37.962	-120.177	7.125	30.834	-121.106	-114.874	-10.574	26.745	-115.726	-111.439	-109.969	-104.548	-1.804	-107.109	-8191	255	
2699.241	1	1	0	0	0.26633	0.39182	0.24839	0.16474	0.1175	0.11414	0.17832	0.1971	0.28452	0.18869	0.21537	0.14893	0.079524	0.17835	0.13407	0.25887	-1.8417	-2.8479	-2.0917	-2.6562	-2.7229	-2.1167	-2.9688	-2.6083	-2.3021	-2.9146	-2.2729	-2.5792	-2.9521	-2.2	-2.9958	-2.7667	10.232	3.474	-63.454	-120.247	-127.408	-126.525	217.012	74.308	27.542	-72.540	148.187	181.097	186.138	223.778	30.910	156.407	0.00080539	0.00050016	0.00018148	700.16	4.1627e-06	4.5783e-06	739.58	275.5	3.3707e-06	3.9596e-06	337.95	152.59	123.74	67.55	3.7847e-06	91.91	0.0013528	0.00165	0.00045807	759.95	1.6447e-05	1.8735e-05	805.88	301.77	1.6882e-05	1.8463e-05	370.06	168.09	136.24	74.7	1.8055e-05	101.71	172.352	-42.389	-47.463	-120.339	22.403	32.317	-120.953	-114.779	-28.315	28.270	-116.288	-111.308	-109.983	-104.546	-12.493	-107.080	-8191	255	
2699.362	1	1	0	0	0.16392	0.13405	0.27797	0.17675	0.19749	0.21791	0.095886	0.35467	0.10872	0.20023	0.20154	0.26087	0.073861	0.34642	0.29422	0.066877	-1.6896	-2.9979	-2.3042	-2.6833	-2.8979	-2.1188	-2.8479	-2.9313	-2.0896	-2.9958	-2.2375	-2.4021	-3.0646	-2.1667	-2.7708	-2.9	1.522	-114.218	145.949	226.149	31.372	-4.625	-99.231	121.862	-1.035	162.119	213.689	-109.718	197.809	175.543	-77.600	165.165	0.00081573	0.0005644	0.0001289	701.92	3.27e-06	4.0551e-06	742.73	276.06	4.5392e-06	5.8624e-06	338.55	152.25	123.12	67.1	4.5962e-06	91.936	0.0013552	0.0016584	0.00045451	761.07	1.6031e-05	1.831e-05	807.85	301.94	1.6601e-05	1.8404e-05	370.88	167.8	135.8	74.319	1.7739e-05	101.41	174.472	-32.210	-40.360	-120.182	46.375	32.255	-120.892	-114.908	-34.551	23.263	-115.931	-111.301	-110.138	-104.558	-6.863	-106.869	-8191	255	
2699.434	1	1	0	0	0.14802	0.27489	0.31225	0.34115	0.087845	0.21757	0.027585	0.16623	0.33538	0.064174	0.11843	0.22063	0.15014	0.19464	0.23753	0.25978	-1.5583	-2.8646	-2.2438	-2.3854	-2.8271	-2.0958	-2.7458	-2.8583	-1.8896	-2.9313	-2.4667	-2.2479	-3.0771	-2.3563	-2.4604	-2.8854	181.289	-42.116	172.641	193.049	-67.174	20.508	219.937	216.154	99.740	119.738	83.656	-70.605	190.750	213.797	8.587	203.926	0.00081185	0.00067901	0.0001662	704.49	4.9399e-06	5.3739e-06	745.71	276.7	4.6754e-06	5.9823e-06	340.57	152.07	122.98	66.837	2.9647e-06	90.924	0.0013277	0.001621	0.00044191	763.58	1.5737e-05	1.7751e-05	812.85	302.66	1.6234e-05	1.8014e-05	372.02	167.96	135.6	73.937	1.7353e-05	100.54	173.867	-43.204	-23.126	-120.144	-10.775	20.155	-121.072	-114.774	2.940	9.873	-116.180	-111.321	-110.188	-104.521	10.729	-106.791	-8191	255	
2699.530	1	1	0	0	0.27125	0.32294	0.035941	0.18833	0.0759	0.21163	0.19483	0.28865	0.06855	0.30838	0.10415	0.22812	0.043714	0.20672	0.04296	0.090271	-1.6125	-2.8146	-2.4	-2.3312	-2.8333	-2.2875	-2.6229	-3.0229	-2.0187	-2.9062	-2.6021	-2.1229	-3.0021	-2.4708	-2.4417	-3.0563	-63.009	-3.039	44.936	-113.748	-48.426	-109.655	-104.598	144.280	177.721	200.849	170.037	-44.959	164.551	129.648	-60.886	211.029	0.00078255	0.00054378	0.00018719	706.26	3.7424e-06	5.5086e-06	742.18	275.78	3.3389e-06	4.3783e-06	338.26	150.07	122.12	66.162	4.4626e-06	90.323	0.0013057	0.0015955	0.0004369	766.24	1.54e-05	1.7575e-05	810.76	301.5	1.6085e-05	1.7898e-05	369.11	165.91	134.67	73.106	1.7166e-05	99.667	172.455	-46.720	-21.485	-120.374	13.141	51.649	-120.920	-114.920	5.146	18.231	-116.524	-111.483	-110.232	-104.543	-2.521	-106.952	-8191	255	
2699.626	1	1	0	0	0.06976	0.040407	0.083418	0.1322	0.20231	0.076087	0.078133	0.1991	0.34932	0.14015	0.28799	0.19034	0.10008	0.32895	0.12588	0.26396	-1.5854	-2.8563	-2.5687	-2.2083	-2.8875	-2.3146	-2.5167	-3.1042	-2.0771	-2.5875	-2.8146	-2.1188	-3.1021	-2.2958	-2.3896	-2.9688	112.851	-82.972	-81.687	183.706	58.151	-99.604	178.306	71.888	12.494	95.793	206.774	-55.533	113.623	217.326	159.548	-95.758	0.00079979	0.00056283	0.00018319	708.37	4.6601e-06	4.7658e-06	746.22	276.34	2.5917e-06	4.2699e-06	338.97	150.95	122.77	66.691	3.4877e-06	91.118	0.0012869	0.0015619	0.00042994	765.43	1.5531e-05	1.7367e-05	811.94	301.98	1.6165e-05	1.7963e-05	370.35	167.06	135.22	73.661	1.7712e-05	100.65	173.604	-32.665	-30.484	-120.298	-7.607	21.248	-121.026	-114.951	-29.688	28.708	-116.379	-111.488	-110.186	-104.768	-5.515	-107.168	-8191	255	
2699.745	1	1	0	0	0.24385	0.092637	0.19181	0.076153	0.23511	0.24395	0.11031	0.21386	0.2389	0.12842	0.090315	0.32937	0.18847	0.25877	0.19149	0.030744	-1.6354	-2.4979	-2.6312	-2.0104	-2.8896	-2.2917	-2.4375	-3.1354	-1.8563	-2.4104	-2.8104	-2.3479	-2.8771	-2.6521	-1.9417	-3.0187	-1.701	172.656	154.489	62.303	-123.839	206.418	15.971	156.826	104.700	202.673	79.346	194.382	200.527	-131.254	56.480	-110.265	0.00081553	0.0004824	0.00015032	705.1	3.9283e-06	6.0468e-06	746.43	276.86	4.5084e-06	6.9412e-06	340.66	152.83	123.76	67.046	4.5979e-06	91.774	0.0013415	0.0016291	0.00045019	764.9	1.6183e-05	1.8196e-05	812.82	302.86	1.6724e-05	1.8744e-05	372	168.36	136.12	74.281	1.8092e-05	101.61	173.592	-38.771	-36.672	-120.325	23.256	21.465	-121.025	-114.813	-26.281	1.750	-115.880	-111.556	-110.141	-104.710	-12.651	-107.019	-8191	255	
2699.841	1	1	0	0	0.12775	0.12915	0.257	0.13879	0.29245	0.20314	0.31177	0.14879	0.43604	0.053624	0.21043	0.1758	0.32226	0.072682	0.15568	0.16943	-1.6521	-2.3833	-2.7417	-2.1396	-2.8688	-2.4292	-2.2313	-3.0167	-2.2083	-2.5208	-2.9792	-2.2146	-2.7646	-2.8563	-1.9417	-2.8021	191.023	88.288	123.001	16.665	153.182	219.394	-121.488	165.237	173.470	225.356	149.564	97.074	221.747	160.757	137.922	198.988	0.00080526	0.00050954	0.00016619	705.06	3.4177e-06	5.9644e-06	747.47	276.23	3.5156e-06	6.5095e-06	340.4	151.96	122.27	66.656	5.0343e-06	90.816	0.0013575	0.0017324	0.00046045	765	1.6722e-05	1.8282e-05	812.51	302.54	1.7246e-05	1.8784e-05	371.28	167.5	135.22	73.615	1.8408e-05	100.35	171.420	-36.746	-32.365	-120.427	4.721	33.193	-120.958	-114.968	-20.010	7.774	-116.203	-111.622	-110.001	-104.794	-6.136	-107.047	-8191	255	
2699.937	1	1	0	0	0.1157	0.12381	0.14933	0.063382	0.057892	0.19162	0.21411	0.15084	0.17192	0.14251	0.062615	0.15581	0.39524	0.25537	0.15652	0.25781	-1.9104	-2.3438	-2.9062	-2.1125	-2.5812	-2.6979	-2.1667	-3.1312	-2.3646	-2.525	-2.9979	-2.2833	-2.8125	-2.9875	-2.0833	-3.0333	-18.869	-67.770	38.265	-35.947	24.146	81.543	-84.583	-104.730	-113.147	4.292	190.641	87.742	179.951	185.257	50.005	187.606	0.00080321	0.00043911	9.8474e-05	704.23	4.1076e-06	4.6689e-06	742.27	275.17	4.1929e-06	5.4037e-06	338.04	151.41	122.65	66.646	4.9468e-06	90.876	0.0013698	0.0016925	0.00045389	763.25	1.6536e-05	1.8501e-05	808.59	301.29	1.6553e-05	1.849e-05	370.02	166.9	135.14	73.542	1.7468e-05	100.34	171.648	-36.717	-42.340	-120.461	4.087	5.960	-121.100	-114.795	-25.456	28.283	-116.167	-111.707	-110.284	-104.737	-17.204	-107.065	-8191	255	
2700.033	1	1	0	0	0.25794	0.059282	0.31167	0.35659	0.2626	0.27244	0.19205	0.27392	0.3762	0.015134	0.14696	0.22057	0.11736	0.24281	0.22801	0.21151	-2.1083	-2.1021	-2.9667	-2.2	-2.5979	-2.8563	-2.1813	-2.8896	-2.5021	-2.0875	-3.0104	-2.3729	-2.5438	-2.9958	-2.1667	-2.9708	90.666	155.902	118.111	-117.057	212.151	-2.610	217.481	210.317	131.897	41.589	217.896	-115.148	182.952	117.205	126.251	162.606	0.00079561	0.00062676	0.00018742	703.29	3.9001e-06	4.8528e-06	744.47	276.31	2.8031e-06	5.7052e-06	339.64	151.46	122.87	66.512	4.065e-06	90.772	0.0013056	0.0016014	0.00044333	763.57	1.5959e-05	1.7758e-05	810.49	301.96	1.6042e-05	1.7883e-05	370.88	167.31	135.31	73.503	1.7122e-05	100.43	170.947	-33.652	-36.797	-120.447	12.856	6.065	-120.950	-114.824	-22.263	9.699	-116.122	-111.717	-109.870	-104.793	-9.680	-107.124	-8191	255	
2700.129	1	1	0	0	0.2885	0.21858	0.25159	0.45283	0.29122	0.2421	0.16904	0.18983	0.13211	0.089488	0.25036	0.28728	0.36477	0.26822	0.11978	0.2978	-2.3937	-2.3354	-3.0229	-2.6208	-2.475	-2.9604	-2.4542	-2.7208	-2.6167	-2.1875	-3.0521	-2.4146	-2.4562	-3.0979	-1.9479	-2.9042	173.211	198.272	11.095	6.635	-69.134	209.799	25.440	-131.326	-51.250	-14.535	171.356	171.267	197.126	159.332	206.415	-119.758	0.00083035	0.00042873	0.00013005	706.05	2.4195e-06	6.389e-06	748.84	277.67	4.379e-06	5.0383e-06	341.89	152.47	123	66.75	5.1202e-06	91.251	0.0013008	0.0015592	0.00043261	765.68	1.5496e-05	1.719e-05	816.79	303.45	1.5495e-05	1.753e-05	373.44	168.5	135.73	73.709	1.6766e-05	100.88	172.462	-61.435	-42.006	-120.525	-4.258	21.359	-121.236	-114.990	-17.150	11.926	-116.518	-111.775	-110.199	-104.835	-5.269	-107.041	-8191	255	
2700.226	1	1	0	0	0.091893	0.13127	0.19826	0.39192	0.089489	0.10124	0.25824	0.24448	0.15919	0.18557	0.13284	0.18385	0.2984	0.38201	0.23004	0.10485	-2.2521	-2.175	-2.9958	-2.6583	-2.2375	-3.0708	-2.2042	-2.7542	-2.9875	-2.125	-2.825	-2.4896	-2.3521	-2.9896	-2.1667	-2.875	-60.800	-17.029	198.366	-104.520	-24.296	110.466	199.552	102.420	99.776	-92.484	156.780	-122.174	202.167	171.523	-33.062	-86.829	0.00083144	0.00065267	0.00012549	708.88	5.2577e-06	5.3447e-06	749.39	276.25	4.7551e-06	3.9061e-06	337.95	151.79	122.38	66.083	5.0514e-06	90.221	0.0012931	0.0015453	0.00043501	768.14	1.5509e-05	1.7181e-05	815.48	302.87	1.5686e-05	1.7404e-05	370.46	167.02	134.85	73.087	1.676e-05	99.735	174.109	-27.040	-40.433	-120.488	1.924	34.675	-121.256	-114.780	-24.271	6.896	-116.382	-111.788	-110.268	-104.679	-3.428	-107.040	-8191	255	
2700.322	1	1	0	0	0.029245	0.33621	0.069952	0.34191	0.099773	0.11883	0.15146	0.2158	0.22872	0.15263	0.25342	0.17253	0.13726	0.28469	0.12811	0.13385	-2.5	-1.8458	-2.7729	-2.5333	-2.2854	-3.1562	-2.3063	-2.5729	-2.8667	-2.1875	-3.0271	-2.7854	-2.5458	-3.0833	-2.2188	-2.5229	-115.039	-23.412	70.743	204.303	95.756	-8.078	6.104	172.495	-105.446	-32.611	-39.419	221.165	189.187	205.714	46.584	-128.864	0.00080195	0.00071494	0.00013564	709.42	3.5062e-06	5.7538e-06	750.08	276.9	3.0429e-06	3.287e-06	339.94	151.48	122.29	66.087	4.279e-06	90.761	0.0012794	0.0015673	0.00042416	769.21	1.5387e-05	1.7e-05	815.39	302.43	1.5612e-05	1.7284e-05	371.3	166.97	134.81	72.963	1.6536e-05	100.22	171.590	-44.908	-26.831	-120.543	4.666	16.148	-121.158	-115.024	-21.185	4.408	-116.146	-111.685	-110.165	-104.737	-5.869	-107.043	-8191	255	
2700.442	1	1	0	0	0.096894	0.20625	0.17719	0.24436	0.28721	0.111	0.1328	0.30243	0.2168	0.22487	0.052364	0.16624	0.24527	0.23626	0.22283	0.33739	-2.6479	-2.0896	-2.7188	-2.9229	-2.1771	-3.0312	-2.4896	-2.5229	-2.9104	-2.2167	-2.9021	-2.8	-2.1771	-3.0438	-2.3854	-2.5479	119.046	-94.919	-96.125	-40.033	34.638	-92.834	160.322	225.438	161.679	60.732	128.886	181.700	84.729	212.559	96.901	184.918	0.00075855	0.00055329	0.00017762	709.02	5.614e-06	5.8501e-06	747.18	277.23	4.0216e-06	7.3831e-06	340.13	152.24	122.5	66.278	4.5042e-06	91.085	0.0012776	0.0015399	0.00042509	767.93	1.54e-05	1.7272e-05	816.4	302.7	1.5909e-05	1.7074e-05	371.94	167.84	135.15	73.3	1.6711e-05	100.79	172.972	-45.730	-30.824	-120.472	7.395	17.760	-121.129	-114.964	-18.854	22.099	-116.304	-111.683	-109.916	-104.743	4.250	-107.052	-8191	255	
2700.537	1	1	0	0	0.23487	0.1794	0.094157	0.044835	0.11199	0.21782	0.22612	0.19722	0.1067	0.32108	0.087175	0.087469	0.27636	0.17007	0.018711	0.22769	-2.6042	-2.0896	-2.7792	-3.0521	-2.0479	-3.1188	-2.6813	-2.3458	-3.0583	-2.3833	-2.6229	-2.9583	-1.9958	-3.0833	-2.4958	-2.3917	74.357	-96.380	59.052	22.725	49.315	211.372	4.290	145.714	194.050	180.849	-23.277	148.442	166.865	167.217	135.791	117.766	0.00076765	0.00035407	0.00015982	710.8	3.4667e-06	5.3742e-06	748.33	276.75	3.5166e-06	5.4584e-06	339.85	152.31	122.97	66.418	3.0115e-06	91.304	0.0012676	0.0015375	0.00042479	768.58	1.5484e-05	1.7071e-05	815.68	302.68	1.5582e-05	1.7476e-05	371.94	168	135.4	73.434	1.694e-05	100.61	172.089	-41.414	-52.837	-120.466	-3.613	4.080	-121.047	-114.932	-30.178	11.047	-115.808	-111.715	-110.196	-104.600	-13.903	-107.111	-8191	255	
2700.633	1	1	0	0	0.24838	0.26476	0.29	0.067496	0.17842	0.16475	0.13459	0.054522	0.057	0.10575	0.13901	0.18268	0.18926	0.12617	0.12141	0.093238	-2.5604	-2.2438	-2.5333	-3.1125	-2.1271	-2.8	-2.7896	-2.2458	-2.8563	-2.3312	-2.4854	-3.0875	-2.0833	-2.95	-2.6708	-2.2646	175.585	-24.505	-129.453	74.129	68.054	161.111	219.396	-105.828	217.349	-45.952	75.565	166.390	135.833	194.889	19.014	62.591	0.00079065	0.00048182	0.00014402	707.23	4.6856e-06	5.6656e-06	748.95	276.49	4.7723e-06	3.8677e-06	339.09	152	122.81	66.617	6.2125e-06	91.278	0.0012973	0.0015538	0.00044354	766.27	1.5614e-05	1.7681e-05	813.01	302.21	1.5912e-05	1.7568e-05	370.87	167.7	135.5	73.69	1.7174e-05	100.82	172.369	-26.437	-31.900	-120.519	9.799	28.631	-121.254	-114.865	-8.192	32.465	-116.176	-111.456	-110.232	-104.720	-9.409	-106.976	-8191	255	
2700.729	1	1	0	0	0.30204	0.11829	0.19444	0.082488	0.2211	0.14584	0.14887	0.06406	0.16641	0.20403	0.19607	0.11772	0.02493	0.14525	0.25772	0.24987	-2.4542	-2.2188	-2.2062	-3.0854	-2.1125	-2.7021	-2.8771	-2.2271	-2.8375	-2.5563	-2.3333	-3.0979	-2.2792	-2.7896	-2.7917	-2.3521	-4.923	1.737	120.187	105.697	-132.204	15.331	181.317	199.789	159.021	193.697	-85.094	10.197	-57.004	45.291	134.494	163.446	0.00081371	0.00054514	0.00014337	710.93	5.0086e-06	5.6599e-06	748.37	276.75	3.4669e-06	5.2406e-06	339.78	152.24	122.94	66.518	4.7561e-06	90.841	0.0013179	0.0015934	0.0004428	768.55	1.5791e-05	1.7705e-05	814.95	302.68	1.6337e-05	1.8186e-05	371.32	167.68	135.34	73.395	1.7616e-05	100.32	170.511	-61.664	-33.906	-120.564	-6.345	7.709	-121.359	-115.036	-25.733	22.534	-116.090	-111.453	-110.087	-104.514	-11.936	-106.857	-8191	255	
2700.825	1	1	0	0	0.1592	0.11277	0.15801	0.15995	0.23951	0.13234	0.28693	0.36644	0.049869	0.34122	0.22799	0.29542	0.083224	0.2545	0.13552	0.19129	-2.725	-2.5854	-1.9542	-3.0729	-2.125	-2.6271	-2.8375	-2.1083	-2.8812	-2.4292	-2.3937	-3.1188	-2.3104	-2.725	-2.7375	-2.3646	87.308	-121.108	4.860	117.573	-26.029	153.383	-127.992	218.951	-76.419	96.400	131.275	150.128	199.888	200.316	-118.961	170.256	0.00082249	0.00048697	0.0001308	712.6	3.6458e-06	6.8394e-06	751.03	277.19	4.6742e-06	5.457e-06	340.16	152.01	121.81	65.875	4.3396e-06	89.888	0.0013086	0.0015933	0.00044388	771.68	1.5831e-05	1.7909e-05	818.09	302.38	1.6212e-05	1.8111e-05	371.08	167.12	134.72	72.69	1.7563e-05	99.327	172.504	-76.287	-32.227	-120.345	10.076	18.040	-120.948	-114.875	-2.724	5.380	-116.036	-111.610	-110.297	-104.656	-23.350	-106.932	-8191	255	
2700.921	1	1	0	0	0.2286	0.16117	0.025212	0.029987	0.13682	0.23421	0.22128	0.026302	0.067633	0.20791	0.17221	0.028647	0.069706	0.20402	0.061224	0.073431	-2.4062	-2.5021	-2.1021	-3.1125	-2.2875	-2.5812	-3.0396	-2.2042	-2.7	-2.725	-2.2896	-2.875	-2.4729	-2.3312	-2.8875	-2.3583	-92.556	56.233	-25.477	-57.276	-29.541	-68.536	193.820	173.686	-117.335	58.406	196.391	24.300	184.346	190.360	-80.217	-114.583	0.00082534	0.00065032	0.00016115	712.29	3.1699e-06	5.4441e-06	753.04	275.58	3.8389e-06	7.9692e-06	336.25	150.05	121.14	65.229	3.9044e-06	89.24	0.0013174	0.0016092	0.00044072	773.11	1.592e-05	1.7924e-05	818.28	301.06	1.6445e-05	1.8437e-05	367.82	165.08	133.67	72.01	1.7806e-05	98.455	173.640	-30.242	-44.417	-120.562	-16.927	34.983	-121.348	-114.876	-15.417	27.521	-116.022	-111.516	-110.120	-104.512	-2.897	-106.786	-8191	255	
2701.042	1	1	0	0	0.024114	0.26592	0.21774	0.20895	0.22386	0.19787	0.16431	0.30433	0.24571	0.011713	0.12572	0.31375	0.0032237	0.31083	0.14377	0.042162	-2.2833	-2.7833	-1.9896	-2.9771	-2.4417	-2.2625	-3.0187	-2.2833	-2.6792	-2.8375	-2.4521	-3.1042	-2.4896	-2.4896	-2.9083	-2.2021	-14.820	64.720	23.888	-46.459	-91.699	64.501	215.104	223.927	-90.115	-25.493	-124.632	-111.613	153.568	220.752	-112.348	61.595	0.00079909	0.0004601	0.00011036	711.01	4.9201e-06	4.8435e-06	752.78	274.89	3.6799e-06	6.7833e-06	337.88	149.58	121.58	65.045	3.4165e-06	89.448	0.0013281	0.0016043	0.00044404	770.47	1.6163e-05	1.749e-05	817.19	300.39	1.6205e-05	1.8215e-05	368.31	165.13	133.66	71.976	1.7343e-05	98.628	171.343	-49.335	-46.225	-120.403	-1.588	15.028	-120.852	-114.989	-10.786	19.554	-116.114	-111.292	-110.046	-104.539	6.776	-107.022	-8191	255	
2701.138	1	1	0	0	0.18863	0.18154	0.34648	0.091573	0.076145	0.2701	0.088352	0.23564	0.21727	0.055183	0.28124	0.056383	0.029214	0.2468	0.12213	0.29621	-2.0896	-2.7896	-2.2	-2.9229	-2.6271	-2.0042	-3.0958	-2.2396	-2.5396	-2.8771	-2.1208	-2.95	-2.7667	-2.3333	-2.9521	-2.4	-4.255	160.750	-63.949	155.539	6.247	-38.256	85.331	86.174	-106.521	92.437	154.889	-95.226	-78.979	203.745	-66.182	154.102	0.00079189	0.00050823	0.00014522	711.43	5.2562e-06	6.5456e-06	752.22	275.47	4.7381e-06	5.0865e-06	338.77	150.95	121.97	65.592	4.8957e-06	89.545	0.0013127	0.0015849	0.00044367	771.63	1.5612e-05	1.7566e-05	817.45	301.13	1.5822e-05	1.7739e-05	369.78	166.44	134.28	72.478	1.7012e-05	99.263	172.907	-35.674	-52.176	-120.256	14.501	27.085	-120.971	-114.838	2.374	25.906	-115.922	-111.420	-109.947	-104.415	5.204	-106.703	-8191	255	
2701.234	1	1	0	0	0.22133	0.21706	0.047412	0.062878	0.13751	0.27204	0.044202	0.15898	0.19891	0.13892	0.13105	0.14584	0.28099	0.12761	0.16776	0.19269	-2.1979	-3.0062	-2.0312	-2.975	-2.6	-2.1521	-3.1333	-2.2604	-2.25	-3.0229	-2.3375	-2.9938	-2.6896	-2.2229	-2.8438	-2.5625	213.555	-126.275	2.814	-91.866	119.350	-0.004	77.717	-105.456	-88.014	171.183	52.854	181.272	30.829	-119.452	166.414	195.179	0.00077947	0.00053874	0.00013665	714.59	3.4637e-06	6.8307e-06	756.59	278.01	3.7475e-06	4.3165e-06	338.87	151.04	121.39	65.586	4.2742e-06	89.698	0.0012904	0.001561	0.00043151	773.9	1.523e-05	1.7324e-05	821.29	302.68	1.6013e-05	1.771e-05	370.84	166.52	134.3	72.489	1.7026e-05	99.117	171.008	-58.059	-52.694	-120.232	9.202	18.594	-121.020	-114.498	-25.509	18.008	-115.873	-111.418	-109.884	-104.488	12.054	-106.840	-8191	255	
2701.330	1	1	0	0	0.19482	0.19001	0.24562	0.16453	0.17705	0.15974	0.31982	0.087222	0.16413	0.14604	0.082088	0.29402	0.18824	0.30079	0.096223	0.026942	-1.9542	-2.9021	-2.1479	-2.7729	-2.6708	-2.1937	-3.075	-2.6229	-2.3375	-3.0667	-2.3354	-2.6854	-2.9958	-2.3	-2.7771	-2.5875	155.934	173.130	146.526	-91.136	-118.453	1.756	128.885	-116.919	-111.371	176.938	7.190	-69.298	95.809	-117.314	146.181	153.309	0.00076714	0.00048019	9.8657e-05	715.01	3.7894e-06	6.6718e-06	753.45	276.15	5.4017e-06	6.146e-06	336.63	150.48	121.98	65.446	3.534e-06	89.633	0.0012879	0.0015347	0.00043395	773.96	1.5664e-05	1.7637e-05	818.17	301.92	1.5955e-05	1.7813e-05	369.17	165.98	134.32	72.403	1.6983e-05	99.022	172.690	-39.532	-4.419	-120.177	22.910	20.890	-120.937	-114.716	-3.314	12.268	-116.025	-111.382	-109.986	-104.262	-0.882	-106.691	-8191	255	
2701.425	1	1	0	0	0.30304	0.12279	0.1784	0.098912	0.12995	0.24787	0.23282	0.35637	0.15777	0.13038	0.14604	0.11647	0.24512	0.39366	0.2501	0.26998	-1.7292	-2.8292	-2.2167	-2.6458	-2.75	-2.2146	-2.8937	-2.8	-2.0167	-2.9792	-2.2375	-2.6396	-3.0021	-2.325	-2.7271	-2.8333	-11.222	172.427	-93.022	-105.957	78.725	171.188	133.238	-85.672	-93.163	66.012	-104.077	215.430	170.848	151.759	91.440	149.693	0.0007753	0.00047134	0.00011936	714.98	4.1476e-06	5.3358e-06	751.44	275.97	3.577e-06	4.7922e-06	338.95	151.42	122.15	65.538	3.9273e-06	89.736	0.0013098	0.0015702	0.00043544	773.11	1.5498e-05	1.7455e-05	818.01	302.02	1.5692e-05	1.7146e-05	369.81	166.45	134.51	72.555	1.6484e-05	99.159	173.328	-57.758	-27.769	-120.097	3.961	31.868	-121.102	-114.970	-1.139	19.682	-116.091	-111.356	-110.051	-104.588	-4.078	-106.880	-8191	255	
2701.521	1	1	0	0	0.092064	0.025039	0.059838	0.21649	0.086162	0.11369	0.18287	0.10272	0.19101	0.18296	0.19943	0.081049	0.329	0.30984	0.16267	0.31166	-1.6792	-2.8104	-2.3896	-2.4188	-2.9333	-2.15	-2.8958	-2.7938	-1.9771	-3.0396	-2.5417	-2.4375	-3.0833	-2.275	-2.7146	-2.9417	109.537	209.040	24.033	-103.617	123.861	6.920	202.149	210.766	5.922	149.028	118.476	-67.711	184.574	-130.393	-96.786	193.091	0.00080803	0.00055866	0.00019184	715.05	4.494e-06	4.8386e-06	751.6	277.37	3.1064e-06	5.2707e-06	339.62	151.06	122.14	65.599	4.5699e-06	89.78	0.0012679	0.0014933	0.00042695	774.66	1.5184e-05	1.6781e-05	820.34	302.58	1.5553e-05	1.671e-05	370.67	166.42	134.63	72.575	1.6329e-05	99.036	172.370	-29.477	-29.529	-120.134	9.577	26.111	-120.956	-114.716	-25.064	32.798	-116.160	-111.268	-110.004	-104.437	-14.240	-106.834	-8191	255	
2701.617	1	1	0	0	0.24406	0.067331	0.10503	0.23687	0.081498	0.094143	0.061724	0.16352	0.17365	0.098723	0.22569	0.028375	0.34752	0.15772	0.088143	0.039517	-1.8	-2.875	-2.5646	-2.3	-2.8271	-2.2	-2.6792	-2.9625	-2.2167	-2.9771	-2.5021	-2.2438	-3.125	-2.5542	-2.4396	-3.0229	-44.620	8.747	174.559	148.262	126.071	216.768	157.644	96.179	155.041	-113.181	172.669	-5.413	186.921	-106.448	-36.326	203.100	0.00079729	0.00069656	0.00015136	717.65	3.5372e-06	5.3268e-06	755.07	275.51	3.623e-06	6.47e-06	337.36	149.25	120.88	65.079	3.281e-06	88.245	0.0012582	0.0015325	0.00041273	776.73	1.4999e-05	1.7067e-05	820.72	301.49	1.5591e-05	1.7199e-05	368.33	164.36	133.3	71.732	1.6647e-05	97.588	170.439	-40.607	-39.047	-120.261	16.886	15.640	-120.708	-114.616	-11.899	12.677	-115.946	-111.514	-110.033	-104.435	-4.092	-106.849	-8191	255	
2701.713	1	1	0	0	0.096682	0.11993	0.034998	0.28461	0.16183	0.15	0.060167	0.17863	0.16053	0.20252	0.24773	0.30731	0.15914	0.11793	0.23421	0.20052	-1.5896	-2.8271	-2.625	-2.0479	-2.8542	-2.5292	-2.6521	-3.0729	-2.0604	-2.6229	-2.7042	-2.2229	-3.1896	-2.3917	-2.3271	-3.0354	109.284	157.619	114.356	194.981	82.479	-126.783	148.173	149.379	14.987	150.472	-113.737	107.595	114.265	-118.621	57.137	144.711	0.00079425	0.00065608	0.00015255	715.33	4.1063e-06	4.8935e-06	755.1	275.48	4.3304e-06	4.8881e-06	336.42	148.37	120.84	64.658	3.7991e-06	88.195	0.0012734	0.0015411	0.00042357	775.46	1.5129e-05	1.7242e-05	819.31	301.22	1.5785e-05	1.7129e-05	367.67	163.64	133.08	71.415	1.6483e-05	97.449	174.618	-50.409	-44.505	-120.338	14.879	30.694	-120.883	-114.532	-20.322	18.099	-115.981	-111.347	-109.819	-104.284	-6.608	-106.717	-8191	255	
2701.834	1	1	0	0	0.054054	0.12616	0.10359	0.16774	0.18121	0.047936	0.12952	0.12617	0.20244	0.23084	0.24735	0.15354	0.064364	0.16227	0.10873	0.099503	-1.8458	-2.7458	-2.8375	-2.3292	-2.9146	-2.5146	-2.2687	-3.1771	-2.25	-2.7167	-2.9958	-2.2854	-3.0458	-2.55	-2.3625	-3.2792	-57.262	-121.746	-105.132	143.723	-4.927	-29.909	146.992	214.648	154.521	-75.047	156.021	126.289	43.426	194.529	10.201	-118.395	0.00082495	0.00047032	0.00012645	717.28	2.915e-06	5.5817e-06	753.83	275.37	3.8688e-06	7.8627e-06	336.1	148.62	120.55	64.497	3.6042e-06	87.714	0.0012592	0.001527	0.00041964	775.28	1.5038e-05	1.665e-05	819.7	301.06	1.5518e-05	1.6628e-05	367.5	163.5	132.66	71.105	1.6416e-05	96.901	173.675	-32.073	-44.557	-120.145	16.351	19.827	-120.804	-114.601	-43.347	19.559	-116.146	-111.544	-109.931	-104.449	13.359	-106.641	-8191	255	
2701.930	1	1	0	0	0.028924	0.18463	0.37631	0.28363	0.073319	0.15189	0.14672	0.50168	0.36554	0.044085	0.15033	0.34204	0.095456	0.23374	0.12177	0.30245	-1.8958	-2.5146	-2.95	-2.3	-2.7958	-2.6188	-2.3625	-3.1312	-2.3125	-2.3833	-2.9562	-2.1396	-2.8271	-2.8729	-2.1979	-3.2938	44.784	-2.054	95.247	89.029	110.777	23.746	157.417	213.714	-98.089	-123.575	-127.717	201.095	188.138	98.194	-26.319	213.598	0.00075407	0.00056313	0.00014292	718.54	4.1311e-06	5.402e-06	754.35	276.06	3.9846e-06	4.4133e-06	335.84	147.66	119.24	63.526	3.3737e-06	86.775	0.0012375	0.0014715	0.0004142	778.34	1.4557e-05	1.6601e-05	822.75	301.26	1.5381e-05	1.677e-05	366.97	162.34	131.7	70.255	1.6407e-05	95.622	171.243	-39.118	-43.056	-120.084	0.918	19.797	-120.864	-114.685	-23.545	29.550	-115.826	-111.341	-109.824	-104.174	31.084	-106.710	-8191	255	
2702.002	1	1	0	0	0.035623	0.11881	0.10659	0.058124	0.20145	0.1261	0.082816	0.13415	0.04718	0.18404	0.23113	0.22235	0.29006	0.41881	0.19935	0.18639	-1.9792	-2.4417	-2.9542	-2.175	-2.6604	-2.7625	-2.2	-3.1417	-2.3396	-2.3688	-3.0167	-2.1583	-2.7854	-3.0458	-2.0708	-3.0917	-119.208	-50.229	216.502	152.197	4.245	-78.691	144.562	42.590	-29.653	22.498	166.504	158.619	187.030	-126.155	-38.565	182.404	0.00076082	0.00044071	0.00014006	719.08	3.8956e-06	4.9508e-06	754.05	274.28	4.3537e-06	4.1768e-06	333.99	146.24	119.56	63.336	3.9168e-06	86.202	0.0012373	0.0015058	0.00041711	777.75	1.4881e-05	1.681e-05	820.13	299.51	1.5292e-05	1.7109e-05	364.67	161.05	131.28	69.973	1.6337e-05	95.084	173.612	-16.096	-31.908	-120.121	21.922	28.636	-120.877	-114.492	-21.611	6.873	-116.013	-111.150	-109.801	-104.170	9.909	-106.406	-8191	255	
2702.122	1	1	0	0	0.02361	0.2523	0.054857	0.13597	0.032687	0.20379	0.34392	0.19985	0.14971	0.099049	0.2276	0.12266	0.31239	0.29251	0.14681	0.36963	-2.2708	-2.3583	-3.0521	-2.3854	-2.7104	-2.775	-2.1542	-3.125	-2.5208	-2.1896	-3.2021	-2.3896	-2.6292	-3.0667	-2.3479	-3.0438	6.530	167.956	208.525	177.704	-42.627	-81.698	119.898	-119.003	-97.722	63.920	69.485	-66.081	-108.402	172.021	-95.124	209.367	0.00074043	0.00043169	0.00012283	718.72	4.2295e-06	4.6882e-06	754.34	274.2	5.5412e-06	3.8608e-06	334.27	145.89	119.11	63.129	5.4013e-06	85.822	0.0012259	0.0014924	0.00041632	777.23	1.4674e-05	1.6518e-05	821.03	299.87	1.5038e-05	1.6553e-05	364.62	160.74	131.18	69.586	1.6248e-05	94.904	171.163	-30.554	-22.681	-120.148	5.473	41.759	-120.712	-114.431	-27.759	36.207	-116.003	-111.413	-109.650	-104.215	-0.414	-106.464	-8191	255	
2702.218	1	1	0	0	0.080444	0.099101	0.22682	0.083084	0.046367	0.12575	0.13254	0.18595	0.20067	0.21974	0.08938	0.077548	0.10379	0.25215	0.015557	0.30731	-2.1625	-2.1708	-2.975	-2.3875	-2.3937	-3.0167	-2.0604	-2.6646	-2.6708	-2.0292	-3.1125	-2.3146	-2.4208	-3.0229	-2.05	-3.0896	-48.559	-120.444	-58.446	-11.180	174.917	-79.305	219.808	192.063	114.082	64.527	-80.578	187.029	168.293	208.059	11.665	193.131	0.00074906	0.00052166	0.00017449	719.23	4.3622e-06	5.609e-06	754.9	275.59	4.8391e-06	5.045e-06	337.15	147.76	119.69	63.461	3.4978e-06	86.688	0.0012332	0.0014722	0.00040787	777.62	1.4511e-05	1.6365e-05	821.45	300.9	1.5083e-05	1.6562e-05	367.58	162.2	131.98	70.083	1.6362e-05	95.792	172.439	-42.644	-33.012	-120.179	2.101	9.210	-120.561	-114.439	-18.621	34.726	-115.697	-111.305	-109.516	-104.231	-8.814	-106.249	-8191	255	
2702.315	1	1	0	0	0.090362	0.10452	0.093451	0.21512	0.19838	0.31615	0.17793	0.1513	0.14668	0.17628	0.12478	0.27624	0.21932	0.28141	0.11547	0.22042	-2.3438	-2.2792	-2.7604	-2.5708	-2.3271	-3.0104	-2.2687	-2.875	-2.8542	-2.1937	-3.0375	-2.6479	-2.1667	-3.2917	-2.0729	-2.7687	166.589	-92.671	66.231	-18.565	-32.952	201.373	-10.788	117.894	218.319	105.817	-108.170	111.576	-113.392	-121.949	68.550	-116.102	0.00076189	0.00041713	0.00010089	717.64	3.3838e-06	5.9004e-06	756.56	275.42	5.0572e-06	7.116e-06	337.26	147.02	119.8	63.522	5.2424e-06	86.349	0.0012187	0.0014827	0.00041035	776.89	1.4529e-05	1.6277e-05	820.52	301.07	1.4858e-05	1.6535e-05	366.95	161.98	131.98	70.131	1.6322e-05	95.356	171.667	-36.254	-13.206	-120.065	-3.033	27.557	-120.749	-114.538	-9.173	17.390	-115.547	-111.287	-109.702	-104.051	-6.399	-106.445	-8191	255	
2702.435	1	1	0	0	0.12352	0.1247	0.20077	0.025172	0.09347	0.28302	0.2622	0.084437	0.092219	0.10538	0.0057693	0.04211	0.25991	0.14662	0.11095	0.0743	-2.4875	-2.0375	-2.9271	-2.6396	-2.1625	-2.8625	-2.4313	-2.7687	-2.9354	-2.0729	-2.8417	-2.7083	-2.2	-3.1813	-2.2667	-2.5875	-79.967	181.764	8.131	83.100	-94.278	-81.994	188.541	222.650	-126.482	198.432	199.880	-131.258	193.137	-115.238	-19.000	-57.045	0.00077734	0.00045321	0.00012747	717.95	2.7121e-06	5.8339e-06	751.81	275.75	4.4948e-06	3.8798e-06	334.55	146.69	119.46	63.343	4.4559e-06	85.945	0.0012371	0.0014929	0.00040209	775.04	1.4786e-05	1.6488e-05	817.83	300.57	1.5018e-05	1.656e-05	365.69	161.44	131.64	69.81	1.627e-05	94.778	170.857	-30.090	-65.642	-119.944	-27.632	20.604	-120.848	-114.278	-20.213	24.493	-115.608	-111.085	-109.708	-103.976	-2.906	-106.410	-8191	255	
2702.530	1	1	0	0	0.049631	0.29236	0.12808	0.38765	0.062528	0.17578	0.062458	0.27801	0.054755	0.24626	0.24012	0.088567	0.1438	0.081722	0.11232	0.093127	-2.5979	-2.3354	-2.9875	-2.8438	-1.9771	-2.8896	-2.5917	-2.5854	-2.8312	-2.2562	-2.7417	-2.8083	-2.1521	-3.0229	-2.4229	-2.4938	-94.408	72.368	111.575	164.901	-102.779	219.960	171.024	200.717	174.663	-97.990	0.017	22.819	63.491	192.228	42.563	50.484	0.00075468	0.00054062	0.00013498	716.5	3.3273e-06	5.8162e-06	753.96	275.53	3.8509e-06	5.0723e-06	336.48	146.73	119.25	62.793	3.9017e-06	85.63	0.0012256	0.0015061	0.00040247	776.9	1.4816e-05	1.6259e-05	820.32	300.77	1.4785e-05	1.6445e-05	366.58	161.3	131.27	69.307	1.5654e-05	94.57	171.806	-38.505	-23.973	-119.963	-22.551	24.011	-120.637	-114.340	-31.203	26.758	-115.601	-111.136	-109.594	-104.073	-8.353	-106.245	-8191	255	
2702.601	1	1	0	0	0.12566	0.24143	0.2838	0.22578	0.20156	0.15168	0.2115	0.23733	0.17501	0.10057	0.11882	0.031122	0.26882	0.20666	0.1235	0.16634	-2.6333	-2.0146	-2.7125	-2.9	-2.1167	-2.9479	-2.5583	-2.2125	-3.0208	-1.9458	-2.7208	-3	-2.0896	-3.0125	-2.6333	-2.3208	134.372	152.098	-46.426	170.122	65.052	-115.632	131.916	211.123	-49.210	183.653	127.092	181.402	-120.338	219.387	209.799	-93.646	0.00074403	0.00041667	0.0001137	719.41	4.0983e-06	5.3178e-06	757.04	276.02	4.9358e-06	3.6051e-06	337.1	145.95	119.23	62.388	5.0552e-06	85.369	0.0012105	0.0014356	0.00038917	777.87	1.4109e-05	1.5452e-05	822.71	300.91	1.4508e-05	1.5572e-05	367.41	161.07	131.19	68.945	1.5248e-05	93.931	172.924	-59.054	-42.080	-119.942	3.905	14.320	-120.744	-114.296	-23.197	32.937	-115.647	-111.051	-109.667	-103.655	-14.769	-106.267	-8191	255	
2702.722	1	1	0	0	0.064737	0.19591	0.31741	0.052902	0.11968	0.24447	0.17639	0.18895	0.20201	0.16331	0.06915	0.041938	0.28118	0.20077	0.19195	0.16303	-2.6667	-2.2479	-2.425	-3.2	-2.1167	-2.8875	-2.7188	-2.1625	-2.8229	-2.2979	-2.4333	-3.0604	-2.25	-2.7479	-2.6896	-2.2375	26.306	-120.495	-106.264	-86.003	82.877	-111.838	117.964	193.453	157.292	43.923	-98.011	-58.150	119.108	-108.633	180.998	-100.168	0.00073834	0.00061294	0.00013276	719.43	3.7733e-06	5.7173e-06	755.41	274.96	4.1854e-06	5.7274e-06	335.52	145.48	118.68	62.099	3.4753e-06	84.188	0.0011749	0.0014064	0.00038402	777.54	1.3994e-05	1.5287e-05	818.47	300.32	1.4526e-05	1.5899e-05	365.75	159.85	130.59	68.513	1.5448e-05	92.994	172.327	-43.638	-39.658	-119.881	7.911	34.302	-120.795	-114.423	-18.576	22.375	-115.521	-111.188	-109.524	-103.852	-13.653	-106.156	-8191	255	
2702.818	1	1	0	0	0.065941	0.16887	0.36063	0.062555	0.31462	0.29037	0.13934	0.063431	0.12485	0.086298	0.22876	0.37847	0.088609	0.23422	0.015906	0.18264	-2.5438	-2.2583	-2.275	-3.0854	-2.1292	-2.85	-2.7354	-2.3333	-3.0146	-2.4458	-2.4646	-3.1354	-2.0896	-2.7938	-2.7812	-2.1604	20.892	7.756	-75.123	-108.110	-13.835	227.318	133.376	32.036	94.298	43.580	-52.399	172.443	-91.456	-114.953	23.074	128.882	0.00073684	0.0006022	0.00018026	717.17	4.0752e-06	6.4881e-06	755.06	274.82	4.7998e-06	4.4371e-06	335.06	144.9	118.16	61.886	2.9107e-06	84.21	0.0011666	0.0014255	0.00039205	776.64	1.4077e-05	1.5367e-05	820.27	300.18	1.4188e-05	1.576e-05	365.94	159.83	130.22	68.186	1.5472e-05	93.014	171.131	-30.046	-50.511	-119.951	18.022	16.477	-120.755	-114.379	-11.673	25.032	-115.653	-111.152	-109.591	-104.041	-13.339	-106.409	-8191	255	
2702.914	1	1	0	0	0.18399	0.11819	0.045086	0.066626	0.095994	0.072019	0.22443	0.15203	0.14696	0.12758	0.46213	0.11149	0.41057	0.2565	0.090767	0.20174	-2.7042	-2.5167	-2.3375	-2.975	-2.0979	-2.6229	-2.8937	-2.2438	-2.9083	-2.5438	-2.2542	-2.8875	-2.4	-2.55	-2.9625	-2.3375	-106.162	-2.934	209.338	138.787	-109.464	-41.821	150.603	179.886	130.393	92.226	163.177	-49.206	-111.838	-111.292	130.587	209.002	0.00071098	0.00041346	0.00018551	720.27	4.0582e-06	3.1589e-06	758.13	276.07	3.8706e-06	6.3243e-06	334.93	145.73	118.8	62.173	4.0876e-06	84.791	0.001149	0.0014025	0.00039137	778.73	1.3966e-05	1.5503e-05	823.21	300.96	1.4489e-05	1.5813e-05	366.78	160.6	130.99	68.596	1.5393e-05	93.746	171.691	-47.795	-39.069	-119.882	-8.519	30.193	-120.661	-114.692	-20.722	24.120	-115.519	-111.151	-109.734	-104.017	-13.251	-106.502	-8191	255	
2703.010	1	1	0	0	0.22051	0.028979	0.095192	0.15886	0.26962	0.12872	0.25921	0.1864	0.13708	0.097857	0.027723	0.15342	0.17425	0.41029	0.031908	0.080559	-2.3771	-2.6104	-2.2042	-3.1333	-2.4354	-2.3979	-3.0083	-2.2583	-2.8417	-2.8229	-2.3167	-3.1125	-2.4375	-2.5396	-2.9437	-2.3167	8.794	-1.312	-76.151	-124.479	90.706	174.646	178.854	-129.678	194.574	-74.164	-28.357	16.996	-104.230	170.282	19.185	23.727	0.00074757	0.00055489	0.00012992	722.26	2.7093e-06	5.8852e-06	755.68	276.02	3.9564e-06	7.6055e-06	335.72	145.73	118.81	62.126	4.7259e-06	84.533	0.0011719	0.001419	0.00038464	779.72	1.402e-05	1.5616e-05	821.81	301.42	1.4186e-05	1.5828e-05	366.31	160.44	130.92	68.486	1.5339e-05	93.274	171.250	-36.631	-66.154	-119.994	0.716	19.119	-120.767	-114.515	-32.254	15.012	-115.986	-111.157	-109.749	-104.169	-7.922	-106.594	-8191	255	
2703.131	1	1	0	0	0.16089	0.030731	0.19135	0.1881	0.32958	0.10647	0.24647	0.074408	0.19392	0.15902	0.14177	0.17457	0.34267	0.16297	0.066888	0.50549	-2.425	-2.5062	-2.1583	-3.0708	-2.425	-2.5292	-3.0042	-2.4458	-2.6354	-2.85	-2.1396	-3.0521	-2.4229	-2.3	-2.9917	-2.2521	117.677	217.337	220.958	191.859	90.969	186.281	109.854	206.632	121.127	-97.981	141.226	189.092	-47.380	-113.265	132.960	209.293	0.00072785	0.00059403	0.00014447	718.91	4.8905e-06	4.729e-06	754.3	275.64	3.4353e-06	5.1904e-06	334.66	145.8	118.89	62.214	4.8441e-06	84.585	0.0011704	0.001414	0.0003935	776.87	1.3686e-05	1.5348e-05	820.42	300.62	1.4154e-05	1.5627e-05	365.19	160.3	130.77	68.559	1.5325e-05	93.405	172.688	-35.053	-36.798	-120.134	7.498	20.531	-120.942	-114.611	-17.059	15.400	-115.769	-111.331	-109.872	-104.073	-13.445	-106.474	-8191	255	
2703.227	1	1	0	0	0.33652	0.11341	0.1375	0.091575	0.1862	0.26479	0.20337	0.38976	0.24424	0.27192	0.03348	0.17198	0.10421	0.26564	0.16142	0.17954	-2.1792	-2.7667	-2.1104	-2.9792	-2.5167	-2.1229	-3.1	-2.2938	-2.4708	-2.8396	-2.175	-2.8854	-2.6333	-2.1292	-2.8521	-2.4396	190.673	37.202	-49.813	139.103	185.413	27.481	161.312	188.282	-63.403	-36.681	-22.295	150.479	141.058	140.682	-121.200	110.387	0.00073526	0.00051263	0.00015098	718.13	2.8973e-06	4.7636e-06	756.9	276.39	4.9957e-06	7.8244e-06	336.61	145.74	118.94	62.34	5.2332e-06	84.515	0.0011706	0.0013936	0.00039295	777.03	1.3921e-05	1.5432e-05	820.83	301	1.4024e-05	1.5369e-05	366.49	160.61	130.9	68.64	1.4925e-05	93.455	172.911	-29.307	-52.826	-119.973	-2.368	31.987	-120.788	-114.767	-28.801	23.509	-115.932	-111.332	-109.780	-104.287	1.387	-106.546	-8191	255	
2703.299	1	1	0	0	0.22344	0.039508	0.098255	0.073073	0.045338	0.28266	0.21131	0.30522	0.13868	0.20275	0.088857	0.26507	0.39732	0.11002	0.25364	0.17462	-1.7938	-2.6729	-1.8583	-2.7396	-2.7042	-2.0229	-3.1458	-2.275	-2.3458	-3.0521	-2.2	-2.8146	-2.7396	-2.225	-3.0187	-2.6625	-73.718	204.897	13.753	61.055	-14.574	206.021	139.114	158.064	189.960	77.366	-79.804	199.668	-129.955	145.319	2.039	-120.077	0.00074642	0.00056702	0.00013563	722.38	4.3502e-06	6.1466e-06	760.46	277.15	3.332e-06	4.6017e-06	335.69	146.27	119.29	62.324	3.1973e-06	84.474	0.0011609	0.0013604	0.00038219	780.14	1.3618e-05	1.4903e-05	824.87	301.71	1.3873e-05	1.5153e-05	367.29	161.41	131.19	68.772	1.4645e-05	93.604	172.004	-49.481	-36.279	-119.868	-9.087	47.334	-120.716	-114.633	-25.643	30.692	-115.844	-110.994	-109.887	-104.231	-40.515	-106.460	-8191	255	
2703.395	1	1	0	0	0.055976	0.16982	0.22551	0.032468	0.24948	0.05254	0.2519	0.25131	0.095545	0.1356	0.13873	0.10962	0.15171	0.20831	0.22334	0.25167	-1.8583	-2.9417	-2.1771	-2.8438	-2.8417	-1.9292	-3.1479	-2.7438	-2.2062	-3.0229	-2.2313	-2.5729	-2.7958	-2.2771	-2.8875	-2.7458	-42.052	85.986	-37.187	-100.516	77.251	33.152	172.185	-131.030	-72.572	-69.401	227.292	171.311	176.828	169.535	69.369	168.791	0.00073246	0.00041401	0.00014586	720.57	4.0554e-06	5.9873e-06	757.19	275.54	4.0373e-06	3.9044e-06	336.43	145.52	118.63	62.183	2.9475e-06	84.345	0.0011503	0.0013398	0.00037582	779.54	1.3405e-05	1.5128e-05	822.44	300.69	1.3737e-05	1.5227e-05	366.08	160.18	130.61	68.539	1.4445e-05	93.127	172.777	-35.212	-36.624	-119.983	2.708	27.189	-120.881	-114.620	-34.985	34.198	-115.899	-111.060	-109.874	-104.019	-24.720	-106.521	-8191	255	
2703.514	1	1	0	0	0.2155	0.26414	0.29742	0.11679	0.24289	0.12053	0.15833	0.23071	0.25854	0.098873	0.13039	0.16114	0.14294	0.20957	0.22693	0.16159	-1.6292	-2.8083	-2.1583	-2.6292	-2.7042	-2.1312	-2.9833	-2.675	-2.1521	-2.8438	-2.3458	-2.6562	-2.9979	-2.4042	-2.7229	-2.8771	-125.881	22.789	32.070	-84.289	219.176	160.293	49.264	137.239	-90.586	215.062	217.790	223.306	-77.751	211.934	-112.504	114.494	0.00074564	0.00059087	9.7119e-05	719.9	3.6257e-06	6.002e-06	754.3	274.85	3.3428e-06	5.8307e-06	334.24	145.29	118.23	61.802	4.2347e-06	83.806	0.0011611	0.0013333	0.00038191	779.32	1.423e-05	1.5942e-05	821.74	300.35	1.5107e-05	1.6882e-05	365.23	159.84	130.23	68.16	1.6835e-05	92.618	171.636	-41.641	-35.703	-120.052	-1.805	15.885	-120.658	-114.602	-12.437	-1.884	-115.515	-111.113	-109.756	-104.103	-5.464	-106.389	-8191	255	
2703.610	1	1	0	0	0.23191	0.26692	0.092805	0.27085	0.11293	0.083006	0.16273	0.17783	0.28122	0.048509	0.19901	0.27594	0.11534	0.14001	0.091867	0.095804	-1.7417	-2.7375	-2.3208	-2.2646	-2.9333	-1.9292	-2.8	-2.7833	-1.9813	-2.7479	-2.55	-2.175	-3.0854	-2.2167	-2.6833	-2.8354	54.020	58.230	-4.022	165.295	-98.308	13.472	81.530	178.821	114.960	-76.718	177.898	146.755	-96.900	176.428	7.438	111.626	0.00071923	0.00053665	0.00011394	721	4.092e-06	6.2737e-06	752.29	274.09	4.8128e-06	5.3324e-06	332.71	144.11	117.36	61.044	2.9359e-06	83.194	0.0012779	0.0015438	0.00044624	777.97	1.5943e-05	1.8052e-05	820.07	298.96	1.6941e-05	1.8785e-05	363.76	158.68	129.27	67.43	1.8209e-05	91.97	171.544	-63.232	-37.289	-119.785	24.577	27.425	-120.884	-114.525	-11.962	49.978	-115.851	-111.081	-109.519	-104.079	-14.236	-106.296	-8191	255	
2703.706	1	1	0	0	0.19442	0.088129	0.02114	0.074551	0.21567	0.16487	0.16158	0.15128	0.1868	0.15959	0.17916	0.2116	0.25941	0.20121	0.31377	0.10187	-1.5375	-2.8271	-2.3354	-2.3958	-3.0771	-2.2104	-2.8187	-2.9146	-1.9083	-2.8833	-2.5958	-2.1937	-3.1146	-2.2854	-2.3167	-3.0479	143.691	-0.550	111.756	194.395	32.296	124.603	106.636	208.990	149.320	-38.611	-72.541	137.183	179.667	210.268	-29.566	-89.062	0.00075109	0.00061658	8.7129e-05	717.09	3.8346e-06	5.97e-06	753.85	272.74	4.8196e-06	3.657e-06	330.63	143.31	116.5	60.632	2.7578e-06	82.267	0.0013412	0.0016761	0.00047216	777.08	1.6928e-05	1.9072e-05	820.64	297.54	1.7297e-05	1.9181e-05	361.85	157.81	128.47	66.835	1.8269e-05	90.888	172.175	-41.705	-40.928	-119.909	30.104	12.069	-120.793	-114.465	-29.504	43.234	-115.622	-111.292	-109.512	-103.857	-22.331	-106.279	-8191	255	
2703.802	1	1	0	0	0.066121	0.062548	0.060837	0.25344	0.038918	0.048425	0.12741	0.32006	0.28391	0.1316	0.32929	0.25485	0.057989	0.085269	0.17468	0.030724	-1.6417	-2.6854	-2.5354	-2.2	-2.7917	-2.3146	-2.4771	-3.1021	-2.0021	-2.9667	-2.8354	-2.1729	-3.225	-2.3729	-2.2313	-3.1125	220.327	106.921	105.017	161.105	-51.894	131.860	-109.340	158.581	227.007	114.427	-119.558	94.683	203.132	198.734	-113.006	119.874	0.00070093	0.00041722	0.00014568	712.11	3.6959e-06	3.6865e-06	748.41	270.12	5.6065e-06	5.6351e-06	328.9	142.57	116.02	60.463	4.8078e-06	82.432	0.0013419	0.0016743	0.00047317	772.47	1.6745e-05	1.9062e-05	813.72	295.16	1.7413e-05	1.9048e-05	359.75	157.32	127.93	66.897	1.8282e-05	91.038	168.967	-45.786	-38.894	-119.697	2.679	16.172	-120.625	-114.439	-35.473	8.555	-115.731	-111.012	-109.614	-103.865	16.275	-106.486	-8191	255	
2703.898	1	1	0	0	0.070518	0.18286	0.04803	0.30813	0.27199	0.26799	0.063272	0.066738	0.10482	0.25449	0.21619	0.084527	0.095568	0.2514	0.23112	0.19649	-1.7146	-2.6708	-2.7208	-2.0542	-2.8438	-2.5375	-2.3312	-2.9646	-1.8854	-2.6417	-2.9	-2.275	-2.9792	-2.4729	-2.2479	-2.9375	165.251	32.443	30.369	-127.772	198.919	-109.197	-105.410	-114.596	-56.619	29.804	-105.136	139.765	90.374	-104.033	189.645	-54.039	0.00071664	0.00057365	0.00015744	708.86	2.6831e-06	6.5247e-06	748.78	270.22	3.2372e-06	5.4472e-06	328.33	142.4	116.53	60.81	5.0364e-06	83.18	0.0013444	0.0016858	0.00047188	770.07	1.6576e-05	1.888e-05	814.18	295.11	1.7127e-05	1.882e-05	359.47	157.7	128.28	67.244	1.8146e-05	91.829	173.823	-38.926	-26.249	-119.991	11.666	37.835	-120.417	-114.375	-36.400	26.732	-115.746	-111.054	-109.509	-103.834	0.150	-106.359	-8191	255	
2703.995	1	1	0	0	0.13022	0.19986	0.16171	0.29218	0.15782	0.23723	0.15818	0.19718	0.21361	0.10515	0.14972	0.11112	0.089126	0.15746	0.36412	0.039914	-1.7375	-2.4188	-2.7958	-2.2354	-2.9042	-2.5792	-2.0958	-2.9729	-2.25	-2.4062	-3.0396	-2.1083	-2.8375	-2.9042	-2.0479	-2.9813	30.022	176.976	74.144	149.767	-96.317	170.449	148.665	160.529	11.466	-43.871	34.148	-126.527	-76.342	220.238	178.811	171.619	0.0007249	0.00058161	9.9821e-05	712.08	3.9347e-06	7.3632e-06	750.91	269.43	3.957e-06	4.1225e-06	330.39	143.26	116.38	60.897	4.1784e-06	82.81	0.0013161	0.0016893	0.00047016	771.1	1.6365e-05	1.8698e-05	815.86	294.85	1.6983e-05	1.8543e-05	360.98	157.92	128.11	67.222	1.7868e-05	91.569	174.448	-50.904	-43.209	-119.791	-16.587	26.921	-120.381	-114.282	-4.297	15.697	-115.626	-110.870	-109.621	-103.939	-1.434	-106.342	-8191	255	
2704.115	1	1	0	0	0.28312	0.051369	0.2776	0.19321	0.070446	0.18089	0.29003	0.26925	0.039359	0.14118	0.20685	0.23012	0.076152	0.14521	0.058979	0.13962	-1.8875	-2.2708	-2.8333	-2.2458	-2.7958	-2.5875	-2.0625	-3.1146	-2.3396	-2.3771	-3.0292	-2.3	-2.7729	-2.8396	-2.2313	-3.2021	6.593	202.665	60.557	-91.197	-44.020	43.294	65.383	-70.264	-129.778	187.222	69.337	-24.263	79.428	201.630	67.178	117.040	0.00072679	0.00065688	0.00015925	712.17	3.0941e-06	4.8005e-06	747.07	269.81	4.2418e-06	2.8191e-06	328.65	141.9	115.82	60.259	3.5344e-06	82.39	0.0013077	0.0016406	0.000466	771.18	1.6251e-05	1.8412e-05	814.01	294.69	1.7062e-05	1.8655e-05	358.11	156.62	127.31	66.632	1.8262e-05	90.777	172.129	-48.365	-25.347	-119.794	-21.444	30.182	-120.470	-114.389	-9.335	27.912	-115.824	-111.358	-109.544	-104.280	13.800	-106.514	-8191	255	
2704.211	1	1	0	0	0.084117	0.13666	0.27217	0.15704	0.23147	0.26662	0.03468	0.11666	0.14609	0.13281	0.20751	0.067306	0.11198	0.19544	0.1661	0.068888	-2.0583	-2.0938	-2.7896	-2.1937	-2.5417	-2.8187	-2.1146	-3.0792	-2.3729	-2.0333	-3.1	-2.5021	-2.7	-2.9437	-1.9667	-2.9021	102.399	9.970	206.858	-128.347	56.827	27.174	-31.818	156.024	126.915	-34.222	225.639	136.381	224.793	203.013	18.046	107.104	0.00073513	0.0004365	0.00012209	710.9	2.8859e-06	4.3302e-06	746.98	269.38	1.9789e-06	4.7583e-06	326.59	141.8	115.17	60.005	3.4876e-06	81.754	0.0013054	0.0016759	0.00045624	770.34	1.6576e-05	1.8329e-05	812.71	293.64	1.665e-05	1.8716e-05	357.72	156.14	127.06	66.376	1.7957e-05	90.353	171.917	-40.943	-18.276	-120.158	9.503	32.207	-121.443	-115.246	-4.960	34.138	-116.385	-111.999	-110.404	-104.816	-45.421	-107.221	-8191	255	
2704.308	1	1	0	0	0.21166	0.13636	0.046996	0.18815	0.077198	0.03691	0.19481	0.13291	0.26601	0.16838	0.083351	0.11612	0.12958	0.27314	0.26588	0.24287	-2.1312	-2.0542	-2.9375	-2.3167	-2.4813	-3.0604	-2.225	-2.8667	-2.4437	-2.2646	-2.95	-2.5438	-2.3688	-3.0229	-2.1333	-2.8104	-58.380	-2.923	180.997	142.593	124.344	156.673	219.311	167.093	-52.927	-24.097	-3.884	199.405	113.091	177.133	7.900	-113.356	0.00070426	0.0007355	8.4635e-05	713.49	3.6284e-06	6.7384e-06	750.96	268.92	1.7475e-06	4.1769e-06	327.95	141.79	114.77	59.905	4.9142e-06	81.907	0.0012931	0.0016377	0.00044222	771.86	1.6349e-05	1.8062e-05	815.68	293.97	1.6436e-05	1.8239e-05	358.3	156.18	126.78	66.202	1.7698e-05	90.376	172.644	-38.830	-71.766	-120.854	4.517	16.408	-121.214	-115.042	-19.651	27.216	-116.342	-112.007	-110.198	-104.583	-7.749	-106.913	-8191	255	
2704.404	1	1	0	0	0.37796	0.2897	0.16941	0.182	0.17051	0.031343	0.15857	0.28483	0.063065	0.20389	0.26576	0.094902	0.11962	0.1462	0.22087	0.12649	-2.275	-2.0375	-3.1896	-2.2875	-2.3875	-2.9792	-2.3271	-2.6958	-2.7083	-2.1521	-2.9458	-2.5479	-2.4188	-3.1354	-1.9229	-2.7458	-34.748	137.685	90.358	-76.521	-1.095	179.385	13.354	226.814	18.642	137.533	174.476	195.907	-108.071	215.534	219.824	195.372	0.00071968	0.00048641	0.00013626	713.99	2.2118e-06	5.1443e-06	750.62	268.2	5.0579e-06	6.3945e-06	326.13	141.1	114.55	59.723	3.6075e-06	81.264	0.0012723	0.0016082	0.00044287	774.02	1.6186e-05	1.7977e-05	817.15	293.81	1.6571e-05	1.8538e-05	357.08	155.66	126.49	66.079	1.7653e-05	89.946	171.712	-40.414	-34.977	-120.626	-19.679	4.440	-121.272	-115.034	-15.213	21.008	-116.246	-111.612	-110.147	-104.270	-2.713	-106.569	-8191	255	
2704.523	1	1	0	0	0.11724	0.11205	0.34691	0.026248	0.11298	0.12972	0.15937	0.17456	0.13291	0.24212	0.17356	0.0149	0.15678	0.25507	0.036986	0.26843	-2.4625	-1.9833	-2.7104	-2.5083	-2.1646	-2.9042	-2.2938	-2.6354	-2.8417	-2.0938	-2.9313	-2.5167	-2.4417	-3.0917	-2.2396	-2.5354	34.932	110.452	-8.533	-110.614	207.638	-114.144	156.002	154.956	78.320	101.983	187.359	-79.603	-105.732	220.869	-65.397	199.599	0.00068874	0.0005813	0.00013532	709.86	5.6348e-06	3.9346e-06	747.63	268.14	5.1148e-06	5.2028e-06	324.19	140.68	114.38	59.73	4.3142e-06	81.285	0.0012967	0.001651	0.00044741	770.33	1.6494e-05	1.8209e-05	813.26	292.4	1.6905e-05	1.8626e-05	355.05	154.99	125.99	65.943	1.7945e-05	89.709	171.664	-50.963	-40.688	-120.438	9.155	32.309	-120.981	-114.761	-35.986	14.121	-116.132	-111.575	-109.925	-104.191	7.999	-106.758	-8191	255	
2704.594	1	1	0	0	0.074845	0.26308	0.15583	0.074456	0.20388	0.22633	0.18037	0.26687	0.055861	0.050096	0.13374	0.1605	0.11495	0.16063	0.18451	0.19061	-2.4458	-1.9417	-2.5563	-2.6333	-2.0521	-3.0146	-2.4083	-2.4292	-2.8979	-1.9833	-2.7729	-2.7292	-2.275	-3.1146	-2.2896	-2.3896	24.591	53.927	-91.868	-88.104	50.319	73.708	183.105	167.234	123.648	89.571	218.179	221.731	54.195	-112.805	-110.844	-126.169	0.00072146	0.00044428	0.00011588	709.41	3.9832e-06	5.4196e-06	748.9	267.83	2.7123e-06	6.6296e-06	325.75	141.37	114.54	59.878	3.8841e-06	81.651	0.0012998	0.0016713	0.00045371	769.53	1.6585e-05	1.7982e-05	813.75	292.23	1.6604e-05	1.8672e-05	355.77	155.38	126.22	66.065	1.8019e-05	90.054	174.059	-26.458	-34.019	-120.172	7.651	17.420	-121.171	-114.708	-3.593	29.564	-115.944	-111.365	-109.769	-104.113	19.512	-106.570	-8191	255	
2704.690	1	1	0	0	0.16612	0.24979	0.34175	0.23766	0.22624	0.079925	0.14751	0.17238	0.17313	0.257	0.13063	0.31635	0.19283	0.15632	0.10085	0.016163	-2.5354	-2.0396	-2.7896	-3.0417	-2.0375	-3.0417	-2.4792	-2.3104	-2.7938	-2.1292	-2.5104	-2.8729	-2.0646	-3.1354	-2.4458	-2.2021	-112.530	120.878	184.857	153.087	59.838	157.673	160.129	203.472	200.002	41.477	-0.286	182.742	151.437	-117.746	69.012	155.728	0.0007242	0.00050388	0.00015369	712.18	5.1308e-06	4.8302e-06	749.04	267.72	3.0447e-06	3.2104e-06	326.98	141.51	115.17	60.311	4.8289e-06	82.067	0.0012825	0.0016587	0.00045504	770.85	1.6805e-05	1.8125e-05	814.61	292.5	1.6817e-05	1.9015e-05	356.72	156.14	126.92	66.531	1.8094e-05	90.673	170.619	-37.643	-34.273	-120.244	8.904	20.900	-120.862	-114.593	-4.194	27.893	-115.900	-111.389	-109.666	-104.138	-34.570	-106.553	-8191	255	
2704.787	1	1	0	0	0.13139	0.098994	0.05275	0.1679	0.37335	0.22343	0.060252	0.15887	0.14473	0.31809	0.23163	0.099326	0.28178	0.25339	0.042913	0.31981	-2.6729	-2.3167	-2.3958	-2.8688	-1.9083	-2.6854	-2.6437	-2.4333	-3.025	-2.2313	-2.6979	-2.9792	-2.2396	-2.9854	-2.5896	-2.3083	76.970	-47.500	-42.738	-93.955	-67.308	29.515	-9.523	-98.362	47.001	-41.195	208.498	121.535	210.655	222.929	-105.033	133.583	0.00074106	0.0004881	9.6185e-05	711.01	3.9171e-06	4.9577e-06	744.59	267.25	2.1311e-06	5.6196e-06	326.03	140.6	113.99	59.819	4.5296e-06	81.133	0.0013067	0.0016727	0.00045949	770.2	1.6638e-05	1.8305e-05	812.03	292.05	1.665e-05	1.9009e-05	355.09	154.76	125.96	66.086	1.7731e-05	89.643	173.567	-66.300	-36.596	-120.301	-17.182	5.291	-120.913	-114.665	-33.688	10.367	-115.856	-111.255	-109.591	-104.245	-8.500	-106.537	-8191	255	
2704.907	1	1	0	0	0.16425	0.16247	0.069884	0.22409	0.19261	0.099937	0.10887	0.14139	0.11773	0.083296	0.051459	0.1662	0.367	0.17321	0.093356	0.44472	-2.6896	-2.3083	-2.2833	-2.9271	-2.0042	-2.9583	-2.7958	-2.1771	-2.8021	-2.3646	-2.3729	-2.9979	-2.2729	-2.7917	-2.6875	-2.3021	57.113	112.058	92.370	186.577	171.881	172.735	67.437	81.717	60.712	25.638	-74.534	191.301	219.543	-116.885	-36.274	178.874	0.00071216	0.00052277	0.00016758	707.78	3.7599e-06	4.6145e-06	743.72	266.18	1.8692e-06	6.0774e-06	324.49	140.21	113.8	59.719	5.4772e-06	81.038	0.0012974	0.0016732	0.00046398	767.99	1.6557e-05	1.8077e-05	810.14	290.58	1.6466e-05	1.8638e-05	354.01	154.54	125.66	65.921	1.7698e-05	89.596	169.912	-36.727	-36.943	-120.024	4.405	34.233	-120.742	-114.601	9.063	27.131	-116.033	-111.471	-109.635	-103.985	26.829	-106.375	-8191	255	
2705.003	1	1	0	0	0.3178	0.076102	0.16901	0.14391	0.21094	0.13902	0.14323	0.13646	0.16304	0.03303	0.093853	0.25125	0.27097	0.13739	0.2019	0.29909	-2.5667	-2.3688	-2.175	-3.0917	-2.2396	-2.6917	-2.9354	-2.0979	-2.7417	-2.3979	-2.1771	-2.9458	-2.1167	-2.55	-2.6042	-2.2104	-46.325	113.279	-88.797	150.583	-66.495	162.688	109.174	-67.771	34.819	78.546	15.456	209.024	122.211	-71.994	-106.471	169.515	0.00070362	0.00050893	0.00014473	708.41	3.4996e-06	4.1404e-06	747	266.48	4.2004e-06	3.4823e-06	325.19	140.37	114.45	60.111	4.0321e-06	81.859	0.0012851	0.0016242	0.00045557	767.39	1.6404e-05	1.7908e-05	811.36	291.16	1.6228e-05	1.8576e-05	355.32	155.3	126.07	66.291	1.7401e-05	90.345	171.605	-58.034	-48.509	-120.168	2.042	36.289	-120.835	-114.310	-38.938	12.957	-115.748	-111.124	-109.571	-103.799	-1.011	-106.328	-8191	255	
2705.099	1	1	0	0	0.20528	0.21626	0.12765	0.096897	0.097146	0.14835	0.19866	0.15553	0.21154	0.067969	0.18968	0.17463	0.1343	0.24622	0.19207	0.068311	-2.4125	-2.5812	-2.1875	-2.9917	-2.2771	-2.4917	-2.9625	-2.2729	-2.6979	-2.5417	-2.1458	-3	-2.3604	-2.4917	-2.8937	-2.3063	211.260	188.976	56.114	207.765	38.600	-84.729	130.961	213.639	56.275	-64.057	-110.286	122.761	-50.659	226.582	-105.217	135.309	0.00074548	0.00058406	0.00014827	710.64	4.7867e-06	4.4368e-06	748.74	266.92	2.3389e-06	6.5848e-06	323.76	141.55	114.33	60.018	4.0054e-06	81.712	0.0012902	0.0016261	0.00044694	769.14	1.5984e-05	1.7608e-05	813.97	291.55	1.5935e-05	1.8254e-05	355.36	155.42	126.09	66.214	1.7383e-05	89.969	172.367	-45.146	-47.184	-119.934	0.090	27.502	-120.660	-114.525	-45.598	33.303	-115.818	-111.187	-109.804	-104.081	13.961	-106.690	-8191	255	
2705.196	1	1	0	0	0.12338	0.099554	0.17253	0.21403	0.30471	0.25178	0.39287	0.28914	0.073581	0.25787	0.008737	0.2287	0.070624	0.22821	0.23288	0.089371	-2.4604	-2.6729	-1.8167	-3.0833	-2.2229	-2.25	-3.0062	-2.1792	-2.5083	-2.8667	-1.9375	-2.9167	-2.3	-2.4646	-2.925	-2.3937	223.872	-36.752	127.478	199.755	110.377	22.776	159.818	164.770	-124.242	-19.116	187.738	-94.805	-100.481	151.938	41.820	173.131	0.00070818	0.00046901	0.00014701	708.66	2.4049e-06	4.1341e-06	745	266.05	3.0048e-06	5.6231e-06	325.21	140.14	114.15	59.766	3.3248e-06	81.329	0.0012558	0.0016196	0.00045176	767.7	1.5798e-05	1.8114e-05	810.76	291.15	1.6304e-05	1.8017e-05	354.2	154.38	125.7	65.968	1.7303e-05	89.54	172.322	-32.777	-42.350	-120.014	6.335	17.481	-120.812	-114.584	-27.194	26.156	-115.811	-111.081	-109.706	-104.070	6.840	-106.510	-8191	255	
2705.292	1	1	0	0	0.1018	0.24972	0.11728	0.26545	0.18327	0.20459	0.1414	0.15534	0.16621	0.053636	0.32535	0.13372	0.032796	0.12689	0.23361	0.073772	-2.2542	-2.6854	-2.0708	-2.8958	-2.2604	-1.9937	-3.0667	-2.0812	-2.4604	-2.8229	-1.8667	-2.7625	-2.5021	-2.2333	-2.8771	-2.1979	93.167	203.971	183.140	119.482	51.320	97.355	226.224	220.655	167.544	-45.055	105.594	157.357	-57.682	175.810	-129.677	128.446	0.00068313	0.0005547	0.00013812	706.18	4.4654e-06	6.5025e-06	744.98	265.93	3.3113e-06	4.3448e-06	324.84	140.8	114.93	59.875	4.3026e-06	81.718	0.0012431	0.0015815	0.00044174	765.56	1.579e-05	1.7533e-05	810.87	290.52	1.5815e-05	1.7517e-05	354.62	154.97	126.09	66.046	1.6322e-05	90.141	170.979	-48.243	-49.658	-119.990	2.850	6.152	-120.653	-114.477	1.477	34.277	-115.919	-111.155	-109.635	-103.804	-1.053	-106.309	-8191	255	
2705.388	1	1	0	0	0.2056	0.17142	0.3536	0.16413	0.055446	0.047668	0.21654	0.1539	0.052995	0.13397	0.36678	0.1391	0.19739	0.084941	0.13088	0.3013	-1.8708	-2.7938	-1.9937	-2.8958	-2.4958	-2.0875	-3.0229	-2.3604	-2.2354	-2.8292	-2.1646	-2.5396	-2.7125	-2.075	-2.9583	-2.5125	-75.013	-53.422	-61.000	217.237	-92.555	12.248	139.928	188.609	1.312	143.699	226.405	-127.766	189.414	-67.208	-112.955	185.340	0.00072904	0.00048844	0.00015995	709.64	3.8772e-06	4.5851e-06	748.8	268.6	4.5937e-06	5.685e-06	328.97	143.69	116.5	61.402	3.6445e-06	83.783	0.0012292	0.0015318	0.00042833	767.4	1.501e-05	1.6668e-05	813.22	293.33	1.4977e-05	1.633e-05	358.9	158.14	128.31	67.826	1.5472e-05	92.511	174.041	-44.778	-50.125	-119.861	-1.323	6.775	-120.648	-114.644	-31.752	16.459	-115.586	-111.122	-109.477	-103.824	-25.103	-106.371	-8191	255	
2705.484	1	1	0	0	0.065769	0.29194	0.32228	0.31733	0.15809	0.23027	0.22796	0.14287	0.20645	0.28552	0.26303	0.039528	0.078631	0.23442	0.16558	0.32539	-1.7771	-2.9979	-2.2313	-2.6646	-2.8375	-1.9375	-2.9479	-2.4708	-2.1333	-2.975	-2.1354	-2.6854	-2.825	-1.9937	-2.9729	-2.5812	-111.378	197.321	53.673	161.060	-59.256	72.563	146.362	206.706	35.239	154.448	-115.126	159.991	-128.910	171.863	102.007	114.379	0.00073695	0.00044984	0.00018778	708.25	3.4169e-06	4.6147e-06	746.55	269.54	3.3254e-06	6.2666e-06	328.92	143.09	116.66	61.706	3.9318e-06	83.445	0.0012126	0.001461	0.00041349	766.35	1.4523e-05	1.659e-05	810.82	294.09	1.5126e-05	1.6439e-05	358.77	158.01	128.55	68.026	1.5994e-05	92.118	171.588	-43.274	-40.398	-120.140	0.563	42.208	-120.774	-114.454	8.490	21.663	-116.004	-111.341	-109.677	-104.189	-0.862	-106.717	-8191	255	
2705.603	1	1	0	0	0.08633	0.094625	0.16175	0.24382	0.30629	0.27113	0.15509	0.25705	0.35952	0.11083	0.12668	0.33728	0.070348	0.042199	0.29188	0.26957	-1.7479	-2.7479	-2.1271	-2.4938	-2.8479	-2	-2.9437	-2.5729	-2.0458	-2.8667	-2.2125	-2.4188	-2.8729	-2.1125	-2.8083	-2.7729	155.905	-33.840	-22.881	204.117	167.563	120.191	-124.739	109.671	18.864	24.562	-18.673	155.975	-6.456	145.560	134.402	178.371	0.00072309	0.00060705	0.00013991	704.48	3.9166e-06	5.8309e-06	744.98	268.74	5.073e-06	5.4006e-06	328.13	142.86	116.18	61.254	4.8354e-06	83.213	0.0012143	0.0014722	0.00041839	763.97	1.493e-05	1.6571e-05	809.13	293.68	1.5604e-05	1.7083e-05	357.67	157.41	128.02	67.731	1.6321e-05	91.666	172.055	-51.571	-30.963	-120.094	15.545	32.989	-120.693	-114.403	-33.493	15.368	-115.868	-111.377	-109.867	-104.115	0.355	-106.550	-8191	255	
2705.699	1	1	0	0	0.15233	0.16176	0.20853	0.34626	0.25916	0.012694	0.13087	0.26648	0.12093	0.25457	0.2645	0.31847	0.19304	0.19414	0.12364	0.26526	-1.7229	-2.7792	-2.1979	-2.1875	-3.0792	-2.0979	-2.7083	-2.6813	-1.9479	-2.8979	-2.3812	-2.4479	-2.9604	-2.1354	-2.6125	-2.8604	-73.864	50.364	174.326	162.807	23.298	38.498	85.600	174.153	147.465	117.723	186.465	155.762	-120.319	137.955	-132.531	117.612	0.00071449	0.00038475	0.00014246	709.9	3.1701e-06	5.6916e-06	748.15	269.49	2.874e-06	3.655e-06	329	142.52	115.85	60.739	4.0393e-06	82.638	0.0012343	0.0014965	0.00042199	767.73	1.4681e-05	1.6694e-05	813.84	293.98	1.5607e-05	1.6686e-05	358.42	157.16	127.82	67.284	1.6665e-05	91.476	171.723	-49.592	-47.139	-120.181	-5.699	11.232	-120.689	-114.710	7.156	-18.639	-115.768	-111.116	-109.604	-103.937	16.352	-106.640	-8191	255	
2705.795	1	1	0	0	0.14389	0.11096	0.092514	0.081756	0.28507	0.056453	0.34804	0.45178	0.11777	0.35228	0.1302	0.10393	0.16853	0.22387	0.044126	0.21092	-1.4625	-2.8583	-2.4542	-2.3167	-2.9083	-2.1896	-2.8146	-2.8146	-2.0292	-3.1312	-2.6896	-2.0917	-3.0854	-2.3208	-2.45	-2.8792	190.546	81.581	-51.662	-100.809	88.904	-1.824	-81.422	122.318	219.710	-120.670	9.852	165.194	133.733	-100.744	142.734	-108.446	0.00075008	0.00061675	0.00015542	712.31	3.0185e-06	3.4633e-06	750.2	269.78	4.7289e-06	6.7263e-06	328.46	142.66	115.84	61.109	3.5424e-06	82.757	0.001249	0.0015079	0.00042769	770.29	1.5085e-05	1.7278e-05	815.5	294.57	1.5914e-05	1.7531e-05	358.88	157.29	127.94	67.489	1.722e-05	91.388	173.045	-52.786	-41.482	-120.077	-12.223	4.447	-120.560	-114.568	-20.565	10.739	-115.964	-111.024	-109.641	-104.170	1.719	-106.597	-8191	255	
2705.891	1	1	0	0	0.28071	0.12486	0.14811	0.044878	0.027234	0.26832	0.32318	0.16879	0.2349	0.09451	0.096805	0.016323	0.29165	0.015783	0.12296	0.19175	-1.7042	-2.75	-2.4813	-2.2854	-2.8292	-2.1688	-2.5833	-2.9562	-2.1354	-2.4854	-2.4104	-2.2083	-2.9104	-2.3771	-2.3021	-3.0687	152.834	-3.385	103.856	144.737	-131.520	164.563	167.462	179.542	216.057	32.094	208.957	-88.899	145.360	10.420	53.856	156.690	0.00074335	0.0006099	8.4317e-05	708.81	3.8094e-06	5.5309e-06	747.8	268.86	4.878e-06	5.5245e-06	325.94	142.43	115.65	60.911	3.1471e-06	82.371	0.0012935	0.0016236	0.00044786	767.95	1.5887e-05	1.8424e-05	811.48	293.43	1.6714e-05	1.8088e-05	356.08	156.47	127.66	67.299	1.7627e-05	91.214	174.207	-45.445	-39.580	-119.871	3.069	20.566	-120.726	-114.493	-16.294	31.900	-115.835	-111.050	-109.605	-103.978	-4.280	-106.493	-8191	255	
2705.988	1	1	0	0	0.16537	0.18259	0.30052	0.16692	0.15525	0.061045	0.25486	0.20821	0.1169	0.29403	0.16758	0.17026	0.13718	0.20856	0.061263	0.308	-1.6187	-2.6542	-2.6771	-2.1312	-2.8396	-2.6625	-2.3083	-3.1292	-2.0042	-2.6896	-2.7313	-2.1292	-2.8875	-2.5396	-2.075	-3.0687	4.874	196.584	-47.262	8.027	164.695	220.696	105.938	162.779	61.187	-37.133	43.941	158.803	131.257	-117.866	-57.439	95.636	0.00071068	0.00048208	0.00014203	709.12	3.1362e-06	4.5677e-06	743.52	269.03	2.4201e-06	5.8979e-06	327.53	142.35	115.8	60.861	4.4429e-06	82.948	0.0013038	0.001587	0.00044919	766.92	1.5749e-05	1.8116e-05	809.48	293.26	1.6124e-05	1.8057e-05	357.27	156.96	127.61	67.371	1.722e-05	91.507	173.783	-51.959	-49.095	-120.066	20.516	27.980	-120.785	-114.543	-15.098	26.818	-115.919	-111.148	-109.625	-104.083	-4.492	-106.677	-8191	255	
2706.084	1	1	0	0	0.14885	0.15207	0.046045	0.31493	0.023678	0.11223	0.17466	0.29732	0.20593	0.1215	0.23191	0.1807	0.2076	0.20503	0.054346	0.14058	-1.6417	-2.3625	-2.8208	-2.0729	-2.8375	-2.425	-2.2771	-3.1083	-2.175	-2.7	-2.9521	-2.0667	-2.6896	-2.6688	-2.0875	-2.9813	40.453	-26.782	-2.158	218.568	86.735	1.940	160.139	-100.594	77.951	82.073	89.282	130.868	184.146	102.521	121.019	206.047	0.00072013	0.00055294	0.0001316	704.33	4.4053e-06	7.0551e-06	748.41	269.63	3.5439e-06	4.3879e-06	328.68	143.78	116.87	61.666	3.9062e-06	84.164	0.0012711	0.0015629	0.00042942	764.74	1.507e-05	1.7462e-05	812.08	294.22	1.579e-05	1.7446e-05	358.84	158.44	128.74	68.232	1.6834e-05	92.75	172.998	-56.940	-42.664	-120.060	-16.814	29.850	-120.789	-114.445	-8.415	16.550	-115.742	-111.199	-109.504	-104.035	-5.262	-106.776	-8191	255	
2706.204	1	1	0	0	0.040969	0.4542	0.12967	0.18679	0.20736	0.061867	0.13405	0.16449	0.061735	0.17905	0.27756	0.3544	0.34303	0.22314	0.21444	0.079683	-1.8438	-2.3896	-2.6083	-1.8958	-2.7271	-2.5958	-2.0771	-3.0312	-2.3229	-2.3229	-2.9146	-2.1396	-2.8812	-2.7667	-2.0187	-3.0354	-17.064	56.193	78.907	178.541	136.685	183.022	171.145	120.577	38.590	-5.610	196.303	174.758	205.327	-97.977	-33.944	175.057	0.00071759	0.00045766	0.00012936	710.69	3.433e-06	4.7054e-06	745.03	269.74	4.0386e-06	3.697e-06	327.59	143.7	116.57	61.906	3.8019e-06	83.499	0.0012557	0.0015479	0.00042193	767.53	1.5161e-05	1.6956e-05	811.48	294.79	1.5768e-05	1.7643e-05	358.62	158.23	128.66	68.37	1.707e-05	92.335	171.535	-37.672	-41.788	-120.197	-25.798	17.655	-121.151	-114.579	-29.497	19.865	-115.886	-111.495	-109.890	-104.335	-10.295	-106.776	-8191	255	
2706.299	1	1	0	0	0.12382	0.091415	0.14914	0.29045	0.062069	0.11367	0.12426	0.20599	0.07552	0.11671	0.16899	0.24634	0.29892	0.049474	0.23465	0.076476	-1.9271	-2.1896	-3.0083	-2.0708	-2.55	-2.7604	-2.1667	-3.0521	-2.3729	-2.2167	-3.0479	-2.0333	-2.5792	-2.9396	-1.8958	-2.9729	179.883	186.809	214.684	194.894	-111.426	19.328	48.606	-98.035	-42.925	114.806	141.864	-113.861	209.930	-97.453	5.709	-61.595	0.00074331	0.00047194	0.00014298	705.68	3.6981e-06	5.2416e-06	742.01	268.8	3.9319e-06	5.9305e-06	327.41	143.39	116.39	61.649	4.207e-06	83.547	0.0012673	0.001568	0.00042963	763.81	1.5497e-05	1.7374e-05	807.41	293.82	1.6254e-05	1.7893e-05	357.86	157.93	128.4	68.061	1.7615e-05	92.164	172.681	-43.873	-26.435	-120.131	-10.250	20.432	-120.833	-114.503	-26.480	28.773	-115.902	-111.394	-109.563	-104.462	-25.130	-106.747	-8191	255	
2706.395	1	1	0	0	0.085154	0.14688	0.16605	0.17084	0.14506	0.082298	0.31386	0.22412	0.19585	0.16725	0.070967	0.23292	0.21261	0.21355	0.062072	0.32828	-2.0125	-2.1875	-2.8937	-2.2687	-2.3729	-2.8833	-2.2021	-2.9542	-2.6021	-2.2625	-3.0375	-2.5312	-2.5375	-3.0042	-1.95	-2.8333	12.134	95.165	108.749	225.076	22.468	210.958	151.669	208.062	104.777	-104.847	183.500	152.106	-81.118	217.880	133.743	196.104	0.00072193	0.0006197	0.00012162	703.97	3.5939e-06	5.2068e-06	746.22	267.69	5.0825e-06	7.8015e-06	327.37	143.17	115.99	61.565	4.189e-06	83.325	0.0012864	0.0016096	0.0004367	763.93	1.6058e-05	1.7687e-05	809.82	292.71	1.6569e-05	1.8358e-05	357.55	157.68	128.04	67.914	1.7493e-05	91.982	171.523	-46.155	-21.797	-120.177	-6.802	32.655	-120.858	-114.327	-10.140	38.653	-115.766	-111.240	-109.746	-104.161	-0.532	-106.435	-8191	255	
2706.468	1	1	0	0	0.22107	0.19614	0.11987	0.21351	0.28071	0.251	0.13037	0.24413	0.15772	0.19159	0.097823	0.24401	0.24481	0.010047	0.1054	0.20385	-2.2708	-1.9125	-2.9042	-2.3146	-2.2542	-3.1354	-2.4437	-2.725	-2.6396	-2.0229	-2.9	-2.4125	-2.4083	-2.9375	-2.0667	-2.85	107.240	-52.172	189.701	60.833	198.579	55.456	-117.866	157.825	-25.679	227.310	-100.248	110.344	-124.047	212.095	134.162	-57.663	0.00073602	0.00042606	0.00016396	707.97	3.2354e-06	7.3549e-06	746.34	269.28	3.3291e-06	3.6362e-06	326.7	143.22	116.43	61.365	4.5679e-06	83.262	0.0012865	0.0015939	0.00044157	766.03	1.5881e-05	1.7511e-05	812.61	293.99	1.6101e-05	1.8129e-05	357.93	157.93	128.37	67.808	1.7337e-05	91.782	171.196	-58.664	-37.100	-120.330	7.809	14.608	-121.131	-114.657	-16.685	18.501	-116.095	-111.427	-109.764	-104.501	-7.837	-106.638	-8191	255	
2706.587	1	1	0	0	0.28949	0.16421	0.055469	0.33269	0.097581	0.087839	0.19805	0.23165	0.10814	0.12156	0.21987	0.21336	0.39497	0.26229	0.2674	0.23526	-2.525	-2.1292	-2.9313	-2.575	-2.3792	-2.9875	-2.2708	-2.7	-2.8521	-2.1771	-3.05	-2.7562	-2.2521	-3.1208	-2.2208	-2.6437	-99.974	134.673	159.426	189.145	-122.135	158.495	127.400	121.455	-7.776	-22.515	214.192	107.518	162.677	-122.752	170.874	214.472	0.00074833	0.00047398	0.00014537	706.76	3.4381e-06	4.5144e-06	743.04	267.87	3.6908e-06	5.977e-06	325.06	142.15	115.72	60.8	3.548e-06	82.334	0.001264	0.0016087	0.00043004	766.41	1.5486e-05	1.7217e-05	809.18	292.77	1.5665e-05	1.7675e-05	356.15	156.4	127.43	67.215	1.6625e-05	90.906	173.086	-37.479	-58.405	-120.482	14.521	16.036	-121.106	-114.632	-6.380	24.615	-116.208	-111.699	-109.879	-104.369	4.332	-106.858	-8191	255	
2706.683	1	1	0	0	0.19555	0.18079	0.064286	0.3071	0.14897	0.18339	0.15489	0.246	0.12518	0.28969	0.38237	0.19055	0.16427	0.14585	0.16363	0.061902	-2.4458	-1.9625	-2.6146	-2.8187	-2.0958	-2.8771	-2.3146	-2.5167	-2.95	-1.9542	-2.9104	-2.7	-2.2042	-3.075	-2.3771	-2.3854	-46.193	103.583	-53.837	-44.706	72.895	220.592	132.406	199.698	-41.023	32.518	140.166	214.477	153.955	138.148	-94.081	165.301	0.00072858	0.00060203	0.0001569	706.71	5.1159e-06	7.9707e-06	744.06	268.35	2.7143e-06	4.7649e-06	326	142.22	116.14	61.003	3.6765e-06	82.893	0.0012433	0.0015636	0.00041921	765.91	1.5361e-05	1.661e-05	809.38	292.88	1.543e-05	1.7101e-05	356.42	156.86	127.99	67.521	1.7206e-05	91.567	173.642	-39.384	-63.495	-120.259	6.806	5.661	-121.187	-114.799	-34.291	31.946	-116.018	-111.567	-109.701	-104.254	-19.163	-106.847	-8191	255	
2706.779	1	1	0	0	0.068918	0.12203	0.23429	0.052517	0.1671	0.19276	0.25384	0.30258	0.21069	0.090413	0.13644	0.10706	0.2658	0.011223	0.24119	0.094019	-2.3604	-2.0771	-2.6	-2.7125	-2.0146	-2.8792	-2.3542	-2.2271	-2.9625	-2.0396	-2.6729	-2.8875	-2.4042	-3.1063	-2.4875	-2.4729	15.389	127.968	-45.712	-46.085	-4.542	156.560	177.014	-130.551	28.767	74.794	83.422	155.411	-124.202	53.568	-30.446	-126.498	0.00076112	0.00038272	0.0001308	708.33	4.4415e-06	5.3438e-06	743.19	268.81	4.6376e-06	4.3525e-06	328.08	143.06	116.57	61.744	5.1442e-06	83.811	0.0012233	0.0015857	0.00042472	766.16	1.5678e-05	1.6714e-05	810.8	293.92	1.5355e-05	1.7688e-05	358.38	158.13	128.72	68.198	1.7005e-05	92.505	171.714	-45.441	-41.531	-120.236	27.351	17.224	-121.094	-114.643	-19.512	19.176	-115.859	-111.581	-109.907	-104.308	11.569	-106.724	-8191	255	
2706.876	1	1	0	0	0.16633	0.10054	0.12151	0.30141	0.18265	0.13102	0.3296	0.37344	0.29573	0.37344	0.16357	0.32313	0.16916	0.14456	0.14365	0.30275	-2.6854	-2.1562	-2.4792	-2.7917	-1.9833	-3.0375	-2.6396	-1.9875	-2.9062	-2.2396	-2.4896	-2.9667	-2.0667	-3.2479	-2.6479	-2.3854	-116.150	31.720	-132.485	-81.332	-14.329	-97.980	205.884	152.264	15.194	112.066	183.271	192.309	145.985	-128.013	147.343	180.730	0.00072078	0.00056789	8.9962e-05	710.48	3.8106e-06	5.5539e-06	747.57	269.05	2.9733e-06	5.954e-06	328.49	142.93	116.49	61.894	3.6469e-06	83.436	0.0012401	0.0016108	0.000436	769.13	1.6288e-05	1.6842e-05	812.72	293.83	1.5913e-05	1.816e-05	358.21	157.79	128.62	68.285	1.7542e-05	92.023	173.210	-56.448	-24.869	-120.284	10.758	34.521	-121.093	-114.614	-23.900	24.546	-116.009	-111.291	-109.678	-104.264	7.980	-106.842	-8191	255	
2706.996	1	1	0	0	0.034177	0.29589	0.25106	0.19925	0.17369	0.20043	0.18815	0.23866	0.23239	0.24672	0.28394	0.25485	0.12088	0.17502	0.10621	0.068196	-2.4833	-2.1083	-2.4125	-2.9938	-1.9604	-2.5812	-2.8688	-2.1771	-2.9042	-2.3125	-2.2104	-2.9333	-2.4146	-2.7687	-2.575	-2.2229	108.292	-17.465	-13.447	162.080	-94.235	46.256	44.363	109.271	171.077	102.595	221.118	156.948	-62.891	177.433	-58.263	-10.998	0.00071382	0.00069011	0.00013574	706.99	4.3476e-06	4.1037e-06	741.82	268.51	5.7817e-06	4.342e-06	326.45	142.44	116.16	61.56	5.168e-06	82.991	0.001274	0.001627	0.00044533	766.6	1.6377e-05	1.7743e-05	808.88	293.25	1.6007e-05	1.8213e-05	355.91	157.1	128.01	67.951	1.7369e-05	91.622	172.258	-34.229	-32.000	-120.195	13.556	19.059	-121.091	-114.608	-19.381	11.672	-115.823	-111.219	-109.809	-104.010	12.040	-106.656	-8191	255	
2707.068	1	1	0	0	0.10583	0.15289	0.15189	0.1092	0.1061	0.17449	0.18325	0.13082	0.076429	0.0050909	0.16691	0.034811	0.050447	0.11931	0.024935	0.16203	-2.4688	-2.2521	-2.1813	-2.8021	-2.0583	-2.2938	-2.8271	-2.1646	-3.0021	-2.4	-2.2771	-3.0125	-2.2417	-2.6292	-2.8771	-2.2729	67.546	-88.729	-9.197	133.844	152.252	-16.766	207.821	201.326	41.432	26.352	196.179	159.656	78.949	219.490	157.546	158.842	0.00072776	0.00061732	0.00013022	706.76	4.2158e-06	2.8238e-06	746.76	268.53	4.135e-06	1.9392e-06	326.23	142.77	116.47	61.559	4.3811e-06	82.995	0.0012601	0.0016275	0.00044512	767.24	1.6091e-05	1.7493e-05	810.84	293.2	1.572e-05	1.7582e-05	356.79	157.15	128.14	67.945	1.668e-05	91.85	170.570	-44.986	-60.657	-120.195	11.795	-2.773	-120.982	-114.591	-15.981	40.080	-115.810	-111.250	-109.612	-104.036	-1.804	-106.661	-8191	255	
2707.164	1	1	0	0	0.3023	0.32511	0.21312	0.052393	0.12224	0.20017	0.07089	0.10851	0.25779	0.34743	0.24814	0.44817	0.04182	0.29406	0.12094	0.22316	-2.3583	-2.4188	-2.1875	-2.9917	-2.2771	-2.3333	-3.0125	-2.1562	-2.7625	-2.5312	-2.2917	-2.9333	-2.3625	-2.5458	-2.9229	-2.0167	150.221	-76.912	-66.621	-101.944	-97.820	160.771	122.456	99.564	38.019	-3.272	190.921	201.253	200.713	146.158	217.547	-82.936	0.00072587	0.00068701	0.0001982	709.57	4.1122e-06	4.8049e-06	751.67	268.43	4.1118e-06	4.1636e-06	327.83	143.43	117.1	61.781	3.4009e-06	83.349	0.0012378	0.0015568	0.00043454	768.85	1.5566e-05	1.7763e-05	814.11	294.13	1.5603e-05	1.7191e-05	358.28	158.33	128.8	68.311	1.6618e-05	92.244	172.952	-43.924	-38.429	-120.273	-1.296	12.941	-120.894	-114.578	-8.172	17.531	-115.695	-111.216	-109.653	-103.931	20.846	-106.623	-8191	255	
2707.285	1	1	0	0	0.20695	0.12731	0.040249	0.1444	0.21188	0.37751	0.12389	0.22646	0.21595	0.15944	0.27939	0.21799	0.18045	0.20479	0.095546	0.35567	-2.2	-2.6208	-2.0521	-2.95	-2.2812	-2.4521	-3.0729	-2.0083	-2.525	-2.7583	-2.0563	-2.7313	-2.5292	-2.3146	-2.8854	-2.2938	-83.029	223.594	126.152	-121.746	58.993	-110.622	102.427	160.314	-33.628	-20.977	190.345	-111.640	143.005	-21.722	161.999	181.494	0.00073198	0.00057221	9.5933e-05	710.31	4.527e-06	6.2268e-06	747.03	268.68	3.9122e-06	4.7557e-06	326.51	142.87	116.68	61.853	5.3295e-06	83.49	0.0012491	0.0015386	0.00044373	769.63	1.5535e-05	1.7715e-05	812.56	294.1	1.5845e-05	1.738e-05	357.24	157.52	128.74	68.285	1.6448e-05	92.113	172.401	-43.372	-40.066	-120.146	6.569	23.672	-120.999	-114.580	9.992	59.104	-115.882	-111.286	-109.716	-104.108	11.505	-106.580	-8191	255	
2707.381	1	1	0	0	0.11641	0.071154	0.26087	0.11115	0.089121	0.33919	0.26034	0.1615	0.15379	0.20007	0.081907	0.25222	0.24253	0.20183	0.053783	0.039895	-2.1458	-2.7042	-1.9979	-2.8958	-2.5062	-2.1958	-2.8583	-2.3438	-2.5333	-2.7375	-2.0208	-2.8833	-2.5229	-2.0938	-2.9458	-2.4688	143.815	-106.952	146.397	206.384	-125.112	219.122	140.217	102.460	184.828	225.137	-110.930	-127.051	-102.907	183.875	27.000	112.472	0.00077373	0.00050472	0.00015777	709	2.3293e-06	4.0833e-06	747.81	270.28	2.3041e-06	3.9064e-06	327.96	144.08	117.18	62.385	3.2796e-06	84.348	0.0012575	0.0015327	0.00044103	768.76	1.5507e-05	1.7675e-05	812.06	294.97	1.61e-05	1.7267e-05	358.19	158.47	129.43	68.884	1.6261e-05	93.085	172.068	-22.949	-42.400	-119.949	1.513	25.481	-120.892	-114.583	-10.455	31.409	-115.908	-111.255	-109.704	-104.169	10.318	-106.639	-8191	255	
2707.477	1	1	0	0	0.45382	0.13516	0.03276	0.090455	0.13041	0.35049	0.14978	0.22999	0.47095	0.13534	0.19647	0.031576	0.18317	0.085847	0.16761	0.28715	-2.0979	-2.6604	-2.1292	-2.7562	-2.6396	-2.0708	-3.0979	-2.225	-2.2812	-3.0187	-2.0563	-2.7896	-2.8438	-2.2125	-2.6792	-2.3167	-22.101	68.854	-95.985	95.770	194.742	97.016	25.196	101.202	34.561	77.936	-119.670	-73.069	-20.529	-121.865	61.851	45.888	0.00073195	0.00059602	0.00018032	709.94	3.5564e-06	5.1859e-06	748.81	271.95	4.6434e-06	4.9765e-06	329.69	144.96	117.82	63.097	5.6212e-06	85.244	0.0012702	0.0015086	0.00043023	768.08	1.4855e-05	1.7556e-05	813.04	296.28	1.5838e-05	1.6833e-05	360.18	159.65	130.08	69.53	1.6123e-05	94.045	171.729	-53.412	-47.769	-119.968	-1.843	1.104	-120.681	-114.392	-9.245	19.835	-115.877	-110.894	-109.549	-103.880	-14.873	-106.525	-8191	255	
2707.596	1	1	0	0	0.21074	0.088528	0.2108	0.13704	0.066497	0.20719	0.16108	0.14953	0.11795	0.06761	0.12549	0.2001	0.19009	0.23227	0.17762	0.31005	-1.8479	-2.775	-1.9646	-2.5042	-2.7687	-2.0229	-2.9208	-2.4333	-2.3479	-3.0083	-2.225	-2.6729	-2.7604	-2.1958	-2.9021	-2.4479	201.959	121.295	86.699	-93.614	77.774	169.896	-128.238	191.833	196.440	-62.030	-117.412	-121.903	208.783	-108.255	215.956	166.966	0.00075042	0.00044701	0.00013146	710.15	3.9964e-06	6.0677e-06	745.68	271.42	4.5296e-06	4.244e-06	328.05	145.01	117.96	62.983	3.6897e-06	84.715	0.0012631	0.0014951	0.00043123	767.57	1.499e-05	1.7519e-05	812.03	296.09	1.5983e-05	1.6852e-05	359.56	159.7	130.28	69.546	1.6359e-05	93.579	170.071	-23.791	-28.918	-120.052	8.074	15.772	-120.672	-114.437	-25.329	30.561	-115.758	-111.180	-109.733	-104.083	-13.501	-106.713	-8191	255	
#DATA ENDS
