BOXY.EXE: ISS Imagent and Oximeter Data Acquisition Program Version 0.80
Ascii Record File

#ACQ INFORMATION
2  Detector Channels 
16  External MUX Channels 
1  Auxiliary Channels 
5000  Waveform (CCF) Frequency (Hz)
1  Waveforms Skipped 
30  Waveforms Averaged 
1  Cycles Averaged 
16  Acquisitions per Waveform 
10.0806  Updata Rate (Hz) 

#FILE INFORMATION
TRUE -- External MUX Channel results are PARSED.
FALSE -- AC DC and Phase are NOT grouped.
TRUE -- Companion Program Settings File CREATED.
FALSE -- AC data not excluded
FALSE -- DC data not excluded
FALSE -- Phase data not excluded
FALSE -- Auxillary Chn. data not excluded
Tab delimiters

#CALIBRATION STATE
TRUE -- Waveform Calibration Values APPLIED.


#AUX CALIBRATION VALUES
Val Type	aux-1	

Term	1.0000e+00	
Factor	0.0000e+00	


#WF CALIBRATION VALUES
A = Detector Channel
Val Type	A-AC1	A-AC2	A-AC3	A-AC4	A-AC5	A-AC6	A-AC7	A-AC8	A-AC9	A-AC10	A-AC11	A-AC12	A-AC13	A-AC14	A-AC15	A-AC16	A-DC1	A-DC2	A-DC3	A-DC4	A-DC5	A-DC6	A-DC7	A-DC8	A-DC9	A-DC10	A-DC11	A-DC12	A-DC13	A-DC14	A-DC15	A-DC16	A-Ph1	A-Ph2	A-Ph3	A-Ph4	A-Ph5	A-Ph6	A-Ph7	A-Ph8	A-Ph9	A-Ph10	A-Ph11	A-Ph12	A-Ph13	A-Ph14	A-Ph15	A-Ph16	

Term	0.00000e+00	0.00000e+00	0.00000e+00	0.00000e+00	0.00000e+00	0.00000e+00	0.00000e+00	0.00000e+00	0.00000e+00	0.00000e+00	0.00000e+00	0.00000e+00	0.00000e+00	0.00000e+00	0.00000e+00	0.00000e+00	0.00000e+00	0.00000e+00	0.00000e+00	0.00000e+00	0.00000e+00	0.00000e+00	0.00000e+00	0.00000e+00	0.00000e+00	0.00000e+00	0.00000e+00	0.00000e+00	0.00000e+00	0.00000e+00	0.00000e+00	0.00000e+00	0.00000e+00	0.00000e+00	0.00000e+00	0.00000e+00	0.00000e+00	0.00000e+00	0.00000e+00	0.00000e+00	0.00000e+00	0.00000e+00	0.00000e+00	0.00000e+00	0.00000e+00	0.00000e+00	0.00000e+00	0.00000e+00	
Factor	1.00000e+00	1.00000e+00	1.00000e+00	1.00000e+00	1.00000e+00	1.00000e+00	1.00000e+00	1.00000e+00	1.00000e+00	1.00000e+00	1.00000e+00	1.00000e+00	1.00000e+00	1.00000e+00	1.00000e+00	1.00000e+00	1.00000e+00	1.00000e+00	1.00000e+00	1.00000e+00	1.00000e+00	1.00000e+00	1.00000e+00	1.00000e+00	1.00000e+00	1.00000e+00	1.00000e+00	1.00000e+00	1.00000e+00	1.00000e+00	1.00000e+00	1.00000e+00	X	X	X	X	X	X	X	X	X	X	X	X	X	X	X	X	

B = Detector Channel
Val Type	B-AC1	B-AC2	B-AC3	B-AC4	B-AC5	B-AC6	B-AC7	B-AC8	B-AC9	B-AC10	B-AC11	B-AC12	B-AC13	B-AC14	B-AC15	B-AC16	B-DC1	B-DC2	B-DC3	B-DC4	B-DC5	B-DC6	B-DC7	B-DC8	B-DC9	B-DC10	B-DC11	B-DC12	B-DC13	B-DC14	B-DC15	B-DC16	B-Ph1	B-Ph2	B-Ph3	B-Ph4	B-Ph5	B-Ph6	B-Ph7	B-Ph8	B-Ph9	B-Ph10	B-Ph11	B-Ph12	B-Ph13	B-Ph14	B-Ph15	B-Ph16	

Term	0.00000e+00	0.00000e+00	0.00000e+00	0.00000e+00	0.00000e+00	0.00000e+00	0.00000e+00	0.00000e+00	0.00000e+00	0.00000e+00	0.00000e+00	0.00000e+00	0.00000e+00	0.00000e+00	0.00000e+00	0.00000e+00	0.00000e+00	0.00000e+00	0.00000e+00	0.00000e+00	0.00000e+00	0.00000e+00	0.00000e+00	0.00000e+00	0.00000e+00	0.00000e+00	0.00000e+00	0.00000e+00	0.00000e+00	0.00000e+00	0.00000e+00	0.00000e+00	-1.55424e+02	-1.27235e+02	-1.24166e+02	-1.80391e+02	-7.40752e+01	-6.35377e+01	-1.56642e+02	-1.62015e+02	-7.80018e+01	-6.24457e+01	-1.75242e+02	-1.71364e+02	-1.79620e+02	-1.76316e+02	-7.26602e+01	-1.49562e+02	
Factor	2.32168e-05	1.44619e-04	3.90176e-05	1.53962e-01	1.28637e-06	1.68364e-06	1.74380e-01	5.13261e-02	1.26631e-06	1.62331e-06	9.43026e-02	3.18907e-02	2.43581e-02	9.34159e-03	1.41395e-06	1.29416e-02	1.42752e-05	2.56240e-05	7.09592e-06	7.92124e-02	2.49870e-07	2.88134e-07	8.45014e-02	2.65240e-02	2.52790e-07	2.91573e-07	4.71960e-02	1.60623e-02	1.27823e-02	4.86681e-03	2.69113e-07	6.54773e-03	X	X	X	X	X	X	X	X	X	X	X	X	X	X	X	X	



#DISTANCE SETTINGS
A = Detector Channel
A-1	A-2	A-3	A-4	A-5	A-6	A-7	A-8	A-9	A-10	A-11	A-12	A-13	A-14	A-15	A-16	

2.5000e+00	3.0000e+00	2.5000e+00	3.0000e+00	2.0000e+00	3.0000e+00	1.5000e+00	3.0000e+00	3.0000e+00	3.0000e+00	3.0000e+00	3.0000e+00	3.0000e+00	3.0000e+00	1.5000e+00	3.0000e+00	

B = Detector Channel
B-1	B-2	B-3	B-4	B-5	B-6	B-7	B-8	B-9	B-10	B-11	B-12	B-13	B-14	B-15	B-16	

1.0000e+01	1.0000e+01	1.0000e+01	1.4400e+00	1.0000e+01	1.0000e+01	1.5100e+00	1.9400e+00	1.0000e+01	1.0000e+01	1.9900e+00	2.4900e+00	2.4100e+00	2.9000e+00	1.0000e+01	2.9800e+00	




#DATA BEGINS
time	group	step	mark	flag	A-AC1	A-AC2	A-AC3	A-AC4	A-AC5	A-AC6	A-AC7	A-AC8	A-AC9	A-AC10	A-AC11	A-AC12	A-AC13	A-AC14	A-AC15	A-AC16	A-DC1	A-DC2	A-DC3	A-DC4	A-DC5	A-DC6	A-DC7	A-DC8	A-DC9	A-DC10	A-DC11	A-DC12	A-DC13	A-DC14	A-DC15	A-DC16	A-Ph1	A-Ph2	A-Ph3	A-Ph4	A-Ph5	A-Ph6	A-Ph7	A-Ph8	A-Ph9	A-Ph10	A-Ph11	A-Ph12	A-Ph13	A-Ph14	A-Ph15	A-Ph16	B-AC1	B-AC2	B-AC3	B-AC4	B-AC5	B-AC6	B-AC7	B-AC8	B-AC9	B-AC10	B-AC11	B-AC12	B-AC13	B-AC14	B-AC15	B-AC16	B-DC1	B-DC2	B-DC3	B-DC4	B-DC5	B-DC6	B-DC7	B-DC8	B-DC9	B-DC10	B-DC11	B-DC12	B-DC13	B-DC14	B-DC15	B-DC16	B-Ph1	B-Ph2	B-Ph3	B-Ph4	B-Ph5	B-Ph6	B-Ph7	B-Ph8	B-Ph9	B-Ph10	B-Ph11	B-Ph12	B-Ph13	B-Ph14	B-Ph15	B-Ph16	aux-1	digaux	

2905.244	1	1	0	256	0.25131	0.076182	0.329	0.18977	0.12082	0.11338	0.047935	0.14778	0.022661	0.033816	0.2063	0.1618	0.12304	0.28823	0.17592	0.13697	-1.7708	-3.0542	-2.1333	-2.9542	-2.9646	-2.0146	-3.0312	-2.6125	-2.0771	-2.9542	-2.2771	-2.55	-2.9875	-2.1792	-2.8979	-2.7854	502.770	172.227	322.069	272.938	291.715	463.554	267.126	173.893	483.364	188.977	171.108	180.200	479.905	159.482	216.495	307.613	0.00075766	0.00044728	0.00010445	467.61	3.1208e-06	4.2628e-06	620.1	167.46	3.1342e-06	2.965e-06	260.89	114.79	71.726	32.215	2.9433e-06	54.413	0.00069672	0.0006075	0.00017033	515.19	6.2988e-06	7.0821e-06	682.95	184.76	6.6257e-06	6.6576e-06	288.51	127.85	79.212	36.102	6.7654e-06	61.074	164.444	229.198	232.156	162.172	284.146	291.363	162.030	166.962	268.174	315.196	166.032	169.405	170.986	175.991	287.422	173.609	-8191	255	
2905.365	1	1	0	0	0.1244	0.19215	0.044325	0.090091	0.10885	0.059585	0.18614	0.077048	0.28833	0.13365	0.17147	0.17216	0.13527	0.19624	0.20772	0.32331	-1.7167	-2.8625	-2.3438	-2.4375	-3.0229	-2.1188	-2.9875	-2.8063	-2.1083	-3.0563	-2.5396	-2.3604	-3.0563	-2.2458	-2.5708	-2.8271	473.227	226.139	445.790	190.911	312.483	179.568	186.142	223.169	376.429	269.513	508.868	457.899	453.960	476.625	504.940	416.259	0.0007702	0.00026405	9.0507e-05	470.1	3.406e-06	4.4469e-06	621.26	167.63	3.536e-06	3.2033e-06	259.86	114.47	71.461	32.278	4.0747e-06	54.344	0.0007046	0.00061231	0.00017211	519.64	6.3379e-06	6.9782e-06	685.15	185.1	6.5546e-06	6.8374e-06	287.69	127.45	79.235	36.116	6.7542e-06	60.9	162.465	238.573	246.508	162.639	269.673	309.099	161.867	166.861	273.171	319.786	165.868	169.539	170.856	175.953	284.750	173.545	-8191	255	
2905.459	1	1	0	0	0.16034	0.17836	0.19809	0.1436	0.24566	0.34185	0.15012	0.20536	0.060503	0.24173	0.10043	0.2103	0.21304	0.18023	0.29124	0.17372	-1.6771	-2.8812	-2.3333	-2.1562	-3.1021	-2.2625	-2.5979	-2.8792	-2.3271	-3.1208	-2.575	-2.3333	-3.1583	-2.3354	-2.4458	-3.1833	467.591	416.748	231.698	319.961	263.572	429.111	457.836	371.661	167.324	159.640	166.405	461.681	280.366	334.078	483.680	446.715	0.0007963	0.00034892	9.6998e-05	471.38	3.2834e-06	4.8542e-06	620.77	167.58	2.7735e-06	3.3955e-06	259.89	115.26	71.549	32.294	4.0953e-06	54.41	0.00071082	0.00060409	0.00017279	519.39	6.0193e-06	6.8804e-06	684.87	184.93	6.463e-06	6.838e-06	288.08	127.86	79.433	36.198	6.877e-06	61.117	161.951	230.802	237.726	162.431	272.699	302.725	161.794	166.871	266.815	305.807	166.109	169.669	170.953	175.893	284.685	173.794	-8191	255	
2905.532	1	1	0	0	0.31592	0.10918	0.087849	0.14864	0.32606	0.14875	0.20204	0.10882	0.11429	0.073352	0.22613	0.020928	0.14392	0.20694	0.12638	0.10652	-1.7687	-2.8521	-2.65	-2.1167	-2.8646	-2.1896	-2.5104	-3.2146	-1.8937	-2.8042	-2.7062	-2.25	-2.9375	-2.3875	-2.2729	-3.0979	339.013	493.052	282.479	170.198	334.894	413.196	208.240	371.767	187.560	278.959	427.079	170.086	168.630	156.102	441.299	490.350	0.00078321	0.00031603	0.00011492	474.88	3.7684e-06	4.2839e-06	626.84	169.03	4.716e-06	2.866e-06	262.81	116.83	72.807	32.79	2.9135e-06	55.502	0.00068732	0.00060836	0.00017314	523.8	6.2088e-06	6.92e-06	692.18	186.44	6.5631e-06	6.8981e-06	291.21	129.71	80.756	36.807	6.9857e-06	62.164	162.286	239.253	257.472	162.540	277.762	306.357	161.775	167.012	270.170	303.421	166.148	169.611	170.980	175.942	274.874	173.685	-8191	255	
2905.651	1	1	0	0	0.10314	0.10241	0.16207	0.038516	0.098293	0.21588	0.11872	0.24645	0.13965	0.10692	0.25865	0.28878	0.31486	0.053644	0.079699	0.32964	-1.8125	-2.8438	-2.8604	-1.8792	-3.0271	-2.5458	-2.3896	-2.9146	-2.3271	-2.7708	-2.8792	-2.1896	-3.125	-2.4146	-2.3958	-2.9958	229.024	239.244	309.788	312.977	482.972	482.663	213.446	479.089	480.588	177.654	470.538	397.296	341.052	277.905	450.086	178.853	0.00079506	0.00035643	9.6127e-05	480.68	4.0802e-06	3.7979e-06	632.71	169.71	3.8155e-06	4.0892e-06	264.58	117.42	73.307	33.012	3.917e-06	55.692	0.00071959	0.00061498	0.00017119	530.47	6.2478e-06	6.9272e-06	697.95	187.78	6.6131e-06	7.0792e-06	293.1	130.64	81.144	37.023	7.0132e-06	62.393	162.406	224.200	250.412	162.475	279.106	292.448	161.660	166.732	268.453	316.968	165.745	169.515	170.876	175.860	291.264	173.515	-8191	255	
2905.748	1	1	0	0	0.079358	0.14061	0.11026	0.16165	0.23586	0.20819	0.080443	0.082899	0.22101	0.22213	0.11061	0.090888	0.26154	0.2778	0.066499	0.14159	-1.6812	-2.5542	-2.8729	-2.1167	-2.775	-2.4792	-2.3354	-3.0854	-2.3187	-2.5667	-2.9375	-2.0625	-2.9417	-2.7188	-1.9604	-3.2375	424.038	216.160	252.644	444.465	401.729	347.089	277.115	474.528	164.247	375.022	481.230	275.427	465.171	321.562	191.029	200.944	0.00080561	0.00040071	9.5963e-05	483.13	3.8775e-06	3.6694e-06	631.4	169.3	3.5765e-06	3.9254e-06	263.06	117.22	72.784	32.744	4.2503e-06	55.046	0.00069654	0.00063211	0.0001708	531.5	6.2665e-06	6.7513e-06	696.26	187.3	6.3693e-06	7.0652e-06	291.49	129.99	80.584	36.715	6.9465e-06	61.822	163.528	247.220	225.341	162.401	287.131	314.443	161.709	166.877	268.755	297.626	165.961	169.369	170.963	175.706	283.758	173.656	-8191	255	
2905.844	1	1	0	0	0.33014	0.30145	0.079248	0.034056	0.041735	0.28328	0.12587	0.088769	0.15499	0.19412	0.08072	0.18325	0.098207	0.15567	0.044206	0.15385	-2.0104	-2.1667	-2.9667	-1.9375	-2.6875	-2.7771	-2.1979	-3.0292	-2.3292	-2.3167	-3.075	-2.1146	-2.6417	-2.9646	-2.0854	-3.0625	436.692	270.185	300.814	453.673	403.872	296.271	336.974	224.506	255.046	217.991	200.292	315.742	355.253	174.645	442.863	262.935	0.00078597	0.00043288	9.0851e-05	479.52	2.1439e-06	3.4712e-06	625.67	169.08	3.8177e-06	4.0634e-06	262.98	116.97	72.97	32.898	3.8371e-06	55.628	0.00068842	0.00064257	0.00016186	527.78	6.3014e-06	6.7657e-06	692.31	186.73	6.4804e-06	7.0755e-06	291.72	130.05	80.78	36.916	7.1052e-06	62.392	162.050	241.516	250.810	162.578	281.508	308.692	161.801	166.952	284.009	314.391	166.049	169.363	171.373	175.809	278.261	173.834	-8191	255	
2905.940	1	1	0	0	0.12538	0.034769	0.16325	0.39396	0.072721	0.1636	0.26672	0.43614	0.11921	0.14556	0.34703	0.263	0.10069	0.19493	0.28332	0.26919	-1.925	-2.1104	-2.975	-2.1104	-2.6604	-2.8521	-2.2042	-3.0125	-2.6562	-2.2875	-3.1125	-2.3063	-2.6167	-2.9625	-2.1854	-2.8438	158.829	254.213	495.548	154.143	157.110	401.199	443.306	169.496	313.375	293.507	415.097	478.000	222.265	154.280	437.891	432.450	0.00081632	0.00027859	7.5866e-05	485.33	3.1762e-06	3.5381e-06	633.65	169.85	3.2865e-06	4.3596e-06	264.78	118.21	73.188	33.266	4.221e-06	56.118	0.00070469	0.00063499	0.00016943	535.37	6.2697e-06	6.872e-06	700.29	187.88	6.5325e-06	7.0962e-06	293.29	131.05	81.232	37.167	7.0412e-06	62.868	162.814	248.505	259.612	162.432	287.239	290.986	161.519	166.958	288.069	292.685	165.794	169.431	170.897	175.884	275.594	173.572	-8191	255	
2906.036	1	1	0	0	0.15075	0.19713	0.095916	0.13568	0.12792	0.29417	0.28603	0.1723	0.31466	0.16896	0.075414	0.083829	0.29546	0.16224	0.1594	0.26732	-2.2792	-2.225	-3.1229	-2.1646	-2.3833	-3.0167	-2.1104	-2.7979	-2.5958	-2.1854	-3.0625	-2.4417	-2.6583	-3.05	-1.8917	-2.9437	234.282	396.194	392.155	476.519	232.707	313.144	450.677	252.358	437.498	226.100	162.937	467.581	153.612	474.166	279.472	428.671	0.00078946	0.00043995	0.00011079	493.73	4.243e-06	3.801e-06	648.76	172.35	4.1564e-06	4.7461e-06	270.84	122.56	75.703	34.367	4.4777e-06	57.191	0.00070984	0.00065555	0.00017567	546.37	6.5815e-06	6.8894e-06	717.66	191.25	6.6115e-06	7.4181e-06	300.09	135.71	84.128	38.437	7.0895e-06	64.384	162.689	240.279	233.218	162.167	285.982	300.694	161.528	166.708	278.443	303.786	165.849	169.419	170.961	175.875	297.864	173.657	-8191	255	
2906.132	1	1	0	0	0.18669	0.21043	0.22039	0.094819	0.15542	0.22406	0.15926	0.1899	0.13872	0.068174	0.25701	0.25691	0.17127	0.33021	0.082087	0.058777	-2.3854	-2.0438	-2.9792	-2.3896	-2.4333	-3.175	-2.1458	-2.8292	-2.6188	-2.1146	-3.025	-2.2375	-2.2292	-3.0938	-2.2708	-2.8021	476.723	289.868	276.206	456.706	218.170	176.870	504.433	212.338	292.768	290.851	253.250	172.791	468.113	331.566	362.538	214.960	0.00082326	0.00036222	0.00011707	499.15	3.612e-06	4.9426e-06	645.58	173.45	4.2297e-06	3.0253e-06	268.07	120.51	74.828	33.576	5.5236e-06	56.277	0.00072726	0.00065667	0.00017274	551.64	6.5919e-06	6.9002e-06	712.51	191.83	6.581e-06	7.2577e-06	297.36	133.64	82.958	37.613	7.0693e-06	63.245	162.196	250.427	241.135	162.082	284.710	297.191	161.415	166.950	274.451	317.876	165.542	169.010	170.782	175.553	283.842	173.253	-8191	255	
2906.228	1	1	0	0	0.23506	0.1471	0.051782	0.022396	0.2036	0.10086	0.10024	0.18756	0.17805	0.17695	0.25706	0.17716	0.23567	0.20646	0.21785	0.13076	-2.4792	-2.2167	-2.8771	-2.4562	-2.1104	-3.0271	-2.3354	-2.7146	-3.0542	-2.0021	-2.8958	-2.6625	-2.2875	-3.1167	-2.275	-2.5563	319.178	372.315	224.556	277.039	431.506	374.711	274.502	331.774	434.045	352.450	412.164	305.238	456.795	430.888	447.756	434.691	0.00083136	0.00045632	0.00011451	492.04	3.5194e-06	3.5747e-06	634.68	172.31	3.8941e-06	3.1632e-06	265.57	117.84	73.04	32.84	3.3672e-06	55.182	0.00071492	0.00065128	0.00017277	541.7	6.3493e-06	6.6361e-06	700.6	190.08	6.4946e-06	7.2152e-06	294.39	130.89	81.197	36.73	6.757e-06	61.82	162.310	249.506	243.896	162.159	298.526	303.517	161.305	166.928	275.352	288.163	165.609	168.957	170.912	175.777	283.361	173.754	-8191	255	
2906.324	1	1	0	0	0.0919	0.18479	0.18099	0.18953	0.22515	0.26616	0.18413	0.15073	0.23395	0.2762	0.31632	0.12401	0.16894	0.19483	0.10767	0.30699	-2.6333	-2.0542	-2.7542	-2.8333	-2.1792	-2.925	-2.4521	-2.4354	-2.9646	-1.9667	-2.7083	-2.8917	-2.2229	-3.0083	-2.4458	-2.5104	424.532	396.903	229.320	251.742	343.491	419.350	424.145	297.275	354.491	278.514	155.120	336.303	162.118	371.555	262.401	437.792	0.00080331	0.0004052	0.00010268	476.89	3.8229e-06	3.8976e-06	626.04	169.37	4.8e-06	2.7921e-06	260.34	115.48	71.832	32.294	3.7381e-06	54.58	0.00070445	0.00062672	0.00016727	525.94	6.3576e-06	6.7381e-06	688.77	186.87	6.4283e-06	7.0433e-06	289.96	128.58	79.798	36.202	6.9398e-06	61.144	163.638	241.433	231.450	162.532	293.332	305.193	161.958	167.108	278.281	318.830	166.036	169.421	170.863	175.406	276.108	173.352	-8191	255	
2906.445	1	1	0	0	0.1944	0.19886	0.075503	0.13204	0.32827	0.14922	0.31675	0.23572	0.10028	0.20943	0.12769	0.16609	0.15595	0.23329	0.098052	0.14521	-2.8125	-1.9104	-2.8333	-2.825	-2.1104	-2.9313	-2.6063	-2.3729	-3.1458	-2.0604	-2.8604	-2.8104	-2.3625	-2.9	-2.5021	-2.2125	384.469	427.606	282.492	224.773	342.301	388.815	181.924	402.581	437.999	151.570	304.698	399.282	453.445	179.514	402.534	168.056	0.00078076	0.00037594	8.7396e-05	477.43	2.8272e-06	4.2349e-06	622.28	167.35	3.0046e-06	3.4336e-06	261.03	115.5	71.934	32.31	3.9378e-06	54.619	0.00069969	0.00061738	0.00017236	525.55	6.4165e-06	6.857e-06	687.5	184.97	6.4483e-06	7.064e-06	288.73	128.13	79.589	36.21	6.8803e-06	61.307	163.332	242.302	239.423	162.328	269.663	314.256	161.469	166.778	291.902	303.356	166.020	169.395	170.943	175.928	276.405	173.617	-8191	255	
2906.539	1	1	0	0	0.22549	0.21595	0.16634	0.02364	0.1746	0.15318	0.36871	0.17835	0.25806	0.11246	0.11641	0.056246	0.20119	0.030366	0.2119	0.35167	-2.7313	-2.1583	-2.5354	-3.1896	-2.2	-2.8729	-2.8604	-2.3125	-3.025	-2.2667	-2.7396	-2.8521	-2.0896	-2.9083	-2.6542	-2.0833	274.999	228.982	218.406	456.237	410.901	433.842	161.656	478.375	220.059	441.759	426.523	154.901	324.126	341.708	227.570	482.478	0.0007962	0.00036365	0.00010191	482.85	2.9903e-06	3.4438e-06	627.25	168.42	3.3932e-06	3.6901e-06	261.78	116.55	72.475	32.687	4.1551e-06	55.019	0.00070163	0.00063216	0.00017837	531.75	6.6096e-06	7.0083e-06	693.31	186.47	6.6426e-06	7.2456e-06	290.78	129.48	80.222	36.541	7.279e-06	61.713	162.772	233.125	245.086	162.130	284.690	297.120	161.588	166.853	263.901	298.525	165.940	169.334	170.872	175.755	284.745	173.662	-8191	255	
2906.637	1	1	0	0	0.15659	0.10747	0.048777	0.18247	0.091888	0.14434	0.21536	0.30252	0.2354	0.28496	0.30336	0.13929	0.070365	0.12943	0.28263	0.20773	-2.7354	-2.4188	-2.425	-3.0458	-2.1771	-2.8208	-2.8708	-2.1917	-2.9417	-2.4354	-2.4042	-3.0812	-2.2625	-2.8312	-2.9771	-2.1458	341.734	460.637	383.439	467.158	459.782	477.023	459.893	287.175	440.427	469.580	461.707	489.937	187.838	156.482	199.774	151.849	0.00082605	0.00042514	8.2558e-05	484.84	2.2884e-06	4.0211e-06	630.37	168.42	3.2736e-06	3.9209e-06	260.64	116.8	71.955	32.733	3.1901e-06	55.613	0.00073871	0.00068379	0.00019452	532.99	7.151e-06	7.6878e-06	695.9	185.7	7.1645e-06	7.85e-06	290.35	129.62	80.013	36.656	7.5722e-06	62.318	163.218	239.354	274.288	162.190	278.010	285.810	161.326	166.678	279.390	296.146	165.291	169.209	170.705	175.602	280.463	173.368	-8191	255	
2906.756	1	1	0	0	0.039848	0.38938	0.091226	0.055119	0.14738	0.11536	0.040035	0.1307	0.15355	0.042873	0.16224	0.23596	0.13596	0.070244	0.18539	0.26939	-2.6854	-2.3396	-2.2521	-3.2771	-2.1042	-2.7229	-3.075	-2.1854	-2.8792	-2.7042	-2.2521	-3.1604	-2.3917	-2.4979	-2.8104	-2.1417	477.969	501.368	257.619	471.222	177.911	350.972	460.401	367.992	448.498	230.863	422.650	425.108	183.037	327.762	386.893	419.813	0.00080463	0.00034735	0.00010246	485.74	2.3664e-06	3.0721e-06	631.49	169.24	3.2983e-06	3.4725e-06	261.69	116.19	72.18	32.622	4.2691e-06	55.131	0.00073776	0.0006801	0.00018988	535.38	6.7111e-06	7.3012e-06	696.36	186.62	6.6937e-06	7.3896e-06	290.69	129.37	80.028	36.542	7.0614e-06	62.074	163.476	259.630	229.670	161.905	276.807	307.284	161.261	166.811	279.177	281.924	165.592	169.366	170.448	175.475	285.999	173.194	-8191	255	
2906.828	1	1	0	0	0.15493	0.24449	0.143	0.24622	0.18293	0.13354	0.075797	0.055715	0.24952	0.056045	0.096815	0.16966	0.023055	0.091298	0.45975	0.074661	-2.5354	-2.7229	-2.2542	-3.0333	-2.3083	-2.4375	-2.8063	-2.1396	-2.7188	-2.625	-2.275	-2.9667	-2.3479	-2.4458	-3.1063	-2.2896	484.471	412.757	276.972	467.088	507.803	305.045	446.542	391.870	276.465	405.667	470.084	179.310	202.372	363.636	357.746	298.287	0.00077839	0.00036643	8.884e-05	482.61	2.9239e-06	3.9659e-06	629.05	168.93	4.3462e-06	4.2595e-06	262.96	117.98	72.857	33.238	3.4536e-06	56.11	0.00071305	0.00064204	0.00018161	532.47	6.6263e-06	7.0305e-06	695.35	186.95	6.5594e-06	7.3975e-06	291.2	131.01	80.992	37.239	6.9813e-06	62.914	162.531	245.307	241.061	161.722	276.230	314.391	161.022	166.357	283.279	315.561	165.645	168.973	170.296	175.571	283.984	173.179	-8191	255	
2906.924	1	1	0	0	0.13889	0.091821	0.24913	0.13428	0.23416	0.16068	0.095841	0.14539	0.17314	0.18776	0.15864	0.14852	0.11083	0.1078	0.083471	0.14702	-2.2958	-2.7542	-2.0812	-2.9396	-2.4458	-2.2583	-3.1521	-2.2083	-2.5729	-2.9062	-2.2	-2.9562	-2.5521	-2.3083	-3.0521	-2.2583	175.087	370.041	401.993	182.609	220.838	316.263	196.517	461.985	402.060	188.604	193.403	159.776	152.109	221.023	373.317	408.422	0.00079716	0.00040492	9.9035e-05	483.01	3.5698e-06	4.5306e-06	629.47	169	4.494e-06	2.6323e-06	263.22	117.81	73.108	33.122	3.5685e-06	55.903	0.00071715	0.00064631	0.00018333	532.68	6.5804e-06	7.3252e-06	694.4	187.01	6.68e-06	7.2984e-06	292.06	131.03	81.033	37.12	7.0945e-06	62.787	163.625	225.513	232.712	161.803	285.379	295.339	161.471	166.749	286.681	289.947	165.468	169.273	170.444	175.522	283.125	173.188	-8191	255	
2907.045	1	1	0	0	0.23056	0.24146	0.13067	0.23384	0.042164	0.095995	0.050748	0.18344	0.06352	0.18216	0.21127	0.065357	0.064114	0.11821	0.056708	0.035711	-2.2708	-2.9125	-2.0542	-2.9625	-2.5938	-2.3875	-3.0938	-2.3708	-2.5604	-2.925	-2.2646	-2.9562	-2.5187	-2.2833	-3.0062	-2.4354	308.819	463.963	203.482	150.775	464.438	456.020	459.990	168.031	431.403	235.488	239.966	209.110	437.396	378.735	462.673	388.901	0.00083191	0.00048422	9.9692e-05	480.33	3.9696e-06	4.1255e-06	627.27	169.09	3.8472e-06	3.4279e-06	262.72	117.81	73.09	32.899	2.794e-06	55.667	0.00073134	0.00064658	0.00018676	530.35	6.6315e-06	7.2027e-06	692.63	186.98	6.8322e-06	7.4163e-06	291.58	130.76	81.014	36.915	7.1096e-06	62.427	162.270	237.880	244.822	162.130	295.770	312.030	161.391	166.895	261.074	306.280	165.472	169.311	170.682	175.699	271.385	173.241	-8191	255	
2907.141	1	1	0	0	0.16335	0.24903	0.042564	0.13972	0.25792	0.19409	0.20887	0.10374	0.10699	0.11827	0.27383	0.12749	0.17872	0.12614	0.35488	0.24742	-2.1625	-2.95	-2.1	-2.8833	-2.5417	-2.175	-3.1604	-2.4125	-2.425	-2.8521	-2.1688	-2.8646	-2.8187	-2.2229	-2.9625	-2.5438	208.117	328.790	271.869	210.223	421.897	479.737	476.289	179.981	482.719	467.975	477.296	244.158	440.732	254.543	284.016	487.749	0.00078966	0.00025179	7.5896e-05	477.51	3.7521e-06	2.6029e-06	623.45	168.61	4.0088e-06	4.9709e-06	261.68	117.14	72.356	32.705	3.335e-06	55.366	0.00072337	0.00065021	0.00017975	526.31	6.6049e-06	7.3348e-06	688.28	186.85	6.8348e-06	7.2912e-06	290.62	129.98	80.431	36.644	6.8882e-06	62.097	161.841	242.961	236.640	162.059	279.408	307.418	161.657	166.578	275.849	317.312	165.569	169.307	170.686	175.479	282.083	173.238	-8191	255	
2907.237	1	1	0	0	0.14465	0.041043	0.090363	0.33298	0.19518	0.25984	0.19958	0.17927	0.13429	0.10584	0.22978	0.10172	0.25238	0.17517	0.12464	0.15003	-1.8917	-3.0208	-2.1083	-2.7938	-2.7604	-2.1167	-3.1437	-2.4437	-2.2333	-2.9083	-2.2833	-2.6063	-2.9417	-2.1604	-2.9375	-2.6	211.625	295.209	245.387	254.615	225.915	414.002	284.714	483.749	284.233	299.543	404.858	311.293	497.672	153.831	319.218	383.753	0.00079952	0.00036382	8.6692e-05	478.33	3.2571e-06	4.0968e-06	625.66	167.39	3.823e-06	4.7444e-06	261.2	116.18	72	32.579	3.9807e-06	55.231	0.00071332	0.00063718	0.00017908	527.86	6.4722e-06	7.4621e-06	690.43	185.31	6.8506e-06	7.0779e-06	289.13	129.09	79.803	36.502	6.9689e-06	61.936	162.527	241.949	248.676	162.294	278.417	294.070	161.593	166.805	278.314	298.653	165.869	169.735	171.020	175.914	289.768	173.613	-8191	255	
2907.358	1	1	0	0	0.094652	0.015666	0.038637	0.12098	0.14872	0.18285	0.13262	0.27451	0.13172	0.15471	0.16586	0.18844	0.12534	0.2456	0.076879	0.051528	-1.9667	-2.7625	-2.1646	-2.6125	-2.9	-2.0875	-2.8521	-2.5646	-2.0396	-3.0417	-2.4729	-2.5792	-2.9625	-2.1	-2.8708	-2.7854	382.954	202.470	228.373	154.872	392.661	494.367	408.871	445.458	313.005	440.988	187.381	372.277	465.344	167.394	471.565	433.074	0.00079693	0.00042288	0.00012326	478.98	2.7721e-06	4.2441e-06	618.74	166.69	3.4497e-06	4.1737e-06	260.39	115	71.676	32.214	3.3748e-06	54.628	0.00071787	0.00064295	0.00017786	526.27	6.4618e-06	7.3606e-06	686.32	184.67	6.9075e-06	7.2055e-06	287.74	128.09	79.204	36.088	7.2672e-06	61.272	164.118	239.723	237.098	162.085	269.421	314.104	161.746	166.933	291.420	306.093	165.832	169.609	170.950	176.004	281.753	173.668	-8191	255	
2907.429	1	1	0	0	0.14041	0.38976	0.10498	0.12533	0.21251	0.17127	0.075202	0.13323	0.063476	0.16035	0.26373	0.22462	0.20847	0.16918	0.070365	0.077323	-1.8292	-2.6875	-2.2125	-2.4792	-2.9771	-2.1479	-2.8229	-2.7875	-2.1854	-2.7042	-2.4833	-2.3688	-3.0833	-2.325	-2.6896	-2.8229	273.051	343.141	215.641	154.419	380.925	387.638	323.200	429.628	244.152	270.048	486.534	484.841	164.907	287.599	470.862	233.502	0.00079485	0.00036921	7.6629e-05	472.4	2.8138e-06	3.4464e-06	616.95	166.07	3.8402e-06	3.7728e-06	257.18	113.49	70.8	31.981	3.9889e-06	54.106	0.00073836	0.00067295	0.00018433	520.38	6.5919e-06	7.6998e-06	682.2	183.5	7.0608e-06	7.6058e-06	285.27	126.51	78.508	35.848	7.2823e-06	60.78	163.777	249.779	230.249	162.670	294.940	319.962	161.939	166.839	277.746	295.054	165.399	169.153	170.574	175.184	284.857	172.846	-8191	255	
2907.525	1	1	0	0	0.20211	0.064887	0.2284	0.12783	0.21251	0.18507	0.046193	0.22115	0.25753	0.10011	0.15689	0.11392	0.29308	0.32588	0.049223	0.14599	-1.5917	-2.9562	-2.525	-2.2625	-3.0146	-2.1833	-2.5583	-3.0771	-1.9417	-2.9729	-2.5938	-2.2708	-3.1792	-2.2854	-2.6625	-2.9292	491.692	209.856	166.315	198.447	446.810	299.512	437.783	430.089	320.904	269.168	297.365	480.288	499.687	390.463	393.959	282.493	0.00075622	0.00032916	8.5375e-05	468.99	2.6778e-06	3.8518e-06	613.27	165.39	3.4433e-06	3.4238e-06	256.03	113.52	70.617	31.925	4.0706e-06	53.825	0.00072414	0.00067236	0.00018915	518.52	6.6762e-06	7.7604e-06	677.47	182.82	7.0371e-06	7.3756e-06	284.33	126.44	78.366	35.695	7.4836e-06	60.542	163.020	228.506	240.414	161.821	278.421	318.326	160.934	166.081	259.810	301.551	164.990	168.770	170.397	175.138	277.128	172.816	-8191	255	
2907.620	1	1	0	0	0.075707	0.1132	0.33093	0.23171	0.14893	0.052961	0.13716	0.11874	0.066499	0.18044	0.18673	0.15068	0.19805	0.20279	0.19907	0.14672	-1.7604	-2.8833	-2.5875	-2.1562	-2.8958	-2.4188	-2.3958	-2.9771	-2.1063	-2.8438	-2.7938	-2.0125	-3.0667	-2.25	-2.2792	-3.0938	189.858	306.544	434.738	474.479	434.630	242.744	151.805	360.535	257.075	377.232	461.682	476.132	498.234	508.120	467.907	242.998	0.00076161	0.00030923	9.383e-05	466.02	3.1134e-06	4.3668e-06	614.76	165.73	3.8085e-06	4.7259e-06	257.36	115.49	71.647	32.331	4.2815e-06	55.501	0.00073241	0.00067765	0.000191	514.67	6.6268e-06	7.749e-06	678.9	183.35	7.3662e-06	7.6696e-06	286.45	128.45	79.483	36.409	7.5643e-06	62.197	161.469	243.628	233.297	161.606	279.527	293.654	160.957	166.203	292.089	300.545	164.952	168.608	170.265	175.027	291.873	172.938	-8191	255	
2907.718	1	1	0	0	0.036565	0.10899	0.3696	0.17543	0.081357	0.17256	0.051828	0.3781	0.14327	0.11824	0.17066	0.11069	0.13706	0.092248	0.086139	0.15843	-1.7146	-2.6271	-2.7417	-2.05	-2.8625	-2.3917	-2.4042	-3.0521	-2.0458	-2.725	-2.675	-2.3271	-2.8688	-2.5687	-2.1042	-3.0354	419.812	207.979	415.825	242.117	174.737	184.484	413.154	382.701	443.684	346.159	484.464	385.486	459.299	484.125	458.321	501.824	0.00081129	0.00042087	0.00010742	480.76	3.1213e-06	4.2639e-06	626.76	168.52	3.3345e-06	3.6864e-06	261.65	116.56	72.085	32.716	3.7681e-06	55.233	0.00073378	0.00065624	0.00018655	530.78	6.5523e-06	7.2304e-06	694.61	186.34	6.5936e-06	7.406e-06	289.95	129.44	80.215	36.692	7.2375e-06	62.074	161.836	240.596	236.172	161.872	273.562	289.017	161.054	166.199	276.451	295.938	164.966	168.611	170.431	175.052	278.698	172.918	-8191	255	
2907.837	1	1	0	0	0.18646	0.12865	0.05051	0.28534	0.16071	0.17397	0.20515	0.18805	0.086293	0.13866	0.2028	0.26327	0.21176	0.068623	0.0095161	0.19462	-1.8458	-2.4542	-2.975	-2.0542	-2.8292	-2.5354	-2.2417	-3.0604	-2.1125	-2.4833	-2.8542	-1.9125	-2.7583	-2.6229	-2.3021	-3.1437	490.168	466.850	418.793	416.134	406.898	172.576	457.661	492.640	299.904	495.570	489.685	405.671	193.517	163.135	323.847	173.582	0.00079295	0.00031617	9.1921e-05	474.05	2.3948e-06	4.1292e-06	617.47	165.84	4.55e-06	5.0311e-06	256.49	113.33	70.299	31.691	3.8767e-06	53.384	0.00071709	0.00064909	0.00017966	522.66	6.3556e-06	7.3012e-06	679.08	183.25	6.6552e-06	7.1794e-06	284.76	126	78.138	35.554	6.9857e-06	60.155	163.939	214.756	245.104	161.640	282.507	304.090	160.922	166.326	281.426	303.805	165.155	168.474	170.331	175.151	291.032	172.901	-8191	255	
2907.933	1	1	0	0	0.134	0.099975	0.19181	0.37991	0.29625	0.1479	0.25821	0.29951	0.15526	0.1548	0.32101	0.15744	0.25636	0.14542	0.22733	0.23711	-1.9604	-2.2938	-2.9479	-2.1813	-2.6937	-2.6854	-2.1375	-2.9375	-2.4417	-2.4188	-2.9875	-2.3333	-2.7792	-2.7667	-2.1	-3.1271	229.722	274.662	477.599	504.738	297.235	401.151	373.863	390.147	245.111	443.177	389.790	446.300	458.124	368.371	411.345	486.475	0.00078998	0.00036049	8.9075e-05	461.13	3.4895e-06	4.6081e-06	607.71	165.16	3.8254e-06	3.2368e-06	254.94	113.33	70.112	31.564	3.6947e-06	53.445	0.00069729	0.000643	0.00017601	508.64	6.2587e-06	6.8006e-06	670.79	182.68	6.4878e-06	7.016e-06	284.12	125.89	78.016	35.38	7.1646e-06	59.926	162.500	229.491	244.990	161.849	271.309	298.883	161.069	166.110	273.240	288.242	165.029	168.584	170.164	174.818	276.833	172.721	-8191	255	
2908.004	1	1	0	0	0.16031	0.27077	0.39452	0.078795	0.23567	0.12963	0.30865	0.084056	0.25039	0.081002	0.29702	0.23852	0.10278	0.21243	0.2013	0.1495	-2.1396	-2.2292	-2.9833	-2.1625	-2.6542	-2.7979	-2.125	-2.9625	-2.5104	-2.4188	-2.9417	-2.3458	-2.5417	-2.8292	-2.0708	-2.9583	449.517	373.416	454.301	476.271	356.551	481.689	443.017	193.820	409.713	507.016	458.498	170.695	430.784	488.437	151.425	193.448	0.00075875	0.00026229	7.7213e-05	461.67	3.2553e-06	3.3527e-06	609.3	164.45	4.3834e-06	3.6014e-06	255.74	112.49	69.866	31.524	3.9533e-06	53.138	0.00067885	0.00063617	0.00017007	509.76	6.1437e-06	6.7723e-06	671.59	182.09	6.4035e-06	7.2304e-06	283.6	125.25	77.614	35.284	6.7805e-06	59.723	162.398	230.829	261.125	161.524	275.105	294.711	160.927	166.324	290.290	299.083	164.807	168.528	170.134	174.904	279.231	172.811	-8191	255	
2908.125	1	1	0	0	0.30355	0.21372	0.2715	0.3019	0.1588	0.17215	0.075185	0.02439	0.3266	0.057484	0.095217	0.06641	0.22243	0.16068	0.093703	0.25111	-2.2042	-2.2417	-3.0292	-2.2687	-2.5021	-2.7729	-2.3167	-2.9146	-2.5771	-2.0854	-2.8542	-2.4771	-2.5292	-3.0333	-2.1521	-2.7604	483.930	492.992	274.613	174.536	179.715	178.563	343.940	455.402	175.840	290.207	388.863	412.508	461.688	461.577	193.453	430.355	0.00078058	0.00031037	7.4861e-05	457.94	3.5246e-06	4.4e-06	607.08	165.37	4.1124e-06	4.2263e-06	255.77	112.72	69.915	31.413	4.3287e-06	53.04	0.0007129	0.00065629	0.00017466	506.23	6.5112e-06	7.1211e-06	668.55	182.36	6.6758e-06	7.4904e-06	282.9	125.28	77.613	35.188	7.2162e-06	59.562	161.820	250.949	258.492	161.578	280.170	292.311	160.711	166.136	289.201	303.571	164.923	168.449	169.916	174.946	280.695	172.945	-8191	255	
2908.221	1	1	0	0	0.10772	0.12641	0.068204	0.05628	0.14882	0.17937	0.10055	0.49915	0.20949	0.079508	0.23136	0.37488	0.16848	0.22399	0.17798	0.17695	-2.0792	-2.0271	-3.0187	-2.2875	-2.3771	-2.9667	-2.2833	-2.8271	-2.8292	-2.2375	-2.9688	-2.3729	-2.0917	-3.1708	-2.0062	-2.8937	447.554	379.326	375.467	402.246	257.871	271.408	460.484	457.056	364.979	335.615	225.078	496.601	187.784	493.252	239.739	441.229	0.00077694	0.00035328	9.2547e-05	454.56	3.8166e-06	4.2778e-06	600.19	162.07	3.5048e-06	3.3807e-06	253.02	111.73	69.132	31.214	4.1908e-06	53.1	0.00070567	0.00066873	0.0001787	501.77	6.7887e-06	7.0251e-06	662.33	179.91	6.7527e-06	7.6277e-06	280.28	124	76.585	34.941	7.367e-06	59.538	160.832	230.492	239.461	161.532	271.840	301.940	160.837	166.325	292.579	317.200	164.851	168.649	170.153	174.963	269.026	172.830	-8191	255	
2908.317	1	1	0	0	0.097493	0.24951	0.16469	0.20945	0.092462	0.33148	0.14194	0.045417	0.27256	0.099069	0.234	0.15869	0.40911	0.1151	0.074505	0.2026	-2.5625	-1.9958	-2.775	-2.4188	-2.3292	-2.9042	-2.2979	-2.3896	-2.8479	-2.0896	-2.7396	-2.575	-2.1437	-2.975	-1.9479	-2.4938	199.926	458.607	257.450	369.683	228.707	276.287	455.869	357.026	404.139	217.581	299.086	364.517	151.168	209.057	319.899	432.699	0.0007477	0.00043404	8.6917e-05	460.18	3.0449e-06	3.852e-06	605.71	164.8	3.6251e-06	3.0261e-06	254.61	112.74	69.756	31.802	3.6839e-06	53.763	0.00068735	0.00064871	0.00017339	506.94	6.3451e-06	6.6751e-06	670.48	181.63	6.4409e-06	7.0524e-06	282.84	124.97	77.536	35.57	6.8405e-06	60.537	163.368	239.321	223.292	161.524	284.105	308.285	160.581	166.105	264.690	320.483	164.791	168.513	170.002	175.240	283.397	172.903	-8191	255	
2908.438	1	1	0	0	0.090843	0.064182	0.24868	0.33572	0.068461	0.23305	0.14896	0.19106	0.25515	0.3107	0.38132	0.20737	0.16146	0.19604	0.10018	0.30889	-2.3375	-2.1813	-2.7958	-2.6271	-2.2479	-3.1833	-2.3937	-2.4875	-2.9625	-2.1208	-2.7875	-2.8438	-2.0667	-2.9333	-2.1583	-2.4167	336.432	262.365	352.560	156.428	152.540	268.703	412.181	450.078	350.890	376.526	477.144	192.057	355.353	496.075	372.416	406.789	0.00078901	0.00034819	8.7055e-05	465.81	2.8981e-06	3.8735e-06	612.65	165.09	3.5175e-06	3.7984e-06	258.04	114.41	70.894	32.168	3.3953e-06	54.323	0.00069577	0.00064135	0.00017033	514.53	6.506e-06	6.6913e-06	677.11	183.25	6.315e-06	7.1326e-06	285.91	126.96	78.667	36.074	6.84e-06	61.086	161.176	251.123	229.845	161.571	263.162	317.807	160.719	166.182	275.932	303.964	165.088	168.545	170.048	175.091	279.316	172.667	-8191	255	
2908.532	1	1	0	0	0.10822	0.1477	0.059072	0.14582	0.08798	0.065829	0.073022	0.066019	0.19063	0.048558	0.10632	0.18562	0.093895	0.228	0.11492	0.092869	-2.4729	-2.0625	-2.6646	-2.5812	-2.0396	-3.0062	-2.4979	-2.3667	-3.0229	-2.0583	-2.6146	-2.8396	-2.0812	-2.775	-2.4417	-2.3646	445.033	265.105	378.013	477.512	389.177	385.624	419.800	372.801	506.447	445.520	192.901	437.170	180.580	218.775	338.850	421.092	0.0007971	0.00029558	9.0218e-05	474.24	3.4286e-06	2.6223e-06	616.56	166.28	4.2277e-06	4.3107e-06	257.61	114.48	70.875	32.197	3.7424e-06	54.239	0.00070023	0.00064588	0.00017182	521.59	6.3733e-06	6.6811e-06	682.72	184.23	6.4462e-06	6.9698e-06	286.07	127.06	78.803	36.05	6.9857e-06	60.868	162.879	236.084	249.013	161.506	294.290	320.553	160.825	166.050	283.646	306.846	164.776	168.343	169.928	175.008	289.513	172.627	-8191	255	
2908.629	1	1	0	0	0.13522	0.1061	0.25607	0.12557	0.41158	0.19002	0.047376	0.4756	0.15148	0.19588	0.047843	0.074554	0.18263	0.15679	0.18624	0.264	-2.5792	-2.1083	-2.3729	-3.0042	-1.9958	-2.8292	-2.6896	-2.3333	-2.8937	-2.2083	-2.5062	-2.9938	-2.1771	-2.8812	-2.6437	-2.375	194.708	482.466	199.992	156.870	335.533	255.956	162.338	152.292	356.330	247.218	215.739	166.726	370.509	160.917	432.064	441.897	0.00076889	0.00034005	6.7676e-05	473.47	3.3552e-06	3.8357e-06	618.34	166.22	4.0568e-06	3.191e-06	256.55	114.12	70.62	31.818	4.1452e-06	53.736	0.00069068	0.00063451	0.00017871	522.23	6.5877e-06	6.9764e-06	682.16	183.75	6.5357e-06	7.1946e-06	285.79	126.81	78.731	35.681	6.8534e-06	60.463	161.110	258.995	218.249	161.361	286.483	308.400	160.522	166.005	269.489	306.180	164.845	168.340	169.964	174.889	274.659	172.718	-8191	255	
2908.725	1	1	0	0	0.13367	0.11363	0.25287	0.10312	0.11613	0.098396	0.37058	0.067202	0.095606	0.035608	0.040035	0.051545	0.20404	0.067101	0.13301	0.12808	-2.6021	-2.3771	-2.3438	-2.8583	-1.9833	-2.6937	-2.85	-2.2542	-2.8792	-2.2792	-2.2229	-2.8875	-2.1667	-2.7917	-2.7292	-2.0896	229.621	197.812	325.711	156.854	358.150	196.866	412.885	282.637	162.632	232.594	319.238	319.236	464.231	266.918	313.072	499.466	0.0007689	0.00038998	0.00013053	467.11	3.603e-06	5.1084e-06	613.72	166.18	4.3186e-06	2.9419e-06	257.84	114.33	70.985	31.892	4.4785e-06	54.296	0.00069318	0.00065395	0.00018284	517.21	6.7626e-06	6.9908e-06	678.58	183.84	6.779e-06	7.522e-06	285.96	127.17	78.838	35.878	7.242e-06	61.05	161.757	236.593	249.664	161.271	282.195	295.622	160.699	165.698	287.650	285.091	164.871	168.340	169.901	174.905	270.698	172.554	-8191	255	
2908.821	1	1	0	0	0.20573	0.028086	0.23295	0.145	0.10169	0.019335	0.1128	0.24678	0.29888	0.27702	0.20665	0.033236	0.23651	0.52455	0.12381	0.056704	-2.3521	-2.1417	-2.2979	-2.9333	-2.1125	-2.6917	-2.875	-2.0708	-2.85	-2.6146	-2.2792	-3.1271	-2.1937	-2.7438	-3.1146	-2.2104	309.116	166.961	177.880	471.102	444.040	205.781	492.106	306.684	328.194	213.581	482.607	287.753	166.785	191.310	475.635	454.068	0.00078656	0.00043629	0.00010773	471.94	3.3671e-06	4.6485e-06	616.11	166.02	3.3267e-06	3.0504e-06	258.32	114.82	71.213	32.258	3.0629e-06	54.374	0.00070761	0.00067199	0.00019023	519.49	6.8085e-06	7.2598e-06	680.32	183.88	6.5957e-06	7.4758e-06	286.57	127.63	79.056	36.069	7.2369e-06	61.114	162.496	260.980	241.212	161.362	289.018	289.125	160.619	165.794	271.887	331.929	164.818	168.388	169.917	174.897	289.226	172.689	-8191	255	
2908.917	1	1	0	0	0.37433	0.029938	0.034663	0.11104	0.19334	0.21911	0.0546	0.1268	0.060914	0.21432	0.076695	0.040314	0.34144	0.12857	0.12481	0.10399	-2.4688	-2.6104	-2.175	-3.2167	-2.3396	-2.4292	-2.925	-2.1208	-2.6646	-2.7375	-2.2125	-3.1	-2.4625	-2.4062	-2.9042	-2.1917	345.032	411.749	503.972	357.779	155.035	234.064	334.559	186.824	499.131	183.484	190.574	445.155	457.777	209.051	187.250	492.130	0.00079655	0.0003055	7.861e-05	472.7	2.9594e-06	5.5672e-06	620.58	166.25	2.9192e-06	3.6599e-06	258.44	114.4	71.267	32.303	3.0149e-06	54.542	0.00069601	0.00065272	0.00018318	523.33	6.568e-06	7.2886e-06	685.45	183.9	6.4014e-06	6.9959e-06	286.44	127.11	78.983	36.174	6.757e-06	61.29	161.778	248.054	242.647	161.349	275.863	297.463	160.671	165.965	285.839	311.628	164.850	168.503	169.824	174.957	272.566	172.660	-8191	255	
2909.013	1	1	0	0	0.34491	0.08394	0.10133	0.091794	0.17397	0.19094	0.12691	0.119	0.17774	0.22082	0.17687	0.1147	0.052838	0.19114	0.1442	0.22977	-2.3187	-2.6833	-2.1125	-2.8875	-2.3583	-2.5271	-3.1708	-2.0625	-2.5417	-2.7958	-2.15	-2.9396	-2.425	-2.1188	-3.0104	-2.2521	384.560	183.481	331.389	359.775	229.398	167.840	165.199	443.954	278.398	295.336	400.668	167.921	323.690	429.842	287.702	357.129	0.00077696	0.00025843	8.1669e-05	479.42	3.3086e-06	4.2728e-06	624.17	166.84	3.7875e-06	3.7733e-06	258.51	114.59	71.568	32.263	3.6504e-06	54.549	0.00069351	0.00063019	0.00017428	529.42	6.3878e-06	7.1199e-06	688.98	184.61	6.5062e-06	7.0281e-06	287.45	127.61	79.285	36.227	6.7979e-06	61.299	160.751	237.400	251.125	161.356	285.867	304.578	160.714	165.991	279.409	289.593	164.702	168.393	169.965	175.036	301.877	172.812	-8191	255	
2909.134	1	1	0	0	0.12463	0.20381	0.13875	0.24624	0.1844	0.29543	0.2144	0.086333	0.26383	0.14343	0.13308	0.17701	0.20135	0.075969	0.14768	0.15858	-2.1958	-2.7604	-1.9146	-2.8208	-2.6	-2.2479	-2.8833	-2.2271	-2.4417	-2.9333	-2.1146	-2.6646	-2.5312	-2.0167	-2.9875	-2.2979	206.216	409.387	195.791	452.659	213.210	308.437	460.321	208.644	469.524	453.727	281.953	458.622	333.625	345.217	279.013	278.246	0.00081425	0.00034331	0.00010775	478.26	3.4538e-06	3.8815e-06	620.62	167.21	4.6117e-06	4.4829e-06	259.95	115.24	71.384	32.222	2.7413e-06	54.369	0.00070136	0.00061887	0.00017962	527.57	6.4133e-06	7.0521e-06	687.7	185.13	6.4393e-06	6.9996e-06	288.7	127.97	79.415	36.189	6.6135e-06	61.079	161.857	244.777	237.287	161.450	281.338	288.925	160.545	165.798	284.721	304.295	164.566	168.548	170.020	174.993	291.306	172.653	-8191	255	
2909.230	1	1	0	0	0.19785	0.18371	0.11275	0.29442	0.10208	0.078897	0.19881	0.051137	0.068615	0.11776	0.31014	0.081686	0.40604	0.26389	0.27879	0.13089	-2.1833	-2.8937	-2.1729	-2.7875	-2.5979	-2.2292	-2.9437	-2.3729	-2.2938	-2.8083	-2.2021	-2.7708	-2.6083	-2.25	-2.8458	-2.4583	345.789	160.115	311.282	489.615	174.346	166.306	455.110	363.727	380.749	433.152	206.226	277.905	454.331	499.901	211.680	172.620	0.0008029	0.00037562	8.9223e-05	475.49	3.6263e-06	3.6342e-06	618.3	166.36	3.869e-06	3.6265e-06	259.27	114.41	71.27	31.984	3.3208e-06	53.804	0.00070862	0.00062736	0.0001763	525.03	6.3045e-06	7.0185e-06	684.24	184.7	6.5536e-06	7.0476e-06	287.02	127.18	79.072	35.798	6.8635e-06	60.404	164.637	233.486	235.756	161.517	277.526	298.323	160.821	165.970	282.555	300.969	164.887	168.600	170.002	174.733	300.042	172.784	-8191	255	
2909.302	1	1	0	0	0.20169	0.18616	0.083651	0.12781	0.10185	0.17512	0.11393	0.19465	0.14134	0.14031	0.14093	0.078479	0.14277	0.41237	0.077861	0.16604	-1.925	-2.9313	-2.1958	-2.6875	-2.7687	-2.1854	-2.9083	-2.5542	-2.1083	-2.9958	-2.1562	-2.6771	-2.8271	-2.0438	-3.0292	-2.725	252.195	171.716	456.062	497.661	168.401	170.324	444.984	494.942	467.724	284.224	246.736	281.218	398.523	461.628	376.014	191.216	0.00074829	0.00028645	0.00010238	466.04	3.4614e-06	3.9283e-06	612.72	166.11	3.9522e-06	4.4244e-06	256.71	113.61	71.054	31.674	4.4514e-06	53.773	0.00069544	0.000632	0.00017605	514.55	6.4461e-06	7.36e-06	675.65	183.6	6.7637e-06	7.2256e-06	285.13	126.57	78.701	35.607	7.0558e-06	60.387	163.236	242.617	252.028	161.543	283.467	287.545	160.841	165.955	292.640	296.372	164.936	168.318	170.130	174.837	278.333	172.458	-8191	255	
2909.398	1	1	0	0	0.14575	0.24901	0.043373	0.090223	0.19101	0.057926	0.21058	0.19529	0.14332	0.072471	0.096596	0.22457	0.20838	0.2683	0.18065	0.19009	-1.8604	-2.9979	-2.1688	-2.6375	-2.9917	-2.125	-2.9	-2.5	-2.1792	-2.9583	-2.3708	-2.5042	-2.9979	-2.0125	-2.7583	-2.8104	375.355	351.868	493.775	208.969	421.933	250.799	451.284	260.083	214.809	474.796	452.395	397.155	363.794	461.440	262.787	375.987	0.00079722	0.00029491	8.8698e-05	470.5	3.4414e-06	3.7704e-06	618.62	167.36	4.4273e-06	2.9758e-06	259.22	115.8	72.241	32.603	5.0341e-06	55.326	0.00072783	0.00065074	0.00018361	518.39	6.6237e-06	7.2382e-06	682.95	184.87	6.9496e-06	7.0628e-06	288.25	128.86	80.151	36.572	7.0328e-06	62.012	163.689	248.831	235.654	161.591	286.436	285.871	160.662	165.792	278.820	285.310	164.968	168.495	169.882	174.839	287.960	172.321	-8191	255	
2909.517	1	1	0	0	0.18211	0.01605	0.14155	0.27389	0.043211	0.41818	0.093177	0.10418	0.061552	0.18355	0.1496	0.18114	0.19304	0.22755	0.15311	0.26477	-1.9438	-3.1063	-2.0833	-2.3396	-3.0208	-2.2354	-2.8771	-2.9125	-2.2583	-3.0917	-2.4396	-2.4854	-3.1458	-2.1688	-2.7104	-2.7833	447.316	365.155	459.747	254.046	163.741	448.590	449.120	402.891	366.169	332.578	250.419	468.847	416.401	495.747	274.822	342.584	0.00081771	0.00037229	0.00010724	485.49	2.7894e-06	2.823e-06	632.43	169.86	3.5807e-06	3.1132e-06	261.84	116.25	72.73	32.667	4.307e-06	54.974	0.00072001	0.00060873	0.0001744	535.7	6.3321e-06	6.9362e-06	699.18	187.26	6.5357e-06	6.8204e-06	290.73	129.32	80.5	36.604	6.9095e-06	61.756	163.769	241.537	230.157	161.231	278.194	297.142	160.717	165.998	279.666	307.945	164.953	168.462	169.818	174.852	288.513	172.450	-8191	255	
2909.613	1	1	0	0	0.3467	0.094596	0.044348	0.14289	0.12727	0.3334	0.14069	0.10368	0.16763	0.19776	0.1878	0.16246	0.20368	0.17926	0.13321	0.1699	-1.7062	-2.9396	-2.4	-2.2583	-2.8208	-2	-2.4917	-2.9792	-2.1312	-2.8667	-2.5042	-2.2125	-2.9771	-2.1667	-2.5812	-2.75	261.739	454.561	315.031	177.008	407.081	294.988	443.506	354.475	480.655	476.722	249.525	199.970	454.326	488.194	465.326	349.277	0.00080213	0.00034289	0.00010097	489.81	2.6865e-06	4.3887e-06	631.23	168.33	3.4603e-06	4.5999e-06	260.98	116.09	72.585	32.519	3.3694e-06	54.903	0.0007074	0.00060889	0.00017148	539.13	6.1661e-06	6.9104e-06	698.53	186.52	6.5278e-06	6.7548e-06	289.48	128.82	80.351	36.478	6.6768e-06	61.526	163.088	233.525	250.807	161.358	303.166	289.436	160.648	165.773	276.993	308.290	164.934	168.376	169.789	174.823	293.738	172.403	-8191	255	
2909.709	1	1	0	0	0.14655	0.063568	0.097159	0.040893	0.087472	0.23793	0.075186	0.13126	0.10999	0.16175	0.39157	0.084535	0.2584	0.18279	0.063848	0.042977	-1.7458	-2.8771	-2.6292	-2.2604	-3.0229	-2.0542	-2.4562	-2.8688	-2.0021	-2.7542	-2.9042	-2.1646	-3.0646	-2.3646	-2.1188	-3.2458	318.719	151.231	304.084	251.805	237.346	187.709	365.664	340.884	237.570	163.801	446.555	207.439	164.057	469.490	272.113	506.527	0.00079125	0.00027256	0.00010083	485.14	3.4001e-06	4.341e-06	630.49	168.64	4.1911e-06	3.4138e-06	261.91	116.15	72.568	32.409	3.2322e-06	54.74	0.00069746	0.0006099	0.00017188	535.74	6.2483e-06	6.98e-06	697.82	186.49	6.6052e-06	6.6624e-06	290.19	128.78	80.522	36.435	6.8781e-06	61.539	162.209	225.053	235.322	161.329	269.575	298.818	160.802	165.951	275.335	302.543	164.731	168.480	170.003	174.770	284.589	172.553	-8191	255	
2909.805	1	1	0	0	0.15277	0.1279	0.073972	0.35187	0.20055	0.079705	0.46106	0.12884	0.068444	0.082135	0.25854	0.23354	0.17086	0.1448	0.10385	0.24013	-1.7625	-2.7917	-2.6729	-1.9583	-2.9542	-2.3187	-2.3771	-2.925	-2.1813	-2.5792	-2.7958	-2.0979	-2.9958	-2.35	-2.3729	-3.1292	492.754	328.992	218.759	353.804	369.744	461.679	410.796	179.961	452.378	463.329	194.499	331.979	161.576	472.439	185.734	503.652	0.00080735	0.0003427	7.9229e-05	486.19	3.0496e-06	3.1669e-06	631.51	169.14	4.2362e-06	4.1615e-06	263.02	116.41	72.849	32.495	3.3482e-06	54.374	0.00070436	0.00061989	0.00017491	537.57	6.2598e-06	6.9218e-06	698.4	187.46	6.6537e-06	7.1587e-06	291.46	129.65	80.845	36.452	7.0698e-06	61.22	164.174	238.055	234.219	161.410	270.156	304.774	160.804	165.889	271.674	308.264	164.789	168.442	169.978	174.485	280.740	172.578	-8191	255	
2909.926	1	1	0	0	0.21382	0.015721	0.17715	0.14871	0.25177	0.29779	0.12883	0.074397	0.034728	0.23197	0.087071	0.24813	0.27378	0.16585	0.11026	0.16115	-1.7021	-2.4146	-2.7917	-2.0563	-2.7104	-2.5875	-2.3229	-3.0479	-2.2333	-2.6417	-2.8625	-2.375	-2.9625	-2.5771	-2.0792	-3.175	456.863	452.947	339.320	432.704	464.715	415.962	422.790	465.152	288.866	398.223	498.359	369.966	392.881	372.668	331.614	332.422	0.00079888	0.00036502	0.00010294	477.69	2.2065e-06	4.5197e-06	622.21	167.97	3.3661e-06	4.2194e-06	261.06	115.92	72.228	32.219	3.8453e-06	54.383	0.00070683	0.00064786	0.00017792	526.94	6.4149e-06	7.1973e-06	687.97	185.99	6.8664e-06	7.2268e-06	289.62	128.8	80.35	36.264	7.1433e-06	61.086	162.126	258.327	226.890	161.445	268.255	317.052	160.764	165.992	293.268	291.172	164.841	168.366	170.003	174.772	277.076	172.500	-8191	255	
2909.997	1	1	0	0	0.070501	0.10065	0.084988	0.042481	0.084584	0.33214	0.083608	0.13899	0.24692	0.35336	0.03198	0.14259	0.11878	0.12506	0.056448	0.2275	-1.875	-2.4896	-2.8958	-2.0667	-2.6437	-2.7979	-2.125	-3.0687	-2.2562	-2.3833	-3.0125	-2.1979	-2.7521	-2.9042	-1.9562	-2.8979	235.475	300.161	400.132	342.485	314.490	313.336	498.873	223.992	172.866	250.362	211.368	480.130	270.439	450.024	373.552	486.763	0.00080677	0.00031811	0.00010737	477.6	2.4209e-06	3.3776e-06	623.56	168.51	2.9791e-06	4.4236e-06	261.2	116.44	72.867	32.594	3.7852e-06	54.881	0.00071656	0.00065581	0.00018294	527.97	6.4165e-06	7.1955e-06	689.19	186.33	6.7958e-06	7.4588e-06	289.88	129.49	80.786	36.486	7.312e-06	61.623	163.086	268.976	237.995	161.296	284.917	313.067	160.841	166.234	267.883	308.853	164.980	168.425	169.942	174.759	277.395	172.566	-8191	255	
2910.118	1	1	0	0	0.23523	0.097876	0.052055	0.257	0.11705	0.29774	0.15438	0.0834	0.15106	0.14608	0.070564	0.36382	0.31006	0.25055	0.26706	0.20665	-1.9479	-2.2167	-2.8854	-2.225	-2.7396	-2.8667	-2.2854	-2.9813	-2.6021	-2.2104	-3.0146	-2.1771	-2.6708	-2.8354	-2.0479	-2.9958	252.459	263.858	290.360	428.218	267.845	289.007	388.560	407.218	279.001	315.332	472.943	437.536	407.786	162.633	430.266	431.914	0.00080441	0.00043821	7.6092e-05	487.49	3.7207e-06	4.0764e-06	636.18	169.65	4.0999e-06	2.9471e-06	263.33	117.02	73.339	32.85	3.2815e-06	55.312	0.00070665	0.00063937	0.00016962	537.54	6.215e-06	6.8378e-06	701.43	188.2	6.4156e-06	7.231e-06	292.19	130.22	81.372	36.829	7.0648e-06	62.039	163.020	222.527	226.360	161.304	282.528	309.602	160.492	165.730	273.328	306.800	164.887	168.605	170.012	174.697	267.576	172.757	-8191	255	
2910.214	1	1	0	0	0.11783	0.17046	0.096279	0.20357	0.092325	0.10762	0.26159	0.22685	0.1958	0.11174	0.15198	0.24694	0.069734	0.049373	0.03147	0.20778	-2.2167	-2.1292	-2.8083	-2.1792	-2.2042	-3.0021	-2.0687	-2.8583	-2.65	-2.1708	-3.0625	-2.3646	-2.5521	-2.9375	-1.9688	-2.8125	345.901	433.610	298.920	170.943	193.504	371.578	172.201	392.923	464.399	439.242	290.140	468.279	466.017	393.632	172.564	402.561	0.00079306	0.00031759	0.00011295	489.4	3.1783e-06	4.5091e-06	636.74	170.7	4.0596e-06	3.7373e-06	262.04	116.95	73.202	32.745	5.174e-06	54.897	0.0007027	0.0006383	0.00016678	541.65	6.2879e-06	6.7285e-06	702.68	188.58	6.6199e-06	7.0822e-06	291.77	130.04	81.189	36.737	6.928e-06	61.753	162.041	237.545	238.126	161.148	283.297	288.932	160.729	166.249	273.112	299.525	165.055	168.349	170.194	174.888	282.430	172.717	-8191	255	
2910.310	1	1	0	0	0.12082	0.12248	0.1978	0.030399	0.076649	0.19346	0.17028	0.26315	0.12321	0.17663	0.10671	0.11133	0.27035	0.1165	0.071414	0.25679	-2.3417	-2.0146	-2.7729	-2.4708	-2.3208	-3.0563	-2.2042	-2.7229	-2.6979	-2.0583	-3.1813	-2.4562	-2.1937	-3.0292	-1.9375	-2.5896	241.399	303.952	425.214	166.793	359.725	170.119	353.098	184.858	305.422	267.312	447.533	380.012	253.161	352.664	452.728	413.412	0.0007876	0.00037134	0.00011218	490.37	3.1128e-06	3.5253e-06	632.39	170.22	4.2707e-06	2.4466e-06	261.91	116.27	72.876	32.529	3.8558e-06	54.385	0.00069946	0.00064071	0.00016955	540.59	6.2816e-06	6.7976e-06	699.14	188.25	6.4198e-06	7.1302e-06	290.74	129.13	80.8	36.428	6.9426e-06	61.008	161.765	227.316	248.402	161.322	289.638	293.542	160.665	165.919	278.498	295.247	164.668	168.382	170.014	174.911	303.932	172.747	-8191	255	
2910.406	1	1	0	0	0.19199	0.044289	0.21661	0.075152	0.016002	0.21935	0.16108	0.20725	0.16725	0.16	0.095928	0.094233	0.17273	0.26725	0.2787	0.30843	-2.3937	-1.9333	-2.7313	-2.3479	-2.075	-3.0292	-2.3	-2.7	-2.8583	-1.9979	-2.875	-2.4896	-1.9875	-3.0271	-2.3479	-2.4542	499.115	169.317	157.061	349.308	161.770	486.000	491.917	221.370	262.446	358.853	429.526	439.677	457.509	443.261	370.194	419.562	0.0007717	0.00032561	7.511e-05	486.56	3.9091e-06	4.106e-06	630.05	170.14	3.4864e-06	3.3487e-06	262.27	115.93	72.837	32.195	4.1446e-06	53.876	0.00069146	0.00065886	0.00017045	536.74	6.4852e-06	6.8102e-06	696.34	187.74	6.3787e-06	7.2365e-06	290.64	129.01	80.806	36.188	7.007e-06	60.591	162.532	249.548	253.118	161.448	280.886	306.290	160.755	166.054	276.726	305.214	164.674	168.418	169.920	174.605	275.836	172.632	-8191	255	
2910.527	1	1	0	0	0.20491	0.072772	0.1867	0.18811	0.076944	0.19005	0.4044	0.074184	0.075092	0.087924	0.047811	0.35037	0.30672	0.24604	0.26959	0.073585	-2.5187	-2.1292	-2.6208	-2.7708	-1.9417	-3.0938	-2.45	-2.4458	-2.9271	-1.8854	-2.8875	-2.7292	-1.9771	-3.0062	-2.2875	-2.1833	353.572	388.307	270.078	390.189	187.770	338.719	423.414	479.184	220.855	186.806	423.432	395.161	394.949	502.057	447.675	345.672	0.00077717	0.00039492	9.6171e-05	478.65	2.8352e-06	2.6147e-06	623.18	168.67	4.3548e-06	3.4911e-06	261.33	115.41	72.496	32.181	3.7054e-06	53.963	0.00069958	0.00067663	0.00018078	527.17	6.7377e-06	6.9944e-06	687.98	186.49	6.7953e-06	7.3094e-06	289.35	128.5	80.316	36.051	7.2184e-06	60.655	163.276	240.223	240.435	161.307	291.441	319.831	160.582	166.056	271.956	312.389	164.828	168.389	170.047	174.629	282.116	172.737	-8191	255	
2910.599	1	1	0	0	0.045563	0.11519	0.016375	0.16619	0.081571	0.19887	0.21897	0.29935	0.20396	0.12789	0.21114	0.24036	0.04142	0.066839	0.1127	0.082373	-2.4208	-2.0646	-2.5917	-2.75	-2.2167	-2.9188	-2.4604	-2.2729	-2.8854	-1.975	-2.6813	-2.9437	-2.1271	-2.8333	-2.4458	-2.3896	412.378	431.874	427.771	174.630	219.076	371.252	494.114	177.775	477.900	480.041	474.591	177.474	251.346	440.903	309.392	393.473	0.00078201	0.0003336	0.00010278	475.29	3.5188e-06	4.3162e-06	618.26	167.22	4.4072e-06	5.1042e-06	258.07	114.57	71.583	31.964	3.5059e-06	53.523	0.00070258	0.00065507	0.00017691	524.27	6.6794e-06	7.0281e-06	683.61	185.31	6.5473e-06	7.2614e-06	286.38	127.21	79.514	35.815	7.0098e-06	60.23	162.267	233.996	231.345	161.260	287.914	301.485	160.636	166.261	266.253	305.292	164.810	168.389	169.833	174.962	287.041	172.433	-8191	255	
2910.695	1	1	0	0	0.18854	0.037904	0.030769	0.22941	0.27495	0.23254	0.30248	0.14178	0.088496	0.23095	0.26542	0.388	0.10361	0.082678	0.27281	0.074712	-2.6479	-2.1208	-2.4708	-2.9604	-2.0833	-2.8333	-2.6292	-2.2479	-2.9042	-2.3563	-2.4333	-2.95	-1.8958	-2.8688	-2.5917	-2.3375	424.915	463.078	484.525	336.713	290.509	491.605	479.516	440.547	283.082	410.611	359.685	171.560	498.754	368.735	466.307	451.158	0.00080031	0.00032702	4.7384e-05	477.94	3.1272e-06	4.287e-06	625.49	167.93	3.8257e-06	3.5813e-06	258.95	114.71	71.855	32.211	4.0785e-06	54.148	0.00069654	0.00064396	0.00017367	528.47	6.3753e-06	6.7651e-06	690.78	185.85	6.3945e-06	7.0943e-06	287.76	127.49	79.668	36.082	6.9308e-06	60.812	162.403	253.094	264.935	161.300	265.764	318.424	160.479	165.901	277.977	305.576	164.793	168.372	170.137	174.884	273.290	172.682	-8191	255	
2910.814	1	1	0	0	0.063972	0.0456	0.024557	0.1486	0.19393	0.2191	0.34135	0.13948	0.35355	0.12288	0.098167	0.11603	0.22551	0.04982	0.11675	0.3761	-2.6	-2.2354	-2.3042	-2.9958	-2.0708	-2.9104	-2.7458	-1.9729	-2.9375	-2.3292	-2.3063	-3.1292	-2.1104	-2.6021	-2.6583	-2.1083	445.498	476.689	397.559	481.456	496.140	344.247	456.024	247.041	351.924	383.430	148.381	494.799	209.619	332.843	388.739	426.848	0.00079794	0.00036417	0.0001105	483.34	3.1864e-06	3.075e-06	628.87	168.62	3.2303e-06	4.7602e-06	260.43	115.45	72.214	32.507	5.0732e-06	54.456	0.0006842	0.00063526	0.00017639	533.35	6.4592e-06	6.6817e-06	694.72	186.58	6.4135e-06	7.1162e-06	289.4	128.54	80.291	36.414	6.8579e-06	61.231	163.578	231.499	235.533	161.360	284.747	313.437	160.498	166.070	262.713	287.214	164.582	168.366	170.273	175.088	283.518	172.729	-8191	255	
2910.910	1	1	0	0	0.27053	0.13986	0.047667	0.068453	0.14852	0.14144	0.26198	0.20532	0.09379	0.28749	0.069454	0.30436	0.2276	0.21131	0.1713	0.06941	-2.6417	-2.3854	-2.3646	-2.9625	-2.3521	-2.5708	-2.8125	-2.0146	-2.8771	-2.5396	-2.3667	-3.1417	-2.25	-2.7188	-2.8375	-2.1417	352.907	315.097	195.916	364.996	399.496	410.234	468.838	492.997	194.620	255.738	236.560	477.772	481.177	444.030	504.496	364.640	0.00078005	0.00041598	8.7811e-05	483.53	3.8179e-06	3.0462e-06	630.06	168.9	2.7722e-06	3.5484e-06	260.38	115.26	71.989	32.263	2.9753e-06	54.054	0.00068732	0.000617	0.00017996	535.16	6.4212e-06	6.6805e-06	696.16	186.93	6.4277e-06	6.9552e-06	289.05	127.99	79.945	36.17	6.7385e-06	60.701	161.646	257.356	240.637	161.296	299.909	287.909	160.752	166.019	281.793	301.127	164.638	168.269	169.821	174.692	291.420	172.660	-8191	255	
2911.006	1	1	0	0	0.18323	0.012524	0.12948	0.071386	0.24909	0.16322	0.15429	0.16134	0.1222	0.17709	0.11942	0.18384	0.077348	0.30531	0.17004	0.17603	-2.6833	-2.5792	-2.1542	-3.1375	-2.3354	-2.4021	-2.9771	-2.0792	-2.6125	-2.6542	-2.0854	-3.0604	-2.125	-2.5833	-3.0479	-2.0229	261.718	391.491	257.242	199.834	154.152	294.415	165.260	159.461	430.565	442.144	265.441	401.705	337.564	162.440	295.432	152.955	0.0007471	0.00042148	9.258e-05	482.94	3.4163e-06	4.0766e-06	625.06	167.79	2.7893e-06	4.2234e-06	259.7	114.6	71.818	32.087	3.4942e-06	53.56	0.00068985	0.0006375	0.00017858	532.38	6.3498e-06	6.9104e-06	690.98	185.84	6.2703e-06	7.1211e-06	287.61	127.27	79.651	35.935	6.8781e-06	60.113	161.302	236.137	237.296	161.359	284.649	318.899	160.610	165.926	280.057	320.373	164.882	168.395	169.706	174.687	294.820	172.591	-8191	255	
2911.102	1	1	0	0	0.30548	0.23962	0.29787	0.055049	0.097046	0.12452	0.15716	0.054518	0.24901	0.29529	0.063607	0.069638	0.19353	0.18669	0.15548	0.20454	-2.4458	-2.7	-2.1708	-2.9979	-2.45	-2.3625	-3.0812	-2.1167	-2.4833	-2.8187	-2.1458	-2.8063	-2.3688	-2.3875	-2.8667	-2.2375	244.367	502.102	317.362	357.350	183.477	431.316	406.011	293.665	326.967	191.759	481.887	171.362	163.522	379.999	349.052	448.117	0.00077694	0.00032844	0.00010949	475.88	3.2721e-06	2.9614e-06	619.36	167.29	3.9494e-06	3.4476e-06	257.28	114.55	71.729	31.978	3.8748e-06	54	0.00069571	0.00064759	0.00018455	525.6	6.4352e-06	7.1199e-06	684.74	184.76	6.7342e-06	7.1114e-06	286	127.08	79.505	35.86	6.9129e-06	60.441	163.423	229.662	226.053	161.473	284.729	308.772	160.647	165.871	281.196	302.673	164.905	168.530	169.954	174.716	289.207	172.481	-8191	255	
2911.198	1	1	0	0	0.11032	0.15143	0.13314	0.23948	0.11546	0.058859	0.18057	0.29321	0.18657	0.032982	0.16622	0.10422	0.27816	0.095765	0.072925	0.21967	-2.1875	-2.8229	-2.2313	-2.9271	-2.4521	-2.2104	-3.0563	-2.2521	-2.4583	-2.7812	-2.2396	-2.7729	-2.7146	-2.4	-2.8792	-2.5187	217.207	211.147	433.918	193.656	249.816	248.328	438.053	447.714	263.008	419.094	464.538	452.939	212.894	321.973	183.714	366.714	0.00079517	0.0003387	8.1251e-05	480.31	3.0992e-06	3.7832e-06	626.35	167.95	3.8017e-06	2.2713e-06	259.74	116.12	72.677	32.662	3.8002e-06	54.8	0.00070885	0.00064588	0.00018547	528.64	6.5549e-06	7.0923e-06	691	186.2	6.5973e-06	7.0342e-06	289.16	128.97	80.534	36.606	6.859e-06	61.675	161.940	234.778	243.196	161.236	280.065	302.135	160.628	166.080	286.076	310.176	165.144	168.417	169.864	174.874	278.213	172.693	-8191	255	
2911.294	1	1	0	0	0.22581	0.074635	0.27538	0.064906	0.25753	0.28872	0.23242	0.2507	0.18473	0.12977	0.068432	0.296	0.10155	0.085868	0.12624	0.018441	-2.1583	-3.0958	-2.0208	-2.7396	-2.6	-2.1688	-3.0271	-2.3146	-2.5729	-3.0646	-2.1437	-2.7042	-2.5729	-2.1979	-2.8833	-2.4104	191.953	485.025	469.655	269.755	493.217	456.311	486.188	200.185	385.556	248.108	350.457	210.614	428.526	177.876	172.813	351.779	0.00078758	0.00040101	9.6568e-05	491.68	3.0039e-06	3.3123e-06	634.72	169.19	3.7251e-06	2.6739e-06	261.09	116.06	72.93	32.977	3.2773e-06	55.045	0.00069601	0.00062208	0.00017373	543.78	6.3556e-06	7.0497e-06	702.98	187.8	6.6426e-06	6.9072e-06	290.15	129.42	80.982	36.931	6.7043e-06	61.873	161.493	238.580	251.530	161.426	295.066	305.298	160.607	165.856	275.961	285.344	164.863	168.274	169.924	174.813	283.530	172.698	-8191	255	
2911.391	1	1	0	0	0.033666	0.16643	0.078471	0.093692	0.26095	0.33673	0.25523	0.084493	0.1718	0.29066	0.13558	0.15905	0.26446	0.16532	0.13544	0.2451	-1.9875	-3.0458	-2.1667	-2.6	-2.7479	-2.1375	-3.1125	-2.7646	-2.2021	-2.9458	-2.2667	-2.8521	-2.9313	-2.0021	-2.9958	-2.5458	472.013	482.823	377.178	498.353	215.586	390.454	193.291	388.418	345.981	248.527	214.464	483.060	403.194	179.142	416.302	175.813	0.00079727	0.00040337	9.3895e-05	495.42	3.7343e-06	3.2627e-06	637.17	169.61	3.7062e-06	3.3119e-06	262.83	117.44	73.428	33.094	3.2957e-06	55.552	0.00071873	0.00061631	0.00017494	546.3	6.279e-06	7.1547e-06	705.94	188.29	6.6505e-06	6.9473e-06	291.48	130.39	81.675	37.167	6.7228e-06	62.471	161.807	239.587	231.196	161.247	283.749	308.775	160.709	165.807	278.530	312.050	164.927	168.521	169.963	174.659	286.542	172.586	-8191	255	
2911.487	1	1	0	0	0.34077	0.2376	0.14354	0.19057	0.065845	0.20042	0.051921	0.41088	0.15309	0.097381	0.34115	0.25127	0.30194	0.21974	0.097548	0.10495	-1.8292	-2.9292	-2.1312	-2.4188	-3.0375	-2.0083	-2.9021	-2.7208	-2.0833	-3.1437	-2.4688	-2.6437	-3.0375	-2.3438	-2.6208	-2.7188	230.260	326.324	148.361	403.641	366.068	298.936	474.834	448.537	477.916	286.628	433.069	189.415	471.679	472.091	359.348	163.683	0.00082218	0.00040247	7.6692e-05	500.47	3.2767e-06	4.1292e-06	646.15	171.92	4.3498e-06	3.4587e-06	266.06	119.04	74.401	33.533	3.2909e-06	56	0.00072364	0.00060793	0.00017559	552.22	6.2853e-06	7.1295e-06	712.8	190.27	6.6447e-06	6.8277e-06	294.8	132.02	82.571	37.501	6.8568e-06	62.775	162.768	236.924	246.268	161.470	289.431	305.300	160.921	166.083	284.499	311.218	164.764	168.725	170.017	174.892	283.906	172.670	-8191	255	
2911.606	1	1	0	0	0.056164	0.12654	0.085395	0.11341	0.18518	0.060703	0.19012	0.17322	0.24581	0.23666	0.038903	0.054644	0.11306	0.16172	0.20943	0.17939	-1.6979	-2.9271	-2.3521	-2.45	-3.05	-2.1437	-2.8979	-2.8229	-2.1479	-2.9813	-2.4646	-2.4979	-3.2333	-2.2479	-2.7146	-2.8333	265.650	340.438	473.663	420.237	449.391	262.745	365.677	506.554	504.998	163.002	421.847	427.818	470.035	505.095	209.254	193.183	0.0008071	0.00032113	9.7469e-05	501.12	3.4868e-06	4.2634e-06	645.07	172.57	3.6941e-06	4.3848e-06	264.74	118.46	74.473	33.143	3.4227e-06	55.433	0.00071314	0.00060579	0.00017741	551.41	6.2322e-06	7.0647e-06	711.48	190.77	6.7337e-06	6.8034e-06	294.2	131.78	82.574	37.299	7.0609e-06	62.323	163.183	226.801	245.700	161.379	301.365	311.741	160.671	165.875	276.236	301.388	164.592	168.243	169.671	174.813	289.308	172.273	-8191	255	
2911.702	1	1	0	0	0.068375	0.052977	0.18511	0.14323	0.018014	0.091541	0.32865	0.20594	0.16244	0.27905	0.41647	0.059306	0.088893	0.23265	0.23324	0.35694	-1.7667	-2.8875	-2.3417	-2.1979	-2.9146	-2.2542	-2.7271	-2.975	-2.1396	-3.0083	-2.6333	-2.2083	-3.0458	-2.3521	-2.4437	-2.8625	278.923	179.098	473.105	270.161	373.474	440.816	414.169	188.092	502.309	232.446	424.037	285.745	492.671	440.737	477.694	440.906	0.00078617	0.00036667	8.3977e-05	497.58	4.3346e-06	3.9981e-06	639.47	171.58	3.6809e-06	3.1407e-06	264.16	118.15	73.844	33.1	4.1442e-06	55.193	0.00072274	0.00060916	0.00017913	547.57	6.3233e-06	7.0761e-06	707.19	189.9	6.5957e-06	7.1551e-06	293.58	131.17	82.282	37.095	7.053e-06	61.958	162.079	237.588	251.440	161.062	280.921	297.846	160.619	165.843	287.479	304.220	164.623	168.386	169.930	174.644	283.897	172.328	-8191	255	
2911.798	1	1	0	0	0.12686	0.2097	0.15323	0.32415	0.35836	0.21368	0.087947	0.15457	0.063463	0.22655	0.17532	0.3568	0.063405	0.16221	0.19962	0.10292	-1.5792	-2.7562	-2.6083	-2.1437	-3.075	-2.2167	-2.5292	-2.9938	-2.1354	-2.7833	-2.6458	-2.15	-2.9208	-2.4708	-2.4417	-3.0458	444.035	178.103	194.887	496.007	507.739	346.194	392.063	421.234	233.793	469.112	265.660	449.323	389.254	381.044	277.520	452.650	0.0007946	0.00035775	0.0001045	496.74	2.7245e-06	3.5857e-06	641.56	172.35	4.1805e-06	3.7459e-06	265.14	118.41	74.677	33.179	3.0006e-06	55.431	0.00071456	0.0006312	0.00017732	547.75	6.0979e-06	7.0671e-06	709.27	190.7	6.6568e-06	7.0221e-06	293.9	131.83	82.712	37.2	7.1999e-06	62.267	162.336	235.622	242.954	161.110	267.384	288.042	160.655	165.780	273.188	290.340	164.836	168.453	169.934	174.637	281.577	172.276	-8191	255	
2911.894	1	1	0	0	0.02225	0.20376	0.12203	0.10175	0.058717	0.15627	0.13088	0.083883	0.14294	0.13096	0.052156	0.28578	0.05852	0.19403	0.20698	0.32436	-1.7563	-2.7042	-2.6833	-2.0729	-3.0292	-2.3688	-2.4833	-3.0333	-2.1792	-2.6604	-3.075	-2.0625	-2.9646	-2.5062	-2.2229	-3.225	489.546	321.476	365.252	171.520	497.675	303.840	450.115	476.987	302.230	407.089	495.458	148.029	417.069	437.675	492.805	453.815	0.00081616	0.00035267	9.6467e-05	496.59	3.0651e-06	3.4297e-06	641.95	172.42	4.9289e-06	3.5965e-06	266.29	119.14	75.014	33.435	3.9577e-06	55.571	0.0007278	0.00064476	0.00017877	546.69	6.2379e-06	7.0263e-06	708.66	191.11	6.858e-06	7.2183e-06	295.43	132.46	82.993	37.487	7.2879e-06	62.565	160.321	231.063	246.530	161.207	290.498	307.842	160.757	165.849	273.839	303.954	164.502	168.359	169.843	174.292	288.323	172.404	-8191	255	
2911.990	1	1	0	0	0.085465	0.16846	0.11132	0.25286	0.33242	0.11989	0.10953	0.26322	0.3211	0.18431	0.15248	0.20601	0.16199	0.26562	0.14356	0.26793	-1.7458	-2.5771	-2.8854	-2.0854	-2.8958	-2.5042	-2.2333	-2.8563	-2.2875	-2.3667	-2.95	-1.9958	-2.7583	-2.6333	-2.2042	-3.1896	330.609	357.452	180.248	428.567	409.203	494.048	462.340	267.381	423.235	269.215	163.823	215.178	409.655	368.740	263.112	159.553	0.00081162	0.0003659	0.00010942	496.88	3.4576e-06	3.274e-06	641.29	172.83	3.8298e-06	4.9026e-06	265.78	118.88	74.912	33.441	3.0207e-06	55.931	0.00071427	0.00064626	0.00017644	548.4	6.2921e-06	7.1739e-06	709.01	191.17	6.7448e-06	7.3021e-06	295.01	132.24	83.026	37.517	7.1494e-06	62.702	162.344	226.772	252.850	161.268	283.908	290.262	160.658	165.914	264.698	309.544	164.790	168.230	169.736	174.434	269.329	172.496	-8191	255	
2912.109	1	1	0	0	0.24228	0.064076	0.12448	0.19425	0.13383	0.058277	0.20229	0.29079	0.16995	0.060111	0.089548	0.15074	0.061998	0.12516	0.22533	0.16912	-1.8854	-2.3458	-2.8438	-2.1917	-2.8125	-2.7875	-2.1	-3.0062	-2.2958	-2.5187	-2.9813	-2.3396	-2.8417	-2.6604	-2.1292	-3.2292	501.372	278.394	311.199	409.189	374.114	298.600	406.417	467.756	234.436	339.757	349.811	212.032	228.233	475.727	161.206	466.525	0.0007909	0.00038569	0.00012995	503.09	3.3363e-06	4.8032e-06	650.92	173.11	3.8536e-06	2.6537e-06	265.74	118.81	74.588	33.492	4.1859e-06	55.789	0.00071626	0.00065208	0.00017865	556.43	6.3982e-06	7.1439e-06	718.14	191.62	6.7674e-06	7.3106e-06	295.48	132.27	82.862	37.55	7.2812e-06	62.744	162.242	239.665	236.515	160.945	285.756	295.937	160.520	165.589	276.142	286.147	164.562	168.164	169.848	174.469	283.530	172.460	-8191	255	
2912.205	1	1	0	0	0.25809	0.29475	0.11539	0.1577	0.15894	0.21013	0.17192	0.41361	0.14573	0.23412	0.10808	0.14243	0.10881	0.40061	0.25226	0.26148	-2.0104	-2.2729	-2.7771	-1.9833	-2.7479	-2.7167	-2.0708	-2.8458	-2.475	-2.2708	-2.9604	-2.0146	-2.5583	-2.9437	-2.0021	-2.9958	365.157	239.146	268.098	452.301	224.941	338.788	244.777	479.316	296.067	344.115	353.611	211.351	213.931	470.394	173.515	501.437	0.00080307	0.00023183	9.4971e-05	504.17	3.2701e-06	2.938e-06	648.89	172.57	2.4728e-06	3.932e-06	265.69	118.94	74.329	33.48	2.5071e-06	56.37	0.00071454	0.00066174	0.00017592	557.15	6.4909e-06	6.9416e-06	717.48	191.2	6.5362e-06	7.3233e-06	295.44	131.83	82.616	37.567	7.1276e-06	63.105	162.890	225.474	237.862	161.039	277.992	302.397	160.478	165.685	269.418	289.589	164.795	168.306	169.792	174.689	286.814	172.416	-8191	255	
2912.301	1	1	0	0	0.072227	0.15848	0.21103	0.148	0.12628	0.055911	0.23309	0.10734	0.17893	0.17843	0.34896	0.30261	0.22892	0.23947	0.27745	0.13552	-2.2625	-2.0042	-3.0875	-2.3812	-2.6396	-2.9437	-2.0479	-2.9104	-2.6229	-2.1521	-3.1417	-2.3479	-2.3542	-2.9479	-2.1375	-2.8333	475.209	289.123	153.900	475.608	267.710	335.935	428.610	193.691	300.893	428.195	496.615	467.081	174.528	170.012	168.086	401.654	0.0008138	0.00042602	9.0908e-05	510.73	2.6937e-06	5.2156e-06	654.25	173.46	3.7819e-06	3.3415e-06	267.75	120.41	75.689	34.146	3.5655e-06	57.185	0.00070665	0.00063281	0.00017026	563.02	6.5258e-06	6.8456e-06	724.05	192.57	6.6373e-06	7.3112e-06	297.85	133.68	83.87	38.274	7.3104e-06	64.156	162.173	236.868	242.533	160.962	278.280	295.090	160.510	165.880	269.286	304.797	164.738	168.425	169.844	174.733	291.064	172.507	-8191	255	
2912.398	1	1	0	0	0.072564	0.17658	0.21634	0.15916	0.19072	0.061716	0.28213	0.084087	0.19199	0.092922	0.10816	0.15932	0.35348	0.24482	0.049159	0.30131	-2.3583	-1.9646	-2.8688	-2.5854	-2.3979	-2.8146	-2.1333	-2.7417	-2.7479	-2.0104	-2.9958	-2.4292	-2.2125	-2.9437	-1.9188	-2.8021	205.704	411.670	205.857	506.055	264.142	287.832	259.212	264.067	152.650	228.006	498.726	497.378	150.715	469.931	243.595	233.225	0.00082983	0.00043394	0.00011044	522.7	3.178e-06	4.6492e-06	669.91	176.7	2.7884e-06	4.1567e-06	272.75	121.67	76.182	34.603	3.9241e-06	57.394	0.00071787	0.0006643	0.00017191	576.24	6.5799e-06	6.9476e-06	738.04	195.61	6.7658e-06	7.406e-06	301.47	135.43	84.735	38.68	6.9975e-06	64.491	161.947	230.369	228.361	160.896	275.386	302.390	160.474	165.701	261.691	323.122	164.671	168.336	169.994	174.708	288.160	172.534	-8191	255	
2912.494	1	1	0	0	0.15508	0.2496	0.13388	0.20299	0.25323	0.18745	0.24557	0.19652	0.15212	0.13124	0.07079	0.21264	0.23606	0.2382	0.35856	0.28966	-2.2521	-1.95	-2.8396	-2.4083	-2.2042	-2.8479	-2.2396	-2.5229	-2.9062	-2.1479	-2.7896	-2.5021	-2.1417	-3.0792	-2.2271	-2.6542	366.968	369.121	336.593	459.044	254.580	363.064	320.198	398.612	329.850	392.794	453.583	470.949	414.229	324.446	415.381	336.007	0.00085273	0.00043819	9.8303e-05	521.37	3.9016e-06	3.9561e-06	663.08	176.1	3.8659e-06	5.0161e-06	270.02	120.65	75.949	34.054	3.3095e-06	56.959	0.00072063	0.00065133	0.00017623	575.72	6.4992e-06	6.866e-06	733.84	194.78	6.6731e-06	7.163e-06	299.84	134.34	84.182	38.246	6.9846e-06	63.911	161.508	246.642	263.698	160.865	265.366	293.235	160.549	165.635	279.374	309.410	164.663	168.214	169.818	174.800	276.428	172.521	-8191	255	
2912.590	1	1	0	0	0.44956	0.22331	0.085557	0.18874	0.11916	0.218	0.10997	0.080992	0.058747	0.18849	0.2845	0.20178	0.23214	0.11317	0.28045	0.03579	-2.5729	-2.0104	-2.7562	-2.6312	-2.1188	-2.9417	-2.3958	-2.5479	-2.775	-2.3229	-2.7167	-2.7687	-2.0187	-3.1271	-2.2562	-2.5104	301.412	258.168	296.258	389.271	305.698	243.207	171.762	196.712	493.894	311.080	387.783	479.973	269.300	497.112	248.170	374.822	0.000826	0.00034565	7.1972e-05	514.22	4.3259e-06	3.1827e-06	657.61	175.05	4.4797e-06	3.8269e-06	268.82	119.62	75.08	33.923	3.8342e-06	56.246	0.00071552	0.00064044	0.00016701	567.3	6.5206e-06	6.7567e-06	725.82	193.58	6.3082e-06	7.2395e-06	298.52	133.37	83.507	37.975	6.7744e-06	63.299	162.469	233.609	227.578	161.003	278.581	302.865	160.650	165.839	272.491	295.228	164.993	168.367	169.888	174.602	278.789	172.588	-8191	255	
2912.686	1	1	0	0	0.27291	0.28181	0.092347	0.24071	0.075604	0.1415	0.26924	0.06746	0.14164	0.26149	0.084172	0.10639	0.071521	0.17362	0.203	0.23077	-2.6542	-1.9729	-2.5646	-2.7583	-1.8937	-2.8458	-2.4083	-2.3333	-3.0187	-2.1542	-2.6083	-2.825	-2.0312	-2.9208	-2.4292	-2.2979	222.311	483.750	254.053	461.573	325.564	162.993	435.121	302.200	248.263	462.367	174.984	278.066	253.301	403.465	452.967	399.109	0.000807	0.00038172	0.00010731	506.14	2.8485e-06	4.2913e-06	650.66	173.59	4.1493e-06	3.7228e-06	268.05	119.16	74.675	33.807	3.5822e-06	56.265	0.00068863	0.00062352	0.00017389	559.2	6.3868e-06	6.6343e-06	719.9	192.17	6.2165e-06	7.0336e-06	296.89	132.53	83.064	37.828	6.8663e-06	63.22	161.684	236.573	249.499	161.334	296.678	300.770	160.566	165.974	278.060	303.119	164.900	168.229	170.090	174.644	282.332	172.542	-8191	255	
2912.782	1	1	0	0	0.072496	0.085218	0.16045	0.1927	0.16327	0.26656	0.30905	0.04954	0.068725	0.11428	0.089256	0.11142	0.1798	0.11153	0.28126	0.063643	-2.575	-2.0625	-2.5854	-2.8688	-2.2229	-2.7042	-2.6479	-2.0896	-3.0438	-2.1271	-2.7771	-2.7542	-2.1521	-2.7521	-2.6188	-2.2729	326.419	255.183	212.829	333.465	191.910	332.439	149.979	169.015	493.108	199.265	326.689	253.101	246.729	412.399	494.489	277.566	0.00083984	0.00040188	8.7647e-05	511.02	2.747e-06	3.4551e-06	653.31	174.36	3.9154e-06	4.5325e-06	268.4	120.05	75.45	33.916	3.619e-06	56.592	0.00069598	0.00062101	0.000172	562.62	6.1921e-06	6.6877e-06	722.54	192.98	6.0359e-06	6.9036e-06	298.02	133.55	83.618	38.005	6.6959e-06	63.447	162.704	243.357	229.732	160.860	284.904	308.507	160.633	165.964	273.539	301.676	164.702	168.344	169.727	174.772	286.417	172.440	-8191	255	
2912.901	1	1	0	0	0.23243	0.10234	0.15657	0.14721	0.40936	0.041051	0.1627	0.10035	0.060549	0.038838	0.23805	0.19618	0.14715	0.22351	0.25475	0.053546	-2.6104	-2.3583	-2.3625	-2.9979	-2.2125	-2.7667	-2.8646	-2.1021	-3.0312	-2.4729	-2.5187	-3.0104	-2	-2.8167	-2.7625	-2.0062	269.151	179.710	159.737	432.438	377.965	364.280	365.966	389.003	385.144	376.820	410.629	158.386	404.286	461.084	491.178	293.041	0.0008017	0.0002915	0.00010689	505.55	3.243e-06	3.6019e-06	647.99	173.8	3.0648e-06	4.0035e-06	267.02	119.82	75.396	33.892	4.3249e-06	56.64	0.0007027	0.00060905	0.00017604	558.73	6.2572e-06	6.6673e-06	717.13	192.34	6.1876e-06	6.8198e-06	296.92	133.2	83.454	37.926	6.7301e-06	63.497	160.705	235.991	236.504	161.091	277.112	291.912	160.446	165.922	282.073	302.331	164.703	168.241	170.040	174.696	279.611	172.678	-8191	255	
2912.997	1	1	0	0	0.40239	0.18651	0.17683	0.088744	0.19487	0.14474	0.14489	0.19789	0.11676	0.16794	0.15019	0.26161	0.1915	0.22372	0.33975	0.11012	-2.6417	-2.4062	-2.1937	-3.0271	-2.2292	-2.6833	-2.9646	-2.2062	-2.7542	-2.4583	-2.4437	-2.9583	-2.3583	-2.6688	-2.9417	-2.2771	412.818	435.939	169.175	313.490	276.551	479.711	218.040	427.975	386.519	373.223	228.970	400.112	171.521	474.019	162.402	500.176	0.00080832	0.00043327	9.8711e-05	507.11	3.0138e-06	2.7519e-06	656.19	174.97	3.3961e-06	4.4583e-06	269.93	121.28	76.159	34.467	3.579e-06	57.641	0.00069074	0.00061818	0.00017222	560.61	6.3212e-06	6.8678e-06	722.3	193.4	6.2197e-06	6.7645e-06	299.51	134.77	84.466	38.641	6.7273e-06	64.662	161.590	233.119	236.206	160.841	291.627	299.958	160.399	165.952	271.525	309.239	164.807	168.381	169.832	174.757	284.288	172.459	-8191	255	
2913.093	1	1	0	0	0.33964	0.16167	0.27393	0.24187	0.22336	0.17503	0.2094	0.19944	0.13836	0.11094	0.20908	0.087741	0.05565	0.28849	0.12647	0.19553	-2.4646	-2.6167	-2.1167	-2.8896	-2.2438	-2.5083	-3.0708	-2.1896	-2.7875	-2.9396	-2.0792	-3.0292	-2.4729	-2.3729	-3.0667	-2.2708	485.102	472.197	222.169	465.181	263.057	166.330	193.743	270.148	332.433	298.646	171.150	489.190	220.037	399.677	289.625	421.675	0.00083136	0.00047906	7.8432e-05	516.11	4.3802e-06	4.1574e-06	660.31	175.25	3.9965e-06	4.1107e-06	270.49	121.78	76.115	34.696	2.9147e-06	57.776	0.0007096	0.00061807	0.00017036	570.13	6.2587e-06	6.9356e-06	730.39	193.96	6.3219e-06	6.8167e-06	300.23	135.44	84.591	38.831	6.4755e-06	64.839	162.274	230.030	242.583	161.149	276.459	295.718	160.742	165.660	278.707	299.132	164.816	168.495	169.967	174.788	290.032	172.496	-8191	255	
2913.190	1	1	0	0	0.058143	0.08861	0.17458	0.34217	0.25536	0.10523	0.10129	0.18668	0.38886	0.32794	0.071159	0.225	0.23004	0.14375	0.19366	0.011428	-2.55	-2.6937	-2.0417	-3.1562	-2.3104	-2.3542	-3.0542	-2.2313	-2.7562	-2.7667	-2.3312	-3.0875	-2.5792	-2.2729	-3.0792	-2.3979	293.810	460.604	416.020	502.857	505.049	162.686	286.385	393.569	341.064	409.787	350.813	174.332	440.557	440.878	189.354	502.580	0.00082541	0.00048593	0.00011707	522.41	4.1007e-06	3.5327e-06	666.22	176.74	4.5223e-06	3.4177e-06	272.06	123	76.494	34.877	3.2672e-06	58.151	0.00072601	0.00062811	0.00017639	575.92	6.4113e-06	6.9296e-06	735.78	195.59	6.6642e-06	7.0482e-06	301.91	136.31	85.008	39.095	6.7351e-06	65.276	161.511	239.187	242.955	160.878	291.977	318.859	160.622	165.739	268.985	300.248	164.875	168.523	169.984	174.682	292.217	172.452	-8191	255	
2913.286	1	1	0	0	0.0092042	0.070943	0.18921	0.14284	0.11715	0.088042	0.025811	0.20875	0.23484	0.033201	0.19444	0.10795	0.16541	0.14289	0.30062	0.26361	-2.2125	-2.6208	-2.175	-3.1063	-2.4104	-2.2833	-3.0583	-2.1667	-2.5062	-3.0062	-2.2354	-2.8625	-2.6771	-2.1667	-2.875	-2.2854	258.097	277.261	316.380	159.732	223.601	237.106	359.983	455.719	157.846	205.113	159.575	427.770	446.728	242.231	392.049	388.352	0.00083859	0.00036543	9.2621e-05	515.92	4.6796e-06	3.7081e-06	657.34	175.73	3.4766e-06	3.9095e-06	270.64	121.37	76.036	34.363	4.5793e-06	57.323	0.00072203	0.00062837	0.0001769	571.14	6.4336e-06	7.1433e-06	729.08	194.51	6.6984e-06	7.118e-06	300.29	134.88	84.179	38.517	6.8871e-06	64.39	162.725	220.865	253.733	161.059	283.306	297.164	160.656	165.664	288.006	314.900	164.848	168.599	169.910	174.867	277.181	172.430	-8191	255	
2913.382	1	1	0	0	0.15743	0.039996	0.14715	0.033274	0.18918	0.15039	0.14659	0.1987	0.089799	0.21026	0.20414	0.41971	0.063879	0.27308	0.15226	0.098729	-2.0917	-2.875	-2.1813	-2.8688	-2.6396	-2.075	-2.9813	-2.2875	-2.4083	-2.925	-1.9771	-2.9104	-2.6521	-2.1542	-2.95	-2.4542	314.984	352.131	206.550	473.514	494.516	154.884	449.234	153.241	303.592	449.755	186.518	444.538	430.083	427.209	462.229	290.898	0.0008091	0.00038322	9.8023e-05	509.09	2.5175e-06	4.8843e-06	653.41	174.49	4.4606e-06	3.1652e-06	270.58	121.1	75.836	34.349	4.1554e-06	57.372	0.00071793	0.00063446	0.00018093	561.4	6.2598e-06	7.3432e-06	720.68	192.83	6.6847e-06	7.0208e-06	298.95	134.35	84.064	38.492	6.822e-06	64.442	162.243	243.622	246.861	161.224	275.803	299.388	160.646	165.722	278.469	298.296	164.785	168.412	169.658	174.693	287.082	172.393	-8191	255	
2913.478	1	1	0	0	0.24082	0.043261	0.39533	0.18555	0.011327	0.22461	0.21103	0.03725	0.050824	0.11925	0.092197	0.26046	0.085665	0.10124	0.10271	0.32365	-1.8438	-2.8167	-2.1771	-2.8438	-2.7854	-2.3	-2.8708	-2.5958	-2.3542	-3.0333	-2.2208	-2.6542	-2.8187	-2.2458	-2.9938	-2.65	224.934	252.420	451.966	285.709	453.935	258.011	149.578	182.588	271.392	432.114	374.033	151.193	208.882	390.885	358.952	429.017	0.00084737	0.00034982	9.3566e-05	512.66	3.6755e-06	4.7993e-06	655.78	174.97	4.4871e-06	4.1563e-06	270.56	122.08	76.437	34.503	4.1073e-06	57.594	0.00072435	0.00062458	0.00017415	564.84	6.4253e-06	7.1571e-06	725.16	193.41	6.6547e-06	6.9443e-06	300.04	135.44	84.657	38.725	6.8226e-06	64.595	163.041	241.285	244.365	160.970	302.356	314.170	160.741	165.604	269.281	293.691	164.814	168.391	169.631	174.403	282.756	172.293	-8191	255	
2913.599	1	1	0	0	0.11397	0.26309	0.14481	0.058612	0.08061	0.17325	0.12492	0.15815	0.3797	0.073764	0.057965	0.17019	0.08451	0.23206	0.10223	0.21551	-1.8375	-3.075	-2.2125	-2.5729	-2.7979	-1.9479	-3.1292	-2.6271	-2.1354	-3.0833	-2.5479	-2.5042	-2.8396	-2.125	-2.9437	-2.8688	185.716	439.065	382.820	464.706	218.618	435.916	168.856	413.137	452.722	386.239	461.662	182.999	185.777	210.581	201.016	484.816	0.00081746	0.00031343	0.00011769	508.57	3.8821e-06	5.1756e-06	652.96	174.39	3.379e-06	4.0927e-06	270.75	122.14	76.263	34.465	3.9448e-06	57.557	0.0007181	0.0006241	0.00017457	562.31	6.3373e-06	7.0395e-06	721.41	193.22	6.5568e-06	6.9388e-06	300.24	135.48	84.533	38.669	6.9543e-06	64.656	162.703	237.331	230.967	161.044	283.903	311.163	160.693	165.508	269.711	305.065	164.777	168.313	169.769	174.680	287.020	172.243	-8191	255	
2913.695	1	1	0	0	0.14119	0.12785	0.15514	0.029448	0.30372	0.12054	0.088638	0.31397	0.25512	0.2233	0.10528	0.074787	0.16795	0.27716	0.17983	0.15094	-1.9042	-2.8812	-2.3167	-2.5146	-3.0625	-2.0479	-2.8854	-2.7104	-2.0667	-2.9146	-2.4167	-2.225	-3.0583	-2.1937	-2.7042	-3.0062	490.535	483.791	435.996	469.505	357.638	431.261	456.913	480.069	420.849	297.327	424.478	251.102	203.040	448.101	240.426	381.133	0.00083016	0.00042799	7.7824e-05	511.52	3.452e-06	4.6451e-06	656.74	175.46	4.3309e-06	4.976e-06	270.02	121.87	76.116	34.386	4.5965e-06	57.397	0.00074954	0.00062416	0.00017505	564.28	6.4618e-06	7.1319e-06	725.48	194.2	6.7758e-06	7.0828e-06	300.53	135.39	84.598	38.554	7.016e-06	64.313	162.969	233.468	238.391	161.282	263.496	308.901	160.701	165.758	273.459	303.310	164.951	168.341	169.787	174.667	278.195	172.429	-8191	255	
2913.791	1	1	0	0	0.14723	0.16955	0.12984	0.2156	0.15576	0.26556	0.17854	0.03598	0.10969	0.069029	0.085797	0.34021	0.062724	0.031718	0.15211	0.20121	-1.7146	-2.7417	-2.3458	-2.3688	-2.9708	-2.0604	-2.6021	-2.7792	-2.2313	-3.0021	-2.5104	-2.3958	-3.0229	-2.4146	-2.5875	-3.2396	451.062	338.241	167.597	432.862	224.028	170.413	149.972	504.247	287.328	390.539	206.258	382.641	189.946	498.449	287.681	173.571	0.00085447	0.00036226	0.00010774	511.28	3.2685e-06	4.7985e-06	653.41	174.03	4.2452e-06	4.1398e-06	268.28	120.36	75.202	33.759	3.6652e-06	56.336	0.00073907	0.00062437	0.00018055	563.55	6.404e-06	7.1919e-06	721.45	193.18	6.8353e-06	7.0725e-06	298.14	133.76	83.62	37.936	7.1438e-06	63.223	162.038	227.087	248.395	160.985	290.182	314.212	160.678	165.732	277.415	304.500	164.755	168.340	169.751	174.712	281.062	172.448	-8191	255	
2913.887	1	1	0	0	0.14474	0.15034	0.048862	0.087291	0.21369	0.0010394	0.2912	0.16115	0.14794	0.029357	0.14455	0.027037	0.094852	0.095415	0.23881	0.14539	-1.6417	-2.9292	-2.7062	-2.05	-2.9271	-2.3417	-2.425	-3.0292	-1.9958	-2.7083	-2.7979	-2.1104	-3.1896	-2.3354	-2.4292	-2.9813	189.883	414.666	505.263	442.194	390.686	180.000	415.128	422.726	219.434	243.589	479.571	161.756	417.537	485.359	298.391	235.502	0.00081782	0.00049256	0.00010407	500.1	3.6041e-06	3.468e-06	643.44	172.73	4.6998e-06	2.9805e-06	265.04	118.87	74.312	33.367	3.9813e-06	55.376	0.00071329	0.00064257	0.00017571	551.39	6.2187e-06	6.8144e-06	710.3	190.66	6.6447e-06	6.8471e-06	294.7	131.86	82.306	37.284	6.9953e-06	62.224	161.998	230.144	243.812	161.073	283.098	303.096	160.688	165.894	285.216	317.623	164.697	168.241	169.935	174.787	270.618	172.612	-8191	255	
2913.981	1	1	0	0	0.33064	0.12677	0.14209	0.20607	0.055022	0.17826	0.026222	0.15613	0.26693	0.091525	0.097491	0.22153	0.089202	0.1595	0.18901	0.16277	-1.8021	-2.55	-2.5521	-2.0625	-2.7146	-2.4333	-2.3896	-3.025	-2.1208	-2.5958	-2.7542	-2.1354	-3.0125	-2.475	-2.3333	-2.925	268.462	279.483	403.523	215.985	464.682	166.811	472.377	497.987	436.726	149.345	228.461	495.097	317.462	159.053	326.413	397.210	0.00078953	0.00040466	7.6214e-05	492.64	3.1629e-06	4.0275e-06	638.71	171.93	3.7013e-06	3.9231e-06	265.62	117.73	73.793	33.421	3.3005e-06	55.725	0.0007079	0.0006233	0.00017246	543.81	6.2145e-06	6.8882e-06	704.02	189.97	6.6394e-06	7.0858e-06	294.17	131.2	82.075	37.313	7.1169e-06	62.389	163.593	229.928	243.561	161.446	266.986	305.532	160.628	165.896	273.785	289.934	164.553	168.382	170.055	174.571	292.453	172.520	-8191	255	
2914.078	1	1	0	0	0.1856	0.15034	0.30507	0.2085	0.16925	0.018483	0.2156	0.025363	0.21579	0.12524	0.037247	0.05644	0.12285	0.31445	0.073936	0.14251	-1.6458	-2.6646	-2.8333	-2.1063	-2.8	-2.4479	-2.2542	-3.1271	-2.3229	-2.5729	-2.95	-2.0292	-2.9521	-2.5354	-2.0979	-2.9938	279.199	157.713	427.914	443.278	333.166	345.866	408.622	390.885	442.882	425.568	390.184	485.573	152.340	185.356	507.277	490.975	0.00078836	0.00029837	9.4884e-05	495.71	2.6151e-06	2.3055e-06	639.55	171.47	2.8249e-06	3.7718e-06	264.49	117.9	73.992	33.198	3.6448e-06	55.164	0.00070588	0.0006335	0.00017307	547.06	6.2494e-06	7.1163e-06	707.4	189.83	6.4293e-06	7.1709e-06	293.6	130.95	81.937	37.111	7.0553e-06	61.906	161.740	229.403	231.355	161.384	285.155	304.924	160.734	166.124	268.432	296.946	164.974	168.505	169.812	174.609	281.973	172.491	-8191	255	
2914.198	1	1	0	0	0.20103	0.10969	0.19306	0.074663	0.063439	0.066009	0.34126	0.32963	0.36821	0.093928	0.14019	0.46657	0.023717	0.25794	0.15247	0.34129	-1.9292	-2.3312	-2.7854	-2.0333	-2.7313	-2.7042	-2.2292	-3.0187	-2.3229	-2.3479	-3.0542	-2.3	-2.7917	-2.8063	-2.025	-3.0542	501.952	334.451	304.451	196.603	171.455	156.609	504.980	440.027	173.372	318.209	220.064	458.975	451.126	204.830	327.634	436.076	0.00079518	0.00039247	8.5946e-05	495.17	3.5306e-06	3.7131e-06	639.01	171.05	3.8201e-06	3.4724e-06	264.74	117.89	73.617	33.141	3.5919e-06	55.456	0.00070094	0.00062197	0.00017029	546.88	6.3316e-06	6.9314e-06	707.27	189.28	6.3866e-06	6.9868e-06	293.49	131.04	81.947	37.104	6.9633e-06	62.116	162.922	237.810	247.545	161.249	283.979	297.313	160.656	165.771	279.468	315.914	164.641	168.346	169.771	174.577	288.805	172.529	-8191	255	
2914.294	1	1	0	0	0.13853	0.056745	0.16716	0.13389	0.26325	0.39351	0.22796	0.15493	0.1557	0.11237	0.25356	0.10042	0.14792	0.11074	0.052293	0.14812	-1.8813	-2.2833	-3.0375	-2.1667	-2.5083	-2.7333	-2.1146	-3.0146	-2.2625	-2.1396	-3.0167	-2.2542	-2.5438	-2.8646	-2.0854	-2.9771	179.776	209.283	476.621	285.105	292.923	411.127	439.954	185.518	433.846	349.294	449.089	193.274	434.581	413.127	260.285	425.202	0.00079359	0.00033121	0.00010185	496.06	2.5016e-06	4.166e-06	642.85	171.97	3.8535e-06	2.815e-06	267.11	118.96	74.416	33.586	3.739e-06	56.194	0.00070404	0.00062747	0.00016816	548	6.3821e-06	6.986e-06	710.27	190.01	6.5546e-06	7.2997e-06	295.53	132.32	82.683	37.515	6.8416e-06	62.929	160.729	222.781	242.707	161.139	264.814	293.978	160.695	166.056	267.458	303.809	164.964	168.545	169.998	174.819	271.344	172.491	-8191	255	
2914.366	1	1	0	0	0.11345	0.085561	0.091055	0.13557	0.21742	0.071674	0.2496	0.35154	0.040555	0.22996	0.2664	0.17244	0.087252	0.12107	0.20175	0.17606	-2.2792	-2.0458	-2.9625	-2.2458	-2.4646	-2.9125	-2.2958	-2.8542	-2.5396	-2.3042	-2.95	-2.2146	-2.475	-2.9333	-2.1833	-2.7875	178.479	501.978	275.493	471.252	435.242	430.229	407.036	500.141	495.766	267.712	222.040	432.215	457.919	304.425	389.312	180.960	0.00081086	0.00026002	0.0001101	503.77	3.2194e-06	2.3911e-06	650.54	173.41	3.9242e-06	3.2912e-06	267.51	119.07	74.661	33.488	3.4418e-06	55.92	0.00070939	0.00063056	0.0001669	557.07	6.4659e-06	6.6493e-06	718.14	191.87	6.4051e-06	7.2407e-06	296.87	132.64	82.875	37.509	6.9493e-06	62.614	162.743	242.902	225.986	161.181	282.013	296.887	160.607	165.990	267.776	296.100	164.827	168.448	169.954	174.832	286.355	172.613	-8191	255	
2914.462	1	1	0	0	0.12544	0.14984	0.14365	0.18184	0.22045	0.15419	0.11173	0.074624	0.16508	0.19764	0.33214	0.31936	0.12346	0.22134	0.24613	0.11589	-2.3042	-1.8917	-2.8875	-2.3063	-2.3333	-3.1083	-2.2708	-2.8208	-2.7042	-2.2313	-2.9979	-2.5625	-2.3271	-2.9229	-2.0792	-2.7646	411.158	331.089	278.939	225.349	453.610	254.304	445.305	317.246	388.870	295.569	471.839	413.408	169.494	241.717	339.341	281.296	0.00079301	0.00023187	0.0001027	502.17	3.8121e-06	3.3747e-06	644.23	172.27	3.2349e-06	3.5565e-06	264.99	118.31	73.881	33.23	4.4589e-06	55.377	0.00070433	0.00063355	0.00017233	554.1	6.505e-06	6.7867e-06	712.72	190.3	6.5947e-06	7.0919e-06	294.67	131.15	81.983	37.156	7.0827e-06	62.11	161.814	238.878	241.788	161.182	284.525	298.118	160.682	166.142	266.740	295.927	164.868	168.385	170.091	174.866	283.391	172.513	-8191	255	
2914.558	1	1	0	0	0.22541	0.072765	0.1297	0.21836	0.10506	0.12249	0.1492	0.11047	0.085969	0.15946	0.098782	0.25818	0.12133	0.031462	0.1156	0.21045	-2.3646	-2.0062	-3.0667	-2.5833	-2.2021	-3.0438	-2.35	-2.575	-3.0042	-2.1229	-2.8625	-2.625	-2.1958	-3.025	-2.2375	-2.4688	391.116	208.017	174.310	416.330	277.040	312.335	420.867	365.578	469.166	399.187	154.703	506.035	213.307	477.057	160.701	340.002	0.00080609	0.00036258	0.00011007	501.12	3.0397e-06	3.1955e-06	643.91	172.06	4.2836e-06	4.3699e-06	264.6	118.1	73.889	33.163	4.0258e-06	55.669	0.00070368	0.00063307	0.0001724	551.94	6.5419e-06	6.7369e-06	712.64	190.33	6.502e-06	7.1867e-06	295.09	131.34	82.198	37.231	6.863e-06	62.441	163.310	241.355	232.819	161.161	284.511	294.265	160.730	165.916	271.601	301.943	164.972	168.238	169.722	174.804	282.735	172.650	-8191	255	
2914.679	1	1	0	0	0.16247	0.30523	0.19755	0.096722	0.19341	0.11092	0.21792	0.30093	0.14474	0.2455	0.16631	0.21355	0.084471	0.23168	0.1592	0.21495	-2.6688	-1.9	-2.9333	-2.7896	-2.2146	-2.9646	-2.4625	-2.7479	-2.9542	-2.2167	-2.8688	-2.7104	-2.0542	-2.9542	-2.3792	-2.4813	161.852	483.202	249.821	487.433	330.715	402.445	407.206	499.714	162.973	487.660	445.676	424.607	307.926	180.599	251.840	162.827	0.00080254	0.0003039	0.00010107	504.05	3.2569e-06	4.3845e-06	649.81	172.59	4.3625e-06	3.9241e-06	266.2	118.49	74.235	33.36	3.6808e-06	55.621	0.0006963	0.00063019	0.00017205	557.02	6.3639e-06	6.7849e-06	717.01	191.07	6.3034e-06	7.1235e-06	295.59	131.7	82.356	37.296	7.053e-06	62.398	162.837	259.008	246.465	161.235	282.622	306.523	160.524	166.074	281.519	300.680	164.895	168.573	170.134	174.851	279.596	172.530	-8191	255	
2914.775	1	1	0	0	0.32241	0.19516	0.080803	0.26288	0.27164	0.18479	0.21103	0.19777	0.12777	0.18297	0.13568	0.096107	0.15826	0.22856	0.14488	0.22848	-2.6354	-2.0458	-2.6896	-2.8187	-2.1958	-2.8896	-2.6312	-2.375	-2.9646	-2.1625	-2.7271	-3.0396	-2.0062	-2.9708	-2.4292	-2.2875	431.017	401.187	264.060	178.214	245.646	479.828	468.979	504.232	275.707	451.943	384.445	361.509	377.703	462.767	430.247	175.759	0.00080916	0.00035129	9.1857e-05	502.26	3.3661e-06	3.931e-06	644.63	170.96	3.0986e-06	3.6895e-06	265.1	117.6	73.39	33.039	3.8809e-06	54.777	0.00070294	0.00063361	0.00017048	553.26	6.3998e-06	6.6727e-06	712.33	189.75	6.4551e-06	6.9844e-06	294.07	130.77	81.567	36.858	6.7082e-06	61.565	162.449	233.987	241.687	161.240	280.559	296.634	161.012	166.063	273.001	296.764	165.051	168.459	170.004	175.003	283.942	172.683	-8191	255	
2914.871	1	1	0	0	0.1323	0.18484	0.026999	0.055539	0.25471	0.21871	0.098893	0.12639	0.1498	0.056868	0.26872	0.085833	0.26396	0.094904	0.32601	0.18142	-2.6854	-2.1292	-2.4229	-2.9292	-1.9542	-2.8396	-2.6312	-2.1979	-3.0604	-2.3667	-2.5354	-2.9625	-2.2083	-2.8354	-2.6625	-2.2146	197.391	157.613	159.909	179.601	263.383	380.306	476.450	148.762	294.060	488.171	507.302	474.566	413.726	453.105	150.623	411.822	0.00080063	0.00038587	9.535e-05	496.88	3.1207e-06	4.2782e-06	640.57	171.01	4.1463e-06	3.4244e-06	264.37	117.13	73.269	32.661	3.474e-06	54.541	0.00069705	0.00063286	0.00017746	548.34	6.4998e-06	6.7609e-06	707.4	189.07	6.2824e-06	6.9145e-06	292.85	130.26	81.367	36.622	6.9224e-06	61.241	163.206	236.641	233.132	161.420	289.455	310.460	160.928	166.215	280.055	281.479	165.098	168.320	170.190	175.117	283.966	172.682	-8191	255	
2914.992	1	1	0	0	0.037227	0.13001	0.058361	0.126	0.22493	0.39781	0.17427	0.18323	0.14301	0.20928	0.21826	0.15563	0.25321	0.14281	0.22776	0.10352	-2.6583	-2.4417	-2.2375	-2.8646	-2.0229	-2.7792	-2.8021	-2.0729	-2.9458	-2.3542	-2.2938	-3.0479	-2.2104	-3.0479	-2.6917	-2.0708	469.998	218.668	505.095	214.075	301.024	165.013	412.268	428.925	438.886	240.381	377.182	448.289	283.628	486.557	208.256	156.612	0.00077951	0.00028991	0.00011342	495.28	3.4655e-06	4.5119e-06	634.93	170.41	3.5637e-06	3.7617e-06	263.12	116.55	72.85	32.498	3.9168e-06	54.596	0.00068248	0.00062731	0.000174	544.96	6.303e-06	6.7429e-06	703.46	188.32	6.3134e-06	6.9546e-06	291.62	129.59	80.948	36.47	6.5619e-06	61.218	162.887	242.370	234.283	161.159	279.791	308.007	160.627	165.858	278.204	315.466	164.948	168.394	169.887	175.020	292.660	172.770	-8191	255	
2915.064	1	1	0	0	0.065587	0.10754	0.083553	0.10669	0.22441	0.17006	0.17412	0.17887	0.16947	0.06111	0.03616	0.1257	0.2163	0.20042	0.13004	0.21974	-2.7188	-2.4188	-2.3729	-3.0979	-2.0104	-2.6104	-3.1083	-2.0771	-2.9	-2.5792	-2.3771	-3.0292	-2.3958	-2.5479	-2.8625	-2.1208	438.257	353.854	463.892	363.077	207.861	373.433	404.617	268.966	177.366	473.876	358.178	285.001	466.236	452.906	161.257	154.597	0.00078051	0.00022996	9.2895e-05	492.25	3.7825e-06	3.8337e-06	636.03	170.59	3.0451e-06	3.4114e-06	263.93	117.31	73.305	32.741	3.7045e-06	54.623	0.00068286	0.00060969	0.00017524	544.18	6.3769e-06	6.8792e-06	705.02	188.83	6.2655e-06	6.7335e-06	292.85	130.14	81.278	36.632	6.7419e-06	61.253	162.443	244.383	245.185	161.420	280.782	305.538	161.070	166.309	286.330	300.500	164.841	168.458	170.229	175.083	271.275	172.561	-8191	255	
#DATA ENDS
