BOXY.EXE: ISS Imagent and Oximeter Data Acquisition Program Version 0.80
Ascii Record File

#ACQ INFORMATION
2  Detector Channels 
16  External MUX Channels 
1  Auxiliary Channels 
5000  Waveform (CCF) Frequency (Hz)
1  Waveforms Skipped 
30  Waveforms Averaged 
1  Cycles Averaged 
16  Acquisitions per Waveform 
10.0806  Updata Rate (Hz) 

#FILE INFORMATION
TRUE -- External MUX Channel results are PARSED.
FALSE -- AC DC and Phase are NOT grouped.
TRUE -- Companion Program Settings File CREATED.
FALSE -- AC data not excluded
FALSE -- DC data not excluded
FALSE -- Phase data not excluded
FALSE -- Auxillary Chn. data not excluded
Tab delimiters

#CALIBRATION STATE
TRUE -- Waveform Calibration Values APPLIED.


#AUX CALIBRATION VALUES
Val Type	aux-1	

Term	1.0000e+00	
Factor	0.0000e+00	


#WF CALIBRATION VALUES
A = Detector Channel
Val Type	A-AC1	A-AC2	A-AC3	A-AC4	A-AC5	A-AC6	A-AC7	A-AC8	A-AC9	A-AC10	A-AC11	A-AC12	A-AC13	A-AC14	A-AC15	A-AC16	A-DC1	A-DC2	A-DC3	A-DC4	A-DC5	A-DC6	A-DC7	A-DC8	A-DC9	A-DC10	A-DC11	A-DC12	A-DC13	A-DC14	A-DC15	A-DC16	A-Ph1	A-Ph2	A-Ph3	A-Ph4	A-Ph5	A-Ph6	A-Ph7	A-Ph8	A-Ph9	A-Ph10	A-Ph11	A-Ph12	A-Ph13	A-Ph14	A-Ph15	A-Ph16	

Term	0.00000e+00	0.00000e+00	0.00000e+00	0.00000e+00	0.00000e+00	0.00000e+00	0.00000e+00	0.00000e+00	0.00000e+00	0.00000e+00	0.00000e+00	0.00000e+00	0.00000e+00	0.00000e+00	0.00000e+00	0.00000e+00	0.00000e+00	0.00000e+00	0.00000e+00	0.00000e+00	0.00000e+00	0.00000e+00	0.00000e+00	0.00000e+00	0.00000e+00	0.00000e+00	0.00000e+00	0.00000e+00	0.00000e+00	0.00000e+00	0.00000e+00	0.00000e+00	0.00000e+00	0.00000e+00	0.00000e+00	0.00000e+00	0.00000e+00	0.00000e+00	0.00000e+00	0.00000e+00	0.00000e+00	0.00000e+00	0.00000e+00	0.00000e+00	0.00000e+00	0.00000e+00	0.00000e+00	0.00000e+00	
Factor	1.00000e+00	1.00000e+00	1.00000e+00	1.00000e+00	1.00000e+00	1.00000e+00	1.00000e+00	1.00000e+00	1.00000e+00	1.00000e+00	1.00000e+00	1.00000e+00	1.00000e+00	1.00000e+00	1.00000e+00	1.00000e+00	1.00000e+00	1.00000e+00	1.00000e+00	1.00000e+00	1.00000e+00	1.00000e+00	1.00000e+00	1.00000e+00	1.00000e+00	1.00000e+00	1.00000e+00	1.00000e+00	1.00000e+00	1.00000e+00	1.00000e+00	1.00000e+00	X	X	X	X	X	X	X	X	X	X	X	X	X	X	X	X	

B = Detector Channel
Val Type	B-AC1	B-AC2	B-AC3	B-AC4	B-AC5	B-AC6	B-AC7	B-AC8	B-AC9	B-AC10	B-AC11	B-AC12	B-AC13	B-AC14	B-AC15	B-AC16	B-DC1	B-DC2	B-DC3	B-DC4	B-DC5	B-DC6	B-DC7	B-DC8	B-DC9	B-DC10	B-DC11	B-DC12	B-DC13	B-DC14	B-DC15	B-DC16	B-Ph1	B-Ph2	B-Ph3	B-Ph4	B-Ph5	B-Ph6	B-Ph7	B-Ph8	B-Ph9	B-Ph10	B-Ph11	B-Ph12	B-Ph13	B-Ph14	B-Ph15	B-Ph16	

Term	0.00000e+00	0.00000e+00	0.00000e+00	0.00000e+00	0.00000e+00	0.00000e+00	0.00000e+00	0.00000e+00	0.00000e+00	0.00000e+00	0.00000e+00	0.00000e+00	0.00000e+00	0.00000e+00	0.00000e+00	0.00000e+00	0.00000e+00	0.00000e+00	0.00000e+00	0.00000e+00	0.00000e+00	0.00000e+00	0.00000e+00	0.00000e+00	0.00000e+00	0.00000e+00	0.00000e+00	0.00000e+00	0.00000e+00	0.00000e+00	0.00000e+00	0.00000e+00	-1.55424e+02	-1.27235e+02	-1.24166e+02	-1.80391e+02	-7.40752e+01	-6.35377e+01	-1.56642e+02	-1.62015e+02	-7.80018e+01	-6.24457e+01	-1.75242e+02	-1.71364e+02	-1.79620e+02	-1.76316e+02	-7.26602e+01	-1.49562e+02	
Factor	2.32168e-05	1.44619e-04	3.90176e-05	1.53962e-01	1.28637e-06	1.68364e-06	1.74380e-01	5.13261e-02	1.26631e-06	1.62331e-06	9.43026e-02	3.18907e-02	2.43581e-02	9.34159e-03	1.41395e-06	1.29416e-02	1.42752e-05	2.56240e-05	7.09592e-06	7.92124e-02	2.49870e-07	2.88134e-07	8.45014e-02	2.65240e-02	2.52790e-07	2.91573e-07	4.71960e-02	1.60623e-02	1.27823e-02	4.86681e-03	2.69113e-07	6.54773e-03	X	X	X	X	X	X	X	X	X	X	X	X	X	X	X	X	



#DISTANCE SETTINGS
A = Detector Channel
A-1	A-2	A-3	A-4	A-5	A-6	A-7	A-8	A-9	A-10	A-11	A-12	A-13	A-14	A-15	A-16	

2.5000e+00	3.0000e+00	2.5000e+00	3.0000e+00	2.0000e+00	3.0000e+00	1.5000e+00	3.0000e+00	3.0000e+00	3.0000e+00	3.0000e+00	3.0000e+00	3.0000e+00	3.0000e+00	1.5000e+00	3.0000e+00	

B = Detector Channel
B-1	B-2	B-3	B-4	B-5	B-6	B-7	B-8	B-9	B-10	B-11	B-12	B-13	B-14	B-15	B-16	

1.0000e+01	1.0000e+01	1.0000e+01	1.4400e+00	1.0000e+01	1.0000e+01	1.5100e+00	1.9400e+00	1.0000e+01	1.0000e+01	1.9900e+00	2.4900e+00	2.4100e+00	2.9000e+00	1.0000e+01	2.9800e+00	




#DATA BEGINS
time	group	step	mark	flag	A-AC1	A-AC2	A-AC3	A-AC4	A-AC5	A-AC6	A-AC7	A-AC8	A-AC9	A-AC10	A-AC11	A-AC12	A-AC13	A-AC14	A-AC15	A-AC16	A-DC1	A-DC2	A-DC3	A-DC4	A-DC5	A-DC6	A-DC7	A-DC8	A-DC9	A-DC10	A-DC11	A-DC12	A-DC13	A-DC14	A-DC15	A-DC16	A-Ph1	A-Ph2	A-Ph3	A-Ph4	A-Ph5	A-Ph6	A-Ph7	A-Ph8	A-Ph9	A-Ph10	A-Ph11	A-Ph12	A-Ph13	A-Ph14	A-Ph15	A-Ph16	B-AC1	B-AC2	B-AC3	B-AC4	B-AC5	B-AC6	B-AC7	B-AC8	B-AC9	B-AC10	B-AC11	B-AC12	B-AC13	B-AC14	B-AC15	B-AC16	B-DC1	B-DC2	B-DC3	B-DC4	B-DC5	B-DC6	B-DC7	B-DC8	B-DC9	B-DC10	B-DC11	B-DC12	B-DC13	B-DC14	B-DC15	B-DC16	B-Ph1	B-Ph2	B-Ph3	B-Ph4	B-Ph5	B-Ph6	B-Ph7	B-Ph8	B-Ph9	B-Ph10	B-Ph11	B-Ph12	B-Ph13	B-Ph14	B-Ph15	B-Ph16	aux-1	digaux	

2889.591	1	1	0	256	0.17444	0.22253	0.25387	0.16715	0.039528	0.15383	0.11731	0.060562	0.072838	0.17501	0.13377	0.37348	0.082764	0.065656	0.1761	0.085553	-2.5354	-2.0125	-2.975	-2.7062	-2.0458	-3.2792	-2.35	-2.5167	-2.9813	-2.1167	-3.0438	-2.7125	-2.1396	-3.1583	-2.3292	-2.4562	287.034	331.142	295.821	160.687	277.723	417.919	382.179	355.477	328.447	154.148	159.654	448.108	433.940	357.020	426.471	271.974	0.00075584	0.00028694	0.000119	515.9	2.6725e-06	4.6458e-06	644.64	162.6	3.8818e-06	4.6713e-06	254.78	110.12	68.505	28.977	2.8874e-06	50.411	0.00072622	0.00072462	0.0001956	569.99	7.2832e-06	7.8024e-06	712.07	180.21	7.2983e-06	7.7965e-06	282.66	122.75	76.143	32.454	7.4472e-06	56.715	161.974	233.548	233.023	161.370	287.398	317.385	160.753	166.440	265.234	314.641	165.169	169.064	170.698	175.573	281.072	173.407	-8191	255	
2889.662	1	1	0	0	0.1878	0.26123	0.22008	0.041414	0.27934	0.1026	0.29426	0.32369	0.18554	0.23213	0.094852	0.16865	0.081103	0.1296	0.0076833	0.14046	-2.675	-2.3	-2.8354	-2.8542	-2.2021	-3.0667	-2.6833	-2.4708	-3.0896	-2.0271	-2.9208	-2.7958	-2.3104	-3.0792	-2.5542	-2.3854	267.844	413.450	392.671	326.668	341.098	170.179	325.507	464.710	473.951	335.491	441.363	435.636	466.489	352.553	299.753	445.793	0.00072745	0.00027526	9.401e-05	508.57	3.633e-06	3.8827e-06	635.61	161	3.1134e-06	3.583e-06	251.85	109.01	68.146	28.602	3.6491e-06	50.227	0.00071424	0.00069131	0.00019226	561.91	7.1864e-06	7.5947e-06	704.87	178.42	7.0955e-06	7.8585e-06	279.59	121.47	75.641	32.157	7.4959e-06	56.407	162.694	243.148	226.701	161.491	284.875	294.544	160.951	166.602	278.527	307.850	165.175	169.030	170.572	175.738	270.365	173.070	-8191	255	
2889.759	1	1	0	0	0.30004	0.024026	0.21511	0.12813	0.081471	0.134	0.2031	0.11692	0.17459	0.095362	0.31433	0.19771	0.18226	0.17854	0.21443	0.10595	-2.7104	-2.3396	-2.5125	-3.0229	-2.2438	-2.8896	-2.6625	-2.2604	-3.1083	-2.1708	-2.7438	-2.9437	-2.1188	-2.9271	-2.6375	-2.4458	328.565	149.922	280.888	303.515	210.862	165.182	495.864	363.311	299.523	433.686	437.845	453.508	207.908	265.833	487.786	318.209	0.00072727	0.00035799	0.00011653	510.07	2.6956e-06	3.7057e-06	640.73	161.01	3.8746e-06	3.9079e-06	251.81	109.92	68.311	28.838	2.5672e-06	50.639	0.00069975	0.00069676	0.00019403	563.88	7.0812e-06	7.6067e-06	708.12	178.57	6.9839e-06	7.8336e-06	280.17	122.02	75.927	32.313	7.4808e-06	56.79	165.798	227.339	238.969	161.414	280.256	302.420	160.835	166.054	262.632	305.661	165.210	169.109	170.466	175.697	293.719	173.276	-8191	255	
2889.879	1	1	0	0	0.19924	0.1615	0.18575	0.3076	0.254	0.13747	0.32529	0.21247	0.071554	0.13481	0.15531	0.12948	0.15736	0.1955	0.16118	0.058644	-2.4979	-2.1562	-2.5062	-3.0708	-2.2292	-2.9604	-2.7271	-2.1583	-2.9688	-2.425	-2.3521	-2.9833	-2.0229	-2.8833	-2.6021	-2.3333	318.579	166.196	374.365	194.741	279.578	328.693	430.907	365.425	252.988	333.640	214.936	365.314	169.072	435.615	209.848	365.483	0.00072688	0.00042788	8.6931e-05	514.98	3.2841e-06	3.1835e-06	644.69	162.55	3.8504e-06	4.0646e-06	253.84	110.06	68.602	28.773	3.2796e-06	50.494	0.00071391	0.00068752	0.00019294	568.57	6.987e-06	7.5083e-06	713.43	179.99	7.0112e-06	7.912e-06	282.17	122.61	76.163	32.355	7.5178e-06	56.669	161.695	234.166	225.335	161.495	293.534	301.949	160.684	166.134	279.301	310.757	165.046	168.985	170.227	175.521	285.863	173.033	-8191	255	
2889.974	1	1	0	0	0.33474	0.047389	0.20427	0.041389	0.019871	0.3025	0.14705	0.16827	0.12477	0.19279	0.28934	0.11582	0.29459	0.078684	0.10033	0.12238	-2.7188	-2.2542	-2.3667	-3.1917	-2.1292	-2.8833	-2.9562	-2.1979	-3.0604	-2.6292	-2.4542	-3.0229	-2.3208	-2.8292	-2.7604	-2.0125	323.377	288.775	447.288	436.742	201.363	358.937	454.008	447.572	367.969	233.743	225.764	490.742	457.114	451.367	218.218	444.964	0.00073267	0.00036594	9.2428e-05	512.11	3.3137e-06	3.0961e-06	642.83	161.74	3.0663e-06	3.1752e-06	252.52	109.53	68.382	28.76	3.2667e-06	50.377	0.00070871	0.0006879	0.00019372	565.16	7.2046e-06	7.7286e-06	709.54	178.96	7.0634e-06	7.768e-06	280.88	121.89	75.883	32.241	7.4763e-06	56.545	161.419	233.389	239.682	161.110	298.138	323.078	160.814	166.091	264.808	305.042	164.937	168.841	170.501	175.604	289.124	173.087	-8191	255	
2890.070	1	1	0	0	0.060539	0.026623	0.27804	0.1218	0.34369	0.088145	0.24313	0.21153	0.12496	0.17632	0.04459	0.10828	0.38862	0.02387	0.22531	0.2831	-2.5062	-2.525	-2.3563	-2.9417	-2.3375	-2.4479	-2.9125	-2.2333	-2.9375	-2.5812	-2.3312	-3.1104	-2.3708	-2.475	-3.1292	-2.4375	382.750	357.069	193.734	330.115	271.791	149.031	407.765	415.707	391.883	222.389	382.003	496.811	183.402	430.758	344.344	467.364	0.00073103	0.00042857	8.6274e-05	515.74	3.383e-06	4.1829e-06	650.98	162.99	3.9042e-06	3.8459e-06	255.09	110.76	69.143	28.967	3.2596e-06	51.064	0.00070505	0.00068251	0.00019997	570.24	7.1494e-06	7.7844e-06	719.18	180.27	7.164e-06	8.0146e-06	283.7	123.25	76.635	32.606	7.6137e-06	57.299	163.691	252.217	250.881	161.415	272.182	305.099	160.761	166.166	270.790	294.065	165.325	169.105	170.403	175.262	288.820	173.185	-8191	255	
2890.166	1	1	0	0	0.10227	0.067954	0.4358	0.12722	0.034282	0.037947	0.039376	0.13666	0.27644	0.20303	0.154	0.12248	0.12026	0.16021	0.16835	0.30349	-2.4062	-2.75	-2.225	-3.2354	-2.3229	-2.3208	-3.2104	-2.1625	-2.8333	-2.8542	-2.0687	-3.075	-2.4833	-2.5208	-3.0396	-2.2375	469.132	412.972	477.257	413.297	385.334	462.242	419.803	275.969	281.047	207.140	449.608	159.407	477.705	245.646	220.777	472.137	0.00075372	0.00036593	8.7927e-05	519.47	2.5743e-06	2.7607e-06	652.43	163.03	4.1307e-06	3.7279e-06	255.98	110.59	68.694	29.008	3.5087e-06	50.968	0.00071867	0.00071405	0.00019911	574.29	7.0807e-06	8.0335e-06	721.59	180.68	7.3441e-06	7.9314e-06	283.54	123.05	76.249	32.494	7.8559e-06	57.207	162.593	237.690	242.858	161.440	281.846	295.264	160.968	166.311	282.421	299.391	165.131	169.287	170.535	175.914	277.084	173.635	-8191	255	
2890.262	1	1	0	0	0.088996	0.015299	0.30044	0.15183	0.12681	0.1233	0.15214	0.071848	0.24718	0.28369	0.081503	0.14147	0.41842	0.2495	0.15199	0.30164	-2.3396	-2.9292	-2.1937	-2.9833	-2.5042	-2.2562	-3.1292	-2.2542	-2.6375	-3.0146	-2.025	-3.0604	-2.8	-2.325	-2.9104	-2.3583	344.981	244.043	184.539	259.000	282.849	245.364	193.519	504.130	291.108	506.009	360.175	491.442	158.078	152.850	246.428	373.112	0.00072865	0.00041685	0.00010071	517.4	2.7905e-06	2.9961e-06	647.97	162.56	4.5011e-06	4.317e-06	254.19	110.56	68.282	28.825	3.4237e-06	50.752	0.00072304	0.00072174	0.00019879	571.72	7.1791e-06	8.0161e-06	717.3	179.64	7.283e-06	7.9241e-06	282.06	122.55	75.96	32.364	7.6383e-06	56.924	162.357	218.322	236.026	161.597	289.176	298.961	161.018	166.455	276.796	313.222	165.326	169.316	170.798	176.145	280.521	173.630	-8191	255	
2890.358	1	1	0	0	0.30107	0.1303	0.10811	0.18517	0.10994	0.15089	0.041792	0.078586	0.35984	0.14242	0.17789	0.17136	0.21183	0.14132	0.17187	0.10921	-2.3063	-2.975	-2.2229	-3.0167	-2.7708	-2.2	-3.1479	-2.3625	-2.3375	-2.8583	-2.3375	-3	-2.6833	-2.1458	-3.0875	-2.6583	326.246	165.978	167.623	437.545	366.152	340.574	442.043	158.437	230.727	151.797	476.700	445.559	500.568	402.781	449.389	429.749	0.00072989	0.00027115	9.4202e-05	519.16	3.6471e-06	3.4956e-06	649.57	162.63	3.0364e-06	3.5072e-06	254.03	110.2	68.726	28.912	3.388e-06	50.603	0.00071912	0.00071806	0.00020448	571.86	7.2322e-06	8.1044e-06	718.56	179.85	7.4373e-06	8.1495e-06	282.82	122.89	76.275	32.489	7.7678e-06	57.081	161.981	230.027	238.834	161.649	284.558	316.964	161.137	166.499	267.793	297.308	165.259	169.413	170.481	175.895	299.644	173.273	-8191	255	
2890.454	1	1	0	0	0.24574	0.10851	0.036294	0.28169	0.04059	0.11645	0.14836	0.27936	0.070826	0.020002	0.068183	0.20539	0.32325	0.17806	0.20897	0.21688	-2.2313	-3.0333	-2.2292	-2.8604	-2.8042	-2.1604	-3.0375	-2.5542	-2.5396	-3.1146	-2.2729	-2.8167	-2.8125	-2.3646	-2.9479	-2.5854	206.110	351.993	195.996	255.458	452.208	305.276	416.789	280.931	337.417	384.763	307.174	427.018	461.350	302.505	381.996	458.570	0.00073265	0.00032575	0.00010245	518.11	3.047e-06	4.7595e-06	653.5	162.37	3.07e-06	4.2668e-06	255.6	110.85	68.925	29.05	4.43e-06	51.051	0.00072542	0.00070258	0.00020104	572.21	7.1531e-06	8.1056e-06	719.96	179.85	7.4773e-06	7.935e-06	283.68	123.51	76.591	32.619	7.732e-06	57.43	163.594	242.273	240.239	161.515	283.598	302.676	161.053	166.528	272.770	302.165	165.600	168.899	170.155	175.660	272.414	173.072	-8191	255	
2890.551	1	1	0	0	0.14161	0.16983	0.20927	0.092407	0.21635	0.24211	0.16932	0.15803	0.022973	0.081135	0.08446	0.13158	0.17577	0.1126	0.16749	0.1651	-2.0667	-2.9708	-2.2917	-2.7333	-2.7625	-2.2583	-2.875	-2.6312	-2.3625	-3.0667	-2.4146	-2.6479	-2.9375	-2.2729	-2.9896	-2.9083	153.370	473.686	313.241	477.694	256.945	301.270	234.953	505.730	481.910	431.674	358.782	176.431	367.481	498.282	406.707	163.259	0.0007283	0.00021848	7.9741e-05	517.72	3.7171e-06	3.4542e-06	651.94	163.44	3.632e-06	2.8767e-06	257.56	111.8	69.559	29.085	2.4242e-06	51.31	0.00072352	0.00071998	0.00019945	572.74	7.1692e-06	8.1152e-06	721.82	180.97	7.5979e-06	7.7953e-06	285.76	124.57	77.122	32.729	7.7331e-06	57.678	162.656	236.072	249.469	161.446	295.493	296.102	160.864	166.246	281.102	318.906	165.328	169.456	170.677	175.802	270.515	173.500	-8191	255	
2890.671	1	1	0	0	0.15233	0.13473	0.46475	0.1535	0.11968	0.22477	0.21195	0.086052	0.090607	0.088001	0.19287	0.077113	0.18635	0.046234	0.2047	0.31517	-1.9146	-3.1646	-2.3604	-2.6688	-2.9292	-2.1708	-3.0458	-2.7354	-2.1771	-3.0292	-2.4583	-2.6625	-3.1562	-2.4979	-2.7333	-2.9813	477.891	501.225	469.064	453.952	274.439	503.028	382.305	351.501	219.519	252.285	149.222	199.681	345.968	463.637	506.780	451.921	0.00074181	0.00033955	0.00010452	517.43	2.732e-06	3.112e-06	651.46	162.24	4.2528e-06	3.9577e-06	255.91	110.5	68.51	28.985	3.126e-06	50.798	0.00073509	0.00070194	0.00019605	571.12	7.4389e-06	7.9759e-06	717.69	179.72	7.6617e-06	8e-06	282.86	123.1	76.192	32.393	7.7673e-06	56.916	162.279	237.809	238.259	161.997	280.068	304.007	161.445	166.718	276.116	302.976	165.697	169.540	171.022	176.132	283.492	173.743	-8191	255	
2890.767	1	1	0	0	0.10486	0.17631	0.074525	0.34089	0.18465	0.16847	0.1033	0.19348	0.21373	0.13528	0.15543	0.10841	0.26013	0.13828	0.13885	0.032316	-1.8604	-3.0646	-2.4	-2.5938	-3.225	-2.3563	-3.0375	-2.95	-2.1063	-2.8812	-2.5542	-2.3854	-3.0646	-2.2812	-2.4854	-3.0187	476.679	303.875	304.057	491.482	236.688	370.770	427.941	424.001	259.090	304.540	496.722	387.632	351.972	456.712	382.267	417.721	0.00076378	0.00027108	0.00012574	513.99	4.094e-06	4.3162e-06	647.65	161.59	3.2144e-06	3.464e-06	253.46	110.25	68.476	28.801	4.0575e-06	50.72	0.00073842	0.00069468	0.00019605	566.77	7.1853e-06	7.8684e-06	713.61	178.67	7.5516e-06	7.8287e-06	281.05	122.43	75.93	32.249	7.5856e-06	56.861	163.906	234.554	248.841	162.531	295.476	293.678	162.011	167.234	275.883	315.140	166.235	169.972	171.784	176.560	292.396	174.144	-8191	255	
2890.863	1	1	0	0	0.19057	0.39187	0.083051	0.1733	0.26497	0.15665	0.22598	0.22574	0.15901	0.12117	0.15902	0.10748	0.28295	0.32024	0.069963	0.13416	-2.0333	-2.7562	-2.6271	-2.3167	-3.1729	-2.3604	-2.7438	-3.0958	-2.2521	-2.8021	-2.8271	-2.4917	-3.1688	-2.3479	-2.5958	-3.2417	409.815	316.686	294.340	439.042	431.463	332.785	384.458	459.913	329.900	476.432	178.088	494.477	490.040	161.517	279.648	480.535	0.00072855	0.00025835	0.00011037	513.78	3.4615e-06	3.4703e-06	650.62	162.43	2.9782e-06	3.9566e-06	254.4	110.09	68.501	28.896	3.9406e-06	50.922	0.00072245	0.00070007	0.0001919	566.8	7.0573e-06	7.8835e-06	716.6	179.71	7.3699e-06	7.8263e-06	283.16	123.16	76.337	32.418	7.8149e-06	57.127	164.242	228.603	252.404	162.439	285.879	311.083	161.882	167.081	278.658	322.987	166.216	170.637	171.751	176.616	292.618	173.878	-8191	255	
2890.960	1	1	0	0	0.092277	0.10369	0.33165	0.25596	0.15564	0.17188	0.10536	0.078792	0.22159	0.1079	0.20618	0.093667	0.25886	0.1978	0.13704	0.187	-1.7333	-2.7438	-2.7042	-2.2958	-3.15	-2.6646	-2.625	-3.1458	-2.325	-2.9437	-2.9125	-2.1937	-3.1604	-2.7667	-2.5083	-3.3375	443.538	462.335	197.030	358.361	348.679	267.703	221.137	315.743	387.318	204.619	399.999	155.489	421.050	177.794	198.902	470.966	0.00076144	0.00028211	0.00010121	508.72	4.5707e-06	3.0936e-06	640.48	160.08	2.5739e-06	3.228e-06	251.17	108.86	68.178	28.536	3.525e-06	50.097	0.0007314	0.00069382	0.00018764	567.58	6.9672e-06	7.6271e-06	715.81	179.02	7.2335e-06	7.8178e-06	281.92	122.47	75.958	32.166	7.7364e-06	56.581	163.086	210.872	246.012	163.302	285.054	298.588	162.639	167.870	269.918	318.793	166.733	170.688	172.032	177.145	275.753	174.809	-8191	255	
2891.054	1	1	0	0	0.15508	0.15085	0.17798	0.22374	0.22507	0.1482	0.16982	0.20382	0.12077	0.14909	0.25449	0.19842	0.2452	0.19512	0.12702	0.071164	-1.7917	-2.6979	-2.8937	-2.1688	-2.9	-2.6042	-2.4146	-3.2208	-2.3542	-2.7854	-3.3083	-2.2083	-3.1521	-2.7521	-2.2854	-3.1854	157.675	402.078	316.587	458.588	151.519	243.742	457.009	431.344	472.339	386.361	297.917	465.040	358.874	340.122	468.435	377.874	0.00072745	0.00035789	8.3271e-05	514.77	3.013e-06	2.9469e-06	649.03	161.64	3.9589e-06	3.4817e-06	254.1	110.54	68.54	28.774	3.11e-06	50.556	0.00071391	0.00068699	0.0001954	570.68	7.1947e-06	7.6668e-06	719.88	179.53	7.2856e-06	7.6313e-06	283.14	123.22	76.276	32.326	7.746e-06	56.945	161.827	225.748	243.173	162.902	288.315	295.775	162.228	167.647	279.274	308.736	166.398	170.422	171.702	176.913	277.795	174.515	-8191	255	
2891.152	1	1	0	0	0.17888	0.3317	0.1262	0.23254	0.094492	0.22129	0.17457	0.14956	0.14611	0.23096	0.22982	0.027746	0.24847	0.15024	0.1236	0.35068	-1.825	-2.5396	-2.9979	-2.0729	-2.9437	-2.8104	-2.3958	-3.1083	-2.4521	-2.5354	-3.1646	-2.2479	-2.9583	-2.9604	-2.3021	-3.2	212.391	358.314	501.282	171.511	321.008	161.884	445.468	446.416	327.437	237.246	151.704	311.584	164.892	195.986	370.227	481.025	0.00071178	0.00031878	0.0001131	519.64	3.537e-06	3.1234e-06	653.42	161.95	4.1447e-06	3.125e-06	254.46	110.57	68.659	28.761	4.0022e-06	50.908	0.00071189	0.00068928	0.00019384	574.61	6.9927e-06	7.6517e-06	724.86	180.64	7.1319e-06	8.0237e-06	284.87	123.93	76.808	32.575	7.8783e-06	57.61	163.250	269.973	239.529	162.748	275.143	293.455	162.210	167.628	274.939	312.976	166.804	170.556	172.063	177.000	281.131	174.806	-8191	255	
2891.271	1	1	0	0	0.13507	0.068931	0.21866	0.18791	0.1905	0.18747	0.21849	0.18147	0.19089	0.22292	0.18272	0.28601	0.057801	0.10242	0.17102	0.088081	-2.0521	-2.6312	-3.1146	-2.2146	-2.7188	-2.8104	-2.1729	-2.9	-2.5646	-2.5521	-3.3208	-2.3146	-2.7771	-2.9833	-2.2521	-2.9938	383.214	431.757	410.067	175.049	355.131	444.646	476.637	402.959	479.476	330.250	469.269	352.624	261.464	335.654	470.646	304.525	0.00074506	0.00036776	6.5239e-05	524.14	3.4793e-06	3.9492e-06	654.81	163.66	3.29e-06	3.5821e-06	257.02	111.85	69.141	29.053	3.4297e-06	50.953	0.00071685	0.00071849	0.00019533	580.79	7.0479e-06	7.7658e-06	732.27	182.94	7.1561e-06	7.9496e-06	287.7	125.39	77.579	32.95	7.7303e-06	57.93	163.062	238.731	236.744	163.095	271.851	295.576	162.788	167.998	282.816	295.482	166.813	170.658	172.136	177.553	293.133	175.355	-8191	255	
2891.367	1	1	0	0	0.144	0.14987	0.36081	0.099117	0.28411	0.0073768	0.15187	0.095696	0.159	0.16551	0.23098	0.21105	0.25865	0.069984	0.21353	0.10689	-2.2062	-2.4479	-3.1208	-2.3625	-2.625	-2.9771	-2.4021	-3.0312	-2.7208	-2.3	-3.2604	-2.3479	-2.6542	-2.9021	-2.1833	-3.0021	290.297	196.558	176.015	508.401	245.612	450.884	357.350	159.919	350.516	323.078	388.666	239.276	459.278	493.633	494.689	200.399	0.00074881	0.0002379	7.9169e-05	508.78	2.5786e-06	3.7891e-06	642.07	160.62	3.6551e-06	3.7798e-06	255.91	111.59	68.996	28.882	2.5881e-06	50.802	0.00072025	0.00071309	0.00019839	570.01	7.2556e-06	7.7598e-06	717.18	179.88	7.4573e-06	8.1446e-06	284.14	123.58	76.528	32.394	8.0084e-06	56.984	162.472	226.663	246.368	163.533	287.862	314.456	162.643	167.943	283.640	316.227	166.144	170.054	171.394	176.562	300.847	174.010	-8191	255	
2891.463	1	1	0	0	0.21391	0.13652	0.13495	0.10374	0.1976	0.21862	0.13516	0.17116	0.056419	0.23426	0.10613	0.086843	0.12713	0.10025	0.24338	0.17048	-2.2979	-2.1375	-3.1333	-2.5687	-2.4792	-3.1417	-2.4042	-3.0604	-2.9208	-2.2917	-3.1771	-2.5583	-2.5625	-3.0896	-2.1125	-2.8229	460.968	426.539	223.556	459.911	198.559	192.153	323.270	181.594	434.825	246.947	247.016	378.852	170.007	384.227	427.225	471.659	0.000717	0.00045517	5.9918e-05	507.5	2.9166e-06	2.6272e-06	637.5	160	4.5179e-06	2.8039e-06	252.3	110.42	68.167	28.782	4.206e-06	50.597	0.00071364	0.00072148	0.00019098	565.1	7.2384e-06	7.8264e-06	714.35	180.16	7.1893e-06	8.113e-06	284.65	124.33	77.029	32.728	7.7079e-06	57.839	163.251	241.250	250.108	163.296	282.962	313.696	162.832	168.680	266.199	296.174	166.950	171.165	172.626	177.462	284.106	175.537	-8191	255	
2891.559	1	1	0	0	0.070547	0.22504	0.088091	0.13613	0.18286	0.10075	0.085966	0.071547	0.2513	0.15234	0.17799	0.18757	0.19295	0.24029	0.13076	0.10388	-2.5854	-2.2104	-3.0333	-2.5667	-2.5354	-3.2167	-2.2354	-2.9458	-3.0354	-2.425	-3.1813	-2.6979	-2.4979	-3.175	-2.3479	-2.75	207.629	211.501	410.961	221.979	252.475	230.851	424.326	353.891	453.159	442.521	448.530	432.832	442.624	167.176	493.661	462.605	0.00076435	0.00031075	0.00010014	523.18	2.967e-06	4.3849e-06	660.73	165.65	3.8544e-06	3.2365e-06	259.11	112.64	69.767	29.452	4.1657e-06	52.071	0.00072542	0.0007314	0.00019126	583.78	7.0089e-06	7.6205e-06	740.31	185.98	7.1929e-06	8.0553e-06	292.59	127.46	78.95	33.636	7.7819e-06	59.5	163.017	242.610	232.159	163.150	273.830	294.032	162.588	167.990	273.010	317.657	166.801	171.050	172.685	177.589	291.013	175.495	-8191	255	
2891.655	1	1	0	0	0.14051	0.15757	0.11652	0.054217	0.15186	0.092625	0.21607	0.26426	0.29869	0.11365	0.073219	0.20576	0.15692	0.3435	0.25377	0.12476	-2.7687	-2.1063	-3.0958	-2.6875	-2.4333	-3.2396	-2.6312	-2.7917	-3.0833	-2.4375	-2.9854	-2.7562	-2.2521	-3.0208	-2.4813	-2.7292	318.590	475.828	343.538	392.810	181.156	325.929	381.223	436.762	158.947	367.640	178.949	472.645	277.318	466.756	393.035	391.373	0.000742	0.00035206	8.6938e-05	531.46	3.7927e-06	4.127e-06	666.84	166.75	3.4623e-06	3.8308e-06	260.85	113.31	71.17	29.693	4.0183e-06	51.901	0.00071718	0.00071971	0.00019134	597.83	7.2062e-06	7.6133e-06	751.49	188.55	7.3351e-06	8.141e-06	294.28	127.77	79.238	33.56	7.7897e-06	58.997	163.523	211.435	242.523	163.540	271.702	299.242	162.859	168.603	280.514	320.048	167.005	170.753	171.637	176.945	286.581	175.245	-8191	255	
2891.752	1	1	0	0	0.24815	0.05941	0.19998	0.44482	0.1617	0.10558	0.053138	0.040398	0.14157	0.22024	0.20558	0.16863	0.31747	0.11583	0.16428	0.13616	-2.7583	-2.0542	-2.7333	-2.9813	-2.3479	-3.2354	-2.7042	-2.3896	-3.1229	-2.2	-2.9729	-2.8396	-2.2979	-2.8583	-2.4125	-2.4188	270.689	318.641	232.876	434.101	178.384	341.331	504.150	442.465	211.356	357.464	480.806	164.516	429.929	399.564	282.074	502.810	0.00075453	0.00040223	0.00012703	532.3	2.9527e-06	4.2951e-06	680.1	169.05	3.4397e-06	3.3163e-06	264.8	115.36	71.76	30.217	2.9821e-06	52.896	0.0007248	0.00072377	0.00019409	593.09	7.3254e-06	7.5911e-06	751.26	188.8	7.3451e-06	8.0772e-06	296.2	129.18	80.228	33.997	7.6226e-06	59.768	163.722	242.653	242.094	162.911	284.717	297.552	162.014	167.415	284.738	301.845	166.211	170.225	171.680	176.629	286.192	174.596	-8191	255	
2891.848	1	1	0	0	0.12431	0.097647	0.25441	0.2317	0.11825	0.24631	0.19736	0.10626	0.079752	0.10129	0.15989	0.031916	0.19427	0.25745	0.23973	0.096304	-2.7083	-2.125	-2.8271	-3.05	-2.1875	-3.0375	-2.8417	-2.3396	-3.0458	-2.2687	-2.7854	-3.0812	-2.0917	-3.1333	-2.5333	-2.5104	310.380	337.266	494.998	298.332	163.398	449.703	262.815	415.455	358.778	347.894	439.356	227.447	380.476	458.258	340.062	377.276	0.00078165	0.00027059	0.00010408	534.53	3.036e-06	4.1335e-06	673.74	169.82	3.7616e-06	3.2111e-06	265.41	114.8	71.218	29.966	4.1148e-06	52.257	0.00073375	0.0007084	0.00019645	594.23	7.4035e-06	7.6764e-06	749.25	189.43	7.3041e-06	8.0067e-06	295.85	128.42	79.616	33.515	7.5828e-06	58.82	162.285	247.405	249.087	162.967	283.305	294.800	162.195	167.540	294.692	295.166	166.236	170.324	171.560	176.681	273.405	174.284	-8191	255	
2891.968	1	1	0	0	0.080017	0.15037	0.24998	0.20363	0.039861	0.25533	0.23016	0.29461	0.20461	0.12119	0.18155	0.17501	0.13091	0.36248	0.36173	0.084904	-2.8625	-2.2729	-2.6312	-2.9771	-2.1813	-2.8875	-2.8167	-2.4188	-2.9688	-2.3625	-2.7125	-3.3312	-2.1813	-3.0021	-2.775	-2.2313	343.635	284.609	239.496	263.992	193.185	471.767	450.772	401.977	383.137	162.894	205.588	499.793	286.472	504.832	428.114	232.963	0.00075183	0.00016859	8.8907e-05	529.95	3.5772e-06	2.9146e-06	668.89	167.52	2.6043e-06	3.1226e-06	261.85	113.1	69.648	29.44	3.6857e-06	51.633	0.00073294	0.00072772	0.00020275	585.15	7.4727e-06	7.9477e-06	739.24	185.64	7.3536e-06	8.1161e-06	290.6	125.88	77.655	32.944	7.6512e-06	58.098	162.039	239.697	230.677	162.567	288.580	306.495	162.081	167.305	290.201	331.054	166.322	170.150	171.601	176.620	277.737	174.571	-8191	255	
2892.063	1	1	0	0	0.13546	0.14648	0.15979	0.068355	0.11995	0.2549	0.1393	0.11364	0.2185	0.096552	0.097384	0.27389	0.05174	0.035963	0.035461	0.22776	-2.8229	-2.3917	-2.3792	-3.1667	-2.2646	-2.7854	-2.9062	-2.4021	-3.0354	-2.6646	-2.3896	-3.1104	-2.3854	-2.8271	-2.9188	-2.4375	455.153	460.694	339.341	233.840	259.564	444.710	438.570	487.575	249.349	487.356	441.631	367.910	158.731	418.048	460.648	469.535	0.00076608	0.00045021	0.00011745	528.18	3.2769e-06	3.4531e-06	664.66	166.52	3.9437e-06	4.1275e-06	261.01	113.34	69.956	29.451	3.9657e-06	51.826	0.00072961	0.00070354	0.00020215	583.42	7.1963e-06	7.761e-06	735.7	184.7	7.2335e-06	7.9721e-06	290.49	126.12	78.101	33.077	7.8519e-06	58.405	162.044	244.733	253.228	162.797	289.307	303.881	162.031	167.499	274.840	296.588	166.184	170.029	171.530	176.777	304.864	174.473	-8191	255	
2892.136	1	1	0	0	0.2989	0.21791	0.23664	0.19522	0.10625	0.1081	0.32199	0.032478	0.045717	0.12396	0.093014	0.042019	0.012919	0.15956	0.25804	0.067122	-2.6625	-2.6188	-2.3792	-3.2417	-2.1604	-2.775	-2.9583	-2.0604	-2.8958	-2.7208	-2.1729	-3.1312	-2.525	-2.6021	-2.9271	-2.4458	355.661	338.287	354.885	375.933	494.896	394.533	477.007	347.770	252.795	387.571	396.329	308.078	411.918	292.955	213.727	491.744	0.00076214	0.00037318	0.00010694	531.78	2.4264e-06	4.7174e-06	669.61	167.73	3.6379e-06	4.1255e-06	262.85	114.43	71.102	29.963	4.4502e-06	52.599	0.00073205	0.00073023	0.00020494	587.81	7.3946e-06	8.1356e-06	742.7	186.26	7.3999e-06	8.2813e-06	292.76	127.25	78.891	33.503	7.8116e-06	59.083	162.799	231.457	235.256	162.743	277.407	309.996	162.185	167.204	276.821	295.087	166.405	170.123	171.132	176.656	294.624	174.304	-8191	255	
2892.232	1	1	0	0	0.10959	0.16764	0.10315	0.10516	0.28779	0.15225	0.21611	0.2931	0.13336	0.018956	0.14905	0.045172	0.31148	0.049545	0.14377	0.079372	-2.5167	-2.7417	-2.2771	-3.2562	-2.3979	-2.6604	-3.0458	-2.3	-2.8396	-2.8396	-2.2062	-3.1542	-2.6167	-2.4646	-3.1875	-2.5083	437.206	407.193	373.093	492.612	489.165	288.671	455.085	414.522	360.348	428.162	489.332	502.633	415.797	487.635	365.545	369.502	0.00075359	0.00027257	8.6448e-05	543.63	3.1722e-06	1.2491e-06	684.69	170.94	3.7593e-06	3.2965e-06	267.2	115.62	71.5	30.064	3.4798e-06	52.856	0.00073068	0.00071961	0.00020228	599.18	7.3134e-06	8.0365e-06	756.73	189.18	7.4252e-06	8.065e-06	296.04	128.53	79.697	33.698	7.8626e-06	59.332	162.528	225.165	235.492	162.348	274.161	300.959	161.476	166.750	281.980	295.467	165.729	169.847	171.370	176.198	288.689	174.166	-8191	255	
2892.351	1	1	0	0	0.21314	0.080194	0.26335	0.29959	0.22266	0.30877	0.25388	0.11894	0.24514	0.05879	0.18522	0.074927	0.11346	0.17532	0.078273	0.21775	-2.5062	-2.8812	-2.2521	-3.0687	-2.5667	-2.4354	-3.0771	-2.3729	-2.6396	-3.0312	-2.1521	-2.9667	-2.6583	-2.2667	-3.025	-2.2958	453.621	249.523	183.387	220.970	463.415	459.272	489.700	474.563	301.190	373.748	389.249	380.841	452.987	250.981	230.808	453.797	0.00076424	0.00037482	0.0001042	536.98	3.6527e-06	4.3059e-06	672.09	168.81	4.095e-06	2.0498e-06	263.28	114.3	70.733	29.614	4.6235e-06	52.23	0.00072866	0.00073215	0.00020285	592.22	7.3212e-06	8.1152e-06	742.09	186.74	7.2735e-06	8.0899e-06	292.12	127.18	78.742	33.262	7.6916e-06	58.651	162.434	244.014	249.633	162.203	284.599	300.001	161.712	166.977	271.783	295.539	166.018	170.270	171.248	176.699	308.813	174.292	-8191	255	
2892.447	1	1	0	0	0.089792	0.075642	0.29904	0.20015	0.16417	0.16718	0.22236	0.26394	0.19712	0.046265	0.36039	0.31578	0.21152	0.43124	0.069744	0.13235	-2.3708	-2.9875	-2.1271	-3.0625	-2.7417	-2.2667	-3.1583	-2.2375	-2.4042	-2.9938	-2.2375	-2.8917	-2.7958	-2.2	-3.1667	-2.4042	348.268	297.833	287.052	498.600	383.234	287.979	430.773	506.044	444.481	359.028	195.951	237.367	348.492	395.454	498.705	447.366	0.00074387	0.00037864	7.2527e-05	534.88	2.4169e-06	3.6638e-06	672.52	169.08	3.9633e-06	3.6984e-06	263.79	114.17	71.242	29.78	4.1849e-06	52.382	0.00073862	0.00072244	0.00019883	590.91	7.064e-06	7.9603e-06	745.48	187.04	7.223e-06	7.9484e-06	292.61	127.08	78.912	33.387	7.4746e-06	58.786	163.964	245.020	242.620	162.398	294.046	280.798	161.839	166.979	278.980	307.335	166.003	169.963	171.199	176.368	283.342	174.106	-8191	255	
2892.543	1	1	0	0	0.21406	0.30116	0.094167	0.19792	0.15913	0.13299	0.10756	0.2013	0.13398	0.17723	0.40022	0.14563	0.16791	0.23865	0.10807	0.097502	-2.0229	-3.0292	-2.1167	-2.8104	-2.6958	-2.1604	-3.2812	-2.3667	-2.5333	-3.1771	-2.3208	-2.9688	-2.7375	-2.2771	-3.1333	-2.6208	324.880	184.923	367.200	185.102	479.093	332.797	325.129	415.970	448.043	288.180	394.289	507.966	303.228	426.770	428.332	234.134	0.00077798	0.00046959	8.8005e-05	535.03	3.1855e-06	5.0842e-06	670.36	166.36	3.5741e-06	2.8461e-06	260.85	113.45	69.944	29.386	3.6174e-06	51.637	0.00073604	0.00069372	0.00019879	590.32	6.9938e-06	7.9537e-06	741.41	184.68	7.4015e-06	8.0013e-06	289.78	125.91	77.775	32.99	7.492e-06	58.161	161.943	246.780	238.146	161.722	277.978	319.400	161.105	166.434	277.241	315.551	165.457	169.910	171.192	176.908	289.927	174.424	-8191	255	
2892.640	1	1	0	0	0.081902	0.18389	0.25404	0.18656	0.13467	0.13283	0.19529	0.43255	0.10598	0.079028	0.076389	0.29309	0.19947	0.15639	0.09827	0.16429	-1.7583	-3.0917	-2.3458	-2.7938	-2.7229	-2.2375	-3.0542	-2.7542	-2.3688	-3.0729	-2.3625	-2.5896	-3.0708	-2.1146	-2.9313	-2.9979	453.074	336.613	392.408	462.843	366.326	433.816	499.615	496.927	406.436	402.933	479.234	440.400	194.602	351.400	324.635	484.538	0.00073466	0.00031674	0.00010143	527.96	3.067e-06	3.0908e-06	663.1	166.52	2.7236e-06	2.8128e-06	261.16	113.7	70.816	29.799	4.1808e-06	52.386	0.00073312	0.0007203	0.00019906	583.19	7.1968e-06	8.1776e-06	735.16	184.77	7.3357e-06	7.7401e-06	291.08	126.79	78.727	33.355	7.446e-06	58.823	161.589	244.533	234.045	162.826	272.605	278.015	161.970	167.366	289.234	305.976	166.222	170.333	171.445	176.464	290.758	174.381	-8191	255	
2892.760	1	1	0	0	0.082877	0.23281	0.19643	0.15937	0.091724	0.10234	0.17609	0.068739	0.19954	0.065718	0.27006	0.025755	0.22794	0.061666	0.12834	0.27408	-1.8021	-3.0625	-2.4521	-2.5771	-2.9667	-2.2542	-2.9521	-2.7229	-2.2646	-2.9646	-2.6188	-2.7	-3.2229	-2.2687	-2.75	-3.0396	358.017	214.112	331.617	493.492	367.074	226.074	160.047	156.968	294.441	465.415	430.289	334.947	470.725	256.195	245.351	466.823	0.00076389	0.00042016	7.8129e-05	531.41	3.1038e-06	4.6957e-06	666.61	167.52	3.9272e-06	3.944e-06	261.97	113.59	70.766	29.358	3.9456e-06	51.6	0.00073048	0.00068074	0.00019398	588.23	6.9027e-06	7.9639e-06	738.23	185.85	7.3304e-06	7.836e-06	291.58	126.77	78.803	33.092	7.3412e-06	58.114	162.657	229.090	252.015	162.474	301.152	320.193	161.929	167.062	279.014	282.131	166.082	170.326	171.243	176.854	280.572	174.417	-8191	255	
2892.832	1	1	0	0	0.060665	0.1696	0.21613	0.19474	0.071171	0.2158	0.24027	0.080617	0.081917	0.080599	0.09596	0.3378	0.31942	0.13173	0.25374	0.21992	-1.7646	-3.0104	-2.4708	-2.6229	-2.9479	-2.0917	-2.7687	-3.0687	-2.225	-3.1458	-2.7375	-2.425	-3.0917	-2.3354	-2.7917	-3.0521	340.761	182.963	365.769	367.895	296.053	461.074	415.039	507.216	168.126	296.310	173.876	171.804	180.710	241.708	351.675	405.132	0.00074824	0.00035231	0.0001049	521.74	3.4537e-06	5.0821e-06	654.13	165	3.1751e-06	4.1796e-06	258.93	112.93	70.027	29.087	4.4194e-06	51.352	0.00072649	0.0007164	0.00019421	578.72	7.0516e-06	7.9795e-06	727.84	183.49	7.5095e-06	7.9247e-06	288.01	125.49	77.888	32.805	7.7151e-06	57.936	163.732	236.148	239.236	162.554	293.941	302.591	162.367	167.578	284.110	313.858	166.254	170.186	171.620	177.008	289.517	174.630	-8191	255	
2892.953	1	1	0	0	0.17926	0.14882	0.012422	0.059492	0.15647	0.46271	0.20772	0.069859	0.27229	0.063024	0.13091	0.20704	0.074103	0.057905	0.15053	0.1114	-1.6917	-3.0542	-2.6583	-2.5	-3.0625	-2.3354	-2.6083	-3.15	-2.1417	-2.9583	-2.7708	-2.4042	-3.1437	-2.3917	-2.5167	-3.1813	246.774	390.645	453.481	490.114	299.655	446.917	326.638	439.653	259.997	453.088	339.722	298.127	455.724	423.733	404.501	178.340	0.00078502	0.0004203	7.9728e-05	526.74	3.5444e-06	3.6552e-06	668.69	168.13	3.786e-06	3.4872e-06	265.76	115.91	71.881	30.425	3.9445e-06	53.663	0.00074549	0.00071859	0.00020005	582.99	7.138e-06	7.9933e-06	743.66	186.91	7.4752e-06	7.7358e-06	295.5	128.91	80.09	34.088	7.5122e-06	60.364	163.266	234.539	251.039	162.655	291.367	310.694	161.925	167.258	272.063	315.546	165.989	170.278	171.242	176.693	284.918	174.427	-8191	255	
2893.049	1	1	0	0	0.32421	0.12866	0.064263	0.13099	0.053167	0.092083	0.25883	0.17535	0.26647	0.16838	0.17386	0.04279	0.21083	0.20637	0.078992	0.15876	-1.7	-3.0312	-2.7042	-2.2542	-3.0271	-2.5292	-2.3542	-2.9625	-2.3083	-2.8104	-2.8771	-2.3417	-3.0167	-2.4313	-2.2917	-3.1125	249.461	221.180	324.837	406.437	438.820	318.923	341.728	248.501	301.472	391.962	432.447	171.615	460.300	155.117	221.731	225.199	0.00076836	0.00035172	8.2792e-05	549.74	3.4498e-06	4.1159e-06	698.64	175.52	4.6914e-06	3.3069e-06	271.9	119.03	73.686	31.01	3.6749e-06	54.547	0.00073172	0.00068453	0.00019223	611.3	6.9422e-06	7.6193e-06	775.83	194.75	7.3625e-06	7.689e-06	303.89	132.49	82.291	34.905	7.8889e-06	61.384	163.576	248.081	236.744	162.691	288.009	303.008	161.890	167.045	276.667	279.815	166.012	170.061	171.444	176.673	290.600	174.421	-8191	255	
2893.143	1	1	0	0	0.047634	0.060745	0.2923	0.16626	0.18703	0.12694	0.090323	0.15142	0.14098	0.087043	0.037937	0.24291	0.13704	0.16639	0.29898	0.12226	-1.8188	-2.6271	-2.9292	-2.2687	-3.1479	-2.6167	-2.3646	-3.1188	-2.2479	-2.6542	-3.0896	-2.175	-2.9333	-2.6896	-2.3146	-3.1167	177.822	328.793	374.997	374.817	197.239	494.976	193.813	485.813	300.190	339.555	346.331	470.163	490.239	187.885	228.487	229.191	0.00076419	0.0002971	9.3946e-05	551.62	3.3703e-06	4.9397e-06	686.23	172.31	4.1283e-06	4.7729e-06	267.35	116.68	72.343	30.255	3.8523e-06	52.763	0.00073815	0.0006959	0.00018815	610.93	6.8423e-06	7.6337e-06	763.07	192.16	7.1656e-06	7.7862e-06	298.41	130.14	80.721	34.081	7.7835e-06	59.565	163.168	233.309	257.124	162.624	299.550	299.556	162.130	167.208	279.833	301.730	166.091	170.189	171.671	176.793	290.937	174.470	-8191	255	
2893.239	1	1	0	0	0.23595	0.1713	0.10657	0.016885	0.20498	0.23455	0.1546	0.16605	0.084896	0.14805	0.18314	0.13964	0.22695	0.29385	0.094758	0.099784	-2.0146	-2.425	-3.05	-2.3979	-2.9979	-2.8333	-2.4167	-3.2792	-2.2708	-2.7354	-3.1562	-2.3146	-3.1042	-3.0125	-2.1854	-3.3042	343.148	378.326	349.251	403.814	370.465	209.023	411.572	354.700	461.457	221.271	488.200	409.640	176.021	381.966	496.421	449.576	0.00072686	0.00032523	0.0001125	529.39	3.1804e-06	3.7582e-06	664.45	167.59	4.662e-06	5.3567e-06	260.84	114.11	70.716	29.536	4.2988e-06	51.769	0.00072581	0.00067306	0.00019234	588.13	6.7647e-06	7.7448e-06	738.84	186.43	7.2956e-06	7.8415e-06	291.84	126.98	78.746	33.193	7.8503e-06	58.303	160.558	243.019	229.876	162.809	290.385	292.001	162.287	167.606	289.263	312.696	166.326	170.222	171.569	176.645	282.948	174.408	-8191	255	
2893.360	1	1	0	0	0.23539	0.073344	0.019179	0.173	0.14784	0.097447	0.21497	0.10689	0.15674	0.10631	0.19432	0.081144	0.34012	0.17966	0.17354	0.15046	-2.2562	-2.45	-3.35	-2.4938	-2.8854	-2.8458	-2.3354	-3.2396	-2.5396	-2.2729	-3.2771	-2.525	-2.8958	-3.0208	-2.2667	-3.2104	423.187	270.865	481.861	424.212	176.324	297.602	489.284	206.583	253.187	235.823	495.969	504.873	158.190	400.954	153.251	169.845	0.00072691	0.00036053	9.8466e-05	517.09	2.8818e-06	4.8347e-06	655.15	165.62	2.3927e-06	3.4447e-06	260.51	113.65	70.578	29.47	2.9572e-06	52.027	0.00072283	0.00070824	0.00019273	572.15	6.9584e-06	7.7184e-06	727.3	184.18	7.3035e-06	8.1112e-06	290.76	127.05	78.943	33.232	7.7465e-06	58.512	163.304	230.935	247.424	162.635	296.879	289.940	162.222	167.519	277.508	304.806	166.685	170.581	172.131	176.872	299.921	174.383	-8191	255	
2893.432	1	1	0	0	0.17732	0.10129	0.095573	0.15347	0.14324	0.22649	0.052191	0.039093	0.21833	0.08779	0.2651	0.0083579	0.098526	0.1977	0.22914	0.11205	-2.3042	-2.2646	-3.1562	-2.3417	-2.6917	-2.9562	-2.4188	-3.1458	-2.7292	-2.3396	-3.2729	-2.5583	-2.5312	-3.0375	-2.3812	-3.225	480.614	206.656	356.891	362.604	324.411	151.197	506.235	156.590	409.701	411.895	468.106	398.579	352.099	488.526	195.022	345.164	0.00075401	0.00031187	8.5531e-05	520.62	3.8381e-06	4.2844e-06	660.92	166.59	3.6632e-06	2.0134e-06	261.3	114.61	70.848	29.486	3.9791e-06	51.863	0.0007267	0.00073968	0.00019496	574.01	7.1312e-06	7.7658e-06	730.07	184.73	7.2045e-06	8.0055e-06	290.55	127.1	78.82	33.279	7.6081e-06	58.553	163.863	258.702	251.326	162.336	294.408	306.287	162.053	167.363	284.305	312.833	166.182	170.007	171.480	176.636	271.760	174.531	-8191	255	
2893.528	1	1	0	0	0.23634	0.19926	0.26308	0.058176	0.26354	0.24447	0.18376	0.030402	0.024585	0.091774	0.14637	0.16106	0.10253	0.25425	0.061459	0.1002	-2.5167	-2.25	-3.1771	-2.5021	-2.5958	-3.1479	-2.4833	-2.9875	-2.8563	-2.1979	-3.1146	-2.6875	-2.35	-3.1396	-2.1188	-2.7062	226.576	422.901	191.693	441.922	306.546	426.885	173.804	469.380	172.237	438.401	187.277	420.838	286.368	457.739	405.401	193.174	0.00077366	0.00035658	0.00010452	525.42	3.1383e-06	4.226e-06	666.48	166.52	4.2094e-06	3.6424e-06	261.77	113.28	70.498	29.572	2.7328e-06	51.997	0.00071855	0.00070135	0.00018514	581.36	6.7731e-06	7.2412e-06	735.14	184.53	7.0676e-06	7.6751e-06	290.02	126.01	78.33	33.158	7.4079e-06	58.478	163.660	236.292	230.626	162.252	294.861	304.701	161.416	166.791	247.071	303.600	165.824	169.446	170.941	176.305	290.935	173.965	-8191	255	
2893.624	1	1	0	0	0.17104	0.24369	0.12418	0.1516	0.14455	0.15814	0.33613	0.18324	0.26901	0.22938	0.2669	0.18338	0.12757	0.1424	0.16306	0.13545	-2.5583	-2.3521	-3.1729	-2.4292	-2.4729	-3.3042	-2.3333	-2.7125	-3.0917	-2.2208	-3.275	-2.7208	-2.4604	-3.1458	-2.3458	-2.9854	340.228	165.344	486.184	339.408	214.111	264.975	472.622	150.593	151.409	365.959	476.223	495.344	359.010	408.672	171.208	162.910	0.0007438	0.00036113	0.00011301	528.3	4.0244e-06	4.3772e-06	665.41	166.99	3.09e-06	2.9067e-06	262.98	114.48	71.269	29.786	5.0937e-06	52.192	0.00070508	0.0007013	0.00018262	583.77	6.8001e-06	7.2268e-06	735.99	184.85	6.9107e-06	7.7024e-06	290.89	126.96	78.901	33.38	7.2548e-06	58.617	162.354	225.209	234.670	161.762	285.001	304.846	161.407	166.732	272.455	309.654	165.493	169.540	170.990	176.041	283.148	173.589	-8191	255	
2893.744	1	1	0	0	0.1255	0.14186	0.18029	0.13374	0.22089	0.18695	0.2273	0.15803	0.041997	0.17583	0.32038	0.074446	0.1606	0.060824	0.15026	0.099315	-2.6979	-2.3417	-2.9542	-2.7292	-2.2958	-3.2167	-2.5354	-2.5938	-3.1625	-2.3333	-3.0333	-2.975	-2.3667	-3.1417	-2.4021	-2.6042	264.251	336.191	184.382	415.205	194.473	465.912	455.127	150.663	184.777	491.704	482.275	222.389	199.765	381.657	337.307	499.585	0.00073647	0.00026454	7.3692e-05	524.91	1.7888e-06	3.5151e-06	665.54	167.54	3.3432e-06	3.0359e-06	262.14	114.36	71.153	29.657	3.1828e-06	51.925	0.00070882	0.00067813	0.00017953	581.13	6.9193e-06	7.3372e-06	735.01	185.3	6.8859e-06	7.5402e-06	291.18	127	78.742	33.209	7.4214e-06	58.19	163.002	243.541	229.391	162.007	260.943	289.515	161.338	166.745	285.829	309.289	165.874	169.709	171.346	176.429	290.260	174.049	-8191	255	
2893.841	1	1	0	0	0.22856	0.094465	0.27835	0.2239	0.41967	0.20812	0.24073	0.070167	0.23306	0.078416	0.078222	0.25303	0.2158	0.14389	0.24512	0.11841	-2.8896	-2.2479	-2.8271	-2.9521	-2.2854	-3.1792	-2.5563	-2.5938	-3.3125	-2.3125	-2.9938	-2.9375	-2.2417	-3.1542	-2.625	-2.5958	396.975	309.178	232.068	414.404	473.227	399.459	397.992	319.166	452.562	482.032	486.557	389.661	184.061	154.606	469.732	477.291	0.00074142	0.00023976	9.2628e-05	517.07	2.9522e-06	3.0175e-06	652.66	165.51	3.6499e-06	5.6022e-06	260.33	113.04	70.409	29.457	3.7151e-06	51.612	0.0007118	0.0006966	0.00018559	570.28	6.8537e-06	7.357e-06	720.88	182.86	6.9291e-06	8.0292e-06	288.04	125.73	78.173	32.992	7.6383e-06	58.028	163.300	234.004	244.758	162.163	281.425	301.418	161.135	166.814	281.023	305.129	165.423	169.417	171.028	175.840	271.858	173.751	-8191	255	
2893.937	1	1	0	0	0.064783	0.12911	0.072396	0.25602	0.054148	0.10965	0.16916	0.11756	0.17179	0.22154	0.16965	0.12302	0.11308	0.19217	0.15796	0.13257	-2.8646	-2.2458	-2.6979	-3.0958	-2.2167	-2.9708	-2.9708	-2.5542	-3.1396	-2.325	-2.7833	-3.0896	-2.1583	-3.05	-2.8146	-2.3167	352.218	452.992	345.259	473.962	240.819	465.993	451.749	495.139	221.560	183.949	150.319	345.748	448.335	372.976	221.901	287.148	0.00072253	0.00033838	9.1787e-05	515.14	3.7634e-06	4.1971e-06	656.55	165.41	3.899e-06	4.4816e-06	262.78	115.51	72.04	30.019	4.095e-06	52.909	0.0007151	0.00070701	0.00019107	569.49	7.241e-06	7.6686e-06	725.42	183.51	6.967e-06	7.6623e-06	291.59	128.39	79.775	33.667	7.3647e-06	59.381	163.335	241.739	246.810	162.073	290.888	295.874	161.718	167.258	275.751	301.726	165.683	169.831	170.756	176.191	278.778	173.597	-8191	255	
2894.033	1	1	0	0	0.096319	0.095901	0.17997	0.21129	0.071781	0.11414	0.39305	0.18842	0.23147	0.1597	0.20597	0.14375	0.22887	0.22322	0.2095	0.26749	-2.6708	-2.3604	-2.5375	-3.1063	-2.3875	-2.8563	-2.9938	-2.1771	-3.0375	-2.4667	-2.5854	-3.1875	-2.1417	-3.0812	-2.8625	-2.3063	377.981	167.361	320.481	352.420	202.473	497.068	461.859	197.920	290.400	237.447	151.051	505.364	449.532	187.928	158.284	483.185	0.00077353	0.00040865	6.2046e-05	528.82	1.8777e-06	4.3241e-06	673.99	169.33	4.3939e-06	3.4534e-06	268.27	117.76	73.023	30.729	3.4863e-06	54.095	0.00072604	0.00068555	0.00018936	583.7	6.9651e-06	7.4429e-06	742.91	187.91	6.7406e-06	7.477e-06	297.18	130.57	81.069	34.399	7.2812e-06	60.675	162.456	227.149	244.316	162.086	287.366	304.707	161.531	166.988	281.883	301.708	165.874	169.971	171.314	176.866	269.533	174.304	-8191	255	
2894.127	1	1	0	0	0.21684	0.22339	0.20154	0.075991	0.1918	0.20725	0.10953	0.06821	0.089912	0.044288	0.04462	0.20352	0.044712	0.22352	0.1753	0.073555	-2.7792	-2.4333	-2.4208	-2.9271	-2.2938	-3.0667	-2.9396	-2.2979	-3.0792	-2.5979	-2.6854	-3.4167	-2.5458	-2.6813	-2.8667	-2.3354	488.649	502.428	392.386	454.343	288.509	465.708	164.820	470.950	223.612	463.034	425.698	182.512	485.703	182.982	230.048	454.657	0.00079431	0.00034643	9.2029e-05	544.48	3.7248e-06	5.434e-06	681.44	171.63	4.053e-06	4.1435e-06	269.07	117.64	73.127	30.848	4.3762e-06	53.734	0.00071082	0.0006604	0.00019242	600.94	6.9953e-06	7.2328e-06	755.6	189.97	6.8159e-06	7.3258e-06	298.4	130.66	81.123	34.467	7.2717e-06	60.324	162.613	234.849	234.076	162.437	280.883	304.642	161.604	166.658	262.479	275.368	165.431	169.489	170.995	176.018	288.455	173.559	-8191	255	
2894.223	1	1	0	0	0.099367	0.12278	0.10754	0.18498	0.1372	0.10814	0.28714	0.12591	0.13899	0.0076246	0.11189	0.26017	0.12997	0.17099	0.15243	0.12451	-2.7333	-2.6125	-2.4458	-3.1917	-2.2771	-2.7292	-3.0521	-2.1604	-3.0438	-2.7354	-2.4042	-3.0583	-2.4854	-2.5958	-3.0146	-2.3187	494.282	172.045	168.471	375.092	187.287	319.023	387.967	482.604	475.870	203.344	226.473	446.519	284.869	463.354	331.417	446.591	0.00079632	0.0003828	8.4668e-05	536.11	3.9641e-06	3.2356e-06	671.74	169.55	4.0211e-06	2.5168e-06	265.89	116.36	72.158	30.047	3.7346e-06	52.361	0.00071683	0.00064829	0.00018197	591.44	6.6929e-06	7.2766e-06	742.9	187.81	6.7158e-06	7.2468e-06	294.55	129.16	80.064	33.722	7.0816e-06	58.865	162.990	240.957	236.314	161.935	275.910	309.914	161.353	166.730	282.881	321.526	165.685	169.387	170.967	176.235	291.842	173.603	-8191	255	
2894.320	1	1	0	0	0.26462	0.11199	0.3041	0.16334	0.22694	0.11493	0.081244	0.19383	0.13349	0.17145	0.22676	0.2053	0.082163	0.14542	0.092132	0.16448	-2.6292	-2.9125	-2.2687	-3.1021	-2.6167	-2.6521	-3.0854	-2.2396	-2.7208	-2.8958	-2.3042	-3.1063	-2.5583	-2.5167	-3.0917	-2.4271	479.596	327.209	256.220	473.784	330.987	383.648	452.812	281.805	169.497	281.178	418.837	487.747	240.452	213.875	296.602	323.870	0.00077058	0.00032846	0.00010416	518.49	2.7698e-06	4.2904e-06	655.02	165.96	3.7763e-06	2.9731e-06	260.64	114.11	70.627	29.341	3.643e-06	51.402	0.00070927	0.00065106	0.00018517	571.77	6.6294e-06	7.3312e-06	722.26	183.3	6.8654e-06	7.3227e-06	289	126.51	78.461	32.894	7.205e-06	57.746	162.434	249.452	238.041	162.338	286.995	289.400	161.584	166.776	284.636	306.062	165.665	169.591	170.742	176.155	294.883	173.718	-8191	255	
2894.440	1	1	0	0	0.031265	0.13988	0.13081	0.14554	0.39669	0.038437	0.07109	0.055253	0.1961	0.032606	0.061998	0.15167	0.1155	0.14503	0.14044	0.24594	-2.3875	-2.9646	-2.1271	-3.0229	-2.4979	-2.4	-3.2938	-2.325	-2.725	-3	-2.2896	-3.0187	-2.5667	-2.4521	-3.1583	-2.3292	375.913	371.070	288.898	264.451	169.375	164.208	500.862	348.446	314.997	320.936	190.182	431.630	470.363	441.329	433.411	185.422	0.00072912	0.00037696	8.0628e-05	504.31	2.491e-06	3.2314e-06	643.01	163.29	3.542e-06	3.3329e-06	258.87	113.14	70.466	29.324	3.3557e-06	51.51	0.00068935	0.00065928	0.00019329	556.3	6.6575e-06	7.7022e-06	710.06	181.05	7.0708e-06	7.525e-06	287.37	126.11	78.112	32.831	7.293e-06	57.773	163.504	254.373	238.335	162.227	281.684	316.137	161.722	166.896	284.244	295.726	165.932	169.912	171.106	176.203	281.914	173.703	-8191	255	
2894.535	1	1	0	0	0.092112	0.14821	0.19716	0.13572	0.24006	0.16586	0.13895	0.33932	0.20907	0.16531	0.31606	0.085092	0.038233	0.18911	0.20476	0.10641	-2.25	-2.9625	-2.2188	-2.9188	-2.5979	-2.2479	-2.95	-2.1646	-2.4688	-3.2271	-2.2062	-2.9771	-2.9688	-2.3063	-2.9146	-2.4958	387.525	169.328	483.975	199.759	475.586	194.271	321.242	506.421	284.173	375.340	433.950	223.023	442.743	178.588	202.817	304.948	0.00075318	0.00031022	9.6952e-05	503.26	3.9941e-06	2.7013e-06	643.03	163.01	2.9052e-06	2.8655e-06	257.4	113.27	70.59	29.532	3.7285e-06	52.003	0.00071049	0.00067583	0.00019141	555.16	6.8985e-06	7.6511e-06	709.19	180.62	7.2409e-06	7.5748e-06	286.2	125.93	78.281	33.069	7.3703e-06	58.208	163.174	235.835	263.161	162.246	302.448	293.023	161.818	166.968	273.118	322.483	165.652	169.655	171.058	176.458	290.286	173.628	-8191	255	
2894.631	1	1	0	0	0.13631	0.20589	0.11033	0.052311	0.1049	0.23212	0.25296	0.056297	0.17454	0.17711	0.18429	0.054462	0.11399	0.1995	0.18196	0.18849	-1.9604	-2.9604	-2.0125	-2.9604	-2.7292	-2.3042	-3.0792	-2.5458	-2.6479	-2.925	-2.4083	-2.7125	-2.8729	-2.2771	-3.0146	-2.6396	179.972	218.071	388.354	419.096	396.576	494.965	420.378	241.527	306.340	466.687	477.106	310.081	179.534	452.184	244.416	183.605	0.00073771	0.00033245	7.9205e-05	510.47	2.807e-06	4.3931e-06	651.1	164.52	4.2284e-06	4.2179e-06	259.85	113.86	70.687	29.607	3.1526e-06	52.045	0.00072036	0.00068859	0.00019285	563.27	6.9162e-06	7.8126e-06	718.62	181.81	7.1208e-06	7.3756e-06	287.92	126.33	78.327	33.208	7.0306e-06	58.426	163.506	255.064	256.897	162.261	281.215	303.050	161.620	167.074	287.137	325.703	165.854	169.556	170.929	176.186	286.485	173.811	-8191	255	
2894.727	1	1	0	0	0.16128	0.089175	0.15112	0.041381	0.12674	0.14535	0.034017	0.29549	0.147	0.091035	0.053058	0.33434	0.14391	0.32847	0.019829	0.14163	-2.0208	-3.0958	-2.3604	-2.6667	-3.0167	-2.1833	-2.9625	-2.6542	-2.1354	-3.0771	-2.4125	-2.6937	-2.9917	-2.4146	-2.9458	-2.8375	372.912	272.172	508.626	487.658	397.016	303.598	349.305	384.192	326.726	447.819	434.329	432.331	491.841	448.682	386.157	492.866	0.00075738	0.00038323	8.5981e-05	515.2	2.6463e-06	4.1357e-06	654.31	164.16	3.4028e-06	3.1535e-06	257.88	112.87	70.022	29.341	3.8772e-06	51.613	0.00071665	0.00067258	0.00018795	568.9	6.6913e-06	7.7838e-06	720.31	181.7	6.9022e-06	7.2863e-06	287.11	125.51	77.798	32.958	7.0211e-06	57.966	161.075	240.787	233.633	161.768	287.724	318.796	161.529	166.857	286.343	304.595	165.796	169.573	170.971	176.344	299.725	173.852	-8191	255	
2894.823	1	1	0	0	0.40373	0.16459	0.15786	0.2227	0.027484	0.057041	0.055675	0.41445	0.10011	0.062156	0.2742	0.021211	0.064792	0.10536	0.33765	0.32314	-1.8792	-3.0667	-2.2292	-2.4958	-2.9583	-2.1646	-3.0896	-2.8187	-2.2354	-3.0563	-2.5417	-2.4542	-3.025	-2.2979	-2.7729	-2.9208	486.700	287.639	226.387	491.965	160.436	302.869	287.699	495.281	337.924	268.735	211.476	347.740	191.577	183.695	317.391	352.821	0.00075251	0.00030761	7.5185e-05	506.83	3.397e-06	2.8744e-06	640.94	162.25	3.0836e-06	4.1241e-06	256.52	111.66	69.407	29.083	2.9687e-06	50.86	0.00069743	0.00065266	0.00018186	558.01	6.6424e-06	7.4741e-06	707.72	179.33	7.0444e-06	7.1545e-06	284.8	124.25	77.298	32.635	7.0827e-06	57.124	161.549	238.956	236.150	162.309	274.714	298.513	161.700	167.059	266.712	289.596	165.592	169.722	171.181	176.393	284.972	173.938	-8191	255	
2894.919	1	1	0	0	0.09738	0.13915	0.20273	0.21627	0.24273	0.23429	0.11304	0.16999	0.33077	0.11547	0.11528	0.16859	0.13997	0.03335	0.15087	0.27161	-1.9729	-2.8833	-2.4437	-2.2812	-3.0271	-2.3063	-2.8042	-2.8833	-2.2979	-3.1833	-2.775	-2.5125	-3.3167	-2.3375	-2.6875	-3.1208	465.218	474.155	283.515	280.833	231.509	246.564	418.403	456.006	365.511	341.055	245.572	196.203	201.274	266.989	488.835	501.437	0.00074118	0.0003642	7.0092e-05	502.48	3.3437e-06	3.9309e-06	638.95	161.38	3.2955e-06	3.5367e-06	255.75	111.78	69.425	29.026	4.7592e-06	50.746	0.00069294	0.0006572	0.00018223	553.28	6.5581e-06	7.3822e-06	704.85	178.88	7.0407e-06	7.3798e-06	283.92	124.01	77.101	32.522	7.1713e-06	57.111	162.864	216.881	251.373	162.593	288.573	299.748	161.863	167.264	269.219	302.458	165.820	169.653	171.265	176.491	272.293	173.821	-8191	255	
2895.040	1	1	0	0	0.13845	0.085143	0.085925	0.28427	0.10962	0.26874	0.077486	0.0765	0.23588	0.27497	0.10104	0.19932	0.11303	0.23527	0.14937	0.38937	-1.8625	-3.0396	-2.5854	-2.2854	-3.1521	-2.2396	-2.6083	-3.0958	-2.1	-2.9354	-2.7313	-2.2396	-3.0417	-2.2458	-2.575	-3.0104	199.600	488.910	178.906	462.961	336.463	392.494	403.575	328.190	211.483	437.697	483.394	486.806	171.873	260.825	279.861	477.717	0.00073916	0.00041705	0.00012275	502.48	2.8349e-06	3.4381e-06	640.46	162.55	4.0116e-06	3.9766e-06	257.44	111.82	70.264	29.05	3.3792e-06	51.056	0.0006988	0.00065752	0.00018483	554.75	6.5289e-06	7.333e-06	707.74	180.05	6.9143e-06	7.324e-06	285.83	124.81	77.866	32.585	7.3922e-06	57.192	161.946	251.157	243.829	162.114	270.227	309.085	161.856	166.983	263.575	281.189	166.061	169.789	170.935	176.207	280.218	173.738	-8191	255	
2895.136	1	1	0	0	0.1801	0.35686	0.047801	0.087364	0.25699	0.16317	0.33149	0.27715	0.093691	0.10385	0.19519	0.13558	0.15089	0.1063	0.2773	0.13392	-1.7563	-3.025	-2.8563	-2.1292	-3.0104	-2.3208	-2.3937	-3.0729	-2.2562	-2.7583	-3.0146	-2.1271	-3.1125	-2.6875	-2.325	-3.2042	246.788	286.743	269.751	322.392	487.874	367.233	386.609	499.041	480.331	406.142	158.861	264.091	201.414	287.601	187.606	488.307	0.00072518	0.00031306	7.1811e-05	499.52	3.555e-06	2.914e-06	639.4	161.85	3.6424e-06	3.1631e-06	256.2	111.67	69.716	28.823	3.9432e-06	50.714	0.00070499	0.00067839	0.00018813	550.83	6.7814e-06	7.5881e-06	704.4	179.54	7.1987e-06	7.5511e-06	284.3	124.23	77.424	32.343	7.6546e-06	56.754	162.630	228.571	235.554	162.400	279.083	291.024	161.656	166.950	279.080	294.277	165.772	169.999	171.023	176.182	276.906	173.806	-8191	255	
2895.232	1	1	0	0	0.13909	0.10228	0.1337	0.14889	0.20309	0.14797	0.22759	0.19329	0.32178	0.32396	0.15949	0.17307	0.087575	0.17899	0.35265	0.097392	-1.8667	-2.8563	-2.9562	-2.2792	-3.0062	-2.4854	-2.3083	-3.0479	-2.3271	-2.5438	-3.0042	-2.05	-3.1479	-2.8021	-2.2625	-3.0417	256.243	505.167	315.659	433.995	247.972	254.940	342.305	181.242	244.827	364.387	465.174	233.311	219.503	401.124	189.702	181.154	0.0007501	0.00037668	5.5113e-05	495.66	3.0841e-06	3.0552e-06	633.23	161.35	4.4259e-06	3.2778e-06	254.91	111.18	69.394	28.646	3.2681e-06	50.123	0.00071451	0.00068133	0.00018733	546.03	6.7387e-06	7.6049e-06	699.63	178.42	7.0808e-06	7.7176e-06	283.15	123.44	76.997	32.13	7.4494e-06	56.337	162.554	226.552	262.268	162.253	286.748	298.643	161.222	166.558	285.517	305.286	165.397	169.103	170.472	175.425	282.289	173.016	-8191	255	
2895.304	1	1	0	0	0.094717	0.091019	0.28025	0.093585	0.16183	0.11344	0.11461	0.11253	0.13848	0.01463	0.18997	0.2769	0.12482	0.12533	0.1974	0.12265	-1.8229	-2.4917	-2.8583	-2.1312	-2.8125	-2.8167	-2.2042	-3.2792	-2.4042	-2.4771	-2.9458	-2.2604	-2.7792	-2.6354	-2.4333	-3.0271	229.195	508.479	409.189	385.122	361.898	368.546	409.442	473.924	335.175	389.456	431.940	483.450	501.349	466.214	193.738	412.480	0.00070718	0.00021303	7.3746e-05	493.9	3.6682e-06	2.3756e-06	634.29	161.22	4.2092e-06	2.9906e-06	255.68	110.9	69.101	28.595	4.7743e-06	50.34	0.00070653	0.00068934	0.00018999	546.04	6.8772e-06	7.6271e-06	700.44	178.62	7.1261e-06	7.6508e-06	283.58	123.38	76.805	32.174	7.612e-06	56.516	163.551	247.880	251.316	161.722	289.313	290.550	160.983	166.561	278.509	271.541	165.124	169.021	170.454	175.811	289.503	173.384	-8191	255	
2895.424	1	1	0	0	0.23333	0.23778	0.23643	0.19154	0.1444	0.17712	0.11794	0.19758	0.089277	0.21923	0.12474	0.1273	0.24241	0.27307	0.074463	0.18424	-2.0333	-2.3271	-2.9458	-2.3563	-2.8833	-2.8312	-2.1708	-3.0479	-2.4333	-2.4062	-2.9833	-2.2958	-2.6708	-2.9208	-2.0875	-3.1083	172.908	342.977	343.620	301.338	355.608	496.996	504.739	430.117	207.171	359.199	409.700	255.039	248.231	327.741	437.928	382.130	0.00073522	0.00025666	0.00011042	496.16	2.8017e-06	2.8028e-06	634.22	161.02	3.8099e-06	3.0782e-06	255.13	111.07	69.162	28.668	3.9262e-06	50.307	0.00070445	0.00069948	0.00018791	547.48	6.8209e-06	7.5479e-06	700.21	178.39	7.0776e-06	7.7279e-06	283.09	123.24	76.727	32.201	7.7656e-06	56.525	162.483	241.148	235.212	161.623	270.162	293.072	161.141	166.574	277.799	314.412	165.137	169.098	170.423	175.830	299.277	173.221	-8191	255	
2895.519	1	1	0	0	0.092088	0.15741	0.26911	0.38847	0.17083	0.081708	0.15363	0.28803	0.20229	0.076079	0.08806	0.18163	0.096098	0.22583	0.13849	0.024278	-2.0167	-2.2583	-2.8917	-2.3021	-2.7458	-2.8833	-2.2188	-2.9521	-2.5833	-2.0771	-2.9604	-2.2396	-2.6417	-2.9021	-2.2854	-3.0187	463.850	298.752	285.107	447.595	152.273	495.232	419.602	311.853	171.879	161.251	382.761	212.791	428.517	448.746	345.353	483.428	0.00071393	0.00027983	7.9121e-05	497.14	3.4933e-06	3.4905e-06	635.36	160.76	3.5689e-06	3.6498e-06	254.88	110.67	69.031	28.735	2.9263e-06	50.149	0.0007099	0.00069329	0.00018608	547.08	7.0234e-06	7.3e-06	699.91	177.77	6.9654e-06	7.7237e-06	282.33	122.73	76.539	32.104	7.46e-06	56.4	161.696	231.187	241.542	161.556	289.964	292.821	160.932	166.406	276.828	319.960	165.010	169.023	170.552	175.564	292.891	173.190	-8191	255	
2895.615	1	1	0	0	0.23604	0.14637	0.14525	0.19725	0.048078	0.14595	0.21997	0.28424	0.33603	0.014567	0.17976	0.13757	0.051699	0.29411	0.10643	0.34	-2.5312	-1.9875	-3.0333	-2.4271	-2.3792	-3.0563	-2.2021	-2.8229	-2.7542	-2.1229	-2.9792	-2.4	-2.4396	-3.0812	-2.2812	-2.9104	374.378	287.536	211.190	380.185	202.385	170.987	386.216	181.021	361.082	413.031	271.017	198.998	260.621	449.750	484.495	455.899	0.00072812	0.00036998	0.0001014	497.05	3.3008e-06	3.0194e-06	634.9	161.05	2.9071e-06	4.5683e-06	253.82	110.25	68.818	28.599	3.2347e-06	50.027	0.00070297	0.00069537	0.00018101	549.61	6.81e-06	7.2033e-06	702.27	178.34	6.8822e-06	7.7668e-06	282.23	122.61	76.523	32.057	7.4006e-06	56.148	161.805	254.652	232.732	161.563	319.141	303.960	161.018	166.563	280.234	296.849	165.191	168.949	170.474	175.626	277.602	173.280	-8191	255	
2895.713	1	1	0	0	0.14944	0.27982	0.13958	0.24784	0.32936	0.32689	0.25876	0.28557	0.13333	0.044478	0.093451	0.22609	0.3167	0.12129	0.21835	0.13618	-2.3688	-2.1375	-3.0958	-2.45	-2.1979	-3.2417	-2.2542	-2.7562	-2.8604	-2.3208	-3.1417	-2.6354	-2.3438	-3.0458	-2.1521	-2.6937	228.545	362.419	505.547	154.860	353.273	221.642	417.913	397.736	235.980	303.504	207.114	183.960	483.361	237.329	210.519	506.923	0.00072291	0.00030208	8.1129e-05	495.21	2.579e-06	3.751e-06	630.45	160.49	3.9144e-06	2.9789e-06	251.57	109.76	68.293	28.405	4.955e-06	49.89	0.00067974	0.00068907	0.00017829	546.42	6.7132e-06	7.2904e-06	698.22	177.06	6.74e-06	7.5603e-06	280.2	121.88	75.952	31.849	7.3092e-06	55.959	162.615	239.866	243.856	161.697	283.669	292.357	160.859	166.498	275.623	293.474	165.265	168.905	170.417	175.795	284.522	173.310	-8191	255	
2895.832	1	1	0	0	0.27368	0.3754	0.12143	0.1084	0.18848	0.17688	0.24461	0.022914	0.077794	0.15705	0.17517	0.18415	0.22242	0.10196	0.14055	0.14938	-2.7062	-2.1188	-2.8125	-2.7938	-2.3458	-3.0417	-2.4167	-2.4688	-3.0062	-2.2021	-3	-2.6667	-2.375	-3.2021	-2.4979	-2.6271	263.620	433.998	196.089	345.183	476.145	261.123	480.766	392.924	245.240	172.010	429.700	498.170	370.765	275.906	382.918	270.341	0.00072244	0.00035664	9.6972e-05	494.26	2.3013e-06	4.3836e-06	632.19	159.54	2.8098e-06	3.3147e-06	253.73	109.75	68.734	28.467	3.7234e-06	49.791	0.00067361	0.00067071	0.00017814	545.2	6.8433e-06	7.1193e-06	699.28	177.01	6.8496e-06	7.4612e-06	281.76	122.34	76.212	31.936	7.2302e-06	55.988	163.445	246.612	226.656	161.758	291.879	300.376	161.023	166.376	276.282	301.447	165.045	168.904	170.707	175.783	259.993	173.328	-8191	255	
2895.928	1	1	0	0	0.12737	0.10307	0.091182	0.23804	0.2927	0.19079	0.27033	0.054563	0.21037	0.24758	0.12036	0.14081	0.1133	0.14515	0.14926	0.21916	-2.8417	-2.2	-2.7542	-2.9396	-2.2896	-3.1708	-2.6333	-2.4292	-3.0312	-2.4417	-2.8979	-3.0583	-2.2896	-3.1354	-2.45	-2.4333	494.888	157.834	353.565	391.716	216.023	279.424	343.496	329.763	486.352	374.268	458.883	354.677	225.605	458.278	432.815	399.536	0.00072537	0.00035345	0.00010528	495.16	5.1997e-06	3.3615e-06	634.05	159.97	3.3194e-06	1.8817e-06	253.19	109.95	68.447	28.302	3.287e-06	49.765	0.00068149	0.00066916	0.00017636	546.19	6.6773e-06	7.0743e-06	700.3	176.97	6.6579e-06	7.4515e-06	280.8	122.05	75.986	31.898	7.1595e-06	55.948	161.955	230.705	244.969	161.609	287.008	296.234	160.876	166.616	277.696	286.610	165.059	169.129	170.100	175.630	293.954	173.261	-8191	255	
2896.000	1	1	0	0	0.19183	0.246	0.091365	0.089133	0.10491	0.2626	0.147	0.047383	0.16052	0.23468	0.28538	0.2129	0.099834	0.24478	0.35288	0.099076	-2.6146	-1.8833	-2.7854	-2.9104	-2.2479	-2.9958	-2.6667	-2.3542	-3.0729	-2.3458	-2.6354	-2.9125	-2.0979	-2.9125	-2.5917	-2.4042	297.004	162.337	232.294	161.516	206.523	274.566	383.014	186.722	178.964	334.188	335.856	360.754	159.018	211.187	228.290	206.769	0.0007311	0.00028449	0.00010922	498.56	2.9149e-06	3.2174e-06	635.66	160.07	3.4529e-06	3.6442e-06	254.26	110.59	68.774	28.656	3.8725e-06	50.091	0.0006754	0.00064407	0.00017352	550.46	6.6918e-06	7.0437e-06	703.41	177.41	6.581e-06	7.2729e-06	281.49	122.68	76.315	32.099	7.0597e-06	56.322	161.832	243.739	237.532	161.704	282.372	294.089	160.730	166.472	284.122	291.718	165.073	168.744	170.349	175.585	261.758	173.342	-8191	255	
2896.120	1	1	0	0	0.10337	0.14544	0.15783	0.063948	0.044377	0.030726	0.069973	0.10266	0.10828	0.20344	0.41349	0.011042	0.11067	0.27918	0.16732	0.18302	-2.575	-2.2562	-2.4938	-3.1104	-2.2542	-2.8	-2.5875	-2.1958	-3.1375	-2.1583	-2.4938	-3.1875	-2.1958	-2.9083	-2.6979	-2.2417	415.916	228.411	285.171	466.013	236.010	400.077	413.321	490.514	258.619	174.497	422.716	449.098	176.757	438.256	163.174	451.235	0.00074389	0.00037326	8.8213e-05	499.87	3.267e-06	3.5747e-06	638.77	161	3.0857e-06	4.0479e-06	254.74	110.95	69.219	28.972	3.3249e-06	50.682	0.00068453	0.00064823	0.00017889	553.01	6.7923e-06	7.2075e-06	706.62	178.53	6.6684e-06	7.621e-06	283.57	123.4	76.97	32.415	7.2846e-06	57.05	164.334	244.810	237.063	161.524	292.043	305.305	160.879	166.482	284.362	309.550	165.544	169.040	170.434	175.613	274.071	173.312	-8191	255	
2896.216	1	1	0	0	0.15476	0.17467	0.089387	0.088737	0.17776	0.07587	0.10437	0.37144	0.3359	0.11314	0.018752	0.12383	0.37528	0.11318	0.066919	0.051193	-2.4333	-2.3771	-2.1229	-2.9833	-2.1937	-2.7062	-2.8542	-2.2396	-2.9979	-2.5833	-2.2958	-3.1188	-2.1937	-2.7146	-2.7625	-2.2188	269.196	469.842	224.102	376.063	354.400	277.441	376.621	422.978	182.212	327.230	429.249	436.699	192.256	162.570	223.520	364.724	0.00073949	0.00038528	0.00012167	503.92	3.1009e-06	2.5778e-06	640.21	161.29	3.4374e-06	3.9055e-06	254.61	110.64	69.059	28.826	3.6648e-06	50.423	0.00069553	0.00066281	0.0001869	556	6.9141e-06	7.3618e-06	708.66	179.03	6.6763e-06	7.4558e-06	282.79	123.45	76.907	32.36	7.2027e-06	56.754	161.749	239.899	247.655	161.502	280.994	289.112	160.826	166.456	292.451	294.300	165.041	169.014	170.554	175.913	275.390	173.152	-8191	255	
2896.313	1	1	0	0	0.09145	0.093473	0.26714	0.20557	0.315	0.076939	0.24801	0.10964	0.060978	0.11698	0.2389	0.15877	0.23277	0.098596	0.29487	0.21963	-2.5542	-2.5375	-2.3125	-3.1625	-2.1521	-2.7125	-3.0125	-2.2083	-2.9646	-2.3104	-2.275	-2.9833	-2.3375	-2.5167	-2.9938	-2.3521	194.643	251.191	424.706	361.704	324.748	291.275	471.228	183.613	323.729	425.012	314.443	469.145	225.202	207.973	505.074	389.720	0.00072948	0.00043386	8.3349e-05	499.96	2.5829e-06	3.4284e-06	637.45	160.61	4.1494e-06	2.9934e-06	253.81	110.61	68.988	28.681	3.1936e-06	50.421	0.00069425	0.00068277	0.00019286	553.7	6.7767e-06	7.4681e-06	705.47	177.78	6.7406e-06	7.4205e-06	281.62	122.79	76.415	32.156	7.2722e-06	56.434	161.317	257.867	244.832	161.505	267.953	287.134	160.887	166.311	276.554	287.012	165.033	169.158	170.238	175.733	280.649	173.356	-8191	255	
2896.433	1	1	0	0	0.14207	0.21042	0.12554	0.087605	0.14903	0.056706	0.23205	0.26209	0.12461	0.11951	0.093396	0.089931	0.24013	0.16816	0.1967	0.14554	-2.5292	-2.65	-2.0417	-3.0958	-2.2208	-2.2562	-2.9979	-2.1479	-2.925	-2.7521	-2.1271	-3.3	-2.4688	-2.4667	-2.825	-2.2042	154.327	385.381	320.718	484.251	230.842	327.641	483.330	341.731	394.165	455.887	435.144	168.358	378.340	423.143	157.007	410.515	0.00069381	0.00035254	0.00010162	499.35	2.9788e-06	2.324e-06	638.42	159.79	3.6225e-06	3.3824e-06	253.7	110.41	68.903	28.697	2.9216e-06	50.329	0.00068566	0.00065918	0.00018679	551.15	6.6778e-06	7.3936e-06	703.81	177.23	6.7216e-06	7.3944e-06	282.27	122.86	76.474	32.199	7.1747e-06	56.624	162.449	230.627	244.099	161.718	287.430	311.233	160.842	166.491	272.888	308.253	165.180	169.183	170.460	176.098	282.944	173.205	-8191	255	
2896.528	1	1	0	0	0.16246	0.089579	0.10489	0.2825	0.11661	0.17818	0.14961	0.3972	0.31191	0.24342	0.1153	0.11724	0.2407	0.23435	0.2376	0.041588	-2.6021	-2.7875	-2.05	-3.0542	-2.3354	-2.3646	-3.0625	-2.1271	-2.7625	-2.9208	-2.3146	-3.0479	-2.6208	-2.4229	-2.9146	-2.4292	242.779	397.116	197.807	485.530	487.719	503.210	462.844	432.519	401.470	434.306	196.941	448.656	421.939	318.112	230.748	302.493	0.0007246	0.00036779	8.2364e-05	500.3	3.2461e-06	3.1801e-06	638.67	160.27	3.1217e-06	3.0798e-06	255.35	111.11	69.06	28.685	3.3662e-06	50.244	0.00068857	0.00064914	0.00018804	552.21	6.6528e-06	7.5515e-06	704.86	177.88	6.739e-06	7.2407e-06	283.49	123.35	76.662	32.217	7.2279e-06	56.642	163.186	241.341	258.039	161.903	282.632	289.368	161.128	166.857	274.253	306.669	165.215	169.164	170.467	175.812	261.954	173.446	-8191	255	
2896.601	1	1	0	0	0.26229	0.10438	0.26268	0.14379	0.093441	0.11091	0.10756	0.22846	0.10657	0.08847	0.048696	0.064178	0.26394	0.075918	0.20534	0.036878	-2.1146	-3.0604	-2.0625	-3.0167	-2.7083	-2.2292	-3.1333	-2.4354	-2.65	-2.8521	-2.3187	-2.8583	-2.9875	-2.3542	-2.8417	-2.4958	191.038	436.787	191.567	405.873	363.099	335.684	301.162	151.283	167.741	449.410	227.879	377.421	153.934	374.463	178.769	502.707	0.00073834	0.00037071	8.9614e-05	500.47	3.2363e-06	4.5222e-06	639.65	160.94	3.2621e-06	4.2629e-06	255.14	110.48	68.897	28.601	3.0355e-06	50.2	0.00069592	0.00065549	0.00019057	551.73	6.6148e-06	7.7202e-06	705.5	177.83	6.808e-06	7.2547e-06	282.62	122.89	76.5	32.1	7.1741e-06	56.288	162.224	259.366	242.572	162.014	289.088	285.954	161.206	166.830	277.111	313.951	165.383	169.170	170.642	175.998	287.792	173.624	-8191	255	
2896.720	1	1	0	0	0.17419	0.14051	0.077371	0.22723	0.0075333	0.30936	0.3322	0.14348	0.092175	0.24082	0.046283	0.26314	0.2581	0.34119	0.33251	0.1579	-1.9833	-3.05	-2.2438	-2.9917	-2.8583	-2.2	-3.0938	-2.4021	-2.5229	-3.1396	-2.3458	-2.7979	-2.9521	-2.2521	-2.9771	-2.7125	453.840	378.703	192.280	166.435	428.519	455.837	429.412	468.937	499.701	288.316	272.375	274.351	499.445	463.503	268.222	485.733	0.00071544	0.00042238	8.7546e-05	499.82	3.3136e-06	4.0794e-06	638.8	160.25	3.8158e-06	4.2276e-06	253.67	110.78	68.889	28.639	3.3564e-06	50.073	0.0006883	0.00064994	0.00019082	551.08	6.4992e-06	7.4164e-06	705.32	177.27	6.9254e-06	7.2693e-06	281.77	122.92	76.321	32.038	6.9706e-06	56.346	164.626	242.013	248.609	162.164	279.885	296.353	161.520	166.428	274.703	301.526	165.858	169.605	171.136	176.388	272.274	173.946	-8191	255	
2896.816	1	1	0	0	0.095601	0.11219	0.11331	0.13195	0.13796	0.028875	0.029707	0.31231	0.091062	0.087343	0.37027	0.20605	0.10365	0.12908	0.28666	0.28042	-2.0729	-3.1229	-2.3479	-2.7875	-2.9104	-2.3083	-3.0896	-2.6292	-2.3167	-2.9333	-2.2604	-2.7062	-2.9292	-2.3187	-2.85	-2.8187	152.146	164.692	390.663	461.328	265.784	263.082	280.996	490.609	248.275	379.733	481.804	232.966	151.356	197.028	418.006	175.455	0.00073178	0.00033662	9.5411e-05	499.19	2.695e-06	4.6346e-06	639.66	160.52	3.0446e-06	3.4518e-06	255.23	111.14	69.225	28.74	3.2733e-06	50.508	0.0006944	0.00065032	0.00018102	550.11	6.4831e-06	7.4368e-06	705.05	177.74	6.9459e-06	7.1229e-06	283.45	123.61	76.857	32.222	6.8478e-06	56.706	162.817	241.745	242.016	162.336	298.439	294.784	161.563	167.250	291.770	293.515	165.675	169.860	171.105	176.511	270.520	174.189	-8191	255	
2896.912	1	1	0	0	0.16203	0.033137	0.19958	0.24579	0.17036	0.22286	0.12839	0.22192	0.12151	0.15408	0.13772	0.029885	0.29208	0.1731	0.23624	0.2084	-1.8208	-2.9917	-2.1771	-2.675	-3.0438	-2.0875	-2.9542	-2.8521	-2.1146	-3.1562	-2.4813	-2.5875	-2.9479	-2.2729	-2.725	-2.9333	318.154	499.179	398.527	370.987	469.630	432.704	213.457	399.963	259.471	438.099	436.222	241.823	474.700	203.881	309.708	361.357	0.00073957	0.00040356	8.9094e-05	501.44	2.8779e-06	4.1089e-06	641.73	160.89	3.762e-06	3.6502e-06	255.14	110.77	69.237	28.749	4.2895e-06	50.29	0.00069062	0.0006485	0.00018294	552.26	6.5294e-06	7.4789e-06	707.26	177.99	6.9517e-06	7.1879e-06	283.59	123.44	76.789	32.203	7.1567e-06	56.435	164.278	258.169	254.896	162.817	274.859	321.206	161.865	167.237	276.743	281.232	166.519	170.146	171.633	177.161	282.978	174.179	-8191	255	
2897.008	1	1	0	0	0.10326	0.15573	0.22533	0.19573	0.16814	0.35957	0.075797	0.15771	0.16496	0.18817	0.32186	0.1028	0.11426	0.10306	0.40954	0.14525	-1.7271	-3.1583	-2.5146	-2.4833	-2.8271	-2.1771	-2.8792	-2.9688	-2.1146	-3.0812	-2.6063	-2.3438	-3.2958	-2.1562	-2.7146	-3.0479	420.152	380.919	196.925	427.617	427.267	313.636	381.842	460.283	498.150	317.600	507.666	236.489	169.343	452.553	319.973	418.055	0.00071546	0.00032691	8.0593e-05	496.44	2.9138e-06	3.1682e-06	629.48	158.72	3.4943e-06	3.8315e-06	252.33	109.91	68.03	28.274	3.2527e-06	49.765	0.0006939	0.00063617	0.00017982	548.11	6.4649e-06	7.3516e-06	701.45	176.64	6.9976e-06	7.265e-06	281.39	122.62	76.19	31.887	7.1528e-06	56.06	163.896	248.239	240.321	162.586	267.379	298.079	162.450	167.925	267.757	303.210	166.688	170.474	171.827	177.234	267.924	174.329	-8191	255	
2897.129	1	1	0	0	0.040271	0.13706	0.3053	0.10727	0.13547	0.20158	0.080279	0.27027	0.085716	0.047746	0.32492	0.32503	0.15878	0.32063	0.049146	0.13743	-1.8396	-2.8937	-2.5083	-2.1937	-3.0917	-2.425	-2.6562	-3.0583	-2.1333	-3.0271	-2.7562	-2.2062	-2.9813	-2.4417	-2.6562	-3.25	250.686	294.586	204.605	477.650	332.700	167.887	178.371	468.113	365.261	437.271	477.947	353.568	456.124	384.517	339.563	428.179	0.00073733	0.00029995	8.865e-05	489.92	3.0256e-06	3.1873e-06	631.02	159.34	3.1427e-06	2.5204e-06	252.82	109.5	68.219	28.625	4.0519e-06	50.162	0.00069711	0.00063441	0.00018019	545.17	6.3071e-06	7.2039e-06	699.74	176.79	6.8022e-06	7.1454e-06	281.84	122.6	76.24	32.045	7.122e-06	56.37	163.283	239.548	243.832	163.137	279.142	301.756	162.321	167.803	285.977	286.523	166.432	170.587	171.977	176.655	288.861	174.319	-8191	255	
2897.225	1	1	0	0	0.33361	0.13308	0.22218	0.20316	0.061295	0.16568	0.27988	0.18429	0.1099	0.037093	0.20931	0.22739	0.10158	0.35569	0.23646	0.17637	-1.8083	-2.7896	-2.6042	-2.2229	-3.2479	-2.5167	-2.5125	-3.2208	-2.1333	-3.0708	-2.8646	-2.2729	-3.2917	-2.6083	-2.5167	-3.0896	433.641	375.278	388.952	374.957	252.791	433.809	203.494	444.020	449.363	337.063	432.728	483.690	508.770	325.953	365.133	159.050	0.00072579	0.00034636	0.00010404	494.26	3.0632e-06	3.5307e-06	633.22	159.76	3.7135e-06	2.4866e-06	253.79	110.59	69.094	28.767	3.4099e-06	50.343	0.00069509	0.00063772	0.0001831	547.89	6.5596e-06	7.3156e-06	702.67	177.72	6.8506e-06	7.166e-06	283.57	123.45	76.809	32.216	7.2453e-06	56.715	162.237	236.433	232.408	163.145	278.405	314.999	162.483	167.974	289.368	313.146	166.678	170.291	171.898	176.949	284.409	174.473	-8191	255	
2897.297	1	1	0	0	0.20458	0.10802	0.11653	0.12424	0.16997	0.084499	0.20866	0.12683	0.14915	0.088786	0.092027	0.21073	0.15484	0.051321	0.11521	0.21806	-1.9167	-2.8479	-2.9938	-2.2854	-3.1646	-2.5917	-2.3312	-3.1042	-2.2104	-2.8354	-3.0333	-2.4083	-3.0438	-2.6562	-2.4021	-3.0708	269.980	321.750	191.849	339.220	263.927	466.078	457.281	468.347	252.766	418.146	244.257	215.793	256.478	380.894	184.410	168.886	0.00072351	0.00031697	9.645e-05	496.78	3.3176e-06	1.8789e-06	635.78	160.47	3.193e-06	4.2104e-06	253.99	109.8	68.661	28.581	3.2403e-06	50.164	0.00069247	0.00064215	0.00017858	548.31	6.4415e-06	7.0455e-06	702.96	177.51	6.6157e-06	7.2243e-06	282.4	122.76	76.385	32.031	7.3064e-06	56.27	163.613	232.787	248.542	162.724	288.287	303.404	162.216	167.879	288.772	285.118	166.332	170.230	171.656	176.657	277.455	174.139	-8191	255	
2897.393	1	1	0	0	0.12507	0.17482	0.12345	0.20204	0.075264	0.0649	0.12152	0.13739	0.19402	0.33848	0.17463	0.26025	0.20132	0.10469	0.10544	0.13183	-2.0062	-2.6063	-2.8917	-2.2208	-2.9417	-2.6354	-2.2375	-3.0167	-2.3417	-2.4792	-3.0187	-2.4	-2.8979	-2.7958	-2.0333	-3.1521	364.398	261.024	310.263	326.501	181.554	225.558	396.851	413.148	329.497	336.243	267.305	417.102	275.697	396.454	438.390	491.220	0.0007197	0.00036074	8.8576e-05	494.99	3.5163e-06	3.9375e-06	635.37	160.31	3.9883e-06	2.7534e-06	253.41	110.88	68.755	28.465	2.7867e-06	50.145	0.00069107	0.00065128	0.00018074	545.93	6.5664e-06	7.1535e-06	700.79	176.98	6.5252e-06	7.5062e-06	281.8	122.76	76.214	31.956	7.1999e-06	56.301	163.848	236.281	251.530	162.768	285.119	308.338	161.855	167.537	269.180	293.226	166.092	169.890	171.167	176.933	281.119	174.121	-8191	255	
2897.512	1	1	0	0	0.13919	0.089941	0.05191	0.26385	0.24909	0.21357	0.072038	0.10586	0.17561	0.16978	0.092365	0.26629	0.10264	0.040654	0.19362	0.10185	-2.05	-2.5375	-3.0563	-2.3563	-2.7938	-2.8271	-2.4562	-3.0667	-2.3271	-2.4375	-3.1354	-2.3292	-2.8063	-2.8229	-2.1479	-3.0583	427.918	449.890	379.863	437.925	378.101	322.236	359.666	207.781	243.898	190.259	368.313	166.894	270.294	274.848	161.168	226.725	0.0007142	0.00038756	8.854e-05	496.93	4.3965e-06	3.7895e-06	637.04	160.36	4.0157e-06	4.1827e-06	256.8	111.75	69.542	28.999	3.8116e-06	50.895	0.00067632	0.00067076	0.00017401	547.82	6.3956e-06	7.2412e-06	704.57	178.04	6.6932e-06	7.3944e-06	284.57	124.12	77.241	32.448	7.1836e-06	57.192	162.829	238.613	250.929	162.445	283.706	298.633	161.716	167.462	264.509	289.315	165.624	169.214	171.009	176.090	281.353	173.857	-8191	255	
2897.608	1	1	0	0	0.24883	0.12404	0.12366	0.1474	0.24	0.22569	0.11393	0.1888	0.15121	0.19251	0.067483	0.2142	0.094265	0.088693	0.09542	0.10931	-2.3375	-2.4271	-3.1271	-2.2167	-2.7125	-2.9583	-2.1229	-3.0375	-2.6167	-2.2812	-3.0271	-2.3896	-2.6479	-3.0521	-2.1729	-3.0812	300.586	455.730	462.640	503.270	311.759	397.658	342.460	381.484	346.968	462.172	288.131	472.128	162.303	403.965	191.453	158.375	0.00073248	0.0003164	0.00012669	503.89	3.0842e-06	4.1331e-06	642.51	162.03	3.9779e-06	4.1007e-06	256.09	111.59	69.822	28.874	3.8807e-06	50.556	0.00068875	0.00065939	0.00017588	554.92	6.4904e-06	7.1511e-06	710.42	179.08	6.4672e-06	7.4564e-06	284.38	123.96	77.246	32.32	7.2498e-06	56.733	161.569	243.972	247.697	162.217	287.928	303.857	161.963	167.246	275.488	285.302	165.744	169.770	171.513	176.652	284.267	174.295	-8191	255	
2897.704	1	1	0	0	0.19308	0.060563	0.087057	0.27447	0.1415	0.1053	0.14444	0.19357	0.14451	0.29947	0.057436	0.084762	0.16167	0.03892	0.2068	0.27938	-2.3812	-2.25	-2.9708	-2.4729	-2.45	-2.9917	-2.3708	-3.0292	-2.8708	-2.2375	-3.0083	-2.825	-2.4708	-3.175	-2.2354	-2.9042	220.700	450.919	424.637	471.287	208.007	301.009	354.953	464.215	384.882	167.569	389.557	451.410	370.793	506.314	188.573	405.150	0.00073785	0.00032085	9.9019e-05	502.65	3.2102e-06	4.0669e-06	641.99	160.76	4.0726e-06	4.0474e-06	254.71	110.91	69.141	28.747	3.0629e-06	50.397	0.00068554	0.00067375	0.00017718	553.73	6.5575e-06	7.0773e-06	707.44	177.96	6.5273e-06	7.4278e-06	283.14	123.42	76.815	32.215	7.2526e-06	56.604	163.329	236.689	229.064	162.451	292.348	315.223	161.726	167.424	271.274	297.824	166.198	170.128	171.550	176.697	300.878	173.949	-8191	255	
2897.800	1	1	0	0	0.09097	0.10873	0.070584	0.17751	0.086231	0.11099	0.17594	0.22698	0.012223	0.13112	0.071805	0.072453	0.18328	0.10139	0.10327	0.33988	-2.5729	-2.2958	-3.075	-2.5104	-2.3604	-3.175	-2.5458	-2.8854	-3.1208	-2.1917	-3.0687	-2.7125	-2.2687	-3.2479	-2.1958	-2.8896	246.006	272.459	227.554	470.040	247.278	153.572	201.197	497.098	304.364	274.221	352.910	261.965	427.292	204.188	300.322	468.328	0.00072951	0.00035401	8.9321e-05	500.45	3.2226e-06	3.4415e-06	643.3	160.66	3.1601e-06	3.6798e-06	255.46	111.19	69.254	28.692	3.757e-06	50.441	0.00068111	0.00067428	0.0001754	552.33	6.5732e-06	6.9758e-06	707.78	178.16	6.6926e-06	7.2353e-06	283.6	123.59	76.796	32.227	7.1758e-06	56.683	162.399	234.633	231.228	162.030	301.617	291.057	161.456	166.995	284.015	292.921	165.929	169.742	171.061	176.500	285.760	173.860	-8191	255	
2897.896	1	1	0	0	0.054191	0.11306	0.18852	0.14461	0.23716	0.042348	0.24802	0.20567	0.19917	0.17946	0.18494	0.18324	0.20216	0.17374	0.0028483	0.35232	-2.7313	-2.0729	-2.9583	-2.7396	-2.2896	-3.2188	-2.5979	-2.6833	-2.9625	-2.5021	-2.9396	-2.8958	-2.2792	-3.2687	-2.3729	-2.65	382.234	286.758	160.202	491.979	226.696	409.525	361.618	273.675	504.763	255.257	221.506	169.742	171.991	454.464	468.116	412.314	0.00072198	0.00031595	9.5694e-05	497.77	2.962e-06	3.2431e-06	636.28	160.34	3.0923e-06	3.4579e-06	255.74	110.59	68.92	28.629	3.3305e-06	50.354	0.000677	0.00065624	0.00017366	550.41	6.6929e-06	6.9752e-06	703.76	177.43	6.5994e-06	7.3829e-06	283.28	122.85	76.472	32.125	7.1259e-06	56.541	162.772	247.963	245.867	162.312	275.359	303.114	161.624	167.207	280.852	292.907	165.712	169.352	171.211	176.711	305.210	173.828	-8191	255	
2897.993	1	1	0	0	0.15858	0.25101	0.076102	0.32807	0.41607	0.069329	0.33215	0.17681	0.20399	0.14564	0.20449	0.17944	0.040117	0.21277	0.18893	0.12527	-2.5521	-2.2854	-2.7812	-2.8604	-2.3042	-3.0333	-2.4437	-2.7042	-3.0583	-2.3688	-2.9479	-3.1125	-2.2687	-3.2958	-2.4854	-2.6083	263.071	462.187	289.895	412.025	417.515	425.987	164.128	487.218	314.871	476.487	340.119	458.483	214.266	463.707	411.278	290.912	0.00075027	0.00045152	8.9729e-05	498.06	4.0345e-06	3.4088e-06	634.37	159.94	4.0564e-06	4.0423e-06	253.69	110.45	68.653	28.539	3.8888e-06	50.169	0.00068937	0.00066569	0.00017608	548.53	6.4977e-06	6.9836e-06	702.55	177.35	6.5984e-06	7.4904e-06	282.06	122.78	76.237	32.002	7.0267e-06	56.251	162.055	244.408	225.623	162.313	274.206	314.977	161.818	167.191	279.866	314.090	166.104	169.927	171.333	176.637	280.253	174.202	-8191	255	
2898.113	1	1	0	0	0.016617	0.271	0.26196	0.085547	0.26365	0.2675	0.14974	0.35602	0.085332	0.13416	0.049018	0.060337	0.25381	0.068643	0.039668	0.048128	-2.6854	-2.3021	-2.8042	-2.8625	-2.2708	-3.0958	-2.5167	-2.4417	-3.1104	-2.2562	-2.7833	-3.0167	-2.1896	-2.9604	-2.7021	-2.4646	238.318	397.000	426.017	506.850	241.183	312.066	445.880	467.967	425.149	389.135	305.178	505.485	159.265	461.811	264.779	467.151	0.00071368	0.00037965	8.0024e-05	498.06	2.8533e-06	2.721e-06	638.11	160.11	4.3356e-06	2.9301e-06	254.15	110.69	68.937	28.589	3.4245e-06	50.058	0.00067974	0.00065629	0.00017769	549.69	6.7845e-06	6.9152e-06	704.6	177.56	6.493e-06	7.3956e-06	282.03	122.8	76.376	32.068	6.9712e-06	56.345	162.681	231.227	221.237	162.118	277.606	269.920	161.534	167.152	271.910	298.635	166.073	169.784	171.526	176.538	277.106	174.223	-8191	255	
2898.209	1	1	0	0	0.21317	0.28133	0.23199	0.046322	0.13074	0.05713	0.18913	0.31848	0.055635	0.21401	0.070326	0.22211	0.26615	0.056739	0.21944	0.2345	-2.7146	-2.3833	-2.6083	-2.8833	-2.3458	-3.0354	-2.8521	-2.3792	-3.1813	-2.4562	-2.5917	-3.0521	-2.3167	-2.8312	-2.9437	-2.4792	498.986	211.463	492.383	365.665	276.679	375.892	475.287	349.917	263.060	417.424	504.480	164.763	453.700	456.060	286.605	188.835	0.00070531	0.00034578	0.00010849	500.1	2.915e-06	3.1859e-06	640.1	159.77	3.1034e-06	2.6736e-06	255.52	110.48	68.927	28.674	2.2741e-06	50.446	0.00067724	0.00065544	0.00018321	550.97	6.7444e-06	7.1505e-06	705.8	177.02	6.7258e-06	7.2486e-06	282.54	122.9	76.385	32.103	7.1988e-06	56.562	163.623	222.919	237.195	162.443	273.759	304.350	162.007	167.411	277.682	329.925	166.087	170.130	171.265	176.648	314.767	174.088	-8191	255	
2898.305	1	1	0	0	0.14665	0.15879	0.022673	0.31936	0.35213	0.039329	0.24911	0.080014	0.11112	0.26023	0.20259	0.11819	0.093285	0.083377	0.095818	0.11993	-2.7125	-2.4646	-2.5917	-3.2104	-2.2333	-2.7479	-2.8354	-2.1896	-2.9729	-2.5354	-2.3917	-3.2042	-2.4479	-2.7646	-3.1021	-2.3979	408.856	442.420	393.960	240.938	384.214	259.913	461.641	483.303	479.547	365.764	277.471	169.552	419.610	374.431	356.129	458.074	0.00072458	0.00033995	9.2928e-05	500.53	3.1432e-06	3.8687e-06	640.06	161.03	3.2744e-06	3.1774e-06	255.37	111.13	68.729	28.638	3.8655e-06	50.231	0.00068197	0.00066457	0.00019032	552.22	6.7704e-06	7.2159e-06	708.04	178.29	6.6795e-06	7.4102e-06	283.34	123.21	76.455	32.15	7.0356e-06	56.452	163.965	243.195	257.784	162.441	293.408	300.270	161.668	167.283	290.531	328.489	165.876	169.784	171.533	176.688	273.439	174.138	-8191	255	
2898.402	1	1	0	0	0.1377	0.22964	0.11615	0.17078	0.16078	0.22837	0.3336	0.27721	0.17052	0.26793	0.13069	0.41224	0.047538	0.13066	0.1079	0.32448	-2.8542	-2.5646	-2.3937	-3.0771	-2.3812	-2.5708	-3.1	-2.1312	-2.9875	-2.4979	-2.4854	-3.0354	-2.5208	-2.6729	-3.1271	-2.3625	360.370	151.059	398.460	377.296	267.976	240.666	423.090	175.462	372.547	447.261	421.454	154.703	491.280	367.904	275.099	285.476	0.00071883	0.00028234	0.00010564	500.79	2.9985e-06	4.1059e-06	640.63	160.48	4.0632e-06	3.9808e-06	254.71	110.26	68.776	28.602	4.2353e-06	50.251	0.00068932	0.00066526	0.00018822	553.25	6.6606e-06	7.3972e-06	707.93	177.71	6.7269e-06	7.457e-06	282.89	122.79	76.459	32.14	7.108e-06	56.4	162.160	243.033	254.483	162.319	286.224	300.045	161.806	167.246	281.953	317.253	165.725	169.777	171.217	176.289	289.960	173.567	-8191	255	
2898.496	1	1	0	0	0.067332	0.12853	0.10345	0.23503	0.1136	0.1975	0.065212	0.18353	0.21988	0.1898	0.11252	0.072551	0.18903	0.097146	0.04873	0.18764	-2.4792	-2.7604	-2.1833	-3.0396	-2.5062	-2.6	-3.2333	-2.3125	-2.9333	-2.8958	-2.3333	-3.2687	-2.7167	-2.775	-3.0771	-2.1792	212.555	197.988	383.284	410.390	190.163	174.175	215.930	454.654	400.786	315.845	181.102	301.312	171.677	448.921	392.807	425.819	0.00072951	0.0003216	9.008e-05	503.24	2.8203e-06	2.7154e-06	640.35	160.42	4.0941e-06	3.4684e-06	254.05	110.2	68.673	28.665	3.926e-06	50.158	0.00068578	0.00065176	0.00018936	554.24	6.936e-06	7.4146e-06	707.59	177.64	6.7858e-06	7.1405e-06	282.91	122.5	76.236	32.02	7.1702e-06	56.34	161.671	239.786	249.670	162.068	270.369	313.058	161.525	166.756	280.693	297.413	165.558	169.435	170.745	176.348	283.777	173.576	-8191	255	
2898.592	1	1	0	0	0.18076	0.17486	0.22688	0.088112	0.12441	0.11753	0.214	0.089783	0.2071	0.22851	0.11533	0.12914	0.2317	0.083036	0.060182	0.19702	-2.5104	-3.0312	-2.1958	-2.9792	-2.5542	-2.4313	-3.3854	-2.3187	-2.7667	-3.0896	-2.4854	-3.1854	-2.8917	-2.4813	-3.0042	-2.6229	376.864	359.378	397.985	445.618	355.174	214.751	445.003	456.884	259.685	497.793	417.812	197.727	170.910	223.100	204.963	263.715	0.00075436	0.00035919	6.7787e-05	500.64	4.1377e-06	3.9702e-06	637.5	160.53	3.7208e-06	3.1218e-06	255.21	111.09	68.964	28.74	4.9169e-06	50.359	0.00069636	0.00065886	0.00018931	553.11	6.6325e-06	7.5971e-06	707.24	177.73	6.8006e-06	7.2584e-06	283.49	123.22	76.471	32.213	7.1007e-06	56.552	162.966	252.778	230.373	161.849	276.347	285.469	161.255	166.856	268.481	303.258	165.590	169.459	170.961	176.118	290.693	173.726	-8191	255	
2898.688	1	1	0	0	0.16451	0.10228	0.075784	0.24587	0.076184	0.14241	0.20431	0.26406	0.093883	0.077099	0.11195	0.086528	0.26427	0.11534	0.085647	0.25317	-2.3833	-2.95	-2.1479	-3.0375	-2.6646	-2.1333	-3.2583	-2.5167	-2.6708	-3.1063	-2.525	-2.925	-2.6271	-2.2438	-3.175	-2.5021	151.589	322.712	218.051	170.339	364.165	427.139	441.686	508.589	264.118	461.036	204.010	441.717	254.836	207.446	445.361	195.993	0.00073786	0.00027259	9.0434e-05	501.12	2.2159e-06	2.8351e-06	639.86	160.24	3.6409e-06	2.8557e-06	253.09	110.38	68.874	28.572	3.3712e-06	50.164	0.00069949	0.00064562	0.00018492	553.9	6.785e-06	7.4675e-06	707.51	177.45	6.908e-06	7.3555e-06	282.16	122.75	76.481	32.048	7.0166e-06	56.272	161.697	245.786	240.179	161.733	278.510	308.180	161.245	166.750	294.225	296.408	165.745	169.516	170.833	175.861	287.810	173.363	-8191	255	
2898.809	1	1	0	0	0.20691	0.12354	0.22232	0.035659	0.17019	0.026823	0.070138	0.08119	0.079401	0.015854	0.3485	0.27749	0.11527	0.36492	0.1021	0.11689	-2.0833	-3.1271	-2.0438	-3.0521	-2.8354	-2.3563	-3.2583	-2.5792	-2.3083	-3.1104	-2.3729	-3.0354	-3.0958	-2.2771	-3.0312	-2.5625	313.702	186.059	159.447	160.226	465.491	215.170	337.696	457.997	408.384	409.293	416.334	471.130	180.800	153.453	199.295	316.463	0.00073382	0.00027775	7.4674e-05	501.79	2.7222e-06	4.2927e-06	641.49	161.02	3.7699e-06	4.5459e-06	254.76	110.76	68.798	28.564	3.4742e-06	50.124	0.0006903	0.00064076	0.00018121	554.6	6.5768e-06	7.5257e-06	708.65	178.13	6.799e-06	7.2954e-06	283.31	123.07	76.459	32.104	6.9639e-06	56.424	163.306	236.563	247.454	161.936	266.588	281.361	161.191	166.564	280.668	297.310	165.630	169.570	170.832	176.010	282.928	173.420	-8191	255	
2898.905	1	1	0	0	0.14395	0.17719	0.23895	0.12563	0.14517	0.14537	0.15108	0.12806	0.27984	0.030485	0.089837	0.17324	0.28022	0.15221	0.25947	0.39599	-2.1771	-3.1188	-2.1562	-2.7104	-3.0896	-2.2667	-3.1771	-2.8083	-2.3854	-3.1208	-2.425	-2.7438	-2.9938	-2.2771	-2.9729	-2.8708	402.929	352.847	250.992	163.879	445.453	288.151	379.738	268.353	423.513	213.714	172.729	486.648	163.474	505.030	407.884	454.070	0.00073004	0.00026917	9.4753e-05	503.29	3.4821e-06	3.782e-06	640.32	160.97	4.5505e-06	3.7242e-06	255.25	110.63	69.029	28.648	2.8703e-06	50.288	0.00069666	0.00063067	0.00018232	555.74	6.5643e-06	7.3444e-06	709.48	178.06	6.858e-06	7.3495e-06	283.17	123.06	76.427	32.058	6.9061e-06	56.467	160.801	236.212	246.230	161.590	302.630	305.434	160.966	166.476	294.894	304.311	165.121	168.938	170.375	175.700	280.349	173.047	-8191	255	
2899.001	1	1	0	0	0.12642	0.17332	0.019658	0.27291	0.2147	0.15153	0.14779	0.1403	0.11317	0.1054	0.22732	0.25012	0.07181	0.0863	0.069623	0.21493	-1.9104	-3.0729	-2.4042	-2.5854	-2.9021	-2.2833	-2.9188	-2.7938	-2.1854	-3.1604	-2.6646	-2.5438	-3.1063	-2.1833	-3.0083	-2.9562	479.294	222.541	189.060	493.101	477.381	189.842	504.893	271.025	487.405	292.558	183.218	256.113	172.309	468.065	279.883	426.035	0.00073026	0.00040728	6.4684e-05	501.83	2.8183e-06	1.9198e-06	642.52	160.99	3.1757e-06	3.7227e-06	253.77	110.09	68.688	28.546	3.0717e-06	50.126	0.00069978	0.00064706	0.00018432	553.37	6.6773e-06	7.2424e-06	708.63	178.05	6.8938e-06	7.2e-06	282.7	122.74	76.288	32.016	7.0334e-06	56.227	163.217	250.062	242.383	161.420	291.748	281.250	160.781	166.387	278.776	322.908	164.915	169.226	170.436	175.849	272.661	173.321	-8191	255	
2899.097	1	1	0	0	0.26262	0.30067	0.099783	0.12235	0.040395	0.22995	0.2053	0.099986	0.21236	0.16692	0.32623	0.149	0.18402	0.070546	0.19576	0.21279	-1.9104	-2.9437	-2.5542	-2.5062	-3.0187	-2.2542	-2.85	-2.9625	-2.1667	-3.0646	-2.6104	-2.5146	-3.0333	-2.2625	-2.8021	-3.0687	348.979	499.752	195.529	371.001	213.146	291.516	386.409	444.695	388.943	424.911	392.501	420.781	186.724	274.607	224.479	486.616	0.00073549	0.00016564	7.5924e-05	501.02	2.6826e-06	3.8176e-06	640.64	161.3	2.564e-06	3.0205e-06	255.43	110.3	68.629	28.66	2.8496e-06	50.279	0.00069681	0.00064989	0.00018114	552.57	6.6637e-06	7.3552e-06	706.84	177.77	6.966e-06	7.2796e-06	282.4	122.73	76.268	32.081	7.1388e-06	56.37	162.826	241.728	253.410	161.875	272.719	303.365	161.387	166.772	285.583	313.608	165.661	169.464	170.701	175.908	266.376	173.590	-8191	255	
2899.194	1	1	0	0	0.063133	0.032684	0.1617	0.13798	0.11406	0.17495	0.3362	0.3227	0.080991	0.19943	0.13899	0.079374	0.12556	0.22454	0.27349	0.20462	-1.8792	-3.0687	-2.825	-2.5271	-3.1979	-2.4979	-2.6063	-3.0292	-2.2062	-3.0396	-2.6646	-2.4479	-3.2875	-2.3187	-2.6167	-3.0604	369.872	341.955	482.451	380.203	499.920	358.466	151.361	461.263	492.283	317.729	439.257	372.550	476.249	152.119	400.413	360.938	0.00071738	0.00030712	0.00012017	505.09	2.728e-06	3.8604e-06	647.41	161.15	4.4796e-06	3.5698e-06	254.81	110.49	68.94	28.655	3.4792e-06	50.312	0.00070392	0.0006525	0.00018358	557.63	6.8803e-06	7.4537e-06	714.32	178.52	7.125e-06	7.364e-06	283.46	123.03	76.553	32.157	7.2548e-06	56.543	162.668	249.751	246.061	161.892	272.054	314.355	161.130	166.469	283.129	306.086	165.599	169.376	170.573	175.854	293.877	173.366	-8191	255	
2899.290	1	1	0	0	0.065173	0.0593	0.19276	0.13057	0.25557	0.13553	0.16865	0.20883	0.18423	0.18311	0.10979	0.1245	0.17949	0.19694	0.11119	0.2184	-1.9438	-2.9521	-2.6479	-2.2438	-3.1917	-2.5167	-2.5958	-3.0854	-2.1	-2.9792	-3.0062	-2.2208	-3.1125	-2.5375	-2.4458	-3.0604	292.929	221.919	470.738	507.820	467.805	175.503	474.138	498.659	315.559	411.053	496.678	488.375	429.475	441.781	449.182	463.870	0.00073577	0.00036926	7.2594e-05	505.88	2.6446e-06	4.6958e-06	646.63	162.5	3.6648e-06	2.5569e-06	256.27	111.39	69.232	28.788	5.0404e-06	50.68	0.00070005	0.00064706	0.00018498	559.49	6.507e-06	7.3648e-06	714.79	179.31	6.9875e-06	7.1806e-06	284.61	123.67	76.889	32.313	7.3759e-06	56.779	163.767	246.356	257.273	161.642	281.010	293.948	161.259	166.686	261.479	315.243	165.430	169.601	170.998	176.300	282.110	173.711	-8191	255	
2899.386	1	1	0	0	0.063876	0.25016	0.29627	0.12423	0.21386	0.10671	0.022638	0.053565	0.073642	0.32651	0.26518	0.25238	0.09528	0.19641	0.11712	0.11294	-1.8083	-2.8	-2.9083	-2.2646	-3.1771	-2.5979	-2.5438	-3.2562	-2.4771	-2.7	-3.1	-2.1604	-3.15	-2.6083	-2.3104	-3.1312	455.851	185.052	361.730	392.000	434.531	262.272	355.414	507.252	197.121	306.566	155.094	180.105	320.262	267.643	207.790	411.512	0.0007415	0.00031253	6.8858e-05	506.33	3.1751e-06	3.264e-06	647.01	162.2	3.0869e-06	3.3847e-06	255.78	111.04	69.107	28.72	5.186e-06	50.523	0.00069574	0.00067231	0.00018169	557.61	6.5669e-06	7.3702e-06	712.89	179.23	6.7537e-06	7.2887e-06	283.64	123.27	76.763	32.203	7.4752e-06	56.627	163.817	224.988	252.061	161.808	286.214	307.534	161.698	166.836	287.698	311.230	165.794	169.747	171.184	176.258	283.398	173.930	-8191	255	
#DATA ENDS
