BOXY.EXE: ISS Imagent and Oximeter Data Acquisition Program Version 0.80
Ascii Record File

#ACQ INFORMATION
2  Detector Channels 
16  External MUX Channels 
1  Auxiliary Channels 
5000  Waveform (CCF) Frequency (Hz)
1  Waveforms Skipped 
30  Waveforms Averaged 
1  Cycles Averaged 
16  Acquisitions per Waveform 
10.0806  Updata Rate (Hz) 

#FILE INFORMATION
TRUE -- External MUX Channel results are PARSED.
FALSE -- AC DC and Phase are NOT grouped.
TRUE -- Companion Program Settings File CREATED.
FALSE -- AC data not excluded
FALSE -- DC data not excluded
FALSE -- Phase data not excluded
FALSE -- Auxillary Chn. data not excluded
Tab delimiters

#CALIBRATION STATE
TRUE -- Waveform Calibration Values APPLIED.


#AUX CALIBRATION VALUES
Val Type	aux-1	

Term	1.0000e+00	
Factor	0.0000e+00	


#WF CALIBRATION VALUES
A = Detector Channel
Val Type	A-AC1	A-AC2	A-AC3	A-AC4	A-AC5	A-AC6	A-AC7	A-AC8	A-AC9	A-AC10	A-AC11	A-AC12	A-AC13	A-AC14	A-AC15	A-AC16	A-DC1	A-DC2	A-DC3	A-DC4	A-DC5	A-DC6	A-DC7	A-DC8	A-DC9	A-DC10	A-DC11	A-DC12	A-DC13	A-DC14	A-DC15	A-DC16	A-Ph1	A-Ph2	A-Ph3	A-Ph4	A-Ph5	A-Ph6	A-Ph7	A-Ph8	A-Ph9	A-Ph10	A-Ph11	A-Ph12	A-Ph13	A-Ph14	A-Ph15	A-Ph16	

Term	0.00000e+00	0.00000e+00	0.00000e+00	0.00000e+00	0.00000e+00	0.00000e+00	0.00000e+00	0.00000e+00	0.00000e+00	0.00000e+00	0.00000e+00	0.00000e+00	0.00000e+00	0.00000e+00	0.00000e+00	0.00000e+00	0.00000e+00	0.00000e+00	0.00000e+00	0.00000e+00	0.00000e+00	0.00000e+00	0.00000e+00	0.00000e+00	0.00000e+00	0.00000e+00	0.00000e+00	0.00000e+00	0.00000e+00	0.00000e+00	0.00000e+00	0.00000e+00	0.00000e+00	0.00000e+00	0.00000e+00	0.00000e+00	0.00000e+00	0.00000e+00	0.00000e+00	0.00000e+00	0.00000e+00	0.00000e+00	0.00000e+00	0.00000e+00	0.00000e+00	0.00000e+00	0.00000e+00	0.00000e+00	
Factor	1.00000e+00	1.00000e+00	1.00000e+00	1.00000e+00	1.00000e+00	1.00000e+00	1.00000e+00	1.00000e+00	1.00000e+00	1.00000e+00	1.00000e+00	1.00000e+00	1.00000e+00	1.00000e+00	1.00000e+00	1.00000e+00	1.00000e+00	1.00000e+00	1.00000e+00	1.00000e+00	1.00000e+00	1.00000e+00	1.00000e+00	1.00000e+00	1.00000e+00	1.00000e+00	1.00000e+00	1.00000e+00	1.00000e+00	1.00000e+00	1.00000e+00	1.00000e+00	X	X	X	X	X	X	X	X	X	X	X	X	X	X	X	X	

B = Detector Channel
Val Type	B-AC1	B-AC2	B-AC3	B-AC4	B-AC5	B-AC6	B-AC7	B-AC8	B-AC9	B-AC10	B-AC11	B-AC12	B-AC13	B-AC14	B-AC15	B-AC16	B-DC1	B-DC2	B-DC3	B-DC4	B-DC5	B-DC6	B-DC7	B-DC8	B-DC9	B-DC10	B-DC11	B-DC12	B-DC13	B-DC14	B-DC15	B-DC16	B-Ph1	B-Ph2	B-Ph3	B-Ph4	B-Ph5	B-Ph6	B-Ph7	B-Ph8	B-Ph9	B-Ph10	B-Ph11	B-Ph12	B-Ph13	B-Ph14	B-Ph15	B-Ph16	

Term	0.00000e+00	0.00000e+00	0.00000e+00	0.00000e+00	0.00000e+00	0.00000e+00	0.00000e+00	0.00000e+00	0.00000e+00	0.00000e+00	0.00000e+00	0.00000e+00	0.00000e+00	0.00000e+00	0.00000e+00	0.00000e+00	0.00000e+00	0.00000e+00	0.00000e+00	0.00000e+00	0.00000e+00	0.00000e+00	0.00000e+00	0.00000e+00	0.00000e+00	0.00000e+00	0.00000e+00	0.00000e+00	0.00000e+00	0.00000e+00	0.00000e+00	0.00000e+00	-1.55424e+02	-1.27235e+02	-1.24166e+02	-1.80391e+02	-7.40752e+01	-6.35377e+01	-1.56642e+02	-1.62015e+02	-7.80018e+01	-6.24457e+01	-1.75242e+02	-1.71364e+02	-1.79620e+02	-1.76316e+02	-7.26602e+01	-1.49562e+02	
Factor	2.32168e-05	1.44619e-04	3.90176e-05	1.53962e-01	1.28637e-06	1.68364e-06	1.74380e-01	5.13261e-02	1.26631e-06	1.62331e-06	9.43026e-02	3.18907e-02	2.43581e-02	9.34159e-03	1.41395e-06	1.29416e-02	1.42752e-05	2.56240e-05	7.09592e-06	7.92124e-02	2.49870e-07	2.88134e-07	8.45014e-02	2.65240e-02	2.52790e-07	2.91573e-07	4.71960e-02	1.60623e-02	1.27823e-02	4.86681e-03	2.69113e-07	6.54773e-03	X	X	X	X	X	X	X	X	X	X	X	X	X	X	X	X	



#DISTANCE SETTINGS
A = Detector Channel
A-1	A-2	A-3	A-4	A-5	A-6	A-7	A-8	A-9	A-10	A-11	A-12	A-13	A-14	A-15	A-16	

2.5000e+00	3.0000e+00	2.5000e+00	3.0000e+00	2.0000e+00	3.0000e+00	1.5000e+00	3.0000e+00	3.0000e+00	3.0000e+00	3.0000e+00	3.0000e+00	3.0000e+00	3.0000e+00	1.5000e+00	3.0000e+00	

B = Detector Channel
B-1	B-2	B-3	B-4	B-5	B-6	B-7	B-8	B-9	B-10	B-11	B-12	B-13	B-14	B-15	B-16	

1.0000e+01	1.0000e+01	1.0000e+01	1.4400e+00	1.0000e+01	1.0000e+01	1.5100e+00	1.9400e+00	1.0000e+01	1.0000e+01	1.9900e+00	2.4900e+00	2.4100e+00	2.9000e+00	1.0000e+01	2.9800e+00	




#DATA BEGINS
time	group	step	mark	flag	A-AC1	A-AC2	A-AC3	A-AC4	A-AC5	A-AC6	A-AC7	A-AC8	A-AC9	A-AC10	A-AC11	A-AC12	A-AC13	A-AC14	A-AC15	A-AC16	A-DC1	A-DC2	A-DC3	A-DC4	A-DC5	A-DC6	A-DC7	A-DC8	A-DC9	A-DC10	A-DC11	A-DC12	A-DC13	A-DC14	A-DC15	A-DC16	A-Ph1	A-Ph2	A-Ph3	A-Ph4	A-Ph5	A-Ph6	A-Ph7	A-Ph8	A-Ph9	A-Ph10	A-Ph11	A-Ph12	A-Ph13	A-Ph14	A-Ph15	A-Ph16	B-AC1	B-AC2	B-AC3	B-AC4	B-AC5	B-AC6	B-AC7	B-AC8	B-AC9	B-AC10	B-AC11	B-AC12	B-AC13	B-AC14	B-AC15	B-AC16	B-DC1	B-DC2	B-DC3	B-DC4	B-DC5	B-DC6	B-DC7	B-DC8	B-DC9	B-DC10	B-DC11	B-DC12	B-DC13	B-DC14	B-DC15	B-DC16	B-Ph1	B-Ph2	B-Ph3	B-Ph4	B-Ph5	B-Ph6	B-Ph7	B-Ph8	B-Ph9	B-Ph10	B-Ph11	B-Ph12	B-Ph13	B-Ph14	B-Ph15	B-Ph16	aux-1	digaux	

2385.603	1	1	0	256	0.21196	0.18209	0.10932	0.2593	0.011961	0.10489	0.16735	0.19581	0.17817	0.13869	0.11402	0.11448	0.023265	0.043468	0.064301	0.11767	-1.8	-2.8	-2.6437	-2.3979	-2.9146	-2.2562	-2.6937	-3.1771	-2.2938	-2.7021	-2.9813	-2.2542	-3.0167	-2.4542	-2.3937	-3.1	-18.236	-36.292	217.001	267.891	-16.135	203.328	222.946	201.325	186.952	-63.206	260.976	224.313	265.650	44.002	114.526	53.548	7.529e-05	0.00024904	6.952e-05	1154.1	2.1723e-06	3.4921e-06	1242.9	234.84	2.2474e-07	3.4792e-06	291.38	84.627	67.274	20.071	2.5727e-06	27.398	0.00022481	0.00020376	5.8231e-05	1127.6	2.6465e-06	2.4455e-06	1219.4	231.19	2.7243e-06	2.3198e-06	289.96	85.316	67.424	20.285	2.4125e-06	27.785	143.591	6.404	17.332	-62.923	74.425	94.032	-62.873	-55.619	101.450	77.235	-56.341	-49.501	-48.738	-41.932	80.091	-42.611	-8191	255	
2385.699	1	1	0	0	0.21026	0.049542	0.17905	0.26184	0.12527	0.016167	0.27747	0.2978	0.11463	0.24793	0.13963	0.14287	0.22627	0.34078	0.19606	0.1038	-1.8563	-2.7562	-3.0333	-2.2313	-3.0042	-2.55	-2.3896	-3.0646	-2.3	-2.6312	-2.8208	-1.8667	-3.0542	-2.6167	-2.1458	-3.1167	52.512	119.156	103.318	176.627	49.468	9.589	251.989	215.478	-57.341	276.465	277.852	22.034	-60.368	-53.742	211.269	243.691	8.6927e-05	0.00021323	8.2584e-05	1142.2	2.4459e-06	2.348e-06	1223	232.17	1.9198e-06	2.6989e-06	289.77	84.75	66.438	19.979	2.5181e-06	27.414	0.00021975	0.00021503	5.8852e-05	1124.2	2.6143e-06	2.257e-06	1212.6	230.69	2.7328e-06	2.4207e-06	289.3	85.224	66.808	20.135	2.4136e-06	27.739	149.114	46.215	36.642	-63.247	96.736	75.883	-63.070	-55.923	52.773	52.479	-56.200	-49.243	-48.700	-41.904	54.896	-42.551	-8191	255	
2385.795	1	1	0	0	0.22817	0.18763	0.15029	0.093087	0.26532	0.063673	0.2251	0.065857	0.13167	0.15559	0.15398	0.070298	0.13078	0.062241	0.20648	0.21187	-1.8208	-2.4979	-2.9708	-2.35	-2.8438	-2.6771	-2.4979	-3.2021	-2.3917	-2.3979	-2.8208	-2.2687	-2.9729	-2.6146	-2.1312	-3.1521	262.794	132.104	8.362	184.295	119.491	-8.257	206.502	191.345	136.786	232.652	266.948	-48.529	234.679	17.505	201.383	237.791	9.8084e-05	0.00028941	7.3165e-05	1137.3	2.1955e-06	2.7178e-06	1226.9	233.58	1.2536e-06	2.1863e-06	294.61	84.977	67.638	20.091	2.9099e-06	27.397	0.00021776	0.00020446	5.4402e-05	1120	2.5997e-06	2.119e-06	1210.6	230.61	2.7775e-06	2.3611e-06	290.46	84.849	67.175	20.144	2.704e-06	27.637	128.630	38.833	21.422	-62.779	99.689	73.653	-63.123	-55.216	48.159	53.133	-55.724	-48.804	-48.357	-41.014	92.495	-41.514	-8191	255	
2385.891	1	1	0	0	0.29049	0.023721	0.10745	0.23142	0.10444	0.11861	0.074203	0.2201	0.314	0.12933	0.16182	0.2258	0.16531	0.094586	0.24203	0.072195	-2.1292	-2.4667	-3.1208	-2.425	-2.7646	-2.9729	-2.2417	-2.9833	-2.5625	-2.4354	-3.2021	-2.2917	-2.775	-2.7188	-1.9646	-2.7687	101.224	134.232	147.617	221.568	279.735	208.809	198.310	-49.738	97.706	-38.394	175.909	232.891	185.766	215.287	135.679	161.241	8.4473e-05	0.0003567	0.00010558	1157	1.3102e-06	3.8219e-06	1237.3	234.36	1.8695e-06	2.9776e-06	294.95	84.816	67.195	20.067	3.2066e-06	27.717	0.00022091	0.00024871	5.8556e-05	1121.5	2.7741e-06	2.3543e-06	1211.4	230.43	2.6606e-06	2.6673e-06	290.12	84.67	66.999	20.106	2.7298e-06	27.731	141.617	10.752	35.236	-62.499	70.337	101.183	-62.398	-54.861	103.154	85.582	-55.408	-48.981	-48.290	-41.287	76.991	-42.426	-8191	255	
2385.987	1	1	0	0	0.14241	0.028645	0.11216	0.20461	0.18449	0.1562	0.29842	0.17973	0.12628	0.10958	0.042375	0.21572	0.10849	0.22757	0.18473	0.039296	-2.2396	-2.275	-2.9854	-2.5083	-2.5625	-2.9396	-2.3812	-3.0083	-2.6042	-2.4062	-3.2687	-2.3021	-2.5083	-2.9229	-2.1354	-2.75	168.687	183.951	257.477	233.570	-25.508	97.131	207.905	226.236	211.893	200.811	211.329	39.263	45.648	-73.566	209.405	65.082	8.7407e-05	0.00019505	9.5486e-05	1154.2	7.2082e-07	2.3254e-06	1238.4	234.22	1.7774e-06	3.0625e-06	296.36	85.144	67.655	20.065	2.3152e-06	27.65	0.00022014	0.00024748	6.1897e-05	1121	2.9438e-06	2.2649e-06	1211.8	230.12	2.6685e-06	2.6485e-06	290.18	84.777	66.991	20.038	2.505e-06	27.71	127.880	-3.276	28.460	-62.929	158.223	80.815	-63.279	-55.919	52.066	81.555	-55.867	-49.746	-48.626	-41.242	72.288	-42.183	-8191	255	
2386.108	1	1	0	0	0.2339	0.17041	0.054914	0.17309	0.049808	0.19469	0.30141	0.23866	0.15858	0.029774	0.01505	0.23748	0.24336	0.11316	0.076202	0.25737	-2.2521	-2.1875	-2.7646	-2.2583	-2.5958	-2.9813	-2.4458	-2.7771	-2.6479	-2.1625	-2.9792	-2.2375	-2.4521	-3.1979	-2.125	-2.7958	260.229	71.007	10.366	246.044	116.159	138.158	205.114	229.525	-13.546	285.501	-1.332	-47.430	213.881	153.596	274.745	180.160	8.5211e-05	0.00033915	7.0021e-05	1148.6	1.4761e-06	3.3523e-06	1240	233.86	2.7495e-06	3.8218e-06	293.5	84.552	67.6	20.027	2.7938e-06	27.722	0.00021166	0.00023377	5.9399e-05	1120	2.7678e-06	2.3699e-06	1213.2	230.2	2.6891e-06	2.6539e-06	289.54	84.71	67.09	20.075	2.5885e-06	27.691	128.788	3.505	24.106	-63.411	70.931	86.529	-63.536	-56.238	84.568	71.221	-56.316	-49.443	-49.268	-41.852	70.452	-42.220	-8191	255	
2386.204	1	1	0	0	0.31579	0.18881	0.16395	0.22667	0.091332	0.22868	0.054189	0.059466	0.13995	0.048044	0.19439	0.25654	0.1986	0.18517	0.32218	0.16563	-2.3729	-2.1146	-2.8312	-2.5187	-2.4062	-3.0417	-2.4396	-2.6333	-3.0208	-2.2375	-2.9938	-2.5812	-2.3854	-3.1125	-2.2604	-2.7354	121.645	243.516	16.705	282.130	58.006	147.544	-7.533	154.492	49.026	262.054	-58.028	3.233	96.234	113.496	162.172	-34.113	8.4287e-05	0.00016799	0.00010556	1156.3	1.9831e-06	4.2861e-06	1238.9	234.04	1.1269e-06	3.8601e-06	296.4	84.706	67.187	20.097	2.8624e-06	27.564	0.00020211	0.00022362	5.5466e-05	1122.9	2.8912e-06	2.3297e-06	1210.8	230.13	2.5953e-06	2.5658e-06	290.41	84.768	66.969	20.079	2.6603e-06	27.669	129.512	25.751	20.909	-63.683	51.479	85.193	-63.365	-56.145	47.007	103.577	-56.587	-49.702	-48.948	-41.751	78.514	-41.635	-8191	255	
2386.300	1	1	0	0	0.11734	0.31604	0.19345	0.20393	0.21915	0.17745	0.12851	0.21627	0.067184	0.076687	0.15015	0.044489	0.1954	0.33522	0.13506	0.2287	-2.4437	-2.1813	-2.9354	-2.9354	-2.1083	-3.2062	-2.4333	-2.6083	-3.0438	-2.3542	-3.025	-2.5812	-2.125	-2.9375	-2.5896	-2.6104	63.947	-33.153	-37.044	238.224	270.442	-20.910	-69.133	194.144	146.013	185.886	251.517	129.337	181.113	194.883	58.877	130.759	9.3176e-05	0.00032622	8.8443e-05	1154.8	1.6529e-06	3.0933e-06	1238.2	233.43	1.5336e-06	2.5347e-06	295.02	85.137	68.022	20.092	2.4241e-06	27.639	0.00020949	0.00025336	6.1616e-05	1120.6	2.67e-06	2.1898e-06	1211.5	230.07	2.5964e-06	2.4729e-06	289.55	84.93	67.183	20.097	2.528e-06	27.665	141.165	-6.679	41.225	-63.476	108.486	83.866	-63.571	-55.952	69.211	69.742	-56.424	-49.936	-48.966	-41.771	83.298	-42.258	-8191	255	
2386.396	1	1	0	0	0.1352	0.11657	0.04183	0.11247	0.068918	0.12232	0.33227	0.24295	0.18959	0.19345	0.19127	0.14697	0.071502	0.069066	0.21244	0.43732	-2.5292	-2.1437	-2.8479	-2.9	-2.2146	-3.0479	-2.5917	-2.5375	-3.0792	-2.2792	-2.8688	-2.8917	-2.2792	-2.9104	-2.4417	-2.5729	10.729	78.276	-59.508	169.402	-70.887	190.801	179.260	213.190	155.810	-71.560	-15.565	-68.526	247.167	0.365	109.895	-55.519	9.367e-05	0.00030542	4.458e-05	1153.3	9.7204e-07	2.6067e-06	1243.9	236.27	1.0254e-06	1.8377e-06	296.52	85.226	67.532	20.047	2.8055e-06	27.667	0.00019801	0.00023942	5.6634e-05	1121.1	2.7913e-06	2.2552e-06	1211.3	230.92	2.3704e-06	2.3988e-06	290.6	84.895	66.812	20.107	2.4489e-06	27.682	134.109	13.647	12.490	-63.418	64.424	81.887	-63.461	-55.903	75.501	49.697	-55.984	-49.601	-48.933	-41.245	87.710	-42.089	-8191	255	
2386.491	1	1	0	0	0.16387	0.16458	0.097605	0.14743	0.1246	0.10475	0.034936	0.20185	0.23538	0.20917	0.15697	0.1952	0.30374	0.084694	0.34966	0.28517	-2.7375	-2.1458	-2.8083	-2.9417	-2.1042	-3.0646	-2.7604	-2.3854	-3.1604	-2.1542	-2.5271	-2.9	-2.2042	-2.9208	-2.4729	-2.2458	154.539	63.396	275.491	133.043	90.690	148.622	245.960	170.757	236.924	103.496	250.798	277.794	191.402	53.496	132.082	-62.767	8.3514e-05	0.00023322	6.5322e-05	1150	1.1141e-06	2.91e-06	1237.5	234.07	9.3395e-07	3.4238e-06	293.2	83.635	66.725	20.159	2.023e-06	27.586	0.00020889	0.00022693	5.523e-05	1119.2	2.8064e-06	2.3435e-06	1210	229.76	2.244e-06	2.6564e-06	288.75	84.24	66.605	20.068	2.4125e-06	27.611	140.130	13.225	21.056	-63.343	82.568	60.813	-63.716	-55.513	99.091	93.540	-56.485	-49.647	-49.519	-41.804	62.452	-42.820	-8191	255	
2386.587	1	1	0	0	0.29948	0.18057	0.0921	0.22206	0.52892	0.057922	0.18731	0.14372	0.19703	0.26822	0.22546	0.1599	0.16135	0.093705	0.14188	0.051515	-2.7354	-2.0771	-2.4667	-2.9146	-2.0792	-2.7979	-2.8438	-2.2271	-2.8771	-2.3937	-2.5396	-2.9542	-2.1688	-2.8167	-2.5771	-2.175	268.865	219.156	263.909	236.508	226.469	-47.573	-40.601	-9.587	18.393	16.772	232.551	203.833	15.720	113.050	264.226	7.127	9.4286e-05	0.00018524	7.5423e-05	1148.1	1.9446e-06	3.1796e-06	1229.9	232.55	1.2227e-06	3.3447e-06	293.35	84.349	67.24	20.114	2.893e-06	27.416	0.00020515	0.00021305	6.0729e-05	1118.1	2.7647e-06	2.1412e-06	1206.8	229.86	2.5053e-06	2.5634e-06	289.27	84.549	66.973	20.072	2.3592e-06	27.653	133.915	2.784	13.441	-63.431	60.030	63.386	-63.565	-56.275	52.393	98.185	-56.208	-49.932	-49.506	-41.493	65.353	-42.536	-8191	255	
2386.708	1	1	0	0	0.24694	0.1472	0.14579	0.23002	0.14898	0.28064	0.17568	0.2547	0.089578	0.23316	0.2599	0.03165	0.074178	0.24945	0.093962	0.16025	-2.6271	-2.3792	-2.4979	-3.1083	-2.2104	-2.7979	-2.8229	-2.1833	-2.8604	-2.4458	-2.2625	-3.1604	-2.2917	-2.6854	-2.7375	-1.9375	11.557	272.920	-6.297	-62.434	120.959	-6.016	190.258	244.776	19.958	-4.942	-57.308	-11.445	-56.685	231.365	136.686	61.698	7.7337e-05	0.0002919	0.00010084	1151.7	1.3274e-06	3.4096e-06	1239.5	233.13	1.7688e-06	2.897e-06	292.99	84.203	67.008	20.066	2.5334e-06	27.712	0.00021157	0.00021497	6.2178e-05	1119.5	2.6892e-06	2.3651e-06	1210.3	230.09	2.4847e-06	2.3903e-06	289.4	84.384	66.781	20.096	2.1647e-06	27.655	141.403	3.478	10.310	-63.224	100.753	108.474	-63.728	-56.013	62.745	79.511	-56.369	-50.345	-49.370	-41.576	82.376	-42.222	-8191	255	
2386.804	1	1	0	0	0.24857	0.18558	0.14691	0.2419	0.16388	0.097372	0.24599	0.10687	0.011899	0.20471	0.33426	0.075353	0.35454	0.29021	0.06198	0.06391	-2.5271	-2.6	-2.1333	-3.1646	-2.1979	-2.6646	-3.0042	-2.3042	-2.9708	-2.5667	-2.3896	-3.2042	-2.325	-2.5187	-2.9042	-2.3125	168.083	100.136	251.727	225.893	1.672	10.047	219.152	-68.536	3.836	261.670	269.469	207.934	264.786	209.404	28.688	172.016	0.00011421	0.00035412	7.0964e-05	1148.2	3.0594e-06	4.1989e-06	1235.7	235.04	1.1602e-06	1.9338e-06	294.26	84.362	66.831	19.966	2.7031e-06	27.406	0.00020095	0.00020627	6.3464e-05	1117.4	2.7637e-06	2.2769e-06	1208.1	230.29	2.3014e-06	2.2318e-06	289.02	84.667	66.613	20.115	2.2348e-06	27.531	132.720	20.431	34.052	-63.443	56.306	75.458	-63.521	-55.961	74.384	93.781	-56.360	-49.897	-49.737	-41.867	70.630	-42.526	-8191	255	
2386.900	1	1	0	0	0.12299	0.10856	0.081639	0.30462	0.21505	0.051797	0.17369	0.081948	0.269	0.1213	0.29545	0.23638	0.12206	0.1628	0.19323	0.17183	-2.7375	-2.6312	-2.2062	-3.05	-2.3292	-2.5083	-3.125	-2.325	-2.9667	-2.7042	-2.3667	-3.1083	-2.4146	-2.2417	-2.9083	-2.1229	18.178	142.669	21.458	245.476	33.655	-27.447	266.480	-30.526	78.459	-58.036	-0.147	253.293	-56.755	278.944	121.861	-73.372	8.5975e-05	0.00016803	7.8197e-05	1138.5	9.3722e-07	2.6266e-06	1230.3	232.23	6.5282e-07	3.2079e-06	293.11	84.672	67.132	20.076	1.9835e-06	27.672	0.00020268	0.0002098	5.8881e-05	1116.8	2.6918e-06	2.2793e-06	1205.6	229.49	2.4821e-06	2.3636e-06	289.5	84.528	66.892	20.041	2.2101e-06	27.619	137.069	25.741	9.274	-63.410	67.098	55.796	-63.412	-56.344	143.407	77.779	-56.547	-49.835	-49.356	-41.501	80.844	-42.298	-8191	255	
2386.972	1	1	0	0	0.21933	0.083203	0.11049	0.36776	0.38657	0.11695	0.19582	0.20427	0.1085	0.049218	0.142	0.049501	0.18252	0.030119	0.059321	0.034378	-2.4667	-2.575	-2.2521	-3.1104	-2.5146	-2.2458	-3.2271	-2.2167	-2.5958	-2.6813	-2.1333	-3.1604	-2.3917	-2.4292	-3.2	-2.2812	-0.502	44.975	59.828	284.069	26.252	131.755	256.070	89.728	-61.866	62.956	102.033	35.458	-48.138	235.027	189.641	148.837	8.4859e-05	0.0003424	8.2097e-05	1142.1	2.3333e-06	3.9583e-06	1232.1	233.92	1.2013e-06	3.4674e-06	293.53	84.316	67.418	20.12	2.9025e-06	27.506	0.0002113	0.0002138	6.3316e-05	1115.3	2.7902e-06	2.3705e-06	1206.9	229.9	2.5595e-06	2.2633e-06	289.32	84.751	66.886	20.065	2.3295e-06	27.714	145.991	8.059	21.072	-63.444	82.358	64.813	-63.507	-56.079	59.452	92.205	-56.103	-49.812	-49.158	-41.716	75.202	-42.486	-8191	255	
2387.092	1	1	0	0	0.23142	0.15848	0.24955	0.26577	0.17121	0.13562	0.14168	0.2621	0.26381	0.12539	0.12558	0.11885	0.38184	0.26797	0.17609	0.0028481	-2.3688	-2.7667	-2.1104	-2.9667	-2.5792	-2.1333	-3.1229	-2.2917	-2.4604	-2.8	-2.2812	-2.9479	-2.7083	-2.1792	-2.9521	-2.5375	138.177	-66.484	26.814	267.775	-54.790	-65.746	262.834	175.486	-55.870	200.827	-50.391	213.306	191.675	27.825	143.226	-48.778	7.9151e-05	0.00030156	5.8383e-05	1151	1.7066e-06	3.0843e-06	1230.2	233.52	1.214e-06	2.499e-06	293.01	85.178	67.494	20.085	2.3214e-06	27.612	0.00021089	0.00021839	6.3893e-05	1118	2.5695e-06	2.3939e-06	1206.2	230.02	2.4415e-06	2.3551e-06	288.93	84.796	67.029	20.096	2.3452e-06	27.632	137.007	9.881	35.694	-63.275	76.828	85.530	-63.314	-55.970	22.413	81.684	-56.234	-49.655	-49.457	-41.691	78.821	-41.897	-8191	255	
2387.188	1	1	0	0	0.24267	0.28556	0.061945	0.14261	0.11132	0.2741	0.36194	0.1897	0.3	0.079587	0.25129	0.15733	0.062743	0.10881	0.31456	0.16152	-2.1458	-3.0625	-2.0479	-2.9771	-2.6	-2.2479	-3.0312	-2.2833	-2.4667	-3.1875	-2.0792	-2.7979	-2.8083	-2.2625	-2.7854	-2.5958	259.985	177.521	281.852	-38.239	173.707	70.818	244.468	29.970	257.081	-39.250	272.255	241.725	200.326	78.038	234.393	223.686	0.00010674	0.00023709	5.0914e-05	1153.1	1.9958e-06	3.2984e-06	1239.4	232.61	1.2107e-06	3.4173e-06	289.28	83.136	65.995	19.645	2.0945e-06	27.228	0.00022002	0.0002004	6.1099e-05	1119.9	2.6174e-06	2.6004e-06	1208.9	229.76	2.6796e-06	2.2087e-06	288.22	84.355	66.394	19.932	2.4282e-06	27.546	140.799	44.363	35.770	-63.312	42.236	72.387	-63.381	-55.880	67.503	89.085	-56.341	-49.973	-49.500	-42.396	83.655	-42.727	-8191	255	
2387.284	1	1	0	0	0.18677	0.15613	0.16713	0.29837	0.11696	0.18636	0.14254	0.32023	0.048208	0.1275	0.10833	0.12096	0.32459	0.17676	0.10781	0.097426	-2.0938	-2.8771	-1.9604	-2.8896	-2.7604	-2.0271	-2.9896	-2.5187	-2.2083	-2.8646	-2.0979	-2.6396	-2.7792	-2.1896	-2.9375	-2.6479	97.022	25.766	262.829	250.493	69.807	-46.687	157.534	282.571	242.419	-5.035	23.459	-63.427	277.877	249.975	-67.249	62.024	8.7595e-05	0.00030312	6.0482e-05	1128	1.4651e-06	3.2642e-06	1214.7	230.1	2.4186e-06	2.4932e-06	290.07	83.505	66.332	19.894	2.6498e-06	27.248	0.00022064	0.00021828	5.9458e-05	1111.4	2.6268e-06	2.6166e-06	1201.4	229.03	2.6475e-06	2.1182e-06	287.98	84.461	66.583	20.025	2.4663e-06	27.516	141.161	11.905	5.968	-63.584	79.840	81.862	-63.568	-56.471	67.067	55.182	-56.627	-49.673	-49.598	-41.819	79.376	-42.835	-8191	255	
2387.381	1	1	0	0	0.20361	0.26036	0.14192	0.14494	0.17359	0.2315	0.18154	0.085049	0.01211	0.21699	0.18365	0.13129	0.18459	0.247	0.24288	0.27124	-1.95	-3.2	-2.1229	-2.525	-2.8146	-2.1521	-3.1	-2.6542	-2.2917	-3.05	-2.3604	-2.5812	-2.8333	-2.0875	-2.6667	-2.5854	100.002	218.542	29.378	182.616	210.370	268.160	-21.818	52.384	-68.995	29.238	115.816	259.609	188.552	-54.367	40.017	16.607	8.1078e-05	0.00028832	7.784e-05	1132.7	1.9882e-06	3.1508e-06	1218.2	229.58	7.0911e-07	2.9221e-06	288.8	83.565	66.353	19.702	3.0438e-06	27.356	0.00022088	0.00022346	5.9606e-05	1114.6	2.7028e-06	2.514e-06	1206.8	228.99	2.7496e-06	2.1406e-06	288.9	84.741	66.709	20.037	2.2387e-06	27.645	136.780	14.605	13.933	-63.611	95.092	66.640	-63.584	-56.344	131.968	81.273	-56.832	-50.037	-49.436	-42.300	87.105	-42.633	-8191	255	
2387.499	1	1	0	0	0.19923	0.04537	0.26187	0.043237	0.15101	0.045044	0.23499	0.24334	0.10074	0.15147	0.31699	0.10062	0.025992	0.13236	0.12462	0.049387	-1.85	-2.925	-2.45	-2.4437	-3.0833	-2.1312	-2.8646	-2.6958	-2.0312	-3.0208	-2.5625	-2.3792	-2.9854	-2.2562	-2.75	-2.8042	269.040	-15.369	196.253	213.639	-0.516	11.854	-49.226	201.375	90.285	-64.541	211.879	237.544	-45.170	-68.147	148.165	142.549	7.7663e-05	0.0003368	8.0131e-05	1135.6	1.3343e-06	3.2148e-06	1220.1	230.97	6.9102e-07	1.556e-06	289.55	83.938	66.233	19.763	3.0184e-06	27.264	0.00022204	0.00020787	5.656e-05	1117.1	2.57e-06	2.6466e-06	1205.6	229.47	2.6985e-06	2.0204e-06	288.57	84.803	66.667	20.017	2.4366e-06	27.665	125.163	11.534	28.290	-63.648	86.451	92.030	-63.498	-56.452	66.903	41.391	-56.450	-50.173	-49.406	-41.938	81.506	-42.525	-8191	255	
2387.573	1	1	0	0	0.12334	0.20535	0.23503	0.20077	0.16218	0.24309	0.042516	0.28387	0.20959	0.063629	0.15377	0.12476	0.24466	0.073586	0.13348	0.22408	-1.8542	-3.0521	-2.4417	-2.4521	-2.9938	-2.1771	-2.8125	-3.0062	-2.2479	-3.0563	-2.4813	-2.3583	-3.0396	-2.3396	-2.7125	-2.9104	145.925	151.082	220.995	245.388	230.324	-24.356	-25.975	52.969	184.949	25.536	80.273	259.275	277.327	190.981	135.269	-69.413	0.0001007	0.00027586	8.0594e-05	1131.6	2.0264e-06	4.4882e-06	1225.1	230.43	1.3378e-06	2.5743e-06	290.73	83.464	66.506	19.84	2.1197e-06	27.414	0.00021089	0.00018759	5.8187e-05	1118.3	2.5617e-06	2.2342e-06	1208.5	229.21	2.5111e-06	2.0368e-06	289.03	84.73	66.796	20.097	2.3547e-06	27.74	121.572	20.385	32.579	-63.703	57.630	71.209	-63.799	-56.207	73.048	76.483	-56.344	-50.205	-49.366	-42.016	57.709	-42.944	-8191	255	
2387.669	1	1	0	0	0.15964	0.1046	0.099297	0.25771	0.062363	0.17059	0.2636	0.20398	0.33011	0.40861	0.22523	0.2318	0.19205	0.14959	0.057879	0.16127	-1.7437	-2.9	-2.4833	-2.2438	-3.0625	-2.4208	-2.7188	-3.0479	-2.0167	-2.8667	-2.675	-2.2854	-3.05	-2.4354	-2.2417	-3.0708	-66.330	65.885	147.444	233.594	59.634	60.837	206.682	276.498	16.563	233.847	-29.437	239.168	171.155	-39.230	12.133	95.654	9.6438e-05	0.00026771	7.8699e-05	1132.8	1.6336e-06	3.8479e-06	1224.1	230.53	2.0657e-06	2.9288e-06	289.96	84.09	66.583	19.988	2.7637e-06	27.25	0.00021231	0.00018465	4.9331e-05	1116.2	2.4612e-06	2.248e-06	1208.7	229.09	2.668e-06	2.1406e-06	288.55	84.846	66.888	20.138	2.306e-06	27.657	141.595	35.538	28.254	-63.467	110.012	106.960	-63.584	-56.181	28.530	84.817	-56.671	-49.860	-49.451	-41.609	74.172	-42.701	-8191	255	
2387.788	1	1	0	0	0.38425	0.16231	0.14915	0.19754	0.048975	0.15148	0.2426	0.2685	0.32021	0.046394	0.065517	0.25844	0.12747	0.11279	0.24968	0.11146	-1.7604	-2.7833	-2.6583	-2.1625	-2.9667	-2.3271	-2.5833	-3.0625	-2.0187	-2.7417	-2.825	-1.9562	-3.05	-2.4	-2.3125	-2.9271	128.021	246.491	153.166	264.058	244.724	196.374	-58.803	270.466	-42.088	125.666	-3.631	110.144	215.968	243.812	256.234	-54.789	9.3317e-05	0.00022305	0.00011573	1138.1	1.1457e-06	2.9794e-06	1224.6	231.99	2.053e-07	2.2556e-06	290.3	84.33	66.815	19.881	2.8667e-06	27.229	0.00019828	0.00019704	5.4964e-05	1116.7	2.4545e-06	2.095e-06	1209.7	229.74	2.5637e-06	2.1109e-06	289.08	84.801	66.864	20.073	2.2465e-06	27.634	138.312	19.507	17.961	-63.586	103.518	68.217	-63.557	-56.106	230.669	79.348	-56.413	-50.065	-48.758	-42.022	81.160	-42.544	-8191	255	
2387.884	1	1	0	0	0.2428	0.055034	0.049132	0.21713	0.035142	0.10267	0.21922	0.091753	0.084475	0.28072	0.105	0.17876	0.20048	0.23302	0.34565	0.19318	-1.6875	-2.4729	-2.7417	-2.1437	-2.8333	-2.4917	-2.55	-3.1083	-2.2479	-2.4917	-2.9688	-2.2667	-2.9521	-2.75	-2.1896	-3.1583	28.208	-38.951	1.105	176.187	128.842	19.984	-64.594	231.807	-46.570	7.814	210.002	101.186	12.606	91.837	-63.449	-66.065	9.2187e-05	0.00026802	6.8645e-05	1135.7	8.845e-07	2.2839e-06	1220.7	230.63	1.0919e-06	2.5413e-06	290.33	83.444	66.742	19.853	2.2105e-06	27.391	0.00021419	0.00019138	5.1726e-05	1116.1	2.5096e-06	2.1808e-06	1208.1	229.34	2.3862e-06	2.0611e-06	289.15	84.552	66.985	20.076	2.2841e-06	27.692	125.977	21.903	16.282	-63.458	84.870	57.762	-63.520	-56.035	94.488	90.507	-56.649	-50.024	-49.650	-42.293	74.690	-42.564	-8191	255	
2387.980	1	1	0	0	0.25529	0.038284	0.40195	0.20197	0.096626	0.16722	0.098114	0.12971	0.11534	0.048017	0.16618	0.18728	0.15069	0.18736	0.21294	0.24187	-2.0208	-2.4979	-2.8063	-2.2188	-2.8042	-2.7125	-2.2562	-2.9583	-2.1646	-2.4167	-2.9562	-2.2062	-2.8354	-2.6708	-2.1479	-3.0854	81.799	0.228	267.587	283.949	-30.828	134.127	163.180	196.835	220.063	155.084	263.376	-27.003	-57.129	-47.154	125.247	241.390	8.3133e-05	0.00031217	9.8924e-05	1132.2	1.4275e-06	3.2949e-06	1219.1	230.97	1.6076e-06	2.1746e-06	290.88	83.592	66.165	19.877	2.066e-06	27.217	0.00021374	0.00021268	5.7433e-05	1114.6	2.5856e-06	2.0758e-06	1206.8	229.33	2.6954e-06	2.2919e-06	288.82	84.609	66.675	20.087	2.5498e-06	27.648	121.356	21.292	7.460	-63.777	93.348	85.233	-63.633	-56.255	68.757	93.069	-56.596	-49.807	-49.382	-41.979	89.777	-42.766	-8191	255	
2388.101	1	1	0	0	0.077933	0.32728	0.11882	0.23459	0.18649	0.2461	0.2688	0.17532	0.060291	0.2283	0.091954	0.067061	0.19548	0.14031	0.18552	0.032594	-1.9813	-2.3104	-2.95	-2.2521	-2.7979	-2.6958	-2.2562	-3.0812	-2.4708	-2.3271	-3.0062	-2.1542	-2.7917	-2.9396	-1.9354	-2.8521	10.550	224.693	90.327	278.361	-11.687	17.823	235.586	168.502	-72.773	249.444	176.344	83.418	194.818	153.096	211.259	267.949	6.469e-05	0.00024376	8.0098e-05	1136.6	1.703e-06	4.3822e-06	1222.3	231.42	1.6537e-06	3.6862e-06	290.81	84.182	66.451	19.85	2.0721e-06	27.487	0.00021148	0.00023062	5.6664e-05	1115.6	2.545e-06	2.2582e-06	1209.6	229.75	2.4694e-06	2.4608e-06	289.46	84.749	66.77	20.043	2.496e-06	27.73	144.305	8.476	27.449	-63.569	87.713	99.955	-63.585	-56.595	61.356	85.522	-56.496	-49.820	-49.316	-42.166	95.264	-42.520	-8191	255	
2388.197	1	1	0	0	0.081173	0.24406	0.2391	0.21853	0.035297	0.14221	0.26676	0.24502	0.14946	0.20081	0.11303	0.29498	0.17954	0.22722	0.29737	0.21184	-2.1875	-2.2021	-3.0125	-2.5	-2.7146	-2.9292	-2.1771	-3.1125	-2.6937	-2.225	-3.3917	-2.3875	-2.5417	-2.8375	-2.3208	-3.0458	-59.267	277.720	159.354	-35.859	-2.514	152.202	162.261	247.218	25.602	-2.194	-49.070	270.689	-3.708	265.393	70.337	-21.957	8.1148e-05	0.00025354	5.8309e-05	1132.8	1.0943e-06	2.4988e-06	1225.9	230.91	1.7579e-06	3.0789e-06	290.29	83.644	66.596	19.816	1.949e-06	27.436	0.00019872	0.00022741	5.2052e-05	1114.2	2.4571e-06	1.9569e-06	1208.9	229.08	2.4052e-06	2.1753e-06	288.85	84.732	66.808	20.06	2.2202e-06	27.748	129.602	32.870	36.193	-63.424	66.400	82.157	-63.527	-56.079	43.802	73.837	-56.582	-49.805	-49.384	-42.000	47.126	-42.749	-8191	255	
2388.269	1	1	0	0	0.20889	0.1947	0.012335	0.025481	0.24035	0.11492	0.20965	0.19227	0.23871	0.074154	0.18939	0.1639	0.073788	0.15715	0.27189	0.28898	-2.3708	-2.1146	-3.1625	-2.3958	-2.4771	-2.9979	-2.1583	-2.9479	-2.5875	-2.0208	-3.0479	-2.3229	-2.4021	-2.9896	-2.1667	-2.8396	104.051	-58.990	188.538	120.532	-26.546	89.956	-49.223	240.271	102.050	-31.470	282.069	-57.318	-30.420	18.967	127.365	273.723	0.00010192	0.00025878	9.8183e-05	1133.5	1.8601e-06	3.4165e-06	1218.7	231.01	1.1406e-06	3.3538e-06	290.63	83.654	66.814	19.798	1.4075e-06	27.351	0.00019813	0.000224	5.3988e-05	1112.4	2.6455e-06	1.9413e-06	1205.1	229.49	2.2435e-06	2.2439e-06	288.36	84.442	66.914	20.023	2.4187e-06	27.678	140.067	28.083	24.385	-63.517	116.958	65.955	-63.509	-56.128	43.508	96.749	-56.130	-49.835	-49.192	-41.638	59.463	-42.313	-8191	255	
2388.389	1	1	0	0	0.094261	0.065985	0.076296	0.3784	0.20018	0.13333	0.31178	0.19465	0.35009	0.15836	0.21038	0.066251	0.27555	0.23673	0.093074	0.13844	-2.2208	-2.1583	-2.9688	-2.6229	-2.4	-2.8646	-2.4375	-2.8312	-2.7271	-2.1896	-2.9188	-2.5542	-2.3792	-2.9708	-2.2667	-2.6396	36.529	146.753	-47.481	244.359	64.188	200.166	143.472	213.644	9.384	235.189	274.194	142.342	218.354	178.641	285.191	-45.063	7.5246e-05	0.00026302	6.3379e-05	1132.9	1.3111e-06	2.7962e-06	1224.2	229.81	1.8368e-06	2.5347e-06	290.98	83.299	66.119	19.873	1.9828e-06	27.385	0.00020443	0.00023457	5.2451e-05	1112.7	2.5955e-06	2.0199e-06	1207.1	228.99	2.3399e-06	2.219e-06	288.5	84.577	66.704	20.038	2.3239e-06	27.643	130.820	34.684	21.237	-63.692	70.537	77.372	-63.513	-55.904	60.427	85.633	-56.380	-50.076	-49.241	-41.798	66.306	-42.474	-8191	255	
2388.484	1	1	0	0	0.17551	0.18858	0.073227	0.16715	0.15398	0.10246	0.16974	0.37824	0.03501	0.12328	0.20124	0.069095	0.12938	0.0078362	0.18478	0.22177	-2.4958	-2.1042	-2.9583	-2.575	-2.3458	-2.9729	-2.2646	-2.6292	-2.8729	-2.1479	-2.9208	-2.7917	-2.3688	-2.9271	-2.45	-2.6146	-53.134	-73.555	236.594	171.702	165.520	240.020	158.967	-38.428	148.041	206.993	-53.564	-7.195	254.187	-11.804	128.423	35.804	0.00010406	0.00019702	8.843e-05	1130.2	3.2499e-06	3.141e-06	1223.1	231.62	1.3748e-06	3.079e-06	291.19	84.044	66.372	19.924	2.4787e-06	27.404	0.00019631	0.0002248	5.0425e-05	1112.4	2.5414e-06	1.9551e-06	1205.4	229.25	2.3873e-06	2.0313e-06	288.78	84.642	66.64	20.035	2.5583e-06	27.692	127.207	14.752	29.157	-63.314	72.943	71.738	-63.428	-56.053	46.733	85.016	-56.437	-49.854	-49.252	-41.895	70.770	-42.295	-8191	255	
2388.580	1	1	0	0	0.19979	0.10368	0.074495	0.21453	0.067037	0.25418	0.14482	0.21091	0.22044	0.071744	0.09429	0.088657	0.21407	0.21824	0.2704	0.25428	-2.55	-2.1833	-2.8125	-2.7146	-2.2208	-3.0458	-2.5187	-2.4625	-2.8958	-2.075	-2.6979	-2.7625	-2.1208	-3.0604	-2.4188	-2.3312	239.767	71.276	-63.190	-23.146	62.783	-70.285	275.864	212.821	86.352	-40.012	230.247	-56.712	-59.187	152.750	87.194	273.548	7.6424e-05	0.0003545	7.1298e-05	1138.6	2.1087e-06	2.9257e-06	1228.7	231.69	1.9586e-06	2.7865e-06	293.21	84.217	66.407	20.082	2.8042e-06	27.545	0.00020256	0.00022341	5.3826e-05	1111.8	2.6445e-06	2.0067e-06	1206.7	229.64	2.3778e-06	2.3065e-06	289.49	84.449	66.796	20.119	2.3929e-06	27.723	130.980	19.985	20.225	-63.292	68.025	75.261	-63.474	-55.821	71.635	72.352	-56.271	-49.941	-49.120	-41.626	91.739	-42.250	-8191	255	
2388.676	1	1	0	0	0.10782	0.13922	0.2517	0.24555	0.32321	0.059851	0.31684	0.19724	0.17334	0.19171	0.07825	0.16081	0.15752	0.29738	0.33358	0.24287	-2.625	-2.1167	-2.625	-3.0271	-1.9333	-3.0354	-2.5938	-2.3979	-3.0208	-2.3438	-2.5812	-2.8396	-2.1021	-2.7896	-2.3833	-2.3042	163.751	268.093	-27.996	241.779	87.739	224.049	187.935	84.896	135.115	19.545	49.694	-36.873	241.341	235.097	277.788	178.193	8.3214e-05	0.00028252	6.8905e-05	1139.3	1.1378e-06	4.1154e-06	1229.3	233.18	1.879e-06	3.4405e-06	291.95	84.287	67.148	19.966	1.2118e-06	27.342	0.00020321	0.00022015	5.2199e-05	1114.1	2.5695e-06	2.0073e-06	1205.4	229.37	2.3873e-06	2.205e-06	288.62	84.647	66.78	20.091	2.1692e-06	27.626	143.331	15.154	27.495	-63.315	56.787	82.774	-63.480	-55.931	68.671	83.973	-56.080	-49.686	-49.158	-41.583	104.926	-42.418	-8191	255	
2388.772	1	1	0	0	0.055674	0.08327	0.1705	0.31383	0.069485	0.17571	0.17062	0.19184	0.085364	0.22457	0.13927	0.076955	0.15041	0.17533	0.10882	0.11025	-2.6521	-2.1833	-2.4917	-3.1167	-2.2417	-2.8083	-2.6146	-2.1708	-2.8958	-2.1958	-2.4271	-2.9708	-2.1646	-2.8042	-2.825	-2.1292	-1.762	-20.891	179.347	272.250	36.393	179.113	200.228	246.573	29.535	-13.713	233.593	64.159	235.985	191.348	-32.545	166.633	8.7908e-05	0.00033225	9.545e-05	1136.4	1.3409e-06	1.879e-06	1229.9	232.01	1.3652e-06	2.5754e-06	292.9	84.403	67.045	20.108	2.4903e-06	27.563	0.00019301	0.00020115	5.2776e-05	1111.6	2.6757e-06	2.0079e-06	1207.1	229.71	2.2045e-06	2.1668e-06	289.29	84.433	66.861	20.078	2.3222e-06	27.649	132.385	11.712	47.459	-63.144	113.321	76.861	-63.162	-55.823	21.230	89.340	-56.250	-49.323	-49.126	-41.640	77.397	-42.276	-8191	255	
2388.868	1	1	0	0	0.064464	0.099152	0.2347	0.26792	0.22963	0.10882	0.39058	0.15784	0.098829	0.20998	0.065939	0.064172	0.076525	0.27536	0.14423	0.21279	-2.3792	-2.2125	-2.2771	-3.1729	-2.0667	-2.7583	-2.9208	-2.1271	-2.8937	-2.35	-2.5021	-2.95	-2.0708	-2.7333	-2.9646	-2.1125	-48.616	254.406	121.871	-24.457	4.508	45.550	186.513	195.361	187.898	119.974	173.640	-8.970	286.123	-45.035	47.539	175.647	8.5185e-05	0.0003184	6.6276e-05	1139.3	1.1196e-06	2.8421e-06	1228.4	231.19	1.538e-06	3.0497e-06	291.44	84.409	66.415	19.962	2.3817e-06	27.437	0.0001986	0.00021636	5.897e-05	1112.2	2.5211e-06	2.242e-06	1204.6	229.2	2.3683e-06	2.2336e-06	289	84.669	66.714	20.079	2.2297e-06	27.612	130.262	29.036	26.219	-63.216	83.534	102.978	-63.222	-55.624	32.341	76.509	-56.114	-49.401	-48.991	-41.645	74.294	-42.760	-8191	255	
2388.964	1	1	0	0	0.32224	0.12791	0.28938	0.40369	0.0058749	0.19161	0.069438	0.33832	0.092484	0.30031	0.14619	0.18763	0.17382	0.049277	0.18342	0.18652	-2.5687	-2.4729	-2.3312	-3.1896	-2.1542	-2.8292	-2.8667	-2.2833	-2.7375	-2.4083	-2.4271	-3.0979	-2.2729	-2.5333	-3.0146	-2.0771	-31.572	3.431	191.784	240.445	256.180	273.750	161.223	199.725	-65.185	275.832	145.488	-60.523	185.415	-27.271	-63.981	188.714	8.4218e-05	0.00022605	5.8342e-05	1138	1.6438e-06	2.9665e-06	1229.4	231.75	2.1915e-06	2.9183e-06	291.06	83.989	66.977	19.959	2.1306e-06	27.431	0.00019316	0.00021247	5.8674e-05	1111	2.4774e-06	1.9983e-06	1206.2	229.02	2.2835e-06	2.2354e-06	288.85	84.627	66.743	20.121	2.1748e-06	27.553	132.244	-0.700	20.539	-63.097	79.252	71.937	-63.682	-55.981	80.141	71.071	-56.278	-49.977	-49.348	-41.773	98.469	-42.362	-8191	255	
2389.061	1	1	0	0	0.25385	0.046338	0.29164	0.22099	0.12105	0.071455	0.35705	0.23174	0.24442	0.18526	0.18354	0.064343	0.17863	0.23562	0.28296	0.031036	-2.4958	-2.7792	-2.2646	-3.1562	-2.1521	-2.3646	-2.8271	-1.9021	-3.0271	-2.7313	-2.1437	-2.9833	-2.3604	-2.4062	-2.8563	-2.225	164.019	253.512	148.533	268.526	223.930	213.097	228.632	116.569	242.068	240.059	211.302	-53.477	248.411	-70.309	204.553	261.496	9.0559e-05	0.00027648	8.4614e-05	1135.3	1.3442e-06	2.9425e-06	1230.3	231.36	1.4573e-06	3.7951e-06	292.96	84.175	66.773	19.91	2.5527e-06	27.447	0.00019741	0.00019063	5.8601e-05	1111.7	2.6809e-06	2.233e-06	1204.3	229.46	2.4084e-06	2.106e-06	288.43	84.485	66.668	20.092	2.0537e-06	27.639	136.057	13.342	5.346	-63.201	86.231	76.376	-63.287	-55.788	12.445	85.087	-55.845	-49.696	-49.065	-41.320	87.054	-42.079	-8191	255	
2389.181	1	1	0	0	0.13088	0.10425	0.04679	0.27567	0.048503	0.1505	0.32617	0.16887	0.11192	0.064549	0.14143	0.21726	0.13231	0.13007	0.076952	0.26085	-2.2938	-2.7021	-2.2042	-3.0812	-2.2375	-2.3542	-3.1437	-2.2938	-2.7625	-2.7729	-2.0479	-2.9354	-2.6583	-2.3042	-3.0187	-2.2292	74.741	106.666	149.567	274.141	113.335	-45.275	178.950	212.104	-62.707	22.587	58.702	192.018	69.951	-68.883	-6.598	280.875	7.693e-05	0.00026478	5.8397e-05	1132.7	1.8142e-06	3.824e-06	1233.5	232.63	1.6089e-06	2.5691e-06	290.81	84.141	66.782	20.088	2.2517e-06	27.715	0.00020196	0.00019378	5.7994e-05	1111	2.33e-06	2.2072e-06	1207.1	229.7	2.3162e-06	1.9724e-06	288.7	84.836	66.917	20.173	1.9612e-06	27.775	142.485	13.927	8.883	-63.022	101.609	64.458	-63.325	-55.525	79.109	81.965	-56.064	-49.431	-49.116	-41.157	76.567	-42.211	-8191	255	
2389.277	1	1	0	0	0.18972	0.075582	0.11165	0.1941	0.24032	0.053269	0.069321	0.13863	0.11116	0.046482	0.1321	0.23583	0.3341	0.19437	0.088444	0.08024	-2.1354	-2.8542	-2.0062	-2.9479	-2.4896	-2.1937	-3.0104	-2.4458	-2.6792	-2.8333	-2.1479	-3.0062	-2.6208	-2.3708	-3.1417	-2.3354	276.678	81.054	30.529	-33.853	178.147	122.752	-71.489	56.033	-26.128	178.829	210.307	247.834	183.508	95.281	144.969	17.630	9.0532e-05	0.00019518	6.256e-05	1135.2	1.8045e-06	4.4252e-06	1227.2	232.18	1.4834e-06	3.4871e-06	292.91	83.994	66.903	20.049	2.7642e-06	27.475	0.00021035	0.00019058	5.7625e-05	1111.3	2.5929e-06	2.4611e-06	1205.1	228.82	2.3799e-06	2.1923e-06	288.92	84.515	66.789	20.057	2.1753e-06	27.638	125.208	12.399	31.391	-62.967	92.506	68.316	-63.131	-55.749	58.890	108.114	-55.983	-49.505	-49.211	-41.821	78.665	-42.430	-8191	255	
2389.374	1	1	0	0	0.2538	0.19309	0.092746	0.27127	0.14732	0.046915	0.21814	0.13404	0.15903	0.070115	0.30129	0.3245	0.25804	0.15902	0.050257	0.10944	-2.2	-3.0312	-2.2188	-2.825	-2.7833	-2.2021	-3.2313	-2.4083	-2.3792	-2.9042	-1.9875	-2.7188	-2.7042	-2.2021	-3.0104	-2.5375	1.151	-20.028	90.094	-39.312	144.408	40.176	168.358	27.902	22.354	84.711	223.589	230.384	-49.484	262.372	9.472	171.953	9.35e-05	0.00024778	7.1822e-05	1131.9	2.154e-06	3.2754e-06	1221.8	231.37	6.1727e-07	3.1322e-06	289.1	83.476	66.463	19.865	2.2493e-06	27.314	0.00020604	0.00019346	5.5422e-05	1106.3	2.5227e-06	2.4167e-06	1199.8	228.85	2.3278e-06	2.1321e-06	287.14	84.227	66.355	20	2.1613e-06	27.509	135.286	35.281	33.787	-63.136	73.153	73.114	-63.410	-55.769	36.393	76.717	-56.369	-49.463	-48.937	-41.440	99.028	-42.200	-8191	255	
2389.470	1	1	0	0	0.15993	0.11589	0.16629	0.35212	0.13345	0.20416	0.10642	0.14267	0.094869	0.31085	0.10938	0.10689	0.11232	0.12787	0.062584	0.15018	-1.9292	-2.8917	-2.0938	-2.8125	-2.7083	-2.1333	-3.0021	-2.6042	-2.1604	-2.9167	-2.2896	-2.6771	-2.8208	-2.1	-3.0146	-2.6875	-23.230	0.205	131.680	211.661	57.908	-66.944	146.033	215.542	27.323	121.291	119.238	33.037	108.663	15.424	137.392	124.135	8.7564e-05	0.00018914	8.3528e-05	1131.9	1.7499e-06	2.6492e-06	1221.6	231.17	1.1418e-06	3.5514e-06	289.94	83.888	66.375	19.813	1.8299e-06	27.318	0.00021124	0.00016949	5.7004e-05	1106.6	2.6231e-06	2.3591e-06	1199.6	228.75	2.5147e-06	1.9948e-06	287.36	84.402	66.455	19.932	2.1608e-06	27.539	142.304	13.049	7.898	-63.157	98.761	62.554	-63.314	-55.825	63.351	77.450	-55.934	-49.507	-49.184	-41.614	80.668	-42.778	-8191	255	
2389.564	1	1	0	0	0.096209	0.2121	0.12183	0.21352	0.062192	0.27501	0.20211	0.24971	0.24972	0.18282	0.34149	0.33622	0.15846	0.095747	0.12319	0.066282	-1.9688	-2.7875	-2.1188	-2.8063	-2.85	-2.1542	-2.9437	-2.6833	-2.1396	-2.9771	-2.4083	-2.65	-3.0354	-2.1917	-2.7562	-2.6688	160.024	279.689	248.152	251.726	206.281	253.698	256.048	269.039	188.369	190.711	271.673	243.851	201.022	237.053	-12.697	180.937	9.2628e-05	0.00025017	7.2552e-05	1123.3	1.5507e-06	2.4405e-06	1215.6	230.08	2.0153e-06	2.4159e-06	288.39	83.822	65.669	19.778	2.8297e-06	27.1	0.00021669	0.00018337	5.9842e-05	1104.9	2.531e-06	2.2769e-06	1199.1	228.15	2.4847e-06	2.0046e-06	287.08	84.268	66.232	19.953	2.0565e-06	27.504	143.048	17.351	8.394	-63.348	68.007	100.466	-63.351	-56.290	82.661	89.819	-56.274	-49.372	-49.043	-41.471	91.186	-42.266	-8191	255	
2389.662	1	1	0	0	0.46441	0.098124	0.20233	0.18329	0.097993	0.048472	0.19294	0.1969	0.21728	0.28173	0.41213	0.032523	0.20013	0.23789	0.075303	0.21215	-1.8813	-2.9083	-2.0938	-2.5208	-2.8708	-2.0812	-2.9396	-2.7333	-2.1792	-3.0167	-2.375	-2.4313	-3.0042	-2.3167	-2.6771	-2.8	-17.408	61.838	149.843	250.413	241.854	39.272	230.816	-26.678	146.973	-36.266	-66.223	47.823	64.652	-35.712	-64.488	251.917	9.2491e-05	0.0002543	8.9684e-05	1121	2.1788e-06	3.6573e-06	1208.2	228.55	9.2914e-07	2.7825e-06	289.06	82.911	65.489	19.475	1.8818e-06	26.934	0.00021252	0.00018689	5.931e-05	1098.2	2.29e-06	2.2799e-06	1192	227.12	2.6353e-06	1.956e-06	286.19	83.658	65.819	19.737	2.2235e-06	27.176	121.540	30.936	27.415	-63.212	62.082	62.561	-63.228	-56.016	76.252	95.107	-56.398	-49.610	-49.273	-41.837	71.851	-42.275	-8191	255	
2389.781	1	1	0	0	0.23247	0.1649	0.11611	0.24699	0.13956	0.097926	0.22302	0.28211	0.070313	0.15752	0.12684	0.19994	0.096596	0.12514	0.1245	0.18634	-1.5646	-2.7708	-2.3854	-2.3812	-2.8312	-2.0083	-2.6583	-2.8833	-2	-2.9292	-2.5917	-2.2292	-2.9562	-2.2042	-2.4896	-2.9229	87.961	-39.275	97.544	235.746	-25.049	195.937	247.912	249.199	162.614	105.645	266.839	231.137	-69.077	-32.024	21.376	-71.741	9.2017e-05	0.00030207	8.2928e-05	1112.3	2.4862e-06	4.2359e-06	1201.6	227.62	2.0645e-06	4.1839e-06	288.18	82.602	65.283	19.558	1.3952e-06	26.767	0.00021377	0.00019923	5.8127e-05	1092.9	2.6372e-06	2.5104e-06	1188.7	226.75	2.628e-06	2.3593e-06	285.86	83.429	65.556	19.736	2.4585e-06	27.152	129.079	13.261	13.397	-63.367	45.187	90.633	-63.253	-56.340	87.337	94.237	-56.088	-49.911	-48.791	-42.088	90.730	-42.870	-8191	255	
2389.877	1	1	0	0	0.18027	0.13594	0.1106	0.34915	0.25741	0.21722	0.24807	0.028102	0.2654	0.1295	0.16839	0.22501	0.031101	0.17358	0.13767	0.13895	-1.8188	-2.7708	-2.4479	-2.2625	-3.0229	-2.3479	-2.5458	-2.8125	-2.0187	-2.7667	-2.6021	-2.1958	-3.1375	-2.275	-2.3542	-3.0833	268.021	90.807	257.694	248.677	258.561	-36.213	96.806	224.889	174.875	102.392	-44.295	279.449	173.761	199.381	267.086	175.535	7.3421e-05	0.00038006	9.469e-05	1114.9	2.4479e-06	2.2873e-06	1203.3	228.58	1.7354e-06	2.2872e-06	286.56	82.31	65.502	19.508	2.1395e-06	26.667	0.00021541	0.00021876	6.0404e-05	1093.7	2.4831e-06	2.3645e-06	1187.7	226.95	2.5769e-06	1.9754e-06	285.73	83.613	65.704	19.702	2.4663e-06	27.13	135.339	33.869	6.321	-63.249	68.342	98.097	-63.169	-55.837	108.576	89.714	-56.598	-49.245	-49.202	-41.754	62.467	-42.278	-8191	255	
2389.973	1	1	0	0	0.16152	0.082719	0.2488	0.043385	0.16523	0.15974	0.13286	0.10122	0.21263	0.19159	0.22871	0.19334	0.24327	0.20506	0.099577	0.14996	-1.7271	-2.7083	-2.6396	-2.2062	-2.8896	-2.3542	-2.5792	-2.9771	-2.0812	-2.7146	-2.7167	-2.2208	-3.1083	-2.5479	-2.2479	-3.0708	221.850	95.698	-9.071	-71.899	180.497	-44.373	239.532	284.862	93.358	-45.117	171.533	11.982	74.242	67.042	267.237	260.190	8.9702e-05	0.00026821	6.2278e-05	1107.4	1.5558e-06	1.585e-06	1208.4	229.08	1.3285e-06	2.3587e-06	289.67	82.897	65.879	19.51	1.5501e-06	26.718	0.00021686	0.00020115	5.5363e-05	1093.1	2.4737e-06	2.1916e-06	1190.2	227.49	2.6064e-06	2.1236e-06	286.17	83.671	65.829	19.714	2.3491e-06	27.121	139.562	6.883	27.757	-63.163	79.355	68.670	-63.048	-55.797	30.007	80.298	-56.173	-49.496	-49.268	-41.990	57.123	-42.856	-8191	255	
2390.069	1	1	0	0	0.25847	0.19743	0.11216	0.30902	0.23902	0.15718	0.18142	0.19799	0.22041	0.18106	0.070638	0.39144	0.12017	0.2187	0.067697	0.086903	-1.7687	-2.6292	-2.6146	-2.2146	-3.0479	-2.6125	-2.3958	-3.0812	-2.1208	-2.3479	-2.9917	-2.1646	-3.05	-2.6729	-2.225	-2.9646	-2.279	56.926	142.035	254.483	247.753	-68.212	214.613	112.489	207.126	-52.237	81.349	35.871	187.437	236.108	-46.229	179.262	6.8824e-05	0.00016265	8.6848e-05	1112.8	8.3583e-07	2.3624e-06	1203.5	227.65	1.9323e-06	1.8815e-06	290.23	82.561	65.57	19.397	1.1017e-06	27.12	0.00020592	0.00019981	5.8246e-05	1094.9	2.6216e-06	2.2546e-06	1188.2	226.89	2.6169e-06	2.2105e-06	286.65	83.54	65.804	19.696	2.3906e-06	27.199	135.456	28.828	30.544	-63.219	88.301	70.943	-63.367	-56.097	59.373	51.714	-56.471	-50.000	-49.208	-41.500	34.830	-42.098	-8191	255	
2390.165	1	1	0	0	0.027161	0.1816	0.17357	0.09915	0.23399	0.09532	0.23934	0.25876	0.26112	0.079561	0.032279	0.083109	0.10929	0.29628	0.089048	0.13333	-1.8521	-2.6146	-3.0083	-2.3	-2.7333	-2.6937	-2.1917	-3.0833	-2.375	-2.4875	-3.1521	-2.225	-2.9479	-2.7313	-2.3292	-3.1417	239.240	53.443	-3.677	137.167	219.035	48.503	188.585	237.928	162.387	-10.236	209.103	244.773	149.975	154.114	-18.702	-41.168	8.0394e-05	0.00026091	4.8467e-05	1104.5	9.7449e-07	3.9699e-06	1192.2	227.76	6.8726e-07	2.6561e-06	286.23	82.877	65.316	19.357	1.9847e-06	26.624	0.00021035	0.00021497	5.3545e-05	1088.6	2.5065e-06	2.1646e-06	1183.4	226.39	2.4931e-06	2.3939e-06	284.85	83.492	65.714	19.669	2.5465e-06	27.081	138.583	10.103	13.885	-63.217	55.665	86.252	-63.126	-56.065	17.012	97.459	-56.475	-49.685	-49.019	-41.502	89.662	-42.253	-8191	255	
2390.262	1	1	0	0	0.11758	0.125	0.033471	0.21327	0.10784	0.084161	0.16447	0.12095	0.16261	0.12125	0.2167	0.14283	0.063136	0.11302	0.15035	0.14715	-2.0625	-2.4646	-2.9521	-2.4271	-2.6729	-2.8771	-2.2167	-3.0187	-2.4792	-2.3896	-3.2812	-2.1813	-2.7333	-2.6667	-2.1396	-3.0187	147.871	267.610	262.350	238.558	196.701	94.408	168.231	257.923	10.109	3.696	230.403	-11.311	48.215	231.265	249.434	127.257	9.4533e-05	0.00018883	7.2793e-05	1103.6	1.8485e-06	3.4802e-06	1193.9	227.28	1.3284e-06	2.9457e-06	285.56	82.544	64.837	19.439	1.6113e-06	26.775	0.00019569	0.00021492	5.3042e-05	1085.8	2.5211e-06	2.3177e-06	1180.3	226.35	2.5342e-06	2.3113e-06	284.69	83.142	65.475	19.677	2.4736e-06	27.038	147.769	9.173	29.575	-63.089	78.241	87.328	-63.186	-55.744	56.772	84.941	-56.296	-49.840	-49.090	-41.990	59.397	-42.299	-8191	255	
2390.358	1	1	0	0	0.19035	0.25068	0.12561	0.30087	0.12911	0.17682	0.12989	0.14693	0.1293	0.1199	0.17593	0.1758	0.071651	0.13362	0.077142	0.30545	-2.2271	-2.325	-2.9688	-2.4396	-2.5958	-2.8792	-2.2812	-2.9479	-2.6271	-2.225	-3.1458	-2.3604	-2.7521	-2.9771	-2.0583	-2.975	197.326	161.387	160.379	-41.071	160.347	44.036	-20.448	188.746	168.673	-63.752	193.128	-47.396	-51.876	263.919	262.789	206.032	7.2791e-05	0.00031021	6.1175e-05	1088.9	1.371e-06	3.7088e-06	1196.7	227.61	1.2871e-06	3.4136e-06	285.96	82.3	65.315	19.612	2.5525e-06	26.709	0.00020869	0.00022752	5.7152e-05	1081.1	2.4862e-06	2.2108e-06	1180.6	226.06	2.4536e-06	2.5701e-06	285.49	83.215	65.457	19.745	2.3906e-06	27.12	125.733	11.392	38.453	-63.420	84.645	79.721	-63.059	-55.851	104.313	82.631	-56.475	-49.993	-49.026	-41.913	51.572	-42.174	-8191	255	
2390.478	1	1	0	0	0.067843	0.12925	0.14866	0.064376	0.20786	0.14604	0.24636	0.31714	0.023256	0.2732	0.26004	0.13542	0.1511	0.1002	0.11376	0.28732	-2.3521	-2.2979	-2.9083	-2.5187	-2.3479	-2.8229	-2.1937	-2.9083	-2.7542	-2.0833	-3.0604	-2.3667	-2.5771	-3.1354	-2.2167	-2.8708	-62.028	174.893	194.902	-49.189	180.759	273.253	-12.547	-28.904	237.161	37.853	245.339	225.068	168.951	163.211	138.427	-61.819	8.2958e-05	0.00020959	5.9196e-05	1104.8	1.333e-06	3.0172e-06	1204.2	230.3	7.1838e-07	3.7559e-06	289.96	83.419	66.494	19.76	2.6726e-06	27.183	0.00021047	0.00022528	5.455e-05	1088.8	2.5737e-06	2.2096e-06	1186.3	227.47	2.4779e-06	2.352e-06	285.97	83.542	66.08	19.803	2.6424e-06	27.217	129.133	21.671	34.049	-63.250	130.193	68.844	-63.215	-55.448	64.412	82.872	-56.435	-49.383	-48.729	-41.672	62.772	-41.914	-8191	255	
2390.573	1	1	0	0	0.1323	0.085888	0.14006	0.11237	0.2221	0.21887	0.3692	0.4392	0.37291	0.10233	0.2263	0.41373	0.13675	0.17322	0.25224	0.21507	-2.3375	-2.0979	-2.9583	-2.6375	-2.4646	-3.0625	-2.1188	-2.8187	-2.7188	-2.2042	-3.0896	-2.6375	-2.3187	-2.9229	-2.175	-2.7396	75.942	234.259	126.477	220.006	128.564	248.758	235.329	191.157	209.854	272.483	272.769	282.793	138.489	272.533	85.093	-21.377	7.5675e-05	0.00033008	0.00011127	1118.4	1.8991e-06	3.4985e-06	1206.1	229.96	1.1194e-06	2.9552e-06	290.64	83.157	66.067	19.629	3.0501e-06	26.998	0.00020961	0.00021914	5.6383e-05	1092.3	2.5903e-06	2.2072e-06	1185.4	227.12	2.4831e-06	2.4844e-06	286.03	83.421	66.014	19.707	2.325e-06	27.267	136.221	21.112	11.061	-62.817	68.568	85.340	-62.919	-55.560	66.849	82.849	-55.794	-49.692	-49.352	-41.401	99.887	-42.213	-8191	255	
2390.669	1	1	0	0	0.12111	0.22567	0.15899	0.11527	0.20324	0.13674	0.28395	0.080918	0.18162	0.18037	0.12558	0.19128	0.30966	0.19568	0.11476	0.28347	-2.5375	-1.9167	-2.8333	-2.8187	-2.3063	-3.0396	-2.2375	-2.6479	-3.0333	-1.9479	-2.9625	-2.6125	-2.0687	-2.7687	-2.2833	-2.4938	-11.037	165.126	-46.617	230.145	161.183	100.511	237.817	272.828	-10.787	-65.443	8.168	211.851	268.941	214.739	-40.664	226.156	7.5147e-05	0.00030311	8.6039e-05	1118.8	2.4375e-06	1.678e-06	1207.4	229.79	1.8508e-06	3.6637e-06	290.38	83.446	65.985	19.724	2.6164e-06	26.831	0.00021568	0.00022699	5.6147e-05	1093	2.8189e-06	2.1196e-06	1186.2	227.44	2.4342e-06	2.4195e-06	286.33	83.373	65.896	19.808	2.4287e-06	27.074	114.772	23.744	38.357	-63.346	80.668	67.562	-63.467	-55.941	53.369	75.539	-56.493	-49.625	-49.184	-41.769	83.010	-41.905	-8191	255	
2390.742	1	1	0	0	0.17284	0.076778	0.10682	0.1617	0.079578	0.11074	0.17899	0.24236	0.36512	0.23438	0.16856	0.14064	0.14039	0.081417	0.15623	0.13516	-2.6188	-2.1104	-2.8333	-2.8417	-2.0479	-3.1167	-2.5271	-2.3896	-2.9854	-2.2375	-2.9	-2.7104	-2.0021	-3.0062	-2.3833	-2.3979	246.912	115.124	147.927	-71.706	254.617	122.684	244.239	268.810	111.675	122.132	57.094	261.455	268.220	-50.522	9.481	272.164	9.7052e-05	0.00027348	6.4294e-05	1115.1	1.1655e-06	3.1997e-06	1208.7	228.45	1.4357e-06	2.9413e-06	288.86	82.824	65.447	19.899	2.9648e-06	26.949	0.0002022	0.00021796	5.6206e-05	1093.4	2.7991e-06	2.2198e-06	1187.1	226.74	2.351e-06	2.3381e-06	286.19	83.475	65.873	19.832	2.3632e-06	27.207	143.499	42.163	24.400	-63.405	72.506	106.184	-63.233	-55.971	78.349	91.661	-56.578	-49.824	-48.944	-41.433	82.054	-42.712	-8191	255	
2390.861	1	1	0	0	0.25813	0.11904	0.31358	0.23709	0.19964	0.20131	0.29572	0.20879	0.10195	0.17707	0.15702	0.20329	0.12838	0.32272	0.33763	0.28352	-2.5271	-2.0396	-2.6792	-2.825	-2.2042	-2.7938	-2.6021	-2.3771	-3.0958	-2.1271	-2.7396	-2.975	-2.1521	-3.0333	-2.5646	-2.2417	54.983	28.083	-19.900	-10.453	83.412	-2.811	230.201	-45.686	35.586	-61.537	13.701	-43.418	-66.030	260.715	82.898	264.164	8.1241e-05	0.00022286	8.2315e-05	1110	1.8325e-06	4.086e-06	1206	230.17	1.0016e-06	4.0077e-06	290.34	82.875	66.053	19.808	2.1745e-06	26.971	0.00020006	0.00020152	5.6664e-05	1090.3	2.6642e-06	2.236e-06	1187.3	227.47	2.4041e-06	2.4255e-06	286.02	83.505	65.785	19.79	2.4803e-06	27.144	141.516	24.042	25.528	-63.225	83.843	83.301	-63.487	-56.092	63.963	102.664	-56.106	-49.689	-48.922	-41.491	72.496	-42.437	-8191	255	
2390.957	1	1	0	0	0.25659	0.050108	0.085508	0.42673	0.18734	0.34094	0.1721	0.021471	0.036269	0.28608	0.16195	0.21076	0.19773	0.23357	0.17332	0.48201	-2.7396	-2.3229	-2.55	-2.9437	-2.0958	-2.8583	-2.6583	-2.1688	-2.9562	-2.3479	-2.3937	-3.0104	-2.2417	-2.8125	-2.6542	-2.0917	-59.024	234.781	138.889	-13.341	212.875	206.243	195.084	23.607	112.386	149.390	-20.932	-44.603	127.407	247.840	155.129	280.653	8.4562e-05	0.00028998	6.7545e-05	1120.7	1.4903e-06	3.0009e-06	1210.2	228.98	2.2243e-06	2.1096e-06	291.94	83.776	66.083	19.758	2.0713e-06	26.977	0.00020461	0.00021578	6.0995e-05	1095	2.6674e-06	2.218e-06	1186.7	226.85	2.4705e-06	2.2245e-06	286.31	83.715	65.914	19.825	2.38e-06	27.115	141.467	1.749	22.387	-63.370	92.295	72.600	-63.243	-55.667	68.004	63.324	-56.191	-49.977	-49.140	-41.923	69.603	-42.492	-8191	255	
2391.054	1	1	0	0	0.073865	0.1132	0.20492	0.29314	0.25058	0.16559	0.20253	0.32382	0.11547	0.14207	0.038612	0.20507	0.34824	0.059455	0.11921	0.070784	-2.6792	-2.1583	-2.1833	-3.125	-2.1125	-2.8896	-2.9042	-2.1875	-3.0229	-2.3875	-2.4979	-2.9521	-2.3083	-2.7604	-2.8708	-2.1771	96.411	-2.109	203.641	-71.872	60.743	104.587	248.245	282.138	-43.602	144.471	56.515	41.156	34.919	272.234	-21.529	20.776	8.1912e-05	0.00033923	8.6411e-05	1114	1.2584e-06	2.2897e-06	1199.7	228.83	9.6645e-07	1.9199e-06	289.44	83.268	65.619	19.375	2.5151e-06	26.82	0.00020521	0.00021295	6.3745e-05	1092.3	2.5362e-06	2.1694e-06	1183.8	226.8	2.2709e-06	2.2803e-06	285.79	83.624	65.757	19.676	2.2628e-06	27.158	145.061	15.886	6.710	-63.243	67.484	65.643	-63.228	-56.095	46.210	81.940	-56.218	-49.533	-49.549	-41.968	72.300	-42.343	-8191	255	
2391.150	1	1	0	0	0.18912	0.18096	0.2175	0.035547	0.21476	0.12243	0.16836	0.15751	0.15104	0.14977	0.27663	0.034169	0.33182	0.083804	0.18684	0.060935	-2.6333	-2.3187	-2.2875	-3.1667	-2.2292	-2.5979	-3.0167	-2.2083	-2.95	-2.4333	-2.1271	-3.2333	-2.375	-2.5687	-2.9958	-2.1542	62.969	132.176	-56.939	165.746	110.739	285.873	209.647	187.982	218.103	33.933	277.842	8.607	251.541	241.694	14.465	-49.067	9.5003e-05	0.0002667	8.2052e-05	1109.9	1.2201e-06	2.886e-06	1205.2	229.39	8.9536e-07	2.2766e-06	287.41	83.521	65.611	19.781	2.6997e-06	27.105	0.00019798	0.00020734	5.9561e-05	1089.8	2.5888e-06	2.224e-06	1186.6	227.15	2.5205e-06	2.2901e-06	285.94	83.473	65.911	19.822	2.2471e-06	27.251	136.846	7.618	24.197	-63.248	69.859	93.626	-63.139	-55.746	29.018	75.363	-56.046	-49.565	-49.189	-41.135	63.033	-42.005	-8191	255	
2391.270	1	1	0	0	0.43714	0.25096	0.20099	0.32716	0.12157	0.16435	0.074164	0.30926	0.20649	0.10514	0.28664	0.22185	0.22815	0.17745	0.2007	0.062673	-2.4854	-2.5521	-2.15	-3.0375	-2.4417	-2.5667	-3.1417	-2.1458	-2.8312	-2.8146	-2.275	-2.9146	-2.2833	-2.4292	-2.8521	-2.1333	-64.990	265.979	112.409	279.052	188.227	-25.739	251.974	-55.491	52.512	-33.386	265.425	207.959	183.307	65.263	133.689	231.185	8.6309e-05	0.00033184	7.7765e-05	1121.1	1.4044e-06	2.5982e-06	1214.8	230.35	7.6986e-07	2.6389e-06	291.08	83.514	66.583	19.62	2.6614e-06	27.03	0.00019819	0.00020547	5.8941e-05	1095.8	2.6148e-06	2.3783e-06	1191.3	227.05	2.3831e-06	2.3472e-06	286.8	83.645	66.164	19.773	2.265e-06	27.246	126.694	27.372	13.879	-63.072	78.794	91.613	-63.326	-55.914	59.842	69.171	-55.796	-48.955	-48.757	-41.594	92.452	-42.140	-8191	255	
2391.365	1	1	0	0	0.067956	0.13822	0.037646	0.41447	0.090952	0.12843	0.21344	0.0946	0.16044	0.35774	0.087864	0.39638	0.15752	0.24621	0.046671	0.1247	-2.4562	-2.5521	-2.1354	-3.1625	-2.2604	-2.2021	-3.1	-2.0917	-2.6271	-2.7833	-2.2542	-2.9417	-2.575	-2.3458	-3.0542	-2.3271	-34.846	184.191	-71.042	274.530	235.860	170.595	191.496	208.193	265.905	201.484	115.664	-61.632	222.745	-68.649	154.248	90.704	9.1946e-05	0.00014068	0.00010078	1119.8	1.5139e-06	3.2582e-06	1208	230.06	1.5101e-06	2.7406e-06	288.06	82.935	66.005	19.784	1.3633e-06	26.938	0.00020961	0.00020291	6.2075e-05	1097.2	2.6429e-06	2.3003e-06	1187.5	227.39	2.5263e-06	2.3113e-06	286.66	83.513	66.085	19.808	2.2359e-06	27.206	146.934	7.631	55.470	-63.030	84.490	79.418	-63.209	-55.983	81.820	80.254	-55.920	-49.523	-49.285	-41.558	52.746	-42.086	-8191	255	
2391.463	1	1	0	0	0.18971	0.075545	0.30367	0.18551	0.20683	0.23599	0.17816	0.19571	0.15208	0.14534	0.081932	0.11627	0.084672	0.073602	0.078085	0.28641	-2.2271	-2.8792	-2.1042	-3.1042	-2.5687	-2.4417	-3.0771	-2.4437	-2.5271	-2.8146	-2.3271	-3.0521	-2.7021	-2.3104	-3.0729	-2.3688	232.458	29.704	171.483	-54.304	140.442	249.834	183.306	-58.883	223.401	-41.872	-72.461	89.312	58.094	127.318	87.173	239.571	9.2949e-05	0.00024344	0.00010674	1118.9	2.2536e-06	1.7246e-06	1202.9	229.66	1.5873e-06	1.0831e-06	290.13	83.402	65.888	19.74	2.1812e-06	27.041	0.00020699	0.00019351	6.0626e-05	1097.2	2.6122e-06	2.2198e-06	1187.1	227.34	2.4637e-06	2.2554e-06	287.1	83.748	65.942	19.817	2.2398e-06	27.205	134.435	29.770	13.602	-62.930	76.436	72.840	-62.887	-55.510	60.975	76.086	-55.904	-48.861	-48.912	-41.262	71.968	-42.098	-8191	255	
2391.557	1	1	0	0	0.034584	0.15714	0.066939	0.19437	0.23423	0.21746	0.18921	0.20854	0.19636	0.25292	0.10441	0.081526	0.069921	0.16989	0.24553	0.14904	-2.0625	-3.0104	-2.0625	-3.0625	-2.6271	-2.0271	-3.0563	-2.2583	-2.2479	-2.8937	-2.2896	-2.8	-2.7771	-2.15	-3.0646	-2.3104	206.790	240.576	231.433	232.114	134.626	207.527	215.597	167.929	243.085	63.304	244.530	24.559	221.011	169.796	5.868	140.542	6.6737e-05	0.00030403	5.6515e-05	1113.8	1.9328e-06	3.3347e-06	1203.9	230.18	1.1345e-06	3.2148e-06	291.37	83.211	65.622	19.832	2.5874e-06	27.311	0.00020854	0.0002043	5.9665e-05	1095.1	2.5419e-06	2.4485e-06	1187.2	227.13	2.5005e-06	2.0963e-06	286.32	83.475	65.844	19.837	2.2252e-06	27.244	135.148	7.927	-10.978	-62.956	83.244	78.274	-63.018	-55.551	60.879	83.641	-56.540	-49.188	-48.676	-41.147	89.360	-41.706	-8191	255	
2391.653	1	1	0	0	0.13277	0.19674	0.16457	0.14745	0.16319	0.26085	0.3104	0.052161	0.048794	0.15693	0.1116	0.042592	0.23503	0.10932	0.16663	0.14503	-1.9917	-2.9396	-2.0583	-2.9521	-2.8458	-2.2146	-2.975	-2.5917	-2.3271	-3.0417	-2.1208	-2.6646	-2.9771	-2.3083	-2.8792	-2.5521	86.378	234.447	220.542	218.091	69.660	177.618	212.170	156.411	264.802	161.144	244.350	35.412	222.252	54.456	-60.627	-44.897	7.6348e-05	0.00021474	5.4238e-05	1125	2.0596e-06	3.6063e-06	1209.8	231.83	8.2545e-07	2.9236e-06	290.24	83.596	66.327	19.704	2.5166e-06	27.061	0.00021612	0.00020136	5.8763e-05	1098.1	2.6065e-06	2.4113e-06	1186.9	227.9	2.5284e-06	2.0866e-06	285.88	83.751	66.029	19.809	2.1389e-06	27.247	149.710	-1.262	28.737	-62.644	54.220	82.681	-62.858	-55.519	77.399	66.967	-56.206	-49.263	-48.812	-41.156	96.267	-41.480	-8191	255	
2391.749	1	1	0	0	0.039653	0.15145	0.30362	0.15498	0.1322	0.079094	0.33237	0.029029	0.031142	0.16463	0.13011	0.03091	0.13802	0.11405	0.0044713	0.11415	-1.9021	-2.9417	-2.2	-2.8208	-2.8792	-1.9896	-3.2271	-2.625	-2.3479	-3.1688	-2.4583	-2.7	-3.0292	-2.3229	-2.8104	-2.8833	143.078	102.952	89.832	-25.150	184.199	7.008	253.768	189.384	228.999	-20.179	242.672	-42.512	276.733	257.405	-29.393	164.820	6.1077e-05	0.00032217	9.8858e-05	1129.2	1.6653e-06	2.74e-06	1211.6	229.52	8.3624e-07	2.0206e-06	289.19	83.917	66.436	19.763	2.1786e-06	27.067	0.00021582	0.00021017	5.7447e-05	1097.7	2.4675e-06	2.3651e-06	1186.1	226.98	2.6659e-06	2.0817e-06	286.22	83.571	65.971	19.809	2.1417e-06	27.246	148.241	15.488	21.149	-62.992	63.887	90.570	-62.889	-55.759	63.913	82.962	-56.089	-49.736	-49.461	-41.275	52.039	-42.105	-8191	255	
2391.870	1	1	0	0	0.090387	0.22423	0.094372	0.35627	0.20222	0.034728	0.28699	0.12508	0.18385	0.13879	0.28842	0.010218	0.13409	0.23021	0.32519	0.11681	-1.7292	-2.9896	-2.3729	-2.6188	-2.9938	-2.1167	-3.0812	-2.8292	-2.0042	-3.0167	-2.2958	-2.5208	-2.9792	-2.1	-2.8167	-2.7729	-51.599	-55.334	66.608	-71.162	28.061	31.839	277.057	-71.840	168.754	117.244	145.910	165.566	220.837	265.107	232.888	281.141	0.00010042	0.00027985	5.5979e-05	1125.1	2.1285e-06	3.6805e-06	1210.4	230.42	2.3279e-07	3.1866e-06	291.23	83.677	66.166	19.95	2.4952e-06	27.075	0.00020996	0.00017077	5.7566e-05	1097	2.4373e-06	2.4329e-06	1187.1	227.26	2.6417e-06	2.0993e-06	286.96	83.782	65.857	19.866	2.3575e-06	27.201	134.022	22.022	24.995	-62.718	106.027	78.045	-62.800	-55.527	197.750	86.834	-55.796	-49.649	-48.938	-41.293	80.490	-41.837	-8191	255	
2391.966	1	1	0	0	0.19427	0.18558	0.19875	0.17817	0.36357	0.12736	0.21762	0.073671	0.24414	0.3892	0.19305	0.12482	0.30559	0.23569	0.18846	0.15925	-1.7625	-3.0354	-2.4562	-2.2208	-3.0375	-2.0062	-2.975	-2.8625	-1.9958	-3.0646	-2.6625	-2.3917	-2.9958	-2.3333	-2.6208	-2.7958	158.906	129.891	172.869	-72.629	180.456	59.192	168.279	38.633	283.967	198.039	214.133	-63.749	-59.908	279.570	-58.966	45.864	0.00010269	0.00023263	8.3504e-05	1124.2	1.6175e-06	3.7357e-06	1211.5	230.53	5.9974e-07	2.4172e-06	289.97	83.728	65.899	19.713	1.9327e-06	27.087	0.00020976	0.00021279	6.0508e-05	1096.4	2.5086e-06	2.487e-06	1186.5	227.69	2.5848e-06	2.1376e-06	285.93	83.586	65.937	19.769	2.2079e-06	27.19	120.711	28.243	9.011	-62.647	77.622	87.315	-62.707	-55.608	92.101	84.811	-55.891	-49.429	-48.896	-41.546	61.173	-41.992	-8191	255	
2392.038	1	1	0	0	0.035419	0.19445	0.18697	0.28915	0.13109	0.042023	0.24742	0.09398	0.14498	0.20504	0.19422	0.16061	0.041519	0.049098	0.25759	0.16733	-1.6458	-2.7958	-2.45	-2.3729	-2.9437	-2.1625	-2.7188	-3.1104	-2.1979	-2.9021	-2.5271	-2.2938	-3.1063	-2.2583	-2.4854	-3.0458	93.922	-7.083	156.163	276.331	-12.376	-25.067	262.984	261.787	9.997	194.695	256.263	-3.370	61.089	187.648	-36.549	-12.979	8.861e-05	0.00023605	7.8738e-05	1120	1.4681e-06	3.3771e-06	1210.9	229.78	6.0922e-07	4.3391e-06	291.31	83.566	66.399	19.783	2.5607e-06	27.047	0.00021452	0.00019837	5.9399e-05	1095.5	2.2972e-06	2.5068e-06	1185.1	227.03	2.5074e-06	2.3308e-06	286.13	83.644	65.918	19.709	2.3346e-06	27.241	150.727	14.878	33.202	-62.776	94.984	87.614	-63.207	-55.967	105.963	89.345	-56.446	-49.821	-49.357	-41.501	97.309	-42.506	-8191	255	
2392.134	1	1	0	0	0.083276	0.046662	0.17157	0.37607	0.18968	0.20196	0.4765	0.0772	0.10352	0.09992	0.42219	0.29898	0.15786	0.13668	0.080874	0.13403	-1.8188	-2.7729	-2.6021	-2.2313	-2.975	-2.2396	-2.5271	-3.125	-2.3583	-2.7938	-2.7188	-2.1312	-2.925	-2.3292	-2.2708	-3.0104	252.447	34.642	62.888	248.019	153.588	73.236	182.636	217.655	45.383	160.526	225.558	181.471	-68.736	8.285	204.161	160.149	7.8916e-05	0.00025459	8.2216e-05	1122.7	2.316e-06	2.7666e-06	1204.8	230	1.4259e-06	2.0925e-06	286.9	83.07	66.288	19.835	2.7859e-06	26.866	0.00020732	0.00019357	5.8231e-05	1094.4	2.5934e-06	1.9785e-06	1185.1	227.07	2.5606e-06	2.188e-06	285.18	83.576	65.851	19.806	2.348e-06	27.153	139.603	22.245	24.704	-63.283	87.097	82.456	-63.367	-56.291	85.865	101.929	-56.438	-49.766	-48.952	-41.908	63.876	-42.123	-8191	255	
2392.255	1	1	0	0	0.13205	0.19769	0.076159	0.17322	0.176	0.10174	0.18574	0.21088	0.30045	0.14028	0.22192	0.23296	0.13938	0.10081	0.14511	0.24028	-1.95	-2.4979	-2.7979	-2.2125	-2.8792	-2.3646	-2.3854	-2.9667	-2.0938	-2.5812	-2.7771	-2.1729	-2.9104	-2.3625	-2.3312	-2.9604	4.249	-26.530	25.195	197.034	21.715	31.833	177.850	265.111	53.910	-70.989	39.878	13.152	202.067	114.988	110.660	186.473	8.1181e-05	0.00029482	6.2363e-05	1120.9	1.7608e-06	2.7811e-06	1210.3	230.7	2.1774e-06	2.2716e-06	290	83.866	66.433	19.72	2.1415e-06	27.262	0.00022478	0.00021684	5.3057e-05	1093.8	2.6372e-06	2.2438e-06	1183.6	227.3	2.5111e-06	2.1959e-06	286.24	83.831	66.133	19.847	2.3889e-06	27.303	122.544	15.363	25.756	-63.323	85.717	70.795	-63.154	-56.161	81.139	74.601	-56.322	-49.577	-48.873	-41.508	71.121	-42.258	-8191	255	
2392.351	1	1	0	0	0.2339	0.017001	0.065858	0.24739	0.19832	0.022183	0.16972	0.061596	0.17291	0.10664	0.23192	0.15595	0.16965	0.12287	0.094742	0.20541	-1.9625	-2.5875	-2.875	-2.3292	-2.9313	-2.6125	-2.4229	-3.1396	-2.2792	-2.6188	-2.9271	-2.325	-2.8125	-2.6542	-2.3187	-3.0125	163.483	65.333	23.818	223.872	-15.666	135.384	247.351	113.393	49.241	234.771	66.483	226.718	279.158	190.059	17.615	71.867	0.00011911	0.00030043	6.309e-05	1116.7	7.4835e-07	2.4806e-06	1209.6	229.75	1.3526e-06	3.0927e-06	290.13	83.069	66.088	19.807	2.0736e-06	26.864	0.00020869	0.00020798	5.1992e-05	1090.5	2.545e-06	2.3267e-06	1182.8	226.93	2.5121e-06	2.3101e-06	285.86	83.462	65.865	19.767	2.3346e-06	27.194	132.188	20.504	37.307	-63.161	110.680	74.177	-63.203	-55.784	42.509	103.736	-56.338	-49.396	-48.844	-41.590	70.536	-42.037	-8191	255	
2392.447	1	1	0	0	0.31685	0.1243	0.17734	0.2406	0.20897	0.027114	0.3891	0.14283	0.16748	0.10274	0.10525	0.069752	0.098261	0.090118	0.093014	0.28585	-1.9417	-2.4688	-3.0146	-2.2146	-2.8771	-2.8312	-2.3354	-3.0792	-2.4917	-2.3958	-3.2958	-2.2646	-2.75	-2.8542	-2.2625	-2.9833	9.055	123.120	171.157	144.113	75.977	-6.498	160.568	169.113	-16.106	-33.786	-39.360	258.771	29.685	256.965	143.056	153.946	8.1649e-05	0.0002402	4.3226e-05	1121	1.6339e-06	2.77e-06	1206.6	231.07	4.2136e-07	2.9613e-06	290.44	83.561	66.106	19.667	2.3113e-06	27.029	0.0002047	0.00020659	5.4077e-05	1094.2	2.5284e-06	2.1862e-06	1183.2	227.25	2.5021e-06	2.3848e-06	285.54	83.657	65.867	19.784	2.4736e-06	27.149	139.482	10.716	-4.962	-63.100	79.957	89.158	-63.251	-55.623	30.737	95.019	-56.474	-49.527	-48.797	-41.624	90.673	-42.452	-8191	255	
2392.543	1	1	0	0	0.26526	0.17146	0.10918	0.15798	0.33215	0.012413	0.10172	0.22255	0.13532	0.18669	0.42196	0.19363	0.067109	0.12795	0.21452	0.026009	-2.2104	-2.3354	-3.0396	-2.2729	-2.7188	-2.9146	-2.2438	-2.9625	-2.7271	-2.3896	-3.1083	-2.1417	-2.7417	-2.9354	-2.1583	-2.8271	216.631	225.971	151.635	273.958	-54.515	-54.254	206.166	-48.636	174.848	217.500	32.934	213.644	35.306	196.062	226.955	232.878	7.0435e-05	0.00025028	7.8616e-05	1119	1.3966e-06	1.9978e-06	1207.2	230.77	8.7707e-07	1.7187e-06	289.83	83.275	66.002	19.64	1.5213e-06	26.959	0.00020886	0.00022026	5.0514e-05	1093.2	2.4701e-06	2.1628e-06	1183.7	227.21	2.3926e-06	2.4893e-06	285.96	83.451	65.855	19.778	2.3295e-06	27.181	122.977	18.025	11.647	-62.977	122.579	96.273	-62.810	-55.802	66.410	65.082	-55.879	-49.399	-48.651	-41.449	53.523	-41.864	-8191	255	
2392.639	1	1	0	0	0.10413	0.22722	0.069921	0.20642	0.22542	0.088161	0.091858	0.28155	0.2022	0.13764	0.1575	0.12792	0.067877	0.32861	0.12341	0.090256	-2.3271	-2.1229	-3	-2.4417	-2.3917	-2.8896	-2.5438	-2.8708	-2.8583	-2.1667	-3.2854	-2.3875	-2.3187	-3.0354	-2.2354	-2.5938	51.704	-58.101	74.908	282.772	-62.987	254.142	155.092	268.060	66.703	121.150	29.030	177.993	76.996	167.311	178.280	151.539	0.00010067	0.00023725	6.0362e-05	1116.6	1.0376e-06	2.9477e-06	1205.2	231.11	1.5373e-06	3.5272e-06	290.89	83.738	66.196	19.673	2.0631e-06	27.13	0.00020779	0.00021631	4.8282e-05	1091	2.7559e-06	2.0548e-06	1182.9	227.5	2.5416e-06	2.2961e-06	286.09	83.726	66.007	19.761	2.5235e-06	27.237	135.388	7.907	3.913	-62.996	80.846	84.632	-62.901	-55.602	58.838	81.699	-55.892	-49.447	-48.824	-41.651	75.339	-42.049	-8191	255	
2392.734	1	1	0	0	0.26726	0.076205	0.19033	0.43721	0.082335	0.27765	0.17647	0.12773	0.15092	0.21784	0.21376	0.26179	0.092032	0.28227	0.19049	0.041566	-2.4521	-2.2125	-2.9917	-2.5938	-2.2896	-3.1583	-2.2771	-2.8896	-2.9271	-2.1083	-2.9771	-2.3917	-2.3646	-3.1063	-2.2979	-2.6146	-38.639	205.416	184.699	201.651	213.065	7.153	-49.663	144.827	157.227	-51.988	272.681	232.090	48.157	283.851	-36.064	-69.554	9.0371e-05	0.00031742	7.0909e-05	1120.9	1.9241e-06	3.811e-06	1202.3	230.44	1.8187e-06	1.7064e-06	291.3	83.494	66.109	19.627	2.2946e-06	26.948	0.00020553	0.00021903	5.5422e-05	1092.3	2.6278e-06	2.1172e-06	1180.9	227.18	2.382e-06	2.2943e-06	285.34	83.433	65.784	19.767	2.4052e-06	27.222	134.500	11.790	57.866	-62.944	86.024	91.469	-62.946	-55.435	55.158	107.096	-55.984	-49.663	-48.775	-41.140	93.501	-41.962	-8191	255	
2392.831	1	1	0	0	0.28075	0.17875	0.12697	0.20101	0.20448	0.16288	0.41353	0.1678	0.10996	0.18649	0.20328	0.31696	0.031219	0.17371	0.17808	0.076999	-2.5687	-2.0604	-2.9146	-2.5521	-2.0979	-3.0833	-2.4917	-2.6729	-3.0292	-2.2438	-2.9979	-2.5979	-2.3	-3.0812	-2.4062	-2.5646	111.928	169.301	38.266	166.421	228.341	128.833	246.381	282.716	242.486	109.001	282.726	42.226	2.128	270.857	137.742	179.237	9.085e-05	0.00030846	5.2928e-05	1115	1.4191e-06	3.1158e-06	1207.6	229.61	1.3856e-06	2.5114e-06	291.14	82.869	65.991	19.821	2.0078e-06	26.986	0.00019774	0.00020595	5.2879e-05	1089.6	2.5018e-06	2.056e-06	1181.3	226.82	2.2082e-06	2.3071e-06	285.72	83.404	65.835	19.822	2.2835e-06	27.286	147.918	7.845	37.226	-62.968	59.733	87.790	-62.991	-55.606	36.014	73.664	-56.183	-49.570	-48.977	-41.530	67.089	-41.871	-8191	255	
2392.950	1	1	0	0	0.16574	0.32773	0.20319	0.38043	0.098601	0.36923	0.1149	0.29086	0.10874	0.038645	0.096189	0.1245	0.24175	0.17241	0.29253	0.14592	-2.5917	-2.1271	-2.7562	-2.8958	-2.1354	-2.8729	-2.6229	-2.4396	-3.025	-2.0583	-2.75	-2.7854	-2.2479	-3.0187	-2.2979	-2.4771	59.882	49.269	40.012	281.169	-66.970	284.238	140.515	219.727	154.584	198.834	154.956	226.497	147.922	130.440	94.888	266.797	9.1096e-05	0.00030609	8.6128e-05	1115.7	1.9752e-06	2.4003e-06	1209.3	230.59	1.2687e-06	2.4017e-06	290.61	83.523	65.909	19.867	2.8669e-06	27.207	0.00019275	0.0002091	5.2628e-05	1089.6	2.6367e-06	1.9425e-06	1182	227.03	2.0866e-06	2.4784e-06	286.29	83.704	66.053	19.879	2.177e-06	27.256	144.033	14.982	8.149	-63.010	77.099	89.790	-62.781	-55.754	64.199	75.474	-56.110	-49.538	-48.942	-41.478	81.553	-42.074	-8191	255	
2393.046	1	1	0	0	0.30192	0.096626	0.20726	0.23454	0.10634	0.17813	0.27343	0.14936	0.051538	0.0924	0.21675	0.14877	0.24538	0.11297	0.1837	0.16388	-2.6688	-2.0917	-2.6562	-2.9521	-2.3688	-2.9896	-2.6521	-2.4375	-3.0271	-2.3354	-2.7792	-2.8771	-2.3417	-2.8937	-2.5417	-2.2042	144.661	-4.454	-59.543	-41.866	281.007	217.644	200.508	277.644	2.683	20.812	-26.240	163.525	-58.779	253.453	15.966	268.825	7.4518e-05	0.00036942	5.6182e-05	1117.8	1.0903e-06	3.6739e-06	1207.7	228.88	1.6263e-06	2.8417e-06	288.79	83.713	66.004	19.744	2.6313e-06	27.149	0.00019221	0.00019261	5.0854e-05	1089.3	2.507e-06	2.0596e-06	1183	226.72	2.2851e-06	2.0082e-06	285.76	83.725	66.04	19.812	2.2269e-06	27.296	121.212	9.368	13.898	-62.933	57.196	96.473	-62.902	-55.569	31.381	61.781	-55.743	-49.434	-48.197	-41.449	81.265	-41.503	-8191	255	
2393.143	1	1	0	0	0.094564	0.26823	0.10742	0.3995	0.10914	0.13462	0.40157	0.079711	0.24882	0.14326	0.16847	0.28472	0.067579	0.28912	0.073456	0.11424	-2.5667	-2.4375	-2.4833	-3.1146	-2.0917	-3.0167	-2.8125	-2.4104	-3.1458	-2.425	-2.6542	-2.9437	-2.1188	-2.7083	-2.7792	-2.1708	253.807	23.834	-41.613	229.387	213.832	274.460	222.022	11.895	256.280	46.023	238.972	58.994	118.632	-34.026	242.908	256.295	0.0001221	0.00028248	9.2031e-05	1114	6.4632e-07	2.352e-06	1202.6	229.6	1.7934e-06	3.6672e-06	291.84	83.587	66.536	19.762	2.1884e-06	27.007	0.00019985	0.00019586	5.3855e-05	1090.2	2.532e-06	1.9665e-06	1178.8	226.75	2.3683e-06	2.1965e-06	286.37	83.6	66.052	19.827	2.1355e-06	27.329	131.066	4.594	7.261	-62.934	72.186	74.052	-62.810	-55.701	69.380	95.890	-56.158	-49.328	-48.961	-41.477	93.457	-41.484	-8191	255	
2393.263	1	1	0	0	0.39956	0.17581	0.238	0.22564	0.091966	0.32449	0.33681	0.086195	0.18983	0.17932	0.028717	0.18689	0.12636	0.11192	0.089778	0.40384	-2.8333	-2.3333	-2.5354	-3.2313	-2.2083	-2.8937	-3.0292	-2.1375	-2.8917	-2.3604	-2.5	-3.0021	-2.2458	-2.9125	-2.825	-2.2479	-43.197	62.373	266.378	269.080	166.135	217.559	204.815	-61.653	97.107	-27.169	-8.832	209.386	285.264	151.815	37.015	173.920	8.465e-05	0.00032787	7.7649e-05	1120.9	1.6306e-06	3.5163e-06	1203.5	230.12	9.649e-07	3.4193e-06	288.62	83.62	65.754	19.843	1.6536e-06	27.342	0.0001862	0.00020617	5.6634e-05	1090.6	2.493e-06	2.0391e-06	1180.1	226.94	2.2298e-06	2.0295e-06	285.72	83.637	65.806	19.876	2.0312e-06	27.335	133.804	15.082	34.387	-62.877	94.686	63.893	-63.125	-55.126	50.227	83.657	-55.782	-49.138	-48.527	-40.910	104.772	-42.006	-8191	255	
2393.335	1	1	0	0	0.074295	0.21566	0.14422	0.10913	0.14801	0.080953	0.1249	0.1558	0.16871	0.2161	0.059268	0.11494	0.114	0.15806	0.22809	0.064724	-2.6771	-2.3667	-2.2687	-3.1688	-2.1854	-2.7	-3.0792	-2.2479	-3.0229	-2.5375	-2.3625	-3.0375	-2.4437	-2.7458	-2.8563	-2.1417	-49.532	15.139	-48.208	244.135	0.961	83.901	240.565	241.715	-24.622	-64.986	244.721	-65.827	189.157	269.228	78.606	136.175	8.1476e-05	0.00035589	9.7196e-05	1117.7	1.4102e-06	2.8925e-06	1204.6	229.27	1.3916e-06	2.1936e-06	291.14	83.18	66.219	19.863	2.7068e-06	27.088	0.00018867	0.00018695	6.0182e-05	1089.4	2.5232e-06	2.2432e-06	1182	226.85	2.2662e-06	2.2512e-06	286.28	83.536	65.951	19.882	2.149e-06	27.342	133.288	21.593	15.885	-62.832	64.105	90.819	-63.047	-55.408	78.620	100.448	-55.933	-49.348	-48.849	-41.146	59.512	-41.854	-8191	255	
2393.431	1	1	0	0	0.30008	0.14237	0.2011	0.12294	0.35214	0.1471	0.19372	0.11172	0.26364	0.19594	0.25163	0.095188	0.18591	0.045493	0.065421	0.23618	-2.4938	-2.6604	-2.2958	-3.1312	-2.2333	-2.5854	-3.0875	-2.0375	-2.9729	-2.5979	-2.2417	-2.9896	-2.3187	-2.5187	-2.8958	-2.0917	264.515	196.788	6.751	254.062	211.020	160.842	187.554	259.350	92.315	98.466	208.851	165.566	277.804	77.404	33.111	-64.101	8.2286e-05	0.00029483	8.7746e-05	1115.4	1.6392e-06	2.6474e-06	1210.9	231.31	1.1703e-06	2.2489e-06	291.82	83.678	66.321	19.864	2.5705e-06	27.168	0.00020152	0.00019202	5.4328e-05	1089.8	2.5653e-06	2.1466e-06	1181.7	227.26	2.2688e-06	1.9936e-06	286.23	83.56	66.114	19.885	2.0503e-06	27.387	136.494	2.671	33.759	-63.068	81.935	107.158	-62.883	-55.653	80.065	116.911	-55.768	-49.255	-48.800	-41.270	87.109	-42.368	-8191	255	
2393.552	1	1	0	0	0.091985	0.13499	0.052967	0.22219	0.14205	0.17904	0.15612	0.15644	0.20917	0.076775	0.054805	0.18869	0.17291	0.27055	0.19191	0.12246	-2.5604	-2.675	-2.4104	-3.2042	-2.4021	-2.4625	-3.1479	-2.2333	-2.7958	-2.6063	-2.2917	-3.0729	-2.4313	-2.4437	-2.925	-2.4208	-26.887	177.150	226.704	-40.278	235.042	26.150	264.131	101.201	193.637	85.174	158.441	223.120	250.304	238.979	16.749	201.794	6.9792e-05	0.00038644	6.2815e-05	1123	2.3223e-06	2.7184e-06	1208.5	230.15	7.6607e-07	2.0641e-06	290.94	83.651	65.893	19.786	3.2178e-06	27.009	0.00020979	0.00019586	5.7728e-05	1092.7	2.7283e-06	2.2348e-06	1182.9	226.92	2.3425e-06	2.1965e-06	285.81	83.733	65.915	19.849	2.0537e-06	27.198	135.759	10.549	33.826	-62.745	88.117	76.764	-62.802	-55.540	75.912	110.010	-56.136	-49.639	-49.257	-41.486	79.840	-42.203	-8191	255	
2393.646	1	1	0	0	0.098888	0.2418	0.25822	0.31578	0.3489	0.10973	0.17786	0.26688	0.261	0.1311	0.036419	0.11239	0.060339	0.043367	0.12931	0.2772	-2.4271	-2.9688	-2.2438	-3.0146	-2.6083	-2.3229	-3.3333	-2.2396	-2.5792	-3.0521	-2.2083	-2.9625	-2.7625	-2.3563	-2.9229	-2.3438	76.663	79.146	39.716	236.942	92.542	189.180	246.758	-54.853	60.223	1.825	20.388	-49.946	-45.005	203.627	-6.926	239.218	8.5129e-05	0.00030298	5.7606e-05	1120.4	2.4699e-06	2.822e-06	1204.9	229.04	2.0393e-06	1.8483e-06	289.45	83.828	65.963	19.934	2.1146e-06	27.146	0.00019914	0.00019229	5.486e-05	1092	2.5023e-06	2.2384e-06	1182.6	226.62	2.3167e-06	1.9505e-06	285.98	83.75	65.919	19.915	2.1692e-06	27.361	130.988	13.865	20.387	-63.035	98.222	102.843	-63.099	-55.809	63.179	51.452	-56.009	-49.850	-48.975	-41.362	76.324	-41.897	-8191	255	
2393.742	1	1	0	0	0.11533	0.069964	0.15212	0.19884	0.22213	0.17599	0.11461	0.12467	0.16064	0.091259	0.11387	0.079818	0.40469	0.06653	0.050729	0.093751	-2.2479	-2.8667	-2.1042	-3.0146	-2.8	-2.0938	-3.2729	-2.2854	-2.3667	-2.8729	-2.2625	-2.8125	-2.7792	-2.175	-3.0104	-2.3229	47.016	129.813	27.615	195.969	279.172	221.425	182.046	175.996	115.354	77.104	-42.866	77.041	199.640	172.668	50.480	275.918	9.731e-05	0.000276	8.4597e-05	1118.4	1.884e-06	4.3151e-06	1206.9	230.64	1.578e-06	2.0249e-06	290.04	83.74	65.836	20.033	1.3111e-06	27.142	0.00020021	0.00018615	5.8187e-05	1091.4	2.6179e-06	2.3897e-06	1183.7	227.24	2.3799e-06	1.9663e-06	286.1	83.733	65.785	19.936	2.1658e-06	27.27	140.839	17.963	14.245	-62.685	98.594	76.754	-62.735	-55.556	45.893	76.878	-55.725	-49.096	-48.860	-41.093	65.138	-41.444	-8191	255	
2393.838	1	1	0	0	0.079076	0.15279	0.12121	0.096597	0.31838	0.26601	0.02861	0.38271	0.16355	0.10264	0.20575	0.24987	0.11767	0.20752	0.11002	0.16371	-2.1625	-2.9542	-2.0938	-2.9854	-2.8146	-2.2521	-3.2729	-2.4625	-2.3542	-2.9458	-2.2562	-2.8458	-2.8375	-2.1521	-2.9292	-2.6042	-36.490	245.313	-43.954	210.194	25.057	233.992	-3.211	273.840	-19.676	100.205	-39.774	215.966	29.956	280.920	266.092	58.228	8.8661e-05	0.00037375	5.2782e-05	1120.9	1.5751e-06	3.0151e-06	1211.8	228.79	1.5906e-06	2.9348e-06	289.2	83.469	66.362	19.828	2.8079e-06	27.238	0.00020512	0.00018609	5.8201e-05	1091.8	2.3946e-06	2.3561e-06	1184.9	226.56	2.4742e-06	2.1121e-06	285.82	83.518	66.056	19.922	2.1366e-06	27.355	141.710	21.399	2.139	-62.915	99.514	89.143	-62.544	-55.591	45.191	88.709	-55.887	-49.035	-48.611	-40.641	77.872	-41.853	-8191	255	
2393.935	1	1	0	0	0.13705	0.23533	0.13363	0.12008	0.22056	0.15635	0.041737	0.17401	0.21778	0.23907	0.27332	0.14853	0.086212	0.059146	0.16993	0.1839	-1.8875	-3.0812	-2.1042	-2.5917	-2.8833	-2.0146	-2.9042	-2.7583	-2.1604	-2.9688	-2.0771	-2.3187	-2.9125	-2.1354	-2.8958	-2.6083	-48.780	171.513	229.568	-28.692	222.496	167.534	-33.711	52.377	269.727	-45.627	-47.199	-59.643	50.572	88.619	31.781	124.984	7.3123e-05	0.00027972	5.222e-05	1119.6	1.3233e-06	2.616e-06	1211.3	229.93	2.0818e-06	2.2214e-06	291.53	83.388	66.575	19.781	1.1933e-06	27.299	0.00020732	0.00016672	5.2125e-05	1090.8	2.4565e-06	2.4383e-06	1183	226.7	2.6053e-06	2.041e-06	286.07	83.706	66.076	19.828	2.3278e-06	27.342	123.783	17.505	18.330	-62.397	69.466	93.614	-62.814	-55.740	44.798	87.822	-55.962	-49.080	-48.803	-41.099	68.053	-42.187	-8191	255	
2394.031	1	1	0	0	0.13843	0.19666	0.044149	0.35487	0.09567	0.093494	0.092631	0.21455	0.34767	0.10456	0.23326	0.088228	0.15254	0.074733	0.19001	0.12825	-1.7188	-2.8438	-2.2687	-2.5333	-2.8688	-2.2375	-2.9229	-2.8396	-2.1917	-3.0417	-2.3042	-2.4771	-2.9854	-2.3104	-2.8542	-2.8958	-15.586	259.871	3.094	187.129	282.552	216.053	-33.694	166.677	214.576	251.984	82.864	-34.724	225.219	0.032	251.171	154.551	0.00010604	0.00034562	8.2208e-05	1121.7	1.5653e-06	3.4978e-06	1207.9	230.76	1.7192e-06	3.2306e-06	289.53	84.137	66.031	19.949	1.0318e-06	26.98	0.00020649	0.00018791	5.6546e-05	1092.3	2.3576e-06	2.3729e-06	1184.9	227.24	2.4642e-06	1.956e-06	285.94	83.887	65.86	19.874	2.1765e-06	27.306	136.655	20.601	30.142	-62.862	95.095	81.757	-62.796	-55.460	96.547	101.605	-56.141	-49.069	-49.078	-41.086	80.968	-42.122	-8191	255	
2394.127	1	1	0	0	0.11045	0.17899	0.22069	0.25469	0.26768	0.050298	0.42358	0.23837	0.22429	0.1519	0.22412	0.26077	0.22292	0.19277	0.15065	0.13916	-1.8	-2.8312	-2.4083	-2.5083	-2.8312	-2.2188	-2.8604	-2.7687	-2.1583	-2.8563	-2.6167	-2.3833	-3.0146	-2.2604	-2.6688	-2.9896	61.564	186.750	96.048	282.872	-46.286	71.789	255.629	275.487	218.609	42.519	-64.342	17.864	276.452	35.670	-48.054	-5.389	7.9872e-05	0.00030233	4.6147e-05	1121.5	1.9816e-06	2.759e-06	1210.1	229.64	1.4609e-06	3.2443e-06	287.68	83.594	66.487	19.812	2.4277e-06	27.25	0.00021053	0.00017729	5.2421e-05	1093.2	2.4524e-06	2.1814e-06	1185.4	226.9	2.4536e-06	2.0872e-06	285.36	83.735	66.036	19.833	2.3463e-06	27.308	136.684	16.188	23.378	-63.026	91.525	88.666	-63.175	-55.978	56.868	114.469	-56.408	-49.478	-49.105	-41.157	90.830	-42.387	-8191	255	
2394.223	1	1	0	0	0.18641	0.1655	0.10375	0.47203	0.064452	0.099604	0.22664	0.10973	0.20663	0.20348	0.16655	0.052112	0.13927	0.29649	0.039921	0.13114	-1.675	-2.7979	-2.7271	-2.6354	-3.0625	-2.3125	-2.7146	-2.8271	-2.0771	-2.8812	-2.7062	-2.2146	-3.0542	-2.1792	-2.4604	-2.9833	239.298	104.238	198.518	266.274	67.997	222.186	242.621	117.510	164.373	29.481	282.451	-26.667	286.170	274.337	273.423	18.743	8.2608e-05	0.00035212	6.3986e-05	1118.5	1.8302e-06	3.4786e-06	1209.9	229.16	1.2892e-06	3.0298e-06	290.06	83.535	66.256	19.827	2.5536e-06	27.008	0.00020265	0.00019634	5.6028e-05	1094.3	2.3228e-06	2.3225e-06	1184.5	226.82	2.4057e-06	2.1206e-06	285.89	83.679	65.923	19.856	2.4859e-06	27.255	120.765	8.885	20.635	-63.167	52.100	83.587	-62.889	-55.838	72.402	63.099	-55.717	-49.166	-48.813	-41.391	69.073	-41.838	-8191	255	
2394.344	1	1	0	0	0.42236	0.14841	0.065232	0.15812	0.3808	0.13218	0.28067	0.28887	0.14296	0.18474	0.026967	0.10091	0.112	0.2908	0.15742	0.18373	-1.7833	-2.9229	-2.5667	-2.1646	-3.0479	-2.3375	-2.6708	-2.8854	-2.1896	-2.9417	-2.9021	-2.1604	-3.0021	-2.4896	-2.4354	-2.925	33.212	14.826	187.331	239.654	234.381	-11.146	-53.189	192.083	137.543	269.125	285.316	203.585	150.819	281.561	5.139	145.380	8.0895e-05	0.00032198	7.2622e-05	1121.1	1.7246e-06	3.6054e-06	1209.3	229.59	1.0182e-06	2.3052e-06	288.5	83.84	65.809	19.628	2.3964e-06	26.989	0.00021127	0.00019069	5.6782e-05	1094.9	2.4149e-06	2.3567e-06	1184	227.03	2.5995e-06	2.2384e-06	285.72	83.624	65.965	19.83	2.4899e-06	27.291	130.670	22.750	27.374	-62.921	94.603	45.110	-62.888	-55.482	73.945	80.004	-55.950	-49.331	-48.651	-41.281	87.621	-41.716	-8191	255	
2394.440	1	1	0	0	0.15272	0.12195	0.078375	0.1397	0.30808	0.11467	0.33769	0.092573	0.12188	0.12418	0.15856	0.073579	0.15971	0.18814	0.10165	0.13003	-1.7479	-2.8667	-2.775	-2.2979	-3.0583	-2.5833	-2.4208	-3.3021	-2.2167	-2.6958	-2.8438	-2.0958	-2.9771	-2.5146	-2.4583	-3.125	122.212	239.921	28.768	209.196	17.866	60.944	193.881	110.530	87.224	-15.092	217.330	237.493	256.650	183.059	40.805	190.450	8.5658e-05	0.00034215	6.3067e-05	1119.1	1.4147e-06	3.3597e-06	1207.1	230.47	1.3326e-06	3.1616e-06	290.76	83.299	66.315	19.7	2.2554e-06	26.932	0.00021267	0.00020424	5.5215e-05	1093	2.4461e-06	2.3423e-06	1184.7	227.3	2.5737e-06	2.3265e-06	286.3	83.516	65.899	19.788	2.3233e-06	27.262	139.334	16.034	12.971	-62.810	88.370	86.424	-62.760	-55.664	31.893	73.556	-56.019	-49.393	-48.732	-41.307	81.128	-42.402	-8191	255	
2394.534	1	1	0	0	0.10621	0.10213	0.23741	0.23232	0.21895	0.15605	0.17085	0.041628	0.25826	0.11812	0.31088	0.1746	0.016327	0.1426	0.23529	0.25133	-1.9146	-2.7104	-2.8396	-2.3125	-3.0333	-2.6229	-2.4021	-3.1625	-2.2583	-2.4125	-2.8708	-2.2854	-2.8896	-2.7042	-2.1813	-2.8958	-12.339	-33.311	170.254	273.645	175.875	-42.030	247.711	164.570	223.945	18.969	278.067	153.515	153.605	-24.892	34.010	210.325	9.0652e-05	0.00036591	5.612e-05	1118.6	1.5955e-06	3.2295e-06	1207.9	230.43	6.3381e-07	4.1101e-06	289.51	83.796	66.361	19.96	2.1713e-06	27.129	0.00020601	0.000202	4.9479e-05	1093.2	2.5565e-06	2.137e-06	1184.7	227.42	2.3583e-06	2.2129e-06	285.95	83.77	66.13	19.875	2.2381e-06	27.379	147.406	24.593	15.406	-62.966	87.038	79.911	-62.562	-55.638	39.694	78.990	-55.525	-49.211	-48.464	-41.067	67.080	-41.910	-8191	255	
2394.632	1	1	0	0	0.1624	0.17602	0.32933	0.32785	0.19621	0.10202	0.22731	0.34209	0.21165	0.19866	0.095415	0.032311	0.13439	0.12066	0.42609	0.15393	-1.8375	-2.4792	-2.9104	-2.4229	-2.8688	-2.8333	-2.3812	-3.1146	-2.45	-2.3604	-3.0333	-2.2708	-2.9938	-2.8333	-2.1917	-2.9333	271.175	108.209	80.221	270.399	172.824	50.143	172.773	177.018	86.761	24.562	265.820	242.893	66.253	117.562	178.775	221.282	8.1076e-05	0.0002961	7.7135e-05	1116.8	2.408e-06	1.5764e-06	1212.2	229.1	1.8551e-06	2.7861e-06	289.53	83.801	66.045	19.888	2.3388e-06	27.081	0.00021743	0.00021903	5.3515e-05	1092.9	2.5055e-06	1.9869e-06	1186.2	227.08	2.4247e-06	2.2712e-06	286.11	83.786	66.025	19.936	2.5067e-06	27.361	130.431	8.851	14.728	-62.982	91.926	67.403	-62.824	-55.501	94.676	103.412	-56.178	-48.965	-48.236	-41.020	68.400	-42.054	-8191	255	
2394.726	1	1	0	0	0.030734	0.079644	0.098653	0.24332	0.2292	0.21204	0.22761	0.17163	0.21889	0.29904	0.11027	0.15405	0.10873	0.28859	0.11417	0.040485	-2.0979	-2.1167	-3.1104	-2.3417	-2.6562	-3.05	-2.1583	-2.9688	-2.5292	-2.3875	-3.2542	-2.2917	-2.5083	-2.9625	-2.1604	-2.9125	-40.455	63.703	67.699	209.062	-67.171	54.347	-60.601	156.790	149.067	-22.143	-61.954	58.350	226.811	168.587	4.700	-71.901	7.9449e-05	0.00021002	6.6274e-05	1123.5	1.7582e-06	3.1178e-06	1208.6	231.28	1.5122e-06	3.3886e-06	290.88	84.091	67.058	19.972	2.4122e-06	27.553	0.00019712	0.00019891	5.0263e-05	1094.8	2.481e-06	2.1124e-06	1185.3	227.84	2.4795e-06	2.1959e-06	286.79	83.885	66.428	20.02	2.2992e-06	27.537	142.008	30.372	36.742	-62.568	99.064	106.463	-62.684	-55.317	85.057	67.717	-55.829	-49.409	-48.629	-41.086	74.386	-41.609	-8191	255	
2394.823	1	1	0	0	0.36539	0.029491	0.23259	0.012522	0.19866	0.13199	0.27638	0.16223	0.045105	0.28392	0.15695	0.014498	0.22191	0.13423	0.18395	0.12912	-2.3167	-2.3271	-3.0125	-2.3208	-2.5187	-3.0875	-2.4562	-3.0042	-2.6646	-2.2042	-3.1396	-2.4437	-2.4458	-2.9917	-2.1354	-2.9125	204.742	115.063	-66.332	165.496	-29.762	157.014	186.168	169.048	173.499	231.128	151.833	120.925	259.615	-2.306	210.342	242.359	8.0888e-05	0.00017193	6.9287e-05	1123.1	8.6551e-07	3.9793e-06	1213.3	230.16	1.5625e-06	2.6714e-06	289.54	84.329	66.604	19.966	2.3135e-06	27.548	0.00020259	0.00020478	5.1091e-05	1096.5	2.3712e-06	2.1382e-06	1188.4	227.37	2.3188e-06	2.2178e-06	285.98	84.16	66.292	19.927	2.3228e-06	27.579	149.189	13.755	31.911	-62.838	134.156	60.135	-62.982	-55.942	50.677	73.539	-56.218	-49.936	-48.957	-41.911	86.273	-42.393	-8191	255	
2394.943	1	1	0	0	0.17268	0.071098	0.22384	0.1248	0.088612	0.10735	0.21787	0.070501	0.22006	0.13404	0.31537	0.19625	0.031184	0.13894	0.103	0.015977	-2.5104	-2.1854	-2.9896	-2.4667	-2.4854	-3.0583	-2.3292	-3.1	-2.9167	-2.2812	-3.1583	-2.5229	-2.4437	-3.15	-2.4083	-2.6729	234.714	-35.036	-6.827	23.660	5.238	5.704	131.080	53.908	158.224	249.378	242.641	228.390	-55.346	240.512	200.958	160.266	9.3773e-05	0.0002025	0.00010604	1127.9	1.327e-06	1.3477e-06	1213.1	231.3	1.4266e-06	3.8972e-06	291.92	83.893	66.832	19.91	1.9729e-06	27.165	0.00020399	0.00020408	5.2436e-05	1096.6	2.6575e-06	1.9629e-06	1187.4	227.95	2.2488e-06	2.1206e-06	287.04	83.912	66.368	19.957	2.0492e-06	27.439	130.678	34.698	17.170	-63.177	71.954	89.744	-62.931	-55.843	77.591	93.632	-56.023	-49.606	-48.741	-41.374	76.460	-42.182	-8191	255	
2395.039	1	1	0	0	0.12624	0.074461	0.30266	0.13985	0.28383	0.09738	0.36439	0.22031	0.13437	0.15466	0.2222	0.22723	0.088487	0.21931	0.017114	0.11364	-2.4917	-2.2958	-3.0854	-2.5438	-2.2542	-2.9646	-2.4562	-2.625	-2.9229	-2.2646	-3.0771	-2.625	-2.3479	-3.0417	-2.2604	-2.4542	183.488	-3.363	181.884	212.471	-35.448	231.829	279.057	261.905	46.627	1.588	-41.553	-49.159	245.532	234.054	265.523	140.329	9.6003e-05	0.00031899	7.6211e-05	1121.7	2.0868e-06	3.119e-06	1208	231.09	1.558e-06	2.5783e-06	292	83.816	66.306	19.868	2.2927e-06	27.311	0.00019486	0.00020312	5.248e-05	1093.4	2.418e-06	2.0139e-06	1184.1	227.82	2.1698e-06	2.2439e-06	286.78	83.898	66.159	19.931	2.2897e-06	27.398	145.633	12.025	24.685	-62.945	80.144	98.120	-63.137	-55.730	43.400	65.848	-55.944	-49.690	-48.488	-40.980	74.707	-41.911	-8191	255	
2395.136	1	1	0	0	0.21434	0.19928	0.19314	0.36129	0.13717	0.20932	0.25729	0.088006	0.33507	0.10252	0.22228	0.2156	0.022602	0.23304	0.17312	0.086475	-2.7125	-1.9875	-2.9958	-2.7104	-2.175	-3.0938	-2.7	-2.5625	-3.1667	-2.3063	-2.9771	-2.6417	-2.1958	-3.1146	-2.4938	-2.5146	45.130	215.538	-70.660	286.052	215.243	5.547	231.102	227.479	145.074	212.151	186.605	-65.188	256.238	201.378	208.519	261.462	9.8287e-05	0.00027222	8.3994e-05	1120	1.0126e-06	2.6881e-06	1207.4	231.08	1.1506e-06	2.762e-06	290.5	83.807	66.448	19.802	1.2538e-06	27.392	0.00018442	0.00018892	5.1386e-05	1092.9	2.5502e-06	1.9707e-06	1182.8	227.92	2.1893e-06	2.1904e-06	285.75	83.905	66.183	19.896	2.2252e-06	27.473	138.850	9.050	13.925	-62.901	84.574	90.144	-62.994	-55.603	69.662	79.416	-55.923	-49.014	-48.579	-41.418	80.616	-42.007	-8191	255	
2395.232	1	1	0	0	0.095552	0.26017	0.064271	0.382	0.12482	0.10823	0.35715	0.46128	0.34752	0.21249	0.12198	0.23101	0.22956	0.11699	0.11326	0.14067	-2.4938	-2.1542	-2.8479	-3.0042	-2.1271	-3.0021	-2.6729	-2.5687	-3.1125	-2.3063	-2.8125	-3.0187	-2.2375	-2.9333	-2.4188	-2.4292	154.062	102.635	35.646	253.795	31.477	35.349	231.657	236.655	-70.743	20.779	219.638	243.853	-49.393	259.634	97.356	144.921	9.1823e-05	0.00025688	7.4939e-05	1122.5	1.1843e-06	3.2652e-06	1206	230.84	1.0565e-06	2.5594e-06	290.76	83.271	65.874	19.809	2.159e-06	27.238	0.00019408	0.00020702	5.3308e-05	1092	2.6825e-06	1.9263e-06	1182.7	227.59	2.1092e-06	2.3083e-06	286.35	83.688	66.024	19.916	2.1305e-06	27.474	127.755	10.211	17.616	-62.856	96.697	84.888	-62.920	-55.559	40.809	105.769	-56.333	-49.490	-48.581	-41.674	74.341	-41.928	-8191	255	
2395.328	1	1	0	0	0.0086308	0.15097	0.21532	0.19924	0.32192	0.28073	0.15843	0.054521	0.0657	0.09523	0.21116	0.2295	0.39427	0.39971	0.18405	0.24351	-2.6167	-2.2313	-2.4667	-3.1188	-2.1958	-2.8979	-2.7458	-2.4104	-2.8833	-2.3667	-2.6042	-3.0417	-2.1083	-2.9167	-2.5958	-2.2667	105.162	217.888	70.781	238.011	62.930	278.536	73.760	-52.438	50.039	79.920	-8.108	283.796	-39.135	-28.334	184.348	228.152	8.3968e-05	0.00025965	8.9472e-05	1121.3	2.0922e-06	3.7291e-06	1212.6	230.5	1.0169e-06	2.9808e-06	291.08	84.381	66.423	20.017	1.9492e-06	27.33	0.00018421	0.00021028	5.6087e-05	1093.9	2.4846e-06	2.0259e-06	1185.3	227.48	2.2382e-06	2.3059e-06	286.74	84.052	66.089	19.984	2.098e-06	27.475	141.209	8.897	10.825	-62.873	87.320	59.584	-63.101	-55.912	36.821	97.222	-55.954	-49.534	-48.321	-41.395	90.243	-42.009	-8191	255	
2395.424	1	1	0	0	0.10381	0.1796	0.025621	0.21365	0.1091	0.25799	0.3008	0.14218	0.19914	0.13632	0.058012	0.10413	0.21885	0.21573	0.3425	0.14119	-2.7042	-2.3146	-2.5229	-3.1292	-2.1063	-2.7438	-2.6937	-2.3104	-3.0146	-2.55	-2.4688	-3.0417	-2.2729	-2.8187	-2.9083	-2.2917	122.217	-65.925	168.552	-62.384	61.519	278.628	180.119	207.889	199.271	54.712	-13.486	236.217	-66.935	177.186	153.123	-54.298	7.7028e-05	0.00026559	7.7819e-05	1120.7	1.8415e-06	1.6317e-06	1210.5	230.85	1.1691e-06	2.7857e-06	290.81	84.303	66.378	19.749	2.2452e-06	27.424	0.00019188	0.00019159	5.7876e-05	1092.6	2.469e-06	2.0986e-06	1185.5	227.81	2.2472e-06	2.1856e-06	286.29	83.975	66.128	19.908	2.1271e-06	27.495	125.310	9.126	20.911	-62.991	55.399	86.840	-62.910	-55.330	55.702	96.140	-56.249	-49.763	-49.432	-41.233	95.726	-42.181	-8191	255	
#DATA ENDS
