BOXY.EXE: ISS Imagent and Oximeter Data Acquisition Program Version 0.80
Ascii Record File

#ACQ INFORMATION
2  Detector Channels 
16  External MUX Channels 
1  Auxiliary Channels 
5000  Waveform (CCF) Frequency (Hz)
1  Waveforms Skipped 
30  Waveforms Averaged 
1  Cycles Averaged 
16  Acquisitions per Waveform 
10.0806  Updata Rate (Hz) 

#FILE INFORMATION
TRUE -- External MUX Channel results are PARSED.
FALSE -- AC DC and Phase are NOT grouped.
TRUE -- Companion Program Settings File CREATED.
FALSE -- AC data not excluded
FALSE -- DC data not excluded
FALSE -- Phase data not excluded
FALSE -- Auxillary Chn. data not excluded
Tab delimiters

#CALIBRATION STATE
TRUE -- Waveform Calibration Values APPLIED.


#AUX CALIBRATION VALUES
Val Type	aux-1	

Term	1.0000e+00	
Factor	0.0000e+00	


#WF CALIBRATION VALUES
A = Detector Channel
Val Type	A-AC1	A-AC2	A-AC3	A-AC4	A-AC5	A-AC6	A-AC7	A-AC8	A-AC9	A-AC10	A-AC11	A-AC12	A-AC13	A-AC14	A-AC15	A-AC16	A-DC1	A-DC2	A-DC3	A-DC4	A-DC5	A-DC6	A-DC7	A-DC8	A-DC9	A-DC10	A-DC11	A-DC12	A-DC13	A-DC14	A-DC15	A-DC16	A-Ph1	A-Ph2	A-Ph3	A-Ph4	A-Ph5	A-Ph6	A-Ph7	A-Ph8	A-Ph9	A-Ph10	A-Ph11	A-Ph12	A-Ph13	A-Ph14	A-Ph15	A-Ph16	

Term	0.00000e+00	0.00000e+00	0.00000e+00	0.00000e+00	0.00000e+00	0.00000e+00	0.00000e+00	0.00000e+00	0.00000e+00	0.00000e+00	0.00000e+00	0.00000e+00	0.00000e+00	0.00000e+00	0.00000e+00	0.00000e+00	0.00000e+00	0.00000e+00	0.00000e+00	0.00000e+00	0.00000e+00	0.00000e+00	0.00000e+00	0.00000e+00	0.00000e+00	0.00000e+00	0.00000e+00	0.00000e+00	0.00000e+00	0.00000e+00	0.00000e+00	0.00000e+00	0.00000e+00	0.00000e+00	0.00000e+00	0.00000e+00	0.00000e+00	0.00000e+00	0.00000e+00	0.00000e+00	0.00000e+00	0.00000e+00	0.00000e+00	0.00000e+00	0.00000e+00	0.00000e+00	0.00000e+00	0.00000e+00	
Factor	1.00000e+00	1.00000e+00	1.00000e+00	1.00000e+00	1.00000e+00	1.00000e+00	1.00000e+00	1.00000e+00	1.00000e+00	1.00000e+00	1.00000e+00	1.00000e+00	1.00000e+00	1.00000e+00	1.00000e+00	1.00000e+00	1.00000e+00	1.00000e+00	1.00000e+00	1.00000e+00	1.00000e+00	1.00000e+00	1.00000e+00	1.00000e+00	1.00000e+00	1.00000e+00	1.00000e+00	1.00000e+00	1.00000e+00	1.00000e+00	1.00000e+00	1.00000e+00	X	X	X	X	X	X	X	X	X	X	X	X	X	X	X	X	

B = Detector Channel
Val Type	B-AC1	B-AC2	B-AC3	B-AC4	B-AC5	B-AC6	B-AC7	B-AC8	B-AC9	B-AC10	B-AC11	B-AC12	B-AC13	B-AC14	B-AC15	B-AC16	B-DC1	B-DC2	B-DC3	B-DC4	B-DC5	B-DC6	B-DC7	B-DC8	B-DC9	B-DC10	B-DC11	B-DC12	B-DC13	B-DC14	B-DC15	B-DC16	B-Ph1	B-Ph2	B-Ph3	B-Ph4	B-Ph5	B-Ph6	B-Ph7	B-Ph8	B-Ph9	B-Ph10	B-Ph11	B-Ph12	B-Ph13	B-Ph14	B-Ph15	B-Ph16	

Term	0.00000e+00	0.00000e+00	0.00000e+00	0.00000e+00	0.00000e+00	0.00000e+00	0.00000e+00	0.00000e+00	0.00000e+00	0.00000e+00	0.00000e+00	0.00000e+00	0.00000e+00	0.00000e+00	0.00000e+00	0.00000e+00	0.00000e+00	0.00000e+00	0.00000e+00	0.00000e+00	0.00000e+00	0.00000e+00	0.00000e+00	0.00000e+00	0.00000e+00	0.00000e+00	0.00000e+00	0.00000e+00	0.00000e+00	0.00000e+00	0.00000e+00	0.00000e+00	-4.24325e+01	-1.27480e+02	-1.29113e+02	-1.83247e+02	-3.31036e+01	-6.42020e+01	-1.56812e+02	-1.62015e+02	-3.27297e+01	-6.89849e+01	-1.75831e+02	-1.71950e+02	-1.80238e+02	-1.77035e+02	-4.28051e+01	-1.49655e+02	
Factor	2.34302e-05	1.84395e-04	5.28880e-05	1.78417e-01	1.82338e-06	2.35056e-06	2.06794e-01	6.19505e-02	1.44642e-06	2.13698e-06	1.21363e-01	3.46114e-02	3.06045e-02	1.06869e-02	2.17603e-06	1.56232e-02	5.23884e-06	6.25852e-06	1.74260e-06	8.57108e-02	6.65713e-08	6.86765e-08	9.29982e-02	2.98139e-02	6.64213e-08	6.86137e-08	5.63353e-02	1.61712e-02	1.48215e-02	5.17988e-03	6.74619e-08	7.31005e-03	X	X	X	X	X	X	X	X	X	X	X	X	X	X	X	X	



#DISTANCE SETTINGS
A = Detector Channel
A-1	A-2	A-3	A-4	A-5	A-6	A-7	A-8	A-9	A-10	A-11	A-12	A-13	A-14	A-15	A-16	

2.5000e+00	3.0000e+00	2.5000e+00	3.0000e+00	2.0000e+00	3.0000e+00	1.5000e+00	3.0000e+00	3.0000e+00	3.0000e+00	3.0000e+00	3.0000e+00	3.0000e+00	3.0000e+00	1.5000e+00	3.0000e+00	

B = Detector Channel
B-1	B-2	B-3	B-4	B-5	B-6	B-7	B-8	B-9	B-10	B-11	B-12	B-13	B-14	B-15	B-16	

1.0000e+01	1.0000e+01	1.0000e+01	1.4400e+00	1.0000e+01	1.0000e+01	1.5100e+00	1.9400e+00	1.0000e+01	1.0000e+01	1.9900e+00	2.4900e+00	2.4100e+00	2.9000e+00	1.0000e+01	2.9800e+00	




#DATA BEGINS
time	group	step	mark	flag	A-AC1	A-AC2	A-AC3	A-AC4	A-AC5	A-AC6	A-AC7	A-AC8	A-AC9	A-AC10	A-AC11	A-AC12	A-AC13	A-AC14	A-AC15	A-AC16	A-DC1	A-DC2	A-DC3	A-DC4	A-DC5	A-DC6	A-DC7	A-DC8	A-DC9	A-DC10	A-DC11	A-DC12	A-DC13	A-DC14	A-DC15	A-DC16	A-Ph1	A-Ph2	A-Ph3	A-Ph4	A-Ph5	A-Ph6	A-Ph7	A-Ph8	A-Ph9	A-Ph10	A-Ph11	A-Ph12	A-Ph13	A-Ph14	A-Ph15	A-Ph16	B-AC1	B-AC2	B-AC3	B-AC4	B-AC5	B-AC6	B-AC7	B-AC8	B-AC9	B-AC10	B-AC11	B-AC12	B-AC13	B-AC14	B-AC15	B-AC16	B-DC1	B-DC2	B-DC3	B-DC4	B-DC5	B-DC6	B-DC7	B-DC8	B-DC9	B-DC10	B-DC11	B-DC12	B-DC13	B-DC14	B-DC15	B-DC16	B-Ph1	B-Ph2	B-Ph3	B-Ph4	B-Ph5	B-Ph6	B-Ph7	B-Ph8	B-Ph9	B-Ph10	B-Ph11	B-Ph12	B-Ph13	B-Ph14	B-Ph15	B-Ph16	aux-1	digaux	

1269.802	1	1	0	512	0.12189	0.2152	0.061752	0.032783	0.087917	0.12804	0.090381	0.11554	0.093879	0.15731	0.18715	0.19421	0.19823	0.26311	0.14644	0.30419	-2.8875	-3.1979	-2.9083	-3.3646	-3.0604	-2.9875	-3.4542	-3.1667	-3.1896	-3.0896	-2.9917	-3.3771	-3.0854	-3.0542	-3.3438	-3.2083	98.548	-12.764	-26.987	287.470	31.371	25.217	263.653	323.597	307.700	-18.500	-7.102	318.683	215.764	97.774	200.594	275.474	0.00022222	0.0004044	5.127e-05	350.62	3.8682e-06	1.3873e-06	482.39	124.07	2.7953e-06	3.4365e-06	196.95	81.496	49.527	28.792	3.2034e-06	48.366	0.00022967	0.00020382	5.9027e-05	337.56	2.2116e-06	2.226e-06	462.08	120.03	2.2756e-06	2.2272e-06	188.79	78.841	48.439	28.252	2.2529e-06	46.655	233.038	58.288	90.221	-16.103	155.837	131.642	-17.275	-10.212	137.642	128.247	-13.214	-8.011	-4.586	1.300	224.844	-3.836	-8191	255	
1269.898	1	1	0	0	0.22374	0.052729	0.051787	0.089672	0.29578	0.11397	0.19561	0.093713	0.379	0.12361	0.068448	0.069327	0.053346	0.19305	0.08464	0.12211	-2.7167	-2.9521	-2.7583	-3.2125	-3.2625	-3.05	-3.0625	-2.9562	-3.0792	-3.4792	-3.0958	-3.3833	-3.1208	-2.9354	-3.2604	-3.0417	16.819	69.305	45.761	253.262	164.261	280.631	219.447	100.252	286.164	326.141	279.177	241.934	161.208	300.722	145.890	285.037	0.00021222	0.00025304	9.818e-05	349.5	3.1935e-06	5.0145e-06	481.9	122.46	3.2111e-06	3.9916e-06	193.88	80.28	48.811	28.085	5.7659e-06	47.805	0.00022755	0.00020349	5.776e-05	335.79	2.2551e-06	2.265e-06	462.17	118.21	2.2074e-06	2.2269e-06	186.59	77.788	47.533	27.575	2.2995e-06	46.122	238.649	-14.266	77.556	-16.236	158.993	108.146	-17.476	-9.969	179.264	113.570	-13.660	-7.793	-4.132	0.842	139.361	-4.131	-8191	255	
1269.994	1	1	0	0	0.21262	0.06894	0.072491	0.05044	0.27006	0.31632	0.40407	0.056052	0.10639	0.25014	0.081452	0.15341	0.25828	0.16744	0.08117	0.13469	-2.7896	-3.2125	-2.9521	-3.15	-2.9667	-2.9479	-3.4229	-3.05	-3.125	-3.1417	-2.925	-3.2292	-3.3083	-3.0896	-3.1937	-2.9813	-3.369	324.037	229.679	176.785	169.730	132.632	243.844	24.516	55.720	326.391	-0.986	296.613	-23.930	-13.271	314.553	267.121	0.00020422	0.00028765	5.1627e-05	352.24	3.0959e-06	6.6032e-06	485.19	123.33	2.7228e-06	2.681e-06	197.42	82.958	50.13	29.27	4.0986e-06	48.895	0.00022286	0.00020344	5.7364e-05	336.42	2.1736e-06	2.2629e-06	462.93	119.62	2.2777e-06	2.2605e-06	190	80.105	49.197	28.634	2.3076e-06	47.278	233.108	97.850	144.049	-15.800	108.203	137.210	-17.711	-9.886	178.404	125.214	-13.637	-7.814	-4.589	0.757	174.459	-3.951	-8191	255	
1270.113	1	1	0	0	0.27075	0.13179	0.26476	0.11423	0.057165	0.15732	0.060266	0.13408	0.16404	0.19251	0.28356	0.13077	0.27515	0.1295	0.29075	0.037067	-2.6771	-3.3812	-2.9313	-2.8438	-2.9542	-2.8917	-3.1937	-3.0062	-3.2	-3.3333	-2.8875	-2.9875	-3.1667	-2.95	-3.325	-3.3312	232.565	145.589	73.441	227.436	146.986	243.101	304.344	19.328	214.744	264.527	230.231	65.803	201.785	-9.154	254.038	31.358	0.00019847	0.00033743	4.6789e-05	356.02	3.0144e-06	4.4905e-06	491.36	127.9	1.7451e-06	3.7638e-06	202.95	84.925	51.514	29.788	3.8968e-06	49.677	0.00023545	0.00021392	5.9176e-05	339.97	2.3243e-06	2.2536e-06	469.12	123.26	2.3106e-06	2.2444e-06	194.74	82.036	50.448	29.27	2.2397e-06	48.079	233.177	67.224	110.642	-15.843	146.922	99.688	-17.384	-9.908	163.256	108.413	-13.703	-7.928	-4.236	1.149	157.722	-3.914	-8191	255	
1270.209	1	1	0	0	0.20679	0.19773	0.21631	0.15693	0.21372	0.091154	0.16502	0.26854	0.049374	0.11932	0.08719	0.21796	0.041234	0.24548	0.25772	0.23713	-2.5875	-3.275	-2.9875	-3.0646	-3.0771	-2.9688	-3.4188	-2.9396	-2.7417	-3.2833	-3.1792	-3.0479	-3.1688	-2.9604	-3.1875	-3.2	233.583	11.227	106.738	57.696	269.333	142.798	90.307	215.368	240.567	307.118	136.375	10.794	136.479	273.955	176.498	326.335	0.00021687	0.00045687	0.00012247	353.6	3.3554e-06	3.4963e-06	484.37	125.82	9.7984e-07	2.2328e-06	200.05	83.004	50.879	29.45	4.3992e-06	49.27	0.00022653	0.00020937	5.6554e-05	339.01	2.2268e-06	2.2884e-06	465.45	121.73	2.238e-06	2.1456e-06	191.85	80.482	49.593	28.866	2.2319e-06	47.463	232.062	95.310	72.348	-15.730	166.383	131.787	-17.373	-10.020	182.828	131.773	-13.581	-7.751	-4.617	0.650	182.252	-4.166	-8191	255	
1270.283	1	1	0	0	0.16998	0.19385	0.33142	0.10862	0.15122	0.19391	0.33489	0.1234	0.24709	0.10827	0.31873	0.062119	0.16969	0.14614	0.16602	0.074894	-2.4938	-3.1104	-2.9333	-3.0938	-3.4125	-2.9146	-3.0687	-3.2792	-3	-3.2958	-2.9979	-2.9688	-3.2292	-3	-3.0875	-3.1312	101.493	299.344	15.319	251.889	299.419	-0.862	282.264	54.432	30.789	123.761	137.205	147.620	60.055	309.243	131.265	194.550	0.00023257	0.00034109	8.9056e-05	351.17	2.359e-06	4.2256e-06	486.46	125.62	2.098e-06	8.9367e-07	197.68	82.019	49.878	28.763	5.9957e-06	47.692	0.00023047	0.00020524	5.8076e-05	338.73	2.2525e-06	2.2469e-06	465.9	121.65	2.2854e-06	2.2258e-06	189.9	79.338	48.677	28.153	2.413e-06	46.166	224.114	46.092	67.547	-15.891	127.348	158.269	-17.309	-9.933	142.248	125.718	-13.469	-7.747	-4.308	0.869	135.075	-4.097	-8191	255	
1270.379	1	1	0	0	0.010198	0.13459	0.059577	0.093651	0.087295	0.21152	0.17297	0.14718	0.15264	0.24641	0.16334	0.20747	0.055285	0.11304	0.21334	0.26101	-2.4813	-3.2604	-3.175	-3.0667	-3.3187	-2.9333	-3.05	-3.2792	-2.9625	-3.2646	-3.025	-2.8792	-3.35	-2.9917	-2.9771	-3.1125	186.805	108.707	105.675	132.365	247.627	60.885	-12.925	158.559	260.559	73.270	84.852	220.749	93.749	77.679	210.504	245.594	0.00022271	0.00027375	8.0324e-05	352.55	3.8926e-06	4.7499e-06	489.14	121.7	2.2881e-06	4.5385e-06	193.18	80.234	48.535	27.886	3.6261e-06	47.304	0.00023186	0.00020572	5.9927e-05	337.53	2.2586e-06	2.2924e-06	465.09	117.89	2.3199e-06	2.292e-06	186.12	77.834	47.49	27.456	2.2815e-06	45.508	221.216	55.062	17.324	-15.573	142.373	131.972	-17.570	-9.733	160.212	88.988	-13.064	-7.671	-4.121	1.071	155.462	-3.894	-8191	255	
1270.498	1	1	0	0	0.13408	0.069308	0.13852	0.29597	0.14725	0.16589	0.16292	0.1546	0.28805	0.18737	0.2448	0.21562	0.27973	0.29644	0.072616	0.15791	-2.6042	-3.3	-2.9396	-3.0458	-3.3708	-3.0958	-3.0896	-3.4021	-2.9583	-3.1896	-3.2938	-2.8208	-3.3667	-3.3396	-2.8917	-3.2208	-13.968	279.373	-11.567	327.304	219.545	75.052	198.331	134.793	42.488	-1.142	11.284	146.029	43.601	44.299	-10.043	5.125	0.0002237	0.00022277	0.00010746	351.79	2.5266e-06	3.4072e-06	486.9	120.99	2.6772e-06	3.9468e-06	193.84	80.435	48.54	28.118	4.4995e-06	47.671	0.00022941	0.00020527	5.8519e-05	336.28	2.2859e-06	2.2822e-06	465.28	117.1	2.3725e-06	2.2878e-06	186.42	77.878	47.666	27.624	2.4726e-06	46.071	232.925	91.252	52.721	-15.848	206.406	166.514	-17.219	-9.911	143.142	157.034	-13.627	-7.945	-4.376	0.702	135.181	-3.799	-8191	255	
1270.594	1	1	0	0	0.22498	0.13162	0.38984	0.019756	0.17168	0.11552	0.20757	0.047424	0.2147	0.085921	0.1774	0.26745	0.058249	0.24416	0.1417	0.26438	-2.6583	-3.1604	-2.9688	-3.1083	-3.1292	-3.0167	-2.9125	-3.4688	-3.1271	-3.0104	-3.1562	-3.0604	-3.0396	-2.9521	-2.9646	-3.3979	268.211	142.177	53.268	77.427	266.089	52.807	289.788	240.965	34.995	130.998	48.659	274.944	221.884	316.476	-16.775	307.499	0.00019971	0.00024006	8.6643e-05	352.02	3.5697e-06	3.1137e-06	487.87	121.87	3.3562e-06	1.3772e-06	194.77	81.006	48.842	28.209	4.6588e-06	47.703	0.00022909	0.00020677	5.6932e-05	336.61	2.2716e-06	2.2743e-06	465.55	118.28	2.2271e-06	2.3246e-06	187.94	78.353	47.797	27.688	2.3915e-06	46.023	236.289	4.710	71.708	-15.989	198.910	125.439	-17.157	-9.834	182.020	138.013	-13.203	-7.407	-4.468	0.831	181.507	-4.157	-8191	255	
1270.690	1	1	0	0	0.099653	0.2164	0.0096456	0.18812	0.17006	0.093935	0.2762	0.1712	0.15119	0.20231	0.14412	0.36663	0.13971	0.42533	0.36465	0.06135	-2.2042	-3	-3.1979	-2.8688	-3.2583	-3.0104	-2.8208	-3.2146	-3.0979	-3.1083	-3.0667	-2.9958	-3.2458	-3.1	-2.9	-3.3771	144.790	74.209	216.916	92.255	11.208	156.887	231.307	52.033	167.207	139.911	310.090	291.764	82.535	-19.173	143.985	153.441	0.00021518	0.00027597	1.8369e-05	351.84	2.5635e-06	2.2526e-06	483.97	121.82	1.0254e-06	4.0059e-06	193.09	79.933	48.234	28.036	3.6456e-06	46.642	0.0002383	0.00021598	5.9775e-05	337.9	2.2211e-06	2.3339e-06	463.33	118.25	2.2976e-06	2.2948e-06	186.5	77.426	47.416	27.474	2.3603e-06	45.163	230.204	303.896	143.968	-16.168	185.984	163.970	-17.652	-9.755	149.006	111.249	-13.499	-7.541	-4.511	0.952	176.188	-4.170	-8191	255	
1270.811	1	1	0	0	0.1518	0.01721	0.1351	0.076615	0.24127	0.12822	0.21441	0.33945	0.29842	0.26298	0.20169	0.11016	0.024177	0.091677	0.20296	0.067413	-2.8896	-2.95	-3.05	-2.9604	-3.2479	-3.3688	-3	-3.2667	-3.0542	-3.0938	-3.3896	-2.8396	-2.9854	-3.2229	-3.1771	-3.3229	168.981	192.740	-12.140	126.582	78.045	94.032	178.246	232.295	96.007	121.442	179.021	313.625	56.249	201.060	107.654	53.974	0.0001968	0.00019156	8.5681e-05	349.24	3.2684e-06	2.5655e-06	483.11	121.48	7.8899e-07	2.6404e-06	194.73	80.087	48.717	28.308	3.4896e-06	47.845	0.00023049	0.00022016	5.9974e-05	336.39	2.2525e-06	2.3616e-06	462.33	117.83	2.2657e-06	2.2424e-06	186.86	77.97	47.853	27.833	2.2808e-06	46.193	237.176	90.179	85.750	-15.604	164.698	131.496	-17.674	-9.910	119.427	151.114	-13.299	-7.595	-4.291	0.765	170.165	-4.070	-8191	255	
1270.907	1	1	0	0	0.23841	0.29176	0.2726	0.084352	0.28151	0.1408	0.19091	0.12056	0.059123	0.11292	0.18428	0.23726	0.093652	0.17657	0.11157	0.18836	-2.6312	-3.0062	-3.3896	-2.8292	-3.15	-3.125	-3.1521	-3.1625	-2.9938	-2.8792	-3.5187	-2.9333	-3.0771	-3.0458	-2.7812	-3.3833	223.652	90.145	305.346	276.371	-15.464	43.179	288.121	284.623	273.369	232.602	324.215	182.941	133.666	310.028	198.200	-17.320	0.00021341	0.00027489	0.00010979	352.92	2.9476e-06	3.4682e-06	483.73	123.73	1.1547e-06	2.5466e-06	198.38	82.888	50.849	29.58	3.5717e-06	49.36	0.00022802	0.00021377	5.6725e-05	337.35	2.2901e-06	2.2373e-06	465.02	120.58	2.2796e-06	2.2477e-06	190.89	80.42	49.907	28.995	2.2736e-06	47.628	221.542	24.061	38.315	-15.662	156.314	73.439	-17.542	-10.116	160.406	145.263	-13.311	-7.926	-4.007	0.773	157.785	-4.098	-8191	255	
1270.978	1	1	0	0	0.048819	0.0034587	0.22455	0.10161	0.18207	0.1781	0.038938	0.18128	0.23095	0.063638	0.19287	0.13755	0.04239	0.057405	0.094478	0.17373	-2.6562	-2.7792	-3.1208	-2.9896	-2.8417	-3.2271	-2.9583	-3.3	-3.2417	-2.825	-3.2292	-3.0375	-3.025	-3.3604	-2.8083	-3.1188	284.582	28.031	120.264	70.553	132.791	294.088	135.511	220.322	222.533	54.382	308.798	96.487	191.715	3.465	-10.816	250.797	0.00022221	0.00037148	9.2924e-05	354.42	5.0072e-06	4.4555e-06	490.12	125.16	2.5244e-06	3.6904e-06	198.31	82.329	50.592	29.032	3.6961e-06	48.459	0.00023403	0.00021485	5.8972e-05	339.92	2.2496e-06	2.2494e-06	467.39	121.61	2.3474e-06	2.3983e-06	190.53	79.686	49.455	28.523	2.3565e-06	46.802	230.614	73.838	47.678	-15.846	158.254	179.685	-17.318	-9.746	176.766	133.287	-13.578	-7.737	-3.852	0.676	172.789	-4.200	-8191	255	
1271.099	1	1	0	0	0.35304	0.19594	0.20344	0.17077	0.12303	0.30431	0.10966	0.14727	0.16681	0.23664	0.11866	0.30195	0.1526	0.14842	0.20988	0.17008	-2.7729	-2.8042	-3.2271	-3.0312	-2.7792	-3.1917	-2.95	-3.2	-3.3375	-2.7958	-3.1854	-3.1875	-2.9792	-3.0667	-2.9021	-3.2458	31.604	309.574	275.015	14.295	3.079	56.491	142.703	289.718	104.355	56.086	108.516	321.932	331.777	309.849	129.019	267.147	0.00017958	0.00041593	0.00011904	351.47	2.6082e-06	2.8851e-06	486.18	125.66	3.2918e-06	3.1951e-06	197.5	82.064	49.899	29.054	2.1879e-06	47.954	0.00023291	0.0002193	5.8395e-05	338.35	2.2828e-06	2.338e-06	465.73	121.32	2.3259e-06	2.3373e-06	189.38	79.54	48.907	28.418	2.3017e-06	46.379	233.903	64.244	66.052	-15.656	165.910	83.829	-17.401	-9.825	200.532	82.779	-13.494	-7.819	-4.661	1.001	139.284	-4.079	-8191	255	
1271.195	1	1	0	0	0.1036	0.22573	0.14103	0.065885	0.046183	0.053478	0.2111	0.17504	0.080398	0.048997	0.12471	0.18211	0.18235	0.10908	0.19891	0.24785	-2.9146	-2.8063	-3.1	-2.8896	-3.0104	-3.2583	-3.1583	-3	-3.1708	-2.9562	-3.1229	-3.025	-2.9437	-3.1604	-2.9188	-3.1875	324.389	82.036	107.748	161.099	268.299	111.850	12.482	178.779	283.947	324.269	-23.229	4.172	138.790	198.755	15.813	319.210	0.00024134	0.00038853	8.1409e-05	351.02	1.447e-06	5.6091e-06	483.58	118.33	1.5826e-06	1.3097e-06	191.13	78.552	47.396	27.267	5.1261e-06	46.352	0.00022739	0.00021653	5.7604e-05	336.12	2.2798e-06	2.3064e-06	462.88	115.53	2.2874e-06	2.373e-06	183.48	76.301	46.315	26.798	2.2553e-06	44.805	229.831	82.788	64.916	-15.727	199.198	152.664	-17.139	-9.967	129.397	61.696	-13.299	-7.606	-4.018	0.896	144.534	-4.122	-8191	255	
1271.290	1	1	0	0	0.41015	0.21251	0.17726	0.076356	0.11115	0.11746	0.10652	0.028799	0.071429	0.21262	0.22984	0.064307	0.10899	0.22123	0.09507	0.054242	-2.7583	-3.05	-3.2313	-3.2292	-2.8021	-3.0792	-3.1417	-3.0354	-3.2188	-2.8958	-3.1583	-3.1104	-2.9167	-3.3083	-3.1312	-3.1125	-19.566	150.051	116.822	130.859	290.050	295.492	175.572	64.547	41.117	107.405	-19.011	131.627	194.480	27.057	281.203	-16.243	0.00021088	0.00018496	4.0174e-05	347.95	2.6216e-06	1.3372e-06	484.52	120.59	2.1905e-06	4.0411e-06	193.32	80.54	48.196	28.023	4.1099e-06	47.803	0.00022257	0.00020503	5.4786e-05	333.11	2.2512e-06	2.2446e-06	462.71	116.61	2.268e-06	2.2494e-06	186.55	78.05	47.362	27.519	2.23e-06	46.16	226.562	85.589	83.742	-15.969	104.437	3.040	-17.256	-9.863	149.404	104.820	-13.753	-7.732	-3.815	0.921	140.792	-4.081	-8191	255	
1271.410	1	1	0	0	0.25753	0.13155	0.063555	0.070194	0.22281	0.10041	0.17167	0.19294	0.074548	0.21014	0.13391	0.20247	0.19595	0.30105	0.098353	0.12243	-2.8563	-2.8333	-3.0146	-3.3229	-2.9417	-3.0917	-2.95	-3.0979	-3.1958	-3.1	-3.2146	-3.1208	-2.9646	-3.2542	-3.0812	-3.05	64.303	202.332	103.758	105.945	317.077	293.770	258.944	270.936	190.800	149.558	32.590	307.863	118.489	76.239	315.916	122.876	0.00020933	0.00039824	8.1177e-05	349.98	2.049e-06	4.076e-06	488.77	121.84	1.7838e-06	4.9031e-06	194.61	81.207	48.437	27.771	3.9219e-06	47.001	0.00022799	0.00020398	5.7869e-05	335.24	2.2464e-06	2.2519e-06	465.79	118.15	2.1818e-06	2.2462e-06	187.91	78.762	47.384	27.274	2.2581e-06	45.493	232.919	86.723	75.108	-15.602	162.777	95.914	-17.247	-9.979	215.213	107.991	-13.244	-7.606	-4.067	0.924	154.926	-3.804	-8191	255	
1271.506	1	1	0	0	0.11624	0.082159	0.084799	0.22198	0.23521	0.18536	0.099685	0.15335	0.10299	0.22087	0.054008	0.078552	0.13512	0.23074	0.20427	0.27671	-2.8208	-2.8563	-2.9646	-3.2729	-2.7854	-3.4	-3.2625	-2.9542	-3.2313	-2.9417	-3.3083	-3.5125	-2.9417	-3.1708	-3.1417	-3.1167	-16.936	211.216	170.316	253.452	2.481	133.949	207.919	-13.360	160.326	121.921	107.450	318.130	9.723	266.327	308.922	274.606	0.00020874	0.00025043	7.5418e-05	347.49	5.0995e-06	2.6254e-06	487.26	118.74	2.748e-06	4.1167e-06	193.56	79.585	47.741	27.127	5.9158e-06	46.426	0.00022025	0.00020585	5.6943e-05	333.7	2.238e-06	2.2151e-06	463.76	115.1	2.2129e-06	2.2292e-06	185.34	77.202	46.509	26.644	2.3419e-06	44.836	229.366	57.657	82.252	-15.833	174.879	116.862	-17.586	-9.965	162.913	100.000	-13.406	-7.903	-4.224	1.072	169.493	-3.763	-8191	255	
1271.578	1	1	0	0	0.094165	0.13416	0.21688	0.21895	0.19479	0.14175	0.11135	0.26172	0.14594	0.13811	0.13289	0.28676	0.16246	0.14853	0.050038	0.23864	-2.9042	-3.0854	-3.1333	-3.4042	-2.7062	-3.0875	-3.2479	-2.9375	-3.1396	-3.0062	-2.7604	-2.8896	-2.8542	-3.2771	-3.3458	-2.8438	229.573	92.667	155.534	86.531	53.845	25.315	290.457	242.354	250.954	76.142	192.461	300.777	280.712	115.025	254.619	288.757	0.00020198	0.00045425	0.00010371	348.07	3.0771e-06	1.161e-06	483.17	118.32	3.3965e-06	1.6281e-06	190.36	77.947	46.431	26.782	3.577e-06	45.308	0.00022494	0.00020802	5.7473e-05	333.76	2.2638e-06	2.257e-06	462.98	114.5	2.3754e-06	2.2817e-06	183.04	75.439	45.574	26.232	2.337e-06	43.878	232.145	51.870	69.226	-16.119	176.931	244.247	-17.445	-9.884	180.475	153.909	-13.399	-7.665	-4.270	1.022	154.976	-4.035	-8191	255	
1271.674	1	1	0	0	0.065395	0.10749	0.13114	0.20461	0.11838	0.021687	0.19669	0.14323	0.10689	0.12515	0.098248	0.043428	0.18955	0.13421	0.15544	0.21294	-2.8563	-2.8896	-3.0229	-3.2458	-2.8521	-3.1958	-3.2125	-2.6583	-3.1104	-3.1979	-2.8646	-3.2583	-3.0708	-3.1833	-3.1208	-3.0104	285.252	-7.829	110.862	301.525	297.124	63.627	278.511	290.329	-24.288	286.451	143.269	45.433	239.880	15.671	310.223	23.657	0.00021167	0.00014819	9.1803e-05	344.81	1.6877e-06	6.3637e-06	483.56	116.61	2.2018e-06	3.4803e-06	188.85	77.234	46.404	26.388	3.1112e-06	44.937	0.00022866	0.00021189	6.0439e-05	331.79	2.2838e-06	2.3351e-06	461.58	112.7	2.3225e-06	2.3928e-06	180.95	74.968	45.106	25.851	2.3703e-06	43.44	232.806	29.118	83.843	-16.218	148.613	130.717	-17.586	-10.109	161.189	151.083	-13.290	-7.779	-4.334	1.030	175.220	-3.685	-8191	255	
1271.795	1	1	0	0	0.10478	0.13394	0.24553	0.12626	0.16261	0.22984	0.20687	0.27709	0.23035	0.22224	0.12698	0.25651	0.13239	0.17079	0.08636	0.20739	-2.7625	-3.2104	-2.8958	-3.2896	-3.1937	-3.1854	-3.1875	-2.9146	-3.1792	-3.0812	-2.6458	-3.2583	-3.2812	-3.1125	-3.1646	-3.0417	322.712	73.678	287.314	234.177	217.692	241.658	203.196	295.781	241.960	253.487	3.631	260.255	171.450	112.607	96.129	70.153	0.00020453	0.00021464	8.7727e-05	346.02	2.1082e-06	2.1142e-06	481.45	111.96	2.1418e-06	2.2583e-06	181.19	73.701	42.441	24.154	5.3563e-06	42.262	0.0002259	0.00021099	5.903e-05	331.1	2.3106e-06	2.3293e-06	460.84	108.39	2.2509e-06	2.2937e-06	174.87	71.373	41.824	23.787	2.3329e-06	40.764	233.942	55.175	73.899	-16.019	133.290	108.455	-17.790	-10.327	180.916	162.056	-13.988	-7.502	-4.148	1.640	157.843	-3.739	-8191	255	
1271.891	1	1	0	0	0.092203	0.26274	0.094636	0.25735	0.34396	0.082126	0.14421	0.20586	0.28807	0.15676	0.17646	0.10091	0.06699	0.086977	0.10108	0.2735	-2.7167	-3.2188	-2.8542	-3.2083	-3.15	-2.9167	-3.2687	-2.8063	-2.95	-3.1063	-3.0208	-3.2625	-3.0417	-2.9542	-3.1083	-2.9083	147.626	97.956	23.840	202.368	137.441	238.240	211.829	178.967	5.290	140.517	113.336	249.033	273.823	330.676	-2.575	292.206	0.00018347	0.00038053	9.407e-05	341.44	3.006e-06	4.1721e-06	482.07	108.92	1.6831e-06	1.1428e-06	180.66	73.653	42.553	24.202	3.4746e-06	42.785	0.00022701	0.00021022	5.8704e-05	328.51	2.2459e-06	2.251e-06	460.98	105.7	2.2565e-06	2.1848e-06	173.92	71.126	41.552	23.804	2.1873e-06	41.262	226.157	52.653	7.861	-16.293	155.960	107.565	-17.776	-10.071	125.994	151.243	-13.325	-7.351	-4.040	1.272	152.171	-3.705	-8191	255	
1271.987	1	1	0	0	0.10182	0.11719	0.25487	0.12451	0.27701	0.12347	0.02336	0.062942	0.026616	0.18876	0.21016	0.21202	0.089842	0.091736	0.11786	0.15305	-2.4854	-3.0938	-2.7125	-3.3167	-3.1312	-2.8646	-3.1979	-3.0896	-3.0521	-3.2687	-2.9771	-3.2479	-3.1875	-2.8	-3.2562	-3.1875	269.545	206.744	12.519	10.093	327.910	315.967	52.333	38.345	68.248	143.322	204.423	272.393	-24.841	71.709	147.313	246.685	0.00015558	0.00015325	0.00010271	343.4	3.0763e-06	4.1849e-07	481.9	110.17	1.416e-06	3.9126e-06	183.8	74.612	43.059	24.629	2.9045e-06	43.352	0.00021595	0.00020387	5.5843e-05	328.38	2.14e-06	2.178e-06	458.5	106.9	2.1943e-06	2.1726e-06	175.95	72.375	42.336	24.346	2.2468e-06	41.914	225.848	101.799	57.934	-16.217	147.627	205.513	-17.745	-9.684	131.326	130.490	-13.635	-7.336	-4.142	1.067	162.681	-3.601	-8191	255	
1272.083	1	1	0	0	0.090258	0.18961	0.051214	0.12368	0.12422	0.16636	0.19387	0.19119	0.093182	0.18862	0.17766	0.080117	0.12728	0.072912	0.25268	0.11926	-2.75	-3.3042	-2.9583	-3.1792	-3.0667	-2.7521	-3	-3.0604	-3.0375	-3.2479	-2.9167	-3.1354	-3.2625	-2.8875	-3.4188	-3.2458	52.865	90.250	328.008	89.903	279.969	168.160	314.622	330.483	330.451	131.324	296.161	298.669	14.544	133.534	270.300	218.108	0.0002098	0.00028423	7.9095e-05	342.81	2.5394e-06	2.3641e-06	481.08	107.53	1.1375e-06	1.5775e-06	178.68	71.931	40.652	23.01	2.8554e-06	40.834	0.00021954	0.00020245	5.7818e-05	327.97	2.1392e-06	2.2204e-06	459.75	104.22	2.1783e-06	2.1518e-06	171.57	69.639	39.672	22.607	2.1161e-06	39.403	232.456	102.409	45.095	-16.147	123.285	147.109	-17.488	-9.938	170.806	175.941	-13.461	-7.875	-4.493	1.415	149.590	-3.535	-8191	255	
1272.179	1	1	0	0	0.098389	0.25868	0.1044	0.19982	0.13066	0.115	0.31088	0.31554	0.29475	0.23247	0.05415	0.17711	0.13273	0.25732	0.15682	0.20894	-2.4146	-3.1417	-2.8375	-2.9437	-3.2854	-2.9375	-3.3375	-3.2812	-2.9667	-3.3021	-3.1437	-3.1021	-3.2583	-2.9542	-3.1937	-3.1958	248.667	-24.071	330.325	130.649	228.234	10.197	55.565	95.780	179.446	96.197	98.764	137.642	290.673	81.859	295.157	213.348	0.00019582	0.00026167	4.5038e-05	342.49	3.8266e-07	4.0379e-06	487.05	102.17	2.7292e-06	3.2513e-06	174.92	70.842	39.995	22.951	2.4777e-06	41.815	0.00021282	0.00019309	5.5335e-05	326.79	2.1034e-06	2.1543e-06	462.54	99.169	2.164e-06	2.1306e-06	168.91	68.839	39.251	22.685	2.2137e-06	40.377	238.599	27.728	87.916	-16.145	88.991	87.621	-17.537	-10.183	179.681	151.691	-13.093	-7.477	-3.913	1.449	174.362	-3.853	-8191	255	
1272.276	1	1	0	0	0.16167	0.0448	0.09147	0.16691	0.17865	0.029885	0.086994	0.022972	0.06328	0.39028	0.25017	0.21725	0.098448	0.118	0.10927	0.13203	-2.5896	-3.2458	-2.9042	-3.1396	-3.1521	-3.0187	-3.225	-3.1312	-2.8646	-3.1063	-2.9813	-2.8896	-3.1125	-3.0125	-3.1583	-3.2917	220.485	-18.118	246.596	277.029	85.009	114.287	47.574	263.233	201.297	278.164	127.472	306.165	114.318	268.831	285.679	121.148	0.00018887	0.0002128	7.2531e-05	344.12	3.2072e-06	3.5181e-06	485.92	108.66	2.7528e-06	3.5241e-06	182.65	74.39	42.218	24.365	3.5249e-06	43.266	0.00021799	0.00020979	5.7749e-05	329.8	2.1952e-06	2.2437e-06	465.59	105.13	2.3032e-06	2.2567e-06	175.92	72.241	41.609	23.864	2.2891e-06	41.768	228.321	70.111	97.791	-15.989	187.009	134.549	-17.727	-9.636	165.327	75.678	-13.184	-7.174	-4.580	1.578	174.595	-3.926	-8191	255	
1272.372	1	1	0	0	0.24512	0.15272	0.035627	0.10429	0.21405	0.1332	0.21322	0.25563	0.11084	0.21892	0.18495	0.11218	0.1376	0.055641	0.055837	0.073345	-2.5792	-3.2458	-2.8417	-3.0667	-3.3729	-2.8354	-3.1542	-3.1188	-2.6979	-3.2062	-3.1771	-3.075	-3.2479	-2.8625	-2.9958	-3.2104	178.602	70.078	204.261	281.187	235.378	277.663	190.642	157.243	132.123	290.577	264.747	-25.003	74.631	287.129	5.533	122.177	0.00020017	0.00044007	9.7111e-05	345.32	4.6134e-06	1.9382e-06	488.24	106.68	1.1803e-06	2.6017e-06	182.04	73.384	40.887	23.431	1.8428e-06	41.998	0.00021762	0.00020632	5.6976e-05	330.17	2.2002e-06	2.2732e-06	466.77	104.12	2.175e-06	2.2004e-06	174.6	70.919	40.087	22.972	2.179e-06	40.608	225.913	54.309	39.684	-15.997	155.470	177.211	-17.499	-10.131	161.264	152.062	-13.381	-7.316	-3.946	1.498	127.965	-3.553	-8191	255	
1272.491	1	1	0	0	0.33274	0.092608	0.13298	0.20765	0.12461	0.13447	0.067399	0.12806	0.19018	0.021472	0.089265	0.10344	0.22762	0.16323	0.23619	0.12101	-2.3958	-3.2646	-3.1021	-2.8917	-3.3167	-2.9292	-3.1917	-3.3229	-3.1437	-3.1833	-3.0104	-2.8521	-3.1979	-3.275	-2.9333	-3.1229	243.376	182.229	213.228	217.871	241.725	284.259	6.177	53.063	123.000	149.468	78.743	167.036	2.634	279.884	196.464	8.372	0.00018377	0.00043443	7.4873e-05	342.95	1.7599e-06	2.2186e-06	485.01	104.79	5.0679e-07	2.9787e-06	178.8	70.693	39.152	22.474	1.923e-06	40.592	0.00021102	0.0001933	5.3142e-05	327.46	2.0756e-06	2.1141e-06	462.43	101.31	2.0653e-06	2.1073e-06	170.97	68.714	38.841	22.225	2.1904e-06	39.361	231.108	70.849	69.993	-16.018	99.649	128.015	-17.647	-10.436	225.920	212.478	-13.949	-7.200	-4.155	1.353	215.776	-3.403	-8191	255	
1272.587	1	1	0	0	0.21674	0.054628	0.23277	0.097919	0.057948	0.2669	0.041877	0.039381	0.08625	0.20062	0.21168	0.31294	0.2008	0.17143	0.093942	0.098451	-2.5042	-3.3729	-3.1146	-2.8083	-3.1312	-2.9292	-3.1333	-3.3521	-3.1042	-3.0771	-3.0396	-2.8	-3.1813	-2.9688	-2.875	-3.4167	269.169	322.678	200.369	206.465	257.021	129.294	278.798	133.274	239.987	160.782	295.397	257.575	286.599	307.733	223.513	9.144	0.0001479	0.0003916	4.086e-05	343.23	3.1066e-06	4.0889e-06	483.15	105.11	1.7615e-06	4.8911e-06	177.95	71.235	40.254	22.936	1.8715e-06	40.987	0.00021189	0.00020082	5.6231e-05	328.7	2.1143e-06	2.1526e-06	461.97	101.62	2.1331e-06	2.1007e-06	170.85	68.758	39.335	22.571	2.1984e-06	39.73	231.504	69.535	-17.046	-15.926	202.658	86.909	-18.058	-10.125	164.490	106.209	-13.755	-7.584	-3.916	1.503	178.414	-3.474	-8191	255	
1272.683	1	1	0	0	0.21073	0.057053	0.16161	0.28662	0.18932	0.082063	0.1824	0.15668	0.12925	0.062214	0.079364	0.078072	0.1225	0.24128	0.1291	0.12213	-2.5021	-3.0521	-2.9771	-2.9458	-3.1833	-3.0667	-2.8167	-3.0458	-3.1729	-3.2354	-3.3979	-2.8208	-3.0792	-3.0979	-2.9813	-3.3479	308.059	69.390	153.487	323.123	218.411	220.397	-2.878	225.406	208.886	170.231	286.875	317.518	82.052	80.575	41.141	192.608	0.00015154	0.00021579	3.393e-05	342.77	1.4024e-06	3.5646e-06	484.54	105.76	1.8044e-06	2.5271e-06	180.17	72.674	41.351	24.135	3.1588e-06	42.706	0.00021257	0.00019838	5.5291e-05	327.83	2.0827e-06	2.1101e-06	462.64	102.42	2.1407e-06	2.1154e-06	172.76	70.468	40.5	23.44	2.1585e-06	41.379	234.095	81.168	99.938	-15.899	170.241	92.264	-17.709	-10.326	171.050	172.137	-13.017	-7.544	-4.218	1.456	197.555	-3.831	-8191	255	
1272.779	1	1	0	0	0.15214	0.18236	0.17268	0.11079	0.016163	0.18328	0.30575	0.14381	0.18144	0.018318	0.31432	0.088854	0.18703	0.1371	0.14109	0.293	-2.6125	-3.1292	-3.0854	-2.9646	-3.2729	-3.2146	-2.9375	-3.1458	-3.1375	-3.0146	-3.3333	-2.8354	-3.2146	-3.2625	-2.7979	-3.3458	162.721	63.634	55.706	-8.236	151.072	24.583	202.801	212.121	139.251	37.155	214.742	259.843	63.878	89.600	52.169	11.272	0.00020216	0.0003102	0.00012717	347.15	3.7272e-06	4.6372e-06	491.66	112.66	2.1675e-06	3.2921e-06	187.31	75.71	43.588	24.77	3.6582e-06	42.839	0.00021935	0.00020046	5.6384e-05	331.96	2.231e-06	2.2506e-06	468.44	108.93	2.325e-06	2.3392e-06	179.27	73.384	43.043	24.409	2.3584e-06	41.331	227.982	33.203	42.287	-16.299	138.499	125.641	-17.576	-9.737	166.564	137.472	-13.445	-7.203	-3.854	1.051	190.606	-4.067	-8191	255	
1272.875	1	1	0	0	0.18501	0.17203	0.11158	0.11904	0.20153	0.11516	0.077818	0.12861	0.14854	0.1027	0.22228	0.0746	0.2262	0.089357	0.29342	0.24129	-2.5708	-2.9604	-3.2646	-3.0292	-3.0812	-3.0833	-3.0417	-3.2958	-2.9	-2.9562	-3.3042	-3.05	-3.1333	-3.1312	-3.0812	-3.3021	277.224	130.674	95.496	282.041	286.673	129.935	316.888	263.729	306.052	119.976	285.394	-18.530	224.123	241.291	-23.266	283.159	0.000189	0.0001407	0.00012018	344.96	2.2474e-06	3.486e-06	487.85	102.98	1.9545e-06	3.9459e-06	174.55	69.104	38.713	21.947	4.7349e-06	39.549	0.00022654	0.00022365	5.9535e-05	331.14	2.282e-06	2.3505e-06	465.16	100.43	2.2962e-06	2.2374e-06	167.62	67.12	38.091	21.65	2.2936e-06	38.355	215.075	49.286	62.783	-16.115	182.957	156.007	-17.612	-9.820	168.268	85.427	-13.469	-7.286	-4.152	1.617	188.450	-3.438	-8191	255	
1272.971	1	1	0	0	0.14705	0.34889	0.048773	0.2409	0.30717	0.21502	0.064306	0.03706	0.028327	0.16891	0.14761	0.067967	0.13154	0.090674	0.11647	0.17813	-2.4479	-2.8563	-3.1354	-2.7667	-3.0938	-3.4417	-3.0396	-3.1188	-3.1042	-3.0958	-3.3312	-2.9542	-2.9979	-3.2313	-3.1771	-3.0917	47.743	261.660	254.432	36.086	84.966	69.599	101.166	201.667	105.374	34.064	-5.683	324.084	314.801	264.794	236.227	205.862	0.00016661	0.00020798	0.00012551	342.78	3.0698e-06	1.461e-06	488.61	105.37	2.1995e-06	1.5173e-06	180.78	73.916	42.902	24.215	2.5614e-06	43.147	0.00021865	0.00020579	5.6816e-05	328.74	2.2516e-06	2.2208e-06	464.38	102.69	2.2562e-06	2.2535e-06	173.39	71.413	41.905	23.918	2.425e-06	41.683	230.677	61.417	30.850	-16.357	212.997	104.082	-17.756	-10.050	141.941	103.239	-13.662	-7.209	-3.941	1.205	149.770	-3.889	-8191	255	
1273.092	1	1	0	0	0.17913	0.27261	0.31776	0.083511	0.068957	0.29554	0.036004	0.059813	0.1679	0.096573	0.22753	0.020659	0.22677	0.19305	0.068483	0.097499	-2.6792	-2.9917	-3.2396	-2.925	-3.0396	-3.3312	-2.7917	-3.1146	-3.1688	-2.9396	-3.4229	-3.2833	-2.9167	-3.3417	-2.8458	-3.2167	3.745	169.806	141.587	298.893	234.554	149.668	15.942	286.933	287.827	148.634	138.273	273.207	230.405	212.752	67.444	185.977	0.00020253	0.00019256	5.5126e-05	347.79	1.7992e-06	3.1926e-06	489.97	112.75	1.3468e-06	4.0148e-06	189.91	76.928	45.374	25.657	1.2872e-06	45.033	0.00023233	0.00021332	6.0159e-05	334.25	2.31e-06	2.2922e-06	469.02	109.26	2.3384e-06	2.3916e-06	181.07	74.684	44.316	25.287	2.4542e-06	43.434	236.039	122.602	9.075	-16.024	140.777	153.682	-17.503	-9.565	119.532	97.042	-13.053	-7.257	-4.375	1.134	69.677	-3.738	-8191	255	
1273.188	1	1	0	0	0.17768	0.27846	0.35929	0.18994	0.19917	0.13499	0.25782	0.14426	0.0060519	0.12299	0.1638	0.1179	0.31364	0.18275	0.17594	0.15857	-2.6896	-2.8146	-3.2333	-2.9896	-2.9979	-3.2208	-2.9938	-3.2542	-3.1667	-2.6917	-3.1979	-3.2042	-2.8125	-3.0729	-2.9437	-3.1625	167.077	11.636	62.998	80.045	88.815	327.570	281.057	264.898	80.286	229.122	102.189	291.764	268.541	113.511	156.189	80.563	0.00016982	0.00016828	0.00015645	350.08	3.3952e-06	5.1287e-06	492.87	114.33	1.0335e-06	3.5541e-06	190.31	77.832	45.639	25.962	5.2251e-06	45.14	0.00023662	0.00022246	6.2283e-05	336.17	2.4652e-06	2.4146e-06	469.42	111.44	2.351e-06	2.3819e-06	182.93	75.549	44.688	25.405	2.4108e-06	43.656	231.679	51.774	42.223	-16.179	147.686	119.274	-18.117	-9.787	266.089	113.028	-13.556	-7.459	-3.895	0.951	126.941	-3.599	-8191	255	
1273.283	1	1	0	0	0.23802	0.14174	0.16053	0.21003	0.093815	0.34971	0.10543	0.15628	0.16168	0.20748	0.18939	0.2502	0.11579	0.11076	0.11645	0.15801	-2.6625	-2.8104	-3.2792	-3.1937	-2.9271	-3.2208	-3.2542	-3.1375	-3.1646	-2.9667	-3.3896	-3.2271	-2.9396	-3.2	-3.0458	-2.8812	302.716	252.405	237.223	54.721	3.539	323.816	104.040	-27.098	78.308	263.562	73.859	30.009	124.467	145.230	262.441	128.534	0.00018906	0.0002904	8.2685e-05	349.61	3.1643e-06	4.1874e-06	489.73	115.69	2.1427e-06	3.4315e-06	191.69	80.166	47.061	26.81	4.7462e-06	47.079	0.00023555	0.00022158	6.1601e-05	335.19	2.3604e-06	2.3821e-06	470.15	112.62	2.3162e-06	2.3423e-06	185.69	77.714	46.058	26.407	2.3644e-06	45.221	231.211	64.902	62.344	-15.848	177.451	137.496	-17.355	-10.099	207.454	128.045	-13.269	-7.790	-4.165	1.133	189.498	-3.536	-8191	255	
1273.379	1	1	0	0	0.050986	0.20838	0.17664	0.23812	0.30284	0.12031	0.2933	0.21022	0.20746	0.086076	0.11491	0.19625	0.35948	0.16296	0.16071	0.023257	-2.7146	-2.8333	-3.0708	-3.0396	-2.9813	-3.3479	-2.9938	-2.9292	-3.2062	-2.9583	-3.1708	-3.2438	-2.8187	-3.3854	-3.1333	-3.1083	152.077	68.650	29.487	297.506	142.553	168.780	248.939	113.226	57.769	268.088	86.227	251.220	-2.310	104.663	140.394	257.201	0.00019617	0.00048692	6.5042e-05	352.2	3.0831e-06	5.4044e-06	492.66	118.22	3.3832e-06	4.7823e-06	193.36	79.523	47.334	27.081	3.2853e-06	46.659	0.00023299	0.00021619	6.1986e-05	337.82	2.4509e-06	2.4465e-06	471.39	114.73	2.4858e-06	2.533e-06	186.15	77.066	46.426	26.582	2.4209e-06	44.957	231.798	57.637	94.908	-15.820	176.723	77.338	-17.157	-9.506	187.243	102.305	-13.443	-7.536	-4.419	1.159	142.436	-4.084	-8191	255	
1273.452	1	1	0	0	0.18894	0.15753	0.029821	0.231	0.064247	0.07895	0.070924	0.23771	0.29235	0.075495	0.096503	0.31852	0.072012	0.12081	0.068456	0.02536	-2.6958	-2.9667	-3.0896	-3.1688	-2.8521	-3.3812	-3.1458	-3.0271	-3.1437	-3.0625	-3.0375	-3.1813	-2.7417	-2.9417	-3.2125	-3.1104	106.859	79.313	-2.663	35.826	3.842	176.934	30.676	183.089	198.644	5.109	232.935	-5.347	227.778	23.942	49.850	187.977	0.00022123	0.00023565	0.00012521	350.84	4.0707e-06	3.8184e-06	488.03	114.82	2.4424e-06	1.8582e-06	189.37	76.926	44.646	25.491	5.2215e-06	44.024	0.00023317	0.00021521	5.9263e-05	335.1	2.3286e-06	2.2982e-06	466.95	112.12	2.2935e-06	2.3372e-06	181.12	74.175	43.807	25.021	2.2985e-06	42.587	229.918	67.952	37.194	-15.888	188.363	117.170	-17.370	-9.868	145.907	87.857	-13.311	-7.735	-4.032	1.744	148.078	-3.566	-8191	255	
1273.571	1	1	0	0	0.11847	0.069581	0.092861	0.1485	0.15206	0.083027	0.2083	0.075771	0.20321	0.27222	0.11106	0.10152	0.21474	0.18434	0.11273	0.09595	-2.7542	-2.8812	-3.1271	-3.4188	-2.9833	-3.1417	-3.1646	-3.1063	-3.3292	-3.1708	-3.0771	-3.0333	-2.9938	-3.2938	-3.2146	-2.8708	278.916	23.636	64.932	308.332	216.809	154.792	227.468	275.268	281.161	-27.258	82.213	290.110	15.930	30.821	129.063	9.522	0.00020292	0.00017056	0.00010835	346.14	2.0631e-06	3.4635e-06	487.07	111.7	1.5174e-06	2.4441e-06	185.57	76.074	43.653	25.229	3.5457e-06	44.513	0.00023126	0.00021209	6.0305e-05	331.46	2.2906e-06	2.3317e-06	464.49	108.13	2.3007e-06	2.2803e-06	178.16	73.302	42.935	24.692	2.3186e-06	42.821	221.386	72.925	49.172	-16.165	196.312	101.585	-17.364	-10.059	152.280	114.997	-13.457	-7.634	-4.274	1.329	161.922	-3.859	-8191	255	
1273.667	1	1	0	0	0.040048	0.099221	0.17967	0.25784	0.16282	0.19494	0.14797	0.1934	0.19373	0.2195	0.17732	0.22257	0.18828	0.098637	0.11384	0.18204	-2.7083	-2.8625	-2.925	-3.3646	-3.1208	-2.9458	-3.375	-3.0854	-3.3042	-3.1063	-2.9979	-3.3667	-2.9458	-3.0667	-3.1583	-2.9188	291.679	197.099	68.660	193.074	299.307	240.961	131.269	163.745	318.926	225.973	93.211	59.037	1.957	142.952	284.883	250.456	0.00019023	0.00038947	9.2105e-05	347.5	3.879e-06	4.1763e-06	490.11	116.38	2.6135e-06	5.8971e-06	193.04	80.084	47.494	27.126	4.9555e-06	46.729	0.0002251	0.00021538	6.0076e-05	332.14	2.2853e-06	2.2745e-06	466.09	112.47	2.216e-06	2.3043e-06	185.57	77.554	46.217	26.638	2.3059e-06	45.236	224.283	82.181	45.946	-16.003	177.354	79.558	-17.702	-9.830	158.703	146.967	-13.139	-7.497	-4.577	0.963	183.503	-3.837	-8191	255	
1273.763	1	1	0	0	0.33818	0.075055	0.19564	0.19891	0.17742	0.043596	0.17639	0.11694	0.10328	0.043857	0.34994	0.19588	0.22223	0.15109	0.19135	0.1613	-2.5958	-2.8187	-2.8917	-3.1729	-2.875	-2.9229	-3.1875	-3.1312	-2.9583	-2.9354	-2.8688	-3.0417	-2.9042	-3.0938	-3.4021	-2.9833	-21.805	321.477	277.733	236.894	286.895	166.963	255.511	144.321	190.960	314.591	322.582	-17.938	56.911	230.536	310.738	303.648	0.00021258	0.00018647	5.0335e-05	349.36	3.0732e-06	3.7125e-06	492.47	116.58	1.8255e-06	2.1098e-06	190.88	79.5	46.407	26.665	5.0248e-06	46.092	0.00023915	0.00021404	6.0552e-05	334.92	2.3188e-06	2.2929e-06	469.7	112.97	2.2979e-06	2.3898e-06	184.53	76.726	45.508	26.11	2.3786e-06	44.447	231.528	83.982	27.796	-15.736	174.130	138.089	-17.502	-10.009	124.371	165.408	-13.574	-7.581	-4.027	0.815	129.072	-3.887	-8191	255	
1273.859	1	1	0	0	0.10706	0.30988	0.091872	0.021306	0.18712	0.091145	0.17695	0.02405	0.16743	0.20537	0.18004	0.050349	0.18761	0.12249	0.088184	0.12396	-2.8312	-3.0917	-2.725	-3.1896	-3.1333	-3.0938	-3.1896	-2.8792	-3.0875	-3.1708	-2.9688	-3.0146	-3.0208	-2.9458	-3.2062	-3.1625	21.734	0.587	148.383	-21.108	199.375	216.443	263.707	151.289	5.522	90.019	213.220	212.369	298.681	-18.038	154.718	130.127	0.00016594	0.00014053	3.2895e-05	348.81	2.5155e-06	4.1816e-06	488.47	117.53	3.0151e-06	1.6998e-06	192.76	79.37	47.339	26.889	2.4059e-06	46.248	0.00022704	0.00021545	6.0043e-05	334.28	2.3199e-06	2.3253e-06	467.17	113.76	2.281e-06	2.3267e-06	185.02	76.87	46.182	26.492	2.3066e-06	44.699	228.588	58.586	67.565	-15.653	127.972	47.722	-17.770	-9.988	163.810	74.109	-13.482	-7.396	-3.956	1.083	143.811	-3.930	-8191	255	
1273.980	1	1	0	0	0.040044	0.30275	0.29724	0.19783	0.047274	0.13271	0.23794	0.31729	0.18494	0.088792	0.19408	0.095814	0.18058	0.067109	0.069754	0.15194	-2.6562	-3.2104	-2.6917	-3.0438	-3.0042	-2.9208	-3.2708	-2.8958	-3.1396	-3.1625	-2.8563	-3.1875	-3.2	-2.7771	-3.2146	-3.3167	221.663	213.734	315.504	90.081	113.473	187.956	91.865	-27.166	282.881	70.111	312.979	323.046	242.863	267.820	194.048	-26.888	0.00021153	0.00041253	6.1682e-05	349.67	2.1325e-06	2.8735e-06	488.26	117.62	2.0547e-06	2.7747e-06	191	78.781	46.554	26.572	3.0255e-06	45.419	0.00023519	0.00021647	6.1016e-05	334.49	2.3207e-06	2.3104e-06	466.45	113.92	2.3577e-06	2.3482e-06	183.78	76.285	45.504	26.11	2.3561e-06	44.04	226.099	60.404	44.528	-15.773	138.431	128.794	-17.660	-10.095	171.287	127.908	-13.766	-7.451	-4.322	1.171	164.412	-3.812	-8191	255	
1274.076	1	1	0	0	0.21898	0.2306	0.15817	0.13002	0.17963	0.10327	0.23294	0.20114	0.082472	0.042416	0.20295	0.34162	0.28569	0.14977	0.14148	0.1688	-2.5687	-3.2833	-2.9521	-3.0458	-2.9479	-2.825	-3.1021	-2.6625	-2.9188	-3.2146	-2.9042	-3.1958	-3	-3.0333	-3.3271	-3.2354	167.891	2.572	114.858	41.757	104.148	154.349	287.923	-21.011	148.964	133.185	223.849	250.861	269.141	47.251	251.316	302.086	0.00019082	0.00025353	3.2861e-05	348.01	4.0593e-06	3.7902e-06	490.81	115.89	2.1366e-06	4.0109e-06	191.22	77.658	45.033	25.743	1.7252e-06	44.77	0.00023057	0.00021262	6.082e-05	334.13	2.3106e-06	2.3608e-06	468.19	112.2	2.3398e-06	2.2857e-06	182.62	75.17	44.288	25.267	2.3262e-06	43.256	228.458	85.125	69.037	-15.915	188.485	152.531	-17.596	-9.961	131.727	103.090	-13.232	-7.639	-4.083	1.025	156.716	-3.556	-8191	255	
1274.172	1	1	0	0	0.22551	0.16641	0.34272	0.21737	0.31359	0.19415	0.26955	0.046177	0.19805	0.26069	0.052281	0.22139	0.088132	0.19994	0.14043	0.057074	-2.5521	-3.1396	-2.6063	-3.0417	-3.0438	-2.9958	-3.1562	-3.1708	-3.0958	-3.0854	-2.9688	-2.975	-2.9125	-2.5187	-3.1292	-3.1625	299.652	77.389	213.181	-14.911	197.198	110.640	226.209	97.092	288.265	-8.500	235.247	179.728	167.673	247.573	128.886	171.421	0.00017772	0.00030952	0.00015885	345.37	2.5339e-06	4.8261e-06	487.63	112.17	1.4885e-06	3.3888e-06	187.51	77.614	45.082	25.793	4.4916e-06	45.897	0.00022507	0.0002086	5.9161e-05	331.73	2.2539e-06	2.3483e-06	465.94	109.28	2.2943e-06	2.2917e-06	180.92	74.979	44.227	25.44	2.3872e-06	44.146	242.492	114.604	62.406	-15.919	218.500	163.471	-17.441	-9.585	155.562	109.561	-13.622	-7.229	-4.365	1.313	120.551	-3.585	-8191	255	
1274.269	1	1	0	0	0.18741	0.066513	0.041056	0.12983	0.44884	0.21621	0.42612	0.30935	0.18413	0.16125	0.2044	0.047107	0.16946	0.11708	0.09918	0.24964	-2.6229	-3.3854	-2.8	-3.0563	-3.0563	-2.9417	-3.1854	-3.3104	-3.1479	-3.1562	-2.9146	-3.15	-3.2313	-2.9021	-3.2604	-3.1333	-6.933	187.150	183.695	248.375	134.754	226.715	321.332	224.091	285.169	98.024	299.678	232.705	-4.813	173.830	291.980	261.225	0.00022025	0.00018131	8.6814e-05	348.92	1.7119e-06	4.5283e-06	491.15	118.91	2.1987e-06	2.7284e-06	195.04	80.94	48.43	27.769	4.6993e-06	47.312	0.00023224	0.00020935	6.074e-05	332.88	2.244e-06	2.3529e-06	469.71	115.21	2.358e-06	2.4053e-06	187.41	78.349	47.436	27.267	2.4087e-06	45.823	224.245	60.206	74.367	-16.021	241.447	176.397	-17.695	-10.027	197.693	89.423	-13.153	-7.486	-4.374	1.136	155.623	-4.128	-8191	255	
1274.363	1	1	0	0	0.035803	0.16734	0.15737	0.29592	0.076647	0.18553	0.0706	0.144	0.11908	0.35085	0.11041	0.25892	0.21533	0.11079	0.13121	0.22631	-2.2042	-3.2208	-2.9458	-2.9958	-3.2188	-2.9729	-3.1875	-3.0354	-2.7104	-3.2771	-3.0896	-3.1271	-3.1229	-2.6771	-2.9208	-3.3042	4.515	315.001	143.189	-6.268	209.627	160.356	137.100	315.987	233.474	72.664	166.988	76.121	179.055	249.188	331.456	328.663	0.00021427	0.000292	0.00010957	351.82	2.7319e-06	2.7177e-06	489.7	121.14	1.326e-06	1.1232e-06	193.41	79.767	46.979	26.548	4.7763e-06	45.457	0.00024239	0.00023007	6.3365e-05	337.93	2.417e-06	2.4598e-06	469.57	116.86	2.4209e-06	2.3919e-06	186.54	77.17	45.998	26.134	2.3678e-06	44.042	236.311	63.462	97.099	-15.884	176.891	132.491	-17.108	-10.186	211.640	114.062	-13.635	-7.604	-4.083	1.372	136.511	-3.889	-8191	255	
1274.461	1	1	0	0	0.152	0.21504	0.026932	0.27797	0.097455	0.10469	0.19916	0.14148	0.13303	0.20393	0.070563	0.060525	0.066622	0.3228	0.20068	0.049714	-2.4333	-3.4354	-2.9542	-2.8	-3.1604	-2.875	-3.1708	-3.2396	-3.1625	-3.2354	-2.9896	-3.025	-3.3146	-3.0271	-2.9688	-3.2083	-3.761	264.695	14.978	170.564	168.397	52.241	241.079	314.537	101.242	229.373	224.682	105.844	42.587	329.808	133.079	173.485	0.00022221	0.00040893	6.49e-05	346.32	4.6429e-06	4.0101e-06	487.17	114	2.0306e-06	2.4899e-06	191.23	77.864	45.73	26.235	2.5202e-06	45.959	0.00023246	0.00021679	6.0014e-05	332.26	2.2759e-06	2.3566e-06	465.97	110.87	2.2737e-06	2.3026e-06	182.65	75.45	44.789	25.769	2.352e-06	44.337	239.806	56.022	77.553	-16.125	136.315	143.420	-17.903	-9.997	150.103	111.465	-13.601	-7.356	-4.130	1.305	164.082	-3.746	-8191	255	
1274.580	1	1	0	0	0.045046	0.059881	0.17291	0.086026	0.21568	0.25032	0.23482	0.12586	0.13657	0.14747	0.13674	0.077607	0.15076	0.12068	0.10491	0.076107	-2.4208	-3.2583	-3.0875	-3.025	-3.2271	-2.8896	-3.25	-3.1208	-2.9521	-3.2021	-3.3542	-2.9313	-3.1167	-2.9833	-3.1042	-3.3167	240.282	74.499	30.867	221.978	128.626	95.906	235.888	208.852	292.395	88.938	291.256	143.848	235.942	197.846	241.581	18.373	0.00020115	0.0001089	0.00010782	348.4	1.4561e-06	3.6345e-06	492.35	117.82	1.6438e-06	1.8833e-06	192.55	79.804	46.503	26.694	3.8951e-06	46.011	0.00023303	0.00021362	5.9971e-05	333.58	2.2944e-06	2.3635e-06	470.26	114.37	2.4046e-06	2.3379e-06	185.55	77.136	45.776	26.18	2.4326e-06	44.488	234.790	8.857	37.530	-15.879	175.505	114.187	-17.767	-9.716	183.385	52.746	-13.664	-7.667	-4.140	0.780	153.654	-3.708	-8191	255	
1274.676	1	1	0	0	0.078556	0.14868	0.27624	0.18264	0.17874	0.22951	0.23297	0.18546	0.097445	0.077155	0.31673	0.20087	0.096337	0.13488	0.19282	0.11532	-2.5917	-3.0375	-3.0833	-2.8208	-3.3646	-3.2083	-3.0917	-3.1042	-2.8771	-3.0917	-3.0771	-2.8979	-3.2333	-2.9958	-2.9313	-3.2917	108.229	310.231	136.079	41.726	179.333	92.303	13.465	208.052	-6.197	197.947	234.497	233.321	150.377	262.227	154.716	211.065	0.0002125	0.00036867	2.703e-05	344.75	2.5495e-06	2.5356e-06	487.74	112.3	2.5301e-06	1.8666e-06	188.66	76.903	44.633	25.628	1.0634e-06	45.395	0.00023081	0.00021481	5.9884e-05	331.26	2.2472e-06	2.2743e-06	466.44	108.98	2.3502e-06	2.2908e-06	181.69	74.612	43.724	25.196	2.3186e-06	43.935	229.561	73.173	96.476	-15.864	127.219	73.977	-17.603	-9.890	169.625	111.724	-13.278	-7.316	-4.104	1.423	198.572	-3.595	-8191	255	
1274.748	1	1	0	0	0.32546	0.050995	0.15013	0.14977	0.18616	0.098901	0.27382	0.26976	0.1697	0.19897	0.067878	0.18192	0.21097	0.1421	0.28133	0.15535	-2.6604	-3.1542	-3.0208	-2.8167	-2.9625	-2.9083	-2.9396	-3.1937	-2.9688	-2.9917	-3.2021	-2.9437	-3.2667	-2.9917	-2.9625	-3.5271	190.090	-27.603	249.814	248.149	-16.287	33.053	257.286	1.871	123.924	-11.079	27.887	174.069	-15.714	243.339	144.090	243.731	0.00021115	0.00036558	7.5891e-05	350.31	3.3612e-06	4.5663e-06	490.94	117.64	3.3918e-06	2.1195e-06	194.56	79.183	46.704	26.704	1.3312e-06	45.969	0.0002321	0.00021744	6.1568e-05	334.75	2.3314e-06	2.3351e-06	468.74	114.5	2.3996e-06	2.3064e-06	186.12	76.925	45.831	26.208	2.4338e-06	44.322	234.123	63.397	100.892	-15.947	147.511	97.466	-17.472	-9.846	173.528	164.841	-13.710	-7.762	-3.720	0.880	185.545	-3.688	-8191	255	
1274.868	1	1	0	0	0.14252	0.1384	0.060841	0.070368	0.10086	0.073669	0.13909	0.14644	0.22791	0.034176	0.15812	0.034894	0.060401	0.10883	0.14622	0.10229	-2.5	-3.0312	-3.2979	-3.0083	-3.0062	-3.025	-3.0854	-3.1125	-2.9104	-3.0542	-3.3521	-2.7875	-3.2021	-3.2396	-3.0375	-3.3563	262.943	197.539	30.012	320.658	115.053	47.141	240.477	276.582	208.317	257.065	87.067	264.740	-15.960	310.089	197.225	22.083	0.00021582	0.00026407	8.2209e-05	348.47	2.5444e-06	4.1419e-06	484.45	114.02	9.8485e-07	2.9912e-06	189.1	77.588	45.206	25.82	1.2666e-06	45.156	0.0002345	0.00021717	5.9208e-05	333.22	2.3459e-06	2.2642e-06	466.37	110.46	2.2435e-06	2.2167e-06	181.7	75.074	44.279	25.424	2.3432e-06	43.632	235.387	48.335	66.562	-16.077	186.115	85.242	-17.561	-9.771	213.585	110.662	-13.523	-7.453	-3.982	1.386	173.688	-3.803	-8191	255	
1274.964	1	1	0	0	0.33363	0.12505	0.12823	0.1853	0.11773	0.34645	0.22202	0.048813	0.070784	0.15965	0.18058	0.050473	0.12729	0.21821	0.068663	0.28297	-2.6167	-2.8292	-3.1667	-3.125	-3.0542	-3.0354	-2.7812	-3.2375	-3.0458	-2.8521	-3.0521	-2.9771	-2.9271	-3.2208	-2.8896	-3.3604	65.226	-8.569	-25.855	70.250	260.817	273.837	-24.310	331.317	206.712	126.111	249.873	246.170	307.615	280.127	224.723	284.493	0.00019292	0.00033297	2.2771e-05	344.35	3.1975e-06	4.0535e-06	486.27	113.45	2.0263e-06	3.8455e-06	188.33	77.219	44.877	25.754	1.8278e-06	44.858	0.00022796	0.00021267	5.8101e-05	331.65	2.2307e-06	2.2788e-06	466.13	110	2.2756e-06	2.3136e-06	181.49	74.697	43.848	25.192	2.2359e-06	43.371	235.339	70.587	25.836	-16.231	147.929	119.504	-17.468	-9.924	149.276	124.299	-13.298	-7.340	-4.063	0.968	217.161	-3.741	-8191	255	
1275.060	1	1	0	0	0.13448	0.098764	0.36101	0.05445	0.1472	0.18105	0.24319	0.027324	0.21083	0.26437	0.15859	0.17077	0.10126	0.024343	0.16047	0.10893	-2.5271	-2.7771	-3.2896	-2.9771	-3.0875	-3.4521	-3.0083	-3.1458	-3.1146	-2.8667	-3.3104	-3.1917	-3.1521	-3.3104	-2.8979	-3.1625	17.742	286.374	212.259	103.647	32.495	45.104	286.829	163.376	208.005	282.230	80.288	149.586	211.054	225.422	330.365	70.977	0.00021246	0.00024453	5.618e-05	343.24	2.2112e-06	2.6145e-06	488.03	114.09	2.2512e-06	2.0083e-06	192.07	78.849	45.942	26.343	2.1262e-06	46.309	0.0002213	0.0001988	5.5055e-05	329.44	2.1659e-06	2.1457e-06	464.97	110.8	2.1514e-06	2.2259e-06	184.32	76.283	44.938	25.969	2.251e-06	44.649	227.737	73.723	67.272	-15.905	185.759	93.700	-17.337	-9.996	134.979	140.630	-13.337	-7.385	-4.508	1.150	163.571	-3.891	-8191	255	
1275.157	1	1	0	0	0.13412	0.03319	0.27151	0.12999	0.086994	0.1282	0.17007	0.15016	0.24082	0.34734	0.061022	0.081966	0.34949	0.11119	0.054691	0.03868	-2.65	-2.6688	-3.0938	-2.8688	-3.0833	-3.2667	-2.9458	-3.125	-2.9437	-2.8729	-3.1042	-3.1792	-2.8875	-3.2438	-2.9708	-3.1146	254.708	48.118	32.755	247.288	305.038	206.419	2.537	-14.535	137.521	260.861	312.889	37.356	-9.236	41.832	42.468	294.706	0.00021226	0.00022209	7.561e-05	349.48	2.6649e-06	2.8975e-06	490.26	116.45	1.0702e-06	2.3913e-06	193.28	78.918	46.211	26.573	3.5571e-06	45.985	0.00022824	0.00021121	5.6674e-05	333.89	2.225e-06	2.2055e-06	467.78	112.66	2.3012e-06	2.297e-06	184.84	76.598	45.328	26.117	2.2386e-06	44.562	228.022	79.846	39.135	-16.105	162.828	128.106	-17.375	-9.592	184.095	99.125	-13.632	-7.571	-4.167	1.029	183.909	-4.034	-8191	255	
1275.276	1	1	0	0	0.14433	0.094294	0.051678	0.058742	0.11253	0.10903	0.060837	0.11652	0.1712	0.20755	0.1114	0.11187	0.18495	0.2357	0.14145	0.18027	-2.6417	-2.7208	-2.9583	-2.9833	-2.9521	-3.2833	-3.1875	-3.3104	-3.3271	-2.9729	-3.2458	-3.1312	-2.7667	-3.0812	-2.6437	-2.8917	125.227	214.767	-12.711	232.297	167.910	221.145	231.637	25.412	34.861	315.413	293.430	323.172	-24.136	189.155	54.896	57.617	0.00017919	0.0004011	0.00011522	343.72	1.8651e-06	3.3319e-06	488.13	116.82	3.3187e-06	3.3762e-06	192.34	79.344	46.564	26.69	2.6659e-06	46.414	0.0002175	0.0002067	5.5131e-05	331.38	2.1745e-06	2.1464e-06	466.4	113.39	2.0967e-06	2.2555e-06	185.16	76.618	45.578	26.349	2.2195e-06	44.666	232.291	72.928	42.483	-16.262	167.835	69.511	-17.692	-9.912	144.849	122.232	-13.450	-7.385	-4.561	1.080	149.936	-3.964	-8191	255	
1275.372	1	1	0	0	0.20274	0.064735	0.059012	0.099163	0.18774	0.043084	0.24868	0.29172	0.18541	0.29199	0.19108	0.10768	0.13201	0.18699	0.22908	0.10851	-2.8208	-2.9875	-3.1542	-3.2583	-2.9021	-3.3604	-3.0354	-3.1146	-3.2521	-2.6208	-2.9792	-2.9146	-2.7771	-3.2354	-2.9167	-2.9313	198.081	61.645	88.420	143.442	48.166	-6.399	275.934	36.735	173.180	16.122	-25.159	303.863	245.850	304.256	181.374	198.012	0.00019412	0.00021653	0.00011949	347.65	7.8995e-07	1.9568e-06	486.39	115.98	6.4113e-07	1.1142e-06	188.73	77.307	45.127	25.724	1.8688e-06	44.434	0.00022524	0.00020382	5.7527e-05	332.41	2.2288e-06	2.1665e-06	466.3	112.53	2.1976e-06	2.1843e-06	181.99	74.957	44.207	25.299	2.2314e-06	42.969	230.984	108.228	48.657	-15.922	195.776	131.747	-17.416	-10.000	183.492	154.188	-13.381	-7.457	-4.040	1.170	187.192	-3.739	-8191	255	
1275.443	1	1	0	0	0.11094	0.16509	0.14214	0.17513	0.10428	0.12232	0.18897	0.14164	0.058095	0.18426	0.18818	0.14182	0.21	0.10667	0.056375	0.25538	-2.9292	-3.0375	-3.0062	-3.35	-2.8917	-3.0917	-3.1646	-3.0792	-3.2896	-3.05	-3.0896	-3.0354	-3.0292	-3.2354	-3.0146	-2.8667	129.177	325.317	198.958	263.968	18.568	168.874	-3.786	156.473	232.356	296.319	36.451	281.250	18.072	-7.222	102.989	229.653	0.0002081	0.00027586	8.139e-05	343.91	2.1275e-06	2.7276e-06	487.03	108.45	2.5496e-06	4.5714e-06	181.64	71.955	41.401	23.357	3.4595e-06	41.64	0.00022687	0.00019714	5.6286e-05	328.33	2.235e-06	2.2454e-06	462.6	105.05	2.1534e-06	2.1652e-06	173.84	69.886	40.369	22.964	2.2691e-06	40.26	237.961	59.031	94.496	-16.444	131.096	210.313	-17.507	-10.398	234.819	131.761	-13.267	-7.226	-3.999	1.630	157.431	-3.833	-8191	255	
1275.541	1	1	0	0	0.25424	0.12542	0.12493	0.066893	0.055337	0.19569	0.16686	0.16238	0.049152	0.25085	0.076803	0.18514	0.19042	0.17664	0.29864	0.27872	-2.7375	-2.7604	-3.0646	-3.2646	-3.0146	-3.1292	-3.1125	-2.8521	-3.1833	-2.9313	-3.0604	-3.3187	-3.0833	-3.1292	-3.1708	-2.9854	179.142	177.361	16.668	13.485	130.112	106.952	108.909	257.078	327.881	176.982	305.367	258.540	-7.487	315.759	75.437	319.066	0.00017384	0.00018788	9.9435e-05	339.73	1.339e-06	3.6765e-06	484.5	107.73	2.6206e-06	4e-06	182.34	73.557	42.371	23.964	2.1843e-06	42.098	0.00021341	0.00020519	5.6489e-05	326.46	2.2099e-06	2.153e-06	461.75	104.76	2.1752e-06	2.1532e-06	174.87	70.958	41.425	23.648	2.2742e-06	40.662	235.884	68.050	28.810	-15.961	215.478	126.798	-17.526	-10.062	185.840	60.278	-13.383	-7.897	-3.789	1.415	129.856	-3.674	-8191	255	
1275.660	1	1	0	0	0.11706	0.20074	0.066442	0.032276	0.16909	0.13454	0.053287	0.18872	0.13143	0.33788	0.072536	0.32059	0.026756	0.25607	0.059742	0.10819	-2.4708	-2.8583	-2.9208	-3.375	-2.8583	-3.2313	-3.3312	-2.975	-3.3479	-3.0271	-2.9396	-3.1958	-3.0208	-3.125	-3.1417	-2.9646	18.081	251.972	68.580	130.325	250.440	85.000	29.780	179.458	231.067	89.448	3.861	225.899	244.063	60.766	33.774	80.767	0.00021986	0.000324	7.0177e-05	340.57	4.0183e-06	3.0963e-06	483.78	104.39	2.0997e-06	3.0689e-06	174.46	69.957	39.04	22.071	1.0368e-06	39.548	0.00022	0.00020924	5.7313e-05	327.07	2.2555e-06	2.2437e-06	461.51	101.58	2.2453e-06	2.1613e-06	168.15	67.336	38.171	21.663	2.1503e-06	38.135	227.274	52.782	48.469	-16.286	151.948	141.085	-17.540	-10.037	159.263	73.217	-13.399	-7.477	-4.148	1.632	90.019	-3.167	-8191	255	
1275.756	1	1	0	0	0.19053	0.11284	0.31797	0.13244	0.12909	0.4603	0.1594	0.18506	0.13781	0.21365	0.20031	0.18699	0.30435	0.067809	0.055693	0.12468	-2.7854	-3.0104	-2.825	-3.2062	-2.9167	-2.9562	-3.2271	-2.8312	-3.1042	-2.8917	-2.9458	-3.1625	-3.1813	-3.0208	-2.9958	-2.9021	80.141	22.385	129.653	186.174	247.374	250.170	282.444	43.738	144.868	214.796	288.168	-25.862	258.075	42.577	191.679	45.269	0.00018083	0.00034032	7.4116e-05	340.99	3.2403e-06	5.0365e-06	482.73	102.8	1.7446e-06	4.655e-06	174.95	70.629	39.9	22.551	2.3909e-06	40.393	0.00021356	0.00019575	5.5963e-05	325.15	2.2063e-06	2.1866e-06	462.33	99.494	2.1615e-06	2.3211e-06	168.37	68.234	39.117	22.196	2.3721e-06	39.086	232.944	22.623	76.853	-16.169	172.001	146.302	-17.847	-10.281	172.688	91.629	-13.625	-7.503	-4.436	2.015	167.870	-3.479	-8191	255	
1275.852	1	1	0	0	0.14897	0.21504	0.37401	0.14482	0.12313	0.33803	0.12119	0.096133	0.16093	0.11148	0.17346	0.20315	0.17707	0.073633	0.14786	0.14858	-2.8208	-3.1479	-3.0125	-3.2687	-2.9062	-2.9146	-3.0104	-2.8979	-3.2458	-3.0354	-2.7146	-3.1125	-2.8229	-3.0062	-3.0917	-2.9604	238.196	-21.870	100.129	10.041	99.459	113.971	274.342	75.787	9.250	99.724	-15.919	237.737	129.397	45.471	260.638	228.971	0.00017103	0.00026049	0.00012193	341.73	2.8498e-06	2.7478e-06	485.37	104.78	3.5573e-06	3.5024e-06	177.93	71.456	40.846	23.052	1.5348e-06	41.273	0.00022418	0.00021791	6.1009e-05	328.72	2.316e-06	2.4233e-06	463.67	101.47	2.2949e-06	2.2976e-06	171.02	69.343	39.888	22.649	2.3123e-06	39.875	233.225	63.825	71.900	-16.292	172.969	143.237	-17.615	-9.834	209.291	84.907	-13.834	-7.656	-3.809	1.534	155.040	-3.505	-8191	255	
1275.973	1	1	0	0	0.15413	0.19378	0.077737	0.16176	0.011363	0.075988	0.26184	0.090651	0.25862	0.14151	0.084525	0.23597	0.29756	0.17933	0.070272	0.098539	-2.7771	-2.8937	-3.0083	-3.1292	-2.825	-2.775	-3.0958	-2.6146	-2.9104	-3.0896	-2.9688	-3.0083	-3.0083	-3.1229	-3.2938	-2.8812	228.940	179.666	185.980	214.668	214.016	135.259	270.347	214.800	-22.796	150.191	115.341	14.748	23.943	300.386	308.917	119.664	0.00019388	0.00020533	9.6715e-05	341.86	1.9018e-06	3.3678e-06	482.22	106.44	1.909e-06	4.7836e-06	181.3	72.976	41.604	23.677	5.6297e-06	42.008	0.00022802	0.00021074	6.061e-05	327.65	2.2697e-06	2.3522e-06	463.19	103.33	2.3389e-06	2.25e-06	173.99	70.781	40.932	23.251	2.3695e-06	40.684	235.004	37.130	46.707	-16.198	153.470	106.225	-17.814	-9.799	172.754	132.888	-13.192	-7.500	-4.070	1.452	146.995	-3.612	-8191	255	
1276.045	1	1	0	0	0.28688	0.26033	0.059003	0.12276	0.1512	0.28383	0.032696	0.10641	0.15253	0.15056	0.13385	0.066428	0.21668	0.11792	0.084357	0.23035	-2.5812	-3.2333	-2.8583	-3.1625	-3.1292	-2.8625	-3.2229	-2.8604	-3.05	-3.2083	-2.8729	-3.1542	-2.8292	-3.0583	-3.275	-2.9813	100.381	216.476	249.928	273.987	294.576	141.395	48.374	-20.599	142.971	300.295	194.651	55.891	69.768	227.892	313.384	242.714	0.00020448	0.00027917	5.8873e-05	341.09	2.4077e-06	3.0704e-06	486.03	106.73	1.8078e-06	3.8382e-06	180.01	72.058	41.28	23.193	3.0463e-06	41.405	0.00022381	0.0002088	5.8689e-05	327.47	2.2871e-06	2.2486e-06	464.74	103.6	2.1985e-06	2.2468e-06	173.19	70.047	40.232	22.825	2.2241e-06	39.948	226.307	54.587	88.891	-16.023	161.321	140.617	-17.513	-10.152	135.281	140.385	-13.636	-7.463	-4.198	1.315	127.761	-3.530	-8191	255	
1276.141	1	1	0	0	0.1989	0.27898	0.093552	0.19346	0.15925	0.041317	0.17651	0.098428	0.057121	0.1146	0.090383	0.2516	0.1291	0.25287	0.07578	0.27809	-2.5938	-3.1042	-2.7375	-3.05	-2.8917	-2.7375	-3.1979	-2.9729	-3.1021	-3.1125	-2.8646	-3.1021	-3.1646	-2.8063	-3.4021	-3.0938	99.066	72.976	79.439	108.350	271.709	47.447	107.335	198.789	35.319	191.098	279.151	-1.925	20.044	-23.974	281.702	50.262	0.00017543	0.00018023	0.00012211	338.74	1.0112e-06	4.0793e-06	480.45	106.05	1.6524e-06	3.7535e-06	177.1	71.087	40.346	22.905	3.6894e-06	40.68	0.00021444	0.00019837	5.7705e-05	324.78	2.1982e-06	2.2318e-06	459.37	102.4	2.1894e-06	2.2298e-06	170.79	68.845	39.715	22.588	2.2254e-06	39.36	236.043	53.245	8.152	-16.105	147.520	130.137	-18.011	-9.851	142.725	142.601	-13.331	-7.730	-3.692	1.492	169.146	-3.510	-8191	255	
1276.262	1	1	0	0	0.31558	0.013161	0.23865	0.063101	0.099037	0.2302	0.20522	0.24419	0.23379	0.23764	0.13136	0.095206	0.29319	0.08356	0.10807	0.096691	-2.6375	-3.3312	-2.9062	-3.2708	-3.3396	-2.9542	-2.9625	-2.9042	-2.8521	-3.1312	-2.8312	-3.0563	-3.1167	-3.0938	-3.2313	-3.1063	296.884	202.860	70.459	293.526	137.849	111.771	49.745	317.022	3.702	115.561	122.236	174.733	20.651	252.264	73.492	142.266	0.00020459	9.607e-05	7.6471e-05	339.47	1.8345e-06	2.837e-06	480.85	104.5	7.6809e-07	2.0701e-06	176.46	70.909	40.187	23.024	4.4326e-06	41.087	0.00021729	0.00020459	5.6137e-05	325.34	2.1504e-06	2.2726e-06	460.15	101.15	2.2279e-06	2.2541e-06	169.76	68.69	39.484	22.485	2.233e-06	39.668	224.655	79.006	73.558	-16.459	153.095	125.909	-17.835	-9.970	115.404	143.010	-13.286	-7.208	-4.265	1.603	153.922	-3.437	-8191	255	
1276.356	1	1	0	0	0.17488	0.13732	0.098638	0.10594	0.36508	0.10969	0.098529	0.1463	0.13657	0.17243	0.38462	0.17116	0.063103	0.28986	0.23679	0.070085	-2.45	-3.1688	-2.9354	-3.2229	-3.0729	-2.9062	-3.0417	-2.9562	-2.9896	-3.0917	-3.0521	-3.1583	-3.2562	-2.9021	-2.9333	-3.2125	309.622	137.723	186.839	204.410	11.323	85.645	212.442	289.422	127.601	45.882	319.466	246.548	-19.179	309.891	146.010	13.922	0.00017999	8.8985e-05	0.00011186	337.3	1.321e-06	3.0785e-06	483.13	104.77	1.9907e-06	1.4413e-06	177.97	71.951	40.051	22.827	2.6659e-06	41.068	0.00022021	0.00019807	5.6605e-05	323.91	2.141e-06	2.2125e-06	460.74	101.96	2.1201e-06	2.0957e-06	170.97	69.329	39.264	22.383	2.1948e-06	39.694	233.637	127.928	62.554	-16.018	260.894	133.191	-17.587	-10.153	172.859	110.511	-13.722	-7.757	-4.283	1.602	161.887	-3.536	-8191	255	
1276.452	1	1	0	0	0.17799	0.22709	0.087773	0.21763	0.03142	0.091278	0.17632	0.093532	0.073934	0.091395	0.11076	0.025086	0.076953	0.10393	0.29471	0.21449	-2.5104	-3.1396	-2.8021	-2.9813	-3.3375	-3.0667	-3.1896	-3.1271	-2.7875	-3.2125	-2.9313	-2.9062	-3.075	-2.7375	-2.8688	-3.0896	221.757	63.168	42.294	1.992	61.045	284.748	302.517	-17.604	164.518	-6.042	18.516	224.302	-3.397	76.263	191.303	299.287	0.00018642	0.00036245	3.4379e-05	339.78	1.8316e-06	7.6366e-07	485.07	104.6	2.5435e-06	1.5406e-06	179.85	71.217	39.806	22.483	1.8856e-06	40.463	0.0002099	0.00019849	5.5745e-05	323.87	2.0407e-06	2.0895e-06	462.82	101.44	2.0725e-06	2.1212e-06	171.67	69.012	39.003	22.134	2.1603e-06	39.214	228.514	42.105	53.000	-16.511	168.220	-11.605	-17.146	-9.893	104.690	107.655	-13.315	-7.220	-4.125	1.665	167.023	-3.320	-8191	255	
1276.573	1	1	0	0	0.32944	0.040061	0.14778	0.088828	0.23487	0.087882	0.27202	0.11041	0.21895	0.2661	0.21424	0.21264	0.16679	0.30427	0.10292	0.54356	-2.5625	-3.1292	-3.0958	-2.9729	-3.2021	-2.9688	-3.2354	-3.2083	-3.0208	-3.2042	-2.9208	-2.8833	-3.1875	-3.1771	-3.2042	-3.2146	93.707	313.092	165.752	211.921	179.899	324.913	240.167	269.104	178.653	-20.390	64.072	174.280	301.305	-26.053	258.681	25.427	0.00018818	0.00035373	6.3415e-05	337.11	1.8465e-06	4.4955e-06	484.55	102.62	2.5616e-06	2.1435e-06	175.43	69.29	38.558	21.511	2.647e-06	39.225	0.00021082	0.00019521	5.4511e-05	323.73	2.1146e-06	2.1795e-06	461.89	99.757	2.0934e-06	2.0571e-06	168.44	67.154	37.55	21.189	2.1272e-06	37.919	230.556	96.884	38.718	-16.112	240.239	150.396	-17.361	-9.742	158.020	157.211	-13.442	-7.009	-4.123	1.498	227.672	-3.220	-8191	255	
1276.644	1	1	0	0	0.049578	0.067423	0.066292	0.20006	0.17553	0.075123	0.20051	0.18652	0.20084	0.18834	0.35622	0.21669	0.21431	0.085007	0.09571	0.18614	-2.4292	-3.1833	-3.1437	-3.0146	-3.1604	-2.9188	-2.8937	-3.2125	-2.9813	-3.2667	-3.0563	-2.775	-3.15	-3.025	-3.0333	-3.3458	321.788	106.152	181.734	-25.647	292.279	331.654	292.380	230.195	203.272	108.783	176.812	261.114	200.829	224.941	44.066	152.571	0.00019264	0.00021025	3.8634e-05	339.82	8.0061e-07	3.1146e-06	485.52	100.37	1.4662e-06	1.6348e-06	174.03	68.427	37.407	21.197	2.3366e-06	39.301	0.00021321	0.00019876	5.4336e-05	324.72	2.165e-06	2.1221e-06	463.54	96.901	2.1366e-06	2.1136e-06	166.32	66.211	36.722	20.82	2.1719e-06	37.835	230.378	63.693	109.580	-16.447	143.031	164.155	-17.790	-10.215	163.727	3.485	-13.698	-7.174	-4.138	1.930	190.005	-3.351	-8191	255	
1276.741	1	1	0	0	0.14816	0.2354	0.13027	0.11747	0.2465	0.22059	0.1662	0.12211	0.2276	0.25079	0.13732	0.12624	0.12451	0.17068	0.21186	0.24071	-2.5646	-2.9792	-3.0083	-2.8479	-3.0667	-2.9042	-2.8563	-3.1771	-2.9583	-2.9896	-3.4938	-2.8688	-3.2458	-2.8292	-2.8833	-3.2438	146.838	153.575	299.291	182.219	219.864	317.104	278.202	282.775	312.847	83.950	329.336	209.003	17.730	-22.499	129.728	211.652	0.00020535	0.00036108	8.7678e-06	337.67	3.9818e-06	1.0989e-06	487.39	100.94	1.7212e-06	3.2794e-06	173.07	68.642	37.278	21.062	4.5747e-06	38.886	0.00020508	0.00019965	5.5422e-05	325.57	2.2e-06	2.1574e-06	466.2	98.07	2.2355e-06	2.2086e-06	167.7	66.774	36.702	20.736	2.2636e-06	37.58	234.900	81.356	151.473	-16.197	167.103	92.766	-17.644	-9.904	188.115	96.506	-13.537	-7.109	-4.006	1.787	159.250	-3.547	-8191	255	
1276.837	1	1	0	0	0.19511	0.060365	0.062547	0.12099	0.045626	0.10595	0.16622	0.075181	0.10245	0.14344	0.25113	0.011978	0.12261	0.20868	0.075887	0.17912	-2.4667	-3.0479	-3.1167	-2.9583	-3.2146	-3.0625	-2.8854	-3.2	-3.1333	-3.0875	-3.3396	-2.9583	-3.075	-3.1792	-2.95	-3.1458	127.319	185.271	-9.939	260.653	68.243	293.815	126.470	240.593	55.983	243.933	267.140	185.114	325.045	-5.164	-17.577	115.794	0.00017521	0.00023429	4.1726e-05	340.64	2.6959e-06	3.268e-06	491.4	97.579	3.1321e-06	1.7235e-06	170.17	66.466	35.229	19.648	1.4432e-06	37.008	0.00021681	0.00020119	5.3861e-05	326.5	2.2226e-06	2.2343e-06	469.7	94.65	2.3011e-06	2.2588e-06	163.56	64.192	34.729	19.396	2.293e-06	35.793	232.718	83.781	146.481	-16.284	178.615	160.859	-17.434	-10.207	171.363	159.132	-13.386	-7.446	-4.078	1.602	135.805	-3.192	-8191	255	
1276.957	1	1	0	0	0.32135	0.098973	0.11837	0.17182	0.19914	0.10816	0.31234	0.02207	0.23491	0.14642	0.25743	0.095576	0.044337	0.22689	0.11255	0.14862	-2.4083	-2.8	-3.2146	-3.0583	-3.2708	-3.1667	-2.8083	-3.0687	-2.9104	-2.85	-3.3063	-2.9688	-3.1625	-2.9562	-2.8375	-3.025	-11.585	286.922	218.410	299.530	17.490	116.100	259.746	82.156	142.181	300.450	187.335	7.391	250.773	242.005	303.815	187.067	0.00018637	0.00022546	1.5156e-05	340.4	3.5115e-06	3.5163e-06	492.82	94.27	2.5448e-06	2.5397e-06	165.67	63.902	33.741	18.89	2.5376e-06	35.707	0.0002125	0.00020542	5.6678e-05	327.41	2.1981e-06	2.2997e-06	471.37	91.42	2.2167e-06	2.2713e-06	159.69	62.073	33.225	18.613	2.3398e-06	34.532	234.318	84.569	145.863	-16.466	159.801	122.797	-17.837	-10.241	123.198	160.286	-13.004	-7.196	-3.525	2.128	84.425	-3.085	-8191	255	
1277.053	1	1	0	0	0.099103	0.10176	0.11536	0.17154	0.12734	0.34351	0.21666	0.19741	0.074153	0.24292	0.11609	0.15967	0.22836	0.057058	0.2214	0.1873	-2.6375	-3.0042	-3.3063	-2.9042	-3.05	-3.1083	-2.6229	-3.1792	-3.125	-2.9833	-3.3646	-2.9729	-2.9625	-3.2125	-2.925	-2.9854	247.170	-17.558	78.157	99.732	17.352	-18.226	282.876	199.433	184.150	271.404	221.345	9.710	62.686	263.538	158.464	307.453	0.00018998	0.00030071	2.0024e-05	343.49	1.7793e-06	2.5089e-06	490.31	94.162	1.9226e-06	3.4827e-06	165.08	64.154	35.298	19.614	3.5584e-06	36.473	0.00022244	0.00021379	5.8863e-05	329.26	2.2057e-06	2.3479e-06	468.56	91.816	2.2723e-06	2.3326e-06	159.63	62.592	34.512	19.296	2.3189e-06	35.338	232.100	95.477	53.500	-16.713	69.190	88.448	-17.789	-10.149	141.685	75.217	-13.371	-7.283	-4.052	1.480	152.737	-3.252	-8191	255	
1277.150	1	1	0	0	0.34134	0.27589	0.16645	0.25482	0.22525	0.030955	0.23617	0.054473	0.088647	0.085563	0.21929	0.028347	0.19853	0.086036	0.089465	0.18101	-2.5896	-2.8167	-3.2167	-2.8125	-3.0479	-3.3271	-3.0125	-3.1604	-2.7854	-2.8521	-3.3271	-3.1458	-2.95	-3.075	-2.8917	-3.1688	62.196	122.390	59.614	135.228	214.962	217.168	305.174	190.799	175.866	159.077	226.969	198.921	45.324	209.741	197.098	125.938	0.00015164	0.00025808	4.2543e-05	340.56	1.8488e-06	1.9969e-06	486.27	95.612	1.813e-06	1.0923e-06	168.01	65.126	34.928	19.638	1.5394e-06	36.332	0.00021658	0.00020871	5.8373e-05	326.6	2.2472e-06	2.2429e-06	465.08	92.989	2.2531e-06	2.2001e-06	161.42	62.956	34.398	19.263	2.3106e-06	35.279	226.804	75.356	73.983	-16.523	171.432	173.280	-18.155	-10.216	163.709	72.258	-13.542	-7.342	-4.377	2.049	118.209	-2.993	-8191	255	
1277.246	1	1	0	0	0.28339	0.16143	0.44195	0.048106	0.10848	0.020815	0.16821	0.1315	0.27256	0.30103	0.18216	0.28395	0.11934	0.056048	0.11236	0.04563	-2.9146	-2.8542	-3.0896	-3.0062	-3.025	-3.2833	-2.8083	-3.3042	-3.05	-2.9229	-3.4062	-3.0854	-2.9375	-3.1708	-3.1042	-3.0667	5.741	101.785	229.420	126.332	283.252	85.129	199.082	-9.852	-14.368	-19.635	251.488	322.048	326.209	127.615	26.890	196.007	0.00017691	0.00040223	8.921e-05	343.01	1.4315e-06	3.4693e-06	488.69	96.09	8.0078e-07	4.3634e-06	168.29	65.905	35.526	19.886	4.5883e-06	37.224	0.00021653	0.00021171	5.6725e-05	327.04	2.2213e-06	2.223e-06	466.75	93.211	2.2396e-06	2.2508e-06	162.14	63.846	34.791	19.581	2.1765e-06	35.982	230.071	66.943	26.501	-16.361	172.088	177.273	-17.671	-10.089	146.759	125.949	-13.605	-7.078	-3.945	2.264	149.162	-3.101	-8191	255	
1277.340	1	1	0	0	0.1709	0.044336	0.46115	0.072019	0.20357	0.32657	0.075962	0.11532	0.040377	0.26552	0.15291	0.27639	0.085175	0.2001	0.21846	0.11454	-2.7	-2.6958	-2.9938	-3.0521	-3.0521	-3.3083	-3.1979	-2.9896	-3.2396	-2.7875	-3.0062	-2.9604	-3.0208	-3.2583	-3.0604	-3.0083	47.795	200.931	158.290	117.270	72.356	51.118	287.462	230.227	289.336	5.779	181.964	212.720	174.272	234.990	6.647	161.196	0.00018236	0.00035418	7.8159e-05	338.39	4.3065e-06	1.8567e-06	486.79	97.689	7.7849e-07	2.5033e-06	170.5	66.752	36.417	20.512	5.4524e-06	38.041	0.00020907	0.00020208	5.6402e-05	324.67	2.1803e-06	2.1642e-06	465.72	94.857	2.1988e-06	2.2372e-06	164.56	64.859	35.816	20.251	2.1991e-06	36.778	228.625	91.504	61.480	-16.272	203.598	136.337	-18.205	-10.063	-3.001	91.924	-13.577	-7.405	-4.491	1.676	148.422	-3.138	-8191	255	
1277.436	1	1	0	0	0.13357	0.10471	0.11928	0.40814	0.041037	0.20916	0.14363	0.057327	0.16758	0.12692	0.14424	0.25269	0.22424	0.050255	0.1706	0.15758	-2.9562	-2.8	-3.1042	-3.1063	-3.0083	-3.2479	-3.0583	-3.1188	-3.1083	-2.9875	-2.9917	-3.1667	-2.8583	-3.2	-3.1813	-2.8792	251.626	250.907	275.569	280.920	29.312	29.944	301.196	253.247	104.004	325.639	54.328	288.737	258.109	77.375	42.043	316.188	0.00017549	0.00023812	0.00013334	339.82	2.1607e-06	2.522e-06	486.1	98.136	9.409e-07	4.0124e-06	172.51	68.049	37.022	21.052	5.8772e-06	39.033	0.00020499	0.00019929	5.6438e-05	324.3	2.1816e-06	2.1125e-06	464.39	95.593	2.139e-06	2.1698e-06	165.4	65.676	36.361	20.656	2.1602e-06	37.74	236.197	122.082	52.644	-16.524	233.778	109.657	-17.519	-10.036	196.681	58.528	-13.686	-7.267	-4.123	2.122	171.618	-3.393	-8191	255	
1277.532	1	1	0	0	0.21994	0.17098	0.13868	0.10405	0.11337	0.070255	0.12167	0.14846	0.19699	0.10363	0.16289	0.028547	0.2016	0.07057	0.4098	0.15396	-2.8125	-3.0021	-3.1396	-3.0771	-2.9833	-3.275	-3.2292	-3.0687	-3.4125	-2.8583	-2.9562	-3.2062	-3.0062	-3.2146	-2.9688	-3.0854	32.064	42.150	21.899	270.758	280.744	251.696	231.194	125.316	141.472	54.971	-24.351	234.693	225.648	121.353	291.960	282.939	0.00015574	0.00028003	3.198e-05	337.3	3.3122e-06	2.9424e-06	488.36	101.91	1.5675e-06	1.8823e-06	174.93	69.221	38.39	21.695	3.7896e-06	39.813	0.0002086	0.00019763	5.5338e-05	325.06	2.1507e-06	2.2039e-06	467.1	98.827	2.2251e-06	2.2673e-06	169.01	67.304	37.633	21.367	2.3145e-06	38.434	235.467	24.205	69.237	-16.289	180.250	104.121	-17.902	-9.979	172.598	151.373	-13.395	-7.456	-3.927	1.705	176.226	-3.354	-8191	255	
1277.653	1	1	0	0	0.0871	0.30059	0.14666	0.030369	0.08207	0.1256	0.30795	0.25824	0.4529	0.21407	0.14382	0.032438	0.27788	0.15622	0.2563	0.20601	-2.6188	-2.8583	-3.125	-3.3521	-2.7979	-3.1188	-3.0563	-2.7833	-3.1396	-3.1979	-3.0375	-3.1958	-2.7146	-3.15	-3.3521	-2.7875	207.990	290.714	14.938	200.546	-5.350	145.470	276.827	269.688	14.691	-18.377	90.943	-22.428	226.710	54.990	94.239	255.999	0.00017963	0.00039313	8.4035e-05	340.46	2.6885e-06	1.6357e-06	490.61	101.06	1.7943e-06	2.202e-06	175.09	69.292	37.845	21.133	4.1758e-06	38.538	0.0002181	0.00020373	5.5687e-05	325.78	2.2202e-06	2.1869e-06	468.07	98.817	2.2503e-06	2.2747e-06	168.61	67.006	37.047	20.748	2.257e-06	37.382	223.104	62.971	92.785	-16.169	172.250	136.795	-17.792	-10.031	177.479	100.135	-13.537	-7.307	-4.054	1.828	197.098	-3.532	-8191	255	
1277.749	1	1	0	0	0.0815	0.022058	0.079262	0.14577	0.10318	0.18729	0.092046	0.069889	0.077062	0.17279	0.07342	0.13947	0.1301	0.22996	0.2118	0.18577	-2.7396	-2.8604	-2.875	-3.3854	-2.8333	-3.1188	-3.05	-2.7	-3.1	-2.9583	-2.9458	-3.1063	-2.7646	-3.1312	-3.1604	-2.9667	278.002	166.652	-5.197	269.117	-14.046	253.011	217.730	79.262	182.156	237.982	124.684	301.514	258.023	262.308	93.623	106.199	0.00019538	0.00028533	5.3824e-05	343.22	3.4296e-06	4.3522e-06	494.62	99.741	1.675e-06	5.0643e-06	174.04	68.653	37.034	20.652	3.0955e-06	38.645	0.00021838	0.00020703	5.7164e-05	327.62	2.212e-06	2.2627e-06	472.09	96.363	2.1886e-06	2.2627e-06	166.83	66.199	36.368	20.405	2.2781e-06	37.323	232.037	47.878	75.582	-16.304	158.691	92.498	-17.541	-10.193	201.483	115.333	-13.512	-7.168	-3.942	1.905	132.804	-3.224	-8191	255	
1277.845	1	1	0	0	0.14419	0.19141	0.12475	0.1996	0.015448	0.31579	0.1952	0.081992	0.029298	0.20797	0.1958	0.19831	0.2168	0.21895	0.2606	0.085494	-2.6167	-2.95	-2.9562	-3.0708	-3.0375	-3.1333	-3.2979	-2.6604	-3.0625	-3.1146	-2.8438	-3.3042	-2.8917	-2.9062	-3.2812	-2.9625	86.574	3.305	281.257	140.398	240.403	237.616	-24.924	8.539	163.216	272.075	272.193	53.116	260.132	314.243	74.716	325.654	0.00017692	0.00042212	2.9858e-05	340.4	2.243e-06	1.7493e-06	488.26	99.265	1.9717e-06	4.7431e-06	173.42	68.623	36.755	20.771	2.2722e-06	38.706	0.00021761	0.00020757	5.7074e-05	326.71	2.2116e-06	2.2286e-06	468.98	96.289	2.2136e-06	2.2019e-06	166.61	66.114	36.228	20.503	2.2327e-06	37.455	225.379	56.871	66.645	-16.311	218.223	127.345	-17.705	-9.968	148.911	126.558	-13.577	-7.126	-4.171	1.864	180.417	-3.201	-8191	255	
1277.942	1	1	0	0	0.16889	0.15688	0.11385	0.11237	0.17163	0.17872	0.12408	0.25063	0.039866	0.25446	0.1388	0.17357	0.18393	0.25896	0.26904	0.17255	-2.8229	-2.9313	-2.9021	-3.1104	-2.825	-2.7188	-3.2479	-2.8896	-3.0667	-3.1125	-2.8208	-3.1708	-3.0896	-3.1104	-3.0854	-3.0417	291.644	28.166	267.860	178.099	115.118	204.001	273.506	78.069	-17.521	143.903	29.881	98.157	106.630	27.864	11.163	23.710	0.00018885	0.00026762	0.00012681	338.59	2.1865e-06	2.2175e-06	490.04	102.77	1.5167e-06	4.366e-06	177.81	70.176	38.619	21.818	2.976e-06	39.789	0.00021689	0.00019974	5.4772e-05	326.01	2.1579e-06	2.1836e-06	467.39	99.296	2.2161e-06	2.2524e-06	170.64	67.811	38.076	21.549	2.2958e-06	38.499	233.717	66.034	30.900	-16.398	156.015	155.652	-17.839	-10.434	98.908	96.115	-13.427	-7.466	-4.228	1.701	155.419	-3.796	-8191	255	
1278.038	1	1	0	0	0.22727	0.14692	0.087016	0.10672	0.2554	0.30632	0.18678	0.1234	0.29863	0.12642	0.10931	0.32728	0.11746	0.058472	0.18602	0.071401	-2.6146	-3.2021	-2.625	-2.9958	-3.0312	-3.0083	-3.3063	-3.0187	-3.2458	-3.2292	-2.6917	-3.175	-3	-2.7375	-3.3229	-3.1771	190.150	238.423	156.229	-8.023	140.983	297.966	165.013	-27.557	191.743	199.236	80.153	175.686	127.220	-27.626	40.157	-2.865	0.00018861	0.0003558	0.00010411	340.97	7.7838e-07	1.5746e-06	488.7	103.16	6.4028e-07	2.1747e-06	177.87	70.359	39.349	22.124	1.0048e-06	40.508	0.0002224	0.00021085	5.8199e-05	326.8	2.2134e-06	2.2656e-06	468.33	99.947	2.2093e-06	2.2088e-06	171.05	68.406	38.461	21.807	2.1884e-06	39.124	240.717	88.974	11.365	-16.404	73.707	169.161	-17.882	-10.488	136.939	130.478	-13.345	-7.441	-4.172	1.942	206.796	-3.364	-8191	255	
1278.134	1	1	0	0	0.029218	0.18804	0.14059	0.1486	0.12043	0.19125	0.050624	0.30451	0.32283	0.15809	0.11116	0.22286	0.24156	0.26419	0.16704	0.056788	-2.6875	-3.1771	-2.8333	-2.9917	-2.9708	-2.8187	-3.3646	-3.2208	-3.0104	-3.1688	-2.9979	-3.2375	-3.1271	-2.7896	-3.2104	-2.9583	68.504	157.100	47.198	291.555	134.349	180.212	308.331	14.403	105.023	231.458	223.048	84.627	237.211	-20.655	165.864	287.620	0.00017398	0.00015743	0.00011007	339.64	2.895e-06	4.6379e-06	489.32	106.68	1.7217e-06	2.779e-06	184.54	73.688	41.894	23.873	2.3238e-06	43.341	0.00021084	0.00020107	5.6631e-05	325.74	2.2153e-06	2.2044e-06	467.78	103.22	2.2262e-06	2.1899e-06	176.77	71.665	40.937	23.472	2.2482e-06	41.76	229.628	50.967	59.516	-16.052	148.104	116.451	-17.619	-9.845	192.358	79.676	-13.500	-7.355	-4.199	1.265	120.428	-3.690	-8191	255	
1278.254	1	1	0	0	0.21166	0.031069	0.14004	0.088657	0.17477	0.38467	0.10413	0.11861	0.29902	0.095368	0.11962	0.096568	0.3013	0.14726	0.17578	0.14728	-2.4729	-3.1958	-2.9625	-3.0854	-3.0812	-2.6583	-3.1312	-3.0187	-3.0687	-3.15	-2.9125	-3.2562	-3.0438	-2.6688	-3.1	-3.0208	83.485	153.321	182.223	168.857	144.695	-25.990	124.248	211.300	154.582	-19.294	318.792	2.730	86.476	81.876	198.852	285.142	0.0001682	0.00030425	5.0648e-05	345.12	1.5589e-06	3.7207e-06	492.44	112.45	2.4545e-06	2.3578e-06	192.12	77.225	43.561	24.638	1.6886e-06	43.562	0.00022581	0.00020785	5.7081e-05	330.34	2.2673e-06	2.3404e-06	471.42	109.45	2.286e-06	2.28e-06	183.25	74.577	42.692	24.21	2.3272e-06	42.235	232.209	56.285	131.501	-16.230	142.984	125.010	-17.771	-9.693	140.534	154.998	-13.260	-7.533	-4.243	1.414	128.301	-3.923	-8191	255	
1278.351	1	1	0	0	0.051574	0.1599	0.086084	0.18696	0.18982	0.17614	0.26974	0.098478	0.21296	0.046409	0.18991	0.28751	0.14206	0.13937	0.18416	0.23534	-2.5792	-3.0771	-2.7458	-3.1667	-3.0083	-2.7271	-3.0229	-3.0625	-2.85	-3.2833	-2.8937	-3.1667	-3.2938	-2.85	-3.1833	-2.9938	198.105	277.998	64.702	41.250	269.092	213.794	292.893	184.489	137.400	116.019	120.511	-10.467	168.851	254.979	47.189	203.103	0.00020646	0.00027134	7.613e-05	343.51	1.7647e-06	2.3659e-06	490.88	108.33	9.7093e-07	2.1905e-06	184.21	73.166	40.087	22.723	2.6598e-06	40.611	0.00022629	0.00020843	5.9677e-05	329.91	2.2437e-06	2.2635e-06	469.95	105.38	2.1992e-06	2.1648e-06	176.53	70.621	39.581	22.361	2.1598e-06	39.372	220.830	48.687	80.933	-15.793	194.777	135.852	-17.428	-10.112	164.770	117.038	-13.907	-6.939	-3.983	1.408	153.537	-3.879	-8191	255	
1278.445	1	1	0	0	0.26256	0.081286	0.14693	0.11699	0.045566	0.18072	0.037384	0.21032	0.059936	0.1213	0.21502	0.12679	0.16369	0.26575	0.20591	0.35554	-2.6458	-3.2417	-2.9667	-3.0104	-3.1229	-2.7521	-3.2042	-3.1104	-3.1104	-3.2542	-2.9104	-3.2104	-3.2917	-2.8208	-2.9792	-3.0667	144.764	306.783	184.474	278.608	159.014	19.761	45.078	277.657	259.638	297.264	299.183	295.684	198.561	280.147	272.794	232.401	0.00017024	0.00045191	3.9455e-05	340.52	1.4618e-06	4.4677e-06	490.08	103.26	3.1602e-06	3.1415e-06	177.91	70.319	38.531	21.661	4.4346e-06	39.646	0.00021609	0.00020163	5.5694e-05	325.75	2.2121e-06	2.1753e-06	468.59	100.26	2.2582e-06	2.1822e-06	171.12	67.903	37.799	21.4	2.1896e-06	38.321	225.988	64.674	59.814	-16.085	192.370	171.284	-17.690	-9.929	182.964	88.462	-13.662	-7.280	-4.256	1.589	166.448	-3.446	-8191	255	
1278.541	1	1	0	0	0.22736	0.14475	0.087424	0.24178	0.20868	0.037307	0.17118	0.24752	0.10711	0.14524	0.047245	0.1459	0.22842	0.30555	0.24761	0.098546	-2.4792	-3.1312	-3.1437	-3.1021	-3.3063	-2.9833	-3.0625	-3.2729	-3.0917	-3.1875	-3.1333	-2.7229	-3.2521	-2.8125	-3.15	-3.3333	65.759	314.246	240.181	311.996	191.322	-19.427	300.842	321.492	233.494	327.081	139.584	210.410	313.302	200.098	138.074	47.864	0.00018404	0.00029002	5.9704e-05	339.62	3.299e-06	3.1356e-06	489.99	101.26	1.8357e-06	2.8828e-06	175.63	69.797	38.461	21.773	2.5718e-06	39.953	0.00022045	0.00019804	5.5926e-05	326.05	2.196e-06	2.2552e-06	469.25	98.72	2.2827e-06	2.2009e-06	169.61	67.63	37.678	21.39	2.2309e-06	38.672	223.929	45.874	45.534	-16.122	187.809	105.702	-17.645	-10.218	162.811	120.085	-13.200	-7.539	-4.365	1.572	139.918	-3.830	-8191	255	
1278.637	1	1	0	0	0.11582	0.18915	0.14401	0.14523	0.17039	0.018792	0.041098	0.13765	0.32584	0.17886	0.2809	0.040383	0.12218	0.29174	0.21843	0.15632	-2.5625	-3.1146	-2.925	-3.0542	-3.2417	-3.025	-3.2167	-3.3146	-2.7917	-3.1813	-3.05	-2.6937	-3.1042	-2.9021	-2.9167	-3.2771	277.875	107.455	-19.567	192.700	135.643	167.278	109.278	242.786	49.734	152.675	86.502	226.113	325.480	297.503	282.451	29.751	0.00016508	0.0002347	6.7183e-05	340.07	2.9382e-06	4.912e-06	496.25	103.72	2.7106e-06	2.6417e-06	179.58	72.132	39.333	22.436	3.2249e-06	41.2	0.00021283	0.00020671	5.7291e-05	326.06	2.1659e-06	2.2878e-06	470.35	100.49	2.3007e-06	2.2913e-06	173.09	69.571	38.851	22.112	2.3218e-06	39.783	236.399	57.042	91.240	-16.352	207.168	148.354	-17.910	-10.710	194.313	97.297	-13.373	-7.404	-4.390	1.490	149.110	-3.345	-8191	255	
1278.733	1	1	0	0	0.18045	0.044516	0.051958	0.09297	0.045028	0.097598	0.023408	0.36069	0.15132	0.21825	0.19724	0.18404	0.1171	0.041283	0.090769	0.33577	-2.5708	-3.2104	-2.9333	-2.8563	-3.1063	-2.95	-3.0208	-3.2562	-2.8937	-3.0563	-3.1979	-2.9562	-3.1229	-3.0167	-3.0687	-3.3396	143.508	253.478	149.109	140.633	6.034	38.274	315.782	287.821	163.859	206.805	45.045	302.154	8.512	51.542	281.419	274.164	0.0001423	0.00021038	9.6569e-05	341.35	2.1386e-06	2.5072e-06	492.09	106.56	1.5357e-06	5.4037e-06	184.02	72.58	40.154	22.55	5.9637e-06	40.944	0.00022501	0.00021747	5.8312e-05	327.91	2.291e-06	2.3187e-06	471.68	103.17	2.2345e-06	2.2454e-06	175.7	70.346	39.493	22.211	2.3579e-06	39.681	236.808	81.304	56.918	-16.072	139.337	137.174	-17.674	-10.044	155.845	128.562	-13.415	-7.329	-4.224	1.586	160.758	-3.382	-8191	255	
1278.830	1	1	0	0	0.16009	0.11531	0.13219	0.13318	0.10615	0.053704	0.14409	0.14125	0.12229	0.18859	0.21771	0.21929	0.23414	0.28896	0.16907	0.15046	-2.5312	-3.25	-3.2271	-3.0042	-3.1625	-3.0479	-2.9437	-3.2375	-2.8438	-3.0104	-3.1146	-2.8542	-2.9833	-2.8708	-2.8354	-3.325	242.643	69.468	242.783	57.540	142.583	-15.565	224.540	94.742	327.773	143.130	201.518	-18.653	-3.328	257.611	290.671	296.969	0.00019252	0.00028268	7.5827e-05	342.33	2.9936e-06	4.2537e-06	496.15	103.85	1.329e-06	2.9724e-06	177.29	68.906	38.288	21.47	3.3179e-06	38.989	0.0002169	0.00020422	5.9328e-05	328.88	2.2691e-06	2.3615e-06	471.97	100.8	2.2408e-06	2.2894e-06	170.64	67.165	37.36	21.036	2.2957e-06	37.687	236.008	81.975	44.603	-15.895	174.314	147.886	-17.756	-10.426	135.203	97.606	-13.206	-7.340	-4.074	1.298	159.700	-3.427	-8191	255	
1278.926	1	1	0	0	0.070811	0.10002	0.17231	0.12797	0.12388	0.32047	0.061999	0.18271	0.2686	0.22328	0.071071	0.1817	0.1735	0.24521	0.14763	0.23128	-2.4479	-2.9417	-3.2604	-2.8729	-3.2562	-3.0938	-2.9042	-3.3812	-2.9792	-3.0625	-3.1479	-2.6875	-2.9917	-3.0729	-2.9479	-3.2146	114.442	51.068	3.649	1.003	46.007	66.897	275.316	119.257	188.003	23.197	99.347	-8.371	264.059	-9.655	260.971	261.288	0.00016446	0.000226	0.00011413	341.59	8.2336e-07	1.6956e-06	489.54	103.73	3.3766e-06	2.2412e-06	181.13	72.126	40.228	22.811	2.5207e-06	41.578	0.00021591	0.0002109	5.6896e-05	326.81	2.2038e-06	2.2001e-06	468.72	100.93	2.132e-06	2.2458e-06	174.09	69.806	39.54	22.403	2.3228e-06	40.097	222.378	37.833	40.244	-16.527	55.694	179.190	-17.461	-9.929	182.633	88.483	-14.067	-7.258	-4.281	1.390	209.655	-3.457	-8191	255	
1279.022	1	1	0	0	0.13468	0.067912	0.3369	0.049515	0.2668	0.17739	0.099608	0.14376	0.12065	0.089465	0.52386	0.22834	0.30261	0.13629	0.17235	0.21188	-2.4646	-2.7833	-3.2604	-2.9604	-2.9896	-3.2479	-2.7479	-3.2333	-2.9167	-3.0604	-3.3229	-2.9854	-3.025	-3.3229	-2.9979	-3.2562	158.765	223.399	245.836	308.200	-24.616	44.547	104.560	-16.322	275.590	57.497	15.495	314.296	251.661	223.330	49.483	10.960	0.00020117	0.00040468	3.3144e-05	344.84	3.3285e-06	6.5425e-06	494.21	107.34	2.292e-06	2.5169e-06	183.64	72.397	40.439	22.809	1.9766e-06	41.084	0.00022864	0.00021478	5.8551e-05	329.17	2.2432e-06	2.3213e-06	472.29	104.07	2.2354e-06	2.3136e-06	176.3	70.511	39.703	22.385	2.2299e-06	39.871	225.155	34.518	122.824	-16.030	175.903	144.906	-17.491	-10.060	143.687	178.432	-13.837	-7.622	-4.143	1.707	153.100	-3.603	-8191	255	
1279.143	1	1	0	0	0.09284	0.17036	0.10565	0.32596	0.0454	0.06369	0.31386	0.25313	0.16163	0.21795	0.282	0.045547	0.33915	0.10997	0.19522	0.048342	-2.7083	-2.8271	-3.4021	-2.7792	-3.2812	-3.2208	-2.7854	-3.1708	-3.15	-2.6917	-3.1104	-2.825	-2.9896	-3.2125	-2.9708	-3.1896	-1.312	94.076	-0.761	326.595	127.042	290.842	330.779	292.342	50.600	-11.247	-21.521	238.244	1.932	174.083	-3.526	201.685	0.00017032	0.00020912	5.8169e-05	342.54	2.0414e-06	3.5844e-06	494.87	106.81	1.3175e-06	3.2228e-06	186.18	74.163	41.414	23.489	2.679e-06	42.938	0.00021227	0.00020313	5.6584e-05	327.69	2.2376e-06	2.2081e-06	471.38	103.45	2.1433e-06	2.2025e-06	178.32	71.842	40.667	23.117	2.1364e-06	41.431	233.324	41.117	106.148	-16.000	177.943	90.064	-17.640	-10.198	158.884	116.776	-13.375	-7.430	-4.288	1.468	139.268	-3.655	-8191	255	
1279.214	1	1	0	0	0.095637	0.22761	0.20432	0.13112	0.034377	0.18024	0.043688	0.12979	0.11754	0.17688	0.067808	0.078826	0.12093	0.19885	0.12503	0.24825	-2.5833	-2.9417	-3.2188	-2.9604	-2.7333	-3.2687	-2.6854	-3.0438	-2.8979	-2.9313	-3.1188	-2.9542	-3.0187	-3.2104	-2.9771	-3.0792	196.323	211.808	314.496	144.871	264.820	307.971	225.534	178.179	108.067	149.055	53.752	207.329	29.498	28.395	-3.487	106.530	0.00018983	0.00041934	9.2095e-05	342.43	1.9314e-06	3.1854e-06	492.39	110.35	1.0751e-06	9.2958e-07	189.66	75.51	43.013	24.26	2.8867e-06	43.29	0.00020597	0.00020304	5.3679e-05	326.79	2.1415e-06	2.085e-06	470.76	107.08	2.0862e-06	2.1753e-06	181.24	73.062	41.797	23.847	2.101e-06	41.926	238.509	34.535	72.723	-16.459	149.920	121.075	-17.305	-10.183	218.449	118.091	-13.730	-7.664	-4.100	1.182	163.076	-3.610	-8191	255	
1279.335	1	1	0	0	0.15638	0.1182	0.10975	0.28513	0.12623	0.20126	0.098002	0.34884	0.093286	0.092047	0.29029	0.23666	0.168	0.14285	0.15171	0.28998	-2.5458	-2.625	-2.9896	-2.9229	-3.0021	-3.1833	-2.8917	-3.0563	-3.1375	-2.85	-3.3104	-2.9646	-2.8604	-3.2542	-3.2188	-3.2125	158.643	5.131	-5.954	231.504	167.472	94.586	169.518	-16.141	169.789	105.974	298.822	262.550	308.881	158.448	299.961	232.993	0.00017135	0.00014414	9.485e-05	341.48	4.4589e-06	1.3135e-06	494.54	111.39	8.2953e-07	3.9754e-06	189.69	75.444	42.999	24.575	2.9579e-06	43.551	0.00020836	0.00019635	5.2191e-05	327.42	2.0963e-06	2.1191e-06	471.08	107.96	2.1781e-06	2.1186e-06	181.77	73.209	42.132	24.055	2.1974e-06	42.265	225.436	92.881	2.094	-16.157	146.150	150.223	-17.350	-10.272	178.490	132.816	-13.607	-7.359	-4.204	0.986	119.552	-3.851	-8191	255	
1279.429	1	1	0	0	0.1188	0.26636	0.068811	0.055292	0.069787	0.17886	0.1372	0.090151	0.21912	0.089327	0.042459	0.1825	0.061114	0.062392	0.1167	0.096528	-2.725	-2.7687	-3.05	-3.1312	-3.0375	-3.2104	-3.1625	-3.1146	-3.0729	-2.9333	-3.0542	-3.125	-2.9313	-3.3167	-3.0042	-3.0771	296.494	328.038	36.216	2.027	114.719	13.661	-16.507	151.810	257.363	218.939	297.014	249.429	-12.969	301.840	20.190	7.151	0.00017549	0.00036819	7.2884e-05	342.69	3.4136e-06	4.0909e-06	497.61	113.96	3.605e-06	1.8079e-06	192.42	76.853	43.649	24.928	4.2276e-06	44.138	0.00021191	0.00020126	5.6456e-05	329.81	2.1788e-06	2.1499e-06	474.18	110.3	2.1534e-06	2.1582e-06	183.5	74.495	42.87	24.44	2.1138e-06	42.683	230.077	59.190	64.924	-15.892	170.619	109.452	-17.936	-9.880	162.202	97.637	-13.447	-7.886	-4.303	1.202	156.949	-3.501	-8191	255	
1279.525	1	1	0	0	0.23122	0.0854	0.29999	0.1297	0.12525	0.14581	0.27053	0.19308	0.27286	0.13159	0.12628	0.11747	0.093532	0.1206	0.21297	0.072648	-2.7125	-2.6312	-2.9604	-3.1271	-2.8167	-3.1083	-3.0646	-3.1375	-3.2062	-3.0896	-3.1562	-2.8937	-2.7979	-3.1688	-3.0708	-3.0979	221.219	228.553	214.926	227.693	20.720	-27.435	255.379	263.854	201.441	-16.922	303.942	-15.748	206.478	203.129	149.051	139.220	0.00017374	0.00022634	9.8986e-05	343.84	1.7597e-06	3.6209e-06	498.65	113.62	8.0419e-07	3.4556e-06	192.94	77.02	43.639	24.896	4.4996e-06	44.503	0.00021718	0.00019729	5.6515e-05	329.68	2.1729e-06	2.1562e-06	474.73	110.17	2.1413e-06	2.1823e-06	183.8	74.466	42.747	24.468	2.1577e-06	42.967	231.978	60.554	80.002	-15.993	169.478	102.910	-17.440	-9.703	137.379	156.153	-13.517	-7.858	-4.476	1.212	194.913	-3.789	-8191	255	
1279.622	1	1	0	0	0.13127	0.29718	0.23089	0.14852	0.13879	0.14892	0.25501	0.22671	0.21236	0.029526	0.31749	0.17394	0.079714	0.14851	0.065634	0.052327	-2.8937	-3.0417	-2.95	-3.0312	-2.8563	-3.1104	-3.1521	-2.9021	-3.1979	-2.9792	-2.6896	-3.0417	-2.9229	-3.1104	-2.9771	-2.7354	-8.214	3.523	128.209	328.768	168.543	273.815	36.099	245.618	141.582	255.867	218.183	304.737	92.519	109.602	268.095	324.343	0.00019924	0.00019834	0.00010297	345.4	2.8547e-06	2.0425e-06	498.95	114.02	2.0158e-06	5.3337e-06	194.86	78.688	44.692	25.447	2.801e-06	44.933	0.00021106	0.00020042	5.6594e-05	330.85	2.1479e-06	2.1032e-06	476.9	110.36	2.0901e-06	2.1825e-06	186.34	75.649	43.744	25.012	2.1523e-06	43.527	237.862	99.868	60.822	-16.251	167.008	120.081	-17.439	-9.737	147.881	109.616	-13.431	-7.650	-4.533	1.392	197.871	-3.659	-8191	255	
#DATA ENDS
