BOXY.EXE: ISS Imagent and Oximeter Data Acquisition Program Version 0.80
Ascii Record File

#ACQ INFORMATION
2  Detector Channels 
16  External MUX Channels 
1  Auxiliary Channels 
5000  Waveform (CCF) Frequency (Hz)
1  Waveforms Skipped 
30  Waveforms Averaged 
1  Cycles Averaged 
16  Acquisitions per Waveform 
10.0806  Updata Rate (Hz) 

#FILE INFORMATION
TRUE -- External MUX Channel results are PARSED.
FALSE -- AC DC and Phase are NOT grouped.
TRUE -- Companion Program Settings File CREATED.
FALSE -- AC data not excluded
FALSE -- DC data not excluded
FALSE -- Phase data not excluded
FALSE -- Auxillary Chn. data not excluded
Tab delimiters

#CALIBRATION STATE
TRUE -- Waveform Calibration Values APPLIED.


#AUX CALIBRATION VALUES
Val Type	aux-1	

Term	1.0000e+00	
Factor	0.0000e+00	


#WF CALIBRATION VALUES
A = Detector Channel
Val Type	A-AC1	A-AC2	A-AC3	A-AC4	A-AC5	A-AC6	A-AC7	A-AC8	A-AC9	A-AC10	A-AC11	A-AC12	A-AC13	A-AC14	A-AC15	A-AC16	A-DC1	A-DC2	A-DC3	A-DC4	A-DC5	A-DC6	A-DC7	A-DC8	A-DC9	A-DC10	A-DC11	A-DC12	A-DC13	A-DC14	A-DC15	A-DC16	A-Ph1	A-Ph2	A-Ph3	A-Ph4	A-Ph5	A-Ph6	A-Ph7	A-Ph8	A-Ph9	A-Ph10	A-Ph11	A-Ph12	A-Ph13	A-Ph14	A-Ph15	A-Ph16	

Term	0.00000e+00	0.00000e+00	0.00000e+00	0.00000e+00	0.00000e+00	0.00000e+00	0.00000e+00	0.00000e+00	0.00000e+00	0.00000e+00	0.00000e+00	0.00000e+00	0.00000e+00	0.00000e+00	0.00000e+00	0.00000e+00	0.00000e+00	0.00000e+00	0.00000e+00	0.00000e+00	0.00000e+00	0.00000e+00	0.00000e+00	0.00000e+00	0.00000e+00	0.00000e+00	0.00000e+00	0.00000e+00	0.00000e+00	0.00000e+00	0.00000e+00	0.00000e+00	0.00000e+00	0.00000e+00	0.00000e+00	0.00000e+00	0.00000e+00	0.00000e+00	0.00000e+00	0.00000e+00	0.00000e+00	0.00000e+00	0.00000e+00	0.00000e+00	0.00000e+00	0.00000e+00	0.00000e+00	0.00000e+00	
Factor	1.00000e+00	1.00000e+00	1.00000e+00	1.00000e+00	1.00000e+00	1.00000e+00	1.00000e+00	1.00000e+00	1.00000e+00	1.00000e+00	1.00000e+00	1.00000e+00	1.00000e+00	1.00000e+00	1.00000e+00	1.00000e+00	1.00000e+00	1.00000e+00	1.00000e+00	1.00000e+00	1.00000e+00	1.00000e+00	1.00000e+00	1.00000e+00	1.00000e+00	1.00000e+00	1.00000e+00	1.00000e+00	1.00000e+00	1.00000e+00	1.00000e+00	1.00000e+00	X	X	X	X	X	X	X	X	X	X	X	X	X	X	X	X	

B = Detector Channel
Val Type	B-AC1	B-AC2	B-AC3	B-AC4	B-AC5	B-AC6	B-AC7	B-AC8	B-AC9	B-AC10	B-AC11	B-AC12	B-AC13	B-AC14	B-AC15	B-AC16	B-DC1	B-DC2	B-DC3	B-DC4	B-DC5	B-DC6	B-DC7	B-DC8	B-DC9	B-DC10	B-DC11	B-DC12	B-DC13	B-DC14	B-DC15	B-DC16	B-Ph1	B-Ph2	B-Ph3	B-Ph4	B-Ph5	B-Ph6	B-Ph7	B-Ph8	B-Ph9	B-Ph10	B-Ph11	B-Ph12	B-Ph13	B-Ph14	B-Ph15	B-Ph16	

Term	0.00000e+00	0.00000e+00	0.00000e+00	0.00000e+00	0.00000e+00	0.00000e+00	0.00000e+00	0.00000e+00	0.00000e+00	0.00000e+00	0.00000e+00	0.00000e+00	0.00000e+00	0.00000e+00	0.00000e+00	0.00000e+00	0.00000e+00	0.00000e+00	0.00000e+00	0.00000e+00	0.00000e+00	0.00000e+00	0.00000e+00	0.00000e+00	0.00000e+00	0.00000e+00	0.00000e+00	0.00000e+00	0.00000e+00	0.00000e+00	0.00000e+00	0.00000e+00	-4.24325e+01	-1.27480e+02	-1.29113e+02	-1.83247e+02	-3.31036e+01	-6.42020e+01	-1.56812e+02	-1.62015e+02	-3.27297e+01	-6.89849e+01	-1.75831e+02	-1.71950e+02	-1.80238e+02	-1.77035e+02	-4.28051e+01	-1.49655e+02	
Factor	2.34302e-05	1.84395e-04	5.28880e-05	1.78417e-01	1.82338e-06	2.35056e-06	2.06794e-01	6.19505e-02	1.44642e-06	2.13698e-06	1.21363e-01	3.46114e-02	3.06045e-02	1.06869e-02	2.17603e-06	1.56232e-02	5.23884e-06	6.25852e-06	1.74260e-06	8.57108e-02	6.65713e-08	6.86765e-08	9.29982e-02	2.98139e-02	6.64213e-08	6.86137e-08	5.63353e-02	1.61712e-02	1.48215e-02	5.17988e-03	6.74619e-08	7.31005e-03	X	X	X	X	X	X	X	X	X	X	X	X	X	X	X	X	



#DISTANCE SETTINGS
A = Detector Channel
A-1	A-2	A-3	A-4	A-5	A-6	A-7	A-8	A-9	A-10	A-11	A-12	A-13	A-14	A-15	A-16	

2.5000e+00	3.0000e+00	2.5000e+00	3.0000e+00	2.0000e+00	3.0000e+00	1.5000e+00	3.0000e+00	3.0000e+00	3.0000e+00	3.0000e+00	3.0000e+00	3.0000e+00	3.0000e+00	1.5000e+00	3.0000e+00	

B = Detector Channel
B-1	B-2	B-3	B-4	B-5	B-6	B-7	B-8	B-9	B-10	B-11	B-12	B-13	B-14	B-15	B-16	

1.0000e+01	1.0000e+01	1.0000e+01	1.4400e+00	1.0000e+01	1.0000e+01	1.5100e+00	1.9400e+00	1.0000e+01	1.0000e+01	1.9900e+00	2.4900e+00	2.4100e+00	2.9000e+00	1.0000e+01	2.9800e+00	




#DATA BEGINS
time	group	step	mark	flag	A-AC1	A-AC2	A-AC3	A-AC4	A-AC5	A-AC6	A-AC7	A-AC8	A-AC9	A-AC10	A-AC11	A-AC12	A-AC13	A-AC14	A-AC15	A-AC16	A-DC1	A-DC2	A-DC3	A-DC4	A-DC5	A-DC6	A-DC7	A-DC8	A-DC9	A-DC10	A-DC11	A-DC12	A-DC13	A-DC14	A-DC15	A-DC16	A-Ph1	A-Ph2	A-Ph3	A-Ph4	A-Ph5	A-Ph6	A-Ph7	A-Ph8	A-Ph9	A-Ph10	A-Ph11	A-Ph12	A-Ph13	A-Ph14	A-Ph15	A-Ph16	B-AC1	B-AC2	B-AC3	B-AC4	B-AC5	B-AC6	B-AC7	B-AC8	B-AC9	B-AC10	B-AC11	B-AC12	B-AC13	B-AC14	B-AC15	B-AC16	B-DC1	B-DC2	B-DC3	B-DC4	B-DC5	B-DC6	B-DC7	B-DC8	B-DC9	B-DC10	B-DC11	B-DC12	B-DC13	B-DC14	B-DC15	B-DC16	B-Ph1	B-Ph2	B-Ph3	B-Ph4	B-Ph5	B-Ph6	B-Ph7	B-Ph8	B-Ph9	B-Ph10	B-Ph11	B-Ph12	B-Ph13	B-Ph14	B-Ph15	B-Ph16	aux-1	digaux	

1608.850	1	1	0	512	0.12592	0.0807	0.12161	0.17386	0.12821	0.37527	0.013345	0.07321	0.25936	0.082098	0.11335	0.22271	0.13863	0.22852	0.050694	0.10687	-2.5208	-3.3021	-3.1583	-3.2042	-3.2687	-3.0479	-3.1354	-3.1083	-2.8458	-3.0854	-3.1875	-2.8771	-3.2729	-3.0917	-3.1583	-3.2708	394.059	415.141	145.711	116.568	338.990	191.602	173.191	155.616	407.060	387.663	230.971	169.976	320.796	413.200	176.606	144.103	0.00044607	0.0013957	0.00038061	353.83	7.8032e-06	1.2961e-05	365.86	130.34	5.0307e-06	2.2069e-05	156.24	71.472	58.232	35.039	2.6562e-06	42.584	0.0092111	0.010975	0.0031045	511.96	0.00012081	0.00012461	538.66	187.19	0.00012118	0.00012443	260.44	101.8	85.385	45.284	0.00011788	56.107	259.520	168.236	182.906	106.487	399.109	229.209	104.641	112.317	199.861	289.266	109.143	113.642	116.732	120.016	248.171	115.610	-8191	255	
1608.947	1	1	0	0	0.14831	0.07085	0.13225	0.12922	0.045251	0.16686	0.22688	0.016331	0.18723	0.021476	0.30229	0.15342	0.094652	0.24336	0.06852	0.15342	-2.5021	-3.3854	-3.175	-2.9	-3.3292	-3.0729	-3.1458	-3.3583	-3.0146	-3.3083	-3.2146	-3.0417	-3.375	-3.0167	-3.1	-3.3104	270.051	389.568	111.303	408.503	95.836	300.626	346.099	194.225	204.659	296.215	99.632	451.534	199.187	417.503	330.018	289.167	0.0005688	0.00025424	0.0003771	352.33	7.0461e-06	4.1289e-06	365.67	134.37	9.8534e-06	1.2087e-05	160.46	75.103	61.779	37.642	8.3469e-06	45.192	0.0091125	0.010713	0.0029745	502.61	0.00011143	0.00011516	525.4	186.92	0.00011155	0.00011505	258.92	103.99	88.248	47.718	0.00011513	58.604	271.723	319.277	393.759	106.494	343.788	209.490	104.580	112.429	363.919	214.130	109.115	113.359	116.589	119.452	207.675	115.726	-8191	255	
1609.043	1	1	0	0	0.17922	0.15627	0.16999	0.18473	0.073661	0.098457	0.29896	0.11043	0.033146	0.26052	0.098791	0.17471	0.24399	0.27681	0.18981	0.14564	-2.7687	-3.0833	-3.3021	-2.9562	-3.1521	-3.1042	-2.9896	-3.4396	-2.9562	-3.0979	-3.3125	-3.0771	-3.2167	-3.05	-3.05	-3.4625	322.682	226.170	341.950	428.148	282.417	242.215	279.090	212.228	381.007	384.404	107.894	109.417	407.168	424.071	123.941	153.125	0.00039447	0.0014356	0.00010185	356.24	8.6446e-06	6.4086e-06	368.56	135.76	6.229e-06	9.4911e-06	160.23	74.565	60.473	36.581	1.2778e-05	43.811	0.0090233	0.010781	0.00301	509.29	0.00011324	0.00011715	531.02	189.12	0.00011192	0.00011538	259.23	103.25	86.885	46.636	0.00011361	57.059	252.222	195.933	367.342	106.840	204.855	211.709	104.851	112.770	322.769	183.174	108.599	113.174	116.431	120.237	228.522	115.697	-8191	255	
1609.139	1	1	0	0	0.27189	0.010663	0.11706	0.16027	0.11238	0.1256	0.13019	0.31871	0.077423	0.16579	0.092257	0.19526	0.20671	0.062102	0.18964	0.19324	-2.6792	-3.1146	-3.1458	-3.0292	-3.1188	-3.1646	-2.8458	-3.1021	-3.1604	-3.0563	-3.1708	-2.9958	-3.2042	-3.2438	-3.1021	-3.325	364.901	157.056	336.936	295.359	419.157	140.757	358.567	185.272	438.172	138.665	423.126	98.528	414.654	245.804	144.441	112.048	0.0004645	0.0013899	0.00036208	355.53	9.2099e-06	6.2322e-06	370.37	134.42	1.1209e-05	2.2815e-05	161.34	74.887	60.974	37.115	1.7086e-05	45.057	0.0088693	0.010581	0.0029605	505.14	0.00011242	0.00011603	529.67	186.54	0.00010938	0.00011202	255.01	102.3	86.2	46.835	0.0001103	57.811	258.467	223.484	118.877	106.867	173.170	209.286	105.135	112.573	257.766	237.305	109.337	113.796	116.722	120.058	291.000	115.766	-8191	255	
1609.259	1	1	0	0	0.15066	0.099604	0.37819	0.17684	0.17995	0.11243	0.16201	0.15849	0.27556	0.030263	0.14197	0.24404	0.26166	0.16592	0.18361	0.19302	-2.5687	-3.1542	-3.1479	-2.9708	-3.1125	-3.1333	-2.9667	-3.1896	-3.1917	-3.0667	-3.2958	-2.9771	-3.0312	-3.3458	-2.9125	-3.3563	224.575	145.794	198.442	114.555	248.111	445.080	428.867	380.584	407.693	204.249	310.100	280.742	377.821	268.416	341.388	447.885	0.00067097	0.00052356	0.00058552	356.74	4.6039e-06	1.279e-05	373.49	138.75	1.3636e-05	8.5404e-06	165.59	77.526	64.055	38.996	1.9353e-05	46.273	0.0085939	0.010261	0.0028678	503.08	0.00011014	0.0001149	532.6	191.99	0.00011238	0.00011632	262.93	106.14	90.155	49.074	0.00011256	59.428	255.936	231.618	183.629	106.720	249.180	395.042	104.896	112.487	307.745	184.675	108.951	113.406	116.454	119.877	198.243	115.393	-8191	255	
1609.331	1	1	0	0	0.042872	0.064045	0.30646	0.044806	0.23863	0.30669	0.20099	0.24545	0.019588	0.18134	0.18152	0.13775	0.19147	0.16533	0.017329	0.12591	-2.6771	-3.0125	-3.3125	-2.875	-3.2646	-3.1875	-2.7646	-3.3083	-3.1562	-2.9458	-3.3417	-2.9229	-3.1458	-3.3667	-2.9354	-3.2354	130.046	205.048	146.437	197.127	292.344	137.385	363.450	415.227	194.140	409.738	101.189	265.861	441.790	399.316	154.495	343.204	0.00057276	0.00056394	0.00033414	358.76	7.822e-06	2.8633e-06	370.45	141.04	7.5841e-06	8.0878e-06	168.39	79.211	65.818	40.221	2.3865e-06	47.243	0.0087914	0.010485	0.0029058	506.03	0.00011089	0.00011496	528.44	193.66	0.00011064	0.0001143	263.28	107.19	91.244	49.898	0.00011018	60.225	251.304	265.202	214.670	107.053	166.398	190.180	105.113	112.848	288.961	286.207	109.188	113.626	116.265	119.733	332.508	115.566	-8191	255	
1609.427	1	1	0	0	0.2879	0.07003	0.24039	0.1999	0.056779	0.13232	0.056043	0.12958	0.17393	0.11573	0.071259	0.13233	0.24292	0.074639	0.14686	0.18617	-2.6792	-2.9292	-3.1417	-3.0417	-3.1	-3.4354	-3.0187	-3.25	-3.0687	-3.0021	-3.4688	-2.9917	-2.9729	-3.4208	-2.8604	-3.2854	164.421	383.711	297.380	164.660	372.629	434.220	335.826	366.197	176.381	292.416	126.366	256.284	241.494	285.052	400.266	340.267	0.00049772	0.0015027	0.00018712	360.9	8.5688e-06	1.5299e-05	374	145.8	7.0874e-06	2.6584e-06	171.68	81.707	67.576	40.939	6.7896e-06	48.307	0.0086557	0.010281	0.0028505	506.78	0.0001091	0.00011287	528.96	196.29	0.00010705	0.00011052	264.06	108.55	92.463	50.687	0.00010674	61.036	258.969	165.514	290.582	106.747	240.251	237.840	105.110	112.449	205.819	116.084	109.154	113.189	116.500	119.803	337.254	115.702	-8191	255	
1609.523	1	1	0	0	0.068605	0.070796	0.022332	0.04094	0.28783	0.19239	0.27556	0.20719	0.25435	0.10317	0.13279	0.33104	0.047297	0.098506	0.18738	0.11685	-2.6688	-2.8771	-3.3438	-3.2313	-3.1562	-3.3729	-3.0979	-3.2083	-3.125	-2.9354	-3.2562	-3.0583	-3.1354	-3.2896	-2.9854	-3.2521	133.243	278.782	269.843	311.311	437.229	377.796	352.076	436.890	330.777	386.911	111.344	451.022	288.460	339.487	309.083	445.708	0.00053663	0.0004224	0.0003971	365.93	1.0286e-05	1.0956e-05	377.58	144.4	5.7583e-06	1.1058e-05	171.78	81.424	66.941	40.597	1.0924e-05	48.266	0.0084253	0.0099544	0.002751	505.11	0.00010473	0.00010737	526.12	194.2	0.00010321	0.00010664	261.34	107.8	91.549	50.059	0.00010358	60.471	268.928	172.607	134.410	106.941	369.624	314.786	105.174	112.938	223.387	360.274	109.215	113.570	116.861	120.063	281.943	115.745	-8191	255	
1609.642	1	1	0	0	0.081385	0.16447	0.057696	0.22795	0.054926	0.022497	0.23576	0.17292	0.16221	0.3091	0.24021	0.20257	0.13227	0.089445	0.096065	0.074279	-2.7604	-2.7521	-3.2854	-3.0208	-3.05	-3.2208	-2.9125	-3.2104	-3.2542	-2.9229	-3.2167	-3.0854	-3.1083	-3.4458	-2.975	-3.0333	401.010	388.047	253.517	298.838	140.192	452.342	144.190	399.539	120.072	133.801	405.254	373.870	201.594	433.126	369.774	454.071	0.0004142	0.00072164	0.00024274	363.77	5.3519e-06	1.6452e-05	381.48	146.09	3.0158e-06	7.9885e-06	172.16	81.445	66.667	40.771	2.6888e-06	48.465	0.0081647	0.0096303	0.0026863	502.12	0.00010389	0.00010655	529.1	194.79	0.00010502	0.00010875	264.64	108.99	92.412	50.571	0.00011084	61.64	267.130	380.602	437.494	106.757	164.998	425.021	105.021	112.831	231.548	214.999	108.826	113.438	116.703	119.986	222.669	115.663	-8191	255	
1609.738	1	1	0	0	0.076504	0.038365	0.18234	0.085871	0.33481	0.13861	0.037005	0.029351	0.081002	0.25191	0.16869	0.15016	0.14197	0.27228	0.22489	0.14209	-2.8521	-2.925	-3.2208	-3.1021	-2.8979	-3.2438	-2.9458	-2.9604	-3.2625	-2.8771	-3.4167	-3.075	-3.1312	-3.1833	-3.0854	-3.0771	232.134	218.543	162.435	100.153	332.618	366.176	342.269	374.589	108.558	314.342	254.219	381.569	352.054	104.864	116.195	279.563	0.00056265	0.00083535	0.00024901	363.47	4.9378e-06	5.9705e-06	377.55	146.43	3.7092e-06	4.656e-06	172.93	81.664	68.199	41.377	1.544e-05	48.716	0.0088489	0.010467	0.0029397	513.08	0.00011332	0.00011582	539.85	199.15	0.00011191	0.00011495	269.43	110.45	94.025	51.298	0.00011087	61.669	258.502	169.944	314.345	106.514	161.442	178.826	105.094	112.297	297.961	141.556	109.110	113.354	116.565	119.494	317.322	115.472	-8191	255	
1609.835	1	1	0	0	0.1106	0.19752	0.1022	0.17671	0.16081	0.11749	0.1263	0.19789	0.020883	0.16525	0.28808	0.36039	0.20103	0.12741	0.092679	0.050949	-2.7667	-3.0542	-3.0542	-3.0792	-3.0292	-3.2333	-3.0729	-3.1917	-3.3312	-2.875	-3.2042	-3.2	-3.0187	-3.3021	-2.9521	-3.0396	280.067	242.563	390.610	140.361	221.787	406.270	297.435	339.795	186.405	390.487	454.341	148.509	292.523	337.283	181.173	172.613	0.00060256	0.0011683	0.00021238	363.5	9.6102e-06	4.2807e-06	373.87	146.61	6.0683e-06	8.7834e-06	173.51	82.929	69.687	42.856	1.3743e-05	50.067	0.0086512	0.010081	0.0028233	508.17	0.00010919	0.00011262	532.09	200.43	0.00011122	0.00011526	272.44	112.42	96.795	53.262	0.0001179	64.09	262.019	100.751	102.008	106.835	287.215	253.722	104.913	112.634	303.563	368.747	109.002	113.336	116.204	119.748	314.814	115.536	-8191	255	
1609.931	1	1	0	0	0.3349	0.13245	0.050534	0.13984	0.067185	0.13502	0.12725	0.16723	0.25314	0.24839	0.075403	0.085865	0.051545	0.27542	0.10722	0.11649	-3.0479	-2.8375	-3.0938	-3.2354	-3.0104	-3.3396	-3.4	-3	-3.1958	-3.1271	-3.1188	-3.3563	-3.1021	-3.2792	-3.2083	-3.1958	173.064	444.201	281.274	168.781	135.639	217.892	438.433	386.507	245.488	219.888	125.332	278.397	384.068	198.526	347.969	395.401	0.00065655	0.0010383	3.0153e-05	360.82	5.2376e-06	1.7257e-05	373.26	150.16	3.7613e-06	5.3476e-06	177.51	83.839	70.159	42.699	1.1441e-05	49.566	0.0093384	0.011103	0.0031249	522.01	0.00011877	0.00012209	544.15	206.84	0.00011683	0.00012005	277.33	113.88	97.244	53.202	0.00011931	63.731	255.637	360.557	152.394	106.810	329.903	256.345	105.091	112.670	437.848	379.230	109.069	112.944	116.142	119.725	374.271	115.107	-8191	255	
1610.027	1	1	0	0	0.27403	0.18102	0.14277	0.10288	0.21876	0.34913	0.10954	0.36947	0.21097	0.069947	0.21194	0.042552	0.10789	0.26341	0.21016	0.12619	-2.9354	-2.7729	-3.1854	-3.2042	-2.85	-3.1333	-3.1188	-3.0563	-3.1063	-3.1292	-3.1562	-3.3125	-3.1292	-3.2333	-3.2896	-3.0458	273.674	247.767	313.330	172.469	423.335	272.586	356.465	412.853	112.035	154.339	183.173	354.734	135.422	129.873	235.368	362.046	0.00059414	0.00017269	0.00046413	361.71	1.0856e-05	1.3393e-05	374.88	146.77	4.3996e-06	1.4119e-05	175.68	83.369	68.821	42.085	7.0185e-06	50.129	0.0094823	0.011344	0.0032017	524.4	0.0001228	0.00012755	552.02	205.66	0.00012222	0.00012679	281.7	114.6	97.728	53.316	0.0001239	64.412	249.373	121.159	231.162	106.539	309.687	159.129	105.028	112.560	268.882	157.097	108.870	113.380	116.509	119.591	188.347	115.415	-8191	255	
1610.123	1	1	0	0	0.12705	0.097307	0.063323	0.30443	0.090889	0.13114	0.11964	0.12231	0.11003	0.11568	0.19188	0.093237	0.11655	0.20094	0.10913	0.27022	-2.9437	-3.0021	-3.0896	-3.2125	-2.9208	-3.0917	-3.2208	-3.1333	-3.3187	-3.1229	-3.1063	-3.3625	-2.8958	-3.0042	-3.1708	-2.9	450.019	413.899	264.986	354.876	99.794	260.145	421.033	367.138	302.525	291.801	441.924	453.019	322.491	399.494	370.200	397.565	0.00043962	0.00023424	0.00030297	363.71	3.2806e-06	1.7742e-05	384.58	152.25	8.9938e-06	1.9041e-05	181.87	86.593	71.958	44.057	6.551e-06	51.357	0.0095808	0.011341	0.0031472	524.9	0.00011809	0.00012218	554.54	207.87	0.00011548	0.00011946	281.74	116.08	99.088	54.52	0.00011627	65.176	257.059	302.566	438.793	106.787	256.807	270.432	104.833	112.628	312.314	131.797	109.135	113.126	116.243	119.562	393.186	115.337	-8191	255	
1610.244	1	1	0	0	0.065727	0.29556	0.10538	0.28826	0.31699	0.24031	0.21085	0.017945	0.19745	0.096542	0.19267	0.066983	0.12525	0.25683	0.19747	0.32126	-2.6854	-3.2438	-2.7896	-3.2646	-2.8688	-3.1208	-3.3896	-3.1104	-3.1854	-3.3521	-3.1063	-3.3208	-3.0833	-3.1042	-3.2979	-2.9208	265.411	117.845	162.739	406.600	422.937	422.047	306.655	433.552	391.677	433.191	169.196	307.564	262.077	108.286	200.900	144.229	0.00059571	0.0010084	0.00019335	366.31	2.6759e-05	1.8521e-05	380.44	149.55	1.0827e-05	9.4413e-06	174.5	83.386	68.634	41.835	1.0105e-05	48.572	0.009153	0.010989	0.0030685	524.25	0.00011679	0.00012129	550.34	205.77	0.00011689	0.00012115	277.25	113.13	96.501	52.483	0.00012016	62.775	263.222	301.707	142.976	106.727	260.960	296.702	104.675	112.717	233.464	98.380	109.010	113.281	116.519	120.035	222.023	115.696	-8191	255	
1610.340	1	1	0	0	0.14965	0.3014	0.19778	0.12858	0.034015	0.063036	0.12546	0.15721	0.39882	0.029634	0.25376	0.13585	0.11842	0.067059	0.074334	0.016431	-2.8375	-3.0229	-2.8042	-3.3833	-3.0417	-3.1312	-3.4313	-2.9854	-3.0958	-3.3333	-3.0375	-3.3354	-3.2021	-3.1333	-3.5229	-3.0292	256.386	183.116	409.594	400.596	334.236	258.878	279.344	146.935	345.610	405.134	142.713	125.351	326.118	377.180	252.533	288.581	0.00057884	0.00013296	0.0003969	362.06	7.4924e-06	5.3772e-06	377.37	148.28	9.0426e-06	1.6126e-05	173.97	83.501	69.415	42.453	1.7496e-05	49.871	0.0094741	0.011303	0.0031472	521.16	0.00011997	0.0001236	545.01	203.31	0.00011653	0.00011969	275.36	112.7	96.321	52.759	0.00011423	63.343	258.663	155.649	120.040	106.677	271.605	329.912	104.733	112.526	259.667	198.003	108.684	113.371	116.419	119.682	282.353	115.491	-8191	255	
1610.436	1	1	0	0	0.14314	0.20819	0.28313	0.30373	0.08458	0.33237	0.024289	0.17327	0.094245	0.29972	0.10437	0.035122	0.1733	0.067604	0.14762	0.0617	-2.6896	-3.0812	-2.8042	-3.2479	-3.1646	-2.8937	-3.3688	-3.0104	-3.0958	-3.2146	-2.9854	-3.2875	-2.9562	-3.1792	-3.2229	-2.9792	225.721	274.206	237.686	112.606	162.948	102.850	350.277	402.674	361.031	391.564	280.498	197.651	176.985	386.769	135.213	424.245	0.00055784	0.0018175	0.00022019	364.05	9.0961e-06	1.1934e-05	379.34	151.41	8.9193e-06	6.3288e-06	178.57	85.528	71.434	43.634	5.9124e-06	50.853	0.0090086	0.010704	0.0029959	517.34	0.00011575	0.00012024	548.28	206.93	0.00011891	0.00012316	282.56	116.36	99.581	54.336	0.00011944	64.766	265.665	100.925	331.081	107.095	280.420	325.040	105.398	112.791	211.710	407.294	109.051	113.237	116.558	119.785	288.544	115.502	-8191	255	
1610.555	1	1	0	0	0.23384	0.25693	0.04805	0.029274	0.1419	0.15915	0.057994	0.18582	0.34132	0.18378	0.29144	0.11461	0.044594	0.098552	0.1535	0.25568	-2.7438	-3.2646	-3.0104	-3.0542	-3.2292	-3.125	-3.1625	-3.1271	-3.0146	-3.2646	-2.9667	-3.3083	-3.2167	-2.9958	-3.2958	-3.3438	207.737	118.920	117.706	311.524	352.940	396.704	198.650	102.778	256.913	398.165	420.077	132.842	224.399	386.764	135.908	450.038	0.00060725	0.0008233	0.00037416	366.31	1.5309e-06	1.1667e-06	384.83	152.31	5.2217e-06	1.0148e-05	181.66	87.121	72.039	43.806	9.9471e-06	51.406	0.0093445	0.01103	0.0030549	522.4	0.00011795	0.00012188	554.87	209.18	0.00011891	0.00012254	284.98	117.49	100.26	54.687	0.00011943	65.341	261.437	263.941	176.276	106.884	287.831	239.396	105.170	112.479	115.399	310.088	109.150	113.284	116.373	119.751	167.222	115.294	-8191	255	
1610.627	1	1	0	0	0.13093	0.14353	0.090678	0.12373	0.31874	0.070019	0.22278	0.056105	0.098439	0.20968	0.1008	0.087539	0.17514	0.20418	0.1061	0.12886	-2.7	-3.05	-3.0812	-3.1229	-3.2146	-2.9979	-3.2896	-3.1125	-3.0354	-3.2	-2.9396	-3.1188	-3.2938	-3.0125	-3.2729	-3.1083	404.518	441.004	289.248	356.565	449.243	264.979	134.687	212.287	114.192	232.588	162.172	121.152	110.224	366.945	416.110	421.969	0.00065561	0.00042045	0.0002382	364.71	2.705e-06	5.2978e-06	381.63	150.91	5.4216e-07	6.2083e-06	177.6	84.12	69.983	42.411	1.0233e-05	49.441	0.0093625	0.011066	0.0030673	523.7	0.00011735	0.00012037	547.29	206.25	0.00011691	0.00012078	277.96	114.19	97.805	53.204	0.00011934	63.644	259.860	258.232	157.772	107.036	395.022	132.815	104.782	112.546	352.585	249.141	108.866	113.101	116.511	119.550	315.734	115.259	-8191	255	
1610.723	1	1	0	0	0.24021	0.17233	0.10874	0.16406	0.04403	0.27585	0.048783	0.2842	0.11162	0.17855	0.1067	0.36504	0.13532	0.093064	0.18907	0.057489	-2.4	-3.2792	-2.9625	-3.2146	-3.3063	-2.8125	-3.125	-3.0062	-3.1	-3.3	-3.0021	-3.1458	-3.3542	-3.1396	-3.3021	-3.2167	370.566	185.134	416.166	381.984	454.134	393.513	342.129	364.577	283.041	119.732	95.534	440.163	143.073	451.155	241.928	429.783	0.00058088	0.0013758	0.00016892	363.21	5.1742e-06	8.8055e-06	376.21	147.63	3.2793e-06	2.1899e-05	175.1	83.473	69.554	42.425	2.9633e-06	49.628	0.009425	0.011154	0.0031002	522.55	0.00011874	0.00012194	546.4	204.42	0.00011712	0.00012021	275.87	113.21	96.693	52.81	0.00011534	63.166	271.165	104.535	379.044	106.768	250.716	226.557	105.065	112.426	271.725	214.050	109.167	113.367	116.313	119.926	355.333	115.240	-8191	255	
1610.819	1	1	0	0	0.18996	0.15582	0.24071	0.041031	0.23558	0.26142	0.088751	0.037754	0.31991	0.059609	0.18382	0.18635	0.08569	0.20694	0.23282	0.23132	-2.4813	-3.1396	-3.0062	-3.0875	-3.6021	-2.9271	-3.1208	-3.2333	-2.8312	-3.3312	-3.0396	-3.0521	-3.4104	-3.0854	-3.1396	-3.3521	348.211	364.527	441.523	342.685	151.600	329.066	235.424	379.830	301.875	376.263	303.285	353.953	417.442	325.475	117.295	342.111	0.00059163	0.0004755	9.3766e-05	364.34	2.5444e-06	1.2233e-05	380.22	149.75	5.4777e-06	5.9903e-06	176.85	84.4	69.957	42.733	1.4284e-05	49.87	0.0090296	0.010613	0.0029572	515.1	0.00011233	0.00011554	540.78	203.72	0.00011242	0.00011616	275.33	113.65	96.91	52.906	0.00011539	63.454	245.442	152.937	274.055	106.674	217.375	96.413	105.181	112.748	330.367	391.484	108.837	113.166	116.193	119.560	294.367	115.219	-8191	255	
1610.939	1	1	0	0	0.15778	0.024812	0.31553	0.15801	0.058051	0.27961	0.19742	0.16368	0.13128	0.22158	0.18088	0.29472	0.24017	0.085835	0.17081	0.25558	-2.5812	-3.3667	-3.15	-3.1771	-3.1875	-3.1104	-3.0833	-3.5292	-2.95	-3.2042	-3.2938	-3.0021	-3.1833	-3.0646	-3.1063	-3.2458	268.345	421.537	410.588	244.787	196.454	317.012	350.803	381.195	110.436	348.951	109.108	360.876	158.077	398.772	232.801	409.662	0.0005821	0.00046392	0.0002646	365.8	7.7223e-06	1.1215e-05	382.61	149.45	4.6134e-07	3.5904e-06	178.41	85.284	71.218	43.232	4.5572e-06	50.956	0.0090364	0.010686	0.0030198	518.64	0.00011523	0.00011879	547.7	204.45	0.00011422	0.00011775	277.53	114.54	97.926	53.651	0.00011589	64.52	257.690	221.924	243.052	106.993	369.969	228.868	104.811	112.431	102.166	178.353	108.712	113.546	116.330	119.502	360.655	115.408	-8191	255	
1611.036	1	1	0	0	0.13709	0.11344	0.072705	0.16047	0.15423	0.18682	0.16301	0.12869	0.18914	0.12578	0.037096	0.1118	0.3807	0.16667	0.16279	0.15879	-2.4104	-3.2292	-3.0604	-3.1021	-3.2792	-3.1396	-3.2458	-3.375	-3.0229	-3.3354	-3.2417	-2.975	-3.3229	-3.2458	-3.1896	-3.3667	405.833	442.840	132.521	276.137	119.536	254.677	323.019	371.814	253.827	395.715	219.124	203.198	411.351	120.164	266.707	313.766	0.00070702	0.00064366	0.00042914	368.01	5.1344e-06	8.4241e-06	389.44	153.5	1.0455e-05	4.1917e-06	184.82	88.208	73.403	44.855	1.1612e-05	52.393	0.0090331	0.01062	0.0029766	519.95	0.00011198	0.00011488	549.7	206.78	0.00011027	0.0001147	280.53	116.76	99.655	54.96	0.00011278	65.715	261.276	402.376	223.793	107.011	230.328	342.726	105.131	112.587	250.532	135.651	108.647	113.274	116.007	119.366	290.363	115.458	-8191	255	
1611.132	1	1	0	0	0.11324	0.17495	0.088755	0.37896	0.20448	0.16921	0.13182	0.1044	0.15182	0.16232	0.048261	0.2486	0.057107	0.16679	0.15966	0.25703	-2.7687	-3.125	-3.2313	-3	-3.1646	-3.2375	-2.9979	-3.4896	-2.9229	-3.2479	-3.3229	-2.9167	-3.1688	-3.2875	-3.0833	-3.2062	123.703	128.038	439.082	131.004	265.633	275.936	447.218	374.172	153.673	419.019	290.809	421.827	402.596	259.684	405.018	393.254	0.00069476	0.00042728	9.7379e-05	375.16	1.3153e-05	8.2118e-06	389.04	158.39	4.6676e-06	1.2436e-05	185.47	89.825	75.752	45.968	9.9873e-06	52.668	0.0087629	0.010338	0.0028701	520.01	0.00010815	0.00011202	545.39	210.43	0.00010767	0.00011216	281.42	117.96	101.71	56.075	0.0001116	65.988	241.220	165.861	216.436	106.929	251.235	253.976	105.488	112.602	317.037	207.883	108.958	112.874	116.367	119.547	350.590	114.909	-8191	255	
1611.203	1	1	0	0	0.12625	0.078862	0.19339	0.054795	0.33382	0.068727	0.23068	0.1473	0.034223	0.26306	0.14991	0.098988	0.1995	0.23627	0.26814	0.2618	-2.5833	-3.1833	-3.15	-2.9208	-2.9667	-3.2083	-2.9333	-3.3146	-3.0479	-3.0563	-3.2375	-3.0208	-2.9667	-3.2562	-3.0604	-3.125	198.624	255.400	377.446	278.402	200.791	391.688	290.687	430.312	390.001	210.621	137.738	353.461	352.749	370.493	251.313	151.367	0.00064853	0.00090831	0.0002891	375.37	1.5216e-05	7.09e-06	387.76	157.83	4.5092e-06	9.8596e-06	185.31	88.998	75.386	45.501	1.6055e-05	52.452	0.008743	0.010422	0.0029124	523.73	0.00011139	0.0001162	548.83	211.89	0.00011187	0.00011638	282.95	117.95	101.93	55.906	0.00011466	66.011	256.366	261.547	117.357	107.131	323.801	229.945	105.212	112.552	266.812	202.202	108.966	113.105	116.292	119.451	309.683	115.046	-8191	255	
1611.324	1	1	0	0	0.11637	0.20026	0.085774	0.12315	0.075542	0.13043	0.30411	0.12533	0.049206	0.13077	0.13737	0.11209	0.22126	0.30877	0.1189	0.24077	-2.7896	-2.7938	-3.0333	-3.1625	-2.9417	-3.1333	-2.8396	-3.2625	-3.0354	-2.9521	-3.4125	-3.1583	-3.2542	-3.3208	-2.8646	-3.4146	218.562	273.528	232.254	349.947	291.433	392.533	369.193	132.283	354.045	137.109	242.356	357.761	373.618	435.699	398.583	110.709	0.00057296	0.00054181	0.00017708	373.89	1.8145e-05	9.4484e-06	386.21	158.43	6.309e-06	6.9916e-06	185.41	88.84	75.32	45.747	1.2318e-06	52.778	0.0090469	0.010794	0.0029883	527.63	0.00011388	0.00011779	550.53	212.03	0.00011285	0.00011725	284.02	118.55	102.57	56.346	0.00011611	66.585	259.589	352.568	276.921	106.913	284.143	118.826	105.250	112.553	262.343	233.758	109.000	113.202	116.211	119.410	112.028	115.343	-8191	255	
1611.420	1	1	0	0	0.23279	0.18563	0.081425	0.12517	0.27849	0.22491	0.026985	0.23368	0.11517	0.17278	0.26669	0.028032	0.28403	0.042459	0.041147	0.0059557	-2.7875	-3.0979	-3.3208	-3.1875	-3.1688	-3.275	-3.0104	-3.3354	-3.2313	-2.9792	-3.4021	-3.0062	-3.1604	-3.275	-3.0729	-3.2542	159.588	184.092	163.207	322.557	378.063	220.833	454.498	183.720	412.448	409.883	400.136	433.611	453.146	434.275	422.960	434.852	0.00063126	0.00035393	0.00024314	374.69	9.2043e-06	1.4708e-05	389.45	158.11	6.9116e-06	3.3676e-06	185.06	89.062	74.251	45.022	1.0774e-05	52.247	0.0092035	0.010945	0.0030383	530.39	0.00011659	0.00012102	557.53	214.11	0.00011624	0.00012035	286.51	118.86	102.1	55.707	0.0001167	65.967	254.374	125.757	356.318	106.675	314.432	106.231	104.950	112.601	222.321	148.658	109.142	113.154	116.153	119.350	236.975	115.312	-8191	255	
1611.516	1	1	0	0	0.052922	0.0061394	0.19193	0.087382	0.24675	0.25663	0.12594	0.16653	0.022358	0.17713	0.1558	0.14454	0.054947	0.34345	0.077485	0.13812	-2.9375	-2.6875	-3.3271	-2.9375	-3.1146	-3.4562	-2.9875	-3.3917	-3.2292	-2.9062	-3.3292	-3.1542	-3.0729	-3.2917	-3.2583	-3.1521	399.314	244.508	315.259	360.310	164.763	251.233	341.653	366.923	437.444	117.774	248.805	386.063	279.744	108.859	153.049	113.469	0.00058544	0.0015415	0.0002012	372.43	4.5973e-06	7.126e-06	385.85	154.17	1.007e-05	1.5325e-05	179.15	85.655	71.784	43.514	6.0897e-06	50.149	0.009278	0.011013	0.0030717	528.93	0.00011879	0.00012209	556.47	211.1	0.00012016	0.00012372	285.05	117.01	100.55	54.544	0.00012322	64.872	258.180	128.782	193.676	106.792	445.641	278.852	104.717	112.725	381.150	259.020	108.716	113.140	116.284	119.645	198.836	115.241	-8191	255	
1611.635	1	1	0	0	0.064471	0.16401	0.066911	0.14484	0.007519	0.034244	0.17364	0.098777	0.051188	0.17076	0.040313	0.13722	0.16914	0.070007	0.22064	0.17496	-2.7875	-2.9542	-3.3167	-3.175	-2.9896	-3.3229	-2.8688	-3.1583	-3.2771	-2.8604	-3.0958	-3.275	-2.9167	-3.3583	-3.0292	-3.2521	122.466	412.721	322.811	120.989	298.655	414.970	429.117	447.682	449.902	266.570	284.149	399.649	350.604	405.646	189.163	403.194	0.00066075	0.00095944	0.00029185	370.34	7.5789e-06	1.1407e-05	377.83	152.34	8.8043e-06	1.5449e-05	177.38	84.849	71.861	43.493	1.4046e-05	50.24	0.00975	0.01153	0.0032139	532.79	0.00012364	0.00012646	553.76	210.57	0.00012303	0.0001264	283.9	116.6	101.04	54.742	0.00012668	65.334	258.229	151.366	293.531	107.010	359.630	173.946	104.623	112.586	281.867	335.026	109.139	112.821	116.150	119.426	252.907	115.509	-8191	255	
1611.731	1	1	0	0	0.18336	0.27605	0.19657	0.14404	0.13153	0.15295	0.2265	0.27462	0.12674	0.20779	0.15101	0.16358	0.13706	0.1046	0.087393	0.10417	-2.9208	-2.85	-3.2917	-3.1771	-2.8729	-3.2667	-3.0812	-3.1937	-3.3396	-3.0542	-3.2979	-3.1271	-2.8958	-3.4208	-2.8396	-3.0896	176.190	299.665	422.605	324.879	254.483	430.827	331.376	325.458	144.807	147.062	328.554	428.436	226.112	237.612	141.206	203.137	0.00063001	0.001257	0.00011385	366.69	1.608e-05	1.0335e-05	379.43	154.28	1.1932e-05	1.2516e-05	177.86	86.293	72.584	44.047	2.3688e-05	50.819	0.010126	0.01191	0.0033181	536.45	0.00012616	0.00012784	557.15	212.2	0.0001224	0.00012498	283.74	116.91	100.95	54.819	0.0001205	65.137	268.403	197.348	214.344	106.555	285.637	398.090	104.905	112.759	315.401	307.411	108.775	112.899	116.253	119.575	281.000	115.163	-8191	255	
1611.828	1	1	0	0	0.24561	0.31759	0.3055	0.23038	0.34718	0.10482	0.16999	0.090748	0.18929	0.094369	0.24738	0.30482	0.077576	0.058261	0.15188	0.11328	-2.9604	-2.9562	-3.1229	-3.2167	-2.9396	-3.3833	-3.0604	-3.025	-3.3063	-3.1083	-3.15	-3.5104	-2.9646	-3.3604	-3.2375	-3.0667	173.635	442.568	440.331	318.962	173.594	186.059	246.391	340.589	454.377	260.992	123.628	438.202	437.711	236.896	238.850	311.071	0.00060607	0.0014332	0.00036573	366.85	9.6005e-06	1.2753e-05	378.34	153.15	7.0053e-06	1.5124e-05	179.91	85.699	71.937	43.6	1.6578e-05	50.524	0.0094796	0.011278	0.0031579	529.59	0.00012073	0.00012459	553.29	210.79	0.00012102	0.00012525	285.21	117.15	100.94	54.804	0.000125	65.375	258.951	181.035	404.748	106.909	278.118	453.471	105.097	112.465	325.318	367.940	108.826	113.072	116.083	119.640	173.978	114.970	-8191	255	
1611.924	1	1	0	0	0.052704	0.1252	0.15594	0.086036	0.072695	0.23499	0.12951	0.065836	0.026404	0.25464	0.017661	0.056581	0.17253	0.19533	0.069058	0.07796	-2.8396	-2.9292	-3.1604	-3.1167	-2.9396	-3.1292	-3.1583	-2.9562	-3.4271	-2.8896	-3.125	-3.3333	-2.975	-3.1604	-3.1771	-2.9375	411.672	340.488	193.659	120.564	368.701	368.603	402.894	272.267	322.251	363.462	231.872	144.243	265.549	408.169	349.125	166.393	0.00057703	0.00081122	0.00012808	368.73	3.5141e-06	2.4478e-06	384.7	153.4	3.0386e-06	1.6154e-05	181.21	86.475	72.213	43.94	6.8201e-06	51.361	0.0098073	0.01162	0.0032485	533.4	0.00012292	0.00012651	556.97	210.76	0.00011761	0.00011994	280.92	115.86	99.063	54.199	0.00011416	64.752	262.389	359.569	138.935	106.595	208.951	188.906	105.287	112.379	265.874	262.248	109.312	112.926	116.181	119.600	320.298	115.597	-8191	255	
1612.020	1	1	0	0	0.15265	0.19377	0.31922	0.18149	0.16067	0.1112	0.25607	0.2469	0.057736	0.076285	0.088485	0.12617	0.11317	0.19713	0.18441	0.057297	-2.9938	-2.8354	-3.0187	-3.2146	-3.1042	-3.2333	-3.2896	-3.0771	-3.1958	-3.0875	-3.2521	-3.5125	-3.0521	-3.1458	-3.1896	-3.1083	285.415	302.758	228.269	226.206	357.738	106.701	412.710	363.443	299.396	244.139	270.774	410.137	191.135	350.987	220.028	370.030	0.00056777	0.00067745	0.00038199	371.5	1.2673e-05	2.3754e-05	382.04	154.49	6.6871e-06	1.7214e-05	180.26	86.309	73.334	44.113	2.6496e-05	50.766	0.0090354	0.010784	0.0030343	526.84	0.00011775	0.00012298	554.61	212.11	0.00012161	0.00012702	287.96	117.85	102.18	55.292	0.0001267	65.453	258.355	185.178	148.020	106.629	295.018	248.701	105.147	112.540	246.213	142.613	108.880	113.033	116.181	119.726	265.441	115.211	-8191	255	
1612.116	1	1	0	0	0.24525	0.14806	0.085644	0.19674	0.17912	0.26109	0.049349	0.081424	0.33828	0.086006	0.16392	0.018024	0.099995	0.041387	0.16992	0.23039	-3.0021	-2.8812	-2.9125	-3.1396	-3.0229	-3.2417	-3.2875	-3.2062	-3.1979	-3.1854	-3.0875	-3.2875	-3.0708	-3.2667	-3.2396	-3.0604	143.183	170.775	363.628	389.805	205.757	228.709	418.842	397.382	367.144	440.916	394.216	172.898	238.033	104.544	362.844	443.352	0.00051814	0.00053279	0.00014962	366.08	4.8553e-06	2.1483e-05	376.81	152.81	1.0524e-05	1.3258e-05	177	85.26	72.08	43.682	7.9356e-06	50.097	0.0098474	0.011646	0.0032428	532.56	0.00012339	0.00012763	554.97	211.72	0.0001233	0.00012805	286.63	117.09	101.28	54.866	0.00012492	64.675	261.460	306.467	431.460	107.159	273.592	311.849	104.970	112.488	363.793	326.516	109.362	113.149	116.132	119.740	359.528	115.200	-8191	255	
1612.237	1	1	0	0	0.16864	0.089188	0.17723	0.20817	0.19532	0.05628	0.20452	0.1836	0.049975	0.022614	0.059829	0.11657	0.17885	0.31295	0.16289	0.27919	-2.7479	-3.1021	-2.8896	-3.4313	-2.9542	-3.1583	-3.3208	-2.9521	-3.1083	-3.0833	-3.0583	-3.1021	-2.9979	-3.1813	-3.2833	-3.1312	117.380	287.514	346.487	121.933	228.663	149.804	431.144	130.847	321.465	126.021	412.026	154.648	166.477	445.003	380.465	436.788	0.00059564	0.00033261	0.00024363	368.92	8.4153e-06	1.5777e-05	377.19	152.73	8.826e-06	9.4208e-06	178.97	86.178	72.692	43.811	7.097e-06	50.459	0.0096491	0.011419	0.0031818	527.31	0.00012038	0.00012484	551.55	210.29	0.00012111	0.00012627	285.89	117.11	101.62	55.073	0.00012599	65.236	265.123	412.522	431.323	106.987	288.594	117.822	104.710	112.740	145.261	264.188	109.328	113.272	116.031	119.665	109.444	115.340	-8191	255	
1612.333	1	1	0	0	0.12226	0.18196	0.089083	0.053483	0.075331	0.078619	0.19836	0.20765	0.15703	0.057202	0.10343	0.2472	0.13415	0.094314	0.094184	0.20975	-2.6417	-3.2354	-2.7375	-3.3	-2.9417	-2.9167	-3.2625	-3.0208	-3.2292	-3.275	-2.8792	-3.375	-3.0771	-3.0438	-3.0646	-3.0271	276.908	365.709	303.781	411.450	135.625	191.458	343.383	389.751	439.599	214.759	347.956	378.405	187.670	123.373	443.383	369.981	0.00064301	0.00079456	0.00024409	366.3	5.1214e-06	1.4645e-05	382.88	153.34	6.618e-06	1.91e-05	180.61	86.221	72.375	43.46	9.2671e-06	50.743	0.0098448	0.011603	0.0032163	530.01	0.00012171	0.00012447	554	210.5	0.00011967	0.00012398	284.77	116.87	100.84	54.62	0.00012237	64.931	250.339	335.699	154.527	107.098	272.671	181.918	105.056	112.672	226.863	168.007	109.084	113.205	116.319	119.707	321.502	115.297	-8191	255	
1612.429	1	1	0	0	0.035544	0.079865	0.08905	0.085165	0.20138	0.081219	0.0569	0.17744	0.040126	0.071389	0.12998	0.29738	0.19139	0.36153	0.16009	0.24609	-2.5479	-3.0563	-2.9729	-3.1708	-3.2146	-2.9708	-3.175	-3.1146	-3.2	-3.3	-2.7896	-3.2792	-3.2083	-2.9521	-3.2812	-3.0021	289.133	415.345	341.748	230.878	193.312	133.824	266.406	345.166	270.993	406.844	141.837	404.415	441.202	363.563	444.808	388.382	0.00059762	0.0012181	0.00020643	369.64	3.2706e-06	1.4349e-05	380	154.11	1.1591e-05	6.0467e-06	180.78	86.546	72.939	44.06	1.428e-05	50.763	0.0096976	0.011526	0.0032089	531.55	0.00012311	0.0001275	555.74	212.71	0.00012166	0.000126	286.7	117.54	101.5	55.005	0.00011973	65.01	258.040	447.814	187.929	106.779	266.803	263.269	105.334	112.347	205.893	447.870	108.953	113.191	116.267	119.565	261.997	115.375	-8191	255	
1612.501	1	1	0	0	0.056775	0.24138	0.17952	0.24378	0.15087	0.30054	0.072015	0.10345	0.21037	0.12358	0.25901	0.125	0.25877	0.30182	0.25711	0.17362	-2.7333	-3.1125	-3.0021	-3.1708	-3.1937	-2.9437	-3.2854	-3.1063	-3.2375	-3.2896	-2.9771	-3.1667	-3.3042	-2.975	-3.45	-2.9396	178.233	434.964	353.890	405.655	336.674	380.464	254.036	337.530	343.284	431.478	435.612	390.261	156.338	408.525	254.271	344.147	0.00057301	0.00054237	0.00025059	368.96	3.1015e-06	1.2457e-05	381.66	154.97	3.2405e-06	1.1113e-05	180.93	86.58	72.74	43.928	1.5883e-05	50.74	0.0093023	0.010937	0.0030379	523.99	0.0001164	0.00011977	549.6	210.38	0.00011646	0.00012083	282.65	116.71	100.36	54.423	0.0001172	64.681	258.282	127.883	148.425	107.072	129.121	375.512	105.403	112.415	298.270	392.396	109.016	113.104	116.055	119.721	310.861	115.053	-8191	255	
1612.597	1	1	0	0	0.2969	0.10144	0.094001	0.13513	0.080885	0.12806	0.157	0.16863	0.12293	0.072947	0.28072	0.10893	0.21333	0.1918	0.16738	0.17158	-2.6229	-3.2833	-3.0938	-3.1688	-3.2333	-3.0833	-3.1875	-3.1354	-2.9604	-3.3729	-3.0312	-3.25	-3.1583	-3.05	-3.1583	-3.2417	149.114	126.115	435.842	420.252	178.758	434.576	391.730	316.990	259.596	166.620	374.731	196.626	399.406	305.962	233.368	387.311	0.00062463	0.00042469	0.00038316	367.36	6.719e-06	1.9674e-05	384.65	154.34	1.0035e-05	8.9805e-06	182.32	87.343	73.455	44.298	8.459e-06	51.548	0.0092533	0.010917	0.0030287	523.49	0.0001163	0.00011989	550.4	209.84	0.00011536	0.00011944	283.03	117.32	100.78	54.865	0.00011785	65.578	241.280	204.629	203.442	106.797	169.280	170.106	105.097	112.605	339.678	252.783	108.766	112.948	116.257	119.474	422.986	115.282	-8191	255	
1612.716	1	1	0	0	0.16086	0.2061	0.052907	0.12575	0.18817	0.16063	0.27046	0.19719	0.15025	0.092388	0.11602	0.10731	0.21154	0.16237	0.10425	0.33412	-2.4833	-3.2	-3.0354	-3.0062	-3.4042	-3.025	-3.3625	-3.1542	-3.1229	-3.2875	-3.1833	-3.1521	-3.2458	-3.0938	-3.1979	-3.2604	272.276	110.388	219.349	127.642	135.549	392.597	254.409	395.527	253.694	147.353	428.353	178.897	243.354	327.389	262.320	332.008	0.00074366	0.0011551	0.00017695	373.44	1.5132e-05	6.291e-06	387.9	156.57	3.4183e-06	9.1788e-06	185.7	88.63	74.629	45.147	1.3435e-05	52.264	0.0093357	0.011019	0.0030725	529.05	0.00011753	0.00012122	558.78	213.26	0.00011751	0.00012126	288.22	119.48	102.41	55.813	0.00012052	66.6	248.531	233.080	404.978	106.982	431.906	241.402	105.173	112.828	264.770	313.911	109.133	113.049	116.397	119.568	193.431	115.324	-8191	255	
1612.812	1	1	0	0	0.26392	0.21194	0.24683	0.021565	0.16063	0.18442	0.11078	0.11849	0.10303	0.15909	0.13071	0.31405	0.10832	0.13046	0.072559	0.11681	-2.5396	-3.3521	-2.9271	-2.8937	-3.3083	-3.0312	-3.0042	-3.2833	-2.9542	-3.2333	-2.9479	-2.9354	-3.3521	-3.0167	-3.1042	-3.2313	246.742	436.238	337.432	117.816	135.747	278.635	318.594	402.411	360.588	311.437	359.238	406.690	164.632	159.070	274.599	363.876	0.00049948	0.00050865	0.00026227	372.89	7.3895e-06	1.2527e-05	393.6	155.44	2.875e-06	5.2899e-06	183.8	88.234	72.798	43.85	1.0885e-05	51.415	0.0094506	0.01119	0.003125	532.69	0.00012023	0.0001237	564.13	212.82	0.00012008	0.00012425	289.66	119.2	101.65	54.919	0.00012232	65.713	284.219	312.105	250.938	107.321	364.080	301.775	105.338	112.447	376.582	438.512	108.619	113.281	116.210	119.840	254.418	115.347	-8191	255	
1612.908	1	1	0	0	0.14415	0.21079	0.12715	0.11544	0.033432	0.067198	0.088886	0.2185	0.18074	0.22864	0.074864	0.24196	0.12301	0.35184	0.11748	0.14519	-2.3937	-3.1583	-3.1042	-2.9583	-3.3604	-2.8875	-3.1875	-3.3854	-2.925	-3.4208	-3.1583	-3.0771	-3.3125	-2.9271	-3.0958	-3.3792	407.863	182.530	296.633	323.751	311.803	125.383	347.873	286.496	302.467	173.747	214.703	314.520	187.908	404.932	257.954	298.776	0.00054437	9.8751e-05	0.00012234	368.87	1.4941e-05	1.37e-05	382.85	151.91	5.5141e-06	7.752e-06	177.07	84.236	70.282	42.604	3.5668e-06	49.667	0.0094342	0.011137	0.0031286	528.91	0.00012155	0.00012637	562.99	211	0.00012562	0.00012955	288.04	117.19	100.42	53.981	0.00012763	64.616	255.599	212.625	196.297	106.767	329.990	421.613	104.803	112.817	176.853	327.144	108.604	113.268	116.321	119.808	309.194	115.383	-8191	255	
1613.004	1	1	0	0	0.27516	0.1243	0.084479	0.25541	0.19411	0.1563	0.23337	0.24623	0.20127	0.091684	0.32554	0.27879	0.14659	0.22442	0.16582	0.24151	-2.6354	-3.0083	-3.1292	-2.9646	-3.1312	-3.1979	-3.0146	-3.4042	-2.9313	-3.2771	-3.0312	-2.9646	-3.2313	-3.0396	-2.9771	-3.5667	130.790	206.312	425.944	394.263	343.482	363.822	287.304	106.328	349.897	374.547	265.188	397.286	353.155	124.632	157.694	385.149	0.00056334	0.00097336	0.00013469	364.47	5.4529e-06	9.7727e-06	378.07	151.07	6.3273e-06	1.1712e-05	177.58	85.296	72.516	43.775	3.8661e-06	50.527	0.009927	0.01174	0.003269	529.96	0.00012393	0.00012765	556.18	209.91	0.00012264	0.0001265	284.99	116.72	100.66	54.534	0.00012138	64.819	266.666	184.043	174.844	106.711	113.365	421.881	105.211	112.779	250.117	199.014	109.129	113.306	116.320	119.726	206.069	115.334	-8191	255	
1613.100	1	1	0	0	0.25252	0.15707	0.019358	0.19007	0.048755	0.11492	0.16547	0.43089	0.028391	0.13177	0.13047	0.1199	0.25085	0.0097864	0.1608	0.24309	-2.4208	-3.2583	-3.1146	-2.9917	-3.0229	-2.9479	-2.8854	-3.2375	-2.9833	-3.1646	-3.2396	-2.8625	-3.2979	-3.3125	-2.8708	-3.4208	179.604	242.094	330.926	133.016	256.057	443.175	374.061	373.088	161.962	430.280	95.214	265.607	107.096	138.963	155.474	403.837	0.00053548	0.00078358	0.00013266	365.42	1.1897e-06	1.4827e-05	380.1	152.62	8.0495e-06	6.316e-06	177.61	85.527	71.424	43.095	1.2987e-05	49.912	0.0093617	0.011047	0.0030651	521.73	0.00011699	0.00012138	550.22	209.8	0.00012074	0.00012665	286.42	117.51	101.29	54.67	0.00013085	65.333	257.342	170.444	163.009	106.975	167.243	362.840	104.773	112.721	118.224	347.495	108.639	113.257	116.309	119.635	334.932	115.351	-8191	255	
1613.196	1	1	0	0	0.17877	0.20998	0.20815	0.14329	0.10564	0.037508	0.041786	0.14441	0.21695	0.11203	0.16675	0.11891	0.15586	0.15628	0.28815	0.16032	-2.525	-2.9583	-3.2396	-2.9771	-3.3646	-3.1542	-2.8479	-3.4375	-3.0083	-2.9271	-3.1667	-2.9417	-3.3208	-3.2167	-2.8896	-3.3083	265.713	339.357	161.314	233.623	322.902	190.524	240.141	233.932	173.533	246.686	363.903	342.740	261.976	218.470	275.475	324.483	0.00056313	0.00029144	0.00015253	360.5	7.771e-06	2.611e-05	377.76	148.64	8.4009e-06	1.3402e-05	176.94	83.809	70.606	42.697	1.6275e-05	49.876	0.010359	0.012432	0.0034602	537.99	0.00013196	0.00013647	565.21	210.77	0.00012931	0.00013307	287.29	116.75	100.38	54.146	0.00012885	64.975	253.381	170.786	223.442	106.994	260.646	182.699	105.328	112.517	237.656	214.765	108.971	113.286	116.327	119.676	284.160	115.473	-8191	255	
1613.317	1	1	0	0	0.022313	0.20366	0.13491	0.056044	0.10095	0.31122	0.1372	0.20505	0.24625	0.10683	0.14698	0.30256	0.21057	0.073805	0.1549	0.22254	-2.5812	-2.9708	-3.2021	-2.875	-3.1333	-3.275	-3.1646	-3.3229	-2.9833	-3.0542	-3.3187	-3.1125	-3.0687	-3.1854	-3.0812	-3.225	107.698	103.330	413.245	358.947	395.551	159.898	279.600	108.477	190.047	216.072	430.240	381.657	100.268	358.631	150.039	120.005	0.00066812	0.00052904	7.7578e-05	362.52	1.028e-05	1.5027e-05	376.01	150.12	6.7975e-06	8.4385e-06	176.03	84.603	70.747	42.726	1.802e-05	49.664	0.0099971	0.011903	0.0032976	530.43	0.0001258	0.00013004	556.96	209.73	0.00012538	0.00012983	285.33	116.3	99.962	53.883	0.00012742	64.434	260.236	243.661	225.036	107.005	152.261	162.915	104.889	112.931	261.893	124.859	109.070	113.148	116.210	119.735	291.064	115.340	-8191	255	
1613.413	1	1	0	0	0.040027	0.20752	0.094505	0.056679	0.18847	0.11795	0.048027	0.24715	0.041174	0.30632	0.2004	0.067557	0.070712	0.38589	0.19514	0.1212	-2.8229	-2.8021	-3.2354	-2.95	-3.1854	-2.9875	-3.1188	-3.2313	-3.2354	-3.0687	-3.3229	-2.9979	-2.9958	-3.4646	-2.9708	-3.3042	299.204	356.986	166.075	274.525	236.419	335.112	420.497	408.895	378.809	351.100	356.795	200.660	207.370	393.273	344.209	349.519	0.00049715	0.0020362	0.00038371	360.13	3.4684e-06	3.1947e-06	377.36	149.62	9.787e-06	8.9238e-06	174.65	83.617	70.347	42.438	1.3674e-05	49.618	0.01008	0.011951	0.00332	529.73	0.00012731	0.00013167	557.11	209.78	0.00012756	0.00013208	286.39	116.64	100.5	53.984	0.00012884	64.635	257.348	161.524	188.533	107.050	397.097	361.347	104.703	112.422	331.559	347.888	109.166	113.206	116.352	119.724	354.206	115.410	-8191	255	
1613.509	1	1	0	0	0.17404	0.19721	0.14867	0.098759	0.15892	0.091654	0.26542	0.28424	0.10336	0.2059	0.055782	0.020531	0.28672	0.28075	0.26578	0.039345	-2.6917	-3.0479	-3.1396	-3.0021	-3.1354	-3.3875	-3.1063	-3.1917	-3.2333	-2.8646	-3.3146	-3.0354	-3.0083	-3.2687	-2.9375	-3.0375	221.348	197.591	284.480	335.241	276.591	252.048	376.432	446.107	283.686	442.097	186.782	108.812	382.231	405.655	178.338	264.416	0.00059107	0.00037106	0.00038998	362.19	5.4296e-06	8.6832e-06	373.64	149.33	1.0073e-05	7.3143e-06	175.81	83.93	70.379	42.591	1.0223e-05	49.556	0.010133	0.011976	0.0033265	529.86	0.00012734	0.00013194	557.94	210.17	0.0001284	0.00013287	287.31	117.02	100.67	54.161	0.00012949	64.912	262.808	130.229	247.441	106.772	97.452	120.765	104.761	112.596	197.894	452.458	109.051	113.111	116.442	119.786	304.456	115.326	-8191	255	
1613.605	1	1	0	0	0.025434	0.047382	0.15082	0.14268	0.15613	0.10737	0.084432	0.18185	0.13307	0.19566	0.054698	0.16663	0.40442	0.086683	0.065658	0.13432	-2.8229	-2.9479	-3.2625	-3.1854	-2.9854	-3.3771	-3.0729	-3.0333	-3.2125	-2.8167	-3.2646	-3.2083	-2.8979	-3.3708	-3.1479	-3.1437	167.032	117.761	412.632	113.564	146.483	446.760	389.795	439.719	404.318	372.037	167.572	399.300	108.335	198.590	182.894	124.551	0.00070859	0.00011471	0.00032639	361.91	5.5162e-06	9.6036e-06	377.07	149.48	7.5166e-06	5.2067e-06	176.93	83.869	69.758	42.372	6.945e-06	49.71	0.010117	0.011906	0.0033101	530.03	0.0001275	0.00013197	561.69	210.25	0.00013006	0.00013416	289.38	117.48	100.94	54.231	0.00013406	65.542	254.073	300.502	153.567	107.063	303.790	210.515	104.874	112.782	321.986	389.351	109.133	113.441	116.645	119.857	292.313	115.103	-8191	255	
1613.724	1	1	0	0	0.11636	0.27365	0.08929	0.066603	0.38562	0.20724	0.12537	0.048548	0.13316	0.054852	0.10632	0.022795	0.014552	0.17299	0.2089	0.23259	-2.7146	-2.9833	-3.2667	-3.0646	-2.8312	-3.3	-2.8187	-3.2292	-3.2854	-3.1104	-2.9958	-3.2333	-2.7771	-3.3083	-3.2104	-2.9437	129.622	256.913	402.441	307.648	343.818	223.211	222.169	323.394	286.762	330.016	143.983	389.171	414.898	95.820	441.804	344.753	0.00049871	0.0010994	0.00017646	359.78	1.4671e-05	9.0339e-06	377.85	147.71	3.061e-06	6.5225e-06	175.96	83.741	69.419	41.762	3.9257e-06	49.55	0.010597	0.012497	0.0034866	538.2	0.00013392	0.00013734	568.96	210.8	0.0001325	0.00013609	289.84	117.3	99.705	53.41	0.00013039	64.811	265.609	249.304	233.377	106.602	306.572	448.612	104.672	112.736	144.718	254.280	109.077	113.173	116.179	119.729	127.633	115.656	-8191	255	
1613.796	1	1	0	0	0.23204	0.27076	0.0974	0.064893	0.17444	0.15992	0.2391	0.12046	0.15293	0.20692	0.24046	0.24158	0.040568	0.17617	0.052322	0.20991	-3.0729	-2.7875	-3.2458	-3.1354	-3.0812	-3.1813	-3.0083	-3.1521	-3.1562	-2.9792	-3.1333	-3.2208	-2.8563	-3.3542	-2.9646	-3.1229	439.112	142.460	442.868	305.665	225.578	131.787	318.915	405.905	251.185	119.924	168.961	409.368	386.767	414.524	205.839	336.207	0.00041476	0.00087589	0.00022055	359.7	4.4298e-06	1.4017e-05	381.15	147.69	7.7723e-06	3.9671e-06	174.86	83.642	69.971	42.357	1.5194e-05	49.889	0.010177	0.01197	0.0033325	530.98	0.00012736	0.00013081	561.94	208.9	0.00012683	0.00013061	285.63	116.48	99.589	53.74	0.00012695	64.656	265.345	298.821	161.107	106.945	115.194	326.858	105.014	113.010	454.766	202.235	108.586	113.593	116.364	119.800	271.498	115.236	-8191	255	
1613.917	1	1	0	0	0.1115	0.26237	0.14407	0.29036	0.047833	0.21901	0.20421	0.055872	0.11696	0.29331	0.094607	0.3002	0.16954	0.041142	0.12712	0.20896	-2.75	-3.0542	-3.0083	-3.2562	-2.8625	-3.4562	-3.3104	-2.9938	-3.4833	-3.1375	-3.225	-3.2354	-3.05	-3.3	-3.2188	-3.1	357.543	280.975	425.496	453.159	272.974	170.310	366.933	332.864	427.408	394.196	254.043	425.540	429.572	433.960	180.435	348.865	0.00062247	0.00053029	0.00014777	359.83	3.6654e-06	1.5341e-05	374.73	149.07	8.4498e-06	1.0302e-05	174.63	83.669	70.334	42.511	5.4911e-06	49.692	0.0099413	0.011751	0.0032831	528.06	0.00012532	0.00013016	554.61	209.29	0.0001257	0.00013074	284.89	115.92	99.747	53.858	0.00012761	64.313	250.862	124.501	96.422	106.995	245.734	201.927	105.045	112.811	256.137	165.994	109.196	113.117	116.456	119.727	453.381	115.457	-8191	255	
1614.013	1	1	0	0	0.20435	0.054518	0.16409	0.27006	0.22624	0.022921	0.085492	0.24677	0.10203	0.0854	0.082096	0.14034	0.1448	0.14778	0.23382	0.074922	-2.8396	-2.8542	-3.0146	-3.2375	-2.9667	-3.0375	-3.1188	-2.8292	-3.2271	-2.9562	-3.1229	-3.15	-3.0625	-3.2229	-3.3458	-3.1042	127.024	176.051	381.815	123.620	387.323	204.011	128.148	121.232	143.351	111.818	116.882	382.177	176.963	354.280	391.108	452.696	0.00056736	0.00114	0.0005487	358.48	3.7639e-06	2.4982e-05	370.25	145.45	3.8442e-06	9.4476e-06	170.56	81.345	67.529	41.08	1.7766e-06	48.34	0.0098295	0.011645	0.0032386	521.92	0.00012344	0.00012812	548.61	204.7	0.00012444	0.00012891	280.11	113.4	96.861	52.306	0.00012776	63.182	262.761	230.086	251.425	106.668	272.179	282.640	105.116	112.572	318.131	228.972	109.062	113.094	116.524	119.949	225.155	115.463	-8191	255	
1614.109	1	1	0	0	0.1208	0.33981	0.075114	0.37334	0.12898	0.052061	0.18577	0.19977	0.21646	0.04102	0.03214	0.0011182	0.068502	0.078492	0.21674	0.2947	-2.8563	-3.0958	-2.8771	-3.2396	-2.8458	-3.1792	-3.0687	-2.7812	-3.3792	-3.1125	-3.1646	-3.2833	-2.975	-3.0583	-3.2208	-3.0208	168.700	427.915	301.706	433.751	289.805	349.217	137.712	357.609	271.591	241.115	286.949	180.000	161.213	342.274	409.876	244.297	0.00062381	0.00050181	0.00020984	353.96	1.0414e-05	9.282e-06	372.49	144.36	4.0974e-06	3.3494e-06	171.39	82.134	67.949	41.42	4.3842e-06	49.234	0.0098501	0.011645	0.0032344	518.27	0.00012208	0.00012604	547	200.94	0.00011973	0.00012288	275.47	112.41	95.694	51.898	0.00011892	62.921	262.549	146.036	111.735	106.955	303.502	326.680	104.756	112.507	431.560	322.498	108.839	113.371	116.723	119.770	317.610	115.665	-8191	255	
1614.205	1	1	0	0	0.063902	0.16191	0.14367	0.29791	0.050401	0.25124	0.18205	0.085034	0.16926	0.10179	0.23215	0.13728	0.10216	0.20565	0.060414	0.19828	-2.7229	-3.1437	-3.0646	-3.2646	-2.8271	-2.9813	-3.2917	-2.8542	-3.0417	-3.1437	-2.9458	-3.2521	-2.9167	-3.0396	-3.35	-3.0354	399.018	115.301	341.957	321.541	368.164	165.552	310.832	417.310	204.664	446.358	449.306	111.790	169.096	417.930	414.693	388.307	0.00069576	0.0010477	0.00037642	361.04	9.1038e-06	1.4805e-05	376.62	148.45	2.1443e-06	1.6847e-05	176.22	84.491	70.161	42.494	6.5332e-06	49.622	0.0091949	0.010864	0.0030144	512.05	0.00011352	0.00011746	539.99	202.6	0.00011307	0.00011692	275.42	113.31	96.673	52.753	0.00011366	63.198	260.653	169.996	215.675	106.786	358.755	143.373	105.011	112.866	279.172	233.880	108.890	112.959	116.434	119.618	241.413	115.490	-8191	255	
1614.326	1	1	0	0	0.039775	0.10526	0.16112	0.15077	0.18726	0.075174	0.096818	0.21981	0.11992	0.17204	0.32026	0.1903	0.091493	0.25505	0.20312	0.072723	-2.8438	-3.1292	-2.7979	-3.4625	-2.9396	-2.9667	-3.3583	-2.9854	-2.8917	-3.2896	-3.0021	-3.2812	-3.0187	-2.8917	-3.2708	-3.2292	213.096	319.255	307.283	412.181	408.783	135.029	190.261	344.782	346.887	432.526	413.033	411.207	362.220	411.075	339.666	150.114	0.00046862	0.00074097	0.00017113	360.95	1.3011e-05	5.1839e-06	376.59	148.1	8.81e-06	6.5252e-06	175.04	83.592	69.621	41.903	2.7948e-06	49.295	0.009004	0.010751	0.0030056	514.26	0.00011571	0.00011997	544.53	203.51	0.0001166	0.00012096	276.65	113.58	96.944	52.517	0.00011844	63.194	258.021	442.911	161.139	107.214	230.037	225.204	105.036	112.464	196.243	301.575	109.062	113.460	116.230	119.925	131.581	115.478	-8191	255	
1614.397	1	1	0	0	0.15198	0.17699	0.028862	0.042241	0.26881	0.11469	0.1309	0.15476	0.22889	0.069303	0.19122	0.093003	0.034974	0.32452	0.20639	0.14852	-2.7542	-3.2313	-2.8792	-3.4125	-3.0583	-3.0708	-3.2354	-2.8833	-3.0187	-3.4062	-3.1125	-3.1562	-3.2062	-3.0083	-3.2542	-3.1854	381.647	168.070	290.626	159.764	446.483	302.067	274.337	285.895	263.366	355.741	367.846	394.621	392.000	438.517	368.245	257.829	0.00058472	0.00092018	0.00036533	361.9	7.7343e-06	1.5139e-05	377.92	147.65	9.5074e-06	1.0531e-05	177.3	84.466	70.09	42.276	7.6566e-06	49.871	0.0093258	0.011129	0.0031101	517.45	0.00011915	0.00012367	551.04	205.04	0.00012044	0.00012527	282.48	115.67	98.989	53.489	0.00012494	64.6	264.736	235.532	257.320	106.573	243.265	325.977	105.187	112.836	301.274	180.596	109.124	113.221	116.528	119.869	155.859	115.433	-8191	255	
1614.494	1	1	0	0	0.28906	0.22308	0.072666	0.16222	0.089408	0.20457	0.31156	0.12838	0.20219	0.080543	0.28326	0.12955	0.12097	0.13496	0.27186	0.081945	-2.7292	-3.4875	-2.7646	-3.3312	-3.1896	-2.9333	-3.2167	-3.0854	-2.9938	-3.3292	-2.9	-3.1188	-3.2104	-3.0208	-3.1667	-3.1917	422.973	316.039	157.813	451.763	145.909	351.290	414.508	454.210	118.231	274.180	103.776	375.379	202.941	367.969	111.666	302.191	0.00050637	0.0005684	0.00035455	359.34	3.8812e-06	1.4497e-05	378.13	145.9	3.3465e-06	1.6418e-05	173.68	82.851	68.007	41.32	3.9985e-06	48.83	0.0098003	0.011635	0.0032123	524.15	0.00012333	0.00012781	558.15	205.68	0.00012581	0.00013076	284.45	115.62	98.451	52.823	0.00013296	64.605	255.458	270.955	165.529	106.641	314.435	230.265	105.015	112.224	282.897	245.517	109.177	113.284	116.568	119.752	223.067	115.409	-8191	255	
1614.590	1	1	0	0	0.12186	0.11824	0.14899	0.21348	0.03277	0.025198	0.13498	0.26728	0.27277	0.14932	0.29236	0.14196	0.028379	0.25793	0.10796	0.13237	-2.6104	-2.9521	-2.8833	-3.1188	-3.3542	-2.9938	-3.3354	-2.8979	-2.9271	-3.375	-2.9479	-3.0083	-3.2583	-3.0875	-3.2771	-3.2667	196.990	343.795	209.313	125.551	282.494	452.974	442.642	359.094	308.600	442.585	366.371	190.291	282.826	383.510	209.032	411.861	0.00052224	0.0004989	0.00018277	361.33	1.3561e-05	1.38e-05	379.08	146.33	6.5663e-06	2.1502e-05	175.66	84.122	68.548	41.922	1.1995e-05	50.017	0.010647	0.01278	0.0035596	541.42	0.00013749	0.00014212	576.75	210.8	0.00013712	0.00014003	292.96	118.25	100.31	53.779	0.00013446	65.647	259.465	413.570	272.494	107.035	263.107	228.987	105.270	112.644	204.526	269.369	109.482	113.158	116.454	119.848	239.672	115.462	-8191	255	
1614.686	1	1	0	0	0.043069	0.26906	0.089418	0.30724	0.1499	0.31538	0.27163	0.058442	0.20395	0.152	0.13261	0.13238	0.058993	0.16625	0.12656	0.16099	-2.6271	-3.0604	-2.8354	-3.0812	-3.15	-2.8729	-3.3083	-3.0667	-3.0417	-3.3604	-3.0708	-3.1146	-3.275	-3.0104	-3.3875	-3.1562	323.893	316.304	405.650	180.531	414.832	350.167	295.860	153.773	348.876	344.688	244.416	167.180	192.779	302.751	414.435	339.329	0.00065701	0.00040083	0.00022456	363.24	1.0187e-05	2.0413e-05	386.65	149.01	1.0542e-05	7.2421e-06	178.47	85.383	70.419	42.672	2.0009e-06	50.698	0.010577	0.012484	0.0034716	540.32	0.00013168	0.00013526	573.06	211.35	0.00012944	0.00013266	290.04	118.03	100.13	54.002	0.00012646	65.316	255.230	383.939	172.874	106.760	438.266	217.167	104.834	113.001	233.281	216.924	109.370	113.283	116.324	119.824	207.089	115.481	-8191	255	
1614.805	1	1	0	0	0.20939	0.12198	0.21011	0.11833	0.10107	0.087567	0.082628	0.17333	0.15823	0.11391	0.037117	0.10206	0.17365	0.028884	0.13991	0.18632	-2.5896	-3.2271	-3.075	-3.0708	-3.1896	-3.1417	-3.1063	-3.2146	-3.0271	-3.2313	-3.1229	-2.8708	-3.2167	-3.0271	-3.1521	-3.2146	212.605	346.315	124.787	388.720	446.637	253.470	449.006	354.443	453.928	285.641	218.286	372.169	179.004	138.205	178.072	341.181	0.00057292	0.00038083	0.00030746	361.34	6.328e-06	3.809e-06	381.49	149.11	1.1679e-05	1.6253e-05	175.87	84.128	70.101	42.671	1.205e-05	49.7	0.0098766	0.011628	0.0032329	527.95	0.0001239	0.000127	555.85	208.07	0.00012125	0.00012369	281.11	114.98	98.324	53.316	0.00012173	64.118	266.512	172.235	373.110	106.738	361.638	189.602	104.858	112.876	273.079	119.610	108.845	113.053	116.718	120.008	211.650	115.232	-8191	255	
1614.901	1	1	0	0	0.11579	0.22758	0.32707	0.088293	0.094783	0.2904	0.062629	0.053529	0.10164	0.068629	0.16222	0.22238	0.207	0.097402	0.17776	0.16704	-2.3833	-3.0667	-2.9708	-3.0417	-3.2917	-3.025	-2.9688	-3.0729	-2.8979	-3.0938	-3.3354	-2.9583	-3.3271	-2.9188	-3.0708	-3.3812	190.626	355.524	123.929	429.590	386.675	99.630	132.628	112.531	149.786	251.864	408.184	418.259	403.709	294.622	184.326	173.585	0.00068521	0.0017488	0.0003309	362.39	1.4178e-05	4.6205e-06	378.29	147.48	7.0899e-06	1.8854e-05	176.12	83.733	69.681	42.187	1.1569e-05	49.762	0.0095054	0.011208	0.0031377	520.63	0.0001185	0.00012101	546.35	203.03	0.00011498	0.00011692	273.1	112.42	95.316	52.143	0.00010799	62.513	264.546	214.453	410.456	106.728	288.921	104.244	105.019	112.637	231.683	188.482	108.593	113.381	116.187	119.515	273.101	115.547	-8191	255	
1614.997	1	1	0	0	0.11586	0.093601	0.13829	0.064817	0.039132	0.18258	0.15956	0.1469	0.14026	0.037984	0.19053	0.35677	0.051861	0.12245	0.097932	0.22501	-2.3979	-3.3104	-2.9208	-2.8771	-3.3354	-2.9833	-3.0771	-3.1479	-2.7188	-3.0167	-3.0938	-2.9333	-3.2938	-2.9854	-2.9833	-3.3854	291.791	109.254	161.795	131.242	279.525	178.971	279.489	232.505	102.539	220.681	377.172	398.906	444.643	189.081	310.425	397.654	0.00065344	0.0010775	0.0001336	362.51	1.0385e-05	6.5336e-06	384.4	147.17	5.3429e-06	1.038e-05	173.65	82.873	68.172	41.366	2.1773e-06	49.048	0.0083823	0.009882	0.002767	506.44	0.00010597	0.00010981	537.8	198.46	0.00010795	0.00011213	270.21	111.1	94.211	51.501	0.00011437	62.5	255.744	108.475	187.939	106.733	257.883	147.720	105.130	112.661	336.430	319.147	109.090	113.436	116.366	119.816	164.054	115.497	-8191	255	
1615.093	1	1	0	0	0.070553	0.043291	0.1312	0.21333	0.031296	0.24667	0.21852	0.15681	0.18005	0.07133	0.36295	0.17264	0.16433	0.32478	0.17152	0.25417	-2.5021	-3.1625	-2.9167	-2.9813	-3.2042	-3.0771	-3.0229	-3.0708	-2.95	-2.9583	-3.1583	-2.8979	-3.1792	-3.0792	-2.7854	-3.2375	283.788	443.716	252.864	423.007	120.532	99.430	108.588	104.104	135.415	354.818	321.685	293.053	142.050	154.827	440.164	376.957	0.00041532	0.00065818	0.00026257	360.26	1.2953e-05	1.5397e-05	381.86	144.94	6.8099e-06	1.9498e-05	172.25	81.806	66.714	40.679	1.9416e-05	48.683	0.0090035	0.010617	0.0029725	512.89	0.00011345	0.00011742	545.01	199.22	0.00011417	0.00011872	273.08	111.32	94.075	51.187	0.00011712	62.302	254.356	361.446	216.165	106.233	183.067	382.497	104.586	112.698	129.781	182.251	108.612	113.381	116.697	119.909	275.605	115.717	-8191	255	
1615.189	1	1	0	0	0.24432	0.046212	0.1168	0.21564	0.28066	0.15934	0.28616	0.098298	0.29512	0.016268	0.26054	0.19548	0.32906	0.26593	0.18137	0.030039	-2.4979	-3.0812	-3.2313	-2.9333	-3.1708	-3.1292	-2.975	-2.9396	-2.9708	-3.0479	-3.0563	-2.8646	-3.2438	-3.0875	-2.8708	-3.3167	397.169	360.158	109.316	158.880	198.899	406.606	372.441	364.266	346.729	294.153	338.594	112.649	137.825	96.529	155.864	430.089	0.00064	0.0008446	0.0003795	358.53	3.2394e-06	1.9662e-05	379.44	143.54	7.4745e-06	1.6393e-05	170.19	81.054	67.017	40.622	2.0265e-06	48.315	0.0090298	0.01067	0.0029661	511.61	0.00011197	0.00011521	538.27	196.18	0.00010988	0.00011352	265.56	109.09	92.509	50.722	0.00011125	61.489	254.691	138.888	189.275	106.418	274.271	208.806	104.783	112.873	222.981	443.102	108.559	113.178	116.784	119.806	446.186	115.534	-8191	255	
1615.285	1	1	0	0	0.056199	0.079946	0.24333	0.11519	0.23403	0.015477	0.28049	0.13912	0.067692	0.30037	0.12489	0.14494	0.06138	0.13304	0.20453	0.19127	-2.5479	-2.8625	-3.1146	-3.0271	-3.2333	-3.1083	-2.8625	-3.2771	-2.9542	-3.0333	-3.3583	-3.1229	-3.1188	-3.3063	-2.9667	-3.2229	452.921	291.300	372.099	114.820	265.249	120.367	333.179	214.193	403.389	248.938	149.957	424.523	208.432	199.311	162.201	402.806	0.00047563	0.0013493	0.00028697	358.91	8.3796e-06	1.2777e-05	375.59	145.9	6.768e-06	8.0355e-06	174.25	82.728	69.34	42.131	1.723e-05	49.795	0.0086937	0.010319	0.002875	505.72	0.00010891	0.00011269	532.05	197.42	0.00010809	0.00011217	267.81	110.61	94.55	51.992	0.00010923	62.43	262.080	106.362	235.021	106.825	283.581	225.886	105.247	112.772	292.459	206.328	108.837	113.426	116.378	119.768	266.523	115.332	-8191	255	
1615.406	1	1	0	0	0.26458	0.081044	0.082985	0.21175	0.28654	0.069462	0.11777	0.039262	0.18319	0.31139	0.14805	0.28165	0.13384	0.27912	0.19198	0.22091	-2.6479	-2.8312	-3.2979	-2.85	-3.1271	-3.3937	-2.9708	-3.2417	-3.1063	-3.0187	-3.2042	-2.9625	-2.9417	-3.1354	-2.925	-3.1917	130.816	250.068	285.576	109.232	188.518	238.921	140.129	134.116	201.235	150.594	351.656	347.218	396.270	383.872	319.074	253.419	0.00063187	0.0012239	9.7356e-05	362.14	6.3677e-06	1.824e-05	378.79	148.32	6.2523e-06	5.3434e-06	175.45	83.639	69.325	42.412	5.9465e-06	49.465	0.0084596	0.009979	0.0027621	502.03	0.00010356	0.00010618	526.04	196.55	0.00010034	0.00010354	262.81	109.43	93.107	51.506	0.00010189	61.689	261.953	197.405	215.867	106.975	174.622	119.211	104.758	112.705	366.082	152.679	109.469	113.157	116.559	119.740	356.648	115.144	-8191	255	
1615.502	1	1	0	0	0.089003	0.2416	0.064493	0.18164	0.05587	0.13862	0.154	0.27744	0.33411	0.26305	0.15664	0.19974	0.18735	0.11786	0.30922	0.16252	-2.675	-2.9	-3.4229	-2.8104	-2.9792	-3.3646	-2.9458	-3.0917	-3.2583	-3.1396	-3.2833	-2.8083	-3.0396	-3.2292	-3.0542	-3.1458	208.421	154.821	306.965	352.499	137.046	307.817	142.443	414.159	434.924	167.593	279.051	377.227	141.921	141.220	96.067	379.400	0.00044965	0.00094824	0.00020442	362.06	4.4708e-06	8.7862e-06	380.12	146.12	3.6074e-06	1.0574e-05	174.99	83.46	68.744	41.849	1.0687e-05	49.47	0.0080734	0.0095614	0.002679	499.56	0.00010387	0.00010782	530.21	196.91	0.00010608	0.00010936	267.38	110.64	94.044	51.646	0.00010697	62.088	260.121	207.894	156.080	106.825	233.773	428.380	105.003	112.766	253.097	189.026	108.660	112.885	116.400	119.826	204.969	115.705	-8191	255	
1615.597	1	1	0	0	0.090497	0.14714	0.059575	0.26143	0.026237	0.36605	0.19555	0.34009	0.047109	0.14239	0.28775	0.15309	0.13812	0.19837	0.27714	0.056759	-2.6813	-2.8458	-3.1312	-2.9542	-3.0146	-3.2417	-2.8167	-3.0729	-3.2458	-2.8167	-3.2729	-3.1354	-2.9958	-3.3563	-3.0667	-3.1583	100.351	274.896	278.303	418.829	225.771	298.675	443.420	451.600	294.108	105.589	171.160	332.557	365.808	396.624	226.484	122.588	0.0006197	0.0019124	0.00047103	360.56	1.0803e-05	1.5043e-05	376.88	145.79	7.6645e-06	1.3923e-05	174.72	82.588	67.969	41.459	1.276e-05	48.694	0.0084255	0.0099719	0.0027797	502.86	0.00010627	0.00010964	529.06	196.59	0.00010699	0.00010975	265.46	109.81	93.651	51.332	0.00010937	61.698	249.173	416.208	206.155	106.811	295.252	438.998	105.080	112.239	235.986	152.815	109.168	113.078	116.428	119.999	311.225	115.318	-8191	255	
1615.693	1	1	0	0	0.3137	0.11631	0.072805	0.08203	0.091759	0.14519	0.25244	0.24577	0.067761	0.11611	0.12846	0.13408	0.21964	0.23026	0.12007	0.12309	-2.7167	-3.0229	-3.3187	-3.1188	-2.9521	-3.275	-3.0729	-2.9917	-3.3375	-2.8854	-3.0396	-3.0875	-2.9271	-3.2854	-2.9417	-3.1437	427.328	271.822	375.100	180.556	153.590	357.219	338.022	312.597	417.655	380.461	205.337	191.190	301.660	436.341	336.456	116.429	0.00063274	0.0013962	0.00013517	357.48	2.8641e-06	2.4512e-06	372.83	143.99	1.4981e-06	8.0866e-06	169.21	80.519	67.001	40.784	4.1877e-06	48.025	0.0086378	0.010231	0.0028413	502.89	0.00010871	0.00011186	527.81	195.55	0.00010867	0.00011151	263.49	108.42	92.212	50.576	0.00010722	60.931	268.507	230.743	205.757	106.875	348.952	232.194	104.909	112.820	159.252	451.160	109.326	113.313	116.526	120.080	155.163	115.143	-8191	255	
1615.789	1	1	0	0	0.19847	0.23374	0.25586	0.080478	0.13873	0.15112	0.1821	0.044158	0.11314	0.17004	0.19484	0.26288	0.1773	0.14707	0.29866	0.11476	-2.8521	-2.8979	-3.1583	-3.1604	-2.9271	-3.1896	-2.9188	-3.2479	-3.2917	-3.0604	-3.2271	-3.1437	-3.175	-3.2229	-2.9583	-3.0417	364.639	327.972	370.985	132.239	315.704	221.627	387.626	197.434	336.950	128.220	353.879	312.563	340.204	204.216	205.339	416.282	0.00048189	0.00035811	0.00011299	356.79	6.6952e-06	6.8132e-06	372.96	142.88	5.9625e-06	3.5262e-06	170	80.003	65.867	40.329	9.8218e-06	47.768	0.0084462	0.010017	0.002794	500.46	0.00010777	0.00011157	529.32	195.25	0.00010992	0.00011417	266.26	109.17	92.674	50.493	0.00011291	61.276	257.614	368.391	127.024	106.410	405.039	172.605	104.867	112.336	347.366	111.323	109.224	113.401	116.388	120.109	286.830	115.676	-8191	255	
1615.885	1	1	0	0	0.1641	0.017512	0.16394	0.086242	0.074954	0.22979	0.06311	0.13239	0.12022	0.08769	0.099032	0.029483	0.14316	0.035039	0.073708	0.20478	-2.7458	-2.8083	-3.15	-3.1958	-3.0021	-3.2229	-2.9625	-3.0854	-3.2542	-3.0458	-2.9042	-3.1604	-2.7583	-3.3146	-3.025	-2.9917	405.133	325.882	432.156	275.149	441.962	277.865	379.764	422.851	423.839	439.210	435.876	342.436	334.096	298.362	160.389	454.241	0.00064262	0.00065997	0.00020427	358.27	1.045e-05	6.4727e-06	376.52	143.38	1.7453e-06	1.5277e-05	172.07	81.711	67.153	40.767	9.2226e-06	48.49	0.0087827	0.010335	0.0028707	504.1	0.00010824	0.0001113	530.41	194.65	0.00010666	0.0001101	264.69	109.04	92.195	50.506	0.00010916	61.419	257.622	395.196	153.767	106.449	363.273	288.110	105.211	112.502	144.106	183.241	108.892	113.007	116.267	119.937	129.780	115.667	-8191	255	
1615.981	1	1	0	0	0.042644	0.12969	0.10729	0.23276	0.19022	0.10262	0.097092	0.076716	0.24926	0.079445	0.12494	0.067495	0.29736	0.12151	0.060042	0.18036	-2.8688	-2.9125	-3.1188	-3.1604	-2.9375	-3.3833	-3.1021	-2.9	-3.2875	-3.0375	-3.0792	-3.3208	-2.9125	-3.0271	-2.9875	-3.0958	292.790	250.877	112.209	98.300	261.741	208.451	402.303	107.959	249.645	396.312	174.374	400.801	324.094	432.531	251.985	454.760	0.00051101	0.00047926	0.00042671	358.72	9.8684e-06	8.2436e-06	378.97	142.67	9.791e-06	6.0517e-06	171.85	81.142	66.703	40.649	6.9108e-06	48.484	0.0085395	0.010102	0.0028269	503.7	0.00010844	0.00011222	536.25	195.5	0.00010981	0.0001137	268.05	109.91	92.815	50.772	0.00011341	61.951	267.843	146.488	174.006	106.633	317.105	302.477	105.215	112.942	269.703	278.589	109.129	113.383	116.765	119.926	140.950	115.352	-8191	255	
1616.102	1	1	0	0	0.087451	0.15469	0.049406	0.082755	0.15187	0.18724	0.13819	0.045931	0.255	0.20781	0.1464	0.15343	0.10909	0.07456	0.10424	0.23583	-2.8375	-2.9229	-2.8937	-3.3146	-2.875	-3.2208	-3.1979	-2.8917	-2.9854	-3.1042	-2.9062	-3.3646	-2.8542	-3.0792	-3.2729	-2.8583	423.553	406.549	157.616	410.592	187.524	446.154	175.950	184.939	434.446	97.279	323.786	360.251	415.329	360.298	398.038	393.656	0.00052393	0.00078757	0.00016169	356.69	1.8959e-06	6.7044e-06	376.51	142.74	7.0877e-06	5.9225e-06	169.1	79.916	65.736	40.216	9.221e-06	47.334	0.0088404	0.010454	0.0029292	506.41	0.00011073	0.00011435	535.18	195.41	0.00011041	0.00011397	265.91	108.37	91.679	50.041	0.00011306	60.666	268.961	353.656	105.727	106.915	234.834	111.609	104.798	112.353	127.221	189.226	109.316	112.969	116.494	120.033	327.430	115.317	-8191	255	
1616.198	1	1	0	0	0.062535	0.17014	0.061092	0.098492	0.13444	0.28363	0.14562	0.16955	0.17017	0.11702	0.040748	0.28728	0.010111	0.10927	0.3169	0.1742	-2.8854	-2.9354	-2.6521	-3.3354	-3.0271	-3.1229	-3.2833	-3.0563	-3.0396	-3.0104	-2.9771	-3.3312	-3.0792	-3.1042	-3.0438	-3.0771	373.821	111.689	218.274	368.289	166.646	448.201	181.977	302.449	424.907	216.951	209.823	213.381	321.325	113.425	179.678	344.555	0.00050617	0.0010696	0.00037646	353.88	7.1596e-06	1.2309e-05	367.2	139.47	5.8223e-06	7.8382e-06	165.17	78.256	64.665	39.377	1.5251e-05	46.794	0.0089013	0.010589	0.0029781	505.38	0.000114	0.00011835	533.04	194.69	0.00011605	0.0001208	267.44	108.28	91.921	49.803	0.00011733	60.339	238.191	176.876	194.995	107.146	272.560	270.677	104.881	112.449	296.677	169.299	109.159	113.112	116.662	120.027	301.720	115.411	-8191	255	
1616.270	1	1	0	0	0.23213	0.036225	0.08605	0.24786	0.22772	0.24479	0.18231	0.047589	0.13468	0.39416	0.31982	0.056711	0.13804	0.25884	0.29102	0.23759	-2.6188	-2.9083	-2.8708	-3.2479	-3.0271	-2.975	-3.3104	-2.7354	-2.9958	-3.2333	-2.7958	-3.2771	-2.8979	-3.0563	-3.0479	-3.1042	440.281	231.637	427.649	123.733	443.784	266.306	398.122	283.441	305.684	332.127	342.937	167.383	357.257	366.516	116.294	360.793	0.00053737	0.000129	0.00014298	353.66	1.0056e-05	2.1955e-05	367.28	139.43	1.0915e-05	1.3458e-05	165.26	78.826	65.11	39.737	1.5442e-05	47.152	0.0090675	0.010748	0.0029917	503.81	0.00011325	0.00011751	529.64	193.4	0.00011379	0.00011854	265.38	108.09	92.184	50.142	0.0001165	60.693	256.793	283.693	234.779	106.484	212.632	283.191	104.908	112.695	314.044	256.358	108.995	113.611	116.700	119.876	237.262	115.529	-8191	255	
1616.366	1	1	0	0	0.053329	0.035865	0.16667	0.16335	0.15144	0.14849	0.051146	0.18015	0.056958	0.2777	0.13713	0.30854	0.2565	0.14871	0.16885	0.20861	-2.7229	-3.0271	-2.8688	-3.2583	-3	-2.8563	-3.1875	-2.9562	-2.9583	-3.1625	-2.925	-3.0521	-3.0833	-2.9958	-3.3083	-3.1104	231.268	410.234	303.803	415.911	283.443	212.817	369.283	425.251	369.647	247.336	208.413	97.828	423.981	122.684	442.900	373.564	0.00054498	0.0010409	0.00031723	349.8	7.4466e-06	1.6063e-05	369.21	139.47	3.7486e-06	2.1555e-06	168.05	80.116	65.141	39.945	9.0289e-06	47.679	0.0090772	0.010807	0.00299	503.6	0.00011347	0.00011743	531.81	193.6	0.0001128	0.00011715	265.95	108.51	92.146	50.307	0.0001148	61.205	261.358	160.090	448.763	106.458	248.837	337.549	104.722	112.628	240.750	374.738	108.903	113.092	116.641	120.026	271.680	115.239	-8191	255	
1616.486	1	1	0	0	0.312	0.035344	0.16267	0.079438	0.21302	0.21433	0.172	0.10789	0.11856	0.18642	0.22007	0.36981	0.27669	0.060373	0.014462	0.1589	-2.525	-3.2854	-2.6646	-3.125	-3.0521	-2.8958	-3.1917	-2.9104	-3.0292	-3.2062	-2.7687	-3.25	-3.1792	-2.8979	-3.2646	-2.9771	229.100	234.649	265.809	146.649	394.084	308.033	395.977	250.840	163.659	355.526	430.102	400.701	380.411	128.063	377.123	374.765	0.00058801	0.00047388	0.00039365	353.99	5.2634e-06	1.0755e-05	371.08	141.19	2.7399e-06	1.0202e-05	168.48	80.878	65.919	40.456	2.336e-05	48.048	0.0090579	0.01071	0.0029557	504.39	0.00011273	0.00011605	532.72	194.12	0.00011045	0.00011339	264.11	108.58	91.84	50.443	0.00011238	61.235	263.535	191.978	261.309	106.762	235.017	252.917	105.010	112.782	391.766	444.895	108.764	113.480	116.832	119.852	147.471	115.509	-8191	255	
1616.583	1	1	0	0	0.10147	0.10499	0.17216	0.01792	0.016686	0.19267	0.14156	0.20322	0.19502	0.096311	0.21646	0.39603	0.15236	0.28571	0.18303	0.44196	-2.7229	-3.2979	-2.8146	-3.1958	-3.1771	-2.8167	-3.2104	-2.9375	-3.0604	-3.0146	-3.05	-3.0333	-3.3354	-2.8958	-3.3125	-3.1562	361.570	323.306	151.322	104.491	149.589	330.945	226.791	449.250	187.417	342.773	223.084	338.438	121.268	300.411	286.508	326.129	0.00055345	0.0022993	0.00015239	356.6	5.5049e-06	2.6522e-05	367.03	141.23	7.485e-06	2.2998e-05	168.43	79.044	65.986	40.229	3.3791e-06	47.675	0.0089452	0.010673	0.0029761	504.92	0.00011418	0.00011683	528.37	194.4	0.00011212	0.00011539	263.65	107.6	91.832	50.152	0.00011053	60.491	250.061	139.766	196.150	107.066	193.660	238.909	105.109	112.500	255.067	278.820	109.468	113.336	116.574	119.874	340.886	115.728	-8191	255	
1616.679	1	1	0	0	0.25721	0.35244	0.20313	0.12545	0.044085	0.3316	0.1676	0.16947	0.13506	0.12741	0.11854	0.054804	0.21064	0.049796	0.22335	0.30059	-2.4188	-3.2708	-2.9792	-2.95	-3.1854	-2.9125	-3.1604	-3.0208	-2.7229	-3.4708	-2.8375	-3.1583	-3.1792	-2.8958	-3.15	-3.0646	173.680	276.081	405.428	209.596	240.481	374.898	173.778	380.924	182.095	416.475	143.646	137.191	380.081	256.351	336.435	445.770	0.00036198	0.00083143	0.0002331	348.64	6.3736e-06	5.602e-06	367.28	140.2	1.8896e-06	9.3331e-06	167.6	79.666	66.063	40.632	4.3638e-06	47.959	0.0087139	0.01031	0.0028702	497.29	0.00011008	0.00011311	523.81	192.89	0.00010926	0.00011194	261.55	107.86	92.008	50.505	0.00010992	61.059	273.646	193.386	227.282	106.691	319.276	355.657	105.003	112.834	165.813	196.116	108.814	113.462	116.279	119.960	138.301	115.490	-8191	255	
1616.798	1	1	0	0	0.134	0.17693	0.10767	0.063784	0.11727	0.02012	0.063057	0.055122	0.095527	0.091652	0.063155	0.17593	0.20495	0.31199	0.2323	0.24263	-2.6083	-3.1354	-2.8917	-3.1125	-3.1229	-3.0042	-3.1646	-3.2542	-3.0854	-3.2417	-2.925	-2.9625	-3.2875	-2.9542	-3.0042	-3.1688	221.544	432.300	132.786	176.780	332.608	122.056	334.347	257.017	116.784	151.510	312.678	323.171	398.359	98.398	342.364	442.984	0.00054094	0.0010221	0.00033173	352.13	5.2704e-06	1.1866e-05	368.44	143.65	2.7107e-06	9.5834e-06	172.03	81.238	66.859	40.928	2.1134e-05	48.484	0.0086785	0.010227	0.0028399	497.89	0.00010869	0.00011087	524.51	194.84	0.00010757	0.00010993	262.91	108.85	92.351	50.711	0.0001079	61.469	261.482	211.024	156.361	106.862	307.644	116.613	105.276	112.697	380.608	215.702	109.115	113.354	116.696	119.976	255.629	115.571	-8191	255	
1616.894	1	1	0	0	0.21331	0.27726	0.34027	0.27743	0.094624	0.24889	0.15284	0.09217	0.13564	0.29061	0.21483	0.24782	0.2042	0.13984	0.19247	0.13213	-2.45	-3.0896	-3.0083	-3.0271	-3.2812	-2.9208	-3.0021	-3.1104	-2.8438	-3.2021	-3.1	-2.8708	-3.1479	-2.8792	-3.0312	-3.4625	428.077	232.693	425.880	394.644	309.442	184.978	214.207	242.970	279.282	265.466	423.330	401.922	434.727	369.862	137.418	321.876	0.00074529	0.00087745	0.00038657	351.74	3.9931e-06	9.2162e-06	373.41	143.18	1.4536e-05	1.0645e-05	170.92	81.644	67.208	41.05	1.0444e-05	48.649	0.0085364	0.010082	0.0028132	497.66	0.00010788	0.00010994	528.36	194.77	0.0001081	0.00011169	265.96	109.52	92.753	50.945	0.00011162	61.886	258.420	157.626	233.761	106.520	237.926	246.525	104.898	112.616	291.393	319.096	109.200	113.506	116.606	120.103	243.830	115.423	-8191	255	
1616.967	1	1	0	0	0.13943	0.20245	0.039644	0.29394	0.16446	0.16017	0.16907	0.21049	0.040449	0.071378	0.28729	0.16747	0.2491	0.40097	0.092111	0.06859	-2.3854	-3.1875	-3.0396	-3.0667	-3.1354	-2.8396	-3.1562	-3.0333	-2.8646	-3.2458	-3.2979	-2.9875	-3.2188	-3.0875	-2.7542	-3.3771	446.159	152.145	242.911	402.217	196.431	160.252	256.383	173.254	267.254	307.114	443.788	433.401	342.865	440.357	251.816	133.811	0.00060329	0.0012591	0.00037066	352.21	8.8416e-06	2.5503e-06	371.8	142.65	2.5863e-06	5.9736e-06	169.2	80.602	66.387	40.901	1.5091e-05	47.95	0.0087401	0.010353	0.0029033	501.33	0.0001101	0.00011328	530.84	195.19	0.00010974	0.00011362	266.06	109.04	92.853	50.995	0.00011328	61.562	260.869	178.240	114.874	106.648	234.166	311.546	105.119	112.569	366.082	268.925	109.141	113.341	116.277	119.910	216.935	115.367	-8191	255	
1617.086	1	1	0	0	0.32732	0.15957	0.38541	0.14812	0.10393	0.12011	0.15653	0.13511	0.12867	0.17841	0.067228	0.18541	0.26028	0.13977	0.19774	0.42674	-2.6042	-3.1979	-3.1229	-3.1125	-3.2062	-3.1333	-3.1396	-3.2042	-3.1437	-3.0792	-3.1417	-3.0042	-3.2188	-3.0563	-2.9437	-3.4417	179.925	452.154	425.271	376.319	170.569	273.569	365.425	390.229	314.520	255.419	424.572	423.830	178.484	402.385	150.735	402.041	0.00058242	0.0010387	0.00017925	352.9	1.8512e-05	3.9248e-06	368.98	142.94	1.4358e-05	1.0174e-05	170.38	81.085	66.583	40.792	6.7184e-06	48.216	0.0088821	0.010564	0.0029574	504.68	0.00011197	0.00011588	532.45	196.86	0.00011195	0.00011656	269.17	110.12	93.408	51.105	0.0001154	61.637	243.996	140.686	177.112	106.725	154.303	333.116	105.145	112.641	295.209	187.030	108.898	113.398	116.703	119.938	339.034	115.573	-8191	255	
1617.182	1	1	0	0	0.32485	0.18828	0.1437	0.31779	0.20119	0.099418	0.10841	0.22449	0.059142	0.18308	0.26384	0.17896	0.25861	0.34899	0.38339	0.20087	-2.575	-2.8479	-3.1396	-2.8896	-3.2854	-3.1208	-3.0312	-3.2167	-3.025	-3.1792	-3.2771	-2.8604	-3.2667	-3.0542	-3.1417	-3.3	242.862	387.349	276.324	406.698	384.982	364.946	367.427	355.322	129.997	320.584	403.729	375.615	451.119	113.981	157.163	125.428	0.00050949	0.00077515	0.00028469	354.09	4.2893e-06	9.6091e-06	373.18	142.67	9.0702e-06	5.6878e-06	169.34	80.184	66.689	40.644	6.6739e-06	48.222	0.0088975	0.010602	0.0029381	503.54	0.00011066	0.00011497	532.84	195.09	0.00011053	0.00011516	267.01	109.32	92.925	50.884	0.00011486	61.814	269.860	399.799	375.434	106.675	148.430	211.808	105.186	112.811	237.804	409.469	109.060	113.604	116.745	119.966	292.866	115.475	-8191	255	
1617.278	1	1	0	0	0.11588	0.24769	0.22595	0.090049	0.15499	0.25303	0.23818	0.13233	0.016397	0.037154	0.18062	0.025916	0.1882	0.22226	0.13336	0.26061	-2.525	-3.1854	-3.3229	-3.0333	-3.225	-3.2521	-3.0625	-3.2708	-3.0708	-3.1188	-3.2938	-2.8771	-3.25	-3.3708	-2.9729	-3.1875	374.082	197.622	235.271	140.351	151.773	443.245	101.744	430.451	163.581	397.949	160.997	433.790	352.400	413.577	107.512	116.627	0.00051994	0.0015183	0.00020537	354.04	4.3659e-06	5.0603e-06	375.54	143.55	3.1916e-06	1.3206e-05	170.81	81.641	66.705	40.773	6.1515e-06	48.455	0.0090531	0.010809	0.0030286	509.68	0.00011551	0.00012058	543.26	198.81	0.00011628	0.00012049	272.55	111.08	94.077	51.33	0.00011749	62.239	251.671	197.037	153.309	107.167	296.463	340.491	104.987	112.630	336.520	269.545	108.758	113.110	116.549	119.809	351.891	115.644	-8191	255	
1617.399	1	1	0	0	0.11247	0.035658	0.10901	0.21452	0.082235	0.080851	0.14264	0.26175	0.02505	0.17724	0.13872	0.12694	0.12239	0.12738	0.1545	0.016346	-2.4042	-2.9042	-3.2313	-3.0062	-3.1562	-3.3292	-2.8979	-3.3396	-3.1229	-2.9292	-3.3417	-3.0729	-3.2375	-3.2896	-2.8292	-3.3271	95.718	420.599	275.522	119.003	347.348	257.021	454.292	371.981	331.609	196.544	154.152	300.120	360.313	111.780	339.315	418.036	0.00053786	0.00047897	2.4527e-05	354.46	7.5679e-06	4.7398e-06	376.78	142.82	3.1809e-06	1.0316e-06	170.74	81.4	65.742	40.243	4.192e-06	48.036	0.0091965	0.010926	0.0030428	509.09	0.00011618	0.00012073	544.58	197.63	0.00011723	0.0001217	272.73	110.91	93.606	50.859	0.00011986	62.027	268.783	105.857	268.555	106.604	282.438	270.928	104.739	112.773	348.509	175.591	108.844	113.676	116.556	120.114	136.943	115.456	-8191	255	
1617.493	1	1	0	0	0.11206	0.39581	0.18581	0.041425	0.28766	0.18708	0.2521	0.15343	0.16354	0.074595	0.04634	0.035857	0.22134	0.1476	0.10697	0.091084	-2.5833	-2.9354	-3.1771	-2.9792	-3.1896	-3.2271	-2.9542	-3.2188	-3.1479	-2.9437	-3.3563	-2.9854	-3.0583	-3.4938	-3.0604	-3.2062	443.321	385.349	188.589	401.709	406.140	121.639	363.516	339.056	107.743	273.029	383.390	448.148	259.646	438.078	376.629	428.678	0.00051985	0.00082615	0.00023723	357.11	7.2451e-06	2.7645e-05	371.35	142.76	1.2118e-05	5.8543e-06	170.77	80.613	66.71	40.683	1.1254e-05	47.839	0.0094204	0.011168	0.0031009	513.38	0.00011854	0.00012207	541.49	198.66	0.00011748	0.00012087	271.25	110.34	94.227	51.175	0.00011733	61.638	264.431	209.826	451.689	106.711	391.028	254.217	105.611	112.688	280.247	406.375	109.084	113.453	116.770	119.959	318.418	115.331	-8191	255	
1617.567	1	1	0	0	0.22279	0.23763	0.19582	0.21678	0.14172	0.074356	0.16904	0.11668	0.13905	0.11002	0.27881	0.08799	0.05661	0.16275	0.14351	0.14409	-2.7083	-2.8438	-3.3792	-3.1208	-2.9813	-3.4208	-2.9146	-3.1688	-3.1604	-2.8875	-3.075	-3.2417	-2.9396	-3.4417	-3.1208	-3.1646	435.537	341.766	263.633	360.593	259.056	409.696	348.998	305.140	114.615	444.665	101.989	110.343	390.882	319.294	105.938	234.338	0.00063407	0.0010336	0.00020898	355.8	2.2024e-05	2.8807e-06	370.98	141.04	1.9097e-06	1.1456e-05	168.51	79.758	65.814	40.117	1.1761e-05	47.177	0.0092212	0.010871	0.003016	507.2	0.00011548	0.00011911	534.68	196.65	0.00011635	0.00011998	268.91	109.5	93.44	50.701	0.00011936	61.331	247.653	98.504	128.311	106.757	249.800	106.522	105.023	112.966	186.019	187.712	109.169	113.445	116.462	120.004	272.813	115.568	-8191	255	
1617.663	1	1	0	0	0.20298	0.32533	0.06666	0.17407	0.1444	0.13536	0.064766	0.19397	0.13172	0.097677	0.095439	0.060186	0.27196	0.12505	0.092551	0.040081	-2.8146	-2.8521	-3.2458	-3.0167	-2.9188	-3.3271	-3.0667	-3.0875	-3.2979	-2.8729	-3.2083	-3.2875	-2.9562	-3.3438	-3.2125	-2.9354	323.699	280.223	303.279	141.314	145.469	372.733	362.375	115.076	292.386	291.786	306.556	334.272	260.582	134.917	102.701	400.340	0.00055455	0.00099708	0.00034046	349.59	1.0495e-05	3.0981e-06	368.43	140.22	3.223e-06	8.9969e-06	167.75	79.382	65.489	40.032	1.1716e-05	47.329	0.0095234	0.011239	0.0031425	512.6	0.00012116	0.00012432	540.82	197.87	0.00012004	0.00012301	270.35	110.02	93.367	50.592	0.00011836	61.317	272.435	290.713	361.925	106.826	187.384	181.198	105.087	112.644	114.509	314.688	108.960	113.420	116.314	120.016	220.699	115.641	-8191	255	
1617.782	1	1	0	0	0.19694	0.11984	0.044679	0.19991	0.21605	0.18205	0.059342	0.18051	0.16063	0.024849	0.23875	0.13165	0.099997	0.16699	0.26097	0.1623	-2.9458	-2.9583	-3.0833	-3.2417	-2.7979	-3.3708	-3.3	-3.0146	-3.3563	-3.1125	-3.2458	-3.3542	-2.9458	-3.3312	-3.0896	-3.1208	324.445	153.763	414.669	268.487	130.733	290.950	133.094	410.862	435.445	327.403	433.227	241.889	158.890	377.749	431.833	130.976	0.00054758	0.00037401	5.6906e-05	354.34	3.2909e-06	7.2677e-06	374.41	142.08	9.5015e-06	2.6781e-06	169.52	80.517	66.234	40.224	1.6504e-05	47.529	0.0092419	0.010825	0.0029968	507.53	0.00011408	0.00011688	536.33	196.45	0.00011402	0.00011834	270.31	110.39	93.805	50.817	0.00011929	61.916	253.256	186.065	268.540	106.770	100.448	115.723	104.990	112.664	339.640	148.293	109.151	113.247	116.737	119.884	288.198	115.545	-8191	255	
1617.878	1	1	0	0	0.21918	0.27172	0.14822	0.10237	0.068145	0.29683	0.26787	0.41351	0.19356	0.19328	0.10933	0.093373	0.21005	0.11448	0.026096	0.20141	-2.8583	-2.9521	-3.2271	-3.3417	-2.8417	-3.5146	-3.2958	-2.9292	-3.3792	-3.0833	-3.2	-3.3167	-2.9729	-3.3229	-3.1896	-3.1375	389.552	274.607	317.932	405.652	341.715	160.397	176.821	403.548	314.721	154.863	393.996	240.212	426.390	392.868	198.311	341.658	0.00051751	0.00093925	0.00024345	357.8	6.6755e-07	3.141e-05	373.21	142.14	9.7951e-06	1.1659e-05	168.92	80.31	66.067	39.882	1.9986e-05	47.101	0.0094279	0.011156	0.0031321	516	0.00011934	0.00012235	545.11	198.8	0.00011849	0.00012154	271.5	110.37	93.56	50.534	0.00011873	61.077	247.815	195.389	160.177	106.572	200.023	239.879	105.143	112.908	295.274	234.861	109.166	113.348	116.405	120.088	317.153	115.563	-8191	255	
1617.974	1	1	0	0	0.1128	0.34822	0.052834	0.24642	0.15995	0.024209	0.18918	0.24014	0.036198	0.15745	0.1783	0.080564	0.076865	0.16306	0.025345	0.27761	-2.675	-3.0333	-3.1437	-3.1271	-2.9188	-3.2583	-3.2354	-3.0896	-3.1125	-3.0333	-3.0729	-3.3854	-3.0062	-3.2687	-3.2771	-3.0604	143.388	271.544	433.783	113.302	261.618	267.729	402.151	422.580	165.930	204.066	255.187	126.806	308.294	392.120	408.375	399.814	0.00056466	0.0011969	0.00045402	352.8	3.0658e-06	8.9788e-06	366.63	139.33	5.9262e-06	9.7387e-06	165.34	77.837	64.199	39.018	8.6754e-06	45.779	0.0092483	0.010912	0.0030596	508.49	0.00011667	0.00012039	535.53	195.94	0.00011775	0.00012173	268.65	108.43	92.305	49.736	0.00012298	60.132	261.035	171.283	221.098	106.510	351.781	121.394	104.679	112.473	451.543	284.655	108.864	113.560	116.686	120.130	169.630	115.330	-8191	255	
1618.070	1	1	0	0	0.25642	0.21918	0.23428	0.23168	0.12676	0.27553	0.14775	0.12071	0.18667	0.095781	0.11532	0.028174	0.22106	0.478	0.28539	0.4287	-2.7083	-3.1604	-2.9188	-3.2271	-2.8375	-3.0396	-3.2854	-2.9979	-3.2104	-3.0812	-2.9771	-3.3688	-3.05	-3.1063	-3.325	-2.8833	301.345	357.637	162.437	304.936	371.362	225.490	188.497	374.034	241.699	204.671	167.414	283.942	251.128	126.833	196.917	359.135	0.00070588	0.0019144	0.0002593	348.5	9.8264e-06	8.6196e-06	360.4	134.93	2.3461e-06	1.8102e-05	160.02	74.911	61.294	37.076	1.2251e-05	44.475	0.009598	0.011464	0.0032252	511.49	0.00012344	0.00012792	540.83	193.76	0.00012504	0.00012992	270.27	107.07	91.308	48.578	0.00013125	59.57	250.378	144.931	445.831	106.651	419.856	147.503	104.897	112.572	248.754	304.402	108.765	113.439	116.431	120.073	205.909	115.718	-8191	255	
1618.166	1	1	0	0	0.08341	0.17475	0.11273	0.14566	0.034771	0.20564	0.19657	0.15463	0.14912	0.12582	0.1732	0.18416	0.26607	0.17528	0.068217	0.11567	-2.7833	-3.3063	-2.8812	-3.2875	-3.0521	-3	-3.1229	-3.1625	-3.1354	-3.2687	-3.1083	-3.3229	-3.175	-3.2583	-3.1917	-2.9062	130.419	199.077	369.609	146.407	307.935	118.914	437.275	361.925	363.551	237.524	369.138	403.705	96.288	354.149	392.525	129.278	0.00053136	0.0016972	9.1355e-05	344.22	1.5661e-05	1.0283e-05	364.51	134.14	8.6856e-06	9.8933e-06	161.78	75.947	62.512	37.615	1.5614e-05	45.361	0.010251	0.01213	0.0033695	514.72	0.00012645	0.00013063	543.69	193.37	0.00012447	0.00012907	269.82	107.5	91.476	48.945	0.00012832	60.218	250.579	197.917	144.283	106.428	299.668	368.809	104.629	112.551	255.274	249.491	108.706	113.335	116.651	120.061	290.462	115.705	-8191	255	
1618.263	1	1	0	0	0.0031299	0.11423	0.17439	0.12379	0.041946	0.14693	0.12893	0.32276	0.059186	0.15781	0.18	0.24864	0.17297	0.34312	0.1229	0.051261	-2.7	-3.1813	-2.8438	-3.1292	-3.0583	-2.8812	-3.3167	-2.8604	-3.1708	-3.3042	-3.0104	-3.225	-3.0479	-3.2062	-3.3417	-2.9188	377.784	113.805	211.074	376.911	198.298	181.111	313.107	358.620	414.165	163.434	264.318	447.704	114.714	408.904	396.745	243.486	0.00076744	0.0022339	0.00042591	349.58	8.356e-06	1.5976e-05	368.36	135.7	8.7632e-06	1.5018e-05	164.32	76.952	63.599	38.564	9.6926e-06	45.776	0.01003	0.011958	0.0033274	516.7	0.00012593	0.00013081	547.96	195.71	0.00012468	0.0001283	271.19	108.46	91.933	49.365	0.00012233	60.177	253.369	183.204	174.457	106.909	244.711	298.381	104.882	112.647	302.367	252.468	109.302	113.449	116.527	119.968	381.496	115.600	-8191	255	
1618.359	1	1	0	0	0.084435	0.12771	0.14894	0.11604	0.23835	0.078532	0.19887	0.11765	0.24189	0.22405	0.15128	0.23579	0.044232	0.24029	0.24258	0.17108	-2.8292	-3.2313	-2.8667	-3.2438	-3.0354	-3.1312	-3.3708	-2.8771	-3.0062	-3.2375	-3.0042	-3.3917	-3.0938	-3.0312	-3.2438	-3.0833	121.594	325.977	107.422	436.860	115.481	295.299	267.698	273.082	196.114	276.865	452.357	378.495	333.509	438.489	384.649	454.024	0.0005533	0.0011699	0.00024867	349.15	1.334e-05	5.5842e-06	365.3	138.18	1.0704e-05	1.0463e-05	163.67	77.745	64.001	38.785	4.2895e-06	45.795	0.0095191	0.011358	0.0031615	512.43	0.00012064	0.00012553	538.8	195.65	0.00012113	0.00012598	270.03	108.53	92.888	49.948	0.00012565	60.451	267.283	438.628	392.859	106.452	206.223	115.891	104.791	112.529	243.509	215.886	109.172	113.334	116.776	119.928	205.531	115.553	-8191	255	
1618.479	1	1	0	0	0.047366	0.14794	0.13163	0.17769	0.093761	0.16798	0.19088	0.097566	0.012504	0.1977	0.3423	0.057105	0.064421	0.29869	0.053232	0.097567	-2.7313	-3.4333	-2.775	-3.325	-3.2833	-2.85	-3.3688	-2.9896	-2.9688	-3.4125	-3.0458	-3.2396	-3.1771	-2.8833	-3.4	-3.1333	427.333	218.740	346.571	413.801	214.329	125.902	152.534	120.975	107.077	359.281	426.930	441.733	369.681	421.263	128.111	379.285	0.00055509	0.0005473	0.00014765	348.53	1.5253e-05	8.7477e-06	362.58	136.15	9.664e-06	1.1637e-05	161.43	75.737	62.962	38.175	1.226e-05	44.877	0.0099937	0.011955	0.0033329	520.83	0.00012985	0.00013584	549.77	198.92	0.00013361	0.00013876	277.23	109.88	94.054	49.86	0.00013333	60.29	254.473	193.973	316.462	106.424	314.856	229.740	105.047	112.700	395.980	165.518	108.718	113.563	116.550	120.275	289.544	115.439	-8191	255	
1618.576	1	1	0	0	0.098436	0.049111	0.045082	0.22026	0.094699	0.14922	0.17248	0.04993	0.1133	0.079992	0.29096	0.12963	0.2363	0.22322	0.12486	0.1484	-2.5667	-3.2292	-2.925	-3.2583	-3.3063	-3.1312	-3.3604	-3.2208	-2.9938	-3.3312	-2.9854	-3.0896	-3.225	-2.9792	-3.2396	-3.2062	408.962	187.842	183.712	345.617	252.659	142.256	313.914	100.007	100.016	369.562	391.662	384.028	107.289	347.291	286.203	191.555	0.00054292	0.0017705	0.00049504	345.09	8.6319e-06	7.4474e-06	358.41	135.32	8.3589e-07	1.213e-05	158.82	75.134	61.992	37.835	1.6875e-05	44.418	0.010441	0.01242	0.0034455	522.15	0.00013302	0.00013722	548.96	198.07	0.00013355	0.00013713	274.95	109.1	92.999	49.347	0.00013387	60.111	259.459	162.648	434.327	106.501	346.420	359.624	105.384	112.746	413.039	426.796	109.233	113.676	117.143	119.881	321.637	115.637	-8191	255	
1618.670	1	1	0	0	0.084084	0.20273	0.26807	0.25389	0.18437	0.14045	0.068643	0.23349	0.07118	0.19458	0.28893	0.30656	0.22707	0.09466	0.10127	0.29083	-2.7396	-3.0854	-2.9104	-3.1729	-3.3979	-2.9167	-3.4062	-3.1958	-2.9667	-3.3021	-3.0833	-3.1729	-3.3333	-3.0417	-3.1	-3.0812	122.562	129.474	284.040	249.545	117.542	212.002	444.232	306.779	241.527	160.995	364.129	268.882	132.066	282.124	158.287	284.015	0.00053276	0.00043765	0.00022933	345.97	6.1495e-06	1.2108e-05	360.13	132.3	3.9912e-06	1.2269e-05	158.25	73.663	60.895	36.944	1.1006e-05	43.746	0.010598	0.012609	0.0035348	525.88	0.00013689	0.00014212	557.64	198.75	0.00014129	0.00014556	279.9	109.7	93.618	49.081	0.00014157	60.132	276.282	288.194	271.177	106.732	162.545	319.294	104.933	112.545	375.941	249.606	108.999	113.749	116.681	120.161	324.854	115.496	-8191	255	
#DATA ENDS
