BOXY.EXE: ISS Imagent and Oximeter Data Acquisition Program Version 0.80
Ascii Record File

#ACQ INFORMATION
2  Detector Channels 
16  External MUX Channels 
1  Auxiliary Channels 
5000  Waveform (CCF) Frequency (Hz)
1  Waveforms Skipped 
30  Waveforms Averaged 
1  Cycles Averaged 
16  Acquisitions per Waveform 
10.0806  Updata Rate (Hz) 

#FILE INFORMATION
TRUE -- External MUX Channel results are PARSED.
FALSE -- AC DC and Phase are NOT grouped.
TRUE -- Companion Program Settings File CREATED.
FALSE -- AC data not excluded
FALSE -- DC data not excluded
FALSE -- Phase data not excluded
FALSE -- Auxillary Chn. data not excluded
Tab delimiters

#CALIBRATION STATE
TRUE -- Waveform Calibration Values APPLIED.


#AUX CALIBRATION VALUES
Val Type	aux-1	

Term	1.0000e+00	
Factor	0.0000e+00	


#WF CALIBRATION VALUES
A = Detector Channel
Val Type	A-AC1	A-AC2	A-AC3	A-AC4	A-AC5	A-AC6	A-AC7	A-AC8	A-AC9	A-AC10	A-AC11	A-AC12	A-AC13	A-AC14	A-AC15	A-AC16	A-DC1	A-DC2	A-DC3	A-DC4	A-DC5	A-DC6	A-DC7	A-DC8	A-DC9	A-DC10	A-DC11	A-DC12	A-DC13	A-DC14	A-DC15	A-DC16	A-Ph1	A-Ph2	A-Ph3	A-Ph4	A-Ph5	A-Ph6	A-Ph7	A-Ph8	A-Ph9	A-Ph10	A-Ph11	A-Ph12	A-Ph13	A-Ph14	A-Ph15	A-Ph16	

Term	0.00000e+00	0.00000e+00	0.00000e+00	0.00000e+00	0.00000e+00	0.00000e+00	0.00000e+00	0.00000e+00	0.00000e+00	0.00000e+00	0.00000e+00	0.00000e+00	0.00000e+00	0.00000e+00	0.00000e+00	0.00000e+00	0.00000e+00	0.00000e+00	0.00000e+00	0.00000e+00	0.00000e+00	0.00000e+00	0.00000e+00	0.00000e+00	0.00000e+00	0.00000e+00	0.00000e+00	0.00000e+00	0.00000e+00	0.00000e+00	0.00000e+00	0.00000e+00	0.00000e+00	0.00000e+00	0.00000e+00	0.00000e+00	0.00000e+00	0.00000e+00	0.00000e+00	0.00000e+00	0.00000e+00	0.00000e+00	0.00000e+00	0.00000e+00	0.00000e+00	0.00000e+00	0.00000e+00	0.00000e+00	
Factor	1.00000e+00	1.00000e+00	1.00000e+00	1.00000e+00	1.00000e+00	1.00000e+00	1.00000e+00	1.00000e+00	1.00000e+00	1.00000e+00	1.00000e+00	1.00000e+00	1.00000e+00	1.00000e+00	1.00000e+00	1.00000e+00	1.00000e+00	1.00000e+00	1.00000e+00	1.00000e+00	1.00000e+00	1.00000e+00	1.00000e+00	1.00000e+00	1.00000e+00	1.00000e+00	1.00000e+00	1.00000e+00	1.00000e+00	1.00000e+00	1.00000e+00	1.00000e+00	X	X	X	X	X	X	X	X	X	X	X	X	X	X	X	X	

B = Detector Channel
Val Type	B-AC1	B-AC2	B-AC3	B-AC4	B-AC5	B-AC6	B-AC7	B-AC8	B-AC9	B-AC10	B-AC11	B-AC12	B-AC13	B-AC14	B-AC15	B-AC16	B-DC1	B-DC2	B-DC3	B-DC4	B-DC5	B-DC6	B-DC7	B-DC8	B-DC9	B-DC10	B-DC11	B-DC12	B-DC13	B-DC14	B-DC15	B-DC16	B-Ph1	B-Ph2	B-Ph3	B-Ph4	B-Ph5	B-Ph6	B-Ph7	B-Ph8	B-Ph9	B-Ph10	B-Ph11	B-Ph12	B-Ph13	B-Ph14	B-Ph15	B-Ph16	

Term	0.00000e+00	0.00000e+00	0.00000e+00	0.00000e+00	0.00000e+00	0.00000e+00	0.00000e+00	0.00000e+00	0.00000e+00	0.00000e+00	0.00000e+00	0.00000e+00	0.00000e+00	0.00000e+00	0.00000e+00	0.00000e+00	0.00000e+00	0.00000e+00	0.00000e+00	0.00000e+00	0.00000e+00	0.00000e+00	0.00000e+00	0.00000e+00	0.00000e+00	0.00000e+00	0.00000e+00	0.00000e+00	0.00000e+00	0.00000e+00	0.00000e+00	0.00000e+00	-4.24325e+01	-1.27480e+02	-1.29113e+02	-1.83247e+02	-3.31036e+01	-6.42020e+01	-1.56812e+02	-1.62015e+02	-3.27297e+01	-6.89849e+01	-1.75831e+02	-1.71950e+02	-1.80238e+02	-1.77035e+02	-4.28051e+01	-1.49655e+02	
Factor	2.34302e-05	1.84395e-04	5.28880e-05	1.78417e-01	1.82338e-06	2.35056e-06	2.06794e-01	6.19505e-02	1.44642e-06	2.13698e-06	1.21363e-01	3.46114e-02	3.06045e-02	1.06869e-02	2.17603e-06	1.56232e-02	5.23884e-06	6.25852e-06	1.74260e-06	8.57108e-02	6.65713e-08	6.86765e-08	9.29982e-02	2.98139e-02	6.64213e-08	6.86137e-08	5.63353e-02	1.61712e-02	1.48215e-02	5.17988e-03	6.74619e-08	7.31005e-03	X	X	X	X	X	X	X	X	X	X	X	X	X	X	X	X	



#DISTANCE SETTINGS
A = Detector Channel
A-1	A-2	A-3	A-4	A-5	A-6	A-7	A-8	A-9	A-10	A-11	A-12	A-13	A-14	A-15	A-16	

2.5000e+00	3.0000e+00	2.5000e+00	3.0000e+00	2.0000e+00	3.0000e+00	1.5000e+00	3.0000e+00	3.0000e+00	3.0000e+00	3.0000e+00	3.0000e+00	3.0000e+00	3.0000e+00	1.5000e+00	3.0000e+00	

B = Detector Channel
B-1	B-2	B-3	B-4	B-5	B-6	B-7	B-8	B-9	B-10	B-11	B-12	B-13	B-14	B-15	B-16	

1.0000e+01	1.0000e+01	1.0000e+01	1.4400e+00	1.0000e+01	1.0000e+01	1.5100e+00	1.9400e+00	1.0000e+01	1.0000e+01	1.9900e+00	2.4900e+00	2.4100e+00	2.9000e+00	1.0000e+01	2.9800e+00	




#DATA BEGINS
time	group	step	mark	flag	A-AC1	A-AC2	A-AC3	A-AC4	A-AC5	A-AC6	A-AC7	A-AC8	A-AC9	A-AC10	A-AC11	A-AC12	A-AC13	A-AC14	A-AC15	A-AC16	A-DC1	A-DC2	A-DC3	A-DC4	A-DC5	A-DC6	A-DC7	A-DC8	A-DC9	A-DC10	A-DC11	A-DC12	A-DC13	A-DC14	A-DC15	A-DC16	A-Ph1	A-Ph2	A-Ph3	A-Ph4	A-Ph5	A-Ph6	A-Ph7	A-Ph8	A-Ph9	A-Ph10	A-Ph11	A-Ph12	A-Ph13	A-Ph14	A-Ph15	A-Ph16	B-AC1	B-AC2	B-AC3	B-AC4	B-AC5	B-AC6	B-AC7	B-AC8	B-AC9	B-AC10	B-AC11	B-AC12	B-AC13	B-AC14	B-AC15	B-AC16	B-DC1	B-DC2	B-DC3	B-DC4	B-DC5	B-DC6	B-DC7	B-DC8	B-DC9	B-DC10	B-DC11	B-DC12	B-DC13	B-DC14	B-DC15	B-DC16	B-Ph1	B-Ph2	B-Ph3	B-Ph4	B-Ph5	B-Ph6	B-Ph7	B-Ph8	B-Ph9	B-Ph10	B-Ph11	B-Ph12	B-Ph13	B-Ph14	B-Ph15	B-Ph16	aux-1	digaux	

428.204	1	1	0	256	0.16162	0.21059	0.1197	0.27009	0.1646	0.087104	0.28418	0.07669	0.10935	0.33477	0.12147	0.18564	0.35197	0.13956	0.12298	0.14105	-3.0021	-3.7708	-3.4958	-3.625	-3.7333	-3.45	-3.5729	-3.7812	-3.4146	-3.7438	-3.6521	-3.5708	-4.0208	-3.5312	-3.7021	-3.7833	41.964	341.922	149.727	308.941	343.958	276.056	278.958	300.443	85.849	261.591	107.719	333.865	323.860	183.691	334.573	171.339	0.00018909	0.00050208	0.00012806	1336.3	3.6159e-06	1.7128e-06	1413.6	277.14	9.1803e-07	6.0746e-06	340.8	94.283	73.917	21.436	1.3451e-06	30.214	0.00083302	0.0009381	0.00025804	1318.7	1.0025e-05	9.9288e-06	1389.1	277.63	9.665e-06	9.7504e-06	341.89	95.699	75.266	22.098	9.4355e-06	30.94	233.391	105.619	91.443	16.715	240.684	116.107	16.948	24.029	331.592	160.719	23.774	30.717	30.951	37.301	143.034	36.834	-8191	255	
428.300	1	1	0	0	0.16075	0.15604	0.31074	0.4091	0.059527	0.17315	0.25475	0.17361	0.13463	0.15782	0.076323	0.089639	0.23598	0.065831	0.12803	0.22356	-3.0438	-3.7417	-3.5792	-3.6208	-3.7667	-3.5333	-3.7417	-3.6625	-3.3958	-3.6229	-3.7583	-3.5083	-3.8312	-3.5771	-3.375	-3.8688	17.220	58.697	75.516	301.213	114.870	50.660	325.917	21.612	324.121	117.802	262.410	150.387	190.304	120.963	270.013	294.298	0.00020158	0.00050724	2.8964e-06	1314.9	5.4482e-06	9.4764e-06	1391.6	273.54	2.9072e-06	1.9769e-06	337.7	94.079	73.021	21.353	4.2106e-06	30.049	0.00075845	0.00084946	0.00023453	1298.3	9.0232e-06	9.134e-06	1368.8	273.03	8.7307e-06	8.9504e-06	338.27	94.89	74.635	22.002	9.1197e-06	30.834	224.605	115.868	93.038	16.573	179.988	132.240	17.135	24.065	180.894	107.753	23.291	31.072	30.732	37.180	155.958	36.769	-8191	255	
428.395	1	1	0	0	0.11381	0.1494	0.054721	0.032764	0.099873	0.29916	0.099818	0.14948	0.25086	0.24203	0.10366	0.15293	0.21404	0.4015	0.18362	0.23772	-2.9708	-3.7125	-3.7021	-3.6208	-3.5979	-3.5687	-3.6646	-3.8208	-3.3417	-3.5667	-3.7333	-3.4542	-3.7104	-3.5208	-3.5167	-3.7188	166.986	119.338	244.091	213.281	27.312	120.268	362.209	327.347	316.121	173.169	15.544	279.063	303.540	8.740	118.934	331.821	0.00017498	0.00049844	0.00017445	1314.7	1.4537e-06	4.7448e-06	1395.2	275.01	4.2293e-06	6.5833e-06	340.32	93.618	73.888	21.553	2.6504e-06	30.137	0.0007566	0.00086875	0.00024398	1300.1	9.7017e-06	9.8744e-06	1374.5	274.96	9.8947e-06	1.0169e-05	342.24	95.406	75.359	22.196	1.0625e-05	31.125	236.129	74.903	140.481	16.800	336.677	219.966	16.964	23.949	249.206	172.846	23.390	30.643	30.944	36.964	196.954	36.763	-8191	255	
428.515	1	1	0	0	0.09267	0.19564	0.12701	0.090545	0.14128	0.12686	0.24275	0.01789	0.020242	0.10697	0.19589	0.31071	0.19899	0.045305	0.2191	0.32797	-3.1208	-3.6208	-3.7208	-3.7125	-3.6208	-3.7042	-3.65	-3.7875	-3.5458	-3.5917	-3.8354	-3.4417	-3.7438	-3.6125	-3.4479	-3.6396	356.988	350.615	203.088	334.772	164.149	110.804	300.356	59.107	300.019	123.717	104.005	125.044	234.035	291.556	365.767	341.863	0.00021286	0.00042079	0.0001305	1324.5	2.3883e-06	8.2199e-06	1402.1	276.67	3.0248e-06	4.9437e-06	342.55	94.149	73.905	21.608	2.7873e-06	30.284	0.00087306	0.0010191	0.00028513	1309.2	1.1083e-05	1.1205e-05	1383.7	276.43	1.1017e-05	1.1432e-05	344.09	96.169	75.888	22.401	1.1065e-05	31.312	222.844	67.469	64.386	16.669	341.007	79.720	16.755	23.922	224.933	179.834	23.567	30.290	30.796	36.950	194.850	36.560	-8191	255	
428.612	1	1	0	0	0.3051	0.19021	0.072054	0.20472	0.19668	0.067794	0.40403	0.052075	0.027699	0.095352	0.24711	0.17169	0.046685	0.15234	0.15578	0.11604	-2.9854	-3.5875	-3.8396	-3.6063	-3.7042	-3.7313	-3.7812	-3.7396	-3.5563	-3.525	-3.7792	-3.3833	-3.7375	-3.7208	-3.3688	-3.6729	36.491	184.047	96.178	267.819	50.015	93.537	365.895	331.482	345.693	53.813	257.684	143.151	270.551	363.503	261.211	230.350	0.0002267	0.00037896	8.8796e-05	1331.7	8.715e-07	4.1068e-06	1410.2	278.67	6.7034e-06	1.6011e-06	344.37	95.099	74.731	21.734	2.8746e-06	30.278	0.00088994	0.0010157	0.00027849	1318.1	1.0739e-05	1.0905e-05	1390.6	278.4	1.0353e-05	1.0729e-05	344.77	96.308	76.058	22.402	1.0203e-05	31.21	231.015	106.083	94.966	16.605	202.741	193.998	16.868	23.887	213.173	197.286	23.165	30.393	30.604	37.071	265.921	36.340	-8191	255	
428.683	1	1	0	0	0.0046408	0.10338	0.079108	0.1418	0.23825	0.1103	0.20822	0.21858	0.15459	0.075685	0.17627	0.14289	0.069187	0.22245	0.16842	0.17119	-3.1792	-3.4437	-3.7667	-3.6292	-3.725	-3.8021	-3.5687	-3.775	-3.65	-3.4104	-3.9625	-3.4	-3.7208	-3.575	-3.3896	-3.8604	316.643	235.896	77.573	339.902	180.182	204.016	335.709	300.670	302.988	196.588	71.908	235.626	96.438	357.404	69.197	225.372	0.00022791	0.0003509	0.00010674	1335	2.9094e-06	5.9938e-06	1410.7	277.02	1.9755e-06	2.1522e-06	342.98	93.988	74.266	21.655	1.9719e-06	29.95	0.00081502	0.00091782	0.00025335	1316.4	9.4505e-06	9.5872e-06	1388.9	277.02	9.0565e-06	9.1581e-06	342.4	95.527	75.347	22.123	8.365e-06	30.815	215.047	78.479	253.236	16.757	94.360	157.575	17.140	24.124	219.529	321.827	23.375	30.464	30.797	37.168	295.983	36.494	-8191	255	
428.804	1	1	0	0	0.11163	0.25708	0.13842	0.16097	0.15332	0.2263	0.19885	0.042427	0.1249	0.29056	0.066476	0.12035	0.21549	0.14558	0.054207	0.24769	-3.3771	-3.5604	-3.7646	-3.6875	-3.5333	-3.925	-3.7167	-3.8292	-3.6375	-3.5583	-3.7979	-3.5875	-3.5833	-3.7542	-3.4771	-3.6813	349.206	220.866	114.610	264.899	143.607	226.257	288.062	173.985	314.830	305.167	314.483	238.507	91.467	258.290	247.426	231.350	0.00021091	0.00040654	2.9775e-05	1334	6.2191e-06	3.6866e-06	1414.5	276.08	3.145e-06	3.9268e-06	340.45	94.058	74.19	21.6	2.9265e-06	30.103	0.00069036	0.00077051	0.0002161	1310.9	8.8778e-06	9.0278e-06	1385.8	276.03	9.1212e-06	9.3566e-06	342.35	95.671	75.609	22.278	9.3841e-06	31.028	237.838	129.515	156.250	16.836	194.642	190.233	17.039	24.244	213.341	109.110	23.473	30.441	30.841	36.662	193.362	36.457	-8191	255	
428.900	1	1	0	0	0.11557	0.22941	0.10907	0.26631	0.17506	0.12213	0.10095	0.22312	0.23103	0.19383	0.1529	0.098664	0.062172	0.03288	0.037457	0.18289	-3.3958	-3.2375	-3.7833	-3.7708	-3.6583	-3.8333	-3.5938	-3.7792	-3.7292	-3.4729	-3.8208	-3.6104	-3.6396	-3.8688	-3.5625	-3.7521	62.726	283.053	33.222	49.222	222.610	47.671	28.715	318.563	129.903	144.831	319.875	345.078	39.914	298.341	288.750	358.331	0.00023584	0.00023613	8.5626e-05	1334.5	7.7504e-06	5.8317e-06	1406.2	276.27	3.9062e-06	6.6098e-06	340.09	93.692	73.743	21.621	6.4092e-06	29.924	0.0007668	0.00086212	0.00023932	1314	9.3555e-06	9.3746e-06	1383.6	275.49	8.8178e-06	8.7066e-06	340.58	94.943	74.738	22.039	8.0745e-06	30.734	231.484	60.383	30.890	16.835	191.910	148.554	17.072	24.110	220.922	172.174	23.301	30.606	30.987	36.729	167.520	36.788	-8191	255	
428.996	1	1	0	0	0.19817	0.23899	0.16484	0.21853	0.11623	0.090149	0.33709	0.17278	0.021846	0.08626	0.10934	0.03991	0.18501	0.22177	0.26353	0.22495	-3.4062	-3.3792	-3.6333	-3.5875	-3.4938	-3.7521	-3.7417	-3.5542	-3.75	-3.4521	-3.7979	-3.7229	-3.5354	-3.7083	-3.5917	-3.5625	73.312	28.061	65.754	77.412	159.138	277.739	283.415	251.954	76.621	155.862	86.116	168.195	345.810	289.492	336.760	339.799	0.00024739	7.1939e-05	0.00011838	1319.3	3.7336e-06	7.2003e-07	1393.9	274.57	3.7332e-06	7.1547e-06	338.41	93.44	73.732	21.309	5.8163e-06	29.984	0.00066229	0.0007415	0.00020551	1299.9	8.094e-06	8.1719e-06	1372.3	273.19	8.1051e-06	8.1018e-06	338.11	94.55	74.494	21.93	8.0557e-06	30.582	219.900	94.008	93.161	16.893	206.143	181.565	17.138	23.980	194.262	169.076	23.538	30.505	30.547	36.739	169.873	36.665	-8191	255	
429.092	1	1	0	0	0.2008	0.10694	0.11286	0.057182	0.24386	0.10978	0.15909	0.10052	0.26344	0.2722	0.10173	0.074486	0.16006	0.15541	0.24611	0.19475	-3.3708	-3.4167	-3.725	-3.6	-3.4292	-3.8854	-3.5833	-3.6	-3.8	-3.35	-3.7646	-3.7979	-3.4313	-3.9188	-3.5917	-3.5292	242.545	37.643	349.550	96.867	79.253	204.594	29.132	257.875	352.554	93.843	181.426	315.655	204.556	121.442	235.643	24.035	0.0001886	0.00047141	8.5489e-05	1307.1	5.0192e-06	6.1411e-07	1383	270.46	1.9637e-06	5.3686e-06	335.86	92.833	72.425	21.232	4.0545e-06	29.836	0.00065637	0.0007324	0.00020262	1286.3	7.7811e-06	7.8801e-06	1357.4	269.88	7.5614e-06	7.5409e-06	334.31	93.683	73.63	21.764	7.5505e-06	30.439	227.814	96.443	80.095	16.647	209.729	49.904	16.929	24.249	199.978	135.984	23.396	30.851	30.865	36.980	201.221	36.634	-8191	255	
429.213	1	1	0	0	0.18618	0.087796	0.16381	0.36109	0.16344	0.058592	0.38239	0.19821	0.17988	0.19779	0.10307	0.17387	0.15319	0.074348	0.13852	0.1625	-3.3979	-3.5396	-3.4562	-3.9458	-3.4562	-3.7146	-3.7146	-3.6354	-3.8125	-3.4062	-3.7021	-3.6312	-3.4229	-3.7396	-3.725	-3.4729	230.179	281.579	318.580	314.247	100.946	305.476	333.725	25.800	31.070	213.922	272.986	76.703	316.146	360.574	71.683	283.077	0.0002019	0.00027303	6.2382e-05	1301.7	2.7542e-06	2.9371e-06	1377.4	270.18	4.2853e-06	4.1809e-06	333.85	93.456	72.992	21.243	6.9441e-06	29.879	0.00064097	0.00071755	0.00020342	1280.7	8.1407e-06	8.3475e-06	1351.7	269.85	8.5333e-06	8.8735e-06	335.17	94.505	74.276	21.965	9.2389e-06	30.87	227.019	112.191	130.164	16.778	200.782	194.726	16.881	23.965	157.847	168.600	23.752	30.617	30.584	36.771	194.448	36.873	-8191	255	
429.307	1	1	0	0	0.17304	0.15175	0.12149	0.25397	0.10557	0.11306	0.22154	0.36495	0.1052	0.23593	0.20243	0.24004	0.16942	0.15161	0.047348	0.026696	-3.2292	-3.5687	-3.5042	-3.8458	-3.5521	-3.725	-3.7646	-3.5417	-3.7812	-3.7062	-3.6813	-3.7917	-3.5438	-3.8521	-3.6771	-3.4583	333.850	294.312	147.628	333.287	155.440	298.402	251.554	264.458	199.443	268.992	357.992	26.070	362.056	37.310	259.872	338.550	0.00023967	0.00043648	9.0988e-05	1308.1	7.9189e-06	8.7936e-06	1382.5	273.5	2.3383e-06	5.989e-06	337.82	93.532	73.67	21.57	7.1733e-06	30.271	0.00075957	0.00086597	0.00024046	1289.2	9.4993e-06	9.542e-06	1361.4	272.76	9.3059e-06	9.4291e-06	338.49	95.05	75.028	22.206	9.2712e-06	31.045	232.244	156.090	90.827	16.654	193.931	173.889	16.835	24.001	152.555	187.919	23.280	30.773	30.892	37.130	160.022	36.292	-8191	255	
429.405	1	1	0	0	0.080821	0.031078	0.010172	0.17581	0.10509	0.24375	0.07386	0.16758	0.24278	0.2568	0.22958	0.19385	0.27184	0.028283	0.43685	0.1071	-3.4521	-3.4333	-3.4292	-3.9813	-3.5042	-3.4667	-3.7354	-3.5771	-3.7917	-3.5646	-3.65	-3.7792	-3.5958	-3.7146	-3.7646	-3.4854	318.214	68.904	104.858	306.509	238.674	209.110	325.481	236.749	142.981	278.416	15.213	170.515	271.612	324.749	57.726	181.397	0.00014893	0.00073022	0.00012173	1308.7	8.0676e-06	4.9944e-06	1389	272.16	1.2343e-06	4.6713e-06	339.74	94.117	73.765	21.615	7.2295e-06	30.203	0.00074691	0.00085903	0.00023704	1290.9	9.1953e-06	9.3489e-06	1364.4	272.87	9.2222e-06	9.5445e-06	339.39	95.436	75.119	22.291	9.323e-06	31.124	235.743	56.139	141.238	16.583	205.554	203.150	17.003	24.077	169.021	147.725	23.512	30.725	30.860	37.028	200.342	36.760	-8191	255	
429.500	1	1	0	0	0.11257	0.20798	0.20201	0.3006	0.18212	0.18853	0.20319	0.18862	0.19045	0.067439	0.12688	0.1432	0.058537	0.1778	0.13799	0.23796	-3.3354	-3.5167	-3.5229	-3.975	-3.6271	-3.4667	-3.8625	-3.5187	-3.6229	-3.7667	-3.5292	-3.7958	-3.6708	-3.4938	-3.5938	-3.2938	171.254	359.422	23.598	318.024	286.135	341.644	340.335	222.606	58.301	206.594	319.997	212.815	294.561	218.002	306.525	365.403	0.00024726	0.0004155	0.00012948	1314.8	3.606e-06	5.8527e-06	1394.6	276.05	2.635e-06	3.4879e-06	341.77	94.798	74.978	21.805	9.4102e-06	30.57	0.00077131	0.00086567	0.00024042	1295.6	9.3555e-06	9.5425e-06	1369.2	274.78	9.3719e-06	9.6457e-06	341.44	96.048	75.754	22.471	9.5301e-06	31.375	238.514	63.716	122.367	16.893	248.989	145.226	16.971	24.045	247.955	128.563	23.804	30.664	30.832	36.919	230.227	36.612	-8191	255	
429.596	1	1	0	0	0.14702	0.066489	0.029498	0.37307	0.046128	0.057344	0.32251	0.04108	0.13965	0.069926	0.29753	0.15169	0.22156	0.088424	0.29946	0.089179	-3.4125	-3.5646	-3.4708	-3.8958	-3.4354	-3.5604	-3.8083	-3.5333	-3.6688	-3.7188	-3.4854	-3.7542	-3.5396	-3.6583	-3.8	-3.4396	8.548	79.076	265.913	311.665	182.077	295.448	320.854	361.222	118.283	80.894	24.655	31.205	347.789	262.746	168.021	316.638	0.00024517	0.00043311	0.00010625	1318.6	1.553e-06	5.522e-06	1400.4	276.89	3.5441e-06	3.7604e-06	342.78	95.293	75.323	21.959	3.8825e-06	30.667	0.00076997	0.0008649	0.00024045	1300.2	9.1154e-06	9.0571e-06	1376.5	276.37	8.7549e-06	8.9547e-06	342.46	96.337	76.164	22.576	8.6526e-06	31.396	226.375	85.269	60.549	16.897	226.023	179.634	17.030	24.009	234.227	170.287	23.399	30.556	30.509	36.909	200.477	36.472	-8191	255	
429.692	1	1	0	0	0.21592	0.19139	0.057058	0.24369	0.12713	0.13534	0.1673	0.066886	0.19516	0.19104	0.22032	0.15628	0.30452	0.21231	0.18414	0.14985	-3.1854	-3.6208	-3.3792	-3.8771	-3.4479	-3.4188	-4.0583	-3.7313	-3.6042	-3.85	-3.6375	-3.9292	-3.6	-3.6042	-3.8333	-3.5438	166.770	29.715	34.872	349.999	100.763	343.052	267.213	300.438	7.210	189.302	7.518	17.554	316.415	313.420	335.372	22.223	0.00022078	0.00020052	9.3058e-05	1326.9	7.1161e-06	6.1443e-06	1401.3	278.22	4.0949e-06	2.679e-06	343.24	95.199	74.781	21.954	2.8796e-06	30.628	0.0007083	0.00080251	0.00022285	1304.1	8.6733e-06	8.8391e-06	1379	277.4	8.7516e-06	8.9532e-06	343.33	96.538	76.175	22.626	9.0901e-06	31.397	230.156	95.810	209.408	16.759	219.316	171.502	16.887	24.119	240.455	100.596	23.508	30.595	30.702	36.768	305.301	36.640	-8191	255	
429.813	1	1	0	0	0.12882	0.22892	0.032352	0.25778	0.259	0.12264	0.28393	0.22541	0.13296	0.15638	0.15512	0.085165	0.16035	0.12367	0.13119	0.071187	-3.3667	-3.5292	-3.5729	-3.9646	-3.6021	-3.4458	-3.8854	-3.5542	-3.6708	-3.9062	-3.6479	-3.7396	-3.6604	-3.4729	-3.8771	-3.5938	279.272	191.264	317.994	319.594	127.966	193.840	326.271	261.214	190.165	310.192	320.938	187.638	347.021	84.673	60.593	151.491	0.00024221	7.2226e-05	2.2231e-05	1322.8	2.7356e-06	5.5723e-06	1400.1	279.27	2.5261e-06	3.168e-06	343.73	95.471	75.111	21.894	5.6163e-06	30.806	0.00076069	0.00085667	0.00024137	1302.1	9.2408e-06	9.2573e-06	1375.3	278.03	9.0213e-06	9.1805e-06	343.35	96.553	76.199	22.576	8.8731e-06	31.513	224.211	39.659	283.300	16.905	246.945	233.467	16.878	24.110	210.484	243.152	23.568	30.587	30.928	36.975	208.949	36.751	-8191	255	
429.909	1	1	0	0	0.088861	0.06791	0.10042	0.29966	0.24003	0.066841	0.057735	0.067209	0.046544	0.17048	0.20601	0.2817	0.080732	0.045642	0.16384	0.14431	-3.2396	-3.8292	-3.4833	-3.8646	-3.6708	-3.4417	-3.9	-3.5938	-3.5771	-3.8167	-3.4208	-3.7333	-3.65	-3.45	-3.7833	-3.8187	119.796	107.280	92.485	316.796	225.836	155.805	174.838	205.439	159.053	33.014	135.397	302.722	9.568	91.448	207.379	28.855	0.00018459	0.00049909	0.0001467	1323.2	3.5055e-06	5.5964e-06	1397.3	276.66	1.1277e-06	4.5577e-06	341.31	95.524	74.94	22.02	4.9313e-06	30.677	0.00072453	0.00080462	0.00022351	1302	8.602e-06	8.6746e-06	1373.7	277.02	8.3743e-06	8.5197e-06	342.21	96.276	75.901	22.534	8.3345e-06	31.38	223.948	92.689	126.977	16.738	224.604	184.949	17.067	24.203	231.380	115.918	23.506	30.378	30.643	36.915	236.903	36.488	-8191	255	
429.980	1	1	0	0	0.11699	0.1498	0.036869	0.28151	0.29764	0.14745	0.024225	0.20928	0.032509	0.10389	0.15152	0.2128	0.23905	0.083049	0.17672	0.07263	-3.1396	-3.6583	-3.3729	-3.9229	-3.7104	-3.6562	-4.0333	-3.8167	-3.4625	-3.6958	-3.6083	-3.6458	-3.7792	-3.6208	-3.7229	-3.6125	136.398	123.057	209.952	331.536	12.518	287.566	222.016	321.695	134.833	244.062	88.652	254.753	56.864	51.753	118.513	172.985	0.00026942	0.00063092	7.7756e-05	1317.6	6.5439e-06	4.7606e-06	1395.2	277.63	1.4419e-06	6.9688e-06	340.39	95.273	74.441	21.665	2.7555e-06	30.48	0.00070628	0.00079329	0.00021927	1300.1	8.5199e-06	8.5233e-06	1372.7	276.66	8.3999e-06	8.5663e-06	340.76	96.135	75.53	22.329	8.236e-06	31.189	222.645	141.485	125.253	16.989	208.170	172.762	17.128	23.876	169.772	175.438	23.172	30.520	30.708	36.943	194.247	36.693	-8191	255	
430.077	1	1	0	0	0.099428	0.07101	0.14193	0.15234	0.049908	0.12001	0.41513	0.11459	0.24052	0.26021	0.19488	0.39389	0.27708	0.29432	0.11005	0.12446	-3.1896	-3.8354	-3.4688	-3.6875	-3.7375	-3.475	-3.7812	-3.6167	-3.4125	-3.6396	-3.7	-3.525	-3.7354	-3.4625	-3.7146	-3.7271	84.659	301.756	336.792	331.226	251.265	109.143	260.269	274.163	67.555	177.627	293.781	305.323	17.839	69.142	223.264	358.397	0.00022916	0.00051559	7.3558e-05	1315.7	2.3249e-06	3.0551e-06	1389.6	276.52	6.3408e-06	5.0306e-06	340.5	95.005	74.795	21.693	5.4668e-06	30.565	0.00068211	0.00074856	0.00020976	1294.3	8.1679e-06	8.2071e-06	1366.8	275.05	7.9805e-06	7.9682e-06	340.75	95.755	75.507	22.346	7.9289e-06	31.223	230.464	120.495	101.160	16.861	268.029	242.165	17.025	24.046	256.224	141.136	23.683	30.560	31.148	37.137	168.664	36.798	-8191	255	
430.197	1	1	0	0	0.16568	0.34111	0.12029	0.18643	0.20901	0.24291	0.11448	0.14288	0.048576	0.12181	0.22722	0.31654	0.16408	0.056584	0.10512	0.058224	-3.0375	-3.8146	-3.5687	-3.7771	-3.6708	-3.5833	-3.9625	-3.7667	-3.3563	-3.9062	-3.4437	-3.6542	-3.9146	-3.3917	-3.6125	-3.725	190.084	22.868	353.359	320.101	262.352	331.151	358.486	290.836	122.024	163.616	246.190	355.580	203.696	103.279	75.546	215.386	0.00022659	0.00026237	0.00011485	1321	4.7076e-06	5.0301e-06	1391.2	277.43	2.2768e-06	3.1601e-06	340.24	94.59	75.025	22.01	3.7301e-06	30.692	0.00065452	0.0007295	0.00020475	1295.2	7.9213e-06	8.0636e-06	1366.6	275.95	7.9065e-06	7.9846e-06	340.62	95.945	75.684	22.448	7.9001e-06	31.28	234.593	93.333	89.650	17.041	201.308	162.854	17.087	24.222	168.334	207.412	23.524	30.458	30.577	36.717	170.243	36.503	-8191	255	
430.293	1	1	0	0	0.1345	0.17887	0.13722	0.21459	0.13732	0.20213	0.21907	0.11304	0.11362	0.04246	0.15541	0.1234	0.15779	0.11772	0.14272	0.03538	-3.1604	-3.6792	-3.6292	-3.5458	-3.7021	-3.3937	-3.7396	-3.7438	-3.3729	-3.775	-3.6021	-3.4562	-3.7646	-3.7083	-3.6896	-3.6792	307.099	326.789	350.230	318.598	38.296	55.815	23.836	229.682	270.492	98.553	270.937	287.676	253.903	22.265	242.892	200.008	0.0002315	0.00023264	0.00011395	1318.3	2.919e-06	1.6416e-06	1394.8	277.24	2.7856e-06	5.5812e-06	340.76	94.46	74.53	21.843	2.9154e-06	30.431	0.00065663	0.00073887	0.00020644	1296.2	8.0783e-06	8.1459e-06	1367.5	275.48	8.2603e-06	8.3453e-06	340.81	95.902	75.403	22.39	8.4534e-06	31.196	228.515	33.519	98.114	16.780	144.551	253.257	16.960	24.004	187.140	140.613	23.447	30.422	30.728	36.916	72.889	36.113	-8191	255	
430.388	1	1	0	0	0.070165	0.20246	0.18548	0.029027	0.13572	0.25134	0.12634	0.16692	0.099848	0.086297	0.18908	0.14825	0.18853	0.15832	0.30896	0.095719	-3.0563	-3.5417	-3.7292	-3.4854	-3.8021	-3.6	-3.6125	-3.8146	-3.5	-3.6792	-3.7708	-3.4104	-3.6083	-3.6979	-3.5208	-3.7854	45.888	280.836	306.748	57.970	125.897	8.537	246.146	36.822	277.985	315.311	189.475	89.326	51.909	14.164	308.378	187.666	0.0002082	0.00065274	0.00010539	1316.9	2.7206e-06	4.6375e-06	1393.3	277.18	5.651e-06	2.8269e-06	339.72	94.799	73.925	21.769	5.8072e-06	30.483	0.00069405	0.00078138	0.00021984	1294.7	8.3573e-06	8.4954e-06	1366.3	275.69	8.4381e-06	8.5946e-06	340.39	95.825	75.388	22.291	8.5494e-06	31.114	218.675	71.103	164.507	16.832	257.314	69.883	17.272	24.146	239.870	134.251	23.598	30.826	30.629	36.926	169.036	36.441	-8191	255	
430.486	1	1	0	0	0.13067	0.13884	0.058514	0.059477	0.35467	0.10231	0.22371	0.16385	0.27004	0.11657	0.040034	0.29825	0.27326	0.26329	0.15044	0.097871	-3.0854	-3.5896	-3.6375	-3.5625	-3.8354	-3.6229	-3.7875	-3.7833	-3.4875	-3.5354	-3.7292	-3.5417	-3.7167	-3.8208	-3.4604	-3.8333	360.259	23.047	266.012	278.806	150.194	62.827	291.175	221.768	66.942	79.293	70.334	267.595	323.566	154.367	305.394	181.934	0.00020115	0.00043487	0.00014343	1313.4	4.8952e-06	3.4354e-06	1386.8	275.09	3.599e-06	1.9157e-06	339.24	94.367	74.32	21.526	4.6505e-07	30.423	0.00070957	0.00077563	0.00021985	1293.7	8.4779e-06	8.6522e-06	1364.7	274.98	8.4269e-06	8.7361e-06	340.06	95.648	75.498	22.275	8.7632e-06	31.227	229.377	123.023	117.217	16.665	223.706	120.754	17.056	24.086	203.225	233.633	23.230	30.547	30.873	36.897	146.170	36.661	-8191	255	
430.580	1	1	0	0	0.071354	0.15743	0.055782	0.22225	0.21869	0.09141	0.32891	0.10656	0.074898	0.16275	0.17382	0.054639	0.13063	0.089957	0.1009	0.043094	-3.1167	-3.4646	-3.75	-3.5958	-3.6833	-3.5521	-3.6083	-3.9583	-3.3667	-3.6312	-3.7708	-3.5729	-3.725	-3.8458	-3.4104	-3.6458	76.966	38.938	57.933	352.513	228.944	46.600	333.076	36.343	104.295	65.858	59.000	224.040	26.655	180.282	52.227	204.901	0.00020551	0.0005877	0.00018925	1319.3	1.3732e-06	5.3703e-06	1396.1	277.75	3.4715e-07	2.9561e-06	341.8	94.658	74.728	21.881	1.0685e-06	30.358	0.0007312	0.00082983	0.00023184	1299.4	9.0285e-06	9.1182e-06	1372	276.91	9.105e-06	9.1509e-06	342.76	96.147	75.918	22.455	8.9849e-06	31.258	219.014	143.189	79.134	16.830	311.264	118.600	17.169	24.019	26.481	213.610	23.548	30.614	30.801	37.057	325.718	36.458	-8191	255	
430.676	1	1	0	0	0.20276	0.16738	0.22607	0.079582	0.15249	0.2579	0.13561	0.05022	0.19594	0.066969	0.18856	0.1493	0.13143	0.19156	0.1212	0.21472	-3.1813	-3.4938	-3.9167	-3.5979	-3.7292	-3.6625	-3.6688	-3.9667	-3.6646	-3.6125	-3.7042	-3.5333	-3.6125	-3.6667	-3.4333	-3.7375	59.747	46.452	98.856	328.368	229.705	133.521	306.958	65.300	56.428	261.378	115.939	65.005	250.659	35.508	12.185	19.420	0.00025115	0.00024783	0.0001156	1322.3	2.939e-06	7.0722e-06	1403.1	277.83	3.6511e-06	6.2513e-06	342.2	95.515	75.183	21.775	3.3016e-06	30.4	0.00073294	0.00082731	0.00022677	1304.1	8.7042e-06	8.851e-06	1376.8	277.05	8.6921e-06	8.8174e-06	343.19	96.343	76.105	22.418	8.677e-06	31.262	228.375	125.255	162.967	16.930	241.482	149.372	17.162	24.199	205.870	141.582	23.477	30.740	30.634	36.803	157.956	36.610	-8191	255	
430.772	1	1	0	0	0.10738	0.1448	0.088075	0.058706	0.20404	0.10869	0.27379	0.20247	0.18114	0.16634	0.15299	0.19897	0.31227	0.12357	0.15575	0.27459	-3.3354	-3.4792	-3.7562	-3.5187	-3.5896	-3.6625	-3.5833	-3.775	-3.675	-3.5417	-3.8167	-3.6729	-3.6688	-3.7542	-3.5187	-3.7417	350.481	275.867	28.730	334.992	268.472	269.342	8.915	308.323	47.607	90.411	309.437	198.991	10.341	343.148	78.286	337.525	0.00025502	0.000284	0.000134	1321.9	2.6311e-06	2.8822e-06	1398	277.32	2.2465e-06	3.3322e-06	342.92	94.398	74.781	21.778	5.8739e-06	30.396	0.00072042	0.00081165	0.00022305	1302.4	8.6297e-06	8.7959e-06	1375.7	276.63	8.4985e-06	8.6104e-06	342.54	95.788	75.634	22.324	8.1168e-06	31.137	224.730	70.367	102.190	16.771	221.088	209.828	17.198	23.923	212.847	126.194	23.909	30.743	30.864	37.072	205.415	36.676	-8191	255	
430.893	1	1	0	0	0.20218	0.017059	0.31691	0.11151	0.11095	0.13342	0.14039	0.30337	0.21777	0.060869	0.32235	0.31384	0.19777	0.12515	0.073077	0.1569	-3.2042	-3.2771	-3.6562	-3.6688	-3.5625	-3.75	-3.4313	-3.6208	-3.6396	-3.4354	-3.7479	-3.6208	-3.6625	-3.9813	-3.4938	-3.6917	103.221	356.028	168.527	354.504	8.179	264.050	317.571	295.037	176.752	13.937	338.507	249.523	13.004	175.040	358.278	220.039	0.00026162	0.00025131	7.9836e-05	1315.4	4.5719e-06	6.7279e-06	1385.9	275.04	5.5833e-06	5.839e-06	340.41	94.453	74.389	21.692	6.3786e-06	30.143	0.00068069	0.00075096	0.00020746	1294.1	8.1486e-06	8.1081e-06	1365.1	275.02	8.1307e-06	8.1806e-06	340.22	95.471	75.276	22.266	8.3006e-06	31.079	230.790	277.794	79.843	16.916	196.035	108.180	16.869	24.139	192.484	77.376	23.627	30.516	30.563	37.207	246.977	36.552	-8191	255	
430.989	1	1	0	0	0.073886	0.020276	0.10231	0.17984	0.22068	0.26718	0.29558	0.041059	0.10687	0.11701	0.22603	0.30329	0.15628	0.33062	0.10861	0.29449	-3.4708	-3.5896	-3.6271	-3.6	-3.3271	-3.6542	-3.6875	-3.8	-3.5854	-3.4042	-3.7479	-3.6292	-3.3979	-3.825	-3.5333	-3.4	211.910	339.478	53.452	21.523	25.295	126.447	334.096	301.512	314.837	146.258	52.544	315.989	47.768	348.579	102.882	307.903	0.00020406	0.00015125	8.27e-05	1313.5	6.1574e-06	2.2735e-06	1389	274.82	3.5852e-06	2.6702e-06	340.31	94.338	74.141	21.703	2.7935e-06	30.438	0.0006963	0.00077653	0.00021748	1294.3	8.443e-06	8.4828e-06	1366.1	274.95	8.4089e-06	8.3997e-06	340.37	95.43	75.237	22.26	8.5403e-06	31.09	235.212	96.089	135.400	16.851	233.163	308.886	16.920	24.102	209.043	167.138	23.473	30.694	30.849	37.078	203.113	36.811	-8191	255	
431.085	1	1	0	0	0.023635	0.21725	0.2721	0.06894	0.09757	0.21722	0.14206	0.27079	0.10216	0.16918	0.11571	0.071577	0.17305	0.25661	0.13391	0.21189	-3.2687	-3.3125	-3.6521	-3.8292	-3.5375	-3.7875	-3.5792	-3.5563	-3.7667	-3.35	-3.6875	-3.8125	-3.45	-3.7875	-3.4708	-3.5062	218.884	22.676	227.506	100.520	101.884	261.749	285.694	19.892	197.412	52.105	217.340	77.313	136.556	25.578	33.602	314.286	0.00020401	0.00019858	0.00012027	1314.7	1.0531e-06	7.9381e-06	1388.3	276.35	3.8561e-06	7.2593e-06	339.8	93.871	74.175	21.624	3.7214e-06	30.369	0.00069132	0.00078061	0.00021744	1291.2	8.3661e-06	8.4967e-06	1363.6	274.48	8.3373e-06	8.4867e-06	339.72	95.214	75.171	22.225	8.3533e-06	31.034	225.229	109.649	49.519	16.775	129.629	198.274	17.276	24.135	174.840	157.287	23.754	30.506	30.837	37.411	249.828	36.783	-8191	255	
431.206	1	1	0	0	0.10249	0.095332	0.055957	0.24676	0.19328	0.086046	0.051731	0.21659	0.11997	0.045486	0.24304	0.12895	0.059104	0.1866	0.053502	0.093649	-3.1125	-3.3646	-3.5625	-3.8354	-3.4708	-3.8396	-3.8187	-3.6292	-3.7792	-3.45	-3.7771	-3.7958	-3.3771	-3.7458	-3.5833	-3.5833	250.153	94.765	309.253	309.204	202.802	212.369	104.461	344.614	254.466	16.153	206.720	267.579	238.856	361.009	147.888	85.697	0.00019461	0.00046869	9.7969e-05	1312.1	4.5427e-06	3.8463e-06	1385.3	276.49	3.9362e-06	4.1305e-06	339.35	94.469	74.016	21.736	8.4468e-07	30.112	0.00070138	0.00077968	0.00021686	1292.1	8.4892e-06	8.5824e-06	1362.9	274.88	8.4933e-06	8.547e-06	339.98	95.434	75.023	22.253	8.5293e-06	31.021	211.934	116.570	101.692	16.837	188.058	142.727	16.947	24.066	224.503	214.739	23.382	30.693	31.090	36.999	235.463	36.916	-8191	255	
431.278	1	1	0	0	0.19512	0.087738	0.072518	0.11566	0.086909	0.25147	0.03662	0.10331	0.26878	0.035183	0.20114	0.11522	0.045812	0.057348	0.056115	0.10985	-3.4604	-3.3792	-3.5104	-3.7313	-3.3667	-3.6479	-3.6437	-3.5708	-3.7021	-3.5792	-3.85	-3.6792	-3.3208	-3.7313	-3.6458	-3.4646	267.077	299.404	304.869	159.980	176.837	290.207	68.665	301.465	97.157	186.518	199.261	184.847	56.660	227.585	221.449	34.687	0.00018545	0.00057477	0.00020545	1309.5	7.4741e-06	3.5308e-06	1386.7	275.38	2.1869e-06	3.5431e-06	339.99	93.434	74.358	21.504	3.124e-06	30.321	0.00069857	0.00079378	0.00022086	1290	8.6504e-06	8.758e-06	1364	274.47	8.6889e-06	8.797e-06	339.98	95.187	75.17	22.169	8.6115e-06	31.029	223.054	98.319	90.532	16.842	205.358	191.833	16.926	24.338	290.008	137.727	23.643	30.884	31.077	37.001	195.488	36.950	-8191	255	
431.374	1	1	0	0	0.076852	0.11985	0.20603	0.21746	0.15783	0.10501	0.062518	0.11389	0.2284	0.33962	0.35577	0.13712	0.23529	0.10505	0.26546	0.23521	-3.2458	-3.4292	-3.5042	-3.8667	-3.5354	-3.5938	-3.825	-3.6625	-3.775	-3.5021	-3.6	-3.7896	-3.5104	-3.6792	-3.7146	-3.5896	126.523	100.426	365.593	309.798	325.261	10.067	350.654	264.781	69.846	259.688	347.826	69.471	91.925	365.845	194.139	328.417	0.00017887	0.00064933	1.4034e-05	1308	1.3137e-06	7.4948e-06	1381	274.19	1.5055e-06	2.582e-06	338.78	93.922	73.655	21.525	2.2031e-06	30.243	0.00071578	0.00080445	0.00022401	1289.7	8.6798e-06	8.6597e-06	1359.8	273.61	8.4933e-06	8.6124e-06	339.36	95.029	74.888	22.127	8.7293e-06	30.947	232.211	98.811	348.768	16.880	56.312	147.878	17.055	24.227	179.255	211.661	23.762	30.460	30.889	37.093	262.268	36.824	-8191	255	
431.493	1	1	0	0	0.23075	0.10076	0.12344	0.051752	0.30667	0.16465	0.13407	0.069973	0.22653	0.24736	0.15522	0.24928	0.083907	0.14629	0.18246	0.042696	-3.3271	-3.4771	-3.4729	-3.9083	-3.4292	-3.75	-3.7188	-3.3812	-3.7646	-3.6437	-3.6437	-3.7562	-3.7062	-3.6625	-3.6	-3.55	248.595	64.398	125.378	236.990	160.814	342.797	263.668	253.397	170.197	201.969	301.925	243.759	69.308	7.568	104.975	301.346	0.00023783	0.00033779	0.00010773	1308.5	3.8721e-06	8.9877e-06	1384.1	273.75	3.4699e-06	1.7778e-06	337.49	93.724	73.551	21.524	5.0942e-06	30.177	0.00070918	0.00079585	0.00022722	1286.8	8.7394e-06	8.845e-06	1360.4	273.49	8.7048e-06	9.0314e-06	338.8	95.072	74.883	22.109	8.9594e-06	30.936	233.857	138.213	49.756	16.769	166.647	149.184	17.101	24.121	235.891	191.585	23.845	30.802	31.030	36.993	187.406	36.530	-8191	255	
431.589	1	1	0	0	0.18647	0.16352	0.1357	0.13222	0.20457	0.1882	0.22051	0.22625	0.086655	0.064381	0.074426	0.23493	0.2045	0.049793	0.040924	0.25765	-3.2771	-3.4167	-3.4833	-3.9	-3.4437	-3.6917	-3.7271	-3.6937	-3.7333	-3.6708	-3.4875	-3.6708	-3.575	-3.65	-3.7438	-3.5083	108.842	173.594	116.560	331.121	51.794	54.705	362.562	356.093	325.443	289.701	265.020	25.302	35.668	362.740	53.968	7.110	0.00023083	7.2012e-05	0.00021332	1307.4	4.4602e-06	8.8047e-06	1386.7	274.15	3.5782e-06	4.7165e-06	338.08	93.522	74.268	21.465	4.6864e-06	30.068	0.00074267	0.00084344	0.00023521	1289.1	9.1889e-06	9.3718e-06	1363.2	274.03	9.2814e-06	9.5383e-06	339.34	95.132	75.375	22.189	9.4794e-06	31.032	227.191	166.406	150.747	16.958	172.256	173.105	16.962	24.111	187.239	130.006	23.785	30.867	31.023	37.015	196.254	36.648	-8191	255	
431.685	1	1	0	0	0.28407	0.16043	0.26179	0.28089	0.063698	0.20236	0.13412	0.29163	0.1429	0.14564	0.060955	0.10458	0.075039	0.18379	0.06435	0.049662	-3.3146	-3.6312	-3.2458	-3.9021	-3.3229	-3.5083	-3.7854	-3.4062	-3.6125	-3.6063	-3.5438	-3.7229	-3.5208	-3.3521	-3.6188	-3.4583	56.999	76.060	357.071	357.136	283.140	161.916	226.600	284.753	28.550	285.579	284.081	6.897	35.790	111.928	317.131	36.622	0.0002209	0.00045658	0.00018128	1311	1.8892e-06	5.9003e-06	1387.3	274.22	2.9937e-06	2.0104e-06	337.98	93.425	74.094	21.41	9.4595e-07	30.269	0.00077607	0.0008793	0.00024467	1291.2	9.4117e-06	9.6021e-06	1362	274.28	9.3056e-06	9.5467e-06	339.85	95.324	75.294	22.156	9.3519e-06	31.054	233.833	31.493	117.416	16.822	137.269	134.620	16.961	24.024	180.207	98.280	23.412	30.799	30.957	37.137	222.705	36.648	-8191	255	
431.781	1	1	0	0	0.1959	0.13998	0.07803	0.032603	0.11821	0.1122	0.2301	0.12066	0.15561	0.23097	0.21736	0.087829	0.23466	0.16551	0.087283	0.20929	-3.2875	-3.6271	-3.3438	-3.85	-3.425	-3.3646	-3.8083	-3.4167	-3.7687	-3.7208	-3.5771	-3.7333	-3.6688	-3.4146	-3.7771	-3.4437	151.925	184.156	165.814	229.444	58.169	237.968	279.556	322.336	22.280	258.841	241.176	82.136	315.236	111.824	71.372	316.936	0.00020357	0.00027977	8.7123e-05	1307.3	3.253e-06	6.2827e-06	1387	275.44	4.6999e-06	1.2685e-06	338.7	93.961	74.009	21.482	8.4684e-07	30.052	0.00077938	0.00087683	0.0002449	1289.1	9.3334e-06	9.6161e-06	1362.8	274.22	9.3837e-06	9.719e-06	339.75	95.197	75.106	22.154	9.5758e-06	30.99	225.669	43.825	74.249	16.732	167.037	260.935	17.193	24.158	189.579	168.843	23.407	30.667	31.040	37.063	240.052	36.548	-8191	255	
431.853	1	1	0	0	0.083264	0.13275	0.22909	0.36018	0.036012	0.081405	0.13947	0.067327	0.13806	0.050833	0.10217	0.12669	0.092631	0.016934	0.18852	0.13955	-3.2458	-3.7583	-3.2958	-3.8896	-3.5208	-3.5312	-3.9771	-3.6875	-3.5896	-3.6688	-3.4917	-3.8833	-3.5187	-3.4792	-3.7	-3.7354	72.326	58.663	139.566	15.438	311.434	104.374	279.439	18.893	299.062	229.931	182.790	248.347	325.809	215.904	83.836	133.640	0.00024797	0.00053002	0.00013249	1309.8	5.1932e-06	4.3917e-06	1382.6	273.38	1.208e-06	6.408e-06	338.18	93.533	74.065	21.489	4.0543e-06	30.262	0.00078977	0.00088854	0.00024629	1289.4	9.6193e-06	9.6582e-06	1362.7	273.8	9.5573e-06	9.6389e-06	339.91	95.164	74.978	22.147	9.6019e-06	31.076	224.955	109.589	100.656	16.856	276.142	190.974	17.105	24.049	134.323	147.341	23.722	30.895	31.024	36.867	309.398	36.516	-8191	255	
431.973	1	1	0	0	0.045935	0.061039	0.2726	0.141	0.20655	0.1285	0.15738	0.12295	0.051068	0.12346	0.076542	0.18599	0.15639	0.14937	0.14562	0.025017	-3.0875	-3.5646	-3.3479	-3.8167	-3.5375	-3.3125	-3.8729	-3.5417	-3.6458	-3.7125	-3.5792	-3.6479	-3.675	-3.5375	-3.8187	-3.5521	278.503	183.184	17.735	315.785	66.520	178.349	303.518	228.477	219.501	60.807	256.368	63.912	135.230	50.218	18.615	146.844	0.00022949	0.00029404	0.0001782	1305	1.2181e-06	6.1362e-06	1384.5	274.47	2.076e-06	5.6335e-06	337.62	93.767	73.754	21.375	4.5768e-06	30.04	0.00078305	0.00088218	0.00024906	1288.9	9.5447e-06	9.7453e-06	1360.3	274.39	9.4851e-06	9.6665e-06	339.33	95.267	74.998	22.111	9.3588e-06	30.862	233.855	42.423	67.913	16.963	238.626	163.445	17.144	24.176	184.880	154.593	23.523	30.913	30.804	37.096	172.313	36.908	-8191	255	
432.069	1	1	0	0	0.16915	0.070931	0.078024	0.17919	0.061303	0.042591	0.34468	0.18179	0.1249	0.23432	0.14619	0.27664	0.19709	0.099299	0.053008	0.069328	-3.1417	-3.7771	-3.4729	-3.75	-3.6375	-3.4042	-3.8125	-3.4958	-3.4208	-3.8063	-3.4354	-3.6292	-3.7875	-3.3937	-3.6188	-3.8146	88.800	243.605	241.849	268.712	291.696	142.942	308.667	332.067	22.235	272.743	319.011	257.941	341.257	152.276	165.856	290.089	0.00020286	0.00042838	0.00013375	1304.4	2.3224e-06	5.4886e-06	1381.1	275.05	9.5005e-07	9.4659e-06	338.31	93.451	73.578	21.594	6.2395e-06	29.951	0.0007773	0.00086598	0.00024322	1286.5	9.4748e-06	9.5566e-06	1359.3	273.84	9.4894e-06	9.6269e-06	338.96	95.145	75.089	22.191	9.6701e-06	30.948	231.021	90.447	95.619	16.808	192.113	207.764	17.211	23.918	242.009	194.735	23.639	30.805	31.042	37.271	162.049	36.863	-8191	255	
432.166	1	1	0	0	0.15871	0.24178	0.22867	0.22832	0.086062	0.25975	0.50812	0.18335	0.24055	0.14142	0.25528	0.13165	0.06007	0.22742	0.04557	0.23048	-2.9896	-3.7479	-3.4292	-3.6729	-3.7604	-3.4	-3.7979	-3.8354	-3.4896	-3.8187	-3.6063	-3.8833	-3.8563	-3.5563	-3.5563	-3.6917	243.963	32.881	98.416	305.700	279.215	52.717	293.761	319.988	197.362	22.570	236.082	230.863	32.147	331.182	206.226	339.739	0.00025325	0.00037266	0.00012074	1309	6.4083e-06	6.1574e-06	1380.4	273.41	1.5197e-06	6.4666e-06	339.29	93.938	74.049	21.469	5.1121e-06	30.144	0.00079012	0.00089027	0.00024969	1290.2	9.6982e-06	9.8569e-06	1361.3	273.98	9.6257e-06	9.8564e-06	339.75	95.108	75.178	22.116	9.4094e-06	31.007	235.528	76.593	78.059	16.944	247.603	195.828	17.032	24.204	205.666	188.105	23.597	30.697	30.778	37.193	159.984	36.728	-8191	255	
432.284	1	1	0	0	0.24798	0.21263	0.13277	0.28706	0.12054	0.18082	0.2083	0.18207	0.27072	0.1718	0.11072	0.037629	0.10944	0.073486	0.062201	0.071809	-2.8833	-3.7792	-3.4542	-3.6354	-3.9854	-3.5687	-3.7146	-3.6792	-3.4583	-3.7687	-3.6521	-3.4542	-3.6208	-3.6354	-3.5396	-3.7042	25.886	66.786	338.621	306.544	171.573	184.644	194.113	296.611	297.752	305.344	322.739	327.105	188.680	321.516	129.464	157.415	0.0001798	0.00063142	0.00013396	1313.2	6.8248e-06	8.3421e-07	1384.3	274.75	2.6286e-06	2.9518e-06	336.06	93.662	73.849	21.373	3.9278e-06	30.089	0.00077811	0.00087085	0.00024304	1291.5	9.4437e-06	9.4008e-06	1363	273.9	9.2699e-06	9.4191e-06	338.73	95.202	75.049	22.137	9.365e-06	31.014	229.797	102.795	94.238	16.917	217.765	283.284	17.084	24.072	161.317	90.005	23.592	30.732	30.890	37.031	236.522	36.718	-8191	255	
432.381	1	1	0	0	0.052619	0.047305	0.1021	0.19043	0.26585	0.083262	0.209	0.22939	0.24553	0.11917	0.10221	0.10083	0.36869	0.12828	0.1324	0.20454	-2.9854	-3.6375	-3.5271	-3.5938	-3.625	-3.3521	-3.6542	-3.6479	-3.5104	-3.5646	-3.6917	-3.4771	-3.8083	-3.575	-3.5542	-3.6583	144.460	169.371	25.801	331.508	250.029	322.474	334.388	265.235	38.449	53.709	307.723	167.276	338.417	11.485	38.706	319.764	0.0001661	0.00028731	2.695e-05	1305.2	4.628e-06	3.3293e-06	1380.6	274.86	2.6018e-06	5.7782e-06	338.82	93.962	73.645	21.436	5.0166e-06	30.273	0.00077273	0.00086914	0.00024121	1288.4	9.3911e-06	9.4957e-06	1360.8	274.24	9.3505e-06	9.5412e-06	338.74	95.238	75.071	22.16	9.5097e-06	31.01	228.598	65.834	343.429	16.910	283.710	173.044	17.049	24.153	195.560	148.558	23.845	30.424	30.661	36.810	171.290	36.719	-8191	255	
432.477	1	1	0	0	0.18339	0.23963	0.13941	0.26643	0.18667	0.077429	0.30901	0.25399	0.085817	0.021395	0.098418	0.20006	0.056679	0.27398	0.24086	0.13562	-2.9562	-3.5542	-3.5479	-3.5312	-3.6646	-3.4271	-3.675	-3.775	-3.1458	-3.5312	-3.6979	-3.525	-3.85	-3.5854	-3.4062	-3.8688	143.300	206.616	19.380	344.676	139.281	239.305	252.116	78.083	306.309	80.990	142.772	139.254	254.511	28.018	56.205	291.319	0.00023626	0.00027195	0.00015339	1311.1	3.8961e-06	3.7976e-06	1387.1	275.55	4.1871e-06	6.627e-06	338.1	93.192	73.872	21.524	3.4848e-06	29.98	0.00076917	0.00087104	0.00024557	1292.5	9.405e-06	9.5264e-06	1364.8	274.38	9.4349e-06	9.4627e-06	339.66	95.015	75.057	22.195	9.6195e-06	30.97	224.603	33.525	64.895	16.982	139.191	222.696	17.211	24.236	181.818	132.689	23.790	30.876	30.792	37.421	186.553	36.824	-8191	255	
432.573	1	1	0	0	0.073514	0.19309	0.19781	0.25446	0.071338	0.098724	0.28862	0.08902	0.040858	0.38914	0.32196	0.078869	0.14101	0.077905	0.23903	0.020024	-3.0042	-3.6688	-3.5896	-3.4583	-3.7625	-3.5229	-3.6479	-3.8937	-3.3146	-3.6667	-3.7188	-3.4667	-3.875	-3.6354	-3.2958	-3.8708	240.626	208.108	56.973	307.388	172.520	24.820	292.076	273.981	51.542	359.942	246.574	228.937	306.195	216.222	279.288	230.068	0.00024225	0.00049846	0.00010927	1309.8	6.2641e-07	5.1399e-06	1387.9	273.88	4.3041e-06	5.4692e-06	339.5	93.79	74.001	21.524	4.2901e-06	30.034	0.00078206	0.00087634	0.00024566	1292.3	9.4799e-06	9.6662e-06	1362.7	274.04	9.3496e-06	9.4881e-06	339.8	95.214	75.227	22.174	9.3221e-06	30.977	224.159	110.134	109.488	16.825	308.428	143.350	17.072	24.111	247.144	153.910	23.729	30.712	30.720	36.857	167.061	36.767	-8191	255	
432.669	1	1	0	0	0.1996	0.040817	0.029002	0.18657	0.17654	0.0999	0.32479	0.31925	0.20462	0.16172	0.12391	0.014787	0.26942	0.099995	0.28998	0.17232	-3.0833	-3.6417	-3.8563	-3.4667	-3.6125	-3.5229	-3.4188	-3.8542	-3.4833	-3.6583	-3.8187	-3.4958	-3.7646	-3.6854	-3.3375	-3.7917	292.918	261.003	105.151	341.233	296.749	82.140	248.095	343.243	262.914	316.952	365.442	210.774	69.690	205.578	52.883	133.567	0.00024467	0.00056675	0.00013723	1309.5	4.7765e-06	6.6169e-06	1390.1	274.77	4.278e-06	2.3816e-06	336.9	93.993	74.131	21.465	3.6155e-06	30.287	0.00076271	0.00086379	0.00023875	1293.7	9.0925e-06	9.3183e-06	1366.4	274.26	9.2065e-06	9.4039e-06	339.25	95.238	75.101	22.174	9.302e-06	30.998	222.520	105.314	66.298	16.894	228.930	178.593	17.176	24.367	173.582	158.333	23.825	30.639	31.112	36.840	226.042	36.726	-8191	255	
432.765	1	1	0	0	0.11175	0.29308	0.19787	0.28036	0.1944	0.23089	0.004458	0.031137	0.12237	0.1313	0.13446	0.24793	0.06302	0.2161	0.057235	0.22692	-3.1167	-3.4583	-3.6458	-3.5312	-3.5583	-3.5229	-3.5729	-3.6437	-3.5375	-3.4271	-3.7833	-3.35	-3.55	-3.7354	-3.3708	-3.7854	289.941	252.819	43.287	29.261	219.891	18.349	258.301	352.304	275.873	100.660	244.399	157.674	13.242	301.364	330.122	36.011	0.00022125	0.00059589	7.8672e-05	1314.1	2.9441e-06	7.0982e-06	1388.8	274.34	9.0578e-07	5.8747e-06	338.9	93.362	73.583	21.584	4.2053e-06	30.119	0.00077055	0.00086075	0.00023688	1293.3	9.3092e-06	9.3751e-06	1364.1	274.11	9.1631e-06	9.298e-06	339.47	95.053	74.961	22.163	9.2097e-06	30.904	223.611	102.849	84.710	16.778	218.007	139.479	17.065	24.066	184.421	193.606	23.660	30.613	31.080	37.324	82.262	36.718	-8191	255	
432.886	1	1	0	0	0.13608	0.13212	0.087682	0.33367	0.10474	0.2607	0.036948	0.18926	0.17437	0.082463	0.098373	0.16675	0.1239	0.15509	0.11587	0.068185	-3.0354	-3.3646	-3.7958	-3.5125	-3.5479	-3.7812	-3.6292	-3.6667	-3.5583	-3.4896	-3.8854	-3.35	-3.4979	-3.7687	-3.4542	-3.7417	255.058	15.853	58.962	317.605	315.803	86.689	336.460	294.621	183.579	274.047	209.144	341.895	265.014	252.183	243.813	352.220	0.00022582	0.00018042	5.3068e-05	1308.4	6.721e-06	6.8893e-06	1385.4	275.84	2.4066e-06	1.8161e-06	339.23	93.711	73.677	21.411	4.9133e-06	30.07	0.0007586	0.000853	0.00023561	1291	9.2311e-06	9.3592e-06	1362.7	274.52	9.2623e-06	9.3571e-06	339.52	95.25	75.144	22.143	9.3624e-06	30.948	232.337	181.709	92.054	16.656	227.656	180.095	17.070	24.080	231.803	118.975	23.707	30.833	31.102	37.261	230.698	36.722	-8191	255	
432.982	1	1	0	0	0.18904	0.089268	0.073303	0.21112	0.1814	0.16636	0.31525	0.06652	0.17829	0.0912	0.21423	0.097821	0.096309	0.13121	0.24268	0.19694	-3.1042	-3.3771	-3.6312	-3.6375	-3.4458	-3.7812	-3.4521	-3.7167	-3.5375	-3.3833	-3.6104	-3.6083	-3.5625	-3.6312	-3.4062	-3.7562	165.904	160.819	164.533	24.952	78.845	149.272	329.590	129.076	185.300	93.157	162.248	50.605	274.989	320.223	58.912	288.608	0.00025799	0.00017213	9.1966e-05	1312.1	1.4815e-06	1.3209e-06	1383.8	274.13	3.4458e-06	4.7076e-06	336.13	93.767	73.52	21.53	4.0014e-06	30.161	0.00076781	0.00085706	0.00023978	1291.4	9.3784e-06	9.4978e-06	1362.8	273.97	9.2728e-06	9.4402e-06	338.98	95.078	74.974	22.16	9.3793e-06	30.97	237.338	183.449	94.985	16.808	185.117	229.843	17.082	24.004	209.191	181.110	23.852	30.477	30.859	37.222	103.860	36.807	-8191	255	
433.078	1	1	0	0	0.24547	0.17611	0.089383	0.15174	0.20426	0.11102	0.13792	0.29704	0.20889	0.086412	0.39761	0.073466	0.24449	0.25607	0.16892	0.26713	-3.1146	-3.2854	-3.6271	-3.8042	-3.5354	-3.8021	-3.625	-3.6667	-3.6937	-3.4	-3.75	-3.5875	-3.5354	-3.6625	-3.4917	-3.5771	69.282	230.167	8.634	363.488	240.389	165.216	309.325	280.892	140.760	141.500	287.284	259.667	354.455	10.457	15.209	328.459	0.00014295	0.00061182	5.9636e-05	1309.5	4.036e-06	7.8952e-06	1383.9	273.57	1.096e-06	4.1221e-06	338.77	93.839	73.584	21.319	6.8438e-06	30.063	0.00076721	0.00084997	0.00023859	1289.6	9.2562e-06	9.5407e-06	1360.2	273.72	9.2832e-06	9.4861e-06	339.47	95.123	74.932	22.067	9.4891e-06	30.903	230.417	132.457	23.558	16.878	224.451	116.014	17.092	24.171	160.220	146.477	23.517	30.825	30.921	37.095	112.237	37.116	-8191	255	
433.150	1	1	0	0	0.10398	0.11885	0.37878	0.23471	0.11887	0.12747	0.20032	0.18101	0.11566	0.1939	0.25457	0.16864	0.22123	0.13579	0.11399	0.23852	-3.325	-3.4333	-3.7	-3.6125	-3.6167	-3.6542	-3.6958	-3.6896	-3.7208	-3.3208	-3.8333	-3.7042	-3.4854	-3.7604	-3.6188	-3.8292	101.914	310.470	244.374	334.052	169.462	14.640	352.050	271.424	273.875	43.309	267.015	24.185	22.281	276.351	278.908	256.017	0.00021881	0.00038752	2.0339e-05	1306.6	7.4068e-06	8.8108e-06	1382	273.97	4.6391e-06	4.4545e-06	337.31	93.463	73.309	21.465	3.4733e-06	29.975	0.00075833	0.0008522	0.00024036	1286.8	9.4485e-06	9.4592e-06	1358	273.28	9.3321e-06	9.6118e-06	338.85	95.022	74.708	22.125	9.5373e-06	30.886	235.029	131.309	38.470	16.957	227.029	135.090	17.007	24.327	220.824	195.902	23.737	30.703	31.049	37.618	201.763	36.595	-8191	255	
433.270	1	1	0	0	0.15178	0.21716	0.21179	0.27116	0.10622	0.3094	0.33807	0.066669	0.029782	0.1288	0.20757	0.011961	0.27602	0.066717	0.15077	0.055248	-3.4146	-3.3958	-3.6375	-3.7875	-3.6125	-3.6146	-3.8042	-3.6667	-3.8125	-3.725	-3.9062	-3.75	-3.6417	-3.7188	-3.5021	-3.6208	187.183	40.046	119.516	264.977	127.937	242.804	285.778	312.882	300.411	302.469	332.222	161.653	364.096	63.977	79.628	337.589	0.00028267	0.00034837	0.00020911	1304.4	4.1764e-06	2.4201e-06	1379.1	273.99	1.1429e-06	4.717e-06	337.42	93.44	73.457	21.482	2.5996e-06	30.036	0.0007922	0.00087501	0.00024517	1285.5	9.4416e-06	9.6164e-06	1356.4	273.58	9.4657e-06	9.4803e-06	338.44	94.954	74.875	22.093	9.4702e-06	30.872	234.437	102.088	125.983	16.996	203.868	196.249	17.238	24.311	177.583	112.756	23.343	30.871	30.873	37.259	298.548	36.659	-8191	255	
433.367	1	1	0	0	0.19333	0.23319	0.053502	0.33039	0.068959	0.26217	0.19887	0.08618	0.22677	0.20185	0.070065	0.25775	0.12839	0.11195	0.072199	0.11514	-3.5187	-3.625	-3.6646	-3.8688	-3.4979	-3.6562	-3.8521	-3.4437	-3.7667	-3.3646	-3.6312	-3.8167	-3.2521	-3.5938	-3.3812	-3.3729	143.762	173.082	274.407	314.651	218.524	137.081	340.775	248.868	328.100	315.779	269.894	49.556	171.369	6.552	361.049	81.791	0.00020392	9.4492e-05	2.7957e-05	1304.9	7.6288e-06	3.0821e-06	1377.7	273.81	2.3374e-06	3.2586e-06	337.33	93.66	73.738	21.317	4.5618e-06	29.839	0.00078397	0.00087433	0.00024388	1286.4	9.4022e-06	9.5144e-06	1356.6	273.3	9.3246e-06	9.5359e-06	338.01	94.914	74.963	22.067	9.5111e-06	30.839	222.055	146.230	231.115	16.987	202.061	165.186	17.127	24.127	265.392	94.599	23.668	30.713	30.827	37.393	187.446	36.482	-8191	255	
433.461	1	1	0	0	0.19921	0.1346	0.193	0.17191	0.14246	0.11979	0.17089	0.21179	0.12992	0.35466	0.015298	0.12335	0.22203	0.18448	0.13759	0.053145	-3.2521	-3.4437	-3.5021	-3.8146	-3.3187	-3.8479	-3.9042	-3.7062	-3.8729	-3.4167	-3.5938	-3.7729	-3.5271	-3.6542	-3.6958	-3.4437	131.881	191.751	246.045	282.001	54.739	20.414	287.230	309.582	73.698	284.105	139.092	309.359	182.173	111.461	280.501	317.819	0.00023682	0.00065643	0.00014132	1303.5	6.0967e-06	3.4964e-06	1376.7	274.4	1.105e-06	7.9428e-06	337.57	93.571	73.778	21.311	6.6108e-06	29.776	0.00077617	0.00086738	0.0002437	1284.7	9.357e-06	9.4568e-06	1357	273.19	9.3422e-06	9.476e-06	338.68	94.741	74.911	22.054	9.6265e-06	30.821	222.150	112.537	66.084	16.858	186.330	85.370	16.939	24.341	230.734	130.923	23.406	30.788	30.851	36.988	215.555	36.957	-8191	255	
433.582	1	1	0	0	0.3821	0.29572	0.32175	0.15967	0.29044	0.2719	0.12145	0.067158	0.092586	0.1456	0.085891	0.044648	0.19667	0.09212	0.085095	0.1441	-3.4979	-3.7062	-3.325	-3.8771	-3.3563	-3.5229	-3.6479	-3.4979	-3.7417	-3.5979	-3.6292	-3.7229	-3.5625	-3.6188	-3.7375	-3.4854	199.779	6.250	169.667	357.410	141.475	328.102	39.754	10.690	189.997	34.185	244.937	148.701	356.004	315.398	87.798	141.208	0.00020008	0.00047708	1.9914e-05	1304.4	3.8649e-06	5.9101e-06	1375.4	273.6	3.6839e-06	2.2333e-06	336.86	93.52	73.293	21.455	1.3432e-06	29.856	0.00077438	0.00088791	0.0002456	1285.5	9.6007e-06	9.6297e-06	1357.1	273.18	9.3339e-06	9.5713e-06	338.27	95.006	74.928	22.082	9.4639e-06	30.86	227.389	146.115	132.959	16.944	280.399	198.734	17.087	24.198	275.633	158.677	23.917	30.623	31.011	36.623	326.428	36.736	-8191	255	
433.678	1	1	0	0	0.14768	0.12709	0.080924	0.14459	0.16003	0.18462	0.085316	0.14731	0.15938	0.079734	0.24336	0.077407	0.084422	0.37955	0.3722	0.22683	-3.3354	-3.6562	-3.4854	-3.8229	-3.4333	-3.5354	-3.8354	-3.3917	-3.6437	-3.7167	-3.6208	-3.85	-3.5833	-3.5187	-3.8396	-3.5563	365.533	78.267	334.603	349.671	206.660	128.510	354.094	10.643	253.109	25.069	314.736	292.016	223.142	294.181	307.747	319.055	0.00022438	0.00043677	8.7423e-05	1304.8	3.3694e-06	7.4244e-06	1376.9	273.82	5.1166e-06	2.8347e-06	337.26	93.282	73.34	21.307	5.8953e-06	29.843	0.00077897	0.0008721	0.0002447	1285.5	9.4024e-06	9.4802e-06	1357.6	272.86	9.4036e-06	9.5376e-06	338.49	94.862	74.619	22.027	9.3728e-06	30.814	226.017	85.975	208.843	16.780	207.046	125.616	17.170	24.199	191.993	159.860	23.600	30.740	30.991	36.992	191.042	36.898	-8191	255	
433.749	1	1	0	0	0.14062	0.21587	0.17155	0.098237	0.086237	0.048881	0.21738	0.12229	0.10846	0.18511	0.2699	0.21081	0.20579	0.040383	0.051647	0.28404	-3.2479	-3.6437	-3.4083	-3.9813	-3.6021	-3.4625	-3.9313	-3.3708	-3.6063	-3.6875	-3.5667	-3.775	-3.5792	-3.5812	-3.7021	-3.4833	279.804	208.695	23.682	297.648	221.647	149.625	12.653	350.555	16.520	305.521	25.157	232.616	338.048	236.922	100.534	39.081	0.00025168	0.00052216	0.00016088	1303.3	7.942e-06	4.4727e-06	1381.2	273.27	7.6899e-06	4.7064e-06	337.83	93.232	73.658	21.453	5.436e-06	29.925	0.00075982	0.00087117	0.00024181	1286.7	9.1795e-06	9.4565e-06	1358.9	273	9.2251e-06	9.3912e-06	338.85	94.726	74.765	22.069	9.3241e-06	30.813	222.629	70.826	133.282	17.083	220.442	212.012	16.989	24.063	220.748	83.426	23.715	30.925	30.985	36.827	243.048	36.919	-8191	255	
433.846	1	1	0	0	0.1038	0.085869	0.13631	0.22	0.09026	0.084222	0.29473	0.3696	0.059562	0.10614	0.050385	0.15573	0.13583	0.20597	0.14371	0.11248	-3.3312	-3.5708	-3.4042	-3.8083	-3.7167	-3.4146	-3.9271	-3.4604	-3.65	-3.8021	-3.4271	-3.6896	-3.6604	-3.3	-3.7875	-3.6813	346.061	143.522	72.664	313.029	26.767	19.718	313.350	65.642	323.580	330.791	287.972	109.261	91.357	39.274	61.709	291.797	0.00022779	0.00024829	0.00019483	1307.2	5.6311e-06	3.8229e-06	1375.4	272.39	4.958e-06	3.1115e-06	338.24	93.656	73.737	21.417	7.9451e-06	30.038	0.0007493	0.00085397	0.00024017	1287.3	9.3103e-06	9.3277e-06	1356.7	272.58	9.0361e-06	9.4465e-06	338.44	95.006	74.744	22.063	9.2264e-06	30.831	229.628	73.554	104.903	17.055	193.294	222.836	16.953	24.381	236.459	141.538	23.767	30.551	31.210	37.075	186.615	36.684	-8191	255	
433.966	1	1	0	0	0.27386	0.11249	0.0091555	0.32814	0.13696	0.048559	0.20999	0.14045	0.13337	0.069124	0.085271	0.13024	0.21723	0.027888	0.14514	0.31576	-3.1729	-3.6354	-3.4771	-3.8812	-3.5833	-3.3917	-3.9604	-3.6729	-3.4792	-3.8521	-3.5896	-3.5292	-3.4896	-3.2896	-3.7479	-3.5104	199.776	227.882	104.126	327.250	364.197	250.646	276.617	343.267	147.090	172.235	315.444	290.253	324.178	22.174	202.914	238.074	0.00028016	0.00057262	0.0001113	1308.1	3.9397e-06	8.8593e-06	1378.7	272.47	4.8714e-06	4.7482e-06	338.07	93.621	73.737	21.378	7.8466e-06	29.942	0.0007669	0.00085602	0.0002376	1288.3	9.2691e-06	9.4196e-06	1358.3	272.85	9.2089e-06	9.2646e-06	338.66	94.814	74.943	22.05	9.1885e-06	30.851	220.734	139.232	53.736	16.899	244.547	146.905	17.308	24.197	206.160	222.695	23.725	30.712	30.906	37.211	190.123	36.500	-8191	255	
434.062	1	1	0	0	0.048716	0.1646	0.067063	0.25803	0.091678	0.031554	0.18598	0.070066	0.06607	0.12556	0.034825	0.16885	0.15016	0.062701	0.08655	0.21895	-3.2	-3.75	-3.4479	-3.7625	-3.7812	-3.5854	-3.8438	-3.6083	-3.5229	-3.7375	-3.5542	-3.6708	-3.8229	-3.4771	-3.7812	-3.5271	132.543	21.218	192.883	12.638	361.091	26.549	288.572	276.996	145.417	36.940	292.284	320.064	306.270	277.619	99.038	208.518	0.00018687	0.0004692	0.00011039	1308	2.8975e-06	5.6398e-06	1383.9	273.95	2.7326e-06	4.278e-06	338.96	94.072	73.777	21.427	1.7029e-06	30.108	0.00076543	0.00086052	0.00023612	1288.4	9.2774e-06	9.3841e-06	1361.1	273.55	9.1639e-06	9.3356e-06	339.08	94.866	74.846	22.076	9.1372e-06	30.904	220.665	152.388	112.320	16.883	224.373	120.054	17.159	24.159	176.886	219.280	23.813	30.558	31.060	37.254	194.131	36.253	-8191	255	
434.159	1	1	0	0	0.2019	0.13449	0.22956	0.10187	0.095783	0.093461	0.14341	0.18184	0.16402	0.19791	0.15862	0.13225	0.068411	0.10907	0.14044	0.048522	-2.9896	-3.8187	-3.5396	-3.7125	-3.7667	-3.5125	-3.8792	-3.6021	-3.4437	-3.7167	-3.7812	-3.6229	-3.7188	-3.5	-3.6792	-3.6937	246.230	315.272	210.502	174.240	330.538	107.361	217.670	360.356	208.795	328.340	65.111	55.849	36.186	186.578	334.376	92.567	0.00018054	0.00047953	4.5517e-05	1309	5.5329e-06	1.0103e-06	1385.5	273.74	1.0386e-06	4.4681e-06	337.78	93.699	73.682	21.557	4.7075e-06	30.267	0.0007677	0.00085725	0.00023682	1289.7	9.1861e-06	9.3862e-06	1362.6	273.87	9.2287e-06	9.4234e-06	339.13	95.163	74.952	22.126	9.1612e-06	30.977	234.770	140.911	157.405	16.809	235.668	164.545	17.237	24.077	192.751	182.635	23.556	30.967	31.249	37.166	168.863	37.057	-8191	255	
434.255	1	1	0	0	0.049672	0.1015	0.10117	0.25979	0.039689	0.24414	0.22111	0.3045	0.19537	0.15669	0.090282	0.10852	0.10753	0.14156	0.12136	0.16254	-3	-3.9292	-3.3917	-3.6646	-3.7646	-3.3292	-3.8167	-3.6937	-3.4979	-3.725	-3.4667	-3.6583	-3.95	-3.5354	-3.7354	-3.775	133.228	279.290	304.864	358.796	33.783	25.936	216.743	13.916	110.074	62.972	118.010	201.395	67.829	146.469	309.051	246.407	0.00022759	0.00025459	3.9032e-05	1309.9	3.3037e-06	2.2209e-06	1382	272.18	5.5625e-06	2.9294e-06	337.6	93.726	73.524	21.381	5.2784e-06	29.931	0.00075854	0.00085683	0.00023516	1289.3	9.219e-06	9.5217e-06	1361.1	273.02	9.222e-06	9.3445e-06	339.09	94.939	74.801	22.036	9.1152e-06	30.84	222.886	151.319	71.213	16.988	158.073	151.955	17.171	24.146	216.760	184.843	23.720	30.701	31.040	37.376	193.743	36.836	-8191	255	
434.374	1	1	0	0	0.28675	0.19941	0.16512	0.13801	0.22325	0.15084	0.5718	0.1957	0.23176	0.11084	0.12327	0.18211	0.22788	0.13061	0.27073	0.23004	-2.9917	-3.6458	-3.6937	-3.6562	-3.6979	-3.5208	-3.7542	-3.7667	-3.4125	-3.7438	-3.7292	-3.4604	-3.6458	-3.4604	-3.6125	-3.7812	27.168	118.330	67.746	320.855	304.516	353.361	324.177	301.606	352.778	85.460	242.266	86.569	33.890	333.582	91.785	17.596	0.00021399	0.00020437	0.00015755	1308.6	4.9893e-06	4.7663e-06	1378.5	273.97	2.8895e-06	2.1386e-06	336.56	93.421	73.431	21.262	4.9078e-06	29.845	0.00074994	0.00084579	0.0002354	1286.5	9.1785e-06	9.1645e-06	1357.8	272.97	9.1544e-06	9.2355e-06	338.12	94.732	74.733	22.015	9.2129e-06	30.837	217.620	170.024	156.460	16.803	268.508	235.416	17.232	24.051	145.208	65.976	23.839	30.934	30.895	37.127	145.759	36.948	-8191	255	
434.445	1	1	0	0	0.24863	0.14335	0.11978	0.15069	0.090626	0.14004	0.1301	0.13274	0.15395	0.12634	0.19748	0.017235	0.063718	0.31809	0.31876	0.12427	-3.0229	-3.5938	-3.7521	-3.6854	-3.8167	-3.7188	-3.8542	-3.8125	-3.3354	-3.6542	-3.5896	-3.4875	-3.8208	-3.4042	-3.5354	-3.7271	126.755	57.244	262.680	255.757	254.095	299.214	69.713	346.750	233.726	174.473	301.886	6.508	57.577	250.612	19.792	265.476	0.00020381	0.00033071	8.3931e-05	1307.2	4.5705e-06	4.1044e-06	1380.8	274.39	1.8274e-06	3.8619e-06	337.7	93.293	73.711	21.445	1.0128e-06	30.041	0.00076101	0.00085956	0.00023973	1286.4	9.39e-06	9.5509e-06	1357.5	273.72	9.2456e-06	9.5626e-06	338.74	94.959	74.906	22.104	9.3817e-06	30.882	235.374	91.089	107.284	16.775	216.215	169.670	17.032	24.464	229.908	110.911	23.471	30.717	31.168	37.165	148.990	36.978	-8191	255	
434.566	1	1	0	0	0.032038	0.13584	0.18576	0.23906	0.11327	0.238	0.27689	0.19743	0.24569	0.16785	0.11768	0.13922	0.27142	0.096389	0.15732	0.05106	-2.9958	-3.4167	-3.6229	-3.5125	-3.6312	-3.5208	-3.7396	-3.7854	-3.4167	-3.5208	-3.6604	-3.5833	-3.7146	-3.5792	-3.4125	-3.7354	12.888	198.889	343.356	28.765	166.729	319.613	243.779	237.991	119.146	129.493	332.142	253.146	8.254	301.191	47.684	74.032	0.00021147	0.00033497	0.0001249	1300	4.3148e-06	5.6681e-06	1377.3	273.36	1.3938e-06	9.857e-07	337.93	93.473	73.277	21.333	2.1355e-06	29.911	0.00077036	0.00087555	0.00024206	1283.8	9.3178e-06	9.3095e-06	1356.3	272.51	9.1126e-06	9.3516e-06	338.23	94.783	74.573	21.998	9.2399e-06	30.725	228.746	83.676	16.182	16.855	247.352	170.173	17.117	24.312	333.612	185.705	23.985	30.721	30.958	36.999	191.707	37.172	-8191	255	
434.662	1	1	0	0	0.10385	0.26704	0.20852	0.28817	0.24792	0.15216	0.064857	0.075109	0.16272	0.066301	0.20236	0.26786	0.16193	0.29926	0.076077	0.046928	-3.2729	-3.65	-3.6958	-3.4229	-3.6	-3.6229	-3.5	-3.775	-3.4833	-3.6625	-3.7	-3.2875	-3.6104	-3.5438	-3.4208	-3.7146	32.148	171.787	37.157	323.300	312.215	116.163	89.781	218.155	183.888	175.737	340.862	158.767	335.674	300.681	54.727	281.334	0.00025774	0.00011042	9.009e-05	1302.4	4.8948e-06	4.1675e-06	1374.2	272.67	1.1048e-06	3.526e-06	337.28	93.117	73.138	21.432	4.0573e-06	29.852	0.00076212	0.00086343	0.00024226	1283.1	9.4813e-06	9.5672e-06	1354	272.47	9.3041e-06	9.7113e-06	338.62	94.67	74.514	22.003	9.5685e-06	30.773	229.078	87.365	160.252	16.864	240.381	155.954	17.108	24.273	170.761	174.972	23.478	30.691	30.887	37.320	264.101	36.504	-8191	255	
434.758	1	1	0	0	0.10976	0.098805	0.10686	0.24809	0.072491	0.18814	0.1954	0.19734	0.17897	0.15322	0.12238	0.17346	0.071789	0.23847	0.095673	0.20396	-3.3625	-3.6021	-3.7083	-3.6521	-3.7979	-3.6979	-3.6354	-3.9146	-3.5958	-3.3229	-3.7458	-3.6083	-3.725	-3.5729	-3.3958	-3.8583	214.276	311.030	316.116	313.468	122.324	336.478	299.826	320.310	43.574	23.431	109.736	220.529	126.922	344.271	7.362	268.458	0.00020621	0.00067357	5.6057e-06	1300.2	6.0309e-06	7.3604e-06	1379.6	272.55	2.4277e-06	4.1763e-06	336.81	93.07	73.711	21.348	2.3388e-06	29.855	0.00077485	0.00088983	0.00024422	1282.7	9.2735e-06	9.4831e-06	1357	272.43	9.2194e-06	9.3995e-06	338.27	94.645	74.683	21.987	9.3106e-06	30.769	238.771	164.722	107.898	16.998	199.834	170.391	17.168	24.303	208.525	137.550	23.728	30.630	30.778	37.221	286.044	36.872	-8191	255	
434.854	1	1	0	0	0.2403	0.13448	0.23419	0.11657	0.18686	0.023441	0.17368	0.099284	0.1655	0.14303	0.18221	0.030062	0.20073	0.16411	0.34812	0.28368	-3.0604	-3.4833	-3.6833	-3.7313	-3.5312	-3.7333	-3.6646	-3.7562	-3.3521	-3.4583	-3.7583	-3.6229	-3.6729	-3.6813	-3.4229	-3.5812	274.760	103.122	362.987	339.649	213.153	365.796	321.980	316.017	288.050	214.025	286.510	228.557	309.159	58.735	32.353	314.683	0.00021359	0.00057815	9.197e-05	1300.3	2.2595e-06	6.621e-06	1379	273.48	7.0077e-07	4.2198e-06	337.33	93.467	73.453	21.321	8.0158e-06	30.042	0.00076849	0.00086798	0.0002399	1282.9	9.4176e-06	9.5925e-06	1356.1	273.1	9.3377e-06	9.5262e-06	338.1	94.92	74.75	22.041	9.3603e-06	30.783	228.598	97.067	84.194	16.973	322.020	140.070	17.058	24.225	308.325	165.833	23.720	30.731	31.176	37.300	194.111	36.668	-8191	255	
434.975	1	1	0	0	0.22245	0.22909	0.069896	0.24665	0.14977	0.020977	0.20813	0.18105	0.098927	0.060684	0.21631	0.087782	0.32037	0.25826	0.18124	0.088217	-3.275	-3.6437	-3.7896	-3.4729	-3.5979	-3.7938	-3.4479	-3.7542	-3.5938	-3.6354	-3.8	-3.5333	-3.6667	-3.6979	-3.5604	-3.6458	146.888	54.249	23.833	12.053	355.118	236.000	31.439	330.214	86.821	199.620	360.077	145.422	231.171	350.128	202.109	19.325	0.00015818	0.00016585	7.3167e-05	1301.6	3.798e-06	3.9698e-06	1377	274.07	1.7677e-06	8.3034e-06	338.04	93.745	73.311	21.305	4.9599e-06	30.043	0.00076362	0.00087082	0.00023875	1285.1	9.2218e-06	9.4141e-06	1355.8	273.2	9.2583e-06	9.3179e-06	338.23	94.788	74.665	22.022	9.3615e-06	30.791	226.260	67.573	44.752	16.988	166.513	201.681	17.095	24.184	229.639	175.788	23.715	30.750	30.806	37.429	189.790	36.887	-8191	255	
435.047	1	1	0	0	0.091129	0.21842	0.32579	0.073255	0.2633	0.23553	0.1448	0.11286	0.16592	0.17989	0.15442	0.078842	0.14992	0.029534	0.15185	0.27386	-3.1896	-3.5187	-3.7875	-3.6083	-3.5042	-3.7687	-3.7208	-3.7479	-3.775	-3.3688	-3.8146	-3.7833	-3.4146	-3.7771	-3.4083	-3.6333	139.822	148.801	275.014	333.785	232.941	207.384	343.896	307.860	37.695	216.810	320.471	323.034	281.964	126.708	319.026	295.645	0.00021615	0.00030235	0.00016297	1302.5	5.2483e-06	4.1195e-06	1378.4	273.34	1.2743e-06	3.9072e-06	336.58	93.999	73.795	21.372	3.86e-06	29.865	0.00076809	0.00087083	0.00024157	1283.7	9.4566e-06	9.5585e-06	1356.3	272.87	9.5461e-06	9.7827e-06	338.25	95.062	74.829	22.028	9.8946e-06	30.844	228.664	122.986	98.527	16.877	245.886	191.691	17.367	24.382	168.541	76.415	23.484	30.812	31.176	37.212	195.963	36.886	-8191	255	
435.143	1	1	0	0	0.19759	0.17398	0.20055	0.33857	0.28574	0.23126	0.14484	0.42962	0.18725	0.23546	0.092653	0.30838	0.065709	0.2286	0.11726	0.10184	-3.1792	-3.4562	-3.7667	-3.5958	-3.45	-3.7417	-3.7875	-3.6208	-3.7771	-3.4479	-3.7667	-3.7208	-3.35	-3.775	-3.5604	-3.55	236.665	336.046	285.161	10.023	219.972	231.098	253.723	307.018	286.589	15.055	285.974	292.525	290.608	337.653	150.619	298.109	0.00020402	0.00051166	0.00012503	1303.8	3.4005e-06	5.4138e-06	1376.4	273.42	2.7924e-06	4.3464e-06	337.6	93.367	73.59	21.363	2.9012e-06	29.987	0.00079439	0.00090356	0.0002489	1285.6	9.6908e-06	9.7266e-06	1357.6	273.31	9.5966e-06	9.8082e-06	338.52	94.953	74.901	22.041	9.5384e-06	30.832	231.507	128.271	114.157	16.854	265.663	103.293	16.923	24.176	213.500	174.599	23.756	30.893	30.850	36.949	200.976	36.731	-8191	255	
435.239	1	1	0	0	0.0646	0.15196	0.26701	0.12567	0.23357	0.17441	0.06573	0.26715	0.18232	0.22017	0.095637	0.22996	0.29458	0.21763	0.13055	0.13524	-3.5062	-3.375	-3.6146	-3.7625	-3.5312	-3.7146	-3.7729	-3.5104	-3.8417	-3.4604	-3.7479	-3.7354	-3.5146	-3.75	-3.4562	-3.6042	74.670	357.495	146.707	296.975	158.172	88.591	275.043	272.002	328.013	210.428	97.239	334.737	41.942	353.600	313.271	317.844	0.00022117	0.00029399	0.0001416	1306.4	4.7348e-06	2.8246e-06	1378.5	273.12	5.4492e-06	1.2993e-06	338.75	93.443	73.612	21.188	2.9487e-06	30.147	0.00078651	0.00087726	0.00024009	1286.9	9.4771e-06	9.5818e-06	1358.3	273.32	9.4302e-06	9.6088e-06	338.64	94.699	74.74	22.011	9.2499e-06	30.86	223.363	29.777	76.135	17.049	233.943	183.268	17.085	24.203	198.039	83.475	23.518	30.601	31.084	37.454	173.035	36.491	-8191	255	
435.358	1	1	0	0	0.1775	0.32528	0.26	0.18966	0.11351	0.16657	0.28608	0.34568	0.25787	0.10626	0.22017	0.24877	0.084143	0.12657	0.10229	0.15411	-3.2438	-3.4938	-3.7146	-3.7625	-3.5458	-3.7854	-3.5667	-3.6667	-3.7375	-3.4833	-3.7458	-3.8375	-3.5083	-3.8354	-3.5625	-3.5792	78.699	138.037	202.797	287.469	169.732	219.752	46.050	297.111	81.956	136.215	295.190	330.736	249.543	282.366	119.047	30.830	0.0001848	0.00038362	5.6203e-05	1303.6	1.4971e-06	7.0443e-06	1378.9	273.1	3.3802e-06	4.4422e-06	337.47	93.874	73.747	21.379	3.1718e-06	29.833	0.00076595	0.00086544	0.00023805	1284.8	9.2738e-06	9.3164e-06	1357.7	273.06	9.2262e-06	9.4035e-06	338.29	94.935	74.908	22.041	9.3662e-06	30.76	236.187	184.052	111.764	16.921	207.086	210.649	17.383	24.265	225.809	177.883	23.648	30.690	30.814	36.961	196.996	36.939	-8191	255	
435.454	1	1	0	0	0.22644	0.26511	0.15249	0.33665	0.07173	0.067884	0.12617	0.031512	0.19112	0.066637	0.23606	0.20126	0.19167	0.24546	0.038984	0.1119	-3.2646	-3.35	-3.6063	-3.9625	-3.4917	-3.725	-3.7021	-3.6042	-3.875	-3.5396	-3.6063	-3.8354	-3.7021	-3.7167	-3.7229	-3.5646	149.261	21.071	132.312	350.359	166.090	101.615	59.108	326.180	76.294	58.231	12.354	264.336	233.772	10.606	247.874	348.122	0.00021395	0.00037602	0.00010188	1303	3.4917e-06	2.5374e-06	1379	272.56	3.9203e-06	3.318e-06	335.96	93.246	73.809	21.45	4.9099e-06	29.96	0.00075102	0.00085048	0.00023965	1283.7	9.2903e-06	9.3525e-06	1355.5	272.77	9.1398e-06	9.3429e-06	337.68	94.665	74.684	22.054	9.3279e-06	30.804	229.490	119.284	142.373	16.920	229.656	42.331	17.159	24.137	287.774	207.895	23.966	31.022	31.031	37.365	181.922	36.521	-8191	255	
435.550	1	1	0	0	0.19436	0.15653	0.24253	0.19677	0.16703	0.19379	0.42752	0.069917	0.29118	0.034843	0.24666	0.2071	0.15648	0.056469	0.17113	0.25387	-3.3583	-3.6021	-3.6167	-3.6708	-3.5771	-3.6667	-3.8792	-3.6271	-3.7375	-3.4938	-3.5708	-3.7917	-3.4875	-3.675	-3.7	-3.4375	224.138	332.381	74.030	314.645	30.269	328.104	292.338	57.452	185.166	164.888	330.319	319.295	322.344	51.911	221.957	265.269	0.00015682	0.00061749	0.00012408	1303	1.8304e-06	7.0678e-06	1383.1	273.45	2.1062e-06	5.5379e-07	337.51	93.764	73.903	21.432	8.3337e-07	29.973	0.00075009	0.00086366	0.00023719	1285.2	9.0384e-06	9.3211e-06	1356.8	272.97	9.0394e-06	9.25e-06	338.16	94.825	74.754	22.026	9.2206e-06	30.73	237.670	106.940	103.152	16.949	219.959	219.672	17.096	24.086	195.699	306.025	23.689	30.548	31.190	37.616	311.420	36.885	-8191	255	
435.646	1	1	0	0	0.093114	0.20982	0.1165	0.05311	0.12051	0.16917	0.037264	0.26064	0.1819	0.1213	0.07771	0.2849	0.21856	0.17424	0.13946	0.1301	-3.5604	-3.6	-3.4708	-3.9437	-3.3458	-3.5354	-3.8417	-3.525	-3.7396	-3.5854	-3.5771	-3.8729	-3.5479	-3.5271	-3.6979	-3.4875	107.828	172.605	214.912	227.123	337.358	243.899	20.567	280.759	107.652	14.258	27.970	336.741	286.026	257.141	65.802	201.957	0.0001855	0.00041476	6.5219e-05	1300.3	3.6543e-06	3.4278e-06	1374.7	272.33	4.1625e-06	1.9058e-06	335.5	93.393	73.473	21.352	4.295e-06	29.773	0.00074968	0.00084266	0.00023705	1282.2	8.969e-06	9.1773e-06	1352.3	272.34	8.9761e-06	9.257e-06	336.9	94.596	74.56	21.963	9.0724e-06	30.638	240.193	81.473	47.715	17.198	195.635	174.325	17.195	24.136	243.162	325.563	23.780	30.600	31.138	37.249	214.770	36.680	-8191	255	
435.742	1	1	0	0	0.14098	0.20045	0.073612	0.46384	0.2292	0.23638	0.071434	0.19361	0.045436	0.23443	0.1867	0.3391	0.19005	0.096841	0.081689	0.21406	-3.3438	-3.5229	-3.3375	-3.8563	-3.4458	-3.6521	-3.7354	-3.4708	-3.6083	-3.7417	-3.5604	-3.7354	-3.5125	-3.4292	-3.7792	-3.3521	255.415	65.297	103.908	269.409	283.859	295.962	166.970	287.590	17.351	86.853	302.620	17.471	15.614	24.852	17.927	353.530	0.00019317	8.1442e-05	0.00025799	1298.4	6.6747e-07	3.2243e-06	1377	272.6	4.2115e-06	6.4264e-06	335.09	93.454	73.484	21.23	1.9042e-06	29.903	0.00074007	0.00084499	0.00023448	1279.6	8.9917e-06	9.1941e-06	1351	272.03	8.9054e-06	9.2781e-06	336.37	94.575	74.455	21.931	9.1273e-06	30.678	230.973	116.220	86.586	16.883	206.907	112.883	17.092	24.159	197.893	165.162	23.683	30.960	31.041	37.211	189.970	36.485	-8191	255	
435.839	1	1	0	0	0.14521	0.12221	0.12933	0.069209	0.21712	0.011494	0.26624	0.20891	0.18405	0.28978	0.16459	0.33101	0.30346	0.28875	0.092103	0.095871	-3.0583	-3.6625	-3.3396	-3.8625	-3.3167	-3.5292	-3.7833	-3.5896	-3.625	-3.6833	-3.4167	-3.7896	-3.4771	-3.2417	-3.7708	-3.4917	223.225	20.753	341.217	282.031	345.324	240.815	271.568	325.773	277.730	126.322	264.491	9.032	272.200	315.804	77.878	182.634	0.0002218	9.202e-05	8.4109e-05	1296.8	6.4867e-06	4.7109e-06	1371.7	272.86	2.7844e-06	4.3351e-06	335.78	92.311	73.352	21.135	5.7074e-06	29.984	0.00074812	0.00084399	0.00023959	1279.1	9.1921e-06	9.5018e-06	1352.1	272.21	9.1307e-06	9.3601e-06	337.08	94.323	74.521	21.919	9.1151e-06	30.78	232.868	55.811	168.955	17.057	269.347	145.446	17.147	24.216	270.923	115.012	23.315	30.786	30.967	37.460	104.164	36.982	-8191	255	
435.957	1	1	0	0	0.076878	0.092241	0.047006	0.12508	0.17803	0.17147	0.21694	0.060835	0.17272	0.15831	0.31701	0.23685	0.23771	0.14574	0.25473	0.091062	-3.1833	-3.6688	-3.3812	-3.8042	-3.5646	-3.3958	-3.8958	-3.4042	-3.6021	-3.8354	-3.4333	-3.6562	-3.6562	-3.4354	-3.4646	-3.4375	238.396	347.134	91.947	308.172	114.913	37.312	356.398	253.283	61.604	197.260	295.949	53.725	274.876	276.798	231.172	330.823	0.00019391	0.00047686	0.00013636	1295	3.2431e-06	1.982e-06	1372	271.67	4.2672e-06	1.137e-06	334.05	93.071	73.179	21.176	3.4845e-06	29.793	0.00076012	0.00085573	0.00023656	1278.2	9.1856e-06	9.2426e-06	1350.9	271.89	9.1213e-06	9.3502e-06	336.24	94.507	74.444	21.971	9.0972e-06	30.654	216.425	126.364	115.127	17.222	206.303	153.282	17.058	24.193	234.131	199.762	23.535	30.789	31.183	37.317	221.086	36.675	-8191	255	
436.054	1	1	0	0	0.28735	0.22743	0.19504	0.13814	0.30544	0.22894	0.15849	0.30266	0.17311	0.034704	0.21915	0.14365	0.19957	0.022703	0.1606	0.13227	-3.1271	-3.6437	-3.6063	-3.7896	-3.5875	-3.3875	-3.6458	-3.5917	-3.6667	-3.8042	-3.3688	-3.6312	-3.5708	-3.3333	-3.8063	-3.7917	331.174	363.190	239.625	78.013	35.060	58.326	273.094	340.713	306.460	101.981	318.531	44.084	193.420	68.374	217.031	236.121	0.00025462	0.0006066	9.2784e-05	1300.2	3.5048e-06	5.1918e-06	1373.2	271.09	2.6354e-06	5.5762e-06	335.01	92.919	73.146	21.256	6.4417e-06	29.88	0.00075941	0.00085987	0.00023267	1279.3	9.1885e-06	9.3749e-06	1350	271.65	9.0507e-06	9.1326e-06	336.46	94.235	74.286	21.919	9.0523e-06	30.646	240.534	125.082	108.676	16.934	204.271	135.048	17.212	24.342	199.257	188.094	23.651	30.905	30.897	37.292	184.866	36.748	-8191	255	
436.150	1	1	0	0	0.24151	0.27195	0.10268	0.13276	0.14561	0.2487	0.3024	0.21853	0.18859	0.1909	0.19373	0.059377	0.11485	0.25057	0.19151	0.19887	-3.0792	-3.6542	-3.4104	-3.8229	-3.6271	-3.6167	-3.9292	-3.5292	-3.3833	-3.85	-3.6125	-3.5854	-3.8458	-3.4979	-3.7146	-3.5958	280.279	145.031	339.003	254.824	77.411	221.002	274.662	348.551	100.052	205.003	71.029	277.237	19.204	270.159	200.390	255.771	0.00019829	0.00044119	0.0001322	1298.1	3.0947e-06	2.3e-06	1372.4	272.01	4.982e-06	2.8105e-06	334.38	93.178	73.253	21.227	5.7389e-06	30.113	0.000751	0.00083266	0.00023144	1278.2	9.1813e-06	9.2118e-06	1349.5	271.47	9.0397e-06	9.0151e-06	336.07	94.338	74.384	21.899	8.998e-06	30.669	238.982	98.022	80.146	16.968	197.138	64.854	17.325	24.285	229.009	234.745	23.555	30.584	31.008	37.296	201.841	36.759	-8191	255	
436.246	1	1	0	0	0.10525	0.065648	0.032757	0.11024	0.14894	0.10332	0.21044	0.16467	0.1431	0.097119	0.29527	0.15698	0.095776	0.012757	0.1223	0.12884	-3.1417	-3.6208	-3.4583	-3.7	-3.6479	-3.4229	-3.7792	-3.7438	-3.4625	-3.8854	-3.575	-3.6104	-3.8021	-3.5479	-3.5167	-3.6667	94.737	58.552	23.976	65.441	74.558	112.273	298.263	306.207	108.111	179.725	32.345	21.782	122.400	294.718	74.484	338.112	0.00022263	0.00049883	6.3331e-05	1297.9	4.4721e-06	3.8907e-06	1368.1	272.18	1.569e-06	5.0283e-06	333.66	92.683	72.842	21.205	4.3141e-06	29.806	0.00074508	0.00084832	0.00023352	1277.1	9.0104e-06	9.2666e-06	1348.3	271.2	9.1205e-06	9.0943e-06	335.44	94.237	74.104	21.837	9.0563e-06	30.577	238.523	136.955	58.269	16.905	259.865	186.085	17.207	24.274	259.447	97.736	24.010	31.019	30.908	37.282	209.758	36.756	-8191	255	
436.342	1	1	0	0	0.095673	0.11345	0.26135	0.26864	0.12767	0.24897	0.033182	0.19094	0.17743	0.14008	0.29156	0.21702	0.058454	0.13129	0.13543	0.1719	-2.9125	-3.7625	-3.3979	-3.5667	-3.7521	-3.4729	-3.8042	-3.7687	-3.4708	-3.7542	-3.6583	-3.5521	-3.8646	-3.3646	-3.5438	-3.8021	106.927	92.832	127.355	331.965	365.783	16.818	309.672	29.693	365.726	339.503	261.964	299.049	170.941	277.625	232.694	225.948	0.00023847	0.00011657	8.4297e-05	1292.4	6.8626e-06	6.4343e-06	1369.5	269.86	1.8827e-06	3.937e-06	334.71	92.546	72.812	21.075	6.4684e-06	29.613	0.00075054	0.0008345	0.00023567	1272.8	9.0648e-06	9.1258e-06	1344.4	269.95	8.7987e-06	9.046e-06	334.92	93.749	73.865	21.74	8.8913e-06	30.463	219.751	29.383	59.658	17.004	254.133	168.572	17.273	24.128	128.293	171.767	23.787	31.164	31.073	37.600	192.833	37.173	-8191	255	
436.438	1	1	0	0	0.063688	0.10137	0.074056	0.37416	0.14779	0.22051	0.17477	0.25453	0.16725	0.10644	0.13766	0.11422	0.086294	0.15947	0.14162	0.042508	-2.975	-3.525	-3.5229	-3.6667	-3.7833	-3.6146	-3.7375	-4.0271	-3.5687	-3.6688	-3.6396	-3.4437	-3.6458	-3.5646	-3.4667	-3.7125	268.212	111.495	189.453	304.556	26.696	86.793	282.418	259.695	142.340	107.379	354.808	33.293	52.440	49.931	208.478	305.888	0.00019957	0.00037681	0.00014203	1288.6	5.1245e-06	3.7822e-06	1360.7	270.48	3.2486e-06	5.239e-06	332.59	92.319	72.74	21.173	3.4812e-06	29.6	0.00073214	0.0008276	0.00023299	1270.8	8.9391e-06	9.1428e-06	1340.4	269.34	8.8567e-06	9.2025e-06	333.28	93.645	73.752	21.787	8.8049e-06	30.464	224.617	123.048	47.697	17.001	215.744	152.936	17.247	24.206	231.802	170.689	23.440	30.765	31.239	37.314	199.251	37.103	-8191	255	
436.534	1	1	0	0	0.1076	0.089624	0.28257	0.090382	0.363	0.23895	0.2815	0.066336	0.053622	0.19694	0.083094	0.43376	0.28245	0.1677	0.16413	0.3592	-2.9	-3.7313	-3.5729	-3.5292	-3.7938	-3.5312	-3.7313	-3.7542	-3.6104	-3.7396	-3.8021	-3.3521	-3.7083	-3.5563	-3.5125	-3.7521	136.268	56.103	7.552	71.775	211.730	261.412	302.139	128.309	125.599	294.595	328.901	311.781	13.351	296.470	345.013	82.417	0.00019191	0.00058974	0.00010501	1291.4	3.2234e-06	3.5773e-07	1356.1	269.23	2.773e-06	6.4273e-06	330.61	91.864	71.891	21.006	2.5572e-06	29.458	0.00073381	0.00081603	0.00022862	1267.3	8.6759e-06	8.713e-06	1336.3	268.2	8.4253e-06	8.4239e-06	331.54	93.096	73	21.544	8.1414e-06	30.208	242.517	112.354	150.678	16.937	253.303	232.420	17.288	24.416	191.719	153.455	23.984	30.893	31.287	37.203	194.711	36.871	-8191	255	
436.655	1	1	0	0	0.033629	0.06775	0.15602	0.16852	0.12659	0.25188	0.26109	0.12161	0.26305	0.054057	0.14404	0.14846	0.25603	0.063972	0.10675	0.10942	-2.9729	-3.575	-3.6667	-3.425	-3.6646	-3.4854	-3.65	-3.8208	-3.4313	-3.5938	-3.7042	-3.4167	-3.6854	-3.5417	-3.3646	-3.8125	100.073	202.443	214.914	325.244	246.094	155.087	308.001	296.226	93.256	304.109	227.489	37.062	187.929	251.576	30.038	71.192	0.00022923	0.00048949	0.00010581	1277.9	4.8479e-06	3.7955e-06	1354	266.15	3.859e-06	1.1762e-06	331.49	91.189	71.822	20.733	4.8821e-06	29.71	0.00066856	0.00075371	0.00020773	1256.9	8.0673e-06	8.1563e-06	1329.6	265.89	8.0201e-06	8.2092e-06	330.6	92.654	72.852	21.4	7.9549e-06	30.177	233.315	110.851	110.381	16.995	221.032	198.414	17.194	24.196	247.417	87.128	23.705	30.951	31.132	37.520	153.989	37.175	-8191	255	
436.749	1	1	0	0	0.18259	0.22609	0.24113	0.047094	0.0785	0.27154	0.23455	0.069542	0.1341	0.14717	0.17523	0.10955	0.051626	0.045243	0.11424	0.11087	-3.1063	-3.6521	-3.7167	-3.6813	-3.7062	-3.6083	-3.5104	-3.6708	-3.4938	-3.6	-3.9729	-3.4062	-3.6208	-3.6396	-3.3167	-3.6229	212.592	282.220	8.944	82.492	99.503	90.187	335.482	293.267	28.428	296.851	7.554	49.505	236.247	89.619	49.230	361.380	0.00018571	9.9993e-05	6.361e-05	1275.4	6.1397e-06	1.0675e-05	1350.1	266.19	7.1836e-06	3.8169e-06	329.47	91.147	71.609	20.829	3.9681e-06	29.527	0.00065775	0.00074174	0.00020717	1256.9	7.9245e-06	8.0972e-06	1328.4	265.29	7.8697e-06	8.0734e-06	329.5	92.323	72.649	21.413	8.0503e-06	30.077	215.039	47.080	121.810	16.989	204.836	150.784	17.337	24.501	229.065	101.365	23.724	31.005	31.345	37.121	236.997	36.867	-8191	255	
436.845	1	1	0	0	0.059571	0.26391	0.076065	0.094319	0.19793	0.12282	0.19443	0.28931	0.10335	0.24734	0.075055	0.084079	0.30448	0.15217	0.10879	0.044513	-3.0729	-3.6042	-3.6333	-3.625	-3.6042	-3.7396	-3.525	-3.8563	-3.4813	-3.5687	-3.875	-3.5062	-3.7667	-3.7917	-3.3854	-3.725	355.444	110.477	84.739	29.013	202.258	48.571	316.298	287.857	359.394	359.484	265.666	58.917	325.784	262.163	253.142	193.570	0.00025853	7.2044e-05	5.028e-05	1274	5.1677e-06	8.9092e-06	1349.7	265.22	2.4491e-06	2.0021e-06	329.63	91.213	72.071	20.85	3.4968e-06	29.359	0.00066869	0.0007539	0.0002082	1255.3	8.0938e-06	8.2907e-06	1327.6	264.79	7.9647e-06	8.3383e-06	329.13	92.448	72.824	21.438	7.99e-06	30.044	227.784	133.391	313.906	17.114	230.740	175.543	17.338	24.512	278.370	155.288	23.756	30.956	31.067	37.613	185.014	37.044	-8191	255	
436.919	1	1	0	0	0.189	0.11544	0.052437	0.19366	0.15977	0.044538	0.097964	0.10969	0.096066	0.13201	0.25599	0.20385	0.19912	0.11204	0.092241	0.094405	-3.2229	-3.5625	-3.7021	-3.4521	-3.6854	-3.7167	-3.5583	-3.6333	-3.5229	-3.5229	-3.6896	-3.3042	-3.5771	-3.5729	-3.5	-3.7521	241.746	325.627	328.621	195.555	62.163	100.987	284.242	40.153	51.457	170.192	290.434	331.181	337.150	25.832	140.000	108.384	0.00022552	0.00014835	0.00024037	1274.9	4.0931e-06	7.119e-06	1345.7	265.67	4.6777e-06	6.0647e-06	328.6	91.411	71.527	20.818	4.7953e-06	29.281	0.00066283	0.00075028	0.00020588	1253.2	7.9788e-06	8.1646e-06	1324.8	264.92	7.9827e-06	8.1083e-06	329.25	92.353	72.554	21.403	7.9441e-06	30.093	222.436	152.495	74.571	16.876	147.745	153.301	17.163	24.644	232.020	169.161	23.681	30.803	31.358	37.443	196.617	37.160	-8191	255	
437.038	1	1	0	0	0.10441	0.14539	0.040456	0.16108	0.21264	0.11725	0.11704	0.25442	0.10584	0.086242	0.047752	0.14596	0.080068	0.23412	0.20422	0.293	-3.1813	-3.4813	-3.7604	-3.7896	-3.3563	-3.8063	-3.525	-3.5583	-3.6875	-3.4542	-3.9313	-3.6604	-3.4604	-3.7687	-3.5417	-3.4604	99.917	154.468	163.724	285.932	238.594	261.400	229.585	329.926	260.027	289.179	275.969	244.585	355.753	294.561	362.663	173.952	0.00020129	0.00019283	0.00021094	1276.9	3.1679e-06	9.2173e-06	1352	266.48	3.0362e-06	5.2605e-07	326.62	91.786	71.566	20.912	4.5659e-06	29.253	0.00066047	0.00073175	0.00020091	1255.7	8.0006e-06	8.1998e-06	1327.2	265.31	7.8758e-06	8.0481e-06	328.56	92.66	72.7	21.422	8.0509e-06	30.077	242.714	90.360	120.870	17.000	231.178	177.380	17.296	24.412	258.164	282.606	23.838	31.104	31.429	37.630	171.402	37.155	-8191	255	
437.134	1	1	0	0	0.065202	0.2852	0.1368	0.13175	0.066784	0.16736	0.21841	0.1118	0.13707	0.14859	0.36485	0.1343	0.11178	0.035937	0.034117	0.18585	-3.2438	-3.7375	-3.6833	-3.6083	-3.3833	-3.8792	-3.5375	-3.5354	-3.5583	-3.4542	-3.7313	-3.7021	-3.5	-3.7667	-3.4875	-3.7062	211.222	356.744	160.734	345.949	162.590	135.407	298.667	306.739	336.140	77.411	286.588	72.422	313.439	184.788	90.142	352.619	0.00022265	0.00034464	6.3951e-05	1278.3	9.6465e-06	8.4275e-06	1351.5	266.39	1.7536e-06	6.908e-06	327.89	91.361	71.956	20.891	3.4327e-06	29.471	0.00066526	0.00074685	0.00020469	1257.3	8.1009e-06	8.1808e-06	1329.4	265.27	8.1525e-06	8.0395e-06	329.1	92.555	72.876	21.431	8.0209e-06	30.086	227.893	46.714	110.571	17.110	218.684	186.149	17.318	24.357	207.111	128.514	24.182	30.856	31.011	37.422	230.406	37.193	-8191	255	
437.230	1	1	0	0	0.059192	0.19051	0.11075	0.24636	0.079479	0.036983	0.38073	0.14135	0.19351	0.058081	0.12831	0.16369	0.14111	0.14134	0.24752	0.023958	-3.2625	-3.3979	-3.6396	-3.7604	-3.3771	-3.7687	-3.5875	-3.5083	-3.7021	-3.4583	-3.6729	-3.7229	-3.4354	-3.8271	-3.3542	-3.5312	11.178	291.052	191.274	315.098	358.332	110.603	339.866	15.947	93.828	106.214	321.213	257.042	323.404	294.101	163.140	132.286	0.00022429	0.00031548	3.7072e-05	1280.5	1.7961e-06	5.3498e-06	1354.5	266.24	6.1829e-06	2.5549e-06	329.46	91.102	71.738	20.786	2.1828e-06	29.245	0.00065896	0.00074719	0.00020699	1258.3	8.1719e-06	8.186e-06	1329.4	265.56	8.0842e-06	8.1565e-06	329.31	92.434	72.731	21.434	8.0779e-06	30.046	231.229	127.213	158.969	16.988	346.029	145.152	17.106	24.303	219.610	55.839	23.795	30.935	31.158	37.438	121.849	37.015	-8191	255	
437.326	1	1	0	0	0.092189	0.053819	0.22689	0.12929	0.19523	0.16418	0.10226	0.0079415	0.056898	0.084641	0.066604	0.28733	0.15772	0.17674	0.055483	0.17159	-3.1813	-3.4625	-3.75	-3.6771	-3.3896	-3.8438	-3.5854	-3.7292	-3.6667	-3.4688	-3.6	-3.6937	-3.3333	-3.7042	-3.5563	-3.4188	140.788	117.927	272.312	292.802	344.571	110.532	323.300	237.924	339.083	130.351	284.714	14.685	335.179	96.930	330.578	274.392	0.00020575	0.00030282	3.8249e-05	1277.1	6.0352e-06	4.6899e-06	1349.4	265.22	2.8691e-06	4.5294e-06	327.02	91.741	71.872	20.904	4.2863e-06	29.393	0.00066462	0.00074017	0.00020542	1257.8	7.9958e-06	7.9728e-06	1328.8	265.11	7.8738e-06	8.1284e-06	328.83	92.596	72.798	21.437	7.9587e-06	30.071	218.239	88.811	136.636	17.039	227.417	155.442	17.121	24.215	255.670	119.801	24.082	30.851	31.225	37.586	234.983	37.402	-8191	255	
437.447	1	1	0	0	0.1724	0.39337	0.22143	0.11919	0.24251	0.19097	0.17634	0.20081	0.35437	0.15146	0.12757	0.10577	0.20606	0.14499	0.067497	0.1216	-3.3979	-3.4667	-3.5292	-3.8979	-3.2979	-3.7354	-3.7562	-3.6021	-3.7729	-3.3917	-3.5812	-3.6437	-3.3917	-3.5729	-3.6979	-3.4292	266.988	281.930	77.517	315.687	51.857	80.245	284.526	46.995	138.588	86.580	201.979	311.525	29.482	346.926	361.958	312.189	0.00022226	0.00049718	9.7204e-05	1273.8	3.3373e-06	2.804e-06	1351.6	265.98	2.4785e-06	3.4111e-07	329.64	91.327	72.022	20.896	3.8377e-06	29.284	0.00065873	0.00072742	0.00020283	1255.2	7.9583e-06	8.0025e-06	1328.2	265.07	7.9567e-06	7.9043e-06	328.98	92.531	72.734	21.4	7.85e-06	30.029	244.686	101.356	91.138	17.155	181.825	182.044	17.186	24.453	238.436	163.442	23.720	31.055	31.098	37.297	102.562	36.853	-8191	255	
437.543	1	1	0	0	0.072107	0.1456	0.082303	0.15705	0.2123	0.085041	0.015214	0.28383	0.041567	0.12967	0.13884	0.13543	0.29921	0.089275	0.13583	0.17641	-3.3625	-3.4125	-3.4	-3.7417	-3.4792	-3.7562	-3.6917	-3.5354	-3.6167	-3.4938	-3.6125	-3.775	-3.3604	-3.5833	-3.7313	-3.5417	83.371	352.370	278.731	302.259	230.295	347.447	308.732	223.374	212.538	69.567	266.849	125.717	146.769	325.998	300.514	36.863	0.00022625	0.0003634	5.7148e-05	1272.8	2.8966e-06	7.1566e-06	1346.3	265.27	4.4099e-06	8.2389e-06	328.89	90.824	71.747	20.831	3.0813e-06	29.536	0.00064498	0.00072852	0.00019938	1253.8	7.7721e-06	7.7626e-06	1324.1	264.39	7.5143e-06	7.5921e-06	328.53	92.122	72.406	21.349	7.3418e-06	29.942	215.056	120.433	78.621	17.067	211.460	162.499	17.340	24.492	204.400	160.584	23.877	30.818	31.271	37.480	203.505	37.109	-8191	255	
437.639	1	1	0	0	0.27075	0.30556	0.15394	0.17005	0.27937	0.14512	0.038716	0.18032	0.12693	0.22518	0.28182	0.14962	0.027333	0.19847	0.10008	0.099046	-3.2313	-3.4354	-3.4896	-4.0042	-3.4292	-3.6208	-3.7396	-3.3417	-3.8208	-3.3646	-3.4771	-3.6604	-3.4062	-3.5917	-3.6833	-3.3708	77.724	80.171	110.538	348.146	56.127	321.608	199.181	231.414	245.688	175.447	327.997	240.443	78.607	359.198	201.301	138.749	0.00022395	0.00090164	9.2326e-05	1270.1	5.5079e-06	9.2621e-06	1345.4	264.88	3.4727e-06	3.5545e-06	328.48	91.624	71.289	20.709	2.3425e-06	29.215	0.00061418	0.00068513	0.00019081	1249.7	7.3147e-06	7.3729e-06	1321.1	263.64	7.3265e-06	7.3507e-06	327.31	92.192	72.301	21.286	7.3254e-06	29.89	221.898	111.008	25.327	17.085	205.866	150.688	17.176	24.476	231.801	153.965	23.992	30.914	30.901	37.633	168.972	37.014	-8191	255	
437.735	1	1	0	0	0.12619	0.1201	0.17973	0.21111	0.052918	0.1443	0.23275	0.30376	0.15288	0.10247	0.040113	0.044468	0.11714	0.060523	0.13261	0.21842	-3.4021	-3.4958	-3.3792	-3.7771	-3.5604	-3.425	-3.7125	-3.4125	-3.5417	-3.6604	-3.4792	-3.7104	-3.5021	-3.5021	-3.6146	-3.3979	94.717	171.128	250.528	18.324	115.588	252.123	272.997	285.062	298.446	89.993	174.096	149.484	247.776	119.712	324.786	33.648	0.00018684	0.00040126	8.3586e-05	1267.7	4.3997e-06	4.2389e-06	1342.5	265.08	3.8415e-06	1.907e-06	326.92	90.892	71.452	20.873	5.2156e-06	29.271	0.00060997	0.00067226	0.00018837	1247	7.1567e-06	7.3889e-06	1319.5	263.66	7.2441e-06	7.3031e-06	327.26	91.973	72.21	21.305	7.4127e-06	29.909	237.629	65.289	185.386	17.137	168.770	137.099	17.271	24.555	248.655	198.093	23.723	30.995	31.358	37.245	183.774	37.119	-8191	255	
437.830	1	1	0	0	0.20552	0.26947	0.11837	0.1518	0.079845	0.057499	0.16225	0.1047	0.37553	0.16545	0.16168	0.046987	0.27213	0.18055	0.09452	0.105	-3.1583	-3.5938	-3.5062	-4.0437	-3.4875	-3.4771	-3.8063	-3.4833	-3.5729	-3.7667	-3.4813	-3.8542	-3.6167	-3.4	-3.5896	-3.4813	343.441	276.062	62.906	298.933	87.216	365.268	33.437	306.257	225.821	355.873	70.070	310.326	121.088	28.423	21.464	253.548	0.00023936	0.00041303	4.2907e-05	1266.6	6.164e-06	8.4593e-06	1339.2	263.86	4.4146e-06	2.618e-06	326.45	91.226	71.4	20.895	2.2732e-06	29.313	0.00061555	0.00069322	0.00019155	1247.7	7.4894e-06	7.7129e-06	1319.7	263.22	7.457e-06	7.5832e-06	327.32	92.152	72.325	21.357	7.3954e-06	29.937	223.323	128.473	110.740	17.006	179.845	144.469	17.231	24.209	234.810	184.967	23.959	31.228	31.445	37.429	153.341	37.338	-8191	255	
437.928	1	1	0	0	0.27849	0.26474	0.063474	0.30945	0.14075	0.1115	0.19334	0.15419	0.1877	0.075359	0.0035367	0.20939	0.23965	0.31781	0.090669	0.25848	-3.1417	-3.5792	-3.1771	-3.7875	-3.4583	-3.4375	-3.9479	-3.4708	-3.6125	-3.6104	-3.4396	-3.7	-3.5896	-3.5062	-3.7438	-3.3625	215.566	108.271	332.667	15.416	165.734	150.500	337.044	359.257	24.648	318.359	68.697	11.388	305.409	40.807	178.859	270.650	0.00021555	0.00026197	0.00013493	1273	2.4704e-06	7.2146e-06	1340	264.94	3.1106e-06	3.9523e-06	327.77	91.009	71.432	20.788	6.3298e-06	29.397	0.00061497	0.00069927	0.00019272	1249.4	7.5069e-06	7.6776e-06	1320.1	263.98	7.4594e-06	7.66e-06	327.78	92.212	72.376	21.387	7.4687e-06	29.985	228.031	128.989	128.831	16.923	167.803	172.576	17.330	24.222	264.418	225.541	24.002	31.148	31.070	37.741	141.496	37.191	-8191	255	
438.046	1	1	0	0	0.041904	0.21757	0.3828	0.11831	0.31478	0.10578	0.26204	0.16496	0.16856	0.082625	0.18349	0.37215	0.1393	0.2753	0.099782	0.13388	-3.2146	-3.6208	-3.3667	-3.8271	-3.5771	-3.2104	-3.9083	-3.5479	-3.6542	-3.7292	-3.4854	-3.8063	-3.5354	-3.3937	-3.7438	-3.6021	256.605	250.022	179.920	25.663	144.026	43.643	287.925	307.378	150.212	130.547	55.798	324.684	78.575	66.485	9.055	221.830	0.00020613	0.00015041	0.00010667	1268.7	5.8066e-06	2.6124e-06	1344.7	263.86	1.2975e-06	3.3867e-06	328.99	90.795	71.41	20.829	1.2413e-06	29.188	0.0006317	0.00069931	0.0001931	1250.2	7.4977e-06	7.5872e-06	1321.7	263.66	7.4717e-06	7.4339e-06	328	92.097	72.357	21.348	7.4621e-06	29.895	224.554	98.882	38.409	17.024	163.586	208.898	17.244	24.388	201.958	82.395	23.653	30.915	31.089	37.132	235.415	36.905	-8191	255	
#DATA ENDS
