BOXY.EXE: ISS Imagent and Oximeter Data Acquisition Program Version 0.80
Ascii Record File

#ACQ INFORMATION
2  Detector Channels 
16  External MUX Channels 
1  Auxiliary Channels 
5000  Waveform (CCF) Frequency (Hz)
1  Waveforms Skipped 
30  Waveforms Averaged 
1  Cycles Averaged 
16  Acquisitions per Waveform 
10.0806  Updata Rate (Hz) 

#FILE INFORMATION
TRUE -- External MUX Channel results are PARSED.
FALSE -- AC DC and Phase are NOT grouped.
TRUE -- Companion Program Settings File CREATED.
FALSE -- AC data not excluded
FALSE -- DC data not excluded
FALSE -- Phase data not excluded
FALSE -- Auxillary Chn. data not excluded
Tab delimiters

#CALIBRATION STATE
TRUE -- Waveform Calibration Values APPLIED.


#AUX CALIBRATION VALUES
Val Type	aux-1	

Term	1.0000e+00	
Factor	0.0000e+00	


#WF CALIBRATION VALUES
A = Detector Channel
Val Type	A-AC1	A-AC2	A-AC3	A-AC4	A-AC5	A-AC6	A-AC7	A-AC8	A-AC9	A-AC10	A-AC11	A-AC12	A-AC13	A-AC14	A-AC15	A-AC16	A-DC1	A-DC2	A-DC3	A-DC4	A-DC5	A-DC6	A-DC7	A-DC8	A-DC9	A-DC10	A-DC11	A-DC12	A-DC13	A-DC14	A-DC15	A-DC16	A-Ph1	A-Ph2	A-Ph3	A-Ph4	A-Ph5	A-Ph6	A-Ph7	A-Ph8	A-Ph9	A-Ph10	A-Ph11	A-Ph12	A-Ph13	A-Ph14	A-Ph15	A-Ph16	

Term	0.00000e+00	0.00000e+00	0.00000e+00	0.00000e+00	0.00000e+00	0.00000e+00	0.00000e+00	0.00000e+00	0.00000e+00	0.00000e+00	0.00000e+00	0.00000e+00	0.00000e+00	0.00000e+00	0.00000e+00	0.00000e+00	0.00000e+00	0.00000e+00	0.00000e+00	0.00000e+00	0.00000e+00	0.00000e+00	0.00000e+00	0.00000e+00	0.00000e+00	0.00000e+00	0.00000e+00	0.00000e+00	0.00000e+00	0.00000e+00	0.00000e+00	0.00000e+00	0.00000e+00	0.00000e+00	0.00000e+00	0.00000e+00	0.00000e+00	0.00000e+00	0.00000e+00	0.00000e+00	0.00000e+00	0.00000e+00	0.00000e+00	0.00000e+00	0.00000e+00	0.00000e+00	0.00000e+00	0.00000e+00	
Factor	1.00000e+00	1.00000e+00	1.00000e+00	1.00000e+00	1.00000e+00	1.00000e+00	1.00000e+00	1.00000e+00	1.00000e+00	1.00000e+00	1.00000e+00	1.00000e+00	1.00000e+00	1.00000e+00	1.00000e+00	1.00000e+00	1.00000e+00	1.00000e+00	1.00000e+00	1.00000e+00	1.00000e+00	1.00000e+00	1.00000e+00	1.00000e+00	1.00000e+00	1.00000e+00	1.00000e+00	1.00000e+00	1.00000e+00	1.00000e+00	1.00000e+00	1.00000e+00	X	X	X	X	X	X	X	X	X	X	X	X	X	X	X	X	

B = Detector Channel
Val Type	B-AC1	B-AC2	B-AC3	B-AC4	B-AC5	B-AC6	B-AC7	B-AC8	B-AC9	B-AC10	B-AC11	B-AC12	B-AC13	B-AC14	B-AC15	B-AC16	B-DC1	B-DC2	B-DC3	B-DC4	B-DC5	B-DC6	B-DC7	B-DC8	B-DC9	B-DC10	B-DC11	B-DC12	B-DC13	B-DC14	B-DC15	B-DC16	B-Ph1	B-Ph2	B-Ph3	B-Ph4	B-Ph5	B-Ph6	B-Ph7	B-Ph8	B-Ph9	B-Ph10	B-Ph11	B-Ph12	B-Ph13	B-Ph14	B-Ph15	B-Ph16	

Term	0.00000e+00	0.00000e+00	0.00000e+00	0.00000e+00	0.00000e+00	0.00000e+00	0.00000e+00	0.00000e+00	0.00000e+00	0.00000e+00	0.00000e+00	0.00000e+00	0.00000e+00	0.00000e+00	0.00000e+00	0.00000e+00	0.00000e+00	0.00000e+00	0.00000e+00	0.00000e+00	0.00000e+00	0.00000e+00	0.00000e+00	0.00000e+00	0.00000e+00	0.00000e+00	0.00000e+00	0.00000e+00	0.00000e+00	0.00000e+00	0.00000e+00	0.00000e+00	-4.24325e+01	-1.27480e+02	-1.29113e+02	-1.83247e+02	-3.31036e+01	-6.42020e+01	-1.56812e+02	-1.62015e+02	-3.27297e+01	-6.89849e+01	-1.75831e+02	-1.71950e+02	-1.80238e+02	-1.77035e+02	-4.28051e+01	-1.49655e+02	
Factor	2.34302e-05	1.84395e-04	5.28880e-05	1.78417e-01	1.82338e-06	2.35056e-06	2.06794e-01	6.19505e-02	1.44642e-06	2.13698e-06	1.21363e-01	3.46114e-02	3.06045e-02	1.06869e-02	2.17603e-06	1.56232e-02	5.23884e-06	6.25852e-06	1.74260e-06	8.57108e-02	6.65713e-08	6.86765e-08	9.29982e-02	2.98139e-02	6.64213e-08	6.86137e-08	5.63353e-02	1.61712e-02	1.48215e-02	5.17988e-03	6.74619e-08	7.31005e-03	X	X	X	X	X	X	X	X	X	X	X	X	X	X	X	X	



#DISTANCE SETTINGS
A = Detector Channel
A-1	A-2	A-3	A-4	A-5	A-6	A-7	A-8	A-9	A-10	A-11	A-12	A-13	A-14	A-15	A-16	

2.5000e+00	3.0000e+00	2.5000e+00	3.0000e+00	2.0000e+00	3.0000e+00	1.5000e+00	3.0000e+00	3.0000e+00	3.0000e+00	3.0000e+00	3.0000e+00	3.0000e+00	3.0000e+00	1.5000e+00	3.0000e+00	

B = Detector Channel
B-1	B-2	B-3	B-4	B-5	B-6	B-7	B-8	B-9	B-10	B-11	B-12	B-13	B-14	B-15	B-16	

1.0000e+01	1.0000e+01	1.0000e+01	1.4400e+00	1.0000e+01	1.0000e+01	1.5100e+00	1.9400e+00	1.0000e+01	1.0000e+01	1.9900e+00	2.4900e+00	2.4100e+00	2.9000e+00	1.0000e+01	2.9800e+00	




#DATA BEGINS
time	group	step	mark	flag	A-AC1	A-AC2	A-AC3	A-AC4	A-AC5	A-AC6	A-AC7	A-AC8	A-AC9	A-AC10	A-AC11	A-AC12	A-AC13	A-AC14	A-AC15	A-AC16	A-DC1	A-DC2	A-DC3	A-DC4	A-DC5	A-DC6	A-DC7	A-DC8	A-DC9	A-DC10	A-DC11	A-DC12	A-DC13	A-DC14	A-DC15	A-DC16	A-Ph1	A-Ph2	A-Ph3	A-Ph4	A-Ph5	A-Ph6	A-Ph7	A-Ph8	A-Ph9	A-Ph10	A-Ph11	A-Ph12	A-Ph13	A-Ph14	A-Ph15	A-Ph16	B-AC1	B-AC2	B-AC3	B-AC4	B-AC5	B-AC6	B-AC7	B-AC8	B-AC9	B-AC10	B-AC11	B-AC12	B-AC13	B-AC14	B-AC15	B-AC16	B-DC1	B-DC2	B-DC3	B-DC4	B-DC5	B-DC6	B-DC7	B-DC8	B-DC9	B-DC10	B-DC11	B-DC12	B-DC13	B-DC14	B-DC15	B-DC16	B-Ph1	B-Ph2	B-Ph3	B-Ph4	B-Ph5	B-Ph6	B-Ph7	B-Ph8	B-Ph9	B-Ph10	B-Ph11	B-Ph12	B-Ph13	B-Ph14	B-Ph15	B-Ph16	aux-1	digaux	

1363.204	1	1	0	512	0.17598	0.12676	0.032778	0.20537	0.13656	0.047402	0.2192	0.039106	0.17918	0.12678	0.17237	0.22743	0.040847	0.051573	0.048836	0.29821	-2.4104	-3.1813	-2.7458	-2.9333	-2.875	-2.7375	-3.2417	-2.9771	-2.8792	-3.1083	-2.9479	-2.925	-3.0292	-2.9333	-3.0917	-3.3	39.699	-28.273	9.325	-106.977	-140.740	192.980	168.264	69.853	35.071	131.990	171.258	183.850	127.621	-38.693	42.352	104.819	0.00048702	0.00045513	0.00012008	532.37	3.7289e-06	6.5562e-06	706.71	208.01	4.2117e-06	3.6642e-06	295.78	104.86	86.061	49.808	2.742e-06	62.512	0.00031753	0.0002802	7.8813e-05	504.04	3.0895e-06	3.0564e-06	666.47	197.91	3.0433e-06	2.972e-06	280.01	99.862	82.612	48.18	3.0539e-06	59.593	-69.820	-45.429	-59.630	-130.657	44.321	-3.721	-132.940	-124.410	62.566	11.839	-128.177	-123.429	-120.015	-114.007	-14.456	-118.664	-8191	255	
1363.300	1	1	0	0	0.2545	0.080279	0.13301	0.16299	0.11218	0.082997	0.23262	0.15147	0.12566	0.19102	0.18165	0.12135	0.086301	0.011726	0.14897	0.36594	-2.6146	-3.0833	-2.6271	-2.9875	-3.2938	-2.9688	-3.2354	-3.0604	-2.7854	-3	-2.95	-2.7729	-3.3458	-3.125	-3.1542	-3.3479	179.184	-118.624	-37.352	84.015	78.787	-98.826	164.231	185.325	5.024	137.909	-113.138	179.459	-102.520	117.431	123.008	130.709	0.00046209	0.00031562	5.9902e-05	535.09	4.6874e-06	3.9758e-06	708.79	207.34	1.8323e-06	5.1884e-06	295.95	103.45	86.303	49.879	4.5618e-06	62.084	0.00031618	0.00026779	7.6525e-05	504	2.9438e-06	2.9766e-06	667	198.09	2.9678e-06	2.9535e-06	280.02	99.058	82.61	48.009	3.0652e-06	59.025	-74.705	-89.722	-22.320	-130.907	42.142	26.400	-132.816	-124.616	14.298	39.737	-128.358	-122.906	-119.957	-113.695	42.262	-118.670	-8191	255	
1363.395	1	1	0	0	0.072054	0.19628	0.20077	0.29841	0.078773	0.16384	0.084006	0.36245	0.084079	0.13983	0.19242	0.18177	0.23491	0.28067	0.21358	0.32285	-2.4979	-3.0229	-2.7292	-2.9625	-3.425	-3.025	-3.1562	-3.0208	-2.8229	-3.3021	-2.9708	-2.75	-3.275	-3.0479	-2.9688	-3.2667	-46.879	39.105	73.755	156.074	117.597	109.622	-133.182	112.354	117.204	208.862	137.137	130.899	-131.417	215.065	96.499	190.052	0.00051175	0.00030388	7.5017e-05	531.61	5.1208e-06	8.5839e-06	701.9	206.38	2.7009e-06	4.318e-06	291.63	102.98	85.908	49.505	5.8365e-06	61.538	0.00032073	0.00026612	7.564e-05	502.54	2.937e-06	3.0183e-06	662.7	197.58	3.0162e-06	2.9191e-06	278.05	98.334	82.336	47.883	3.0147e-06	58.594	-71.789	-59.519	-63.651	-130.489	2.038	0.373	-132.858	-124.763	31.456	37.028	-128.308	-122.917	-119.902	-114.104	12.314	-118.850	-8191	255	
1363.492	1	1	0	0	0.15726	0.026942	0.11433	0.20412	0.064493	0.16936	0.031777	0.16715	0.048443	0.060762	0.22047	0.10809	0.07901	0.20585	0.17237	0.24449	-2.3458	-3.0167	-2.9188	-2.8479	-3.125	-2.8937	-2.8958	-3.1375	-2.8688	-3.0354	-3.1917	-2.8708	-3.4562	-3.0563	-2.9104	-3.1583	157.973	168.506	89.142	214.576	16.205	109.133	88.486	-0.964	90.353	62.578	-4.705	200.187	104.017	214.459	1.619	8.676	0.00046263	0.00033355	0.00010897	531.37	2.8864e-06	2.7045e-06	703.14	206.34	4.4556e-06	4.6885e-06	293.83	103.23	85.166	49.508	2.9424e-06	61.508	0.00031246	0.00026558	7.4245e-05	501.35	2.842e-06	2.92e-06	663.26	196.9	2.8533e-06	2.9583e-06	277.78	98.368	81.966	47.866	3.0163e-06	58.84	-72.406	-43.499	-14.767	-130.581	43.732	44.720	-132.941	-124.689	22.453	-6.423	-128.633	-123.114	-119.962	-114.260	12.367	-118.605	-8191	255	
1363.587	1	1	0	0	0.16206	0.13706	0.22757	0.22361	0.18303	0.15953	0.074897	0.063915	0.081697	0.082898	0.10229	0.16066	0.073076	0.14769	0.014452	0.1106	-2.3333	-3.025	-3.0708	-2.9146	-3.3625	-2.8083	-2.8333	-3.4104	-2.8229	-3.0979	-3.1875	-2.8771	-3.2333	-3.0062	-2.7167	-3.2958	-25.321	-7.529	102.764	69.158	-121.679	-141.287	-9.587	153.961	-46.576	-112.319	-28.625	105.788	122.318	182.750	63.567	-137.400	0.0005073	0.00035713	9.7645e-05	530.73	6.893e-06	2.7491e-06	702.34	207.04	1.6081e-06	5.0423e-06	297.24	104.37	85.923	49.996	3.2671e-06	61.959	0.0003224	0.00027664	7.5378e-05	501.76	2.875e-06	2.9272e-06	663.77	197.41	2.867e-06	2.953e-06	279.32	99.302	82.648	48.294	3.0705e-06	59.298	-69.189	-59.458	-80.277	-130.756	28.009	-23.687	-132.946	-124.717	51.647	12.459	-127.921	-123.304	-119.811	-113.735	10.052	-118.538	-8191	255	
1363.683	1	1	0	0	0.15012	0.041693	0.050594	0.24286	0.3135	0.081156	0.24894	0.20768	0.11735	0.27627	0.30657	0.047721	0.070347	0.11428	0.083444	0.19332	-2.3458	-2.7125	-3.3125	-2.6792	-3.1083	-3.2562	-2.8667	-3.0979	-3.0396	-3.05	-3.1	-2.6271	-2.9938	-3.25	-2.7146	-3.075	-34.475	178.874	185.626	131.244	-56.425	-33.936	111.705	-5.847	11.507	-128.896	184.224	-106.008	1.967	197.576	57.361	85.645	0.00048805	7.3375e-06	0.00016254	532.7	3.3553e-06	4.4872e-06	705.76	207.11	5.457e-06	6.3787e-06	295.9	104.08	85.922	49.914	2.7437e-06	61.926	0.00031588	0.00027996	7.4318e-05	502.37	2.9712e-06	3.0096e-06	664.91	197.97	2.971e-06	2.9598e-06	279.9	99.18	82.622	48.186	2.9749e-06	58.871	-73.053	147.300	-17.202	-130.396	61.176	8.862	-132.628	-124.511	51.019	13.070	-128.305	-123.011	-119.903	-114.035	24.118	-118.696	-8191	255	
1363.804	1	1	0	0	0.13928	0.20624	0.093987	0.071456	0.11923	0.14729	0.26484	0.058674	0.26465	0.27067	0.33971	0.0077576	0.28392	0.057927	0.12532	0.347	-2.3875	-3.0333	-3.0438	-2.7771	-3.2875	-3.0708	-2.8563	-3.3563	-2.8563	-3.0333	-3.3396	-2.9958	-3.2042	-3.4354	-2.9417	-3.0771	143.758	-117.533	-13.839	203.010	51.664	-138.894	128.711	100.839	-27.711	-3.921	-123.687	203.388	136.924	205.003	140.338	-66.789	0.00050525	0.00058947	9.0025e-05	529.29	4.4856e-06	6.0929e-06	702.43	207.76	7.2631e-07	6.6131e-06	293.73	103.03	85.839	49.896	4.055e-06	61.275	0.00031578	0.00026858	7.2692e-05	501.51	2.9323e-06	2.8753e-06	661.46	197.73	2.9243e-06	2.981e-06	277.83	98.274	82.351	48.219	2.9079e-06	58.655	-70.826	-47.077	-52.355	-130.429	74.926	15.387	-132.679	-124.642	36.680	-19.045	-128.063	-122.845	-120.106	-114.130	33.831	-118.543	-8191	255	
1363.900	1	1	0	0	0.16737	0.057163	0.18489	0.022964	0.30449	0.10955	0.29259	0.236	0.19838	0.1039	0.11223	0.24609	0.17217	0.15657	0.22109	0.26378	-2.5792	-2.75	-2.9917	-2.7375	-3.0792	-3.1625	-2.7938	-3.2417	-2.9833	-2.7167	-3.2917	-3.0792	-3.0354	-3.1458	-2.9437	-3.2208	-48.806	-62.740	-32.593	147.956	195.316	-3.142	110.651	133.262	205.766	95.076	27.453	184.495	-51.043	157.916	101.083	187.327	0.00049028	0.00032573	0.00016063	530.37	4.8528e-06	4.4017e-06	698.85	206.62	5.1101e-06	3.7734e-06	293.76	103.3	86.09	50.088	3.2653e-06	61.483	0.00031936	0.00026852	7.3744e-05	501.21	2.9171e-06	2.8901e-06	659.97	198.03	2.9138e-06	2.9155e-06	278.17	98.481	82.636	48.336	3.069e-06	58.826	-72.929	-41.982	-44.319	-130.827	19.153	15.062	-132.864	-124.799	15.405	13.423	-127.906	-123.079	-119.867	-113.990	27.163	-118.905	-8191	255	
1363.996	1	1	0	0	0.061884	0.056194	0.11662	0.18726	0.25596	0.27517	0.12775	0.1242	0.24605	0.056741	0.22298	0.075483	0.086811	0.19125	0.12996	0.11622	-2.7104	-2.7896	-3.3063	-2.8208	-2.9813	-3.2104	-2.7979	-3.2771	-3.0062	-2.8104	-3.025	-3.1208	-2.9958	-3.4646	-2.7292	-3.1521	154.494	203.948	79.343	90.938	4.395	38.764	62.786	110.244	-96.197	-38.582	-98.018	104.843	17.413	139.219	182.691	52.005	0.00048781	0.00041413	8.6327e-05	527.05	3.5976e-06	9.001e-06	703.59	208.37	2.9443e-06	6.4827e-06	296.92	104.69	86.011	50.37	3.2843e-06	62.089	0.00031053	0.00027238	7.5694e-05	501.04	3.0225e-06	2.8788e-06	664.78	198.84	3.0086e-06	2.8605e-06	280.45	99.505	82.969	48.629	3.0178e-06	59.269	-72.424	-47.509	-24.449	-130.795	39.183	43.730	-132.795	-124.579	-15.794	27.150	-128.108	-123.217	-120.084	-114.205	-1.376	-118.607	-8191	255	
1364.092	1	1	0	0	0.14888	0.15115	0.20405	0.15915	0.07073	0.15969	0.16631	0.10449	0.16634	0.1438	0.15947	0.092087	0.18122	0.33612	0.2234	0.16694	-2.8667	-2.6271	-3.0479	-3.0938	-2.9083	-3.1104	-3.1188	-2.9188	-3.05	-2.8917	-3.1979	-3.1146	-3.0062	-3.3208	-3.0708	-3.1292	-71.208	184.396	-59.515	154.961	-91.319	78.329	121.300	61.879	85.341	133.632	207.260	190.569	-94.007	138.689	152.227	189.462	0.00051315	0.00044454	7.5114e-05	534.21	9.8568e-07	3.9592e-06	708.17	209.57	1.1429e-06	5.8181e-06	296.87	105.7	87.589	50.694	5.0378e-06	62.612	0.00032235	0.00026896	7.4133e-05	504.64	2.8799e-06	2.9843e-06	667.36	200.02	2.9029e-06	3.0043e-06	281.4	100.47	83.953	48.916	3.0975e-06	59.917	-71.378	-71.390	-63.438	-130.761	44.835	16.349	-132.856	-124.545	54.494	19.764	-127.975	-123.083	-120.311	-113.970	17.534	-118.659	-8191	255	
1364.188	1	1	0	0	0.10319	0.062686	0.14037	0.11653	0.12392	0.20161	0.088521	0.22796	0.084068	0.23783	0.22225	0.13837	0.073672	0.32832	0.16384	0.19932	-2.5187	-2.8021	-3.0563	-2.8438	-3.0312	-3.1417	-3.05	-2.9792	-3.2479	-2.9292	-3.1479	-3	-2.9125	-3.1979	-2.6729	-3.3292	208.411	202.559	-63.430	25.300	191.942	-125.620	25.533	152.683	-89.722	70.261	155.695	206.839	56.946	164.021	134.667	26.757	0.00051248	0.00057521	7.0062e-05	531.62	1.9127e-06	6.5668e-06	703.01	209.7	3.9141e-06	5.3461e-06	296.62	104.74	87.186	50.635	3.3098e-06	62.034	0.00031936	0.00026964	7.6039e-05	503.48	2.9935e-06	2.9588e-06	666.51	200.25	2.9849e-06	3.0056e-06	281.74	100.1	83.7	48.743	3.1221e-06	59.288	-73.252	-46.870	-67.502	-130.722	45.496	9.511	-132.695	-124.542	23.984	5.401	-128.549	-122.927	-119.993	-113.804	13.868	-118.528	-8191	255	
1364.284	1	1	0	0	0.19302	0.16064	0.14813	0.22402	0.081557	0.072243	0.13304	0.027828	0.25991	0.19848	0.059872	0.19163	0.12461	0.14084	0.11538	0.08967	-2.7188	-2.7062	-3.0167	-3.0292	-2.6479	-3.3312	-3.0208	-2.8396	-3.1333	-3.0812	-3.3229	-3.1625	-2.9688	-3.0604	-2.9771	-3.0521	-133.749	-25.622	-6.921	165.524	162.452	170.499	54.870	-15.887	-100.304	195.455	163.194	2.628	121.870	120.846	-71.647	-6.621	0.00049109	0.00076157	0.00011839	530.49	5.7756e-06	3.529e-06	702.26	210.03	2.099e-06	5.5965e-06	295.28	103.44	86.412	50.077	5.0068e-06	61.528	0.00031465	0.00027322	7.711e-05	503.06	2.9204e-06	2.9296e-06	662.17	199.44	2.9286e-06	2.9415e-06	278.49	98.668	83.139	48.37	3.0579e-06	58.624	-70.477	-33.678	-62.154	-130.663	20.465	-8.539	-132.829	-124.439	17.980	28.299	-128.230	-123.302	-119.949	-113.981	17.092	-118.746	-8191	255	
1364.381	1	1	0	0	0.076784	0.24633	0.22794	0.12954	0.071793	0.15209	0.15598	0.10465	0.19806	0.22719	0.43523	0.1173	0.21822	0.085904	0.17627	0.027398	-2.6688	-2.8917	-2.9	-3.2708	-3.0521	-3.2583	-2.9792	-3.1562	-3.3083	-2.6688	-3.2146	-3.1937	-2.9646	-3.2021	-3.075	-3.0896	-50.595	-83.635	-60.173	76.261	-42.521	170.736	192.130	-32.353	18.751	156.368	149.847	109.783	-107.088	76.180	-50.561	-5.500	0.00046414	0.00043538	7.0278e-05	532.94	2.6768e-06	5.9546e-06	699.31	208.37	3.0936e-06	3.8272e-06	293.73	103.11	86.056	50.263	7.8154e-06	61.423	0.00030417	0.00026973	7.3367e-05	503.01	2.861e-06	2.9229e-06	660.36	198.62	2.8794e-06	2.9361e-06	278	98.444	82.889	48.435	3.0639e-06	58.736	-70.750	-59.866	-46.932	-130.602	14.444	-26.853	-132.884	-124.763	-24.186	31.103	-128.601	-122.912	-119.630	-114.240	2.700	-118.730	-8191	255	
1364.499	1	1	0	0	0.10455	0.17779	0.22202	0.17567	0.19162	0.14015	0.34685	0.072253	0.11153	0.033466	0.26256	0.2709	0.16665	0.26419	0.13436	0.29388	-2.8187	-2.7875	-3.1	-3.1167	-2.7562	-3.2313	-3.0896	-2.9208	-3.3646	-2.9271	-2.925	-3.2875	-2.7812	-3.2958	-3.1083	-3.0062	-110.613	-4.742	-32.295	104.168	-97.847	76.558	63.062	-133.702	100.244	174.496	-62.047	176.297	-109.992	171.477	-67.272	150.962	0.00049433	0.00042903	0.00011488	534.19	4.0587e-06	4.3022e-06	706.36	208.29	4.4035e-06	2.9177e-06	296.46	104.02	87.041	50.709	7.1086e-06	62.103	0.00031422	0.00027402	7.3959e-05	503.14	2.9053e-06	2.9431e-06	664.53	199.15	2.8971e-06	2.9344e-06	280.1	99.412	83.642	48.863	3.0442e-06	59.219	-72.559	-32.468	-72.468	-130.789	34.996	26.406	-132.929	-124.601	25.741	-23.113	-128.273	-123.024	-119.784	-114.141	-23.348	-118.529	-8191	255	
1364.596	1	1	0	0	0.17291	0.073389	0.097927	0.27416	0.21413	0.19535	0.23616	0.094901	0.1669	0.080208	0.17674	0.44601	0.09495	0.11756	0.13059	0.09353	-2.6521	-2.9917	-2.9583	-3.1813	-2.7979	-3.2625	-3.0375	-2.9167	-3.2562	-3.0417	-3.0687	-3.2188	-2.7958	-3.2479	-2.925	-2.6729	-67.456	168.981	-38.667	179.865	-97.437	13.848	184.332	105.033	109.972	74.938	97.610	32.367	10.646	-92.777	160.935	12.902	0.00050256	0.00024974	0.00011131	534.45	3.1115e-06	3.8726e-06	706.09	209.74	1.4521e-06	3.8753e-06	296.87	105.2	87.716	50.704	4.6356e-06	62.813	0.00031536	0.00026783	7.552e-05	504.56	2.8767e-06	2.9093e-06	664.17	200.22	2.9791e-06	2.9051e-06	281.62	100.31	84.168	49.068	3.043e-06	59.919	-73.700	-75.586	-60.065	-130.441	29.855	-16.922	-132.771	-124.241	52.581	-7.500	-128.238	-122.848	-119.563	-113.909	-9.996	-118.573	-8191	255	
1364.692	1	1	0	0	0.18574	0.14739	0.28766	0.23991	0.05025	0.031064	0.17188	0.2126	0.24445	0.212	0.29639	0.088966	0.384	0.21656	0.10912	0.3044	-2.6771	-3.0208	-2.9021	-3.3792	-2.9208	-3.1042	-3.0917	-2.8271	-3.0917	-2.9917	-3.0354	-3.1292	-3.0604	-3.0104	-3.1042	-2.9854	-33.707	195.697	-136.103	140.224	26.468	-37.419	136.160	207.453	-9.865	94.383	181.689	-121.600	118.347	144.750	116.054	127.300	0.0004945	0.00051617	0.00015992	531.46	5.7224e-06	5.5699e-06	703.65	211.1	3.8514e-06	3.8002e-06	296.51	104.6	87.844	50.721	6.1191e-06	62.019	0.00032722	0.00028148	7.6547e-05	505.35	3.054e-06	2.9339e-06	663.67	200.99	2.9696e-06	2.9887e-06	281.08	99.719	84.332	49.054	3.0569e-06	59.257	-69.600	-73.159	-36.452	-130.462	33.932	-24.630	-132.955	-124.391	3.444	-11.761	-128.042	-123.179	-119.751	-113.719	-7.047	-118.581	-8191	255	
1364.763	1	1	0	0	0.1781	0.17153	0.17973	0.16309	0.068632	0.09277	0.18029	0.33202	0.096384	0.19353	0.09808	0.12125	0.22134	0.076815	0.057125	0.20605	-2.7604	-2.825	-2.9021	-3.2104	-2.8021	-3.2271	-3.3	-2.8854	-3.1021	-3.0479	-3.0375	-3.1229	-2.7812	-3.1854	-3.1583	-3.0667	-108.711	130.560	-39.035	150.108	144.029	-42.647	-14.493	126.677	125.059	179.015	-100.831	-122.530	-115.376	-34.266	135.151	206.011	0.00052711	0.00043033	0.00017026	531.2	2.0696e-06	5.1529e-06	701.05	208.33	3.6823e-06	4.8109e-06	294.04	103.81	86.674	50.579	7.0725e-06	61.836	0.00031965	0.00027498	7.4848e-05	503.37	2.9433e-06	2.9408e-06	662.43	199.1	3.0259e-06	2.8366e-06	278.28	99.021	83.394	48.853	3.0203e-06	59.171	-74.208	-19.437	-68.415	-130.831	55.447	12.769	-132.988	-124.590	36.142	15.978	-128.537	-122.826	-119.737	-113.892	12.299	-118.528	-8191	255	
1364.884	1	1	0	0	0.13441	0.34979	0.12609	0.20604	0.05209	0.25809	0.27389	0.1994	0.20115	0.27748	0.14068	0.041267	0.14706	0.24983	0.30238	0.167	-2.7792	-2.9146	-2.9896	-3.3708	-2.8146	-2.8479	-3.3354	-2.8583	-3.0667	-3.1312	-2.95	-3.1646	-2.8542	-3.1083	-3.3917	-3.0062	-108.132	152.047	43.736	154.014	197.197	-58.879	130.062	147.339	153.210	-97.429	126.148	-138.081	-81.186	212.949	78.439	-49.909	0.00044502	0.00025178	7.1905e-05	534.68	3.7743e-06	6.4274e-06	702.25	210.51	3.0715e-06	4.7533e-06	297.06	104.78	87.076	50.972	5.1121e-06	61.994	0.00031561	0.00026708	7.6108e-05	504.84	2.9756e-06	2.9705e-06	662.75	200.48	2.9982e-06	2.9064e-06	280.69	99.889	84.155	49.14	3.0317e-06	59.399	-71.410	-14.849	-74.113	-130.663	54.079	31.940	-132.817	-124.314	38.265	-20.837	-128.182	-122.791	-119.545	-113.970	27.236	-118.533	-8191	255	
1364.980	1	1	0	0	0.14671	0.37833	0.11525	0.13449	0.034789	0.10452	0.20304	0.064312	0.16459	0.12128	0.19576	0.10704	0.059787	0.10827	0.050181	0.16447	-2.45	-2.9896	-2.7812	-2.8688	-3.0333	-3.0583	-3.2271	-3.0312	-3.1229	-3.2292	-2.6917	-3.3438	-3.0979	-2.7292	-3.2292	-2.7438	105.099	117.838	143.003	198.102	-111.206	211.982	207.628	171.303	-128.114	-14.458	192.617	30.412	-56.482	-108.989	142.491	184.006	0.00047438	0.00037192	0.00016028	537.75	4.1183e-06	5.6646e-06	704.13	211.11	2.1017e-06	3.8061e-06	298.09	106.12	88.077	51.206	5.0438e-06	62.719	0.00032222	0.00027142	7.6122e-05	506.26	2.8832e-06	2.9444e-06	665.64	201.48	2.9456e-06	2.8924e-06	281.19	100.75	84.395	49.411	3.0411e-06	60.07	-73.417	-62.919	-48.934	-130.478	21.176	-0.059	-132.690	-124.515	-21.624	-6.256	-128.142	-123.222	-119.569	-113.795	43.732	-118.759	-8191	255	
1365.076	1	1	0	0	0.093965	0.20953	0.27157	0.17694	0.2438	0.2939	0.13269	0.069875	0.14261	0.11529	0.095651	0.26019	0.17117	0.13621	0.25588	0.14347	-2.5896	-3.1646	-2.7479	-3.1958	-3.1979	-3.0646	-3.0667	-2.9583	-2.9833	-3.3208	-2.8958	-3.0812	-3.3354	-3.0271	-3.0583	-2.9271	96.802	192.878	74.156	148.286	157.779	119.518	105.293	79.768	-5.941	5.875	165.277	165.427	-128.694	217.509	50.151	-131.814	0.00051801	0.00054613	0.00011082	536.15	2.6719e-06	7.9794e-06	710.85	212.56	4.2055e-06	4.2678e-06	301.17	105.87	88.545	51.397	6.6002e-06	63.257	0.00031848	0.00027116	7.7716e-05	507.01	2.9509e-06	2.9597e-06	668.5	202.05	2.9834e-06	2.9846e-06	283.88	101.11	84.942	49.617	3.049e-06	60.293	-71.162	-65.408	-58.369	-130.734	14.657	15.411	-132.902	-124.410	33.051	-1.281	-128.263	-123.217	-119.773	-113.799	22.133	-118.610	-8191	255	
1365.172	1	1	0	0	0.18911	0.099504	0.11375	0.11679	0.16447	0.23155	0.10565	0.17281	0.19283	0.083192	0.19735	0.1295	0.18894	0.10118	0.018431	0.15722	-2.525	-3.225	-2.6937	-3.1937	-3.075	-2.7833	-3.175	-3.0563	-2.9708	-3.2292	-2.8104	-2.9313	-2.9667	-3.0208	-3.2812	-3.0146	41.261	188.548	-0.850	169.883	35.247	-3.189	67.748	159.732	-12.773	3.658	170.647	141.238	194.527	211.388	164.792	116.160	0.00044917	0.00062188	0.00016293	534.22	3.1156e-06	3.0738e-06	707.24	211.98	2.5721e-06	5.8502e-06	297.55	104.81	87.292	51.057	2.5995e-06	62.215	0.00031654	0.00027213	7.8326e-05	506.44	2.9212e-06	2.9681e-06	666.69	201.65	2.9753e-06	3.0054e-06	280.51	99.84	83.78	49.209	2.9606e-06	59.352	-70.603	-65.411	-71.014	-130.523	52.325	40.499	-132.648	-124.440	39.114	12.754	-128.219	-123.047	-119.709	-113.863	18.471	-118.827	-8191	255	
1365.293	1	1	0	0	0.10063	0.19524	0.26843	0.088492	0.061711	0.079751	0.27568	0.18542	0.09831	0.17051	0.13908	0.054587	0.27374	0.15107	0.085026	0.17545	-2.3896	-3.0062	-2.7562	-2.8521	-3.0292	-2.9542	-3.2875	-3.025	-2.9771	-3.2667	-3.0021	-3.0354	-2.9479	-2.9958	-3.2708	-3.1937	91.649	7.356	-73.045	121.413	130.461	212.047	163.800	172.196	18.292	10.804	115.501	-63.659	-130.789	157.040	-60.558	166.191	0.0005222	0.00070809	0.00015756	534.83	4.635e-06	5.0366e-06	700.65	210.26	1.5109e-06	6.1527e-06	294.63	104.02	87.318	51.087	5.9788e-06	62.342	0.00031265	0.00026839	7.6043e-05	504.99	2.9185e-06	3.0356e-06	663.45	200.75	2.9592e-06	2.9422e-06	279.6	99.492	83.968	49.313	3.0029e-06	59.482	-73.603	-54.982	-47.819	-130.513	25.419	0.840	-132.646	-124.504	51.055	29.181	-127.947	-122.941	-119.890	-113.902	25.327	-118.506	-8191	255	
1365.388	1	1	0	0	0.064821	0.24851	0.079873	0.11129	0.17184	0.26978	0.25448	0.25396	0.12483	0.18702	0.31167	0.091694	0.28096	0.21407	0.25073	0.10778	-2.4271	-3.1979	-3.0417	-3	-2.9979	-2.8667	-3.2042	-3.2313	-2.8854	-3.1729	-2.8604	-2.8854	-3.1854	-3.0375	-3.25	-2.9313	177.787	202.961	-68.913	-35.818	-93.787	-32.810	156.451	144.573	-96.531	64.328	185.231	-67.351	-72.329	-47.173	105.110	-7.069	0.00043294	0.00046029	0.00014852	535.56	3.3123e-06	8.0312e-07	704.95	211.04	3.4553e-06	3.309e-06	297.21	105.65	87.995	51.443	1.5076e-06	62.502	0.00031966	0.00027089	7.4681e-05	506.18	2.9716e-06	3.0192e-06	663.97	201.59	2.9718e-06	3.0136e-06	281.06	100.32	84.499	49.533	3.0591e-06	59.833	-75.592	-57.358	-41.469	-130.563	16.388	-40.402	-132.753	-124.516	32.737	-25.865	-128.320	-123.248	-119.649	-114.002	18.265	-118.696	-8191	255	
1365.485	1	1	0	0	0.31022	0.031158	0.08499	0.10902	0.18627	0.082184	0.14963	0.14777	0.21284	0.30182	0.080521	0.23407	0.28225	0.20487	0.15956	0.097948	-2.3771	-3.0958	-2.7375	-3.0271	-3.1688	-2.6958	-3.1521	-3.1667	-2.9458	-3.0854	-3.2146	-3.0396	-3.0417	-2.9083	-3.0479	-3.2313	136.173	-114.267	164.399	-43.216	-98.549	-133.233	201.991	123.402	-10.388	-110.391	155.215	21.912	145.862	100.781	-118.767	80.626	0.00050649	0.00063855	0.00017146	534.97	3.8889e-06	4.9376e-06	709.1	212.55	3.8156e-06	3.1104e-06	300.27	105.61	88.538	51.466	1.8022e-06	62.959	0.00032504	0.00027823	7.6282e-05	506.23	2.9563e-06	3.0299e-06	666.5	202.66	3.0584e-06	3.0051e-06	282.91	100.98	85.296	49.856	3.0283e-06	60.184	-70.860	-42.965	-50.006	-130.360	22.957	22.291	-133.008	-124.593	12.407	5.876	-128.249	-123.061	-119.770	-113.845	-2.352	-118.571	-8191	255	
1365.580	1	1	0	0	0.29292	0.069826	0.31901	0.027148	0.080727	0.26996	0.14339	0.062562	0.19569	0.19457	0.23319	0.18367	0.093475	0.068931	0.23693	0.15576	-2.3958	-3.0375	-2.8542	-2.9542	-3.0333	-2.6521	-3.1437	-3.1042	-2.8896	-3.1312	-3.1146	-2.9417	-3.2188	-2.7812	-2.9292	-3.3271	-71.322	171.766	17.168	205.340	-111.997	-80.344	-131.927	60.456	36.781	-57.723	183.180	201.861	205.826	-47.781	-35.569	134.761	0.00046963	0.00035744	9.1182e-05	538.17	2.1894e-06	1.9066e-06	703.51	211.9	3.5969e-06	2.484e-06	297.79	105.11	88.53	51.487	6.0094e-06	62.625	0.00032462	0.0002802	7.7742e-05	507.7	2.9864e-06	3.068e-06	666.05	202.66	3.0734e-06	2.9621e-06	282.44	100.61	85.021	49.671	3.1597e-06	59.784	-68.818	-31.091	-102.294	-130.471	51.682	14.804	-132.740	-124.609	17.537	-3.380	-128.221	-122.640	-119.684	-114.101	9.846	-118.740	-8191	255	
1365.676	1	1	0	0	0.3849	0.26218	0.13811	0.23669	0.31613	0.022353	0.11495	0.29997	0.20313	0.068709	0.094771	0.11798	0.10391	0.20033	0.20679	0.23415	-2.3354	-2.9229	-2.9458	-3.0417	-3.3896	-2.8833	-3.1125	-3.275	-2.7687	-3.1542	-3.0271	-2.9521	-3.2417	-3.1271	-2.9458	-3.175	205.978	33.745	-49.953	39.979	214.061	156.925	174.915	160.835	-116.568	195.660	-68.658	-107.294	87.639	-12.231	38.779	96.242	0.00046219	0.00058823	0.00013126	534.02	2.9157e-06	4.0047e-06	703.21	212.45	4.1134e-06	3.9873e-06	294.77	104.35	88.481	51.376	3.979e-06	61.766	0.00031958	0.00027746	7.6337e-05	505.94	2.9517e-06	3.0196e-06	661.31	202.59	3.0738e-06	3.0339e-06	279.53	99.329	84.874	49.401	3.0303e-06	58.902	-72.076	-72.060	-75.417	-130.439	41.858	4.222	-132.893	-124.563	21.350	34.398	-128.355	-122.922	-119.535	-113.866	-28.365	-118.558	-8191	255	
1365.772	1	1	0	0	0.059573	0.11276	0.12009	0.23571	0.19232	0.19071	0.10855	0.24646	0.061365	0.19992	0.06659	0.069889	0.19055	0.40143	0.24983	0.21857	-2.2438	-3.1875	-3.0958	-3.0146	-3.2854	-2.9062	-2.6562	-2.9896	-2.9521	-3.0812	-2.975	-2.8688	-3.1688	-3.1792	-2.9062	-3.1437	149.192	150.973	182.978	76.946	131.263	152.376	-134.095	176.693	111.085	-11.922	3.148	105.239	178.555	175.074	-3.403	176.007	0.00046008	0.00042517	0.00014499	538.49	5.9679e-06	6.0434e-06	700	211.9	5.2998e-06	6.0606e-06	296.45	104.42	87.934	51.073	3.5654e-06	61.961	0.00032229	0.00027493	7.6529e-05	508.07	3.0243e-06	3.017e-06	661.66	202.78	3.0487e-06	3.0046e-06	279.67	99.665	84.756	49.391	3.0885e-06	59.313	-72.049	-98.049	-47.090	-130.767	52.412	7.945	-132.802	-124.655	18.807	2.091	-128.230	-122.911	-119.621	-113.862	-17.493	-118.474	-8191	255	
1365.893	1	1	0	0	0.12332	0.14641	0.42892	0.05606	0.11509	0.23351	0.1065	0.22705	0.29956	0.28402	0.10276	0.22007	0.15564	0.28281	0.13233	0.10556	-2.4125	-2.8146	-3.0833	-2.9917	-3.1458	-3.0292	-2.7687	-3.2708	-2.8937	-3.125	-3.3292	-2.7229	-3.2542	-3.0729	-2.65	-3.2438	-91.604	116.737	-113.209	-126.362	-92.219	45.568	-139.500	-133.048	190.784	-103.124	110.334	-125.775	178.934	175.418	19.860	80.035	0.00051567	0.00042543	0.00012923	536.35	5.4635e-06	8.292e-06	701.77	212.25	2.7796e-06	3.2659e-06	297.1	105.45	88.968	51.58	2.4318e-06	62.973	0.00031709	0.00027249	7.5077e-05	506.81	2.867e-06	2.9717e-06	662.76	202.32	3.0505e-06	3.026e-06	281.27	100.36	85.245	49.773	3.119e-06	59.959	-67.064	-31.932	-46.968	-130.384	36.951	3.246	-132.478	-124.630	-1.170	-1.465	-128.278	-123.100	-119.892	-113.922	-14.224	-118.692	-8191	255	
1365.989	1	1	0	0	0.079226	0.097637	0.18415	0.12361	0.14368	0.24068	0.25737	0.14976	0.16306	0.1089	0.056674	0.19875	0.20207	0.078798	0.23198	0.25663	-2.5917	-2.8792	-3.3	-2.8333	-3.025	-2.9021	-3.0354	-3.2104	-2.9792	-2.9708	-3.3125	-2.7229	-3.05	-2.9229	-2.6604	-3.1292	-77.838	102.367	54.435	116.923	-90.910	10.950	-37.080	-100.559	197.191	-80.618	119.542	167.472	-53.188	79.549	-84.567	95.952	0.00050445	0.00039341	0.00016947	534.25	4.8859e-06	3.0812e-06	702.51	213.68	3.6745e-06	4.4444e-06	299.23	106.12	88.823	51.734	2.3655e-06	63.259	0.00031683	0.00027957	7.7161e-05	506.83	3.0391e-06	3.004e-06	664.78	204.12	3.0533e-06	3.0304e-06	282.77	101.06	85.721	49.985	3.099e-06	60.393	-70.020	-48.177	-59.857	-130.168	72.118	33.089	-132.736	-124.638	26.092	25.154	-128.138	-122.982	-119.488	-113.983	48.389	-118.507	-8191	255	
1366.061	1	1	0	0	0.19048	0.13092	0.37726	0.19196	0.13422	0.12002	0.21106	0.10908	0.1924	0.21071	0.12233	0.59681	0.13437	0.08308	0.078527	0.014696	-2.4	-2.9938	-3.1688	-3.0542	-3.0812	-3.175	-2.8208	-3.3583	-3.0375	-2.9604	-3.3125	-2.9875	-2.9708	-3.0083	-2.7979	-3.0812	131.946	92.178	75.882	130.250	66.220	34.659	132.940	142.728	122.950	37.743	178.044	170.173	86.602	21.128	181.949	-129.060	0.00047421	0.00054502	0.00015605	536.26	3.5559e-06	3.5589e-06	701.68	213.9	3.5165e-06	5.1801e-06	296.43	104.79	88.598	51.669	3.712e-06	62.2	0.00031654	0.00027659	7.6177e-05	507.87	2.9257e-06	2.9853e-06	662.95	203.42	2.9786e-06	3.0469e-06	280.79	100.01	85.296	49.802	3.0472e-06	59.355	-72.092	-22.590	-81.645	-130.428	-4.480	-10.841	-132.695	-124.506	1.947	34.110	-128.221	-122.969	-119.733	-113.947	-25.239	-118.210	-8191	255	
1366.157	1	1	0	0	0.34474	0.14455	0.1014	0.16821	0.1537	0.20807	0.081868	0.15736	0.17399	0.41182	0.039727	0.29574	0.052583	0.071791	0.034649	0.10952	-2.6042	-2.7687	-3.3187	-3.1	-2.9479	-3.3042	-2.8854	-2.9562	-2.9271	-2.7333	-3.2	-2.8438	-3.0104	-3.3292	-2.9771	-3.2958	-25.323	13.082	39.536	212.843	158.330	123.080	194.880	-140.099	205.027	0.387	31.191	-39.217	-45.662	-124.575	-140.704	170.921	0.00047717	0.00045887	9.1909e-05	536.83	4.9938e-06	4.1357e-06	698.21	213.08	1.3889e-06	7.3608e-06	297.63	103.75	88.462	51.435	4.6921e-06	61.774	0.0003117	0.00027796	7.3832e-05	507.35	3.0351e-06	2.9624e-06	660.33	203.27	2.9454e-06	3.0011e-06	280.76	99.323	85.191	49.501	3.0668e-06	59.195	-73.360	-17.407	-64.394	-130.307	15.671	24.088	-132.864	-124.408	15.596	19.002	-128.242	-123.054	-119.680	-114.032	13.304	-118.696	-8191	255	
1366.277	1	1	0	0	0.06819	0.15867	0.16979	0.13598	0.14209	0.039589	0.28034	0.027081	0.074916	0.23196	0.25413	0.30252	0.028432	0.24818	0.16232	0.10955	-2.7104	-2.9	-3.2229	-2.9354	-2.8208	-3.1167	-3.0062	-3.2083	-3.175	-2.5917	-2.9354	-2.9646	-2.9396	-3.2188	-3.0125	-3.2417	45.556	-65.287	127.846	64.217	116.829	176.070	208.252	-53.620	37.952	114.436	-66.395	35.899	-15.782	179.087	1.714	-72.460	0.00049752	0.00073557	0.00017334	537.14	5.0099e-06	6.4806e-06	701.26	213.65	3.808e-06	5.3033e-06	298.9	104.67	89	51.385	3.0411e-06	62.469	0.00031387	0.00027428	7.6086e-05	508.4	2.9108e-06	2.9441e-06	662.42	203.43	2.9206e-06	2.9614e-06	281.93	99.709	85.559	49.558	2.9308e-06	59.408	-72.936	-67.076	-65.189	-130.549	-18.018	23.250	-132.784	-124.303	40.695	-5.353	-128.269	-123.095	-119.846	-114.005	-1.046	-118.439	-8191	255	
1366.374	1	1	0	0	0.17598	0.04404	0.098157	0.27106	0.20497	0.12834	0.11091	0.14014	0.31972	0.17649	0.26751	0.17189	0.032527	0.28634	0.13712	0.21839	-2.9667	-2.825	-3.2687	-2.9625	-2.9792	-3.2812	-3.0708	-3.0708	-3.0583	-2.7375	-2.9396	-3.0042	-2.8292	-3.1583	-2.7729	-3.0062	146.598	-100.147	-70.358	-131.564	24.087	36.151	78.828	101.823	-79.728	108.432	39.969	214.885	49.999	-140.390	152.600	95.951	0.00048735	0.00027378	0.00010363	535.7	2.6335e-06	3.1876e-06	699.83	214.6	2.6129e-06	2.9188e-06	298.72	105.39	89.189	51.857	5.0734e-06	62.452	0.00031938	0.00027457	7.2808e-05	507.81	2.9663e-06	2.8758e-06	662.45	204.56	2.9469e-06	3.0231e-06	282.6	100.64	86.034	49.835	2.9922e-06	59.811	-72.587	-57.048	-14.684	-130.539	28.393	51.316	-132.404	-124.410	18.067	32.901	-128.083	-122.852	-119.978	-114.035	20.837	-118.396	-8191	255	
1366.468	1	1	0	0	0.076107	0.26001	0.21384	0.20816	0.077143	0.19687	0.10144	0.045443	0.16616	0.057952	0.055373	0.25565	0.033143	0.12174	0.047112	0.06108	-2.8229	-2.6979	-3.0083	-2.8208	-2.8396	-3.1625	-3.0521	-2.9583	-3.2896	-2.7604	-3.0042	-3.0708	-3.0438	-3.1875	-2.8104	-2.8625	-122.865	-62.168	-32.541	142.525	-26.896	147.053	55.007	212.678	206.976	160.512	-39.291	128.855	-61.950	-122.981	11.920	29.246	0.00049106	0.00067221	0.00019443	542.93	3.2683e-06	7.3498e-06	706.58	214.83	2.1821e-06	5.2984e-06	301.07	106.23	89.924	51.64	4.2215e-06	62.893	0.00031494	0.00028032	7.5327e-05	510.74	2.9581e-06	2.9105e-06	665.96	204.68	2.9227e-06	3.0918e-06	284.73	101.31	86.325	49.908	3.0008e-06	60.134	-77.066	-55.237	-78.532	-130.288	9.365	21.119	-132.298	-124.391	24.699	-4.868	-128.565	-122.970	-120.083	-113.896	8.758	-118.474	-8191	255	
1366.566	1	1	0	0	0.015923	0.15772	0.082264	0.073012	0.29549	0.051671	0.10046	0.093436	0.13939	0.1067	0.095272	0.1934	0.081722	0.34839	0.021795	0.2512	-2.6083	-2.875	-2.95	-3.0938	-2.9354	-3.2271	-3.2042	-3.0417	-3.0479	-2.85	-3.2354	-3.2792	-3.075	-3.2292	-2.8438	-3.0771	109.341	213.330	26.750	-36.954	56.633	28.072	140.173	-81.278	-9.660	61.779	183.173	203.202	-27.274	214.601	172.541	52.945	0.00046373	0.00042429	0.00013523	538.43	4.9882e-06	5.4382e-06	701.22	214.4	2.536e-06	2.3551e-06	299.82	105.73	89.393	51.355	3.1335e-06	61.891	0.00031604	0.0002712	7.4351e-05	508.67	2.9255e-06	2.9185e-06	661.16	204.79	2.9026e-06	2.9268e-06	282.28	100	85.919	49.608	3.0304e-06	59.153	-74.522	-65.609	-66.044	-130.355	61.681	-43.707	-132.690	-123.988	23.093	15.376	-128.090	-123.387	-119.784	-113.896	25.828	-118.507	-8191	255	
1366.660	1	1	0	0	0.20179	0.22101	0.15848	0.32019	0.18602	0.08457	0.04838	0.19817	0.10749	0.10271	0.20394	0.29708	0.12994	0.20734	0.10972	0.06411	-2.8375	-2.8354	-2.8667	-2.8937	-2.9333	-3.1958	-3.1688	-2.7125	-3.1625	-2.9625	-2.9708	-3.3104	-2.7604	-3.4604	-3.1375	-2.7687	-27.773	-5.869	-134.158	47.303	-48.879	-1.292	-133.494	119.742	-95.304	183.587	-21.488	172.830	153.478	199.397	-40.139	-95.454	0.00047622	0.00069327	0.00011028	537.21	1.806e-06	4.306e-06	700.14	213.73	1.1278e-06	3.0456e-06	299.62	104.76	89.818	51.497	7.0965e-06	62.272	0.00031807	0.00027219	7.7306e-05	507.98	2.9956e-06	2.979e-06	659.27	204.57	2.9538e-06	2.9258e-06	281.95	100.07	85.986	49.722	3.0123e-06	59.387	-71.690	-50.985	-12.742	-130.226	31.337	40.782	-133.016	-124.435	67.189	20.890	-128.171	-123.109	-119.716	-113.959	25.741	-118.657	-8191	255	
1366.756	1	1	0	0	0.20785	0.051594	0.11864	0.081662	0.17396	0.10315	0.05073	0.1352	0.045051	0.20492	0.056749	0.037989	0.099229	0.20093	0.047148	0.22427	-2.8208	-2.8833	-2.7229	-3.25	-2.8771	-3.0583	-3.1562	-3.1063	-3.1792	-3.0104	-3.1333	-3.175	-2.9062	-3.1146	-3.0646	-3.0687	98.766	160.163	143.001	50.121	166.832	-18.076	134.911	128.321	0.251	176.820	85.126	-75.949	67.643	-64.173	97.901	-137.079	0.00048719	0.00020664	0.00014728	540.71	3.019e-06	3.7713e-06	701.14	214.38	3.5455e-06	4.6411e-06	298.28	105.76	90.031	52.085	2.6316e-06	62.541	0.00031337	0.00026294	7.6024e-05	509.66	2.8985e-06	2.9512e-06	661.87	205.39	3.0255e-06	2.9552e-06	283.18	100.86	86.532	50.157	3.1117e-06	59.873	-74.731	-42.810	-36.054	-130.434	42.718	-3.372	-132.603	-124.468	17.336	-14.901	-128.246	-123.222	-119.703	-113.774	20.983	-118.617	-8191	255	
1366.853	1	1	0	0	0.1208	0.18648	0.036302	0.083723	0.37182	0.15554	0.15724	0.15089	0.12296	0.41307	0.13654	0.23769	0.088928	0.19759	0.0564	0.364	-2.8104	-2.6521	-2.8354	-3.2417	-2.85	-2.9542	-3.1771	-2.95	-3.275	-3.1729	-2.8333	-3.2958	-2.9313	-2.9813	-3.0729	-2.8479	155.860	81.545	143.149	193.540	97.047	-30.016	122.016	42.811	-82.398	-125.171	139.066	114.041	210.478	-38.233	-112.895	158.243	0.00051855	0.00031062	8.3697e-05	539.71	1.9151e-06	3.8997e-06	703.81	216.75	2.9622e-06	1.267e-06	300.54	106.62	89.91	51.97	2.1086e-06	62.942	0.0003086	0.00026923	7.7357e-05	510.98	2.9433e-06	2.9415e-06	665.29	206.14	3.0027e-06	2.9091e-06	284.53	101.5	86.522	50.196	3.0421e-06	60.147	-70.953	-32.922	-78.406	-130.228	-3.443	-15.505	-132.437	-124.074	48.662	2.778	-128.019	-122.869	-119.586	-113.878	64.056	-118.743	-8191	255	
1366.973	1	1	0	0	0.044596	0.075653	0.095291	0.074253	0.099753	0.21858	0.12496	0.18648	0.15441	0.030444	0.1574	0.22137	0.15708	0.25457	0.2099	0.10659	-2.5375	-3.0958	-2.7188	-3.0458	-2.8771	-3.0792	-3.2979	-2.9646	-3.2125	-3.1958	-2.8604	-3.0521	-2.9562	-3.0625	-3.4917	-2.8563	203.546	-15.880	54.840	94.990	-120.065	171.407	-59.291	144.533	163.010	81.241	99.984	129.375	189.834	-90.767	-108.891	167.468	0.00046222	0.00039713	0.0001195	540.16	2.8842e-06	8.5582e-06	706.49	214.3	2.434e-06	3.1888e-06	299.24	105.81	90.423	51.95	6.952e-06	63.459	0.00031699	0.00027998	7.6536e-05	511.48	3.0171e-06	2.9497e-06	664.99	205.53	2.9973e-06	3.007e-06	283.85	101.09	86.684	50.282	3.0799e-06	60.189	-74.220	-54.862	-73.428	-130.383	42.139	17.419	-132.572	-124.368	23.783	-17.988	-128.109	-123.044	-119.716	-113.829	32.644	-118.624	-8191	255	
1367.069	1	1	0	0	0.1469	0.10325	0.26292	0.48825	0.23194	0.10826	0.11691	0.10448	0.059736	0.12401	0.18401	0.087206	0.1577	0.25834	0.087202	0.080398	-2.6479	-3.0021	-2.8854	-3.0958	-2.8063	-3.0083	-3.35	-3.1708	-3.1021	-3.0729	-3.0708	-3.2562	-2.7604	-2.8646	-3.2333	-2.9813	-122.728	0.034	111.070	212.804	96.566	-78.024	146.693	95.747	-46.853	56.523	8.797	176.604	188.291	110.457	-6.401	187.704	0.00049419	0.00030462	0.00012763	539.72	6.1053e-06	3.0963e-06	705.47	215.73	4.883e-06	4.5612e-06	301.75	106.49	90.602	52.316	5.2017e-06	63.416	0.0003169	0.00027418	7.7883e-05	510.27	3.0137e-06	3.0271e-06	665.02	206.35	3.0081e-06	2.9827e-06	284.88	101.44	86.763	50.466	3.1465e-06	60.492	-73.045	-49.420	-50.484	-130.419	19.933	25.401	-132.366	-124.646	20.899	40.982	-127.826	-123.118	-119.542	-114.073	9.212	-118.792	-8191	255	
1367.165	1	1	0	0	0.2598	0.11413	0.21733	0.18121	0.12179	0.23431	0.10687	0.32783	0.088084	0.10483	0.13646	0.09529	0.18111	0.12866	0.10281	0.11137	-2.7792	-2.8542	-2.8417	-3.2833	-2.8833	-2.8854	-3.2313	-2.8063	-3.0312	-2.9562	-3.0042	-3.2125	-3.1063	-2.8542	-3.0896	-3.1188	5.248	142.890	191.442	172.483	-122.794	-34.146	51.901	-111.883	-5.247	100.446	214.356	68.465	142.544	151.140	-32.576	-133.931	0.00044261	0.00032032	5.2945e-05	538.72	3.1472e-06	6.2588e-06	705.31	217.62	3.708e-06	5.6485e-06	301.53	107.51	91.249	52.36	3.4985e-06	63.747	0.00032061	0.0002817	7.7066e-05	511.76	2.9337e-06	2.9982e-06	666.94	207.57	3.0822e-06	3.0803e-06	286.29	102.34	87.481	50.633	3.0555e-06	60.905	-67.188	-42.164	-11.024	-130.471	87.342	13.927	-132.788	-124.363	-6.862	-1.306	-128.083	-123.157	-119.877	-114.060	9.490	-118.834	-8191	255	
1367.286	1	1	0	0	0.15977	0.1463	0.14247	0.35424	0.20263	0.33977	0.12862	0.20146	0.20843	0.13593	0.086866	0.29915	0.15958	0.12623	0.15653	0.16147	-2.4854	-3.1167	-2.6229	-3.2125	-3.1104	-2.7812	-3.025	-2.9479	-2.8812	-3.1604	-2.8167	-2.925	-2.7938	-2.7375	-3.1417	-3.0521	153.635	-125.288	41.896	213.574	92.595	177.251	122.182	-101.925	-54.694	29.557	11.569	215.189	162.154	-122.764	145.859	169.804	0.00052686	0.00054671	1.4429e-05	545.67	4.4621e-06	5.206e-06	709.6	216.71	4.1128e-06	4.5783e-06	304.96	107.9	90.472	52.392	3.5797e-06	64.283	0.00032736	0.00028242	7.7241e-05	515.01	3.023e-06	3.092e-06	670.49	207.4	3.0927e-06	3.0006e-06	287.73	102.75	87.261	50.791	3.0796e-06	61.288	-73.051	-90.044	174.096	-130.322	43.694	10.344	-132.549	-124.170	26.745	19.474	-128.181	-122.984	-119.633	-113.927	-27.424	-118.477	-8191	255	
1367.358	1	1	0	0	0.21766	0.27554	0.10522	0.18084	0.1404	0.15231	0.22087	0.20999	0.12726	0.090089	0.12419	0.18397	0.018759	0.18406	0.09751	0.20816	-2.4333	-3.05	-2.8125	-3.1	-3.1375	-2.5958	-3.0479	-2.9417	-2.9125	-3.1167	-2.8563	-3.0187	-3.0438	-3.0521	-3.0438	-3.0479	10.630	-66.353	26.124	-110.557	174.116	-29.408	160.955	-137.760	-64.481	127.750	98.232	156.974	-51.007	-123.264	40.839	180.820	0.0005148	0.00064263	8.7712e-05	545.62	3.5101e-06	5.2116e-06	712.16	216.68	3.1755e-06	4.4952e-06	304.82	108.38	91.822	52.663	6.0671e-06	64.677	0.00032724	0.00027947	7.9466e-05	514.94	3.0373e-06	3.1029e-06	671.6	207.78	3.0853e-06	3.1105e-06	289.17	103.58	88.23	50.992	3.0921e-06	61.878	-71.030	-52.366	-11.321	-130.473	47.510	21.849	-132.537	-124.368	6.581	-3.340	-128.168	-122.834	-119.687	-113.983	26.602	-118.548	-8191	255	
1367.454	1	1	0	0	0.22575	0.13973	0.12762	0.29491	0.27655	0.16952	0.14002	0.35296	0.3084	0.16903	0.13329	0.32584	0.09631	0.15954	0.16969	0.23686	-2.4646	-2.8479	-2.7229	-3.1271	-3.2062	-2.8438	-3.1521	-2.9042	-2.7208	-3.125	-2.875	-3.0125	-3.0583	-2.8354	-3.1458	-3.1875	158.252	79.232	143.649	204.116	-78.487	191.924	202.209	161.920	141.588	1.663	107.404	180.789	177.202	155.563	187.502	156.259	0.00049915	0.00047719	9.888e-05	543.54	4.6306e-06	6.4552e-06	710.89	218.12	2.9286e-06	7.5493e-06	303.09	107.45	91.099	52.602	3.9209e-06	64.031	0.00033059	0.00028321	7.7734e-05	514.7	3.0696e-06	3.0724e-06	671.58	208.13	3.0988e-06	2.9664e-06	287.97	102.89	87.477	50.825	3.0271e-06	61.097	-72.208	-53.912	-57.793	-130.121	-4.052	20.953	-132.452	-124.084	34.962	-1.847	-128.357	-122.793	-119.545	-113.892	-25.802	-118.421	-8191	255	
1367.573	1	1	0	0	0.13544	0.053815	0.30076	0.27219	0.15431	0.24385	0.12709	0.12536	0.03802	0.056581	0.13701	0.034068	0.20281	0.27339	0.19125	0.2619	-2.4188	-2.8063	-2.7417	-2.8958	-3.0146	-2.6729	-3.1354	-2.9729	-2.9292	-3.0125	-2.825	-2.9208	-3.2896	-3.0271	-2.9292	-3.2208	190.397	18.451	13.063	162.916	-66.420	-67.728	-88.953	59.219	-81.620	42.393	140.949	34.792	8.267	205.446	-46.022	115.012	0.00051972	0.0003187	0.00012235	542.91	4.0751e-06	7.4733e-06	703.9	216.48	2.9246e-06	4.4991e-06	301.62	106.69	90.82	52.229	5.652e-06	63.61	0.00032826	0.00027105	7.5418e-05	513.52	2.9895e-06	3.0438e-06	666.41	207.3	2.9602e-06	2.8989e-06	285.23	101.58	87.067	50.532	3.0157e-06	60.625	-75.282	-50.774	-43.612	-130.285	14.134	1.610	-132.686	-124.296	32.475	31.936	-128.095	-123.254	-119.776	-113.946	28.328	-118.660	-8191	255	
1367.669	1	1	0	0	0.043873	0.087975	0.051287	0.12436	0.054868	0.17155	0.12517	0.2237	0.24644	0.12183	0.42663	0.071038	0.11761	0.098825	0.22393	0.17557	-2.5938	-3.1271	-2.9604	-2.8375	-3.0792	-2.8854	-3.2938	-3.0271	-2.9292	-3.1521	-2.9313	-2.9271	-3.3688	-3	-2.8771	-3.0646	-75.803	51.239	38.706	197.734	-51.500	43.187	102.168	83.426	-20.386	76.559	186.915	132.104	-110.169	-85.684	26.721	-138.085	0.00051448	0.00029528	4.2143e-05	544.61	2.9134e-06	4.8624e-06	708.04	216.88	4.2171e-06	7.1891e-06	302.17	106.49	90.993	52.481	5.2409e-06	63.514	0.00032398	0.00027515	7.4717e-05	514.27	2.9856e-06	2.9381e-06	667.63	207.49	2.9982e-06	2.9747e-06	285.72	101.71	87.204	50.566	3.0427e-06	60.77	-71.601	-77.571	-49.399	-130.296	57.118	9.460	-132.575	-124.327	34.501	15.926	-128.100	-122.929	-119.472	-113.871	10.730	-118.542	-8191	255	
1367.765	1	1	0	0	0.14015	0.14965	0.23757	0.24973	0.10389	0.15018	0.093695	0.088812	0.12736	0.13701	0.15888	0.28103	0.20011	0.16777	0.10835	0.1492	-2.3187	-3.1	-2.9042	-2.4938	-3.0542	-2.7354	-3.2646	-3.0604	-2.7687	-2.9979	-3.1937	-2.7771	-2.9917	-2.9583	-3.0625	-3.0687	209.747	202.822	122.810	-51.387	39.315	184.049	136.376	213.411	52.039	21.383	124.224	216.040	-84.383	138.199	-46.113	217.880	0.00045599	0.00048923	6.1381e-05	543.98	3.5963e-06	1.1194e-06	708.02	216.88	3.5935e-06	7.4251e-06	304.61	107.75	90.879	52.471	6.5051e-06	63.891	0.00032009	0.00026693	7.4645e-05	514.31	2.9917e-06	3.0123e-06	669.3	207.29	3.0652e-06	2.971e-06	287.3	102.48	87.505	50.717	3.0688e-06	60.962	-72.414	-40.705	-25.371	-130.455	81.561	-2.179	-132.461	-124.127	28.821	-14.134	-128.147	-123.172	-119.807	-114.045	28.296	-118.626	-8191	255	
1367.861	1	1	0	0	0.050976	0.3291	0.084726	0.21988	0.2093	0.22173	0.062724	0.30173	0.17387	0.17217	0.11866	0.24209	0.2218	0.19292	0.10324	0.11856	-2.4625	-2.8896	-3.0062	-3.1125	-3.1854	-2.8646	-2.9146	-3.0667	-2.875	-3.1292	-2.875	-2.8667	-3.1729	-2.9042	-2.7687	-3.1625	-52.784	196.355	79.765	89.593	36.484	211.470	215.995	146.905	-26.992	68.994	162.149	207.699	49.074	197.228	-122.345	159.180	0.00048701	0.00018204	0.00010255	542.33	2.6764e-06	5.5334e-06	710.5	216.63	4.067e-06	4.3404e-06	300.06	106.48	89.778	52.135	4.7467e-06	63.578	0.00031539	0.00027857	7.4387e-05	513.27	2.9147e-06	3.0013e-06	668.97	206.73	2.9704e-06	2.956e-06	284.67	101.08	86.158	50.283	3.0202e-06	60.442	-74.047	-1.592	1.885	-130.094	43.512	4.311	-132.573	-124.376	44.635	33.330	-128.328	-122.948	-120.121	-114.028	28.336	-118.808	-8191	255	
1367.957	1	1	0	0	0.07423	0.30049	0.23437	0.259	0.093001	0.17215	0.20611	0.11083	0.28484	0.048608	0.16808	0.25135	0.21112	0.17288	0.047082	0.17839	-2.425	-3.1479	-3.2104	-2.7604	-3.1833	-2.8438	-3.1042	-3.2583	-2.9667	-2.8187	-3.0167	-2.7729	-3.0021	-3.1417	-2.7979	-3.0687	162.828	71.243	-27.389	-126.930	3.416	26.098	-81.061	106.436	33.350	116.291	-79.802	170.203	-71.045	168.798	-16.619	173.332	0.00050521	0.00036632	9.25e-05	544.11	2.8119e-06	2.3386e-06	706.84	216.29	3.2743e-06	6.5616e-06	300.68	106.29	89.697	52.394	3.0105e-06	63.175	0.00031531	0.00027016	7.6427e-05	513.03	2.8499e-06	2.9753e-06	666.58	206.1	2.9724e-06	2.9798e-06	284.67	101.14	86.701	50.396	3.0552e-06	60.306	-73.594	-20.229	-35.142	-130.141	20.562	37.435	-132.733	-124.279	26.537	29.988	-128.478	-122.983	-119.572	-113.707	-18.104	-118.576	-8191	255	
1368.054	1	1	0	0	0.33219	0.26201	0.15043	0.34972	0.17711	0.13587	0.12337	0.18783	0.076906	0.32719	0.035162	0.073209	0.1062	0.024117	0.042053	0.07133	-2.2771	-2.8542	-3.1146	-2.7687	-3.1625	-3.1813	-2.8583	-3.3438	-3.0667	-3.0521	-3.2542	-2.9229	-2.9479	-3.0417	-2.8458	-2.975	-41.226	75.597	141.192	-115.353	171.222	-86.830	7.778	-85.267	64.675	140.326	-73.373	-70.474	-118.057	146.642	215.470	124.703	0.00045549	0.00038298	0.00013214	544.02	4.3807e-06	2.5682e-06	706.83	215.36	4.2917e-06	5.2991e-06	303	106.58	90.563	52.292	1.1661e-06	63.334	0.00031427	0.00026901	7.6057e-05	514.25	2.9634e-06	2.9313e-06	666.85	206.38	2.9037e-06	2.9594e-06	285.55	101.71	87.045	50.464	3.1316e-06	60.643	-69.790	-50.442	-51.350	-130.421	74.108	39.084	-132.898	-124.187	23.263	25.534	-128.044	-123.032	-119.691	-113.851	-78.255	-118.397	-8191	255	
1368.150	1	1	0	0	0.13405	0.18683	0.23285	0.060647	0.14751	0.19367	0.13019	0.10598	0.33864	0.24439	0.076063	0.32157	0.15922	0.10615	0.13664	0.19661	-2.4729	-2.9646	-3.1208	-2.7146	-2.8854	-3.1333	-3.0229	-3.2375	-2.8854	-2.8	-3.1562	-2.9042	-3.0042	-3.025	-2.5958	-3.1146	45.689	5.712	134.073	-118.331	205.400	-76.107	-67.740	-37.887	28.701	-55.807	63.164	203.826	-23.724	210.144	176.890	152.778	0.00049074	0.00059654	0.00014701	540.22	5.661e-06	6.2109e-06	709.74	217.93	1.3785e-06	7.193e-06	301.49	107.93	91.751	52.636	5.6948e-06	63.863	0.00032337	0.00027258	7.621e-05	513.46	3.0201e-06	3.0555e-06	669.12	207.89	3.0425e-06	3.0087e-06	286.59	102.61	87.59	50.763	3.119e-06	61.024	-73.873	-59.044	-72.289	-130.482	35.173	6.405	-132.553	-124.318	-3.500	39.677	-128.065	-123.127	-119.372	-113.921	30.974	-118.205	-8191	255	
1368.246	1	1	0	0	0.078879	0.050199	0.073454	0.37054	0.089684	0.13571	0.086735	0.14413	0.23835	0.22005	0.095261	0.25456	0.28376	0.23769	0.10773	0.15962	-2.45	-2.7875	-3.1458	-3.0771	-3.1021	-3.0396	-2.8417	-3.075	-3.1521	-2.9313	-3.1979	-2.9792	-2.9646	-3.0167	-2.7604	-2.925	114.249	202.821	-77.663	57.750	6.298	-1.684	58.516	30.098	15.520	-27.182	95.998	168.418	-119.667	142.845	51.781	195.831	0.0004826	0.00059135	0.00010927	542.5	1.0251e-06	5.5378e-06	708.54	218.88	2.2663e-06	3.9215e-06	306.06	107.94	91.604	52.71	5.3231e-06	64.457	0.00032804	0.00028274	7.7876e-05	515.24	2.9483e-06	3.0397e-06	670.77	208.59	3.0533e-06	3.011e-06	288.45	103.28	88.038	50.888	3.1077e-06	61.543	-75.782	-65.446	-65.165	-130.485	6.069	14.560	-132.560	-124.545	18.983	14.288	-128.030	-123.182	-119.885	-113.856	-1.661	-118.452	-8191	255	
1368.365	1	1	0	0	0.092232	0.22369	0.23703	0.18763	0.089352	0.23911	0.13347	0.15723	0.012236	0.24406	0.17299	0.20808	0.19549	0.17907	0.1748	0.28315	-2.4979	-2.7188	-3.1542	-2.9062	-2.8146	-3.0708	-2.7271	-3.1208	-2.9292	-2.7583	-3.2521	-2.8312	-2.9708	-3.3271	-2.5771	-3.0583	175.848	156.042	138.733	190.515	70.390	-52.530	66.757	111.429	138.189	7.340	144.420	192.674	211.723	194.376	-56.188	215.825	0.00048075	0.00052302	0.00015386	544.91	2.5045e-06	5.3913e-06	712.35	218.25	3.8872e-06	4.6452e-06	304.46	108.85	91.875	53.036	5.2326e-06	64.392	0.00032399	0.00028465	7.7883e-05	515.4	2.9578e-06	2.9901e-06	672.47	208.36	2.9996e-06	3.0816e-06	288.99	103.78	88.273	51.037	3.1037e-06	61.479	-73.165	-59.547	-78.223	-130.616	-8.469	36.128	-132.334	-124.212	24.189	8.363	-128.190	-122.739	-119.569	-113.862	37.315	-118.623	-8191	255	
1368.461	1	1	0	0	0.06641	0.08696	0.080391	0.085118	0.063703	0.14335	0.11864	0.15459	0.030967	0.40074	0.13713	0.29054	0.29042	0.28321	0.081467	0.17009	-2.4396	-2.6937	-3.1437	-3.1063	-2.9375	-3.1708	-2.8063	-3.2292	-3.1792	-2.9896	-3.0625	-2.9313	-3.1208	-3.1292	-2.8542	-3.0687	-10.638	96.666	-72.771	180.838	-76.593	-11.511	110.802	147.457	178.528	5.794	-72.568	193.055	213.099	172.112	153.911	96.617	0.00055448	0.00040614	8.1491e-05	545.49	2.2581e-06	8.2241e-06	707.96	218.05	8.1848e-07	5.5078e-06	303.71	107.2	90.741	52.448	5.1837e-06	63.313	0.00032685	0.00027702	7.6968e-05	515.1	3.0108e-06	3.0183e-06	668.81	207.99	3.0325e-06	3.0952e-06	286.58	102.01	87.405	50.611	3.0652e-06	60.77	-75.798	-48.174	-26.566	-130.361	51.345	-4.037	-132.876	-124.463	53.187	-15.846	-127.933	-122.915	-120.108	-113.624	-26.900	-118.596	-8191	255	
1368.557	1	1	0	0	0.16706	0.11225	0.20527	0.20696	0.16277	0.097534	0.076149	0.15226	0.20506	0.13617	0.015861	0.073094	0.1321	0.25384	0.19935	0.15032	-2.8292	-2.8729	-3.3333	-2.9667	-2.7896	-2.9958	-3.0979	-2.9479	-3.1229	-2.8979	-3.1833	-3.1667	-2.9625	-3.2875	-2.7687	-3.0333	-44.389	171.896	44.996	141.689	-133.088	-13.534	137.081	4.642	170.654	148.217	26.101	12.783	145.859	115.950	122.749	116.838	0.00046147	0.00037435	0.00013306	544.81	3.1927e-06	5.321e-06	705.78	217.77	4.2059e-06	3.5752e-06	302.37	106.58	91.578	52.694	4.6258e-06	63.763	0.0003204	0.00027397	7.4913e-05	514.63	2.925e-06	2.979e-06	668.42	207.79	2.9768e-06	2.9723e-06	286.01	101.83	87.479	50.666	3.1034e-06	60.879	-73.294	-61.835	-70.163	-130.407	21.358	-4.770	-132.472	-124.560	-6.713	-53.960	-128.048	-123.199	-119.789	-113.961	-1.934	-118.588	-8191	255	
1368.653	1	1	0	0	0.11281	0.16128	0.22404	0.15746	0.2367	0.012549	0.087342	0.11661	0.28009	0.17898	0.097943	0.15384	0.27525	0.3062	0.11426	0.34794	-2.9188	-3.0812	-2.9875	-3.0438	-2.8146	-3.075	-3.0479	-2.8563	-3.2104	-3.0229	-2.9333	-3.0271	-2.8312	-3.3729	-3.225	-3.0583	-35.879	183.236	2.115	-102.337	118.139	147.266	47.560	-136.000	98.493	184.206	-86.530	204.243	149.433	201.009	-23.325	155.112	0.00048212	0.00042385	0.00013867	546.78	3.4554e-06	3.6843e-06	707.07	217.3	1.7916e-06	4.0274e-06	301.89	107.62	90.973	52.504	8.0952e-06	63.942	0.00032036	0.00027597	7.5037e-05	515.27	2.9426e-06	2.9777e-06	668.57	207.8	2.9614e-06	3.0176e-06	286.71	102.5	87.526	50.778	3.1434e-06	61.134	-69.863	-54.550	-39.509	-130.296	48.450	20.699	-132.462	-124.248	53.033	10.379	-127.899	-123.076	-119.742	-113.791	12.726	-118.696	-8191	255	
1368.749	1	1	0	0	0.059286	0.13873	0.083934	0.35396	0.17515	0.15344	0.20267	0.13528	0.084911	0.053248	0.13185	0.14658	0.098301	0.050046	0.18725	0.18967	-2.7146	-2.9104	-3.2354	-3.25	-2.7896	-3.0438	-3.1417	-2.6854	-2.9667	-2.8167	-3.0854	-3.1	-2.5875	-3.1667	-2.9604	-2.8688	192.810	31.023	-14.690	-64.798	-137.978	95.785	135.615	109.452	42.896	-2.532	96.565	-138.441	-130.211	80.286	-37.555	125.965	0.00044783	0.00036566	0.00013106	546.22	4.3691e-06	3.477e-06	712.08	217.52	4.7141e-06	5.1204e-06	302.4	107.31	90.983	52.562	5.4492e-06	63.788	0.00031811	0.00027441	7.7132e-05	516.27	2.943e-06	3.0199e-06	670.55	207.61	2.9426e-06	3.0161e-06	286.6	102.3	87.422	50.682	3.0618e-06	60.818	-70.340	-53.549	-72.141	-130.256	-1.723	62.433	-132.780	-124.412	-13.672	0.312	-128.235	-122.796	-119.540	-113.811	-18.348	-118.367	-8191	255	
1368.845	1	1	0	0	0.15708	0.11754	0.19005	0.077106	0.11191	0.081769	0.16816	0.13147	0.1612	0.10335	0.14472	0.077706	0.11602	0.32599	0.16189	0.20856	-2.525	-2.8875	-2.9708	-3.2167	-2.9104	-3.0604	-2.9875	-2.8208	-3.1375	-2.9021	-3.1708	-3.2271	-3.1083	-3.2104	-2.8937	-2.9229	-71.359	-117.664	-123.769	50.115	189.105	190.986	161.077	197.555	-124.836	120.010	-13.429	-88.645	141.203	196.442	51.476	-123.939	0.00051302	0.00048075	8.8065e-05	546.16	3.7535e-06	5.3327e-06	705.76	217.51	3.8169e-06	5.1015e-06	303.16	107.36	90.641	52.449	6.6889e-06	63.824	0.00032395	0.00027256	7.8043e-05	514.99	2.9982e-06	2.9893e-06	669.25	207.63	3.0334e-06	2.999e-06	287.03	102.24	87.281	50.65	3.0739e-06	60.853	-73.859	-25.085	-51.733	-130.637	6.064	-8.496	-132.582	-124.367	-4.292	28.838	-128.117	-123.045	-119.955	-113.933	32.563	-118.562	-8191	255	
1368.966	1	1	0	0	0.20617	0.14426	0.1526	0.065539	0.18979	0.042279	0.087532	0.087044	0.01085	0.05714	0.081226	0.20798	0.12603	0.15323	0.073212	0.25971	-2.8333	-2.9688	-2.8521	-3.4667	-2.7604	-2.9542	-3.2208	-3.0583	-3.1688	-2.825	-2.8979	-3.2958	-3.1458	-3.0792	-3.0396	-3.0438	149.571	-57.654	48.913	166.146	7.076	132.681	193.316	81.290	-4.356	-19.232	170.779	-1.759	151.090	156.987	163.271	129.667	0.00052137	0.0003961	9.0747e-05	544.66	3.8621e-06	5.9711e-06	710.54	217.51	4.2248e-06	6.6618e-06	302.54	107.59	91.027	52.374	5.3471e-06	64.118	0.00032268	0.00026696	7.8279e-05	515.58	3.0017e-06	3.0253e-06	670.17	207.53	3.0056e-06	3.0613e-06	286.98	102.72	87.575	50.745	3.1129e-06	61.13	-72.111	-26.510	-13.212	-130.316	42.188	7.777	-132.672	-124.196	-9.240	-4.934	-128.002	-122.997	-119.955	-113.805	14.855	-118.359	-8191	255	
1369.062	1	1	0	0	0.11701	0.11928	0.13443	0.10742	0.21226	0.13113	0.088111	0.070924	0.085347	0.046026	0.11525	0.18421	0.087408	0.15935	0.12692	0.24613	-2.8083	-2.7854	-2.6542	-3.0146	-2.7875	-3.1167	-3.2646	-2.7812	-2.9417	-3.1375	-2.8979	-3.4167	-2.7354	-2.9146	-3.2646	-2.9188	-134.164	-5.369	-80.167	187.146	-53.829	197.430	-97.225	178.792	-4.142	146.757	21.749	-140.407	185.701	99.994	-78.401	189.269	0.00049319	0.00050056	4.1061e-05	547.49	4.5579e-06	4.8501e-06	712.89	219.29	2.4937e-06	7.13e-06	305.1	108.25	91.418	52.815	5.962e-06	64.442	0.00032012	0.00027972	7.7516e-05	516.54	3.0555e-06	3.0355e-06	672.78	208.63	3.0573e-06	3.1561e-06	288.6	103.4	87.928	50.895	3.0604e-06	61.636	-68.645	-59.904	-42.458	-130.220	48.380	23.008	-132.659	-124.357	-11.773	12.572	-127.885	-122.966	-119.815	-113.902	16.883	-118.600	-8191	255	
1369.158	1	1	0	0	0.17752	0.19331	0.24168	0.24348	0.097742	0.13805	0.2848	0.1817	0.21746	0.15384	0.031743	0.28914	0.12331	0.32032	0.18907	0.16271	-2.6354	-3.0292	-2.8312	-3.0833	-2.8563	-2.8438	-3.1979	-2.8854	-3.0083	-3.1375	-2.8563	-2.9604	-2.9875	-3.1167	-3.2417	-2.9688	-90.906	-12.498	78.334	213.896	66.852	66.294	160.977	-117.223	-46.991	65.003	170.720	62.372	89.400	205.936	-90.905	94.455	0.00052569	0.00037797	0.00017564	547.72	1.0127e-06	2.6476e-06	715.41	219.06	2.6352e-06	4.5541e-06	306.92	108.87	91.751	53.06	4.0901e-06	64.8	0.00032892	0.00028051	7.7988e-05	516.41	3.0247e-06	3.0723e-06	676.41	208.74	3.0379e-06	3.062e-06	289.67	103.88	88.244	51.17	3.1448e-06	61.992	-72.238	-32.002	-74.682	-130.605	21.872	20.409	-132.512	-124.329	74.545	4.745	-128.084	-122.934	-119.671	-113.642	26.199	-118.420	-8191	255	
1369.255	1	1	0	0	0.12619	0.19299	0.30896	0.11873	0.13767	0.16942	0.16839	0.014218	0.20114	0.12299	0.059888	0.21602	0.091243	0.072405	0.070876	0.1783	-2.7938	-2.9333	-2.7625	-3.0146	-2.9188	-2.7042	-3.2333	-2.9521	-2.9458	-3.1125	-2.9521	-3.3146	-3.1167	-2.9833	-3.3458	-2.7875	-132.329	68.722	215.755	2.650	-126.488	-18.501	131.461	66.282	-95.271	-16.458	208.773	-94.197	148.715	135.663	-75.481	188.067	0.0004845	0.00028595	0.00017751	546.26	2.2196e-06	6.8344e-06	717.77	218.86	1.9978e-06	6.5292e-06	307.2	109.92	92.342	53.172	6.1771e-06	64.951	0.0003307	0.00027976	7.6779e-05	517.29	3.0204e-06	3.0397e-06	676.32	209.28	3.0381e-06	3.0422e-06	290.65	104.95	88.697	51.366	3.0451e-06	61.977	-71.264	-41.928	-56.713	-130.437	48.870	30.018	-132.726	-124.185	14.536	-9.188	-128.360	-123.034	-119.831	-113.751	30.210	-118.354	-8191	255	
1369.351	1	1	0	0	0.338	0.28398	0.15475	0.28131	0.044771	0.1756	0.16682	0.15847	0.21507	0.2289	0.12646	0.16087	0.093672	0.057671	0.17699	0.25645	-2.5625	-3.2333	-2.8708	-3.1646	-2.8375	-2.9	-3.2333	-2.8937	-2.8771	-3.1729	-2.8896	-3.0667	-2.9208	-2.9938	-2.9729	-3.175	125.424	-91.704	109.442	201.262	104.846	-42.362	133.858	213.524	170.707	9.860	-82.622	-36.191	-130.939	-111.637	121.949	124.034	0.00050747	0.00065346	0.00011703	547.3	6.0509e-06	4.669e-06	711.19	218.37	2.7284e-06	5.8372e-06	303.15	108.18	91.264	52.321	8.142e-06	63.803	0.00033087	0.00027685	7.9074e-05	516.54	3.0126e-06	3.0673e-06	670.74	208.31	3.0821e-06	3.0113e-06	287.05	103.1	87.783	50.683	3.136e-06	60.865	-75.000	-45.501	-33.804	-130.504	74.854	2.215	-132.489	-124.245	59.704	16.661	-128.148	-122.837	-119.988	-113.796	4.366	-118.369	-8191	255	
1369.445	1	1	0	0	0.17251	0.15773	0.1046	0.26378	0.20651	0.12658	0.21969	0.33368	0.18268	0.27084	0.16196	0.15178	0.18804	0.10683	0.068761	0.18682	-2.6188	-3.0979	-2.7479	-3.0708	-3.2188	-2.8979	-3.0854	-2.9604	-3.175	-3.1854	-2.8958	-3.0917	-2.9938	-2.7687	-3.1562	-3.0354	33.709	45.593	-66.727	178.973	210.636	100.088	-140.435	105.600	124.699	-133.604	-128.529	-106.825	-62.147	-129.789	73.030	136.837	0.00048926	0.00037484	0.00015782	546.54	5.9302e-06	4.31e-06	705.14	218.28	4.741e-06	6.4895e-06	302.38	107.6	90.931	52.465	6.7346e-06	63.542	0.00032545	0.00027299	7.6986e-05	516.64	3.0416e-06	3.0029e-06	667.99	207.82	3.0385e-06	2.8832e-06	286.52	102.42	87.554	50.502	3.0941e-06	60.701	-72.592	-91.555	-55.062	-130.520	32.425	8.398	-132.566	-124.197	1.279	-7.803	-128.217	-123.147	-119.529	-113.860	17.570	-118.740	-8191	255	
1369.541	1	1	0	0	0.2553	0.11442	0.042285	0.095225	0.17007	0.29027	0.11779	0.20794	0.18548	0.16932	0.16278	0.082562	0.085309	0.12937	0.18854	0.08544	-2.4021	-3.1021	-2.85	-3.0583	-2.9333	-2.9	-3.0938	-2.9792	-3.0146	-3.0354	-2.9667	-3.1083	-2.9667	-2.7958	-3.1125	-3.0187	16.681	-60.850	28.129	168.186	21.535	-70.969	-24.380	132.138	80.844	137.239	143.604	-99.450	170.640	173.591	67.408	-93.730	0.00050848	0.00040988	0.00019123	549.26	1.0484e-06	4.3866e-06	714.27	218.49	4.3109e-06	6.0127e-06	303.5	107.69	91.57	52.332	5.57e-06	63.653	0.0003242	0.00026682	7.8889e-05	516.86	2.9666e-06	3.0302e-06	671.23	208.34	3.1203e-06	3.018e-06	286.38	102.61	88	50.648	3.1716e-06	60.705	-73.262	-23.198	-38.559	-130.453	81.498	39.992	-132.638	-124.368	8.947	-17.552	-128.223	-122.810	-119.878	-113.934	6.084	-118.737	-8191	255	
1369.662	1	1	0	0	0.20498	0.096178	0.16216	0.039621	0.065122	0.19857	0.13701	0.17756	0.19044	0.19797	0.033111	0.3331	0.18381	0.27107	0.13571	0.1847	-2.2979	-3.1667	-2.9437	-2.925	-3.1875	-2.9729	-3.1875	-3.0896	-2.7562	-3.0146	-2.9375	-2.875	-3.1354	-2.7021	-2.9875	-3.0729	-58.592	155.812	-7.868	-139.573	-60.269	198.537	124.553	175.429	-84.574	-62.671	157.083	194.474	137.671	216.371	-5.335	112.005	0.00049055	0.00034515	0.00010321	549	4.8882e-06	4.3042e-06	707.65	219.31	2.7484e-06	5.0328e-06	304.12	108.34	91.422	52.419	4.6749e-06	63.832	0.00032352	0.00027534	7.9949e-05	517.06	2.9533e-06	3.1128e-06	670	208.51	3.0635e-06	3.0167e-06	287.69	103.21	87.992	50.63	3.0798e-06	61.088	-72.192	-77.581	-68.170	-130.320	25.819	24.207	-132.335	-124.509	-3.570	12.318	-128.073	-122.951	-119.710	-113.940	37.887	-118.587	-8191	255	
1369.758	1	1	0	0	0.019977	0.17131	0.28857	0.38298	0.058162	0.25936	0.1464	0.14557	0.26567	0.05643	0.13578	0.18142	0.10607	0.121	0.15819	0.23231	-2.4417	-3.1354	-2.9604	-2.875	-3.1958	-2.7854	-3.1937	-3.0458	-2.6229	-3.0417	-2.8937	-2.65	-3.2417	-2.8812	-2.9521	-3.2292	-22.037	199.561	177.463	170.095	-79.017	27.181	86.515	178.255	110.737	92.560	154.861	88.384	175.323	-56.517	-88.095	169.872	0.00049053	0.00044461	0.00015409	546.61	4.8125e-06	5.6401e-06	711.82	218.8	2.3533e-06	2.6573e-06	303.58	108.3	91.314	51.982	8.9815e-06	63.846	0.00032483	0.00028255	7.5959e-05	518.2	2.9917e-06	3.078e-06	673.62	208.48	2.9999e-06	3.0309e-06	287.82	103.12	87.604	50.449	3.0823e-06	60.721	-76.935	-39.029	-57.232	-130.573	52.406	30.667	-132.747	-124.416	-43.621	-38.146	-127.950	-122.844	-119.665	-114.014	5.570	-118.379	-8191	255	
1369.830	1	1	0	0	0.077316	0.36515	0.057184	0.25377	0.17958	0.19536	0.36231	0.1672	0.10339	0.20749	0.088018	0.2731	0.15672	0.089411	0.069682	0.042792	-2.3958	-2.8708	-2.8792	-2.9271	-2.9833	-2.7708	-2.8417	-3.0333	-2.9333	-3.175	-2.9437	-2.875	-3.2417	-2.9021	-2.875	-3.1688	170.811	24.827	63.085	189.060	-104.853	21.008	113.305	-95.491	153.903	-17.337	92.222	83.614	157.038	75.776	148.981	-133.531	0.00048926	0.00043932	6.5496e-05	546.79	2.5591e-06	5.2561e-06	707.58	216.59	3.7458e-06	6.1516e-06	301.32	106.56	91.269	52.011	3.7524e-06	62.687	0.00032235	0.00027521	7.7055e-05	517.13	3.0157e-06	3.053e-06	669.21	207.01	2.9667e-06	3.0264e-06	284.75	101.74	87.604	50.167	3.084e-06	59.881	-73.184	-12.411	-53.920	-130.467	10.307	-4.636	-132.351	-124.647	13.342	3.292	-128.222	-122.812	-119.457	-113.839	2.742	-118.656	-8191	255	
1369.926	1	1	0	0	0.22077	0.039369	0.238	0.19985	0.2238	0.043737	0.17724	0.031309	0.20865	0.054777	0.13903	0.26595	0.20625	0.34317	0.16359	0.048379	-2.3063	-3.0854	-3.0021	-3.0125	-3.1083	-2.9625	-2.9854	-2.9792	-2.9354	-3.0604	-3.1542	-2.8812	-3.1979	-2.8792	-2.7438	-3.2896	217.059	-1.914	210.078	-129.799	-89.435	-116.406	77.524	74.135	152.352	65.367	76.491	153.248	209.717	-126.969	205.924	178.484	0.00046452	0.00060017	2.8452e-05	546.72	2.1112e-06	7.0844e-06	709.62	216.39	2.1604e-06	8.3381e-06	299.31	106.47	90.7	51.898	4.3152e-06	62.759	0.00031982	0.00027534	7.7498e-05	516.42	2.9935e-06	3.0138e-06	668.18	206.65	3.0504e-06	3.038e-06	285.06	101.92	87.426	50.146	3.0548e-06	60.01	-71.180	-59.336	-69.126	-130.366	24.546	13.147	-132.779	-124.511	-12.813	3.306	-128.241	-123.009	-119.967	-114.000	14.474	-118.634	-8191	255	
1370.046	1	1	0	0	0.051533	0.19777	0.17487	0.17949	0.16711	0.1431	0.079217	0.038715	0.055054	0.20386	0.1721	0.11634	0.19607	0.14171	0.02931	0.28994	-2.6937	-3.15	-3.0292	-2.7271	-3.2792	-2.9562	-2.7313	-3.2396	-2.9646	-3.0312	-3.1479	-2.75	-2.9896	-3.0563	-2.9813	-3.1917	150.277	-26.042	171.580	67.173	69.614	216.671	183.568	-96.638	146.994	77.626	99.623	26.841	-48.590	211.830	177.785	208.261	0.0004661	0.00051362	8.4631e-05	547.32	4.695e-06	4.4189e-06	707.15	217.16	3.1564e-06	5.6049e-06	303.5	107.77	91.505	52.181	6.8941e-06	63.116	0.00032149	0.00027429	7.7084e-05	517.3	3.0584e-06	2.9839e-06	669.6	207.42	3.041e-06	3.0516e-06	286.48	102.74	87.953	50.405	3.0172e-06	60.528	-70.416	-47.728	-68.217	-130.430	44.875	-31.125	-132.714	-124.226	1.395	-15.501	-128.295	-123.130	-119.510	-113.680	-12.671	-118.357	-8191	255	
1370.143	1	1	0	0	0.094872	0.23253	0.11385	0.44921	0.22267	0.32368	0.22845	0.3561	0.060755	0.1066	0.11002	0.068992	0.16402	0.22658	0.19905	0.23444	-2.2146	-2.9958	-3.2042	-2.9583	-2.9896	-2.9625	-2.775	-3.0375	-3.1083	-2.8646	-3.1458	-2.6896	-2.9875	-3.1833	-2.7771	-3.2958	-16.770	-41.776	-56.510	70.845	45.765	-100.780	-25.691	57.125	28.855	104.564	90.340	202.512	214.581	155.406	179.377	159.529	0.00052041	0.00049497	9.6995e-05	549.54	3.2164e-06	8.2025e-06	711.35	217	5.0487e-06	3.4585e-06	301.76	107.72	91.505	52.062	5.0177e-06	63.103	0.00032519	0.0002823	7.6925e-05	519.48	3.0272e-06	2.968e-06	670.72	208.02	3e-06	3.0752e-06	285.45	102.49	88.024	50.311	2.9756e-06	60.2	-76.991	-33.127	-79.169	-130.313	1.566	31.676	-132.838	-124.577	14.369	-6.287	-127.948	-122.954	-119.862	-114.053	-19.060	-118.642	-8191	255	
1370.239	1	1	0	0	0.26686	0.11827	0.33091	0.062021	0.03024	0.15031	0.10769	0.10864	0.29383	0.24278	0.18745	0.11904	0.17423	0.25615	0.27846	0.09881	-2.4792	-2.6604	-3.0417	-2.8708	-3.1188	-3.1771	-2.9896	-3.2625	-2.9833	-2.9896	-3.1188	-2.9417	-3.2729	-3.1771	-2.8979	-3.3771	-80.206	68.043	76.232	147.594	206.864	153.437	212.492	-130.528	-37.515	-114.293	136.333	-100.303	-101.135	160.752	-70.359	139.210	0.00045633	0.00042271	0.00011026	546.21	1.1515e-06	2.1655e-06	704.95	217.49	2.2766e-06	4.7765e-06	302.28	106.93	91.314	52.045	2.5026e-06	63.238	0.00032571	0.0002742	7.6351e-05	517.83	2.9383e-06	2.985e-06	666.65	207.52	3.033e-06	2.9968e-06	285.34	102.06	87.846	50.249	3.0691e-06	60.197	-76.009	-56.408	-93.110	-130.146	134.694	22.102	-132.818	-124.329	29.696	32.402	-127.967	-123.073	-119.880	-113.826	28.766	-118.347	-8191	255	
1370.335	1	1	0	0	0.15375	0.11141	0.15509	0.15813	0.28531	0.11538	0.058426	0.27949	0.23056	0.14672	0.16338	0.10185	0.12704	0.23584	0.086843	0.1621	-2.3708	-2.6937	-3.1354	-2.9688	-3.1354	-3.2	-2.7771	-3.1208	-3.0563	-2.925	-3.4313	-2.9875	-2.9938	-3.0833	-2.8625	-3.1562	146.541	-125.617	51.712	198.970	-29.470	26.407	-60.957	116.830	-101.443	94.561	170.712	72.193	137.105	-134.012	209.834	87.355	0.00048926	0.0003418	0.00014447	549.3	2.6339e-06	3.7279e-06	712.36	218.73	4.1995e-06	5.8983e-06	302.53	107.95	91.85	52.176	6.0923e-06	63.326	0.00032398	0.00028341	7.4169e-05	517.12	2.9968e-06	2.9939e-06	669.82	207.79	3.0699e-06	2.9295e-06	286.46	102.95	88.108	50.475	3.0749e-06	60.651	-73.321	-47.922	-82.746	-130.628	45.946	-39.386	-132.672	-124.287	33.255	-18.097	-128.324	-123.179	-119.280	-113.877	34.113	-118.457	-8191	255	
1370.454	1	1	0	0	0.080864	0.086208	0.088293	0.27555	0.28025	0.27335	0.4059	0.030151	0.067614	0.15525	0.11362	0.084616	0.090594	0.18295	0.1616	0.09388	-2.5021	-2.6604	-3.0854	-3.0146	-2.9437	-3.0146	-2.7958	-3.1083	-3.0563	-2.7875	-3.2062	-2.975	-2.9792	-3.1083	-2.6312	-3.2854	144.930	-134.772	-1.593	178.397	67.571	62.921	158.548	-131.823	39.645	133.211	102.010	83.002	85.186	29.782	138.021	102.197	0.0004965	0.00063015	0.00016054	547.67	3.5744e-06	4.5792e-06	711.73	219.18	4.0843e-06	4.3607e-06	304.03	108.69	92.57	52.51	2.5043e-06	63.993	0.0003281	0.00028059	7.7745e-05	518.15	3.063e-06	3.0085e-06	671.05	208.81	3.0068e-06	3.1158e-06	288.63	103.63	89.001	50.797	3.1813e-06	61.14	-69.778	-35.010	-38.168	-130.307	-7.936	9.087	-132.572	-124.431	9.277	32.489	-128.060	-122.912	-119.638	-113.951	6.696	-118.620	-8191	255	
1370.527	1	1	0	0	0.090354	0.15486	0.17352	0.052076	0.21886	0.29282	0.23099	0.29193	0.11624	0.32972	0.1137	0.20913	0.12245	0.13383	0.26176	0.15714	-2.6146	-2.8479	-3.1521	-2.7229	-2.9271	-3.1896	-3.0542	-2.9729	-2.8542	-2.8021	-3.1188	-2.975	-3.0187	-3.4146	-2.9146	-3.1833	146.901	69.245	-64.249	0.221	103.676	52.529	169.256	127.284	-62.078	82.988	-53.232	73.720	193.494	11.656	111.327	-35.958	0.0005265	0.00059951	0.00019082	550.07	2.3457e-06	3.5458e-06	714.62	219.92	2.9946e-06	2.435e-06	307.22	109.08	92.068	52.84	4.4535e-06	64.697	0.00032687	0.00028321	7.8584e-05	519.46	3.0897e-06	3.0686e-06	674.21	209.56	3.1135e-06	3.0493e-06	289.94	104.08	88.457	50.956	3.1658e-06	61.853	-73.709	-28.651	-32.823	-130.224	-1.487	1.045	-132.632	-124.245	27.535	-1.654	-128.225	-123.018	-119.882	-113.583	44.026	-118.673	-8191	255	
1370.646	1	1	0	0	0.18822	0.20615	0.06073	0.098928	0.0097976	0.23736	0.024939	0.066454	0.076829	0.065258	0.3522	0.21806	0.16372	0.070964	0.18701	0.26507	-2.7188	-2.9896	-3.2	-3.0875	-2.7292	-3.2146	-2.9958	-3.2167	-3.1937	-2.8083	-3.075	-3.1417	-2.8125	-3.1458	-2.8771	-3.0417	-117.826	-26.983	155.462	216.219	105.899	177.656	69.056	208.034	198.827	176.971	214.993	177.987	136.863	-57.788	46.151	197.520	0.00049807	0.0004559	0.00020203	550.28	3.5555e-06	4.645e-06	715.85	219.21	3.2149e-06	4.5424e-06	308.36	110.07	91.253	52.963	6.6678e-06	64.526	0.00031907	0.00027961	7.6863e-05	520.13	2.9755e-06	3.0292e-06	677.3	209.22	3.0056e-06	3.0143e-06	291.26	104.48	88.211	50.955	3.095e-06	61.782	-71.978	-57.964	-50.736	-130.125	18.655	8.928	-132.375	-124.423	57.686	2.653	-128.135	-123.132	-119.997	-114.023	-2.296	-118.395	-8191	255	
1370.742	1	1	0	0	0.1697	0.058241	0.11818	0.22985	0.16795	0.17823	0.17743	0.043976	0.12344	0.2616	0.10033	0.1813	0.072003	0.13099	0.093423	0.14389	-2.6375	-2.8896	-2.8708	-2.9396	-2.7771	-3.1979	-2.9771	-3.1333	-3.1063	-2.9854	-2.9979	-2.9083	-2.7292	-3.15	-2.6813	-2.9917	-106.274	-23.181	83.364	15.042	195.684	113.257	209.989	-89.373	148.311	-31.269	134.976	24.228	41.693	194.791	5.268	148.608	0.00050371	0.00057491	0.00016347	549.25	5.0508e-06	7.1582e-06	715.72	217.37	5.4824e-06	4.8234e-06	304.51	107.56	91.179	52.215	4.1188e-06	63.704	0.00032522	0.00027977	7.7404e-05	519.1	3.0006e-06	3.0707e-06	674.85	207.62	3.0206e-06	3.0074e-06	287.56	102.61	87.393	50.408	3.074e-06	60.861	-70.372	-63.420	-54.455	-130.333	52.646	3.700	-132.792	-124.294	28.005	-15.885	-128.208	-122.925	-119.853	-113.909	6.749	-118.537	-8191	255	
1370.838	1	1	0	0	0.21018	0.28473	0.084634	0.10522	0.10029	0.17419	0.3421	0.22106	0.15286	0.10334	0.16519	0.16893	0.24498	0.098769	0.043527	0.21878	-2.5896	-2.6688	-2.9708	-3.1188	-2.9833	-3.2792	-3.1021	-2.6521	-3.0042	-2.9938	-3.2292	-3.2396	-2.9458	-2.9479	-2.9042	-2.9833	-114.227	126.982	57.167	175.007	-32.104	-104.874	77.643	179.654	192.939	-86.738	206.521	-112.714	188.387	134.744	24.724	136.769	0.00049932	0.0005803	0.0001861	549.04	4.5146e-06	4.3951e-06	713.53	216.37	3.6564e-06	5.2876e-06	302.3	107.47	91.846	52.371	4.764e-06	63.686	0.00032295	0.00027788	7.6021e-05	518.86	2.9806e-06	2.9107e-06	673	207.47	2.9599e-06	2.958e-06	286.73	102.58	87.567	50.431	3.0216e-06	60.667	-74.483	-51.203	-68.190	-130.167	34.257	-17.127	-132.693	-124.444	-13.628	-1.837	-128.147	-122.775	-119.307	-113.851	11.421	-118.730	-8191	255	
1370.935	1	1	0	0	0.19666	0.14742	0.34075	0.073515	0.11046	0.047672	0.10168	0.1177	0.068466	0.19264	0.11765	0.12385	0.020971	0.17208	0.21356	0.11801	-3	-2.9208	-2.7917	-3.0146	-2.6021	-3.0958	-3.0417	-3.0375	-3.1021	-2.8146	-2.9396	-3.2979	-3.075	-3.1521	-2.9208	-2.7625	-133.951	-95.648	95.740	-137.282	184.677	65.654	129.167	99.257	143.588	182.094	14.941	140.128	-128.354	211.990	214.540	-57.650	0.00050216	0.00051875	3.7448e-05	552.96	3.0832e-06	5.9857e-06	710.1	217.51	1.2851e-06	2.1786e-06	303.98	107.92	91.393	52.538	3.5896e-06	64.017	0.00032225	0.00027848	7.4362e-05	520.39	3.019e-06	2.9657e-06	673.15	208.5	2.9807e-06	3.0149e-06	288.19	102.89	88.05	50.617	3.0885e-06	61.044	-74.151	-43.749	-68.215	-130.282	20.620	12.708	-132.660	-124.267	23.825	-34.911	-128.244	-123.216	-119.729	-113.960	31.069	-118.675	-8191	255	
1371.055	1	1	0	0	0.09429	0.072811	0.12838	0.069583	0.19353	0.1731	0.23877	0.17037	0.19266	0.23396	0.23232	0.28051	0.18302	0.29776	0.14714	0.1762	-2.8125	-2.7854	-3.0229	-3.3958	-2.6896	-2.9979	-3.0833	-2.9979	-3.3083	-2.9958	-2.9833	-3.1042	-2.7812	-2.8854	-2.9313	-2.8771	156.632	64.878	27.589	170.912	128.641	-36.528	143.795	176.450	199.364	-65.668	-40.045	-48.694	186.808	-105.639	-116.761	37.245	0.00048524	0.00039268	0.0001113	547.31	3.1804e-06	3.641e-06	715.71	218.4	6.0561e-06	7.5854e-06	306.74	108.84	92.012	52.798	4.9512e-06	64.103	0.00032401	0.00027205	7.8664e-05	520.04	2.9838e-06	3.0047e-06	674.85	208.54	3.0457e-06	2.9791e-06	289.59	103.84	88.378	50.805	3.104e-06	61.256	-74.870	-53.357	-24.707	-130.207	35.882	4.720	-132.798	-124.348	16.192	4.680	-128.193	-122.992	-119.737	-113.621	-44.446	-118.383	-8191	255	
1371.127	1	1	0	0	0.15166	0.26798	0.16458	0.053519	0.18232	0.1959	0.18462	0.36618	0.1809	0.1077	0.25899	0.21363	0.14945	0.15093	0.37553	0.33933	-2.6333	-2.8521	-2.9083	-3.0833	-2.8833	-3.0229	-3.2625	-2.9208	-3.0167	-2.9271	-2.8146	-3.2021	-2.9229	-3.0271	-3.2562	-2.9792	-26.243	-37.519	-23.856	-7.956	-106.790	19.477	169.023	138.296	127.814	-64.976	200.992	120.238	-75.840	142.023	72.163	202.427	0.0005072	0.00053012	0.00010492	549.5	4.1798e-06	3.792e-06	718.11	219.05	3.0828e-06	2.9504e-06	305.73	108.05	91.998	52.225	5.455e-06	63.62	0.0003241	0.00027222	7.7771e-05	520.23	3.0254e-06	3.11e-06	675.83	208.98	3.0717e-06	2.9552e-06	288.93	103.27	88.123	50.578	3.0528e-06	60.725	-70.785	-40.017	-48.724	-130.613	24.812	-39.872	-132.657	-124.315	51.808	-23.832	-128.389	-122.875	-119.902	-114.137	-18.680	-118.513	-8191	255	
1371.223	1	1	0	0	0.25636	0.19246	0.15318	0.12248	0.077257	0.12825	0.15142	0.10647	0.20964	0.099217	0.16676	0.059963	0.071864	0.25833	0.059734	0.19373	-2.7083	-2.8792	-2.8146	-3.2	-3.0583	-2.8083	-3	-2.8063	-3.0563	-2.9938	-2.8187	-3.0958	-2.8479	-2.9417	-3.0979	-2.9708	-111.158	148.173	-59.817	-118.777	-136.369	-2.976	70.299	167.660	106.931	-91.513	-47.848	201.530	-42.398	199.496	184.282	98.840	0.00046491	0.00054058	0.00013499	549.04	4.4685e-06	5.4523e-06	710.29	218.58	4.8455e-06	5.996e-06	301.42	106.99	90.791	52.085	7.7548e-06	62.66	0.00032163	0.00028612	7.6631e-05	519.34	3.0168e-06	3.0432e-06	671.07	207.74	3.085e-06	3.0818e-06	285.17	101.82	87.39	50.177	3.0667e-06	59.721	-74.601	-60.927	-44.317	-130.235	28.417	22.048	-132.964	-124.340	49.917	-13.122	-128.522	-123.245	-119.382	-113.881	-13.833	-118.561	-8191	255	
1371.319	1	1	0	0	0.4134	0.072095	0.088645	0.26105	0.33044	0.064454	0.043206	0.10251	0.090411	0.072825	0.28825	0.2139	0.32434	0.18082	0.11592	0.084141	-2.6208	-2.8917	-2.6708	-2.925	-2.9917	-2.8896	-3.3312	-2.8542	-3.0271	-2.8729	-2.7896	-3.175	-3.0646	-3.2313	-3.1854	-3.1063	148.800	-45.323	204.891	177.995	78.555	56.158	119.428	110.640	155.967	107.733	-86.883	-132.635	203.556	-115.353	-19.064	-21.054	0.00048908	0.00037322	8.7615e-05	551.44	4.4779e-06	5.8584e-06	710.07	217.6	3.7229e-06	2.9107e-06	300.9	107.22	90.958	51.972	5.7435e-06	62.76	0.00032377	0.00027827	7.7059e-05	519.69	2.9961e-06	3.0202e-06	669.13	207.21	3.0072e-06	3.0607e-06	284.85	101.94	87.596	50.183	3.0587e-06	59.859	-77.864	-68.240	-85.556	-130.490	61.372	10.674	-132.736	-124.361	-8.490	17.494	-128.271	-122.985	-119.940	-113.689	43.445	-118.560	-8191	255	
1371.438	1	1	0	0	0.22577	0.22833	0.18054	0.20842	0.17277	0.06906	0.057383	0.12953	0.19551	0.082069	0.23574	0.38014	0.1505	0.095014	0.079119	0.044704	-2.6708	-2.9229	-2.625	-3.0187	-2.8979	-2.9396	-3.3875	-2.9437	-2.7229	-3.1562	-2.7521	-3.2542	-3.0104	-2.8708	-3.2	-3.1229	-56.112	58.307	48.447	-95.594	-29.589	131.373	-90.424	61.487	2.222	34.549	118.087	151.991	164.480	7.203	209.621	-98.388	0.00045394	0.00034078	0.00020802	550.33	3.7682e-06	7.4513e-06	711.82	217.72	5.3263e-06	4.2368e-06	300.39	107.71	91.562	52.031	3.56e-06	63.389	0.00032378	0.00028498	7.9713e-05	519.72	3.1276e-06	3.0993e-06	671.53	207.46	3.0004e-06	3.0629e-06	284.6	102.57	87.927	50.239	3.0906e-06	60.335	-70.898	-27.271	-43.662	-130.317	-18.975	35.206	-132.792	-124.264	7.381	-25.436	-128.398	-122.892	-119.932	-113.893	12.049	-118.381	-8191	255	
1371.534	1	1	0	0	0.32106	0.1244	0.078922	0.37159	0.030417	0.21906	0.23487	0.19916	0.14033	0.24359	0.085161	0.17052	0.13262	0.17096	0.11956	0.24253	-2.3979	-2.8875	-2.6125	-3.2167	-3.1271	-2.9625	-3.0646	-2.675	-3.0042	-3.2354	-2.9854	-3.0875	-2.8229	-2.9354	-3.2167	-3.0771	57.109	-75.709	68.860	98.195	67.066	123.954	-112.789	94.816	-93.817	-20.098	179.844	8.351	-108.970	156.880	1.174	161.790	0.00047948	0.00039029	0.00013999	551.89	3.9924e-06	4.4578e-06	710.91	216.21	5.2616e-06	7.0196e-06	300.28	106.88	91.13	51.79	5.8245e-06	62.508	0.00032221	0.00028656	7.8773e-05	521.23	3.0691e-06	3.082e-06	672.8	207.37	3.0436e-06	3.0956e-06	285.03	102.15	87.569	50.074	3.0768e-06	59.667	-73.387	-58.920	-30.095	-130.456	-1.311	39.418	-132.808	-124.688	15.988	42.168	-128.174	-123.477	-119.486	-113.738	-15.243	-118.357	-8191	255	
1371.630	1	1	0	0	0.20018	0.074517	0.14962	0.17379	0.11816	0.089076	0.036124	0.17824	0.098494	0.16671	0.44464	0.085098	0.13335	0.099969	0.059334	0.19938	-2.4771	-2.9979	-2.6937	-3.0187	-2.9875	-2.7667	-3.2938	-3.1146	-2.8208	-3.175	-2.8146	-2.9979	-3.0708	-2.9958	-3.1937	-2.9417	-70.421	-55.255	203.761	-49.907	-100.947	-104.377	36.266	139.971	191.387	-25.956	131.910	-110.098	200.826	-58.542	-69.428	101.251	0.00049426	0.00050842	0.0001836	552.24	3.5512e-06	4.8041e-06	713.15	215.38	2.4269e-06	3.8943e-06	299.96	106.63	91.553	51.703	6.8642e-06	62.472	0.00032375	0.00028054	7.8595e-05	520.5	3.1141e-06	3.1714e-06	669.03	206.49	3.0981e-06	3.1289e-06	283.61	101.88	88.091	50.04	3.1583e-06	59.446	-74.997	-52.229	-27.214	-130.471	28.459	5.146	-132.589	-124.389	5.119	-7.471	-128.125	-122.969	-119.826	-113.681	6.612	-119.012	-8191	255	
1371.751	1	1	0	0	0.27402	0.19378	0.11472	0.090856	0.20313	0.16115	0.28589	0.14017	0.11636	0.22847	0.067794	0.23181	0.27922	0.30347	0.10225	0.046726	-2.4562	-2.8667	-2.8396	-2.9313	-3.0417	-2.7812	-3.1583	-3.2146	-2.9708	-3.2208	-2.825	-2.9021	-3.1792	-2.8167	-3.1958	-3.175	54.630	101.573	7.636	37.955	181.897	-81.316	-117.888	-132.459	-47.708	28.265	194.906	180.800	207.735	197.477	30.174	37.211	0.0005067	0.0005409	9.4304e-05	550.6	2.5731e-06	3.9036e-06	710.86	217.65	3.933e-06	1.9541e-06	299.71	107.29	92.347	51.868	5.3856e-06	62.638	0.0003271	0.00028376	7.8714e-05	520.31	3.0526e-06	3.0641e-06	669.87	207.63	3.0456e-06	3.0553e-06	285.07	102.49	88.602	50.166	3.248e-06	59.794	-73.770	-46.771	-40.515	-130.438	18.845	53.794	-132.878	-124.397	32.327	42.432	-128.034	-122.919	-120.169	-113.899	67.032	-118.818	-8191	255	
1371.823	1	1	0	0	0.093871	0.061455	0.17627	0.12238	0.25199	0.36439	0.2275	0.23001	0.21813	0.21119	0.088401	0.098927	0.38849	0.41576	0.1808	0.13861	-2.3229	-3.1458	-2.8417	-2.7167	-2.8583	-2.9583	-3.225	-3.1396	-3.0062	-3.0125	-2.8	-3.0875	-3.0729	-2.8	-3.0833	-2.9896	-87.978	179.121	112.812	-34.522	-17.891	67.356	165.708	78.474	20.027	44.302	-140.801	192.243	-130.852	-97.007	70.167	-124.043	0.00049553	0.00036078	0.00013775	548.53	4.2395e-06	6.2256e-06	712.18	218.33	3.7813e-06	7.7664e-06	303.25	107.98	92.301	52.228	7.0128e-06	63.477	0.00032282	0.00027944	7.9916e-05	521	3.1386e-06	3.1241e-06	671.24	208.35	3.1809e-06	3.1008e-06	286.36	103.27	88.609	50.364	3.1406e-06	60.406	-71.307	-28.653	-54.691	-130.075	29.431	22.946	-132.769	-124.541	34.063	4.253	-128.151	-123.386	-119.826	-113.903	28.514	-118.670	-8191	255	
1371.919	1	1	0	0	0.022743	0.1881	0.055206	0.15508	0.13776	0.4814	0.32552	0.061666	0.097163	0.072602	0.040218	0.16495	0.15133	0.11951	0.22642	0.24225	-2.2125	-3.0521	-2.8187	-2.9021	-3.1521	-2.7104	-2.9688	-3.0792	-2.925	-3.1521	-2.9458	-2.9	-2.9729	-2.7333	-3.0458	-3.1188	136.253	-117.446	97.335	44.440	119.104	185.065	-8.814	176.183	26.603	79.160	-59.864	-85.017	186.038	-126.779	-31.009	-142.290	0.00051339	0.0005434	6.4765e-05	550.98	5.4957e-06	7.311e-06	712.13	218.93	4.4178e-06	7.5537e-06	303.67	109.1	92.533	52.534	4.5397e-06	63.485	0.00033433	0.00028777	7.7967e-05	522.2	3.0674e-06	3.1535e-06	672.98	209.01	3.0507e-06	3.0898e-06	287.68	104.07	89.065	50.613	3.1309e-06	60.857	-72.734	-80.453	-48.122	-130.787	32.122	5.458	-132.698	-124.348	44.647	2.499	-128.030	-123.157	-119.649	-113.723	18.779	-118.523	-8191	255	
1372.015	1	1	0	0	0.26154	0.12941	0.085778	0.12626	0.17504	0.13662	0.10167	0.091025	0.059872	0.065182	0.21442	0.32577	0.22384	0.095767	0.033792	0.16059	-2.4437	-3.1479	-2.8167	-2.8021	-3.0729	-2.8063	-3.2	-3.3396	-2.7188	-3.0396	-2.9042	-2.8771	-3.3708	-2.8854	-2.8708	-3.3396	-118.644	80.392	69.370	100.277	46.938	-115.640	-67.514	66.507	-77.405	27.496	-123.557	120.134	-41.126	-113.599	-9.798	181.443	0.00049457	0.00049104	0.00019601	552.44	3.6976e-06	4.6019e-06	718.26	218.98	4.3317e-06	3.6946e-06	305.42	108.63	92.362	52.491	3.3661e-06	63.399	0.00032669	0.00027916	7.9528e-05	522.59	3.0755e-06	3.0892e-06	676.16	209.23	3.1341e-06	3.1102e-06	287.75	104.02	89.192	50.59	3.2244e-06	60.51	-74.314	-67.083	-51.068	-130.594	-2.785	24.510	-132.323	-124.473	20.886	-13.798	-127.960	-123.026	-119.949	-113.900	-2.524	-118.615	-8191	255	
1372.134	1	1	0	0	0.075114	0.16912	0.11657	0.2364	0.25336	0.060248	0.15645	0.22308	0.2973	0.18033	0.15068	0.24403	0.36971	0.17864	0.27299	0.20935	-2.4146	-3.2938	-2.9625	-2.8021	-3.0021	-2.8688	-2.8958	-3.2708	-2.8458	-3.15	-3.0062	-2.6479	-3.0583	-3.1854	-2.8167	-3.0271	109.716	192.799	14.443	161.976	51.799	-64.936	-69.185	111.704	207.114	73.170	-91.650	-127.052	-141.654	199.354	15.658	-28.857	0.00049788	0.00060341	0.00010081	552.28	4.0404e-06	3.9355e-06	710.95	217.23	1.7099e-06	4.2901e-06	301.53	107.53	92.334	51.893	5.057e-06	62.396	0.00033225	0.00027955	7.8656e-05	522.59	3.0612e-06	3.1232e-06	669.54	208.11	3.1215e-06	3.0763e-06	284.45	102.44	88.361	50.094	3.1322e-06	59.494	-75.178	-46.191	-42.989	-130.193	18.456	-1.521	-132.818	-124.591	29.938	22.987	-128.153	-123.210	-119.548	-113.818	33.521	-118.505	-8191	255	
1372.230	1	1	0	0	0.069699	0.23123	0.18768	0.3186	0.24053	0.17253	0.25261	0.23028	0.12246	0.23372	0.093628	0.21585	0.26816	0.11601	0.032307	0.052282	-2.2917	-3.0125	-3.0542	-2.8646	-3.05	-2.7583	-2.9375	-3.0229	-2.6667	-2.9354	-3.2417	-2.8833	-3.0625	-2.8042	-2.8646	-3.2729	40.427	-45.706	-137.004	161.225	209.012	216.358	159.242	92.310	-62.187	-33.923	1.115	122.512	208.251	188.853	-108.918	-89.269	0.00044512	0.00034189	0.0001765	555.19	3.4085e-06	7.6474e-06	708.63	218.42	3.6638e-06	5.599e-06	300.7	106.85	92.189	51.799	4.7912e-06	62.238	0.00032398	0.00027025	7.6845e-05	522.49	2.9842e-06	3.0046e-06	669.57	208.07	3.1168e-06	3.0429e-06	284.16	102.11	88.388	49.976	3.1721e-06	59.463	-72.138	-35.097	-64.512	-130.069	47.107	38.830	-132.754	-124.197	6.937	22.624	-128.322	-123.029	-119.774	-114.073	11.818	-118.610	-8191	255	
1372.326	1	1	0	0	0.40541	0.052152	0.25166	0.12745	0.18676	0.11569	0.033758	0.052909	0.12022	0.015264	0.11741	0.05446	0.215	0.17752	0.06693	0.091412	-2.3854	-2.8688	-3.0396	-2.8208	-2.8187	-2.9875	-2.8271	-3.2021	-2.9896	-3.0312	-3.2708	-2.7938	-3.3208	-3.1542	-2.7667	-3.1771	147.741	-28.882	9.814	132.004	98.600	-18.846	129.506	-134.724	164.794	-33.720	160.975	2.976	139.699	157.687	-43.736	59.006	0.00048861	0.00017272	6.0412e-05	553.18	2.6607e-06	3.0846e-06	709.57	219.16	4.0136e-06	3.8478e-06	300.28	108.21	92.897	52.295	5.5927e-06	62.539	0.00032856	0.00028347	8.0526e-05	523.12	3.0606e-06	3.0924e-06	667.25	208.7	3.09e-06	3.086e-06	284.89	103.21	89.231	50.262	3.25e-06	59.739	-74.435	-29.954	-47.812	-130.190	46.471	-10.314	-132.596	-124.305	24.172	23.430	-128.250	-123.015	-119.751	-113.814	10.486	-118.345	-8191	255	
1372.422	1	1	0	0	0.33361	0.089696	0.058943	0.20796	0.095721	0.23125	0.18599	0.36155	0.16376	0.23072	0.16279	0.17785	0.17652	0.15139	0.18267	0.24012	-2.5208	-2.8021	-3.1208	-2.8438	-3.0875	-3.1771	-3.0125	-3.3854	-2.8729	-2.9188	-3.0771	-2.9854	-3.1917	-3.1813	-2.9146	-3.0542	154.111	-103.374	189.207	10.685	-90.927	67.341	-134.060	198.073	59.167	171.095	203.644	112.174	153.737	178.208	198.132	212.024	0.00049267	0.00046984	0.00011603	553.71	4.2141e-06	4.9143e-06	706.4	218.75	4.0688e-06	6.7015e-06	303.26	109.71	93.059	52.524	2.9126e-06	63.427	0.00033113	0.00029221	8.0838e-05	523.66	3.0725e-06	3.1986e-06	669.47	208.8	3.1201e-06	3.1647e-06	287.07	104.35	89.603	50.588	3.1893e-06	60.568	-68.938	-53.352	-68.665	-130.101	21.204	-19.614	-132.527	-124.606	-6.812	8.294	-127.952	-123.240	-119.841	-113.882	-8.930	-118.716	-8191	255	
1372.518	1	1	0	0	0.2781	0.10525	0.15319	0.2742	0.089539	0.1296	0.25959	0.16338	0.18667	0.18288	0.16153	0.22701	0.13012	0.095459	0.18783	0.25079	-2.5312	-2.95	-3.0542	-2.8438	-2.9417	-3	-2.8583	-3.1271	-3.0104	-2.7438	-3.1542	-2.7458	-2.8875	-3.1604	-3.0271	-3.2333	-50.250	70.289	127.669	179.904	135.798	-19.781	-75.079	133.154	89.800	113.274	-78.796	-57.256	150.859	-9.598	23.476	107.138	0.00045674	0.00059533	9.9812e-05	554.45	2.9528e-06	6.8276e-06	709.72	219.43	2.2299e-06	3.3673e-06	301.98	108.23	93.068	52.216	5.6311e-06	62.913	0.00033761	0.00029731	8.1219e-05	523.17	3.0021e-06	3.11e-06	670.61	209.42	3.1878e-06	3.2313e-06	286.68	103.56	89.359	50.419	3.2205e-06	59.911	-75.773	-35.310	-30.022	-130.302	69.165	-19.010	-132.711	-124.120	32.732	32.104	-128.084	-123.199	-119.729	-113.724	47.742	-118.758	-8191	255	
1372.615	1	1	0	0	0.17892	0.13739	0.19313	0.35041	0.010575	0.18602	0.21466	0.18427	0.093656	0.31003	0.24498	0.079388	0.16875	0.36595	0.045264	0.39574	-2.4167	-2.5792	-2.8167	-3.0542	-2.9271	-3.3833	-2.9	-3.0438	-2.8312	-2.7938	-3.0729	-3.0896	-3.0417	-3.2771	-3.0125	-2.9896	-11.691	-120.367	9.288	96.750	131.934	-88.053	76.926	209.696	120.729	-4.411	140.526	52.227	105.453	-134.972	-125.274	79.942	0.00046385	0.00044454	0.00010981	554.46	7.7402e-06	2.3286e-06	708.75	219.07	2.8896e-06	1.6723e-06	299.99	107.51	92.431	51.969	2.7341e-06	62.423	0.00033243	0.00029667	8.0061e-05	523.41	3.2096e-06	3.2046e-06	669.34	208.76	3.1582e-06	3.1968e-06	284.26	102.53	88.72	50.171	3.1755e-06	59.589	-75.310	-65.481	-32.948	-130.274	41.215	-20.212	-132.558	-124.363	30.624	-2.560	-128.142	-123.079	-120.157	-113.758	-16.277	-118.453	-8191	255	
1372.735	1	1	0	0	0.38231	0.13967	0.14787	0.22017	0.25547	0.12185	0.079237	0.23505	0.26122	0.14776	0.22365	0.39683	0.17198	0.058587	0.23327	0.0534	-2.6854	-2.6458	-3.0146	-3.0146	-2.9021	-3.2604	-2.8375	-3.0979	-3.3063	-2.9083	-3.2417	-3.1479	-2.6625	-3.1292	-2.6333	-2.9854	97.445	-44.211	-129.828	-94.056	-65.259	-38.805	-21.084	168.917	30.970	-38.474	183.885	159.135	44.678	171.674	92.524	-99.193	0.00051724	0.00058296	9.758e-05	556.04	2.3872e-06	6.7796e-06	708.72	219.06	2.306e-06	3.1731e-06	302.27	108.1	92.664	51.966	5.1089e-06	62.78	0.00032494	0.00028259	7.7945e-05	523.92	3.1104e-06	3.0472e-06	669.94	208.71	3.24e-06	3.1502e-06	285.38	102.79	89.113	50.241	3.1569e-06	59.939	-71.406	-63.495	-76.100	-130.379	26.031	44.174	-132.817	-124.266	23.317	31.473	-128.296	-123.319	-119.681	-113.763	-17.940	-118.379	-8191	255	
1372.830	1	1	0	0	0.19941	0.18838	0.11773	0.13161	0.21623	0.11219	0.2566	0.12531	0.21226	0.24087	0.39785	0.086413	0.15397	0.18138	0.12926	0.30781	-2.7146	-2.7646	-3.025	-2.8958	-2.5854	-3.0125	-2.9354	-2.9708	-3.1042	-2.9313	-3.1979	-3.1625	-2.8042	-3.2042	-2.8854	-2.8792	66.353	-27.513	-37.064	79.789	-137.505	21.783	141.721	26.360	133.846	130.393	181.350	209.818	-131.372	153.852	172.289	150.816	0.00048171	0.00036668	0.00016608	557.15	1.043e-06	6.0261e-06	709.67	218.1	2.1421e-06	4.8171e-06	301.28	108.25	92.88	52.142	5.875e-06	63.083	0.00033231	0.00028548	7.8126e-05	525.15	3.1323e-06	3.1391e-06	670.38	208.84	3.1057e-06	3.1538e-06	285.79	103.28	89.067	50.393	3.1352e-06	60.341	-75.825	-55.830	-24.346	-130.328	194.042	-0.342	-132.545	-124.173	29.390	-14.950	-128.109	-123.039	-119.757	-113.984	-12.233	-118.652	-8191	255	
1372.926	1	1	0	0	0.098485	0.13298	0.13103	0.1919	0.23821	0.12999	0.23947	0.10525	0.093907	0.099788	0.059451	0.21799	0.17086	0.13565	0.32092	0.13301	-2.7875	-2.6854	-3.1229	-2.8917	-2.9271	-3.3438	-3.0896	-2.9833	-3.2417	-2.9979	-3.0938	-3.1292	-2.8271	-3.075	-2.9958	-2.8875	91.623	167.173	185.758	-131.077	46.698	69.963	101.896	39.365	-114.821	122.775	27.663	-110.608	-58.765	-64.778	169.875	-87.580	0.00045517	0.0005332	0.00016143	556.5	3.0673e-06	5.7729e-06	716.04	219.14	3.1552e-06	2.2038e-06	305.1	109.55	93.139	52.12	3.1659e-06	63.175	0.00032585	0.00028995	7.8359e-05	524.23	3.1007e-06	3.0348e-06	671.23	209.32	3.1448e-06	3.166e-06	286.99	104.05	89.434	50.343	3.2546e-06	60.19	-73.322	-47.662	-50.062	-130.468	24.228	1.300	-132.641	-124.300	-35.696	-42.277	-127.955	-123.109	-119.541	-113.700	-31.032	-118.395	-8191	255	
1373.022	1	1	0	0	0.26082	0.19097	0.097942	0.055396	0.074322	0.062871	0.12612	0.041541	0.20211	0.098441	0.26668	0.33445	0.17367	0.21467	0.11912	0.59144	-2.6042	-2.7083	-2.9042	-2.9333	-2.7542	-3.0521	-2.775	-2.8604	-2.9979	-2.7479	-2.9688	-2.9958	-2.8271	-2.9042	-2.9896	-2.775	209.044	-89.538	-70.176	64.757	114.584	185.592	143.487	170.577	-125.047	-131.555	200.088	165.123	116.596	213.870	161.531	177.934	0.00046222	0.00026186	0.00018836	554.73	4.0547e-06	5.5302e-06	711.66	217.98	3.5622e-06	5.4673e-06	298.33	107.6	92.509	51.91	6.2809e-06	61.831	0.00033111	0.00028985	7.9633e-05	524.39	3.1463e-06	3.0985e-06	668.42	208.49	3.2094e-06	3.1599e-06	282.92	102.45	88.475	49.966	3.2186e-06	59.111	-72.498	-100.752	-65.437	-130.360	36.803	39.802	-132.730	-124.441	12.732	2.898	-128.235	-123.168	-119.684	-113.696	30.908	-118.519	-8191	255	
#DATA ENDS
