BOXY.EXE: ISS Imagent and Oximeter Data Acquisition Program Version 0.80
Ascii Record File

#ACQ INFORMATION
2  Detector Channels 
16  External MUX Channels 
1  Auxiliary Channels 
5000  Waveform (CCF) Frequency (Hz)
1  Waveforms Skipped 
30  Waveforms Averaged 
1  Cycles Averaged 
16  Acquisitions per Waveform 
10.0806  Updata Rate (Hz) 

#FILE INFORMATION
TRUE -- External MUX Channel results are PARSED.
FALSE -- AC DC and Phase are NOT grouped.
TRUE -- Companion Program Settings File CREATED.
FALSE -- AC data not excluded
FALSE -- DC data not excluded
FALSE -- Phase data not excluded
FALSE -- Auxillary Chn. data not excluded
Tab delimiters

#CALIBRATION STATE
TRUE -- Waveform Calibration Values APPLIED.


#AUX CALIBRATION VALUES
Val Type	aux-1	

Term	1.0000e+00	
Factor	0.0000e+00	


#WF CALIBRATION VALUES
A = Detector Channel
Val Type	A-AC1	A-AC2	A-AC3	A-AC4	A-AC5	A-AC6	A-AC7	A-AC8	A-AC9	A-AC10	A-AC11	A-AC12	A-AC13	A-AC14	A-AC15	A-AC16	A-DC1	A-DC2	A-DC3	A-DC4	A-DC5	A-DC6	A-DC7	A-DC8	A-DC9	A-DC10	A-DC11	A-DC12	A-DC13	A-DC14	A-DC15	A-DC16	A-Ph1	A-Ph2	A-Ph3	A-Ph4	A-Ph5	A-Ph6	A-Ph7	A-Ph8	A-Ph9	A-Ph10	A-Ph11	A-Ph12	A-Ph13	A-Ph14	A-Ph15	A-Ph16	

Term	0.00000e+00	0.00000e+00	0.00000e+00	0.00000e+00	0.00000e+00	0.00000e+00	0.00000e+00	0.00000e+00	0.00000e+00	0.00000e+00	0.00000e+00	0.00000e+00	0.00000e+00	0.00000e+00	0.00000e+00	0.00000e+00	0.00000e+00	0.00000e+00	0.00000e+00	0.00000e+00	0.00000e+00	0.00000e+00	0.00000e+00	0.00000e+00	0.00000e+00	0.00000e+00	0.00000e+00	0.00000e+00	0.00000e+00	0.00000e+00	0.00000e+00	0.00000e+00	0.00000e+00	0.00000e+00	0.00000e+00	0.00000e+00	0.00000e+00	0.00000e+00	0.00000e+00	0.00000e+00	0.00000e+00	0.00000e+00	0.00000e+00	0.00000e+00	0.00000e+00	0.00000e+00	0.00000e+00	0.00000e+00	
Factor	1.00000e+00	1.00000e+00	1.00000e+00	1.00000e+00	1.00000e+00	1.00000e+00	1.00000e+00	1.00000e+00	1.00000e+00	1.00000e+00	1.00000e+00	1.00000e+00	1.00000e+00	1.00000e+00	1.00000e+00	1.00000e+00	1.00000e+00	1.00000e+00	1.00000e+00	1.00000e+00	1.00000e+00	1.00000e+00	1.00000e+00	1.00000e+00	1.00000e+00	1.00000e+00	1.00000e+00	1.00000e+00	1.00000e+00	1.00000e+00	1.00000e+00	1.00000e+00	X	X	X	X	X	X	X	X	X	X	X	X	X	X	X	X	

B = Detector Channel
Val Type	B-AC1	B-AC2	B-AC3	B-AC4	B-AC5	B-AC6	B-AC7	B-AC8	B-AC9	B-AC10	B-AC11	B-AC12	B-AC13	B-AC14	B-AC15	B-AC16	B-DC1	B-DC2	B-DC3	B-DC4	B-DC5	B-DC6	B-DC7	B-DC8	B-DC9	B-DC10	B-DC11	B-DC12	B-DC13	B-DC14	B-DC15	B-DC16	B-Ph1	B-Ph2	B-Ph3	B-Ph4	B-Ph5	B-Ph6	B-Ph7	B-Ph8	B-Ph9	B-Ph10	B-Ph11	B-Ph12	B-Ph13	B-Ph14	B-Ph15	B-Ph16	

Term	0.00000e+00	0.00000e+00	0.00000e+00	0.00000e+00	0.00000e+00	0.00000e+00	0.00000e+00	0.00000e+00	0.00000e+00	0.00000e+00	0.00000e+00	0.00000e+00	0.00000e+00	0.00000e+00	0.00000e+00	0.00000e+00	0.00000e+00	0.00000e+00	0.00000e+00	0.00000e+00	0.00000e+00	0.00000e+00	0.00000e+00	0.00000e+00	0.00000e+00	0.00000e+00	0.00000e+00	0.00000e+00	0.00000e+00	0.00000e+00	0.00000e+00	0.00000e+00	-4.24325e+01	-1.27480e+02	-1.29113e+02	-1.83247e+02	-3.31036e+01	-6.42020e+01	-1.56812e+02	-1.62015e+02	-3.27297e+01	-6.89849e+01	-1.75831e+02	-1.71950e+02	-1.80238e+02	-1.77035e+02	-4.28051e+01	-1.49655e+02	
Factor	2.34302e-05	1.84395e-04	5.28880e-05	1.78417e-01	1.82338e-06	2.35056e-06	2.06794e-01	6.19505e-02	1.44642e-06	2.13698e-06	1.21363e-01	3.46114e-02	3.06045e-02	1.06869e-02	2.17603e-06	1.56232e-02	5.23884e-06	6.25852e-06	1.74260e-06	8.57108e-02	6.65713e-08	6.86765e-08	9.29982e-02	2.98139e-02	6.64213e-08	6.86137e-08	5.63353e-02	1.61712e-02	1.48215e-02	5.17988e-03	6.74619e-08	7.31005e-03	X	X	X	X	X	X	X	X	X	X	X	X	X	X	X	X	



#DISTANCE SETTINGS
A = Detector Channel
A-1	A-2	A-3	A-4	A-5	A-6	A-7	A-8	A-9	A-10	A-11	A-12	A-13	A-14	A-15	A-16	

2.5000e+00	3.0000e+00	2.5000e+00	3.0000e+00	2.0000e+00	3.0000e+00	1.5000e+00	3.0000e+00	3.0000e+00	3.0000e+00	3.0000e+00	3.0000e+00	3.0000e+00	3.0000e+00	1.5000e+00	3.0000e+00	

B = Detector Channel
B-1	B-2	B-3	B-4	B-5	B-6	B-7	B-8	B-9	B-10	B-11	B-12	B-13	B-14	B-15	B-16	

1.0000e+01	1.0000e+01	1.0000e+01	1.4400e+00	1.0000e+01	1.0000e+01	1.5100e+00	1.9400e+00	1.0000e+01	1.0000e+01	1.9900e+00	2.4900e+00	2.4100e+00	2.9000e+00	1.0000e+01	2.9800e+00	




#DATA BEGINS
time	group	step	mark	flag	A-AC1	A-AC2	A-AC3	A-AC4	A-AC5	A-AC6	A-AC7	A-AC8	A-AC9	A-AC10	A-AC11	A-AC12	A-AC13	A-AC14	A-AC15	A-AC16	A-DC1	A-DC2	A-DC3	A-DC4	A-DC5	A-DC6	A-DC7	A-DC8	A-DC9	A-DC10	A-DC11	A-DC12	A-DC13	A-DC14	A-DC15	A-DC16	A-Ph1	A-Ph2	A-Ph3	A-Ph4	A-Ph5	A-Ph6	A-Ph7	A-Ph8	A-Ph9	A-Ph10	A-Ph11	A-Ph12	A-Ph13	A-Ph14	A-Ph15	A-Ph16	B-AC1	B-AC2	B-AC3	B-AC4	B-AC5	B-AC6	B-AC7	B-AC8	B-AC9	B-AC10	B-AC11	B-AC12	B-AC13	B-AC14	B-AC15	B-AC16	B-DC1	B-DC2	B-DC3	B-DC4	B-DC5	B-DC6	B-DC7	B-DC8	B-DC9	B-DC10	B-DC11	B-DC12	B-DC13	B-DC14	B-DC15	B-DC16	B-Ph1	B-Ph2	B-Ph3	B-Ph4	B-Ph5	B-Ph6	B-Ph7	B-Ph8	B-Ph9	B-Ph10	B-Ph11	B-Ph12	B-Ph13	B-Ph14	B-Ph15	B-Ph16	aux-1	digaux	

1710.743	1	1	0	256	0.24954	0.21184	0.077641	0.045793	0.096031	0.18642	0.25582	0.16361	0.11284	0.28937	0.2455	0.18927	0.17795	0.019481	0.10406	0.28851	-2.7542	-2.975	-2.9396	-2.9917	-2.9917	-3.0646	-3.1896	-2.9771	-3.0938	-2.8729	-2.8229	-3.3812	-2.7021	-3.1625	-2.9688	-2.8333	154.460	427.787	198.099	440.435	401.745	444.211	377.505	345.077	315.516	414.587	368.409	384.414	442.701	427.028	240.115	378.067	0.00086319	0.0010423	0.0002884	496.21	1.0409e-05	9.7567e-06	590.07	235.79	7.2255e-06	7.5586e-06	298.34	147.4	117.95	64.236	9.6319e-06	77.398	0.0027294	0.0030739	0.00086662	542.79	3.2844e-05	3.3669e-05	638.25	254.96	3.2842e-05	3.3889e-05	329.83	157.81	127.15	68.987	3.4152e-05	82.562	260.379	181.569	213.041	112.063	373.896	209.242	109.860	117.339	216.733	238.917	113.727	118.207	120.997	125.136	293.597	120.993	-8191	255	
1710.864	1	1	0	0	0.099184	0.081183	0.064185	0.38065	0.29113	0.28274	0.072718	0.24833	0.18012	0.20637	0.1424	0.21239	0.048857	0.15078	0.094336	0.38275	-2.6271	-2.9021	-2.8563	-3.0854	-2.9521	-3.0438	-3.2729	-2.9854	-3.0625	-2.9417	-3.1	-3.1875	-2.9042	-3.1125	-3.0854	-2.8667	280.051	185.883	357.681	349.072	177.685	305.100	399.498	243.515	337.469	362.648	119.452	405.426	422.264	388.170	169.361	391.508	0.00090597	0.00021902	0.00021692	495.03	7.7319e-06	7.569e-06	590.43	236.85	7.2739e-06	6.0299e-06	299.43	147.91	117.73	63.944	5.092e-06	76.75	0.0027579	0.0031371	0.00087898	543.73	3.3281e-05	3.4403e-05	641.43	256.14	3.3463e-05	3.4482e-05	331.99	158.07	127.12	68.785	3.4523e-05	82.039	259.931	253.759	234.545	112.026	239.085	212.112	110.100	117.536	264.969	144.801	113.873	118.306	121.098	125.035	300.848	121.102	-8191	255	
1710.960	1	1	0	0	0.19773	0.13734	0.19269	0.066701	0.13167	0.34131	0.095326	0.12887	0.0363	0.093031	0.18424	0.069629	0.19344	0.20567	0.21119	0.036261	-2.8104	-2.9208	-2.8125	-3.1208	-2.9938	-2.9417	-3.1458	-2.8667	-3.0875	-2.8042	-2.9437	-3.1833	-2.8396	-3.1854	-3.2021	-2.875	282.125	209.584	428.168	340.254	256.640	116.436	103.326	103.726	323.905	255.394	419.542	247.915	407.134	323.890	278.776	341.764	0.00090192	0.00073534	0.00015617	495.34	3.5746e-06	7.8453e-06	583.41	234.95	5.0583e-06	8.6802e-06	293.66	144.89	116.38	63.883	1.5853e-05	75.997	0.0027745	0.0031786	0.00088494	544.54	3.369e-05	3.5458e-05	635.98	255.16	3.6007e-05	3.7888e-05	328.03	155.86	126.65	68.812	3.9122e-05	81.673	261.646	205.273	177.199	112.150	278.308	287.152	110.270	117.165	211.136	313.318	113.701	117.960	121.217	124.984	256.537	121.152	-8191	255	
1711.056	1	1	0	0	0.28106	0.16633	0.1212	0.166	0.18401	0.38206	0.094387	0.21308	0.055976	0.1203	0.071027	0.22517	0.1303	0.15664	0.17639	0.14672	-2.6063	-2.9313	-2.7896	-3.0979	-2.8792	-2.8583	-3.1167	-2.7833	-3.0792	-3.15	-2.9437	-2.9333	-3.2333	-2.8771	-3.15	-2.975	220.111	162.166	317.595	415.588	440.971	167.664	136.244	376.567	167.606	242.983	403.172	386.631	362.603	377.698	413.968	113.234	0.00087078	0.00081821	0.00030071	487.98	1.1068e-05	1.4135e-05	577.22	233.78	8.8031e-06	1.1248e-05	294.1	145.43	116.56	63.43	1.0306e-05	75.486	0.003172	0.0036456	0.0010142	544.49	3.8451e-05	3.9609e-05	634.7	255.42	3.7737e-05	3.9024e-05	329.43	156.61	126.94	68.524	3.8827e-05	81.326	264.012	119.565	212.917	112.006	264.250	248.426	109.926	117.495	266.596	298.191	113.940	118.071	120.855	125.197	223.474	121.032	-8191	255	
1711.177	1	1	0	0	0.105	0.22943	0.17282	0.32059	0.15443	0.082752	0.37428	0.19096	0.19161	0.14693	0.093207	0.31227	0.1579	0.095148	0.12878	0.24968	-2.5083	-2.9104	-2.7229	-3.1125	-2.9	-2.8063	-3.2542	-2.8854	-2.9813	-3.2021	-2.8854	-3.2167	-3.3208	-3.0396	-3.2146	-3.0875	130.868	322.783	112.661	119.472	206.290	399.508	407.470	138.417	183.888	303.066	203.972	350.775	112.169	331.074	217.254	407.768	0.00077348	0.0001312	0.00018425	487.79	5.0823e-06	4.0074e-06	578.48	232.41	1.1577e-05	7.9943e-06	292.35	142.99	115.75	63.52	1.1251e-05	76.145	0.0031503	0.003641	0.0010137	545.89	3.8912e-05	4.0468e-05	637.86	254.96	3.9215e-05	4.0812e-05	328.73	155.48	126.23	68.705	3.9784e-05	81.861	259.847	355.122	205.086	111.914	306.169	169.216	110.043	117.411	325.730	267.923	113.697	118.064	121.192	125.094	285.434	121.041	-8191	255	
1711.249	1	1	0	0	0.15311	0.046867	0.20687	0.049247	0.08516	0.08954	0.34762	0.031172	0.16487	0.2808	0.15022	0.29124	0.19764	0.1438	0.033626	0.19922	-2.5375	-3.0208	-2.9125	-3.0479	-3.0354	-2.8583	-3.175	-3.0875	-2.9125	-3.1542	-2.8229	-2.9833	-3.1625	-2.925	-3.1979	-3.0833	119.428	223.184	390.665	222.501	351.343	225.196	429.199	452.065	240.714	368.156	458.145	434.349	244.018	451.289	250.141	414.248	0.00085667	0.0006769	0.00024672	484.11	7.128e-06	2.7728e-06	575.02	234.29	5.5201e-06	5.6429e-06	295.95	146.84	117.63	64.346	1.3991e-05	76.926	0.0032562	0.0037154	0.0010367	541.37	3.9814e-05	4.1029e-05	633.42	255.71	3.9831e-05	4.0725e-05	331.32	158.67	128.51	69.57	3.952e-05	82.7	258.417	133.529	239.435	112.353	251.376	336.518	110.265	117.312	311.682	448.296	113.472	118.247	121.045	124.933	275.350	121.049	-8191	255	
1711.343	1	1	0	0	0.25304	0.045337	0.21803	0.049998	0.084165	0.16368	0.12896	0.16064	0.27159	0.20876	0.096277	0.15266	0.21383	0.15895	0.13092	0.24914	-2.625	-3.2167	-2.6583	-3.1167	-2.925	-2.8833	-3.1521	-3.2521	-2.9625	-3.3417	-2.9583	-3.175	-3.1458	-2.7438	-3.1188	-3.1312	109.371	401.957	169.132	154.894	373.599	158.202	276.006	435.205	106.380	201.752	337.548	399.321	452.977	398.110	427.507	335.514	0.00091126	0.0004848	0.00015578	475.52	1.2211e-05	6.0564e-06	564.66	235.76	4.3323e-06	1.0367e-05	297.39	149.4	120.22	64.97	3.5797e-06	77.714	0.0032397	0.0037015	0.0010232	530.82	3.9707e-05	4.1093e-05	624.41	257.95	4.0372e-05	4.151e-05	334.98	161.17	130.78	70.326	4.1051e-05	83.657	263.157	186.752	140.578	112.551	290.177	226.724	110.411	117.568	269.049	250.279	113.943	118.270	120.986	124.816	298.859	120.904	-8191	255	
1711.464	1	1	0	0	0.14945	0.16186	0.057639	0.17746	0.15811	0.15006	0.064076	0.16952	0.21783	0.19744	0.34818	0.21288	0.34449	0.3768	0.23838	0.31807	-2.4917	-3.0458	-2.8729	-3.0187	-3.0979	-3.0521	-3.2625	-3.1979	-2.8063	-3.3312	-3.1833	-2.8917	-3.1396	-3.1458	-2.8604	-3.2271	112.279	280.057	355.936	335.211	253.860	354.376	263.685	118.374	351.429	172.190	397.116	383.206	218.626	416.211	345.564	438.304	0.00090413	0.00022297	0.00029182	471.89	1.348e-05	3.1127e-06	565.44	235.36	3.0189e-06	2.4769e-06	295.19	147.21	117.78	64.392	1.0372e-05	77.096	0.003366	0.0038185	0.0010606	530.24	4.1389e-05	4.2653e-05	627.94	258.69	4.2159e-05	4.3571e-05	334.36	159.74	129.31	69.819	4.2911e-05	83.005	266.374	121.777	188.290	112.230	277.256	177.763	110.397	117.398	326.824	195.961	113.748	118.089	120.826	124.958	315.005	120.989	-8191	255	
1711.560	1	1	0	0	0.27472	0.046035	0.1937	0.34893	0.16055	0.17402	0.12176	0.068997	0.19456	0.20136	0.14233	0.35494	0.30513	0.068033	0.29047	0.18988	-2.3729	-3.0333	-2.9917	-2.8667	-3.1604	-3.0208	-2.9646	-3.1479	-2.7708	-3.0521	-3.0812	-3.1125	-3.1646	-3.1417	-3.0896	-3.1146	264.132	127.526	380.697	333.315	225.819	250.697	445.388	417.436	352.875	173.741	297.135	434.244	434.967	359.833	219.031	354.169	0.00084736	0.00061144	0.00016997	479.85	5.2433e-06	1.3914e-05	576.2	233.97	7.5158e-06	8.069e-06	294.84	144.92	116.3	64.085	5.7153e-06	76.367	0.0034719	0.0039159	0.0010903	540.97	4.1457e-05	4.1983e-05	635.99	256.81	4.0542e-05	4.1645e-05	331.89	157.4	127.32	69.27	4.2238e-05	82.463	254.133	172.715	214.022	112.289	275.134	261.994	110.206	117.559	270.637	259.573	113.923	118.070	121.201	125.097	298.110	121.187	-8191	255	
1711.656	1	1	0	0	0.18912	0.1917	0.16798	0.13158	0.025872	0.14398	0.22141	0.18338	0.23444	0.031506	0.098401	0.11526	0.08251	0.18721	0.42056	0.23006	-2.4708	-3.2042	-3.0083	-2.9375	-3.1458	-2.8875	-3.125	-3.1375	-2.7625	-3.0583	-2.8958	-2.8854	-3.2792	-3.0104	-2.85	-3.3021	142.696	170.264	111.272	391.734	433.179	388.748	344.546	335.526	286.801	134.600	180.360	400.180	160.140	431.232	135.577	390.438	0.00087676	0.0005476	0.00011641	488.58	6.2376e-06	7.6901e-06	579.66	231.96	6.4369e-06	1.1197e-05	290.99	142.88	113.77	63.363	8.5997e-06	75.649	0.0034401	0.0039536	0.0011127	549.09	4.2719e-05	4.3815e-05	641.99	255.74	4.2382e-05	4.3326e-05	329.71	155.3	125.31	68.742	4.2607e-05	81.854	263.835	185.460	199.798	112.021	248.137	242.065	110.042	117.337	340.292	241.070	113.786	118.273	121.255	125.135	306.773	121.319	-8191	255	
1711.752	1	1	0	0	0.085519	0.16036	0.18847	0.095425	0.1731	0.14079	0.29543	0.1242	0.085219	0.088953	0.16525	0.34669	0.14601	0.2822	0.33918	0.26264	-2.3396	-2.9188	-3.0771	-2.6708	-3.3563	-2.9833	-2.9	-3.2896	-2.5708	-3.1646	-3.0104	-3.0333	-3.2042	-3.2021	-2.8208	-3.3542	249.528	314.123	344.980	284.526	218.178	129.076	104.003	165.708	320.898	412.138	289.619	360.538	158.027	384.576	112.636	447.038	0.00086359	0.00059215	0.00016512	492.6	7.9868e-06	1.0164e-05	578.23	232.85	8.624e-06	6.7784e-06	292.76	143.28	114.06	63.096	9.9068e-06	75.774	0.0034422	0.0039162	0.0011016	550.86	4.1614e-05	4.2851e-05	643.52	255.38	4.1369e-05	4.2836e-05	331.49	156.16	125.77	68.559	4.2956e-05	81.979	261.100	238.278	187.334	112.251	240.786	266.337	109.857	117.398	322.147	252.356	113.777	118.339	121.119	125.140	241.377	121.217	-8191	255	
1711.824	1	1	0	0	0.095687	0.046198	0.25873	0.047068	0.075943	0.246	0.090366	0.077019	0.18139	0.18669	0.097986	0.15593	0.11367	0.20584	0.16844	0.051337	-2.4104	-2.8646	-2.975	-2.9917	-2.9271	-2.9979	-2.7917	-3.1479	-2.8896	-2.9083	-3.2458	-2.7833	-3.2	-2.9875	-2.8521	-3.1354	369.262	372.504	104.478	252.336	134.338	265.664	280.725	121.333	230.019	413.372	378.806	426.234	186.126	387.636	232.965	312.339	0.00083227	0.00061042	0.00010947	487.56	7.2019e-06	1.7917e-06	572.49	231.5	4.055e-06	6.8193e-06	288.98	143.08	114.2	63.068	1.2652e-05	75.074	0.0034738	0.0039877	0.0011207	548.19	4.2439e-05	4.388e-05	638.08	255.27	4.2865e-05	4.4483e-05	330.32	155.58	126.36	68.609	4.3696e-05	81.355	267.943	171.629	138.895	112.573	294.580	107.515	109.906	117.277	253.505	187.106	113.995	118.266	121.228	125.091	247.433	121.173	-8191	255	
1711.944	1	1	0	0	0.3039	0.15923	0.13656	0.035007	0.12271	0.22552	0.11014	0.18415	0.075578	0.029569	0.23834	0.22302	0.37399	0.081622	0.098702	0.26201	-2.4896	-2.9313	-3.0187	-2.8688	-3.1063	-2.9646	-3.0396	-3.2396	-2.9333	-2.9104	-3.2792	-2.875	-3.1792	-3.2542	-2.8271	-3.3271	418.795	204.936	407.044	241.465	310.754	335.742	445.237	437.361	318.733	264.501	104.861	409.866	458.217	209.122	339.862	428.729	0.00082782	0.0012817	2.0303e-05	484.36	3.9558e-06	1.3054e-05	571.21	233	8.7651e-06	8.295e-06	292.05	143.78	115.49	63.404	1.2216e-05	74.908	0.0034788	0.0040117	0.0011109	545.26	4.1659e-05	4.2865e-05	634.42	255.87	4.138e-05	4.3054e-05	330.15	156.06	126.85	68.686	4.3084e-05	81.353	265.319	197.955	439.934	112.217	312.616	177.687	110.085	117.565	306.443	252.403	113.862	118.137	121.122	125.075	261.432	121.108	-8191	255	
1712.041	1	1	0	0	0.20354	0.17123	0.19028	0.31227	0.29866	0.043524	0.3999	0.2443	0.13467	0.10439	0.33103	0.050133	0.12808	0.11211	0.045937	0.20925	-2.4375	-3.0271	-3.0771	-2.8458	-3.1646	-3.1229	-2.7833	-3.2521	-2.7521	-2.9021	-3.3104	-2.8	-3.2271	-3.2104	-2.7396	-3.1521	391.076	201.995	320.076	416.978	457.620	173.732	443.533	449.357	236.455	240.115	398.599	316.751	297.923	457.913	101.765	458.491	0.0008318	0.00054044	7.2337e-05	485.29	4.8691e-06	1.1884e-05	573.1	231.94	9.3817e-06	9.8334e-06	290.57	143.12	114.64	62.914	1.7316e-05	75.15	0.0034929	0.0040426	0.0011289	546.47	4.2637e-05	4.4392e-05	637.38	255.83	4.2405e-05	4.4291e-05	330.25	155.57	126.23	68.352	4.3342e-05	81.265	260.491	170.820	155.571	112.489	255.326	211.636	109.880	117.385	279.494	263.347	113.875	118.155	121.328	125.175	256.058	121.109	-8191	255	
1712.137	1	1	0	0	0.31507	0.41903	0.09528	0.38539	0.30228	0.23107	0.2785	0.17215	0.034071	0.10709	0.098345	0.3717	0.28829	0.3253	0.31184	0.090496	-2.5292	-2.9354	-3.2562	-2.8833	-3.0979	-3.1958	-2.9292	-3.3667	-2.9958	-2.9313	-3.15	-2.8292	-3.0958	-3.2479	-2.8875	-3.1375	239.193	407.039	358.727	445.334	334.644	301.993	352.539	243.832	232.648	376.868	131.784	151.977	432.596	103.550	403.277	357.491	0.00082827	0.00011395	0.00030498	486.36	1.0997e-05	7.5966e-06	574.85	231.16	5.6507e-06	8.6593e-06	290.37	143.52	114.53	63.277	6.9378e-06	75.577	0.0034745	0.0040137	0.0011072	547.47	4.2229e-05	4.3807e-05	638.2	254.79	4.1986e-05	4.3419e-05	329.47	155.64	126.31	68.645	4.27e-05	81.659	260.841	231.587	248.789	112.176	279.893	196.003	110.065	117.353	279.253	265.861	113.849	118.332	121.142	125.074	288.795	121.210	-8191	255	
1712.257	1	1	0	0	0.085285	0.19502	0.21683	0.17715	0.13554	0.15518	0.17797	0.26395	0.32722	0.12954	0.14574	0.15188	0.086674	0.13628	0.27008	0.11146	-2.5583	-2.8563	-3.0771	-2.8937	-3.0542	-3.2083	-2.8708	-3.1625	-3.1292	-2.8458	-3.1667	-3.0167	-2.8708	-3.4083	-2.7792	-3.2167	139.931	451.239	376.308	129.653	386.508	363.623	360.975	372.471	302.757	419.286	410.221	450.741	408.776	189.701	199.450	110.440	0.00089566	0.00030264	0.00025899	484.71	1.0119e-05	9.5982e-06	570.94	231.47	7.4552e-06	8.0072e-06	290.23	142.51	114.76	62.858	1.0402e-05	74.838	0.0034792	0.0040005	0.0011118	545.83	4.2536e-05	4.3634e-05	634.57	254.79	4.1528e-05	4.2947e-05	327.89	154.57	125.78	68.038	4.0719e-05	80.585	258.550	418.766	180.822	112.223	315.838	151.728	109.885	117.599	336.076	302.339	114.099	118.276	121.360	125.229	255.368	121.284	-8191	255	
1712.352	1	1	0	0	0.11227	0.22305	0.064877	0.16008	0.15158	0.066148	0.2545	0.041461	0.15846	0.27365	0.14023	0.18306	0.23521	0.11199	0.070587	0.14655	-2.5917	-2.6667	-3.2854	-2.9729	-2.6583	-3.1854	-2.8312	-2.8625	-3.1292	-2.7104	-3.2604	-3.0917	-2.9292	-3.2104	-2.7708	-3.1271	123.495	339.710	181.657	143.108	366.634	240.364	150.732	434.507	346.011	397.315	456.462	450.020	174.102	310.924	235.181	325.486	0.0008968	0.00039624	0.00026044	487.9	5.8116e-06	2.8017e-06	576.09	230.3	9.4743e-06	2.296e-06	286.67	139.63	112.07	62.087	8.7468e-06	73.957	0.0032865	0.0037733	0.0010373	546.33	4.0289e-05	4.1515e-05	635.44	252.94	4.0812e-05	4.2099e-05	323.74	151.95	123.44	67.306	4.1642e-05	79.981	256.877	197.242	160.082	112.113	228.200	340.980	110.158	117.302	277.296	171.610	113.684	118.106	121.201	125.293	239.136	121.314	-8191	255	
1712.448	1	1	0	0	0.31726	0.020859	0.035123	0.15008	0.14077	0.2113	0.05522	0.1128	0.054085	0.22088	0.27137	0.038629	0.18256	0.30928	0.18094	0.18877	-2.7146	-2.9542	-3.0833	-3.0042	-2.8021	-3.1396	-2.8688	-2.7917	-2.9979	-2.7313	-3.3479	-3.0458	-2.7833	-3.2562	-2.9458	-2.9521	358.802	391.533	402.585	362.080	255.874	177.677	426.629	320.635	392.840	125.520	234.097	440.131	201.360	108.158	159.511	344.814	0.00087573	0.0011027	5.0671e-05	491.45	2.6311e-06	1.8402e-06	579.38	228.7	4.292e-06	4.8087e-06	284.07	138.14	110.29	61.495	1.1491e-05	73.185	0.0034009	0.0038431	0.0010755	551.91	4.1481e-05	4.2388e-05	639.1	251.39	4.1618e-05	4.2788e-05	321.74	150.13	121.91	66.819	4.2486e-05	79.361	265.522	164.242	226.238	112.294	408.502	253.805	110.156	117.428	213.805	105.473	113.881	118.210	121.209	125.356	217.234	121.354	-8191	255	
1712.544	1	1	0	0	0.089606	0.15729	0.21828	0.067543	0.15039	0.17269	0.051248	0.091081	0.29842	0.2019	0.26421	0.17054	0.075174	0.12072	0.19785	0.11252	-2.6396	-2.6021	-3.0417	-2.9375	-2.7375	-3.0979	-2.9979	-3.1208	-3.0563	-2.9979	-3.1437	-3.0729	-2.825	-3.1312	-2.95	-2.8812	332.145	198.507	203.346	349.518	170.296	142.524	404.675	131.161	366.050	419.300	315.648	449.409	315.583	384.251	327.288	357.839	0.00086387	0.00062013	0.00024083	496.38	9.5548e-06	4.2228e-06	578.53	226.7	9.838e-06	9.3201e-06	282.55	135.87	108.54	60.931	1.6288e-06	73.165	0.0034258	0.003917	0.0010876	554.69	4.1455e-05	4.2187e-05	640.56	249.22	4.1061e-05	4.2103e-05	319.14	148.03	120.02	66.246	4.2298e-05	79.109	254.043	213.679	160.576	112.045	296.343	284.394	109.991	117.381	281.301	208.610	113.816	118.620	121.367	125.304	308.508	121.444	-8191	255	
1712.640	1	1	0	0	0.12425	0.25529	0.094708	0.076785	0.25366	0.13915	0.15998	0.11555	0.096801	0.25862	0.1446	0.041784	0.11763	0.13767	0.20355	0.28007	-2.5479	-2.8542	-2.8333	-3.0729	-2.7042	-3.3083	-3.0854	-2.9313	-2.9292	-2.8958	-3.0896	-3.0938	-2.8896	-3.2896	-3.175	-3.0292	226.255	125.775	217.345	118.195	152.249	411.352	200.044	310.374	183.810	343.632	124.653	283.283	258.064	425.092	364.401	404.972	0.00090589	0.00070424	0.00021424	495.41	6.2369e-06	9.8444e-06	578.02	225.85	5.8652e-06	1.2555e-05	282.1	135.91	108.8	60.812	1.3304e-05	72.818	0.0034364	0.0039386	0.0011069	557.41	4.2831e-05	4.3984e-05	644.27	249.51	4.329e-05	4.4783e-05	321.62	148.57	120.45	66.279	4.467e-05	79.241	264.865	196.809	225.720	112.180	341.925	283.033	109.737	117.412	279.277	245.552	113.815	118.308	121.508	125.461	262.542	121.367	-8191	255	
1712.736	1	1	0	0	0.25601	0.14229	0.28708	0.21408	0.16491	0.27328	0.19294	0.10985	0.26331	0.3387	0.23598	0.18092	0.20886	0.11792	0.29411	0.23892	-2.6229	-2.7854	-3.0125	-3.0396	-2.6271	-3.1917	-3.1188	-2.6	-3.0833	-2.8604	-2.8917	-3.3083	-2.9437	-3.0812	-3.2062	-3.0375	277.390	431.317	156.352	256.496	365.572	144.856	362.603	402.032	355.653	285.362	431.589	373.829	266.357	405.759	137.203	449.474	0.00086681	0.00063483	0.00023241	498.14	5.0479e-06	4.3525e-06	580.73	225.69	4.4903e-06	1.4083e-05	280.01	134.17	107.69	60.211	1.16e-05	71.961	0.0036047	0.0041149	0.0011563	560.42	4.3794e-05	4.5293e-05	644.84	249.28	4.3674e-05	4.5438e-05	320.1	147.4	119.79	65.782	4.5335e-05	78.211	265.171	131.010	199.479	112.399	347.089	266.076	110.055	117.270	296.008	257.542	113.922	118.529	121.274	125.518	299.842	121.448	-8191	255	
1712.857	1	1	0	0	0.08606	0.39493	0.095488	0.060397	0.27849	0.04406	0.15744	0.22507	0.075846	0.19571	0.18758	0.22172	0.21388	0.15047	0.18102	0.15318	-2.7583	-2.8854	-3.0792	-3.1625	-2.9042	-3.075	-3.1521	-2.7875	-3.1562	-2.8875	-3.0229	-3.075	-2.8833	-3.0938	-3.1021	-2.8521	339.764	278.461	120.383	318.412	110.481	120.246	223.947	399.816	325.547	256.538	431.559	111.712	428.652	387.211	125.049	443.529	0.00081865	0.00045437	0.00023612	494.08	4.4939e-06	8.8026e-06	572.44	223.45	2.5215e-06	2.0663e-06	275.46	131.85	106.83	59.763	7.1247e-06	71.034	0.003606	0.0041586	0.0011749	558.77	4.4672e-05	4.6273e-05	639.56	247.66	4.4874e-05	4.6455e-05	316.99	145.23	118.65	65.165	4.5656e-05	77.314	266.761	387.140	164.672	112.104	257.326	292.576	109.805	117.200	319.703	252.829	113.777	118.317	121.304	125.577	322.398	121.318	-8191	255	
1712.953	1	1	0	0	0.2042	0.17762	0.33807	0.16441	0.36028	0.19252	0.14797	0.15431	0.20133	0.1695	0.16832	0.30192	0.34125	0.18713	0.21472	0.15512	-2.7354	-2.9417	-2.8479	-3.0438	-2.8771	-3	-3.1	-2.7792	-3.225	-3.0354	-2.7896	-3.2833	-3.0896	-3.0458	-3.1188	-2.825	434.633	404.054	197.964	402.835	415.362	116.401	387.572	119.020	281.766	393.480	337.156	109.228	404.101	142.983	160.218	141.635	0.00077657	0.00097516	8.7771e-05	494.49	3.5607e-06	3.4209e-06	571.62	222.36	1.1066e-05	8.0375e-06	275.45	132.66	107	59.944	1.0772e-05	71.408	0.0036216	0.0041892	0.0011705	556.76	4.4093e-05	4.5673e-05	634.76	246.05	4.3402e-05	4.4978e-05	315.04	145.1	118.45	65.398	4.3964e-05	77.467	261.969	186.615	193.940	112.235	359.555	261.955	110.122	117.434	305.732	277.240	113.808	118.641	121.339	125.525	311.985	121.318	-8191	255	
1713.049	1	1	0	0	0.048871	0.2336	0.097978	0.2166	0.14333	0.23253	0.26757	0.10909	0.17307	0.44372	0.18974	0.091494	0.20718	0.26549	0.16314	0.022693	-2.6917	-3.0979	-2.7792	-3.2562	-2.8771	-2.9042	-3.1208	-2.8854	-2.9813	-2.9167	-2.9521	-3.2833	-2.9708	-3.1	-3.1896	-3.0208	407.189	220.285	390.145	335.487	272.211	277.577	440.938	396.099	387.436	285.091	234.509	100.786	378.170	391.748	149.308	392.581	0.00080793	0.00028869	5.0208e-05	488.21	1.1713e-05	7.0021e-06	568.04	223.76	7.7652e-06	8.7145e-06	277.08	133.91	108.23	60.816	6.8373e-06	72.419	0.0035283	0.0040689	0.0011322	551.16	4.2753e-05	4.3974e-05	632.35	246.41	4.1912e-05	4.3245e-05	315.18	146.15	119.17	65.937	4.1677e-05	78.227	261.260	228.781	238.439	112.203	259.792	285.386	109.956	117.401	289.872	155.265	113.434	118.459	121.211	125.148	287.113	121.514	-8191	255	
1713.121	1	1	0	0	0.044896	0.11454	0.048858	0.14836	0.13224	0.066887	0.29539	0.098641	0.12963	0.23962	0.09508	0.23568	0.12777	0.22011	0.23562	0.18875	-2.6542	-3.0729	-2.8271	-3.3063	-2.9875	-2.8604	-3.3083	-3.0542	-3.25	-3.2583	-2.9729	-3.4229	-3.0792	-3.1604	-3.0104	-3.1125	224.243	225.402	131.720	208.127	408.174	228.638	355.888	248.255	111.766	349.874	283.365	210.092	126.197	346.470	342.718	111.741	0.00084677	0.00063211	0.00040584	486.52	3.5707e-06	1.6559e-05	568.69	224.23	4.8397e-06	8.2437e-06	277.56	134.54	107.9	60.703	6.3468e-07	72.246	0.003373	0.003886	0.0010824	547.66	4.1253e-05	4.2708e-05	629.88	246.23	4.0684e-05	4.2231e-05	315.54	146.52	118.99	66	4.1217e-05	78.215	260.230	194.485	198.645	112.121	362.552	250.766	110.223	117.305	288.385	224.282	113.951	118.679	121.570	125.416	383.722	121.426	-8191	255	
1713.242	1	1	0	0	0.15163	0.11598	0.28495	0.15289	0.26205	0.15823	0.093013	0.33153	0.18493	0.20932	0.061364	0.0898	0.2042	0.047852	0.18857	0.15956	-2.525	-3.0583	-2.625	-3.1625	-2.8937	-2.8125	-3.1958	-2.8125	-2.9771	-3.2	-2.8208	-3.1437	-3.0417	-3.1104	-3.1396	-2.9583	232.820	100.617	351.304	148.228	208.937	133.048	449.197	375.054	303.765	105.361	292.540	279.283	430.478	415.439	298.852	337.183	0.00079313	0.00093733	0.00027349	491.19	4.7942e-06	2.2213e-06	561.64	221.9	1.6616e-06	4.5765e-06	274.02	132.26	106.57	59.78	1.2198e-05	70.959	0.0033435	0.0038512	0.0010603	547.77	4.0952e-05	4.2182e-05	624.97	244.42	4.0601e-05	4.1935e-05	310.83	144.08	117.42	65.02	4.0764e-05	76.637	257.168	109.320	152.589	112.078	232.853	181.021	109.856	117.354	337.326	165.395	113.885	118.544	121.425	125.518	239.373	121.632	-8191	255	
1713.336	1	1	0	0	0.15511	0.19451	0.24482	0.35453	0.11732	0.080116	0.1422	0.30263	0.10984	0.17497	0.24582	0.28643	0.22535	0.24881	0.31213	0.10662	-2.6083	-3.0458	-2.6771	-3.2188	-2.95	-2.7833	-3.2833	-2.9	-2.8125	-3.325	-2.7438	-3.0479	-3.0083	-2.8521	-3.2125	-2.9	123.362	171.722	366.171	145.401	411.552	139.537	282.310	373.467	215.196	404.048	331.406	429.129	266.726	372.154	200.676	317.323	0.00072201	0.00015533	0.00011363	491.58	1.0033e-05	5.7577e-06	560.98	220.53	7.0054e-06	9.6911e-06	270.63	129.6	105.1	59.301	6.1512e-07	69.98	0.003325	0.0038115	0.001058	548.25	4.0566e-05	4.1649e-05	622.37	241.94	4.0178e-05	4.174e-05	307.16	141.49	115.9	64.32	4.1587e-05	75.832	261.625	214.689	172.581	112.215	304.460	222.752	110.083	117.216	257.454	157.116	113.746	118.487	121.472	125.535	314.933	121.576	-8191	255	
1713.432	1	1	0	0	0.08563	0.17804	0.2236	0.14019	0.17921	0.11396	0.38726	0.14521	0.02615	0.33623	0.033437	0.086674	0.15706	0.18822	0.10715	0.21672	-2.4917	-3.1708	-2.675	-3.0312	-3.1542	-2.7438	-3.05	-3.1688	-2.8417	-3.0938	-3.2083	-3.025	-3.125	-2.9938	-3.1417	-3.0167	227.353	227.745	457.258	101.177	393.909	418.213	386.554	135.289	207.283	172.626	443.926	105.119	120.065	443.697	435.387	410.411	0.00078719	0.00064511	0.00011697	487.64	1.2981e-05	8.9067e-06	558.84	218.45	3.7661e-06	8.6489e-06	267.46	128.07	103.53	58.387	5.986e-06	68.903	0.0034169	0.0039162	0.0010964	548.09	4.182e-05	4.3087e-05	621.64	240.83	4.1393e-05	4.2518e-05	305.14	139.79	114.28	63.591	4.1711e-05	74.915	262.473	307.121	203.507	112.164	276.385	318.973	109.883	117.256	333.772	239.624	114.002	118.527	121.404	125.732	254.819	121.554	-8191	255	
1713.528	1	1	0	0	0.1229	0.088495	0.17639	0.0988	0.16712	0.12582	0.12289	0.20571	0.097194	0.15804	0.31255	0.25501	0.18561	0.10689	0.11519	0.1435	-2.6167	-3.1208	-2.8208	-3.0396	-3.0625	-2.8229	-3.325	-2.7667	-2.7854	-3.1125	-2.9104	-3.0687	-3.1771	-2.9771	-3.1813	-3.1188	236.830	267.266	168.839	407.223	330.745	280.254	191.359	341.954	308.776	309.818	435.884	247.493	189.871	295.432	402.619	383.531	0.00082071	0.00092056	0.00026332	488.51	8.1055e-06	9.337e-07	560.6	215.14	6.2578e-06	1.0445e-05	263.33	124.76	100.3	56.771	1.3514e-06	67.291	0.0034182	0.0038918	0.001086	548.5	4.2162e-05	4.3408e-05	621.75	238.17	4.1861e-05	4.2888e-05	301.88	136.84	111.75	62.024	4.2136e-05	73.237	254.796	151.656	167.140	112.185	262.762	418.855	110.035	117.315	277.295	254.519	113.798	118.610	121.614	125.775	386.167	121.608	-8191	255	
1713.649	1	1	0	0	0.17431	0.053772	0.10285	0.099137	0.299	0.23101	0.13637	0.18206	0.20446	0.1178	0.30216	0.15504	0.20816	0.085891	0.132	0.30138	-2.3583	-3.0479	-2.9479	-2.9479	-3.1312	-2.8021	-3.1167	-3.1104	-2.6729	-2.9854	-3.0062	-3.1229	-3.2521	-2.9833	-3.2521	-3.0708	306.396	145.677	102.433	118.518	253.321	276.697	213.943	331.145	380.933	278.028	425.200	403.228	111.334	298.369	308.437	345.093	0.00071719	0.0003337	0.00025021	493.27	9.987e-06	6.3051e-06	561.36	212.53	7.0169e-06	1.5938e-06	260.12	122.25	98.816	55.845	1.2712e-05	66.328	0.0033797	0.0038683	0.0010734	550.76	4.0251e-05	4.0866e-05	619.13	234.05	3.8072e-05	3.8911e-05	295.18	133.42	108.74	60.451	3.6884e-05	71.451	261.354	122.159	164.707	111.962	222.972	325.177	110.070	117.401	307.630	186.219	113.994	118.608	121.386	125.721	277.293	121.716	-8191	255	
1713.745	1	1	0	0	0.088104	0.15934	0.18472	0.056987	0.1496	0.18778	0.15419	0.096213	0.11691	0.13913	0.33771	0.1495	0.22762	0.16853	0.11963	0.093326	-2.5458	-3.025	-3	-2.8271	-3.1042	-3.0354	-2.9958	-3.1604	-2.9354	-3.1271	-3.0271	-3.0292	-3.2188	-2.9958	-2.8229	-3.1188	119.524	153.054	144.100	100.645	335.945	190.119	457.002	398.474	419.287	325.928	412.293	445.506	104.739	453.166	280.428	164.833	0.00068825	0.00061933	0.00010034	491.31	6.9167e-06	5.2204e-06	555.95	211.18	3.2727e-06	2.8873e-06	258.29	121.57	98.45	55.625	1.1209e-05	65.779	0.0029333	0.0033325	0.00092972	542.42	3.5215e-05	3.6346e-05	608.35	230.7	3.4816e-05	3.5567e-05	289.48	131.42	107.94	60.044	3.3624e-05	70.702	264.193	169.658	416.343	111.743	311.061	152.848	109.990	117.383	188.154	271.338	113.923	118.468	121.606	125.813	291.783	121.657	-8191	255	
1713.817	1	1	0	0	0.049441	0.078599	0.10551	0.17612	0.1329	0.13552	0.25029	0.31511	0.11132	0.059593	0.18654	0.11699	0.11983	0.18208	0.12667	0.12676	-2.2938	-2.9417	-2.975	-2.8667	-3.1583	-2.95	-3.1521	-3.1042	-2.8625	-2.9813	-3.2542	-3.0229	-3.2042	-2.8604	-2.8333	-3.2854	396.409	301.646	204.541	450.458	115.890	273.970	369.187	408.199	354.221	365.750	271.324	252.620	311.995	444.647	210.421	407.790	0.00078693	0.00048448	0.00021183	492.76	7.6515e-06	7.9342e-06	555.82	210.54	4.2144e-06	6.2804e-06	255.81	120.74	97.96	55.344	6.8297e-06	65.439	0.0026763	0.0030193	0.0008426	537.87	3.1601e-05	3.2451e-05	601.29	228.53	3.0936e-05	3.1397e-05	284.82	129.55	105.88	59.299	2.8399e-05	69.688	259.494	213.665	216.151	112.091	243.452	203.632	110.053	117.461	290.223	236.742	113.841	118.802	121.838	126.057	246.405	121.807	-8191	255	
1713.937	1	1	0	0	0.18741	0.042805	0.26444	0.080169	0.090861	0.24681	0.083543	0.20402	0.033557	0.19678	0.10242	0.13008	0.050133	0.074758	0.089978	0.12711	-2.1979	-2.9542	-3.0021	-2.8667	-3.0875	-2.8937	-2.8438	-3.2979	-2.9583	-3.1521	-3.125	-2.8688	-3.2396	-3.0354	-2.9813	-3.2167	389.295	359.551	289.774	458.554	346.782	263.661	326.283	370.082	285.577	315.720	392.063	348.717	390.462	101.889	192.858	327.534	0.00069173	0.00057974	0.00014154	490.04	6.4358e-06	5.7159e-06	554.24	209.12	7.4807e-06	5.0507e-06	254.66	119.24	96.507	54.985	8.1037e-06	65.372	0.0022199	0.0024847	0.00068406	529.68	2.5201e-05	2.59e-05	594.06	224.02	2.4507e-05	2.5101e-05	278.23	126.73	103.34	58.619	2.4045e-05	69.206	258.878	199.348	184.755	111.782	302.966	283.642	109.832	117.371	245.429	360.887	113.993	118.992	121.566	125.884	243.902	121.818	-8191	255	
1714.034	1	1	0	0	0.21498	0.095286	0.11239	0.2655	0.08649	0.25792	0.18757	0.19832	0.26165	0.20136	0.12148	0.22472	0.038516	0.23872	0.17765	0.16204	-2.4313	-3.0083	-2.9979	-2.7167	-3.1229	-2.9104	-2.7625	-3.3354	-2.9333	-2.9729	-3.1813	-2.775	-2.9437	-3.1125	-2.8646	-3.2479	107.401	118.538	181.548	439.641	374.885	359.173	396.901	420.340	297.848	406.869	198.973	434.993	227.852	113.392	102.458	249.071	0.00075294	0.00041181	0.00010844	493.57	8.8745e-06	3.3019e-06	557.38	208.9	3.8242e-06	1.871e-06	254.46	118.23	95.304	54.82	8.4172e-06	65.477	0.0019504	0.0021912	0.00059825	527.19	2.2427e-05	2.2863e-05	589.95	222.12	2.0769e-05	2.1197e-05	273.92	124.55	101.16	58.032	1.8296e-05	68.573	260.653	116.564	187.078	111.802	270.852	181.604	109.899	117.454	341.306	116.292	113.749	118.782	121.736	126.194	317.267	121.933	-8191	255	
1714.130	1	1	0	0	0.20076	0.31757	0.17575	0.12686	0.10431	0.12751	0.086607	0.2029	0.12249	0.14704	0.035023	0.17907	0.14205	0.31401	0.064285	0.17473	-2.5312	-2.9729	-3.2292	-2.8375	-3.0146	-3.25	-3.1167	-3.0292	-2.9125	-2.9604	-3.1333	-2.9313	-3.3125	-3.0917	-2.8833	-3.2667	450.624	263.390	382.560	100.206	286.121	284.239	309.174	391.418	175.387	441.237	349.383	193.858	433.216	432.369	194.096	411.814	0.00074661	0.00078377	0.00011155	494.83	2.6749e-06	8.3664e-06	554.41	208.89	2.9668e-06	3.348e-06	253.57	117.2	94.756	54.655	6.2174e-06	64.87	0.0014754	0.0016057	0.00043432	520.51	1.6377e-05	1.655e-05	578.91	219.2	1.4957e-05	1.5038e-05	267.59	122.12	99.349	57.534	1.3092e-05	67.42	265.103	236.015	206.128	111.952	135.769	264.856	109.754	117.339	273.887	193.106	114.134	118.905	121.654	126.102	264.137	121.793	-8191	255	
1714.226	1	1	0	0	0.29318	0.067309	0.085876	0.088794	0.12966	0.13961	0.13817	0.26687	0.18786	0.24158	0.1978	0.073442	0.19545	0.28059	0.27225	0.11676	-2.6979	-3.0208	-3.3604	-2.9625	-3.0271	-3	-2.9083	-3.1667	-2.8688	-2.8833	-3.2104	-2.9813	-3.0771	-3.2313	-2.6833	-3.3063	240.978	116.173	106.953	333.330	410.122	280.480	428.643	195.038	160.330	223.297	447.084	150.345	337.356	449.728	363.491	319.926	0.00074558	0.00066337	9.908e-05	489.73	7.1152e-06	9.5822e-06	542.42	205.95	4.2226e-06	6.0575e-06	247.73	113.41	92.101	54.015	6.4408e-06	63.703	0.0010749	0.0011063	0.0002977	508.75	1.0648e-05	1.0321e-05	560.24	213.27	8.8635e-06	8.52e-06	256.64	116.82	95.357	56.234	6.5604e-06	65.652	257.532	200.584	205.717	111.945	309.241	217.056	109.717	117.401	260.525	232.587	113.946	118.940	121.715	126.192	275.771	121.956	-8191	255	
1714.346	1	1	0	0	0.21978	0.17163	0.036318	0.069433	0.11501	0.055101	0.18435	0.043441	0.017149	0.091168	0.15252	0.14484	0.16506	0.10809	0.26434	0.26177	-2.6396	-2.8646	-3.1562	-3.0083	-2.8896	-3.2313	-2.8146	-3.1021	-3.0729	-2.9396	-3.1312	-2.9042	-3.2062	-3.2979	-2.7604	-3.1625	217.509	148.477	145.417	236.525	310.818	371.005	330.575	112.628	172.980	270.395	370.251	101.037	345.962	450.564	151.632	457.376	0.00071691	0.00053581	0.00013353	487.12	4.5091e-06	5.5287e-06	538.86	198.12	3.3099e-06	2.3469e-06	239.24	108.19	86.971	51.992	5.9499e-06	62.454	0.00056486	0.00050165	0.0001305	496.71	4.5556e-06	4.3611e-06	546.96	203.44	3.7235e-06	3.5781e-06	244.3	110.36	89.139	53.766	3.2174e-06	63.977	260.334	195.895	154.920	111.790	270.804	289.842	109.809	117.067	290.666	204.525	113.853	118.691	121.649	126.444	262.063	122.025	-8191	255	
1714.418	1	1	0	0	0.16563	0.10248	0.13794	0.19392	0.088581	0.13211	0.19374	0.091091	0.1124	0.28677	0.09119	0.17264	0.15612	0.18919	0.16766	0.059025	-2.7208	-2.7271	-3.1042	-2.8896	-3.0146	-3.1958	-3.0271	-3.1604	-3.1896	-2.9146	-3.2021	-3.1688	-3.0583	-3.3063	-2.9771	-3.15	418.407	276.050	362.315	131.103	184.686	386.637	127.208	125.422	195.196	328.506	371.210	445.131	231.182	130.780	395.167	329.717	0.00073383	0.00043025	0.00010807	498.97	4.3319e-06	2.1015e-06	551.77	192.36	3.0231e-06	5.3605e-06	232.35	105.24	83.722	49.291	6.8269e-06	60.669	0.00034867	0.00026961	7.5516e-05	506.27	2.8082e-06	2.7569e-06	557.49	196.96	2.7033e-06	2.7122e-06	238.08	107.45	85.324	51.044	2.7042e-06	62.026	262.187	194.008	174.898	111.641	290.252	221.968	109.616	117.260	284.820	254.730	113.661	119.168	121.433	126.671	270.836	122.476	-8191	255	
1714.537	1	1	0	0	0.15815	0.14157	0.25022	0.15287	0.22153	0.21067	0.33068	0.24782	0.1283	0.18301	0.15654	0.27587	0.28231	0.315	0.26498	0.24824	-2.5979	-2.925	-3.1188	-3.0062	-2.6813	-3.325	-2.9833	-3.1083	-3.1229	-2.6813	-3.2042	-2.8375	-2.9417	-3.3625	-2.9146	-2.8833	325.196	223.806	268.745	398.056	438.524	335.311	130.127	395.838	453.818	190.168	290.061	403.935	397.749	130.276	444.888	347.530	0.00070899	0.00041281	0.00019576	514.61	5.7672e-06	3.4176e-06	561.96	192.91	2.798e-06	2.1732e-06	234.58	105.78	83.545	49.739	5.644e-06	61.379	0.00032531	0.00023848	6.8117e-05	523.75	2.6326e-06	2.5958e-06	568.73	196.8	2.6293e-06	2.6313e-06	239.04	107.87	85.636	51.56	2.7478e-06	62.817	262.473	184.901	181.689	111.743	278.203	241.804	109.771	117.225	274.987	286.687	113.883	118.912	121.532	126.575	262.505	122.277	-8191	255	
1714.633	1	1	0	0	0.2668	0.10615	0.16097	0.075648	0.14742	0.099162	0.072593	0.048777	0.10875	0.058901	0.26525	0.23078	0.19287	0.2597	0.0053499	0.39785	-2.7188	-2.6833	-3.1125	-3.2271	-2.9125	-3.0667	-3.1312	-2.9938	-3.0458	-2.825	-3.0687	-2.9104	-2.6104	-3.1146	-2.8104	-2.7958	133.120	113.618	113.874	341.854	321.636	406.324	256.503	219.641	112.994	132.670	338.184	402.360	407.325	372.982	401.408	395.217	0.00067678	0.00053357	0.00013836	509.95	3.1426e-06	3.4462e-06	555.89	193.28	3.2886e-06	3.8379e-06	233.1	103.28	80.693	47.271	7.0083e-06	58.198	0.0003154	0.00024243	6.6879e-05	518.12	2.6758e-06	2.6493e-06	562.63	196.81	2.6328e-06	2.6824e-06	237.41	105.55	82.584	49.018	2.7144e-06	59.586	262.266	201.571	190.595	111.702	302.992	261.508	110.066	117.226	261.204	234.385	114.033	119.030	121.743	127.024	275.977	122.472	-8191	255	
1714.729	1	1	0	0	0.089009	0.10674	0.13597	0.13611	0.13234	0.15744	0.15055	0.30114	0.068292	0.132	0.072941	0.11433	0.25127	0.25698	0.015524	0.12532	-2.5729	-2.9167	-2.9208	-3.0125	-2.85	-3.1437	-2.9083	-2.9958	-3.1229	-2.8771	-3.0333	-3.0271	-2.8063	-3.1521	-3.0896	-3.025	137.948	153.700	192.904	132.456	370.086	397.303	334.493	340.039	235.570	379.575	363.393	302.003	428.863	365.589	437.553	372.792	0.00065431	0.00036042	0.00010851	512.26	5.7629e-06	3.0529e-06	560.52	190.06	2.928e-06	3.9242e-06	232.48	102.91	79.724	46.355	4.6693e-06	57.503	0.00031079	0.00025224	6.9911e-05	519.85	2.6813e-06	2.6973e-06	566.58	194.95	2.6898e-06	2.7528e-06	237.83	104.88	81.773	47.903	2.8947e-06	58.778	261.783	171.905	181.690	111.701	282.005	225.733	109.767	117.085	283.061	253.208	114.083	119.059	121.747	126.806	255.830	122.679	-8191	255	
1714.825	1	1	0	0	0.14402	0.15203	0.16067	0.11696	0.11758	0.20656	0.021643	0.17494	0.12772	0.067483	0.076239	0.17421	0.19715	0.2435	0.15834	0.11267	-2.8479	-2.8896	-2.95	-3.1063	-2.9083	-3.1083	-2.9146	-2.8312	-3.1104	-2.8333	-3.0271	-3.2562	-2.9062	-3.2354	-3.0187	-2.9313	414.370	196.775	270.513	366.492	327.362	122.315	176.619	332.003	340.688	277.855	340.147	190.996	164.718	445.936	255.505	120.368	0.00064742	0.00037237	0.00015204	513.77	4.9755e-06	3.7667e-06	560.24	190.59	4.2314e-06	3.5655e-06	233.04	101.7	78.733	45.152	7.0644e-06	57.047	0.00032313	0.00025969	7.2946e-05	520.78	2.8316e-06	2.8021e-06	568.16	194.68	2.829e-06	2.8695e-06	237.85	103.62	80.488	46.816	2.9058e-06	58.371	261.697	225.831	200.219	111.393	268.562	252.622	109.704	116.969	278.863	242.948	113.987	119.048	122.026	127.117	265.466	122.785	-8191	255	
1714.946	1	1	0	0	0.4546	0.32588	0.23527	0.2151	0.13002	0.23946	0.19507	0.30549	0.062878	0.24274	0.13562	0.20382	0.073036	0.1527	0.21938	0.34359	-2.8563	-2.9938	-2.8417	-3.0812	-2.8271	-3.2479	-3.225	-2.9979	-3.1229	-2.8688	-3.1437	-3.2708	-3.0167	-3.1458	-3.0875	-3.0708	292.002	415.563	119.292	435.621	135.330	215.738	107.691	387.432	373.025	448.347	359.845	414.694	406.458	417.981	269.531	372.186	0.00067605	0.00036347	0.00010882	514.25	4.263e-06	4.1543e-06	565.07	193.42	5.4263e-06	4.1746e-06	239.96	105.44	82.037	47.527	6.5221e-06	59.725	0.0003291	0.00026015	7.2459e-05	522.97	2.8612e-06	2.8741e-06	572.28	197.78	2.89e-06	2.8209e-06	243.74	107.7	83.943	49.248	2.8993e-06	61.023	260.504	213.486	182.302	111.901	273.561	254.170	109.880	117.142	267.640	255.479	114.057	119.069	121.915	126.719	274.724	122.511	-8191	255	
1715.018	1	1	0	0	0.06139	0.039951	0.18722	0.30529	0.10378	0.11849	0.26008	0.124	0.14414	0.071267	0.24836	0.28463	0.31517	0.19071	0.33469	0.18551	-2.6833	-3.0083	-2.8271	-3.2729	-2.775	-3.0521	-3.1292	-2.8792	-2.9437	-3.0438	-2.7458	-3.1167	-2.9417	-3.1042	-3	-2.9042	131.769	291.879	297.049	333.964	328.343	142.642	410.357	185.031	204.611	273.597	424.567	355.869	422.988	445.285	367.152	416.794	0.00069953	0.00025557	9.3417e-05	515.81	5.8248e-06	4.9779e-06	566.79	197.3	3.4381e-06	5.1266e-06	241.85	108.48	84.748	49.253	4.0546e-06	60.653	0.00033343	0.00026567	7.2339e-05	523.9	2.8925e-06	2.8482e-06	573.09	201.65	2.8513e-06	2.9194e-06	246.72	110.37	86.537	51.034	2.9783e-06	62.24	261.005	202.585	176.813	111.861	269.293	252.951	109.845	117.017	285.674	246.323	113.802	119.168	121.605	126.822	272.769	122.362	-8191	255	
1715.114	1	1	0	0	0.17674	0.15348	0.06474	0.20479	0.1078	0.22491	0.16062	0.11695	0.085142	0.1968	0.2491	0.10545	0.12046	0.20814	0.33108	0.10003	-2.8021	-3.0021	-2.7146	-3.2479	-2.9729	-3.1333	-3.1792	-2.8625	-3.1312	-3.0938	-2.8021	-3.1333	-2.9188	-2.9708	-3.2604	-2.8375	226.116	439.151	139.587	367.484	367.656	330.335	239.750	387.792	221.185	426.815	110.600	204.816	127.064	401.711	347.932	281.637	0.00068368	0.00031282	6.9009e-05	513.97	5.4234e-06	4.8048e-06	558.81	198.44	3.721e-06	4.9339e-06	243.62	109.86	86.321	50.841	6.6961e-06	62.089	0.00033502	0.00026537	7.5433e-05	521.55	2.8264e-06	2.869e-06	566.76	202.85	2.945e-06	2.8825e-06	247.79	111.79	88.582	52.669	2.991e-06	63.673	261.787	170.272	182.426	111.732	275.713	231.727	109.794	117.315	283.128	235.630	114.110	119.013	121.746	126.602	266.058	122.289	-8191	255	
1715.210	1	1	0	0	0.067743	0.23968	0.1421	0.032027	0.2088	0.18233	0.042394	0.2354	0.065925	0.061969	0.1731	0.1607	0.081459	0.22879	0.083691	0.15512	-2.5521	-3.0375	-2.8208	-3.1437	-2.8083	-2.9229	-3.3438	-3.0625	-3.0229	-3.1312	-3.0979	-3.2396	-3.0417	-3.0646	-2.95	-3.0042	239.239	380.356	178.376	433.772	331.025	300.381	345.245	310.239	227.163	287.180	386.778	399.836	171.106	429.861	141.727	155.838	0.0007292	0.00071176	9.5227e-05	509.33	5.9331e-06	4.4848e-06	559.75	200.5	3.7942e-06	7.0894e-06	244.89	110.77	87.214	51.147	3.706e-06	62.594	0.00034282	0.0002674	7.4677e-05	517.92	2.9259e-06	2.8654e-06	565.95	204.57	2.8837e-06	2.9199e-06	249.52	112.96	89.377	53.059	2.9613e-06	64.101	260.524	183.090	198.675	111.772	288.029	275.981	110.068	116.929	294.973	244.896	113.902	118.930	121.750	126.778	267.403	121.950	-8191	255	
1715.329	1	1	0	0	0.12639	0.24281	0.23205	0.16987	0.15647	0.24191	0.18823	0.24244	0.17156	0.13748	0.19684	0.15707	0.15952	0.084424	0.10302	0.10781	-2.6521	-2.8979	-2.9875	-3.3042	-2.975	-2.8021	-3.3521	-2.8083	-3.3125	-3.1708	-2.8854	-3.2625	-3.0312	-2.8917	-3.1021	-3.0187	424.558	315.240	374.355	370.972	279.520	187.276	423.650	425.985	229.466	359.881	440.594	396.737	304.714	401.918	377.079	357.514	0.00072213	0.0001682	0.00011838	510.58	5.1077e-06	4.9071e-06	561.3	200.42	3.6814e-06	5.1957e-06	246.06	110.5	86.731	50.768	5.0917e-06	62.597	0.00034109	0.00025859	7.3995e-05	517.32	2.8013e-06	2.8439e-06	568	204.52	2.7779e-06	2.7821e-06	249.84	113.03	88.923	52.587	2.8794e-06	64.042	261.332	187.955	200.663	111.693	279.502	242.110	110.124	117.064	301.750	256.141	113.830	119.187	121.667	126.695	277.725	122.187	-8191	255	
1715.425	1	1	0	0	0.18004	0.025337	0.075352	0.20307	0.14107	0.15167	0.15546	0.31439	0.20111	0.30264	0.13974	0.17141	0.071197	0.13177	0.13179	0.032302	-2.8208	-3.2188	-2.8604	-3.025	-3.0458	-2.7917	-3.0792	-2.9562	-2.8896	-3.3125	-2.8417	-3.2208	-3.2146	-2.9104	-3.2708	-3.1188	252.379	398.055	333.368	390.882	271.576	383.934	326.253	116.074	198.050	378.850	331.587	418.092	281.839	216.626	445.862	226.423	0.00069267	0.00040316	0.0001085	509.42	4.5077e-06	4.4727e-06	561.52	198.37	6.5614e-06	2.4612e-06	244.96	110.77	86.455	50.833	5.2283e-06	62.538	0.00033332	0.00025704	7.3174e-05	517.43	2.7952e-06	2.8306e-06	567.79	203.67	2.842e-06	2.8345e-06	249.6	113.14	88.683	52.63	2.8591e-06	64.057	260.519	190.139	192.671	112.002	264.010	260.368	109.759	117.193	286.248	268.587	114.014	119.179	121.773	126.546	296.516	122.359	-8191	255	
1715.521	1	1	0	0	0.081505	0.24119	0.12473	0.055716	0.082746	0.10081	0.2003	0.15303	0.3117	0.2712	0.15517	0.22519	0.12325	0.093866	0.18533	0.18816	-2.5687	-3.0104	-2.9208	-3.0167	-3.1021	-3.0792	-3.0854	-2.9542	-2.8542	-3.3375	-2.9229	-3.1937	-3.2188	-2.7875	-3.1417	-3.0958	401.924	135.159	336.978	268.977	236.995	212.561	159.324	139.442	341.070	352.592	422.285	331.915	111.705	389.765	330.075	106.327	0.00071276	0.00064518	0.0001026	504.86	4.6069e-06	3.4517e-06	554.29	197.29	3.9921e-06	5.1079e-06	242.62	108.52	84.239	49.162	5.4384e-06	61.228	0.00033211	0.00025665	7.1955e-05	514.5	2.6981e-06	2.7744e-06	561.18	201.35	2.7548e-06	2.7681e-06	246.55	110.78	86.551	51.027	2.8148e-06	62.604	259.549	190.433	182.291	112.025	293.194	264.280	109.761	117.119	281.100	219.925	113.652	119.137	121.680	126.816	254.506	122.578	-8191	255	
1715.617	1	1	0	0	0.059316	0.076942	0.19807	0.25675	0.16269	0.2271	0.10937	0.1123	0.17947	0.14892	0.069607	0.1304	0.11945	0.071424	0.16006	0.12455	-2.4979	-3.1146	-2.7875	-3.1458	-3.2875	-2.725	-3.1625	-3.1083	-2.8521	-3.2229	-3.0375	-2.9062	-3.225	-2.7687	-2.9979	-3.0896	228.146	150.329	307.030	242.056	174.922	289.080	155.136	436.466	104.231	427.319	442.457	126.859	366.165	368.175	369.335	305.314	0.00070134	0.00032054	8.4237e-05	502.88	5.2092e-06	3.2042e-06	556.3	196.71	3.5342e-06	3.2525e-06	243.25	109.31	84.937	49.615	4.8183e-06	62.264	0.00033196	0.00024945	6.9838e-05	512.95	2.7513e-06	2.8326e-06	561.82	200.83	2.825e-06	2.6624e-06	247.23	111.27	86.883	51.428	2.8023e-06	63.541	260.680	184.226	172.214	111.650	289.200	270.713	109.913	117.163	278.363	239.970	113.624	119.294	121.697	126.830	259.571	122.363	-8191	255	
1715.714	1	1	0	0	0.19747	0.07933	0.22441	0.25471	0.22415	0.1037	0.055415	0.20677	0.060035	0.17203	0.15562	0.1987	0.10436	0.32283	0.20104	0.30183	-2.4813	-3.1396	-2.8417	-2.9333	-3.1	-2.7229	-3.2708	-3.0604	-2.8396	-3.2354	-2.9562	-3.0583	-3.1625	-2.9771	-2.8208	-3.15	218.688	363.996	378.898	374.625	253.182	243.824	253.634	334.028	321.708	370.059	329.717	451.069	387.674	404.139	124.146	445.325	0.0007211	0.00046175	0.00011797	504.15	4.3959e-06	5.7151e-06	554.08	198.12	3.9965e-06	4.0872e-06	246.73	112.21	86.62	50.994	7.1081e-06	63.641	0.00033653	0.00025565	7.1809e-05	512.42	2.8175e-06	2.8136e-06	561.3	202.97	2.8272e-06	2.7934e-06	251.66	114.24	88.795	52.949	2.9326e-06	65.232	264.060	196.003	212.874	111.895	304.870	248.443	109.964	117.115	308.099	243.415	113.796	119.215	121.972	126.684	267.760	122.665	-8191	255	
1715.810	1	1	0	0	0.12861	0.01651	0.26891	0.10733	0.11829	0.11039	0.069872	0.24065	0.12037	0.17037	0.073924	0.13162	0.12738	0.10639	0.14566	0.049972	-2.4229	-3.0146	-3	-2.8312	-3.1854	-2.8604	-3.05	-3.125	-2.8083	-3.2438	-2.9646	-2.9938	-3.2396	-3.1021	-3.1958	-3.0542	455.342	130.278	349.547	340.627	214.249	399.418	286.185	338.249	224.331	436.223	313.838	428.689	452.718	191.531	443.614	184.722	0.00074538	0.00049354	9.7323e-05	502.22	4.7222e-06	4.6697e-06	555.85	200.11	2.8407e-06	6.8855e-06	250.01	114.24	88.027	52.026	6.0089e-06	65.138	0.0003397	0.00026245	7.1915e-05	510.82	2.8717e-06	2.9179e-06	562.97	204.62	2.9412e-06	2.8582e-06	254.47	116.33	90.263	54.109	2.9253e-06	66.592	262.364	205.373	159.616	111.954	305.397	267.887	109.823	117.080	300.082	243.919	113.858	119.171	121.805	126.740	270.343	122.695	-8191	255	
1715.906	1	1	0	0	0.18282	0.068417	0.16146	0.26705	0.20399	0.33024	0.39311	0.31498	0.22725	0.078589	0.12639	0.17014	0.15137	0.090835	0.082596	0.11307	-2.1979	-3.0667	-3.0729	-2.8979	-3.1729	-3.0438	-2.9208	-3.2979	-2.9104	-3.0438	-3.0542	-2.9021	-3.1104	-3.1292	-2.8937	-3.2604	216.942	164.773	208.308	383.842	135.469	318.074	383.612	338.123	327.794	266.529	286.987	434.764	204.023	126.846	142.951	378.291	0.00075143	0.00042451	0.00015239	500.12	3.6232e-06	7.7249e-06	556.77	200.32	3.4013e-06	4.1157e-06	249.67	113.3	87.847	51.753	7.6186e-06	64.138	0.00034956	0.00026622	7.3338e-05	509.59	2.8691e-06	2.8857e-06	563.25	204.75	2.9708e-06	2.8924e-06	253.65	115.72	89.869	53.674	2.9848e-06	65.642	263.508	211.565	189.151	111.903	278.475	232.248	109.801	117.272	296.908	226.035	113.998	119.138	121.682	126.850	264.660	122.325	-8191	255	
1716.026	1	1	0	0	0.061981	0.28228	0.23824	0.083391	0.33209	0.062441	0.27529	0.15531	0.21107	0.057687	0.094819	0.10884	0.10465	0.27703	0.20101	0.061407	-2.5083	-3.0417	-3.0521	-2.8667	-3.2208	-3.0563	-2.9271	-3.3063	-2.8292	-3.1	-3.0771	-2.7667	-3.1813	-3.0458	-2.9979	-3.4083	169.868	266.986	445.262	355.717	281.451	318.241	384.137	348.372	312.489	426.166	339.799	414.973	230.877	380.345	438.218	382.534	0.00072008	0.00033527	0.00012267	498.18	4.9176e-06	4.5446e-06	549.06	199.09	4.0379e-06	3.0894e-06	245.62	112.19	87.328	51.43	5.9987e-06	63.427	0.00034603	0.0002676	7.4431e-05	507.69	2.8897e-06	2.8494e-06	556.59	203.52	2.9432e-06	2.8849e-06	250.98	114.44	89.556	53.396	3.003e-06	64.963	263.284	214.799	195.587	111.889	271.524	253.064	109.967	117.122	292.474	210.832	113.888	119.218	121.789	126.803	270.923	122.114	-8191	255	
1716.123	1	1	0	0	0.1318	0.19885	0.38983	0.19418	0.092716	0.17821	0.21705	0.2727	0.1321	0.14687	0.074672	0.23226	0.059185	0.11759	0.25069	0.14105	-2.4396	-3.0208	-3.0042	-2.9292	-3.025	-2.9729	-2.8021	-3.075	-2.8667	-2.9646	-3.0729	-2.9625	-3.0563	-3.0417	-2.8396	-3.1792	395.298	187.451	141.612	448.963	253.898	379.445	379.697	398.203	310.466	438.772	216.663	342.518	369.115	204.602	117.935	428.307	0.00069666	0.00036439	0.00010078	499.1	3.0498e-06	4.035e-06	550.01	197.29	4.1448e-06	4.8949e-06	244.72	111.39	86.018	50.804	6.0791e-06	62.671	0.00034724	0.00026282	7.4946e-05	506.71	2.8387e-06	2.8465e-06	556.09	202.36	2.9155e-06	2.8796e-06	250.04	113.87	88.484	52.696	2.9689e-06	64.426	262.426	195.609	172.409	111.981	260.666	242.942	109.885	117.099	274.238	233.269	113.694	119.261	121.772	126.514	251.794	122.369	-8191	255	
1716.219	1	1	0	0	0.20467	0.17973	0.22271	0.19904	0.20807	0.049341	0.1554	0.13587	0.10348	0.10716	0.13469	0.31806	0.2208	0.14792	0.053679	0.1762	-2.5458	-2.9062	-3.1333	-2.9042	-3.2729	-3.1083	-2.8021	-3.1417	-2.9708	-2.7958	-3.2542	-2.7917	-3.1146	-3.1542	-2.775	-2.9938	277.880	99.193	113.867	398.587	300.762	164.702	318.623	415.943	164.528	104.960	106.718	382.240	105.170	439.695	302.159	456.082	0.00070477	0.00066146	7.7219e-05	500.14	3.488e-06	5.2857e-06	550.47	197.39	3.5188e-06	3.2132e-06	245.57	112	86.663	50.957	6.3439e-06	63.305	0.00034082	0.00026347	7.4507e-05	507.92	2.8656e-06	2.8801e-06	557.45	201.96	2.9072e-06	2.821e-06	250.39	113.86	88.504	52.806	3.0321e-06	64.817	261.536	191.709	177.552	111.561	261.524	267.440	109.882	117.088	297.178	254.973	113.823	118.988	121.726	126.691	281.200	122.447	-8191	255	
1716.315	1	1	0	0	0.14931	0.25309	0.051472	0.061132	0.18384	0.086085	0.055976	0.135	0.090694	0.15301	0.16089	0.19029	0.048186	0.23469	0.09124	0.18479	-2.5458	-2.7521	-3.1896	-2.8833	-2.95	-2.9792	-2.8417	-3.2438	-2.9625	-3.0229	-3.075	-2.7812	-3.1979	-3.1125	-2.9042	-3.1333	403.028	167.337	315.055	203.729	391.323	359.059	368.759	288.867	195.662	252.977	431.663	431.085	372.969	390.861	133.682	432.744	0.00071835	0.00039948	0.00017279	498.87	5.0069e-06	4.5752e-06	553.69	196.88	4.4507e-06	4.429e-06	245.57	110.85	85.526	50.026	7.1558e-06	62.249	0.00034132	0.00027063	7.6478e-05	507.51	2.8924e-06	2.9548e-06	559.8	201.67	2.9008e-06	2.8875e-06	250.22	113.42	87.436	51.842	3.0002e-06	63.8	260.661	177.901	170.520	111.726	281.778	265.516	109.992	117.312	261.844	255.979	114.204	119.057	121.918	126.839	277.655	122.541	-8191	255	
1716.409	1	1	0	0	0.17006	0.090028	0.12565	0.15962	0.22381	0.20582	0.095201	0.16216	0.28301	0.28521	0.21039	0.043923	0.12205	0.11897	0.064704	0.18655	-2.6146	-2.7875	-3.0417	-3.0125	-3.0458	-3.1542	-2.8375	-3.1312	-3.0438	-2.9125	-3.0812	-2.9979	-2.9708	-3.1771	-2.8563	-3.1958	114.072	127.275	120.919	393.679	454.412	173.212	395.757	357.271	392.016	389.141	152.301	421.418	362.250	140.437	409.083	423.903	0.00070618	0.0004931	0.00019493	499.32	5.5972e-06	6.5651e-06	546.49	195.94	4.2619e-06	5.0992e-06	241.97	110.51	85.042	49.781	6.4529e-06	61.879	0.00033999	0.00027065	7.3639e-05	507.38	2.883e-06	2.9e-06	555.85	200.29	2.9095e-06	2.9099e-06	247.2	112.18	87.108	51.703	2.9439e-06	63.252	262.146	181.452	184.787	111.800	283.873	272.505	110.052	117.395	301.027	254.845	113.980	119.134	121.667	126.752	283.587	122.551	-8191	255	
1716.505	1	1	0	0	0.12079	0.12125	0.11852	0.20545	0.24402	0.10835	0.021176	0.089622	0.27117	0.20355	0.1425	0.061723	0.23404	0.22237	0.25497	0.21338	-2.5312	-2.8542	-3.3083	-3.0542	-3.0521	-3.1188	-2.8063	-2.8979	-3.0312	-2.8521	-2.9958	-2.8333	-3.0396	-3.1396	-2.8979	-3.075	405.388	413.852	134.805	374.443	305.940	284.581	295.417	150.010	130.932	344.318	114.789	280.980	112.703	394.860	409.632	332.639	0.00069509	0.00034009	0.0001512	498.61	5.8363e-06	4.5275e-06	546.53	195.84	3.9821e-06	5.3251e-06	240.25	109.6	84.785	49.689	5.1271e-06	61.554	0.00033686	0.00026807	7.2895e-05	507.3	2.8341e-06	2.8545e-06	553.9	200.09	2.8839e-06	2.8822e-06	246.57	111.69	86.801	51.474	3.0396e-06	62.955	263.327	194.555	187.210	111.750	276.526	248.036	109.801	116.955	273.261	246.810	114.152	119.064	122.002	126.830	252.012	122.637	-8191	255	
1716.626	1	1	0	0	0.082678	0.19278	0.1317	0.25607	0.059374	0.33904	0.40767	0.033887	0.36913	0.088327	0.064176	0.143	0.33874	0.2589	0.076505	0.22169	-2.7167	-2.6625	-3.2125	-2.8896	-2.8292	-3.2417	-3.05	-3.1167	-3.1688	-2.8458	-3.175	-2.9875	-2.8792	-3.2125	-2.8917	-3.0146	179.457	274.047	169.631	375.539	178.261	313.941	381.991	354.673	161.294	325.003	365.661	228.838	281.849	353.991	305.837	442.989	0.00070037	0.0004429	0.0001011	497.17	3.8552e-06	3.9433e-06	547.67	194.31	4.4052e-06	5.1287e-06	241.59	109.25	84.307	49.067	5.6931e-06	61.504	0.00034395	0.00026442	7.4013e-05	505.9	2.8258e-06	2.8362e-06	554.36	199.32	2.8589e-06	2.9208e-06	246.02	111.41	86.368	51.051	2.9401e-06	62.869	261.738	179.458	173.832	111.910	291.347	226.325	109.751	117.123	278.769	242.449	114.039	119.233	121.961	126.776	282.994	122.438	-8191	255	
1716.722	1	1	0	0	0.23864	0.066146	0.25001	0.1977	0.15694	0.23969	0.21667	0.18636	0.22148	0.075833	0.32652	0.3676	0.18392	0.31464	0.11216	0.24242	-2.6729	-2.7479	-3.1896	-2.8063	-2.6625	-3.1667	-2.9417	-2.95	-3.1792	-2.8646	-3.1375	-2.8812	-2.9708	-2.9875	-2.9333	-2.9792	445.655	169.652	298.074	380.895	386.717	215.771	319.119	386.473	199.960	430.315	377.344	359.571	442.906	422.124	389.622	421.443	0.00068795	0.00026108	0.00011342	497.47	4.0206e-06	3.0746e-06	548.35	196.47	3.4045e-06	2.5162e-06	244.29	110.91	85.713	50.017	4.2162e-06	62.321	0.00034302	0.00027256	7.4333e-05	506.7	2.9352e-06	2.9449e-06	556.49	200.52	2.9724e-06	2.9904e-06	248.66	112.93	87.703	52.009	2.9924e-06	63.91	262.807	173.298	196.030	111.952	272.758	251.353	109.859	117.131	308.239	236.935	114.255	119.213	121.877	126.804	264.525	122.650	-8191	255	
1716.818	1	1	0	0	0.21348	0.11385	0.085751	0.086148	0.11938	0.15392	0.23775	0.11605	0.1772	0.16415	0.14973	0.10961	0.30412	0.13514	0.043863	0.054026	-2.7604	-2.6875	-3.1146	-2.9646	-2.8729	-3.1104	-3.0708	-2.9646	-3.0875	-2.7896	-3.1042	-3.0375	-2.8333	-3.1396	-3.1312	-2.8063	236.919	333.925	131.734	386.992	115.240	442.791	407.023	298.690	288.217	366.163	413.322	107.273	117.115	298.242	113.055	283.040	0.00070413	0.00038079	0.00012799	499.81	5.3357e-06	5.992e-06	551.22	196.01	4.7103e-06	4.9812e-06	243.95	110.56	85.128	49.758	6.2345e-06	61.326	0.00034743	0.00027523	7.4089e-05	507.82	2.9793e-06	2.9452e-06	557.7	200.7	2.9414e-06	2.9497e-06	248	112.61	87.297	51.661	2.9895e-06	63.063	261.957	179.684	192.720	111.667	287.388	246.877	109.882	117.139	292.323	249.941	114.043	119.105	121.805	126.807	247.781	122.587	-8191	255	
1716.915	1	1	0	0	0.051768	0.16867	0.1978	0.015255	0.079643	0.10452	0.14849	0.19588	0.060748	0.088496	0.40858	0.19197	0.16339	0.2543	0.29009	0.27141	-2.6771	-2.7208	-3.1271	-3.0229	-2.8896	-3.1188	-2.9896	-3.0875	-3.1021	-3.0125	-3	-3.175	-2.8688	-3.2104	-2.9625	-3.0708	136.819	329.668	453.463	122.316	426.565	379.843	100.657	160.369	159.748	187.617	455.569	151.199	422.872	194.192	248.905	382.245	0.00070059	0.00037286	0.0001387	497.36	6.1685e-06	4.494e-06	542.36	195.32	5.8747e-06	4.5817e-06	239.84	109.5	84.77	49.597	7.2057e-06	61.283	0.00034386	0.0002681	7.4681e-05	505.23	2.8949e-06	2.8976e-06	550.91	199.74	2.9052e-06	2.8771e-06	245.23	111.55	87.093	51.39	3.0011e-06	62.624	264.486	178.113	186.134	111.616	277.755	251.452	109.689	116.982	292.736	248.217	114.032	119.146	121.863	126.998	285.755	122.628	-8191	255	
1717.011	1	1	0	0	0.072517	0.22123	0.1059	0.16266	0.10185	0.27653	0.16838	0.058599	0.20114	0.21527	0.089225	0.17441	0.13548	0.22917	0.14097	0.079289	-2.6729	-2.9375	-3.0854	-3.0229	-2.8646	-3.1333	-2.9708	-2.9083	-3.0917	-2.9354	-3.1	-3.1146	-2.6562	-2.9729	-3.0312	-2.6792	105.676	246.661	207.070	373.771	131.701	217.691	361.815	421.783	321.658	212.256	405.463	137.223	332.278	234.142	153.444	106.842	0.00069957	0.00047501	9.5e-05	496.91	2.8076e-06	5.8363e-06	546.36	194.25	2.8524e-06	4.9904e-06	240.78	108.15	83.949	48.802	5.2938e-06	60.468	0.00034316	0.00026655	7.3951e-05	504.99	2.9183e-06	2.8781e-06	551.92	198.68	2.8533e-06	2.8946e-06	244.83	110.51	85.874	50.546	2.978e-06	61.817	262.699	179.571	174.371	111.996	255.563	261.582	109.831	117.067	258.524	248.299	113.672	119.058	121.895	126.859	298.726	122.580	-8191	255	
1717.107	1	1	0	0	0.065676	0.11046	0.22046	0.0043097	0.16915	0.1993	0.17645	0.046974	0.13326	0.077378	0.15244	0.32026	0.1631	0.28169	0.13432	0.0718	-2.8979	-2.7833	-2.8708	-3.1354	-2.8438	-3.1396	-2.9437	-2.9313	-3.1167	-3.1083	-2.9771	-3.1229	-2.9396	-2.8833	-3.0646	-2.7521	270.950	423.649	299.819	418.260	363.527	403.076	164.249	326.201	361.566	149.919	402.439	413.930	426.036	153.046	411.733	350.979	0.00068128	0.00047101	0.0001613	496.92	4.4681e-06	5.2335e-06	545.86	192.64	4.1934e-06	4.6337e-06	239.85	107.11	82.926	48.224	8.1416e-06	60.317	0.00034105	0.00026446	7.3868e-05	505.55	2.8957e-06	2.8474e-06	552	197.26	2.9178e-06	2.8476e-06	243.71	109.52	84.936	50.063	3.0839e-06	61.751	259.880	203.522	177.682	111.733	294.967	279.824	109.777	117.219	300.277	250.895	113.784	119.358	121.583	126.782	268.898	122.698	-8191	255	
1717.203	1	1	0	0	0.37613	0.12306	0.17041	0.22121	0.18014	0.2195	0.084738	0.18085	0.029702	0.14998	0.24365	0.18665	0.11414	0.21498	0.23774	0.31345	-2.7896	-2.8792	-2.825	-3.1271	-2.6917	-3.0792	-3.0958	-2.7292	-3.1146	-2.9667	-2.8625	-3.4667	-2.9354	-2.9042	-3.2125	-2.9104	188.108	377.241	427.247	108.255	455.568	109.886	124.424	391.285	441.337	242.247	439.648	406.709	166.849	131.881	415.226	340.098	0.00068641	0.00063925	0.0001033	497.4	4.3156e-06	5.1575e-06	544.53	192.71	3.5398e-06	4.2647e-06	239.47	107.14	83.172	47.937	4.7547e-06	59.748	0.00033496	0.00026995	7.5527e-05	504.87	2.8889e-06	2.9229e-06	552.78	197.12	2.8726e-06	2.8779e-06	243.97	109.65	84.799	49.691	2.9588e-06	61.211	263.851	188.975	197.121	111.843	265.408	244.387	109.893	117.083	300.254	270.069	114.187	119.012	121.847	126.991	278.376	122.609	-8191	255	
1717.299	1	1	0	0	0.051014	0.067564	0.12107	0.032862	0.12393	0.19893	0.21787	0.19	0.24104	0.11457	0.11856	0.12918	0.24463	0.17586	0.23979	0.11386	-2.6312	-2.9583	-2.8104	-3.1854	-2.7271	-2.9146	-3.2625	-2.8646	-3.0729	-3.0354	-2.9	-3.1667	-3.0125	-3.0583	-3.1292	-2.8292	328.852	180.877	397.682	454.990	282.731	242.988	174.519	392.498	299.716	138.544	375.670	383.307	383.044	120.908	300.173	203.209	0.0006756	0.00054572	7.4902e-05	495.41	5.1908e-06	4.6611e-06	539.75	190.62	2.9575e-06	4.8293e-06	234.66	104.21	79.611	45.896	3.47e-06	57.017	0.00033544	0.00026948	7.4797e-05	503.31	2.8947e-06	2.9331e-06	547.29	194.78	2.8679e-06	2.8513e-06	238.76	105.87	81.76	47.611	2.9484e-06	58.565	260.380	190.174	198.582	111.569	294.174	275.033	110.046	117.158	264.837	221.501	114.050	119.341	121.672	127.029	290.256	122.758	-8191	255	
1717.418	1	1	0	0	0.18448	0.068498	0.16732	0.13299	0.048934	0.14568	0.19853	0.12629	0.11615	0.050481	0.14082	0.044385	0.17428	0.060534	0.2185	0.17873	-2.7042	-2.8187	-2.825	-2.9917	-2.9437	-2.8375	-3.0729	-3.1083	-2.8542	-3.1562	-2.8917	-3.3063	-3.0542	-3.0771	-2.9562	-2.9188	150.106	151.006	142.088	397.961	246.034	268.185	384.215	271.270	435.164	284.245	167.340	198.409	455.351	166.391	114.355	415.039	0.00061684	0.00032933	0.00012041	492.98	3.2382e-06	6.3359e-06	537.85	188.62	3.2058e-06	5.314e-06	231.2	102.9	79.184	45.426	3.9505e-06	56.887	0.00032693	0.00027133	7.4013e-05	502.26	2.8877e-06	2.9414e-06	544.32	192.64	2.8316e-06	2.8861e-06	236.37	104.75	81.104	47.131	2.9353e-06	58.314	260.756	199.894	210.221	111.511	258.987	261.743	109.706	117.157	274.404	271.022	113.783	119.118	121.753	127.082	270.544	122.797	-8191	255	
1717.514	1	1	0	0	0.18584	0.17793	0.13737	0.14452	0.24355	0.30005	0.16262	0.21824	0.18252	0.30923	0.21132	0.14488	0.083042	0.12207	0.31642	0.0057635	-2.475	-3.0729	-2.7812	-3.1333	-2.925	-2.7417	-3.2125	-2.8688	-3.0104	-3.1625	-2.725	-2.8771	-2.9292	-2.6833	-3.1792	-3.0479	285.939	306.381	137.082	390.099	456.784	313.157	134.381	433.570	216.012	140.751	407.171	430.055	423.621	180.497	287.603	247.398	0.00063905	0.00036245	0.0001185	497.39	4.469e-06	4.29e-06	540.37	189.58	3.1909e-06	1.1374e-06	234.21	103.93	79.81	45.915	5.6882e-06	57.417	0.00032536	0.00026411	7.3941e-05	504.69	2.8857e-06	2.8827e-06	545.93	193.47	2.9156e-06	2.8931e-06	237.9	105.69	81.946	47.656	2.901e-06	58.952	261.626	191.408	195.212	111.460	285.476	239.597	109.792	117.071	271.288	208.186	113.915	119.037	121.789	127.025	275.667	122.718	-8191	255	
1717.588	1	1	0	0	0.27933	0.12321	0.080984	0.23169	0.47175	0.17014	0.21062	0.18606	0.035696	0.15084	0.11353	0.092185	0.13189	0.2384	0.16585	0.084884	-2.4208	-3.1917	-2.8542	-3.1771	-3.0708	-3.0292	-2.9667	-2.9771	-2.8604	-3.1021	-2.8333	-3.0958	-3.3063	-2.8312	-3.0667	-3.0542	109.659	126.476	395.950	342.390	367.367	357.981	357.978	361.814	279.031	280.728	134.160	213.799	399.125	395.858	269.330	243.238	0.00064106	0.00048014	5.8132e-05	494.65	3.6652e-06	4.5318e-06	542.4	188.46	3.8022e-06	3.8974e-06	233.15	103.41	79.119	45.325	6.7592e-06	57.11	0.00033821	0.00026687	7.4888e-05	504.17	2.8527e-06	2.9507e-06	548.3	193.3	2.8866e-06	2.9079e-06	237.69	105.6	81.102	47.079	2.927e-06	58.458	259.168	198.926	220.809	111.659	278.571	240.257	109.677	117.051	279.124	245.436	114.032	119.075	122.095	127.072	267.356	122.797	-8191	255	
1717.706	1	1	0	0	0.19916	0.064635	0.20205	0.15997	0.10493	0.3383	0.11541	0.19422	0.22941	0.1592	0.033909	0.172	0.030805	0.16624	0.21166	0.1976	-2.4292	-2.9333	-2.9375	-2.9708	-2.9458	-2.8354	-3.05	-3.0708	-2.825	-3.2854	-2.8458	-2.9417	-3.1271	-2.8729	-3.15	-3.0083	390.222	99.498	322.432	344.141	289.357	314.260	457.123	455.878	427.270	331.403	255.608	303.297	265.928	455.958	371.049	408.663	0.00063605	0.00042512	9.6007e-05	497.88	4.2388e-06	3.9343e-06	541.26	187.23	3.4355e-06	3.9209e-06	230.49	102.5	78.647	44.762	5.7454e-06	56.364	0.00032806	0.00026308	7.2194e-05	504.84	2.8714e-06	2.8778e-06	548.53	192.04	2.9281e-06	2.826e-06	235.54	104.14	80.303	46.474	2.9125e-06	57.662	263.271	169.059	187.262	111.716	281.456	263.686	110.134	116.908	297.054	246.630	113.748	119.286	121.956	127.033	278.584	122.803	-8191	255	
1717.803	1	1	0	0	0.22974	0.26882	0.032073	0.2537	0.053	0.25109	0.17084	0.31398	0.070723	0.19894	0.21997	0.49101	0.27335	0.28671	0.17263	0.27114	-2.2979	-3.2625	-2.7938	-2.9292	-3.0812	-2.9	-3.0667	-3.1229	-2.7771	-3.1271	-2.9583	-2.9958	-3.1646	-2.7271	-3.1271	-3.0083	421.928	114.697	321.037	448.469	344.073	266.619	423.256	387.124	248.459	381.084	106.554	431.325	326.896	370.369	361.974	424.984	0.00064303	0.00048302	0.00017795	494.25	6.7482e-06	3.6126e-06	537.83	187.91	3.761e-06	2.8558e-06	228.81	101.8	78.47	44.767	4.8918e-06	56.105	0.00032882	0.00026108	7.1189e-05	503.41	2.8057e-06	2.8225e-06	542.67	191.53	2.8874e-06	2.7843e-06	233.46	103.59	80.373	46.479	2.8722e-06	57.483	259.874	180.549	175.387	111.549	281.628	279.472	109.789	117.183	296.621	246.960	113.931	119.151	121.901	127.074	285.987	122.706	-8191	255	
1717.899	1	1	0	0	0.081694	0.13175	0.20636	0.035864	0.24614	0.10833	0.43093	0.27979	0.27885	0.3181	0.20456	0.2086	0.11181	0.14399	0.15203	0.050593	-2.5104	-3.0938	-2.9021	-3.0375	-3.1021	-3.0583	-2.9938	-3.225	-2.7583	-3.1729	-3.0292	-2.8208	-3.2083	-2.8958	-2.9854	-3.1	171.061	352.502	362.122	355.177	260.633	325.938	433.027	397.701	425.747	242.522	100.751	393.192	176.855	267.650	296.077	228.578	0.00061852	0.00026989	0.00012488	495.77	4.3684e-06	6.1516e-06	537.5	187.83	2.892e-06	3.0557e-06	230.48	102.01	78.953	45.033	5.3441e-06	56.623	0.00033097	0.0002572	7.2848e-05	504.09	2.8291e-06	2.8368e-06	543.73	191.71	2.8902e-06	2.8137e-06	234.6	104.04	80.646	46.654	2.9505e-06	57.915	261.808	193.153	201.090	111.653	247.659	234.860	109.838	117.155	299.484	246.331	113.691	119.048	121.591	127.113	245.447	122.749	-8191	255	
1718.019	1	1	0	0	0.17414	0.08316	0.2618	0.21551	0.063454	0.10989	0.07779	0.18692	0.10052	0.20858	0.1436	0.20067	0.2962	0.23053	0.22837	0.344	-2.3563	-3.2062	-2.8875	-2.8187	-3.0458	-2.9958	-2.9833	-3.1125	-2.8542	-3.1042	-3.0583	-2.7021	-3.0979	-2.9688	-2.8333	-3.2958	402.168	427.602	166.828	109.054	239.687	407.343	136.903	424.549	334.070	375.449	214.863	389.474	140.214	377.044	171.560	375.026	0.00062232	0.00042197	0.00013578	496.67	5.0314e-06	4.9352e-06	538.26	187.7	4.4789e-06	5.262e-06	230.22	102.87	79.02	45.434	3.9713e-06	56.743	0.00032235	0.00025829	7.316e-05	504.52	2.8204e-06	2.8162e-06	546.25	192.21	2.8298e-06	2.8136e-06	235.65	104.89	81.097	47.001	2.908e-06	58.256	262.055	207.071	159.859	111.518	279.810	254.726	109.605	116.907	291.704	250.018	114.020	118.848	121.602	127.123	285.250	122.712	-8191	255	
1718.116	1	1	0	0	0.1346	0.15723	0.27028	0.12031	0.2273	0.093461	0.20677	0.17061	0.15176	0.19137	0.031064	0.055202	0.13745	0.1771	0.091134	0.11721	-2.2479	-3.1021	-2.9854	-2.7708	-2.9354	-2.8479	-3.0521	-3.1167	-2.7729	-3.0792	-3.175	-2.7625	-3.1854	-3.1583	-2.7896	-3.1896	246.530	415.021	190.105	378.910	369.985	237.804	390.740	415.998	146.420	218.162	453.747	223.639	303.111	323.992	289.431	114.481	0.00063281	0.00029165	0.00013361	497.41	4.4336e-06	5.1339e-06	540.81	189.22	3.0464e-06	2.6249e-06	231.62	103.91	80.161	46.03	6.038e-06	57.738	0.00032488	0.00026224	7.2666e-05	505.37	2.8372e-06	2.7804e-06	545.17	193.03	2.8229e-06	2.8202e-06	236.14	105.86	82.192	47.809	2.9628e-06	58.942	262.759	168.865	167.488	111.786	264.547	234.428	109.907	116.908	294.130	245.760	113.912	119.061	121.672	127.002	271.820	122.782	-8191	255	
1718.187	1	1	0	0	0.3272	0.10538	0.156	0.041777	0.25009	0.12821	0.046235	0.28796	0.16111	0.11397	0.18469	0.19251	0.096888	0.22853	0.18452	0.06699	-2.5125	-3.1083	-3.0187	-2.8604	-3.2479	-2.9521	-2.9208	-3.2271	-3.0396	-3.1	-3.0312	-2.9	-3.0583	-2.9875	-3.0229	-3.0958	354.800	401.402	424.302	390.579	126.898	130.198	324.069	146.098	409.696	336.516	398.447	108.400	391.647	435.090	385.959	449.542	0.00066136	0.00033715	0.00012215	495.86	3.8732e-06	3.9445e-06	540.94	190.1	3.7713e-06	4.7483e-06	233.3	104.5	80.508	46.258	6.4841e-06	57.96	0.00032672	0.00026421	7.3538e-05	504.9	2.8465e-06	2.8549e-06	546.71	193.76	2.8452e-06	2.8432e-06	237.49	106.54	82.708	48.06	2.9488e-06	59.231	261.462	220.132	158.780	111.766	286.938	256.572	109.706	116.975	280.639	269.108	113.864	119.045	121.764	126.906	282.309	122.667	-8191	255	
1718.308	1	1	0	0	0.13057	0.072737	0.42758	0.16504	0.13111	0.11081	0.19244	0.25229	0.24959	0.078963	0.10554	0.12343	0.25446	0.30303	0.119	0.087598	-2.575	-3.0354	-3.1354	-2.9229	-3.1042	-2.8333	-3.075	-3.2729	-2.7833	-3.0875	-3.1271	-3.0375	-2.9771	-3.0104	-2.9042	-3.3063	348.256	410.951	399.313	103.164	339.694	311.596	244.477	100.775	341.891	265.468	221.465	128.449	396.011	105.900	287.746	407.160	0.00066276	0.000364	0.00012921	496.97	5.0585e-06	4.7209e-06	541.28	190.34	3.9167e-06	5.5999e-06	234.11	105.14	80.672	46.204	6.4786e-06	57.802	0.00033069	0.00026238	7.4068e-05	505.85	2.8011e-06	2.8142e-06	548.42	194	2.8798e-06	2.9104e-06	238.12	106.87	82.554	47.883	2.9163e-06	59.284	260.084	199.140	193.833	111.935	276.735	256.619	109.915	117.172	282.448	240.379	113.746	119.227	121.742	126.874	288.831	122.645	-8191	255	
1718.402	1	1	0	0	0.19854	0.20156	0.27351	0.1009	0.27985	0.059551	0.15874	0.31279	0.1648	0.061965	0.051282	0.27429	0.10046	0.079753	0.070331	0.066305	-2.6354	-2.9417	-3.1271	-3.0104	-3.0125	-3.1312	-2.9229	-3.3042	-2.9604	-3.0667	-3.2792	-2.9354	-3.1125	-3.1146	-3.0417	-3.3187	151.542	371.412	186.391	192.419	449.449	259.950	306.326	344.413	413.248	180.915	444.621	349.707	244.229	258.314	315.045	135.950	0.00067027	0.0004793	0.00015206	499.1	4.8346e-06	5.8224e-06	543.27	189.37	4.9968e-06	5.1958e-06	234.05	104.63	79.437	45.662	5.8744e-06	57.932	0.00032788	0.00026728	7.4111e-05	505.73	2.8447e-06	2.8648e-06	549.82	193.61	2.8907e-06	2.8996e-06	238.56	106.42	81.615	47.337	2.9787e-06	59.147	263.612	194.336	178.515	111.890	258.115	234.289	109.808	117.046	288.812	246.635	113.834	119.431	121.747	126.916	289.300	122.734	-8191	255	
1718.498	1	1	0	0	0.022407	0.19137	0.37988	0.12927	0.26	0.18834	0.20137	0.18954	0.12452	0.30694	0.11063	0.14727	0.080954	0.18244	0.17402	0.1595	-2.6896	-2.8333	-3.125	-2.7562	-3.1063	-3.1437	-2.8792	-3.1833	-3.0917	-2.8333	-3.2438	-2.85	-2.9313	-3.1896	-2.9792	-3.2208	382.812	170.917	427.351	385.118	170.979	216.491	428.679	420.851	404.482	237.752	375.306	449.633	210.098	408.857	145.961	184.368	0.00061314	0.00053492	9.3711e-05	498.95	3.5949e-06	5.4712e-06	541.91	188.83	2.7962e-06	4.6067e-06	232.62	103.5	78.277	44.602	5.8281e-06	56.755	0.00032977	0.00026899	7.3182e-05	506.1	2.8002e-06	2.8738e-06	551.6	192.73	2.8409e-06	2.8695e-06	237.93	105.38	80.297	46.194	2.9239e-06	58.16	260.338	193.638	152.257	111.580	266.889	271.770	109.776	117.006	287.696	254.461	114.217	119.329	121.791	127.108	267.754	122.672	-8191	255	
1718.595	1	1	0	0	0.19673	0.33325	0.18708	0.17827	0.28611	0.078766	0.20256	0.017173	0.28624	0.23262	0.13238	0.017832	0.19549	0.22573	0.061351	0.034472	-2.5333	-3.0333	-3.0729	-2.8146	-3.0625	-3.2229	-2.775	-3.1354	-3.1792	-2.8583	-3.0979	-2.975	-2.9125	-3.1833	-3.0312	-3.0938	163.316	203.702	308.097	299.753	101.546	332.615	410.294	342.281	219.507	169.836	412.401	175.507	129.728	103.697	363.862	445.271	0.00067207	0.00031274	5.9464e-05	498.79	5.6817e-06	6.1185e-06	544.55	187.22	4.5767e-06	3.0989e-06	232.18	101.88	77.331	44.135	6.5484e-06	56.356	0.00032637	0.00026151	7.0699e-05	507.67	2.8771e-06	2.8741e-06	552.42	191.52	2.8985e-06	2.8881e-06	236.81	104.25	79.479	45.753	2.9301e-06	57.733	260.497	207.727	181.058	111.720	273.367	226.306	110.048	117.034	276.923	233.549	113.910	119.350	121.845	127.035	269.177	123.082	-8191	255	
1718.715	1	1	0	0	0.32279	0.11933	0.13941	0.23114	0.060545	0.32516	0.044841	0.058668	0.25138	0.1035	0.023173	0.22082	0.13013	0.15125	0.087094	0.25978	-2.6646	-2.7521	-3.075	-2.7812	-3.0542	-3.2458	-2.8937	-3.1104	-3.0875	-2.9208	-3.2292	-2.825	-2.8042	-3.2208	-2.9625	-2.9979	166.684	302.997	294.714	324.707	294.933	338.126	278.623	188.606	234.965	236.575	383.609	448.688	424.660	418.566	275.441	377.082	0.00063615	0.0003088	7.1312e-05	494.1	3.8053e-06	4.7248e-06	537.78	185.74	3.3721e-06	1.7372e-06	228.84	100.16	76.515	43.493	4.1286e-06	55.364	0.00032347	0.00026344	7.1617e-05	504.11	2.8619e-06	2.8245e-06	544.34	190.13	2.869e-06	2.8056e-06	232.97	102.49	78.486	45.085	2.9037e-06	56.602	260.173	194.577	178.905	111.662	285.880	225.483	109.907	117.067	264.818	244.636	113.845	119.122	121.777	127.041	268.740	122.804	-8191	255	
1718.811	1	1	0	0	0.20681	0.1949	0.15057	0.26384	0.14525	0.13957	0.09127	0.26214	0.1947	0.11994	0.28956	0.079456	0.16958	0.094702	0.093813	0.059193	-2.8479	-2.7583	-2.9375	-3.0896	-2.8417	-3.1229	-2.8417	-2.9854	-3.1396	-2.8479	-3.1	-3.1708	-2.9729	-3.2958	-3.0938	-2.9708	335.007	275.335	394.304	376.762	404.022	140.249	134.768	351.406	126.475	223.268	391.162	333.575	333.660	415.670	417.543	328.403	0.00063832	0.00040178	0.0001169	495.62	2.1475e-06	2.1205e-06	535.79	185.97	3.0214e-06	4.8386e-06	227.96	100.46	76.907	43.6	5.6712e-06	55.361	0.00032556	0.00025346	7.0913e-05	503.26	2.8441e-06	2.7886e-06	543.43	189.47	2.7914e-06	2.8064e-06	232.3	102.3	78.634	45.159	2.942e-06	56.931	263.194	181.044	190.128	111.344	254.400	268.497	109.547	116.853	259.888	236.013	113.886	119.151	121.843	127.123	282.248	122.889	-8191	255	
1718.883	1	1	0	0	0.10369	0.30403	0.17479	0.14322	0.098996	0.16998	0.19465	0.26973	0.11473	0.28325	0.1642	0.28694	0.12894	0.30786	0.15306	0.11676	-2.8417	-2.9104	-3.2292	-3.1604	-2.775	-3.1771	-3.0146	-3	-3.1458	-2.9625	-3.0896	-3.0604	-2.9396	-3.3271	-2.8875	-3.1042	319.834	368.901	295.700	352.578	352.222	330.329	353.552	400.536	102.695	204.316	372.726	369.766	114.641	102.067	351.506	143.981	0.00062267	0.0004522	9.9328e-05	496.35	3.0804e-06	3.5309e-06	537.35	185.85	3.2362e-06	4.0036e-06	229.26	100.78	76.573	43.543	4.9615e-06	55.679	0.00032	0.00026149	7.2499e-05	504.46	2.8294e-06	2.8079e-06	544.69	189.85	2.7666e-06	2.7801e-06	233.42	102.57	78.598	45.111	2.8393e-06	56.955	263.392	179.802	201.313	111.765	282.770	253.577	109.736	117.000	289.431	277.264	113.947	119.134	121.797	127.245	270.750	122.717	-8191	255	
1718.979	1	1	0	0	0.26791	0.44178	0.04002	0.13866	0.13574	0.01471	0.15846	0.073042	0.20121	0.16572	0.13626	0.25454	0.22545	0.10052	0.12264	0.2421	-2.4333	-2.7271	-3.1708	-3.1104	-2.6333	-3.3104	-2.9896	-2.8875	-3.1729	-2.9896	-3.0896	-3.1104	-2.7125	-3.1479	-2.9354	-2.925	402.684	125.283	436.019	107.328	296.989	299.785	335.603	352.231	284.793	357.261	397.655	130.812	210.120	347.391	143.370	338.280	0.00067526	0.00034987	7.9436e-05	497.3	3.2613e-06	3.6571e-06	538.42	184.44	4.2747e-06	3.4302e-06	229.14	99.983	75.904	42.853	5.9596e-06	55.027	0.00032144	0.00025558	7.2176e-05	504.72	2.7751e-06	2.8273e-06	545.22	189.05	2.8038e-06	2.8408e-06	232.94	102.15	77.802	44.431	2.9548e-06	56.38	261.509	213.344	174.087	111.706	288.123	220.772	109.876	117.069	279.930	242.859	114.030	119.171	121.763	127.212	260.378	123.019	-8191	255	
1719.100	1	1	0	0	0.13609	0.17205	0.35813	0.075115	0.26135	0.12687	0.13923	0.1046	0.040643	0.12117	0.28377	0.12185	0.12118	0.14948	0.08765	0.25006	-2.8042	-2.8187	-2.9021	-3.1625	-2.8375	-3.3021	-3.1396	-3.0521	-3.2583	-2.7938	-2.9708	-3.2875	-2.9083	-3.2521	-3.1604	-2.9604	341.568	130.932	153.913	392.794	109.799	269.464	240.292	377.405	380.799	231.031	412.555	375.569	355.998	185.170	163.216	440.802	0.00062322	0.00045875	9.9769e-05	498.15	5.367e-06	5.4765e-06	537.89	184.92	2.8612e-06	4.5138e-06	226.93	99.055	75.619	42.56	6.5114e-06	54.221	0.00032126	0.00026165	7.2724e-05	504.44	2.8459e-06	2.8004e-06	544.45	188.21	2.8186e-06	2.8319e-06	231.06	100.88	77.304	44.131	2.8965e-06	55.623	261.839	197.199	212.453	111.516	266.945	244.112	109.720	117.150	273.994	262.004	113.796	119.338	121.723	127.230	277.887	122.839	-8191	255	
1719.196	1	1	0	0	0.047572	0.26967	0.064525	0.22911	0.12372	0.15291	0.17145	0.29038	0.064505	0.021762	0.14018	0.12889	0.069623	0.15838	0.17499	0.049669	-2.6708	-2.8063	-2.9792	-3.3229	-2.8896	-3.0438	-3.3187	-2.9083	-3.1229	-2.9938	-2.925	-3.1312	-2.8396	-2.8812	-2.9	-3.0604	170.414	358.990	298.180	362.785	359.894	175.966	244.771	399.465	425.896	293.492	326.614	126.427	350.798	193.831	384.679	140.806	0.00061466	0.00037685	0.00011542	494.22	3.9268e-06	3.5582e-06	532.28	184.28	3.8331e-06	3.0949e-06	225.22	98.529	75.938	42.705	6.277e-06	54.712	0.00031779	0.00025902	7.2525e-05	503.2	2.7988e-06	2.8126e-06	538.12	187.83	2.7772e-06	2.8393e-06	229.27	100.58	77.729	44.429	2.9111e-06	55.975	264.070	184.459	176.714	111.513	281.119	243.041	109.760	116.754	276.590	269.433	113.609	119.352	121.740	127.132	291.998	123.034	-8191	255	
1719.290	1	1	0	0	0.059918	0.20118	0.15914	0.17054	0.16529	0.22201	0.052603	0.17274	0.26728	0.19943	0.14024	0.14677	0.12917	0.13346	0.1452	0.18359	-2.8583	-2.9062	-2.7604	-3.0896	-2.8771	-2.85	-3.0708	-2.9417	-3.0687	-2.7708	-2.9417	-3.1604	-2.8646	-3.025	-3.0938	-2.9062	317.965	360.698	434.880	440.294	175.003	454.978	288.106	351.171	355.446	346.034	393.285	171.040	440.609	353.194	116.230	271.262	0.00063797	0.00043241	9.3523e-05	492.92	4.2012e-06	3.3117e-06	530.55	184.7	3.575e-06	3.1774e-06	225.87	99.301	76.653	43.518	6.2516e-06	55.539	0.00031738	0.00025785	7.4144e-05	502.05	2.8236e-06	2.7897e-06	538.83	188.8	2.799e-06	2.8813e-06	230.75	101.66	78.518	45.128	2.9801e-06	56.813	262.751	212.285	180.695	111.690	301.358	247.530	109.965	116.908	282.906	237.486	113.869	119.114	121.989	127.012	265.079	122.947	-8191	255	
1719.388	1	1	0	0	0.14416	0.23472	0.27213	0.097428	0.13438	0.044928	0.13629	0.07665	0.021914	0.082792	0.18647	0.12386	0.065043	0.20846	0.041485	0.12377	-2.6583	-3.0438	-2.8812	-3.0938	-3.0104	-3.0708	-3.3229	-2.9542	-3.0833	-2.9417	-3.0083	-3.3083	-3.0812	-2.875	-3.1021	-3.1063	357.303	200.989	309.153	135.027	335.298	442.062	179.957	438.197	214.411	231.988	395.302	372.087	223.099	433.511	456.840	124.310	0.00064638	0.00056307	9.4245e-05	494.04	4.5292e-06	5.2713e-06	532.67	186.51	2.7454e-06	3.3157e-06	228.7	101.87	78.153	44.791	5.8575e-06	56.878	0.00033255	0.00026515	7.4049e-05	502.83	2.8848e-06	2.9232e-06	540.13	190.62	2.8924e-06	2.944e-06	233.48	103.8	80.142	46.414	2.9679e-06	58.303	261.123	189.725	219.495	111.703	288.019	274.337	109.771	117.007	256.026	278.209	113.782	119.183	121.656	127.051	262.344	122.920	-8191	255	
1719.483	1	1	0	0	0.17732	0.27133	0.19867	0.18298	0.1038	0.025811	0.19555	0.18274	0.14117	0.20417	0.13895	0.095464	0.14198	0.071939	0.32724	0.19029	-2.5958	-2.8833	-2.9646	-3.1688	-3.0167	-3.0375	-3.1521	-3.0375	-3.125	-3.175	-2.8958	-3.1896	-3.0646	-2.85	-3.0875	-3.0271	358.675	334.320	240.400	345.304	326.452	204.418	120.622	406.700	365.247	248.352	188.381	376.292	215.017	370.001	240.041	417.949	0.00064742	0.00028326	0.00012274	495.18	5.6547e-06	5.7484e-06	537.68	188.2	2.5821e-06	4.7278e-06	230.47	102.94	79.112	45.117	5.3439e-06	56.692	0.00033663	0.00027232	7.4412e-05	503.44	2.9823e-06	2.9763e-06	543.48	192.46	2.9665e-06	2.9741e-06	235.58	105.06	80.967	46.805	2.9402e-06	58.379	260.552	191.940	181.353	111.712	273.815	255.275	109.927	116.952	281.455	235.495	113.708	119.378	121.753	127.085	269.596	122.881	-8191	255	
1719.581	1	1	0	0	0.086964	0.1179	0.14677	0.19384	0.068198	0.20923	0.17142	0.10395	0.25048	0.25011	0.089047	0.23459	0.17935	0.22517	0.062577	0.19269	-2.5229	-2.8104	-2.6625	-3.2	-3.0271	-2.6042	-3.2938	-2.8375	-2.8958	-3.0438	-2.8542	-3.0542	-3.0312	-2.9167	-2.9958	-3.0938	435.402	315.162	127.025	430.020	443.822	324.067	139.728	322.308	307.072	380.544	383.460	344.028	425.777	406.066	293.578	145.721	0.00062834	0.00031172	0.00012372	495.92	4.8831e-06	4.2326e-06	532.49	187.66	3.5301e-06	3.0115e-06	228.13	101.11	78.366	44.879	4.957e-06	56.325	0.00033388	0.00027377	7.5444e-05	503.13	2.9594e-06	2.9458e-06	537.22	191.1	2.9991e-06	3.003e-06	231.96	103.37	80.475	46.619	2.9769e-06	57.713	260.675	196.716	211.360	111.704	263.648	256.588	109.789	116.905	291.885	221.968	114.034	119.304	121.585	126.862	265.549	122.749	-8191	255	
1719.699	1	1	0	0	0.061071	0.14597	0.046035	0.044201	0.067163	0.083675	0.0816	0.24399	0.17652	0.18412	0.10167	0.091812	0.23557	0.054028	0.11071	0.17197	-2.6063	-3.2188	-2.7229	-3.1229	-3.0729	-2.9625	-3.1188	-2.9771	-2.9917	-3.0333	-2.7917	-3.1083	-3.025	-2.9062	-3.2125	-2.9271	301.817	367.080	392.609	181.039	440.398	213.142	182.293	457.995	305.248	315.790	139.685	377.109	432.603	217.969	172.898	424.288	0.00064558	0.00032762	0.00015128	495.8	3.7854e-06	3.0533e-06	527.76	186.55	4.3201e-06	3.5342e-06	229.97	102.06	79.436	45.622	4.0998e-06	57.155	0.00033773	0.00026865	7.6217e-05	501.81	2.9652e-06	2.9338e-06	535.1	191.18	3.0038e-06	2.8982e-06	233.08	104.29	81.305	47.368	3.0629e-06	58.62	263.862	185.677	190.061	111.666	260.781	238.266	109.802	116.964	280.484	277.911	113.800	119.069	121.916	126.752	269.139	122.612	-8191	255	
1719.796	1	1	0	0	0.14548	0.1257	0.069302	0.069531	0.077129	0.15072	0.12337	0.15719	0.15424	0.13535	0.13482	0.048178	0.079315	0.19755	0.12269	0.31907	-2.6271	-3.1458	-2.7625	-3.1562	-3.1021	-2.8729	-3.2396	-2.8875	-2.9354	-3.1813	-2.9167	-2.9271	-3.0979	-2.8812	-3.0854	-3.0062	217.405	213.827	373.405	225.418	411.681	278.449	360.339	101.352	223.156	406.958	413.934	294.616	107.444	336.567	140.677	350.689	0.00064859	0.00042629	0.000127	493.6	2.7292e-06	4.7822e-06	531.83	188.37	3.8697e-06	4.8387e-06	229.64	103.13	80.496	46.248	4.3259e-06	58.077	0.00033927	0.00027076	7.56e-05	501.65	2.9827e-06	2.9416e-06	537.87	192.51	3.0083e-06	2.9159e-06	234.58	105.38	82.348	47.924	3.0692e-06	59.47	260.921	203.548	186.321	111.847	293.719	256.840	109.831	117.153	280.311	247.040	113.910	119.133	121.872	126.876	260.865	122.832	-8191	255	
1719.892	1	1	0	0	0.13016	0.096335	0.1995	0.1317	0.11895	0.16894	0.17278	0.21689	0.085305	0.2476	0.019334	0.11328	0.14349	0.22494	0.11886	0.21394	-2.6333	-2.9604	-2.9229	-3.1688	-3.0062	-2.8417	-3.0187	-3.1625	-2.8042	-3.0708	-3.0292	-3	-3.1896	-3	-2.9562	-2.9333	348.599	194.922	434.888	210.269	252.713	263.332	366.492	129.547	411.063	385.807	228.197	235.407	370.036	439.322	178.239	450.230	0.00066118	0.00050121	0.00013294	492.87	4.3122e-06	6.5447e-06	530.76	190.28	3.7305e-06	4.4671e-06	232.93	103.84	80.982	46.255	7.8503e-06	58.204	0.00033866	0.00027185	7.6645e-05	502.15	3.0099e-06	2.9904e-06	538.61	193.97	3.0526e-06	2.9671e-06	237	106.25	82.633	48.058	3.0778e-06	59.622	260.267	185.115	194.038	111.529	292.657	262.600	109.924	116.984	295.360	245.432	113.990	119.315	121.716	126.998	268.742	122.689	-8191	255	
1719.988	1	1	0	0	0.21216	0.22129	0.167	0.15384	0.17158	0.27135	0.22233	0.17549	0.14813	0.031187	0.14153	0.0080898	0.41974	0.4212	0.089553	0.076107	-2.5646	-3.1937	-2.8167	-2.9167	-3.2313	-3.0083	-3.2562	-3.0938	-3.0583	-3.1417	-2.9813	-3.0417	-3.225	-2.8354	-3.1271	-2.9958	294.306	108.379	202.016	275.769	302.781	261.053	110.331	446.419	322.984	192.881	306.475	156.394	437.809	102.809	385.430	410.637	0.00068787	0.00036897	0.00012047	494.58	3.0603e-06	4.6051e-06	531.94	187.77	4.3323e-06	4.0386e-06	229.07	102.08	78.869	45.115	6.0459e-06	56.456	0.00034328	0.00027646	7.6507e-05	503.04	2.8963e-06	2.9309e-06	539.12	192.08	2.9546e-06	2.9062e-06	232.96	104.03	80.844	46.837	2.9859e-06	57.941	259.820	190.439	194.929	111.602	273.432	246.155	109.765	116.868	275.237	228.998	113.811	119.169	121.666	126.906	283.902	122.551	-8191	255	
1720.108	1	1	0	0	0.21384	0.13472	0.15178	0.19898	0.15937	0.045491	0.07881	0.09198	0.20544	0.1362	0.19822	0.36404	0.090001	0.17603	0.15539	0.43101	-2.3125	-3.0208	-2.8646	-2.9562	-3.0646	-2.8146	-2.9375	-3.3292	-2.9062	-3.1833	-3.075	-2.9708	-3.1937	-3.0333	-3.0354	-3.1833	142.191	225.022	214.444	432.635	342.935	305.616	441.720	346.753	337.829	186.370	292.104	275.293	382.827	110.375	281.641	352.730	0.00063902	0.00033855	0.0001155	491.49	3.5467e-06	2.5691e-06	526.67	187.32	2.3261e-06	4.9658e-06	226.78	101.48	78.633	45.334	6.7632e-06	56.808	0.000332	0.00026678	7.4721e-05	500.28	2.8236e-06	2.9501e-06	532.11	191.02	2.9272e-06	2.9165e-06	230.95	103.35	80.706	46.955	3.0009e-06	58.159	260.865	179.425	175.816	111.841	296.263	209.550	109.803	116.769	273.093	251.499	113.884	119.106	121.871	126.972	275.794	122.496	-8191	255	
1720.180	1	1	0	0	0.14386	0.17247	0.047343	0.099203	0.21313	0.079124	0.098306	0.22647	0.16293	0.21931	0.15222	0.2495	0.15242	0.059964	0.15995	0.152	-2.4854	-3.2292	-2.9708	-2.8479	-3.0917	-3.0917	-2.9146	-3.1479	-2.8	-2.9979	-3.1042	-2.8146	-3.1396	-3.0125	-2.8271	-3.2938	231.564	159.812	129.345	134.320	303.064	326.162	375.364	343.646	386.646	251.250	431.706	127.034	409.677	149.822	134.153	371.828	0.00066138	0.00041055	0.00010488	491.9	3.3998e-06	4.0738e-06	525.98	188.22	5.231e-06	4.79e-06	229.08	103.43	80.779	46.376	7.8223e-06	58.221	0.00033676	0.00026291	7.6424e-05	500.78	2.8947e-06	2.9671e-06	533.45	192.75	2.9333e-06	2.9967e-06	234.12	105.55	82.631	48.091	3.0926e-06	59.603	261.139	204.102	179.541	111.793	287.529	245.274	109.895	116.893	269.797	245.239	113.897	119.288	121.927	126.847	276.920	122.543	-8191	255	
1720.276	1	1	0	0	0.0537	0.16692	0.19913	0.3868	0.066379	0.28437	0.18376	0.16238	0.3715	0.21098	0.10202	0.081877	0.22742	0.12372	0.18529	0.21013	-2.5021	-2.9854	-2.9042	-2.9979	-3.2208	-2.9354	-3.0062	-3.2354	-2.9271	-3.0875	-3.0083	-2.8375	-3.3625	-3.0854	-2.9625	-3.0479	284.095	415.067	380.872	104.936	137.815	158.767	404.942	365.736	116.848	390.235	140.894	419.219	407.217	108.941	410.272	108.852	0.00065234	0.00048693	8.9484e-05	494.69	4.0132e-06	5.4179e-06	534.48	190.21	3.5048e-06	3.7003e-06	230.97	105.17	81.547	47.078	4.0857e-06	59.024	0.00034076	0.0002756	7.5531e-05	503.13	2.952e-06	3.0331e-06	538.65	194.25	2.9945e-06	3.0094e-06	236.32	107.16	83.419	48.698	3.0906e-06	60.367	261.197	186.874	185.227	111.806	241.023	240.787	109.871	117.220	292.813	250.740	114.041	119.224	122.007	126.658	280.252	122.769	-8191	255	
1720.372	1	1	0	0	0.22793	0.20996	0.068718	0.11915	0.090724	0.091484	0.047059	0.21181	0.20423	0.14167	0.18657	0.20796	0.30237	0.31894	0.062052	0.12186	-2.5208	-3.0479	-3.0354	-2.8229	-3.1771	-3.0062	-2.8417	-3.1625	-2.8354	-2.9042	-3.2125	-2.8229	-3.1917	-3.1229	-2.8688	-3.1188	337.031	374.368	369.045	396.719	129.652	152.763	111.053	403.529	205.570	379.138	285.385	312.089	417.588	393.463	330.001	434.191	0.00065353	0.00035781	6.8798e-05	496.47	3.7907e-06	4.6328e-06	536.77	190.88	1.8907e-06	3.2082e-06	233.65	105.59	81.151	46.976	5.9005e-06	59.255	0.0003399	0.0002768	7.5371e-05	504.36	2.9273e-06	2.9956e-06	542.42	194.9	3.0272e-06	3.0516e-06	237.56	107.67	83.442	48.805	3.0746e-06	60.569	261.274	176.373	193.780	111.785	291.667	250.052	109.662	117.152	275.743	239.494	114.011	118.950	121.942	126.905	290.201	122.749	-8191	255	
1720.491	1	1	0	0	0.20838	0.13455	0.15931	0.14123	0.15316	0.20846	0.20603	0.095973	0.29642	0.13926	0.20314	0.13753	0.080749	0.20283	0.14149	0.089186	-2.5917	-2.8146	-3.1396	-2.7646	-3.025	-2.9771	-2.8271	-3.4083	-2.9896	-2.9688	-3.2167	-2.9562	-2.9854	-2.9771	-2.8146	-3.3292	249.557	338.317	328.032	390.713	234.108	332.914	391.809	136.829	349.487	138.703	168.865	332.482	256.998	371.915	132.945	373.456	0.00069163	0.00032076	9.1024e-05	497.64	3.5079e-06	2.511e-06	533.18	191.35	3.3548e-06	6.6549e-06	233.15	105.11	81.395	47.266	5.6616e-06	58.628	0.00034952	0.00028528	7.6671e-05	505.25	3.0153e-06	3.0937e-06	540.08	195.26	3.0674e-06	3.0432e-06	236.6	107.16	83.866	48.917	3.0824e-06	60.133	261.348	215.582	176.889	111.618	281.906	255.693	110.150	117.165	277.475	266.149	113.687	119.285	122.011	126.757	260.118	122.447	-8191	255	
1720.587	1	1	0	0	0.071971	0.055542	0.20404	0.14239	0.2168	0.24951	0.13026	0.15049	0.15369	0.31373	0.0518	0.12996	0.35993	0.1618	0.071708	0.23327	-2.4625	-2.9771	-3.2854	-2.8688	-2.8333	-3.1167	-2.7917	-3.3167	-3.0146	-2.7771	-3.1396	-2.7917	-3.0479	-3.1208	-2.6833	-3.1854	320.492	395.543	433.890	108.875	264.426	226.204	247.559	324.453	231.234	154.707	183.908	118.031	287.192	125.576	268.828	99.567	0.00063878	0.00031002	0.00012353	493.62	3.8817e-06	4.6693e-06	528.43	190.22	3.5515e-06	5.537e-06	231.01	104.43	80.771	46.676	5.1356e-06	58.271	0.00034617	0.00028098	7.585e-05	503.34	2.9548e-06	2.9783e-06	535.93	194.39	2.9865e-06	3.0017e-06	235.42	106.49	83.064	48.433	3.0962e-06	59.663	262.192	190.754	198.004	111.524	262.803	223.678	109.959	117.078	296.305	252.616	113.543	119.276	121.755	126.740	260.157	122.585	-8191	255	
#DATA ENDS
