BOXY.EXE: ISS Imagent and Oximeter Data Acquisition Program Version 0.80
Ascii Record File

#ACQ INFORMATION
2  Detector Channels 
16  External MUX Channels 
1  Auxiliary Channels 
5000  Waveform (CCF) Frequency (Hz)
1  Waveforms Skipped 
30  Waveforms Averaged 
1  Cycles Averaged 
16  Acquisitions per Waveform 
10.0806  Updata Rate (Hz) 

#FILE INFORMATION
TRUE -- External MUX Channel results are PARSED.
FALSE -- AC DC and Phase are NOT grouped.
TRUE -- Companion Program Settings File CREATED.
FALSE -- AC data not excluded
FALSE -- DC data not excluded
FALSE -- Phase data not excluded
FALSE -- Auxillary Chn. data not excluded
Tab delimiters

#CALIBRATION STATE
TRUE -- Waveform Calibration Values APPLIED.


#AUX CALIBRATION VALUES
Val Type	aux-1	

Term	1.0000e+00	
Factor	0.0000e+00	


#WF CALIBRATION VALUES
A = Detector Channel
Val Type	A-AC1	A-AC2	A-AC3	A-AC4	A-AC5	A-AC6	A-AC7	A-AC8	A-AC9	A-AC10	A-AC11	A-AC12	A-AC13	A-AC14	A-AC15	A-AC16	A-DC1	A-DC2	A-DC3	A-DC4	A-DC5	A-DC6	A-DC7	A-DC8	A-DC9	A-DC10	A-DC11	A-DC12	A-DC13	A-DC14	A-DC15	A-DC16	A-Ph1	A-Ph2	A-Ph3	A-Ph4	A-Ph5	A-Ph6	A-Ph7	A-Ph8	A-Ph9	A-Ph10	A-Ph11	A-Ph12	A-Ph13	A-Ph14	A-Ph15	A-Ph16	

Term	0.00000e+00	0.00000e+00	0.00000e+00	0.00000e+00	0.00000e+00	0.00000e+00	0.00000e+00	0.00000e+00	0.00000e+00	0.00000e+00	0.00000e+00	0.00000e+00	0.00000e+00	0.00000e+00	0.00000e+00	0.00000e+00	0.00000e+00	0.00000e+00	0.00000e+00	0.00000e+00	0.00000e+00	0.00000e+00	0.00000e+00	0.00000e+00	0.00000e+00	0.00000e+00	0.00000e+00	0.00000e+00	0.00000e+00	0.00000e+00	0.00000e+00	0.00000e+00	0.00000e+00	0.00000e+00	0.00000e+00	0.00000e+00	0.00000e+00	0.00000e+00	0.00000e+00	0.00000e+00	0.00000e+00	0.00000e+00	0.00000e+00	0.00000e+00	0.00000e+00	0.00000e+00	0.00000e+00	0.00000e+00	
Factor	1.00000e+00	1.00000e+00	1.00000e+00	1.00000e+00	1.00000e+00	1.00000e+00	1.00000e+00	1.00000e+00	1.00000e+00	1.00000e+00	1.00000e+00	1.00000e+00	1.00000e+00	1.00000e+00	1.00000e+00	1.00000e+00	1.00000e+00	1.00000e+00	1.00000e+00	1.00000e+00	1.00000e+00	1.00000e+00	1.00000e+00	1.00000e+00	1.00000e+00	1.00000e+00	1.00000e+00	1.00000e+00	1.00000e+00	1.00000e+00	1.00000e+00	1.00000e+00	X	X	X	X	X	X	X	X	X	X	X	X	X	X	X	X	

B = Detector Channel
Val Type	B-AC1	B-AC2	B-AC3	B-AC4	B-AC5	B-AC6	B-AC7	B-AC8	B-AC9	B-AC10	B-AC11	B-AC12	B-AC13	B-AC14	B-AC15	B-AC16	B-DC1	B-DC2	B-DC3	B-DC4	B-DC5	B-DC6	B-DC7	B-DC8	B-DC9	B-DC10	B-DC11	B-DC12	B-DC13	B-DC14	B-DC15	B-DC16	B-Ph1	B-Ph2	B-Ph3	B-Ph4	B-Ph5	B-Ph6	B-Ph7	B-Ph8	B-Ph9	B-Ph10	B-Ph11	B-Ph12	B-Ph13	B-Ph14	B-Ph15	B-Ph16	

Term	0.00000e+00	0.00000e+00	0.00000e+00	0.00000e+00	0.00000e+00	0.00000e+00	0.00000e+00	0.00000e+00	0.00000e+00	0.00000e+00	0.00000e+00	0.00000e+00	0.00000e+00	0.00000e+00	0.00000e+00	0.00000e+00	0.00000e+00	0.00000e+00	0.00000e+00	0.00000e+00	0.00000e+00	0.00000e+00	0.00000e+00	0.00000e+00	0.00000e+00	0.00000e+00	0.00000e+00	0.00000e+00	0.00000e+00	0.00000e+00	0.00000e+00	0.00000e+00	-4.24325e+01	-1.27480e+02	-1.29113e+02	-1.83247e+02	-3.31036e+01	-6.42020e+01	-1.56812e+02	-1.62015e+02	-3.27297e+01	-6.89849e+01	-1.75831e+02	-1.71950e+02	-1.80238e+02	-1.77035e+02	-4.28051e+01	-1.49655e+02	
Factor	2.34302e-05	1.84395e-04	5.28880e-05	1.78417e-01	1.82338e-06	2.35056e-06	2.06794e-01	6.19505e-02	1.44642e-06	2.13698e-06	1.21363e-01	3.46114e-02	3.06045e-02	1.06869e-02	2.17603e-06	1.56232e-02	5.23884e-06	6.25852e-06	1.74260e-06	8.57108e-02	6.65713e-08	6.86765e-08	9.29982e-02	2.98139e-02	6.64213e-08	6.86137e-08	5.63353e-02	1.61712e-02	1.48215e-02	5.17988e-03	6.74619e-08	7.31005e-03	X	X	X	X	X	X	X	X	X	X	X	X	X	X	X	X	



#DISTANCE SETTINGS
A = Detector Channel
A-1	A-2	A-3	A-4	A-5	A-6	A-7	A-8	A-9	A-10	A-11	A-12	A-13	A-14	A-15	A-16	

2.5000e+00	3.0000e+00	2.5000e+00	3.0000e+00	2.0000e+00	3.0000e+00	1.5000e+00	3.0000e+00	3.0000e+00	3.0000e+00	3.0000e+00	3.0000e+00	3.0000e+00	3.0000e+00	1.5000e+00	3.0000e+00	

B = Detector Channel
B-1	B-2	B-3	B-4	B-5	B-6	B-7	B-8	B-9	B-10	B-11	B-12	B-13	B-14	B-15	B-16	

1.0000e+01	1.0000e+01	1.0000e+01	1.4400e+00	1.0000e+01	1.0000e+01	1.5100e+00	1.9400e+00	1.0000e+01	1.0000e+01	1.9900e+00	2.4900e+00	2.4100e+00	2.9000e+00	1.0000e+01	2.9800e+00	




#DATA BEGINS
time	group	step	mark	flag	A-AC1	A-AC2	A-AC3	A-AC4	A-AC5	A-AC6	A-AC7	A-AC8	A-AC9	A-AC10	A-AC11	A-AC12	A-AC13	A-AC14	A-AC15	A-AC16	A-DC1	A-DC2	A-DC3	A-DC4	A-DC5	A-DC6	A-DC7	A-DC8	A-DC9	A-DC10	A-DC11	A-DC12	A-DC13	A-DC14	A-DC15	A-DC16	A-Ph1	A-Ph2	A-Ph3	A-Ph4	A-Ph5	A-Ph6	A-Ph7	A-Ph8	A-Ph9	A-Ph10	A-Ph11	A-Ph12	A-Ph13	A-Ph14	A-Ph15	A-Ph16	B-AC1	B-AC2	B-AC3	B-AC4	B-AC5	B-AC6	B-AC7	B-AC8	B-AC9	B-AC10	B-AC11	B-AC12	B-AC13	B-AC14	B-AC15	B-AC16	B-DC1	B-DC2	B-DC3	B-DC4	B-DC5	B-DC6	B-DC7	B-DC8	B-DC9	B-DC10	B-DC11	B-DC12	B-DC13	B-DC14	B-DC15	B-DC16	B-Ph1	B-Ph2	B-Ph3	B-Ph4	B-Ph5	B-Ph6	B-Ph7	B-Ph8	B-Ph9	B-Ph10	B-Ph11	B-Ph12	B-Ph13	B-Ph14	B-Ph15	B-Ph16	aux-1	digaux	

1584.474	1	1	0	256	0.11852	0.1495	0.25018	0.16095	0.18446	0.18754	0.17791	0.041085	0.10833	0.026312	0.075142	0.22741	0.050769	0.1662	0.082398	0.14507	-2.6292	-2.8896	-3.1375	-2.8396	-2.9938	-3.0687	-2.9625	-3.2583	-2.8958	-2.8937	-3.2104	-2.9146	-2.675	-3.2521	-2.8625	-3.1104	99.032	36.937	201.077	241.487	127.987	204.623	257.197	9.012	225.162	26.464	118.442	301.986	292.689	325.822	68.978	273.908	0.00025862	0.00082842	0.00017301	423.85	2.9033e-06	3.4305e-06	476.31	182.41	2.5302e-06	1.0633e-05	213.43	97.156	83.366	51.175	8.4482e-06	58.848	0.0025758	0.0030534	0.00087327	472.62	3.6339e-05	3.8692e-05	532.71	204.07	4.5864e-05	4.9676e-05	257.9	111.62	97.576	57.049	6.2115e-05	66.441	230.146	46.284	13.927	7.925	253.219	16.321	5.872	12.756	133.901	50.827	8.956	13.095	16.422	19.485	233.921	15.204	-8191	255	
1584.570	1	1	0	0	0.19901	0.2065	0.22606	0.091377	0.065009	0.16305	0.37913	0.20723	0.10557	0.1898	0.30288	0.2251	0.42674	0.16397	0.19498	0.13262	-2.6792	-2.8583	-3.2188	-3.1396	-2.9792	-3.0667	-3.0104	-3.0417	-3.3146	-2.8729	-3.2396	-2.8229	-2.8563	-3.2917	-2.8583	-2.9521	88.343	258.014	354.841	109.327	281.837	109.395	16.841	269.479	128.743	41.035	14.420	295.232	315.722	253.821	260.836	189.193	0.00033303	0.00076218	0.00032937	412.66	6.9591e-06	1.1283e-05	463.16	175.32	5.8962e-06	9.5812e-06	206.63	95.654	82.359	50.668	3.9467e-06	58.311	0.0051959	0.0062325	0.0017507	506.05	7.0112e-05	7.2614e-05	565.62	210.48	7.3155e-05	7.6323e-05	272.82	115.72	101.3	58.022	7.7291e-05	67.641	223.579	62.779	45.604	7.356	178.080	152.522	5.714	12.849	131.438	79.906	8.710	13.235	16.454	19.710	233.323	15.248	-8191	255	
1584.666	1	1	0	0	0.035445	0.16686	0.051329	0.098145	0.051403	0.20338	0.15819	0.23475	0.1156	0.17166	0.10912	0.069408	0.069504	0.1209	0.18583	0.061409	-2.7562	-2.8688	-2.9333	-3.1771	-2.9083	-3.2	-2.9771	-3.2042	-3.3771	-2.95	-3.2687	-3.2375	-2.7833	-3.3063	-2.8979	-3.1021	256.571	192.006	92.503	149.955	199.296	242.355	101.204	316.665	323.452	74.873	76.452	103.086	25.390	347.646	11.621	209.322	0.00030075	0.00089891	0.00016966	412.38	9.6262e-06	8.7556e-06	460.58	174.28	8.9455e-06	4.761e-06	205.78	95.84	81.833	49.772	1.6361e-05	56.547	0.0058971	0.0068276	0.0018679	507.58	7.0971e-05	7.4193e-05	566.46	210.75	7.4563e-05	7.7958e-05	272.43	115.78	100.45	57.064	7.7809e-05	66.008	237.834	137.891	92.102	7.724	154.416	164.414	5.792	13.182	260.300	194.128	9.107	13.296	16.463	19.554	194.421	15.328	-8191	255	
1584.762	1	1	0	0	0.13222	0.042505	0.013117	0.19216	0.14083	0.3367	0.20402	0.11143	0.049142	0.15363	0.16817	0.16921	0.17999	0.21627	0.089704	0.084693	-2.9521	-3.0479	-3.2917	-3.1188	-2.8417	-3.2313	-3.0208	-2.9188	-3.2125	-2.8438	-2.9667	-3.1625	-2.8208	-3.1875	-3.0062	-2.9542	354.247	150.433	115.180	304.435	212.588	302.359	312.711	296.654	92.774	166.157	-1.053	81.835	254.861	335.807	276.430	319.305	0.00032298	0.00091793	8.5702e-05	405.14	7.2795e-06	6.8337e-06	447.67	168.26	2.8378e-06	1.7243e-05	200.25	92.456	80.366	48.397	9.4183e-07	55.385	0.0061676	0.007217	0.0020035	504.94	7.5488e-05	7.8138e-05	553.93	204.33	7.3176e-05	7.5152e-05	263.11	112.08	98.838	55.983	8.2569e-05	65.123	238.121	101.199	46.117	7.699	113.859	334.249	5.921	13.099	139.266	75.101	9.292	13.244	16.315	19.755	115.969	15.231	-8191	255	
1584.881	1	1	0	0	0.1601	0.032409	0.29075	0.17728	0.049088	0.18276	0.23465	0.017718	0.15026	0.1907	0.17994	0.065356	0.14267	0.20515	0.14433	0.11992	-2.7083	-2.825	-3.0687	-3.2313	-2.9708	-3.2292	-3.1875	-2.9625	-3.1146	-3.0062	-2.9375	-3.1854	-2.8708	-3.0146	-3.0958	-2.8521	244.174	113.473	59.998	263.733	157.701	201.294	115.933	32.567	194.894	98.636	76.281	294.819	5.358	290.180	348.452	283.969	0.0003638	0.00070923	0.00017051	401.6	1.1261e-05	5.2389e-06	443.42	171.22	1.629e-06	4.1107e-06	202.38	95.151	83.198	50.365	4.9391e-06	57.772	0.0065383	0.0076124	0.0020966	505.17	7.5848e-05	7.6363e-05	546.43	205.8	6.7691e-05	6.7367e-05	258.45	111.39	97.871	56.194	5.4874e-05	64.211	224.563	121.423	334.384	7.748	127.829	223.510	5.645	12.591	6.862	222.722	8.997	13.606	16.407	19.484	225.044	14.995	-8191	255	
1584.977	1	1	0	0	0.11043	0.2083	0.1236	0.41313	0.020213	0.13286	0.060954	0.14318	0.083009	0.033407	0.052547	0.099875	0.041221	0.2987	0.065415	0.074419	-2.8229	-2.9146	-2.6792	-3.2208	-2.8646	-2.9333	-3.3042	-2.7479	-2.9958	-3.0167	-2.775	-3.225	-3.1146	-3.175	-3.175	-2.7771	31.237	338.618	69.808	260.827	144.206	68.423	255.990	290.734	201.603	202.398	30.181	8.250	255.970	342.573	74.357	350.697	0.00029115	0.00070931	0.0003447	407.95	4.2664e-06	1.9547e-06	456.39	182.25	3.885e-06	1.1376e-05	217.93	102.52	89.331	54.499	1.3889e-05	62.353	0.0039128	0.0044447	0.0012129	469.47	4.4978e-05	4.5869e-05	519.25	203.8	4.0655e-05	4.0161e-05	250.29	112.49	98.514	58.405	3.1681e-05	66.294	226.198	112.575	94.000	7.859	207.073	250.055	6.070	12.928	211.947	164.774	9.118	13.033	16.181	19.247	214.142	14.827	-8191	255	
1585.073	1	1	0	0	0.19189	0.27221	0.11492	0.242	0.095092	0.091742	0.061896	0.14035	0.040748	0.18493	0.12355	0.15379	0.23974	0.031167	0.31072	0.25075	-2.775	-3.0896	-2.8854	-3.1771	-2.8271	-3.1813	-3.2646	-2.9833	-3.1521	-3.1354	-2.9604	-3.2667	-3.0604	-3.1562	-3.3729	-2.9146	107.442	82.851	178.876	261.565	214.057	280.113	76.537	11.167	9.147	178.755	95.029	5.907	327.864	324.046	131.441	296.808	0.00042946	0.00049146	0.00020962	421.44	6.7483e-06	3.2955e-06	468.55	191.77	6.1811e-06	5.0178e-06	226.97	107.28	93.542	56.903	3.1015e-06	64.212	0.0023615	0.0026687	0.00072162	458.91	2.7435e-05	2.8729e-05	511.59	207.92	2.9742e-05	3.1125e-05	254.62	116.21	102.51	60.966	3.3117e-05	68.552	235.628	105.949	90.463	7.763	208.592	109.360	6.277	12.714	226.414	216.043	8.762	13.110	16.176	19.225	222.970	14.756	-8191	255	
1585.169	1	1	0	0	0.085505	0.17926	0.078724	0.066494	0.24742	0.17125	0.19204	0.13585	0.2136	0.091803	0.095047	0.087171	0.18833	0.26103	0.021508	0.058747	-2.8104	-3.05	-2.8979	-3.1521	-3.0438	-3.0875	-3.2729	-3.0187	-3.1229	-3.0521	-2.9333	-3.0875	-3.0208	-3.1854	-3.2208	-3.0062	9.360	121.074	115.020	339.695	204.924	254.784	33.387	106.940	126.258	142.300	292.951	294.846	347.422	159.456	9.979	256.204	0.00032831	0.00019079	0.00016157	422.07	5.6586e-06	6.5555e-06	466.16	195.11	5.6097e-06	1.2597e-06	230.74	109.32	96.609	58.663	4.0327e-06	66.183	0.0027056	0.0032025	0.00089001	468.67	3.4995e-05	3.6774e-05	518.9	213.8	3.6193e-05	3.7381e-05	262.34	119.25	106.39	63.198	3.8652e-05	71.21	236.445	118.786	84.796	7.849	243.461	131.105	5.852	12.444	194.006	186.635	8.895	12.778	15.908	18.831	170.407	14.522	-8191	255	
1585.266	1	1	0	0	0.21567	0.048393	0.10712	0.035698	0.25409	0.2155	0.085358	0.38849	0.089436	0.24544	0.034693	0.11134	0.17601	0.26974	0.067359	0.14353	-2.9437	-3.1813	-2.8479	-3.0583	-2.775	-2.9521	-3.2729	-2.9437	-2.9562	-3.1729	-2.9729	-3.1396	-3.0458	-2.975	-3.1271	-3.2229	156.150	195.384	136.151	217.906	41.349	344.416	329.751	269.070	218.567	254.527	170.447	231.873	274.750	313.794	172.227	284.175	0.00036272	0.0008061	0.00010064	429.24	1.0577e-05	5.0779e-06	476.43	207.56	4.4689e-06	8.2565e-06	243.26	114.95	102.14	62.062	1.1983e-06	68.581	0.0033284	0.0040507	0.00116	491.31	4.6911e-05	4.9336e-05	545.98	232.18	4.9144e-05	5.2022e-05	287.44	129.02	115.96	67.561	5.1216e-05	74.623	231.290	30.388	343.632	8.052	170.153	157.899	6.177	12.445	147.703	109.989	8.706	12.738	15.808	18.597	96.866	14.358	-8191	255	
1585.362	1	1	0	0	0.26667	0.12235	0.092212	0.17558	0.10971	0.088173	0.36725	0.1842	0.12093	0.17309	0.19101	0.23388	0.28726	0.054464	0.18212	0.31347	-2.6	-3.1479	-2.7771	-3.1417	-3.0292	-3.0104	-3.2875	-2.9646	-2.8812	-3.2042	-2.9479	-3.325	-3.1437	-3.1542	-3.1729	-3.0354	252.639	266.295	12.431	119.342	289.593	316.143	343.902	287.609	170.549	91.277	49.130	79.535	352.794	61.231	81.711	-2.944	0.00038535	0.00090777	0.00020037	433.68	2.3732e-06	4.0651e-06	479.01	209.31	1.5163e-06	2.9654e-06	243.05	114.59	101.42	60.936	1.0654e-05	67.44	0.0038002	0.004362	0.0011729	492.3	4.2797e-05	4.4131e-05	541.19	231.97	4.4624e-05	4.7051e-05	284.08	127.62	114.25	66.408	5.0548e-05	73.738	240.924	24.595	77.457	8.284	238.859	200.551	6.133	12.609	233.869	69.710	8.871	12.666	15.788	18.689	151.456	14.514	-8191	255	
1585.482	1	1	0	0	0.10701	0.061481	0.13046	0.145	0.31247	0.17905	0.24105	0.25542	0.3682	0.067389	0.23618	0.21954	0.35635	0.16975	0.038055	0.17913	-2.6104	-3.2292	-2.825	-3.2938	-3.1479	-2.8771	-3.2396	-3.1917	-3.1063	-3.2667	-2.9437	-3.0812	-3.1188	-3.1271	-3.3	-2.9833	192.959	14.264	281.691	103.442	19.668	139.212	223.006	304.460	167.542	117.248	46.549	263.293	98.535	342.694	139.174	255.220	0.00042636	0.00015431	0.00014867	426.88	4.696e-06	8.3077e-06	470.68	206.39	9.2296e-06	1.2093e-05	240.87	113.61	100.53	60.731	7.7949e-06	66.98	0.0041523	0.0049319	0.0013794	500.45	5.4084e-05	5.6843e-05	552.14	235.79	6.035e-05	6.3883e-05	296.63	131.21	118.58	68.091	7.6759e-05	76.463	236.100	108.496	59.333	8.290	181.270	139.262	6.088	12.777	181.686	33.614	8.706	12.607	15.772	18.783	204.098	14.677	-8191	255	
1585.579	1	1	0	0	0.054074	0.13078	0.057506	0.24838	0.20831	0.28221	0.11609	0.092594	0.098852	0.013541	0.10536	0.080733	0.26099	0.3709	0.1063	0.22824	-2.7125	-3.2292	-2.9083	-3.3167	-3.1562	-2.8646	-3.3542	-2.9917	-2.7333	-3.1125	-3.1458	-3.0479	-3.2667	-2.8812	-3.1729	-3.1208	183.427	287.735	213.159	306.186	23.251	290.670	193.015	298.328	42.699	329.474	327.013	130.808	299.186	327.657	162.451	0.195	0.00035558	0.0010739	0.0003448	431.17	4.0608e-06	1.3274e-05	472.95	210.06	4.8247e-06	1.6119e-05	246.47	117.05	105.32	63.018	4.3757e-06	69.741	0.0064586	0.0079197	0.002275	548.98	8.9871e-05	9.4415e-05	606.13	256.34	9.4103e-05	9.7553e-05	329.81	142.73	129.65	72.778	0.00010681	82.459	218.118	79.732	81.215	8.024	123.910	195.821	6.369	12.723	86.618	89.531	8.615	12.418	15.928	18.578	5.237	14.541	-8191	255	
1585.650	1	1	0	0	0.27934	0.097906	0.15869	0.14136	0.25164	0.028751	0.14284	0.17628	0.14633	0.12799	0.14875	0.1255	0.0023156	0.14152	0.055275	0.31557	-2.4875	-3.1458	-2.9646	-2.9854	-3.2833	-2.9271	-3.2125	-3.1562	-2.8521	-3.2188	-2.9667	-2.9708	-3.2646	-3.0229	-3.1396	-3.2792	264.101	131.553	0.131	135.672	228.761	102.172	207.708	129.701	353.085	58.641	316.376	241.848	348.016	336.696	236.455	333.967	0.00033766	0.0013494	0.00024984	459.14	1.0682e-05	2.162e-05	492.98	218.7	6.0432e-06	2.6294e-05	250.38	117.91	105.67	63.583	1.1365e-05	68.737	0.008808	0.010599	0.0029938	610.84	0.00011593	0.00011902	658.83	274.15	0.00011347	0.00011582	347.15	147.1	133.23	73.89	0.00011287	81.844	208.512	50.898	20.963	8.351	185.493	121.260	6.586	12.730	292.066	175.256	8.837	12.337	15.580	18.612	185.725	14.154	-8191	255	
1585.771	1	1	0	0	0.13413	0.10206	0.14729	0.22619	0.080682	0.16429	0.036315	0.050622	0.18249	0.21623	0.1013	0.022324	0.3741	0.22252	0.29297	0.21	-2.4313	-2.9792	-2.9062	-3.0396	-3.2458	-2.8417	-3.1229	-3.0667	-2.9313	-3.2542	-3.1854	-3.1188	-3.0521	-2.9542	-3.1417	-3.3083	19.881	131.996	88.985	254.844	314.217	279.867	171.524	239.061	278.877	330.917	353.942	303.613	60.409	237.432	229.678	168.068	0.00055125	0.0010743	0.00017545	451.79	8.978e-06	1.046e-05	486.25	217.38	2.4723e-06	2.4461e-06	248.88	117.25	106.3	63.855	4.9138e-06	69.043	0.0089106	0.010524	0.0029541	603.19	0.00011568	0.00012144	658.36	276.46	0.00012729	0.00013646	368.55	153.78	141.13	77.491	0.00015847	87.903	235.602	245.487	-0.308	8.277	15.175	68.182	6.335	12.401	37.381	87.242	8.839	12.732	15.928	18.449	132.136	14.235	-8191	255	
1585.867	1	1	0	0	0.13409	0.4111	0.19072	0.20051	0.12492	0.13583	0.27786	0.25024	0.11751	0.063596	0.15621	0.053007	0.12048	0.43589	0.10412	0.29683	-2.5104	-3.1437	-2.9375	-3.0458	-3.25	-2.95	-3.0312	-3.1146	-2.8937	-3.0687	-3.2188	-2.8771	-3.2604	-3.075	-2.9688	-3.2562	342.047	352.644	338.071	345.408	187.250	108.706	331.457	231.656	145.960	342.047	181.020	13.354	6.303	5.128	273.971	206.381	0.00018311	0.0031395	0.00020339	479.74	3.482e-06	6.0901e-06	512.06	227.58	8.6916e-06	1.0116e-05	258.16	117.43	106.07	63.271	1.9037e-05	68.04	0.013308	0.016346	0.0046553	720.68	0.00018662	0.00019693	789.85	320.87	0.00019943	0.00020786	434.26	169.28	154.12	81.17	0.00020638	91.516	221.783	31.097	148.386	8.301	238.978	91.545	6.480	12.578	146.110	26.205	8.803	12.747	16.027	18.538	172.820	14.629	-8191	255	
1585.963	1	1	0	0	0.059935	0.20923	0.15614	0.079206	0.11112	0.077373	0.21387	0.24196	0.1187	0.18049	0.15261	0.12941	0.1315	0.040355	0.24379	0.16366	-2.4708	-3.1667	-2.95	-3	-3.2104	-3.0333	-2.9625	-3.3667	-3.0292	-3.0938	-3.1854	-2.9771	-2.9979	-3.1917	-2.9562	-3.2333	106.599	251.889	87.696	20.227	240.622	339.234	277.540	26.263	335.305	346.968	338.183	345.217	47.850	295.526	232.368	322.167	0.00050101	0.00040434	0.00028951	480.95	1.4286e-05	2.0128e-05	513.4	226.8	5.6317e-06	2.6296e-05	254.91	117.97	107.82	64.463	1.3635e-05	69.79	0.015669	0.018573	0.0051275	736.26	0.00019	0.00019322	774.13	311.89	0.00017476	0.00017727	399.25	159.82	144.98	78.189	0.00014965	86.396	220.906	171.535	127.015	8.633	168.121	1.805	6.234	12.848	108.798	144.877	8.740	12.599	15.504	18.615	185.404	14.338	-8191	255	
1586.058	1	1	0	0	0.2759	0.16034	0.061097	0.17039	0.09964	0.2185	0.20756	0.070499	0.171	0.25406	0.13259	0.11804	0.21039	0.29203	0.1405	0.24096	-2.5229	-3.0062	-3.1521	-2.8438	-3.2208	-3.075	-3.0917	-3.3625	-3.0812	-3.0583	-2.9792	-3.0042	-3.2438	-3.1854	-2.8458	-3.2812	314.237	30.189	343.320	130.813	34.748	199.224	301.556	317.134	318.130	60.536	48.333	242.348	168.485	6.995	178.064	335.170	0.00053614	0.0012223	0.00041261	441.7	6.4692e-06	1.4298e-05	459.83	214.37	1.5836e-06	9.7772e-06	246.01	117.32	104.74	63.364	1.2377e-05	69.272	0.010893	0.012545	0.0034026	606.92	0.00012061	0.00012033	619.66	265.74	9.8505e-05	9.6446e-05	322.65	139.79	125.81	71.635	8.2524e-05	79.22	244.752	186.451	169.079	8.370	234.230	149.966	6.308	12.706	250.395	147.133	9.217	12.590	15.558	18.610	29.614	14.455	-8191	255	
1586.178	1	1	0	0	0.20183	0.12071	0.060033	0.11691	0.13239	0.10603	0.34825	0.10183	0.16519	0.23556	0.15795	0.10063	0.13286	0.083252	0.079757	0.20725	-2.6396	-3.1188	-3.4562	-3.0438	-3.1646	-3.0771	-2.9188	-3.2604	-2.8563	-2.975	-3.3771	-2.8354	-3.2771	-3.2771	-2.8958	-3.3438	67.482	50.647	121.507	347.791	101.351	46.204	247.026	295.436	303.533	77.614	267.346	12.567	38.050	0.276	271.621	242.474	0.00038633	0.001173	0.00042052	427.7	6.5173e-06	3.553e-06	461.94	217.42	4.679e-06	1.3966e-05	246.87	118.21	106.83	64.282	2.9089e-05	69.43	0.0067054	0.0081704	0.0023618	551.36	9.8157e-05	0.00010623	614.25	270.53	0.00011428	0.00012284	354.86	151.79	139.18	77.355	0.00015604	88.618	237.033	8.539	36.554	8.355	140.683	351.383	6.049	12.812	250.294	142.317	8.895	12.708	15.809	18.547	135.079	14.340	-8191	255	
1586.250	1	1	0	0	0.2238	0.069171	0.1186	0.24133	0.18108	0.10514	0.09032	0.29638	0.31814	0.19726	0.092257	0.23124	0.035976	0.34388	0.20386	0.22822	-2.575	-3	-3.2438	-2.8146	-3.3042	-3.2542	-2.7021	-3.5021	-2.8729	-2.9333	-3.2167	-3.0146	-3.0625	-3.1875	-2.9521	-3.1604	211.827	147.403	236.369	59.097	70.622	256.917	201.455	280.960	91.361	66.816	111.331	17.853	239.614	322.108	340.851	-2.111	0.00042211	0.0010409	0.00054032	429.84	2.6072e-05	8.6636e-06	458.26	216.62	1.1598e-05	1.4968e-05	246.61	117.87	105.64	63.402	8.6163e-06	68.781	0.01391	0.017383	0.0050061	687.05	0.00019875	0.00020746	743.75	310.51	0.00019604	0.00020032	410.25	165.13	148.47	78.973	0.00017346	88.1	231.003	207.003	12.125	8.504	219.212	139.177	6.448	12.794	198.102	145.819	9.087	12.738	15.680	18.739	219.552	14.474	-8191	255	
1586.346	1	1	0	0	0.35115	0.2664	0.21334	0.20329	0.14486	0.14353	0.11441	0.21057	0.13881	0.11053	0.12444	0.22559	0.20813	0.27047	0.21608	0.02945	-2.5583	-2.7375	-3.4062	-2.8688	-3.0062	-3.0583	-2.9188	-3.2354	-2.9729	-2.9229	-3.4021	-3.0687	-3.2208	-3.3208	-2.9167	-3.3688	8.224	135.927	269.904	43.377	257.801	291.789	117.025	9.587	339.630	53.145	13.424	295.161	16.101	333.377	4.530	295.761	0.00053674	0.0025869	0.00037615	422.21	1.39e-05	7.3712e-06	448.87	205.44	7.0397e-06	6.44e-06	233.97	112.71	98.636	59.371	2.467e-06	65.773	0.012942	0.01488	0.0040333	619.09	0.00014787	0.00014933	648.8	270.56	0.00013304	0.00013407	342.83	144.08	127.04	70.169	0.00011325	78.695	226.259	74.757	246.315	8.156	220.281	32.170	6.287	12.911	7.773	292.948	8.973	12.914	16.325	19.282	111.848	14.874	-8191	255	
1586.442	1	1	0	0	0.18459	0.27604	0.19503	0.16424	0.0035805	0.13697	0.12859	0.13983	0.015634	0.12269	0.18103	0.10867	0.20401	0.12835	0.21328	0.21646	-2.7896	-2.75	-3.1479	-3.1229	-3.0146	-3.1542	-2.8792	-3.35	-3.1208	-2.9104	-3.3208	-3.2146	-3.1771	-3.3958	-2.9854	-3.3792	194.017	16.878	12.610	338.136	196.203	183.468	-4.152	105.461	111.526	66.633	31.886	257.294	286.303	293.937	281.291	293.563	0.00040348	0.00068126	0.00029141	396.07	5.8604e-06	6.6995e-06	426.45	187.19	1.1787e-05	7.4664e-06	214.22	103.85	89.768	54.848	7.5814e-06	61.64	0.0084166	0.0097323	0.0026264	524	9.3797e-05	9.3744e-05	552.34	228.3	8.1822e-05	8.2177e-05	281.78	123.64	107.76	61.685	6.844e-05	69.553	226.910	200.118	78.005	8.362	192.303	16.785	6.415	13.346	202.664	124.405	9.563	13.343	16.708	19.547	125.268	15.362	-8191	255	
1586.563	1	1	0	0	0.07013	0.21588	0.15972	0.12748	0.26105	0.10824	0.18756	0.17194	0.041298	0.31717	0.18747	0.32956	0.20443	0.2136	0.051838	0.087309	-2.8271	-2.975	-3.1979	-2.8854	-3.1188	-3.2125	-3.1646	-3.0167	-3.0729	-2.9042	-3.2667	-2.8167	-2.9125	-3.2062	-2.9479	-3.25	3.676	348.606	257.913	2.180	64.950	137.461	257.975	25.217	266.002	184.539	148.595	137.978	303.451	266.463	148.027	99.779	0.00042027	0.00055155	0.00020505	365.35	2.8173e-06	1.749e-05	397.77	161.56	2.9834e-06	5.4691e-06	187.63	88.399	74.151	44.38	1.3351e-06	51.084	0.0051599	0.0059363	0.0016038	446.78	6.0279e-05	6.1566e-05	483.25	191.57	5.9683e-05	6.1526e-05	239.65	103.77	88.965	50.227	5.8905e-05	58.1	228.839	117.020	19.223	8.023	174.984	101.158	6.162	13.339	118.330	162.068	9.245	13.624	16.797	20.296	204.875	15.962	-8191	255	
1586.659	1	1	0	0	0.21441	0.121	0.07516	0.16723	0.16016	0.25402	0.17144	0.10151	0.27792	0.11188	0.15516	0.11841	0.12472	0.29753	0.17316	0.22502	-2.4979	-2.9688	-3.1354	-3.0125	-2.9396	-3.1813	-3.0312	-3.0583	-3.2	-2.8042	-3.1312	-3.2354	-2.8292	-3.2604	-2.8333	-3.0583	13.716	275.665	30.111	60.639	299.918	191.797	352.269	190.325	209.274	238.272	342.843	347.163	225.389	41.729	260.077	284.818	0.00029014	0.00045637	0.0002434	362.99	2.1696e-06	1.3735e-06	411.59	168.61	6.7161e-06	9.6348e-06	199.44	89.305	76.269	43.96	5.136e-06	50.169	0.0046207	0.005376	0.0014841	436.57	5.6037e-05	5.7e-05	490.85	194.82	5.2847e-05	5.3914e-05	245.18	103.71	89.384	49.067	5.1293e-05	56.374	236.760	114.089	86.902	7.920	82.633	320.943	5.949	12.936	168.870	180.364	9.081	13.254	16.636	20.286	269.985	15.781	-8191	255	
1586.755	1	1	0	0	0.27099	0.26866	0.093931	0.10641	0.074113	0.21723	0.24373	0.067549	0.058445	0.12373	0.17984	0.19229	0.21286	0.21655	0.23339	0.129	-2.8625	-2.9542	-3.1021	-3.125	-2.9104	-3.1688	-2.9104	-2.8771	-3.1896	-2.8167	-3.1542	-3.0187	-3.0333	-3.3604	-3.0479	-2.9708	329.435	324.759	253.034	275.842	66.539	261.128	126.448	263.626	140.878	185.712	73.294	38.632	283.497	223.866	220.982	255.914	0.0002946	0.00030525	0.00012317	370.14	8.5879e-06	5.6068e-06	418.01	171.31	5.8753e-06	5.7996e-06	203.22	92.993	79.846	46.729	2.6503e-06	54.382	0.0040054	0.0047197	0.001319	437.24	5.1035e-05	5.2659e-05	491.13	196.34	5.0107e-05	5.086e-05	246.13	105.75	91.914	51.575	4.4996e-05	59.85	216.432	67.491	8.917	7.704	202.709	130.636	6.187	12.724	265.331	211.427	9.502	13.193	16.759	19.961	266.742	15.458	-8191	255	
1586.876	1	1	0	0	0.025082	0.078926	0.10845	0.087123	0.22313	0.16461	0.047323	0.16942	0.19803	0.25949	0.075273	0.16575	0.090175	0.18931	0.07624	0.23267	-2.8667	-2.7396	-3.0729	-3.1063	-3.0042	-3.2521	-3.1896	-3.0354	-3.2958	-2.7812	-3.0604	-3.4437	-2.7979	-3.2729	-2.9375	-3.025	342.000	23.135	222.404	242.213	241.155	350.344	10.949	301.295	303.194	179.909	32.842	328.693	167.518	316.257	44.290	289.751	0.0003246	0.00074201	0.00029891	378.74	4.3133e-06	1.0766e-05	428.59	180.7	8.4965e-06	5.8232e-06	213.98	99.397	85.226	50.214	8.626e-06	57.451	0.0034362	0.0039537	0.0010866	434.78	4.1528e-05	4.2925e-05	491.05	201.91	4.16e-05	4.2447e-05	250.39	110.4	95.713	54.573	3.9658e-05	62.333	228.895	110.661	43.728	7.806	322.851	137.029	6.073	12.939	198.212	341.423	9.304	13.300	16.773	19.774	217.327	15.407	-8191	255	
1586.947	1	1	0	0	0.061378	0.069442	0.1917	0.25523	0.15607	0.14835	0.12988	0.19765	0.0090013	0.14541	0.21432	0.091473	0.10578	0.075219	0.049316	0.076196	-2.8229	-2.8979	-3.0729	-3.1083	-2.8333	-3.2208	-3.2521	-2.925	-3.0479	-2.9062	-3.1813	-3.3146	-2.9375	-3.0896	-3.0729	-2.9813	24.416	259.645	245.397	337.503	311.864	21.308	332.428	14.457	234.942	278.820	217.328	282.334	261.583	179.173	212.589	310.578	0.0004426	0.0004869	0.00021589	379.61	8.4202e-06	5.5936e-06	428.42	179.21	7.1876e-06	1.4744e-06	212.42	99.172	84.867	50.351	1.1445e-05	57.331	0.0030912	0.003564	0.0009976	429.13	3.7298e-05	3.8209e-05	480.65	198.36	3.6282e-05	3.7079e-05	244.14	109.12	94.318	54.243	3.4513e-05	61.93	240.204	15.888	15.408	7.889	156.050	192.642	6.351	12.859	197.855	119.683	9.058	13.380	16.645	19.736	177.152	15.429	-8191	255	
1587.044	1	1	0	0	0.20931	0.078815	0.16707	0.12705	0.060307	0.096999	0.06953	0.040423	0.15491	0.26128	0.13089	0.18835	0.31042	0.046781	0.11212	0.056057	-2.7812	-2.95	-2.7521	-3.3104	-2.8042	-3.1458	-3.2167	-3.0479	-3.2438	-2.9938	-2.8104	-3.3729	-3.0125	-3.0729	-3.2458	-3.1312	53.165	179.825	185.801	350.143	122.969	116.082	350.159	300.090	129.846	117.317	206.552	182.720	18.899	339.520	178.796	120.163	0.00032211	0.00082593	0.00022807	374.84	7.397e-07	6.6755e-06	417.37	175.76	3.2618e-06	3.8286e-06	202.92	93.576	80.907	47.482	4.5984e-06	53.98	0.0027265	0.0031712	0.00090028	421.27	3.4899e-05	3.6192e-05	468.51	193.64	3.556e-05	3.6997e-05	235.05	103.52	90.398	51.52	3.6289e-05	58.484	233.958	328.282	125.310	7.928	133.363	245.468	5.939	12.850	160.101	302.104	9.007	13.175	16.388	19.912	262.416	15.476	-8191	255	
1587.162	1	1	0	0	0.19482	0.12241	0.099136	0.26676	0.21285	0.0050321	0.19277	0.1885	0.28271	0.33623	0.11956	0.1327	0.19657	0.20869	0.13799	0.079288	-2.7208	-3.15	-2.9021	-3.0812	-3.0167	-3.0792	-3.2479	-2.9625	-3.1479	-3.0187	-3.0292	-3.2875	-3.1708	-3.1479	-3.0708	-2.9813	269.817	171.265	347.176	252.475	344.384	322.362	264.440	3.395	25.028	233.026	-4.205	292.640	281.320	326.086	141.213	213.506	0.00030698	0.00095674	8.8468e-05	370.96	6.2067e-06	3.9863e-06	416.18	177.64	4.284e-06	4.6767e-06	206.01	95.311	82.987	49.753	3.5341e-06	57.173	0.0027903	0.0031771	0.00087617	414.93	3.2221e-05	3.3075e-05	461.16	193.71	3.1245e-05	3.2433e-05	234.52	104.08	91.785	53.543	3.1875e-05	61.283	227.968	101.503	113.700	7.870	130.221	343.982	6.082	12.838	272.011	38.319	9.177	13.015	16.553	19.734	243.258	15.198	-8191	255	
1587.259	1	1	0	0	0.2501	0.17096	0.16896	0.20787	0.21968	0.10094	0.16403	0.20475	0.15104	0.070986	0.15776	0.21138	0.24842	0.22302	0.20558	0.057426	-2.6375	-3.0021	-2.9042	-3.2438	-2.9729	-3.0146	-3.2875	-2.9917	-3.1667	-3.2417	-2.9292	-3.1854	-3.1562	-2.9958	-3.1208	-2.8833	142.587	267.766	-0.397	11.750	128.316	45.211	287.337	99.532	195.906	21.376	26.917	301.764	152.716	340.328	343.002	258.533	0.00032498	0.0007011	0.00018719	375.12	5.5774e-06	1.1223e-05	417.96	179.39	8.1891e-06	2.1519e-06	209.75	95.725	83.695	50.338	6.8932e-06	57.914	0.0024653	0.0028409	0.0007904	416.24	2.9904e-05	3.0885e-05	461.97	195	2.9814e-05	3.0694e-05	235.02	104.4	91.545	53.837	2.9227e-05	61.738	238.376	21.801	25.709	7.685	190.736	166.633	6.222	12.826	229.192	153.675	8.989	13.116	16.198	19.510	182.770	15.158	-8191	255	
1587.355	1	1	0	0	0.087499	0.12258	0.14583	0.052005	0.19163	0.045317	0.21326	0.096443	0.1261	0.11102	0.39966	0.093944	0.28568	0.42675	0.15004	0.20058	-2.7167	-2.9313	-2.7958	-3.3083	-3.0542	-2.975	-3.2396	-3.0687	-2.9271	-3.0583	-2.9083	-3.2188	-3.0146	-2.9542	-3.0729	-3.0396	247.731	308.209	275.990	121.704	348.085	202.919	234.373	253.220	125.164	121.296	289.552	81.766	230.687	288.074	255.450	3.939	0.00035533	0.00022163	0.00013414	378.88	3.4198e-06	4.2136e-06	425.43	184.19	1.6041e-06	9.4377e-07	213.77	98.758	85.331	51.555	2.8077e-06	58.52	0.002324	0.0027132	0.0007552	419.64	2.8797e-05	2.9973e-05	469.3	199.59	2.9613e-05	3.1235e-05	241.35	107.97	94.639	55.712	3.667e-05	63.404	230.068	42.141	45.372	8.021	284.745	199.237	5.916	12.790	195.737	83.798	9.039	13.364	16.396	19.747	140.468	15.294	-8191	255	
1587.475	1	1	0	0	0.14531	0.16268	0.085621	0.13294	0.19825	0.19518	0.31213	0.24535	0.3496	0.099183	0.21174	0.44187	0.18775	0.16958	0.23469	0.28629	-2.6646	-3.1708	-2.7583	-3.1437	-2.9771	-2.7792	-3.2875	-3.0312	-2.9729	-3.3292	-2.9875	-3.175	-2.9562	-2.9	-3.2458	-2.9938	20.186	341.052	84.966	64.297	67.161	7.291	281.588	323.206	204.171	296.135	34.315	3.262	50.515	330.114	21.774	335.750	0.0003397	0.00018042	8.8342e-05	378.8	2.7891e-06	6.8222e-06	416.83	178.62	2.5788e-06	5.6764e-06	204.17	93.863	81.683	48.773	6.7103e-06	54.862	0.0031671	0.0037634	0.0010489	432.09	4.0287e-05	4.1971e-05	478.09	199.51	4.2166e-05	4.4928e-05	244.3	106.75	93.94	53.986	5.1757e-05	61.227	220.246	77.153	260.363	8.228	164.212	110.266	5.855	13.066	157.641	65.384	8.732	12.974	16.726	19.777	165.974	15.211	-8191	255	
1587.547	1	1	0	0	0.17385	0.25892	0.39185	0.16363	0.18285	0.1094	0.026449	0.19528	0.08305	0.162	0.15351	0.09978	0.081628	0.22774	0.17942	0.040436	-2.425	-3.2167	-2.8708	-3.1375	-3.1437	-2.7771	-3.3021	-3.05	-2.8604	-3.1583	-3.025	-2.8958	-3.1646	-2.8812	-3.0833	-3.0604	293.297	326.019	259.677	247.572	348.876	90.374	296.496	347.166	186.962	109.082	334.398	318.514	67.509	328.209	200.781	79.617	0.00034437	0.00025802	7.3926e-05	372.08	8.0693e-06	1.1942e-05	407.04	172.18	1.2365e-06	1.469e-05	198.42	90.439	79.568	47.821	1.8408e-06	53.818	0.0042489	0.0050312	0.0014111	444.01	5.4829e-05	5.6183e-05	485.67	199.8	5.6724e-05	6.0046e-05	249.41	106.42	95.063	53.867	6.4538e-05	61.474	238.728	237.939	100.103	7.682	191.381	84.873	5.886	12.723	103.165	83.669	8.881	13.311	16.305	19.647	95.551	15.363	-8191	255	
1587.643	1	1	0	0	0.14703	0.24198	0.16027	0.11573	0.21579	0.08116	0.10166	0.13361	0.32233	0.19108	0.15481	0.11265	0.35149	0.099924	0.063744	0.098507	-2.3771	-3.1896	-2.7333	-3.0417	-3.1063	-3.0208	-3.0021	-3.1188	-2.9625	-3.2125	-2.8396	-3.0792	-3.2625	-3.1417	-3.0687	-3.3146	7.888	53.075	82.745	68.104	258.798	94.518	245.211	334.061	198.141	113.756	307.052	349.067	23.474	276.597	170.914	342.672	0.00033362	0.00013487	0.00014552	378.32	5.0172e-06	7.8276e-06	417.7	177.44	4.6329e-06	1.0684e-05	204.4	93.793	83.741	49.817	6.0579e-07	55.96	0.0051668	0.0061598	0.0017387	467.94	6.7882e-05	7.0786e-05	517.05	212.2	7.5342e-05	7.9898e-05	273.77	115.31	103.57	57.683	8.3704e-05	65.783	242.633	73.525	34.064	7.599	162.045	83.942	6.150	12.802	82.875	236.726	8.846	12.889	16.202	19.273	251.731	14.739	-8191	255	
1587.739	1	1	0	0	0.37186	0.083551	0.26364	0.10064	0.24192	0.28672	0.072779	0.23072	0.10393	0.20779	0.20244	0.1689	0.15915	0.25711	0.13285	0.052477	-2.4062	-3.2229	-2.9417	-3.0438	-3.1646	-2.9437	-3.1354	-3.0125	-3.0167	-3.2917	-3.0417	-2.9688	-3.1917	-2.9979	-3.0042	-3.2208	315.533	331.792	184.572	10.696	57.517	314.338	259.447	8.517	136.059	138.460	7.626	292.471	312.839	287.640	236.994	88.459	0.00031468	0.0011085	0.00023904	401.58	6.5479e-06	5.9056e-06	446.43	188.25	4.3883e-06	1.0444e-05	219.04	99.047	87.453	51.606	1.1376e-06	58.058	0.006414	0.0073703	0.0020178	502.53	7.4569e-05	7.5581e-05	551.84	222.98	7.1864e-05	7.2887e-05	278.8	117.04	103.92	58.186	6.4875e-05	65.642	228.627	137.265	84.240	8.154	230.837	342.556	6.000	12.704	73.181	133.912	8.799	12.943	16.109	19.488	45.776	14.860	-8191	255	
1587.858	1	1	0	0	0.2204	0.030871	0.045653	0.15179	0.02798	0.1921	0.023695	0.11597	0.18764	0.067444	0.2034	0.073048	0.11664	0.16185	0.16734	0.12062	-2.5187	-3.2958	-2.9813	-3.1104	-3.0875	-3.0354	-3.0458	-2.9833	-2.8354	-3.375	-3.05	-3.1729	-3.2729	-3.0563	-3.0708	-3.1896	159.055	156.978	180.430	328.779	339.614	128.512	255.951	14.497	173.140	12.581	264.082	189.053	146.137	32.171	142.579	4.520	0.00029767	0.00074831	0.00015928	414.02	3.4007e-06	1.0497e-05	463.43	190.92	2.7733e-06	1.1748e-05	220.98	100.92	89.169	53.064	1.0144e-05	59.152	0.0049705	0.0058042	0.0016114	495.88	6.2069e-05	6.4591e-05	551.89	222.74	6.6076e-05	7.0525e-05	282.92	120.1	107.15	60.203	7.6953e-05	68.512	222.536	86.352	120.845	7.845	195.575	95.976	5.844	12.797	177.476	198.050	8.633	12.833	15.960	19.057	114.769	14.805	-8191	255	
1587.954	1	1	0	0	0.13027	0.037457	0.32545	0.22035	0.18804	0.11567	0.037083	0.25225	0.10172	0.12551	0.12737	0.065361	0.10814	0.17713	0.15704	0.067932	-2.2188	-3.1542	-2.9792	-2.8833	-3.2333	-2.8854	-2.9688	-3.2958	-2.8354	-3.2458	-3.2979	-2.8771	-3.2313	-3.275	-2.9771	-3.2104	345.395	65.204	95.572	315.712	236.576	287.368	79.342	-1.444	275.894	280.259	12.782	312.069	217.624	53.178	37.519	86.689	0.00029222	0.00043558	0.00039491	407.49	1.5096e-05	4.6397e-06	450.16	188.96	2.1189e-06	2.9753e-06	219.32	101.19	88.932	53.549	1.2757e-05	59.883	0.006178	0.0073668	0.0020654	513.85	7.9635e-05	8.2833e-05	565.77	228.2	8.2516e-05	8.6329e-05	292.59	123.57	110.32	62.164	9.5606e-05	71.253	222.226	126.848	70.649	7.973	140.166	43.643	5.757	12.521	171.712	302.438	8.647	12.816	16.166	18.955	0.595	14.865	-8191	255	
1588.050	1	1	0	0	0.20734	0.17371	0.026862	0.31271	0.16352	0.14385	0.16132	0.14691	0.14936	0.12968	0.18326	0.052374	0.13806	0.25299	0.11235	0.24074	-2.4333	-3.2	-3.1771	-3.0687	-3.2646	-2.9437	-2.9313	-3.2	-2.9417	-3.1562	-3.2354	-2.9875	-3.2229	-3.0479	-2.825	-3.3917	91.350	127.910	83.058	36.437	10.240	194.452	117.453	70.339	76.396	92.981	55.102	3.012	310.058	330.257	212.718	340.761	0.00033117	0.00021355	0.0001731	391.1	8.3735e-06	1.6829e-05	420.64	177.45	9.6437e-06	8.4649e-06	204.47	96.627	83.861	51.854	1.8311e-05	57.712	0.0079244	0.0095895	0.002723	530	0.00010456	0.00010918	574.51	228.05	0.0001068	0.00011156	298.18	124.4	110.09	61.689	0.00010976	70.551	238.270	45.026	26.227	7.619	21.322	225.329	5.673	12.704	108.571	253.451	9.178	13.088	16.432	19.401	104.400	15.081	-8191	255	
1588.147	1	1	0	0	0.19182	0.17673	0.072852	0.20755	0.054656	0.20172	0.16137	0.17634	0.24156	0.057084	0.061726	0.22112	0.099723	0.10618	0.34525	0.29254	-2.5062	-3.0854	-3.1979	-2.8312	-2.9979	-3.1458	-2.8625	-3.4062	-2.9604	-2.9458	-3.4	-2.85	-3.1917	-3.1917	-2.9125	-3.2625	36.700	245.216	25.211	228.432	338.421	73.036	36.302	1.682	212.429	6.331	262.394	11.862	347.419	288.424	282.732	247.661	0.00037127	0.00077675	0.00046725	374.66	1.3567e-05	1.0364e-05	396.31	162.97	9.7975e-06	8.4043e-06	188.33	89.957	77.862	47.964	1.3324e-05	54.447	0.0085391	0.010128	0.0028473	517.5	0.00010867	0.00011198	553.48	215.21	0.00010745	0.00011035	280.51	116.67	102.07	57.015	9.7035e-05	65.586	211.452	23.817	73.687	8.139	211.291	185.687	6.296	13.258	222.023	47.449	9.065	13.554	16.546	19.993	210.085	15.495	-8191	255	
1588.243	1	1	0	0	0.10051	0.20477	0.22694	0.19721	0.16548	0.065403	0.075787	0.10859	0.15431	0.18822	0.40385	0.092462	0.3432	0.22297	0.22591	0.18316	-2.6542	-2.9833	-3.2812	-2.8917	-3.0854	-3.2625	-2.8312	-3.2646	-3.0479	-2.9167	-3.2562	-2.9354	-3.1708	-3.1188	-2.9708	-3.2562	275.734	32.368	119.646	57.298	309.178	309.010	38.418	235.055	139.037	21.819	-0.337	289.643	261.312	296.462	9.799	320.520	0.00033755	0.00014484	0.00012676	367.65	1.027e-05	1.1795e-05	394.2	159.38	8.9637e-06	1.2017e-05	191.07	92.193	79.74	50.236	5.7518e-06	57.919	0.0072198	0.0084446	0.0023329	482.49	8.6993e-05	8.8447e-05	514.91	197.84	7.8472e-05	7.9269e-05	256.48	111.07	97.366	57.01	7.0311e-05	66.175	230.727	62.064	142.173	7.812	221.257	133.219	6.087	13.313	258.451	156.271	9.812	13.631	17.069	19.901	186.064	15.528	-8191	255	
1588.339	1	1	0	0	0.15557	0.32521	0.045087	0.18846	0.17955	0.070687	0.2774	0.38737	0.15141	0.35456	0.25051	0.23011	0.15899	0.24991	0.36866	0.3148	-2.625	-3.0208	-3.1229	-3.0896	-3.0083	-3.0729	-2.9417	-3.1729	-3.0583	-2.8896	-3.4479	-3.0667	-3.0729	-3.2979	-3.075	-3.2938	145.989	241.865	165.622	4.398	44.129	318.441	316.453	2.849	265.323	185.133	230.714	16.382	39.396	-0.050	50.573	265.343	0.00039244	0.001034	0.00014459	381.89	6.5713e-06	7.3953e-06	406.13	167.4	5.7516e-06	8.0294e-06	199.26	96.383	84.643	53.082	5.8986e-06	60.9	0.0053645	0.006244	0.0017028	467.27	6.2934e-05	6.39e-05	495.67	196.45	5.7788e-05	5.8476e-05	247.38	110.54	97.475	58.325	4.9127e-05	66.902	231.759	72.250	220.130	7.948	96.006	154.909	6.141	13.387	75.864	316.256	9.240	13.452	16.612	19.572	205.504	15.199	-8191	255	
1588.435	1	1	0	0	0.20478	0.26458	0.19194	0.062727	0.076208	0.14728	0.27367	0.21197	0.16563	0.18568	0.090082	0.095124	0.085482	0.16308	0.11919	0.17756	-2.8688	-2.9333	-3.2542	-2.9562	-2.975	-3.0875	-3.0521	-3.2812	-3.1458	-2.7292	-3.2521	-3.0146	-2.9271	-3.4208	-2.9229	-3.3229	73.735	331.588	62.525	137.029	155.180	79.962	24.597	306.905	308.929	134.322	133.580	284.095	183.423	257.885	234.115	205.295	0.00037218	0.0011505	0.00010186	393.28	5.5395e-06	9.6922e-06	429.87	182.15	8.8223e-06	8.9657e-06	214.43	99.939	86.618	54.101	4.6125e-06	61.413	0.0036789	0.0041951	0.0011296	451.63	4.1138e-05	4.124e-05	485.69	201.24	3.5231e-05	3.5513e-05	243.95	109.25	95.315	57.983	3.1528e-05	65.449	246.456	30.576	141.409	7.698	199.746	162.712	6.424	13.353	220.985	187.932	9.157	13.691	16.615	19.639	249.869	15.222	-8191	255	
1588.556	1	1	0	0	0.21103	0.16653	0.16471	0.21179	0.18056	0.023572	0.097348	0.24041	0.18656	0.17851	0.15672	0.27743	0.15787	0.12811	0.095504	0.0766	-2.7146	-2.7542	-3.1625	-3.0375	-3.0062	-3.25	-2.9042	-3.225	-3.15	-2.7333	-2.9813	-2.9458	-3	-3.2313	-2.9688	-3.0312	35.954	350.650	272.860	68.447	0.046	60.388	115.397	-3.747	308.545	121.808	351.442	324.653	241.687	12.598	-3.989	217.338	0.00031142	0.00069577	8.2965e-05	398.61	2.6638e-06	6.6371e-06	433.49	182.12	5.0369e-07	2.5001e-06	214.06	99.481	86.272	53.964	9.5029e-06	61.605	0.0023951	0.0027337	0.00074724	437.71	2.8589e-05	2.9524e-05	475.17	197.65	2.8773e-05	2.9814e-05	239.88	108.08	94.097	57.521	2.8823e-05	65.367	246.359	39.737	29.438	7.820	250.843	140.209	6.127	13.335	208.422	121.831	9.425	13.435	16.659	19.415	195.980	15.045	-8191	255	
1588.652	1	1	0	0	0.10156	0.20201	0.11734	0.084805	0.20125	0.2685	0.24186	0.063762	0.13078	0.19951	0.066781	0.29651	0.15734	0.1978	0.22987	0.20276	-2.7729	-2.7979	-3.1562	-2.975	-2.8688	-3.3354	-2.8958	-2.8917	-3.1979	-2.8563	-2.9479	-3.275	-2.8625	-3.3042	-2.9979	-3.1917	22.792	203.258	287.154	61.691	289.798	146.850	243.638	54.078	251.801	234.656	303.907	349.574	344.121	336.698	74.721	283.671	0.00033275	0.00070197	0.00012827	394.94	5.886e-06	5.2637e-06	430.82	178.25	3.6055e-06	1.6126e-06	208.35	97.069	83.546	52.567	4.7464e-06	60.314	0.0023349	0.0026504	0.0007257	431.34	2.7202e-05	2.7806e-05	468.96	193.12	2.8404e-05	3.015e-05	235.16	106.04	92.148	56.374	3.3142e-05	64.743	230.125	115.452	117.734	8.112	238.635	117.547	6.280	13.094	169.536	120.576	9.533	13.580	16.554	19.560	320.570	15.317	-8191	255	
1588.748	1	1	0	0	0.24086	0.33738	0.20118	0.2061	0.067689	0.28767	0.2426	0.18247	0.12701	0.15708	0.22268	0.051725	0.17155	0.11616	0.24594	0.12181	-2.8771	-2.8521	-3.0979	-3.1521	-2.8875	-3.1896	-3.2417	-3.0104	-3.3812	-2.9125	-3.175	-3.0792	-3.0875	-3.3521	-3.1521	-3.0417	44.269	247.938	84.964	332.178	63.306	321.461	350.783	226.618	241.020	246.974	290.256	238.997	347.076	10.103	161.771	224.291	0.00034926	0.00072016	0.00012021	387.13	9.232e-06	6.2723e-06	420.53	174.66	1.2896e-06	6.0482e-06	209.51	98.129	85.237	53.599	1.1746e-05	61.981	0.0028002	0.0033137	0.00094218	437.85	3.719e-05	3.8306e-05	475.39	193.74	3.6289e-05	3.6109e-05	238.72	107.5	93.514	57.264	3.0101e-05	65.935	246.245	85.860	154.641	7.799	165.180	106.163	6.074	13.371	47.405	83.029	9.308	13.535	16.773	19.531	139.455	15.105	-8191	255	
1588.844	1	1	0	0	0.11359	0.059759	0.22244	0.062408	0.2118	0.15821	0.21431	0.26409	0.051387	0.12769	0.087011	0.31439	0.22759	0.31203	0.1795	0.27334	-2.8479	-2.8771	-3.0021	-3.1688	-2.8896	-3.1	-3.0771	-2.9542	-3.2729	-3.0125	-3.0521	-3.0667	-2.975	-3.3479	-3.0396	-2.9708	190.373	46.654	312.572	84.907	33.613	132.198	275.950	7.082	184.448	160.093	345.028	346.844	281.077	347.409	71.957	285.162	0.00037204	0.0006699	0.00033924	394.31	8.5186e-06	3.5915e-06	431.37	181.96	3.6027e-06	4.0646e-06	215.7	101.26	88.775	55.795	2.2573e-06	64.025	0.0023142	0.0026087	0.00072125	432.32	2.724e-05	2.7641e-05	469.38	197.22	2.7196e-05	2.7793e-05	240.04	109.65	96.39	59.466	2.7856e-05	67.731	224.515	106.707	75.827	8.012	163.533	253.569	6.307	13.235	290.462	105.542	9.581	13.289	16.597	19.357	144.134	15.039	-8191	255	
1588.939	1	1	0	0	0.16071	0.045907	0.030401	0.36796	0.21587	0.18968	0.093882	0.18202	0.055943	0.2147	0.025266	0.21759	0.20114	0.18357	0.22007	0.28012	-2.9083	-2.925	-2.8979	-3.2875	-2.8042	-3.1479	-3.1646	-3.0167	-3.2375	-3.0312	-2.9146	-3.2812	-3.0021	-3.1437	-3.3104	-3.0333	66.503	244.156	81.305	-3.733	149.836	173.398	262.581	157.956	42.721	170.915	95.013	19.901	15.701	2.302	95.947	348.493	0.00038562	0.00033284	0.00013088	399.66	6.6967e-06	6.7482e-06	429.08	186.46	6.3142e-06	5.869e-06	218.45	102.63	90.071	56.769	1.1298e-07	64.313	0.0022585	0.0026138	0.00073535	439.19	2.82e-05	2.9232e-05	472.8	202.72	2.8727e-05	2.9827e-05	244.74	111.41	98.335	60.466	3.0315e-05	68.287	236.333	49.322	79.996	8.206	143.954	190.813	6.223	13.189	224.646	352.367	9.156	13.436	16.336	19.256	9.888	15.187	-8191	255	
1589.035	1	1	0	0	0.23088	0.22413	0.16933	0.086098	0.28875	0.059687	0.11129	0.093812	0.10337	0.26507	0.045586	0.027209	0.14431	0.11183	0.03017	0.27103	-2.8021	-2.8958	-2.85	-3.4	-2.8708	-3.325	-3.1271	-2.9833	-3.2083	-2.9958	-2.9458	-3.2396	-2.9062	-3.0687	-3.2521	-2.9333	199.947	125.585	158.232	12.530	60.243	97.644	296.507	258.754	-0.078	296.426	258.213	194.998	66.852	198.891	42.923	263.431	0.00025781	0.00043388	0.00019864	400.85	8.1017e-06	8.368e-06	436.17	190.64	3.4968e-06	5.691e-06	224.71	104.55	92.691	58.04	8.885e-06	66.248	0.0024174	0.0028126	0.00079076	444.63	3.022e-05	3.1056e-05	479.03	206.98	2.9289e-05	2.9739e-05	250.07	113.07	100.21	61.522	2.6038e-05	69.669	223.582	75.413	49.001	7.850	173.503	59.582	6.395	13.169	162.548	152.712	9.355	13.245	16.321	18.945	246.357	14.931	-8191	255	
1589.133	1	1	0	0	0.28484	0.19806	0.076358	0.14777	0.13717	0.10183	0.13013	0.2088	0.38536	0.16366	0.23965	0.19904	0.24427	0.25872	0.18941	0.059503	-2.7292	-2.9313	-2.9688	-3.2083	-3.0375	-2.9771	-3.3458	-2.8917	-3.0896	-3.3333	-2.75	-3.1813	-2.9688	-3.1937	-3.0938	-2.85	276.771	76.262	237.483	198.396	147.875	214.183	188.055	291.031	50.797	335.502	307.698	8.365	101.977	333.717	138.882	257.701	0.00035757	0.00022182	2.8733e-05	414.68	1.5394e-06	2.6425e-06	451.93	203	1.9589e-06	2.2978e-06	239.41	110.03	96.917	59.854	6.7359e-06	67.443	0.0020201	0.0023118	0.00064258	448.45	2.3876e-05	2.4384e-05	487.41	216.13	2.2724e-05	2.3305e-05	259.36	117.19	103.66	62.959	2.2648e-05	70.424	234.802	186.879	67.746	8.522	248.552	189.154	6.265	12.893	154.949	148.289	9.122	12.783	16.027	19.100	208.958	14.809	-8191	255	
1589.251	1	1	0	0	0.33571	0.25433	0.091432	0.097474	0.061398	0.09043	0.33946	0.10447	0.051179	0.24453	0.34636	0.11216	0.089573	0.069449	0.14933	0.18914	-2.775	-3.0125	-2.6312	-3.0708	-2.9938	-3.1	-3.3271	-3.0229	-3.1792	-3.1021	-3.0312	-3.325	-3.0563	-3.1458	-3.1979	-3.0563	54.396	168.258	80.305	68.564	206.522	239.290	24.012	206.107	41.464	90.851	-1.180	157.935	105.044	174.488	21.382	304.715	0.00038792	0.00099112	0.00023263	419.78	6.8273e-06	2.5719e-06	459.11	207.12	5.9792e-06	7.2819e-06	241.4	110.48	97.419	59.387	7.2459e-06	65.707	0.0018216	0.0020795	0.0005766	453.19	2.1861e-05	2.2705e-05	491.66	219.77	2.1921e-05	2.2904e-05	261.23	117.42	104.47	62.588	2.389e-05	69.106	234.989	104.607	129.317	8.331	137.496	154.468	6.061	12.884	172.869	138.957	8.961	12.866	15.972	18.734	155.451	14.659	-8191	255	
1589.348	1	1	0	0	0.069627	0.046598	0.10293	0.25659	0.15886	0.14129	0.032336	0.048221	0.099891	0.078911	0.12013	0.072211	0.18958	0.27576	0.075201	0.29788	-2.6229	-3.1708	-2.7583	-3.2042	-3.1083	-3.1646	-3.2771	-2.9021	-2.9375	-3.025	-3.0458	-3.2521	-3.0354	-3.0146	-3.2042	-2.9125	21.217	286.693	31.565	346.951	300.744	95.716	281.940	303.229	298.662	259.457	115.904	54.062	38.350	15.299	274.280	305.049	0.0003935	0.00083497	0.0001532	417.19	5.8281e-06	5.3696e-06	447.66	202.53	2.4268e-06	7.0861e-06	233.78	108.07	95.489	58.16	7.4771e-06	64.553	0.0019867	0.0023183	0.00065046	452.97	2.4819e-05	2.5988e-05	485.9	216.84	2.4947e-05	2.5643e-05	257	115.23	102.74	61.383	2.3763e-05	67.729	235.441	51.689	72.072	8.309	247.120	233.823	5.636	12.850	142.793	99.587	9.131	12.950	16.187	18.999	174.834	14.762	-8191	255	
1589.419	1	1	0	0	0.043745	0.21124	0.20383	0.24866	0.18992	0.25843	0.21901	0.17911	0.27924	0.24249	0.050614	0.25465	0.050812	0.10094	0.13987	0.12936	-2.6188	-3.2083	-3.0271	-3.1458	-3.2542	-2.9	-3.2667	-3.1063	-3.0229	-3.075	-3.0104	-3.1292	-3.2313	-2.7792	-3.2271	-3.0792	24.319	314.378	320.847	88.321	32.976	115.082	6.376	59.305	6.416	165.903	334.585	13.001	245.040	27.970	298.622	156.637	0.00031991	0.00062236	0.00016508	414.94	3.2113e-06	5.9599e-06	451.05	201.46	4.5219e-06	5.4041e-06	235.32	107.1	94.079	56.931	1.5803e-05	63.437	0.0018529	0.0020722	0.00057431	446.02	2.1708e-05	2.2714e-05	482.42	214.44	2.2315e-05	2.3079e-05	254.78	113.42	100.75	60.028	2.258e-05	66.472	231.729	81.525	55.660	8.069	198.733	79.146	6.200	12.932	203.971	66.188	9.068	13.138	16.117	18.888	202.137	14.640	-8191	255	
1589.515	1	1	0	0	0.09808	0.13405	0.021822	0.14221	0.10994	0.2784	0.19471	0.10468	0.034679	0.11251	0.21886	0.10472	0.19203	0.20699	0.12942	0.067325	-2.65	-3.1896	-2.6729	-3.0854	-3.3187	-2.9958	-3.1979	-3.0417	-2.9646	-3.3125	-3.0563	-3.1833	-3.1437	-3.0271	-3.3354	-3.0792	144.879	192.139	311.707	282.231	330.920	51.937	219.147	229.251	161.813	90.381	35.157	322.370	262.401	270.208	189.617	294.653	0.00032193	0.0006938	0.00015223	414.2	7.0938e-06	3.8797e-07	445.96	201.36	4.7449e-06	9.4426e-06	233.26	105.88	92.906	56.424	7.9578e-06	63.192	0.0018232	0.0020627	0.00057258	444.86	2.2055e-05	2.2613e-05	480.68	213.66	2.2182e-05	2.2795e-05	253.33	112.77	99.867	59.553	2.2991e-05	66.232	233.785	66.763	120.446	8.309	196.699	12.984	6.347	13.050	176.334	127.416	9.119	13.016	16.226	19.002	206.539	14.904	-8191	255	
1589.636	1	1	0	0	0.070503	0.092933	0.11983	0.13351	0.1579	0.20551	0.25365	0.28098	0.060965	0.12971	0.22332	0.26876	0.22779	0.26926	0.15957	0.12382	-2.5167	-3.2417	-2.9083	-2.9667	-3.0875	-2.7542	-3.2604	-3.0563	-2.975	-3.3083	-2.9167	-3.0187	-2.9458	-3	-3.0333	-3.1771	80.896	205.463	252.597	270.017	250.153	339.476	241.036	324.800	308.985	174.319	89.317	268.998	265.594	342.409	228.583	239.057	0.00032122	0.00071499	3.2527e-05	413.07	8.6712e-06	7.8344e-06	446.26	199.16	2.5348e-06	6.2992e-06	232.71	105.74	93.304	56.132	5.9241e-06	62.608	0.0018668	0.0021113	0.00058439	444.51	2.257e-05	2.3182e-05	480.29	212.65	2.2871e-05	2.3443e-05	252.97	112.49	99.848	59.328	2.3397e-05	65.869	239.869	113.691	220.504	7.996	213.162	98.141	6.232	13.032	137.787	141.013	8.962	13.096	16.277	18.952	165.237	14.736	-8191	255	
1589.732	1	1	0	0	0.17361	0.20369	0.18669	0.13851	0.35165	0.16121	0.052624	0.12797	0.045269	0.25667	0.082869	0.12399	0.080676	0.13976	0.14041	0.17073	-2.4542	-3.1771	-2.8937	-3.0083	-3.1979	-2.8458	-3.2208	-3.2271	-3.1188	-3.2542	-3.1542	-2.9604	-3.1771	-2.9437	-3.0875	-3.3396	78.266	142.865	331.733	326.532	130.813	-2.093	28.647	186.921	4.347	294.480	284.099	336.055	1.049	9.870	259.891	191.256	0.00036219	0.00074018	0.00010623	412.69	5.6166e-06	1.4072e-05	448.64	203.39	5.6504e-06	6.0721e-06	235.86	107.53	95.378	57.45	2.6236e-06	63.756	0.0018848	0.0021248	0.00058144	444.26	2.1556e-05	2.1843e-05	478.36	214.8	2.0318e-05	2.0639e-05	253.82	113.67	101.33	60.363	2.0179e-05	66.73	213.458	44.308	114.061	8.148	189.559	116.717	5.992	12.774	215.297	120.744	9.139	12.943	16.141	18.946	136.233	14.691	-8191	255	
1589.828	1	1	0	0	0.085012	0.14757	0.23247	0.040564	0.11485	0.14511	0.19697	0.26242	0.25616	0.21142	0.085247	0.19244	0.33593	0.25728	0.21308	0.12924	-2.3771	-3.3167	-3.0354	-3	-3.1604	-3.1021	-3.1354	-3.4417	-2.8417	-3.3292	-3.2229	-2.9375	-3.3396	-3.1479	-2.9854	-3.2333	309.880	197.457	122.445	21.955	20.733	232.341	113.438	276.473	226.896	95.257	168.089	220.453	344.951	217.159	218.855	325.496	0.00033083	0.00024223	0.00013123	416.85	4.7395e-06	8.456e-06	445.58	202.35	6.65e-06	6.5378e-06	233.51	106.08	93.507	56.617	4.4946e-06	62.748	0.001657	0.0019028	0.00052796	444.21	2.0524e-05	2.1174e-05	475.83	214.46	2.0899e-05	2.1702e-05	252.24	112.64	99.887	59.734	2.3078e-05	65.978	236.139	60.400	18.180	8.121	125.426	135.688	6.270	13.070	228.031	168.083	9.054	13.070	16.030	18.844	138.465	14.692	-8191	255	
1589.925	1	1	0	0	0.35025	0.068619	0.14413	0.18462	0.21087	0.22219	0.22738	0.24297	0.081952	0.045424	0.11223	0.059826	0.3944	0.29613	0.20289	0.028872	-2.2979	-3.3187	-3.0604	-2.9833	-3.2104	-2.8417	-2.9854	-3.2188	-2.9188	-3.0354	-3.1833	-3.0229	-3.3187	-3.175	-2.8667	-3.4167	98.454	201.941	227.635	117.663	265.474	13.192	291.322	252.348	21.091	139.857	205.724	182.011	0.997	57.741	278.264	302.246	0.00034973	0.00062125	0.00024744	409.38	2.8005e-06	3.3978e-06	440.02	199.66	2.3581e-06	2.0434e-06	232.06	105.8	93.062	56.683	7.1762e-06	63.328	0.0018695	0.002148	0.00059803	441.68	2.2474e-05	2.2884e-05	474.23	211.83	2.141e-05	2.1966e-05	250.97	112.22	99.31	59.605	2.2204e-05	66.24	240.841	130.492	71.094	8.514	211.249	196.229	6.335	13.063	342.861	114.734	9.093	12.832	16.398	19.045	168.719	14.940	-8191	255	
1590.043	1	1	0	0	0.47772	0.1714	0.15127	0.2661	0.1881	0.11454	0.26007	0.10798	0.35267	0.2642	0.051735	0.23538	0.25559	0.042083	0.095447	0.14827	-2.5104	-3.0271	-3.1063	-2.8958	-3.3208	-3	-2.9813	-3.2729	-2.875	-2.8875	-3.2417	-2.8063	-3.3417	-3.2417	-2.75	-3.3667	61.134	348.762	199.879	349.521	145.463	69.395	241.698	334.251	162.860	257.053	238.334	316.100	327.857	327.278	53.028	282.294	0.00035153	0.00026834	0.00021366	410.05	5.1091e-06	1.8428e-06	442.5	199.82	3.7556e-06	3.4092e-06	231.95	105.44	93.019	56.518	6.7953e-06	63.26	0.0018067	0.00207	0.00058383	441.24	2.2163e-05	2.2715e-05	475.83	212.08	2.1687e-05	2.2152e-05	251.79	112.28	99.362	59.611	2.1937e-05	66.307	222.524	29.499	77.199	7.922	174.249	141.833	5.909	12.912	134.200	117.951	9.372	13.008	16.213	19.082	159.973	14.876	-8191	255	
1590.117	1	1	0	0	0.045274	0.094591	0.30807	0.17514	0.10956	0.13518	0.16794	0.086438	0.19961	0.21619	0.26245	0.046758	0.10014	0.11218	0.15161	0.11303	-2.5771	-3.0458	-3.1479	-2.9292	-3.1354	-3.0938	-2.8542	-3.1729	-2.9167	-3.1562	-3.2417	-2.8833	-3.2479	-3.1729	-2.8292	-3.3875	319.159	98.926	298.240	272.115	182.686	103.153	308.960	249.228	39.050	333.369	214.220	59.289	78.086	277.083	267.295	287.938	0.00035592	0.00062648	4.5732e-05	410.43	7.4642e-06	2.8336e-06	439.63	199.34	5.1724e-06	3.7074e-06	230.1	105.18	92.594	56.244	3.3113e-06	62.951	0.0017845	0.0020156	0.00056951	441.49	2.1804e-05	2.2281e-05	473.63	211.58	2.1906e-05	2.2635e-05	250.59	111.57	99.18	59.309	2.2601e-05	65.866	223.904	74.205	39.349	8.136	173.791	147.158	6.373	12.790	239.846	121.527	9.126	12.981	16.440	18.835	209.568	14.691	-8191	255	
1590.236	1	1	0	0	0.094415	0.069579	0.15455	0.26843	0.095866	0.051253	0.14004	0.038208	0.186	0.03318	0.31145	0.23441	0.15118	0.12065	0.16474	0.093563	-2.6917	-3.0396	-3.5375	-3.0354	-3.1813	-3.1396	-2.9083	-3.3063	-2.9792	-2.9813	-3.1479	-2.8646	-3.1688	-3.425	-2.7229	-3.3187	282.676	193.222	297.513	5.132	330.833	280.926	78.270	95.447	168.860	206.880	227.262	350.342	24.064	30.284	63.191	329.399	0.00035551	0.00058007	0.00016947	408.29	2.4375e-06	4.7348e-06	438.32	199.96	4.4515e-06	4.5767e-06	231.3	105.81	93.273	56.951	8.1564e-06	63.75	0.0018383	0.002101	0.00058981	440.02	2.2569e-05	2.3151e-05	472.31	212.49	2.1823e-05	2.216e-05	251.4	112.27	99.835	59.904	2.0563e-05	66.61	225.764	83.513	77.038	8.374	253.784	258.609	6.303	12.961	180.917	179.968	9.316	13.238	16.136	18.984	204.959	14.645	-8191	255	
1590.332	1	1	0	0	0.34543	0.17506	0.10993	0.33899	0.11899	0.034575	0.19026	0.10829	0.1569	0.21323	0.21692	0.14681	0.29534	0.20712	0.17668	0.35967	-2.4979	-2.8042	-3.1583	-2.9188	-3.1479	-3.4021	-2.8771	-3.5	-3.1417	-2.9208	-3.3458	-3.1208	-3.1208	-3.3625	-2.9458	-3.2146	325.342	319.810	133.543	200.150	311.081	185.995	226.653	213.856	219.451	216.314	322.291	231.876	294.383	353.776	224.306	281.196	0.00028261	0.0008334	0.00012661	409.53	4.2034e-06	3.0591e-06	447.09	202.92	4.9827e-06	5.7987e-06	235.08	107.05	93.926	56.944	8.726e-06	63.673	0.0016137	0.0018433	0.00050561	438.95	1.9021e-05	1.9529e-05	473.94	213.65	1.8811e-05	1.9401e-05	252.18	112.73	99.727	59.713	1.9106e-05	66.328	227.173	59.962	138.487	7.880	155.295	160.733	6.203	12.924	219.428	178.412	9.128	12.950	16.167	18.903	146.619	14.972	-8191	255	
1590.428	1	1	0	0	0.041286	0.10008	0.22294	0.22203	0.36573	0.12757	0.2453	0.17735	0.11952	0.17381	0.26563	0.14753	0.18799	0.14329	0.13609	0.12697	-2.7479	-2.9375	-3.2562	-2.9667	-3.0479	-3.2354	-2.8708	-3.2125	-3.1521	-2.975	-3.2375	-3.1125	-3.0479	-3.2167	-3.0958	-3.2396	60.860	143.642	61.252	33.818	282.069	122.718	128.882	-2.211	139.529	216.212	209.295	285.987	287.718	261.011	72.315	292.726	0.00036392	0.0003108	0.00021491	409.51	2.8905e-06	6.3401e-06	445.23	201.07	2.7653e-06	8.8716e-06	234.52	106.23	92.838	56.265	2.0652e-06	63.186	0.0015741	0.0018003	0.00049765	438.47	1.9173e-05	1.9861e-05	473.63	212.3	1.9114e-05	1.979e-05	251.38	112.12	98.711	59.058	1.8724e-05	65.911	229.234	117.626	62.618	8.359	217.631	134.876	5.985	13.051	132.663	134.225	9.271	13.074	16.119	18.975	161.866	14.856	-8191	255	
1590.524	1	1	0	0	0.21052	0.073724	0.24698	0.028415	0.15532	0.076213	0.14262	0.14295	0.1286	0.062668	0.024461	0.21386	0.030213	0.12067	0.27886	0.15396	-2.8354	-2.85	-3.225	-3.0187	-2.9771	-3.125	-3.0875	-3.1562	-3.3	-2.8375	-3.2417	-3.0563	-2.9042	-3.4979	-3.0271	-3.1771	191.186	2.596	-2.771	148.751	51.072	115.375	98.396	332.077	218.599	234.998	204.396	59.497	216.371	334.298	350.284	276.483	0.00036797	0.00068084	0.00013332	411.75	9.2611e-06	6.8576e-06	445.57	200.97	2.6974e-06	5.9349e-06	233.4	105.96	91.916	55.697	5.1818e-06	62.376	0.001533	0.0017546	0.00048622	438.19	1.8682e-05	1.9094e-05	473.88	212.42	1.8856e-05	1.9491e-05	250.95	111.45	98.096	58.567	1.9887e-05	65.207	225.919	106.027	82.058	8.133	181.143	112.969	5.965	13.130	235.382	153.745	9.070	13.163	16.460	18.976	199.094	14.852	-8191	255	
1590.645	1	1	0	0	0.30747	0.17776	0.050343	0.15467	0.21451	0.2094	0.011985	0.14341	0.25761	0.13031	0.14216	0.18734	0.23625	0.097577	0.17352	0.11183	-2.8333	-2.8479	-3.1604	-3.0854	-3.0479	-3.1792	-2.9667	-3.1437	-3.2812	-2.875	-3.25	-3.2958	-3.0021	-3.4	-3.0187	-3.1896	147.400	177.366	112.902	312.835	4.420	205.768	323.558	319.630	168.737	316.060	331.075	45.954	296.678	11.106	207.107	250.823	0.00035749	0.00074393	0.00028966	406.52	6.9207e-06	4.0908e-06	436.44	196.88	1.7926e-06	2.6372e-06	227.75	102.21	90.624	54.708	2.1921e-06	61.16	0.0016613	0.0019166	0.00053344	436.64	2.1162e-05	2.1667e-05	469.1	209.28	2.1194e-05	2.1434e-05	246.74	108.9	96.408	57.534	2.1379e-05	64.189	234.474	90.291	59.585	7.879	187.099	190.850	6.239	13.214	133.037	318.808	9.077	13.161	16.122	19.086	49.224	14.899	-8191	255	
1590.716	1	1	0	0	0.06463	0.03792	0.102	0.14609	0.2001	0.19936	0.091523	0.23091	0.1841	0.17829	0.25365	0.24441	0.26755	0.41333	0.095869	0.18449	-2.6771	-2.8937	-3.1063	-3.0625	-2.8479	-3.1292	-2.9354	-3.2354	-3.2583	-3.0375	-3.2562	-3.2167	-2.7687	-3.2562	-3.0292	-3.0604	272.669	102.021	315.286	293.835	153.242	60.099	281.675	312.278	235.293	275.920	253.601	337.673	14.643	10.477	73.425	215.405	0.00028858	4.9635e-05	0.00011656	403.49	3.7512e-06	5.264e-06	434.99	194.01	3.9386e-06	9.2465e-06	223.13	101.41	88.584	53.925	6.1189e-06	60.673	0.0017475	0.0019928	0.00056161	435.6	2.2041e-05	2.2784e-05	467.5	206.95	2.2942e-05	2.3579e-05	244.91	108.29	95.508	57.021	2.4018e-05	63.904	220.156	110.817	-4.059	8.067	292.032	48.948	6.301	12.953	234.176	149.851	9.069	13.135	16.487	18.949	211.549	14.983	-8191	255	
1590.813	1	1	0	0	0.067257	0.15335	0.060867	0.18279	0.099228	0.095353	0.17501	0.035789	0.14564	0.33579	0.12811	0.22065	0.16991	0.11103	0.22949	0.14237	-2.7979	-2.8771	-3.1104	-3.2938	-3.125	-3.1042	-2.9896	-2.9479	-3.2062	-3.0146	-3.0875	-3.1208	-2.8083	-3.3104	-3.1396	-2.8333	13.325	279.834	248.178	151.897	79.817	163.206	336.253	45.350	177.591	341.787	317.655	24.042	308.522	8.261	317.327	221.006	0.00036931	0.00041779	0.00027331	402.71	9.0937e-06	1.21e-05	436.29	193.96	3.4522e-06	4.1134e-07	225.22	101.53	88.277	53.968	3.0886e-06	60.68	0.0019333	0.0021733	0.00060156	435.2	2.2233e-05	2.2738e-05	468.33	205.92	2.2083e-05	2.2458e-05	245.12	108.01	94.87	56.965	2.2735e-05	64.076	234.002	115.921	75.302	7.975	164.061	112.452	6.305	13.212	271.879	86.704	9.501	13.295	16.446	19.245	94.109	15.004	-8191	255	
1590.933	1	1	0	0	0.19464	0.097476	0.20283	0.080538	0.049864	0.20137	0.24329	0.11529	0.17015	0.14541	0.076765	0.21061	0.04916	0.25	0.3981	0.28695	-2.8542	-2.8958	-2.9875	-3.4062	-3.0354	-3.2125	-3.2979	-3.1521	-3.2167	-3.0771	-3.0667	-3.4562	-2.8708	-3.3479	-3.0583	-3.0521	246.636	167.419	13.572	193.200	62.068	349.231	104.660	300.535	336.016	-1.101	325.881	260.177	253.430	321.222	227.649	339.733	0.00032803	0.00069005	0.0001303	404.8	2.2906e-06	2.8657e-07	434.81	193.16	2.7439e-06	6.0495e-06	225.99	101.32	88.404	53.918	7.3211e-06	60.79	0.0018387	0.0021058	0.00059118	436.75	2.2426e-05	2.3129e-05	469.08	206.18	2.2198e-05	2.269e-05	245.38	108.06	94.987	56.852	2.2451e-05	63.901	242.298	91.534	71.846	8.023	196.472	131.238	6.119	13.274	178.406	131.641	9.138	13.140	16.267	19.275	168.702	15.039	-8191	255	
1591.028	1	1	0	0	0.10152	0.025465	0.12838	0.12635	0.12999	0.052517	0.12021	0.2357	0.20988	0.1023	0.14123	0.073056	0.1097	0.21272	0.15073	0.178	-2.6979	-3.025	-3.0563	-3.1021	-2.8521	-3.3854	-3.225	-3.1896	-3.1979	-2.975	-3.1583	-3.3187	-2.9479	-3.1875	-2.9854	-2.8667	343.676	45.462	58.234	213.063	30.794	288.631	336.530	335.483	313.535	171.191	2.860	315.738	293.184	312.635	126.806	178.978	0.00039392	0.00050527	0.00011392	403.72	1.0012e-05	4.9972e-06	436.13	194.47	2.372e-06	5.854e-06	226.88	102.03	88.761	53.991	5.8667e-06	61.502	0.001802	0.0020738	0.00058366	436	2.236e-05	2.3115e-05	469.86	206.8	2.1958e-05	2.278e-05	245.98	108.67	95.245	57.121	2.2294e-05	64.439	232.673	89.663	125.721	8.001	194.688	112.535	6.505	12.957	247.929	110.327	9.470	13.307	16.318	19.385	193.686	14.997	-8191	255	
1591.124	1	1	0	0	0.19346	0.18782	0.15757	0.17496	0.14854	0.14189	0.15702	0.24971	0.1355	0.18326	0.24427	0.056582	0.27171	0.17803	0.13711	0.19426	-2.8812	-2.9792	-2.8229	-3.2438	-2.9188	-3.1583	-3.175	-2.7458	-3.1583	-3.1771	-2.9062	-3.1729	-2.9437	-3.0875	-3.2542	-3.0917	273.478	271.716	344.910	155.319	265.525	26.202	198.793	283.418	279.529	85.625	238.613	351.848	33.065	313.340	103.909	315.980	0.00031637	0.00064274	0.00021069	405.18	1.3449e-06	4.8169e-06	438.83	192.89	1.8717e-06	8.5476e-06	225.91	101.89	88.39	53.812	6.9148e-06	61.456	0.0017941	0.002078	0.00057677	436.37	2.1821e-05	2.2661e-05	469.99	205.49	2.1645e-05	2.2633e-05	245.33	108.38	94.742	56.878	2.2164e-05	64.583	239.989	70.087	104.047	8.343	260.419	133.530	6.328	13.114	187.015	101.741	9.349	13.164	16.514	19.176	170.916	15.025	-8191	255	
1591.244	1	1	0	0	0.10771	0.24323	0.10592	0.11534	0.10391	0.10374	0.47405	0.19465	0.10234	0.18128	0.17775	0.17791	0.1667	0.048843	0.058676	0.062028	-2.8167	-3.0417	-2.85	-3.2292	-3.0812	-3.0229	-3.3896	-3.0417	-3.0333	-3.2062	-2.9729	-3.1708	-3.1333	-3.125	-3.3417	-3.1021	151.171	287.919	207.420	-4.332	222.578	96.700	65.907	223.865	146.825	175.145	206.822	25.066	239.707	154.432	243.242	39.191	0.00034848	0.00059286	8.9006e-06	407.47	2.6103e-06	9.2766e-06	441.41	193.99	4.2086e-06	5.3256e-06	228.04	103.25	89.512	54.912	1.5616e-06	63.06	0.001771	0.0020406	0.00056635	437.73	2.179e-05	2.268e-05	474.21	206.87	2.1961e-05	2.2706e-05	248.37	109.86	95.953	57.899	2.2528e-05	65.907	239.082	56.681	79.745	7.939	235.020	168.620	6.145	12.933	154.234	158.427	9.326	13.412	16.369	19.174	214.189	15.040	-8191	255	
1591.341	1	1	0	0	0.23025	0.19923	0.14913	0.42392	0.11255	0.038669	0.055766	0.12472	0.069157	0.17698	0.17015	0.079537	0.26955	0.26765	0.11479	0.37683	-2.6583	-3.2812	-2.9375	-3.2458	-3.2083	-2.9896	-3.2875	-3.0583	-2.95	-3.2604	-2.7417	-3.2854	-3.0792	-3.1125	-3.2417	-2.9479	255.937	45.014	218.049	-1.476	286.299	62.960	319.491	348.174	270.255	43.949	146.310	96.342	294.133	343.383	157.212	299.994	0.00035033	0.00025597	9.9286e-05	410.8	6.086e-06	5.4154e-06	448.05	196.84	5.3093e-06	9.0149e-06	231.01	104.44	89.634	54.564	7.8618e-06	62.435	0.0017965	0.002051	0.00056759	441.68	2.1539e-05	2.2198e-05	480.19	209.22	2.1347e-05	2.1821e-05	251.19	110.79	96.118	57.658	2.1693e-05	65.563	221.620	123.646	110.797	7.879	154.838	144.769	6.715	13.028	187.957	111.769	9.346	13.397	16.554	19.347	206.530	15.069	-8191	255	
1591.412	1	1	0	0	0.099762	0.31488	0.17092	0.02303	0.060236	0.18388	0.16431	0.24668	0.22723	0.072584	0.1919	0.12379	0.12235	0.23822	0.18771	0.048666	-2.7104	-3.3771	-2.8187	-3.2708	-3.1396	-2.975	-3.4542	-2.9229	-3.0167	-3.2562	-3.0854	-3.1833	-3.0625	-3.025	-3.1521	-3.1708	250.427	244.324	179.372	244.662	335.960	270.552	252.487	329.701	87.895	20.828	115.340	43.580	2.647	323.357	-3.781	71.420	0.00036506	0.00030688	0.00011873	409.57	4.6043e-06	7.4883e-06	444.76	194.06	2.848e-06	8.4561e-06	228.31	102.6	87.735	53.62	2.8847e-06	61.568	0.001774	0.0020099	0.00055895	439.12	2.1539e-05	2.1925e-05	477.11	206.16	2.0883e-05	2.1207e-05	246.58	109	94.49	56.653	2.1596e-05	64.541	238.395	52.040	6.458	8.216	178.722	144.292	6.007	12.862	190.241	105.308	9.395	13.106	16.510	19.200	149.616	15.187	-8191	255	
1591.508	1	1	0	0	0.075626	0.089208	0.19851	0.26042	0.12	0.012238	0.063346	0.1123	0.19651	0.20739	0.11687	0.080057	0.30245	0.085715	0.16958	0.2527	-2.5104	-3.4062	-2.8917	-3.0604	-3.1688	-3.1146	-3.4083	-2.9583	-3.0542	-3.1396	-2.9208	-3.0771	-3.1208	-3.0646	-3.2271	-3.05	163.836	243.186	136.529	244.511	157.267	337.184	249.494	281.513	231.787	205.288	208.440	52.853	274.341	311.643	42.107	19.816	0.00035491	0.00023141	8.4824e-05	406.57	4.2508e-06	4.5579e-06	440.58	194.13	2.6075e-06	6.5211e-06	226.47	102.75	89.656	54.525	5.6709e-06	62.325	0.0017731	0.0020022	0.00055179	436.91	2.1488e-05	2.2272e-05	472.98	206.74	2.2135e-05	2.3109e-05	248.16	109.8	96.332	57.74	2.3721e-05	65.627	243.824	104.695	77.222	8.367	163.655	9.806	6.601	13.365	267.939	177.287	9.442	13.348	16.330	19.141	161.131	14.714	-8191	255	
1591.605	1	1	0	0	0.15588	0.14343	0.10043	0.20371	0.15339	0.30914	0.14149	0.046503	0.14077	0.2429	0.13861	0.23615	0.11626	0.13658	0.14101	0.11495	-2.3146	-3.0542	-2.9083	-3.1229	-3.2229	-3.0396	-3.2875	-2.9062	-3.1312	-3.4354	-2.9375	-3.0208	-3.1146	-3.1875	-3.1083	-3.2313	156.577	290.137	295.854	105.925	316.419	65.291	166.538	17.161	72.200	132.574	269.102	264.218	274.191	30.224	127.015	349.616	0.00035196	0.00037212	9.5889e-05	410.14	8.739e-06	4.4476e-06	444.68	196.81	1.6766e-06	3.8978e-06	230.89	104.5	90.941	55.302	1.142e-05	63.173	0.0019232	0.0021686	0.00060076	441.85	2.2929e-05	2.3355e-05	478.44	209.91	2.2706e-05	2.3338e-05	251.51	111.44	97.45	58.538	2.3262e-05	66.37	224.746	24.560	160.203	7.910	199.006	136.558	6.432	13.145	206.585	93.057	9.439	13.188	16.274	19.133	204.954	15.046	-8191	255	
1591.725	1	1	0	0	0.12572	0.18925	0.16246	0.23854	0.16848	0.083985	0.16683	0.035001	0.12522	0.12045	0.040715	0.17983	0.19216	0.38865	0.10766	0.14229	-2.5333	-3.2188	-3.0354	-3.2083	-3.0563	-3.0208	-3.2188	-3.2958	-2.9771	-3.1063	-2.9604	-3.1729	-3.1896	-3.1396	-3.2292	-3.2667	99.233	35.896	134.088	132.510	254.445	207.754	37.474	255.270	22.344	267.047	311.954	349.338	342.725	335.035	283.202	224.531	0.00037546	0.00042	0.00010369	410.39	2.2728e-06	1.33e-05	446.6	196.34	2.7642e-06	7.3436e-06	229.92	103.81	89.951	54.909	6.1857e-06	62.986	0.0018841	0.0021568	0.00060302	443.33	2.296e-05	2.3526e-05	479.61	209.41	2.3074e-05	2.3928e-05	251.15	111.04	96.785	58.197	2.3921e-05	66.292	233.056	4.499	97.208	8.277	161.248	139.154	6.543	13.098	261.944	193.973	9.523	13.160	16.512	19.299	268.238	15.203	-8191	255	
1591.821	1	1	0	0	0.199	0.086275	0.059967	0.14857	0.087342	0.12284	0.096326	0.092747	0.088073	0.18944	0.039424	0.1476	0.14242	0.1456	0.13653	0.20257	-2.4188	-3.2375	-2.9062	-3.1479	-3.1583	-3.1583	-3.1354	-3.2292	-3.1646	-3.1875	-3.075	-2.8063	-3.0687	-3.0083	-2.9562	-3.3708	302.409	94.599	79.064	245.862	8.159	18.892	79.879	157.036	61.074	216.842	314.787	330.940	296.879	294.474	104.977	7.266	0.00033673	0.00071368	0.00014969	410.53	4.2054e-06	4.972e-06	442.2	194.37	1.7707e-06	8.3422e-06	227.05	102.62	88.452	54.265	7.4592e-06	61.631	0.0019565	0.0022434	0.00062991	444.27	2.4156e-05	2.5101e-05	479.67	208.52	2.4849e-05	2.5712e-05	249.71	109.91	95.718	57.408	2.6069e-05	65.11	232.738	97.034	108.495	8.232	163.139	150.945	6.314	13.190	157.817	161.776	9.401	13.177	16.547	19.075	262.384	15.111	-8191	255	
1591.917	1	1	0	0	0.19629	0.25971	0.14206	0.046061	0.12446	0.16076	0.082176	0.069936	0.04407	0.16391	0.30398	0.31295	0.023178	0.18929	0.19959	0.15641	-2.5604	-3.1479	-2.9729	-3.1312	-3.3292	-3.0979	-3.1063	-3.4062	-2.8792	-3.1833	-3.1667	-3.0062	-3.3146	-3.0292	-3.1417	-3.2271	226.070	143.803	338.029	181.838	105.935	192.884	5.041	141.997	97.655	78.586	345.301	307.183	89.589	315.953	79.083	350.011	0.00033141	0.00082505	2.069e-05	404.54	2.271e-06	1.2376e-06	437.67	191.85	2.326e-06	2.3062e-06	223.14	100.31	87.152	53.308	1.9024e-06	60.832	0.0021246	0.0024695	0.00069632	442.33	2.6919e-05	2.7697e-05	476.73	206.15	2.6877e-05	2.7503e-05	247.44	108.33	94.675	56.625	2.6654e-05	64.544	222.942	128.802	253.493	8.022	335.375	7.706	6.005	13.065	125.189	315.415	9.634	13.298	16.470	19.379	163.380	15.237	-8191	255	
1592.014	1	1	0	0	0.039819	0.17633	0.12787	0.11297	0.34611	0.15384	0.19564	0.097793	0.38472	0.16336	0.16258	0.11658	0.041958	0.23564	0.10985	0.36697	-2.4437	-3.2667	-3.0875	-2.7625	-3.2833	-3.0167	-2.9542	-3.3396	-2.9375	-3.2354	-3.2062	-2.9917	-3.3375	-3.0646	-2.9958	-3.2417	6.178	257.658	78.090	296.879	337.778	126.054	51.926	347.970	74.694	3.736	175.976	125.058	315.433	290.752	56.962	231.939	0.00034995	0.00057845	7.4849e-05	405.04	2.1796e-06	7.6306e-06	437.31	189.95	4.2515e-06	1.1852e-05	223.61	100.58	86.78	52.979	4.1835e-06	60.93	0.0021027	0.0024117	0.00067382	440.41	2.5624e-05	2.6252e-05	475.92	204.86	2.5576e-05	2.6486e-05	246.44	108.32	94.041	56.377	2.6644e-05	64.487	237.579	131.478	93.400	8.058	68.907	260.564	6.468	13.037	191.680	152.724	9.388	13.523	16.459	19.362	125.357	15.167	-8191	255	
1592.108	1	1	0	0	0.15725	0.14259	0.14674	0.053829	0.22983	0.14369	0.17479	0.02082	0.088903	0.22726	0.049937	0.075366	0.26091	0.17841	0.20971	0.12574	-2.5312	-3.1521	-3.1583	-2.775	-3.2396	-2.9917	-2.9479	-3.2875	-2.8125	-3.2229	-3.2875	-3.0312	-2.9958	-3.1771	-2.9021	-3.2979	270.343	190.048	313.872	139.825	116.838	15.420	318.054	266.914	324.232	122.917	28.483	346.467	19.447	40.037	14.255	245.748	0.00036393	9.1872e-05	0.0001622	402.56	1.1919e-05	8.9158e-06	440.08	189.83	4.4706e-06	5.5699e-06	222.8	100.97	86.875	53.18	5.8897e-06	61.303	0.0021702	0.0025384	0.00071534	441.35	2.7183e-05	2.8213e-05	478.89	204.67	2.7102e-05	2.8072e-05	248.14	108.68	94.38	56.54	2.6609e-05	64.964	228.424	2.472	56.829	8.044	227.227	195.353	6.407	13.212	115.954	153.387	9.299	13.380	16.707	19.257	149.017	15.144	-8191	255	
1592.206	1	1	0	0	0.26382	0.087488	0.042293	0.11434	0.15623	0.30315	0.22219	0.068235	0.26034	0.19795	0.31342	0.07287	0.42926	0.20589	0.053577	0.29904	-2.575	-3.0312	-3.2292	-3.0187	-3.1271	-3.025	-2.8271	-3.1562	-2.9875	-3.1521	-3.2104	-3	-3.1937	-3.3812	-2.7271	-3.375	223.246	18.997	-4.940	145.971	127.429	11.220	58.246	37.118	323.250	109.895	56.804	22.834	319.962	-0.871	246.056	304.462	0.00043923	0.00062921	8.3735e-05	407.62	1.3944e-06	1.8087e-06	444.25	193.55	4.9287e-06	2.8779e-06	229.91	103.33	88.895	54.586	6.0261e-06	63.453	0.0020807	0.0023697	0.00065767	443.01	2.4818e-05	2.5807e-05	482.8	207.56	2.5255e-05	2.6146e-05	252.39	110.86	96.186	57.91	2.6344e-05	66.885	237.129	24.248	123.884	8.140	48.908	18.921	6.565	12.873	221.071	218.360	9.347	13.334	16.619	19.048	237.493	14.997	-8191	255	
1592.325	1	1	0	0	0.13804	0.056183	0.20642	0.062822	0.1636	0.18828	0.028968	0.060538	0.089601	0.18787	0.26157	0.073679	0.05342	0.0080481	0.15857	0.19345	-2.5354	-2.9625	-2.9813	-3.0625	-3.0917	-3.0812	-2.8187	-3.1125	-2.8688	-2.9708	-3.2792	-2.9958	-3.0521	-3.3042	-2.9188	-3.2458	348.378	310.060	311.788	305.234	29.724	120.602	111.132	274.402	331.766	2.741	335.144	234.446	-4.362	133.292	327.929	300.731	0.00034273	0.00042778	0.00017648	411.77	5.4207e-06	1.4283e-06	452.09	197.69	1.6566e-06	3.2264e-06	232.37	105.1	90.437	55.097	3.5348e-06	63.666	0.0021412	0.0024906	0.00068834	449.13	2.5902e-05	2.6661e-05	489.24	211.45	2.532e-05	2.6362e-05	255.99	112.69	97.524	58.388	2.501e-05	66.934	218.814	280.298	26.085	8.084	170.988	99.408	6.189	13.076	222.148	175.337	9.501	13.139	16.353	19.312	179.935	15.170	-8191	255	
1592.421	1	1	0	0	0.16272	0.13942	0.11488	0.1989	0.1812	0.096116	0.23401	0.056837	0.10983	0.19683	0.18515	0.27555	0.0086109	0.070848	0.081703	0.13996	-2.5687	-2.7521	-3.1458	-3.0792	-2.9604	-3.3229	-2.8583	-3.1271	-3.1354	-2.6479	-3.2396	-3.0167	-3.075	-3.3771	-3.0583	-3.1208	204.395	55.305	172.970	351.409	71.688	158.230	275.360	192.457	47.467	266.854	323.429	20.176	211.627	41.704	220.124	187.307	0.00031429	0.0001758	0.00016142	413.39	1.2802e-05	5.4891e-06	445.21	196.81	3.5214e-06	9.6013e-06	230.42	104.32	89.703	54.74	3.2364e-06	63	0.0020168	0.002304	0.00063967	447.01	2.4206e-05	2.5107e-05	483.13	210.55	2.4699e-05	2.575e-05	253.09	111.47	97.097	58.095	2.6012e-05	66.475	237.472	175.211	99.301	7.984	160.986	102.644	6.323	13.093	258.258	180.155	9.406	13.351	16.262	19.215	275.322	15.164	-8191	255	
1592.517	1	1	0	0	0.024135	0.24558	0.13018	0.11921	0.1996	0.23907	0.12668	0.23361	0.24853	0.060673	0.32998	0.07817	0.21996	0.11267	0.1777	0.085016	-2.8229	-2.9271	-3.1708	-3.0125	-2.9542	-3.2604	-3.175	-3.25	-3.0271	-2.8542	-3.2375	-3.1437	-3.0104	-3.3646	-2.8125	-3.2188	138.081	213.199	9.114	51.136	273.241	224.029	117.595	249.034	29.595	242.189	305.039	354.814	272.729	64.186	149.448	277.450	0.00040887	0.00052025	0.00018749	412	3.5905e-06	4.9557e-06	445.38	196.81	3.8659e-06	9.2e-06	231.45	104.58	90.82	55.663	2.1008e-06	63.956	0.002133	0.0024494	0.00068225	448.4	2.6404e-05	2.6762e-05	485.07	211.57	2.5978e-05	2.648e-05	255	112.4	98.189	59.004	2.6028e-05	67.482	226.518	136.696	105.110	7.973	239.881	119.385	6.305	12.908	163.628	160.116	9.080	13.285	16.591	19.336	101.396	15.274	-8191	255	
1592.613	1	1	0	0	0.13099	0.11856	0.10158	0.25172	0.26468	0.15434	0.26533	0.27541	0.21428	0.20591	0.088169	0.13756	0.23356	0.048451	0.38559	0.16308	-2.6437	-2.8854	-3.1646	-3.0875	-2.8708	-3.0792	-3.0333	-3.0312	-3.1813	-2.9521	-3.2687	-3.0625	-3.05	-3.2958	-2.8667	-2.9896	84.761	140.415	277.661	328.550	10.121	285.749	305.404	241.585	120.098	319.720	113.105	60.388	156.166	346.204	188.752	348.320	0.00034673	0.00030258	0.00021121	416.36	5.1171e-06	9.5873e-06	448.71	197.01	4.558e-06	2.8141e-06	232.57	105.47	89.997	55.148	6.4359e-06	63.165	0.002133	0.0024589	0.00068383	451.42	2.7105e-05	2.8846e-05	489.68	213.02	2.8765e-05	2.9386e-05	257.53	113.39	98.079	58.784	2.7908e-05	67.028	231.836	144.729	45.383	7.807	150.435	140.345	6.572	12.992	67.967	173.207	9.363	13.220	16.507	19.192	141.963	15.136	-8191	255	
1592.709	1	1	0	0	0.17194	0.21952	0.027076	0.060293	0.16121	0.070221	0.19029	0.045902	0.067108	0.051402	0.14718	0.29282	0.18123	0.20878	0.096541	0.15544	-2.6917	-2.9625	-3.0042	-2.9708	-2.9458	-3.2833	-2.9021	-2.9333	-3.2521	-3.0042	-3.1333	-3.1729	-3.0875	-3.1813	-2.9125	-3.0708	144.976	251.408	61.109	296.472	9.481	84.049	22.135	82.134	31.105	7.264	345.198	318.033	177.612	254.941	117.248	268.772	0.00038323	0.00041833	0.00012045	410.51	3.8852e-06	2.5663e-06	443.77	192.24	3.4671e-06	9.9379e-06	223.03	100.85	86.537	52.744	7.4487e-06	60.562	0.0022114	0.0024948	0.00069493	447.09	2.652e-05	2.7494e-05	483.48	207.48	2.7889e-05	2.9114e-05	250.19	109.29	94.674	56.435	3.1224e-05	64.612	227.555	81.427	173.532	8.137	219.823	14.999	6.514	13.152	213.423	133.951	9.721	13.265	16.571	19.368	178.308	15.198	-8191	255	
1592.806	1	1	0	0	0.1814	0.2288	0.076953	0.27047	0.015924	0.13296	0.22862	0.11368	0.36758	0.024371	0.075922	0.063283	0.076205	0.22498	0.092083	0.04041	-2.8063	-2.9688	-3.0208	-3.1583	-3.0062	-3.0938	-2.9771	-2.9208	-3.1229	-2.9917	-3.1458	-3.2646	-2.9062	-3.1875	-3.0229	-2.9542	132.326	55.103	243.333	237.341	176.208	333.061	299.969	79.407	201.356	141.832	257.601	-3.395	126.775	269.794	44.726	149.049	0.00040231	0.00017511	0.00010474	404.17	2.2743e-06	3.8573e-06	438	188.96	2.2965e-06	1.0187e-06	224.24	101.66	87.441	53.475	4.064e-06	61.999	0.002544	0.0029525	0.00082752	447.42	3.1727e-05	3.2299e-05	482.99	205.63	2.9707e-05	3.0212e-05	249.89	109.62	95.115	56.963	2.6574e-05	65.633	242.725	134.605	157.912	7.980	64.339	222.317	6.334	13.273	232.686	-4.010	9.454	13.326	16.482	19.382	199.243	15.186	-8191	255	
1592.902	1	1	0	0	0.075214	0.071875	0.11738	0.15851	0.31035	0.074664	0.14246	0.089663	0.13611	0.20455	0.10565	0.24295	0.041334	0.24493	0.093115	0.19163	-2.7042	-2.8979	-2.9792	-3.0417	-2.7875	-3.1667	-2.9917	-2.8604	-3.1958	-2.8271	-3.025	-3.2021	-3.0417	-3.1604	-2.9521	-2.8312	19.458	3.432	316.245	300.026	133.193	95.151	273.194	116.228	187.886	36.731	3.818	301.821	127.885	341.661	62.958	294.805	0.00036839	0.00031859	7.0087e-05	408.44	3.8859e-06	4.1437e-06	443.52	193.95	5.8809e-06	5.4428e-06	228.7	103.8	88.453	54.367	3.9695e-06	63.072	0.0020788	0.0023797	0.00066331	444.16	2.5634e-05	2.6568e-05	483.63	208.33	2.6223e-05	2.7078e-05	253.11	111.57	96.398	57.941	2.7093e-05	66.721	229.616	-4.390	87.590	8.202	100.483	43.006	6.215	13.330	224.243	138.125	9.303	13.254	16.570	19.208	106.631	15.147	-8191	255	
1593.021	1	1	0	0	0.1304	0.14518	0.14171	0.27524	0.11576	0.086691	0.29518	0.12027	0.085064	0.1243	0.073926	0.1639	0.17557	0.19544	0.12912	0.15326	-2.7646	-2.8167	-2.8208	-3.1917	-3.0187	-3.1	-3.3083	-2.7792	-3.2479	-3.0333	-2.8396	-3.3167	-2.9292	-3.2875	-3.2146	-2.7729	209.698	25.026	155.009	313.819	154.392	346.966	252.060	60.163	71.233	16.023	315.559	202.245	288.430	273.960	327.690	281.351	0.0002916	0.00048083	3.022e-05	410.27	7.2465e-06	5.188e-06	445.69	192.62	5.2791e-06	8.9934e-06	229	102.93	87.963	53.748	1.1094e-05	62.823	0.0021682	0.0024768	0.00068772	445.71	2.564e-05	2.6589e-05	483.89	206.64	2.4988e-05	2.594e-05	250.78	110.27	94.747	57.045	2.5324e-05	66.258	221.168	69.857	3.976	8.229	213.822	123.832	6.265	12.946	240.544	86.946	9.095	13.623	16.648	19.335	156.192	15.338	-8191	255	
1593.117	1	1	0	0	0.26906	0.11099	0.26549	0.073559	0.19955	0.034091	0.11084	0.1014	0.21656	0.28244	0.28109	0.044144	0.34747	0.10179	0.20016	0.38923	-2.7917	-3.1271	-3.0375	-3.1896	-2.9292	-3.0687	-3.2271	-2.9625	-3.2625	-3.0667	-2.875	-3.3729	-2.9667	-2.9771	-3.3688	-3.0333	166.390	215.515	193.326	270.345	131.208	206.881	142.024	235.441	115.117	105.564	102.705	153.111	35.334	195.846	157.092	332.456	0.00037142	0.00086652	0.00010562	411.06	3.1705e-06	6.1935e-06	449.53	191.48	3.573e-07	2.1455e-06	229.56	102.84	87.466	53.8	5.3934e-06	63.283	0.0020349	0.0023514	0.00065762	444.57	2.4872e-05	2.5885e-05	486.57	205.98	2.5348e-05	2.6353e-05	252.31	110.63	94.892	57.335	2.7035e-05	67.092	224.702	66.291	54.421	7.955	127.663	195.410	6.387	13.333	32.321	320.943	9.421	13.400	16.682	19.448	178.112	15.364	-8191	255	
1593.213	1	1	0	0	0.066208	0.21914	0.062836	0.1478	0.16643	0.2026	0.10578	0.17024	0.15678	0.147	0.18678	0.077602	0.070585	0.26166	0.18324	0.37298	-2.7687	-3.0708	-2.8208	-3.0979	-2.8937	-2.9917	-3.1458	-3.0604	-2.9667	-3.2083	-2.8458	-3.275	-2.9979	-3.2313	-3.0979	-2.9521	193.198	75.299	286.208	18.680	164.765	193.309	232.640	288.597	157.897	89.418	319.697	10.026	246.484	294.708	17.869	317.032	0.00037492	0.0004688	7.6172e-05	413.68	2.131e-06	7.4837e-06	456.8	195.34	6.3414e-06	3.036e-06	234.68	105.76	89.725	55.339	6.3833e-06	65.028	0.0021502	0.002476	0.00068417	449.25	2.5548e-05	2.6228e-05	494.16	208.91	2.5088e-05	2.5784e-05	256.38	112.9	96.652	58.499	2.472e-05	68.196	240.182	63.153	60.559	8.120	59.061	142.398	6.372	13.269	164.368	152.221	9.640	13.564	16.620	19.346	183.544	15.116	-8191	255	
1593.286	1	1	0	0	0.13214	0.29021	0.35939	0.38765	0.10341	0.057913	0.30899	0.015755	0.24625	0.28456	0.11811	0.12704	0.22793	0.34769	0.17573	0.11888	-2.6729	-3.2354	-2.7646	-3.275	-2.9521	-3.025	-3.2438	-2.9958	-2.925	-3.2792	-2.9042	-3.2333	-3.0083	-3.0271	-3.1	-3.1375	88.659	136.855	114.024	280.560	305.726	291.023	202.930	39.028	235.257	126.500	321.923	77.734	178.808	2.559	294.582	327.960	0.00034474	0.00040302	3.4033e-05	414.51	4.1998e-06	7.9322e-06	454.66	196.36	7.293e-06	2.8118e-06	232.95	106.11	90.621	55.733	7.2956e-06	64.904	0.0020136	0.0023202	0.00065667	450.72	2.5392e-05	2.607e-05	491.26	210.23	2.5281e-05	2.5716e-05	255.71	113.21	97.805	59.159	2.5037e-05	68.52	238.500	171.309	111.304	8.151	165.476	113.631	6.028	13.004	169.111	177.566	9.293	13.538	16.570	19.344	195.606	15.198	-8191	255	
1593.405	1	1	0	0	0.11631	0.10304	0.07681	0.21939	0.21481	0.13339	0.14751	0.15932	0.13711	0.11838	0.16027	0.25356	0.1074	0.16978	0.17477	0.12331	-2.675	-3.0417	-2.95	-3.1292	-3.1375	-2.9958	-3.4896	-2.9625	-2.9979	-3.225	-2.9938	-3.0521	-3.0104	-2.9313	-3.1937	-2.8354	129.148	231.815	25.144	200.692	51.588	312.707	55.141	61.970	26.888	340.536	201.006	267.388	77.684	161.292	121.793	325.542	0.00043259	0.00078679	0.0001417	416.41	3.579e-06	7.3066e-06	458.33	199.3	6.6576e-06	9.9161e-06	237.2	107.31	92.134	56.829	8.3467e-06	66.421	0.0020251	0.0023016	0.00064146	451.09	2.4413e-05	2.49e-05	491.92	212.67	2.3391e-05	2.3832e-05	257.49	114.63	99.035	60.048	2.3065e-05	69.643	226.275	88.757	87.738	8.152	192.518	148.882	6.198	13.296	179.670	151.975	9.420	13.561	16.407	19.039	205.183	15.295	-8191	255	
1593.501	1	1	0	0	0.04469	0.14529	0.22639	0.063608	0.11139	0.12328	0.097546	0.0072789	0.2399	0.028624	0.23395	0.20171	0.19804	0.09302	0.12782	0.010742	-2.6167	-3.0271	-2.8604	-3.1312	-3.0917	-3.0896	-3.1646	-3.1333	-3.0563	-3.2458	-2.8792	-3.0708	-3.2729	-2.9771	-3.3646	-3.0479	196.421	210.209	129.742	98.151	206.372	191.965	306.987	232.210	283.814	98.771	137.520	292.379	316.620	17.814	134.476	61.704	0.00042278	0.00065422	7.6497e-05	419.82	4.4547e-06	6.4511e-06	461.49	202.32	6.2545e-06	3.1756e-06	238.85	108.29	92.76	57.364	5.3239e-06	66.883	0.0018924	0.0021631	0.00060477	453.66	2.3549e-05	2.4308e-05	495.22	215.3	2.3824e-05	2.4368e-05	261.15	115.86	99.858	60.681	2.4135e-05	70.266	233.033	66.696	342.003	7.955	191.265	158.768	5.968	13.032	137.409	197.332	9.462	13.182	16.380	19.279	176.878	15.032	-8191	255	
1593.597	1	1	0	0	0.14892	0.063926	0.21009	0.075168	0.25581	0.19125	0.25261	0.065368	0.040077	0.21676	0.11324	0.13069	0.08711	0.20503	0.28876	0.14221	-2.6229	-3.2042	-2.7583	-3.2604	-3.0417	-2.9104	-3.2188	-3.1458	-3	-3.1167	-2.9625	-2.9896	-3.3917	-3.0833	-3.2313	-3.2188	280.681	32.871	216.945	201.789	184.978	201.761	348.336	18.659	317.198	118.872	307.884	308.980	230.726	9.029	-3.033	310.183	0.00038017	0.00027443	0.00015888	421.98	3.9215e-06	9.311e-06	460.72	200.08	3.1491e-06	1.0478e-05	240.53	108.4	92.468	57.187	6.3897e-06	66.497	0.0019696	0.0022571	0.00063128	454.45	2.4222e-05	2.4969e-05	497.36	214.46	2.4255e-05	2.491e-05	261.28	115.81	99.553	60.395	2.4929e-05	70.285	234.498	180.800	78.606	7.933	163.285	114.655	6.480	13.198	181.818	120.140	9.451	13.177	16.359	19.284	215.723	15.115	-8191	255	
1593.718	1	1	0	0	0.34932	0.16575	0.081772	0.24163	0.27395	0.26415	0.23765	0.24761	0.054018	0.071446	0.12679	0.21541	0.14152	0.17976	0.35015	0.14519	-2.4938	-3.2042	-3.0375	-2.925	-3.3583	-2.9708	-3.1646	-3.0062	-2.9021	-3.3688	-3.0438	-3.1437	-3.2938	-3.0042	-3.0187	-3.2687	127.247	348.474	212.406	241.500	150.641	327.241	12.607	270.728	45.267	118.886	283.876	284.020	285.103	308.509	301.836	346.821	0.00038694	0.00091015	0.00015098	420.93	2.6794e-06	4.6191e-06	459.79	201.1	4.9069e-06	9.383e-06	237.82	108.19	92.055	56.908	7.514e-06	65.849	0.0020534	0.0023601	0.0006612	457.02	2.5644e-05	2.6704e-05	499.16	215.66	2.6179e-05	2.7097e-05	262.41	116.35	99.97	60.333	2.6831e-05	69.561	224.051	92.063	108.746	8.165	159.457	107.354	6.119	12.919	134.198	106.057	9.424	13.386	16.355	19.249	144.089	15.048	-8191	255	
1593.814	1	1	0	0	0.14313	0.14531	0.1577	0.078457	0.26052	0.21169	0.23947	0.25299	0.12081	0.14727	0.24803	0.24319	0.28448	0.094728	0.36804	0.1077	-2.3458	-3.15	-2.7208	-3.0542	-3.1958	-2.9958	-2.9646	-3.2062	-2.7208	-3.2021	-3.0563	-3.0458	-3.2271	-2.8896	-3.2812	-3.2104	97.297	75.362	70.768	239.077	19.828	173.437	256.649	-4.259	115.841	297.069	76.591	16.977	325.150	4.775	70.057	197.681	0.00036218	0.00064037	8.2554e-05	415.83	7.8957e-06	5.8059e-06	455.02	197.7	8.6553e-07	8.948e-07	233.71	105.64	90.747	55.796	7.9547e-06	65.151	0.0021573	0.0024927	0.00069985	454.21	2.674e-05	2.7655e-05	493.2	212.82	2.6682e-05	2.7458e-05	257.07	113.73	98.301	59.396	2.7529e-05	68.692	241.734	106.799	112.567	8.230	230.288	242.691	6.626	12.918	190.117	70.756	9.358	13.097	16.532	19.252	226.207	15.078	-8191	255	
1593.886	1	1	0	0	0.28057	0.10344	0.10891	0.11968	0.11711	0.18175	0.036226	0.23297	0.23401	0.078903	0.17999	0.057885	0.10851	0.22373	0.16263	0.062762	-2.5229	-3.1312	-3.0333	-2.9646	-3.1625	-3.0583	-2.8958	-3.1521	-3.0146	-3.3021	-3.1771	-2.8	-3.2604	-3.0542	-3.0563	-3.2	40.208	161.455	212.275	22.382	221.319	314.106	149.623	264.604	300.297	216.059	217.315	242.038	252.699	331.400	204.018	79.843	0.0003783	0.00060097	0.00024925	414.34	2.6825e-06	6.4867e-06	452.28	196.45	2.4652e-06	1.1988e-05	233.7	105.49	90.84	56.189	2.798e-06	65.462	0.0022392	0.0025948	0.0007184	452.4	2.6888e-05	2.7327e-05	491.27	211.88	2.6495e-05	2.69e-05	257.82	113.83	98.397	59.598	2.6522e-05	68.942	245.340	82.449	25.824	7.979	259.654	127.263	6.131	13.374	111.685	129.065	9.116	13.399	16.416	19.279	219.780	15.205	-8191	255	
1594.007	1	1	0	0	0.21246	0.11579	0.16752	0.13466	0.11956	0.17011	0.22421	0.09871	0.098472	0.043932	0.083269	0.23459	0.29021	0.25712	0.11402	0.18316	-2.625	-3.1125	-3.025	-2.9542	-3.2208	-3.025	-2.8937	-3.3292	-2.9604	-3.0125	-3.0917	-2.9521	-3.4188	-3.2062	-3	-3.3937	68.902	130.711	291.080	218.536	208.816	346.385	289.315	345.714	16.479	189.994	173.735	283.792	30.351	327.575	68.442	262.583	0.00033365	0.00021576	9.9401e-05	417.9	2.7859e-06	3.6307e-06	455.44	199.85	5.4954e-06	4.3282e-06	237.62	107.94	91.878	56.798	4.6394e-06	66.131	0.0020831	0.0023901	0.00066507	451.78	2.5217e-05	2.5767e-05	492.99	213.53	2.517e-05	2.5825e-05	260.01	115.21	99.195	60.042	2.6171e-05	69.628	227.106	16.195	30.569	8.107	121.446	148.535	6.547	13.017	194.241	151.581	9.157	13.170	16.380	19.003	272.656	15.077	-8191	255	
1594.101	1	1	0	0	0.15407	0.087563	0.075912	0.29097	0.23485	0.29461	0.1267	0.099057	0.02908	0.20486	0.17268	0.10186	0.11163	0.36066	0.19242	0.19347	-2.5729	-3.0583	-3.025	-2.7333	-3.175	-2.9292	-3.0375	-3.2333	-3.0125	-2.9833	-3.1146	-2.8521	-3.3125	-3.025	-3.0104	-3.2417	215.859	39.533	160.221	299.015	318.982	190.353	238.278	5.800	288.882	157.072	278.578	82.066	348.674	29.170	-3.645	298.199	0.00037747	0.00035037	0.00010709	416.73	9.9231e-06	4.6679e-06	457.36	198.69	3.0875e-06	9.1501e-06	235.14	106.73	91.641	56.718	8.7423e-06	65.722	0.0021081	0.0024414	0.00069229	455.32	2.652e-05	2.7343e-05	495.73	213.89	2.6616e-05	2.75e-05	259.81	114.76	99.066	59.924	2.5694e-05	69.239	230.050	264.336	346.117	7.944	169.105	103.843	5.990	13.093	169.765	124.591	9.399	13.194	16.268	19.201	212.921	15.042	-8191	255	
1594.197	1	1	0	0	0.17906	0.068881	0.16338	0.20622	0.066469	0.10489	0.012839	0.047439	0.044936	0.20726	0.26507	0.07146	0.14509	0.16843	0.20354	0.24217	-2.6375	-3.0604	-3.0812	-2.9292	-3.0938	-3.3292	-2.9479	-3.2542	-2.8208	-3.0458	-3.0708	-2.7333	-3.2771	-3.2229	-2.8625	-3.3333	2.838	323.867	181.249	284.797	251.813	202.432	3.326	72.356	3.136	183.149	55.780	112.524	86.667	86.445	37.134	194.243	0.00033219	0.00025119	0.00023423	416.97	1.4112e-06	1.2152e-05	457.25	200.34	2.7849e-06	5.3441e-06	236.84	107.24	91.848	56.343	1.6416e-06	65.666	0.0020314	0.0023221	0.00063826	451.15	2.4275e-05	2.4861e-05	492.23	213.46	2.3923e-05	2.4692e-05	258.97	114.64	98.873	59.577	2.4258e-05	69.025	233.358	143.164	35.594	8.067	248.053	156.894	6.272	12.894	155.755	96.402	9.130	13.355	16.377	19.302	208.465	15.117	-8191	255	
1594.318	1	1	0	0	0.088471	0.13983	0.070032	0.064726	0.12698	0.12392	0.21246	0.074996	0.056447	0.15565	0.053992	0.083427	0.029629	0.35619	0.15063	0.20419	-2.7042	-3.0062	-3.1625	-3.0375	-3.1354	-3.2562	-3.0042	-3.3458	-3.0917	-3.0438	-3.2458	-3.0917	-2.9771	-3.3583	-2.6292	-3.1813	-2.067	246.694	174.829	216.975	172.512	206.864	229.883	272.742	354.085	21.963	32.587	336.331	259.772	4.740	308.128	323.071	0.00040136	0.00091665	0.00019102	415.98	3.5205e-06	1.8478e-06	456.45	200.04	3.6088e-06	6.018e-06	237.1	107.4	91.711	56.301	7.2647e-06	65.93	0.0019855	0.0022854	0.00062628	450.89	2.4242e-05	2.5184e-05	492.82	213.93	2.4744e-05	2.5889e-05	259.5	114.87	98.964	59.73	2.5949e-05	69.376	230.080	56.231	80.090	7.962	83.582	235.008	6.643	13.070	140.167	94.801	9.373	13.166	16.521	19.194	133.949	15.114	-8191	255	
#DATA ENDS
