BOXY.EXE: ISS Imagent and Oximeter Data Acquisition Program Version 0.80
Ascii Record File

#ACQ INFORMATION
2  Detector Channels 
16  External MUX Channels 
1  Auxiliary Channels 
5000  Waveform (CCF) Frequency (Hz)
1  Waveforms Skipped 
30  Waveforms Averaged 
1  Cycles Averaged 
16  Acquisitions per Waveform 
10.0806  Updata Rate (Hz) 

#FILE INFORMATION
TRUE -- External MUX Channel results are PARSED.
FALSE -- AC DC and Phase are NOT grouped.
TRUE -- Companion Program Settings File CREATED.
FALSE -- AC data not excluded
FALSE -- DC data not excluded
FALSE -- Phase data not excluded
FALSE -- Auxillary Chn. data not excluded
Tab delimiters

#CALIBRATION STATE
TRUE -- Waveform Calibration Values APPLIED.


#AUX CALIBRATION VALUES
Val Type	aux-1	

Term	1.0000e+00	
Factor	0.0000e+00	


#WF CALIBRATION VALUES
A = Detector Channel
Val Type	A-AC1	A-AC2	A-AC3	A-AC4	A-AC5	A-AC6	A-AC7	A-AC8	A-AC9	A-AC10	A-AC11	A-AC12	A-AC13	A-AC14	A-AC15	A-AC16	A-DC1	A-DC2	A-DC3	A-DC4	A-DC5	A-DC6	A-DC7	A-DC8	A-DC9	A-DC10	A-DC11	A-DC12	A-DC13	A-DC14	A-DC15	A-DC16	A-Ph1	A-Ph2	A-Ph3	A-Ph4	A-Ph5	A-Ph6	A-Ph7	A-Ph8	A-Ph9	A-Ph10	A-Ph11	A-Ph12	A-Ph13	A-Ph14	A-Ph15	A-Ph16	

Term	0.00000e+00	0.00000e+00	0.00000e+00	0.00000e+00	0.00000e+00	0.00000e+00	0.00000e+00	0.00000e+00	0.00000e+00	0.00000e+00	0.00000e+00	0.00000e+00	0.00000e+00	0.00000e+00	0.00000e+00	0.00000e+00	0.00000e+00	0.00000e+00	0.00000e+00	0.00000e+00	0.00000e+00	0.00000e+00	0.00000e+00	0.00000e+00	0.00000e+00	0.00000e+00	0.00000e+00	0.00000e+00	0.00000e+00	0.00000e+00	0.00000e+00	0.00000e+00	0.00000e+00	0.00000e+00	0.00000e+00	0.00000e+00	0.00000e+00	0.00000e+00	0.00000e+00	0.00000e+00	0.00000e+00	0.00000e+00	0.00000e+00	0.00000e+00	0.00000e+00	0.00000e+00	0.00000e+00	0.00000e+00	
Factor	1.00000e+00	1.00000e+00	1.00000e+00	1.00000e+00	1.00000e+00	1.00000e+00	1.00000e+00	1.00000e+00	1.00000e+00	1.00000e+00	1.00000e+00	1.00000e+00	1.00000e+00	1.00000e+00	1.00000e+00	1.00000e+00	1.00000e+00	1.00000e+00	1.00000e+00	1.00000e+00	1.00000e+00	1.00000e+00	1.00000e+00	1.00000e+00	1.00000e+00	1.00000e+00	1.00000e+00	1.00000e+00	1.00000e+00	1.00000e+00	1.00000e+00	1.00000e+00	X	X	X	X	X	X	X	X	X	X	X	X	X	X	X	X	

B = Detector Channel
Val Type	B-AC1	B-AC2	B-AC3	B-AC4	B-AC5	B-AC6	B-AC7	B-AC8	B-AC9	B-AC10	B-AC11	B-AC12	B-AC13	B-AC14	B-AC15	B-AC16	B-DC1	B-DC2	B-DC3	B-DC4	B-DC5	B-DC6	B-DC7	B-DC8	B-DC9	B-DC10	B-DC11	B-DC12	B-DC13	B-DC14	B-DC15	B-DC16	B-Ph1	B-Ph2	B-Ph3	B-Ph4	B-Ph5	B-Ph6	B-Ph7	B-Ph8	B-Ph9	B-Ph10	B-Ph11	B-Ph12	B-Ph13	B-Ph14	B-Ph15	B-Ph16	

Term	0.00000e+00	0.00000e+00	0.00000e+00	0.00000e+00	0.00000e+00	0.00000e+00	0.00000e+00	0.00000e+00	0.00000e+00	0.00000e+00	0.00000e+00	0.00000e+00	0.00000e+00	0.00000e+00	0.00000e+00	0.00000e+00	0.00000e+00	0.00000e+00	0.00000e+00	0.00000e+00	0.00000e+00	0.00000e+00	0.00000e+00	0.00000e+00	0.00000e+00	0.00000e+00	0.00000e+00	0.00000e+00	0.00000e+00	0.00000e+00	0.00000e+00	0.00000e+00	-4.24325e+01	-1.27480e+02	-1.29113e+02	-1.83247e+02	-3.31036e+01	-6.42020e+01	-1.56812e+02	-1.62015e+02	-3.27297e+01	-6.89849e+01	-1.75831e+02	-1.71950e+02	-1.80238e+02	-1.77035e+02	-4.28051e+01	-1.49655e+02	
Factor	2.34302e-05	1.84395e-04	5.28880e-05	1.78417e-01	1.82338e-06	2.35056e-06	2.06794e-01	6.19505e-02	1.44642e-06	2.13698e-06	1.21363e-01	3.46114e-02	3.06045e-02	1.06869e-02	2.17603e-06	1.56232e-02	5.23884e-06	6.25852e-06	1.74260e-06	8.57108e-02	6.65713e-08	6.86765e-08	9.29982e-02	2.98139e-02	6.64213e-08	6.86137e-08	5.63353e-02	1.61712e-02	1.48215e-02	5.17988e-03	6.74619e-08	7.31005e-03	X	X	X	X	X	X	X	X	X	X	X	X	X	X	X	X	



#DISTANCE SETTINGS
A = Detector Channel
A-1	A-2	A-3	A-4	A-5	A-6	A-7	A-8	A-9	A-10	A-11	A-12	A-13	A-14	A-15	A-16	

2.5000e+00	3.0000e+00	2.5000e+00	3.0000e+00	2.0000e+00	3.0000e+00	1.5000e+00	3.0000e+00	3.0000e+00	3.0000e+00	3.0000e+00	3.0000e+00	3.0000e+00	3.0000e+00	1.5000e+00	3.0000e+00	

B = Detector Channel
B-1	B-2	B-3	B-4	B-5	B-6	B-7	B-8	B-9	B-10	B-11	B-12	B-13	B-14	B-15	B-16	

1.0000e+01	1.0000e+01	1.0000e+01	1.4400e+00	1.0000e+01	1.0000e+01	1.5100e+00	1.9400e+00	1.0000e+01	1.0000e+01	1.9900e+00	2.4900e+00	2.4100e+00	2.9000e+00	1.0000e+01	2.9800e+00	




#DATA BEGINS
time	group	step	mark	flag	A-AC1	A-AC2	A-AC3	A-AC4	A-AC5	A-AC6	A-AC7	A-AC8	A-AC9	A-AC10	A-AC11	A-AC12	A-AC13	A-AC14	A-AC15	A-AC16	A-DC1	A-DC2	A-DC3	A-DC4	A-DC5	A-DC6	A-DC7	A-DC8	A-DC9	A-DC10	A-DC11	A-DC12	A-DC13	A-DC14	A-DC15	A-DC16	A-Ph1	A-Ph2	A-Ph3	A-Ph4	A-Ph5	A-Ph6	A-Ph7	A-Ph8	A-Ph9	A-Ph10	A-Ph11	A-Ph12	A-Ph13	A-Ph14	A-Ph15	A-Ph16	B-AC1	B-AC2	B-AC3	B-AC4	B-AC5	B-AC6	B-AC7	B-AC8	B-AC9	B-AC10	B-AC11	B-AC12	B-AC13	B-AC14	B-AC15	B-AC16	B-DC1	B-DC2	B-DC3	B-DC4	B-DC5	B-DC6	B-DC7	B-DC8	B-DC9	B-DC10	B-DC11	B-DC12	B-DC13	B-DC14	B-DC15	B-DC16	B-Ph1	B-Ph2	B-Ph3	B-Ph4	B-Ph5	B-Ph6	B-Ph7	B-Ph8	B-Ph9	B-Ph10	B-Ph11	B-Ph12	B-Ph13	B-Ph14	B-Ph15	B-Ph16	aux-1	digaux	

1677.420	1	1	0	256	0.33596	0.11203	0.20255	0.2684	0.063326	0.070972	0.15473	0.14553	0.24738	0.21555	0.10103	0.34885	0.20308	0.3291	0.11316	0.085814	-2.625	-2.7146	-2.6896	-3.225	-2.7625	-2.9729	-3.1188	-2.8604	-3.1958	-2.8729	-2.9167	-3.2083	-2.9354	-3.0583	-3.1625	-3.1312	270.039	207.394	264.311	384.912	265.251	250.355	424.625	246.912	143.827	128.437	396.065	446.746	143.492	379.220	429.355	443.910	0.00088555	0.0010734	0.00027376	518.75	9.3843e-06	1.7696e-06	605.82	243.05	3.0934e-06	1.1281e-05	295.64	145.6	119.85	65.891	1.121e-05	75.734	0.0034319	0.0039387	0.0010964	579.56	4.147e-05	4.2913e-05	668.67	266.64	4.1384e-05	4.3367e-05	334.47	157.61	131.35	71.316	4.2783e-05	81.829	260.962	170.841	188.974	112.195	301.830	277.633	109.834	116.885	366.749	267.501	113.581	117.872	120.842	124.670	307.579	120.770	-8191	255	
1677.516	1	1	0	0	0.095028	0.2473	0.17884	0.024784	0.1275	0.14626	0.062168	0.10012	0.070578	0.2093	0.10708	0.27454	0.10904	0.25558	0.14924	0.47898	-2.5062	-3.0938	-2.8312	-3.2292	-2.8896	-2.9437	-3.2521	-2.9333	-2.9896	-3.1	-2.7896	-3.2	-3.0229	-3.2229	-2.9062	-3.1	197.700	333.369	315.747	172.534	207.839	369.227	307.947	386.752	393.407	296.032	397.741	432.503	350.843	410.432	198.914	385.447	0.00078608	0.00015052	0.00024825	519.47	1.0903e-05	8.8947e-06	602.48	243.11	2.9793e-06	1.053e-05	293.84	143.87	119.46	65.744	6.6888e-06	75.458	0.0034288	0.0039592	0.0011052	579.96	4.206e-05	4.3749e-05	666.37	266.76	4.2259e-05	4.3885e-05	333.5	156.39	131.24	71.267	4.3676e-05	81.666	263.260	225.634	257.680	112.070	289.601	271.658	109.597	116.827	262.342	265.124	112.798	117.672	120.930	124.947	319.208	120.766	-8191	255	
1677.612	1	1	0	0	0.016778	0.10746	0.23312	0.064823	0.18419	0.21032	0.19788	0.1954	0.18982	0.3322	0.17873	0.049237	0.23251	0.32397	0.060438	0.32741	-2.7313	-2.8937	-2.7313	-3.1542	-2.8792	-2.9729	-3.5333	-2.9125	-2.9188	-3.0792	-2.9875	-3.0667	-3.1396	-3.0563	-3.1437	-3.125	119.288	207.591	164.887	382.566	99.957	113.121	301.086	366.046	408.410	348.563	402.281	118.714	110.737	120.926	287.635	342.700	0.00083017	0.0008583	0.00032727	518.03	8.6033e-06	1.1816e-05	600.81	242.99	9.8079e-06	7.9455e-06	295.47	144.84	120.14	66.162	1.0883e-05	76.053	0.0035165	0.0040706	0.0011265	579.08	4.2779e-05	4.4348e-05	665.34	266.71	4.2778e-05	4.4089e-05	334.84	157.71	131.73	71.558	4.3262e-05	82.153	256.481	171.516	184.428	112.025	279.536	235.304	109.710	116.900	271.985	271.014	113.513	117.694	120.755	124.760	254.493	120.539	-8191	255	
1677.708	1	1	0	0	0.12985	0.10004	0.16476	0.33905	0.079503	0.16989	0.22296	0.071284	0.26869	0.11875	0.21094	0.085978	0.20847	0.33322	0.088225	0.2534	-2.7021	-2.9437	-2.9562	-3.0479	-3.0667	-2.8625	-3.0625	-2.9729	-3.0042	-3.0958	-2.7375	-3.2479	-2.9854	-3.1042	-3.1562	-3.0667	187.867	433.110	194.508	434.383	293.664	444.470	401.999	410.248	168.055	436.651	449.486	335.190	426.564	125.054	185.947	382.453	0.0009553	0.0008608	0.00019741	519.46	8.3071e-06	8.8716e-06	604.82	245.59	4.1352e-06	7.7928e-06	297.31	145.86	121.1	66.514	8.0915e-06	77.103	0.0034606	0.0040403	0.0011221	580.41	4.2893e-05	4.4295e-05	669.6	268.72	4.2703e-05	4.405e-05	337.49	159.06	132.84	72.161	4.2834e-05	83.148	262.715	176.499	208.539	112.019	311.027	232.677	109.923	116.897	279.079	244.190	113.429	117.846	120.714	124.834	315.736	120.778	-8191	255	
1677.804	1	1	0	0	0.17238	0.013131	0.070918	0.09928	0.08988	0.061386	0.1166	0.30673	0.18638	0.17804	0.073783	0.11827	0.079928	0.30233	0.22824	0.25823	-2.3312	-2.95	-2.9313	-3.1375	-2.8521	-2.7229	-3.2146	-3.0042	-2.8708	-3.2188	-3.0167	-3.2313	-3.1646	-3.0667	-3.2042	-3.1396	166.155	456.095	274.009	436.218	453.208	201.581	389.392	278.559	313.322	305.302	396.324	383.321	425.466	431.043	384.623	396.819	0.00085249	0.00066114	0.00017403	520.12	9.7211e-06	1.2725e-05	611.39	248.5	3.5592e-06	1.0851e-05	301.46	148.05	121.76	67.069	9.4912e-06	77.708	0.003451	0.0039534	0.0010941	580.03	4.192e-05	4.286e-05	674.44	270.26	4.1751e-05	4.3411e-05	340.9	160.73	133.42	72.473	4.2031e-05	83.846	265.906	253.888	263.734	111.971	266.478	217.514	109.854	117.103	238.240	269.882	113.521	117.757	120.828	124.919	233.349	120.745	-8191	255	
1677.900	1	1	0	0	0.12863	0.12066	0.061764	0.14661	0.1539	0.19292	0.15597	0.039912	0.26209	0.12636	0.19173	0.059272	0.20893	0.16628	0.26704	0.12295	-2.6375	-3.175	-2.8875	-3.0396	-3.0875	-2.7833	-3.1521	-2.9542	-2.8104	-3.2708	-2.8667	-3.0042	-3.1917	-2.7646	-2.9729	-3.1521	443.214	370.783	275.791	431.629	313.343	166.946	228.677	260.412	243.335	192.547	125.043	218.443	426.446	238.998	317.239	458.600	0.00091921	0.00053812	0.00017628	525.65	8.1164e-06	1.9855e-06	614.89	247.46	5.3429e-06	4.2132e-06	303.52	148.41	121.44	66.559	1.669e-05	77.405	0.0034397	0.0039354	0.0010952	585.35	4.2293e-05	4.3468e-05	680.08	271.12	4.243e-05	4.3724e-05	341.88	161.11	133.33	72.09	4.3042e-05	83.626	259.813	251.446	222.245	112.141	216.098	363.580	109.785	117.055	256.349	224.000	113.354	117.883	120.746	124.714	302.766	120.862	-8191	255	
1678.021	1	1	0	0	0.28418	0.17155	0.067693	0.33967	0.14087	0.13794	0.18252	0.073152	0.059582	0.12527	0.18587	0.15624	0.17736	0.26121	0.23092	0.29656	-2.55	-3.1646	-2.7938	-2.9604	-3.1896	-2.7687	-3.175	-3.0542	-2.7583	-3.3146	-3.0354	-2.9333	-3.2625	-2.9813	-2.8271	-2.9708	351.584	426.793	199.204	409.883	397.277	357.021	359.179	420.776	103.843	358.757	396.008	439.659	118.129	450.760	168.040	142.882	0.00090824	0.00010802	0.00021993	528.71	4.8935e-06	1.9436e-05	612.99	247.03	6.0043e-06	8.0378e-06	298.31	146.31	120.78	66.101	1.1555e-05	76.138	0.0035507	0.0040736	0.0011285	589.49	4.3518e-05	4.4899e-05	678.54	270.55	4.3802e-05	4.4998e-05	338.66	159.27	132.74	71.741	4.4689e-05	82.591	264.433	129.255	157.647	111.847	299.055	281.141	109.900	117.080	313.930	235.138	113.423	117.818	120.529	124.768	243.755	120.897	-8191	255	
1678.117	1	1	0	0	0.18497	0.026928	0.11723	0.18358	0.30012	0.18625	0.052132	0.13941	0.094539	0.139	0.20989	0.11131	0.20794	0.062624	0.0064577	0.31019	-2.2542	-3.0917	-2.95	-2.85	-3.1125	-2.8479	-3.2354	-3.1021	-2.9875	-3.1792	-2.8104	-3.0729	-3.3458	-2.9917	-2.9521	-3.1292	159.851	139.586	273.033	114.365	210.768	206.653	416.023	412.290	228.505	261.659	439.058	154.839	340.051	311.828	316.130	384.864	0.00092778	0.00065242	6.291e-05	525.96	2.5037e-06	7.4796e-06	613.15	246.37	9.1216e-06	3.7678e-06	299.11	146.59	120.71	66.128	6.2639e-06	76.553	0.0036508	0.0041511	0.0011583	588.71	4.4125e-05	4.5179e-05	676.48	270.17	4.3672e-05	4.4619e-05	338.61	158.93	132.55	71.636	4.3656e-05	82.567	259.567	222.559	452.078	111.908	311.735	235.388	109.695	116.933	272.006	244.240	113.374	117.755	120.769	124.810	266.495	120.713	-8191	255	
1678.213	1	1	0	0	0.21263	0.15728	0.14916	0.22572	0.19549	0.20391	0.31078	0.2329	0.13847	0.10665	0.16655	0.16207	0.13605	0.18991	0.18689	0.40031	-2.5292	-3.0312	-3.0479	-2.8187	-3.0583	-3.0271	-2.9938	-3.1542	-3.0229	-3.1896	-3.1458	-2.9729	-3.2458	-3.0625	-3.0208	-3.35	247.127	150.859	241.815	124.064	449.928	190.811	400.050	351.529	302.095	266.602	336.559	364.259	407.187	367.098	360.947	356.840	0.00086331	0.00099188	0.0002535	526.18	7.134e-06	8.8335e-06	611.7	244.92	6.8846e-06	9.0472e-06	299.96	147.23	121.06	66.2	1.9879e-05	76.625	0.0035465	0.0040391	0.0011321	587.42	4.3523e-05	4.4318e-05	676.57	269.9	4.3218e-05	4.4295e-05	339.1	159.54	132.8	71.67	4.2264e-05	82.76	257.214	171.023	239.398	111.964	313.801	278.629	109.709	116.871	312.980	155.950	113.352	117.910	120.746	124.831	246.879	120.622	-8191	255	
1678.309	1	1	0	0	0.17192	0.1218	0.167	0.17622	0.11944	0.023055	0.068795	0.28095	0.035135	0.24141	0.19667	0.21718	0.10048	0.14882	0.014577	0.23821	-2.5479	-2.9771	-2.9333	-2.7083	-3.2833	-3.1375	-2.9229	-3.1833	-3.0229	-3.0521	-3.0812	-3.0083	-3.2292	-2.9458	-3.0625	-3.2687	286.044	302.532	151.123	128.209	406.143	121.133	143.025	323.168	157.796	137.017	195.353	271.919	144.909	401.776	106.991	389.194	0.00085801	0.0014562	0.00010305	524.82	5.9799e-06	6.3181e-06	613.08	246.67	2.3238e-06	1.3389e-05	303.65	148.94	122.83	67.129	6.8389e-06	77.851	0.0033864	0.003841	0.001074	583.85	4.0575e-05	4.1879e-05	676.29	270.69	4.054e-05	4.1881e-05	341.58	161.45	134	72.449	4.1732e-05	83.857	262.120	178.534	215.684	111.827	293.137	258.958	109.920	116.928	337.295	273.807	113.411	117.624	120.919	124.755	227.336	120.769	-8191	255	
1678.404	1	1	0	0	0.075539	0.32727	0.046362	0.21436	0.19544	0.25545	0.11848	0.06888	0.030553	0.18003	0.14729	0.10641	0.32214	0.17702	0.13501	0.19408	-2.5083	-3.0187	-3.1	-2.9083	-3.2646	-2.9542	-2.9896	-3.1229	-2.8625	-3.1063	-3.0187	-2.9042	-3.0521	-3.1708	-2.9917	-3.3521	128.243	345.196	286.627	426.676	369.592	402.078	331.446	361.421	262.213	299.851	363.681	289.075	455.032	104.896	430.567	426.144	0.0009086	0.00094427	7.5347e-05	525.96	9.5118e-06	9.2098e-06	614.7	249.09	9.7412e-06	4.3994e-06	304.79	149.32	122.74	67.04	7.7484e-06	77.243	0.0033509	0.0038336	0.0010742	583.91	4.0561e-05	4.2026e-05	679.4	271.6	4.0445e-05	4.1637e-05	341.96	161.6	133.93	72.358	4.1505e-05	83.322	263.955	192.173	131.840	111.896	277.551	156.720	109.925	117.093	304.594	326.550	113.546	117.897	120.619	124.793	255.852	120.779	-8191	255	
1678.500	1	1	0	0	0.29422	0.14379	0.42716	0.27361	0.052856	0.21108	0.19011	0.12337	0.065845	0.073668	0.094198	0.13736	0.21385	0.24501	0.20305	0.024526	-2.4562	-2.9229	-3.0792	-2.9625	-3.1104	-3.0521	-2.8125	-3.1583	-2.9958	-2.9146	-3.2396	-2.9771	-3.2354	-3.1854	-2.7354	-3.2687	444.291	169.561	194.894	155.496	218.812	145.185	427.204	327.672	214.511	207.839	128.288	408.545	311.374	114.266	424.637	381.200	0.00083338	0.00071216	0.00016821	524.79	1.3256e-05	8.5919e-06	611.37	248.01	5.8494e-06	5.5885e-06	302.32	147.84	122.45	66.907	1.4359e-05	76.798	0.0033638	0.0038942	0.0010966	583.99	4.1435e-05	4.314e-05	673.83	271.19	4.1347e-05	4.307e-05	340.32	160.42	133.93	72.176	4.179e-05	82.854	269.672	312.884	457.058	111.995	254.276	234.959	110.109	117.056	307.413	246.468	113.234	117.646	120.522	124.718	269.568	120.742	-8191	255	
1678.621	1	1	0	0	0.082534	0.0743	0.10875	0.038729	0.1016	0.084568	0.067985	0.32842	0.20275	0.14125	0.16883	0.26961	0.13072	0.20464	0.28658	0.27154	-2.4188	-3.0438	-3.2146	-3.0708	-3.1771	-3.0646	-2.7854	-3.3375	-2.8479	-2.9208	-3.1188	-3.0479	-3.0417	-3.1729	-2.9458	-3.3521	355.534	436.284	324.048	138.698	315.488	386.786	397.738	402.853	199.899	294.634	365.010	441.434	369.889	416.082	363.007	351.498	0.00093664	0.00093108	0.00012578	523.12	7.1013e-06	5.2318e-06	612.2	247.4	1.0879e-05	6.4636e-06	302.17	147.67	121.64	66.121	2.6321e-06	76.078	0.0033657	0.0038812	0.001069	580.99	4.0748e-05	4.2286e-05	672.78	270.07	4.0985e-05	4.2508e-05	338.84	159.42	132.94	71.612	4.202e-05	82.253	261.196	207.912	176.803	111.871	244.761	192.510	109.754	117.068	293.631	348.372	113.442	117.887	120.712	124.685	306.793	120.677	-8191	255	
1678.717	1	1	0	0	0.088383	0.11621	0.042912	0.031357	0.094806	0.39243	0.17249	0.359	0.22527	0.22907	0.050048	0.16599	0.14526	0.15075	0.078585	0.36622	-2.7146	-2.8125	-3.3667	-2.9042	-2.9354	-3.1167	-2.9	-3.1896	-2.9854	-2.7896	-3.4104	-2.8104	-3.1	-3.425	-2.5854	-3.1437	137.718	348.855	233.618	124.966	225.734	330.610	359.035	337.630	152.189	258.111	322.226	137.064	412.195	125.604	149.381	399.449	0.00096535	0.00049325	0.00021931	526.97	7.2506e-06	3.2774e-06	613.66	244.52	3.2226e-06	6.7134e-06	297.07	144.48	119.04	65.504	1.0905e-05	75.412	0.00342	0.0039431	0.001096	586.48	4.2018e-05	4.3583e-05	676.16	268.19	4.2601e-05	4.399e-05	336.18	156.9	130.9	70.834	4.3474e-05	81.548	264.414	168.803	144.962	111.857	294.288	251.101	109.891	116.753	256.925	199.967	113.349	117.780	120.969	124.840	285.164	120.910	-8191	255	
1678.813	1	1	0	0	0.28258	0.17912	0.1189	0.12244	0.10044	0.065955	0.22215	0.22606	0.13388	0.084541	0.2365	0.10037	0.18024	0.13942	0.16728	0.3649	-2.8021	-2.8354	-3.0479	-2.9229	-2.9458	-3.2062	-2.8771	-3.2938	-3.2167	-2.6625	-3.225	-3.1729	-2.9583	-3.1521	-3.0542	-3.2854	238.783	403.418	280.429	233.802	419.549	353.800	384.221	342.977	455.870	336.606	363.114	352.820	347.461	356.254	453.095	425.720	0.00095696	0.00075579	0.00027448	526.83	1.1259e-05	7.4577e-06	611.1	244	9.9022e-06	4.4925e-06	298.22	144.64	119.2	65.396	9.2544e-06	75.97	0.0035493	0.0040788	0.0011259	589.12	4.2889e-05	4.4303e-05	677.39	267.46	4.2535e-05	4.4015e-05	335.8	156.85	130.69	70.769	4.2585e-05	81.783	253.381	211.531	166.517	111.677	283.655	291.778	109.872	116.912	249.085	456.021	113.286	117.979	120.913	124.719	309.249	121.051	-8191	255	
1678.909	1	1	0	0	0.19369	0.1741	0.071031	0.32472	0.12816	0.23498	0.32813	0.15877	0.059805	0.10658	0.21941	0.2674	0.19616	0.28418	0.062476	0.12923	-2.6354	-2.8167	-3.0771	-2.9771	-2.7396	-3.1458	-2.8583	-3.0229	-3.0563	-2.7458	-3.1271	-2.9354	-2.9125	-3.25	-2.8354	-3.0708	145.434	397.625	263.431	356.344	144.984	158.876	413.797	356.919	212.472	300.337	390.482	354.283	423.569	433.122	289.263	218.073	0.00091834	0.00013437	5.6046e-05	525.78	6.634e-06	2.9239e-06	608.73	244.42	4.824e-06	1.1705e-05	294.13	143.72	119	65.635	3.5041e-06	75.267	0.0034939	0.0040237	0.0011096	586.84	4.2837e-05	4.3949e-05	673.54	267.43	4.3021e-05	4.4059e-05	334.24	156.22	130.78	70.91	4.3504e-05	81.393	254.219	242.266	309.422	111.914	315.177	345.146	109.813	116.803	267.571	258.115	113.281	117.783	120.789	124.965	268.355	120.845	-8191	255	
1679.005	1	1	0	0	0.11534	0.11056	0.4155	0.16154	0.20636	0.1771	0.15743	0.14152	0.10649	0.049299	0.1101	0.25725	0.22739	0.18747	0.043492	0.042176	-2.7333	-2.8521	-3.1458	-2.9313	-2.8958	-3.2375	-2.9437	-3.0187	-3	-2.9813	-3.2583	-3.0708	-2.8083	-3.2771	-2.8542	-2.9917	431.124	291.533	377.015	225.725	396.411	222.773	143.526	182.347	171.312	124.559	166.973	400.326	373.762	458.131	332.005	405.074	0.0008942	0.00026468	0.00025725	519.79	7.8477e-06	1.8011e-05	603.21	243.99	4.7103e-06	9.1963e-06	296.71	144.75	120.58	66.083	1.5631e-05	75.494	0.0035301	0.0040353	0.0011165	581.45	4.2851e-05	4.3529e-05	666.97	267.43	4.1976e-05	4.269e-05	334.58	157.23	131.87	71.324	4.1775e-05	81.754	267.968	232.224	178.982	112.002	233.481	247.963	109.849	117.088	414.492	219.062	112.919	117.777	120.602	124.898	267.421	120.657	-8191	255	
1679.101	1	1	0	0	0.11244	0.15956	0.32291	0.12592	0.2203	0.18372	0.15573	0.18265	0.35066	0.25534	0.10485	0.18357	0.18831	0.34989	0.079438	0.15162	-2.7583	-2.8521	-2.9729	-3.0542	-2.7562	-3.0604	-3.0417	-3.05	-3.2562	-2.925	-3.1167	-3.0521	-3.075	-3.0521	-2.8479	-3.1	326.621	349.800	294.478	409.793	413.486	160.467	408.350	414.664	302.167	370.570	101.307	184.466	442.320	410.561	392.584	432.965	0.00095025	0.00029258	0.00019874	521.18	8.2007e-06	1.5314e-06	606.26	245.73	5.441e-06	5.5425e-06	297.58	145.56	120.79	66.312	6.1694e-06	75.886	0.0034145	0.0038746	0.0010874	580.13	4.1607e-05	4.2616e-05	667.8	268.39	4.1449e-05	4.2516e-05	335.87	158.1	132.02	71.46	4.2302e-05	82.028	260.503	161.540	444.640	111.871	284.054	318.317	109.877	116.954	295.290	261.206	113.445	117.608	120.690	124.832	260.737	120.868	-8191	255	
1679.197	1	1	0	0	0.17517	0.31619	0.21001	0.18179	0.15849	0.18772	0.32143	0.11972	0.020639	0.089043	0.14557	0.27296	0.20824	0.12556	0.18748	0.083807	-2.5	-2.6917	-3.0208	-3.2125	-2.8375	-3.075	-2.9458	-2.9854	-3.2125	-2.7938	-3.0479	-3.2438	-2.9562	-3.4104	-3.1021	-2.9688	401.668	313.443	153.513	439.406	212.064	380.535	355.265	426.786	146.726	350.161	134.663	430.857	431.410	156.647	127.241	160.026	0.00088042	0.00079724	0.00013429	517.78	1.4684e-05	1.1973e-05	607.03	244.58	6.1704e-06	7.6803e-06	296.68	144.96	119.65	65.808	1.1555e-05	74.917	0.0034305	0.0039189	0.0011029	581.4	4.2597e-05	4.3943e-05	672.91	268.72	4.3215e-05	4.4633e-05	336.65	157.9	131.63	71.193	4.3743e-05	81.447	265.472	234.036	210.783	111.893	236.746	308.700	109.754	116.819	320.133	258.274	113.385	117.804	120.628	124.829	266.648	120.560	-8191	255	
1679.294	1	1	0	0	0.11354	0.057501	0.34243	0.041864	0.10496	0.059775	0.13773	0.30213	0.11015	0.11424	0.25953	0.12661	0.19735	0.14599	0.1083	0.11409	-2.8729	-2.8229	-2.7417	-3.0938	-2.8875	-3.1146	-2.9271	-2.9271	-3.1167	-3.0125	-3.025	-3.2521	-2.7521	-3.2812	-2.975	-2.8438	218.768	310.219	165.429	323.613	317.758	297.943	369.358	136.768	401.804	311.739	421.205	116.199	107.530	422.790	182.565	428.822	0.00087645	0.00087091	6.0954e-05	519.72	3.6562e-06	9.0483e-06	605.24	243.57	1.0019e-05	7.8384e-06	294.23	143.12	117.87	65.11	5.4292e-06	74.332	0.0035254	0.0040598	0.0011378	582.63	4.3257e-05	4.4719e-05	669.98	266.81	4.2599e-05	4.4145e-05	333.48	155.64	129.97	70.495	4.3429e-05	80.615	261.579	177.673	398.940	111.973	274.189	224.245	109.706	116.877	257.206	206.031	113.555	117.967	121.033	124.853	268.625	120.809	-8191	255	
1679.412	1	1	0	0	0.038565	0.18341	0.15101	0.029474	0.094217	0.19826	0.23355	0.07948	0.040252	0.14446	0.14216	0.22792	0.14004	0.32928	0.084572	0.24288	-2.6937	-2.7562	-3.0021	-3.2896	-2.7542	-3.1042	-3.1958	-2.8896	-3.1562	-2.9146	-3.2021	-3.2354	-2.7167	-3.1771	-3.0375	-2.9042	435.307	395.123	303.930	204.058	350.618	384.793	358.201	114.232	408.505	430.914	354.260	396.912	428.008	435.698	177.068	445.801	0.00085452	0.00053893	0.00024876	520.67	3.3759e-06	8.5595e-06	601.56	240.73	6.0912e-06	4.4799e-06	291.88	142.45	118.05	65.237	8.1848e-06	74.542	0.0034852	0.0040225	0.0011312	582.97	4.2993e-05	4.4512e-05	668.31	264.87	4.3043e-05	4.4562e-05	331.68	154.89	129.85	70.592	4.415e-05	80.899	256.474	147.422	205.511	111.730	439.759	266.124	109.795	116.897	241.408	291.055	113.357	117.824	120.560	124.765	226.860	120.671	-8191	255	
1679.484	1	1	0	0	0.13815	0.14568	0.22075	0.194	0.1291	0.17196	0.2888	0.14365	0.10073	0.10521	0.39535	0.16472	0.038092	0.17036	0.14674	0.098613	-2.6562	-2.9437	-2.6354	-3.2583	-2.8563	-3.0542	-3.0187	-2.7854	-3.0312	-3.0417	-2.8688	-3.2104	-3.0187	-3	-3.1875	-2.8292	184.696	351.455	249.549	196.934	333.737	276.286	458.875	174.580	268.044	285.950	439.890	442.279	183.951	429.428	330.011	166.007	0.00081393	0.0010161	9.4984e-05	517.78	9.407e-06	9.6714e-06	603.94	241.91	6.237e-06	8.2645e-06	294.37	143.43	118.77	65.53	1.0701e-05	75.259	0.0035381	0.0040858	0.001141	579.74	4.316e-05	4.4237e-05	669	265.3	4.2362e-05	4.3772e-05	333.21	155.89	130.29	70.964	4.3055e-05	81.485	265.630	192.647	126.649	111.899	192.751	192.487	109.841	116.977	292.873	220.363	113.425	117.650	120.761	124.768	257.504	120.789	-8191	255	
1679.582	1	1	0	0	0.29894	0.1244	0.061672	0.16931	0.048514	0.14051	0.20787	0.085716	0.17262	0.056004	0.21657	0.097101	0.27789	0.077301	0.026619	0.29856	-2.6542	-2.8563	-2.8646	-3.0729	-2.9625	-3.1167	-3.3312	-2.9938	-3.0354	-3.1646	-2.8875	-3.1813	-2.95	-3.1229	-2.9958	-2.925	275.936	226.039	167.116	381.330	330.972	150.985	110.882	434.379	364.383	126.187	441.617	238.987	107.853	378.597	122.363	383.405	0.00083893	0.0013826	0.00019556	521.12	6.9775e-06	1.0183e-05	608.47	242.32	7.767e-06	8.6133e-06	294.79	143.39	118.56	65.424	2.0721e-06	75.609	0.0034694	0.0039788	0.0011082	581.58	4.2631e-05	4.4295e-05	673.6	266.08	4.2743e-05	4.4185e-05	334.4	156.37	130.29	70.915	4.3533e-05	81.851	261.823	239.058	176.842	111.873	237.307	223.569	109.781	116.998	308.436	248.036	113.200	117.724	120.756	124.765	185.778	120.752	-8191	255	
1679.701	1	1	0	0	0.05695	0.10675	0.037685	0.19197	0.10909	0.096418	0.077306	0.38187	0.22919	0.16187	0.069858	0.096203	0.12768	0.15984	0.26114	0.062683	-2.6167	-2.9167	-2.7792	-3.0521	-2.825	-2.9437	-3.2292	-2.8375	-2.95	-3.3292	-2.8479	-3.3333	-3.1146	-2.8792	-3.1125	-2.9417	366.007	291.167	245.479	405.059	406.458	251.046	372.796	423.992	149.048	270.386	174.403	345.196	397.848	100.864	327.496	251.319	0.00087644	0.0005121	0.00012996	523.59	1.0328e-05	1.4505e-05	616.18	244.41	8.8957e-06	1.4163e-06	296.56	144.9	119.65	66.072	1.2008e-05	76.227	0.0034888	0.0040418	0.0011155	585.26	4.2889e-05	4.4408e-05	678.63	267	4.2595e-05	4.3926e-05	335.99	157.57	131.02	71.438	4.3103e-05	82.595	254.337	212.556	215.632	111.859	297.166	315.531	110.000	116.847	261.234	113.712	113.403	117.961	120.888	124.805	249.944	120.676	-8191	255	
1679.797	1	1	0	0	0.22827	0.15812	0.12814	0.14275	0.15026	0.042141	0.255	0.1576	0.095697	0.16896	0.044249	0.34781	0.29511	0.15663	0.154	0.14807	-2.5104	-2.9208	-2.7313	-3.1333	-3.0062	-2.8771	-3.2521	-2.9	-3.1021	-3.175	-3.0125	-3.3563	-3.0417	-3.0979	-3.3042	-3.15	333.104	206.308	382.391	431.804	128.553	377.196	430.998	168.420	122.671	135.378	396.222	400.136	124.416	167.361	351.368	414.282	0.00089007	0.00087272	0.00030756	524.08	1.1046e-06	1.1905e-05	610.23	243.71	6.2431e-06	7.542e-06	298.46	145.32	119.64	65.892	1.2353e-05	76.237	0.0035027	0.0040477	0.0011213	583.49	4.2857e-05	4.3951e-05	674.52	267.51	4.2474e-05	4.3995e-05	336.23	157.64	131.27	71.424	4.2709e-05	82.189	261.069	169.977	124.917	112.028	346.678	250.912	109.681	116.693	307.971	265.511	113.007	117.753	120.708	124.900	201.463	120.839	-8191	255	
1679.893	1	1	0	0	0.33192	0.03902	0.13467	0.067521	0.063196	0.2839	0.25373	0.16076	0.19853	0.1986	0.11387	0.17088	0.19421	0.13828	0.14124	0.30318	-2.5396	-3.0042	-2.7917	-3.1375	-2.9896	-2.7521	-3.2771	-3.0438	-2.9625	-3.2292	-3.0833	-3.1208	-3.2646	-3.0333	-3.0271	-2.9167	259.337	142.452	251.078	178.737	166.884	397.307	134.272	106.285	275.211	221.932	244.629	143.335	453.692	397.538	273.977	378.959	0.00086917	0.00053019	0.00024678	524.09	5.5617e-06	7.8258e-06	608.45	243.82	5.6679e-06	2.902e-06	297.45	144.7	119.75	66.132	9.5724e-06	76.008	0.0035198	0.0040046	0.0011107	582.42	4.3122e-05	4.4337e-05	671.25	267.16	4.2904e-05	4.4095e-05	335.13	157.16	131.2	71.516	4.268e-05	82.134	263.809	148.231	205.704	111.756	262.182	180.791	109.854	116.962	237.823	234.523	113.470	117.814	120.729	124.708	237.328	120.833	-8191	255	
1680.014	1	1	0	0	0.24169	0.045064	0.29161	0.17856	0.070805	0.16607	0.2705	0.15201	0.10353	0.22977	0.083471	0.064975	0.18808	0.25088	0.1151	0.10839	-2.3688	-3.05	-2.7792	-2.8333	-3.0896	-2.9333	-3.0396	-3.0979	-2.8479	-3.0896	-2.9667	-3.0312	-3.0896	-2.8771	-3.1542	-3.1854	392.455	113.076	137.638	383.627	132.881	356.633	325.202	168.699	300.786	433.712	417.929	391.803	457.691	407.298	194.517	427.718	0.00083746	0.0002916	0.0002215	520.75	4.0181e-06	5.6701e-06	608.9	243.48	7.9728e-06	9.8288e-06	298.71	145.22	119.31	66.141	1.2989e-05	76.511	0.0034384	0.0039157	0.0010852	580.35	4.1474e-05	4.2735e-05	670.47	267.35	4.1708e-05	4.2817e-05	335.78	157.79	131.44	71.482	4.1791e-05	82.371	257.342	173.111	183.743	112.092	313.285	329.126	109.889	116.976	333.410	230.481	113.372	117.874	120.890	124.886	296.476	120.775	-8191	255	
1680.085	1	1	0	0	0.25147	0.088461	0.14225	0.21907	0.13941	0.019195	0.16665	0.21408	0.22127	0.21135	0.11482	0.066173	0.17186	0.14714	0.18078	0.047631	-2.3771	-3.2458	-3.0083	-2.95	-3.2146	-2.8937	-3.1396	-3.1917	-2.7625	-3.2146	-2.8187	-3.05	-3.2771	-3.0438	-3.2146	-3.2625	384.228	390.473	319.925	423.311	161.782	214.802	385.497	131.321	235.692	293.655	407.253	372.187	411.550	388.843	288.878	105.561	0.00083856	0.00044149	0.00011425	518.68	8.1759e-06	1.0507e-05	610.64	244.45	5.4354e-06	1.3669e-05	298.41	145.96	120.3	66.481	1.0436e-05	76.88	0.0033739	0.0038439	0.0010749	579.74	4.1332e-05	4.2327e-05	672.9	267.51	4.1313e-05	4.2485e-05	337.29	158.42	131.69	71.854	4.2585e-05	82.907	268.264	221.231	306.500	111.930	287.518	269.366	109.841	117.006	319.445	229.703	113.331	117.947	120.838	124.772	271.544	120.799	-8191	255	
1680.182	1	1	0	0	0.07269	0.11649	0.26762	0.23811	0.10023	0.098725	0.060857	0.087508	0.13441	0.12906	0.11427	0.025705	0.14586	0.26369	0.12041	0.10122	-2.15	-3.2146	-2.9375	-2.8729	-3.2562	-2.9396	-2.95	-3.1562	-2.9083	-3.1	-3.1479	-2.9188	-3.1896	-2.9979	-2.9562	-3.1646	136.754	133.272	231.326	381.293	437.881	440.140	157.764	222.318	251.459	414.731	259.093	418.785	442.038	457.276	253.766	344.929	0.00090503	0.00048861	8.2606e-05	522.72	5.6426e-06	8.2314e-06	610.99	245.14	6.0411e-06	6.3023e-06	297.73	146.03	120.34	66.236	7.5672e-06	76.492	0.0034596	0.0039775	0.001104	583.19	4.2368e-05	4.3591e-05	675.17	268.37	4.214e-05	4.3656e-05	336.93	158.6	132.04	71.829	4.3238e-05	82.594	264.715	190.030	141.977	112.114	302.124	229.740	110.036	117.012	300.925	208.678	113.511	117.754	120.811	124.766	280.671	120.664	-8191	255	
1680.302	1	1	0	0	0.23916	0.27796	0.19356	0.30428	0.28962	0.32282	0.38478	0.1915	0.13488	0.14838	0.273	0.17333	0.20657	0.20079	0.021702	0.20025	-2.25	-3.1167	-3.0854	-2.8292	-3.2188	-2.8125	-3.0604	-3.1	-2.8646	-3.2438	-3.0479	-2.8458	-3.2771	-3.0458	-3.05	-3.2333	229.109	142.431	301.172	402.842	156.940	326.867	242.169	372.266	396.091	231.756	448.938	279.958	410.466	431.709	131.052	400.315	0.00088442	0.0005346	0.00025488	520.46	1.0226e-05	1.3491e-05	608.48	243.98	5.0207e-06	1.7243e-06	296.06	144.7	119.28	66.315	2.5553e-06	75.835	0.0034936	0.0040127	0.0011169	581.42	4.2658e-05	4.3958e-05	671.59	267.72	4.2571e-05	4.4112e-05	335.7	157.15	131.24	71.724	4.4191e-05	82.221	262.929	346.875	277.644	111.699	225.800	286.705	109.994	117.031	309.770	457.824	113.372	117.565	120.641	124.784	161.527	120.717	-8191	255	
1680.397	1	1	0	0	0.078808	0.14061	0.11053	0.15772	0.21623	0.25621	0.37626	0.10773	0.19072	0.35153	0.2065	0.067399	0.12301	0.21316	0.04538	0.18502	-2.4042	-3.0146	-2.9688	-2.9958	-3.0125	-2.8625	-2.8812	-3.3688	-2.8604	-3.1396	-2.9979	-3.1042	-3.2271	-2.9333	-2.9604	-3.2375	210.500	235.107	381.781	352.116	387.279	135.582	407.628	168.849	214.896	274.064	423.202	412.153	149.891	418.083	225.217	212.720	0.00089807	0.00090906	0.00038387	517.03	5.3903e-06	4.5794e-06	607.66	243	2.2627e-06	3.0471e-06	295.87	144.28	118.68	66.059	2.0028e-05	76.532	0.0035565	0.0041125	0.0011544	580.29	4.3144e-05	4.4756e-05	670.67	266.65	4.3324e-05	4.4691e-05	335.07	156.68	130.73	71.635	4.3716e-05	82.387	263.858	134.012	128.343	112.053	295.508	255.277	109.943	116.946	388.727	273.803	113.050	117.705	120.777	124.854	284.035	120.709	-8191	255	
1680.493	1	1	0	0	0.11997	0.13592	0.19511	0.11606	0.20782	0.14447	0.047807	0.16826	0.09504	0.19272	0.13925	0.091998	0.15088	0.11184	0.056682	0.085804	-2.4292	-3.1146	-3.025	-2.9208	-3.0229	-3.0521	-2.8312	-3.3854	-2.7542	-2.9417	-3.2062	-2.95	-3.1583	-3.2167	-2.8167	-3.25	110.039	177.174	346.765	450.438	123.993	147.074	151.521	367.380	436.050	281.229	133.690	267.306	410.445	415.865	237.877	449.216	0.00088561	0.00034964	0.00024067	518.06	3.1605e-06	1.2804e-05	606.38	243.33	4.7529e-06	5.92e-06	297.35	145.65	120.17	66.257	1.2567e-05	76.798	0.0035009	0.0040603	0.0011235	579.85	4.2765e-05	4.4098e-05	671.41	267.01	4.2565e-05	4.4248e-05	336.74	158.36	131.69	71.796	4.3191e-05	82.867	262.863	226.748	182.229	112.117	377.359	256.691	109.722	117.132	303.297	271.149	113.307	117.871	120.659	124.785	262.734	120.737	-8191	255	
1680.589	1	1	0	0	0.15793	0.24992	0.045198	0.3894	0.030408	0.17329	0.083432	0.21183	0.15124	0.27969	0.1997	0.2262	0.1477	0.17931	0.16788	0.1804	-2.3187	-3.0979	-3.175	-2.8625	-3.0667	-3.1667	-3.0083	-3.2146	-2.9	-3.0729	-3.2833	-2.7812	-3.125	-3.0875	-2.8646	-3.3583	368.928	402.860	260.691	268.014	182.934	226.738	245.050	411.427	312.748	197.926	330.289	398.657	389.527	124.350	283.299	217.817	0.00086743	0.00088903	0.00034307	518.89	5.9406e-06	3.6246e-06	609.42	244.16	4.3687e-06	8.5342e-06	300.2	146.75	120.6	66.79	9.573e-06	77.034	0.0034733	0.0040219	0.0011171	580.71	4.2562e-05	4.4174e-05	675.82	268.16	4.2584e-05	4.4016e-05	339.15	159.24	132.22	72.244	4.3367e-05	83.427	258.401	216.234	201.021	112.121	283.557	234.577	109.923	117.069	276.316	210.775	113.703	117.925	120.747	124.574	227.078	120.731	-8191	255	
1680.710	1	1	0	0	0.12841	0.26691	0.087852	0.13771	0.073971	0.20644	0.16477	0.044213	0.19303	0.16615	0.26126	0.17974	0.28146	0.14377	0.26946	0.046471	-2.2771	-2.8146	-3.0708	-2.7417	-3.1542	-2.9521	-2.6104	-3.2313	-2.9583	-3.0333	-3.2354	-2.9083	-3.0292	-3.1625	-2.8396	-3.2083	232.528	239.066	353.829	322.869	330.240	303.563	289.807	256.061	209.574	270.495	284.353	453.862	124.681	192.598	274.614	375.946	0.00092687	0.00053543	6.9969e-05	520.94	5.7179e-06	1.1749e-05	612.84	244.91	4.9545e-06	9.7422e-06	298.58	145.24	119.1	65.909	8.2659e-06	75.944	0.0035337	0.0041062	0.0011416	584.26	4.4213e-05	4.5888e-05	679.4	269.39	4.4784e-05	4.6028e-05	338.81	158.44	131.59	71.583	4.4905e-05	82.154	261.536	125.225	116.754	111.700	324.349	217.744	109.628	116.908	271.129	277.055	113.408	117.820	120.758	124.894	237.703	120.757	-8191	255	
1680.781	1	1	0	0	0.39325	0.044154	0.18158	0.058079	0.14453	0.12409	0.15489	0.13606	0.30868	0.31785	0.18464	0.074733	0.13972	0.13847	0.12839	0.32466	-2.5354	-2.9	-3.0563	-3.0563	-3.125	-3.0208	-2.9375	-3.3333	-2.9792	-2.9521	-3.1542	-2.9	-3.0625	-3.1937	-3.0542	-3.2479	281.663	397.612	124.641	183.461	376.465	454.490	437.547	410.692	288.143	367.016	425.732	117.529	397.063	104.726	375.039	100.510	0.00094781	0.00056507	0.00016479	521.62	1.293e-05	7.0965e-06	601.12	241.51	1.7942e-07	3.9041e-06	291.24	142.71	117.9	65.524	8.5509e-06	74.667	0.0036005	0.0041447	0.0011517	584.07	4.4017e-05	4.5452e-05	671.07	265.83	4.392e-05	4.5306e-05	332.47	155.46	130.06	70.913	4.4428e-05	81.08	255.693	247.975	134.007	111.996	275.327	172.026	109.871	117.091	398.335	261.663	113.306	117.812	120.620	124.772	294.198	120.831	-8191	255	
1680.877	1	1	0	0	0.18267	0.18001	0.1518	0.13739	0.3073	0.10775	0.37305	0.22768	0.20424	0.22245	0.011281	0.21964	0.20407	0.27011	0.098233	0.28317	-2.6354	-2.7458	-3.1167	-2.9333	-2.8708	-3.0708	-2.9688	-2.9125	-3.0854	-2.8625	-3.2167	-2.975	-3.1375	-3.1771	-2.8667	-3.0771	100.168	115.867	307.878	434.807	255.701	103.176	336.937	315.308	309.053	273.009	409.935	453.507	279.478	448.455	341.844	310.201	0.00081386	0.0012174	0.00021159	517.6	5.0522e-06	2.3147e-06	601.68	241.11	7.1265e-06	6.0126e-06	294.27	143.88	118.96	65.932	8.8113e-06	75.632	0.0036113	0.0041306	0.0011407	579.45	4.3533e-05	4.4822e-05	665.54	265.15	4.3236e-05	4.4957e-05	333.07	156.35	130.91	71.461	4.392e-05	81.846	266.037	214.110	129.291	111.794	377.141	423.871	109.761	116.920	289.602	426.341	113.491	117.653	120.672	124.898	234.538	120.807	-8191	255	
1680.974	1	1	0	0	0.13264	0.20993	0.15295	0.34334	0.19613	0.045407	0.27842	0.11486	0.23938	0.21118	0.24297	0.26775	0.32365	0.21408	0.11184	0.20225	-2.5687	-2.8375	-3.2208	-2.9479	-2.7729	-3.1188	-2.8833	-3.05	-2.9417	-2.8104	-3.2938	-2.9604	-2.775	-3.2	-2.8417	-3.0625	195.813	174.524	303.223	338.955	374.805	357.108	388.207	355.290	327.302	109.040	235.155	396.095	119.043	395.844	251.046	139.968	0.00086595	0.0011719	0.00015423	510.71	4.7105e-06	5.7842e-06	598.54	243.44	5.9616e-06	7.1222e-06	296.85	145.66	119.44	66.429	1.2807e-05	76.405	0.0035761	0.0040901	0.00113	573.2	4.347e-05	4.4443e-05	664.84	266.2	4.295e-05	4.4152e-05	335.32	157.99	131.39	71.878	4.3163e-05	82.582	256.998	237.811	179.539	112.067	308.836	259.173	109.855	117.002	315.614	207.255	113.274	117.565	120.734	124.833	205.321	120.690	-8191	255	
1681.094	1	1	0	0	0.15041	0.26241	0.15253	0.2865	0.069038	0.26081	0.14764	0.0989	0.23192	0.19888	0.070837	0.17477	0.13057	0.36455	0.058551	0.23187	-2.6125	-2.7667	-3.0125	-2.85	-2.9542	-2.9625	-2.9667	-2.8917	-3.1042	-2.7792	-3.125	-3.0896	-2.8021	-3.0271	-3.0417	-3.0104	317.027	429.460	375.887	437.568	192.117	245.557	446.970	382.127	387.948	114.516	121.620	389.144	420.650	105.211	165.521	424.683	0.00093963	0.00019076	0.00024589	515.14	1.3088e-05	4.0525e-06	603.26	243.02	2.3817e-06	2.1048e-06	296.56	145.8	119.32	66.184	1.3369e-05	76.319	0.003493	0.0039987	0.0011144	575.69	4.2552e-05	4.4086e-05	667.91	266.61	4.2691e-05	4.4024e-05	336.04	158.14	131.26	71.758	4.3788e-05	82.489	257.895	217.714	210.012	111.910	232.095	263.032	109.977	116.858	262.435	121.089	113.626	117.756	120.804	124.632	280.823	120.586	-8191	255	
1681.189	1	1	0	0	0.05896	0.11227	0.18848	0.32007	0.15152	0.21076	0.098486	0.13733	0.086964	0.034447	0.13721	0.19511	0.094596	0.20138	0.41999	0.15394	-2.7188	-2.8625	-2.9375	-2.8458	-2.6979	-3.25	-3.0312	-2.6063	-3.1771	-2.7	-3.0208	-3.0271	-2.9562	-3.1354	-2.8729	-2.9813	129.288	420.058	340.659	409.229	221.386	423.792	106.391	353.554	125.395	403.044	456.573	334.852	123.682	396.627	230.730	397.804	0.00084286	0.00051694	0.00047848	519.91	9.1384e-06	1.3094e-05	605.36	242.45	5.9074e-06	8.5706e-06	293.81	143.93	119.39	65.759	8.3249e-06	75.377	0.0035524	0.0040822	0.0011388	578.42	4.2909e-05	4.4148e-05	666.69	265.5	4.2068e-05	4.3557e-05	332.64	156.32	130.53	71.209	4.2894e-05	81.394	264.679	187.233	230.382	111.845	292.274	229.097	109.675	116.936	359.600	235.107	113.533	117.827	120.617	124.718	335.107	120.598	-8191	255	
1681.285	1	1	0	0	0.10514	0.18486	0.15337	0.072412	0.14389	0.19895	0.060217	0.27907	0.19936	0.081827	0.051968	0.29666	0.25661	0.0675	0.10232	0.29405	-2.6854	-2.8521	-3.0042	-3.2521	-2.9208	-3.0208	-2.9021	-2.7812	-3.1937	-2.7938	-2.9271	-3.1229	-2.7062	-3.2583	-3.15	-3.0208	189.821	358.024	256.744	443.781	159.615	320.446	396.527	101.619	253.545	381.736	191.211	367.697	440.531	418.658	377.083	414.025	0.00085228	7.6857e-05	0.00017782	513.79	5.9367e-06	6.9569e-06	600.14	242.2	4.4405e-06	5.716e-07	295.97	144.48	120.38	66.068	1.0663e-05	75.643	0.0034724	0.0039651	0.0011108	574.4	4.2348e-05	4.3356e-05	662.5	265.85	4.1676e-05	4.2764e-05	333.24	156.86	131.3	71.486	4.1954e-05	81.548	265.301	435.588	128.453	112.152	279.550	149.290	109.660	117.068	357.384	135.228	113.275	117.790	120.734	124.704	268.189	120.687	-8191	255	
1681.383	1	1	0	0	0.11545	0.1306	0.13044	0.10404	0.16089	0.11732	0.13566	0.15637	0.16636	0.13215	0.35187	0.14393	0.25814	0.19265	0.18257	0.16687	-2.5896	-2.775	-2.9208	-2.9875	-2.7812	-3.1125	-2.9354	-3.0771	-3.2021	-2.8688	-3.0417	-3.2313	-2.9583	-3	-2.9521	-2.9042	431.910	382.067	113.563	399.237	250.731	448.810	419.374	398.714	328.635	124.620	362.001	367.335	430.740	340.871	220.285	447.189	0.00080986	0.00036922	0.00031265	512.53	6.2169e-06	1.3296e-05	603.07	243.41	2.1929e-06	1.1235e-05	294.62	144.13	119.58	65.798	1.0425e-05	75.731	0.003367	0.0038624	0.0010783	572.92	4.1401e-05	4.2947e-05	664.43	266.31	4.1212e-05	4.2688e-05	333.16	156.47	130.7	71.2	4.1772e-05	81.493	265.658	254.600	161.681	111.882	253.736	273.751	109.840	116.943	347.326	235.905	113.090	117.591	120.657	124.735	299.524	120.794	-8191	255	
1681.477	1	1	0	0	0.041242	0.22768	0.098773	0.16893	0.19633	0.15435	0.19444	0.28867	0.077518	0.11037	0.11056	0.062874	0.091929	0.034636	0.1884	0.26638	-2.5563	-2.8187	-2.7021	-3.1333	-2.9125	-3.025	-2.9062	-2.9458	-2.8479	-2.9542	-2.6792	-3.075	-2.8646	-3.0417	-3.1562	-2.8708	422.072	156.691	271.576	444.236	215.514	186.222	383.488	414.667	266.099	264.021	249.496	266.498	247.803	142.585	135.527	357.389	0.00085055	0.00059054	9.9197e-05	515.86	1.8031e-06	4.6536e-06	605.89	242.92	3.1856e-06	2.6438e-06	295.33	145.31	119.88	65.88	1.1694e-05	76.151	0.0033686	0.00387	0.0010802	576.12	4.0699e-05	4.1824e-05	665.99	265.55	3.9896e-05	4.0944e-05	333.1	156.81	130.54	71.241	4.0426e-05	81.745	260.134	192.238	183.708	112.122	334.132	264.070	109.895	116.970	274.166	277.118	113.597	117.896	120.840	124.776	269.256	120.681	-8191	255	
1681.573	1	1	0	0	0.13194	0.2096	0.2085	0.13315	0.059458	0.19163	0.15715	0.041368	0.14405	0.086207	0.12523	0.038057	0.087646	0.13348	0.092219	0.061053	-2.6979	-2.9479	-2.8042	-3.275	-2.7229	-2.9813	-3.2479	-2.7458	-3.0854	-2.8354	-2.7	-3.2938	-2.8521	-3.0833	-3.0125	-2.8146	133.546	212.131	231.861	341.207	117.291	364.612	315.910	356.581	396.168	284.586	211.980	169.671	393.018	393.612	201.136	207.965	0.00077635	0.00073578	0.00016496	519.42	6.6642e-06	9.0096e-06	607.05	243.87	8.527e-06	8.741e-06	296.2	145.21	119.61	65.932	7.1101e-06	75.613	0.003279	0.0037655	0.0010498	576.81	4.0268e-05	4.1589e-05	668.68	266.09	3.9894e-05	4.1367e-05	333.92	157.22	130.83	71.232	4.0768e-05	81.542	265.902	193.778	148.190	111.852	277.646	275.940	109.933	117.211	236.893	244.597	113.431	117.805	120.614	124.826	219.914	120.712	-8191	255	
1681.694	1	1	0	0	0.085772	0.09342	0.18023	0.34222	0.103	0.045565	0.16953	0.18132	0.16689	0.19186	0.25438	0.052739	0.15839	0.23866	0.16797	0.035146	-2.6229	-2.7521	-2.7354	-3.1542	-2.8792	-2.8937	-3.1771	-2.8354	-3.1375	-3.0312	-2.6896	-3.2625	-2.9792	-3.1708	-3.1542	-2.8354	118.579	130.997	423.899	417.102	130.394	409.871	132.675	111.755	397.633	290.666	439.638	271.237	368.591	149.977	287.522	180.201	0.00082328	0.00065144	0.00018331	518.19	1.062e-05	1.2981e-05	602.71	241.96	5.7626e-06	2.7018e-06	292.48	143.89	119.33	65.774	5.7014e-06	75.15	0.0032856	0.0037575	0.0010397	575.26	3.9696e-05	4.0945e-05	662.95	264.41	3.918e-05	4.051e-05	330.42	155.31	130.07	70.808	3.9001e-05	80.683	261.200	440.431	160.450	112.107	254.515	216.488	109.832	117.089	296.171	208.677	113.537	117.803	120.642	124.785	296.424	120.798	-8191	255	
1681.790	1	1	0	0	0.04782	0.18298	0.1016	0.026539	0.13431	0.21327	0.15514	0.19388	0.10814	0.35988	0.15705	0.20689	0.14241	0.17046	0.181	0.6279	-2.5563	-2.8396	-2.8	-3.0062	-3.0208	-2.7896	-3.0875	-2.9875	-3.0083	-3.0812	-2.9104	-3.175	-2.9708	-2.9896	-2.9875	-2.9333	199.370	159.196	117.423	349.586	402.354	317.222	453.285	443.034	204.502	265.298	422.133	347.968	131.890	401.216	207.852	374.719	0.00085046	0.00059817	8.9249e-05	519.27	1.1388e-05	6.177e-06	606.24	243.05	9.8513e-06	3.5667e-06	294.7	143.71	118.79	65.54	1.0309e-05	75.057	0.0031568	0.0036155	0.0010025	575.41	3.8079e-05	3.9139e-05	663.47	264.34	3.7591e-05	3.8593e-05	329.42	154.8	129.58	70.485	3.8795e-05	80.576	266.327	188.393	241.494	111.857	247.167	261.576	109.750	117.099	324.145	198.135	113.414	117.853	120.915	124.887	249.556	120.745	-8191	255	
1681.886	1	1	0	0	0.12147	0.07903	0.092799	0.027578	0.39587	0.061801	0.06632	0.44417	0.15436	0.094002	0.19426	0.039197	0.14742	0.12393	0.17945	0.23283	-2.4583	-3.0104	-2.6729	-2.9125	-2.9771	-2.8271	-2.9437	-3.0833	-2.8937	-3.2188	-2.8458	-3.1833	-3.1958	-2.8771	-3.0458	-3.0687	443.695	457.141	315.591	272.744	304.797	363.260	411.071	443.046	218.861	440.782	362.640	189.711	378.540	135.508	128.950	394.652	0.00087616	0.00065816	0.00025784	522.27	9.039e-06	6.7198e-06	606.5	242.96	2.3544e-06	3.3456e-06	294.17	144.27	119.65	65.898	1.0767e-05	75.962	0.0031844	0.0036578	0.0010198	579.14	3.9402e-05	4.1014e-05	668.22	265.74	4.017e-05	4.1162e-05	332.11	156.45	130.86	71.258	4.0377e-05	81.777	261.234	203.106	201.398	111.997	289.888	257.159	109.640	116.911	315.512	214.698	113.747	117.927	120.788	124.774	299.826	121.000	-8191	255	
1681.982	1	1	0	0	0.0736	0.059465	0.14144	0.20885	0.21416	0.23238	0.15662	0.13094	0.12379	0.047457	0.12931	0.076464	0.14296	0.16566	0.14176	0.23849	-2.5333	-2.9688	-2.7313	-2.9437	-2.9792	-2.6	-2.9479	-2.9333	-2.8479	-3.1312	-2.6667	-3.0167	-3.0583	-2.9562	-3.1396	-3.1417	247.532	239.473	373.686	315.675	281.526	387.531	334.056	400.083	103.672	434.287	119.855	280.587	255.688	444.127	373.287	438.099	0.00091472	0.00021496	0.00012079	517.74	7.9943e-06	4.8057e-06	607.72	245.73	1.0949e-05	1.1736e-05	298.35	146.16	121.45	66.424	7.574e-06	75.861	0.003274	0.003769	0.0010542	576.98	4.0391e-05	4.1769e-05	670.11	268.41	4.0739e-05	4.2381e-05	337.07	158.41	132.47	71.725	4.1887e-05	81.885	261.968	171.786	151.754	111.835	273.965	302.673	109.882	117.178	262.524	194.271	113.472	117.785	120.798	124.791	317.831	120.775	-8191	255	
1682.078	1	1	0	0	0.077536	0.22217	0.16458	0.082573	0.11084	0.18918	0.072003	0.088772	0.13655	0.19075	0.11478	0.090653	0.18348	0.1186	0.1511	0.063989	-2.6625	-3.1958	-3.0521	-3.2479	-3.0563	-2.8729	-3.1167	-3.1396	-2.9625	-3.1521	-2.9333	-3.0125	-3.0042	-3.0542	-3.0563	-3.1625	374.637	226.952	423.082	383.917	315.156	390.728	402.589	370.439	434.691	350.476	349.750	416.022	281.084	425.485	319.451	252.011	0.00080564	0.0012013	0.00021858	517.43	1.2542e-06	8.5509e-06	606.32	244.87	1.5473e-06	9.9835e-06	297.96	146.76	122.03	66.474	7.8059e-06	76.345	0.0034088	0.0039068	0.0010949	578.61	4.183e-05	4.3434e-05	670.13	268	4.2742e-05	4.4134e-05	337.18	159.2	133.15	72.068	4.2641e-05	82.477	257.096	189.298	163.023	111.966	309.861	229.644	109.861	116.950	274.432	127.854	113.340	117.871	120.680	124.722	287.289	120.727	-8191	255	
1682.175	1	1	0	0	0.071644	0.35644	0.091291	0.21455	0.19385	0.083186	0.18075	0.092782	0.16905	0.22142	0.19955	0.25304	0.13271	0.26461	0.10615	0.27953	-2.3021	-2.9813	-2.8792	-2.9104	-3.2083	-2.8021	-3.2062	-3.0375	-2.9146	-3.1375	-2.9813	-3.025	-3.2146	-2.9521	-3.0167	-3.1042	307.284	420.275	217.882	407.288	132.066	448.444	405.806	347.047	415.919	369.234	100.023	383.124	178.402	139.990	382.000	391.060	0.00089992	0.00074091	7.3923e-05	515.46	1.4266e-06	7.1649e-06	607.56	246.95	4.7722e-06	1.941e-06	304.04	149.63	123.09	66.837	1.2419e-05	77.132	0.0034175	0.0038785	0.0010763	574.05	4.0695e-05	4.1922e-05	668.26	269.66	3.993e-05	4.088e-05	339.56	161.39	134.1	72.233	3.9531e-05	83.022	264.624	145.966	230.851	112.063	340.691	409.960	109.946	117.067	276.010	184.635	113.557	117.456	120.845	124.874	236.336	121.045	-8191	255	
1682.271	1	1	0	0	0.095801	0.13021	0.10487	0.12265	0.16388	0.23611	0.16769	0.24513	0.21506	0.093171	0.13263	0.10655	0.13748	0.011798	0.065204	0.28884	-2.525	-3.3396	-3.0354	-2.975	-3.0979	-2.8438	-3.0667	-3.0521	-2.8333	-3.1562	-3.0187	-2.9271	-3.2167	-3.1125	-2.9292	-2.8812	272.871	138.881	409.141	455.208	313.482	366.248	137.907	158.500	153.117	406.941	449.478	196.383	435.699	376.754	337.097	238.549	0.00083214	0.0010048	0.00019405	519.82	7.6078e-06	4.6496e-06	613.08	248.59	1.4344e-05	1.0939e-05	306.61	150.99	124.07	67.528	1.6994e-05	78.076	0.0032257	0.0036623	0.0010234	576.85	3.8903e-05	4.0168e-05	673.09	270.82	3.9286e-05	4.0561e-05	342.99	162.65	134.87	72.863	4.0459e-05	83.905	256.761	220.042	164.610	112.093	263.165	131.463	109.875	116.913	281.931	291.990	113.376	117.772	120.821	124.818	267.253	120.736	-8191	255	
1682.390	1	1	0	0	0.064009	0.20545	0.081583	0.13287	0.20699	0.10354	0.11066	0.13581	0.052143	0.35614	0.12103	0.20322	0.08915	0.4629	0.058083	0.2344	-2.3063	-3.1542	-3.0167	-2.825	-3.1958	-2.9583	-3.0229	-3.1583	-2.85	-3.0333	-2.9771	-2.8812	-2.8542	-3.1917	-2.8479	-3.3521	271.647	427.315	438.528	362.445	215.999	431.293	451.756	180.244	295.424	193.957	443.812	116.670	100.508	124.284	102.687	365.535	0.00083628	0.00031162	0.00030786	520.69	3.7675e-06	1.2069e-05	620.53	249.97	7.8361e-06	3.708e-06	308.84	152.07	124.81	67.975	1.3208e-05	78.655	0.0033192	0.0037607	0.001055	579.18	4.0204e-05	4.1634e-05	678.7	273.29	4.0135e-05	4.1271e-05	345.66	164.5	136.11	73.341	4.0889e-05	84.684	261.470	319.068	137.715	112.293	338.462	245.562	109.859	117.076	280.128	286.025	113.291	117.752	120.803	124.831	265.895	120.659	-8191	255	
1682.486	1	1	0	0	0.14654	0.19072	0.095743	0.33827	0.11423	0.2135	0.16015	0.21305	0.087658	0.061813	0.36411	0.14777	0.14469	0.22028	0.18464	0.58467	-2.1958	-2.9167	-2.9667	-2.7854	-3.225	-2.8167	-3.0583	-3.2833	-2.8604	-2.9229	-3.0563	-2.7833	-3.3146	-3.075	-3.0125	-3.2646	282.123	424.645	282.276	355.239	303.747	421.609	392.466	345.368	147.651	349.928	300.966	428.362	412.070	381.828	389.931	391.218	0.00089145	0.00055259	0.00023486	521.73	6.5465e-06	8.3485e-06	615.67	250.57	8.5327e-06	4.2916e-06	308.5	151.99	123.71	67.504	1.8501e-05	78.161	0.0033215	0.0037974	0.0010659	580.17	4.0856e-05	4.239e-05	681.46	273.39	4.1539e-05	4.2894e-05	346.55	164.38	135.61	73.1	4.2218e-05	84.223	260.629	199.629	240.743	112.072	299.031	281.264	109.995	117.021	260.437	255.346	113.564	117.663	120.577	124.852	242.037	120.752	-8191	255	
1682.582	1	1	0	0	0.13666	0.071624	0.22073	0.21249	0.19166	0.12726	0.03447	0.20229	0.29457	0.14536	0.2058	0.25552	0.10436	0.30844	0.047898	0.19644	-2.6792	-2.9229	-2.9125	-2.8667	-3.1125	-2.9437	-3.0167	-3.0146	-2.7938	-3.1417	-3.1979	-2.8333	-3.0104	-3.1896	-2.9271	-3.2917	291.281	331.638	351.997	372.880	302.944	265.378	395.967	452.518	199.698	328.595	394.583	129.446	301.384	449.934	172.922	396.590	0.0008607	0.00075537	0.00030901	519.44	1.0395e-05	1.3238e-05	610.93	246.46	4.8536e-06	1.3284e-05	301.81	149.06	122.47	66.869	1.5095e-05	76.635	0.0034341	0.0039259	0.00109	579.22	4.1727e-05	4.3024e-05	673.96	270.66	4.1719e-05	4.3145e-05	340.83	161.24	134.02	72.295	4.2508e-05	82.683	262.771	204.683	208.950	111.912	290.017	267.734	109.929	117.050	306.616	206.644	113.307	117.690	120.712	124.719	265.348	120.705	-8191	255	
1682.655	1	1	0	0	0.25773	0.14555	0.144	0.1836	0.18275	0.36611	0.21286	0.17177	0.35842	0.18784	0.04122	0.18083	0.3232	0.46365	0.10226	0.24504	-2.5	-2.8875	-2.9917	-2.8479	-3.0479	-2.8958	-2.6958	-3.1	-2.9917	-2.9604	-3.125	-2.9917	-3.2208	-3.275	-2.8104	-3.3667	363.886	273.061	117.479	169.456	224.179	103.721	430.981	450.449	132.871	175.236	207.253	235.672	447.388	425.838	443.264	430.020	0.0008538	0.0003983	8.1236e-05	519.04	4.3401e-06	7.1001e-06	607.26	247.1	1.8704e-06	7.3257e-06	301.3	148.51	121.73	66.367	7.1316e-06	76.078	0.0034107	0.0039269	0.0010906	578.82	4.1683e-05	4.2567e-05	671.04	270.48	4.1316e-05	4.2511e-05	340.06	160.55	133.71	71.861	4.2772e-05	82.401	261.017	410.448	267.482	112.137	316.374	351.091	109.955	117.124	283.727	169.399	113.426	117.675	120.894	124.673	246.141	120.738	-8191	255	
1682.774	1	1	0	0	0.068073	0.26145	0.23372	0.079076	0.21143	0.12364	0.16392	0.017869	0.27066	0.059538	0.17599	0.14932	0.2676	0.21001	0.25107	0.43666	-2.4979	-2.9458	-3.2	-2.9562	-2.9625	-3.0312	-2.9938	-3.3229	-2.8792	-3.0792	-3.1625	-2.9813	-3.1521	-3.3521	-2.6937	-3.275	364.622	340.823	212.867	101.901	219.162	330.277	345.673	267.590	208.877	306.895	268.332	135.256	394.937	316.848	347.300	456.525	0.00083326	0.0009476	0.00028574	520.46	4.5838e-06	6.8291e-06	610.29	246.75	7.9074e-06	4.3522e-06	300.91	147.99	122.14	66.527	1.2145e-05	76.583	0.0034665	0.0039973	0.0011191	581.8	4.2464e-05	4.4145e-05	675.12	270.17	4.2063e-05	4.3343e-05	340.26	160.47	133.57	72.023	4.2281e-05	82.731	258.165	177.139	152.266	112.039	294.552	155.738	110.025	116.927	223.126	248.553	113.521	117.733	120.804	124.689	277.458	120.804	-8191	255	
1682.870	1	1	0	0	0.15521	0.20672	0.047353	0.38137	0.16275	0.30258	0.23939	0.14517	0.20015	0.23369	0.21598	0.11171	0.37712	0.21278	0.016598	0.13251	-2.6688	-2.7396	-3.1458	-2.9333	-2.9854	-3.1396	-2.825	-3.15	-2.9083	-2.8021	-3.1146	-3.0542	-3.0771	-3.2125	-2.9021	-3.1437	247.171	424.422	241.660	441.098	393.772	325.781	420.018	381.973	336.995	401.520	417.202	402.120	101.944	407.751	176.999	431.807	0.00081642	0.00069496	0.00017801	515.13	3.2716e-06	7.4929e-06	609.48	248.66	7.5385e-06	8.6293e-06	307.07	150.5	123.3	66.856	1.1601e-05	77.449	0.0034069	0.003905	0.0010876	577.47	4.174e-05	4.2923e-05	673.58	271.73	4.1463e-05	4.2793e-05	344.02	162.68	134.68	72.366	4.1865e-05	83.262	266.146	141.508	171.244	112.206	304.783	252.498	109.907	117.125	266.255	199.134	113.713	117.867	120.785	124.711	259.563	120.713	-8191	255	
1682.967	1	1	0	0	0.16063	0.10262	0.23619	0.15082	0.061085	0.19936	0.099951	0.030633	0.20078	0.1555	0.1876	0.24475	0.27879	0.40486	0.12975	0.10802	-2.7062	-2.6042	-2.9813	-2.925	-3.0146	-3.1292	-2.9125	-3.225	-3.1208	-2.9125	-3.1542	-3.1146	-2.9979	-3.1771	-3.0146	-3.2521	126.974	433.991	287.034	385.782	205.435	233.876	251.665	455.575	239.583	261.847	343.538	371.158	390.170	104.607	388.556	108.509	0.00082864	0.00023372	0.00030287	519.57	9.3253e-06	9.1049e-06	611.95	247.11	2.1312e-06	6.4751e-06	300.41	148.13	122.31	66.644	8.8681e-06	76.112	0.003372	0.0038809	0.0010814	579.17	4.1391e-05	4.285e-05	673.48	270.57	4.1849e-05	4.3144e-05	340.21	160.67	133.86	71.927	4.2601e-05	82.309	261.579	181.581	201.314	111.647	232.263	177.971	109.779	117.099	182.756	265.336	113.416	117.873	120.572	124.840	274.992	120.962	-8191	255	
1683.063	1	1	0	0	0.089826	0.17427	0.083749	0.12207	0.08453	0.10592	0.027748	0.071132	0.24486	0.2441	0.16389	0.11736	0.10496	0.17881	0.10421	0.1609	-2.4833	-2.9354	-3.2417	-2.9979	-2.9708	-3.1312	-3.0563	-2.9313	-3.1813	-2.8563	-3.1167	-2.9917	-3.0229	-3.5	-2.8854	-3.0729	122.884	199.170	375.125	356.708	401.823	323.954	125.753	377.596	216.542	103.979	348.245	385.864	207.454	146.090	124.464	313.246	0.00083726	0.00033646	0.00013657	521.8	6.6058e-06	1.7982e-05	610.06	247.05	6.8548e-06	6.6369e-06	303.84	149.19	123.01	66.732	7.0794e-06	76.982	0.0034104	0.0039053	0.001075	578.76	4.105e-05	4.2349e-05	671.85	269.98	4.0482e-05	4.1616e-05	339.98	161.18	134.36	72.135	4.0501e-05	82.775	255.967	279.253	290.263	111.885	267.826	239.548	109.943	117.191	261.016	211.788	113.501	117.532	120.758	124.626	258.395	120.684	-8191	255	
1683.182	1	1	0	0	0.075172	0.2036	0.080497	0.049739	0.09107	0.060581	0.30284	0.35159	0.25507	0.14365	0.15527	0.13063	0.082242	0.24644	0.15152	0.19676	-2.7229	-2.7854	-3.0917	-2.95	-2.8	-3.2979	-2.8333	-3.1	-3.1792	-2.7958	-3.075	-2.9979	-2.75	-3.2479	-2.9375	-2.975	99.684	163.640	397.011	370.840	299.324	116.541	362.527	111.351	353.906	276.306	448.454	419.077	251.359	111.531	250.626	395.322	0.00085967	0.00052491	0.00039281	520.11	7.9954e-06	2.5205e-06	612.01	248.28	1.1331e-05	9.7166e-06	304.22	150.69	123.73	67.222	6.8231e-06	77.828	0.0033028	0.0037882	0.0010491	576.71	4.0524e-05	4.1609e-05	671.78	271.29	4.0234e-05	4.1131e-05	341.9	162.52	134.76	72.489	4.0104e-05	83.441	261.898	279.921	160.292	112.377	277.808	263.489	109.907	117.147	273.249	346.844	113.549	117.834	120.681	124.827	271.293	120.813	-8191	255	
1683.255	1	1	0	0	0.23376	0.14858	0.093614	0.16967	0.11979	0.10492	0.18207	0.26181	0.23132	0.2549	0.21375	0.086918	0.31426	0.22657	0.12825	0.13787	-2.7271	-2.7896	-3.15	-2.975	-2.8958	-3.175	-3.0208	-3.1167	-3.3354	-2.8917	-3.0354	-3.25	-2.85	-3.2333	-2.9083	-3.1792	374.955	268.153	115.870	234.758	175.473	362.368	391.617	395.673	229.135	410.065	456.823	357.774	397.230	429.554	395.913	428.505	0.00089066	0.0002356	0.00034778	519.38	7.5549e-06	2.3955e-06	616.41	248.29	2.34e-06	1.0025e-05	304.37	151.04	123.52	67.523	7.1089e-06	78.076	0.0032695	0.0037221	0.0010289	578.45	3.9708e-05	4.0942e-05	676.3	270.82	3.9479e-05	4.0336e-05	341.92	162.56	134.43	72.573	3.9478e-05	83.782	260.734	180.266	173.036	111.839	298.242	250.213	109.979	117.142	242.962	329.074	113.497	117.968	120.775	124.795	261.555	120.676	-8191	255	
1683.376	1	1	0	0	0.13101	0.28188	0.17536	0.2605	0.094226	0.10264	0.054106	0.081091	0.1289	0.094788	0.28229	0.079544	0.15409	0.10982	0.14671	0.21004	-2.725	-2.9208	-2.9042	-2.9146	-3.1333	-3.0854	-3.0563	-2.9333	-3.1271	-2.825	-3.0062	-3.3083	-2.9667	-3.2375	-2.9771	-2.9875	333.697	373.228	340.377	131.797	266.572	259.581	432.723	143.436	458.030	266.679	423.455	127.530	422.130	448.273	168.937	121.047	0.0009483	0.00061062	0.00019307	522.83	1.4059e-06	8.4427e-06	618.23	248.84	6.2939e-06	3.8357e-06	307.47	151.9	124.01	67.797	5.5133e-06	78.476	0.0032314	0.003685	0.0010246	580.51	3.9436e-05	4.0681e-05	678.14	271.46	3.942e-05	4.0603e-05	343.78	163.53	135.19	73.091	4.0042e-05	84.538	263.462	163.432	215.133	112.187	173.442	260.185	109.883	116.971	243.512	257.634	113.539	117.928	120.788	124.849	319.175	120.823	-8191	255	
1683.470	1	1	0	0	0.28952	0.11627	0.1688	0.20671	0.32773	0.34459	0.13366	0.17264	0.19364	0.22563	0.15187	0.14738	0.25116	0.11584	0.34782	0.11055	-2.7167	-2.8708	-3.0479	-3.1833	-2.6937	-3.0083	-3.0333	-3.0146	-3.1562	-2.8833	-3.1708	-3.0438	-2.9938	-3.2083	-3.0854	-3.0292	226.150	164.006	278.525	444.053	219.068	173.783	188.990	390.248	175.007	207.325	384.947	299.851	394.603	305.570	234.412	453.558	0.00094331	0.0008157	0.00016185	519.78	7.9149e-06	5.9259e-06	613.3	249.32	1.0003e-05	4.2393e-06	306.22	150.99	123.41	67.371	1.2574e-05	77.614	0.0032865	0.0037366	0.0010407	576.4	3.9769e-05	4.0915e-05	673.75	271.82	3.9337e-05	4.0078e-05	342.1	162.66	134.85	72.63	3.9363e-05	83.361	260.593	450.969	289.480	112.187	243.776	218.267	109.870	116.970	262.508	223.271	113.345	117.582	120.494	124.764	295.264	120.795	-8191	255	
1683.566	1	1	0	0	0.076565	0.14764	0.25268	0.23396	0.053715	0.1126	0.061369	0.11911	0.1107	0.10938	0.24928	0.12366	0.096064	0.24017	0.12824	0.18617	-2.8542	-2.9396	-2.9333	-3.0875	-2.9396	-2.9833	-3.1458	-2.9437	-3.05	-3.0646	-3.0104	-3.3729	-2.8729	-2.85	-3.0083	-3.0292	107.679	363.107	384.663	431.744	418.647	332.172	170.536	416.067	293.483	217.385	101.533	238.751	319.602	446.291	207.361	374.986	0.00083885	0.0010827	0.00015021	521.75	6.826e-06	8.9922e-06	613.4	248.57	1.0389e-05	3.5525e-06	304.42	149.87	123.35	66.812	1.0053e-05	76.881	0.0032001	0.003622	0.0010099	577.75	3.8368e-05	3.9433e-05	671.7	270.7	3.8174e-05	3.959e-05	340.17	161.61	133.88	72.08	3.9246e-05	82.739	261.308	184.225	214.170	112.124	277.093	230.676	109.915	116.970	279.515	188.141	113.321	117.685	120.680	124.721	269.955	120.869	-8191	255	
1683.662	1	1	0	0	0.20727	0.21132	0.1427	0.2503	0.2393	0.15256	0.098573	0.21829	0.080233	0.060282	0.17894	0.22597	0.12138	0.18972	0.13931	0.32671	-2.6833	-2.8208	-2.8604	-3.1562	-2.7917	-3.1562	-3.2458	-2.875	-3.1625	-2.8979	-2.9396	-3.2625	-2.8021	-3.1562	-3.2021	-2.9396	253.830	156.561	302.946	115.133	370.415	172.940	251.540	370.385	350.957	107.130	303.584	400.444	146.699	114.046	252.076	385.431	0.00089883	9.2929e-05	2.8253e-05	527.47	1.0633e-05	3.3903e-06	618.98	247.84	3.8986e-06	3.3575e-06	303.7	148.25	122.14	66.471	1.2571e-06	76.555	0.0031813	0.0036314	0.0010171	582.57	3.8773e-05	3.9816e-05	675.78	269.91	3.8907e-05	3.9979e-05	339.08	159.93	132.79	71.668	3.9936e-05	82.472	267.907	165.470	201.506	112.114	259.196	263.868	109.927	117.025	285.968	250.671	113.436	117.854	120.771	124.882	438.535	120.876	-8191	255	
1683.783	1	1	0	0	0.1863	0.052708	0.35668	0.17927	0.082204	0.3166	0.23152	0.22485	0.31748	0.33468	0.095557	0.11848	0.24472	0.13053	0.22586	0.19375	-2.6188	-3.0771	-2.7562	-3.1292	-2.8333	-3.0833	-3.3333	-2.9646	-3.0583	-2.8667	-2.825	-3.1437	-2.9229	-3.0875	-3.1542	-2.9479	200.975	221.776	308.417	408.227	232.345	186.156	332.466	387.324	124.217	444.177	336.495	384.378	433.181	108.749	367.155	348.095	0.00086503	0.00072117	0.00011334	527.17	6.3942e-06	1.4995e-05	621.49	248.18	7.6522e-06	7.1491e-06	304.55	149.36	123.1	66.955	8.414e-06	77.563	0.0032244	0.0036832	0.0010239	584.53	3.8559e-05	3.9907e-05	679.86	269.87	3.8186e-05	3.9626e-05	340.18	160.96	133.57	72.142	3.9196e-05	83.439	258.993	348.726	308.531	112.260	262.721	259.634	109.791	116.912	302.310	263.484	113.334	117.901	120.819	124.770	305.984	120.936	-8191	255	
1683.879	1	1	0	0	0.1123	0.19945	0.25121	0.1383	0.11494	0.25913	0.27954	0.16997	0.2329	0.24877	0.17526	0.40978	0.3218	0.21738	0.11347	0.0083052	-2.725	-3.0354	-2.8125	-3.2792	-2.8604	-2.7979	-3.3604	-2.7604	-3	-3.0625	-2.8312	-3.2958	-3.1104	-2.9917	-3.2375	-2.8354	169.129	298.461	245.950	367.843	235.577	333.431	408.650	371.469	308.436	219.530	342.501	402.262	125.671	450.275	440.690	412.321	0.00081513	0.0012763	0.0002319	526.09	4.1521e-06	2.9809e-06	620.58	249.74	8.7659e-06	6.6643e-06	307.01	150.75	123.45	67.272	3.6877e-06	77.668	0.0031615	0.0036425	0.0010146	583.47	3.9142e-05	4.0458e-05	682.15	271.82	3.9644e-05	4.1238e-05	344.08	162.74	134.78	72.624	4.0659e-05	83.676	255.930	220.696	237.127	111.908	325.000	181.475	109.692	117.277	262.237	282.680	113.564	117.863	120.967	124.883	193.505	120.847	-8191	255	
1683.951	1	1	0	0	0.17572	0.11852	0.21217	0.1365	0.18362	0.12766	0.31803	0.16609	0.17304	0.19963	0.25275	0.043748	0.17902	0.21042	0.25162	0.24052	-2.6167	-3.1458	-2.7812	-2.9854	-2.9875	-3.0604	-3.2708	-2.9313	-2.9437	-3.0604	-3	-3.2354	-3.1063	-3.0417	-3.1354	-3.1188	370.641	141.793	296.205	381.767	443.805	342.367	293.927	366.507	99.355	327.975	134.907	328.329	101.733	340.454	418.034	138.995	0.00088819	0.00059944	0.00011793	526.5	5.5072e-06	4.4792e-06	618.13	249.19	5.9385e-06	1.3302e-05	303.97	150.29	122.82	67.207	1.5334e-05	77.364	0.00329	0.0037826	0.0010475	584.64	3.9635e-05	4.1306e-05	679.27	271.63	3.9976e-05	4.1125e-05	342.16	161.8	134.38	72.337	4.0424e-05	83.266	261.486	271.085	192.662	112.023	258.725	240.149	109.847	116.897	280.528	236.059	113.512	117.664	120.847	124.788	264.717	120.680	-8191	255	
1684.071	1	1	0	0	0.062469	0.25961	0.32941	0.19109	0.15058	0.3116	0.061571	0.23253	0.18062	0.2055	0.10984	0.35584	0.22827	0.038703	0.043658	0.22676	-2.5958	-3.1562	-2.7562	-3.0333	-3.1729	-2.8583	-3.0563	-3.0271	-2.8708	-3.1167	-2.85	-3.0771	-3.2208	-2.8917	-2.9917	-3.0938	413.452	216.029	209.424	165.580	449.330	354.021	407.494	336.794	233.225	106.142	114.507	376.217	408.892	187.231	270.081	344.315	0.00094773	0.00072094	0.00011437	528.01	2.5449e-06	8.3467e-06	618.31	250.31	7.9638e-06	8.692e-06	307.78	151.54	124.06	67.392	1.2316e-05	77.974	0.0032982	0.0037857	0.0010437	584.94	3.969e-05	4.1148e-05	680.4	272.88	4.0231e-05	4.1492e-05	344.24	163.37	135.65	72.762	4.0817e-05	84.042	259.676	155.686	214.791	111.897	265.317	344.641	109.993	116.971	357.212	226.279	113.593	117.537	120.743	124.839	285.354	120.768	-8191	255	
1684.168	1	1	0	0	0.30703	0.19875	0.26336	0.21607	0.15329	0.26762	0.090455	0.095619	0.14029	0.2699	0.17112	0.10435	0.028674	0.36297	0.14398	0.1836	-2.3896	-3.1312	-2.8625	-3.0438	-3.1104	-3.0083	-3.0458	-2.975	-2.8208	-3	-2.9792	-3.1437	-2.9833	-3.0229	-3.225	-3.0771	430.681	264.273	230.075	238.675	244.901	102.599	104.476	371.404	293.273	301.017	278.464	129.385	166.470	140.475	276.300	365.110	0.00092999	7.3425e-05	0.00012834	526.37	6.4838e-06	9.0006e-06	625.09	251.93	3.7052e-06	2.7778e-06	311.26	152.77	125.05	68.006	1.341e-05	78.903	0.0033318	0.003807	0.0010522	584.95	4.0394e-05	4.1422e-05	681.91	274.3	4.0367e-05	4.182e-05	347.73	164.93	136.65	73.389	4.1931e-05	84.928	260.656	243.207	144.070	111.987	306.761	228.007	110.087	117.157	224.979	236.930	113.317	117.630	120.785	124.738	278.284	120.717	-8191	255	
1684.262	1	1	0	0	0.11528	0.32762	0.12693	0.21084	0.18363	0.025433	0.088566	0.37841	0.087279	0.284	0.067836	0.13731	0.14635	0.11368	0.058438	0.094747	-2.3333	-3.1271	-2.8937	-3.0333	-3.1479	-2.9917	-3.2938	-2.9562	-2.9083	-3.2042	-3.1396	-3.1229	-3.2146	-3.0833	-2.9708	-3.3563	103.843	322.433	278.733	382.200	430.714	342.870	105.189	440.111	110.511	259.686	153.712	377.787	439.283	452.794	257.805	384.633	0.00086796	0.0015076	0.00026819	526.04	2.7769e-06	1.3077e-05	624.36	251.67	5.1515e-06	1.0109e-05	311.34	153.35	125.13	67.683	1.548e-05	78.694	0.0034264	0.003925	0.001079	586.03	4.1529e-05	4.2363e-05	686.32	275.41	4.1189e-05	4.2457e-05	348.35	165.35	136.69	73.247	4.1061e-05	84.886	256.085	194.106	425.613	111.959	289.523	240.289	109.974	117.133	245.763	190.424	113.527	117.965	120.803	124.902	285.028	120.897	-8191	255	
1684.358	1	1	0	0	0.10874	0.15133	0.19693	0.28772	0.41613	0.13906	0.10457	0.16492	0.29399	0.34253	0.086021	0.099513	0.11131	0.41374	0.015761	0.4438	-2.2458	-3.1125	-2.9458	-2.8833	-3.0625	-2.8875	-3.1396	-3.0229	-2.8292	-3.3104	-3.225	-3.1292	-3.1125	-2.7708	-3.1167	-3.2062	181.811	376.537	299.435	389.117	371.205	242.790	343.896	449.833	297.840	215.536	259.097	351.460	111.744	113.101	119.657	430.406	0.00093068	0.00092964	0.00017485	527.93	4.6389e-06	3.8185e-06	623.05	250.84	8.6949e-06	4.5878e-06	307.38	151.24	124.16	67.423	1.4392e-05	77.878	0.0033771	0.0038306	0.0010749	589.19	4.1781e-05	4.285e-05	687.42	274.65	4.2038e-05	4.2916e-05	346.24	163.85	135.89	72.743	4.2164e-05	83.988	261.776	223.543	243.468	112.104	342.459	342.375	109.708	117.028	247.623	214.404	113.439	117.850	120.862	124.889	289.062	120.789	-8191	255	
1684.479	1	1	0	0	0.12918	0.11738	0.18492	0.22442	0.089751	0.14355	0.196	0.17663	0.093944	0.11807	0.13598	0.26392	0.34229	0.13414	0.32291	0.25571	-2.3604	-3.1708	-2.7271	-2.825	-3.1542	-3.0271	-3.2188	-3.1479	-2.8333	-3.0979	-3.0312	-2.9292	-3.2687	-2.9854	-3.0583	-3.3187	407.609	393.064	342.980	453.462	335.175	400.105	453.176	131.728	316.681	398.287	387.385	444.657	120.788	127.803	341.863	305.649	0.00085829	0.00033968	3.3773e-05	527.47	1.439e-05	1.2487e-05	616.9	250.3	3.1268e-06	5.0217e-06	305.26	149.69	123.83	66.845	7.7785e-06	77.319	0.0034212	0.0038766	0.0010835	586.96	4.1486e-05	4.2734e-05	681.11	273.51	4.1696e-05	4.3009e-05	344.26	162.72	135.4	72.351	4.2976e-05	83.476	267.347	247.283	198.475	112.240	315.830	303.503	109.950	117.118	389.365	279.025	113.624	117.661	120.894	124.724	214.950	120.866	-8191	255	
1684.550	1	1	0	0	0.17546	0.27934	0.016686	0.14131	0.076364	0.18077	0.1092	0.10013	0.20472	0.19458	0.13437	0.15794	0.018512	0.18	0.15196	0.26546	-2.4021	-3.0229	-2.7729	-2.9625	-3.0854	-2.9583	-2.9021	-3.1583	-2.8937	-3.0354	-3.1083	-2.95	-3.2208	-3.0042	-2.9188	-3.1208	240.288	290.562	339.814	388.414	145.253	441.947	138.523	388.800	312.323	367.825	278.612	433.527	427.112	408.935	398.019	305.105	0.00086678	0.00098482	5.5706e-05	529.29	6.6945e-06	8.9042e-06	617.98	248.85	1.9382e-06	7.4519e-06	304.86	149.84	123.76	66.934	1.0565e-05	77.258	0.0034928	0.0039976	0.0011232	589.76	4.2593e-05	4.4059e-05	682.84	273.47	4.2438e-05	4.3655e-05	344.62	162.43	135.29	72.308	4.3498e-05	83.516	268.170	204.816	447.704	112.124	256.117	174.319	110.130	117.050	292.871	238.716	113.557	117.711	120.695	124.720	308.710	120.875	-8191	255	
1684.647	1	1	0	0	0.19119	0.17807	0.26204	0.24227	0.048697	0.0094278	0.21036	0.20756	0.28361	0.18214	0.10131	0.1122	0.22898	0.06472	0.13071	0.21583	-2.3854	-2.8833	-2.8125	-2.7812	-3.1167	-3.0458	-2.8896	-3.1771	-3.0438	-3.2146	-3.1979	-2.925	-3.2458	-3.0771	-2.7854	-3.4021	146.179	221.466	125.922	290.310	263.261	310.117	313.389	347.139	287.433	450.016	195.045	367.603	370.152	444.417	239.470	413.218	0.00088752	0.00049446	0.00024971	526.46	2.2119e-06	1.3247e-05	620.56	250.34	7.5839e-06	8.5842e-06	304.69	151.08	123.71	66.945	1.2407e-05	77.501	0.0034665	0.0039924	0.0011155	588.91	4.2637e-05	4.3978e-05	684.46	273.8	4.2834e-05	4.4585e-05	346.36	163.67	135.93	72.564	4.4847e-05	83.786	259.388	141.997	227.392	112.034	100.011	259.831	109.926	117.130	293.290	222.432	113.612	117.754	120.760	124.685	214.990	121.010	-8191	255	
1684.743	1	1	0	0	0.10636	0.053774	0.14518	0.14779	0.19272	0.31692	0.22592	0.23005	0.14903	0.072406	0.075588	0.017899	0.3235	0.1426	0.13641	0.16125	-2.475	-2.7562	-3.1937	-2.8917	-3.0146	-3.0104	-2.9271	-3.2021	-2.8271	-2.9188	-3.0604	-2.9271	-3.2542	-3.1542	-2.8083	-3.1229	132.505	228.892	299.651	199.188	121.290	350.517	441.881	392.959	162.934	329.388	440.178	176.325	441.261	102.089	374.187	400.045	0.00090992	0.00041522	0.00025955	524.76	6.9491e-06	3.8134e-06	619.06	248.52	7.9342e-06	5.94e-06	302.62	149.52	123.28	66.549	1.4345e-05	76.725	0.0035868	0.0041289	0.0011575	588.04	4.3598e-05	4.5329e-05	683.91	273.17	4.3702e-05	4.5575e-05	343.93	162.45	135.24	72.316	4.5205e-05	83.338	262.354	241.827	244.972	112.056	268.766	212.936	109.770	117.150	272.948	220.488	113.364	117.771	120.554	124.714	236.603	120.886	-8191	255	
1684.863	1	1	0	0	0.15878	0.21781	0.036613	0.11802	0.29501	0.33623	0.11532	0.11636	0.076452	0.20941	0.13031	0.073888	0.093551	0.18317	0.10175	0.19263	-2.6229	-3.0292	-3.1208	-2.9208	-3.0625	-3.2438	-2.9729	-3.2562	-3.1	-2.8667	-3.2854	-2.9479	-3.1333	-3.1583	-2.9292	-3.2479	124.755	352.539	130.879	123.762	169.325	406.290	389.590	269.592	326.613	99.152	456.359	447.758	200.642	422.818	122.856	382.502	0.0009245	0.00095434	0.00024957	525.2	8.592e-06	4.3174e-06	618.03	248.24	2.2891e-06	5.7662e-06	303.95	149.08	123.11	66.629	7.346e-06	77.205	0.0036239	0.0041855	0.0011682	588.87	4.4227e-05	4.5975e-05	683.42	273.06	4.386e-05	4.5804e-05	344.64	162.17	135.06	72.257	4.4788e-05	83.507	261.938	177.350	190.006	111.899	221.008	273.599	109.966	117.129	410.631	232.714	113.695	117.753	120.909	124.856	251.723	120.802	-8191	255	
1684.959	1	1	0	0	0.076586	0.16264	0.33502	0.067461	0.073947	0.030485	0.20761	0.25365	0.19362	0.084352	0.011354	0.17826	0.18404	0.31687	0.20726	0.068437	-2.5604	-2.825	-3.0979	-2.925	-2.9521	-3.0312	-2.8833	-3.0792	-3.0083	-2.9375	-3.2979	-2.9062	-3.1729	-3.3625	-2.7854	-3.3354	277.453	448.301	196.600	313.392	321.814	395.186	441.407	431.909	434.096	362.210	105.254	399.183	345.808	388.665	324.533	172.842	0.00091344	0.00042513	0.00031703	525.24	9.3806e-06	8.6542e-06	617.89	248.85	3.1099e-06	6.4219e-06	306.28	150.64	123.29	66.871	5.4101e-06	77.944	0.003598	0.0041341	0.0011562	587.44	4.3997e-05	4.5608e-05	683.75	273.48	4.4404e-05	4.5992e-05	347.08	163.7	135.77	72.574	4.5345e-05	84.184	256.746	105.444	184.287	111.933	302.491	283.268	110.005	116.947	350.379	265.419	113.614	117.879	120.771	124.793	264.855	120.756	-8191	255	
1685.056	1	1	0	0	0.23429	0.23439	0.21055	0.25028	0.10907	0.12457	0.083467	0.11229	0.13458	0.022574	0.10207	0.16343	0.32024	0.066848	0.097774	0.29743	-2.6437	-2.7958	-3.1333	-2.9437	-2.9167	-3.2771	-3.0625	-3.2396	-3.0833	-2.9854	-3.1875	-3.1333	-2.8187	-3.2979	-3.0146	-3.1458	323.955	294.708	312.376	139.617	355.844	324.212	166.725	122.140	160.684	115.854	153.966	407.856	117.092	102.546	368.956	372.451	0.00095043	0.0012474	0.00021131	525.5	1.0829e-05	8.835e-06	619.85	249.5	8.2758e-06	4.4523e-06	307.23	151.24	123.87	67.39	7.7318e-06	78.111	0.0036705	0.0041978	0.0011618	589.25	4.4416e-05	4.5855e-05	685.54	274.02	4.3936e-05	4.5399e-05	347.98	164.41	136.08	72.821	4.4279e-05	84.498	264.845	185.780	199.391	111.769	285.827	232.640	109.965	116.930	335.476	262.200	113.655	117.926	120.785	124.882	172.598	120.988	-8191	255	
1685.176	1	1	0	0	0.27385	0.15937	0.13113	0.18439	0.11221	0.26618	0.057525	0.23854	0.24007	0.1092	0.27184	0.34974	0.12847	0.36627	0.14814	0.27365	-2.6813	-2.8125	-3.0812	-3.2667	-3.0062	-3.1042	-2.9146	-3.1021	-3.3583	-2.9604	-3.2667	-3.175	-2.9771	-3.1917	-2.8479	-3.1854	361.847	365.389	195.495	410.531	192.547	222.782	304.911	345.062	301.485	392.539	437.639	432.537	386.798	414.901	193.223	226.245	0.00083023	0.00096756	0.00023188	527.37	4.1926e-06	1.2255e-05	623.97	249.69	7.952e-06	1.2421e-05	308.98	151.83	124.12	66.985	1.1798e-05	78.608	0.0035971	0.0041006	0.0011423	589.48	4.382e-05	4.4908e-05	689.31	274.39	4.3795e-05	4.4958e-05	349.22	164.86	136.1	72.796	4.4036e-05	84.914	262.239	176.527	120.652	112.241	276.076	310.460	110.177	117.037	277.284	215.688	113.356	117.793	120.792	124.915	261.616	120.941	-8191	255	
1685.248	1	1	0	0	0.13097	0.11692	0.19563	0.08075	0.22475	0.12108	0.11376	0.19329	0.1075	0.23155	0.32181	0.21873	0.10847	0.33508	0.041727	0.39002	-2.7042	-2.8063	-3.2667	-2.9875	-3.0271	-3.0812	-2.95	-3.0417	-3.1625	-2.9688	-3.2646	-3.0958	-3.1188	-3.2979	-2.9229	-3.0187	409.779	384.413	266.367	208.138	318.615	246.890	203.599	388.207	101.098	347.442	370.331	444.934	369.184	390.340	410.922	391.989	0.00088743	0.00099588	6.4655e-05	528.43	4.8596e-06	1.7847e-05	622.31	250.24	2.0381e-06	4.7005e-06	307.11	150.72	123.06	66.772	7.4477e-06	77.784	0.0036271	0.0041222	0.0011455	591.84	4.4096e-05	4.5391e-05	690.45	274.38	4.4118e-05	4.5318e-05	347.28	163.64	135.4	72.415	4.4393e-05	84.128	256.689	191.014	447.888	112.099	403.725	251.809	109.867	117.077	285.467	110.026	113.430	117.905	120.772	125.028	305.634	120.929	-8191	255	
1685.344	1	1	0	0	0.08236	0.18431	0.14721	0.14673	0.12736	0.22827	0.13845	0.24178	0.20265	0.087166	0.2177	0.10994	0.049922	0.15993	0.1188	0.17475	-2.7104	-2.8146	-2.9542	-3.1396	-2.9604	-3.2417	-2.8854	-3.0208	-3.2375	-2.8667	-3.3917	-3.1354	-2.8896	-3.2438	-3.0792	-3.1854	350.459	104.160	294.405	140.470	438.196	269.445	354.927	280.078	397.320	153.840	115.268	405.357	157.449	407.183	243.231	419.639	0.00097825	0.00035527	0.00025605	524.87	3.2017e-06	7.2928e-06	617.85	248.65	9.7158e-06	1.5879e-06	303.81	149.46	123.27	66.549	1.1701e-05	77.23	0.0036021	0.0041249	0.0011508	588.32	4.4273e-05	4.5338e-05	683.36	273.5	4.4333e-05	4.5245e-05	345.31	162.98	135.39	72.233	4.4805e-05	83.674	263.613	440.737	163.311	111.958	279.705	255.110	109.707	117.070	254.019	283.497	113.437	117.774	120.707	124.836	257.611	120.820	-8191	255	
1685.463	1	1	0	0	0.22901	0.10892	0.16226	0.14367	0.19538	0.10045	0.15298	0.045937	0.071786	0.224	0.29464	0.27197	0.16593	0.18327	0.10275	0.23795	-2.9562	-2.9521	-3.0729	-3.1646	-2.8125	-3.0104	-2.9917	-3.0208	-3.1833	-2.9542	-3.1	-3.1271	-2.675	-3.2229	-3.0812	-3.0667	446.449	282.778	336.031	148.458	430.637	373.282	427.243	426.753	447.977	398.306	454.697	443.020	396.193	298.755	384.621	436.037	0.00085208	0.00053518	0.00029267	527.63	5.2213e-06	6.6961e-06	617.27	248.74	6.9124e-06	9.8678e-06	303.29	148.66	122.4	66.445	1.3352e-05	77.078	0.003611	0.0041323	0.0011565	590.06	4.4467e-05	4.5603e-05	684.07	272.82	4.4567e-05	4.6062e-05	344.07	161.92	134.53	72.107	4.5901e-05	83.496	263.957	142.179	212.602	111.789	281.552	207.728	109.816	117.054	264.921	198.367	113.388	117.799	120.647	124.966	335.761	121.037	-8191	255	
1685.559	1	1	0	0	0.20688	0.14812	0.26483	0.017824	0.11391	0.1415	0.12739	0.047278	0.23755	0.11137	0.41966	0.050842	0.16098	0.17738	0.088821	0.21492	-2.7854	-2.9083	-2.9521	-3.0729	-2.7146	-3.3083	-3.2875	-2.8958	-3.1417	-2.9417	-3.0187	-3.3396	-2.825	-3.075	-2.8542	-3	194.735	452.030	202.727	318.680	352.468	424.406	453.644	209.852	425.155	432.865	423.825	125.857	407.888	133.353	380.947	324.408	0.00084747	0.00082388	0.00021892	523.22	5.7126e-06	9.4121e-06	613.47	247.47	4.0385e-06	8.3614e-07	303.53	149.1	122.05	66.368	1.5867e-06	77.627	0.0036918	0.0042124	0.0011813	587.4	4.4245e-05	4.5184e-05	681.37	271.64	4.3361e-05	4.4914e-05	343.91	161.98	134.16	72.142	4.454e-05	83.929	264.704	155.143	147.351	112.289	275.529	280.673	109.833	117.122	238.531	301.586	113.640	117.820	120.780	124.868	112.915	121.034	-8191	255	
1685.655	1	1	0	0	0.13356	0.23067	0.142	0.2953	0.18238	0.18782	0.12364	0.22934	0.18794	0.19342	0.18754	0.24449	0.14256	0.17035	0.12768	0.086773	-2.7667	-2.9417	-2.9562	-3.2646	-2.7188	-3.2917	-3.1292	-3.0229	-3.2062	-3.1083	-2.875	-3.2708	-2.95	-3.1417	-3.0271	-2.8563	353.252	426.592	374.651	133.749	216.281	375.864	404.084	431.479	444.660	227.770	335.750	389.660	435.605	442.307	165.437	242.084	0.00079934	0.00040823	0.00022212	523.82	8.4604e-06	1.0426e-05	617.63	247.08	3.8395e-06	8.1929e-06	302.27	149.53	122.05	66.327	1.1528e-05	77.082	0.0035765	0.0041061	0.0011508	588.38	4.3507e-05	4.5093e-05	683.8	271.61	4.3573e-05	4.4989e-05	344.08	162.13	134.01	71.93	4.5376e-05	83.481	264.058	146.386	117.281	111.978	271.322	214.245	109.683	117.019	245.383	248.072	113.357	118.034	120.898	125.017	232.102	120.871	-8191	255	
1685.751	1	1	0	0	0.085382	0.10785	0.22422	0.067751	0.0019579	0.21974	0.072094	0.20839	0.096078	0.15882	0.12863	0.074533	0.37676	0.050846	0.12716	0.18627	-2.5521	-2.9313	-2.8583	-3.1396	-2.8083	-3.1063	-3.2938	-2.8104	-3.0958	-3.0208	-2.8146	-3.1562	-2.9792	-2.9958	-3.1937	-3.0958	362.345	253.702	290.692	393.465	180.000	438.963	350.333	159.131	146.072	161.446	155.523	419.014	429.023	124.432	328.341	336.338	0.00082501	0.00079912	0.00010958	527.01	1.138e-05	5.9476e-06	613.07	246.95	3.7195e-06	9.3111e-06	300.22	147.5	120.98	66.297	8.8439e-06	77.024	0.0036301	0.0042277	0.0011818	589.74	4.4923e-05	4.6215e-05	683.41	271.09	4.4564e-05	4.6426e-05	341.28	160.47	133.26	71.839	4.4692e-05	83.267	261.097	183.769	133.308	112.104	281.891	234.462	109.769	117.202	249.723	277.111	113.366	117.900	120.974	124.755	245.134	120.858	-8191	255	
1685.848	1	1	0	0	0.26945	0.036632	0.33562	0.096106	0.13678	0.10764	0.22275	0.32523	0.13107	0.14122	0.20262	0.27331	0.172	0.19785	0.033909	0.18749	-2.6792	-3.0625	-2.9188	-3.2292	-2.8125	-2.9	-3.1042	-2.8583	-3.0521	-3.1625	-2.9938	-3.3042	-3.0521	-2.9125	-3.2042	-3.1042	452.890	286.830	375.694	118.487	437.283	133.946	331.962	431.275	244.090	249.328	116.890	390.036	444.033	403.880	451.673	114.316	0.00087541	0.00074158	0.00023776	526.05	1.8623e-06	5.4637e-06	617.39	246.35	1.6111e-06	7.886e-06	301.21	147.78	121.05	66.306	9.4608e-06	77.304	0.0036295	0.0041841	0.0011749	588.73	4.4773e-05	4.6243e-05	683.99	270.36	4.4534e-05	4.6213e-05	342.89	160.83	133.27	71.975	4.5283e-05	83.542	260.003	421.353	214.782	111.935	360.565	442.247	109.969	117.082	169.506	205.459	113.556	117.966	120.865	124.826	287.183	120.816	-8191	255	
1685.944	1	1	0	0	0.16389	0.11498	0.25945	0.15839	0.22438	0.11006	0.16322	0.11591	0.17913	0.031088	0.38125	0.098432	0.30559	0.25679	0.16379	0.26609	-2.7979	-3.1	-2.9333	-3.2292	-2.9833	-2.8521	-3.2125	-2.8896	-3.0938	-3.2458	-3.0125	-3.0771	-3.125	-3.1458	-3.0604	-2.9729	296.277	373.652	180.253	379.790	215.138	426.491	229.281	159.434	397.766	398.100	147.933	114.416	397.342	117.843	167.513	406.730	0.0009187	0.00048749	0.00011142	526.94	8.0131e-06	1.1066e-05	619.62	246.82	7.9998e-06	5.947e-06	301.21	147.76	120.83	66.382	2.8973e-06	77.158	0.0036503	0.0041943	0.0011679	589.68	4.4337e-05	4.6106e-05	684.5	270.43	4.4441e-05	4.6239e-05	342.21	160.71	132.95	71.971	4.6013e-05	83.746	257.563	430.040	401.555	112.083	229.471	250.242	109.894	117.315	263.171	212.768	113.351	118.030	120.915	124.953	289.342	121.103	-8191	255	
1686.040	1	1	0	0	0.31997	0.082236	0.045961	0.35048	0.15591	0.22628	0.19604	0.28544	0.15971	0.11206	0.42932	0.1615	0.08931	0.24791	0.11581	0.30045	-2.5417	-3.0708	-2.5958	-3.1417	-2.9917	-2.8521	-3.2417	-2.8896	-2.7354	-3.0812	-2.8563	-3.0875	-3.0812	-2.9333	-3.0979	-3.0208	153.733	112.195	429.148	101.105	370.890	131.749	235.641	119.348	375.905	157.242	332.068	294.692	439.182	439.746	272.746	343.980	0.00082506	0.00029236	9.3062e-05	524.51	4.7635e-06	9.424e-06	620.85	245.83	4.7866e-06	1.0611e-05	301.82	147.83	121.35	66.522	6.3894e-06	77.673	0.0037332	0.0042752	0.0011871	590.81	4.5699e-05	4.7173e-05	688	270.63	4.5492e-05	4.7001e-05	343.33	161.55	133.53	72.3	4.5754e-05	84.316	260.153	232.144	235.691	112.076	267.761	294.271	109.775	117.231	304.549	237.979	113.561	118.154	120.784	124.901	311.538	120.861	-8191	255	
1686.136	1	1	0	0	0.029779	0.073012	0.042001	0.21053	0.39389	0.1948	0.019078	0.26669	0.30984	0.22136	0.035202	0.092089	0.11194	0.1889	0.087879	0.12206	-2.3563	-3.1271	-2.6937	-3.0583	-3.0979	-2.8854	-3.3458	-3.0312	-2.8708	-2.9271	-2.9875	-3.2854	-2.9292	-2.8833	-3.1479	-3.0771	204.666	442.837	346.435	430.400	128.805	397.432	390.797	401.455	295.156	185.318	252.003	102.113	183.583	153.340	188.376	363.201	0.00087777	0.0009629	5.3534e-05	528.3	3.8849e-06	1.0783e-05	618.45	245.32	6.111e-06	1.2404e-05	302.35	148.76	120.46	66.178	9.0881e-06	76.819	0.0037201	0.004275	0.0011859	591.3	4.593e-05	4.7413e-05	687.52	271.2	4.5799e-05	4.7456e-05	344.53	161.5	133.05	71.867	4.6877e-05	83.55	258.567	161.797	196.625	111.913	261.010	227.722	109.858	117.128	285.967	245.855	113.334	117.857	120.976	125.018	266.571	120.843	-8191	255	
1686.255	1	1	0	0	0.16867	0.22664	0.17839	0.25995	0.27872	0.11209	0.15083	0.060278	0.13665	0.12848	0.24932	0.17712	0.20247	0.10521	0.10104	0.29527	-2.4083	-3.3	-2.7812	-3.1375	-3.3104	-2.8979	-3.1958	-3.0312	-2.9813	-3.0167	-3.1458	-3.2229	-3.2708	-2.8542	-2.8521	-3.2396	143.006	180.956	419.164	374.696	343.934	451.746	444.362	124.988	255.536	169.926	361.061	181.978	407.058	201.549	299.783	401.412	0.00088015	0.00033337	0.00023342	525.86	1.4511e-06	5.5566e-06	615.38	241.86	1.2127e-05	6.27e-06	293.48	143.8	118.13	65.113	5.4649e-06	75.41	0.0038015	0.0043565	0.0012102	592.8	4.7258e-05	4.8593e-05	684.84	268.05	4.76e-05	4.898e-05	337.51	157.5	130.92	70.903	4.7294e-05	82.13	263.585	292.146	166.889	112.002	143.656	139.745	110.055	117.147	307.482	243.130	113.421	118.025	120.884	124.856	282.918	121.040	-8191	255	
1686.351	1	1	0	0	0.15765	0.096699	0.17199	0.028515	0.21096	0.14778	0.075615	0.17825	0.19616	0.10902	0.20884	0.15692	0.10462	0.20817	0.28697	0.11168	-2.3417	-3.175	-2.7396	-3.0667	-3.2562	-2.8104	-3.0646	-3.1271	-2.9167	-3.0938	-3.0542	-2.9417	-2.9708	-2.9896	-3.0958	-3.1188	219.026	100.155	327.736	295.054	107.710	213.488	333.682	429.289	322.714	139.762	153.749	432.513	132.413	133.114	228.935	385.596	0.0008465	0.00052837	0.00014523	524.67	6.746e-06	5.9522e-06	611.39	242.96	4.455e-06	1.0383e-06	297.06	144.46	118.91	65.521	8.7605e-06	76.151	0.0037777	0.0042856	0.0011989	589.84	4.6093e-05	4.7118e-05	679.51	267.63	4.5809e-05	4.7002e-05	338.24	158.15	131.66	71.16	4.7037e-05	82.611	260.041	108.227	160.650	112.046	195.179	329.241	109.786	117.079	264.441	262.871	113.792	117.886	120.816	124.781	271.686	120.946	-8191	255	
1686.424	1	1	0	0	0.15431	0.21985	0.098513	0.22404	0.14455	0.13662	0.18089	0.16422	0.02625	0.080759	0.063742	0.22354	0.20913	0.20314	0.17614	0.14083	-2.2833	-3.1958	-2.9458	-2.9354	-3.1771	-2.9562	-3.1437	-3.4271	-2.6479	-3.2458	-3.0042	-2.9375	-3.0917	-2.9938	-3.1167	-3.0979	121.901	367.155	164.138	425.723	198.112	300.467	427.478	140.338	261.343	223.654	221.036	390.135	427.112	406.818	161.351	447.270	0.00069666	0.0011041	6.7275e-05	521.33	6.4986e-06	1.1306e-05	607.75	242.29	1.3637e-06	9.627e-06	296.6	144.77	118.56	65.395	1.2957e-05	76.029	0.0037964	0.0043645	0.001223	586.44	4.6848e-05	4.8247e-05	677.7	267.24	4.6205e-05	4.7717e-05	338.27	158.05	130.98	71.062	4.6934e-05	82.633	264.617	197.760	249.722	112.145	266.400	167.190	109.735	116.990	321.198	186.580	113.504	117.975	120.961	125.026	225.883	120.890	-8191	255	
1686.543	1	1	0	0	0.10424	0.093752	0.27141	0.10748	0.076237	0.19935	0.28407	0.11473	0.051433	0.042502	0.083595	0.12176	0.080097	0.14404	0.10334	0.094792	-2.6417	-3.0042	-2.875	-2.825	-3.0312	-2.8479	-3.0146	-3.2208	-2.8958	-3.0979	-2.9562	-3.0312	-3.4104	-3.0687	-2.9396	-3.2854	212.015	337.025	161.594	136.519	435.387	167.641	415.685	282.101	102.007	190.924	103.326	420.316	403.305	408.345	377.068	410.393	0.00087553	0.00058359	0.00026464	522.61	5.9196e-06	6.688e-06	609.5	241.43	3.3264e-06	6.0818e-06	296.23	145.36	119.43	65.436	4.3598e-06	76.193	0.0037515	0.0043214	0.0012055	586.77	4.5823e-05	4.7472e-05	677.96	266.93	4.6116e-05	4.7365e-05	339.18	158.83	131.42	71.235	4.7102e-05	82.923	260.775	217.203	229.213	111.608	274.377	270.852	109.921	117.063	309.816	165.815	113.421	117.985	120.847	124.949	303.113	120.953	-8191	255	
1686.639	1	1	0	0	0.23341	0.33813	0.13986	0.182	0.25729	0.1091	0.1789	0.15826	0.15235	0.18008	0.047176	0.14304	0.0098095	0.145	0.129	0.1227	-2.4521	-3.0167	-2.8646	-2.8396	-3.2229	-2.8396	-3.0208	-3.1104	-2.8688	-3.0833	-3.0729	-2.9479	-3.3396	-3.1417	-2.8896	-3.2625	305.769	238.132	316.571	404.378	449.783	254.737	102.315	119.476	411.574	239.220	310.010	444.116	121.661	405.878	373.439	353.793	0.00080859	0.00072564	0.00026593	518.79	8.4595e-06	9.4703e-06	607.07	241.6	8.3993e-06	1.0398e-05	294.76	143.8	117.71	64.784	1.0795e-05	75.332	0.0037805	0.0043632	0.0012197	585.19	4.6228e-05	4.7501e-05	676.09	266.21	4.5139e-05	4.6614e-05	335.65	156.78	129.97	70.425	4.5559e-05	81.768	260.754	214.678	240.053	112.060	251.192	248.291	110.161	117.068	241.501	226.128	113.616	118.010	120.792	125.050	311.382	120.931	-8191	255	
1686.736	1	1	0	0	0.087736	0.1952	0.13395	0.11128	0.033582	0.013247	0.22612	0.33895	0.16023	0.17255	0.07386	0.084666	0.21133	0.044687	0.19712	0.13839	-2.2229	-2.9542	-3.0229	-2.7188	-3.1312	-2.8979	-2.9708	-3.3812	-2.8875	-3.0917	-3.2208	-2.7812	-3.1542	-3.0563	-2.6958	-3.3042	221.739	197.787	133.713	415.380	193.765	212.397	281.009	416.008	408.062	202.332	255.747	269.413	207.259	308.912	362.154	436.340	0.00090949	0.00076628	0.00015469	520.24	9.157e-06	5.308e-06	605.21	241.52	3.6007e-06	7.7053e-06	293.42	143.11	118.33	64.806	1.715e-05	75.237	0.0036653	0.0042146	0.001178	585.13	4.4705e-05	4.6321e-05	672.31	265.33	4.4809e-05	4.617e-05	334.08	156.18	130.23	70.451	4.5388e-05	81.661	257.210	204.104	267.490	111.872	268.650	204.777	109.723	117.359	258.851	257.094	113.447	117.766	120.924	125.056	287.625	121.098	-8191	255	
1686.856	1	1	0	0	0.15689	0.16302	0.10362	0.075591	0.16724	0.10108	0.12916	0.16747	0.03518	0.085993	0.042631	0.17126	0.18973	0.10956	0.091267	0.20035	-2.4771	-2.9125	-3.0375	-2.6188	-3.0979	-3.0271	-2.9042	-3.2979	-2.9146	-3.0021	-3.1562	-2.9146	-3.1583	-3.0229	-2.7417	-3.3187	410.288	106.562	173.010	370.073	418.442	404.508	286.825	128.825	286.222	372.701	404.513	409.326	134.249	148.669	146.806	390.162	0.00081808	0.00066462	0.00011279	518.01	1.1907e-05	7.434e-06	603.81	240.58	7.0448e-06	8.6159e-06	293.77	143.65	118.22	64.748	9.9586e-06	75.271	0.0036419	0.0042021	0.0011675	582.33	4.4544e-05	4.6438e-05	671.97	265.33	4.4677e-05	4.6158e-05	334.56	156.48	130.03	70.387	4.5189e-05	81.687	260.094	213.966	343.081	111.907	261.735	210.223	109.867	117.003	215.285	200.501	113.398	117.960	120.795	124.873	261.208	120.805	-8191	255	
1686.952	1	1	0	0	0.2581	0.17262	0.17935	0.20162	0.081263	0.18387	0.23278	0.15343	0.19703	0.30764	0.058243	0.035815	0.10507	0.1969	0.13248	0.31654	-2.5104	-2.9854	-3.0208	-2.8917	-3.0979	-3.1229	-2.7833	-3.1333	-2.8646	-2.8625	-3.1854	-2.9646	-3.1104	-3.0542	-2.7667	-3.3771	123.017	408.323	283.162	107.256	360.869	202.201	443.370	436.557	443.728	249.734	402.381	368.639	198.139	110.941	196.570	433.538	0.00089475	0.00076939	0.00018391	517.3	4.1143e-06	5.954e-06	604.68	238.78	7.2212e-06	1.0388e-05	294.16	143	117.04	64.607	2.1097e-05	75.155	0.0036322	0.0041891	0.0011707	581.23	4.4858e-05	4.6346e-05	672.29	263.88	4.5184e-05	4.6678e-05	334.54	155.8	129.39	70.262	4.59e-05	81.595	267.225	124.034	192.343	112.008	264.711	155.122	110.069	116.922	289.265	236.863	113.547	118.013	120.997	124.835	250.877	120.808	-8191	255	
1687.049	1	1	0	0	0.098565	0.050887	0.17042	0.08261	0.16243	0.12804	0.32186	0.15809	0.15427	0.074589	0.040162	0.22714	0.062777	0.2224	0.10349	0.1619	-2.5417	-2.7979	-3.1083	-2.9125	-2.9292	-3.1771	-2.7646	-3.2062	-3.2208	-2.7562	-3.2479	-2.9021	-2.95	-3.2833	-2.7792	-3.0479	313.704	296.931	165.195	152.745	403.790	231.847	378.733	398.484	100.715	203.396	163.102	432.795	226.994	374.075	271.696	202.150	0.00089977	0.0012393	0.00019913	516.73	1.3859e-05	4.4705e-06	606.16	239.22	4.9281e-06	6.0565e-06	294.13	144.39	117.43	64.842	1.0494e-05	75.528	0.0036997	0.0042448	0.0011736	582.92	4.4739e-05	4.6322e-05	673.55	264.37	4.4678e-05	4.598e-05	334.41	156.79	129.93	70.475	4.5835e-05	81.967	262.009	175.212	113.066	112.183	321.954	194.517	109.951	117.202	281.349	234.696	113.481	117.856	120.854	124.895	331.335	120.916	-8191	255	
1687.145	1	1	0	0	0.23	0.018953	0.21614	0.082482	0.1633	0.16802	0.082709	0.34167	0.22545	0.26677	0.12574	0.10721	0.36481	0.19575	0.13619	0.30187	-2.575	-2.7812	-2.9813	-3.0438	-2.8125	-3.0271	-2.8458	-3.0333	-3.1	-2.8104	-3.1875	-2.9	-2.9125	-3.3438	-2.8063	-3.0792	132.555	173.495	398.696	196.509	214.877	433.019	362.792	407.963	425.182	150.574	352.074	423.955	110.111	442.569	335.108	448.992	0.00093749	0.0015055	2.5068e-05	514.56	1.3016e-06	3.8762e-06	599.58	241.17	6.5982e-06	6.0774e-06	294.87	144.43	119.13	65.176	9.7012e-06	75.315	0.0037124	0.0042773	0.0011872	580.48	4.5565e-05	4.6824e-05	667.88	265.26	4.5113e-05	4.6183e-05	334.57	157.31	131.12	70.782	4.5038e-05	81.807	266.315	212.990	288.734	112.103	105.519	268.835	109.530	117.068	290.564	125.254	113.528	117.870	120.682	125.067	260.065	120.806	-8191	255	
1687.241	1	1	0	0	0.075773	0.11677	0.3149	0.18828	0.077438	0.10566	0.2364	0.074232	0.085439	0.17716	0.33042	0.13865	0.22408	0.15032	0.11654	0.19205	-2.5938	-2.8167	-2.7771	-2.9813	-2.7646	-3.0417	-3.0125	-3.0187	-3.0333	-2.7167	-3.1688	-3.0563	-2.8771	-3.2313	-2.9792	-3.1792	422.794	238.447	184.488	411.534	216.342	408.460	239.526	417.845	103.222	425.489	164.278	114.078	361.801	450.850	430.781	449.014	0.00073264	0.00045877	0.00016601	512.65	3.683e-06	1.0164e-05	599.33	241.79	8.9864e-06	4.3166e-06	295.51	145	119.63	65.366	8.6419e-06	76.16	0.003663	0.004191	0.001164	577.02	4.475e-05	4.5408e-05	666.1	266	4.4306e-05	4.5797e-05	335.82	158.39	131.69	70.958	4.5077e-05	82.372	261.889	177.760	175.980	112.035	292.004	251.980	109.881	117.036	268.609	236.687	113.662	117.802	120.728	124.825	280.462	121.064	-8191	255	
#DATA ENDS
