BOXY.EXE: ISS Imagent and Oximeter Data Acquisition Program Version 0.80
Ascii Record File

#ACQ INFORMATION
2  Detector Channels 
16  External MUX Channels 
1  Auxiliary Channels 
5000  Waveform (CCF) Frequency (Hz)
1  Waveforms Skipped 
30  Waveforms Averaged 
1  Cycles Averaged 
16  Acquisitions per Waveform 
10.0806  Updata Rate (Hz) 

#FILE INFORMATION
TRUE -- External MUX Channel results are PARSED.
FALSE -- AC DC and Phase are NOT grouped.
TRUE -- Companion Program Settings File CREATED.
FALSE -- AC data not excluded
FALSE -- DC data not excluded
FALSE -- Phase data not excluded
FALSE -- Auxillary Chn. data not excluded
Tab delimiters

#CALIBRATION STATE
TRUE -- Waveform Calibration Values APPLIED.


#AUX CALIBRATION VALUES
Val Type	aux-1	

Term	1.0000e+00	
Factor	0.0000e+00	


#WF CALIBRATION VALUES
A = Detector Channel
Val Type	A-AC1	A-AC2	A-AC3	A-AC4	A-AC5	A-AC6	A-AC7	A-AC8	A-AC9	A-AC10	A-AC11	A-AC12	A-AC13	A-AC14	A-AC15	A-AC16	A-DC1	A-DC2	A-DC3	A-DC4	A-DC5	A-DC6	A-DC7	A-DC8	A-DC9	A-DC10	A-DC11	A-DC12	A-DC13	A-DC14	A-DC15	A-DC16	A-Ph1	A-Ph2	A-Ph3	A-Ph4	A-Ph5	A-Ph6	A-Ph7	A-Ph8	A-Ph9	A-Ph10	A-Ph11	A-Ph12	A-Ph13	A-Ph14	A-Ph15	A-Ph16	

Term	0.00000e+00	0.00000e+00	0.00000e+00	0.00000e+00	0.00000e+00	0.00000e+00	0.00000e+00	0.00000e+00	0.00000e+00	0.00000e+00	0.00000e+00	0.00000e+00	0.00000e+00	0.00000e+00	0.00000e+00	0.00000e+00	0.00000e+00	0.00000e+00	0.00000e+00	0.00000e+00	0.00000e+00	0.00000e+00	0.00000e+00	0.00000e+00	0.00000e+00	0.00000e+00	0.00000e+00	0.00000e+00	0.00000e+00	0.00000e+00	0.00000e+00	0.00000e+00	0.00000e+00	0.00000e+00	0.00000e+00	0.00000e+00	0.00000e+00	0.00000e+00	0.00000e+00	0.00000e+00	0.00000e+00	0.00000e+00	0.00000e+00	0.00000e+00	0.00000e+00	0.00000e+00	0.00000e+00	0.00000e+00	
Factor	1.00000e+00	1.00000e+00	1.00000e+00	1.00000e+00	1.00000e+00	1.00000e+00	1.00000e+00	1.00000e+00	1.00000e+00	1.00000e+00	1.00000e+00	1.00000e+00	1.00000e+00	1.00000e+00	1.00000e+00	1.00000e+00	1.00000e+00	1.00000e+00	1.00000e+00	1.00000e+00	1.00000e+00	1.00000e+00	1.00000e+00	1.00000e+00	1.00000e+00	1.00000e+00	1.00000e+00	1.00000e+00	1.00000e+00	1.00000e+00	1.00000e+00	1.00000e+00	X	X	X	X	X	X	X	X	X	X	X	X	X	X	X	X	

B = Detector Channel
Val Type	B-AC1	B-AC2	B-AC3	B-AC4	B-AC5	B-AC6	B-AC7	B-AC8	B-AC9	B-AC10	B-AC11	B-AC12	B-AC13	B-AC14	B-AC15	B-AC16	B-DC1	B-DC2	B-DC3	B-DC4	B-DC5	B-DC6	B-DC7	B-DC8	B-DC9	B-DC10	B-DC11	B-DC12	B-DC13	B-DC14	B-DC15	B-DC16	B-Ph1	B-Ph2	B-Ph3	B-Ph4	B-Ph5	B-Ph6	B-Ph7	B-Ph8	B-Ph9	B-Ph10	B-Ph11	B-Ph12	B-Ph13	B-Ph14	B-Ph15	B-Ph16	

Term	0.00000e+00	0.00000e+00	0.00000e+00	0.00000e+00	0.00000e+00	0.00000e+00	0.00000e+00	0.00000e+00	0.00000e+00	0.00000e+00	0.00000e+00	0.00000e+00	0.00000e+00	0.00000e+00	0.00000e+00	0.00000e+00	0.00000e+00	0.00000e+00	0.00000e+00	0.00000e+00	0.00000e+00	0.00000e+00	0.00000e+00	0.00000e+00	0.00000e+00	0.00000e+00	0.00000e+00	0.00000e+00	0.00000e+00	0.00000e+00	0.00000e+00	0.00000e+00	-4.24325e+01	-1.27480e+02	-1.29113e+02	-1.83247e+02	-3.31036e+01	-6.42020e+01	-1.56812e+02	-1.62015e+02	-3.27297e+01	-6.89849e+01	-1.75831e+02	-1.71950e+02	-1.80238e+02	-1.77035e+02	-4.28051e+01	-1.49655e+02	
Factor	2.34302e-05	1.84395e-04	5.28880e-05	1.78417e-01	1.82338e-06	2.35056e-06	2.06794e-01	6.19505e-02	1.44642e-06	2.13698e-06	1.21363e-01	3.46114e-02	3.06045e-02	1.06869e-02	2.17603e-06	1.56232e-02	5.23884e-06	6.25852e-06	1.74260e-06	8.57108e-02	6.65713e-08	6.86765e-08	9.29982e-02	2.98139e-02	6.64213e-08	6.86137e-08	5.63353e-02	1.61712e-02	1.48215e-02	5.17988e-03	6.74619e-08	7.31005e-03	X	X	X	X	X	X	X	X	X	X	X	X	X	X	X	X	



#DISTANCE SETTINGS
A = Detector Channel
A-1	A-2	A-3	A-4	A-5	A-6	A-7	A-8	A-9	A-10	A-11	A-12	A-13	A-14	A-15	A-16	

2.5000e+00	3.0000e+00	2.5000e+00	3.0000e+00	2.0000e+00	3.0000e+00	1.5000e+00	3.0000e+00	3.0000e+00	3.0000e+00	3.0000e+00	3.0000e+00	3.0000e+00	3.0000e+00	1.5000e+00	3.0000e+00	

B = Detector Channel
B-1	B-2	B-3	B-4	B-5	B-6	B-7	B-8	B-9	B-10	B-11	B-12	B-13	B-14	B-15	B-16	

1.0000e+01	1.0000e+01	1.0000e+01	1.4400e+00	1.0000e+01	1.0000e+01	1.5100e+00	1.9400e+00	1.0000e+01	1.0000e+01	1.9900e+00	2.4900e+00	2.4100e+00	2.9000e+00	1.0000e+01	2.9800e+00	




#DATA BEGINS
time	group	step	mark	flag	A-AC1	A-AC2	A-AC3	A-AC4	A-AC5	A-AC6	A-AC7	A-AC8	A-AC9	A-AC10	A-AC11	A-AC12	A-AC13	A-AC14	A-AC15	A-AC16	A-DC1	A-DC2	A-DC3	A-DC4	A-DC5	A-DC6	A-DC7	A-DC8	A-DC9	A-DC10	A-DC11	A-DC12	A-DC13	A-DC14	A-DC15	A-DC16	A-Ph1	A-Ph2	A-Ph3	A-Ph4	A-Ph5	A-Ph6	A-Ph7	A-Ph8	A-Ph9	A-Ph10	A-Ph11	A-Ph12	A-Ph13	A-Ph14	A-Ph15	A-Ph16	B-AC1	B-AC2	B-AC3	B-AC4	B-AC5	B-AC6	B-AC7	B-AC8	B-AC9	B-AC10	B-AC11	B-AC12	B-AC13	B-AC14	B-AC15	B-AC16	B-DC1	B-DC2	B-DC3	B-DC4	B-DC5	B-DC6	B-DC7	B-DC8	B-DC9	B-DC10	B-DC11	B-DC12	B-DC13	B-DC14	B-DC15	B-DC16	B-Ph1	B-Ph2	B-Ph3	B-Ph4	B-Ph5	B-Ph6	B-Ph7	B-Ph8	B-Ph9	B-Ph10	B-Ph11	B-Ph12	B-Ph13	B-Ph14	B-Ph15	B-Ph16	aux-1	digaux	

1317.085	1	1	0	512	0.052163	0.071014	0.12085	0.10033	0.14167	0.18354	0.13187	0.10426	0.21023	0.12305	0.045178	0.23438	0.15834	0.082401	0.16281	0.31343	-2.4917	-3.0917	-3.1708	-3.1208	-3.3375	-2.8917	-3.1646	-3.4208	-2.8854	-3.4188	-3.2687	-3.0292	-3.2521	-3.1958	-2.9875	-3.3812	-70.796	80.991	170.183	250.474	168.930	-56.069	260.873	224.847	266.273	-70.113	14.628	242.229	252.569	-72.214	275.611	202.626	0.00033653	0.00032201	0.00027562	747.08	5.6187e-06	7.9986e-06	1055.8	309.62	3.8353e-06	5.2957e-06	485.67	186.48	122.63	72.151	4.6215e-06	108.63	0.00045698	0.00041864	0.00012034	661.28	4.5063e-06	4.5339e-06	925.69	276.02	4.6164e-06	4.5065e-06	427.92	165.94	110.75	65.219	4.7024e-06	96.632	256.646	48.280	-7.762	-62.256	79.686	77.102	-64.010	-56.280	121.439	70.229	-59.795	-54.665	-51.179	-45.545	79.127	-50.325	-8191	255	
1317.180	1	1	0	0	0.34494	0.0046178	0.27883	0.047706	0.14603	0.18258	0.1616	0.10966	0.11103	0.22991	0.033993	0.23351	0.083795	0.47615	0.31877	0.16865	-2.5687	-3.1437	-2.9208	-3.1146	-3.3187	-3.0687	-3.0958	-3.1146	-2.9979	-3.2667	-3.2333	-2.9479	-3.2125	-3.0229	-2.8604	-3.4583	32.751	249.277	30.214	-69.693	69.821	153.813	261.386	268.274	185.542	39.158	-15.028	9.753	109.470	-38.887	190.624	212.004	0.00031004	0.00078001	9.8059e-05	740.92	5.5284e-06	9.7482e-06	1036.1	304.98	4.8243e-06	9.8472e-06	476.18	180.09	121.1	71.114	4.7959e-06	106.68	0.000454	0.00041939	0.00011602	654.48	4.4202e-06	4.471e-06	912.95	271.42	4.3048e-06	4.4832e-06	419.18	160.44	108.68	64.206	4.5472e-06	94.827	252.534	28.159	31.676	-62.692	116.686	91.559	-64.239	-56.230	86.527	89.772	-59.944	-54.951	-51.223	-45.802	77.409	-50.657	-8191	255	
1317.276	1	1	0	0	0.2751	0.047338	0.061571	0.24166	0.058734	0.02146	0.15175	0.1675	0.19247	0.37412	0.20796	0.23541	0.24802	0.096328	0.08915	0.16979	-2.6917	-2.8542	-2.9562	-2.8021	-3.3354	-3.1104	-3.1479	-3.0271	-2.8396	-3.1271	-3.3458	-3.1458	-3.3917	-3.2479	-2.7188	-3.5333	232.992	130.641	31.723	223.465	43.019	-29.178	205.938	273.734	172.036	-69.013	277.089	233.927	250.365	102.075	153.026	-74.197	0.00033719	0.00096901	7.8907e-05	741.6	7.1061e-06	9.8859e-06	1037.8	303.96	3.9999e-06	1.0763e-05	474.84	179.74	121.57	70.909	3.6898e-06	106.66	0.00043809	0.00041403	0.0001159	653.33	4.4171e-06	4.4093e-06	909.47	271.02	4.3329e-06	4.5732e-06	419.2	160.31	108.92	64.064	4.6068e-06	94.936	269.272	10.774	39.030	-62.481	98.517	115.885	-64.385	-56.690	154.328	63.394	-60.027	-54.732	-51.209	-45.764	108.707	-50.531	-8191	255	
1317.396	1	1	0	0	0.13382	0.10517	0.11164	0.23856	0.17433	0.16855	0.26526	0.14695	0.25328	0.033715	0.15928	0.15439	0.025777	0.21286	0.11475	0.23198	-2.6188	-2.9667	-2.975	-2.8875	-3.0229	-3.0542	-3.1771	-3.3708	-2.8563	-2.9437	-3.4771	-3.1083	-3.2458	-3.1875	-3.0208	-3.3583	217.195	145.196	56.835	-72.784	-11.862	-61.745	228.716	268.678	51.804	170.365	-66.026	256.188	34.211	273.869	276.734	210.478	0.00031247	0.00053768	0.00027569	737.17	4.5647e-06	9.08e-06	1041.1	308.77	4.9876e-06	8.2608e-06	484.29	183.59	123.57	72.288	7.2109e-06	108.78	0.00045008	0.00039622	0.00011349	652.97	4.4355e-06	4.4854e-06	915.52	275.42	4.542e-06	4.5685e-06	427.84	163.59	111.25	65.342	4.5482e-06	96.916	263.935	-28.067	46.718	-61.856	97.521	73.356	-64.216	-56.318	74.358	52.885	-59.922	-54.813	-50.932	-45.605	124.944	-50.712	-8191	255	
1317.492	1	1	0	0	0.044384	0.059442	0.16377	0.13273	0.16281	0.24028	0.31881	0.21589	0.076551	0.15119	0.075736	0.038888	0.19858	0.36477	0.20396	0.15626	-2.5271	-2.8937	-3.2292	-3.1063	-3.4437	-3.2562	-2.9938	-3.2083	-2.9917	-2.8438	-3.4354	-3.05	-3.2229	-3.4292	-2.8812	-3.2521	163.376	130.445	-35.252	-30.645	128.900	100.265	220.927	93.606	-61.687	215.620	254.455	-30.458	94.521	269.746	141.379	269.740	0.0002974	0.00073087	0.00018737	742.35	6.6792e-06	1.0039e-05	1046.9	314.37	4.2852e-06	9.129e-06	493.21	186.76	124.44	73.285	6.1582e-06	111.53	0.00045481	0.00041799	0.00011463	655.93	4.441e-06	4.4902e-06	920.69	280.33	4.5591e-06	4.5893e-06	433.78	165.93	112.57	66.141	4.6255e-06	98.888	264.135	28.229	41.827	-62.044	125.711	80.908	-64.351	-56.613	100.017	66.770	-60.174	-54.759	-51.095	-45.955	89.654	-50.703	-8191	255	
1317.589	1	1	0	0	0.10225	0.31842	0.20395	0.12473	0.13655	0.11727	0.13965	0.10822	0.10382	0.12743	0.11062	0.29851	0.13219	0.27676	0.15229	0.073096	-2.6125	-3.0812	-3.35	-2.9646	-2.8958	-3.1292	-3.1083	-3.3354	-2.9083	-2.975	-3.2229	-2.9875	-3.1271	-3.3417	-2.9292	-3.4	-51.241	-28.886	270.992	96.453	8.750	-57.286	255.725	187.401	29.676	154.870	114.330	251.016	-60.440	277.813	35.436	136.192	0.00032956	0.00092003	0.00012978	751.78	7.8966e-06	1.1214e-05	1051.5	317.69	3.8637e-06	6.9688e-06	489.97	185.59	124.36	73.183	1.1739e-05	109.98	0.00044707	0.00040869	0.00011386	662.99	4.4859e-06	4.5774e-06	925.67	281.25	4.4711e-06	4.559e-06	432.27	165.07	112.06	66.112	4.4233e-06	97.923	253.254	20.876	-11.701	-62.112	104.929	56.049	-64.361	-56.097	80.253	55.356	-60.004	-54.670	-51.147	-45.755	107.917	-50.674	-8191	255	
1317.660	1	1	0	0	0.23348	0.30021	0.18093	0.27623	0.10043	0.17315	0.21935	0.3332	0.063992	0.14291	0.1993	0.099291	0.10277	0.22293	0.1523	0.23434	-2.7229	-2.6771	-3.1792	-2.9896	-3.0333	-3.2542	-3.1354	-3.2958	-3.1396	-3.1312	-3.2479	-3.0458	-2.8979	-3.3271	-2.9542	-3.2375	-43.620	184.952	77.770	-57.116	252.306	55.869	200.257	281.903	98.181	275.035	222.547	276.662	99.641	-12.278	187.208	267.919	0.00033216	0.0009941	0.00019644	746.26	9.7663e-06	1.2192e-05	1044.2	313.73	3.1928e-06	7.0679e-06	484.75	182.24	123.68	73.071	6.0343e-06	109.69	0.00045436	0.00041858	0.00011357	661.67	4.4424e-06	4.4179e-06	919.57	280.68	4.4868e-06	4.3338e-06	430.34	162.36	111.75	66.079	4.4795e-06	97.361	260.264	34.651	-13.222	-62.384	113.658	82.803	-63.887	-56.200	194.899	51.751	-60.036	-54.593	-51.078	-45.870	112.690	-50.820	-8191	255	
1317.781	1	1	0	0	0.14449	0.19914	0.092517	0.28268	0.06532	0.24285	0.13743	0.30823	0.21728	0.3654	0.098286	0.12888	0.088664	0.19131	0.31795	0.065937	-2.7979	-2.9625	-3.1896	-2.9854	-3.1292	-3.2188	-3.1896	-3.2542	-3.2687	-3.0833	-3.5292	-3.1708	-3.1583	-3.4667	-2.8979	-3.2313	226.160	214.013	-50.122	195.667	5.462	108.376	214.334	237.908	259.219	-70.989	20.323	-55.611	275.197	217.707	40.199	-56.608	0.00032648	0.00075957	9.2475e-05	747.93	6.8401e-06	5.9716e-06	1044	314.35	6.3872e-06	6.5308e-06	492.01	183.59	125.55	74.164	2.2811e-06	110.86	0.00045271	0.00040682	0.00011096	660.89	4.3282e-06	4.3547e-06	920.53	281.15	4.4064e-06	4.2899e-06	433.28	164.19	112.97	66.789	4.4452e-06	98.454	254.220	-4.510	33.088	-62.259	86.324	78.897	-64.108	-56.129	74.588	72.248	-60.249	-54.980	-51.331	-45.888	112.025	-50.814	-8191	255	
1317.877	1	1	0	0	0.027753	0.015829	0.23165	0.15822	0.1951	0.21109	0.31838	0.19457	0.035552	0.13577	0.41101	0.20308	0.27636	0.25592	0.29679	0.030503	-2.7167	-2.8375	-3.0667	-2.9979	-2.8375	-3.0042	-2.8521	-3.1167	-3.1562	-2.9917	-3.1979	-3.2479	-2.9667	-3.2729	-3.0333	-3.0542	147.448	210.885	266.218	284.574	-71.009	-65.256	231.680	-42.635	45.054	233.131	252.134	246.683	230.532	273.285	-23.670	167.945	0.00029899	0.00068548	0.00020586	754.46	6.3777e-06	7.9367e-06	1050.7	318.33	2.2397e-06	5.7411e-06	493.39	185.11	125.3	74.115	9.3138e-06	110.4	0.00045374	0.00041574	0.0001134	664.32	4.4368e-06	4.3584e-06	924.91	282.36	4.4059e-06	4.2116e-06	434.1	164.44	112.62	66.587	4.3763e-06	98.355	253.175	14.117	31.128	-62.142	109.032	71.127	-64.210	-56.367	122.903	75.092	-60.017	-54.634	-51.130	-46.156	149.052	-50.675	-8191	255	
1317.973	1	1	0	0	0.092509	0.11449	0.14489	0.22073	0.18877	0.068086	0.12188	0.050124	0.046883	0.12934	0.12055	0.32175	0.34481	0.091317	0.096238	0.32746	-2.8063	-2.8812	-3.1104	-3.2458	-3.0146	-3.3208	-3.0729	-3.1875	-3.3792	-3.1188	-3.1979	-3.2833	-2.8312	-3.2583	-2.7458	-2.9917	-40.538	101.836	167.162	-33.110	14.128	-3.738	229.671	255.081	272.106	215.186	210.220	253.435	59.666	279.635	113.496	239.736	0.00037826	0.00034577	0.00020818	750.79	7.6733e-06	1.2577e-05	1048.1	314.35	2.5181e-06	9.1158e-06	488.9	183.98	124.5	73.772	1.0191e-06	109.82	0.0004335	0.00039579	0.00011097	662.71	4.2284e-06	4.418e-06	920.16	280.2	4.2579e-06	4.3029e-06	429.8	163.38	112.29	66.534	4.493e-06	97.728	249.589	-10.076	-7.771	-62.364	104.095	77.898	-64.091	-56.164	57.819	63.377	-59.991	-54.562	-51.274	-46.016	88.128	-50.754	-8191	255	
1318.069	1	1	0	0	0.07932	0.096315	0.13182	0.19077	0.19188	0.22092	0.095256	0.19133	0.16664	0.068085	0.10565	0.13475	0.3571	0.39496	0.14217	0.023169	-2.8312	-2.8771	-3.0146	-3.1917	-2.7812	-3.2167	-3.2125	-2.9146	-3.3292	-3.225	-3.2	-3.3083	-3.0396	-3.3625	-3.1521	-2.9688	-6.731	34.630	-40.041	-38.217	43.445	53.341	-44.448	237.221	-25.893	81.716	-42.648	254.289	-43.115	262.829	130.390	10.066	0.00032315	0.00086226	0.00024242	758.65	4.8514e-06	4.9609e-06	1051.8	317.91	5.4623e-06	7.9486e-06	492.05	184.33	126.87	74.917	6.3003e-06	110.96	0.00043718	0.00040038	0.0001136	665.19	4.2434e-06	4.3188e-06	923.7	283.43	4.3748e-06	4.3941e-06	433.68	164.53	113.98	67.614	4.4896e-06	98.717	256.688	11.722	57.603	-62.427	149.363	135.784	-64.183	-56.069	67.040	84.942	-59.958	-55.205	-51.222	-45.803	89.912	-50.757	-8191	255	
1318.188	1	1	0	0	0.099219	0.13272	0.26207	0.15267	0.19235	0.12835	0.14894	0.11325	0.1861	0.1114	0.12857	0.10693	0.2648	0.37086	0.25888	0.023009	-2.6688	-2.9708	-2.9208	-3.175	-2.8167	-3.2229	-3.0375	-2.8771	-3.1854	-2.9688	-3.0354	-3.3479	-2.8729	-3.2125	-3.05	-2.9875	-16.996	180.967	79.293	146.207	261.904	103.222	271.019	58.300	266.986	43.305	242.113	-18.317	274.510	259.165	-48.623	-62.429	0.00033252	0.00021005	0.00027499	758.98	5.0641e-06	6.7453e-06	1058.5	324.11	3.7902e-06	8.1488e-06	495.35	185.95	128.03	75.225	4.4157e-06	112.33	0.00044569	0.00039903	0.00011228	669.56	4.349e-06	4.6281e-06	928.37	288.24	4.4313e-06	4.3756e-06	437.3	166.29	114.98	67.847	4.4925e-06	99.451	263.330	-19.046	59.372	-62.057	81.671	95.618	-63.868	-56.229	59.525	74.136	-59.872	-54.861	-51.040	-45.800	12.985	-50.531	-8191	255	
1318.260	1	1	0	0	0.31002	0.019705	0.128	0.20203	0.097412	0.16752	0.12466	0.1811	0.10054	0.10994	0.35462	0.22901	0.067443	0.15672	0.0054732	0.068598	-2.6771	-2.9479	-2.8937	-3.3771	-2.8729	-3.1458	-3.2729	-2.9104	-3.2625	-3.1188	-3.0792	-3.1875	-3.0563	-3.0687	-3.3104	-3.0083	93.351	269.024	-38.478	216.939	161.287	33.262	26.919	-64.883	-20.043	227.767	277.561	194.516	185.741	218.314	154.956	214.361	0.00035809	0.00067535	0.00026932	761.12	6.1038e-06	5.5481e-06	1054.1	324.14	5.986e-06	1.123e-05	498.06	188.57	128.6	76.146	5.9928e-06	112.85	0.00044408	0.00042413	0.00011398	670.28	4.4097e-06	4.4738e-06	930.23	288.06	4.6023e-06	4.5495e-06	440.74	167.96	115.69	68.53	4.6455e-06	100.24	261.313	50.030	-3.840	-61.893	93.666	56.860	-64.077	-56.400	136.246	82.593	-59.872	-54.526	-51.350	-45.965	161.951	-50.617	-8191	255	
1318.358	1	1	0	0	0.047885	0.040352	0.034121	0.07589	0.037539	0.25971	0.18186	0.24007	0.21031	0.052695	0.028519	0.16742	0.29349	0.16865	0.15016	0.25053	-2.5854	-2.9562	-2.9167	-3.1792	-3.0542	-2.9292	-3.3458	-2.9625	-3.1771	-3.3208	-3.15	-3.4104	-3.1729	-3.2792	-3.1375	-3.1229	138.410	173.963	179.938	40.995	-37.392	-42.875	246.434	-65.634	28.063	124.720	-68.036	145.777	244.461	160.621	130.219	247.484	0.00031949	0.00064749	0.00019254	763.3	3.9965e-06	9.9368e-06	1061.5	327.57	5.0102e-06	5.2428e-06	506.74	192.38	131.31	76.847	4.1094e-06	114.65	0.00045129	0.0004245	0.00011468	672.38	4.4862e-06	4.6541e-06	934.56	291.86	4.6091e-06	4.6444e-06	447.74	170.71	117.73	69.433	4.6438e-06	102.01	254.936	33.013	13.518	-62.393	149.604	58.981	-64.166	-56.528	101.828	55.817	-59.821	-54.844	-51.130	-45.707	70.656	-50.547	-8191	255	
1318.477	1	1	0	0	0.15598	0.066087	0.10883	0.13236	0.2128	0.13984	0.04532	0.13335	0.18606	0.18316	0.22738	0.24782	0.046547	0.32571	0.12625	0.18104	-2.6021	-2.9917	-2.9729	-3.4417	-3.0479	-3.0812	-3.4479	-3.025	-3.3708	-3.3458	-3.1354	-3.4437	-3.0333	-3.2417	-3.35	-3.075	38.526	44.375	119.934	160.924	-43.088	114.793	82.846	183.190	47.725	180.956	116.814	238.419	269.952	251.052	250.062	249.046	0.00042274	0.00041941	0.00020073	773.24	9.8235e-06	1.0428e-05	1073.4	332.61	4.7353e-06	1.0522e-05	507.31	191.28	130.38	77.105	3.3613e-06	113.33	0.00046047	0.00043137	0.0001189	682.24	4.6948e-06	4.7878e-06	943.17	296.12	4.7423e-06	4.8007e-06	449.39	170.13	117.84	69.5	4.7977e-06	100.91	267.045	5.664	20.502	-62.105	112.035	61.335	-64.352	-56.104	130.142	67.139	-60.015	-54.658	-51.298	-45.631	127.254	-50.739	-8191	255	
1318.573	1	1	0	0	0.06098	0.08045	0.12098	0.29358	0.29572	0.084808	0.074174	0.15722	0.22558	0.18883	0.15165	0.090988	0.37182	0.1142	0.16909	0.13006	-2.5146	-3.0687	-2.75	-3.1437	-2.9688	-2.9021	-3.1896	-2.8542	-3.1521	-3.2438	-2.8104	-3.2687	-2.9542	-3.0625	-3.2333	-3.1229	215.360	-69.350	99.753	208.451	28.913	-39.124	246.707	205.929	88.002	-61.581	250.130	160.795	21.186	-40.320	269.297	204.727	0.00036743	0.00068867	0.00021883	768.56	6.9391e-06	7.8243e-06	1059.4	325.51	4.2915e-06	6.9387e-06	494.74	183.97	127.89	75.819	1.1167e-05	110.95	0.00047452	0.00043368	0.00011846	677.6	4.6306e-06	4.7237e-06	930.5	290.73	4.7148e-06	4.7997e-06	437.53	164.57	115.29	68.403	4.8567e-06	98.556	259.327	23.506	14.018	-62.216	118.282	68.411	-64.126	-55.970	86.512	62.389	-59.890	-54.527	-51.222	-45.637	60.383	-50.566	-8191	255	
1318.669	1	1	0	0	0.24195	0.2202	0.20624	0.15323	0.089826	0.024923	0.21032	0.09695	0.10766	0.16004	0.19688	0.20391	0.10108	0.3472	0.17588	0.20528	-2.5938	-3.1979	-2.9417	-3.4042	-3.2896	-3.1396	-3.6125	-3.2292	-3.2354	-3.4354	-3.1688	-3.0833	-3.1562	-2.8688	-3.0229	-3.0917	104.682	280.523	-72.672	240.375	62.282	285.155	49.701	262.403	180.499	183.430	25.675	284.811	151.360	283.930	15.719	131.313	0.0003622	0.00070556	0.00027117	766.42	8.8467e-06	7.1985e-06	1054.1	322.99	3.344e-06	4.9935e-06	490.59	184.09	128.4	75.205	7.1522e-06	109.98	0.00046835	0.00044036	0.00012075	674.66	4.692e-06	4.767e-06	927.25	287.97	4.7988e-06	4.7132e-06	432.59	163.93	114.98	68.028	4.7725e-06	98.024	273.117	4.309	1.214	-62.217	126.392	56.911	-64.162	-56.131	80.126	86.238	-59.614	-54.964	-51.174	-45.589	114.301	-50.585	-8191	255	
1318.790	1	1	0	0	0.20814	0.075425	0.26401	0.19458	0.17677	0.26621	0.16254	0.18857	0.10059	0.13808	0.17327	0.069851	0.081024	0.22767	0.13792	0.27679	-2.6042	-3.2438	-3.0333	-3.3375	-3.1667	-2.7521	-3.3875	-3.0479	-2.9521	-3.3688	-3.175	-3.3063	-3.3625	-3.1688	-3.1979	-3.1813	-67.120	87.177	157.354	-65.606	170.845	-36.779	79.351	236.294	-29.957	152.210	232.417	199.218	121.579	233.717	135.033	284.056	0.00038111	0.00061649	0.00017762	764.98	6.5861e-06	5.7286e-06	1056.5	323.73	5.0875e-06	4.3654e-06	496.05	186.74	129.33	76.016	9.4059e-06	111.95	0.00047131	0.00043561	0.00012532	673.25	4.8396e-06	4.8355e-06	927.34	289.18	4.7538e-06	4.8065e-06	437.81	166.21	116.2	68.789	4.7693e-06	99.902	259.313	-19.476	31.715	-62.159	67.517	63.130	-63.951	-56.155	101.642	77.481	-59.697	-54.916	-51.184	-45.918	120.559	-50.578	-8191	255	
1318.886	1	1	0	0	0.030985	0.014622	0.061565	0.22761	0.21328	0.14864	0.027549	0.22003	0.39964	0.28243	0.19839	0.27705	0.052347	0.11132	0.027098	0.10336	-2.5438	-3.3521	-2.8646	-3.0938	-3.2104	-2.8021	-3.1729	-3.075	-3.0396	-3.5333	-3.1479	-3.1562	-3.3917	-3.0583	-3.1562	-3.3208	99.776	235.105	148.338	216.097	-12.818	-48.048	169.574	191.295	258.276	50.116	180.898	237.897	-69.994	-55.555	11.706	105.460	0.00029877	0.00088622	0.00029875	764.77	5.372e-06	4.4559e-06	1055.1	326.43	4.9008e-06	6.2458e-06	504.26	189.37	129.71	76.156	1.0262e-05	112.16	0.00046853	0.00043086	0.0001216	678.57	4.6503e-06	4.8501e-06	933.41	291.75	4.8485e-06	4.6732e-06	443.57	168.25	116.54	68.958	4.7452e-06	100.09	261.447	15.255	14.395	-61.784	118.450	86.842	-64.268	-56.395	100.937	96.023	-59.873	-54.870	-51.006	-45.735	126.032	-50.492	-8191	255	
1318.957	1	1	0	0	0.31062	0.06859	0.047894	0.12369	0.14046	0.14405	0.14731	0.19042	0.16608	0.13589	0.23311	0.1571	0.31196	0.20306	0.036253	0.061538	-2.5792	-3.1	-2.9792	-3.0646	-3.1271	-2.8792	-3.2812	-3.4375	-2.9188	-3.2958	-2.9875	-3.0021	-3.2958	-3.0271	-3.2	-3.3521	93.331	107.525	180.607	275.832	278.654	160.232	184.184	98.072	230.932	15.142	188.867	257.254	265.526	222.148	168.257	0.324	0.00033345	0.00088074	0.00019607	761.68	3.0821e-06	7.1677e-06	1051.6	321.59	3.8249e-06	4.0823e-06	492.32	184.7	126.73	75.075	6.9958e-06	110.79	0.00046738	0.0004262	0.00012155	673.77	4.5343e-06	4.8424e-06	927.72	286.97	4.7545e-06	4.7997e-06	434.35	164.43	114.26	67.964	4.8072e-06	98.487	263.110	-8.118	-61.682	-62.267	75.905	113.462	-63.984	-55.874	130.637	96.241	-60.093	-54.668	-51.312	-45.808	80.237	-50.673	-8191	255	
1319.078	1	1	0	0	0.049244	0.16471	0.17203	0.2781	0.33531	0.096789	0.33177	0.25187	0.056973	0.33537	0.056766	0.36062	0.058929	0.29619	0.16808	0.090952	-2.6063	-3.3875	-3.0438	-3.125	-3.2354	-3.1458	-3.2729	-3.2542	-2.9208	-3.2542	-2.9833	-2.9938	-3.2417	-2.8583	-3.1896	-3.3667	-44.158	24.337	73.844	205.951	141.279	178.443	183.005	265.060	32.717	-14.340	119.052	214.156	239.245	243.831	135.270	191.781	0.00028971	0.00064397	0.00025741	760.28	1.8177e-06	4.1757e-06	1055	324.55	2.6941e-06	8.4785e-06	495.25	185.82	128.74	75.619	7.7583e-06	111.65	0.00046121	0.00043456	0.00012366	672.88	4.6611e-06	4.742e-06	927.44	289.56	4.6451e-06	4.7834e-06	437.84	165.62	115.28	68.174	4.6734e-06	99.092	260.987	44.119	0.799	-62.168	78.033	75.424	-64.178	-56.341	76.788	39.969	-60.049	-54.927	-51.282	-45.783	97.950	-50.701	-8191	255	
1319.172	1	1	0	0	0.092116	0.14548	0.21262	0.22397	0.041323	0.076183	0.26846	0.28535	0.19038	0.2216	0.22019	0.32115	0.081133	0.11596	0.095232	0.20203	-2.7042	-3.0979	-3.0083	-3.1396	-3.4188	-2.9688	-3.2417	-3.35	-2.9667	-3.3708	-3.1083	-3.125	-3.0875	-2.9458	-3.0083	-3.3542	-52.180	115.877	226.911	245.777	135.875	172.698	267.589	253.649	84.209	156.949	205.352	-47.611	112.766	219.041	207.941	150.849	0.00037775	0.00097689	0.00021459	766.25	4.3006e-06	1.7977e-06	1058	323.58	5.0441e-06	4.0216e-06	497.94	186.62	128.15	75.771	7.9037e-06	112.58	0.0004528	0.00041542	0.00011409	673.1	4.4422e-06	4.4713e-06	930.52	288.62	4.5792e-06	4.6061e-06	439.76	166.83	115.4	68.454	4.6821e-06	99.818	256.578	26.706	26.202	-62.310	125.052	201.950	-63.979	-56.467	72.345	53.084	-60.148	-54.821	-51.250	-45.722	128.723	-50.874	-8191	255	
1319.269	1	1	0	0	0.11718	0.27259	0.41018	0.12428	0.2013	0.052967	0.2237	0.070745	0.057399	0.12589	0.20134	0.15107	0.1292	0.32079	0.21315	0.14274	-2.3271	-2.875	-2.9708	-2.7687	-3.2167	-3.0208	-3.2146	-3.4292	-3.1333	-3.2771	-3.4167	-3.0604	-3.2625	-3.2604	-2.8167	-3.2313	22.386	54.606	54.642	283.035	119.951	107.859	209.183	263.776	-51.892	10.583	199.654	235.683	251.737	267.939	-34.963	-35.424	0.00028551	0.00075894	0.00022215	763.78	8.2864e-06	7.5967e-06	1067.5	327.98	5.5405e-06	3.1225e-06	501.23	190.46	129.62	76.067	4.2731e-06	113.48	0.00046065	0.00042589	0.00011687	675.86	4.3454e-06	4.5347e-06	938.16	291.59	4.571e-06	4.5348e-06	443.96	169.31	116.52	68.804	4.5808e-06	100.81	251.111	4.947	1.954	-62.188	129.827	104.862	-64.287	-56.391	82.881	25.800	-60.010	-54.898	-51.162	-45.833	127.122	-50.664	-8191	255	
1319.365	1	1	0	0	0.16213	0.20104	0.35233	0.12876	0.17003	0.19323	0.28128	0.23258	0.16023	0.20467	0.13237	0.12223	0.037797	0.357	0.061605	0.25701	-2.3563	-3.0729	-3.0729	-2.9292	-3.3229	-3.2812	-3.0104	-3.2562	-3.0187	-3.1396	-3.175	-2.9188	-2.9562	-3.1604	-2.7583	-3.3146	35.740	141.121	167.122	207.405	234.012	22.333	247.834	155.080	49.686	58.988	283.841	205.222	-57.827	271.893	94.025	251.170	0.00034401	0.00073146	0.00020543	765.93	6.7664e-06	1.1194e-05	1065.9	323.05	3.7836e-06	9.7593e-06	499.42	186.33	127.28	75.326	4.183e-06	110.36	0.00045864	0.00042381	0.00011403	676.73	4.5009e-06	4.4195e-06	934.75	288.15	4.4956e-06	4.4906e-06	439.67	165.79	114.99	67.905	4.6338e-06	98.712	259.610	33.731	16.442	-62.080	118.875	82.378	-64.292	-56.103	113.447	78.416	-60.248	-54.667	-51.004	-45.869	120.872	-50.644	-8191	255	
1319.485	1	1	0	0	0.19149	0.0082817	0.09059	0.070404	0.094163	0.22038	0.18375	0.16744	0.18134	0.25892	0.14794	0.030972	0.39839	0.34984	0.16977	0.11474	-2.4792	-3.025	-3.3292	-3.0354	-3.3271	-3.1333	-3.0438	-3.3625	-2.9479	-3.0792	-3.0812	-3.0521	-3.0583	-3.3563	-2.9562	-3.5146	42.967	100.304	232.310	225.546	265.481	17.172	217.800	282.843	158.644	172.380	202.255	-68.778	247.409	-71.136	-32.335	267.060	0.00034183	0.0011435	0.00018387	766.77	8.6409e-06	6.3905e-06	1059.8	323.19	3.7925e-06	5.1939e-06	494.04	186.28	127.74	75.459	7.9472e-06	111.25	0.00044897	0.00042314	0.00011414	674.17	4.5482e-06	4.4837e-06	929.67	286.66	4.5503e-06	4.3182e-06	435.94	165.68	114.81	68.169	4.5831e-06	99.132	252.661	50.946	36.302	-62.299	118.116	98.173	-64.203	-56.248	134.246	81.909	-59.982	-55.086	-51.170	-45.809	126.686	-50.629	-8191	255	
1319.557	1	1	0	0	0.20171	0.098833	0.21154	0.22499	0.024465	0.19916	0.31752	0.15396	0.14914	0.10409	0.13952	0.078624	0.16856	0.25028	0.2034	0.32792	-2.5854	-3.0375	-3.2208	-2.9792	-3.0958	-3.2938	-3.025	-3.3812	-3.1667	-2.95	-3.2104	-3.0521	-3.1146	-3.3292	-2.8146	-3.2375	13.016	21.087	172.493	265.349	102.947	204.386	163.294	164.603	130.477	227.573	210.804	26.013	224.945	-47.390	227.334	201.918	0.00033727	0.00051005	0.00013744	766.09	1.1868e-05	1.2625e-05	1064.4	324.37	4.3477e-06	8.6182e-06	496.4	186.94	128.2	75.45	9.3487e-06	111.66	0.00045843	0.00042478	0.00012141	675.55	4.4787e-06	4.4992e-06	933.25	288.24	4.6345e-06	4.4409e-06	437.98	166.88	115.2	68.072	4.5985e-06	99.341	254.547	-19.631	21.878	-62.074	133.064	73.674	-64.007	-56.385	107.985	74.518	-60.089	-54.688	-50.777	-45.761	105.253	-50.817	-8191	255	
1319.653	1	1	0	0	0.15287	0.16925	0.16329	0.17031	0.13333	0.085174	0.14502	0.15037	0.17259	0.12062	0.20377	0.081963	0.03819	0.038988	0.15717	0.24248	-2.7417	-3.1021	-3.375	-3.1125	-3.0042	-3.2271	-2.9437	-3.0979	-2.8604	-2.6354	-3.2667	-3.1437	-3.1667	-3.3292	-2.8104	-3.2729	-7.667	127.141	14.769	188.062	276.122	-37.864	251.862	244.232	253.262	194.640	35.539	-43.197	84.890	278.665	-26.072	242.315	0.00032661	0.00044494	0.0003387	765.71	6.0465e-06	7.6587e-06	1055.6	324.96	6.3743e-06	8.829e-06	499.72	188.68	128.28	75.631	5.5876e-06	112.54	0.00046161	0.00041789	0.00011625	674.03	4.3793e-06	4.5264e-06	932.95	288.83	4.6047e-06	4.6767e-06	441.63	167.91	115.51	68.326	4.701e-06	100.01	265.856	40.394	36.685	-62.216	124.777	76.538	-63.999	-56.229	146.989	72.376	-59.776	-54.801	-50.953	-45.587	53.088	-50.392	-8191	255	
1319.749	1	1	0	0	0.12427	0.10259	0.0054082	0.10811	0.10164	0.14315	0.23649	0.29514	0.19005	0.14499	0.067005	0.16785	0.18477	0.13511	0.15346	0.24557	-2.7833	-2.85	-3.1604	-3.0271	-2.9958	-3.4	-2.8896	-3.0896	-3.1271	-2.8208	-3.4146	-3.0104	-2.8229	-3.2542	-2.9313	-3.3812	114.355	264.369	209.631	5.703	114.874	273.017	248.891	252.340	141.937	-73.386	258.027	-19.467	173.952	186.970	136.150	238.303	0.00033545	0.00061852	0.00016378	762.33	1.1556e-06	7.4952e-06	1061.3	321.22	1.7402e-06	6.1797e-06	501.18	189.18	126.71	75.021	5.7813e-06	111.56	0.00046375	0.00042648	0.00011971	672.63	4.4079e-06	4.5387e-06	932.09	286.79	4.4847e-06	4.5286e-06	440.53	168.25	114.64	67.731	4.6502e-06	99.391	268.235	30.370	29.603	-62.362	104.579	57.094	-64.184	-56.241	103.048	36.123	-59.862	-54.831	-50.998	-45.731	48.042	-50.219	-8191	255	
1319.870	1	1	0	0	0.31876	0.26161	0.15627	0.3148	0.028836	0.21821	0.077295	0.26824	0.091692	0.089107	0.13211	0.26743	0.13212	0.11559	0.10939	0.21559	-2.7375	-3.1188	-3.2271	-2.9	-2.8688	-3.0208	-3.0375	-3.1958	-3.0896	-2.9271	-3.2083	-3.0354	-2.8208	-3.2875	-2.9729	-3.3479	68.289	84.291	10.553	-50.991	3.521	-32.997	277.998	238.441	165.746	275.397	22.345	261.728	-61.652	211.459	97.354	225.398	0.00036388	0.00094695	0.00011945	753.59	6.0803e-06	8.037e-06	1054.9	319.07	2.5501e-06	7.1135e-06	492.15	185.47	126.94	74.88	5.1968e-06	110.9	0.00045171	0.00043048	0.00011536	668.33	4.44e-06	4.4578e-06	928.37	284.63	4.4314e-06	4.5341e-06	435.02	165.24	114.29	67.653	4.6768e-06	98.619	270.022	-9.372	13.444	-62.234	113.278	77.086	-64.338	-56.068	25.129	84.487	-59.918	-54.923	-51.220	-45.458	98.119	-50.433	-8191	255	
1319.966	1	1	0	0	0.11373	0.060877	0.11402	0.17035	0.21357	0.15016	0.17112	0.18414	0.3086	0.19393	0.09377	0.26255	0.17656	0.16528	0.1074	0.10066	-2.8125	-2.9292	-3.2583	-3.0979	-2.9917	-3.3312	-3.1229	-3.0104	-3.1333	-2.9708	-3.2521	-3.2583	-3.0667	-3.3937	-3.1312	-3.175	268.097	67.991	222.669	195.257	-45.562	78.373	88.038	226.669	190.670	-14.113	-15.939	171.444	183.777	187.692	31.946	-67.669	0.00033071	0.00045116	0.00025764	762.32	3.8637e-06	5.3082e-06	1051.4	323.43	1.3054e-06	6.7576e-06	497.92	185.49	128.06	75.232	2.8231e-06	110.65	0.0004506	0.00040601	0.0001124	671.81	4.5309e-06	4.4584e-06	927.78	288.34	4.4486e-06	4.6083e-06	438.83	165.4	115.24	67.909	4.648e-06	98.573	258.970	-16.824	9.368	-62.271	125.991	85.673	-64.024	-56.225	56.930	92.066	-59.985	-54.840	-51.584	-45.706	99.611	-50.842	-8191	255	
1320.062	1	1	0	0	0.028997	0.26644	0.018077	0.13013	0.13736	0.13062	0.30505	0.31277	0.11199	0.10556	0.22747	0.14718	0.18345	0.22506	0.22301	0.16037	-2.9521	-2.9125	-3.1125	-3.3896	-3.0812	-3.2708	-3.3417	-2.9792	-3.4167	-2.8729	-3.1833	-3.175	-2.8771	-3.35	-2.9313	-3.2625	-38.959	86.740	94.036	107.852	-0.789	22.530	246.833	260.344	178.741	74.030	123.964	254.174	-66.562	-66.713	96.629	206.438	0.00032725	0.00081897	0.00020434	761.92	7.3647e-06	9.2097e-06	1051	320.25	2.5026e-06	4.5579e-06	491.66	183.53	125.88	74.378	6.5636e-06	110.22	0.00045456	0.00041124	0.00011781	670.72	4.5477e-06	4.3916e-06	925.1	285.85	4.5099e-06	4.5279e-06	432.42	163.61	113.3	67.09	4.6022e-06	97.862	260.162	9.849	7.218	-62.353	89.947	64.685	-64.268	-56.115	92.132	82.346	-59.763	-54.327	-51.016	-45.603	121.240	-50.452	-8191	255	
1320.158	1	1	0	0	0.064928	0.2678	0.1129	0.14746	0.28835	0.18162	0.1924	0.22084	0.1477	0.16557	0.28676	0.1974	0.21807	0.37361	0.022632	0.2472	-2.85	-3.0729	-3.0354	-3.2167	-3.0792	-3.2771	-3.3333	-3.0625	-3.3292	-2.9688	-3.3083	-3.3	-2.9437	-3.3792	-3.3812	-2.9938	19.317	128.573	277.748	-38.497	2.283	274.888	201.407	258.454	22.975	110.437	215.866	-0.196	223.866	204.652	21.370	193.843	0.00030816	0.0003675	0.00030032	756.05	3.0555e-06	1.1644e-05	1051.4	319.23	4.5879e-06	7.9195e-06	492.68	187.25	127.06	74.746	3.3502e-06	111.31	0.00045507	0.00041738	0.00011498	667.23	4.5295e-06	4.4741e-06	924.65	284	4.6074e-06	4.5903e-06	436.19	165.96	114.26	67.65	4.6334e-06	98.982	262.954	49.857	24.326	-62.198	90.979	51.454	-64.292	-56.055	133.237	60.785	-59.761	-54.893	-51.073	-45.700	39.042	-50.581	-8191	255	
1320.253	1	1	0	0	0.063274	0.060714	0.20021	0.18897	0.097636	0.11134	0.20547	0.25836	0.15674	0.12913	0.24819	0.14268	0.14519	0.18147	0.10655	0.25047	-2.9813	-3.1167	-3.1625	-3.3896	-2.9708	-3.1646	-3.1729	-3.025	-3.1958	-2.8396	-3.1604	-3.3	-3.15	-3.4	-3.2479	-3.1937	81.868	-73.461	242.373	-47.932	270.661	53.006	178.047	212.333	46.397	275.543	193.547	267.872	231.946	258.974	205.478	202.005	0.00028552	0.00063051	0.0001158	765.38	5.729e-06	5.9161e-06	1059.7	323.59	4.9788e-06	5.4048e-06	497.86	186.72	128.34	75.621	7.2301e-06	111.32	0.00046263	0.00042701	0.00011968	673.06	4.5775e-06	4.6427e-06	931.42	288.68	4.5006e-06	4.578e-06	440.01	166.62	115.54	68.195	4.6351e-06	98.949	266.428	-0.069	-9.366	-62.234	74.543	69.485	-64.176	-56.182	94.583	56.358	-59.910	-55.030	-51.288	-45.830	121.520	-50.511	-8191	255	
1320.351	1	1	0	0	0.096697	0.034899	0.12271	0.22699	0.050909	0.15389	0.36557	0.11579	0.19115	0.057989	0.23278	0.11133	0.068704	0.33346	0.089766	0.31999	-2.7208	-3.1542	-2.8312	-3.2167	-2.8729	-3.0333	-3.4437	-3.0646	-3.4146	-3.1354	-3.1583	-3.4146	-3.2229	-3.6063	-3.2354	-3.0646	225.869	114.195	-61.530	281.432	-33.830	-22.161	222.149	250.131	131.760	46.399	-53.191	273.517	244.212	250.666	272.380	174.039	0.00031309	0.0011897	0.00017489	760.1	6.0974e-06	6.4611e-06	1044.6	323.09	2.4611e-06	7.5341e-06	492.14	184.58	126.8	75.277	9.7648e-07	109.86	0.00045778	0.00042072	0.00011951	671.82	4.4206e-06	4.6062e-06	924.87	287.82	4.5446e-06	4.5023e-06	435.62	164.17	114.52	67.969	4.6445e-06	98.071	259.083	16.756	1.531	-62.603	169.149	49.224	-64.095	-56.287	103.660	111.562	-59.715	-54.876	-51.183	-45.659	105.356	-50.628	-8191	255	
1320.470	1	1	0	0	0.12472	0.14115	0.13768	0.09798	0.18914	0.085469	0.090461	0.45009	0.044546	0.079718	0.20242	0.042454	0.30408	0.16328	0.20812	0.33426	-2.7313	-3.2	-3.0625	-3.4458	-3.1063	-3.0354	-3.3146	-3.1562	-3.1083	-3.1021	-2.9437	-3.3312	-3.1354	-3.3	-3.2979	-3.0563	248.539	256.752	114.578	195.764	77.141	258.684	56.248	250.385	-10.871	-51.489	28.813	161.614	-24.575	-65.290	-57.377	245.409	0.00030723	0.00080127	0.00016487	767.13	7.359e-06	7.5191e-06	1054.4	326.38	3.9246e-06	1.3219e-05	495.39	185.42	128.66	75.703	5.6631e-06	111.03	0.00044344	0.00041765	0.00012044	673.33	4.5852e-06	4.586e-06	928.14	289.42	4.6754e-06	4.7039e-06	436.94	165.06	115.67	68.236	4.9603e-06	98.402	257.692	-11.252	18.955	-62.263	129.345	59.538	-64.135	-55.965	98.535	61.869	-60.018	-54.750	-51.267	-45.694	46.927	-50.588	-8191	255	
1320.566	1	1	0	0	0.13222	0.31722	0.12347	0.21664	0.060011	0.041045	0.1038	0.10556	0.056553	0.21104	0.15638	0.055446	0.27515	0.37494	0.097943	0.42459	-2.7667	-3.35	-2.9188	-3.3042	-2.8833	-3.0563	-3.4833	-3.1042	-2.9437	-3.1958	-3.1604	-3.2667	-3.2146	-3.0604	-2.9792	-3	253.096	128.770	-44.429	193.757	262.821	-22.280	229.525	211.651	197.045	144.051	-63.458	193.040	273.417	236.586	241.328	221.479	0.00036123	0.00075979	0.00022334	764.54	7.8917e-06	9.7692e-06	1058.5	328.56	2.9979e-06	9.4727e-06	496.07	187.32	128.99	76.149	5.8146e-06	111.17	0.00047409	0.00043657	0.0001247	675.76	4.5761e-06	4.7317e-06	930.1	292.39	4.7619e-06	4.7571e-06	440.18	166.4	116.16	68.555	4.7412e-06	98.894	264.897	15.103	-3.001	-62.219	120.010	66.022	-64.068	-56.307	102.392	65.374	-59.815	-54.788	-51.186	-45.641	103.557	-50.541	-8191	255	
1320.662	1	1	0	0	0.08842	0.099136	0.10793	0.03994	0.2224	0.21357	0.31251	0.36462	0.17419	0.063565	0.040926	0.27064	0.33275	0.30764	0.075264	0.16661	-2.6354	-2.9896	-2.7229	-3.2083	-3.1292	-2.9875	-3.3896	-3.0563	-3.1229	-3.4604	-2.9708	-3.2667	-3.0917	-2.95	-3.2104	-3.0417	97.318	222.513	249.957	132.089	225.316	242.586	151.800	239.415	181.716	27.895	226.543	205.449	276.581	-55.528	2.761	-39.528	0.00038601	0.00039963	0.0002267	765.38	3.8732e-06	9.14e-06	1056.5	329.96	1.1564e-06	1.3302e-05	498.1	185.91	128.59	75.3	9.0013e-06	110.51	0.00047381	0.00043647	0.00012308	677.13	4.7169e-06	4.8167e-06	929.6	293.1	4.8492e-06	4.8737e-06	439.82	165.85	116.18	68.384	4.8816e-06	98.374	259.394	-0.214	20.884	-62.237	122.263	85.716	-63.883	-56.257	167.540	56.151	-59.966	-54.356	-50.748	-45.659	99.632	-50.564	-8191	255	
1320.758	1	1	0	0	0.20855	0.11614	0.26818	0.11681	0.097753	0.089762	0.24849	0.29183	0.071333	0.098103	0.076599	0.11116	0.18253	0.23527	0.2036	0.097352	-2.6021	-3.1896	-3.0521	-3.3021	-2.9958	-2.9896	-3.3583	-3.2354	-3.0875	-3.1979	-2.8771	-3.2396	-3.1271	-3.1729	-3.2562	-3.1021	115.563	114.532	123.857	210.160	278.309	225.536	280.916	216.674	267.147	94.617	228.154	-40.785	215.315	208.201	59.003	242.501	0.00035924	0.00084834	0.00024422	762.7	5.0975e-06	4.3886e-06	1054.5	331.49	3.8273e-06	8.3164e-06	498.02	185.72	128.8	76.093	6.0063e-06	110.65	0.00047331	0.00044851	0.00012382	675	4.6808e-06	4.6845e-06	927.35	293.59	4.7209e-06	4.8764e-06	439.53	165.14	116.19	68.573	4.8071e-06	98.306	263.348	8.241	22.460	-62.253	72.104	133.481	-64.100	-56.291	74.040	76.853	-60.111	-54.958	-51.144	-45.720	113.921	-50.400	-8191	255	
1320.854	1	1	0	0	0.21551	0.16045	0.12721	0.26241	0.083673	0.11799	0.066502	0.29616	0.36876	0.096022	0.15514	0.22166	0.24474	0.23042	0.094893	0.11237	-2.5083	-3.0792	-2.7021	-3.1146	-2.9042	-2.8937	-3.525	-3.0354	-2.9375	-3.2917	-3.0375	-3.0521	-3.0333	-2.9917	-3.2438	-3.1333	256.033	222.808	190.178	-33.912	192.735	85.172	97.024	256.687	62.470	-60.611	123.518	190.614	273.191	156.611	249.539	191.367	0.00036989	0.00036193	0.00012241	769.52	8.2658e-06	1.3109e-05	1057.9	327.73	3.0389e-06	8.8155e-06	502.09	187.14	129.98	76.279	5.9082e-06	111.39	0.00047061	0.00043677	0.0001218	676.9	4.6705e-06	4.7091e-06	929.39	292.61	4.8517e-06	4.7711e-06	442.33	166.57	117.31	68.951	4.9469e-06	99.443	256.999	-32.553	24.089	-62.242	160.492	78.406	-64.271	-56.041	160.079	55.229	-60.095	-54.817	-51.125	-45.838	87.190	-50.440	-8191	255	
1320.950	1	1	0	0	0.264	0.174	0.15645	0.31351	0.27195	0.046953	0.12434	0.16579	0.032133	0.21538	0.21897	0.30873	0.10949	0.26722	0.14851	0.29756	-2.4583	-3.1125	-2.8937	-3.1104	-3.1792	-2.825	-3.2083	-3.1333	-2.9333	-3.1688	-2.8187	-2.9562	-3.35	-2.9604	-2.9292	-3.0771	215.903	53.899	148.982	259.710	141.482	-23.919	208.934	40.169	-56.985	-42.665	104.633	215.952	58.214	240.352	223.039	149.267	0.00027097	0.00055022	0.00020953	769.92	1.0434e-05	1.1926e-05	1070.5	336.3	1.4986e-06	1.1861e-05	510.83	190.73	132.05	77.549	9.0753e-06	113.67	0.00048385	0.00043759	0.00012549	681.45	4.8432e-06	4.8885e-06	940.03	299.68	4.7469e-06	4.7925e-06	450.61	169.84	119.55	70.096	4.9168e-06	101.05	262.156	21.103	10.947	-62.226	102.878	91.891	-63.872	-56.532	201.051	65.722	-59.895	-54.670	-51.449	-45.613	88.335	-50.550	-8191	255	
1321.047	1	1	0	0	0.038312	0.065964	0.088613	0.10053	0.17922	0.29131	0.24813	0.093747	0.20845	0.21369	0.2652	0.25925	0.12575	0.1604	0.19777	0.26014	-2.4104	-3.0875	-2.7458	-3.1417	-3.35	-2.8583	-3.15	-3.2375	-2.85	-3.2521	-2.9708	-3.025	-3.0312	-3.0958	-3.1542	-3.425	-44.962	82.516	-71.400	-62.009	154.901	234.829	214.589	167.224	154.946	136.899	122.455	231.263	-67.950	219.037	20.497	-68.239	0.00026554	0.00066642	0.00014692	778.74	6.2637e-06	1.2144e-05	1075.5	340.05	6.5537e-06	1.264e-05	517.02	193.01	134.05	78.105	5.7459e-06	114.68	0.00048707	0.0004554	0.00012691	686.95	4.8769e-06	4.9476e-06	943.43	302.48	4.8456e-06	4.7711e-06	455.62	172.05	120.34	70.476	4.9317e-06	102.31	258.735	-8.583	2.326	-62.170	110.203	85.440	-64.298	-56.432	98.406	77.355	-60.116	-54.840	-51.159	-45.805	53.522	-50.672	-8191	255	
1321.167	1	1	0	0	0.17094	0.072831	0.098369	0.17933	0.15779	0.090301	0.26049	0.18622	0.27427	0.11704	0.061389	0.24407	0.15665	0.134	0.1246	0.39461	-2.4917	-3.1562	-2.9646	-2.9792	-3.2958	-2.9083	-3.2792	-3.2917	-2.8583	-3.3583	-3.275	-3.2125	-3.4688	-3.2	-3.0854	-3.4125	152.607	247.082	11.292	194.686	32.032	128.844	279.583	220.303	42.454	82.719	-50.801	281.293	-66.806	-37.167	274.962	164.620	0.00039975	0.00092635	0.00011052	781.97	8.1357e-06	1.1689e-05	1081.3	339.43	4.7778e-06	5.7726e-06	513.94	193.06	134.41	78.626	7.5268e-06	115.29	0.00048544	0.00046269	0.00012166	688.77	4.7138e-06	4.9208e-06	950.29	303.47	4.9701e-06	4.9788e-06	456.21	172.47	120.66	70.846	5.0958e-06	102.31	265.106	0.344	-13.356	-62.622	88.889	69.809	-64.228	-56.169	72.120	55.808	-59.770	-54.828	-51.677	-45.580	77.813	-50.693	-8191	255	
1321.262	1	1	0	0	0.27041	0.24204	0.17629	0.15965	0.11976	0.13679	0.31708	0.034575	0.30208	0.18215	0.11858	0.26989	0.14246	0.27928	0.12979	0.189	-2.5187	-3.0479	-3.0417	-2.8167	-3.2146	-3.0208	-3.1271	-3.3	-3.0938	-3.1937	-3.0667	-3.1292	-3.3333	-3.2042	-2.9562	-3.4958	6.612	285.779	-67.580	284.370	116.091	-52.445	197.010	140.144	-2.395	123.404	93.020	268.758	50.004	234.325	-50.281	279.265	0.00028099	0.00050075	0.00020478	783.71	9.6959e-06	7.0548e-06	1069.3	338.83	3.8768e-06	6.1557e-06	507.27	188.98	131.18	76.765	4.7386e-06	112.81	0.0005031	0.00046081	0.00012787	690.69	4.93e-06	4.9406e-06	943.13	300.96	4.9635e-06	4.9602e-06	448.12	168.49	118.42	69.485	5.0913e-06	100.15	256.099	41.899	22.065	-62.337	118.232	59.499	-64.228	-56.127	71.443	100.000	-59.759	-54.900	-51.136	-45.675	151.859	-50.561	-8191	255	
1321.358	1	1	0	0	0.065086	0.10111	0.26146	0.14693	0.20758	0.17431	0.23252	0.26911	0.18345	0.17013	0.0988	0.24554	0.17398	0.14223	0.046386	0.18606	-2.3229	-2.9813	-3.0896	-3.175	-3.2271	-2.9167	-2.7667	-3.1375	-2.9	-2.9938	-3.2542	-2.7854	-3.3229	-3.2646	-3.1042	-3.3667	18.042	69.430	168.723	15.802	46.356	90.934	278.664	280.865	188.021	-1.063	-42.339	209.899	171.318	264.331	132.448	240.527	0.00035725	0.00077973	0.0002591	771.61	9.4396e-06	5.7155e-06	1068.4	334.91	4.4617e-06	8.1034e-06	506.08	189.3	131.04	76.497	5.7594e-06	112.93	0.00049569	0.00045739	0.00012429	684.27	4.9264e-06	4.886e-06	939.25	297.83	4.8263e-06	4.8558e-06	447.35	168.61	117.97	69.352	4.9805e-06	100.49	265.632	29.344	25.870	-62.237	96.625	90.482	-64.024	-56.233	104.982	52.413	-59.830	-54.661	-51.028	-45.532	89.775	-50.692	-8191	255	
1321.431	1	1	0	0	0.17234	0.057512	0.074221	0.15106	0.18439	0.14197	0.20732	0.11777	0.14122	0.082184	0.13063	0.16086	0.22603	0.08631	0.15657	0.47543	-2.4833	-2.9229	-3.3021	-2.9771	-3.2792	-3.0625	-3.1208	-3.3979	-2.9313	-2.9979	-3.1021	-2.8083	-3.2271	-3.1479	-2.8208	-3.3604	143.779	102.955	34.499	-45.313	94.160	-4.975	263.281	257.799	131.109	-71.478	-22.932	-73.680	133.911	-67.570	45.333	228.842	0.00032967	0.00081418	0.00019507	776.26	6.0256e-06	4.1364e-06	1061.6	331.81	5.9395e-06	7.1629e-06	505.15	189.75	130.62	76.868	1.0758e-05	113.62	0.00048506	0.00045879	0.00012489	684.53	4.8519e-06	4.9287e-06	938.09	296.2	4.7515e-06	4.6543e-06	446.86	168.8	117.69	69.405	4.8698e-06	100.68	258.789	-0.691	61.898	-62.387	98.368	-10.636	-64.047	-55.770	118.268	84.247	-59.968	-54.803	-51.028	-45.843	99.304	-50.774	-8191	255	
1321.550	1	1	0	0	0.28796	0.073335	0.13813	0.17308	0.080137	0.13688	0.16996	0.21362	0.020946	0.15343	0.14309	0.24864	0.33554	0.128	0.20611	0.4219	-2.3729	-2.8917	-3.1083	-2.7812	-2.9458	-3.0333	-2.8083	-3.1646	-2.9229	-2.8375	-3.1437	-3.1125	-3.2562	-3.1167	-2.8479	-3.1667	136.598	100.514	205.740	173.889	227.111	87.544	222.110	227.424	-71.700	5.391	161.528	252.330	273.878	161.410	-29.788	230.280	0.00036773	0.00049269	0.0001216	776.39	6.6082e-06	1.5946e-05	1073	335.02	5.5608e-06	6.3723e-06	512.64	190.91	132.52	77.419	4.1234e-06	114.38	0.00048508	0.0004537	0.00012756	683.54	4.7636e-06	4.8812e-06	942.01	298.32	4.9474e-06	4.878e-06	450.81	170.39	119.21	69.94	4.9697e-06	101.8	251.239	19.749	-36.519	-61.966	113.601	72.371	-63.791	-56.408	99.934	56.479	-60.055	-54.768	-51.367	-45.863	104.713	-50.342	-8191	255	
1321.646	1	1	0	0	0.13221	0.26766	0.1315	0.19206	0.33044	0.20167	0.24082	0.11491	0.093972	0.06184	0.054639	0.10215	0.11014	0.1054	0.10085	0.31684	-2.5354	-2.7833	-3.15	-2.9062	-3.2229	-3.2771	-2.9625	-3.4875	-3.1458	-2.925	-3.4854	-3.0708	-3.1354	-3.1896	-2.9083	-3.2375	187.682	176.428	142.177	204.357	277.788	129.353	76.047	-3.220	99.441	42.779	58.529	251.865	213.685	284.192	275.882	240.971	0.00032429	0.00069492	0.00013045	776.6	6.5986e-06	5.2333e-06	1069.1	333.22	5.3433e-06	5.8583e-06	508.03	189.33	131.23	77.311	5.363e-06	113.2	0.00048372	0.00045441	0.00012335	686.73	4.7289e-06	4.8247e-06	940.96	297.68	4.7448e-06	4.8108e-06	447.74	168.92	118.23	69.607	5.0213e-06	100.4	262.998	7.181	17.810	-62.233	120.897	107.829	-64.042	-56.046	105.362	55.340	-60.153	-54.658	-51.175	-45.843	117.622	-50.441	-8191	255	
1321.742	1	1	0	0	0.22229	0.23989	0.092131	0.28254	0.10248	0.063271	0.16876	0.18244	0.23703	0.086784	0.19993	0.18731	0.13839	0.30781	0.12484	0.32229	-2.4938	-2.8583	-3.1146	-2.7917	-2.95	-3.0625	-2.8	-3.1167	-2.9354	-2.7292	-3.4083	-2.8104	-2.8312	-3.2021	-2.9562	-3.0875	211.567	199.883	231.505	268.949	12.212	256.301	281.322	168.883	241.228	55.461	193.395	224.595	236.021	266.040	278.887	192.359	0.00033948	0.00064699	0.0001749	784.8	5.1637e-06	1.1921e-05	1067.7	334.38	3.7122e-06	5.8673e-06	508.47	188.26	132.51	77.113	6.8897e-06	112.79	0.00047685	0.00046413	0.00012644	689.53	4.8722e-06	4.8959e-06	941.94	298.86	4.9979e-06	5.0553e-06	448.6	168.03	118.84	69.648	4.9811e-06	100.14	266.678	-4.689	9.395	-62.463	110.011	75.477	-63.737	-56.034	76.918	45.507	-59.785	-54.922	-51.237	-45.631	49.416	-50.490	-8191	255	
1321.838	1	1	0	0	0.1218	0.32092	0.091662	0.29013	0.1009	0.059154	0.1068	0.17662	0.2099	0.27789	0.046267	0.13658	0.12586	0.16488	0.1137	0.2486	-2.5729	-2.8312	-3.1542	-2.8896	-2.9833	-3.1854	-3.1188	-3.1417	-3.0979	-2.9	-3.1521	-3.2292	-3.1271	-3.3042	-3.1667	-3.3479	-39.119	138.599	177.328	262.047	6.150	179.828	198.583	-67.357	201.563	185.924	207.679	-61.111	261.319	232.129	-6.123	213.973	0.00032165	0.00052439	0.00019856	780.15	6.5529e-06	8.0753e-06	1066	335.16	4.5158e-06	8.0324e-06	506.2	187.54	131.09	76.718	6.9421e-06	111.71	0.00048548	0.00045642	0.00012765	687.23	4.9628e-06	4.9091e-06	936.32	298.04	4.7959e-06	4.9585e-06	445.89	167.37	117.96	69.224	5.0495e-06	99.754	262.342	19.504	56.057	-61.992	107.853	43.189	-64.121	-55.836	111.111	68.865	-59.814	-54.590	-51.243	-45.646	66.426	-50.363	-8191	255	
1321.959	1	1	0	0	0.11326	0.097531	0.17322	0.093463	0.19887	0.11789	0.013479	0.39777	0.17537	0.11528	0.24816	0.034463	0.20233	0.077891	0.076397	0.23762	-2.8729	-2.9458	-3.2396	-3.2292	-3.1896	-3.2687	-3.1917	-3.1958	-3.0396	-2.8542	-3.2542	-2.9917	-2.9875	-3.2354	-2.8542	-3.0062	243.963	222.910	-66.159	213.817	-19.703	74.977	54.503	224.790	161.340	86.397	270.990	-9.203	255.247	282.859	228.832	184.703	0.00035327	0.00057905	0.00015216	774.63	4.0578e-06	7.4544e-06	1058	333.96	5.2183e-06	3.7795e-06	507.71	187.92	130.96	76.685	5.2963e-06	112.57	0.00047785	0.00044758	0.00012089	683.07	4.7949e-06	4.7923e-06	934.5	297.28	4.84e-06	4.8997e-06	447.76	168.34	118.13	69.247	5.0261e-06	99.88	256.795	45.583	33.529	-62.261	128.403	110.717	-63.925	-56.046	117.833	92.692	-59.946	-54.528	-51.592	-45.743	148.978	-50.468	-8191	255	
1322.053	1	1	0	0	0.30303	0.3167	0.05679	0.18979	0.021367	0.17725	0.2303	0.24143	0.058114	0.099555	0.1199	0.13748	0.15719	0.177	0.17708	0.2987	-2.6521	-2.8187	-3.0375	-3.0417	-2.8167	-3.2146	-3.0438	-3.2542	-3.3583	-2.7687	-3.1312	-3.1708	-2.925	-3.2729	-2.8375	-3.1667	109.148	98.294	48.621	276.905	151.941	129.879	-29.230	-68.740	226.227	258.784	66.635	228.601	167.524	154.357	278.240	181.894	0.00036851	0.00050382	0.00018711	775.11	5.3698e-06	6.6209e-06	1060.9	331.7	8.9776e-06	7.1359e-06	497.83	185.47	129.75	75.789	7.1132e-06	110.52	0.00049653	0.00046836	0.00013053	684.82	5.1245e-06	5.3559e-06	935.32	296.42	5.25e-06	5.1779e-06	441.71	165.21	116.79	68.524	5.1596e-06	98.266	251.758	5.896	18.399	-61.923	136.679	77.056	-64.116	-55.967	151.488	68.394	-59.838	-54.369	-51.212	-45.676	127.224	-50.419	-8191	255	
1322.151	1	1	0	0	0.18825	0.093999	0.038199	0.024819	0.038842	0.078268	0.11306	0.16083	0.21104	0.076406	0.061562	0.11225	0.21157	0.086033	0.23721	0.20404	-2.8229	-2.8667	-3.05	-3.0729	-2.8812	-3.2292	-3.0687	-3.1	-3.2292	-2.9375	-3.2208	-3.425	-3.0396	-3.3812	-3.1188	-3.0521	252.002	114.940	257.543	70.887	241.110	-38.212	181.358	-32.543	139.508	63.880	-23.091	147.145	276.554	204.892	91.061	163.141	0.00031216	0.00035071	0.00021787	768.09	7.301e-06	8.2111e-06	1053.4	331.06	1.4877e-06	6.3544e-06	502.76	185.82	130.54	75.588	1.4629e-05	110.28	0.00050995	0.00046892	0.00013287	679.75	5.13e-06	5.0603e-06	927.39	296.38	4.9636e-06	5.13e-06	443.86	165.58	117.36	68.352	5.1547e-06	98.187	264.829	57.976	21.046	-61.929	76.833	52.869	-63.823	-56.275	121.939	91.036	-59.905	-54.545	-51.503	-45.717	77.237	-50.642	-8191	255	
1322.248	1	1	0	0	0.091805	0.17954	0.20266	0.07424	0.16652	0.027559	0.31976	0.097852	0.12272	0.20681	0.23831	0.16696	0.23369	0.19121	0.10569	0.25495	-2.85	-3.025	-3.0229	-3.1042	-2.8688	-3.175	-3.0563	-3.0042	-3.0687	-2.8563	-2.9083	-3.0042	-2.7208	-3.1667	-3.2917	-3.0312	53.158	117.095	233.977	-20.287	135.187	-18.052	203.928	193.546	105.995	-68.999	158.836	-44.511	-22.461	248.832	226.527	217.724	0.00027583	0.0010967	5.8821e-05	765.4	9.0404e-06	1.0851e-05	1052.9	326.02	4.2778e-06	7.8367e-06	494.69	184.09	128.25	75.614	6.4316e-06	110.28	0.00049619	0.00046733	0.0001302	675.65	5.1297e-06	5.1695e-06	924.8	292.09	5.2744e-06	5.0844e-06	437.41	163.98	116.29	68.392	5.2356e-06	98.119	251.873	38.609	-71.914	-62.390	98.586	92.092	-64.179	-56.179	132.493	95.181	-59.899	-55.042	-51.040	-45.612	109.360	-50.472	-8191	255	
1322.342	1	1	0	0	0.15231	0.34678	0.28827	0.10593	0.14975	0.02292	0.035887	0.31177	0.21394	0.17013	0.11508	0.27932	0.056665	0.26396	0.18402	0.079455	-2.9354	-2.9292	-3.0042	-3.2667	-2.875	-3.1417	-3.1792	-2.9688	-3.0979	-2.9125	-2.9458	-3.2938	-2.8167	-3.0479	-3.0375	-3.025	212.480	182.679	257.974	213.739	-54.197	29.038	-67.713	-55.150	-48.939	215.524	153.624	251.038	-45.459	232.459	278.092	-52.572	0.00036759	0.00099001	0.00027728	769.17	3.9429e-06	9.9718e-06	1054.6	333.53	2.1069e-06	8.6782e-06	503.08	187.59	130.34	76.832	5.8226e-06	112.21	0.00050786	0.00049009	0.00013233	680.21	5.1725e-06	5.1359e-06	930.07	297.47	5.1923e-06	5.2927e-06	444.03	167.8	117.89	69.252	5.2838e-06	99.757	259.070	9.105	37.634	-62.038	79.838	82.823	-64.018	-56.061	103.639	75.725	-60.038	-54.451	-50.972	-45.649	111.573	-50.709	-8191	255	
1322.438	1	1	0	0	0.11443	0.12382	0.094293	0.12656	0.14189	0.1541	0.29133	0.31797	0.11663	0.13323	0.22755	0.14611	0.19634	0.061252	0.16501	0.35347	-2.675	-3.1271	-2.9813	-3.1875	-3.0229	-3.0229	-3.3771	-3.0229	-3.0687	-3.0125	-2.9813	-3.2021	-2.9958	-3.1229	-3.2333	-3.175	-50.115	101.078	138.288	203.402	173.321	170.459	227.014	232.283	210.658	279.000	265.448	199.649	205.555	-43.385	-12.264	198.833	0.00036653	0.00068172	0.00021879	777.26	8.1755e-06	7.8542e-06	1057.4	336.72	3.771e-06	7.5757e-06	510.58	190.28	133.43	77.402	1.2444e-05	113.78	0.00050642	0.00048132	0.00013255	684.38	5.1873e-06	5.1802e-06	933.63	301.28	5.0476e-06	5.2236e-06	450.77	169.62	119.96	70.127	5.4253e-06	101.22	262.815	19.946	5.619	-62.301	127.048	98.314	-64.039	-56.324	42.826	36.250	-59.542	-54.648	-51.160	-45.592	119.773	-50.270	-8191	255	
1322.559	1	1	0	0	0.11877	0.27416	0.071529	0.16105	0.2724	0.15374	0.095401	0.23643	0.085879	0.063471	0.14888	0.020733	0.20805	0.20917	0.086219	0.12447	-2.8583	-3.0062	-2.725	-3.2167	-3.0062	-3.0312	-3.3417	-3.0583	-3.0583	-2.9458	-2.6458	-3.4188	-2.8833	-3.1292	-3.2458	-3.0833	53.676	163.887	-71.562	216.223	105.415	47.563	172.735	262.185	214.233	151.722	-1.935	137.239	-11.526	-64.729	192.665	55.571	0.00033417	0.0010645	0.00021742	773.88	3.0884e-06	8.9676e-06	1058.7	339.47	5.3815e-06	5.6388e-06	506.45	189.28	132.13	76.986	2.2032e-06	112.06	0.00049903	0.00048017	0.00013334	687.43	5.2848e-06	5.3549e-06	937.25	302.74	5.2366e-06	5.3686e-06	449.07	168.17	119.1	69.548	5.2639e-06	99.591	256.584	29.513	-32.481	-62.400	128.131	102.697	-63.886	-56.198	99.959	79.629	-59.746	-54.644	-51.005	-45.557	-69.233	-50.360	-8191	255	
1322.655	1	1	0	0	0.063415	0.21004	0.21364	0.34083	0.095914	0.24145	0.035044	0.11234	0.28252	0.3281	0.14617	0.10735	0.32554	0.10133	0.036643	0.081954	-2.725	-3.2958	-2.9125	-3.2313	-3	-3.2042	-3.2583	-2.9833	-3.1917	-2.925	-2.7917	-3.1604	-3.0417	-3.1771	-3.3292	-3.1063	81.761	98.466	281.459	233.222	265.380	148.365	206.180	220.655	79.264	-45.725	-63.622	189.324	231.358	-50.068	108.641	229.212	0.00034763	0.0013718	0.00021078	771.1	7.3082e-06	8.5033e-06	1053.3	335.61	4.767e-06	1.2021e-05	502.1	186.33	130.97	75.679	3.4892e-06	110.85	0.00049794	0.00047354	0.0001303	683.4	4.9991e-06	5.1479e-06	928.75	298.58	5.2135e-06	5.2297e-06	444.23	165.56	117.54	68.598	5.3506e-06	98.44	257.387	7.635	-3.831	-62.394	102.523	102.424	-64.083	-55.767	120.862	55.044	-59.902	-54.535	-51.181	-45.841	49.035	-50.525	-8191	255	
1322.727	1	1	0	0	0.15705	0.06218	0.044165	0.22092	0.22395	0.17245	0.19197	0.18514	0.09368	0.1567	0.14903	0.26219	0.21739	0.3445	0.17977	0.24557	-2.7042	-3.325	-2.9917	-3.1917	-3.0458	-2.725	-3.3208	-2.75	-3	-3.3583	-3.0312	-3.3208	-3.2	-3.0625	-3.3271	-3.0417	-24.880	197.748	-63.055	-65.092	205.524	8.703	191.838	253.124	3.432	133.276	96.622	282.629	-54.044	244.693	56.822	165.695	0.00036762	0.00055086	0.00028347	775.85	4.5818e-06	9.7658e-06	1058.4	337.23	5.3428e-06	4.5641e-06	504.27	186.18	131.34	76.262	8.9022e-06	111.97	0.00049482	0.00047213	0.00013282	681.71	4.9651e-06	5.1203e-06	930.01	300.23	5.0277e-06	5.0611e-06	446.36	166.67	118.02	68.909	5.2342e-06	99.122	265.752	5.619	14.288	-61.966	105.890	113.149	-64.118	-56.346	121.738	101.199	-60.247	-54.713	-51.410	-45.863	39.475	-50.666	-8191	255	
1322.847	1	1	0	0	0.11915	0.048278	0.15685	0.11147	0.15117	0.054606	0.21228	0.13553	0.14373	0.25903	0.11704	0.12253	0.25867	0.31172	0.11152	0.10086	-2.5667	-3.3187	-2.7479	-3.1896	-3.0708	-2.8625	-3.3771	-2.8563	-2.9271	-3.3396	-2.875	-3.2583	-3.0625	-3.05	-3.2021	-2.9938	271.030	10.537	219.595	273.032	112.128	-54.240	83.757	-0.046	0.965	-23.689	274.288	217.346	-39.577	281.811	7.246	-51.767	0.00028684	0.00065505	0.00020058	772.42	5.4147e-06	1.0089e-05	1064	335.66	3.6953e-06	6.669e-06	504.33	188.34	130.96	76.146	6.005e-06	112.13	0.00049648	0.00046882	0.00013224	681.99	4.9755e-06	5.1047e-06	934.27	299.15	5.1602e-06	5.0378e-06	446.79	167.57	118.28	68.756	5.0082e-06	99.623	262.499	9.095	1.856	-62.445	134.502	87.321	-64.129	-56.166	86.433	74.657	-59.867	-54.470	-51.283	-45.528	104.840	-50.420	-8191	255	
1322.943	1	1	0	0	0.15265	0.078609	0.29809	0.15689	0.032614	0.1764	0.16023	0.20715	0.22247	0.068645	0.25494	0.12443	0.19661	0.26693	0.15321	0.28943	-2.3812	-3.1063	-2.9083	-3.1937	-3.1625	-2.8604	-3.3729	-3.2271	-2.9396	-3.2729	-3.0792	-3.3104	-3.3521	-3.1521	-3.2708	-3.3417	190.109	150.317	189.948	161.268	150.226	5.794	222.665	231.633	193.692	127.664	250.086	-58.785	275.260	212.106	245.226	199.827	0.00034622	0.0005304	0.00015077	770.44	1.4446e-06	4.8373e-06	1059	334.79	5.4564e-06	4.3967e-06	506.83	188.2	131.39	76.151	9.1246e-06	111.63	0.00048989	0.00045509	0.00012496	681	4.8514e-06	4.9732e-06	934.39	298.49	4.9722e-06	4.9359e-06	448.21	168.15	118.04	68.754	4.9052e-06	99.565	281.817	26.820	-25.341	-62.381	57.699	54.569	-63.795	-56.161	78.000	72.593	-60.152	-54.561	-51.456	-46.012	159.836	-50.704	-8191	255	
1323.039	1	1	0	0	0.21143	0.11684	0.21186	0.29546	0.11756	0.12806	0.18861	0.33029	0.11657	0.059198	0.19316	0.24614	0.28712	0.4193	0.15215	0.056803	-2.6771	-3.3875	-3.0833	-3.2812	-3.3563	-2.8688	-3.3958	-3.1958	-2.8167	-3.1312	-2.925	-2.7667	-3.1917	-3.0396	-3.2625	-3.4646	264.755	19.157	30.612	-22.105	142.572	44.812	40.596	171.474	-36.057	284.525	168.965	112.492	207.726	-68.702	2.558	134.219	0.00034057	0.00063498	0.00028861	772.94	3.8317e-06	5.5747e-06	1060.7	334.51	2.3571e-06	5.7562e-06	503.9	186.33	130.33	75.451	7.2332e-06	110.37	0.0004822	0.00044078	0.00012871	681.06	4.8009e-06	4.8672e-06	929.97	297.94	5.0982e-06	4.8115e-06	444.81	165.76	117.34	68.211	5.0209e-06	98.306	258.077	-10.659	8.791	-62.124	102.878	66.982	-63.960	-56.508	100.027	49.078	-59.938	-54.731	-51.438	-45.765	129.139	-50.865	-8191	255	
1323.136	1	1	0	0	0.16591	0.075883	0.43417	0.1592	0.17636	0.20027	0.058872	0.14353	0.17121	0.090233	0.2461	0.27783	0.15858	0.36394	0.11541	0.16661	-2.4521	-3.2417	-2.9979	-2.9875	-3.0875	-2.7542	-3.1771	-3.2167	-2.9729	-3.4188	-3.1375	-2.8292	-3.1604	-3.0292	-3.4	-3.4396	132.939	205.980	266.933	-35.367	61.049	-54.387	268.173	-47.352	161.558	77.170	-6.625	205.419	-47.587	263.491	61.421	209.087	0.00040458	0.00049552	0.00020955	767.38	3.0769e-06	9.4825e-06	1050.2	335.04	4.4273e-06	7.9271e-06	502.37	185.09	129.7	74.596	4.584e-06	109.55	0.00049117	0.00044879	0.00012398	678.32	5.0234e-06	4.9141e-06	924.68	298.02	4.9351e-06	4.9412e-06	442.92	165.04	116.99	67.582	4.9974e-06	97.373	267.125	-7.677	1.678	-62.036	93.687	104.014	-64.029	-56.274	81.297	49.398	-60.300	-54.616	-51.399	-46.056	135.552	-50.803	-8191	255	
1323.232	1	1	0	0	0.1025	0.13596	0.1277	0.12636	0.10435	0.20342	0.15913	0.21284	0.27684	0.046053	0.20819	0.18758	0.16199	0.2424	0.15107	0.20408	-2.5271	-3.2146	-3.0229	-3.0729	-3.0167	-2.9854	-3.0292	-3.2521	-3.1125	-3.3208	-2.9688	-2.8667	-3.4938	-3.1562	-3.2146	-3.3771	234.758	-37.025	29.306	-36.151	-50.579	-2.399	229.139	281.162	-56.840	239.596	-65.570	190.822	-42.837	-38.400	250.414	135.550	0.00032158	0.0010595	0.00024979	757.74	7.1732e-06	9.3486e-06	1038.1	332.82	3.5805e-06	1.1321e-05	501.06	183.5	128.4	74.095	8.8744e-06	108.93	0.00048214	0.00046005	0.00012731	670.76	4.8716e-06	5.0009e-06	914.99	295.71	4.8393e-06	4.9546e-06	441.3	164.28	115.67	66.963	5.032e-06	97.058	260.243	5.269	-16.065	-62.289	124.130	93.969	-64.111	-56.251	58.722	75.715	-59.952	-54.806	-51.179	-45.953	86.521	-50.753	-8191	255	
1323.326	1	1	0	0	0.11835	0.26025	0.21742	0.18111	0.12267	0.071994	0.067931	0.13594	0.14437	0.067486	0.096729	0.07865	0.16622	0.33758	0.21727	0.29185	-2.4625	-3.0687	-3.1437	-3.075	-3.2875	-2.875	-2.9958	-3.2375	-3.0729	-3.1917	-3.2604	-2.9188	-3.0958	-2.9729	-2.8958	-3.3333	120.401	-36.662	238.094	-16.341	262.603	225.448	-64.048	272.482	247.918	280.539	201.685	223.784	284.978	68.267	171.707	154.994	0.00030565	0.00056042	0.00014706	755.68	4.1933e-06	1.0699e-05	1041.9	329.92	4.1942e-06	7.0716e-06	501.02	186.23	128.98	74.412	6.5986e-06	110.42	0.00048214	0.00044163	0.00012683	667.05	4.8542e-06	4.8956e-06	916.4	294.35	4.8403e-06	4.8187e-06	442.28	165.67	115.92	67.142	5.27e-06	97.982	262.373	35.413	6.205	-62.485	129.825	111.395	-63.955	-56.089	108.323	99.836	-59.994	-54.926	-51.288	-45.744	95.032	-50.424	-8191	255	
1323.422	1	1	0	0	0.15198	0.11289	0.12696	0.19603	0.04421	0.21657	0.201	0.18374	0.22483	0.046806	0.11896	0.2722	0.28859	0.40228	0.12925	0.37444	-2.4396	-3.1792	-3.2438	-2.9396	-3.2396	-2.875	-3.0312	-3.1708	-2.7771	-3.1312	-3.3604	-3.1063	-3.2	-3.1042	-2.7625	-3.2146	17.482	183.099	-68.008	247.427	-6.547	6.577	-50.618	205.600	225.425	10.089	35.930	222.899	281.666	256.866	189.869	232.542	0.0003319	0.00050322	0.00012748	754.3	6.4605e-06	1.0043e-05	1044.4	323.71	2.6459e-06	1.2068e-05	492.03	182.5	126.32	73.26	5.3105e-06	108.01	0.00048602	0.0004479	0.00012527	667.92	4.7655e-06	4.8626e-06	916.84	290.36	4.7833e-06	4.9037e-06	435.1	162.56	113.57	66.159	4.7822e-06	95.849	253.946	48.185	-16.910	-62.417	126.561	81.033	-63.914	-56.109	82.627	90.646	-59.886	-54.818	-51.196	-45.989	132.593	-50.463	-8191	255	
1323.518	1	1	0	0	0.25966	0.1748	0.15135	0.27272	0.29012	0.017476	0.20775	0.17782	0.16957	0.10223	0.1922	0.071089	0.13973	0.22045	0.10411	0.27694	-2.5625	-3.1063	-3.3021	-2.9562	-3.3271	-3.2729	-2.9896	-3.3417	-3.0687	-3	-3.2812	-2.9854	-3.2917	-3.0354	-2.6979	-3.3917	265.137	121.825	7.455	-64.043	137.629	-18.217	226.325	227.369	197.623	29.789	174.119	208.447	-58.041	178.260	4.922	245.545	0.00039219	0.00041083	0.00021779	752.58	6.2041e-06	9.1637e-06	1030.7	321.97	3.7281e-06	7.3203e-06	489.67	181.17	126.55	73.419	7.5179e-06	108.61	0.00045886	0.0004303	0.00011835	663.07	4.6102e-06	4.6591e-06	909.79	287.32	4.6943e-06	4.6925e-06	432.37	161.52	113.96	66.27	4.7689e-06	96.282	259.364	10.377	-4.835	-62.489	95.710	84.550	-64.056	-56.095	116.184	74.533	-60.247	-54.583	-51.270	-45.591	102.421	-50.828	-8191	255	
1323.639	1	1	0	0	0.095949	0.22071	0.10391	0.14699	0.19338	0.21359	0.2938	0.053792	0.13046	0.28082	0.1108	0.13398	0.22931	0.20595	0.2263	0.24908	-2.4646	-3.0354	-3.2479	-3.0896	-3.2	-3.1396	-2.9771	-3.325	-3.0021	-3.15	-3.3167	-3.0479	-3.1167	-3.2708	-2.9083	-3.2354	127.403	252.752	-59.510	277.152	68.013	116.572	240.082	253.808	250.824	87.288	59.598	103.258	269.512	-59.099	104.063	285.399	0.00031678	0.00052253	0.00022149	755.97	4.9347e-06	1.2663e-05	1040.2	325.53	1.3561e-06	6.2226e-06	494.18	183.3	128.37	74.508	2.6057e-06	109.4	0.00047368	0.00044407	0.00011805	669.18	4.6736e-06	4.7372e-06	916.09	290.05	4.7584e-06	4.8651e-06	435.76	163.12	115.29	67.011	4.855e-06	97.142	255.135	-18.086	27.828	-62.217	79.183	72.261	-64.204	-56.428	98.178	79.373	-59.947	-54.636	-51.344	-45.861	37.377	-50.433	-8191	255	
1323.735	1	1	0	0	0.30793	0.12421	0.13412	0.4157	0.1538	0.11122	0.29023	0.25351	0.092032	0.043141	0.37605	0.22426	0.2003	0.11401	0.066963	0.36317	-2.5229	-2.8896	-3.3521	-2.9292	-3.1083	-3.1333	-2.9667	-3.2562	-2.7417	-2.7979	-3.3979	-2.9354	-3.2812	-3.3792	-2.9646	-3.4458	35.179	245.345	-55.822	283.053	187.065	74.073	228.818	237.524	168.952	133.041	275.410	186.263	242.872	237.158	49.785	202.519	0.000328	0.00036256	0.00020996	758	1.0124e-05	5.7402e-06	1032.5	327.02	2.93e-06	1.0563e-05	497.58	184.61	128.33	74.505	1.0168e-05	110.03	0.00047971	0.00045625	0.0001253	668.84	4.8694e-06	4.949e-06	913.25	291.07	4.806e-06	4.9222e-06	439.21	164.34	115.25	67.322	4.9559e-06	97.645	254.493	3.169	41.943	-62.234	123.278	70.284	-64.034	-56.308	105.322	76.750	-59.876	-54.771	-51.439	-45.794	70.694	-50.458	-8191	255	
1323.831	1	1	0	0	0.11528	0.079191	0.04513	0.043824	0.17588	0.091886	0.098233	0.17127	0.41351	0.15369	0.036636	0.12749	0.026605	0.17331	0.13507	0.50454	-2.6437	-3.0083	-3.2042	-3.1917	-3.1771	-3.375	-3.0292	-3.3729	-3.1542	-3.1	-3.6063	-3.0479	-2.8854	-3.1458	-2.8187	-3.4479	37.764	25.453	156.333	2.107	255.051	-66.772	88.901	175.313	-23.380	255.457	183.763	214.236	-53.869	-57.747	161.605	241.597	0.00033712	0.00051297	0.00016196	760.71	7.6898e-06	1.2373e-05	1041	328.99	4.9295e-06	6.2329e-06	501.51	187.38	129.22	74.901	3.1756e-06	110.52	0.00047225	0.0004393	0.00011985	669.93	4.7132e-06	5.0214e-06	919.35	293.07	4.8554e-06	4.8894e-06	442.72	166.61	116.27	67.642	4.8055e-06	98.58	252.871	25.726	27.589	-62.403	94.166	60.861	-64.147	-56.514	92.849	92.864	-59.816	-54.611	-51.155	-45.770	64.978	-50.414	-8191	255	
1323.952	1	1	0	0	0.069726	0.099278	0.091301	0.045556	0.087931	0.10855	0.11632	0.26031	0.064015	0.053424	0.06585	0.25086	0.11986	0.1373	0.27654	0.21408	-2.8625	-2.875	-3.1479	-2.9875	-2.8	-3.35	-2.9396	-3.2042	-3.2167	-3.1125	-3.4583	-3.1813	-3	-3.3312	-2.7562	-3.3063	255.196	1.436	217.680	-43.089	204.072	251.716	253.398	-69.368	-47.292	206.500	-68.889	-66.487	-52.214	277.735	84.365	170.655	0.00036352	0.00098001	0.00024979	763.46	7.3085e-06	3.9163e-06	1043.2	330.64	2.1458e-06	3.1713e-06	497.98	185.42	129.2	75.177	1.9998e-06	110.24	0.000474	0.00044788	0.00012494	673.09	4.7166e-06	4.7274e-06	919.64	294.29	4.8763e-06	4.9086e-06	441.18	165.3	116.34	67.75	4.9357e-06	98.097	246.959	29.836	3.581	-62.199	119.373	84.859	-64.218	-56.167	76.882	58.371	-59.947	-54.719	-51.198	-45.912	113.404	-50.342	-8191	255	
1324.024	1	1	0	0	0.023111	0.15346	0.22378	0.03984	0.055999	0.15928	0.089049	0.14346	0.13423	0.17542	0.32332	0.25555	0.25352	0.20318	0.054857	0.14095	-2.8563	-3.0417	-3.2313	-3.1875	-2.9542	-3.2396	-3.0396	-3.0687	-2.9688	-2.8812	-3.1833	-3.2708	-2.9021	-3.3354	-2.9917	-3.0375	35.492	265.126	235.705	8.724	98.061	59.964	281.344	249.161	11.660	224.374	265.330	176.085	212.736	-58.538	236.613	284.900	0.0003396	0.00090378	0.00016083	765.49	6.9383e-06	7.4672e-06	1047	329.48	4.6239e-06	1.1937e-05	500.59	184.38	127.94	74.267	7.4702e-06	109.54	0.00046754	0.00043696	0.00011858	673.72	4.8015e-06	4.9109e-06	920.8	293.4	4.8175e-06	4.7055e-06	440.57	164.59	115.23	67.087	4.7607e-06	97.436	260.267	8.906	13.194	-62.298	113.178	49.184	-63.921	-56.361	102.374	53.064	-59.854	-54.896	-51.311	-45.755	75.153	-50.279	-8191	255	
1324.120	1	1	0	0	0.18057	0.10819	0.11844	0.17511	0.12327	0.15751	0.34553	0.09902	0.23591	0.21659	0.088069	0.26701	0.17971	0.26983	0.21382	0.13969	-2.6083	-2.9604	-3.2062	-3.3083	-3.0354	-3.3083	-3.2042	-3.3479	-3.2958	-2.9417	-3.1583	-3.2104	-2.8917	-3.1333	-3.1146	-3.1333	80.470	229.644	94.861	285.017	177.362	14.204	145.576	276.886	21.425	243.454	202.792	-13.974	194.162	235.127	5.662	192.873	0.00030409	0.00046431	0.00017535	761.18	4.4283e-06	5.244e-06	1045.8	327.25	4.4298e-06	6.529e-06	501.61	187.04	129.28	75.416	5.797e-06	111.86	0.00047651	0.00042321	0.00011994	671.48	4.6793e-06	4.7292e-06	919.74	292.38	4.7858e-06	4.6909e-06	441.83	166.64	116.42	68.091	4.8165e-06	99.252	251.690	15.583	8.113	-62.255	125.736	109.069	-63.752	-56.216	143.813	72.513	-59.744	-54.826	-51.154	-45.669	119.628	-50.530	-8191	255	
1324.239	1	1	0	0	0.14169	0.22651	0.092545	0.27859	0.083464	0.084651	0.16124	0.12501	0.17963	0.020094	0.093257	0.20262	0.18142	0.26519	0.13758	0.22501	-2.7958	-2.9229	-3.0396	-3.1729	-2.7583	-3.0687	-2.9521	-3.0979	-3.3	-2.9729	-3.225	-3.2833	-2.9042	-3.1396	-2.8625	-3.0583	133.662	160.774	166.352	235.316	187.665	136.552	204.040	204.804	34.072	71.130	153.766	-69.335	120.107	280.715	148.726	179.476	0.00036957	0.0008173	0.0001276	768.35	5.2897e-06	1.094e-05	1054.1	334.56	5.9506e-06	7.1632e-06	510.16	188.48	131.45	76.988	8.4254e-06	112.75	0.00048598	0.00044162	0.00012549	677.5	4.7076e-06	4.8125e-06	927.62	299.46	4.8842e-06	4.8584e-06	449.87	168.58	118.53	69.208	5.0897e-06	100.11	257.682	34.020	1.932	-62.297	103.600	63.398	-64.124	-56.212	79.716	36.563	-59.792	-54.769	-51.196	-45.898	111.527	-50.423	-8191	255	
1324.335	1	1	0	0	0.1122	0.25959	0.16305	0.15233	0.061938	0.34034	0.083129	0.37839	0.36123	0.1344	0.039632	0.10163	0.05231	0.2218	0.12056	0.23762	-2.6937	-2.9417	-3.0958	-3.0271	-2.8667	-3.1417	-3.2917	-3.1188	-3.4667	-3.0292	-3.1979	-3.2875	-2.9729	-3.1729	-3.2417	-3.1917	-28.071	190.051	238.713	180.328	149.443	240.049	-64.250	232.486	159.657	117.132	-65.582	-37.468	241.370	224.459	97.690	191.645	0.00033545	0.00091655	0.00019974	772.79	1.2047e-05	7.8115e-06	1061.2	335.65	8.2064e-06	6.3415e-06	503.43	187.89	130.06	75.677	5.3214e-06	111.47	0.00049139	0.00046678	0.0001261	681.09	4.9694e-06	4.9667e-06	929.1	299.07	4.8225e-06	4.8034e-06	445.33	167.46	117.35	68.425	5.0632e-06	98.924	265.053	37.796	-4.050	-62.265	85.530	92.893	-63.923	-56.103	116.191	89.820	-59.940	-54.664	-51.250	-45.749	114.138	-50.378	-8191	255	
1324.431	1	1	0	0	0.18006	0.028179	0.12157	0.18105	0.12722	0.07494	0.22186	0.14917	0.34802	0.046331	0.036581	0.17395	0.21462	0.20299	0.09453	0.17552	-2.9771	-2.8729	-2.9833	-3.5021	-2.9125	-2.8958	-3.0917	-2.8312	-3.0792	-3.0604	-3.2292	-3.4396	-3.1125	-3.2583	-3.0646	-3.0458	130.852	164.686	92.577	-32.083	12.019	246.082	180.768	188.011	243.405	-52.395	-9.350	242.346	259.876	235.065	-11.709	238.133	0.00033893	0.0010428	0.00012009	763.81	8.9846e-06	9.0921e-06	1049.1	333.3	5.0256e-06	8.4329e-06	497.82	182.77	130.03	75.785	2.7479e-06	109.88	0.0004853	0.00045944	0.00012507	677.89	4.7524e-06	4.9838e-06	921.73	296.5	4.8679e-06	4.9445e-06	440.91	164.3	116.85	68.246	5.0927e-06	97.955	255.377	13.774	2.923	-62.182	76.412	80.549	-64.221	-56.434	113.561	85.063	-59.666	-54.908	-51.246	-45.827	200.709	-50.607	-8191	255	
1324.527	1	1	0	0	0.073609	0.1149	0.10382	0.11231	0.18609	0.16856	0.14984	0.35907	0.097515	0.11273	0.20327	0.2471	0.24986	0.36655	0.16153	0.26625	-2.5563	-2.9771	-3.0229	-3.3083	-3.0979	-3.2417	-3.3563	-2.7812	-3.3167	-3.2042	-3.0875	-3.4667	-2.8958	-2.9229	-3.1167	-2.9292	157.778	151.595	-44.658	-72.774	166.543	44.230	205.944	274.337	-67.469	-69.886	276.217	266.348	250.699	-40.138	151.322	211.174	0.00031119	0.00075304	0.00020306	763.59	9.7566e-06	8.6331e-06	1046.4	333.32	3.6476e-06	1.1726e-05	500.7	185.7	129.91	75.374	1.0034e-05	110.73	0.00048672	0.00046158	0.00012647	675.82	4.8995e-06	4.8789e-06	919.57	296.73	4.8619e-06	4.9964e-06	441.68	165.42	116.93	68.198	4.9766e-06	98.393	251.845	2.316	-7.843	-62.284	100.132	95.177	-64.075	-56.060	127.252	48.326	-60.174	-54.758	-51.330	-45.723	151.296	-50.458	-8191	255	
1324.623	1	1	0	0	0.065821	0.20694	0.24855	0.19083	0.085246	0.13749	0.31669	0.25606	0.15697	0.37559	0.12008	0.25852	0.03297	0.40411	0.05876	0.24241	-2.7417	-2.9229	-3.0187	-3.3417	-3.0167	-2.9333	-3.1229	-2.8688	-2.9792	-2.9417	-3	-3.3354	-3.1271	-3.4167	-3.3083	-3.1229	203.881	22.644	211.777	121.968	46.864	-65.879	241.518	-70.934	253.508	228.574	151.202	241.945	-61.471	280.354	240.074	-67.209	0.00035343	0.00077817	0.00024294	768.53	8.4254e-06	1.0231e-05	1049.9	334.46	2.0197e-06	6.4697e-06	505.41	186.79	130.17	75.971	6.0137e-06	110.95	0.00047043	0.00044772	0.00012435	676.82	4.7464e-06	4.8212e-06	922.48	297.72	4.8568e-06	4.8977e-06	444.09	166.51	117.88	68.692	5.061e-06	99.047	252.384	11.930	-7.029	-62.280	138.731	80.928	-64.106	-56.279	140.600	82.709	-60.170	-54.870	-51.257	-45.815	89.003	-50.555	-8191	255	
1324.719	1	1	0	0	0.035409	0.1104	0.063948	0.3002	0.12269	0.053966	0.036935	0.08906	0.1515	0.10881	0.34684	0.093455	0.42697	0.4043	0.053493	0.15459	-2.8042	-3.2583	-2.95	-3.2333	-3.325	-3.0062	-3.3146	-2.9208	-3.1292	-3.2188	-3.0417	-3.2896	-3.0312	-2.8604	-3.325	-3.2042	185.357	119.291	27.252	225.186	284.354	182.804	80.016	106.713	-55.893	-25.230	183.962	-54.935	213.038	231.145	91.172	172.243	0.00034338	0.00084527	0.00023441	767.66	5.7555e-06	7.475e-06	1045.3	336.4	3.5403e-06	8.4079e-06	505.05	185.68	130.99	76.081	5.421e-06	110.7	0.00048037	0.00045799	0.00012752	677.81	4.8748e-06	5.0789e-06	922.78	299.16	4.8724e-06	4.9197e-06	445.35	165.51	117.69	68.506	4.9389e-06	98.34	261.755	26.171	7.050	-62.070	146.026	90.153	-64.118	-56.209	59.474	92.987	-60.123	-54.968	-51.208	-45.831	37.559	-50.584	-8191	255	
1324.816	1	1	0	0	0.21923	0.15205	0.35512	0.14969	0.038822	0.08951	0.1895	0.20584	0.15398	0.22313	0.11894	0.23095	0.24314	0.28884	0.068968	0.089639	-2.8167	-3.1896	-2.9562	-3.2812	-2.8896	-2.8521	-3.4125	-2.9896	-2.9375	-3.25	-2.8	-3.5062	-3.1479	-2.9625	-3.3167	-3.3438	59.986	99.359	31.257	260.338	83.160	115.731	80.888	169.817	83.478	223.032	183.850	274.210	187.785	236.643	168.175	56.478	0.00033205	0.00061009	0.00018235	764.63	3.5967e-06	1.2892e-05	1040.4	333.6	7.9099e-06	5.9058e-06	503.45	185.26	130.62	75.746	8.2757e-06	110.92	0.00048797	0.00044246	0.00012705	677.33	4.7508e-06	4.7544e-06	919.75	297.88	4.7405e-06	4.9059e-06	443.7	165.26	117.3	68.287	4.7468e-06	98.49	257.007	23.164	18.692	-62.105	132.179	55.857	-64.188	-56.370	91.943	75.645	-60.126	-54.560	-51.234	-45.812	82.773	-50.436	-8191	255	
1324.912	1	1	0	0	0.060887	0.38982	0.17267	0.3605	0.074641	0.19845	0.070186	0.1245	0.11054	0.19096	0.14841	0.16474	0.27062	0.23719	0.11388	0.13347	-2.6813	-3.1896	-2.9646	-3.3646	-3.2667	-3.0333	-3.3417	-3.1042	-3.1583	-3.3125	-3.1271	-3.1583	-3.3021	-3.0958	-3.1979	-3.2271	175.067	-20.904	21.218	-72.627	262.273	-23.371	-57.373	276.564	98.023	279.583	199.658	198.771	228.173	-44.906	165.109	-60.248	0.00028991	0.00098164	6.2753e-05	769.03	2.8301e-06	1.0609e-05	1053.1	335.93	2.5693e-06	9.1568e-06	503.22	187.09	131.05	76.09	2.6244e-06	111.47	0.00049016	0.00043352	0.00012224	676.91	4.7711e-06	4.7836e-06	924.15	298.96	4.9016e-06	4.9186e-06	444.51	166.32	118.13	68.653	4.8727e-06	98.981	264.465	38.460	-24.804	-62.362	135.948	78.288	-64.160	-56.530	76.387	99.612	-59.993	-54.606	-51.450	-45.773	99.656	-50.649	-8191	255	
1325.032	1	1	0	0	0.24695	0.21598	0.16451	0.24735	0.31276	0.055874	0.095998	0.17316	0.30079	0.18017	0.18988	0.1608	0.22282	0.25606	0.23957	0.18479	-2.5667	-3.2854	-2.6708	-3.0167	-3.1125	-3.0604	-3.4875	-3.1083	-2.8479	-3.2771	-2.9271	-3.1271	-3.1521	-3.1542	-3.1771	-3.2896	-38.610	3.761	-54.729	212.446	152.802	97.779	154.265	226.878	214.114	162.966	210.948	280.651	-72.871	164.865	220.299	178.065	0.00034281	0.00074007	0.00022348	765.28	5.4512e-06	1.1459e-05	1052.4	337.96	4.8649e-06	9.0788e-06	503.57	187.53	131.83	76.636	1.4854e-06	111.6	0.00048351	0.0004346	0.0001236	678.23	4.8027e-06	4.923e-06	924.08	300.47	5.0109e-06	4.9995e-06	446.29	167.03	118.7	69.004	5.0719e-06	99.421	258.607	18.129	23.754	-62.032	142.797	85.803	-64.149	-56.140	63.158	45.569	-59.934	-54.583	-51.465	-45.913	145.266	-50.417	-8191	255	
1325.127	1	1	0	0	0.076991	0.17316	0.08706	0.21315	0.27894	0.27492	0.18118	0.12229	0.087322	0.12953	0.098078	0.20998	0.26331	0.11376	0.1093	0.17711	-2.7375	-3.1813	-2.7729	-3.1875	-3.3042	-2.9167	-3.2917	-3.1271	-2.9292	-3.3875	-3.2792	-3.1854	-3.4896	-3.0333	-3.2875	-3.2896	-56.736	37.799	-9.827	280.688	63.465	201.361	194.947	-42.340	39.432	20.823	113.167	-48.097	233.097	-57.530	-53.494	-65.657	0.00033108	0.0004186	0.00025161	769.38	7.8382e-06	8.4622e-06	1060.7	337.81	6.6626e-06	8.7133e-06	503.43	188.68	130.82	75.909	4.6894e-06	112	0.00048993	0.00044596	0.00012558	679.41	4.9216e-06	4.9885e-06	927.68	300.83	4.9518e-06	4.816e-06	446.83	168.24	117.88	68.708	5.0463e-06	99.622	264.705	31.832	31.774	-62.140	99.492	74.741	-64.113	-56.513	87.352	88.311	-59.825	-54.742	-51.076	-45.822	144.174	-50.641	-8191	255	
1325.223	1	1	0	0	0.069	0.15517	0.041751	0.22712	0.21658	0.067505	0.19888	0.13722	0.14252	0.15	0.204	0.28101	0.12284	0.26863	0.17966	0.13263	-2.4833	-3.2104	-3	-3.0083	-3.175	-3.0438	-3.4042	-3.1854	-3.1667	-3.2521	-3.0708	-3.0271	-3.375	-3.1146	-2.9083	-3.4292	-56.776	-49.190	55.289	245.456	200.410	48.461	266.813	-32.579	236.843	45.713	246.858	217.283	83.890	252.437	-41.586	-46.585	0.0003125	0.00033391	0.00025946	765.7	4.2837e-06	1.1783e-05	1046.9	335.01	9.1739e-07	6.9565e-06	503.64	188.15	130.28	75.64	4.8612e-06	110.59	0.00047683	0.00045228	0.00012261	676.67	4.7845e-06	4.8722e-06	924.35	299.02	4.8964e-06	4.8974e-06	445.64	166.97	117.52	68.427	4.8639e-06	98.575	263.664	-63.068	2.848	-62.281	87.380	81.470	-64.023	-56.243	256.589	62.811	-59.822	-54.789	-51.075	-45.928	26.578	-50.381	-8191	255	
1325.321	1	1	0	0	0.16929	0.24009	0.034911	0.19491	0.11992	0.17057	0.078634	0.31994	0.26099	0.33405	0.059057	0.12689	0.041178	0.068702	0.11585	0.2758	-2.6479	-3.1229	-3.1146	-3.1437	-3.1979	-2.9896	-3.2958	-3.2167	-2.9313	-3.4021	-3.2729	-3.2083	-3.5812	-3.2208	-3.3458	-3.4771	7.657	63.762	62.819	258.113	104.428	-70.331	192.098	172.313	13.848	116.652	261.101	279.216	194.558	266.395	168.019	205.046	0.00035599	0.00078627	0.00015749	768.45	2.5784e-06	9.0376e-06	1049.2	333.66	4.9253e-06	1.1614e-05	501.64	183.8	129.82	75.28	4.101e-06	109.53	0.00048513	0.00046147	0.00012663	677.15	4.9469e-06	4.9695e-06	921.8	298.21	4.9675e-06	4.8803e-06	441.98	164.09	116.9	67.967	4.8522e-06	97.366	268.190	16.079	42.265	-62.182	237.728	109.077	-64.086	-56.730	111.664	74.824	-60.046	-54.925	-51.219	-45.580	52.112	-50.720	-8191	255	
1325.415	1	1	0	0	0.19655	0.28771	0.098649	0.18741	0.18886	0.046667	0.066402	0.024286	0.20182	0.20462	0.14237	0.3422	0.1423	0.27482	0.1486	0.35895	-2.7812	-3.1146	-3.0771	-3.0229	-3.1437	-2.9417	-2.9458	-3.3187	-2.8708	-3.2687	-3.325	-3.0208	-3.3521	-3.2687	-3.15	-3.3042	114.246	101.757	-28.612	252.557	211.387	102.266	-41.323	158.340	239.694	202.599	239.684	206.714	-61.839	282.349	-67.689	235.441	0.00033899	0.00043864	0.00029193	761.8	4.8181e-06	9.6111e-06	1042	332.03	6.2497e-06	6.5927e-06	495.04	183.45	128.44	74.699	6.1098e-06	109.21	0.00047555	0.00045304	0.00012566	673.12	4.8709e-06	4.9645e-06	915.88	294.75	4.9203e-06	4.9033e-06	438.02	163.38	115.9	67.449	4.9483e-06	97.234	263.920	41.620	25.873	-62.018	121.398	36.817	-63.870	-56.369	141.521	58.766	-59.842	-54.690	-51.164	-45.849	121.863	-50.602	-8191	255	
1325.511	1	1	0	0	0.06839	0.18273	0.16674	0.26651	0.075934	0.12708	0.19729	0.24017	0.17449	0.18294	0.11465	0.18833	0.26441	0.36201	0.25924	0.19162	-2.4188	-3.0812	-3.2521	-3.0687	-3.175	-3.0896	-3.1833	-3.3083	-2.7479	-3.025	-3.3229	-2.8229	-3.0104	-3.1208	-3.0479	-3.4437	246.568	213.739	-59.662	222.287	-32.501	137.962	229.243	195.052	223.652	241.187	224.316	253.266	253.792	234.970	242.188	260.917	0.00035978	0.001029	0.00019663	761.46	3.3124e-06	7.8748e-06	1043	335.17	1.8784e-06	6.4323e-06	501.36	186.09	131.14	75.996	2.6169e-06	111.07	0.0004713	0.00043952	0.00012682	672.63	4.7517e-06	4.8652e-06	917.74	297.76	4.8097e-06	4.7841e-06	443.46	165.27	117.77	68.408	4.9502e-06	98.558	253.159	3.165	-25.569	-62.060	76.527	44.919	-63.737	-56.181	89.214	66.164	-60.110	-54.809	-51.010	-45.865	128.642	-50.625	-8191	255	
1325.632	1	1	0	0	0.087317	0.11364	0.11988	0.27743	0.27975	0.026584	0.1419	0.19602	0.16816	0.17669	0.090886	0.084725	0.15787	0.20546	0.10203	0.20681	-2.5062	-3.0708	-3.2188	-3.0625	-3.2729	-2.9604	-3.0604	-3.3063	-2.8792	-3.05	-3.3063	-2.8958	-3.1479	-3.0458	-2.9667	-3.3937	186.323	-23.152	248.516	250.002	32.539	170.558	82.908	258.671	46.720	91.803	161.406	284.356	-28.352	205.946	277.302	-59.680	0.00029838	0.00054883	0.00019441	767.06	5.3991e-06	1.2443e-05	1042.8	335.36	2.6903e-06	9.8871e-06	501.99	185.09	129.94	75.162	6.2842e-06	110.08	0.00048435	0.00045953	0.0001238	676.3	4.7923e-06	4.737e-06	918.18	299.02	4.9543e-06	4.7569e-06	441.62	164.71	116.87	67.811	4.8585e-06	97.694	261.934	42.625	27.114	-62.252	106.786	78.969	-63.982	-56.191	127.525	62.336	-60.153	-54.639	-51.260	-45.878	99.321	-50.771	-8191	255	
1325.728	1	1	0	0	0.097128	0.092517	0.15038	0.20544	0.18373	0.024857	0.19695	0.11917	0.16635	0.33303	0.19273	0.12831	0.14857	0.30187	0.082756	0.1987	-2.7167	-3.0083	-3.1021	-2.8688	-3.0271	-3.1229	-2.9375	-3.2021	-3.0083	-3.0583	-3.1875	-2.9208	-3.1458	-3.3729	-3.1583	-3.25	168.465	128.212	212.983	190.647	-66.403	191.229	262.004	243.095	185.890	-11.073	248.449	-70.675	-63.417	278.027	73.934	172.626	0.00038287	0.0010023	0.00021127	761.92	4.4547e-06	5.6941e-06	1042.6	333.9	5.3506e-06	7.4513e-06	499.01	183.02	129.4	75.032	4.5061e-06	108.95	0.00048023	0.00044802	0.00012627	673.83	4.7102e-06	4.771e-06	915.95	297.31	4.9352e-06	4.922e-06	440.01	163.49	116.5	67.644	4.9565e-06	96.759	258.715	3.257	28.538	-62.024	79.225	70.831	-64.005	-56.287	118.406	107.250	-59.983	-54.811	-51.125	-45.802	125.668	-50.513	-8191	255	
1325.824	1	1	0	0	0.069642	0.16612	0.053669	0.38616	0.13748	0.049534	0.15958	0.28485	0.14526	0.07746	0.20612	0.18322	0.13292	0.24591	0.15931	0.15103	-2.5021	-3.05	-3.2479	-2.7771	-2.8896	-3.0563	-3.0042	-3.2458	-2.8708	-2.725	-3.0792	-2.8812	-2.9542	-3.225	-2.6854	-3.3229	63.060	166.489	-36.856	228.797	89.433	31.344	-45.291	213.121	-65.626	187.122	183.049	-55.475	-55.595	-1.218	-40.926	249.708	0.00036195	0.00053019	0.00014458	761.15	5.0808e-06	8.1907e-06	1033.8	328.31	4.1018e-06	1.1897e-05	494.21	181.45	128.49	74.122	6.0204e-06	107.64	0.00047907	0.0004494	0.00012449	670.67	4.9196e-06	4.8088e-06	910.31	293.01	5.0188e-06	5.0694e-06	434.83	162.43	115.32	66.866	4.927e-06	96.072	264.394	14.096	-24.544	-61.923	158.870	76.681	-64.209	-56.395	92.014	82.014	-59.780	-54.979	-51.411	-45.726	99.330	-50.608	-8191	255	
1325.920	1	1	0	0	0.16738	0.088395	0.23554	0.063437	0.30454	0.18169	0.307	0.047895	0.10258	0.19904	0.31892	0.32654	0.22797	0.22865	0.11083	0.40127	-2.5875	-2.7687	-3.2458	-3.2687	-3.1	-3.2479	-3.0083	-3.1437	-3.1208	-3.0458	-3.4104	-3.1792	-3.1125	-3.4583	-3.0521	-3.3646	9.266	276.813	98.109	217.240	119.445	98.320	-73.270	283.802	167.820	-21.590	273.658	211.916	281.580	276.645	260.308	236.915	0.00032959	0.00037409	0.00028911	756.48	4.3113e-06	1.0814e-05	1030.5	328.89	6.3549e-06	5.7446e-06	492	183.81	127.58	74.489	8.4914e-06	109.36	0.00048852	0.00044284	0.00012465	668.1	4.8356e-06	5.0175e-06	911	291.78	4.9712e-06	4.9642e-06	436.65	163.44	115.46	67.254	5.194e-06	97.045	263.568	-34.901	22.354	-62.095	110.981	71.306	-63.935	-56.216	88.766	62.726	-59.658	-55.154	-51.592	-45.745	88.634	-50.520	-8191	255	
1326.017	1	1	0	0	0.2028	0.10583	0.19905	0.21152	0.10648	0.19855	0.2027	0.33376	0.13535	0.18165	0.12613	0.10057	0.14803	0.31992	0.19439	0.17493	-2.6625	-2.8729	-3.2854	-3.0646	-3.0792	-3.0646	-3.0062	-3.2417	-3.2646	-2.9729	-3.2667	-3.1854	-2.6667	-3.3146	-2.925	-3.2479	106.496	9.438	234.814	-37.556	89.118	266.769	171.416	169.034	32.534	197.530	103.990	265.373	273.214	280.013	-11.324	239.448	0.00035437	0.00048016	0.00024632	762.64	8.5122e-06	6.2735e-06	1041.1	330.06	2.1217e-06	7.5586e-06	496.88	185.93	130.28	75.054	7.3553e-06	110.39	0.00049504	0.00045962	0.00012725	671.91	4.8912e-06	4.8913e-06	916.32	295.01	4.9664e-06	5.0234e-06	440.89	165.71	117.01	67.854	5.1499e-06	98.031	255.387	-31.168	-2.137	-62.161	128.827	74.010	-63.805	-56.172	38.261	51.975	-60.189	-54.699	-50.978	-45.593	114.848	-50.609	-8191	255	
1326.113	1	1	0	0	0.11998	0.17479	0.21232	0.27919	0.13469	0.11662	0.22163	0.41913	0.14475	0.067304	0.21013	0.23063	0.033117	0.25793	0.10871	0.2373	-2.7	-2.8417	-3.0833	-2.9729	-2.8646	-3.2146	-3.0417	-3.1625	-3.2438	-3.1021	-3.4667	-3.1208	-2.8667	-3.3312	-2.9083	-3.0979	84.141	-37.399	149.334	265.000	23.042	261.304	255.608	246.448	108.393	29.632	244.288	197.685	-10.459	269.236	126.975	228.537	0.0003388	0.0010978	7.2964e-05	761.1	6.8727e-06	7.2518e-06	1043.3	332.39	3.3322e-06	3.8685e-06	502.8	186.49	129.64	75.18	8.9028e-06	109.44	0.00048267	0.00045451	0.00012644	672.43	4.8822e-06	4.9925e-06	917.83	295.59	4.9593e-06	5.039e-06	441.13	165.5	116.42	67.528	5.0231e-06	97.424	266.006	17.484	6.554	-62.116	95.017	57.621	-64.041	-56.301	90.872	98.819	-60.104	-54.321	-51.318	-45.670	112.184	-50.541	-8191	255	
1326.209	1	1	0	0	0.22306	0.14433	0.11381	0.072653	0.10148	0.14497	0.092427	0.1011	0.182	0.13347	0.10635	0.20665	0.12861	0.2444	0.14361	0.16801	-2.8229	-2.7854	-2.9396	-2.975	-2.8354	-3.2667	-2.8854	-2.8646	-3.1375	-2.9042	-3.3354	-3.1354	-3.0354	-3.2938	-3.0312	-3.2917	30.604	22.141	13.670	132.901	11.734	139.541	179.534	151.065	193.876	8.808	-17.028	247.260	271.325	-53.194	-65.054	285.327	0.00034493	0.00056237	0.00012472	762.84	8.7906e-06	1.0579e-05	1037.1	328.67	9.6392e-07	7.7695e-06	493.59	182.14	128.14	74.05	7.0372e-06	108.27	0.00049222	0.0004615	0.00012382	674.15	4.9499e-06	4.8815e-06	913.77	294.26	4.9438e-06	4.9223e-06	436.39	162.33	115.43	66.977	4.9407e-06	96.323	260.915	53.774	0.775	-62.099	68.575	66.812	-64.279	-56.329	51.353	63.034	-60.077	-54.719	-51.414	-45.881	84.500	-50.681	-8191	255	
1326.328	1	1	0	0	0.19796	0.2775	0.12838	0.27605	0.078298	0.12333	0.22972	0.047412	0.19885	0.025437	0.30689	0.2823	0.074495	0.078139	0.32538	0.18447	-2.7146	-2.9458	-3.0125	-3.25	-2.8167	-3.3375	-3.1312	-3.075	-3.2542	-2.8063	-3.1	-3.1042	-2.9188	-3.1437	-3.0854	-3.1562	66.186	-26.622	173.783	269.892	187.113	-45.749	226.224	-13.572	-5.327	210.505	134.123	213.222	30.746	208.104	165.817	-67.089	0.00038833	0.00092432	0.00015887	764.16	3.8527e-06	6.8169e-06	1038	329.86	1.2165e-06	4.8264e-06	494.53	182.91	129.79	75.155	7.4424e-06	108.79	0.00048709	0.00045138	0.00012739	672.43	4.9084e-06	4.959e-06	913.89	295.4	4.979e-06	5.0748e-06	438.13	163.07	116.68	67.837	5.0982e-06	96.681	264.368	16.830	52.273	-62.651	143.378	0.862	-63.882	-56.150	156.891	108.732	-60.098	-54.980	-51.461	-45.689	96.089	-50.631	-8191	255	
1326.424	1	1	0	0	0.18395	0.11419	0.11321	0.024244	0.1277	0.044269	0.33159	0.061625	0.10317	0.18302	0.21935	0.035312	0.32185	0.23031	0.16333	0.35738	-2.7458	-2.9229	-3	-3.2292	-3.0729	-3.1542	-3.2875	-2.875	-3.2687	-2.85	-2.8792	-3.3271	-2.75	-3.0229	-3.0458	-2.8208	20.370	243.882	207.704	196.145	-37.155	200.932	247.684	117.925	218.776	31.814	188.668	177.694	256.658	-56.687	233.316	149.178	0.0002892	0.00044292	0.00020919	763.1	4.8809e-06	7.4033e-06	1048.2	334.96	3.5626e-06	1.2936e-05	500.01	185.93	130.32	75.201	3.6737e-06	109.31	0.00049474	0.00045806	0.00012936	674.98	4.9891e-06	5.0316e-06	919.71	297.76	5.0195e-06	5.028e-06	441.52	164.89	117.29	67.916	5.1493e-06	97.175	261.082	18.053	0.914	-62.293	150.738	80.094	-64.150	-56.218	74.440	70.136	-59.732	-54.918	-51.395	-45.897	65.141	-50.604	-8191	255	
1326.496	1	1	0	0	0.27696	0.029522	0.10776	0.14708	0.23567	0.043381	0.18652	0.13575	0.13795	0.051613	0.20639	0.18655	0.18891	0.11694	0.28425	0.064732	-2.7458	-2.9208	-2.9271	-3.125	-2.8958	-3.0375	-3.5396	-3.0542	-3.2833	-2.9542	-3.0417	-3.2729	-2.9542	-3.2875	-3.2521	-2.9208	66.981	18.371	-31.376	-15.271	192.658	162.472	162.666	256.037	13.977	-38.880	283.801	80.299	-12.962	-64.491	70.224	218.339	0.0002612	0.00076338	0.00024643	759.9	5.6677e-06	9.7328e-06	1042.1	333.44	3.0461e-06	4.5235e-06	496.81	183.66	129.25	74.725	7.6935e-06	108.63	0.00048461	0.00045116	0.00012967	673.73	4.9163e-06	4.9245e-06	918.83	296.39	4.9906e-06	4.9532e-06	438.85	163.77	116.54	67.451	5.1163e-06	96.662	261.456	51.887	13.612	-62.336	117.539	57.707	-64.121	-56.473	134.427	63.485	-60.362	-54.675	-51.515	-45.809	106.916	-50.698	-8191	255	
1326.592	1	1	0	0	0.031836	0.12351	0.17977	0.14863	0.020901	0.35045	0.22186	0.058471	0.10566	0.11694	0.26001	0.41053	0.23957	0.2301	0.13172	0.54766	-2.6271	-2.9854	-2.9271	-3.4583	-3.1854	-3.0229	-3.2438	-2.8812	-3.1958	-2.9729	-2.9104	-3.2896	-3	-3.3854	-3.2812	-2.9542	-16.306	8.292	103.608	64.675	51.240	156.227	181.023	262.893	229.230	-53.251	242.671	248.244	215.546	-61.408	4.619	241.122	0.00037889	0.00071505	6.7773e-05	763.72	6.1028e-06	4.2756e-06	1038.1	331.98	1.6321e-06	8.9421e-06	492.05	183.63	128.76	74.536	5.5719e-06	108.96	0.00048596	0.00045664	0.0001301	674.52	4.8127e-06	4.9878e-06	914.26	295.18	5.0852e-06	5.0101e-06	436.3	163.49	115.97	67.246	5.0632e-06	96.741	264.256	37.639	-10.499	-62.135	119.566	58.843	-64.031	-56.254	54.611	68.813	-59.667	-54.692	-51.524	-45.649	93.190	-50.605	-8191	255	
1326.712	1	1	0	0	0.17877	0.17936	0.15405	0.025527	0.23705	0.24035	0.3135	0.1377	0.28335	0.17575	0.052075	0.2119	0.27821	0.16233	0.25971	0.1912	-2.7042	-3.0583	-2.9917	-3.4625	-2.8937	-2.9208	-2.9604	-2.9	-3.2292	-3.2729	-3.1521	-3.5167	-3.0708	-3.1833	-3.1875	-2.9917	115.004	-23.431	4.284	197.704	-70.574	-73.765	261.842	225.693	269.173	-26.502	-73.802	155.058	64.558	267.544	174.049	181.208	0.00033502	0.0006208	0.00026122	763.22	8.4145e-06	5.542e-06	1041.2	332.45	5.5923e-06	5.1152e-06	499.55	185.78	130	74.843	6.7416e-06	110.51	0.00047776	0.00045145	0.00012479	674.28	4.865e-06	4.9391e-06	917.6	296.71	4.7833e-06	4.9216e-06	442.04	165.83	117.08	67.721	5.0117e-06	97.966	261.777	25.471	11.857	-62.606	98.375	96.860	-63.972	-55.921	121.981	53.421	-59.958	-54.915	-51.409	-45.978	89.228	-50.695	-8191	255	
1326.809	1	1	0	0	0.10697	0.11377	0.13585	0.17177	0.15271	0.15961	0.10515	0.18666	0.071007	0.17668	0.083162	0.33316	0.12336	0.1541	0.39834	0.33952	-2.6208	-3.1125	-2.6542	-3.25	-2.8792	-3.1312	-3.2896	-3.1125	-2.9375	-3.1417	-3.1021	-3.2083	-3.0708	-2.8771	-3.2042	-3.1	73.961	58.145	107.041	18.227	117.395	282.313	244.079	175.592	-34.036	62.672	283.723	255.305	-10.843	218.781	258.331	-68.909	0.00028343	0.0008618	0.00014273	765.93	7.5669e-06	7.744e-06	1051.7	332.28	2.4966e-06	7.3528e-06	499.9	186.21	129.18	74.894	4.2785e-06	110.59	0.00048396	0.00044995	0.00012456	677.18	4.8053e-06	4.8629e-06	924.1	295.76	4.8742e-06	4.8669e-06	442.13	166.49	116.31	67.375	4.9242e-06	98.241	250.121	16.916	45.828	-61.999	118.491	78.914	-64.026	-56.082	135.796	64.819	-59.648	-54.661	-51.420	-45.832	100.594	-50.513	-8191	255	
1326.905	1	1	0	0	0.1327	0.16049	0.10908	0.29807	0.10735	0.17904	0.33256	0.057675	0.13565	0.22764	0.034245	0.24321	0.15067	0.22878	0.071039	0.2712	-2.6667	-3.4396	-2.9292	-3.3937	-3.0208	-2.925	-3.0542	-3.0542	-3.2062	-3.1896	-2.9458	-3.3458	-3.275	-3.2479	-3.1312	-3.1833	188.095	152.648	-69.451	206.963	202.570	115.225	118.069	197.234	179.895	10.523	70.059	196.281	226.240	272.656	143.939	151.640	0.0003691	0.00058683	0.00010775	765.36	7.7815e-06	9.1534e-06	1055.2	331.85	2.4966e-06	9.0617e-07	501.13	188.6	129.65	74.767	6.4364e-06	111.33	0.0004838	0.0004397	0.00012264	674.16	4.6709e-06	4.749e-06	925.09	294.95	4.8714e-06	4.7223e-06	443.17	167.61	116.64	67.659	4.815e-06	99.038	266.528	-10.280	26.454	-62.172	119.375	74.934	-63.745	-56.366	100.887	159.023	-59.957	-54.684	-51.382	-46.057	78.714	-50.491	-8191	255	
#DATA ENDS
