BOXY.EXE: ISS Imagent and Oximeter Data Acquisition Program Version 0.80
Ascii Record File

#ACQ INFORMATION
2  Detector Channels 
16  External MUX Channels 
1  Auxiliary Channels 
5000  Waveform (CCF) Frequency (Hz)
1  Waveforms Skipped 
30  Waveforms Averaged 
1  Cycles Averaged 
16  Acquisitions per Waveform 
10.0806  Updata Rate (Hz) 

#FILE INFORMATION
TRUE -- External MUX Channel results are PARSED.
FALSE -- AC DC and Phase are NOT grouped.
TRUE -- Companion Program Settings File CREATED.
FALSE -- AC data not excluded
FALSE -- DC data not excluded
FALSE -- Phase data not excluded
FALSE -- Auxillary Chn. data not excluded
Tab delimiters

#CALIBRATION STATE
TRUE -- Waveform Calibration Values APPLIED.


#AUX CALIBRATION VALUES
Val Type	aux-1	

Term	1.0000e+00	
Factor	0.0000e+00	


#WF CALIBRATION VALUES
A = Detector Channel
Val Type	A-AC1	A-AC2	A-AC3	A-AC4	A-AC5	A-AC6	A-AC7	A-AC8	A-AC9	A-AC10	A-AC11	A-AC12	A-AC13	A-AC14	A-AC15	A-AC16	A-DC1	A-DC2	A-DC3	A-DC4	A-DC5	A-DC6	A-DC7	A-DC8	A-DC9	A-DC10	A-DC11	A-DC12	A-DC13	A-DC14	A-DC15	A-DC16	A-Ph1	A-Ph2	A-Ph3	A-Ph4	A-Ph5	A-Ph6	A-Ph7	A-Ph8	A-Ph9	A-Ph10	A-Ph11	A-Ph12	A-Ph13	A-Ph14	A-Ph15	A-Ph16	

Term	0.00000e+00	0.00000e+00	0.00000e+00	0.00000e+00	0.00000e+00	0.00000e+00	0.00000e+00	0.00000e+00	0.00000e+00	0.00000e+00	0.00000e+00	0.00000e+00	0.00000e+00	0.00000e+00	0.00000e+00	0.00000e+00	0.00000e+00	0.00000e+00	0.00000e+00	0.00000e+00	0.00000e+00	0.00000e+00	0.00000e+00	0.00000e+00	0.00000e+00	0.00000e+00	0.00000e+00	0.00000e+00	0.00000e+00	0.00000e+00	0.00000e+00	0.00000e+00	0.00000e+00	0.00000e+00	0.00000e+00	0.00000e+00	0.00000e+00	0.00000e+00	0.00000e+00	0.00000e+00	0.00000e+00	0.00000e+00	0.00000e+00	0.00000e+00	0.00000e+00	0.00000e+00	0.00000e+00	0.00000e+00	
Factor	1.00000e+00	1.00000e+00	1.00000e+00	1.00000e+00	1.00000e+00	1.00000e+00	1.00000e+00	1.00000e+00	1.00000e+00	1.00000e+00	1.00000e+00	1.00000e+00	1.00000e+00	1.00000e+00	1.00000e+00	1.00000e+00	1.00000e+00	1.00000e+00	1.00000e+00	1.00000e+00	1.00000e+00	1.00000e+00	1.00000e+00	1.00000e+00	1.00000e+00	1.00000e+00	1.00000e+00	1.00000e+00	1.00000e+00	1.00000e+00	1.00000e+00	1.00000e+00	X	X	X	X	X	X	X	X	X	X	X	X	X	X	X	X	

B = Detector Channel
Val Type	B-AC1	B-AC2	B-AC3	B-AC4	B-AC5	B-AC6	B-AC7	B-AC8	B-AC9	B-AC10	B-AC11	B-AC12	B-AC13	B-AC14	B-AC15	B-AC16	B-DC1	B-DC2	B-DC3	B-DC4	B-DC5	B-DC6	B-DC7	B-DC8	B-DC9	B-DC10	B-DC11	B-DC12	B-DC13	B-DC14	B-DC15	B-DC16	B-Ph1	B-Ph2	B-Ph3	B-Ph4	B-Ph5	B-Ph6	B-Ph7	B-Ph8	B-Ph9	B-Ph10	B-Ph11	B-Ph12	B-Ph13	B-Ph14	B-Ph15	B-Ph16	

Term	0.00000e+00	0.00000e+00	0.00000e+00	0.00000e+00	0.00000e+00	0.00000e+00	0.00000e+00	0.00000e+00	0.00000e+00	0.00000e+00	0.00000e+00	0.00000e+00	0.00000e+00	0.00000e+00	0.00000e+00	0.00000e+00	0.00000e+00	0.00000e+00	0.00000e+00	0.00000e+00	0.00000e+00	0.00000e+00	0.00000e+00	0.00000e+00	0.00000e+00	0.00000e+00	0.00000e+00	0.00000e+00	0.00000e+00	0.00000e+00	0.00000e+00	0.00000e+00	-2.62213e+02	-1.32935e+02	-1.32662e+02	-1.82834e+02	-8.07068e+01	-6.76985e+01	-1.56245e+02	-1.62015e+02	-7.38161e+01	-7.02360e+01	-1.78262e+02	-1.70141e+02	-1.80918e+02	-1.76465e+02	-7.37213e+01	-1.49358e+02	
Factor	5.91487e-05	1.78280e-04	4.39040e-05	1.65374e-01	2.43962e-06	1.98052e-06	1.65257e-01	5.76231e-02	3.27999e-06	1.99800e-06	1.00143e-01	2.98878e-02	2.47577e-02	9.46952e-03	1.94458e-06	1.35204e-02	8.62137e-06	1.08001e-05	3.01458e-06	8.24801e-02	1.12599e-07	1.18981e-07	7.74656e-02	2.87449e-02	1.12421e-07	1.20053e-07	4.83995e-02	1.44837e-02	1.24788e-02	4.77091e-03	1.15468e-07	6.60185e-03	X	X	X	X	X	X	X	X	X	X	X	X	X	X	X	X	



#DISTANCE SETTINGS
A = Detector Channel
A-1	A-2	A-3	A-4	A-5	A-6	A-7	A-8	A-9	A-10	A-11	A-12	A-13	A-14	A-15	A-16	

2.5000e+00	3.0000e+00	2.5000e+00	3.0000e+00	2.0000e+00	3.0000e+00	1.5000e+00	3.0000e+00	3.0000e+00	3.0000e+00	3.0000e+00	3.0000e+00	3.0000e+00	3.0000e+00	1.5000e+00	3.0000e+00	

B = Detector Channel
B-1	B-2	B-3	B-4	B-5	B-6	B-7	B-8	B-9	B-10	B-11	B-12	B-13	B-14	B-15	B-16	

1.0000e+01	1.0000e+01	1.0000e+01	1.4400e+00	1.0000e+01	1.0000e+01	1.5100e+00	1.9400e+00	1.0000e+01	1.0000e+01	1.9900e+00	2.4900e+00	2.4100e+00	2.9000e+00	1.0000e+01	2.9800e+00	




#DATA BEGINS
time	group	step	mark	flag	A-AC1	A-AC2	A-AC3	A-AC4	A-AC5	A-AC6	A-AC7	A-AC8	A-AC9	A-AC10	A-AC11	A-AC12	A-AC13	A-AC14	A-AC15	A-AC16	A-DC1	A-DC2	A-DC3	A-DC4	A-DC5	A-DC6	A-DC7	A-DC8	A-DC9	A-DC10	A-DC11	A-DC12	A-DC13	A-DC14	A-DC15	A-DC16	A-Ph1	A-Ph2	A-Ph3	A-Ph4	A-Ph5	A-Ph6	A-Ph7	A-Ph8	A-Ph9	A-Ph10	A-Ph11	A-Ph12	A-Ph13	A-Ph14	A-Ph15	A-Ph16	B-AC1	B-AC2	B-AC3	B-AC4	B-AC5	B-AC6	B-AC7	B-AC8	B-AC9	B-AC10	B-AC11	B-AC12	B-AC13	B-AC14	B-AC15	B-AC16	B-DC1	B-DC2	B-DC3	B-DC4	B-DC5	B-DC6	B-DC7	B-DC8	B-DC9	B-DC10	B-DC11	B-DC12	B-DC13	B-DC14	B-DC15	B-DC16	B-Ph1	B-Ph2	B-Ph3	B-Ph4	B-Ph5	B-Ph6	B-Ph7	B-Ph8	B-Ph9	B-Ph10	B-Ph11	B-Ph12	B-Ph13	B-Ph14	B-Ph15	B-Ph16	aux-1	digaux	

1541.334	1	1	0	256	0.2739	0.17961	0.13825	0.086779	0.076139	0.07379	0.23772	0.22637	0.28597	0.0852	0.1854	0.12734	0.066728	0.22019	0.17314	0.028281	-2.3937	-2.6271	-2.6521	-3.0604	-2.6479	-2.8563	-2.8667	-2.5938	-2.7083	-2.8042	-2.7271	-3.0396	-2.6833	-2.6396	-2.9104	-2.6271	200.368	44.039	0.106	-31.670	229.538	-85.042	149.028	-85.874	73.011	108.700	141.053	211.830	53.611	128.589	-15.531	-95.881	0.00098231	0.0010415	0.00012479	317.01	1.1624e-05	3.8861e-06	527.19	93.904	1.4024e-05	4.3033e-06	190.33	70.98	29.782	13.925	1.3778e-05	36.335	0.010825	0.013037	0.0036341	400.5	0.00013393	0.00014606	606.99	124.47	0.00013546	0.00014561	242.57	87.62	44.262	19.465	0.00013428	43.303	56.439	-101.149	204.485	-104.695	186.373	-55.334	-104.715	-99.345	-92.614	177.929	-100.204	-95.970	-96.342	-90.685	-31.672	-92.546	-8191	255	
1541.430	1	1	0	0	0.12869	0.076062	0.25343	0.19295	0.14475	0.16955	0.13389	0.27098	0.15356	0.1567	0.36104	0.16762	0.081317	0.04589	0.1443	0.072433	-2.4437	-2.6396	-2.6833	-2.9104	-2.9333	-2.7958	-2.7854	-2.6833	-2.6813	-2.8458	-2.4729	-3.0896	-2.7729	-2.6729	-2.8312	-2.4896	-106.609	223.798	236.650	182.810	209.297	-81.148	-97.954	228.297	-18.488	60.218	33.984	229.654	127.765	77.717	9.541	203.144	0.00066947	0.00055582	0.00027174	314.67	1.3005e-05	9.8922e-06	527.36	93.142	3.6927e-05	1.0363e-05	190.02	71.532	29.698	13.848	7.378e-06	36.009	0.010477	0.013136	0.0035052	399.91	0.00013477	0.00014448	605.94	124.68	0.00013722	0.00014512	242.1	87.492	44.572	19.404	0.00013403	43.204	78.156	52.099	-90.379	-104.267	-71.598	110.521	-104.555	-99.675	6.700	16.457	-99.474	-96.041	-95.631	-91.513	103.613	-92.299	-8191	255	
1541.526	1	1	0	0	0.11592	0.12126	0.10782	0.033122	0.1229	0.073745	0.21291	0.16367	0.082825	0.14623	0.30459	0.065387	0.046069	0.23451	0.16026	0.15056	-2.3812	-2.825	-2.6104	-2.8875	-2.8563	-2.8771	-3.1042	-2.6354	-2.8583	-3.0187	-2.6458	-2.9708	-2.7792	-2.6854	-2.9833	-2.7917	215.871	130.417	4.338	208.030	13.804	19.850	-53.587	-0.007	4.871	-25.839	-24.279	103.588	196.875	77.181	211.090	203.310	0.00091373	0.00090553	0.00013713	318.83	1.8095e-05	6.452e-06	523.16	93.928	7.7292e-06	2.6771e-06	189.33	71.092	29.936	13.748	7.676e-06	35.708	0.010673	0.013696	0.0034981	403.66	0.00013566	0.00014168	599.74	124.44	0.00013404	0.00013846	239.52	87.326	43.916	18.961	0.00012733	42.93	69.869	133.644	34.493	-104.386	25.955	110.915	-104.484	-99.248	-48.564	169.852	-99.922	-96.207	-95.934	-91.225	170.387	-92.229	-8191	255	
1541.647	1	1	0	0	0.13384	0.16806	0.043745	0.29336	0.33701	0.094042	0.14272	0.24515	0.073689	0.12017	0.085097	0.0012322	0.062545	0.16272	0.26729	0.27486	-2.2792	-2.8771	-2.7229	-2.7979	-2.9354	-2.6646	-2.9583	-2.4896	-2.7271	-2.9208	-2.6146	-2.7417	-2.8688	-2.5979	-2.8458	-2.7375	162.114	-72.999	218.453	-31.939	123.472	-46.862	214.286	168.813	-75.708	133.645	211.558	180.000	140.903	61.765	31.923	112.713	0.0012335	0.0011462	0.00029161	316.34	6.6115e-06	9.2943e-06	526.46	94.267	1.2681e-05	1.0319e-05	191.39	71.279	29.869	13.69	8.8476e-06	35.734	0.01013	0.012455	0.0033722	402.31	0.00013083	0.00013561	603.94	125.79	0.00013328	0.00013559	241.54	87.15	44.149	18.819	0.00012825	42.855	89.049	-61.096	24.290	-104.507	41.610	-67.028	-104.547	-99.402	74.941	181.999	-99.886	-96.083	-95.644	-91.424	239.562	-92.618	-8191	255	
1541.741	1	1	0	0	0.065649	0.073129	0.22994	0.14282	0.21811	0.169	0.11149	0.13555	0.20617	0.15373	0.085549	0.087621	0.13828	0.051928	0.22162	0.097089	-2.2292	-2.9479	-2.575	-2.8771	-2.8875	-2.6271	-2.9938	-2.7875	-2.6146	-2.9667	-2.6854	-2.8	-2.7958	-2.7062	-2.9562	-2.7313	-84.276	34.631	7.258	217.602	-48.634	108.484	165.596	126.970	-15.230	77.427	118.059	1.939	56.603	88.223	67.665	183.894	0.0005013	0.0012922	0.00014142	321.92	1.4507e-05	7.756e-06	532.8	95.727	1.4294e-05	1.5871e-05	191.41	71.152	29.748	13.54	4.8437e-07	35.407	0.0099653	0.012431	0.0033275	407.18	0.0001267	0.00013003	607.47	125.79	0.00012903	0.00013013	241.08	86.137	44.01	18.453	0.00012999	42.293	19.749	240.193	105.680	-104.442	138.228	-34.231	-104.320	-99.828	-26.202	57.652	-100.326	-96.006	-96.071	-91.463	139.601	-92.382	-8191	255	
1541.837	1	1	0	0	0.34326	0.099677	0.24351	0.089814	0.085863	0.17815	0.04555	0.3668	0.1012	0.098971	0.17529	0.17554	0.094268	0.17919	0.078611	0.11655	-2.1625	-2.8375	-2.6229	-2.65	-3.0292	-2.7208	-2.9146	-2.5646	-2.7687	-2.9042	-2.8083	-2.7875	-2.8146	-2.7646	-2.8083	-2.7979	69.575	48.967	152.760	116.406	163.322	165.772	-12.071	138.330	-49.858	-35.359	205.043	203.724	125.056	132.902	208.453	46.758	0.00050591	0.00049418	0.00027128	323.76	2.2409e-06	5.3683e-06	531.64	94.708	3.0478e-06	7.9827e-06	188.71	69.395	29.306	13.165	6.0996e-06	34.436	0.0098234	0.012083	0.0034432	410.27	0.00012666	0.00013356	613.27	125.39	0.00012871	0.00013495	241.38	85.292	43.231	18.334	0.00013527	41.529	73.871	172.159	238.217	-104.473	-10.548	175.460	-104.841	-99.788	11.021	223.635	-100.104	-96.253	-96.323	-91.523	-33.331	-92.415	-8191	255	
1541.933	1	1	0	0	0.22835	0.059331	0.32722	0.098236	0.081406	0.2819	0.033251	0.17375	0.17295	0.1294	0.22103	0.075436	0.088447	0.19842	0.14568	0.1219	-2.0667	-2.8063	-2.4917	-2.625	-2.8625	-2.5792	-2.8667	-2.7417	-2.6042	-2.9021	-2.7896	-2.5771	-2.8917	-2.5042	-2.8354	-2.9	240.983	-62.155	97.316	190.241	-50.443	-40.514	153.097	119.927	-96.960	-38.220	202.554	171.399	-89.205	3.568	175.485	143.383	0.00098855	0.0013205	7.8738e-05	323.42	9.4908e-06	2.0171e-05	529.14	93.806	2.5353e-05	1.196e-05	188	68.709	29.062	12.982	6.4469e-06	34.062	0.0097141	0.012581	0.0034623	406.72	0.0001214	0.0001311	604.4	123.76	0.00012238	0.00013144	237.8	83.725	42.575	18.062	0.0001316	41.012	91.090	-96.045	-83.960	-104.434	168.240	-35.913	-105.015	-99.681	-42.779	33.935	-99.948	-96.149	-95.564	-91.260	43.578	-92.306	-8191	255	
1542.029	1	1	0	0	0.13699	0.14441	0.22628	0.13807	0.24833	0.098451	0.23184	0.065808	0.24599	0.064829	0.18295	0.21921	0.26226	0.16441	0.10705	0.21135	-2.1458	-3.0771	-2.6604	-2.8396	-2.9083	-2.75	-2.7208	-2.8229	-2.3812	-2.8771	-2.7542	-2.6625	-2.8333	-2.6375	-2.7562	-2.8417	60.866	-25.736	196.294	205.024	56.692	-116.804	-113.763	6.221	73.667	133.924	-87.516	125.056	-41.954	86.106	125.996	207.444	0.00053378	0.00081711	0.00021652	324.54	1.6091e-05	1.2524e-05	530.52	94.094	1.34e-05	5.4865e-06	186.68	68.843	28.982	13.006	1.5855e-05	34.427	0.0093952	0.012236	0.0033937	403.57	0.00011953	0.00013173	602.77	123.96	0.00012165	0.00013405	236.87	83.483	42.182	18.165	0.00013072	40.984	54.783	149.131	-106.308	-104.618	-76.908	-76.104	-104.868	-99.575	-19.393	186.140	-100.196	-96.433	-96.296	-91.824	-2.126	-92.089	-8191	255	
1542.124	1	1	0	0	0.10433	0.088087	0.31866	0.26097	0.17348	0.24416	0.27578	0.24883	0.3283	0.18263	0.10983	0.21873	0.15565	0.096181	0.20716	0.24166	-2.0833	-2.8333	-2.8729	-2.5229	-3.0062	-2.7188	-2.7854	-2.925	-2.5021	-2.9792	-2.8937	-2.6583	-2.8563	-2.6792	-2.8708	-2.8187	108.222	8.995	241.215	-102.891	5.522	-104.663	-112.400	110.364	50.735	183.308	22.841	124.514	59.720	45.724	48.271	153.305	0.00054785	0.00086054	0.00018046	323.28	1.4533e-05	8.384e-06	532.28	93.763	1.4274e-05	1.0119e-05	189.98	69.475	29.167	13.349	1.1379e-05	34.802	0.0094661	0.012622	0.0033691	402.32	0.00012057	0.00013332	607.07	123.15	0.00012246	0.00013537	237.67	83.88	43.011	18.4	0.00012971	41.286	55.091	26.188	222.878	-104.516	-109.760	103.889	-104.973	-99.647	187.979	13.579	-100.508	-96.384	-95.937	-91.944	49.964	-92.552	-8191	255	
1542.245	1	1	0	0	0.14326	0.051809	0.014121	0.36668	0.036595	0.074858	0.29106	0.19036	0.14246	0.027592	0.13006	0.16553	0.026282	0.017501	0.047118	0.1834	-2.2479	-2.625	-2.9146	-2.5458	-2.9562	-2.775	-2.6583	-2.9896	-2.5333	-2.9271	-2.8958	-2.5396	-2.9813	-2.7479	-2.6604	-2.9542	130.899	-48.749	-87.027	-91.278	-70.426	15.670	180.667	151.604	116.119	21.006	161.185	139.538	53.580	45.678	216.738	154.664	0.00062216	0.00075614	0.00030605	324.45	1.1932e-05	1.0719e-05	531.08	93.868	3.6749e-06	5.6953e-06	187.89	69.524	29.256	13.135	1.5402e-05	34.471	0.0095348	0.012356	0.0034403	403.02	0.0001251	0.00013486	604.85	123.9	0.00012582	0.000138	236.37	83.648	43.004	18.314	0.00012868	41.08	73.220	12.562	18.597	-105.146	-18.832	36.164	-104.793	-100.097	178.855	202.939	-100.544	-95.865	-96.432	-91.339	30.495	-92.648	-8191	255	
1542.341	1	1	0	0	0.20811	0.24327	0.2142	0.18164	0.21685	0.10194	0.11889	0.06967	0.1048	0.17349	0.12651	0.12639	0.071228	0.17475	0.1754	0.3153	-1.9167	-2.7938	-2.7042	-2.6417	-2.8521	-2.9042	-2.4292	-2.7687	-2.6167	-2.7292	-2.8812	-2.5875	-2.9229	-2.8125	-2.5729	-3	-47.834	-26.950	-70.194	-43.421	4.665	82.517	226.297	234.219	33.597	53.861	164.996	-87.116	87.038	151.272	-10.312	-105.856	0.00090846	0.00092151	0.00076478	319.18	1.6513e-05	1.7124e-05	531.94	93.144	5.2188e-06	5.9451e-06	189.44	69.812	29.612	13.183	9.7895e-06	34.726	0.0097762	0.012351	0.0034672	400.83	0.00012737	0.0001343	602.61	122.95	0.00012766	0.00013712	235.79	83.951	43.621	18.422	0.00012649	41.396	72.627	-5.052	-101.403	-104.324	-100.559	86.652	-104.755	-99.982	-20.167	217.885	-100.552	-96.126	-95.550	-91.644	20.643	-92.572	-8191	255	
1542.437	1	1	0	0	0.21446	0.14728	0.078186	0.059145	0.11016	0.14024	0.21505	0.096159	0.081958	0.070961	0.33612	0.09582	0.16048	0.053685	0.087765	0.085638	-2.2188	-2.8167	-2.9583	-2.5	-2.7438	-2.7875	-2.6917	-2.7833	-2.6521	-2.6583	-2.9792	-2.6458	-2.8396	-2.7896	-2.5208	-3.1542	4.605	46.606	-13.729	200.887	210.663	127.997	-47.288	3.303	-7.238	109.952	-116.017	232.531	112.259	43.292	28.675	74.329	0.00057636	0.00099954	0.00044186	319.61	2.1431e-05	1.7271e-06	529.68	93.991	5.8548e-06	1.424e-05	188.63	69.987	29.415	13.324	1.0633e-05	35.046	0.0099411	0.012248	0.0033532	403.3	0.00012864	0.00013251	601.21	124.53	0.00012789	0.00013532	234.66	84.364	42.99	18.479	0.00012452	41.663	71.448	-14.964	-25.404	-104.200	53.145	162.353	-104.959	-99.800	-29.565	92.700	-100.303	-96.385	-96.539	-91.737	-83.333	-92.468	-8191	255	
1542.533	1	1	0	0	0.38957	0.09751	0.27434	0.12432	0.11138	0.29955	0.16667	0.20107	0.31082	0.12139	0.10547	0.18062	0.16435	0.17529	0.20484	0.13027	-2.4729	-2.5396	-2.8479	-2.6437	-2.7583	-2.8729	-2.6792	-2.9271	-2.6396	-2.6	-2.9417	-2.5854	-2.8417	-2.9646	-2.5479	-2.9625	-44.352	229.312	200.528	118.776	76.634	217.543	-105.906	-108.870	220.658	183.224	213.873	157.996	14.809	238.744	22.390	3.513	0.00045816	0.00062001	0.00014362	321.88	5.5547e-06	1.3655e-05	532.64	95.468	2.4347e-05	1.3164e-05	189.86	69.771	29.433	13.586	9.3387e-06	35.349	0.0097502	0.011857	0.0034079	404.51	0.00012621	0.00012775	601.84	125.29	0.00012706	0.00013234	236.93	85.249	43.318	18.808	0.00012833	42.388	101.478	78.140	200.136	-104.539	-29.945	-24.187	-104.762	-99.462	70.066	-24.154	-100.092	-96.667	-95.453	-91.222	112.844	-92.490	-8191	255	
1542.629	1	1	0	0	0.12448	0.1528	0.44077	0.24963	0.14114	0.075248	0.27297	0.065951	0.20116	0.1776	0.16919	0.16181	0.2204	0.27389	0.23051	0.12669	-2.2667	-2.5896	-2.8021	-2.6312	-2.7021	-2.8479	-2.5646	-2.9125	-2.6542	-2.4375	-2.8583	-2.7083	-2.6813	-2.9521	-2.6813	-2.8688	-113.962	201.489	3.707	-85.270	103.330	-111.214	206.622	119.039	217.195	-4.421	-51.297	219.588	-45.058	113.595	83.438	-22.152	0.00072934	0.00049214	0.00041867	324.77	1.6572e-05	6.282e-06	536.29	95.477	1.5573e-05	1.1367e-05	190.14	70.134	30.059	13.503	8.9061e-06	35.305	0.0098432	0.011931	0.0034144	409.17	0.00012791	0.00012703	606.11	126.24	0.00012639	0.00013007	237.95	85.379	43.192	18.604	0.00012808	42.233	98.347	-77.123	-71.992	-104.749	86.495	51.600	-104.838	-99.586	-96.124	199.092	-99.979	-95.888	-95.597	-91.761	127.962	-91.976	-8191	255	
1542.725	1	1	0	0	0.133	0.17186	0.047654	0.073156	0.16713	0.064173	0.13474	0.14843	0.28807	0.21901	0.2575	0.16174	0.18382	0.16196	0.19572	0.22098	-2.4229	-2.5729	-3.0187	-2.6937	-2.625	-2.7708	-2.7521	-2.775	-2.8583	-2.7542	-3.0062	-2.7208	-2.55	-3.0687	-2.5146	-2.8625	31.661	-98.096	-17.052	75.152	-7.162	-33.059	-111.653	40.574	-27.623	239.147	136.948	-19.224	-67.403	90.697	19.300	187.031	0.00034686	0.00064871	0.0004697	324.57	1.938e-05	8.4873e-06	531.4	95	1.9917e-05	2.3677e-06	190.71	70.665	29.901	13.505	8.6176e-06	35.162	0.009591	0.01169	0.0035493	408.41	0.00012602	0.00012795	606.64	124.39	0.00012592	0.00013071	239.14	85.014	42.995	18.758	0.00013207	42.16	113.371	-112.080	-63.614	-104.468	25.053	168.312	-105.173	-99.742	-71.097	219.797	-100.294	-95.981	-95.480	-91.303	241.020	-92.227	-8191	255	
1542.821	1	1	0	0	0.16683	0.31297	0.2429	0.056063	0.17937	0.14236	0.18	0.21974	0.30185	0.098645	0.099292	0.13947	0.042917	0.022357	0.22382	0.069393	-2.4562	-2.3333	-2.7875	-2.5771	-2.6271	-2.8438	-2.7417	-2.7875	-2.8875	-2.7417	-2.7562	-2.6958	-2.6729	-2.7833	-2.7542	-2.8542	64.425	-17.647	-75.940	140.586	206.367	238.500	138.029	187.510	176.678	163.507	185.017	179.311	122.165	-101.750	151.308	-102.063	0.00040754	0.001383	0.00046184	325.52	6.182e-06	1.9612e-06	534.95	94.764	9.6763e-06	5.764e-06	188.15	69.561	29.812	13.576	8.4954e-06	35.129	0.0095084	0.012076	0.0035767	409.95	0.00012644	0.00013331	611.9	125.36	0.00013116	0.00013595	240.92	85.007	43.131	18.819	0.00013462	42.236	110.691	-64.830	-91.042	-104.670	137.473	41.768	-104.910	-100.051	91.172	-55.091	-100.436	-96.145	-95.219	-91.689	-28.168	-92.172	-8191	255	
1542.918	1	1	0	0	0.16029	0.077954	0.25354	0.13328	0.25224	0.14531	0.081994	0.10531	0.071911	0.33411	0.22383	0.11754	0.055814	0.17811	0.14539	0.10031	-2.5229	-2.6875	-2.9979	-2.8	-2.7958	-2.8917	-2.7771	-2.5229	-3.0146	-2.5187	-3.0458	-2.9667	-2.5833	-2.8333	-2.6604	-2.5062	72.565	177.095	219.632	154.856	117.032	101.099	214.585	96.765	-52.973	-64.414	178.949	7.059	-108.039	86.094	155.986	-89.409	0.00078802	0.00077683	0.00036794	326.42	4.8852e-06	3.5416e-06	531.91	94.348	3.0235e-05	4.677e-06	190.07	71.055	29.852	13.619	3.8647e-06	35.126	0.0095482	0.012358	0.003665	410.44	0.00012497	0.0001354	610.38	124.75	0.00012714	0.00013872	241.51	85.246	43.204	19.189	0.00013498	42.223	39.298	-51.669	-69.891	-104.508	196.542	1.765	-104.647	-99.310	91.481	138.647	-99.792	-96.180	-95.932	-91.255	-116.707	-92.195	-8191	255	
1543.036	1	1	0	0	0.11102	0.19738	0.1934	0.24752	0.17238	0.13284	0.089553	0.14722	0.26133	0.077073	0.24111	0.15031	0.15796	0.27896	0.32897	0.089691	-2.6354	-2.5312	-2.7313	-2.8167	-2.4917	-2.9792	-2.9146	-2.6917	-3.0729	-2.6979	-2.875	-2.8604	-2.5083	-3.0396	-2.6937	-2.6229	-99.131	-34.227	48.182	212.575	146.587	220.482	231.905	-68.582	-29.755	92.804	-90.319	209.720	28.431	114.478	140.006	112.501	0.00071011	0.00032091	0.00054032	329.48	2.1895e-05	5.8055e-06	537.3	93.891	1.8696e-05	7.2528e-06	189.1	70.066	29.986	13.514	2.468e-06	34.839	0.0097344	0.012854	0.0036121	415.03	0.00013046	0.00014313	618.03	125.64	0.00013834	0.00014755	243.75	85.335	44.167	19.306	0.00013975	42.086	77.892	-55.562	-1.789	-104.600	199.122	60.870	-104.594	-99.480	104.846	78.554	-100.340	-96.018	-96.324	-91.067	66.071	-92.466	-8191	255	
1543.133	1	1	0	0	0.17118	0.15852	0.11029	0.16824	0.3227	0.12392	0.2041	0.22065	0.02152	0.15437	0.21407	0.098895	0.12232	0.2177	0.24151	0.09035	-2.4479	-2.5667	-2.5563	-2.7479	-2.8312	-2.8	-2.6229	-2.5479	-2.9667	-2.6667	-2.7042	-2.9104	-2.4375	-3.0229	-2.7438	-2.4854	-49.087	95.793	93.506	161.145	91.987	14.702	214.538	-92.673	236.670	-26.257	126.868	-92.183	42.161	53.502	165.679	235.168	0.00063367	0.00084045	0.00040887	330.48	3.5877e-06	9.7216e-06	541.64	94.313	1.9212e-05	1.2799e-05	188.55	69.69	29.522	13.655	6.9903e-06	34.75	0.010318	0.013284	0.0036633	420.02	0.00013525	0.00014458	619.79	125.55	0.00013948	0.00014786	242.65	85.197	44.326	19.35	0.00014021	42.174	25.806	81.090	84.356	-104.435	-106.266	21.441	-104.804	-99.713	157.514	-19.372	-100.344	-96.107	-95.980	-91.828	130.945	-92.404	-8191	255	
1543.206	1	1	0	0	0.2694	0.072509	0.029479	0.19382	0.19413	0.30011	0.37344	0.11231	0.12573	0.14408	0.30214	0.22463	0.07827	0.27271	0.16274	0.081466	-2.5438	-2.6375	-2.8	-3.0271	-2.5729	-2.8979	-2.9583	-2.5646	-2.9083	-2.7854	-2.8729	-2.9021	-2.7396	-2.9938	-2.8875	-2.6229	-15.559	145.368	-54.033	40.968	22.446	86.341	157.073	173.315	-48.790	-53.128	-23.080	79.970	-98.757	-59.576	107.511	29.044	0.00086743	0.0010668	0.000113	330	5.9025e-06	2.0735e-05	541.38	94.824	8.2793e-06	1.61e-06	190.18	70.272	29.664	13.456	9.0567e-06	34.996	0.01072	0.013474	0.0036765	420.42	0.00014063	0.00014958	620.97	126.76	0.00014746	0.00014981	242.75	85.617	44.699	19.136	0.00013946	42.301	41.808	52.396	95.103	-104.403	-80.928	-47.936	-104.889	-99.435	74.988	136.253	-100.014	-96.154	-96.401	-91.255	222.793	-92.157	-8191	255	
1543.325	1	1	0	0	0.076374	0.097136	0.19339	0.051103	0.16448	0.10416	0.27988	0.18245	0.26836	0.10111	0.15112	0.067371	0.19578	0.28882	0.10864	0.10953	-2.5042	-2.7729	-2.4917	-3.0187	-2.5208	-2.9583	-2.7875	-2.5521	-2.8417	-2.5958	-2.7479	-2.7875	-2.6854	-2.8396	-2.8438	-2.7917	153.659	18.845	-60.198	170.132	147.740	226.489	83.931	-9.726	79.705	-16.975	212.059	-84.249	47.963	-26.295	223.997	33.684	0.00086829	0.00095628	0.00028035	327.32	1.9058e-05	1.0135e-05	542.46	95.088	2.5189e-05	8.6755e-06	189.47	69.527	29.983	13.643	1.6045e-05	35.065	0.010712	0.013129	0.0035396	420.87	0.00013887	0.00014453	616.64	127.07	0.0001433	0.00014474	241.29	85.959	44.67	19.068	0.00014174	42.509	34.724	4.030	-29.487	-104.673	48.318	-4.188	-105.167	-100.041	86.248	117.006	-99.557	-96.313	-95.999	-91.462	-114.495	-92.407	-8191	255	
1543.421	1	1	0	0	0.062467	0.15432	0.13155	0.038971	0.16188	0.21732	0.20664	0.044756	0.23777	0.11917	0.14066	0.19824	0.19317	0.13888	0.15733	0.18214	-2.3312	-2.8042	-2.6396	-2.9646	-2.7396	-2.6271	-3.0292	-2.4333	-2.9562	-2.8542	-2.6958	-2.8646	-2.6188	-2.7708	-2.8625	-2.6646	29.412	-35.306	187.407	31.281	-94.209	-19.517	-111.935	-59.204	155.071	-3.344	73.834	103.579	44.175	212.065	232.934	238.170	0.00085647	6.752e-05	0.00034452	328.8	2.1301e-05	3.5669e-06	535.06	94.572	2.0823e-05	8.7846e-06	188.87	69.963	29.672	13.445	1.1259e-05	34.714	0.01068	0.012854	0.0035646	422.3	0.00013831	0.00014262	614.27	127.26	0.00014165	0.00014267	241.06	86.029	44.231	18.78	0.00013939	42.33	56.408	59.816	-101.427	-104.685	8.436	-71.341	-104.623	-99.147	42.914	217.284	-100.545	-95.924	-95.508	-91.555	232.083	-92.767	-8191	255	
1543.517	1	1	0	0	0.26827	0.01923	0.1773	0.11308	0.11532	0.20784	0.23287	0.2339	0.093968	0.18467	0.073086	0.1685	0.052013	0.14631	0.21689	0.16915	-2.425	-2.7438	-2.6188	-2.8521	-2.9083	-2.6854	-3.1771	-2.5208	-3	-2.7938	-2.6458	-3.0625	-2.6042	-2.8083	-2.8125	-2.8	99.034	213.536	24.946	168.862	-110.971	34.083	65.589	-106.107	225.720	-32.127	142.191	72.043	72.834	158.004	163.585	-91.210	0.00085354	0.0011232	0.0001221	326.01	1.658e-05	8.1046e-06	537.71	93.795	4.8688e-06	8.5883e-06	188.8	69.112	29.514	13.466	1.709e-05	34.702	0.010715	0.012683	0.0036002	424.68	0.00013745	0.00014057	614.55	127.16	0.0001378	0.00014343	242.16	85.903	43.978	18.817	0.00014842	42.416	76.702	224.947	-92.107	-104.606	70.281	108.700	-105.123	-99.569	-29.935	130.095	-99.976	-96.636	-95.496	-91.572	-108.822	-92.278	-8191	255	
1543.638	1	1	0	0	0.18434	0.098026	0.18786	0.030922	0.20436	0.23116	0.35463	0.13769	0.11948	0.19244	0.20985	0.15555	0.15948	0.31464	0.20544	0.14756	-2.3042	-2.9042	-2.675	-2.9188	-2.7896	-2.6333	-2.975	-2.7792	-2.7542	-3.0729	-2.6937	-2.7771	-2.7417	-2.5438	-2.9708	-2.7604	37.793	84.462	68.308	196.607	40.239	166.566	208.790	-15.182	241.015	173.994	-106.193	-106.552	201.527	-113.418	162.553	72.769	0.00059431	0.00069919	2.5813e-05	331.81	9.7977e-06	2.9431e-06	543.68	94.217	2.3122e-05	1.1543e-05	188.65	69.747	29.557	13.494	1.4178e-05	34.829	0.010755	0.012879	0.0037828	426.87	0.00013771	0.00014378	625.11	128.26	0.00013911	0.00015217	245.1	86.388	44.206	18.994	0.00014949	42.519	99.106	141.609	-31.863	-104.316	16.060	216.494	-104.835	-99.505	-22.405	195.359	-100.422	-96.365	-95.230	-91.642	186.915	-92.373	-8191	255	
1543.734	1	1	0	0	0.13386	0.082104	0.21774	0.094332	0.28956	0.20197	0.083448	0.11919	0.14158	0.13644	0.26606	0.08026	0.067222	0.18773	0.23709	0.098936	-2.3271	-2.8708	-2.425	-2.8042	-2.6896	-2.5458	-2.9729	-2.5687	-2.6604	-2.9729	-2.7667	-2.9625	-2.8167	-2.4729	-3.0042	-2.8042	81.227	33.941	-24.999	-108.010	53.989	-103.661	29.460	10.692	-72.562	109.342	239.062	125.077	-75.894	-82.107	-114.058	232.898	0.00068904	0.0010883	0.00018044	334.94	1.5426e-05	2.4237e-06	543.3	94.84	1.8256e-05	3.8186e-06	190.15	70.125	30.069	13.523	7.5444e-06	35.316	0.010597	0.01307	0.003817	427.72	0.0001375	0.00014544	625.97	127.7	0.00013498	0.00014767	244.59	86.147	43.699	19.029	0.00015061	42.495	58.966	209.654	-103.804	-104.453	-45.972	-109.683	-104.574	-99.564	-10.999	7.540	-100.165	-96.176	-95.547	-91.178	200.800	-92.689	-8191	255	
1543.830	1	1	0	0	0.20301	0.082863	0.095496	0.22026	0.22583	0.15446	0.11418	0.32032	0.013336	0.048133	0.14897	0.14471	0.11159	0.20412	0.21854	0.26115	-2.3167	-2.825	-2.5479	-2.8083	-2.7708	-2.5687	-2.8812	-2.6312	-2.6167	-2.8312	-2.8396	-2.9271	-2.9458	-2.575	-2.8063	-2.8292	178.040	130.712	125.443	-90.390	143.779	198.216	-113.015	-110.528	-102.701	-116.934	77.362	-1.390	-61.567	159.365	-78.577	59.521	0.00056849	0.00069148	7.0132e-05	331.01	9.5806e-06	3.3923e-06	545.7	94.512	5.1007e-06	1.6066e-05	188.56	69.645	29.697	13.573	1.1735e-05	34.665	0.010332	0.013016	0.0037793	422.12	0.00013648	0.0001471	626.7	127.06	0.00013508	0.00015666	245.58	85.892	44.011	19.2	0.00014948	42.067	50.298	-84.367	111.299	-104.672	206.967	-32.602	-104.880	-99.619	232.999	165.394	-100.473	-96.354	-95.948	-91.145	68.699	-92.595	-8191	255	
1543.926	1	1	0	0	0.18487	0.28436	0.20392	0.25946	0.2128	0.10968	0.060536	0.12158	0.26832	0.22042	0.13059	0.23967	0.17334	0.13236	0.20913	0.16097	-2.1646	-2.75	-2.7792	-2.5917	-2.8375	-2.7292	-2.85	-2.9146	-2.3354	-3.0062	-2.7771	-2.475	-3.1875	-2.5292	-2.7792	-3.0812	186.210	118.030	170.953	216.936	-108.833	233.144	232.900	-102.419	68.450	142.063	217.453	235.688	188.513	193.217	94.844	48.959	0.00075143	0.0010127	0.00025837	330.12	1.8108e-05	1.0376e-05	541.53	93.911	5.7526e-06	7.1967e-06	189.31	69.298	29.457	13.436	2.3856e-06	34.652	0.010543	0.013469	0.0037718	421.36	0.0001426	0.00015029	624.21	125.87	0.00013643	0.00015519	244.61	85.381	43.85	19.206	0.00014811	42.129	47.753	-109.680	12.887	-104.835	94.577	-49.959	-105.042	-99.475	149.657	175.050	-100.015	-96.122	-95.854	-90.921	-42.754	-92.472	-8191	255	
1544.021	1	1	0	0	0.11652	0.19236	0.1918	0.15151	0.067277	0.14039	0.24729	0.4166	0.15617	0.10484	0.050891	0.23593	0.070366	0.43107	0.35717	0.039752	-2.1854	-2.9313	-2.7313	-2.7188	-2.8708	-2.7958	-3.0771	-2.8396	-2.6375	-3.0187	-2.7021	-2.8875	-2.9208	-2.5958	-2.7313	-2.9813	197.732	-35.615	6.771	213.009	193.721	18.608	139.002	211.248	70.620	176.539	83.048	-108.167	-54.784	235.941	123.481	65.668	0.00030003	0.0016617	8.6833e-05	333.23	2.7492e-05	7.6913e-06	547.1	94.471	3.3027e-06	6.076e-06	188.46	68.884	29.659	13.588	1.4344e-05	34.983	0.01066	0.013693	0.0037242	420.32	0.00014153	0.00015087	625.47	126.05	0.00014049	0.00016009	243.07	85.557	44.502	19.289	0.00014228	42.369	76.718	46.317	-87.131	-104.735	-67.438	189.097	-104.693	-99.874	-109.461	114.925	-100.304	-96.229	-95.782	-91.717	82.181	-92.347	-8191	255	
1544.117	1	1	0	0	0.31764	0.15376	0.31199	0.32214	0.25347	0.23123	0.10098	0.048886	0.072803	0.044402	0.13427	0.21186	0.19919	0.1166	0.13794	0.050016	-2.1333	-2.8229	-2.925	-2.6521	-2.9854	-2.7333	-2.9333	-2.9333	-2.7458	-3	-2.7938	-2.75	-3.0208	-2.6312	-2.9042	-2.9708	184.363	173.081	-85.792	159.900	-18.827	166.077	175.127	89.896	220.650	221.547	139.898	-68.554	-58.552	30.154	227.999	-40.859	0.00059902	0.0008635	0.00026622	331.13	1.0334e-05	1.0376e-05	543.49	95.063	2.1646e-05	7.232e-06	188.3	69.479	29.792	13.61	1.0815e-05	34.876	0.010884	0.013599	0.0036381	420.14	0.0001464	0.00014852	621.87	125.95	0.00013932	0.00015198	240.92	85.462	44.485	19.141	0.00013699	42.553	56.838	-46.038	-51.602	-103.965	-17.546	78.828	-104.772	-99.502	164.422	214.639	-99.890	-96.134	-95.300	-91.067	32.719	-92.334	-8191	255	
1544.213	1	1	0	0	0.22102	0.40394	0.25184	0.055652	0.086855	0.13539	0.23789	0.34128	0.27089	0.079066	0.21499	0.097361	0.21569	0.13931	0.2654	0.11115	-2.1479	-2.8875	-2.8667	-2.4583	-2.85	-2.6979	-2.7562	-2.9375	-2.5542	-3.0896	-2.8021	-2.5479	-3.0979	-2.6333	-2.7479	-2.9562	131.884	5.623	-4.641	52.725	30.684	78.374	162.391	115.709	226.185	137.304	8.701	57.959	179.679	-48.871	41.876	-83.337	0.0003436	0.0011335	0.00019478	329.67	2.3578e-05	7.9012e-06	543.7	95.383	2.099e-05	1.2222e-05	189.18	70.09	29.682	13.459	1.1051e-05	34.794	0.010815	0.013259	0.0035117	419.45	0.0001429	0.00014544	620.17	126.75	0.00013981	0.00014939	241.9	86.16	44.48	18.968	0.00013629	42.483	72.551	236.759	-41.607	-104.331	25.251	33.222	-105.280	-99.648	-88.076	9.196	-100.325	-95.936	-95.535	-91.565	203.655	-92.519	-8191	255	
1544.334	1	1	0	0	0.14921	0.34443	0.15901	0.10341	0.090713	0.2344	0.19593	0.052892	0.19924	0.14647	0.098072	0.10231	0.2122	0.23541	0.23469	0.18255	-1.9479	-2.8312	-2.7458	-2.3833	-2.7792	-2.8771	-2.5708	-2.9479	-2.4917	-2.6729	-2.8708	-2.6458	-2.95	-2.7625	-2.7188	-3.0854	-117.019	-103.817	100.996	191.350	44.129	223.741	216.515	192.271	223.429	-4.909	238.315	-26.724	141.816	-75.795	217.339	169.629	0.00041889	0.00046379	0.0001523	329.18	2.3447e-05	6.3799e-06	541.97	93.949	2.1183e-05	1.4821e-06	188.86	69.571	29.667	13.524	3.55e-06	34.66	0.010777	0.01304	0.0035376	421.42	0.00014718	0.00014261	619.8	127.07	0.00014063	0.00014448	242.64	86.068	44.747	18.933	0.00013859	42.852	87.292	185.736	152.784	-104.532	20.463	-109.276	-104.685	-99.174	45.985	129.145	-100.481	-96.352	-95.888	-91.327	-103.811	-92.510	-8191	255	
1544.430	1	1	0	0	0.16592	0.22237	0.18277	0.40383	0.21683	0.13122	0.14377	0.19198	0.2765	0.14007	0.11248	0.060104	0.12612	0.14535	0.27154	0.1234	-2.1083	-2.725	-2.7604	-2.6104	-2.8438	-2.7583	-2.6937	-2.9875	-2.8083	-2.6042	-2.8333	-2.6292	-2.7646	-2.7625	-2.4208	-2.9979	33.951	-23.305	7.632	222.566	15.500	210.334	201.193	121.939	-36.457	112.577	199.660	-60.873	87.863	21.264	-16.545	225.495	0.00074445	0.0013832	9.3959e-05	328.81	1.4026e-05	1.6329e-05	538.09	94.746	1.5489e-05	1.3926e-05	186.87	69.353	29.87	13.627	6.3103e-06	34.764	0.010826	0.013006	0.0036229	424.14	0.0001436	0.00014126	620.58	127.75	0.00013849	0.000142	244.74	86.078	44.442	18.862	0.00014044	42.678	64.848	-102.524	148.299	-104.542	2.611	58.747	-104.765	-99.568	-37.791	68.088	-100.645	-96.068	-95.888	-91.317	-99.414	-92.254	-8191	255	
1544.501	1	1	0	0	0.13338	0.23365	0.05886	0.072973	0.27378	0.062024	0.09128	0.1459	0.19637	0.19392	0.28202	0.33886	0.1773	0.17586	0.15874	0.20333	-2.2667	-2.7333	-2.8646	-2.7125	-2.7021	-2.7146	-2.7062	-2.8063	-2.6771	-2.7021	-2.9417	-2.725	-2.7271	-2.8042	-2.6125	-2.975	183.950	163.612	71.423	209.867	94.862	93.472	14.400	146.855	-97.144	162.283	224.422	-25.956	-1.475	76.770	110.633	-80.418	0.00018689	0.00079524	0.00013412	330.01	2.9675e-05	1.0935e-05	539.68	95.472	3.4785e-05	1.1457e-05	188.5	69.446	29.492	13.431	1.7344e-05	34.724	0.010554	0.012741	0.003643	422.47	0.00013932	0.00014277	621.83	127.81	0.00013492	0.00014317	244.84	86.153	44.07	18.831	0.00014464	42.925	5.572	26.206	-54.016	-103.924	19.171	198.748	-104.960	-99.777	22.892	99.814	-100.162	-95.993	-95.559	-91.736	-56.529	-92.398	-8191	255	
1544.598	1	1	0	0	0.24216	0.12386	0.19606	0.17215	0.1115	0.33462	0.23403	0.19399	0.16215	0.26568	0.32795	0.055644	0.15751	0.21927	0.23914	0.16446	-2.1854	-2.5125	-2.925	-2.8625	-2.7875	-2.8146	-2.5229	-2.8667	-2.8146	-2.4042	-2.8396	-2.6417	-2.6271	-2.8792	-2.5229	-3.0729	146.818	91.265	185.740	159.064	91.585	-49.033	13.979	162.701	-85.748	-84.396	80.358	85.947	-42.837	161.714	-80.113	-99.431	0.00066674	0.00062958	0.00025712	331.09	1.6597e-05	7.0576e-06	542.11	94.159	6.499e-06	1.5199e-05	187.84	69.438	29.731	13.441	1.2802e-05	34.507	0.01048	0.013053	0.0037843	425.3	0.00013672	0.00014762	627.61	128.55	0.00013565	0.00014762	248.04	86.006	43.98	18.89	0.0001467	42.268	35.838	-109.194	-84.605	-104.870	88.320	99.926	-104.949	-99.557	45.309	129.729	-99.984	-96.240	-94.928	-91.088	42.144	-91.952	-8191	255	
1544.718	1	1	0	0	0.12814	0.30255	0.057046	0.21513	0.043338	0.20905	0.20514	0.23726	0.27783	0.30858	0.27018	0.11037	0.088585	0.16327	0.082046	0.2467	-2.3604	-2.6667	-2.9479	-2.6562	-2.4479	-3.1292	-2.5938	-2.7667	-2.9313	-2.6208	-2.8063	-2.7479	-2.8125	-2.9167	-2.6292	-2.9333	207.757	88.643	29.692	132.731	84.232	-92.896	241.280	144.519	69.605	152.275	121.073	-106.403	-81.328	147.236	6.827	205.459	0.00050299	0.0016876	0.00011863	327.93	5.3667e-06	1.443e-05	539.03	93.645	2.6328e-05	1.2319e-05	185.66	68.836	29.166	13.102	7.9201e-06	34.197	0.010212	0.013155	0.0037682	417.24	0.00013328	0.00015052	620.97	125.89	0.0001318	0.00014879	243.44	84.614	43.55	18.807	0.00014444	41.71	65.865	187.892	207.853	-104.316	-46.425	88.319	-104.923	-99.416	-9.361	-64.069	-100.164	-96.114	-95.609	-91.531	2.671	-92.622	-8191	255	
1544.814	1	1	0	0	0.15992	0.19657	0.12024	0.095497	0.17753	0.2667	0.03454	0.15458	0.10715	0.24893	0.018819	0.20047	0.1427	0.21024	0.11857	0.092526	-2.1667	-2.5979	-2.7979	-2.4917	-2.5792	-3.0958	-2.625	-2.8729	-2.8729	-2.4708	-2.9104	-2.7104	-2.6729	-3.0687	-2.7708	-2.7083	139.937	-39.002	159.791	128.225	-32.270	192.888	194.589	125.610	134.277	50.606	126.627	-49.623	-33.794	239.610	40.768	132.075	0.00097616	0.00071264	0.00010759	325.42	1.3062e-05	8.7574e-06	534.21	93.442	4.4038e-06	1.3858e-05	186.99	68.913	29.311	13.143	7.9503e-06	33.985	0.010506	0.01353	0.0037314	413.95	0.00013383	0.0001497	617	124.9	0.00013213	0.00014962	244.31	84.325	43.665	18.872	0.00014436	41.509	52.452	-15.131	-68.827	-104.054	51.924	53.308	-104.599	-99.464	-107.318	99.803	-100.057	-95.911	-95.661	-91.215	-44.885	-92.133	-8191	255	
1544.911	1	1	0	0	0.059223	0.14637	0.18658	0.17279	0.069459	0.19815	0.20809	0.27412	0.27679	0.15544	0.25537	0.31808	0.24665	0.27254	0.27371	0.14247	-2.6021	-2.4333	-2.9292	-2.7021	-2.5396	-3.1167	-2.5375	-2.7375	-2.9042	-2.5229	-3.0104	-2.8646	-2.6437	-2.9437	-2.6979	-2.8854	5.401	81.498	169.954	240.305	52.722	238.933	234.682	174.322	-31.235	121.677	176.075	-90.478	-11.464	182.995	174.963	136.231	0.00059722	0.00056051	0.00014814	326.25	1.2723e-05	2.8131e-05	537.43	93.621	7.8843e-06	1.6407e-05	186.8	67.78	28.859	13.263	4.4173e-06	33.835	0.010871	0.013938	0.0038079	418.1	0.00014239	0.00016137	623.2	126.13	0.00014026	0.00015648	244.8	84.378	44.425	19.019	0.00014371	41.492	128.984	110.907	-60.235	-104.308	-105.478	93.851	-104.659	-99.858	29.631	20.729	-100.154	-96.015	-95.941	-91.509	83.006	-91.974	-8191	255	
1545.007	1	1	0	0	0.28886	0.12117	0.16091	0.16758	0.10983	0.19597	0.04378	0.069967	0.21016	0.17489	0.10277	0.13235	0.20931	0.21936	0.15399	0.14258	-2.4646	-2.5687	-2.8896	-3.0396	-2.6958	-2.8729	-2.7896	-2.8125	-3.0104	-2.425	-3.0563	-2.8833	-2.375	-3.0458	-2.7792	-2.7271	112.105	80.520	93.899	161.954	4.309	-59.986	205.727	-63.298	94.562	147.408	100.803	225.772	-43.374	240.322	217.306	195.040	0.00096235	0.0026918	0.00017992	327.95	2.6182e-05	1.8467e-05	541.69	92.788	1.8443e-05	7.287e-06	187.6	68.214	28.851	13.055	1.7526e-05	33.986	0.011481	0.014009	0.0037946	419.36	0.00014554	0.00015794	625.06	126.79	0.00014585	0.00015714	244.07	85.364	44.945	19.052	0.00014414	41.706	84.209	13.192	52.531	-104.157	37.600	93.104	-104.621	-99.559	207.964	109.969	-100.279	-96.220	-96.423	-91.243	-55.002	-92.242	-8191	255	
1545.126	1	1	0	0	0.088399	0.11685	0.13413	0.17951	0.076375	0.060047	0.26314	0.29172	0.12666	0.11185	0.03955	0.047199	0.11919	0.21686	0.14482	0.15017	-2.6271	-2.3333	-2.75	-2.9313	-2.5667	-3.1479	-2.6917	-2.425	-3.1396	-2.6312	-2.7729	-2.9562	-2.7479	-2.9479	-2.7438	-2.6458	172.192	193.814	131.145	144.737	209.927	221.368	153.101	-112.396	-103.067	-21.613	241.164	180.622	181.441	-104.695	-48.299	92.013	0.00070719	0.00098408	0.00032036	329.66	3.1439e-05	2.6666e-05	539.19	93.233	2.418e-05	1.8416e-06	184.6	67.651	29.114	13.069	9.9304e-06	33.706	0.011562	0.014104	0.0037734	421.66	0.00014928	0.00016099	620.58	127.51	0.00014739	0.00015507	241.2	85.651	44.956	18.957	0.00014312	41.881	85.018	-40.929	3.068	-104.677	-7.919	76.749	-104.796	-99.557	117.904	99.534	-99.992	-96.411	-95.833	-90.513	154.490	-92.151	-8191	255	
1545.199	1	1	0	0	0.28254	0.20508	0.26098	0.25038	0.1928	0.14838	0.16816	0.15202	0.051475	0.10932	0.20918	0.17931	0.15822	0.21333	0.049212	0.15627	-2.4167	-2.475	-2.5604	-2.8333	-2.5625	-2.9417	-2.7667	-2.625	-2.7958	-2.3521	-2.8458	-2.9896	-2.4583	-2.8688	-2.7771	-2.5521	206.687	54.444	108.170	37.085	157.818	76.919	136.167	86.433	223.529	-86.054	-113.853	-32.014	125.144	210.228	57.421	131.328	0.00046007	0.0027596	0.00024527	329.69	4.248e-06	2.0042e-05	541.4	92.786	1.651e-05	5.957e-06	184.92	68.044	29.228	13.27	1.19e-05	33.975	0.011901	0.013831	0.00379	425.72	0.00014929	0.00015548	623.54	128.59	0.00014739	0.00015148	242.51	86.668	44.966	19.004	0.00014369	42.245	57.269	7.178	-9.647	-104.813	31.084	87.893	-105.114	-99.226	234.211	230.825	-100.163	-96.024	-95.723	-90.835	-10.888	-92.439	-8191	255	
1545.318	1	1	0	0	0.24358	0.27368	0.076075	0.077308	0.19889	0.17314	0.24137	0.076052	0.18365	0.068042	0.20314	0.049607	0.16853	0.051093	0.12036	0.27172	-2.6312	-2.8458	-2.4313	-2.8021	-2.85	-2.7521	-2.8792	-2.6708	-3.0021	-2.7979	-2.6688	-3.0208	-2.7	-2.9271	-2.9521	-2.7562	97.177	100.520	200.334	15.116	28.260	-38.310	157.506	23.960	97.966	78.879	182.465	102.575	-4.022	187.069	95.065	28.810	0.00039464	0.001094	0.00036469	330.37	9.7173e-06	1.7146e-05	539.25	93.659	1.1198e-05	2.1682e-06	188.62	68.544	29.311	13.485	6.8262e-06	34.297	0.011541	0.013419	0.0037881	425.66	0.00014561	0.00014977	625.66	128.97	0.00014501	0.00014758	243.82	86.863	44.831	19	0.00014499	42.479	97.803	-58.537	30.938	-104.623	-65.623	66.529	-104.573	-99.762	205.528	192.259	-99.965	-96.314	-95.670	-91.093	150.974	-92.332	-8191	255	
1545.414	1	1	0	0	0.040863	0.19112	0.069584	0.18931	0.094834	0.1131	0.13585	0.04953	0.090472	0.095452	0.15536	0.22878	0.18118	0.14641	0.062218	0.073165	-2.4521	-2.7958	-2.5312	-2.9625	-2.7521	-2.7375	-3.0521	-2.7729	-2.7396	-3.0021	-2.6063	-2.7771	-2.7021	-2.7917	-2.9042	-2.7854	-74.192	-115.321	119.877	-66.202	0.742	147.181	226.247	-20.043	113.164	-47.206	163.904	201.358	5.028	71.806	106.645	236.581	0.0008911	0.0011952	0.00030992	331.25	2.0306e-05	7.0161e-06	545.51	94.026	3.5786e-05	1.6221e-05	188.22	69.157	29.795	13.371	1.817e-05	34.32	0.011682	0.013237	0.0038617	427.25	0.00014271	0.00014687	629.29	129.31	0.00014153	0.00014728	246.26	87.448	44.876	19.165	0.00014941	42.562	129.862	68.934	16.989	-104.727	61.805	-61.299	-104.610	-99.376	18.003	107.590	-99.978	-96.412	-95.490	-90.707	218.259	-92.347	-8191	255	
1545.510	1	1	0	0	0.093272	0.078352	0.24789	0.075779	0.21488	0.064289	0.20143	0.10681	0.22865	0.020628	0.35556	0.26835	0.16698	0.093678	0.050194	0.071846	-2.3479	-2.8458	-2.5583	-2.7562	-2.6396	-2.8292	-2.8646	-2.4458	-2.9854	-2.95	-2.4104	-3.1	-2.7	-2.5979	-3.0729	-2.6208	-21.381	-114.666	-1.734	225.824	-38.671	139.216	194.287	31.293	96.265	101.516	212.134	135.937	0.378	219.834	-105.377	-50.236	0.00055713	0.00046422	0.00058554	334.51	8.9152e-06	5.3527e-06	540.77	93.883	2.034e-05	9.3545e-06	187.51	68.653	29.319	13.281	6.5068e-06	34.459	0.011278	0.013532	0.0040092	429.7	0.00014154	0.00015052	634.74	128.71	0.00013987	0.00014877	245.95	86.47	43.942	18.985	0.00014747	42.263	107.340	90.009	199.973	-104.369	86.792	-45.837	-104.557	-99.719	-18.641	193.726	-100.090	-96.316	-96.325	-91.331	201.754	-92.391	-8191	255	
1545.606	1	1	0	0	0.19466	0.31487	0.17617	0.15985	0.19061	0.27398	0.17377	0.11185	0.042152	0.1775	0.21001	0.17792	0.13502	0.23135	0.18939	0.16278	-2.2875	-2.7708	-2.5312	-2.9208	-2.8354	-2.5854	-3.0563	-2.6188	-2.8292	-3	-2.4375	-2.9229	-2.7125	-2.7417	-2.9813	-2.6813	126.485	144.131	-21.337	89.892	194.871	205.418	32.315	149.675	142.733	-114.288	66.459	167.665	222.005	-71.136	151.431	-101.172	0.00069122	0.00044981	0.00013424	327.22	5.9973e-06	5.3178e-06	541.33	93.917	2.8618e-05	4.3183e-06	187.82	68.882	29.586	13.431	1.5719e-05	34.3	0.010667	0.013743	0.0039057	422.56	0.00013631	0.00015077	628.81	127.73	0.00013885	0.00015134	246.33	86.793	44.031	19.316	0.00014945	42.118	88.960	167.223	52.525	-104.663	37.770	128.181	-104.851	-99.223	-3.960	182.375	-99.858	-96.450	-95.844	-91.240	16.053	-92.053	-8191	255	
1545.727	1	1	0	0	0.36692	0.2115	0.2464	0.10792	0.42434	0.058736	0.11566	0.20193	0.17999	0.15386	0.25563	0.022461	0.042504	0.18453	0.28961	0.013052	-2.3542	-2.9021	-2.5854	-2.9396	-2.6604	-2.6104	-2.9708	-2.5896	-2.6688	-3.0146	-2.3187	-2.9292	-2.6521	-2.7333	-2.9104	-2.6104	23.141	22.264	114.978	146.516	176.165	91.337	193.561	154.335	52.431	232.680	191.105	222.478	188.367	238.009	77.630	226.677	0.00042558	0.00093547	0.00028694	330.62	1.6016e-05	9.088e-06	542.88	94.607	1.0793e-05	1.2292e-05	188.16	69.346	29.755	13.395	6.3015e-06	34.501	0.010753	0.014125	0.0039112	422.22	0.00013841	0.00015451	633.46	127.61	0.00014026	0.00015457	246.74	86.519	44.611	19.458	0.00015056	42.301	52.798	32.971	71.790	-104.487	-3.268	17.386	-104.784	-99.538	217.410	55.270	-99.217	-96.172	-95.868	-91.497	171.318	-91.736	-8191	255	
1545.799	1	1	0	0	0.065549	0.086644	0.047773	0.28075	0.15225	0.17375	0.13138	0.27897	0.096156	0.15843	0.43709	0.35242	0.12599	0.028645	0.1372	0.029743	-2.3604	-2.9896	-2.6104	-2.7146	-2.9542	-2.5563	-2.8833	-2.6896	-2.5979	-3.0062	-2.6083	-2.725	-2.7687	-2.7313	-2.8458	-2.7354	211.299	149.539	-82.835	197.083	3.563	174.892	-88.362	-100.393	149.482	220.543	186.311	175.559	85.003	170.419	111.095	38.265	0.00046409	0.0025167	0.00036738	330.87	4.7885e-06	1.4584e-05	545.91	94.51	1.4514e-05	1.0183e-05	190	69.747	29.772	13.467	7.7671e-06	34.429	0.011147	0.015054	0.003973	427.19	0.00014381	0.00016056	635.87	128.44	0.00014704	0.00016003	247.16	86.541	45.769	19.603	0.00014973	42.276	78.574	-30.940	-115.529	-104.059	-104.598	-79.289	-104.614	-99.155	163.501	-46.634	-99.971	-96.043	-95.740	-90.850	242.037	-92.724	-8191	255	
1545.895	1	1	0	0	0.38557	0.082181	0.24342	0.12136	0.24943	0.2609	0.21144	0.05458	0.039635	0.051958	0.30069	0.095193	0.034162	0.30203	0.11985	0.087088	-2.0729	-3.075	-2.4208	-2.5875	-3.1063	-2.4042	-3.1271	-2.6896	-2.4125	-3.1396	-2.7521	-2.6729	-2.8542	-2.6708	-2.6479	-2.8854	2.891	-42.001	100.030	234.535	60.377	-13.227	215.656	-115.001	-4.369	131.955	153.782	157.007	-58.489	-72.157	-64.260	-31.299	0.00060195	0.00020257	0.00025966	332.32	9.6201e-06	2.5984e-06	545.39	94.232	6.0113e-06	3.6904e-06	188.1	69.214	29.592	13.537	7.339e-06	34.187	0.011485	0.014696	0.003921	428.86	0.00014703	0.00015939	636.62	128.38	0.0001496	0.00015971	245.41	85.975	45.893	19.478	0.00014755	42.037	41.100	120.474	-67.367	-104.521	52.276	166.240	-104.432	-99.760	2.530	-92.046	-99.606	-96.007	-96.354	-91.235	-40.052	-92.262	-8191	255	
1545.991	1	1	0	0	0.034863	0.25127	0.14341	0.19196	0.15119	0.37084	0.28994	0.086454	0.087299	0.22735	0.2296	0.10966	0.18717	0.063985	0.23122	0.27549	-2.2167	-2.9146	-2.725	-2.525	-2.7854	-2.8771	-2.7062	-2.75	-2.6021	-2.7333	-2.9146	-2.6312	-2.9167	-2.7083	-2.8792	-2.7021	122.429	-68.313	225.966	63.455	149.686	58.580	185.079	233.088	-63.626	48.267	-3.005	-69.941	14.379	219.251	86.848	10.871	0.00051758	0.0016184	0.00025411	334.66	7.749e-06	5.4416e-06	542.85	94.444	1.7741e-05	1.4927e-05	187.34	69.1	29.702	13.489	1.2117e-05	34.215	0.011606	0.014873	0.0038129	429.2	0.00014771	0.00015673	629.67	128.68	0.00015011	0.00015626	243.71	86.392	46.36	19.385	0.0001457	42.321	34.722	0.393	-78.009	-104.508	-37.093	-40.022	-104.712	-99.907	67.490	128.304	-100.150	-96.138	-95.736	-91.495	208.724	-92.166	-8191	255	
1546.110	1	1	0	0	0.26157	0.2481	0.2991	0.19473	0.16698	0.025034	0.24284	0.029545	0.08121	0.22351	0.12948	0.27968	0.1522	0.032732	0.082498	0.059197	-2.3187	-2.8063	-2.7354	-2.5833	-2.8854	-2.6146	-2.8125	-2.7479	-2.4562	-2.8187	-2.7667	-2.575	-2.9688	-2.65	-2.9396	-2.7646	231.112	180.435	31.243	189.699	87.239	89.263	149.855	118.369	1.899	163.471	174.323	233.180	165.768	-110.276	231.053	79.257	0.00077267	0.0021944	0.00016821	332.76	1.2308e-05	1.1402e-05	548.62	95.023	7.1757e-06	8.5732e-06	189	69.766	30.092	13.493	3.1517e-06	34.346	0.011705	0.014503	0.0038071	431.98	0.00015001	0.00015441	632.81	131.56	0.00015081	0.00015448	244.85	87.049	46.037	19.254	0.00014525	42.495	80.099	-38.986	145.601	-104.371	-55.430	26.832	-104.727	-99.589	23.978	233.144	-100.262	-96.083	-96.107	-90.948	-3.039	-92.203	-8191	255	
1546.206	1	1	0	0	0.12225	0.26045	0.044257	0.20516	0.17902	0.22119	0.13854	0.22588	0.21902	0.18404	0.12401	0.027291	0.325	0.46342	0.13544	0.073301	-2.1458	-2.7979	-2.5021	-2.3479	-2.8563	-2.6333	-2.9417	-2.8646	-2.5187	-2.95	-2.7313	-2.7771	-3.0563	-2.6896	-3.0062	-3.0271	154.917	10.496	204.729	-85.858	-107.772	12.229	208.914	25.287	143.443	189.790	-81.801	198.207	152.615	132.106	-76.872	-59.475	0.00078285	0.0019745	0.00020649	331	1.2376e-05	5.7006e-06	544.03	94.78	2.0609e-05	4.4472e-06	188.27	69.488	29.64	13.632	4.0422e-06	34.513	0.011353	0.01413	0.0037285	428.2	0.00014364	0.00014643	627.2	130.42	0.0001453	0.00014807	243.88	87.121	46.004	19.222	0.00014824	42.622	50.247	-45.895	91.115	-104.776	-29.772	32.240	-104.888	-99.718	215.723	-0.220	-100.129	-96.433	-95.965	-91.093	99.494	-92.336	-8191	255	
1546.302	1	1	0	0	0.23593	0.30717	0.24957	0.10348	0.1389	0.070414	0.16048	0.14906	0.08543	0.15331	0.15453	0.35575	0.28263	0.099056	0.19889	0.068462	-2.3271	-2.9167	-2.4979	-2.6583	-2.9083	-2.5875	-2.7771	-2.7313	-2.5479	-2.8167	-2.8833	-2.7792	-2.8396	-2.6958	-2.7146	-2.9354	150.614	18.530	74.031	-114.673	79.519	84.245	118.629	150.815	215.980	166.592	155.763	66.474	-61.208	-51.442	123.165	-31.056	0.00057108	0.00073087	0.00015098	335.97	2.6773e-05	2.0852e-05	546.78	93.859	3.2261e-05	5.3079e-06	187.97	69.58	29.984	13.401	1.1169e-05	34.389	0.01127	0.013824	0.003864	433.64	0.0001458	0.00014892	633	131.96	0.00014539	0.00015119	246.07	86.989	45.355	19.046	0.00014952	42.332	94.326	231.748	-105.564	-104.301	-3.612	130.985	-104.959	-99.671	22.538	-117.375	-100.196	-96.448	-96.134	-91.939	91.447	-92.125	-8191	255	
1546.398	1	1	0	0	0.15395	0.20337	0.22982	0.19656	0.10075	0.16601	0.17083	0.084665	0.20214	0.20113	0.15054	0.15981	0.20539	0.10296	0.18921	0.15768	-2.1063	-2.5146	-2.8917	-2.6063	-2.8563	-2.7354	-2.7833	-3.0042	-2.7583	-2.775	-2.8167	-2.6229	-2.7792	-2.8542	-2.6646	-2.8063	223.453	206.216	133.165	-93.416	79.576	57.303	201.309	-6.271	116.737	-43.504	186.047	-81.762	230.490	106.552	-101.698	-98.339	0.00059821	0.00080974	0.00016736	332.54	1.3053e-05	7.8351e-06	544.67	95.111	2.6833e-05	5.1834e-06	189.19	69.008	29.713	13.423	2.3145e-06	34.48	0.010864	0.013329	0.0039758	426.34	0.00013789	0.00014356	628.53	129.43	0.00013772	0.00014866	245.85	86.392	45.278	19.114	0.00015288	42.45	96.239	-16.308	13.762	-104.388	-27.459	-61.516	-104.944	-99.845	79.765	47.446	-100.452	-96.174	-96.387	-91.290	-10.710	-92.084	-8191	255	
1546.494	1	1	0	0	0.11908	0.14704	0.3386	0.19293	0.10188	0.039289	0.22299	0.089809	0.13706	0.23935	0.27851	0.1264	0.12614	0.26034	0.039502	0.22205	-2.2208	-2.5604	-2.7729	-2.4833	-2.9604	-2.7229	-2.5833	-2.9	-2.7729	-2.7271	-2.9125	-2.6625	-2.8729	-2.8958	-2.5917	-2.9604	27.109	-45.483	-25.963	7.640	-25.657	-73.405	182.465	210.660	165.039	152.424	105.290	-28.357	44.529	204.752	-8.563	148.065	0.00033722	0.00094104	4.8429e-05	333.99	1.654e-05	5.6073e-06	548.89	93.956	2.4113e-05	8.7457e-06	188.5	69.326	30.019	13.463	1.0965e-05	34.723	0.010841	0.013986	0.004098	432.92	0.00014197	0.00015289	637.74	131.4	0.00014015	0.0001562	247.84	86.697	45.122	19.419	0.00015294	42.488	39.127	3.799	34.884	-104.780	88.405	75.480	-105.048	-99.527	241.681	15.877	-100.422	-96.013	-96.263	-91.635	96.591	-92.322	-8191	255	
1546.591	1	1	0	0	0.18564	0.20932	0.13275	0.053856	0.30952	0.20832	0.14242	0.085584	0.041354	0.053417	0.16011	0.20175	0.086888	0.2176	0.10347	0.2288	-2.2646	-2.7271	-2.9313	-2.5062	-3.0021	-2.8896	-2.8521	-2.8	-2.8187	-2.6333	-2.9708	-2.7062	-2.7396	-2.6562	-2.5354	-3.0521	9.716	-66.356	-25.044	-83.801	88.998	117.226	68.634	47.815	180.601	-103.949	-112.568	198.299	-69.774	158.849	0.702	186.593	0.00070458	0.00087213	0.00033996	333.44	6.5201e-06	1.6904e-05	546.49	95.157	1.0915e-05	1.3401e-05	189.15	70.36	30.144	13.548	1.1999e-05	34.849	0.010805	0.014181	0.0041119	429.04	0.0001406	0.00015376	636.84	129.88	0.00014101	0.00015888	248.74	86.76	45.244	19.826	0.00015383	42.589	36.131	206.664	-34.944	-104.272	52.253	-69.585	-104.574	-99.715	151.426	57.881	-99.739	-96.405	-95.948	-91.395	241.042	-92.362	-8191	255	
1546.687	1	1	0	0	0.2594	0.018781	0.035052	0.15281	0.24162	0.13597	0.014858	0.11026	0.17562	0.22359	0.37707	0.13175	0.17003	0.11608	0.14555	0.28287	-2.2562	-2.6	-2.7979	-2.5917	-2.6	-2.8333	-2.4958	-2.8146	-2.6521	-2.7188	-2.9979	-2.7979	-2.6437	-2.9313	-2.7458	-2.7833	17.600	97.636	232.409	162.577	-31.321	39.094	207.296	-8.154	120.658	200.031	83.093	62.691	145.698	184.311	-49.937	166.224	0.00069149	0.0011628	0.0002161	335.96	8.5293e-06	7.1789e-06	546.37	94.481	1.1847e-05	2.9293e-05	188.31	69.968	30.066	13.432	1.4074e-05	34.624	0.011029	0.014423	0.0040391	427.99	0.00014365	0.00015491	633.23	129.46	0.00014019	0.00015638	244.93	85.644	44.933	19.493	0.00014572	41.998	58.367	222.546	19.297	-104.553	-62.044	208.543	-105.004	-99.501	-106.991	13.283	-100.344	-95.992	-95.231	-90.899	-13.186	-92.233	-8191	255	
1546.807	1	1	0	0	0.021746	0.077626	0.2068	0.056258	0.14355	0.11051	0.24422	0.074311	0.1422	0.054244	0.27715	0.079475	0.23498	0.13458	0.22033	0.25591	-2.3	-2.3958	-2.8625	-2.6542	-2.8	-2.9208	-2.6229	-3.0146	-2.8917	-2.5729	-2.9562	-2.7792	-2.5812	-2.9604	-2.7521	-2.8667	72.242	-100.049	-83.775	105.030	26.788	231.613	162.937	110.115	-84.495	-35.354	-78.008	212.280	222.673	-84.190	-26.022	185.581	0.00026309	0.00026228	0.00046102	334.99	9.825e-06	8.3255e-06	545.78	94.715	3.7125e-05	3.5021e-06	190.19	69.429	29.686	13.513	1.1609e-05	34.475	0.010949	0.014132	0.0039856	425.45	0.00014634	0.00015477	631.21	129.25	0.00014701	0.00016031	246.31	86.197	45.979	19.879	0.00014878	42.43	87.060	207.784	-18.512	-104.403	135.826	165.558	-104.561	-99.210	174.326	91.063	-99.622	-96.202	-94.860	-91.325	112.420	-92.577	-8191	255	
1546.903	1	1	0	0	0.17904	0.084856	0.28968	0.38191	0.10273	0.21772	0.36171	0.21189	0.11584	0.12342	0.11282	0.22659	0.22133	0.20094	0.14856	0.16329	-2.4479	-2.625	-2.9792	-2.5708	-2.6146	-2.8625	-2.5396	-3.1021	-2.525	-2.6667	-2.9792	-2.6146	-2.7042	-2.8312	-2.6271	-2.8458	-97.637	219.834	12.190	-25.651	14.307	-7.251	158.306	197.953	128.671	108.092	-30.181	47.262	212.953	-115.344	-49.800	12.561	0.0006328	0.0015175	0.00015945	336.5	1.6322e-05	6.3944e-06	550.27	95.587	1.9107e-05	1.1589e-05	190.41	69.512	29.968	13.546	2.7647e-06	34.51	0.011566	0.014565	0.0039583	431.71	0.00015178	0.00015709	633.7	130.13	0.00015519	0.00015898	245.46	86.565	45.994	19.577	0.00014413	42.509	102.062	-41.875	-23.947	-104.309	143.068	106.538	-104.823	-99.527	187.172	-3.892	-100.306	-96.134	-95.757	-91.381	83.698	-92.451	-8191	255	
1547.000	1	1	0	0	0.19074	0.22868	0.18542	0.34363	0.2747	0.08334	0.15125	0.22281	0.17353	0.12186	0.19022	0.25713	0.035587	0.033609	0.20686	0.11738	-2.3646	-2.4938	-2.8	-2.8083	-2.5458	-3.1208	-2.7271	-2.5979	-2.9938	-2.5792	-2.9583	-2.7542	-2.4958	-2.8875	-2.6979	-2.625	-27.195	-29.249	-115.822	-105.668	38.897	-20.441	-107.336	156.534	84.069	123.350	179.458	-45.513	-34.836	21.693	70.066	176.363	0.00056751	0.0012086	0.00032124	334.92	1.346e-05	1.0693e-05	546.71	95.137	1.3878e-05	1.4786e-05	188.91	69.716	30.123	13.713	1.4033e-05	34.788	0.011294	0.013883	0.0039073	428.62	0.00014742	0.00014939	626.25	129.53	0.00014903	0.00015187	244.12	86.834	45.679	19.638	0.0001426	42.719	73.815	56.115	25.199	-104.516	235.656	82.726	-104.507	-99.818	199.749	25.908	-99.858	-96.117	-95.777	-91.354	148.729	-91.886	-8191	255	
1547.096	1	1	0	0	0.043374	0.39665	0.31626	0.4184	0.35207	0.099325	0.024626	0.18113	0.054635	0.12903	0.37874	0.11525	0.049332	0.24369	0.11217	0.27213	-2.3396	-2.6458	-2.7354	-2.7917	-2.6708	-2.9625	-2.7479	-2.6458	-3.05	-2.6979	-2.7271	-2.9125	-2.675	-2.6167	-2.8083	-2.5083	125.624	-41.035	-106.676	-98.672	86.978	71.302	-1.031	212.115	123.538	142.129	-99.553	40.033	129.523	217.501	-72.998	164.855	0.00041061	0.00026141	7.3949e-05	335.66	9.2034e-06	1.123e-05	551.48	94.909	7.3867e-06	5.0241e-06	189.23	69.123	29.943	13.448	7.2088e-06	34.236	0.011168	0.013592	0.0038295	432.38	0.0001475	0.00014797	631.08	130.35	0.0001522	0.00014969	245.02	86.646	45.39	19.234	0.00014473	42.285	97.164	-87.919	18.973	-104.063	6.253	54.463	-104.541	-99.280	-73.417	228.086	-100.302	-96.000	-95.958	-91.326	95.887	-92.503	-8191	255	
1547.190	1	1	0	0	0.078613	0.055756	0.1546	0.07315	0.084426	0.13061	0.1453	0.34893	0.031188	0.13907	0.059809	0.17138	0.18389	0.035111	0.17972	0.096794	-2.4917	-2.5729	-2.8229	-2.8229	-2.5187	-2.9979	-2.7042	-2.6271	-2.9	-2.6625	-2.75	-2.9292	-2.6021	-3.0896	-2.8708	-2.6437	140.039	37.777	-13.673	115.229	5.109	-29.211	79.028	128.249	120.627	-34.464	39.491	7.213	-114.748	240.989	91.200	33.528	0.00057467	0.0015301	1.4168e-05	329.64	1.8469e-05	1.6199e-05	541.9	94.188	1.2526e-05	1.1407e-05	188.5	69.266	29.54	13.455	2.9403e-06	34.16	0.010999	0.013191	0.0037585	430.68	0.00014106	0.0001426	622.19	128.66	0.00014273	0.00014401	243.91	86.099	44.481	19.218	0.00014551	42.168	69.878	224.603	200.513	-104.307	9.922	-16.185	-104.822	-99.720	-5.034	50.724	-100.318	-96.714	-96.151	-90.844	192.870	-92.421	-8191	255	
1547.286	1	1	0	0	0.17214	0.20025	0.066228	0.27017	0.21132	0.35307	0.19052	0.14198	0.2169	0.090903	0.044628	0.1569	0.015854	0.15702	0.18507	0.13684	-2.4542	-2.4688	-2.5833	-2.9188	-2.6479	-2.9792	-2.8521	-2.5375	-2.9083	-2.7562	-2.6583	-3.1188	-2.6271	-2.8146	-2.8521	-2.5167	-12.582	-29.957	-94.442	-102.445	-67.762	-87.412	195.794	43.121	8.625	-34.231	113.785	166.364	-25.659	36.181	215.084	76.183	0.0005659	0.0022319	0.00020413	334.52	1.3183e-05	6.819e-06	542.79	94.937	1.1519e-05	1.1043e-05	188.38	69.504	29.582	13.507	8.568e-06	34.255	0.010725	0.013274	0.0038943	431.54	0.00014045	0.00014759	629.44	129.58	0.00014678	0.0001487	246.58	86.353	44.546	19.207	0.00015076	42.233	70.808	-38.088	188.387	-104.520	-102.376	233.925	-104.729	-99.091	21.036	-7.913	-100.125	-96.081	-95.608	-91.444	160.948	-92.223	-8191	255	
1547.407	1	1	0	0	0.14735	0.30835	0.15855	0.2594	0.054886	0.1387	0.35376	0.20867	0.1488	0.039098	0.33448	0.28785	0.10858	0.14961	0.37319	0.074124	-2.4729	-2.7	-2.6979	-2.9938	-2.6479	-2.9354	-2.7958	-2.7271	-3.0062	-2.7833	-2.7375	-2.9604	-2.7771	-2.775	-3.0563	-2.5167	-21.159	219.368	-104.678	70.231	117.117	-102.096	193.835	-66.698	29.333	-62.737	-84.159	200.763	41.992	55.861	159.878	163.926	0.0009176	0.001267	0.0003266	329.73	2.1774e-05	1.9498e-06	544.41	94.674	1.958e-05	6.7966e-06	189.04	69.848	29.755	13.442	6.7849e-06	34.628	0.010678	0.013444	0.0039525	431.92	0.00013788	0.00014962	630.74	129.19	0.00014101	0.00015105	247.57	86.07	44.655	19.318	0.00015641	42.42	76.646	70.934	-36.621	-104.332	3.130	-88.677	-104.896	-99.413	217.300	224.331	-100.559	-95.960	-96.098	-91.051	180.534	-92.310	-8191	255	
1547.503	1	1	0	0	0.096341	0.14256	0.067341	0.11103	0.067322	0.28645	0.13055	0.15452	0.21049	0.082493	0.27495	0.080823	0.13065	0.21726	0.04383	0.05836	-2.4208	-2.7292	-2.6479	-3.125	-2.5563	-2.7208	-3.0854	-2.4042	-2.8792	-2.8187	-2.6708	-2.9146	-2.5208	-2.7313	-2.9688	-2.5687	-110.925	-6.340	-19.465	5.973	-53.539	226.553	220.363	-20.186	-33.712	166.357	105.279	178.766	207.671	202.182	-18.647	176.746	0.0011514	0.00096634	0.00060891	331.02	4.004e-06	1.2275e-05	544.27	96.007	3.5203e-05	9.2364e-06	188.86	69.413	29.868	13.467	9.7135e-06	34.501	0.010715	0.013826	0.0039518	427.86	0.00013845	0.00015285	629.18	128.72	0.00014545	0.00015149	246.43	85.582	44.475	19.307	0.00014955	41.959	55.202	219.087	-56.112	-104.222	-42.868	-54.460	-104.732	-99.392	226.469	117.913	-99.558	-96.355	-96.091	-91.389	-30.542	-92.580	-8191	255	
1547.599	1	1	0	0	0.20031	0.19456	0.034661	0.076774	0.20138	0.11464	0.081524	0.13497	0.25799	0.062751	0.18538	0.15273	0.24865	0.11727	0.058901	0.13679	-2.3208	-2.6792	-2.5687	-2.8875	-2.6646	-2.7771	-3.0333	-2.5583	-2.8396	-2.875	-2.6729	-2.9562	-2.7917	-2.6167	-2.9604	-2.6521	-47.950	-35.993	-72.417	-83.906	123.855	158.670	215.544	-8.381	127.357	-98.792	-88.542	97.735	192.719	-68.764	141.128	49.950	0.00025418	0.0011511	0.00021917	330.6	1.2462e-05	1.6147e-05	544.37	95.086	1.3874e-05	8.0665e-06	189.33	69.41	29.881	13.482	2.3642e-05	34.428	0.010666	0.013736	0.0038708	427.45	0.00014072	0.00015599	629.77	128.09	0.00014562	0.00015994	247.76	85.86	45.27	19.6	0.00015725	42.145	-34.085	-61.154	218.176	-104.221	135.725	-48.520	-104.828	-99.703	-1.095	100.869	-100.324	-96.525	-96.033	-91.595	-23.401	-92.350	-8191	255	
1547.671	1	1	0	0	0.20682	0.10421	0.13955	0.19872	0.092735	0.027278	0.37911	0.2051	0.25826	0.093402	0.21489	0.15855	0.10282	0.10686	0.23939	0.18691	-2.3979	-2.85	-2.4437	-2.8167	-2.575	-2.7125	-2.9875	-2.7562	-2.8708	-3.025	-2.8187	-2.8438	-2.6667	-2.4646	-2.8688	-2.7292	135.201	-26.354	26.050	140.593	-83.965	60.838	212.023	61.908	-89.897	-28.552	-53.975	-51.354	-72.693	-114.608	34.916	128.334	0.00062413	0.0010074	0.00027424	335.13	1.0843e-05	7.531e-06	547.31	94.381	3.1513e-05	2.4609e-06	190.11	69.247	29.906	13.571	7.6927e-06	34.18	0.011422	0.014377	0.0039662	432.9	0.00014688	0.00015907	631.12	128.55	0.00014795	0.00016473	245.8	86.001	45.311	19.563	0.00014706	42.219	61.365	107.011	-57.356	-104.337	84.466	2.795	-104.582	-99.817	-85.335	153.493	-100.068	-96.356	-95.800	-91.356	32.447	-92.177	-8191	255	
1547.792	1	1	0	0	0.167	0.058292	0.2161	0.18222	0.19098	0.14561	0.16983	0.13386	0.18163	0.069605	0.060543	0.22797	0.20862	0.16872	0.090169	0.042089	-2.2229	-3	-2.5354	-3.0458	-2.8146	-2.6667	-3.0479	-2.5875	-2.8438	-2.8937	-2.7292	-2.8604	-2.7479	-2.4604	-3.2062	-2.825	159.477	220.658	5.462	-38.216	10.129	212.491	-53.117	126.219	119.278	-87.598	81.864	237.178	73.143	-38.263	28.328	185.144	0.00048433	0.0015209	5.2262e-05	334.86	1.0169e-05	2.6241e-05	545.33	95.131	9.3918e-06	1.7815e-05	190.56	69.314	29.994	13.605	2.4852e-05	34.618	0.011275	0.013795	0.0037463	432.07	0.00014483	0.00015397	626.5	128.29	0.0001454	0.00015682	244.43	86.46	45.365	19.426	0.00014759	42.45	44.732	-60.501	82.001	-104.093	141.407	18.024	-104.781	-99.443	-18.474	-70.668	-100.335	-95.976	-95.820	-91.189	3.319	-92.333	-8191	255	
1547.888	1	1	0	0	0.20017	0.10534	0.1011	0.033519	0.20992	0.1487	0.25109	0.19338	0.21367	0.23216	0.30759	0.074714	0.099624	0.22672	0.12242	0.11077	-2.125	-2.9875	-2.6354	-2.9542	-2.7646	-2.7062	-2.7313	-2.7458	-2.575	-2.9188	-2.7229	-2.7938	-2.8979	-2.5	-3.0146	-2.6208	-84.035	-90.384	196.208	-73.843	161.496	-111.547	-76.433	99.010	156.164	-32.009	154.632	23.748	-21.145	109.189	144.671	193.517	0.00052462	0.00082287	0.0002228	332.31	2.8009e-05	1.4144e-05	546.23	96.076	2.4551e-05	1.3432e-05	189.69	70.032	30.108	13.714	1.2889e-05	34.688	0.011374	0.013619	0.0037016	429.07	0.00014651	0.00015004	625.76	129.89	0.00014492	0.00015721	244.31	87.145	45.414	19.36	0.00014601	42.585	11.580	120.849	95.470	-104.180	149.352	-110.484	-104.841	-99.431	36.718	165.295	-100.218	-96.038	-96.110	-91.164	125.176	-91.962	-8191	255	
1547.984	1	1	0	0	0.097283	0.035236	0.033459	0.086752	0.22723	0.23663	0.13316	0.15364	0.084411	0.071064	0.13954	0.30171	0.27041	0.016007	0.34432	0.076524	-2.2062	-2.9604	-2.7167	-2.7667	-2.8688	-2.6021	-2.8667	-2.875	-2.8854	-3.0396	-2.8271	-2.7271	-3.0229	-2.6521	-2.9062	-2.7833	58.914	-1.178	31.846	22.982	-80.041	193.209	103.789	-24.143	-66.035	169.702	15.090	126.157	80.718	133.371	165.276	79.374	0.0009121	0.0016015	0.00020491	331.89	1.6968e-05	1.1749e-05	543.48	94.772	1.1905e-05	3.3081e-06	188.45	69.821	29.732	13.548	1.7585e-06	34.672	0.01125	0.013386	0.0037456	430.47	0.00015162	0.00014852	626.94	129.44	0.00014474	0.00015094	243.59	86.606	44.717	19.069	0.00014758	42.257	46.107	-62.194	24.818	-104.418	114.657	-73.651	-104.811	-99.337	51.097	182.335	-100.284	-96.244	-95.660	-91.129	239.622	-92.280	-8191	255	
1548.080	1	1	0	0	0.13394	0.075145	0.15745	0.085815	0.21507	0.27486	0.41948	0.26811	0.24782	0.13047	0.257	0.14666	0.12553	0.095369	0.095174	0.14588	-2.2562	-2.775	-2.8604	-2.9021	-2.7146	-2.5958	-2.7229	-2.8917	-2.4729	-2.9313	-2.8542	-2.8229	-3.1312	-2.5563	-2.9458	-2.8354	41.760	-30.393	202.831	-115.832	113.912	-37.571	-114.135	-66.842	-69.955	-70.969	208.838	76.182	55.036	42.479	-21.223	216.682	0.00046506	0.00079814	0.00022626	327.47	1.2075e-05	8.8678e-06	542.27	95.299	3.3087e-05	1.353e-06	188.23	69.847	29.939	13.489	9.3449e-06	34.546	0.010789	0.012739	0.0036356	423.29	0.00014106	0.00014121	621.85	128.46	0.00013839	0.00015067	243.86	86.822	44.656	19.11	0.00014799	42.549	62.084	23.827	-9.620	-104.102	-79.592	72.699	-104.643	-99.795	85.051	184.356	-99.794	-96.228	-95.853	-91.007	16.608	-92.398	-8191	255	
1548.199	1	1	0	0	0.16785	0.30321	0.12439	0.085703	0.11613	0.21936	0.035132	0.067411	0.14557	0.24986	0.073932	0.13142	0.053023	0.11602	0.13338	0.20432	-2.0333	-2.8792	-2.6063	-2.8187	-3.0292	-2.6333	-2.6208	-2.8833	-2.6562	-2.7479	-2.6562	-2.7292	-2.7833	-2.4458	-2.8896	-2.7583	140.147	183.945	59.444	24.622	170.935	-4.455	186.334	-83.626	-79.808	-102.550	-97.625	179.465	-63.202	-117.026	-32.564	165.704	0.00041966	0.00030326	0.00020232	331.27	9.152e-06	8.5469e-06	545.53	94.962	2.3889e-05	7.4554e-06	189.31	69.744	29.72	13.445	6.7372e-06	34.413	0.010862	0.013293	0.0038599	428.9	0.00014766	0.00014836	631.27	129.54	0.00014173	0.00015465	247.23	87.202	44.649	19.262	0.00015309	42.947	86.768	-72.613	45.540	-104.183	115.613	-15.763	-104.709	-99.484	-50.019	199.402	-99.999	-95.593	-95.272	-91.238	116.168	-92.007	-8191	255	
1548.295	1	1	0	0	0.20537	0.18159	0.22137	0.28158	0.10883	0.16006	0.33014	0.27371	0.18477	0.24022	0.062295	0.075621	0.037787	0.047011	0.22287	0.074977	-2.3563	-3.1208	-2.6063	-2.5292	-2.8812	-2.7792	-2.8375	-2.7333	-2.75	-2.9104	-2.7896	-2.6437	-2.8063	-2.7125	-2.7188	-2.9562	39.449	-102.888	157.330	-83.929	-41.763	31.351	185.727	-99.366	-88.287	-5.176	174.944	185.217	-91.190	-97.978	75.986	194.138	0.00054073	0.00059922	1.7992e-05	334.7	1.1974e-05	1.0581e-05	543.75	94.976	1.8942e-05	1.3515e-05	188.64	69.385	29.41	13.452	4.0397e-06	34.221	0.010942	0.013694	0.0039721	432.07	0.00014471	0.00015314	633.8	129.38	0.00014063	0.0001618	246.93	86.59	44.49	19.234	0.00015149	42.187	53.713	-82.165	229.066	-104.542	29.461	-41.859	-104.945	-99.229	46.757	21.942	-100.088	-96.235	-95.729	-90.569	137.632	-92.527	-8191	255	
1548.368	1	1	0	0	0.20903	0.2244	0.38159	0.23877	0.046628	0.31881	0.22412	0.095503	0.11583	0.17615	0.40003	0.122	0.23556	0.16767	0.15888	0.2248	-2.175	-3.0542	-2.7271	-2.6813	-2.9167	-2.7417	-2.6354	-2.7792	-2.6792	-2.6312	-2.8167	-2.675	-2.8312	-2.6437	-2.5667	-3.2062	-109.444	81.989	0.871	141.212	24.248	-4.341	201.617	130.137	180.158	76.692	-114.597	174.502	-111.694	130.301	-1.813	-50.132	0.0011634	0.0014517	0.00021577	331.08	2.7249e-05	1.2474e-05	540.28	93.888	1.8111e-05	1.5124e-06	187.6	68.424	29.618	13.165	3.0442e-05	33.805	0.010752	0.013877	0.0038942	426.29	0.00014629	0.00015276	629.59	127.49	0.00014088	0.00015749	245.93	85.538	44.446	19.136	0.00015123	42.031	55.815	58.706	-69.361	-103.955	180.505	-113.534	-104.783	-99.696	-61.065	-79.568	-100.328	-95.919	-95.609	-91.190	60.443	-92.012	-8191	255	
1548.487	1	1	0	0	0.21261	0.042207	0.0975	0.30448	0.30667	0.13774	0.087669	0.17911	0.21416	0.28043	0.1396	0.10727	0.24579	0.24848	0.098224	0.1232	-2.2917	-2.7875	-2.8812	-2.8833	-2.9333	-2.8625	-2.6312	-2.9979	-2.3292	-2.9437	-2.9479	-2.5042	-2.8708	-2.7562	-2.5521	-3.0812	34.363	185.234	180.948	183.727	237.212	182.876	-51.737	13.036	-82.229	173.150	143.862	180.792	205.761	182.898	124.076	6.000	0.00050129	0.0022797	7.5473e-05	329.29	2.1521e-05	7.1029e-06	543.94	95.431	2.3011e-05	1.8067e-05	186.98	68.408	29.19	13.169	1.2437e-05	33.747	0.010845	0.014179	0.0039134	423.86	0.00014707	0.00015719	630.01	127.61	0.00014494	0.00016077	248.51	85.374	44.9	19.27	0.00015235	41.869	36.010	67.528	-19.295	-104.446	236.253	66.623	-104.871	-99.266	-25.659	-27.623	-100.772	-95.695	-95.499	-91.410	41.373	-92.328	-8191	255	
1548.583	1	1	0	0	0.072369	0.32377	0.1659	0.3714	0.10082	0.17358	0.0088715	0.19372	0.23623	0.1763	0.23307	0.11448	0.16066	0.10358	0.044334	0.078493	-2.1771	-2.7271	-2.9313	-2.3875	-2.9229	-2.7875	-2.5479	-2.8563	-2.6667	-2.7896	-3.0979	-2.6104	-2.7958	-2.8312	-2.7604	-3.1458	101.684	26.080	146.726	181.508	-20.755	106.330	185.298	167.328	220.995	155.085	133.916	-63.123	151.429	189.937	-116.026	-106.917	0.00084064	0.0013804	0.0002646	331.4	3.7312e-06	5.814e-06	544.47	93.4	1.85e-05	2.4264e-05	186.82	68.379	29.32	13.181	1.6334e-05	34.01	0.011363	0.014566	0.00394	427.32	0.00015619	0.00015987	632.34	128.24	0.00014861	0.00016259	246.92	85.777	45.45	19.301	0.00015087	42.236	97.786	-95.662	201.366	-104.267	240.272	-99.718	-104.873	-99.617	62.552	38.405	-100.305	-95.974	-96.053	-91.352	36.661	-92.079	-8191	255	
1548.680	1	1	0	0	0.038989	0.15941	0.25292	0.10967	0.11089	0.13944	0.13629	0.12463	0.11143	0.076201	0.1383	0.10255	0.26327	0.14753	0.12246	0.10357	-2.3146	-2.8458	-2.8187	-2.5521	-2.8396	-2.8563	-2.4229	-3.0396	-2.5833	-2.7896	-2.8979	-2.4896	-2.8646	-2.8396	-2.5563	-3.0604	35.497	-93.298	59.486	180.763	56.557	71.875	101.576	208.976	-22.925	-94.018	54.764	-103.287	4.761	-25.064	-51.378	98.840	0.001015	0.0012919	6.9848e-05	332.32	9.9651e-06	5.8169e-06	546.4	93.615	3.0318e-05	2.3323e-05	187.22	68.421	29.635	13.223	8.4195e-06	33.821	0.011585	0.014546	0.003856	427.31	0.00015196	0.0001588	628.65	127.85	0.00014789	0.00015894	246.14	85.605	45.353	19.129	0.00014532	42.012	79.488	-36.951	-27.809	-104.810	-74.538	-61.256	-105.090	-99.597	56.920	43.783	-100.628	-96.201	-95.222	-90.929	178.911	-92.389	-8191	255	
1548.800	1	1	0	0	0.096333	0.040165	0.25578	0.13799	0.071606	0.09945	0.10824	0.21278	0.24518	0.14079	0.11202	0.18046	0.065062	0.076862	0.19637	0.18462	-2.3688	-2.6646	-2.8438	-2.5417	-2.8708	-2.8417	-2.8458	-2.8167	-2.7271	-2.7188	-2.8958	-2.6771	-2.7021	-2.9354	-2.4688	-2.9104	-16.928	94.787	240.533	-81.030	50.549	-65.552	228.347	184.889	176.119	206.932	128.543	-59.193	91.487	100.649	87.880	242.567	0.000491	0.0010996	0.00021633	328.85	7.3661e-06	2.2023e-05	540.83	94.555	1.6799e-05	1.3889e-05	187.53	68.086	29.304	13.22	1.2737e-05	33.616	0.011338	0.014003	0.0037316	424.16	0.00014768	0.00015832	622.75	128.02	0.00014555	0.00015369	243.15	85.567	44.938	18.908	0.00014351	42.066	93.462	1.358	186.602	-104.377	76.478	183.333	-104.733	-99.339	202.710	38.685	-99.975	-96.325	-95.837	-91.405	165.784	-92.153	-8191	255	
1548.896	1	1	0	0	0.088137	0.28865	0.2191	0.1893	0.033465	0.075261	0.40884	0.02685	0.037867	0.18994	0.16584	0.33806	0.11743	0.25923	0.1928	0.18832	-2.3812	-2.6	-3.0458	-2.6375	-2.7896	-3.0396	-2.8583	-2.875	-2.9417	-2.4729	-2.9208	-2.6375	-2.6521	-3.0333	-2.5417	-2.8208	1.830	69.900	-30.676	57.508	201.951	120.217	211.432	35.014	-42.574	1.333	109.218	218.636	159.946	-89.369	179.405	173.589	0.00032643	0.00052498	0.00024419	326.74	2.3778e-05	1.4609e-05	539.81	94.157	1.3949e-06	1.1369e-05	187.15	68.84	29.149	13.368	1.1449e-05	33.918	0.011163	0.013608	0.0037381	425.38	0.00014667	0.00015242	623.31	128.92	0.00014534	0.00015161	246.32	86.192	45.116	18.921	0.00014559	42.231	87.034	-33.087	90.496	-104.468	80.141	103.147	-104.786	-99.577	-87.279	-16.323	-100.029	-95.940	-94.973	-91.597	44.675	-92.349	-8191	255	
1548.968	1	1	0	0	0.29839	0.22303	0.069955	0.20065	0.17243	0.08974	0.13736	0.082806	0.19291	0.20623	0.23337	0.18732	0.21146	0.19653	0.19971	0.2783	-2.5042	-2.675	-2.8479	-2.6667	-2.4521	-2.7812	-2.5271	-2.9	-2.7896	-2.7479	-2.9062	-2.8792	-2.6312	-3.1437	-2.7125	-2.6708	167.854	156.406	-107.499	176.939	-41.899	170.595	203.715	-117.033	-71.775	189.765	-85.918	214.825	-69.814	-59.247	-88.330	127.135	0.00076584	0.0011956	8.9523e-05	327.67	2.7855e-05	2.1002e-05	541.36	94.352	1.5947e-05	7.1042e-06	187.83	69.366	29.722	13.439	1.3647e-05	34.325	0.011265	0.01351	0.0037961	425.52	0.00014506	0.00015256	625.05	128.59	0.00014148	0.00014764	246.25	86.45	44.856	19.045	0.00014831	42.458	55.151	-1.275	79.460	-104.274	28.736	-102.944	-104.969	-99.884	17.085	38.735	-100.313	-96.183	-95.979	-91.198	-55.983	-92.369	-8191	255	
1549.089	1	1	0	0	0.076824	0.18804	0.1706	0.22903	0.054241	0.33439	0.098887	0.14225	0.048629	0.053688	0.13043	0.10115	0.071663	0.051755	0.33768	0.11839	-2.4875	-2.5479	-2.8271	-2.8167	-2.6667	-2.8812	-2.7104	-2.7812	-3.0729	-2.4271	-2.8854	-2.8375	-2.5021	-3.0521	-2.6771	-3.0208	162.276	184.982	96.254	53.118	21.855	27.950	165.618	47.704	133.919	192.935	216.414	197.679	222.332	-78.937	40.943	195.736	0.00016341	0.00075997	0.00010809	331.09	5.5785e-06	7.3288e-06	545.54	94.84	2.0156e-05	5.3092e-06	188.69	69.291	29.638	13.503	1.991e-05	34.374	0.01143	0.013548	0.0039218	429.06	0.00014423	0.00015382	632.7	130.69	0.00014406	0.00015467	251.68	87.142	45.181	19.302	0.00015464	42.775	101.316	186.429	-40.977	-105.007	193.011	179.861	-104.898	-99.488	-44.171	-35.072	-100.124	-96.330	-95.660	-91.056	97.533	-92.133	-8191	255	
1549.183	1	1	0	0	0.1256	0.16448	0.16599	0.17398	0.28475	0.14579	0.12479	0.20064	0.18158	0.14329	0.2969	0.029208	0.12255	0.1005	0.1881	0.25004	-2.6146	-2.5833	-2.8	-2.9938	-2.6688	-2.8771	-2.7812	-2.6937	-3.0687	-2.8146	-2.7292	-2.8979	-2.675	-3.0187	-2.7917	-2.6125	-76.667	185.632	88.080	140.112	16.790	75.592	82.772	150.891	-103.285	-83.789	208.460	21.868	-39.149	-33.441	126.913	-104.662	0.0004757	0.00091046	0.00020222	329.55	2.6556e-05	2.377e-05	543.17	94.498	1.6901e-05	9.1662e-06	188.74	69.344	29.656	13.396	7.0513e-06	34.481	0.011283	0.013939	0.0040268	429.81	0.00014253	0.00015926	630.87	129.39	0.00013805	0.00015248	246.71	86.438	44.371	19.143	0.00014786	42.139	156.639	242.589	-70.495	-104.373	-0.170	179.124	-104.969	-99.388	-67.795	128.893	-99.971	-96.061	-95.801	-91.578	-33.658	-92.057	-8191	255	
1549.279	1	1	0	0	0.29689	0.13891	0.15522	0.24768	0.12051	0.17048	0.046654	0.16933	0.16028	0.17016	0.12747	0.066023	0.14918	0.32106	0.15919	0.18333	-2.3667	-2.6	-2.8667	-2.825	-2.6813	-2.75	-2.8	-2.5729	-2.8771	-2.6896	-2.7229	-2.8354	-2.5312	-2.7729	-2.7646	-2.3646	238.230	36.467	4.293	199.757	83.764	177.297	171.741	142.528	-29.340	186.107	122.457	86.123	-107.138	123.969	132.295	-90.981	0.00025695	0.0006087	0.0002553	328.72	1.6721e-05	1.2193e-05	539.78	95.191	2.1643e-05	2.1854e-05	188.83	69.925	29.678	13.425	9.7054e-06	34.637	0.011141	0.01367	0.0038823	420.87	0.00013854	0.00015498	625.78	128.19	0.00013679	0.00015368	246.08	86.633	44.486	19.326	0.00014689	42.137	11.223	72.454	11.123	-104.212	236.397	185.466	-104.810	-99.478	157.766	56.528	-99.929	-96.166	-95.954	-91.460	70.425	-92.366	-8191	255	
1549.375	1	1	0	0	0.27727	0.075528	0.20639	0.11794	0.090566	0.33906	0.11287	0.22056	0.080685	0.32866	0.34452	0.085993	0.22543	0.11784	0.070208	0.05107	-2.5042	-2.7104	-2.7417	-2.8625	-2.6125	-2.7458	-2.6771	-2.5938	-2.9313	-3.0646	-2.5729	-3.0646	-2.6063	-2.8792	-2.9417	-2.5646	71.338	99.896	79.039	79.094	-74.807	103.588	119.609	-68.707	-62.774	130.658	-77.220	92.822	33.011	-91.498	-40.921	196.699	0.00033105	0.00080021	0.00019982	330	8.5245e-06	5.5663e-06	540.34	94.403	2.8019e-05	2.5654e-06	188.29	69.581	29.739	13.642	4.6998e-06	34.594	0.011012	0.01392	0.0038902	422.57	0.00013985	0.00016085	627.54	128.11	0.00014018	0.00015573	246.45	86.446	45.062	19.541	0.00014614	42.23	-67.581	143.005	-82.975	-104.504	92.162	-21.536	-104.700	-99.853	209.880	118.992	-100.170	-96.065	-95.795	-90.956	13.351	-92.486	-8191	255	
1549.496	1	1	0	0	0.2352	0.10562	0.13574	0.082479	0.1521	0.15722	0.076281	0.27446	0.16446	0.14478	0.17764	0.15093	0.13505	0.26428	0.30456	0.1966	-2.6063	-2.6167	-2.5667	-2.9396	-2.6875	-2.7104	-2.8333	-2.5625	-2.8292	-2.8354	-2.6312	-3.0354	-2.5104	-2.7208	-2.8271	-2.6146	-91.810	-40.156	72.572	120.737	-17.377	-71.226	137.835	199.306	-101.376	111.709	-25.445	194.650	178.886	162.361	-17.085	113.061	0.00039754	0.00055534	0.0001663	329.75	1.5463e-05	9.5872e-06	543.05	94.845	1.8916e-05	2.0947e-05	190.19	69.728	29.8	13.576	1.1058e-05	34.724	0.011498	0.013844	0.0038356	421.75	0.0001429	0.00015455	626.04	128.08	0.00014265	0.00015301	245.82	86.88	45.322	19.454	0.00014273	42.236	-1.095	-25.031	77.700	-104.736	189.539	-56.744	-104.820	-100.186	160.321	-6.319	-100.273	-95.994	-95.752	-91.183	52.945	-92.636	-8191	255	
1549.568	1	1	0	0	0.19641	0.088835	0.20653	0.11316	0.19494	0.13931	0.048191	0.060911	0.14472	0.25036	0.13674	0.037227	0.18065	0.089696	0.07826	0.10688	-2.675	-2.7104	-2.5542	-2.7	-2.7167	-2.6833	-3.1208	-2.5292	-2.9417	-2.7771	-2.4583	-2.775	-2.5646	-2.5896	-3.0333	-2.6	89.308	49.918	24.797	73.506	116.783	125.531	49.854	-72.488	147.380	-37.737	-79.841	218.979	-87.074	-43.938	-115.857	51.691	0.000734	0.001158	0.00040953	331.35	6.2136e-06	9.3658e-06	542.96	94.624	1.1838e-05	1.7052e-05	187.62	69.142	29.768	13.46	1.7292e-05	34.207	0.011323	0.013793	0.0037336	421.48	0.00014349	0.00015271	626.76	127.66	0.00014466	0.00015234	243.21	86.182	45.211	19.331	0.00014108	42.084	22.361	-83.508	-21.789	-104.466	9.381	30.996	-104.766	-99.222	197.122	-20.999	-99.955	-96.470	-95.224	-91.196	20.411	-92.240	-8191	255	
1549.664	1	1	0	0	0.098419	0.030281	0.18952	0.020507	0.26669	0.17457	0.045109	0.038063	0.1115	0.30295	0.13731	0.16477	0.24618	0.25163	0.28105	0.082741	-2.4458	-2.7875	-2.6958	-2.9479	-2.7687	-2.725	-2.9229	-2.5896	-2.6917	-2.8354	-2.5229	-2.9	-3.0417	-2.625	-3.1063	-2.55	213.002	6.534	43.278	223.843	66.781	175.713	177.394	121.562	-46.860	120.478	-9.545	-70.001	52.002	-26.644	-91.283	-101.908	7.1071e-05	0.0002598	0.00012011	331.14	1.4814e-05	8.9254e-06	543.1	94.234	5.1572e-06	1.6648e-05	188.91	68.93	29.702	13.458	5.489e-06	34.185	0.011705	0.013899	0.0037717	425.33	0.00014794	0.00015418	625.57	129.01	0.00014864	0.0001529	243.92	87.169	45.305	19.273	0.0001433	42.299	38.391	-64.474	78.356	-104.420	228.876	-13.937	-104.754	-99.594	28.317	78.161	-100.066	-96.632	-95.630	-91.248	-83.433	-92.560	-8191	255	
1549.760	1	1	0	0	0.1934	0.099528	0.19739	0.27746	0.12437	0.14381	0.30496	0.056187	0.19075	0.24005	0.31598	0.33983	0.15632	0.054528	0.21149	0.25339	-2.6083	-2.6771	-2.625	-2.9021	-2.8729	-2.6146	-3.0229	-2.3958	-2.7583	-2.8042	-2.5833	-2.9833	-2.8021	-2.6208	-2.9313	-2.7896	-6.655	208.176	-89.636	-75.324	-16.915	177.349	198.685	-39.707	-91.037	-44.933	-76.749	-61.270	227.496	-42.122	91.769	107.857	0.00049426	0.00059468	0.00015695	333.44	3.87e-06	9.0233e-06	541.35	94.668	2.2648e-05	1.9596e-05	187.5	69.411	30.026	13.466	4.9387e-06	34.366	0.011383	0.013794	0.0037914	427.95	0.00014526	0.00015087	628.25	129.65	0.00014683	0.00014972	245.16	87.546	45.364	19.278	0.0001473	42.544	56.922	232.871	182.187	-104.575	-29.876	57.665	-104.951	-99.739	-75.075	17.620	-99.879	-96.091	-95.568	-91.511	70.241	-92.394	-8191	255	
1549.881	1	1	0	0	0.047402	0.08196	0.21994	0.12302	0.26995	0.14515	0.15284	0.15758	0.18732	0.1195	0.098428	0.048243	0.19061	0.046867	0.10772	0.062613	-2.4604	-2.7896	-2.4625	-2.9417	-2.9896	-2.7313	-2.9938	-2.6854	-2.7417	-2.9667	-2.725	-3.025	-2.6937	-2.8042	-3.0646	-2.7667	112.598	233.609	200.057	-109.126	-46.196	94.096	223.100	-84.989	61.932	-111.631	94.040	127.809	229.265	-1.380	107.875	-4.276	0.00069978	0.0020331	0.00014901	331.48	2.8497e-05	1.8584e-05	545.69	96.117	5.5197e-06	1.6658e-05	188.65	69.595	29.977	13.536	1.6356e-05	34.44	0.011584	0.014361	0.0039469	434.33	0.00014921	0.00015317	635.88	131.26	0.00014912	0.00015239	247.21	87.839	45.433	19.379	0.00015181	42.715	76.031	13.454	196.484	-104.708	-9.986	30.591	-105.028	-98.981	3.643	-109.468	-100.159	-95.810	-95.896	-91.076	71.273	-92.443	-8191	255	
1549.977	1	1	0	0	0.085866	0.26834	0.29068	0.17158	0.030223	0.28286	0.15272	0.18398	0.10656	0.25197	0.078034	0.17317	0.21391	0.16825	0.16411	0.053415	-2.1146	-2.9292	-2.7771	-2.6167	-2.9396	-2.4271	-3.0521	-2.7062	-2.8812	-2.8875	-2.6917	-2.8375	-2.8917	-2.5812	-2.9792	-2.8208	172.180	158.264	23.855	134.842	96.638	184.898	150.676	215.918	182.331	-70.872	46.924	199.928	229.742	74.489	217.157	-78.044	0.00019257	0.0014333	0.00025097	333.73	9.0844e-06	2.5432e-06	547.8	95.155	2.2527e-05	1.483e-05	188.13	69.725	29.661	13.498	1.1348e-05	34.064	0.011263	0.013988	0.0039705	432.64	0.00014404	0.00015245	639.63	130.43	0.00014523	0.0001524	248.2	87.292	45.373	19.366	0.00015444	42.368	58.946	-6.989	231.752	-104.382	73.325	90.875	-104.614	-99.919	-7.385	-27.944	-100.118	-95.924	-96.010	-91.498	145.317	-92.585	-8191	255	
1550.073	1	1	0	0	0.10718	0.27257	0.070885	0.05293	0.088878	0.096835	0.15315	0.1422	0.056371	0.1212	0.28054	0.14672	0.066378	0.10641	0.19725	0.26689	-2.0875	-3.1437	-2.5938	-2.9729	-2.7354	-2.6792	-3.0625	-2.7875	-2.6396	-2.9333	-2.9458	-2.5271	-3.0271	-2.4833	-2.9292	-2.7646	176.753	131.005	-73.426	111.504	137.361	112.674	113.010	189.524	128.599	195.322	-2.253	-96.925	-62.493	158.898	-58.313	56.878	0.00041022	0.0013361	0.00045353	332.69	2.0079e-05	6.6041e-06	549.11	95.381	1.4861e-05	7.8409e-06	187.88	69.4	30.062	13.461	5.8691e-06	34.143	0.011161	0.014529	0.0040446	432.43	0.00014234	0.00015517	638.62	130.23	0.00014395	0.000156	248.44	86.854	45.725	19.473	0.00015473	42.354	72.081	79.071	11.919	-104.694	73.180	173.498	-104.636	-99.141	24.581	69.694	-100.297	-96.178	-95.871	-91.127	-4.492	-91.847	-8191	255	
1550.169	1	1	0	0	0.30902	0.16474	0.16527	0.086981	0.27604	0.13106	0.18369	0.052386	0.16205	0.17005	0.10788	0.12582	0.24712	0.10022	0.11386	0.37159	-2.0021	-2.9188	-2.7313	-2.4292	-2.8396	-2.5104	-2.8	-2.8354	-2.7146	-2.8021	-2.75	-2.5917	-2.8375	-2.6021	-2.7208	-2.8958	241.053	-89.163	-12.386	46.858	-67.170	177.152	114.550	-37.905	216.926	-69.798	-81.367	114.650	164.784	152.171	174.108	-63.966	0.00056003	0.0012663	0.00029042	335.83	2.1691e-05	6.7829e-06	543.89	94.992	2.06e-05	1.3082e-05	188.82	69.791	30.015	13.637	7.8497e-06	34.648	0.011081	0.014545	0.0040062	431.04	0.00014194	0.00015652	635.66	129.46	0.00014299	0.00015799	247.61	86.932	45.554	19.667	0.00015398	42.467	29.739	51.943	231.390	-104.566	50.241	20.756	-104.589	-99.140	-14.014	238.063	-100.206	-96.325	-95.551	-90.981	116.511	-92.174	-8191	255	
1550.263	1	1	0	0	0.25181	0.11876	0.1694	0.095425	0.050857	0.16762	0.063692	0.02457	0.083328	0.21983	0.177	0.26657	0.34629	0.31967	0.23647	0.20739	-1.9854	-2.8458	-2.7438	-2.6708	-2.8688	-2.7604	-2.8812	-2.8208	-2.6813	-2.6646	-3.0458	-2.5563	-2.8354	-2.55	-2.7333	-2.9479	58.158	95.207	-4.351	139.363	208.746	208.376	220.055	-70.838	-96.023	232.065	61.388	-59.893	93.042	186.159	-34.254	214.626	0.0011039	0.0025245	7.2537e-05	334.75	2.4411e-05	9.8541e-06	545.66	95.551	3.1643e-05	1.1738e-05	189.24	69.596	30.083	13.653	2.03e-05	34.661	0.011154	0.014968	0.0039756	429.43	0.00014339	0.00015752	634.46	129.98	0.00014373	0.00015753	246.89	86.364	46.101	19.642	0.00014861	42.265	88.171	122.326	20.131	-104.211	185.010	146.991	-104.601	-99.472	-66.334	-90.392	-100.050	-95.860	-96.167	-90.952	-102.883	-92.370	-8191	255	
1550.360	1	1	0	0	0.24301	0.19475	0.042549	0.064763	0.12314	0.22776	0.088622	0.25219	0.10275	0.14512	0.081141	0.059723	0.053619	0.1853	0.15967	0.16248	-2.0812	-2.9104	-2.4583	-2.7062	-2.7854	-2.7083	-2.8146	-2.8625	-2.6208	-2.825	-2.8417	-2.5625	-2.9688	-2.5792	-2.8333	-2.9313	4.937	238.333	-16.995	-97.147	241.403	140.435	227.039	217.567	81.514	109.009	-2.395	236.779	-93.187	-7.627	179.805	-115.307	0.00054476	0.00072146	0.00027626	334.58	7.0686e-06	4.9867e-06	547.78	95.425	1.2576e-05	7.9408e-06	187.98	69.713	30.172	13.76	1.2522e-05	34.347	0.011117	0.014532	0.0038125	426.64	0.00014373	0.00015563	632.38	130.75	0.00014627	0.00015886	245.95	86.622	46.149	19.603	0.00014979	42.218	64.159	100.089	62.907	-104.635	-78.672	72.475	-104.797	-99.907	-23.819	100.343	-100.176	-96.058	-95.083	-91.361	71.835	-92.725	-8191	255	
1550.480	1	1	0	0	0.31933	0.13364	0.11512	0.12807	0.22111	0.18977	0.084641	0.34911	0.34268	0.43967	0.068293	0.1848	0.14062	0.057549	0.051693	0.094453	-2.1417	-2.8167	-2.8354	-2.5833	-2.9583	-2.8292	-2.7438	-2.9083	-2.6583	-2.7979	-3.0208	-2.6521	-2.8354	-2.8458	-2.5667	-3.075	170.007	178.710	-56.737	100.573	89.972	31.376	-72.617	234.436	-13.669	5.913	-16.867	-31.352	168.504	138.884	-63.254	183.600	0.00071209	0.0019678	0.00019564	334.41	3.4341e-06	5.8464e-06	540.59	95.883	1.1522e-06	8.3313e-06	188.46	69.533	30.03	13.532	1.9669e-05	34.284	0.011582	0.014856	0.0038987	430.93	0.00014947	0.0001582	632.12	130.53	0.00015027	0.00015908	245.07	86.601	46.757	19.488	0.00014751	42.345	51.585	-26.060	96.246	-104.356	158.534	146.362	-104.954	-99.736	42.750	-38.799	-100.046	-96.192	-95.423	-91.239	75.636	-92.062	-8191	255	
1550.576	1	1	0	0	0.15271	0.18039	0.27278	0.13364	0.13944	0.27527	0.25889	0.13222	0.13629	0.19807	0.19624	0.11655	0.16214	0.15146	0.27466	0.033509	-2.1396	-2.7708	-2.8563	-2.6083	-3.0521	-2.6854	-2.7	-2.8542	-2.7542	-2.5792	-2.85	-2.6771	-2.7646	-2.7771	-2.6646	-3.1458	115.952	19.592	173.689	90.830	41.467	-33.544	219.127	-68.959	5.400	157.836	169.042	-115.591	-108.261	-49.627	155.431	186.137	0.0011865	0.00047185	0.0005568	337.44	1.4418e-05	1.2751e-05	543.49	95.59	2.0321e-05	1.5733e-06	189.24	69.672	30.226	13.645	6.0893e-06	34.565	0.01152	0.014212	0.0038773	432.7	0.00015005	0.00015417	629.02	131.73	0.00014973	0.00015627	245.41	87.129	46.521	19.485	0.00014735	42.71	74.097	44.810	128.295	-104.379	63.315	119.861	-104.583	-99.681	99.646	-6.747	-100.167	-96.128	-95.738	-91.519	-69.915	-92.284	-8191	255	
1550.673	1	1	0	0	0.084059	0.23986	0.16246	0.17713	0.12755	0.1274	0.12245	0.12203	0.29302	0.13672	0.097301	0.23436	0.11131	0.30132	0.078882	0.13619	-2.2042	-2.7229	-2.9042	-2.5875	-2.8458	-3.0667	-2.5875	-2.9562	-2.725	-2.7438	-2.9625	-2.5125	-2.75	-2.9042	-2.4667	-2.9667	19.410	-111.452	158.381	-10.182	23.609	-107.222	133.903	217.105	-48.930	96.374	238.444	197.779	37.153	26.926	-66.621	159.888	0.00091518	0.0020401	0.00015691	335.01	2.6662e-05	1.3234e-05	543.8	96.419	1.0419e-05	1.9362e-05	189.59	69.874	30.093	13.525	6.4726e-06	34.763	0.011464	0.013984	0.0040023	434.37	0.00014863	0.0001507	631.56	132.36	0.00014705	0.00015282	245.63	87.528	46.173	19.371	0.00014667	42.835	64.216	-44.506	126.839	-104.456	-19.162	58.962	-104.816	-99.725	141.620	70.568	-99.787	-96.181	-95.318	-91.524	194.039	-92.133	-8191	255	
1550.769	1	1	0	0	0.046528	0.088072	0.21281	0.4678	0.062257	0.14436	0.028207	0.27514	0.21144	0.1534	0.16115	0.32063	0.05203	0.31804	0.30412	0.16253	-2.125	-2.7562	-2.8063	-2.6375	-2.8354	-2.925	-2.5167	-2.8833	-2.6896	-2.7125	-2.9104	-2.6542	-2.6833	-2.85	-2.4646	-3.0125	-24.146	241.257	191.143	-110.703	-113.782	45.688	10.712	178.139	30.131	118.074	-48.216	222.631	171.696	-19.033	-51.641	231.604	0.00044252	0.0013269	0.00017809	333.17	6.9985e-06	1.1977e-05	546.87	96.224	3.0094e-05	9.8578e-06	189.05	69.452	29.904	13.611	7.5924e-06	34.284	0.011217	0.013601	0.0039279	432.5	0.00014715	0.00014885	633.83	133.05	0.00014542	0.00015227	247.47	87.385	45.678	19.433	0.00015072	42.627	102.798	-6.220	107.936	-104.283	151.579	55.073	-104.585	-99.476	55.646	241.028	-100.141	-96.093	-95.818	-91.426	182.426	-92.231	-8191	255	
1550.865	1	1	0	0	0.25278	0.063804	0.10585	0.077956	0.033478	0.20419	0.19107	0.035612	0.20291	0.10413	0.081849	0.15072	0.10941	0.13654	0.17935	0.05951	-2.3021	-2.6792	-2.9542	-2.6708	-2.8167	-2.8688	-2.6354	-2.8771	-2.6354	-2.6688	-2.9917	-2.8854	-2.5875	-3.0604	-2.5875	-2.9562	57.593	212.377	74.600	-26.070	39.010	-93.296	-102.780	-109.920	133.540	-85.743	-113.704	182.509	238.977	106.726	193.190	128.645	0.00079784	0.0012498	0.00043814	335.24	1.899e-05	1.2636e-05	545.04	95.276	1.0329e-05	8.8465e-06	189.11	69.355	30.114	13.643	1.2581e-05	34.59	0.011131	0.013645	0.0041126	433.32	0.00014407	0.00014792	631.9	131.57	0.00014024	0.00015121	246.31	86.685	45.011	19.496	0.00014938	42.558	85.522	78.454	155.025	-104.229	-29.700	139.349	-105.059	-99.534	37.801	-86.190	-99.938	-96.073	-95.610	-91.010	179.762	-92.127	-8191	255	
1550.961	1	1	0	0	0.28787	0.39204	0.20691	0.14487	0.14901	0.16095	0.25232	0.12688	0.16603	0.20105	0.087457	0.1841	0.19844	0.19574	0.15514	0.28775	-2.1875	-2.65	-2.9688	-2.8604	-2.9333	-2.9813	-2.4833	-2.9708	-2.7875	-2.7083	-2.8833	-2.8917	-2.6625	-2.875	-2.4125	-2.9688	38.208	66.296	-52.823	-8.247	199.376	164.368	198.651	192.581	-110.696	-24.418	195.095	165.679	-116.109	-99.188	66.187	213.704	0.00049297	0.00046484	0.00052003	330.55	8.4729e-06	4.063e-06	541.55	95.824	3.8697e-05	3.9164e-06	189.02	69.995	30.223	13.604	1.2106e-05	34.364	0.010703	0.013557	0.0040124	428.26	0.00014	0.00014871	630.91	130.95	0.00014043	0.00015291	247.41	86.727	45.194	19.554	0.000152	42.452	70.235	50.950	120.979	-104.559	54.130	190.436	-104.777	-99.637	154.806	32.848	-99.899	-95.740	-95.806	-90.920	70.808	-92.653	-8191	255	
1551.057	1	1	0	0	0.058893	0.49703	0.025045	0.10174	0.23911	0.044543	0.11467	0.17428	0.20804	0.09573	0.18503	0.19556	0.17633	0.12129	0.07571	0.2339	-2.45	-2.6521	-3.0417	-2.6688	-2.6312	-3.3229	-2.8667	-2.7438	-3.1042	-2.4917	-2.8271	-2.7271	-2.7771	-2.7938	-2.7104	-2.7875	16.081	165.120	-68.311	231.823	-63.764	-111.792	223.494	214.081	99.784	63.543	159.214	195.322	107.333	-55.903	87.944	216.264	0.00055058	0.00040366	0.00020219	335.32	4.4424e-06	4.9506e-06	541.67	94.844	1.8865e-05	5.2059e-06	188.24	69.858	29.565	13.508	1.3014e-05	34.453	0.010691	0.014067	0.0041349	428.9	0.00014192	0.00015332	631.59	129.69	0.00014299	0.00015585	247.13	86.084	44.928	19.785	0.00015041	42.135	59.242	156.190	145.470	-104.378	21.049	209.893	-105.126	-99.639	86.414	11.158	-100.448	-96.065	-95.206	-91.263	8.481	-92.397	-8191	255	
1551.176	1	1	0	0	0.13297	0.059061	0.12707	0.13419	0.14213	0.039919	0.23207	0.23009	0.1138	0.13544	0.098992	0.33515	0.12181	0.19967	0.10723	0.28437	-2.5208	-2.6021	-2.9833	-2.8146	-2.6333	-3.0896	-2.5812	-2.7875	-2.8521	-2.7396	-2.8479	-2.8854	-2.5854	-3.075	-2.8875	-2.7729	87.862	-3.447	173.748	-107.196	210.172	78.762	226.117	179.091	241.689	-103.139	178.875	89.746	-89.352	-45.128	-58.677	110.085	0.00043143	0.00042985	0.00012728	332.43	1.208e-05	2.4228e-05	543.85	94.566	4.3169e-05	1.4113e-05	188.68	69.663	29.685	13.285	3.8045e-06	33.851	0.010787	0.014138	0.0040193	425.17	0.00014229	0.00015553	630.97	128.56	0.0001481	0.00015846	246.82	85.901	45.151	19.6	0.00014951	41.85	16.119	1.507	167.601	-104.475	-7.041	183.049	-104.940	-99.290	-37.261	18.332	-100.190	-96.150	-95.153	-91.318	189.177	-92.355	-8191	255	
#DATA ENDS
