BOXY.EXE: ISS Imagent and Oximeter Data Acquisition Program Version 0.80
Ascii Record File

#ACQ INFORMATION
2  Detector Channels 
16  External MUX Channels 
1  Auxiliary Channels 
5000  Waveform (CCF) Frequency (Hz)
1  Waveforms Skipped 
30  Waveforms Averaged 
1  Cycles Averaged 
16  Acquisitions per Waveform 
10.0806  Updata Rate (Hz) 

#FILE INFORMATION
TRUE -- External MUX Channel results are PARSED.
FALSE -- AC DC and Phase are NOT grouped.
TRUE -- Companion Program Settings File CREATED.
FALSE -- AC data not excluded
FALSE -- DC data not excluded
FALSE -- Phase data not excluded
FALSE -- Auxillary Chn. data not excluded
Tab delimiters

#CALIBRATION STATE
TRUE -- Waveform Calibration Values APPLIED.


#AUX CALIBRATION VALUES
Val Type	aux-1	

Term	1.0000e+00	
Factor	0.0000e+00	


#WF CALIBRATION VALUES
A = Detector Channel
Val Type	A-AC1	A-AC2	A-AC3	A-AC4	A-AC5	A-AC6	A-AC7	A-AC8	A-AC9	A-AC10	A-AC11	A-AC12	A-AC13	A-AC14	A-AC15	A-AC16	A-DC1	A-DC2	A-DC3	A-DC4	A-DC5	A-DC6	A-DC7	A-DC8	A-DC9	A-DC10	A-DC11	A-DC12	A-DC13	A-DC14	A-DC15	A-DC16	A-Ph1	A-Ph2	A-Ph3	A-Ph4	A-Ph5	A-Ph6	A-Ph7	A-Ph8	A-Ph9	A-Ph10	A-Ph11	A-Ph12	A-Ph13	A-Ph14	A-Ph15	A-Ph16	

Term	0.00000e+00	0.00000e+00	0.00000e+00	0.00000e+00	0.00000e+00	0.00000e+00	0.00000e+00	0.00000e+00	0.00000e+00	0.00000e+00	0.00000e+00	0.00000e+00	0.00000e+00	0.00000e+00	0.00000e+00	0.00000e+00	0.00000e+00	0.00000e+00	0.00000e+00	0.00000e+00	0.00000e+00	0.00000e+00	0.00000e+00	0.00000e+00	0.00000e+00	0.00000e+00	0.00000e+00	0.00000e+00	0.00000e+00	0.00000e+00	0.00000e+00	0.00000e+00	0.00000e+00	0.00000e+00	0.00000e+00	0.00000e+00	0.00000e+00	0.00000e+00	0.00000e+00	0.00000e+00	0.00000e+00	0.00000e+00	0.00000e+00	0.00000e+00	0.00000e+00	0.00000e+00	0.00000e+00	0.00000e+00	
Factor	1.00000e+00	1.00000e+00	1.00000e+00	1.00000e+00	1.00000e+00	1.00000e+00	1.00000e+00	1.00000e+00	1.00000e+00	1.00000e+00	1.00000e+00	1.00000e+00	1.00000e+00	1.00000e+00	1.00000e+00	1.00000e+00	1.00000e+00	1.00000e+00	1.00000e+00	1.00000e+00	1.00000e+00	1.00000e+00	1.00000e+00	1.00000e+00	1.00000e+00	1.00000e+00	1.00000e+00	1.00000e+00	1.00000e+00	1.00000e+00	1.00000e+00	1.00000e+00	X	X	X	X	X	X	X	X	X	X	X	X	X	X	X	X	

B = Detector Channel
Val Type	B-AC1	B-AC2	B-AC3	B-AC4	B-AC5	B-AC6	B-AC7	B-AC8	B-AC9	B-AC10	B-AC11	B-AC12	B-AC13	B-AC14	B-AC15	B-AC16	B-DC1	B-DC2	B-DC3	B-DC4	B-DC5	B-DC6	B-DC7	B-DC8	B-DC9	B-DC10	B-DC11	B-DC12	B-DC13	B-DC14	B-DC15	B-DC16	B-Ph1	B-Ph2	B-Ph3	B-Ph4	B-Ph5	B-Ph6	B-Ph7	B-Ph8	B-Ph9	B-Ph10	B-Ph11	B-Ph12	B-Ph13	B-Ph14	B-Ph15	B-Ph16	

Term	0.00000e+00	0.00000e+00	0.00000e+00	0.00000e+00	0.00000e+00	0.00000e+00	0.00000e+00	0.00000e+00	0.00000e+00	0.00000e+00	0.00000e+00	0.00000e+00	0.00000e+00	0.00000e+00	0.00000e+00	0.00000e+00	0.00000e+00	0.00000e+00	0.00000e+00	0.00000e+00	0.00000e+00	0.00000e+00	0.00000e+00	0.00000e+00	0.00000e+00	0.00000e+00	0.00000e+00	0.00000e+00	0.00000e+00	0.00000e+00	0.00000e+00	0.00000e+00	-2.62213e+02	-1.32935e+02	-1.32662e+02	-1.82834e+02	-8.07068e+01	-6.76985e+01	-1.56245e+02	-1.62015e+02	-7.38161e+01	-7.02360e+01	-1.78262e+02	-1.70141e+02	-1.80918e+02	-1.76465e+02	-7.37213e+01	-1.49358e+02	
Factor	5.91487e-05	1.78280e-04	4.39040e-05	1.65374e-01	2.43962e-06	1.98052e-06	1.65257e-01	5.76231e-02	3.27999e-06	1.99800e-06	1.00143e-01	2.98878e-02	2.47577e-02	9.46952e-03	1.94458e-06	1.35204e-02	8.62137e-06	1.08001e-05	3.01458e-06	8.24801e-02	1.12599e-07	1.18981e-07	7.74656e-02	2.87449e-02	1.12421e-07	1.20053e-07	4.83995e-02	1.44837e-02	1.24788e-02	4.77091e-03	1.15468e-07	6.60185e-03	X	X	X	X	X	X	X	X	X	X	X	X	X	X	X	X	



#DISTANCE SETTINGS
A = Detector Channel
A-1	A-2	A-3	A-4	A-5	A-6	A-7	A-8	A-9	A-10	A-11	A-12	A-13	A-14	A-15	A-16	

2.5000e+00	3.0000e+00	2.5000e+00	3.0000e+00	2.0000e+00	3.0000e+00	1.5000e+00	3.0000e+00	3.0000e+00	3.0000e+00	3.0000e+00	3.0000e+00	3.0000e+00	3.0000e+00	1.5000e+00	3.0000e+00	

B = Detector Channel
B-1	B-2	B-3	B-4	B-5	B-6	B-7	B-8	B-9	B-10	B-11	B-12	B-13	B-14	B-15	B-16	

1.0000e+01	1.0000e+01	1.0000e+01	1.4400e+00	1.0000e+01	1.0000e+01	1.5100e+00	1.9400e+00	1.0000e+01	1.0000e+01	1.9900e+00	2.4900e+00	2.4100e+00	2.9000e+00	1.0000e+01	2.9800e+00	




#DATA BEGINS
time	group	step	mark	flag	A-AC1	A-AC2	A-AC3	A-AC4	A-AC5	A-AC6	A-AC7	A-AC8	A-AC9	A-AC10	A-AC11	A-AC12	A-AC13	A-AC14	A-AC15	A-AC16	A-DC1	A-DC2	A-DC3	A-DC4	A-DC5	A-DC6	A-DC7	A-DC8	A-DC9	A-DC10	A-DC11	A-DC12	A-DC13	A-DC14	A-DC15	A-DC16	A-Ph1	A-Ph2	A-Ph3	A-Ph4	A-Ph5	A-Ph6	A-Ph7	A-Ph8	A-Ph9	A-Ph10	A-Ph11	A-Ph12	A-Ph13	A-Ph14	A-Ph15	A-Ph16	B-AC1	B-AC2	B-AC3	B-AC4	B-AC5	B-AC6	B-AC7	B-AC8	B-AC9	B-AC10	B-AC11	B-AC12	B-AC13	B-AC14	B-AC15	B-AC16	B-DC1	B-DC2	B-DC3	B-DC4	B-DC5	B-DC6	B-DC7	B-DC8	B-DC9	B-DC10	B-DC11	B-DC12	B-DC13	B-DC14	B-DC15	B-DC16	B-Ph1	B-Ph2	B-Ph3	B-Ph4	B-Ph5	B-Ph6	B-Ph7	B-Ph8	B-Ph9	B-Ph10	B-Ph11	B-Ph12	B-Ph13	B-Ph14	B-Ph15	B-Ph16	aux-1	digaux	

526.045	1	1	0	256	0.19284	0.088802	0.15891	0.069654	0.13648	0.13072	0.35185	0.093287	0.26419	0.19746	0.18541	0.072207	0.18253	0.14324	0.099873	0.13377	-3.0771	-3.3063	-3.2125	-3.6958	-3.3271	-3.3667	-3.5792	-3.3083	-3.5062	-3.3604	-3.1562	-3.5333	-3.4125	-3.3688	-3.3083	-3.3646	291.998	288.639	457.401	210.076	226.633	385.688	382.877	456.002	325.792	375.207	145.778	228.634	362.267	341.270	419.582	330.530	0.0010647	0.00047129	2.917e-05	1342.6	4.1632e-06	5.9024e-06	1404.6	279.5	8.184e-06	6.5066e-06	342.83	96.271	76.091	21.09	2.8142e-06	29.779	0.00098781	0.0010864	0.0003147	1342.6	1.1917e-05	1.2237e-05	1402.8	282.32	1.1518e-05	1.1717e-05	347.58	97.68	77.181	21.956	1.1104e-05	30.995	404.387	204.132	332.507	117.871	247.080	207.756	117.976	125.243	295.415	291.316	124.716	131.226	131.625	138.106	232.866	137.967	-8191	255	
526.117	1	1	0	0	0.14499	0.17532	0.15291	0.1863	0.22522	0.04675	0.13822	0.3006	0.22134	0.15531	0.16282	0.36145	0.096336	0.11316	0.097619	0.16295	-3.0083	-3.3479	-3.2271	-3.6458	-3.3	-3.5375	-3.7667	-3.3208	-3.4437	-3.325	-3.3187	-3.5896	-3.3937	-3.3063	-3.5167	-3.3292	151.275	156.614	234.038	421.597	129.876	443.183	385.171	421.548	409.232	227.385	304.598	450.852	212.303	411.035	181.932	436.456	0.00097872	0.00054178	7.2002e-05	1332.7	6.1708e-06	2.4375e-06	1395.1	278.89	1.4815e-05	4.4823e-06	341.68	95.988	75.803	20.993	3.5911e-06	29.421	0.00094686	0.0010327	0.00030098	1337.1	1.135e-05	1.1653e-05	1398.9	281.46	1.1157e-05	1.1413e-05	347.27	97.422	76.909	21.902	1.0759e-05	30.858	410.620	233.810	177.017	117.853	244.349	221.251	118.170	124.875	224.745	316.160	124.616	131.219	131.585	138.666	233.865	137.798	-8191	255	
526.237	1	1	0	0	0.12531	0.024764	0.093633	0.13389	0.20371	0.072427	0.12759	0.21432	0.11417	0.2055	0.18778	0.21811	0.32524	0.20445	0.20656	0.19601	-2.9521	-3.3083	-3.1521	-3.6521	-3.35	-3.0646	-3.6667	-3.2417	-3.2854	-3.5167	-3.225	-3.4167	-3.2146	-3.2229	-3.4917	-3.2458	427.674	424.538	119.332	400.625	314.239	373.315	456.678	408.673	371.542	235.997	203.396	149.612	210.157	421.072	401.349	421.163	0.0010946	0.0006026	1.4544e-05	1330.4	9.0055e-06	8.1754e-06	1397.2	280.28	1.5621e-05	8.1603e-06	341.54	96.021	75.622	21.194	5.4254e-06	29.618	0.00092136	0.00097855	0.0002957	1337.6	1.0831e-05	1.147e-05	1399.3	281.43	1.0913e-05	1.1029e-05	346.47	97.39	76.674	21.909	1.0735e-05	30.876	408.295	187.138	204.322	118.078	266.035	290.010	117.981	125.044	265.995	276.546	124.623	131.207	131.385	138.702	250.779	137.903	-8191	255	
526.333	1	1	0	0	0.34606	0.088837	0.23417	0.42452	0.46399	0.1916	0.083465	0.16144	0.056412	0.11511	0.40306	0.14308	0.22181	0.036801	0.29276	0.21624	-2.9354	-3.4292	-3.075	-3.7583	-3.3021	-3.2729	-3.6292	-3.2479	-3.3542	-3.3917	-3.1562	-3.6021	-3.4167	-3.2333	-3.6229	-3.3937	153.873	290.373	233.622	355.133	203.151	390.169	361.753	132.296	406.553	326.627	118.955	355.481	435.990	134.239	204.323	126.611	0.0010289	0.0005535	0.00018814	1329.4	6.586e-06	4.1159e-06	1400.7	279.24	8.7777e-06	4.4325e-06	339.64	95.556	75.815	21.199	5.2503e-06	29.676	0.00092629	0.00098843	0.0002902	1335.8	1.0808e-05	1.1386e-05	1400.2	281.11	1.1016e-05	1.117e-05	346.88	97.324	76.967	21.92	1.0613e-05	30.869	409.569	206.887	199.397	117.821	260.061	270.872	118.051	125.051	254.364	215.297	124.544	131.264	131.679	138.530	267.644	137.828	-8191	255	
526.428	1	1	0	0	0.12927	0.13321	0.15489	0.37864	0.20732	0.14223	0.33048	0.14528	0.12245	0.016085	0.037543	0.091375	0.11522	0.3339	0.13125	0.20332	-2.8563	-3.5208	-3.1792	-3.5146	-3.3667	-3.3354	-3.6937	-3.3708	-3.4542	-3.4188	-3.3042	-3.4396	-3.4396	-3.1125	-3.5	-3.2708	270.828	263.712	234.499	449.214	273.993	116.863	405.902	138.335	116.622	223.725	398.323	465.956	428.802	445.862	345.322	173.294	0.0010153	0.00030393	0.00012667	1333.6	3.9992e-06	3.1804e-06	1402.3	279.22	1.3456e-05	5.3471e-06	339.29	95.212	75.602	20.927	7.4287e-06	29.395	0.00090948	0.0010145	0.00028331	1335.8	1.0465e-05	1.1199e-05	1400.5	280.56	1.0638e-05	1.058e-05	345.04	97.05	76.915	21.843	1.0603e-05	30.747	406.196	172.557	157.911	117.911	185.289	225.323	117.979	124.996	278.335	288.923	124.886	131.310	131.427	138.578	267.324	137.326	-8191	255	
526.526	1	1	0	0	0.063403	0.089451	0.31673	0.12448	0.23616	0.15974	0.2822	0.15626	0.05429	0.11955	0.034756	0.28224	0.22901	0.20986	0.060247	0.13315	-2.9562	-3.5708	-3.1375	-3.6083	-3.4271	-3.1625	-3.7479	-3.3312	-3.0771	-3.4958	-3.2833	-3.4396	-3.3333	-3.1958	-3.5875	-3.4833	315.687	449.785	414.653	240.608	181.774	405.224	362.413	432.863	194.756	413.440	164.733	426.718	238.855	440.545	140.298	381.570	0.00094339	0.00035595	0.00010259	1329.1	5.4785e-06	5.7207e-06	1390.9	279.56	1.8705e-05	3.8995e-06	341.89	95.705	75.391	21.112	2.1031e-06	29.503	0.00091151	0.00097354	0.00028078	1333.5	1.0646e-05	1.1474e-05	1397.1	281.24	1.0989e-05	1.1177e-05	345.92	97.239	76.772	21.926	1.1325e-05	30.871	403.147	175.635	247.258	118.060	241.258	279.971	117.841	125.019	231.027	192.982	124.912	131.457	131.493	138.605	303.418	137.353	-8191	255	
526.645	1	1	0	0	0.2711	0.074791	0.33565	0.06812	0.084462	0.35712	0.25	0.24081	0.093752	0.26434	0.17184	0.15926	0.15122	0.12014	0.14579	0.20933	-2.7438	-3.3354	-3.1396	-3.6229	-3.3125	-3.1583	-3.6521	-3.3812	-3	-3.4958	-3.35	-3.4125	-3.5646	-3.1083	-3.4458	-3.4979	232.585	404.020	269.866	362.259	160.219	218.597	348.663	373.643	267.130	299.368	153.153	445.310	153.569	396.352	377.127	421.645	0.0011861	0.00046846	0.00014537	1332.2	8.9026e-06	4.574e-06	1394	279	8.2846e-06	3.7801e-06	343.06	95.897	75.763	21.204	5.801e-06	29.595	0.00097285	0.0010234	0.00028925	1337.3	1.0832e-05	1.1643e-05	1399.1	281.26	1.14e-05	1.1557e-05	347.51	97.548	77.074	21.935	1.1301e-05	30.91	397.226	183.933	184.996	118.018	267.566	175.140	118.132	124.910	280.673	281.308	124.593	131.030	131.540	138.730	239.687	137.644	-8191	255	
526.741	1	1	0	0	0.19423	0.38079	0.044505	0.23287	0.12807	0.17868	0.19566	0.16007	0.26233	0.10485	0.053943	0.29889	0.2201	0.25333	0.29986	0.075871	-2.7542	-3.4833	-3.2604	-3.2104	-3.5438	-3.3208	-3.5854	-3.4667	-3.0979	-3.4437	-3.2188	-3.3854	-3.5479	-3.1875	-3.3083	-3.4813	123.782	213.547	360.160	461.674	349.664	436.375	453.746	447.891	303.157	437.561	356.821	131.126	459.195	229.767	201.439	290.405	0.0011125	0.00018301	0.00018634	1340.5	1.0168e-05	4.2548e-06	1404.5	277.81	9.7021e-06	5.8399e-06	339.85	95.931	76.338	21.07	6.5536e-06	29.584	0.00097939	0.001058	0.00029159	1339.8	1.1422e-05	1.1879e-05	1404.4	281.2	1.1634e-05	1.172e-05	346.55	97.474	77.127	21.931	1.1021e-05	30.892	409.861	157.934	189.881	117.995	235.044	283.454	118.036	125.081	238.587	247.492	124.554	131.237	131.540	138.492	255.259	137.735	-8191	255	
526.837	1	1	0	0	0.012904	0.1076	0.069201	0.18333	0.18887	0.17215	0.26262	0.14106	0.16216	0.012471	0.26281	0.12975	0.2104	0.17052	0.11576	0.25612	-2.6333	-3.4333	-3.3167	-3.5375	-3.4458	-3.2208	-3.6271	-3.325	-3.3271	-3.5583	-3.4375	-3.3438	-3.5542	-3.0875	-3.3187	-3.4396	330.911	426.770	127.551	365.580	152.512	288.990	318.293	436.784	365.782	224.732	390.845	412.341	254.191	198.768	435.307	254.153	0.0010696	0.00066541	0.00015797	1333.8	2.4586e-06	3.0192e-06	1403.7	279.03	6.9589e-06	4.4134e-06	341.03	95.774	76.086	21.038	4.8592e-06	29.838	0.00092389	0.00098596	0.0002756	1339.7	1.0913e-05	1.1375e-05	1405.5	282.24	1.1179e-05	1.1512e-05	347	97.504	77.313	21.944	1.1442e-05	30.995	403.689	215.395	180.897	117.951	238.119	221.038	118.074	125.352	289.853	350.693	124.768	131.406	131.390	138.219	240.821	138.181	-8191	255	
526.933	1	1	0	0	0.11898	0.081219	0.14751	0.22673	0.25829	0.1525	0.19145	0.199	0.074368	0.15248	0.048392	0.21498	0.054875	0.28448	0.24272	0.07679	-2.8646	-3.3792	-3.3438	-3.2896	-3.3958	-3.2042	-3.4708	-3.5146	-3.0333	-3.4167	-3.5708	-3.3708	-3.5333	-3.2521	-3.3417	-3.6375	451.989	156.698	320.972	209.342	324.523	214.544	345.974	416.286	369.980	345.388	448.402	466.601	323.133	389.977	425.372	450.793	0.001015	0.00040025	0.00016756	1339	3.6449e-06	2.9309e-06	1400.7	278.43	1.2019e-05	2.2882e-06	339.52	95.785	75.781	21.008	7.9906e-06	29.534	0.00095942	0.0010416	0.00028307	1342.2	1.0805e-05	1.0802e-05	1403.6	281.27	1.0446e-05	1.0639e-05	346.09	97.319	76.998	21.773	1.0196e-05	30.783	411.839	217.478	173.326	118.027	250.459	240.897	117.974	125.168	269.507	251.858	124.846	131.338	131.986	138.536	259.479	137.809	-8191	255	
527.029	1	1	0	0	0.10348	0.049067	0.034255	0.27409	0.18306	0.39554	0.27604	0.074313	0.27524	0.22061	0.059845	0.18557	0.26071	0.14557	0.13373	0.15437	-2.675	-3.3979	-3.3	-3.3	-3.5104	-3.4021	-3.2188	-3.6167	-3.0896	-3.3979	-3.5771	-3.2333	-3.35	-3.4	-3.1021	-3.4646	264.499	132.011	298.496	463.627	254.903	324.698	369.328	415.219	223.852	346.567	313.680	241.560	233.760	167.503	332.186	466.353	0.0010886	0.00043432	9.2135e-05	1333.5	1.0632e-05	2.8125e-06	1393.3	278.86	5.0249e-06	5.133e-06	341.64	95.277	75.784	21.039	3.8298e-06	29.663	0.00086041	0.00091326	0.00024848	1337	9.7532e-06	9.8348e-06	1398.4	280.92	9.675e-06	1.0131e-05	345.47	97.154	76.657	21.847	9.8901e-06	30.756	407.408	193.966	180.422	117.808	220.033	296.598	118.270	125.203	266.950	258.061	124.992	131.205	131.554	138.425	215.647	138.024	-8191	255	
527.125	1	1	0	0	0.15206	0.36472	0.16453	0.22738	0.2074	0.10605	0.34819	0.13593	0.12112	0.19877	0.18726	0.20557	0.14157	0.25783	0.23837	0.25349	-2.7104	-3.1875	-3.3958	-3.375	-3.3917	-3.3021	-3.2938	-3.45	-3.25	-3.2938	-3.4958	-3.2938	-3.4208	-3.2542	-3.1333	-3.6542	164.504	167.424	310.145	415.698	391.112	401.325	361.347	226.243	373.530	148.037	401.284	363.131	359.155	286.251	245.118	402.161	0.0010202	0.00022918	0.00013574	1332.3	7.4826e-06	8.4084e-07	1399.3	278.44	7.1574e-06	2.5623e-06	341.73	96.008	75.4	20.92	2.9442e-06	29.672	0.00085434	0.00091663	0.00024842	1334.6	9.4721e-06	9.7748e-06	1396.7	280.75	9.6295e-06	9.9872e-06	345.59	96.902	76.678	21.791	1.0182e-05	30.717	406.100	176.040	203.278	118.032	211.081	280.298	118.185	125.287	256.028	294.932	124.483	131.345	131.906	138.623	285.358	138.033	-8191	255	
527.246	1	1	0	0	0.044263	0.077407	0.074488	0.10206	0.25223	0.31147	0.19542	0.10432	0.10485	0.056842	0.12403	0.20681	0.38735	0.10636	0.19732	0.084003	-2.8646	-3.2687	-3.6917	-3.2729	-3.4479	-3.2167	-3.45	-3.5833	-3.1667	-3.1729	-3.7458	-3.15	-3.4104	-3.5938	-3.0979	-3.5375	434.177	190.908	281.530	160.271	267.889	226.864	410.629	444.624	409.525	284.586	140.823	125.211	358.470	414.827	121.335	443.656	0.0011503	0.0002155	8.3898e-05	1332.8	1.2338e-05	4.6557e-06	1390.9	277.67	7.8905e-06	3.7498e-06	339.25	95.174	74.99	21.111	5.0882e-06	29.598	0.00082309	0.00093785	0.00024421	1334.7	9.6403e-06	9.5646e-06	1394.8	280	9.4087e-06	9.9862e-06	344.54	96.781	76.452	21.748	9.7989e-06	30.715	410.086	193.013	198.079	118.078	240.515	237.053	118.015	125.084	298.578	288.361	124.763	131.551	131.825	138.650	250.760	137.938	-8191	255	
527.340	1	1	0	0	0.042276	0.060356	0.13621	0.09077	0.14779	0.04772	0.2655	0.25976	0.14136	0.11131	0.21638	0.11733	0.24732	0.1216	0.069153	0.1434	-2.75	-3.1875	-3.3792	-3.375	-3.1771	-3.4792	-3.3187	-3.5958	-3.2812	-3.3083	-3.6292	-3.1833	-3.3646	-3.2833	-3.2812	-3.4292	209.094	208.640	435.717	435.982	311.770	361.687	370.436	449.270	125.361	357.631	129.556	390.092	455.376	146.999	211.226	283.514	0.001061	0.00013706	9.5409e-05	1325.3	1.2639e-05	9.5506e-06	1389.3	278.14	8.1661e-06	6.4477e-06	339.87	95.004	75.215	20.925	2.7992e-06	29.668	0.00081102	0.00088585	0.00024266	1328.8	9.3354e-06	9.2838e-06	1390.4	279.35	9.0283e-06	9.6883e-06	344.46	96.419	76.305	21.653	9.1307e-06	30.677	402.532	462.375	213.310	118.040	243.946	285.019	117.835	125.113	261.293	205.071	124.793	131.095	131.765	138.516	243.383	137.423	-8191	255	
527.414	1	1	0	0	0.062833	0.30746	0.049303	0.21646	0.30997	0.050682	0.16103	0.12051	0.12	0.038416	0.099685	0.11242	0.20035	0.11233	0.15995	0.28183	-2.8937	-3.2583	-3.4542	-3.35	-3.3854	-3.2188	-3.4062	-3.5333	-3.3563	-3.2396	-3.3896	-3.2708	-3.275	-3.4958	-3.1521	-3.3208	138.845	456.646	121.672	394.844	272.920	121.044	340.434	438.823	186.969	135.073	434.237	174.287	418.745	299.571	306.552	383.014	0.0010754	0.00043178	4.2282e-05	1328.3	7.1859e-06	4.1941e-06	1389.8	276.68	7.4677e-06	4.9665e-06	341.26	95.282	75.116	20.897	4.3286e-06	29.415	0.00077677	0.00084549	0.00023045	1325.1	9.1651e-06	8.9588e-06	1386.5	277.96	8.8419e-06	9.3036e-06	343.44	96.222	76.129	21.641	9.2955e-06	30.643	405.010	211.264	173.322	118.050	258.694	233.768	117.955	125.268	270.864	256.123	125.052	131.126	131.744	138.633	278.198	138.162	-8191	255	
527.533	1	1	0	0	0.13211	0.046555	0.13863	0.14413	0.13892	0.073134	0.053048	0.22561	0.17998	0.1379	0.31005	0.18791	0.12068	0.1102	0.079368	0.049348	-2.9417	-3.2042	-3.35	-3.3312	-3.1625	-3.3042	-3.3812	-3.2792	-3.4042	-3.2125	-3.6479	-3.4688	-3.2687	-3.4271	-3.1937	-3.3625	399.505	113.598	439.787	398.346	179.893	381.435	179.841	137.477	303.824	351.534	461.714	119.699	157.950	207.170	116.272	444.792	0.0010686	0.00039161	5.876e-05	1327.3	9.8245e-06	4.5481e-06	1380.3	276.11	1.0436e-05	4.7459e-06	337.66	95.077	74.952	20.99	5.4605e-06	29.43	0.00076881	0.00086297	0.00023271	1327.5	9.22e-06	8.9608e-06	1385.3	278.14	8.6173e-06	9.2924e-06	342.55	96.238	76.113	21.645	9.0717e-06	30.643	406.892	225.467	440.360	118.064	243.634	240.076	118.063	125.356	260.389	254.159	124.757	131.423	131.873	138.898	243.623	138.079	-8191	255	
527.629	1	1	0	0	0.086071	0.050857	0.041508	0.47791	0.1335	0.25241	0.096016	0.25851	0.19073	0.02453	0.13897	0.086602	0.23478	0.18401	0.10827	0.20613	-3.0521	-3.1917	-3.3146	-3.4979	-3.2833	-3.5146	-3.4458	-3.3125	-3.4896	-3.3104	-3.6437	-3.3396	-3.1833	-3.4958	-3.2208	-3.3729	123.299	212.540	136.689	422.178	201.998	176.699	289.306	141.094	175.676	237.309	240.463	175.606	113.590	424.645	262.687	343.044	0.0010175	0.0003353	0.00012236	1322	1.9296e-06	5.5467e-06	1388.8	275.82	6.7824e-06	2.9506e-06	335.63	94.842	75.098	20.822	1.6819e-06	29.542	0.0007548	0.00083406	0.00022401	1323	9.1341e-06	8.8658e-06	1385	277.65	8.5243e-06	9.2904e-06	341.95	96.138	76.017	21.552	8.9327e-06	30.528	404.179	223.270	228.334	117.933	309.661	268.178	117.844	125.163	248.241	297.083	124.725	131.258	131.938	138.692	233.806	137.813	-8191	255	
527.725	1	1	0	0	0.13579	0.18238	0.22989	0.24991	0.19723	0.089062	0.34142	0.14805	0.068229	0.2616	0.25779	0.13222	0.21208	0.24371	0.20886	0.06918	-3.0687	-3.0396	-3.5563	-3.4875	-3.2354	-3.6146	-3.4854	-3.3292	-3.5438	-3.1375	-3.3937	-3.4542	-3.1167	-3.5417	-3.3292	-3.3354	443.433	293.582	361.335	407.147	121.202	361.853	404.336	394.964	195.626	110.938	137.324	153.125	442.922	110.662	319.313	108.389	0.0010424	0.00038774	7.7595e-05	1317.3	4.0039e-06	6.3309e-07	1382.6	275.7	1.319e-05	5.2112e-06	338.86	94.689	74.762	20.904	4.2805e-06	29.396	0.0007506	0.00082978	0.00022859	1319.6	8.9948e-06	8.7057e-06	1381.1	277.05	8.3552e-06	8.7024e-06	341.84	95.845	75.817	21.629	8.637e-06	30.457	406.586	226.074	142.699	118.265	236.423	261.646	117.932	125.441	254.729	254.542	124.948	131.091	131.641	138.669	261.580	138.060	-8191	255	
527.821	1	1	0	0	0.14814	0.10567	0.1672	0.10388	0.34339	0.015318	0.22419	0.075205	0.12556	0.046502	0.14449	0.1568	0.24808	0.074473	0.26528	0.42904	-3.1333	-3.2042	-3.4479	-3.5979	-3.1437	-3.4604	-3.3646	-3.3396	-3.3958	-3.1958	-3.3917	-3.45	-3.0708	-3.3521	-3.3	-3.3542	384.853	214.118	246.508	433.429	402.632	351.260	369.043	362.631	365.260	412.483	158.672	154.845	208.918	429.583	197.873	439.699	0.0010659	0.00042343	0.00011297	1318.7	9.0079e-06	7.0984e-06	1380.2	275.85	1.2736e-05	1.5071e-06	337.23	94.401	75.196	20.774	6.094e-06	29.382	0.00074232	0.00081284	0.00022886	1319.8	9.0013e-06	8.8668e-06	1379.7	277.48	8.8527e-06	9.2819e-06	341.19	96.009	75.999	21.531	8.5731e-06	30.479	407.178	182.161	265.784	118.006	266.968	279.816	118.132	125.162	240.595	189.009	124.390	131.406	131.698	138.737	245.601	137.886	-8191	255	
527.942	1	1	0	0	0.21022	0.055857	0.058117	0.30171	0.063752	0.14053	0.28308	0.26278	0.17034	0.012155	0.096358	0.12885	0.14922	0.31041	0.17519	0.068834	-3.2521	-3.1917	-3.5417	-3.6917	-3.2729	-3.5583	-3.675	-3.4104	-3.6292	-3.2292	-3.5042	-3.5687	-3.0125	-3.6333	-3.3458	-3.2875	302.124	206.004	441.298	402.667	380.053	191.989	425.235	413.103	225.199	438.723	349.732	434.172	324.217	438.677	142.496	138.023	0.0011098	0.00053258	6.3667e-05	1318.5	5.0039e-06	5.9472e-06	1383.9	275.33	1.1704e-05	5.4935e-06	334.78	94.851	74.503	20.783	5.6052e-06	29.128	0.00074904	0.00081741	0.00022957	1318.9	9.0163e-06	8.8165e-06	1382	276.7	8.3557e-06	8.6936e-06	340.34	95.654	75.612	21.524	8.186e-06	30.325	402.687	188.121	158.246	118.123	249.456	324.021	118.049	125.066	227.578	279.545	124.473	131.359	131.699	138.726	233.295	137.766	-8191	255	
528.038	1	1	0	0	0.1961	0.20188	0.17488	0.18736	0.077271	0.11061	0.37675	0.2021	0.081008	0.32223	0.29371	0.28707	0.14249	0.3037	0.15157	0.41391	-3.0479	-3.2646	-3.2313	-3.6625	-3.1979	-3.6312	-3.6188	-3.1354	-3.4333	-3.275	-3.3063	-3.5521	-3.1521	-3.3375	-3.1646	-3.3208	148.143	353.489	275.062	390.185	236.406	122.392	391.618	126.868	458.279	123.512	424.476	156.725	336.833	430.787	127.341	403.731	0.0011009	0.00040104	8.8096e-05	1318.5	5.8287e-07	3.977e-06	1372.4	273.16	1.4003e-05	4.4537e-06	334.69	94.315	74.428	20.737	4.6034e-06	29.101	0.00073901	0.0007993	0.00023408	1318.4	8.8388e-06	9.017e-06	1376.5	276.04	8.5995e-06	8.8599e-06	340.5	95.654	75.462	21.463	8.2435e-06	30.362	410.945	210.763	179.145	118.124	196.194	269.414	118.054	124.991	259.055	260.507	124.818	131.616	131.724	138.841	277.563	137.974	-8191	255	
528.110	1	1	0	0	0.18135	0.17835	0.10074	0.065287	0.22338	0.1509	0.27564	0.15303	0.31134	0.21564	0.34953	0.16069	0.099891	0.18338	0.4422	0.18151	-3.1396	-3.2812	-3.3042	-3.6646	-3.1667	-3.3271	-3.5542	-3.3792	-3.4833	-3.3104	-3.3542	-3.5812	-3.3521	-3.3771	-3.3875	-3.2333	425.935	148.405	438.171	429.845	345.707	264.941	416.872	130.575	256.904	342.390	454.855	344.623	348.031	400.274	261.395	226.465	0.00082025	0.00027536	5.9147e-05	1308.8	1.0731e-05	1.9348e-06	1375.8	274.67	8.4711e-06	2.5339e-06	335.77	94.385	74.493	20.925	6.568e-06	29.25	0.0007319	0.00078109	0.00022663	1313.2	8.8153e-06	8.7169e-06	1375.5	276.34	8.7089e-06	8.9165e-06	340.26	95.671	75.631	21.531	8.5139e-06	30.392	404.339	140.024	248.362	117.913	241.956	269.825	117.979	125.390	243.587	259.142	124.401	131.180	131.921	138.727	240.488	138.239	-8191	255	
528.206	1	1	0	0	0.13857	0.1721	0.023563	0.34075	0.11697	0.2427	0.34603	0.10932	0.08235	0.10287	0.24294	0.05887	0.11612	0.29911	0.1192	0.13491	-3.2167	-3.3104	-2.8937	-3.6167	-3.1396	-3.4437	-3.5771	-3.5396	-3.4583	-3.3167	-3.1958	-3.7417	-3.2042	-3.3333	-3.6125	-3.2062	273.545	238.317	424.246	448.809	423.045	174.208	384.875	452.025	264.387	427.900	455.021	260.892	376.120	171.414	421.509	314.861	0.0010481	0.00025842	0.00010014	1314	7.264e-06	1.812e-06	1379.1	274.81	9.3008e-06	3.5233e-06	335.25	94.651	74.326	20.778	5.1184e-06	29.108	0.00076107	0.00080303	0.00023135	1316.3	8.8451e-06	9.0646e-06	1377.7	276.54	8.5473e-06	8.6594e-06	340.83	95.854	75.415	21.527	8.4162e-06	30.292	400.830	167.407	134.292	117.957	268.891	255.514	118.066	125.214	241.243	261.960	124.724	131.626	131.855	138.707	236.509	137.799	-8191	255	
528.325	1	1	0	0	0.1969	0.1684	0.10141	0.22596	0.11968	0.1244	0.35244	0.17648	0.16976	0.082861	0.13252	0.22811	0.18345	0.1779	0.032172	0.034927	-3.2333	-3.3521	-3.1312	-3.7146	-3.4604	-3.3958	-3.6958	-3.2	-3.425	-3.4771	-3.3646	-3.4562	-3.4521	-3.2354	-3.5062	-3.2792	239.940	287.039	450.877	386.349	221.084	112.715	431.169	373.830	107.380	433.007	371.865	366.922	128.243	147.886	456.888	195.097	0.00098939	0.00031081	0.0001162	1317.8	6.1617e-06	2.272e-06	1380.2	273.2	9.013e-06	3.466e-06	335.6	94.292	74.611	20.853	2.1604e-06	29.542	0.00074654	0.00079207	0.00023073	1315.8	8.5629e-06	9.0042e-06	1377.2	275.82	8.5693e-06	8.7556e-06	340.28	95.582	75.575	21.542	8.5209e-06	30.431	408.597	223.873	168.759	118.180	250.559	215.161	118.018	125.100	270.792	271.240	124.907	131.356	131.701	138.860	237.661	137.884	-8191	255	
528.421	1	1	0	0	0.098664	0.14508	0.1813	0.52227	0.12278	0.30465	0.13495	0.1011	0.081035	0.15876	0.12432	0.21077	0.20801	0.24911	0.21157	0.1905	-3.0292	-3.3625	-3.2	-3.5021	-3.4625	-3.1979	-3.7125	-3.3667	-3.3417	-3.5042	-3.2979	-3.6312	-3.5021	-3.1688	-3.725	-3.2646	466.400	459.642	251.214	399.192	361.592	428.403	436.328	140.848	248.918	461.260	332.174	372.301	335.483	395.304	326.718	456.186	0.0010277	0.00051176	6.6982e-05	1312.8	6.7851e-06	4.0117e-06	1378.8	274.21	1.0475e-05	6.9224e-06	336.62	93.754	74.778	20.844	4.9317e-06	29.42	0.0007656	0.00082906	0.00023559	1314.4	8.7142e-06	9.1806e-06	1377.1	275.72	8.7494e-06	8.7954e-06	340.69	95.469	75.714	21.522	8.4595e-06	30.432	401.089	192.832	132.477	117.961	215.996	248.283	117.902	125.397	270.984	231.870	124.789	131.339	131.410	138.537	246.733	137.989	-8191	255	
528.519	1	1	0	0	0.1405	0.15945	0.18752	0.1713	0.22959	0.18279	0.2946	0.12967	0.17074	0.12085	0.26596	0.15614	0.12738	0.15498	0.064024	0.020481	-3.0458	-3.5146	-3.1437	-3.6771	-3.2708	-3.2104	-3.6979	-3.3042	-3.3083	-3.4521	-3.2313	-3.5458	-3.4958	-3.2479	-3.6396	-3.3167	404.342	303.234	364.787	451.759	254.792	366.637	427.249	346.653	122.731	108.482	317.922	160.939	462.354	258.201	187.677	393.955	0.0011211	0.00028836	6.6395e-05	1313.1	8.5272e-06	2.941e-06	1376.3	273.47	1.1449e-05	2.5032e-06	334.97	94.053	74.664	20.817	2.27e-06	29.386	0.00074837	0.00077569	0.00022268	1313.3	8.3715e-06	8.9144e-06	1376.3	275.89	8.5676e-06	8.5831e-06	340.06	95.754	75.457	21.515	8.2038e-06	30.349	407.394	222.037	217.927	118.022	219.514	228.420	118.052	125.450	264.305	249.563	124.716	131.300	131.748	138.801	221.095	137.668	-8191	255	
528.637	1	1	0	0	0.128	0.1038	0.21688	0.3391	0.33509	0.032832	0.039554	0.1082	0.24076	0.37811	0.11842	0.10323	0.12203	0.15554	0.1207	0.27047	-2.925	-3.4896	-3.0396	-3.5875	-3.5208	-3.2979	-3.6188	-3.4417	-3.1833	-3.6875	-3.3625	-3.4521	-3.6229	-3.2	-3.6063	-3.4021	265.934	231.753	400.053	451.855	183.541	169.820	152.203	462.016	134.128	234.423	180.678	298.397	250.101	432.274	356.316	322.120	0.00090577	0.00023503	0.00012812	1313.3	9.2805e-06	5.2698e-06	1376.6	274.17	1.35e-05	6.6313e-06	337.32	93.964	74.593	20.822	4.1021e-06	29.076	0.00073063	0.00074635	0.00021209	1313.2	7.9513e-06	8.5763e-06	1374.7	275.37	8.3025e-06	8.4005e-06	340.12	95.346	75.388	21.478	8.8086e-06	30.27	407.502	258.530	186.232	118.112	247.970	274.303	118.028	125.140	248.334	212.402	124.719	131.452	131.897	138.783	304.009	137.956	-8191	255	
528.709	1	1	0	0	0.045622	0.1519	0.16644	0.2786	0.14148	0.26294	0.34713	0.14767	0.07133	0.10913	0.17684	0.16612	0.056303	0.24019	0.14064	0.019169	-2.9292	-3.5438	-3.2479	-3.3521	-3.3979	-3.1833	-3.6875	-3.4604	-3.2833	-3.5208	-3.5417	-3.2604	-3.6521	-3.175	-3.3375	-3.4313	170.669	233.070	341.582	436.289	389.699	142.420	420.453	159.386	186.574	248.979	445.210	342.050	386.506	464.120	145.254	399.211	0.0010241	0.00049485	7.4892e-05	1312.4	7.5237e-06	4.4033e-06	1375.4	272.86	9.9427e-06	3.3724e-06	337.81	93.971	73.9	20.592	6.3526e-07	29.147	0.00078758	0.00081973	0.00023231	1312.3	8.8374e-06	9.2684e-06	1374	275.34	8.7332e-06	8.5543e-06	339.87	95.27	75.15	21.351	8.1032e-06	30.172	411.162	238.918	190.499	117.963	277.336	270.203	118.153	125.189	218.964	247.445	124.927	131.453	131.828	138.812	133.491	137.910	-8191	255	
528.805	1	1	0	0	0.24634	0.068942	0.16381	0.25627	0.15644	0.11066	0.24088	0.070282	0.020611	0.26566	0.16653	0.13839	0.1936	0.20362	0.07829	0.088667	-2.9125	-3.5875	-3.3688	-3.4771	-3.5104	-3.2188	-3.7229	-3.6229	-3.1125	-3.6583	-3.5667	-3.3854	-3.4417	-3.1542	-3.3083	-3.3958	135.079	371.221	298.838	433.752	429.452	279.146	425.057	406.646	367.952	252.460	134.459	150.867	285.025	380.593	109.710	463.379	0.00099813	0.00039569	0.0001882	1305.5	8.3226e-06	5.9903e-06	1366.4	273.28	9.5446e-06	6.5153e-06	334.74	93.627	74.203	20.747	4.7962e-06	29.129	0.00071988	0.00073639	0.00020281	1305.4	7.6093e-06	7.9162e-06	1365.2	274.4	7.7067e-06	7.9948e-06	338.27	95.037	75.008	21.395	8.1357e-06	30.149	404.399	195.590	149.657	118.271	241.920	274.851	117.969	125.223	274.716	278.522	124.873	131.370	131.742	138.716	247.284	138.029	-8191	255	
528.926	1	1	0	0	0.15304	0.11589	0.15659	0.21008	0.15166	0.065589	0.26664	0.1696	0.20972	0.19823	0.19338	0.21042	0.041687	0.11254	0.14259	0.07527	-2.7271	-3.4229	-3.1375	-3.4625	-3.5958	-3.2667	-3.5646	-3.5312	-3.1646	-3.6792	-3.5521	-3.1458	-3.6021	-3.2646	-3.2792	-3.6458	347.082	137.742	204.418	460.989	118.465	460.088	395.640	122.934	255.422	232.790	144.272	385.119	277.950	282.997	169.117	139.148	0.0010068	0.0002799	0.0001175	1303.5	7.8509e-06	3.351e-06	1371.3	273.16	9.4586e-06	3.9595e-06	337.08	93.91	74.115	20.674	3.9477e-06	29.337	0.00072136	0.00073441	0.0002087	1304.4	8.0916e-06	8.2343e-06	1367.8	274.51	8.1622e-06	8.4748e-06	339.34	95.359	75.082	21.369	8.0705e-06	30.208	408.034	203.690	188.442	118.130	240.698	217.969	118.002	125.235	232.808	230.921	124.589	131.549	131.762	138.463	254.407	138.289	-8191	255	
529.022	1	1	0	0	0.14295	0.1206	0.21164	0.3119	0.16159	0.14933	0.31324	0.36173	0.046771	0.095891	0.10347	0.050685	0.052553	0.24519	0.18258	0.098693	-2.5896	-3.4562	-3.3563	-3.2146	-3.4854	-3.2542	-3.575	-3.6917	-3.1521	-3.5312	-3.4271	-3.2229	-3.4813	-3.3458	-3.3375	-3.6458	242.826	300.700	423.277	422.227	341.752	236.220	406.258	447.231	203.196	208.367	124.671	434.093	169.993	412.448	394.462	315.131	0.00096386	0.00022132	9.7914e-05	1307.2	7.9379e-06	4.9517e-06	1367.5	272.12	9.9525e-06	4.1337e-06	334.98	94.337	74.199	20.78	7.8782e-06	29.228	0.00071674	0.00076766	0.00020643	1307.5	8.1669e-06	8.4762e-06	1368.9	274.38	8.5742e-06	8.6373e-06	338.75	95.521	75.245	21.468	9.0034e-06	30.272	401.791	228.612	185.040	118.025	236.706	265.363	118.129	125.346	222.721	245.001	124.931	131.225	131.907	138.433	260.491	137.977	-8191	255	
529.118	1	1	0	0	0.23627	0.050349	0.03998	0.22054	0.02656	0.11775	0.22311	0.085866	0.18456	0.088881	0.10313	0.10721	0.226	0.31772	0.17596	0.046937	-2.6917	-3.4917	-3.3646	-3.2062	-3.6	-3.3292	-3.3063	-3.4562	-3.2667	-3.2333	-3.4021	-3.1813	-3.4896	-3.3354	-3.05	-3.4375	139.210	287.901	247.931	442.753	324.649	320.330	356.228	375.088	392.108	463.945	147.140	126.244	464.679	416.784	379.398	329.159	0.00089913	0.00052447	7.0094e-05	1307.1	1.1287e-05	5.791e-06	1370.1	273.23	7.3704e-06	5.8917e-06	334.36	94.212	74.206	20.784	2.8151e-06	29.234	0.0007545	0.00082411	0.00021875	1308.7	8.6701e-06	8.6874e-06	1371.9	275.09	8.518e-06	8.8112e-06	338.77	95.204	75.275	21.436	8.8848e-06	30.313	400.304	187.647	191.353	118.278	254.090	225.077	118.143	124.934	252.179	272.745	124.760	131.244	131.808	138.777	283.979	137.987	-8191	255	
529.239	1	1	0	0	0.097404	0.09062	0.16186	0.12393	0.15423	0.064747	0.067291	0.22078	0.082333	0.15208	0.066817	0.17451	0.025878	0.28201	0.21272	0.12	-2.6688	-3.1958	-3.1708	-3.3438	-3.3125	-3.3229	-3.4354	-3.5979	-3.0542	-3.4292	-3.55	-3.2104	-3.6437	-3.5271	-3.2146	-3.5979	410.405	441.312	229.872	423.326	194.186	267.674	323.271	306.498	342.604	195.635	128.624	136.923	289.770	120.236	265.040	444.222	0.0010491	0.00048504	0.00012165	1307.7	6.1272e-06	2.8735e-06	1371.4	274.83	1.2582e-05	7.4558e-06	334.06	94.34	74.829	20.725	2.9957e-06	29.274	0.00074508	0.00081509	0.00022325	1309.5	8.4766e-06	8.524e-06	1370.9	275.18	8.5332e-06	8.9797e-06	338.83	95.427	75.424	21.42	8.7248e-06	30.265	404.074	160.328	208.976	118.076	269.571	251.657	118.136	125.184	259.805	261.489	124.666	131.355	131.727	138.607	298.397	137.562	-8191	255	
529.311	1	1	0	0	0.11852	0.22775	0.20086	0.1156	0.25284	0.19446	0.39643	0.16071	0.054627	0.19091	0.10981	0.32725	0.31878	0.11987	0.086132	0.40017	-2.7333	-3.3021	-3.55	-3.3021	-3.2604	-3.4313	-3.2521	-3.6271	-3.2812	-3.1646	-3.6437	-3.2375	-3.4417	-3.4333	-3.1417	-3.6688	186.815	294.299	221.894	428.636	272.687	215.143	401.284	432.881	289.839	226.485	132.625	386.819	143.464	324.537	189.023	333.410	0.0010587	0.00050318	9.2446e-05	1305.2	4.1345e-06	3.8007e-06	1369	273.77	1.0726e-05	4.9787e-06	334.99	94.245	74.108	20.581	3.6119e-06	29.196	0.00072718	0.00078643	0.00021261	1306.2	8.5444e-06	8.4036e-06	1370	275.14	8.4611e-06	8.7076e-06	339.06	95.568	75.251	21.382	8.8319e-06	30.22	410.229	167.031	205.380	118.148	226.724	283.778	118.054	125.207	270.754	268.472	124.772	131.282	132.007	139.148	319.606	137.969	-8191	255	
529.407	1	1	0	0	0.19435	0.061226	0.19879	0.20819	0.05658	0.24945	0.11998	0.21998	0.11279	0.22789	0.29104	0.30544	0.32676	0.06181	0.21513	0.09099	-3.0417	-3.2167	-3.5729	-3.2333	-3.4167	-3.4833	-3.575	-3.5229	-3.3	-3.3458	-3.6396	-3.2646	-3.3271	-3.2958	-3.0396	-3.7271	290.001	138.868	281.538	420.693	159.681	179.213	463.200	428.835	375.662	452.941	184.862	436.730	167.669	198.797	278.130	211.232	0.00096033	0.00039556	0.00013806	1305.4	9.0002e-06	3.4722e-06	1372.2	275.03	8.9269e-06	8.3613e-07	335.48	94.075	74.797	20.895	4.903e-06	28.976	0.00074018	0.00080879	0.00021998	1307.5	8.8793e-06	8.7508e-06	1371.7	275.54	8.6075e-06	9.2291e-06	339.25	95.474	75.579	21.489	8.8446e-06	30.219	407.987	176.550	217.224	118.218	251.726	251.758	118.010	125.123	249.486	279.415	124.610	131.467	131.699	138.634	266.845	138.034	-8191	255	
529.501	1	1	0	0	0.3056	0.14031	0.12439	0.13572	0.24428	0.15183	0.29283	0.17746	0.15793	0.11592	0.21804	0.075159	0.10441	0.12486	0.11596	0.1325	-2.9979	-3.1292	-3.5896	-3.4521	-3.1583	-3.5583	-3.3646	-3.4479	-3.2687	-3.0479	-3.6208	-3.1896	-3.1583	-3.5417	-3.3063	-3.4646	289.848	374.989	307.673	432.318	324.369	326.002	365.732	404.787	305.331	403.261	355.169	119.532	429.314	152.795	186.088	297.500	0.0010054	0.00012389	0.00011226	1310.9	3.8236e-06	5.7682e-06	1375.9	274.38	9.1e-06	8.9153e-07	334.55	94.244	74.713	20.772	4.4998e-06	29.211	0.00074456	0.00080575	0.0002189	1309.9	8.9338e-06	8.6931e-06	1374.7	275.45	8.5269e-06	9.2881e-06	339.75	95.624	75.619	21.558	9.7453e-06	30.375	403.678	368.088	177.352	117.882	273.278	266.370	117.931	125.030	273.966	216.900	124.867	131.627	131.590	138.813	256.473	138.039	-8191	255	
529.622	1	1	0	0	0.31781	0.12649	0.12163	0.27207	0.085786	0.12959	0.26955	0.18286	0.17141	0.34213	0.22727	0.10979	0.22087	0.048833	0.22841	0.39396	-2.9208	-3.2562	-3.5292	-3.4875	-3.2792	-3.5771	-3.2687	-3.4625	-3.3646	-3.15	-3.5708	-3.2896	-3.3542	-3.4562	-3.0896	-3.5042	172.989	177.771	294.557	429.702	207.584	416.065	375.513	444.589	378.625	146.264	319.867	343.291	258.003	118.929	387.070	391.276	0.0010626	0.00030028	0.00012169	1308	8.7977e-06	2.4393e-06	1373.8	274.45	9.5147e-06	5.1804e-06	335.06	93.872	74.83	20.791	2.0828e-06	29.314	0.00082235	0.00093382	0.00025549	1313	1.0129e-05	1.0051e-05	1376	276.09	9.5316e-06	1.0208e-05	340.6	95.577	75.757	21.597	9.6573e-06	30.482	401.065	187.611	204.030	117.955	232.791	257.596	118.022	125.192	263.292	256.448	124.693	131.119	132.239	138.583	192.165	137.843	-8191	255	
529.718	1	1	0	0	0.10744	0.11257	0.23541	0.186	0.073975	0.15515	0.23187	0.17004	0.17639	0.30536	0.12935	0.29825	0.059467	0.19988	0.088427	0.12816	-3.2125	-3.0354	-3.4562	-3.4062	-3.0604	-3.4729	-3.4104	-3.55	-3.4313	-3.1708	-3.5333	-3.4604	-3.2667	-3.5833	-3.0042	-3.2292	333.469	181.464	419.405	449.326	236.305	180.693	374.062	464.279	356.612	219.618	193.213	137.301	373.421	392.390	335.154	213.753	0.0010732	0.00055364	0.00010231	1316.2	1.231e-05	5.6843e-06	1375.1	274.19	1.1379e-05	3.4583e-06	335.53	94.609	74.246	20.858	7.1978e-06	29.268	0.0008078	0.00091009	0.00024708	1317.1	9.3945e-06	9.579e-06	1377.6	275.92	9.1108e-06	9.7448e-06	340.68	96.093	75.583	21.564	9.8608e-06	30.433	398.917	199.629	182.298	118.120	237.063	220.028	118.083	125.228	235.853	320.294	124.940	131.042	131.326	138.757	230.683	138.118	-8191	255	
529.814	1	1	0	0	0.059097	0.2852	0.31639	0.099961	0.22446	0.11287	0.14845	0.13073	0.13959	0.0718	0.17036	0.027152	0.20669	0.17941	0.20476	0.031429	-3.1146	-3.1813	-3.5083	-3.5917	-3.2375	-3.6375	-3.5583	-3.4354	-3.4417	-2.9437	-3.5271	-3.3896	-3.2375	-3.6646	-3.3021	-3.3542	184.150	114.625	464.449	413.023	414.991	386.487	359.341	441.293	173.239	342.239	438.434	411.388	395.743	449.577	316.239	250.231	0.0010938	0.00025877	9.1217e-05	1317.3	9.2297e-06	7.3994e-07	1380.3	273.93	1.2497e-05	2.3365e-06	334.14	94.567	74.493	20.876	4.1329e-06	29.097	0.00084166	0.00096447	0.00025829	1318.5	1.0188e-05	1.0161e-05	1381.6	276.17	9.7642e-06	1.0506e-05	341.1	96.016	76	21.635	1.0222e-05	30.43	409.502	179.036	192.288	118.021	234.413	260.908	118.046	125.153	248.437	335.705	124.892	131.047	131.778	138.771	244.386	137.928	-8191	255	
529.910	1	1	0	0	0.20251	0.11772	0.10598	0.35879	0.34498	0.1566	0.23974	0.21512	0.074712	0.18344	0.08917	0.10486	0.088214	0.042373	0.2327	0.28734	-3.1854	-3.2646	-3.2438	-3.6083	-3.3333	-3.45	-3.5479	-3.3708	-3.6354	-3.2125	-3.4437	-3.5812	-3.2687	-3.7667	-3.3417	-3.1625	364.861	130.319	167.341	455.629	142.614	131.569	452.743	404.855	152.404	431.827	285.316	150.768	249.474	276.732	281.306	432.541	0.0011659	0.00023972	8.9894e-05	1315.4	6.6624e-06	4.6836e-06	1377.8	275.03	1.3708e-05	3.9269e-06	336.89	94.884	74.75	20.9	5.4764e-06	29.43	0.00085077	0.00097482	0.00026861	1317.1	1.0505e-05	1.0435e-05	1378.8	276.58	1.0257e-05	1.0824e-05	341.27	96.025	75.923	21.669	1.0753e-05	30.603	408.721	117.653	165.912	118.012	238.139	231.105	117.925	125.157	231.472	300.690	124.898	131.589	131.669	138.570	232.086	137.789	-8191	255	
530.006	1	1	0	0	0.14124	0.12694	0.25993	0.20467	0.099193	0.13263	0.20029	0.19278	0.18283	0.074652	0.087819	0.10026	0.17794	0.074056	0.030306	0.091429	-3.3021	-3.1792	-3.3021	-3.7104	-3.1479	-3.4688	-3.3812	-3.3042	-3.6167	-3.2042	-3.4583	-3.5875	-3.2333	-3.5625	-3.4333	-3.1771	364.268	360.540	220.464	450.436	206.662	118.785	446.905	407.076	364.591	231.058	233.419	125.175	381.411	264.576	298.016	166.601	0.0011718	0.00033827	0.00018584	1312.2	9.7572e-06	9.3787e-06	1380.1	274.25	1.846e-05	6.4829e-06	335.88	94.407	74.631	20.829	5.2213e-06	29.36	0.00093461	0.0010387	0.0002939	1319.5	1.1146e-05	1.112e-05	1382.3	276.79	1.0534e-05	1.1144e-05	341.62	96.183	75.961	21.719	1.0379e-05	30.498	407.454	231.393	192.409	118.018	265.363	268.268	118.109	125.140	243.059	249.715	124.856	131.320	131.910	138.698	333.938	137.905	-8191	255	
530.102	1	1	0	0	0.29148	0.12593	0.13006	0.26218	0.195	0.094839	0.29933	0.11092	0.14697	0.024687	0.019256	0.33163	0.15436	0.085754	0.13167	0.24348	-3.2333	-3.3187	-3.2292	-3.5896	-3.2104	-3.4167	-3.6188	-3.3458	-3.6	-3.4542	-3.3708	-3.4333	-3.1792	-3.2625	-3.3812	-3.2521	135.416	442.003	449.243	443.148	248.141	390.429	394.554	441.920	351.726	245.398	159.178	128.675	128.881	183.905	322.440	428.726	0.00094145	0.00051825	5.6938e-05	1316.7	1.0773e-05	3.9091e-06	1382.8	274.19	1.4229e-05	8.8871e-06	335.11	94.747	74.547	20.888	5.6831e-06	29.127	0.00088956	0.00097896	0.00028166	1320.4	1.0554e-05	1.0748e-05	1383.7	277.2	1.0475e-05	1.0958e-05	341.84	96.143	76.082	21.678	1.048e-05	30.385	411.274	184.505	146.065	117.961	262.001	282.586	117.943	125.076	246.405	218.074	124.826	131.366	131.633	138.758	218.607	137.627	-8191	255	
530.199	1	1	0	0	0.053315	0.11137	0.23706	0.28422	0.22874	0.10352	0.16442	0.21734	0.23564	0.075852	0.18612	0.31316	0.1749	0.23804	0.31529	0.12533	-3.0375	-3.2979	-3.1833	-3.7583	-3.2854	-3.5042	-3.6667	-3.2896	-3.5187	-3.1521	-3.4417	-3.4188	-3.1292	-3.4229	-3.4333	-3.2062	448.250	151.522	430.865	143.344	329.638	267.193	374.345	460.057	405.581	133.605	418.571	386.108	206.556	257.233	190.634	158.914	0.0011427	0.00036915	0.0001959	1318	1.1469e-05	6.4305e-06	1380	274.8	5.87e-06	4.3445e-06	333.81	95	74.993	20.95	5.4002e-06	29.189	0.00090176	0.00099475	0.00027372	1318.3	1.0482e-05	1.0678e-05	1382.8	277.28	1.0405e-05	1.0585e-05	341.01	96.345	76.188	21.731	1.0306e-05	30.478	403.490	185.229	168.770	118.067	241.924	219.196	117.913	125.220	253.374	272.337	124.896	131.071	131.825	138.775	250.929	137.795	-8191	255	
530.319	1	1	0	0	0.15589	0.080825	0.26103	0.26622	0.027315	0.077539	0.17204	0.16615	0.28886	0.12941	0.22458	0.057	0.33409	0.091908	0.17301	0.17028	-2.9792	-3.3125	-3.25	-3.6271	-3.2354	-3.3979	-3.7396	-3.4229	-3.3271	-3.3958	-3.1792	-3.5812	-3.2667	-3.2708	-3.5062	-3.1917	417.767	413.531	157.778	422.943	357.152	347.737	383.010	369.171	446.996	458.380	338.949	371.822	435.075	204.793	252.338	343.790	0.0011146	0.00046898	0.00013735	1319	3.6837e-06	5.1913e-06	1382.2	274.75	1.46e-05	8.3689e-06	337.12	94.383	75.004	20.819	3.7123e-06	29.248	0.00091785	0.00099032	0.00029245	1321.3	1.1177e-05	1.1669e-05	1381.8	277.66	1.1017e-05	1.1248e-05	342.43	96.257	75.925	21.671	1.0502e-05	30.419	410.874	211.563	108.000	118.098	205.839	200.359	118.206	125.149	235.952	237.914	124.603	131.662	131.581	138.477	293.437	137.796	-8191	255	
530.415	1	1	0	0	0.077921	0.11003	0.053331	0.11467	0.16284	0.22452	0.13348	0.11304	0.14449	0.11898	0.44033	0.085934	0.11941	0.12379	0.16433	0.16521	-2.9833	-3.3812	-3.1229	-3.5687	-3.3104	-3.3854	-3.6542	-3.2438	-3.4146	-3.6063	-3.3542	-3.5083	-3.2604	-3.2062	-3.4688	-3.0042	180.680	380.997	399.730	421.985	276.503	196.743	450.636	290.673	301.756	441.420	408.296	389.338	465.749	439.248	181.573	304.324	0.0010921	0.00049084	7.6526e-05	1314.1	7.9729e-06	4.0911e-06	1380.7	276.03	1.0783e-05	2.2362e-06	335.6	94.028	74.637	20.728	4.9737e-06	29.183	0.00089644	0.00096202	0.0002742	1318.9	1.068e-05	1.0865e-05	1383.4	277.25	1.0496e-05	1.0452e-05	341.05	96.075	75.987	21.648	1.0177e-05	30.369	407.787	184.180	159.520	117.952	213.775	261.508	118.167	125.257	234.777	317.946	125.053	131.318	131.652	138.531	203.017	138.049	-8191	255	
530.510	1	1	0	0	0.23235	0.14826	0.15679	0.17871	0.17489	0.21049	0.27581	0.14692	0.10653	0.26971	0.12683	0.12627	0.18229	0.1623	0.073334	0.089499	-2.8729	-3.4375	-3.05	-3.625	-3.4	-3.3104	-3.6208	-3.2604	-3.4792	-3.3292	-3.2875	-3.35	-3.4542	-3.3354	-3.5167	-3.3479	133.751	287.895	327.335	380.337	291.587	444.113	394.446	186.879	248.268	399.625	410.460	237.053	395.840	367.778	380.715	225.719	0.0011232	0.0003767	0.00010306	1312	9.746e-06	5.2945e-06	1378.1	274.97	6.5269e-06	5.0348e-06	336.3	93.797	74.485	20.744	3.5815e-06	29.127	0.0008935	0.00095569	0.00028029	1318.2	1.0427e-05	1.0939e-05	1380.7	277.32	1.0402e-05	1.0429e-05	341.67	96.027	75.841	21.626	1.038e-05	30.403	404.372	214.548	204.782	118.191	236.147	264.969	118.073	125.153	239.760	241.823	124.874	131.197	131.485	138.420	220.550	137.715	-8191	255	
530.606	1	1	0	0	0.027414	0.12386	0.022683	0.37249	0.047105	0.093545	0.23698	0.33606	0.17723	0.15108	0.20984	0.10987	0.27286	0.17006	0.18237	0.2659	-3.0771	-3.3917	-3.2333	-3.4917	-3.4271	-3.1937	-3.7938	-3.3771	-3.2542	-3.5354	-3.1354	-3.6646	-3.3771	-3.2708	-3.5187	-3.3521	160.021	349.445	446.079	430.802	278.260	237.870	431.157	416.803	423.200	242.238	389.411	423.887	423.776	398.126	129.333	321.522	0.0010651	0.00018383	0.00018706	1315.8	3.9418e-06	3.3052e-06	1379.4	273.88	7.5715e-06	5.9774e-06	334.44	94.309	74.663	20.861	4.1966e-06	29.209	0.00088644	0.00094442	0.00027164	1319.8	9.9392e-06	1.0506e-05	1381	276.59	1.0362e-05	1.0896e-05	341.17	96.102	75.961	21.707	1.1206e-05	30.504	414.232	210.054	218.656	118.076	217.722	317.149	117.988	125.050	257.152	270.158	124.941	131.490	131.607	138.413	296.396	137.611	-8191	255	
530.702	1	1	0	0	0.34467	0.21308	0.30645	0.30285	0.14307	0.14524	0.37725	0.049982	0.078369	0.15678	0.17647	0.13746	0.25932	0.068825	0.22125	0.13358	-3.0125	-3.4042	-3.2354	-3.6125	-3.45	-3.2396	-3.65	-3.325	-3.2354	-3.5917	-3.1833	-3.3792	-3.4667	-3.0438	-3.5	-3.3792	188.903	274.418	353.173	452.634	213.819	317.908	372.488	198.587	223.840	119.761	113.548	447.537	116.588	348.077	450.312	328.893	0.00088147	0.00028926	0.00015406	1312.3	5.6416e-06	2.112e-06	1375.9	274.03	7.9802e-06	4.7452e-06	336.87	94.256	74.691	20.918	2.8484e-06	29.03	0.0009423	0.0010348	0.00028992	1317.9	1.0948e-05	1.1872e-05	1380.5	276.66	1.128e-05	1.1591e-05	342.17	96.038	76.019	21.705	1.1272e-05	30.337	402.624	268.330	205.722	118.100	217.977	215.358	117.906	125.200	261.268	268.434	124.689	131.064	131.705	138.327	188.909	137.591	-8191	255	
530.798	1	1	0	0	0.14842	0.1082	0.33777	0.26118	0.14692	0.13698	0.25489	0.17712	0.22106	0.27265	0.19897	0.082489	0.22119	0.070147	0.1271	0.22488	-2.8312	-3.4021	-3.1479	-3.4646	-3.2396	-3.2625	-3.7271	-3.4313	-3.3187	-3.6583	-3.1104	-3.4333	-3.3292	-3.325	-3.5396	-3.3312	452.204	382.037	210.636	451.661	414.165	139.382	418.671	409.104	207.840	191.948	434.949	336.851	130.811	189.529	461.318	292.362	0.0011229	0.00025855	8.0447e-05	1312.9	6.4827e-06	5.7068e-06	1379.3	275.09	2.2985e-05	5.0294e-06	335.2	94.095	74.586	21.063	4.4544e-06	29.154	0.00094616	0.00099871	0.00028466	1319	1.0764e-05	1.1458e-05	1383.2	277.12	1.1297e-05	1.1649e-05	341.81	96.285	76.16	21.817	1.2119e-05	30.54	405.323	174.049	239.969	118.277	255.205	272.524	118.029	125.334	235.382	294.654	124.565	131.358	131.585	138.758	262.682	137.841	-8191	255	
530.919	1	1	0	0	0.14349	0.23832	0.07187	0.36229	0.12397	0.14659	0.19793	0.24196	0.17084	0.19178	0.25537	0.37354	0.059388	0.22074	0.21425	0.071715	-2.9729	-3.4021	-3.0625	-3.3271	-3.6583	-3.2771	-3.6375	-3.6333	-3.3208	-3.3625	-3.2771	-3.3271	-3.5542	-3.2812	-3.3187	-3.3771	293.797	132.580	340.545	442.064	457.526	183.371	149.564	443.206	355.575	152.641	163.686	328.083	247.218	379.530	190.887	146.311	0.0011321	0.00037633	0.00018254	1317.2	6.5572e-06	6.3356e-06	1377.9	273.68	6.9197e-06	3.9952e-06	336.91	94.707	74.918	20.8	2.9099e-06	29.126	0.0010103	0.0011096	0.00031039	1322	1.1963e-05	1.2438e-05	1383.2	277.08	1.2363e-05	1.2673e-05	342.32	96.66	76.306	21.777	1.2626e-05	30.538	407.410	173.991	119.875	118.051	233.606	227.079	117.983	125.142	221.121	209.860	124.790	131.201	131.746	138.372	193.798	137.954	-8191	255	
531.015	1	1	0	0	0.02866	0.27945	0.060368	0.21335	0.22473	0.24246	0.14203	0.31476	0.041369	0.25367	0.08924	0.20854	0.12968	0.13255	0.35957	0.05122	-2.6708	-3.3958	-3.25	-3.3771	-3.75	-3.2812	-3.6979	-3.5687	-3.05	-3.3958	-3.3771	-3.2521	-3.5	-3.2458	-3.2604	-3.4938	219.764	450.478	256.914	436.800	396.969	189.419	420.726	373.702	286.626	417.371	181.075	460.399	237.061	271.011	364.777	336.408	0.0010513	0.0007441	0.0001728	1316.5	7.7921e-06	4.2441e-06	1383.6	275.71	2.1563e-05	6.2425e-06	337.25	94.997	75.048	20.86	3.1474e-06	29.19	0.0010626	0.0011927	0.00032956	1321.9	1.2754e-05	1.3544e-05	1386	278.15	1.3192e-05	1.3817e-05	343.17	96.742	76.452	21.842	1.3101e-05	30.573	408.252	159.642	176.236	118.055	200.287	246.968	118.106	125.250	273.849	270.233	124.824	131.278	131.948	138.495	289.461	137.529	-8191	255	
531.111	1	1	0	0	0.17773	0.13346	0.20615	0.2865	0.28395	0.16371	0.24136	0.20873	0.18578	0.19972	0.20382	0.20668	0.1982	0.068321	0.099583	0.11246	-3.0542	-3.4396	-3.4208	-3.4521	-3.4375	-3.3042	-3.5479	-3.5521	-3.2313	-3.4562	-3.4708	-3.2875	-3.5729	-3.3729	-3.3396	-3.6354	307.672	411.172	392.717	372.032	429.475	390.164	461.875	108.017	124.298	413.748	248.849	415.010	182.680	316.717	124.780	370.799	0.0010734	0.00033367	0.0001167	1316.6	1.3154e-05	4.818e-06	1382.3	274.52	7.6256e-06	3.1908e-06	336.12	94.797	74.738	20.976	4.6926e-06	29.19	0.0010877	0.0012165	0.00033021	1322.5	1.2919e-05	1.3296e-05	1385.4	277.94	1.2813e-05	1.3519e-05	342.92	96.536	76.396	21.862	1.298e-05	30.638	410.086	190.997	188.709	117.837	256.957	453.975	118.146	125.124	293.110	297.648	124.927	131.795	131.758	138.485	262.709	138.032	-8191	255	
531.207	1	1	0	0	0.11909	0.41108	0.15451	0.14952	0.060807	0.136	0.20419	0.13442	0.14312	0.14966	0.3149	0.26798	0.22507	0.036278	0.11833	0.1733	-2.8667	-3.3354	-3.4562	-3.5542	-3.4271	-3.5146	-3.5187	-3.675	-3.2333	-3.4583	-3.5958	-3.3625	-3.4021	-3.3417	-3.3208	-3.6542	325.062	305.602	240.744	123.566	123.214	330.603	286.237	395.941	254.411	329.475	436.168	444.382	163.245	385.133	305.807	466.373	0.00097645	0.00048638	0.00010869	1322.3	8.4302e-06	2.2275e-06	1379.8	276.5	1.1456e-05	2.9739e-06	335.14	95.007	75.148	20.953	7.8191e-06	29.245	0.0010778	0.001191	0.00032591	1325.5	1.2676e-05	1.2696e-05	1385.2	278.22	1.2376e-05	1.2545e-05	342.47	96.711	76.337	21.774	1.2083e-05	30.525	410.288	196.562	162.182	117.999	268.808	309.926	118.155	125.097	211.759	161.253	124.970	131.161	131.863	139.034	276.703	137.767	-8191	255	
531.279	1	1	0	0	0.064502	0.18012	0.049501	0.35244	0.14469	0.26589	0.18156	0.062486	0.075737	0.12265	0.20234	0.10123	0.31959	0.16937	0.28428	0.17952	-2.7292	-3.3333	-3.3646	-3.3042	-3.4167	-3.275	-3.4521	-3.5938	-3.1167	-3.4708	-3.5062	-3.4271	-3.4708	-3.2479	-3.1458	-3.5021	233.204	364.939	108.138	449.024	373.163	166.757	457.011	182.955	207.009	447.378	398.306	336.447	445.799	229.846	134.091	151.030	0.0011053	0.00070201	0.00014334	1316	9.3464e-06	4.5241e-06	1387.7	275.81	8.286e-06	4.9701e-06	335.85	95.057	74.944	21.032	3.1249e-06	29.137	0.00099004	0.0011082	0.00030165	1322.5	1.2138e-05	1.2421e-05	1388.3	278.29	1.3018e-05	1.3811e-05	343.11	96.863	76.617	21.956	1.4141e-05	30.638	405.222	201.809	189.700	118.068	271.917	237.504	117.918	125.254	234.120	265.831	124.873	131.160	131.689	138.491	189.010	137.973	-8191	255	
531.398	1	1	0	0	0.029048	0.27938	0.13491	0.33392	0.090994	0.26338	0.16209	0.15551	0.20519	0.061536	0.16684	0.12372	0.14288	0.18195	0.23706	0.24982	-2.95	-3.2104	-3.4896	-3.3563	-3.5104	-3.2646	-3.2333	-3.6042	-3.2979	-3.3229	-3.55	-3.2042	-3.4625	-3.3104	-3.0292	-3.5521	302.716	118.674	169.349	403.742	300.418	265.752	116.623	440.556	172.321	149.144	431.293	417.460	424.242	435.641	248.944	428.662	0.0010287	0.00055518	0.000111	1323.4	4.2301e-06	4.4449e-06	1386.2	276.94	1.5605e-05	2.7302e-06	337.23	95.157	75.147	20.979	3.3302e-06	29.181	0.001134	0.0013223	0.00035559	1328.5	1.3975e-05	1.4459e-05	1390.3	279.48	1.3837e-05	1.4603e-05	344.26	97.101	76.91	22.028	1.3772e-05	30.629	403.210	182.101	202.180	118.174	177.428	294.098	117.999	124.978	249.422	223.692	124.742	131.340	131.763	138.534	236.293	137.827	-8191	255	
531.494	1	1	0	0	0.20892	0.1535	0.17959	0.23058	0.20732	0.098349	0.12061	0.24433	0.048692	0.077788	0.21985	0.0073886	0.3349	0.022907	0.062426	0.1134	-3.025	-3.2646	-3.3729	-3.3604	-3.4521	-3.3708	-3.2667	-3.5167	-3.3042	-3.3896	-3.5938	-3.3021	-3.3625	-3.3688	-3.1437	-3.5875	367.224	121.121	136.230	145.620	141.885	281.883	315.645	448.169	417.334	179.391	438.457	275.546	120.218	354.230	422.228	416.206	0.0012234	0.00043753	0.00010297	1318.7	9.67e-06	3.4344e-06	1386.7	275.29	1.2393e-05	5.9544e-06	338	95.536	75.545	21.152	6.3683e-06	29.116	0.0010843	0.0012197	0.00032969	1326.6	1.2092e-05	1.2457e-05	1391	278.61	1.1341e-05	1.2247e-05	343.54	97.183	76.711	21.952	1.1172e-05	30.472	401.344	200.997	255.674	118.001	239.765	251.421	117.868	125.351	255.799	291.181	124.931	131.422	131.692	138.389	252.192	137.536	-8191	255	
531.590	1	1	0	0	0.25966	0.12815	0.27994	0.31246	0.20184	0.048129	0.22164	0.10182	0.22885	0.16308	0.23958	0.18088	0.10107	0.23348	0.11977	0.11423	-2.9521	-3.0312	-3.5229	-3.5021	-3.1792	-3.4229	-3.1188	-3.5062	-3.325	-3.2146	-3.5062	-3.2667	-3.4208	-3.4021	-2.9	-3.4792	207.661	251.097	393.177	345.872	390.119	385.509	124.408	336.861	406.639	113.145	415.532	406.498	157.253	440.974	184.236	175.990	0.0010428	0.00020486	7.3734e-05	1321.7	5.3591e-06	3.2621e-06	1382	275.89	9.7995e-06	3.1129e-06	338.42	95.572	75.507	21.083	4.3955e-06	29.185	0.00088642	0.0010176	0.00026807	1326.4	9.9479e-06	1.0019e-05	1388.7	278.88	9.7293e-06	1.0288e-05	343.6	96.648	76.518	21.906	9.8588e-06	30.414	407.838	231.876	198.748	117.986	233.863	226.208	118.107	125.114	249.585	247.502	124.768	131.064	131.646	138.432	235.078	138.011	-8191	255	
531.686	1	1	0	0	0.10273	0.090564	0.066643	0.22153	0.13871	0.19062	0.15599	0.16221	0.047731	0.053254	0.13066	0.20076	0.17651	0.20334	0.10162	0.020874	-3.1604	-3.1312	-3.3708	-3.225	-3.2417	-3.4875	-3.4125	-3.5104	-3.3896	-3.2125	-3.5083	-3.4688	-3.0667	-3.6667	-3.2646	-3.3812	460.796	115.259	407.680	438.433	306.565	404.894	386.557	332.110	451.612	307.900	427.759	365.828	457.193	192.935	315.823	447.549	0.00096496	0.00071573	6.9016e-05	1322.6	8.1204e-06	6.6825e-06	1390.9	277.34	1.1082e-05	5.6493e-06	337.88	95.48	75.378	21.132	3.7723e-06	29.46	0.0008115	0.00089915	0.00024339	1326.2	9.551e-06	9.6945e-06	1389.8	279.25	9.3314e-06	1.0029e-05	342.73	96.891	76.569	21.952	9.1263e-06	30.454	406.170	168.511	193.183	117.969	224.028	240.052	118.011	125.107	244.434	317.706	124.928	131.209	131.812	138.327	253.770	138.129	-8191	255	
531.807	1	1	0	0	0.14625	0.17026	0.27091	0.16672	0.15326	0.1019	0.19826	0.12516	0.14092	0.063601	0.26075	0.18816	0.088008	0.046438	0.154	0.23272	-2.925	-3.0792	-3.4146	-3.5812	-3.1437	-3.5208	-3.3333	-3.5229	-3.4208	-3.1458	-3.5083	-3.3417	-3.3271	-3.5021	-3.0708	-3.5	123.460	319.867	267.251	455.311	294.152	460.382	392.217	355.545	432.582	395.711	446.873	458.171	290.470	292.592	109.036	124.661	0.0010491	0.00024021	6.681e-05	1328.3	7.4228e-06	5.3726e-07	1391.7	276.52	1.0001e-05	3.633e-06	337.18	95.1	75.175	21.214	4.0238e-06	29.434	0.00074081	0.00079635	0.00021374	1327.8	8.311e-06	8.0957e-06	1391.3	278.57	7.6193e-06	8.4818e-06	342.11	96.573	76.304	21.872	7.9394e-06	30.439	407.235	213.210	196.777	118.045	239.029	367.934	118.157	125.380	234.953	213.873	124.786	131.272	131.684	138.628	258.424	137.946	-8191	255	
531.879	1	1	0	0	0.094789	0.13375	0.3036	0.22428	0.037125	0.20184	0.28591	0.21846	0.062423	0.30347	0.1399	0.15585	0.079056	0.26741	0.14287	0.10841	-2.8854	-3.1729	-3.3708	-3.4396	-3.0854	-3.5917	-3.35	-3.2979	-3.6	-3.175	-3.5458	-3.3708	-3.2229	-3.5708	-3.2979	-3.4542	313.033	321.972	443.352	442.329	384.014	277.473	394.246	461.230	238.567	184.519	398.414	450.776	341.233	432.050	458.745	305.770	0.0011045	0.00038598	0.00010839	1321.8	7.96e-06	2.1401e-06	1389.7	278.5	7.8105e-06	4.3851e-06	339	95.731	75.501	21.168	3.0232e-06	29.27	0.0006836	0.0007372	0.00019962	1326.2	7.7592e-06	7.7908e-06	1388.6	278.86	7.3537e-06	7.9175e-06	342.06	96.703	76.502	21.874	7.5163e-06	30.449	408.145	203.045	195.381	118.040	235.418	267.100	118.088	125.091	250.399	279.987	124.632	131.425	131.673	138.694	226.271	137.980	-8191	255	
531.999	1	1	0	0	0.1291	0.16034	0.11396	0.2398	0.089799	0.071492	0.38263	0.2431	0.16267	0.1434	0.085937	0.22251	0.091095	0.26873	0.13448	0.17646	-3.0979	-3.1146	-3.5583	-3.4938	-2.9938	-3.5479	-3.4479	-3.1958	-3.4729	-3.0563	-3.5458	-3.2333	-3.1917	-3.3875	-3.2375	-3.2146	169.584	357.928	229.838	465.842	305.523	133.326	358.667	379.526	449.225	125.125	202.807	399.746	129.235	278.256	439.963	452.422	0.0009645	0.00030808	9.9183e-05	1326	4.8271e-06	8.6019e-06	1389.1	278.35	7.315e-06	4.7708e-06	337.12	95.08	75.287	21.02	3.9226e-06	29.267	0.00066178	0.00071634	0.00019992	1326.8	7.7993e-06	7.6143e-06	1389.4	278.77	7.4828e-06	7.8612e-06	341.14	96.418	76.236	21.77	7.1817e-06	30.341	404.376	190.491	156.283	118.012	238.548	271.776	117.942	125.386	237.530	301.735	125.149	131.222	131.983	138.275	258.567	137.638	-8191	255	
532.095	1	1	0	0	0.1431	0.20644	0.10573	0.41935	0.1152	0.32437	0.051035	0.2974	0.080815	0.11204	0.18135	0.096048	0.2017	0.062249	0.13857	0.12096	-2.9708	-3.2479	-3.2667	-3.7292	-3.2917	-3.5687	-3.5021	-3.3146	-3.4979	-3.3229	-3.45	-3.6979	-3.1125	-3.4979	-3.4146	-3.1958	260.889	237.436	131.061	430.515	223.999	206.505	315.784	114.283	148.023	433.948	344.431	142.951	349.855	396.152	267.872	151.982	0.00098968	0.00033512	8.5814e-05	1325.9	8.5055e-06	2.4556e-06	1386.1	276.01	1.3934e-05	5.8071e-06	340.01	95.058	75.5	21.065	2.5608e-06	29.306	0.0006442	0.00066621	0.00018707	1324.6	7.3274e-06	7.1381e-06	1385.3	277.8	7.1575e-06	7.3027e-06	342.45	96.242	76.132	21.747	7.1528e-06	30.283	404.866	151.030	255.933	118.254	242.128	217.060	117.943	125.005	256.883	274.729	125.184	131.531	131.692	138.515	278.322	138.035	-8191	255	
532.192	1	1	0	0	0.18832	0.087377	0.20048	0.13071	0.22783	0.18923	0.094384	0.19871	0.061563	0.26523	0.16192	0.19	0.18463	0.049049	0.19286	0.07743	-3.0687	-3.15	-3.2188	-3.5646	-3.1229	-3.3688	-3.6396	-3.2479	-3.4313	-3.3917	-3.4125	-3.65	-3.2667	-3.4708	-3.4938	-3.0563	451.686	278.026	295.799	450.573	245.305	219.674	444.016	113.521	430.103	305.367	390.190	419.597	432.312	259.590	322.979	456.927	0.0011188	9.8875e-05	6.5843e-05	1318.7	8.5332e-06	4.6728e-06	1385.1	276.48	1.0935e-05	2.409e-06	335.51	94.952	75.297	21.128	6.7072e-06	29.053	0.00064491	0.00065982	0.00019317	1321.6	7.3942e-06	7.4202e-06	1382.7	277.61	7.0767e-06	7.2367e-06	340.79	95.918	75.901	21.701	6.6594e-06	30.151	407.644	241.480	192.041	118.107	226.750	260.960	117.979	125.205	253.551	222.681	124.475	131.381	131.614	138.766	250.614	137.884	-8191	255	
532.288	1	1	0	0	0.023577	0.20317	0.043075	0.16817	0.16555	0.088335	0.16011	0.23808	0.26375	0.26405	0.2462	0.010072	0.16508	0.25694	0.036921	0.21265	-3.1625	-3.3104	-3.275	-3.7104	-2.9062	-3.3937	-3.6188	-3.1479	-3.4583	-3.2042	-3.2458	-3.4417	-3.1708	-3.2604	-3.4188	-3.2229	359.615	271.517	243.446	415.306	311.846	215.950	391.077	181.218	192.521	123.275	107.647	280.132	194.825	307.891	348.038	384.934	0.0010291	0.0004274	4.2343e-05	1311.2	5.7805e-06	4.3797e-06	1378.4	274.76	9.2109e-06	3.2281e-06	335.3	94.396	74.879	20.763	2.1465e-06	29.12	0.00062659	0.0006246	0.00018008	1312.1	7.0893e-06	6.8935e-06	1376.5	275.92	6.7029e-06	6.9834e-06	339.3	95.657	75.588	21.58	6.8812e-06	30.143	402.989	212.743	208.130	118.104	248.950	238.103	117.918	125.177	254.799	262.035	124.797	131.300	132.150	139.003	271.365	138.104	-8191	255	
532.407	1	1	0	0	0.060044	0.094419	0.077528	0.29145	0.1368	0.13897	0.062021	0.25913	0.23812	0.060705	0.20872	0.14744	0.047127	0.1526	0.15399	0.030861	-3.1437	-3.2938	-3.2875	-3.6271	-3.2896	-3.3396	-3.6583	-3.2042	-3.4396	-3.3917	-3.1896	-3.5062	-3.25	-3.4729	-3.4479	-3.1458	317.597	345.975	258.193	414.910	327.923	443.580	454.274	405.905	292.018	230.256	450.405	326.329	330.219	386.863	223.684	196.208	0.0011289	0.00045478	4.3546e-05	1312.8	9.4323e-06	6.7281e-06	1378	274.39	8.4667e-06	5.7087e-06	334.96	94.222	74.802	21.002	6.1781e-06	29.089	0.00063137	0.00064056	0.00018781	1313.8	7.1702e-06	7.3635e-06	1373.5	275.79	7.1041e-06	7.1547e-06	339.54	95.478	75.327	21.577	7.2567e-06	30.193	403.563	192.725	147.406	118.141	234.243	217.936	118.043	125.348	262.578	279.595	124.995	131.538	131.614	138.594	268.628	137.978	-8191	255	
532.480	1	1	0	0	0.16033	0.15864	0.16107	0.26597	0.13101	0.10191	0.074169	0.16096	0.1399	0.15593	0.1569	0.10298	0.16238	0.16742	0.095409	0.0164	-2.9896	-3.4021	-2.9896	-3.5687	-3.3104	-3.1958	-3.75	-3.2167	-3.425	-3.3375	-3.1396	-3.5438	-3.2708	-3.2125	-3.4771	-3.3354	431.102	251.274	464.298	387.928	308.263	187.530	393.309	387.023	129.705	174.060	363.233	223.668	148.949	143.204	126.878	303.926	0.0009645	0.0003973	6.9715e-05	1312	4.5867e-06	8.3419e-07	1378.4	274.73	1.025e-05	4.7515e-06	337.07	95.157	74.984	20.952	6.7145e-06	29.156	0.00065562	0.00068193	0.00019868	1311.9	7.4233e-06	7.7075e-06	1373.9	276.22	7.3148e-06	7.4133e-06	338.87	95.874	75.687	21.66	7.2084e-06	30.155	403.923	163.807	174.393	118.255	237.097	319.590	118.099	125.350	271.675	257.134	124.928	131.348	131.903	138.740	236.371	138.058	-8191	255	
532.574	1	1	0	0	0.12263	0.02927	0.24669	0.16986	0.21715	0.40682	0.20478	0.32485	0.21459	0.16474	0.039089	0.10008	0.16225	0.16614	0.26524	0.15721	-2.9042	-3.3792	-2.8875	-3.6375	-3.2021	-3.2854	-3.7104	-3.1229	-3.4292	-3.4583	-3.0104	-3.4125	-3.3021	-2.9667	-3.5875	-3.2604	424.689	143.668	398.657	393.538	370.284	398.841	402.713	109.237	213.761	460.891	335.243	153.324	143.254	111.456	262.637	427.141	0.0010734	0.00060415	0.00011106	1308.8	5.2092e-06	3.135e-06	1375.6	274.55	8.3311e-06	2.5209e-06	334.23	94.684	74.677	21.002	2.547e-06	29.268	0.00064957	0.00065347	0.00019492	1310.3	7.2464e-06	7.5823e-06	1374.7	275.8	7.7013e-06	7.5844e-06	339.45	95.714	75.478	21.644	7.7176e-06	30.209	407.804	161.505	192.493	118.031	215.190	233.190	118.038	125.155	245.991	292.089	124.864	131.398	132.023	138.566	276.468	138.034	-8191	255	
532.695	1	1	0	0	0.12128	0.12877	0.22847	0.31866	0.059373	0.077017	0.45567	0.088481	0.12248	0.10748	0.15906	0.11225	0.099565	0.094536	0.095598	0.071958	-2.9062	-3.3812	-3.0583	-3.5771	-3.3604	-3.1167	-3.6375	-3.2333	-3.4229	-3.4896	-3.2875	-3.4271	-3.4229	-3.1312	-3.5125	-3.4417	415.360	322.173	221.001	415.710	118.970	414.190	455.481	461.881	403.166	465.746	400.103	446.682	183.634	167.995	165.927	372.927	0.0011016	0.00023613	1.6615e-05	1312.7	9.3209e-06	7.4464e-06	1381.3	274.15	1.2096e-05	3.2021e-06	336.47	94.468	74.85	20.89	5.7176e-06	28.972	0.00069021	0.00069046	0.0002062	1312.4	7.6485e-06	8.0496e-06	1376	275.96	7.9409e-06	7.844e-06	340.02	95.638	75.562	21.636	7.5442e-06	30.103	407.093	117.712	209.331	118.163	224.126	272.619	118.142	125.439	264.495	292.747	124.858	131.559	131.546	138.647	258.161	138.191	-8191	255	
532.791	1	1	0	0	0.22738	0.024972	0.088093	0.20406	0.10241	0.24368	0.18195	0.092197	0.14337	0.096844	0.32074	0.1504	0.32319	0.19539	0.17101	0.07461	-2.8125	-3.4562	-3.125	-3.4979	-3.2833	-3.1042	-3.5625	-3.2521	-3.2125	-3.4583	-3.3104	-3.5854	-3.4271	-3.0646	-3.4875	-3.3354	213.609	340.044	216.681	431.999	179.737	188.658	110.654	358.900	146.695	112.923	424.194	419.924	379.789	198.526	257.753	463.346	0.0010217	0.00045634	9.4686e-05	1310	4.4062e-06	2.1433e-06	1370.3	274.06	8.4818e-06	4.5724e-06	334.36	94.632	74.52	20.871	4.5217e-06	29.004	0.00068996	0.000705	0.00020029	1309.8	7.622e-06	8.2246e-06	1370.9	275.44	8.01e-06	8.0746e-06	338.95	95.65	75.409	21.582	8.1802e-06	30.1	403.108	180.879	192.807	118.078	195.462	278.767	118.188	125.229	226.320	257.545	124.856	130.974	131.859	138.862	258.576	137.805	-8191	255	
532.887	1	1	0	0	0.13394	0.13687	0.084714	0.31805	0.1423	0.10654	0.021962	0.14216	0.34352	0.29514	0.063263	0.26529	0.058705	0.13393	0.13801	0.07218	-2.8667	-3.5875	-3.0896	-3.3604	-3.3063	-3.1	-3.5708	-3.4313	-3.2687	-3.6146	-3.5062	-3.425	-3.3792	-3.1271	-3.5917	-3.2438	241.130	298.692	129.472	454.814	340.611	442.478	173.026	432.985	279.678	245.583	240.398	121.282	265.165	456.032	399.339	284.317	0.001071	0.00017735	9.3235e-05	1306.4	6.6455e-06	2.4924e-06	1372.3	274.5	1.1163e-05	4.0153e-06	335.7	94.323	74.569	20.747	3.1385e-06	28.993	0.00073429	0.00075684	0.00021096	1308.7	8.0126e-06	8.6561e-06	1372.1	275.36	8.3065e-06	8.4112e-06	339.39	95.601	75.613	21.583	8.5151e-06	30.142	406.734	140.844	140.084	118.274	246.981	241.667	118.039	125.323	249.893	264.383	124.909	131.483	132.053	138.611	226.847	137.705	-8191	255	
532.983	1	1	0	0	0.26104	0.16303	0.14921	0.24762	0.17036	0.39846	0.14659	0.1413	0.23007	0.17079	0.063606	0.016259	0.12356	0.15383	0.20197	0.13178	-2.8771	-3.3312	-3.2271	-3.3708	-3.4146	-3.1875	-3.6208	-3.2833	-3.2833	-3.4875	-3.4042	-3.3042	-3.525	-3.0729	-3.5271	-3.3458	125.181	458.906	120.456	386.666	442.092	125.152	406.741	156.671	270.917	357.473	352.649	275.037	386.916	432.044	188.075	399.391	0.0010926	0.00028847	7.8339e-05	1309.7	4.1948e-06	2.9936e-06	1375.5	275.47	7.9871e-06	6.8677e-06	336.26	94.207	74.263	20.866	5.2254e-06	29.138	0.00075924	0.00078366	0.00021999	1310.7	8.2507e-06	8.8634e-06	1374	276.2	8.5925e-06	8.5436e-06	339.64	95.606	75.341	21.554	8.5127e-06	30.153	405.634	259.691	221.061	118.123	261.578	212.571	118.015	125.356	236.436	258.533	124.854	131.260	131.603	138.486	235.610	137.920	-8191	255	
533.104	1	1	0	0	0.15217	0.17286	0.18334	0.30923	0.22228	0.12405	0.2432	0.1266	0.078275	0.14802	0.21399	0.09025	0.037714	0.20266	0.20324	0.18925	-2.7896	-3.5479	-3.2021	-3.3563	-3.5333	-3.2583	-3.4396	-3.35	-3.0833	-3.4437	-3.2396	-3.2979	-3.4979	-3.3458	-3.3563	-3.4813	377.929	150.406	181.850	426.868	405.193	156.165	384.822	345.043	462.475	384.947	111.621	205.135	259.317	145.520	227.827	424.299	0.00094524	0.00032953	0.00012852	1311.6	8.2434e-06	4.1358e-06	1367.5	273.73	1.3757e-05	2.7207e-06	333.82	94.151	74.033	20.693	6.0252e-06	29.033	0.00074665	0.00078067	0.00021229	1311.8	8.1364e-06	8.2714e-06	1369.8	274.33	8.1222e-06	8.0964e-06	337.72	95.316	75.015	21.441	8.2144e-06	30.101	410.136	172.854	220.833	117.943	246.100	265.723	118.459	125.425	256.810	215.864	125.368	131.486	132.328	139.040	241.996	137.920	-8191	255	
533.176	1	1	0	0	0.23523	0.17589	0.066725	0.35104	0.2287	0.22123	0.48003	0.24557	0.12752	0.16778	0.13322	0.19944	0.067743	0.086032	0.12572	0.18187	-2.6333	-3.3854	-3.2792	-3.4896	-3.65	-3.0396	-3.5896	-3.5583	-3.0917	-3.4458	-3.4646	-3.1104	-3.6083	-3.1833	-3.4042	-3.4313	434.331	227.120	417.059	417.663	223.464	269.263	391.816	450.183	325.825	186.942	401.991	141.334	252.783	261.997	193.513	270.840	0.00098474	0.00043418	9.3408e-05	1307.6	6.8502e-06	4.3748e-06	1367.5	273.03	8.0355e-06	4.1212e-06	332.78	94.005	74.083	20.715	4.4979e-06	28.956	0.0007263	0.00076316	0.00021297	1306	8.4956e-06	8.5701e-06	1367.3	274.39	8.7388e-06	8.8119e-06	337.87	95.252	75.113	21.479	8.7285e-06	30.129	406.324	196.385	152.828	118.177	251.657	288.880	118.264	125.379	288.354	299.427	124.985	131.195	131.718	138.480	213.759	137.885	-8191	255	
533.272	1	1	0	0	0.16816	0.031413	0.17342	0.17795	0.078194	0.036593	0.16069	0.036025	0.10194	0.085826	0.28044	0.10865	0.071721	0.076954	0.12249	0.3298	-2.5625	-3.4708	-3.2396	-3.2875	-3.5271	-3.0104	-3.3854	-3.3958	-3.1437	-3.4	-3.3708	-3.2021	-3.4604	-3.1604	-3.4854	-3.6333	350.477	310.149	183.185	423.712	111.616	345.250	377.569	238.147	220.062	283.362	108.399	422.003	343.217	156.029	322.787	461.722	0.0011159	0.00047172	2.0517e-05	1308.7	3.558e-06	2.3674e-06	1368.8	271.79	1.1245e-05	3.9268e-06	333.46	94.27	74.45	20.581	8.6404e-06	28.816	0.00074665	0.00080024	0.00022104	1306.5	8.424e-06	8.7087e-06	1369.1	273.9	8.5932e-06	8.9542e-06	337.89	95.369	75.406	21.465	8.9404e-06	30.044	404.187	223.243	225.077	118.053	246.572	323.766	118.026	125.199	272.939	290.391	125.168	131.365	131.862	139.028	224.023	138.262	-8191	255	
533.368	1	1	0	0	0.19726	0.12387	0.077675	0.32945	0.073116	0.19522	0.23425	0.13858	0.11974	0.26231	0.28828	0.056644	0.32144	0.082283	0.13202	0.17209	-2.7958	-3.1958	-3.4229	-3.1708	-3.55	-3.4646	-3.3771	-3.5979	-3.3063	-3.2042	-3.4667	-3.1896	-3.575	-3.3438	-3.1792	-3.5312	463.571	433.976	245.088	450.912	269.214	276.648	382.010	446.277	437.250	222.655	421.590	421.255	437.250	114.756	256.756	447.583	0.0010083	0.00066045	0.00011461	1305.3	6.6684e-06	1.6244e-06	1361.5	272.98	9.3698e-06	4.6144e-06	333.42	94.043	74.228	20.708	5.1396e-06	28.803	0.00076085	0.0008188	0.00021927	1306.1	8.6739e-06	8.9003e-06	1366.1	274.15	8.6431e-06	8.9295e-06	337.64	95.05	75.083	21.428	8.5949e-06	29.957	404.849	213.283	159.617	117.956	220.576	307.950	118.099	125.109	237.236	302.199	124.730	131.207	131.517	138.332	269.531	137.698	-8191	255	
533.487	1	1	0	0	0.098244	0.10523	0.20987	0.17049	0.076239	0.11643	0.13923	0.30068	0.23542	0.10724	0.10833	0.23442	0.16919	0.10846	0.038615	0.23016	-2.8729	-3.1167	-3.3688	-3.1896	-3.4125	-3.4479	-3.4417	-3.65	-3.2979	-3.2854	-3.4646	-3.2458	-3.5292	-3.4354	-3.2271	-3.5708	232.030	421.176	214.448	357.366	321.339	388.996	386.684	453.856	188.113	112.811	132.703	196.511	128.304	195.833	423.585	410.846	0.00089453	0.00053623	0.00012249	1298	7.6996e-06	5.4896e-06	1362.3	273.06	1.0711e-05	5.5876e-06	334.81	93.719	73.865	20.631	2.8766e-06	28.804	0.00070803	0.00077914	0.00020718	1302.4	8.1409e-06	8.1321e-06	1364.5	273.72	8.0112e-06	8.3867e-06	337.33	94.989	74.747	21.41	8.728e-06	29.963	410.690	163.279	203.731	118.190	244.101	246.197	118.328	125.102	213.898	223.383	125.020	131.431	131.773	138.661	228.201	138.288	-8191	255	
533.583	1	1	0	0	0.11099	0.21067	0.27325	0.26257	0.025103	0.10846	0.16598	0.040705	0.14132	0.16	0.24662	0.1955	0.26546	0.12593	0.092815	0.27953	-2.6542	-3.275	-3.4313	-3.1896	-3.2354	-3.3292	-3.2521	-3.4104	-3.1	-3.2396	-3.5646	-3.1688	-3.2542	-3.4833	-3.2146	-3.5417	309.734	209.141	211.579	440.572	229.120	303.817	427.334	337.261	416.218	294.309	119.473	108.199	130.600	214.417	143.183	401.895	0.0010562	0.00029604	4.2452e-05	1304.8	8.0074e-06	3.3728e-06	1365.4	271.44	9.1418e-06	2.9079e-06	334.25	93.723	74.049	20.829	4.102e-06	29.052	0.00072994	0.00081185	0.00021575	1304.9	8.4827e-06	8.6539e-06	1365.9	273.18	8.3828e-06	9.0973e-06	337.03	95.004	74.974	21.5	8.7465e-06	30.061	406.742	189.117	184.418	118.141	248.303	272.023	118.058	125.346	262.059	304.115	125.001	131.490	131.700	138.894	234.683	138.037	-8191	255	
533.679	1	1	0	0	0.19211	0.09937	0.28584	0.24827	0.12886	0.17338	0.13941	0.30989	0.1711	0.23597	0.1677	0.078155	0.34624	0.29851	0.078245	0.19335	-2.6708	-3.1458	-3.4229	-3.3667	-3.2333	-3.4667	-3.175	-3.4771	-3.3125	-3.2896	-3.5708	-3.0917	-3.3542	-3.5062	-3.2146	-3.4938	179.035	404.938	416.729	466.488	180.944	288.264	169.201	428.839	430.259	257.425	132.745	224.971	133.592	421.624	226.752	364.596	0.0010216	0.00015011	5.702e-05	1303.5	4.0677e-06	2.9877e-06	1365.7	271.93	1.041e-05	4.2222e-06	332.3	93.445	74.074	20.74	6.8923e-06	28.825	0.00073305	0.00081093	0.00021891	1304.4	8.6638e-06	8.6279e-06	1364.6	273.21	8.0458e-06	8.7787e-06	336.79	94.889	75.009	21.442	8.3789e-06	29.99	404.231	218.253	175.391	118.260	190.982	287.895	118.250	125.396	237.311	232.347	124.789	131.560	132.047	139.005	242.747	138.149	-8191	255	
533.775	1	1	0	0	0.070218	0.32192	0.1035	0.080924	0.066278	0.2592	0.36464	0.1117	0.28477	0.16358	0.12711	0.042658	0.057027	0.13545	0.077063	0.21223	-3.0542	-3.1646	-3.3417	-3.3792	-3.3208	-3.2062	-3.4771	-3.4604	-3.1625	-2.9938	-3.6521	-3.4167	-3.3625	-3.4979	-3.1792	-3.4875	457.198	140.056	395.561	311.245	244.362	391.795	352.912	300.610	427.160	109.801	243.817	377.048	172.266	349.272	430.985	307.956	0.0010306	0.00038334	0.00014859	1296.4	4.6213e-06	5.0559e-06	1365.5	272.82	5.2567e-06	2.0726e-06	334.18	93.845	74.127	20.669	5.2896e-06	28.812	0.00070735	0.00078656	0.00020983	1301.5	8.4081e-06	8.3029e-06	1365.4	273.45	8.0833e-06	8.7316e-06	337.53	95.002	74.885	21.424	8.3893e-06	30.002	408.605	218.089	193.558	118.076	248.824	262.949	117.928	125.454	227.742	313.642	124.860	131.316	131.842	139.188	266.882	138.090	-8191	255	
533.872	1	1	0	0	0.14173	0.069991	0.1894	0.11597	0.078915	0.19291	0.26512	0.11415	0.16594	0.087562	0.20679	0.21905	0.21015	0.093364	0.25442	0.15767	-2.7125	-3.025	-3.3396	-3.4604	-3.1354	-3.3583	-3.3979	-3.225	-3.4521	-3.0812	-3.3729	-3.2938	-3.275	-3.4375	-3.0938	-3.3167	298.810	165.940	247.453	390.213	183.639	434.104	437.025	424.810	373.577	269.293	380.562	115.059	328.800	368.395	223.325	173.761	0.001111	0.00050363	0.00011009	1303.6	5.326e-06	5.8943e-06	1363.7	271.77	1.0723e-05	3.6204e-06	331.54	93.503	73.882	20.766	5.6801e-06	28.968	0.00070798	0.00078881	0.00021217	1302.3	8.5122e-06	8.3329e-06	1364.7	273.17	8.2941e-06	8.7054e-06	336.44	94.779	74.966	21.429	8.3602e-06	29.937	411.576	178.995	172.281	118.054	223.493	213.845	118.224	125.718	268.979	269.149	124.790	131.328	132.081	138.494	227.933	138.366	-8191	255	
533.968	1	1	0	0	0.14562	0.14202	0.081018	0.075715	0.17534	0.18228	0.26416	0.15943	0.41543	0.069333	0.38238	0.24232	0.090865	0.15272	0.17682	0.051804	-2.95	-3.0167	-3.2875	-3.475	-3.1833	-3.6479	-3.2917	-3.3917	-3.475	-3.2625	-3.5062	-3.3729	-3.0729	-3.4938	-3.1437	-3.4375	448.522	162.372	148.411	229.066	223.458	201.662	366.164	366.316	177.163	235.920	439.353	388.904	464.242	144.658	407.572	205.570	0.0010301	0.00027502	4.904e-05	1301.6	8.0012e-06	2.9339e-06	1366.7	271.11	1.3593e-05	4.4835e-06	332.8	93.677	74.092	20.584	5.3889e-06	28.917	0.00072057	0.00081095	0.0002192	1301.9	8.8071e-06	8.5691e-06	1364.7	273.26	8.206e-06	8.6876e-06	336.88	94.987	74.978	21.409	8.3015e-06	29.966	400.549	172.211	230.796	118.202	227.371	246.820	118.131	125.292	253.490	290.460	124.947	131.022	131.758	138.782	296.042	138.251	-8191	255	
534.088	1	1	0	0	0.088241	0.1438	0.17272	0.090458	0.19061	0.15873	0.25522	0.04814	0.063434	0.13986	0.15848	0.13017	0.20994	0.02816	0.078499	0.056112	-3.1146	-3.1271	-3.2938	-3.5687	-3.1208	-3.3812	-3.5854	-3.3042	-3.3583	-3.0479	-3.5583	-3.4417	-3.1917	-3.4646	-3.3958	-3.1979	148.971	227.415	465.065	126.230	455.660	182.250	432.955	346.115	312.350	409.243	365.734	233.535	399.044	152.906	224.428	218.693	0.0010417	0.0006945	2.1962e-05	1301	5.9376e-06	3.491e-06	1364.1	271.79	1.2422e-05	5.1013e-06	332.96	93.465	74.273	20.673	4.8587e-06	28.806	0.00071265	0.00079324	0.00021827	1302.3	8.759e-06	8.6229e-06	1364.7	273.65	8.2435e-06	8.5568e-06	337.62	94.998	74.949	21.419	8.5918e-06	29.954	403.841	189.448	415.027	118.204	252.817	244.222	117.961	125.029	241.402	253.027	125.265	131.687	131.899	138.764	285.925	138.010	-8191	255	
534.184	1	1	0	0	0.071362	0.26198	0.37293	0.23023	0.095476	0.083091	0.25378	0.11461	0.055097	0.13571	0.041096	0.24835	0.1093	0.11048	0.03822	0.17275	-3.1312	-3.1792	-3.4167	-3.5958	-3.1521	-3.5396	-3.6208	-3.4146	-3.4854	-3.1937	-3.4458	-3.3896	-3.2667	-3.4083	-3.1854	-3.2625	113.118	309.051	376.867	385.374	378.815	276.413	392.663	426.058	139.417	441.282	193.478	403.602	183.664	422.510	288.131	117.633	0.00095067	0.00026819	7.8118e-05	1296.8	6.2141e-06	2.9257e-06	1363.8	272.17	1.1295e-05	7.1389e-06	332.96	93.725	73.992	20.735	3.5138e-06	29.035	0.00073368	0.00081559	0.00022099	1301.1	8.7829e-06	8.6405e-06	1364.9	273.65	8.3547e-06	8.7729e-06	337.42	94.838	74.902	21.425	8.4807e-06	30.088	412.919	186.294	211.468	118.187	237.784	304.882	118.135	125.394	229.925	287.194	125.080	131.315	131.995	138.859	332.968	138.397	-8191	255	
534.281	1	1	0	0	0.045818	0.24763	0.11965	0.48381	0.33749	0.24821	0.24528	0.022542	0.061785	0.07628	0.14058	0.1178	0.11214	0.07641	0.05472	0.17442	-3.1167	-3.275	-3.2917	-3.6167	-3.125	-3.6	-3.5375	-3.2625	-3.5687	-3.2958	-3.4	-3.5167	-3.1625	-3.4562	-3.3958	-3.2062	357.361	421.622	118.976	445.147	122.249	380.039	456.338	415.326	127.941	121.652	462.844	370.825	110.063	170.294	232.504	420.907	0.001002	0.00044357	4.2412e-05	1297.4	4.7111e-06	5.5994e-06	1366.5	272	1.1799e-05	5.5094e-06	332.28	94.091	73.909	20.751	2.7561e-06	28.861	0.00073449	0.00079644	0.00022326	1302.3	8.6192e-06	8.5971e-06	1364.6	273.48	8.2039e-06	8.7026e-06	336.77	95.041	75.02	21.449	8.4001e-06	29.98	405.293	224.987	166.344	118.322	247.254	243.758	118.229	125.285	262.495	361.959	125.210	131.152	131.815	138.807	200.501	138.062	-8191	255	
534.400	1	1	0	0	0.15811	0.11256	0.16903	0.22815	0.10156	0.081507	0.16428	0.095633	0.10551	0.094042	0.073158	0.15278	0.15479	0.23382	0.094639	0.21109	-3.05	-3.2896	-3.2229	-3.775	-3.2583	-3.475	-3.6333	-3.325	-3.5417	-3.3208	-3.3604	-3.6688	-3.1125	-3.4146	-3.3479	-3.2313	234.795	126.825	252.433	435.490	115.929	123.428	311.804	459.013	266.404	227.526	202.640	462.443	221.168	432.406	354.490	113.443	0.00097087	0.00064211	0.00010549	1298.8	9.0609e-06	2.7111e-06	1361.9	271.96	8.3175e-06	3.5437e-06	334.6	93.771	74.21	20.789	4.3378e-06	28.855	0.00071635	0.00079552	0.00022771	1303.1	8.8634e-06	8.8691e-06	1363.7	273.13	8.4072e-06	8.5748e-06	336.62	94.987	74.934	21.422	8.2228e-06	30.001	405.419	232.916	221.410	118.080	248.831	213.500	118.133	125.210	281.439	243.046	125.129	131.331	131.573	138.489	251.952	138.113	-8191	255	
534.471	1	1	0	0	0.30313	0.093876	0.094923	0.21722	0.1967	0.2776	0.35632	0.19963	0.19689	0.18883	0.1032	0.30893	0.30575	0.15808	0.13178	0.2262	-3.0292	-3.125	-3.0563	-3.7188	-3.2417	-3.3187	-3.6437	-3.2833	-3.3896	-3.3667	-3.2271	-3.6521	-3.2458	-3.2938	-3.3563	-3.0917	273.178	454.618	456.243	405.555	179.620	221.080	384.068	458.549	211.027	319.327	176.662	431.360	132.227	391.111	136.288	387.014	0.0010542	0.00047745	3.6868e-05	1304.3	5.9566e-06	4.0728e-06	1369.2	271.74	1.0411e-05	3.7016e-06	332.46	93.388	74.394	20.703	4.5677e-06	28.912	0.00072493	0.00078427	0.00022256	1301.9	8.4559e-06	8.8299e-06	1364.5	273.13	8.5606e-06	8.6446e-06	336.75	94.774	75.046	21.462	8.4431e-06	30.064	405.170	212.681	194.698	118.085	236.681	264.763	118.073	125.256	252.158	262.447	125.048	131.548	132.053	138.859	233.714	138.043	-8191	255	
534.567	1	1	0	0	0.055309	0.21593	0.18657	0.13018	0.18645	0.061142	0.085115	0.04773	0.10902	0.12947	0.034794	0.20893	0.19474	0.1328	0.037834	0.061636	-3.0146	-3.3167	-3.1521	-3.6604	-3.2979	-3.3417	-3.7208	-3.3292	-3.3667	-3.4854	-3.2562	-3.525	-3.3833	-3.2292	-3.3854	-3.0854	303.489	395.241	119.918	396.787	165.734	328.694	409.800	357.825	126.896	116.232	130.745	399.487	456.092	151.163	385.300	186.481	0.0010444	0.00023069	0.00011203	1302.7	7.4466e-06	2.3711e-06	1369.6	273.38	1.3771e-05	6.12e-06	334.54	94.099	74.323	20.825	7.2058e-06	28.961	0.00076989	0.0007986	0.0002381	1304	8.6722e-06	9.0473e-06	1364.8	273.79	9.0719e-06	9.006e-06	337.39	95.211	75.074	21.444	8.6649e-06	30.106	406.833	185.010	207.819	118.379	213.521	216.106	118.178	125.160	215.555	239.999	125.182	131.428	132.131	138.836	275.294	137.580	-8191	255	
534.663	1	1	0	0	0.07009	0.16879	0.069726	0.20949	0.23835	0.036044	0.19988	0.21869	0.18038	0.25851	0.17421	0.2404	0.042532	0.17472	0.15303	0.24529	-3.0667	-3.5208	-3	-3.6021	-3.1958	-3.2792	-3.6146	-3.2458	-3.3146	-3.3979	-3.0667	-3.3771	-3.2812	-3.1833	-3.4313	-3.2583	250.339	439.701	380.528	125.444	210.014	239.262	398.205	412.555	289.987	251.423	182.301	439.594	144.105	123.156	244.453	422.256	0.0010604	0.00052436	0.00014747	1298.6	7.5782e-06	3.5214e-06	1369.1	272.15	9.0059e-06	2.9191e-06	331.74	94.155	74.103	20.569	3.1048e-06	28.96	0.00076279	0.00079907	0.00022553	1300.3	8.4648e-06	8.906e-06	1363.5	272.63	8.4306e-06	8.45e-06	336.31	94.785	74.672	21.342	7.7082e-06	29.854	406.769	188.657	225.167	118.258	252.567	183.130	118.166	125.237	250.743	184.062	124.912	131.411	131.872	139.011	246.301	138.479	-8191	255	
534.784	1	1	0	0	0.18568	0.14316	0.21871	0.26274	0.2201	0.101	0.14741	0.06115	0.10003	0.11674	0.27076	0.16927	0.021061	0.16097	0.17277	0.22579	-2.8063	-3.3187	-3.0062	-3.6	-3.3	-3.2417	-3.9146	-3.3458	-3.2708	-3.4792	-3.1396	-3.5	-3.3396	-3.1104	-3.5563	-3.3438	300.342	221.985	359.105	416.895	372.317	168.999	387.888	162.988	352.455	113.757	389.752	146.033	408.796	444.527	191.935	400.702	0.0010908	0.00027049	0.00012061	1303.2	7.5256e-06	4.6965e-06	1365	271.84	9.332e-06	5.3781e-06	332.33	93.76	73.898	20.839	5.8384e-06	28.805	0.00069634	0.00070565	0.0002012	1297.5	7.6089e-06	7.9472e-06	1361	272.17	7.6226e-06	7.7832e-06	335.7	94.575	74.672	21.372	7.9959e-06	29.878	404.220	188.041	222.252	118.106	217.083	254.553	118.108	125.549	229.821	217.293	125.051	131.372	132.118	138.806	229.894	137.998	-8191	255	
534.880	1	1	0	0	0.11903	0.12258	0.068362	0.080168	0.052805	0.23073	0.074181	0.1382	0.34796	0.027182	0.037881	0.17203	0.27095	0.28388	0.22861	0.074911	-2.8063	-3.3792	-3.1417	-3.6	-3.2854	-3.3458	-3.6458	-3.2438	-3.2229	-3.6	-3.3063	-3.5146	-3.6646	-3.1229	-3.5333	-3.2333	381.412	225.395	398.866	397.895	159.280	325.290	444.916	307.529	402.242	335.744	438.048	391.801	407.783	426.259	223.306	234.341	0.0010454	0.00039931	5.9456e-05	1301.4	8.8316e-06	5.3141e-06	1365	270.98	9.2404e-06	4.9679e-06	332.75	93.704	74.087	20.716	3.0356e-06	28.875	0.00072423	0.00072239	0.0002065	1297.3	7.8563e-06	8.2308e-06	1359.7	272.18	7.9278e-06	7.8923e-06	335.28	94.603	74.565	21.331	7.6712e-06	29.897	401.453	256.591	237.449	118.294	251.016	262.679	118.285	125.563	248.885	267.331	125.113	131.469	131.867	139.087	256.904	138.022	-8191	255	
534.976	1	1	0	0	0.065674	0.15969	0.21937	0.33762	0.06707	0.30871	0.24507	0.31073	0.10342	0.2136	0.13834	0.17317	0.19688	0.12683	0.087438	0.15315	-2.9062	-3.4854	-3.1625	-3.5938	-3.5396	-3.3937	-3.5458	-3.4604	-3.3229	-3.3729	-3.0687	-3.3375	-3.675	-3.2583	-3.5812	-3.475	122.723	386.304	464.363	436.268	271.734	267.586	376.418	122.435	363.819	242.577	136.515	438.894	415.379	131.557	436.500	155.566	0.0010722	0.00044148	7.9086e-05	1301.8	4.5537e-06	2.5395e-06	1366.8	271.78	1.1106e-05	5.516e-06	332.05	93.435	73.733	20.705	3.4732e-06	28.988	0.00070349	0.00072275	0.00020727	1297.7	7.7935e-06	8.2687e-06	1362.9	271.99	8.2824e-06	8.1504e-06	336.14	94.622	74.432	21.344	8.3565e-06	29.953	406.431	142.021	208.680	118.153	248.045	286.012	118.532	125.363	213.793	229.390	124.915	131.300	131.952	138.478	282.689	137.946	-8191	255	
535.048	1	1	0	0	0.13249	0.028635	0.20732	0.093493	0.3928	0.11875	0.13928	0.056646	0.10786	0.11281	0.24286	0.14344	0.12675	0.025912	0.097324	0.20936	-2.625	-3.4917	-3.375	-3.4646	-3.5021	-3.15	-3.6104	-3.5187	-3.2479	-3.45	-3.4667	-3.2479	-3.5812	-3.1417	-3.4833	-3.4437	290.559	462.130	364.924	359.937	359.920	448.333	323.755	465.523	237.288	136.381	151.896	407.586	459.475	263.437	164.989	157.736	0.0010943	0.00072128	9.0878e-05	1297.7	3.7234e-06	3.8068e-06	1362.5	271.95	1.2515e-05	4.5288e-06	333.5	93.788	73.704	20.629	2.8114e-06	29.009	0.00074111	0.00078712	0.00022167	1297.9	8.3583e-06	8.7744e-06	1358.5	272.3	8.3147e-06	8.3905e-06	335.67	94.823	74.638	21.362	8.465e-06	29.95	408.885	193.413	246.035	118.194	235.738	291.774	118.171	125.449	246.977	184.911	124.950	131.854	131.870	138.818	252.059	138.084	-8191	255	
535.169	1	1	0	0	0.27616	0.1691	0.1416	0.32906	0.14166	0.10629	0.19948	0.22619	0.26888	0.17076	0.15264	0.16903	0.32329	0.20244	0.1751	0.10134	-2.6729	-3.2625	-3.1396	-3.3312	-3.4396	-3.2167	-3.6333	-3.6188	-3.1333	-3.5583	-3.3604	-3.2375	-3.4437	-3.3083	-3.3083	-3.4771	450.292	227.458	118.681	455.120	445.441	208.602	418.440	120.727	265.738	411.920	393.683	433.995	465.898	454.445	321.355	376.125	0.001047	0.00061927	0.00011853	1299.8	5.8416e-06	5.1513e-06	1365.3	270.89	4.0938e-06	7.8227e-07	331.68	94.005	73.716	20.575	4.1569e-06	29.002	0.00072845	0.00076829	0.00021384	1297.9	8.1151e-06	8.492e-06	1360.3	272.12	8.2974e-06	8.4082e-06	335.82	94.86	74.719	21.328	8.4472e-06	29.874	415.375	183.757	179.089	118.180	252.890	278.894	118.391	125.156	253.124	248.653	124.901	131.204	132.050	138.635	247.816	137.990	-8191	255	
535.265	1	1	0	0	0.083914	0.14897	0.057592	0.30922	0.10704	0.24106	0.43962	0.16339	0.23063	0.11281	0.23174	0.1807	0.25233	0.28332	0.19317	0.040076	-2.6667	-3.6375	-3.2812	-3.1958	-3.7	-3.2125	-3.3667	-3.4521	-3.1729	-3.5021	-3.2521	-3.2729	-3.5896	-3.3479	-3.1792	-3.6458	107.549	413.861	429.967	449.574	222.785	176.887	379.108	112.058	162.332	292.291	414.081	111.821	397.620	446.748	200.271	337.965	0.00098002	0.00031696	6.164e-05	1303.9	8.8261e-06	5.4949e-06	1362.5	272.28	1.3736e-05	3.5809e-06	331.99	93.346	73.826	20.542	4.3669e-06	28.879	0.00074393	0.00078253	0.00021229	1299.7	8.5078e-06	8.6886e-06	1358.3	272.82	8.4533e-06	8.8234e-06	336.02	94.608	74.65	21.289	8.5957e-06	29.909	408.386	157.657	183.821	118.416	241.582	222.825	118.296	125.480	266.885	265.289	124.972	131.417	131.946	138.829	248.572	137.901	-8191	255	
535.361	1	1	0	0	0.2328	0.088152	0.051446	0.38142	0.26112	0.15881	0.054746	0.17323	0.21227	0.1233	0.14722	0.13633	0.30609	0.051453	0.053149	0.17906	-2.675	-3.4417	-3.5	-3.2896	-3.3833	-3.2667	-3.5583	-3.5708	-3.3167	-3.4479	-3.4021	-3.1292	-3.6896	-3.2167	-3.1813	-3.5646	372.998	125.444	462.344	465.995	413.555	400.636	399.781	428.765	431.744	285.253	436.355	343.839	440.353	428.327	278.112	319.141	0.0011026	0.00023254	4.3687e-05	1298.5	5.6901e-06	4.6783e-06	1360.7	270.37	5.5185e-06	2.0824e-06	333.37	93.613	74.028	20.553	5.1979e-06	29.005	0.00075065	0.00079043	0.00021842	1299.1	8.5509e-06	8.7379e-06	1359.1	271.53	8.6217e-06	8.9225e-06	336.55	94.764	74.681	21.389	8.9045e-06	29.929	404.877	224.799	195.760	118.159	228.674	237.189	118.182	125.502	289.473	197.514	124.897	131.377	131.837	139.000	227.180	138.087	-8191	255	
535.480	1	1	0	0	0.094825	0.11472	0.26787	0.18486	0.16645	0.16759	0.097208	0.087389	0.15185	0.1187	0.2453	0.19163	0.12156	0.31373	0.31033	0.13104	-2.8542	-3.3937	-3.4021	-3.1208	-3.4125	-3.2729	-3.35	-3.5833	-3.2167	-3.5208	-3.5604	-3.2	-3.5062	-3.3854	-3.1917	-3.6271	316.099	252.447	138.984	428.465	412.745	164.654	393.997	413.922	403.303	451.548	137.474	258.958	276.794	443.348	217.962	390.097	0.00092249	0.00040834	0.0001499	1300.3	5.2846e-06	4.1498e-06	1365.6	272.47	5.6382e-06	2.1024e-06	332.68	93.343	73.821	20.841	4.0549e-06	28.847	0.00076833	0.00082137	0.00022475	1297.4	8.5338e-06	8.8924e-06	1360.3	272.76	8.566e-06	8.8777e-06	335.95	94.811	74.638	21.418	8.7515e-06	29.954	407.886	177.689	177.006	118.204	253.516	208.113	118.149	125.364	204.256	275.857	124.973	131.480	131.768	138.783	228.212	138.338	-8191	255	
535.576	1	1	0	0	0.12356	0.19193	0.17252	0.10653	0.13352	0.060036	0.17459	0.12912	0.11983	0.19578	0.18857	0.074176	0.37591	0.12983	0.13467	0.18584	-2.7042	-3.3625	-3.3812	-3.4125	-3.3604	-3.3979	-3.2375	-3.5479	-3.1437	-3.425	-3.6896	-3.2625	-3.5	-3.3833	-3.2438	-3.5187	418.757	434.375	364.217	188.319	435.471	454.196	361.421	428.218	445.587	428.020	307.520	243.577	355.947	449.271	264.609	394.286	0.0010758	0.00029738	0.00015866	1298.2	1.0708e-05	2.6653e-06	1364.9	272.09	1.0979e-05	5.5314e-06	332.43	93.853	74.03	20.64	5.5198e-06	29.046	0.0007594	0.00083122	0.00022432	1298.1	8.7414e-06	8.7181e-06	1363.2	272.06	8.6433e-06	9.0798e-06	336.33	95.008	74.733	21.38	8.9969e-06	29.958	409.983	173.353	201.611	118.328	259.063	176.412	118.109	125.601	243.571	239.779	124.932	131.537	132.091	138.838	302.983	138.039	-8191	255	
535.649	1	1	0	0	0.26231	0.14049	0.2436	0.22232	0.1736	0.12359	0.056881	0.073232	0.14108	0.10659	0.11186	0.1113	0.28374	0.18547	0.25901	0.048481	-2.7708	-3.4083	-3.5396	-3.525	-3.4813	-3.3292	-3.4083	-3.4333	-3.2542	-3.3042	-3.4875	-3.275	-3.5146	-3.4938	-3.2417	-3.4688	133.100	221.679	249.291	400.576	144.318	211.697	173.768	131.104	358.688	243.184	402.164	427.182	445.861	182.803	268.873	394.732	0.0011329	0.00059505	0.00011758	1304	9.8359e-06	3.9223e-06	1369.8	270.82	1.0904e-05	2.7791e-06	333.04	94.006	73.977	20.92	2.5615e-06	28.936	0.00074593	0.00083854	0.00022731	1302	9.1294e-06	8.9467e-06	1366.6	272.57	9.0206e-06	9.5272e-06	336.62	94.896	74.856	21.429	9.4133e-06	29.997	406.251	170.306	196.181	118.304	219.082	252.872	118.135	125.349	253.591	208.514	124.908	131.322	131.798	138.648	198.623	138.364	-8191	255	
535.768	1	1	0	0	0.17398	0.077024	0.035782	0.058802	0.22686	0.20369	0.33523	0.24038	0.114	0.24266	0.37629	0.11502	0.12778	0.14571	0.19078	0.23342	-2.9667	-3.3479	-3.5833	-3.3083	-3.3333	-3.3854	-3.1792	-3.5208	-3.3146	-3.1688	-3.5625	-3.3083	-3.4333	-3.2708	-3.1229	-3.5958	232.891	299.707	315.875	124.356	260.015	434.959	392.822	316.233	318.197	325.686	448.768	182.324	372.618	372.291	417.429	425.032	0.0010634	0.00055912	9.8506e-05	1302.7	4.8291e-06	6.1133e-06	1369.3	272.32	1.2014e-05	2.0026e-06	332.08	93.31	73.956	20.765	3.7068e-06	28.917	0.00078165	0.00085667	0.00022978	1301.5	9.1733e-06	9.0557e-06	1364.9	273.47	8.8822e-06	9.6615e-06	336.48	95.026	74.995	21.466	9.2247e-06	29.999	409.420	178.023	195.861	118.185	270.283	235.794	118.350	125.624	296.029	272.928	124.997	131.442	132.123	139.019	298.094	138.265	-8191	255	
535.864	1	1	0	0	0.083226	0.047722	0.22155	0.22792	0.21837	0.059231	0.21007	0.27133	0.13752	0.16489	0.078739	0.24406	0.1432	0.19053	0.11979	0.029579	-2.8646	-3.1354	-3.5417	-3.5146	-3.3854	-3.65	-3.2542	-3.5271	-3.4583	-3.05	-3.5792	-3.2854	-3.3521	-3.7958	-3.1833	-3.6125	262.114	107.464	415.744	147.479	271.917	212.628	352.624	461.661	439.815	115.017	425.173	438.909	118.914	466.928	302.617	153.109	0.001059	0.00033469	6.7437e-05	1303.4	2.2051e-06	6.1588e-06	1370.8	272.93	6.0182e-06	6.5292e-06	333.86	94.204	74.811	20.562	4.6763e-06	29.014	0.00076265	0.00083822	0.00022685	1302.4	8.6884e-06	8.5198e-06	1365.6	273.26	8.1351e-06	8.7006e-06	336.7	95.01	75.146	21.328	8.3717e-06	30.011	411.571	175.870	176.037	118.442	300.667	263.203	118.287	125.383	241.972	262.410	125.268	131.383	131.759	139.018	270.186	138.137	-8191	255	
#DATA ENDS
