BOXY.EXE: ISS Imagent and Oximeter Data Acquisition Program Version 0.80
Ascii Record File

#ACQ INFORMATION
2  Detector Channels 
16  External MUX Channels 
1  Auxiliary Channels 
5000  Waveform (CCF) Frequency (Hz)
1  Waveforms Skipped 
30  Waveforms Averaged 
1  Cycles Averaged 
16  Acquisitions per Waveform 
10.0806  Updata Rate (Hz) 

#FILE INFORMATION
TRUE -- External MUX Channel results are PARSED.
FALSE -- AC DC and Phase are NOT grouped.
TRUE -- Companion Program Settings File CREATED.
FALSE -- AC data not excluded
FALSE -- DC data not excluded
FALSE -- Phase data not excluded
FALSE -- Auxillary Chn. data not excluded
Tab delimiters

#CALIBRATION STATE
TRUE -- Waveform Calibration Values APPLIED.


#AUX CALIBRATION VALUES
Val Type	aux-1	

Term	1.0000e+00	
Factor	0.0000e+00	


#WF CALIBRATION VALUES
A = Detector Channel
Val Type	A-AC1	A-AC2	A-AC3	A-AC4	A-AC5	A-AC6	A-AC7	A-AC8	A-AC9	A-AC10	A-AC11	A-AC12	A-AC13	A-AC14	A-AC15	A-AC16	A-DC1	A-DC2	A-DC3	A-DC4	A-DC5	A-DC6	A-DC7	A-DC8	A-DC9	A-DC10	A-DC11	A-DC12	A-DC13	A-DC14	A-DC15	A-DC16	A-Ph1	A-Ph2	A-Ph3	A-Ph4	A-Ph5	A-Ph6	A-Ph7	A-Ph8	A-Ph9	A-Ph10	A-Ph11	A-Ph12	A-Ph13	A-Ph14	A-Ph15	A-Ph16	

Term	0.00000e+00	0.00000e+00	0.00000e+00	0.00000e+00	0.00000e+00	0.00000e+00	0.00000e+00	0.00000e+00	0.00000e+00	0.00000e+00	0.00000e+00	0.00000e+00	0.00000e+00	0.00000e+00	0.00000e+00	0.00000e+00	0.00000e+00	0.00000e+00	0.00000e+00	0.00000e+00	0.00000e+00	0.00000e+00	0.00000e+00	0.00000e+00	0.00000e+00	0.00000e+00	0.00000e+00	0.00000e+00	0.00000e+00	0.00000e+00	0.00000e+00	0.00000e+00	0.00000e+00	0.00000e+00	0.00000e+00	0.00000e+00	0.00000e+00	0.00000e+00	0.00000e+00	0.00000e+00	0.00000e+00	0.00000e+00	0.00000e+00	0.00000e+00	0.00000e+00	0.00000e+00	0.00000e+00	0.00000e+00	
Factor	1.00000e+00	1.00000e+00	1.00000e+00	1.00000e+00	1.00000e+00	1.00000e+00	1.00000e+00	1.00000e+00	1.00000e+00	1.00000e+00	1.00000e+00	1.00000e+00	1.00000e+00	1.00000e+00	1.00000e+00	1.00000e+00	1.00000e+00	1.00000e+00	1.00000e+00	1.00000e+00	1.00000e+00	1.00000e+00	1.00000e+00	1.00000e+00	1.00000e+00	1.00000e+00	1.00000e+00	1.00000e+00	1.00000e+00	1.00000e+00	1.00000e+00	1.00000e+00	X	X	X	X	X	X	X	X	X	X	X	X	X	X	X	X	

B = Detector Channel
Val Type	B-AC1	B-AC2	B-AC3	B-AC4	B-AC5	B-AC6	B-AC7	B-AC8	B-AC9	B-AC10	B-AC11	B-AC12	B-AC13	B-AC14	B-AC15	B-AC16	B-DC1	B-DC2	B-DC3	B-DC4	B-DC5	B-DC6	B-DC7	B-DC8	B-DC9	B-DC10	B-DC11	B-DC12	B-DC13	B-DC14	B-DC15	B-DC16	B-Ph1	B-Ph2	B-Ph3	B-Ph4	B-Ph5	B-Ph6	B-Ph7	B-Ph8	B-Ph9	B-Ph10	B-Ph11	B-Ph12	B-Ph13	B-Ph14	B-Ph15	B-Ph16	

Term	0.00000e+00	0.00000e+00	0.00000e+00	0.00000e+00	0.00000e+00	0.00000e+00	0.00000e+00	0.00000e+00	0.00000e+00	0.00000e+00	0.00000e+00	0.00000e+00	0.00000e+00	0.00000e+00	0.00000e+00	0.00000e+00	0.00000e+00	0.00000e+00	0.00000e+00	0.00000e+00	0.00000e+00	0.00000e+00	0.00000e+00	0.00000e+00	0.00000e+00	0.00000e+00	0.00000e+00	0.00000e+00	0.00000e+00	0.00000e+00	0.00000e+00	0.00000e+00	3.03170e+01	-1.34724e+02	-1.27932e+02	-1.82266e+02	-4.76488e+01	-6.90094e+01	-1.59596e+02	-1.62015e+02	-4.82662e+01	-6.52017e+01	-1.73491e+02	-1.72470e+02	-1.88213e+02	-1.78020e+02	-6.30940e+01	-1.50683e+02	
Factor	5.14188e-05	1.87168e-04	5.65238e-05	1.57734e-01	3.11148e-06	2.16949e-06	1.91180e-01	6.53815e-02	2.92785e-06	2.20569e-06	1.20884e-01	3.37897e-02	4.17484e-02	1.00664e-02	2.34221e-06	1.47298e-02	1.45362e-05	2.14116e-05	5.95745e-06	7.83540e-02	2.10188e-07	2.34979e-07	8.82937e-02	3.25466e-02	2.14543e-07	2.37778e-07	5.83855e-02	1.62649e-02	2.06882e-02	5.06822e-03	2.22241e-07	7.17577e-03	X	X	X	X	X	X	X	X	X	X	X	X	X	X	X	X	



#DISTANCE SETTINGS
A = Detector Channel
A-1	A-2	A-3	A-4	A-5	A-6	A-7	A-8	A-9	A-10	A-11	A-12	A-13	A-14	A-15	A-16	

2.5000e+00	3.0000e+00	2.5000e+00	3.0000e+00	2.0000e+00	3.0000e+00	1.5000e+00	3.0000e+00	3.0000e+00	3.0000e+00	3.0000e+00	3.0000e+00	3.0000e+00	3.0000e+00	1.5000e+00	3.0000e+00	

B = Detector Channel
B-1	B-2	B-3	B-4	B-5	B-6	B-7	B-8	B-9	B-10	B-11	B-12	B-13	B-14	B-15	B-16	

1.0000e+01	1.0000e+01	1.0000e+01	1.4400e+00	1.0000e+01	1.0000e+01	1.5100e+00	1.9400e+00	1.0000e+01	1.0000e+01	1.9900e+00	2.4900e+00	2.4100e+00	2.9000e+00	1.0000e+01	2.9800e+00	




#DATA BEGINS
time	group	step	mark	flag	A-AC1	A-AC2	A-AC3	A-AC4	A-AC5	A-AC6	A-AC7	A-AC8	A-AC9	A-AC10	A-AC11	A-AC12	A-AC13	A-AC14	A-AC15	A-AC16	A-DC1	A-DC2	A-DC3	A-DC4	A-DC5	A-DC6	A-DC7	A-DC8	A-DC9	A-DC10	A-DC11	A-DC12	A-DC13	A-DC14	A-DC15	A-DC16	A-Ph1	A-Ph2	A-Ph3	A-Ph4	A-Ph5	A-Ph6	A-Ph7	A-Ph8	A-Ph9	A-Ph10	A-Ph11	A-Ph12	A-Ph13	A-Ph14	A-Ph15	A-Ph16	B-AC1	B-AC2	B-AC3	B-AC4	B-AC5	B-AC6	B-AC7	B-AC8	B-AC9	B-AC10	B-AC11	B-AC12	B-AC13	B-AC14	B-AC15	B-AC16	B-DC1	B-DC2	B-DC3	B-DC4	B-DC5	B-DC6	B-DC7	B-DC8	B-DC9	B-DC10	B-DC11	B-DC12	B-DC13	B-DC14	B-DC15	B-DC16	B-Ph1	B-Ph2	B-Ph3	B-Ph4	B-Ph5	B-Ph6	B-Ph7	B-Ph8	B-Ph9	B-Ph10	B-Ph11	B-Ph12	B-Ph13	B-Ph14	B-Ph15	B-Ph16	aux-1	digaux	

2250.847	1	1	0	512	0.095441	0.059818	0.098975	0.13006	0.24034	0.18809	0.21838	0.12768	0.03521	0.15397	0.24209	0.10689	0.11011	0.19409	0.047046	0.1356	-1.8792	-2.4208	-2.6958	-2.2583	-2.8833	-2.4979	-2.4833	-2.8833	-2.3979	-2.6562	-2.6646	-2.4583	-2.8646	-2.5208	-2.4167	-2.8625	233.977	454.872	476.655	479.565	283.368	408.667	424.283	149.151	387.575	149.758	273.666	485.484	355.359	138.411	423.075	470.885	0.0011982	0.00047738	0.00012506	1057	8.5203e-06	5.3017e-06	878.68	362.57	1.2652e-05	5.9093e-06	332.89	109.98	113.41	43.238	7.2545e-06	45.016	0.0010719	0.0012154	0.00033894	1048.4	1.2415e-05	1.3194e-05	870.3	360.32	1.2294e-05	1.3262e-05	331.67	108.88	112.73	43.559	1.2692e-05	45.189	342.028	212.082	238.919	150.404	309.908	261.383	148.870	155.346	289.025	267.546	153.254	157.389	160.331	164.445	281.947	160.779	-8191	255	
2250.943	1	1	0	0	0.23386	0.11595	0.12764	0.12212	0.19503	0.30622	0.20727	0.035814	0.094922	0.072038	0.1646	0.1397	0.24667	0.16931	0.01216	0.25726	-1.8354	-2.6542	-2.3583	-2.4729	-2.6875	-2.6	-2.5979	-2.9208	-2.3042	-2.6188	-2.8208	-2.3729	-2.9062	-2.4771	-2.4479	-2.9625	226.683	317.700	443.906	487.951	314.614	236.555	424.183	405.203	485.164	443.911	440.507	463.080	262.500	410.104	201.287	490.352	0.0011922	0.00057208	8.9237e-05	1059.6	7.6568e-06	3.7907e-06	887.92	364.37	5.2381e-06	5.0271e-06	336.78	111.14	114.02	43.661	8.2323e-06	46.037	0.0010524	0.0012057	0.00033192	1049.7	1.2121e-05	1.3085e-05	878.48	362.35	1.2575e-05	1.3201e-05	335.01	110.07	113.4	43.961	1.3219e-05	46.091	348.161	245.615	198.235	150.405	285.594	300.722	148.743	155.323	295.829	284.717	153.260	157.346	160.449	164.671	295.561	160.836	-8191	255	
2251.038	1	1	0	0	0.036143	0.11805	0.11015	0.18414	0.21278	0.15203	0.13793	0.30208	0.087504	0.25147	0.10408	0.090181	0.20581	0.31456	0.021695	0.15491	-1.8792	-2.3042	-2.6729	-2.4562	-2.7229	-2.6958	-2.3771	-2.8104	-2.2562	-2.5417	-2.8812	-2.4292	-2.725	-2.6625	-2.3875	-2.8042	322.716	484.452	387.738	369.703	488.693	256.351	153.212	409.002	183.863	335.713	229.564	423.728	300.821	162.723	350.907	145.108	0.0012315	0.00069235	0.00011355	1060.4	7.5189e-06	4.2245e-06	891.93	365.82	8.1238e-06	4.8007e-06	338.34	112.4	114.73	44.063	5.7731e-06	47.005	0.0010754	0.0012661	0.00034624	1055.3	1.2641e-05	1.3506e-05	882.93	364.35	1.314e-05	1.3539e-05	337.22	111.17	114.32	44.37	1.3356e-05	47.165	346.390	229.505	254.719	150.383	311.261	281.249	149.032	155.566	295.741	239.835	153.373	157.692	160.627	164.714	282.350	161.009	-8191	255	
2251.158	1	1	0	0	0.29019	0.18222	0.19986	0.20427	0.13073	0.12952	0.25424	0.18645	0.10776	0.080595	0.11718	0.12071	0.25324	0.18238	0.21419	0.023229	-2.0104	-2.4146	-2.7146	-2.6312	-2.6771	-2.6854	-2.55	-2.9083	-2.4813	-2.5125	-2.9688	-2.3708	-2.5687	-2.8563	-2.4396	-3.0125	371.177	211.243	326.311	464.526	367.303	227.922	455.166	410.970	419.311	235.540	358.060	454.018	431.397	418.814	324.288	369.020	0.0012452	0.00027457	7.3732e-05	1068.9	1.19e-05	4.3208e-06	903.13	368.22	7.1996e-06	6.0906e-06	338.09	111.75	114.16	44.11	7.6161e-06	45.539	0.0011018	0.0012453	0.0003452	1061.1	1.2571e-05	1.3576e-05	887.66	365.78	1.2642e-05	1.3905e-05	336.46	110.97	114.06	44.347	1.3357e-05	46.043	349.052	227.625	226.881	150.431	296.634	284.221	148.798	155.505	313.419	277.555	152.952	157.603	160.353	164.462	309.556	161.005	-8191	255	
2251.255	1	1	0	0	0.049413	0.14754	0.093	0.15171	0.13593	0.16924	0.32971	0.11227	0.25517	0.020292	0.056457	0.17915	0.16698	0.18527	0.11432	0.41398	-2.0812	-2.45	-2.7583	-2.6354	-2.4437	-2.9375	-2.6354	-2.85	-2.6604	-2.4667	-2.8396	-2.675	-2.4979	-2.7479	-2.3708	-2.7938	156.322	444.821	216.931	476.002	138.745	478.401	431.215	352.148	382.564	253.743	255.511	450.646	184.286	483.095	269.818	425.455	0.0012262	0.00034736	8.7895e-05	1060.7	8.2255e-06	5.8222e-06	884.47	364.98	1.2947e-05	1.966e-06	332.13	109.24	114.02	43.55	5.0072e-06	45.005	0.0010849	0.0012683	0.00034675	1054.6	1.2723e-05	1.3745e-05	873.95	362.95	1.2988e-05	1.3712e-05	332.01	108.82	113.43	43.857	1.3272e-05	45.158	352.057	198.379	248.930	150.244	296.750	300.415	148.841	155.427	299.172	321.588	152.996	157.380	160.711	164.247	307.404	160.990	-8191	255	
2251.351	1	1	0	0	0.2068	0.081511	0.086616	0.14774	0.23171	0.051785	0.38265	0.32254	0.16769	0.12581	0.14748	0.30657	0.079011	0.22519	0.13178	0.11855	-2.4229	-2.4646	-2.75	-2.7042	-2.4875	-2.6458	-2.6271	-2.7	-2.7333	-2.4542	-3.0021	-2.5938	-2.4208	-2.7375	-2.3958	-2.8417	222.377	211.224	466.980	465.292	210.207	439.072	367.697	411.784	201.609	305.815	218.898	463.523	454.084	231.349	352.459	304.707	0.0011467	0.00058569	0.00018664	1063	6.8629e-06	3.6736e-06	879.17	366.11	1.1335e-05	7.0401e-06	332.93	110.29	114.51	43.854	7.5907e-06	45.23	0.001066	0.001253	0.00034054	1055.7	1.2666e-05	1.3644e-05	871.78	363.48	1.3081e-05	1.4119e-05	331.92	109.58	113.86	43.98	1.3179e-05	45.55	350.963	257.020	227.545	150.174	305.944	245.107	148.829	155.362	281.698	311.844	153.736	157.193	160.467	164.456	251.344	160.956	-8191	255	
2251.422	1	1	0	0	0.13358	0.079793	0.19767	0.25848	0.40743	0.1938	0.20419	0.20243	0.17229	0.16596	0.28328	0.10599	0.20051	0.17365	0.1576	0.14638	-2.1958	-2.4979	-2.8375	-2.7625	-2.5583	-2.6458	-2.5667	-2.7042	-2.7042	-2.3875	-2.7958	-2.7062	-2.4938	-2.8333	-2.5062	-2.7042	202.933	241.822	219.963	408.930	237.706	336.368	442.026	142.745	215.114	270.408	212.672	239.260	268.027	468.471	429.712	169.657	0.001195	0.00044221	0.0001599	1060.5	5.32e-06	6.3185e-06	884.61	365.74	1.0711e-05	1.4641e-06	331.8	110.44	113.94	43.686	7.881e-06	45.342	0.0010788	0.0012231	0.00034119	1053.9	1.2559e-05	1.3497e-05	875.66	363.41	1.2665e-05	1.3796e-05	332.33	109.66	113.65	43.988	1.2967e-05	45.806	350.153	230.744	233.264	150.269	326.310	267.554	148.943	155.402	307.067	218.414	153.274	157.267	160.510	164.238	266.986	161.190	-8191	255	
2251.543	1	1	0	0	0.12892	0.14491	0.14164	0.33871	0.2778	0.05226	0.12413	0.18504	0.11299	0.086923	0.06937	0.13945	0.20894	0.06067	0.23123	0.093177	-2.3417	-2.3417	-2.6063	-2.7021	-2.4688	-2.85	-2.6708	-2.7188	-2.5708	-2.4188	-2.7208	-2.6688	-2.6646	-2.9479	-2.4896	-2.5958	209.772	420.676	366.150	460.928	229.580	243.716	388.291	489.263	349.729	229.746	417.365	435.745	252.576	387.375	406.780	460.154	0.0011818	0.00028379	6.1625e-05	1063.9	1.0246e-05	7.6753e-06	887.51	365.12	1.2647e-05	3.3835e-06	335.22	110.8	114.59	43.669	6.7302e-06	44.907	0.0010802	0.0012275	0.00033616	1056.9	1.2695e-05	1.3384e-05	875.58	363.07	1.2727e-05	1.4025e-05	334.02	110.15	113.6	44.028	1.3168e-05	45.365	347.061	211.521	165.074	150.467	291.795	274.381	148.803	155.463	315.252	335.561	153.397	157.347	160.245	164.322	281.646	161.021	-8191	255	
2251.639	1	1	0	0	0.25745	0.078837	0.097024	0.086908	0.039828	0.2956	0.15028	0.088153	0.15016	0.30561	0.0051241	0.22475	0.10552	0.13813	0.11522	0.17577	-2.1479	-2.3458	-2.7292	-2.8375	-2.3208	-2.8125	-2.5104	-2.4354	-2.5896	-2.4125	-2.6667	-2.5187	-2.2792	-2.8208	-2.4896	-2.4188	232.592	285.098	238.655	199.536	189.201	163.945	379.761	378.060	479.672	451.259	148.151	382.131	416.199	158.908	441.819	365.977	0.0011738	0.00058498	0.00025369	1058.8	1.1235e-05	2.2053e-06	871.02	361.98	1.0367e-05	9.4836e-07	326.79	107.86	112.62	42.959	7.6602e-06	43.605	0.0010852	0.0012545	0.00034671	1049.1	1.2806e-05	1.3587e-05	863.25	359.27	1.2905e-05	1.3724e-05	326.85	107.13	112.06	43.272	1.3141e-05	44.032	347.538	208.401	240.321	150.195	290.835	289.471	149.043	155.458	302.460	324.405	153.081	157.347	160.370	164.583	293.114	160.892	-8191	255	
2251.735	1	1	0	0	0.076389	0.17226	0.10103	0.15851	0.17732	0.2141	0.17813	0.22186	0.20757	0.28609	0.11984	0.18414	0.17526	0.14845	0.19063	0.20517	-2.4146	-2.3604	-2.4896	-2.7438	-2.4771	-2.9146	-2.7271	-2.5938	-2.7833	-2.45	-2.6458	-2.6896	-2.4479	-2.8146	-2.6875	-2.5	388.304	386.107	254.725	472.709	392.303	188.698	201.340	465.452	471.308	437.420	437.738	484.958	157.868	459.503	273.058	362.476	0.0012699	0.0004851	0.0001801	1051.3	1.2297e-05	4.4263e-06	864.92	359.47	1.3537e-05	6.2853e-06	328.82	108.35	112.95	43.068	6.5115e-06	44.289	0.0010816	0.0012557	0.00034041	1044.9	1.2873e-05	1.3761e-05	858.91	358.61	1.3193e-05	1.3931e-05	326.82	107.65	112.27	43.493	1.3688e-05	44.479	349.316	219.983	243.445	150.284	312.617	291.137	148.777	155.435	307.212	314.410	153.058	157.305	160.418	164.348	271.925	161.260	-8191	255	
2251.832	1	1	0	0	0.1649	0.052132	0.080533	0.2029	0.4085	0.081013	0.10073	0.33507	0.089985	0.23269	0.078061	0.46966	0.13213	0.10556	0.1781	0.12915	-2.3063	-2.3667	-2.6833	-2.8333	-2.2542	-2.8271	-2.7979	-2.4167	-2.6854	-2.4792	-2.425	-2.7562	-2.6271	-2.8187	-2.75	-2.3542	467.975	441.337	175.658	141.221	244.333	152.862	341.070	461.755	472.932	221.539	471.932	414.406	268.342	148.087	306.905	375.115	0.0012248	0.00038132	0.00015122	1054.6	1.2544e-05	3.3272e-06	874.62	361.12	1.0913e-05	6.6896e-06	330.68	108.9	113.22	43.436	9.0725e-06	44.884	0.0011004	0.0012928	0.00035788	1047.8	1.3188e-05	1.418e-05	864.89	359.78	1.3115e-05	1.4616e-05	329.02	108.19	112.79	43.744	1.3835e-05	45.263	347.276	209.655	231.100	150.371	316.058	247.437	148.701	155.485	300.113	288.365	153.283	157.323	160.125	164.439	273.010	160.949	-8191	255	
2251.928	1	1	0	0	0.070969	0.35193	0.090155	0.27721	0.23183	0.26975	0.1257	0.079581	0.17368	0.11066	0.20863	0.10082	0.095164	0.058302	0.1425	0.25684	-2.3187	-2.5292	-2.4479	-2.9125	-2.4354	-2.6479	-2.6875	-2.4375	-2.7146	-2.4333	-2.4646	-2.9688	-2.4792	-2.5271	-2.7396	-2.5	259.109	380.019	157.878	447.256	319.406	242.910	382.958	430.834	401.093	414.196	434.862	334.788	409.401	151.936	450.543	406.315	0.0011628	0.00068565	0.00025003	1061.4	1.1331e-05	2.9083e-06	881.48	363.04	1.105e-05	4.9976e-06	333.98	109.9	113.08	43.908	6.6407e-06	45.822	0.0011273	0.0012996	0.00036213	1052.8	1.3125e-05	1.405e-05	873.14	360.63	1.3335e-05	1.4598e-05	332.47	109.41	112.93	44.052	1.3644e-05	46.147	349.481	215.488	233.288	150.535	298.382	210.124	148.622	155.355	298.428	304.644	152.899	157.651	160.677	164.387	303.792	160.989	-8191	255	
2252.024	1	1	0	0	0.24848	0.15663	0.30081	0.13316	0.27591	0.32642	0.18798	0.23265	0.14057	0.22744	0.11054	0.12772	0.14843	0.14878	0.13002	0.12768	-2.1667	-2.5812	-2.4292	-2.8958	-2.5479	-2.5563	-2.8229	-2.5146	-2.5896	-2.625	-2.4396	-2.7771	-2.6688	-2.6917	-2.7729	-2.4021	404.599	142.836	141.460	414.040	243.152	305.919	445.551	465.743	432.643	419.675	328.650	174.323	212.303	147.724	468.356	317.686	0.0012684	0.00049315	0.0001835	1060.4	8.2905e-06	2.8294e-06	877.95	362.35	6.659e-06	4.8733e-06	328.68	108.78	112.94	43.122	7.948e-06	44.317	0.0011384	0.0013035	0.00036872	1052.5	1.3364e-05	1.4327e-05	868.53	360.75	1.3643e-05	1.4246e-05	328.61	108.03	112.44	43.553	1.3711e-05	44.51	351.985	256.209	224.798	150.351	316.681	336.411	149.042	155.444	292.055	287.994	153.418	157.399	160.336	164.637	304.259	160.968	-8191	255	
2252.120	1	1	0	0	0.15353	0.29743	0.1231	0.24996	0.015494	0.10967	0.23923	0.11424	0.10441	0.21107	0.20317	0.15169	0.22951	0.21451	0.20351	0.073275	-2.1854	-2.5229	-2.5687	-2.7271	-2.6188	-2.5333	-2.8646	-2.6396	-2.8438	-2.6312	-2.5146	-2.9854	-2.7479	-2.5812	-2.7062	-2.6167	490.394	380.384	304.822	423.771	245.323	460.440	422.988	396.249	461.684	450.492	175.498	451.871	286.125	391.611	195.456	340.310	0.0012023	0.00030377	0.00011132	1051.9	1.1652e-05	5.6926e-06	872.41	361.5	1.1199e-05	4.0111e-06	328.42	108.13	113.16	43.295	5.8736e-06	44.578	0.0011117	0.0012794	0.00036105	1047.7	1.3322e-05	1.439e-05	864.99	359.29	1.3417e-05	1.4275e-05	328.32	107.55	112.52	43.57	1.3923e-05	44.664	345.648	177.441	265.563	150.493	291.596	271.943	148.658	155.506	302.419	231.757	152.998	157.739	160.379	164.534	306.263	161.130	-8191	255	
2252.239	1	1	0	0	0.14617	0.0026341	0.37446	0.23201	0.19889	0.10173	0.26757	0.32013	0.23093	0.13054	0.24651	0.098953	0.058897	0.077684	0.11498	0.11323	-2.2583	-2.6125	-2.4125	-2.9542	-2.3646	-2.5812	-2.9271	-2.6104	-2.6021	-2.7396	-2.1958	-2.6271	-2.5	-2.3937	-2.7333	-2.5042	259.355	433.562	372.182	449.288	367.010	472.552	401.496	429.619	275.177	252.228	424.101	446.679	251.952	492.319	474.260	294.919	0.0011963	0.00033416	0.00014882	1059	9.0403e-06	6.5785e-06	885.57	363.52	8.8837e-06	1.1195e-05	330.25	109.1	113.19	43.512	5.408e-06	45.335	0.0011355	0.0013126	0.00036517	1050.3	1.313e-05	1.3921e-05	872.65	360.94	1.3539e-05	1.4268e-05	330.71	108.56	112.9	43.802	1.3563e-05	45.529	344.351	277.298	243.511	150.194	304.816	303.952	148.755	155.551	275.623	274.038	153.102	157.316	160.674	164.369	272.380	160.857	-8191	255	
2252.335	1	1	0	0	0.18241	0.21024	0.16211	0.21815	0.05444	0.11755	0.026756	0.15973	0.16162	0.046207	0.21605	0.041607	0.24501	0.076898	0.20065	0.16056	-2.1229	-2.7188	-2.1813	-2.8583	-2.5667	-2.3333	-2.8125	-2.5771	-2.4896	-2.7458	-2.5396	-2.65	-2.4688	-2.4437	-2.975	-2.5958	323.725	346.202	365.843	365.469	254.907	271.101	447.496	333.437	282.003	229.269	457.062	355.719	416.285	391.971	198.241	412.737	0.0012008	0.00046336	0.00014019	1060.8	1.1334e-05	4.2143e-06	888.51	364.85	1.1713e-05	9.1597e-06	335.66	111.07	114.24	43.954	7.111e-06	46.167	0.0011136	0.0012791	0.00036084	1053.7	1.3005e-05	1.4352e-05	879.94	363.56	1.3522e-05	1.4442e-05	335.08	110.33	113.73	44.301	1.3616e-05	46.456	345.407	207.337	228.361	150.567	302.411	324.071	148.573	155.437	278.463	292.158	153.324	157.581	160.507	164.588	287.058	160.975	-8191	255	
2252.431	1	1	0	0	0.05447	0.20479	0.15165	0.15785	0.062217	0.20161	0.08034	0.22469	0.2904	0.17657	0.076353	0.090952	0.32751	0.096336	0.27787	0.098283	-2.0646	-2.8354	-2.5	-2.9292	-2.6375	-2.425	-2.8458	-2.6562	-2.4958	-2.8688	-2.3833	-2.6875	-2.7604	-2.45	-2.6562	-2.5542	333.284	340.211	177.303	375.923	190.975	370.859	298.258	455.404	146.978	464.551	381.491	189.385	403.187	473.850	172.076	397.580	0.0012757	0.00045686	0.00020721	1064.9	1.2269e-05	5.3384e-06	894.36	366.8	1.2479e-05	5.3139e-06	334.38	110.41	114.14	43.812	5.5021e-06	44.858	0.0011265	0.0013016	0.00035586	1059	1.3517e-05	1.43e-05	886.19	363.99	1.3517e-05	1.4484e-05	335	109.99	113.78	44.072	1.344e-05	45.341	347.579	212.603	227.537	150.456	306.215	318.519	148.830	155.685	281.148	261.690	152.944	157.378	160.376	164.479	286.243	161.277	-8191	255	
2252.527	1	1	0	0	0.10042	0.11911	0.32343	0.16282	0.13388	0.11633	0.2373	0.14973	0.20298	0.081988	0.22502	0.069926	0.13075	0.11671	0.056432	0.068531	-1.8708	-2.8604	-2.3667	-2.9042	-2.8729	-2.4708	-2.8417	-2.7542	-2.5208	-2.9188	-2.6271	-2.6604	-2.9125	-2.5062	-2.6437	-2.5875	234.712	377.599	289.954	346.102	172.793	478.607	335.595	475.832	365.592	138.098	381.458	206.047	200.278	428.356	494.783	427.136	0.0011667	0.00025906	0.00016741	1058.3	1.069e-05	7.4666e-06	888.14	364.25	7.168e-06	6.3607e-06	333.08	108.69	113.21	43.413	5.122e-06	44.665	0.0011356	0.0012774	0.00037011	1051.9	1.3095e-05	1.4273e-05	876.96	361.81	1.3155e-05	1.421e-05	331.94	108.39	112.99	43.761	1.3537e-05	44.843	348.819	161.838	237.162	150.394	288.317	282.223	148.671	155.454	290.695	296.732	153.467	157.324	160.378	164.392	284.754	161.296	-8191	255	
2252.648	1	1	0	0	0.29545	0.13655	0.13507	0.32294	0.14257	0.10452	0.17287	0.27897	0.056023	0.14465	0.093674	0.084907	0.14368	0.14341	0.24252	0.27061	-1.9646	-2.9	-2.5417	-2.6667	-2.6896	-2.3688	-2.7333	-2.7458	-2.3229	-2.8875	-2.6	-2.6417	-2.825	-2.3708	-2.6104	-2.7438	152.176	412.967	405.685	477.240	357.988	459.880	489.986	146.190	451.068	260.520	142.498	462.098	494.601	210.687	374.623	494.351	0.0011275	0.00040744	0.00016009	1059	7.0323e-06	3.4003e-06	885.74	363.97	1.3397e-05	5.2827e-06	335.07	109.92	113.86	43.58	3.3084e-06	45.43	0.0011177	0.0012907	0.00035789	1052.5	1.2893e-05	1.4012e-05	878.94	362.89	1.3492e-05	1.4233e-05	334.22	109.41	113.65	44.019	1.3815e-05	45.574	347.557	254.243	195.736	150.435	295.009	291.594	148.813	155.442	281.146	279.154	153.280	157.414	160.513	164.345	242.356	160.776	-8191	255	
2252.720	1	1	0	0	0.012761	0.08846	0.10052	0.12268	0.20658	0.27963	0.085391	0.16378	0.28993	0.053544	0.097704	0.22714	0.26981	0.20751	0.36796	0.11223	-2.0563	-2.7646	-2.3917	-2.7646	-2.8063	-2.3563	-2.8729	-2.8417	-2.4104	-2.6521	-2.5604	-2.45	-2.6437	-2.5583	-2.6562	-2.9313	183.985	301.306	374.611	488.178	244.602	230.838	453.855	464.776	314.594	362.454	161.086	487.350	210.123	248.606	489.764	480.388	0.001272	0.00029475	0.00011365	1065.1	2.1313e-06	4.1067e-06	890.31	366.57	1.147e-05	2.8623e-06	337.12	111.35	114.97	44.165	7.0431e-06	46.243	0.0011121	0.0013016	0.00036224	1058.2	1.3273e-05	1.406e-05	883.83	365.29	1.3433e-05	1.4137e-05	337.03	110.6	114.79	44.445	1.3737e-05	46.4	347.109	233.252	193.679	150.387	312.255	261.286	148.531	155.417	291.622	313.316	152.978	157.582	160.560	164.379	279.074	160.980	-8191	255	
2252.840	1	1	0	0	0.10358	0.25347	0.3391	0.11033	0.098834	0.048783	0.2422	0.081334	0.19873	0.319	0.20322	0.25344	0.11343	0.066715	0.18	0.15018	-1.9	-2.4583	-2.6021	-2.6312	-2.7604	-2.4958	-2.7313	-2.8854	-2.6375	-2.8375	-2.8854	-2.6	-2.9083	-2.6146	-2.6083	-2.8458	488.545	385.569	220.305	425.150	188.953	339.424	180.093	406.446	356.010	296.421	482.337	280.892	161.938	231.190	430.248	365.942	0.0012472	0.00050849	3.097e-05	1072.3	1.1264e-05	5.3037e-06	896.42	369.32	8.8045e-06	7.5601e-06	337.97	112.19	115.4	44.127	6.0685e-06	45.681	0.0011336	0.0012766	0.00035905	1065.3	1.3234e-05	1.4239e-05	889.24	367.21	1.3308e-05	1.4199e-05	338.91	111.48	115.12	44.53	1.3703e-05	46.179	347.221	203.411	260.293	150.274	255.094	292.531	148.638	155.556	291.942	264.678	153.194	157.429	160.554	164.564	261.940	160.830	-8191	255	
2252.935	1	1	0	0	0.023809	0.12199	0.16561	0.12207	0.024793	0.41207	0.40358	0.062251	0.27504	0.020572	0.094587	0.15351	0.042513	0.057426	0.087272	0.065922	-1.7812	-2.5687	-2.7833	-2.4875	-2.6979	-2.5458	-2.6437	-2.8042	-2.4271	-2.6979	-2.825	-2.4083	-2.8604	-2.6021	-2.55	-2.7875	446.039	453.613	345.560	392.861	335.907	142.059	443.026	487.122	153.675	246.447	365.939	424.544	399.335	398.992	310.602	467.693	0.001292	0.00054359	0.00018501	1062.5	3.5446e-06	5.8126e-06	886.48	367.32	6.8146e-06	3.2616e-06	331.52	109.41	113.67	43.26	6.2666e-06	44.345	0.0011519	0.0012955	0.00035783	1058.1	1.3254e-05	1.4132e-05	878.06	364.94	1.3468e-05	1.4146e-05	331.72	108.59	113.65	43.761	1.3624e-05	44.738	346.402	239.876	237.737	150.257	288.712	285.353	148.934	155.389	303.231	356.304	152.800	157.261	160.283	164.490	257.862	161.168	-8191	255	
2253.031	1	1	0	0	0.24347	0.12097	0.24354	0.095471	0.089193	0.09299	0.20293	0.20084	0.14383	0.19218	0.33815	0.082806	0.16441	0.19879	0.24766	0.17653	-2.0646	-2.6125	-2.7625	-2.6458	-2.7417	-2.5396	-2.6229	-2.9083	-2.4958	-2.6146	-2.7771	-2.4604	-2.7875	-2.8167	-2.5125	-2.9	376.955	148.754	159.162	143.091	282.409	385.387	306.186	484.172	230.485	224.859	346.335	400.331	169.177	187.300	331.776	443.710	0.0012606	0.00061543	7.7519e-05	1062.2	1.1444e-05	6.7097e-06	879.3	363.23	1.0367e-05	2.8275e-06	329.4	108.82	113.95	43.568	5.7963e-06	44.5	0.0011334	0.0012975	0.00036051	1055.3	1.3269e-05	1.3957e-05	872.41	362.72	1.3219e-05	1.4186e-05	330.91	108.56	113.65	43.912	1.3744e-05	44.893	347.410	224.503	245.843	150.294	301.349	296.152	148.813	155.432	297.458	263.370	152.987	157.424	160.271	164.227	295.081	160.967	-8191	255	
2253.127	1	1	0	0	0.26845	0.20546	0.38315	0.29863	0.094336	0.036786	0.21122	0.20464	0.077784	0.14308	0.01689	0.25131	0.068579	0.064511	0.14867	0.16217	-2.0667	-2.5729	-2.6125	-2.55	-2.6729	-2.6208	-2.35	-2.7583	-2.4458	-2.4625	-2.7708	-2.4979	-2.7833	-2.6625	-2.4667	-2.775	297.699	218.540	482.338	481.818	356.743	488.443	355.529	429.625	237.301	327.060	274.029	492.928	496.932	169.795	322.099	329.487	0.0012107	0.00016087	0.00013154	1060.5	8.2576e-06	1.5703e-06	885.76	363.07	1.1462e-05	6.6955e-06	332.53	109.76	113.48	43.46	9.1914e-06	45.006	0.0011375	0.0013045	0.00036016	1054.1	1.3152e-05	1.4537e-05	875.5	361.82	1.3462e-05	1.4549e-05	332.24	109.38	113.42	43.916	1.3907e-05	45.526	344.815	161.914	211.616	150.384	317.414	437.920	148.467	155.416	292.705	326.450	153.011	157.584	160.580	164.275	267.154	160.811	-8191	255	
2253.248	1	1	0	0	0.068231	0.2002	0.17312	0.21033	0.26626	0.16703	0.13484	0.19152	0.27139	0.1333	0.18419	0.21944	0.14349	0.2027	0.15344	0.24864	-2.2313	-2.3688	-2.7417	-2.6813	-2.5021	-2.7521	-2.4333	-2.7958	-2.5625	-2.4875	-2.7833	-2.5563	-2.7854	-2.6479	-2.3354	-2.7396	181.598	463.571	460.550	488.861	385.493	302.542	460.057	472.928	420.477	437.780	489.603	326.610	496.368	429.290	283.579	250.208	0.0011556	0.00080967	0.0001169	1058.1	8.0349e-06	6.3582e-06	890.1	365.15	1.049e-05	6.3018e-06	336.07	111.11	114.38	44.172	8.7035e-06	46.288	0.0011193	0.0013386	0.00036193	1055.4	1.3227e-05	1.4505e-05	886.38	364.18	1.3729e-05	1.4983e-05	337.11	110.76	114.51	44.58	1.4223e-05	46.864	348.932	221.870	239.970	150.368	290.831	279.169	148.768	155.336	293.461	284.111	153.154	157.504	160.404	164.327	294.218	160.843	-8191	255	
2253.319	1	1	0	0	0.22213	0.095962	0.14907	0.3752	0.10245	0.28847	0.26701	0.1757	0.20436	0.13377	0.13683	0.037523	0.23469	0.090656	0.04264	0.085118	-2.1792	-2.4062	-2.7333	-2.8729	-2.5104	-2.675	-2.6292	-2.9375	-2.6021	-2.375	-2.8271	-2.7062	-2.5958	-2.8063	-2.525	-2.8208	375.293	445.803	472.172	479.636	374.469	456.972	193.522	437.726	188.199	476.903	190.232	207.533	472.815	495.562	226.562	276.544	0.0012237	0.00073138	7.9789e-05	1062.1	9.7551e-06	5.2542e-06	892.2	364.93	2.1191e-06	8.0638e-06	334.62	110.06	114.27	43.596	8.1006e-06	44.897	0.0011676	0.0013358	0.00037493	1056.9	1.3412e-05	1.4692e-05	881.7	364	1.3669e-05	1.441e-05	334.79	109.45	113.85	44.054	1.4209e-05	45.077	347.298	220.075	207.973	150.313	299.376	249.271	148.714	155.498	235.931	302.333	152.801	157.579	160.629	164.424	281.668	161.315	-8191	255	
2253.415	1	1	0	0	0.20825	0.23942	0.058333	0.10802	0.099767	0.2358	0.3155	0.10022	0.24328	0.29746	0.191	0.17496	0.19442	0.20428	0.28536	0.046149	-2.1854	-2.3417	-2.7708	-2.5812	-2.5917	-2.7875	-2.5458	-2.7687	-2.7854	-2.4313	-2.8229	-2.5312	-2.4208	-2.9979	-2.5	-2.6021	300.281	272.490	319.646	486.676	142.378	487.820	481.100	330.300	241.843	261.621	208.572	477.477	170.823	162.074	212.586	197.511	0.0012159	0.0002863	5.1424e-05	1059.3	1.2547e-05	4.8239e-06	882.89	365.16	1.1728e-05	5.2785e-06	333.9	109.53	113.93	43.735	5.6395e-06	44.795	0.0011333	0.0013134	0.00037445	1053.6	1.3559e-05	1.4563e-05	877.41	364.57	1.3719e-05	1.468e-05	333.76	108.88	114.06	44.173	1.4237e-05	45.167	345.358	245.832	177.479	150.446	310.630	261.557	149.069	155.447	288.980	318.009	153.015	157.459	160.334	164.541	284.109	161.366	-8191	255	
2253.512	1	1	0	0	0.11131	0.093681	0.074625	0.2804	0.25745	0.04173	0.17826	0.28736	0.15873	0.12155	0.21204	0.1891	0.1006	0.2979	0.19138	0.21398	-2.2083	-2.3333	-2.8667	-2.7104	-2.525	-2.8167	-2.7771	-2.7208	-2.8229	-2.5438	-2.8458	-2.6979	-2.4688	-2.8208	-2.4521	-2.7125	468.052	373.860	217.322	440.758	179.258	485.746	401.797	416.405	149.051	425.925	389.682	430.816	396.943	412.073	398.304	460.127	0.0012897	0.00024001	0.00011971	1062.8	1.2782e-05	5.4839e-06	889.83	366.98	8.6297e-06	6.1009e-06	336.36	110.14	114.1	43.753	4.8715e-06	45.177	0.0011647	0.0013437	0.00037168	1058.3	1.3801e-05	1.4432e-05	882.67	365.42	1.4129e-05	1.4963e-05	336.73	109.8	114.56	44.255	1.4404e-05	45.729	342.636	290.550	185.859	150.127	300.581	313.450	148.988	155.434	293.859	265.382	153.340	157.659	160.246	164.471	299.365	161.006	-8191	255	
2253.608	1	1	0	0	0.1942	0.42474	0.23088	0.33114	0.074294	0.1482	0.16766	0.055978	0.10503	0.080572	0.1922	0.17261	0.34848	0.091153	0.074686	0.25622	-2.3646	-2.3479	-2.7708	-2.5833	-2.2938	-2.7104	-2.6437	-2.5958	-2.8438	-2.6896	-2.7687	-2.6354	-2.5354	-2.9292	-2.4917	-2.6771	452.230	170.526	335.392	441.415	466.482	248.260	346.938	205.996	225.119	210.170	354.557	162.570	396.480	492.447	386.908	148.930	0.0013043	0.00069683	0.0001311	1061.7	1.2089e-05	2.7108e-06	895.85	367.33	8.3413e-06	3.9621e-06	338.07	112.01	115.34	44.121	6.3387e-06	46.353	0.0011644	0.0013816	0.00037102	1059.3	1.4062e-05	1.5077e-05	889.52	366.08	1.4232e-05	1.5258e-05	339.7	111.54	115.08	44.649	1.4601e-05	46.806	347.268	206.033	226.602	150.443	281.499	280.693	148.693	155.523	303.220	277.680	152.818	157.463	160.535	164.659	254.595	160.871	-8191	255	
2253.728	1	1	0	0	0.075104	0.17768	0.069746	0.16056	0.28536	0.35582	0.14477	0.19909	0.34919	0.15397	0.03526	0.11137	0.16701	0.076878	0.038734	0.043987	-2.3833	-2.3208	-2.6021	-2.8333	-2.3125	-2.625	-2.5812	-2.3583	-2.775	-2.4375	-2.5854	-2.9479	-2.3812	-2.7708	-2.5479	-2.3438	345.666	165.053	461.864	440.666	154.902	404.883	174.917	481.318	348.907	287.644	433.682	381.618	437.293	144.199	408.025	232.390	0.0012943	0.00044866	0.00019621	1071.1	5.9998e-06	4.6129e-06	907.29	369.98	1.2797e-05	3.1167e-06	342.09	111.93	115.75	44.324	4.3232e-06	45.227	0.001185	0.0014125	0.00038047	1065.2	1.4107e-05	1.5275e-05	898.93	369.02	1.4285e-05	1.5368e-05	341.22	111.4	115.21	44.64	1.4524e-05	45.725	348.904	204.593	230.767	150.464	267.079	304.674	148.621	155.247	298.630	273.740	152.927	157.343	160.085	164.769	252.981	160.967	-8191	255	
2253.824	1	1	0	0	0.18711	0.25118	0.35628	0.11937	0.07714	0.19185	0.29209	0.17388	0.10907	0.19892	0.15805	0.10072	0.086033	0.10847	0.13074	0.15123	-2.4313	-2.4437	-2.6437	-2.8125	-2.3917	-2.825	-2.6229	-2.6458	-2.8833	-2.3958	-2.6625	-2.8583	-2.4042	-2.8271	-2.7208	-2.5271	252.872	325.505	226.277	423.462	206.362	420.704	149.812	390.742	237.762	277.273	339.974	238.242	354.137	489.188	265.044	171.474	0.0012434	8.4289e-05	5.7872e-05	1066.6	7.6645e-06	3.065e-06	895.12	369.06	9.9686e-06	4.5904e-06	338.13	110.26	115.53	44.076	7.6447e-06	44.201	0.0011634	0.001386	0.00038186	1060.5	1.4443e-05	1.5369e-05	885.97	367.89	1.4306e-05	1.5689e-05	336.53	109.83	115.07	44.382	1.4855e-05	44.88	345.598	175.247	262.863	150.464	328.372	205.769	148.757	155.438	273.498	344.477	153.431	157.544	160.304	164.774	291.058	160.947	-8191	255	
2253.921	1	1	0	0	0.12128	0.1487	0.18703	0.24648	0.21264	0.064716	0.17212	0.20157	0.18891	0.13813	0.26956	0.061955	0.51099	0.2275	0.052225	0.094033	-2.3021	-2.2417	-2.5146	-2.9125	-2.2042	-2.675	-2.8167	-2.4042	-2.8042	-2.4021	-2.65	-2.9646	-2.4521	-2.7958	-2.775	-2.5854	395.363	155.964	431.902	456.460	478.707	301.289	440.984	420.166	413.804	191.526	153.870	474.459	178.014	487.882	403.971	333.789	0.001272	0.00045768	0.00013069	1058.6	9.0651e-06	7.3774e-06	889.03	367.89	9.3773e-06	3.6928e-06	336.51	110.64	115.54	44.03	7.4759e-06	44.935	0.0011894	0.001378	0.00039234	1057.6	1.4003e-05	1.5033e-05	881.43	366.78	1.4107e-05	1.5128e-05	336.5	109.88	114.74	44.238	1.4722e-05	45.263	346.128	287.735	220.001	150.234	287.768	303.201	148.625	155.270	294.499	293.497	153.187	157.750	160.309	164.264	281.901	161.011	-8191	255	
2254.015	1	1	0	0	0.19124	0.082266	0.031167	0.28117	0.037784	0.14952	0.41695	0.14847	0.10154	0.055484	0.045893	0.22111	0.16343	0.2639	0.18142	0.057787	-2.425	-2.5771	-2.4313	-2.8146	-2.6208	-2.6604	-2.9542	-2.5062	-2.9042	-2.6229	-2.5167	-2.9354	-2.4854	-2.7271	-2.6937	-2.3521	469.033	464.325	209.816	425.883	461.433	404.303	465.770	455.672	221.438	158.577	146.106	391.354	343.509	161.393	144.424	386.538	0.0012719	0.00046104	0.0001186	1063.4	1.1887e-05	4.8447e-06	891.66	368.16	9.1019e-06	5.9479e-06	336.98	110.69	114.64	43.562	7.6708e-06	45.252	0.0011841	0.0013742	0.0003869	1058.4	1.4322e-05	1.5108e-05	885.16	366.2	1.4078e-05	1.5246e-05	337.43	110.09	114.41	44.179	1.4933e-05	45.729	351.727	215.217	211.850	150.151	301.670	290.735	148.645	155.332	307.417	242.967	153.002	157.613	160.813	164.694	298.251	160.916	-8191	255	
2254.111	1	1	0	0	0.017901	0.21616	0.17474	0.15812	0.22597	0.33474	0.15017	0.046189	0.37738	0.21959	0.28416	0.1736	0.16265	0.13296	0.28556	0.13758	-2.2042	-2.4354	-2.5042	-2.9062	-2.4104	-2.6604	-2.8354	-2.5417	-2.5375	-2.675	-2.5583	-2.675	-2.5125	-2.4688	-2.7646	-2.3896	201.437	216.324	178.526	473.468	271.430	220.139	401.894	202.358	333.464	496.186	423.702	453.879	314.678	487.512	313.128	411.967	0.0012138	0.00031822	0.00014273	1064.4	1.2004e-05	4.8067e-06	899.24	367.37	5.3133e-06	1.8566e-06	338.26	111.11	114.8	43.656	9.16e-06	45.023	0.0011711	0.0014203	0.00038985	1059.9	1.4333e-05	1.5502e-05	891.05	366.82	1.4221e-05	1.5603e-05	338.35	110.74	114.18	44.09	1.4969e-05	45.277	349.645	215.517	219.663	150.638	268.910	328.349	148.841	155.585	296.836	288.932	153.216	157.340	160.373	164.408	269.202	161.115	-8191	255	
2254.209	1	1	0	0	0.17003	0.20009	0.082471	0.25549	0.21802	0.18578	0.24395	0.079533	0.023483	0.23688	0.18064	0.09267	0.15546	0.23392	0.27074	0.31927	-1.9958	-2.5833	-2.3792	-2.9062	-2.4271	-2.5938	-2.7313	-2.5375	-2.5958	-2.4729	-2.3104	-2.8083	-2.5979	-2.5333	-2.4729	-2.3646	403.562	331.997	321.538	435.418	362.812	259.369	406.237	180.374	188.358	495.356	413.528	354.897	434.726	190.311	346.932	440.681	0.0012187	0.00032555	0.00020403	1051.6	8.1287e-06	2.9106e-06	878.39	363.47	1.1832e-05	2.7248e-06	330.67	108.02	112.3	43.049	4.1727e-06	43.378	0.0011845	0.0013899	0.00038359	1047.5	1.3917e-05	1.5101e-05	874.8	362.13	1.4046e-05	1.5133e-05	331.3	107.78	112.62	43.433	1.4497e-05	43.885	344.785	179.054	238.077	150.235	288.904	276.522	148.569	155.406	288.665	288.022	153.089	157.482	160.760	164.685	291.464	161.108	-8191	255	
2254.328	1	1	0	0	0.17424	0.32834	0.15278	0.17048	0.05452	0.071381	0.03256	0.18371	0.056869	0.12477	0.14634	0.16694	0.12214	0.12429	0.17306	0.25658	-1.9875	-2.6063	-2.3354	-2.7542	-2.6188	-2.3417	-2.6833	-2.2729	-2.4604	-2.5375	-2.5354	-2.525	-2.3312	-2.5125	-2.7792	-2.5917	364.569	255.214	337.147	144.520	378.082	306.992	361.159	456.854	167.347	213.372	366.172	423.281	421.553	308.598	184.973	427.139	0.0011782	0.00042782	0.00012791	1046.3	6.833e-06	4.1187e-06	879.82	360.94	4.5037e-06	7.7423e-06	330.09	107.89	111.96	42.916	3.2854e-06	43.56	0.0011764	0.0013923	0.00038784	1042.9	1.4238e-05	1.5134e-05	872.68	360.56	1.4324e-05	1.5279e-05	330.87	107.82	112.54	43.467	1.4518e-05	44.219	347.961	226.490	218.230	150.388	310.597	302.840	148.818	155.445	294.180	299.246	153.108	157.252	160.454	164.486	286.043	160.658	-8191	255	
2254.424	1	1	0	0	0.30567	0.24403	0.047863	0.27278	0.17628	0.23091	0.22366	0.19885	0.097936	0.074174	0.092612	0.025866	0.20698	0.074439	0.14265	0.15049	-1.95	-2.4771	-2.4646	-2.6625	-2.6354	-2.3354	-2.9958	-2.6917	-2.4646	-2.9479	-2.5312	-2.7333	-2.6729	-2.2771	-2.6667	-2.5292	273.484	368.366	297.807	441.250	178.384	444.362	448.224	445.459	425.898	472.846	314.096	362.598	305.118	364.884	151.632	139.585	0.0012	0.00047208	0.0001322	1050	1.2122e-05	5.0074e-06	888.86	363.33	8.5072e-06	6.2648e-06	331.58	109.07	113.42	43.295	6.055e-06	44.53	0.0011753	0.001391	0.00038188	1047.5	1.3693e-05	1.501e-05	879.91	361.81	1.378e-05	1.4951e-05	333.62	108.93	112.85	43.509	1.4473e-05	44.905	346.912	226.921	225.723	150.400	308.526	273.744	148.839	155.561	301.129	280.816	153.248	157.490	160.418	164.477	267.234	160.903	-8191	255	
2254.520	1	1	0	0	0.075923	0.17572	0.21636	0.34358	0.12752	0.31764	0.32442	0.42696	0.22521	0.020362	0.29898	0.26692	0.27132	0.35621	0.087178	0.15281	-2.0396	-2.7104	-2.3833	-2.725	-2.6917	-2.4125	-2.7188	-2.65	-2.4917	-2.7646	-2.4354	-2.7167	-2.7104	-2.3146	-2.6292	-2.7792	151.685	462.050	201.272	402.681	369.683	287.104	444.640	418.965	268.708	390.799	371.234	497.187	167.485	143.734	310.359	480.843	0.0012552	0.00059733	0.00020101	1043.8	8.612e-06	8.5255e-07	898.76	360.03	8.429e-06	4.0431e-06	335.6	110.11	112.52	43.017	5.5815e-06	45.326	0.0011776	0.0013491	0.0003767	1040	1.3457e-05	1.4986e-05	887.65	359.45	1.3981e-05	1.5015e-05	336.46	109.96	112.45	43.438	1.4258e-05	45.701	347.072	222.187	228.959	150.233	291.981	268.212	148.565	155.606	315.113	262.103	153.280	157.466	160.457	164.513	265.612	160.898	-8191	255	
2254.616	1	1	0	0	0.076318	0.099728	0.1734	0.076418	0.23224	0.30827	0.18844	0.11581	0.079415	0.35671	0.063787	0.14907	0.32776	0.48181	0.19113	0.24104	-2.0812	-2.7687	-2.4875	-2.6562	-2.5583	-2.2854	-2.7708	-2.7479	-2.3563	-2.8312	-2.5021	-2.4604	-2.7271	-2.4021	-2.5938	-2.5625	205.452	409.054	197.282	194.969	216.056	317.102	284.075	496.977	147.967	402.028	447.168	440.780	446.531	138.387	356.015	385.284	0.0012636	0.00030236	9.832e-05	1046.9	7.9421e-06	5.353e-06	890.14	361.33	9.3494e-06	6.3842e-06	331.32	108.56	112.06	42.516	7.6287e-06	43.78	0.0011743	0.001335	0.00037433	1042.1	1.3586e-05	1.484e-05	884.13	358.89	1.4346e-05	1.4874e-05	333.27	108.37	111.9	42.996	1.4351e-05	44.182	345.535	213.826	266.028	150.389	299.731	283.027	148.822	155.370	322.734	295.268	153.237	157.664	160.357	164.452	269.432	160.966	-8191	255	
2254.713	1	1	0	0	0.085164	0.17801	0.054414	0.20513	0.060902	0.13195	0.11807	0.1766	0.13978	0.20795	0.087172	0.15828	0.17428	0.15607	0.21336	0.13746	-1.9396	-2.6854	-2.4625	-2.5958	-2.8729	-2.2188	-2.6104	-2.75	-2.3875	-2.6792	-2.7333	-2.5	-2.9021	-2.4417	-2.3833	-2.5667	303.311	208.897	419.891	149.136	303.688	237.353	238.385	412.894	293.400	189.593	430.994	461.781	254.777	472.374	414.573	419.990	0.0011748	0.0005827	0.00019107	1034.8	1.027e-05	6.1037e-06	878.21	356.96	7.7542e-06	4.2013e-06	330.8	107.8	110.95	42.234	9.6947e-06	43.484	0.0011519	0.0012927	0.00037285	1033.5	1.362e-05	1.4434e-05	875.28	357.34	1.3755e-05	1.4532e-05	331.15	107.49	111.42	42.865	1.4008e-05	43.997	347.536	234.220	247.740	149.984	297.810	288.919	148.677	155.223	275.950	315.220	153.064	157.422	160.388	164.447	284.405	160.852	-8191	255	
2254.809	1	1	0	0	0.26799	0.21834	0.26524	0.043787	0.098117	0.044746	0.15599	0.22001	0.07305	0.10947	0.22757	0.04244	0.022319	0.15156	0.25198	0.38084	-1.8021	-2.6937	-2.4333	-2.5812	-2.7021	-2.4938	-2.6708	-2.7708	-2.4458	-2.7458	-2.7521	-2.3708	-2.8958	-2.6708	-2.6104	-2.7833	431.068	486.099	181.706	381.893	448.669	421.835	143.925	160.244	269.610	286.587	435.885	226.056	277.405	211.036	163.587	218.700	0.0012283	0.00058398	0.00022336	1040.5	1.0711e-05	2.5471e-06	887.26	358.59	1.058e-05	6.0149e-06	333.17	109.15	111.94	42.773	2.3163e-06	44.358	0.0011418	0.0013356	0.00037431	1035.8	1.3641e-05	1.4601e-05	879.27	357.65	1.39e-05	1.4691e-05	332.22	108.21	111.75	43.111	1.4061e-05	44.543	348.014	227.350	212.408	150.246	295.390	293.064	148.788	155.181	283.747	320.030	153.517	157.293	160.462	164.381	313.195	161.114	-8191	255	
2254.905	1	1	0	0	0.10895	0.09632	0.20053	0.19333	0.054273	0.17163	0.086527	0.12545	0.12239	0.030776	0.10264	0.24931	0.16577	0.12988	0.18405	0.042732	-1.9979	-2.6896	-2.7417	-2.5187	-2.7687	-2.4562	-2.7042	-3.0062	-2.2396	-2.7292	-2.6646	-2.3854	-2.7417	-2.6292	-2.5083	-3.0229	264.881	205.233	428.807	173.928	316.653	347.910	338.868	180.764	295.896	350.383	345.645	341.698	425.131	454.485	385.823	223.906	0.0012309	0.00039261	0.0001934	1046	6.5405e-06	5.5975e-06	894.61	360.89	1.0179e-05	2.0756e-06	336.21	110.19	112.89	42.981	6.489e-06	45.1	0.0011634	0.0013629	0.00037716	1037.8	1.3646e-05	1.4974e-05	883.56	358.69	1.404e-05	1.4778e-05	335.47	109.51	112.52	43.537	1.4298e-05	45.469	349.412	244.675	224.371	150.269	285.943	253.765	148.818	155.334	265.501	333.247	153.188	157.295	160.319	164.633	289.449	160.688	-8191	255	
2255.024	1	1	0	0	0.17192	0.27332	0.25041	0.022974	0.067929	0.040867	0.21484	0.29109	0.1334	0.21178	0.061569	0.1707	0.14337	0.2323	0.15875	0.25839	-2.0312	-2.575	-2.6083	-2.5333	-2.7167	-2.4708	-2.5438	-2.9625	-2.4646	-2.6646	-2.775	-2.3875	-2.8375	-2.6396	-2.3438	-2.7062	361.519	180.810	375.315	140.240	185.821	256.798	357.553	462.303	209.192	227.872	368.498	402.668	163.248	191.568	390.490	216.404	0.0012541	0.00037763	0.00015182	1050.3	7.2066e-06	6.1323e-06	892.7	362.33	1.1023e-05	4.8178e-06	332.5	109.08	113.03	42.973	6.1996e-06	43.984	0.0011675	0.0013897	0.00037882	1045	1.3583e-05	1.4948e-05	890.54	361.14	1.4025e-05	1.5139e-05	333.85	108.73	112.43	43.303	1.4535e-05	44.308	346.696	200.100	236.963	150.318	281.442	306.355	148.709	155.437	295.272	290.823	153.216	157.349	160.537	164.578	312.809	160.817	-8191	255	
2255.120	1	1	0	0	0.2273	0.25508	0.082394	0.44056	0.069788	0.072838	0.05628	0.1249	0.065938	0.092343	0.22782	0.013786	0.18736	0.17152	0.11472	0.17465	-2.0812	-2.775	-2.7521	-2.475	-2.9021	-2.4188	-2.3854	-2.7625	-2.575	-2.7188	-2.7292	-2.4667	-2.7521	-2.7875	-2.4583	-2.9188	448.266	430.289	488.866	447.748	343.088	436.688	232.534	438.998	311.460	352.536	288.189	209.152	479.299	453.472	465.519	393.724	0.0011993	0.00035838	0.00014211	1042.2	4.7427e-06	4.625e-06	880.37	359.92	9.1868e-06	1.8795e-06	329.39	107.62	112.43	42.809	8.041e-06	43.058	0.0011672	0.0013776	0.00037024	1038.5	1.4025e-05	1.4711e-05	874.62	358.81	1.4209e-05	1.5203e-05	329.14	106.92	112.12	43.031	1.4647e-05	43.605	348.127	212.728	207.953	150.449	272.682	251.411	148.766	155.352	270.937	301.053	152.910	157.473	160.681	164.366	290.055	161.066	-8191	255	
2255.192	1	1	0	0	0.11817	0.10234	0.033903	0.06231	0.17709	0.05949	0.21421	0.36091	0.12456	0.12093	0.13672	0.028729	0.1027	0.10324	0.16079	0.13326	-1.8854	-2.4562	-2.8021	-2.5687	-2.8229	-2.6667	-2.5208	-2.8312	-2.4813	-2.525	-2.9313	-2.4104	-2.5521	-2.7792	-2.3917	-2.5875	258.704	385.629	344.655	246.299	375.087	412.810	169.886	440.894	319.766	239.994	464.336	388.991	480.118	390.843	384.128	187.371	0.0010714	0.00052863	0.0002373	1050.2	7.4385e-06	5.3727e-06	882.37	359.36	6.1358e-06	3.7872e-06	327.79	107.39	112.34	42.6	5.2361e-06	43.469	0.0011326	0.0013862	0.00037728	1043.6	1.3752e-05	1.4894e-05	874	359.27	1.3778e-05	1.5458e-05	328.76	107.06	112.13	43.034	1.4443e-05	43.839	346.211	191.659	267.341	150.389	305.622	299.436	148.944	155.457	359.362	309.726	153.034	157.515	160.465	164.565	277.170	161.070	-8191	255	
2255.289	1	1	0	0	0.23366	0.14862	0.095682	0.26336	0.11639	0.20151	0.16042	0.28289	0.064808	0.11006	0.047656	0.13488	0.12963	0.11869	0.07764	0.27124	-2.1146	-2.4458	-2.8312	-2.6958	-2.6521	-2.8125	-2.3708	-2.7812	-2.5312	-2.325	-2.9667	-2.5083	-2.5542	-2.6271	-2.5354	-2.8521	264.645	377.158	306.851	416.424	431.149	391.162	317.506	417.830	206.387	410.986	350.904	403.442	315.982	268.541	431.748	466.039	0.0012353	0.00036443	0.00012394	1049	6.8251e-06	5.6326e-06	878.28	359.94	1.3544e-05	4.8951e-06	327.47	106.76	111.76	42.78	7.9469e-06	44.433	0.0011521	0.0013324	0.0003791	1044	1.3702e-05	1.4745e-05	872.98	359.5	1.4184e-05	1.5087e-05	329.68	107.61	112.28	43.253	1.4323e-05	44.558	347.301	269.823	214.226	150.306	321.845	312.415	148.520	155.131	285.257	300.003	152.831	157.347	160.139	164.559	260.375	161.243	-8191	255	
2255.408	1	1	0	0	0.11712	0.31828	0.099987	0.1877	0.056926	0.023178	0.086547	0.19187	0.11184	0.24053	0.19248	0.17876	0.14906	0.1755	0.18427	0.14969	-2.0062	-2.4792	-2.6292	-2.6271	-2.3604	-2.7625	-2.4437	-2.8229	-2.6875	-2.5083	-2.7875	-2.5812	-2.4917	-2.9083	-2.3104	-2.9042	155.915	337.693	426.265	415.693	378.088	435.270	495.090	482.212	386.418	462.652	447.693	392.136	368.880	336.038	478.538	465.749	0.0011802	0.00065995	0.00016012	1056.2	8.3911e-06	2.3835e-06	888.67	363.43	6.0037e-06	7.5037e-06	332.87	109.05	113.56	43.09	6.6009e-06	44.174	0.0011521	0.0013502	0.00037131	1050.7	1.3773e-05	1.4758e-05	878.02	361.57	1.3799e-05	1.499e-05	333.35	108.92	113.02	43.505	1.4721e-05	44.551	347.427	233.713	190.528	150.164	298.819	357.441	148.948	155.518	302.457	283.470	153.088	157.527	160.699	164.570	244.602	160.709	-8191	255	
2255.504	1	1	0	0	0.10547	0.17529	0.13308	0.030312	0.13332	0.13666	0.33245	0.1862	0.32568	0.10057	0.043828	0.13968	0.1448	0.1066	0.15465	0.18187	-2.2104	-2.4688	-2.7292	-2.6083	-2.5083	-3.0125	-2.4958	-2.6021	-2.7729	-2.2458	-2.725	-2.7646	-2.5	-2.9083	-2.4646	-2.7042	426.982	360.224	193.672	325.260	405.971	292.727	393.205	273.501	239.032	345.103	383.301	284.655	431.386	223.606	363.424	442.022	0.0011503	0.00038292	8.3965e-05	1049.9	1.0958e-05	5.2621e-06	876.48	360.68	1.0847e-05	4.591e-06	327.26	107.28	111.58	42.531	6.1419e-06	42.918	0.0011369	0.0013449	0.00036132	1045.7	1.3292e-05	1.4545e-05	868.32	359.69	1.3712e-05	1.4649e-05	327.34	106.66	111.82	42.949	1.4152e-05	43.358	349.065	216.107	169.373	150.270	295.337	276.843	148.961	155.248	291.202	273.918	153.720	157.370	160.590	164.713	277.155	161.031	-8191	255	
2255.601	1	1	0	0	0.022603	0.25228	0.17104	0.18587	0.31075	0.076192	0.24908	0.11256	0.045589	0.02766	0.24746	0.41192	0.17755	0.091679	0.14407	0.07428	-2.2292	-2.175	-2.7229	-2.7562	-2.4667	-2.7167	-2.5958	-2.6875	-2.5792	-2.4458	-2.8208	-2.6458	-2.4375	-2.9292	-2.5938	-2.6625	452.023	459.020	298.950	158.379	385.865	193.956	389.195	290.930	366.013	192.971	409.894	383.432	171.032	185.963	244.738	412.738	0.0011618	0.00033403	0.00023372	1046.6	9.0572e-06	5.2959e-06	869.76	359.75	8.8827e-06	4.0758e-06	327.12	107.2	112.26	42.568	6.6254e-06	43.07	0.0011356	0.0013191	0.00035838	1044.8	1.349e-05	1.411e-05	864.28	359.74	1.3419e-05	1.4463e-05	327.5	106.89	112.4	43.231	1.3969e-05	43.779	344.038	165.708	225.850	150.198	281.104	307.464	148.829	155.169	296.054	331.770	152.707	157.493	160.442	164.246	280.750	160.877	-8191	255	
2255.721	1	1	0	0	0.22429	0.19356	0.024863	0.20544	0.18389	0.11784	0.070964	0.22844	0.10231	0.18408	0.08812	0.13973	0.013433	0.21793	0.029527	0.16845	-2.4667	-2.4	-2.6333	-2.7479	-2.2979	-2.7542	-2.6625	-2.6271	-2.8438	-2.3208	-2.6875	-2.6292	-2.4875	-2.8521	-2.5042	-2.4125	230.866	208.807	156.742	422.286	492.429	298.877	394.091	257.029	417.947	480.667	459.605	141.697	264.855	472.645	172.508	163.954	0.0011655	0.00047896	0.00010202	1054.5	3.1363e-06	5.0567e-06	873.57	362.88	7.2585e-06	5.0258e-06	327.16	107.2	111.87	42.713	6.7064e-06	43.667	0.0011319	0.001329	0.00036314	1050.7	1.3505e-05	1.4357e-05	867.67	361.78	1.358e-05	1.4573e-05	329.03	107.51	112.87	43.581	1.3917e-05	44.34	347.037	220.273	207.775	150.250	253.251	290.433	148.673	155.391	299.084	323.148	153.023	157.146	160.131	164.228	296.103	160.388	-8191	255	
2255.817	1	1	0	0	0.11691	0.070143	0.25598	0.37838	0.22845	0.093671	0.16565	0.11508	0.061891	0.25217	0.21254	0.29759	0.062619	0.22743	0.37412	0.17493	-2.2854	-2.4146	-2.6063	-2.7562	-2.3438	-2.8354	-2.6875	-2.5938	-2.775	-2.4625	-2.5771	-2.5917	-2.5604	-2.4417	-2.5458	-2.4021	371.358	434.232	405.582	480.898	300.773	316.232	137.496	414.069	292.630	226.695	433.614	468.861	469.871	487.281	186.785	474.076	0.0012414	0.0007331	7.767e-05	1054.9	9.0014e-06	6.8889e-06	869.33	359.87	1.1183e-05	4.5613e-06	326.7	107.73	113.09	43.098	5.7115e-06	44.371	0.0011266	0.0013342	0.00036942	1054.9	1.3629e-05	1.4257e-05	867.62	362.14	1.387e-05	1.4648e-05	329.03	108.04	113.56	43.81	1.4187e-05	44.903	346.768	247.072	184.639	149.977	297.624	280.114	148.558	155.090	308.677	280.518	152.842	157.096	160.213	164.187	289.132	160.736	-8191	255	
2255.889	1	1	0	0	0.21485	0.11326	0.14396	0.1338	0.12905	0.4123	0.25829	0.077209	0.32929	0.10425	0.2104	0.27881	0.37975	0.2446	0.11236	0.14372	-2.2604	-2.2938	-2.2938	-2.7021	-2.5146	-2.8458	-2.6625	-2.4729	-2.6188	-2.475	-2.5	-2.9708	-2.5396	-2.8104	-2.6646	-2.4813	384.056	253.549	439.571	473.771	347.564	310.377	180.358	477.031	438.049	171.358	449.046	173.250	155.680	407.688	438.489	447.887	0.0011465	0.00054281	0.00015279	1059.4	6.1087e-06	4.5121e-06	863.23	361.88	7.8591e-06	4.76e-06	321.85	106.26	112.76	42.981	6.4569e-06	42.827	0.0011353	0.001317	0.00037613	1055.6	1.3834e-05	1.4293e-05	857.01	361.01	1.3977e-05	1.4675e-05	323.6	106.04	112.69	43.287	1.3992e-05	43.326	352.801	255.316	200.546	150.177	292.723	334.639	148.597	155.247	296.035	249.207	152.954	157.328	160.387	164.324	294.938	160.842	-8191	255	
2256.010	1	1	0	0	0.23455	0.17661	0.19463	0.036103	0.15903	0.13527	0.22646	0.14515	0.038658	0.15868	0.25611	0.23936	0.033863	0.089178	0.11457	0.1791	-2.2062	-2.3917	-2.5083	-2.8729	-2.3042	-2.5208	-2.6188	-2.5604	-2.7729	-2.6708	-2.3292	-2.9625	-2.5167	-2.6833	-2.6729	-2.3396	442.395	316.242	339.537	150.609	149.209	432.384	475.138	221.045	380.889	198.851	178.425	464.093	273.818	427.674	364.526	431.550	0.0010549	0.00022873	6.2567e-05	1054.4	4.7259e-06	3.1742e-06	846.98	358.14	1.2175e-05	5.9846e-06	315.59	104.76	111.55	42.648	7.7714e-06	42.884	0.0011424	0.0013553	0.00037035	1050.9	1.3323e-05	1.4325e-05	843.92	359.07	1.3636e-05	1.4431e-05	319.7	105.03	112.36	43.374	1.4e-05	43.414	345.941	225.185	254.360	150.244	309.249	274.231	148.677	155.280	286.561	243.426	152.840	157.339	160.474	164.329	264.783	160.613	-8191	255	
2256.104	1	1	0	0	0.18327	0.073456	0.044063	0.23016	0.19645	0.097447	0.2987	0.38255	0.11327	0.16978	0.29606	0.16772	0.23842	0.25296	0.087058	0.25518	-2.1729	-2.5271	-2.4042	-2.6229	-2.4188	-2.5208	-2.6792	-2.4333	-2.7229	-2.5854	-2.4062	-2.7687	-2.3875	-2.675	-2.6708	-2.5417	402.592	317.011	246.114	476.220	379.238	339.224	416.821	457.927	491.548	333.653	385.745	456.886	415.860	214.567	365.405	381.287	0.0011911	0.00045996	0.00013004	1055.6	5.3626e-06	2.6926e-06	847.86	357.99	1.0752e-05	6.7562e-06	320.06	105.66	113.59	43.564	9.6393e-06	43.193	0.0011371	0.0013304	0.00037474	1055.3	1.3057e-05	1.4217e-05	845.94	360.31	1.3508e-05	1.4553e-05	321.75	106.4	113.8	44.115	1.402e-05	44.288	347.887	193.950	227.827	150.130	278.698	280.680	148.558	155.038	290.026	254.984	152.825	157.071	160.073	164.358	285.850	160.489	-8191	255	
2256.200	1	1	0	0	0.22938	0.16145	0.037611	0.14149	0.22001	0.12557	0.24945	0.091337	0.19766	0.10394	0.14693	0.047877	0.1281	0.03632	0.029566	0.067653	-2.2042	-2.6208	-2.2521	-2.8187	-2.4479	-2.4042	-2.7854	-2.5062	-2.5792	-2.7	-2.2354	-2.7521	-2.5542	-2.5687	-2.7542	-2.5979	256.177	255.383	229.807	153.017	457.917	478.724	450.277	452.035	277.557	424.078	225.317	361.899	382.279	426.938	155.628	290.320	0.001159	0.00033696	0.00020344	1064.1	2.8759e-06	6.7713e-06	861.69	364.36	9.1159e-06	5.4831e-06	326.5	109.44	116.1	44.372	9.1094e-06	45.748	0.0011311	0.0013047	0.00036852	1061.3	1.3602e-05	1.4554e-05	854.29	364.83	1.3635e-05	1.4335e-05	327.16	108.85	115.67	44.965	1.398e-05	45.801	349.054	229.466	209.785	150.189	291.908	306.427	148.628	155.276	266.249	269.260	152.927	157.560	160.279	164.474	291.888	160.808	-8191	255	
2256.321	1	1	0	0	0.047956	0.14926	0.10563	0.31606	0.24237	0.012486	0.20696	0.15324	0.31606	0.042893	0.1567	0.1275	0.17659	0.1378	0.42251	0.092066	-2.2104	-2.5583	-2.2958	-2.7458	-2.4313	-2.4646	-2.9375	-2.4542	-2.5646	-2.6063	-2.4021	-2.65	-2.575	-2.4958	-2.6375	-2.4042	495.482	149.972	452.305	153.976	434.167	473.379	229.609	424.392	281.518	331.444	338.344	162.393	476.429	372.337	257.198	334.524	0.0011686	0.0003754	0.00018769	1077.9	6.9282e-06	5.3715e-06	873.76	368.45	1.29e-05	5.5932e-06	329.4	110.06	116.25	44.678	4.8871e-06	45.146	0.0011334	0.0013194	0.00036458	1073.2	1.3124e-05	1.4357e-05	865.03	368.23	1.3652e-05	1.4626e-05	330.21	109.78	116.22	45.12	1.3678e-05	45.469	349.183	207.522	198.543	150.282	280.831	266.963	148.697	155.223	276.210	305.598	153.369	157.207	160.158	164.466	271.172	160.693	-8191	255	
2256.417	1	1	0	0	0.14365	0.18293	0.13478	0.33052	0.11149	0.10701	0.14794	0.21418	0.28901	0.099824	0.20611	0.16984	0.21227	0.23785	0.046009	0.23555	-1.8167	-2.6042	-2.3625	-2.6875	-2.6604	-2.3542	-2.9396	-2.5375	-2.4229	-2.8833	-2.5812	-2.7417	-2.6979	-2.55	-2.7562	-2.4146	336.350	263.943	253.519	484.323	355.057	239.640	340.101	414.094	474.181	230.744	152.416	239.698	352.656	369.564	279.293	445.678	0.001242	0.00042358	0.00013084	1072.9	1.0528e-05	2.6994e-06	862.51	367.8	1.1634e-05	5.7138e-06	328.93	108.68	115.65	44.362	4.7846e-06	44.384	0.0011366	0.001317	0.00036097	1069.8	1.3283e-05	1.4322e-05	856.66	366.7	1.3652e-05	1.4609e-05	327.98	108.71	115.89	44.908	1.3594e-05	44.909	346.270	235.566	266.649	150.100	293.189	286.089	148.747	155.374	283.922	278.497	153.028	157.382	160.459	164.575	302.598	160.700	-8191	255	
2256.489	1	1	0	0	0.17673	0.20399	0.25247	0.1319	0.18199	0.12718	0.24916	0.26314	0.22342	0.26937	0.10544	0.19446	0.043737	0.14355	0.13032	0.086244	-1.9479	-2.7917	-2.3563	-2.8542	-2.6333	-2.5083	-2.9792	-2.4813	-2.4375	-2.6917	-2.3729	-2.5125	-2.7313	-2.5708	-2.6125	-2.5208	331.446	357.043	491.042	416.525	465.905	237.110	445.082	490.888	260.640	398.672	399.481	479.864	278.321	324.603	481.277	309.568	0.0011036	0.00023648	0.00013314	1074	9.9195e-06	3.6113e-06	868.63	368.52	8.6581e-06	3.8239e-06	329.85	110.02	116.63	44.391	4.0346e-06	45.107	0.0011162	0.0013093	0.00036359	1070	1.3282e-05	1.4579e-05	863.8	367.67	1.3785e-05	1.4477e-05	330.02	109.4	116.07	44.953	1.3921e-05	45.45	346.850	207.326	250.732	150.251	298.044	239.532	148.681	155.337	305.710	327.068	153.132	157.523	160.287	164.436	224.892	161.391	-8191	255	
2256.585	1	1	0	0	0.26403	0.062672	0.22273	0.28314	0.15023	0.077908	0.19158	0.084608	0.11699	0.062304	0.30747	0.25449	0.21405	0.12356	0.09369	0.16002	-2.1375	-2.8458	-2.3187	-2.7104	-2.7042	-2.275	-2.8292	-2.7625	-2.3229	-2.7583	-2.5417	-2.6208	-2.6813	-2.4208	-2.775	-2.775	442.282	185.149	286.601	492.954	336.559	303.031	140.089	142.491	155.378	139.469	213.922	348.722	337.091	430.070	218.571	428.592	0.0012961	0.00057549	0.00016423	1076.5	9.0742e-06	4.6538e-06	879.69	370.59	1.0662e-05	2.644e-06	336.07	111	115.91	44.785	1.0259e-05	46.183	0.0011468	0.0013128	0.00036855	1071.1	1.3398e-05	1.4362e-05	873.11	368.54	1.3852e-05	1.4446e-05	333.93	110.67	116.08	45.186	1.4226e-05	46.424	350.487	221.256	242.801	150.214	278.709	272.885	148.759	155.433	292.114	359.246	152.802	157.276	160.382	164.454	304.074	161.068	-8191	255	
2256.705	1	1	0	0	0.33377	0.11781	0.14781	0.10466	0.1169	0.058298	0.22147	0.070621	0.089346	0.18494	0.22455	0.19896	0.22353	0.15527	0.14344	0.19927	-2.0062	-2.7562	-2.4854	-2.6208	-2.8604	-2.3937	-2.8583	-2.8125	-2.5417	-2.7417	-2.6021	-2.6	-2.9188	-2.4437	-2.5708	-2.8187	147.691	188.904	471.353	491.188	269.242	414.319	481.893	258.235	319.419	350.558	173.808	195.018	473.020	457.785	470.267	419.045	0.0012778	0.00045902	0.00020409	1083	1.1127e-05	5.7304e-06	888.53	372.03	1.2818e-05	6.0182e-06	336.89	112.79	116.8	45.022	8.0438e-06	46.158	0.0011623	0.0013308	0.00037472	1077.5	1.3649e-05	1.4787e-05	883.78	370.88	1.3919e-05	1.4825e-05	337.3	111.76	116.74	45.419	1.4118e-05	46.436	344.489	214.817	259.067	150.425	309.161	303.349	148.543	155.438	303.300	322.069	153.341	157.348	160.294	164.796	286.088	160.934	-8191	255	
2256.802	1	1	0	0	0.059173	0.056794	0.20684	0.2291	0.28271	0.24657	0.27919	0.19903	0.17657	0.10348	0.29173	0.18072	0.1316	0.044922	0.13076	0.033075	-1.8271	-2.6292	-2.4396	-2.5729	-2.7125	-2.45	-2.6604	-2.7042	-2.4417	-2.6875	-2.5417	-2.3	-2.8	-2.4979	-2.6333	-2.775	155.833	461.854	355.509	426.029	153.651	493.088	351.885	482.347	280.797	236.769	438.457	439.367	179.522	156.282	330.322	291.936	0.0012978	0.00037935	0.00018225	1083.1	7.4294e-06	5.1025e-06	881.23	368.92	1.0922e-05	5.9902e-06	326.44	108.96	116.27	44.278	7.7116e-06	44.216	0.0011605	0.0013189	0.00036854	1073.3	1.3393e-05	1.424e-05	872.5	367.61	1.3822e-05	1.4595e-05	329.17	108.48	115.45	44.503	1.4027e-05	44.58	345.302	249.511	224.204	150.261	309.165	275.074	148.629	155.334	306.754	286.495	152.931	157.297	160.363	164.352	307.045	160.730	-8191	255	
2256.898	1	1	0	0	0.21987	0.14842	0.19425	0.10531	0.42684	0.13621	0.13739	0.44463	0.096535	0.1412	0.27055	0.09301	0.084433	0.32793	0.13408	0.08191	-1.8458	-2.5771	-2.5604	-2.475	-2.6604	-2.45	-2.7333	-2.8729	-2.6188	-2.6208	-2.5083	-2.4396	-2.7438	-2.6042	-2.5042	-2.7896	300.448	222.204	175.416	482.625	352.609	357.498	440.140	466.689	392.994	465.313	427.695	403.784	457.823	487.964	253.329	340.090	0.0011831	0.00065469	0.00015777	1070.3	9.9277e-06	4.5388e-06	870.33	366.09	1.0587e-05	4.8159e-06	326.85	108.74	114.59	43.872	1.1388e-05	44.519	0.0011616	0.0013142	0.00036425	1066.5	1.3504e-05	1.4501e-05	865.32	365.55	1.3871e-05	1.4733e-05	327.6	108.22	114.58	44.297	1.4294e-05	44.691	345.393	200.950	204.293	150.267	298.519	275.269	148.502	155.468	277.809	263.135	153.128	157.447	160.399	164.438	303.930	161.033	-8191	255	
2256.994	1	1	0	0	0.097395	0.12118	0.070297	0.1432	0.059653	0.32935	0.15453	0.31735	0.12374	0.085828	0.065929	0.15536	0.32615	0.070703	0.07446	0.13761	-1.9875	-2.675	-2.6562	-2.6083	-2.8292	-2.5104	-2.5854	-2.8417	-2.4688	-2.6292	-2.7354	-2.5646	-2.8042	-2.6125	-2.4562	-2.7958	399.413	213.133	263.485	417.271	179.791	173.931	372.789	475.194	484.044	158.199	347.767	358.441	197.228	477.683	416.890	420.958	0.0012156	0.00030187	7.1194e-05	1069.2	9.1398e-06	6.9733e-06	874.85	365.32	9.3387e-06	7.2968e-06	329.56	108.64	115.3	44.055	5.0217e-06	44.614	0.0011322	0.001319	0.00036714	1066.3	1.3599e-05	1.4547e-05	867.28	365.08	1.3875e-05	1.4884e-05	329.36	108.64	114.69	44.34	1.4289e-05	44.902	345.589	179.982	406.979	150.170	290.503	283.134	148.909	155.272	290.370	245.967	152.884	157.562	160.526	164.298	289.936	160.908	-8191	255	
2257.090	1	1	0	0	0.21696	0.15702	0.2115	0.19745	0.34123	0.10674	0.22333	0.30525	0.1108	0.048464	0.07651	0.32106	0.13689	0.069564	0.19696	0.13628	-1.9604	-2.5396	-2.6146	-2.7	-2.5083	-2.5708	-2.6167	-2.7021	-2.4688	-2.4667	-2.6896	-2.4792	-2.7313	-2.6	-2.4354	-2.9042	160.114	368.159	358.965	141.126	170.253	474.079	361.670	439.781	322.300	255.814	242.453	483.904	323.794	396.815	179.021	301.627	0.0012562	0.00011204	0.0001132	1074.2	7.8402e-06	3.0479e-06	877.75	365.63	5.9064e-06	6.9645e-06	328.46	109.5	114.88	43.95	5.5722e-06	45.423	0.0011496	0.0013485	0.00037423	1067.1	1.3374e-05	1.4207e-05	870.58	365.19	1.4086e-05	1.4737e-05	329.65	109.12	114.86	44.432	1.4423e-05	45.662	346.963	234.245	222.073	150.121	291.271	291.663	148.613	155.111	277.648	270.853	152.838	157.536	160.361	164.394	314.627	160.910	-8191	255	
2257.184	1	1	0	0	0.074178	0.19847	0.056535	0.20753	0.30215	0.24753	0.14874	0.2104	0.040019	0.090386	0.19795	0.08398	0.087347	0.15512	0.084287	0.17705	-2.0521	-2.5625	-2.6583	-2.5333	-2.7875	-2.6396	-2.5979	-2.8896	-2.3792	-2.5229	-2.7938	-2.3167	-2.5583	-2.6167	-2.3583	-2.6979	152.421	484.208	408.967	241.322	457.388	163.689	467.616	386.323	362.403	216.236	466.807	151.762	321.230	169.669	181.929	422.503	0.0012348	0.00040048	0.0001501	1069.8	1.1292e-05	2.128e-06	866.75	364.43	8.642e-06	6.9966e-06	326.04	107.44	114.02	43.522	4.6465e-06	43.479	0.001164	0.0013352	0.00038236	1066.9	1.3478e-05	1.4489e-05	864.24	364.12	1.4197e-05	1.4631e-05	325.99	107.37	113.64	43.897	1.4491e-05	44.005	345.757	222.807	221.660	150.294	293.783	306.621	148.680	155.332	311.805	284.133	152.805	157.410	160.412	164.279	294.785	160.637	-8191	255	
2257.282	1	1	0	0	0.2349	0.080617	0.2203	0.17752	0.066243	0.23072	0.14991	0.17675	0.32301	0.075471	0.066186	0.28362	0.23136	0.036844	0.18356	0.084723	-2.1188	-2.4896	-2.5854	-2.6063	-2.7687	-2.7292	-2.5396	-2.7396	-2.5417	-2.6	-2.9042	-2.4729	-2.6458	-2.6396	-2.3312	-2.6896	233.421	194.263	331.689	421.401	407.306	196.478	445.637	450.173	170.517	233.605	157.135	394.009	441.098	320.242	387.331	148.879	0.0012131	0.00050735	0.00017248	1062.5	1.3846e-05	2.8209e-06	869.07	363.35	3.7775e-06	3.6803e-06	323.76	107.4	114.23	43.487	5.8535e-06	43.574	0.0011371	0.0013486	0.00036405	1059.2	1.3413e-05	1.4882e-05	860.74	363.35	1.3652e-05	1.4937e-05	325.26	106.92	113.9	44.058	1.4132e-05	44.133	346.694	216.503	256.548	150.177	293.914	288.325	148.850	155.295	347.323	231.251	152.798	157.396	160.566	164.345	288.609	160.832	-8191	255	
2257.401	1	1	0	0	0.2097	0.27959	0.22135	0.16555	0.33309	0.048231	0.31461	0.19461	0.10684	0.29578	0.18092	0.17011	0.13659	0.0863	0.25578	0.077039	-2.0667	-2.4792	-2.6312	-2.6333	-2.5729	-2.6042	-2.3354	-2.7542	-2.5604	-2.3479	-2.8812	-2.3896	-2.5083	-2.7542	-2.4604	-2.7875	215.578	300.501	438.369	195.793	345.421	364.779	479.064	461.807	367.258	408.134	339.534	415.279	394.966	242.214	199.542	184.774	0.0012512	0.0005872	0.00022378	1067	1.1468e-05	4.4418e-06	875.13	366.58	9.8458e-06	2.9982e-06	328.46	108.88	115.18	43.961	5.9475e-06	44.42	0.0011528	0.0013381	0.00036992	1063.8	1.3277e-05	1.4558e-05	867.55	365.66	1.3882e-05	1.4486e-05	330.18	108.34	114.74	44.478	1.4048e-05	44.836	348.239	187.126	213.332	150.214	273.190	277.487	148.326	155.264	291.482	292.527	153.254	157.318	160.163	164.439	266.036	160.950	-8191	255	
2257.497	1	1	0	0	0.17405	0.080518	0.10117	0.075987	0.12849	0.08599	0.24727	0.21982	0.064288	0.20643	0.085301	0.2152	0.18156	0.21933	0.27195	0.26676	-2.2438	-2.3979	-2.6208	-2.6437	-2.5875	-2.6208	-2.5417	-2.6417	-2.7375	-2.5312	-2.6917	-2.6063	-2.3417	-2.8812	-2.2646	-2.7188	386.511	401.832	393.324	197.246	405.632	254.120	470.305	389.163	211.798	287.205	291.350	137.546	300.146	470.459	277.546	392.761	0.0011594	0.00033885	7.625e-05	1075.2	1.1339e-05	4.7272e-06	886.37	369.54	5.5137e-06	5.6154e-06	332.94	110.08	115.77	44.414	4.9374e-06	45.358	0.001137	0.0013605	0.00036735	1069.7	1.342e-05	1.4689e-05	879.48	368.31	1.3985e-05	1.4825e-05	334.47	110.13	115.79	44.82	1.4486e-05	45.844	343.222	255.661	230.446	150.488	287.413	266.427	148.476	155.311	288.437	308.221	152.974	157.309	160.902	164.389	302.912	160.965	-8191	255	
2257.594	1	1	0	0	0.13636	0.1311	0.17828	0.127	0.1131	0.1341	0.081984	0.15005	0.10465	0.19505	0.1555	0.23496	0.12793	0.073644	0.16856	0.16771	-2.3375	-2.375	-2.5646	-2.5792	-2.6708	-2.825	-2.5375	-2.7083	-2.6792	-2.475	-2.6708	-2.6479	-2.4146	-2.7896	-2.3833	-2.5896	248.027	202.043	228.118	456.731	159.717	342.811	427.596	383.547	267.117	432.321	252.768	437.622	219.869	491.533	145.401	391.649	0.0013241	0.00044384	0.0001835	1078	8.6181e-06	4.682e-06	896.27	371.94	1.25e-05	3.2631e-06	336.18	111.3	116.08	44.43	3.9713e-06	45.005	0.0011817	0.0013248	0.00036482	1074	1.3789e-05	1.4336e-05	891.23	370.86	1.4116e-05	1.4671e-05	337.49	111.34	116.2	44.979	1.3911e-05	45.65	348.589	235.203	162.196	150.339	288.686	322.064	148.670	155.265	293.217	294.055	152.911	157.524	160.431	164.336	309.380	160.985	-8191	255	
2257.690	1	1	0	0	0.2519	0.15731	0.089802	0.27833	0.12478	0.11751	0.089634	0.28171	0.21145	0.31731	0.42504	0.22365	0.084542	0.1558	0.069928	0.18729	-2.4333	-2.3979	-2.7396	-2.5812	-2.3208	-2.6646	-2.5583	-2.6646	-2.6896	-2.3167	-2.7771	-2.6312	-2.3	-2.6292	-2.775	-2.5021	263.933	214.660	176.634	162.168	433.635	360.982	193.654	198.858	248.602	404.004	470.188	334.918	253.802	461.742	246.660	358.743	0.0012516	0.00067423	0.00013728	1077.2	9.9675e-06	2.8799e-06	888.06	370.95	8.5732e-06	2.4366e-06	335.8	110.02	115.8	44.345	7.6456e-06	44.725	0.0011495	0.0013599	0.00037268	1071.8	1.3432e-05	1.4396e-05	883.46	370.27	1.3932e-05	1.4755e-05	335.5	109.71	115.73	44.725	1.4261e-05	45.015	347.760	241.922	232.033	150.228	281.662	322.743	148.670	155.215	276.462	266.897	153.182	157.296	160.342	164.494	271.736	160.948	-8191	255	
2257.786	1	1	0	0	0.089591	0.13605	0.048282	0.16768	0.14814	0.066447	0.11751	0.35584	0.15776	0.20079	0.16807	0.080688	0.13965	0.16673	0.11889	0.2087	-2.325	-2.1813	-2.6167	-2.7687	-2.2646	-2.7417	-2.5458	-2.6833	-2.7479	-2.3312	-2.675	-2.6292	-2.3333	-2.8083	-2.5167	-2.4604	451.532	209.996	323.601	153.797	325.451	465.284	383.507	433.335	409.272	359.689	186.567	226.356	269.957	274.715	402.508	393.202	0.0012104	0.00023259	0.00016202	1076.6	4.823e-06	3.4063e-06	892.98	372.29	5.6691e-06	5.19e-06	339.72	111.02	116.35	44.431	2.9012e-06	45.073	0.0011522	0.0013507	0.00037057	1071.9	1.3667e-05	1.4798e-05	887.3	371.58	1.3982e-05	1.4828e-05	337.42	110.41	116.57	44.977	1.389e-05	45.67	344.444	236.693	274.741	150.589	364.721	232.440	148.721	155.373	285.405	302.278	152.670	157.428	160.231	164.570	380.631	160.928	-8191	255	
2257.882	1	1	0	0	0.042375	0.18404	0.2563	0.20499	0.22686	0.15009	0.099316	0.069967	0.10342	0.091744	0.16985	0.056731	0.16392	0.1497	0.099518	0.064959	-2.3604	-2.4833	-2.5187	-2.9062	-2.3229	-2.7313	-2.7396	-2.5208	-2.9	-2.5521	-2.4729	-2.9708	-2.4062	-2.7792	-2.6813	-2.6625	181.694	265.781	322.141	491.520	342.374	415.611	451.245	171.258	467.011	379.406	465.702	485.712	276.115	339.817	349.413	408.463	0.0012109	9.3526e-05	0.00018949	1081.7	1.198e-05	4.6068e-06	897.55	373.72	1.3119e-05	5.5124e-06	339.42	112.35	117.59	44.964	6.6293e-06	46.328	0.0011191	0.0013436	0.00037189	1078.1	1.4035e-05	1.4399e-05	892.38	373.1	1.3648e-05	1.4718e-05	339.81	111.48	117.28	45.317	1.4418e-05	46.513	351.441	239.086	209.981	150.247	273.968	262.188	148.731	155.284	275.471	311.874	153.085	157.660	160.381	164.634	298.029	161.072	-8191	255	
2258.003	1	1	0	0	0.063348	0.13736	0.12742	0.34013	0.18823	0.26655	0.16004	0.22094	0.2922	0.073801	0.13941	0.14809	0.16494	0.10146	0.20377	0.25221	-2.0854	-2.4958	-2.4542	-2.8708	-2.2542	-2.6667	-2.8604	-2.5187	-2.7125	-2.6229	-2.4021	-2.7125	-2.4188	-2.7354	-2.6333	-2.6271	366.699	360.206	435.131	399.890	322.843	439.023	484.615	408.759	382.639	322.761	215.886	163.335	407.793	280.858	350.604	379.627	0.001297	0.00060249	0.00018852	1087.1	1.0709e-05	1.6476e-06	912.42	376.04	9.6285e-06	4.4948e-06	343.34	113.45	117.95	45.121	7.3606e-06	46.821	0.0011725	0.0013569	0.0003801	1084	1.3718e-05	1.4609e-05	903.38	375.3	1.3962e-05	1.4788e-05	344.35	113.12	118	45.771	1.4269e-05	47.104	346.754	207.778	270.652	150.312	280.041	227.123	148.914	155.206	302.705	293.140	152.884	156.991	160.253	164.454	269.448	161.300	-8191	255	
2258.097	1	1	0	0	0.062681	0.12388	0.16645	0.13003	0.11317	0.17718	0.15843	0.047889	0.071755	0.34011	0.095671	0.081357	0.14392	0.31218	0.17818	0.11647	-2.2667	-2.4062	-2.5208	-2.9083	-2.5521	-2.5917	-2.8083	-2.4583	-2.7958	-2.5875	-2.7	-2.8604	-2.6292	-2.825	-2.8187	-2.5292	158.591	253.219	399.729	196.017	390.643	355.177	444.533	455.618	152.991	336.974	436.984	489.438	187.611	295.830	318.193	385.268	0.0012336	0.00028203	0.00011089	1086.5	8.9784e-06	4.0326e-06	898.71	374.06	9.1786e-06	5.2765e-06	337.86	111.18	117.09	44.612	7.952e-06	44.47	0.0011836	0.0013708	0.00037946	1081.7	1.4123e-05	1.4921e-05	891.78	374.08	1.4239e-05	1.4922e-05	337.83	110.62	116.56	44.951	1.4586e-05	45.046	348.637	177.149	218.190	150.372	290.446	315.208	149.148	155.249	287.192	298.744	152.874	157.480	160.388	164.463	290.120	160.889	-8191	255	
2258.193	1	1	0	0	0.08399	0.20061	0.22507	0.25502	0.078568	0.14471	0.18427	0.049619	0.14102	0.042561	0.1838	0.081315	0.12626	0.3487	0.14889	0.065924	-2.225	-2.6708	-2.3125	-3.0042	-2.3729	-2.5146	-2.8292	-2.4437	-2.8042	-2.5875	-2.4625	-2.7333	-2.4667	-2.575	-2.7729	-2.4271	219.138	228.052	302.423	459.525	182.172	198.178	382.730	297.261	427.931	206.495	487.992	341.669	180.012	424.901	181.171	484.683	0.001251	0.00032562	9.3157e-05	1078.4	1.072e-05	5.9247e-06	887.47	373.12	8.7177e-06	7.0824e-06	336.58	110.74	116.76	44.324	6.497e-06	44.789	0.0011606	0.0013678	0.00037795	1073.5	1.3888e-05	1.4869e-05	883.89	371.68	1.4125e-05	1.4784e-05	336.89	110.17	116.29	44.794	1.4264e-05	45.264	342.827	209.862	233.982	150.303	265.137	289.303	148.683	155.416	284.238	314.544	153.117	157.240	160.355	164.632	304.052	160.931	-8191	255	
2258.289	1	1	0	0	0.02302	0.20149	0.06295	0.24685	0.23037	0.1336	0.047981	0.2332	0.10855	0.26164	0.037517	0.27883	0.16171	0.24145	0.14755	0.37924	-2.3083	-2.4562	-2.2687	-3.0104	-2.4958	-2.4542	-2.9833	-2.4292	-2.7438	-2.6813	-2.4667	-2.7188	-2.4938	-2.4375	-2.7375	-2.4792	452.536	394.968	249.321	198.288	218.324	276.161	421.135	466.536	388.584	282.587	174.098	341.637	448.927	143.287	493.947	467.867	0.0012452	0.00041918	4.8557e-05	1080.7	5.8111e-06	5.7587e-06	895.39	372.04	6.592e-06	7.3402e-06	337.91	110.91	115.91	44.424	7.5589e-06	45.186	0.0011753	0.0013673	0.00039093	1076.6	1.3909e-05	1.4854e-05	890.06	371.81	1.4278e-05	1.5282e-05	337.99	110.74	116.04	45.001	1.4636e-05	45.739	348.373	257.775	197.563	150.167	296.210	300.883	148.804	155.214	301.378	322.860	152.911	157.465	160.462	164.668	260.292	160.885	-8191	255	
2258.363	1	1	0	0	0.047168	0.20187	0.21346	0.28151	0.16381	0.13883	0.27624	0.088458	0.16982	0.16665	0.098323	0.20902	0.20946	0.44989	0.14494	0.10802	-2.0687	-2.8563	-2.0979	-2.8375	-2.4417	-2.4625	-3.0333	-2.6375	-2.6813	-2.5958	-2.4646	-2.7042	-2.5312	-2.2771	-2.7687	-2.45	312.955	375.761	291.479	487.701	269.003	487.171	484.066	262.416	472.073	407.015	469.512	424.494	156.302	480.878	366.622	423.693	0.0011368	0.00030867	8.9978e-05	1081.4	5.3881e-06	3.6333e-06	897.88	375.04	1.0032e-05	4.8139e-06	340.14	112.05	116.73	44.895	4.3026e-06	46.094	0.0011845	0.0013891	0.00037903	1079.4	1.3866e-05	1.5081e-05	895.76	372.93	1.4267e-05	1.504e-05	340.59	111.69	116.64	45.283	1.4903e-05	46.62	346.877	208.991	237.171	150.326	303.234	359.797	148.598	155.450	290.471	266.250	153.156	157.386	160.411	164.653	300.185	160.855	-8191	255	
2258.482	1	1	0	0	0.14315	0.08597	0.093547	0.31207	0.16701	0.10995	0.24554	0.21504	0.070549	0.21156	0.069551	0.01543	0.15426	0.18487	0.14507	0.057834	-2.1229	-2.7229	-2.2542	-2.8438	-2.6813	-2.4708	-2.7771	-2.5854	-2.3708	-2.7521	-2.4979	-2.7208	-2.4771	-2.3896	-2.65	-2.6479	145.302	230.151	300.260	156.094	336.844	209.289	458.337	456.926	387.450	203.052	297.930	349.433	153.974	323.237	161.734	496.494	0.0012533	0.00037533	0.00014211	1083.6	1.0104e-05	4.1856e-06	899.85	373.41	7.418e-06	5.1734e-06	335.61	110.47	116.25	44.262	6.6211e-06	45.008	0.0012104	0.0014179	0.00039373	1079.9	1.3836e-05	1.5218e-05	894.5	371.77	1.4406e-05	1.5178e-05	337.24	110.4	116.16	44.867	1.4874e-05	45.312	347.177	212.946	185.569	150.149	282.749	272.415	148.650	155.032	256.527	326.721	152.685	157.457	160.672	164.607	280.523	160.947	-8191	255	
2258.578	1	1	0	0	0.30055	0.26987	0.39677	0.18242	0.076105	0.18784	0.40283	0.17097	0.25531	0.1076	0.32178	0.16707	0.18527	0.11264	0.20366	0.15561	-2.0042	-2.6854	-2.2792	-2.8312	-2.675	-2.3625	-2.8396	-2.5583	-2.3958	-2.8521	-2.5167	-2.7229	-2.5479	-2.4208	-2.5062	-2.5542	494.906	486.501	316.192	139.985	158.920	144.585	445.391	163.436	354.638	367.341	424.503	476.238	489.413	139.483	419.904	361.005	0.0012888	0.00045791	0.00010195	1077.5	9.2395e-06	4.0317e-06	891.81	370.61	1.2786e-05	4.5004e-06	334.85	109.59	115.75	44.238	8.1297e-06	44.552	0.0011836	0.001416	0.00039438	1074.3	1.4233e-05	1.5658e-05	885.21	370.42	1.4598e-05	1.5524e-05	335.27	109.47	115.71	44.664	1.4705e-05	44.909	347.119	216.635	242.965	150.292	293.667	266.313	148.969	155.317	297.614	340.302	153.223	157.550	160.042	164.470	288.494	160.727	-8191	255	
2258.674	1	1	0	0	0.114	0.11057	0.08623	0.29084	0.20723	0.23245	0.10561	0.25006	0.17157	0.083361	0.12739	0.19866	0.079767	0.19601	0.20548	0.095318	-1.8208	-2.7271	-2.4229	-2.6604	-2.6583	-2.3937	-2.8271	-2.7521	-2.3354	-2.6813	-2.4896	-2.4938	-2.7062	-2.2687	-2.4417	-2.5792	306.035	335.222	193.750	464.081	206.412	449.872	468.009	433.327	221.426	423.000	409.083	443.237	279.223	483.505	371.689	343.952	0.0011447	0.00048267	0.00013563	1078.2	1.7587e-05	2.8118e-06	893.71	371.46	7.8194e-06	5.21e-06	337.06	111.05	116.98	44.37	6.5573e-06	45.173	0.001208	0.0013761	0.0003916	1076	1.4319e-05	1.5356e-05	887.86	371.23	1.4725e-05	1.5753e-05	336.88	110.39	116.33	44.84	1.493e-05	45.493	347.547	221.440	270.327	150.230	291.064	253.883	148.728	155.386	258.923	302.421	153.347	157.510	160.517	164.511	296.519	161.010	-8191	255	
2258.795	1	1	0	0	0.054247	0.12524	0.16055	0.43052	0.080754	0.12194	0.25419	0.20066	0.31456	0.21873	0.12251	0.071978	0.060348	0.28751	0.15378	0.067735	-1.7604	-2.7583	-2.4396	-2.4583	-2.7458	-2.2604	-2.8042	-2.9396	-2.1771	-2.6771	-2.6354	-2.4688	-2.8396	-2.5625	-2.6958	-2.7833	407.038	405.728	278.914	163.254	194.232	154.024	461.185	394.420	403.320	402.664	325.631	262.763	429.009	474.408	160.727	264.510	0.0012608	0.00047324	0.00012846	1081.7	5.7439e-06	4.8793e-06	902.85	372.12	9.1902e-06	3.6673e-06	338.81	111.45	117.1	44.682	9.1207e-06	45.784	0.0012286	0.0014344	0.00039709	1076	1.4616e-05	1.5582e-05	894.25	371.77	1.4967e-05	1.5898e-05	340.15	111.36	116.95	45.152	1.5404e-05	46.289	348.821	261.950	197.318	150.306	325.096	286.251	148.642	155.318	303.173	287.160	153.273	157.364	160.218	164.394	284.252	161.075	-8191	255	
2258.891	1	1	0	0	0.17167	0.09741	0.086489	0.35324	0.10986	0.1083	0.078625	0.18402	0.15605	0.21677	0.11571	0.25522	0.15075	0.21239	0.26078	0.21226	-1.8792	-2.6771	-2.5563	-2.5125	-2.6458	-2.3979	-2.6792	-2.7188	-2.2958	-2.6792	-2.5958	-2.2521	-2.7042	-2.6437	-2.3958	-2.7542	359.444	144.338	465.380	466.417	480.809	259.757	255.208	452.284	337.186	156.409	464.308	441.359	310.271	153.784	425.070	326.682	0.0012767	0.00081393	0.00021466	1083.2	9.6587e-06	4.9198e-06	904.91	374.74	1.0939e-05	7.0622e-06	338.46	111.54	117.52	44.49	6.1536e-06	44.774	0.0012641	0.001463	0.00040893	1079.6	1.4386e-05	1.5927e-05	899.95	373.82	1.5187e-05	1.5974e-05	340.97	111.6	116.89	45.028	1.5257e-05	45.499	347.131	203.087	230.843	150.288	325.534	326.576	148.645	155.257	298.594	301.427	153.194	157.333	160.231	164.359	279.612	160.866	-8191	255	
2258.985	1	1	0	0	0.14688	0.13283	0.016299	0.15247	0.1119	0.10067	0.21877	0.015269	0.15596	0.13242	0.18113	0.15228	0.18458	0.31758	0.074591	0.21935	-1.6333	-2.6667	-2.6479	-2.5542	-2.675	-2.4437	-2.7417	-2.7875	-2.2917	-2.6688	-2.6646	-2.2	-2.6521	-2.5854	-2.4542	-2.6854	247.587	287.597	476.685	148.853	221.767	483.126	438.795	146.980	243.924	195.105	437.327	378.195	393.639	234.006	367.752	240.255	0.0011669	0.00062702	0.00014386	1078.3	7.2453e-06	2.6823e-06	893.71	370.8	8.2528e-06	6.2927e-06	336.62	109.75	115.58	43.8	5.073e-06	44.06	0.0012109	0.0014672	0.00040959	1073.8	1.4358e-05	1.595e-05	886.17	370.11	1.5043e-05	1.587e-05	336.21	109.44	115.54	44.442	1.5134e-05	44.495	351.190	183.798	189.792	150.336	308.519	297.497	148.826	155.434	315.205	327.825	153.200	157.386	160.366	164.617	242.440	160.803	-8191	255	
2259.083	1	1	0	0	0.16773	0.08617	0.051909	0.16389	0.10872	0.44029	0.18232	0.20916	0.055531	0.17664	0.13106	0.13253	0.32708	0.06911	0.010924	0.13351	-1.9	-2.5958	-2.7458	-2.6167	-2.5646	-2.5167	-2.4875	-2.8104	-2.1813	-2.7146	-2.8438	-2.4729	-2.5479	-2.5812	-2.3688	-2.85	252.673	211.843	253.498	429.031	443.723	253.021	296.187	295.992	452.571	497.088	483.204	204.264	489.959	462.038	150.958	440.571	0.0011969	0.00043579	0.00011615	1069.8	8.6337e-06	5.816e-06	894.82	370.06	1.2866e-05	7.7532e-06	334.65	109.9	114.75	43.724	7.2397e-06	44.369	0.0012135	0.0014449	0.00039691	1067.5	1.4747e-05	1.5853e-05	888.68	369.29	1.4641e-05	1.6093e-05	336.03	109.76	114.91	44.22	1.5608e-05	44.792	349.397	206.461	226.494	150.110	319.084	283.683	148.716	155.247	277.337	303.503	153.300	157.617	160.865	164.169	291.163	161.245	-8191	255	
2259.177	1	1	0	0	0.1414	0.29567	0.15837	0.21791	0.2354	0.06529	0.14402	0.27783	0.12214	0.11245	0.04139	0.28509	0.155	0.17037	0.2235	0.064537	-2.0042	-2.6083	-2.6708	-2.5708	-2.7438	-2.4938	-2.4917	-2.8479	-2.5438	-2.5396	-2.7708	-2.3625	-2.6854	-2.6104	-2.3917	-2.7979	390.400	270.032	337.719	406.824	437.840	452.805	482.539	446.192	380.820	190.916	401.095	414.357	168.664	157.771	152.045	389.961	0.0011598	0.00037623	0.00016834	1068.4	1.3021e-05	4.2964e-06	891.76	369.94	9.9999e-06	2.6831e-06	333.4	109.27	114.35	43.6	5.9588e-06	44.285	0.001218	0.0014511	0.00040575	1067	1.4449e-05	1.6056e-05	889.76	368.48	1.5276e-05	1.6406e-05	336.24	109.89	114.74	44.062	1.5327e-05	45.039	348.653	181.789	289.310	150.405	280.170	295.641	148.655	155.192	282.532	319.643	153.208	157.599	160.227	164.431	270.723	160.773	-8191	255	
2259.274	1	1	0	0	0.1326	0.17981	0.045026	0.16739	0.10712	0.20401	0.21853	0.23496	0.16861	0.098869	0.072096	0.049584	0.044656	0.21072	0.14565	0.20268	-1.9333	-2.4125	-2.7417	-2.7042	-2.5583	-2.4542	-2.525	-2.7958	-2.4938	-2.55	-2.8417	-2.5667	-2.5938	-2.8979	-2.3937	-2.7104	463.265	345.736	328.861	483.104	285.977	461.995	184.578	408.900	302.070	384.755	349.315	356.231	247.832	479.883	306.483	421.811	0.0012289	0.00048122	0.00012968	1068.6	1.0701e-05	8.0264e-06	900.53	368.19	9.0716e-06	2.336e-06	337.63	111.13	115.44	43.657	7.2813e-06	44.845	0.0012298	0.0014535	0.00041253	1067.3	1.4661e-05	1.5688e-05	896.14	368.2	1.4923e-05	1.6329e-05	338.39	110.81	115.39	44.233	1.5795e-05	45.31	347.712	228.910	287.023	150.407	292.067	290.644	148.884	155.457	305.586	294.205	153.198	157.309	160.268	164.644	269.771	161.157	-8191	255	
2259.370	1	1	0	0	0.071263	0.24093	0.23357	0.23326	0.17549	0.18435	0.14341	0.3368	0.13088	0.18846	0.22002	0.25257	0.16773	0.11721	0.13698	0.34201	-2.1208	-2.2292	-2.6833	-2.4917	-2.5417	-2.725	-2.5292	-2.8167	-2.6208	-2.3708	-2.925	-2.5146	-2.4813	-2.7438	-2.25	-2.9125	137.667	302.780	375.657	490.056	293.371	383.862	190.665	388.602	264.523	146.510	413.068	251.669	404.520	140.416	421.775	430.041	0.0012662	0.0001066	8.5061e-05	1062.6	4.671e-06	6.3957e-06	889.97	364.42	1.1414e-05	5.97e-06	330.27	108.04	113.97	42.768	9.6665e-06	43.065	0.0012473	0.0014875	0.00041315	1061.1	1.4842e-05	1.6326e-05	884.68	365.16	1.4813e-05	1.626e-05	332.56	108.14	113.73	43.53	1.5687e-05	43.748	349.967	174.538	218.914	150.258	266.525	245.575	148.724	155.091	289.863	277.536	152.637	157.511	160.381	164.274	266.503	160.921	-8191	255	
2259.490	1	1	0	0	0.039179	0.078683	0.1915	0.16723	0.31773	0.15157	0.061214	0.077089	0.19492	0.20116	0.29947	0.14278	0.16418	0.11257	0.10819	0.42601	-2.2687	-2.2979	-2.7313	-2.6417	-2.3792	-2.7188	-2.5146	-2.8458	-2.4833	-2.5687	-2.8083	-2.5312	-2.5917	-2.8021	-2.3833	-2.7104	491.234	450.126	171.011	464.318	453.282	497.014	455.574	259.717	276.826	462.438	143.074	143.434	275.520	144.274	286.552	401.810	0.0012446	0.00043454	0.00018331	1056	1.0999e-05	6.9325e-06	880.77	362.18	7.3534e-06	5.9184e-06	329.11	108.06	113.31	43	6.3114e-06	43.882	0.0012078	0.0014523	0.00040409	1057.1	1.4653e-05	1.5824e-05	880.28	364.41	1.4906e-05	1.6044e-05	332.34	108.23	114.08	43.668	1.538e-05	44.281	351.267	209.316	207.412	150.161	301.235	264.718	148.786	155.129	317.889	257.583	153.076	157.435	160.135	164.615	286.039	161.145	-8191	255	
2259.586	1	1	0	0	0.15341	0.11454	0.24952	0.080666	0.021463	0.11605	0.22717	0.20545	0.20825	0.18682	0.10329	0.28197	0.14764	0.16961	0.26092	0.32673	-2.2979	-2.3146	-2.7646	-2.6146	-2.4562	-2.7646	-2.4437	-2.7042	-2.5354	-2.3854	-2.7333	-2.4583	-2.6625	-2.7896	-2.4542	-2.6312	444.689	251.397	210.107	373.425	467.067	316.276	432.165	153.639	311.569	150.131	495.669	386.961	449.180	463.233	252.513	442.627	0.001213	0.00050053	8.075e-05	1059.4	5.0589e-06	6.2395e-06	884.08	363.94	8.1175e-06	2.5882e-06	334.03	109.35	114.36	43.264	9.1135e-06	44.222	0.0012318	0.0014787	0.00039878	1060	1.4582e-05	1.6074e-05	884.59	365.58	1.5137e-05	1.6232e-05	335.27	109.07	114.33	43.901	1.5168e-05	44.782	350.356	237.127	283.937	150.428	319.954	291.377	148.588	155.362	309.216	284.892	153.118	157.506	160.449	164.482	258.787	160.805	-8191	255	
2259.658	1	1	0	0	0.12065	0.028751	0.09477	0.14452	0.1825	0.14499	0.019936	0.16351	0.11158	0.413	0.25104	0.10434	0.101	0.11463	0.24636	0.16901	-2.3937	-2.2458	-2.4167	-2.6917	-2.3458	-2.9229	-2.7333	-2.7333	-2.5438	-2.3833	-2.8271	-2.6958	-2.375	-2.7917	-2.5521	-2.4813	491.557	412.135	382.180	495.688	324.239	417.418	374.435	465.099	415.866	295.118	417.993	196.736	334.650	353.835	447.264	361.052	0.0013425	0.00030062	0.00013937	1067.3	4.4137e-06	4.4596e-06	895.07	369.1	3.7941e-06	1.4991e-06	338.05	110.38	115.06	43.592	4.2726e-06	45.181	0.0012351	0.0014719	0.00041156	1063.4	1.4978e-05	1.5973e-05	895.13	367.97	1.5221e-05	1.6428e-05	339.3	110.74	115.11	44.188	1.5829e-05	45.607	345.751	219.748	205.354	150.215	294.517	300.992	148.990	155.378	324.777	278.886	153.071	157.272	160.363	164.600	276.063	161.051	-8191	255	
2259.779	1	1	0	0	0.25703	0.21819	0.20576	0.27273	0.26969	0.11662	0.21376	0.27834	0.21209	0.1783	0.20105	0.1799	0.027581	0.084419	0.21712	0.10665	-2.2188	-2.3292	-2.625	-2.6917	-2.2979	-2.5187	-2.6604	-2.4104	-2.7958	-2.3667	-2.7375	-2.7167	-2.3354	-2.7417	-2.4604	-2.7125	242.004	143.378	470.059	431.291	458.119	400.158	285.466	416.202	257.869	159.037	166.687	454.680	452.091	393.074	459.696	296.095	0.0011595	0.00061787	2.1185e-05	1070.1	8.4978e-06	5.3233e-06	901.48	368.69	9.4575e-06	6.2305e-06	334.87	109.66	114.16	43.318	9.2913e-06	43.679	0.0012367	0.0014992	0.00041451	1066.4	1.4936e-05	1.6031e-05	894.32	368.1	1.5317e-05	1.6421e-05	336.75	109.43	114.2	43.789	1.5557e-05	44.267	345.083	205.772	221.990	150.365	296.172	288.986	148.454	155.261	291.286	312.398	153.117	157.292	160.570	164.454	273.448	160.805	-8191	255	
2259.875	1	1	0	0	0.17796	0.22041	0.070116	0.27873	0.055756	0.094291	0.29703	0.15823	0.12773	0.09544	0.07531	0.11491	0.12204	0.14183	0.10062	0.35266	-2.3583	-2.3625	-2.5771	-2.7938	-2.2979	-2.6583	-2.6271	-2.5521	-2.6063	-2.4417	-2.6667	-2.5812	-2.3146	-2.7646	-2.6646	-2.5271	198.451	416.016	292.417	394.349	430.472	255.894	384.613	349.923	330.222	327.195	152.845	481.953	368.306	490.656	280.003	406.434	0.0011888	0.00051647	0.0001037	1060.6	9.4192e-06	4.2242e-06	885.99	366.02	9.3092e-06	3.8603e-07	332.05	108.43	113.15	43.083	3.9279e-06	43.349	0.0012424	0.0015143	0.00041264	1058.6	1.4754e-05	1.6091e-05	883.65	366.38	1.5435e-05	1.6488e-05	335.01	108.76	113.92	43.711	1.5671e-05	44.134	341.777	225.560	189.086	150.217	301.995	247.649	149.013	155.299	294.797	273.672	153.200	157.483	160.444	164.550	304.666	160.781	-8191	255	
2259.971	1	1	0	0	0.1589	0.14544	0.11762	0.053297	0.068204	0.32711	0.30086	0.088277	0.16075	0.13474	0.04164	0.063345	0.17128	0.064663	0.16945	0.35231	-2.4083	-2.65	-2.4208	-2.7729	-2.2479	-2.7104	-2.8792	-2.6542	-2.8708	-2.5229	-2.6208	-2.7062	-2.2479	-2.8521	-2.6417	-2.3104	410.768	363.580	266.171	458.900	472.959	223.444	432.645	486.135	262.220	266.649	200.602	145.988	239.967	290.947	145.159	478.336	0.0012242	0.00030662	0.00018978	1063.3	1.1891e-05	5.6604e-06	884.36	367.01	1.0502e-05	4.0443e-06	332.75	109.41	114.8	43.181	1.1422e-05	44.199	0.0012444	0.0014751	0.00041098	1061.7	1.4865e-05	1.5673e-05	887.71	366.83	1.5334e-05	1.5954e-05	336.15	109.43	114.63	43.831	1.5662e-05	44.636	349.984	199.170	212.168	150.346	278.635	306.643	148.806	155.477	284.085	337.424	152.866	157.404	160.632	164.479	262.904	161.171	-8191	255	
2260.067	1	1	0	0	0.051155	0.083869	0.21133	0.2883	0.19913	0.084918	0.27475	0.10988	0.13087	0.0807	0.26843	0.17509	0.187	0.21603	0.10702	0.33564	-2.2604	-2.4792	-2.4167	-2.8937	-2.4437	-2.6208	-2.6708	-2.5354	-2.8958	-2.5854	-2.425	-2.8896	-2.3646	-2.8396	-2.6188	-2.3958	477.286	165.968	255.205	488.747	190.128	319.658	438.044	448.390	184.534	462.899	146.154	153.103	475.710	239.690	464.707	398.382	0.0012298	0.00022728	0.0001365	1066.5	1.3657e-05	3.5059e-06	895.59	370.24	8.3711e-06	4.9611e-06	338.97	110.93	114.62	43.324	8.8881e-06	44.489	0.0012239	0.0014539	0.00041535	1065	1.5236e-05	1.6314e-05	893.19	368.25	1.509e-05	1.6292e-05	338.26	110.26	114.61	44.019	1.5507e-05	45.021	344.792	209.425	217.607	150.348	281.897	267.681	148.946	155.385	321.032	302.866	153.100	157.543	160.407	164.487	312.995	160.847	-8191	255	
2260.186	1	1	0	0	0.0351	0.12854	0.043711	0.28001	0.2056	0.11718	0.28841	0.11207	0.26941	0.066483	0.28439	0.20964	0.092911	0.060414	0.2315	0.34785	-2.0187	-2.5667	-2.3625	-2.7146	-2.4	-2.5792	-2.8229	-2.6	-2.7917	-2.6375	-2.4021	-2.925	-2.4313	-2.5354	-2.8708	-2.525	302.266	482.942	426.644	473.825	298.100	274.084	307.807	432.420	155.255	242.869	435.650	487.510	449.089	201.196	491.225	468.326	0.0013305	0.00057624	0.00023966	1072	5.3708e-06	5.6403e-06	898.98	370.33	1.1531e-05	1.8192e-06	338.18	109.5	114.32	43.227	2.9009e-06	43.532	0.0012318	0.0014623	0.00041176	1067.1	1.5155e-05	1.6633e-05	897.7	368.81	1.5655e-05	1.6833e-05	337.89	109.76	114.42	43.713	1.5656e-05	44.043	344.885	221.977	227.545	150.220	300.193	289.630	148.795	155.265	259.310	294.546	153.333	157.480	160.757	164.348	224.872	161.095	-8191	255	
2260.282	1	1	0	0	0.45664	0.15657	0.23335	0.31082	0.18288	0.126	0.19852	0.22874	0.11956	0.082084	0.2774	0.20349	0.060008	0.35115	0.24034	0.089206	-2.175	-2.5312	-2.4396	-3.0125	-2.4583	-2.4625	-2.9562	-2.5458	-2.6042	-2.7125	-2.4042	-2.8688	-2.675	-2.4771	-2.7521	-2.5375	336.377	379.448	457.447	178.841	468.645	298.017	448.057	170.997	159.262	467.232	389.886	339.399	471.940	479.911	353.307	170.835	0.0012525	0.00050205	9.9802e-05	1064.9	8.7482e-06	5.7241e-06	888.3	365.64	1.3665e-05	5.7092e-06	330.84	107.02	112.46	42.61	6.6221e-06	43.003	0.0012437	0.0014804	0.0004132	1060.8	1.4751e-05	1.5724e-05	881.84	364.78	1.5423e-05	1.6381e-05	330.74	107.2	112.78	43.17	1.6057e-05	43.437	348.570	192.553	217.362	150.353	288.934	272.829	148.674	155.255	297.420	264.641	153.163	157.652	160.643	164.752	252.837	160.958	-8191	255	
2260.354	1	1	0	0	0.23819	0.10193	0.2426	0.037255	0.19573	0.088714	0.032511	0.13408	0.035655	0.13703	0.16332	0.15576	0.20718	0.071607	0.19266	0.17461	-2.0938	-2.5833	-2.3208	-3.1729	-2.5854	-2.3375	-2.9604	-2.5292	-2.525	-2.7229	-2.3417	-2.7479	-2.3688	-2.425	-2.7271	-2.4521	481.821	407.781	384.495	182.863	251.996	439.096	163.891	421.860	156.649	344.156	225.470	482.882	345.110	186.087	376.265	249.321	0.0012023	0.00039569	0.00011134	1060.1	1.5762e-05	5.1407e-06	888.59	364.59	7.077e-06	4.7341e-06	329.94	108.43	113.97	42.722	3.762e-06	43.189	0.0012568	0.0014795	0.00042249	1055.8	1.5173e-05	1.6518e-05	881.02	363.71	1.5576e-05	1.6318e-05	331.84	107.87	113.17	43.248	1.578e-05	43.779	351.245	261.051	224.150	150.428	290.034	334.333	148.637	155.362	302.193	325.784	153.296	157.174	160.562	164.837	317.246	160.897	-8191	255	
2260.450	1	1	0	0	0.37717	0.011362	0.15542	0.2312	0.29148	0.14885	0.21698	0.22764	0.066981	0.2283	0.23161	0.23186	0.11834	0.059422	0.21994	0.03714	-2.1875	-2.6875	-2.3438	-2.7708	-2.6854	-2.5396	-2.8479	-2.5375	-2.6521	-2.6708	-2.4792	-2.7188	-2.6021	-2.4042	-2.8042	-2.5812	281.863	165.993	477.065	460.658	248.517	263.645	464.113	441.113	361.334	173.316	142.540	413.122	451.671	391.677	331.128	142.625	0.0011428	0.00045502	0.00014384	1060.6	1.224e-05	3.9952e-06	890.09	364.29	8.528e-06	6.5173e-06	333.28	108.76	113.01	42.884	7.1395e-06	43.851	0.0012655	0.0015052	0.00042318	1056.8	1.5044e-05	1.6367e-05	884.67	363.91	1.5453e-05	1.6493e-05	333.22	108.66	113.31	43.373	1.5926e-05	44.369	345.314	196.420	224.568	150.257	296.967	285.806	148.559	155.365	302.807	303.245	153.197	157.573	160.402	164.688	278.669	160.973	-8191	255	
2260.571	1	1	0	0	0.19579	0.23159	0.077536	0.22164	0.14533	0.10645	0.096792	0.38887	0.039498	0.15015	0.17828	0.1569	0.082038	0.22756	0.10519	0.18434	-1.8	-2.6042	-2.3333	-2.7	-2.6708	-2.4458	-2.8792	-2.6354	-2.4813	-2.9604	-2.3146	-2.7083	-2.8167	-2.3333	-2.6854	-2.5979	228.589	437.822	425.762	149.348	269.097	224.488	220.761	490.671	355.560	140.900	282.984	393.911	361.059	166.848	239.164	397.381	0.0011272	0.00050141	0.00016636	1064.5	1.1155e-05	8.6802e-06	897.49	365.89	1.0801e-05	4.0314e-06	334.84	109.93	114.13	43.162	5.5037e-06	44.19	0.0012547	0.0014919	0.00042004	1059.1	1.5175e-05	1.6518e-05	891.38	365.1	1.5535e-05	1.6201e-05	335.75	109.35	114.05	43.543	1.5699e-05	44.684	345.231	219.743	229.754	150.526	300.834	299.656	148.398	155.527	293.499	274.734	153.204	157.272	160.551	164.635	284.671	161.038	-8191	255	
2260.667	1	1	0	0	0.18987	0.21739	0.28294	0.01523	0.20327	0.26413	0.261	0.29059	0.1716	0.027112	0.29683	0.19599	0.14112	0.11565	0.48938	0.14267	-1.9729	-2.7792	-2.4625	-2.6729	-2.6833	-2.3479	-2.7188	-2.6083	-2.4417	-2.7104	-2.4458	-2.4771	-2.7396	-2.3167	-2.7438	-2.6958	449.933	328.703	292.485	416.162	202.643	198.188	253.341	432.507	429.782	354.460	363.702	231.578	311.188	163.538	279.623	196.559	0.0011494	0.00056695	0.00017327	1058.1	8.6775e-06	4.4811e-06	884.39	365.01	7.2531e-06	1.0515e-06	331.01	107.32	113.22	42.448	5.7538e-06	42.693	0.0012679	0.0015124	0.00041721	1055.3	1.5134e-05	1.6517e-05	879.53	363.2	1.5582e-05	1.7013e-05	330.51	106.96	112.7	42.875	1.6104e-05	43.157	346.628	203.663	228.506	150.451	305.624	321.162	148.590	155.399	310.115	361.619	153.294	157.497	160.556	164.476	269.536	160.985	-8191	255	
#DATA ENDS
