BOXY.EXE: ISS Imagent and Oximeter Data Acquisition Program Version 0.80
Ascii Record File

#ACQ INFORMATION
2  Detector Channels 
16  External MUX Channels 
1  Auxiliary Channels 
5000  Waveform (CCF) Frequency (Hz)
1  Waveforms Skipped 
30  Waveforms Averaged 
1  Cycles Averaged 
16  Acquisitions per Waveform 
10.0806  Updata Rate (Hz) 

#FILE INFORMATION
TRUE -- External MUX Channel results are PARSED.
FALSE -- AC DC and Phase are NOT grouped.
TRUE -- Companion Program Settings File CREATED.
FALSE -- AC data not excluded
FALSE -- DC data not excluded
FALSE -- Phase data not excluded
FALSE -- Auxillary Chn. data not excluded
Tab delimiters

#CALIBRATION STATE
TRUE -- Waveform Calibration Values APPLIED.


#AUX CALIBRATION VALUES
Val Type	aux-1	

Term	1.0000e+00	
Factor	0.0000e+00	


#WF CALIBRATION VALUES
A = Detector Channel
Val Type	A-AC1	A-AC2	A-AC3	A-AC4	A-AC5	A-AC6	A-AC7	A-AC8	A-AC9	A-AC10	A-AC11	A-AC12	A-AC13	A-AC14	A-AC15	A-AC16	A-DC1	A-DC2	A-DC3	A-DC4	A-DC5	A-DC6	A-DC7	A-DC8	A-DC9	A-DC10	A-DC11	A-DC12	A-DC13	A-DC14	A-DC15	A-DC16	A-Ph1	A-Ph2	A-Ph3	A-Ph4	A-Ph5	A-Ph6	A-Ph7	A-Ph8	A-Ph9	A-Ph10	A-Ph11	A-Ph12	A-Ph13	A-Ph14	A-Ph15	A-Ph16	

Term	0.00000e+00	0.00000e+00	0.00000e+00	0.00000e+00	0.00000e+00	0.00000e+00	0.00000e+00	0.00000e+00	0.00000e+00	0.00000e+00	0.00000e+00	0.00000e+00	0.00000e+00	0.00000e+00	0.00000e+00	0.00000e+00	0.00000e+00	0.00000e+00	0.00000e+00	0.00000e+00	0.00000e+00	0.00000e+00	0.00000e+00	0.00000e+00	0.00000e+00	0.00000e+00	0.00000e+00	0.00000e+00	0.00000e+00	0.00000e+00	0.00000e+00	0.00000e+00	0.00000e+00	0.00000e+00	0.00000e+00	0.00000e+00	0.00000e+00	0.00000e+00	0.00000e+00	0.00000e+00	0.00000e+00	0.00000e+00	0.00000e+00	0.00000e+00	0.00000e+00	0.00000e+00	0.00000e+00	0.00000e+00	
Factor	1.00000e+00	1.00000e+00	1.00000e+00	1.00000e+00	1.00000e+00	1.00000e+00	1.00000e+00	1.00000e+00	1.00000e+00	1.00000e+00	1.00000e+00	1.00000e+00	1.00000e+00	1.00000e+00	1.00000e+00	1.00000e+00	1.00000e+00	1.00000e+00	1.00000e+00	1.00000e+00	1.00000e+00	1.00000e+00	1.00000e+00	1.00000e+00	1.00000e+00	1.00000e+00	1.00000e+00	1.00000e+00	1.00000e+00	1.00000e+00	1.00000e+00	1.00000e+00	X	X	X	X	X	X	X	X	X	X	X	X	X	X	X	X	

B = Detector Channel
Val Type	B-AC1	B-AC2	B-AC3	B-AC4	B-AC5	B-AC6	B-AC7	B-AC8	B-AC9	B-AC10	B-AC11	B-AC12	B-AC13	B-AC14	B-AC15	B-AC16	B-DC1	B-DC2	B-DC3	B-DC4	B-DC5	B-DC6	B-DC7	B-DC8	B-DC9	B-DC10	B-DC11	B-DC12	B-DC13	B-DC14	B-DC15	B-DC16	B-Ph1	B-Ph2	B-Ph3	B-Ph4	B-Ph5	B-Ph6	B-Ph7	B-Ph8	B-Ph9	B-Ph10	B-Ph11	B-Ph12	B-Ph13	B-Ph14	B-Ph15	B-Ph16	

Term	0.00000e+00	0.00000e+00	0.00000e+00	0.00000e+00	0.00000e+00	0.00000e+00	0.00000e+00	0.00000e+00	0.00000e+00	0.00000e+00	0.00000e+00	0.00000e+00	0.00000e+00	0.00000e+00	0.00000e+00	0.00000e+00	0.00000e+00	0.00000e+00	0.00000e+00	0.00000e+00	0.00000e+00	0.00000e+00	0.00000e+00	0.00000e+00	0.00000e+00	0.00000e+00	0.00000e+00	0.00000e+00	0.00000e+00	0.00000e+00	0.00000e+00	0.00000e+00	-1.88609e+02	-1.27598e+02	-1.28064e+02	-1.86550e+02	-7.56069e+01	-6.93013e+01	-1.58582e+02	-1.62015e+02	-8.04884e+01	-6.78725e+01	-1.72035e+02	-1.71270e+02	-1.83419e+02	-1.77402e+02	-7.72896e+01	-1.49868e+02	
Factor	3.27749e-05	1.39329e-04	3.88666e-05	2.88475e-01	1.43949e-06	1.41513e-06	1.57872e-01	4.58217e-02	1.50912e-06	1.47195e-06	7.41059e-02	2.49279e-02	3.53259e-02	7.84877e-03	1.37570e-06	1.11498e-02	1.92326e-05	3.85017e-05	1.09289e-05	1.54926e-01	3.98288e-07	4.44642e-07	7.99822e-02	2.48168e-02	3.58251e-07	4.44534e-07	3.89740e-02	1.31152e-02	1.93336e-02	4.30545e-03	3.87079e-07	5.92357e-03	X	X	X	X	X	X	X	X	X	X	X	X	X	X	X	X	



#DISTANCE SETTINGS
A = Detector Channel
A-1	A-2	A-3	A-4	A-5	A-6	A-7	A-8	A-9	A-10	A-11	A-12	A-13	A-14	A-15	A-16	

2.5000e+00	3.0000e+00	2.5000e+00	3.0000e+00	2.0000e+00	3.0000e+00	1.5000e+00	3.0000e+00	3.0000e+00	3.0000e+00	3.0000e+00	3.0000e+00	3.0000e+00	3.0000e+00	1.5000e+00	3.0000e+00	

B = Detector Channel
B-1	B-2	B-3	B-4	B-5	B-6	B-7	B-8	B-9	B-10	B-11	B-12	B-13	B-14	B-15	B-16	

1.0000e+01	1.0000e+01	1.0000e+01	1.4400e+00	1.0000e+01	1.0000e+01	1.5100e+00	1.9400e+00	1.0000e+01	1.0000e+01	1.9900e+00	2.4900e+00	2.4100e+00	2.9000e+00	1.0000e+01	2.9800e+00	




#DATA BEGINS
time	group	step	mark	flag	A-AC1	A-AC2	A-AC3	A-AC4	A-AC5	A-AC6	A-AC7	A-AC8	A-AC9	A-AC10	A-AC11	A-AC12	A-AC13	A-AC14	A-AC15	A-AC16	A-DC1	A-DC2	A-DC3	A-DC4	A-DC5	A-DC6	A-DC7	A-DC8	A-DC9	A-DC10	A-DC11	A-DC12	A-DC13	A-DC14	A-DC15	A-DC16	A-Ph1	A-Ph2	A-Ph3	A-Ph4	A-Ph5	A-Ph6	A-Ph7	A-Ph8	A-Ph9	A-Ph10	A-Ph11	A-Ph12	A-Ph13	A-Ph14	A-Ph15	A-Ph16	B-AC1	B-AC2	B-AC3	B-AC4	B-AC5	B-AC6	B-AC7	B-AC8	B-AC9	B-AC10	B-AC11	B-AC12	B-AC13	B-AC14	B-AC15	B-AC16	B-DC1	B-DC2	B-DC3	B-DC4	B-DC5	B-DC6	B-DC7	B-DC8	B-DC9	B-DC10	B-DC11	B-DC12	B-DC13	B-DC14	B-DC15	B-DC16	B-Ph1	B-Ph2	B-Ph3	B-Ph4	B-Ph5	B-Ph6	B-Ph7	B-Ph8	B-Ph9	B-Ph10	B-Ph11	B-Ph12	B-Ph13	B-Ph14	B-Ph15	B-Ph16	aux-1	digaux	

28891.137	1	1	0	256	0.23401	0.14606	0.17166	0.27364	0.16355	0.23707	0.20954	0.2046	0.15718	0.053838	0.21977	0.22409	0.16275	0.18412	0.24759	0.19472	-1.7583	-2.8812	-2.5875	-2.2667	-3.1312	-2.3125	-2.9396	-2.9792	-2.3563	-3.0125	-2.9396	-2.6521	-3.0875	-2.5417	-2.475	-3.1021	29.090	178.787	201.456	148.867	133.676	20.286	216.578	-16.324	24.756	13.587	160.424	199.404	-73.916	-82.144	-58.384	146.197	0.00047642	0.00052493	0.0001177	1438.6	5.234e-06	7.0691e-06	1415.4	381.64	4.1229e-06	4.4517e-06	426.97	140.42	123.32	41.094	3.8491e-06	50.693	0.00089155	0.0011903	0.00034802	1453.8	1.2756e-05	1.3633e-05	1436.1	387.9	1.2227e-05	1.2821e-05	433.14	143.87	126.36	42.212	1.2566e-05	51.948	141.483	-28.042	-25.615	-99.187	39.866	42.105	-99.230	-94.703	-38.587	15.372	-94.989	-90.762	-90.704	-85.559	35.530	-86.381	-8191	255	
28891.258	1	1	0	0	0.075871	0.12325	0.21322	0.09916	0.068532	0.2686	0.32214	0.034472	0.23995	0.32479	0.15018	0.15175	0.077124	0.17444	0.12707	0.16445	-1.8667	-2.8396	-2.6354	-2.3229	-2.9958	-2.3625	-3.0792	-3.1125	-2.3292	-2.7729	-3.0417	-2.3542	-2.9292	-2.5917	-2.5187	-3.2875	104.063	56.248	236.932	97.184	156.700	-48.088	158.498	91.079	-48.563	88.991	130.939	-99.820	-74.324	187.545	-13.336	221.178	0.00046024	8.85e-05	0.00017307	1437.4	5.5814e-06	4.4639e-06	1417.5	380.46	5.0444e-06	4.8468e-06	425.02	140.47	123.69	41.06	1.7458e-06	50.37	0.00088081	0.0012026	0.00034089	1453	1.2801e-05	1.3076e-05	1437.7	387.6	1.226e-05	1.3709e-05	433.04	143.74	126.39	42.135	1.303e-05	51.907	142.150	-52.784	-0.114	-99.456	44.923	26.545	-99.549	-94.927	-5.554	7.616	-95.361	-91.439	-91.161	-85.815	41.746	-86.373	-8191	255	
28891.354	1	1	0	0	0.067091	0.34885	0.22366	0.19905	0.35433	0.078057	0.42378	0.34165	0.1131	0.1722	0.2168	0.32648	0.24329	0.062028	0.31887	0.1574	-2.0021	-2.6521	-2.7938	-2.3896	-3.1208	-2.5687	-2.4917	-3.2604	-2.1667	-2.75	-3.0729	-2.3604	-3.0771	-2.7396	-2.4625	-3.1958	120.300	67.387	55.440	196.021	49.384	75.708	171.279	213.570	61.837	-13.164	-103.119	162.519	154.866	19.916	-40.029	111.207	0.00043823	0.00058163	0.00013178	1437.6	4.3032e-06	4.9686e-06	1415	381.37	4.7872e-06	5.3893e-06	425.15	140.63	122.85	41.163	4.4268e-06	50.608	0.00087777	0.0011738	0.0003406	1452.6	1.2715e-05	1.3686e-05	1436.2	387.38	1.2338e-05	1.3958e-05	433.28	143.79	125.73	42.155	1.2833e-05	51.967	142.783	-46.640	-19.786	-99.627	25.457	52.343	-99.550	-94.919	2.883	46.869	-95.358	-91.193	-90.855	-85.977	33.967	-86.495	-8191	255	
28891.449	1	1	0	0	0.39716	0.16374	0.087853	0.18132	0.12434	0.28328	0.13248	0.22287	0.096529	0.047277	0.21065	0.31823	0.22802	0.21894	0.078313	0.24464	-1.7854	-2.5187	-2.8604	-2.4	-3.2062	-2.8063	-2.5833	-3.3646	-2.6125	-2.6521	-3.0875	-2.3937	-2.9021	-2.9854	-2.4062	-3.2917	18.557	-9.466	-86.211	-83.190	112.352	-72.764	155.364	192.286	170.748	-22.841	55.914	207.460	-12.716	163.612	-91.057	209.618	0.00043325	0.00057001	0.00013995	1435.7	4.7772e-06	6.1601e-06	1417.3	380.62	3.5486e-06	4.456e-06	424.86	139.82	123.28	41.127	3.1881e-06	50.67	0.000874	0.0012089	0.00034082	1450.9	1.2758e-05	1.4014e-05	1433.9	387.06	1.2015e-05	1.3217e-05	432.74	143.47	126.13	42.097	1.2915e-05	51.892	150.113	-20.297	-28.521	-99.485	33.976	24.162	-99.709	-95.191	-14.722	30.242	-95.842	-91.570	-90.989	-86.384	28.414	-86.788	-8191	255	
28891.570	1	1	0	0	0.16218	0.034775	0.12334	0.31281	0.29516	0.11643	0.035247	0.13423	0.26585	0.31703	0.31302	0.16235	0.18574	0.17402	0.072374	0.15205	-2.1479	-2.4333	-3.0271	-2.4333	-2.8958	-2.7354	-2.4208	-3.1312	-2.5167	-2.5062	-3.3542	-2.4333	-2.9396	-2.9542	-2.3667	-3.2	92.947	50.932	74.421	237.654	-91.974	35.951	-79.901	213.704	107.077	-67.324	215.744	238.082	-52.996	243.969	-5.234	-104.821	0.00048349	0.00056425	0.00015743	1431.3	4.5384e-06	4.501e-06	1410.3	380.28	4.9315e-06	5.0841e-06	424.95	140.74	122.6	41.012	3.8601e-06	50.182	0.00086539	0.0011907	0.00032732	1452.9	1.2251e-05	1.3592e-05	1434.2	386.83	1.1822e-05	1.3639e-05	432.23	143.41	125.68	42.137	1.2908e-05	51.722	147.237	-43.065	-32.683	-99.766	20.431	24.930	-99.859	-95.110	1.800	20.900	-95.531	-91.378	-91.070	-86.509	16.228	-86.773	-8191	255	
28891.668	1	1	0	0	0.10635	0.20033	0.064783	0.072185	0.28563	0.18503	0.41956	0.17344	0.046152	0.047632	0.1183	0.24618	0.14606	0.16824	0.076866	0.30621	-2.2687	-2.6583	-3.2354	-2.5896	-2.7188	-3	-2.6917	-3.1604	-2.7167	-2.4417	-3.2146	-2.4292	-2.7583	-3.1333	-2.3375	-3.2104	154.312	245.465	-67.639	166.319	124.273	4.995	168.999	-104.801	221.598	14.365	217.463	190.923	152.624	150.452	195.431	97.026	0.00046232	0.00049444	0.00010476	1430.9	2.6424e-06	6.5547e-06	1408.4	380.5	4.9487e-06	5.8456e-06	424.56	139.58	121.84	40.893	5.5442e-06	50.369	0.000871	0.0012252	0.00032769	1449.2	1.2266e-05	1.3385e-05	1431	386.32	1.1883e-05	1.4156e-05	432.11	143.17	125.33	41.956	1.2627e-05	51.753	139.059	-36.065	-16.915	-100.003	35.681	34.212	-99.809	-95.159	22.388	47.024	-95.418	-91.306	-90.873	-86.020	24.609	-86.884	-8191	255	
28891.736	1	1	0	0	0.30654	0.16335	0.19874	0.10051	0.13679	0.24308	0.20222	0.19346	0.16267	0.14891	0.39419	0.21391	0.2666	0.1543	0.1228	0.12222	-2.4542	-2.1458	-3.0458	-2.775	-2.5667	-3.0292	-2.4979	-3.2229	-2.9437	-2.4042	-3.2188	-2.4688	-2.6583	-3.1146	-2.2146	-2.9146	217.607	-18.297	236.705	243.561	-53.472	87.527	-104.038	207.893	243.523	-10.722	-90.466	233.292	228.271	162.473	-74.704	187.166	0.00039634	0.00045319	0.00012353	1426.5	3.7956e-06	3.7659e-06	1406.8	378.08	2.9316e-06	5.074e-06	425.1	139.49	122.37	40.955	3.4348e-06	50.164	0.00086563	0.001163	0.00033192	1446.7	1.2496e-05	1.2735e-05	1428	385.04	1.1619e-05	1.4011e-05	432.21	142.87	125.57	42.007	1.2207e-05	51.624	142.249	-13.866	-28.835	-99.744	41.913	31.053	-99.686	-95.061	-22.302	50.505	-95.261	-91.580	-91.389	-85.890	-13.540	-86.716	-8191	255	
28891.857	1	1	0	0	0.077301	0.23562	0.14941	0.20076	0.066986	0.11384	0.12574	0.12564	0.1025	0.072683	0.30797	0.37304	0.058977	0.19836	0.24448	0.11818	-2.5333	-2.2667	-2.8063	-2.6063	-2.3146	-2.9667	-2.5	-2.9813	-2.9417	-2.5417	-3.125	-2.8438	-2.5354	-3.3083	-2.2438	-2.7458	130.084	-96.463	190.155	85.382	-78.516	181.155	210.774	224.389	209.220	-25.120	189.257	179.155	-66.078	142.356	172.474	-109.591	0.00041615	0.00035906	0.00010219	1424.9	4.938e-06	3.4119e-06	1404.4	379.41	4.0171e-06	4.5937e-06	424.01	139.67	122.36	40.988	3.9481e-06	50.413	0.00084283	0.0011951	0.00031963	1442.2	1.2632e-05	1.2684e-05	1424.3	386.24	1.1865e-05	1.3335e-05	431.58	142.92	125.18	41.979	1.2482e-05	51.62	145.707	-40.001	-28.600	-99.884	24.653	35.968	-99.863	-95.024	-2.154	62.630	-95.553	-91.469	-91.052	-86.083	2.402	-86.658	-8191	255	
28891.953	1	1	0	0	0.16724	0.079785	0.10805	0.21504	0.26504	0.18878	0.11064	0.082777	0.11713	0.16063	0.082949	0.15334	0.41588	0.21434	0.22348	0.1585	-2.6125	-2.45	-2.95	-2.7708	-2.4938	-3.05	-2.5083	-2.7854	-2.9458	-2.4229	-3.1729	-2.8979	-2.2646	-3.0083	-2.7729	-2.6646	216.175	127.326	-31.203	192.256	88.891	135.647	-87.570	199.451	158.905	19.972	237.792	-38.675	201.825	8.903	74.792	67.357	0.00045887	0.00061612	0.00013286	1424.7	3.086e-06	4.9979e-06	1410.9	377.46	5.1088e-06	4.5991e-06	424.12	138.96	122.14	40.872	3.2599e-06	50.353	0.00083774	0.0011758	0.0003206	1442.5	1.2691e-05	1.2821e-05	1422.7	384.58	1.1649e-05	1.3388e-05	430.91	142.73	125.11	41.886	1.2207e-05	51.67	142.049	-18.918	-8.981	-99.754	22.038	45.977	-99.687	-94.879	18.056	40.090	-95.579	-91.322	-90.840	-85.968	15.145	-86.797	-8191	255	
28892.049	1	1	0	0	0.2033	0.17223	0.028066	0.22711	0.1889	0.13816	0.16175	0.37249	0.10695	0.28246	0.26293	0.16816	0.18617	0.15251	0.042483	0.23635	-2.5083	-2.125	-2.8542	-3.0146	-2.3833	-2.9854	-2.7542	-2.8271	-2.9771	-2.3604	-3.0208	-2.9979	-2.2146	-3.2083	-2.825	-2.6333	228.259	230.090	-5.388	184.224	-74.164	244.821	208.266	-63.723	-10.884	-23.734	-83.487	237.102	-87.753	-109.438	16.009	152.810	0.00045239	0.00051143	0.00012194	1413	4.3512e-06	3.9511e-06	1407.2	378.95	3.289e-06	5.5395e-06	422.06	138.65	121.83	40.669	4.5577e-06	49.992	0.00083457	0.001176	0.00032197	1437.7	1.243e-05	1.2743e-05	1422.2	384.98	1.1795e-05	1.3373e-05	430.87	142.25	124.83	41.826	1.1755e-05	51.396	142.928	-24.580	-16.950	-99.664	7.604	42.425	-99.865	-94.970	41.911	29.581	-95.412	-91.551	-91.294	-85.674	37.044	-86.544	-8191	255	
28892.146	1	1	0	0	0.16888	0.17458	0.16702	0.23536	0.052715	0.1588	0.20871	0.1956	0.20834	0.18352	0.13907	0.4159	0.095709	0.11149	0.10444	0.17513	-2.6958	-2.1688	-2.6937	-3.0417	-2.2646	-2.925	-2.875	-2.5104	-3.1792	-2.15	-2.8187	-3.1937	-2.4	-3.0375	-2.7583	-2.5062	91.003	-26.665	-59.721	213.019	138.139	-47.049	228.993	113.682	106.786	189.977	38.945	233.080	-74.326	209.825	-31.680	-12.872	0.00042157	0.00060173	0.0001643	1420	2.7556e-06	4.3357e-06	1399.4	375.93	4.908e-06	5.9826e-06	421.84	139.16	121.49	40.704	3.4765e-06	50.296	0.0008276	0.0011299	0.00031473	1437.5	1.1995e-05	1.2679e-05	1418.9	384.14	1.1359e-05	1.2803e-05	429.45	142.32	124.51	41.799	1.1691e-05	51.563	144.853	-26.296	-24.122	-99.597	25.120	50.742	-99.753	-94.895	-14.365	35.068	-95.448	-91.529	-90.751	-85.762	47.535	-86.722	-8191	255	
28892.242	1	1	0	0	0.23097	0.26755	0.23039	0.079966	0.20437	0.037675	0.32548	0.30417	0.050427	0.13617	0.2493	0.2784	0.15554	0.038863	0.073857	0.22522	-2.7854	-2.4792	-2.6208	-3.2062	-2.3187	-2.9292	-2.9771	-2.5542	-3.1833	-2.5208	-2.8083	-3.2417	-2.4667	-2.9896	-2.8708	-2.4167	218.136	144.259	-39.931	-64.626	81.642	93.296	193.277	163.732	125.975	122.555	52.505	-109.844	-79.955	106.863	-43.679	163.863	0.00041441	0.00059462	0.00011635	1417.3	3.7493e-06	5.2092e-06	1399.3	377.04	3.8807e-06	4.7151e-06	420.61	139.41	121.46	40.838	6.3188e-06	50.001	0.00080216	0.0011188	0.00031519	1436.7	1.2338e-05	1.2796e-05	1420	383.81	1.1295e-05	1.249e-05	429.43	142.37	124.68	41.866	1.1873e-05	51.32	141.261	-30.428	-10.278	-99.559	41.709	34.603	-99.583	-94.958	18.048	30.089	-95.450	-91.355	-91.149	-85.717	33.896	-86.510	-8191	255	
28892.361	1	1	0	0	0.11775	0.12912	0.25553	0.23215	0.27576	0.27194	0.29847	0.21352	0.06747	0.19671	0.24918	0.044597	0.27836	0.11804	0.20546	0.27109	-2.7167	-2.3875	-2.5438	-3.1146	-2.3812	-2.8438	-3.1792	-2.5021	-3.0958	-2.5604	-2.6437	-3.0729	-2.3521	-2.9167	-2.9979	-2.4125	4.976	101.798	-87.484	171.730	70.562	180.454	208.893	167.731	196.222	175.344	-71.683	-90.141	216.409	-19.409	111.413	226.328	0.00044815	0.00056575	0.00014305	1418	4.823e-06	3.913e-06	1394.8	378.59	2.6252e-06	4.9951e-06	423.28	138.83	121.87	40.664	3.7419e-06	49.848	0.00082179	0.0011022	0.00032352	1433.6	1.2217e-05	1.3e-05	1415.1	384.15	1.1168e-05	1.2464e-05	429.82	142.12	124.75	41.755	1.1672e-05	51.273	139.872	-20.696	-20.584	-99.699	47.133	29.514	-99.766	-94.938	-16.406	39.255	-95.445	-91.392	-91.277	-86.140	23.153	-86.858	-8191	255	
28892.434	1	1	0	0	0.21091	0.25963	0.16839	0.022452	0.023724	0.11551	0.25363	0.12624	0.21789	0.15715	0.23828	0.12234	0.069375	0.22677	0.23592	0.13192	-2.7542	-2.6188	-2.3417	-3.2729	-2.4104	-2.7354	-3.2438	-2.4417	-2.7292	-2.6521	-2.5312	-3.1333	-2.7292	-2.8229	-3.0521	-2.3396	237.008	168.922	-84.243	110.306	-36.292	60.560	143.537	180.440	217.553	204.122	92.359	121.830	-42.851	-77.773	189.109	-75.918	0.00042137	0.00048702	0.00014434	1415.5	3.0932e-06	5.0542e-06	1395.8	375.53	3.834e-06	4.735e-06	421.04	138.22	121.51	40.758	5.1435e-06	49.93	0.00082368	0.0010844	0.0003278	1433.4	1.1728e-05	1.2984e-05	1416.7	382.86	1.1421e-05	1.3104e-05	429.24	142	124.35	41.721	1.1562e-05	51.387	138.122	-0.361	-33.098	-99.519	17.669	31.163	-99.634	-94.861	6.085	30.933	-95.427	-91.272	-91.167	-85.817	-1.519	-86.885	-8191	255	
28892.529	1	1	0	0	0.23754	0.10887	0.16208	0.34179	0.26059	0.14888	0.15903	0.24291	0.23874	0.026746	0.30405	0.11924	0.072302	0.079102	0.084455	0.14111	-2.5292	-2.7938	-2.2	-3.0771	-2.3021	-2.525	-3.2458	-2.6042	-2.8875	-2.9479	-2.4188	-3.1167	-2.6729	-2.4542	-2.9354	-2.3583	204.362	-64.706	-93.211	199.921	-34.894	-54.465	217.400	171.405	-65.677	-82.538	151.927	205.315	-38.930	-19.346	-21.665	211.398	0.00042019	0.00061988	0.00014684	1419.8	3.6186e-06	5.0143e-06	1400.4	376.77	3.8749e-06	4.417e-06	419.91	139.39	121.01	40.606	4.9165e-06	49.731	0.00082788	0.001127	0.00032536	1435.2	1.1746e-05	1.2783e-05	1418.2	383.62	1.1116e-05	1.2169e-05	428.84	142.18	124.13	41.749	1.1379e-05	51.271	141.055	-12.296	-0.089	-99.670	16.742	41.577	-99.591	-94.826	8.436	55.176	-95.551	-91.350	-91.114	-86.006	13.749	-86.630	-8191	255	
28892.648	1	1	0	0	0.070679	0.12118	0.059661	0.040929	0.091923	0.019157	0.17987	0.30127	0.18856	0.13843	0.15192	0.084163	0.28641	0.1476	0.050751	0.039143	-2.55	-2.8854	-2.2792	-2.9979	-2.6875	-2.3458	-3.1917	-2.4208	-2.6917	-2.8479	-2.2708	-3.1167	-2.7	-2.6	-3.075	-2.4875	89.211	-23.606	198.060	56.153	181.380	37.518	189.704	159.780	16.422	42.186	164.580	240.361	-58.613	176.649	193.861	-98.806	0.0004548	0.00063899	0.00010221	1422.6	3.8393e-06	5.4362e-06	1395.8	378.08	5.2817e-06	5.1885e-06	422.06	138.82	121.18	40.555	5.2171e-06	50.103	0.00083421	0.0011106	0.00031856	1436.3	1.2174e-05	1.2861e-05	1416.9	383.68	1.1693e-05	1.2935e-05	429.58	142.26	124.39	41.724	1.1396e-05	51.35	148.623	-37.437	-24.744	-99.658	38.390	39.709	-99.616	-95.045	-4.092	28.018	-95.518	-91.468	-90.966	-85.703	10.004	-86.932	-8191	255	
28892.744	1	1	0	0	0.098233	0.062325	0.04604	0.21751	0.24174	0.044795	0.088304	0.34046	0.11626	0.20793	0.17042	0.041493	0.11195	0.30533	0.052024	0.25144	-2.2667	-3.0667	-2.1521	-3.0771	-2.6458	-2.3563	-3.3083	-2.6	-2.55	-2.8146	-2.3917	-3.0667	-2.9688	-2.4562	-3.1063	-2.7062	170.028	27.845	103.137	177.824	-62.683	185.145	202.035	168.075	65.659	86.680	-82.286	-61.569	17.900	173.101	-32.310	173.815	0.00040345	0.00049007	0.00014547	1419.9	3.279e-06	6.5267e-06	1397.2	377.39	4.1144e-06	4.6659e-06	420.13	138.35	121.54	40.531	4.0083e-06	49.832	0.0008361	0.0011161	0.00031225	1434.7	1.1844e-05	1.2925e-05	1415.5	383.93	1.1436e-05	1.2536e-05	428.7	141.87	124.56	41.701	1.1581e-05	51.245	140.264	-6.897	-16.435	-99.382	55.665	40.270	-99.724	-95.014	-15.692	26.101	-95.450	-91.455	-90.871	-85.887	58.587	-86.481	-8191	255	
28892.842	1	1	0	0	0.12354	0.12027	0.18195	0.15837	0.1845	0.15431	0.12191	0.18574	0.20084	0.2162	0.18631	0.1039	0.12493	0.18441	0.24986	0.1796	-2.1104	-3.0833	-2.1646	-3.0167	-2.7979	-2.4375	-3.3208	-2.7979	-2.6667	-2.9854	-2.4583	-2.7667	-3.0062	-2.1417	-2.8146	-2.7458	96.647	55.983	130.840	-59.466	-35.712	7.483	-108.353	222.114	83.005	-105.372	58.689	171.046	202.821	202.270	-106.688	213.001	0.00046278	0.00047182	0.00013534	1415.1	3.734e-06	6.3992e-06	1395.7	376.62	5.7375e-06	4.7714e-06	423.21	138.75	121.73	40.71	3.9143e-06	49.949	0.00083513	0.0011027	0.00031546	1435.4	1.2052e-05	1.3058e-05	1418	383.59	1.1761e-05	1.2459e-05	429.39	142.16	124.43	41.692	1.1437e-05	51.351	141.555	-21.318	-27.831	-99.176	26.897	43.698	-99.796	-94.945	3.546	22.969	-95.547	-91.332	-91.049	-85.779	6.693	-86.960	-8191	255	
28892.938	1	1	0	0	0.079448	0.2717	0.10523	0.11162	0.11879	0.15105	0.24309	0.16641	0.25544	0.087068	0.2113	0.089455	0.2366	0.32412	0.24209	0.17083	-1.9083	-3.0958	-2.4479	-2.6312	-3.0104	-2.3646	-3.2583	-2.7958	-2.3396	-3.1188	-2.5792	-2.8	-3.05	-2.5021	-2.9333	-2.8896	221.043	193.973	87.795	207.300	36.343	75.784	184.266	227.387	-81.002	71.046	229.155	118.558	159.222	162.588	-30.148	171.594	0.00040833	0.00036547	0.00014892	1419.8	4.2268e-06	5.0729e-06	1397	377.63	3.7795e-06	4.4529e-06	423.65	138.67	120.57	40.557	4.0284e-06	49.793	0.00085357	0.0011024	0.00032259	1435.9	1.2121e-05	1.2956e-05	1416.2	383.87	1.1419e-05	1.2291e-05	429.67	141.98	124.14	41.671	1.19e-05	51.263	144.222	-27.068	-21.682	-99.569	34.701	63.366	-99.494	-95.138	20.416	51.563	-95.234	-91.290	-91.099	-85.912	23.991	-86.713	-8191	255	
28893.033	1	1	0	0	0.31618	0.25396	0.2269	0.026984	0.14985	0.1895	0.23835	0.064634	0.20845	0.14544	0.069536	0.11181	0.071955	0.069077	0.074053	0.31748	-1.9521	-3.0646	-2.4667	-2.7896	-3.0229	-2.3271	-3.1437	-3.0146	-2.3292	-3.1167	-2.6458	-2.6229	-3.3021	-2.4417	-2.8792	-3.0146	-61.825	34.906	10.888	236.089	121.166	193.648	204.132	-86.913	78.762	-91.514	158.857	224.160	99.649	185.967	220.003	110.149	0.00043294	0.00052096	0.00010802	1409.1	3.442e-06	3.1546e-06	1398.1	377.42	2.7028e-06	6.1341e-06	420.99	138.92	121.45	40.624	3.6604e-06	49.902	0.00085092	0.0011372	0.00032224	1432.5	1.173e-05	1.2595e-05	1417.6	383.27	1.1418e-05	1.2522e-05	428.83	142.1	124.17	41.695	1.1651e-05	51.276	140.098	-21.461	-25.801	-99.463	45.950	44.650	-99.613	-94.886	3.910	18.308	-95.375	-91.540	-91.272	-85.846	15.007	-87.064	-8191	255	
28893.131	1	1	0	0	0.21512	0.28062	0.21934	0.27235	0.14502	0.1546	0.21501	0.46023	0.12427	0.21576	0.068926	0.32682	0.10597	0.32947	0.14038	0.10391	-1.8937	-2.925	-2.4479	-2.4021	-3.0542	-2.4542	-2.9313	-3.0917	-2.3312	-3.0979	-2.775	-2.5354	-3.1333	-2.5542	-2.7333	-3.1813	-44.004	105.459	170.125	148.373	188.939	-52.623	150.674	176.247	68.403	81.793	-63.141	-94.641	-15.263	217.928	223.387	222.047	0.00040354	0.00059121	0.00013516	1418.8	5.5346e-06	4.6244e-06	1396.8	376.14	2.2659e-06	6.0824e-06	422.23	138.67	120.85	40.548	2.8393e-06	49.919	0.0008264	0.0010861	0.00030808	1433.8	1.2024e-05	1.2662e-05	1417.9	383.45	1.1855e-05	1.2528e-05	429.59	142.03	124.26	41.663	1.1297e-05	51.167	140.609	-21.093	-32.480	-99.537	31.387	46.899	-99.431	-95.191	-6.917	28.077	-95.089	-91.109	-90.812	-85.806	31.674	-86.810	-8191	255	
28893.250	1	1	0	0	0.18662	0.13145	0.1378	0.17056	0.088932	0.043253	0.058765	0.19531	0.30804	0.16471	0.19252	0.15403	0.1795	0.22614	0.14484	0.15128	-1.7521	-2.9458	-2.8104	-2.4229	-2.9208	-2.5146	-2.7854	-3.1875	-2.1917	-3.0354	-2.9792	-2.4	-3.2687	-2.5958	-2.6	-3.0729	232.187	40.540	-22.037	237.586	165.503	-15.209	95.384	222.538	139.261	108.598	243.873	-89.905	-51.529	190.263	126.180	-95.374	0.00048425	0.00044358	0.00015145	1417.7	4.7093e-06	5.9696e-06	1396.9	376.9	5.2644e-06	5.1433e-06	423.17	138.55	121.45	40.418	4.6276e-06	49.741	0.00084467	0.0011101	0.00031013	1431.9	1.1699e-05	1.2837e-05	1417.5	383.08	1.1427e-05	1.306e-05	429.62	141.97	124.3	41.578	1.1909e-05	51.05	142.441	-27.078	-23.313	-99.319	15.412	25.570	-99.559	-94.993	5.166	36.860	-95.546	-91.446	-90.770	-85.802	6.661	-86.601	-8191	255	
28893.348	1	1	0	0	0.15103	0.048191	0.20512	0.17209	0.1501	0.079153	0.23185	0.24267	0.31793	0.076852	0.24138	0.10871	0.088553	0.10071	0.23687	0.15694	-1.6771	-2.8438	-2.8	-2.4167	-3.0667	-2.5604	-2.6396	-3.3417	-2.3063	-2.9729	-3.0396	-2.3333	-3.0979	-2.65	-2.4542	-3.25	-111.546	237.012	150.530	-57.485	12.690	208.628	218.603	153.479	197.948	221.398	-84.629	-56.546	224.965	237.903	-59.327	-52.279	0.00043617	0.00046716	0.00012718	1419.4	6.6819e-06	4.3762e-06	1400.1	376.76	2.7639e-06	4.9852e-06	420.85	137.94	121.58	40.473	3.2158e-06	49.616	0.00083846	0.0011129	0.00030307	1432.3	1.1806e-05	1.2449e-05	1415.9	383.44	1.1592e-05	1.2564e-05	428.26	141.54	124.27	41.62	1.1635e-05	51.15	136.581	-13.634	-35.594	-99.483	14.483	47.081	-99.563	-94.784	-11.344	55.154	-95.227	-91.444	-91.002	-85.767	-8.098	-86.521	-8191	255	
28893.443	1	1	0	0	0.18593	0.14413	0.21545	0.27324	0.019683	0.22119	0.12742	0.18688	0.099761	0.26809	0.18669	0.1724	0.32195	0.23543	0.11323	0.18222	-1.9625	-2.7646	-2.8896	-2.4917	-3.0375	-2.6042	-2.5292	-3.2604	-2.3563	-2.6917	-3.0271	-2.4146	-3.0396	-2.7333	-2.4042	-3.1937	-68.660	43.500	-56.014	39.665	-72.891	184.366	131.012	204.676	-89.149	-78.615	71.178	217.455	-110.933	223.773	-45.268	108.050	0.00042505	0.00060003	0.0001059	1415.2	4.5925e-06	5.0483e-06	1392.5	376.46	5.5087e-06	5.0361e-06	420.48	138.77	121.44	40.595	2.971e-06	50.001	0.00084171	0.0011453	0.00031159	1431.2	1.22e-05	1.262e-05	1415.8	382.73	1.1193e-05	1.276e-05	428.31	141.91	124.12	41.565	1.1641e-05	51.124	139.508	-6.373	-24.381	-99.592	17.824	27.976	-99.616	-94.679	-1.525	49.625	-95.243	-91.168	-91.222	-85.785	22.026	-86.718	-8191	255	
28893.539	1	1	0	0	0.095361	0.24825	0.13845	0.15215	0.098983	0.15245	0.11341	0.35269	0.1939	0.40124	0.21577	0.18585	0.14407	0.11673	0.081929	0.29195	-2.0104	-2.5979	-2.9375	-2.4104	-2.6521	-2.8812	-2.625	-3.1479	-2.3875	-2.4208	-3.2396	-2.4688	-2.7271	-2.9437	-2.2917	-3.1854	-82.732	11.515	-79.875	243.139	182.816	127.452	217.846	209.569	159.394	224.322	217.806	192.559	-84.184	181.308	87.664	157.623	0.00044015	0.00052276	0.00013556	1413.1	4.2773e-06	6.4656e-06	1397.6	376.88	3.8708e-06	5.0139e-06	420.38	138.51	121.37	40.553	3.9877e-06	49.66	0.00084487	0.0011103	0.0003056	1431.3	1.2073e-05	1.3364e-05	1415.9	383.52	1.1289e-05	1.2971e-05	428.94	142	124.23	41.545	1.2015e-05	51.034	141.508	-24.230	-11.157	-99.417	32.636	36.697	-99.627	-94.688	5.729	25.719	-95.386	-91.387	-90.748	-85.821	39.926	-86.485	-8191	255	
28893.658	1	1	0	0	0.16083	0.11854	0.073382	0.22925	0.096774	0.078852	0.42861	0.17694	0.026089	0.040332	0.10941	0.073322	0.14919	0.094515	0.27267	0.15532	-2.2896	-2.3333	-3.1125	-2.4375	-2.8563	-2.8563	-2.3833	-3.1771	-2.6729	-2.5312	-3.2354	-2.5917	-2.6854	-3.0083	-2.1104	-2.9521	186.859	76.756	152.828	148.885	193.270	79.121	225.246	124.254	76.418	133.183	74.238	160.405	108.069	105.727	-64.731	176.252	0.00044511	0.00060146	0.00016508	1405.6	3.2173e-06	6.1346e-06	1400.1	377.52	6.211e-06	5.4726e-06	420.73	137.9	121.16	40.432	4.4849e-06	49.486	0.00081702	0.0011255	0.00030512	1430.6	1.2159e-05	1.2351e-05	1416.4	383.15	1.1489e-05	1.335e-05	428.13	141.58	124.09	41.516	1.1892e-05	50.823	141.995	-24.680	-33.763	-99.651	48.883	17.221	-99.474	-94.878	4.939	34.497	-95.231	-91.406	-90.647	-85.830	-12.496	-86.594	-8191	255	
28893.729	1	1	0	0	0.14282	0.2395	0.10173	0.049044	0.109	0.1108	0.097489	0.24491	0.054861	0.25548	0.227	0.34733	0.12278	0.065444	0.37238	0.18465	-2.1604	-2.2354	-3.0812	-2.7062	-2.6146	-3.1104	-2.6312	-3.1562	-2.8458	-2.3354	-3.3063	-2.525	-2.5729	-3.1063	-2.2646	-2.9625	-24.378	150.357	18.862	186.234	246.190	16.460	153.657	159.368	19.419	148.380	59.512	220.318	-106.642	138.959	242.124	-75.092	0.00045629	0.00037155	0.00011367	1405.8	4.9534e-06	4.4034e-06	1393.3	376.38	3.2188e-06	3.9094e-06	422	138.77	121.9	40.367	5.944e-06	49.294	0.00082544	0.0010813	0.00030171	1428	1.2134e-05	1.2126e-05	1414	382.71	1.136e-05	1.2537e-05	428.61	141.65	124.17	41.447	1.181e-05	50.775	145.870	-24.038	-12.805	-99.430	17.357	59.074	-99.444	-94.879	5.755	13.995	-95.108	-91.398	-90.771	-85.658	26.137	-86.582	-8191	255	
28893.826	1	1	0	0	0.25256	0.09076	0.33757	0.062548	0.20969	0.16789	0.24721	0.52368	0.23621	0.14354	0.14416	0.18011	0.21826	0.18138	0.11182	0.22568	-2.3042	-2.3604	-2.95	-2.5312	-2.575	-3.0375	-2.4229	-2.9813	-2.9146	-2.4021	-3.1729	-2.7687	-2.2792	-3.1771	-2.3208	-2.7792	5.596	58.525	-21.703	-57.125	-84.883	111.119	181.778	192.513	-76.264	242.811	190.644	188.037	-57.077	215.457	181.648	183.571	0.000416	0.00046008	0.00018817	1408.3	3.5408e-06	6.0329e-06	1397.1	376.87	4.5672e-06	5.9829e-06	420.84	138.78	120.13	40.266	2.9851e-06	49.347	0.00080857	0.001126	0.0003048	1430	1.2126e-05	1.2844e-05	1413.9	382.64	1.1381e-05	1.3024e-05	428.37	141.69	123.45	41.377	1.1887e-05	50.785	139.080	-14.339	-12.198	-99.445	36.619	50.373	-99.623	-95.022	-20.778	35.353	-95.518	-91.586	-91.160	-86.116	-1.122	-86.669	-8191	255	
28893.945	1	1	0	0	0.19569	0.15244	0.14306	0.11384	0.082438	0.10651	0.24985	0.17662	0.098907	0.083741	0.21968	0.14675	0.15531	0.11954	0.14119	0.28244	-2.4667	-2.15	-3.1562	-2.6896	-2.4833	-3.1875	-2.5667	-2.9979	-3.1	-2.3875	-3.1792	-2.7812	-2.4125	-3.1562	-2.2917	-2.7708	-63.330	-98.109	170.823	115.666	42.359	59.202	180.689	191.676	43.821	26.340	209.201	114.467	231.358	101.360	-96.483	149.976	0.00049145	0.00045644	0.00013978	1411.5	5.2913e-06	5.4583e-06	1390.8	376.77	3.4589e-06	3.9799e-06	418.75	137.83	120.53	40.177	4.6338e-06	49.697	0.00082584	0.0011329	0.000312	1428.5	1.2588e-05	1.3112e-05	1409.6	383.01	1.143e-05	1.2873e-05	428.19	141.54	123.52	41.309	1.1803e-05	50.737	146.123	-26.895	-23.361	-99.792	8.062	30.592	-99.909	-95.073	13.435	40.489	-95.443	-91.650	-91.397	-86.012	6.461	-86.387	-8191	255	
28894.043	1	1	0	0	0.17087	0.031745	0.20442	0.32971	0.062674	0.29261	0.025938	0.28727	0.17896	0.10544	0.38839	0.18165	0.3217	0.11991	0.03205	0.14364	-2.6417	-2.3271	-2.7667	-2.8187	-2.2896	-3.025	-2.7938	-2.5104	-3.0271	-2.4313	-3.1708	-3.0042	-2.4458	-3.2958	-2.5479	-2.6542	24.256	66.185	42.016	-112.685	239.008	-58.746	49.916	215.914	20.995	-45.591	-94.569	-78.405	91.426	117.213	-13.210	182.978	0.00038214	0.00041154	0.00019328	1417.8	4.1301e-06	5.553e-06	1391.5	376.99	3.7052e-06	5.9421e-06	420.26	138.1	120.08	40.294	3.7486e-06	49.388	0.00081149	0.0011731	0.00031024	1430.3	1.2319e-05	1.2576e-05	1412.6	382.63	1.1573e-05	1.2866e-05	428	141.41	123.53	41.387	1.1819e-05	50.784	141.164	-18.317	-18.374	-99.410	23.049	43.825	-99.866	-94.843	7.811	43.881	-95.476	-91.512	-91.156	-85.800	14.503	-86.693	-8191	255	
28894.139	1	1	0	0	0.096154	0.20883	0.26998	0.13682	0.085784	0.18911	0.19644	0.32547	0.076071	0.14564	0.30992	0.08078	0.22826	0.13097	0.32024	0.39459	-2.6979	-2.1917	-2.7604	-2.9375	-2.3792	-3.0271	-2.7125	-2.4583	-3.0083	-2.4313	-2.9	-3.1625	-2.4729	-3.1354	-2.7396	-2.3667	-99.878	-12.234	121.368	-95.952	125.734	90.311	221.088	207.298	207.383	204.488	185.119	177.194	-109.509	163.639	137.787	170.313	0.00043256	0.00050131	0.00013807	1415.3	4.3228e-06	4.8907e-06	1395.4	375.11	2.7847e-06	4.6322e-06	421.48	137.89	120.48	40.269	5.7772e-06	49.447	0.00080544	0.0011512	0.00032407	1428.7	1.2598e-05	1.2363e-05	1412.3	382.41	1.1354e-05	1.311e-05	428.16	141.23	123.8	41.417	1.2249e-05	50.753	136.084	-18.292	-18.366	-99.834	-3.812	38.042	-99.555	-94.940	1.910	45.883	-95.238	-91.491	-90.836	-85.855	36.808	-86.545	-8191	255	
28894.234	1	1	0	0	0.24839	0.21007	0.28231	0.21648	0.34428	0.20281	0.19076	0.06268	0.14294	0.21309	0.18726	0.27662	0.22406	0.095753	0.20173	0.2699	-2.7562	-2.3937	-2.8604	-3.2292	-2.3438	-2.9146	-2.9896	-2.4729	-2.9417	-2.4125	-2.6458	-3.1625	-2.5042	-3.0062	-2.8417	-2.3708	171.212	74.044	41.062	201.647	111.761	-99.999	155.443	2.195	-42.412	-110.618	-8.489	160.666	-34.086	184.715	184.210	80.305	0.00042343	0.00042033	0.00014105	1418.9	4.3328e-06	3.5489e-06	1391.9	376.48	4.7037e-06	4.872e-06	422.23	137.84	120.37	40.055	6.1932e-06	49.433	0.00084022	0.0011619	0.00032327	1430.8	1.2733e-05	1.2464e-05	1411.8	382.71	1.1847e-05	1.3384e-05	428.4	141.56	123.54	41.304	1.2048e-05	50.626	144.067	-18.520	-19.578	-99.633	-7.496	19.201	-99.597	-94.753	-16.768	36.676	-95.315	-91.412	-90.945	-85.939	10.973	-86.495	-8191	255	
28894.330	1	1	0	0	0.14134	0.2569	0.2276	0.098586	0.25051	0.11324	0.21947	0.20411	0.18898	0.05656	0.32659	0.19065	0.23244	0.35037	0.11155	0.25331	-2.5521	-2.5354	-2.4333	-3.25	-2.3667	-2.8688	-2.9979	-2.35	-3.025	-2.6271	-2.5417	-3.5333	-2.4354	-3.0771	-3.0187	-2.3625	109.269	131.457	74.340	-45.905	-24.879	-21.764	233.015	225.839	75.058	106.053	167.759	62.869	223.656	215.924	13.242	-103.688	0.00044723	0.0006314	0.00012773	1409.3	5.1551e-06	5.6551e-06	1392	375.5	3.9273e-06	5.1019e-06	420.98	139	120.53	40.17	4.5122e-06	49.372	0.00083261	0.0011509	0.00031792	1429.7	1.2064e-05	1.3327e-05	1413.4	382.23	1.1345e-05	1.3304e-05	428.37	141.53	123.57	41.303	1.1471e-05	50.719	147.338	0.416	-20.826	-99.369	20.630	34.441	-99.780	-94.913	-2.653	46.038	-95.397	-91.212	-90.921	-85.743	25.718	-86.579	-8191	255	
28894.428	1	1	0	0	0.098876	0.12666	0.11775	0.19725	0.15165	0.078891	0.17454	0.25675	0.017878	0.21898	0.21599	0.28627	0.22685	0.16885	0.053045	0.28327	-2.6562	-2.6583	-2.4813	-3.2479	-2.2396	-2.7125	-3.3396	-2.2125	-2.9958	-2.7375	-2.3604	-3.3021	-2.4562	-2.7812	-3.0896	-2.3937	-45.666	7.517	100.108	173.753	144.578	152.183	145.253	212.414	181.079	-77.787	236.458	-111.546	209.154	207.295	35.267	160.295	0.00046459	0.00051509	0.00012709	1405.3	4.0016e-06	4.0862e-06	1393.7	375.74	5.1939e-06	6.2796e-06	423.43	137.92	121.09	40.316	3.4329e-06	49.227	0.00084094	0.0011486	0.00033076	1427.4	1.2413e-05	1.2605e-05	1410.9	382.37	1.1154e-05	1.3269e-05	428.91	141.25	123.74	41.347	1.1613e-05	50.599	145.512	-9.067	-21.824	-99.462	21.127	37.592	-99.641	-94.797	-21.429	39.230	-95.267	-91.219	-90.798	-85.676	18.570	-86.541	-8191	255	
28894.523	1	1	0	0	0.16568	0.24297	0.21115	0.18595	0.093914	0.15954	0.17234	0.28084	0.21267	0.20022	0.1447	0.30405	0.30934	0.23131	0.14639	0.11178	-2.5438	-2.7167	-2.3958	-3.175	-2.2646	-2.575	-3.3979	-2.4625	-2.7958	-2.725	-2.4833	-3.1354	-2.5833	-2.5938	-2.8958	-2.3333	0.983	35.403	148.138	48.349	29.040	207.169	158.859	210.346	-28.286	116.116	133.597	177.487	226.919	153.824	64.837	244.439	0.00042215	0.00042795	0.00015838	1415.5	4.9362e-06	4.9755e-06	1396.3	376.16	4.8329e-06	3.2206e-06	421.22	137.64	120.71	40.064	4.7849e-06	49.316	0.00081903	0.0011069	0.0003283	1430.7	1.2817e-05	1.3553e-05	1413.2	382.34	1.1451e-05	1.2815e-05	428.5	141.38	123.77	41.218	1.1885e-05	50.638	142.594	-26.600	-22.649	-99.285	32.304	33.758	-99.331	-94.571	8.910	30.437	-95.102	-91.122	-90.853	-85.583	20.955	-86.415	-8191	255	
28894.619	1	1	0	0	0.31305	0.16208	0.22037	0.28687	0.030811	0.11955	0.11978	0.29517	0.16656	0.069502	0.24617	0.24332	0.14086	0.098316	0.23739	0.3054	-2.2354	-2.6354	-2.2687	-3.0792	-2.4813	-2.3396	-3.2438	-2.3375	-2.8042	-2.8417	-2.2271	-2.9771	-2.5771	-2.5438	-3.0771	-2.425	244.187	18.637	-61.740	212.297	10.017	143.985	187.481	195.812	142.110	47.156	170.160	18.031	-80.039	-108.204	13.643	197.229	0.00039406	0.00050253	0.00012538	1413.5	2.6379e-06	4.6537e-06	1393	376.27	2.0533e-06	4.8205e-06	420.27	138.45	120.28	40.281	4.8163e-06	49.193	0.00085401	0.0011553	0.0003283	1428.5	1.2305e-05	1.3254e-05	1411.8	382.29	1.1921e-05	1.3208e-05	428.25	141.54	123.57	41.304	1.1826e-05	50.663	147.276	-27.210	-12.566	-99.112	15.699	52.889	-99.375	-94.521	10.255	29.300	-95.126	-90.891	-91.100	-85.666	7.962	-86.283	-8191	255	
28894.738	1	1	0	0	0.1403	0.16468	0.013602	0.18732	0.25634	0.1041	0.15115	0.21234	0.15554	0.1507	0.12799	0.3664	0.022734	0.1321	0.027378	0.39471	-2.2438	-2.8667	-2.2687	-3.1833	-2.4854	-2.4292	-3.1854	-2.4167	-2.4938	-3.0667	-2.3	-3.1104	-2.8375	-2.2729	-3.0854	-2.7083	88.938	-106.413	142.293	216.908	126.024	47.363	218.201	-110.385	231.940	-44.502	161.941	211.167	-15.916	195.908	111.900	162.145	0.00040626	0.00050603	0.00010058	1419.6	4.3353e-06	4.3162e-06	1392.1	377.09	4.5418e-06	4.161e-06	419.85	137.84	120.26	40.447	2.9615e-06	49.319	0.00085252	0.0011064	0.00033033	1430.7	1.2279e-05	1.3298e-05	1412.9	382.54	1.234e-05	1.2689e-05	427.37	141.31	123.56	41.445	1.1887e-05	50.682	140.125	-17.034	-22.743	-99.346	23.732	32.998	-99.251	-94.714	-20.497	38.888	-95.003	-91.048	-90.704	-85.468	4.726	-86.473	-8191	255	
28894.834	1	1	0	0	0.15013	0.058332	0.12945	0.28384	0.013548	0.041904	0.33962	0.066567	0.16478	0.060111	0.14674	0.31014	0.22346	0.15965	0.19976	0.42552	-2.2229	-3.1542	-2.2333	-2.9313	-2.8208	-2.2271	-3.3729	-2.6833	-2.4833	-3.0792	-2.3917	-2.9688	-2.9313	-2.4375	-2.8375	-2.5542	125.236	162.681	101.623	152.839	22.296	133.200	132.694	-108.623	-22.425	-57.600	233.858	172.708	220.959	170.480	138.032	-98.783	0.00043423	0.00058806	0.00015359	1412.3	2.4235e-06	4.3226e-06	1392.8	374.71	5.0745e-06	5.5178e-06	420.34	138.87	120.7	40.139	5.3434e-06	49.265	0.00084752	0.0011562	0.00033427	1428.8	1.2468e-05	1.3506e-05	1412.4	382.11	1.1618e-05	1.2628e-05	427.74	141.6	123.68	41.221	1.2037e-05	50.543	148.016	-29.792	-38.344	-99.478	26.062	26.661	-99.090	-94.702	-10.822	40.023	-95.042	-90.965	-90.973	-85.549	26.847	-86.533	-8191	255	
28894.930	1	1	0	0	0.14894	0.18118	0.32404	0.33758	0.029894	0.26351	0.53563	0.30132	0.19834	0.10291	0.22025	0.33366	0.069529	0.096733	0.11391	0.31852	-1.9375	-3.1792	-2.3333	-2.7521	-2.8229	-2.2313	-3.0438	-2.6604	-2.2167	-3.0146	-2.425	-2.5354	-3.1562	-2.2042	-2.9854	-2.7646	107.267	-52.437	193.524	-70.224	76.136	23.151	175.324	205.639	169.270	160.590	224.783	219.334	244.394	123.352	198.912	133.162	0.00039581	0.00052157	0.00014511	1420.4	5.0806e-06	3.2353e-06	1391.2	376.52	3.3735e-06	5.4067e-06	421.18	138.1	120.6	40.142	3.4556e-06	49.131	0.00084744	0.0011369	0.00032766	1434.1	1.2017e-05	1.285e-05	1411.6	382.78	1.2154e-05	1.3164e-05	427.96	141.25	123.35	41.271	1.2157e-05	50.637	139.211	-36.796	-22.019	-99.316	22.341	47.188	-99.328	-94.723	-15.608	29.782	-95.210	-91.145	-90.903	-85.821	12.482	-86.585	-8191	255	
28895.027	1	1	0	0	0.12827	0.17123	0.053336	0.21572	0.11644	0.20237	0.2083	0.37229	0.046815	0.25214	0.35035	0.18461	0.09891	0.09586	0.17256	0.090834	-1.95	-3.1229	-2.4271	-2.5833	-2.9396	-2.1312	-3.0542	-2.9938	-2.1417	-3.0146	-2.5646	-2.5625	-3.0208	-2.2417	-2.6854	-2.9229	46.278	115.459	47.577	146.477	195.173	198.255	194.548	164.158	30.872	-55.966	-70.930	122.207	50.013	101.396	-84.876	217.143	0.00045465	0.00042155	0.00014355	1415.6	5.2658e-06	3.5793e-06	1393.7	374.55	3.9725e-06	5.4289e-06	418.31	137.98	120.38	40.157	2.9312e-06	49.305	0.00084407	0.0011274	0.00032757	1429.7	1.2349e-05	1.3299e-05	1413.4	382.24	1.181e-05	1.2863e-05	426.57	141.2	123.49	41.264	1.2406e-05	50.565	144.079	-27.780	-30.538	-99.393	40.262	58.659	-99.333	-94.780	-10.545	58.533	-95.027	-90.926	-90.767	-85.724	30.789	-86.394	-8191	255	
28895.123	1	1	0	0	0.16229	0.076831	0.10026	0.36861	0.065931	0.25729	0.15068	0.32433	0.065336	0.28913	0.066919	0.11779	0.14474	0.10284	0.079375	0.25519	-1.8896	-2.9604	-2.3937	-2.4292	-2.9292	-2.2479	-3.0042	-3.1167	-2.0667	-3.0708	-2.7896	-2.4854	-3.1875	-2.375	-2.7896	-3.0958	50.326	62.662	-105.097	222.057	189.881	137.651	170.242	204.890	-87.983	86.559	198.628	-91.622	-72.628	224.535	200.200	23.373	0.00041389	0.00044367	0.00010387	1419.3	4.1922e-06	5.155e-06	1398.1	376.85	3.6762e-06	4.9932e-06	419.54	137.67	120.58	40.34	2.7024e-06	49.305	0.00086142	0.0011374	0.00034107	1429.4	1.2323e-05	1.3231e-05	1412.7	382.48	1.2201e-05	1.3134e-05	427.32	141.21	123.39	41.26	1.2405e-05	50.661	141.792	-23.501	-30.569	-99.004	15.681	31.973	-99.103	-94.589	3.747	30.589	-94.947	-91.038	-90.467	-85.628	41.104	-85.985	-8191	255	
28895.219	1	1	0	0	0.30834	0.12428	0.12316	0.22056	0.084016	0.21974	0.31904	0.30711	0.062648	0.17243	0.15447	0.3538	0.13881	0.29291	0.20643	0.14746	-1.8854	-2.8937	-2.5979	-2.3271	-2.9583	-2.3583	-2.7854	-3.1104	-2.1542	-2.8667	-2.7375	-2.4354	-3.0479	-2.4188	-2.5625	-3.1729	172.929	151.587	104.974	195.047	169.536	180.853	149.535	189.594	17.562	-90.073	211.023	225.911	-35.276	168.489	128.500	225.757	0.00042448	0.00051592	0.00014425	1413.2	4.2201e-06	5.6186e-06	1395.3	377.05	3.8968e-06	5.1056e-06	419.71	138.54	120.97	40.208	3.6911e-06	49.188	0.00085914	0.0011878	0.00033399	1428.4	1.2538e-05	1.3351e-05	1411.3	382.16	1.2101e-05	1.3343e-05	427.47	141.39	123.65	41.242	1.2494e-05	50.612	145.509	-27.303	-33.015	-98.985	43.666	51.213	-98.957	-94.472	6.353	36.291	-95.183	-90.848	-90.718	-85.342	22.710	-86.391	-8191	255	
28895.340	1	1	0	0	0.23502	0.16774	0.051522	0.034816	0.13457	0.16997	0.15817	0.20034	0.15781	0.17333	0.25412	0.1087	0.15606	0.20738	0.19381	0.28315	-1.5542	-2.7917	-2.6063	-2.3354	-3.0375	-2.4917	-2.6	-3.225	-2.3417	-2.9604	-2.8458	-2.3417	-3.1417	-2.675	-2.3354	-3.1042	117.612	228.499	-6.242	47.038	-34.197	60.675	230.810	192.443	-101.781	-110.014	214.868	31.580	124.399	213.487	-56.727	45.772	0.00045543	0.00072184	0.00010999	1411.9	4.6851e-06	5.6014e-06	1395.8	376.32	3.791e-06	5.6691e-06	421.3	137.9	121.21	40.18	3.9141e-06	49.252	0.0008524	0.0011636	0.000326	1429	1.23e-05	1.3347e-05	1411.8	382.8	1.2004e-05	1.3346e-05	428.39	141.13	123.99	41.237	1.2425e-05	50.547	147.588	-20.668	-32.078	-99.248	42.186	40.427	-99.434	-94.509	28.080	31.097	-95.006	-90.867	-90.595	-85.127	11.074	-85.888	-8191	255	
28895.436	1	1	0	0	0.24328	0.067552	0.048962	0.094339	0.076844	0.039647	0.35954	0.27725	0.10982	0.098314	0.1045	0.29972	0.039489	0.222	0.24488	0.20824	-1.8333	-2.6354	-2.7812	-2.2938	-3.0021	-2.6437	-2.5812	-3.2521	-2.3229	-2.75	-2.9708	-2.5042	-2.9021	-2.6292	-2.2208	-3.2438	133.534	244.579	209.074	-87.655	176.072	71.201	173.221	209.225	87.587	214.134	157.230	227.663	91.873	221.483	-100.602	197.771	0.00043593	0.00042786	0.00012138	1410.3	5.4653e-06	4.6007e-06	1394.7	375.86	4.8597e-06	5.6194e-06	420.91	138.18	120.78	40.019	3.3077e-06	49.05	0.00086639	0.0011977	0.00032862	1430.2	1.2608e-05	1.2957e-05	1413.1	382.7	1.2104e-05	1.3951e-05	428.11	141.34	123.75	41.195	1.2449e-05	50.517	146.467	-25.485	-28.153	-98.974	29.149	47.601	-99.322	-94.495	-3.382	33.587	-94.805	-90.749	-90.612	-85.644	26.649	-85.890	-8191	255	
28895.529	1	1	0	0	0.077696	0.064905	0.13374	0.33837	0.12546	0.083237	0.18016	0.34885	0.048511	0.10312	0.1394	0.15148	0.11029	0.096476	0.28308	0.21251	-1.9229	-2.6667	-3.0042	-2.3021	-2.7396	-2.7167	-2.5396	-3.1542	-2.4604	-2.3187	-3.2188	-2.2208	-2.8875	-2.9	-2.3958	-3.1292	7.177	12.678	-19.315	227.882	231.816	-85.976	227.263	210.905	135.809	-19.584	116.776	66.807	235.521	-9.506	141.231	110.121	0.00048326	0.00047649	0.00011995	1413.3	4.2312e-06	3.9606e-06	1392	376.33	4.4428e-06	4.8556e-06	420.45	137.3	120.94	40.216	5.1148e-06	49.246	0.00085056	0.0011781	0.00031805	1427.4	1.276e-05	1.2922e-05	1410.7	382.26	1.2186e-05	1.2866e-05	427.53	140.89	123.52	41.153	1.2528e-05	50.498	141.830	-31.944	-20.068	-99.210	6.580	36.614	-99.292	-94.471	-5.851	28.598	-94.953	-91.222	-90.921	-85.488	14.863	-86.383	-8191	255	
28895.604	1	1	0	0	0.14519	0.055662	0.17489	0.097461	0.081689	0.18965	0.04133	0.080539	0.19074	0.25649	0.24069	0.29926	0.31913	0.24219	0.21411	0.2087	-2.1521	-2.5812	-2.85	-2.2625	-2.6958	-2.8646	-2.4375	-3.0896	-2.5333	-2.1396	-3.2208	-2.4333	-2.7208	-2.9833	-2.25	-2.9229	33.465	74.655	60.923	-8.100	-88.402	202.880	209.703	-66.745	94.926	86.972	183.861	229.027	-37.412	196.013	-96.501	182.261	0.00044479	0.00047625	0.00017903	1409.3	4.7529e-06	3.9323e-06	1396.4	375.55	4.5028e-06	3.5598e-06	419.52	138.23	120.9	40.064	3.2614e-06	49.057	0.00086895	0.0012086	0.0003308	1428.8	1.2558e-05	1.289e-05	1413.9	382.32	1.2228e-05	1.3083e-05	428.09	141.22	123.68	41.156	1.2709e-05	50.456	140.857	-16.791	-27.517	-99.431	28.460	54.585	-99.279	-94.695	14.584	6.543	-95.065	-91.262	-91.110	-85.935	33.339	-86.492	-8191	255	
28895.723	1	1	0	0	0.2627	0.019617	0.17336	0.2163	0.13654	0.32017	0.15782	0.30977	0.16888	0.16443	0.06075	0.20451	0.052021	0.13402	0.17745	0.11069	-2.1875	-2.3021	-3.025	-2.6208	-2.5438	-2.8729	-2.3063	-2.9813	-2.7062	-2.3229	-3.1229	-2.5792	-2.5708	-3.0125	-2.1792	-3.1021	177.266	122.754	-103.527	234.489	-38.172	-42.292	223.703	214.009	139.981	-49.887	140.625	242.748	53.668	71.853	63.562	-27.652	0.00036085	0.00061563	0.00019552	1410.2	3.5781e-06	3.6424e-06	1393.1	375.27	4.528e-06	4.7378e-06	420.73	138.05	120.57	40.073	4.8865e-06	49.162	0.00086811	0.001194	0.0003308	1427.2	1.2568e-05	1.3053e-05	1411.9	382.08	1.2207e-05	1.3236e-05	428.07	141.17	123.6	41.213	1.2333e-05	50.516	144.282	-22.292	-28.843	-99.511	-27.052	29.756	-99.194	-94.693	-0.834	39.438	-95.227	-91.110	-90.663	-85.437	15.458	-86.158	-8191	255	
28895.818	1	1	0	0	0.1844	0.068045	0.15587	0.064608	0.079884	0.13617	0.21903	0.16463	0.058982	0.10006	0.32576	0.12257	0.1391	0.062445	0.20031	0.063158	-2.3063	-2.2667	-3.0854	-2.4062	-2.4583	-2.9333	-2.6625	-3.0604	-2.7875	-2.2729	-3.1562	-2.5958	-2.2854	-3.3063	-2.3083	-2.9375	173.977	221.583	-20.326	30.008	86.580	-53.330	200.659	208.826	94.516	-111.866	185.443	60.039	232.732	-54.154	190.819	-24.449	0.00048066	0.0006431	0.00016774	1420.2	3.5822e-06	4.5384e-06	1396.8	376.48	2.9899e-06	5.1204e-06	418.22	137.14	120.23	40.053	2.7876e-06	49.163	0.00082776	0.0012049	0.00031862	1430.1	1.2606e-05	1.3346e-05	1414.9	383.25	1.1747e-05	1.3546e-05	427.32	140.74	123.3	41.206	1.2926e-05	50.565	136.865	-8.405	-25.244	-99.418	2.883	22.730	-99.404	-94.606	-31.722	35.654	-95.269	-91.192	-90.928	-86.084	-16.472	-86.613	-8191	255	
28895.914	1	1	0	0	0.19125	0.06969	0.20608	0.20876	0.10958	0.12855	0.080361	0.26239	0.21487	0.13733	0.11346	0.19046	0.066435	0.008752	0.10881	0.022457	-2.6333	-2.1042	-2.9167	-2.6479	-2.2896	-3.2042	-2.5375	-2.7604	-2.9	-2.2792	-3.175	-2.6562	-2.3521	-3.1	-2.3937	-2.7771	164.638	-58.592	-25.970	212.537	153.074	-60.861	-15.733	232.826	197.336	-92.542	-22.611	196.470	67.366	75.744	171.876	-96.599	0.00040496	0.00038921	0.00019629	1414.4	3.4368e-06	5.1221e-06	1391	375.31	4.1913e-06	4.3272e-06	420.03	138.08	120.4	40.113	4.7226e-06	49.078	0.00085389	0.0011987	0.00034704	1427.3	1.3162e-05	1.3454e-05	1411.2	382.27	1.2163e-05	1.3635e-05	428.4	141.28	123.67	41.183	1.3076e-05	50.477	143.640	-14.380	-27.700	-99.847	19.419	35.734	-99.793	-94.830	-14.593	53.067	-95.169	-91.290	-91.117	-85.965	19.983	-86.321	-8191	255	
28896.012	1	1	0	0	0.34345	0.17434	0.10493	0.2547	0.25977	0.095328	0.17164	0.44629	0.098367	0.12587	0.24613	0.18145	0.085342	0.16713	0.039978	0.19919	-2.7229	-2.3125	-2.7833	-2.8	-2.3542	-3.0542	-2.8312	-2.6375	-3.0125	-2.3187	-3.0375	-2.9771	-2.3042	-3.0583	-2.4917	-2.5604	-107.906	122.353	-8.077	246.786	138.629	-108.108	199.369	222.297	158.147	-78.067	221.814	29.677	94.149	-76.799	169.173	200.202	0.00043521	0.00050606	0.00015032	1424.7	3.6771e-06	4.6205e-06	1392.8	377.86	2.6624e-06	6.3896e-06	419.33	138.07	120.48	40.095	4.4241e-06	49.069	0.00086587	0.0011962	0.00033096	1432.1	1.3527e-05	1.3362e-05	1412.1	382.95	1.1764e-05	1.4108e-05	427.91	141.48	123.41	41.204	1.2682e-05	50.566	141.063	-33.232	-29.071	-99.478	35.648	41.046	-99.806	-94.764	14.020	34.538	-95.321	-91.469	-90.987	-85.628	9.382	-86.645	-8191	255	
28896.131	1	1	0	0	0.29519	0.088755	0.2036	0.25382	0.10115	0.1516	0.49739	0.20643	0.16353	0.10063	0.10641	0.42892	0.29665	0.24661	0.1888	0.4483	-2.6063	-2.3729	-2.7979	-2.8625	-2.2917	-3.0438	-2.7979	-2.5708	-3.1771	-2.3063	-2.8292	-2.9437	-2.3417	-3.0958	-2.5958	-2.5792	69.409	36.133	-60.199	192.244	26.912	109.436	190.409	178.453	178.716	210.784	-89.964	184.188	-55.153	242.638	31.187	177.776	0.00043909	0.0004935	0.00010953	1410.8	6.6989e-06	6.2903e-06	1393.2	375.96	5.2568e-06	5.8326e-06	420.53	138.01	120.56	40.164	3.7009e-06	49.106	0.00086154	0.0012455	0.0003411	1431.1	1.2991e-05	1.3792e-05	1412.1	382.61	1.2378e-05	1.4067e-05	428.09	141.3	123.16	41.225	1.2442e-05	50.489	140.988	-28.344	-20.333	-99.644	40.818	27.921	-99.532	-94.583	-11.715	39.937	-95.264	-91.296	-90.730	-85.624	-3.900	-86.242	-8191	255	
28896.203	1	1	0	0	0.13865	0.027845	0.10854	0.25585	0.13426	0.11414	0.2161	0.25167	0.28689	0.2429	0.27396	0.39542	0.13249	0.32725	0.14546	0.20435	-2.6729	-2.3312	-2.6375	-3.0354	-2.1604	-2.9813	-2.7167	-2.4375	-3.025	-2.4417	-2.7083	-3.0583	-2.1333	-3.0667	-2.7042	-2.5021	-27.785	153.625	-18.145	-73.412	73.401	182.499	172.435	116.170	238.752	230.999	-67.942	220.405	196.459	165.771	-66.334	164.519	0.00040014	0.00064693	8.3943e-05	1410.7	3.4971e-06	4.4788e-06	1395.3	376.4	5.5448e-06	6.4459e-06	420.28	137.6	120.6	40.214	5.5157e-06	49.231	0.00085737	0.0012113	0.00033538	1426.7	1.2902e-05	1.3478e-05	1412.5	382.7	1.1878e-05	1.3759e-05	427.83	140.86	123.29	41.216	1.2158e-05	50.531	147.258	-20.288	-2.719	-99.113	23.022	34.375	-99.298	-94.402	13.407	32.318	-94.974	-91.278	-90.787	-85.479	23.983	-86.090	-8191	255	
28896.299	1	1	0	0	0.1449	0.21975	0.22082	0.25327	0.18915	0.029187	0.29666	0.30296	0.29757	0.21086	0.059308	0.064398	0.21765	0.17074	0.13046	0.31481	-2.6	-2.375	-2.5396	-3.075	-2.2687	-2.9167	-2.95	-2.3479	-3.0708	-2.5625	-2.625	-3.1729	-2.5	-2.825	-2.8875	-2.4562	187.327	44.930	137.293	229.394	116.597	-48.285	203.055	157.209	3.134	193.892	65.145	-93.814	170.914	193.706	78.307	170.353	0.00039481	0.0004458	0.00013717	1412.5	4.9207e-06	5.4623e-06	1388.6	376.55	4.7191e-06	5.5453e-06	420.78	138.25	120.55	40.262	2.8101e-06	48.903	0.00083742	0.0011881	0.00034198	1428.5	1.2585e-05	1.3357e-05	1411.6	382.26	1.1717e-05	1.3726e-05	428.99	141.05	123.11	41.201	1.2455e-05	50.392	144.880	-18.457	-28.955	-99.323	44.397	48.565	-99.410	-94.554	9.593	57.961	-95.123	-91.028	-91.169	-85.172	28.212	-86.193	-8191	255	
28896.420	1	1	0	0	0.19521	0.25769	0.13416	0.18795	0.20567	0.21882	0.1967	0.078514	0.17028	0.091211	0.21484	0.22522	0.18268	0.22505	0.14611	0.15425	-2.6833	-2.5687	-2.6667	-3.1958	-2.3708	-2.7083	-3.1937	-2.4667	-2.9625	-2.7646	-2.6229	-3.1917	-2.4562	-2.9938	-3.0333	-2.4667	-11.701	101.717	-106.876	-44.941	5.500	-6.956	148.736	211.013	-39.446	16.661	-94.219	210.375	-102.769	-49.209	153.671	244.091	0.00045086	0.00047429	0.00014185	1412.1	3.7906e-06	4.6919e-06	1394.2	375.04	2.8507e-06	4.1607e-06	420.03	137.74	120.03	40.068	4.2369e-06	49.01	0.00084343	0.0011678	0.00033893	1430.1	1.3035e-05	1.3913e-05	1412.3	382.5	1.2054e-05	1.3325e-05	428.25	140.91	122.99	41.15	1.2326e-05	50.356	141.306	-4.797	-25.169	-99.445	30.645	53.536	-99.650	-94.602	8.774	42.229	-95.356	-91.218	-90.868	-85.744	23.718	-86.612	-8191	255	
28896.516	1	1	0	0	0.11366	0.11474	0.34625	0.021562	0.33738	0.12537	0.24526	0.28587	0.28736	0.1424	0.31161	0.15496	0.22356	0.14572	0.16903	0.15543	-2.5771	-2.6146	-2.4229	-3.0271	-2.4646	-2.7833	-3.3625	-2.4729	-2.9146	-2.9396	-2.4083	-3.3667	-2.5708	-2.625	-3.0896	-2.5729	106.919	219.090	-46.588	19.686	132.369	-29.838	204.566	163.469	-79.366	-47.577	239.764	-54.018	-83.582	-96.347	143.672	226.014	0.00046361	0.00042048	0.00017498	1414.5	4.4969e-06	6.3471e-06	1393.7	375.5	4.5213e-06	6.0861e-06	420.04	137.96	120.38	40.103	3.299e-06	49.208	0.00086807	0.0011982	0.00034228	1428.2	1.2581e-05	1.3587e-05	1411.1	381.88	1.2487e-05	1.3679e-05	427.5	141.26	123.25	41.175	1.2328e-05	50.408	139.328	-29.646	-46.480	-99.128	14.724	57.623	-99.330	-94.927	-2.487	26.029	-95.278	-91.201	-90.886	-85.468	19.289	-86.276	-8191	255	
28896.611	1	1	0	0	0.07314	0.17443	0.21337	0.16724	0.30107	0.24277	0.20182	0.092489	0.2156	0.29366	0.14324	0.19994	0.30727	0.15966	0.019602	0.17227	-2.3063	-2.9292	-2.4042	-3.2167	-2.6667	-2.4521	-3.4542	-2.4521	-2.7604	-2.9083	-2.4458	-3.1188	-2.6729	-2.3667	-3.1146	-2.4271	88.956	-8.383	-99.634	136.330	53.622	204.116	213.253	215.735	84.119	-35.729	125.985	-107.051	190.996	-65.748	54.380	153.498	0.00045083	0.00050791	0.00010071	1414.2	3.2382e-06	4.4188e-06	1390.6	376.46	3.5866e-06	4.5454e-06	420.5	137.95	121.29	40.125	5.2662e-06	48.917	0.00086458	0.0012094	0.00034747	1430.2	1.2802e-05	1.3563e-05	1410.4	382.48	1.2131e-05	1.4015e-05	427.38	141.22	123.76	41.18	1.2496e-05	50.395	141.370	-20.878	-14.000	-99.320	51.305	44.153	-99.431	-94.669	-8.222	48.109	-95.081	-90.983	-91.215	-85.523	16.258	-86.345	-8191	255	
28896.730	1	1	0	0	0.30136	0.07357	0.26488	0.4313	0.12777	0.042398	0.15271	0.15517	0.1513	0.096523	0.31175	0.14096	0.19264	0.4492	0.11943	0.1349	-2.2562	-2.7125	-2.2542	-3.1604	-2.5812	-2.475	-3.1479	-2.375	-2.7271	-2.8917	-2.3333	-3.0479	-2.7792	-2.3479	-3.0563	-2.5021	9.404	-109.889	111.236	220.676	-85.062	47.926	97.981	207.202	22.123	-51.018	118.062	212.336	-58.445	180.540	200.644	210.478	0.00037586	0.00046957	0.00014249	1412.8	4.2711e-06	4.7806e-06	1392.7	376.12	5.0256e-06	6.4472e-06	418.98	137.27	120.49	40.087	3.6729e-06	48.905	0.00088302	0.0011812	0.00034615	1428.9	1.2559e-05	1.3619e-05	1411.1	381.85	1.2445e-05	1.357e-05	427.25	141.09	123.24	41.199	1.2512e-05	50.402	151.626	-42.202	-7.981	-99.224	35.995	68.317	-99.482	-94.608	1.324	50.424	-95.185	-90.975	-91.010	-85.543	26.547	-86.632	-8191	255	
28896.826	1	1	0	0	0.048403	0.11938	0.10494	0.18796	0.14989	0.15713	0.26919	0.35133	0.12283	0.28816	0.37144	0.17715	0.10618	0.17198	0.11303	0.24015	-2.0021	-3.0146	-2.2313	-3.0271	-2.8917	-2.3563	-3.2229	-2.6042	-2.4833	-3.0208	-2.3271	-2.9375	-2.7062	-2.1521	-2.9771	-2.5979	13.934	57.084	-22.450	-86.995	42.711	-19.584	214.263	241.539	-89.532	117.367	229.747	189.939	148.271	86.873	184.438	153.186	0.00042492	0.00050544	0.00014232	1414.8	4.3441e-06	4.406e-06	1392.8	375.8	5.8372e-06	4.0491e-06	420.02	137.55	121.04	40.153	3.549e-06	48.984	0.00086831	0.0011805	0.00033811	1430	1.3032e-05	1.3883e-05	1412.2	382.83	1.2754e-05	1.377e-05	428.07	141.14	123.33	41.191	1.2803e-05	50.41	144.357	-37.045	-8.805	-99.453	9.883	43.700	-99.470	-94.896	-9.554	29.372	-95.041	-91.218	-91.011	-85.700	42.003	-86.549	-8191	255	
28896.898	1	1	0	0	0.11796	0.074659	0.13742	0.11503	0.091178	0.14162	0.18714	0.25757	0.14592	0.046176	0.18418	0.23133	0.22487	0.096159	0.092499	0.15471	-2.0625	-3.0521	-2.4104	-2.8896	-3.0021	-2.2833	-3.1917	-2.8083	-2.375	-3.0646	-2.7667	-2.7875	-3.0042	-2.3646	-2.9104	-2.7958	180.985	178.101	-9.397	171.192	-20.542	25.908	123.011	226.090	171.879	-67.275	214.502	228.011	176.621	-34.691	-57.466	229.585	0.00042212	0.00072031	0.00013811	1414.3	4.1078e-06	6.4544e-06	1391.3	376.72	3.9289e-06	5.5398e-06	421.67	137.18	120.02	40.111	4.3007e-06	49.07	0.00087765	0.0012158	0.00035681	1428.8	1.2678e-05	1.3731e-05	1410	382.17	1.2296e-05	1.3405e-05	428.14	140.91	123.06	41.166	1.2587e-05	50.38	145.631	-36.757	-23.355	-99.394	30.801	32.798	-99.570	-94.780	9.901	50.544	-95.233	-91.235	-91.261	-85.642	35.725	-86.483	-8191	255	
28897.020	1	1	0	0	0.34343	0.072806	0.064493	0.22792	0.19859	0.1936	0.38257	0.2922	0.085214	0.080584	0.10202	0.18934	0.094649	0.097013	0.13501	0.18826	-1.8792	-3.0833	-2.3875	-2.7854	-2.8646	-2.1521	-3.1542	-2.9688	-2.1979	-3.0229	-2.5229	-2.7771	-3.1	-2.55	-2.7958	-2.8438	-103.112	101.547	225.313	134.812	63.203	59.675	206.990	148.502	-92.842	241.998	181.564	-80.352	114.692	-57.839	198.698	217.669	0.00039194	0.00047935	0.00011495	1409.4	4.4373e-06	5.936e-06	1388.4	374.25	4.1003e-06	4.5215e-06	418.2	137.6	119.99	40.26	5.5841e-06	48.855	0.0008621	0.0011898	0.00033825	1426.8	1.2459e-05	1.399e-05	1409.4	381.65	1.205e-05	1.3323e-05	426.97	141.01	123.34	41.161	1.237e-05	50.347	145.234	-5.611	-7.653	-99.262	39.129	38.699	-99.316	-94.764	-2.623	23.599	-95.217	-90.961	-90.882	-85.570	13.481	-86.549	-8191	255	
28897.115	1	1	0	0	0.22015	0.096015	0.23986	0.16254	0.060452	0.16554	0.36146	0.21766	0.13257	0.21073	0.1269	0.026955	0.22737	0.060049	0.13669	0.3189	-2	-3.0417	-2.4896	-2.5	-2.975	-2.1708	-3.1083	-2.8042	-2.3854	-3.0208	-2.7	-2.5021	-3.1708	-2.3438	-2.7938	-3.0667	-1.381	66.214	9.196	-80.721	205.062	194.967	223.992	183.181	43.521	-107.590	162.604	227.384	223.461	36.830	-109.428	173.467	0.00044876	0.00052652	0.00020223	1409.1	4.1078e-06	4.4055e-06	1393.3	376.19	3.4502e-06	5.7676e-06	421.19	137.9	120.64	40.048	2.4759e-06	48.882	0.00084836	0.0011994	0.00033916	1427.7	1.2417e-05	1.337e-05	1409.6	382	1.2149e-05	1.3581e-05	427.61	141.14	123.28	41.153	1.263e-05	50.309	141.290	-32.886	-20.780	-99.058	18.554	27.313	-99.330	-94.590	-14.768	53.603	-94.989	-91.079	-90.804	-86.139	10.028	-86.511	-8191	255	
28897.213	1	1	0	0	0.12127	0.25584	0.30149	0.14754	0.35704	0.078965	0.17537	0.087263	0.12456	0.21189	0.10273	0.22311	0.13931	0.21469	0.15632	0.20453	-1.8021	-2.95	-2.5646	-2.4271	-3.0312	-2.3896	-2.8312	-3.1625	-2.2667	-2.8833	-2.8729	-2.3792	-3.15	-2.5646	-2.4646	-3.1396	-27.781	58.006	157.286	223.510	186.830	-36.733	169.329	235.531	-54.057	33.323	-11.245	-101.795	245.548	167.458	-104.679	117.292	0.00042777	0.00061467	0.00015123	1405.1	1.673e-06	3.7837e-06	1388.7	373.98	2.0291e-06	3.442e-08	418.89	137.77	119.81	39.799	4.8775e-06	49.084	0.00087825	0.0011705	0.00035059	1425.7	1.2477e-05	1.3603e-05	1408.6	381.37	1.2151e-05	1.34e-05	426.94	140.88	122.9	41.01	1.2499e-05	50.338	144.913	-15.782	-29.143	-99.553	29.674	21.828	-99.485	-95.012	-34.842	84.587	-95.454	-91.374	-91.244	-86.105	10.764	-86.694	-8191	255	
28897.309	1	1	0	0	0.29591	0.090843	0.064663	0.19015	0.31785	0.016262	0.27194	0.11551	0.18867	0.13291	0.19098	0.38857	0.11901	0.17938	0.15297	0.11243	-1.7479	-3.0021	-2.7042	-2.3812	-3.0708	-2.2938	-2.5604	-3.2333	-2.075	-2.8542	-3.0583	-2.3729	-3.0938	-2.5542	-2.4354	-3.2812	-15.575	242.745	-79.443	182.243	161.856	-75.751	146.869	213.263	209.945	-101.380	152.002	226.963	156.972	135.516	-69.748	18.546	0.00042391	0.00045523	0.00014448	1414.1	4.9595e-06	4.0104e-06	1392.8	376.6	4.974e-06	5.9673e-06	419.24	137.42	119.71	39.958	2.7532e-06	48.899	0.00085889	0.0011853	0.00033702	1427.9	1.2571e-05	1.3758e-05	1407.8	381.91	1.2227e-05	1.3207e-05	427.85	140.82	123.09	41.085	1.254e-05	50.359	148.774	4.748	-35.627	-99.489	14.948	1.615	-99.552	-95.243	4.392	50.848	-95.475	-91.334	-90.965	-86.161	17.102	-86.697	-8191	255	
28897.430	1	1	0	0	0.21231	0.081131	0.18724	0.26936	0.082145	0.11249	0.33218	0.2358	0.21333	0.12765	0.34641	0.2625	0.11857	0.17138	0.06527	0.20635	-1.8312	-2.8812	-2.8521	-2.1958	-2.8625	-2.5875	-2.4854	-3.2021	-2.3812	-2.6917	-3.1333	-2.275	-2.975	-2.7479	-2.0479	-3.0604	188.498	124.350	-75.026	-106.329	53.701	68.006	193.479	200.511	-33.802	12.972	222.732	126.071	192.779	-20.079	-24.564	168.777	0.00040233	0.00050891	0.000169	1409.2	2.3812e-06	3.6831e-06	1389.1	375.63	1.6381e-06	4.2973e-06	419.15	137.77	120.56	40.054	4.9144e-06	48.928	0.0008714	0.0011705	0.00033438	1423.6	1.261e-05	1.3602e-05	1407.9	382.45	1.22e-05	1.3283e-05	427.31	141.02	123.25	41.073	1.2783e-05	50.305	144.279	-12.970	-9.441	-99.466	29.816	28.388	-99.481	-94.787	54.116	36.210	-95.260	-91.347	-91.064	-85.775	15.760	-86.719	-8191	255	
28897.500	1	1	0	0	0.055275	0.23803	0.02607	0.18052	0.40944	0.11805	0.2626	0.38654	0.093858	0.10779	0.15944	0.3478	0.20518	0.090495	0.10953	0.20487	-1.9125	-2.6312	-2.9958	-2.2875	-2.7625	-2.7167	-2.5812	-3.1667	-2.4333	-2.6	-3.1	-2.375	-2.8583	-3.0021	-2.3271	-3.4062	-6.476	35.831	-35.646	186.333	136.045	102.754	-112.132	218.731	24.703	247.079	213.858	-73.587	220.024	194.656	212.031	-50.977	0.00044532	0.00059205	0.00014383	1405	3.3139e-06	4.2623e-06	1388.5	375.02	4.6021e-06	5.0903e-06	418.23	137.28	119.9	40.189	2.84e-06	49.094	0.00086831	0.0012173	0.00032124	1426.4	1.2226e-05	1.3037e-05	1408.3	381.82	1.228e-05	1.3819e-05	427.12	140.74	123.12	41.128	1.2235e-05	50.304	146.328	-15.762	-32.491	-99.498	30.278	36.401	-99.279	-94.748	-34.179	26.598	-95.006	-91.221	-90.603	-85.567	32.906	-86.178	-8191	255	
28897.596	1	1	0	0	0.21672	0.2663	0.23023	0.18828	0.048421	0.31263	0.24968	0.11184	0.065454	0.071942	0.23183	0.13619	0.053978	0.12887	0.34343	0.16719	-2.0396	-2.5438	-3.3042	-2.4208	-2.7146	-2.8708	-2.175	-3.0375	-2.6813	-2.3896	-3.2542	-2.3479	-2.9083	-3.1042	-2.3937	-3.1958	170.473	142.938	-23.706	168.544	67.471	57.410	229.139	130.974	-71.212	-15.003	182.841	189.854	3.063	122.824	154.502	224.470	0.00040257	0.00065443	0.0001288	1411.5	4.0269e-06	5.4396e-06	1393.3	374.71	3.0584e-06	5.7219e-06	421.05	137.03	120.05	39.986	4.0403e-06	48.895	0.000873	0.0012052	0.0003375	1426.4	1.2898e-05	1.321e-05	1409.6	381.41	1.1875e-05	1.3292e-05	427.45	140.75	123.23	41.08	1.2376e-05	50.313	140.311	-20.948	-15.730	-99.339	10.400	34.311	-99.252	-94.715	14.367	43.171	-95.414	-91.182	-90.834	-85.733	47.153	-86.039	-8191	255	
28897.693	1	1	0	0	0.11864	0.20795	0.10403	0.1854	0.12912	0.12392	0.19136	0.080656	0.069368	0.0048365	0.2058	0.24145	0.14779	0.06816	0.1597	0.15544	-2.2833	-2.3688	-3.0667	-2.5354	-2.7729	-2.8771	-2.4104	-3.1437	-2.7917	-2.3146	-3.4396	-2.8208	-2.7667	-3.1229	-2.3375	-2.9042	123.961	83.908	56.621	92.844	46.068	-89.841	193.390	123.453	-36.778	-22.801	201.459	178.736	160.790	-63.411	229.616	-109.594	0.00042959	0.00048688	0.00018631	1407	3.3308e-06	2.5061e-06	1384	375.78	3.165e-06	2.5198e-06	420.03	136.62	119.87	40.118	4.554e-06	48.815	0.00085325	0.001179	0.00033504	1424.8	1.2311e-05	1.3188e-05	1407.5	381.96	1.1782e-05	1.3464e-05	427.19	140.39	122.79	41.168	1.2611e-05	50.366	144.209	-13.772	-37.713	-99.559	9.790	60.055	-99.318	-94.555	10.379	46.456	-95.221	-91.207	-90.665	-85.677	2.591	-86.455	-8191	255	
28897.811	1	1	0	0	0.30038	0.16806	0.11421	0.27271	0.056489	0.099733	0.34566	0.19141	0.043268	0.16736	0.17413	0.158	0.19344	0.14442	0.23364	0.15	-2.4062	-2.2042	-2.9417	-2.7396	-2.4604	-3.1125	-2.4083	-2.9813	-2.7167	-2.2313	-3.1708	-2.5667	-2.5667	-2.8833	-2.4146	-2.8646	120.616	177.224	233.833	204.711	-98.501	199.720	146.724	237.565	94.595	-54.064	-71.339	231.890	35.830	-43.282	-4.531	223.680	0.00046997	0.00070082	0.00010421	1410.7	5.5916e-06	5.5747e-06	1387.6	375.62	5.0812e-06	3.8756e-06	421.22	137.56	120.73	39.976	1.738e-06	48.974	0.00081999	0.0011875	0.00033586	1425.6	1.2563e-05	1.2982e-05	1406.9	381.96	1.1882e-05	1.3563e-05	427.61	140.87	123.29	41.147	1.3119e-05	50.374	141.709	-25.546	-8.281	-99.336	14.889	56.107	-99.435	-94.956	5.539	56.477	-94.932	-91.178	-90.858	-85.912	40.108	-86.494	-8191	255	
28897.908	1	1	0	0	0.12186	0.085074	0.07295	0.19535	0.066696	0.07504	0.11162	0.16251	0.32263	0.13906	0.26802	0.51117	0.025941	0.12117	0.037909	0.18665	-2.5583	-2.1667	-3.2542	-2.6542	-2.3229	-3.0958	-2.5917	-2.9875	-3.0563	-2.2979	-3.0396	-2.8021	-2.4354	-3.2271	-2.4604	-2.7604	84.773	14.904	188.544	154.399	36.206	77.762	208.576	222.209	-5.845	241.076	-112.291	174.652	-41.799	211.473	69.196	189.900	0.00043396	0.00033691	0.00016188	1409.4	3.2672e-06	5.3672e-06	1389.3	376.38	4.567e-06	6.6694e-06	418.82	137.21	119.04	40.11	5.5172e-06	49.234	0.00086282	0.0011957	0.00033547	1425.2	1.2765e-05	1.3666e-05	1406.6	382.14	1.2296e-05	1.3759e-05	427.12	140.69	122.79	41.083	1.2727e-05	50.506	148.902	-15.397	-22.426	-99.344	28.327	39.025	-99.697	-94.684	13.011	47.199	-95.135	-91.362	-90.808	-86.002	48.136	-86.214	-8191	255	
28898.004	1	1	0	0	0.12332	0.14642	0.035701	0.22368	0.29435	0.10028	0.29003	0.030726	0.13192	0.19408	0.090875	0.15587	0.147	0.12801	0.31847	0.025502	-2.7229	-2.2354	-3.0438	-2.9583	-2.3604	-3.2375	-2.6604	-2.7208	-3.0542	-2.2479	-3.0479	-2.8125	-2.1833	-3.25	-2.4521	-2.4562	65.143	149.816	148.462	165.585	99.076	-54.331	181.857	240.932	144.737	-30.327	231.280	-71.773	7.891	-87.667	105.701	-99.222	0.00045546	0.00056439	0.00018365	1403.6	3.8007e-06	3.4335e-06	1389.9	377.03	2.9027e-06	3.4009e-06	419.32	137.52	120.19	40.022	3.9327e-06	49.007	0.00086623	0.0012011	0.00033135	1425.1	1.3286e-05	1.3275e-05	1408.1	382.56	1.2108e-05	1.3491e-05	427.2	140.78	123.03	41.097	1.229e-05	50.319	144.426	-23.245	-31.012	-99.251	38.703	66.775	-99.476	-94.659	-22.208	49.119	-95.353	-91.309	-90.912	-85.750	18.669	-86.294	-8191	255	
28898.100	1	1	0	0	0.23359	0.14424	0.1174	0.20799	0.11522	0.079865	0.22335	0.10511	0.18939	0.25136	0.085282	0.29329	0.4013	0.073781	0.22949	0.27409	-2.6583	-2.1188	-2.7687	-2.9813	-2.1646	-2.8937	-2.7792	-2.4625	-3.1354	-2.4417	-2.9313	-2.975	-2.3333	-3.1271	-2.6875	-2.6167	-57.960	129.985	13.590	210.702	-44.159	201.622	219.290	237.375	178.796	-90.071	133.572	151.048	162.585	-89.614	-97.645	230.316	0.00042998	0.00049029	0.00017196	1401.1	3.7893e-06	6.0787e-06	1385	376.06	3.9101e-06	3.6758e-06	419.94	137.15	120.25	39.991	4.725e-06	48.9	0.00087007	0.0012093	0.00033461	1420.9	1.3173e-05	1.3147e-05	1406.9	382.07	1.1619e-05	1.375e-05	427.55	140.41	123.02	41.119	1.2942e-05	50.353	145.305	-39.567	-16.775	-99.324	36.089	19.133	-99.691	-94.686	-0.244	34.612	-95.135	-91.212	-91.191	-85.610	10.164	-86.291	-8191	255	
28898.195	1	1	0	0	0.081045	0.083161	0.099017	0.33562	0.1372	0.17983	0.22065	0.2998	0.074816	0.24309	0.21785	0.26022	0.27456	0.084789	0.21067	0.17651	-2.7604	-2.4708	-2.7729	-3.0812	-2.3292	-2.8625	-2.9521	-2.4667	-3.1042	-2.6667	-2.7562	-3.0417	-2.3688	-3.0896	-2.8854	-2.5021	48.793	173.484	17.166	-99.079	-49.031	-32.052	-64.924	242.818	142.851	230.708	96.089	215.764	-77.068	70.345	82.620	-45.474	0.00042749	0.00031022	0.00022003	1417.4	5.204e-06	6.0303e-06	1388.7	375.87	3.4502e-06	4.9479e-06	418.62	137.26	119.86	40.029	1.8671e-06	48.86	0.00084359	0.0011852	0.00034025	1425.9	1.2875e-05	1.3461e-05	1407.8	382.04	1.1704e-05	1.3397e-05	426.44	140.57	122.99	41.084	1.2052e-05	50.268	146.928	-24.173	-25.600	-99.367	13.658	6.097	-99.261	-94.420	22.867	9.168	-95.143	-91.170	-90.507	-85.748	49.487	-86.155	-8191	255	
28898.293	1	1	0	0	0.012989	0.04069	0.082453	0.38465	0.088133	0.094729	0.18646	0.20541	0.13515	0.24426	0.25116	0.22609	0.093782	0.24572	0.14629	0.087301	-2.7479	-2.45	-2.5292	-3.1417	-2.3792	-2.8604	-3.0333	-2.3792	-2.9792	-2.5	-2.3063	-3.275	-2.2812	-2.9604	-3.0208	-2.3063	154.306	67.522	-69.607	170.335	232.683	92.851	155.929	173.656	-27.597	-85.198	242.695	204.443	152.651	-99.756	221.307	-111.554	0.0004429	0.00045256	0.00016943	1414.9	5.261e-06	4.2696e-06	1390.1	375.56	5.5398e-06	4.4681e-06	421.63	137.45	120.18	39.901	2.9207e-06	49.103	0.00087372	0.0012236	0.00033994	1427.9	1.2837e-05	1.3478e-05	1406.3	381.54	1.196e-05	1.3629e-05	427.78	140.73	123.04	41.021	1.2112e-05	50.424	137.873	-21.246	-23.120	-99.012	7.213	44.637	-99.285	-94.811	29.988	34.000	-95.052	-91.094	-90.685	-85.580	29.277	-85.824	-8191	255	
28898.412	1	1	0	0	0.14856	0.18279	0.32377	0.23713	0.078858	0.070875	0.17389	0.068373	0.20077	0.060174	0.18611	0.13274	0.092722	0.01996	0.080768	0.099216	-2.6312	-2.6375	-2.4042	-3.2958	-2.4208	-2.7625	-3.1604	-2.3625	-2.9792	-2.5792	-2.4604	-3.1792	-2.4771	-2.9062	-2.9583	-2.5021	9.757	231.191	62.270	218.584	1.781	218.585	173.205	206.918	238.710	35.114	174.366	208.776	-97.989	-76.123	45.356	-92.018	0.00035184	0.00049954	0.00016098	1412.7	5.2127e-06	4.6195e-06	1387	375.3	4.7754e-06	4.3504e-06	418.82	136.9	119.78	40.206	3.458e-06	49.203	0.00085902	0.0011459	0.00033739	1426.3	1.2785e-05	1.3503e-05	1406.6	381.62	1.1584e-05	1.3354e-05	427.22	140.63	122.65	41.134	1.2855e-05	50.482	152.086	-28.431	-19.526	-99.056	24.566	79.940	-99.291	-94.441	16.146	28.044	-94.746	-91.084	-90.430	-85.540	18.435	-86.596	-8191	255	
28898.510	1	1	0	0	0.092854	0.20283	0.17869	0.25303	0.20377	0.094423	0.03857	0.15359	0.060513	0.062609	0.087196	0.035248	0.31236	0.058735	0.30009	0.20152	-2.475	-2.4062	-2.2313	-3.2083	-2.4938	-2.5812	-3.2771	-2.4146	-2.7167	-2.7167	-2.4479	-3.3042	-2.4125	-2.6542	-2.9917	-2.3083	-75.505	7.916	170.440	246.728	203.586	246.683	133.219	-74.382	50.378	-5.093	129.614	105.926	200.065	164.938	72.476	78.250	0.00041033	0.00029249	0.00010078	1410.9	4.9564e-06	4.6797e-06	1382.4	375.62	4.2648e-06	5.9672e-06	418.7	137.47	120.32	39.973	4.0755e-06	48.883	0.00085329	0.0011549	0.00034702	1424.4	1.3038e-05	1.3339e-05	1404.1	381.86	1.1939e-05	1.3441e-05	426.59	140.97	122.93	41.105	1.2846e-05	50.31	147.635	-8.748	-32.398	-99.349	39.217	65.541	-99.629	-94.799	-5.136	32.123	-95.178	-91.279	-91.080	-85.754	9.538	-86.464	-8191	255	
28898.604	1	1	0	0	0.19674	0.10591	0.19651	0.11677	0.26622	0.18085	0.1996	0.21533	0.21359	0.16705	0.26355	0.1365	0.15021	0.18891	0.20665	0.13579	-2.5396	-2.8729	-2.1917	-3.0521	-2.4896	-2.4979	-3.3833	-2.4667	-2.7562	-2.8312	-2.2479	-3.1333	-2.6917	-2.4708	-3.2333	-2.6312	45.604	164.549	-88.932	237.841	-73.633	-37.443	202.318	103.741	212.338	7.836	-55.576	-108.772	-40.867	193.714	-56.969	199.955	0.00040119	0.00044399	0.00017271	1407.2	5.4894e-06	5.7529e-06	1387.5	375.64	2.4285e-06	6.2174e-06	416.23	137.63	119.83	40.192	3.9004e-06	48.938	0.00085501	0.0012067	0.00034417	1426.2	1.2086e-05	1.3822e-05	1406.6	381.84	1.222e-05	1.3714e-05	425.81	140.78	122.83	41.114	1.2165e-05	50.225	141.126	-34.149	-29.636	-99.331	37.596	35.111	-99.191	-94.760	10.815	31.002	-95.077	-91.118	-90.855	-85.903	40.694	-86.440	-8191	255	
28898.701	1	1	0	0	0.19179	0.11176	0.12125	0.31644	0.079861	0.23653	0.13237	0.087507	0.028219	0.11439	0.24582	0.1498	0.19149	0.45232	0.15466	0.12899	-2.55	-2.9333	-2.3396	-3.1188	-2.8187	-2.5062	-3.2292	-2.5521	-2.725	-3.1958	-2.3458	-3.1625	-2.7771	-2.3896	-3.0521	-2.525	-97.280	-7.882	-17.807	190.900	-81.294	-60.965	162.166	61.208	239.419	-68.854	228.076	178.314	114.131	191.830	55.721	84.009	0.00042076	0.00040068	0.00010699	1399	4.8053e-06	4.5052e-06	1387.1	374.4	1.7545e-06	6.9386e-06	421.34	137.1	120.06	40.138	3.1326e-06	49.105	0.00086458	0.001172	0.00034351	1422.9	1.2853e-05	1.346e-05	1405.2	380.71	1.2049e-05	1.3614e-05	427.52	140.59	122.82	41.135	1.2235e-05	50.312	144.710	-29.064	-34.574	-99.284	19.184	42.770	-99.441	-94.778	-54.582	31.936	-94.888	-90.947	-90.948	-85.712	8.310	-86.584	-8191	255	
28898.797	1	1	0	0	0.036258	0.18382	0.17067	0.1589	0.23792	0.11395	0.36542	0.24614	0.099554	0.14179	0.21687	0.1053	0.28277	0.21368	0.15565	0.16838	-2.1604	-3.0438	-2.3667	-3.2021	-2.7646	-2.3042	-3.2125	-2.6021	-2.5583	-3.1896	-2.4354	-3.1042	-2.8625	-2.3146	-3.0333	-2.7104	237.918	149.629	-64.967	-87.923	211.542	212.850	180.977	236.933	161.589	221.894	209.143	157.459	-85.917	-18.403	184.024	227.143	0.00041466	0.0006423	0.00020735	1408.4	2.9287e-06	3.5836e-06	1386.8	374.81	2.9111e-06	3.4416e-06	418.23	137.34	120.19	39.93	3.6903e-06	48.853	0.0008716	0.0011441	0.00034754	1423.5	1.2324e-05	1.3412e-05	1406.5	381.62	1.1933e-05	1.3546e-05	426.32	140.8	123.02	41.027	1.2422e-05	50.321	149.129	-17.933	-19.583	-98.995	30.803	44.312	-99.271	-94.877	-9.019	47.811	-95.311	-91.192	-91.225	-85.966	34.344	-86.320	-8191	255	
28898.893	1	1	0	0	0.13217	0.11347	0.23669	0.19288	0.086499	0.15027	0.22334	0.33836	0.10417	0.13255	0.14044	0.21635	0.09128	0.34201	0.13092	0.20479	-2.1188	-3.0896	-2.1813	-2.7021	-2.8833	-2.0729	-3.2854	-2.7687	-2.4375	-3.2188	-2.4583	-2.8792	-3.0125	-2.1854	-3.0125	-2.9021	-4.423	231.681	4.640	242.881	18.829	86.953	201.768	177.684	2.668	219.871	229.648	1.994	245.006	79.054	-70.174	-94.033	0.00041636	0.00043078	0.00018302	1408	6.0955e-06	4.4191e-06	1384.5	373.98	3.1725e-06	4.3777e-06	418.99	137.38	119.86	40.038	5.8531e-06	49.03	0.00086799	0.001168	0.00034447	1424.3	1.2675e-05	1.3457e-05	1405.9	381.23	1.213e-05	1.3272e-05	426.22	140.77	122.82	41.048	1.2245e-05	50.353	147.560	-14.634	-41.858	-99.072	32.667	48.643	-99.164	-94.710	18.510	23.761	-95.243	-91.050	-90.619	-85.636	22.005	-86.473	-8191	255	
28898.988	1	1	0	0	0.15272	0.18764	0.33804	0.0805	0.16766	0.048967	0.242	0.21888	0.11176	0.23168	0.20233	0.16661	0.15994	0.042383	0.1398	0.28027	-1.9854	-3.0917	-2.4792	-2.5833	-3.0312	-2.2667	-3.0979	-2.9729	-2.3896	-3.3187	-2.7687	-2.875	-3.2229	-2.4562	-2.8812	-3.0021	225.016	174.926	100.479	-107.645	-102.458	244.679	195.718	181.865	44.840	211.905	-105.213	231.091	237.059	-49.576	-61.375	200.858	0.00045079	0.00038271	0.00010124	1411.7	5.8728e-06	5.0666e-06	1390.6	374.34	4.544e-06	7.9236e-06	419.66	136.93	120.08	40.068	4.6847e-06	48.961	0.00086715	0.0011507	0.00032896	1424.2	1.2335e-05	1.3795e-05	1407.8	381.14	1.2311e-05	1.3782e-05	426.2	140.37	122.93	41.021	1.2388e-05	50.239	141.537	-20.191	-14.178	-99.230	13.126	35.992	-99.378	-94.806	-32.384	35.357	-95.238	-91.177	-90.945	-85.653	21.795	-86.707	-8191	255	
28899.084	1	1	0	0	0.091621	0.13224	0.22855	0.069332	0.1018	0.3412	0.25128	0.20313	0.17612	0.17508	0.080168	0.28068	0.066856	0.13742	0.15625	0.066402	-1.8042	-3.2333	-2.5208	-2.6167	-3.0125	-2.2562	-2.8521	-3.1479	-2.2646	-3.1229	-2.6854	-2.4208	-3.3146	-2.4771	-2.7146	-3.0646	63.655	-55.827	191.900	90.047	65.792	1.883	179.903	160.760	-51.686	-0.860	-98.558	133.473	206.164	-85.948	1.453	-64.421	0.00041575	0.00046107	0.00011121	1411.5	4.0659e-06	4.3757e-06	1390.1	376.3	5.2115e-06	5.2448e-06	417.68	137.68	119.72	39.836	3.8077e-06	49.057	0.0008742	0.0011826	0.00033984	1424.5	1.2456e-05	1.3697e-05	1406.9	381.88	1.2675e-05	1.3285e-05	426.43	140.78	122.83	41.006	1.2087e-05	50.317	140.319	-4.407	-29.403	-99.211	41.623	46.861	-99.560	-95.412	12.663	25.777	-95.846	-91.507	-91.203	-86.089	36.683	-86.808	-8191	255	
28899.205	1	1	0	0	0.13264	0.18479	0.23178	0.24919	0.28538	0.1236	0.17908	0.36161	0.17986	0.12977	0.24511	0.041314	0.19379	0.30386	0.055762	0.10561	-1.8813	-3	-2.7604	-2.4792	-3.075	-2.4979	-2.9437	-3.1	-2.2313	-3.0021	-2.7896	-2.5896	-3.2167	-2.5708	-2.65	-3.1937	-13.556	223.619	70.161	239.269	217.470	192.612	-92.935	203.281	-86.806	6.385	126.563	-81.973	207.151	232.696	17.556	56.743	0.00041958	0.00057269	0.00020157	1401.6	2.7288e-06	5.0352e-06	1388.2	376.59	5.5978e-06	5.5819e-06	419.68	136.73	119.19	40.163	1.7433e-06	48.751	0.00085309	0.001198	0.00034328	1422.9	1.2499e-05	1.3828e-05	1405.9	381.8	1.2372e-05	1.2934e-05	426.51	140.45	122.69	41.043	1.2519e-05	50.247	140.832	-22.200	-21.397	-99.684	12.222	43.125	-99.639	-95.250	8.599	34.546	-95.781	-91.310	-91.320	-86.038	-12.914	-86.723	-8191	255	
28899.301	1	1	0	0	0.29078	0.11039	0.15262	0.083283	0.075666	0.33425	0.22193	0.4077	0.085029	0.26391	0.31132	0.17121	0.068883	0.22315	0.149	0.25026	-1.7167	-2.8083	-2.8833	-2.3104	-3.0542	-2.5625	-2.8438	-3.1667	-2.1833	-2.8875	-3.0479	-2.4396	-3.1354	-2.5917	-2.4667	-3.225	134.864	-85.109	-60.937	136.504	150.005	79.102	213.846	202.269	-32.162	203.182	223.120	163.182	-105.752	241.649	-29.105	220.963	0.00041144	0.00046425	0.000126	1400.9	4.5917e-06	4.5647e-06	1384.1	374.77	4.1427e-06	4.2881e-06	418.13	137.01	120.26	39.884	3.4621e-06	48.888	0.00086547	0.0011788	0.00032964	1422.5	1.2456e-05	1.3242e-05	1404.9	380.51	1.2249e-05	1.3294e-05	425.52	140.34	122.82	40.943	1.2382e-05	50.2	140.299	-29.321	3.148	-99.544	20.076	49.300	-99.633	-94.890	3.585	55.284	-95.624	-91.515	-90.927	-85.702	6.287	-86.782	-8191	255	
28899.373	1	1	0	0	0.18527	0.011314	0.20586	0.22569	0.17913	0.092266	0.24851	0.071522	0.15289	0.14537	0.16122	0.11051	0.076574	0.13287	0.059709	0.30623	-1.9979	-2.9667	-2.9333	-2.2479	-2.7958	-2.6479	-2.4458	-3.2188	-2.1792	-2.7583	-3.0938	-2.3833	-2.9854	-2.6937	-2.1458	-3.25	120.014	6.768	-107.527	-107.547	-31.024	-25.490	230.341	180.077	91.807	116.693	162.257	207.021	-37.151	-65.837	-1.427	166.523	0.0004079	0.00063241	0.00013649	1407	5.2155e-06	3.8987e-06	1383.2	375.53	5.2634e-06	6.9715e-06	418.93	136.7	119.36	39.907	5.1094e-06	48.883	0.00085276	0.0011688	0.00032825	1421.3	1.2036e-05	1.34e-05	1403.4	381.34	1.2456e-05	1.3619e-05	425.59	140.38	122.5	40.949	1.2475e-05	50.291	144.722	-38.424	-14.267	-99.432	23.051	27.750	-99.471	-94.818	30.449	51.367	-95.378	-91.199	-90.852	-85.936	48.549	-86.774	-8191	255	
28899.492	1	1	0	0	0.14616	0.1209	0.18286	0.089074	0.06293	0.1573	0.308	0.11688	0.096603	0.13254	0.31676	0.28794	0.13235	0.07833	0.12087	0.23125	-1.9521	-2.6083	-2.9458	-2.2	-2.8292	-2.7687	-2.5646	-3.1958	-2.4708	-2.5938	-3.1375	-2.5458	-2.8833	-2.7917	-2.2313	-3.1104	54.241	-106.700	-51.940	107.895	7.050	204.850	206.505	160.870	196.560	215.349	127.741	192.178	87.488	110.716	172.372	180.418	0.00036154	0.00051041	0.00014891	1397.8	4.2332e-06	3.1265e-06	1384.4	375.56	4.0345e-06	4.4711e-06	417.21	137.21	119.87	39.994	3.5426e-06	48.69	0.00085753	0.001181	0.00033304	1418	1.2018e-05	1.3139e-05	1403.6	381.36	1.1807e-05	1.3195e-05	425.26	140.52	122.83	40.967	1.2831e-05	50.208	142.805	-20.206	-36.514	-99.408	41.375	28.585	-99.670	-94.865	0.943	24.390	-95.313	-91.457	-90.786	-85.753	18.650	-86.365	-8191	255	
28899.590	1	1	0	0	0.1802	0.17188	0.032657	0.20061	0.12034	0.16396	0.20152	0.087744	0.21653	0.22417	0.24137	0.20946	0.1931	0.17704	0.28673	0.25846	-2.0292	-2.4042	-3.0667	-2.35	-2.6417	-2.8146	-2.4188	-3.2417	-2.6208	-2.4021	-3.2208	-2.5021	-2.7438	-3.05	-2.2812	-3.1104	-17.488	203.642	41.957	76.091	-21.618	-32.639	-106.124	146.089	-44.894	171.604	234.888	227.327	133.984	180.366	44.228	159.956	0.00042919	0.00025052	0.00013993	1402.7	4.5625e-06	5.7625e-06	1387.9	375.12	3.8284e-06	4.766e-06	417.45	137.72	118.77	39.925	3.427e-06	48.923	0.00085689	0.0011904	0.00032684	1419	1.2785e-05	1.3117e-05	1403.7	381.01	1.1811e-05	1.3529e-05	425.99	140.39	122.19	40.964	1.2175e-05	50.263	144.651	-17.930	-40.924	-99.370	16.338	47.988	-99.511	-94.721	12.987	33.101	-95.237	-91.297	-91.037	-85.946	27.430	-86.411	-8191	255	
28899.684	1	1	0	0	0.29064	0.14736	0.048232	0.12349	0.072575	0.10193	0.078311	0.30609	0.18693	0.29986	0.096525	0.21311	0.37646	0.091735	0.14341	0.19085	-2.2271	-2.4583	-3.0104	-2.5646	-2.675	-3.0771	-2.425	-3.0792	-2.7729	-2.4104	-3.2521	-2.7771	-2.7792	-3.2062	-2.2333	-3.1479	62.737	121.662	126.476	226.361	-16.774	-57.372	98.017	189.708	126.719	179.555	187.617	153.732	161.231	144.438	2.854	140.896	0.00044443	0.00044833	0.00019268	1399.6	4.2097e-06	4.0971e-06	1382.6	374.75	4.0536e-06	3.1549e-06	418.39	137.08	119.71	39.774	5.1407e-06	48.87	0.00085509	0.0011901	0.00032611	1420.1	1.2847e-05	1.3499e-05	1401.4	381.15	1.1879e-05	1.3514e-05	425.9	140.16	122.68	40.959	1.2155e-05	50.236	141.174	-23.748	-10.925	-99.386	22.796	38.745	-99.369	-94.626	-9.740	19.513	-95.427	-91.301	-91.015	-86.010	15.479	-86.492	-8191	255	
28899.781	1	1	0	0	0.10608	0.23154	0.19474	0.22639	0.10271	0.081573	0.23249	0.22687	0.058002	0.23494	0.16307	0.27039	0.086685	0.24977	0.21498	0.25363	-2.3125	-2.1604	-3.0104	-2.7083	-2.7354	-3.025	-2.4188	-2.9646	-2.7208	-2.3042	-3.2396	-2.5062	-2.575	-3.25	-2.3979	-2.9792	-56.892	161.380	238.685	119.324	-100.430	35.957	191.554	186.290	200.644	79.527	167.841	131.572	-90.926	232.168	165.847	89.906	0.00039692	0.00034702	0.00015208	1404.3	4.206e-06	5.3041e-06	1384.6	375.27	3.9941e-06	4.0849e-06	421.05	137.03	119.32	39.911	5.6363e-06	48.856	0.00085369	0.0011785	0.00033349	1418.7	1.2605e-05	1.35e-05	1404.2	381.11	1.1461e-05	1.3472e-05	426.74	140.13	122.72	41.004	1.2597e-05	50.265	145.563	-23.366	-20.732	-99.109	33.881	41.723	-99.315	-94.718	-24.663	61.853	-95.494	-91.097	-90.971	-85.798	13.969	-86.463	-8191	255	
28899.900	1	1	0	0	0.076314	0.15556	0.17654	0.25816	0.17222	0.19514	0.31685	0.16627	0.13065	0.21338	0.16165	0.37828	0.40247	0.17704	0.16428	0.13489	-2.4375	-2.1792	-2.9104	-2.6708	-2.2188	-3.0938	-2.3937	-2.9604	-2.8438	-2.4771	-3.0062	-2.6375	-2.3333	-3.2188	-2.3125	-2.7417	16.751	209.803	-71.507	228.097	12.872	-5.497	177.431	-57.321	116.580	70.662	188.941	142.054	218.355	49.931	151.750	20.825	0.00044444	0.00039309	0.00012847	1408.2	3.3377e-06	4.8815e-06	1385.5	374.15	3.0642e-06	4.9592e-06	417.83	137.05	119.54	39.766	4.0136e-06	48.842	0.00083325	0.0012049	0.00032475	1421.9	1.2654e-05	1.312e-05	1404.2	380.96	1.2389e-05	1.3415e-05	426.26	140.25	122.71	40.923	1.239e-05	50.266	139.312	-23.622	-41.693	-99.341	18.126	25.357	-99.520	-94.783	12.733	34.081	-95.225	-91.664	-90.967	-85.921	14.593	-86.482	-8191	255	
28899.996	1	1	0	0	0.13079	0.25875	0.12424	0.21758	0.13961	0.28343	0.50413	0.167	0.090639	0.25969	0.15357	0.45225	0.13151	0.31957	0.084886	0.29654	-2.5979	-2.2188	-2.8229	-2.7958	-2.3292	-3.1125	-2.8125	-2.7875	-2.9292	-2.2521	-3.1896	-2.9583	-2.4958	-3.1479	-2.4417	-2.7062	187.294	168.476	60.813	200.535	-112.431	225.445	197.176	195.311	-31.752	219.932	169.786	214.690	232.371	176.558	195.063	175.668	0.00042699	0.0005754	0.00011822	1411.4	2.5167e-06	3.3245e-06	1380.4	374.43	3.988e-06	6.0514e-06	420.34	136.78	120.2	39.854	4.3048e-06	48.918	0.0008399	0.0011853	0.00033358	1424.3	1.2637e-05	1.3038e-05	1403	380.84	1.1836e-05	1.36e-05	426.91	140.23	122.78	40.936	1.2238e-05	50.243	142.077	-5.082	-15.679	-99.730	52.774	57.816	-99.764	-95.002	-25.546	51.283	-95.364	-91.274	-91.050	-85.830	30.138	-86.465	-8191	255	
28900.094	1	1	0	0	0.16828	0.026362	0.16128	0.084035	0.41395	0.23003	0.1961	0.28263	0.18307	0.082168	0.22657	0.24962	0.33178	0.16324	0.055664	0.12591	-2.6583	-2.2333	-2.825	-2.8812	-2.0917	-3.0625	-2.6833	-2.6917	-3.1312	-2.3604	-2.7479	-3.0438	-2.3333	-3.1479	-2.575	-2.4729	-58.630	193.442	56.643	-109.141	95.677	-99.502	229.362	197.127	103.104	-74.199	-91.433	163.481	157.427	35.941	-95.033	182.269	0.00041526	0.00053569	0.00013988	1408.6	4.3157e-06	4.7031e-06	1384.8	374.23	3.4456e-06	5.592e-06	417.38	137.29	119.8	39.869	3.315e-06	48.951	0.000853	0.0011826	0.00033033	1421.5	1.2929e-05	1.3069e-05	1403.2	381.1	1.177e-05	1.3527e-05	425.7	140.6	122.79	40.995	1.2121e-05	50.246	142.614	-24.733	-39.489	-99.392	12.910	39.660	-99.906	-95.021	-33.187	28.525	-95.422	-91.174	-90.896	-85.891	26.918	-86.649	-8191	255	
28900.189	1	1	0	0	0.12155	0.10135	0.096285	0.12128	0.36221	0.28029	0.15606	0.045815	0.15658	0.066659	0.12556	0.11844	0.088811	0.12239	0.079354	0.25955	-2.6125	-2.3271	-2.5417	-3.0687	-2.3854	-2.9708	-2.8375	-2.5396	-3.2146	-2.4021	-2.9625	-2.9104	-2.1729	-2.9125	-2.6979	-2.3729	207.131	-39.460	242.871	187.437	-82.721	-102.816	194.909	203.293	225.342	153.641	224.462	132.263	-33.942	98.884	12.780	211.882	0.0004135	0.00048287	0.00012332	1400	4.6449e-06	6.1302e-06	1384.2	373.99	4.8018e-06	3.4276e-06	418.89	137.4	119.83	40.018	4.5165e-06	48.668	0.00085184	0.0011539	0.00033379	1420.1	1.3252e-05	1.2915e-05	1401.7	380.32	1.2002e-05	1.3247e-05	426.51	140.46	122.54	41.027	1.1961e-05	50.199	143.048	-3.170	-34.369	-99.625	31.807	27.300	-99.675	-94.867	-9.371	38.116	-95.371	-91.573	-90.944	-85.900	49.310	-86.726	-8191	255	
28900.285	1	1	0	0	0.036228	0.02006	0.01914	0.12423	0.14103	0.12977	0.18638	0.23031	0.13241	0.063427	0.18158	0.049207	0.20282	0.18048	0.3215	0.11589	-2.775	-2.5521	-2.3646	-3.2104	-2.3229	-2.8563	-2.9167	-2.4062	-2.9062	-2.3979	-2.65	-2.9917	-2.3333	-2.9792	-2.7271	-2.3479	39.917	10.702	-90.622	134.861	103.116	34.409	167.679	203.138	200.294	140.761	165.733	-85.515	184.673	105.783	184.757	162.383	0.00043326	0.00054977	0.00013226	1410.4	3.7996e-06	5.8233e-06	1384	373.38	4.4277e-06	4.6886e-06	417.35	136.64	119.09	39.859	4.5451e-06	49.187	0.00084135	0.0012303	0.00032379	1423.6	1.293e-05	1.3182e-05	1402.7	380.72	1.1972e-05	1.3317e-05	425.98	140.2	122.67	40.891	1.2157e-05	50.291	142.367	-30.754	-14.345	-99.431	26.811	35.284	-99.463	-94.870	-4.306	33.325	-95.290	-91.391	-90.990	-86.021	18.182	-86.846	-8191	255	
28900.381	1	1	0	0	0.061364	0.09	0.20556	0.24611	0.16782	0.0077206	0.3011	0.16384	0.093214	0.14377	0.20115	0.16406	0.32411	0.18744	0.16353	0.2372	-2.6479	-2.4521	-2.2646	-3.2146	-2.4292	-2.7812	-3.2438	-2.2917	-3.1583	-2.6063	-2.3604	-3.1583	-2.4083	-2.8375	-3.0938	-2.3229	-43.185	100.654	59.043	179.619	18.747	163.655	170.899	66.746	142.452	-98.839	228.701	120.838	174.194	134.669	119.700	218.260	0.00045236	0.00069622	0.00014906	1407.4	2.6769e-06	5.0497e-06	1379.6	373.28	4.3169e-06	5.2075e-06	418.66	137.5	119.87	39.96	3.5764e-06	48.897	0.00084752	0.0011753	0.00033336	1421	1.2792e-05	1.3419e-05	1401	380.15	1.2008e-05	1.3067e-05	426.69	140.41	122.64	41.082	1.1972e-05	50.225	137.371	-16.938	-13.162	-99.666	38.152	35.981	-99.875	-95.205	-25.398	51.759	-95.118	-91.457	-91.166	-86.068	32.431	-86.498	-8191	255	
28900.502	1	1	0	0	0.32639	0.32966	0.36097	0.080905	0.069376	0.36389	0.21862	0.33026	0.061067	0.26373	0.13348	0.22136	0.13658	0.12119	0.053192	0.22439	-2.5333	-2.4813	-2.2104	-3.0771	-2.3729	-2.4813	-3.3021	-2.3958	-2.9208	-2.7396	-2.4396	-3.0875	-2.4083	-2.6042	-2.9646	-2.2625	11.693	136.083	158.781	-36.183	-57.361	22.369	172.598	172.135	58.475	137.183	136.868	-69.220	235.525	-13.644	204.393	147.808	0.00043851	0.00046856	0.00015734	1398.5	4.2431e-06	5.4406e-06	1382.1	374.96	4.3609e-06	5.3546e-06	420.29	137.4	119.12	39.919	3.0779e-06	48.918	0.00081815	0.0011728	0.00034048	1420.6	1.228e-05	1.2999e-05	1400.6	380.95	1.2207e-05	1.3236e-05	426.33	140.3	122.39	40.962	1.2342e-05	50.197	144.662	-19.686	-37.453	-99.584	14.058	41.355	-99.840	-94.795	5.586	34.927	-95.238	-91.349	-90.968	-85.540	51.709	-86.591	-8191	255	
28900.596	1	1	0	0	0.10862	0.058074	0.15982	0.35332	0.25731	0.2231	0.26652	0.2529	0.22765	0.18559	0.32777	0.23368	0.14818	0.14729	0.18762	0.16724	-2.3812	-2.7125	-2.2583	-3.0312	-2.4708	-2.3563	-3.2104	-2.3833	-2.8792	-2.9125	-2.4375	-3.3312	-2.5917	-2.5938	-3.0479	-2.3667	-66.944	150.701	-26.267	-74.377	17.343	134.370	157.831	188.721	231.365	239.644	214.280	197.316	19.990	-104.070	-32.863	75.500	0.00044679	0.00045699	0.00010308	1406.6	4.2055e-06	7.5758e-06	1384.3	374.38	3.746e-06	2.883e-06	418.86	136.57	119.6	39.769	4.9423e-06	48.844	0.00087228	0.0011486	0.00033388	1421.8	1.2872e-05	1.3881e-05	1402.2	380.4	1.1714e-05	1.2808e-05	426.02	140.22	122.5	40.882	1.1987e-05	50.251	141.439	-30.704	-10.947	-99.628	57.047	23.715	-99.690	-95.033	-11.146	38.357	-95.426	-91.276	-91.204	-85.849	32.601	-86.405	-8191	255	
28900.670	1	1	0	0	0.20385	0.083648	0.34486	0.015425	0.18199	0.2416	0.30925	0.14481	0.13238	0.1318	0.36644	0.1299	0.089808	0.16225	0.1745	0.12224	-2.3979	-2.7667	-2.0167	-2.8854	-2.7229	-2.3146	-2.9979	-2.4875	-2.5729	-2.9271	-2.3604	-2.8979	-2.8208	-2.5729	-3.1188	-2.5167	195.825	131.654	-74.586	-108.333	79.227	137.418	208.143	145.451	32.301	84.022	229.783	196.295	100.833	176.597	86.560	168.250	0.00045543	0.0005727	0.00016518	1403.2	2.8835e-06	3.1012e-06	1381	371.59	4.3936e-06	4.9071e-06	415.61	136.78	119.41	40.177	3.4611e-06	48.699	0.00085148	0.0012013	0.00033538	1420.1	1.2719e-05	1.3168e-05	1400.3	379.87	1.2255e-05	1.3094e-05	424.6	140.37	122.37	41.118	1.2038e-05	50.21	144.545	-12.005	-32.958	-99.459	36.111	36.591	-99.734	-94.921	26.835	36.366	-95.446	-91.592	-90.992	-86.165	38.022	-86.743	-8191	255	
28900.789	1	1	0	0	0.1458	0.058404	0.23952	0.12701	0.17494	0.1236	0.11958	0.38383	0.042883	0.14386	0.22857	0.29532	0.1932	0.10357	0.42054	0.1464	-2.1188	-3.1042	-2.1604	-3.0458	-2.9542	-2.2375	-3.2333	-2.4771	-2.4125	-3.1271	-2.5229	-2.9521	-2.9437	-2.4146	-3.0792	-2.6562	132.915	0.003	80.429	-16.070	214.121	239.695	160.178	201.973	34.956	-3.850	194.157	41.257	-101.626	-109.633	99.103	-55.899	0.00044282	0.00051171	0.00017928	1405	3.4337e-06	4.6869e-06	1381.8	373.24	1.402e-06	2.9151e-06	418.18	136.32	119.13	39.932	1.7396e-06	49.004	0.00087079	0.0011948	0.00032939	1420.7	1.2612e-05	1.3944e-05	1402.5	380.43	1.2042e-05	1.2975e-05	425.89	140.08	122.44	41.027	1.1787e-05	50.248	139.312	-47.898	-14.302	-99.672	33.807	36.176	-99.614	-95.077	-3.031	31.639	-95.453	-91.376	-91.078	-85.810	23.109	-86.693	-8191	255	
28900.885	1	1	0	0	0.072013	0.18137	0.23222	0.1545	0.33942	0.26321	0.07749	0.25741	0.26217	0.14636	0.1584	0.08127	0.13898	0.13206	0.10869	0.11687	-2.0938	-3.1771	-2.3604	-2.9188	-2.7521	-2.2917	-3.1896	-2.8583	-2.4437	-3.2562	-2.4771	-2.8167	-3.025	-2.3688	-3.0583	-2.8833	100.594	-99.816	12.325	204.130	-12.811	23.294	160.301	207.063	208.260	141.766	181.759	190.299	-101.910	51.876	150.383	146.593	0.00044115	0.00047945	0.00016217	1395.9	3.3483e-06	6.1993e-06	1380.9	374.51	4.6734e-06	5.1181e-06	418.07	137.09	119.64	39.798	4.0032e-06	48.896	0.00087208	0.0011497	0.00032397	1417.8	1.2432e-05	1.3528e-05	1403.5	380.47	1.1926e-05	1.3196e-05	425.59	140.22	122.26	40.927	1.1818e-05	50.176	144.144	-29.630	-5.147	-99.440	45.702	35.923	-99.742	-95.121	4.964	24.402	-95.417	-91.412	-91.051	-85.841	21.559	-86.963	-8191	255	
28900.980	1	1	0	0	0.080283	0.221	0.056092	0.22641	0.28635	0.19013	0.27806	0.15171	0.3365	0.064444	0.16923	0.10277	0.16497	0.10523	0.17406	0.073595	-1.9083	-3.0563	-2.3667	-2.6167	-3.0375	-2.2	-3.1375	-2.9979	-2.4125	-3.0354	-2.675	-2.6562	-3.0396	-2.3688	-2.8667	-2.8208	203.744	233.654	27.197	224.943	31.635	-97.641	202.521	205.966	197.630	119.029	-7.565	75.066	213.447	25.054	115.288	-104.212	0.00043228	0.00041018	0.00013632	1399.1	3.164e-06	5.0226e-06	1377.2	374.94	4.8702e-06	6.3052e-06	417.42	137	119.14	39.774	2.7621e-06	48.679	0.00084375	0.0011328	0.00033538	1418	1.2395e-05	1.3221e-05	1400	380.81	1.2086e-05	1.329e-05	425.17	140.43	122.45	40.956	1.2024e-05	50.214	146.397	-12.591	-15.747	-99.513	36.055	22.568	-99.655	-95.388	-3.919	38.444	-95.660	-91.734	-91.325	-86.140	36.692	-86.901	-8191	255	
#DATA ENDS
