BOXY.EXE: ISS Imagent and Oximeter Data Acquisition Program Version 0.80
Ascii Record File

#ACQ INFORMATION
2  Detector Channels 
16  External MUX Channels 
1  Auxiliary Channels 
5000  Waveform (CCF) Frequency (Hz)
1  Waveforms Skipped 
30  Waveforms Averaged 
1  Cycles Averaged 
16  Acquisitions per Waveform 
10.0806  Updata Rate (Hz) 

#FILE INFORMATION
TRUE -- External MUX Channel results are PARSED.
FALSE -- AC DC and Phase are NOT grouped.
TRUE -- Companion Program Settings File CREATED.
FALSE -- AC data not excluded
FALSE -- DC data not excluded
FALSE -- Phase data not excluded
FALSE -- Auxillary Chn. data not excluded
Tab delimiters

#CALIBRATION STATE
TRUE -- Waveform Calibration Values APPLIED.


#AUX CALIBRATION VALUES
Val Type	aux-1	

Term	1.0000e+00	
Factor	0.0000e+00	


#WF CALIBRATION VALUES
A = Detector Channel
Val Type	A-AC1	A-AC2	A-AC3	A-AC4	A-AC5	A-AC6	A-AC7	A-AC8	A-AC9	A-AC10	A-AC11	A-AC12	A-AC13	A-AC14	A-AC15	A-AC16	A-DC1	A-DC2	A-DC3	A-DC4	A-DC5	A-DC6	A-DC7	A-DC8	A-DC9	A-DC10	A-DC11	A-DC12	A-DC13	A-DC14	A-DC15	A-DC16	A-Ph1	A-Ph2	A-Ph3	A-Ph4	A-Ph5	A-Ph6	A-Ph7	A-Ph8	A-Ph9	A-Ph10	A-Ph11	A-Ph12	A-Ph13	A-Ph14	A-Ph15	A-Ph16	

Term	0.00000e+00	0.00000e+00	0.00000e+00	0.00000e+00	0.00000e+00	0.00000e+00	0.00000e+00	0.00000e+00	0.00000e+00	0.00000e+00	0.00000e+00	0.00000e+00	0.00000e+00	0.00000e+00	0.00000e+00	0.00000e+00	0.00000e+00	0.00000e+00	0.00000e+00	0.00000e+00	0.00000e+00	0.00000e+00	0.00000e+00	0.00000e+00	0.00000e+00	0.00000e+00	0.00000e+00	0.00000e+00	0.00000e+00	0.00000e+00	0.00000e+00	0.00000e+00	0.00000e+00	0.00000e+00	0.00000e+00	0.00000e+00	0.00000e+00	0.00000e+00	0.00000e+00	0.00000e+00	0.00000e+00	0.00000e+00	0.00000e+00	0.00000e+00	0.00000e+00	0.00000e+00	0.00000e+00	0.00000e+00	
Factor	1.00000e+00	1.00000e+00	1.00000e+00	1.00000e+00	1.00000e+00	1.00000e+00	1.00000e+00	1.00000e+00	1.00000e+00	1.00000e+00	1.00000e+00	1.00000e+00	1.00000e+00	1.00000e+00	1.00000e+00	1.00000e+00	1.00000e+00	1.00000e+00	1.00000e+00	1.00000e+00	1.00000e+00	1.00000e+00	1.00000e+00	1.00000e+00	1.00000e+00	1.00000e+00	1.00000e+00	1.00000e+00	1.00000e+00	1.00000e+00	1.00000e+00	1.00000e+00	X	X	X	X	X	X	X	X	X	X	X	X	X	X	X	X	

B = Detector Channel
Val Type	B-AC1	B-AC2	B-AC3	B-AC4	B-AC5	B-AC6	B-AC7	B-AC8	B-AC9	B-AC10	B-AC11	B-AC12	B-AC13	B-AC14	B-AC15	B-AC16	B-DC1	B-DC2	B-DC3	B-DC4	B-DC5	B-DC6	B-DC7	B-DC8	B-DC9	B-DC10	B-DC11	B-DC12	B-DC13	B-DC14	B-DC15	B-DC16	B-Ph1	B-Ph2	B-Ph3	B-Ph4	B-Ph5	B-Ph6	B-Ph7	B-Ph8	B-Ph9	B-Ph10	B-Ph11	B-Ph12	B-Ph13	B-Ph14	B-Ph15	B-Ph16	

Term	0.00000e+00	0.00000e+00	0.00000e+00	0.00000e+00	0.00000e+00	0.00000e+00	0.00000e+00	0.00000e+00	0.00000e+00	0.00000e+00	0.00000e+00	0.00000e+00	0.00000e+00	0.00000e+00	0.00000e+00	0.00000e+00	0.00000e+00	0.00000e+00	0.00000e+00	0.00000e+00	0.00000e+00	0.00000e+00	0.00000e+00	0.00000e+00	0.00000e+00	0.00000e+00	0.00000e+00	0.00000e+00	0.00000e+00	0.00000e+00	0.00000e+00	0.00000e+00	-1.52421e+02	-1.26321e+02	-1.29806e+02	-1.86538e+02	-8.17425e+01	-9.44387e+01	-1.58482e+02	-1.62015e+02	-7.12364e+01	-6.93310e+01	-1.71970e+02	-1.71209e+02	-1.83751e+02	-1.77240e+02	-8.25703e+01	-1.49604e+02	
Factor	2.27753e-05	1.29415e-04	3.73414e-05	2.99145e-01	1.07142e-06	1.26760e-06	1.64991e-01	5.09512e-02	1.01362e-06	1.41088e-06	8.41624e-02	2.77432e-02	4.04098e-02	8.88480e-03	1.04482e-06	1.27305e-02	1.79682e-06	1.89931e-06	5.29689e-07	1.50663e-01	2.07622e-08	2.08323e-08	7.96040e-02	2.61946e-02	2.06444e-08	2.08380e-08	4.16293e-02	1.37790e-02	2.05187e-02	4.56761e-03	2.07884e-08	6.31791e-03	X	X	X	X	X	X	X	X	X	X	X	X	X	X	X	X	



#DISTANCE SETTINGS
A = Detector Channel
A-1	A-2	A-3	A-4	A-5	A-6	A-7	A-8	A-9	A-10	A-11	A-12	A-13	A-14	A-15	A-16	

2.5000e+00	3.0000e+00	2.5000e+00	3.0000e+00	2.0000e+00	3.0000e+00	1.5000e+00	3.0000e+00	3.0000e+00	3.0000e+00	3.0000e+00	3.0000e+00	3.0000e+00	3.0000e+00	1.5000e+00	3.0000e+00	

B = Detector Channel
B-1	B-2	B-3	B-4	B-5	B-6	B-7	B-8	B-9	B-10	B-11	B-12	B-13	B-14	B-15	B-16	

1.0000e+01	1.0000e+01	1.0000e+01	1.4400e+00	1.0000e+01	1.0000e+01	1.5100e+00	1.9400e+00	1.0000e+01	1.0000e+01	1.9900e+00	2.4900e+00	2.4100e+00	2.9000e+00	1.0000e+01	2.9800e+00	




#DATA BEGINS
time	group	step	mark	flag	A-AC1	A-AC2	A-AC3	A-AC4	A-AC5	A-AC6	A-AC7	A-AC8	A-AC9	A-AC10	A-AC11	A-AC12	A-AC13	A-AC14	A-AC15	A-AC16	A-DC1	A-DC2	A-DC3	A-DC4	A-DC5	A-DC6	A-DC7	A-DC8	A-DC9	A-DC10	A-DC11	A-DC12	A-DC13	A-DC14	A-DC15	A-DC16	A-Ph1	A-Ph2	A-Ph3	A-Ph4	A-Ph5	A-Ph6	A-Ph7	A-Ph8	A-Ph9	A-Ph10	A-Ph11	A-Ph12	A-Ph13	A-Ph14	A-Ph15	A-Ph16	B-AC1	B-AC2	B-AC3	B-AC4	B-AC5	B-AC6	B-AC7	B-AC8	B-AC9	B-AC10	B-AC11	B-AC12	B-AC13	B-AC14	B-AC15	B-AC16	B-DC1	B-DC2	B-DC3	B-DC4	B-DC5	B-DC6	B-DC7	B-DC8	B-DC9	B-DC10	B-DC11	B-DC12	B-DC13	B-DC14	B-DC15	B-DC16	B-Ph1	B-Ph2	B-Ph3	B-Ph4	B-Ph5	B-Ph6	B-Ph7	B-Ph8	B-Ph9	B-Ph10	B-Ph11	B-Ph12	B-Ph13	B-Ph14	B-Ph15	B-Ph16	aux-1	digaux	

8104.419	1	1	0	256	0.24315	0.077506	0.010289	0.21118	0.11839	0.12898	0.33594	0.1506	0.14757	0.1616	0.17445	0.26735	0.22229	0.13821	0.12386	0.17131	-1.9937	-2.7208	-2.7979	-2.2521	-2.9042	-2.7812	-2.5771	-3.1562	-2.4083	-2.7438	-3.2042	-2.1146	-2.9896	-2.725	-2.3229	-3.2042	324.130	224.935	298.278	423.845	371.288	338.511	438.344	170.539	243.087	484.194	420.249	474.299	358.813	186.359	371.329	492.189	0.00026471	0.0003775	9.4441e-05	1004.5	4.3865e-06	5.7351e-06	1090.7	203.72	4.0497e-06	5.5754e-06	260.26	74.961	58.629	17.352	2.0809e-06	24.556	0.00016107	0.00015191	4.2622e-05	975.66	1.654e-06	1.6599e-06	1070	200.26	1.7023e-06	1.6994e-06	256.18	74.63	57.79	17.493	1.6803e-06	24.724	175.677	209.270	180.922	156.693	252.889	287.494	156.780	164.480	285.340	256.322	164.473	170.704	170.785	178.635	282.006	177.837	-8191	255	
8104.540	1	1	0	0	0.17448	0.12996	0.088884	0.070318	0.24442	0.16502	0.41083	0.23596	0.11429	0.18688	0.099211	0.21847	0.10954	0.037187	0.3235	0.27348	-1.8854	-2.5875	-3.1042	-2.4292	-2.9125	-2.8333	-2.3479	-3.275	-2.4625	-2.4375	-3.1375	-2.4167	-2.7271	-2.9188	-2.3479	-2.9729	192.558	301.193	266.057	231.873	403.175	253.565	464.178	421.583	181.727	254.284	238.925	470.975	399.911	489.880	312.854	371.068	0.00033277	0.00030673	0.00011188	1006.7	1.7971e-06	4.6058e-06	1088	203.98	1.9245e-06	3.1483e-06	259.61	75.281	59.091	17.255	2.3842e-07	24.668	0.00016511	0.00015694	4.2446e-05	973.17	1.722e-06	1.7345e-06	1066.9	200.45	1.7448e-06	1.7266e-06	255.81	74.569	58.031	17.452	1.7214e-06	24.766	173.301	254.852	255.171	156.557	280.718	287.521	156.964	164.437	249.473	313.987	164.319	170.065	170.164	178.668	380.368	177.802	-8191	255	
8104.634	1	1	0	0	0.030774	0.12079	0.13791	0.068094	0.2384	0.12213	0.18994	0.13241	0.092585	0.10307	0.30789	0.11951	0.21521	0.20138	0.21034	0.087501	-2.225	-2.5375	-3.1333	-2.3	-2.7354	-2.9458	-2.3708	-3.1437	-2.5792	-2.3417	-3.2396	-2.3896	-2.6813	-3.175	-2.3187	-3.0292	452.039	393.712	247.263	261.349	172.075	470.462	417.522	258.457	228.022	343.473	165.789	452.648	187.146	156.278	329.260	423.044	0.00027902	9.9852e-05	0.00011816	1009.5	1.7349e-06	1.2932e-06	1093.3	204.25	3.8824e-06	2.7905e-06	262.01	75.797	59.239	17.582	4.46e-06	24.534	0.00016711	0.00015822	4.4289e-05	975.12	1.7596e-06	1.7306e-06	1070.1	200.46	1.7814e-06	1.7602e-06	256.62	74.8	57.932	17.484	1.7535e-06	24.697	174.945	504.908	188.642	156.493	286.645	251.363	156.751	164.637	344.145	322.007	163.961	170.477	170.874	178.324	300.463	177.929	-8191	255	
8104.708	1	1	0	0	0.081537	0.048997	0.22746	0.22073	0.15105	0.037888	0.2079	0.094108	0.25729	0.20881	0.28237	0.21732	0.068113	0.11948	0.17939	0.10137	-2.2979	-2.2188	-3.1396	-2.3646	-2.4667	-3.0062	-2.3542	-2.8187	-2.825	-2.1646	-3.0104	-2.4021	-2.3979	-2.9542	-2.3896	-2.8854	215.673	422.548	463.272	490.117	200.527	466.414	480.891	259.945	310.160	195.006	460.872	465.027	316.182	372.853	392.019	322.264	0.00032093	0.00019637	6.2173e-05	1008.8	4.2564e-06	3.3116e-06	1092.3	204.32	3.9241e-06	2.5771e-06	261.78	75.53	59.179	17.55	3.6189e-06	24.613	0.00017173	0.00016222	4.5048e-05	975.39	1.8314e-06	1.7579e-06	1069.6	201.08	1.7995e-06	1.7794e-06	257.07	74.76	58.089	17.518	1.7743e-06	24.728	162.458	255.763	223.752	156.872	296.731	297.469	156.589	164.339	311.215	351.454	164.128	170.348	171.003	178.434	211.538	177.598	-8191	255	
8104.804	1	1	0	0	0.083117	0.46932	0.13237	0.20866	0.10763	0.080425	0.21363	0.10934	0.12225	0.11822	0.26833	0.31925	0.072352	0.038115	0.045492	0.15696	-2.4625	-2.3563	-3.0083	-2.5042	-2.5292	-3.0333	-2.4021	-2.9104	-2.8396	-2.2396	-3.0958	-2.5042	-2.3312	-3.1417	-2.1583	-2.6937	426.876	458.363	363.325	217.916	194.032	230.538	471.680	465.564	432.875	265.016	431.616	488.794	219.489	435.343	354.616	326.432	0.00035672	0.00032006	7.9573e-05	1011.5	1.017e-06	4.9599e-06	1094.8	203.3	2.4546e-06	2.9387e-06	261.58	75.273	59.326	17.464	1.3437e-06	24.611	0.0001692	0.00015883	4.4109e-05	976.91	1.7748e-06	1.7356e-06	1070.2	200.36	1.7414e-06	1.7607e-06	256.34	74.682	58.075	17.515	1.7798e-06	24.716	169.440	256.494	461.790	156.671	175.788	308.641	156.640	164.617	326.593	313.319	164.333	170.721	170.269	178.892	313.180	178.089	-8191	255	
8104.900	1	1	0	0	0.053189	0.3219	0.1949	0.17517	0.078429	0.217	0.069308	0.38042	0.057349	0.18586	0.18023	0.082539	0.13355	0.14457	0.27499	0.23846	-2.5917	-2.1583	-2.7958	-2.6375	-2.3417	-3.1125	-2.6167	-2.825	-2.8417	-2.3479	-2.9625	-2.7042	-2.4979	-3.1708	-2.4479	-2.6771	396.388	469.436	203.690	160.045	249.792	153.446	467.008	430.468	343.727	390.223	455.302	408.173	315.648	504.211	267.367	418.377	0.0002983	0.00016458	0.00010584	1001.2	1.1959e-06	4.1789e-06	1089.5	203.61	1.6821e-06	2.7159e-06	260.03	75.377	59.108	17.53	7.5761e-07	24.691	0.0001676	0.00015331	4.3528e-05	975.34	1.7953e-06	1.7096e-06	1067	200.36	1.7577e-06	1.7343e-06	255.94	74.673	58.061	17.512	1.7997e-06	24.735	166.447	165.805	250.053	156.589	237.539	269.978	156.752	163.945	322.490	284.514	164.073	170.663	170.946	178.589	179.899	178.131	-8191	255	
8105.019	1	1	0	0	0.099932	0.20202	0.31467	0.1932	0.23218	0.23569	0.15539	0.18197	0.10692	0.16609	0.27366	0.29948	0.18232	0.18053	0.21023	0.2818	-2.6583	-2.4375	-2.85	-2.8167	-2.5104	-2.9521	-2.7021	-2.6667	-3.0646	-2.5771	-2.7417	-2.7667	-2.3375	-2.8937	-2.4458	-2.6458	491.267	293.871	406.707	168.735	179.686	169.619	343.467	447.529	441.531	495.188	461.199	146.627	193.726	504.949	257.058	368.869	0.00031363	0.00023939	5.9769e-06	1004.7	2.8353e-06	2.5009e-06	1085.8	204.89	3.1093e-06	2.5115e-06	260.59	75.231	59	17.439	1.9908e-06	24.41	0.00016888	0.00016298	4.5338e-05	973.9	1.8202e-06	1.739e-06	1067.8	200.91	1.7892e-06	1.7892e-06	256.76	74.508	58.076	17.549	1.7865e-06	24.727	173.000	189.834	254.596	156.575	224.215	185.062	156.842	164.465	299.625	268.479	163.930	170.503	170.915	178.640	268.602	178.153	-8191	255	
8105.115	1	1	0	0	0.32401	0.12308	0.26812	0.20159	0.10196	0.012697	0.15916	0.16628	0.20895	0.22369	0.19144	0.26186	0.15162	0.10487	0.072247	0.41977	-2.5604	-2.2917	-2.6104	-2.8354	-2.2604	-2.9125	-2.7375	-2.5438	-3.0062	-2.3604	-2.7292	-2.9917	-2.3229	-2.9646	-2.6292	-2.4667	370.351	489.409	486.793	376.495	256.970	394.814	285.231	160.214	406.404	452.396	161.215	198.739	351.165	386.146	254.710	425.354	0.00032232	0.0004342	0.00014037	1006.2	1.8192e-06	8.7219e-07	1088.7	203.88	2.5294e-06	5.2312e-06	259.91	75.206	58.958	17.556	3.1578e-06	24.542	0.00017036	0.00016457	4.6721e-05	974.32	1.7812e-06	1.7474e-06	1065.8	200.44	1.7665e-06	1.7547e-06	256.32	74.682	58.026	17.547	1.7434e-06	24.739	174.870	300.398	253.448	157.199	271.584	182.499	156.603	164.904	386.100	356.834	164.180	170.284	170.932	178.882	256.364	177.798	-8191	255	
8105.211	1	1	0	0	0.050916	0.17814	0.21459	0.114	0.12331	0.2187	0.040854	0.1759	0.22437	0.070153	0.15483	0.071528	0.13771	0.18008	0.3429	0.1986	-2.7771	-2.3292	-2.7875	-2.9146	-2.1708	-2.8667	-2.7833	-2.3979	-2.9667	-2.3187	-2.6667	-3.1312	-2.4021	-2.9167	-2.6979	-2.3583	237.373	377.526	170.109	406.254	150.824	473.066	482.774	208.027	213.315	392.540	162.175	274.057	160.663	271.853	269.878	476.580	0.00031809	0.00029214	8.0766e-05	1003.5	7.8876e-07	2.2128e-06	1090	203.65	1.6228e-06	3.0183e-06	260.66	75.1	59.504	17.404	2.4094e-06	24.811	0.00016832	0.00016315	4.482e-05	974.67	1.7704e-06	1.7583e-06	1068	200.49	1.7669e-06	1.7867e-06	256.57	74.819	57.993	17.499	1.7636e-06	24.84	169.284	190.739	206.936	156.912	492.546	330.981	156.634	164.621	333.333	269.258	164.061	170.389	170.908	178.444	238.132	177.872	-8191	255	
8105.307	1	1	0	0	0.23613	0.25534	0.11001	0.17978	0.35187	0.12618	0.15612	0.36432	0.12639	0.068253	0.11397	0.063923	0.11901	0.10314	0.17827	0.24481	-2.7146	-2.5146	-2.4875	-2.9437	-2.2208	-2.8917	-3.0771	-2.1854	-2.8875	-2.5938	-2.4313	-2.9979	-2.3417	-2.9521	-2.8667	-2.3104	314.521	271.872	377.347	340.579	202.430	265.727	423.160	432.051	368.082	365.425	161.599	196.851	276.241	445.957	166.308	437.004	0.00031429	0.00019031	0.00016739	1008.5	2.3682e-06	1.4433e-06	1085.9	204.51	1.0569e-06	4.9372e-06	259.11	75.407	59.186	17.483	3.2434e-06	24.479	0.00017374	0.00016304	4.5747e-05	977.03	1.7923e-06	1.7781e-06	1067.8	200.81	1.7993e-06	1.8187e-06	256.27	74.731	58.069	17.59	1.8491e-06	24.75	166.523	189.056	219.831	156.649	191.385	249.874	156.824	164.424	240.678	341.341	163.990	170.586	170.738	178.628	243.229	177.486	-8191	255	
8105.404	1	1	0	0	0.14252	0.014538	0.28595	0.081764	0.077797	0.15525	0.14221	0.06572	0.13242	0.073226	0.16193	0.13646	0.24109	0.28045	0.056778	0.14582	-2.4229	-2.6896	-2.3458	-3.1208	-2.3396	-2.5729	-3.1208	-2.2521	-2.9229	-2.6333	-2.3	-2.9833	-2.4479	-2.6	-2.9313	-2.2375	253.036	300.721	176.780	372.147	321.994	343.618	461.725	276.647	377.248	389.308	446.917	149.402	308.915	253.501	391.712	444.319	0.00031056	0.0003504	9.0677e-05	1010.7	2.9532e-06	3.1101e-06	1091.7	204.54	2.5334e-06	8.838e-07	260.88	76.244	59.325	17.596	2.9232e-06	24.889	0.00017683	0.00016932	4.5934e-05	977.4	1.8257e-06	1.8201e-06	1068.7	200.96	1.8179e-06	1.7774e-06	256.42	75.028	57.9	17.605	1.7916e-06	24.799	167.749	292.258	242.235	156.673	283.023	294.924	156.753	164.611	240.632	487.491	164.390	170.518	170.459	179.147	266.440	177.502	-8191	255	
8105.500	1	1	0	0	0.11596	0.1333	0.10913	0.43995	0.32485	0.38721	0.18338	0.37541	0.071932	0.18205	0.12087	0.0093301	0.047698	0.14924	0.046309	0.21551	-2.5583	-2.6583	-2.3604	-3.1042	-2.4479	-2.6146	-3.2875	-2.2604	-2.8917	-2.9667	-2.3083	-3.1271	-2.3083	-2.3937	-3.0229	-2.2313	278.830	461.205	325.549	485.918	233.170	379.560	494.198	504.993	349.342	340.416	261.928	440.370	449.915	457.396	260.019	419.744	0.00033261	0.00025615	2.5735e-05	1005.3	3.1113e-06	1.6115e-06	1093.6	203.13	1.9975e-06	6.7938e-07	259.76	75.001	58.734	17.505	8.3089e-07	24.771	0.00017035	0.00016534	4.5848e-05	973.52	1.8312e-06	1.8138e-06	1068.8	200.52	1.8503e-06	1.7934e-06	256.45	74.603	58.026	17.549	1.8409e-06	24.773	171.134	264.704	410.030	157.201	310.079	266.948	156.730	164.538	284.427	234.059	164.074	170.719	170.815	178.603	220.311	177.888	-8191	255	
8105.620	1	1	0	0	0.23029	0.11721	0.14915	0.48018	0.18417	0.051134	0.10039	0.15355	0.083632	0.051905	0.39768	0.022472	0.18652	0.28692	0.1219	0.051131	-2.3187	-2.5687	-2.1667	-3.0542	-2.8146	-2.3792	-3.2292	-2.0604	-2.9208	-3.1167	-2.2833	-2.9667	-2.6458	-2.5208	-3.1729	-2.4854	197.021	391.821	185.484	467.846	423.857	455.808	404.718	404.571	454.953	266.347	453.053	365.445	446.803	158.611	464.920	183.768	0.00034444	0.00024577	0.00010167	1007.1	2.8465e-07	2.0404e-06	1086.7	203.35	4.4076e-06	3.8264e-06	259.74	75.537	59.232	17.484	1.8613e-06	24.908	0.00017657	0.00016713	4.7203e-05	977.81	1.8131e-06	1.819e-06	1067.1	200.27	1.7943e-06	1.7723e-06	255.97	74.924	58.05	17.507	1.7579e-06	24.807	168.936	228.291	210.113	156.766	264.503	304.649	156.429	164.337	280.171	260.855	164.060	170.733	170.939	177.949	363.599	177.479	-8191	255	
8105.717	1	1	0	0	0.23127	0.039596	0.16789	0.14688	0.10723	0.1006	0.33537	0.4786	0.38939	0.36473	0.13071	0.25012	0.17437	0.30352	0.091062	0.14286	-2.3208	-2.9583	-2.2604	-3.075	-2.8229	-2.2354	-2.9646	-2.3771	-2.5187	-3.1708	-2.4292	-2.9125	-2.6896	-2.2625	-3.1167	-2.35	492.104	439.321	368.069	425.717	201.909	151.074	441.936	473.205	405.115	505.913	152.255	408.187	449.566	459.585	486.256	431.983	0.00027779	0.00026351	9.2528e-05	1001.3	2.7868e-06	3.8914e-06	1092.6	203.9	1.9541e-06	1.7971e-06	259.37	75.635	58.995	17.47	1.3585e-06	24.611	0.00017316	0.00016404	4.625e-05	971.86	1.8023e-06	1.7698e-06	1067.2	200.57	1.8031e-06	1.7782e-06	255.35	74.75	57.669	17.54	1.8079e-06	24.688	167.849	329.583	276.239	156.971	237.972	257.694	156.813	164.676	270.597	447.436	164.221	170.712	171.199	179.172	281.055	177.748	-8191	255	
8105.813	1	1	0	0	0.079721	0.18943	0.10422	0.13296	0.18443	0.084724	0.10636	0.13506	0.31932	0.139	0.22445	0.061698	0.14556	0.2026	0.036597	0.17895	-2.0646	-2.8271	-2.3979	-2.9042	-2.7854	-2.2833	-3.2188	-2.5146	-2.5938	-3.0125	-2.3937	-2.8833	-2.7938	-2.3375	-3.0438	-2.5979	378.692	330.338	474.685	481.186	368.696	453.532	504.919	431.369	230.430	471.418	445.806	171.415	462.545	484.826	494.258	467.852	0.0002617	0.00027238	0.00011685	997.96	3.2273e-06	3.0356e-06	1081.8	203.28	2.0758e-06	2.1243e-06	259.8	75.388	58.689	17.42	2.0784e-06	24.385	0.00017236	0.0001622	4.5982e-05	969.53	1.8269e-06	1.8706e-06	1062.4	200.22	1.8707e-06	1.8484e-06	255.28	74.541	57.783	17.472	1.8515e-06	24.636	160.434	238.171	190.755	157.058	394.216	257.923	156.986	164.279	234.227	263.437	164.227	170.749	170.698	179.298	256.340	177.542	-8191	255	
8105.909	1	1	0	0	0.065673	0.18244	0.18871	0.17186	0.23599	0.26961	0.14336	0.16043	0.056431	0.30227	0.13444	0.20909	0.18931	0.32759	0.21717	0.13231	-1.9813	-3.0229	-2.2687	-2.65	-3.0563	-2.2812	-3.1625	-2.6958	-2.2479	-3.1042	-2.4062	-2.8333	-2.9646	-2.3271	-3.0833	-2.7	423.497	351.293	471.307	245.235	445.263	228.216	450.155	462.408	430.796	428.153	490.891	155.995	452.941	389.459	385.375	453.452	0.00038529	0.00035431	3.5968e-05	995.62	1.0029e-06	2.7904e-06	1082.7	202.34	1.7041e-06	3.4002e-06	258.28	74.843	58.975	17.313	2.5661e-06	24.466	0.00017786	0.00016592	4.6674e-05	966.78	1.8825e-06	1.8542e-06	1062.2	199.82	1.8822e-06	1.8568e-06	254.9	74.515	57.871	17.474	1.9484e-06	24.715	175.311	211.895	283.695	156.568	315.778	300.451	156.898	164.795	294.776	320.248	164.450	170.841	171.081	178.267	303.599	177.789	-8191	255	
8106.003	1	1	0	0	0.14626	0.23515	0.08634	0.081508	0.12186	0.15569	0.32998	0.20336	0.096916	0.2912	0.35846	0.1031	0.15124	0.14498	0.084745	0.10165	-1.8937	-2.9417	-2.4375	-2.6021	-3.1375	-2.1125	-2.9583	-2.8438	-2.2729	-3.1437	-2.7167	-2.6229	-3.0333	-2.2292	-2.8625	-2.8417	424.301	334.342	361.384	333.413	248.438	453.606	455.258	431.392	213.522	288.688	477.983	219.731	412.192	427.393	282.277	172.643	0.00033046	0.00025824	8.4373e-05	997.07	1.9111e-06	1.2097e-06	1081.3	203.69	3.601e-06	4.0759e-06	259.23	75.465	58.028	17.339	2.0483e-06	24.476	0.00018715	0.00017457	4.8739e-05	968.5	1.967e-06	1.9292e-06	1061.9	200.33	1.9653e-06	1.8996e-06	255.16	74.655	57.574	17.454	1.9489e-06	24.692	173.227	228.490	299.372	156.823	219.945	341.003	156.949	164.605	297.328	327.836	164.421	170.949	170.629	178.515	312.642	177.718	-8191	255	
8106.099	1	1	0	0	0.13981	0.23036	0.19073	0.26746	0.12614	0.087091	0.20426	0.18321	0.2177	0.12194	0.11073	0.1009	0.11511	0.22587	0.055531	0.19432	-1.9896	-3.0542	-2.5854	-2.5708	-3.0271	-2.4042	-2.8083	-2.9938	-2.2646	-3.0917	-2.7	-2.3812	-3.2646	-2.2375	-2.5229	-3.0938	189.485	183.728	271.545	503.660	339.995	479.674	212.993	477.701	397.550	264.844	470.282	166.739	327.705	439.940	159.220	464.078	0.00037333	0.00040015	9.8701e-05	1002.7	3.7389e-06	4.3635e-06	1079	202.02	3.2933e-06	2.883e-06	257.36	74.673	58.846	17.293	1.0466e-06	24.187	0.00018265	0.00017468	4.8755e-05	970.03	1.8742e-06	1.9141e-06	1059.4	199.72	1.9567e-06	1.9516e-06	254.08	74.277	57.878	17.449	1.9974e-06	24.643	163.022	210.817	263.951	157.055	252.740	250.847	156.954	164.615	268.911	333.283	164.106	170.368	171.065	178.642	403.117	177.593	-8191	255	
8106.196	1	1	0	0	0.20343	0.071524	0.091311	0.2073	0.11498	0.071488	0.11805	0.11906	0.16131	0.15087	0.21869	0.16644	0.18849	0.10555	0.11608	0.11006	-1.8333	-3	-2.6875	-2.3771	-3.0646	-2.4229	-2.8229	-2.8792	-2.3292	-2.8563	-2.6813	-2.1396	-2.9688	-2.3937	-2.6667	-2.9125	354.584	263.557	475.296	434.782	481.530	245.468	185.153	291.433	313.655	409.609	457.603	409.299	278.506	413.199	407.303	234.457	0.00036584	0.00021889	9.2914e-05	993.14	2.7959e-06	2.7202e-06	1079	202.52	2.7452e-06	3.6663e-06	256.76	74.626	58.329	17.257	7.0609e-07	24.613	0.00018684	0.00017973	5.0666e-05	968.12	1.9906e-06	1.9705e-06	1058.7	200.06	1.9789e-06	1.93e-06	254.2	74.213	57.63	17.413	1.8673e-06	24.704	170.410	242.613	237.682	157.114	236.511	357.314	156.990	164.360	274.141	303.608	164.109	170.711	170.743	178.936	179.985	177.746	-8191	255	
8106.316	1	1	0	0	0.18333	0.083889	0.084983	0.32787	0.24201	0.090701	0.20021	0.16775	0.33901	0.077863	0.24395	0.07503	0.11375	0.16141	0.10383	0.21824	-1.9458	-2.9	-2.6729	-2.3271	-3.0729	-2.625	-2.6125	-3.1188	-2.2083	-2.7083	-2.9313	-2.3625	-2.9333	-2.4146	-2.4729	-2.9562	487.914	492.904	345.981	501.685	257.358	504.766	484.371	149.617	255.412	504.105	464.693	494.495	232.195	198.391	455.301	454.989	0.00029382	7.081e-05	3.7698e-05	990.98	3.0268e-06	2.6265e-06	1073.4	201.28	2.986e-06	1.0567e-06	257.92	74.818	58.275	17.28	3.0833e-06	24.279	0.00018048	0.00016993	4.7165e-05	963.86	1.8734e-06	1.8597e-06	1056.7	199.51	1.9518e-06	1.9071e-06	254.55	74.325	57.811	17.441	1.9806e-06	24.6	168.147	505.450	390.922	157.079	259.085	300.939	156.873	164.474	241.998	388.893	164.210	170.513	170.898	178.842	313.423	178.332	-8191	255	
8106.412	1	1	0	0	0.14507	0.21026	0.28528	0.30487	0.14973	0.18063	0.12481	0.048899	0.22193	0.12767	0.10716	0.25584	0.22951	0.095889	0.20867	0.033617	-1.8042	-2.7938	-2.8854	-2.3187	-2.9833	-2.5792	-2.5167	-3.0729	-2.2104	-2.7792	-2.7646	-2.4208	-3.0958	-2.6021	-2.3604	-3.1417	424.405	473.875	166.193	448.116	158.434	475.746	484.702	291.605	463.199	241.946	300.267	161.906	439.380	436.169	396.309	439.428	0.00039404	0.00014855	3.5381e-05	992.79	1.6775e-06	4.7145e-06	1072	201.32	1.1869e-06	5.9159e-06	258.36	74.237	58.134	17.386	3.6777e-06	24.275	0.00018759	0.00017872	4.9881e-05	966.62	1.9729e-06	1.9836e-06	1056	199.61	2.0281e-06	1.9963e-06	254.24	74.187	57.909	17.438	2.0222e-06	24.548	170.433	186.754	223.488	157.106	249.115	252.918	156.705	164.577	273.499	291.761	164.633	170.335	170.841	178.699	309.091	178.177	-8191	255	
8106.508	1	1	0	0	0.2238	0.088859	0.3364	0.091174	0.071516	0.21402	0.37931	0.38054	0.18635	0.11852	0.16826	0.13701	0.15311	0.14049	0.13281	0.079844	-2.1	-2.8167	-2.8292	-2.0958	-2.7896	-2.7812	-2.5125	-2.9437	-2.3229	-2.5896	-3.1146	-2.2833	-2.9	-2.7208	-2.175	-3.0833	264.073	237.452	164.348	465.767	240.521	310.524	433.981	470.226	414.741	212.196	399.496	463.545	186.471	234.419	279.082	433.520	0.00028658	0.0002509	4.7509e-05	984.05	3.4575e-06	1.129e-06	1074.6	201.25	8.5396e-07	1.0956e-06	256.48	74.304	58.554	17.177	2.9328e-06	24.31	0.00019079	0.00018353	5.0759e-05	964.56	2.0202e-06	2.0415e-06	1057.2	199.81	2.0191e-06	2.0068e-06	253.75	74.275	57.706	17.4	2.0039e-06	24.558	175.194	266.175	215.389	156.872	254.268	318.459	156.749	164.572	266.931	315.853	164.206	170.852	171.165	178.515	420.250	177.995	-8191	255	
8106.580	1	1	0	0	0.24344	0.36736	0.16566	0.19402	0.074721	0.14654	0.22018	0.21211	0.11466	0.21042	0.17896	0.17419	0.21049	0.26364	0.17493	0.14632	-2.0125	-2.5167	-2.925	-2.2375	-2.8438	-2.9833	-2.3563	-3.1167	-2.5229	-2.5146	-3.0875	-2.2896	-2.7062	-2.975	-2.4	-2.9562	318.171	257.365	184.637	238.594	473.471	504.012	418.295	148.195	295.734	359.173	235.801	174.225	464.960	472.008	265.859	440.195	0.00035602	0.00034428	8.7882e-05	988.38	1.5466e-06	3.4509e-06	1073.1	202.91	1.9268e-06	5.1257e-06	257.85	74.68	58.204	17.356	1.4905e-06	24.46	0.00018961	0.00017904	4.9559e-05	964.29	1.9841e-06	1.957e-06	1055.4	200.1	1.9934e-06	1.9664e-06	254.19	74.161	57.433	17.387	1.9876e-06	24.623	169.134	303.287	250.574	156.663	218.529	305.950	156.826	164.633	230.909	194.039	164.558	170.558	170.380	178.850	417.190	177.782	-8191	255	
8106.701	1	1	0	0	0.1056	0.053325	0.042849	0.27942	0.098074	0.22034	0.2849	0.2957	0.18975	0.061564	0.090129	0.22217	0.20024	0.17124	0.053154	0.089301	-2.2229	-2.4021	-3.0271	-2.5208	-2.6792	-2.9188	-2.4729	-3.0083	-2.6771	-2.3396	-3.0208	-2.2271	-2.7479	-2.9292	-2.1562	-2.8583	232.911	214.294	335.841	446.019	480.932	450.145	492.773	459.008	489.639	404.601	473.789	262.594	494.928	184.743	301.895	480.953	0.00032769	0.00048325	7.7269e-05	986.27	2.6646e-06	1.118e-06	1075.2	201.83	3.178e-06	3.112e-06	255.48	74.442	57.963	17.223	9.3637e-07	24.279	0.0001908	0.00017994	4.9923e-05	961.39	2.0359e-06	2.02e-06	1054.8	199.57	2.0009e-06	2.0744e-06	253.33	74.296	57.604	17.432	2.0491e-06	24.536	177.255	263.293	201.959	157.076	197.478	215.225	156.902	164.205	315.674	315.309	164.138	170.632	170.786	178.764	187.399	178.248	-8191	255	
8106.795	1	1	0	0	0.050177	0.13219	0.094063	0.33488	0.33628	0.2441	0.31061	0.1638	0.079453	0.16625	0.026104	0.064631	0.3441	0.088482	0.084279	0.2284	-2.2458	-2.1979	-2.9333	-2.3021	-2.5312	-3.0854	-2.5479	-2.9	-2.9062	-2.1021	-3.2292	-2.5187	-2.4313	-3.0146	-2.2521	-2.7917	459.650	300.453	429.114	190.442	279.826	499.995	180.750	448.454	259.136	441.954	392.344	416.877	444.046	449.574	445.390	468.362	0.00035589	0.00033159	0.00018654	983.39	8.546e-07	1.2897e-06	1075	200.31	1.0465e-06	4.7617e-06	257.14	74.09	58.602	17.198	2.9085e-06	24.385	0.00019861	0.00017862	5.1613e-05	961.66	2.0615e-06	2.0068e-06	1054	199.19	2.0572e-06	1.9897e-06	253.64	74.137	57.654	17.389	1.9877e-06	24.566	167.844	195.155	238.569	156.777	319.083	279.260	157.006	164.509	247.108	241.733	164.494	170.753	170.885	178.702	240.514	178.122	-8191	255	
8106.893	1	1	0	0	0.10468	0.25507	0.19539	0.064213	0.15002	0.16402	0.11972	0.29779	0.097833	0.15986	0.26926	0.076836	0.1597	0.13269	0.18571	0.34685	-2.4958	-2.0812	-2.8958	-2.6937	-2.3271	-3.0896	-2.4542	-2.6417	-2.7583	-2.1188	-2.9333	-2.675	-2.3979	-3.075	-2.3063	-2.6562	492.137	374.075	271.954	407.814	162.012	156.659	437.804	169.697	333.575	362.078	471.782	300.039	171.045	464.435	355.815	162.965	0.00032635	0.00030728	9.7258e-05	983.79	3.7346e-06	2.575e-06	1065.8	201.79	2.3775e-06	1.5869e-06	257.6	75.228	58.134	17.172	4.855e-06	24.195	0.000191	0.00018146	5.1243e-05	960.5	2.0029e-06	1.99e-06	1051.9	199.24	1.9968e-06	2.0004e-06	253.74	74.371	57.505	17.37	1.9932e-06	24.563	170.848	255.321	209.298	156.797	297.934	275.634	156.797	164.773	288.981	288.922	164.630	170.397	170.934	178.514	281.641	177.701	-8191	255	
8107.012	1	1	0	0	0.12027	0.089973	0.17358	0.11521	0.099535	0.14826	0.06733	0.16001	0.13346	0.16333	0.26092	0.13456	0.19537	0.084167	0.22221	0.21009	-2.6396	-2.1292	-3.0625	-2.5958	-2.3583	-3.0417	-2.525	-2.4646	-2.8021	-2.1792	-3.0167	-2.8458	-2.125	-2.925	-2.5167	-2.7021	401.883	241.226	325.298	443.553	484.294	476.735	276.771	471.225	429.888	360.803	398.462	478.782	469.753	479.860	307.775	216.498	0.00032797	0.0004798	5.9339e-05	987.38	2.1378e-06	1.825e-06	1065	200.73	2.1042e-06	4.9029e-06	255.26	74.115	57.931	17.127	3.4529e-06	24.226	0.00018472	0.00017827	5.0254e-05	962.12	2.0343e-06	1.9147e-06	1051.6	199.49	1.9903e-06	2.0127e-06	253.57	74.109	57.562	17.384	2.0328e-06	24.593	168.186	207.744	227.500	156.744	258.337	327.775	156.803	165.006	251.537	375.028	164.120	170.430	170.953	179.006	276.507	177.553	-8191	255	
8107.108	1	1	0	0	0.22696	0.019237	0.19048	0.086634	0.288	0.22579	0.43444	0.13403	0.25097	0.17884	0.17578	0.13033	0.21225	0.11019	0.1524	0.19653	-2.6583	-2.3479	-2.8104	-2.6771	-2.2625	-3.1604	-2.7271	-2.5792	-2.9229	-2.2375	-2.8271	-2.9625	-2.3417	-2.7583	-2.6208	-2.5333	459.249	370.416	263.320	372.579	335.611	465.075	198.306	431.852	150.767	256.584	364.188	382.685	196.303	317.986	505.193	261.512	0.00031349	0.00064398	7.2544e-05	983.92	4.3283e-06	9.1967e-07	1063.2	200.69	2.7857e-06	4.228e-06	256.47	74.06	58.165	17.033	1.3081e-06	24.33	0.0001928	0.00018745	5.1356e-05	960.82	1.9956e-06	1.9979e-06	1049.6	199.35	1.9961e-06	2.0042e-06	253.73	74.112	57.548	17.376	2.0264e-06	24.585	165.871	197.751	321.969	157.162	393.667	247.746	157.030	164.706	259.948	270.459	164.917	170.506	170.797	178.935	352.038	178.277	-8191	255	
8107.180	1	1	0	0	0.096139	0.25534	0.19427	0.11674	0.10207	0.24879	0.22352	0.083011	0.15585	0.17497	0.13006	0.15213	0.096322	0.20245	0.049069	0.13176	-2.6063	-2.4167	-2.6625	-2.8792	-2.3063	-3	-2.8375	-2.3854	-3.0125	-2.2646	-2.5333	-2.9708	-2.2104	-2.925	-2.5896	-2.1917	447.426	432.033	344.127	174.472	416.179	426.478	473.987	471.442	265.584	232.044	424.047	386.294	152.593	498.804	433.140	399.407	0.00037159	0.00055917	0.00017287	987.23	1.7729e-06	7.1152e-07	1065.7	202.21	2.6207e-06	2.6649e-06	256.87	74.438	58.348	17.138	1.6244e-06	24.085	0.00019087	0.00018482	5.1018e-05	960.99	2e-06	1.9646e-06	1051	199.72	1.9967e-06	1.9667e-06	253.79	74.099	57.695	17.389	2.0185e-06	24.5	176.809	254.848	255.183	157.087	269.106	368.538	156.844	164.789	284.871	419.414	164.779	170.940	170.932	178.966	259.824	178.251	-8191	255	
8107.300	1	1	0	0	0.2895	0.14752	0.158	0.025138	0.14326	0.10282	0.21552	0.27829	0.11481	0.16168	0.15619	0.26109	0.062505	0.046404	0.11731	0.25603	-2.6229	-2.3521	-2.5896	-3.0042	-2.3937	-2.8021	-2.8479	-2.1042	-2.9813	-2.4188	-2.5271	-3	-2.2521	-2.9604	-2.8417	-2.1854	369.899	176.353	268.273	378.259	431.667	367.486	467.830	434.237	332.457	435.084	427.185	369.362	339.878	193.035	277.712	401.594	0.00034106	0.0001729	0.00018775	976.31	1.8168e-06	2.4613e-06	1067.7	200.61	3.5313e-06	3.5911e-06	255.58	74.693	58.046	17.202	3.498e-06	24.417	0.00018745	0.00017936	5.0579e-05	957.5	1.9926e-06	1.9491e-06	1052.2	199.32	1.9911e-06	2.0017e-06	253.56	74.336	57.445	17.364	2.0054e-06	24.515	173.080	203.965	245.693	156.951	289.324	316.995	157.013	164.506	295.284	334.744	164.586	170.495	171.137	178.781	221.240	178.327	-8191	255	
8107.397	1	1	0	0	0.37287	0.16873	0.31459	0.10182	0.18985	0.14321	0.1532	0.1589	0.17171	0.1236	0.165	0.23752	0.0049395	0.16824	0.12396	0.18703	-2.5625	-2.6937	-2.6375	-3.0812	-2.4646	-2.7375	-2.9562	-2.2396	-3.0021	-2.6125	-2.2021	-3.0146	-2.4021	-2.6208	-2.7083	-2.2667	413.404	433.153	281.565	450.443	230.824	224.229	403.788	206.808	491.413	336.999	469.467	187.465	491.464	216.644	496.582	438.895	0.00029456	0.00047785	9.2035e-05	982.8	1.3285e-06	2.7141e-06	1070.1	201.9	2.9688e-06	1.8247e-06	255.42	74.531	58.497	17.156	4.3304e-06	24.339	0.00019041	0.00018368	5.0818e-05	959.63	2.0134e-06	1.9952e-06	1051.3	199.42	2.0379e-06	2.0492e-06	253.34	74.294	57.64	17.347	2.0617e-06	24.58	170.676	240.268	178.732	156.876	321.183	305.173	156.571	164.284	314.932	269.646	164.312	170.781	170.905	178.825	231.974	177.830	-8191	255	
8107.493	1	1	0	0	0.10526	0.073178	0.16253	0.19112	0.17384	0.14018	0.15851	0.23267	0.18585	0.041749	0.13317	0.034042	0.24996	0.14355	0.16575	0.080216	-2.4625	-2.7771	-2.4938	-3.0312	-2.4	-2.6104	-2.975	-2.2313	-2.9417	-2.7042	-2.2417	-2.9896	-2.3688	-2.575	-2.8312	-2.3896	429.542	319.489	441.101	415.751	188.765	489.308	176.002	392.655	490.214	178.950	215.276	385.898	353.940	159.100	294.507	234.085	0.00037237	0.00024503	0.00020499	986.2	1.0099e-06	1.794e-06	1064.7	202.24	1.4577e-06	5.6267e-06	254.62	74.46	58.049	17.155	2.8016e-06	24.219	0.00019263	0.00018653	5.3209e-05	959.63	2.055e-06	2.0365e-06	1049	199.65	2.0814e-06	2.0701e-06	252.94	74.185	57.536	17.372	2.0697e-06	24.484	169.774	219.629	249.707	157.190	327.085	176.046	157.069	164.671	404.366	291.066	164.338	170.462	170.335	179.001	239.425	178.251	-8191	255	
8107.613	1	1	0	0	0.11858	0.29374	0.07867	0.12765	0.18094	0.070918	0.33208	0.10489	0.22448	0.090688	0.16006	0.1949	0.19757	0.297	0.15003	0.099332	-2.6937	-2.7354	-2.2313	-3.1208	-2.4792	-2.3792	-3.1146	-2.2687	-2.95	-2.7625	-2.1312	-2.9708	-2.5854	-2.45	-2.925	-2.1104	219.943	385.146	220.721	500.205	479.656	190.404	431.550	389.675	271.506	264.282	426.113	365.840	390.182	444.310	218.949	176.539	0.00036347	0.00015692	7.924e-05	982.69	1.8395e-06	4.0924e-06	1067.8	201.99	2.5225e-06	1.4751e-06	254.1	74.248	58.339	17.08	3.02e-06	24.151	0.00019497	0.00018649	5.2602e-05	962.9	2.0656e-06	2.0929e-06	1052	199.37	2.1179e-06	2.1501e-06	253.07	74.122	57.616	17.33	2.1245e-06	24.495	176.060	231.233	249.297	157.204	345.181	280.095	156.966	165.058	337.788	367.921	164.253	170.274	170.692	179.009	390.715	178.196	-8191	255	
8107.709	1	1	0	0	0.069783	0.083305	0.15355	0.15261	0.33935	0.14527	0.031179	0.19212	0.27615	0.21338	0.123	0.026614	0.45958	0.24424	0.10216	0.25411	-2.2979	-2.9792	-2.3	-3.025	-2.525	-2.4542	-3.2292	-2.35	-2.5083	-2.8396	-2.2292	-3.1125	-2.7062	-2.2667	-3.0792	-2.4833	359.123	479.012	241.245	156.868	384.895	427.468	379.390	350.799	402.973	286.613	414.129	503.703	154.086	384.129	496.511	429.503	0.00031668	0.00021465	4.5092e-05	978.71	2.8867e-06	1.7843e-06	1064.1	200.6	2.1271e-06	4.361e-06	253.94	74.154	57.753	17.267	3.2745e-06	24.057	0.00020253	0.00020053	5.6264e-05	960.6	2.2419e-06	2.1637e-06	1051.7	198.94	2.2357e-06	2.1911e-06	253.25	74.099	57.464	17.46	2.1672e-06	24.483	178.031	345.669	198.835	157.138	239.761	224.007	157.138	164.636	299.146	317.454	164.498	170.552	170.476	178.754	348.361	177.949	-8191	255	
8107.804	1	1	0	0	0.16358	0.20009	0.12318	0.33811	0.17861	0.33074	0.23378	0.24181	0.39173	0.12755	0.18906	0.19853	0.14984	0.15921	0.133	0.14498	-2.2792	-3.0229	-2.1479	-2.8896	-2.7208	-2.2229	-3.0625	-2.5042	-2.4646	-2.8542	-2.1729	-2.8167	-2.6333	-2.3354	-2.9562	-2.4958	198.303	323.463	387.871	152.488	236.187	288.053	383.698	474.697	236.834	340.610	470.471	411.400	295.179	229.727	315.414	499.182	0.00027203	0.00029075	9.9638e-05	977.95	1.3063e-06	2.0045e-06	1061.1	200.05	3.7435e-06	1.5869e-06	255.05	73.539	57.225	17.08	1.218e-06	24.03	0.00020922	0.00019884	5.629e-05	960.47	2.2334e-06	2.1838e-06	1050	199.26	2.2053e-06	2.1572e-06	253.16	73.996	57.366	17.357	2.16e-06	24.479	157.006	218.019	242.738	157.098	293.460	163.636	156.997	165.078	285.034	342.320	164.515	170.846	170.844	179.005	225.646	178.344	-8191	255	
8107.902	1	1	0	0	0.20632	0.13367	0.13029	0.10244	0.19777	0.26095	0.068131	0.22007	0.068652	0.087066	0.1883	0.33737	0.21428	0.18009	0.23638	0.043298	-2.1333	-3.2583	-2.3625	-2.7938	-2.55	-2.2146	-2.9813	-2.5417	-2.3042	-2.9792	-2.3292	-2.7687	-2.8063	-2.1958	-2.7875	-2.6729	155.803	417.925	282.613	398.789	470.365	370.423	486.081	459.601	350.241	308.781	477.370	374.843	350.546	378.338	282.023	320.766	0.00041733	0.00020778	9.3977e-05	987.02	4.8179e-06	2.0619e-06	1064.4	199.54	2.9786e-06	3.6926e-06	254.32	74.148	58.072	17.064	2.1971e-06	24.183	0.00020533	0.00019206	5.4199e-05	962.1	2.1065e-06	2.112e-06	1051.5	198.7	2.1055e-06	2.0963e-06	253.12	74.132	57.461	17.353	2.0579e-06	24.554	171.146	272.985	262.549	156.973	295.105	309.974	157.040	164.479	238.950	240.248	164.295	170.556	170.937	178.484	265.559	177.331	-8191	255	
8107.996	1	1	0	0	0.19977	0.12553	0.30435	0.069723	0.19927	0.17014	0.24825	0.21596	0.20912	0.026619	0.15482	0.13397	0.12816	0.23867	0.11589	0.16581	-2.0312	-3.0312	-2.325	-2.5417	-2.8854	-2.2875	-3.0375	-2.7021	-2.1729	-3.0167	-2.4458	-2.5687	-2.975	-2.2146	-2.9583	-2.9562	312.487	381.032	353.507	204.874	324.256	444.443	390.071	407.272	451.495	188.292	407.957	419.866	475.130	455.398	489.302	498.142	0.00037123	0.00023426	6.3643e-05	987.36	2.9687e-06	1.4369e-06	1066.2	201.39	2.1582e-06	2.037e-06	256.04	74.058	58.254	17.122	2.2159e-06	24.121	0.00019582	0.00018929	5.2595e-05	962.28	2.0626e-06	2.095e-06	1051.4	199.56	2.1674e-06	2.0877e-06	253.74	73.904	57.685	17.353	2.1027e-06	24.453	166.888	289.991	230.851	157.358	267.456	257.346	157.045	164.755	285.973	304.287	163.781	171.006	171.119	179.008	272.943	177.610	-8191	255	
8108.092	1	1	0	0	0.24609	0.21054	0.34997	0.1505	0.2705	0.22657	0.148	0.21685	0.13738	0.10977	0.094729	0.28579	0.10053	0.18278	0.14016	0.12627	-1.9521	-2.9396	-2.4437	-2.6542	-2.8375	-2.3854	-3.0458	-2.9	-2.3167	-3.0896	-2.475	-2.5667	-3.1188	-2.1854	-2.8083	-2.8729	177.540	471.347	487.319	153.616	333.576	280.528	388.995	394.604	490.146	256.620	439.537	475.976	230.589	251.968	356.869	412.948	0.00039225	0.00025419	0.0001557	981.96	1.7707e-06	2.9656e-06	1069.1	201.62	3.265e-06	3.8931e-06	257.2	74.418	58.083	17.276	1.9163e-06	24.053	0.00020291	0.00019374	5.4083e-05	963.35	2.159e-06	2.113e-06	1052.8	199.43	2.1651e-06	2.1496e-06	254.19	74.109	57.595	17.363	2.1232e-06	24.458	167.356	226.901	189.135	157.031	454.209	373.569	157.132	164.538	293.982	254.148	164.308	170.760	170.897	178.865	248.625	177.836	-8191	255	
8108.188	1	1	0	0	0.19509	0.19837	0.075016	0.048466	0.03591	0.2089	0.15524	0.15066	0.1908	0.088562	0.095727	0.095232	0.15975	0.11294	0.11126	0.29806	-1.9813	-2.9542	-2.5563	-2.3229	-3.0083	-2.3625	-2.9688	-2.8875	-2.1562	-2.9083	-2.7625	-2.2083	-2.9292	-2.3104	-2.7938	-3	416.374	380.957	347.050	173.909	302.468	257.725	456.536	212.461	247.262	218.722	294.056	480.962	379.619	491.762	396.229	383.252	0.00030483	0.00031787	7.8586e-05	988.24	2.896e-06	2.7806e-06	1072.4	202.14	1.4752e-06	7.4919e-06	254.68	74.069	58.75	17.159	3.9717e-06	24.168	0.00019983	0.00019773	5.477e-05	963.9	2.151e-06	2.0976e-06	1054.3	200.09	2.1634e-06	2.1392e-06	253.59	74.087	57.868	17.343	2.1179e-06	24.488	169.151	321.721	269.402	156.994	261.328	442.968	156.960	164.456	241.187	294.156	164.381	170.825	170.661	178.581	269.675	178.280	-8191	255	
8108.285	1	1	0	0	0.21289	0.18347	0.17156	0.34711	0.0749	0.27247	0.18467	0.27141	0.22859	0.23118	0.36138	0.17146	0.15468	0.087005	0.30213	0.089881	-1.7083	-2.7854	-2.5729	-2.2396	-2.7875	-2.4229	-2.7417	-2.9479	-2.2271	-2.7771	-2.675	-2.2146	-2.9938	-2.3917	-2.3625	-3.0521	201.901	179.126	471.587	154.792	360.170	224.422	487.824	468.930	449.515	195.851	434.222	441.717	397.837	247.246	421.035	459.077	0.00033178	0.00020963	9.5712e-05	985.37	2.3231e-06	3.6208e-06	1074.1	202.54	4.1079e-06	2.0573e-06	256.38	74.803	57.624	17.308	2.4251e-06	24.198	0.000198	0.00019064	5.3691e-05	961.09	2.0745e-06	2.0594e-06	1053	199.34	2.0752e-06	2.0517e-06	253.05	74.067	57.524	17.366	1.9994e-06	24.457	162.191	232.274	232.463	156.728	228.110	363.109	156.765	164.380	263.089	215.298	164.309	170.960	170.787	178.876	264.867	177.894	-8191	255	
8108.405	1	1	0	0	0.17654	0.16512	0.15176	0.38235	0.20586	0.22513	0.29785	0.099367	0.037634	0.1257	0.087098	0.11456	0.05357	0.13875	0.21756	0.18425	-1.8271	-2.7083	-2.7021	-2.2562	-2.9854	-2.5604	-2.4562	-3.0604	-2.175	-2.5979	-2.8688	-2.1	-2.8333	-2.4146	-2.3396	-3.1479	233.830	299.922	386.413	443.871	228.971	483.943	470.958	184.487	220.788	265.286	437.476	151.057	222.640	342.348	499.773	249.178	0.00037235	0.00028086	3.9881e-05	987.64	1.1801e-06	1.7508e-06	1069	200.55	7.5411e-07	2.4516e-06	256.35	74.325	57.646	17.11	7.6455e-07	24.274	0.00018789	0.00017819	4.9093e-05	958.97	1.9972e-06	1.8799e-06	1049.9	198.61	1.9189e-06	1.8875e-06	252.67	73.982	57.214	17.238	1.8847e-06	24.411	176.745	253.393	328.124	156.758	222.974	327.207	157.007	164.447	323.194	342.676	164.523	170.858	170.293	178.360	227.541	177.965	-8191	255	
8108.477	1	1	0	0	0.10904	0.17102	0.099657	0.20188	0.079118	0.37845	0.24195	0.24835	0.062175	0.072336	0.24126	0.22821	0.15717	0.10239	0.2085	0.34275	-1.7812	-2.8396	-2.9542	-2.2021	-2.8417	-2.6437	-2.5083	-2.9938	-2.2917	-2.5271	-3.0563	-2.1104	-2.8104	-2.7771	-2.3708	-3.1625	366.764	203.766	387.292	285.152	425.352	412.068	459.563	487.762	400.320	176.531	417.187	478.940	468.259	495.355	302.012	440.892	0.00031941	0.00035242	9.0818e-05	979.45	1.8902e-06	1.4525e-06	1064.9	201.24	2.8344e-06	1.1019e-06	254.73	74.142	57.855	17.052	2.4999e-06	24.266	0.00017874	0.0001672	4.6943e-05	955.39	1.8888e-06	1.8556e-06	1045.5	198.99	1.9062e-06	1.9375e-06	252.19	73.654	57.241	17.236	1.9526e-06	24.376	160.066	201.095	175.844	157.068	266.104	314.121	157.046	164.782	292.156	187.428	164.418	170.538	170.760	178.300	267.378	177.847	-8191	255	
8108.573	1	1	0	0	0.12968	0.1236	0.15624	0.12688	0.13769	0.2247	0.15893	0.15461	0.17282	0.088532	0.23399	0.11516	0.29486	0.1769	0.037812	0.08047	-1.9583	-2.7396	-3.1146	-2.3542	-2.7062	-2.8833	-2.4062	-3.0167	-2.4062	-2.3958	-2.9521	-2.2896	-2.8083	-2.8958	-2.2521	-3.1479	476.664	366.573	195.486	175.415	146.519	351.723	361.390	369.307	219.114	372.765	149.434	214.081	501.623	420.757	377.594	230.612	0.00031555	0.00020337	2.4542e-05	988.98	2.1291e-06	2.0156e-06	1079.4	203.9	9.5895e-07	3.5952e-06	257.89	75.037	58.455	17.241	3.1724e-06	24.636	0.00018496	0.00017728	4.8769e-05	956.57	1.9943e-06	1.9259e-06	1048.8	199.32	1.9902e-06	1.9897e-06	252.7	74.006	57.528	17.265	1.9331e-06	24.557	171.574	250.275	406.472	156.699	247.803	350.696	156.653	164.085	330.126	351.990	164.152	170.517	170.087	178.327	316.196	177.447	-8191	255	
8108.694	1	1	0	0	0.2993	0.058667	0.14155	0.16646	0.19194	0.084454	0.063096	0.32662	0.16137	0.073709	0.2486	0.18729	0.43066	0.14099	0.19879	0.19865	-2.0479	-2.4479	-2.9104	-2.2313	-2.6437	-2.7333	-2.3458	-3.0167	-2.4833	-2.3958	-3.1688	-2.3042	-2.6917	-2.7604	-2.2938	-2.825	408.869	437.873	489.128	151.141	160.694	323.930	320.116	450.758	152.784	273.106	150.377	356.436	185.983	497.368	485.862	407.733	0.00035856	0.00038838	9.305e-05	991.49	2.3112e-06	1.5979e-06	1073.5	204.32	1.968e-06	6.981e-06	258.75	74.605	58.295	17.243	4.2032e-06	24.737	0.00018853	0.00017872	4.9965e-05	955.53	1.966e-06	1.9221e-06	1046.4	199.64	1.9232e-06	1.9693e-06	252.69	73.889	57.409	17.266	1.9035e-06	24.545	177.175	251.752	263.722	156.707	233.794	330.580	156.312	163.983	235.368	291.387	163.954	170.058	170.214	177.680	266.825	177.227	-8191	255	
8108.790	1	1	0	0	0.12569	0.19066	0.18054	0.035475	0.10073	0.056105	0.49303	0.057598	0.092572	0.05391	0.1663	0.066967	0.25748	0.016287	0.093041	0.13661	-2.1021	-2.2521	-2.9417	-2.3771	-2.6625	-3.0417	-2.3542	-3.0646	-2.8708	-2.2542	-3.2	-2.5521	-2.4729	-3.1146	-2.1396	-2.7771	384.000	376.442	497.221	412.364	426.881	495.089	443.459	210.297	295.823	288.157	305.424	353.079	292.356	306.538	435.463	222.619	0.00034482	0.00014024	8.8805e-05	991.85	1.4262e-06	4.2132e-06	1084.9	204.91	4.3157e-06	3.2158e-06	257.94	75.266	58.731	17.201	5.0568e-06	24.308	0.00018491	0.00017849	4.9736e-05	958.15	1.9547e-06	1.9344e-06	1048.1	199.64	1.9221e-06	1.9707e-06	252.92	73.94	57.474	17.323	1.9663e-06	24.465	170.736	275.162	243.853	156.267	342.461	290.527	156.502	164.219	309.690	298.244	164.058	170.222	170.532	178.204	263.937	177.669	-8191	255	
8108.884	1	1	0	0	0.28288	0.33979	0.12574	0.093451	0.04032	0.017265	0.24349	0.096843	0.25444	0.066336	0.14588	0.053866	0.11038	0.057304	0.20858	0.20396	-2.3563	-2.2917	-3.0146	-2.5646	-2.5812	-3.0312	-2.5938	-2.8521	-2.6708	-2.2875	-3.0938	-2.8187	-2.3958	-3.0854	-2.3583	-2.6792	472.263	320.022	438.392	235.396	287.763	407.475	471.904	368.710	389.741	282.404	233.870	371.551	461.074	230.589	238.933	329.080	0.00036321	0.00023921	7.8918e-05	990.6	4.4077e-06	3.8996e-06	1078.7	204.73	1.4903e-06	1.9122e-06	258.93	75.249	58.634	17.41	2.003e-06	24.501	0.00018484	0.00017751	4.8784e-05	955.32	1.9728e-06	1.906e-06	1048.8	199.26	1.9598e-06	1.9954e-06	253.39	73.933	57.56	17.357	1.9835e-06	24.484	179.585	238.967	205.348	156.245	293.912	259.251	156.464	163.982	340.363	311.302	163.966	170.139	170.568	178.322	273.153	177.668	-8191	255	
8108.982	1	1	0	0	0.13814	0.096582	0.074536	0.18134	0.24593	0.17423	0.35503	0.21018	0.18736	0.30489	0.14719	0.12369	0.18336	0.13369	0.13981	0.14591	-2.2854	-2.225	-2.8646	-2.4458	-2.45	-3.1188	-2.5292	-2.6188	-2.8625	-2.2687	-3.0604	-2.5938	-2.3	-3.1125	-2.2646	-2.6792	351.202	321.510	393.099	458.629	373.606	437.173	438.452	188.345	433.950	357.387	189.997	398.975	472.508	481.514	269.041	348.536	0.00036204	0.00055752	7.7093e-05	990.09	4.4353e-06	4.2048e-06	1072.8	203.28	3.1645e-06	4.4432e-06	259.26	75.159	58.806	17.447	3.8253e-06	24.256	0.00018797	0.00018214	4.9878e-05	956.45	1.9965e-06	1.9545e-06	1047.7	199.5	1.9858e-06	1.9546e-06	253.41	74.008	57.604	17.354	2.0277e-06	24.439	168.605	231.088	154.040	156.864	229.836	202.224	156.490	164.744	300.749	274.025	163.996	170.154	171.113	178.616	274.567	178.211	-8191	255	
8109.077	1	1	0	0	0.12195	0.20251	0.16125	0.15557	0.17995	0.29304	0.20598	0.17647	0.23845	0.12099	0.15945	0.11396	0.19973	0.099158	0.1306	0.11581	-2.4375	-2.3708	-2.7708	-2.7646	-2.1813	-2.9708	-2.4854	-2.4188	-2.8333	-2.2917	-2.8146	-2.8396	-2.0687	-2.9979	-2.6208	-2.425	181.475	150.506	318.457	242.101	219.532	311.322	495.190	439.575	329.387	206.157	469.775	225.641	240.550	416.462	154.083	343.536	0.00034116	0.00013296	8.2473e-05	992.48	1.4139e-06	4.9797e-06	1070.7	204.06	2.2404e-06	2.7534e-06	258.92	74.604	58.514	17.139	3.2895e-06	24.294	0.00019132	0.00018809	5.1112e-05	956.85	2.0717e-06	2.0052e-06	1045.8	199.19	2.1234e-06	2.1129e-06	253.07	73.714	57.626	17.293	2.1726e-06	24.409	172.912	274.633	260.257	156.839	159.376	341.767	156.704	164.411	325.998	321.348	164.147	170.486	170.538	178.635	318.416	178.122	-8191	255	
8109.173	1	1	0	0	0.18182	0.13103	0.087665	0.091971	0.22156	0.136	0.24933	0.095706	0.27354	0.22911	0.1857	0.24148	0.42211	0.16195	0.16787	0.10353	-2.7167	-2.4521	-2.8063	-2.8979	-2.3104	-3.1042	-2.8146	-2.2979	-2.9854	-2.2479	-2.7687	-3.0167	-2.125	-2.8979	-2.4562	-2.3896	271.866	464.437	399.539	171.266	200.632	373.838	337.509	192.315	191.165	244.783	374.793	481.057	174.988	328.834	428.025	241.884	0.00027374	0.00051056	0.00018264	985.41	1.8489e-06	2.6979e-06	1077.4	202.8	2.107e-06	2.7101e-06	258.51	75.476	58.454	17.403	1.5993e-06	24.537	0.0002022	0.00019568	5.4962e-05	955.69	2.1951e-06	2.1438e-06	1048.2	199.33	2.1761e-06	2.1696e-06	253.25	74.134	57.589	17.391	2.2675e-06	24.584	168.995	251.744	238.303	156.534	323.258	297.120	156.644	164.289	259.901	341.413	164.310	170.017	170.540	178.559	167.614	177.429	-8191	255	
8109.293	1	1	0	0	0.11846	0.12616	0.071942	0.17645	0.18846	0.13454	0.18808	0.20812	0.055854	0.09993	0.1992	0.094391	0.096405	0.20404	0.054099	0.050958	-2.6646	-2.3396	-2.6021	-2.9313	-2.2271	-3.025	-2.8167	-2.35	-3.0604	-2.2208	-2.5938	-2.9104	-2.0438	-2.8917	-2.6729	-2.3979	310.220	443.650	225.305	224.045	152.738	168.251	460.994	488.536	171.043	392.406	157.578	360.462	276.936	463.142	183.463	232.875	0.00032691	0.00046044	0.0002023	989.69	1.9044e-06	1.4212e-06	1074.6	203.81	3.2516e-06	4.7347e-06	257.34	74.893	58.566	17.35	5.5416e-07	24.522	0.00020821	0.00020847	5.5531e-05	957.39	2.2415e-06	2.2302e-06	1048.7	199.44	2.2268e-06	2.2651e-06	252.88	74.029	57.844	17.408	2.2171e-06	24.575	170.594	219.962	297.416	156.301	269.060	315.696	156.722	164.437	313.193	318.285	164.378	170.376	170.823	178.103	194.929	177.685	-8191	255	
8109.389	1	1	0	0	0.094163	0.097315	0.014626	0.021167	0.23911	0.15983	0.54375	0.25113	0.24873	0.15417	0.32803	0.071031	0.25017	0.30015	0.12362	0.065946	-2.6917	-2.3729	-2.3792	-3.0687	-2.1562	-2.9083	-2.8396	-2.2625	-3.0146	-2.5042	-2.3333	-3.1625	-2.3396	-2.6875	-2.8771	-2.2479	430.300	389.298	378.490	224.723	443.458	481.071	458.309	455.564	494.087	409.006	198.635	321.998	175.061	460.905	161.229	423.674	0.00032924	0.0001559	3.4675e-05	996.93	4.927e-06	2.86e-06	1077.5	203.75	1.3604e-06	1.9111e-06	258.89	74.914	58.356	17.2	3.5258e-06	24.052	0.00020908	0.00020408	5.5943e-05	959.45	2.2742e-06	2.2002e-06	1048.4	199.82	2.2246e-06	2.2326e-06	253.91	74.145	57.609	17.353	2.2413e-06	24.456	169.139	203.804	330.746	156.871	298.850	257.175	156.575	164.513	313.532	317.647	164.469	170.075	170.382	178.333	279.013	177.944	-8191	255	
8109.486	1	1	0	0	0.16262	0.20922	0.052329	0.37462	0.13051	0.21766	0.20789	0.16739	0.38092	0.19862	0.098467	0.20842	0.056099	0.22322	0.31325	0.081491	-2.7229	-2.5417	-2.3417	-3.1292	-2.275	-2.7479	-2.9646	-2.2604	-2.7625	-2.6083	-2.3604	-2.9813	-2.3	-2.6958	-2.8396	-2.2687	417.176	353.278	203.768	462.715	312.766	165.182	158.722	464.474	151.455	411.890	497.223	358.425	266.026	388.013	379.174	167.866	0.00028649	0.0004014	2.1913e-05	989.95	1.5161e-06	2.7154e-06	1075.6	204.12	4.2881e-06	1.0388e-06	260.72	75.525	58.493	17.455	2.7362e-06	24.646	0.00020437	0.00019949	5.6945e-05	958.3	2.199e-06	2.1581e-06	1048.7	199.68	2.1593e-06	2.1072e-06	253.88	74.373	57.503	17.443	2.1566e-06	24.554	180.912	264.144	217.602	156.913	280.575	255.874	156.695	164.386	268.396	304.782	163.854	170.462	170.640	178.479	272.700	177.604	-8191	255	
8109.582	1	1	0	0	0.26176	0.094259	0.069625	0.087372	0.015716	0.14102	0.15669	0.24217	0.11417	0.20513	0.10031	0.184	0.24452	0.090858	0.21721	0.1681	-2.6146	-2.6917	-2.1083	-3.1	-2.2896	-2.4542	-2.9813	-2.3854	-2.7833	-2.825	-2.1333	-3.0771	-2.4271	-2.3063	-2.9417	-2.275	447.509	220.335	488.742	153.885	274.303	477.299	412.535	383.403	345.056	230.805	413.328	456.257	181.088	330.371	172.500	435.296	0.00035145	0.00051326	8.1771e-05	991.57	2.252e-06	6.4159e-06	1071.6	203.52	2.3895e-06	1.3786e-06	258.46	74.677	58.244	17.394	2.52e-06	24.28	0.00019874	0.0001917	5.4157e-05	957.92	2.0759e-06	2.0378e-06	1047.8	199.4	2.0982e-06	2.0829e-06	253.7	73.96	57.381	17.332	2.1162e-06	24.4	168.437	220.794	199.202	157.077	253.230	291.490	156.455	164.503	249.508	245.585	164.078	170.366	170.745	177.987	259.657	177.701	-8191	255	
8109.702	1	1	0	0	0.17091	0.14519	0.11066	0.17016	0.24791	0.30203	0.21723	0.15712	0.32194	0.38093	0.19203	0.33857	0.069718	0.32264	0.20047	0.11583	-2.1979	-2.7667	-2.2854	-2.9646	-2.2896	-2.4021	-3.1354	-2.2896	-2.6604	-2.8104	-2.2625	-3.0125	-2.6271	-2.3583	-3.0167	-2.5563	163.103	327.932	152.112	472.009	424.507	238.212	333.209	415.525	210.994	396.809	401.676	449.800	160.458	239.088	223.187	346.448	0.00035817	0.00026581	0.00015714	987.31	4.2393e-06	3.7527e-06	1079	202.5	2.236e-06	5.0911e-06	255.56	74.082	57.635	17.2	2.6264e-06	24.165	0.00020014	0.00019422	5.4437e-05	958.2	2.1403e-06	2.1795e-06	1050.1	199.12	2.1184e-06	2.1092e-06	253.05	73.895	57.217	17.314	2.1397e-06	24.449	171.322	313.227	191.601	156.718	198.195	359.115	156.787	164.676	281.872	247.108	164.624	170.663	170.878	178.430	257.340	178.658	-8191	255	
8109.774	1	1	0	0	0.16694	0.082229	0.14259	0.10965	0.088574	0.26196	0.10693	0.12896	0.30709	0.27784	0.31957	0.18138	0.10332	0.095471	0.11918	0.16488	-2.2875	-2.9688	-2.1771	-3.0229	-2.6625	-2.3937	-3.2812	-2.5042	-2.5417	-2.8646	-2.3604	-2.9333	-2.5792	-2.3542	-2.9708	-2.5458	159.219	279.563	344.836	337.706	287.037	309.589	325.753	352.153	189.538	200.297	405.932	305.293	394.493	210.430	266.877	148.222	0.00030233	0.00025589	8.2773e-05	986.97	1.8384e-06	4.1242e-06	1072.2	201.35	3.1238e-06	2.1989e-06	256.02	74.287	58.558	17.202	3.025e-06	24.325	0.00019843	0.00019094	5.4652e-05	957.78	2.1574e-06	2.1072e-06	1048.4	199.07	2.0956e-06	2.1148e-06	252.71	74.034	57.594	17.312	2.1252e-06	24.404	174.106	346.414	233.283	156.962	191.002	398.138	156.647	164.578	257.711	293.021	164.341	170.703	170.613	178.749	280.328	177.867	-8191	255	
8109.870	1	1	0	0	0.15457	0.13962	0.16996	0.28996	0.29437	0.11348	0.12621	0.25301	0.32158	0.26569	0.28029	0.10042	0.17602	0.15204	0.12104	0.20386	-1.9354	-3.0521	-2.0979	-2.8937	-2.8063	-2.3	-3.1875	-2.5938	-2.4104	-2.9833	-2.3396	-2.8417	-2.75	-2.2687	-2.9292	-2.5333	420.905	340.105	300.150	488.907	379.494	448.811	269.192	209.793	183.997	210.239	332.601	464.640	160.219	188.764	499.752	284.647	0.00029055	0.00043764	8.0455e-05	981.64	9.0209e-07	2.9086e-06	1071.3	202.84	3.7929e-06	1.643e-06	259.21	74.341	58.389	17.341	3.024e-06	24.43	0.00020271	0.00019533	5.5472e-05	956.33	2.1489e-06	2.1269e-06	1047	199.21	2.1336e-06	2.1228e-06	253.1	73.798	57.524	17.379	2.125e-06	24.406	165.462	285.244	242.963	156.983	287.727	285.888	156.774	164.434	273.721	284.115	164.176	170.687	171.111	178.424	267.379	177.604	-8191	255	
8109.965	1	1	0	0	0.28495	0.46255	0.21334	0.009763	0.1392	0.16348	0.1283	0.08794	0.20227	0.29727	0.13153	0.17222	0.27011	0.24755	0.10279	0.17433	-1.8271	-2.9479	-2.2479	-2.7479	-2.7167	-2.1833	-3.1771	-2.5771	-2.4375	-3.1646	-2.4354	-2.5	-2.8333	-2.2896	-2.8375	-2.5333	193.552	233.207	275.174	178.687	493.822	165.456	457.769	269.158	221.050	337.151	383.736	372.311	276.131	208.634	253.266	309.605	0.00037161	0.00024958	8.9457e-05	992.19	1.05e-06	5.3903e-06	1076.6	202.45	3.6859e-06	5.1799e-06	258.56	74.882	58.324	17.361	5.8188e-07	24.345	0.00019786	0.00019116	5.403e-05	957.89	2.1492e-06	2.151e-06	1048.3	198.82	2.122e-06	2.1181e-06	253.07	74.027	57.492	17.395	2.1501e-06	24.435	170.595	345.229	203.658	155.933	344.890	218.660	156.200	164.248	279.005	350.118	163.713	170.173	170.087	178.087	501.275	177.186	-8191	255	
8110.085	1	1	0	0	0.062742	0.08386	0.22144	0.19983	0.076926	0.10097	0.16202	0.16069	0.16587	0.21559	0.21165	0.10009	0.23635	0.12643	0.12728	0.22727	-1.85	-3.0354	-2.4292	-2.6	-2.8688	-2.1354	-3.0542	-2.6104	-2.1979	-2.9833	-2.3708	-2.4146	-2.9458	-2.0854	-2.7938	-2.7438	181.966	199.925	271.818	161.862	488.939	300.185	460.440	246.225	372.779	316.428	472.051	360.884	322.820	474.507	390.053	197.065	0.00030718	0.00039908	0.00014802	991.46	1.9166e-06	1.953e-06	1074.4	202.92	2.4502e-06	3.8264e-06	256.97	75.373	58.966	17.309	3.3904e-06	24.515	0.00020459	0.00019903	5.5496e-05	957.13	2.1884e-06	2.1942e-06	1048.1	199.15	2.1913e-06	2.1129e-06	253.25	74.33	57.681	17.326	2.1077e-06	24.45	161.771	218.011	223.411	156.465	330.092	179.901	156.300	163.826	236.639	223.469	164.051	170.193	170.557	178.143	251.434	177.358	-8191	255	
8110.181	1	1	0	0	0.071627	0.1228	0.12121	0.080413	0.082242	0.1726	0.099349	0.060242	0.16076	0.11655	0.17389	0.1977	0.17688	0.16643	0.092362	0.2003	-1.7396	-2.8937	-2.5375	-2.5062	-3.0354	-2.1979	-2.8146	-2.8375	-2.1625	-3.0042	-2.4354	-2.4979	-2.9104	-2.075	-2.6729	-2.8875	253.221	327.971	220.719	480.799	198.065	485.386	189.389	506.268	224.486	463.545	459.348	469.713	247.420	211.590	357.161	447.059	0.00029635	0.0003256	5.3931e-05	996.87	1.6255e-06	3.8977e-06	1072	203.01	2.1005e-06	3.3778e-06	256.86	74.184	58.082	17.275	1.7264e-06	24.406	0.00020081	0.00019365	5.2828e-05	959.36	2.103e-06	2.0512e-06	1048.1	199.07	2.1053e-06	2.0561e-06	252.65	73.823	57.482	17.33	2.0669e-06	24.469	165.474	264.023	352.868	156.861	318.855	303.531	156.492	164.555	354.781	328.997	164.180	170.731	170.580	178.572	293.571	177.790	-8191	255	
8110.278	1	1	0	0	0.23346	0.31846	0.10253	0.051532	0.24084	0.17135	0.13189	0.10755	0.11731	0.22105	0.14144	0.17147	0.18876	0.26317	0.067798	0.056032	-1.6	-2.8896	-2.4417	-2.1646	-2.9021	-2.2979	-2.5771	-3.0771	-2.2146	-2.9729	-2.5479	-2.2208	-3.2271	-2.4896	-2.5438	-3.0292	378.396	356.178	406.076	273.900	285.561	469.339	501.277	387.522	291.889	172.172	263.132	462.786	295.354	449.519	401.004	294.582	0.00032598	0.00028098	8.1868e-05	989.9	2.2875e-06	5.4749e-06	1072.7	202.86	4.7605e-06	4.2727e-06	259.89	74.933	59.176	17.396	2.4596e-06	24.353	0.00019983	0.00018856	5.3222e-05	956.94	2.1015e-06	2.0628e-06	1047.8	199.28	2.0396e-06	2.0566e-06	253.14	74.04	57.631	17.341	2.0783e-06	24.392	164.584	190.101	245.405	156.925	422.111	332.952	157.051	164.673	304.363	315.396	163.922	170.389	170.189	178.068	294.996	177.163	-8191	255	
8110.374	1	1	0	0	0.19534	0.27288	0.077109	0.26393	0.050401	0.25627	0.094172	0.32283	0.081526	0.096463	0.11723	0.14041	0.1867	0.11219	0.1272	0.31079	-1.9146	-2.8375	-2.6937	-2.4604	-2.85	-2.3375	-2.5458	-3.125	-2.1896	-2.6437	-2.7958	-2.3896	-2.9354	-2.4813	-2.5687	-3.15	396.922	500.473	270.562	444.610	322.265	247.222	282.125	447.587	497.051	148.451	406.771	183.523	177.846	323.052	307.689	474.461	0.00034387	0.00031324	6.4665e-05	987.77	4.1119e-06	4.2041e-06	1077.4	203.47	3.727e-06	5.4096e-07	257.3	75.806	58.285	17.392	3.4792e-06	24.486	0.00019649	0.00018443	5.2096e-05	955	2.0978e-06	2.0279e-06	1046.2	199.33	2.0712e-06	2.0493e-06	252.91	74.02	57.359	17.364	2.0219e-06	24.487	165.668	255.817	268.580	156.499	422.393	249.463	156.511	164.172	274.705	169.434	163.962	170.750	170.349	177.732	314.199	177.698	-8191	255	
8110.470	1	1	0	0	0.080907	0.1036	0.059512	0.39927	0.11509	0.080385	0.25652	0.15041	0.37715	0.13935	0.39498	0.21828	0.12062	0.31727	0.17442	0.025205	-2	-2.7438	-2.6979	-2.3625	-2.8854	-2.6729	-2.3688	-3.1646	-2.3104	-2.7062	-3.0167	-2.25	-2.9062	-2.5312	-2.2979	-2.9729	498.531	406.192	242.747	432.689	354.850	329.283	437.415	437.485	242.681	448.183	455.924	390.038	150.465	181.356	241.585	259.430	0.00036831	0.00013252	6.8365e-05	983.7	1.7782e-06	3.4389e-06	1071.9	203.32	3.2397e-06	3.3974e-06	258.2	75.162	59.035	17.375	4.4546e-06	24.375	0.00019289	0.00018331	5.0506e-05	952.8	2.0051e-06	1.985e-06	1046.6	198.94	2.0074e-06	2.0027e-06	253.27	74.017	57.457	17.361	2.0182e-06	24.381	166.911	175.640	183.279	156.947	267.604	233.372	156.648	164.175	260.899	303.783	163.793	170.341	170.697	178.344	233.819	177.530	-8191	255	
8110.566	1	1	0	0	0.15119	0.06526	0.33209	0.11958	0.175	0.26423	0.20869	0.33039	0.24965	0.089636	0.38257	0.34387	0.10508	0.26139	0.08921	0.097609	-1.8167	-2.5125	-2.9	-2.2188	-2.8812	-2.7062	-2.3125	-3.05	-2.2271	-2.5896	-3.0875	-2.2938	-2.7854	-2.7687	-2.1792	-2.9917	171.619	402.669	353.008	173.816	489.313	197.389	417.397	470.083	269.182	399.013	476.435	395.834	364.404	175.964	308.534	192.551	0.00029773	0.00042535	6.9428e-05	993.54	4.1267e-06	1.8378e-06	1071.7	202.91	2.1328e-06	5.2342e-06	258.69	74.666	58.306	17.37	3.5214e-06	24.2	0.00018841	0.00018241	5.0004e-05	953.7	1.989e-06	1.9616e-06	1045.2	199.04	1.9958e-06	2.0232e-06	253.06	73.801	57.192	17.358	2.0809e-06	24.408	162.996	198.412	239.287	156.815	219.064	202.202	156.629	164.382	295.513	357.746	163.820	170.211	170.244	177.987	251.127	177.582	-8191	255	
8110.662	1	1	0	0	0.23947	0.25854	0.055657	0.18424	0.093523	0.16157	0.20899	0.11663	0.12316	0.20907	0.24504	0.13449	0.27187	0.1078	0.22473	0.11893	-2.0792	-2.4958	-2.9333	-2.45	-2.7104	-2.675	-2.2396	-3.0187	-2.5417	-2.5375	-3.0521	-2.4104	-2.6521	-2.9354	-2.2667	-3.025	211.465	373.382	262.734	152.257	328.026	489.369	415.548	383.759	223.256	393.677	473.692	455.251	338.679	308.982	398.941	435.915	0.00040947	0.0004378	0.00014018	985.56	1.315e-06	1.0894e-06	1073.3	202.98	3.2617e-06	1.4263e-06	258.12	75.235	58.818	17.312	3.2091e-06	24.533	0.00019567	0.00019222	5.3141e-05	954.9	2.0845e-06	2.0917e-06	1045.3	199.24	2.0918e-06	2.0742e-06	252.96	74.011	57.731	17.336	2.0748e-06	24.465	170.656	239.531	266.950	156.510	407.168	365.233	156.480	164.097	271.210	195.799	163.682	170.242	170.381	178.937	259.469	177.620	-8191	255	
8110.783	1	1	0	0	0.075729	0.17844	0.065888	0.24043	0.13494	0.2679	0.094208	0.22861	0.12487	0.092201	0.10252	0.29266	0.27828	0.19004	0.063685	0.057205	-2.1854	-2.2375	-3.0187	-2.3333	-2.6292	-2.8833	-2.375	-2.9854	-2.4583	-2.1729	-3.0854	-2.5146	-2.6667	-2.8542	-2.1292	-2.7458	153.483	165.764	299.289	218.703	290.586	293.753	461.306	171.424	449.229	499.117	209.145	424.530	166.585	494.062	204.852	352.406	0.00028894	0.00022755	0.0001177	986.62	1.883e-06	2.4704e-06	1074.2	203.18	7.4023e-07	2.8624e-06	256.92	74.493	58.358	17.33	3.4403e-06	24.52	0.00019388	0.00019121	5.2108e-05	954.53	2.058e-06	2.0684e-06	1044.9	198.8	2.0946e-06	2.0933e-06	252.59	73.832	57.234	17.365	2.0787e-06	24.494	174.997	224.262	245.300	156.178	202.184	271.217	156.768	164.652	463.778	354.073	164.273	170.629	170.720	178.580	234.175	177.722	-8191	255	
8110.877	1	1	0	0	0.11287	0.12713	0.10724	0.23637	0.093648	0.058453	0.25749	0.26556	0.10436	0.071211	0.18796	0.1325	0.12322	0.17924	0.25206	0.33461	-2.3458	-2.175	-2.8625	-2.4479	-2.4583	-2.8187	-2.4354	-2.7042	-2.7938	-2.2646	-3.0771	-2.4521	-2.4562	-2.9667	-2.1958	-2.6708	493.777	160.599	235.021	505.768	307.629	172.476	474.059	398.437	164.274	335.298	466.046	479.870	421.969	422.787	197.362	437.357	0.00034282	0.0003303	6.1016e-05	982.12	3.8538e-06	3.1283e-06	1066.7	201.63	3.784e-06	2.7076e-06	256.41	74.504	58.095	17.15	2.0248e-06	24.288	0.00019572	0.00019048	5.3972e-05	952.53	2.1113e-06	2.0681e-06	1042.8	198.86	2.1134e-06	2.1349e-06	252.31	73.896	57.585	17.334	2.1572e-06	24.416	169.735	245.970	302.100	156.522	239.748	282.383	156.869	164.805	288.794	266.054	164.241	170.674	170.741	178.961	160.606	178.048	-8191	255	
8110.973	1	1	0	0	0.17549	0.17538	0.1528	0.13573	0.12985	0.26589	0.30073	0.24809	0.21824	0.17826	0.1767	0.10689	0.12308	0.26709	0.19789	0.14643	-2.3646	-2.075	-3.0208	-2.675	-2.2167	-2.9708	-2.5167	-2.8167	-2.6813	-2.2229	-3.0646	-2.5396	-2.3667	-3.1042	-2.3521	-2.6646	498.541	494.245	446.441	365.323	168.522	185.851	436.800	384.797	378.592	301.381	473.401	496.536	380.150	483.924	191.963	416.860	0.00035183	0.00053238	0.00010413	987.66	1.7428e-06	2.9667e-06	1072.1	202.74	1.4131e-06	3.6349e-06	257.76	74.465	58.485	17.276	2.9814e-06	24.119	0.00020484	0.00019682	5.5425e-05	954.37	2.2428e-06	2.1861e-06	1044.7	198.95	2.1687e-06	2.1862e-06	252.76	73.853	57.619	17.352	2.2371e-06	24.398	175.800	212.587	273.445	156.730	365.112	247.404	156.744	164.389	199.842	276.739	164.205	170.416	170.843	178.824	278.709	178.269	-8191	255	
8111.069	1	1	0	0	0.10945	0.22475	0.15363	0.17344	0.26881	0.25871	0.19896	0.13198	0.14167	0.14445	0.12816	0.053688	0.15371	0.1587	0.10442	0.16281	-2.7438	-2.1312	-3.0354	-2.6271	-2.4229	-3.0104	-2.3667	-2.5104	-3.0833	-2.1479	-2.8625	-2.7271	-2.3	-3.0458	-2.4042	-2.3937	280.029	505.783	276.128	388.953	179.153	480.656	389.143	434.979	262.901	450.621	154.388	404.192	454.743	188.870	271.933	382.137	0.00029314	0.00028151	9.4713e-05	988.45	1.4508e-06	3.7858e-06	1068.2	203.25	2.9079e-06	1.986e-06	257.25	74.711	58.592	17.205	1.5903e-06	24.105	0.00020806	0.00019726	5.4859e-05	953.42	2.1844e-06	2.1623e-06	1043	198.88	2.1885e-06	2.166e-06	252.81	73.937	57.511	17.323	2.1493e-06	24.353	171.355	219.988	271.462	157.086	265.622	256.814	156.757	164.381	250.013	310.523	164.236	170.221	170.713	178.603	301.879	177.804	-8191	255	
8111.166	1	1	0	0	0.18061	0.3566	0.35524	0.17835	0.099205	0.10431	0.20931	0.1733	0.34943	0.20831	0.059289	0.072861	0.13145	0.14984	0.12442	0.013049	-2.7125	-2.1646	-2.6458	-2.7167	-2.2792	-2.9167	-2.5125	-2.4271	-2.9396	-2.1979	-2.8229	-3.0146	-2.2167	-3.0812	-2.3958	-2.4188	308.434	425.620	243.294	449.247	483.190	480.178	402.260	461.009	447.056	196.537	361.693	335.452	179.068	217.653	426.748	148.014	0.00026948	0.00036775	0.00014897	979.76	2.1647e-06	2.1045e-06	1063.5	203.2	1.7498e-06	7.2041e-06	254.13	75.218	58.296	17.176	4.0231e-06	24.359	0.00020261	0.00020031	5.5889e-05	952	2.1625e-06	2.1578e-06	1042	199.32	2.2493e-06	2.201e-06	251.95	74.123	57.495	17.325	2.3144e-06	24.49	168.160	233.633	247.673	156.963	276.541	270.064	156.787	164.744	216.509	260.183	164.679	170.692	170.534	178.394	314.812	178.364	-8191	255	
8111.262	1	1	0	0	0.10803	0.11951	0.15221	0.18612	0.10179	0.22659	0.11641	0.069383	0.21262	0.26098	0.27549	0.18406	0.21644	0.18566	0.047945	0.016553	-2.5146	-1.9521	-2.8083	-3.0771	-2.2042	-3.0021	-2.7042	-2.4375	-3.0417	-2.3375	-2.6792	-3.0062	-2.2354	-2.8	-2.6354	-2.2042	179.629	220.662	155.075	163.137	218.905	372.210	407.742	421.267	259.917	440.127	448.538	182.665	338.086	368.675	205.025	266.763	0.00030621	0.00043167	6.1034e-05	980.76	2.8435e-06	5.5978e-06	1060.9	202.18	1.0774e-06	6.0196e-06	255.35	74.253	58.629	17.337	2.8732e-06	24.299	0.00021726	0.00021732	6.0369e-05	954.33	2.4159e-06	2.4312e-06	1044.1	199.18	2.4621e-06	2.4113e-06	253.36	74.034	57.94	17.445	2.4144e-06	24.544	171.344	261.935	174.499	156.627	331.794	287.368	156.813	164.332	270.472	195.185	164.410	170.933	170.830	178.357	241.830	177.840	-8191	255	
8111.382	1	1	0	0	0.14343	0.18729	0.19168	0.028636	0.014392	0.087955	0.29931	0.064357	0.13678	0.34606	0.11955	0.10297	0.3283	0.15458	0.10795	0.47393	-2.6521	-2.2979	-2.5354	-3.1271	-1.9583	-2.7292	-2.8667	-2.2771	-2.9437	-2.3271	-2.7167	-3.1521	-2.3208	-2.825	-2.7729	-2.3146	165.413	198.040	280.579	192.630	388.894	350.116	395.149	465.158	234.225	337.148	421.778	197.851	409.591	464.848	311.286	471.824	0.00027724	0.00012812	0.00013514	987.31	3.8426e-06	2.2805e-06	1071.6	203.09	1.3444e-06	5.7035e-06	257.64	74.539	58.35	17.2	2.175e-06	24.19	0.00022806	0.00022051	6.2289e-05	958.78	2.4321e-06	2.4294e-06	1045.8	199.76	2.4344e-06	2.4068e-06	253.76	74.074	57.845	17.399	2.3459e-06	24.495	179.588	241.621	246.312	156.747	276.140	306.447	156.669	164.320	256.141	250.983	164.391	170.699	170.932	178.465	295.390	177.711	-8191	255	
8111.479	1	1	0	0	0.16444	0.14388	0.27537	0.26993	0.092537	0.20244	0.098579	0.22524	0.15211	0.028896	0.19327	0.076657	0.10091	0.16575	0.086457	0.17694	-2.6229	-2.5625	-2.4417	-3.175	-2.3208	-2.725	-2.9208	-2.2292	-3.0458	-2.5521	-2.475	-3.0458	-2.3771	-2.6292	-2.7	-2.1042	247.370	273.379	470.158	484.128	443.079	248.376	491.968	424.195	367.400	454.383	186.281	378.670	458.723	155.373	282.066	482.864	0.0003307	0.00039729	0.00014839	992.27	3.208e-06	1.3785e-06	1074.8	202.42	2.8329e-06	3.4737e-06	258	74.926	58.297	17.34	2.1079e-06	24.292	0.00022001	0.00021505	5.9476e-05	958.04	2.3303e-06	2.3728e-06	1048.5	199.31	2.3317e-06	2.3223e-06	253.7	74.281	57.644	17.396	2.3407e-06	24.414	167.756	292.685	294.398	156.613	393.025	236.557	156.390	164.347	259.600	357.208	163.866	170.194	170.109	178.146	282.437	177.475	-8191	255	
8111.575	1	1	0	0	0.2156	0.20814	0.25599	0.063483	0.18787	0.24063	0.18963	0.012747	0.092408	0.12982	0.19803	0.10207	0.25987	0.11897	0.12646	0.10022	-2.6521	-2.6354	-2.35	-3.0438	-2.5042	-2.5625	-3.2083	-2.2208	-2.8937	-2.7771	-2.3667	-2.9708	-2.4083	-2.5625	-2.8292	-2.1479	359.070	459.414	450.612	451.938	263.917	320.359	437.002	406.578	278.960	162.522	270.215	239.587	490.993	342.684	429.444	171.863	0.00034828	0.00025244	8.3759e-05	989.53	2.3005e-06	1.8466e-06	1069.9	203.73	1.8726e-06	5.775e-06	257.44	74.743	58.549	17.445	2.193e-06	24.278	0.0002223	0.00021928	6.0959e-05	957.11	2.3957e-06	2.3955e-06	1047.7	199.87	2.3763e-06	2.4032e-06	253.92	74.342	57.828	17.429	2.3289e-06	24.468	178.483	197.330	228.333	156.620	252.545	238.551	156.294	164.170	271.205	359.848	163.627	170.110	170.168	178.750	255.656	177.452	-8191	255	
8111.646	1	1	0	0	0.12736	0.046913	0.094627	0.21956	0.32087	0.07528	0.18237	0.19672	0.14095	0.026233	0.26995	0.37187	0.24262	0.17974	0.22158	0.19681	-2.4188	-2.8104	-2.2896	-2.8271	-2.4083	-2.4271	-3.025	-2.2771	-2.6167	-2.8187	-2.2708	-3.0146	-2.4333	-2.5271	-2.9437	-2.125	155.922	236.395	461.991	445.427	215.263	168.782	369.337	385.845	383.098	321.484	490.280	175.422	301.639	155.592	338.317	160.923	0.00030522	0.00023814	0.00017387	989.37	2.8068e-07	4.3452e-06	1070.8	202.91	3.5948e-06	1.2327e-06	257.23	74.427	58.516	17.463	1.2679e-06	24.395	0.00022191	0.00021442	6.089e-05	957.28	2.3421e-06	2.3845e-06	1046.3	199.49	2.3283e-06	2.3276e-06	253.22	74.154	57.599	17.439	2.3114e-06	24.488	165.105	483.846	242.724	156.229	317.146	297.661	156.028	163.864	302.417	383.481	163.829	170.127	169.888	178.138	326.797	177.085	-8191	255	
8111.743	1	1	0	0	0.17614	0.17014	0.07242	0.25257	0.27826	0.11365	0.089735	0.11945	0.28457	0.12108	0.082554	0.10692	0.18985	0.32177	0.26089	0.15557	-2.4271	-2.8292	-2.2042	-3.0604	-2.4396	-2.475	-3.1	-2.3333	-2.8083	-2.8792	-2.4083	-2.875	-2.6604	-2.3104	-2.9562	-2.5208	444.083	417.291	325.452	176.699	182.928	491.613	215.844	499.541	185.096	377.619	450.550	222.941	402.363	201.618	300.939	489.218	0.00031162	0.00032843	0.00010185	992.08	3.4387e-06	6.4721e-06	1072.6	202.95	3.2723e-06	3.7218e-06	256.99	74.46	58.803	17.369	7.7861e-07	24.419	0.00021451	0.00020729	5.9122e-05	959.78	2.3325e-06	2.3045e-06	1046.9	199.44	2.3119e-06	2.3002e-06	252.55	73.988	57.943	17.39	2.2584e-06	24.458	175.509	254.240	303.081	156.353	160.410	274.590	156.110	164.209	317.259	290.317	163.714	170.007	170.380	178.509	257.156	177.055	-8191	255	
8111.861	1	1	0	0	0.17547	0.063681	0.040105	0.17811	0.11965	0.13732	0.29027	0.2341	0.1332	0.021015	0.27742	0.1673	0.071473	0.05183	0.29902	0.17705	-2.2729	-2.9292	-2.1833	-2.9583	-2.7896	-2.2542	-3.2542	-2.5646	-2.4479	-2.8792	-2.3708	-2.9	-2.9583	-2.2958	-3.1417	-2.5125	170.852	374.153	240.071	409.086	470.128	460.656	487.416	441.443	323.706	340.933	235.086	188.497	322.481	213.990	375.838	439.744	0.00032192	0.00015401	7.7345e-05	992.41	1.481e-06	1.8263e-06	1072.5	202.93	1.1791e-07	3.9786e-06	256.85	75.228	59.255	17.273	4.2373e-06	24.455	0.0002156	0.00020811	5.8344e-05	957.93	2.2951e-06	2.2922e-06	1048.1	199.55	2.2915e-06	2.238e-06	253.45	74.152	57.897	17.351	2.2189e-06	24.563	174.980	205.509	214.452	156.328	268.881	253.261	156.081	163.911	277.208	379.978	163.495	170.116	170.149	177.993	274.594	177.109	-8191	255	
8111.958	1	1	0	0	0.1929	0.15191	0.089639	0.057424	0.29245	0.26813	0.41058	0.14973	0.0099075	0.044265	0.10237	0.12193	0.11951	0.12428	0.12388	0.092869	-2.1792	-2.9062	-2.25	-2.6979	-2.7896	-2.2542	-3.0938	-2.525	-2.4729	-2.9979	-2.4188	-2.7104	-2.7687	-2.2604	-2.8354	-2.525	376.826	482.489	477.797	163.731	371.348	174.269	459.797	368.397	426.590	424.427	232.961	429.759	415.432	231.086	415.223	441.066	0.00031976	0.00027684	9.922e-05	992.58	1.0118e-06	3.5043e-06	1076.3	203.38	3.5188e-06	2.9243e-06	258.2	75.198	58.21	17.265	2.2451e-06	24.463	0.00021227	0.00020845	5.7065e-05	958.68	2.2957e-06	2.302e-06	1048	199.39	2.2869e-06	2.2132e-06	253.49	74.179	57.66	17.37	2.2551e-06	24.406	173.645	366.843	223.482	156.255	271.113	260.823	156.302	163.905	249.645	258.519	163.952	169.938	169.945	178.161	275.939	176.949	-8191	255	
8112.054	1	1	0	0	0.1644	0.24915	0.15154	0.077544	0.087026	0.070915	0.15854	0.092145	0.1459	0.30968	0.088669	0.12436	0.17106	0.21375	0.24309	0.19575	-1.7833	-3.0042	-2.2833	-2.8063	-2.8625	-2.2896	-3.125	-2.6937	-2.2792	-2.9667	-2.4542	-2.5729	-2.9542	-2.2854	-2.7708	-2.6625	441.569	199.645	469.022	231.011	231.014	367.806	467.286	389.733	463.305	357.617	426.748	456.678	226.212	439.204	207.700	481.006	0.00036097	0.00026287	4.0616e-05	990.76	2.7374e-06	4.5805e-07	1070.3	201.84	4.8134e-06	4.2548e-07	257.24	75.17	58.503	17.327	3.0817e-06	24.361	0.0002167	0.00020578	5.7141e-05	959.23	2.2435e-06	2.3178e-06	1046.6	199.09	2.2691e-06	2.2084e-06	253.08	74.242	57.482	17.396	2.2468e-06	24.449	163.296	232.230	229.598	155.832	387.801	421.805	156.232	163.773	323.863	452.993	163.840	169.994	170.394	177.508	258.437	176.937	-8191	255	
8112.174	1	1	0	0	0.21745	0.17068	0.19167	0.24003	0.28193	0.039943	0.20339	0.30381	0.078751	0.074203	0.14097	0.090655	0.042991	0.14433	0.15561	0.22092	-1.8292	-2.9938	-2.25	-2.4313	-2.9375	-2.05	-2.8979	-2.7604	-2.1562	-2.9271	-2.5875	-2.5917	-2.9542	-2.4396	-2.6875	-2.7896	492.289	326.425	187.383	151.158	421.280	322.613	228.278	186.328	338.935	177.216	358.707	247.886	407.405	223.033	292.925	469.538	0.00028098	0.0003436	6.1455e-05	994.88	2.5688e-06	3.6109e-06	1074.9	202.28	3.117e-06	4.428e-06	257.68	74.408	58.301	17.305	2.989e-06	24.314	0.00020833	0.00019985	5.5936e-05	957.74	2.2524e-06	2.2566e-06	1047.3	199.32	2.3034e-06	2.2182e-06	252.59	74.066	57.655	17.338	2.161e-06	24.402	168.882	214.860	319.689	156.512	275.016	291.327	156.304	163.761	247.319	257.257	163.713	169.977	169.931	177.904	278.429	176.858	-8191	255	
8112.246	1	1	0	0	0.1251	0.17769	0.055322	0.14495	0.20099	0.073956	0.025729	0.1633	0.16031	0.11783	0.17	0.15409	0.35168	0.13972	0.068053	0.11074	-1.6229	-2.8812	-2.4417	-2.4188	-3.0917	-2.2396	-2.8167	-2.7938	-2.2292	-2.8229	-2.525	-2.3479	-2.9375	-2.3292	-2.4229	-2.825	184.984	174.398	432.803	361.587	153.807	167.628	496.240	382.908	197.088	224.386	406.387	210.197	360.200	489.307	417.819	373.755	0.00030921	0.00024481	9.607e-05	985.66	2.0175e-06	2.0916e-06	1076.5	203.07	2.9865e-06	2.9722e-06	257.66	74.651	58.778	17.331	4.2025e-06	24.282	0.00020602	0.00019892	5.6198e-05	955.62	2.2131e-06	2.1995e-06	1047.2	199.14	2.2134e-06	2.1894e-06	253.31	74.093	57.588	17.36	2.1817e-06	24.405	165.525	254.969	260.913	156.383	258.197	205.783	156.319	163.617	322.854	319.680	163.643	170.022	170.032	178.011	290.228	177.657	-8191	255	
8112.342	1	1	0	0	0.18833	0.13802	0.27242	0.089498	0.13776	0.26436	0.07019	0.084228	0.029133	0.18038	0.030388	0.18758	0.052988	0.21535	0.1484	0.11478	-1.7583	-2.7583	-2.6833	-2.2646	-2.9125	-2.4604	-2.5312	-2.8708	-2.1396	-2.7833	-2.7375	-2.4021	-2.9229	-2.3396	-2.4396	-2.9417	329.997	155.955	414.725	198.348	281.220	345.929	380.367	283.611	148.849	401.952	356.747	376.131	153.782	471.192	429.429	462.493	0.00030765	0.00050263	7.7834e-05	986.95	5.8779e-07	3.8786e-06	1073.7	202.35	4.101e-06	1.4262e-06	258.98	74.991	58.241	17.283	3.6336e-06	24.189	0.00020733	0.00020066	5.4965e-05	955.04	2.1763e-06	2.1727e-06	1045.9	199.3	2.1045e-06	2.1086e-06	253.12	74.028	57.349	17.311	2.1367e-06	24.328	172.170	249.393	218.594	156.241	359.973	244.167	156.157	163.856	326.896	453.173	163.768	170.430	169.913	177.801	279.666	177.182	-8191	255	
8112.463	1	1	0	0	0.1478	0.19988	0.23029	0.32245	0.16357	0.25172	0.13443	0.10331	0.036272	0.098451	0.17087	0.073385	0.044884	0.091249	0.11024	0.2442	-1.8271	-2.5979	-2.7438	-2.2687	-2.8354	-2.5062	-2.6312	-2.9792	-2.0604	-2.7875	-2.8729	-2.2208	-2.9875	-2.4521	-2.3521	-3.0292	464.864	448.715	410.766	362.895	335.883	448.004	477.086	391.979	243.178	351.130	488.038	402.896	290.831	157.935	426.785	217.044	0.0003961	0.0002886	0.00012871	991.98	1.7944e-06	2.3152e-06	1071	204.18	2.7483e-06	2.8585e-06	257.83	74.965	58.665	17.228	2.7859e-06	24.352	0.00019908	0.00018787	5.1923e-05	955.51	2.1056e-06	2.1152e-06	1045.2	199.35	2.0952e-06	2.0541e-06	252.71	74.09	57.463	17.318	2.0946e-06	24.397	175.865	255.166	243.268	156.655	280.082	199.168	156.203	164.114	269.359	303.485	163.957	169.723	169.990	178.131	265.716	177.554	-8191	255	
8112.559	1	1	0	0	0.17221	0.05471	0.073211	0.024401	0.12876	0.15614	0.13368	0.22414	0.17014	0.16811	0.16642	0.24426	0.089658	0.088107	0.18591	0.27008	-1.7687	-2.7521	-2.7833	-2.0771	-2.7854	-2.6583	-2.4188	-3.0792	-2.3875	-2.4667	-2.9958	-2.1729	-2.8083	-2.8	-2.2687	-3.0021	231.593	347.705	304.169	444.318	312.325	373.175	410.123	434.587	169.197	261.921	496.496	426.111	464.509	446.563	442.938	466.893	0.00029963	0.00024742	5.538e-05	983.83	2.8539e-06	5.7734e-06	1074.3	202.22	1.9146e-06	2.9323e-06	258.79	74.918	58.732	17.252	3.3607e-06	24.274	0.00020135	0.00019367	5.3442e-05	952.33	2.0776e-06	2.1095e-06	1045.2	199.09	2.1139e-06	2.1237e-06	252.79	73.9	57.548	17.29	2.125e-06	24.408	171.822	235.201	161.790	156.315	280.087	268.076	156.422	164.274	294.211	339.841	163.933	169.708	169.822	177.979	290.740	177.211	-8191	255	
8112.655	1	1	0	0	0.17705	0.083992	0.21699	0.28137	0.13301	0.11966	0.39988	0.033457	0.38307	0.052457	0.2623	0.15477	0.46427	0.14937	0.077247	0.062839	-1.9583	-2.3917	-2.7542	-2.3583	-2.8187	-2.8771	-2.4938	-2.8937	-2.2687	-2.3563	-3.0438	-2.3312	-2.8833	-2.6937	-2.075	-2.9979	224.672	396.823	265.361	434.201	339.139	192.417	414.728	279.840	465.832	288.450	403.253	242.668	268.024	410.093	475.127	269.870	0.00039646	0.00023985	8.553e-05	986.52	3.5604e-06	5.8951e-06	1076	201.94	4.1167e-06	4.1908e-06	257.23	74.899	58.433	17.259	2.6611e-06	24.257	0.00019892	0.00019004	5.2259e-05	954.44	2.1135e-06	2.1013e-06	1045	198.54	2.1261e-06	2.1032e-06	252.35	73.989	57.64	17.338	2.1644e-06	24.353	170.004	270.164	203.344	156.356	309.436	268.521	156.257	164.135	291.633	260.640	163.845	170.162	170.404	178.548	287.947	177.643	-8191	255	
8112.776	1	1	0	0	0.13243	0.15745	0.20623	0.18463	0.14255	0.25265	0.2208	0.083221	0.19556	0.17074	0.13449	0.16346	0.22848	0.44823	0.27673	0.11376	-1.9438	-2.4437	-2.9229	-2.3604	-2.6479	-2.6958	-2.2854	-3	-2.5229	-2.2604	-3.0875	-2.3875	-2.6292	-2.8958	-2.3667	-2.8375	491.876	287.396	194.385	148.532	254.049	173.594	471.711	391.129	178.212	365.138	358.063	364.314	332.888	492.049	350.258	347.780	0.00031042	0.00030682	0.0001197	985.32	6.9831e-07	3.2417e-06	1072.7	202.23	3.1396e-06	4.0407e-06	257.37	75.068	58.921	17.284	2.234e-06	24.193	0.0002033	0.00019191	5.5032e-05	950.93	2.1596e-06	2.1132e-06	1044.7	199.31	2.1718e-06	2.1572e-06	252.78	73.955	57.59	17.337	2.1084e-06	24.351	164.375	209.258	267.488	156.611	310.830	236.320	156.592	163.848	270.987	181.611	163.958	170.060	170.013	178.120	282.221	177.693	-8191	255	
8112.870	1	1	0	0	0.12134	0.10763	0.058233	0.312	0.1194	0.17329	0.11957	0.11243	0.12332	0.38243	0.13793	0.18306	0.19442	0.18303	0.15403	0.037177	-2.3229	-2.425	-2.7292	-2.3833	-2.6875	-2.9188	-2.3458	-3.0792	-2.6271	-2.1042	-3.1458	-2.4437	-2.4437	-2.8104	-2.2479	-2.7958	433.763	216.971	220.505	420.855	501.364	356.644	158.943	201.013	146.879	353.867	183.411	436.273	377.688	217.716	282.884	490.055	0.00030539	0.00019681	7.4139e-05	990	2.1553e-06	6.345e-06	1072.5	202.18	3.521e-06	4.0448e-06	258.18	75.471	58.553	17.294	1.7751e-06	24.315	0.00020483	0.00019607	5.1574e-05	955.65	2.1256e-06	2.0899e-06	1044.5	199.19	2.0659e-06	2.0958e-06	253.09	73.832	57.612	17.31	2.0861e-06	24.386	170.422	504.193	255.658	156.411	254.162	236.852	156.719	164.091	279.537	311.999	163.749	170.430	170.336	177.975	221.124	177.832	-8191	255	
8112.942	1	1	0	0	0.11445	0.064451	0.13691	0.18122	0.25045	0.018452	0.11107	0.25493	0.17014	0.23288	0.10566	0.10006	0.10531	0.12106	0.04694	0.21788	-2.4688	-2.2021	-2.9354	-2.4333	-2.4562	-3.0333	-2.35	-2.7875	-2.8271	-2.1125	-3.2833	-2.4708	-2.4437	-3.1354	-2.3312	-2.7562	331.640	278.374	153.231	429.773	426.705	315.320	238.752	180.720	364.128	340.192	488.190	240.891	180.796	397.729	257.067	472.007	0.0003703	0.00032575	6.5735e-05	990.43	9.7396e-07	1.2476e-06	1068.2	204.09	2.8757e-06	4.1711e-06	257.75	74.254	58.741	17.421	2.6122e-06	24.426	0.00020205	0.00019105	5.1508e-05	954.48	2.1478e-06	2.1202e-06	1043.4	199.69	2.1521e-06	2.1307e-06	252.85	73.803	57.527	17.374	2.1416e-06	24.403	168.709	266.893	204.115	156.097	258.696	294.942	156.220	164.114	256.259	261.538	164.334	170.262	170.784	178.322	288.990	177.374	-8191	255	
8113.062	1	1	0	0	0.27544	0.24274	0.1586	0.125	0.094567	0.34486	0.39797	0.12059	0.18196	0.12366	0.20908	0.14421	0.19006	0.21243	0.073245	0.058224	-2.4396	-2.2146	-2.8292	-2.5083	-2.2542	-2.9333	-2.4208	-2.6583	-2.8458	-2.0667	-2.9375	-2.7854	-2.3937	-3.0604	-2.2646	-2.5938	427.641	325.365	375.120	493.098	223.222	440.474	439.051	386.453	493.699	269.494	471.399	166.998	403.934	434.138	440.715	504.472	0.00035175	0.00021286	8.7383e-05	993.58	4.2116e-06	4.6573e-06	1070.1	202.43	2.3685e-06	3.5007e-06	257.18	74.723	58.764	17.161	2.6745e-06	24.354	0.00019825	0.00019169	5.3386e-05	957.8	2.116e-06	2.0124e-06	1046.4	199.13	2.0746e-06	2.0863e-06	252.63	73.931	57.507	17.305	2.1167e-06	24.415	180.488	314.035	200.245	156.801	268.972	270.462	156.404	164.188	304.075	277.314	163.948	169.858	169.911	178.246	265.101	177.680	-8191	255	
8113.159	1	1	0	0	0.2491	0.098446	0.020581	0.12343	0.31551	0.27457	0.22748	0.022037	0.10206	0.039236	0.064264	0.093015	0.12127	0.077477	0.20215	0.097591	-2.425	-2.3625	-2.9021	-2.7208	-2.2833	-3.0333	-2.5938	-2.6	-2.6958	-2.1917	-2.8812	-2.8667	-2.1437	-2.8979	-2.3333	-2.4354	489.768	502.177	418.788	456.310	402.118	498.540	456.781	486.283	331.368	288.217	174.239	352.854	150.216	159.870	463.823	383.701	0.00029127	0.00025081	0.00014306	990.11	1.9273e-06	4.1823e-06	1071.6	202.57	1.3272e-06	5.0256e-06	257.49	74.849	58.412	17.31	4.3343e-06	24.439	0.00019986	0.00019894	5.5151e-05	956.47	2.2136e-06	2.1046e-06	1047.1	199.26	2.0983e-06	2.0734e-06	253.35	73.77	57.559	17.333	2.0945e-06	24.34	172.271	246.652	256.180	156.357	262.162	309.230	156.238	164.338	146.823	301.604	164.198	170.107	170.494	178.372	305.051	178.081	-8191	255	
8113.255	1	1	0	0	0.16814	0.27281	0.29076	0.18353	0.24234	0.069901	0.2713	0.11803	0.17378	0.12076	0.07652	0.16665	0.1554	0.068551	0.14916	0.27722	-2.3563	-2.3333	-2.7875	-2.9188	-2.1917	-2.9458	-2.65	-2.4104	-2.9062	-2.3604	-2.9292	-2.8396	-2.3563	-3.125	-2.6208	-2.375	451.647	278.125	421.177	445.995	455.802	340.359	436.194	424.530	302.734	334.663	473.014	365.686	467.610	458.767	347.827	251.928	0.00027242	0.00025012	6.3867e-05	991.75	1.4681e-06	3.6781e-07	1071.9	203.01	3.374e-06	4.0024e-06	258.92	74.753	58.709	17.254	2.7614e-06	24.272	0.00019316	0.00018555	5.1267e-05	957.82	1.9799e-06	1.963e-06	1044.9	199.02	2.0152e-06	2.0182e-06	253.11	73.866	57.546	17.307	2.0702e-06	24.409	164.001	168.561	243.794	156.468	234.690	287.948	156.544	164.284	244.894	250.198	163.753	170.210	170.596	178.714	310.183	177.494	-8191	255	
8113.351	1	1	0	0	0.14454	0.090697	0.13738	0.095935	0.23971	0.10173	0.2836	0.32786	0.076983	0.17799	0.16962	0.16275	0.085187	0.038425	0.21202	0.17939	-2.6542	-2.1312	-2.7021	-3.0104	-2.3125	-2.975	-2.9292	-2.3833	-2.9	-2.5208	-2.6521	-3.05	-2.4792	-2.85	-2.8812	-2.2958	236.763	457.790	337.310	455.137	262.696	463.021	374.724	152.355	472.492	429.604	203.791	453.136	496.542	435.814	329.656	151.998	0.00032824	0.00033703	8.392e-05	983.45	4.603e-06	2.1059e-06	1069.6	202.07	4.6171e-06	5.8824e-06	257.77	75.089	58.749	17.336	1.4517e-06	24.452	0.00018975	0.00018417	5.1299e-05	951.05	1.9913e-06	2.0114e-06	1041.6	198.65	1.9281e-06	1.9836e-06	252.39	73.988	57.372	17.243	2.0066e-06	24.414	169.843	208.883	243.208	156.502	284.136	242.661	156.368	164.421	263.630	292.309	163.678	169.984	170.474	178.113	275.210	177.693	-8191	255	
8113.447	1	1	0	0	0.095435	0.29458	0.035836	0.28512	0.099081	0.096755	0.25211	0.13711	0.20571	0.15287	0.14142	0.075405	0.13935	0.10786	0.079366	0.11946	-2.6208	-2.3875	-2.3896	-2.9479	-2.3604	-2.9375	-2.9479	-2.4396	-2.9479	-2.4458	-2.4917	-3.025	-2.3083	-2.8042	-2.8417	-2.3625	484.629	257.982	284.418	166.250	210.778	495.236	185.002	163.492	368.716	235.417	427.482	402.221	479.335	287.362	158.911	390.743	0.00033815	0.00048865	4.7644e-05	985.31	3.2785e-06	3.872e-06	1067.6	202.84	2.5738e-06	4.5704e-06	257.13	74.82	57.983	17.326	1.7819e-06	24.298	0.00019168	0.00018369	5.1798e-05	951.24	2.0254e-06	2.0255e-06	1041.5	199.01	2.0597e-06	2.0255e-06	251.74	73.851	57.192	17.291	2.0177e-06	24.368	169.272	252.006	279.962	156.474	234.135	294.646	156.585	163.991	342.520	308.041	164.123	170.423	170.472	178.577	293.001	177.543	-8191	255	
8113.543	1	1	0	0	0.28166	0.18924	0.060858	0.1501	0.083732	0.29844	0.21427	0.12071	0.23283	0.1004	0.056599	0.048969	0.15192	0.12178	0.18788	0.020219	-2.6521	-2.6146	-2.4188	-3.1708	-2.4458	-2.6896	-2.9729	-2.2958	-3.0042	-2.6125	-2.5146	-2.9125	-2.3021	-2.5396	-3.0979	-2.2938	166.631	392.758	283.462	212.333	336.485	480.065	471.030	200.896	218.920	486.662	433.082	419.609	346.654	395.826	271.271	279.483	0.00030582	0.00016222	0.00014312	986.37	3.366e-06	4.5026e-06	1064.5	203.01	3.058e-06	3.7467e-06	258.38	74.649	58.16	17.289	2.3372e-06	24.355	0.00019291	0.00018927	5.2537e-05	953.07	2.0429e-06	2.0407e-06	1042	198.44	2.0115e-06	2.0391e-06	252.42	73.68	57.402	17.3	1.9739e-06	24.324	167.707	245.673	276.672	156.767	297.748	255.917	156.588	164.297	252.668	403.759	164.033	170.696	170.708	178.198	216.791	177.712	-8191	255	
8113.639	1	1	0	0	0.1725	0.14525	0.13656	0.13369	0.083902	0.18408	0.18037	0.10769	0.12192	0.17214	0.11154	0.19578	0.15751	0.087005	0.16695	0.23778	-2.6354	-2.7021	-2.125	-2.9521	-2.4062	-2.8937	-3.15	-2.3208	-2.8771	-2.6312	-2.4833	-3.0667	-2.5521	-2.2521	-3.0667	-2.2625	473.319	496.159	379.490	150.203	328.203	248.741	461.951	389.991	360.571	300.933	466.186	183.487	421.269	240.892	185.530	356.384	0.00030193	0.00054509	6.6321e-05	991.26	3.5436e-06	3.9572e-06	1067.6	202.1	2.2089e-06	4.5327e-06	257.61	74.602	58	17.197	4.6888e-06	24.358	0.00018921	0.00018608	5.0604e-05	953.17	2.0302e-06	1.9505e-06	1041.8	198.47	1.9016e-06	1.8278e-06	252.28	73.774	57.004	17.168	1.6971e-06	24.106	175.247	237.146	197.647	156.351	284.661	307.792	156.719	164.467	307.211	305.999	164.590	170.792	170.883	178.695	293.502	177.702	-8191	255	
8113.735	1	1	0	0	0.17322	0.077355	0.14607	0.11332	0.15561	0.20077	0.20811	0.41339	0.091004	0.18102	0.186	0.20822	0.10178	0.053098	0.026513	0.23223	-2.3646	-2.7229	-2.1208	-3.1167	-2.3312	-2.475	-2.9917	-2.1854	-2.6917	-2.825	-2.3688	-3.125	-2.5729	-2.4688	-2.9833	-2.3563	230.604	356.790	224.781	318.672	206.409	377.633	489.328	173.482	458.149	154.757	501.748	434.723	392.340	197.129	199.544	502.742	0.00031839	0.00032064	7.749e-05	976.65	1.2191e-06	1.9312e-06	1051.4	200.67	1.0718e-06	4.6173e-06	254.28	74.122	58.382	17.128	3.0719e-06	23.986	0.00015958	0.00015057	4.1696e-05	941.08	1.6442e-06	1.6315e-06	1026.5	195.82	1.6409e-06	1.5513e-06	248.45	73.059	56.548	17.019	1.5965e-06	23.958	168.778	226.609	201.166	156.779	307.718	450.974	156.869	164.689	255.472	327.425	164.548	170.637	170.846	178.776	262.385	178.272	-8191	255	
8113.856	1	1	0	0	0.051374	0.029103	0.081075	0.25039	0.080647	0.37272	0.044628	0.21656	0.11552	0.10269	0.22231	0.01011	0.31167	0.09038	0.049321	0.18298	-2.2833	-2.8937	-2.3917	-2.875	-2.6	-2.2667	-3.0146	-2.4938	-2.5875	-2.9125	-2.3396	-2.7604	-2.7083	-2.2938	-2.9396	-2.6458	366.898	483.971	446.658	387.421	252.346	181.784	436.671	466.683	392.399	160.528	473.391	444.541	349.628	399.727	158.955	211.500	0.00031806	0.00020475	0.00010336	980.63	1.1563e-06	4.789e-06	1045.7	199.71	4.0365e-06	5.0853e-06	253.44	73.967	57.842	17.212	2.9471e-06	23.932	0.00015729	0.00014761	4.1438e-05	936.45	1.6522e-06	1.6639e-06	1023.7	195.47	1.6845e-06	1.6694e-06	248.25	72.699	56.373	17.047	1.7293e-06	23.985	160.567	276.989	234.709	157.082	204.072	318.225	156.866	164.445	233.231	323.528	164.369	170.870	170.460	178.415	305.139	178.049	-8191	255	
8113.950	1	1	0	0	0.26751	0.18247	0.15305	0.24259	0.15606	0.2892	0.27401	0.17342	0.25891	0.18996	0.2204	0.1279	0.061752	0.080995	0.06851	0.081984	-2.1083	-2.9979	-2.2354	-2.9521	-2.8187	-2.2729	-3.1333	-2.4	-2.4667	-2.95	-2.2125	-2.6813	-2.8917	-2.2687	-2.9167	-2.5958	441.154	344.144	274.698	268.734	410.988	319.000	500.818	159.669	272.632	486.425	443.215	185.270	197.554	448.354	251.652	226.118	0.00027934	0.00035366	9.7775e-05	966.89	1.6181e-06	2.2822e-06	1052.1	199.42	1.4695e-06	2.1505e-06	252.89	74.224	57.952	17.207	2.0929e-06	24.046	0.00016545	0.0001578	4.4777e-05	933.05	1.8175e-06	1.8083e-06	1027.2	195.54	1.8742e-06	1.8564e-06	249.14	73.205	56.564	17.133	1.8864e-06	24.009	166.139	272.060	267.123	157.287	397.970	198.646	156.745	164.554	267.261	443.922	164.083	170.162	171.111	178.502	282.003	177.501	-8191	255	
8114.047	1	1	0	0	0.11316	0.076985	0.0085575	0.070022	0.23484	0.20737	0.1056	0.35074	0.098328	0.1451	0.25445	0.30076	0.13282	0.22721	0.094214	0.039896	-1.9292	-3.1958	-2.3563	-2.8	-2.9708	-2.3771	-3.1146	-2.6562	-2.1833	-3.1042	-2.3187	-2.5667	-2.8896	-2.2812	-2.8729	-2.7375	315.223	467.351	468.384	216.354	465.114	435.169	181.529	459.260	261.339	265.930	390.451	477.103	276.566	464.570	402.604	305.386	0.0002844	0.00013479	9.7729e-05	975.97	2.827e-06	2.8155e-06	1057.1	200.92	2.4688e-06	1.1179e-06	258.01	73.912	58.008	17.274	1.3374e-06	24.074	0.00018111	0.00017201	4.8918e-05	938.79	1.9309e-06	1.9476e-06	1030.4	196.53	1.9224e-06	1.8974e-06	250	73.134	56.86	17.176	1.8704e-06	24.097	169.426	458.618	273.464	157.106	340.927	343.190	156.289	164.272	286.869	486.637	163.951	170.530	170.185	178.665	247.685	177.477	-8191	255	
8114.143	1	1	0	0	0.1019	0.071488	0.17063	0.31073	0.32085	0.097245	0.099188	0.27774	0.093842	0.023268	0.10541	0.11636	0.30366	0.11846	0.16085	0.32527	-1.8563	-3.1229	-2.2625	-2.5979	-2.7708	-2.2687	-3.0938	-2.7438	-2.4313	-3.0563	-2.4375	-2.425	-2.9938	-2.0833	-2.7958	-3.0146	219.580	392.649	405.921	504.605	491.815	271.815	486.781	441.592	280.936	384.135	419.536	478.377	152.402	370.435	469.881	455.052	0.00027721	0.00062067	7.5953e-05	970.37	3.4216e-06	1.953e-06	1056.8	199.87	3.5114e-06	4.2969e-06	254.61	74.317	57.816	17.117	2.3331e-06	24.072	0.00018031	0.00017173	4.7434e-05	939.4	1.9497e-06	1.8504e-06	1031.2	196.34	1.8886e-06	1.897e-06	249.91	73.176	56.652	17.114	1.8858e-06	24.049	159.794	260.158	301.222	156.613	258.502	265.620	156.785	164.111	292.715	325.273	164.019	169.900	170.277	178.465	269.991	177.769	-8191	255	
8114.239	1	1	0	0	0.1787	0.088805	0.21175	0.20727	0.14656	0.080381	0.089971	0.18424	0.20652	0.11336	0.1924	0.09678	0.19997	0.15799	0.15698	0.23215	-1.8875	-3.1104	-2.3604	-2.475	-3.0271	-2.2125	-3.0438	-2.6792	-2.3958	-3.0521	-2.6083	-2.4354	-3.1229	-2.3896	-2.7271	-2.9583	423.815	340.763	289.361	461.406	303.628	353.752	486.725	181.722	315.678	472.272	398.666	307.157	245.413	477.828	256.007	259.362	0.00030109	0.00042639	7.6034e-05	973	3.011e-06	1.2364e-06	1062.3	200.1	3.3435e-06	3.0198e-06	255.99	74.081	58.117	17.013	3.7366e-06	24.145	0.00018021	0.00016717	4.7304e-05	939.26	1.8748e-06	1.8264e-06	1031.6	196.64	1.8536e-06	1.8674e-06	249.49	73.1	56.777	17.102	1.8782e-06	24.081	167.480	282.068	288.607	156.672	309.962	436.893	156.846	164.297	336.986	224.892	164.475	170.709	170.736	178.685	286.856	177.582	-8191	255	
#DATA ENDS
