BOXY.EXE: ISS Imagent and Oximeter Data Acquisition Program Version 0.80
Ascii Record File

#ACQ INFORMATION
2  Detector Channels 
16  External MUX Channels 
1  Auxiliary Channels 
5000  Waveform (CCF) Frequency (Hz)
1  Waveforms Skipped 
30  Waveforms Averaged 
1  Cycles Averaged 
16  Acquisitions per Waveform 
10.0806  Updata Rate (Hz) 

#FILE INFORMATION
TRUE -- External MUX Channel results are PARSED.
FALSE -- AC DC and Phase are NOT grouped.
TRUE -- Companion Program Settings File CREATED.
FALSE -- AC data not excluded
FALSE -- DC data not excluded
FALSE -- Phase data not excluded
FALSE -- Auxillary Chn. data not excluded
Tab delimiters

#CALIBRATION STATE
TRUE -- Waveform Calibration Values APPLIED.


#AUX CALIBRATION VALUES
Val Type	aux-1	

Term	1.0000e+00	
Factor	0.0000e+00	


#WF CALIBRATION VALUES
A = Detector Channel
Val Type	A-AC1	A-AC2	A-AC3	A-AC4	A-AC5	A-AC6	A-AC7	A-AC8	A-AC9	A-AC10	A-AC11	A-AC12	A-AC13	A-AC14	A-AC15	A-AC16	A-DC1	A-DC2	A-DC3	A-DC4	A-DC5	A-DC6	A-DC7	A-DC8	A-DC9	A-DC10	A-DC11	A-DC12	A-DC13	A-DC14	A-DC15	A-DC16	A-Ph1	A-Ph2	A-Ph3	A-Ph4	A-Ph5	A-Ph6	A-Ph7	A-Ph8	A-Ph9	A-Ph10	A-Ph11	A-Ph12	A-Ph13	A-Ph14	A-Ph15	A-Ph16	

Term	0.00000e+00	0.00000e+00	0.00000e+00	0.00000e+00	0.00000e+00	0.00000e+00	0.00000e+00	0.00000e+00	0.00000e+00	0.00000e+00	0.00000e+00	0.00000e+00	0.00000e+00	0.00000e+00	0.00000e+00	0.00000e+00	0.00000e+00	0.00000e+00	0.00000e+00	0.00000e+00	0.00000e+00	0.00000e+00	0.00000e+00	0.00000e+00	0.00000e+00	0.00000e+00	0.00000e+00	0.00000e+00	0.00000e+00	0.00000e+00	0.00000e+00	0.00000e+00	0.00000e+00	0.00000e+00	0.00000e+00	0.00000e+00	0.00000e+00	0.00000e+00	0.00000e+00	0.00000e+00	0.00000e+00	0.00000e+00	0.00000e+00	0.00000e+00	0.00000e+00	0.00000e+00	0.00000e+00	0.00000e+00	
Factor	1.00000e+00	1.00000e+00	1.00000e+00	1.00000e+00	1.00000e+00	1.00000e+00	1.00000e+00	1.00000e+00	1.00000e+00	1.00000e+00	1.00000e+00	1.00000e+00	1.00000e+00	1.00000e+00	1.00000e+00	1.00000e+00	1.00000e+00	1.00000e+00	1.00000e+00	1.00000e+00	1.00000e+00	1.00000e+00	1.00000e+00	1.00000e+00	1.00000e+00	1.00000e+00	1.00000e+00	1.00000e+00	1.00000e+00	1.00000e+00	1.00000e+00	1.00000e+00	X	X	X	X	X	X	X	X	X	X	X	X	X	X	X	X	

B = Detector Channel
Val Type	B-AC1	B-AC2	B-AC3	B-AC4	B-AC5	B-AC6	B-AC7	B-AC8	B-AC9	B-AC10	B-AC11	B-AC12	B-AC13	B-AC14	B-AC15	B-AC16	B-DC1	B-DC2	B-DC3	B-DC4	B-DC5	B-DC6	B-DC7	B-DC8	B-DC9	B-DC10	B-DC11	B-DC12	B-DC13	B-DC14	B-DC15	B-DC16	B-Ph1	B-Ph2	B-Ph3	B-Ph4	B-Ph5	B-Ph6	B-Ph7	B-Ph8	B-Ph9	B-Ph10	B-Ph11	B-Ph12	B-Ph13	B-Ph14	B-Ph15	B-Ph16	

Term	0.00000e+00	0.00000e+00	0.00000e+00	0.00000e+00	0.00000e+00	0.00000e+00	0.00000e+00	0.00000e+00	0.00000e+00	0.00000e+00	0.00000e+00	0.00000e+00	0.00000e+00	0.00000e+00	0.00000e+00	0.00000e+00	0.00000e+00	0.00000e+00	0.00000e+00	0.00000e+00	0.00000e+00	0.00000e+00	0.00000e+00	0.00000e+00	0.00000e+00	0.00000e+00	0.00000e+00	0.00000e+00	0.00000e+00	0.00000e+00	0.00000e+00	0.00000e+00	-1.52421e+02	-1.26321e+02	-1.29806e+02	-1.86538e+02	-8.17425e+01	-9.44387e+01	-1.58482e+02	-1.62015e+02	-7.12364e+01	-6.93310e+01	-1.71970e+02	-1.71209e+02	-1.83751e+02	-1.77240e+02	-8.25703e+01	-1.49604e+02	
Factor	2.27753e-05	1.29415e-04	3.73414e-05	2.99145e-01	1.07142e-06	1.26760e-06	1.64991e-01	5.09512e-02	1.01362e-06	1.41088e-06	8.41624e-02	2.77432e-02	4.04098e-02	8.88480e-03	1.04482e-06	1.27305e-02	1.79682e-06	1.89931e-06	5.29689e-07	1.50663e-01	2.07622e-08	2.08323e-08	7.96040e-02	2.61946e-02	2.06444e-08	2.08380e-08	4.16293e-02	1.37790e-02	2.05187e-02	4.56761e-03	2.07884e-08	6.31791e-03	X	X	X	X	X	X	X	X	X	X	X	X	X	X	X	X	



#DISTANCE SETTINGS
A = Detector Channel
A-1	A-2	A-3	A-4	A-5	A-6	A-7	A-8	A-9	A-10	A-11	A-12	A-13	A-14	A-15	A-16	

2.5000e+00	3.0000e+00	2.5000e+00	3.0000e+00	2.0000e+00	3.0000e+00	1.5000e+00	3.0000e+00	3.0000e+00	3.0000e+00	3.0000e+00	3.0000e+00	3.0000e+00	3.0000e+00	1.5000e+00	3.0000e+00	

B = Detector Channel
B-1	B-2	B-3	B-4	B-5	B-6	B-7	B-8	B-9	B-10	B-11	B-12	B-13	B-14	B-15	B-16	

1.0000e+01	1.0000e+01	1.0000e+01	1.4400e+00	1.0000e+01	1.0000e+01	1.5100e+00	1.9400e+00	1.0000e+01	1.0000e+01	1.9900e+00	2.4900e+00	2.4100e+00	2.9000e+00	1.0000e+01	2.9800e+00	




#DATA BEGINS
time	group	step	mark	flag	A-AC1	A-AC2	A-AC3	A-AC4	A-AC5	A-AC6	A-AC7	A-AC8	A-AC9	A-AC10	A-AC11	A-AC12	A-AC13	A-AC14	A-AC15	A-AC16	A-DC1	A-DC2	A-DC3	A-DC4	A-DC5	A-DC6	A-DC7	A-DC8	A-DC9	A-DC10	A-DC11	A-DC12	A-DC13	A-DC14	A-DC15	A-DC16	A-Ph1	A-Ph2	A-Ph3	A-Ph4	A-Ph5	A-Ph6	A-Ph7	A-Ph8	A-Ph9	A-Ph10	A-Ph11	A-Ph12	A-Ph13	A-Ph14	A-Ph15	A-Ph16	B-AC1	B-AC2	B-AC3	B-AC4	B-AC5	B-AC6	B-AC7	B-AC8	B-AC9	B-AC10	B-AC11	B-AC12	B-AC13	B-AC14	B-AC15	B-AC16	B-DC1	B-DC2	B-DC3	B-DC4	B-DC5	B-DC6	B-DC7	B-DC8	B-DC9	B-DC10	B-DC11	B-DC12	B-DC13	B-DC14	B-DC15	B-DC16	B-Ph1	B-Ph2	B-Ph3	B-Ph4	B-Ph5	B-Ph6	B-Ph7	B-Ph8	B-Ph9	B-Ph10	B-Ph11	B-Ph12	B-Ph13	B-Ph14	B-Ph15	B-Ph16	aux-1	digaux	

8693.200	1	1	0	256	0.059224	0.16857	0.013495	0.25558	0.062722	0.097362	0.13726	0.094378	0.12068	0.17414	0.32939	0.29333	0.21221	0.12512	0.096374	0.22238	-1.9729	-2.7875	-2.0667	-2.8	-2.6896	-2.1604	-2.9562	-2.4354	-2.1854	-3.0062	-2.2042	-2.4271	-2.8063	-2.1375	-2.8479	-2.5667	-133.730	131.837	-137.250	48.278	-114.486	-27.868	164.448	75.024	27.290	31.410	110.016	-129.537	57.847	30.799	-108.787	-71.219	0.00021338	0.00018675	6.931e-05	415.14	1.7014e-06	1.4942e-06	409.24	125.14	5.9315e-07	1.5211e-06	124.26	48.399	47.833	20.359	7.7075e-08	21.908	7.4733e-05	6.3108e-05	1.8001e-05	385.55	6.9246e-07	7.2683e-07	385.75	118.28	7.1903e-07	6.8214e-07	116.52	45.884	44.453	19.364	6.8732e-07	20.681	180.856	-84.828	-68.782	-160.772	-78.890	-128.402	-162.662	-155.654	-166.852	-19.605	-158.566	-155.625	-152.404	-149.761	-46.264	-153.200	-8191	255	
8693.296	1	1	0	0	0.26419	0.33201	0.13653	0.026591	0.085455	0.082017	0.039727	0.20478	0.12229	0.17427	0.040638	0.11961	0.1576	0.12962	0.18483	0.1279	-1.7875	-2.9979	-2.2083	-2.4208	-2.8812	-2.2646	-2.8417	-2.5479	-2.1063	-3	-2.4188	-2.3729	-2.9458	-2.3417	-2.7687	-2.7271	-143.846	-83.581	-31.075	128.896	95.202	93.177	-93.340	-127.724	69.038	140.958	-84.131	23.611	-43.070	123.646	176.391	-166.874	0.0002107	0.00019827	0.00011481	412.33	6.9339e-07	1.9901e-06	412.27	126.16	2.1775e-06	3.3874e-06	124.24	47.509	47.644	20.463	1.1419e-06	21.616	7.416e-05	6.0821e-05	1.7048e-05	385.53	6.7001e-07	6.7965e-07	387.39	119.21	6.6165e-07	6.1272e-07	117.02	45.236	44.185	19.251	6.3262e-07	20.417	173.577	-47.219	-71.097	-161.124	19.131	-5.488	-162.347	-156.030	-31.313	-45.217	-158.632	-155.313	-152.832	-149.929	-70.767	-153.546	-8191	255	
8693.415	1	1	0	0	0.080429	0.1819	0.27019	0.2232	0.20732	0.35874	0.1355	0.32881	0.15431	0.20061	0.18413	0.25874	0.15236	0.06238	0.25583	0.39091	-1.6417	-2.9917	-2.3542	-2.4271	-2.8312	-2.1417	-2.8833	-2.7938	-2.0271	-2.825	-2.425	-2.3479	-2.8875	-2.0792	-2.675	-2.7458	-133.340	70.712	130.974	-39.991	75.658	28.829	150.633	128.117	-143.170	77.106	172.853	142.269	171.676	-114.869	-57.217	5.991	0.00021529	0.00017961	8.261e-05	414.88	1.2087e-06	3.5208e-06	409.43	126.71	2.1016e-06	1.5916e-06	123.85	47.663	47.165	19.912	3.256e-06	20.977	6.8624e-05	5.453e-05	1.5212e-05	387.36	6.3022e-07	6.1533e-07	388.27	119.54	6.3486e-07	6.0092e-07	116.67	45.25	43.941	18.92	6.2045e-07	19.931	174.746	-54.196	-41.874	-160.840	-59.771	-1.713	-162.491	-156.303	-55.671	-126.909	-159.042	-155.289	-153.308	-149.799	-57.848	-152.655	-8191	255	
8693.511	1	1	0	0	0.26993	0.2441	0.26765	0.061465	0.14275	0.18816	0.29114	0.068087	0.13541	0.080429	0.286	0.34765	0.11753	0.17518	0.069788	0.07585	-1.9333	-2.9313	-2.6083	-2.3542	-2.9542	-2.1125	-2.6958	-3.05	-2.2438	-2.8417	-2.4875	-2.15	-3.0396	-2.3667	-2.6042	-2.9396	21.382	5.763	25.887	-15.687	-147.664	-26.754	140.140	32.480	10.814	99.948	-102.113	78.217	-116.718	93.900	-28.772	-138.692	0.00020982	5.325e-05	2.9404e-05	416.42	1.5332e-06	1.5696e-06	406.94	124.59	1.8985e-06	2.8132e-06	123.65	47.25	46.874	20.029	6.9019e-07	21.488	6.7781e-05	5.5598e-05	1.5532e-05	386.83	5.9908e-07	6.1941e-07	384.86	117.94	6.343e-07	5.8016e-07	115.88	44.601	43.59	18.967	6.0642e-07	20.187	182.809	-106.256	-116.190	-161.395	-108.380	1.288	-162.915	-156.048	-31.128	-0.133	-159.685	-155.528	-152.763	-149.878	-84.421	-153.259	-8191	255	
8693.607	1	1	0	0	0.19309	0.16837	0.081304	0.30408	0.025541	0.096948	0.2378	0.28003	0.26273	0.047128	0.32682	0.33832	0.14198	0.11953	0.092799	0.17638	-1.725	-2.9167	-2.5354	-2.1292	-2.8542	-2.3125	-2.4938	-3.0479	-1.9979	-2.8104	-2.825	-2.0896	-2.8125	-2.5354	-2.2542	-2.8542	-15.701	-121.815	-84.615	43.237	-12.015	109.346	-119.333	108.586	62.288	-19.381	87.388	91.329	140.024	-173.807	-42.737	118.571	0.00026184	0.00022593	7.6029e-05	407.95	2.4546e-06	1.5891e-06	406.91	126.22	1.6348e-06	8.0298e-07	124.41	47.756	46.877	20.407	1.6902e-06	21.781	6.7463e-05	5.5286e-05	1.4874e-05	384.86	5.7624e-07	6.0683e-07	384.22	119.16	5.8849e-07	5.7066e-07	116.32	44.837	43.732	19.299	6.1239e-07	20.64	172.983	-105.806	-70.647	-161.542	-10.617	-25.403	-162.865	-156.094	-8.894	-13.354	-159.023	-155.959	-152.651	-150.296	-34.726	-154.055	-8191	255	
8693.728	1	1	0	0	0.32666	0.086751	0.17236	0.13015	0.13886	0.16181	0.21585	0.27852	0.091579	0.074415	0.30378	0.27811	0.38578	0.30236	0.2123	0.19116	-1.6583	-2.8083	-2.6208	-2.1354	-2.7417	-2.5417	-2.4583	-3.0687	-2.2646	-2.6937	-2.9125	-2.2062	-2.9521	-2.6312	-2.1417	-3.0125	-46.171	39.083	-78.175	-135.569	130.387	-33.480	-92.637	-3.107	44.485	173.710	19.175	-111.593	124.654	179.751	95.110	170.421	0.00022935	0.00031228	4.9632e-05	411.97	4.7044e-07	8.0163e-07	410.34	126.89	2.9008e-06	1.0076e-06	125.62	47.95	47.518	20.293	2.4092e-06	21.82	6.5947e-05	5.36e-05	1.4469e-05	385.12	6.1897e-07	5.7545e-07	386.43	119.41	6.1611e-07	5.8485e-07	117.08	45.085	44.137	19.335	6.2543e-07	20.688	169.769	-125.491	-135.649	-161.061	-36.769	31.742	-162.363	-156.128	-53.331	-38.018	-158.933	-155.614	-152.274	-149.650	-110.949	-153.607	-8191	255	
8693.799	1	1	0	0	0.16933	0.33559	0.1884	0.12905	0.12175	0.26506	0.014932	0.058754	0.46657	0.22047	0.20514	0.17208	0.1749	0.30982	0.16356	0.059467	-1.9937	-2.5271	-2.8792	-2.1125	-2.8792	-2.7687	-2.3083	-2.9313	-2.3104	-2.3771	-2.85	-2.2271	-2.6646	-2.8083	-2.1542	-2.9917	-32.836	7.388	73.722	-102.823	-51.682	-23.987	-140.190	184.949	63.327	-47.376	-121.390	117.933	58.580	55.362	63.131	-2.651	0.00022246	0.00014888	7.1124e-05	413.19	2.4502e-06	2.6926e-06	416.11	126.24	2.8487e-06	1.4264e-06	125.59	48.223	48.137	20.509	1.303e-06	22.136	6.6984e-05	5.5491e-05	1.5183e-05	386	5.9817e-07	5.942e-07	388.09	119.38	6.1748e-07	6.0278e-07	117.96	45.594	44.597	19.451	6.6428e-07	20.896	182.401	-83.648	-93.847	-161.730	-112.993	-58.514	-162.753	-155.782	-26.614	9.583	-158.899	-155.499	-152.863	-150.051	-120.548	-153.315	-8191	255	
8693.895	1	1	0	0	0.10837	0.098695	0.23149	0.322	0.095416	0.10222	0.2241	0.36586	0.12155	0.14881	0.043791	0.094498	0.089031	0.26063	0.26285	0.15963	-1.9688	-2.3104	-3.0125	-2.1354	-2.6542	-2.6979	-2.2479	-2.9375	-2.4271	-2.2667	-3.0917	-2.3479	-2.6854	-2.7271	-2.1896	-2.9	-39.025	119.200	-151.749	48.416	-47.499	87.468	146.737	-60.734	54.993	-67.227	170.363	-85.158	-138.550	99.632	-99.766	100.760	0.00021641	0.00020168	3.8338e-05	409.82	1.5734e-06	1.2924e-06	410.82	126.5	1.9255e-06	3.7077e-06	123.92	48.532	47.526	20.593	2.0836e-06	22.444	6.5157e-05	5.5349e-05	1.5585e-05	383.92	6.0133e-07	6.1885e-07	387.19	119.43	6.4583e-07	6.6304e-07	116.91	45.573	44.544	19.674	6.4886e-07	21.032	176.809	-58.756	-102.970	-161.820	-76.040	-12.115	-162.760	-155.788	-76.007	24.628	-157.992	-155.461	-152.898	-150.017	-71.670	-153.896	-8191	255	
8694.016	1	1	0	0	0.3055	0.18292	0.17417	0.11761	0.10831	0.14256	0.1706	0.10616	0.1611	0.24306	0.062072	0.27368	0.083324	0.15028	0.24721	0.20468	-2.0812	-2.3896	-2.9792	-2.25	-2.6	-2.9125	-1.9562	-2.8792	-2.5458	-1.9917	-2.9625	-2.2438	-2.4562	-2.8333	-2.0479	-2.7625	80.190	52.131	104.645	166.632	-53.851	-29.365	148.386	-135.795	-147.808	71.733	160.609	77.182	-129.800	122.981	91.752	44.341	0.00026695	0.00020075	4.6217e-05	410.43	1.3815e-06	2.1893e-06	402.77	125.98	1.2312e-06	2.7447e-06	124.03	48.165	47.496	20.591	2.5309e-06	22.271	6.8156e-05	5.5503e-05	1.5993e-05	382.84	6.1556e-07	6.1351e-07	382.79	118.87	6.0316e-07	6.0604e-07	116.89	45.212	44.337	19.594	6.2829e-07	20.928	174.591	-86.468	185.742	-161.251	-46.896	-42.300	-162.353	-155.963	-42.141	-8.467	-159.247	-156.133	-153.030	-150.094	-96.478	-153.696	-8191	255	
8694.111	1	1	0	0	0.12982	0.15699	0.14693	0.15067	0.16194	0.37983	0.052227	0.057919	0.42662	0.31775	0.10901	0.24297	0.1482	0.060071	0.071601	0.3468	-2.1167	-2.0083	-2.75	-2.3521	-2.3063	-2.8771	-2.1771	-2.5979	-2.5354	-2.075	-2.9375	-2.4583	-2.3729	-2.9104	-1.9937	-2.6458	-122.612	-27.231	25.264	128.421	163.580	55.124	126.054	-141.451	-46.204	-97.598	97.035	-125.630	69.632	49.372	85.670	175.761	0.00027891	0.00041429	6.4696e-05	412.42	1.0853e-06	1.6817e-06	405.29	124.97	1.9019e-06	1.9356e-06	124.26	47.334	47.234	20.475	2.2641e-06	22.043	6.4794e-05	5.6552e-05	1.5379e-05	382.27	5.983e-07	6.1759e-07	384.78	118.91	6.3473e-07	6.5353e-07	117.28	45.134	44.424	19.466	6.2707e-07	20.901	174.904	-108.083	-140.921	-161.209	-38.388	-130.595	-162.707	-155.372	-54.611	27.358	-158.616	-156.174	-153.012	-149.923	-80.419	-153.380	-8191	255	
8694.207	1	1	0	0	0.13475	0.27149	0.10081	0.2308	0.13868	0.068136	0.14014	0.4278	0.021293	0.16432	0.14233	0.26887	0.16096	0.17289	0.20918	0.055943	-2.4688	-1.9896	-2.9562	-2.4042	-2.2396	-3.0354	-2.1979	-2.7021	-2.7458	-2.1562	-2.8667	-2.5479	-2.2021	-2.9521	-2.2083	-2.4771	-25.549	13.537	-72.790	150.461	-150.212	-61.041	127.866	155.246	28.261	16.564	-97.921	43.593	-45.450	108.875	11.425	90.443	0.00026574	0.00034352	4.607e-05	409.77	7.155e-07	8.1935e-08	407.05	125.47	1.2689e-06	2.911e-06	124.75	48.13	46.816	20.568	1.3207e-06	21.889	6.7201e-05	5.9555e-05	1.539e-05	384.2	6.2585e-07	6.1993e-07	385.42	119.6	6.1202e-07	5.9957e-07	117.11	45.27	44.128	19.421	6.101e-07	20.713	175.972	-95.658	-78.927	-160.955	-57.069	-104.624	-162.789	-155.796	-71.757	-35.966	-158.663	-155.698	-152.259	-150.179	-80.236	-152.854	-8191	255	
8694.327	1	1	0	0	0.22799	0.20239	0.13588	0.22922	0.18982	0.17535	0.24274	0.14074	0.069592	0.13858	0.082765	0.050057	0.23131	0.12392	0.19767	0.053	-2.3708	-2.0042	-2.7854	-2.5708	-2.1646	-2.9688	-2.4375	-2.5187	-2.8625	-2.2292	-2.5917	-2.7458	-2.0979	-3.05	-2.4875	-2.2812	2.653	117.416	-146.555	-172.422	178.821	-142.778	110.148	144.230	85.226	-66.944	-22.895	168.958	90.635	167.478	-103.338	85.325	0.00026923	0.00019105	9.0402e-05	411.71	2.1109e-06	1.6406e-06	409.11	125.07	1.9614e-06	1.6382e-06	123.7	47.014	46.485	19.766	1.7308e-06	21.051	6.807e-05	5.5856e-05	1.432e-05	384.91	6.1166e-07	5.6833e-07	386.51	118.7	6.1426e-07	6.1181e-07	116.48	44.511	43.32	18.735	5.8415e-07	19.834	178.743	-75.482	-65.466	-161.148	-67.694	-6.559	-162.662	-155.669	-133.391	14.151	-158.398	-155.488	-152.985	-149.997	-27.896	-152.980	-8191	255	
8694.423	1	1	0	0	0.22966	0.2298	0.3569	0.21392	0.20965	0.34927	0.018851	0.1662	0.17437	0.22244	0.11287	0.21349	0.15605	0.20056	0.18152	0.023234	-2.6167	-2.0104	-2.5104	-2.7875	-2.1833	-2.9833	-2.5104	-2.2583	-3.0833	-2.225	-2.6333	-2.7854	-2.1083	-2.9375	-2.4313	-2.2146	141.675	146.165	134.820	90.683	154.008	90.523	34.961	49.348	-85.166	73.187	-138.923	122.054	8.143	-59.355	-9.373	33.615	0.00026004	7.4043e-05	5.3553e-05	409.16	1.5719e-06	3.789e-06	403.95	123.98	2.1013e-06	3.9889e-06	121.83	46.22	45.827	19.21	1.8024e-06	20.49	6.5183e-05	5.2306e-05	1.4069e-05	383.39	5.9324e-07	5.7102e-07	384.02	117.48	5.9426e-07	5.7517e-07	115.07	43.82	42.751	18.339	6.2456e-07	19.375	172.477	-31.451	-102.443	-161.556	-71.706	-76.286	-162.747	-155.678	-8.767	-14.409	-158.787	-155.523	-152.372	-149.294	-8.488	-152.505	-8191	255	
8694.495	1	1	0	0	0.2418	0.14465	0.036741	0.27698	0.18516	0.21507	0.050812	0.25141	0.28884	0.14927	0.15863	0.36314	0.086397	0.20417	0.18477	0.28086	-2.3458	-2.1542	-2.5687	-2.9667	-2.3271	-2.9354	-2.7625	-2.1208	-2.6979	-2.1708	-2.4896	-3.0208	-2.1188	-2.9354	-2.6229	-2.2375	148.933	-47.735	116.212	-44.932	-65.625	-65.508	-128.338	87.492	146.984	-109.386	-135.340	-98.246	-92.934	148.029	-74.919	126.024	0.00020463	0.00016212	7.6537e-05	408.21	1.555e-06	2.5032e-06	403.76	122.31	1.2069e-06	1.3293e-06	121.37	46.144	45.034	18.945	1.9993e-06	20.383	6.2784e-05	5.2939e-05	1.4506e-05	381.46	5.8472e-07	5.5857e-07	382.59	116.72	5.8497e-07	5.6749e-07	114.62	43.711	42.203	18.082	5.9897e-07	19.188	180.359	-86.918	-49.470	-160.729	-101.995	-94.654	-162.293	-156.047	-9.449	-30.400	-158.495	-156.335	-153.024	-149.550	-29.945	-152.971	-8191	255	
8694.591	1	1	0	0	0.032624	0.1159	0.04217	0.11173	0.023174	0.13867	0.10063	0.25119	0.07324	0.15198	0.061874	0.2428	0.1316	0.27534	0.13043	0.32056	-2.4479	-2.3042	-2.5083	-2.9396	-2.0646	-2.775	-2.6271	-2.1937	-2.9688	-2.2875	-2.3042	-2.8167	-2.2687	-2.6937	-2.725	-2.0979	-43.414	73.114	114.911	132.077	-135.851	158.875	134.759	51.911	156.312	27.768	61.538	134.012	138.469	-43.269	-22.536	173.706	0.00021709	0.00013041	6.3102e-05	404.59	1.2619e-06	1.543e-06	403.65	122.42	6.9003e-07	1.3388e-06	121.17	46.027	44.583	18.877	2.0872e-06	20.458	6.1126e-05	5.2935e-05	1.5028e-05	381.89	6.2875e-07	5.7363e-07	382.19	116.39	6.1013e-07	6.0239e-07	114.55	43.78	42.137	18.077	5.7653e-07	19.323	179.277	-87.208	58.092	-161.051	-12.084	-3.892	-162.240	-155.732	4.520	-50.129	-158.099	-155.444	-152.568	-148.995	-44.653	-152.623	-8191	255	
8694.687	1	1	0	0	0.089191	0.11953	0.027245	0.054311	0.086868	0.18055	0.14649	0.17429	0.42494	0.25725	0.30919	0.059353	0.024362	0.098919	0.049041	0.034396	-2.5458	-2.2646	-2.1063	-2.7875	-2.2438	-2.5979	-2.8438	-1.8583	-2.775	-2.1167	-2.2	-2.8146	-2.1417	-2.4021	-2.825	-2.2104	141.315	-158.710	-38.201	-22.800	-34.179	59.696	76.891	141.923	-119.520	47.749	-137.668	42.243	-132.791	145.617	135.362	3.868	0.00023145	0.00010339	1.0283e-05	410.76	5.502e-07	1.3114e-06	400.88	123.38	8.8039e-07	2.9222e-06	121.83	45.957	45.381	19.166	9.2983e-07	20.445	6.1818e-05	5.1024e-05	1.5019e-05	383.17	5.8519e-07	5.9242e-07	383.89	117.25	5.8037e-07	5.638e-07	114.77	43.868	42.338	18.127	5.9446e-07	19.316	171.537	-113.644	-33.451	-160.887	-17.575	-15.070	-162.673	-155.802	-38.323	-78.174	-158.072	-155.249	-152.934	-149.116	-12.760	-152.645	-8191	255	
8694.808	1	1	0	0	0.15836	0.17471	0.21776	0.060115	0.13025	0.054468	0.090178	0.18923	0.038304	0.10224	0.11138	0.28285	0.082586	0.082835	0.021231	0.17461	-2.5187	-2.5375	-2.1229	-2.9229	-2.3229	-2.6562	-2.9479	-2.2458	-2.7646	-2.575	-2.1479	-3.0104	-2.3479	-2.575	-2.9021	-2.1146	-103.599	65.390	-65.638	132.115	-167.646	-119.460	123.242	46.874	17.111	-31.162	115.502	183.142	140.291	-84.974	78.571	179.229	0.00023389	0.00024482	0.00010711	409.8	2.3718e-06	3.7926e-06	402.34	122.83	1.7069e-06	7.3549e-07	121.51	45.864	44.415	18.743	7.9948e-07	20.021	6.1934e-05	5.2235e-05	1.4671e-05	382.36	5.5474e-07	5.9945e-07	382.72	116.4	5.6187e-07	5.5577e-07	114.28	43.497	41.785	17.924	6.1127e-07	19.046	173.742	-49.900	-147.148	-160.705	-46.667	-112.527	-162.426	-155.453	-45.217	-135.019	-158.667	-155.524	-153.009	-149.140	28.181	-153.396	-8191	255	
8694.904	1	1	0	0	0.25386	0.19576	0.18102	0.27349	0.25842	0.20872	0.13385	0.099092	0.17746	0.19264	0.097947	0.27508	0.084882	0.18356	0.11329	0.13574	-2.1583	-2.6771	-1.975	-2.7188	-2.4333	-2.2458	-2.8667	-2.25	-2.6875	-2.7375	-1.9208	-2.9208	-2.4104	-2.35	-3.0271	-2.175	115.109	102.045	149.974	-82.760	-131.823	-106.702	155.078	136.797	-133.916	-87.385	98.576	18.757	-64.536	127.706	139.477	21.292	0.00026373	0.0002754	5.8476e-05	402.54	1.7454e-06	1.5772e-06	397.81	122.01	1.1581e-06	2.8128e-06	120.47	45.777	44.362	18.683	1.8562e-06	20.093	6.2743e-05	5.4443e-05	1.528e-05	379.4	5.8459e-07	5.8452e-07	380.95	116.27	6.0011e-07	5.7921e-07	113.62	43.427	41.798	17.894	5.7684e-07	19.06	179.652	-138.893	-113.542	-160.737	-23.593	-131.672	-162.549	-155.791	-26.842	-48.086	-158.778	-155.483	-152.722	-148.868	26.242	-152.472	-8191	255	
8695.000	1	1	0	0	0.21705	0.04318	0.19222	0.14383	0.17004	0.12641	0.14317	0.16639	0.14984	0.18148	0.11033	0.086457	0.25128	0.24533	0.18999	0.18611	-2.2583	-2.7812	-2.1854	-2.8812	-2.3208	-2.1937	-2.8937	-2.1917	-2.3729	-2.8771	-2.0125	-2.7417	-2.5375	-2.1417	-2.9979	-2.3729	113.461	141.869	-170.808	-45.666	145.833	68.469	177.267	157.704	67.749	-66.454	-62.392	-108.150	123.604	-169.668	44.460	76.258	0.00022496	0.00026598	4.1481e-06	407.36	2.1159e-06	2.2783e-07	413.04	125.02	2.9467e-06	1.4109e-06	125.21	47.476	46.812	19.397	1.5424e-06	20.843	6.1972e-05	5.4047e-05	1.4731e-05	380.19	5.8969e-07	5.9181e-07	385.75	116.96	6.0535e-07	5.934e-07	115.39	44.146	42.607	18.158	5.8667e-07	19.396	171.779	-67.795	169.552	-161.182	-76.700	93.681	-162.661	-156.050	-35.539	-85.538	-158.263	-155.660	-153.141	-149.909	-94.260	-153.575	-8191	255	
8695.096	1	1	0	0	0.092054	0.16965	0.30021	0.06653	0.20357	0.15391	0.27496	0.1339	0.12445	0.23173	0.13102	0.14688	0.17868	0.056576	0.1973	0.24178	-1.9667	-2.7042	-1.975	-2.8208	-2.6479	-2.3	-2.6958	-2.3458	-2.2958	-2.9333	-2.0479	-2.5438	-2.7062	-2.0833	-2.7938	-2.4542	145.344	30.092	53.049	110.437	-79.084	-116.342	141.277	131.380	140.313	112.123	-21.043	-53.685	-147.374	-170.805	170.702	149.680	0.00018626	0.00015938	1.28e-05	417.67	1.4825e-06	2.0271e-06	420.7	126.86	1.6677e-06	1.5724e-06	125.43	47.808	46.615	19.607	2.73e-06	21.34	6.2645e-05	5.1511e-05	1.5432e-05	384.37	5.6616e-07	5.912e-07	389.23	117.89	6.2174e-07	5.7283e-07	116.26	44.359	42.841	18.269	5.7385e-07	19.706	173.319	34.399	185.664	-161.051	-96.777	-68.695	-162.538	-156.056	-105.266	-82.638	-159.190	-156.050	-152.963	-149.355	-26.779	-153.206	-8191	255	
8695.193	1	1	0	0	0.22781	0.10655	0.26848	0.15516	0.19941	0.22514	0.22446	0.095009	0.19428	0.058159	0.17058	0.11483	0.32686	0.22561	0.31588	0.1233	-1.725	-3.0646	-2.2146	-2.5083	-3	-2.1167	-2.9833	-2.6625	-2.2229	-2.9729	-2.3708	-2.5	-2.6979	-2.1688	-2.9354	-2.7854	3.655	-73.368	149.078	156.252	-143.974	157.892	-113.557	120.847	-92.268	-90.808	82.322	40.433	105.070	150.762	-6.567	-118.622	0.00025332	0.00023037	5.3522e-05	419.93	1.1058e-06	6.0018e-07	418.53	127.35	2.5745e-06	8.7049e-07	127.28	48.576	47.209	19.877	2.1781e-06	21.121	6.5479e-05	5.29e-05	1.5039e-05	384.64	5.7464e-07	6.0392e-07	388.22	118.41	6.2217e-07	5.8138e-07	116.77	44.887	43.014	18.507	5.6376e-07	19.745	179.145	-111.898	-157.555	-161.064	-79.932	-154.506	-163.079	-156.332	-71.266	-109.976	-158.826	-155.977	-152.815	-150.098	-28.217	-153.359	-8191	255	
8695.289	1	1	0	0	0.32775	0.20733	0.067486	0.18924	0.062285	0.092902	0.15625	0.054145	0.036078	0.31094	0.32917	0.074174	0.26893	0.11324	0.12466	0.16042	-1.6667	-2.9125	-2.2229	-2.35	-2.9208	-2.1312	-2.9708	-2.8937	-2.0854	-2.9917	-2.4354	-2.3771	-2.8083	-2.1604	-2.6083	-2.5812	129.942	-122.223	166.216	151.874	-16.672	50.648	181.214	-78.020	-84.661	1.386	95.158	-2.630	82.840	131.547	44.513	98.654	0.00024463	3.1603e-05	5.4402e-05	425.61	3.1929e-06	2.1754e-06	417.24	128.93	2.5661e-06	4.6175e-07	127	47.945	47.682	20.198	2.485e-06	21.716	6.5741e-05	5.3196e-05	1.4465e-05	386.25	6.1633e-07	5.7927e-07	387.6	119.49	5.9821e-07	5.8511e-07	116.91	44.749	43.497	18.788	5.716e-07	20.127	177.289	-162.873	-126.767	-161.612	-54.963	-70.106	-162.679	-156.546	-19.364	-66.997	-159.377	-155.867	-152.705	-149.771	-61.085	-153.174	-8191	255	
8695.408	1	1	0	0	0.12009	0.32577	0.20908	0.12535	0.16183	0.30747	0.15781	0.19961	0.2417	0.19329	0.077079	0.22051	0.18069	0.14709	0.020022	0.14518	-1.85	-2.8854	-2.2229	-2.2021	-2.9083	-2.2792	-2.725	-3.0104	-2.1688	-3.0229	-2.3417	-2.4792	-2.9708	-2.3854	-2.4333	-2.8667	112.257	-43.960	81.843	22.272	58.136	-167.033	-168.153	31.285	-93.844	-131.640	-169.288	-124.982	-157.062	14.467	-156.997	-173.742	0.00020979	0.00027246	2.8596e-05	421.39	2.5143e-06	2.9193e-06	419.85	127.89	1.6647e-06	2.2867e-06	128.57	48.656	47.85	20.474	6.4943e-07	22.14	6.5153e-05	5.193e-05	1.4675e-05	386.47	5.7269e-07	5.8348e-07	389.06	119.62	6.1998e-07	5.3237e-07	118.04	45.139	43.792	19.08	6.0196e-07	20.398	182.373	-96.200	-75.761	-161.723	-42.898	-9.242	-162.481	-156.235	-75.458	-16.137	-158.855	-156.392	-153.205	-149.988	-7.428	-153.870	-8191	255	
8695.504	1	1	0	0	0.2606	0.14034	0.30146	0.26871	0.16849	0.14001	0.17493	0.12778	0.22516	0.073242	0.098959	0.22555	0.096965	0.12887	0.050944	0.13614	-1.775	-2.8812	-2.5667	-2.2583	-2.8812	-2.1896	-2.5271	-2.8646	-2.1833	-2.7417	-2.4479	-2.2896	-3.0083	-2.3167	-2.3688	-3.0292	134.265	178.400	-122.203	-139.771	-130.097	19.837	183.493	-12.994	-50.931	-21.508	-153.532	183.767	-55.479	-97.958	-160.354	-20.316	0.00021709	0.00015602	9.8597e-05	423.72	1.7768e-06	2.6671e-06	420.22	129.65	2.7734e-06	3.2353e-06	129.27	49.302	48.2	20.455	1.8574e-06	22.133	6.4461e-05	5.0664e-05	1.3732e-05	387.6	5.4111e-07	5.498e-07	389.71	120.19	5.9551e-07	5.3831e-07	119.18	45.457	44.238	19.157	5.8151e-07	20.535	179.801	-65.706	-78.376	-161.386	15.421	-118.178	-162.951	-156.000	-88.085	-70.094	-158.928	-155.820	-153.178	-150.136	129.274	-153.174	-8191	255	
8695.600	1	1	0	0	0.039294	0.18622	0.17704	0.097587	0.10181	0.096643	0.16116	0.16179	0.23739	0.043582	0.041544	0.20683	0.30971	0.013607	0.17	0.12988	-1.6042	-2.9229	-2.6208	-2.1458	-2.7958	-2.2458	-2.2875	-2.9271	-2.1521	-2.6542	-2.7729	-2.1625	-2.8042	-2.2438	-2.1708	-2.9396	114.658	-118.892	-136.545	-170.560	-49.791	101.263	176.441	4.019	38.224	108.975	-153.463	66.294	-170.775	50.036	-142.168	-47.296	0.00028113	0.00010648	1.9303e-05	424.68	8.9802e-07	1.281e-06	418.01	128.92	8.0345e-07	2.2236e-06	127.57	49.387	48.46	20.739	1.671e-06	22.099	6.6018e-05	5.3948e-05	1.5176e-05	387.76	5.967e-07	6.0349e-07	390.73	120.45	6.3963e-07	5.9601e-07	118.64	46.063	44.443	19.281	6.6969e-07	20.527	181.205	-69.612	-131.840	-161.346	-8.776	-35.871	-162.559	-156.075	-38.164	13.031	-158.948	-156.487	-153.055	-149.810	-72.234	-153.084	-8191	255	
8695.696	1	1	0	0	0.11862	0.44926	0.20385	0.2336	0.18683	0.026081	0.17166	0.30235	0.032548	0.16989	0.21507	0.021705	0.060098	0.21461	0.15148	0.038567	-1.7896	-2.7208	-2.8438	-2.1604	-2.7583	-2.6125	-2.4271	-3.0042	-2.1854	-2.6562	-2.8271	-2.0438	-2.7667	-2.5583	-2.35	-2.8042	-114.908	179.755	-100.423	-120.570	-42.169	-128.920	70.234	106.073	-158.404	-67.700	131.888	135.896	74.497	-132.568	36.901	-151.429	0.00024621	0.00021405	6.5588e-06	421.44	9.8255e-07	2.4605e-06	409.25	127.47	1.7142e-06	2.7263e-06	127.13	48.692	48.259	20.372	9.7146e-07	21.859	6.783e-05	5.6437e-05	1.545e-05	385.98	5.9086e-07	6.1204e-07	385.68	119.31	5.9611e-07	5.7608e-07	117.32	45.371	44.052	19.16	6.5709e-07	20.384	172.679	-43.128	162.615	-161.145	-138.834	-61.319	-162.643	-156.099	-71.411	-22.302	-159.098	-155.635	-153.255	-149.700	4.408	-153.452	-8191	255	
8695.792	1	1	0	0	0.070249	0.078031	0.03282	0.11047	0.31374	0.10024	0.2246	0.26111	0.23581	0.11019	0.090167	0.13011	0.27399	0.20384	0.13878	0.11966	-1.9125	-2.4354	-3.0417	-2.1771	-2.85	-2.6458	-2.2458	-2.9062	-2.2479	-2.3229	-3.0062	-2.0292	-2.8187	-2.6083	-2.175	-2.825	-84.539	-102.604	-0.836	-89.731	123.750	-170.165	77.470	51.708	-111.347	-84.236	136.098	1.794	90.007	68.427	-124.858	-148.628	0.0002229	0.00030821	4.4211e-05	414.08	1.9046e-06	2.7163e-06	413.06	127.2	4.5297e-07	9.8527e-07	125.69	48.453	47.626	20.147	2.7967e-06	21.768	6.5472e-05	5.5309e-05	1.5048e-05	382.32	5.7974e-07	5.7749e-07	385.97	119.13	5.6531e-07	6.2358e-07	117.26	45.212	43.712	19.045	6.1724e-07	20.291	179.670	-119.949	-106.667	-161.269	-93.433	-0.861	-162.618	-156.019	-161.648	-57.054	-158.715	-156.098	-152.843	-149.433	-54.886	-153.489	-8191	255	
8695.888	1	1	0	0	0.15581	0.13082	0.039678	0.16929	0.21127	0.15652	0.24262	0.065739	0.15575	0.11974	0.28342	0.18529	0.091657	0.20244	0.11347	0.27103	-2.1604	-2.2771	-3.0083	-2.1625	-2.7604	-2.8292	-2.0625	-2.9708	-2.5521	-2.1833	-3.0229	-2.2083	-2.5583	-2.8667	-1.9667	-2.825	-138.975	120.905	-147.117	81.887	125.457	-87.988	153.462	48.957	140.607	-145.902	-159.417	140.401	75.463	96.215	-92.562	96.296	0.00025903	0.00015805	2.4564e-05	415.03	1.0398e-06	1.7985e-06	412.48	128.15	1.553e-06	1.5317e-06	126.62	48.679	47.471	20.139	2.9367e-06	21.842	6.6033e-05	5.5207e-05	1.4818e-05	384.06	5.8312e-07	5.6386e-07	385	119.55	6.0578e-07	6.1541e-07	118.11	45.566	43.973	18.961	6.2088e-07	20.373	177.634	-110.352	-127.769	-161.201	-32.033	-74.621	-162.522	-156.125	38.415	151.988	-158.835	-155.917	-152.883	-149.609	-60.261	-152.939	-8191	255	
8695.985	1	1	0	0	0.22707	0.07229	0.0095217	0.25264	0.058968	0.13423	0.069378	0.17709	0.15348	0.16973	0.17723	0.20633	0.069697	0.17895	0.37851	0.071871	-2.1312	-2.2417	-2.7729	-2.3333	-2.5083	-2.6937	-2.1542	-2.6354	-2.6229	-2.1562	-2.9792	-2.1042	-2.375	-2.8604	-2.25	-2.8229	-151.748	-97.958	-29.948	156.692	62.336	-52.717	-104.495	3.244	-91.940	97.245	180.328	-53.278	145.447	119.174	-134.693	148.559	0.00021242	0.00050901	0.00010422	415.41	5.2258e-07	3.3639e-06	412.62	127.54	2.4637e-06	1.5966e-06	127.3	48.822	47.05	20.35	1.1361e-06	21.742	6.4764e-05	5.6303e-05	1.5093e-05	383.86	6.0301e-07	5.728e-07	387.55	119.33	6.1602e-07	6.0174e-07	117.87	45.688	43.763	19.051	6.3461e-07	20.293	181.732	-76.334	-60.661	-161.593	-132.866	-89.161	-162.808	-155.759	-62.625	-74.329	-158.963	-156.020	-152.792	-149.693	-9.847	-152.856	-8191	255	
8696.103	1	1	0	0	0.30937	0.097816	0.2366	0.19915	0.14103	0.32757	0.036285	0.24304	0.1925	0.15455	0.32387	0.058128	0.077427	0.08397	0.10877	0.17226	-2.1875	-2.0708	-2.8146	-2.0479	-2.2083	-2.7729	-2.1063	-2.7167	-2.6562	-2.0438	-2.8688	-2.3583	-2.1521	-2.8688	-2.1417	-2.5354	-157.848	-92.750	-147.187	-147.668	-60.298	-156.844	-149.357	-7.134	-115.661	-77.567	54.536	153.386	50.177	-113.766	93.647	66.870	0.00023518	0.00022328	0.00010327	416.55	1.4854e-06	1.8426e-06	413.09	128.03	1.6273e-06	5.19e-07	125.71	48.581	47.313	20.233	1.7563e-06	21.8	6.5108e-05	5.5167e-05	1.4988e-05	384.11	6.2797e-07	5.6022e-07	386.59	119.47	6.0527e-07	5.9375e-07	117.24	45.315	43.937	19.066	6.2227e-07	20.369	171.963	-101.199	-57.917	-161.519	-24.527	-75.543	-162.423	-155.858	-70.383	-122.081	-158.596	-155.745	-152.591	-149.895	-100.688	-153.195	-8191	255	
8696.200	1	1	0	0	0.14456	0.023058	0.070291	0.12388	0.16549	0.11753	0.086915	0.2628	0.14085	0.11736	0.11139	0.35969	0.12614	0.074734	0.070769	0.13575	-2.2979	-2.1521	-2.6854	-2.4917	-2.1333	-2.9583	-2.3125	-2.4896	-2.725	-2.2042	-2.625	-2.6792	-2.1375	-2.7583	-2.225	-2.4062	38.400	39.395	58.783	184.608	-44.287	99.881	112.297	136.092	161.613	-163.720	-64.709	112.434	-158.893	138.169	-32.955	-107.935	0.00024117	0.00038312	3.4903e-05	413.25	7.043e-07	1.9857e-06	415.09	127.69	1.6874e-06	1.7087e-06	126.96	48.556	47.717	20.457	1.9504e-06	21.85	6.4685e-05	5.6188e-05	1.4506e-05	383.01	6.0712e-07	5.7918e-07	386.83	119.47	6.0888e-07	6.1555e-07	117.68	45.51	43.974	19.217	5.9225e-07	20.481	185.462	-106.832	-33.149	-161.433	-99.752	26.164	-163.270	-155.540	-46.520	-104.470	-158.846	-155.780	-152.681	-149.868	-95.984	-153.965	-8191	255	
8696.296	1	1	0	0	0.18649	0.22509	0.11378	0.16836	0.16165	0.22286	0.12118	0.27613	0.10373	0.11481	0.1241	0.17588	0.14801	0.17844	0.088868	0.27497	-2.4542	-2.0271	-2.7771	-2.8438	-2.0187	-2.8604	-2.2271	-2.3667	-2.7854	-2.05	-2.6896	-2.7646	-1.9292	-2.9625	-2.2917	-2.1333	124.284	-98.344	16.567	119.185	32.096	155.983	107.890	59.272	-142.444	-60.704	49.208	-20.767	14.675	119.383	149.396	32.831	0.00023921	0.00013469	4.6083e-05	419.09	1.9651e-06	1.3388e-06	414.01	127.62	2.2371e-06	1.742e-06	128.27	49.105	48.696	20.651	1.7178e-06	22.162	6.4929e-05	5.6101e-05	1.4838e-05	384.54	6.1967e-07	5.8009e-07	386.43	119.66	6.4114e-07	6.1741e-07	118.51	45.934	44.519	19.368	6.0862e-07	20.752	185.704	182.874	-57.369	-161.198	3.198	-109.826	-162.128	-156.200	-4.068	-113.200	-158.557	-156.413	-153.065	-150.573	-39.409	-153.110	-8191	255	
8696.369	1	1	0	0	0.20642	0.13142	0.24393	0.16574	0.15061	0.11108	0.16544	0.089746	0.054254	0.12242	0.21803	0.20644	0.17307	0.036098	0.15503	0.25807	-2.5146	-2.0771	-2.4729	-2.5563	-2.0583	-2.65	-2.4146	-2.1667	-2.9375	-1.9708	-2.4521	-2.7458	-1.8729	-2.975	-2.4979	-2.425	-2.937	5.557	-128.933	-138.557	-94.848	154.039	-78.446	-83.720	-140.472	-154.238	-164.267	-96.665	78.253	71.666	-91.266	-58.300	0.00024011	0.00030555	4.9679e-05	416.98	1.8508e-06	7.3235e-07	415.95	128.11	7.7791e-07	7.6966e-07	128.06	49.923	48.664	20.794	9.9305e-07	22.241	6.7119e-05	5.889e-05	1.629e-05	385.38	6.5924e-07	5.8981e-07	388.13	119.94	6.4725e-07	6.1711e-07	119.08	46.33	44.707	19.431	6.2019e-07	20.817	180.656	-73.997	-95.577	-161.351	-34.418	-69.029	-162.531	-155.874	-71.419	-72.993	-158.575	-155.769	-152.980	-150.272	-112.433	-153.279	-8191	255	
8696.488	1	1	0	0	0.090174	0.36007	0.026869	0.1668	0.17016	0.14608	0.13772	0.22965	0.079555	0.12123	0.22685	0.0064	0.074235	0.18985	0.15988	0.15802	-2.5083	-2.2	-2.4042	-2.8771	-2.1521	-2.8833	-2.6833	-2.4	-2.9562	-2.4562	-2.3479	-2.8896	-2.0563	-2.8063	-2.5396	-2.1	108.804	116.624	92.983	119.904	146.610	78.704	132.497	76.898	112.590	179.823	-49.414	-88.407	17.788	89.007	-142.215	60.623	0.00026995	0.00026541	7.0759e-05	419.86	1.8258e-06	2.9439e-06	414.33	126.75	2.7616e-06	2.5714e-06	127.37	49.323	47.944	20.905	4.6593e-07	22.409	6.7242e-05	5.8348e-05	1.5803e-05	386.42	6.3939e-07	5.9233e-07	388.05	119.98	6.3219e-07	6.3664e-07	118.61	46.304	44.423	19.529	6.4851e-07	20.902	175.030	-67.730	-123.665	-161.558	-81.841	-66.187	-162.121	-156.069	-12.271	-13.017	-158.118	-155.817	-152.947	-150.513	104.041	-153.520	-8191	255	
8696.584	1	1	0	0	0.07044	0.19204	0.063549	0.13408	0.14862	0.021995	0.19293	0.3241	0.12624	0.10144	0.13084	0.14447	0.18019	0.021481	0.092812	0.080957	-2.6167	-2.4938	-2.1458	-2.9146	-1.9646	-2.6771	-2.7271	-2.3063	-2.8604	-2.4208	-2.3479	-2.975	-1.9813	-2.6083	-2.9354	-2.1875	-51.016	138.565	-2.034	176.907	-129.390	-134.347	80.233	129.982	-133.574	78.580	7.565	-3.125	-150.136	105.798	-123.055	106.654	0.00023881	0.00018712	5.1402e-05	419.95	1.0969e-06	1.7168e-06	415.29	128.46	1.7072e-06	1.3221e-06	127.95	49.892	48.765	20.958	1.2867e-06	22.462	6.2589e-05	5.6536e-05	1.5917e-05	385.15	6.2265e-07	5.9906e-07	387.74	120.15	5.9503e-07	6.3378e-07	119.4	46.362	44.943	19.701	6.3712e-07	21.106	172.429	-67.401	-138.518	-161.760	-15.824	-41.421	-162.901	-155.785	-76.141	-20.806	-158.703	-155.565	-152.866	-149.981	-39.452	-153.413	-8191	255	
8696.680	1	1	0	0	0.10317	0.15821	0.294	0.46577	0.23102	0.12155	0.20854	0.3501	0.061987	0.0047402	0.149	0.18814	0.33269	0.028898	0.20052	0.19342	-2.3479	-2.4688	-2.075	-2.9417	-2.2354	-2.4583	-2.6354	-2.1583	-2.8042	-2.4875	-2.1813	-2.8917	-2.4271	-2.4167	-2.8646	-2.1229	102.880	35.912	48.620	164.041	70.187	106.956	-144.214	146.615	83.135	16.685	-42.231	144.448	49.578	-64.843	145.214	-54.810	0.00029954	0.00011831	3.4308e-05	417.59	8.4568e-07	5.8341e-07	418.75	130.14	1.5451e-06	3.4309e-06	129.97	50.607	49.133	21.357	2.5162e-06	22.954	6.8395e-05	5.9057e-05	1.5757e-05	385.01	5.8554e-07	6.0826e-07	388.73	121.23	6.1267e-07	6.2905e-07	120.11	46.96	45.126	19.921	6.2183e-07	21.408	175.136	-74.821	-23.102	-161.664	-67.895	-54.959	-162.680	-156.024	-50.276	-40.526	-159.443	-155.762	-153.261	-150.040	-85.290	-153.447	-8191	255	
8696.776	1	1	0	0	0.11958	0.070355	0.208	0.072201	0.22785	0.13943	0.18347	0.12895	0.11985	0.19019	0.13022	0.23586	0.16458	0.19491	0.10523	0.20622	-2.1917	-2.6646	-2.1542	-2.9354	-2.3812	-2.375	-2.9083	-2.1875	-2.5625	-2.6375	-2.0563	-3.0438	-2.1771	-2.1333	-2.8458	-2.0312	117.090	75.926	9.595	149.037	13.054	77.904	-147.069	68.931	-15.187	57.194	101.551	87.756	176.261	-162.288	-143.166	-127.497	0.00022335	0.00027197	7.957e-05	416.85	1.9947e-06	3.5531e-06	422.73	130.79	1.5545e-06	2.2048e-06	131.35	51.469	49.633	21.622	6.1685e-08	23.33	6.6011e-05	5.5135e-05	1.6189e-05	384.55	6.3385e-07	5.9828e-07	391.65	121.58	6.0948e-07	6.3265e-07	121.44	47.64	45.6	20.256	6.3236e-07	21.779	175.668	-72.191	-84.895	-161.104	-73.819	-30.071	-162.540	-156.093	-124.487	-2.126	-159.282	-156.423	-152.921	-150.553	-96.117	-153.961	-8191	255	
8696.897	1	1	0	0	0.25721	0.26306	0.089953	0.20989	0.10119	0.1135	0.13984	0.2411	0.099926	0.15061	0.1291	0.1573	0.16494	0.27668	0.085742	0.018302	-2.2292	-2.7333	-2.1521	-2.7354	-2.4958	-2.3646	-3.0021	-2.2313	-2.5333	-2.8042	-2.075	-2.8146	-2.5312	-2.3646	-3.0563	-2.325	-146.836	-96.670	105.366	45.928	111.793	138.529	171.065	154.014	152.356	-120.876	-166.205	95.316	58.372	165.428	-153.820	53.114	0.00025295	0.00021658	9.5604e-05	420.37	4.003e-07	9.7758e-07	419.28	129.97	1.7935e-06	9.5866e-07	130.73	51.161	49.384	21.692	2.85e-06	23.37	6.8182e-05	5.8752e-05	1.6653e-05	387.05	6.2075e-07	6.4706e-07	393.18	121.95	6.614e-07	6.3269e-07	121.55	47.757	45.662	20.362	6.2863e-07	21.878	177.197	-74.859	-125.703	-160.720	-18.944	78.750	-162.696	-156.085	-76.516	-50.902	-158.480	-155.830	-153.546	-150.332	-64.166	-153.884	-8191	255	
8696.969	1	1	0	0	0.29568	0.18418	0.16359	0.1611	0.28314	0.13627	0.15857	0.22134	0.11362	0.063895	0.27937	0.14738	0.19792	0.16323	0.11552	0.090116	-1.9729	-2.7938	-2.1604	-2.975	-2.5542	-2.2104	-3.0646	-2.2812	-2.4708	-2.9542	-2.0458	-2.6646	-2.5792	-2.2354	-2.9375	-2.35	-9.589	-0.348	-143.777	-21.786	115.417	-95.294	137.298	170.990	-148.545	-79.546	154.997	99.454	3.941	179.712	20.158	87.027	0.00028456	0.00028361	4.3609e-05	415.85	2.1397e-06	3.9124e-06	419.03	130.63	1.1407e-06	2.0498e-06	130.16	50.776	48.957	21.778	1.0949e-06	23.568	7.0432e-05	5.6936e-05	1.6132e-05	385.52	6.1236e-07	6.4832e-07	389.67	121.93	6.4879e-07	5.8581e-07	120.93	47.499	45.326	20.337	6.4401e-07	21.779	182.236	-144.330	-61.389	-161.355	-47.300	-88.514	-162.860	-156.278	-36.477	-16.008	-158.731	-156.144	-153.467	-150.586	-72.937	-153.191	-8191	255	
8697.089	1	1	0	0	0.097502	0.25889	0.14708	0.045318	0.016467	0.1329	0.22227	0.15299	0.23093	0.15285	0.11556	0.095286	0.03829	0.15594	0.37023	0.065134	-1.9125	-2.8333	-2.0896	-2.8208	-2.6771	-2.1521	-3.0521	-2.2958	-2.4417	-3.0083	-2.1437	-2.5104	-2.7458	-2.1667	-3.0021	-2.5708	142.472	62.104	-49.930	17.023	39.074	118.071	66.405	-170.547	-134.272	126.514	-31.353	-49.348	146.883	57.251	170.601	-56.261	0.00027644	0.00014848	5.1088e-05	418.02	2.1755e-06	1.6538e-06	417.84	130.67	2.1381e-06	1.808e-06	129.25	51.302	49.318	21.55	1.7427e-06	23.46	6.984e-05	5.5863e-05	1.5993e-05	385.37	6.4912e-07	6.4446e-07	389.72	121.55	6.2953e-07	6.0756e-07	120.21	47.499	45.329	20.21	6.0286e-07	21.758	178.086	-103.857	-122.138	-161.059	-49.639	-122.453	-162.306	-156.453	-53.256	-63.077	-158.749	-155.942	-153.064	-150.620	-49.064	-153.621	-8191	255	
8697.186	1	1	0	0	0.097708	0.15998	0.1684	0.063918	0.16283	0.20369	0.12834	0.14722	0.26578	0.085788	0.25387	0.087923	0.08638	0.25499	0.26235	0.23172	-1.9125	-2.7896	-2.2875	-2.6417	-2.9292	-2.0729	-2.9104	-2.5708	-1.9625	-2.9396	-2.3083	-2.5062	-2.8479	-2.0229	-2.75	-2.4729	-48.891	85.661	-31.402	-9.783	-22.978	64.080	87.301	-16.108	-161.804	111.441	35.187	180.922	-151.006	-143.792	-155.475	99.069	0.00021782	0.00017552	8.3135e-05	419.93	1.6797e-06	1.4161e-06	420	129.95	2.9983e-06	3.4569e-06	131.42	51.254	49.391	21.773	1.2253e-06	23.311	7.0263e-05	5.2595e-05	1.5713e-05	384.28	6.3217e-07	6.274e-07	391.25	121.52	6.5322e-07	5.9562e-07	121.03	47.831	45.503	20.283	5.8e-07	21.821	176.318	172.650	-136.866	-160.851	-67.503	-110.217	-162.088	-156.218	-54.316	-14.404	-158.676	-155.642	-153.112	-150.461	-103.773	-153.905	-8191	255	
8697.280	1	1	0	0	0.12915	0.097372	0.099879	0.087968	0.20712	0.23199	0.16835	0.056826	0.10188	0.095955	0.34583	0.2147	0.061957	0.099671	0.10395	0.2213	-1.7938	-2.9604	-2.1208	-2.4833	-2.8479	-2.2771	-2.6979	-2.8	-2.0729	-2.8292	-2.2542	-2.2771	-2.6667	-2.1333	-2.625	-2.8625	12.110	57.108	10.177	111.247	77.226	-80.824	119.427	163.607	-127.740	-164.983	184.859	41.049	156.964	115.471	-173.513	-112.393	0.00025382	9.9649e-05	0.00010328	419.16	2.7562e-06	1.3391e-06	424.3	130.86	3.5315e-06	1.8128e-06	130.78	51.774	49.527	21.671	1.1803e-06	23.361	6.9488e-05	5.3786e-05	1.533e-05	385.59	6.3567e-07	5.9481e-07	393.32	121.56	6.4243e-07	5.7404e-07	121.07	47.816	45.365	20.219	6.0135e-07	21.758	174.348	-140.874	-59.401	-160.748	-50.642	-22.299	-163.087	-156.019	-55.462	-78.528	-159.166	-156.107	-152.976	-150.307	-74.615	-153.650	-8191	255	
8697.378	1	1	0	0	0.15316	0.20721	0.3993	0.046754	0.089417	0.27342	0.37686	0.20215	0.32491	0.050685	0.20642	0.1306	0.1374	0.3019	0.13309	0.15793	-1.5812	-2.7771	-2.3729	-2.3063	-2.8646	-2.1167	-2.6271	-2.8104	-2.0042	-2.8521	-2.4625	-2.4396	-2.9813	-2.3688	-2.4708	-2.9479	-38.241	183.890	165.528	125.805	-2.443	119.663	86.282	182.919	27.846	-173.632	70.255	-1.252	-139.905	-22.083	-17.551	-156.400	0.00023805	0.00016399	8.5649e-05	419.3	2.7244e-06	1.5525e-06	421.12	129.09	2.2027e-06	4.9028e-07	129.63	50.897	49.882	21.191	2.6704e-06	23.148	6.7231e-05	5.5543e-05	1.5792e-05	384.87	6.1024e-07	6.1633e-07	391.11	120.64	6.2161e-07	5.8824e-07	120.49	47.316	45.296	19.893	6.3037e-07	21.486	176.193	-126.830	-92.028	-161.287	28.411	-131.207	-162.560	-156.184	-63.359	33.712	-158.764	-155.901	-153.557	-150.410	-67.411	-153.728	-8191	255	
8697.497	1	1	0	0	0.38166	0.16565	0.1001	0.10993	0.10714	0.16208	0.15809	0.18926	0.1238	0.37742	0.20636	0.094455	0.084	0.12268	0.088878	0.31023	-1.7812	-2.8438	-2.3896	-2.3229	-2.8625	-2.2208	-2.5	-2.8937	-2.1771	-2.7	-2.6625	-2.1333	-2.8917	-2.1188	-2.5604	-2.9625	-170.198	95.185	73.500	-21.289	170.296	-66.508	24.673	-9.017	176.508	68.314	70.984	139.058	109.501	120.206	53.039	140.520	0.00025367	0.00018357	4.6314e-05	420.54	1.8979e-06	1.9381e-06	418.6	128.62	2.3412e-06	1.6236e-06	129.77	50.238	49.28	21.362	2.9212e-07	22.985	6.8867e-05	5.3189e-05	1.4896e-05	386.45	5.8839e-07	5.7714e-07	389.28	120.92	6.2961e-07	6.0209e-07	120	47.027	44.966	19.89	6.227e-07	21.406	175.911	-147.125	-122.559	-160.562	-53.206	-30.815	-162.779	-156.237	-15.199	-24.641	-158.677	-155.928	-153.577	-150.177	-101.967	-153.757	-8191	255	
8697.593	1	1	0	0	0.076854	0.14658	0.38868	0.022724	0.31682	0.11261	0.10601	0.20976	0.24157	0.24303	0.45712	0.091509	0.28329	0.12915	0.17723	0.049371	-1.8354	-2.7667	-2.55	-2.05	-2.6417	-2.5979	-2.4146	-2.9292	-2.0146	-2.6667	-2.6229	-2.1562	-2.6875	-2.4104	-2.2708	-2.8583	-60.825	78.536	166.314	-94.869	-40.922	112.046	-99.878	16.214	141.040	-164.950	110.244	-88.253	-134.708	-150.989	89.646	-37.967	0.00026711	0.0001707	3.6565e-05	417.87	1.6096e-06	8.248e-07	416.79	130.13	1.7621e-06	1.4182e-06	130.85	50.283	49.329	21.322	1.3196e-06	23.153	6.5737e-05	5.1143e-05	1.5869e-05	384.21	6.0236e-07	5.7714e-07	389.36	120.99	6.3155e-07	5.7765e-07	120.99	47.135	45.155	19.963	6.0265e-07	21.536	174.672	-67.081	26.006	-160.886	-51.029	-66.223	-162.934	-155.975	23.839	-97.864	-159.100	-155.747	-153.043	-150.245	-57.695	-153.498	-8191	255	
8697.665	1	1	0	0	0.20571	0.12895	0.12969	0.18194	0.18912	0.32698	0.46924	0.1187	0.20942	0.27992	0.064315	0.2305	0.10046	0.16877	0.14856	0.16558	-1.7729	-2.5625	-2.5521	-1.9333	-2.7458	-2.6021	-2.2729	-2.975	-2.1458	-2.325	-2.9562	-2.1625	-2.7167	-2.4833	-2.1354	-2.8312	53.090	-20.123	-134.269	171.221	45.354	31.777	167.076	78.659	-108.704	45.251	-160.138	86.091	144.481	151.440	33.077	90.024	0.00022705	0.00019022	4.5294e-05	417.36	1.1639e-06	2.5647e-06	419.75	131.36	1.317e-06	1.444e-06	129.71	51.087	49.578	21.664	1.0627e-06	23.585	6.4334e-05	5.3707e-05	1.5262e-05	384.07	5.8281e-07	5.9923e-07	391.71	122.04	6.3641e-07	5.8073e-07	121.15	47.578	45.404	20.239	6.0828e-07	21.916	180.401	-106.637	-114.237	-161.586	-54.251	-26.509	-162.572	-155.961	1.714	-69.973	-158.743	-156.096	-153.380	-150.567	-57.214	-154.161	-8191	255	
8697.785	1	1	0	0	0.27751	0.18294	0.10618	0.30459	0.067691	0.051593	0.28209	0.085186	0.24558	0.22684	0.04039	0.083333	0.24598	0.050138	0.17521	0.13205	-1.8917	-2.3229	-2.7146	-2.0917	-2.6771	-2.725	-2.2562	-2.9479	-2.3688	-2.2729	-2.9458	-2.225	-2.4875	-2.5854	-2.3042	-2.9458	-152.107	67.838	-156.845	113.698	-49.951	175.783	-100.147	-58.737	56.737	26.878	75.134	92.540	99.700	123.241	-95.384	182.496	0.00022026	0.00030366	7.2316e-05	416.25	9.2405e-07	1.1588e-06	420.16	130.44	2.745e-06	1.9591e-06	130.99	50.961	49.232	21.61	1.5874e-06	23.418	6.3813e-05	5.4443e-05	1.4408e-05	384.69	5.7533e-07	5.9298e-07	391.31	121.25	5.903e-07	5.7556e-07	121.31	47.427	45.226	20.188	5.8944e-07	21.843	172.492	-51.225	-51.213	-161.546	-90.937	33.850	-162.232	-155.975	-39.535	-14.455	-158.831	-156.531	-153.023	-150.257	-85.823	-153.679	-8191	255	
8697.881	1	1	0	0	0.29227	0.35804	0.12285	0.26827	0.17832	0.037563	0.28686	0.19188	0.088973	0.038534	0.078251	0.096458	0.086057	0.19414	0.15192	0.23432	-1.9188	-2.425	-2.9271	-2.1292	-2.5875	-2.6833	-2.1042	-2.7938	-2.4833	-2.3187	-2.9854	-2.1271	-2.5354	-2.8458	-2.1562	-2.7583	140.970	-57.301	-114.807	78.622	124.546	-110.761	107.150	112.453	-4.281	174.743	-3.808	-170.988	141.263	-118.971	149.691	73.238	0.00027785	0.00014287	0.00010297	415.93	2.1522e-06	9.9702e-07	418.24	130.44	1.8253e-06	3.3218e-06	130.09	50.653	48.723	21.346	2.5263e-07	23.217	6.3903e-05	5.3794e-05	1.3956e-05	383.85	5.861e-07	5.6004e-07	390.87	121.48	5.9697e-07	5.6922e-07	120.62	47.152	45.009	20.048	5.6008e-07	21.689	182.494	-103.660	-81.689	-160.784	-44.080	-74.259	-162.753	-156.079	-42.305	41.613	-158.704	-155.874	-153.496	-150.420	43.797	-153.589	-8191	255	
8697.977	1	1	0	0	0.21806	0.10491	0.097869	0.17927	0.19395	0.16927	0.31568	0.36359	0.10088	0.20639	0.23094	0.19577	0.06405	0.15432	0.2342	0.012896	-2.1333	-2.0479	-2.9062	-2.2396	-2.4146	-3.05	-2.1688	-3.025	-2.5854	-1.9813	-2.9354	-2.2625	-2.3708	-2.9333	-2.175	-2.5938	170.892	100.652	-143.202	15.094	165.893	83.872	88.545	123.429	18.727	-123.618	-40.521	12.066	-139.440	57.488	71.994	80.198	0.00026355	0.00021288	5.2446e-05	415.46	2.4656e-06	1.6093e-06	416.03	131.07	1.4766e-06	1.1217e-06	129.72	50.945	49.037	21.624	1.4607e-06	23.272	6.4394e-05	5.2836e-05	1.4026e-05	383.32	5.7005e-07	5.4719e-07	388.89	121.69	5.6062e-07	5.7517e-07	120.69	47.434	45.194	20.139	5.7385e-07	21.744	183.150	-45.016	-55.270	-161.507	-79.578	-111.789	-162.759	-155.972	-52.692	-45.122	-158.533	-156.181	-153.571	-150.413	-51.131	-153.250	-8191	255	
8698.074	1	1	0	0	0.24858	0.021885	0.159	0.23028	0.22684	0.12823	0.15882	0.16316	0.13204	0.17992	0.06657	0.14721	0.10807	0.2073	0.15347	0.24094	-2.2271	-1.9667	-3.1	-2.2167	-2.3312	-2.7604	-2.1833	-2.6708	-2.6	-2.1771	-2.9292	-2.3688	-2.3375	-3.0479	-2.3521	-2.5708	-169.907	-33.830	114.790	-16.979	-171.191	183.665	149.182	4.050	176.636	146.711	-122.565	-143.162	-139.135	51.954	-130.345	30.277	0.0002494	0.00011754	5.626e-05	414.4	3.2497e-06	3.6102e-06	417.53	129.83	2.0927e-06	3.0998e-06	132.05	51.723	49.001	21.675	2.1408e-06	23.938	6.4004e-05	5.2164e-05	1.396e-05	382.81	5.8844e-07	5.5145e-07	392.15	121.87	5.8832e-07	5.5737e-07	122.01	47.987	45.134	20.289	5.8593e-07	22.11	179.616	-121.580	-71.567	-161.517	8.590	-78.858	-162.186	-156.353	-27.421	22.981	-158.754	-156.120	-152.835	-150.510	-116.047	-153.258	-8191	255	
8698.193	1	1	0	0	0.21424	0.22088	0.28237	0.15656	0.16875	0.15209	0.074889	0.15926	0.071377	0.30637	0.30084	0.1484	0.15433	0.4389	0.19067	0.19619	-2.2104	-1.9375	-2.7521	-2.4646	-2.1437	-3.0042	-2.1417	-2.5062	-2.7292	-1.9792	-2.7396	-2.4979	-2.2042	-2.9208	-2.0854	-2.3042	26.727	-172.735	-163.531	40.788	172.328	139.567	135.819	52.017	10.429	58.869	-132.219	65.923	71.093	-157.358	53.999	2.488	0.00027213	0.00023466	1.8896e-05	415.68	7.9461e-07	2.4181e-06	421.5	131.78	7.5676e-07	7.9684e-07	130.54	51.535	49.124	21.434	2.598e-06	23.596	6.2282e-05	5.2935e-05	1.3504e-05	385.11	5.7451e-07	5.4207e-07	393.26	122.81	5.6002e-07	5.4422e-07	122.03	47.783	45.484	20.179	5.8407e-07	21.996	176.804	-64.915	-66.756	-160.966	182.390	-22.643	-162.796	-155.884	38.061	-112.290	-158.461	-156.172	-153.192	-150.499	-55.716	-153.857	-8191	255	
8698.266	1	1	0	0	0.31732	0.29403	0.31457	0.057251	0.21834	0.28223	0.28926	0.14877	0.19183	0.020733	0.19413	0.055721	0.1815	0.11071	0.091357	0.28403	-2.4771	-2.1396	-2.6583	-2.7396	-2.1917	-2.9542	-2.2771	-2.3792	-2.8208	-2.1208	-2.7042	-2.5563	-2.2313	-2.8479	-2.2313	-2.2021	93.336	149.600	-122.817	-161.954	-173.521	52.415	164.944	-163.601	53.824	-160.580	185.595	24.398	-158.509	-8.251	-123.498	-12.417	0.00029868	0.00019105	6.7525e-05	415.73	3.2578e-07	2.1422e-06	423.28	130.45	2.793e-06	5.2346e-07	132.12	51.427	49.349	21.624	4.9777e-07	23.663	6.4491e-05	5.0257e-05	1.3369e-05	384.11	5.5963e-07	5.4728e-07	392.79	121.79	5.6127e-07	5.4782e-07	121.95	47.597	45.323	20.127	5.6072e-07	21.927	171.579	-50.242	-167.734	-161.538	97.404	-49.888	-162.634	-156.102	-58.138	-16.949	-158.847	-156.079	-153.368	-150.508	-37.230	-154.000	-8191	255	
8698.360	1	1	0	0	0.21199	0.13796	0.3035	0.19085	0.17581	0.26241	0.1105	0.15712	0.21762	0.18918	0.10971	0.077527	0.11504	0.18069	0.23277	0.30656	-2.5667	-2.0958	-2.6167	-2.6042	-1.9458	-2.7188	-2.5625	-2.3333	-2.9313	-2.25	-2.5021	-2.6208	-2.3563	-2.8042	-2.5854	-2.4458	20.343	179.505	117.547	90.894	-136.488	-140.842	78.932	-149.538	-149.466	37.412	-45.729	-162.673	108.412	-61.546	-112.901	112.666	0.00027828	0.00016094	5.6517e-05	419.44	2.0275e-06	1.8235e-06	423.91	130.53	2.6353e-06	1.5824e-06	131.47	51.584	49.204	21.843	7.4676e-07	23.447	6.5123e-05	5.2828e-05	1.4099e-05	384.56	5.7109e-07	5.2107e-07	391.47	121.82	5.4583e-07	5.5073e-07	121.76	47.819	45.312	20.23	5.7939e-07	21.924	180.798	-57.121	-13.926	-160.967	-51.163	3.219	-162.188	-155.884	-57.665	-8.221	-158.923	-155.721	-153.331	-150.485	-86.234	-153.871	-8191	255	
8698.458	1	1	0	0	0.21945	0.13399	0.2606	0.056986	0.058772	0.082043	0.20027	0.11194	0.32998	0.15376	0.35369	0.13083	0.08668	0.23627	0.17861	0.12456	-2.5875	-2.2792	-2.4562	-2.9562	-2.0708	-2.65	-2.6312	-2.0687	-2.9229	-2.1667	-2.2708	-2.8375	-2.0229	-2.6063	-2.5667	-2.2708	102.385	-9.773	179.052	25.857	-69.013	129.798	29.820	-63.823	50.211	-160.671	-143.080	-134.744	-69.069	-114.509	14.453	109.832	0.00026207	0.00025702	5.5368e-05	417.11	1.243e-06	2.1091e-06	418.69	130.83	1.8935e-06	1.9278e-06	131.93	51.936	49.572	21.541	1.7772e-06	23.592	6.1695e-05	5.0249e-05	1.4264e-05	383.67	5.4778e-07	5.705e-07	392.46	121.88	5.451e-07	5.4852e-07	122.29	47.915	45.472	20.167	5.538e-07	21.917	168.885	-52.912	-83.763	-161.360	-37.007	-32.298	-162.714	-156.215	-64.494	-48.794	-158.219	-156.080	-153.594	-150.290	-114.077	-153.512	-8191	255	
8698.577	1	1	0	0	0.10547	0.11506	0.1872	0.13856	0.026955	0.15743	0.20045	0.07879	0.097405	0.1852	0.068925	0.34153	0.065763	0.15977	0.14528	0.056407	-2.4208	-2.3187	-2.25	-2.8771	-2.1833	-2.6937	-2.6479	-2.0687	-2.7854	-2.5687	-2.2542	-3.0229	-2.175	-2.5042	-2.6333	-2.2021	7.320	-162.913	-20.735	-6.667	116.942	154.976	99.980	154.560	159.943	-9.833	66.862	105.702	181.412	-105.546	31.870	-165.462	0.00026793	0.00034064	9.5576e-05	418.48	1.4133e-06	8.2105e-07	425.31	130.02	1.9259e-06	2.2205e-06	131.36	51.668	49.235	21.466	2.1496e-06	23.484	6.0377e-05	5.2908e-05	1.4474e-05	384.66	5.6209e-07	5.7232e-07	393.89	121.86	5.7374e-07	5.4166e-07	122.26	47.885	45.323	20.063	5.751e-07	21.811	178.081	-125.383	-112.148	-161.358	-32.353	12.674	-162.514	-156.048	-53.234	-7.484	-159.112	-155.863	-152.957	-150.201	-77.792	-153.446	-8191	255	
8698.673	1	1	0	0	0.50435	0.079693	0.028149	0.1173	0.20506	0.053073	0.11688	0.2471	0.19763	0.11683	0.19303	0.12305	0.2478	0.13981	0.13713	0.18762	-2.3354	-2.3583	-2.2313	-3.0375	-2.2833	-2.5854	-2.8396	-2.2292	-2.825	-2.6646	-2.3167	-2.9958	-2.3271	-2.3958	-2.9771	-2.0833	139.876	-45.669	-90.790	-35.996	-143.150	-32.982	152.203	151.567	150.222	130.251	20.586	99.178	137.539	62.414	129.028	-69.562	0.00028428	0.00021422	9.7715e-05	421.5	1.623e-06	3.3048e-06	419.27	131.28	6.7901e-07	1.2014e-06	129.61	50.99	49.576	21.39	8.2301e-07	23.497	6.5633e-05	5.1677e-05	1.4427e-05	385.88	5.3977e-07	5.5878e-07	392.77	121.63	5.6019e-07	5.575e-07	121.21	47.482	45.253	20.059	5.5843e-07	21.759	181.522	-34.544	-81.480	-161.677	-65.859	-23.927	-162.822	-156.292	-138.174	-83.138	-159.143	-156.112	-153.204	-150.676	36.311	-153.110	-8191	255	
8698.769	1	1	0	0	0.18665	0.10819	0.084899	0.15808	0.17525	0.078118	0.12969	0.48087	0.11809	0.11645	0.23723	0.13764	0.11352	0.14547	0.081492	0.25527	-2.3771	-2.4979	-2.0979	-3.0125	-2.3458	-2.3375	-2.8958	-2.0896	-2.6583	-2.6646	-1.9646	-2.8292	-2.3021	-2.4292	-2.7875	-2.0896	-94.042	-116.869	-104.708	-96.747	112.417	-78.959	48.911	141.849	58.364	103.213	108.171	-137.390	-147.151	89.784	100.503	67.344	0.0002711	0.00016844	0.00011797	419.35	1.3186e-07	2.2051e-06	424.36	130.05	1.8089e-06	1.6198e-06	129.83	51.43	49.369	21.848	2.0473e-06	23.732	6.2514e-05	5.1942e-05	1.4387e-05	384.86	5.5106e-07	5.2476e-07	391.77	121.61	5.6583e-07	5.4105e-07	120.9	47.679	45.366	20.253	5.4873e-07	22.036	171.431	-42.343	-90.935	-161.403	-12.840	-95.245	-162.948	-156.124	-57.407	-9.743	-158.894	-155.682	-153.291	-150.519	-46.893	-153.589	-8191	255	
8698.890	1	1	0	0	0.19993	0.14831	0.27962	0.18216	0.19565	0.084322	0.090571	0.17421	0.26579	0.29875	0.19959	0.047176	0.17977	0.20506	0.10509	0.15332	-2.4417	-2.6333	-2.2313	-2.7083	-2.3458	-2.375	-2.8646	-2.1417	-2.5854	-2.7833	-2.2125	-2.7542	-2.5271	-2.3688	-3.0229	-2.3271	-54.836	-49.472	185.429	70.643	-65.313	-20.858	178.538	-145.899	-113.765	168.952	141.437	-90.660	7.384	-173.084	94.283	92.104	0.00025872	0.00012071	1.2064e-05	421.63	1.3345e-06	4.2044e-06	422.27	130.11	6.2499e-07	2.2354e-06	131.91	51.284	48.873	21.628	2.2775e-06	23.565	6.3211e-05	5.1728e-05	1.3986e-05	385.88	5.7005e-07	5.544e-07	392.37	121.62	5.8058e-07	5.4852e-07	122.25	47.849	45.252	20.3	5.4791e-07	22.05	177.181	-55.626	-66.817	-161.144	-100.495	-49.635	-162.186	-155.936	19.606	10.600	-158.594	-155.787	-153.598	-150.547	-58.684	-153.784	-8191	255	
8698.962	1	1	0	0	0.16689	0.21054	0.16912	0.073845	0.30132	0.12218	0.21025	0.079888	0.035044	0.13412	0.18007	0.37547	0.22135	0.041906	0.084135	0.10479	-2.1063	-2.6104	-2.0479	-2.7521	-2.5312	-2.3333	-2.8833	-2.2646	-2.4958	-2.9229	-2.0917	-2.7875	-2.4979	-2.1854	-3	-2.3208	17.768	-164.001	132.372	119.867	2.381	102.805	-73.595	59.425	-33.771	171.127	74.080	15.151	-144.110	66.440	-166.080	75.473	0.00027277	0.00025515	5.7315e-05	417.67	1.387e-06	2.9563e-06	422.18	130.84	6.5936e-07	3.6614e-06	132.99	51.691	49.263	21.85	8.6129e-07	24.017	6.4015e-05	4.8005e-05	1.4201e-05	385.45	5.7083e-07	5.5535e-07	392.7	122.39	5.9004e-07	5.493e-07	122.92	48.073	45.573	20.449	5.5176e-07	22.281	173.021	-94.501	-54.232	-161.645	-19.002	-33.786	-162.206	-156.309	141.981	-34.730	-158.284	-155.754	-153.367	-150.419	-59.428	-153.949	-8191	255	
8699.058	1	1	0	0	0.17568	0.082774	0.052299	0.11647	0.15229	0.081052	0.15406	0.15771	0.13595	0.12566	0.14366	0.17288	0.095294	0.21427	0.18108	0.13041	-1.9229	-2.7417	-2.1542	-2.7083	-2.7896	-2.2812	-2.9292	-2.35	-2.1521	-2.9375	-2.0667	-2.6396	-2.7604	-2.2083	-2.8792	-2.6021	-64.262	27.796	-158.000	-6.938	99.224	-170.113	-111.892	89.765	145.794	88.828	-165.146	-120.933	116.493	-162.406	-81.425	-21.590	0.00027006	0.00010547	5.7278e-05	417.12	1.7162e-06	1.8725e-06	422.8	131.2	2.1911e-06	2.4592e-06	131.25	51.738	49.49	21.698	2.4713e-06	23.937	6.5097e-05	4.979e-05	1.4329e-05	385.48	5.7641e-07	5.5088e-07	394.58	122.39	5.9159e-07	5.4821e-07	122.52	48.298	45.586	20.283	5.6016e-07	22.176	179.378	-120.258	-142.940	-161.721	-71.964	-46.760	-162.259	-156.150	-83.713	-23.578	-159.204	-156.292	-153.461	-150.909	5.010	-153.832	-8191	255	
8699.179	1	1	0	0	0.10466	0.16009	0.255	0.093005	0.10269	0.083395	0.22802	0.22704	0.067029	0.25377	0.12584	0.28212	0.032113	0.059677	0.097532	0.15439	-1.7458	-2.7583	-2.1375	-2.6583	-2.8438	-2.1479	-2.9271	-2.5271	-2.2854	-2.8354	-2.3479	-2.475	-3.0563	-2.1229	-2.8458	-2.75	89.206	-49.656	152.590	-133.240	-148.279	-108.262	-98.596	-163.484	-124.789	-144.762	-86.724	-162.643	-43.769	160.631	1.627	-128.560	0.00028334	0.00024985	5.0533e-05	415.12	2.3897e-06	2.0386e-06	422.75	130.42	1.7957e-06	1.9481e-06	131.07	51.258	48.928	21.61	2.7578e-06	23.775	6.3832e-05	5.0225e-05	1.4941e-05	383.43	5.8398e-07	5.9854e-07	393.77	121.47	6.2161e-07	5.5633e-07	121.33	47.942	45.141	20.267	6.0888e-07	22.054	175.772	-83.133	-132.647	-161.480	-42.915	-82.888	-162.470	-155.963	-50.511	-65.598	-158.349	-155.763	-153.161	-150.785	-57.565	-154.121	-8191	255	
8699.273	1	1	0	0	0.10364	0.11081	0.1314	0.34911	0.24727	0.19672	0.27523	0.12028	0.32213	0.10682	0.19	0.12382	0.12004	0.26893	0.099998	0.13036	-1.7271	-2.8896	-2.2313	-2.3771	-2.7188	-2.2313	-2.7438	-2.7188	-1.8583	-3.0187	-2.4771	-2.4104	-2.8792	-2.0938	-2.5667	-2.5833	-74.032	93.695	146.488	168.373	26.309	171.864	21.809	170.771	33.297	-3.118	41.909	169.419	-13.015	-168.506	-166.679	57.300	0.00025936	0.00015022	5.7322e-05	419.23	1.7678e-06	2.0785e-07	421.31	130.76	1.2233e-06	2.9111e-06	131.27	51.897	50.007	21.574	1.7054e-06	23.797	6.6823e-05	5.2373e-05	1.5323e-05	384.94	5.8316e-07	5.7606e-07	391.77	121.81	6.1047e-07	5.4865e-07	121.59	48.073	45.422	20.234	5.9645e-07	22.112	183.030	-72.680	172.679	-161.218	-46.253	162.213	-162.613	-156.290	-29.131	-32.755	-158.811	-155.975	-152.713	-150.556	-87.295	-153.716	-8191	255	
8699.369	1	1	0	0	0.2566	0.2992	0.15141	0.080702	0.15958	0.30509	0.21268	0.28632	0.33811	0.095316	0.087569	0.15705	0.076889	0.15033	0.091305	0.021876	-1.8229	-2.9062	-2.425	-2.3146	-2.8708	-2.1854	-2.6667	-2.9125	-2.1354	-2.825	-2.6021	-2.0792	-3.0146	-2.0979	-2.5771	-2.7792	54.594	168.868	103.210	-115.772	-30.288	108.895	103.381	-58.272	168.097	-139.668	66.955	-97.250	-49.132	181.378	-4.021	167.866	0.00026191	0.00010399	8.3471e-05	417.46	2.5431e-06	3.3276e-06	424.37	130.27	1.9321e-06	1.9283e-06	132.42	51.907	49.639	21.694	1.1789e-06	23.796	6.4577e-05	5.2041e-05	1.479e-05	386.04	5.6166e-07	6.0757e-07	394.47	121.93	5.9198e-07	5.7235e-07	122.51	48.519	45.556	20.377	6.1356e-07	22.231	178.840	-9.323	-7.682	-160.975	-119.397	-64.293	-162.737	-156.181	-53.386	-46.581	-159.200	-155.398	-152.879	-150.802	-26.537	-153.772	-8191	255	
8699.490	1	1	0	0	0.13415	0.24148	0.12748	0.095057	0.13781	0.39746	0.22092	0.31385	0.0094653	0.17033	0.33486	0.24228	0.12569	0.29336	0.22314	0.24954	-1.7417	-2.7792	-2.6083	-2.1688	-2.9583	-2.2958	-2.3812	-2.7938	-2.1458	-2.7729	-2.7396	-2.1396	-2.9458	-2.1958	-2.3083	-2.8375	-126.993	-153.316	-14.221	5.504	160.007	65.045	131.723	73.944	-106.898	-76.083	157.026	-53.542	-128.256	174.044	-80.249	111.406	0.00027772	0.00018401	6.6551e-05	416.35	2.2652e-06	1.9415e-06	423.53	130.23	1.894e-06	2.6265e-06	131.44	52.048	49.716	21.808	3.3954e-06	24.039	6.7841e-05	5.6085e-05	1.4984e-05	385.51	6.0111e-07	5.6208e-07	395.36	122.14	6.0045e-07	5.8042e-07	122.99	48.573	45.782	20.427	5.9442e-07	22.264	169.367	-16.772	6.784	-161.439	-121.280	-58.292	-162.198	-156.002	-52.214	-35.513	-159.183	-156.340	-153.258	-150.518	-64.750	-153.712	-8191	255	
8699.561	1	1	0	0	0.062533	0.33071	0.19438	0.17407	0.094906	0.081389	0.15076	0.089006	0.17365	0.19797	0.16058	0.31296	0.26711	0.25368	0.09547	0.21389	-1.4958	-2.6	-2.625	-2.0333	-2.8312	-2.2958	-2.2896	-3.0417	-2.3417	-2.5792	-2.5563	-2.0479	-2.8479	-2.5125	-2.0271	-2.7771	-140.210	62.008	102.933	140.095	-117.567	129.156	-4.886	-27.992	142.543	67.576	-3.590	-107.371	108.382	-167.216	83.809	-149.997	0.00028807	0.00021192	4.884e-05	417.69	1.0561e-06	3.5176e-06	420.59	129.96	1.818e-06	1.1305e-06	131.14	51.594	49.342	21.858	7.1601e-07	24.126	6.4277e-05	5.2195e-05	1.4307e-05	385.54	5.5349e-07	5.8022e-07	392.87	121.93	6.1125e-07	5.7964e-07	122.4	48.203	45.63	20.509	5.9715e-07	22.511	179.381	-98.193	-41.297	-161.134	-75.103	-64.664	-162.601	-156.132	-26.062	-148.094	-159.335	-155.702	-153.242	-150.460	-46.833	-153.773	-8191	255	
8699.658	1	1	0	0	0.18469	0.15564	0.063465	0.079264	0.21392	0.16374	0.078825	0.27171	0.16674	0.11231	0.067994	0.18851	0.23773	0.085617	0.061821	0.20085	-1.8104	-2.3937	-2.8896	-2.0083	-2.9188	-2.7271	-2.4271	-2.8771	-2.3375	-2.4708	-2.8	-2.1167	-2.9146	-2.7146	-2.2771	-2.9375	139.941	103.690	-167.898	-42.808	-13.267	-100.421	66.606	-158.310	75.983	-119.047	121.809	18.974	41.181	180.403	170.438	72.743	0.00025193	0.0002822	8.0738e-05	417.55	2.0472e-06	1.3486e-06	419.5	130.56	1.5433e-06	1.6811e-06	132.09	52.04	48.766	21.799	1.2038e-06	23.905	6.5902e-05	5.3355e-05	1.4041e-05	385.72	5.7537e-07	5.9116e-07	392.46	122.04	5.9852e-07	5.6441e-07	122.75	48.564	45.51	20.584	5.8238e-07	22.513	174.012	-117.349	-106.199	-161.170	-33.311	-40.109	-162.630	-155.844	-36.820	-78.476	-158.369	-155.497	-152.986	-150.763	-17.549	-153.432	-8191	255	
8699.754	1	1	0	0	0.26475	0.14269	0.24126	0.20651	0.060535	0.12115	0.35997	0.10994	0.14126	0.24034	0.27418	0.25449	0.16377	0.074448	0.30782	0.25173	-1.9604	-2.3875	-2.8833	-2.1417	-2.5604	-2.6437	-2.15	-2.9208	-2.5104	-2.3521	-2.9625	-2.175	-2.7083	-2.6458	-2.0521	-2.8917	32.665	31.943	-170.029	-107.579	79.116	163.164	151.574	180.951	24.182	80.788	54.087	109.422	-107.845	18.625	39.171	-112.350	0.00027001	0.00029274	4.93e-05	413.79	3.3764e-07	3.0076e-06	423.98	129.84	2.8892e-06	2.6224e-06	132.32	51.978	49.405	21.956	7.8495e-07	24.272	6.7313e-05	5.5642e-05	1.4544e-05	385.17	5.765e-07	5.5943e-07	395.42	122.28	5.9331e-07	5.72e-07	123.19	48.712	45.963	20.595	6.1144e-07	22.668	-173.787	-59.484	-66.571	-161.146	101.211	-100.793	-162.740	-155.975	-21.536	-4.498	-158.560	-155.918	-153.485	-150.148	-168.104	-153.587	-8191	255	
8699.850	1	1	0	0	0.3485	0.11566	0.19514	0.037722	0.16145	0.1267	0.14159	0.17846	0.30452	0.24295	0.053259	0.090397	0.19256	0.18613	0.33673	0.097721	-2.0146	-2.2812	-2.8646	-2.1729	-2.5167	-2.8333	-2.1146	-2.9104	-2.4813	-2.25	-2.9167	-2.0354	-2.4938	-2.8083	-2.1354	-2.6896	-153.363	83.471	-147.616	158.226	-158.666	124.730	181.837	132.205	-65.461	-108.027	160.484	-36.824	-99.611	-142.216	-42.586	153.359	0.00030112	8.625e-05	5.8658e-05	417.81	1.7624e-06	3.0399e-06	421.6	130.96	9.2955e-07	1.9544e-06	133.5	52.204	49.636	21.762	1.4034e-06	24.085	6.8028e-05	5.4862e-05	1.4367e-05	385.21	6.0158e-07	5.8048e-07	395.13	122.6	6.0806e-07	5.6315e-07	123.73	48.943	45.909	20.575	6.0455e-07	22.54	174.843	-97.291	-83.176	-161.614	-44.985	-66.418	-162.332	-156.028	-30.421	-42.290	-159.105	-156.201	-153.626	-150.648	-27.142	-153.861	-8191	255	
8699.970	1	1	0	0	0.25341	0.042327	0.024105	0.22548	0.16386	0.16871	0.089232	0.031214	0.25524	0.050697	0.26285	0.235	0.10434	0.047868	0.15804	0.13829	-2.1417	-2.175	-2.8521	-2.0958	-2.3646	-2.8479	-2.0875	-2.7875	-2.3854	-2.2333	-2.9146	-2.3646	-2.3688	-2.8063	-2.0458	-2.7083	120.672	-112.612	121.364	87.772	136.364	123.964	19.883	-169.621	-88.486	-37.267	143.370	-30.965	-136.969	105.904	141.962	20.251	0.00026686	0.00019909	0.0001162	418.34	2.0641e-06	1.6846e-06	419.7	131.03	2.301e-06	2.8447e-06	130.87	51.742	49.446	21.743	9.6679e-07	23.84	6.4644e-05	5.246e-05	1.4568e-05	384.2	5.9233e-07	5.4134e-07	393.62	122.25	5.9817e-07	5.7938e-07	122.63	48.582	45.714	20.405	5.8502e-07	22.349	174.892	-135.413	-91.520	-161.387	-18.552	-56.167	-162.674	-155.941	-48.462	-16.755	-158.655	-155.614	-152.915	-150.708	-30.859	-153.276	-8191	255	
8700.067	1	1	0	0	0.41175	0.093016	0.067913	0.17326	0.35909	0.15262	0.10681	0.07364	0.13403	0.15002	0.10838	0.15108	0.096829	0.1212	0.20228	0.12781	-2.3333	-2.2104	-2.8229	-2.3708	-2.5396	-2.9417	-2.2104	-2.65	-2.7271	-2.1937	-2.8833	-2.2625	-2.25	-2.8833	-2.0646	-2.5125	97.461	122.383	-106.037	157.113	98.107	69.137	-108.845	62.185	27.016	141.228	125.733	-162.517	-134.106	-44.024	84.015	84.128	0.00022923	0.00017528	5.496e-05	416.63	1.3414e-06	2.8465e-06	419.17	129.4	2.2871e-06	1.5372e-06	131.47	51.669	49.477	21.521	2.0632e-06	23.841	6.4281e-05	5.3988e-05	1.4128e-05	384.7	6.0383e-07	5.6833e-07	391.58	121.58	5.7748e-07	5.6523e-07	122.5	48.329	45.5	20.275	5.7263e-07	22.249	182.052	-42.699	-100.343	-160.878	-51.115	-53.959	-162.763	-155.984	-80.912	18.118	-158.340	-155.833	-153.207	-150.549	-89.741	-153.514	-8191	255	
8700.138	1	1	0	0	0.23695	0.094025	0.20786	0.096461	0.083393	0.17158	0.14083	0.17486	0.12264	0.072898	0.17184	0.13947	0.24488	0.34085	0.12958	0.10723	-2.3521	-2.175	-2.7646	-2.525	-2.2083	-3.0125	-2.2812	-2.4417	-2.9396	-2.1167	-2.75	-2.5479	-2.2938	-2.8917	-2.2917	-2.325	-169.252	-79.415	86.313	-2.141	69.885	7.496	28.316	166.962	-65.803	-138.955	118.198	87.038	45.913	-146.727	90.864	177.594	0.00026229	0.000374	4.2264e-05	415.6	8.1411e-07	1.0457e-06	416.27	130.19	1.1637e-06	1.5748e-06	132.72	51.944	49.508	21.541	2.0911e-06	23.778	6.2237e-05	5.2405e-05	1.3935e-05	383.77	5.9172e-07	5.4003e-07	390.75	121.71	5.6634e-07	5.6736e-07	122.62	48.41	45.511	20.301	5.9394e-07	22.278	182.588	-38.579	-29.550	-161.221	-3.511	-68.588	-162.320	-156.262	-3.259	62.139	-158.297	-156.234	-152.663	-150.649	-12.514	-153.234	-8191	255	
8700.259	1	1	0	0	0.17891	0.13245	0.2615	0.19295	0.073726	0.1543	0.14124	0.11432	0.22531	0.16596	0.039638	0.14822	0.45784	0.15601	0.040098	0.36139	-2.4979	-1.9958	-2.7458	-2.7188	-2.0521	-2.9062	-2.3021	-2.2958	-2.9208	-2.1125	-2.8438	-2.6917	-2.0771	-2.9083	-2.2958	-2.1354	167.777	-69.768	22.668	109.698	129.218	160.814	112.790	-117.668	-13.528	104.422	-25.496	102.497	110.274	42.863	158.394	135.569	0.00026884	0.00025616	8.6094e-05	413.07	1.2851e-06	8.8666e-07	418.85	129.32	2.1421e-06	2.1995e-06	130.22	51.99	49.328	21.69	1.7327e-06	24.014	6.372e-05	5.402e-05	1.5161e-05	384.8	5.8156e-07	5.6291e-07	394.12	121.75	5.8209e-07	5.9406e-07	122.74	48.679	45.566	20.37	6.0914e-07	22.411	179.559	-73.096	-113.569	-161.369	-42.718	-79.728	-162.374	-155.730	-56.237	-48.683	-158.466	-155.977	-153.652	-150.113	-86.224	-153.357	-8191	255	
8700.353	1	1	0	0	0.10443	0.24711	0.12317	0.15549	0.29888	0.22568	0.16617	0.23611	0.19049	0.24349	0.084975	0.057768	0.080447	0.14824	0.12009	0.14941	-2.6167	-1.9896	-2.4125	-2.7021	-2.0667	-2.8958	-2.6646	-2.1729	-2.9313	-2.2792	-2.2292	-2.8792	-2.1021	-2.6771	-2.6458	-2.1021	-69.911	-60.672	71.981	-168.834	73.345	-125.274	-168.241	107.102	37.836	60.184	122.520	82.941	-107.456	144.562	48.267	12.260	0.00027277	0.00022213	2.2555e-05	413.44	1.1161e-06	1.5632e-06	421.52	130.14	1.4828e-06	1.0178e-06	133.42	52.092	49.889	21.849	1.6213e-06	23.999	6.5539e-05	5.2983e-05	1.4912e-05	383.98	5.9977e-07	6.0279e-07	394.94	122.2	5.7052e-07	6.1151e-07	123.35	48.8	45.774	20.505	6.0815e-07	22.428	175.702	-71.546	-24.454	-160.919	-36.009	-99.078	-162.378	-156.294	-59.041	20.365	-158.574	-155.596	-153.278	-150.683	-89.235	-153.878	-8191	255	
8700.451	1	1	0	0	0.069657	0.084684	0.055784	0.086815	0.15814	0.045672	0.10763	0.25608	0.11679	0.17772	0.022749	0.15014	0.16189	0.20303	0.17767	0.23925	-2.475	-2.2333	-2.4188	-2.8146	-2.05	-2.775	-2.6604	-2.1896	-2.8958	-2.3854	-2.3896	-2.7708	-2.1125	-2.7292	-2.7271	-2.0354	-57.664	148.673	115.795	-65.678	-70.356	173.775	171.580	123.628	144.121	95.947	152.460	-68.316	153.182	58.287	141.330	147.186	0.00027058	0.00015963	3.8998e-05	414.9	1.525e-06	1.4371e-06	418.68	130.14	1.5494e-06	2.8149e-06	131.04	51.845	49.185	21.646	1.162e-06	23.91	6.5004e-05	5.5606e-05	1.5328e-05	385.29	6.2689e-07	5.8573e-07	392.63	122.3	6.1628e-07	6.29e-07	122.55	48.685	45.674	20.453	5.7744e-07	22.357	180.733	-42.323	-57.078	-161.161	-44.313	-67.192	-162.556	-156.230	-75.426	-53.699	-158.910	-156.051	-153.713	-150.102	-77.967	-153.523	-8191	255	
8700.570	1	1	0	0	0.26119	0.12322	0.18094	0.07842	0.12398	0.18729	0.13208	0.060536	0.08965	0.13761	0.16744	0.30641	0.31656	0.10232	0.15912	0.15576	-2.4104	-2.3458	-2.4021	-2.9125	-2.0854	-2.5938	-2.8375	-1.8625	-2.6917	-2.3708	-2.3125	-3.0938	-2.2396	-2.6333	-2.5771	-2.2417	73.864	85.679	-30.746	4.010	-87.902	177.320	-144.819	167.543	107.624	-129.766	146.593	-168.635	177.332	176.785	169.701	176.787	0.00029463	0.00023321	5.3241e-05	414.54	2.1811e-06	2.5867e-06	419.24	129.74	2.5221e-06	2.2681e-06	132.76	51.966	48.846	21.718	1.0732e-06	23.938	6.5655e-05	5.3996e-05	1.436e-05	384.46	6.1339e-07	5.7962e-07	392.58	122.23	6.0449e-07	5.7973e-07	123.25	48.695	45.683	20.508	5.5652e-07	22.427	180.399	-73.838	-45.606	-160.969	-16.242	-86.261	-162.751	-156.223	-28.225	-86.767	-158.277	-155.764	-152.950	-150.455	-38.716	-153.512	-8191	255	
8700.666	1	1	0	0	0.081151	0.28133	0.08161	0.12707	0.068445	0.34778	0.17894	0.17858	0.25293	0.33005	0.12536	0.15778	0.1803	0.054586	0.048673	0.098529	-2.3167	-2.3646	-2.1646	-2.975	-2.2938	-2.575	-2.675	-2.0812	-2.7792	-2.3833	-2.0417	-2.9708	-2.1104	-2.3979	-2.8688	-2.0875	-91.040	130.177	-113.957	71.117	114.626	-36.673	-154.564	5.694	5.722	-141.769	65.162	-168.465	52.830	138.142	172.910	141.664	0.00024888	0.00039037	3.2085e-05	413.06	5.7286e-07	1.1661e-06	419.18	129.65	1.9901e-06	2.6646e-06	133.82	52.577	50.243	21.818	1.8567e-06	24.299	6.4495e-05	5.3865e-05	1.441e-05	383.57	5.8692e-07	5.7324e-07	394.14	121.97	5.7499e-07	5.5225e-07	123.81	49.042	46.043	20.647	5.7805e-07	22.756	171.312	-111.769	-47.334	-161.147	-50.745	-93.066	-162.442	-155.860	-53.728	5.269	-158.605	-156.049	-152.814	-150.434	-20.711	-153.487	-8191	255	
8700.762	1	1	0	0	0.02463	0.071349	0.13216	0.14801	0.054799	0.14109	0.2817	0.086081	0.078917	0.12791	0.10265	0.14026	0.20736	0.18811	0.02715	0.14919	-2.3875	-2.6021	-2.1583	-2.8563	-2.3104	-2.4	-2.9979	-2.0521	-2.6479	-2.5042	-2.2396	-2.9375	-2.3563	-2.2313	-2.9458	-2.075	59.488	143.862	-129.928	-155.149	54.491	154.389	-128.752	-4.953	0.245	-76.590	184.277	-165.336	-155.611	111.335	-127.312	87.743	0.00027328	0.00023798	7.7919e-05	416.48	1.753e-06	1.5869e-06	420.25	130.4	1.9528e-06	1.6778e-06	132.43	52.28	49.378	21.883	1.3427e-06	24.064	6.3858e-05	5.1341e-05	1.4406e-05	384.56	5.8956e-07	5.7588e-07	394.56	122.51	5.7895e-07	5.6783e-07	123.77	48.969	45.744	20.593	5.6744e-07	22.671	185.301	-145.055	-87.546	-160.437	5.339	-48.738	-162.601	-155.754	-45.158	-14.074	-158.432	-155.522	-153.221	-150.388	-15.218	-153.934	-8191	255	
8700.859	1	1	0	0	0.20689	0.13361	0.4141	0.25763	0.20855	0.12345	0.25407	0.075384	0.021825	0.17403	0.15707	0.28503	0.13367	0.16417	0.097647	0.23025	-2.1958	-2.6479	-2.0104	-2.6917	-2.2875	-2.3083	-3.1375	-2.225	-2.6396	-2.8583	-2.1937	-2.9479	-2.4792	-2.2083	-2.9833	-2.3104	133.807	108.720	-11.996	-90.303	173.304	-114.932	103.223	-136.350	23.033	-97.138	182.131	-150.515	-84.060	99.009	50.847	-10.279	0.00025194	0.00020566	7.4516e-05	416.09	3.145e-07	1.0531e-06	416.46	130.68	1.0716e-06	2.1238e-06	130.76	51.446	49.239	21.818	1.3815e-06	23.975	6.4992e-05	4.9477e-05	1.4249e-05	384.12	5.893e-07	5.873e-07	393.5	122.1	5.8518e-07	5.2399e-07	122.64	48.464	45.701	20.542	5.4448e-07	22.468	175.451	-118.413	-67.749	-161.427	-55.661	-51.720	-162.862	-156.364	177.139	-14.105	-158.422	-155.932	-153.519	-150.587	-73.769	-153.513	-8191	255	
8700.955	1	1	0	0	0.27758	0.35119	0.087827	0.26486	0.070188	0.076662	0.1867	0.18297	0.13245	0.23112	0.038152	0.084636	0.19143	0.12827	0.094143	0.16785	-2.1208	-2.7417	-2.1333	-2.7167	-2.4833	-2.0812	-3.0333	-2.2	-2.3417	-2.9875	-2.0958	-2.6292	-2.7771	-2.3375	-2.775	-2.4813	70.876	78.895	-174.186	114.376	-166.506	-28.800	121.771	148.948	89.531	42.748	72.638	-2.693	43.111	-90.418	-124.910	-90.008	0.00023655	0.00015969	5.3842e-05	413.87	1.8047e-06	3.312e-06	424.11	130.95	1.14e-06	3.1166e-06	131.3	51.366	49.066	21.64	5.9956e-07	24.437	6.409e-05	4.9105e-05	1.4467e-05	382.67	5.5072e-07	5.4285e-07	394.14	122.55	5.7985e-07	5.1878e-07	123.35	48.334	45.398	20.499	5.5566e-07	22.693	173.721	-165.676	-105.210	-161.220	-40.337	-77.848	-162.163	-156.530	-6.537	1.908	-159.181	-156.056	-153.386	-150.758	-9.825	-153.789	-8191	255	
8701.051	1	1	0	0	0.32674	0.30183	0.12134	0.26582	0.10871	0.14629	0.1985	0.22205	0.048819	0.037976	0.15105	0.2581	0.1578	0.12267	0.20125	0.21938	-1.7896	-2.8375	-2.2854	-2.6063	-2.6646	-2.2792	-2.8	-2.2833	-2.275	-2.8979	-2.1646	-2.6771	-2.8021	-2.1375	-2.7542	-2.6896	182.041	-103.984	-158.021	-51.296	-22.016	135.262	-128.452	-126.824	-86.745	-14.033	-1.330	86.916	27.387	129.196	164.725	111.878	0.0002911	7.516e-05	5.6427e-05	417.54	2.7773e-06	2.7335e-06	420.92	130.97	1.2673e-06	2.6113e-06	132.16	52.44	49.505	21.939	4.0892e-06	24.302	6.4685e-05	4.9457e-05	1.4473e-05	383.75	5.486e-07	5.2949e-07	394.93	123.02	5.7194e-07	5.3393e-07	123.67	49.173	45.937	20.656	5.6839e-07	22.814	-173.864	-56.725	-71.494	-160.888	-15.843	-100.592	-162.751	-156.271	-95.633	-24.787	-158.230	-156.243	-152.832	-150.901	-26.468	-153.995	-8191	255	
8701.147	1	1	0	0	0.20385	0.14177	0.1524	0.1295	0.039309	0.15979	0.1026	0.053636	0.085873	0.13531	0.13494	0.1491	0.13941	0.24136	0.21853	0.14367	-1.6562	-2.8104	-2	-2.4958	-2.6292	-2.1229	-2.7521	-2.2938	-2.2479	-3.0167	-2.3083	-2.3771	-2.9083	-2.1688	-2.8854	-2.5812	85.455	43.453	138.110	160.213	-104.607	-104.135	42.310	-170.892	86.893	146.377	89.177	178.516	84.896	171.888	139.655	-155.484	0.00027384	0.00030185	2.5733e-05	412.97	5.8944e-07	3.0333e-06	425.63	129.5	1.3369e-06	2.0587e-06	133.53	51.865	50.419	21.944	1.6582e-06	24.322	6.2945e-05	4.9521e-05	1.3811e-05	384.93	5.4358e-07	5.554e-07	397.92	122.37	5.7215e-07	5.6019e-07	124.85	49.272	46.316	20.685	5.8112e-07	22.892	181.729	-114.726	-94.550	-160.959	-44.959	-75.102	-162.810	-156.193	-80.819	-13.821	-158.818	-155.715	-153.225	-150.532	-88.056	-154.191	-8191	255	
8701.266	1	1	0	0	0.064411	0.078901	0.16474	0.20156	0.21712	0.089908	0.007576	0.2685	0.10239	0.11681	0.12509	0.19378	0.20321	0.026671	0.13851	0.15614	-1.65	-2.9688	-2.4771	-2.3875	-2.9583	-1.9521	-2.8354	-2.8583	-2.1021	-2.9146	-2.5792	-2.1167	-2.8563	-2.1271	-2.5917	-2.6271	128.256	126.924	90.898	-98.532	118.774	-65.410	18.461	141.098	12.620	77.408	116.955	185.740	180.498	102.194	17.419	129.093	0.00027721	0.00028209	7.8143e-05	411.98	2.2515e-06	1.1977e-06	422.49	130.34	1.6902e-06	1.093e-06	133.27	52.166	49.8	21.785	1.9616e-06	24.394	6.3903e-05	4.9821e-05	1.4625e-05	385.21	5.4077e-07	5.7731e-07	396.89	122.8	6.1353e-07	5.3297e-07	123.74	48.956	46.252	20.626	5.8221e-07	22.82	172.936	-38.508	-81.093	-161.159	-62.987	-124.851	-162.668	-156.105	-8.109	106.782	-159.115	-155.428	-152.746	-150.763	-36.092	-154.101	-8191	255	
8701.362	1	1	0	0	0.15748	0.20022	0.42082	0.14267	0.086757	0.12238	0.036925	0.14932	0.1297	0.022554	0.13402	0.33162	0.061657	0.022065	0.059247	0.010962	-1.7521	-2.9417	-2.4896	-2.3	-3.0312	-2.3458	-2.5812	-2.8521	-1.9542	-2.7458	-2.5563	-2.3812	-3.0271	-2.2354	-2.2417	-2.975	-28.490	-165.911	61.883	-132.000	0.483	91.548	-102.886	36.314	35.811	-162.064	-154.669	166.414	183.675	14.634	178.312	-11.067	0.0002371	4.3753e-05	7.7286e-05	415.75	1.3783e-06	8.3362e-07	419.9	130.16	2.2051e-06	1.344e-06	132.08	52.03	49.152	21.69	2.0308e-06	23.972	6.4599e-05	5.2472e-05	1.4711e-05	385.33	5.4899e-07	5.4923e-07	394.86	122.58	5.6776e-07	5.5863e-07	123.02	48.866	45.54	20.505	5.9814e-07	22.58	182.837	-30.921	-59.770	-160.942	-42.200	-60.555	-162.534	-155.923	-67.510	-89.369	-158.703	-155.709	-152.618	-150.544	-27.160	-153.803	-8191	255	
8701.434	1	1	0	0	0.127	0.20161	0.16446	0.33515	0.10084	0.18716	0.16663	0.15577	0.2781	0.18986	0.075983	0.13061	0.063456	0.18662	0.19761	0.3298	-1.7333	-2.7479	-2.4854	-2.0021	-3.0271	-2.2188	-2.5292	-2.7875	-1.9375	-2.7708	-2.5563	-2.2875	-2.7979	-2.4938	-2.35	-2.8729	69.140	147.263	60.300	94.273	27.452	87.287	115.289	151.143	-99.402	-53.301	85.348	53.141	172.359	178.737	43.556	127.949	0.00027142	0.00016388	5.1572e-05	410.21	2.4717e-06	1.5656e-06	416.96	129.89	1.5906e-06	3.0866e-06	132.1	52.012	48.682	21.643	1.5107e-06	23.756	6.5472e-05	5.3426e-05	1.4208e-05	382.08	5.46e-07	5.7541e-07	394.16	122.2	5.9529e-07	5.6922e-07	123.51	48.768	45.47	20.375	5.8013e-07	22.566	173.960	-75.503	-94.526	-161.293	8.390	-46.700	-162.309	-156.550	-50.440	10.958	-158.436	-155.350	-152.740	-150.310	28.768	-153.324	-8191	255	
8701.532	1	1	0	0	0.01833	0.081028	0.41354	0.30497	0.18569	0.19117	0.31328	0.29128	0.096915	0.18695	0.23425	0.44273	0.25917	0.11501	0.03983	0.33738	-1.8604	-2.6625	-2.8042	-2.2479	-2.8583	-2.4729	-2.4083	-3.1208	-2.1875	-2.6292	-2.8771	-2.2896	-2.7292	-2.5938	-2.1604	-3.0771	170.949	98.260	-169.268	169.642	-75.735	66.735	131.917	119.019	7.022	100.284	8.223	171.786	55.707	113.722	-53.647	139.629	0.00029171	0.00014015	7.4986e-05	412.83	1.936e-06	2.9354e-06	423.27	130.54	1.9326e-06	1.7625e-06	134.59	52.366	49.367	21.714	2.2828e-06	24.232	6.5606e-05	5.1847e-05	1.4764e-05	384.17	5.5824e-07	5.508e-07	396.93	122.75	5.9228e-07	5.8255e-07	124.63	49.032	45.841	20.538	5.5951e-07	22.855	179.754	-164.978	-67.610	-161.063	-0.789	-86.408	-162.477	-156.224	-52.400	4.179	-158.524	-155.973	-152.990	-151.124	-94.331	-153.988	-8191	255	
8701.650	1	1	0	0	0.033948	0.10031	0.011359	0.096761	0.24346	0.24049	0.1574	0.24946	0.22527	0.080497	0.21344	0.13865	0.19014	0.31016	0.092325	0.14585	-1.9438	-2.4688	-2.7188	-2.0833	-2.8375	-2.5833	-2.3146	-2.9521	-2.3312	-2.5958	-2.9562	-2.1188	-2.7146	-2.7542	-2.1979	-3.0021	91.932	55.232	-19.960	-140.292	-76.695	60.664	78.205	-142.474	139.421	47.160	150.409	142.778	-78.711	114.222	86.325	180.003	0.00031155	0.00018722	4.7872e-05	411.8	1.7261e-06	2.5662e-06	422.33	130.09	2.5416e-06	9.1221e-07	133.72	52.263	49.917	21.985	2.1416e-06	24.215	6.5352e-05	5.2358e-05	1.3979e-05	383.9	5.6183e-07	5.4667e-07	396.8	122.75	5.8449e-07	5.733e-07	124.67	49.275	46.106	20.613	5.8476e-07	22.82	178.398	-105.209	20.600	-160.794	-47.239	-83.910	-162.445	-156.063	-100.050	-22.197	-159.036	-155.738	-152.611	-150.782	-36.838	-153.805	-8191	255	
8701.747	1	1	0	0	0.12045	0.24393	0.1923	0.086811	0.12794	0.37476	0.26013	0.04837	0.24865	0.061139	0.086913	0.219	0.16171	0.26992	0.22223	0.074354	-2.1583	-2.2667	-2.9208	-2.1979	-2.9375	-2.7396	-2.1333	-2.9437	-2.4542	-2.4562	-2.9333	-2.2208	-2.7146	-2.6458	-2.1312	-3.0958	156.677	83.761	116.415	-56.339	95.416	27.428	89.991	-162.574	72.218	-95.841	-39.229	-135.001	15.751	175.638	-169.029	158.185	0.00028444	0.0001571	4.4882e-05	409.74	1.456e-06	8.9774e-07	418.62	129.2	2.0538e-06	1.7234e-06	131.76	52.112	49.265	21.598	7.7296e-07	24.157	6.6591e-05	5.1238e-05	1.3802e-05	383.84	5.803e-07	5.4741e-07	393.71	122.16	6.2011e-07	5.621e-07	123.81	49.003	45.934	20.464	5.91e-07	22.624	181.390	-54.009	-83.101	-161.274	-70.329	-145.777	-162.138	-156.289	-5.949	-73.745	-158.534	-155.611	-153.130	-150.026	-27.372	-153.488	-8191	255	
8701.843	1	1	0	0	0.086349	0.11005	0.091497	0.050983	0.23542	0.06908	0.057458	0.30367	0.1199	0.024832	0.20873	0.29969	0.22683	0.11288	0.12979	0.16244	-1.9937	-2.1688	-2.9646	-1.9937	-2.6354	-2.8292	-2.2458	-2.8917	-2.4396	-2.3292	-2.9542	-2.1625	-2.7062	-3.0229	-2.0896	-2.8979	144.387	-74.291	-141.067	36.888	-81.906	-115.889	12.816	25.368	-6.231	3.817	-68.025	46.704	-77.406	151.652	26.001	-23.429	0.00026171	0.00018705	9.3007e-05	411.61	9.4114e-07	2.9648e-06	421.88	129.79	7.2959e-07	1.8761e-06	133	52.414	48.959	21.413	1.6817e-06	24.032	6.6553e-05	5.32e-05	1.4932e-05	382.76	5.935e-07	5.5874e-07	395.9	122.06	6.0523e-07	5.9536e-07	123.6	49.021	45.43	20.304	5.8779e-07	22.586	180.248	-70.977	-93.757	-161.266	-75.657	-81.771	-162.638	-155.828	-33.052	-161.674	-158.603	-156.363	-152.879	-150.370	-78.291	-153.802	-8191	255	
8701.939	1	1	0	0	0.2796	0.28008	0.15103	0.1459	0.10335	0.13289	0.11059	0.26314	0.19133	0.093059	0.29239	0.1791	0.12257	0.28214	0.10654	0.12941	-2.1458	-2.0104	-2.9292	-2.2167	-2.4271	-3.1708	-2.2062	-2.6083	-2.4896	-2.175	-2.8167	-2.4062	-2.4271	-2.9646	-2.1146	-2.8979	-119.804	-87.032	-47.993	-130.856	-120.994	-0.806	68.694	-167.676	-156.467	-173.818	50.703	26.260	-119.285	-114.748	70.894	183.076	0.00026661	0.00014793	8.7442e-05	414.09	2.8134e-06	1.6759e-06	420.98	129.46	8.349e-07	2.825e-06	132.33	51.53	48.713	21.58	2.4816e-06	23.894	6.4083e-05	5.3691e-05	1.4494e-05	383.24	6.0133e-07	5.3717e-07	395.84	122	5.9138e-07	5.7422e-07	123.59	48.911	45.615	20.325	5.9334e-07	22.585	176.521	-92.069	-61.138	-161.108	-28.037	-79.523	-162.146	-156.043	-80.972	21.721	-158.694	-155.711	-152.784	-150.479	-58.111	-153.552	-8191	255	
8702.060	1	1	0	0	0.20432	0.13008	0.13344	0.15644	0.23322	0.12754	0.31868	0.068046	0.20705	0.12595	0.14636	0.16206	0.16701	0.045466	0.10467	0.10112	-2.225	-2.1271	-2.8146	-2.3854	-2.4062	-3.0479	-2.2583	-2.55	-2.6875	-2.1958	-2.9479	-2.5271	-2.3208	-3.0042	-2.2938	-2.7917	-34.719	101.951	169.742	63.421	180.699	149.939	46.240	30.341	-97.995	15.999	78.885	19.761	65.797	-91.827	-115.409	106.420	0.00027796	0.00034139	1.3486e-05	411.2	4.5352e-07	2.1604e-06	420.74	129.66	2.619e-06	1.4395e-06	132.02	52.485	48.848	21.612	1.1083e-06	24.204	6.4461e-05	5.3212e-05	1.4787e-05	384	5.4795e-07	5.4706e-07	395.79	121.94	5.8239e-07	5.6506e-07	123.96	49.28	45.415	20.337	6.1586e-07	22.677	178.541	-88.731	54.174	-161.299	-76.399	-57.240	-161.990	-156.235	-11.666	-27.016	-158.391	-155.504	-152.864	-150.216	-73.563	-153.135	-8191	255	
8702.131	1	1	0	0	0.28705	0.29691	0.12614	0.28651	0.16695	0.099656	0.33273	0.19662	0.15731	0.1592	0.21319	0.16162	0.2093	0.089187	0.19404	0.31044	-2.4062	-2.1937	-2.7625	-2.6375	-2.225	-2.9146	-2.4188	-2.6229	-2.85	-2.2625	-2.9042	-2.6625	-2.1167	-2.8979	-2.2854	-2.3812	12.423	110.760	74.135	-0.423	-45.058	55.149	-140.378	172.373	-169.778	-101.143	-54.986	67.156	145.370	176.437	95.407	83.690	0.00026482	0.00014953	4.8416e-05	413.67	1.9212e-06	3.5718e-06	421.4	129.66	1.1505e-06	2.1355e-06	133.05	51.616	49.127	21.676	1.0376e-06	24.189	6.3907e-05	5.3735e-05	1.4657e-05	384.44	5.9432e-07	5.5831e-07	395.99	122.03	5.7809e-07	6.0864e-07	123.76	48.776	45.556	20.41	5.9992e-07	22.675	180.907	-39.940	-69.185	-161.278	-49.380	-64.945	-162.125	-156.046	-40.880	-61.151	-158.761	-155.966	-152.829	-149.937	5.915	-153.365	-8191	255	
8702.252	1	1	0	0	0.136	0.27148	0.028343	0.24275	0.10185	0.24035	0.13159	0.32232	0.12783	0.2901	0.24581	0.055069	0.25397	0.32307	0.24253	0.20877	-2.4396	-2.2188	-2.875	-2.6958	-2.275	-3.0083	-2.5354	-2.3812	-3.0104	-2.0958	-2.7708	-2.7021	-1.9729	-2.8354	-2.5417	-2.2979	59.896	-109.593	-95.748	-108.763	22.849	-84.054	122.392	169.420	19.840	162.519	-128.093	75.175	-163.550	65.870	-37.999	19.089	0.00030156	0.00019225	6.4702e-05	409.94	2.3388e-06	2.0992e-06	417.55	129.21	1.3263e-06	2.5484e-06	132.46	51.969	48.802	21.769	3.3668e-06	23.989	6.4989e-05	5.4273e-05	1.5146e-05	380.83	5.7252e-07	5.6777e-07	394.21	122.03	5.6966e-07	5.6974e-07	123.86	48.95	45.635	20.459	5.7818e-07	22.632	173.962	-65.081	-108.966	-161.098	-21.241	-56.182	-162.750	-156.293	-94.261	0.087	-159.036	-155.899	-153.334	-150.595	-39.375	-153.380	-8191	255	
8702.346	1	1	0	0	0.085568	0.33001	0.08831	0.15349	0.098904	0.22371	0.29959	0.22966	0.11222	0.19197	0.3292	0.16823	0.17863	0.069077	0.034257	0.07979	-2.4521	-2.0875	-2.6188	-2.8646	-2.1417	-2.7562	-2.5354	-2.1146	-2.9646	-2.05	-2.6479	-2.8958	-2.2292	-2.9583	-2.6083	-2.325	159.062	64.223	-103.524	177.037	131.437	91.125	-149.126	157.624	-115.587	60.883	100.716	92.345	170.269	182.729	23.482	12.447	0.00028829	0.00029008	4.701e-05	409.57	7.4049e-07	1.5062e-06	417.08	128.69	2.2738e-06	1.7055e-06	131.93	52.006	48.13	21.069	4.1344e-07	23.919	6.5434e-05	5.2635e-05	1.4391e-05	381.56	5.6694e-07	5.6933e-07	395.13	121.59	5.9998e-07	5.6571e-07	123.36	48.735	44.897	20.042	5.8021e-07	22.477	175.398	-4.479	-94.904	-161.578	-25.066	-80.306	-162.415	-156.245	-88.359	18.930	-158.452	-155.800	-153.010	-150.215	-51.664	-152.782	-8191	255	
8702.442	1	1	0	0	0.21916	0.099667	0.023016	0.18915	0.1394	0.09566	0.32406	0.23411	0.0927	0.34222	0.14076	0.05404	0.091847	0.11898	0.10593	0.15833	-2.525	-2.2396	-2.5354	-2.975	-2.2521	-2.775	-2.7625	-2.2375	-2.925	-2.2938	-2.4521	-2.8104	-2.1625	-2.7438	-2.675	-2.1521	25.126	-6.233	66.585	125.928	-65.566	-141.498	135.026	-171.590	-103.682	108.521	-102.770	-125.411	177.509	-163.218	164.730	74.107	0.00025368	0.00023587	3.2885e-05	408.26	6.3876e-07	1.2431e-06	418.92	129.09	1.3557e-06	8.3372e-07	132.4	51.276	48.112	21.08	1.1427e-06	23.43	6.2578e-05	5.1277e-05	1.4451e-05	381.67	5.8048e-07	5.5791e-07	396.45	121.31	5.7181e-07	5.404e-07	123.55	48.579	45.027	19.923	5.376e-07	22.197	175.211	-63.081	-97.521	-161.166	113.274	-12.227	-162.064	-156.108	-55.174	-107.626	-158.638	-155.777	-152.481	-150.019	-58.055	-152.804	-8191	255	
8702.539	1	1	0	0	0.2267	0.11296	0.20327	0.031196	0.20128	0.15583	0.15681	0.048624	0.13475	0.19196	0.091184	0.063331	0.11819	0.25115	0.22518	0.17716	-2.3688	-2.3917	-2.2938	-2.8312	-2.2854	-2.8146	-2.7188	-1.9583	-2.8479	-2.3563	-2.1167	-2.9479	-2.4271	-2.4688	-2.975	-2.2104	66.348	120.131	82.099	-160.503	-167.319	182.397	-135.888	-38.949	162.938	129.858	87.497	-16.320	162.195	156.149	90.033	-122.863	0.0002937	2.4053e-05	0.00010699	405.13	4.5489e-07	1.469e-06	418.5	128.2	2.213e-06	3.8947e-06	132.22	51.776	47.94	20.754	2.4435e-06	23.296	6.1447e-05	5.1155e-05	1.3452e-05	379.16	5.6209e-07	5.3444e-07	394.12	120.84	5.3658e-07	5.6267e-07	122.96	48.298	44.771	19.621	5.2231e-07	21.923	178.707	-61.406	-108.780	-161.030	-8.919	-60.144	-162.892	-155.783	-52.124	-54.569	-158.570	-156.023	-152.951	-150.232	-84.188	-152.907	-8191	255	
8702.659	1	1	0	0	0.22617	0.23494	0.18996	0.08458	0.25889	0.16725	0.1215	0.13594	0.21068	0.31063	0.10685	0.087319	0.097023	0.14455	0.165	0.20595	-2.3792	-2.5708	-2.2896	-2.9333	-2.3688	-2.5292	-2.9958	-2.1604	-2.9167	-2.6646	-2.1042	-2.8688	-2.1667	-2.4396	-3.0521	-2.1417	146.241	-147.723	76.379	-15.795	4.348	-52.281	39.144	-116.720	7.033	-39.222	-95.243	176.948	55.068	124.920	-163.411	99.265	0.00024628	0.0002581	5.1269e-05	406.85	2.6062e-06	3.1709e-06	415.24	126.28	1.3818e-06	2.2219e-06	128.37	51.218	48.402	20.838	1.3931e-06	23.245	6.092e-05	4.9406e-05	1.4068e-05	378.77	5.3636e-07	5.1621e-07	391.71	119.88	5.5847e-07	5.1943e-07	121.74	47.934	44.702	19.613	5.4102e-07	21.853	180.074	-73.719	-118.729	-160.862	-12.212	-115.463	-162.539	-156.126	-46.957	-16.970	-158.854	-155.783	-153.591	-149.791	-173.448	-152.733	-8191	255	
8702.731	1	1	0	0	0.17909	0.045242	0.020307	0.12748	0.29371	0.34275	0.11269	0.084062	0.14399	0.17101	0.17567	0.042475	0.15607	0.23667	0.19149	0.057062	-2.4271	-2.6333	-2.3333	-2.9958	-2.3042	-2.3396	-3.0021	-2.2604	-2.6458	-2.6771	-2.1271	-3.1688	-2.4479	-2.3604	-3.025	-2.2396	35.188	132.027	167.041	-128.250	120.836	-83.722	-16.919	74.300	46.919	-146.908	147.945	155.475	-166.645	-115.898	-112.069	148.140	0.0002641	0.00024314	6.7495e-05	408.21	2.1083e-06	2.0566e-06	416.63	128.53	2.04e-06	2.8405e-06	131.31	51.716	47.897	20.808	1.1258e-06	23.535	6.1185e-05	4.9999e-05	1.3649e-05	381.24	5.54e-07	5.3556e-07	392	120.93	5.5374e-07	5.3619e-07	122.74	48.505	44.718	19.656	5.586e-07	22.118	172.273	-91.605	-67.538	-161.140	-88.818	-54.595	-162.461	-155.674	-35.385	-57.454	-158.577	-155.145	-152.957	-149.865	-85.514	-153.530	-8191	255	
8702.827	1	1	0	0	0.037833	0.048773	0.11191	0.092459	0.28094	0.10676	0.2415	0.22633	0.069935	0.29137	0.17339	0.41129	0.22878	0.1426	0.10349	0.18766	-2.2021	-2.8229	-2.0604	-2.9271	-2.4354	-2.2229	-2.8937	-2.2417	-2.5479	-2.8479	-2.1958	-2.8646	-2.4354	-2.1354	-2.8875	-2.2375	-164.551	-169.670	-104.733	9.789	129.819	-113.066	139.825	103.755	132.853	11.449	-145.022	-173.255	-124.648	183.508	165.742	-138.001	0.00026614	0.00015916	3.9634e-05	408.1	2.9945e-06	3.115e-06	418.34	127.35	2.5318e-06	1.3024e-06	131.44	51.839	48.315	20.759	2.1061e-06	23.534	6.2095e-05	4.888e-05	1.4174e-05	380.58	5.5422e-07	5.633e-07	394.75	120.79	5.8166e-07	5.236e-07	123.56	48.61	44.933	19.774	5.5605e-07	22.227	183.207	-98.916	-77.772	-160.546	-12.914	-48.976	-162.223	-155.913	-29.629	-109.751	-158.802	-155.798	-152.425	-150.474	-70.827	-152.987	-8191	255	
8702.948	1	1	0	0	0.1836	0.24545	0.12752	0.11162	0.034669	0.19351	0.14146	0.1007	0.17421	0.086865	0.21438	0.036833	0.2175	0.37483	0.15029	0.16933	-1.8708	-2.8812	-2.175	-2.7604	-2.6625	-2.1396	-3.0146	-2.3937	-2.5396	-2.8604	-2.2042	-2.7833	-2.675	-2.275	-2.9208	-2.3958	-64.525	91.824	-52.732	-93.737	-85.004	-132.745	156.982	108.020	156.257	-69.106	78.012	142.364	99.885	157.195	90.273	75.695	0.0002523	0.00015943	9.9106e-05	411.51	1.0923e-06	3.2488e-06	419.17	127.24	2.4421e-06	3.1952e-06	132.01	52.168	47.981	20.94	2.3355e-06	23.496	6.3757e-05	4.9849e-05	1.4448e-05	381.91	5.3099e-07	5.3391e-07	394.63	120.82	5.7056e-07	5.3693e-07	123.52	48.822	44.811	19.796	5.5921e-07	22.168	171.127	-112.280	-107.370	-161.282	-54.404	-83.485	-162.623	-155.870	-5.527	-83.929	-158.960	-156.037	-153.251	-150.033	-28.842	-152.516	-8191	255	
8703.044	1	1	0	0	0.2147	0.12808	0.10689	0.16475	0.24532	0.33219	0.17037	0.088604	0.29138	0.092732	0.24604	0.098115	0.22165	0.051538	0.19771	0.17111	-1.8542	-2.7958	-1.9646	-2.6875	-2.7833	-2.025	-3.0354	-2.3917	-2.2875	-3.0417	-2.2646	-2.6583	-2.8875	-2.1083	-2.9229	-2.4	156.591	103.057	-86.742	-171.206	-27.137	-25.365	159.854	147.420	-35.310	-61.900	78.010	142.657	86.365	-151.004	184.785	145.868	0.00025584	8.2889e-05	9.8555e-05	415.3	8.7122e-07	2.7579e-06	427.48	128.8	1.4609e-06	2.4519e-06	134.36	52.516	49.112	21.261	1.3344e-06	23.856	6.2642e-05	4.9156e-05	1.4377e-05	383.78	5.6222e-07	5.965e-07	394.98	120.85	5.6561e-07	5.4587e-07	123.51	48.6	44.963	19.862	5.8225e-07	22.162	177.113	-40.446	-84.098	-161.291	-67.752	-38.031	-162.450	-156.031	-7.225	-27.257	-158.920	-156.041	-153.326	-150.502	-26.812	-153.501	-8191	255	
#DATA ENDS
