BOXY.EXE: ISS Imagent and Oximeter Data Acquisition Program Version 0.80
Ascii Record File

#ACQ INFORMATION
2  Detector Channels 
16  External MUX Channels 
1  Auxiliary Channels 
5000  Waveform (CCF) Frequency (Hz)
1  Waveforms Skipped 
30  Waveforms Averaged 
1  Cycles Averaged 
16  Acquisitions per Waveform 
10.0806  Updata Rate (Hz) 

#FILE INFORMATION
TRUE -- External MUX Channel results are PARSED.
FALSE -- AC DC and Phase are NOT grouped.
TRUE -- Companion Program Settings File CREATED.
FALSE -- AC data not excluded
FALSE -- DC data not excluded
FALSE -- Phase data not excluded
FALSE -- Auxillary Chn. data not excluded
Tab delimiters

#CALIBRATION STATE
TRUE -- Waveform Calibration Values APPLIED.


#AUX CALIBRATION VALUES
Val Type	aux-1	

Term	1.0000e+00	
Factor	0.0000e+00	


#WF CALIBRATION VALUES
A = Detector Channel
Val Type	A-AC1	A-AC2	A-AC3	A-AC4	A-AC5	A-AC6	A-AC7	A-AC8	A-AC9	A-AC10	A-AC11	A-AC12	A-AC13	A-AC14	A-AC15	A-AC16	A-DC1	A-DC2	A-DC3	A-DC4	A-DC5	A-DC6	A-DC7	A-DC8	A-DC9	A-DC10	A-DC11	A-DC12	A-DC13	A-DC14	A-DC15	A-DC16	A-Ph1	A-Ph2	A-Ph3	A-Ph4	A-Ph5	A-Ph6	A-Ph7	A-Ph8	A-Ph9	A-Ph10	A-Ph11	A-Ph12	A-Ph13	A-Ph14	A-Ph15	A-Ph16	

Term	0.00000e+00	0.00000e+00	0.00000e+00	0.00000e+00	0.00000e+00	0.00000e+00	0.00000e+00	0.00000e+00	0.00000e+00	0.00000e+00	0.00000e+00	0.00000e+00	0.00000e+00	0.00000e+00	0.00000e+00	0.00000e+00	0.00000e+00	0.00000e+00	0.00000e+00	0.00000e+00	0.00000e+00	0.00000e+00	0.00000e+00	0.00000e+00	0.00000e+00	0.00000e+00	0.00000e+00	0.00000e+00	0.00000e+00	0.00000e+00	0.00000e+00	0.00000e+00	0.00000e+00	0.00000e+00	0.00000e+00	0.00000e+00	0.00000e+00	0.00000e+00	0.00000e+00	0.00000e+00	0.00000e+00	0.00000e+00	0.00000e+00	0.00000e+00	0.00000e+00	0.00000e+00	0.00000e+00	0.00000e+00	
Factor	1.00000e+00	1.00000e+00	1.00000e+00	1.00000e+00	1.00000e+00	1.00000e+00	1.00000e+00	1.00000e+00	1.00000e+00	1.00000e+00	1.00000e+00	1.00000e+00	1.00000e+00	1.00000e+00	1.00000e+00	1.00000e+00	1.00000e+00	1.00000e+00	1.00000e+00	1.00000e+00	1.00000e+00	1.00000e+00	1.00000e+00	1.00000e+00	1.00000e+00	1.00000e+00	1.00000e+00	1.00000e+00	1.00000e+00	1.00000e+00	1.00000e+00	1.00000e+00	X	X	X	X	X	X	X	X	X	X	X	X	X	X	X	X	

B = Detector Channel
Val Type	B-AC1	B-AC2	B-AC3	B-AC4	B-AC5	B-AC6	B-AC7	B-AC8	B-AC9	B-AC10	B-AC11	B-AC12	B-AC13	B-AC14	B-AC15	B-AC16	B-DC1	B-DC2	B-DC3	B-DC4	B-DC5	B-DC6	B-DC7	B-DC8	B-DC9	B-DC10	B-DC11	B-DC12	B-DC13	B-DC14	B-DC15	B-DC16	B-Ph1	B-Ph2	B-Ph3	B-Ph4	B-Ph5	B-Ph6	B-Ph7	B-Ph8	B-Ph9	B-Ph10	B-Ph11	B-Ph12	B-Ph13	B-Ph14	B-Ph15	B-Ph16	

Term	0.00000e+00	0.00000e+00	0.00000e+00	0.00000e+00	0.00000e+00	0.00000e+00	0.00000e+00	0.00000e+00	0.00000e+00	0.00000e+00	0.00000e+00	0.00000e+00	0.00000e+00	0.00000e+00	0.00000e+00	0.00000e+00	0.00000e+00	0.00000e+00	0.00000e+00	0.00000e+00	0.00000e+00	0.00000e+00	0.00000e+00	0.00000e+00	0.00000e+00	0.00000e+00	0.00000e+00	0.00000e+00	0.00000e+00	0.00000e+00	0.00000e+00	0.00000e+00	-1.52421e+02	-1.26321e+02	-1.29806e+02	-1.86538e+02	-8.17425e+01	-9.44387e+01	-1.58482e+02	-1.62015e+02	-7.12364e+01	-6.93310e+01	-1.71970e+02	-1.71209e+02	-1.83751e+02	-1.77240e+02	-8.25703e+01	-1.49604e+02	
Factor	2.27753e-05	1.29415e-04	3.73414e-05	2.99145e-01	1.07142e-06	1.26760e-06	1.64991e-01	5.09512e-02	1.01362e-06	1.41088e-06	8.41624e-02	2.77432e-02	4.04098e-02	8.88480e-03	1.04482e-06	1.27305e-02	1.79682e-06	1.89931e-06	5.29689e-07	1.50663e-01	2.07622e-08	2.08323e-08	7.96040e-02	2.61946e-02	2.06444e-08	2.08380e-08	4.16293e-02	1.37790e-02	2.05187e-02	4.56761e-03	2.07884e-08	6.31791e-03	X	X	X	X	X	X	X	X	X	X	X	X	X	X	X	X	



#DISTANCE SETTINGS
A = Detector Channel
A-1	A-2	A-3	A-4	A-5	A-6	A-7	A-8	A-9	A-10	A-11	A-12	A-13	A-14	A-15	A-16	

2.5000e+00	3.0000e+00	2.5000e+00	3.0000e+00	2.0000e+00	3.0000e+00	1.5000e+00	3.0000e+00	3.0000e+00	3.0000e+00	3.0000e+00	3.0000e+00	3.0000e+00	3.0000e+00	1.5000e+00	3.0000e+00	

B = Detector Channel
B-1	B-2	B-3	B-4	B-5	B-6	B-7	B-8	B-9	B-10	B-11	B-12	B-13	B-14	B-15	B-16	

1.0000e+01	1.0000e+01	1.0000e+01	1.4400e+00	1.0000e+01	1.0000e+01	1.5100e+00	1.9400e+00	1.0000e+01	1.0000e+01	1.9900e+00	2.4900e+00	2.4100e+00	2.9000e+00	1.0000e+01	2.9800e+00	




#DATA BEGINS
time	group	step	mark	flag	A-AC1	A-AC2	A-AC3	A-AC4	A-AC5	A-AC6	A-AC7	A-AC8	A-AC9	A-AC10	A-AC11	A-AC12	A-AC13	A-AC14	A-AC15	A-AC16	A-DC1	A-DC2	A-DC3	A-DC4	A-DC5	A-DC6	A-DC7	A-DC8	A-DC9	A-DC10	A-DC11	A-DC12	A-DC13	A-DC14	A-DC15	A-DC16	A-Ph1	A-Ph2	A-Ph3	A-Ph4	A-Ph5	A-Ph6	A-Ph7	A-Ph8	A-Ph9	A-Ph10	A-Ph11	A-Ph12	A-Ph13	A-Ph14	A-Ph15	A-Ph16	B-AC1	B-AC2	B-AC3	B-AC4	B-AC5	B-AC6	B-AC7	B-AC8	B-AC9	B-AC10	B-AC11	B-AC12	B-AC13	B-AC14	B-AC15	B-AC16	B-DC1	B-DC2	B-DC3	B-DC4	B-DC5	B-DC6	B-DC7	B-DC8	B-DC9	B-DC10	B-DC11	B-DC12	B-DC13	B-DC14	B-DC15	B-DC16	B-Ph1	B-Ph2	B-Ph3	B-Ph4	B-Ph5	B-Ph6	B-Ph7	B-Ph8	B-Ph9	B-Ph10	B-Ph11	B-Ph12	B-Ph13	B-Ph14	B-Ph15	B-Ph16	aux-1	digaux	

8549.871	1	1	0	256	0.16669	0.18346	0.28167	0.30201	0.1432	0.15583	0.30772	0.16603	0.2223	0.12596	0.18381	0.15717	0.077104	0.017805	0.12696	0.13075	-2.55	-2.2687	-2.5208	-2.9354	-2.1625	-2.7208	-2.6771	-2.1937	-2.9583	-2.1521	-2.5062	-2.9542	-1.9667	-2.8604	-2.6604	-2.1875	216.246	15.640	258.111	244.531	-10.551	-44.868	146.477	-39.646	193.431	146.501	213.251	255.198	280.107	230.140	52.983	284.612	0.00017785	0.00096105	0.00013709	796.12	6.4401e-06	2.9646e-06	629.68	235.98	1.9465e-05	9.0248e-06	210.29	64.765	73.798	26.786	5.8758e-06	28.602	0.0020812	0.0022152	0.00062193	924.81	2.4071e-05	2.4215e-05	695.23	255.78	2.3714e-05	2.4248e-05	246.06	77.687	92.539	30.819	2.419e-05	34.359	141.892	234.225	38.415	-47.787	130.322	19.872	-48.590	-43.112	227.604	140.485	-45.045	-40.824	-39.218	-33.184	-33.187	-36.239	-8191	255	
8549.992	1	1	0	0	0.09968	0.051356	0.12714	0.084409	0.14975	0.34829	0.10914	0.14669	0.18367	0.2885	0.083227	0.14029	0.09235	0.10849	0.19117	0.062639	-2.5792	-2.1146	-2.375	-2.8979	-2.1604	-2.7542	-2.6125	-2.2042	-2.9833	-2.4521	-2.4604	-2.9104	-2.1354	-2.7104	-2.6854	-2.1521	103.947	90.252	132.814	275.435	52.303	165.095	188.559	298.746	-32.621	-14.431	197.424	168.515	80.371	118.967	61.816	68.357	0.00017998	0.0023767	6.9002e-05	804.2	2.9766e-06	1.0977e-05	629.76	236.08	8.9293e-06	4.4791e-06	208.55	65.084	73.557	26.867	4.9485e-06	28.684	0.0020557	0.0022003	0.00061413	923.38	2.3601e-05	2.4076e-05	691.74	254.7	2.354e-05	2.4102e-05	244.38	77.796	92.622	30.815	2.3872e-05	34.307	108.813	88.282	138.032	-47.940	150.762	270.865	-48.392	-43.026	206.080	165.640	-44.942	-40.243	-39.112	-33.483	104.113	-36.099	-8191	255	
8550.086	1	1	0	0	0.24352	0.24455	0.025072	0.13681	0.18595	0.2771	0.087394	0.31957	0.13712	0.19552	0.19544	0.13241	0.045199	0.027157	0.060812	0.20476	-2.6292	-2.2708	-2.1688	-2.8125	-2.2729	-2.6708	-2.9875	-2.1146	-2.7104	-2.6896	-2.3333	-2.9667	-2.1604	-2.3083	-2.7083	-2.2229	203.137	-17.890	288.777	234.917	284.163	153.817	208.374	223.207	166.267	4.757	220.810	225.055	-22.189	198.709	208.976	259.218	0.00012999	0.0011176	0.00020978	798.66	1.1817e-05	1.1255e-05	629.96	234.4	1.0195e-05	1.1478e-05	208.44	64.568	73.646	26.729	6.721e-06	28.735	0.0020773	0.0021909	0.00061164	919.79	2.3877e-05	2.4194e-05	691.2	253.88	2.3729e-05	2.4078e-05	243.95	77.425	92.607	30.748	2.3899e-05	34.362	225.184	44.649	-23.094	-47.984	47.023	104.191	-48.777	-43.069	214.598	-42.475	-45.024	-40.333	-38.953	-33.126	61.978	-36.081	-8191	255	
8550.182	1	1	0	0	0.21619	0.12851	0.19013	0.23036	0.13242	0.14243	0.33839	0.22142	0.098231	0.06229	0.14486	0.2884	0.01503	0.065224	0.14342	0.25069	-2.4479	-2.4792	-1.9833	-2.9229	-2.1604	-2.3354	-2.9562	-2.0833	-2.6271	-2.6875	-2.2375	-2.8917	-2.2062	-2.6271	-2.7833	-2.1937	122.515	149.050	-38.615	268.622	290.306	92.967	-50.433	250.314	56.776	269.002	74.950	257.152	106.898	120.111	-20.506	254.293	0.00017086	0.00085453	0.00011399	802.64	8.8194e-06	4.2877e-06	633.15	236.06	6.8679e-06	1.3875e-06	207.48	65.1	74.207	26.753	1.7696e-05	28.67	0.0020817	0.0021955	0.00060274	923.07	2.4031e-05	2.4115e-05	694.95	255.21	2.3806e-05	2.4034e-05	244.05	78.079	92.964	30.879	2.3638e-05	34.564	122.090	159.767	234.746	-47.754	-43.636	176.248	-48.599	-42.759	98.505	95.858	-45.667	-41.010	-38.707	-33.548	104.271	-36.388	-8191	255	
8550.279	1	1	0	0	0.21918	0.15342	0.1104	0.11613	0.14697	0.084102	0.25799	0.36807	0.21735	0.18562	0.26124	0.31411	0.20505	0.18647	0.22336	0.10545	-2.1875	-2.7167	-1.9896	-2.9042	-2.225	-2.3563	-2.8021	-2.1729	-2.6167	-2.7458	-2.2771	-2.9042	-2.4062	-2.2438	-2.9208	-2.1833	123.587	211.379	297.590	72.259	4.981	268.857	104.079	248.152	-51.237	286.278	274.731	247.271	212.605	-16.311	233.573	44.832	0.00038344	0.00051868	9.9453e-06	797.99	6.057e-06	9.8169e-06	634.76	235.66	5.5809e-06	1.0014e-05	205.43	64.317	72.645	26.589	5.9982e-07	28.255	0.0020878	0.002191	0.00060866	923.82	2.4066e-05	2.3985e-05	693.1	254.58	2.3877e-05	2.389e-05	242.16	77.164	91.767	30.528	2.3679e-05	33.995	159.849	83.147	32.295	-47.725	-16.948	-32.663	-48.681	-42.887	-8.107	-60.231	-45.145	-40.300	-38.707	-33.323	10.133	-36.459	-8191	255	
8550.375	1	1	0	0	0.25255	0.26426	0.091755	0.074089	0.3176	0.25363	0.17988	0.21255	0.066695	0.19844	0.18925	0.14449	0.10785	0.39187	0.33913	0.18278	-2.1125	-2.7687	-1.9458	-2.925	-2.6667	-2.2042	-2.9375	-2.2438	-2.3542	-3.1375	-2.1188	-2.8521	-2.6854	-2.3438	-2.8688	-2.45	292.560	49.960	110.011	-21.829	142.590	190.533	-46.903	220.135	231.491	227.562	60.355	-17.782	-37.216	-53.043	90.195	-8.473	0.00021584	0.00066861	0.00015854	794.8	5.1055e-06	6.9329e-06	624.6	233.92	1.0269e-06	5.9083e-06	204.99	63.51	72.353	26.676	2.4732e-06	28.438	0.0020734	0.0021551	0.00060187	919.22	2.3888e-05	2.3836e-05	686.34	253.25	2.3929e-05	2.3572e-05	240.6	76.763	91.96	30.511	2.3669e-05	34.138	117.102	-52.820	39.724	-47.610	170.053	-35.317	-48.621	-43.030	36.146	127.623	-44.580	-40.508	-39.067	-33.482	-52.035	-36.456	-8191	255	
8550.471	1	1	0	0	0.08516	0.14215	0.40022	0.25151	0.22673	0.20673	0.16659	0.12934	0.15627	0.024557	0.037626	0.18228	0.12451	0.065246	0.24752	0.21976	-2.1104	-2.7938	-2.1813	-2.6833	-2.7167	-2.3625	-2.7479	-2.3604	-2.1917	-2.9938	-2.0833	-2.8396	-2.8021	-2.2292	-3.2	-2.4479	-10.757	82.116	196.335	253.215	103.781	-12.900	10.073	-42.429	61.398	27.402	248.892	283.734	-30.316	204.375	206.174	-31.403	9.0511e-05	0.00025078	0.00016551	806.21	1.1558e-05	4.7182e-06	625.17	233.98	1.3418e-06	6.1719e-06	206.26	64.639	73.094	26.813	3.3586e-06	28.647	0.0020767	0.002148	0.0006058	923.13	2.3776e-05	2.3575e-05	689.03	253.49	2.3598e-05	2.3473e-05	243.05	77.139	92.095	30.695	2.3849e-05	34.319	-2.227	83.203	263.702	-47.637	77.881	60.732	-48.398	-42.765	207.266	122.839	-45.131	-40.314	-38.759	-33.065	42.058	-36.085	-8191	255	
8550.567	1	1	0	0	0.18201	0.064672	0.14558	0.29792	0.10167	0.13462	0.12012	0.13237	0.16675	0.30734	0.26204	0.15344	0.13908	0.14715	0.15187	0.17073	-1.7792	-2.9396	-2.1542	-2.6229	-2.8271	-2.1458	-2.9021	-2.5708	-2.2396	-2.9896	-2.2333	-2.5438	-2.9104	-2.0792	-2.7417	-2.5958	4.090	2.323	182.246	92.725	243.430	-41.842	235.930	265.925	108.294	91.551	246.401	-44.299	193.021	268.153	208.639	176.096	0.00026675	0.0010922	0.00035875	798.04	4.2462e-06	5.2559e-06	635.07	236.09	7.6426e-06	1.3044e-05	206.69	65.047	73.776	26.956	8.0059e-06	29.018	0.0020697	0.0021567	0.00061087	924.96	2.3837e-05	2.3823e-05	695.02	254.69	2.3681e-05	2.3715e-05	244.75	78.192	92.36	30.855	2.4174e-05	34.618	137.038	54.620	220.467	-47.886	-22.110	214.490	-48.101	-42.343	280.155	18.793	-44.553	-39.876	-38.042	-32.951	15.201	-36.474	-8191	255	
8550.663	1	1	0	0	0.0272	0.2377	0.30094	0.16943	0.19718	0.15167	0.20355	0.20501	0.28254	0.28198	0.052967	0.42885	0.20227	0.090417	0.29063	0.16773	-1.6104	-2.8875	-2.2667	-2.5146	-2.9542	-2.1562	-2.825	-2.8167	-1.9917	-2.9979	-2.275	-2.5312	-2.9792	-2.1875	-2.9188	-2.8	265.745	133.382	80.623	-49.564	194.824	176.603	-28.040	279.857	130.030	117.953	285.539	207.621	255.886	-11.249	-51.643	250.224	0.00031935	0.0013694	8.851e-05	805.27	6.8182e-06	5.7542e-06	634.79	237.15	1.866e-06	7.4127e-06	208.84	65.527	73.124	26.935	6.0919e-06	29.112	0.0020754	0.0021827	0.00061636	927.83	2.3782e-05	2.3957e-05	697.91	256.41	2.3885e-05	2.4104e-05	246.37	78.26	92.54	30.933	2.4205e-05	34.61	89.366	3.526	116.318	-47.025	4.724	-57.270	-48.504	-42.457	16.037	2.628	-45.163	-40.855	-39.243	-33.478	42.400	-36.155	-8191	255	
8550.784	1	1	0	0	0.18042	0.02944	0.16172	0.13994	0.21379	0.082554	0.24436	0.18068	0.070736	0.226	0.1436	0.060272	0.19315	0.31703	0.1531	0.1374	-1.775	-2.8458	-2.4042	-2.2	-2.875	-2.1063	-2.8458	-2.8354	-2.0542	-2.7229	-2.5896	-2.3292	-2.9	-2.3146	-2.6479	-2.9354	18.829	246.092	181.545	238.802	155.106	-24.856	154.225	281.398	278.677	-55.642	178.886	-23.912	106.847	227.061	273.200	24.823	9.8532e-05	0.00016302	0.00024551	800.58	3.2803e-06	1.1741e-05	634.5	235.6	1.1376e-05	7.3964e-06	209.4	65.006	74.192	26.851	4.4746e-06	28.911	0.0020769	0.0021892	0.00061506	924.75	2.3846e-05	2.418e-05	693.35	255.4	2.3564e-05	2.414e-05	244.99	77.714	92.838	30.927	2.4321e-05	34.474	102.477	118.871	217.478	-47.837	121.040	53.373	-48.222	-42.705	-22.840	55.882	-44.780	-40.065	-38.799	-33.412	103.795	-36.124	-8191	255	
8550.880	1	1	0	0	0.31036	0.15221	0.10941	0.22772	0.1646	0.1587	0.045164	0.31494	0.18324	0.10155	0.21292	0.030665	0.18288	0.24856	0.37885	0.17012	-1.5917	-2.7979	-2.3708	-2.2292	-2.8958	-2.3229	-2.6937	-2.85	-2.3271	-2.8833	-2.6417	-2.1208	-2.7938	-2.3833	-2.4083	-2.925	22.808	244.492	85.138	38.090	181.290	74.138	-33.964	218.352	194.029	134.094	198.731	297.198	86.110	256.938	-24.344	132.026	0.00019297	0.0016476	4.0592e-05	798.62	4.2381e-06	1.0215e-05	628.79	237.75	6.7668e-06	6.1254e-06	211.01	65.392	74.112	27.14	3.7738e-06	29.287	0.002082	0.0022108	0.00061646	922.57	2.3774e-05	2.4273e-05	692.94	255.54	2.3667e-05	2.4326e-05	246.59	78.1	92.999	31.138	2.4048e-05	34.688	78.721	49.042	132.654	-47.558	4.887	121.955	-48.154	-42.832	182.383	105.361	-44.779	-40.413	-38.358	-33.426	-35.442	-36.550	-8191	255	
8550.976	1	1	0	0	0.12202	0.29486	0.10261	0.25379	0.22507	0.17306	0.11404	0.14815	0.09201	0.047816	0.21249	0.19084	0.056515	0.29693	0.17685	0.15089	-1.7708	-2.6146	-2.4479	-2.0938	-2.7792	-2.4667	-2.5979	-3.0312	-2.05	-2.6479	-2.7792	-2.1375	-2.9083	-2.475	-2.2354	-3.0125	241.489	295.155	9.292	217.107	-56.923	286.887	164.575	31.743	56.828	237.109	-48.187	210.112	175.359	219.297	171.232	6.051	0.0001102	0.0010312	0.00041896	803.78	8.6375e-06	7.2946e-06	632.88	236.15	3.6866e-06	2.4718e-06	211.11	65.983	74.293	27.12	1.6059e-05	29.37	0.0020927	0.0022208	0.00061572	924.4	2.4064e-05	2.4335e-05	696.01	255.79	2.4121e-05	2.428e-05	247.08	78.729	93.805	31.339	2.4084e-05	35.045	32.371	65.819	122.406	-48.222	267.078	45.822	-48.802	-43.055	266.099	128.527	-44.977	-40.452	-39.085	-33.537	38.418	-36.292	-8191	255	
8551.072	1	1	0	0	0.2727	0.27493	0.20338	0.18496	0.2064	0.19933	0.089311	0.098705	0.28786	0.21094	0.12105	0.20899	0.23183	0.14158	0.18692	0.17498	-1.5625	-2.5542	-2.7208	-2.0708	-2.6625	-2.5062	-2.325	-2.8542	-2.0521	-2.4437	-2.6979	-2.3125	-2.6229	-2.3937	-2.2771	-2.9458	257.608	42.646	87.615	25.988	-43.605	145.804	132.178	83.846	43.839	217.360	294.005	-26.301	139.806	-8.964	1.162	224.479	0.00027582	0.0010575	6.1424e-05	800.78	1.0332e-05	1.5774e-05	637.03	238.58	1.9143e-06	5.7832e-06	211.72	66.598	74.27	27.539	6.1248e-06	29.581	0.0021094	0.0022155	0.00061051	927.57	2.4248e-05	2.432e-05	699.43	257.28	2.4236e-05	2.4337e-05	249.04	79.621	94.219	31.477	2.4121e-05	35.373	112.200	11.158	201.275	-48.107	88.148	100.886	-48.678	-42.777	122.613	21.319	-45.329	-40.642	-38.678	-33.896	42.514	-36.630	-8191	255	
8551.167	1	1	0	0	0.16649	0.17003	0.23202	0.086187	0.039305	0.25768	0.22059	0.29745	0.18415	0.077776	0.16502	0.27498	0.43129	0.21101	0.14078	0.053607	-1.8292	-2.3958	-2.8896	-2.1646	-2.7729	-2.5417	-2.3229	-3.025	-2.5062	-2.4896	-2.9396	-2.3917	-2.7646	-2.5979	-2.0438	-2.85	35.176	288.425	-60.451	-24.100	43.896	105.629	18.443	234.782	280.952	115.594	103.576	162.572	233.786	199.277	12.353	259.820	0.00024769	0.0011533	0.00038673	804.59	1.0505e-06	1.1774e-05	636.41	238.94	6.1137e-06	6.7584e-06	211.77	66.456	74.914	27.394	4.0702e-06	29.608	0.0021086	0.0022187	0.00061304	927.77	2.4327e-05	2.4248e-05	697.73	258.38	2.4102e-05	2.4278e-05	248.28	79.263	94.181	31.382	2.3994e-05	35.298	80.520	62.563	-10.157	-47.724	274.624	188.571	-48.751	-42.924	-24.104	131.741	-45.545	-40.199	-38.806	-33.409	-4.524	-36.561	-8191	255	
8551.264	1	1	0	0	0.24805	0.22191	0.042987	0.24648	0.099255	0.084083	0.097063	0.294	0.31202	0.071198	0.12674	0.23387	0.12391	0.3583	0.087671	0.16767	-1.7687	-2.2062	-2.7938	-2.0563	-2.6375	-2.8042	-2.2333	-2.9583	-2.5146	-2.3375	-2.95	-2.2938	-2.575	-2.7479	-1.9479	-2.9146	91.831	276.097	27.010	12.645	94.061	15.002	194.804	259.669	284.052	207.486	221.079	267.321	209.157	289.285	-47.026	197.257	5.6497e-05	0.00057987	0.00022296	809.19	1.6272e-05	5.8301e-06	634.54	239.84	7.2295e-06	9.7233e-06	213.73	66.791	75.173	27.533	7.0462e-06	29.932	0.0021214	0.0022167	0.0006143	931.89	2.435e-05	2.4047e-05	698.32	258.56	2.4151e-05	2.4148e-05	249.63	79.826	94.562	31.497	2.4237e-05	35.596	89.990	27.752	175.525	-47.656	152.043	45.155	-48.462	-42.752	-12.368	30.738	-44.747	-40.565	-38.497	-33.259	134.706	-36.265	-8191	255	
8551.383	1	1	0	0	0.039485	0.12389	0.11502	0.1028	0.13843	0.21375	0.14038	0.29381	0.16498	0.061698	0.17792	0.27462	0.21155	0.156	0.25814	0.27314	-2.2229	-1.9521	-2.8604	-2.2958	-2.375	-2.8208	-2.3458	-2.9604	-2.4583	-2.0542	-2.9833	-2.3229	-2.5875	-2.9646	-2.1875	-2.75	225.600	173.714	147.667	206.562	287.225	32.270	210.970	196.038	136.166	257.147	171.219	252.603	-46.711	-23.912	190.141	103.155	0.00017457	0.0010599	0.00018446	803.68	4.4626e-06	1.3101e-05	636.84	240.46	8.0531e-06	4.4384e-06	212.89	67.176	76.351	27.625	8.2728e-06	29.852	0.0021102	0.0022109	0.00061964	932.24	2.4354e-05	2.417e-05	701.79	259.51	2.4216e-05	2.4259e-05	250.37	80.236	94.966	31.603	2.4536e-05	35.779	82.445	9.792	11.878	-47.868	94.948	18.323	-48.347	-42.867	97.965	175.680	-44.533	-40.687	-38.594	-33.580	-50.336	-35.989	-8191	255	
8551.480	1	1	0	0	0.15214	0.22489	0.21547	0.12233	0.14739	0.078849	0.2485	0.073537	0.11116	0.49166	0.33766	0.017918	0.17121	0.11283	0.20596	0.094021	-2.2625	-2.1417	-2.8292	-2.3396	-2.2646	-2.7896	-2.0792	-2.5271	-2.9646	-2.2	-2.9271	-2.5229	-2.4292	-3.1312	-2.1042	-2.7146	115.284	164.163	185.759	-56.334	160.315	156.215	185.642	154.952	38.083	-44.788	197.169	24.614	-52.818	288.109	217.779	155.790	8.7283e-05	0.00078172	0.00021981	802.53	1.1632e-05	3.5467e-06	641.74	240.02	5.3468e-06	4.1421e-06	216.6	68.339	75.708	27.817	7.7511e-06	30.225	0.0021161	0.0022207	0.00062355	935.9	2.432e-05	2.4335e-05	706.78	260.04	2.4234e-05	2.4452e-05	253.24	81.148	95.262	31.82	2.4548e-05	35.934	99.985	292.772	-30.648	-47.532	37.387	125.089	-48.597	-42.823	254.219	-22.824	-44.765	-40.253	-38.362	-33.295	86.817	-35.491	-8191	255	
8551.576	1	1	0	0	0.067351	0.28548	0.15016	0.28717	0.077823	0.53165	0.19992	0.25674	0.33521	0.14122	0.071329	0.23727	0.14673	0.17499	0.15238	0.061665	-2.4708	-1.9	-2.8583	-2.5187	-2.3375	-2.9958	-2.3521	-2.7958	-2.8167	-2.0979	-2.8604	-2.7229	-2.3854	-3.0083	-2.3	-2.4875	247.906	51.075	105.527	263.607	183.287	196.272	273.035	231.992	197.329	88.375	137.569	233.360	101.430	262.953	-12.738	-56.255	6.5822e-05	0.0013765	0.00014582	808.71	8.4301e-06	9.4717e-06	640.84	240.42	1.3586e-05	2.6425e-06	215.25	68.202	76.056	27.791	4.1661e-06	30.204	0.0021306	0.0022249	0.00062508	933.18	2.4295e-05	2.4363e-05	703.34	259.97	2.4005e-05	2.4323e-05	251.96	80.905	95.085	31.783	2.4668e-05	35.811	89.057	74.673	232.381	-47.293	256.036	143.951	-48.600	-42.589	125.395	5.162	-44.368	-40.225	-38.455	-33.322	81.177	-35.764	-8191	255	
8551.672	1	1	0	0	0.17889	0.12685	0.070839	0.22296	0.21833	0.11008	0.085946	0.20223	0.14542	0.14354	0.16004	0.14659	0.14496	0.26124	0.36288	0.11136	-2.65	-2.1396	-2.7167	-2.6333	-2.1312	-2.9	-2.2854	-2.5146	-3.0542	-2.1854	-2.6937	-2.7479	-2.1396	-3.0146	-2.475	-2.5146	179.330	136.754	148.060	-60.243	264.326	56.039	65.921	-7.835	289.224	91.278	252.765	189.902	225.578	296.998	156.305	228.712	0.00017442	0.00060432	0.00017003	803.05	1.7949e-06	1.3146e-05	641.95	239.58	5.8888e-06	4.4642e-06	216.81	67.706	75.581	27.772	2.2475e-06	30.161	0.0021175	0.0022465	0.00063032	931.81	2.4554e-05	2.4664e-05	705.51	259.7	2.4284e-05	2.4745e-05	253.28	80.921	95.314	31.904	2.481e-05	35.927	112.267	209.462	50.975	-47.462	225.397	20.232	-48.707	-42.518	235.543	67.302	-45.068	-40.218	-38.873	-33.176	66.124	-35.638	-8191	255	
8551.768	1	1	0	0	0.11622	0.13292	0.067557	0.14688	0.17169	0.13041	0.065045	0.11923	0.12885	0.22267	0.28941	0.15845	0.15226	0.065553	0.29844	0.27319	-2.6729	-2.3167	-2.6625	-2.9	-1.9479	-2.8729	-2.5875	-2.3625	-3.0187	-2.1292	-2.8417	-2.7875	-2.1958	-2.8521	-2.4875	-2.1813	261.408	206.348	172.697	254.530	92.444	20.771	199.880	230.855	126.318	219.002	247.561	135.918	8.144	8.523	293.574	232.633	0.00014608	0.00089375	0.00016339	800.88	3.4132e-06	4.3367e-06	637.55	241.29	1.1799e-05	1.9259e-05	216.14	68.286	76.267	27.941	8.0105e-06	30.245	0.0021394	0.0022754	0.00063559	934.28	2.4764e-05	2.4896e-05	705.35	260.02	2.4814e-05	2.5118e-05	254.05	81.626	96.108	32.02	2.5155e-05	36.146	173.302	145.254	-25.606	-47.674	284.824	-33.787	-48.678	-42.288	154.532	88.994	-44.634	-40.148	-37.900	-32.973	227.905	-35.846	-8191	255	
8551.864	1	1	0	0	0.16244	0.21582	0.090379	0.10858	0.269	0.022467	0.19715	0.19288	0.37889	0.26766	0.20709	0.16929	0.14991	0.23719	0.13767	0.13429	-2.5938	-2.0292	-2.5625	-2.7687	-2.1604	-2.7375	-2.6917	-2.3312	-2.9125	-2.4062	-2.4833	-2.8604	-2.3833	-2.8417	-2.6854	-2.2896	-18.300	152.006	-16.781	1.025	16.539	75.114	154.766	235.937	104.690	258.512	221.835	209.594	23.787	263.324	284.145	202.233	0.00025908	9.0452e-05	0.00025575	804.22	1.2447e-05	1.3474e-05	647.34	240.76	2.1396e-06	5.5302e-06	217.2	68.443	76.105	27.698	9.1099e-06	30.577	0.0021662	0.002304	0.00063859	937.69	2.5121e-05	2.5237e-05	709.01	260.83	2.5086e-05	2.5372e-05	254.86	82.261	96.733	32.133	2.5164e-05	36.549	139.205	18.336	16.452	-47.736	124.510	111.836	-48.187	-42.421	70.139	173.284	-44.619	-39.728	-38.268	-32.892	0.102	-35.903	-8191	255	
8551.960	1	1	0	0	0.071029	0.044304	0.031503	0.26397	0.19555	0.13989	0.057701	0.16324	0.11482	0.20588	0.047303	0.2341	0.18568	0.07577	0.13472	0.14722	-2.6542	-2.4667	-2.5187	-2.8667	-2.2396	-2.7271	-2.9	-2.1854	-2.9813	-2.3708	-2.2542	-2.9604	-2.1562	-2.6104	-2.725	-2.1271	-42.676	74.933	114.787	288.803	-58.205	284.814	197.980	297.612	73.954	32.479	-21.916	243.249	295.984	109.393	19.745	274.460	0.00036308	0.00043516	0.0001961	804.93	5.4742e-06	5.3216e-06	645.07	241.22	2.3236e-06	2.9504e-06	215.68	68.691	76.154	27.812	6.2698e-06	30.068	0.0022024	0.0023221	0.00064541	938.86	2.565e-05	2.5651e-05	710.2	261.88	2.5436e-05	2.5633e-05	255.25	82.319	96.901	32.041	2.5194e-05	36.264	127.598	22.423	-51.481	-47.374	262.680	-43.416	-48.293	-42.456	73.115	223.789	-44.530	-40.568	-39.342	-33.231	153.341	-36.092	-8191	255	
8552.079	1	1	0	0	0.1274	0.22831	0.14763	0.24233	0.27629	0.18549	0.23209	0.35638	0.19513	0.1229	0.24979	0.16043	0.26371	0.062999	0.14225	0.16154	-2.3688	-2.5687	-2.2562	-3.0083	-2.3292	-2.6021	-2.8208	-2.2188	-2.6208	-2.5687	-2.1208	-2.9875	-2.3	-2.3208	-2.8167	-2.2604	288.529	-24.711	109.890	-41.292	31.248	76.830	163.138	211.592	76.550	283.421	287.613	14.903	284.706	-23.863	75.137	-40.034	0.00016637	0.00020577	0.00016765	810.87	6.4591e-06	1.1484e-05	638.31	238.75	2.4296e-06	9.4975e-06	213.98	68.269	76.045	27.523	1.307e-05	30.026	0.0022139	0.0023276	0.00064266	940.21	2.5464e-05	2.5523e-05	704.65	259.7	2.514e-05	2.5511e-05	253.75	81.797	96.42	31.882	2.505e-05	36.133	178.411	101.398	-37.320	-48.060	43.669	113.062	-48.974	-42.572	178.256	34.198	-44.984	-40.593	-38.657	-33.572	197.592	-36.233	-8191	255	
8552.175	1	1	0	0	0.059	0.18162	0.077333	0.10811	0.24091	0.038357	0.18121	0.28263	0.2089	0.15962	0.11956	0.16274	0.34563	0.27945	0.19004	0.19706	-2.3646	-2.5292	-2.1375	-3.0146	-2.3021	-2.2771	-2.9792	-2.0792	-2.5771	-2.6417	-2.1042	-2.8333	-2.4813	-2.3583	-2.9396	-2.1667	232.803	-24.303	134.529	7.819	66.065	231.395	269.168	201.943	73.677	216.486	38.669	-40.519	18.551	149.226	129.841	-15.755	1.7796e-05	0.00067319	0.00038652	796.73	5.9625e-06	4.2719e-06	635.66	238.42	8.4378e-06	1.5723e-05	215.04	68.735	76.405	27.673	5.2203e-06	29.928	0.0022152	0.0023131	0.00064243	937.65	2.5434e-05	2.5376e-05	704.9	260.32	2.5372e-05	2.5251e-05	254.4	82.408	96.64	31.984	2.5411e-05	36.406	254.351	172.753	-22.278	-47.845	144.009	49.309	-48.254	-42.931	-56.075	74.047	-45.333	-40.270	-38.383	-33.271	-39.053	-36.324	-8191	255	
8552.247	1	1	0	0	0.33401	0.15613	0.21434	0.16371	0.23728	0.21196	0.3393	0.18266	0.094862	0.2399	0.03849	0.18109	0.094995	0.41582	0.11723	0.35259	-2.1333	-2.5687	-2.1417	-2.9979	-2.4667	-2.1917	-2.7417	-2.2562	-2.4292	-2.65	-2.0771	-2.8	-2.5938	-2.1375	-3.1	-2.2854	170.510	122.373	143.037	-14.977	-26.167	151.168	265.290	103.300	96.178	-29.363	206.385	33.507	69.417	282.377	33.224	-59.681	0.00035462	0.0018811	0.00017701	806.99	5.7573e-06	1.0704e-05	640.39	238.88	7.8293e-06	6.0316e-06	215.89	69.204	76.445	27.939	2.2741e-06	30.277	0.0022201	0.0023148	0.00065149	941.88	2.5557e-05	2.5491e-05	707.17	260.58	2.5454e-05	2.5622e-05	255.29	82.85	97.104	32.192	2.5543e-05	36.726	112.638	35.389	273.783	-47.732	0.122	101.819	-48.566	-42.855	41.808	88.912	-44.964	-40.397	-39.189	-33.946	108.795	-36.470	-8191	255	
8552.345	1	1	0	0	0.28995	0.21988	0.15229	0.24169	0.23506	0.19869	0.29163	0.29505	0.014169	0.1815	0.10143	0.1971	0.04622	0.34781	0.1648	0.10402	-2.0875	-2.8	-2.1958	-2.7958	-2.3438	-2.0729	-2.8521	-2.45	-2.4125	-2.8583	-2.1854	-2.7042	-2.5667	-2.1771	-2.9354	-2.4958	222.780	-58.587	8.799	298.247	289.333	31.841	220.349	276.376	132.704	33.024	273.245	207.371	232.734	267.335	171.524	-28.958	0.00012392	0.00073406	0.00050798	802.08	7.8443e-06	2.2891e-05	642.16	240.36	1.2901e-06	1.2249e-05	218.54	69.594	77.622	28.187	1.2177e-05	30.728	0.0022356	0.0023381	0.00065575	941.09	2.5665e-05	2.5831e-05	711.69	262.02	2.5618e-05	2.5793e-05	258.52	83.709	97.772	32.467	2.6013e-05	37.002	-23.533	124.056	21.776	-48.003	186.727	155.044	-48.681	-42.711	100.327	215.658	-45.308	-40.640	-38.801	-33.663	88.207	-36.212	-8191	255	
8552.464	1	1	0	0	0.12364	0.10424	0.11773	0.17232	0.10479	0.064978	0.23671	0.22654	0.10352	0.23371	0.15221	0.089255	0.17282	0.12478	0.30363	0.306	-1.8958	-2.7438	-2.1833	-2.5062	-2.5396	-2.1813	-3.0667	-2.6042	-2.4688	-2.8312	-2.25	-2.6771	-2.6771	-2.2313	-3.0083	-2.4437	194.848	49.466	-2.711	-51.606	151.449	119.461	-6.076	143.767	3.383	294.410	215.961	95.689	239.553	294.726	268.272	181.940	0.00011088	0.00058917	0.00021038	803.38	5.5463e-06	7.8637e-06	635.95	241.6	5.5937e-06	1.1728e-05	217	69.608	77.122	28.021	1.0651e-06	30.474	0.0022518	0.0023456	0.00066548	941.47	2.5595e-05	2.5658e-05	709.37	262.59	2.5456e-05	2.5656e-05	257.17	83.444	97.213	32.302	2.5828e-05	36.703	256.816	66.911	10.438	-47.594	45.984	141.343	-48.495	-42.697	74.536	-50.010	-45.576	-40.877	-39.117	-33.436	237.462	-36.248	-8191	255	
8552.560	1	1	0	0	0.10539	0.063161	0.16675	0.32127	0.18816	0.26588	0.13026	0.1673	0.16683	0.11141	0.11906	0.13346	0.18637	0.021389	0.15303	0.18526	-1.9479	-2.8792	-2.1854	-2.5896	-2.6396	-2.0896	-2.8833	-2.5792	-1.9604	-2.9583	-2.3271	-2.2896	-2.9146	-2.0104	-2.8063	-2.6	3.088	288.181	226.400	122.461	208.285	160.376	299.143	279.027	-47.554	180.868	275.696	287.259	182.696	2.648	9.346	196.872	0.00012956	0.00064285	0.0001348	808.55	1.3075e-05	7.618e-06	640.61	241.25	5.7143e-06	2.4803e-06	218.29	69.494	77.135	27.958	1.2557e-05	30.5	0.0022183	0.0023512	0.00066309	942.92	2.5466e-05	2.601e-05	709.9	262.12	2.5463e-05	2.6044e-05	257.11	83.33	97.622	32.398	2.6011e-05	36.708	136.599	87.286	79.450	-47.528	51.483	209.928	-48.567	-42.797	84.472	-57.445	-45.188	-40.629	-38.749	-33.316	285.777	-36.112	-8191	255	
8552.656	1	1	0	0	0.23947	0.26809	0.22951	0.095516	0.11584	0.32947	0.18117	0.37881	0.29607	0.12106	0.13025	0.24432	0.23936	0.14897	0.024459	0.055756	-1.6125	-2.8	-2.3438	-2.4729	-2.9	-2.2271	-2.7188	-2.8146	-2.1813	-2.7979	-2.3563	-2.4813	-2.9271	-2.2188	-2.6083	-2.9	155.477	154.021	19.107	291.887	94.568	279.695	162.380	182.365	-0.950	-2.479	212.948	167.496	259.961	242.253	-32.272	184.942	8.416e-05	0.00030875	0.00012509	804.06	1.0689e-05	1.3115e-05	642.14	239.1	7.342e-06	7.5485e-06	218.14	69.28	76.754	27.864	3.9527e-06	30.626	0.002236	0.002382	0.0006619	944.17	2.5833e-05	2.6174e-05	711.51	261.88	2.5555e-05	2.6175e-05	258.12	83.553	97.871	32.406	2.5989e-05	36.931	267.013	179.933	25.557	-47.965	-4.322	5.621	-48.643	-42.876	297.782	190.199	-45.022	-40.324	-38.677	-33.826	46.399	-36.192	-8191	255	
8552.752	1	1	0	0	0.22578	0.099007	0.24293	0.19542	0.11804	0.33219	0.085393	0.15244	0.17424	0.18839	0.24728	0.17077	0.38427	0.34462	0.14497	0.10099	-1.7396	-2.7625	-2.4479	-2.2896	-3.0125	-2.1188	-2.6604	-2.8771	-2.2604	-2.8521	-2.4542	-2.4708	-2.8417	-2.2583	-2.4396	-2.9479	295.408	274.474	289.267	267.142	174.939	47.826	-50.028	-36.583	268.324	192.153	215.616	171.554	187.776	259.374	129.235	38.192	3.9579e-05	0.0011872	0.00021864	804.41	6.9665e-06	5.5689e-06	645.18	239.24	2.0902e-06	8.5866e-06	220.21	70.555	77.105	28.391	1.2495e-05	30.947	0.002264	0.002404	0.00066307	942.15	2.6127e-05	2.625e-05	713.5	262.6	2.5938e-05	2.6256e-05	260.09	84.446	99.021	32.808	2.6173e-05	37.312	71.103	35.123	-38.363	-47.597	122.345	280.238	-48.799	-42.711	169.142	71.165	-44.882	-40.477	-39.245	-34.069	88.824	-36.851	-8191	255	
8552.873	1	1	0	0	0.17452	0.14112	0.09575	0.046074	0.21712	0.16102	0.19419	0.10418	0.08702	0.22993	0.19707	0.2425	0.053601	0.015215	0.15544	0.19586	-1.6437	-2.65	-2.6875	-2.3	-2.9333	-2.2271	-2.5438	-3.0667	-2.2438	-2.7979	-2.5542	-2.2021	-2.8833	-2.2938	-2.4979	-3.0458	49.370	70.549	108.659	-35.070	200.259	242.575	143.331	280.234	146.026	-22.071	276.458	-60.511	36.242	144.897	227.940	286.232	0.00013232	0.0013953	0.00012535	806.92	7.5888e-06	1.146e-05	642.22	243.56	4.8513e-06	5.0693e-06	217.74	69.608	76.593	28.183	3.8336e-06	30.568	0.0022708	0.0023854	0.00066008	945.11	2.6107e-05	2.597e-05	712.09	264.23	2.5716e-05	2.6043e-05	258.13	83.858	98.142	32.537	2.5579e-05	36.824	215.545	47.172	17.142	-48.583	-0.835	46.835	-49.508	-43.461	217.325	118.595	-45.786	-41.038	-39.064	-34.192	163.759	-36.842	-8191	255	
8552.944	1	1	0	0	0.18002	0.12726	0.27404	0.18965	0.037865	0.1838	0.060902	0.21176	0.098239	0.1914	0.25659	0.33664	0.16289	0.091082	0.14963	0.15065	-1.6792	-2.7625	-2.7333	-2.4	-2.9417	-2.3646	-2.2938	-3.0563	-2.0896	-2.6875	-2.8438	-2.2396	-2.7833	-2.4667	-2.2521	-2.9854	-39.718	147.962	63.043	225.733	114.679	190.839	153.067	285.234	223.253	-29.762	275.689	232.722	292.468	226.338	-44.080	266.419	0.00015591	0.0012899	0.00015429	804.34	6.0813e-06	5.0684e-06	638.58	241.62	1.3646e-05	7.0242e-06	218.17	68.788	77.065	28.154	1.1078e-05	30.569	0.0022545	0.0023718	0.00065462	941.19	2.566e-05	2.5776e-05	707.02	261.98	2.5708e-05	2.5834e-05	256.7	83.183	97.728	32.34	2.553e-05	36.838	-10.285	50.561	241.489	-48.237	-2.995	-37.712	-49.366	-43.417	44.001	-24.992	-45.601	-41.363	-39.244	-34.332	102.679	-36.992	-8191	255	
8553.065	1	1	0	0	0.10551	0.30715	0.13061	0.26832	0.16915	0.23816	0.46805	0.16702	0.18632	0.13354	0.058084	0.22972	0.19195	0.050448	0.18579	0.21779	-1.9312	-2.7479	-2.6667	-2.1729	-2.6979	-2.5062	-2.4313	-3.0271	-2.3708	-2.4625	-2.8625	-2.2167	-2.7687	-2.5771	-2.1521	-2.9	193.405	189.016	247.302	26.737	285.570	138.678	247.488	-6.174	106.644	-22.377	249.088	213.543	70.113	3.481	233.334	290.616	0.00025893	0.0016305	0.00019596	800.46	2.9421e-06	1.8178e-05	638.6	240.14	4.8167e-06	1.6437e-06	217.99	70.088	77.407	28.222	1.2104e-05	31.094	0.0022166	0.0023204	0.00064658	938.96	2.5534e-05	2.5606e-05	706.92	262	2.5465e-05	2.5571e-05	257.69	83.864	97.941	32.494	2.5537e-05	37.079	171.209	21.749	13.846	-48.293	178.088	114.376	-49.528	-43.620	184.170	84.462	-45.342	-41.056	-39.538	-33.961	47.353	-36.932	-8191	255	
8553.160	1	1	0	0	0.30176	0.1233	0.12675	0.24265	0.17393	0.11779	0.29944	0.05682	0.28179	0.20634	0.18215	0.0799	0.16304	0.16549	0.16789	0.16725	-1.7833	-2.3208	-2.9292	-2.1562	-2.65	-2.6146	-2.1604	-3.0229	-2.2458	-2.4333	-2.8812	-2.3896	-2.6813	-2.7958	-2.0333	-2.9167	-45.772	198.913	148.267	265.286	46.024	70.554	-44.732	273.402	-20.672	198.676	76.112	-2.105	-3.118	-21.562	263.917	212.098	0.00032343	0.00077921	0.00019981	805.18	8.6022e-06	9.926e-06	643.85	242.75	1.8621e-06	7.979e-06	220.19	69.815	78.169	28.353	7.734e-06	31.176	0.0022372	0.0023292	0.00064848	940.31	2.5603e-05	2.546e-05	710.76	263.43	2.5404e-05	2.5509e-05	259.41	84.142	98.093	32.619	2.5775e-05	37.557	94.043	295.690	86.192	-48.093	162.427	6.857	-49.076	-43.335	177.329	1.412	-45.276	-41.064	-38.976	-34.368	61.516	-36.401	-8191	255	
8553.256	1	1	0	0	0.16089	0.2414	0.20843	0.21755	0.14425	0.082887	0.14266	0.11396	0.19451	0.018891	0.1386	0.092882	0.16534	0.48037	0.19772	0.019215	-2.1417	-2.2458	-2.9562	-2.2875	-2.5417	-2.8417	-2.0417	-2.8563	-2.3917	-2.1583	-2.8875	-2.3167	-2.4021	-2.9229	-1.9542	-2.8875	42.390	245.429	70.383	-49.822	94.271	297.674	186.587	10.343	-17.118	233.209	143.570	271.262	-47.064	-25.880	186.423	-3.883	0.00011623	0.0019945	0.00041897	801.76	3.7761e-06	6.5851e-06	644.15	241.57	4.4085e-06	7.3344e-06	220.59	70.505	77.364	28.526	5.4764e-06	31.034	0.002226	0.0023385	0.0006552	941.96	2.5603e-05	2.5413e-05	713.31	264.04	2.5169e-05	2.5569e-05	260.1	84.154	97.887	32.733	2.5516e-05	37.235	110.487	-43.155	3.699	-48.545	262.010	-15.082	-49.029	-43.675	165.461	239.544	-45.621	-41.176	-39.753	-33.906	73.256	-36.534	-8191	255	
8553.352	1	1	0	0	0.17902	0.048052	0.35111	0.26515	0.10731	0.15208	0.20102	0.14783	0.12301	0.10018	0.098793	0.20426	0.32687	0.035766	0.090714	0.057362	-2.1208	-2.0438	-2.9604	-2.4208	-2.2938	-2.9479	-2.2458	-2.8604	-2.6396	-2.2938	-2.9708	-2.325	-2.2146	-2.9354	-2.0958	-2.7708	114.798	81.845	172.233	191.629	136.635	136.094	288.346	296.001	43.939	105.608	193.580	128.331	217.797	41.894	41.681	247.755	0.00022544	0.0011347	0.00034743	805.17	5.0273e-06	1.084e-05	644.57	241.63	4.3248e-06	3.4626e-06	217.7	69.623	76.672	28.516	6.038e-06	30.899	0.0021949	0.0023246	0.00064841	939.83	2.531e-05	2.5297e-05	708.73	262.82	2.4956e-05	2.5321e-05	257.49	83.323	97.224	32.614	2.5416e-05	37.107	141.520	125.997	236.560	-48.079	66.708	106.670	-49.192	-43.579	73.599	42.200	-45.848	-41.047	-39.499	-34.045	87.922	-37.017	-8191	255	
8553.472	1	1	0	0	0.083766	0.20174	0.13369	0.10825	0.053953	0.16764	0.17156	0.11197	0.32159	0.22109	0.30503	0.044422	0.24664	0.031023	0.18289	0.040925	-2.2438	-1.9917	-2.95	-2.3688	-2.3854	-2.9313	-2.2604	-2.6604	-2.625	-2.3354	-2.8958	-2.5354	-2.0875	-2.8917	-2.2083	-2.4875	24.142	10.534	96.909	126.276	-51.956	248.392	210.583	-21.579	126.034	39.561	-53.368	145.866	196.248	185.828	116.247	24.671	0.00010288	0.00087554	6.8033e-05	799.61	1.0417e-05	1.9832e-05	637.54	240.99	7.1695e-06	1.2821e-05	219.9	70.228	78.115	28.44	4.249e-06	31.246	0.0021816	0.0023322	0.0006523	939.03	2.5168e-05	2.5664e-05	706.89	262.68	2.5082e-05	2.5781e-05	258.34	83.774	98.072	32.734	2.555e-05	37.23	37.847	18.383	5.492	-48.430	212.307	261.466	-49.292	-43.498	121.127	87.785	-45.099	-40.991	-39.228	-33.875	25.752	-37.165	-8191	255	
8553.544	1	1	0	0	0.23272	0.25682	0.024035	0.16162	0.087647	0.044599	0.20127	0.031199	0.22997	0.09106	0.12872	0.014029	0.23946	0.22432	0.022228	0.29918	-2.3292	-2.1688	-2.6688	-2.5604	-2.1646	-2.825	-2.1979	-2.6083	-2.6333	-2.1208	-2.8625	-2.3875	-2.1583	-2.9208	-2.3375	-2.4875	186.655	134.427	292.453	150.189	-28.156	-18.350	-39.080	45.435	78.888	24.608	284.605	203.486	-52.203	124.678	184.784	-2.151	0.00011177	0.0012656	0.00042506	807.83	7.8854e-06	1.0009e-05	643.94	242.48	4.7638e-06	4.678e-06	220.36	70.087	78.112	28.839	5.6995e-06	31.269	0.0022014	0.0023473	0.00065292	941.14	2.5413e-05	2.5751e-05	712.43	264.13	2.5306e-05	2.5809e-05	259.42	84.237	98.527	32.994	2.5617e-05	37.473	42.289	193.051	-49.589	-48.241	27.161	75.155	-48.742	-43.418	-1.002	32.941	-45.769	-40.956	-39.216	-34.362	281.855	-37.101	-8191	255	
8553.640	1	1	0	0	0.10604	0.11849	0.24699	0.17742	0.15961	0.036255	0.16185	0.31906	0.094225	0.1399	0.11823	0.057999	0.2552	0.11838	0.18697	0.23263	-2.6354	-2.1979	-2.6833	-2.7771	-2.0687	-3.0625	-2.4604	-2.3563	-2.9708	-1.9104	-2.7687	-2.7208	-2.0042	-2.975	-2.5292	-2.3167	118.769	118.309	250.210	164.586	196.165	-39.313	171.440	237.712	216.007	220.709	31.137	297.110	195.188	198.214	24.513	265.367	0.00014121	0.00054757	0.00016543	808.22	3.4705e-06	1.4091e-05	648.25	244.29	9.5957e-06	4.7094e-06	219.42	71.339	79.221	28.976	3.9368e-06	31.744	0.0022295	0.0023618	0.00065405	942.23	2.5646e-05	2.5736e-05	715.4	265.45	2.5603e-05	2.5993e-05	261.85	85.199	99.73	33.231	2.5752e-05	37.722	129.892	289.206	2.437	-48.661	-23.584	-5.873	-49.167	-43.380	19.460	219.512	-45.528	-41.141	-39.634	-34.232	47.358	-37.000	-8191	255	
8553.736	1	1	0	0	0.16164	0.042806	0.36908	0.16358	0.34025	0.059787	0.11071	0.24891	0.16929	0.24403	0.042708	0.16636	0.15106	0.18644	0.17391	0.24919	-2.6271	-2.2333	-2.4396	-2.8646	-2.0896	-2.6458	-2.5667	-2.2729	-2.8333	-2.225	-2.5	-2.8063	-2.1583	-2.75	-2.5187	-1.9625	143.868	-24.117	-20.785	-7.631	253.331	249.533	-8.152	214.109	231.029	228.728	230.918	-1.407	269.238	-47.601	190.080	1.829	0.000301	0.0011539	8.1471e-05	804.51	7.8528e-06	7.5543e-06	643.59	246.38	2.3608e-06	6.2064e-06	219.5	70.706	79.292	28.814	3.8177e-06	31.226	0.0022276	0.0023444	0.00065548	944.26	2.5859e-05	2.5877e-05	711.92	266	2.5643e-05	2.5813e-05	258.47	84.475	99.354	32.961	2.5393e-05	37.314	145.127	-36.991	-17.491	-48.506	75.778	107.779	-49.394	-43.470	42.745	-55.234	-45.888	-41.665	-39.080	-34.243	96.257	-37.068	-8191	255	
8553.857	1	1	0	0	0.05499	0.28075	0.21183	0.26552	0.12233	0.23485	0.032839	0.18975	0.069157	0.19184	0.046847	0.094813	0.12972	0.2155	0.23469	0.18874	-2.5583	-2.2271	-2.3708	-2.8312	-2.1375	-2.5979	-2.7396	-2.0667	-2.9062	-2.2812	-2.3896	-2.9958	-2.1208	-2.6771	-2.6937	-2.1437	81.231	66.479	58.944	296.291	49.232	120.746	-28.039	256.965	296.726	230.111	100.698	198.685	70.654	264.030	114.451	147.600	3.168e-05	0.0011141	0.00045777	808.79	5.6843e-06	9.2058e-06	636.48	242.31	1.5473e-06	6.9613e-06	218.96	70.586	77.754	28.597	6.3769e-06	31.289	0.0022313	0.002332	0.00064805	941.51	2.5701e-05	2.5792e-05	707.65	264.07	2.5521e-05	2.5482e-05	257.9	84.161	98.583	32.811	2.5322e-05	37.272	287.320	-21.551	81.152	-48.384	-27.515	10.713	-49.149	-43.542	280.230	143.537	-45.308	-41.647	-39.539	-34.037	109.647	-36.521	-8191	255	
8553.953	1	1	0	0	0.18036	0.3031	0.31958	0.072784	0.1262	0.025506	0.12209	0.12809	0.28337	0.12711	0.19548	0.23087	0.16275	0.14362	0.13408	0.14619	-2.5229	-2.3292	-2.4625	-2.8604	-2.125	-2.7542	-2.6875	-2.1854	-2.9229	-2.5812	-2.3563	-2.9437	-2.175	-2.5438	-2.9375	-2.1729	235.493	54.306	123.639	155.041	147.897	279.560	-55.974	227.494	256.224	183.227	211.744	110.188	96.259	280.955	32.808	1.377	9.1656e-05	0.0015877	0.00011003	803.41	1.0004e-05	5.78e-06	640.04	243.09	5.8976e-06	5.7599e-06	220.03	69.873	78.432	28.599	6.3049e-06	31.241	0.0022225	0.0023182	0.00064773	942.53	2.5527e-05	2.5562e-05	709.39	264.48	2.5266e-05	2.5333e-05	258.65	84.214	98.888	32.839	2.5383e-05	37.417	158.919	-10.541	69.895	-48.420	126.868	219.289	-49.290	-43.248	84.294	-46.322	-45.820	-41.007	-40.273	-34.218	-49.054	-37.359	-8191	255	
8554.049	1	1	0	0	0.085772	0.09881	0.16946	0.13845	0.1413	0.10952	0.064373	0.33455	0.016582	0.29675	0.17283	0.074095	0.20775	0.08503	0.21219	0.11219	-2.4667	-2.5542	-2.1042	-2.9958	-2.2208	-2.3792	-2.9813	-2.2104	-2.7583	-2.5312	-2.1083	-3.0292	-2.3708	-2.3063	-2.8854	-2.125	-0.235	-54.009	251.703	-20.091	236.086	-3.914	-22.718	231.423	17.092	61.754	36.198	282.276	50.878	53.459	188.120	27.513	0.00014456	0.00052915	0.00012459	807.04	2.7395e-06	1.4335e-06	644.79	243.62	2.4373e-06	4.4244e-06	220.54	71.212	78.612	28.614	7.025e-06	31.381	0.0022257	0.0023171	0.00065019	945.65	2.5524e-05	2.5524e-05	712.74	265.38	2.552e-05	2.5554e-05	260.3	84.953	99.377	32.939	2.554e-05	37.537	149.331	101.516	64.099	-48.604	5.880	188.080	-49.101	-43.570	85.372	31.205	-45.261	-41.391	-39.918	-34.395	65.179	-37.273	-8191	255	
8554.145	1	1	0	0	0.27301	0.042962	0.1367	0.16115	0.18331	0.12021	0.295	0.29894	0.12558	0.12682	0.32809	0.092993	0.076147	0.11737	0.17216	0.098586	-2.3063	-2.6083	-2.0854	-2.8292	-2.4062	-2.15	-2.8479	-2.1937	-2.7083	-2.6979	-2.1375	-3.1896	-2.4313	-2.1396	-3.0146	-2.3521	-23.256	43.149	57.961	16.833	141.311	157.293	193.655	198.845	112.557	118.474	230.138	-18.526	51.526	200.983	224.663	246.422	0.00025134	0.00047374	0.00029091	806.43	4.1647e-06	1.0396e-05	645.94	243.52	1.7861e-06	3.5666e-06	218.11	70.568	79.2	28.49	5.2978e-06	30.962	0.0022305	0.00231	0.0006594	947.31	2.5434e-05	2.5544e-05	711.81	265.31	2.51e-05	2.5301e-05	258.22	84.478	98.899	32.785	2.538e-05	37.028	129.918	-52.743	75.529	-48.412	41.010	190.543	-49.057	-43.671	3.292	289.357	-45.791	-40.755	-39.789	-34.165	35.205	-37.167	-8191	255	
8554.240	1	1	0	0	0.096436	0.12505	0.35944	0.19032	0.12571	0.1427	0.13399	0.20363	0.14618	0.070213	0.16865	0.18907	0.25097	0.14622	0.14463	0.063391	-2.2479	-2.675	-2.0687	-2.9062	-2.4167	-2.1521	-2.9313	-2.3792	-2.4625	-2.6771	-2.1396	-2.9875	-2.5375	-2.3333	-2.9292	-2.2708	160.151	280.157	166.824	282.587	207.490	62.427	93.865	284.438	-43.801	28.757	269.169	134.102	-48.553	-59.715	-11.950	-34.865	0.00010336	0.00048311	3.391e-05	803.11	8.1679e-06	6.809e-06	639.55	241.55	7.9384e-06	7.7033e-06	218.88	70.401	78.756	28.31	6.0596e-06	31.043	0.0021984	0.0023054	0.00065038	941.66	2.5169e-05	2.5508e-05	707.72	263.98	2.5094e-05	2.5486e-05	257.92	84.246	98.886	32.795	2.5749e-05	37.106	197.866	287.052	176.534	-48.391	253.973	162.455	-49.033	-43.697	203.578	-39.312	-45.437	-40.870	-40.127	-34.302	154.166	-36.965	-8191	255	
8554.336	1	1	0	0	0.19105	0.19582	0.53021	0.14743	0.2591	0.15069	0.21469	0.052895	0.09271	0.14034	0.25805	0.18634	0.19013	0.2791	0.14685	0.18238	-1.775	-2.8917	-1.9917	-3.0208	-2.3771	-2.1146	-2.9729	-2.4875	-2.325	-3.025	-2.1813	-2.7229	-2.5354	-2.1854	-2.8833	-2.4	50.953	243.459	249.678	296.907	114.104	68.311	166.717	229.817	152.714	286.818	233.578	194.562	232.176	-39.212	241.427	11.160	6.0963e-05	0.00095873	1.6364e-05	805.67	2.859e-06	9.6362e-06	637.68	243.57	5.641e-06	1.2806e-05	218.35	71.201	79.466	28.738	3.8446e-06	31.055	0.0022127	0.0023337	0.00065888	943.88	2.5446e-05	2.5787e-05	709.63	264.46	2.5326e-05	2.5797e-05	258.71	84.699	99.416	32.968	2.5865e-05	37.185	128.164	63.357	-10.679	-48.207	67.379	123.114	-49.082	-43.819	-16.934	183.277	-45.735	-41.240	-39.681	-34.114	69.855	-37.264	-8191	255	
8554.457	1	1	0	0	0.10796	0.076635	0.13928	0.28968	0.1897	0.17091	0.14764	0.32968	0.14951	0.087865	0.15265	0.22002	0.13141	0.48488	0.15183	0.16447	-2.0104	-2.8125	-2.1979	-2.7	-2.6833	-1.9646	-2.9958	-2.5167	-2.3563	-2.9771	-2.3021	-2.65	-2.7667	-2.1229	-2.7479	-2.5187	-58.364	138.983	105.258	290.385	220.777	271.718	217.973	151.028	23.460	154.503	35.285	284.613	51.960	251.607	292.767	-37.693	0.00018056	0.0001352	0.00031449	805.68	9.4001e-06	1.0021e-05	640.55	243.19	8.0679e-06	5.9462e-06	219.46	71.071	79.807	28.763	2.6432e-06	31.19	0.0022194	0.0023614	0.00066092	946.26	2.5678e-05	2.6052e-05	710.59	264.64	2.5362e-05	2.5847e-05	259.46	85.012	100.07	33.044	2.5786e-05	37.433	150.756	4.598	27.714	-48.394	76.553	-41.844	-49.129	-43.285	257.548	-4.054	-45.250	-40.904	-39.308	-33.736	292.152	-36.888	-8191	255	
8554.553	1	1	0	0	0.28892	0.17321	0.047869	0.1612	0.3349	0.096348	0.24272	0.31741	0.13939	0.12114	0.079678	0.24173	0.11418	0.070396	0.14372	0.061575	-1.825	-2.7896	-2.2375	-2.4833	-2.85	-2.0667	-2.7771	-2.625	-2.0521	-2.8521	-2.3604	-2.2917	-2.8063	-2.15	-2.6229	-2.6562	-55.005	122.080	135.463	257.167	-11.660	139.465	196.005	166.772	-53.470	143.323	201.871	112.318	282.109	249.662	79.345	-22.030	3.0387e-05	0.0010095	0.00033055	807.64	6.2049e-06	4.4017e-06	644.65	242.63	2.9955e-06	1.4411e-05	220.3	71.505	79.597	28.614	5.4001e-07	31.007	0.0022399	0.0023769	0.00065711	945.9	2.582e-05	2.6154e-05	713.84	264.77	2.5761e-05	2.605e-05	259.18	85.102	99.911	32.983	2.5589e-05	37.101	292.969	25.109	19.825	-47.940	99.675	233.514	-49.301	-43.448	-41.069	46.383	-45.474	-41.010	-39.202	-33.828	118.129	-36.565	-8191	255	
8554.647	1	1	0	0	0.16779	0.090069	0.11858	0.22353	0.15835	0.098492	0.26832	0.20279	0.1537	0.13068	0.35055	0.15373	0.24811	0.14639	0.1795	0.097697	-1.8917	-2.8125	-2.0542	-2.4167	-2.8312	-2.0875	-2.7417	-2.7438	-2.2	-2.9875	-2.6146	-2.2833	-2.8021	-2.0604	-2.7521	-2.8167	47.332	251.153	-11.729	25.864	165.369	110.912	-25.244	276.734	75.016	224.141	74.299	263.992	227.081	109.289	297.914	283.917	0.00026579	0.00061359	0.00040326	802.24	5.0572e-06	4.1924e-06	634.18	243.45	1.0429e-05	4.1743e-06	217.79	70.58	78.875	28.349	2.6427e-06	30.93	0.0022377	0.0023638	0.00065548	943.57	2.5689e-05	2.5696e-05	704.23	264.09	2.5693e-05	2.5857e-05	256.35	84.093	99.487	32.741	2.5482e-05	36.936	112.052	10.682	81.248	-48.382	201.073	247.908	-49.352	-43.328	54.212	293.430	-45.603	-40.679	-39.787	-34.154	255.482	-37.343	-8191	255	
8554.743	1	1	0	0	0.030552	0.18429	0.12661	0.10678	0.19927	0.022269	0.35053	0.16974	0.17001	0.14755	0.025734	0.18009	0.17907	0.25472	0.20542	0.1374	-1.7167	-2.7687	-2.4292	-2.1312	-3.1042	-2.2062	-2.6875	-2.725	-2.0958	-2.7083	-2.7083	-2.2521	-2.9104	-2.4229	-2.3333	-2.9021	275.750	191.103	262.328	261.308	243.012	80.257	200.007	97.459	-43.837	40.214	276.614	279.293	215.058	195.310	58.616	262.283	0.00015649	0.00077211	0.00025719	802.38	6.0271e-06	6.4333e-06	636.63	242.96	6.6699e-06	1.0072e-05	218.01	70.661	78.855	28.466	8.0136e-06	31.053	0.0022392	0.0023515	0.00064422	944.08	2.5823e-05	2.5651e-05	704.63	264.37	2.5822e-05	2.5875e-05	257.48	84.732	99.641	32.871	2.5558e-05	37.223	45.233	289.273	43.925	-48.629	-52.219	57.996	-49.372	-43.588	124.665	35.181	-45.470	-41.309	-38.846	-34.120	124.798	-37.091	-8191	255	
8554.840	1	1	0	0	0.02543	0.32514	0.11445	0.10578	0.21329	0.089001	0.18963	0.14825	0.18594	0.32552	0.096951	0.21698	0.079355	0.097105	0.07612	0.16497	-1.6792	-2.5604	-2.6542	-2.4292	-2.9125	-2.2292	-2.6083	-3.0542	-2.1437	-2.5479	-2.7479	-2.0812	-2.8646	-2.2646	-2.3229	-2.8875	133.096	-29.012	149.776	229.410	175.774	-55.229	150.591	226.582	288.441	277.353	41.755	290.915	33.728	140.185	5.908	62.204	0.00010592	0.00042423	0.00025955	806.1	1.5224e-06	1.8395e-05	636.3	243.73	9.162e-06	1.5391e-05	218.53	71.966	78.901	28.925	8.8213e-07	31.336	0.002239	0.0023361	0.00065325	944.15	2.591e-05	2.5817e-05	707.55	265.19	2.5922e-05	2.5733e-05	258.63	85.633	100.29	33.095	2.5923e-05	37.612	169.858	113.025	4.211	-47.922	-45.943	33.879	-48.746	-43.255	-2.522	97.280	-46.017	-40.857	-39.637	-33.667	165.990	-36.524	-8191	255	
8554.936	1	1	0	0	0.22401	0.14297	0.18844	0.13144	0.20828	0.19129	0.14649	0.13443	0.11087	0.10042	0.34112	0.19234	0.19585	0.2447	0.057028	0.083704	-1.7938	-2.5896	-2.5708	-2.2396	-2.6021	-2.4625	-2.2292	-2.9042	-2.3521	-2.7	-2.8021	-2.1875	-2.8292	-2.6354	-2.1125	-2.9813	99.706	-26.067	296.227	-5.108	85.964	134.145	283.791	128.531	-48.454	194.169	210.896	126.902	-22.519	132.858	166.293	-59.551	3.7052e-05	0.0018436	0.00030877	812.32	1.0353e-05	4.5891e-06	642.86	244.52	9.4464e-06	1.4891e-05	221.95	72.783	79.376	28.902	7.4502e-06	31.765	0.0022525	0.0023595	0.0006646	950.06	2.6052e-05	2.5917e-05	713.46	266.82	2.5847e-05	2.6029e-05	261.85	86.414	100.72	33.264	2.593e-05	37.901	-39.930	-29.614	235.094	-48.063	63.118	95.684	-49.077	-43.208	186.255	229.378	-45.484	-41.076	-39.687	-33.770	226.176	-36.776	-8191	255	
8555.032	1	1	0	0	0.047645	0.19068	0.14783	0.16255	0.15975	0.16827	0.18388	0.15245	0.2721	0.23009	0.2369	0.1687	0.027735	0.20916	0.21241	0.14066	-1.8896	-2.3187	-2.7042	-2.0187	-2.7229	-2.6333	-2.1417	-3.025	-2.2146	-2.4583	-2.9479	-2.2583	-2.6833	-2.625	-2.0146	-2.8896	297.109	65.633	133.110	271.982	206.525	29.070	-16.650	284.676	133.975	276.755	132.981	168.003	186.427	32.625	182.718	149.716	0.00014426	0.00067587	0.0003213	816.33	6.2981e-06	9.7219e-06	640.99	244.72	3.4925e-06	2.307e-06	218.91	71.266	79.448	28.7	2.4181e-06	31.267	0.0022548	0.0023661	0.00066424	949	2.5966e-05	2.5961e-05	710.93	266.45	2.553e-05	2.5886e-05	259.24	85.353	99.964	33.091	2.609e-05	37.411	63.076	48.842	-10.988	-48.353	64.325	19.051	-49.305	-43.323	175.434	104.683	-45.688	-41.214	-39.581	-34.213	29.596	-36.687	-8191	255	
8555.152	1	1	0	0	0.1508	0.075346	0.44099	0.1625	0.10734	0.18102	0.17479	0.072428	0.0074964	0.10566	0.077381	0.064356	0.068389	0.10249	0.1533	0.18915	-1.8896	-2.4	-2.8625	-2.2125	-2.6146	-2.7708	-2.225	-2.9708	-2.4708	-2.2729	-3.1146	-2.2188	-2.5333	-2.8833	-2.4146	-2.9646	-27.033	56.773	259.617	-54.342	290.526	11.072	163.792	265.543	261.079	206.779	-37.267	257.722	-25.172	22.846	140.935	186.951	7.7974e-05	0.00056285	0.0002506	806.26	4.8355e-06	1.1174e-05	631.9	243.3	5.2733e-06	8.0232e-06	219.85	71.263	79.249	28.663	6.5534e-06	31.127	0.0022285	0.0023647	0.0006617	944.41	2.556e-05	2.5893e-05	706.62	265.08	2.5336e-05	2.6002e-05	259.82	84.813	99.755	33.04	2.6033e-05	37.339	-12.100	160.067	-35.878	-48.263	260.333	174.345	-49.053	-43.414	59.449	40.073	-45.564	-41.555	-39.260	-33.954	10.151	-37.057	-8191	255	
8555.249	1	1	0	0	0.13509	0.18216	0.20001	0.15562	0.11005	0.31319	0.19078	0.20658	0.11814	0.12233	0.055451	0.24809	0.10569	0.11134	0.092432	0.39238	-2.1708	-2.1771	-2.9938	-2.3417	-2.5812	-2.7687	-2.2646	-2.7687	-2.65	-2.2896	-2.8333	-2.4208	-2.3458	-3.0521	-2.0729	-2.7833	121.590	-41.738	260.786	238.266	74.938	32.686	13.068	240.225	108.803	264.876	292.770	166.787	8.226	-38.329	58.306	127.434	0.00019815	0.00089242	0.00019237	808.14	8.0368e-06	1.2378e-06	639.86	244.35	3.9019e-06	8.3764e-06	218.66	70.717	79.076	28.908	5.693e-06	31.523	0.0022285	0.0023612	0.0006614	939.56	2.5575e-05	2.5867e-05	707.49	265.2	2.5399e-05	2.6094e-05	259.76	84.917	99.583	33.075	2.5966e-05	37.519	65.842	-9.366	21.602	-48.448	94.458	-12.680	-49.358	-43.285	143.326	125.034	-45.294	-41.072	-39.749	-34.116	232.642	-36.589	-8191	255	
8555.345	1	1	0	0	0.17919	0.067162	0.15599	0.13434	0.43545	0.033587	0.16392	0.16049	0.18685	0.22589	0.090531	0.21836	0.48554	0.20279	0.22843	0.29198	-2.1854	-1.9771	-2.6958	-2.275	-2.2458	-2.9396	-2.1375	-2.8708	-2.7208	-2.0792	-2.9562	-2.3708	-2.3354	-2.8917	-2.1292	-2.7625	121.004	210.174	249.322	36.466	208.894	67.584	256.972	264.715	-4.185	243.627	204.777	243.400	-36.455	297.643	36.530	280.998	0.00021849	0.0012501	0.00054369	800.35	9.7706e-06	9.2073e-06	639.9	243.51	3.632e-06	1.4752e-05	220.72	71.585	79.786	28.702	1.7767e-06	31.354	0.0022424	0.0023843	0.00066041	940.24	2.579e-05	2.5893e-05	709.32	264.98	2.5569e-05	2.6021e-05	260.62	85.454	100.28	33.27	2.6018e-05	37.625	76.229	-0.600	17.074	-48.396	174.339	9.378	-49.094	-43.362	-53.622	-39.811	-45.366	-40.770	-39.307	-34.189	124.917	-36.955	-8191	255	
8555.416	1	1	0	0	0.12671	0.061646	0.23487	0.28721	0.02072	0.14331	0.074847	0.16738	0.10888	0.12002	0.062978	0.20749	0.14218	0.05682	0.11946	0.16144	-2.2458	-2.0438	-2.7521	-2.3917	-2.025	-2.9896	-2.3646	-2.6229	-2.6458	-2.1813	-2.8708	-2.5563	-2.2521	-2.9188	-2.0354	-2.4854	182.206	-10.844	238.737	-12.618	-23.546	121.745	0.338	-43.318	177.891	55.666	53.725	-30.541	250.923	274.719	115.131	45.287	0.00038013	0.0011544	0.00022067	802.18	1.3326e-05	6.0388e-06	639.75	242.26	2.5467e-06	9.0121e-06	220.15	70.923	79.098	28.727	4.8584e-06	31.356	0.00225	0.0024015	0.00065924	942.68	2.5927e-05	2.5941e-05	708.3	264.55	2.5568e-05	2.5747e-05	258.97	84.581	99.787	33.019	2.5569e-05	37.262	116.131	29.582	66.212	-48.448	99.786	164.527	-49.190	-43.360	127.649	72.557	-45.560	-41.037	-39.322	-33.971	-4.030	-36.724	-8191	255	
8555.537	1	1	0	0	0.20735	0.23323	0.26337	0.091649	0.20451	0.28322	0.1174	0.048474	0.053487	0.11717	0.078963	0.14081	0.093062	0.082202	0.25648	0.2092	-2.3896	-2.1771	-2.6896	-2.6646	-2.2375	-2.8063	-2.5521	-2.2854	-2.8438	-2.0979	-2.7229	-2.5729	-2.1625	-2.8917	-2.3479	-2.4813	202.233	-51.837	5.771	221.597	204.147	-39.015	236.770	101.782	258.441	72.993	231.661	203.184	112.349	162.254	193.839	239.475	0.00016113	0.00095125	0.00023202	799.11	1.1253e-05	5.4504e-06	636.2	242.66	5.7808e-06	1.0309e-05	218.46	70.124	78.692	28.748	2.192e-06	30.893	0.0022314	0.0023593	0.0006489	938.02	2.5799e-05	2.5774e-05	703.14	263.63	2.5382e-05	2.5669e-05	257.14	84.001	99.409	32.981	2.5246e-05	37.206	127.954	188.297	-14.358	-48.519	92.120	-1.758	-49.226	-43.088	-55.152	-7.079	-45.438	-41.352	-39.327	-33.966	90.450	-36.748	-8191	255	
8555.631	1	1	0	0	0.27246	0.093695	0.22204	0.051026	0.16453	0.072366	0.18467	0.18202	0.19015	0.03523	0.13912	0.18856	0.21504	0.22302	0.17597	0.43434	-2.5187	-2.1354	-2.5833	-2.8812	-2.2458	-2.8583	-2.5958	-2.3979	-2.7438	-2.1188	-2.6583	-3.1146	-2.2667	-2.8271	-2.4958	-2.2625	121.174	93.503	-41.216	103.440	229.022	-26.558	237.556	248.588	101.932	30.921	249.491	93.722	-49.824	257.174	-45.793	240.542	0.00020937	0.00070929	0.00022568	802.62	2.5458e-06	1.2091e-05	632.1	243.39	6.4856e-06	7.436e-06	218.96	71.442	80.066	28.802	4.8594e-06	31.307	0.0022404	0.0023359	0.00064341	938.2	2.5649e-05	2.5517e-05	701.97	264.83	2.5362e-05	2.5493e-05	257.49	84.782	99.685	33.053	2.5338e-05	37.449	185.198	188.505	22.448	-48.447	106.472	23.467	-49.335	-43.224	78.131	268.929	-45.409	-41.294	-39.250	-34.006	116.866	-36.691	-8191	255	
8555.728	1	1	0	0	0.18818	0.1683	0.067047	0.35681	0.17962	0.089873	0.31358	0.34076	0.13195	0.23084	0.10822	0.066285	0.043848	0.11883	0.11276	0.13918	-2.45	-2.1312	-2.4688	-2.6937	-1.8917	-2.8375	-2.6771	-2.0938	-2.9104	-2.3833	-2.5083	-2.9896	-2.3125	-2.9021	-2.525	-2.2521	-38.960	139.910	246.688	-52.367	17.185	146.004	-6.748	175.771	229.622	105.893	75.837	161.657	252.427	273.328	112.310	280.354	0.00025865	0.0004989	0.000288	806	7.4578e-06	7.1752e-06	640.51	244.86	6.3951e-06	8.0978e-06	219.49	71.701	79.353	29.038	4.7631e-06	31.801	0.0022215	0.0023228	0.00064503	940.54	2.5551e-05	2.5504e-05	708.94	265.28	2.533e-05	2.5418e-05	259	85.324	100.1	33.207	2.5204e-05	37.843	183.691	-28.005	-4.835	-48.740	30.314	256.425	-49.079	-43.239	211.335	278.998	-45.411	-41.445	-39.349	-33.990	-46.501	-37.213	-8191	255	
8555.825	1	1	0	0	0.14535	0.25985	0.18276	0.089926	0.28991	0.28646	0.1526	0.16085	0.11932	0.061575	0.080952	0.2422	0.47227	0.17408	0.20736	0.4865	-2.4042	-2.2667	-2.375	-2.9354	-2.1229	-2.8083	-2.7896	-2.15	-2.9375	-2.3875	-2.2917	-3.0312	-1.9688	-2.6562	-2.575	-2.0125	282.191	140.154	-31.505	203.524	279.640	18.057	145.866	-57.926	254.790	106.377	123.621	48.223	264.245	-14.953	72.794	157.144	0.00014227	0.00089834	9.3804e-05	806.75	1.3474e-06	1.0997e-05	643.75	244.04	2.98e-06	7.3612e-06	220.8	71.767	79.693	29.005	5.9745e-06	31.687	0.0022237	0.0023206	0.00065117	943.11	2.5577e-05	2.5518e-05	712.75	266.03	2.5427e-05	2.5322e-05	260.59	85.533	99.794	33.161	2.5499e-05	37.626	277.051	113.437	182.420	-48.275	205.639	149.697	-49.260	-43.274	257.163	143.433	-45.079	-40.958	-39.561	-34.101	70.022	-36.869	-8191	255	
8555.944	1	1	0	0	0.16685	0.045739	0.12903	0.042486	0.071104	0.11434	0.2824	0.058411	0.26452	0.15957	0.22993	0.16401	0.036083	0.32115	0.30086	0.21376	-2.5312	-2.425	-2.275	-2.9479	-2.2229	-2.4437	-2.8312	-2.2708	-2.6479	-2.5042	-2.2521	-3.0104	-2.3708	-2.5604	-2.5542	-2.0563	110.814	30.274	242.969	257.292	-32.784	248.862	-56.541	215.982	-35.345	241.377	178.499	204.219	80.089	219.759	40.523	169.031	3.2315e-05	0.001658	0.00044211	803.63	6.7737e-06	1.5308e-05	638.31	244.76	8.586e-06	1.7254e-05	219.75	71.187	79.128	28.972	1.142e-05	31.328	0.002194	0.0022997	0.00065138	939.55	2.5389e-05	2.5458e-05	706.89	265.6	2.5203e-05	2.5265e-05	258.71	84.817	99.558	33.065	2.5496e-05	37.417	55.430	38.783	40.387	-48.434	57.700	90.473	-48.799	-43.250	5.264	72.436	-45.426	-40.734	-39.243	-33.684	-18.857	-36.609	-8191	255	
8556.041	1	1	0	0	0.15131	0.13449	0.23975	0.33743	0.1962	0.13013	0.16822	0.070345	0.45563	0.078297	0.22356	0.099034	0.22417	0.21233	0.065744	0.25742	-2.325	-2.4854	-2.0333	-2.8875	-2.2021	-2.4875	-3.0563	-2.1792	-2.6729	-2.7229	-2.1562	-2.9125	-2.3771	-2.3229	-2.9	-2.0333	140.940	56.199	-11.034	290.526	58.310	261.854	-12.249	236.156	95.887	-18.964	-50.910	-32.919	279.934	-6.461	224.583	12.546	0.00010288	0.00075409	0.00030882	796.15	2.9044e-06	9.1032e-06	636.24	245.06	6.5483e-06	1.0416e-05	219.69	71.42	80.051	28.913	5.6912e-06	31.903	0.002204	0.0023081	0.00065511	937.55	2.53e-05	2.5327e-05	704.91	265.55	2.506e-05	2.5603e-05	259.39	85.014	99.977	33.184	2.5667e-05	37.676	-22.711	-44.809	-12.803	-48.225	196.068	72.170	-49.091	-42.977	292.844	217.284	-45.215	-41.281	-39.026	-33.925	119.734	-36.216	-8191	255	
8556.137	1	1	0	0	0.31259	0.23133	0.1169	0.31163	0.15357	0.15343	0.080436	0.44154	0.30062	0.040643	0.055496	0.25099	0.14653	0.21936	0.083308	0.076318	-2.2292	-2.8229	-2.0458	-2.9167	-2.45	-2.2438	-2.9562	-2.175	-2.6396	-2.6021	-2.0875	-2.8354	-2.5187	-2.1354	-2.9083	-2.2625	-3.791	-28.277	154.910	-49.576	-32.018	33.574	267.052	236.376	41.560	108.728	181.033	44.084	78.534	220.925	48.442	-35.489	0.00031457	0.00068277	0.00024054	803.23	4.8189e-06	3.9453e-06	639.55	243.68	7.8389e-06	1.1562e-05	222.38	71.735	80.27	28.888	7.5595e-06	31.806	0.0021978	0.0023314	0.00065745	940.24	2.5244e-05	2.5862e-05	707.76	265.66	2.531e-05	2.5762e-05	260.89	85.475	100.38	33.285	2.585e-05	37.85	180.991	-11.375	111.335	-47.966	144.582	34.101	-48.957	-43.263	107.913	167.730	-45.381	-41.034	-39.154	-33.518	149.374	-36.703	-8191	255	
8556.233	1	1	0	0	0.13446	0.12581	0.24344	0.27883	0.24722	0.1822	0.15575	0.19303	0.22459	0.11066	0.15556	0.31894	0.088261	0.29393	0.23183	0.045249	-2.075	-2.9313	-2.0938	-2.5854	-2.4458	-2.1042	-3.0542	-2.1688	-2.5687	-2.9042	-2.3125	-2.7479	-2.7042	-2.0708	-2.9708	-2.4062	14.819	221.205	253.817	261.934	-2.351	134.012	-22.288	189.407	260.045	55.964	53.109	6.839	45.888	247.684	263.996	173.738	0.00031274	0.0018807	0.0002855	809.23	7.7402e-06	3.8264e-06	647.44	245.85	2.5061e-06	6.8347e-06	222.47	72.668	80.303	29.08	2.606e-06	31.712	0.0022337	0.0023535	0.00065939	942.74	2.5498e-05	2.6177e-05	713.61	267.31	2.5665e-05	2.6124e-05	262.48	86.441	101.16	33.516	2.5951e-05	37.909	187.712	134.178	-5.306	-48.463	22.021	208.083	-48.696	-42.514	237.897	46.891	-44.701	-40.452	-39.295	-33.591	247.968	-36.348	-8191	255	
8556.329	1	1	0	0	0.1468	0.19371	0.09025	0.056032	0.033036	0.2479	0.080892	0.15271	0.12694	0.15214	0.10666	0.26115	0.14284	0.23928	0.21425	0.16606	-2.0563	-2.8292	-2.1188	-2.7104	-2.7167	-2.2188	-3.0812	-2.5208	-2.4125	-2.9938	-2.1229	-2.6813	-2.825	-2.2562	-3.0292	-2.4354	-36.048	31.954	66.733	73.414	225.692	128.242	252.684	288.844	47.992	115.818	16.758	-41.421	-27.784	-37.279	207.692	118.742	5.2694e-05	0.00095912	0.00017507	804.13	5.5342e-06	1.2143e-05	643	244.89	6.8083e-06	4.6407e-06	221.91	71.629	80.045	28.831	4.4814e-06	31.585	0.0022435	0.0023695	0.00065751	943.04	2.5632e-05	2.6108e-05	710.48	266.46	2.5628e-05	2.6118e-05	260.36	85.493	100.67	33.299	2.5664e-05	37.54	-54.945	43.598	53.332	-47.794	43.665	83.057	-48.817	-42.901	146.138	-42.078	-45.335	-40.192	-38.854	-33.852	113.601	-36.432	-8191	255	
8556.425	1	1	0	0	0.20189	0.11545	0.11532	0.30207	0.25144	0.16412	0.11786	0.20215	0.25677	0.24845	0.22286	0.097427	0.066193	0.03746	0.19513	0.10379	-1.8	-2.7938	-2.1083	-2.55	-2.6042	-2.2938	-2.9	-2.6625	-2.3396	-2.8667	-2.0938	-2.4813	-2.9208	-2.1833	-2.7396	-2.675	66.370	-53.905	69.203	278.409	236.571	71.722	290.138	277.377	222.820	92.075	274.312	258.941	154.259	-54.442	10.486	285.668	0.0001935	0.0011295	7.0885e-05	804.86	1.2944e-06	3.4312e-06	638.96	244.34	3.5143e-06	3.652e-06	219.52	71.556	79.423	28.852	3.8363e-06	31.49	0.0022439	0.0023656	0.00065263	941.8	2.5961e-05	2.6108e-05	707.1	265.16	2.5827e-05	2.6021e-05	259.14	85.464	100.92	33.255	2.5781e-05	37.684	104.251	99.466	124.439	-47.689	137.169	-55.515	-48.601	-43.160	-32.107	148.560	-44.747	-41.115	-39.077	-33.550	85.572	-36.257	-8191	255	
8556.546	1	1	0	0	0.06366	0.087497	0.048542	0.084318	0.18697	0.14826	0.090077	0.0596	0.09821	0.11282	0.11376	0.054317	0.052969	0.22595	0.18935	0.17596	-1.7396	-2.8875	-2.1604	-2.6021	-2.8104	-2.0729	-2.9271	-2.8917	-2.1729	-2.8021	-2.4479	-2.3958	-3.0187	-2.2958	-2.9062	-2.5812	8.954	284.663	58.756	240.362	-5.082	34.623	101.240	-1.881	168.032	275.952	255.470	13.727	147.728	170.339	96.181	153.590	0.00011101	0.00069149	0.00018378	808.26	3.949e-06	5.723e-06	637.7	243.44	4.0479e-06	6.1786e-06	221.09	72.041	80.76	28.92	3.1e-06	31.577	0.0022572	0.0023578	0.0006514	942.99	2.589e-05	2.5825e-05	706.33	265.45	2.5763e-05	2.5809e-05	259.24	85.908	101.03	33.232	2.5691e-05	37.729	277.890	256.920	207.884	-47.911	146.752	133.754	-48.540	-43.047	137.291	256.479	-45.084	-40.524	-38.987	-33.137	20.108	-36.336	-8191	255	
8556.640	1	1	0	0	0.12418	0.29099	0.042397	0.13388	0.15681	0.1316	0.24752	0.14774	0.18032	0.086692	0.16231	0.1277	0.071811	0.071017	0.24144	0.018848	-1.6542	-2.8833	-2.6063	-2.1896	-3.0896	-2.1167	-2.7438	-2.9604	-2.1542	-2.8625	-2.4167	-2.4	-2.8979	-2.2687	-2.5458	-2.8979	30.192	15.483	262.656	-54.754	151.759	8.906	262.593	214.445	260.588	-58.174	162.449	-15.623	216.218	131.028	213.021	188.269	0.0001384	0.00093599	0.00021692	794.05	6.2513e-06	1.6058e-05	640.76	245.1	2.2324e-06	9.8799e-06	220.52	72.888	80.964	29.222	6.2573e-06	32.031	0.0022658	0.0023494	0.00065414	943.27	2.5874e-05	2.5798e-05	711	266.66	2.5859e-05	2.5932e-05	261.5	86.929	101.88	33.447	2.5726e-05	38.246	100.057	-28.457	50.060	-47.909	-59.682	280.166	-48.413	-42.834	275.400	83.424	-44.728	-40.863	-39.129	-33.445	137.869	-36.145	-8191	255	
8556.712	1	1	0	0	0.070287	0.18586	0.16514	0.027694	0.082647	0.14639	0.2309	0.32239	0.18164	0.2363	0.15611	0.17788	0.27985	0.16746	0.094641	0.10338	-1.6708	-2.7979	-2.5667	-2.3083	-2.8667	-2.1583	-2.6417	-3.025	-2.0729	-2.8854	-2.6167	-2.1479	-2.9979	-2.5667	-2.375	-2.9708	-36.384	-38.477	115.042	86.472	94.227	154.885	240.096	-32.957	-45.017	187.962	248.545	272.239	266.469	235.549	165.914	262.519	0.00020639	0.00060588	0.00046166	809.86	2.7972e-06	4.817e-06	645.63	245.42	5.5984e-06	1.2678e-05	220.13	72.417	81.426	28.893	4.1597e-06	31.211	0.0022642	0.0023685	0.00066002	951	2.6328e-05	2.5921e-05	712.6	267.28	2.6004e-05	2.5961e-05	261.18	86.693	102.17	33.278	2.5994e-05	37.702	177.978	256.507	66.245	-48.010	180.472	202.981	-48.823	-43.209	82.040	29.279	-44.816	-40.666	-39.449	-33.558	96.289	-36.263	-8191	255	
8556.832	1	1	0	0	0.22584	0.097973	0.23801	0.09018	0.2183	0.25709	0.031014	0.11269	0.11907	0.23364	0.25073	0.066513	0.13837	0.16233	0.16935	0.17846	-1.75	-2.6125	-2.65	-2.2812	-2.8646	-2.2687	-2.3583	-2.8875	-1.8771	-2.525	-2.8521	-2.0708	-2.8896	-2.3896	-2.2	-2.95	-5.767	239.427	80.437	280.949	207.384	-48.997	239.804	159.185	135.313	296.517	255.609	279.588	214.301	53.064	22.329	149.155	0.00015947	0.001474	0.00012395	804.52	3.3067e-06	5.426e-06	633.8	242.92	8.5411e-06	6.6067e-06	218.38	71.692	81.062	28.859	5.1183e-06	31.282	0.0022753	0.002374	0.00066808	945.69	2.6041e-05	2.5923e-05	704.74	266.43	2.5867e-05	2.6029e-05	259.06	86.213	101.59	33.198	2.6237e-05	37.678	60.675	66.928	194.203	-47.740	62.865	111.884	-48.953	-42.889	-0.951	-43.664	-44.748	-41.114	-39.348	-33.597	283.386	-36.393	-8191	255	
8556.929	1	1	0	0	0.30061	0.02172	0.1495	0.12968	0.19357	0.153	0.083249	0.12204	0.05171	0.062107	0.25368	0.18245	0.11103	0.24305	0.089611	0.25882	-1.6562	-2.7083	-2.7125	-2.0729	-2.8771	-2.475	-2.3083	-3.0042	-2.2583	-2.3958	-2.9104	-2.2979	-2.7083	-2.5625	-2.1146	-3.0792	237.120	-31.628	87.378	274.585	129.591	215.325	35.637	163.972	241.697	-23.540	213.539	-15.608	297.524	-47.833	111.574	295.754	0.00013586	0.00017938	0.00040289	808.42	5.5694e-06	4.9395e-06	634.84	244.14	9.5519e-06	1.7686e-06	219.52	72.395	80.519	28.801	1.1936e-05	31.275	0.0022591	0.0023843	0.00066984	947.96	2.5913e-05	2.615e-05	707.04	266.22	2.5793e-05	2.6292e-05	260.38	86.397	101.54	33.25	2.6489e-05	37.798	112.937	-41.761	155.836	-47.530	112.550	-39.589	-48.512	-42.611	34.740	190.880	-45.043	-40.508	-38.837	-33.719	72.902	-36.778	-8191	255	
8557.025	1	1	0	0	0.052526	0.20955	0.23682	0.098618	0.23365	0.12054	0.17426	0.070672	0.015511	0.21518	0.098434	0.11818	0.2296	0.10917	0.12592	0.095442	-1.8104	-2.2313	-2.825	-2.0167	-2.7604	-2.7562	-2.1979	-2.8521	-2.3125	-2.4208	-3.0771	-2.1417	-2.5896	-2.7125	-2.0708	-3.0187	4.911	70.054	-1.326	201.646	254.345	79.017	78.604	231.130	224.194	162.102	46.318	109.351	259.552	9.054	119.410	190.711	0.00022623	0.00068519	0.00020752	801.4	4.1417e-06	4.066e-06	637.57	245.2	5.3975e-06	2.7479e-06	219.93	72.449	81.415	28.987	1.1513e-05	31.807	0.0022791	0.0024109	0.00067132	944.18	2.5835e-05	2.6506e-05	709.76	266.6	2.5827e-05	2.6473e-05	261.06	86.794	102.09	33.482	2.6609e-05	38.053	141.258	149.012	-16.276	-47.930	53.538	289.201	-48.735	-42.488	65.698	64.110	-45.117	-40.799	-38.931	-33.250	151.449	-36.035	-8191	255	
8557.121	1	1	0	0	0.14318	0.16529	0.15313	0.072961	0.40987	0.33568	0.35431	0.098511	0.11618	0.14379	0.053935	0.27868	0.2477	0.091606	0.24205	0.04983	-1.925	-2.3021	-2.8542	-2.2375	-2.5625	-2.7479	-2.275	-3.0667	-2.4958	-2.3937	-2.9146	-2.3896	-2.5479	-2.7667	-2.1542	-2.7188	266.828	297.894	-54.634	216.497	189.726	127.867	149.513	-33.796	249.094	-23.304	287.267	259.339	279.104	-32.840	133.023	174.444	0.00016639	0.00086657	0.00027054	806.48	8.4215e-06	1.3562e-06	636.19	246.36	6.6916e-07	4.905e-06	221.36	72.886	81.323	28.945	6.2453e-06	31.582	0.002283	0.0024649	0.00067832	947.78	2.6246e-05	2.6805e-05	712.4	267.42	2.6138e-05	2.6846e-05	261.43	86.742	102.26	33.495	2.6447e-05	37.78	160.547	-58.657	99.895	-47.751	150.689	52.192	-48.734	-42.374	40.836	89.175	-45.158	-40.713	-39.291	-33.556	34.723	-35.990	-8191	255	
8557.242	1	1	0	0	0.19832	0.12387	0.034686	0.2753	0.17397	0.083099	0.087194	0.042353	0.082497	0.28647	0.15191	0.21111	0.046227	0.30018	0.25857	0.20903	-2.0625	-2.0042	-3.15	-2.2708	-2.4083	-2.7833	-2.2604	-2.7646	-2.6396	-2.3021	-3.1021	-2.2458	-2.4833	-2.8833	-1.975	-2.7375	158.968	-27.716	38.368	190.769	225.676	224.794	219.979	158.281	46.961	128.132	277.400	-16.697	-25.751	271.536	-21.813	275.179	0.00037655	0.00044136	0.00052651	801.51	1.2066e-06	3.7104e-06	630.21	243.73	4.833e-06	1.2837e-06	218.67	71.57	81.33	28.935	8.1979e-06	31.438	0.0022823	0.0024316	0.00067126	941.78	2.6421e-05	2.6649e-05	700.91	265.58	2.5996e-05	2.6485e-05	258.84	85.762	102.15	33.287	2.6137e-05	37.592	125.321	-32.836	272.058	-47.665	100.158	171.153	-48.161	-42.096	115.496	-35.683	-45.359	-40.623	-38.803	-33.289	104.736	-36.158	-8191	255	
8557.338	1	1	0	0	0.11029	0.16951	0.2364	0.04946	0.26488	0.20219	0.12232	0.077021	0.20215	0.18485	0.10398	0.15894	0.26477	0.16064	0.079447	0.2116	-2.3792	-2.1063	-2.7521	-2.4062	-2.2396	-3.0354	-2.2333	-2.6208	-2.6229	-1.9708	-2.8292	-2.7479	-2.2833	-2.8771	-2.2042	-2.6854	221.919	7.674	65.135	-36.665	90.226	209.373	30.010	298.391	166.424	128.960	205.422	297.633	-6.888	285.649	217.292	166.054	0.00031179	0.00086348	9.5702e-05	795.01	5.7609e-06	8.1611e-06	632.47	244.64	9.2101e-06	1.1e-05	217.32	71.851	81.018	28.908	6.8442e-06	31.456	0.0022828	0.0024149	0.00066434	937.42	2.6421e-05	2.6522e-05	701.33	265.82	2.6187e-05	2.648e-05	258.27	85.881	102.19	33.325	2.5938e-05	37.63	178.877	63.197	125.914	-47.723	207.197	-5.066	-48.601	-42.540	211.460	-10.042	-44.895	-40.481	-39.028	-33.097	237.110	-36.065	-8191	255	
8557.409	1	1	0	0	0.088087	0.16975	0.12712	0.094872	0.36547	0.25791	0.18109	0.29147	0.15717	0.17461	0.051962	0.12548	0.33067	0.046478	0.12111	0.1543	-2.3812	-2.0854	-2.6542	-2.4792	-2.2188	-3.025	-2.3875	-2.6146	-2.8312	-2.1937	-2.8479	-2.6458	-2.2021	-2.9833	-2.125	-2.4521	92.112	237.350	220.634	180.921	44.875	-51.940	-35.945	266.461	73.480	122.706	214.142	162.681	181.711	93.501	259.227	218.153	0.00010029	0.0016119	0.00027713	796.54	1.9478e-06	7.89e-07	629.2	243.93	5.742e-06	4.6637e-06	219.51	71.751	81.419	28.826	5.3278e-06	31.652	0.0022923	0.0024065	0.00066231	938.64	2.6382e-05	2.6266e-05	701.86	266.5	2.628e-05	2.649e-05	258.94	86.187	101.89	33.302	2.5946e-05	37.857	214.631	43.467	204.229	-47.584	28.248	48.545	-48.394	-42.607	56.470	52.282	-44.951	-40.754	-39.019	-33.463	138.814	-36.106	-8191	255	
8557.506	1	1	0	0	0.10975	0.077771	0.18835	0.44489	0.27939	0.21618	0.26233	0.10634	0.064182	0.038431	0.21489	0.12725	0.2267	0.18346	0.16414	0.089142	-2.4667	-1.8625	-2.6813	-2.7271	-2.0438	-2.9979	-2.4521	-2.2333	-2.8146	-2.2104	-2.5833	-2.5792	-2.1021	-2.9042	-2.2854	-2.4667	19.565	13.427	12.308	232.374	159.532	-56.446	80.191	238.141	-53.624	-52.483	175.649	297.032	29.893	284.866	33.839	229.714	0.00028577	0.00039543	7.6007e-05	805.01	5.1705e-06	1.7402e-05	639.12	246.24	4.9007e-06	1.295e-05	220.68	72.878	81.89	29.066	8.0469e-06	31.669	0.0022933	0.0023855	0.00066232	943.2	2.6472e-05	2.62e-05	705.82	267.82	2.6279e-05	2.6354e-05	260.38	87.177	102.53	33.487	2.601e-05	38.134	129.006	261.558	-10.559	-47.105	28.958	51.512	-48.717	-42.366	107.843	196.235	-45.188	-39.949	-38.873	-33.208	205.571	-36.174	-8191	255	
8557.624	1	1	0	0	0.1844	0.073873	0.19216	0.18021	0.032291	0.28429	0.22152	0.24323	0.0325	0.16613	0.069924	0.16504	0.13893	0.29543	0.14014	0.063669	-2.4417	-2.0812	-2.5833	-2.6729	-1.9542	-2.9333	-2.625	-2.2292	-2.7917	-2.2438	-2.6667	-2.8458	-2.0229	-2.7833	-2.3375	-2.3229	21.802	149.414	-24.203	-51.443	124.784	-54.610	45.131	56.964	128.101	119.556	131.562	209.529	76.898	244.393	-41.773	-34.675	0.0002291	0.001194	0.0001822	799.21	6.9401e-06	3.8776e-06	633.63	245.22	9.641e-06	8.1252e-06	218.43	72.444	80.736	28.982	3.5944e-06	31.611	0.0022979	0.0023889	0.0006641	944.05	2.6187e-05	2.5925e-05	703.81	266.79	2.6079e-05	2.5752e-05	258.8	86.16	101.54	33.306	2.5991e-05	37.769	182.559	-58.517	89.905	-47.715	-37.054	109.071	-48.311	-42.605	-27.005	64.828	-44.493	-40.169	-38.726	-33.440	294.660	-35.859	-8191	255	
8557.721	1	1	0	0	0.054262	0.12653	0.075981	0.096919	0.22815	0.21084	0.11708	0.17267	0.133	0.22606	0.16308	0.18543	0.17332	0.42042	0.013804	0.17218	-2.4979	-2.1917	-2.35	-2.8396	-2.0521	-2.7458	-2.8458	-2.2667	-2.8708	-2.3333	-2.5229	-2.8563	-2.1063	-2.6479	-2.6792	-2.2479	-21.786	77.010	27.182	214.387	227.244	145.080	248.294	-58.327	-24.895	44.252	240.771	260.547	223.073	286.116	73.695	187.656	0.00014403	0.00025727	0.00016986	795.78	1.0141e-05	5.4804e-06	626.95	245.55	5.9751e-06	2.4298e-06	219.79	72.214	81.537	28.735	1.1828e-05	31.384	0.0022646	0.0023608	0.00066707	941.13	2.6026e-05	2.5961e-05	700.71	266.61	2.5929e-05	2.5994e-05	259.86	86.41	101.62	33.145	2.6214e-05	37.775	47.604	-19.025	128.708	-47.757	123.597	244.394	-47.977	-42.351	72.163	7.207	-44.227	-40.104	-38.380	-33.073	185.104	-35.897	-8191	255	
8557.818	1	1	0	0	0.047305	0.26916	0.17446	0.31472	0.034813	0.067285	0.1837	0.080189	0.088306	0.083605	0.2511	0.23972	0.21256	0.14474	0.1133	0.13949	-2.3438	-2.3875	-2.4938	-3.0333	-2.2271	-2.7271	-2.7875	-2.2396	-2.6583	-2.475	-2.2146	-2.9437	-2.3125	-2.6	-2.7458	-2.1833	145.042	-34.409	270.068	293.680	180.498	203.188	-30.625	168.080	182.824	-21.132	218.669	270.533	280.955	204.680	66.008	69.258	0.00014017	0.00077392	0.00037376	797.58	3.5466e-06	1.1718e-05	632.95	243.33	3.6848e-06	5.0189e-06	220.09	72.683	81.014	29.029	1.3667e-05	31.678	0.0022554	0.0023566	0.00067397	941.28	2.5941e-05	2.6178e-05	704.99	266.28	2.593e-05	2.6224e-05	260.56	86.594	101.4	33.314	2.6467e-05	38.003	112.607	242.333	24.224	-47.385	143.441	74.585	-48.198	-42.418	-53.623	4.975	-44.272	-40.032	-38.551	-33.003	63.118	-35.896	-8191	255	
8557.937	1	1	0	0	0.17128	0.16053	0.042538	0.18177	0.16116	0.25808	0.083332	0.44256	0.18156	0.35849	0.15197	0.20157	0.24489	0.28445	0.16149	0.02228	-2.4917	-2.4729	-2.3167	-3.0542	-2.2	-2.5333	-2.9792	-2.2583	-2.75	-2.7167	-2.2938	-2.9104	-2.2542	-2.4688	-2.8333	-2.2354	62.624	-21.094	272.950	113.423	-30.693	288.183	-58.999	189.235	157.599	189.846	213.967	242.788	278.356	233.253	147.052	184.161	5.5444e-05	0.0002701	0.00036612	802.65	3.7936e-06	3.6397e-06	636.1	245.27	3.0938e-06	5.7596e-06	220.86	73.583	82.002	29.062	3.1846e-06	31.911	0.0022556	0.0023948	0.00067716	943.81	2.5911e-05	2.6478e-05	708.76	267.08	2.5947e-05	2.648e-05	261.95	87.318	102.29	33.588	2.652e-05	38.299	135.920	21.630	100.377	-47.142	28.613	199.592	-47.823	-42.309	294.345	115.807	-44.230	-39.983	-38.402	-32.873	-26.789	-35.748	-8191	255	
8558.009	1	1	0	0	0.059154	0.10604	0.1267	0.37468	0.06272	0.16665	0.214	0.19565	0.26879	0.085233	0.20853	0.2039	0.34722	0.14114	0.15362	0.12333	-2.4708	-2.6458	-2.2958	-2.8771	-2.4292	-2.3792	-2.9208	-2.0854	-2.5021	-2.7729	-2.1833	-2.7958	-2.4458	-2.3563	-2.9604	-2.125	72.450	257.341	146.513	273.786	126.087	14.026	294.693	196.356	103.966	248.871	-29.519	-51.548	205.516	197.544	59.700	-58.088	0.00015011	0.00078107	0.00027816	804.12	3.4165e-07	1.2499e-05	637.67	245.08	5.2167e-06	1.6537e-05	221.2	71.953	80.933	29.115	8.4186e-06	31.365	0.0022574	0.002416	0.00067807	944.8	2.6114e-05	2.6589e-05	707.12	267.43	2.5762e-05	2.6381e-05	261.29	86.139	101.04	33.381	2.5766e-05	37.677	253.821	-21.988	31.956	-48.119	272.268	-7.022	-48.728	-42.929	233.699	90.150	-45.374	-40.677	-39.157	-33.929	98.752	-36.467	-8191	255	
8558.105	1	1	0	0	0.073115	0.18553	0.2131	0.19681	0.086484	0.12429	0.31731	0.27853	0.014278	0.12597	0.25796	0.26567	0.36877	0.13964	0.024577	0.022936	-1.9979	-2.5979	-2.1542	-2.8104	-2.3792	-2.2979	-3.2042	-2.3896	-2.5708	-2.7938	-2.0917	-2.8229	-2.4313	-2.3563	-2.9417	-2.3563	184.594	279.076	130.585	250.292	53.334	171.381	-22.959	222.516	97.216	-25.689	235.080	295.357	-0.815	238.221	126.399	282.374	0.00017874	0.0012128	0.00016495	801.28	8.6957e-06	2.7479e-06	631.3	244.04	9.998e-06	6.6454e-06	221.48	71.891	80.777	28.802	1.0266e-05	31.403	0.0022107	0.0023679	0.00065869	936.49	2.574e-05	2.6222e-05	700.13	265.6	2.5678e-05	2.6144e-05	258.83	85.723	101.09	33.252	2.5826e-05	37.648	63.774	120.399	-20.648	-48.063	246.125	-49.751	-48.864	-43.118	98.207	37.143	-45.591	-40.858	-38.976	-33.382	30.113	-36.812	-8191	255	
8558.226	1	1	0	0	0.32212	0.11178	0.149	0.1505	0.16614	0.11087	0.019905	0.30349	0.14493	0.31893	0.16269	0.27846	0.21332	0.22776	0.11052	0.045639	-2.0604	-2.7792	-2.1646	-2.6958	-2.6583	-2.1646	-3.0687	-2.375	-2.2667	-2.7938	-2.1354	-2.8125	-2.6958	-2.5125	-2.9354	-2.4667	228.040	141.769	4.827	232.406	182.524	67.830	274.113	287.345	67.055	48.205	254.182	270.032	207.802	212.945	-21.685	19.519	0.00020657	0.0006867	0.00012142	798.77	5.6485e-06	8.9393e-06	634.51	243.13	9.4289e-06	1.4292e-06	218.22	72.496	80.634	29.061	1.8215e-06	31.221	0.0022552	0.0023662	0.00065314	936.93	2.5906e-05	2.6069e-05	702.8	264.78	2.5833e-05	2.606e-05	258.93	86.074	101.29	33.309	2.5776e-05	37.782	150.368	-46.855	89.781	-47.940	4.917	-39.074	-49.263	-43.131	-10.388	149.647	-45.135	-41.105	-39.313	-34.122	249.864	-36.864	-8191	255	
8558.322	1	1	0	0	0.097178	0.20692	0.086316	0.36879	0.10801	0.23234	0.11585	0.35136	0.22238	0.085781	0.14774	0.16956	0.05191	0.16092	0.17052	0.313	-1.7458	-2.85	-2.2333	-2.75	-2.6146	-1.975	-2.8646	-2.5521	-2.3833	-2.8958	-2.2083	-2.5625	-2.775	-2.05	-2.9688	-2.6063	182.406	-22.188	11.823	282.006	6.262	23.145	120.264	282.545	-13.875	200.897	254.202	226.813	-54.002	79.005	125.393	298.915	0.00018988	0.0011263	0.00015985	801.3	1.3378e-05	6.0179e-07	637.95	244.07	1.0018e-05	2.0531e-05	220.23	72.601	80.874	28.953	6.7441e-06	31.936	0.0022634	0.0023712	0.00065085	939.17	2.5938e-05	2.5988e-05	706.56	266.05	2.6042e-05	2.6075e-05	260.47	86.73	101.94	33.344	2.5576e-05	38.187	225.995	-32.454	80.888	-48.803	69.684	121.217	-48.826	-42.972	261.527	101.587	-45.041	-40.894	-39.292	-33.753	-10.590	-36.829	-8191	255	
8558.418	1	1	0	0	0.13264	0.32388	0.22407	0.11816	0.29304	0.072988	0.27491	0.21597	0.18609	0.18494	0.063889	0.014901	0.094031	0.22066	0.21945	0.36151	-1.8208	-2.7604	-2.0333	-2.5729	-2.7604	-2.1021	-2.9125	-2.5104	-2.1583	-2.875	-2.2792	-2.6188	-3.0292	-2.1208	-2.8604	-2.8312	-7.205	59.441	117.057	251.969	111.746	216.703	261.141	138.004	246.287	-20.288	89.763	170.274	80.794	280.132	100.664	259.361	0.00022567	0.0023639	0.00032322	805.82	9.3418e-06	1.0136e-05	642.63	244.96	8.0493e-06	1.0634e-05	222.07	72.718	80.709	29.017	4.8483e-06	31.827	0.0022788	0.0023798	0.00065359	942.34	2.6021e-05	2.5808e-05	710.08	266.83	2.5824e-05	2.5778e-05	261.14	86.931	101.65	33.336	2.5654e-05	37.958	39.138	290.034	1.460	-48.354	38.469	29.761	-49.101	-43.264	254.287	103.779	-45.019	-40.595	-39.879	-34.010	-18.023	-37.034	-8191	255	
8558.537	1	1	0	0	0.10989	0.1103	0.23322	0.21705	0.23031	0.083203	0.083178	0.14026	0.06665	0.27013	0.127	0.16876	0.14017	0.064914	0.063429	0.18437	-1.5083	-2.7562	-2.1667	-2.4104	-3.0812	-2.2562	-2.7542	-2.7438	-2.2167	-2.8312	-2.3854	-2.1396	-3.0083	-2.3458	-2.5958	-2.725	231.684	121.659	156.177	-22.001	187.460	211.964	65.670	266.022	72.409	-12.508	-12.250	273.193	-27.600	-56.895	16.668	-34.667	0.00019613	0.00055844	0.00047282	798.22	1.5225e-05	1.2656e-05	635.94	244.85	1.3338e-05	5.1985e-06	219	71.84	80.83	28.808	9.4376e-06	31.609	0.002262	0.0023355	0.00065182	940.15	2.5902e-05	2.5707e-05	701.94	265.9	2.5659e-05	2.5381e-05	258.36	85.734	100.83	32.994	2.5426e-05	37.685	117.422	68.697	38.210	-48.229	68.289	-8.006	-48.788	-43.380	90.994	-6.143	-45.709	-40.660	-39.969	-33.927	42.892	-36.525	-8191	255	
8558.609	1	1	0	0	0.26468	0.092822	0.13033	0.087795	0.13247	0.20194	0.32177	0.10229	0.03742	0.15994	0.30749	0.10199	0.16422	0.28598	0.21019	0.11477	-1.9125	-2.7062	-2.5104	-2.1979	-2.9417	-2.3271	-2.5312	-2.8417	-2.0958	-2.9333	-2.5458	-2.3396	-2.9625	-2.4042	-2.3271	-2.8375	132.647	23.461	240.621	138.420	85.451	219.364	265.780	245.037	81.469	121.539	287.447	192.815	-38.426	-54.907	238.300	135.225	0.00012826	0.0012556	8.3145e-05	798.76	5.0039e-06	3.9575e-06	634.31	244.07	9.6542e-07	4.7169e-06	219.88	71.945	80.928	28.902	9.0111e-06	31.623	0.0022098	0.0023191	0.00065142	937.84	2.5704e-05	2.5243e-05	702.32	265.62	2.5272e-05	2.5482e-05	258.96	85.984	101.09	33.18	2.5765e-05	37.771	160.208	89.336	268.191	-48.081	224.561	59.823	-48.564	-43.430	278.388	44.921	-45.764	-41.009	-38.750	-34.012	21.659	-36.674	-8191	255	
8558.705	1	1	0	0	0.17652	0.090418	0.11788	0.15405	0.056021	0.23882	0.22357	0.28533	0.064378	0.17976	0.090201	0.28291	0.10906	0.15692	0.11067	0.18751	-1.6917	-2.7521	-2.5938	-2.075	-2.8125	-2.0896	-2.4062	-2.8854	-1.9854	-2.8208	-2.65	-2.1896	-2.8979	-2.4042	-2.2417	-2.9625	20.011	65.899	253.624	254.459	-18.616	-7.280	122.795	273.720	-14.287	-7.141	289.862	-37.004	-30.663	-51.747	-38.525	153.575	0.00022908	0.00083065	0.00026495	797.23	2.3886e-06	1.3236e-05	635.88	243.62	1.0054e-05	7.4414e-06	219.25	73.104	81.333	28.971	8.5337e-06	31.979	0.0022205	0.0023216	0.00065705	939.07	2.5328e-05	2.5272e-05	706.49	266.17	2.5248e-05	2.5754e-05	260.23	86.94	101.3	33.255	2.5779e-05	38.002	180.375	115.774	177.548	-47.934	199.393	62.644	-48.910	-43.488	161.868	97.068	-45.384	-40.718	-39.303	-33.655	53.947	-36.548	-8191	255	
8558.801	1	1	0	0	0.23521	0.20982	0.11668	0.20692	0.32695	0.29524	0.023215	0.15523	0.16315	0.13321	0.14304	0.30472	0.26164	0.14572	0.10963	0.23867	-1.7292	-2.6021	-2.6188	-2.2313	-2.9125	-2.3187	-2.2292	-2.8812	-2.1708	-2.6292	-2.7354	-2.1854	-2.9729	-2.5979	-2.3083	-3.1021	58.079	190.126	28.657	147.631	204.275	50.927	29.174	241.447	-46.095	58.337	94.778	-45.484	293.382	87.605	96.547	228.563	0.00022409	7.4494e-05	0.0002504	806.98	1.987e-06	3.0413e-06	635.83	244.17	9.6703e-06	6.3281e-06	221.64	73.691	81.213	28.912	5.2127e-06	32.218	0.0022108	0.0023468	0.00065857	940.32	2.5398e-05	2.5785e-05	709.14	266.52	2.5181e-05	2.5906e-05	262.62	87.013	101.58	33.296	2.6071e-05	38.115	130.448	293.331	29.387	-47.983	19.549	53.757	-49.143	-43.426	187.026	167.316	-45.343	-40.730	-39.651	-34.135	210.538	-36.518	-8191	255	
8558.922	1	1	0	0	0.045598	0.026728	0.13007	0.081779	0.048729	0.295	0.19544	0.087574	0.17052	0.17613	0.19821	0.18089	0.063999	0.14468	0.25508	0.21701	-1.8104	-2.4604	-2.8937	-2.0479	-2.9229	-2.6396	-2.3396	-3.0083	-2.1813	-2.3917	-2.9292	-2.1625	-2.7458	-2.5563	-1.9771	-2.9313	12.731	156.058	-57.584	-6.424	178.799	111.547	279.345	-6.433	206.230	-18.691	63.214	237.606	189.531	-32.734	-27.397	-44.821	0.00022682	0.00020324	7.3956e-05	801.93	5.8759e-06	4.5425e-06	631.89	244.93	1.2931e-05	1.5614e-05	220.53	71.6	80.6	28.957	7.1361e-06	31.609	0.0022127	0.0023714	0.00065824	937.56	2.552e-05	2.5579e-05	705.65	266.47	2.5023e-05	2.5761e-05	259.02	85.598	100.74	33.172	2.5727e-05	37.508	185.691	18.834	16.315	-48.084	106.609	141.967	-48.545	-43.178	105.510	90.069	-45.179	-40.640	-39.100	-33.902	83.763	-36.642	-8191	255	
8559.018	1	1	0	0	0.33677	0.33823	0.16763	0.2355	0.085896	0.12823	0.16002	0.19522	0.36454	0.19631	0.038698	0.30132	0.43033	0.18739	0.21019	0.27667	-1.9583	-2.2729	-2.7479	-2.1667	-2.6458	-2.6979	-2.1437	-2.9667	-2.2687	-2.2917	-3.0458	-2.3917	-2.5812	-2.8375	-2.1542	-2.8167	283.229	-5.867	295.607	298.499	-18.656	-24.742	189.540	265.712	-46.355	218.314	7.212	234.953	291.827	33.470	60.731	40.424	9.7314e-05	0.001515	0.00034169	798.11	3.7028e-06	1.4188e-05	633.38	245.3	8.0785e-06	6.62e-06	218.08	71.87	81.51	28.84	1.0827e-05	31.472	0.0022094	0.0023588	0.00065298	931.3	2.5403e-05	2.5682e-05	702.58	265.7	2.5161e-05	2.5814e-05	258.86	85.712	101.31	33.166	2.5662e-05	37.675	164.273	49.411	94.769	-48.411	85.359	39.147	-48.962	-43.069	81.043	92.640	-45.095	-40.794	-39.476	-33.902	-1.176	-36.777	-8191	255	
8559.114	1	1	0	0	0.13717	0.071373	0.10441	0.17978	0.12686	0.15587	0.31132	0.14696	0.031084	0.24518	0.16481	0.35291	0.1162	0.38883	0.041278	0.17482	-1.9292	-2.2333	-2.9	-2.3292	-2.4604	-2.7625	-2.2625	-2.8167	-2.6417	-2.2396	-3.0333	-2.1667	-2.4229	-2.9292	-2.1042	-2.6729	25.570	167.270	51.113	-27.068	-58.465	171.122	240.680	211.865	181.131	143.674	73.434	288.859	0.354	255.489	1.369	64.863	4.7763e-05	0.0010206	0.00027721	809.79	4.6273e-06	6.973e-06	638.37	245.31	7.5444e-06	4.7116e-06	222.54	72.838	82.067	28.762	1.3437e-05	31.692	0.0022349	0.0023437	0.00065059	935.37	2.5643e-05	2.5757e-05	705.83	265.56	2.5559e-05	2.5767e-05	260.2	86.312	101.58	33.138	2.5456e-05	37.805	170.247	297.792	61.550	-48.536	274.342	-6.151	-48.842	-43.150	259.589	14.218	-45.452	-41.136	-39.246	-33.865	-24.141	-36.728	-8191	255	
8559.210	1	1	0	0	0.12998	0.22171	0.15618	0.15499	0.16075	0.21467	0.048481	0.11074	0.2022	0.14135	0.091581	0.23626	0.12701	0.17927	0.087694	0.27933	-2.2146	-1.9937	-2.9021	-2.3792	-2.3896	-2.9146	-1.9688	-2.875	-2.5938	-2.0604	-2.8583	-2.4562	-2.2875	-2.9625	-1.9875	-2.6437	167.733	235.961	222.851	-46.703	228.036	102.246	109.642	211.108	37.608	4.468	-46.331	160.406	31.598	-43.213	52.463	-56.230	8.9034e-05	0.0018761	0.00069309	798.18	6.0401e-06	6.3828e-06	639.51	244	7.2915e-06	9.9162e-06	221.68	73.316	81.085	29.019	8.1147e-06	31.943	0.0022537	0.0023625	0.00065134	936.22	2.5916e-05	2.5954e-05	707.43	266.18	2.5698e-05	2.5723e-05	261.36	86.804	101.56	33.337	2.5479e-05	38.112	122.764	-10.699	14.021	-47.811	272.494	109.428	-48.994	-43.186	263.391	34.303	-45.595	-40.960	-38.682	-33.704	169.937	-36.084	-8191	255	
8559.306	1	1	0	0	0.1154	0.11955	0.15766	0.0066996	0.17554	0.11056	0.085349	0.24892	0.083879	0.11007	0.50675	0.10535	0.28666	0.13266	0.077198	0.115	-2.3646	-1.9792	-2.7646	-2.4479	-2.2313	-2.8792	-2.5167	-2.5312	-2.8125	-2.1875	-2.9271	-2.6125	-2.2646	-2.8937	-2.1854	-2.6833	91.949	63.118	257.720	256.329	140.548	68.416	60.976	211.990	-25.669	21.743	-27.392	170.855	-59.473	297.396	-47.829	156.926	0.00016178	0.0010301	4.6421e-05	794.01	7.9217e-06	1.292e-05	639.29	244.71	6.3669e-06	6.9278e-06	219.88	72.751	81.041	28.834	8.7595e-06	31.246	0.0022634	0.0023645	0.00064612	935.86	2.6105e-05	2.5864e-05	705.51	266.14	2.5735e-05	2.5656e-05	258.42	86.161	101.14	32.968	2.5337e-05	37.568	243.598	280.789	94.859	-48.097	21.295	89.903	-48.875	-43.229	-0.596	73.649	-45.353	-41.084	-39.222	-33.988	285.897	-36.649	-8191	255	
8559.402	1	1	0	0	0.12531	0.16779	0.078277	0.23076	0.21958	0.083314	0.16967	0.19804	0.1341	0.33755	0.03024	0.081508	0.15977	0.061335	0.1174	0.10858	-2.3563	-2.25	-2.7896	-2.55	-2.1	-2.8771	-2.3625	-2.5729	-2.8312	-2.1146	-2.7917	-2.7458	-2.4146	-3.0354	-2.2938	-2.5563	27.947	126.097	177.031	294.480	197.519	110.696	-40.067	228.390	288.567	-17.142	241.387	114.898	265.964	233.214	159.654	162.038	0.00031307	0.0011522	0.00019793	794.76	2.7109e-06	1.0331e-05	626.02	242.16	7.9386e-06	4.2741e-06	217.63	71.241	79.562	28.638	7.0588e-06	31.338	0.0022342	0.0023213	0.0006443	933.8	2.5655e-05	2.5569e-05	698.29	264.4	2.5467e-05	2.5428e-05	256.72	85.298	100.36	32.657	2.5187e-05	37.272	116.715	3.189	-12.704	-48.016	282.831	130.633	-48.956	-43.259	94.219	80.333	-45.199	-41.239	-39.342	-34.064	167.113	-36.682	-8191	255	
8559.498	1	1	0	0	0.21278	0.21059	0.098818	0.19694	0.21239	0.16679	0.20036	0.19859	0.157	0.065118	0.15843	0.1579	0.25419	0.01844	0.32214	0.29418	-2.4396	-2.1	-2.6208	-2.8438	-2.2583	-2.9479	-2.5271	-2.4042	-2.8417	-1.9958	-2.5646	-2.7417	-2.1167	-2.9188	-2.4979	-2.2271	281.551	205.112	-55.100	184.769	41.800	243.132	203.248	237.318	83.194	-3.963	279.687	255.461	252.356	227.631	209.957	229.576	0.00022459	0.0011496	0.00011747	794.28	3.5216e-06	5.6911e-06	630.92	243.33	5.9217e-06	7.3425e-06	218.96	71.547	80.404	28.537	7.1454e-06	31.148	0.0022147	0.002304	0.00064736	931.67	2.5492e-05	2.527e-05	699.56	263.94	2.5011e-05	2.499e-05	256.47	84.958	99.97	32.623	2.5251e-05	37.251	120.429	50.057	28.583	-47.954	206.203	157.305	-48.760	-43.008	189.522	205.192	-45.198	-40.658	-39.192	-34.494	43.086	-36.515	-8191	255	
8559.619	1	1	0	0	0.16405	0.21684	0.074201	0.063646	0.20337	0.12552	0.13847	0.27797	0.11601	0.25853	0.21363	0.25155	0.23637	0.10126	0.10857	0.21823	-2.4437	-2.3667	-2.5729	-2.8	-2.0896	-2.7687	-2.7625	-2.2438	-3.0583	-2.2938	-2.5042	-3.0854	-2.1875	-2.7938	-2.4458	-2.0646	208.405	295.249	-24.032	-45.945	-50.517	1.189	156.994	297.202	-57.526	40.191	243.031	13.464	280.960	45.796	92.990	260.423	0.00023573	0.0010429	3.6517e-05	793.03	1.2231e-05	6.4137e-06	633.71	243.22	5.7165e-06	4.0076e-06	217.96	71.58	80.249	28.563	6.7097e-06	31.534	0.0021829	0.0022778	0.00065002	930.9	2.5093e-05	2.5064e-05	700.29	264.02	2.495e-05	2.4993e-05	257.4	85.26	99.775	32.705	2.5409e-05	37.433	109.699	243.749	12.886	-48.015	97.977	293.653	-49.389	-42.877	195.403	30.943	-45.440	-40.600	-39.202	-34.092	185.659	-36.593	-8191	255	
8559.713	1	1	0	0	0.22983	0.095099	0.38294	0.38174	0.039413	0.091396	0.24486	0.26698	0.10612	0.13733	0.024959	0.30039	0.15843	0.11474	0.11361	0.27718	-2.4437	-2.4813	-2.4458	-2.9771	-2.175	-2.8646	-2.625	-2.2938	-2.9271	-2.5812	-2.4021	-3.0271	-2.1688	-2.7542	-2.5812	-2.0938	62.209	71.571	281.726	241.956	-27.368	95.780	187.816	158.662	-55.741	121.169	57.440	69.480	1.462	282.614	174.962	-40.737	0.00010182	0.00054308	0.00038256	799.74	4.9788e-06	1.011e-05	633.09	242.39	5.7415e-06	9.0487e-06	217.33	71.299	79.855	28.762	5.8928e-06	31.306	0.0021714	0.0023088	0.00065578	934.49	2.5208e-05	2.5625e-05	705.53	264.29	2.5177e-05	2.5583e-05	258.47	85.357	100.14	32.864	2.5703e-05	37.383	67.982	38.172	61.679	-48.181	82.445	46.307	-48.768	-42.970	34.314	270.381	-45.369	-40.950	-39.349	-33.762	192.708	-36.502	-8191	255	
#DATA ENDS
