BOXY.EXE: ISS Imagent and Oximeter Data Acquisition Program Version 0.80
Ascii Record File

#ACQ INFORMATION
2  Detector Channels 
16  External MUX Channels 
1  Auxiliary Channels 
5000  Waveform (CCF) Frequency (Hz)
1  Waveforms Skipped 
30  Waveforms Averaged 
1  Cycles Averaged 
16  Acquisitions per Waveform 
10.0806  Updata Rate (Hz) 

#FILE INFORMATION
TRUE -- External MUX Channel results are PARSED.
FALSE -- AC DC and Phase are NOT grouped.
TRUE -- Companion Program Settings File CREATED.
FALSE -- AC data not excluded
FALSE -- DC data not excluded
FALSE -- Phase data not excluded
FALSE -- Auxillary Chn. data not excluded
Tab delimiters

#CALIBRATION STATE
TRUE -- Waveform Calibration Values APPLIED.


#AUX CALIBRATION VALUES
Val Type	aux-1	

Term	1.0000e+00	
Factor	0.0000e+00	


#WF CALIBRATION VALUES
A = Detector Channel
Val Type	A-AC1	A-AC2	A-AC3	A-AC4	A-AC5	A-AC6	A-AC7	A-AC8	A-AC9	A-AC10	A-AC11	A-AC12	A-AC13	A-AC14	A-AC15	A-AC16	A-DC1	A-DC2	A-DC3	A-DC4	A-DC5	A-DC6	A-DC7	A-DC8	A-DC9	A-DC10	A-DC11	A-DC12	A-DC13	A-DC14	A-DC15	A-DC16	A-Ph1	A-Ph2	A-Ph3	A-Ph4	A-Ph5	A-Ph6	A-Ph7	A-Ph8	A-Ph9	A-Ph10	A-Ph11	A-Ph12	A-Ph13	A-Ph14	A-Ph15	A-Ph16	

Term	0.00000e+00	0.00000e+00	0.00000e+00	0.00000e+00	0.00000e+00	0.00000e+00	0.00000e+00	0.00000e+00	0.00000e+00	0.00000e+00	0.00000e+00	0.00000e+00	0.00000e+00	0.00000e+00	0.00000e+00	0.00000e+00	0.00000e+00	0.00000e+00	0.00000e+00	0.00000e+00	0.00000e+00	0.00000e+00	0.00000e+00	0.00000e+00	0.00000e+00	0.00000e+00	0.00000e+00	0.00000e+00	0.00000e+00	0.00000e+00	0.00000e+00	0.00000e+00	0.00000e+00	0.00000e+00	0.00000e+00	0.00000e+00	0.00000e+00	0.00000e+00	0.00000e+00	0.00000e+00	0.00000e+00	0.00000e+00	0.00000e+00	0.00000e+00	0.00000e+00	0.00000e+00	0.00000e+00	0.00000e+00	
Factor	1.00000e+00	1.00000e+00	1.00000e+00	1.00000e+00	1.00000e+00	1.00000e+00	1.00000e+00	1.00000e+00	1.00000e+00	1.00000e+00	1.00000e+00	1.00000e+00	1.00000e+00	1.00000e+00	1.00000e+00	1.00000e+00	1.00000e+00	1.00000e+00	1.00000e+00	1.00000e+00	1.00000e+00	1.00000e+00	1.00000e+00	1.00000e+00	1.00000e+00	1.00000e+00	1.00000e+00	1.00000e+00	1.00000e+00	1.00000e+00	1.00000e+00	1.00000e+00	X	X	X	X	X	X	X	X	X	X	X	X	X	X	X	X	

B = Detector Channel
Val Type	B-AC1	B-AC2	B-AC3	B-AC4	B-AC5	B-AC6	B-AC7	B-AC8	B-AC9	B-AC10	B-AC11	B-AC12	B-AC13	B-AC14	B-AC15	B-AC16	B-DC1	B-DC2	B-DC3	B-DC4	B-DC5	B-DC6	B-DC7	B-DC8	B-DC9	B-DC10	B-DC11	B-DC12	B-DC13	B-DC14	B-DC15	B-DC16	B-Ph1	B-Ph2	B-Ph3	B-Ph4	B-Ph5	B-Ph6	B-Ph7	B-Ph8	B-Ph9	B-Ph10	B-Ph11	B-Ph12	B-Ph13	B-Ph14	B-Ph15	B-Ph16	

Term	0.00000e+00	0.00000e+00	0.00000e+00	0.00000e+00	0.00000e+00	0.00000e+00	0.00000e+00	0.00000e+00	0.00000e+00	0.00000e+00	0.00000e+00	0.00000e+00	0.00000e+00	0.00000e+00	0.00000e+00	0.00000e+00	0.00000e+00	0.00000e+00	0.00000e+00	0.00000e+00	0.00000e+00	0.00000e+00	0.00000e+00	0.00000e+00	0.00000e+00	0.00000e+00	0.00000e+00	0.00000e+00	0.00000e+00	0.00000e+00	0.00000e+00	0.00000e+00	-2.55034e+02	-1.42192e+02	-1.58171e+02	-1.83275e+02	-9.83914e+01	-9.52191e+01	-1.58166e+02	-1.62015e+02	-1.11076e+02	-8.25393e+01	-1.72759e+02	-1.71492e+02	-1.85060e+02	-1.78311e+02	-8.15946e+01	-1.51161e+02	
Factor	6.84074e-05	1.16036e-04	3.77825e-05	1.75057e-01	1.19124e-06	1.02847e-06	2.01126e-01	6.52604e-02	1.39494e-06	1.20521e-06	1.15205e-01	3.44855e-02	6.48392e-02	1.06986e-02	1.09788e-06	1.56755e-02	7.61801e-07	7.68646e-07	2.13154e-07	8.53154e-02	8.43469e-09	8.40861e-09	9.13502e-02	3.13959e-02	8.44513e-09	8.40387e-09	5.21703e-02	1.57552e-02	2.79534e-02	5.07005e-03	8.41014e-09	7.10043e-03	X	X	X	X	X	X	X	X	X	X	X	X	X	X	X	X	



#DISTANCE SETTINGS
A = Detector Channel
A-1	A-2	A-3	A-4	A-5	A-6	A-7	A-8	A-9	A-10	A-11	A-12	A-13	A-14	A-15	A-16	

2.5000e+00	3.0000e+00	2.5000e+00	3.0000e+00	2.0000e+00	3.0000e+00	1.5000e+00	3.0000e+00	3.0000e+00	3.0000e+00	3.0000e+00	3.0000e+00	3.0000e+00	3.0000e+00	1.5000e+00	3.0000e+00	

B = Detector Channel
B-1	B-2	B-3	B-4	B-5	B-6	B-7	B-8	B-9	B-10	B-11	B-12	B-13	B-14	B-15	B-16	

1.0000e+01	1.0000e+01	1.0000e+01	1.4400e+00	1.0000e+01	1.0000e+01	1.5100e+00	1.9400e+00	1.0000e+01	1.0000e+01	1.9900e+00	2.4900e+00	2.4100e+00	2.9000e+00	1.0000e+01	2.9800e+00	




#DATA BEGINS
time	group	step	mark	flag	A-AC1	A-AC2	A-AC3	A-AC4	A-AC5	A-AC6	A-AC7	A-AC8	A-AC9	A-AC10	A-AC11	A-AC12	A-AC13	A-AC14	A-AC15	A-AC16	A-DC1	A-DC2	A-DC3	A-DC4	A-DC5	A-DC6	A-DC7	A-DC8	A-DC9	A-DC10	A-DC11	A-DC12	A-DC13	A-DC14	A-DC15	A-DC16	A-Ph1	A-Ph2	A-Ph3	A-Ph4	A-Ph5	A-Ph6	A-Ph7	A-Ph8	A-Ph9	A-Ph10	A-Ph11	A-Ph12	A-Ph13	A-Ph14	A-Ph15	A-Ph16	B-AC1	B-AC2	B-AC3	B-AC4	B-AC5	B-AC6	B-AC7	B-AC8	B-AC9	B-AC10	B-AC11	B-AC12	B-AC13	B-AC14	B-AC15	B-AC16	B-DC1	B-DC2	B-DC3	B-DC4	B-DC5	B-DC6	B-DC7	B-DC8	B-DC9	B-DC10	B-DC11	B-DC12	B-DC13	B-DC14	B-DC15	B-DC16	B-Ph1	B-Ph2	B-Ph3	B-Ph4	B-Ph5	B-Ph6	B-Ph7	B-Ph8	B-Ph9	B-Ph10	B-Ph11	B-Ph12	B-Ph13	B-Ph14	B-Ph15	B-Ph16	aux-1	digaux	

2149.776	1	1	0	256	0.34334	0.051092	0.16953	0.14292	0.061269	0.07853	0.04046	0.10633	0.34255	0.15034	0.25225	0.065055	0.10125	0.11282	0.044436	0.17674	-1.8083	-2.1	-2.8354	-2.0812	-2.3833	-2.5771	-2.1437	-2.7292	-2.3312	-2.0729	-2.9229	-2.0979	-2.5708	-2.85	-1.8958	-2.8563	140.329	386.031	351.032	393.014	269.372	223.681	370.396	313.081	334.677	334.629	107.114	130.159	109.239	405.410	246.036	233.811	0.0033303	0.00030045	0.00029146	1091.9	5.5994e-06	9.2083e-06	1464.8	406.94	3.4788e-06	1.4025e-05	640.17	261.06	143.89	63.928	5.203e-06	120.8	0.00047762	0.00042555	0.00010951	1004.4	4.9609e-06	4.7852e-06	1325.9	370.73	5.1224e-06	4.7241e-06	568.42	231.46	126.69	57.757	4.5807e-06	106.65	403.862	119.063	170.430	100.747	448.070	202.269	100.512	106.094	210.387	213.533	105.340	109.611	110.679	115.616	269.727	113.565	-8191	255	
2149.895	1	1	0	0	0.20886	0.1813	0.19652	0.21992	0.062014	0.26533	0.25308	0.2704	0.20173	0.17406	0.16084	0.055942	0.10818	0.2193	0.28135	0.12571	-2.1125	-2.0312	-3.0417	-2.075	-2.3604	-2.5292	-2.0312	-2.8708	-2.4646	-1.9729	-3.1208	-2.1771	-2.3312	-3.0229	-1.6146	-2.8896	320.594	220.118	187.210	426.101	149.900	179.064	102.169	300.507	204.389	356.500	405.658	91.657	423.915	446.797	276.681	314.224	0.0037324	0.0012568	0.00025835	1071.3	1.4126e-05	2.6464e-06	1455.7	404.33	6.5383e-06	2.1301e-06	638.86	261.25	141.23	63.788	9.7788e-06	121.4	0.00051151	0.00044953	0.00012155	995.2	5.2814e-06	4.976e-06	1317.6	369.83	5.352e-06	4.8899e-06	569.37	232.74	126.57	57.977	5.1614e-06	107.6	410.835	130.369	119.840	100.791	276.354	191.635	100.897	106.033	218.711	292.789	105.735	109.659	110.804	115.351	242.901	113.402	-8191	255	
2149.966	1	1	0	0	0.092138	0.16073	0.086887	0.18817	0.37171	0.25374	0.47012	0.1226	0.15739	0.14012	0.10576	0.33015	0.13815	0.21161	0.051552	0.20567	-2.0833	-1.9688	-2.8771	-2.0729	-2.2271	-2.7458	-2.0375	-2.6292	-2.3875	-2.0312	-2.8542	-2.5312	-2.1729	-2.8417	-1.8896	-2.8063	313.500	226.718	276.718	418.801	169.051	322.204	341.587	215.704	130.433	280.436	414.949	440.528	224.806	331.236	445.453	423.678	0.0038961	0.00027629	0.00014691	1057.4	7.7613e-06	5.48e-06	1435.8	402.7	4.824e-06	4.2501e-06	643.05	261.06	143.15	63.822	6.9968e-06	120.57	0.00053684	0.00046914	0.00013702	988.74	5.5816e-06	5.2025e-06	1315.6	371.26	5.8211e-06	5.153e-06	577.19	233.37	128.04	57.927	5.9711e-06	107.13	405.962	140.524	404.407	100.627	257.011	105.626	100.806	105.929	222.910	343.929	105.133	109.646	110.798	115.315	139.975	113.080	-8191	255	
2150.064	1	1	0	0	0.2357	0.070637	0.14593	0.52557	0.12702	0.27477	0.15399	0.025421	0.16284	0.1163	0.08661	0.19881	0.10821	0.27372	0.086079	0.19959	-2.1562	-1.8312	-2.725	-2.1833	-2.0979	-2.9771	-2.1688	-2.5979	-2.4708	-1.8521	-3.0375	-2.4542	-2.0875	-2.8688	-1.9188	-2.4833	433.397	172.555	408.103	423.018	294.174	233.411	373.638	315.530	328.666	156.527	439.984	414.005	162.929	408.887	180.961	359.384	0.003291	0.0019423	0.00039664	1045.8	9.7714e-06	6.5441e-06	1435.5	404.55	5.9793e-06	4.9669e-06	641.85	259.58	142.55	63.535	9.6649e-06	119.99	0.0005704	0.00049478	0.00015609	984.08	6.0108e-06	5.6236e-06	1317.7	372.68	6.1008e-06	5.545e-06	581.03	233.72	128.39	57.883	6.5662e-06	107.13	409.160	147.561	144.320	100.753	256.736	240.474	100.618	105.774	109.299	330.292	105.247	109.668	110.574	115.618	256.314	113.181	-8191	255	
2150.183	1	1	0	0	0.13608	0.2315	0.11857	0.31532	0.055436	0.19019	0.31822	0.1244	0.1519	0.019227	0.19608	0.33976	0.21067	0.2145	0.13854	0.19612	-2.1667	-1.9396	-2.6771	-2.6104	-2.0125	-2.8937	-2.1875	-2.3	-2.7042	-2.0229	-2.6167	-2.5	-2.0708	-3.0604	-1.8167	-2.3708	99.100	158.962	208.304	393.695	346.755	202.833	440.378	343.983	292.427	360.163	90.814	358.034	188.504	223.946	141.380	393.678	0.0033694	0.00020315	0.00018246	1040.5	2.2581e-06	6.6408e-06	1424.5	406.53	3.2203e-06	1.3271e-05	646.23	261.35	142.77	63.557	7.2507e-06	120.51	0.00058635	0.00053782	0.00016995	983.34	6.1666e-06	6.2002e-06	1322	375.42	6.315e-06	6.3761e-06	587.18	235.73	129.15	58.575	7.1751e-06	108.07	409.800	136.592	112.212	100.680	161.711	212.892	100.836	105.885	148.521	227.528	105.022	109.324	110.928	115.213	215.623	113.234	-8191	255	
2150.279	1	1	0	0	0.053499	0.10923	0.24341	0.33859	0.17025	0.18316	0.043372	0.18644	0.13227	0.16436	0.26739	0.23615	0.23306	0.03063	0.16563	0.12741	-2.35	-1.9646	-2.6229	-2.5708	-1.9208	-2.8125	-2.4437	-2.1667	-2.8646	-1.8312	-2.6979	-2.6562	-2.1354	-2.8042	-2.2958	-2.2229	153.814	239.405	351.189	424.079	301.784	314.554	278.395	406.127	136.461	146.557	447.409	431.310	335.539	329.632	258.291	150.265	0.0036327	0.0014017	0.00014765	1036.6	3.5255e-06	1.5508e-06	1420.5	403.27	4.3005e-06	2.3518e-05	639.84	261.43	143.58	64.376	1.3434e-05	121.34	0.00061456	0.00062645	0.00018591	984.44	6.5358e-06	7.2137e-06	1328.5	376.46	6.8648e-06	7.5503e-06	585.47	236.46	131.47	59.752	7.8243e-06	108.67	402.612	141.678	171.378	100.613	241.677	257.861	100.343	105.918	190.240	130.654	105.201	109.410	110.267	115.376	225.593	113.105	-8191	255	
2150.376	1	1	0	0	0.051647	0.065743	0.11056	0.28788	0.11265	0.13275	0.10652	0.2446	0.12627	0.10932	0.15559	0.26887	0.08775	0.23531	0.15746	0.23034	-2.4437	-1.9271	-2.5542	-2.8146	-2.0333	-2.75	-2.625	-2.2417	-2.8021	-1.9625	-2.4813	-3.0229	-2.1125	-2.6354	-2.4542	-1.9583	90.197	401.284	338.712	406.115	110.424	372.317	430.572	380.707	362.796	316.646	89.937	428.115	212.065	107.753	365.199	398.760	0.003682	0.0011887	0.00012453	1032.9	9.6838e-06	1.2675e-05	1413.4	400.41	1.1087e-05	1.2611e-05	632.57	259.38	141	64.397	6.4012e-06	120.04	0.00065988	0.000713	0.0001963	984.96	7.0418e-06	7.9574e-06	1327.1	374.32	7.2726e-06	8.1219e-06	582.18	235.12	132.83	60.255	8.1505e-06	108.21	406.529	150.537	110.344	100.449	204.175	132.229	100.436	105.537	222.334	268.104	105.011	109.850	109.959	115.038	300.087	113.390	-8191	255	
2150.496	1	1	0	0	0.14792	0.19435	0.046294	0.10685	0.081268	0.088185	0.16796	0.14601	0.20428	0.20642	0.3524	0.10254	0.056652	0.36869	0.22393	0.23698	-2.5875	-2.1604	-2.1604	-2.9042	-2.0042	-2.6979	-2.7354	-2.0438	-2.9562	-2.1646	-2.4479	-3.0208	-2.1083	-2.9229	-2.6562	-2.2167	251.495	132.418	443.942	293.023	376.188	317.473	434.153	321.875	146.013	104.313	406.665	90.867	379.638	91.202	233.561	365.504	0.0036305	0.0011188	0.00059281	1041.4	2.2641e-05	6.685e-06	1435.4	402.85	2.0071e-05	6.1033e-06	629.72	259.92	143.74	65.34	7.8385e-06	121.93	0.00071561	0.00077459	0.00020462	991.5	7.8328e-06	8.3566e-06	1339.1	375.74	7.7815e-06	8.3375e-06	582.08	234.71	135.5	60.974	8.0391e-06	109.25	404.858	435.046	157.376	100.648	185.164	252.359	100.769	105.630	159.328	241.608	104.870	109.606	110.365	115.420	229.177	112.851	-8191	255	
2150.592	1	1	0	0	0.21178	0.16864	0.067497	0.046624	0.24114	0.19322	0.19522	0.026738	0.11181	0.045974	0.03703	0.23864	0.088404	0.13882	0.20322	0.25721	-2.4125	-2.4208	-2.0958	-2.9062	-2.0229	-2.55	-2.8479	-2.0833	-3.025	-2.0708	-2.1792	-3.1104	-2.1167	-2.5812	-2.9042	-2.0083	100.308	135.057	186.785	247.824	393.971	312.039	162.114	302.236	253.808	393.486	152.184	404.312	293.298	117.166	311.138	94.216	0.0040418	0.00065727	0.00033937	1060	1.048e-05	8.0583e-06	1446.5	404.96	6.2967e-06	6.4031e-06	631.01	264.38	146.4	65.444	8.443e-06	121.49	0.00074218	0.00076668	0.00020122	1005.2	8.1211e-06	8.1549e-06	1350.9	378.35	8.1556e-06	8.2776e-06	582.21	239.25	139.96	61.263	7.8774e-06	109.36	399.585	125.011	143.339	100.980	159.241	424.353	100.572	105.543	115.585	438.677	104.999	109.454	110.720	115.307	241.585	113.321	-8191	255	
2150.664	1	1	0	0	0.043807	0.066272	0.14715	0.08322	0.17351	0.20829	0.3463	0.36493	0.060521	0.030839	0.14459	0.22204	0.091452	0.073977	0.14251	0.20016	-2.5354	-2.3292	-2.2188	-2.9479	-2.1646	-2.3979	-2.9437	-2.0042	-2.65	-2.2812	-2.0938	-2.7604	-2.2479	-2.3208	-2.8	-1.9854	105.434	395.063	136.947	434.338	417.561	234.446	341.368	361.786	353.022	167.783	409.221	351.741	221.236	394.566	199.243	317.114	0.0036513	0.0010018	0.00012953	1071.5	9.3637e-06	5.4579e-06	1464.9	410.61	2.067e-05	1.1979e-05	632.97	268.87	151.2	65.809	1.2831e-05	122.16	0.00077557	0.00075645	0.0001917	1016.1	8.2509e-06	7.9508e-06	1360	382.26	8.1375e-06	8.018e-06	579.76	242.84	142.03	61.17	7.2693e-06	109.83	399.840	216.742	88.661	100.650	177.381	227.154	100.942	105.777	184.142	268.292	105.743	109.749	110.639	115.560	206.245	113.463	-8191	255	
2150.760	1	1	0	0	0.19273	0.15743	0.35339	0.12933	0.2061	0.1034	0.29098	0.1402	0.10824	0.087021	0.28971	0.32007	0.28577	0.04224	0.1342	0.19432	-2.2875	-2.5917	-1.9729	-2.9854	-2.3063	-2.2958	-2.9542	-2.025	-2.6521	-2.7896	-2.0792	-3.0604	-2.3479	-2.2208	-2.9021	-2.1771	390.387	263.440	399.316	90.104	226.810	253.517	440.628	324.398	138.642	123.949	161.348	435.071	101.417	408.150	347.999	262.782	0.003761	0.00089173	0.00029125	1083	8.2076e-06	2.7097e-06	1466.5	410.52	4.3532e-06	5.1006e-06	632.69	272.3	151.18	66.67	1.8405e-06	122.5	0.00075304	0.00071679	0.00017929	1025.8	8.1811e-06	7.7369e-06	1356.1	383.36	7.9926e-06	7.8668e-06	577.15	246.34	144.01	61.832	7.285e-06	110.82	411.065	160.667	112.006	101.176	228.171	173.635	101.037	105.939	237.254	225.318	105.633	110.102	110.587	115.833	286.264	113.743	-8191	255	
2150.879	1	1	0	0	0.06871	0.16878	0.18341	0.41337	0.11426	0.11846	0.069027	0.12862	0.016835	0.27358	0.29773	0.1627	0.35115	0.065972	0.11204	0.12797	-2.1792	-2.6896	-2.0396	-2.9229	-2.4271	-2.1688	-3.0563	-2.1875	-2.4292	-2.8792	-2.1063	-3.0042	-2.4188	-2.2104	-2.7125	-2.5062	131.296	104.060	344.639	429.326	392.463	423.522	242.832	408.510	334.188	377.536	366.506	365.472	94.734	176.544	145.546	98.821	0.0030356	0.00075085	0.00027912	1084.1	5.7149e-06	8.6817e-06	1458.5	411.93	8.1578e-06	4.8237e-06	632.8	276.4	156.06	66.921	9.5941e-06	123.46	0.00077846	0.00074354	0.00018863	1034.9	8.6211e-06	8.0684e-06	1361	387.44	8.5214e-06	8.1602e-06	579.62	251.6	147.16	62.124	7.8302e-06	111.87	402.381	259.468	160.090	101.191	327.913	362.778	101.519	105.899	171.023	195.962	105.563	109.874	110.337	115.458	198.445	113.436	-8191	255	
2150.975	1	1	0	0	0.28769	0.13665	0.13457	0.14022	0.098434	0.16592	0.38862	0.25946	0.20725	0.038758	0.1708	0.2973	0.15465	0.16553	0.10517	0.15723	-1.8646	-2.6813	-1.9104	-2.8833	-2.5479	-2.0479	-2.8208	-2.3396	-2.2146	-2.95	-1.9792	-2.8	-2.5771	-2.0583	-2.9604	-2.5854	362.748	261.851	273.498	440.412	89.698	188.620	103.589	357.192	377.329	273.103	414.503	411.100	369.550	390.281	180.316	423.845	0.0041248	0.00028573	0.00014047	1080	1.5754e-05	1.2074e-06	1464.3	409.41	1.1718e-05	3.5272e-06	633.62	277.58	154.06	66.949	1.5202e-05	122.56	0.00079852	0.00073831	0.00020058	1033.8	8.6282e-06	7.7826e-06	1366.2	387.41	8.3553e-06	7.6972e-06	583.11	252.13	146.25	61.842	8.0489e-06	111.08	398.934	147.293	181.181	100.927	212.974	137.436	101.213	105.994	190.316	406.198	105.319	110.068	111.064	115.792	220.190	114.071	-8191	255	
2151.071	1	1	0	0	0.060537	0.10377	0.24719	0.17519	0.16639	0.11915	0.36405	0.10169	0.21187	0.22855	0.16346	0.25568	0.05368	0.22814	0.1352	0.27898	-1.9646	-2.8396	-2.1208	-2.9354	-2.6292	-2.1312	-3.0292	-2.4042	-2.1063	-2.9583	-2.2646	-2.5271	-2.7562	-2.0667	-2.825	-2.5229	177.817	335.847	329.612	222.819	231.804	439.128	355.959	134.647	256.750	376.933	424.823	419.186	121.486	113.890	366.012	377.444	0.003644	0.00099817	8.1656e-05	1078.1	2.3605e-06	6.3848e-06	1467	409.75	1.4001e-05	7.0393e-06	628.78	273.81	153.69	66.307	1.0118e-05	121.59	0.00076412	0.00068091	0.00020605	1029.5	8.1053e-06	7.2785e-06	1363.2	384.92	7.8886e-06	7.2706e-06	580.73	248.16	144.25	61.278	8.4117e-06	110.45	403.798	231.751	252.376	101.235	180.242	168.000	101.175	106.199	215.503	162.175	105.478	110.074	110.838	115.937	176.803	113.822	-8191	255	
2151.167	1	1	0	0	0.15698	0.061582	0.17625	0.19567	0.10464	0.13518	0.11088	0.13075	0.19406	0.3126	0.25437	0.28542	0.31887	0.18929	0.13281	0.20337	-1.7292	-2.75	-2.1167	-2.4771	-2.8208	-2.2125	-3.0146	-2.4979	-2.1896	-2.7417	-2.3125	-2.5104	-2.9479	-2.1979	-2.6021	-2.6312	434.724	198.188	309.487	409.346	127.815	204.895	304.501	399.378	318.456	333.609	91.891	314.856	415.439	153.355	147.517	439.559	0.0031902	0.0012771	0.00017293	1074	1.2341e-05	9.28e-06	1464.5	407.31	1.6234e-05	6.4452e-06	630.51	272.08	152.43	66.48	5.2433e-06	122.46	0.00075618	0.00068948	0.0002151	1027.6	7.8983e-06	7.3819e-06	1363.5	384.18	7.5731e-06	7.5083e-06	583.53	246.37	141.84	61.378	8.2649e-06	110.29	406.289	118.660	156.677	101.451	163.551	230.942	101.495	106.349	214.697	263.911	105.831	110.074	110.787	115.604	213.626	113.571	-8191	255	
2151.264	1	1	0	0	0.11849	0.070607	0.25817	0.38627	0.17356	0.16119	0.32611	0.31032	0.15635	0.11494	0.22675	0.15416	0.30758	0.15293	0.22602	0.31718	-1.7062	-2.9729	-2.1	-2.5271	-2.8479	-2.0875	-2.7625	-2.6271	-2.0083	-2.8458	-2.4021	-2.4188	-2.7625	-2.1396	-2.675	-2.8646	101.616	199.817	154.596	96.776	146.060	353.708	401.591	389.098	219.220	179.303	374.638	404.122	425.389	132.806	287.776	397.517	0.0033548	0.0013876	0.00051531	1079.3	4.0787e-06	9.2903e-06	1460.5	407.89	6.1027e-06	8.9961e-06	631.28	270.86	152.25	66.391	1.6045e-05	122.46	0.0007017	0.00069101	0.00021256	1025.8	7.4028e-06	7.7557e-06	1365.8	384	7.2447e-06	7.8119e-06	585.44	245.64	140.18	61.493	8.0388e-06	110.09	407.676	134.385	99.280	101.523	136.188	189.762	101.500	105.844	221.851	186.875	105.140	110.201	111.279	115.812	282.959	113.884	-8191	255	
2151.360	1	1	0	0	0.12489	0.18242	0.20265	0.071047	0.12955	0.16602	0.17002	0.18306	0.077806	0.2091	0.15106	0.38027	0.223	0.01524	0.19878	0.23206	-1.8146	-2.9667	-2.3563	-2.1396	-2.8375	-1.9792	-2.7208	-2.6125	-1.8917	-2.875	-2.3979	-2.2458	-3.0104	-2.1937	-2.3146	-2.9938	392.295	181.621	246.775	390.962	246.353	149.786	364.896	304.155	376.544	177.528	431.550	397.353	119.773	110.793	271.107	430.887	0.0037434	0.00097301	0.00018515	1077.3	6.691e-06	8.1503e-06	1454	409.63	1.2963e-05	1.0824e-05	625.88	270.49	152.92	66.686	3.1103e-06	121.96	0.00066393	0.00072042	0.00020682	1023.3	7.1246e-06	8.0415e-06	1359.6	382.8	7.1708e-06	8.0846e-06	581.29	244.58	140.43	61.962	8.1662e-06	109.93	412.953	178.646	128.286	101.296	170.292	183.487	101.327	106.107	206.926	121.285	105.551	110.264	110.736	115.881	259.794	113.872	-8191	255	
2151.456	1	1	0	0	0.274	0.15071	0.095324	0.17387	0.13515	0.070667	0.45778	0.26015	0.17729	0.18593	0.091455	0.081895	0.33095	0.071198	0.16491	0.15889	-1.7687	-2.8375	-2.5021	-2.2604	-2.8312	-2.2271	-2.3104	-2.9917	-2.0042	-2.6771	-2.5854	-2.0792	-2.9042	-2.4354	-2.3187	-2.7979	405.160	179.314	167.594	131.760	157.852	94.684	414.393	390.928	224.543	376.460	392.475	99.333	384.967	200.204	144.087	343.883	0.0037421	0.0010657	0.00022773	1062.7	7.6184e-07	6.1213e-06	1442.3	404.51	2.1239e-05	6.7425e-06	628.37	271.23	151.42	67.242	2.4036e-06	122.79	0.00072014	0.00078597	0.00021684	1012.7	7.8681e-06	8.8596e-06	1355.7	380.47	8.0555e-06	8.8797e-06	583.86	245.35	142.97	62.698	8.5809e-06	110.86	412.784	124.701	366.715	101.403	389.202	165.912	101.768	106.263	176.302	212.461	105.552	110.220	110.905	115.717	200.168	113.685	-8191	255	
2151.577	1	1	0	0	0.28072	0.20448	0.21727	0.13526	0.17915	0.20692	0.29258	0.3335	0.29733	0.21576	0.32878	0.12219	0.27355	0.2101	0.11151	0.31926	-1.5562	-2.3563	-2.5812	-2.1667	-2.7042	-2.2146	-2.3438	-2.8208	-1.9562	-2.6396	-2.8021	-2.0438	-2.9104	-2.2479	-2.2208	-3.0042	328.269	194.872	406.542	124.498	228.188	339.688	97.337	394.822	224.465	254.045	377.264	423.635	127.508	374.039	227.872	418.155	0.0034707	0.00089042	0.00052595	1058.1	1.7667e-05	9.0087e-06	1448.2	406.13	1.6469e-05	4.9138e-06	628.68	270.03	151.7	66.84	1.5545e-05	123.24	0.00079571	0.00081778	0.00022542	1010.9	8.6616e-06	9.2593e-06	1363.3	381.06	8.8786e-06	9.0618e-06	585.24	244.79	145.18	62.786	8.6007e-06	110.99	407.064	175.146	157.018	101.697	154.617	260.311	101.365	106.259	145.358	125.975	106.183	110.224	110.858	115.774	312.389	113.783	-8191	255	
2151.673	1	1	0	0	0.13165	0.08856	0.11658	0.37074	0.21101	0.14137	0.15352	0.22351	0.021911	0.05194	0.1268	0.2069	0.22039	0.29089	0.18268	0.13197	-1.5	-2.3646	-2.5896	-2.1979	-2.8042	-2.3063	-2.2771	-2.975	-1.8875	-2.6167	-2.9167	-2.0542	-2.6896	-2.6562	-2.2125	-2.9625	235.185	345.691	337.721	445.999	102.778	436.132	433.942	407.765	199.099	183.061	359.787	413.943	179.960	117.705	421.366	426.569	0.0037532	0.0010305	0.00012959	1063.2	1.2106e-05	2.2427e-05	1450.1	408	9.4107e-06	1.4123e-05	627.67	269.39	150.68	66.158	4.2258e-06	122.53	0.00083888	0.00081081	0.00022093	1014.5	9.1125e-06	9.1843e-06	1362.4	382.97	9.2669e-06	8.9567e-06	586	244.35	145.2	62.235	8.3261e-06	110.5	401.730	319.154	256.786	101.480	199.049	259.112	101.341	106.463	141.482	165.051	105.919	110.259	110.780	115.851	339.929	113.918	-8191	255	
2151.767	1	1	0	0	0.08671	0.50905	0.20043	0.30803	0.041192	0.22073	0.26335	0.11751	0.31372	0.056481	0.12916	0.2544	0.33418	0.25274	0.28812	0.45743	-1.7042	-2.4542	-2.7604	-2.1188	-2.6937	-2.4208	-2.2271	-2.8563	-2.1729	-2.4667	-2.9729	-2.0792	-2.6312	-2.6646	-2.0729	-2.9646	251.328	345.154	220.051	429.046	186.108	345.862	370.144	409.114	205.138	174.045	138.915	432.986	227.529	100.847	98.323	379.350	0.0036543	0.00057466	6.5455e-05	1062.5	8.7018e-06	5.5663e-06	1452.4	406.59	3.4972e-06	1.4223e-05	623.5	267.42	150.36	65.776	1.4051e-05	121.52	0.00086115	0.00080336	0.00021047	1017.8	8.9128e-06	8.7411e-06	1351.5	382.43	9.0155e-06	8.5831e-06	579.35	242.59	143.6	61.797	7.7188e-06	109.95	394.241	223.873	363.889	101.506	156.478	251.313	101.330	106.669	203.698	218.129	105.782	110.132	110.841	115.815	207.273	113.967	-8191	255	
2151.865	1	1	0	0	0.21704	0.11466	0.093566	0.12468	0.10129	0.19411	0.1679	0.35189	0.16585	0.071876	0.22342	0.17545	0.078619	0.24683	0.044611	0.27407	-1.9125	-2.0979	-2.6667	-2.15	-2.4271	-2.7146	-1.9583	-2.9833	-2.375	-2.3167	-3.0375	-2.1229	-2.4292	-2.7104	-2.0146	-3.0187	423.420	266.572	273.366	371.321	204.568	354.171	443.526	420.322	264.230	128.392	360.964	422.460	345.009	412.359	236.553	393.469	0.0039591	0.00035499	0.00017619	1075.2	1.1097e-05	5.6552e-06	1468.2	409.32	1.2353e-05	1.2923e-05	631	267.89	150.2	65.93	1.2945e-05	121.62	0.00082986	0.00076561	0.00019527	1028.1	8.5485e-06	8.3641e-06	1356.4	384.71	8.4951e-06	7.9811e-06	578.45	243.58	141.84	61.299	7.4009e-06	109.9	402.609	91.566	91.990	101.263	206.778	356.773	101.385	106.163	153.025	241.936	105.759	110.124	111.046	116.021	290.674	113.790	-8191	255	
2151.959	1	1	0	0	0.22873	0.062358	0.036088	0.1728	0.084998	0.18742	0.23048	0.12637	0.13569	0.12844	0.10097	0.27446	0.048598	0.11893	0.25313	0.23883	-1.9458	-2.1688	-2.8333	-2.3354	-2.5062	-2.6625	-2.0563	-2.7729	-2.2708	-2.0979	-2.8187	-2.2229	-2.3417	-2.9688	-1.6583	-2.9042	352.634	192.208	291.243	105.864	313.457	327.515	444.104	305.648	403.702	394.571	158.803	431.615	244.291	420.393	147.622	332.436	0.0036236	0.00028697	0.00038727	1077.1	7.6204e-06	7.4478e-06	1464.7	409.04	1.1574e-05	1.5568e-05	629.08	268.03	150.85	65.418	1.1896e-05	121.07	0.00078128	0.00070282	0.00018911	1029.4	8.0375e-06	7.6477e-06	1356.6	384.64	8.1584e-06	7.3568e-06	578	242.94	140.85	60.702	7.4419e-06	109.54	412.107	246.429	173.790	101.453	227.343	349.895	101.982	106.100	218.238	221.813	105.795	110.297	110.969	116.094	194.055	114.003	-8191	255	
2152.056	1	1	0	0	0.14424	0.027701	0.23751	0.31018	0.12881	0.21213	0.36215	0.20483	0.24583	0.13792	0.24947	0.13387	0.2652	0.091406	0.079327	0.25451	-2	-1.8417	-2.7375	-2.35	-2.1813	-2.7917	-2.1021	-2.8771	-2.5979	-2.0896	-2.8958	-2.4354	-1.9438	-3.0396	-1.825	-2.8104	217.117	182.202	124.750	407.600	137.538	97.476	380.789	323.026	188.803	362.969	424.840	336.413	307.790	430.897	249.272	378.215	0.0037379	0.00043273	0.00034659	1082.7	1.0426e-05	1.3282e-05	1472.8	409.04	1.0062e-05	1.7167e-06	628.75	267.07	151.88	65.873	1.507e-05	120.86	0.00074776	0.0006508	0.00019043	1033.1	7.7465e-06	7.1751e-06	1364.3	384.19	7.8139e-06	6.9171e-06	577.78	243.1	141.09	60.609	7.8072e-06	109.13	402.593	230.892	148.542	101.307	239.367	225.847	100.947	106.410	125.061	411.143	105.420	109.573	110.811	115.913	206.151	113.966	-8191	255	
2152.176	1	1	0	0	0.018117	0.2129	0.24254	0.30064	0.093846	0.06	0.21925	0.30999	0.12889	0.13373	0.078154	0.1345	0.010711	0.029424	0.06203	0.28965	-2.1792	-1.8958	-2.8542	-2.5687	-1.8979	-2.8583	-1.7896	-2.5312	-2.7646	-1.8542	-2.9604	-2.5104	-2.1312	-2.9083	-2.2292	-2.7146	153.816	134.539	383.045	434.208	145.015	267.154	385.459	444.731	298.227	229.991	396.540	360.021	279.376	235.892	207.267	430.803	0.003008	0.00078887	0.00029655	1079.4	4.421e-06	1.4767e-06	1460.9	409.17	1.3169e-05	9.4377e-06	627.55	268.17	151.73	65.983	1.1048e-05	121.31	0.00072553	0.00063556	0.00019806	1029.4	7.508e-06	6.9779e-06	1364.6	382.76	7.4626e-06	6.8538e-06	577.73	242.82	139.42	60.648	7.7673e-06	108.89	409.172	116.280	142.776	101.036	283.708	251.855	101.177	106.158	242.404	229.898	105.233	109.740	110.599	115.697	227.551	113.674	-8191	255	
2152.272	1	1	0	0	0.1801	0.10099	0.14228	0.25528	0.23091	0.10465	0.25611	0.088561	0.039915	0.030306	0.15525	0.31999	0.19706	0.12155	0.21805	0.26776	-2.2687	-1.9333	-2.5104	-2.6625	-1.9167	-2.9292	-2.3688	-2.4604	-2.6063	-1.9167	-2.8354	-2.4375	-1.875	-2.9583	-2.0812	-2.4479	312.418	351.929	202.360	385.609	156.299	411.569	400.095	408.595	241.347	201.878	170.866	331.799	153.688	434.456	103.192	378.994	0.0034381	0.00083154	0.00034198	1080.7	7.8639e-06	3.9723e-06	1467.7	409.51	7.6837e-06	1.2486e-05	631.27	270.22	151.87	66.2	9.0484e-06	121.23	0.00067534	0.00063578	0.00019364	1029.3	6.9815e-06	7.047e-06	1366.7	381.26	6.9069e-06	6.9752e-06	576.96	243.37	138.18	60.969	7.5591e-06	109	404.986	178.016	134.363	101.072	262.646	254.077	101.145	105.844	130.270	182.793	105.243	109.749	110.433	115.637	225.409	113.765	-8191	255	
2152.368	1	1	0	0	0.16525	0.087231	0.019491	0.093378	0.33659	0.12198	0.27644	0.18741	0.1881	0.13446	0.074578	0.26638	0.16262	0.16674	0.086733	0.27239	-2.2854	-1.9562	-2.6688	-2.6437	-1.9813	-2.7958	-2.2938	-2.2562	-2.7583	-2.0083	-2.8187	-2.8438	-1.9688	-2.7604	-2.3354	-2.1792	276.369	343.182	429.222	425.688	294.755	228.209	349.841	443.634	443.999	212.102	434.539	402.885	157.206	419.828	202.289	412.744	0.0033869	0.001951	4.1315e-05	1086.6	1.3405e-06	8.8761e-06	1481	409.26	1.7184e-05	1.4618e-05	627.57	272.12	153.17	66.62	7.3136e-06	122.03	0.00063148	0.00065246	0.00018697	1026.5	6.4744e-06	7.1705e-06	1370.3	381.45	6.4509e-06	7.1525e-06	577.59	243.69	137.49	61.189	7.1883e-06	109.13	403.662	149.131	112.754	101.065	365.785	187.656	101.133	105.987	210.444	198.454	105.418	109.738	110.629	115.649	210.135	113.404	-8191	255	
2152.465	1	1	0	0	0.31272	0.12633	0.17869	0.13886	0.2996	0.083546	0.20805	0.20036	0.060537	0.42505	0.07244	0.28083	0.059026	0.031475	0.14517	0.18043	-2.3083	-2.1688	-2.2875	-2.7687	-1.9167	-2.7479	-2.5979	-2.1354	-2.7354	-2.1917	-2.3854	-2.8667	-2.0125	-2.7583	-2.4604	-2.3417	383.185	202.020	157.342	107.294	132.192	254.376	337.893	391.327	318.073	290.505	97.588	382.249	174.153	281.243	208.325	101.180	0.0037708	0.00037161	0.00028103	1090.8	1.3266e-05	1.5751e-05	1477.7	411.74	8.7924e-06	8.9372e-06	631.93	272.46	154.15	66.957	7.2468e-06	122.5	0.00060921	0.0006577	0.00018025	1027.5	6.3391e-06	7.1805e-06	1367.5	380.55	6.4238e-06	7.2082e-06	576.04	243.58	138.61	61.37	6.8787e-06	108.88	410.772	130.641	102.925	100.922	208.493	208.149	100.794	106.027	151.122	243.905	105.520	109.692	110.752	115.890	174.413	113.412	-8191	255	
2152.561	1	1	0	0	0.20798	0.20884	0.23866	0.17879	0.14429	0.10073	0.168	0.30464	0.246	0.17569	0.18444	0.20479	0.25869	0.48414	0.14026	0.37683	-2.3396	-2.2167	-2.2125	-2.725	-1.9688	-2.8771	-2.7188	-2.0833	-2.8146	-2.2417	-2.3646	-2.8104	-1.9937	-2.6396	-2.4292	-2.1646	362.216	230.691	126.161	409.841	382.503	347.665	167.007	402.559	162.571	356.998	186.567	116.313	226.474	434.079	107.389	373.999	0.0040787	0.0011522	0.00011606	1096.5	9.7777e-06	9.6934e-06	1481.8	410.71	1.2523e-05	1.3407e-05	635.43	272.78	154.39	66.56	4.7424e-06	122.85	0.00061029	0.00065026	0.00017078	1027.5	6.5491e-06	7.0101e-06	1375.7	380.53	6.6795e-06	7.1196e-06	577.62	244.26	140.51	61.394	6.8706e-06	109.07	399.376	89.947	156.632	100.910	189.703	195.611	101.275	105.895	165.170	244.714	105.016	109.699	110.490	115.368	296.171	113.601	-8191	255	
2152.657	1	1	0	0	0.21464	0.1806	0.065647	0.2579	0.114	0.2271	0.31474	0.22295	0.10008	0.21863	0.34631	0.047769	0.098329	0.2254	0.13089	0.20558	-2.3187	-2.3479	-2.2083	-2.8333	-2.0458	-2.3896	-2.6437	-2.1479	-2.7167	-2.5125	-2.0167	-3.0792	-1.8521	-2.5021	-2.3854	-2.1771	425.064	304.498	370.897	331.060	301.813	374.029	360.868	397.433	392.765	98.827	442.969	145.629	286.572	93.310	447.136	416.037	0.0040257	0.00060466	0.0003629	1104.8	1.8882e-05	6.5742e-06	1489.9	415.53	1.3867e-05	7.5962e-06	634.86	275.33	154.47	66.504	3.2909e-06	122.95	0.00064538	0.00063767	0.00016811	1030.7	6.8552e-06	6.7969e-06	1376.7	381.92	6.8653e-06	6.8696e-06	576.43	245.2	140.57	61.078	6.4324e-06	108.98	400.257	176.173	158.091	101.144	189.453	162.007	101.042	105.762	207.074	335.406	105.515	109.617	110.400	115.565	115.017	113.382	-8191	255	
2152.753	1	1	0	0	0.34552	0.1373	0.071759	0.31862	0.21038	0.18271	0.127	0.15113	0.061818	0.27478	0.29792	0.30022	0.10311	0.27684	0.30833	0.087045	-2.3292	-2.4	-2.0792	-2.6792	-2.1021	-2.4313	-2.9854	-2.075	-2.4813	-2.3625	-2.1271	-2.9229	-2.0542	-2.2521	-2.7104	-2.0958	130.067	257.292	229.736	395.320	190.101	341.325	431.488	437.575	399.979	280.972	421.627	442.115	160.956	128.419	330.109	179.035	0.0042189	0.00020265	0.0001516	1112.5	3.2458e-06	7.6288e-06	1504	415.85	1.051e-05	9.5802e-06	635.6	274.49	154.41	66.366	4.8115e-06	121.28	0.00064536	0.00061514	0.00015823	1038.1	6.9563e-06	6.5949e-06	1379.6	382.78	6.8204e-06	6.5866e-06	575.4	244.81	140.71	60.752	6.0288e-06	108.25	408.212	370.325	381.105	100.921	289.651	191.332	100.835	105.785	171.814	224.544	105.244	109.748	109.686	115.723	217.614	113.498	-8191	255	
2152.849	1	1	0	0	0.030263	0.18001	0.22219	0.076028	0.041147	0.21366	0.48996	0.12494	0.25614	0.11315	0.17025	0.45068	0.15099	0.23357	0.15551	0.27779	-2.2333	-2.4583	-1.8167	-2.9313	-2.3417	-2.1208	-3.0854	-1.975	-2.6833	-2.6104	-1.9854	-2.9375	-2.3812	-2.2729	-2.8625	-2.1771	303.208	277.360	390.429	253.341	328.041	405.912	389.286	404.967	287.118	151.745	106.713	380.936	90.663	139.297	218.009	369.530	0.0039989	0.00099101	0.00012753	1116	5.1045e-06	1.9307e-06	1511.4	419.28	3.2398e-06	1.4441e-05	635.8	272.46	152.16	64.564	6.9604e-06	119.19	0.0006398	0.00060036	0.00014898	1044.9	6.8452e-06	6.4646e-06	1380.2	384.24	6.6577e-06	6.4268e-06	569.96	243.98	139.23	59.126	5.7236e-06	106.25	409.941	178.537	221.968	100.946	296.759	118.076	100.566	105.366	405.494	262.108	105.428	109.506	110.205	115.688	188.529	113.865	-8191	255	
2152.945	1	1	0	0	0.30645	0.10706	0.086833	0.20676	0.17151	0.13904	0.31097	0.1924	0.19838	0.14762	0.19913	0.13281	0.1689	0.34457	0.2402	0.30925	-2.0958	-2.6063	-2.0521	-2.8688	-2.2521	-2.0271	-2.9646	-2.1979	-2.3854	-2.7938	-2.1875	-2.8604	-2.4375	-2.2938	-2.8063	-2.3479	296.379	403.924	193.916	128.071	137.747	116.585	386.013	417.483	188.014	331.520	308.329	201.544	398.446	351.477	325.002	432.190	0.0034612	0.00025116	0.00014396	1123.6	8.2494e-06	1.1808e-05	1513	418.73	7.8884e-06	3.5119e-06	632.8	273.11	152.83	64.183	1.0816e-05	118.37	0.00060136	0.00055959	0.00014423	1053.4	6.4964e-06	5.9963e-06	1386.1	386.15	6.426e-06	6.1048e-06	569.2	244.6	139	58.555	5.8963e-06	105.74	407.581	422.644	269.615	100.576	329.534	140.312	101.052	105.650	142.318	273.689	105.103	109.708	109.949	115.884	224.190	113.436	-8191	255	
2153.064	1	1	0	0	0.13406	0.24516	0.21354	0.371	0.11584	0.23214	0.34451	0.1536	0.10403	0.12766	0.23165	0.27962	0.23841	0.15676	0.14684	0.07847	-2.0271	-2.9167	-1.8646	-2.7458	-2.4167	-1.8458	-2.95	-2.0292	-2.2042	-2.6521	-2.0979	-2.7792	-2.5083	-2.2292	-2.6354	-2.4313	284.961	409.990	396.255	417.248	182.056	442.695	380.314	206.862	399.841	187.120	359.597	427.259	374.702	419.968	109.334	424.212	0.0030624	0.00049422	0.00034001	1139.7	3.4039e-06	2.9341e-06	1514.8	415.21	6.4784e-06	3.4724e-06	631.98	272.84	155.02	63.719	1.0088e-05	116.17	0.00058334	0.0005358	0.00014854	1062.5	6.2967e-06	5.6147e-06	1391.6	384.61	6.2847e-06	5.7929e-06	570.43	243.94	139.09	57.842	6.2833e-06	104.14	403.045	144.958	117.396	100.924	203.034	283.327	100.891	105.661	274.269	205.918	105.050	109.719	110.090	115.654	196.438	114.208	-8191	255	
2153.138	1	1	0	0	0.31839	0.3001	0.015253	0.3065	0.082194	0.050073	0.23001	0.19299	0.22652	0.11475	0.20692	0.15947	0.28759	0.17996	0.38062	0.23968	-1.7604	-2.7646	-2.0333	-2.6292	-2.5521	-1.9562	-3.0458	-2.3271	-2.5042	-3.0187	-2.1063	-2.7271	-2.6729	-2.2646	-2.7271	-2.2938	110.397	306.321	416.739	338.199	202.404	137.566	344.109	394.007	327.205	113.528	423.278	128.487	356.346	406.002	291.804	313.035	0.0032909	0.00087063	0.00035099	1140.6	1.5586e-05	3.7548e-06	1528.3	414.58	1.413e-05	8.1004e-06	626.75	268.91	153.58	62.644	1.9985e-06	114.61	0.00059061	0.00052856	0.00016252	1067.8	6.3763e-06	5.7351e-06	1401.9	383.67	6.2834e-06	5.8822e-06	570.31	241.48	138.71	57.059	6.7422e-06	102.34	407.434	156.115	177.856	100.728	282.152	254.070	100.821	105.885	258.545	220.311	105.158	109.622	110.687	115.860	413.568	113.658	-8191	255	
2153.257	1	1	0	0	0.13474	0.37158	0.11829	0.21816	0.22705	0.27989	0.21887	0.099126	0.29747	0.16258	0.1367	0.2417	0.076855	0.13788	0.062091	0.35679	-1.8687	-2.7771	-2.1833	-2.4854	-2.8854	-1.9	-3.0354	-2.525	-1.9312	-2.8833	-2.1958	-2.5021	-2.7083	-1.9375	-2.6937	-2.8792	104.375	444.463	235.297	400.021	406.325	205.810	311.218	436.969	365.576	245.845	306.901	230.815	224.761	425.440	302.850	401.181	0.0027779	0.00083013	0.00030225	1149.8	8.5155e-06	9.124e-06	1527.8	415.12	6.1976e-06	9.8784e-06	627.72	266.84	152.36	61.773	4.0982e-06	112.54	0.0005934	0.00054623	0.00017294	1075.3	6.2676e-06	5.9902e-06	1411	384.62	6.1762e-06	6.1998e-06	571.83	239.18	136.87	56.575	6.9209e-06	101.44	399.684	134.879	188.104	101.302	346.150	230.184	101.128	105.942	160.447	301.259	105.487	110.025	110.520	116.132	207.865	113.858	-8191	255	
2153.353	1	1	0	0	0.18548	0.25952	0.21233	0.10098	0.19337	0.10621	0.2511	0.24339	0.14456	0.10952	0.18901	0.16799	0.027044	0.28284	0.15837	0.30112	-1.4917	-2.9583	-2.1896	-2.575	-2.8104	-2.0563	-2.8917	-2.575	-1.9521	-2.6875	-2.5521	-2.5208	-2.9333	-2.2208	-2.6021	-2.8312	206.984	331.553	388.752	385.507	105.521	306.825	372.318	371.684	312.973	244.825	443.218	358.771	173.264	425.233	287.963	100.930	0.0029744	0.0011177	0.00029043	1162.7	6.0571e-06	1.1569e-05	1555.4	418.81	1.6563e-06	8.926e-06	632.53	266.8	151.85	61.307	4.0832e-06	111.19	0.00058715	0.00059063	0.00017982	1086.1	6.3037e-06	6.6856e-06	1427.4	387.92	6.2233e-06	6.7742e-06	575.87	240.13	137.42	56.47	6.9967e-06	100.27	406.289	116.032	185.121	101.496	203.762	197.116	101.219	105.710	265.585	252.604	105.268	110.089	110.614	115.876	434.383	114.200	-8191	255	
2153.449	1	1	0	0	0.34469	0.13086	0.23881	0.21164	0.2312	0.17339	0.064709	0.12955	0.29759	0.12128	0.22954	0.10086	0.11279	0.22746	0.24404	0.057922	-1.4875	-2.7375	-2.2333	-2.3396	-2.8604	-2.0833	-2.6937	-2.9208	-2.0146	-2.7979	-2.5375	-2.175	-3.0542	-2.2542	-2.5792	-2.8729	112.687	266.599	240.773	403.652	275.853	160.952	376.844	407.512	226.318	424.699	430.621	407.677	162.103	118.068	245.793	153.015	0.0034192	0.00066723	2.2297e-05	1172.1	1.7224e-05	1.714e-05	1553.8	421.69	1.6233e-05	1.4979e-05	634.18	266.42	152.61	61.226	1.328e-05	112.7	0.00057363	0.00062518	0.00017707	1095.2	6.1133e-06	6.8823e-06	1430.7	389.14	6.138e-06	6.8848e-06	577.95	238.66	137.12	56.638	7.0336e-06	100.69	404.138	113.504	97.123	101.267	203.397	221.323	101.316	105.940	171.754	235.079	105.764	109.860	110.500	115.293	207.588	113.519	-8191	255	
2153.545	1	1	0	0	0.022329	0.16875	0.19758	0.23126	0.2265	0.25041	0.16361	0.10926	0.16661	0.14864	0.19301	0.087576	0.10589	0.14389	0.091556	0.39052	-1.3896	-2.7125	-2.3375	-2.2854	-2.8646	-2.3542	-2.5062	-2.8979	-1.9312	-2.6833	-2.6917	-2.0208	-2.7646	-2.2188	-2.2542	-2.9854	344.469	394.802	142.576	127.549	114.329	334.932	300.635	412.050	100.766	342.192	353.365	431.615	371.441	435.322	131.587	434.723	0.0036137	0.00031936	0.00012592	1173.7	1.3955e-05	2.1296e-06	1558.7	423.25	2.1804e-05	1.162e-05	636.25	266.21	151.58	61.23	8.0927e-06	112.75	0.0006167	0.00066333	0.00018339	1095.1	6.5623e-06	7.294e-06	1438	389.6	6.5709e-06	7.0496e-06	578.54	238.05	137.86	56.673	6.8039e-06	100.83	408.779	431.239	281.304	100.746	172.765	317.582	100.702	105.287	203.355	255.478	104.809	109.632	110.111	115.486	440.851	113.535	-8191	255	
2153.666	1	1	0	0	0.073446	0.22906	0.17663	0.11895	0.053761	0.14091	0.26576	0.37088	0.12315	0.052488	0.26202	0.17493	0.10163	0.24572	0.1751	0.047159	-1.5688	-2.5125	-2.5958	-2.1188	-2.6146	-2.2812	-2.225	-3.0854	-2.2438	-2.5625	-2.8167	-2.1437	-2.7938	-2.4271	-2.1417	-3.0354	304.147	355.713	299.538	380.333	152.245	106.279	441.754	377.245	132.541	213.270	89.328	97.907	381.702	101.457	299.320	115.409	0.0039297	0.00089684	0.00053618	1168.7	1.9457e-05	4.6196e-06	1553.5	424.5	1.4449e-05	2.6538e-06	642.87	264.13	150.45	61.615	1.6207e-06	114.08	0.00064579	0.00065753	0.00017818	1082.6	6.9812e-06	7.3004e-06	1431.9	390.07	7.0743e-06	7.007e-06	583.22	236.34	137.61	56.971	6.5873e-06	101.59	408.937	183.362	121.128	100.275	190.576	148.480	100.721	105.333	199.277	251.518	105.004	109.604	110.410	115.454	415.103	113.652	-8191	255	
2153.760	1	1	0	0	0.048049	0.10106	0.15944	0.092963	0.31086	0.28984	0.078077	0.085489	0.091228	0.17176	0.25212	0.35177	0.14712	0.10541	0.063319	0.030084	-1.6208	-2.425	-2.6271	-1.9208	-2.6937	-2.475	-2.2562	-3.075	-1.9792	-2.4958	-2.8187	-2.0667	-2.6813	-2.5833	-1.8854	-3.0917	111.945	279.857	196.125	356.118	382.582	146.784	432.373	139.277	342.261	284.789	366.533	404.979	120.322	188.936	384.995	210.675	0.0037659	0.0010977	0.000101	1157.4	1.713e-05	1.9514e-06	1556.4	427.82	1.7821e-05	1.192e-05	642.81	265.96	151.16	61.835	5.235e-06	113.94	0.00066981	0.00064011	0.00017056	1080.9	7.1681e-06	7.1221e-06	1429.7	393.1	7.2553e-06	6.7947e-06	584.42	238.04	138.37	57.043	6.3299e-06	102.04	403.369	182.641	410.192	100.848	214.299	127.548	100.733	105.775	201.584	144.445	105.013	109.799	110.475	115.426	310.255	113.883	-8191	255	
2153.833	1	1	0	0	0.17148	0.19534	0.18283	0.33855	0.1754	0.20271	0.21184	0.36573	0.21592	0.3764	0.048085	0.20966	0.15939	0.11121	0.050417	0.17546	-1.6229	-2.2958	-2.7771	-2.0521	-2.4875	-2.4917	-2.1771	-2.7875	-2.2771	-2.1688	-2.9813	-1.9896	-2.7229	-2.6979	-2.0646	-2.9625	201.767	391.807	419.913	392.977	441.417	247.546	379.880	437.440	229.841	348.820	315.075	414.428	242.123	164.320	400.841	141.642	0.003093	0.0003077	5.5421e-05	1150.9	9.2035e-06	1.2277e-05	1546.6	425.66	1.1007e-05	6.7723e-06	642.74	265.52	151.24	60.834	8.6092e-06	112.68	0.0006815	0.00062418	0.00016308	1078.3	7.1139e-06	6.9313e-06	1421.6	393.1	7.1387e-06	6.71e-06	579.64	237.92	138.41	56.432	5.9737e-06	101.08	403.959	235.857	289.479	100.798	236.291	354.111	100.906	105.609	228.310	199.450	105.238	109.731	110.573	115.656	225.164	114.190	-8191	255	
2153.954	1	1	0	0	0.1202	0.21448	0.11157	0.17423	0.17799	0.24347	0.21322	0.30353	0.18565	0.32901	0.20681	0.37176	0.10557	0.060267	0.11728	0.25563	-1.9062	-2.3021	-2.6542	-2.1042	-2.3875	-2.6854	-2.0708	-3.0396	-2.2896	-2.0771	-2.9021	-2.1125	-2.5563	-2.775	-1.8687	-2.8167	342.620	355.290	382.298	123.979	399.527	131.723	88.595	415.691	289.004	224.533	393.421	392.181	273.686	424.115	318.824	99.207	0.0035399	0.00096199	0.00045469	1158.3	1.1397e-06	6.7649e-06	1545.1	424.98	1.8244e-05	7.255e-06	640.65	269.74	153.64	62.003	1.8744e-05	114.1	0.00066533	0.00060122	0.00015652	1087.4	7.0171e-06	6.8427e-06	1419.6	394.24	7.2758e-06	6.8313e-06	579.67	242.91	140.59	57.176	6.4462e-06	102.59	396.284	143.631	152.766	101.103	303.011	255.517	100.721	105.679	195.012	224.497	105.059	109.854	110.614	115.941	137.249	113.841	-8191	255	
2154.048	1	1	0	0	0.1354	0.14272	0.098272	0.31951	0.10581	0.2643	0.17081	0.18191	0.32721	0.099553	0.21507	0.11298	0.16297	0.19749	0.21068	0.18752	-2.0458	-2.1042	-3.0438	-2.125	-2.4458	-2.9354	-1.9271	-2.8604	-2.6208	-2.1542	-3.0542	-2.4854	-2.3896	-3.025	-1.8583	-2.8396	379.591	369.162	114.934	431.658	336.015	269.063	104.110	420.494	344.554	364.081	391.205	446.279	235.973	364.760	433.437	396.004	0.0032695	0.00094525	0.00052357	1166.2	9.312e-06	8.4389e-06	1557	422.41	6.3542e-06	4.1098e-06	641.71	271.49	155.55	61.648	1.2715e-05	113.67	0.00067383	0.00060185	0.0001631	1096.3	6.9123e-06	6.5379e-06	1426.3	392.31	6.9507e-06	6.3425e-06	579.46	245.31	141.62	56.724	6.5812e-06	102.12	406.286	144.755	138.576	100.874	197.714	438.031	101.141	106.152	165.157	362.464	105.309	109.761	110.241	115.872	243.072	114.231	-8191	255	
2154.145	1	1	0	0	0.1078	0.1155	0.1126	0.14699	0.38162	0.18197	0.09347	0.15336	0.15962	0.187	0.06491	0.21264	0.14009	0.17624	0.21068	0.18339	-2.2396	-1.8062	-2.8521	-2.3187	-2.0458	-2.775	-2.275	-2.7729	-2.65	-1.9479	-3.1583	-2.5375	-2.1979	-2.8937	-2.1396	-2.6625	141.045	190.928	325.835	417.168	167.091	296.223	429.378	175.267	329.921	121.656	160.699	433.882	447.414	328.311	122.449	372.501	0.0029658	0.00068819	0.0001367	1171.9	1.248e-05	3.944e-06	1549.1	422.71	1.124e-05	9.0647e-06	637.64	271.51	157	61.709	6.9228e-06	112.37	0.00065431	0.00056884	0.00017218	1099.4	6.8088e-06	6.2516e-06	1430.4	391.57	6.9242e-06	6.2182e-06	581.35	245	142.04	56.69	7.0927e-06	101.13	405.980	170.651	130.773	100.902	291.026	170.453	101.020	105.833	241.955	199.859	105.421	109.782	111.114	116.241	193.232	114.489	-8191	255	
2154.265	1	1	0	0	0.16145	0.057567	0.47021	0.11017	0.22872	0.15696	0.086093	0.15748	0.14121	0.043812	0.20303	0.33864	0.13218	0.2377	0.22338	0.32289	-2.3417	-1.8708	-2.8812	-2.5854	-2.2479	-2.9521	-2.3688	-2.4896	-2.6146	-1.9479	-3.0417	-2.5729	-1.9813	-2.875	-2.0563	-2.4625	423.039	293.259	332.665	389.688	320.812	238.746	397.550	373.882	165.053	161.779	413.328	402.035	375.406	367.281	275.639	441.906	0.0033648	0.0014819	0.00044612	1163.4	5.0532e-06	1.3124e-05	1554.2	421.3	1.5877e-05	1.011e-05	639.03	272.82	157.96	61.756	7.2648e-06	113.01	0.00065576	0.000573	0.00018001	1096.7	6.7347e-06	6.3042e-06	1429.5	390.82	6.6126e-06	6.269e-06	581.9	244.64	141.45	56.718	7.1971e-06	101.33	399.116	169.628	153.002	101.138	167.646	241.747	100.764	105.982	251.764	222.437	105.670	109.828	110.421	115.836	176.943	114.366	-8191	255	
2154.361	1	1	0	0	0.15883	0.063751	0.18648	0.29214	0.11883	0.12479	0.25093	0.42749	0.14047	0.36926	0.14779	0.40253	0.16935	0.19323	0.094544	0.048112	-2.3583	-2.1729	-2.8125	-2.6146	-2.0833	-3.0104	-2.3375	-2.4292	-2.8625	-2.2333	-2.8396	-2.6688	-1.9104	-2.9604	-2.2417	-2.425	411.747	394.087	208.643	395.547	250.704	421.418	413.816	370.178	358.692	280.659	365.139	394.551	104.546	380.316	183.792	391.803	0.0032231	0.00056789	0.00028406	1177	1.1465e-05	7.338e-06	1557.6	426.71	2.8481e-06	1.1931e-05	645.94	275.63	158.1	61.352	1.4377e-05	111.47	0.00061503	0.00059194	0.00018126	1101.1	6.2911e-06	6.4913e-06	1434.6	394.2	6.2981e-06	6.5787e-06	590.06	247.01	141.8	56.473	7.2171e-06	100.06	400.109	153.389	218.143	101.118	269.091	202.154	100.983	106.014	231.443	247.417	105.622	109.880	110.140	115.935	231.939	113.974	-8191	255	
2154.433	1	1	0	0	0.10336	0.084339	0.34526	0.14444	0.18352	0.26758	0.2867	0.11516	0.26961	0.19918	0.27261	0.128	0.18854	0.37103	0.24869	0.22967	-2.5417	-2.025	-2.7229	-2.7875	-2.0938	-3.0312	-2.6104	-2.5333	-2.7333	-2.0667	-2.7771	-2.8583	-2.2021	-2.7979	-2.425	-2.2375	206.633	363.040	432.853	127.986	335.519	403.076	438.728	417.412	161.423	438.759	381.935	343.890	97.168	377.989	419.499	362.353	0.0031507	0.0014287	0.00037161	1191.7	5.2109e-06	8.3265e-06	1574.4	435.04	1.3109e-05	2.1886e-06	656.67	273.68	160.13	59.917	8.294e-06	108.37	0.0006031	0.00064185	0.00018222	1117.7	6.3951e-06	7.1349e-06	1451.6	402.58	6.607e-06	7.3709e-06	596.4	246.46	144.01	56.054	7.4637e-06	97.712	410.939	188.090	164.788	100.812	306.729	216.282	100.491	105.577	377.570	261.596	105.279	109.582	110.311	116.152	191.084	114.388	-8191	255	
2154.529	1	1	0	0	0.18781	0.12722	0.16025	0.24266	0.066652	0.096465	0.23288	0.16461	0.16918	0.15301	0.28788	0.43784	0.17727	0.40802	0.16744	0.3323	-2.4667	-2.0312	-2.4146	-3.0042	-2.0521	-2.8063	-2.7042	-2.2062	-3.0167	-2.2479	-2.4146	-3.0042	-2.1	-2.8063	-2.5292	-2.1292	416.835	303.466	183.244	431.027	147.780	186.099	383.428	112.091	211.781	131.736	320.250	416.470	109.207	96.014	89.401	359.469	0.003997	0.001426	0.00026394	1188.4	1.1811e-05	1.0136e-05	1546.8	432.42	1.9519e-05	4.9061e-06	644.6	273.41	159.62	61.525	9.569e-06	111.64	0.00063744	0.00070057	0.00019154	1117.7	6.9014e-06	7.733e-06	1436.2	399.15	7.0442e-06	7.7961e-06	589.17	245.22	145.14	57.37	7.5804e-06	100.13	401.440	122.907	150.526	100.976	179.458	189.825	100.791	105.977	196.787	382.254	105.309	109.753	110.867	116.214	258.408	114.514	-8191	255	
2154.625	1	1	0	0	0.059647	0.22928	0.11228	0.16911	0.11449	0.26144	0.26916	0.14452	0.091089	0.22651	0.072468	0.21825	0.29199	0.24001	0.013455	0.080313	-2.5896	-2.125	-2.1771	-2.75	-1.9167	-2.6333	-2.7292	-2.0854	-2.8021	-2.3521	-2.4042	-2.9938	-2.0938	-2.5396	-2.6833	-2.3292	410.529	370.442	294.392	320.832	90.740	409.522	367.001	379.694	429.904	343.622	271.072	398.859	447.775	124.687	306.738	159.951	0.0037565	0.00090999	0.00030549	1159.1	1.2891e-05	5.8873e-06	1538.1	423.08	1.4592e-05	1.2344e-05	641.88	277.16	160.48	63.739	4.1717e-06	115.55	0.00067804	0.00071949	0.00019411	1090.1	7.5388e-06	7.9256e-06	1424.6	391.9	7.4057e-06	7.7406e-06	586.67	248.01	147.23	58.93	7.2353e-06	103.11	405.599	167.084	146.347	101.311	132.813	200.754	101.242	106.292	151.416	304.029	105.575	109.896	110.841	116.088	416.043	114.304	-8191	255	
2154.746	1	1	0	0	0.094379	0.27476	0.093331	0.11069	0.29145	0.10872	0.27871	0.071073	0.14317	0.17881	0.21403	0.14408	0.10219	0.31469	0.14168	0.072503	-2.4125	-2.2583	-2.2	-2.9167	-1.9833	-2.3792	-3.0333	-1.8729	-2.875	-2.3896	-2.2458	-3.0979	-2.1229	-2.5042	-2.7292	-2.0687	345.579	389.455	304.502	404.272	248.522	215.420	409.351	225.594	280.123	425.912	413.776	210.202	114.128	332.493	270.797	388.394	0.0034459	0.0014709	0.00036075	1152.8	7.5166e-06	6.4566e-06	1528	422.73	1.0743e-05	1.3637e-05	646.89	277.93	160.32	64.089	5.3148e-06	115.71	0.00068691	0.0006883	0.0001801	1077	7.5143e-06	7.3506e-06	1415.4	390.03	7.476e-06	7.323e-06	586.18	249.03	146.24	59.096	6.6522e-06	103.57	409.924	288.897	260.943	101.778	275.858	246.160	101.231	106.136	173.422	126.871	105.754	110.124	110.241	116.336	290.985	114.048	-8191	255	
2154.840	1	1	0	0	0.093588	0.2127	0.060205	0.2666	0.10531	0.072226	0.23969	0.14071	0.019203	0.43486	0.25149	0.27929	0.1789	0.304	0.099508	0.34524	-2.2604	-2.6104	-2.0125	-3.0271	-2.0583	-2.3708	-2.9125	-2.1854	-2.6104	-2.5062	-2.2125	-2.9792	-2.3479	-2.2771	-2.7396	-2.1375	445.793	94.060	281.622	110.813	127.979	200.657	415.655	365.451	433.454	316.039	446.198	399.475	383.416	391.108	383.406	381.578	0.002989	0.0014774	9.2948e-05	1141.8	6.4047e-06	7.1065e-06	1525.2	424.04	6.4575e-06	9.1929e-06	642.56	274.82	157.78	63.99	1.4513e-06	116.1	0.00068173	0.00065144	0.00016486	1071	7.3973e-06	7.0884e-06	1405.8	391.16	7.4232e-06	7.1917e-06	581.78	246.52	145.09	59.162	6.5887e-06	104.25	405.285	131.335	380.120	101.486	164.760	237.965	101.003	105.883	185.224	193.904	105.492	109.964	110.628	116.038	307.669	113.740	-8191	255	
2154.938	1	1	0	0	0.11441	0.083868	0.26039	0.1101	0.040282	0.16889	0.061751	0.09111	0.16395	0.20355	0.13121	0.22249	0.16417	0.51805	0.28727	0.13855	-2.1292	-2.6562	-1.8167	-2.8417	-2.0729	-2.2313	-3.025	-2.2583	-2.3458	-2.5187	-2.0875	-2.7771	-2.3479	-2.1333	-2.8021	-2.2354	249.576	343.562	383.993	101.945	311.980	293.866	122.667	346.774	90.446	205.069	114.851	417.030	391.220	128.694	161.315	381.537	0.003657	0.00039901	0.00021666	1134.5	4.9484e-06	9.0772e-06	1526.1	421.77	7.033e-06	1.38e-05	634.71	274.4	158.7	63.745	6.857e-06	116.16	0.00070382	0.00066598	0.00016521	1071	7.6281e-06	7.2178e-06	1402.3	392.59	7.4646e-06	7.1831e-06	576.58	247.85	146.1	58.889	6.575e-06	104.35	408.274	240.819	214.384	101.165	190.911	228.576	101.076	105.939	362.224	212.623	105.676	110.001	110.319	115.868	251.178	113.867	-8191	255	
2155.057	1	1	0	0	0.24506	0.22104	0.12244	0.30958	0.42691	0.084884	0.17123	0.20441	0.23913	0.17001	0.19017	0.21117	0.39691	0.03407	0.077963	0.042606	-2.1792	-2.6521	-2.0583	-2.9229	-2.3688	-1.8104	-3.0333	-2.1375	-2.5208	-2.65	-2.2562	-2.7458	-2.5667	-2.15	-2.7542	-2.2313	242.700	314.925	307.307	370.234	183.078	256.919	415.792	400.911	272.265	293.618	90.009	355.997	423.932	378.042	104.850	415.029	0.0030825	0.001348	0.00024665	1126.8	8.8877e-06	4.5272e-06	1519.7	418.43	1.1473e-05	8.7578e-06	634.94	272.59	157.11	63.442	6.0571e-06	114.44	0.0006965	0.00065314	0.00017022	1069.9	7.6749e-06	7.1636e-06	1400.2	391.99	7.703e-06	7.3099e-06	579.74	246.99	145.13	58.604	6.9803e-06	103.69	403.951	255.425	142.812	101.153	222.916	259.706	101.030	106.154	246.239	379.099	105.487	109.824	110.547	115.783	196.043	113.838	-8191	255	
2155.129	1	1	0	0	0.22831	0.11951	0.090639	0.25877	0.17041	0.12904	0.019271	0.22246	0.2315	0.036134	0.058675	0.16818	0.14478	0.10922	0.21649	0.31038	-1.9021	-2.6917	-1.7625	-2.8187	-2.7062	-1.8438	-3.0292	-2.2792	-2.2042	-2.8896	-2.0208	-2.6937	-2.7188	-2.0375	-2.8625	-2.4521	128.704	192.716	177.558	101.873	306.058	140.030	221.857	106.024	262.489	231.317	119.996	394.926	107.261	332.390	185.721	438.756	0.0034948	0.00025136	0.00035776	1131.3	8.9098e-06	9.9847e-07	1515.4	417.96	1.1364e-05	1.0355e-05	623.17	267.15	155.13	62.505	2.5713e-06	112.17	0.00069839	0.0006244	0.00017855	1070.2	7.5223e-06	6.7454e-06	1397.9	390.91	7.4883e-06	6.9177e-06	573.8	241.44	143.25	57.52	7.4821e-06	101.36	402.031	334.244	159.599	101.455	248.542	315.624	101.419	105.887	191.459	309.115	105.824	110.295	110.876	116.017	166.256	114.274	-8191	255	
2155.225	1	1	0	0	0.35988	0.07509	0.2312	0.206	0.11841	0.16567	0.29296	0.37884	0.16877	0.13776	0.19935	0.047316	0.22764	0.30081	0.15627	0.13881	-1.8937	-2.7458	-2.1083	-2.5208	-2.8833	-1.8458	-2.9646	-2.5833	-1.9875	-2.9458	-2.1625	-2.5729	-2.7188	-2.0042	-2.8583	-2.4708	376.274	269.657	263.936	424.588	431.442	250.260	374.874	398.336	396.460	246.475	398.377	441.846	365.522	95.430	132.830	136.585	0.003525	0.00065569	0.00069293	1115.4	7.8259e-06	1.3442e-05	1482.6	414.99	1.5815e-05	1.8258e-05	625.28	261.78	151.38	62.525	1.0006e-05	112.88	0.00069953	0.00062118	0.00019285	1057.5	7.4257e-06	6.8286e-06	1376	389.18	7.5866e-06	7.0761e-06	575.21	238.11	141.39	57.884	7.8565e-06	101.95	407.774	389.816	120.034	101.157	270.126	180.742	101.179	105.804	150.173	213.390	105.446	110.269	110.563	116.110	210.127	113.934	-8191	255	
2155.346	1	1	0	0	0.13186	0.25071	0.078497	0.12819	0.22844	0.30055	0.23049	0.11604	0.12012	0.26118	0.091874	0.33811	0.14737	0.30893	0.42013	0.27273	-1.7292	-2.8187	-2.0208	-2.4562	-2.5875	-2.075	-2.7979	-2.6917	-2.0708	-2.9333	-2.2604	-2.6146	-2.6875	-2.1292	-2.5292	-2.7146	310.305	103.380	399.362	413.766	280.512	422.374	352.238	330.355	244.537	99.052	368.060	418.747	325.566	443.394	332.347	399.878	0.0035786	0.00081939	0.00036131	1102.3	9.202e-06	1.389e-05	1482.4	420.57	3.5874e-06	2.1151e-06	642.62	265.51	152.17	63.868	9.352e-06	116.22	0.00067037	0.00062017	0.0001927	1042.6	6.8703e-06	6.6705e-06	1374.7	391.09	6.6372e-06	6.7946e-06	586.5	239.61	138.44	59.052	7.41e-06	104.28	400.724	181.222	130.747	101.819	205.343	184.708	101.591	106.317	363.718	330.155	105.799	110.238	111.379	115.921	208.242	114.114	-8191	255	
2155.442	1	1	0	0	0.16316	0.14596	0.16574	0.21224	0.10465	0.10976	0.12	0.2016	0.19556	0.18136	0.32184	0.33165	0.13214	0.15666	0.090949	0.14742	-1.7167	-2.8521	-1.8229	-2.3896	-2.7938	-2.1083	-2.8583	-2.6917	-2.0062	-2.7708	-2.325	-2.2562	-2.6854	-2.2604	-2.2979	-2.8438	413.176	432.230	407.965	345.640	179.954	177.986	285.755	375.816	315.134	118.713	401.023	439.233	133.414	348.876	212.048	317.991	0.0036278	0.0013111	0.00025418	1100.3	5.6948e-06	1.0915e-05	1481.3	421.93	9.41e-06	5.2553e-06	643.52	269.57	153.85	64.923	3.7497e-06	117.73	0.00060891	0.00063171	0.00018776	1035.7	6.4126e-06	6.9074e-06	1372.1	390.76	6.198e-06	6.81e-06	587.43	240.84	138.07	59.887	7.01e-06	105.45	408.317	118.159	90.924	101.411	186.317	214.968	101.171	106.181	164.417	240.892	105.855	110.192	110.892	116.018	385.454	113.972	-8191	255	
2155.538	1	1	0	0	0.037484	0.25462	0.24299	0.23643	0.092009	0.15872	0.46465	0.19933	0.10439	0.14207	0.2652	0.29083	0.080345	0.1848	0.0577	0.20135	-1.5458	-2.6104	-2.4708	-2.0604	-2.8479	-2.0583	-2.6604	-2.9104	-1.8062	-2.4875	-2.5687	-2.0917	-2.8896	-2.3271	-2.3667	-2.6708	177.234	206.267	104.930	391.847	118.586	274.731	422.567	359.072	125.313	256.865	446.863	105.472	283.938	399.397	229.730	92.458	0.0038681	0.00082067	0.00011912	1088.8	1.5845e-05	2.6423e-06	1478.1	420.34	9.0009e-06	5.5879e-06	649.11	265.68	151.27	65.662	2.4822e-06	119.9	0.00058905	0.00064263	0.00017973	1025.9	6.1847e-06	7.011e-06	1359.8	388.06	6.1792e-06	6.8788e-06	586.53	238.3	136.41	60.621	6.7615e-06	106.35	404.318	214.683	351.856	101.084	188.249	413.246	100.928	106.128	210.592	91.496	105.753	110.254	111.512	115.999	243.336	113.891	-8191	255	
2155.659	1	1	0	0	0.42684	0.15674	0.11613	0.11538	0.072243	0.040836	0.22094	0.33558	0.089431	0.22744	0.082344	0.27059	0.039696	0.12689	0.020005	0.30244	-1.3875	-2.6396	-2.4917	-2.0479	-2.725	-2.0896	-2.6604	-2.9521	-2.1813	-2.5333	-2.6	-2.3771	-2.7542	-2.3229	-2.2583	-2.8646	252.893	399.500	232.744	416.200	344.078	281.807	399.000	391.513	410.250	295.220	403.595	413.293	211.801	175.983	103.756	379.695	0.0030072	0.00090387	0.00016951	1073.3	1.2341e-05	7.0215e-06	1461	417.72	2.3768e-05	5.6899e-06	647.39	266.5	151.62	66.673	2.666e-06	122.12	0.00060136	0.00064476	0.00017381	1003.5	6.5377e-06	7.1822e-06	1344	384.82	6.4896e-06	6.8583e-06	588.79	237.63	136.57	61.402	6.492e-06	107.95	406.367	156.863	150.758	101.614	189.832	186.589	101.430	106.389	199.699	446.415	105.785	110.166	111.008	115.875	253.091	114.112	-8191	255	
2155.730	1	1	0	0	0.1017	0.13679	0.12427	0.036446	0.15984	0.058259	0.10959	0.24237	0.30858	0.39743	0.087617	0.15245	0.23934	0.18915	0.17291	0.14358	-1.6896	-2.4396	-2.6875	-2.1521	-2.7354	-2.2917	-2.4188	-2.9667	-2.1271	-2.5396	-2.8896	-2.3208	-2.9146	-2.4792	-2.0917	-3.1875	198.053	261.038	290.917	448.460	316.743	253.980	230.721	400.591	225.692	302.818	368.168	314.548	124.679	392.504	321.764	425.916	0.0037468	0.00050714	0.00028799	1067.1	1.3854e-05	7.6653e-06	1457.2	416.35	1.2304e-05	8.8555e-06	653.18	267.35	151.39	67.446	7.8254e-06	123.13	0.0006223	0.00061388	0.00016618	992.46	6.6219e-06	6.7709e-06	1338.1	383.3	6.5737e-06	6.4377e-06	587.67	238.04	136.57	61.554	5.9428e-06	108.82	406.538	191.731	243.236	101.913	192.931	337.481	101.532	106.800	189.943	193.627	105.878	110.376	111.010	115.874	253.484	114.329	-8191	255	
2155.826	1	1	0	0	0.23732	0.24642	0.24949	0.22361	0.16731	0.071377	0.12229	0.024189	0.12131	0.086546	0.27725	0.10718	0.14195	0.38435	0.14141	0.1457	-1.6792	-2.5312	-2.7313	-2.2875	-2.5667	-2.5729	-2.2854	-3.0062	-2.0458	-2.2562	-2.9354	-1.9688	-2.7708	-2.4833	-1.9896	-2.9146	426.012	311.390	94.422	395.632	165.720	223.720	422.788	306.836	433.837	292.424	406.223	349.180	374.940	443.142	275.860	371.846	0.0044256	0.0011429	7.1241e-05	1058.1	5.932e-06	1.1546e-05	1446.3	419.44	1.2139e-05	7.1849e-06	651.74	266.09	149.66	67.471	5.9817e-06	123.46	0.00061823	0.00057242	0.00015107	984.8	6.4015e-06	6.2484e-06	1326.4	383.29	6.5522e-06	6.1643e-06	585.89	237.27	135.61	61.552	5.6384e-06	109.36	406.076	178.014	222.857	101.370	190.175	226.421	101.296	106.361	181.934	428.308	105.410	109.762	111.094	115.767	152.617	113.529	-8191	255	
2155.921	1	1	0	0	0.061387	0.19759	0.045584	0.29733	0.096438	0.21463	0.22776	0.30405	0.15529	0.17759	0.3689	0.14129	0.047956	0.26871	0.27698	0.26787	-1.8583	-2.1979	-2.7375	-2.0417	-2.5833	-2.6146	-2.2	-2.8667	-2.1604	-2.3125	-2.8271	-2.3063	-2.5938	-2.7687	-2.0146	-2.9667	365.854	381.828	317.411	441.497	197.128	211.104	183.255	341.392	273.611	345.610	388.022	126.796	130.077	436.579	110.941	384.049	0.0032321	0.00092145	0.00015831	1048	4.0242e-06	7.8276e-06	1431.7	415.77	1.0553e-05	1.1442e-05	649.18	265.75	148.78	67.915	1.0145e-05	125.31	0.00062189	0.00055868	0.00014438	977.08	6.5339e-06	6.2515e-06	1309.5	381.49	6.5472e-06	6.0991e-06	584.18	237.89	135.15	61.875	5.4143e-06	110.99	398.863	164.046	442.631	101.360	222.609	200.884	101.328	106.485	147.080	267.862	105.673	109.929	110.975	115.764	199.657	113.716	-8191	255	
2156.041	1	1	0	0	0.24694	0.089891	0.12387	0.19226	0.11184	0.14293	0.30316	0.21519	0.16041	0.1525	0.43961	0.10776	0.129	0.10641	0.12251	0.38934	-1.8375	-1.9333	-2.8625	-2.0521	-2.4583	-2.7104	-2.1083	-2.8604	-2.1896	-2.1375	-2.925	-2.2146	-2.3604	-2.8667	-1.7292	-2.9542	167.263	107.194	128.669	130.662	413.296	162.713	427.844	441.088	397.004	102.661	340.404	354.243	337.375	400.539	368.766	371.147	0.0036883	0.00086926	0.0003743	1031.6	5.685e-06	4.949e-06	1424.8	410.38	1.5621e-05	6.9742e-06	651.13	265.59	148.61	68.525	7.5389e-06	125.88	0.00061114	0.00055031	0.00014328	971.94	6.4362e-06	6.2259e-06	1306.1	379.52	6.6761e-06	6.1275e-06	585.9	239.11	135.69	62.317	5.8632e-06	111.93	399.880	205.697	170.214	101.341	192.354	228.160	101.148	106.122	175.389	262.843	105.526	109.503	111.201	115.789	220.771	113.723	-8191	255	
2156.138	1	1	0	0	0.088498	0.23347	0.24954	0.21225	0.20062	0.17041	0.12618	0.11575	0.13326	0.18686	0.32468	0.036113	0.057577	0.45465	0.21907	0.14336	-1.8208	-2.0771	-2.9021	-2.4729	-2.3854	-2.8958	-1.95	-2.9417	-2.4333	-1.95	-2.9396	-2.3312	-2.3458	-2.9104	-1.925	-2.775	317.998	370.602	106.588	283.345	309.494	432.943	274.361	395.080	377.768	446.602	342.307	145.118	291.439	392.849	297.694	406.980	0.0036022	0.00067504	0.00030703	1024.8	9.1272e-06	7.1249e-06	1411.4	403.82	1.3309e-05	2.4597e-06	652.13	268.02	149.29	68.571	7.9167e-06	127.14	0.0006187	0.00054202	0.00015188	966.48	6.4082e-06	6.0121e-06	1300.4	375.66	6.4864e-06	5.8441e-06	587.34	241.29	135.19	62.263	6.4056e-06	113.08	409.139	323.016	128.638	101.418	152.130	444.357	101.325	106.282	186.605	335.171	105.718	109.974	110.625	115.577	220.684	113.494	-8191	255	
2156.234	1	1	0	0	0.044971	0.030933	0.31134	0.16902	0.11332	0.079172	0.26555	0.2358	0.2498	0.18782	0.15029	0.15295	0.22853	0.09466	0.14495	0.084785	-2.1271	-1.725	-2.825	-2.5187	-2.2333	-2.8354	-2.0729	-2.5958	-2.5021	-1.9854	-2.8271	-2.4333	-2.15	-3.0875	-1.9312	-2.7729	193.467	247.583	125.486	117.178	397.724	208.950	376.464	342.586	313.255	439.070	431.394	397.154	318.319	106.830	334.500	360.461	0.0033761	0.00083347	0.00050268	1008.4	9.9357e-06	8.8265e-06	1412.4	404.19	9.1031e-06	8.0345e-06	643.92	269.42	148.8	68.968	4.2559e-06	128.05	0.00063533	0.00054766	0.0001677	955.98	6.7254e-06	6.1767e-06	1302.9	374.72	6.9172e-06	6.2358e-06	587.67	243.24	136.52	62.703	7.2024e-06	114.5	409.648	250.501	180.111	101.557	201.962	162.442	101.392	106.487	220.598	189.390	105.699	110.160	110.983	115.682	230.109	113.241	-8191	255	
2156.305	1	1	0	0	0.096737	0.080708	0.21957	0.19278	0.098915	0.08015	0.046752	0.23765	0.059878	0.15557	0.30019	0.17334	0.27234	0.1739	0.16909	0.31632	-2.3083	-1.9125	-2.9313	-2.5167	-2.0146	-2.9813	-2.15	-2.4688	-2.9167	-1.9417	-2.9208	-2.6333	-2.0833	-2.9208	-2.1042	-2.3771	389.606	305.910	333.862	418.066	168.826	205.323	118.469	428.593	117.838	249.440	427.546	426.044	429.246	447.868	442.274	406.004	0.0032911	0.0013709	0.00029345	1004	8.5788e-06	3.5069e-06	1394.9	398.8	4.6858e-06	1.4621e-05	641.48	270.32	148.37	68.939	8.5583e-06	128.79	0.00066317	0.00059467	0.00018697	955.31	6.9563e-06	6.6946e-06	1303.4	372.85	7.1862e-06	6.9378e-06	590.88	245.17	136.57	63.338	7.962e-06	115.73	400.367	186.998	109.869	101.397	237.814	355.027	101.187	106.080	222.403	217.763	105.917	109.872	111.217	115.834	275.261	113.667	-8191	255	
2156.426	1	1	0	0	0.219	0.16044	0.16133	0.18551	0.14871	0.29984	0.20005	0.41994	0.1114	0.18889	0.25724	0.15643	0.17553	0.09007	0.088706	0.077062	-2.2854	-2.1188	-2.4625	-2.7417	-1.9479	-2.95	-2.1917	-2.5042	-2.6312	-1.9562	-2.5438	-2.7979	-2.0625	-2.8229	-2.2396	-2.3375	334.086	310.477	279.180	91.372	146.139	400.029	347.557	388.154	409.069	234.737	408.471	398.090	348.455	225.413	335.636	434.193	0.0032727	0.0020502	0.000228	1000.2	7.0487e-06	6.4786e-06	1398.5	397.5	4.1085e-06	1.3902e-05	644.35	272.94	149.18	69.05	1.4813e-05	129.73	0.00066802	0.00065926	0.00019609	953.45	6.7965e-06	7.2118e-06	1307.3	372.7	6.9037e-06	7.3352e-06	592.3	246.59	136.84	63.696	8.0563e-06	116.63	407.945	162.887	185.201	101.411	339.289	223.700	101.170	106.370	299.730	236.826	105.761	110.213	111.305	115.381	254.212	113.943	-8191	255	
2156.522	1	1	0	0	0.07812	0.14764	0.27034	0.13857	0.2452	0.12511	0.34891	0.096587	0.17999	0.089878	0.098053	0.32183	0.26871	0.12453	0.1105	0.045933	-2.5146	-1.9333	-2.3812	-2.7313	-1.9312	-2.8292	-2.2188	-2.1937	-2.6896	-1.9667	-2.525	-2.9125	-1.7104	-2.8083	-2.1604	-2.0938	442.214	433.530	319.725	343.982	360.625	160.155	384.812	407.715	144.843	145.346	314.836	117.040	312.375	362.851	415.048	348.222	0.0041117	0.00096442	0.00014314	994.61	1.2114e-05	7.2499e-06	1385.1	394.61	1.2729e-05	1.3689e-05	640.16	271.68	149.02	68.885	2.0368e-05	128.8	0.00067155	0.0007179	0.00020188	949.77	6.9909e-06	7.8001e-06	1301.4	370.71	7.1352e-06	7.9727e-06	590.24	245.62	137.04	63.895	8.1382e-06	115.51	400.892	228.277	417.021	101.685	210.951	224.481	101.473	106.258	174.412	250.862	105.777	109.999	111.126	115.880	213.303	113.422	-8191	255	
2156.618	1	1	0	0	0.098787	0.017953	0.22497	0.24593	0.022634	0.037735	0.46049	0.31628	0.32383	0.23262	0.12762	0.13771	0.17941	0.14386	0.1525	0.20328	-2.5917	-1.9854	-2.4271	-2.6917	-1.8104	-2.7083	-2.6146	-1.9708	-3.0521	-1.8583	-2.5042	-2.85	-1.8375	-2.7354	-2.3833	-2.2229	203.898	282.207	339.701	394.431	100.936	108.418	410.228	402.266	298.034	266.399	241.096	440.340	146.446	421.853	124.538	406.257	0.0041676	0.0010264	0.00031119	990.67	1.0436e-05	6.2856e-06	1380.7	391.36	4.6498e-06	6.7449e-06	638.09	270.68	149.14	69.024	1.4142e-05	128.11	0.00069694	0.00075773	0.00020205	947.12	7.4725e-06	8.2012e-06	1294.3	367.89	7.4844e-06	8.2712e-06	587.66	245.09	138.31	64.159	7.9492e-06	115.04	407.005	142.448	97.320	101.618	245.688	185.496	101.179	106.313	217.502	216.633	105.472	109.733	111.024	115.653	245.413	113.250	-8191	255	
2156.739	1	1	0	0	0.15434	0.29808	0.32196	0.096854	0.11108	0.27971	0.10717	0.33651	0.1249	0.20274	0.15872	0.34688	0.04423	0.25949	0.32049	0.1243	-2.3625	-2.1521	-2.1083	-3.0417	-1.8979	-2.6562	-2.7667	-1.975	-2.7354	-2.4271	-2.2104	-3.0021	-1.7812	-2.4521	-2.7062	-2.2854	263.727	196.133	258.291	336.985	204.851	399.756	390.332	424.017	390.523	413.387	447.083	388.728	147.155	369.500	396.887	111.587	0.0044222	0.0011082	0.00014642	984.62	1.9766e-05	1.4977e-05	1377.8	392.71	1.5234e-05	3.9806e-06	634.9	272.59	147.72	69.433	4.2598e-06	128.95	0.00072861	0.00076191	0.00020138	938.69	8.002e-06	8.2225e-06	1291.4	367.18	7.9348e-06	8.2133e-06	585.59	244.99	139.45	64.077	7.7225e-06	115.23	402.316	100.265	113.524	101.093	173.723	258.275	100.985	106.460	193.102	168.660	105.696	110.033	110.939	115.619	230.765	113.555	-8191	255	
2156.833	1	1	0	0	0.20566	0.12261	0.093206	0.14618	0.15139	0.22943	0.17561	0.14105	0.081527	0.21611	0.13174	0.25002	0.25557	0.10094	0.074383	0.18576	-2.4333	-2.1729	-2.1917	-2.8937	-2.1292	-2.5438	-2.8292	-1.9646	-2.7313	-2.2875	-2.15	-2.8042	-2.0479	-2.4875	-2.7042	-2.0854	88.610	344.977	154.147	401.267	376.167	228.709	89.715	375.443	260.156	258.335	358.579	417.888	422.154	322.019	169.241	388.883	0.0039659	0.00088825	0.00040685	988.04	2.2125e-05	5.7146e-06	1387.1	394.38	1.4039e-05	2.6867e-06	635.49	272.33	149.17	69.238	1.1838e-05	129.72	0.00074677	0.00073699	0.00018991	938.82	7.9531e-06	7.7902e-06	1291.2	367.11	7.8881e-06	7.7973e-06	584.47	245.31	140.04	63.977	7.2567e-06	115.33	408.693	279.486	190.222	101.234	200.748	376.491	101.275	106.458	192.299	294.997	106.030	110.284	110.746	115.618	231.704	113.853	-8191	255	
2156.929	1	1	0	0	0.20769	0.26938	0.11799	0.20804	0.095117	0.076526	0.15136	0.23498	0.17454	0.04927	0.13669	0.15633	0.29718	0.27513	0.11358	0.086675	-2.3729	-2.2708	-2.1292	-2.8583	-1.9646	-2.3021	-2.7896	-2.225	-2.5438	-2.6937	-2.2062	-3.1021	-2.1188	-2.3646	-3.025	-2.0792	371.370	160.729	203.082	92.597	126.691	327.866	429.406	398.826	165.650	315.680	400.867	360.242	387.458	351.871	247.818	392.949	0.0036817	0.0011678	0.00024744	991.88	5.6849e-06	1.7097e-06	1383	393.67	1.2824e-05	8.5555e-06	638.64	270.54	146.75	69.321	3.6778e-06	129.01	0.00073821	0.0007089	0.00017773	940.47	8.0033e-06	7.6101e-06	1285.1	368.63	7.8472e-06	7.7091e-06	582.56	244.32	139.7	63.907	6.9481e-06	115.39	394.636	137.160	155.362	101.387	313.908	127.313	101.085	106.677	237.337	405.033	105.943	110.399	111.489	116.251	329.798	113.672	-8191	255	
2157.026	1	1	0	0	0.050919	0.099918	0.072127	0.087482	0.24076	0.2432	0.18489	0.10729	0.15718	0.11317	0.11077	0.3145	0.11708	0.29722	0.061262	0.12171	-2.1125	-2.6458	-1.9208	-2.975	-2.275	-2.1833	-2.825	-2.2062	-2.425	-2.6479	-2.05	-2.9771	-2.4104	-2.1604	-2.9083	-2.4562	126.789	440.621	448.802	124.597	190.779	266.317	423.788	98.440	103.770	260.440	363.600	91.764	273.016	411.184	182.128	440.183	0.0039231	0.00094096	0.00024043	996.16	1.7428e-05	1.2613e-05	1381.5	396.01	8.0863e-06	1.3372e-05	640.66	272.02	148.06	69.56	6.0071e-06	128.6	0.00073462	0.00070568	0.00017349	949.69	8.0324e-06	7.5196e-06	1287.6	372.6	7.9507e-06	7.6418e-06	584.78	245.75	140.64	64.264	7.1068e-06	116.17	415.028	226.918	130.791	101.555	203.281	278.238	101.390	106.909	242.078	268.816	105.934	110.313	111.093	116.336	213.445	113.873	-8191	255	
2157.122	1	1	0	0	0.074488	0.24133	0.14232	0.12986	0.066205	0.077113	0.29222	0.20083	0.098632	0.29327	0.13698	0.21859	0.07007	0.29703	0.097471	0.39668	-2.1146	-2.6208	-1.7625	-2.8646	-2.475	-2.1979	-3.1271	-2.3583	-2.3458	-2.8479	-2.175	-2.7167	-2.525	-2.2062	-2.9375	-2.3458	445.354	250.468	157.109	146.895	122.215	129.702	334.169	226.004	278.399	94.333	104.400	361.945	290.066	407.474	177.602	394.240	0.0041311	0.00095424	0.00037437	1001.5	2.1196e-06	1.5419e-06	1412.7	403.12	8.6228e-06	8.5738e-06	643.96	271.34	151.43	69.825	8.4067e-06	127.97	0.00074746	0.00070158	0.00018429	967.43	8.2752e-06	7.6346e-06	1311.6	380.96	8.2411e-06	7.658e-06	591.49	247.42	143.17	64.562	7.802e-06	115.84	400.144	179.465	190.746	101.820	275.473	262.806	101.412	106.621	229.510	435.813	105.605	110.110	110.900	115.774	286.956	113.447	-8191	255	
2157.218	1	1	0	0	0.088113	0.061726	0.11611	0.41409	0.14742	0.18981	0.1576	0.21821	0.15957	0.085472	0.35683	0.25361	0.13123	0.20266	0.24564	0.22285	-1.8271	-2.7083	-1.9271	-2.7438	-2.6229	-2.0083	-2.9229	-2.35	-2.1333	-2.8729	-2.0729	-2.8896	-2.6771	-2.0667	-2.8583	-2.5854	378.167	308.525	328.840	369.712	383.658	266.751	89.284	406.858	221.950	226.817	97.840	94.467	248.497	130.932	384.802	416.131	0.0037561	0.00094292	0.00045272	1027.6	5.0847e-06	5.3053e-06	1430.6	405.58	2.4039e-06	2.6019e-06	638.23	272.44	152.28	68.779	1.0205e-05	125.01	0.00076292	0.00069136	0.00020193	991.75	8.2833e-06	7.3221e-06	1336.1	383.47	8.1147e-06	7.4453e-06	589.69	247.16	142.97	63.376	8.0572e-06	113.19	407.957	167.644	193.267	101.424	260.860	274.253	101.605	105.966	252.686	173.257	105.914	110.244	110.957	115.863	199.427	113.661	-8191	255	
2157.337	1	1	0	0	0.12123	0.24651	0.1954	0.22159	0.018759	0.26975	0.23497	0.12667	0.057806	0.23745	0.26566	0.13791	0.044954	0.14424	0.11405	0.16041	-1.6833	-2.9417	-2.0417	-2.7396	-2.5625	-1.9562	-3.1167	-2.3729	-2.2208	-3.0604	-2.1437	-2.5729	-2.7188	-2.1312	-2.7271	-2.8187	208.269	423.244	133.466	420.167	367.149	434.797	446.573	425.250	360.385	287.248	398.133	141.009	261.637	139.390	418.031	416.560	0.004143	0.00064591	0.00044334	1051.7	1.6576e-05	1.4623e-05	1449.1	408.15	1.6446e-05	2.2276e-05	632.58	271.2	153.89	65.656	7.2609e-06	119.28	0.00074164	0.00066103	0.00020684	1004.5	7.8085e-06	7.1901e-06	1349.8	383.99	7.5423e-06	7.1198e-06	584.29	245.24	141.72	60.458	7.6889e-06	107.46	389.676	235.350	422.924	101.364	234.998	208.763	101.268	105.977	308.462	224.225	105.620	110.186	110.999	115.855	218.246	113.699	-8191	255	
2157.433	1	1	0	0	0.14343	0.10636	0.13403	0.068104	0.12111	0.18121	0.44082	0.20313	0.12543	0.14979	0.10722	0.25143	0.11503	0.23135	0.16333	0.20949	-1.6229	-2.9854	-2.1146	-2.2958	-2.7292	-1.9604	-2.7729	-2.5708	-1.9104	-3.0646	-2.2396	-2.6146	-2.7438	-2.2375	-2.5333	-2.5187	293.370	120.526	111.768	164.850	104.475	322.230	396.016	94.198	269.169	202.994	322.953	431.699	292.763	366.865	389.323	404.870	0.0034067	0.0018057	0.00020395	1087.2	9.3325e-06	1.5088e-05	1471.1	414.98	8.8918e-06	4.0549e-06	630.91	273.47	157.57	64.319	1.2728e-05	118.16	0.00066536	0.00063407	0.0001972	1031.3	6.867e-06	6.9433e-06	1368.6	387.04	6.7323e-06	6.9751e-06	581.31	246.84	142.19	59.426	7.4249e-06	106.07	403.847	198.561	442.168	101.249	262.462	233.926	101.243	106.556	178.845	230.196	105.374	109.940	110.866	115.622	243.652	114.050	-8191	255	
2157.529	1	1	0	0	0.26924	0.33063	0.201	0.2341	0.16557	0.20247	0.34109	0.37655	0.23313	0.076395	0.36335	0.042506	0.10914	0.077288	0.2674	0.23377	-1.5229	-2.9125	-2.2521	-2.4771	-2.6125	-1.925	-2.8146	-2.7708	-1.9958	-2.7396	-2.5938	-2.2417	-2.6375	-2.0979	-2.6333	-3	135.978	399.441	403.060	421.037	364.328	420.392	404.447	362.746	110.070	233.773	432.144	148.466	284.314	136.358	328.324	416.242	0.003494	0.00045321	0.00022717	1107.1	1.5635e-05	1.0521e-05	1487.5	414.13	1.6408e-05	2.4445e-05	630.95	274.45	159.83	63.508	1.5898e-05	114.22	0.00062021	0.0006545	0.00019289	1043.5	6.7456e-06	7.4447e-06	1382.5	387.24	6.7663e-06	7.5793e-06	581.45	247.74	144.79	59.078	8.0511e-06	102.96	402.889	175.339	378.160	101.450	231.841	188.490	101.207	106.130	180.546	218.164	105.343	110.107	110.810	116.301	223.736	114.098	-8191	255	
2157.601	1	1	0	0	0.18923	0.13276	0.12003	0.20308	0.18309	0.33195	0.096173	0.14171	0.16054	0.15142	0.17694	0.25062	0.12648	0.098535	0.20867	0.32737	-1.4562	-2.8729	-2.2708	-2.1437	-2.9271	-1.7521	-2.4917	-2.8312	-1.725	-2.7771	-2.525	-2.3625	-2.9542	-2.2771	-2.4938	-2.8271	443.307	376.924	103.536	397.362	349.560	335.754	357.874	430.124	139.625	217.854	113.762	428.731	374.700	112.942	432.248	441.368	0.0038426	0.0012337	0.00018973	1100	1.7431e-05	3.5049e-06	1457.8	407.75	2.0517e-05	1.681e-05	616.66	270.34	156.77	63.327	8.6547e-06	111.8	0.00069128	0.00074861	0.0002127	1048.2	7.6404e-06	8.6826e-06	1367.5	383.48	7.9659e-06	8.8661e-06	576.83	245.53	148.45	60.036	9.6495e-06	102.6	409.625	182.239	259.976	101.324	152.002	217.042	101.606	106.033	227.924	180.239	105.538	109.987	110.768	116.000	260.777	114.015	-8191	255	
2157.721	1	1	0	0	0.22375	0.042175	0.11438	0.080603	0.066346	0.23945	0.15946	0.1628	0.10509	0.16114	0.16532	0.13683	0.27247	0.22235	0.095926	0.11744	-1.6708	-2.5187	-2.5187	-2.1063	-2.9229	-2.1312	-2.5375	-2.9854	-1.8625	-2.5917	-2.8208	-1.9271	-2.8333	-2.3521	-2.3187	-2.8917	360.599	249.146	178.706	375.658	143.203	208.238	149.116	400.978	321.416	134.922	387.331	383.293	442.110	416.290	232.290	332.202	0.0037849	0.00095316	0.00038963	1089.3	1.2357e-05	9.4823e-06	1446.8	404.46	2.7859e-05	5.2831e-06	614.54	265.19	157.32	62.284	1.5031e-05	108.84	0.00089205	0.00096192	0.00027425	1059.5	1.0678e-05	1.1778e-05	1389.4	389.96	1.1415e-05	1.1829e-05	591.06	247.04	157.65	60.473	1.1573e-05	101.12	407.628	208.759	159.042	101.310	206.557	250.682	101.421	106.089	162.511	307.691	105.599	110.003	110.722	116.132	315.807	114.336	-8191	255	
2157.818	1	1	0	0	0.1169	0.24805	0.14256	0.17995	0.086731	0.14633	0.24936	0.030403	0.16541	0.15193	0.075544	0.25573	0.27703	0.30947	0.32365	0.14679	-1.4083	-2.6708	-2.4313	-2.2125	-2.8792	-2.3396	-2.1708	-3.1604	-2.0854	-2.3542	-2.9208	-2.1625	-2.7542	-2.55	-2.1688	-3.0708	246.360	311.879	135.124	445.316	181.399	254.650	364.969	178.354	109.657	440.438	125.573	414.590	417.311	377.940	342.655	416.070	0.0045353	0.00051199	0.00030968	1089.1	1.1272e-05	4.8311e-06	1459.8	409.82	1.1285e-05	7.7561e-06	621.71	270.29	159.22	62.444	1.0125e-05	112.28	0.0010472	0.0010052	0.00026507	1052.5	9.9127e-06	1.0092e-05	1377	385.96	9.6387e-06	9.4266e-06	583.26	246.73	151.64	59.252	8.5416e-06	101.44	400.296	398.165	188.080	101.368	184.894	302.401	101.189	106.255	159.439	315.563	105.525	110.323	110.913	116.247	223.814	114.364	-8191	255	
2157.914	1	1	0	0	0.10132	0.12496	0.17119	0.15342	0.1266	0.20594	0.21157	0.18771	0.21292	0.1509	0.34762	0.34942	0.23013	0.347	0.010877	0.29741	-1.8146	-2.6083	-2.6104	-2.2812	-2.6896	-2.3917	-2.2375	-3.0583	-2.1083	-2.4917	-3.0042	-2.025	-2.6167	-2.5187	-2.0104	-2.7875	262.128	446.614	446.340	406.991	292.126	266.543	392.081	394.947	126.624	135.531	442.303	406.652	305.297	396.196	435.559	384.782	0.0038658	0.00058052	8.5395e-05	1115.7	4.7577e-06	6.941e-06	1485.2	418.31	9.6217e-06	8.669e-07	629.26	264.5	151.43	61.313	2.4613e-06	111.6	0.00084475	0.00077016	0.00019446	1050.3	7.5995e-06	7.0856e-06	1366.8	383.69	6.5443e-06	5.9774e-06	565.74	235.31	135.56	55.851	5.0997e-06	98.731	397.105	292.854	97.948	101.514	232.442	199.594	100.948	106.137	230.742	109.933	105.399	109.843	110.436	116.452	445.684	114.093	-8191	255	
2158.010	1	1	0	0	0.27664	0.20736	0.26848	0.077354	0.17117	0.28165	0.26526	0.047938	0.11821	0.042589	0.076624	0.24687	0.17011	0.25396	0.17629	0.22916	-1.7938	-2.1229	-2.8583	-1.9625	-2.525	-2.5458	-2.1688	-2.9896	-2.4958	-2.1729	-3.1708	-2	-2.3958	-2.8208	-1.9	-3.0604	238.990	357.187	421.235	427.657	346.207	188.121	260.536	425.743	305.383	141.523	354.142	410.439	119.219	385.960	159.034	287.610	0.0040524	0.0016273	0.00036194	1104.2	1.0085e-06	7.3783e-06	1486.8	414.47	4.3489e-06	4.6308e-06	628.28	261.19	150.23	59.948	5.8726e-06	110.72	0.0005525	0.00049806	0.00012624	1023.6	5.6088e-06	5.3451e-06	1343.6	379.3	5.4068e-06	4.8787e-06	556.86	231.63	131.19	54.217	4.298e-06	97.688	403.639	172.365	224.000	100.945	122.718	132.005	101.293	106.053	142.789	249.188	105.696	110.201	111.348	116.105	318.210	114.298	-8191	255	
2158.106	1	1	0	0	0.29264	0.15957	0.17703	0.26111	0.076864	0.25591	0.27303	0.14718	0.11855	0.10493	0.23995	0.13403	0.05693	0.21991	0.32772	0.21632	-1.8479	-2.1937	-2.7438	-2.2188	-2.5312	-2.7917	-2.0042	-3.1333	-2.4562	-1.9271	-3.0875	-2.1625	-2.4083	-3.0542	-1.8229	-2.7667	149.811	166.708	129.406	101.351	216.571	168.358	372.526	404.100	381.642	300.496	129.874	365.333	223.932	436.203	97.620	347.113	0.0032021	0.0011591	0.0002323	1086.6	7.021e-06	4.8882e-06	1457.3	417.26	8.4208e-06	7.1835e-06	632.33	261.45	148.79	62.617	1.2596e-05	117.16	0.0004784	0.00043084	0.00011593	1005	5.2247e-06	5.0594e-06	1325.2	380.95	5.5633e-06	5.1654e-06	565	232.88	132.16	56.858	4.9919e-06	103.71	406.395	172.520	122.999	101.245	239.945	190.931	101.367	106.287	196.317	107.185	105.954	110.136	111.052	115.871	220.780	114.056	-8191	255	
2158.225	1	1	0	0	0.087428	0.085369	0.11466	0.29099	0.075075	0.17259	0.4356	0.17491	0.11425	0.23871	0.09297	0.29241	0.14649	0.24685	0.27905	0.35718	-2.2167	-1.9562	-2.725	-2.1688	-2.3896	-2.6833	-2.2604	-2.675	-2.4979	-2.125	-2.9875	-2.1979	-2.5875	-2.8958	-2.1646	-2.7687	391.523	307.087	379.774	383.115	301.188	359.060	296.456	406.210	409.259	126.312	428.027	102.681	446.848	432.819	380.409	370.595	0.0032797	0.00072393	0.00028594	1055.8	1.0254e-05	2.4563e-06	1438.6	413.51	1.0096e-05	7.4186e-06	655.07	263.11	148.89	65.178	1.2823e-06	122.18	0.00050854	0.00043908	0.00012642	982.49	5.288e-06	4.912e-06	1310.3	378.46	5.3638e-06	4.7646e-06	585.19	234.15	130.23	58.941	5.1915e-06	107.91	403.042	157.648	182.168	101.263	201.126	254.637	101.227	106.449	269.773	289.018	105.754	110.207	111.217	116.149	102.885	114.135	-8191	255	
2158.298	1	1	0	0	0.10154	0.17486	0.18816	0.36703	0.040154	0.21017	0.10223	0.16638	0.13676	0.34622	0.20261	0.12523	0.14795	0.15414	0.13635	0.097468	-2.3063	-1.9438	-2.6937	-2.3271	-2.0896	-2.9208	-2.0625	-2.7792	-2.6375	-2.2333	-2.9604	-2.4708	-2.1542	-2.9188	-1.8833	-2.5208	387.809	254.953	261.077	372.749	326.183	297.514	234.108	406.702	94.791	272.706	406.637	385.146	215.095	194.043	286.115	113.437	0.0038213	0.00077259	0.00028069	1060.6	3.3626e-06	1.3609e-05	1451.7	423.07	2.0452e-06	1.2653e-05	660.25	267.49	150.86	65.863	8.041e-06	121.94	0.00049015	0.00040776	0.00012537	979.91	4.5983e-06	4.1935e-06	1323.5	381.98	4.3474e-06	3.8932e-06	585.9	235.06	128.87	58.866	4.4786e-06	106.85	412.417	110.995	191.166	101.901	144.848	242.082	101.680	106.657	228.765	204.690	106.123	110.267	111.223	116.360	200.237	114.568	-8191	255	
2158.417	1	1	0	0	0.19336	0.078404	0.15332	0.22065	0.1321	0.058265	0.23843	0.1915	0.21089	0.20698	0.12063	0.27711	0.3713	0.34088	0.2671	0.16489	-2.4417	-1.7604	-2.7542	-2.6875	-1.8854	-2.9813	-2.25	-2.4313	-2.7979	-2.1396	-2.6125	-2.5312	-2.0854	-3.1396	-2.2396	-2.4771	307.947	386.389	214.279	396.656	90.118	184.944	448.746	333.369	324.411	431.526	104.541	437.050	355.605	93.485	307.855	367.125	0.0034727	0.0014738	0.00041355	1085.3	8.5444e-06	6.0905e-06	1486.7	423.36	9.1885e-06	1.3675e-05	645.12	269.69	154.64	64.601	2.7128e-06	119.87	0.0003971	0.00034525	0.00011052	995.28	3.7732e-06	3.7356e-06	1343.3	380.13	3.6654e-06	3.5488e-06	569.39	236.44	128.71	57.276	3.7341e-06	104.14	408.759	103.029	128.755	101.505	284.397	201.707	101.581	106.763	279.268	213.616	106.203	110.725	111.083	116.559	189.043	114.875	-8191	255	
2158.513	1	1	0	0	0.20645	0.19241	0.20053	0.21096	0.062008	0.11195	0.24186	0.11819	0.2794	0.1411	0.16607	0.16282	0.2169	0.18196	0.025655	0.19523	-2.3521	-2.0229	-2.6104	-2.7271	-1.8979	-2.8896	-2.4854	-2.25	-2.8521	-2.2354	-2.7396	-2.8875	-1.8729	-2.8875	-2.2521	-2.3729	251.272	173.642	393.073	437.929	343.388	304.785	354.051	445.674	426.981	428.122	402.652	133.916	117.821	436.534	166.689	441.111	0.0037788	0.0010678	0.00022393	1101.3	6.9088e-06	1.6274e-05	1491.8	424.91	8.9764e-06	3.6152e-06	652.99	261.81	149.87	63.517	4.1631e-06	118.93	0.00031163	0.00030328	8.9198e-05	997.36	2.9717e-06	3.2689e-06	1339.5	379.18	2.972e-06	3.2329e-06	572.26	228.48	123.4	56.432	3.2988e-06	103.08	405.286	155.059	165.855	101.730	307.639	224.911	101.702	106.489	214.864	187.768	105.955	110.623	111.141	116.661	218.886	114.617	-8191	255	
2158.609	1	1	0	0	0.1381	0.043825	0.095455	0.1076	0.076073	0.19287	0.23569	0.11311	0.15681	0.26447	0.27809	0.31378	0.15468	0.029518	0.09451	0.20642	-2.5292	-1.9646	-2.6458	-2.9083	-2.0271	-2.8125	-2.5312	-2.2708	-2.6854	-2.0729	-2.5771	-2.8875	-1.9396	-2.9458	-2.2479	-2.2208	224.202	194.717	138.141	419.222	193.937	273.431	274.051	260.867	134.537	379.473	441.561	404.990	376.486	345.301	420.319	415.936	0.0037997	0.001756	3.5244e-05	1097.4	6.8485e-06	7.2044e-06	1492.4	427.5	1.6217e-06	7.0478e-06	646.86	256.62	146.94	61.555	1.2121e-05	114.57	0.0002774	0.00028482	7.8499e-05	992.71	2.6132e-06	2.9914e-06	1334.9	377.71	2.4949e-06	2.9092e-06	562.83	222.18	119.91	54.256	2.6606e-06	99.066	405.987	146.188	335.774	101.581	228.157	186.321	101.061	105.995	159.291	214.795	105.707	109.919	111.396	116.450	207.897	113.974	-8191	255	
2158.706	1	1	0	0	0.17672	0.24894	0.12279	0.33845	0.20629	0.079243	0.2145	0.082144	0.16277	0.10078	0.064669	0.18982	0.078584	0.11255	0.33363	0.073659	-2.3271	-2.0646	-2.2687	-2.8396	-1.8333	-2.8083	-2.6396	-2.1458	-2.9188	-2.1771	-2.2583	-2.9667	-1.975	-2.8312	-2.7438	-2.05	149.428	236.444	121.381	115.712	356.524	382.762	93.031	375.903	391.247	345.309	396.842	339.081	417.412	138.710	315.019	433.946	0.0040337	0.00089418	0.00018894	1104.9	6.1091e-06	6.3302e-06	1489.9	422.18	1.6919e-05	6.3214e-06	647.65	255.77	147.38	62.422	3.0127e-06	116.61	0.00024357	0.0002508	6.433e-05	994.14	2.3791e-06	2.7131e-06	1330.4	373.34	2.4803e-06	2.7572e-06	561.41	222.04	119.9	55.067	2.5346e-06	100.55	403.237	128.705	185.400	101.018	218.249	262.120	100.738	106.081	206.562	193.074	105.472	109.961	110.535	116.174	256.127	114.073	-8191	255	
2158.826	1	1	0	0	0.16842	0.082072	0.21554	0.25305	0.21368	0.028598	0.10905	0.37526	0.12147	0.26313	0.16354	0.26494	0.091617	0.15218	0.09122	0.63515	-2.4271	-2.1437	-2.1604	-3.1	-1.9417	-2.5021	-2.7562	-2.0771	-2.7771	-2.3833	-2.1917	-2.7896	-1.9458	-2.6271	-2.6771	-2.2125	318.351	431.044	239.153	178.176	193.361	394.611	346.520	370.328	344.247	301.791	117.007	395.725	377.202	125.898	258.187	407.290	0.0032833	0.0014523	0.00025494	1103.3	7.5429e-06	5.535e-06	1503.4	425.08	1.2808e-05	5.2804e-06	654.42	259.56	147.6	63.886	3.9373e-06	120.04	0.00025518	0.000246	6.0681e-05	991.05	2.52e-06	2.5891e-06	1333	375.57	2.5618e-06	2.5423e-06	565.89	224.82	121.99	56.409	2.4151e-06	103.38	402.728	180.656	110.869	100.997	220.484	280.657	101.037	106.093	196.340	214.258	105.910	109.763	110.771	116.038	197.027	114.205	-8191	255	
2158.898	1	1	0	0	0.3585	0.074719	0.13322	0.34601	0.15902	0.17204	0.081151	0.060736	0.09741	0.10916	0.14557	0.32039	0.18381	0.36527	0.10613	0.39432	-2.4042	-2.3979	-1.775	-3.2979	-2.1188	-2.5104	-2.9125	-1.9792	-2.8042	-2.4167	-2.0771	-2.9146	-2.125	-2.4771	-2.8438	-2.1271	197.487	219.579	312.241	358.794	121.206	371.075	334.421	254.887	398.125	349.783	381.199	103.705	323.736	410.860	292.979	341.106	0.0038014	0.0009361	0.00014385	1100.6	5.298e-06	3.817e-06	1497.4	428.31	6.7844e-06	1.0957e-06	660.89	259.6	147.89	63.129	2.7426e-06	117.36	0.00027833	0.0002445	6.164e-05	990.83	2.7965e-06	2.5878e-06	1331.6	378.93	2.7417e-06	2.5811e-06	571.76	225.12	121.72	55.513	2.2549e-06	101.15	407.521	170.669	108.267	101.011	219.888	182.028	101.565	106.422	199.725	225.449	105.463	110.165	110.946	116.227	211.993	114.141	-8191	255	
2159.019	1	1	0	0	0.11299	0.17162	0.076918	0.2026	0.14633	0.10487	0.19982	0.20818	0.16384	0.17258	0.067759	0.11536	0.34539	0.33728	0.11232	0.090251	-2.3354	-2.6542	-1.9062	-2.8104	-1.9146	-2.2896	-3.1437	-2.1271	-2.6333	-2.5438	-1.9625	-2.9708	-2.1375	-2.2	-2.9125	-1.9458	295.998	370.929	203.814	365.037	295.806	316.186	368.291	265.905	342.691	404.442	204.893	397.404	100.497	398.917	295.367	149.171	0.0038377	0.00042285	0.00014425	1113.8	5.7214e-06	6.5961e-06	1500.9	426.14	7.5558e-06	2.6488e-06	654.16	253.79	143.85	60.965	9.9216e-06	113.67	0.00025805	0.00021529	5.326e-05	1000.1	2.4669e-06	2.185e-06	1334.5	378.06	2.3507e-06	2.1461e-06	561.82	219.32	117.72	53.28	1.8822e-06	98.004	407.560	177.713	160.455	100.886	168.090	173.403	100.966	105.791	210.308	206.195	105.323	110.223	110.979	116.192	244.105	113.949	-8191	255	
2159.115	1	1	0	0	0.14245	0.22905	0.15185	0.17995	0.015393	0.3002	0.094997	0.28757	0.083796	0.27721	0.13329	0.26761	0.3558	0.18474	0.015885	0.1955	-2.2333	-2.4833	-2.0021	-2.8604	-2.2292	-2.2021	-2.8771	-2.2687	-2.6146	-2.8979	-2.1646	-2.9771	-2.3667	-2.0875	-2.8479	-2.25	270.716	123.942	419.659	409.900	414.824	376.130	154.066	410.519	155.342	278.397	417.996	361.882	412.250	395.527	126.651	367.005	0.0033773	0.00039851	0.00018339	1124.7	4.2779e-06	2.7854e-06	1511	429.01	9.0376e-06	5.2527e-06	652.21	252.09	143.17	59.65	5.85e-06	113.3	0.00022158	0.00018293	4.5614e-05	1005.6	2.1514e-06	1.9253e-06	1338.4	378.21	2.0838e-06	1.8961e-06	562.18	217.55	116.63	52.351	1.7486e-06	97.305	404.330	131.689	228.986	101.272	190.172	202.597	101.165	106.025	207.849	285.427	105.519	110.300	111.108	116.591	222.439	113.974	-8191	255	
2159.211	1	1	0	0	0.22266	0.16533	0.12869	0.26555	0.24159	0.045182	0.26179	0.064224	0.059087	0.20197	0.2307	0.13305	0.054659	0.27414	0.25165	0.14731	-1.9979	-2.7396	-1.6938	-2.8417	-2.3729	-2.0917	-3.0021	-2.3125	-2.2333	-2.6917	-1.9771	-2.6937	-2.475	-2.0667	-2.9521	-2.1729	414.944	184.329	167.715	292.276	441.038	444.113	427.814	111.367	303.876	103.637	114.262	425.118	314.940	429.125	234.140	434.809	0.0034744	0.00037889	0.00019915	1122.8	5.9313e-06	8.0401e-06	1525	428.1	8.5209e-06	4.8875e-06	654.31	251.2	144.2	59.011	3.8598e-06	112.42	0.00020169	0.0001638	4.4383e-05	1010.8	1.9293e-06	1.6888e-06	1346	378.7	1.8719e-06	1.6999e-06	563.32	216.89	116.04	51.503	1.8197e-06	96.352	405.350	123.298	141.703	101.437	204.247	203.673	101.230	106.008	223.897	256.717	105.424	110.215	110.825	116.596	213.620	114.095	-8191	255	
2159.305	1	1	0	0	0.32011	0.14927	0.24969	0.28378	0.32413	0.24753	0.32634	0.42827	0.26463	0.13193	0.20232	0.064726	0.20702	0.058745	0.14887	0.14726	-1.9417	-2.8563	-1.8542	-2.6146	-2.4813	-2.0667	-3.1063	-2.2958	-2.2062	-2.8896	-2.1937	-2.7375	-2.7021	-1.9396	-2.7979	-2.4771	317.420	211.330	330.011	405.604	195.068	429.553	418.115	384.729	176.768	100.114	115.509	406.767	398.646	446.566	415.304	308.968	0.0033155	0.00047226	0.00031304	1147.5	4.0598e-06	3.224e-06	1537.1	425.74	6.0546e-06	3.6996e-06	641.74	250.39	144	58.703	8.5849e-06	111.6	0.00019223	0.00015465	4.6843e-05	1027.5	1.8675e-06	1.6543e-06	1360.7	376.05	1.8776e-06	1.736e-06	553.9	217.02	116.28	51.255	2.0569e-06	95.778	403.942	168.412	132.701	101.392	164.402	186.256	101.159	106.163	211.203	265.983	105.704	110.374	110.700	116.370	231.188	114.177	-8191	255	
2159.401	1	1	0	0	0.26501	0.062761	0.074639	0.23271	0.13541	0.23014	0.22841	0.38153	0.12633	0.058669	0.18733	0.30839	0.12855	0.18743	0.26979	0.20052	-1.5271	-2.9229	-1.8625	-2.5958	-2.6521	-2.0167	-2.95	-2.4396	-1.9562	-2.9646	-2.1854	-2.5333	-2.7646	-1.9875	-2.8042	-2.3688	373.240	255.860	363.040	345.958	329.130	339.155	372.915	378.037	314.619	314.749	96.067	357.890	392.270	424.735	145.607	395.632	0.0033413	0.00029129	8.3195e-05	1158.7	6.4545e-06	2.5605e-06	1544.4	429.26	9.5071e-06	6.2086e-06	643.65	253.58	146.62	58.582	8.1154e-06	110.99	0.00019384	0.00016213	5.1313e-05	1035.1	1.8338e-06	1.6854e-06	1366.5	376.9	1.7639e-06	1.7262e-06	553.99	218.5	117.07	50.941	1.9776e-06	95.134	406.506	103.142	108.763	101.153	218.900	282.217	101.157	106.279	217.664	175.073	105.529	110.208	111.375	116.026	202.627	114.390	-8191	255	
2159.498	1	1	0	0	0.21137	0.22495	0.073583	0.39073	0.08603	0.16037	0.19126	0.27619	0.20131	0.25215	0.16731	0.32664	0.075438	0.23935	0.062434	0.16508	-1.6333	-2.8937	-1.8854	-2.4437	-2.7188	-1.9688	-2.9646	-2.6083	-2.0625	-2.7479	-2.4104	-2.5375	-2.8896	-2.1083	-2.5938	-2.6896	342.574	267.161	239.650	422.740	228.739	410.952	100.965	349.450	280.936	249.130	397.803	313.336	387.754	411.246	115.391	292.387	0.0033249	0.00091063	9.2564e-05	1170.5	5.5341e-06	5.8342e-06	1553.4	431.16	5.1777e-06	5.8612e-06	649.58	253.53	145.47	58.706	5.9885e-06	112.29	0.00017381	0.00015464	4.9163e-05	1044	1.6237e-06	1.7265e-06	1377.6	379.24	1.5935e-06	1.7631e-06	558.71	218.58	116.01	51.207	1.8986e-06	96.349	401.221	200.433	152.379	101.227	235.336	181.182	100.882	105.739	239.417	237.127	105.065	109.817	110.697	116.353	188.261	113.653	-8191	255	
2159.594	1	1	0	0	0.16787	0.14262	0.22391	0.13966	0.16682	0.20903	0.18023	0.21945	0.15151	0.053439	0.17167	0.063437	0.21337	0.048662	0.060552	0.18539	-1.4438	-2.8312	-2.2354	-2.1917	-2.7708	-1.9854	-2.7	-2.7875	-2.0521	-2.9771	-2.4062	-2.4896	-2.8167	-2.1646	-2.4771	-2.975	237.346	170.543	127.216	376.981	240.375	224.913	394.273	392.322	180.152	375.579	291.449	438.094	92.429	115.642	338.556	363.831	0.0035714	0.0012122	0.00015412	1178	4.2335e-06	3.3091e-06	1562	433.48	1.0044e-05	5.9121e-06	654.93	255.59	145.32	59.571	2.541e-06	114.63	0.00017221	0.00017211	4.9169e-05	1050.1	1.6945e-06	1.9394e-06	1382.7	382.07	1.6998e-06	1.9989e-06	565.88	220.45	116.59	52.328	2.0121e-06	98.432	404.286	154.829	154.401	101.010	232.159	201.312	100.748	105.712	206.411	179.968	105.162	110.197	110.778	115.725	201.467	113.494	-8191	255	
#DATA ENDS
