BOXY.EXE: ISS Imagent and Oximeter Data Acquisition Program Version 0.80
Ascii Record File

#ACQ INFORMATION
2  Detector Channels 
16  External MUX Channels 
1  Auxiliary Channels 
5000  Waveform (CCF) Frequency (Hz)
1  Waveforms Skipped 
30  Waveforms Averaged 
1  Cycles Averaged 
16  Acquisitions per Waveform 
10.0806  Updata Rate (Hz) 

#FILE INFORMATION
TRUE -- External MUX Channel results are PARSED.
FALSE -- AC DC and Phase are NOT grouped.
TRUE -- Companion Program Settings File CREATED.
FALSE -- AC data not excluded
FALSE -- DC data not excluded
FALSE -- Phase data not excluded
FALSE -- Auxillary Chn. data not excluded
Tab delimiters

#CALIBRATION STATE
TRUE -- Waveform Calibration Values APPLIED.


#AUX CALIBRATION VALUES
Val Type	aux-1	

Term	1.0000e+00	
Factor	0.0000e+00	


#WF CALIBRATION VALUES
A = Detector Channel
Val Type	A-AC1	A-AC2	A-AC3	A-AC4	A-AC5	A-AC6	A-AC7	A-AC8	A-AC9	A-AC10	A-AC11	A-AC12	A-AC13	A-AC14	A-AC15	A-AC16	A-DC1	A-DC2	A-DC3	A-DC4	A-DC5	A-DC6	A-DC7	A-DC8	A-DC9	A-DC10	A-DC11	A-DC12	A-DC13	A-DC14	A-DC15	A-DC16	A-Ph1	A-Ph2	A-Ph3	A-Ph4	A-Ph5	A-Ph6	A-Ph7	A-Ph8	A-Ph9	A-Ph10	A-Ph11	A-Ph12	A-Ph13	A-Ph14	A-Ph15	A-Ph16	

Term	0.00000e+00	0.00000e+00	0.00000e+00	0.00000e+00	0.00000e+00	0.00000e+00	0.00000e+00	0.00000e+00	0.00000e+00	0.00000e+00	0.00000e+00	0.00000e+00	0.00000e+00	0.00000e+00	0.00000e+00	0.00000e+00	0.00000e+00	0.00000e+00	0.00000e+00	0.00000e+00	0.00000e+00	0.00000e+00	0.00000e+00	0.00000e+00	0.00000e+00	0.00000e+00	0.00000e+00	0.00000e+00	0.00000e+00	0.00000e+00	0.00000e+00	0.00000e+00	0.00000e+00	0.00000e+00	0.00000e+00	0.00000e+00	0.00000e+00	0.00000e+00	0.00000e+00	0.00000e+00	0.00000e+00	0.00000e+00	0.00000e+00	0.00000e+00	0.00000e+00	0.00000e+00	0.00000e+00	0.00000e+00	
Factor	1.00000e+00	1.00000e+00	1.00000e+00	1.00000e+00	1.00000e+00	1.00000e+00	1.00000e+00	1.00000e+00	1.00000e+00	1.00000e+00	1.00000e+00	1.00000e+00	1.00000e+00	1.00000e+00	1.00000e+00	1.00000e+00	1.00000e+00	1.00000e+00	1.00000e+00	1.00000e+00	1.00000e+00	1.00000e+00	1.00000e+00	1.00000e+00	1.00000e+00	1.00000e+00	1.00000e+00	1.00000e+00	1.00000e+00	1.00000e+00	1.00000e+00	1.00000e+00	X	X	X	X	X	X	X	X	X	X	X	X	X	X	X	X	

B = Detector Channel
Val Type	B-AC1	B-AC2	B-AC3	B-AC4	B-AC5	B-AC6	B-AC7	B-AC8	B-AC9	B-AC10	B-AC11	B-AC12	B-AC13	B-AC14	B-AC15	B-AC16	B-DC1	B-DC2	B-DC3	B-DC4	B-DC5	B-DC6	B-DC7	B-DC8	B-DC9	B-DC10	B-DC11	B-DC12	B-DC13	B-DC14	B-DC15	B-DC16	B-Ph1	B-Ph2	B-Ph3	B-Ph4	B-Ph5	B-Ph6	B-Ph7	B-Ph8	B-Ph9	B-Ph10	B-Ph11	B-Ph12	B-Ph13	B-Ph14	B-Ph15	B-Ph16	

Term	0.00000e+00	0.00000e+00	0.00000e+00	0.00000e+00	0.00000e+00	0.00000e+00	0.00000e+00	0.00000e+00	0.00000e+00	0.00000e+00	0.00000e+00	0.00000e+00	0.00000e+00	0.00000e+00	0.00000e+00	0.00000e+00	0.00000e+00	0.00000e+00	0.00000e+00	0.00000e+00	0.00000e+00	0.00000e+00	0.00000e+00	0.00000e+00	0.00000e+00	0.00000e+00	0.00000e+00	0.00000e+00	0.00000e+00	0.00000e+00	0.00000e+00	0.00000e+00	-1.96768e+02	-1.29699e+02	-1.34807e+02	-1.86339e+02	-7.54990e+01	-7.41266e+01	-1.58506e+02	-1.62015e+02	-8.93850e+01	-6.60437e+01	-1.71896e+02	-1.71132e+02	-1.83122e+02	-1.77420e+02	-7.77319e+01	-1.49721e+02	
Factor	4.32825e-05	1.44022e-04	4.41656e-05	2.97642e-01	1.53383e-06	1.64817e-06	1.64269e-01	5.16134e-02	1.72359e-06	1.70877e-06	8.37101e-02	2.83187e-02	3.98013e-02	9.20130e-03	1.82911e-06	1.31369e-02	6.94130e-06	8.10315e-06	2.27153e-06	1.56454e-01	8.77933e-08	8.93870e-08	8.17851e-02	2.74120e-02	8.57484e-08	8.94539e-08	4.31033e-02	1.45842e-02	2.12693e-02	4.93711e-03	8.74364e-08	6.82897e-03	X	X	X	X	X	X	X	X	X	X	X	X	X	X	X	X	



#DISTANCE SETTINGS
A = Detector Channel
A-1	A-2	A-3	A-4	A-5	A-6	A-7	A-8	A-9	A-10	A-11	A-12	A-13	A-14	A-15	A-16	

2.5000e+00	3.0000e+00	2.5000e+00	3.0000e+00	2.0000e+00	3.0000e+00	1.5000e+00	3.0000e+00	3.0000e+00	3.0000e+00	3.0000e+00	3.0000e+00	3.0000e+00	3.0000e+00	1.5000e+00	3.0000e+00	

B = Detector Channel
B-1	B-2	B-3	B-4	B-5	B-6	B-7	B-8	B-9	B-10	B-11	B-12	B-13	B-14	B-15	B-16	

1.0000e+01	1.0000e+01	1.0000e+01	1.4400e+00	1.0000e+01	1.0000e+01	1.5100e+00	1.9400e+00	1.0000e+01	1.0000e+01	1.9900e+00	2.4900e+00	2.4100e+00	2.9000e+00	1.0000e+01	2.9800e+00	




#DATA BEGINS
time	group	step	mark	flag	A-AC1	A-AC2	A-AC3	A-AC4	A-AC5	A-AC6	A-AC7	A-AC8	A-AC9	A-AC10	A-AC11	A-AC12	A-AC13	A-AC14	A-AC15	A-AC16	A-DC1	A-DC2	A-DC3	A-DC4	A-DC5	A-DC6	A-DC7	A-DC8	A-DC9	A-DC10	A-DC11	A-DC12	A-DC13	A-DC14	A-DC15	A-DC16	A-Ph1	A-Ph2	A-Ph3	A-Ph4	A-Ph5	A-Ph6	A-Ph7	A-Ph8	A-Ph9	A-Ph10	A-Ph11	A-Ph12	A-Ph13	A-Ph14	A-Ph15	A-Ph16	B-AC1	B-AC2	B-AC3	B-AC4	B-AC5	B-AC6	B-AC7	B-AC8	B-AC9	B-AC10	B-AC11	B-AC12	B-AC13	B-AC14	B-AC15	B-AC16	B-DC1	B-DC2	B-DC3	B-DC4	B-DC5	B-DC6	B-DC7	B-DC8	B-DC9	B-DC10	B-DC11	B-DC12	B-DC13	B-DC14	B-DC15	B-DC16	B-Ph1	B-Ph2	B-Ph3	B-Ph4	B-Ph5	B-Ph6	B-Ph7	B-Ph8	B-Ph9	B-Ph10	B-Ph11	B-Ph12	B-Ph13	B-Ph14	B-Ph15	B-Ph16	aux-1	digaux	

21575.805	1	1	0	768	0.11373	0.16753	0.14301	0.34912	0.13031	0.1837	0.29894	0.16855	0.18718	0.1128	0.37116	0.18021	0.18984	0.048929	0.12924	0.12427	-2.1667	-2.7188	-3.1333	-2.3979	-3.1667	-2.8333	-2.5312	-3.3083	-2.6562	-2.8792	-3.2687	-2.4708	-3.2292	-3.0396	-2.4521	-3.1542	326.054	424.001	326.142	409.812	378.335	350.632	407.357	338.323	206.712	382.723	428.859	101.346	433.070	413.728	137.452	332.862	0.0013205	0.00026883	0.00029537	1892.5	2.4065e-06	6.2645e-06	1685.4	555.68	4.192e-06	6.2253e-06	528.24	164.98	175.19	60.616	7.9146e-06	62.385	0.00097884	0.00094527	0.00026382	1596.5	1.0206e-05	1.0195e-05	1422.8	468.22	1.0534e-05	9.9872e-06	446.6	139.75	148.77	51.91	1.0817e-05	53.542	110.366	130.784	129.659	99.403	240.205	359.130	98.621	104.973	154.980	315.309	103.285	107.890	110.081	115.377	225.705	111.794	-8191	255	
21575.900	1	1	0	0	0.038333	0.1816	0.097001	0.21038	0.096203	0.087555	0.39143	0.19813	0.23682	0.19471	0.28543	0.37207	0.11261	0.26255	0.10298	0.24137	-2.1729	-2.7729	-3.0625	-2.5729	-3.1229	-3.0604	-2.675	-3.3375	-2.8167	-2.6354	-3.2562	-2.6833	-3.0312	-3.0771	-2.525	-3.1354	382.453	375.636	180.188	354.498	294.044	369.092	410.275	401.850	148.251	109.464	374.386	393.360	425.370	409.565	139.862	429.913	0.0010942	0.0013022	0.00019695	1892.1	6.5803e-06	1.386e-05	1690.8	557.16	1.1536e-05	1.0957e-05	527.44	163.89	179.22	61.161	1.4638e-05	62.846	0.0009264	0.00096362	0.00027436	1594.4	1.0489e-05	1.0094e-05	1424.1	469.54	1.0287e-05	1.0428e-05	447.08	139.66	150.49	52.146	1.0904e-05	53.605	97.727	205.256	187.645	99.494	230.561	245.448	99.024	105.124	191.165	276.751	103.383	107.585	109.967	115.335	250.979	111.477	-8191	255	
21575.996	1	1	0	0	0.015692	0.18233	0.23137	0.30615	0.12044	0.07038	0.034097	0.3042	0.13233	0.097337	0.29676	0.27311	0.064447	0.37128	0.35064	0.15215	-2.2625	-2.8187	-3.1396	-2.5979	-2.8354	-3.1292	-2.7	-3.4729	-2.8958	-2.6625	-3.2979	-2.6312	-2.8354	-3.2062	-2.5083	-3.1521	360.587	237.997	184.568	371.715	252.934	117.217	126.152	425.468	370.754	359.690	442.177	417.668	422.333	443.838	168.705	374.644	0.0011368	0.00022062	0.00013806	1891.8	7.4909e-06	5.2067e-06	1678	552.24	4.3618e-06	1.1103e-05	518.21	163.13	176.02	60.387	3.7435e-06	61.282	0.00092039	0.00097099	0.00027713	1589.6	9.9265e-06	1.0285e-05	1414.8	467.38	1.0131e-05	1.0299e-05	440.22	138.45	148.2	51.848	1.0801e-05	52.522	99.355	162.022	179.051	99.388	126.371	179.950	98.595	105.239	299.570	253.028	103.405	107.342	109.953	114.957	182.832	111.774	-8191	255	
21576.094	1	1	0	0	0.17216	0.19905	0.061109	0.21836	0.18872	0.21445	0.21649	0.34979	0.23687	0.169	0.29257	0.21704	0.34143	0.16384	0.19831	0.04496	-2.55	-2.5792	-3.2146	-2.5667	-2.7021	-3.1354	-2.7667	-3.3479	-2.9083	-2.4417	-3.3729	-2.8125	-2.6688	-3.2833	-2.4188	-3.1521	277.441	164.934	159.966	321.368	282.083	262.911	379.606	363.175	135.051	381.629	406.831	360.945	371.819	446.685	152.959	254.211	0.0016328	0.0004248	0.00034477	1889.8	1.0453e-05	5.1331e-06	1677.5	553.27	1.5211e-05	7.0641e-06	519.64	164.91	174.9	60.155	1.2185e-05	60.75	0.0009296	0.00093044	0.00028009	1588.1	1.02e-05	1.0329e-05	1411.3	465.92	1.0336e-05	1.0966e-05	440.97	138.28	148.26	51.496	1.0405e-05	52.19	108.290	185.762	161.168	99.674	272.869	276.680	98.874	105.653	224.084	221.837	103.743	107.584	109.416	115.129	287.960	111.446	-8191	255	
21576.189	1	1	0	0	0.097944	0.22117	0.071666	0.21279	0.053527	0.27841	0.21269	0.45828	0.27061	0.12536	0.18062	0.31212	0.17725	0.20895	0.15525	0.20638	-2.6354	-2.4271	-3.2396	-2.7667	-2.8271	-3.4313	-2.8542	-3.175	-2.9188	-2.4188	-3.2687	-2.9208	-2.6604	-3.2708	-2.3688	-2.9646	200.963	264.922	233.574	357.039	90.619	187.772	103.178	413.511	306.287	193.150	441.788	431.838	301.790	126.286	325.992	381.689	0.0011074	0.00029525	0.00023529	1867.9	1.3967e-05	8.9571e-06	1666.8	549.61	6.6454e-06	3.2802e-06	516.91	163.25	174.25	59.283	9.1304e-06	60.251	0.00092731	0.00096289	0.00026852	1580.5	1.0644e-05	1.0653e-05	1407.3	464.8	1.0451e-05	1.0633e-05	438.9	137.55	147.73	50.925	1.031e-05	51.923	97.154	247.962	200.681	99.165	225.541	221.460	98.619	105.443	149.870	285.554	103.033	107.535	110.030	115.367	174.564	111.727	-8191	255	
21576.285	1	1	0	0	0.072124	0.090012	0.10993	0.062987	0.086187	0.08419	0.40203	0.098714	0.095199	0.18202	0.12166	0.13497	0.13619	0.18421	0.21498	0.27083	-2.7479	-2.5083	-3.2729	-3.0229	-2.5542	-3.175	-2.6875	-3.025	-3.2562	-2.4	-3.1917	-2.8417	-2.5021	-3.3417	-2.4875	-2.9583	343.522	225.311	100.938	108.881	426.491	113.713	394.470	134.819	374.513	311.782	376.259	444.503	320.356	365.592	166.790	357.620	0.0012649	0.001064	0.00020531	1885.2	7.3805e-06	7.6766e-06	1681.9	549.69	1.7363e-05	1.3498e-05	522.77	163.34	173.69	60.336	1.2635e-05	61.146	0.00095187	0.00099061	0.00026482	1587.3	1.0481e-05	1.0903e-05	1412.5	465.2	1.0741e-05	1.0902e-05	442.92	138.22	148.11	51.528	1.0289e-05	52.61	106.038	192.528	173.346	99.639	236.694	243.277	98.718	105.228	238.912	266.595	103.285	107.381	110.064	115.821	227.205	111.901	-8191	255	
21576.406	1	1	0	0	0.0133	0.07244	0.39282	0.16191	0.048558	0.21228	0.07601	0.15995	0.0633	0.080899	0.20741	0.14717	0.30015	0.31223	0.17025	0.1938	-2.6833	-2.5187	-3.1875	-3.0396	-2.5625	-3.2604	-2.875	-2.8229	-3.3333	-2.45	-3.1875	-3.1729	-2.5771	-3.3729	-2.7979	-2.7771	132.694	295.051	349.466	409.049	409.470	304.132	400.177	446.718	203.395	120.848	389.509	393.169	423.461	382.764	109.103	177.930	0.0017058	0.00039757	0.00028315	1881.2	1.2595e-05	1.2674e-05	1672.2	552.61	1.5376e-05	3.4737e-06	522.32	162.61	175.43	60.83	7.5952e-06	61.527	0.00098027	0.00094925	0.00025399	1586.1	1.0884e-05	1.0731e-05	1411.5	467.33	1.0606e-05	1.035e-05	443.13	138.06	149.42	52.14	1.0139e-05	52.659	107.798	437.486	167.577	99.449	229.447	239.071	98.611	105.424	237.148	294.087	103.667	107.617	109.534	115.392	235.654	111.889	-8191	255	
21576.504	1	1	0	0	0.10641	0.14775	0.20678	0.1345	0.11987	0.1315	0.15752	0.26899	0.11368	0.13146	0.39667	0.27872	0.11996	0.13585	0.30632	0.11889	-2.7896	-2.5208	-2.9146	-3.1729	-2.3917	-3.1292	-2.9021	-2.8125	-3.2812	-2.6917	-3.1521	-3.3021	-2.4562	-3.4062	-2.6958	-2.525	402.368	172.645	432.295	305.025	199.936	356.082	374.500	413.614	416.746	389.505	401.982	400.690	170.904	97.692	295.852	228.522	0.0012176	0.00080082	0.00032145	1865.7	8.9535e-06	6.7456e-06	1661.4	551.95	1.1793e-05	1.0498e-05	514.81	163.32	176.98	60.477	1.3187e-05	61.464	0.00095878	0.00099286	0.00025974	1579.7	1.0857e-05	1.0787e-05	1407.9	467.37	1.0679e-05	1.0755e-05	438.88	138.51	149.59	51.91	1.0462e-05	52.614	93.162	140.030	138.296	99.792	228.096	228.106	98.610	105.362	225.921	254.917	103.341	107.394	109.544	115.435	196.981	111.210	-8191	255	
21576.600	1	1	0	0	0.13611	0.1773	0.063708	0.11329	0.10183	0.19106	0.35124	0.15107	0.14226	0.28296	0.094398	0.36408	0.075599	0.035896	0.043345	0.2986	-2.7938	-2.6708	-2.9458	-3.2396	-2.6167	-3.0375	-3.1063	-2.7958	-3.3187	-2.7	-3.0104	-3.2188	-2.5187	-3.4417	-3.0854	-2.6208	414.929	388.684	389.804	415.238	193.016	102.934	392.111	383.643	377.704	345.053	94.887	432.931	304.902	135.460	410.625	355.857	0.0010346	0.00012856	8.0868e-05	1876.7	9.2127e-07	1.9829e-06	1667.4	548.77	6.6546e-06	9.0235e-06	518.71	162.64	175.39	60.191	1.2337e-05	61.211	0.00094244	0.00092879	0.00025407	1579.5	1.0436e-05	1.0186e-05	1407.1	466.38	1.0308e-05	1.0488e-05	440.2	138.25	148.73	51.802	1.0247e-05	52.637	93.479	363.668	96.283	99.577	285.596	438.723	98.602	105.479	169.084	212.943	103.807	107.687	109.830	115.202	241.561	111.259	-8191	255	
21576.695	1	1	0	0	0.12834	0.048119	0.25737	0.065904	0.093947	0.41055	0.30261	0.057248	0.074831	0.16325	0.13685	0.25622	0.12294	0.24332	0.06074	0.16174	-2.8146	-2.7875	-2.7687	-3.3896	-2.4396	-3.1354	-3.2042	-2.625	-3.1604	-2.6167	-2.8896	-3.4208	-2.5875	-2.9896	-3.175	-2.5146	147.696	171.232	301.279	431.802	172.915	431.690	374.904	400.963	145.726	428.908	412.525	92.318	124.031	411.676	176.575	277.082	0.00097609	0.0013961	0.00011054	1881.4	4.5699e-06	8.5102e-06	1661.5	552.27	2.1847e-05	7.9204e-06	515.61	162.52	174.19	60.339	3.4136e-06	61.477	0.00094195	0.00094159	0.00027184	1581.8	1.0399e-05	9.9287e-06	1406.3	466.95	1.049e-05	9.9981e-06	441.22	138.41	148.2	51.825	1.0327e-05	52.772	103.399	142.838	186.397	99.661	257.171	296.363	98.718	105.423	242.939	208.177	103.625	107.837	110.328	115.643	201.014	111.164	-8191	255	
21576.789	1	1	0	0	0.087812	0.0098532	0.080998	0.078236	0.0085744	0.18193	0.080462	0.35573	0.36001	0.19634	0.043328	0.15837	0.25359	0.080998	0.033641	0.071674	-2.7479	-2.6583	-2.7062	-3.325	-2.6063	-2.8625	-3.4833	-2.4625	-3.2875	-3.0083	-2.6667	-3.5042	-2.5687	-2.8896	-3.1312	-2.4417	189.484	398.116	145.638	401.487	231.219	394.569	312.059	382.485	262.065	365.575	380.940	398.847	111.541	409.492	93.685	284.177	0.0011504	0.00072516	4.3926e-05	1865.5	9.6954e-06	6.2758e-06	1671.1	548.98	1.3257e-05	1.0848e-05	519.76	162.16	173.68	59.609	8.4037e-06	61.193	0.00092147	0.00095735	0.00027174	1579.9	1.0384e-05	1.0258e-05	1409.4	464.2	1.0121e-05	1.004e-05	440.34	137.69	147.55	51.405	1.0416e-05	52.288	111.180	104.577	183.931	99.795	243.622	230.103	98.728	104.995	207.499	224.110	103.394	107.554	110.046	115.467	227.262	111.662	-8191	255	
21576.885	1	1	0	0	0.21427	0.16891	0.11367	0.17683	0.3371	0.22572	0.083096	0.17257	0.24047	0.024156	0.12974	0.077658	0.31738	0.19304	0.16877	0.11315	-2.6	-2.8583	-2.6354	-3.1042	-2.6333	-2.8771	-3.5604	-2.5583	-3.0854	-2.7562	-2.5687	-3.2146	-2.6667	-2.6437	-3.3875	-2.5208	355.683	202.753	180.604	392.110	259.639	285.286	354.038	401.302	379.783	309.942	173.081	344.815	423.379	364.896	250.462	334.628	0.0014103	0.00090586	0.00038348	1876.7	9.4115e-06	3.6745e-06	1661.6	545.74	1.2979e-05	8.1389e-06	508.95	160.84	172.17	59.424	3.2079e-06	59.838	0.00093709	0.0009782	0.00027191	1584	1.0738e-05	1.0817e-05	1399.7	462.75	1.0332e-05	1.0771e-05	435.06	136.64	147.12	51.093	1.1449e-05	51.501	109.897	180.080	128.858	99.576	205.616	211.693	98.494	105.362	218.012	305.989	103.598	107.960	109.493	115.671	225.667	111.489	-8191	255	
21577.006	1	1	0	0	0.099107	0.032989	0.19411	0.21521	0.063644	0.011758	0.33122	0.4037	0.12929	0.172	0.059514	0.02856	0.28572	0.17975	0.15958	0.14009	-2.5021	-2.8	-2.3187	-3.1729	-2.8063	-2.6521	-3.3771	-2.6229	-2.8438	-3.0875	-2.3187	-3.075	-2.7083	-2.5687	-3.2896	-2.5021	385.803	200.719	245.185	157.735	342.887	236.523	403.377	404.709	359.768	410.263	288.488	391.199	435.074	420.037	105.541	227.188	0.0010914	0.0017284	0.00027463	1869.9	9.5998e-06	1.0936e-05	1653.3	547.24	6.6084e-06	6.2595e-06	514.84	159.74	173.33	59.544	9.9561e-06	60.504	0.00092509	0.00098875	0.00028823	1579.1	1.0522e-05	1.1336e-05	1397.2	462.57	1.0089e-05	1.0857e-05	439.24	136.63	147.29	51.375	1.0814e-05	51.87	98.049	181.454	211.184	99.789	217.031	287.530	98.623	105.021	219.548	277.372	103.434	107.617	109.575	115.478	230.196	111.957	-8191	255	
21577.102	1	1	0	0	0.16585	0.19417	0.089622	0.064029	0.21104	0.33553	0.34104	0.38587	0.10479	0.26699	0.32409	0.18245	0.16566	0.28056	0.18696	0.075543	-2.3604	-2.9958	-2.2354	-3.1646	-2.7104	-2.5604	-3.3229	-2.8354	-2.775	-3.0208	-2.6229	-3.1208	-2.8583	-2.5938	-3.1146	-2.6562	338.560	317.746	170.656	100.947	350.358	316.666	375.934	382.233	412.750	168.925	444.843	144.836	121.232	428.524	423.466	135.004	0.001297	0.00064512	0.00044358	1867.2	2.8757e-06	1.3443e-05	1658.8	549.94	1.1183e-05	9.0462e-06	515.63	163.05	173.15	60.365	5.6447e-06	61.386	0.00096685	0.0010295	0.00027818	1576.5	1.0767e-05	1.1097e-05	1401.4	466.03	1.08e-05	1.0664e-05	438.51	138.03	148.1	51.792	1.0246e-05	52.528	104.271	120.227	147.979	99.655	254.193	197.422	98.655	105.154	147.840	196.912	103.147	107.902	109.838	115.374	202.437	111.650	-8191	255	
21577.197	1	1	0	0	0.099141	0.3639	0.27381	0.16142	0.13605	0.33537	0.27245	0.25024	0.014391	0.10739	0.33069	0.1461	0.035912	0.11027	0.11284	0.11972	-2.2	-3.1813	-2.4292	-2.9521	-2.8208	-2.3729	-3.0417	-2.7062	-2.5042	-3.2229	-2.475	-3.0292	-3.1083	-2.5292	-3.1771	-2.6396	236.692	406.818	93.499	439.954	159.805	290.650	368.537	352.642	313.850	145.946	94.249	431.404	336.555	112.507	156.429	216.272	0.0012175	0.00050021	0.00046681	1870.1	8.3743e-06	8.7991e-06	1651.1	547.91	1.0926e-05	8.2864e-06	518.06	162.67	172.9	59.79	5.8503e-06	60.632	0.00099084	0.00093826	0.00027601	1580	1.0767e-05	1.0795e-05	1400.4	465.03	1.1118e-05	1.0794e-05	439.71	137.88	148.12	51.434	1.0006e-05	52.125	108.270	262.245	166.288	99.440	234.084	209.552	98.698	105.163	236.894	236.577	103.667	107.779	109.656	115.625	168.639	111.390	-8191	255	
21577.295	1	1	0	0	0.24415	0.22268	0.089694	0.30492	0.14779	0.14075	0.27679	0.19873	0.34068	0.23155	0.22813	0.27404	0.31911	0.21736	0.14608	0.20654	-2.1979	-3.1854	-2.4979	-2.8479	-3.0271	-2.4458	-3.2521	-3.0396	-2.5646	-3.0271	-2.5521	-2.8187	-3.0875	-2.3896	-3.2042	-2.8958	271.674	137.719	224.777	436.310	113.429	238.320	375.801	433.221	373.631	189.176	414.603	408.601	413.529	445.439	431.448	353.705	0.001326	0.0015946	6.8587e-05	1855.8	1.2752e-05	7.6948e-06	1651.5	547.05	8.3848e-06	3.3421e-06	513.25	160.45	172.23	59.562	1.1595e-05	59.355	0.0010091	0.00098295	0.00026271	1573.8	1.0571e-05	1.0742e-05	1396.5	463.44	1.1045e-05	1.0787e-05	436.18	136.43	147.76	51.146	1.0774e-05	51.409	94.231	169.862	164.993	99.708	207.432	297.918	98.808	104.918	177.253	308.670	103.101	107.564	109.729	115.316	226.037	111.865	-8191	255	
21577.391	1	1	0	0	0.11734	0.22988	0.13541	0.2138	0.052955	0.10395	0.20769	0.52056	0.21187	0.248	0.17093	0.27106	0.12002	0.21342	0.19144	0.10034	-1.975	-3.0625	-2.4854	-2.6667	-2.9979	-2.3458	-3.0729	-3.0938	-2.2229	-3.0125	-2.7375	-2.6375	-3.1729	-2.525	-2.9646	-2.9	209.549	393.158	190.898	426.078	114.403	385.224	389.964	364.829	444.611	242.612	406.682	404.695	368.314	396.069	155.786	302.420	0.001273	0.0010495	7.4172e-05	1851.8	9.5499e-06	8.7367e-06	1651.6	546.79	1.0051e-05	8.264e-06	513.19	158.29	172.88	59.104	5.9074e-06	59.825	0.00099265	0.00098038	0.0002616	1572.6	1.1116e-05	1.0839e-05	1396.9	462.03	1.0776e-05	1.085e-05	435.78	135.84	147.53	51.065	1.0428e-05	51.399	106.391	209.512	187.033	99.634	277.630	332.196	99.049	105.208	219.665	237.345	103.503	107.785	109.920	115.567	103.335	111.436	-8191	255	
21577.486	1	1	0	0	0.18825	0.23772	0.24386	0.31013	0.12368	0.18373	0.23843	0.29402	0.092791	0.28983	0.26929	0.39247	0.12743	0.083815	0.12286	0.039006	-1.8521	-3.0896	-2.5771	-2.8083	-3.3104	-2.425	-3.1146	-3.0812	-2.4396	-3.1229	-2.7417	-2.6479	-3.1854	-2.2333	-2.7333	-3.1021	417.308	346.523	382.429	421.805	403.363	223.192	392.451	425.210	290.264	273.853	382.218	361.020	106.248	413.113	280.672	247.735	0.0011749	0.00048151	0.00025068	1864.7	3.3635e-06	7.421e-06	1643.5	545.94	7.4578e-06	1.025e-05	512.74	160	172.5	59.129	1.457e-05	59.485	0.00098457	0.00093814	0.00025935	1574.7	1.1067e-05	1.0429e-05	1393.7	463.21	1.0907e-05	1.0407e-05	435.68	136.13	147.22	50.758	1.054e-05	51.279	101.087	151.619	204.152	99.700	176.285	168.528	98.767	105.240	276.780	267.914	103.382	107.841	109.767	115.529	277.863	112.050	-8191	255	
21577.582	1	1	0	0	0.12629	0.52766	0.1622	0.25692	0.05497	0.21269	0.42355	0.20867	0.20157	0.15863	0.31702	0.407	0.11263	0.27369	0.28157	0.1044	-1.8083	-3.1937	-2.7208	-2.5312	-3.0917	-2.4021	-3.0292	-3.3208	-2.3542	-3.1063	-3.0458	-2.5563	-3.2375	-2.5563	-2.7604	-3.1083	239.119	251.148	251.686	410.034	160.350	207.267	399.748	348.856	181.172	311.851	93.945	372.237	115.319	114.610	305.663	118.809	0.001261	0.000224	3.6272e-05	1861.5	1.5563e-06	1.3033e-05	1648	542.48	1.6554e-05	5.2206e-06	507.8	158.49	171.6	57.939	1.6536e-05	58.029	0.0009956	0.00095394	0.00027138	1576.5	1.0477e-05	1.0427e-05	1395.8	460.53	1.0609e-05	1.036e-05	432.87	134.78	145.6	50.008	1.0384e-05	50.231	89.540	426.588	260.375	99.951	174.013	244.332	98.697	105.267	240.824	214.919	103.686	107.728	110.328	115.613	259.714	111.818	-8191	255	
21577.680	1	1	0	0	0.27836	0.15604	0.098629	0.18241	0.085659	0.055998	0.14344	0.17845	0.099554	0.020769	0.10519	0.22129	0.28263	0.16156	0.36645	0.12306	-2.0208	-2.9667	-3.0396	-2.5917	-3.1854	-2.7812	-2.8167	-3.2583	-2.4396	-3.0729	-3.0312	-2.6396	-3.1583	-2.7188	-2.4646	-3.3729	215.555	269.892	150.095	412.310	156.676	110.569	285.902	428.671	132.720	140.895	161.788	418.714	338.773	90.293	104.890	413.089	0.001238	0.0013167	0.00029176	1863	7.8647e-06	1.1685e-05	1649.9	538.33	1.3285e-05	5.3403e-06	501.45	155.47	169.12	56.78	1.6208e-05	56.839	0.00092462	0.00092254	0.00027138	1575.5	1.0167e-05	1.0507e-05	1392.4	456.57	1.0187e-05	9.9985e-06	428.04	132.23	143.65	48.973	1.0341e-05	49.387	99.157	174.201	151.502	99.662	246.297	230.280	98.598	105.433	192.302	223.075	103.542	107.578	110.141	115.598	180.447	111.913	-8191	255	
21577.775	1	1	0	0	0.035003	0.12921	0.070439	0.23801	0.17372	0.079772	0.31781	0.20934	0.16253	0.2295	0.23261	0.070777	0.24468	0.21255	0.060966	0.30334	-2.0292	-2.9583	-2.9813	-2.4458	-3.2625	-2.6	-2.8187	-3.4729	-2.4625	-2.9979	-3.1229	-2.5542	-3.2271	-2.9208	-2.4708	-3.2583	345.339	164.058	368.627	120.043	368.764	325.806	362.243	411.777	341.971	355.011	397.635	371.805	343.792	89.251	217.064	372.442	0.0013182	0.00036845	0.00025648	1855.8	7.6205e-06	4.0243e-06	1631.8	535.58	1.3017e-05	1.9051e-05	500.71	154.93	167.87	56.68	7.8444e-06	57.133	0.00090802	0.00090938	0.00026269	1563.4	9.9739e-06	1.0223e-05	1383.5	453.83	9.8973e-06	1.0169e-05	426.66	131.81	142.66	48.725	1.0605e-05	49.027	445.984	211.395	218.576	99.673	238.188	256.491	98.822	105.307	200.455	259.878	103.387	107.616	110.170	115.539	222.916	111.767	-8191	255	
21577.895	1	1	0	0	0.1723	0.10759	0.1541	0.31094	0.052561	0.077371	0.16074	0.23516	0.33349	0.043554	0.12606	0.14118	0.16735	0.14152	0.138	0.14256	-2.1292	-2.7125	-2.9729	-2.6625	-3.0667	-2.7729	-2.8625	-3.3958	-2.625	-2.5375	-3.3229	-2.5604	-3.0208	-2.9979	-2.3729	-3.3354	289.426	376.528	347.662	407.400	323.478	141.564	412.090	415.375	441.144	267.351	432.524	117.485	424.320	433.658	419.703	163.299	0.0009987	0.00069518	0.00013286	1847.3	1.0578e-05	9.7683e-06	1626.8	533.51	1.1651e-05	8.71e-06	500.03	155.08	167.39	56.435	6.411e-06	57.106	0.00090471	0.00097656	0.00026177	1562.2	9.9682e-06	1.0534e-05	1382.6	453.93	9.8907e-06	1.0077e-05	426.03	131.46	142.66	48.61	1.0234e-05	49.022	104.003	156.436	138.347	99.435	219.453	186.828	98.945	105.059	215.880	186.597	103.321	107.580	110.297	115.566	240.268	111.931	-8191	255	
21577.969	1	1	0	0	0.13272	0.16631	0.079354	0.16002	0.18743	0.034508	0.37896	0.30041	0.061298	0.13412	0.27789	0.51706	0.016152	0.22959	0.25927	0.072289	-2.1604	-2.5854	-3.1979	-2.6854	-2.8812	-2.8187	-2.6813	-3.2271	-2.5563	-2.6042	-3.3208	-2.6417	-2.8979	-2.9521	-2.3458	-3.1625	123.061	268.530	422.701	439.730	347.340	128.890	385.440	446.799	106.179	168.284	337.430	372.590	421.450	396.640	403.231	108.938	0.0012757	0.00039954	0.00031653	1850.2	7.5411e-06	1.4336e-05	1640.5	534.96	8.9631e-06	1.2783e-05	504.28	154.02	168.15	56.651	1.3218e-05	57.348	0.00091024	0.00098391	0.00025956	1562.4	9.834e-06	1.0299e-05	1387.1	453.74	1.0126e-05	1.0589e-05	428.78	131.51	142.8	48.697	1.0029e-05	49.162	102.488	124.642	185.629	99.570	168.205	248.044	98.624	105.199	215.344	235.197	103.393	107.796	109.889	115.411	236.484	112.257	-8191	255	
21578.086	1	1	0	0	0.27726	0.12296	0.25303	0.42321	0.35671	0.2727	0.28574	0.33071	0.080378	0.21257	0.29057	0.25616	0.34307	0.42623	0.23235	0.016993	-2.2562	-2.6354	-2.9646	-2.5938	-2.8792	-2.9896	-2.5646	-3.3083	-2.6521	-2.4729	-3.4583	-2.6021	-2.9271	-3.2917	-2.3854	-3.35	281.708	412.722	137.571	421.082	300.199	335.008	394.295	445.258	113.661	342.412	394.456	375.201	119.259	409.808	120.969	288.031	0.0011313	0.00060079	0.00012243	1857.8	1.0244e-05	1.0521e-05	1639.2	539.45	1.3024e-05	1.7593e-05	506.75	156.56	169.64	57.25	5.2737e-06	58.104	0.00093131	0.0009651	0.00025783	1564.7	1.0468e-05	1.0448e-05	1389.3	455.86	1.0421e-05	1.0368e-05	430.61	133.26	144.53	49.221	1.0313e-05	49.573	444.332	195.304	217.943	99.444	209.081	246.495	98.983	105.375	236.334	227.998	103.732	107.930	110.116	115.729	175.191	111.242	-8191	255	
21578.184	1	1	0	0	0.20283	0.16363	0.091809	0.094898	0.27216	0.058115	0.36461	0.17271	0.23531	0.10062	0.16194	0.29425	0.30129	0.35754	0.25041	0.40691	-2.5021	-2.5229	-3.2979	-2.7313	-2.8146	-3.0938	-2.5062	-3.2083	-2.9375	-2.4188	-3.1875	-2.725	-2.6771	-3.2354	-2.4104	-3.075	428.891	174.264	437.745	366.630	138.658	184.420	95.534	445.096	151.151	371.970	385.537	350.359	145.543	422.222	413.261	92.203	0.0011545	0.00045428	0.00031172	1876.1	6.4994e-06	1.3707e-06	1637.2	531.55	9.3343e-06	1.1316e-05	504.22	156.54	169.64	57.15	1.0683e-05	58.325	0.00095223	0.00095794	0.0002505	1572.2	1.0644e-05	1.0458e-05	1385.2	454.99	1.031e-05	1.024e-05	429.26	132.42	144.2	49.256	9.7355e-06	49.826	101.170	204.909	174.657	99.530	183.616	172.784	98.719	105.520	219.719	226.615	103.541	107.925	110.062	116.100	226.375	111.863	-8191	255	
21578.279	1	1	0	0	0.035496	0.089104	0.20594	0.32989	0.12403	0.14151	0.31731	0.2497	0.21302	0.16195	0.08067	0.18869	0.50618	0.32551	0.3905	0.13891	-2.6437	-2.4021	-3.0771	-2.6167	-2.7292	-3.1708	-2.5271	-2.9188	-3.1729	-2.4667	-3.1521	-2.8104	-2.5583	-3.3083	-2.3792	-2.8979	377.346	429.142	377.425	383.445	388.259	359.729	398.481	428.597	419.336	152.174	347.092	127.667	400.645	399.588	276.581	313.902	0.0011617	0.0011642	0.00014612	1856.8	8.1746e-06	6.3074e-06	1644.3	538.42	1.0706e-05	1.245e-06	503.78	157.26	168.33	57.211	4.8956e-06	56.827	0.00092374	0.00093782	0.0002488	1567.8	1.0283e-05	1.0329e-05	1383.8	456.17	1.0123e-05	1.0008e-05	428.32	132.6	143.08	48.982	1.0022e-05	49.164	104.812	156.373	129.736	99.375	175.762	201.097	98.760	105.604	196.963	347.228	103.309	107.341	110.347	115.226	198.186	111.586	-8191	255	
21578.375	1	1	0	0	0.15394	0.13517	0.093204	0.12395	0.076906	0.20354	0.12777	0.1373	0.21745	0.17426	0.32825	0.104	0.15178	0.23035	0.18359	0.18886	-2.7188	-2.4542	-2.9083	-2.9417	-2.6792	-3.2812	-2.7458	-2.9917	-3.2313	-2.5687	-3.2896	-2.8792	-2.5312	-3.2146	-2.5396	-2.7792	264.828	236.629	253.181	379.808	272.411	427.450	374.345	112.522	155.281	256.195	374.341	413.534	341.186	388.231	330.716	325.834	0.0013377	0.00069229	0.00014158	1863.1	7.2302e-06	5.2042e-06	1627.8	539.53	7.0207e-06	3.742e-06	506.83	156.13	169.76	57.212	1.026e-05	57.875	0.00094885	0.00092658	0.00024762	1564.1	1.0413e-05	9.7048e-06	1381.8	457.48	1.0242e-05	9.8707e-06	430.32	132.89	144.14	49.365	9.8912e-06	49.885	107.090	237.689	174.267	99.562	219.263	233.683	98.867	105.167	223.374	242.479	103.622	107.860	110.296	115.859	235.930	111.343	-8191	255	
21578.494	1	1	0	0	0.18485	0.1143	0.13013	0.33786	0.073601	0.2696	0.15326	0.30462	0.22126	0.15552	0.14523	0.10864	0.045714	0.27846	0.15832	0.22082	-2.6875	-2.2521	-2.9	-3.0979	-2.3896	-3.3854	-2.7	-2.7396	-2.9354	-2.3833	-3.1042	-3.2438	-2.4958	-3.1042	-2.6396	-2.625	171.592	376.849	427.239	433.930	383.680	283.439	355.729	409.147	365.567	379.854	367.841	407.778	114.614	428.566	389.757	392.118	0.0013631	0.00046723	0.0001698	1843.5	1.0732e-05	8.8249e-06	1651.8	539.64	1.0732e-05	5.1965e-06	510.21	156.47	168.56	57.858	1.0406e-05	58.71	0.000931	0.00090224	0.00026086	1567.1	1.0124e-05	9.8005e-06	1394.2	458.4	1.0193e-05	9.5358e-06	432.36	133.31	143.61	49.518	9.5043e-06	50.156	103.788	195.941	138.906	99.777	252.967	226.034	98.888	104.986	159.279	288.621	103.380	107.513	109.784	115.762	224.056	111.149	-8191	255	
21578.592	1	1	0	0	0.1592	0.23902	0.28064	0.13137	0.11958	0.34811	0.17286	0.29301	0.11138	0.30423	0.44216	0.16798	0.19581	0.35665	0.11906	0.10272	-2.6417	-2.3187	-2.7021	-3.0083	-2.3375	-2.9813	-2.925	-2.6958	-3.0354	-2.4917	-2.7208	-3.2583	-2.4188	-3.3125	-2.8375	-2.6208	417.446	252.536	244.212	102.940	267.242	371.247	400.149	441.263	227.838	419.807	403.242	388.001	240.193	422.581	132.185	351.233	0.0013016	0.00046746	0.00025119	1856.3	5.1725e-06	3.8846e-06	1646.8	538.19	1.7331e-05	9.2715e-06	507.6	156.72	170.13	57.643	7.4873e-06	57.979	0.00091593	0.00087896	0.00026465	1566	9.8694e-06	1.0136e-05	1390.1	455.99	9.8402e-06	9.9132e-06	430.9	133.4	144.01	49.44	1.0052e-05	49.813	108.499	228.554	135.269	99.432	298.263	286.208	98.489	105.059	197.901	203.634	103.283	107.642	109.598	115.721	253.178	111.877	-8191	255	
21578.662	1	1	0	0	0.19087	0.22789	0.18506	0.1895	0.056667	0.058743	0.19664	0.24324	0.20762	0.12482	0.20724	0.053247	0.14018	0.16087	0.14667	0.16634	-2.9271	-2.5917	-2.7542	-3.0875	-2.5604	-2.9167	-3.1542	-2.65	-2.9958	-2.5167	-2.6083	-3.1104	-2.4646	-3.0646	-2.8396	-2.4104	128.798	417.342	325.011	443.434	247.906	160.493	378.781	409.740	85.885	372.916	398.944	93.819	148.998	346.585	224.906	295.296	0.0011295	0.00071435	0.00017939	1913.2	8.3823e-06	4.7575e-06	1686.5	560.54	1.4679e-05	1.094e-05	524.61	162.41	174.55	59.663	1.1692e-05	59.992	0.00086513	0.00090892	0.00027291	1563.7	1.0178e-05	1.0231e-05	1388.2	457.67	9.8246e-06	1.0434e-05	431.59	133.38	143.61	49.7	1.018e-05	49.895	105.156	146.800	186.317	97.932	209.891	204.040	96.810	103.328	270.243	253.698	101.494	105.424	108.192	113.738	245.147	109.559	-8191	255	
21578.781	1	1	0	0	0.11167	0.26588	0.048155	0.15715	0.075097	0.19267	0.029906	0.25281	0.21564	0.067746	0.23153	0.13308	0.12295	0.041909	0.12589	0.30451	-2.675	-2.525	-2.5167	-3.2354	-2.4354	-2.9188	-3.1229	-2.3688	-2.9917	-2.6583	-2.6188	-3.2229	-2.4542	-3.0104	-2.8167	-2.4479	196.545	405.314	382.386	425.573	240.407	153.111	246.519	392.432	252.112	352.949	375.402	370.145	346.865	412.810	274.575	370.926	0.0013949	0.0010398	0.00014997	1905	1.4312e-05	9.1688e-06	1706.6	561.33	7.1249e-06	8.4352e-06	530.22	164.61	177.06	60.629	9.4816e-06	60.83	0.0009063	0.00091775	0.00027305	1559	9.8978e-06	1.0216e-05	1394.6	460.7	1.0059e-05	1.0428e-05	434.85	135.06	145.77	50.372	1.0561e-05	50.679	99.506	250.294	229.394	97.363	249.077	221.665	96.594	103.561	173.369	206.948	101.104	105.416	108.383	113.473	239.912	109.673	-8191	255	
21578.879	1	1	0	0	0.34644	0.29788	0.065008	0.16883	0.095012	0.038562	0.29568	0.26095	0.18046	0.16499	0.16613	0.27063	0.18004	0.13581	0.18518	0.24996	-2.725	-2.6	-2.4271	-3.2438	-2.3479	-2.7083	-3.2104	-2.5875	-3.1104	-2.5625	-2.3937	-3.1479	-2.5354	-2.775	-2.9625	-2.5375	114.686	419.889	419.984	392.306	386.551	271.150	384.921	404.112	136.682	299.666	219.216	400.969	422.606	378.953	430.863	97.658	0.0012667	0.00025773	0.00013181	1934.2	1.6879e-06	4.8709e-06	1706.9	561.03	1.1767e-05	1.6656e-05	529.81	165.41	176.69	60.35	1.0156e-05	61.69	0.00093505	0.00096564	0.0002688	1576.4	1.052e-05	1.0933e-05	1395.4	460.43	1.009e-05	1.0565e-05	436.81	135.28	145.93	50.344	1.0182e-05	50.995	103.357	199.377	253.830	97.639	304.819	251.671	96.575	103.601	227.078	294.914	101.594	105.670	108.324	113.778	208.571	110.384	-8191	255	
21578.975	1	1	0	0	0.12752	0.1269	0.38021	0.309	0.065392	0.018748	0.40391	0.32501	0.15593	0.043943	0.1067	0.10737	0.18472	0.16885	0.040462	0.30763	-2.6042	-2.8604	-2.2729	-3.3604	-2.6042	-2.5354	-3.1583	-2.4958	-2.9646	-2.8479	-2.5042	-3.0354	-2.5979	-2.6021	-3.0646	-2.3542	281.870	420.289	407.161	356.876	258.604	193.087	359.881	375.533	313.540	226.375	376.939	420.353	390.999	109.619	168.806	367.190	0.0011517	0.00064538	0.00020931	1927.6	6.0153e-06	4.0253e-06	1712.8	561.44	1.2782e-06	1.9835e-06	533.53	165.62	176.38	60.718	5.6592e-06	60.829	0.00094462	0.00099817	0.00026468	1574.6	1.0476e-05	1.0568e-05	1401.2	460.96	1.0218e-05	1.0583e-05	438.65	135.76	145.81	50.327	9.9113e-06	50.813	102.145	176.385	149.658	97.895	207.974	246.063	96.799	103.425	99.122	376.179	101.729	106.235	107.781	113.807	246.226	109.596	-8191	255	
21579.070	1	1	0	0	0.11278	0.24297	0.18258	0.097886	0.18009	0.14578	0.22953	0.4355	0.22363	0.12636	0.17307	0.081778	0.21799	0.12619	0.29253	0.038466	-2.3937	-2.8167	-2.3937	-3.0146	-2.6562	-2.4458	-3.1833	-2.7333	-2.9042	-3.0687	-2.5146	-3.0896	-2.6854	-2.4729	-2.9938	-2.3688	381.767	198.269	290.397	236.257	165.915	231.627	372.500	396.989	272.999	345.005	343.884	98.855	442.511	393.908	291.746	258.580	0.0014482	0.00062042	0.00019034	1923.4	3.5567e-06	4.6398e-06	1712.7	566.6	7.2784e-06	2.9619e-06	527.47	164.51	177.88	59.713	1.7859e-05	60.699	0.00095764	0.00096314	0.00025349	1572.1	1.0383e-05	1.0348e-05	1399.6	461.35	1.0389e-05	1.0384e-05	435.79	134.87	145.93	49.786	1.0252e-05	50.436	101.043	186.308	195.031	98.255	202.865	261.595	96.835	103.395	207.331	285.459	101.454	106.263	108.401	113.509	239.466	109.920	-8191	255	
21579.191	1	1	0	0	0.048501	0.2483	0.28271	0.11965	0.14679	0.27659	0.19431	0.13203	0.13033	0.077721	0.19963	0.14864	0.17785	0.20086	0.13699	0.072833	-2.2292	-3.025	-2.3271	-3.0292	-2.6875	-2.4604	-3.2271	-2.6	-2.575	-3.0208	-2.3646	-3.0646	-2.9104	-2.5146	-3.0896	-2.6208	384.841	286.139	398.286	418.083	118.660	326.069	417.158	388.279	317.346	296.238	330.207	271.315	95.278	428.637	293.631	406.675	0.0013516	0.0007348	4.9143e-05	1926.4	1.8123e-06	1.8423e-05	1702.2	560.5	1.6455e-05	1.0793e-05	529.48	163.22	175.04	59.472	1.9768e-05	60.531	0.00094355	0.00094679	0.00026414	1571.8	1.0712e-05	1.0251e-05	1394.5	458.21	1.0236e-05	1.0253e-05	433.61	134.21	143.96	49.54	1.0078e-05	50.269	96.821	226.711	104.413	97.780	255.531	214.580	96.993	103.260	215.914	245.678	101.404	105.777	108.106	113.961	204.117	109.790	-8191	255	
21579.264	1	1	0	0	0.10049	0.089105	0.10271	0.043924	0.062713	0.15015	0.15333	0.22455	0.030705	0.11284	0.055621	0.13962	0.21457	0.030959	0.25949	0.30594	-2.3167	-3.2708	-2.4521	-3.0583	-2.9354	-2.5187	-3.2687	-2.7167	-2.4625	-3.0167	-2.5333	-2.9708	-2.9479	-2.5312	-2.9396	-2.7104	196.447	264.611	288.207	429.515	217.763	146.436	379.989	368.154	281.288	395.686	131.122	439.279	95.724	438.241	332.666	372.906	0.0011251	0.00094212	0.00028424	1912.6	6.7767e-06	7.7225e-06	1700	558.34	1.1972e-05	1.1738e-05	527.13	162.43	173.57	59.142	8.8863e-06	59.664	0.0009744	0.00092617	0.00025744	1567.5	1.0534e-05	9.8858e-06	1391.1	456.7	1.0314e-05	9.9745e-06	431.9	133.14	143.32	48.967	1.003e-05	49.526	97.059	134.941	189.349	98.154	202.627	209.439	96.999	103.769	195.294	293.976	101.701	106.490	108.435	114.216	208.738	110.291	-8191	255	
21579.359	1	1	0	0	0.092765	0.14015	0.1118	0.25594	0.19392	0.22077	0.28194	0.13208	0.12603	0.37828	0.1906	0.35303	0.21241	0.24821	0.1913	0.5199	-1.9792	-3.1646	-2.2771	-2.8479	-2.9917	-2.4896	-3.1646	-3.0312	-2.6	-3.1896	-2.6167	-2.7917	-3.0833	-2.4313	-3.0708	-2.8333	357.997	397.758	442.371	100.631	203.779	318.619	375.755	359.042	399.877	201.384	158.520	413.350	337.191	378.288	339.068	409.742	0.0011713	0.00049432	0.00023644	1907.1	1.7303e-05	8.995e-06	1707.6	553.11	6.6896e-06	1.0501e-05	520.95	162.07	172.72	59.353	1.4034e-06	60.07	0.0009463	0.00091414	0.00025349	1564.3	1.0334e-05	9.8903e-06	1393.6	454.73	1.0125e-05	9.3069e-06	431.47	133.53	142.71	49.207	1.0177e-05	49.889	93.223	289.870	380.793	98.270	209.867	235.029	97.027	103.616	201.868	253.535	102.108	106.603	108.302	114.400	130.816	110.082	-8191	255	
21579.455	1	1	0	0	0.18593	0.1501	0.10175	0.12724	0.2301	0.032956	0.5427	0.22045	0.10297	0.31534	0.1379	0.30082	0.17552	0.50356	0.13522	0.19545	-2.0708	-3.1667	-2.5979	-2.7333	-3.2208	-2.3042	-3.0146	-3.0583	-2.3333	-3.2146	-2.8	-2.5563	-3.0604	-2.4062	-2.8104	-2.9771	270.106	392.761	94.641	324.382	340.364	294.186	376.098	403.885	192.621	150.606	390.831	437.830	194.914	415.399	305.752	398.469	0.0011647	0.0007605	0.00015125	1917.1	5.7168e-06	4.6569e-06	1703	557.14	1.0087e-05	1.1693e-05	525.47	162.32	175.15	59.262	1.3167e-05	59.824	0.000919	0.00093694	0.00026722	1567.1	1.0064e-05	9.6091e-06	1395.6	455.2	1.0014e-05	9.938e-06	431.89	133.31	143.47	49.33	1.0398e-05	49.832	109.288	139.083	432.941	97.924	307.721	128.419	97.541	103.877	212.381	287.814	101.777	106.233	108.597	113.878	220.830	110.031	-8191	255	
21579.576	1	1	0	0	0.13263	0.18526	0.038706	0.17631	0.10266	0.21589	0.35578	0.12077	0.13248	0.1168	0.25171	0.18955	0.28723	0.2126	0.17239	0.11664	-1.8729	-3.2417	-2.4958	-2.6437	-3.2479	-2.3979	-2.9813	-3.0604	-2.2917	-3.1958	-2.7021	-2.575	-3.3312	-2.5812	-2.7625	-3.2458	109.189	312.623	179.399	88.895	156.176	136.437	336.648	409.246	386.601	131.321	412.721	194.795	437.532	361.614	253.811	106.290	0.0013279	0.00052174	0.00017689	1902.6	3.9314e-06	7.2142e-06	1712	556.55	1.4636e-05	4.4913e-06	524.13	161.95	172.99	59.035	5.992e-06	59.246	0.00088902	0.00092914	0.00026334	1564.4	9.7783e-06	9.9492e-06	1397.7	455.77	9.7046e-06	1.0272e-05	430.08	132.86	142.11	48.888	1.0706e-05	49.321	96.841	138.746	142.253	98.143	176.249	304.969	97.349	103.951	214.667	268.418	101.930	106.421	108.371	114.254	325.015	110.068	-8191	255	
21579.672	1	1	0	0	0.10597	0.1992	0.29276	0.20803	0.18771	0.20023	0.30944	0.34651	0.23088	0.29688	0.25335	0.21353	0.11718	0.27206	0.13117	0.19633	-2.0125	-3.0021	-2.7667	-2.5979	-3.1042	-2.5938	-2.9188	-3.2208	-2.2	-2.8792	-2.8146	-2.3187	-3.1771	-2.4854	-2.75	-3.2792	209.373	265.478	253.037	433.848	352.837	162.607	91.223	420.954	409.119	408.685	445.517	398.552	395.674	414.182	311.308	369.850	0.0010777	0.00075402	0.0001708	1904.7	1.329e-05	1.1538e-05	1712.9	552.09	1.4318e-05	1.0807e-05	525.41	160.74	173.5	58.956	4.6909e-06	60.188	0.00090593	0.00093078	0.00027088	1560.6	1.0121e-05	9.9916e-06	1395.4	453.41	9.992e-06	1.0787e-05	431.62	132.35	142.51	48.973	1.0483e-05	49.756	105.222	216.969	142.612	98.445	241.847	184.978	97.259	103.861	213.396	272.938	101.721	106.327	108.647	113.994	251.327	110.386	-8191	255	
21579.768	1	1	0	0	0.3659	0.24793	0.14811	0.064624	0.18359	0.14251	0.31197	0.33423	0.20895	0.19667	0.23704	0.47982	0.097048	0.044899	0.34936	0.018154	-2.025	-3.0083	-2.9021	-2.3896	-3.1688	-2.5521	-2.8021	-3.2625	-2.2583	-2.9437	-2.9104	-2.5125	-2.9458	-2.7771	-2.3917	-3.3396	159.659	196.237	128.365	102.696	396.084	357.360	391.224	405.424	254.538	261.358	372.917	372.628	407.949	341.814	385.389	188.358	0.0011937	0.0010636	0.00022977	1911.5	1.3142e-05	4.5286e-06	1715.9	557.62	7.9255e-06	8.2504e-06	524.2	162.81	173.32	58.611	1.889e-05	60.247	0.00092613	0.00095361	0.00025747	1561.9	1.0133e-05	1.0188e-05	1396.9	455.37	1.0055e-05	1.023e-05	432.34	133.55	142.81	49.11	9.7626e-06	50.01	98.289	180.555	180.209	98.515	245.288	224.647	97.381	103.874	216.662	201.263	101.622	106.413	109.196	114.331	196.763	110.574	-8191	255	
21579.863	1	1	0	0	0.27924	0.2225	0.35441	0.18266	0.094308	0.21059	0.3009	0.21138	0.090017	0.15138	0.050613	0.28654	0.10759	0.07443	0.31867	0.26154	-1.7583	-2.8604	-3.0479	-2.4188	-3.025	-2.7854	-2.5563	-3.2646	-2.4875	-2.7042	-3.2562	-2.3979	-3.15	-2.8646	-2.4875	-3.2583	344.079	310.755	120.264	372.791	150.371	410.478	409.626	373.918	166.194	335.475	375.391	417.109	134.408	86.955	180.983	291.895	0.0012588	0.0011683	0.00021711	1904.2	9.6798e-06	4.1211e-06	1705.9	554.09	1.163e-06	7.9115e-06	524.92	160.92	172.85	59.057	1.2227e-05	59.971	0.00094316	0.00097255	0.00026296	1558.3	1.0157e-05	1.0368e-05	1395.8	454.34	1.019e-05	1.0618e-05	431.86	133.03	142.63	49.014	1.016e-05	49.85	100.363	162.537	253.838	98.483	215.064	314.769	97.461	104.300	154.968	215.572	102.267	106.750	109.584	114.183	218.351	111.153	-8191	255	
21579.959	1	1	0	0	0.35388	0.28171	0.11778	0.3269	0.11576	0.36283	0.22482	0.2694	0.19269	0.18466	0.20978	0.10964	0.089017	0.21835	0.18662	0.093936	-2.1104	-2.6875	-2.9271	-2.4042	-2.8771	-2.85	-2.6	-3.25	-2.4042	-2.4917	-3.3521	-2.3812	-2.8187	-2.85	-2.4417	-3.0854	350.220	357.491	228.930	343.377	154.420	317.046	380.849	372.547	383.271	151.296	394.033	410.477	318.323	196.047	180.456	147.263	0.0014763	0.0008455	0.00026115	1908.9	1.4899e-05	1.1372e-05	1697.7	556.44	1.2016e-05	7.6337e-06	524.76	161.53	172.54	58.936	1.8199e-05	60.086	0.00094558	0.00095921	0.00025132	1558.2	1.0233e-05	1.0283e-05	1389.2	453.83	1.0159e-05	1.0342e-05	430.49	132.71	142.92	49.077	9.9075e-06	49.825	97.035	160.271	141.413	98.612	202.096	221.717	97.724	104.355	221.337	204.976	102.081	106.729	109.071	114.248	223.780	111.068	-8191	255	
21580.055	1	1	0	0	0.20858	0.15972	0.19822	0.042413	0.32198	0.20411	0.39382	0.34374	0.11322	0.23426	0.16395	0.084914	0.15711	0.16179	0.1495	0.10355	-2.2583	-2.4958	-3.0563	-2.5208	-2.8708	-2.9417	-2.5312	-3.3229	-2.6792	-2.4708	-3.2958	-2.4896	-2.7792	-3.0979	-2.5083	-3.0187	418.703	197.952	350.220	388.473	176.855	109.318	392.215	370.392	310.715	402.765	147.184	369.751	105.645	432.463	438.107	101.818	0.0013629	0.0010455	0.00024583	1908.3	1.3099e-05	1.288e-05	1703.3	557.35	1.2228e-05	1.2479e-05	527.06	161.67	173.92	59.198	7.7247e-06	60.205	0.00094811	0.00092454	0.00025762	1555.4	1.0321e-05	1.0162e-05	1390.3	455.82	1.0278e-05	9.9396e-06	432.08	132.83	142.87	49.26	9.7694e-06	50.088	109.211	149.786	136.485	98.828	231.577	226.605	97.798	104.371	210.748	241.524	102.947	107.015	108.727	114.368	230.234	110.907	-8191	255	
21580.176	1	1	0	0	0.24628	0.10886	0.079029	0.16179	0.39087	0.13824	0.24447	0.3977	0.19866	0.20227	0.26988	0.30054	0.12721	0.27485	0.081284	0.35987	-2.4938	-2.4458	-3.1979	-2.6333	-2.7021	-3.0146	-2.7146	-3.2667	-2.7917	-2.3833	-3.3	-2.6437	-2.7333	-3.0875	-2.325	-2.8396	349.272	190.053	261.381	420.375	342.812	293.393	356.481	399.729	312.236	230.586	438.657	433.534	184.295	417.353	306.734	388.767	0.0013374	0.00098241	8.6288e-05	1908.4	9.5655e-06	1.2928e-05	1699.4	557.04	1.2524e-05	8.8823e-06	528.88	163.54	173.5	59.582	1.3137e-05	60.713	0.00093881	0.00090222	0.00025358	1559.6	1.02e-05	9.7316e-06	1390.3	456.68	1.0158e-05	9.8753e-06	434.25	134.54	143.19	49.492	1.0008e-05	50.406	100.733	168.576	96.921	99.031	280.459	296.865	97.799	104.251	238.206	204.142	102.175	106.347	108.733	114.217	257.118	110.727	-8191	255	
21580.271	1	1	0	0	0.20441	0.042587	0.065809	0.30226	0.28916	0.13853	0.30613	0.051618	0.16591	0.1646	0.27697	0.34802	0.23782	0.11093	0.21344	0.087889	-2.4458	-2.4396	-3.0521	-2.3604	-2.525	-3.0229	-2.6354	-2.9125	-2.7875	-2.3667	-3.2125	-2.5375	-2.4896	-3.1042	-2.0042	-2.9958	323.635	143.044	311.840	443.095	300.243	158.857	358.538	309.526	208.763	184.798	440.354	436.050	433.033	321.381	153.538	391.952	0.0014118	0.0010787	0.00016323	1888	4.5389e-06	7.3441e-06	1709.7	554.33	1.1166e-05	7.0488e-06	530.04	163.03	175.01	59.34	7.6715e-06	59.736	0.00092295	0.00089786	0.00024539	1551.1	1.0393e-05	9.484e-06	1397.2	454.55	1.0202e-05	9.8451e-06	432.9	133.45	143.03	49.288	1.0344e-05	49.721	96.192	215.181	147.777	98.519	227.363	218.937	97.936	104.027	236.486	191.268	102.236	107.283	108.831	114.326	117.815	110.645	-8191	255	
21580.367	1	1	0	0	0.041844	0.1769	0.022453	0.14026	0.15435	0.22599	0.26167	0.17376	0.19304	0.089993	0.19988	0.2716	0.18896	0.38252	0.022549	0.05469	-2.5729	-2.3229	-3.2333	-2.6375	-2.4042	-3.1042	-2.5104	-3.0542	-2.9875	-2.2479	-3.1688	-2.7521	-2.5354	-3.0938	-2.4833	-2.9042	438.289	226.329	121.176	106.083	251.837	231.250	393.243	430.532	292.225	171.762	427.656	378.340	201.953	115.738	256.687	213.020	0.0012521	0.00052076	2.8803e-05	1903.1	3.055e-06	6.425e-06	1695.2	550.84	7.9722e-06	7.3731e-06	522.38	160.42	172.64	58.686	1.2316e-05	58.701	0.00086817	0.00089795	0.00026349	1553.3	9.8762e-06	9.8069e-06	1383.2	452.32	9.7987e-06	9.8492e-06	427.22	132.08	141.86	48.743	9.8683e-06	49.063	91.682	150.469	189.161	98.289	235.722	255.791	97.442	104.354	246.637	233.895	102.375	106.763	108.972	114.653	179.987	111.389	-8191	255	
21580.488	1	1	0	0	0.11959	0.11396	0.24387	0.32722	0.19157	0.23729	0.36834	0.3466	0.067393	0.17514	0.41839	0.16899	0.1636	0.15848	0.19904	0.30183	-2.7125	-2.3625	-3.0708	-3.0583	-2.3729	-2.9938	-2.7479	-2.7667	-3.0542	-2.4521	-3.1125	-2.95	-2.5	-3.3083	-2.3438	-2.7771	405.495	125.090	193.871	372.343	204.663	173.334	415.686	434.539	293.824	98.866	399.332	216.231	124.112	381.669	440.245	125.223	0.0012765	0.0010791	0.0002933	1892.1	4.7405e-06	5.1194e-06	1696.5	550.1	1.4675e-05	4.9915e-06	521.09	159.02	171	58.241	5.2917e-06	58.979	0.00090928	0.00092626	0.00025793	1547.6	9.4283e-06	9.6707e-06	1383.4	451.42	9.1076e-06	9.7018e-06	427.27	131.06	141	48.508	1.0085e-05	49.073	111.507	141.475	177.620	98.244	423.467	199.913	97.554	104.037	217.882	250.023	102.747	106.907	108.987	114.682	176.727	110.654	-8191	255	
21580.561	1	1	0	0	0.042706	0.23381	0.277	0.24859	0.39578	0.11924	0.093293	0.39277	0.19788	0.051133	0.12393	0.07811	0.24762	0.20884	0.15475	0.08776	-2.6021	-2.2875	-2.9813	-2.7708	-2.275	-3.0771	-2.8583	-2.6729	-2.9542	-2.4688	-2.9833	-3.0521	-2.4583	-3.1854	-2.6167	-2.6437	417.638	201.922	351.795	402.102	226.826	142.472	403.857	368.821	195.974	337.670	402.837	387.456	96.687	119.847	316.387	364.748	0.0010435	9.5666e-05	0.00015308	1894.6	7.8896e-06	9.5847e-06	1699.2	548.45	6.7251e-06	8.5472e-06	515.24	159.95	170.57	58.362	1.4644e-05	58.898	0.00086763	0.00088708	0.00026547	1543.9	9.6792e-06	9.9058e-06	1381.6	450.4	9.4925e-06	9.9495e-06	425.83	131.17	140.88	48.448	1.0029e-05	48.963	99.757	88.230	146.514	97.686	239.268	328.123	97.490	104.518	171.454	245.875	102.517	106.666	109.037	114.584	228.254	111.242	-8191	255	
21580.656	1	1	0	0	0.27589	0.17896	0.084465	0.056451	0.2466	0.0867	0.52967	0.10753	0.19208	0.05635	0.13155	0.26484	0.17245	0.34678	0.069465	0.2184	-2.8063	-2.2333	-2.8854	-3.2146	-2.4292	-2.9479	-3.0417	-2.675	-3.1271	-2.4083	-2.9604	-3.0146	-2.4667	-3.0646	-2.9146	-2.4333	99.890	258.589	104.311	412.122	135.733	335.860	375.640	419.895	124.275	223.236	124.452	417.788	97.148	414.648	310.512	339.668	0.0010111	0.00041126	6.2381e-05	1889.9	1.1579e-05	1.0115e-05	1687.2	547.98	1.3675e-05	6.7374e-06	517.35	160.2	170.68	57.729	3.1257e-06	59.359	0.00086857	0.00091907	0.00025547	1544.6	9.5583e-06	1.0006e-05	1382.1	449.17	9.7971e-06	9.9484e-06	426.7	131.06	140.54	48.042	9.8559e-06	49.144	88.802	298.343	122.290	98.285	270.051	271.215	97.510	104.069	236.872	261.535	101.887	106.088	108.516	113.779	357.284	110.263	-8191	255	
21580.752	1	1	0	0	0.1901	0.24148	0.12652	0.07188	0.26431	0.025094	0.20506	0.3249	0.0061376	0.1155	0.30293	0.21764	0.028768	0.34204	0.10964	0.1612	-2.7333	-2.4021	-2.5625	-3.2812	-2.2375	-2.9854	-3.1958	-2.4667	-2.9833	-2.7667	-2.5979	-3.1896	-2.2333	-3.0479	-2.8042	-2.4021	308.329	443.181	147.367	381.511	387.573	364.357	315.566	376.165	245.479	346.099	428.056	281.664	411.205	382.368	380.346	398.881	0.0011501	0.00070647	0.0003627	1877.5	4.9864e-06	1.4287e-05	1692.4	546.99	7.7306e-06	6.4254e-06	518.41	158.18	172.43	58.055	2.7137e-06	59.159	0.00089865	0.0009255	0.00025766	1542.2	9.8318e-06	9.8186e-06	1383.3	448.54	9.4275e-06	9.9799e-06	426.79	130.56	141.35	48.314	1.0012e-05	49.058	100.511	196.857	201.107	98.021	226.855	238.299	96.739	103.308	217.135	251.201	101.655	105.855	107.950	113.911	287.277	110.078	-8191	255	
21580.871	1	1	0	0	0.1364	0.20536	0.13231	0.26468	0.11776	0.20491	0.12904	0.4404	0.15146	0.098125	0.23297	0.2625	0.048038	0.22286	0.1307	0.14625	-2.6896	-2.5104	-2.4625	-3.2146	-2.3	-2.525	-3.1396	-2.4	-3.0792	-2.6854	-2.5583	-3.0104	-2.6146	-2.7375	-3.0083	-2.3667	249.080	384.676	342.878	365.921	273.785	409.386	325.724	407.160	134.351	338.811	413.654	99.204	378.178	402.023	300.781	265.001	0.0012844	0.0011241	0.00030685	1878.4	1.6654e-05	7.033e-06	1678.2	548.04	1.533e-05	1.043e-05	518.24	159.46	169.38	58.39	6.3431e-06	59.285	0.00090073	0.00090689	0.00024164	1543.1	1.02e-05	9.9957e-06	1375.6	449.46	9.7153e-06	9.864e-06	426.61	130.99	140.57	48.524	9.1407e-06	49.282	103.062	159.792	188.800	97.708	250.664	206.240	96.564	103.405	186.350	252.382	101.285	105.886	108.674	113.683	242.959	109.423	-8191	255	
21580.967	1	1	0	0	0.098524	0.11487	0.077998	0.13873	0.32414	0.10469	0.35772	0.15731	0.2747	0.17001	0.18473	0.34979	0.19897	0.25135	0.2423	0.23047	-2.6042	-2.7271	-2.2708	-3.1229	-2.4062	-2.5833	-3.1562	-2.6188	-2.8479	-2.7583	-2.425	-3.0979	-2.5625	-2.5563	-3.0854	-2.2646	342.477	160.374	311.103	392.002	209.149	300.321	409.341	382.631	322.607	308.718	398.728	343.209	115.835	396.136	217.922	343.006	0.0013578	0.0005727	0.00040307	1888.8	6.623e-06	6.6826e-06	1687.5	550.53	1.0133e-05	3.1095e-06	523.13	160.15	172.06	58.094	1.7489e-05	59.675	0.00091627	0.00090244	0.00023953	1545.5	1.0122e-05	9.9346e-06	1380.3	450.41	9.8489e-06	1.0153e-05	427.75	131.69	141.26	48.516	9.7472e-06	49.476	97.059	186.718	143.715	97.648	227.579	189.832	96.642	103.384	275.022	169.681	101.367	105.664	108.352	113.683	192.918	109.880	-8191	255	
21581.064	1	1	0	0	0.26311	0.025443	0.13011	0.29392	0.090013	0.19537	0.36407	0.12309	0.054824	0.28794	0.30821	0.36464	0.1731	0.40698	0.11613	0.091132	-2.6042	-2.6583	-2.3958	-3.2583	-2.4229	-2.4646	-3.3	-2.4875	-2.8479	-2.8958	-2.5021	-3.0833	-2.875	-2.4958	-3.1125	-2.3792	277.188	121.273	414.396	355.805	91.330	140.931	403.225	425.493	153.092	360.746	406.885	438.640	378.841	375.101	335.976	186.986	0.0011297	0.00091426	0.00028268	1893.2	1.4511e-05	1.6826e-05	1683.2	549.88	1.4665e-05	8.2649e-06	517.43	160.13	172.36	58.242	1.1053e-05	60.23	0.00089958	0.00090526	0.00024067	1551.8	1.0523e-05	9.8711e-06	1377.4	451.02	9.8346e-06	9.4115e-06	428.62	131.87	141.32	48.553	1.0026e-05	49.778	99.261	139.896	167.614	97.403	211.225	177.896	96.709	103.109	212.019	234.824	101.464	105.829	107.913	113.884	214.779	109.440	-8191	255	
21581.137	1	1	0	0	0.18857	0.10508	0.11066	0.12047	0.11011	0.18664	0.38752	0.367	0.094507	0.10784	0.28423	0.23874	0.1075	0.42425	0.076197	0.17134	-2.4792	-2.9	-2.3083	-3.2521	-2.7438	-2.5187	-3.3396	-2.7292	-2.8417	-3.0021	-2.4604	-3.125	-2.6354	-2.2667	-3.0646	-2.4604	350.663	377.419	252.856	259.660	392.843	397.192	433.211	412.620	171.806	164.322	347.781	408.892	124.613	432.443	408.601	158.565	0.00093897	0.00056503	0.00041174	1889.7	8.8078e-06	4.7203e-06	1691.3	549.44	1.3435e-05	1.0509e-05	522.01	162.53	172.65	58.57	1.9898e-05	59.851	0.00089609	0.00087441	0.00025094	1551.8	9.8824e-06	9.702e-06	1384.8	451.08	9.857e-06	9.2948e-06	430.16	132.88	141.56	48.861	9.8534e-06	49.783	108.186	199.695	116.790	98.013	177.147	221.382	96.712	103.248	224.235	221.595	101.181	105.822	108.291	113.681	210.003	109.677	-8191	255	
21581.256	1	1	0	0	0.22257	0.080288	0.13278	0.18937	0.14133	0.22635	0.19062	0.31174	0.14609	0.060253	0.27864	0.071459	0.13244	0.21987	0.13684	0.27043	-2.1458	-3.0375	-2.3458	-3.0417	-2.7708	-2.3375	-3.2229	-2.6521	-2.7271	-2.9021	-2.4229	-2.9708	-3.0167	-2.4083	-2.8708	-2.5583	268.824	316.863	208.610	407.627	167.180	234.852	348.030	389.718	191.256	107.947	397.163	268.604	378.492	194.517	226.747	204.497	0.0012571	0.00070296	0.00031934	1883.5	7.6592e-06	4.5862e-06	1683.5	549.4	4.9725e-06	4.601e-06	523.71	161.07	173.4	58.366	1.7656e-05	60.334	0.00091035	0.000881	0.00025948	1548.7	1.0082e-05	9.6275e-06	1379.8	450.86	9.6876e-06	1.0097e-05	429.85	132.63	141.94	48.923	1.0449e-05	50.373	106.588	155.560	159.651	97.555	265.580	273.053	97.056	103.544	270.630	199.033	101.632	106.202	107.741	113.649	256.768	109.467	-8191	255	
21581.352	1	1	0	0	0.21231	0.24342	0.012664	0.15272	0.19487	0.28996	0.26496	0.090853	0.12882	0.016235	0.28871	0.0825	0.23424	0.061545	0.29182	0.34038	-1.9438	-3.0438	-2.3833	-2.8688	-2.7958	-2.2438	-3.0729	-2.7104	-2.375	-3.0604	-2.5521	-2.9146	-3.0312	-2.3583	-3.0167	-2.7562	331.210	292.499	419.783	230.062	90.817	268.727	406.134	90.944	386.229	251.959	409.455	207.484	336.222	355.882	334.636	366.271	0.0011959	0.00094783	0.00032978	1898.3	6.5474e-06	8.165e-06	1692.9	549.91	1.1575e-05	8.4414e-06	522.53	162.48	171.82	59.137	7.1286e-06	60.863	0.00090888	0.00087722	0.00026211	1550.8	9.545e-06	9.657e-06	1388.6	451.63	9.4348e-06	9.7378e-06	431.09	133.71	142.35	49.255	1.0285e-05	50.487	100.505	150.381	204.221	97.861	273.625	141.991	96.459	103.204	175.539	254.722	101.273	105.760	107.693	113.712	196.980	109.676	-8191	255	
21581.447	1	1	0	0	0.11385	0.17488	0.25416	0.22332	0.18475	0.11172	0.25193	0.17736	0.31461	0.25847	0.26079	0.056071	0.11273	0.11274	0.075116	0.32002	-1.9792	-2.9688	-2.4292	-2.7375	-2.9479	-2.375	-3.2708	-2.8208	-2.4646	-3.1479	-2.6458	-2.7542	-3.2479	-2.3104	-2.9562	-2.975	389.018	349.489	226.646	403.055	438.128	235.955	363.777	369.278	429.616	256.491	414.473	104.665	87.175	330.452	346.821	109.565	0.0011816	0.00049248	0.00047424	1909.1	2.1007e-06	1.4165e-05	1699.3	550.52	4.0009e-06	1.2332e-05	528.19	163.12	172.49	59.706	1.164e-05	61.701	0.00088804	0.00090867	0.00025227	1552	9.5828e-06	1.0224e-05	1391	453.7	9.8966e-06	1.0061e-05	434.22	134.41	142.87	49.691	1.0132e-05	51.086	99.964	190.381	104.395	97.535	142.967	233.539	96.856	103.313	183.622	213.470	100.978	105.996	107.496	113.855	214.776	109.844	-8191	255	
21581.568	1	1	0	0	0.18736	0.27502	0.1243	0.19598	0.19583	0.12285	0.12417	0.15645	0.12118	0.15242	0.23658	0.27129	0.36018	0.28344	0.17935	0.16055	-1.8729	-2.9354	-2.5521	-2.6708	-3.0229	-2.1417	-3.0146	-2.8479	-2.2313	-3.2021	-2.8604	-2.5542	-2.9979	-2.4938	-2.8	-2.9437	301.720	95.841	323.695	143.440	328.401	94.967	318.431	438.995	340.516	257.848	97.780	116.181	367.909	412.708	331.930	85.690	0.0012369	0.00091557	0.00037073	1903.7	1.0997e-05	1.4374e-05	1716.4	555.48	1.9779e-05	3.5776e-06	528.85	165.88	175	60.177	9.6234e-06	62.224	0.00088305	0.00092827	0.00026963	1555.1	9.8544e-06	1.012e-05	1402.8	455.34	1.0129e-05	1.0255e-05	436.36	135.83	143.95	50.023	1.0215e-05	51.447	108.008	145.424	190.313	97.473	167.628	228.246	96.660	102.986	212.323	311.742	101.494	105.868	107.645	113.730	230.038	109.104	-8191	255	
21581.662	1	1	0	0	0.11221	0.15531	0.33631	0.1445	0.02518	0.15307	0.21129	0.17649	0.092279	0.10802	0.30724	0.10584	0.16879	0.35179	0.1821	0.19018	-1.9979	-2.95	-2.5625	-2.5708	-3.025	-2.3583	-2.9458	-3.1063	-2.5583	-2.9813	-2.7687	-2.5062	-3.2271	-2.4646	-2.7375	-3.1146	441.291	305.159	306.128	441.835	262.512	433.003	371.595	419.880	149.240	385.532	442.764	275.343	87.907	98.660	411.249	380.409	0.0012057	0.0009368	0.0002968	1905.6	7.1991e-06	5.6952e-06	1701.4	552.37	7.1666e-06	6.3875e-06	527.18	161.84	171.28	59.042	1.1257e-05	60.407	0.00090169	0.00092428	0.00026298	1554.7	1.0138e-05	1.0316e-05	1395.9	454.39	9.9849e-06	1.0034e-05	431.95	133.57	141.86	49.209	1.0002e-05	50.438	100.592	155.707	130.091	97.500	273.165	264.461	96.828	102.998	268.651	260.304	101.448	105.625	107.973	113.627	260.953	109.567	-8191	255	
21581.760	1	1	0	0	0.10069	0.41348	0.057485	0.10756	0.15455	0.13982	0.45249	0.28632	0.18279	0.056395	0.20255	0.059912	0.29603	0.041122	0.24236	0.056824	-1.7563	-2.875	-2.7917	-2.4354	-3.0542	-2.525	-2.8708	-3.4313	-2.4604	-2.8354	-2.9708	-2.5771	-3.225	-2.7062	-2.3688	-3.1292	210.247	262.985	267.644	308.982	219.438	219.211	428.452	440.308	302.181	204.214	415.461	378.485	262.668	100.382	339.271	436.732	0.0012659	0.00095648	0.00040249	1896.2	1.128e-05	8.0458e-06	1699.4	548.76	1.468e-05	6.7019e-06	526.29	162.45	172.59	59.062	8.6242e-06	60.961	0.0009489	0.00094334	0.00025139	1552.7	1.0264e-05	1.0299e-05	1388.9	450.97	1.0101e-05	1.0275e-05	431.41	134.07	142.38	49.291	9.6883e-06	50.513	94.331	169.962	156.319	97.428	203.246	229.474	96.526	103.304	199.679	304.834	101.350	105.745	107.885	113.583	248.691	110.290	-8191	255	
21581.857	1	1	0	0	0.19547	0.28425	0.19652	0.16387	0.048336	0.13851	0.13221	0.30589	0.22376	0.41378	0.0052162	0.077924	0.30381	0.29178	0.14611	0.13942	-2.1167	-2.8521	-2.8375	-2.4146	-3.175	-2.45	-2.7083	-3.2854	-2.3333	-2.6792	-3.025	-2.4333	-3.1188	-2.8833	-2.4625	-3.1896	429.736	129.171	293.511	279.534	324.718	114.378	332.066	407.900	199.372	127.783	261.240	291.670	357.642	89.405	411.702	416.117	0.0012882	0.00048304	0.00011825	1896.6	2.633e-06	1.4871e-05	1709.7	553.57	1.4817e-05	2.789e-06	527.48	163.88	172.53	59.169	1.5763e-05	61.308	0.00092366	0.00093571	0.00025015	1555.7	1.0081e-05	1.0358e-05	1393.8	453.48	1.0286e-05	1.0259e-05	432.8	134.14	142.67	49.462	9.9703e-06	50.892	94.658	223.622	103.052	97.841	192.408	258.016	96.695	103.033	267.114	257.454	101.191	105.564	108.470	113.356	253.284	110.362	-8191	255	
21581.951	1	1	0	0	0.17463	0.065469	0.15914	0.24188	0.12319	0.1833	0.40352	0.18749	0.093668	0.11783	0.039767	0.13615	0.013745	0.2904	0.19111	0.22348	-2.0438	-2.7188	-2.9562	-2.3604	-3.1896	-2.8125	-2.6396	-3.2583	-2.2458	-2.6521	-3.0563	-2.4417	-3.1125	-2.7562	-2.3958	-3.3812	391.601	136.541	116.971	129.781	187.073	142.160	389.180	435.604	352.996	381.879	335.884	430.536	268.262	406.636	316.752	421.798	0.0010502	0.00048836	0.00014301	1893.1	6.7029e-06	3.353e-06	1693.1	554.63	7.9521e-06	7.4778e-06	528.17	163.43	174.45	59.323	1.114e-05	61.582	0.00095388	0.00089243	0.00025111	1554.2	1.0067e-05	9.5154e-06	1388.5	453.72	1.0354e-05	9.749e-06	433.61	134.62	143.31	49.436	1.0103e-05	50.904	111.644	276.767	178.185	97.225	295.982	318.862	96.650	103.305	224.452	228.271	101.394	105.912	107.791	113.855	261.059	109.803	-8191	255	
21582.049	1	1	0	0	0.096936	0.1322	0.25028	0.16777	0.071295	0.14478	0.26383	0.32687	0.31715	0.21676	0.12559	0.092814	0.042766	0.31729	0.17586	0.12469	-2.2375	-2.4417	-3	-2.5375	-2.9313	-2.8604	-2.6167	-3.2771	-2.6667	-2.5917	-3.2021	-2.4083	-2.8396	-2.9979	-2.4125	-3.1125	431.383	288.302	195.919	424.945	244.317	157.015	366.590	426.801	112.809	371.416	348.299	98.151	129.594	413.408	92.395	137.222	0.0012392	0.0012412	0.00038768	1896.4	3.163e-06	3.3049e-06	1696.9	554.55	1.5849e-06	8.4916e-06	522.65	162.27	171.94	59.044	1.0236e-05	60.353	0.00094384	0.00090484	0.0002602	1550	1.0414e-05	9.8711e-06	1389.9	453.9	1.013e-05	9.6923e-06	429.95	133.09	142.03	49.146	1.0242e-05	50.164	109.516	177.621	149.670	97.616	153.343	191.292	97.343	103.394	127.238	251.082	101.314	106.039	107.650	113.704	252.724	109.562	-8191	255	
21582.168	1	1	0	0	0.20758	0.34763	0.18148	0.19848	0.13202	0.16066	0.33638	0.23703	0.19485	0.17742	0.11238	0.27498	0.2587	0.18179	0.25053	0.15893	-2.1125	-2.4667	-2.9333	-2.4521	-2.8708	-2.9062	-2.5417	-3.1208	-2.6625	-2.3833	-3.2417	-2.3937	-2.8292	-2.975	-2.2729	-3.0938	163.957	359.190	234.404	369.729	217.361	284.183	360.863	99.831	144.931	337.003	321.784	434.934	407.896	410.042	321.372	422.017	0.0012526	0.00097994	6.0781e-05	1891.7	1.1294e-05	7.5654e-06	1698.7	550.03	6.8211e-06	1.2823e-05	517.67	161.43	172.48	58.333	1.1595e-05	60.102	0.00090996	0.00089562	0.00025058	1547.9	1.0127e-05	9.6233e-06	1385.3	451.01	9.5499e-06	9.8865e-06	427.79	132.61	142.1	48.755	1.0435e-05	49.977	102.651	184.682	159.596	97.747	245.879	420.657	96.730	103.125	207.159	260.163	101.723	105.664	108.007	113.754	235.723	110.282	-8191	255	
21582.266	1	1	0	0	0.10401	0.061248	0.1681	0.30859	0.13409	0.24707	0.48995	0.25645	0.18429	0.1206	0.3053	0.16136	0.20393	0.065097	0.088098	0.088165	-2.3875	-2.3979	-3.3354	-2.4854	-2.6646	-2.8083	-2.3458	-3.0708	-2.7646	-2.4813	-3.1125	-2.4125	-2.6021	-3.1688	-2.0812	-2.9938	110.101	307.724	211.610	424.617	298.783	153.082	375.754	305.556	420.255	396.931	150.892	317.653	349.593	407.030	278.764	404.454	0.00099961	0.001089	0.00016774	1891.3	5.0057e-06	2.1002e-05	1671	549.84	9.4484e-06	6.5507e-06	517.66	159.21	171.34	59.008	5.9843e-06	60.494	0.00089517	0.00092543	0.00026853	1544.6	9.5616e-06	1.0293e-05	1373.8	450.81	9.5299e-06	1.0119e-05	425.48	131.86	141.47	48.895	1.015e-05	50.181	107.762	167.954	170.671	97.770	182.938	217.612	97.027	103.415	211.794	258.885	101.487	105.708	108.493	113.599	209.569	109.908	-8191	255	
21582.361	1	1	0	0	0.213	0.29293	0.11975	0.11552	0.38179	0.35401	0.26861	0.32831	0.016859	0.095909	0.24152	0.27218	0.1882	0.20345	0.10357	0.22302	-2.4354	-2.2583	-2.9583	-2.6625	-2.3979	-3.0563	-2.6646	-2.9229	-2.9354	-2.2958	-3.2562	-2.7896	-2.5438	-3.2708	-2.2	-2.975	227.889	378.198	413.725	290.635	396.636	434.631	402.869	395.340	241.516	240.158	120.084	365.156	392.975	408.973	419.651	113.495	0.0012112	0.00083183	0.00018339	1876	6.5726e-06	5.9533e-06	1693.5	548.03	6.2268e-06	1.1346e-05	517.74	160.53	170.74	58.746	9.6807e-06	59.951	0.0009053	0.00096698	0.00026884	1539.4	9.6931e-06	9.4968e-06	1379.9	448.81	9.5547e-06	1.0164e-05	426.98	132.04	141.09	48.736	1.0233e-05	49.915	96.362	126.067	122.547	97.674	197.462	214.576	96.714	103.569	147.153	227.022	101.262	105.599	107.904	113.278	240.451	110.312	-8191	255	
21582.432	1	1	0	0	0.23638	0.16828	0.12084	0.1413	0.087288	0.10179	0.55464	0.17806	0.078216	0.35585	0.085862	0.13573	0.1525	0.26709	0.18693	0.19878	-2.5542	-2.3208	-3.15	-2.6771	-2.4875	-3.0979	-2.6312	-2.8688	-3.0354	-2.4042	-2.9583	-2.8417	-2.5312	-3.3	-2.5271	-2.7083	196.178	391.034	132.417	415.834	288.470	172.228	382.986	365.180	92.937	431.784	290.391	354.304	384.731	424.942	288.344	331.779	0.0014616	0.0015999	8.3123e-05	1892.6	9.4399e-06	6.6943e-06	1699.5	550.67	1.693e-05	1.1004e-05	518.21	161.67	171.54	58.378	8.6587e-06	59.533	0.00090782	0.0009245	0.00025722	1544.4	1.0187e-05	1.0305e-05	1383.8	449.05	1.0086e-05	1.0183e-05	426.93	132.2	141.33	48.568	9.8705e-06	49.555	92.884	175.126	419.541	97.165	227.133	241.069	97.021	103.309	196.665	204.578	101.337	105.570	107.958	113.696	159.868	110.152	-8191	255	
21582.553	1	1	0	0	0.047841	0.15602	0.06506	0.22044	0.11503	0.17338	0.13322	0.27584	0.079242	0.067846	0.22901	0.21355	0.041774	0.41645	0.18185	0.084613	-2.5729	-2.4333	-2.9	-2.8667	-2.4708	-3.1208	-2.7292	-2.7125	-2.9146	-2.2792	-3.0042	-2.8958	-2.3292	-3.3021	-2.5687	-2.6063	101.592	388.517	269.227	411.635	240.335	309.182	320.810	370.640	217.029	163.876	361.484	89.314	257.041	441.159	199.570	437.016	0.0012462	0.001232	0.0004713	1877.5	1.3279e-05	9.1256e-06	1678	548.15	1.4001e-05	1.4709e-05	513	159.44	171.21	57.896	1.8357e-05	59.166	0.0009193	0.00090529	0.00025477	1534.7	1.004e-05	9.8655e-06	1374	448.51	9.736e-06	9.9197e-06	424.16	130.94	140.2	48.242	9.8016e-06	49.35	99.211	115.367	161.275	97.566	248.860	180.409	96.717	103.230	211.400	216.046	101.469	105.537	107.607	113.775	222.137	110.604	-8191	255	
21582.648	1	1	0	0	0.10891	0.14787	0.098032	0.24392	0.14886	0.051738	0.4163	0.18351	0.16553	0.38071	0.27767	0.19172	0.033896	0.29361	0.13405	0.086104	-2.7229	-2.375	-3.0062	-3.1333	-2.4333	-3.1854	-2.9646	-2.6646	-3.1604	-2.4917	-2.9437	-3.1229	-2.475	-3.125	-2.9667	-2.5917	112.224	192.138	400.633	352.830	355.876	300.538	409.069	340.220	119.002	185.324	117.007	367.919	400.549	354.418	328.846	434.429	0.00099622	0.00037899	0.00022244	1877.8	5.8575e-06	1.437e-06	1671.3	546.16	1.0716e-05	1.0242e-05	513	159.84	168.85	57.716	8.1523e-06	58.568	0.00089449	0.00091054	0.00024326	1532.6	1.0425e-05	1.0027e-05	1369.4	446.74	1.0265e-05	1.0145e-05	421.77	130.54	139.52	48.117	9.6386e-06	48.903	107.958	431.128	180.084	97.367	222.051	112.415	96.464	103.536	216.281	231.233	101.329	105.458	107.967	113.641	231.632	110.049	-8191	255	
21582.744	1	1	0	0	0.20043	0.30971	0.13963	0.41247	0.057562	0.061848	0.26385	0.044047	0.13119	0.33668	0.23297	0.063464	0.1716	0.16209	0.093562	0.11157	-2.6729	-2.3958	-2.6396	-3.1875	-2.3812	-3.0333	-2.9771	-2.7313	-3.2729	-2.6229	-2.5812	-3.1667	-2.5979	-3.175	-2.8229	-2.4792	243.574	208.350	259.725	435.849	411.100	386.570	382.804	372.577	393.219	408.549	366.162	111.958	124.353	328.980	282.155	253.653	0.0013705	0.00076378	0.00036411	1880.8	1.6404e-05	1.1406e-05	1667.5	541.14	1.2181e-05	1.4129e-05	514.71	157.81	169.06	57.411	1.0745e-05	59.183	0.0009073	0.00089813	0.00024612	1539.5	9.9492e-06	1.0041e-05	1364.2	444.74	1.0226e-05	1.0018e-05	422.82	129.48	138.65	47.737	9.399e-06	49.087	111.487	130.435	143.274	97.557	211.394	195.619	96.758	103.534	232.130	185.730	101.999	105.790	108.465	113.961	240.350	109.585	-8191	255	
21582.842	1	1	0	0	0.097444	0.21943	0.092201	0.55666	0.16398	0.11183	0.19307	0.37232	0.14825	0.14699	0.43204	0.018191	0.13666	0.088861	0.092542	0.22367	-2.7625	-2.6083	-2.5854	-3.2521	-2.2917	-2.8167	-3.1292	-2.5479	-3.1375	-2.5312	-2.6458	-3.2271	-2.6458	-3.0042	-2.8729	-2.3104	271.685	420.895	321.649	412.445	205.090	218.459	360.838	388.815	370.379	332.900	426.343	199.521	105.505	407.599	263.339	359.497	0.0011188	0.0010725	0.00010515	1878.3	1.1024e-05	3.0929e-06	1676.9	541.56	1.0567e-05	1.0817e-05	514.54	158.6	167.84	58.012	1.2214e-05	59.027	0.00090192	0.00091086	0.00024308	1535.3	1.0125e-05	9.8991e-06	1367.6	444.6	9.6469e-06	9.9147e-06	423	130.69	138.73	48.312	9.7153e-06	49.025	113.688	193.315	204.126	97.949	236.309	219.803	96.793	103.418	166.381	211.304	101.772	106.201	107.953	114.186	194.223	109.753	-8191	255	
21582.938	1	1	0	0	0.24197	0.19272	0.22865	0.2394	0.15972	0.025204	0.353	0.31826	0.047464	0.15483	0.13419	0.29723	0.062697	0.16432	0.091401	0.10602	-2.7271	-2.7083	-2.3812	-3.3063	-2.3271	-2.8812	-3.1604	-2.6021	-3.0479	-2.8042	-2.7812	-3.3479	-2.7292	-2.6667	-2.9646	-2.6312	162.519	170.832	298.720	410.420	196.309	226.368	378.152	390.769	311.247	316.110	114.896	341.993	352.310	417.518	322.076	328.632	0.0010196	0.00030231	5.4032e-05	1875.3	1.2382e-05	1.2766e-05	1681	541.86	1.0852e-05	1.4337e-05	513.85	159.99	168.73	57.402	1.31e-05	58.809	0.00088597	0.00086194	0.0002387	1541.3	1.0139e-05	9.5797e-06	1368.4	444.48	9.7801e-06	9.2652e-06	421.78	130.7	139.27	47.838	9.9193e-06	48.933	87.492	196.999	240.948	97.465	198.483	249.364	96.769	103.479	182.625	205.786	101.538	106.066	107.992	113.699	193.228	109.709	-8191	255	
21583.031	1	1	0	0	0.2325	0.24193	0.13405	0.31473	0.07994	0.33716	0.14287	0.13891	0.054422	0.11916	0.3019	0.30455	0.04561	0.10666	0.20965	0.12491	-2.6813	-2.6813	-2.4333	-3.175	-2.5458	-2.5542	-3.2938	-2.5271	-3.0563	-2.8438	-2.5125	-3.2771	-2.5333	-2.7125	-3.2562	-2.4104	334.259	406.186	186.157	414.461	105.689	307.545	338.725	374.512	263.124	216.489	445.104	418.158	186.731	352.104	438.021	217.667	0.0012812	0.00060194	0.00022226	1873.5	1.4443e-05	1.4565e-05	1670.8	540.67	8.2611e-06	1.4478e-05	513.41	157.49	170.88	56.997	1.068e-05	58.892	0.00087255	0.00089504	0.00025206	1534.5	9.9027e-06	9.5024e-06	1367.6	443.72	9.5697e-06	9.7754e-06	421.1	129.42	139.49	47.791	1.0066e-05	48.921	96.621	164.104	203.673	97.614	247.276	179.857	96.747	103.280	240.267	269.695	101.825	105.840	107.851	113.467	274.155	109.525	-8191	255	
21583.129	1	1	0	0	0.13697	0.32885	0.23541	0.22546	0.22505	0.029826	0.084031	0.386	0.16617	0.213	0.36678	0.33197	0.074302	0.41973	0.36581	0.19218	-2.5375	-2.8708	-2.3354	-3.075	-2.5	-2.4771	-3.4042	-2.6042	-2.7021	-2.9104	-2.3354	-3.2	-2.95	-2.3917	-3.225	-2.6542	294.624	233.905	366.741	93.506	248.920	353.846	336.176	407.163	108.395	382.743	435.934	421.932	110.569	97.423	310.473	93.628	0.0011027	0.00035954	0.00026418	1875.1	1.0588e-05	5.6467e-06	1667.9	537.6	9.728e-06	9.5687e-06	510.01	157.76	170.57	57.358	2.0785e-06	59.032	0.00088763	0.00087528	0.00026341	1534.5	9.7429e-06	9.3184e-06	1363.5	443.1	9.2271e-06	9.6314e-06	420.97	129.81	139.71	47.793	9.72e-06	48.831	103.811	253.341	181.873	97.636	243.003	220.321	96.655	103.069	217.010	302.891	101.495	105.867	107.814	113.723	191.328	109.550	-8191	255	
21583.248	1	1	0	0	0.15314	0.19445	0.17964	0.27246	0.20782	0.12542	0.057348	0.1822	0.1326	0.090075	0.30575	0.24914	0.061216	0.095791	0.14098	0.19291	-2.2896	-2.9125	-2.2917	-3.1083	-2.6063	-2.4646	-3.4396	-2.55	-2.7188	-3.0354	-2.5875	-3.0771	-3.0062	-2.4062	-3.0604	-2.6292	205.463	251.211	308.134	355.366	130.863	367.771	295.903	432.873	348.317	259.939	140.371	97.216	380.033	140.499	384.418	95.040	0.0014075	0.00090725	0.00021148	1874.6	5.8476e-06	4.1386e-06	1673.6	543.42	1.3851e-05	2.3366e-06	513.22	158.26	169.32	57.43	1.659e-05	59.023	0.00086922	0.0008759	0.00026275	1535.8	9.4952e-06	9.4268e-06	1369.5	445.65	9.4548e-06	9.645e-06	422.65	130.36	139.27	47.813	9.7426e-06	49.103	111.143	213.167	210.130	98.051	238.198	210.800	97.073	103.198	203.674	415.206	101.464	106.170	108.345	113.624	251.320	109.896	-8191	255	
21583.346	1	1	0	0	0.2055	0.093687	0.11604	0.08081	0.081507	0.27747	0.34601	0.22775	0.3572	0.027063	0.09799	0.30286	0.23054	0.05826	0.18089	0.12329	-2.2708	-3.05	-2.3458	-3.0479	-2.8958	-2.5833	-3.3354	-2.6729	-2.5042	-3.0583	-2.5021	-3.1208	-2.9792	-2.45	-3.0875	-2.5938	369.399	358.982	131.795	349.509	115.467	89.325	86.200	394.141	273.591	89.645	411.915	405.492	243.926	144.920	302.040	404.226	0.00092379	0.00038666	0.00042998	1881.2	7.589e-06	5.0538e-06	1677.2	537.78	1.3891e-05	6.5954e-06	513.81	158.44	170.3	57.516	9.1773e-06	58.154	0.00086045	0.00090394	0.00025048	1539.1	9.7273e-06	9.689e-06	1367.3	443.85	9.387e-06	9.9793e-06	422.41	130.8	139.57	48.015	9.5459e-06	48.699	98.430	88.095	215.281	97.571	157.656	202.752	96.851	103.443	269.652	213.598	101.134	105.668	108.264	113.921	196.506	109.832	-8191	255	
21583.441	1	1	0	0	0.11514	0.11244	0.3094	0.21805	0.09623	0.12573	0.31675	0.37472	0.19518	0.15154	0.14548	0.10502	0.039134	0.27586	0.11622	0.15766	-2.1562	-3.0687	-2.3771	-2.8458	-2.9688	-2.3	-3.1292	-2.8958	-2.5708	-3.1729	-2.5208	-2.8896	-3.1646	-2.4646	-2.9375	-2.6167	396.694	200.262	93.011	154.167	324.722	173.908	413.643	375.223	227.206	244.722	443.194	128.059	348.954	397.333	285.654	366.727	0.0013543	0.0006662	0.00018849	1865	8.7697e-06	1.1991e-05	1668.6	535.79	1.1278e-05	7.3416e-06	505.96	158.07	168.92	57.034	1.2472e-05	58.065	0.0008734	0.00091734	0.00024835	1527.4	9.5424e-06	1.0056e-05	1363	440.93	9.3487e-06	9.5071e-06	417.85	129.38	138.78	47.628	9.6958e-06	48.303	102.056	174.091	191.864	97.749	157.839	304.964	96.759	103.628	248.314	225.154	101.633	105.693	108.064	113.456	204.354	109.240	-8191	255	
21583.537	1	1	0	0	0.079844	0.22613	0.08412	0.09815	0.11304	0.13363	0.32353	0.21897	0.045844	0.1516	0.24535	0.14631	0.26228	0.313	0.31145	0.25346	-1.9979	-3.1792	-2.5312	-2.8604	-3.1958	-2.3896	-3.1854	-2.9646	-2.4125	-3.0375	-2.5604	-2.7313	-2.9208	-2.3854	-2.9458	-2.8042	374.154	105.403	175.105	106.822	115.281	204.833	428.982	369.331	293.516	326.143	443.279	180.880	401.846	379.537	151.456	416.383	0.0011811	0.0012284	0.00020377	1881.6	6.5499e-06	4.6018e-06	1658.8	538.39	7.67e-06	9.4647e-06	512.58	156.41	168.93	56.892	8.7408e-06	58.048	0.00088588	0.00090711	0.00024087	1535.2	9.5729e-06	1.0097e-05	1358.8	442.42	9.9763e-06	1.0184e-05	419.32	128.99	138.62	47.418	9.4668e-06	48.269	113.721	163.459	181.332	97.812	250.567	243.625	96.446	102.942	196.521	261.437	101.626	105.836	108.330	113.908	270.053	109.691	-8191	255	
21583.658	1	1	0	0	0.16515	0.071782	0.022799	0.23185	0.15605	0.21761	0.31866	0.15309	0.17156	0.14756	0.053991	0.29488	0.17492	0.091958	0.076925	0.024909	-1.85	-3.0312	-2.5854	-2.7167	-2.9708	-2.5646	-3.1437	-3.2729	-2.2938	-3.1521	-2.8729	-2.4979	-3.0917	-2.475	-2.7896	-3.0104	213.365	112.859	261.768	401.483	399.234	411.015	334.199	94.639	433.042	307.624	286.672	113.376	92.265	359.998	381.722	436.667	0.0011122	0.00095718	0.00015266	1875.7	8.7684e-06	2.1492e-06	1665.1	538.63	9.3306e-06	6.7579e-06	511.15	157.85	168.4	56.772	1.707e-05	58.106	0.00090008	0.00091677	0.00023914	1531.8	9.6981e-06	9.7227e-06	1360.6	440.79	9.5141e-06	9.7082e-06	418.71	129.42	138.69	47.162	9.3275e-06	48.26	107.287	173.742	121.030	97.195	218.002	132.425	96.902	103.009	250.472	306.079	101.125	105.513	108.039	113.686	193.493	109.919	-8191	255	
21583.730	1	1	0	0	0.047721	0.092448	0.0947	0.32801	0.15579	0.17157	0.21425	0.40114	0.20293	0.15899	0.19738	0.12845	0.36194	0.058507	0.10681	0.36627	-2.0375	-3.0125	-2.6292	-2.6063	-3.1521	-2.325	-2.6771	-3.1479	-2.3937	-2.9146	-2.9333	-2.4792	-3.2458	-2.5833	-2.6208	-3.1333	279.483	419.170	442.776	420.975	339.826	296.270	365.247	416.090	250.044	196.073	392.586	114.000	408.352	258.429	369.260	356.125	0.0011525	0.0017937	0.00041693	1867.7	4.0931e-06	5.7826e-06	1658.1	535.9	2.3479e-06	6.1879e-06	506.73	156.21	167.47	56.285	4.9818e-06	57.643	0.00089515	0.0008756	0.00024115	1530.5	9.9455e-06	9.6758e-06	1358.7	439.81	9.7828e-06	9.33e-06	417.28	128.55	137.83	46.899	9.291e-06	47.972	96.780	176.348	194.825	97.673	226.695	247.178	96.655	103.010	231.769	267.123	101.283	105.815	108.106	113.759	222.311	110.141	-8191	255	
21583.848	1	1	0	0	0.17413	0.099895	0.20906	0.15912	0.1233	0.17993	0.32173	0.2606	0.12901	0.13717	0.29902	0.14622	0.27885	0.28012	0.093155	0.18746	-1.85	-2.8167	-2.6833	-2.3958	-3.0875	-2.4292	-2.7687	-3.1333	-2.2438	-2.7896	-2.9938	-2.2354	-3.0563	-2.5625	-2.4229	-2.9875	289.622	319.430	305.728	97.196	352.181	426.818	393.847	382.491	277.553	435.747	319.485	90.447	435.901	421.152	416.152	86.451	0.0013191	0.00099229	0.00018944	1867.4	8.7411e-06	1.8067e-06	1645.7	538.3	5.4175e-06	2.3445e-06	503.52	154.28	166.91	56.356	9.0363e-06	57.486	0.00088128	0.00084931	0.00023693	1524.7	9.5997e-06	9.199e-06	1350.5	438.9	9.8938e-06	9.1008e-06	414.52	126.93	137.65	46.911	9.8277e-06	47.792	107.929	171.385	163.249	97.782	248.070	277.513	96.854	103.329	233.205	217.889	101.367	105.966	108.054	113.370	288.477	109.560	-8191	255	
21583.945	1	1	0	0	0.079385	0.21983	0.31141	0.20498	0.064995	0.074107	0.37489	0.3625	0.1251	0.16344	0.21827	0.31867	0.085534	0.25354	0.25181	0.17686	-2.1292	-2.7271	-2.8688	-2.3271	-3.0125	-2.6354	-2.575	-3.25	-2.3958	-2.7313	-3.0167	-2.4292	-3.1375	-2.6854	-2.4875	-3.3083	148.439	330.109	275.511	327.151	334.736	290.617	333.948	426.204	433.896	263.555	402.991	121.722	435.884	356.121	283.151	416.977	0.00096812	0.0003374	0.00035416	1864.7	4.6836e-06	7.1481e-06	1652.5	535.08	1.3156e-05	9.5934e-06	499.38	153.36	166.45	56.16	6.9217e-06	57.147	0.00084756	0.00083908	0.00025263	1525.9	9.4585e-06	8.9352e-06	1349.6	437.92	9.102e-06	9.341e-06	410.71	126.65	136.58	46.645	9.3615e-06	47.436	95.165	155.369	183.308	97.871	261.212	227.046	96.672	103.426	230.515	231.880	101.759	106.080	108.016	113.414	214.258	109.863	-8191	255	
21584.041	1	1	0	0	0.10002	0.41858	0.079599	0.22148	0.2132	0.16652	0.28959	0.2489	0.19092	0.19082	0.21352	0.17998	0.10209	0.12597	0.16707	0.12002	-2.0354	-2.5938	-2.875	-2.4562	-2.9875	-2.7333	-2.625	-3.2	-2.5104	-2.5938	-3.1688	-2.4208	-3.15	-3.0521	-2.2438	-3.1083	303.624	295.429	107.018	117.049	378.054	403.425	341.876	367.864	91.927	88.278	350.544	363.280	411.772	94.597	214.440	344.312	0.0012939	0.00031671	0.00016692	1867.4	9.6052e-06	5.2671e-06	1647.2	534.02	1.2658e-05	9.6175e-06	501.57	154.64	164.81	55.766	1.1134e-05	56.804	0.00083965	0.00084241	0.00025355	1521	9.3151e-06	9.2436e-06	1347.6	437.5	8.9196e-06	9.5151e-06	412.17	126.89	136.28	46.376	9.7342e-06	47.337	103.326	333.874	202.166	97.214	231.506	222.546	97.104	103.125	237.100	264.570	101.472	105.669	107.852	113.704	184.497	109.702	-8191	255	
21584.137	1	1	0	0	0.21824	0.0089808	0.16149	0.4102	0.1003	0.26633	0.32056	0.33171	0.19746	0.13028	0.14345	0.1835	0.10119	0.11676	0.25026	0.26128	-2.1021	-2.4562	-3.1104	-2.3312	-2.95	-2.8896	-2.625	-3.2333	-2.4729	-2.3937	-3.1708	-2.4146	-2.8833	-3.0812	-2.3625	-3.1562	442.919	123.961	319.292	408.472	380.482	337.676	386.187	383.593	364.242	421.518	436.742	395.263	213.413	123.919	323.214	441.539	0.0010138	0.0015899	0.00032222	1859.4	5.2856e-06	9.2188e-06	1644.9	534.59	1.8077e-05	9.0027e-06	498.24	154.37	164.86	56.261	2.4121e-05	57.25	0.00082749	0.00088189	0.00025194	1514.8	9.0134e-06	9.4186e-06	1346.9	436.9	8.8762e-06	9.4957e-06	411.72	126.68	136.25	46.502	9.4854e-06	47.317	109.062	160.467	206.918	97.909	146.196	250.475	96.869	103.726	181.421	223.029	101.786	106.011	108.843	113.775	241.503	110.170	-8191	255	
21584.232	1	1	0	0	0.16461	0.1415	0.08047	0.12419	0.18107	0.10089	0.41497	0.088951	0.10254	0.10833	0.22592	0.2905	0.1944	0.15473	0.14038	0.27494	-2.3479	-2.2854	-3.1813	-2.5771	-2.8083	-2.9125	-2.475	-3.275	-2.7375	-2.5333	-3.2104	-2.5958	-2.7979	-3.1583	-2.3417	-3.1229	400.233	397.199	188.663	372.467	149.261	143.263	92.985	321.535	430.324	220.377	356.525	409.885	365.652	292.972	392.960	310.448	0.0011775	0.00040351	0.00037281	1835.9	1.2109e-05	6.6659e-06	1643.9	532.49	5.4489e-06	5.2955e-06	499.65	154.75	164.85	55.464	6.0604e-06	57.137	0.00081954	0.000859	0.00024267	1511.4	9.2501e-06	9.5761e-06	1345.4	436.21	8.9959e-06	9.9156e-06	412.54	126.74	136.17	46.263	9.4344e-06	47.415	102.388	286.030	176.087	97.813	223.102	237.025	96.849	103.599	193.716	256.839	101.739	106.100	108.126	113.672	235.225	110.168	-8191	255	
21584.328	1	1	0	0	0.036794	0.13585	0.11478	0.1839	0.14714	0.1028	0.34854	0.19312	0.035358	0.21827	0.28972	0.32088	0.027918	0.082828	0.25041	0.26258	-2.4292	-2.3688	-3.1167	-2.3812	-2.5417	-3.0896	-2.4813	-3.1708	-2.8208	-2.3271	-3.1146	-2.525	-2.5375	-3.1375	-2.3	-2.9646	424.965	234.799	168.666	92.775	437.674	289.935	414.331	334.409	188.036	142.146	425.147	101.372	387.473	88.192	109.776	376.877	0.0011644	0.00091171	7.8718e-05	1852.6	6.5809e-06	6.8429e-06	1631.3	529.27	1.217e-05	4.1989e-06	500.11	154.96	165.55	56.13	9.9216e-06	57.025	0.00083349	0.0008906	0.00023707	1515.9	9.266e-06	9.3568e-06	1338.6	435.39	9.1394e-06	9.7613e-06	410.33	126.69	136.39	46.803	9.5542e-06	47.552	106.122	181.471	165.675	97.878	216.249	215.406	97.130	103.553	199.258	262.189	101.491	106.340	107.739	113.982	252.117	109.974	-8191	255	
21584.426	1	1	0	0	0.27296	0.061324	0.18091	0.21246	0.14998	0.14333	0.20387	0.055503	0.17075	0.02877	0.355	0.16807	0.044736	0.17872	0.1645	0.27399	-2.6042	-2.3042	-3.0958	-2.6354	-2.5125	-3.1667	-2.5563	-3.2021	-2.8667	-2.3021	-3.2938	-2.6708	-2.4542	-3.3167	-2.3063	-2.6896	414.526	386.207	193.448	396.647	224.914	170.470	368.837	340.997	204.477	162.746	101.998	119.481	227.760	424.626	186.128	380.564	0.0011568	0.00037532	0.00015136	1863.9	6.1536e-06	8.1881e-06	1641.4	537.14	8.8235e-06	7.1543e-06	500.7	155.98	166.65	56.526	9.6672e-06	57.434	0.00085916	0.00090391	0.00024062	1515.4	9.5082e-06	9.627e-06	1339.2	438.08	9.569e-06	1.0007e-05	411.91	127.46	137.34	46.981	9.4029e-06	47.86	89.544	156.994	193.266	97.719	220.196	265.397	96.996	103.778	318.584	275.085	101.919	105.850	108.108	113.596	249.280	110.488	-8191	255	
21584.521	1	1	0	0	0.21109	0.27626	0.078918	0.11597	0.21412	0.11936	0.32598	0.35064	0.2004	0.27672	0.12368	0.28748	0.18207	0.14651	0.15364	0.068778	-2.6375	-2.2083	-2.9521	-2.8333	-2.2479	-3.1833	-2.6271	-2.7354	-3.0271	-2.3708	-3.0771	-2.9688	-2.5812	-3.3729	-2.5687	-2.8833	358.006	192.142	403.126	172.590	144.204	116.620	362.819	381.090	240.792	155.268	352.134	87.776	356.991	353.755	375.928	429.939	0.00092766	0.00084969	0.00027574	1859.9	6.6656e-06	8.8245e-06	1638.9	533.79	7.5405e-06	7.7119e-06	497.64	154.78	167	56.662	6.1681e-06	58.041	0.00085037	0.00087799	0.0002328	1523.8	9.8184e-06	9.486e-06	1340.3	437.28	9.2985e-06	9.7097e-06	411.08	127.26	137.4	47.089	8.9872e-06	48.02	103.621	156.316	207.816	97.692	225.246	256.195	97.092	103.592	158.869	278.965	101.804	106.318	108.478	113.923	264.049	110.251	-8191	255	
21584.617	1	1	0	0	0.17361	0.16951	0.14029	0.34549	0.20374	0.20962	0.14968	0.18488	0.30078	0.25459	0.27842	0.3227	0.16414	0.25773	0.1724	0.20465	-2.525	-2.2708	-2.9146	-3	-2.2396	-3.0146	-2.6	-2.6667	-3.0417	-2.2208	-3.1146	-3.0042	-2.3563	-3.2625	-2.5792	-2.6104	244.462	179.603	389.908	94.984	379.287	393.622	417.974	96.386	307.871	133.889	342.411	404.125	155.799	359.166	224.864	316.483	0.0011751	0.00063403	0.00032983	1850.6	1.4646e-05	4.521e-06	1642.9	530.9	1.3516e-05	1.1774e-05	503.6	156.43	167.48	57.031	1.4012e-05	58.099	0.00088607	0.00084177	0.00023777	1513.6	9.6018e-06	9.4836e-06	1342.3	437.6	9.2085e-06	9.333e-06	414.74	128.75	138.08	47.174	9.1367e-06	48.214	101.378	210.672	148.441	97.803	272.525	295.042	97.048	103.660	263.213	257.135	101.968	106.420	108.282	113.522	217.669	110.652	-8191	255	
21584.738	1	1	0	0	0.275	0.12615	0.16649	0.076729	0.12083	0.17517	0.33365	0.20431	0.20282	0.31226	0.1782	0.34234	0.2224	0.29155	0.20216	0.044227	-2.8229	-2.1708	-2.7083	-2.9938	-2.3625	-3.0729	-2.9146	-2.6958	-3.2125	-2.4875	-2.7875	-2.9437	-2.3292	-3.0396	-2.6083	-2.4354	135.185	273.402	413.927	198.190	108.920	435.643	377.208	386.551	85.707	310.603	407.967	356.933	358.800	411.896	180.905	354.176	0.0011844	0.00039926	0.00010381	1858	1.2705e-05	6.0514e-06	1642.3	534.21	1.4088e-05	5.295e-06	503.45	155.9	168.26	57.264	2.8195e-06	58.211	0.00087063	0.00085149	0.00023556	1517.8	9.6626e-06	9.5855e-06	1341.6	439.4	9.497e-06	9.2067e-06	414.2	128.15	138.13	47.431	9.4284e-06	48.226	98.726	107.436	235.151	97.735	238.068	234.559	97.089	103.540	243.722	243.962	101.974	105.715	107.956	114.084	298.340	109.704	-8191	255	
21584.832	1	1	0	0	0.19438	0.012213	0.058975	0.279	0.25144	0.21925	0.2567	0.34519	0.065663	0.17673	0.21294	0.1199	0.28896	0.044918	0.081825	0.13259	-2.4	-2.2938	-2.4167	-3.0125	-2.3396	-2.6063	-2.9542	-2.6146	-3.1042	-2.3604	-2.7104	-3.0333	-2.3021	-3.1917	-2.8542	-2.3708	232.466	97.080	205.581	422.532	209.106	385.993	354.149	431.637	104.832	226.109	351.513	402.103	395.965	396.569	245.177	397.044	0.00097318	7.5186e-05	0.00015033	1829.8	4.1889e-06	5.668e-06	1634.4	535.35	1.2517e-05	8.6023e-06	502.58	157.13	168.8	57.46	1.1157e-05	58.578	0.00084682	0.00082559	0.00023925	1511.4	9.4036e-06	9.2061e-06	1338.3	439.11	9.1708e-06	9.0773e-06	414.57	129.12	138.75	47.752	9.5759e-06	48.745	105.400	212.769	201.204	97.876	286.430	223.156	96.890	103.470	181.202	220.128	101.962	106.159	108.423	113.753	219.832	109.965	-8191	255	
21584.932	1	1	0	0	0.17527	0.073156	0.042258	0.14259	0.15213	0.22403	0.26071	0.4181	0.078167	0.1044	0.14764	0.30748	0.48951	0.15742	0.20962	0.20701	-2.7146	-2.4	-2.5083	-3.1958	-2.3042	-3.0438	-3.2896	-2.4104	-2.9896	-2.6583	-2.6125	-3.2229	-2.4417	-2.7542	-2.9375	-2.3937	401.878	375.017	92.437	400.403	201.090	396.305	397.966	402.179	377.020	282.778	440.193	120.333	385.721	387.612	379.034	358.773	0.0011343	0.00061075	0.00014966	1852.4	1.077e-05	1.7791e-05	1636.2	537.15	1.0382e-05	7.0106e-06	507.14	157.25	169.67	57.914	4.0617e-06	59.572	0.00082989	0.00086018	0.00024656	1514.7	9.0895e-06	9.4657e-06	1342.4	440.22	9.2271e-06	9.3479e-06	418.01	129.45	139.53	48.207	9.4408e-06	49.253	86.995	185.041	169.815	98.046	250.817	261.511	96.984	103.589	273.219	141.950	101.994	105.667	108.090	113.770	288.364	109.942	-8191	255	
21585.025	1	1	0	0	0.10795	0.061015	0.11189	0.20264	0.44065	0.19639	0.30266	0.35398	0.13694	0.059371	0.19902	0.23935	0.1683	0.52169	0.2573	0.2127	-2.6708	-2.5875	-2.4458	-3.125	-2.4354	-2.8229	-3.1146	-2.3979	-2.8625	-2.8438	-2.5521	-3.3979	-2.5375	-2.7083	-3.0021	-2.3063	398.540	246.534	432.189	354.364	303.411	399.229	418.112	353.615	293.854	410.619	355.654	400.330	193.055	445.277	371.599	438.293	0.0012485	0.00075757	0.00022313	1853.9	6.1359e-06	7.025e-06	1658.8	544.65	4.3845e-06	1.8541e-06	511.59	162.45	172.28	58.932	1.1634e-05	60.464	0.00084512	0.00089604	0.00024679	1517.2	8.9013e-06	9.5547e-06	1350.1	443.99	9.1102e-06	9.6459e-06	422.23	133.01	141.78	49.153	9.9433e-06	50.428	105.980	163.751	174.547	97.925	234.799	247.027	96.615	103.807	188.858	192.089	101.959	105.937	108.159	113.373	274.836	110.035	-8191	255	
21585.121	1	1	0	0	0.13906	0.10723	0.31444	0.20076	0.10215	0.17177	0.26708	0.37303	0.09056	0.15095	0.22984	0.32425	0.21583	0.24368	0.038559	0.076811	-2.2812	-2.7729	-2.3708	-3.3937	-2.5	-2.6937	-3.4917	-2.6146	-2.8354	-2.8312	-2.4292	-3.0854	-2.7521	-2.4562	-3.0938	-2.3438	405.571	342.843	269.393	431.296	421.265	349.301	413.022	396.749	183.998	415.441	109.102	435.906	397.934	436.811	166.829	400.772	0.0011811	0.00034693	0.00026673	1856.2	1.1826e-05	9.9242e-06	1653.1	548.16	1.4014e-05	9.7143e-06	522.14	165.35	174.58	60.231	6.2358e-06	60.967	0.00085819	0.00092573	0.00025153	1518.1	9.2743e-06	1.0097e-05	1355.6	448.86	9.2008e-06	1.0026e-05	428.43	134.81	143.44	49.958	9.8351e-06	50.955	100.935	100.792	183.313	97.650	229.610	260.965	97.088	103.544	226.411	197.782	101.438	106.045	107.451	113.806	174.546	109.691	-8191	255	
21585.217	1	1	0	0	0.35556	0.1437	0.18312	0.055828	0.19993	0.16913	0.31017	0.50958	0.22715	0.10991	0.21572	0.21481	0.068707	0.33002	0.090361	0.31927	-2.4208	-2.8375	-2.3729	-3.125	-2.5396	-2.5062	-3.0875	-2.4938	-2.775	-3.0083	-2.4104	-2.9792	-2.7083	-2.4188	-3.0542	-2.525	212.988	275.550	181.658	268.321	160.674	138.730	426.754	376.885	411.111	97.255	398.460	438.774	123.411	417.930	272.869	377.736	0.001102	0.00082796	0.00034577	1869.1	7.111e-06	1.504e-05	1660.5	546.12	1.2793e-05	2.6627e-06	521.67	165.1	176.56	60.645	1.1772e-05	62.637	0.00088156	0.00088812	0.00025486	1525.1	9.3619e-06	1.0004e-05	1358.5	449.27	9.5624e-06	9.7208e-06	429.24	135.53	145.13	50.41	9.5907e-06	51.764	93.725	187.591	182.906	98.114	222.907	298.940	96.989	103.510	215.528	212.489	101.492	105.990	107.594	113.543	312.964	109.921	-8191	255	
21585.338	1	1	0	0	0.27847	0.30231	0.11054	0.32471	0.027788	0.1732	0.16796	0.055086	0.19635	0.20058	0.32469	0.098048	0.24702	0.093065	0.1503	0.051655	-2.3563	-2.8521	-2.3563	-2.9062	-2.9354	-2.3958	-3.3917	-2.7917	-2.55	-3.0979	-2.4979	-3.1562	-2.7875	-2.4104	-3.0458	-2.7104	315.514	439.936	419.092	436.849	138.682	194.803	415.539	424.190	303.837	399.444	440.109	129.183	380.605	319.678	414.132	346.151	0.0012186	0.00045465	0.00015766	1872	8.1104e-06	7.0867e-06	1665.7	548.54	1.673e-05	8.0509e-06	525.92	163.35	174.83	60.071	1.303e-05	61.256	0.00089997	0.00090825	0.00024332	1525.7	9.4603e-06	9.8642e-06	1357.7	450.33	9.875e-06	9.6869e-06	430.73	134.68	143.73	49.839	9.2233e-06	50.797	111.251	196.933	150.857	97.735	193.602	198.244	96.728	103.356	214.403	205.109	101.691	105.686	107.842	113.343	232.532	109.843	-8191	255	
21585.434	1	1	0	0	0.05159	0.28962	0.16671	0.18226	0.069415	0.18045	0.21758	0.24038	0.074422	0.089091	0.22125	0.26029	0.2282	0.50781	0.078556	0.2768	-2.0187	-3.0812	-2.2167	-2.9813	-2.8812	-2.1854	-3.2667	-2.8583	-2.3854	-3.1813	-2.4792	-2.9229	-2.925	-2.4167	-3.0833	-2.6604	250.587	137.082	245.664	409.738	162.930	421.751	360.349	415.771	132.613	383.018	87.719	431.907	418.417	410.820	258.408	425.911	0.0012687	0.00043535	0.00047042	1866.3	8.8034e-06	1.1485e-05	1658.8	546.04	8.1357e-06	3.6011e-06	514.12	162.97	170.95	58.92	1.1307e-05	60.764	0.00087255	0.00086992	0.00024675	1522.2	9.4382e-06	9.6002e-06	1358.7	446.92	9.5431e-06	9.2859e-06	424.78	133.3	141.64	48.94	8.8096e-06	50.164	96.690	110.497	159.803	97.840	270.371	222.688	96.830	103.504	214.127	298.902	101.903	105.809	108.363	113.429	206.395	109.328	-8191	255	
21585.529	1	1	0	0	0.1148	0.12353	0.10911	0.18157	0.087214	0.068925	0.22737	0.29337	0.4399	0.09139	0.080153	0.45057	0.19577	0.24948	0.20003	0.28854	-2.0229	-3.05	-2.4375	-2.8125	-3.0438	-2.4562	-3.0667	-2.9938	-2.4333	-3.0708	-2.5104	-2.8104	-3.0479	-2.4896	-2.95	-2.7729	203.095	439.920	235.890	319.089	276.225	333.707	375.487	436.019	157.756	266.193	443.401	381.047	432.700	408.648	415.602	387.076	0.0011482	0.00099652	0.00026564	1865.6	1.2271e-05	6.6768e-06	1662.2	536.72	6.8274e-06	8.5591e-06	503.36	158.77	168.41	56.89	6.0058e-06	58.137	0.00085884	0.00084577	0.00022641	1525.7	9.4526e-06	9.3998e-06	1355.5	440.67	9.3862e-06	8.7292e-06	414.31	130.37	139.07	47.365	8.7249e-06	48.232	109.222	214.943	158.384	97.648	211.723	270.717	96.981	103.259	220.216	266.387	101.539	106.049	107.668	113.850	194.180	109.506	-8191	255	
21585.627	1	1	0	0	0.18901	0.15066	0.12704	0.051061	0.24227	0.23828	0.24683	0.16103	0.12302	0.058864	0.099778	0.2479	0.20685	0.20936	0.20099	0.025616	-1.95	-3.1458	-2.4021	-2.8042	-3.1375	-2.3312	-3.1375	-3.0979	-2.3812	-3.3271	-2.6292	-2.5187	-3.2792	-2.3271	-2.8333	-2.8146	386.066	273.359	417.864	281.249	353.086	182.920	401.526	397.027	261.994	301.383	116.093	424.020	411.563	441.597	283.312	285.647	0.0011277	0.00034151	0.00029032	1871.9	1.1378e-05	5.3143e-06	1648.3	532.47	1.5367e-05	9.8676e-06	494.99	154.36	166.24	56.576	1.3148e-05	56.996	0.00084759	0.00079814	0.00022487	1520.9	9.2838e-06	8.6184e-06	1346.8	435.64	9.4216e-06	8.5551e-06	408.04	127.05	137.23	46.785	8.7833e-06	47.324	98.719	232.300	180.604	97.793	172.036	270.538	97.248	103.052	224.704	191.294	101.295	105.906	108.039	113.583	200.315	109.694	-8191	255	
#DATA ENDS
