BOXY.EXE: ISS Imagent and Oximeter Data Acquisition Program Version 0.80
Ascii Record File

#ACQ INFORMATION
2  Detector Channels 
16  External MUX Channels 
1  Auxiliary Channels 
5000  Waveform (CCF) Frequency (Hz)
1  Waveforms Skipped 
30  Waveforms Averaged 
1  Cycles Averaged 
16  Acquisitions per Waveform 
10.0806  Updata Rate (Hz) 

#FILE INFORMATION
TRUE -- External MUX Channel results are PARSED.
FALSE -- AC DC and Phase are NOT grouped.
TRUE -- Companion Program Settings File CREATED.
FALSE -- AC data not excluded
FALSE -- DC data not excluded
FALSE -- Phase data not excluded
FALSE -- Auxillary Chn. data not excluded
Tab delimiters

#CALIBRATION STATE
TRUE -- Waveform Calibration Values APPLIED.


#AUX CALIBRATION VALUES
Val Type	aux-1	

Term	1.0000e+00	
Factor	0.0000e+00	


#WF CALIBRATION VALUES
A = Detector Channel
Val Type	A-AC1	A-AC2	A-AC3	A-AC4	A-AC5	A-AC6	A-AC7	A-AC8	A-AC9	A-AC10	A-AC11	A-AC12	A-AC13	A-AC14	A-AC15	A-AC16	A-DC1	A-DC2	A-DC3	A-DC4	A-DC5	A-DC6	A-DC7	A-DC8	A-DC9	A-DC10	A-DC11	A-DC12	A-DC13	A-DC14	A-DC15	A-DC16	A-Ph1	A-Ph2	A-Ph3	A-Ph4	A-Ph5	A-Ph6	A-Ph7	A-Ph8	A-Ph9	A-Ph10	A-Ph11	A-Ph12	A-Ph13	A-Ph14	A-Ph15	A-Ph16	

Term	0.00000e+00	0.00000e+00	0.00000e+00	0.00000e+00	0.00000e+00	0.00000e+00	0.00000e+00	0.00000e+00	0.00000e+00	0.00000e+00	0.00000e+00	0.00000e+00	0.00000e+00	0.00000e+00	0.00000e+00	0.00000e+00	0.00000e+00	0.00000e+00	0.00000e+00	0.00000e+00	0.00000e+00	0.00000e+00	0.00000e+00	0.00000e+00	0.00000e+00	0.00000e+00	0.00000e+00	0.00000e+00	0.00000e+00	0.00000e+00	0.00000e+00	0.00000e+00	0.00000e+00	0.00000e+00	0.00000e+00	0.00000e+00	0.00000e+00	0.00000e+00	0.00000e+00	0.00000e+00	0.00000e+00	0.00000e+00	0.00000e+00	0.00000e+00	0.00000e+00	0.00000e+00	0.00000e+00	0.00000e+00	
Factor	1.00000e+00	1.00000e+00	1.00000e+00	1.00000e+00	1.00000e+00	1.00000e+00	1.00000e+00	1.00000e+00	1.00000e+00	1.00000e+00	1.00000e+00	1.00000e+00	1.00000e+00	1.00000e+00	1.00000e+00	1.00000e+00	1.00000e+00	1.00000e+00	1.00000e+00	1.00000e+00	1.00000e+00	1.00000e+00	1.00000e+00	1.00000e+00	1.00000e+00	1.00000e+00	1.00000e+00	1.00000e+00	1.00000e+00	1.00000e+00	1.00000e+00	1.00000e+00	X	X	X	X	X	X	X	X	X	X	X	X	X	X	X	X	

B = Detector Channel
Val Type	B-AC1	B-AC2	B-AC3	B-AC4	B-AC5	B-AC6	B-AC7	B-AC8	B-AC9	B-AC10	B-AC11	B-AC12	B-AC13	B-AC14	B-AC15	B-AC16	B-DC1	B-DC2	B-DC3	B-DC4	B-DC5	B-DC6	B-DC7	B-DC8	B-DC9	B-DC10	B-DC11	B-DC12	B-DC13	B-DC14	B-DC15	B-DC16	B-Ph1	B-Ph2	B-Ph3	B-Ph4	B-Ph5	B-Ph6	B-Ph7	B-Ph8	B-Ph9	B-Ph10	B-Ph11	B-Ph12	B-Ph13	B-Ph14	B-Ph15	B-Ph16	

Term	0.00000e+00	0.00000e+00	0.00000e+00	0.00000e+00	0.00000e+00	0.00000e+00	0.00000e+00	0.00000e+00	0.00000e+00	0.00000e+00	0.00000e+00	0.00000e+00	0.00000e+00	0.00000e+00	0.00000e+00	0.00000e+00	0.00000e+00	0.00000e+00	0.00000e+00	0.00000e+00	0.00000e+00	0.00000e+00	0.00000e+00	0.00000e+00	0.00000e+00	0.00000e+00	0.00000e+00	0.00000e+00	0.00000e+00	0.00000e+00	0.00000e+00	0.00000e+00	-1.96768e+02	-1.29699e+02	-1.34807e+02	-1.86339e+02	-7.54990e+01	-7.41266e+01	-1.58506e+02	-1.62015e+02	-8.93850e+01	-6.60437e+01	-1.71896e+02	-1.71132e+02	-1.83122e+02	-1.77420e+02	-7.77319e+01	-1.49721e+02	
Factor	4.32825e-05	1.44022e-04	4.41656e-05	2.97642e-01	1.53383e-06	1.64817e-06	1.64269e-01	5.16134e-02	1.72359e-06	1.70877e-06	8.37101e-02	2.83187e-02	3.98013e-02	9.20130e-03	1.82911e-06	1.31369e-02	6.94130e-06	8.10315e-06	2.27153e-06	1.56454e-01	8.77933e-08	8.93870e-08	8.17851e-02	2.74120e-02	8.57484e-08	8.94539e-08	4.31033e-02	1.45842e-02	2.12693e-02	4.93711e-03	8.74364e-08	6.82897e-03	X	X	X	X	X	X	X	X	X	X	X	X	X	X	X	X	



#DISTANCE SETTINGS
A = Detector Channel
A-1	A-2	A-3	A-4	A-5	A-6	A-7	A-8	A-9	A-10	A-11	A-12	A-13	A-14	A-15	A-16	

2.5000e+00	3.0000e+00	2.5000e+00	3.0000e+00	2.0000e+00	3.0000e+00	1.5000e+00	3.0000e+00	3.0000e+00	3.0000e+00	3.0000e+00	3.0000e+00	3.0000e+00	3.0000e+00	1.5000e+00	3.0000e+00	

B = Detector Channel
B-1	B-2	B-3	B-4	B-5	B-6	B-7	B-8	B-9	B-10	B-11	B-12	B-13	B-14	B-15	B-16	

1.0000e+01	1.0000e+01	1.0000e+01	1.4400e+00	1.0000e+01	1.0000e+01	1.5100e+00	1.9400e+00	1.0000e+01	1.0000e+01	1.9900e+00	2.4900e+00	2.4100e+00	2.9000e+00	1.0000e+01	2.9800e+00	




#DATA BEGINS
time	group	step	mark	flag	A-AC1	A-AC2	A-AC3	A-AC4	A-AC5	A-AC6	A-AC7	A-AC8	A-AC9	A-AC10	A-AC11	A-AC12	A-AC13	A-AC14	A-AC15	A-AC16	A-DC1	A-DC2	A-DC3	A-DC4	A-DC5	A-DC6	A-DC7	A-DC8	A-DC9	A-DC10	A-DC11	A-DC12	A-DC13	A-DC14	A-DC15	A-DC16	A-Ph1	A-Ph2	A-Ph3	A-Ph4	A-Ph5	A-Ph6	A-Ph7	A-Ph8	A-Ph9	A-Ph10	A-Ph11	A-Ph12	A-Ph13	A-Ph14	A-Ph15	A-Ph16	B-AC1	B-AC2	B-AC3	B-AC4	B-AC5	B-AC6	B-AC7	B-AC8	B-AC9	B-AC10	B-AC11	B-AC12	B-AC13	B-AC14	B-AC15	B-AC16	B-DC1	B-DC2	B-DC3	B-DC4	B-DC5	B-DC6	B-DC7	B-DC8	B-DC9	B-DC10	B-DC11	B-DC12	B-DC13	B-DC14	B-DC15	B-DC16	B-Ph1	B-Ph2	B-Ph3	B-Ph4	B-Ph5	B-Ph6	B-Ph7	B-Ph8	B-Ph9	B-Ph10	B-Ph11	B-Ph12	B-Ph13	B-Ph14	B-Ph15	B-Ph16	aux-1	digaux	

21555.869	1	1	0	256	0.22685	0.047654	0.21627	0.32427	0.077965	0.092439	0.29884	0.061997	0.16729	0.07491	0.16717	0.39362	0.24185	0.33167	0.038519	0.15545	-2.5542	-2.2062	-2.6688	-2.5979	-2.1896	-2.9833	-2.6042	-2.5604	-2.9083	-2.0604	-3.0083	-2.8208	-2.3729	-3.1979	-2.5146	-2.4583	68.030	-124.781	213.132	171.972	63.350	-33.324	191.155	154.370	-110.745	173.318	-139.543	143.807	180.015	151.959	193.010	102.937	0.001044	0.00061203	0.00016352	1872.2	5.5112e-06	5.2241e-06	1592.5	555.79	1.4895e-05	1.9096e-07	514.62	168.19	182.47	65.609	8.6497e-06	66.436	0.0010377	0.0010377	0.00029525	1511.8	1.1785e-05	1.1793e-05	1297.5	454.91	1.1403e-05	1.1391e-05	423.24	138.8	149.8	54.158	1.1744e-05	55.363	137.317	-64.192	-60.712	-129.939	2.241	61.213	-131.480	-124.647	24.535	-3.615	-126.444	-123.012	-120.033	-115.042	-4.200	-117.866	-8191	255	
21555.965	1	1	0	0	0.17906	0.21105	0.073978	0.21908	0.25095	0.17241	0.29384	0.34301	0.061427	0.045342	0.27673	0.040147	0.15119	0.12896	0.16396	0.29033	-2.6188	-2.2604	-2.5125	-2.9917	-2.2354	-2.9771	-2.7062	-2.625	-2.9667	-2.3063	-2.6688	-2.9688	-2.2188	-3.1	-2.5521	-2.3333	89.590	28.041	151.965	120.745	-66.383	80.966	136.366	202.576	194.080	111.251	190.175	193.586	11.393	89.691	39.493	157.342	0.00091738	0.00079431	0.00033673	1833	5.3159e-06	4.0662e-06	1582.2	549.97	1.3269e-05	5.4839e-06	509.77	165.98	178.4	64.414	8.7194e-06	65.806	0.00096098	0.0010148	0.0002956	1498.3	1.1268e-05	1.0695e-05	1290.6	450.06	1.1314e-05	1.0751e-05	418.05	136.48	147.45	53.045	1.1056e-05	54.358	128.457	-27.131	-22.144	-130.440	149.796	-5.887	-131.411	-124.597	-21.887	150.960	-126.391	-122.884	-120.821	-114.810	17.746	-118.133	-8191	255	
21556.061	1	1	0	0	0.25168	0.045432	0.12667	0.11071	0.30423	0.18244	0.075748	0.23615	0.076113	0.14719	0.23579	0.14637	0.28492	0.37216	0.027674	0.27833	-2.4875	-2.0771	-2.5062	-2.9229	-2.2729	-2.9437	-2.8396	-2.5604	-2.9042	-2.2792	-2.7938	-2.9562	-2.2146	-3.0146	-2.6708	-2.4146	41.578	36.590	-21.005	-28.821	-123.190	173.161	62.613	173.115	94.352	188.895	188.167	187.067	212.921	212.829	84.449	162.444	0.0010679	0.0001322	0.00022813	1841.9	7.0275e-06	5.2315e-06	1572	546.06	7.7628e-06	5.178e-06	504.75	164.45	176.26	63.428	7.5851e-06	64.641	0.0010007	0.00099005	0.00028227	1493.4	1.1083e-05	1.0844e-05	1286	446.48	1.0314e-05	1.1122e-05	415.93	135.26	145.87	52.41	1.1569e-05	53.858	148.983	-12.212	-32.162	-130.776	-44.533	-81.206	-131.095	-124.561	-89.520	33.662	-126.430	-122.578	-120.768	-114.487	34.888	-118.137	-8191	255	
21556.156	1	1	0	0	0.21935	0.18511	0.011742	0.16095	0.2702	0.1285	0.2768	0.34564	0.16949	0.061371	0.35952	0.25946	0.2801	0.45264	0.2129	0.095178	-2.6333	-2.425	-2.5271	-2.9604	-2.1333	-2.8417	-3.1083	-2.4917	-2.9708	-2.5438	-2.6688	-2.9979	-2.4292	-2.9083	-2.6604	-2.3208	-9.646	156.927	203.977	-85.524	-86.707	199.527	102.874	166.854	-117.358	-2.758	195.877	142.073	108.051	213.732	-85.306	145.921	0.00095035	0.0012314	0.00022972	1836.9	1.2992e-05	9.1947e-06	1573.8	547.94	1.6082e-05	7.4194e-06	503.35	163.89	176.89	62.746	8.3957e-06	64.289	0.00093841	0.00099986	0.00028602	1494.4	1.0571e-05	1.1195e-05	1285.9	445.09	1.0362e-05	1.0585e-05	415.8	134.82	145.48	52.039	1.1207e-05	53.289	142.100	-98.547	211.776	-130.448	0.669	-16.420	-131.016	-124.308	-2.114	57.943	-126.066	-122.567	-120.762	-114.662	-23.572	-118.283	-8191	255	
21556.277	1	1	0	0	0.042265	0.20744	0.14557	0.11961	0.16519	0.21265	0.37848	0.21884	0.1603	0.051072	0.39839	0.31529	0.29244	0.11796	0.2482	0.4151	-2.4604	-2.4458	-2.2854	-2.9938	-2.15	-2.7125	-3.1708	-2.5417	-2.7542	-2.4354	-2.5229	-3.1458	-2.3771	-2.7812	-2.8458	-2.2146	136.659	-52.976	79.420	-110.363	-56.354	-138.824	177.252	210.695	73.349	39.069	176.727	-133.251	-121.054	-54.821	-66.932	146.840	0.00084924	0.0006358	0.00016508	1837.4	9.4372e-06	2.1739e-06	1580.1	544.06	1.5211e-05	3.797e-06	503.79	161.17	173.97	61.537	9.5785e-06	63.231	0.00093755	0.0010078	0.00028091	1495	1.0756e-05	1.1027e-05	1284.9	441.31	1.0427e-05	1.0869e-05	411.12	132.28	143.2	51.047	1.0858e-05	52.111	137.424	-90.072	-65.735	-129.763	-19.058	-62.417	-130.855	-124.471	-45.843	-25.080	-126.663	-123.104	-120.834	-115.182	-80.678	-118.581	-8191	255	
21556.371	1	1	0	0	0.33262	0.051592	0.15707	0.18894	0.17636	0.13133	0.3463	0.30262	0.19879	0.19509	0.35336	0.27542	0.044474	0.14576	0.055095	0.31602	-2.5938	-2.5687	-2.2229	-3.1583	-2.2521	-2.5021	-2.9646	-2.2875	-2.8063	-2.6792	-2.4	-3.0062	-2.5062	-2.55	-3.1375	-2.3646	113.443	-102.213	-127.332	212.559	-95.733	66.190	154.167	100.299	104.717	98.529	178.819	195.580	68.519	184.010	210.463	130.287	0.00073601	0.00054792	0.00031078	1831.4	5.3381e-06	8.5562e-06	1561.9	533.49	9.4072e-06	1.1454e-05	498.48	159.04	172.98	60.587	8.0119e-06	61.161	0.00093016	0.00099178	0.00028028	1492.9	1.053e-05	1.0872e-05	1273	436.25	1.039e-05	1.0842e-05	405.65	129.99	141.81	49.969	1.0387e-05	50.788	140.534	-92.607	-105.080	-130.507	-47.270	6.535	-131.600	-125.202	20.732	-34.463	-126.623	-123.121	-120.990	-114.741	4.192	-118.583	-8191	255	
21556.469	1	1	0	0	0.1858	0.081863	0.075871	0.19299	0.093363	0.13621	0.22614	0.26108	0.13306	0.19869	0.27095	0.076105	0.077227	0.19142	0.14215	0.097013	-2.3292	-2.675	-2.1396	-3.0396	-2.5521	-2.2188	-3.3646	-2.3896	-2.5875	-2.9	-2.2708	-3.0896	-2.475	-2.4188	-2.975	-2.2083	-59.614	184.193	-98.737	-86.450	-2.026	114.680	122.996	145.485	197.161	63.278	158.548	139.438	188.928	177.540	52.650	199.690	0.00083991	0.00042073	0.00021436	1825.2	8.3391e-06	6.2122e-06	1560.9	528.37	5.8171e-06	5.5346e-06	487.12	155.78	169.22	59.361	5.4296e-06	59.886	0.00088996	0.00097705	0.00027449	1489.6	1.0312e-05	1.0859e-05	1276	432.56	1.0696e-05	1.0417e-05	399.58	128.32	139.43	49.256	9.7495e-06	49.44	134.602	19.680	-34.999	-130.678	103.034	-38.094	-131.688	-124.853	8.393	3.735	-126.517	-122.743	-120.812	-114.982	-18.960	-118.724	-8191	255	
21556.564	1	1	0	0	0.092515	0.27133	0.26406	0.30383	0.16007	0.072536	0.20792	0.36224	0.2069	0.39428	0.076586	0.021358	0.080616	0.49109	0.16614	0.043435	-2.2562	-2.7417	-2.2021	-3.0563	-2.5167	-2.3563	-3.1729	-2.7042	-2.6813	-2.9208	-2.325	-2.9104	-2.6521	-2.3354	-3.0521	-2.5	137.617	111.527	172.009	-124.061	-129.110	143.596	122.361	207.987	78.702	199.731	200.210	51.252	140.714	169.612	73.717	95.838	0.00091954	0.00067544	0.00026898	1840.3	8.708e-06	5.0163e-06	1571	525.99	3.109e-06	1.7874e-05	483.65	152.93	167.4	58.561	1.4073e-05	59.004	0.00092127	0.00096689	0.00025662	1496.5	1.0434e-05	1.0329e-05	1274.7	429.36	1.0427e-05	1.0411e-05	394.91	126.03	137.88	48.291	9.7034e-06	48.705	151.460	-103.428	-62.827	-130.667	4.833	-111.327	-131.344	-125.049	-64.315	10.996	-126.987	-122.984	-120.691	-114.591	-17.096	-118.586	-8191	255	
21556.660	1	1	0	0	0.12369	0.01643	0.10281	0.28886	0.29656	0.25205	0.14205	0.10988	0.30193	0.19707	0.27242	0.37801	0.2787	0.22223	0.1709	0.18935	-2.1021	-2.9792	-2.2313	-2.9062	-2.7542	-2.3792	-3.1979	-2.5312	-2.2792	-2.9	-2.35	-2.8042	-2.6688	-2.3125	-3.0187	-2.3812	-101.132	-2.257	86.921	-55.717	-75.375	-92.398	-129.596	114.349	111.498	19.786	182.951	159.371	-142.300	148.758	-92.748	139.212	0.00074538	0.0011332	0.00025151	1817.1	8.3773e-06	8.303e-06	1566.7	524.05	4.1844e-06	5.4624e-07	481.75	152.37	166.25	58.558	1.2238e-05	58.607	0.00092266	0.00092506	0.0002502	1488.1	1.0529e-05	1.0473e-05	1275.7	427.82	1.0294e-05	1.0142e-05	393.47	125.5	137.37	48.24	9.6989e-06	48.494	150.720	-92.924	-69.168	-130.705	-59.340	-18.764	-131.325	-124.947	24.546	80.280	-126.480	-122.633	-120.637	-114.809	0.485	-118.461	-8191	255	
21556.758	1	1	0	0	0.17112	0.1058	0.18384	0.38398	0.035337	0.27029	0.22931	0.11453	0.29007	0.18975	0.2738	0.39	0.099373	0.35252	0.24056	0.067504	-2.0646	-2.9188	-2.2792	-2.5896	-2.7854	-2.2479	-3.1667	-2.5333	-2.3146	-2.9958	-2.4292	-2.7521	-2.7917	-2.2062	-2.7854	-2.7313	31.585	47.171	61.846	213.927	-58.758	61.605	134.726	-117.817	44.204	159.310	132.447	195.596	157.975	168.539	103.599	-40.337	0.00083252	0.00040365	0.00020172	1847.1	3.8327e-06	3.8204e-06	1563.7	523.94	8.3267e-06	5.0203e-06	479.17	151.7	165.92	58.04	4.8043e-06	58.326	0.00090788	0.00089813	0.00025918	1497.4	1.0543e-05	9.8261e-06	1271.6	429.01	1.0518e-05	9.7969e-06	392.31	124.57	137	48.118	1.0369e-05	48.151	152.509	40.260	-88.579	-130.376	0.177	-11.954	-131.169	-124.779	-31.755	10.988	-126.521	-122.591	-120.797	-114.689	72.076	-117.963	-8191	255	
21556.877	1	1	0	0	0.078557	0.11344	0.23407	0.23653	0.043332	0.049907	0.26469	0.11539	0.09082	0.2005	0.24716	0.23995	0.034872	0.10009	0.12107	0.15778	-1.9854	-3.1833	-2.2146	-2.8917	-2.8396	-2.2792	-2.9958	-2.9708	-2.1125	-3.0646	-2.5312	-2.5896	-3.0958	-2.2854	-2.9667	-2.8958	84.565	82.809	34.598	145.381	-129.484	87.115	-129.232	-115.558	-1.390	-116.368	-134.318	-115.725	99.407	-120.489	-36.574	187.402	0.00086411	0.00070457	0.00012707	1860.4	6.0246e-06	9.5881e-06	1548.3	523.9	8.4682e-06	6.3787e-06	478.75	151.56	165.9	58.23	5.2349e-06	57.618	0.00093083	0.0009148	0.00025816	1503.7	1.0477e-05	9.9795e-06	1266.7	429.78	1.0529e-05	1.0113e-05	393.41	124.47	137.51	48.095	1.0142e-05	48.028	142.424	-75.374	-55.437	-130.267	-45.496	19.331	-130.980	-124.662	-42.080	39.946	-126.306	-122.628	-120.590	-114.635	-36.688	-117.883	-8191	255	
21556.975	1	1	0	0	0.26427	0.11733	0.12883	0.2385	0.21859	0.2794	0.24206	0.37239	0.33256	0.089825	0.245	0.13393	0.030239	0.10555	0.14301	0.13008	-1.6042	-3.0625	-2.4458	-2.4292	-2.8208	-2.1917	-2.7625	-2.8979	-2.0563	-2.9792	-2.3917	-2.525	-3.0062	-2.375	-2.7	-2.8667	58.683	-74.113	31.553	-56.717	-7.227	186.828	117.524	156.782	213.031	-60.164	166.876	32.906	-90.894	201.763	118.438	213.632	0.0007922	0.00025934	0.00023267	1827.9	1.5623e-05	8.9159e-06	1547.8	522.76	9.632e-06	1.0276e-05	478.96	151.75	166.81	57.986	1.0273e-05	57.921	0.00089453	0.00091729	0.00027158	1497.5	1.0557e-05	1.0201e-05	1264	428.37	1.0428e-05	1.0269e-05	392.23	124.64	137.66	48.091	1.0653e-05	48.005	148.555	-39.501	-111.174	-130.286	-19.147	-51.066	-130.795	-124.390	-27.903	43.211	-126.606	-122.745	-120.824	-114.675	-72.570	-118.335	-8191	255	
21557.070	1	1	0	0	0.32019	0.12632	0.25192	0.04525	0.15971	0.10689	0.27286	0.27755	0.11827	0.17528	0.16384	0.15639	0.1699	0.31996	0.14199	0.17325	-1.8396	-2.85	-2.5938	-2.3271	-2.9875	-2.3187	-2.8187	-3.1625	-2.1271	-2.9375	-2.6917	-2.3167	-3.1562	-2.3729	-2.6021	-3.0646	85.219	-55.091	-134.428	-9.656	16.693	197.620	174.351	122.478	-40.279	126.393	7.403	-70.460	-78.287	170.455	36.307	137.479	0.00077584	0.00023052	0.00026482	1826.5	7.1145e-06	1.0411e-05	1549.2	526.49	9.4873e-06	1.137e-05	479.19	152.76	167.57	58.445	3.5366e-06	57.844	0.00093657	0.00095705	0.0002732	1488.6	1.0218e-05	1.0274e-05	1259.3	429.56	1.0125e-05	1.0681e-05	393.51	124.92	137.72	48.382	1.1005e-05	48.307	139.742	-12.982	-58.289	-130.415	26.116	17.610	-131.265	-124.654	-49.403	26.288	-126.775	-122.506	-120.188	-114.957	84.024	-118.671	-8191	255	
21557.164	1	1	0	0	0.2009	0.16748	0.18133	0.1486	0.14851	0.22453	0.19116	0.28379	0.17224	0.13058	0.25597	0.19484	0.13082	0.15895	0.081419	0.14874	-1.8333	-2.9625	-2.6729	-2.4417	-3.0583	-2.4354	-2.6021	-3.0938	-2.2583	-2.8792	-2.7479	-2.4437	-2.9604	-2.6562	-2.4562	-3.0917	-40.769	-48.561	190.821	187.443	153.152	134.295	167.404	-131.422	114.745	201.334	122.857	-136.523	-113.523	-110.312	-93.584	-140.991	0.00050919	0.00062797	0.00041696	1828.9	2.5059e-06	3.4299e-06	1532.8	522.94	5.3377e-06	3.8394e-06	473.89	150.22	165.49	57.675	9.6669e-06	57.331	0.00092918	0.00096019	0.00028278	1487.6	1.0462e-05	1.1057e-05	1251.2	427.46	1.0296e-05	1.1383e-05	388.55	124.02	136.56	47.964	1.1161e-05	47.7	135.501	-61.752	-108.276	-130.437	-7.074	40.392	-130.886	-124.889	-117.768	-68.837	-126.858	-123.289	-120.088	-115.128	-17.522	-118.257	-8191	255	
21557.260	1	1	0	0	0.12912	0.02503	0.2359	0.19108	0.22867	0.21348	0.55278	0.23586	0.18868	0.045435	0.34338	0.1191	0.0981	0.29778	0.18308	0.31465	-1.7271	-2.7896	-2.9458	-2.15	-2.8792	-2.6604	-2.5708	-3.1896	-2.2292	-2.6896	-2.8771	-2.3917	-3.1208	-2.4833	-2.4167	-3	89.885	-126.517	-32.852	-135.171	-77.273	80.594	178.220	163.312	104.924	-141.045	186.805	193.623	193.635	150.327	-123.587	127.431	0.00084108	0.0002328	0.00022782	1795.8	1.0571e-05	7.1071e-06	1515.1	518.23	8.3986e-06	9.0468e-06	473.98	149.02	166.21	58.049	1.6617e-05	57.493	0.00092341	0.001012	0.00027591	1464.9	1.0561e-05	1.1034e-05	1241.4	423.85	1.047e-05	1.1125e-05	387.19	122.77	136.51	47.88	1.0536e-05	47.602	152.421	-51.809	-74.673	-130.285	-7.504	-27.127	-131.045	-124.665	-46.822	14.962	-126.761	-122.860	-120.711	-115.031	0.714	-118.160	-8191	255	
21557.355	1	1	0	0	0.024571	0.14006	0.1993	0.27479	0.094394	0.21261	0.3414	0.45314	0.26241	0.10613	0.13765	0.32896	0.23151	0.09843	0.20892	0.20498	-1.8896	-2.725	-2.9729	-2.2083	-2.8208	-2.6521	-2.4667	-3.3708	-2.2229	-2.6042	-3.0167	-2.3187	-2.7958	-2.8729	-2.2375	-2.925	-20.312	-125.647	137.783	216.650	1.444	211.230	209.058	215.615	127.631	203.310	73.549	107.896	215.778	198.266	-123.566	170.630	0.00083769	0.0007345	0.00029124	1814.6	6.0541e-06	1.0152e-05	1523.2	518.23	1.2008e-05	8.0903e-06	474.45	150.2	167.09	57.916	9.9252e-06	59.616	0.00094274	0.0010504	0.00027541	1473.5	1.0891e-05	1.0909e-05	1242.5	425.25	1.0797e-05	1.1403e-05	389.77	124.03	137.81	48.216	1.0707e-05	49.066	126.756	-85.092	-93.860	-130.658	-13.405	-33.194	-130.986	-124.920	-72.018	-115.978	-126.575	-123.039	-120.525	-114.513	24.032	-118.308	-8191	255	
21557.453	1	1	0	0	0.067932	0.096144	0.082973	0.33687	0.14303	0.37315	0.2544	0.1921	0.040499	0.10158	0.12732	0.16785	0.35697	0.070193	0.094449	0.20108	-1.8958	-2.4417	-3.0563	-2.1771	-2.7	-2.8438	-2.4104	-3.1646	-2.7229	-2.3875	-3.1271	-2.3292	-2.6854	-2.9854	-2.2708	-3.1188	103.068	-34.879	120.703	140.464	81.210	-8.374	185.815	146.726	136.828	-9.729	-47.614	-94.605	99.598	-106.444	-26.190	166.261	0.00088288	0.00073673	0.00019583	1796.2	5.629e-06	9.6333e-06	1523.4	522.05	5.3327e-06	9.0883e-06	480.88	152.87	167.04	58.988	8.8735e-06	58.998	0.00094789	0.0010175	0.00026656	1467.3	1.0979e-05	1.1323e-05	1247	427.92	1.1015e-05	1.0847e-05	394.02	125.74	138.47	49.164	1.0427e-05	49.129	139.885	-31.105	-5.452	-129.867	10.536	2.833	-131.405	-124.637	-92.082	-39.750	-126.408	-122.712	-120.313	-114.887	16.005	-118.300	-8191	255	
21557.549	1	1	0	0	0.043212	0.23917	0.062022	0.27468	0.028626	0.20421	0.31055	0.1689	0.042678	0.214	0.27762	0.34073	0.32549	0.50992	0.16118	0.14497	-2.2021	-2.4583	-2.8708	-2.4062	-2.6917	-2.7687	-2.2375	-3.2271	-2.6354	-2.4042	-3.0438	-2.2792	-2.7354	-2.9542	-2.2958	-2.9875	-125.247	74.154	-89.525	193.650	181.610	167.013	189.969	146.147	-67.284	167.938	190.219	117.402	120.490	182.040	-43.242	159.052	0.00067837	0.00084996	0.0001184	1797.5	3.3313e-06	6.4016e-06	1521	526	8.9215e-06	8.6725e-06	480.5	153.27	168.07	59.751	1.6256e-05	60.343	0.00095786	0.00099984	0.00026495	1464	1.0922e-05	1.1114e-05	1248.1	429.89	1.0833e-05	1.0751e-05	394.26	126.26	139.12	49.419	1.0217e-05	49.891	125.662	3.575	-117.942	-130.162	33.514	55.082	-131.383	-124.336	-85.018	-85.282	-126.580	-122.524	-120.231	-114.955	-5.413	-118.243	-8191	255	
21557.670	1	1	0	0	0.061385	0.19315	0.15862	0.27702	0.048647	0.17381	0.23386	0.27623	0.13949	0.11381	0.12421	0.14507	0.32006	0.19088	0.14909	0.13007	-2.2896	-2.3333	-3.0438	-2.4354	-2.5604	-2.9646	-2.45	-2.8187	-2.7146	-2.0687	-3.1292	-2.4938	-2.3917	-2.9583	-2.1792	-2.6958	92.355	-128.235	-51.590	183.710	125.734	-62.451	158.746	189.890	-69.723	129.838	-108.435	158.931	186.656	147.307	9.958	8.255	0.00092287	0.0011799	0.00015741	1801.4	5.071e-06	1.0015e-05	1528.2	528.49	1.2552e-05	3.5991e-06	489.08	154.74	170.58	61.201	1.1153e-05	61.537	0.00096941	0.0010046	0.00027037	1469.2	1.1311e-05	1.0653e-05	1250.9	432.38	1.071e-05	1.0841e-05	398.72	127.91	141.24	50.498	1.1082e-05	51.214	151.881	-20.177	-20.180	-130.442	-50.797	21.875	-131.792	-124.743	23.324	-6.473	-126.316	-122.708	-120.421	-114.979	-50.239	-118.034	-8191	255	
21557.766	1	1	0	0	0.10407	0.24691	0.19597	0.23304	0.18935	0.11782	0.15544	0.20146	0.32106	0.23298	0.24748	0.1923	0.050471	0.0725	0.28988	0.26042	-2.2938	-2.0938	-2.9771	-2.5208	-2.3729	-2.9396	-2.45	-2.7438	-2.8521	-2.1771	-3.1125	-2.475	-2.4833	-3.0229	-2.3417	-2.6729	129.370	153.168	52.569	194.150	-126.488	-122.945	115.963	193.182	-70.799	-80.337	-114.139	-81.711	187.823	123.901	214.716	166.939	0.00057019	0.0013947	0.00014184	1817.5	5.7085e-06	4.0481e-06	1539.6	537.05	8.2425e-06	5.2486e-06	498.96	161.81	177.34	63.722	8.1082e-06	64.131	0.00096483	0.0010552	0.00029021	1479.7	1.1538e-05	1.0937e-05	1262.1	440.53	1.1451e-05	1.1514e-05	411.34	133.37	145.81	52.789	1.171e-05	53.714	147.472	10.858	-71.472	-129.744	19.863	2.807	-131.034	-124.411	-95.936	9.650	-125.821	-122.540	-120.442	-114.742	-86.187	-117.882	-8191	255	
21557.838	1	1	0	0	0.31541	0.34706	0.047736	0.25446	0.34521	0.21576	0.31794	0.53534	0.15325	0.14859	0.2267	0.27951	0.13035	0.072369	0.084172	0.14349	-2.4604	-2.2708	-2.8896	-2.6396	-2.3146	-3.1354	-2.4938	-2.6542	-2.8979	-2.0875	-2.9021	-2.6937	-2.3833	-3.125	-2.4	-2.4875	145.988	44.763	133.115	-107.302	-74.786	-10.507	143.870	194.424	-114.382	-24.005	166.263	117.807	82.576	-135.069	87.848	88.264	0.00076729	0.0010854	0.00033158	1812	4.0508e-06	9.228e-06	1556.3	548.1	5.4174e-06	1.3252e-05	509.61	166.87	179.96	65.961	5.2628e-06	67.407	0.0010119	0.0010394	0.00030727	1478.4	1.1553e-05	1.1354e-05	1276.7	448.42	1.1003e-05	1.1804e-05	420.36	137.68	148.77	54.648	1.2234e-05	56.16	147.569	-93.844	-69.051	-129.912	-115.222	12.859	-131.167	-124.444	58.787	5.812	-126.152	-122.692	-120.298	-114.815	51.007	-118.237	-8191	255	
21557.957	1	1	0	0	0.14994	0.23706	0.18146	0.077553	0.12413	0.14932	0.26651	0.16503	0.13481	0.28421	0.41569	0.31884	0.3004	0.15606	0.12509	0.14316	-2.4375	-2.1646	-2.9708	-2.65	-2.1188	-2.8917	-2.65	-2.65	-2.8771	-2.2167	-2.8833	-2.8479	-2.2604	-3.1208	-2.5958	-2.45	-11.541	30.309	-63.539	156.880	128.592	132.977	142.257	-135.906	123.973	30.678	136.090	194.262	195.828	177.584	-7.871	-39.199	0.00088015	0.00063715	0.00023202	1817.4	3.0046e-06	1.0505e-05	1580.8	556.96	1.3294e-05	9.0761e-06	519.31	170.67	183.97	66.558	6.3216e-06	68.548	0.0010416	0.001093	0.00031793	1485.1	1.1538e-05	1.1595e-05	1293.3	453.43	1.179e-05	1.2274e-05	425.77	140.1	150.87	55.208	1.2575e-05	56.755	135.339	-78.085	-101.111	-130.526	-105.851	5.135	-130.924	-124.109	-71.293	7.229	-126.379	-122.521	-120.424	-114.790	-91.219	-118.470	-8191	255	
21558.055	1	1	0	0	0.062755	0.25869	0.16125	0.12579	0.30518	0.18898	0.31082	0.10432	0.14748	0.2775	0.14552	0.19717	0.214	0.33052	0.18766	0.24993	-2.5917	-2.2875	-2.6854	-2.8604	-2.3292	-2.9917	-2.75	-2.6813	-3.0687	-2.2583	-2.6375	-2.9979	-2.1854	-3.0417	-2.7375	-2.3979	70.394	-96.515	30.253	71.005	-23.189	145.140	167.631	172.177	97.450	-67.362	129.503	182.295	197.544	182.343	150.524	129.736	0.00087509	0.00047397	0.00020153	1830.6	8.0058e-06	6.2159e-06	1579.6	560.07	8.261e-06	7.4896e-06	523.6	173.11	183.51	68.521	1.634e-05	68.801	0.0010117	0.001155	0.00032495	1490.1	1.238e-05	1.2719e-05	1296.6	458.5	1.2014e-05	1.2713e-05	431.61	142.03	152.09	56.48	1.3151e-05	57.357	134.632	156.278	-10.595	-130.114	59.523	-3.111	-131.085	-124.536	-19.482	34.951	-125.990	-122.186	-120.503	-114.470	-8.405	-118.319	-8191	255	
21558.150	1	1	0	0	0.31919	0.17344	0.052763	0.40646	0.12476	0.15996	0.27774	0.32967	0.25321	0.17449	0.37017	0.11503	0.23433	0.11526	0.20882	0.1462	-2.6646	-2.2708	-2.6208	-3.0521	-2.0646	-2.7979	-2.6604	-2.6083	-3.025	-2.4396	-2.5896	-3.0479	-2.3646	-2.8333	-2.7292	-2.3708	9.537	-46.262	169.956	190.432	-92.534	3.959	187.465	144.364	-28.039	-6.235	144.207	-126.917	-69.051	216.058	38.324	-90.677	0.0010075	0.00027931	0.00035467	1837.5	9.6106e-06	7.3985e-06	1585.2	563.4	1.2238e-05	3.2349e-06	534.14	175.39	187.99	69.12	3.0265e-06	70.793	0.0010619	0.0012313	0.00034177	1499.6	1.2456e-05	1.3356e-05	1300.6	460.8	1.2507e-05	1.3336e-05	436.84	144.36	155.17	57.445	1.3226e-05	58.743	148.637	149.125	-99.508	-130.330	11.371	-35.749	-130.966	-124.084	-46.771	18.161	-125.885	-122.409	-120.531	-114.798	-14.640	-118.182	-8191	255	
21558.270	1	1	0	0	0.43008	0.023436	0.039631	0.15379	0.056426	0.30441	0.27052	0.11005	0.17011	0.1258	0.43592	0.1313	0.07678	0.19189	0.11383	0.13017	-2.6396	-2.4146	-2.4938	-3.1375	-2.1729	-2.9021	-2.9417	-2.3729	-2.8958	-2.5417	-2.55	-3.1146	-2.3312	-2.7479	-2.7708	-2.325	136.231	-38.154	-61.831	136.964	-127.523	-13.643	171.820	184.340	177.885	69.679	-113.481	112.891	159.193	192.456	-115.979	93.324	0.0011417	0.00061283	0.00024442	1851.5	8.7328e-06	9.6688e-06	1589.8	569.32	5.2308e-06	1.1679e-05	536.1	177.19	188.38	69.812	1.5457e-05	71.217	0.0011792	0.0012882	0.00034988	1505.4	1.3331e-05	1.433e-05	1309.6	466.61	1.3024e-05	1.3948e-05	442	146.2	156.22	57.987	1.3989e-05	59.102	148.761	-23.911	-89.945	-129.800	9.696	-4.436	-131.270	-124.516	-50.915	-15.937	-126.311	-122.684	-121.017	-114.599	-9.989	-118.392	-8191	255	
21558.365	1	1	0	0	0.076781	0.069284	0.19708	0.20006	0.12336	0.030108	0.16547	0.50054	0.071911	0.033715	0.20781	0.26267	0.17954	0.3623	0.062709	0.25624	-2.5271	-2.5563	-2.2104	-3.0708	-2.1729	-2.4062	-3.1146	-2.3083	-3.0458	-2.5438	-2.3979	-2.9354	-2.3521	-2.7271	-2.925	-2.3937	-82.616	-102.752	-113.532	146.785	-114.365	-138.148	143.027	164.581	1.181	108.160	140.993	154.837	187.938	200.164	-60.885	-106.659	0.00098524	0.0001881	0.00040554	1834	1.0736e-05	5.4882e-06	1598.8	566.67	1.3899e-05	1.9706e-05	534.74	177.48	186.65	69.221	5.9889e-06	69.917	0.0011701	0.0012757	0.00035413	1501	1.407e-05	1.4238e-05	1304.7	465.82	1.3773e-05	1.4049e-05	440.08	145.24	155.31	57.352	1.3136e-05	58.119	126.802	192.126	-100.456	-130.078	9.193	-2.660	-131.298	-124.152	-17.603	3.944	-125.922	-122.707	-120.667	-114.899	16.709	-118.253	-8191	255	
21558.438	1	1	0	0	0.1755	0.17854	0.18324	0.25298	0.092717	0.22602	0.29461	0.18711	0.26846	0.36953	0.26741	0.023926	0.24994	0.16914	0.16458	0.053698	-2.2729	-2.7146	-2.2333	-3.0187	-2.5625	-2.675	-3.1	-2.4583	-2.7125	-2.6188	-2.6	-3.1292	-2.3729	-2.5479	-3.025	-2.6167	80.168	-50.071	3.262	136.076	95.318	-95.783	158.200	171.980	156.211	43.753	131.680	31.399	209.710	-133.639	-107.085	142.105	0.0010502	0.00045435	0.00044318	1834.7	6.5672e-06	1.7195e-05	1582	564.07	7.6842e-06	5.9935e-06	527.23	173.22	186.79	68.928	1.212e-05	69.021	0.0012365	0.001329	0.00034514	1497.8	1.4217e-05	1.4779e-05	1297.4	463.47	1.3868e-05	1.4403e-05	434.8	142.97	154.17	57.116	1.3558e-05	57.814	159.832	-28.769	-57.855	-129.903	14.657	49.715	-131.034	-124.569	-77.700	34.938	-126.292	-122.757	-120.257	-114.708	61.135	-118.536	-8191	255	
21558.557	1	1	0	0	0.031224	0.10111	0.071037	0.44136	0.10437	0.10469	0.17926	0.18962	0.12069	0.15753	0.24479	0.11659	0.040877	0.48346	0.17766	0.21044	-2.2271	-2.7292	-2.1437	-3.1208	-2.4292	-2.4375	-3.3812	-2.5125	-2.6917	-2.7646	-2.325	-3.0896	-2.6271	-2.3521	-3.0375	-2.2687	-48.531	-41.714	-46.801	184.485	86.490	151.462	201.447	165.098	212.843	-139.246	166.872	212.989	82.069	198.802	-127.578	121.375	0.00087834	0.001385	0.00024698	1817.6	1.0784e-05	2.2244e-06	1560.5	561.16	1.0881e-05	6.1005e-06	522.73	170.36	182.73	67.703	5.2446e-06	67.931	0.0012495	0.0012907	0.00035137	1487.2	1.4176e-05	1.3886e-05	1285.3	461.26	1.4032e-05	1.362e-05	433.12	141.22	152.25	56.188	1.3867e-05	56.812	137.854	-39.734	12.899	-130.157	25.904	175.055	-130.986	-124.378	-88.489	-14.772	-125.992	-122.565	-119.928	-114.902	38.667	-117.867	-8191	255	
21558.654	1	1	0	0	0.075986	0.1335	0.1868	0.034501	0.11126	0.16611	0.12632	0.27858	0.27717	0.11674	0.25496	0.18095	0.22888	0.032711	0.036237	0.3545	-2.1	-2.9021	-2.0563	-2.9854	-2.5563	-2.3771	-3.2687	-2.4542	-2.4313	-3.0938	-2.4167	-3.0333	-2.6875	-2.3646	-3.0021	-2.5333	39.597	-103.256	-118.942	213.909	80.946	-31.931	104.761	-128.571	88.028	8.013	155.041	104.318	118.856	175.690	108.090	162.811	0.00092825	0.00084084	0.00034041	1807.3	5.9886e-06	4.0448e-06	1566.3	558.8	8.8882e-06	1.5601e-05	515.86	166.88	182.27	66.87	1.3683e-05	67.17	0.0011928	0.0012006	0.00035091	1484.5	1.3566e-05	1.3143e-05	1284.7	457.6	1.3539e-05	1.2784e-05	426.74	139.26	150.91	55.496	1.3074e-05	56.228	142.553	-54.630	-68.039	-130.399	76.718	-25.582	-131.043	-124.421	-99.734	17.472	-126.404	-122.293	-120.494	-114.308	-74.337	-118.215	-8191	255	
21558.750	1	1	0	0	0.11378	0.15593	0.12431	0.063311	0.073131	0.20713	0.1538	0.32959	0.15069	0.34402	0.1962	0.10708	0.21606	0.37203	0.1573	0.33344	-2.0771	-2.7938	-2.3708	-2.9167	-2.9688	-2.0104	-3.1875	-2.7375	-2.5187	-3.0646	-2.3583	-2.9271	-2.7583	-2.4542	-2.9646	-2.6833	149.072	-46.768	107.251	91.800	168.989	33.431	110.474	137.493	-31.221	-22.781	180.748	174.483	48.496	207.403	-73.279	190.443	0.00069692	0.0011221	9.7069e-05	1805.8	3.9662e-06	9.9872e-06	1573	557.36	1.8394e-05	1.679e-06	518.8	168.19	182.59	66.492	4.4072e-06	66.911	0.0011463	0.001164	0.0003497	1487.4	1.3034e-05	1.3023e-05	1293.9	457.06	1.3096e-05	1.2691e-05	429.32	139.36	150.84	55.314	1.2873e-05	55.783	147.523	-25.486	-69.971	-130.405	-63.925	-55.611	-130.901	-124.567	-44.952	-36.763	-126.066	-122.306	-120.317	-114.518	-131.481	-118.380	-8191	255	
21558.846	1	1	0	0	0.14502	0.1705	0.13188	0.18461	0.082607	0.19102	0.1973	0.12332	0.15253	0.071846	0.2884	0.11051	0.17487	0.18847	0.14826	0.32499	-1.9167	-3.0354	-2.2625	-2.9417	-2.9875	-2.2438	-3.0875	-2.5938	-2.3583	-3.0792	-2.5229	-2.4917	-2.9042	-2.3542	-2.8979	-2.7104	-87.325	-23.100	76.174	103.496	-62.194	15.776	133.579	216.727	-120.275	57.138	156.485	140.371	163.413	-111.139	80.569	171.483	0.00088738	0.00055645	0.00031375	1804.7	7.6311e-06	6.6373e-06	1559.5	552.53	9.2174e-06	1.092e-05	515.21	164.55	178.91	65.098	8.9639e-06	65.501	0.0010881	0.0011287	0.00033832	1484.7	1.2417e-05	1.2831e-05	1287.2	455.45	1.253e-05	1.2534e-05	424.51	137.25	148.54	54.348	1.28e-05	54.649	139.883	-18.123	-52.357	-129.729	-44.776	32.307	-130.904	-124.404	-42.828	5.550	-126.133	-122.454	-120.012	-114.696	-67.942	-118.529	-8191	255	
21558.967	1	1	0	0	0.050091	0.22165	0.26961	0.16714	0.081424	0.37874	0.40197	0.31082	0.17222	0.21091	0.11586	0.37882	0.2423	0.030685	0.078617	0.039215	-1.9813	-3.0396	-2.4125	-2.5854	-2.9125	-2.2208	-3.175	-2.8646	-2.0458	-3.0583	-2.625	-2.5479	-3.0083	-2.4	-2.9208	-2.9896	103.556	171.521	123.181	147.447	-64.781	100.424	160.784	148.299	20.600	-24.827	152.707	178.985	148.316	211.357	196.672	12.148	0.00051095	0.00043066	0.00028534	1798.9	8.0725e-06	9.9976e-06	1541.8	539.53	9.134e-06	1.0128e-05	495.78	159.53	174.05	62.796	6.8222e-06	62.65	0.0010419	0.0010892	0.00032076	1480.2	1.1778e-05	1.2262e-05	1271.9	445.04	1.1728e-05	1.2262e-05	411.78	132.8	145.13	52.602	1.2091e-05	52.513	128.846	-72.680	-74.934	-129.978	-28.081	-43.589	-130.716	-124.406	-40.308	-17.318	-125.984	-122.373	-120.293	-114.536	4.251	-117.980	-8191	255	
21559.061	1	1	0	0	0.16909	0.013953	0.054455	0.45622	0.15721	0.31596	0.34686	0.27537	0.083841	0.0091343	0.054425	0.27419	0.058633	0.34193	0.039871	0.19923	-1.9813	-3.0625	-2.3812	-2.5396	-2.9896	-2.2229	-2.8979	-2.9625	-2.2479	-3.0875	-2.5646	-2.5729	-3.1458	-2.3812	-2.7042	-2.9625	-46.298	-47.337	-56.794	208.661	206.414	-79.104	129.249	156.818	-51.765	60.047	194.801	136.585	182.106	-117.216	183.115	-131.789	0.00088219	0.00015424	0.00036307	1788.1	9.122e-06	6.969e-06	1520.3	533.09	3.9246e-06	9.1191e-06	488.78	157.04	171.14	61.562	3.9258e-06	61.062	0.0010595	0.0011196	0.00031151	1475.4	1.14e-05	1.2036e-05	1262.7	440.42	1.1502e-05	1.2121e-05	405.62	130.54	142.82	51.498	1.2122e-05	51.23	139.556	-134.949	-82.837	-129.835	18.945	-37.833	-130.746	-124.321	-37.469	-6.682	-125.882	-121.898	-119.955	-114.498	110.053	-117.847	-8191	255	
21559.135	1	1	0	0	0.16649	0.17579	0.30303	0.34634	0.11742	0.05657	0.080143	0.37101	0.037754	0.14245	0.08678	0.23188	0.22852	0.32396	0.21283	0.16312	-1.7521	-2.9875	-2.5521	-2.3937	-2.9625	-2.2896	-2.7146	-3.1	-2.1792	-2.9792	-2.5146	-2.4354	-3.1042	-2.3979	-2.5229	-3.0396	-79.515	20.282	119.969	186.266	199.424	185.380	168.414	154.918	139.562	145.357	111.421	-127.621	184.488	-115.588	113.843	-140.309	0.0010104	0.0011718	0.00027745	1784.6	7.0708e-06	1.352e-05	1520.3	532.9	1.0205e-05	1.1568e-05	480.36	153.73	170.24	60.173	8.1961e-06	59.36	0.00102	0.001102	0.00030896	1469.1	1.1561e-05	1.1937e-05	1258	437.62	1.1381e-05	1.1733e-05	400.17	127.87	141.1	50.215	1.1025e-05	49.811	137.255	-49.946	-99.911	-129.949	-13.891	17.940	-130.559	-124.260	-16.868	41.372	-125.756	-121.883	-120.281	-114.524	-3.997	-118.366	-8191	255	
21559.230	1	1	0	0	0.19107	0.089749	0.27304	0.24364	0.23707	0.11611	0.24569	0.25709	0.12557	0.06373	0.024053	0.50301	0.24287	0.39842	0.32578	0.28433	-1.8875	-2.7875	-2.5687	-2.2479	-3.0062	-2.5833	-2.6042	-3.2083	-2.3812	-2.9792	-3.0708	-2.3521	-3.1312	-2.5312	-2.3417	-3.0271	-131.932	-60.134	-36.891	-110.383	181.832	11.616	38.872	160.502	55.067	-135.854	-96.201	116.148	128.075	161.853	-6.762	62.687	0.00064141	0.0007882	0.0001885	1770.4	1.2226e-05	6.9257e-06	1515.1	518.06	9.9959e-07	5.2683e-06	472.9	150.08	164.63	58.647	1.2279e-05	57.315	0.0010138	0.0010726	0.00028713	1461.2	1.1662e-05	1.1448e-05	1251	429.93	1.117e-05	1.1387e-05	391.56	124.67	137.06	48.82	1.1099e-05	47.898	151.056	-75.764	-84.425	-130.103	33.534	75.790	-130.927	-124.243	-127.544	16.839	-126.641	-122.170	-120.763	-114.668	65.582	-118.238	-8191	255	
21559.350	1	1	0	0	0.068216	0.1082	0.1272	0.38711	0.077726	0.11355	0.20191	0.20232	0.38391	0.27371	0.31328	0.12124	0.049597	0.18429	0.34989	0.044185	-1.9188	-2.7021	-2.9	-2.2188	-3.0417	-2.6813	-2.5312	-3.2562	-2.3333	-2.7146	-2.9271	-2.3417	-2.9708	-2.7938	-2.4083	-3.0375	185.520	11.743	38.900	131.825	-87.462	153.103	-94.935	-111.589	212.332	-77.125	168.533	152.729	150.891	134.963	81.655	211.734	0.00068989	0.0012432	0.00022127	1763.6	1.6311e-05	8.0432e-06	1492.1	514.98	1.0717e-05	1.1726e-05	463.47	145.52	162.2	56.332	2.511e-06	55.289	0.00095589	0.0010111	0.00025664	1454.9	1.1185e-05	1.0707e-05	1236	423.68	1.0908e-05	1.0697e-05	382.69	120.67	134.07	47.183	1.0412e-05	46.27	142.241	-101.457	192.919	-130.059	-6.061	-33.726	-130.791	-124.603	-32.452	18.141	-126.369	-122.246	-120.091	-114.550	-71.842	-118.241	-8191	255	
21559.445	1	1	0	0	0.092074	0.14055	0.079388	0.18375	0.23252	0.28222	0.34325	0.11618	0.17591	0.1031	0.050531	0.095834	0.2325	0.19285	0.179	0.09065	-1.9854	-2.4958	-2.9396	-2.3021	-2.9104	-2.5687	-2.3104	-3.2646	-2.4437	-2.5792	-2.9667	-2.1792	-2.7521	-2.8479	-2.1188	-3.3063	135.424	38.687	39.357	147.668	-6.688	196.274	130.498	200.089	211.730	-19.149	86.543	74.462	187.671	-104.662	176.736	67.944	0.00064176	0.00022462	0.0002798	1754.2	8.1318e-06	4.3426e-06	1479.6	507.62	8.753e-06	1.1986e-05	456.82	143.93	160.12	55.882	2.4639e-06	54.698	0.00094724	0.00096821	0.00026288	1451.7	1.1123e-05	1.0513e-05	1224.7	419.74	1.0808e-05	1.0557e-05	378.74	119.37	133.48	46.632	1.0345e-05	45.764	141.972	154.795	-48.407	-130.079	-33.060	47.677	-130.959	-124.657	-61.956	-11.517	-126.042	-122.655	-120.247	-114.584	-54.633	-118.268	-8191	255	
21559.543	1	1	0	0	0.040888	0.19048	0.23386	0.13383	0.19792	0.16894	0.45258	0.14641	0.14738	0.45619	0.22232	0.041074	0.20568	0.11728	0.0091122	0.16231	-2.2021	-2.3333	-3.0667	-2.3604	-2.8812	-2.7812	-2.4188	-3.0938	-2.5167	-2.2104	-2.9979	-2.3688	-2.8396	-2.8625	-2.2646	-3.0333	110.890	78.413	78.642	-40.777	-43.200	-23.100	157.685	185.327	132.479	163.549	162.793	-79.844	-125.581	-20.926	75.988	216.219	0.00075766	0.0011685	0.00021143	1769.1	7.9489e-06	5.8479e-06	1481.7	504.58	6.4268e-06	6.6472e-06	456.95	143.93	159.89	55.817	1.4352e-05	54.883	0.0009532	0.00095052	0.00026957	1456	1.0801e-05	1.0149e-05	1226.8	418.45	1.0695e-05	1.0559e-05	379.69	120.08	133.45	46.727	1.0715e-05	45.959	152.213	-44.983	-36.740	-130.003	-51.591	-26.163	-130.885	-124.530	-65.334	25.698	-126.605	-122.675	-119.915	-114.015	35.219	-118.336	-8191	255	
21559.639	1	1	0	0	0.22683	0.18912	0.11633	0.44821	0.19363	0.33271	0.17132	0.28872	0.071497	0.14293	0.15237	0.22638	0.18733	0.062498	0.12154	0.23357	-2.1083	-2.3	-2.9354	-2.4938	-2.7604	-2.8583	-2.4729	-3.0979	-2.5667	-2.3979	-2.9417	-2.4417	-2.5917	-3.0896	-2.2812	-3.1958	34.431	98.293	11.418	208.317	-96.814	150.380	213.218	163.943	-131.742	119.068	-87.340	155.234	-65.416	158.067	-100.623	96.727	0.0007128	0.00071477	0.00020225	1778.3	7.4957e-06	8.2698e-06	1485.1	511.29	9.4189e-06	1.2986e-05	460.74	144.63	162.38	55.971	1.0612e-05	55.763	0.00093893	0.00096375	0.00027489	1454.4	1.0389e-05	1.0426e-05	1229.4	422.79	1.048e-05	1.0675e-05	383.35	120.42	134.7	46.881	1.0966e-05	46.502	133.046	-102.031	-23.423	-130.302	82.721	93.009	-131.457	-123.904	-17.072	18.609	-125.935	-122.440	-119.849	-114.610	17.076	-117.637	-8191	255	
21559.734	1	1	0	0	0.19141	0.26929	0.10755	0.34178	0.14395	0.08046	0.078826	0.26955	0.1204	0.18559	0.17223	0.19886	0.32577	0.27326	0.097945	0.27187	-2.325	-2.3292	-2.9583	-2.55	-2.4917	-3.0833	-2.475	-2.8729	-2.725	-2.1458	-3.0979	-2.4562	-2.4896	-3.0146	-2.225	-2.7854	10.967	-115.728	-62.325	-127.999	37.695	179.883	137.519	153.289	217.040	1.235	149.978	-51.318	209.635	192.018	67.601	83.867	0.00063699	0.00049553	0.00022231	1773.5	7.4002e-06	1.7691e-05	1496.8	507.19	1.1534e-05	9.9415e-06	463.16	143.81	160.83	55.611	2.1304e-06	54.61	0.00090737	0.00097749	0.00027351	1460	1.0346e-05	1.0518e-05	1235.4	420.55	1.0192e-05	1.0428e-05	383.73	119.96	133.54	46.496	1.0904e-05	45.988	133.025	-52.561	-34.062	-130.087	28.663	-2.158	-130.767	-124.430	-11.857	-4.285	-126.280	-122.694	-120.306	-114.472	61.822	-117.593	-8191	255	
21559.830	1	1	0	0	0.040156	0.18947	0.3052	0.16734	0.18913	0.098764	0.21509	0.11397	0.21105	0.17544	0.26905	0.24566	0.067516	0.27214	0.28252	0.17817	-2.5167	-2.2542	-2.9875	-2.6958	-2.3042	-3.0625	-2.4979	-2.8667	-2.8854	-2.2062	-3.025	-2.5062	-2.3042	-3.1771	-2.2917	-2.8542	100.479	196.906	-34.360	-110.456	-116.342	-11.964	132.144	135.312	-60.646	-94.418	-132.344	148.376	-73.466	-67.115	179.897	164.601	0.00078969	0.00059178	0.00028542	1767.6	4.3179e-06	1.2864e-05	1480.1	507.46	8.4883e-06	6.1907e-06	452.89	144.34	158.77	54.756	1.1878e-05	54.422	0.00088999	0.00098914	0.0002768	1454.2	1.0208e-05	1.0839e-05	1230.5	420.54	1.0133e-05	1.1064e-05	381.11	119.84	133.22	46.341	1.086e-05	45.735	128.892	-35.217	14.757	-129.903	29.832	-56.005	-131.006	-124.298	-42.332	81.599	-126.257	-122.408	-119.895	-114.625	52.596	-117.979	-8191	255	
21559.951	1	1	0	0	0.094641	0.06027	0.090418	0.050061	0.17303	0.063937	0.27236	0.045091	0.049555	0.041087	0.13914	0.24005	0.15635	0.20983	0.14652	0.099083	-2.3979	-2.1188	-2.7458	-2.9062	-2.2271	-2.9	-2.3	-2.8667	-2.9479	-2.2208	-2.7812	-2.5771	-2.4167	-3.1521	-2.4396	-2.6229	-37.817	-116.359	57.049	102.503	-26.434	-73.398	139.466	185.228	-26.279	35.545	180.499	157.177	138.192	209.233	-136.451	173.785	0.00088295	0.00032826	0.0002481	1768.1	1.4976e-05	5.8698e-06	1506.1	508.65	1.2267e-05	8.2921e-06	458.07	144.59	162.4	55.562	1.3782e-05	54.981	0.00088551	0.0010151	0.00026855	1459	1.0634e-05	1.0937e-05	1241.8	421.26	1.0095e-05	1.0995e-05	383.31	120.12	134.7	46.781	1.0695e-05	46.198	146.878	-73.141	-52.838	-130.357	-42.816	-45.083	-130.796	-124.461	9.428	61.991	-125.508	-122.261	-119.910	-114.493	21.761	-117.985	-8191	255	
21560.047	1	1	0	0	0.27059	0.19376	0.35741	0.2837	0.2533	0.058843	0.22132	0.12794	0.11909	0.10533	0.21566	0.1046	0.13816	0.077966	0.092474	0.23004	-2.5667	-2.2938	-2.6813	-2.9229	-2.3083	-2.9125	-2.5979	-2.8708	-2.9938	-2.3333	-2.8542	-2.9375	-2.25	-3.15	-2.3792	-2.4479	99.947	22.989	195.060	164.902	-47.794	-59.912	135.712	146.910	61.801	31.635	166.612	188.626	135.863	89.711	-30.044	140.242	0.0009223	0.00043304	0.00014895	1779.6	6.3816e-06	6.1946e-06	1511.7	512.31	1.6112e-05	1.3381e-05	464.46	146.78	159.41	55.844	8.2771e-06	55.565	0.00093723	0.00099429	0.00026691	1465.3	1.0618e-05	1.0761e-05	1249.3	424.47	1.0952e-05	1.0825e-05	388.39	122.35	134.56	47.058	1.088e-05	46.61	144.420	-80.949	-80.108	-130.338	19.993	25.817	-131.038	-124.349	-28.575	-22.351	-125.819	-122.345	-119.648	-114.082	1.179	-117.742	-8191	255	
21560.143	1	1	0	0	0.067483	0.19015	0.22167	0.25675	0.095405	0.20294	0.53356	0.22061	0.21247	0.33879	0.20863	0.056605	0.083266	0.23101	0.28495	0.1282	-2.6458	-2.3021	-2.6333	-2.7583	-2.5563	-3.0667	-2.6542	-2.3688	-2.9792	-2.1937	-2.6771	-3.0833	-2.2687	-3.0312	-2.7104	-2.4479	206.706	-132.338	18.092	-117.333	215.891	196.458	174.722	146.771	20.662	189.669	192.133	119.522	181.079	171.439	210.993	121.844	0.00059445	3.7506e-05	0.00019028	1766	8.2367e-06	1.3579e-05	1511.8	512.74	9.7685e-06	5.0101e-06	465.71	145.98	163.1	55.92	1.5352e-05	55.112	0.0009529	0.00097182	0.00026393	1465.5	1.1001e-05	1.1159e-05	1253.6	424.82	1.0959e-05	1.0886e-05	387.3	122.32	135.16	46.915	1.0301e-05	46.479	144.785	-135.147	158.076	-130.040	-15.312	25.311	-130.632	-124.198	-49.053	12.935	-125.646	-122.768	-120.394	-113.757	-6.496	-117.747	-8191	255	
21560.238	1	1	0	0	0.10177	0.082531	0.10442	0.092991	0.17595	0.08055	0.31391	0.39557	0.095225	0.096039	0.04585	0.26677	0.33413	0.2371	0.1328	0.056495	-2.725	-2.2812	-2.6333	-3.1646	-2.0938	-2.9979	-2.8521	-2.3688	-3.0271	-2.5083	-2.5958	-3.1396	-2.2417	-2.9813	-2.6188	-2.2604	-89.564	-138.786	-92.883	95.580	158.136	-1.970	144.976	177.536	-4.093	-8.506	128.315	-129.887	-131.549	185.241	-51.371	159.067	0.00066171	0.00059003	0.00031412	1760.8	1.5369e-05	5.5034e-06	1510.3	511.72	1.1364e-05	1.7215e-05	465.95	145.84	160.39	55.814	3.8689e-06	54.568	0.00092931	0.000965	0.00026144	1462.7	1.0913e-05	1.0501e-05	1254.7	423.86	1.061e-05	1.0912e-05	388.91	122.02	134.73	46.934	1.0228e-05	46.231	146.094	-36.866	-50.084	-129.910	8.292	166.991	-130.945	-124.422	-62.265	14.389	-125.889	-121.706	-119.835	-113.935	35.045	-117.777	-8191	255	
21560.357	1	1	0	0	0.12955	0.26477	0.15003	0.22202	0.14903	0.22164	0.10584	0.35763	0.036951	0.22982	0.14756	0.15571	0.14105	0.1729	0.18608	0.13957	-2.5542	-2.6188	-2.3625	-3.2188	-2.3812	-2.8167	-2.9979	-2.5271	-2.9771	-2.5458	-2.3979	-2.9917	-2.2125	-2.6729	-2.7771	-2.2458	216.438	-5.542	-5.272	183.306	90.176	-22.216	74.169	170.371	0.539	-71.222	-120.619	197.392	-127.397	125.177	-19.197	29.311	0.00080357	0.00023946	0.00028275	1768.5	8.7943e-06	4.3728e-06	1511.8	508.88	5.0214e-06	1.2896e-05	469.2	146.12	160.85	55.673	1.1439e-05	55.741	0.00092954	0.00095376	0.00025811	1472	1.1011e-05	1.0562e-05	1259.4	424.85	1.0717e-05	1.0865e-05	390.32	122.66	135.18	46.966	1.0411e-05	46.975	158.094	-130.285	-115.356	-129.947	-12.616	10.215	-131.214	-124.297	-90.519	27.753	-126.320	-122.099	-120.403	-114.457	-0.207	-117.735	-8191	255	
21560.430	1	1	0	0	0.18078	0.021403	0.13962	0.18963	0.18	0.18649	0.25021	0.23653	0.25251	0.15347	0.32075	0.13439	0.33696	0.26223	0.22931	0.32808	-2.6292	-2.4125	-2.3625	-3.1688	-2.0708	-2.7062	-3.0292	-2.3021	-2.9042	-2.5292	-2.4542	-2.9854	-2.4458	-2.6896	-2.8229	-2.2313	77.290	-47.435	107.446	171.811	-105.748	-64.617	95.557	191.034	134.399	-97.477	-136.050	89.899	184.834	204.750	38.905	-81.453	0.00075458	0.00037596	0.0002986	1788.2	1.3674e-05	5.4717e-06	1528.6	513.13	7.1405e-06	1.6051e-05	476.85	148.08	163.91	56.157	1.3629e-05	56.171	0.00096997	0.00096073	0.00027912	1477.4	1.1096e-05	1.0612e-05	1271.6	427.48	1.0599e-05	1.0128e-05	395.81	124.42	136.4	47.294	1.0286e-05	47.253	155.605	23.959	-23.523	-130.252	4.724	21.711	-130.842	-124.243	-72.028	7.030	-126.372	-122.439	-120.324	-114.143	-28.474	-118.104	-8191	255	
21560.525	1	1	0	0	0.052891	0.34582	0.32381	0.18993	0.35641	0.023981	0.080628	0.26416	0.24137	0.12253	0.23836	0.27125	0.20619	0.23007	0.079477	0.27708	-2.3937	-2.6958	-2.1896	-3.1542	-2.2479	-2.5729	-3.1146	-2.3417	-2.8521	-2.8979	-2.3396	-3.0312	-2.5125	-2.5229	-3.0062	-2.4333	7.534	152.493	102.627	181.054	-25.108	76.550	209.817	161.485	85.525	205.020	176.446	214.798	213.251	187.970	25.788	144.817	0.00075982	0.00048983	0.0001933	1795.8	9.8246e-06	1.6989e-05	1541.1	516.6	1.9267e-05	1.7082e-05	478.83	150.7	162.41	55.923	1.4718e-05	56.215	0.00092499	0.0009359	0.00027469	1488.1	1.0414e-05	1.0288e-05	1280.4	428.74	1.0795e-05	1.0638e-05	397.98	125.45	136.36	47.252	1.0894e-05	47.547	136.238	-73.659	-117.306	-129.580	47.804	-5.545	-130.658	-124.383	-35.964	47.690	-126.099	-122.243	-120.269	-113.751	68.078	-117.823	-8191	255	
21560.621	1	1	0	0	0.038514	0.098909	0.28179	0.12195	0.028494	0.20538	0.2676	0.278	0.11811	0.17887	0.28172	0.20124	0.26867	0.1326	0.13923	0.14292	-2.3063	-2.7146	-2.0771	-3.1833	-2.4958	-2.4562	-3.3146	-2.3042	-2.7146	-3.1271	-2.2917	-3.0958	-2.7042	-2.4104	-2.9688	-2.4979	-61.940	-59.935	148.061	-138.738	192.050	-61.147	107.326	160.421	54.195	130.199	198.204	-111.476	128.823	-132.797	-55.238	150.231	0.00054499	0.0010342	0.00037161	1800.6	9.1836e-06	1.2725e-05	1547.9	517.39	6.2555e-06	2.3113e-06	477.49	149.71	163.96	56.748	1.0701e-05	55.722	0.00089382	0.00095838	0.00027768	1492.1	1.0548e-05	1.0418e-05	1284.4	429.63	1.0242e-05	1.0689e-05	399.31	125.68	136.95	47.524	1.0921e-05	47.126	122.112	-41.815	-43.373	-129.702	-8.333	0.880	-130.815	-124.450	43.135	82.290	-126.174	-122.345	-119.994	-114.318	1.206	-117.927	-8191	255	
21560.742	1	1	0	0	0.21104	0.17028	0.055565	0.18295	0.35398	0.1805	0.41883	0.075942	0.066158	0.12368	0.32034	0.076818	0.15133	0.25964	0.21994	0.26035	-2.1229	-2.9167	-2.1646	-3.1208	-2.6354	-2.2708	-3.1104	-2.3625	-2.5229	-3.1646	-2.5021	-3.0479	-2.7479	-2.5	-3.0667	-2.5687	-43.563	-125.065	-94.796	-136.842	-45.186	47.820	142.397	119.581	-96.065	99.092	118.433	-121.737	-66.470	-138.673	14.649	126.040	0.00066058	0.0010852	0.00013128	1810.6	4.3632e-06	1.1941e-05	1536	518.31	6.3383e-06	8.0001e-06	475.07	149.34	162.82	56.063	1.3748e-05	55.525	0.00090296	0.00098558	0.00027612	1494.5	1.0112e-05	1.1076e-05	1281	430.64	1.021e-05	1.0639e-05	396	124.99	135.98	47.347	1.0725e-05	47.076	150.353	-32.655	-103.761	-130.214	-140.774	18.510	-130.718	-124.277	-30.122	-44.382	-126.282	-121.909	-119.795	-113.661	-46.725	-117.991	-8191	255	
21560.840	1	1	0	0	0.10695	0.21883	0.098739	0.028975	0.17289	0.14891	0.21644	0.14348	0.098733	0.16455	0.17073	0.094957	0.24896	0.26245	0.18491	0.45959	-2.1021	-2.9813	-2.1375	-2.9167	-3.1229	-2.2542	-3.2188	-2.4708	-2.2708	-2.9938	-2.4833	-2.8729	-2.8896	-2.3979	-3.0229	-2.8312	78.100	173.694	-126.544	179.984	-108.716	89.341	132.443	42.063	132.709	171.028	-89.377	160.458	96.497	-76.214	123.716	153.319	0.00079169	0.0010231	0.00020221	1805.2	8.5003e-06	8.7338e-06	1542.5	514.13	8.9405e-06	9.0934e-06	473.33	148.85	160.88	55.974	9.7552e-06	55.708	0.00089938	0.00098897	0.00028521	1496.2	1.0386e-05	1.0582e-05	1291.1	429.83	1.047e-05	1.1086e-05	398.01	125.32	135.87	47.218	1.0585e-05	47.101	149.442	-58.724	-93.865	-130.021	58.591	2.090	-130.771	-124.406	42.760	42.706	-125.737	-121.901	-119.864	-113.533	2.734	-117.956	-8191	255	
21560.936	1	1	0	0	0.065423	0.063401	0.14404	0.23182	0.12872	0.12303	0.52714	0.14499	0.14039	0.21025	0.063471	0.15114	0.16016	0.14373	0.11251	0.02196	-1.9583	-3.1167	-2.2687	-2.8563	-2.9958	-2.3708	-3.0583	-2.6708	-2.3625	-3.0833	-2.4979	-2.6375	-3.0458	-2.0896	-2.9083	-2.6958	89.190	-136.070	17.740	101.347	81.045	11.696	176.611	-120.359	157.839	61.145	188.734	177.025	-140.892	-109.601	62.172	188.124	0.00069755	0.0011399	0.0001415	1800.7	7.291e-06	1.1335e-05	1545.8	516.6	3.5294e-06	1.1044e-05	476.68	150.99	161.4	56.244	1.4621e-05	55.963	0.0009216	0.00098761	0.00027772	1498.3	1.0709e-05	1.0896e-05	1295.7	431.81	1.0667e-05	1.1107e-05	400.88	126.63	137.15	47.696	1.0345e-05	47.675	135.914	-84.577	-55.741	-129.621	-31.368	-3.900	-130.302	-124.209	5.828	-6.191	-126.105	-122.057	-120.138	-114.121	-64.536	-116.895	-8191	255	
21561.031	1	1	0	0	0.17957	0.11708	0.38128	0.20255	0.097361	0.14035	0.28174	0.57394	0.094802	0.27977	0.17472	0.24128	0.081697	0.1722	0.17595	0.11373	-1.8062	-3.0646	-2.1813	-2.4458	-3.1208	-2.1854	-2.9208	-2.8417	-2.1375	-2.9646	-2.5125	-2.5333	-3.1542	-2.3333	-2.9771	-2.9167	52.583	108.674	127.126	200.181	101.059	164.995	181.846	148.439	69.551	24.461	174.996	207.596	138.260	187.884	19.257	-54.491	0.00076782	0.00084637	0.00033829	1805	5.327e-06	7.9696e-06	1564.7	516.68	5.3271e-06	1.1774e-05	477.23	149.5	161.51	56.428	1.6938e-05	56.31	0.00098143	0.00099983	0.00027311	1505.8	1.1056e-05	1.1268e-05	1304.2	432.32	1.0761e-05	1.1285e-05	401.05	126.55	136.64	47.513	1.084e-05	47.647	143.782	-38.996	-112.469	-130.068	59.858	-46.609	-130.531	-124.277	-73.551	62.183	-125.869	-122.239	-119.648	-114.179	-2.935	-117.825	-8191	255	
21561.127	1	1	0	0	0.10123	0.082105	0.056159	0.17337	0.15396	0.061095	0.20901	0.22315	0.12829	0.11776	0.24102	0.15137	0.15564	0.16568	0.2472	0.25506	-2.0438	-2.9646	-2.4583	-2.4333	-2.8646	-2.4313	-2.8792	-2.9917	-2.3396	-2.9917	-2.6562	-2.4979	-3.2021	-2.35	-2.6792	-2.9021	111.144	74.681	202.841	-63.486	-7.509	184.564	106.988	159.307	152.285	107.598	146.837	51.720	155.350	131.932	-52.904	56.748	0.00071477	0.00032055	0.00012702	1802.5	7.1941e-06	1.31e-05	1591.9	525.74	8.5276e-06	1.4482e-06	486.13	154.33	164.86	57.364	1.0303e-05	57.071	0.00097051	0.00098296	0.0002752	1505.1	1.0626e-05	1.0849e-05	1302.9	432.13	1.0934e-05	1.1242e-05	401	127.3	137.13	47.677	1.0368e-05	47.59	135.902	-41.779	19.359	-129.651	-17.910	-20.437	-130.983	-124.791	-12.118	-3.839	-126.810	-122.121	-119.875	-114.852	-12.508	-118.265	-8191	255	
21561.223	1	1	0	0	0.37755	0.072825	0.20205	0.18084	0.1197	0.074716	0.26508	0.33715	0.075527	0.068789	0.09802	0.16315	0.1324	0.16884	0.15502	0.17038	-1.6604	-2.7625	-2.5396	-2.4833	-2.9667	-2.2833	-2.8375	-3.0646	-2.2646	-2.8583	-2.8354	-2.4521	-2.9125	-2.6854	-2.5917	-3.0438	-52.040	43.484	60.896	195.997	-18.710	79.293	117.278	165.532	20.465	141.452	194.146	147.001	-138.100	205.929	-17.682	203.255	0.00068739	0.00054643	3.3923e-05	1828.4	1.48e-06	6.2166e-06	1587.7	527.87	2.4086e-06	5.8119e-06	490.65	154.95	166.56	57.995	1.209e-05	57.427	0.00093674	0.00098045	0.0002671	1500.5	1.1149e-05	1.0678e-05	1303.4	434.71	1.0651e-05	1.0494e-05	405.2	128.39	138.13	48.221	1.0516e-05	48.2	141.354	-57.181	-126.803	-130.428	-30.060	27.585	-131.077	-124.562	-56.370	12.437	-126.273	-122.488	-120.511	-114.513	-50.815	-118.406	-8191	255	
21561.320	1	1	0	0	0.21461	0.090739	0.10027	0.24423	0.21845	0.25957	0.22902	0.12623	0.12015	0.051784	0.14895	0.13548	0.17042	0.17659	0.063878	0.13863	-1.8167	-2.8438	-2.6312	-2.4542	-2.7833	-2.3896	-2.5917	-2.9396	-2.4646	-2.7521	-2.9229	-2.2729	-3.075	-2.6917	-2.5271	-3.1562	-73.560	147.923	107.160	-104.227	21.784	99.462	130.099	193.691	191.537	149.167	-78.163	202.953	168.976	164.059	-50.058	166.539	0.00095252	0.00034953	9.8147e-05	1835.5	5.328e-06	8.5582e-06	1606	534.46	1.1043e-05	1.1148e-05	495.37	159.01	168.78	58.308	2.7455e-06	58.431	0.00095897	0.00095835	0.00026826	1512.2	1.075e-05	1.0636e-05	1314.4	436.71	1.0916e-05	1.0608e-05	409.43	130.21	139	48.503	1.0924e-05	49.07	160.654	-3.806	-125.581	-130.084	118.912	-101.011	-130.778	-124.553	11.477	37.558	-126.263	-122.851	-119.916	-114.539	24.392	-117.822	-8191	255	
21561.438	1	1	0	0	0.092267	0.084914	0.17732	0.15577	0.30776	0.12194	0.24928	0.47742	0.16694	0.049302	0.23128	0.18182	0.13254	0.20075	0.1915	0.12032	-1.8625	-2.6562	-2.8083	-2.3625	-3	-2.5187	-2.5333	-3.1479	-2.1667	-2.5792	-2.9229	-2.1833	-3.0438	-2.6688	-2.3021	-2.9979	57.529	74.230	24.275	204.687	147.894	65.885	21.675	153.902	50.574	5.726	196.811	160.960	125.288	156.773	98.516	200.682	0.000769	0.0014286	0.00014694	1817.7	7.7579e-06	8.7693e-06	1615.3	533.01	1.3555e-05	1.1042e-05	494.86	159.05	168.42	59.385	4.0951e-06	59.75	0.00096782	0.0010055	0.00027866	1510.9	1.0763e-05	1.0382e-05	1327.2	439.44	1.0754e-05	1.0613e-05	410.37	131.3	139.72	48.8	1.0938e-05	49.332	159.447	-91.851	-127.422	-130.367	10.750	-23.678	-131.033	-124.585	-62.466	-26.765	-126.657	-122.712	-120.235	-114.746	12.105	-118.703	-8191	255	
21561.535	1	1	0	0	0.2039	0.31596	0.20965	0.37563	0.045891	0.12611	0.30726	0.22589	0.2244	0.22794	0.072915	0.16988	0.27994	0.38525	0.064895	0.088665	-1.9438	-2.55	-2.7208	-2.5146	-2.8958	-2.6667	-2.5771	-3.2646	-2.4208	-2.4188	-2.9875	-2.2979	-2.9604	-2.8521	-2.1458	-3.0542	-80.595	110.195	24.469	205.326	139.796	89.228	168.460	165.411	18.258	-24.255	84.526	142.554	39.818	201.083	-142.467	199.881	0.00080851	0.0015399	0.0002481	1866.8	6.9157e-06	3.7324e-06	1633	535.65	5.2683e-06	9.115e-06	500.37	157.06	167.78	58.365	9.9682e-06	58.231	0.00093078	0.00096468	0.00028402	1517.3	1.0963e-05	1.0969e-05	1327.8	438.44	1.045e-05	1.0646e-05	410.05	129.98	138.39	48.304	1.122e-05	48.425	158.277	-71.982	-82.587	-130.902	6.881	-1.603	-131.972	-125.467	20.976	31.292	-127.358	-123.489	-120.818	-115.004	38.336	-118.584	-8191	255	
21561.631	1	1	0	0	0.12155	0.14763	0.13254	0.34759	0.14039	0.23151	0.2058	0.12848	0.047068	0.21223	0.31159	0.25998	0.15652	0.15832	0.20127	0.14562	-1.9417	-2.3187	-3.0208	-2.3937	-2.7833	-2.8187	-2.5479	-3.2271	-2.4833	-2.5021	-3.0917	-2.3771	-2.7188	-2.975	-2.2917	-3.0458	103.475	-128.404	24.133	203.227	-98.062	-119.459	162.912	145.892	161.380	-67.226	87.296	-134.059	157.079	-90.669	195.497	-24.537	0.00075226	0.00010905	0.00023931	1859.1	9.0879e-06	8.8861e-06	1632.8	536.86	1.6382e-05	5.149e-06	501.21	157.56	167.82	58.7	1.2714e-05	58.623	0.00092911	0.00097425	0.00028857	1518.5	1.0911e-05	1.1172e-05	1332.1	437.5	1.0522e-05	1.1349e-05	411.34	129.84	138.68	48.381	1.1167e-05	48.816	148.343	216.220	-21.245	-130.793	-7.623	68.460	-132.077	-125.380	-49.909	-28.461	-127.081	-123.433	-121.227	-115.605	3.143	-118.963	-8191	255	
21561.727	1	1	0	0	0.13128	0.21952	0.16163	0.1984	0.2484	0.095399	0.42378	0.20369	0.10431	0.15612	0.18824	0.15463	0.065175	0.22108	0.094019	0.28743	-2.0938	-2.4229	-3.0833	-2.525	-2.5875	-2.9167	-2.3583	-3.0729	-2.7667	-2.2687	-2.9458	-2.2875	-2.6437	-3.1312	-2.3479	-2.7917	144.507	-31.645	200.165	198.174	17.179	-100.910	142.175	189.054	-35.711	10.860	210.671	135.592	188.706	121.333	54.474	154.523	0.00059618	0.00067728	0.00021628	1873.2	1.1753e-05	1.4435e-05	1621.7	534.72	3.0353e-06	1.2194e-05	499.02	158.45	168.22	57.985	4.9198e-06	58.96	0.00092477	0.001032	0.00028861	1523.3	1.0903e-05	1.1189e-05	1331.2	438.39	1.0768e-05	1.1236e-05	410.51	129.97	138.88	48.012	1.0998e-05	48.769	124.113	-65.854	-62.590	-130.857	-65.157	12.904	-131.416	-125.091	3.464	35.014	-126.971	-123.544	-120.599	-115.317	-83.105	-118.471	-8191	255	
21561.822	1	1	0	0	0.19671	0.15128	0.15683	0.092309	0.1408	0.30684	0.35683	0.37589	0.13805	0.05724	0.24522	0.2536	0.10726	0.041297	0.15904	0.18338	-2.3208	-2.0146	-2.8958	-2.5604	-2.4688	-2.9479	-2.4854	-2.8792	-2.6458	-2.2729	-3.0812	-2.4708	-2.4854	-3.0521	-2.2375	-2.8042	-22.776	107.236	-19.511	198.196	-36.634	135.924	167.783	164.292	214.753	28.032	-82.374	184.430	-89.492	-120.984	-120.201	86.562	0.0009569	0.00029299	0.00020672	1862.4	5.6541e-06	1.7569e-05	1630.6	536.12	7.3456e-06	6.1265e-06	498.79	158.5	168.41	57.899	8.1117e-06	58.64	0.00093638	0.0010383	0.00028169	1524.2	1.1018e-05	1.0968e-05	1334.7	438.98	1.0408e-05	1.1412e-05	410.04	129.99	139.06	48.061	1.0792e-05	48.585	147.419	-97.144	-80.321	-130.789	-53.196	-25.083	-132.003	-125.357	-53.791	106.147	-126.729	-123.286	-120.895	-115.556	-36.803	-118.513	-8191	255	
21561.920	1	1	0	0	0.071229	0.046274	0.084213	0.087395	0.1044	0.16772	0.10535	0.34892	0.25935	0.14112	0.13655	0.12466	0.24523	0.066102	0.15475	0.197	-2.4	-2.1562	-2.7687	-2.4688	-2.3167	-2.9417	-2.4208	-2.6833	-2.825	-2.0167	-2.9938	-2.6479	-2.3854	-3.1188	-2.4333	-2.7458	47.956	184.488	60.570	-44.780	-50.854	19.665	207.783	210.886	-95.005	189.548	167.206	196.559	-95.170	-72.562	190.742	152.542	0.00083003	0.0011002	0.00020802	1877.6	6.1479e-06	5.1451e-06	1639	535.16	6.6131e-06	1.1506e-05	499.6	157.33	166.77	57.953	5.1204e-06	58.035	0.00095243	0.0010153	0.00026795	1525.5	1.1079e-05	1.0923e-05	1338.6	437.61	1.1017e-05	1.1306e-05	410.16	129.83	137.68	47.885	1.0338e-05	48.093	142.429	-51.134	-30.934	-131.397	-47.278	-2.565	-131.706	-125.474	-0.676	-9.202	-126.847	-123.343	-121.314	-115.286	-44.431	-118.734	-8191	255	
21562.039	1	1	0	0	0.087319	0.16029	0.1109	0.064534	0.069168	0.091335	0.34457	0.41241	0.038515	0.23331	0.14985	0.2871	0.16185	0.11107	0.24515	0.30456	-2.4688	-2.1208	-2.8063	-2.7375	-2.2146	-2.9396	-2.5708	-2.7292	-3.0271	-2.0646	-3.0708	-2.7417	-2.1333	-3.1208	-2.3604	-2.6312	-81.362	84.935	99.335	-103.549	140.417	-13.020	142.367	165.958	143.727	97.738	155.897	-125.666	51.772	189.926	-18.019	-130.982	0.0007857	0.00038747	0.00029148	1880.9	2.5823e-06	8.2397e-06	1626.7	534.47	1.908e-06	3.338e-06	496.41	156.46	167.24	57.575	1.3506e-05	57.794	0.00095097	0.001017	0.00027363	1530.8	1.1432e-05	1.0687e-05	1330.7	437.69	1.1015e-05	1.0725e-05	408.33	128.92	138.32	47.683	1.0237e-05	47.997	147.265	-94.832	-37.052	-131.047	-82.810	-21.582	-131.813	-125.318	184.409	14.682	-127.140	-123.195	-121.062	-115.291	48.328	-118.730	-8191	255	
21562.135	1	1	0	0	0.21406	0.23919	0.10382	0.098812	0.16487	0.15651	0.32564	0.42985	0.071499	0.10958	0.31016	0.022223	0.1017	0.34863	0.070831	0.13327	-2.7708	-2.2125	-2.6688	-2.9	-2.2896	-2.9667	-2.6833	-2.5458	-2.9167	-2.35	-2.8812	-3.0854	-2.3146	-3.0187	-2.5292	-2.3875	109.828	-85.468	-135.451	168.024	176.831	-102.837	186.178	176.297	154.629	146.321	155.540	140.973	172.618	188.572	-101.089	-23.766	0.00074926	0.0002509	0.0003182	1875.9	4.7018e-06	2.3415e-06	1626.5	535.06	5.3714e-06	7.4313e-06	499.59	156.89	166.1	57.26	6.4766e-06	57.08	0.00094925	0.0010064	0.00027642	1530.1	1.1564e-05	1.0942e-05	1330.4	437.79	1.1244e-05	1.0916e-05	408.78	128.79	137.78	47.556	1.0659e-05	47.752	145.395	-55.642	-37.673	-130.771	-4.901	53.507	-131.623	-125.315	-19.242	25.399	-126.802	-123.196	-120.787	-114.987	5.712	-118.396	-8191	255	
21562.230	1	1	0	0	0.22009	0.081498	0.1113	0.045516	0.14255	0.14422	0.19837	0.26461	0.12171	0.11932	0.26332	0.11808	0.21591	0.21281	0.15723	0.061549	-2.625	-2.2729	-2.5896	-2.9042	-2.175	-2.9313	-2.8208	-2.5229	-2.9958	-2.3	-2.6583	-3.1437	-2.2646	-2.9042	-2.5833	-2.4417	141.537	75.435	77.093	-141.103	88.431	7.995	183.352	174.418	62.514	-116.664	200.485	128.044	121.137	-78.342	-12.746	-142.438	0.00044206	0.00055831	0.00028771	1884.1	1.3205e-05	9.3936e-06	1634.7	536.89	2.3982e-06	7.0638e-06	497.94	157.19	165.95	57.168	3.9826e-06	57.888	0.00097258	0.00096	0.00027456	1533.1	1.1133e-05	1.0536e-05	1334.5	437.27	1.1238e-05	1.0392e-05	408.41	129.31	137.21	47.404	1.073e-05	47.876	151.899	-68.157	13.253	-131.005	-49.349	22.935	-131.765	-125.542	-49.010	44.921	-126.969	-123.402	-121.007	-115.023	-135.031	-118.677	-8191	255	
21562.305	1	1	0	0	0.18392	0.22104	0.14883	0.083912	0.16381	0.11014	0.26115	0.28958	0.10607	0.16982	0.023348	0.18805	0.13412	0.2133	0.18353	0.28929	-2.6542	-2.2333	-2.4833	-3.0979	-2.3896	-2.7458	-2.9562	-2.3458	-2.8521	-2.4792	-2.5708	-3.1813	-2.3583	-3.0021	-2.7208	-2.3333	44.228	207.197	109.690	213.615	-52.585	195.000	172.562	165.853	24.187	177.855	47.347	-128.637	29.440	177.531	137.778	196.484	0.00068273	0.00011977	8.4941e-05	1876.5	1.4188e-05	1.2276e-05	1640.6	534.17	2.1412e-05	1.0609e-05	498.24	157.54	166.68	57.561	8.9837e-07	57.38	0.00094076	0.00097685	0.00028853	1534.1	1.1043e-05	1.0662e-05	1338.1	436.79	1.0608e-05	1.0606e-05	408.86	128.81	137.22	47.495	1.1333e-05	47.735	129.673	7.619	13.969	-131.207	62.334	14.971	-132.232	-125.409	-17.869	10.496	-126.991	-123.110	-120.941	-114.591	-44.295	-118.630	-8191	255	
21562.424	1	1	0	0	0.11349	0.17535	0.23397	0.293	0.049594	0.22476	0.16989	0.21658	0.18747	0.18386	0.20997	0.45114	0.1442	0.14155	0.042193	0.19397	-2.4333	-2.3	-2.2687	-3.0646	-2.3125	-2.725	-3.0104	-2.2667	-2.9562	-2.4938	-2.4958	-3.0604	-2.35	-2.9354	-2.8083	-2.1583	215.138	-70.840	-25.305	155.574	28.827	137.701	175.929	187.606	175.869	-77.962	194.639	198.056	108.483	-127.483	110.464	192.974	0.00074459	0.00056035	0.00023334	1876.8	4.5223e-06	3.5288e-06	1633.1	532.29	1.538e-05	1.5435e-05	495.28	155.05	166.22	56.077	1.5427e-06	56.854	0.0009348	0.0010068	0.00029581	1527.7	1.0864e-05	1.0552e-05	1331.6	434.61	1.0703e-05	1.0454e-05	405.55	127.65	136.36	46.78	1.1339e-05	47.109	146.096	-52.929	-114.777	-131.088	-19.119	12.367	-132.237	-125.035	-6.890	29.950	-126.544	-123.307	-121.209	-115.462	93.470	-118.653	-8191	255	
21562.520	1	1	0	0	0.10124	0.2761	0.14996	0.31084	0.21539	0.047698	0.42252	0.36474	0.23785	0.16395	0.35141	0.16194	0.17114	0.34017	0.27088	0.41818	-2.4667	-2.7812	-2.2646	-2.9562	-2.3104	-2.6917	-3.0438	-2.2438	-2.9333	-2.7938	-2.3729	-3.1063	-2.1729	-2.5771	-2.8396	-2.2792	-44.345	127.594	-92.701	215.765	174.803	21.292	166.923	126.697	-104.699	119.488	117.860	59.774	-106.865	113.202	197.908	167.420	0.0005758	0.00093678	0.00023347	1870.3	4.6432e-06	6.492e-06	1617.9	527.67	8.4976e-06	1.2403e-05	497.06	155.62	164.94	56.564	1.0867e-05	57.086	0.00089929	0.001003	0.00029921	1518.6	1.0479e-05	1.0904e-05	1324	431.71	1.0527e-05	1.1095e-05	406.61	127.69	135.82	46.9	1.1508e-05	47.155	142.556	-43.205	-127.946	-130.442	-11.108	34.785	-131.673	-125.432	-7.937	7.452	-126.634	-123.142	-121.050	-115.304	45.326	-118.550	-8191	255	
21562.615	1	1	0	0	0.11235	0.19414	0.093486	0.26119	0.05404	0.12966	0.12401	0.37111	0.12207	0.25325	0.23683	0.22233	0.18921	0.35747	0.22416	0.076527	-2.3042	-2.8083	-2.2208	-3.0333	-2.4917	-2.5167	-3.1125	-2.5042	-2.6208	-2.7667	-2.3458	-3.1646	-2.4042	-2.2771	-2.8708	-2.3937	1.177	-12.471	139.973	-77.796	-111.071	202.721	151.355	-102.825	47.790	-20.299	162.908	-135.975	-131.155	206.298	-37.580	90.673	0.00071908	0.00061155	0.00020348	1873.1	9.6829e-07	8.4646e-06	1623.8	530.41	1.021e-05	1.8639e-05	496.06	156.04	164.96	56.677	8.6957e-06	57.486	0.00093094	0.0010015	0.00028212	1520.4	1.0912e-05	1.1239e-05	1327.3	434.27	1.0643e-05	1.1289e-05	405.3	128.16	136.34	46.96	1.1026e-05	47.427	161.994	-21.757	-24.838	-131.029	90.868	-19.607	-131.825	-125.658	-12.881	14.429	-126.855	-122.414	-121.367	-115.330	-75.709	-118.281	-8191	255	
21562.711	1	1	0	0	0.16989	0.23383	0.10405	0.12291	0.24732	0.28129	0.22208	0.40637	0.055223	0.23001	0.38164	0.13247	0.043463	0.29997	0.24752	0.07569	-2.4104	-2.7646	-2.2542	-3.0583	-2.4417	-2.5083	-3.1542	-2.6167	-2.6771	-2.9271	-2.5542	-2.9542	-2.6917	-2.2542	-3.0333	-2.3542	28.757	162.604	-112.785	210.503	164.596	191.084	172.604	177.558	211.996	78.799	180.542	84.967	216.599	193.188	-101.729	-36.554	0.00094127	0.00088	0.00028667	1872.3	7.2204e-06	2.3938e-06	1626.8	530.7	8.6495e-06	5.1513e-06	500.81	158.32	167.18	57.79	8.2489e-06	57.998	0.00093138	0.0010308	0.00029042	1524.2	1.0951e-05	1.1255e-05	1334.2	434.94	1.0772e-05	1.138e-05	410.05	129.71	138.22	47.655	1.0645e-05	48.262	162.905	-37.843	-109.020	-130.954	54.043	71.317	-131.762	-125.196	-43.838	101.685	-126.948	-122.816	-120.901	-114.870	39.729	-118.659	-8191	255	
21562.832	1	1	0	0	0.055043	0.31779	0.20667	0.15354	0.12565	0.16403	0.20606	0.35743	0.066322	0.19997	0.10263	0.1719	0.1529	0.12315	0.14563	0.14721	-2.1667	-2.8688	-2.2229	-3.1083	-2.6896	-2.2979	-3.1562	-2.6833	-2.3792	-3.0187	-2.5167	-3.0687	-2.9562	-2.3187	-2.9625	-2.5896	159.615	-32.861	157.935	167.391	-111.489	-50.488	158.880	143.361	126.831	-121.072	199.518	201.058	88.075	121.483	48.086	77.891	0.00069836	0.0011775	6.081e-05	1887.5	1.8175e-06	1.3747e-05	1632.5	535.42	8.2804e-06	9.3596e-06	497.25	156.04	168.05	57.803	1.8086e-05	57.753	0.00096066	0.0010342	0.00027905	1538.2	1.1035e-05	1.1427e-05	1334.3	436.89	1.1064e-05	1.1162e-05	408.83	129.21	138.27	47.934	1.0448e-05	48.207	151.729	-20.337	-18.501	-130.924	-124.167	-39.386	-132.020	-125.411	16.940	-47.005	-127.055	-122.971	-121.551	-115.207	15.340	-118.890	-8191	255	
21562.902	1	1	0	0	0.27522	0.33259	0.10651	0.09404	0.12414	0.05788	0.36698	0.12753	0.13437	0.30938	0.13353	0.31835	0.19373	0.27744	0.26781	0.12201	-1.9896	-2.9813	-2.1688	-2.7979	-2.6813	-2.2812	-3.0875	-2.7812	-2.2479	-3.2625	-2.6813	-2.9	-2.9208	-2.3896	-2.9729	-2.6667	200.697	97.173	213.021	-59.651	-82.464	44.858	161.102	184.141	213.662	16.514	-126.644	183.047	191.311	-74.758	-49.863	172.920	0.00092087	0.00048324	0.00032327	1873.9	3.4287e-06	1.8817e-05	1638.1	536.2	1.031e-05	9.9314e-06	503.83	157.82	167.31	57.968	1.437e-05	57.82	0.00099645	0.0010027	0.00028362	1533.2	1.124e-05	1.1261e-05	1336.4	437.29	1.1585e-05	1.1311e-05	411.32	129.84	137.93	47.967	1.1037e-05	48.113	142.344	-69.703	-95.685	-131.018	-49.089	60.582	-131.846	-125.349	-48.753	47.298	-126.811	-122.594	-121.234	-114.913	-24.120	-118.894	-8191	255	
21563.000	1	1	0	0	0.24811	0.20321	0.042965	0.36762	0.07722	0.26057	0.17547	0.37318	0.22673	0.078928	0.18988	0.2184	0.17455	0.11601	0.2964	0.14527	-1.7896	-3.0979	-2.35	-2.8083	-2.9188	-2.1542	-2.9604	-2.775	-2.3417	-3.1667	-2.4833	-2.6354	-3.0167	-2.3542	-2.9021	-2.7667	66.390	-20.943	207.068	160.816	-136.543	169.449	-132.644	175.203	-106.151	-7.986	139.210	-93.970	186.484	36.215	-57.908	110.216	0.00078271	0.0011249	0.00046631	1883.8	1.3824e-05	1.8684e-06	1642.5	534.8	7.2346e-06	6.2183e-06	498.82	156.65	167.57	57.027	8.1549e-06	56.816	0.00098389	0.00099907	0.00028054	1533.4	1.1791e-05	1.0828e-05	1340	435.77	1.1154e-05	1.1275e-05	408.13	129.28	137.28	47.024	1.0917e-05	47.448	140.231	-58.436	-20.951	-130.280	27.970	-7.110	-131.668	-125.365	-32.190	3.839	-127.213	-122.544	-121.047	-114.765	66.017	-118.640	-8191	255	
21563.119	1	1	0	0	0.18959	0.11221	0.11971	0.20412	0.16563	0.32274	0.14533	0.29114	0.2939	0.088264	0.40263	0.10555	0.24673	0.24186	0.11906	0.16544	-1.8229	-3.0042	-2.375	-2.4854	-2.8896	-2.1771	-3.0646	-2.7771	-2.1375	-3.0979	-2.5792	-2.5687	-3	-2.4083	-2.8208	-2.8375	147.988	106.075	84.921	212.079	91.134	-93.995	109.651	174.324	100.233	206.977	209.682	195.154	186.311	115.229	148.145	69.906	0.000765	9.5416e-05	0.00045912	1898.8	8.8419e-06	1.1091e-05	1643.4	531.14	2.254e-06	8.3026e-06	494.35	154.55	165.84	56.18	8.5005e-06	56.795	0.00096017	0.00097285	0.00028522	1539.2	1.1102e-05	1.04e-05	1339.9	435.08	1.1123e-05	1.0703e-05	406.35	127.87	136.9	46.691	1.0928e-05	47.001	145.456	208.549	-50.007	-130.772	-25.441	-26.728	-131.709	-125.326	-87.104	-4.419	-126.423	-123.195	-121.057	-114.981	64.993	-118.730	-8191	255	
21563.215	1	1	0	0	0.073633	0.17005	0.24643	0.32291	0.14634	0.13082	0.34946	0.19187	0.19993	0.13193	0.27294	0.27888	0.31348	0.39745	0.18115	0.21976	-1.8833	-3.0792	-2.4583	-2.4583	-2.9917	-2.3042	-2.8333	-2.9979	-2.1479	-3.0083	-2.5917	-2.4333	-3.1063	-2.2854	-2.6979	-2.9208	210.361	-136.899	-72.842	209.251	129.678	-112.464	194.664	168.969	139.261	2.276	140.767	-128.526	198.932	162.345	152.471	113.318	0.000845	0.00092317	8.5635e-05	1876.4	7.2375e-06	1.5304e-05	1630.1	523.89	9.2581e-06	1.4839e-05	487.46	153	163.06	54.424	6.2367e-06	55.075	0.00096264	0.00095788	0.00028549	1533.4	1.0992e-05	1.0677e-05	1333.7	430.14	1.071e-05	1.0226e-05	400.6	125.38	134.25	45.16	1.0829e-05	45.545	138.697	-45.835	-123.067	-130.951	-132.378	18.401	-131.663	-125.387	-8.037	21.020	-127.074	-123.209	-120.444	-115.389	-15.262	-118.646	-8191	255	
21563.312	1	1	0	0	0.29843	0.16769	0.2585	0.28298	0.15876	0.11807	0.14831	0.22247	0.29161	0.17959	0.22232	0.32017	0.26956	0.22568	0.15422	0.21745	-1.8167	-2.7979	-2.6063	-2.4354	-3.1354	-2.3208	-2.825	-3.2042	-2.275	-3.1479	-2.8688	-2.4417	-3.0521	-2.5979	-2.3979	-3.1792	147.779	172.325	-78.121	133.159	24.089	186.754	152.006	205.620	-101.876	-135.293	117.483	196.610	215.047	206.152	-140.295	150.632	0.0007379	0.00021857	0.00022628	1887	1.1215e-05	8.0898e-06	1629.8	520.65	3.0194e-06	5.9323e-06	486.76	150.59	161.5	53.49	1.1668e-05	53.832	0.00092088	0.00096173	0.000288	1534.9	1.0669e-05	1.0354e-05	1331.2	427.65	1.0583e-05	1.0791e-05	398.89	124.11	133.45	44.638	1.1086e-05	44.946	146.268	25.118	-38.303	-130.889	-12.241	-28.243	-131.629	-125.406	-58.154	-40.598	-126.862	-122.739	-121.484	-115.161	-15.981	-118.039	-8191	255	
21563.432	1	1	0	0	0.047746	0.16077	0.17652	0.24253	0.20366	0.30353	0.14963	0.23412	0.18269	0.083438	0.077649	0.2058	0.15386	0.25967	0.044577	0.16241	-1.7583	-2.7833	-2.7271	-2.2479	-2.7146	-2.5021	-2.5958	-3.2438	-2.4125	-2.7812	-3.0292	-2.2854	-3.1396	-2.6813	-2.5854	-3.0417	107.143	-25.117	40.597	179.049	-67.036	75.716	200.318	192.996	-76.960	-65.891	181.754	116.441	120.741	176.407	158.101	-42.808	0.00071861	0.00057148	0.00010768	1887	1.059e-05	6.8956e-06	1633.3	524.74	1.8413e-05	5.4859e-06	488.83	151.34	162.01	54.033	4.8039e-06	54.043	0.00092752	0.0009595	0.00028597	1535.6	1.0602e-05	1.1043e-05	1334.8	428.95	1.045e-05	1.0876e-05	401.34	124.56	133.58	44.836	1.1294e-05	45.279	137.368	-70.046	-58.934	-130.363	31.069	75.254	-131.488	-125.328	-17.290	-124.135	-127.304	-123.131	-120.981	-114.546	-38.312	-118.583	-8191	255	
21563.527	1	1	0	0	0.13084	0.2204	0.19047	0.19422	0.21013	0.092847	0.32112	0.12852	0.43373	0.042697	0.35929	0.28302	0.11658	0.23239	0.12643	0.14378	-1.8271	-2.5896	-2.9354	-2.2542	-2.9375	-2.6125	-2.7854	-3.3333	-2.5479	-2.8271	-3.025	-2.2708	-3.0667	-2.8021	-2.2229	-3.025	62.085	194.379	106.193	207.495	105.863	100.692	-118.264	193.660	90.460	-10.450	177.703	186.128	3.956	132.996	-121.778	181.573	0.00071373	0.00074866	0.00032414	1890.4	2.5865e-06	6.1931e-06	1650.6	527.52	9.434e-07	8.6615e-06	490.03	152.99	161.88	54.889	2.2682e-06	55.114	0.00089459	0.0010606	0.00029265	1541.7	1.0594e-05	1.1285e-05	1343.1	430.19	1.0821e-05	1.1548e-05	400.72	125.62	134.15	45.435	1.1168e-05	45.973	135.776	-55.277	-90.784	-130.380	49.342	72.794	-131.228	-125.228	-74.877	0.447	-127.034	-122.983	-120.826	-115.267	-124.388	-118.024	-8191	255	
21563.600	1	1	0	0	0.10215	0.11149	0.42556	0.32593	0.033202	0.22818	0.34535	0.25918	0.099996	0.1648	0.10534	0.1997	0.26064	0.1727	0.092458	0.12181	-2.1583	-2.4854	-2.8375	-2.5312	-2.8375	-2.7042	-2.4437	-3.2771	-2.4813	-2.3479	-3.1562	-2.35	-2.6562	-2.8312	-2.1792	-2.925	7.079	75.479	52.047	195.108	-81.964	105.205	192.952	196.454	-7.996	-119.677	-73.604	212.668	170.708	112.446	-68.173	-136.466	0.00094973	0.00078686	0.00050868	1888.6	7.7945e-06	8.1054e-06	1637.9	524.73	1.4072e-05	1.0001e-05	490.9	154.66	162.6	55.173	1.5827e-05	54.709	0.00094357	0.0010612	0.00028504	1540	1.0902e-05	1.1307e-05	1342.8	430.03	1.0952e-05	1.1417e-05	402.92	126.49	134.85	45.709	1.0849e-05	45.884	152.205	-54.123	-14.758	-130.866	-44.742	28.149	-131.552	-125.092	-27.456	-5.902	-126.528	-122.490	-120.800	-114.574	-3.976	-118.419	-8191	255	
21563.721	1	1	0	0	0.20293	0.24581	0.27281	0.17539	0.092141	0.12942	0.23327	0.12586	0.18811	0.35271	0.19658	0.25573	0.071062	0.26631	0.12596	0.21064	-2.0729	-2.3042	-2.9083	-2.4729	-2.7729	-2.9396	-2.5083	-3.0563	-2.5167	-2.3292	-3.2292	-2.4667	-2.8563	-2.9604	-2.1708	-3.05	96.340	-91.403	-137.669	193.697	201.546	-138.272	137.765	173.906	-82.421	4.513	-124.085	151.219	176.305	158.840	-94.180	-93.720	0.00070102	0.00066497	0.00016998	1887.3	5.3798e-06	6.8046e-06	1621.8	528.42	4.7717e-06	1.1454e-05	486.24	153.43	163.71	55.135	5.4231e-06	55.374	0.00095384	0.0010404	0.00027896	1539.4	1.0765e-05	1.124e-05	1330.1	430.91	1.0894e-05	1.1283e-05	399.39	125.08	134.77	45.562	1.0455e-05	46.044	140.780	-49.683	30.859	-130.377	119.859	11.214	-131.534	-125.221	-76.168	30.317	-126.449	-123.029	-120.892	-115.101	40.835	-118.424	-8191	255	
21563.816	1	1	0	0	0.16755	0.12612	0.21484	0.19907	0.17341	0.099729	0.49013	0.13903	0.24602	0.29641	0.13103	0.114	0.17336	0.29674	0.21207	0.13291	-2.2354	-2.4354	-3.1771	-2.5958	-2.7708	-3.0771	-2.3417	-3.0854	-2.6417	-2.3042	-3.1104	-2.4	-2.5083	-3.1417	-2.2125	-3.1042	-88.665	51.535	-70.049	-87.766	87.241	157.022	155.512	179.252	154.558	15.027	177.177	-102.271	171.838	157.381	101.250	117.858	0.00066262	0.00058574	7.9413e-05	1878.2	9.2004e-06	8.6173e-06	1632.7	526.46	6.6594e-06	1.0678e-05	486.01	151.49	162.78	54.712	8.2358e-06	54.663	0.00095006	0.0010399	0.00027678	1533.4	1.1737e-05	1.1286e-05	1332.3	430.56	1.1193e-05	1.1583e-05	398.72	125	134.03	45.303	1.0431e-05	45.532	129.493	-81.403	-123.679	-131.012	63.032	16.343	-131.504	-125.441	87.781	41.801	-127.323	-123.153	-120.867	-115.237	47.986	-118.370	-8191	255	
21563.912	1	1	0	0	0.21134	0.22186	0.058143	0.31813	0.12361	0.16104	0.17557	0.35952	0.27951	0.060016	0.18965	0.11358	0.18074	0.34229	0.19957	0.057578	-2.2708	-2.3167	-3.1083	-2.6	-2.3167	-2.9458	-2.2896	-2.9813	-2.6833	-2.3438	-3.1813	-2.6354	-2.475	-3.0896	-2.325	-2.875	-8.200	98.607	-100.153	161.196	48.217	170.674	93.174	125.630	77.938	112.459	147.236	140.161	-108.528	205.030	-73.194	125.092	0.00072288	0.00033079	0.00012733	1883.6	6.9803e-06	4.3734e-06	1616.5	527.28	5.2846e-06	9.7833e-07	486.83	152.13	163.61	54.682	1.0031e-05	54.689	0.00094296	0.0010229	0.00027438	1534.8	1.1692e-05	1.1006e-05	1326.6	429.71	1.1111e-05	1.1012e-05	397.8	124.93	134.47	45.281	1.0669e-05	45.469	162.770	-122.541	-124.268	-131.402	-80.118	47.052	-132.073	-125.530	-126.568	21.984	-126.879	-123.481	-121.446	-115.332	-54.312	-118.960	-8191	255	
21564.008	1	1	0	0	0.26316	0.043761	0.10679	0.30724	0.19699	0.14726	0.37587	0.14968	0.047309	0.17289	0.042844	0.10455	0.20566	0.17069	0.20534	0.16764	-2.6208	-2.2083	-2.9917	-2.6104	-2.3292	-3	-2.6125	-2.7313	-2.9104	-2.2625	-3.0042	-2.5458	-2.2021	-3.0792	-2.4437	-2.8042	166.061	-41.259	124.270	172.716	-62.419	46.584	191.025	-104.203	-127.804	-134.789	80.844	-56.308	150.673	151.218	49.162	130.646	0.00085298	0.0012195	0.00020576	1868.9	5.9052e-06	1.3585e-05	1630.9	524.44	1.2647e-05	7.6197e-06	487.77	151.2	161.5	55.134	1.0944e-05	54.913	0.00096947	0.0010192	0.00027619	1532.4	1.1194e-05	1.0658e-05	1332.9	429.8	1.1329e-05	1.0924e-05	399.78	125.06	133.73	45.341	1.125e-05	45.759	138.238	-56.704	-107.991	-131.095	-49.618	-15.231	-131.974	-125.618	-12.814	85.808	-126.980	-123.082	-121.133	-115.432	-59.209	-118.395	-8191	255	
21564.129	1	1	0	0	0.26656	0.035016	0.077065	0.14869	0.24177	0.29448	0.21397	0.30516	0.073339	0.30494	0.21465	0.29783	0.03307	0.14906	0.26413	0.29415	-2.5167	-2.1708	-2.7313	-2.8292	-2.2917	-2.8958	-2.5563	-2.6333	-2.9	-2.1583	-2.9375	-2.8937	-2.2812	-3.2	-2.4646	-2.5667	81.805	202.660	203.370	52.165	207.041	-74.666	-77.110	213.429	184.725	182.881	164.255	146.262	130.949	61.274	-102.894	152.147	0.00077609	0.00057052	0.00025727	1878.5	7.8192e-06	8.3837e-06	1623.4	523.23	1.3115e-05	1.5852e-05	488.19	150.16	161.67	54.856	8.5739e-06	54.85	0.00094169	0.00096478	0.00028159	1537.9	1.1601e-05	1.0767e-05	1329	428.35	1.1196e-05	1.095e-05	399.86	124.36	133.71	45.213	1.1081e-05	45.554	120.552	-62.124	-58.580	-130.978	11.189	-94.207	-132.097	-125.186	-46.320	33.512	-127.146	-123.358	-120.889	-115.160	-30.501	-118.640	-8191	255	
21564.201	1	1	0	0	0.29119	0.10242	0.16708	0.11551	0.036626	0.18559	0.46526	0.31677	0.057657	0.14901	0.17725	0.090667	0.15311	0.23725	0.28443	0.18693	-2.5521	-2.2188	-2.6625	-3.0729	-2.1437	-2.95	-2.4625	-2.475	-2.9875	-2.3583	-2.7188	-2.9479	-2.1813	-3.0021	-2.5917	-2.4896	119.512	205.577	-75.960	192.592	150.919	92.087	161.485	142.886	4.429	135.330	-126.884	-16.155	99.098	197.200	33.852	179.503	0.00076569	0.00068185	8.871e-05	1874.4	5.1793e-06	4.8823e-06	1619.9	524.45	1.3283e-05	1.5312e-05	483.78	150.47	163.18	54.459	1.0625e-05	54.875	0.00095304	0.00097861	0.00027823	1534.9	1.126e-05	1.1053e-05	1322.9	428.15	1.092e-05	1.092e-05	397.87	124.06	133.84	45.08	1.1513e-05	45.599	138.065	-27.648	-58.874	-130.658	10.501	42.751	-131.883	-125.283	-10.496	10.759	-127.076	-123.252	-121.096	-115.205	23.009	-118.796	-8191	255	
21564.297	1	1	0	0	0.25455	0.081528	0.15991	0.057632	0.1044	0.17014	0.39794	0.43805	0.097277	0.27822	0.16829	0.19323	0.18557	0.35286	0.27344	0.058227	-2.5229	-2.4292	-2.4833	-3.0708	-2.2708	-3.1104	-2.8667	-2.3583	-3.025	-2.4146	-2.7333	-3.1146	-2.0896	-2.8875	-2.9437	-2.4229	-98.269	-112.070	177.805	166.821	-140.920	3.686	130.165	142.673	119.759	121.654	138.212	214.864	-75.057	167.695	192.724	172.204	0.00073261	0.00020806	0.00024737	1872.5	2.522e-06	1.3109e-05	1614.4	521.9	6.6583e-06	8.4401e-06	481.56	151.54	162.44	54.444	4.1219e-07	54.431	0.00094241	0.0010373	0.00029087	1531.5	1.057e-05	1.0904e-05	1325	425.81	1.0453e-05	1.0709e-05	396.78	124.08	133.33	44.977	1.1528e-05	45.198	148.226	180.835	-67.419	-131.261	138.337	-51.846	-131.860	-125.707	-22.672	30.794	-127.016	-123.420	-121.147	-114.781	-131.307	-118.451	-8191	255	
21564.393	1	1	0	0	0.028703	0.16076	0.19911	0.0094329	0.15107	0.079233	0.4183	0.2938	0.39144	0.16567	0.20678	0.089561	0.27703	0.13098	0.23912	0.34151	-2.5375	-2.4562	-2.3958	-3.0229	-2.2062	-2.8042	-2.9042	-2.3208	-3.0375	-2.5479	-2.5729	-3.1458	-2.6729	-2.9313	-2.9104	-2.3083	122.887	-123.244	156.183	-140.291	39.482	-35.901	124.708	176.227	59.118	-54.970	169.039	-100.160	-132.837	45.915	-12.558	198.668	0.00069885	0.00022259	0.000342	1880.9	1.2223e-05	1.8904e-05	1626.8	520.84	5.1661e-06	1.0127e-05	484.1	151.07	161.3	54.076	7.1034e-06	54.666	0.00094381	0.0010462	0.00028965	1532.1	1.0915e-05	1.1548e-05	1329.5	425.39	1.073e-05	1.1263e-05	397.37	124.15	133.06	44.785	1.1156e-05	45.374	161.766	-106.356	-74.303	-130.809	-40.399	31.215	-131.837	-125.687	-64.075	-11.348	-126.813	-123.661	-120.845	-115.312	-8.822	-118.224	-8191	255	
21564.512	1	1	0	0	0.20279	0.089597	0.16592	0.13267	0.11198	0.066625	0.42728	0.23314	0.1811	0.18401	0.23646	0.1988	0.42079	0.14894	0.30633	0.1073	-2.5208	-2.2708	-2.3208	-3.175	-2.3271	-2.7021	-2.95	-2.5229	-2.9375	-2.7229	-2.3	-3.1063	-2.5563	-2.6896	-3.1021	-2.325	-12.431	130.310	179.839	-69.561	-103.343	17.604	157.486	134.062	37.345	166.689	115.270	154.095	191.543	-97.736	93.041	133.599	0.00073479	0.0005988	0.00026881	1880.1	6.6293e-06	5.9429e-06	1622.2	523.01	1.6175e-05	8.6985e-06	482.75	150.66	160.74	54.081	6.7053e-06	54.27	0.00092786	0.0010805	0.0002961	1529.4	1.1307e-05	1.1664e-05	1326.6	427.82	1.124e-05	1.1327e-05	397.44	124.08	133.06	44.989	1.1539e-05	45.197	136.013	-88.835	-77.361	-130.566	-44.868	-8.302	-132.081	-125.372	-78.213	1.098	-127.110	-123.069	-121.126	-115.380	-49.950	-118.675	-8191	255	
21564.607	1	1	0	0	0.13524	0.061482	0.20678	0.23492	0.10686	0.13757	0.37363	0.34733	0.20459	0.14315	0.27343	0.11922	0.12765	0.1266	0.2922	0.14791	-2.4271	-2.6312	-2.3042	-3.0021	-2.2438	-2.8167	-3.1521	-2.4437	-2.7958	-2.7438	-2.4542	-3.1562	-2.4417	-2.5417	-3.0146	-2.3187	70.712	166.388	212.518	204.070	81.784	-35.467	132.871	136.624	161.612	176.979	164.187	-98.299	183.440	160.229	169.810	87.528	0.00077667	0.00057147	0.00024005	1876.1	4.4208e-06	5.8915e-06	1619.9	520.55	7.5192e-06	9.053e-06	482.39	148.93	159.08	54.053	1.4363e-05	53.875	0.00098789	0.0010495	0.00029012	1530	1.1733e-05	1.1817e-05	1320.5	425.09	1.1306e-05	1.1589e-05	394.45	122.93	131.65	44.784	1.0973e-05	44.792	137.254	-73.283	-47.813	-131.300	0.877	-92.462	-131.854	-125.704	-10.464	-72.335	-126.800	-122.765	-120.676	-115.218	14.382	-118.502	-8191	255	
21564.703	1	1	0	0	0.36979	0.17605	0.11408	0.41119	0.065021	0.19483	0.14766	0.27789	0.22823	0.12865	0.15634	0.35992	0.070341	0.38293	0.15489	0.077177	-2.3958	-2.6917	-2.1917	-3.0729	-2.5604	-2.3625	-3.1937	-2.4042	-2.5604	-2.8479	-2.3417	-3.0938	-2.7687	-2.3396	-3.1312	-2.5687	-142.419	12.668	33.504	166.078	-57.958	196.286	152.752	158.298	-137.646	150.656	138.132	197.749	-142.630	199.371	50.237	15.304	0.00060334	0.00051289	0.00030412	1857	1.0621e-05	1.3523e-05	1610.4	520.55	1.1222e-05	8.6975e-06	477.11	149.1	160.52	54.244	9.6113e-06	53.609	0.00097981	0.0010647	0.00028138	1522.9	1.1777e-05	1.1591e-05	1320	425.58	1.1475e-05	1.1571e-05	394.95	122.88	132.8	44.767	1.0856e-05	44.739	145.444	-46.379	-55.494	-130.889	5.173	4.306	-131.567	-125.446	-34.821	50.432	-126.858	-123.142	-120.712	-114.874	1.054	-118.637	-8191	255	
21564.801	1	1	0	0	0.17115	0.29192	0.10372	0.27425	0.083054	0.16222	0.25777	0.27028	0.16988	0.10278	0.29824	0.1147	0.20566	0.22201	0.15794	0.083881	-2.2042	-3.0604	-2.2313	-3.0667	-2.6167	-2.2396	-3.2667	-2.4813	-2.5396	-2.9667	-2.2833	-3.0104	-2.7625	-2.425	-2.9146	-2.6396	206.970	33.683	7.012	150.622	-120.736	191.276	120.818	189.390	2.611	2.078	120.921	171.167	153.416	200.202	45.026	168.266	0.00067132	0.0009822	0.00025434	1902.3	8.5187e-06	1.0903e-05	1623.1	527.38	1.1186e-05	7.0389e-06	487.08	151.34	161.49	54.091	5.1602e-06	54.922	0.0010233	0.0010273	0.00029436	1539.1	1.2187e-05	1.1661e-05	1323.6	430.12	1.1701e-05	1.1312e-05	398.28	125.06	133.98	44.969	1.1313e-05	45.413	154.427	17.580	-78.373	-130.673	-30.536	2.133	-131.965	-125.439	13.583	-11.920	-126.629	-123.190	-120.835	-114.814	46.574	-118.544	-8191	255	
21564.896	1	1	0	0	0.08342	0.18451	0.066646	0.30098	0.13639	0.054096	0.27392	0.27177	0.19158	0.12216	0.10532	0.29645	0.1176	0.28131	0.22981	0.27444	-2.0646	-2.9188	-2.1437	-2.8833	-2.7625	-2.35	-3.3688	-2.6312	-2.5521	-3.0771	-2.3375	-2.9688	-2.9417	-2.5083	-3.0958	-2.6437	-9.366	110.411	-139.681	190.524	91.239	-130.219	-91.770	-98.943	190.941	203.039	106.646	163.771	-102.847	-129.091	139.729	-30.933	0.00064003	0.0015144	0.00023828	1895.3	1.1989e-05	8.1708e-06	1622.3	527.85	1.1642e-05	1.0007e-05	486.24	152.16	162.94	54.932	5.8368e-06	55.153	0.0010365	0.0010511	0.00029766	1541.8	1.232e-05	1.1378e-05	1329.1	431.36	1.1988e-05	1.1301e-05	400.97	125.81	134.24	45.466	1.1639e-05	45.858	148.086	-36.202	-53.822	-130.697	-5.024	9.887	-131.567	-125.427	-26.436	17.877	-126.921	-122.885	-120.843	-115.014	-44.368	-118.653	-8191	255	
21564.992	1	1	0	0	0.23497	0.22197	0.16574	0.15469	0.18754	0.15082	0.18271	0.21736	0.036371	0.11117	0.11498	0.20078	0.20557	0.29908	0.29938	0.15263	-2.0458	-3.3312	-2.3625	-2.9188	-2.8354	-2.2375	-3.0604	-2.7125	-2.5333	-2.9354	-2.5271	-2.7354	-2.9896	-2.3292	-2.925	-2.7521	156.752	-90.451	42.716	-140.542	144.209	205.280	138.902	175.182	179.939	159.142	68.494	54.185	-72.978	170.537	96.350	163.077	0.00071264	0.0007193	0.00041648	1890.5	1.2525e-05	1.5519e-05	1638.5	528.91	1.3897e-06	1.114e-05	489.77	154.34	162.56	55.096	7.0115e-06	55.403	0.0010518	0.0010576	0.00030271	1545.1	1.1735e-05	1.1156e-05	1339.8	433.13	1.184e-05	1.1615e-05	402.45	126.9	134.91	45.529	1.1526e-05	46.167	112.628	12.278	-90.009	-131.040	-27.731	32.119	-131.216	-125.267	-49.993	24.100	-126.682	-122.872	-120.783	-114.987	15.416	-118.893	-8191	255	
21565.113	1	1	0	0	0.16579	0.13965	0.2499	0.3703	0.132	0.10077	0.11484	0.30069	0.29589	0.043858	0.18042	0.13775	0.078213	0.16012	0.25901	0.14196	-2	-3.0458	-2.3917	-2.8083	-3.0938	-2.1292	-3.05	-3.0354	-2.3979	-3.0187	-2.7542	-2.725	-3.1625	-2.2687	-2.7562	-2.7896	95.039	-103.816	76.091	183.803	170.664	47.510	-5.879	176.415	182.852	81.295	78.243	-122.735	-69.002	199.122	-68.307	170.612	0.00056148	0.00096244	1.8327e-05	1893.7	5.5221e-06	6.6264e-06	1640.7	530.27	4.4666e-06	1.8749e-06	490.15	154.32	163.48	55.898	1.2381e-05	55.675	0.00098468	0.001062	0.00030285	1544.2	1.1418e-05	1.1627e-05	1340.2	432.01	1.1275e-05	1.1622e-05	402.55	127.15	135.02	45.88	1.2101e-05	46.418	147.425	-71.112	83.752	-130.560	-50.114	-70.645	-131.271	-125.067	-105.826	87.446	-127.716	-122.633	-121.006	-115.125	-19.671	-118.592	-8191	255	
21565.209	1	1	0	0	0.070004	0.14441	0.040834	0.13274	0.055636	0.11864	0.27241	0.21293	0.21746	0.08631	0.18742	0.25406	0.12362	0.14084	0.044482	0.26273	-1.8604	-3.0646	-2.5292	-2.6229	-3.0375	-2.4333	-3.1042	-2.9271	-2.2812	-3.0625	-2.4896	-2.5792	-2.9521	-2.2188	-2.7729	-2.9896	24.422	-119.662	105.666	122.033	-96.400	-109.697	206.821	135.578	-52.348	180.991	199.772	-128.735	216.711	165.397	169.262	199.855	0.000623	0.00051724	0.00034714	1878.7	6.1561e-06	1.3927e-05	1632.8	521.86	1.8347e-05	3.2673e-06	495.31	153.27	163.15	55.154	7.2722e-06	55.98	0.00096799	0.0010298	0.00030906	1537.8	1.1225e-05	1.1969e-05	1345.8	429.56	1.1382e-05	1.1643e-05	406.23	126.89	134.32	45.855	1.2095e-05	46.54	145.228	-81.160	-33.183	-130.342	2.692	0.662	-130.941	-125.089	-103.266	204.074	-126.511	-123.122	-121.083	-115.063	0.726	-118.240	-8191	255	
21565.305	1	1	0	0	0.21519	0.20322	0.14696	0.10787	0.067818	0.069594	0.42009	0.27818	0.22126	0.047219	0.18594	0.20932	0.23635	0.12923	0.20709	0.1983	-1.7958	-2.925	-2.5521	-2.4167	-3.0396	-2.4292	-2.6729	-3.1479	-2.3021	-2.9354	-2.7188	-2.4417	-3.1688	-2.4792	-2.4208	-3.0687	159.577	74.345	-14.817	185.005	214.015	18.980	169.435	149.369	130.935	41.184	110.879	-122.422	178.462	-57.999	-128.922	102.656	0.00077914	0.00078828	0.00035455	1903.3	6.0544e-06	1.7438e-05	1647.4	524.81	1.5979e-05	1.098e-05	490.97	156.08	164.26	54.608	4.5069e-06	55.927	0.00099326	0.0010765	0.00030945	1547.2	1.0844e-05	1.2015e-05	1345.4	429.59	1.1478e-05	1.1968e-05	403.12	127.34	135.08	45.26	1.1673e-05	46.433	152.449	-67.069	-44.312	-130.999	5.186	65.570	-131.446	-125.246	-32.037	43.485	-126.708	-122.911	-120.765	-115.069	-99.360	-117.929	-8191	255	
21565.400	1	1	0	0	0.10691	0.13614	0.056157	0.13894	0.14675	0.075083	0.3314	0.083644	0.22981	0.10866	0.17956	0.079806	0.37075	0.16682	0.14169	0.21617	-1.8083	-2.7479	-2.6479	-2.2875	-2.9625	-2.4167	-2.6083	-3.1479	-2.1208	-2.8042	-2.7854	-2.2521	-3.05	-2.4729	-2.3208	-3.1125	73.077	99.348	-135.619	-91.067	116.108	-29.735	149.432	127.040	177.982	-36.796	106.932	-26.626	-136.547	175.821	196.990	137.198	0.00079398	0.0005666	0.00038963	1895.2	3.9414e-06	1.1283e-05	1654	526.23	2.5367e-06	1.1298e-05	487.66	153.42	162.84	54.002	1.2256e-05	55.284	0.00099668	0.0010912	0.00029449	1541.2	1.1395e-05	1.1775e-05	1350.7	429.85	1.1377e-05	1.1679e-05	403.61	126.62	134.12	44.99	1.1514e-05	45.953	143.294	-56.518	-96.882	-130.657	15.577	3.188	-131.394	-125.390	-12.722	56.049	-127.000	-122.777	-120.510	-114.747	-68.277	-118.327	-8191	255	
21565.496	1	1	0	0	0.27026	0.03265	0.20785	0.30428	0.038754	0.1654	0.13658	0.24086	0.09867	0.056003	0.16989	0.31335	0.22433	0.033178	0.10261	0.17264	-2.0583	-2.6813	-2.7938	-2.2604	-2.9021	-2.3479	-2.5333	-3.0708	-2.4708	-2.6375	-2.9875	-2.3875	-3.0083	-2.6729	-2.2438	-3.1125	-63.316	151.114	16.943	-58.951	132.140	107.277	87.925	193.170	74.405	-0.133	179.474	119.761	207.619	-48.719	-92.123	80.499	0.00071744	0.00090592	0.00025923	1880.4	1.4044e-05	9.4542e-06	1650.1	520.93	1.2447e-05	1.0525e-05	489.7	151.42	162.32	53.959	1.0417e-05	54.859	0.0010174	0.0010621	0.00028983	1541.1	1.1762e-05	1.1848e-05	1345.1	424.7	1.1695e-05	1.198e-05	400.11	124.8	133.3	44.669	1.1424e-05	45.633	146.697	12.617	-68.266	-130.780	2.409	-53.182	-131.664	-125.421	-60.480	-15.833	-126.389	-122.048	-120.884	-114.208	33.142	-118.756	-8191	255	
21565.592	1	1	0	0	0.27747	0.095019	0.060519	0.33054	0.077023	0.20841	0.38737	0.36352	0.25619	0.06465	0.22147	0.16997	0.15644	0.20337	0.12583	0.079269	-1.9667	-2.7313	-2.6917	-2.2229	-2.85	-2.7062	-2.5104	-3.2125	-2.3354	-2.4792	-3.0729	-2.1188	-2.7708	-2.6292	-2.1292	-3.0563	54.159	4.976	-53.658	209.774	-93.480	-126.957	124.519	144.911	94.898	132.164	187.971	72.608	-123.997	149.455	170.954	13.284	0.00084058	0.00010076	8.7757e-05	1898.4	5.2292e-06	6.8788e-06	1643.1	524.38	9.8641e-06	7.5307e-06	488.39	151.89	161.92	53.775	2.089e-06	53.689	0.0010137	0.0010911	0.00028469	1539.2	1.1333e-05	1.1996e-05	1343.1	427.71	1.1631e-05	1.1672e-05	399.57	125.08	132.79	44.455	1.12e-05	45.019	138.915	-36.652	-107.756	-130.286	12.870	-17.693	-131.528	-125.354	-42.504	-4.780	-126.819	-122.652	-121.050	-115.268	-130.035	-118.286	-8191	255	
21565.688	1	1	0	0	0.35827	0.20148	0.088038	0.1802	0.11451	0.064628	0.37986	0.23868	0.21277	0.27456	0.15429	0.10903	0.23602	0.22194	0.25712	0.24597	-2.1375	-2.35	-2.9292	-2.2229	-2.7938	-2.7313	-2.3438	-3.2083	-2.4167	-2.3708	-3.0208	-2.4333	-2.875	-2.8708	-2.0917	-3.0042	216.962	8.882	-81.132	-113.209	51.983	73.478	167.088	151.351	14.983	-141.884	-128.271	121.348	-113.774	207.826	173.533	193.408	0.0007447	0.00058668	0.0001596	1893.4	7.5898e-06	8.0589e-06	1646.4	524.29	9.6037e-06	7.3603e-07	490.89	151.75	161.7	53.686	7.0208e-06	54.522	0.0010036	0.0010852	0.00028879	1546.6	1.182e-05	1.1412e-05	1346	428.66	1.1621e-05	1.2045e-05	401.43	125.19	133.84	44.662	1.1235e-05	45.502	142.200	-33.247	212.525	-130.311	-49.515	-12.687	-131.343	-124.993	-53.161	65.817	-126.659	-122.441	-121.082	-114.964	2.283	-118.602	-8191	255	
#DATA ENDS
