BOXY.EXE: ISS Imagent and Oximeter Data Acquisition Program Version 0.80
Ascii Record File

#ACQ INFORMATION
2  Detector Channels 
16  External MUX Channels 
1  Auxiliary Channels 
5000  Waveform (CCF) Frequency (Hz)
1  Waveforms Skipped 
30  Waveforms Averaged 
1  Cycles Averaged 
16  Acquisitions per Waveform 
10.0806  Updata Rate (Hz) 

#FILE INFORMATION
TRUE -- External MUX Channel results are PARSED.
FALSE -- AC DC and Phase are NOT grouped.
TRUE -- Companion Program Settings File CREATED.
FALSE -- AC data not excluded
FALSE -- DC data not excluded
FALSE -- Phase data not excluded
FALSE -- Auxillary Chn. data not excluded
Tab delimiters

#CALIBRATION STATE
TRUE -- Waveform Calibration Values APPLIED.


#AUX CALIBRATION VALUES
Val Type	aux-1	

Term	1.0000e+00	
Factor	0.0000e+00	


#WF CALIBRATION VALUES
A = Detector Channel
Val Type	A-AC1	A-AC2	A-AC3	A-AC4	A-AC5	A-AC6	A-AC7	A-AC8	A-AC9	A-AC10	A-AC11	A-AC12	A-AC13	A-AC14	A-AC15	A-AC16	A-DC1	A-DC2	A-DC3	A-DC4	A-DC5	A-DC6	A-DC7	A-DC8	A-DC9	A-DC10	A-DC11	A-DC12	A-DC13	A-DC14	A-DC15	A-DC16	A-Ph1	A-Ph2	A-Ph3	A-Ph4	A-Ph5	A-Ph6	A-Ph7	A-Ph8	A-Ph9	A-Ph10	A-Ph11	A-Ph12	A-Ph13	A-Ph14	A-Ph15	A-Ph16	

Term	0.00000e+00	0.00000e+00	0.00000e+00	0.00000e+00	0.00000e+00	0.00000e+00	0.00000e+00	0.00000e+00	0.00000e+00	0.00000e+00	0.00000e+00	0.00000e+00	0.00000e+00	0.00000e+00	0.00000e+00	0.00000e+00	0.00000e+00	0.00000e+00	0.00000e+00	0.00000e+00	0.00000e+00	0.00000e+00	0.00000e+00	0.00000e+00	0.00000e+00	0.00000e+00	0.00000e+00	0.00000e+00	0.00000e+00	0.00000e+00	0.00000e+00	0.00000e+00	0.00000e+00	0.00000e+00	0.00000e+00	0.00000e+00	0.00000e+00	0.00000e+00	0.00000e+00	0.00000e+00	0.00000e+00	0.00000e+00	0.00000e+00	0.00000e+00	0.00000e+00	0.00000e+00	0.00000e+00	0.00000e+00	
Factor	1.00000e+00	1.00000e+00	1.00000e+00	1.00000e+00	1.00000e+00	1.00000e+00	1.00000e+00	1.00000e+00	1.00000e+00	1.00000e+00	1.00000e+00	1.00000e+00	1.00000e+00	1.00000e+00	1.00000e+00	1.00000e+00	1.00000e+00	1.00000e+00	1.00000e+00	1.00000e+00	1.00000e+00	1.00000e+00	1.00000e+00	1.00000e+00	1.00000e+00	1.00000e+00	1.00000e+00	1.00000e+00	1.00000e+00	1.00000e+00	1.00000e+00	1.00000e+00	X	X	X	X	X	X	X	X	X	X	X	X	X	X	X	X	

B = Detector Channel
Val Type	B-AC1	B-AC2	B-AC3	B-AC4	B-AC5	B-AC6	B-AC7	B-AC8	B-AC9	B-AC10	B-AC11	B-AC12	B-AC13	B-AC14	B-AC15	B-AC16	B-DC1	B-DC2	B-DC3	B-DC4	B-DC5	B-DC6	B-DC7	B-DC8	B-DC9	B-DC10	B-DC11	B-DC12	B-DC13	B-DC14	B-DC15	B-DC16	B-Ph1	B-Ph2	B-Ph3	B-Ph4	B-Ph5	B-Ph6	B-Ph7	B-Ph8	B-Ph9	B-Ph10	B-Ph11	B-Ph12	B-Ph13	B-Ph14	B-Ph15	B-Ph16	

Term	0.00000e+00	0.00000e+00	0.00000e+00	0.00000e+00	0.00000e+00	0.00000e+00	0.00000e+00	0.00000e+00	0.00000e+00	0.00000e+00	0.00000e+00	0.00000e+00	0.00000e+00	0.00000e+00	0.00000e+00	0.00000e+00	0.00000e+00	0.00000e+00	0.00000e+00	0.00000e+00	0.00000e+00	0.00000e+00	0.00000e+00	0.00000e+00	0.00000e+00	0.00000e+00	0.00000e+00	0.00000e+00	0.00000e+00	0.00000e+00	0.00000e+00	0.00000e+00	-1.12736e+02	-1.32660e+02	-1.57672e+02	-1.83228e+02	-7.36844e+01	-7.41403e+01	-1.57769e+02	-1.62015e+02	-7.39298e+01	-8.15064e+01	-1.72450e+02	-1.71347e+02	-1.84938e+02	-1.78511e+02	-9.10839e+01	-1.50871e+02	
Factor	1.78968e-05	1.04503e-04	4.02729e-05	1.54566e-01	1.05787e-06	1.14884e-06	1.75725e-01	5.77799e-02	9.78682e-07	1.20120e-06	1.01565e-01	3.04267e-02	6.38759e-02	9.98531e-03	1.13885e-06	1.44782e-02	7.43370e-07	7.63276e-07	2.11636e-07	7.61262e-02	8.34935e-09	8.34908e-09	8.12104e-02	2.82388e-02	8.35724e-09	8.35355e-09	4.68643e-02	1.42655e-02	2.82392e-02	4.79310e-03	8.33279e-09	6.65656e-03	X	X	X	X	X	X	X	X	X	X	X	X	X	X	X	X	



#DISTANCE SETTINGS
A = Detector Channel
A-1	A-2	A-3	A-4	A-5	A-6	A-7	A-8	A-9	A-10	A-11	A-12	A-13	A-14	A-15	A-16	

2.5000e+00	3.0000e+00	2.5000e+00	3.0000e+00	2.0000e+00	3.0000e+00	1.5000e+00	3.0000e+00	3.0000e+00	3.0000e+00	3.0000e+00	3.0000e+00	3.0000e+00	3.0000e+00	1.5000e+00	3.0000e+00	

B = Detector Channel
B-1	B-2	B-3	B-4	B-5	B-6	B-7	B-8	B-9	B-10	B-11	B-12	B-13	B-14	B-15	B-16	

1.0000e+01	1.0000e+01	1.0000e+01	1.4400e+00	1.0000e+01	1.0000e+01	1.5100e+00	1.9400e+00	1.0000e+01	1.0000e+01	1.9900e+00	2.4900e+00	2.4100e+00	2.9000e+00	1.0000e+01	2.9800e+00	




#DATA BEGINS
time	group	step	mark	flag	A-AC1	A-AC2	A-AC3	A-AC4	A-AC5	A-AC6	A-AC7	A-AC8	A-AC9	A-AC10	A-AC11	A-AC12	A-AC13	A-AC14	A-AC15	A-AC16	A-DC1	A-DC2	A-DC3	A-DC4	A-DC5	A-DC6	A-DC7	A-DC8	A-DC9	A-DC10	A-DC11	A-DC12	A-DC13	A-DC14	A-DC15	A-DC16	A-Ph1	A-Ph2	A-Ph3	A-Ph4	A-Ph5	A-Ph6	A-Ph7	A-Ph8	A-Ph9	A-Ph10	A-Ph11	A-Ph12	A-Ph13	A-Ph14	A-Ph15	A-Ph16	B-AC1	B-AC2	B-AC3	B-AC4	B-AC5	B-AC6	B-AC7	B-AC8	B-AC9	B-AC10	B-AC11	B-AC12	B-AC13	B-AC14	B-AC15	B-AC16	B-DC1	B-DC2	B-DC3	B-DC4	B-DC5	B-DC6	B-DC7	B-DC8	B-DC9	B-DC10	B-DC11	B-DC12	B-DC13	B-DC14	B-DC15	B-DC16	B-Ph1	B-Ph2	B-Ph3	B-Ph4	B-Ph5	B-Ph6	B-Ph7	B-Ph8	B-Ph9	B-Ph10	B-Ph11	B-Ph12	B-Ph13	B-Ph14	B-Ph15	B-Ph16	aux-1	digaux	

9193.080	1	1	0	512	0.19121	0.28522	0.093516	0.19355	0.11615	0.094557	0.18704	0.084441	0.19918	0.2028	0.12221	0.15056	0.19155	0.24329	0.24896	0.25848	-1.8042	-2.2104	-1.5917	-2.4188	-2.1042	-1.8917	-2.5958	-1.7583	-1.9958	-2.4708	-1.6125	-2.4292	-1.8375	-1.9229	-2.3271	-2.0396	233.685	0.035	131.499	267.789	258.346	248.860	200.547	-38.340	229.295	172.117	234.969	-39.407	88.447	-56.615	274.990	213.703	0.00028975	0.00068297	0.00016653	656	6.4247e-06	5.2645e-06	973.03	227	2.5401e-06	4.6513e-06	471.96	225.81	103.04	57.623	2.7836e-06	124.59	9.7708e-05	7.5723e-05	1.9021e-05	587.85	8.8032e-07	8.2157e-07	867.09	202.69	8.8881e-07	8.1814e-07	408.22	198.97	86.404	50.265	8.1542e-07	107.4	178.429	4.355	32.222	-50.755	42.464	58.786	-50.276	-45.000	51.677	33.944	-45.993	-41.522	-41.067	-37.541	54.293	-38.156	-8191	255	
9193.153	1	1	0	0	0.3299	0.065161	0.036848	0.16016	0.15309	0.24782	0.045074	0.20828	0.18775	0.041425	0.34499	0.30257	0.13262	0.32926	0.22424	0.13122	-1.7583	-2.5208	-1.7104	-2.3083	-2.2188	-1.7563	-2.7	-1.8896	-1.9958	-2.525	-1.4771	-2.5125	-2.1104	-1.8229	-2.5792	-1.85	275.060	206.602	31.243	242.906	130.294	94.506	-7.121	285.014	290.886	73.918	151.631	215.734	145.243	219.794	-11.419	165.635	0.00031735	0.00045898	0.00010455	659.93	5.8805e-06	5.004e-06	975.41	228.48	4.0176e-06	4.7268e-06	473.91	226.41	105.61	58.25	5.5507e-06	124.9	9.5237e-05	7.4268e-05	1.9896e-05	591.75	8.7734e-07	7.8904e-07	870.65	203.76	8.3801e-07	7.9486e-07	410.82	200.21	87.28	50.697	8.4323e-07	107.89	172.482	39.723	25.112	-50.834	90.513	62.988	-50.272	-45.214	78.850	89.102	-46.395	-42.265	-41.735	-37.578	29.669	-38.346	-8191	255	
9193.272	1	1	0	0	0.19801	0.068937	0.14596	0.242	0.033382	0.2974	0.16585	0.040834	0.028596	0.032544	0.028153	0.18096	0.02461	0.13745	0.078655	0.22479	-1.4188	-2.6167	-1.3771	-2.2542	-2.1188	-1.6208	-2.5625	-1.9646	-1.8104	-2.4188	-1.5583	-2.3604	-2.3146	-1.6479	-2.425	-2.1229	276.548	222.696	43.944	21.218	-0.651	16.263	287.161	135.862	-15.722	-36.625	228.556	281.051	225.640	112.711	-32.680	213.350	0.00024606	0.00062528	0.00015463	657.22	2.361e-06	3.9552e-06	978.01	228.58	2.7094e-06	3.8202e-06	474.61	226.98	104.82	57.626	4.5998e-06	124.85	9.0748e-05	7.3077e-05	2.159e-05	589.15	8.4887e-07	7.617e-07	872.81	204.01	8.226e-07	7.6049e-07	411.59	200.22	86.867	50.336	8.7595e-07	107.72	172.013	17.481	25.089	-50.294	57.915	72.528	-50.275	-45.625	110.603	107.953	-46.312	-42.290	-41.155	-38.006	67.907	-38.585	-8191	255	
9193.368	1	1	0	0	0.15774	0.22782	0.144	0.1685	0.18438	0.052538	0.29093	0.13423	0.23159	0.33099	0.22784	0.11239	0.1747	0.25789	0.21254	0.3289	-1.4125	-2.4437	-1.7	-2.2104	-2.1729	-1.5958	-2.6083	-2.1542	-1.7229	-2.6896	-1.7875	-2.3104	-2.4292	-1.6875	-2.3563	-2.2625	-54.983	73.208	277.531	44.189	248.506	205.107	219.945	233.781	126.526	249.567	276.779	-47.106	185.835	283.772	-15.126	266.415	0.00024843	0.00045705	0.00020916	650.01	4.9668e-06	8.46e-06	973.34	227.83	4.3492e-06	2.2895e-06	473.34	225.76	104.34	57.118	4.6314e-06	124.21	8.8345e-05	6.994e-05	2.2717e-05	585.55	8.2387e-07	7.6994e-07	870.85	202.5	7.9838e-07	7.9585e-07	409.08	198.83	86.248	49.905	9.1914e-07	107.07	173.171	-13.347	-4.035	-50.835	80.171	84.470	-50.357	-45.544	66.365	126.402	-46.293	-42.007	-41.518	-37.588	88.860	-38.342	-8191	255	
9193.464	1	1	0	0	0.211	0.075119	0.24492	0.13234	0.070281	0.049537	0.25353	0.16219	0.1629	0.18141	0.13434	0.097102	0.22704	0.20646	0.35951	0.18227	-1.325	-2.4521	-1.8208	-2.1229	-2.4896	-1.6812	-2.5229	-2.0125	-1.5625	-2.55	-1.8771	-2.0812	-2.5146	-1.8312	-2.3771	-2.5583	175.244	19.820	180.787	-15.306	213.574	-36.422	-61.058	249.374	171.384	91.886	-25.983	253.601	129.401	279.920	127.756	268.169	0.00032982	0.00034808	4.3719e-05	663.31	3.4424e-06	5.3751e-06	972.33	228.98	5.1732e-06	4.6428e-06	473.79	226.27	104.18	57.916	4.5818e-06	125.21	8.5404e-05	7.2289e-05	2.3143e-05	590.86	7.8776e-07	8.0257e-07	871.54	203.22	7.9608e-07	8.2684e-07	409.97	199.38	86.496	50.55	8.9489e-07	107.72	175.510	56.628	79.578	-50.726	110.836	108.994	-50.282	-45.372	64.560	116.527	-46.295	-41.904	-41.687	-37.501	33.363	-38.038	-8191	255	
9193.560	1	1	0	0	0.24151	0.23147	0.3389	0.062706	0.19172	0.26639	0.20288	0.15961	0.17504	0.024369	0.24197	0.21047	0.33289	0.30365	0.31411	0.28169	-1.4188	-2.3292	-1.6437	-2	-2.7375	-1.6833	-2.4021	-2.4104	-1.5562	-2.4938	-2.3042	-1.9646	-2.5146	-1.6625	-2.2604	-2.6021	125.627	295.497	281.253	277.960	83.584	120.607	-30.250	162.919	83.643	-40.495	229.041	279.330	-34.074	292.605	140.152	223.481	0.00029438	0.0005658	0.00011663	657.64	4.3618e-06	1.8427e-06	975.06	228.31	3.753e-06	3.7339e-06	476.09	227.37	106.39	58.197	3.0931e-06	125.5	8.4673e-05	7.7721e-05	2.2782e-05	588.72	7.9326e-07	8.6062e-07	873.8	203.7	7.5151e-07	8.38e-07	412.76	200.76	87.31	50.853	8.6354e-07	107.96	185.022	54.035	32.735	-50.340	45.282	35.392	-50.145	-45.117	73.219	79.280	-45.769	-41.503	-40.592	-37.337	67.762	-37.920	-8191	255	
9193.681	1	1	0	0	0.1617	0.23735	0.19479	0.14763	0.13354	0.31308	0.058709	0.0046928	0.040208	0.036812	0.16397	0.32063	0.19595	0.16649	0.36404	0.13148	-1.3521	-2.2354	-1.9312	-1.6979	-2.4313	-1.8687	-2.0417	-2.4437	-1.7833	-2.3104	-2.1625	-1.7833	-2.5125	-1.9125	-1.8021	-2.5521	-46.096	207.981	215.396	169.999	202.552	236.518	25.019	166.756	253.958	160.812	150.921	-29.742	122.450	187.681	201.435	295.104	0.00034809	0.00039131	0.00031153	659.41	4.8417e-06	3.5776e-06	978.24	229.59	3.4772e-06	6.445e-06	472.93	226.67	104.36	57.484	2.5438e-06	124.33	8.6082e-05	8.1368e-05	2.177e-05	588.91	7.8599e-07	8.8351e-07	875.27	203.88	8.0567e-07	8.7526e-07	410.42	199.52	86.307	50.344	8.4326e-07	107.21	169.225	9.167	15.161	-50.557	121.659	113.260	-50.116	-44.865	96.382	54.835	-45.678	-41.762	-40.740	-37.419	90.994	-37.921	-8191	255	
9193.753	1	1	0	0	0.16807	0.13385	0.21128	0.045897	0.14642	0.10186	0.072169	0.11144	0.13581	0.18854	0.37037	0.077165	0.1312	0.17075	0.33364	0.062754	-1.1667	-2.4646	-2.2438	-1.7542	-2.6604	-1.9021	-2.0854	-2.4875	-1.5938	-2.325	-2.4292	-1.6979	-2.5229	-1.9917	-1.6458	-2.675	165.495	136.671	265.740	161.930	24.892	85.460	131.071	239.566	189.217	190.039	235.497	257.231	158.764	221.123	261.567	259.982	0.00032664	0.0003929	0.0002325	659.2	3.2262e-06	3.1935e-06	980.8	227.33	2.5382e-06	6.3517e-06	468.22	224.49	102.67	57.347	3.1907e-06	123.7	9.01e-05	8.1171e-05	2.0612e-05	588.52	8.4054e-07	8.7486e-07	871.91	202.2	8.4286e-07	8.6426e-07	405.47	196.9	85.378	49.933	7.8392e-07	106.66	177.039	-20.865	-40.787	-50.256	98.952	106.481	-49.804	-44.917	178.688	63.771	-45.842	-41.700	-40.610	-37.528	36.636	-37.921	-8191	255	
9193.849	1	1	0	0	0.30689	0.18415	0.098707	0.15767	0.025257	0.16063	0.05039	0.28517	0.24881	0.10994	0.13879	0.1686	0.10559	0.09597	0.095719	0.2472	-1.3375	-2.325	-2.3312	-1.6583	-2.2938	-1.7646	-1.8333	-2.5833	-1.6313	-1.9771	-2.4396	-1.6833	-2.3792	-2.1979	-1.7854	-2.8	93.657	247.931	14.207	286.930	-39.799	-16.071	43.355	191.899	85.212	252.024	208.947	192.248	138.105	78.797	53.417	245.390	0.00031938	0.00047353	0.00018632	660.49	4.0057e-06	5.9003e-06	973.47	226.03	2.3464e-06	4.806e-06	467.24	222.72	103.67	57.703	6.4751e-06	125.53	9.3946e-05	7.9983e-05	1.9717e-05	589.18	8.6875e-07	8.6383e-07	870.05	202.36	8.7008e-07	8.3842e-07	405.75	196.46	85.968	50.439	7.9845e-07	107.71	183.651	30.293	-27.536	-50.208	132.277	104.458	-50.123	-45.239	93.448	37.075	-45.643	-41.394	-40.289	-37.258	78.419	-37.923	-8191	255	
9193.969	1	1	0	0	0.22471	0.18337	0.11433	0.19156	0.09246	0.30214	0.17298	0.2007	0.10229	0.053875	0.16508	0.38709	0.10252	0.090219	0.19052	0.52622	-1.2396	-1.9479	-2.25	-1.5833	-2.4146	-1.8687	-1.7479	-2.6083	-1.7021	-1.9396	-2.5938	-1.5708	-2.3563	-2.1688	-1.5333	-2.6	177.203	-24.776	-21.097	297.162	61.684	-36.691	223.268	133.128	55.787	189.337	-42.839	247.112	-38.254	260.140	65.890	245.324	0.0003444	0.00063147	0.00014945	658.61	6.0228e-06	1.5322e-06	962.25	224.33	3.1707e-06	4.9271e-06	463.72	223.26	102.99	57.945	4.1557e-06	124.99	9.7518e-05	7.7791e-05	2.0212e-05	590.23	8.842e-07	8.1148e-07	865.92	202.36	9.1667e-07	8.1193e-07	404.59	197.27	86.053	50.481	7.682e-07	107.9	177.296	44.242	-4.270	-50.126	91.782	114.390	-49.778	-44.617	112.499	103.463	-45.486	-41.484	-40.790	-37.293	71.124	-37.879	-8191	255	
9194.066	1	1	0	0	0.33317	0.039054	0.26639	0.12139	0.18458	0.17711	0.16401	0.23806	0.17982	0.060622	0.27189	0.10605	0.24378	0.19671	0.21028	0.24027	-1.4	-1.6313	-2.5521	-1.7583	-2.1437	-2.2396	-1.7437	-2.5771	-1.8604	-1.7542	-2.5625	-1.9229	-2.1167	-2.3979	-1.4521	-2.6458	164.975	86.846	49.363	237.820	55.301	136.885	267.714	278.694	198.354	145.482	-62.481	-14.988	207.309	291.044	44.555	285.368	0.0002775	0.00068397	6.4097e-05	657.23	7.6513e-06	2.814e-06	965.59	226.44	1.2979e-06	3.2761e-06	461.85	219.66	100.77	56.889	3.8116e-06	122.5	9.8061e-05	7.3639e-05	1.9027e-05	587.07	8.8164e-07	7.9682e-07	865.87	202.27	8.7149e-07	7.8847e-07	403.48	196.18	84.628	50.019	7.6172e-07	106.64	177.654	54.806	-7.889	-50.343	99.580	84.540	-49.916	-44.893	120.510	99.481	-45.409	-41.246	-40.176	-37.340	78.989	-37.879	-8191	255	
9194.162	1	1	0	0	0.26026	0.39643	0.18447	0.18422	0.12676	0.091293	0.24818	0.23975	0.16337	0.1013	0.1603	0.29784	0.17643	0.10911	0.12364	0.11041	-1.6854	-1.8021	-2.3563	-1.8479	-2.0792	-2.3521	-1.7667	-2.3583	-2.1042	-1.5271	-2.6437	-1.8771	-2.125	-2.5125	-1.5938	-2.4271	272.691	74.797	97.625	32.828	39.468	97.990	230.762	235.198	173.269	72.053	296.222	240.483	173.566	185.525	-36.502	229.177	0.00031077	0.00064845	0.00025938	649.16	1.9216e-06	7.3981e-06	953.52	224.01	4.7034e-06	3.9884e-06	459.11	219.95	101.68	57.263	2.9127e-06	123.23	9.3575e-05	7.1633e-05	1.951e-05	583.88	8.6551e-07	7.8118e-07	859.97	201.36	8.6273e-07	7.6713e-07	401.67	195.77	85.082	50.17	7.9509e-07	107.11	167.392	39.267	-24.045	-49.798	61.233	69.004	-49.982	-44.443	112.404	34.456	-45.117	-41.264	-39.979	-37.216	88.455	-37.728	-8191	255	
9194.281	1	1	0	0	0.071207	0.18596	0.14564	0.25909	0.11109	0.15766	0.24411	0.16127	0.059747	0.2201	0.079753	0.24957	0.31461	0.22326	0.35587	0.24524	-1.8854	-1.7938	-2.4375	-1.8083	-1.9937	-2.4958	-1.7333	-2.5042	-2.2396	-1.5979	-2.6708	-2.0083	-1.8125	-2.5979	-1.5104	-2.5021	2.453	125.793	293.584	23.575	153.261	26.859	239.623	174.891	219.833	293.394	261.178	-36.209	196.883	-38.511	219.893	270.752	0.00028713	0.00053208	0.00020902	650.74	3.531e-06	7.6153e-06	955.63	225.4	5.4187e-06	2.1034e-06	471.24	223.02	104.04	57.845	3.574e-06	125.21	9.0479e-05	6.9821e-05	2.0646e-05	584.76	8.1053e-07	7.5067e-07	861.65	202.95	8.3738e-07	7.4056e-07	406.07	196.83	85.832	50.643	8.4758e-07	107.91	181.208	35.133	35.435	-50.366	120.267	77.919	-49.583	-44.498	74.797	105.548	-45.804	-41.535	-40.580	-37.351	68.560	-37.825	-8191	255	
9194.377	1	1	0	0	0.21944	0.11683	0.44638	0.15795	0.23682	0.056242	0.20057	0.17014	0.064655	0.32511	0.078288	0.19443	0.16575	0.30338	0.26769	0.39784	-1.6583	-1.3708	-2.4938	-1.9271	-1.7979	-2.6917	-1.775	-2.1375	-2.2146	-1.6562	-2.4667	-2.1125	-1.5688	-2.6458	-1.7188	-2.2521	-38.216	17.526	221.646	92.065	149.434	222.473	-37.338	197.483	81.269	204.302	254.453	270.212	-36.565	277.103	200.147	268.893	0.00024582	0.00056846	9.363e-05	651.48	2.7355e-06	4.1269e-06	964.62	227.87	3.0707e-06	5.5116e-06	470.56	223.36	103.42	57.975	6.4168e-06	125.13	9.1642e-05	6.9996e-05	2.18e-05	586.18	7.9474e-07	7.6185e-07	865.52	203.19	8.1236e-07	7.4682e-07	407.21	197.09	85.673	50.63	8.9378e-07	107.58	173.735	48.405	13.621	-50.154	80.280	83.223	-49.829	-45.016	72.939	47.705	-45.430	-41.794	-40.492	-37.176	16.038	-37.579	-8191	255	
9194.448	1	1	0	0	0.28272	0.1369	0.22105	0.28419	0.23457	0.31518	0.26041	0.30016	0.086759	0.11336	0.11709	0.32776	0.07456	0.15017	0.25395	0.32021	-1.9354	-1.5	-2.3375	-2.2958	-1.4542	-2.6396	-1.8729	-2.0625	-2.4	-1.7625	-2.5458	-2.3208	-1.5146	-2.5979	-1.9042	-2.1813	16.774	197.442	15.088	188.858	-40.007	56.307	-48.387	234.288	187.071	153.572	128.502	-12.430	99.960	-51.533	59.300	283.884	0.00030223	0.00059192	0.00010114	654.39	4.0507e-06	9.9797e-07	967.94	224.29	6.6863e-06	7.9856e-06	465.96	220.63	102.52	57.285	6.1106e-06	123.6	8.69e-05	7.1188e-05	2.2596e-05	587.48	7.7731e-07	7.7572e-07	866.79	201.1	7.7649e-07	8.042e-07	404.23	195.25	84.843	50.069	8.9163e-07	106.49	185.134	47.704	74.123	-50.479	99.119	81.035	-49.795	-44.850	80.780	52.305	-45.536	-41.600	-41.007	-37.332	31.892	-37.612	-8191	255	
9194.569	1	1	0	0	0.24474	0.19771	0.17369	0.2495	0.28853	0.02997	0.22043	0.2427	0.26512	0.20734	0.10449	0.35998	0.11154	0.12721	0.24641	0.18881	-2.1896	-1.6854	-1.9542	-2.0458	-1.6625	-2.5146	-2.0958	-1.8229	-2.3646	-1.6625	-2.0396	-2.4	-1.5896	-2.5542	-1.9312	-1.7458	-5.171	55.493	197.738	242.392	204.135	171.633	205.359	195.961	135.301	198.141	245.787	225.441	177.190	256.369	112.320	207.114	0.00034004	0.00056487	0.00010209	655.7	3.5855e-06	1.3957e-06	969.8	226.34	4.2708e-06	2.0513e-06	465.57	221.61	102.44	57.731	3.5902e-06	123.6	8.847e-05	7.4249e-05	2.2641e-05	586.62	7.5466e-07	8.4298e-07	866.92	201.52	7.9296e-07	8.5822e-07	403.84	195.78	84.98	50.391	9.0513e-07	106.62	181.774	17.506	14.168	-51.044	62.811	59.942	-50.697	-45.235	113.137	138.601	-46.279	-42.224	-40.991	-37.451	4.180	-38.359	-8191	255	
9194.665	1	1	0	0	0.17212	0.2113	0.18966	0.25849	0.14743	0.25558	0.18072	0.20332	0.1265	0.24109	0.20876	0.22749	0.12986	0.17488	0.1428	0.33133	-2.0208	-1.6583	-2.075	-2.5208	-1.2604	-2.3208	-1.8896	-1.8604	-2.7458	-1.6875	-2.3729	-2.55	-1.4833	-2.5458	-1.9833	-1.9208	-61.131	222.156	38.425	186.181	68.313	20.059	233.557	224.807	231.373	187.807	-50.512	209.798	227.441	164.191	-46.954	271.038	0.00028029	0.00052055	0.00019192	662.37	4.2136e-06	5.3751e-06	968.38	230.12	2.9642e-06	4.5035e-06	458.77	220.61	101.72	57.569	8.4686e-06	124.9	8.4433e-05	7.8665e-05	2.1601e-05	589.8	7.7085e-07	9.0074e-07	865.94	203.29	7.9624e-07	8.9324e-07	403.91	196.37	85.168	50.706	8.9513e-07	107.16	184.091	16.786	-5.426	-50.619	100.616	102.766	-50.331	-45.009	135.187	80.767	-45.475	-41.265	-39.833	-36.858	23.376	-38.003	-8191	255	
9194.761	1	1	0	0	0.27589	0.22193	0.070128	0.20928	0.13344	0.078702	0.084797	0.084208	0.069857	0.28385	0.10616	0.29835	0.049082	0.15851	0.23008	0.15456	-2.2958	-1.7354	-2.0292	-2.6208	-1.525	-2.3583	-2.4521	-1.7437	-2.5896	-1.9396	-2.0042	-2.7333	-1.6354	-2.4646	-2.2354	-1.8479	201.649	-44.890	137.812	-37.679	239.184	256.669	155.805	94.629	243.704	84.701	48.859	-43.804	26.438	243.704	50.958	230.824	0.00030058	0.00061026	0.00031132	650.42	5.5785e-06	5.8696e-06	958.36	226.27	3.3848e-06	4.4941e-06	466.09	221.01	103.04	57.858	6.7845e-06	123.19	9.0854e-05	8.3302e-05	2.1213e-05	587.36	8.1982e-07	8.969e-07	865.05	202.53	8.286e-07	9.1226e-07	405.28	196.27	85.65	50.603	8.1937e-07	106.38	177.871	8.852	-27.999	-49.897	143.254	88.877	-49.777	-44.424	97.860	67.623	-45.342	-41.434	-40.434	-36.891	87.884	-37.896	-8191	255	
9194.857	1	1	0	0	0.18992	0.065127	0.17667	0.041563	0.12706	0.21463	0.29053	0.33721	0.14029	0.19562	0.058655	0.19275	0.245	0.097435	0.13405	0.3636	-2.1292	-1.7417	-1.7708	-2.425	-1.5396	-2.0563	-2.3104	-1.5833	-2.5792	-1.9333	-1.9229	-2.6333	-1.5729	-2.3458	-2.2687	-1.7938	42.075	195.863	285.101	-16.736	185.945	-51.944	163.630	246.373	44.746	125.089	243.960	287.248	134.700	239.487	263.233	269.395	0.00028938	0.0003256	0.00021714	654.86	2.801e-06	4.7157e-06	964.57	228.16	4.7769e-06	7.3172e-06	464.2	220.6	103.07	57.486	2.4968e-06	123.06	9.2025e-05	8.1133e-05	2.0283e-05	586.43	8.6473e-07	8.8846e-07	865.36	201.77	8.85e-07	8.5781e-07	402.2	194.95	85.248	50.156	8.033e-07	106.07	176.164	-12.944	5.648	-50.358	42.979	88.496	-50.216	-45.362	91.183	88.246	-46.226	-41.601	-40.962	-37.277	136.998	-38.037	-8191	255	
9194.976	1	1	0	0	0.066165	0.19096	0.052658	0.099843	0.2865	0.37548	0.1169	0.27122	0.1145	0.079048	0.28766	0.26264	0.26782	0.1016	0.049989	0.026418	-2.0375	-2.0958	-1.6958	-2.7083	-1.5812	-1.9958	-2.4042	-1.5312	-2.3458	-2.1125	-1.7875	-2.6896	-1.7229	-1.9708	-2.6333	-1.7208	-59.476	-5.890	19.910	203.660	88.323	72.136	252.173	234.223	165.683	-51.228	222.490	121.892	-18.796	276.519	271.933	119.112	0.00031058	0.00073572	0.0002178	658.77	4.7672e-06	4.7435e-06	966.73	227.73	1.8367e-06	5.9392e-06	467.16	221.85	102.68	57.667	2.915e-06	123.54	9.8583e-05	7.7007e-05	1.9762e-05	586.64	9.0091e-07	8.3959e-07	864.32	201.69	9.3317e-07	8.5081e-07	403.08	195.99	85.767	50.43	7.8366e-07	106.62	179.832	14.485	16.109	-50.589	57.269	94.094	-49.962	-44.927	8.345	70.396	-46.250	-41.744	-40.994	-37.349	80.211	-37.985	-8191	255	
9195.050	1	1	0	0	0.11262	0.1623	0.18587	0.34387	0.24329	0.21106	0.1526	0.42397	0.20236	0.011165	0.20332	0.17283	0.092173	0.26471	0.099882	0.11006	-1.8479	-2.0646	-1.6479	-2.6521	-1.7188	-1.9604	-2.5958	-1.7188	-2.3104	-2.2375	-1.7896	-2.5479	-1.875	-1.8083	-2.4854	-1.7563	-9.939	38.565	24.027	149.854	295.075	97.785	-8.984	-21.608	9.661	23.052	38.554	269.830	-29.509	-40.441	7.380	248.403	0.0002856	0.00053389	0.00021163	661.16	5.8313e-06	6.5001e-06	971.17	227.67	5.0356e-06	3.0616e-06	467.05	222.57	103.46	57.827	4.0899e-06	124.25	9.7081e-05	7.5307e-05	1.9663e-05	589.34	9.1438e-07	8.033e-07	865.4	203.1	9.0472e-07	8.266e-07	404.18	196.37	86.308	50.67	7.7778e-07	106.7	171.963	22.613	20.374	-50.462	61.767	38.497	-50.622	-45.558	75.826	170.405	-45.919	-41.931	-41.153	-37.894	67.792	-38.692	-8191	255	
9195.146	1	1	0	0	0.099958	0.19899	0.16931	0.049156	0.15781	0.15697	0.29061	0.31803	0.24236	0.085316	0.22879	0.20214	0.32131	0.024579	0.10181	0.0038155	-1.825	-2.1896	-1.3479	-2.5604	-1.9125	-1.8125	-2.675	-1.6792	-2.0667	-2.4188	-1.575	-2.6208	-2.0729	-1.6812	-2.4625	-1.7875	29.416	248.436	278.739	-5.100	57.079	30.003	228.649	257.474	293.679	277.231	-4.918	237.782	246.137	74.974	156.240	97.661	0.000263	0.00025552	9.8129e-05	658.97	2.5591e-06	3.1509e-06	972.33	227.08	2.0561e-06	6.3458e-06	463.49	220.61	103.19	57.623	8.0818e-06	122.86	9.3535e-05	7.288e-05	1.915e-05	589.98	8.4582e-07	7.8029e-07	866.42	201.9	8.6174e-07	7.7777e-07	401.48	194.88	85.098	50.27	7.6525e-07	105.86	175.276	-14.317	33.160	-51.233	78.222	35.706	-50.447	-45.568	85.362	120.686	-46.112	-41.574	-41.489	-37.712	80.104	-38.025	-8191	255	
9195.242	1	1	0	0	0.14474	0.15028	0.37658	0.031377	0.15393	0.17401	0.28135	0.15921	0.26133	0.14209	0.28683	0.21982	0.11289	0.1735	0.081083	0.26446	-1.5542	-2.5104	-1.5104	-2.4688	-2.3146	-1.7208	-2.7667	-1.8854	-2.075	-2.6188	-1.9083	-2.5938	-2.3667	-1.5708	-2.4833	-2.1813	246.459	-22.822	13.189	265.979	-57.129	-59.808	233.653	111.077	3.326	217.666	228.981	256.998	142.090	237.768	121.171	219.220	0.00027978	0.00041789	0.00026242	658.44	2.3983e-06	4.0434e-06	961.84	224.72	2.2838e-06	6.9731e-06	460.55	220.36	102.93	57.175	2.7469e-06	122.65	9.1555e-05	7.0877e-05	1.9374e-05	588.5	8.1504e-07	7.3435e-07	861.01	200.77	8.044e-07	7.5601e-07	400	194.27	84.918	50.081	8.2741e-07	105.48	169.669	7.967	-1.971	-50.063	86.801	83.930	-50.350	-45.292	19.071	69.216	-46.202	-41.827	-40.942	-37.438	64.779	-38.453	-8191	255	
9195.361	1	1	0	0	0.10713	0.20375	0.48427	0.23389	0.30564	0.08464	0.35738	0.24826	0.4941	0.093416	0.13124	0.30607	0.098149	0.17791	0.33216	0.087182	-1.3396	-2.4208	-1.5729	-2.3563	-2.1375	-1.7354	-2.6771	-2.0208	-1.7479	-2.525	-1.8208	-2.5271	-2.3646	-1.6812	-2.4771	-2.2104	-47.762	38.459	8.585	221.464	175.753	17.465	269.594	233.037	-36.867	112.428	-35.494	243.469	112.528	200.924	246.430	283.982	0.00034086	0.00066429	9.4903e-05	658.6	3.1422e-06	1.8996e-06	967.03	226.67	1.159e-06	5.9388e-06	464.45	220.71	103.63	57.786	2.8624e-06	123.71	8.6892e-05	6.8437e-05	2.0519e-05	589.15	7.9668e-07	7.3289e-07	862.76	202.03	7.9733e-07	7.3273e-07	402.77	195.13	85.66	50.659	8.7244e-07	106.54	178.404	-23.178	-21.838	-50.712	83.757	73.506	-50.107	-45.130	138.308	89.825	-46.602	-42.127	-41.371	-37.205	66.681	-38.793	-8191	255	
9195.457	1	1	0	0	0.28291	0.083675	0.18601	0.085874	0.065002	0.14082	0.13493	0.32542	0.2284	0.16773	0.17567	0.25358	0.18419	0.066237	0.15623	0.36928	-1.4083	-2.5812	-1.6437	-2.0542	-2.3729	-1.5208	-2.6021	-2.2146	-1.7229	-2.5479	-1.9438	-2.0958	-2.3146	-1.6896	-2.3646	-2.2729	255.698	71.606	34.764	212.223	120.391	44.711	198.477	257.862	181.540	-27.497	-60.198	269.705	161.279	199.655	-44.696	243.513	0.00033038	0.00049821	0.00014972	658.13	6.1995e-06	2.1186e-06	965.64	228.52	3.3246e-06	5.8862e-06	466.19	221.89	103.38	57.637	2.8554e-06	123.09	8.5669e-05	6.8855e-05	2.2157e-05	590.15	7.8773e-07	7.6479e-07	864.52	202.33	7.7985e-07	7.6466e-07	401.88	195.12	85.12	50.521	8.8262e-07	106.18	183.181	12.191	25.773	-50.362	47.901	93.889	-50.260	-45.740	76.575	85.230	-46.425	-42.045	-41.274	-37.814	84.675	-38.664	-8191	255	
9195.553	1	1	0	0	0.124	0.21942	0.029567	0.15452	0.30236	0.036041	0.32866	0.12258	0.088328	0.17387	0.15878	0.14347	0.029005	0.10498	0.20316	0.50131	-1.3104	-2.4521	-1.8021	-2.1292	-2.3979	-1.5729	-2.3	-2.0417	-1.6729	-2.5208	-1.8333	-1.8521	-2.4708	-1.6729	-2.0729	-2.55	66.426	-32.413	-43.495	294.398	145.666	73.470	3.983	285.396	80.994	195.198	95.822	127.565	108.783	285.824	52.038	246.992	0.00028456	0.00044806	0.0002149	658.85	3.4589e-06	2.2154e-06	962.68	225.43	5.778e-06	1.9789e-06	457.36	218.67	100.9	57.43	5.0155e-06	121.5	8.2627e-05	7.1616e-05	2.2767e-05	589.8	7.4847e-07	7.9349e-07	862.12	200.42	7.5691e-07	8.0857e-07	397.76	192.64	83.805	50.015	8.6607e-07	104.78	171.082	23.006	5.900	-51.428	80.632	142.084	-50.964	-45.714	89.624	107.690	-46.515	-42.613	-41.544	-37.722	54.726	-38.901	-8191	255	
9195.649	1	1	0	0	0.21936	0.14586	0.21303	0.093327	0.084279	0.12796	0.23373	0.062948	0.16472	0.1097	0.12636	0.2561	0.19082	0.15912	0.17049	0.17845	-1.1646	-2.5062	-1.7854	-1.7271	-2.4917	-1.5792	-2.2	-2.2604	-1.55	-2.3396	-1.8354	-1.8375	-2.4729	-1.8521	-2.1375	-2.7375	42.592	264.827	237.110	-33.882	273.553	253.848	227.962	89.135	189.303	22.128	159.406	280.869	52.030	-35.863	-28.896	199.239	0.00028768	0.00067471	0.00013931	655.16	3.5837e-06	4.7186e-06	965.52	224.25	5.3427e-06	3.0947e-06	456.81	218.34	100.6	57.415	5.482e-06	122.41	8.2111e-05	7.4526e-05	2.1286e-05	586.92	7.3198e-07	8.2979e-07	860.43	199.9	7.4684e-07	8.3889e-07	397.65	192.37	83.905	50.093	8.0969e-07	105.22	171.861	42.294	-6.749	-51.130	46.220	83.917	-50.645	-45.661	97.332	100.697	-46.637	-42.380	-41.670	-38.196	83.981	-38.960	-8191	255	
9195.746	1	1	0	0	0.053479	0.29156	0.12633	0.22764	0.15082	0.12465	0.20331	0.21273	0.12632	0.15272	0.21917	0.2476	0.099961	0.14118	0.19608	0.1495	-1.0417	-2.3833	-1.9958	-1.6437	-2.5542	-1.7667	-2.1667	-2.5208	-1.6104	-2.3583	-2.3604	-1.7417	-2.4688	-1.75	-1.8125	-2.6979	157.277	-10.141	155.728	-63.213	98.474	152.926	-58.179	-30.476	-44.543	-13.297	265.839	67.681	276.857	30.345	44.462	241.334	0.00027174	0.00053635	0.00018939	658.4	6.437e-06	4.0378e-06	959.89	225.19	4.9846e-06	2.7327e-06	464.86	219.7	102.26	58.315	3.2732e-06	123.15	8.4465e-05	7.9866e-05	2.0433e-05	586.92	7.6193e-07	8.5676e-07	860.16	200.66	7.6436e-07	8.6569e-07	400.24	193.71	85.306	50.826	7.9684e-07	105.94	175.958	52.380	27.087	-50.934	75.180	68.303	-50.554	-45.490	106.447	116.385	-46.596	-42.147	-41.033	-37.739	77.877	-38.302	-8191	255	
9195.842	1	1	0	0	0.20405	0.19025	0.084232	0.082343	0.07772	0.015675	0.091228	0.14063	0.14271	0.14904	0.19758	0.32452	0.28145	0.10506	0.14987	0.16957	-1.2208	-2.2438	-1.95	-1.85	-2.5146	-1.8625	-2.0667	-2.6854	-1.7896	-2.0479	-2.4458	-1.9208	-2.5167	-2.175	-2.0125	-2.7583	182.865	16.313	116.488	258.949	176.091	-41.217	140.490	135.379	-58.859	168.291	252.827	205.578	43.779	-5.541	1.289	241.012	0.00030727	0.0005523	0.00021766	657.68	3.4667e-06	5.285e-06	965.85	225.85	3.1175e-06	4.8921e-06	462.34	219.66	102.36	57.867	6.0867e-06	121.87	8.8048e-05	7.8923e-05	2.0091e-05	588.32	8.1824e-07	8.4832e-07	861.92	201.31	8.3968e-07	8.3006e-07	400.46	193.57	85.201	50.56	7.9531e-07	105.15	180.307	6.577	3.972	-50.665	80.741	53.231	-50.282	-45.453	74.895	67.152	-46.191	-42.204	-41.152	-37.655	76.578	-38.459	-8191	255	
9195.962	1	1	0	0	0.16511	0.049194	0.13927	0.23931	0.14251	0.11823	0.23224	0.060643	0.003995	0.11688	0.17077	0.16662	0.27019	0.045536	0.13421	0.28725	-1.1938	-2.0312	-2.2146	-1.8458	-2.3958	-1.9542	-2.0375	-2.7208	-1.7604	-1.9312	-2.5667	-1.7687	-2.4313	-2.1417	-1.5146	-2.6771	23.467	86.439	175.533	-62.599	276.008	141.463	235.454	-58.249	142.679	168.604	166.318	114.575	-62.584	131.732	161.512	295.945	0.00028008	0.00061254	0.00011332	653.89	1.5894e-06	2.8402e-06	961.22	225.18	3.3395e-06	3.597e-06	455.16	217	101.95	57.197	4.9599e-06	121.26	9.4072e-05	7.6407e-05	1.9467e-05	585.78	8.5864e-07	8.4176e-07	857.41	199.71	8.5552e-07	8.0473e-07	395.2	190.81	84.387	49.886	7.5676e-07	104.36	169.087	28.611	-12.486	-50.529	58.714	87.698	-50.208	-45.273	84.815	73.731	-46.180	-41.871	-41.084	-37.607	72.971	-38.427	-8191	255	
9196.057	1	1	0	0	0.057501	0.11399	0.095638	0.11166	0.25926	0.17488	0.21283	0.25496	0.21214	0.05214	0.33564	0.49076	0.080052	0.31256	0.061165	0.14872	-1.35	-2.0542	-2.5	-1.7583	-2.4208	-2.0479	-1.6479	-2.5687	-1.9021	-1.8208	-2.6583	-1.4937	-2.2687	-2.3542	-1.7625	-2.6208	55.642	-41.536	-38.611	35.760	-47.012	95.814	235.341	216.605	266.878	-49.632	235.478	249.387	21.738	250.778	149.472	266.178	0.00025549	0.00044587	0.00016014	657.38	5.7208e-06	6.3579e-06	959.42	224.09	2.8402e-06	2.817e-06	456.68	217.64	102.12	57.223	3.5053e-06	121.58	9.2969e-05	7.1462e-05	1.8878e-05	586.84	8.9162e-07	8.055e-07	857.66	199.46	8.7744e-07	7.7088e-07	395.36	191.49	84.575	50.17	7.461e-07	104.91	176.149	-3.086	15.310	-50.517	88.763	39.032	-50.619	-45.357	110.799	57.890	-46.398	-42.835	-41.459	-38.116	125.363	-38.848	-8191	255	
9196.153	1	1	0	0	0.32054	0.095779	0.040692	0.20001	0.17694	0.18484	0.16719	0.12248	0.11065	0.10179	0.33136	0.23951	0.20281	0.31598	0.48797	0.11864	-1.4542	-2.0625	-2.3937	-1.6187	-2.1771	-2.3375	-1.6583	-2.5333	-1.8729	-1.7167	-2.3583	-1.7667	-2.2104	-2.4458	-1.6604	-2.5979	180.756	-26.702	179.533	169.575	-45.760	260.633	-56.637	-63.221	-47.269	170.535	281.004	204.859	268.971	185.761	267.801	182.935	0.00021578	0.00058073	0.00022658	653.52	1.684e-06	6.8772e-06	959.7	227.13	3.0409e-06	4.1983e-06	462.09	217.91	102.76	57.966	4.5135e-06	121.43	9.3146e-05	7.0897e-05	1.875e-05	586.82	8.5064e-07	7.6954e-07	858.82	201.66	8.7958e-07	7.5887e-07	398.35	192.73	85.363	50.498	7.5792e-07	104.83	177.931	17.061	-5.208	-51.216	53.052	79.732	-50.877	-45.823	105.811	120.213	-46.762	-42.577	-41.357	-38.031	75.802	-38.654	-8191	255	
9196.251	1	1	0	0	0.16685	0.33695	0.16583	0.18694	0.17219	0.29915	0.25593	0.18216	0.12384	0.22168	0.2192	0.17927	0.070926	0.41868	0.16507	0.24484	-1.5229	-1.7062	-2.2438	-1.5812	-1.8896	-2.475	-1.6688	-2.3958	-2.1042	-1.4688	-2.5479	-1.8854	-1.7687	-2.5396	-1.4542	-2.5104	264.456	35.522	88.155	267.052	52.726	186.906	220.500	-41.930	187.716	68.268	206.979	283.940	204.891	273.301	273.727	252.568	0.00027204	0.00070327	0.00016746	656.56	4.4307e-06	7.0958e-06	962.99	224.96	5.8979e-06	6.1603e-06	457.85	216.79	100.52	56.862	4.468e-06	120.71	9.3459e-05	7.0463e-05	1.9171e-05	589.35	8.3109e-07	7.5436e-07	860.15	200.73	8.4333e-07	7.5161e-07	397.39	191.53	83.988	49.785	7.9943e-07	103.99	172.669	39.032	17.551	-50.860	70.004	80.246	-50.336	-45.316	71.822	96.315	-46.469	-41.806	-41.058	-37.359	82.736	-37.921	-8191	255	
9196.345	1	1	0	0	0.1588	0.17663	0.23254	0.1768	0.047507	0.1852	0.091082	0.19751	0.27002	0.093196	0.19071	0.15534	0.28149	0.12572	0.56104	0.15373	-1.8062	-1.55	-2.3354	-2.0125	-1.9562	-2.3708	-1.7729	-2.2646	-2.3333	-1.65	-2.5792	-2.0646	-1.8417	-2.6917	-1.5021	-2.4271	81.160	230.941	-0.972	274.586	250.052	291.042	-39.221	-19.825	91.583	-4.739	256.434	252.355	-46.685	204.988	-45.777	276.417	0.00031738	0.00036531	0.00027079	657.78	4.1897e-06	2.856e-06	965.76	223.86	2.4237e-06	3.7594e-06	454.62	215.85	101.58	56.751	5.4095e-06	120.25	8.7538e-05	6.8448e-05	2.0131e-05	588.03	7.9442e-07	7.346e-07	861.98	199.43	8.0048e-07	7.3363e-07	394.29	190.29	84.09	49.601	8.3864e-07	103.71	180.292	-2.332	21.010	-50.717	101.565	73.149	-50.357	-45.377	16.863	63.584	-46.183	-41.803	-41.360	-37.807	101.374	-38.088	-8191	255	
9196.441	1	1	0	0	0.24812	0.16566	0.10697	0.19493	0.15451	0.088605	0.1105	0.19121	0.051066	0.26166	0.085072	0.25674	0.11683	0.24522	0.14871	0.25672	-1.7979	-1.3979	-2.4208	-1.9833	-1.675	-2.2667	-1.7771	-2.225	-2.3125	-1.6187	-2.6708	-2.3292	-1.8271	-2.6479	-1.8937	-2.2	69.521	57.091	-16.538	276.051	201.843	33.708	177.733	-59.062	107.648	-46.708	-28.390	210.449	234.012	220.701	117.833	257.779	0.00029059	0.00051379	0.0001693	658.52	3.1162e-06	3.1823e-07	960.1	225.06	2.1348e-06	4.8515e-06	457.02	216.79	102.52	57.56	5.4452e-07	121.17	8.7348e-05	6.8987e-05	2.1015e-05	589.62	7.6311e-07	7.2113e-07	861.18	200.07	7.7299e-07	7.2545e-07	397.72	191.34	84.585	50.213	8.7769e-07	104.42	180.394	59.619	36.615	-51.194	-3.803	-15.913	-50.783	-45.057	45.409	77.378	-46.150	-42.285	-41.485	-38.011	249.367	-38.236	-8191	255	
9196.537	1	1	0	0	0.43531	0.40336	0.43752	0.2418	0.13505	0.18101	0.23906	0.16427	0.11202	0.12976	0.36026	0.20801	0.17518	0.044259	0.079193	0.26075	-2.125	-1.6083	-2.2792	-2.1458	-1.6354	-2.6396	-1.875	-2.2938	-2.2771	-1.8042	-2.3979	-2.2271	-1.5771	-2.7042	-1.8563	-2.2021	91.806	79.947	278.890	-55.783	96.930	285.730	215.928	176.944	65.575	109.293	-37.806	-32.658	245.735	281.751	58.763	233.162	0.0002939	0.00028426	0.0001396	662.64	2.7479e-06	3.5795e-06	966.56	226.24	2.0855e-06	2.2803e-06	459.67	216.74	102	57.235	4.5287e-06	120.61	8.4348e-05	6.8615e-05	2.143e-05	593.02	7.3379e-07	7.6758e-07	863.93	200.52	7.5602e-07	7.6289e-07	398.02	190.99	84.228	49.969	8.3614e-07	104.09	174.459	15.881	-13.381	-50.904	74.757	93.514	-50.741	-45.026	64.684	76.681	-45.999	-42.057	-41.730	-37.553	74.080	-38.522	-8191	255	
9196.658	1	1	0	0	0.18032	0.050182	0.062362	0.1287	0.27304	0.059746	0.061477	0.12882	0.15351	0.17514	0.20648	0.2771	0.17944	0.1746	0.20551	0.49028	-2.1667	-1.4396	-2.3167	-2.3354	-1.5063	-2.4708	-2.1937	-1.8521	-2.5479	-1.6458	-2.2771	-2.3875	-1.75	-2.4979	-1.9521	-1.9062	23.252	50.806	241.860	126.541	-0.267	252.080	136.508	221.327	-56.816	78.456	295.357	243.692	174.117	232.353	131.296	216.745	0.00032228	0.00043322	0.00012538	659.19	2.5977e-06	4.4252e-06	970.65	224.92	7.2463e-07	4.6017e-06	458.31	215.01	100.94	56.395	5.9822e-06	119.09	8.2638e-05	7.1886e-05	2.1295e-05	590.6	7.2243e-07	8.1609e-07	866.9	199.47	7.3848e-07	8.1886e-07	395.88	188.97	83.095	49.341	8.3637e-07	102.5	186.298	47.051	15.567	-51.053	34.808	59.098	-51.016	-45.754	3.648	60.305	-46.451	-42.298	-41.803	-37.919	66.383	-38.488	-8191	255	
9196.754	1	1	0	0	0.13009	0.18601	0.21173	0.157	0.12885	0.084437	0.30948	0.14791	0.14813	0.062218	0.29589	0.17487	0.13142	0.18137	0.15602	0.30317	-2.1708	-1.7188	-2.0333	-2.5	-1.4208	-2.4125	-2.2458	-1.6104	-2.625	-1.8271	-2.2396	-2.6042	-1.5688	-2.5854	-2.0292	-1.7896	-13.032	219.130	192.569	174.086	278.584	288.398	283.247	273.889	179.678	167.563	233.228	-18.635	-18.730	196.782	256.331	288.022	0.00031037	0.00045143	0.00017734	658.57	9.9623e-07	4.1353e-06	968.72	223.15	3.2748e-06	4.1843e-06	454.86	214.37	99.189	56.138	3.6938e-06	118.84	8.2107e-05	7.718e-05	2.0597e-05	589.04	7.4742e-07	8.3019e-07	862.73	198.74	7.3883e-07	8.475e-07	394.44	188.24	82.639	49.125	7.9988e-07	102.27	174.760	42.555	-39.826	-51.043	52.516	84.831	-50.655	-45.196	120.009	69.518	-46.349	-42.472	-41.444	-37.571	81.303	-38.521	-8191	255	
9196.850	1	1	0	0	0.14227	0.027697	0.15971	0.25781	0.064981	0.32756	0.17215	0.11129	0.092548	0.17137	0.1241	0.20819	0.1678	0.1942	0.13161	0.53533	-2.0625	-1.8	-1.9417	-2.4604	-1.5979	-2.2021	-2.3396	-1.6354	-2.3042	-1.7292	-2.0396	-2.6604	-1.8292	-2.3312	-2.2646	-1.8833	193.996	29.747	47.545	-10.906	53.409	-2.251	218.145	239.185	196.484	-32.358	266.420	202.966	66.915	255.278	2.739	220.943	0.00025361	0.00046162	9.5939e-05	659.96	4.7181e-06	5.2362e-06	967.28	224.87	4.9695e-06	7.2536e-06	456.43	213.67	99.131	56.277	5.1811e-06	117.68	8.5347e-05	7.7263e-05	1.9667e-05	590.37	7.6951e-07	8.5724e-07	864.77	199.62	8.0033e-07	8.4425e-07	395.07	188.24	82.997	49.227	8.0512e-07	101.77	177.368	14.448	5.193	-50.787	115.733	80.531	-50.791	-45.476	66.271	81.459	-46.377	-42.254	-41.322	-37.632	79.659	-38.405	-8191	255	
9196.922	1	1	0	0	0.09938	0.13503	0.050916	0.28401	0.27509	0.21739	0.17203	0.29438	0.096517	0.26759	0.29287	0.0924	0.31821	0.091803	0.23042	0.10984	-1.9375	-1.8521	-1.7563	-2.6042	-1.6667	-2.2042	-2.4313	-1.7854	-2.6708	-2.1437	-1.8021	-2.6375	-1.8375	-2.3521	-2.5	-1.5792	190.621	214.266	41.893	237.454	49.806	213.862	189.033	16.541	99.758	24.295	241.549	193.552	59.709	36.266	102.805	253.290	0.000275	0.00050488	0.00017904	659.17	5.7904e-06	4.5537e-06	968.11	222.12	1.4057e-06	4.5173e-06	454.79	211.91	99.672	55.567	1.268e-06	117.33	8.6497e-05	7.7938e-05	1.8882e-05	590.83	8.3554e-07	8.2416e-07	864.8	197.93	8.4767e-07	8.104e-07	392.93	186.97	82.432	48.57	7.373e-07	100.94	177.619	6.142	-20.234	-50.839	93.048	54.202	-50.649	-45.554	133.643	54.978	-46.292	-42.082	-41.615	-37.924	120.977	-38.366	-8191	255	
9197.043	1	1	0	0	0.16401	0.14649	0.17981	0.21768	0.093645	0.175	0.18678	0.1166	0.33346	0.1947	0.16281	0.1891	0.19034	0.45319	0.11983	0.16189	-1.9688	-2.0458	-1.9604	-2.6875	-1.7479	-2.1833	-2.6646	-1.7021	-2.4333	-2.0708	-1.6042	-2.7313	-1.6833	-2.3375	-2.5354	-1.8125	5.487	-8.795	-17.860	260.240	0.145	283.111	229.152	-26.493	-15.606	61.598	-58.182	271.220	182.440	-51.602	89.158	219.302	0.00027024	0.00062079	0.00019139	660.97	7.4606e-06	6.2767e-06	961.8	218.89	1.5706e-06	5.6213e-06	447.47	210.09	97.825	54.887	1.1003e-07	116.03	8.8901e-05	7.3965e-05	1.8766e-05	589.22	8.4234e-07	7.9109e-07	860.69	195.85	8.5932e-07	7.8885e-07	387.5	184.78	81.384	48.054	7.2816e-07	99.89	179.709	10.544	-16.492	-51.204	98.942	49.565	-51.093	-45.513	192.611	61.090	-46.454	-42.288	-41.375	-37.583	-1.784	-38.555	-8191	255	
9197.139	1	1	0	0	0.13956	0.010267	0.12698	0.28498	0.038761	0.1836	0.11153	0.2805	0.26781	0.20188	0.17119	0.41415	0.078663	0.15837	0.095037	0.024016	-1.8979	-2.1937	-1.6854	-2.6354	-2.0812	-1.9062	-2.5771	-1.6938	-2.3021	-2.3563	-1.7042	-2.6771	-1.8083	-1.95	-2.5875	-1.8146	165.146	30.462	272.226	283.832	72.789	112.544	187.770	177.405	249.243	-2.158	261.400	240.799	-4.886	292.606	238.212	50.820	0.00032235	0.00032185	0.00015267	661.26	1.7113e-06	5.1058e-06	968.82	220.79	1.3803e-06	7.9777e-06	450.86	210.75	98.494	55.699	4.9542e-06	117.24	9.1218e-05	7.057e-05	1.8123e-05	592.14	8.5299e-07	7.6427e-07	863.77	196.56	8.5437e-07	7.6054e-07	389.21	185.56	82.12	48.579	7.4068e-07	100.82	167.590	58.457	-25.253	-51.200	30.767	98.656	-51.034	-45.916	69.721	78.874	-46.786	-42.395	-41.478	-37.846	64.789	-38.817	-8191	255	
9197.233	1	1	0	0	0.2571	0.22124	0.31547	0.14188	0.23414	0.13172	0.29287	0.089141	0.056029	0.50866	0.15768	0.17994	0.13558	0.20669	0.1343	0.47252	-1.7812	-2.3021	-1.7604	-2.4833	-2.1167	-1.775	-2.5438	-1.8917	-2.175	-2.5104	-1.7188	-2.6333	-1.9542	-1.8479	-2.5062	-1.8417	-24.275	230.053	26.243	146.456	167.872	30.149	146.812	256.142	246.587	179.518	265.705	247.909	292.661	174.114	-40.226	230.577	0.00027576	0.00041603	0.00014565	658.55	6.7342e-06	2.477e-06	972.04	220.71	4.9463e-06	4.6653e-06	451.7	210.36	99.516	56.331	6.1978e-06	117.46	8.7679e-05	7.0444e-05	1.8404e-05	591.76	7.9848e-07	7.5116e-07	865.43	197.44	8.235e-07	7.5753e-07	390.71	186.51	82.757	49.083	7.5228e-07	101.09	177.358	29.392	16.103	-50.901	84.274	113.068	-51.006	-45.616	62.016	86.849	-46.566	-42.557	-41.181	-38.100	83.765	-38.562	-8191	255	
9197.331	1	1	0	0	0.18902	0.046702	0.19614	0.14562	0.067021	0.080633	0.031294	0.10076	0.23625	0.28997	0.11693	0.22594	0.29826	0.3273	0.14588	0.19655	-1.4625	-2.3792	-1.6021	-2.425	-2.0854	-1.5854	-2.6063	-1.8167	-1.8583	-2.4625	-1.7104	-2.4958	-2.125	-1.5583	-2.3688	-2.125	45.846	157.096	-21.700	155.538	113.511	241.958	-24.449	235.760	60.905	157.360	221.664	183.925	128.685	270.433	119.085	228.191	0.00029152	0.00027892	7.4475e-05	661	1.0447e-06	6.5589e-06	968.43	220.54	2.9434e-06	6.5084e-06	449.36	209.99	99.555	55.557	2.39e-06	115.14	8.786e-05	6.7122e-05	1.9463e-05	592.99	7.9467e-07	7.2785e-07	866.68	197.86	7.7992e-07	7.355e-07	389.27	185.48	82.098	48.477	7.9689e-07	99.8	180.276	-20.406	-8.488	-51.055	67.339	67.281	-51.034	-45.686	58.866	93.045	-46.448	-42.191	-41.795	-37.662	107.482	-38.632	-8191	255	
9197.450	1	1	0	0	0.18029	0.081497	0.033915	0.27644	0.133	0.19829	0.023911	0.087435	0.1243	0.087521	0.13276	0.16587	0.26165	0.057461	0.18049	0.42605	-1.4188	-2.4958	-1.5667	-2.3521	-2.1875	-1.5375	-2.475	-2.0729	-1.8563	-2.5854	-1.8021	-2.2083	-2.2875	-1.5771	-2.4542	-2.1833	158.638	35.656	-2.042	-36.447	255.977	-36.540	-28.818	257.910	146.375	270.000	292.652	221.967	66.984	142.887	-30.219	263.577	0.00031453	0.00056292	0.00017569	667.49	3.3838e-06	4.1054e-06	970.61	221.18	4.0728e-06	3.1058e-06	449.86	210.05	99.482	55.444	4.6291e-06	115.88	8.3005e-05	6.4012e-05	2.0317e-05	595.56	7.6529e-07	7.0905e-07	864.63	196.81	7.5779e-07	7.3071e-07	389.63	184.98	82.027	48.448	8.5076e-07	99.884	178.844	23.431	35.538	-50.990	41.040	89.259	-50.909	-45.577	62.378	68.573	-46.270	-42.320	-41.512	-37.917	71.028	-38.823	-8191	255	
9197.546	1	1	0	0	0.24596	0.18408	0.13507	0.25504	0.15374	0.20195	0.2148	0.39541	0.26391	0.11543	0.025427	0.23223	0.21735	0.16647	0.11386	0.21265	-1.2458	-2.4583	-1.6604	-2.2396	-2.3812	-1.3833	-2.3708	-2.0062	-1.7146	-2.5542	-1.9604	-2.1312	-2.3604	-1.7396	-2.2438	-2.2	259.188	-53.743	273.969	245.906	57.414	2.703	247.819	229.688	232.380	191.334	260.122	191.912	245.783	-45.654	-51.839	261.834	0.00029232	0.00056016	0.00016725	663.41	1.5619e-06	4.5313e-06	970.05	221.91	2.7096e-06	5.8092e-06	450.09	210.33	100.18	56.212	4.0328e-06	117.23	8.3099e-05	6.6803e-05	2.127e-05	594.4	7.6073e-07	7.159e-07	869.56	197.62	7.3328e-07	7.3097e-07	389.98	185.43	82.495	49.095	8.5295e-07	100.86	180.187	16.561	6.524	-51.033	80.647	75.579	-50.763	-45.827	83.002	103.517	-46.681	-42.506	-41.554	-37.748	86.261	-38.512	-8191	255	
9197.642	1	1	0	0	0.14466	0.083258	0.26869	0.12686	0.14377	0.15655	0.20543	0.1772	0.096385	0.053162	0.05832	0.23387	0.21432	0.09417	0.11386	0.33856	-1.1812	-2.3042	-1.7437	-1.8458	-2.1792	-1.5333	-2.3104	-2.3646	-1.4688	-2.4729	-2.0375	-1.8062	-2.4875	-1.6958	-2.2583	-2.4417	-59.495	296.075	241.655	277.056	209.189	12.665	276.926	96.784	172.753	211.830	-31.842	286.467	-33.006	216.488	236.434	248.474	0.00030385	0.00017005	7.9754e-05	671.87	4.7749e-06	6.2787e-06	975.24	224.45	4.1684e-06	6.11e-06	451.17	210.7	100.1	55.839	4.7325e-06	116.83	8.2204e-05	6.993e-05	2.1265e-05	597.46	7.2177e-07	7.7674e-07	870.23	198.67	7.3537e-07	7.6122e-07	391.1	186.05	82.686	48.974	8.3463e-07	100.6	178.860	69.315	-4.032	-50.917	26.350	101.908	-50.147	-45.416	65.244	54.086	-46.764	-42.087	-41.360	-37.895	23.627	-38.650	-8191	255	
9197.738	1	1	0	0	0.34117	0.25662	0.15624	0.34954	0.12949	0.25627	0.24763	0.080059	0.23406	0.028758	0.16835	0.28709	0.11652	0.18449	0.18842	0.2178	-1.1354	-2.5271	-1.8937	-1.8958	-2.3417	-1.6229	-2.4208	-2.3625	-1.5292	-2.3354	-2.0667	-1.825	-2.2417	-1.7208	-1.9271	-2.4813	-37.579	-61.879	-48.977	236.260	157.972	-28.814	215.263	186.055	242.458	105.066	266.465	262.610	25.047	94.436	245.253	203.861	0.00031947	0.00057426	0.00016766	669.31	5.8025e-06	2.4674e-06	975.59	221.95	2.0583e-06	3.2397e-06	449.2	208.84	99.118	55.448	4.3174e-06	116.14	7.8944e-05	7.3844e-05	2.0382e-05	596.18	7.3123e-07	7.9464e-07	868.72	197.32	7.0967e-07	7.8703e-07	388.36	184.2	81.772	48.566	7.878e-07	99.814	181.932	-0.088	-33.152	-50.794	91.341	102.957	-50.668	-45.431	86.601	98.272	-46.270	-42.046	-40.817	-37.419	81.358	-38.002	-8191	255	
9197.835	1	1	0	0	0.042404	0.091625	0.086181	0.027574	0.12732	0.19465	0.061644	0.08571	0.11435	0.31039	0.27473	0.20264	0.23273	0.083956	0.29374	0.067227	-1.2062	-2.325	-2.1354	-1.9792	-2.4479	-1.9813	-1.9688	-2.5583	-1.5542	-2.4	-2.0771	-1.8375	-2.5875	-1.8042	-1.8521	-2.8292	145.396	-31.318	198.474	-21.814	204.496	75.138	149.462	271.536	285.704	68.984	227.928	-45.829	226.816	192.147	260.961	278.686	0.00026129	0.0006874	0.00019969	663.09	5.6057e-06	5.8925e-06	971.07	220.17	5.9311e-06	7.5997e-06	449.51	208.77	98.821	55.797	3.5532e-06	116.49	7.9215e-05	7.6483e-05	1.9616e-05	594.08	7.433e-07	8.0635e-07	866.98	196.6	7.713e-07	8.345e-07	388.12	183.76	82.185	48.882	7.4539e-07	100.35	167.965	15.976	0.066	-51.083	107.159	87.816	-50.765	-45.496	68.483	74.620	-46.007	-41.951	-40.945	-37.588	56.447	-38.589	-8191	255	
9197.931	1	1	0	0	0.20359	0.14459	0.27002	0.16752	0.089417	0.04824	0.12926	0.039687	0.27103	0.18119	0.173	0.18112	0.1445	0.14185	0.11963	0.28737	-1.2437	-2.0542	-2.0396	-1.6375	-2.4167	-1.7188	-1.9917	-2.4333	-1.7542	-2.3208	-2.3146	-1.8542	-2.4083	-1.9562	-1.7542	-2.7229	137.324	69.638	274.738	-58.718	256.747	-50.626	132.027	180.102	105.893	188.723	202.462	194.146	254.203	-49.745	35.434	261.621	0.0003047	0.00039665	0.00026859	671.58	4.9636e-06	4.6126e-06	974.15	222.7	2.9444e-06	3.7153e-06	452.9	209.57	99.935	56.413	3.1012e-06	117.1	8.4577e-05	7.4745e-05	1.8749e-05	597.6	7.7235e-07	8.3193e-07	869.24	198.24	8.1481e-07	8.2147e-07	390.11	185.02	82.994	49.281	7.5026e-07	100.72	192.618	15.712	-16.356	-50.712	45.928	102.899	-50.527	-45.287	88.039	96.810	-46.281	-41.793	-40.983	-37.357	79.490	-37.960	-8191	255	
9198.051	1	1	0	0	0.10977	0.11946	0.089178	0.14082	0.067272	0.10473	0.12361	0.25183	0.15231	0.023164	0.068745	0.38317	0.23438	0.13767	0.056487	0.22779	-1.1521	-2.125	-2.3229	-1.6708	-2.4188	-1.9979	-1.8333	-2.7583	-1.6313	-2.2333	-2.3937	-1.8521	-2.4896	-2.1688	-1.6729	-2.8042	239.207	55.176	138.824	256.972	136.037	97.033	201.049	-23.740	-31.354	68.023	290.422	242.621	101.566	66.731	-36.527	212.579	0.00030416	0.00058483	0.00021788	667.82	3.0169e-06	3.7753e-06	978.94	224.67	5.6961e-06	4.569e-06	451.26	211.6	99.36	56.276	5.3074e-06	116.35	9.0696e-05	7.3844e-05	1.8337e-05	597.26	8.412e-07	7.9685e-07	871.18	199.01	8.4074e-07	7.8821e-07	390.83	186.19	83.18	49.015	7.3815e-07	100.32	187.037	7.183	3.607	-50.702	99.155	55.743	-50.074	-44.905	26.540	58.316	-46.416	-41.738	-40.637	-37.112	54.342	-38.135	-8191	255	
9198.146	1	1	0	0	0.16111	0.18913	0.2486	0.44284	0.041689	0.19076	0.29836	0.082087	0.10621	0.097491	0.10419	0.36956	0.097083	0.24739	0.12977	0.14	-1.4667	-1.9708	-2.4896	-1.7958	-2.375	-2.1875	-1.8521	-2.5417	-1.6833	-1.9167	-2.3479	-1.7458	-2.1271	-2.2583	-1.6063	-2.6354	-60.205	5.118	226.497	262.152	227.623	217.357	-48.844	-3.052	-6.124	69.747	34.771	232.625	53.843	284.199	34.929	233.340	0.00026584	0.00023734	0.00021676	670.16	3.7899e-06	4.389e-06	974.62	223	5.1958e-06	4.8159e-06	453.99	210.85	100.17	56.116	4.6694e-06	115.99	9.2489e-05	7.2554e-05	1.8646e-05	596.84	8.7637e-07	7.8271e-07	868.74	198.85	8.6823e-07	7.5218e-07	390.94	186.02	83.646	49.053	7.3743e-07	100.24	176.139	-9.495	34.077	-50.843	67.700	102.717	-50.316	-44.969	77.285	80.775	-46.048	-42.016	-40.751	-37.479	29.494	-38.061	-8191	255	
9198.219	1	1	0	0	0.25423	0.10374	0.22056	0.17801	0.30318	0.019054	0.054027	0.2925	0.24925	0.10316	0.14155	0.26121	0.12874	0.18307	0.24224	0.51708	-1.3396	-1.8354	-2.4542	-1.5458	-2.0271	-2.2729	-1.6979	-2.5354	-1.9292	-1.7208	-2.4188	-1.7042	-2.1688	-2.3563	-1.3917	-2.6542	243.531	98.129	99.085	-0.029	-10.093	248.297	225.212	248.205	1.252	-54.454	228.938	247.297	104.503	239.256	145.988	257.717	0.00024343	0.00042324	0.0002312	667.75	7.1349e-06	1.6756e-06	975.6	224.38	2.5417e-06	3.2834e-06	453.6	212.09	100.62	56.807	2.3863e-06	117.8	9.2768e-05	7.0896e-05	1.8365e-05	596.89	8.6426e-07	7.5881e-07	868.73	199.87	8.3449e-07	7.2683e-07	392.3	186.64	83.623	49.617	7.4952e-07	101.43	179.281	44.878	-10.276	-50.947	81.282	151.184	-50.465	-44.820	74.021	74.746	-46.029	-41.727	-41.186	-37.216	72.784	-38.099	-8191	255	
9198.314	1	1	0	0	0.063255	0.25167	0.32547	0.15347	0.041635	0.18729	0.30541	0.090579	0.10154	0.29976	0.26009	0.11475	0.11457	0.27366	0.015802	0.24141	-1.4667	-1.7646	-2.5187	-1.6896	-1.7667	-2.4229	-1.7563	-2.3604	-2.0125	-1.8167	-2.5729	-1.9458	-2.1542	-2.5604	-1.4729	-2.5062	237.547	-20.241	-45.528	-55.084	264.141	63.565	201.516	-4.820	221.954	26.065	188.757	295.340	30.014	-13.739	148.304	249.401	0.00027338	0.00044458	0.00016694	669.12	3.0569e-06	5.0637e-06	972.06	225.37	4.9751e-06	3.2669e-06	453.68	212.42	101.66	56.98	6.2248e-06	117.88	8.858e-05	6.9234e-05	1.8872e-05	599.04	7.9232e-07	7.4516e-07	871.05	200.74	8.1438e-07	7.2084e-07	392.65	187.21	83.838	49.665	7.8273e-07	101.35	172.606	14.854	17.946	-50.615	64.208	80.324	-49.906	-45.261	46.658	88.980	-46.002	-41.926	-40.826	-37.150	64.266	-38.289	-8191	255	
9198.434	1	1	0	0	0.12322	0.10991	0.2397	0.18508	0.14834	0.23911	0.13565	0.31045	0.11776	0.14218	0.12957	0.059098	0.22731	0.18293	0.19363	0.20311	-1.6646	-1.4458	-2.3208	-1.7104	-1.6792	-2.4729	-1.675	-2.2687	-2.2625	-1.6417	-2.8021	-1.9813	-1.8625	-2.5896	-1.5	-2.2188	271.269	284.233	125.229	238.257	63.424	160.034	245.750	247.729	285.005	19.682	292.562	178.509	-55.511	237.526	-46.394	242.157	0.00026686	0.00039111	3.2324e-05	666.97	6.0859e-06	3.5744e-06	973.62	225.4	5.543e-06	7.1586e-06	452.16	211.35	100.01	56.466	1.346e-06	116.66	8.7078e-05	6.8563e-05	2.0365e-05	597.76	7.9169e-07	7.415e-07	871.61	200.63	7.7564e-07	7.3356e-07	392.15	185.94	83.132	49.279	8.6496e-07	100.45	177.383	53.779	8.944	-50.573	75.436	89.155	-50.387	-44.545	27.267	114.770	-45.825	-41.726	-40.440	-37.434	31.807	-38.320	-8191	255	
9198.530	1	1	0	0	0.06831	0.16939	0.3135	0.2516	0.28573	0.20217	0.18891	0.099001	0.053977	0.061907	0.24637	0.11305	0.25969	0.15736	0.31617	0.27251	-1.8458	-1.5396	-2.4021	-2.0479	-1.8021	-2.6146	-1.7771	-2.175	-2.3063	-1.3146	-2.3292	-2.1021	-1.7125	-2.7042	-1.7104	-2.1813	161.630	-18.171	51.632	-12.550	68.169	155.635	-60.346	130.319	186.668	156.886	252.677	253.014	280.617	-7.242	118.270	227.941	0.00029073	0.00059413	0.0001708	666.45	5.4155e-06	6.2149e-06	976.72	223.82	4.3184e-06	3.5281e-06	455.42	210.54	100.95	56.562	2.8464e-06	117.07	8.6428e-05	6.8258e-05	2.1628e-05	597.98	7.7317e-07	7.3086e-07	871.32	199.9	7.5924e-07	7.3814e-07	392.91	185.51	83.33	49.409	8.9522e-07	100.83	182.160	28.604	6.717	-50.256	82.465	64.275	-50.534	-44.928	125.959	100.803	-45.756	-41.842	-40.331	-37.079	108.528	-37.898	-8191	255	
9198.627	1	1	0	0	0.12122	0.072802	0.077893	0.1484	0.099313	0.082326	0.18456	0.2728	0.18511	0.17449	0.27048	0.1477	0.090225	0.24664	0.08094	0.19608	-1.9354	-1.4792	-2.1479	-2.1083	-1.525	-2.4521	-1.7313	-2.125	-2.4667	-1.6688	-2.4813	-2.3917	-1.6792	-2.6375	-1.875	-1.9292	106.015	11.090	27.573	271.886	-18.069	112.964	103.527	185.730	231.187	191.066	250.035	270.013	55.583	-46.429	80.272	292.183	0.00027826	0.00057935	8.3912e-05	669.81	5.7612e-06	5.1934e-06	981.58	226.37	1.2271e-06	4.7215e-06	453.48	211.65	100.52	57.438	3.16e-06	118.29	8.337e-05	6.837e-05	2.1575e-05	600.35	7.4565e-07	7.4909e-07	872.76	200.59	7.5492e-07	7.5922e-07	392.94	186.17	83.257	50.076	8.5689e-07	101.58	171.103	10.417	-15.540	-50.589	78.179	88.361	-50.262	-44.996	71.034	59.899	-45.643	-41.613	-40.701	-36.942	96.501	-37.530	-8191	255	
9198.723	1	1	0	0	0.1058	0.006101	0.24768	0.10237	0.047711	0.33963	0.18822	0.16993	0.2784	0.040936	0.20762	0.0022741	0.34898	0.074387	0.15072	0.21205	-2.0771	-1.5688	-2.3625	-2.2562	-1.6583	-2.4875	-2.0667	-2.0125	-2.5979	-1.7521	-2.225	-2.3792	-1.5083	-2.4437	-1.8146	-1.9	30.480	148.003	73.824	269.147	-34.591	-4.501	237.400	232.721	24.942	111.721	221.564	180.000	240.224	-58.297	107.684	273.678	0.00025525	0.00049156	0.00013854	671.08	3.3617e-06	1.5041e-06	979	225.02	4.7815e-06	5.6679e-06	456.16	210.92	101.05	57.078	3.5051e-06	117.34	8.1396e-05	7.1602e-05	2.087e-05	599.63	7.2754e-07	7.8654e-07	874.27	200.15	7.1717e-07	8.2977e-07	392.9	185.59	82.882	49.826	8.3087e-07	101.27	177.417	44.196	6.134	-50.175	55.496	118.077	-50.645	-45.101	104.810	57.376	-45.984	-42.200	-40.317	-37.218	100.306	-38.044	-8191	255	
9198.819	1	1	0	0	0.24422	0.082349	0.084311	0.21551	0.092584	0.13153	0.32534	0.25342	0.051455	0.28017	0.1398	0.16369	0.15893	0.28112	0.10547	0.12402	-2.1333	-1.7	-2.0187	-2.4646	-1.5667	-2.2875	-2.1958	-1.7437	-2.7083	-1.9021	-2.0979	-2.6833	-1.6625	-2.4062	-2.0687	-1.8146	-48.726	-38.025	93.131	281.770	219.503	220.281	268.092	254.285	187.624	22.404	271.178	-13.747	2.535	273.820	47.243	256.599	0.00025221	0.00058038	0.00020062	669.85	3.027e-06	2.431e-06	979.99	223.08	2.3379e-06	3.4285e-06	449.18	209.34	100.29	56.633	4.8142e-06	116.58	8.305e-05	7.759e-05	2.0071e-05	598.1	7.3476e-07	8.4667e-07	873.3	198.97	7.4608e-07	8.4284e-07	390.55	184.35	82.82	49.437	7.8134e-07	100.35	169.236	70.489	-3.520	-50.337	63.675	59.652	-50.483	-45.014	28.687	36.963	-46.395	-41.650	-40.217	-37.692	40.733	-38.080	-8191	255	
9198.915	1	1	0	0	0.10803	0.12872	0.085703	0.13882	0.12404	0.093308	0.12736	0.20461	0.16006	0.25279	0.058932	0.28	0.11622	0.13071	0.16385	0.15215	-2.1354	-1.6479	-1.6083	-2.45	-1.6833	-2.3333	-2.2521	-1.5354	-2.55	-1.8208	-2.0812	-2.6875	-1.7771	-2.3583	-2.3104	-1.7292	266.020	118.720	98.852	234.397	-34.108	180.061	268.668	258.436	70.095	210.357	291.689	-4.962	212.005	221.306	-18.902	293.091	0.00027945	0.00047768	0.00014484	668.32	3.2074e-06	4.6375e-06	976.56	224.24	9.6375e-07	7.6137e-06	452.49	210.4	101.42	56.803	4.4456e-06	116.99	8.4955e-05	7.9071e-05	1.9247e-05	597.92	7.6717e-07	8.3978e-07	873.98	199.45	7.9594e-07	8.463e-07	391.98	185.51	83.693	49.682	7.8326e-07	100.62	181.050	-7.242	-5.653	-50.445	127.097	60.297	-50.137	-44.640	90.656	73.192	-46.069	-41.623	-40.478	-37.056	90.563	-38.012	-8191	255	
9199.011	1	1	0	0	0.17744	0.13598	0.15358	0.12802	0.020332	0.094362	0.085377	0.075991	0.094072	0.053412	0.059188	0.21233	0.1962	0.32997	0.16826	0.3935	-2.125	-1.7417	-1.7229	-2.6562	-1.525	-2.2396	-2.4854	-1.6063	-2.3917	-2.2229	-1.85	-2.7667	-1.6437	-2.1521	-2.3271	-1.65	76.820	149.868	113.029	198.498	227.129	29.432	100.373	189.764	268.546	240.191	151.303	272.047	29.394	-62.123	245.448	280.310	0.00026552	0.00040413	0.00021146	671.68	7.1852e-07	6.8304e-06	974.27	226.68	9.9278e-07	2.8565e-06	456.98	213.59	102.61	57.418	5.1835e-06	117.52	9.0358e-05	7.7064e-05	1.9348e-05	598.05	8.4882e-07	8.283e-07	872.61	200.97	8.5319e-07	8.258e-07	395.23	187.81	85.135	50.175	7.7011e-07	101.53	171.057	-24.175	-36.591	-49.943	29.670	70.360	-50.115	-45.027	188.481	82.649	-45.632	-41.454	-40.533	-37.022	44.796	-37.965	-8191	255	
9199.132	1	1	0	0	0.089738	0.17682	0.36049	0.16531	0.14582	0.24568	0.088057	0.089513	0.07654	0.21394	0.18416	0.097351	0.052586	0.24207	0.088749	0.39874	-2.0208	-1.9396	-1.5792	-2.6167	-1.3854	-2.0062	-2.7917	-1.6812	-2.1729	-1.9292	-1.8312	-2.5687	-1.9354	-1.9562	-2.425	-1.6875	-8.079	-26.360	252.716	118.158	266.633	134.577	15.206	111.105	50.885	-29.849	216.039	97.643	13.796	-56.393	178.162	255.458	0.00022214	0.00030124	0.00012859	672.73	5.5431e-06	1.1866e-06	982.9	225.36	1.6708e-06	4.7301e-06	453.24	213.28	101.91	56.953	3.8001e-06	116.28	9.2714e-05	7.4361e-05	1.868e-05	599.94	8.585e-07	7.726e-07	874.93	200.57	8.7114e-07	7.7904e-07	393.31	187.73	84.413	49.789	7.3799e-07	100.82	173.062	20.431	-8.261	-50.250	91.046	65.769	-50.123	-44.329	44.262	31.163	-45.553	-41.517	-40.389	-36.769	35.068	-37.662	-8191	255	
9199.226	1	1	0	0	0.22873	0.15044	0.12659	0.14607	0.21196	0.044252	0.35914	0.18636	0.20675	0.022039	0.11941	0.23724	0.17471	0.25398	0.14984	0.11229	-1.8896	-2.1125	-1.4104	-2.475	-1.8875	-1.8479	-2.5854	-1.7938	-2.3208	-2.2062	-1.8792	-2.5083	-1.9333	-1.7958	-2.55	-1.8708	-42.808	-13.932	-58.659	224.119	73.628	103.414	217.540	281.738	153.365	188.010	-49.543	250.885	263.287	4.803	158.716	163.647	0.00026957	0.00038566	0.00024209	666.06	4.2705e-06	6.9213e-06	968.04	225.47	3.9116e-06	4.1203e-06	455.54	211.31	101.38	56.834	4.8108e-06	117	9.2102e-05	7.1643e-05	1.8486e-05	596.66	8.6635e-07	7.5966e-07	869.18	200.29	8.5399e-07	7.549e-07	393.88	186.55	84.094	49.761	7.202e-07	101	165.901	-26.077	-7.776	-49.654	93.783	79.793	-49.601	-44.831	14.657	86.639	-45.750	-41.419	-40.317	-36.788	53.261	-37.811	-8191	255	
9199.324	1	1	0	0	0.15552	0.095274	0.20142	0.38889	0.078064	0.056099	0.057935	0.1346	0.14989	0.14987	0.17074	0.26759	0.30461	0.13858	0.25459	0.25162	-1.7188	-2.3042	-1.5479	-2.425	-2.0667	-1.75	-2.6229	-1.7396	-2.1208	-2.2687	-1.8333	-2.425	-2.0438	-1.85	-2.5229	-1.9833	235.975	91.378	231.167	268.153	182.804	229.834	123.253	181.104	99.835	78.987	-35.462	285.422	220.310	273.646	-39.566	284.681	0.00026066	0.00040366	0.00013953	668.5	1.8426e-06	7.0406e-06	971.76	226.16	5.5448e-06	3.258e-06	457.67	213.75	102.32	57.531	6.4952e-06	118.62	9.0141e-05	6.7232e-05	1.8499e-05	598.17	8.2919e-07	7.505e-07	872.12	201.71	8.426e-07	7.5314e-07	395.84	188.84	85.036	50.252	7.9151e-07	102.19	168.820	61.195	53.101	-50.892	48.960	58.515	-50.510	-45.232	65.608	76.384	-46.545	-42.327	-41.368	-37.529	55.344	-38.513	-8191	255	
9199.443	1	1	0	0	0.21549	0.082919	0.2342	0.37947	0.056211	0.05031	0.029524	0.30038	0.099577	0.15535	0.19246	0.16248	0.16528	0.099248	0.060121	0.36021	-1.4917	-2.6146	-1.6625	-2.3646	-2.2417	-1.7479	-2.6333	-1.8792	-2.0625	-2.475	-1.7646	-2.3854	-2.3042	-1.6542	-2.3979	-1.9583	192.167	19.090	4.455	203.667	91.140	69.315	269.427	147.552	-45.451	244.412	237.622	-42.697	89.441	284.831	28.380	288.065	0.00033942	0.00066872	0.00012936	668.06	3.1163e-06	5.4663e-06	961.98	225.63	2.8041e-06	3.793e-06	459.91	216.13	103.23	57.562	2.7441e-06	117.6	8.9203e-05	6.9067e-05	1.9627e-05	599.27	8.0503e-07	7.4209e-07	871.41	202.6	8.1821e-07	7.5648e-07	398.09	190.14	85.321	50.268	8.4093e-07	102.05	179.444	16.869	54.497	-50.549	93.553	82.929	-49.808	-44.294	66.821	25.912	-45.756	-41.553	-40.157	-36.759	63.461	-37.495	-8191	255	
9199.515	1	1	0	0	0.073525	0.23082	0.12228	0.13179	0.10824	0.20167	0.11356	0.22013	0.20705	0.13307	0.13279	0.12951	0.342	0.33829	0.054319	0.11505	-1.6354	-2.4104	-1.6521	-2.2875	-2.3375	-1.675	-2.6792	-1.9813	-1.6146	-2.6521	-1.8563	-2.3333	-2.1292	-1.7479	-2.45	-2.1146	194.303	224.290	195.860	263.983	-0.474	-27.228	130.798	-42.602	65.229	81.052	219.572	251.913	278.793	288.828	224.730	250.448	0.00023561	0.00048353	0.00011989	662.09	5.5753e-06	4.8227e-06	970.93	227.42	3.6201e-06	5.34e-06	455.87	212.96	102.93	57.089	1.6858e-06	117.4	8.4947e-05	6.7203e-05	2.1231e-05	595.12	7.9498e-07	7.2889e-07	873.91	203.19	7.7566e-07	7.2328e-07	397.52	188.9	85.049	49.812	8.7519e-07	101.3	168.679	31.058	60.267	-50.010	82.104	98.918	-50.028	-44.733	43.784	59.119	-45.737	-41.469	-40.685	-36.660	171.735	-37.477	-8191	255	
9199.611	1	1	0	0	0.41402	0.27646	0.14683	0.11609	0.20811	0.17582	0.10145	0.15459	0.2034	0.066711	0.21157	0.24984	0.073051	0.022004	0.21037	0.27195	-1.3729	-2.4708	-1.7271	-2.2562	-2.25	-1.6042	-2.55	-2.1813	-1.8292	-2.5042	-2.0417	-2.0479	-2.5479	-1.7583	-2.3542	-2.3354	199.526	11.258	3.195	231.061	212.133	163.560	203.605	286.070	-29.773	15.274	159.581	234.477	173.020	253.683	109.830	153.994	0.00023883	0.00042391	0.00024223	661.58	6.7591e-06	3.813e-06	973.23	224.24	2.7623e-06	3.4937e-06	458.8	214.4	102.16	56.925	1.3113e-06	116.71	8.4727e-05	6.8547e-05	2.2132e-05	594.86	7.7833e-07	7.5771e-07	871.99	201.12	7.6934e-07	7.9186e-07	396.82	188.54	84.877	49.784	8.9202e-07	101.27	175.682	27.116	-3.625	-50.032	59.251	54.195	-49.727	-44.381	91.696	44.077	-45.882	-41.241	-40.361	-36.721	-22.407	-37.526	-8191	255	
9199.731	1	1	0	0	0.20587	0.28583	0.28637	0.081636	0.25623	0.3429	0.17602	0.22956	0.25854	0.11939	0.085914	0.31333	0.08468	0.33565	0.34525	0.092544	-1.3167	-2.3792	-1.8	-2.0896	-2.5083	-1.6875	-2.3042	-2.2583	-1.7792	-2.5875	-1.9917	-1.8813	-2.5979	-1.7812	-2.1167	-2.5729	-42.865	271.552	220.122	234.310	-25.099	97.269	292.296	222.882	211.513	247.192	95.630	295.477	19.702	-31.253	-27.982	227.007	0.00025694	0.00057126	0.00017372	662.6	1.6279e-06	5.3781e-06	976.03	224.89	3.4826e-06	3.9745e-06	460.94	215.89	103.12	58.035	5.9577e-06	119	8.5314e-05	7.8234e-05	2.3023e-05	593.79	7.7237e-07	8.5178e-07	872.3	201.05	7.8323e-07	8.4061e-07	396.99	189.83	85.757	50.537	8.8527e-07	102.47	168.777	12.992	9.560	-49.909	82.241	74.893	-49.902	-44.602	79.269	80.775	-46.017	-41.830	-40.277	-37.073	65.998	-38.161	-8191	255	
9199.828	1	1	0	0	0.044183	0.32067	0.23993	0.042285	0.1869	0.1314	0.056212	0.15316	0.10322	0.071043	0.33322	0.094067	0.22454	0.25198	0.30081	0.096821	-1.1812	-2.4292	-1.9979	-1.9062	-2.5667	-1.5312	-2.2729	-2.4104	-1.3979	-2.4188	-1.9125	-1.8146	-2.6604	-1.9312	-2.1271	-2.7292	57.458	38.960	222.243	206.381	52.220	27.977	-0.857	294.922	287.895	224.127	-60.915	270.587	-61.151	275.988	210.763	237.483	0.00028861	0.00036437	0.000228	667.39	1.7416e-06	2.2447e-06	970.89	225.16	3.801e-06	3.0145e-06	458.24	213.69	101.57	56.889	2.4189e-06	117.44	8.5175e-05	8.0336e-05	2.2277e-05	595.6	7.776e-07	8.9457e-07	871.88	201.8	8.0668e-07	8.9641e-07	396.33	188.88	84.857	49.888	8.6322e-07	101.52	179.396	25.625	0.340	-49.988	75.026	44.234	-49.628	-44.480	69.109	90.752	-45.521	-41.295	-40.425	-36.891	84.539	-37.551	-8191	255	
9199.924	1	1	0	0	0.31133	0.20057	0.3178	0.1084	0.18765	0.16649	0.22858	0.10591	0.15842	0.34078	0.19794	0.2778	0.039706	0.23747	0.11947	0.052105	-1.0729	-2.4604	-2.0146	-1.7792	-2.5208	-1.6271	-2.1542	-2.5333	-1.4688	-2.3604	-2.3208	-1.9104	-2.6792	-1.9042	-1.9333	-2.6917	230.801	156.252	-28.041	258.954	247.833	143.233	275.036	292.623	142.839	88.901	233.519	278.625	294.284	232.478	177.943	96.171	0.00022789	0.00048294	0.00017492	664.02	7.6259e-07	1.0652e-06	972.52	225.45	3.2785e-06	2.975e-06	451.36	210.29	99.367	56.098	6.5049e-06	116.24	8.7408e-05	8.2412e-05	2.0955e-05	592.53	8.101e-07	9.001e-07	871.46	200.65	8.0275e-07	8.9251e-07	392.05	186.21	83.535	49.211	8.005e-07	100.29	174.551	8.588	-29.689	-50.133	108.417	185.277	-49.779	-44.733	55.534	64.857	-45.637	-41.375	-40.333	-36.689	39.593	-37.810	-8191	255	
9200.020	1	1	0	0	0.091344	0.17416	0.22125	0.40471	0.11482	0.13028	0.12842	0.082938	0.39815	0.14812	0.11979	0.16682	0.19026	0.31902	0.40958	0.12159	-1.2812	-2.2854	-2.2521	-1.8792	-2.5021	-2.0167	-2.0104	-2.4875	-1.4937	-2.1562	-2.5563	-1.7708	-2.6292	-2.2083	-1.7313	-2.7604	148.523	55.025	224.479	238.400	250.265	176.141	99.754	188.189	187.121	219.287	161.477	243.921	-41.856	277.261	277.351	188.789	0.00025468	0.00056697	0.00021225	661.77	5.4406e-06	5.5315e-06	972.1	225.74	1.6299e-06	6.6824e-06	455.06	212.17	102.21	56.771	3.3315e-06	117.06	9.1548e-05	7.8209e-05	2.0616e-05	592.45	8.5924e-07	8.7975e-07	869.2	200.8	8.6861e-07	8.4952e-07	394.4	186.74	84.613	49.698	8.0924e-07	101.01	168.921	12.617	4.634	-50.109	116.190	79.843	-50.106	-44.532	147.211	66.018	-46.001	-41.636	-40.921	-37.123	104.889	-37.779	-8191	255	
9200.116	1	1	0	0	0.10199	0.18956	0.21158	0.042776	0.23672	0.19647	0.12588	0.26354	0.13661	0.11274	0.025544	0.20674	0.046797	0.26909	0.36946	0.24866	-1.3438	-2.0396	-2.2833	-1.6437	-2.3792	-1.8417	-1.7729	-2.6125	-1.7125	-2	-2.4854	-1.8125	-2.4458	-2.3	-1.6896	-2.5479	276.853	264.831	27.069	229.059	-30.111	242.577	224.514	-62.400	-9.336	-25.597	-1.941	194.144	218.382	244.030	1.004	237.437	0.00027036	0.00047213	0.00019743	664.56	6.0252e-06	4.4759e-06	978.04	225.4	2.7899e-06	6.2043e-06	455.18	213.83	102.82	57.512	4.9054e-06	117.9	9.5484e-05	7.7495e-05	2.0045e-05	593.94	8.9347e-07	8.5168e-07	873.68	201.11	8.8982e-07	8.1435e-07	394.53	188.06	85.063	50.214	7.6802e-07	101.79	186.367	47.151	-20.847	-50.204	91.005	59.929	-50.082	-44.560	97.353	47.511	-45.474	-41.726	-40.007	-36.663	103.613	-37.684	-8191	255	
9200.210	1	1	0	0	0.086334	0.10047	0.13403	0.3988	0.055226	0.046697	0.31376	0.1847	0.10865	0.15509	0.25355	0.027455	0.12204	0.10411	0.075707	0.24521	-1.2958	-1.8479	-2.3708	-1.8729	-2.075	-2.1625	-1.4875	-2.4667	-1.8375	-1.8875	-2.5583	-1.8646	-2.3104	-2.3979	-1.725	-2.6625	261.921	18.771	276.784	-25.517	79.695	263.215	190.138	218.890	-25.781	-0.480	135.064	-5.628	-29.172	55.721	-31.727	245.586	0.00026572	0.00038194	0.00021959	663.45	1.1453e-06	9.2143e-06	983.9	224.92	2.082e-06	4.6098e-06	457.6	212.75	101.91	57.131	5.0636e-06	118.22	9.6153e-05	7.4076e-05	1.9831e-05	594.35	8.8545e-07	7.9556e-07	875.76	200.5	8.9442e-07	7.9475e-07	395.06	187.2	84.009	49.841	7.6012e-07	101.73	174.599	-5.575	-0.366	-50.016	6.975	99.598	-50.098	-44.785	51.070	78.027	-46.006	-41.835	-40.154	-37.283	79.623	-38.053	-8191	255	
9200.307	1	1	0	0	0.18473	0.26734	0.18914	0.24012	0.16222	0.18371	0.0248	0.23098	0.13654	0.052632	0.45713	0.18926	0.20539	0.3676	0.25169	0.35888	-1.5146	-1.8146	-2.5125	-1.6021	-2.1125	-2.2896	-1.5979	-2.5	-1.7188	-1.4333	-2.7104	-1.8042	-2.0625	-2.6312	-1.5812	-2.6625	221.355	85.430	145.242	229.370	279.632	241.860	293.967	270.389	56.215	158.704	277.061	113.943	-16.440	271.658	204.422	261.996	0.00034108	0.00037576	0.00015411	667.97	2.4612e-06	6.3817e-06	977.84	224.75	9.3169e-07	5.1302e-06	455.49	211.01	102.74	57.653	5.504e-06	118.61	9.2057e-05	7.09e-05	1.8556e-05	594.73	8.4226e-07	7.6591e-07	874.19	200.14	8.5613e-07	7.6465e-07	393.2	186.34	84.352	50.042	7.6398e-07	102.17	171.658	34.951	6.248	-50.530	104.492	73.390	-50.517	-44.710	-6.270	66.678	-46.412	-42.208	-40.744	-37.735	107.425	-38.419	-8191	255	
9200.404	1	1	0	0	0.22223	0.33536	0.059028	0.1222	0.1511	0.055995	0.31063	0.21677	0.26885	0.15122	0.18214	0.16209	0.13329	0.20488	0.14125	0.18147	-1.6646	-1.5417	-2.4354	-1.6437	-2.05	-2.4813	-1.7437	-2.575	-2.1188	-1.8104	-2.6	-1.8125	-2.0187	-2.4146	-1.4854	-2.3875	-22.971	-40.892	11.412	73.668	174.901	217.740	205.177	293.618	216.895	245.254	176.854	177.433	-19.936	244.626	258.383	174.142	0.00026402	0.00062552	0.00014256	663.86	2.1909e-06	6.2964e-06	976.71	225.62	2.2858e-06	4.9246e-06	457.42	214.66	103.89	58.206	4.6406e-06	119.51	8.9144e-05	6.7798e-05	1.9318e-05	596.49	8.1848e-07	7.4067e-07	875.39	201.33	7.9848e-07	7.4721e-07	396.57	188.86	85.205	50.77	8.0231e-07	103.19	172.982	7.123	6.051	-51.018	82.789	62.850	-50.639	-45.430	65.713	71.110	-46.449	-42.333	-41.340	-37.423	56.292	-38.348	-8191	255	
9200.523	1	1	0	0	0.10031	0.025645	0.091429	0.082703	0.16185	0.080456	0.11722	0.25292	0.13943	0.24619	0.12149	0.22451	0.17777	0.12284	0.11046	0.26964	-1.8042	-1.5729	-2.3854	-1.9042	-1.8417	-2.5771	-1.6271	-2.2083	-2.2667	-1.4792	-2.6396	-2.1063	-1.8479	-2.7	-1.7125	-2.2812	128.132	44.519	207.473	44.651	-7.655	1.989	189.197	-52.789	254.943	-12.896	47.974	220.167	225.422	72.163	253.399	205.273	0.00024749	0.00051295	0.00016286	666.43	6.4697e-06	4.0457e-06	982.45	228.11	2.4055e-06	6.0002e-06	463.44	215.91	103.22	58.36	3.7412e-06	119.9	8.994e-05	6.849e-05	2.0827e-05	596.48	7.9475e-07	7.4536e-07	878.67	203.12	8.0336e-07	7.5292e-07	401.02	190.51	85.804	51.129	8.4602e-07	103.64	173.221	33.793	-25.996	-50.660	63.165	51.250	-50.699	-45.253	55.861	64.315	-46.556	-42.525	-40.749	-37.662	67.397	-38.167	-8191	255	
9200.619	1	1	0	0	0.028372	0.14827	0.092487	0.084891	0.20474	0.17372	0.26291	0.20732	0.14024	0.054038	0.10648	0.28365	0.21486	0.2976	0.25669	0.16616	-1.9792	-1.4104	-2.5375	-1.9792	-1.6854	-2.4083	-1.7854	-2.0458	-2.5	-1.7771	-2.4729	-2.125	-1.7313	-2.675	-1.7313	-2.2229	-49.786	2.711	38.274	290.695	257.685	266.801	257.384	266.823	104.422	-40.842	98.265	225.000	214.501	195.933	88.010	277.910	0.00027278	0.00046711	0.00011609	668.33	4.9307e-06	5.2293e-06	984.65	227.05	2.7701e-06	4.1875e-06	459.04	213.93	103.09	58.342	4.2928e-06	120.24	8.7427e-05	6.9042e-05	2.1877e-05	597.98	7.7932e-07	7.6719e-07	877.84	202.39	7.7607e-07	7.5151e-07	397.91	189.1	85.256	50.804	8.8779e-07	103.44	178.084	17.373	9.328	-51.241	81.626	74.810	-50.706	-45.227	66.358	56.416	-45.651	-41.967	-40.761	-37.562	50.247	-38.350	-8191	255	
9200.716	1	1	0	0	0.20485	0.084858	0.23844	0.20227	0.20903	0.34958	0.1644	0.19718	0.082397	0.08115	0.22102	0.13746	0.17846	0.16387	0.36746	0.30722	-2.1521	-1.4708	-2.3375	-2.4958	-1.5958	-2.5604	-2.0229	-2.0458	-2.3438	-1.6917	-2.3812	-2.3208	-1.5917	-2.5396	-2.0771	-2.1792	-58.517	18.969	185.216	-2.870	238.126	152.837	242.213	204.773	124.665	14.180	207.304	192.554	204.703	268.528	13.456	209.600	0.0002988	0.00040732	0.00014552	655.59	5.5189e-06	4.8591e-06	979	226.14	6.2516e-06	5.0759e-06	461.19	215.91	103.18	58.604	6.5181e-06	121.25	8.4637e-05	7.143e-05	2.2442e-05	592.49	7.7218e-07	7.8831e-07	876.71	201.53	7.8074e-07	8.1809e-07	399.2	189.9	85.587	51.209	8.8699e-07	104.31	171.025	7.877	6.944	-50.146	103.611	69.434	-50.271	-44.748	92.576	44.812	-46.218	-42.235	-40.811	-37.146	65.258	-38.002	-8191	255	
9200.812	1	1	0	0	0.091739	0.03078	0.30078	0.2755	0.099793	0.12536	0.041243	0.10968	0.26721	0.096797	0.15697	0.086611	0.24817	0.46037	0.016018	0.21133	-2.0958	-1.5646	-2.0708	-2.3375	-1.6042	-2.5917	-2.1958	-1.8896	-2.525	-1.6229	-2.2562	-2.4771	-1.575	-2.5479	-2.0833	-1.7104	-44.736	246.834	130.168	230.843	-34.330	165.105	108.454	115.826	116.456	272.699	278.267	219.606	-13.692	-60.671	-59.881	222.218	0.00026319	0.00037898	0.0001413	666.64	2.7405e-06	4.7301e-06	981.29	229.81	4.6428e-06	3.5108e-06	464.65	216.37	104.88	58.982	3.8292e-06	121.37	8.349e-05	7.5305e-05	2.13e-05	594.9	7.3994e-07	8.192e-07	879.82	203.35	7.5842e-07	8.3408e-07	401.99	190.82	86.133	51.554	8.4909e-07	104.49	171.967	49.722	11.378	-50.269	73.039	110.823	-50.605	-45.239	79.059	115.031	-46.416	-41.844	-40.859	-37.296	2.630	-38.386	-8191	255	
9200.908	1	1	0	0	0.27913	0.15307	0.31196	0.24664	0.29296	0.11337	0.246	0.23068	0.091892	0.21252	0.30086	0.088596	0.29461	0.15183	0.084926	0.18359	-2.1854	-1.5667	-1.925	-2.3583	-1.5187	-2.2958	-2.1208	-1.65	-2.5083	-1.7875	-2.0667	-2.4375	-1.5	-2.4271	-2.0583	-1.8542	284.671	88.708	62.572	188.964	119.029	278.648	165.323	-36.450	222.484	-4.284	245.509	130.025	-58.297	-54.679	127.137	258.592	0.00029783	0.00041973	0.00014844	668.63	4.7375e-06	5.6305e-06	987.3	226.76	2.5588e-06	7.7279e-06	463.79	217.7	103.81	59.311	3.0479e-06	121.99	8.397e-05	7.8034e-05	2.0967e-05	597.37	7.6106e-07	8.6084e-07	883.03	202.98	7.8699e-07	8.5441e-07	401.72	191.88	85.995	51.704	8.1135e-07	104.69	179.274	3.441	2.772	-50.773	104.678	61.331	-50.846	-44.956	68.922	81.337	-46.087	-42.081	-40.963	-37.203	63.527	-38.372	-8191	255	
9201.004	1	1	0	0	0.082912	0.14348	0.064395	0.18473	0.1655	0.083009	0.19011	0.16698	0.33355	0.18986	0.13001	0.069529	0.037812	0.094068	0.14849	0.23572	-2.0938	-1.7125	-1.9146	-2.3187	-1.5104	-2.025	-2.2646	-1.5708	-2.3708	-1.7583	-1.9917	-2.5938	-1.6437	-2.2833	-2.3229	-1.8438	-3.001	275.225	77.551	222.010	31.113	23.349	278.431	136.264	-53.178	-33.257	290.997	249.048	77.495	50.207	276.741	204.335	0.00027128	0.00072849	0.00018727	669.64	3.4444e-06	5.5316e-06	984.77	226.45	6.1266e-06	4.2248e-06	461.8	215.87	104.06	58.489	6.5015e-06	120.8	8.5803e-05	7.8369e-05	1.9832e-05	598.01	7.9615e-07	8.6123e-07	879.18	201.81	8.3341e-07	8.3497e-07	399.19	190.66	85.671	51.218	7.8425e-07	104.01	177.698	19.508	-4.311	-50.679	81.930	45.813	-50.663	-45.228	106.596	51.222	-46.513	-41.817	-40.299	-37.546	66.025	-38.003	-8191	255	
9201.125	1	1	0	0	0.21507	0.11026	0.2616	0.072956	0.029757	0.11165	0.42965	0.08138	0.15125	0.14997	0.21032	0.44028	0.1484	0.021404	0.17913	0.087838	-2.1792	-1.9771	-1.7979	-2.4229	-1.7271	-2.1271	-2.4021	-1.5375	-2.4729	-1.8813	-1.8062	-2.6375	-1.6125	-2.0646	-2.3479	-1.6896	219.310	197.451	266.420	247.097	86.451	270.695	-40.631	191.151	-62.225	261.092	9.030	248.857	-26.532	56.971	104.656	254.104	0.0003331	0.00026504	0.00026072	669	4.247e-06	6.5126e-06	983.66	226.44	3.8495e-07	7.0641e-06	463.4	217.69	104.38	59.391	6.1077e-06	122.24	8.8755e-05	7.5025e-05	1.9271e-05	598.21	8.4904e-07	8.2113e-07	880.49	201.55	8.351e-07	8.0972e-07	400.32	191.44	86.443	51.778	7.5507e-07	104.91	166.943	-2.033	5.882	-50.445	118.297	60.251	-50.788	-44.990	135.291	65.350	-46.355	-41.881	-40.424	-37.387	86.358	-38.232	-8191	255	
9201.219	1	1	0	0	0.20498	0.14229	0.22745	0.1471	0.21092	0.24632	0.068302	0.17979	0.12926	0.032661	0.28005	0.20437	0.28169	0.047615	0.16852	0.14098	-2.0542	-1.9521	-1.5479	-2.6083	-1.7167	-1.9583	-2.5875	-1.6521	-2.3479	-2.1729	-1.7646	-2.5875	-1.6771	-1.75	-2.7167	-1.5875	277.141	-50.085	29.380	208.826	162.238	31.729	234.932	199.817	114.467	116.984	-33.803	277.003	267.174	-7.834	86.413	279.383	0.00026581	0.00056603	0.00015191	672.55	2.9331e-06	5.8831e-06	981.11	227.75	6.0112e-06	6.0956e-06	462.73	218.47	105.18	59.691	2.5948e-06	122.74	9.3819e-05	7.3341e-05	1.8867e-05	598.55	8.7087e-07	7.9191e-07	878.94	203.1	8.6665e-07	7.7241e-07	401.59	192.2	87.098	52.014	7.6318e-07	105.52	174.394	-12.521	6.507	-50.712	86.165	98.287	-50.296	-44.660	60.616	66.067	-46.152	-41.924	-41.017	-37.242	56.736	-38.433	-8191	255	
9201.315	1	1	0	0	0.11689	0.12646	0.23749	0.13018	0.16141	0.092826	0.10182	0.1852	0.17839	0.17215	0.15784	0.15679	0.14349	0.089898	0.12661	0.038572	-2.0062	-2.125	-1.5229	-2.6063	-1.8042	-1.7625	-2.6729	-1.5312	-2.1063	-2.1917	-1.5854	-2.7771	-1.7938	-1.7667	-2.5792	-2.0542	176.591	279.149	21.118	270.211	221.748	202.605	246.872	248.145	177.071	-7.202	187.752	242.618	274.905	290.617	172.987	47.487	0.00027721	0.00051304	0.00015498	668.57	4.1336e-06	3.1187e-06	993.89	229.04	2.5657e-06	4.1804e-06	463.27	216.76	103.52	59.346	3.2702e-06	121.66	9.2303e-05	6.8822e-05	1.8333e-05	598.71	8.4106e-07	7.5535e-07	884.55	202.95	8.3353e-07	7.5074e-07	401.52	191.66	85.914	51.72	7.3835e-07	104.89	173.458	-2.414	2.477	-50.767	102.827	56.879	-50.557	-45.162	70.910	54.347	-46.911	-42.899	-41.462	-38.174	15.619	-39.088	-8191	255	
9201.411	1	1	0	0	0.1487	0.032668	0.07632	0.045477	0.14459	0.24838	0.24584	0.16683	0.11634	0.045051	0.077756	0.35297	0.15602	0.11954	0.14816	0.18638	-1.6354	-2.1979	-1.5438	-2.4021	-1.9729	-1.6708	-2.5563	-1.7417	-2.1	-2.4125	-1.6896	-2.4604	-2.0729	-1.7896	-2.5208	-1.9958	182.999	-55.312	212.776	277.966	173.876	52.736	172.050	222.542	94.032	267.498	19.630	240.285	-40.958	265.819	38.493	206.112	0.00027015	0.00057351	0.00019025	670.61	3.0098e-06	5.5174e-06	986.41	226.67	1.1706e-06	5.8687e-06	462.72	216.65	103.61	59.204	2.6388e-06	122.21	8.7807e-05	6.7171e-05	1.8199e-05	598.54	8.3537e-07	7.3503e-07	881.65	201.76	7.9709e-07	7.2853e-07	398.79	190.75	85.492	51.478	7.624e-07	105.2	170.051	-0.562	-10.984	-50.870	122.005	81.285	-50.868	-45.929	58.172	87.723	-46.699	-42.262	-41.224	-37.856	23.683	-38.655	-8191	255	
9201.508	1	1	0	0	0.17653	0.12958	0.24922	0.2477	0.06912	0.39728	0.047438	0.2598	0.15324	0.17332	0.22775	0.21837	0.16947	0.20333	0.33321	0.21725	-1.4625	-2.2521	-1.4083	-2.6125	-2.2167	-1.3937	-2.5917	-1.7125	-1.7667	-2.3604	-1.7417	-2.4458	-2.3104	-1.7792	-2.4042	-1.9937	60.397	34.147	182.266	265.641	91.875	26.943	53.425	295.148	263.173	227.978	247.048	289.668	149.050	-54.032	70.070	187.023	0.00024394	0.00011306	0.00010051	667.86	4.4951e-06	6.3322e-06	985	227.81	5.7021e-06	5.6218e-06	463.84	218.57	105.01	59.794	1.0594e-06	123.22	8.4755e-05	6.619e-05	1.9166e-05	598.55	7.683e-07	7.1526e-07	880.52	202.27	7.4717e-07	7.1416e-07	400.83	192.33	86.3	52.148	7.9439e-07	106.26	170.210	-8.908	51.433	-50.836	92.325	74.889	-50.244	-44.965	95.889	56.849	-46.567	-41.914	-41.784	-37.473	-3.630	-38.507	-8191	255	
9201.604	1	1	0	0	0.12249	0.3578	0.13324	0.24792	0.07815	0.15906	0.18735	0.22295	0.20968	0.18705	0.099072	0.19237	0.13585	0.11084	0.13705	0.29208	-1.3771	-2.3208	-1.7146	-2.1063	-2.0917	-1.5375	-2.5167	-1.8542	-1.65	-2.5146	-1.7771	-2.1188	-2.4646	-1.6333	-2.2521	-2.2771	258.452	182.188	108.532	-55.433	-58.849	207.417	242.745	228.502	37.940	-61.899	163.931	43.645	-16.434	184.046	230.206	273.740	0.00033981	0.00033938	0.00020915	668.3	3.7084e-06	3.1274e-06	988.71	227.43	4.6547e-06	3.6335e-06	461.88	217.99	104.69	59.717	2.2404e-06	123.02	8.1966e-05	6.5235e-05	2.0093e-05	597.8	7.5431e-07	7.1129e-07	885.01	202.95	7.5151e-07	6.9803e-07	401.35	192.42	86.228	52.027	8.3153e-07	106.32	181.945	5.943	12.218	-50.727	92.022	57.746	-50.883	-45.696	76.023	57.413	-46.290	-42.331	-41.151	-37.519	84.602	-38.583	-8191	255	
9201.700	1	1	0	0	0.020449	0.15	0.30928	0.12066	0.30443	0.19208	0.13584	0.39634	0.10537	0.15246	0.27788	0.24173	0.13385	0.30656	0.30505	0.26243	-1.3125	-2.4896	-1.6167	-1.9188	-2.4958	-1.4438	-2.4458	-2.1562	-1.4312	-2.4958	-1.8083	-1.9396	-2.4354	-1.6875	-2.1979	-2.25	84.088	47.988	21.437	-44.124	51.810	133.320	291.395	-48.948	17.670	47.533	243.596	243.458	216.953	197.484	291.217	236.681	0.00030768	0.00045837	0.00023275	669.48	5.8957e-06	4.8673e-06	987.86	227.77	3.1669e-06	4.4061e-06	464.62	217.99	102.35	59.411	1.8201e-06	122.79	8.3137e-05	6.5351e-05	2.081e-05	598.46	7.2448e-07	7.1649e-07	884.5	203.13	7.2799e-07	7.4303e-07	401.61	191.43	85.236	51.716	8.3147e-07	105.5	169.191	15.726	-3.911	-50.855	93.202	93.800	-50.658	-45.553	29.763	74.973	-46.286	-42.201	-41.303	-37.644	80.087	-38.444	-8191	255	
9201.820	1	1	0	0	0.29183	0.3371	0.33034	0.28203	0.19854	0.20093	0.36053	0.27179	0.093335	0.21365	0.15183	0.30861	0.2153	0.33231	0.11352	0.037199	-1.1958	-2.4708	-1.7188	-2.0062	-2.4333	-1.725	-2.6167	-2.2229	-1.6292	-2.4	-2.0833	-2.1604	-2.6125	-1.6854	-2.0104	-2.6437	145.684	96.684	51.587	291.779	102.987	119.647	291.342	251.429	186.145	155.530	281.443	276.103	241.346	241.788	115.009	-37.434	0.00029057	0.00042342	0.00013799	670.08	6.2355e-06	3.2543e-06	990.45	228.88	3.1123e-06	4.7596e-06	462.08	217.91	104.27	59.693	2.6687e-06	123.82	7.9674e-05	6.9275e-05	2.0453e-05	597.84	7.2375e-07	7.6302e-07	882.66	202.66	7.0011e-07	7.747e-07	401.69	191.86	85.745	51.997	8.0779e-07	106.26	173.148	38.113	-0.155	-50.877	78.074	78.711	-50.309	-45.142	59.397	116.754	-46.311	-42.044	-41.026	-37.482	56.092	-38.321	-8191	255	
9201.917	1	1	0	0	0.15923	0.18834	0.27792	0.094975	0.16486	0.13397	0.12729	0.011967	0.35604	0.27173	0.080272	0.20131	0.17311	0.50561	0.3382	0.069511	-1.1896	-2.3021	-1.9375	-1.8521	-2.4854	-1.8104	-2.1146	-2.4688	-1.3792	-2.3667	-2.1042	-1.8896	-2.4771	-1.7354	-1.9271	-2.7583	223.784	290.757	35.685	280.712	-60.468	60.836	68.047	145.468	169.333	198.001	116.510	232.949	-23.083	269.601	195.215	-14.517	0.00028154	0.00059669	0.00027686	667.52	4.8705e-06	3.928e-06	989.24	228.9	1.5369e-06	3.2712e-06	467.61	218.88	104.88	60.063	2.7972e-06	124.26	7.8495e-05	7.2809e-05	2.0077e-05	597.6	7.0601e-07	8.0842e-07	884.32	203.39	6.9661e-07	8.1024e-07	402.76	192.82	86.646	52.478	7.7259e-07	106.9	176.981	39.745	22.365	-50.995	75.955	75.631	-50.733	-45.130	20.855	81.600	-46.592	-42.081	-40.814	-37.732	153.426	-38.758	-8191	255	
9201.988	1	1	0	0	0.21648	0.064663	0.21766	0.15963	0.16636	0.13089	0.16206	0.056324	0.16865	0.013507	0.2564	0.15966	0.12448	0.14702	0.37288	0.49011	-0.99792	-2.2792	-2.1854	-1.7208	-2.4792	-1.7396	-2.0438	-2.5938	-1.6958	-2.2979	-2.3354	-1.825	-2.4875	-1.9208	-1.8833	-2.7229	82.543	-36.192	22.936	-49.502	198.442	232.171	-41.611	-56.081	64.113	124.099	245.826	-60.338	89.781	142.963	-40.545	221.723	0.00027928	0.00039788	0.00012017	670.15	3.7052e-06	6.4114e-06	996.39	228.15	4.5629e-06	4.6756e-06	467.9	220.45	104.82	59.746	2.8641e-06	123.54	8.2647e-05	7.5801e-05	1.9571e-05	596.15	7.3664e-07	8.1593e-07	886.43	203.17	7.6229e-07	8.0767e-07	403.8	193.6	86.468	52.185	7.4301e-07	106.46	177.315	33.376	-27.904	-50.676	49.059	92.486	-50.587	-45.227	113.283	36.177	-46.029	-42.163	-41.018	-38.232	67.046	-38.688	-8191	255	
9202.084	1	1	0	0	0.013751	0.0029839	0.16208	0.18567	0.2039	0.16078	0.17585	0.23394	0.28084	0.17515	0.23201	0.30261	0.1019	0.1829	0.16789	0.1343	-1.0271	-2.1125	-1.8917	-1.7125	-2.5042	-1.7375	-2.0333	-2.5396	-1.525	-2.2021	-2.3646	-1.7875	-2.3396	-2.1083	-1.8146	-2.6667	230.150	274.419	234.822	231.155	162.196	276.357	292.114	-57.738	272.627	254.866	-0.761	-60.405	189.028	288.497	-32.233	236.841	0.00032972	0.00045182	0.00018393	665.46	5.1599e-06	4.6492e-06	991.78	227.68	2.7153e-06	7.1413e-06	465.39	217.14	103.84	58.796	4.265e-06	122.17	8.6528e-05	7.3108e-05	1.8472e-05	594.91	8.0178e-07	7.9984e-07	882.62	202.92	8.1018e-07	7.9404e-07	401.91	191.49	85.991	51.516	7.6465e-07	105.45	181.697	20.064	-6.028	-51.483	91.917	34.905	-50.652	-45.496	101.838	63.107	-47.015	-42.526	-41.187	-38.279	79.293	-38.714	-8191	255	
9202.203	1	1	0	0	0.29809	0.12809	0.093129	0.1748	0.27011	0.10954	0.22107	0.3496	0.23266	0.33205	0.33923	0.18653	0.12033	0.10539	0.098941	0.029065	-1.2604	-1.9937	-2.2062	-1.5688	-2.3125	-1.9583	-1.925	-2.4292	-1.6208	-1.8958	-2.4646	-1.6833	-2.3958	-2.1271	-1.6479	-2.7	226.818	234.516	209.330	253.136	43.389	224.952	123.090	194.347	88.692	1.818	-56.744	6.780	260.789	15.686	-25.850	-42.382	0.00032211	0.00048655	0.00020295	664.68	7.3337e-06	3.9607e-06	990.36	228.08	3.3741e-06	3.8156e-06	467.98	218.71	104.15	59.435	2.117e-06	124.14	9.1837e-05	7.2098e-05	1.8889e-05	594.51	8.4795e-07	7.8323e-07	883.05	202.76	8.4079e-07	7.6693e-07	403.73	192.92	86.575	52	7.3551e-07	106.59	180.916	46.437	24.159	-51.229	94.895	19.120	-50.931	-45.760	87.348	62.948	-46.552	-42.589	-41.506	-38.054	84.326	-38.783	-8191	255	
9202.299	1	1	0	0	0.1805	0.21547	0.21808	0.091295	0.18863	0.18956	0.19542	0.18892	0.18522	0.062609	0.093712	0.22453	0.17533	0.2309	0.21494	0.13059	-1.1417	-1.85	-2.3312	-1.5812	-2.2625	-2.3229	-1.5771	-2.4188	-1.7958	-1.7812	-2.5292	-1.7375	-2.2104	-2.275	-1.3896	-2.4917	2.499	190.262	133.787	274.345	-59.892	-52.539	243.788	-46.121	14.150	162.176	-41.846	269.754	66.259	264.903	225.639	-42.858	0.00028509	0.0005592	0.00012619	666.02	6.7605e-06	6.0479e-06	992.07	228.34	2.6879e-06	2.0072e-06	469.61	220.62	105.12	59.719	4.2894e-06	124.12	9.1321e-05	6.9903e-05	1.8437e-05	596.2	8.1698e-07	7.5152e-07	885.2	204.03	8.4864e-07	7.4545e-07	405.68	195.21	87.398	52.169	7.1323e-07	106.9	175.082	-21.732	28.159	-51.391	76.102	71.796	-50.670	-45.666	53.668	94.278	-46.680	-42.359	-41.036	-37.908	46.518	-38.733	-8191	255	
9202.396	1	1	0	0	0.40545	0.15754	0.10563	0.066035	0.22768	0.09379	0.10723	0.077556	0.20422	0.26632	0.17009	0.29766	0.1811	0.24087	0.10066	0.086245	-1.3271	-1.7	-2.4521	-1.6479	-2.1229	-2.3083	-1.6333	-2.4667	-1.9042	-1.575	-2.4062	-1.6271	-1.8708	-2.4667	-1.6479	-2.6312	-15.811	11.422	266.044	171.978	12.633	82.968	-45.544	66.131	209.729	65.856	252.721	216.792	284.791	228.908	157.490	206.924	0.00027411	0.00059641	0.0001394	667.73	6.5633e-06	2.2424e-06	984.57	229.39	4.0514e-06	5.041e-06	465.99	220.51	104.9	59.169	3.7488e-06	123.26	8.9559e-05	6.8679e-05	1.7553e-05	597.48	8.2215e-07	7.4999e-07	881.57	204.04	8.1581e-07	7.3583e-07	404.36	194.27	86.436	51.678	7.3143e-07	105.99	182.942	16.178	7.986	-51.380	73.796	68.743	-50.852	-45.684	69.392	60.185	-46.498	-42.550	-41.230	-38.111	58.081	-38.551	-8191	255	
9202.492	1	1	0	0	0.042366	0.17548	0.074027	0.036826	0.20992	0.10438	0.16946	0.18869	0.089992	0.058236	0.46315	0.2241	0.20381	0.30522	0.10854	0.4473	-1.6063	-1.7437	-2.3438	-1.5292	-1.8646	-2.4542	-1.625	-2.4313	-1.8917	-1.6229	-2.5104	-1.6375	-2.0271	-2.4813	-1.5167	-2.55	-53.852	192.581	255.731	179.007	202.599	31.867	127.892	208.450	76.989	157.163	258.682	84.291	-30.798	241.896	31.546	268.916	0.00027976	0.00048535	0.00013004	667.85	4.2516e-06	5.7802e-06	990.26	228.45	3.2811e-06	5.9896e-06	467.53	219.65	104.98	59.638	3.0778e-06	123.79	8.5646e-05	6.728e-05	1.8745e-05	595.73	7.8061e-07	7.3931e-07	882.36	203.08	7.6265e-07	7.1649e-07	403.58	193.98	86.272	51.791	7.5849e-07	106.78	171.565	14.081	-33.634	-51.077	91.824	66.538	-50.964	-45.648	101.682	82.071	-46.528	-42.373	-41.245	-37.661	86.486	-38.446	-8191	255	
9202.612	1	1	0	0	0.19558	0.19482	0.15645	0.080725	0.3745	0.034565	0.29533	0.15681	0.10976	0.082497	0.13237	0.36919	0.11629	0.30813	0.12897	0.35986	-1.8833	-1.5021	-2.4708	-1.7292	-1.7521	-2.4625	-1.6729	-2.3625	-2.1937	-1.6167	-2.5042	-1.9062	-1.6479	-2.4729	-1.6063	-2.1292	258.651	51.136	161.754	-32.448	126.451	253.803	179.938	61.451	241.116	129.514	263.507	-29.479	-3.517	250.356	285.200	263.323	0.00030939	0.00045243	0.00013657	661.28	2.5384e-06	7.4731e-07	992.21	228.8	3.3372e-06	3.4935e-06	468.25	219.52	104.36	59.763	1.7955e-06	124.64	8.5199e-05	6.5729e-05	1.9312e-05	594.3	7.557e-07	7.0753e-07	882.02	203.43	7.4218e-07	6.9171e-07	405.2	194.16	86.146	52.022	8.0399e-07	107.19	173.198	37.409	193.629	-51.210	92.151	247.464	-50.631	-45.312	73.999	49.104	-46.454	-42.347	-41.147	-37.830	85.167	-38.483	-8191	255	
9202.684	1	1	0	0	0.02418	0.12472	0.083386	0.41536	0.1568	0.09042	0.20427	0.34066	0.1434	0.0739	0.19678	0.1584	0.15439	0.087051	0.092244	0.43689	-1.9854	-1.5312	-2.4271	-2.0021	-1.8167	-2.5187	-1.6354	-2.0583	-2.2958	-1.5167	-2.3833	-2.1021	-1.6396	-2.6063	-1.8979	-2.2583	236.045	119.708	34.547	210.413	175.238	216.991	249.700	-49.996	74.736	-14.173	-59.356	225.162	-35.835	269.154	37.683	233.271	0.00033159	0.00038041	0.00017166	663.71	4.3758e-06	2.887e-06	995.27	228.22	4.3613e-06	2.966e-06	466.38	219.48	103.53	59.156	4.1956e-06	123.95	8.2965e-05	6.3195e-05	2.0468e-05	593.57	7.3196e-07	7.0651e-07	886.2	202.53	7.4033e-07	6.9712e-07	403.81	193.2	85.409	51.571	8.2017e-07	106.87	178.964	46.527	-12.926	-50.727	84.206	56.395	-50.546	-45.647	76.891	34.539	-46.362	-42.341	-41.010	-37.692	92.286	-38.511	-8191	255	
9202.805	1	1	0	0	0.23305	0.10728	0.14439	0.28525	0.18406	0.085465	0.45802	0.19741	0.047106	0.16416	0.22513	0.12022	0.2074	0.083638	0.14079	0.2866	-2.0292	-1.3667	-2.1604	-2.2083	-1.5187	-2.5542	-1.8396	-1.8458	-2.3979	-1.5479	-2.3	-2.3917	-1.5896	-2.6625	-1.7292	-1.8813	227.141	147.634	186.546	175.073	254.563	-47.077	-62.130	32.715	27.902	196.993	247.556	293.380	-57.582	109.661	217.197	262.899	0.00027105	0.00058096	0.00025146	664.13	4.5967e-06	4.4907e-06	986.05	226.66	4.2685e-06	3.757e-06	466.54	217.48	102.48	58.423	3.8704e-06	123.11	7.8929e-05	6.5254e-05	2.0085e-05	592.86	6.7816e-07	7.1129e-07	883.31	201.43	7.0645e-07	7.3128e-07	403.21	191.97	84.555	51.084	8.0175e-07	106.14	169.674	25.294	-20.403	-50.626	83.015	102.152	-50.568	-45.040	114.833	95.997	-46.042	-42.199	-40.918	-37.536	74.948	-38.623	-8191	255	
9202.901	1	1	0	0	0.11289	0.18821	0.035096	0.059688	0.10297	0.20679	0.22265	0.25381	0.28865	0.11244	0.22508	0.1736	0.090009	0.19572	0.30661	0.18942	-2.0479	-1.4937	-2.1312	-2.3708	-1.5854	-2.4646	-2.1854	-1.7625	-2.5792	-1.4813	-2.1292	-2.4625	-1.6979	-2.5021	-1.8687	-1.825	98.702	178.925	-5.726	248.348	223.568	174.113	272.451	192.572	64.836	259.447	263.400	162.875	142.507	20.628	275.876	205.949	0.00033857	0.00030685	0.00016	664.54	3.4754e-06	7.0966e-06	985.54	225.68	2.733e-06	5.8726e-06	469.68	219.33	103.15	59.022	4.5969e-06	123.2	7.8892e-05	6.8552e-05	1.9949e-05	591.53	6.7198e-07	7.5004e-07	880.5	201.68	6.8331e-07	7.6254e-07	404.6	193.44	85.149	51.484	7.6964e-07	106.58	178.471	36.630	10.997	-50.681	30.693	103.133	-50.552	-45.036	92.855	81.210	-46.668	-42.431	-40.828	-37.552	86.479	-38.494	-8191	255	
#DATA ENDS
