BOXY.EXE: ISS Imagent and Oximeter Data Acquisition Program Version 0.80
Ascii Record File

#ACQ INFORMATION
2  Detector Channels 
16  External MUX Channels 
1  Auxiliary Channels 
5000  Waveform (CCF) Frequency (Hz)
1  Waveforms Skipped 
30  Waveforms Averaged 
1  Cycles Averaged 
16  Acquisitions per Waveform 
10.0806  Updata Rate (Hz) 

#FILE INFORMATION
TRUE -- External MUX Channel results are PARSED.
FALSE -- AC DC and Phase are NOT grouped.
TRUE -- Companion Program Settings File CREATED.
FALSE -- AC data not excluded
FALSE -- DC data not excluded
FALSE -- Phase data not excluded
FALSE -- Auxillary Chn. data not excluded
Tab delimiters

#CALIBRATION STATE
TRUE -- Waveform Calibration Values APPLIED.


#AUX CALIBRATION VALUES
Val Type	aux-1	

Term	1.0000e+00	
Factor	0.0000e+00	


#WF CALIBRATION VALUES
A = Detector Channel
Val Type	A-AC1	A-AC2	A-AC3	A-AC4	A-AC5	A-AC6	A-AC7	A-AC8	A-AC9	A-AC10	A-AC11	A-AC12	A-AC13	A-AC14	A-AC15	A-AC16	A-DC1	A-DC2	A-DC3	A-DC4	A-DC5	A-DC6	A-DC7	A-DC8	A-DC9	A-DC10	A-DC11	A-DC12	A-DC13	A-DC14	A-DC15	A-DC16	A-Ph1	A-Ph2	A-Ph3	A-Ph4	A-Ph5	A-Ph6	A-Ph7	A-Ph8	A-Ph9	A-Ph10	A-Ph11	A-Ph12	A-Ph13	A-Ph14	A-Ph15	A-Ph16	

Term	0.00000e+00	0.00000e+00	0.00000e+00	0.00000e+00	0.00000e+00	0.00000e+00	0.00000e+00	0.00000e+00	0.00000e+00	0.00000e+00	0.00000e+00	0.00000e+00	0.00000e+00	0.00000e+00	0.00000e+00	0.00000e+00	0.00000e+00	0.00000e+00	0.00000e+00	0.00000e+00	0.00000e+00	0.00000e+00	0.00000e+00	0.00000e+00	0.00000e+00	0.00000e+00	0.00000e+00	0.00000e+00	0.00000e+00	0.00000e+00	0.00000e+00	0.00000e+00	0.00000e+00	0.00000e+00	0.00000e+00	0.00000e+00	0.00000e+00	0.00000e+00	0.00000e+00	0.00000e+00	0.00000e+00	0.00000e+00	0.00000e+00	0.00000e+00	0.00000e+00	0.00000e+00	0.00000e+00	0.00000e+00	
Factor	1.00000e+00	1.00000e+00	1.00000e+00	1.00000e+00	1.00000e+00	1.00000e+00	1.00000e+00	1.00000e+00	1.00000e+00	1.00000e+00	1.00000e+00	1.00000e+00	1.00000e+00	1.00000e+00	1.00000e+00	1.00000e+00	1.00000e+00	1.00000e+00	1.00000e+00	1.00000e+00	1.00000e+00	1.00000e+00	1.00000e+00	1.00000e+00	1.00000e+00	1.00000e+00	1.00000e+00	1.00000e+00	1.00000e+00	1.00000e+00	1.00000e+00	1.00000e+00	X	X	X	X	X	X	X	X	X	X	X	X	X	X	X	X	

B = Detector Channel
Val Type	B-AC1	B-AC2	B-AC3	B-AC4	B-AC5	B-AC6	B-AC7	B-AC8	B-AC9	B-AC10	B-AC11	B-AC12	B-AC13	B-AC14	B-AC15	B-AC16	B-DC1	B-DC2	B-DC3	B-DC4	B-DC5	B-DC6	B-DC7	B-DC8	B-DC9	B-DC10	B-DC11	B-DC12	B-DC13	B-DC14	B-DC15	B-DC16	B-Ph1	B-Ph2	B-Ph3	B-Ph4	B-Ph5	B-Ph6	B-Ph7	B-Ph8	B-Ph9	B-Ph10	B-Ph11	B-Ph12	B-Ph13	B-Ph14	B-Ph15	B-Ph16	

Term	0.00000e+00	0.00000e+00	0.00000e+00	0.00000e+00	0.00000e+00	0.00000e+00	0.00000e+00	0.00000e+00	0.00000e+00	0.00000e+00	0.00000e+00	0.00000e+00	0.00000e+00	0.00000e+00	0.00000e+00	0.00000e+00	0.00000e+00	0.00000e+00	0.00000e+00	0.00000e+00	0.00000e+00	0.00000e+00	0.00000e+00	0.00000e+00	0.00000e+00	0.00000e+00	0.00000e+00	0.00000e+00	0.00000e+00	0.00000e+00	0.00000e+00	0.00000e+00	-1.96768e+02	-1.29699e+02	-1.34807e+02	-1.86339e+02	-7.54990e+01	-7.41266e+01	-1.58506e+02	-1.62015e+02	-8.93850e+01	-6.60437e+01	-1.71896e+02	-1.71132e+02	-1.83122e+02	-1.77420e+02	-7.77319e+01	-1.49721e+02	
Factor	4.32825e-05	1.44022e-04	4.41656e-05	2.97642e-01	1.53383e-06	1.64817e-06	1.64269e-01	5.16134e-02	1.72359e-06	1.70877e-06	8.37101e-02	2.83187e-02	3.98013e-02	9.20130e-03	1.82911e-06	1.31369e-02	6.94130e-06	8.10315e-06	2.27153e-06	1.56454e-01	8.77933e-08	8.93870e-08	8.17851e-02	2.74120e-02	8.57484e-08	8.94539e-08	4.31033e-02	1.45842e-02	2.12693e-02	4.93711e-03	8.74364e-08	6.82897e-03	X	X	X	X	X	X	X	X	X	X	X	X	X	X	X	X	



#DISTANCE SETTINGS
A = Detector Channel
A-1	A-2	A-3	A-4	A-5	A-6	A-7	A-8	A-9	A-10	A-11	A-12	A-13	A-14	A-15	A-16	

2.5000e+00	3.0000e+00	2.5000e+00	3.0000e+00	2.0000e+00	3.0000e+00	1.5000e+00	3.0000e+00	3.0000e+00	3.0000e+00	3.0000e+00	3.0000e+00	3.0000e+00	3.0000e+00	1.5000e+00	3.0000e+00	

B = Detector Channel
B-1	B-2	B-3	B-4	B-5	B-6	B-7	B-8	B-9	B-10	B-11	B-12	B-13	B-14	B-15	B-16	

1.0000e+01	1.0000e+01	1.0000e+01	1.4400e+00	1.0000e+01	1.0000e+01	1.5100e+00	1.9400e+00	1.0000e+01	1.0000e+01	1.9900e+00	2.4900e+00	2.4100e+00	2.9000e+00	1.0000e+01	2.9800e+00	




#DATA BEGINS
time	group	step	mark	flag	A-AC1	A-AC2	A-AC3	A-AC4	A-AC5	A-AC6	A-AC7	A-AC8	A-AC9	A-AC10	A-AC11	A-AC12	A-AC13	A-AC14	A-AC15	A-AC16	A-DC1	A-DC2	A-DC3	A-DC4	A-DC5	A-DC6	A-DC7	A-DC8	A-DC9	A-DC10	A-DC11	A-DC12	A-DC13	A-DC14	A-DC15	A-DC16	A-Ph1	A-Ph2	A-Ph3	A-Ph4	A-Ph5	A-Ph6	A-Ph7	A-Ph8	A-Ph9	A-Ph10	A-Ph11	A-Ph12	A-Ph13	A-Ph14	A-Ph15	A-Ph16	B-AC1	B-AC2	B-AC3	B-AC4	B-AC5	B-AC6	B-AC7	B-AC8	B-AC9	B-AC10	B-AC11	B-AC12	B-AC13	B-AC14	B-AC15	B-AC16	B-DC1	B-DC2	B-DC3	B-DC4	B-DC5	B-DC6	B-DC7	B-DC8	B-DC9	B-DC10	B-DC11	B-DC12	B-DC13	B-DC14	B-DC15	B-DC16	B-Ph1	B-Ph2	B-Ph3	B-Ph4	B-Ph5	B-Ph6	B-Ph7	B-Ph8	B-Ph9	B-Ph10	B-Ph11	B-Ph12	B-Ph13	B-Ph14	B-Ph15	B-Ph16	aux-1	digaux	

21698.582	1	1	0	256	0.12264	0.12137	0.20204	0.17357	0.18047	0.28636	0.23839	0.20176	0.091216	0.13365	0.19776	0.040427	0.19745	0.042496	0.17237	0.3589	-2.4562	-2.2271	-2.2812	-2.8187	-2.1063	-2.7083	-2.8458	-2.0208	-2.8125	-2.3042	-2.3312	-2.7979	-2.0375	-2.5354	-2.5208	-2.0375	-13.492	172.705	-66.200	149.822	32.448	133.064	-109.961	-93.686	23.915	14.168	-99.047	-46.663	-34.224	167.311	-13.695	26.451	0.00045466	0.0010895	0.00038506	1061.9	1.4146e-05	1.2227e-05	945.8	251.8	8.3865e-06	3.3873e-06	256.18	74.549	75.375	17.27	1.4397e-05	17.565	0.0061732	0.0071846	0.0020146	1170.3	7.8079e-05	8.0203e-05	1000	270.32	7.6848e-05	8.0428e-05	288.78	85.864	93.025	21.263	7.6477e-05	23.44	187.653	-97.462	-18.388	-102.930	17.151	209.365	-104.066	-98.562	-37.807	-66.509	-99.813	-96.178	-94.445	-89.584	235.462	-91.962	-8191	255	
21698.678	1	1	0	0	0.077706	0.13785	0.35353	0.12317	0.21399	0.10376	0.13577	0.1774	0.1904	0.15629	0.082134	0.12192	0.24582	0.1304	0.30824	0.27383	-2.3104	-2.3146	-2.0542	-2.8187	-2.0708	-2.5667	-2.9458	-2.2208	-2.8208	-2.5458	-2.3937	-2.7125	-2.0792	-2.4396	-2.7583	-2.025	-110.267	-98.853	60.203	227.431	-88.830	-49.277	192.403	242.105	167.953	10.764	203.431	234.937	-101.209	133.846	-83.618	-48.813	0.00011229	0.00087523	9.2428e-06	1064.3	7.0433e-06	3.1808e-06	944.79	250.22	8.2501e-06	1.2916e-06	256.03	74.242	75.453	17.369	3.2173e-06	17.733	0.0060833	0.0070717	0.0019891	1166.1	7.6402e-05	7.8288e-05	996.41	269.82	7.6147e-05	7.9509e-05	288.22	85.891	93.401	21.46	7.9534e-05	23.766	191.296	234.221	44.360	-102.782	29.998	160.902	-103.974	-98.528	184.721	-25.398	-99.803	-95.960	-95.131	-88.871	-79.056	-91.507	-8191	255	
21698.773	1	1	0	0	0.0934	0.060313	0.44051	0.22075	0.13209	0.23168	0.14937	0.047449	0.16624	0.20487	0.14334	0.41491	0.088536	0.18046	0.11251	0.26097	-2.3	-2.4979	-2.0062	-3.0042	-2.2333	-2.275	-2.8625	-2.0146	-2.7958	-2.5875	-2.2208	-2.725	-2.1979	-2.1937	-2.7667	-1.9979	207.855	-66.515	130.987	195.652	-56.153	-66.974	-49.290	207.141	-33.917	170.164	-97.026	-95.385	234.257	229.599	46.235	32.640	0.00033685	0.0009994	0.00032958	1053.4	3.6114e-06	1.7975e-05	937.26	248.01	9.3793e-06	9.0199e-06	254.12	73.578	74.693	17.189	8.0516e-06	17.462	0.006392	0.0074929	0.0021032	1168.2	8.1582e-05	8.4175e-05	996.09	269	8.0594e-05	8.43e-05	288.28	85.953	93.518	21.63	8.5087e-05	24.037	77.811	-1.267	-13.481	-102.843	141.653	-5.019	-104.018	-98.550	-83.296	-27.260	-99.886	-96.081	-94.797	-89.418	43.984	-91.589	-8191	255	
21698.846	1	1	0	0	0.10359	0.098554	0.15761	0.19425	0.18589	0.23843	0.22218	0.14059	0.034486	0.081515	0.098474	0.12682	0.04081	0.22929	0.17181	0.1593	-2.3063	-2.6417	-2.1396	-2.9458	-2.3563	-2.2229	-2.9146	-2.2021	-2.5583	-2.8125	-2.0896	-2.8354	-2.1042	-2.0917	-2.825	-2.1271	36.134	33.331	239.733	164.318	61.575	-43.014	145.408	226.277	131.026	104.876	237.136	-111.344	152.624	-108.919	132.718	225.699	0.00012453	0.00063474	0.00011515	1045.3	2.3471e-06	3.4236e-06	937.79	246.05	5.8934e-06	5.763e-06	252.55	73.204	75.024	16.965	3.2448e-06	17.498	0.0068628	0.0080093	0.0022533	1175.7	8.7229e-05	8.9109e-05	999.9	269.41	8.5914e-05	8.8947e-05	289.7	86.13	94.086	21.677	8.6542e-05	24.134	144.351	126.935	21.632	-102.784	196.104	-21.975	-103.842	-98.265	-65.660	-79.959	-100.044	-96.078	-94.927	-89.219	-50.368	-92.066	-8191	255	
21698.965	1	1	0	0	0.19395	0.32339	0.34354	0.21578	0.30926	0.033658	0.12618	0.40531	0.078635	0.061778	0.076114	0.12984	0.26523	0.17822	0.12971	0.29459	-1.9625	-2.6625	-1.9833	-2.825	-2.3812	-1.9813	-3.0104	-2.2396	-2.4021	-2.7438	-2.1583	-2.6937	-2.5271	-2.1937	-2.8917	-2.2521	208.375	10.277	7.091	-1.711	21.199	-75.322	150.991	78.033	221.622	-112.048	-74.619	144.542	187.784	241.515	-53.887	67.901	0.00029566	0.00044614	0.00019125	1053.1	1.0192e-05	1.6546e-06	937.28	247.31	4.2506e-06	2.6534e-06	252.28	72.525	75.194	16.998	1.0576e-05	17.683	0.006968	0.0080755	0.0022682	1179.8	8.8255e-05	8.9987e-05	998.57	268.94	8.6201e-05	9.0014e-05	290.36	86.263	94.28	21.77	8.8455e-05	24.227	144.184	64.310	-37.573	-103.107	15.698	57.282	-103.898	-98.687	37.951	20.214	-99.947	-95.693	-94.610	-89.435	95.046	-91.687	-8191	255	
21699.061	1	1	0	0	0.074614	0.091521	0.016886	0.13551	0.035496	0.14813	0.16432	0.23113	0.12006	0.13646	0.19848	0.40017	0.12419	0.27546	0.17011	0.18473	-1.9458	-2.7812	-2.0958	-2.85	-2.4562	-2.0896	-2.9562	-2.3937	-2.2125	-2.8229	-2.3021	-2.6354	-2.6396	-1.9792	-2.8333	-2.3083	151.445	53.695	172.849	202.363	-82.916	-54.854	179.616	25.489	89.612	-58.697	148.842	202.007	154.616	238.377	178.924	198.159	0.00027706	0.00030694	0.00021316	1041.2	6.3702e-06	2.4851e-06	933.19	245.45	4.8327e-06	4.5963e-06	250.59	71.639	73.55	16.891	2.4848e-05	17.363	0.0070919	0.008275	0.0023342	1178.9	9.0199e-05	9.1685e-05	996.84	268.08	8.7274e-05	9.1129e-05	288.66	85.54	93.602	21.667	8.9739e-05	24.026	147.023	4.773	92.679	-102.835	202.655	79.876	-103.779	-98.554	236.165	176.626	-100.073	-95.717	-94.517	-89.322	90.738	-92.245	-8191	255	
21699.156	1	1	0	0	0.17931	0.056773	0.22847	0.17591	0.065494	0.16358	0.47582	0.26107	0.25693	0.15676	0.30511	0.13806	0.054886	0.2199	0.33721	0.19209	-1.6646	-2.9021	-2.0979	-2.5396	-2.7875	-2.1021	-2.8417	-2.525	-2.2771	-2.7812	-2.1833	-2.4042	-2.7458	-2.2104	-2.8167	-2.6167	199.615	-42.052	102.658	-79.820	-66.114	-108.028	179.372	216.690	-54.646	1.389	229.587	116.341	-49.003	-77.935	-24.378	-107.012	0.00049753	0.00095586	0.00041582	1040.3	1.2163e-05	2.2992e-05	928.95	245.14	9.2813e-06	8.4535e-06	250.03	73.167	74.817	16.811	4.8416e-06	17.418	0.0071183	0.0082034	0.0023163	1174.6	8.8022e-05	8.9308e-05	992.85	268.02	8.4874e-05	8.8968e-05	287.82	86.132	94.162	21.583	8.7632e-05	24.008	59.636	36.526	236.301	-103.020	-12.735	149.549	-103.769	-98.560	-115.088	127.928	-99.679	-96.071	-94.943	-89.216	42.758	-91.775	-8191	255	
21699.254	1	1	0	0	0.24145	0.09831	0.19628	0.087522	0.17506	0.082186	0.33554	0.091791	0.12176	0.15088	0.11698	0.074623	0.051797	0.056734	0.38259	0.10904	-1.6458	-2.875	-2.0729	-2.4562	-2.7062	-1.9542	-2.7229	-2.6063	-2.0646	-2.7042	-2.3292	-2.2208	-2.8563	-2.0542	-2.5729	-2.7854	-10.510	19.760	87.916	122.597	30.085	167.664	197.432	198.982	140.272	240.899	127.880	4.023	200.248	92.410	-116.093	183.214	0.00039295	0.00088273	8.7952e-05	1042	6.0655e-06	1.165e-06	936.91	246.86	1.9153e-05	1.1019e-05	252.43	73.011	75.429	16.943	1.5493e-05	17.555	0.006968	0.0080701	0.0022555	1172.9	8.6203e-05	8.8114e-05	997.63	269.12	8.3744e-05	8.6532e-05	289.2	86.238	94.453	21.608	8.7243e-05	24.1	157.857	225.144	33.011	-102.942	49.392	137.299	-103.698	-98.702	16.322	51.191	-99.698	-95.830	-94.678	-89.760	-8.465	-91.946	-8191	255	
21699.373	1	1	0	0	0.27338	0.19755	0.274	0.32257	0.19291	0.070658	0.21519	0.29629	0.019704	0.18746	0.097161	0.13171	0.047654	0.093605	0.30004	0.16133	-1.6917	-2.7438	-2.2771	-2.2271	-2.9437	-2.1208	-2.5833	-2.7375	-2.0583	-2.7229	-2.3833	-2.3187	-2.8146	-2.0542	-2.4646	-2.7833	12.465	21.541	106.834	176.911	56.620	65.875	177.022	195.116	32.276	86.006	130.542	177.256	39.573	139.616	92.525	-7.054	0.00017713	0.0011491	0.00035113	1043.9	3.1168e-06	9.7379e-06	933.6	247.12	1.1171e-05	1.939e-05	250.48	73.238	74.375	17	8.2036e-06	17.522	0.0070762	0.0083199	0.002298	1179.4	8.9112e-05	9.061e-05	1000.1	269.98	8.4685e-05	8.7864e-05	288.31	85.939	93.307	21.489	8.5243e-05	23.924	180.229	-26.248	230.537	-103.135	79.681	44.389	-103.642	-98.376	139.717	-12.246	-100.117	-96.480	-94.433	-89.765	-110.387	-91.336	-8191	255	
21699.471	1	1	0	0	0.18349	0.024752	0.15711	0.17923	0.11877	0.20987	0.12653	0.22382	0.27516	0.22199	0.21159	0.29918	0.11068	0.090036	0.23176	0.20764	-1.6021	-2.8125	-2.5062	-2.2646	-2.8021	-2.1979	-2.6125	-2.8292	-2.0854	-2.8958	-2.4938	-2.1896	-2.7917	-2.1604	-2.3854	-2.7146	-79.393	102.014	140.288	210.363	178.607	69.126	-100.823	232.171	-63.215	-46.803	70.141	193.144	238.677	238.087	139.689	242.629	0.00026671	0.00045604	0.00030415	1041.5	1.1558e-05	6.6622e-06	930.64	244.5	9.3325e-06	1.7332e-05	249.77	72.064	72.988	16.747	4.5813e-06	17.173	0.0068846	0.0080043	0.0022575	1173.4	8.7647e-05	8.871e-05	994.1	267.76	8.3016e-05	8.5624e-05	285.78	84.62	91.819	21.112	8.1006e-05	23.429	152.049	-8.755	185.971	-102.969	86.227	141.278	-103.864	-98.373	199.809	232.640	-99.557	-95.861	-94.880	-89.595	-57.021	-92.190	-8191	255	
21699.543	1	1	0	0	0.11778	0.13533	0.12696	0.11689	0.11158	0.036545	0.15202	0.11277	0.18596	0.19753	0.015313	0.16003	0.15034	0.13307	0.058218	0.040716	-1.6187	-2.6875	-2.6417	-2.0687	-2.7542	-2.2292	-2.4688	-2.9667	-2.1646	-2.6021	-2.6896	-2.1646	-2.9021	-2.45	-2.3229	-2.9417	99.588	-83.603	-9.573	-0.273	86.266	-27.536	165.416	179.053	99.142	-32.336	238.169	-43.470	232.333	215.900	-35.104	-30.991	0.0002995	0.0010469	0.00021594	1035.1	5.8573e-06	7.2885e-06	924.83	242.27	1.0535e-05	9.9085e-06	247.93	71.393	73.281	16.616	1.006e-05	17.202	0.006522	0.0076068	0.0021464	1162.1	8.3431e-05	8.5398e-05	985.77	265.25	8.0686e-05	8.3268e-05	283.23	83.851	91.133	20.998	7.9353e-05	23.299	129.066	27.689	7.112	-102.996	-7.244	-71.792	-103.485	-98.344	218.143	17.254	-99.638	-96.204	-94.619	-88.933	239.658	-91.612	-8191	255	
21699.662	1	1	0	0	0.16118	0.13525	0.076873	0.19415	0.1231	0.074684	0.049033	0.18826	0.16014	0.020694	0.12884	0.33466	0.16144	0.21408	0.097351	0.14309	-1.6708	-2.4604	-2.675	-2.3083	-2.8854	-2.3021	-2.3458	-3.0479	-2.0146	-2.7708	-2.6958	-2.0167	-2.8542	-2.5	-2.1375	-2.9771	87.631	74.769	85.084	234.643	71.122	-38.311	13.873	-110.156	25.477	147.557	150.033	202.265	38.983	11.174	-67.061	83.099	0.00019937	0.00071551	0.00021275	1031.6	9.6712e-06	1.7381e-05	919.48	242.79	1.7809e-05	1.2993e-05	247.32	71.72	73.311	16.722	1.5234e-05	17.269	0.0064325	0.0075621	0.0021256	1156.7	8.3908e-05	8.5071e-05	983.6	265.7	8.1533e-05	8.4537e-05	283.27	84.066	91.749	21.02	7.9647e-05	23.29	151.247	-70.556	-4.687	-102.752	120.074	35.927	-103.474	-98.508	-51.512	-25.896	-99.555	-95.946	-94.876	-89.153	132.845	-91.720	-8191	255	
21699.758	1	1	0	0	0.0469	0.12365	0.075052	0.18677	0.17231	0.088963	0.15368	0.1869	0.40504	0.064467	0.20006	0.079981	0.12898	0.11871	0.10336	0.085802	-1.7958	-2.5	-2.7562	-2.0875	-2.775	-2.4313	-2.125	-3.1125	-2.2479	-2.4521	-2.8479	-1.9312	-2.7708	-2.4667	-2.0292	-2.9333	-62.417	-88.196	102.220	164.023	195.381	199.065	167.253	85.873	24.399	148.408	219.801	165.714	196.737	66.972	178.602	-17.994	0.00035491	0.0014919	0.00032125	1036.5	3.1526e-06	5.2204e-06	927.59	246.49	1.0117e-05	2.7469e-06	249.17	72.573	74.769	16.854	4.2752e-06	17.407	0.0064161	0.00746	0.0020689	1154.9	8.0466e-05	8.118e-05	985.69	266.98	7.8568e-05	8.1603e-05	285.47	85.214	92.822	21.174	8.0789e-05	23.486	203.822	-39.924	108.777	-102.825	-89.771	-3.323	-103.372	-98.328	194.577	202.710	-99.592	-95.694	-94.419	-89.360	82.302	-91.613	-8191	255	
21699.855	1	1	0	0	0.26242	0.099886	0.10699	0.17072	0.097103	0.16579	0.13623	0.15771	0.23875	0.069429	0.058367	0.18181	0.082328	0.12569	0.19343	0.16633	-1.8083	-2.0333	-2.7146	-2.1875	-2.6667	-2.5958	-2.3104	-2.8604	-2.2646	-2.1188	-2.8896	-2.1625	-2.5229	-2.5	-1.9438	-2.6667	-87.163	-76.177	82.602	224.561	148.115	164.082	-30.796	145.308	-100.740	-79.965	29.126	123.653	216.580	112.502	63.463	17.602	0.00035501	0.0017987	0.0002318	1037.6	1.9428e-05	4.8631e-06	928.85	246.53	6.7825e-06	1.0817e-05	251.97	72.555	74.438	16.818	2.1402e-05	17.321	0.0064596	0.0075362	0.0021213	1163.8	8.2442e-05	8.4046e-05	990.89	268.33	8.0458e-05	8.4636e-05	287.76	85.261	93.034	21.207	8.3222e-05	23.54	119.356	6.482	14.659	-103.071	11.587	176.287	-103.734	-98.321	183.724	-60.023	-99.734	-96.233	-95.086	-90.028	230.173	-91.293	-8191	255	
21699.951	1	1	0	0	0.33587	0.14041	0.05554	0.11487	0.20479	0.16637	0.41772	0.31563	0.20414	0.16624	0.32391	0.16263	0.057771	0.26328	0.15859	0.20498	-1.7625	-2.2958	-2.8604	-2.1125	-2.4792	-2.7771	-2.2292	-2.7583	-2.4083	-2.1063	-2.9854	-2.0771	-2.5167	-2.6521	-2.2208	-2.7917	144.306	9.375	177.473	60.972	-64.933	136.429	125.495	204.271	92.795	15.501	156.536	119.376	-29.359	101.881	203.236	-79.960	0.00030901	0.001587	0.00017913	1037.6	1.5024e-05	3.1883e-06	923.73	246.24	2.0551e-05	1.229e-05	249.63	71.758	74.682	16.868	6.1522e-06	17.249	0.0066058	0.0077348	0.0021541	1157.9	8.2152e-05	8.2985e-05	982.93	266.44	7.8391e-05	8.2456e-05	284.21	84.148	92.187	21.07	8.0336e-05	23.276	142.839	-21.486	136.328	-103.187	77.055	26.986	-104.027	-98.778	-20.455	211.330	-99.674	-96.113	-94.723	-89.307	152.099	-91.609	-8191	255	
21700.070	1	1	0	0	0.1927	0.18051	0.43698	0.086309	0.12175	0.29838	0.37818	0.14835	0.25585	0.11109	0.12814	0.099441	0.21208	0.15818	0.32094	0.13488	-2.1875	-2.1229	-2.9146	-2.3208	-2.3917	-2.6917	-2.2354	-2.7854	-2.4729	-2.1271	-2.8042	-2.2542	-2.3438	-2.8646	-2.1583	-2.6979	89.614	-54.072	-89.266	191.075	147.958	216.679	145.960	146.575	139.037	128.505	233.959	87.201	214.857	-40.568	211.566	148.553	4.1516e-05	0.0012478	0.00024528	1041.3	9.334e-06	4.8755e-06	924.3	244.51	4.9751e-06	8.6672e-06	248.59	71.521	73.33	16.742	1.2504e-05	17.268	0.0064287	0.0075728	0.0020989	1155.9	8.1091e-05	8.3176e-05	981.15	265.61	7.8937e-05	8.3362e-05	282.96	83.595	91.866	20.929	8.0215e-05	23.176	153.291	32.590	-48.444	-103.302	32.111	127.630	-103.982	-98.398	172.649	171.585	-99.831	-96.201	-94.371	-89.460	2.994	-91.613	-8191	255	
21700.141	1	1	0	0	0.19402	0.13362	0.055437	0.24281	0.071106	0.13307	0.25191	0.058759	0.12235	0.30751	0.13985	0.1464	0.031062	0.20899	0.17248	0.10158	-2.3104	-2	-2.8958	-2.3729	-2.4208	-2.8875	-2.3208	-2.5187	-2.4854	-2.1417	-3.0042	-2.4313	-2.1396	-2.8375	-2.3438	-2.6104	203.382	71.838	157.492	229.411	-8.221	55.389	133.965	210.897	85.363	32.828	117.707	185.200	132.375	183.156	-16.813	101.507	0.00018413	0.0004992	0.00025019	1029.9	2.0814e-06	4.6234e-06	918.99	245.55	7.056e-06	7.6752e-06	248.62	71.442	73.644	16.577	4.7854e-06	17.176	0.0063561	0.0074584	0.0020851	1151.7	8.0944e-05	8.1844e-05	974.96	265.12	7.8127e-05	8.1466e-05	282.47	83.532	91.402	20.948	7.9813e-05	23.16	54.835	-66.922	-62.594	-102.640	197.104	18.364	-103.714	-98.298	236.418	34.408	-99.801	-96.410	-94.597	-88.785	12.943	-91.270	-8191	255	
21700.262	1	1	0	0	0.091041	0.19274	0.16468	0.16128	0.14412	0.12062	0.40538	0.29749	0.31779	0.17569	0.092232	0.039728	0.16972	0.22032	0.15645	0.16209	-2.4167	-2.2188	-2.7646	-2.5417	-2.2854	-2.7667	-2.2375	-2.5	-2.8208	-1.9417	-2.8229	-2.5187	-2.0729	-2.9417	-2.1813	-2.3688	-74.840	136.631	78.224	83.767	148.147	-84.303	180.631	151.734	110.969	-90.245	199.889	158.383	-114.708	143.583	194.657	-64.506	0.00013578	0.00089194	0.00036417	1030.6	4.9116e-06	1.3656e-05	918.68	243.8	9.9256e-06	1.0725e-05	248.3	71.09	72.69	16.68	1.0853e-06	16.906	0.0063977	0.0074938	0.0021091	1152.6	8.2817e-05	8.4477e-05	978.59	265.53	8.1707e-05	8.555e-05	284.19	84.064	92.233	21.037	8.4047e-05	23.335	56.727	93.629	41.134	-102.893	1.489	-52.922	-103.746	-98.541	-3.042	107.026	-99.610	-95.880	-94.998	-89.650	153.060	-91.612	-8191	255	
21700.357	1	1	0	0	0.26691	0.24361	0.11184	0.35254	0.068918	0.27594	0.30096	0.24235	0.099465	0.18802	0.32119	0.15281	0.14761	0.10733	0.093316	0.10399	-2.4271	-1.8479	-2.7479	-2.5833	-2.2021	-2.8458	-2.2521	-2.3688	-2.7896	-2.0729	-2.6417	-2.5375	-1.9583	-2.8333	-2.2146	-2.2938	96.245	37.793	62.828	166.732	158.608	83.295	160.292	220.455	19.814	36.381	186.314	-56.244	10.688	-65.488	-0.712	13.559	0.00029441	0.0009262	0.00051133	1032.5	1.2586e-05	1.222e-05	918.34	242.8	7.1115e-06	6.3691e-06	247.57	70.747	72.539	16.522	2.3308e-05	17.012	0.0067589	0.0078532	0.0022076	1155.5	8.5601e-05	8.7203e-05	977.57	265.58	8.4048e-05	8.7941e-05	283.61	83.819	92.483	21.095	8.6209e-05	23.439	154.212	38.911	-86.067	-103.092	-25.661	-56.908	-103.742	-98.210	109.894	-73.950	-99.953	-96.000	-94.767	-89.847	78.635	-91.833	-8191	255	
21700.453	1	1	0	0	0.083819	0.13897	0.052581	0.12365	0.10521	0.054819	0.08352	0.041671	0.18133	0.13327	0.16403	0.11656	0.35258	0.13264	0.22364	0.3665	-2.3229	-1.9979	-2.4208	-2.7396	-2.25	-2.9583	-2.4062	-2.2687	-3.0104	-2.2979	-2.5271	-2.7833	-2.0667	-2.7625	-2.6792	-2.0979	187.529	95.920	97.443	196.616	240.820	202.438	-62.435	146.733	50.145	-90.388	-87.882	165.119	216.281	74.110	109.836	-90.591	0.00013557	0.00054249	4.3379e-05	1024.7	6.6003e-06	3.9968e-06	908.87	241.91	1.8552e-05	6.7689e-06	243.81	70.286	72.483	16.333	1.7481e-05	16.65	0.0069803	0.0081203	0.0022765	1158.2	8.8842e-05	9.1532e-05	977.51	266.39	9.0311e-05	9.4956e-05	285.14	84.886	94.552	21.572	9.7532e-05	24.183	66.090	0.301	51.145	-102.974	78.755	0.893	-103.962	-98.422	18.246	45.916	-99.761	-96.490	-94.750	-88.848	1.323	-91.885	-8191	255	
21700.551	1	1	0	0	0.092398	0.49012	0.10447	0.16296	0.31895	0.15388	0.24655	0.04345	0.17156	0.32885	0.13004	0.11318	0.11353	0.10704	0.15335	0.088293	-2.4521	-2.0229	-2.3167	-2.7625	-2.0583	-2.7938	-2.6021	-2.1562	-2.8458	-2.2042	-2.3229	-2.7667	-2.1104	-2.7125	-2.5333	-1.9229	30.545	192.778	97.478	193.753	185.192	130.532	175.230	132.748	203.871	97.321	152.186	-5.269	-115.641	-14.859	-101.281	154.623	0.00034282	0.0011208	0.00027059	1020.3	5.2836e-06	2.7201e-06	905.95	239.68	1.3816e-05	1.4619e-05	241.95	69.857	71.645	16.174	1.8352e-05	16.761	0.0078826	0.0092113	0.00261	1172.8	0.00010012	0.00010136	978.17	266.34	9.6213e-05	9.9323e-05	285.52	84.871	93.919	21.534	9.8694e-05	24.336	130.656	-22.950	50.664	-102.778	171.307	190.463	-103.785	-98.428	-15.127	136.630	-99.633	-96.028	-94.462	-89.059	22.038	-91.725	-8191	255	
21700.672	1	1	0	0	0.25924	0.104	0.21357	0.040741	0.11331	0.10182	0.27666	0.096318	0.034497	0.1157	0.17189	0.044389	0.30354	0.15391	0.15449	0.25462	-2.5708	-2.35	-2.4271	-2.9521	-2.0958	-2.6667	-3.0125	-2.325	-2.6271	-2.3604	-2.4604	-2.9562	-2.2167	-2.5875	-2.6813	-2	163.438	90.602	-26.496	175.446	94.051	75.622	191.475	74.595	81.058	48.207	-64.166	130.517	-100.458	203.955	73.344	220.957	0.00028335	6.728e-05	0.00018327	1014.8	7.7603e-06	5.8686e-06	896.78	239.13	9.7036e-06	1.0837e-05	244.21	69.688	72.475	16.12	6.522e-06	16.671	0.0080877	0.0095565	0.00271	1182.9	0.00010714	0.00010941	984.01	268.5	0.00010315	0.00010601	289.49	85.553	95.061	21.533	9.697e-05	23.987	167.608	165.102	-90.504	-103.044	-36.015	82.362	-103.896	-98.261	209.651	190.769	-99.503	-96.473	-94.652	-89.051	173.103	-90.871	-8191	255	
21700.768	1	1	0	0	0.30408	0.057765	0.16343	0.0050831	0.099028	0.1251	0.26809	0.12445	0.14584	0.27622	0.35234	0.14447	0.20604	0.16471	0.045021	0.1757	-2.3125	-2.4938	-2.3354	-2.925	-2.2104	-2.4479	-2.725	-2.3146	-2.8375	-2.6208	-2.3063	-2.7438	-2.1312	-2.3083	-2.7208	-2.2646	169.337	-64.705	-93.753	104.271	6.283	-67.060	191.369	207.909	-96.331	88.403	183.830	32.190	146.256	-61.986	225.643	210.473	0.00021315	0.00046973	0.00025876	1022.3	7.6122e-06	5.6794e-06	907.86	240.93	1.9509e-05	9.9649e-06	243.78	70.344	72.647	16.413	3.8075e-06	16.844	0.0076506	0.0088965	0.0025036	1170.7	9.8052e-05	9.9833e-05	981.45	267.91	9.7351e-05	0.00010095	288.3	85.716	94.767	21.601	9.6244e-05	24.062	217.395	-79.864	-86.442	-102.735	-65.924	-8.102	-103.855	-98.171	-2.786	-33.792	-99.820	-96.137	-94.996	-88.882	32.198	-92.285	-8191	255	
21700.840	1	1	0	0	0.13757	0.16381	0.11911	0.18996	0.10601	0.048866	0.27609	0.032687	0.02246	0.1871	0.13889	0.16146	0.11581	0.02582	0.1503	0.11311	-2.4062	-2.4562	-2.0354	-2.8979	-2.1271	-2.3271	-2.9583	-2.0854	-2.7812	-2.8125	-2.0438	-2.8208	-2.3792	-2.0333	-2.8833	-2.0771	177.578	216.503	242.667	212.598	181.353	227.430	196.332	-24.824	-49.918	-16.879	218.263	179.388	-26.003	-72.604	-69.118	195.779	0.0002405	0.00062228	0.00031702	1020.8	1.5626e-05	7.0734e-06	903.47	239.57	1.4163e-05	1.6902e-05	243.53	70.077	72.388	16.091	1.3654e-05	16.619	0.0075783	0.0087979	0.0025181	1168.8	9.6859e-05	9.9688e-05	981.79	266.98	9.74e-05	0.00010297	288.64	85.773	95.375	21.612	9.8485e-05	24.109	33.873	-53.228	26.456	-102.765	187.754	24.799	-103.772	-98.429	141.199	5.926	-99.784	-95.966	-94.639	-89.438	-18.808	-91.513	-8191	255	
21700.936	1	1	0	0	0.040305	0.023508	0.29681	0.25164	0.21556	0.1773	0.15374	0.31312	0.039081	0.1138	0.17413	0.27718	0.11513	0.25132	0.079981	0.25041	-2.3354	-2.6396	-1.9813	-2.8063	-2.2229	-2.3021	-3.0021	-2.1854	-2.4688	-2.6792	-2.2396	-2.7812	-2.4688	-2.2458	-2.8812	-2.1688	-66.962	11.918	126.015	-78.292	235.957	238.407	167.091	-109.335	22.875	38.012	193.565	227.818	96.267	125.705	6.026	227.778	9.5745e-05	0.00090583	0.0004859	1014.1	7.4284e-06	9.4329e-06	905.83	239.51	5.7207e-06	2.9246e-06	243.93	70.729	71.869	16.403	2.6744e-06	16.841	0.0078009	0.0091065	0.00255	1170.1	9.7719e-05	0.00010058	982.04	266.95	9.7149e-05	0.00010209	287.67	86.003	94.903	21.753	9.8589e-05	24.26	62.063	225.828	-21.437	-102.868	68.213	90.682	-103.662	-98.267	17.083	-62.117	-99.512	-96.105	-94.866	-89.523	144.391	-91.466	-8191	255	
21701.055	1	1	0	0	0.22954	0.17715	0.044846	0.20913	0.27904	0.23851	0.034213	0.32625	0.23042	0.12179	0.14616	0.098535	0.12903	0.24572	0.12136	0.19973	-2.0438	-2.7	-2.225	-2.7417	-2.6354	-2.1729	-2.9833	-2.4167	-2.4062	-2.6188	-2.0167	-2.8104	-2.4208	-2.1021	-2.8396	-2.2313	-20.453	65.804	-88.197	175.818	-33.243	124.400	-16.105	98.073	-43.204	196.111	-64.348	-23.052	-11.174	-80.096	132.187	187.677	0.00035636	0.00073748	0.00012564	1019.7	9.1399e-06	1.1068e-05	902.57	240.11	9.6137e-06	5.0364e-06	244.69	70.584	72.454	16.115	1.3355e-05	16.823	0.007867	0.0091087	0.0025297	1174.6	9.7922e-05	0.00010037	982.69	267.62	9.7298e-05	0.0001013	288.58	86.151	95.382	21.746	9.9502e-05	24.269	165.659	84.464	-71.965	-103.147	202.063	143.297	-103.804	-98.340	-16.922	-100.964	-100.063	-95.965	-94.388	-89.486	67.444	-91.794	-8191	255	
21701.150	1	1	0	0	0.152	0.17711	0.082368	0.060577	0.051252	0.21261	0.10041	0.24765	0.13227	0.23071	0.17066	0.0739	0.13163	0.041447	0.088607	0.22369	-1.8	-2.9313	-1.8937	-2.7521	-2.7687	-2.1979	-2.95	-2.4604	-2.1104	-2.9958	-2.2521	-2.6688	-2.5667	-2.1	-2.7458	-2.3854	-107.203	177.680	24.711	-57.298	61.213	201.906	237.037	199.690	155.923	-108.532	-22.963	199.372	-79.372	168.460	-36.982	-15.037	0.00046245	0.00085056	2.0358e-05	1027.7	5.5153e-06	1.2472e-05	911.16	241.18	4.7245e-06	8.6671e-06	245.5	70.325	72.481	16.446	9.9026e-06	16.888	0.0078416	0.0091103	0.0025356	1172.9	9.7104e-05	9.868e-05	985.49	267.78	9.3053e-05	9.7088e-05	287	85.678	94.245	21.64	9.5056e-05	24.125	110.131	16.519	241.015	-102.816	65.932	99.231	-103.609	-98.510	9.595	23.792	-99.884	-96.363	-94.839	-89.336	42.372	-91.905	-8191	255	
21701.246	1	1	0	0	0.022138	0.05581	0.046905	0.22383	0.18104	0.34185	0.17056	0.28228	0.26155	0.10548	0.097484	0.23765	0.16631	0.071188	0.083448	0.030807	-1.7625	-2.8417	-1.9562	-2.6583	-2.7375	-2.0167	-2.9146	-2.5979	-2.2958	-2.9021	-2.3438	-2.4917	-2.7708	-2.1354	-2.8146	-2.6417	92.893	-30.058	180.282	190.184	60.804	149.861	211.512	192.412	-90.233	63.676	121.905	-31.539	202.862	74.437	-90.357	-7.262	0.00026673	0.001401	0.00041191	1026.6	1.0663e-05	1.7815e-05	908.24	240.96	4.6583e-06	5.8841e-06	243.29	69.832	72.368	16.49	1.096e-05	16.573	0.0076277	0.0088644	0.0024954	1174.7	9.6326e-05	9.7176e-05	984.73	267.6	9.3211e-05	9.6501e-05	286.58	85.188	94.258	21.535	9.443e-05	23.947	92.390	-20.824	-46.462	-102.458	32.103	-70.874	-103.600	-98.577	-6.058	221.035	-99.747	-96.290	-94.496	-89.040	-74.683	-91.767	-8191	255	
21701.342	1	1	0	0	0.10165	0.15893	0.12744	0.1947	0.039176	0.070336	0.19977	0.41232	0.36226	0.14382	0.14726	0.18008	0.15253	0.064315	0.11201	0.15797	-1.6542	-2.7938	-2.1729	-2.4958	-2.6813	-2.1979	-2.8625	-2.7396	-2.0208	-3.0667	-2.4167	-2.3812	-2.9167	-2.2146	-2.7708	-2.5917	3.976	233.621	67.110	-47.766	41.765	127.338	119.489	192.247	6.117	231.475	18.460	-78.284	228.522	236.642	-38.385	23.228	0.00051141	0.0020238	0.00026938	1022.5	1.1126e-05	2.9727e-06	910.42	242.44	6.733e-06	8.1004e-06	243.22	70.472	72.706	16.297	3.5814e-06	16.612	0.0076054	0.0087804	0.0024586	1170.5	9.5521e-05	9.6571e-05	984.17	267.41	9.298e-05	9.6415e-05	286.25	85.583	94.158	21.393	9.2472e-05	23.832	-3.621	-23.206	58.586	-102.830	-53.277	104.260	-103.833	-98.456	-87.938	236.745	-99.696	-96.017	-94.790	-89.476	199.977	-91.879	-8191	255	
21701.438	1	1	0	0	0.084229	0.20227	0.040918	0.099592	0.17008	0.18286	0.20752	0.26981	0.11294	0.13434	0.16625	0.25018	0.22093	0.16808	0.29161	0.052058	-1.8271	-2.8604	-2.4375	-2.4333	-2.9229	-2.2313	-2.8229	-2.5792	-2.1625	-2.9104	-2.4021	-2.1167	-3.0104	-2.2354	-2.4021	-2.6979	-0.612	-102.437	-39.166	185.898	213.888	95.319	87.561	-80.972	191.582	-66.156	164.872	225.833	53.305	6.015	162.066	-66.762	0.00015385	0.00093083	0.00025726	1029.6	5.8733e-06	6.849e-06	914.63	241.71	6.3086e-06	1.6786e-05	246.34	70.389	73.072	16.407	6.1905e-06	16.915	0.0073952	0.0085104	0.0023826	1166.5	9.2626e-05	9.3092e-05	982.52	267.22	9.0181e-05	9.3786e-05	287.03	85.248	93.842	21.302	9.1434e-05	23.756	206.999	-111.898	3.774	-103.040	-110.705	-40.920	-104.230	-98.387	63.685	61.312	-99.811	-96.247	-94.717	-89.287	60.823	-91.846	-8191	255	
21701.535	1	1	0	0	0.22949	0.10828	0.20291	0.14971	0.22146	0.29873	0.16135	0.25355	0.28228	0.16107	0.078426	0.12396	0.49151	0.148	0.13608	0.094527	-1.5042	-2.8625	-2.3729	-2.3042	-2.8229	-2.2625	-2.4896	-2.8354	-2.1646	-2.975	-2.6458	-2.0375	-2.8875	-2.2396	-2.2667	-2.8271	150.522	-54.767	66.489	214.711	119.904	94.065	161.383	136.725	184.497	-84.590	-114.824	-56.902	221.867	211.240	212.125	113.098	5.6681e-05	0.00066427	0.00039734	1017.4	1.0002e-05	1.4034e-05	909.29	242.26	4.5943e-06	5.2079e-06	244.86	71.08	72.955	16.35	5.8542e-06	16.634	0.0072956	0.0083974	0.002345	1161.7	9.0589e-05	9.19e-05	979.62	266.15	8.9291e-05	9.2213e-05	286.19	85.221	93.392	21.15	8.9405e-05	23.494	192.338	-27.262	-105.686	-102.918	-74.028	-70.534	-103.842	-98.499	133.438	168.982	-99.884	-96.384	-94.462	-89.536	134.493	-92.203	-8191	255	
21701.631	1	1	0	0	0.22695	0.1197	0.1223	0.068097	0.31861	0.27955	0.44346	0.22586	0.18896	0.24033	0.058273	0.16296	0.1005	0.31894	0.25965	0.15099	-1.7479	-2.7604	-2.6104	-2.3208	-2.8625	-2.2083	-2.6333	-2.8833	-2.0854	-2.6604	-2.6937	-2.0521	-2.8229	-2.2854	-2.1271	-3	67.226	33.444	213.032	-48.368	130.957	-87.061	-113.397	212.597	17.034	148.053	79.467	63.276	165.945	145.301	161.664	161.913	0.00012106	0.0014638	4.2175e-05	1024	5.5115e-06	5.9339e-06	909.44	241.5	1.0179e-05	1.8819e-05	242.86	70.082	72.26	16.195	1.2576e-05	16.519	0.0071029	0.0083062	0.002366	1164.2	9.1177e-05	9.276e-05	981.33	266.57	9.0374e-05	9.4213e-05	285.71	85.042	93.647	21.231	9.2305e-05	23.644	118.200	-79.979	157.825	-103.009	14.408	65.490	-103.993	-98.359	-54.539	76.193	-99.532	-96.182	-95.047	-88.938	-91.106	-91.499	-8191	255	
21701.752	1	1	0	0	0.19503	0.20333	0.14382	0.21486	0.12767	0.16422	0.15222	0.14135	0.20867	0.18298	0.083837	0.15796	0.23996	0.16344	0.1252	0.12032	-1.7687	-2.6063	-2.6958	-2.0167	-3.0708	-2.4958	-2.4188	-2.9188	-2.0333	-2.4354	-2.9479	-1.9688	-2.7083	-2.4437	-2.1292	-2.8854	71.161	139.450	90.482	-115.416	163.893	-55.677	212.202	-109.876	153.855	60.832	210.239	202.563	-85.140	208.988	50.956	243.135	0.00023829	0.00095886	0.00011902	1022.2	6.6361e-06	1.5069e-05	898.48	240.03	1.4254e-05	2.3272e-05	245.99	70.296	72.912	16.249	3.8839e-06	16.723	0.0072889	0.0085317	0.0023808	1163.1	9.1061e-05	9.3189e-05	975.7	265.59	8.7973e-05	9.1752e-05	284.51	84.352	93.121	21.029	8.8356e-05	23.331	-41.718	20.327	-113.000	-102.897	54.268	234.393	-103.751	-98.425	95.259	68.182	-99.573	-96.343	-95.098	-88.874	-32.432	-91.719	-8191	255	
21701.848	1	1	0	0	0.10358	0.074313	0.15851	0.12182	0.062709	0.15974	0.22711	0.25599	0.25621	0.06029	0.27354	0.18505	0.14534	0.21601	0.24413	0.17729	-1.7792	-2.4958	-2.725	-2.1792	-2.5292	-2.4542	-2.2062	-2.9021	-2.3271	-2.2771	-2.7687	-2.2062	-2.6625	-2.6417	-2.0312	-2.8625	132.012	64.693	141.520	-47.481	32.162	232.402	-108.762	179.221	147.328	-113.218	-109.291	158.867	210.146	50.911	190.229	-6.935	0.00012851	0.0015036	0.0003966	1029.4	3.7749e-06	7.8705e-06	901.36	241.91	7.2449e-06	2.2841e-06	246.36	70.561	72.929	16.339	5.8728e-06	16.809	0.0069246	0.0080859	0.0022692	1158.9	8.6616e-05	8.8623e-05	974.14	266.22	8.4799e-05	8.977e-05	285.07	84.367	92.648	21.085	8.6638e-05	23.263	187.630	-6.658	-48.533	-102.936	120.325	180.635	-103.625	-98.355	92.722	-98.572	-100.253	-96.216	-94.531	-89.249	-84.081	-91.971	-8191	255	
21701.943	1	1	0	0	0.1256	0.22261	0.12734	0.19868	0.10586	0.070737	0.037756	0.087871	0.14245	0.1008	0.074361	0.089247	0.20421	0.20194	0.084444	0.098915	-1.8	-2.5292	-2.7812	-2.2	-2.5812	-2.7438	-2.1729	-2.8375	-2.4938	-2.45	-2.9771	-2.2021	-2.6458	-2.6521	-2.1083	-2.8042	-4.333	-84.429	-28.264	215.409	-58.383	-16.550	120.595	242.586	-18.420	107.967	-60.271	3.222	-30.229	-9.838	75.953	-35.906	0.00042619	0.0017575	0.00018744	1025.7	7.0681e-06	8.1177e-06	909.24	242.36	9.3771e-06	1.5768e-06	246.16	70.54	73.259	16.393	1.1045e-05	16.726	0.0068073	0.0080183	0.0022348	1155.5	8.5595e-05	8.772e-05	977.62	265.89	8.2787e-05	8.8065e-05	284.1	84.352	93.163	21.046	8.6854e-05	23.278	111.745	226.373	47.249	-102.542	59.460	27.309	-103.620	-98.304	34.834	-97.920	-99.934	-95.978	-94.526	-89.257	135.244	-91.962	-8191	255	
21702.039	1	1	0	0	0.16987	0.3348	0.31753	0.29182	0.069856	0.037711	0.21349	0.16165	0.15613	0.13221	0.26731	0.053089	0.15971	0.10945	0.12408	0.21259	-1.9167	-2.2417	-2.9542	-2.3688	-2.5812	-2.7354	-2.3083	-2.8937	-2.275	-2.2792	-3.0312	-2.1542	-2.5229	-2.775	-2.1312	-2.8479	182.894	53.128	89.006	143.263	-57.723	-38.070	213.966	134.628	-26.730	-87.202	-81.857	69.529	154.787	-98.057	1.849	221.117	0.00049099	0.00070588	3.8965e-05	1024.1	7.4729e-06	2.2151e-06	907.73	243.3	3.3287e-06	1.2573e-06	245.87	71.121	72.88	16.385	6.5734e-06	16.775	0.0069559	0.0081329	0.0022911	1160.3	8.7885e-05	9.0216e-05	978.74	267.32	8.5631e-05	9.0635e-05	285.77	84.649	93.819	21.212	8.9387e-05	23.454	194.441	-50.783	-58.183	-103.196	212.698	191.960	-103.654	-98.542	-71.803	62.046	-99.366	-96.210	-94.719	-89.334	-8.779	-90.896	-8191	255	
21702.135	1	1	0	0	0.22027	0.098595	0.13171	0.3048	0.1537	0.08937	0.28678	0.42786	0.16708	0.10313	0.1367	0.19131	0.24913	0.23586	0.10108	0.067453	-2.1417	-2.1771	-2.8604	-2.3854	-2.3354	-2.925	-2.2292	-2.7396	-2.5708	-2.1125	-2.9625	-2.4437	-2.3833	-2.9688	-2.025	-2.4833	-74.395	-83.202	118.646	-113.108	-7.200	44.892	218.816	-103.289	68.078	131.156	175.377	225.276	219.776	231.420	195.577	0.807	0.00036079	0.0012662	0.00013662	1024.3	4.3059e-06	1.6815e-05	901.78	242.48	1.4536e-05	1.2723e-05	243.7	70.799	72.292	16.298	9.8116e-06	16.473	0.00715	0.0084246	0.0023432	1165.8	9.1411e-05	9.3385e-05	977.14	267.96	9.0165e-05	9.4488e-05	285.8	84.922	94.1	21.262	9.1718e-05	23.574	221.775	38.762	54.257	-102.894	217.493	-3.765	-103.505	-98.230	190.005	210.494	-99.439	-96.335	-94.367	-89.384	61.049	-91.579	-8191	255	
21702.230	1	1	0	0	0.23304	0.038377	0.18736	0.049072	0.2759	0.16129	0.050651	0.2191	0.24342	0.022195	0.048755	0.12907	0.26487	0.15677	0.03574	0.12609	-2.3146	-2.0563	-2.6167	-2.2188	-2.3	-2.7833	-2.4396	-2.7625	-2.4604	-2.0354	-2.9833	-2.4042	-2.3875	-3.0042	-2.2167	-2.6208	-90.659	104.047	-19.047	-60.051	-71.955	208.716	181.258	183.907	133.702	-114.970	212.430	85.972	236.771	122.227	114.864	49.765	0.0001355	0.00063914	0.00013679	1024.2	1.3733e-06	6.2399e-06	904.89	242.12	1.2927e-05	1.6732e-05	244.99	69.571	72.575	16.285	1.2214e-05	16.53	0.0073972	0.0085829	0.0023965	1167.1	9.348e-05	9.478e-05	978.05	268.53	9.1284e-05	9.4853e-05	286.63	84.976	94.356	21.323	9.14e-05	23.569	175.818	-1.471	-100.868	-102.899	158.529	22.052	-103.803	-98.237	83.429	-2.561	-99.713	-96.111	-94.964	-89.069	-17.907	-90.886	-8191	255	
21702.352	1	1	0	0	0.31526	0.1895	0.36625	0.082861	0.11466	0.1729	0.041077	0.43071	0.066741	0.1927	0.076297	0.12343	0.084034	0.2092	0.11995	0.17093	-2.4229	-2.0729	-2.7167	-2.6708	-2.2083	-2.8708	-2.5083	-2.4167	-2.8438	-2.2104	-2.8708	-2.7583	-2.2729	-2.8292	-2.0062	-2.5208	217.344	50.630	67.803	240.036	172.007	121.243	241.967	197.086	85.373	26.716	-81.706	-112.868	199.485	-90.894	33.291	229.499	0.00027873	0.00071801	0.00018853	1014.8	2.9707e-06	8.1902e-06	898.53	242.31	1.6729e-05	4.8049e-06	243.71	70.159	72.788	16.338	2.029e-05	16.485	0.0073011	0.0084772	0.002371	1163.6	9.2471e-05	9.3375e-05	975.34	268.29	9.0308e-05	9.4189e-05	286.05	85.057	94.523	21.341	9.2133e-05	23.761	170.049	59.822	124.726	-102.706	-87.418	138.838	-103.631	-98.156	-17.848	-93.286	-99.499	-95.958	-94.371	-89.577	-40.093	-91.362	-8191	255	
21702.447	1	1	0	0	0.050371	0.22224	0.10114	0.11375	0.10647	0.12417	0.15396	0.10815	0.193	0.34922	0.18436	0.10252	0.052156	0.071874	0.18246	0.13259	-2.5583	-2.1688	-2.9854	-2.7583	-2.125	-2.9875	-2.2958	-2.4604	-2.9292	-2.0021	-2.5208	-2.6896	-2.1917	-3.0146	-2.2875	-2.3042	61.988	151.254	219.880	21.969	209.337	10.435	161.704	-75.951	173.715	48.137	193.997	207.297	-62.568	127.501	-0.302	155.923	0.0004015	0.00059737	0.0002934	1014.9	5.145e-06	7.6814e-07	897.68	240.84	1.1634e-05	1.4443e-05	246.67	70.573	72.175	16.216	8.2879e-06	16.357	0.0074215	0.0085558	0.0024035	1166.5	9.3516e-05	9.4699e-05	975.85	268.11	9.1672e-05	9.4973e-05	287.16	85.381	94.456	21.292	9.3279e-05	23.744	132.845	239.469	-35.347	-102.568	69.091	-44.762	-103.931	-98.098	41.909	183.220	-99.469	-96.044	-94.508	-89.757	240.773	-91.868	-8191	255	
21702.543	1	1	0	0	0.041725	0.44623	0.085135	0.19259	0.1991	0.18744	0.46452	0.14075	0.26233	0.1881	0.096184	0.17128	0.10168	0.2399	0.2364	0.17465	-2.4354	-2.0979	-2.5583	-2.6333	-1.9604	-2.7292	-2.5729	-2.4062	-2.85	-2.1708	-2.4854	-2.8396	-2.2146	-2.8083	-2.6542	-2.3354	-57.390	-89.971	67.958	126.192	-100.441	-36.177	190.908	103.118	4.320	165.131	-13.517	-90.706	-73.886	129.680	57.951	154.706	0.00046034	0.0017762	0.00031483	1009.2	1.199e-05	9.9495e-06	894.78	241.23	7.8387e-06	1.2845e-05	242.19	70.392	71.673	16.176	1.4879e-05	16.372	0.0075569	0.0086597	0.0024639	1164.9	9.5947e-05	9.7327e-05	976.21	268.15	9.283e-05	9.5742e-05	286.77	85.206	94.09	21.265	9.4408e-05	23.723	96.248	-47.589	60.882	-102.804	-110.324	-42.534	-103.480	-98.072	-30.579	2.374	-99.750	-95.785	-94.220	-89.820	124.320	-91.545	-8191	255	
21702.639	1	1	0	0	0.18579	0.23335	0.089719	0.22153	0.21355	0.17744	0.38597	0.086278	0.12858	0.15021	0.14186	0.14077	0.13872	0.16966	0.22851	0.076111	-2.5271	-2.1333	-2.5958	-2.7125	-2.0167	-2.6437	-2.6208	-2.2562	-2.8229	-2.3292	-2.4125	-3.0146	-2.0146	-2.8417	-2.7417	-2.1542	-99.341	122.455	7.798	192.257	149.408	109.128	229.507	155.158	173.809	-51.891	-111.195	151.703	155.853	102.129	-27.220	185.385	5.0498e-05	0.0014256	3.3697e-05	1013.9	3.1877e-06	1.7114e-05	891.67	237.96	8.1513e-06	2.1973e-05	242.02	69.287	71.607	16.043	1.168e-05	16.236	0.0074945	0.0087138	0.0024995	1167.8	9.6354e-05	9.8562e-05	973.77	266.76	9.5011e-05	9.9471e-05	287.35	85.109	94.918	21.516	0.0001001	24.04	157.993	-60.458	184.575	-102.891	-8.764	230.431	-103.630	-98.174	67.367	147.919	-99.600	-96.309	-94.569	-89.388	-90.347	-91.291	-8191	255	
21702.711	1	1	0	0	0.13607	0.23609	0.093725	0.18099	0.099023	0.1396	0.19514	0.3072	0.17968	0.11012	0.197	0.13198	0.069636	0.073738	0.13375	0.091107	-2.5417	-2.1833	-2.2917	-2.925	-2.0167	-2.6042	-2.7917	-2.0167	-2.925	-2.3646	-2.4271	-2.9125	-2.0917	-2.6312	-2.8438	-2.2104	-91.522	199.011	186.512	157.424	-31.939	-46.752	124.146	164.694	130.258	133.999	-86.558	99.996	150.325	141.065	-3.515	168.935	0.00067124	0.00065075	0.00017959	1009.9	1.4868e-05	2.5506e-05	890.44	238.26	1.5655e-05	1.8819e-05	242.26	69.617	71.023	15.984	2.9575e-05	16.505	0.0080408	0.0093874	0.002639	1175.3	0.00010096	0.00010268	978.33	268.37	9.7867e-05	0.0001024	288.98	85.879	95.152	21.614	0.00010063	24.204	165.406	6.973	-9.710	-102.779	103.317	102.406	-103.787	-98.396	-84.372	109.196	-99.808	-96.096	-95.028	-89.768	-29.462	-92.151	-8191	255	
21702.832	1	1	0	0	0.23172	0.056639	0.11637	0.09442	0.058502	0.072505	0.13901	0.10027	0.11868	0.06431	0.21645	0.018356	0.01468	0.18397	0.23004	0.06206	-2.5479	-2.3688	-2.1979	-2.9333	-2.4125	-2.6167	-2.9146	-2.3042	-2.7687	-2.4583	-2.1042	-2.9896	-2.0854	-2.4458	-2.8167	-2.0938	233.098	50.302	152.991	-93.785	208.204	49.477	164.317	72.959	154.837	-7.982	194.671	-96.945	210.785	199.422	29.792	169.257	0.00024851	0.0015242	0.0001801	1008.2	5.2346e-06	8.3652e-06	890.86	238.04	8.5998e-06	1.3867e-05	242.95	70.41	72.566	16.192	7.0532e-06	16.56	0.0079401	0.0092862	0.0026146	1172	9.9998e-05	0.00010283	978.66	268.37	9.8984e-05	0.00010433	290.27	86.146	95.984	21.857	0.00010279	24.21	37.913	225.632	-109.159	-102.814	-9.436	-77.622	-103.901	-98.320	201.009	225.334	-99.715	-96.294	-94.946	-88.792	223.480	-92.302	-8191	255	
21702.928	1	1	0	0	0.03481	0.10907	0.12311	0.089369	0.069766	0.15355	0.26046	0.11665	0.32157	0.16983	0.23567	0.056869	0.10755	0.15807	0.11813	0.11469	-2.1146	-2.5354	-2.0396	-3.1063	-2.2271	-2.2188	-3.15	-2.0833	-2.6417	-2.5396	-2.1813	-2.8875	-2.3333	-2.4125	-2.7062	-2.075	71.951	159.248	16.164	51.757	237.477	200.203	212.059	76.233	101.505	-14.033	122.177	-48.528	-90.640	35.447	-2.156	195.785	0.00015948	0.00063774	0.00010912	1019.2	9.3126e-06	9.0509e-06	902.61	239.68	1.154e-05	1.7896e-05	246.38	70.356	72.077	16.11	1.1923e-05	16.484	0.0080533	0.0093441	0.0026106	1172.9	9.9412e-05	0.00010203	982.09	268.57	9.5831e-05	0.0001015	289.5	85.91	95.373	21.648	9.832e-05	24.028	39.322	202.076	-26.265	-102.912	-80.946	-17.798	-103.740	-98.408	37.334	77.526	-99.738	-96.497	-94.609	-89.239	223.304	-91.384	-8191	255	
21703.023	1	1	0	0	0.24736	0.011359	0.1402	0.23457	0.077245	0.075005	0.070452	0.18885	0.19655	0.22241	0.41379	0.16771	0.35358	0.23437	0.11212	0.086759	-1.9688	-2.6167	-2.1354	-2.8021	-2.2771	-2.3854	-3.15	-1.9562	-2.4813	-2.7979	-1.9917	-2.8729	-2.4292	-2.1125	-2.9583	-2.1646	-88.639	3.160	226.603	243.075	243.216	27.989	43.938	142.924	-84.168	239.615	-59.976	229.012	209.477	144.058	201.106	207.311	0.00039294	0.00041562	0.00023251	1019.2	9.4989e-06	1.3788e-05	906.63	241.07	2.0543e-05	1.5681e-05	246.02	71.718	73.509	16.343	7.6697e-06	16.863	0.0077649	0.0091199	0.0025154	1171.5	9.6872e-05	9.9005e-05	982.69	268.44	9.3629e-05	9.6916e-05	287.96	85.964	95	21.472	9.2049e-05	23.694	160.653	84.850	84.121	-102.756	149.768	-15.174	-103.570	-98.371	-33.432	37.701	-99.761	-96.016	-95.196	-88.737	59.280	-91.356	-8191	255	
21703.143	1	1	0	0	0.19653	0.14222	0.11053	0.20345	0.097216	0.32774	0.20874	0.053712	0.16112	0.032007	0.16071	0.17468	0.18075	0.16931	0.11813	0.15779	-2.1042	-2.9708	-2.1417	-2.8063	-2.3771	-2.2	-2.8729	-2.2208	-2.4271	-2.9833	-2.2854	-2.5729	-2.5771	-2.0958	-2.9354	-2.475	119.155	219.559	150.079	115.142	22.914	19.574	106.502	41.586	-63.931	-85.701	-97.263	118.848	200.573	211.199	158.207	9.851	0.00019643	0.00081123	0.00023599	1023.8	1.0383e-05	4.4234e-06	904.92	242.81	1.398e-05	8.677e-06	246.42	71.172	73.372	16.232	1.0316e-05	16.848	0.0073247	0.0086648	0.0024089	1169.2	9.4212e-05	9.6042e-05	984.01	269.68	9.2464e-05	9.7549e-05	289.02	85.956	95.256	21.581	9.5063e-05	23.968	115.441	-62.404	32.134	-102.754	-49.505	59.665	-103.558	-98.393	-33.375	169.246	-99.643	-95.432	-94.719	-89.085	-6.178	-91.978	-8191	255	
21703.238	1	1	0	0	0.083711	0.19734	0.25794	0.056922	0.11608	0.13347	0.31511	0.07851	0.04233	0.026173	0.1208	0.062495	0.17284	0.062135	0.13377	0.14361	-2.0354	-2.6604	-2.0792	-2.6104	-2.7292	-2.2083	-2.8312	-2.3625	-2.2042	-3.1292	-2.0563	-2.6792	-2.7	-2.1646	-2.7188	-2.4042	187.345	51.926	-87.148	218.765	169.448	152.882	156.113	169.156	107.029	27.616	-2.977	-17.491	31.434	145.032	-99.085	-112.902	0.00039463	0.00085075	0.00028397	1019.5	9.5285e-06	2.2303e-06	910.55	241.23	7.3979e-06	9.0071e-06	244.72	70.622	72.76	16.412	6.4954e-06	16.964	0.0075936	0.0087686	0.0024674	1171.9	9.7319e-05	9.8626e-05	984.47	269.93	9.6046e-05	9.9315e-05	289.37	86.326	95.45	21.641	9.6431e-05	24.089	106.250	55.954	21.604	-102.984	53.294	97.098	-103.406	-98.030	142.617	177.482	-99.139	-96.273	-93.932	-88.931	-33.474	-91.361	-8191	255	
21703.312	1	1	0	0	0.051189	0.19662	0.053075	0.3682	0.089213	0.12326	0.14035	0.11626	0.066662	0.05119	0.11572	0.12527	0.10823	0.10267	0.081484	0.23437	-1.7646	-3	-2.1854	-2.7292	-2.9125	-2.0187	-2.9813	-2.5062	-2.2479	-3.025	-2.2	-2.5563	-2.8542	-2.0146	-2.8937	-2.6875	98.105	202.386	-93.037	164.421	-43.859	225.455	201.161	119.198	106.154	228.911	50.879	-82.122	152.601	237.392	-53.622	192.876	0.00016114	0.0006407	0.0001723	1015.3	8.711e-06	1.3492e-05	906.68	242.65	1.0624e-05	5.9324e-06	246.13	70.292	72.328	16.287	1.4452e-05	16.478	0.0078065	0.0089548	0.0025339	1174.4	9.8234e-05	9.8985e-05	985.24	269.39	9.5908e-05	9.8984e-05	288.81	86.021	95.317	21.61	9.579e-05	23.967	146.137	168.671	224.870	-102.775	91.579	40.026	-103.713	-98.394	-66.686	-23.004	-99.886	-96.327	-94.350	-89.332	77.041	-91.261	-8191	255	
21703.432	1	1	0	0	0.12305	0.23369	0.19654	0.055031	0.15537	0.14241	0.2885	0.22115	0.23317	0.089261	0.11183	0.092421	0.03165	0.060829	0.23613	0.31097	-1.8229	-2.9417	-2.3312	-2.6104	-2.9229	-2.1479	-2.8771	-2.6021	-2.0167	-2.9688	-2.4042	-2.3937	-2.9	-2.0771	-2.7417	-2.8667	-81.926	96.375	188.996	-81.871	228.256	-108.490	212.476	168.810	154.120	222.364	102.350	-112.778	-113.789	-15.895	-104.066	100.977	0.00025132	0.00029121	0.00015185	1020.6	1.6095e-06	4.0956e-06	902.2	241.68	7.7447e-06	8.0744e-06	245.2	69.934	72.671	16.159	1.0594e-05	16.569	0.0077364	0.0088904	0.0025006	1174.8	9.6338e-05	9.7305e-05	981.67	268.77	9.3563e-05	9.5958e-05	287.4	85.63	94.524	21.394	9.4471e-05	23.788	101.409	141.129	161.545	-102.794	139.402	55.779	-103.654	-98.436	171.994	35.523	-99.733	-95.965	-94.904	-89.286	-114.436	-92.403	-8191	255	
21703.527	1	1	0	0	0.18908	0.17514	0.081727	0.25574	0.097801	0.14906	0.25107	0.29803	0.29546	0.04155	0.26779	0.29854	0.15239	0.13962	0.076536	0.07213	-1.7667	-2.9083	-2.4604	-2.1458	-2.8417	-2.1333	-2.7375	-2.9	-1.9875	-2.7833	-2.4208	-2.1896	-2.7333	-2.1688	-2.4646	-2.7708	198.405	-56.831	-94.384	-55.833	-88.198	-98.517	167.944	225.027	89.467	-43.872	49.565	217.739	210.916	147.917	-25.165	119.885	0.00013384	0.0013755	0.00043725	1020.5	1.1154e-05	4.9597e-06	911.4	244.79	4.3395e-06	1.368e-06	246.3	71.269	73.66	16.36	1.7249e-05	16.753	0.0076167	0.0088413	0.0024818	1172.2	9.6277e-05	9.7779e-05	983.65	269.81	9.4258e-05	9.7854e-05	288.87	85.95	95.276	21.537	9.6139e-05	23.972	126.537	32.021	-103.144	-102.636	-39.117	177.888	-104.022	-99.263	37.438	50.994	-100.479	-96.868	-95.786	-90.088	135.429	-93.066	-8191	255	
21703.623	1	1	0	0	0.099458	0.19598	0.10466	0.1104	0.28019	0.031736	0.32188	0.13114	0.082722	0.035309	0.17919	0.23526	0.070619	0.14374	0.28737	0.17087	-1.7729	-2.8229	-2.3375	-2.2729	-3.0625	-2.1729	-2.6583	-2.775	-1.8979	-2.6458	-2.6875	-2.1979	-3.0708	-2.2458	-2.3792	-3.1146	142.637	-27.802	61.080	-34.503	-117.079	-95.177	148.320	177.777	-59.953	-111.640	-103.569	71.732	193.858	-76.615	207.047	-83.528	0.00022867	0.00063668	0.0004884	1039.7	6.5973e-06	1.0523e-05	918.33	243.74	9.3966e-06	8.1782e-06	247.22	71.246	73.499	16.505	1.4599e-05	16.85	0.0074998	0.0086739	0.0024494	1174.6	9.2907e-05	9.5017e-05	985.17	268.88	9.1083e-05	9.578e-05	288.78	86.018	95.034	21.558	9.6022e-05	23.966	41.922	197.149	158.257	-103.298	54.784	-5.902	-104.524	-99.225	-21.327	-28.509	-100.503	-96.667	-95.326	-90.308	-70.955	-92.666	-8191	255	
21703.744	1	1	0	0	0.035958	0.21184	0.067444	0.31201	0.050393	0.081568	0.10526	0.10015	0.17873	0.097526	0.26263	0.058476	0.063055	0.17561	0.029187	0.15169	-1.6688	-2.8063	-2.45	-2.2292	-2.5938	-2.3063	-2.4896	-2.8271	-2.2021	-2.5458	-2.6646	-1.9792	-2.9	-2.3208	-2.0771	-2.9062	100.191	236.889	59.652	226.328	67.959	-102.656	70.017	218.308	-58.514	141.419	122.241	215.158	87.538	190.850	7.329	92.304	0.00017197	0.0009461	0.00025154	1037	8.6199e-06	1.3588e-05	911.51	243.11	7.3385e-06	2.1184e-05	249.34	72.321	74.099	16.301	1.5525e-05	16.859	0.0076042	0.008931	0.0025392	1178	9.6927e-05	9.8214e-05	985.63	269.69	9.3715e-05	9.8115e-05	290.21	86.409	95.763	21.541	9.581e-05	23.946	209.056	187.331	2.436	-103.811	-30.345	73.806	-104.629	-99.281	157.728	52.508	-100.858	-97.323	-95.393	-90.721	-14.682	-93.144	-8191	255	
21703.840	1	1	0	0	0.26406	0.03466	0.11717	0.079721	0.25944	0.057469	0.086382	0.19118	0.23852	0.032716	0.23863	0.19916	0.2237	0.28313	0.29994	0.13642	-1.5646	-2.4875	-2.5521	-2.1167	-2.8021	-2.2812	-2.325	-3.025	-2.175	-2.3479	-2.75	-2.1125	-2.6833	-2.425	-2.2229	-2.9229	220.179	170.858	139.609	-90.911	222.568	133.229	179.564	120.881	70.932	-24.070	116.909	-98.390	-114.826	162.411	-19.883	164.212	0.00021095	0.00044643	0.00032517	1033.2	1.3239e-05	7.2429e-06	915.67	246.25	1.8127e-05	1.58e-05	247.27	71.12	74.23	16.457	9.9974e-06	16.975	0.0075085	0.0086833	0.0024391	1173.5	9.3393e-05	9.5427e-05	984.36	269.55	9.2136e-05	9.7983e-05	289.6	86.233	95.777	21.568	9.6596e-05	23.802	-47.293	-72.754	-8.738	-103.426	146.810	83.607	-104.500	-99.251	-62.765	56.469	-100.448	-97.269	-95.565	-89.725	228.733	-92.776	-8191	255	
21703.936	1	1	0	0	0.26063	0.068169	0.42172	0.20065	0.15227	0.18012	0.25252	0.24074	0.28861	0.14191	0.19405	0.13288	0.223	0.18917	0.20188	0.11664	-1.8083	-2.4583	-2.7833	-2.0875	-2.6417	-2.6583	-2.3063	-2.9354	-2.1667	-2.2375	-3.1021	-2.1021	-2.7625	-2.6875	-2.1854	-2.8333	239.853	-23.427	-73.027	114.565	171.151	212.334	159.137	159.606	21.927	242.481	184.251	22.835	215.750	183.821	141.914	-32.414	0.00036163	0.0023447	0.00030685	1030.4	1.3158e-05	5.4209e-06	913.42	244.68	9.3462e-06	2.5646e-05	247.52	71.395	74.176	16.367	1.4958e-06	16.853	0.0075737	0.0088246	0.0024509	1171	9.4712e-05	9.6831e-05	982.73	269.36	9.2712e-05	9.7463e-05	288.86	85.796	95.173	21.41	9.4624e-05	23.897	114.251	137.553	-10.843	-103.727	60.398	-37.212	-104.468	-98.964	25.560	-7.198	-100.614	-96.435	-95.494	-89.899	-114.166	-92.226	-8191	255	
21704.008	1	1	0	0	0.059726	0.11124	0.039086	0.29392	0.32246	0.12871	0.26073	0.1208	0.066645	0.17123	0.12893	0.23681	0.23262	0.10597	0.34157	0.19718	-1.9458	-2.25	-2.7438	-2.1896	-2.5396	-2.5396	-2.2271	-2.8708	-2.4479	-2.2729	-2.9333	-2.1542	-2.6104	-2.7188	-2.0312	-2.9646	40.800	-94.802	-90.704	154.360	94.076	163.749	126.053	124.424	123.042	80.341	161.743	127.846	228.434	-68.227	-80.475	75.931	0.0003505	0.00070352	0.0004638	1038.4	6.3127e-06	1.5388e-05	915.67	245.79	5.3735e-06	9.1947e-06	248.31	71.818	74.648	16.399	8.2051e-06	16.826	0.0075257	0.0088545	0.0024727	1174.7	9.5706e-05	9.7519e-05	983.86	270.09	9.2178e-05	9.6757e-05	288.33	85.841	94.91	21.444	9.3167e-05	23.75	117.744	-33.855	134.068	-103.830	-64.058	-93.442	-104.479	-98.954	-21.506	6.046	-100.389	-97.174	-95.273	-90.038	208.318	-92.359	-8191	255	
21704.127	1	1	0	0	0.03998	0.16325	0.20626	0.083397	0.19483	0.2416	0.10394	0.16619	0.30406	0.11698	0.2857	0.25987	0.10005	0.10832	0.27402	0.14534	-1.9833	-2.2146	-2.8479	-2.2417	-2.4042	-2.8375	-2.2938	-2.7479	-2.6104	-2.0583	-2.9042	-2.1646	-2.6708	-2.9938	-2.1542	-2.8917	210.631	171.152	138.637	10.380	209.605	30.740	219.452	206.196	76.499	192.649	188.896	-43.215	84.800	143.488	155.562	-66.023	0.00017762	0.00056536	0.00039082	1038.6	9.2802e-06	1.5109e-05	918.41	245.03	1.1493e-05	2.1267e-05	248.35	71.557	73.652	16.371	6.9153e-06	16.724	0.0074668	0.0087812	0.0024392	1176.2	9.516e-05	9.707e-05	986.13	270.4	9.3319e-05	9.7021e-05	290.11	86.263	95.604	21.573	9.6647e-05	24.056	240.467	-92.725	89.074	-103.419	-23.245	-83.803	-104.583	-98.867	56.554	-3.437	-100.480	-96.734	-95.811	-90.008	228.036	-92.269	-8191	255	
21704.223	1	1	0	0	0.1646	0.059012	0.25091	0.35291	0.28102	0.22874	0.20405	0.05666	0.11731	0.20321	0.11198	0.17051	0.16387	0.24976	0.081003	0.087778	-2.0563	-2.0396	-3.0208	-2.3646	-2.4708	-2.8583	-2.2938	-2.8208	-2.7938	-2.1479	-2.9042	-2.3833	-2.2833	-2.8333	-1.9083	-2.6979	150.933	-19.501	34.843	-85.123	-88.259	-18.926	151.751	-0.873	165.714	26.613	158.220	204.968	-18.881	-70.456	-49.180	157.542	0.00076133	0.0002868	0.00039982	1034.6	5.157e-06	8.5639e-06	918.9	245.48	9.0918e-06	8.9642e-06	249.03	71.651	74.473	16.499	1.0413e-05	16.597	0.0077436	0.0090505	0.0025176	1178.7	9.7442e-05	9.8471e-05	987.96	271.08	9.4199e-05	9.9012e-05	289.78	86.361	96.155	21.605	9.608e-05	23.927	152.075	153.656	-8.634	-103.862	-13.002	-108.714	-104.222	-99.202	-58.952	104.680	-99.858	-97.228	-95.488	-89.608	75.676	-92.050	-8191	255	
21704.318	1	1	0	0	0.073431	0.24424	0.020619	0.22929	0.17335	0.053458	0.34428	0.20039	0.0097901	0.13034	0.19064	0.17779	0.030937	0.25345	0.16871	0.066705	-2.275	-1.9625	-2.9667	-2.4	-2.15	-2.9708	-2.3625	-2.7417	-2.7354	-2.1021	-2.7917	-2.4333	-2.1979	-3.0042	-2.0542	-2.6917	77.549	67.870	239.921	163.373	167.596	6.090	173.312	179.289	6.255	58.051	200.749	-81.626	150.447	-31.955	112.515	-4.500	0.00036421	0.00065946	0.00033115	1029	4.9983e-06	6.3903e-06	908.85	244.56	1.3631e-05	1.1409e-05	248.04	72.009	74.175	16.45	9.5021e-06	16.472	0.0077141	0.0090286	0.00252	1177.4	9.8568e-05	9.9314e-05	982.32	270.44	9.589e-05	9.9595e-05	289.66	86.515	95.954	21.668	9.7385e-05	24.065	194.847	-27.534	4.993	-103.612	114.216	-62.193	-104.507	-98.947	207.101	-67.332	-100.307	-96.960	-95.496	-90.002	141.701	-91.997	-8191	255	
21704.416	1	1	0	0	0.22544	0.25187	0.17595	0.31465	0.15211	0.11012	0.35036	0.25835	0.12397	0.12638	0.16355	0.37393	0.34109	0.16575	0.3608	0.22338	-2.3292	-1.9688	-2.6667	-2.3667	-1.9833	-2.9271	-2.3833	-2.2667	-2.7208	-2.15	-2.5187	-2.5271	-2.1271	-2.9292	-2.3333	-2.3729	158.751	20.985	132.489	99.066	115.099	126.014	166.743	186.083	-77.928	135.123	3.494	141.568	203.792	183.073	-9.302	135.366	0.00028048	0.0010689	0.00043034	1035.1	1.3205e-05	4.2767e-06	917.6	245.48	1.3579e-05	7.0544e-06	247.22	71.279	73.62	16.418	2.2113e-05	16.921	0.0077813	0.0089988	0.0025365	1179.9	9.7828e-05	9.8537e-05	986.34	270.22	9.5277e-05	9.8466e-05	289.64	86.142	95.594	21.568	9.6257e-05	24.058	118.017	-103.269	-15.705	-103.408	-24.452	110.555	-104.472	-98.991	-43.780	-102.078	-100.338	-97.081	-95.117	-89.663	43.481	-92.287	-8191	255	
21704.535	1	1	0	0	0.21148	0.22226	0.10498	0.068354	0.053998	0.096339	0.12623	0.18943	0.14999	0.13917	0.19969	0.10168	0.23003	0.23064	0.063542	0.15397	-2.4146	-2.0521	-2.6063	-2.7875	-2.1521	-2.8104	-2.2479	-2.3104	-2.8875	-2.0812	-2.6229	-2.85	-1.9354	-2.7188	-2.2625	-2.1104	151.281	-112.218	-57.076	179.655	-72.100	34.752	90.365	-56.921	122.381	17.407	225.604	45.365	-24.133	189.854	19.049	190.664	6.8001e-05	0.00037051	0.00021839	1031.8	6.1757e-06	7.8634e-06	915.63	245.74	1.2741e-05	7.4386e-06	249.76	71.552	73.864	16.497	5.1241e-06	16.75	0.0076665	0.0088485	0.0025012	1176.5	9.6479e-05	9.7569e-05	986.78	271.07	9.3284e-05	9.7116e-05	290.13	86.679	95.589	21.51	9.3917e-05	23.934	212.241	33.512	-29.199	-103.409	198.147	88.556	-104.290	-98.987	44.624	25.183	-100.333	-96.548	-95.144	-89.672	-15.883	-91.979	-8191	255	
21704.607	1	1	0	0	0.10811	0.25595	0.053743	0.061578	0.14359	0.20476	0.23424	0.15901	0.30161	0.22552	0.10827	0.23748	0.17581	0.28273	0.054023	0.13471	-2.4688	-1.9521	-2.5833	-2.7354	-2.1167	-2.9167	-2.6562	-2.2583	-2.8375	-2.2208	-2.5146	-2.6167	-2.2062	-2.8187	-2.6021	-2.1167	-67.003	-111.115	61.293	171.537	6.627	86.882	183.743	225.035	-84.342	116.432	133.286	-49.112	80.685	177.343	-44.668	145.943	0.00017041	0.00047672	0.00012689	1042.1	7.5345e-06	1.5651e-05	925.72	247.72	4.2392e-06	1.7086e-05	251.92	72.659	74.292	16.646	4.2535e-06	16.874	0.0074528	0.0086622	0.0024509	1180	9.4874e-05	9.6364e-05	990.13	271.95	9.2393e-05	9.6136e-05	291.26	86.855	95.699	21.526	9.4119e-05	23.875	133.964	89.335	74.234	-103.255	86.193	65.996	-104.312	-98.594	13.990	144.728	-99.642	-96.812	-94.910	-90.268	136.346	-92.410	-8191	255	
21704.703	1	1	0	0	0.18872	0.30323	0.024475	0.02555	0.030748	0.010609	0.29315	0.16254	0.08455	0.27018	0.20837	0.081393	0.061636	0.3117	0.12342	0.13304	-2.3646	-2.3104	-2.525	-2.8875	-2.0958	-2.7354	-2.7792	-2.0812	-2.8354	-2.2542	-2.3896	-2.8854	-2.1333	-2.7146	-2.5625	-2.1	-85.856	94.783	127.789	227.947	55.003	97.501	-108.945	89.268	143.898	0.469	184.439	-98.375	237.236	141.905	124.173	94.078	0.00010688	0.00073674	0.00030666	1044.8	1.2677e-05	6.9529e-06	916.95	248.55	1.2631e-05	1.6559e-05	251.69	72.411	74.379	16.504	1.073e-05	16.83	0.0075029	0.0087366	0.0024449	1180.4	9.4286e-05	9.6099e-05	988.32	271.63	9.15e-05	9.4228e-05	290.92	86.421	95.488	21.408	9.2461e-05	23.636	-108.899	69.414	-28.355	-103.608	233.859	109.813	-104.277	-98.861	-67.354	-14.291	-99.738	-96.906	-95.358	-90.466	-89.265	-92.940	-8191	255	
21704.824	1	1	0	0	0.18411	0.24896	0.29154	0.14719	0.22166	0.1287	0.18953	0.3045	0.1572	0.17589	0.19983	0.21866	0.11915	0.39442	0.34431	0.16164	-2.4271	-2.2271	-2.1917	-2.8937	-1.95	-2.8042	-2.7146	-2.2417	-2.8292	-2.3083	-2.3833	-3.0792	-2.2042	-2.6271	-2.625	-2.0229	14.343	-33.929	51.372	114.981	170.733	-102.571	190.082	216.496	26.794	-94.838	13.280	172.096	190.843	218.955	126.426	206.060	0.00037007	0.00098998	0.00018078	1041.6	5.573e-06	7.2063e-06	923.45	248.71	1.1451e-05	6.3871e-06	250.76	72.471	74.78	16.637	1.0984e-05	16.808	0.0073515	0.0085636	0.0024066	1179.1	9.2838e-05	9.4703e-05	991.11	272.19	9.1262e-05	9.5599e-05	291.75	86.501	95.722	21.562	9.391e-05	23.888	211.981	-23.724	206.325	-104.049	-115.369	98.346	-105.001	-99.481	12.875	208.117	-100.656	-97.316	-96.179	-90.472	124.412	-92.722	-8191	255	
21704.922	1	1	0	0	0.10657	0.17821	0.010963	0.18756	0.19846	0.14207	0.27201	0.070909	0.10165	0.063703	0.24314	0.13308	0.11262	0.096807	0.15965	0.28109	-2.4062	-2.4792	-1.9979	-2.9188	-2.0229	-2.5875	-2.9375	-2.2354	-2.7062	-2.6125	-2.225	-2.8375	-2.1021	-2.4729	-2.7542	-2.0375	192.476	94.284	238.092	160.913	14.626	-43.474	208.304	-93.066	-54.352	221.054	-43.064	234.396	144.197	178.289	206.124	198.992	0.00030214	0.00026951	0.00036824	1041.5	1.0525e-05	1.9313e-05	921.17	247.68	1.3733e-05	1.4991e-05	249.82	72.149	73.455	16.496	2.6268e-06	16.779	0.0075166	0.0087544	0.0024737	1179.9	9.5927e-05	9.7814e-05	993.26	272	9.5628e-05	9.9852e-05	292.98	87.174	96.472	21.806	9.8577e-05	24.227	125.068	227.355	-61.139	-104.225	177.385	59.219	-105.367	-99.549	72.599	124.969	-100.656	-97.723	-95.683	-90.693	153.037	-92.524	-8191	255	
21705.016	1	1	0	0	0.11803	0.3093	0.096444	0.19033	0.079521	0.063729	0.22975	0.16188	0.17812	0.25416	0.27288	0.16531	0.17113	0.2905	0.17543	0.041127	-2.3438	-2.4854	-2.0833	-2.9146	-2.4417	-2.1917	-3.0521	-2.2729	-2.6521	-2.5896	-2.2438	-2.8979	-2.4354	-2.3229	-2.7854	-2.1396	60.819	241.397	-83.229	185.228	99.372	19.878	-11.079	241.962	-86.115	-17.934	-91.217	140.127	-106.335	-88.830	104.520	162.450	0.0003646	0.00045485	0.00017069	1042.8	1.206e-05	1.9379e-06	914.91	246.22	1.0357e-05	1.1301e-05	250.39	71.786	74.205	16.453	9.2303e-06	16.894	0.0079052	0.0092712	0.0026061	1187.7	0.00010009	0.00010231	992.6	272.26	9.763e-05	0.00010176	292.92	87.403	97.091	21.838	0.00010029	24.299	126.418	77.879	-26.267	-103.860	-49.140	-98.686	-105.149	-99.348	201.604	0.852	-100.774	-97.471	-95.726	-90.399	107.189	-93.102	-8191	255	
21705.113	1	1	0	0	0.22132	0.093352	0.10959	0.049332	0.24595	0.30191	0.080952	0.30275	0.23865	0.098519	0.36154	0.1913	0.32339	0.29315	0.28413	0.27943	-2.0771	-2.6042	-2.1646	-2.9188	-2.4479	-2.2896	-3.1937	-2.1417	-2.5354	-2.8375	-2.1417	-2.7979	-2.4542	-1.9979	-2.725	-1.9667	-96.848	-97.515	-3.914	121.822	51.837	79.101	183.080	173.986	136.999	28.516	181.131	-117.231	128.329	36.326	90.973	197.217	0.00028426	0.00067162	0.00019853	1039	8.8066e-06	2.9542e-06	920.08	244.95	2.2279e-05	8.5924e-06	250.11	71.519	74.191	16.438	1.204e-05	16.891	0.0080114	0.0092503	0.0025817	1187.6	0.00010061	0.00010215	993.49	271.57	9.7499e-05	0.00010155	292.46	87.246	96.703	21.755	9.8157e-05	24.228	153.185	-103.514	3.028	-104.055	47.214	-98.992	-104.808	-99.611	-36.474	-39.241	-100.459	-97.449	-95.858	-90.259	-112.303	-92.663	-8191	255	
21705.207	1	1	0	0	0.24379	0.099175	0.39046	0.095136	0.15482	0.16408	0.055818	0.027167	0.3195	0.1409	0.25594	0.063278	0.14027	0.22987	0.073313	0.24013	-1.9333	-2.8479	-2.0312	-2.8583	-2.4479	-2.2354	-2.8667	-2.2313	-2.2833	-2.8896	-2.1917	-2.7313	-2.5458	-2.0354	-2.8208	-2.1229	202.056	171.870	138.730	-54.211	108.196	218.069	27.950	-60.199	-8.979	-10.340	217.089	11.551	208.672	139.529	67.043	220.045	0.00018698	0.00099294	0.00016161	1039.3	1.3205e-05	8.0653e-06	916.41	247.57	1.3523e-05	1.1026e-05	248.21	71.581	73.776	16.5	1.399e-05	16.72	0.0078613	0.0090739	0.0025415	1182.4	9.767e-05	9.8943e-05	990.33	271.12	9.4976e-05	9.8123e-05	291.38	86.507	95.661	21.687	9.669e-05	23.996	97.143	-65.569	-52.683	-104.321	210.767	42.386	-104.789	-99.770	-27.025	-32.418	-100.716	-97.567	-95.910	-90.423	177.272	-93.077	-8191	255	
21705.305	1	1	0	0	0.209	0.22834	0.3286	0.3465	0.25612	0.16837	0.36205	0.16329	0.12524	0.15616	0.10723	0.14377	0.067207	0.12432	0.12055	0.069875	-1.7979	-2.7229	-2.05	-2.6125	-2.675	-1.9354	-2.8479	-2.2	-1.9333	-2.7979	-2.175	-2.6375	-2.7333	-2.1417	-2.7042	-2.4917	218.882	117.142	66.903	210.757	126.761	-83.730	184.647	-29.982	209.590	17.549	181.910	238.902	216.766	113.240	208.036	-84.629	0.00022079	0.0010214	0.00053688	1046	7.8733e-06	3.6607e-06	916.92	245.45	1.2218e-05	5.0159e-06	249.57	71.621	74.496	16.395	2.3499e-06	16.734	0.0078148	0.0090677	0.0025415	1186.1	9.9876e-05	0.00010142	992.39	271.08	9.7605e-05	0.00010191	291.82	86.7	96.638	21.742	9.8524e-05	24.166	198.936	-16.985	-46.191	-104.134	36.709	106.758	-104.834	-99.625	0.268	143.791	-101.234	-97.377	-95.540	-90.513	219.425	-92.130	-8191	255	
21705.424	1	1	0	0	0.081429	0.27987	0.18196	0.26101	0.13493	0.071875	0.070417	0.12066	0.19227	0.16324	0.20282	0.14301	0.28359	0.23503	0.055738	0.28448	-1.725	-2.9188	-2.0771	-2.4458	-2.7562	-1.9542	-2.8688	-2.3271	-2.0208	-2.9271	-2.175	-2.4938	-2.725	-2.1333	-2.7708	-2.5917	206.369	145.755	-101.914	225.357	209.962	69.397	160.050	239.633	13.847	125.365	98.430	135.156	20.883	-90.847	75.685	167.629	0.00026054	0.00069498	0.00017209	1038.3	1.0642e-05	1.3197e-05	927.9	244.23	3.7206e-06	9.5715e-06	248.93	72.322	74.312	16.503	1.1934e-05	16.896	0.007856	0.0090661	0.0025522	1183.9	9.7505e-05	9.9898e-05	994.77	271.19	9.6834e-05	0.00010102	292.27	87.489	96.669	21.885	0.00010149	24.445	66.496	62.005	-35.071	-103.903	7.068	50.523	-104.829	-99.494	-40.233	-19.853	-100.985	-97.272	-96.443	-90.733	184.466	-92.413	-8191	255	
21705.520	1	1	0	0	0.17424	0.20235	0.18549	0.20293	0.16807	0.1439	0.17816	0.33364	0.099252	0.2068	0.18717	0.19918	0.13002	0.13216	0.21084	0.068884	-1.7563	-2.8958	-2.1792	-2.4062	-2.6771	-2.0333	-2.8083	-2.7687	-2.0687	-2.9333	-2.2792	-2.3521	-2.9229	-2.1167	-2.6604	-2.55	-71.125	211.829	46.655	179.856	57.407	5.190	-85.143	195.078	27.745	-33.899	198.188	217.220	51.448	-49.036	168.331	-30.934	3.0472e-05	0.00017964	0.00012448	1040.2	3.7593e-06	4.3745e-06	924.53	246.88	1.3004e-05	1.2314e-05	249.67	72.611	74.169	16.493	8.9597e-06	16.94	0.0080157	0.0093463	0.002617	1190.8	0.0001002	0.00010133	994.9	272	9.7799e-05	0.00010199	293.64	87.7	97.077	21.842	0.00010048	24.349	61.808	110.414	-93.143	-103.809	31.632	-98.374	-104.744	-99.439	48.323	70.404	-100.937	-97.241	-95.824	-90.206	-30.276	-93.238	-8191	255	
21705.617	1	1	0	0	0.1751	0.097062	0.12681	0.18372	0.075337	0.3453	0.2476	0.34864	0.26874	0.24095	0.31317	0.080106	0.14982	0.11845	0.15407	0.039638	-1.6104	-2.8833	-2.3812	-2.3	-2.7833	-2.1979	-2.5833	-2.7417	-2.0812	-2.7583	-2.5333	-2.2104	-2.8979	-2.0667	-2.4104	-2.7271	211.062	181.231	12.592	225.481	210.209	46.004	137.697	126.012	123.513	-33.582	194.506	-54.890	168.925	191.723	100.691	240.323	0.00012405	0.00037959	0.00023689	1031.4	1.0075e-05	1.3413e-05	917.19	246.11	1.5801e-05	1.1951e-05	248.8	71.788	74.212	16.344	1.3063e-05	16.711	0.0079306	0.0092917	0.002612	1183.6	0.00010077	0.00010241	992.68	272.21	9.8549e-05	0.0001023	292.1	86.858	96.485	21.633	9.7737e-05	23.938	130.442	-103.711	218.480	-103.779	122.586	110.063	-104.626	-99.727	235.060	1.893	-101.392	-97.302	-95.699	-90.099	4.735	-93.291	-8191	255	
21705.713	1	1	0	0	0.094677	0.13229	0.016821	0.034125	0.22436	0.16564	0.1532	0.22567	0.14597	0.21355	0.062579	0.17045	0.19582	0.2432	0.18483	0.1733	-1.4521	-2.7458	-2.3229	-2.2792	-2.7917	-2.0875	-2.4188	-2.7562	-2.05	-2.7354	-2.5438	-2.1729	-2.925	-2.1396	-2.3042	-2.725	-27.110	-32.909	-88.890	160.319	231.798	98.525	167.512	97.490	212.235	228.043	-52.207	239.599	-9.914	233.953	117.904	-16.756	0.00016632	0.0013487	0.00016352	1039.6	1.51e-05	2.6402e-06	924.85	247.34	1.4611e-05	2.3914e-06	250.83	73.026	75.025	16.568	9.2495e-06	17.029	0.0075857	0.0087215	0.0024588	1180.6	9.4031e-05	9.5896e-05	992.03	271.43	9.2219e-05	9.6419e-05	291.78	86.847	95.685	21.498	9.3603e-05	23.892	170.779	124.854	-94.582	-103.770	7.824	-51.396	-104.747	-99.529	37.280	157.712	-100.953	-97.351	-95.401	-90.297	205.132	-92.686	-8191	255	
21705.832	1	1	0	0	0.15212	0.14825	0.20096	0.19479	0.099994	0.13038	0.091288	0.11356	0.057323	0.2809	0.3069	0.10573	0.082101	0.29718	0.24754	0.37451	-1.5583	-2.7292	-2.5021	-2.0208	-2.8292	-2.3417	-2.3438	-2.9417	-2.1292	-2.6646	-2.7167	-2.0062	-2.7208	-2.4146	-2.1646	-2.825	142.653	94.323	195.099	163.949	205.760	-66.873	233.039	-106.581	-22.480	-2.462	70.341	140.959	18.669	206.564	-78.193	131.064	0.0004144	0.0011954	0.00035279	1042.7	7.3756e-06	9.0769e-06	922.4	247.16	1.0345e-05	1.2159e-05	248.47	72.115	74.232	16.334	1.0927e-05	16.692	0.0074595	0.0086869	0.0024339	1177.3	9.4838e-05	9.6103e-05	991.39	271.92	9.2809e-05	9.7532e-05	291.16	86.917	96.196	21.64	9.6999e-05	24.028	145.201	201.691	47.977	-104.079	-24.598	96.701	-104.893	-99.554	68.119	113.457	-101.042	-97.292	-95.343	-90.344	45.977	-92.370	-8191	255	
21705.904	1	1	0	0	0.18444	0.1104	0.0244	0.093329	0.12262	0.1224	0.20442	0.1348	0.30001	0.25621	0.060461	0.33281	0.065316	0.091001	0.18994	0.27811	-1.7188	-2.5771	-2.625	-1.9688	-2.8625	-2.5333	-2.2812	-3.0167	-2.125	-2.5104	-2.7479	-2.2229	-2.9688	-2.3417	-1.9021	-3.075	-32.017	-99.397	-0.973	222.110	204.474	-44.100	130.702	186.672	-63.689	161.053	91.908	-94.459	77.217	-80.047	-59.102	216.691	0.00014745	0.0012887	3.2055e-05	1034.8	9.8804e-06	5.0194e-06	921.1	246.61	7.3981e-06	1.0764e-05	249.44	71.731	74.106	16.192	1.1785e-05	16.634	0.0077126	0.0090384	0.0025138	1180.8	9.6558e-05	9.9343e-05	992.18	271.74	9.6551e-05	0.00010203	292.15	87.111	97.093	21.835	0.00010302	24.45	241.077	-58.992	200.348	-104.173	124.570	-58.761	-105.001	-99.426	-67.368	34.199	-100.837	-97.307	-95.499	-90.445	-81.046	-92.805	-8191	255	
21706.002	1	1	0	0	0.12021	0.093653	0.0057474	0.22886	0.091081	0.15831	0.044305	0.1596	0.054522	0.14559	0.15215	0.52117	0.18465	0.1005	0.17698	0.24253	-1.7042	-2.4938	-2.5583	-2.1333	-2.8083	-2.6104	-2.1667	-2.8896	-2.15	-2.1875	-3.0167	-2.2062	-2.7062	-2.5854	-2.0458	-2.9313	-96.922	218.818	240.929	179.110	158.129	90.123	81.805	26.956	-86.737	-44.064	148.628	226.642	125.319	172.017	131.374	190.026	0.00036198	0.0008654	0.00024291	1029.3	7.3679e-06	1.8454e-05	913.38	244.26	1.2799e-05	8.2872e-06	246.71	70.201	73.489	16.353	3.3836e-06	16.731	0.008279	0.0095944	0.0026856	1186.4	0.00010191	0.00010271	988	269.9	9.5308e-05	9.8866e-05	288.7	85.529	94.881	21.467	9.6654e-05	23.859	147.532	221.871	-6.706	-104.068	35.960	-9.569	-104.555	-99.481	225.449	186.603	-100.997	-97.123	-95.648	-90.365	178.421	-92.209	-8191	255	
21706.098	1	1	0	0	0.043301	0.084248	0.053559	0.326	0.13359	0.033166	0.098808	0.22474	0.17865	0.21566	0.23341	0.068618	0.13472	0.27946	0.1241	0.096099	-1.8771	-2.4646	-2.7313	-2.1208	-2.6312	-2.6479	-2.0729	-2.825	-2.3583	-2.3021	-2.8167	-2.1667	-2.5875	-2.7875	-1.9042	-2.7313	-64.744	-114.004	114.262	-107.797	141.197	87.148	-100.579	148.535	19.695	78.480	181.042	36.038	78.788	171.765	141.653	-32.443	0.00035813	0.00011988	0.00022846	1025.5	1.1908e-05	1.4904e-05	907.01	241.99	1.001e-05	1.8051e-05	244.68	70.223	72.75	16.13	2.4468e-05	16.377	0.0077697	0.0091021	0.0025547	1177.7	0.00010076	0.0001036	985.7	269.87	0.00010165	0.00010844	291.34	86.585	97.139	21.939	0.00010701	24.461	166.939	62.200	78.334	-103.843	4.127	77.522	-104.858	-99.215	10.737	-34.359	-100.650	-97.187	-95.796	-90.014	-39.919	-92.204	-8191	255	
21706.217	1	1	0	0	0.19601	0.14619	0.1846	0.087894	0.16075	0.13247	0.073812	0.15081	0.21133	0.10206	0.13892	0.22404	0.31148	0.13671	0.17219	0.066063	-1.9042	-2.125	-2.5938	-2.1542	-2.5125	-2.9333	-2.1813	-2.8521	-2.3646	-2.1292	-2.8583	-2.3208	-2.4854	-2.7313	-2.125	-2.5896	212.215	-3.043	150.891	57.076	103.761	-3.710	52.525	164.289	-11.925	141.828	68.240	126.348	238.017	72.801	101.523	225.172	0.00038539	0.0013625	2.2106e-05	1015.2	1.4393e-05	1.1544e-05	898.67	241.12	1.1263e-05	1.1568e-05	243.16	70.113	71.918	16.209	1.2168e-05	16.515	0.0085149	0.01	0.0027728	1180.5	0.00010723	0.00010818	981.05	268.84	0.00010259	0.00010757	288.55	86.024	96.219	21.728	0.00010392	24.223	106.412	-107.849	127.348	-103.745	206.608	197.339	-104.798	-99.330	136.865	-102.227	-100.737	-97.055	-95.822	-89.904	23.685	-92.716	-8191	255	
21706.312	1	1	0	0	0.13204	0.08996	0.048165	0.22177	0.086044	0.18809	0.17951	0.099783	0.24557	0.064496	0.18452	0.05736	0.2254	0.26958	0.14976	0.30979	-2.1063	-1.9521	-2.8125	-2.4125	-2.2875	-2.8396	-2.1021	-2.6125	-2.4021	-2.0104	-2.8812	-2.5417	-2.2625	-2.7646	-2.0979	-2.625	105.230	-39.434	208.895	-67.049	123.935	-25.913	219.608	204.868	238.101	231.575	161.839	71.368	139.626	-81.274	239.638	-86.769	0.00028799	0.0015658	0.00018222	1018.4	6.8687e-06	3.0741e-06	910.57	240.65	7.4357e-06	1.4142e-05	245.63	70.502	72.416	16.298	5.7769e-06	16.472	0.0082274	0.009522	0.0026612	1176.7	0.00010301	0.00010348	984.04	268.7	9.8733e-05	0.00010269	289.29	86.085	95.879	21.643	9.9971e-05	24.101	142.180	18.951	199.799	-103.696	107.935	-92.281	-104.490	-99.340	86.662	-18.594	-100.764	-97.330	-95.552	-89.852	-65.793	-92.431	-8191	255	
21706.408	1	1	0	0	0.17037	0.022738	0.031079	0.10392	0.085075	0.28622	0.26349	0.27588	0.23553	0.13711	0.21957	0.37159	0.1461	0.29336	0.12189	0.15689	-2.3229	-2.0979	-2.75	-2.3583	-2.0917	-2.825	-2.3167	-2.7	-2.6646	-2.1104	-2.7771	-2.6542	-2.3229	-2.8354	-2.0958	-2.4667	49.442	127.296	168.385	48.275	35.283	-28.544	160.255	214.565	80.843	217.465	219.246	-34.985	-67.789	227.623	-94.180	94.202	0.00031369	0.0011708	0.00021708	1020.5	7.775e-06	5.7589e-06	907.75	242.57	1.1236e-05	1.3794e-05	245.4	70.675	72.755	16.192	2.1456e-06	16.565	0.0079606	0.0093054	0.0025887	1174	9.9835e-05	0.00010069	981.71	268.88	9.6806e-05	0.0001022	289.16	86.061	95.881	21.515	9.939e-05	23.927	-58.852	96.849	211.670	-104.070	-20.244	213.095	-104.789	-99.114	7.723	179.845	-100.515	-97.069	-95.259	-90.605	204.321	-92.791	-8191	255	
21706.506	1	1	0	0	0.39938	0.039439	0.20246	0.17137	0.28735	0.079945	0.086495	0.19826	0.224	0.15328	0.1544	0.046043	0.22933	0.083869	0.11051	0.19519	-2.3271	-1.9417	-2.6875	-2.7354	-2.1	-2.9375	-2.3646	-2.4104	-2.775	-2.1604	-2.6729	-2.4729	-2.0625	-2.9458	-2.4271	-2.5646	-98.435	171.191	130.626	192.792	182.659	222.101	63.979	187.295	33.093	-23.245	-19.702	-44.365	201.520	-75.811	-48.011	122.244	0.00041727	0.0014578	0.00024947	1024.9	1.9907e-06	1.3235e-05	907.87	243.22	1.2921e-05	1.6038e-05	246.01	71.245	73.595	16.347	1.3469e-05	16.676	0.0078582	0.009086	0.0025337	1168.3	9.6664e-05	9.717e-05	976.27	267.76	9.1113e-05	9.4673e-05	286.52	84.926	93.992	21.162	8.9674e-05	23.36	81.991	164.342	-9.760	-103.525	228.402	24.733	-104.689	-99.136	74.610	5.198	-100.622	-97.191	-96.067	-90.491	-55.733	-92.767	-8191	255	
21706.602	1	1	0	0	0.18201	0.24992	0.12551	0.17983	0.26628	0.080509	0.24355	0.19347	0.15307	0.19127	0.32825	0.33644	0.27473	0.15317	0.23801	0.13061	-2.3646	-1.9875	-2.5438	-2.7417	-1.9479	-2.7458	-2.5542	-2.2854	-2.9625	-2.0312	-2.6979	-2.6875	-2.2146	-2.8771	-2.4604	-2.1792	198.338	227.224	114.858	48.879	161.498	-101.318	-71.771	60.920	52.256	200.745	232.851	219.216	-47.207	155.644	134.477	196.274	0.00020247	0.0011792	0.00023843	1023.8	9.4571e-06	4.2774e-06	913.95	245.21	7.9586e-06	3.4087e-06	249.77	71.695	73.666	16.422	8.0294e-06	16.535	0.0071817	0.0082781	0.0023142	1158	8.9832e-05	9.0566e-05	977.98	267.9	8.6453e-05	8.9842e-05	286.55	84.974	93.762	21.08	8.6516e-05	23.167	132.108	-51.178	28.428	-104.183	2.946	144.908	-104.723	-99.181	-49.052	-101.743	-100.578	-97.505	-95.574	-90.031	-62.543	-92.489	-8191	255	
21706.697	1	1	0	0	0.11088	0.12561	0.2909	0.12398	0.16022	0.21308	0.32808	0.23647	0.044894	0.051659	0.18261	0.10492	0.10776	0.06762	0.07624	0.15391	-2.5312	-2.0438	-2.4917	-2.8542	-1.9896	-2.7333	-2.5167	-2.0187	-2.8438	-2.3063	-2.625	-2.7875	-2.0563	-2.9313	-2.5167	-2.1958	111.017	-17.719	-71.463	197.694	145.412	27.886	155.578	0.503	170.556	-73.716	200.557	191.209	63.379	24.532	-21.398	227.520	0.00012902	0.00036567	0.00056358	1024	4.5919e-06	6.7395e-06	917.07	246.06	2.1606e-05	5.3711e-06	249.14	72.334	74.677	16.578	1.4514e-05	16.79	0.0069055	0.0080931	0.002265	1157.7	8.7094e-05	8.8859e-05	977.25	268.14	8.5412e-05	8.9301e-05	286.04	84.909	93.558	21.104	8.6213e-05	23.186	190.595	179.150	25.207	-103.785	199.628	-62.160	-104.718	-99.272	-25.201	59.840	-100.792	-97.580	-95.239	-90.290	52.479	-92.693	-8191	255	
21706.793	1	1	0	0	0.095379	0.21679	0.17823	0.083945	0.12478	0.039174	0.24704	0.1991	0.17983	0.14453	0.092338	0.16698	0.1935	0.072682	0.23436	0.10793	-2.5229	-2.0979	-2.4562	-3.0646	-1.9375	-2.9938	-2.7667	-2.0812	-3.0646	-2.3438	-2.5021	-3.0125	-2.175	-2.7042	-2.65	-2.2229	229.569	60.871	-29.468	160.761	165.708	152.824	179.506	150.092	19.304	-93.581	-64.516	-109.476	224.878	-107.966	209.279	111.185	0.0004055	0.00026498	0.00032569	1032.9	1.3981e-05	2.1192e-05	920.87	247.16	4.235e-06	2.0705e-05	248.41	71.987	74.507	16.699	1.0239e-05	16.762	0.00682	0.0079613	0.0022316	1155.9	8.6717e-05	8.6952e-05	979.12	267.96	8.3247e-05	8.5839e-05	285.55	84.961	93.031	20.968	8.2886e-05	22.988	174.538	-18.778	-71.004	-103.812	23.341	-75.731	-104.685	-99.133	69.969	24.395	-100.477	-96.927	-95.526	-90.146	213.057	-93.034	-8191	255	
21706.914	1	1	0	0	0.05057	0.15257	0.17951	0.16567	0.14814	0.096042	0.21892	0.17668	0.17364	0.053824	0.27276	0.24879	0.40355	0.25512	0.14086	0.24924	-2.5333	-2.4167	-2.3229	-2.9146	-2.1979	-2.6917	-2.9979	-2.0625	-2.8021	-2.5104	-2.2271	-2.8833	-2.0625	-2.5812	-2.6417	-2.0354	-8.412	180.404	103.699	89.814	199.603	-83.248	136.394	216.689	-35.177	-9.106	-105.338	224.551	202.234	222.436	-17.533	98.955	0.00028571	0.00073587	0.00039662	1023.7	4.5613e-06	3.2575e-06	914.2	245.6	6.0563e-06	9.5306e-06	248.57	72.465	73.995	16.467	9.7355e-07	16.718	0.0066383	0.0076391	0.0021751	1152.1	8.3267e-05	8.489e-05	975.81	267.4	8.1737e-05	8.4811e-05	283.92	84.512	92.498	20.839	8.2483e-05	22.855	183.712	84.429	-47.052	-103.297	-22.196	13.002	-104.579	-99.151	52.927	14.101	-100.793	-96.804	-95.695	-90.146	208.306	-92.602	-8191	255	
21707.008	1	1	0	0	0.070165	0.1652	0.2336	0.25131	0.129	0.16446	0.17007	0.10308	0.21002	0.21899	0.12718	0.22832	0.10105	0.14724	0.16539	0.26248	-2.3917	-2.5167	-2.0729	-2.8604	-2.0208	-2.5604	-2.7354	-1.9896	-2.7188	-2.6375	-1.9667	-2.9333	-2.3563	-2.4417	-2.9	-2.1688	-57.173	189.117	-81.194	191.282	-49.271	179.254	190.862	131.895	148.673	52.846	109.498	173.484	214.258	-114.597	-98.160	90.748	0.00012778	0.00032726	0.00023217	1033.5	5.7303e-06	5.2791e-06	912.83	245.95	1.206e-05	4.3795e-06	249.41	71.471	73.827	16.479	1.4838e-05	16.706	0.0065398	0.0075283	0.002129	1152.2	8.2161e-05	8.3905e-05	970.84	266.53	7.9403e-05	8.3023e-05	283.28	83.919	92.116	20.822	8.1606e-05	22.85	45.059	44.608	132.200	-103.687	51.983	71.206	-104.406	-99.282	162.429	-59.158	-100.415	-97.123	-95.720	-90.302	-34.420	-92.502	-8191	255	
21707.105	1	1	0	0	0.049845	0.045379	0.24478	0.031695	0.20781	0.34495	0.018075	0.095599	0.060023	0.14156	0.3383	0.12459	0.17642	0.26201	0.11295	0.31584	-2.425	-2.7188	-2.1833	-2.9417	-2.4458	-2.2438	-2.9771	-2.2562	-2.6958	-2.8542	-2.0604	-3.0458	-2.2875	-2.1896	-2.9188	-2.0854	49.445	40.336	81.838	-66.310	111.483	134.258	39.057	164.999	158.704	-41.210	159.530	233.254	101.662	47.468	178.985	236.161	0.00029137	0.00015328	0.00019014	1033.3	9.5929e-06	9.2418e-06	913.97	244.1	1.3278e-05	9.9689e-06	248.21	71.443	73.692	16.517	4.0634e-06	16.674	0.0065332	0.007524	0.0021346	1149	8.2672e-05	8.3324e-05	970.96	265.42	7.9784e-05	8.2746e-05	282.87	84.019	92.072	20.855	8.1889e-05	22.828	152.550	-26.927	187.150	-103.257	-30.794	113.172	-104.561	-99.210	63.842	216.337	-100.435	-96.823	-95.173	-90.187	108.537	-92.495	-8191	255	
21707.199	1	1	0	0	0.017852	0.24802	0.12493	0.15901	0.15553	0.053319	0.15557	0.064568	0.069676	0.068642	0.27564	0.1222	0.20786	0.24228	0.11861	0.31519	-2.1271	-2.8063	-2.1271	-2.8125	-2.5042	-2.1604	-3.1104	-2.3042	-2.4021	-2.7833	-2.075	-2.8708	-2.5187	-2.1813	-2.8167	-2.2875	-100.224	135.033	158.360	166.398	159.400	-39.797	210.473	27.854	203.829	-9.430	236.469	193.760	180.891	-87.013	-23.206	84.172	0.00023732	0.00064347	0.00022853	1027.4	2.3808e-05	7.8653e-06	913.36	244.87	9.2528e-06	6.3085e-06	249.68	71.552	73.197	16.404	6.1028e-06	16.736	0.0065669	0.0076793	0.0021644	1151.1	8.27e-05	8.5386e-05	972.25	265.58	8.1385e-05	8.5038e-05	284.11	83.857	92.266	20.846	8.314e-05	22.929	204.283	-68.503	5.662	-103.700	-1.948	-39.274	-104.830	-99.106	-61.328	-66.366	-100.576	-97.141	-95.761	-90.268	64.505	-92.762	-8191	255	
21707.297	1	1	0	0	0.42633	0.20239	0.17328	0.15172	0.2717	0.16785	0.35046	0.11735	0.1629	0.067154	0.34534	0.18536	0.24796	0.27193	0.17237	0.16302	-1.9937	-2.8354	-2.0333	-2.7979	-2.7208	-1.9958	-2.8729	-2.2979	-2.3479	-2.8521	-2.1854	-2.6958	-2.5875	-2.3187	-2.9354	-2.2854	-80.072	-87.326	155.214	17.620	128.879	22.010	144.892	-58.485	-23.590	-4.570	129.104	3.652	206.997	192.047	-70.380	-107.205	0.00035803	9.9904e-05	0.00025782	1030.3	2.8777e-06	2.2345e-05	914.84	243.03	1.3715e-05	5.0349e-06	247.64	71.405	73.8	16.443	9.9497e-06	16.563	0.0066915	0.0077318	0.0021791	1150.1	8.3258e-05	8.5344e-05	971.51	264.84	8.129e-05	8.4459e-05	282.66	83.734	92.202	20.791	8.2766e-05	22.784	184.487	-106.157	-9.924	-103.457	-84.928	-4.621	-104.332	-99.100	-32.849	149.866	-100.435	-96.776	-95.177	-89.965	42.508	-92.814	-8191	255	
21707.393	1	1	0	0	0.33507	0.093492	0.061464	0.07778	0.032882	0.17774	0.32382	0.11106	0.16495	0.24982	0.04154	0.019366	0.15419	0.21311	0.25554	0.19079	-1.8042	-2.8229	-2.1771	-2.5687	-2.5667	-2.2062	-2.9583	-2.4771	-2.0604	-2.7687	-2.1979	-2.5938	-2.6937	-2.0979	-2.9604	-2.5	-6.071	-65.825	72.067	204.505	-93.869	127.540	178.872	186.628	-75.082	53.919	97.139	-59.746	150.912	212.061	208.025	97.885	0.00033799	0.00016958	9.0229e-05	1030	9.885e-06	8.7314e-06	912.44	244.16	1.1733e-05	3.3937e-06	245.97	70.969	73.13	16.272	6.4311e-06	16.602	0.0067119	0.007772	0.0021717	1149.7	8.4331e-05	8.5904e-05	969.86	265.35	8.2687e-05	8.6636e-05	282.38	84.029	92.435	20.867	8.5372e-05	22.968	118.585	111.780	219.771	-103.299	15.833	75.864	-104.375	-99.137	130.013	-35.902	-100.828	-97.109	-95.464	-89.983	88.133	-92.323	-8191	255	
21707.514	1	1	0	0	0.17973	0.14849	0.15075	0.23546	0.10448	0.20209	0.15685	0.34308	0.2037	0.050398	0.06212	0.13055	0.17739	0.39487	0.10826	0.26438	-1.8792	-2.8021	-2.2417	-2.6437	-2.6917	-2.0563	-2.7458	-2.6437	-2.1625	-2.8563	-2.2687	-2.4979	-2.7875	-2.0542	-2.8917	-2.4667	3.473	187.738	76.804	201.935	64.841	115.793	111.503	154.798	121.857	75.872	-114.881	200.383	115.251	179.280	43.449	-80.442	9.7085e-05	0.0010773	0.00023796	1030.4	2.8075e-06	1.2852e-05	906.45	244.83	9.0608e-06	1.3898e-05	247.05	71.035	73.484	16.202	6.2302e-06	16.442	0.0069095	0.0080105	0.0022586	1154.3	8.8223e-05	8.9802e-05	968.75	265.58	8.7056e-05	9.0712e-05	283.86	84.689	93.493	21.002	8.942e-05	23.189	136.988	-5.885	208.230	-103.481	-11.606	-25.539	-104.511	-99.165	37.101	4.953	-100.291	-96.647	-95.557	-90.169	-22.327	-92.386	-8191	255	
21707.609	1	1	0	0	0.17855	0.077941	0.063023	0.099977	0.035931	0.049861	0.085236	0.27051	0.26551	0.084168	0.19954	0.29499	0.34193	0.10401	0.14029	0.073219	-1.8229	-2.85	-2.1437	-2.3563	-2.8792	-2.2833	-2.825	-2.8542	-2.2542	-2.9188	-2.35	-2.3479	-2.8146	-2.0125	-2.75	-2.7812	102.382	223.714	-45.195	192.998	-74.405	75.376	61.832	194.931	-2.390	-67.384	167.307	200.350	233.921	165.821	225.649	-37.638	0.00017359	0.0012623	0.00028731	1025.8	1.3332e-05	4.4605e-06	907.74	242.6	1.5407e-06	1.836e-06	243.83	71.16	72.84	16.14	5.0449e-06	16.275	0.0072027	0.0083383	0.0023333	1154.6	9.0463e-05	9.2406e-05	971.68	265.47	9.019e-05	9.3801e-05	284.42	84.919	93.935	21.113	9.4198e-05	23.421	67.382	-37.928	123.698	-103.500	82.386	24.517	-104.130	-98.923	12.093	232.510	-100.015	-96.596	-95.435	-89.610	-1.097	-92.396	-8191	255	
21707.705	1	1	0	0	0.052084	0.020059	0.064126	0.28201	0.28752	0.14123	0.21136	0.19222	0.065796	0.084384	0.19956	0.14381	0.064298	0.11287	0.1781	0.24751	-1.775	-2.7292	-2.3812	-2.4396	-2.6875	-2.2125	-2.7792	-2.9083	-2.0958	-2.7583	-2.4458	-2.1979	-2.8688	-2.1708	-2.625	-3.0125	-104.299	-42.032	-49.830	64.762	152.763	-50.880	106.954	155.314	-114.317	66.592	182.582	-91.492	-70.762	-90.820	-23.596	144.048	0.00036587	0.00083007	0.00024242	1014.3	7.1359e-06	7.3617e-06	906.5	241	1.0904e-05	1.29e-05	244.48	70.674	73.228	16.123	4.3662e-06	16.379	0.0075461	0.0087212	0.0024322	1159.5	9.4189e-05	9.5947e-05	971.41	265.21	9.0818e-05	9.3585e-05	284.38	84.624	93.939	21.083	9.2914e-05	23.458	87.545	-80.740	-90.431	-103.678	196.362	94.259	-104.213	-98.987	9.691	-46.606	-100.595	-96.776	-95.126	-90.493	-27.640	-91.454	-8191	255	
21707.777	1	1	0	0	0.083353	0.16634	0.19714	0.24071	0.1431	0.23014	0.41634	0.15542	0.16232	0.24611	0.32047	0.084385	0.17791	0.047307	0.10908	0.2809	-1.7333	-2.5896	-2.3604	-2.2729	-2.8917	-2.3833	-2.6167	-2.9521	-1.9375	-2.7396	-2.575	-2.2188	-3.0396	-2.1937	-2.3542	-2.9021	-14.341	121.705	103.380	140.086	195.197	52.000	232.800	-71.376	89.387	161.781	-97.621	152.345	-7.669	4.724	-53.473	123.556	4.6398e-05	0.001026	0.00040024	1020.9	3.1864e-06	1.0227e-05	905.53	241.09	8.0464e-06	2.5549e-06	244.56	70.346	73.025	16.338	8.834e-06	16.549	0.0074582	0.0087283	0.0024442	1157.3	9.4562e-05	9.6247e-05	970.45	265.87	9.1639e-05	9.5362e-05	284.72	84.797	93.928	21.152	9.386e-05	23.491	173.568	208.344	-22.365	-103.569	-65.176	-75.528	-104.174	-98.790	-69.950	-90.247	-99.981	-96.794	-95.250	-89.754	-60.466	-91.927	-8191	255	
21707.898	1	1	0	0	0.13985	0.22231	0.19504	0.23946	0.11772	0.22908	0.084861	0.44152	0.062539	0.1701	0.30468	0.19967	0.080325	0.068624	0.12797	0.062993	-1.7062	-2.7333	-2.4646	-2.1437	-2.95	-2.2521	-2.3542	-2.975	-2.2104	-2.8146	-2.9708	-2.1208	-2.9146	-2.4833	-2.1312	-2.9292	195.006	3.912	34.295	199.541	-115.303	188.802	135.711	175.580	159.311	106.268	212.445	-27.469	207.435	22.491	238.437	34.962	0.00016201	0.00060486	0.0001918	1019.1	4.8873e-06	1.4823e-05	899.47	241.1	2.4813e-06	1.0756e-05	245.18	71	73.349	16.223	8.145e-06	16.581	0.0074708	0.0087175	0.0024357	1159	9.4073e-05	9.5735e-05	970.65	266.28	9.2247e-05	9.5853e-05	285.88	85.161	93.929	21.164	9.3261e-05	23.412	58.697	201.125	-108.892	-103.058	99.093	85.169	-104.355	-98.886	-42.802	5.837	-99.929	-96.577	-94.819	-89.837	37.767	-92.274	-8191	255	
21707.994	1	1	0	0	0.23107	0.23579	0.10999	0.19926	0.033311	0.16933	0.22381	0.11752	0.18325	0.060703	0.091943	0.2041	0.141	0.28824	0.070717	0.060313	-1.8042	-2.4729	-2.7542	-2.3292	-2.8375	-2.3563	-2.3833	-3.0312	-2.1937	-2.6375	-2.8875	-2.2021	-2.9688	-2.6229	-2.1917	-2.9688	70.091	109.695	11.016	-60.216	111.894	113.183	216.485	47.620	-92.678	200.499	-58.419	55.482	-6.818	42.743	-8.418	72.347	0.00025756	0.0014843	0.00036457	1021.8	1.1526e-05	1.3854e-05	902.57	243.66	3.13e-06	6.2709e-06	247.36	71.083	73.652	16.091	5.6609e-06	16.659	0.0073932	0.0086762	0.0024281	1157.5	9.342e-05	9.5603e-05	973.9	267.45	9.1416e-05	9.5478e-05	287.39	85.509	94.288	21.206	9.2904e-05	23.53	122.800	0.077	234.927	-103.336	16.244	156.897	-104.218	-98.964	175.985	5.181	-100.241	-96.447	-95.296	-89.561	-0.970	-92.207	-8191	255	
21708.088	1	1	0	0	0.099029	0.12692	0.16021	0.12797	0.11876	0.19318	0.20338	0.21042	0.24329	0.072074	0.10094	0.18425	0.31725	0.15766	0.17308	0.33639	-1.7583	-2.3812	-3.0292	-2.1542	-2.6979	-2.6083	-2.2313	-2.8208	-2.525	-2.4021	-2.9125	-2.1021	-2.8083	-2.7083	-2.1229	-2.9458	120.051	25.071	79.374	213.373	-77.393	123.749	218.768	100.800	212.398	242.833	120.285	195.384	-95.273	161.341	150.501	119.982	0.00017101	0.0010962	0.00027093	1020.7	2.3156e-07	3.3838e-06	914.71	244.01	1.4594e-05	6.0634e-06	249.15	71.983	74.296	16.373	8.84e-06	16.659	0.0073423	0.0085556	0.0023944	1160.9	9.2417e-05	9.4655e-05	979.74	268.04	9.0316e-05	9.3967e-05	288.15	85.756	94.445	21.146	8.9539e-05	23.385	152.749	-108.086	183.293	-103.441	-4.755	172.466	-104.089	-98.733	-88.752	162.023	-100.245	-96.839	-95.185	-89.599	111.541	-92.265	-8191	255	
21708.186	1	1	0	0	0.11885	0.31019	0.24893	0.10839	0.027485	0.11135	0.13469	0.25582	0.094097	0.14347	0.37859	0.1052	0.21307	0.076604	0.16679	0.16744	-2.025	-2.2188	-2.8417	-2.1042	-2.8312	-2.5896	-2.3333	-2.6708	-2.3021	-2.25	-2.9958	-2.1354	-2.6292	-2.8458	-2.1229	-2.8708	-1.194	86.821	-76.772	-106.398	40.298	196.014	146.999	198.362	26.238	-101.538	161.743	-112.292	-113.991	147.937	16.828	47.927	0.00038757	0.002467	0.00031244	1032.1	1.6642e-05	1.1106e-05	917.6	246.4	1.9356e-06	1.9682e-06	250.91	72.257	74.533	16.614	1.1914e-05	16.809	0.0070473	0.0082395	0.0023198	1160.2	8.8749e-05	9.0842e-05	981.64	268.84	8.5784e-05	9.0501e-05	288.21	85.46	94.129	21.146	8.7065e-05	23.203	77.052	-86.267	125.460	-103.112	-17.344	49.697	-104.033	-98.906	-34.926	91.259	-100.533	-97.060	-94.882	-89.920	-40.523	-91.492	-8191	255	
21708.305	1	1	0	0	0.17284	0.27418	0.25114	0.18676	0.14157	0.15337	0.17592	0.36697	0.052032	0.10655	0.24456	0.30489	0.19016	0.097752	0.034541	0.19929	-2.1146	-1.9417	-2.8937	-2.2271	-2.5771	-2.9375	-2.2271	-2.9104	-2.6667	-2.2646	-2.9437	-2.1104	-2.5979	-2.9604	-2.025	-2.7896	72.337	19.697	208.119	215.229	28.702	226.547	204.349	144.192	0.304	53.971	-13.231	-45.393	221.423	235.248	-74.303	81.464	0.00025149	0.0019329	0.00034801	1032.7	1.9504e-05	1.1599e-05	916.14	247.05	4.5243e-06	1.4585e-05	249.88	72.155	75.094	16.399	1.2651e-05	16.718	0.0068645	0.0080384	0.0022468	1156.5	8.7581e-05	8.8887e-05	977.52	268.34	8.491e-05	8.8452e-05	286.43	84.998	93.82	21.019	8.484e-05	23.095	108.950	-85.398	9.185	-103.232	-16.313	20.587	-104.211	-99.037	-20.041	135.147	-100.318	-96.729	-94.765	-89.741	175.849	-92.185	-8191	255	
21708.377	1	1	0	0	0.16013	0.31266	0.26087	0.12163	0.10457	0.20249	0.21639	0.33793	0.16502	0.17275	0.14658	0.26697	0.22242	0.1247	0.15722	0.16617	-2.1437	-2.0458	-2.7062	-2.2521	-2.275	-2.9979	-2.1542	-2.8521	-2.7729	-2.1271	-2.9854	-2.4333	-2.2625	-2.8563	-2.3604	-2.8021	152.392	65.388	29.598	-73.214	-101.796	9.258	124.318	211.338	162.208	217.639	120.144	158.673	-110.945	56.877	-98.758	184.205	0.00015306	0.00013445	0.00019084	1033	1.3153e-05	1.0712e-05	919.55	247.24	1.0931e-05	8.4262e-06	251.77	72.342	74.401	16.566	1.9892e-06	16.808	0.0066887	0.0078113	0.0021811	1152.7	8.3761e-05	8.4978e-05	977.42	267.63	8.1696e-05	8.5259e-05	285.8	84.819	93.166	20.956	8.371e-05	22.996	59.027	178.914	43.869	-103.041	13.445	22.802	-103.935	-98.763	140.118	54.989	-100.353	-96.610	-94.862	-89.845	-11.281	-92.473	-8191	255	
#DATA ENDS
