BOXY.EXE: ISS Imagent and Oximeter Data Acquisition Program Version 0.80
Ascii Record File

#ACQ INFORMATION
2  Detector Channels 
16  External MUX Channels 
1  Auxiliary Channels 
5000  Waveform (CCF) Frequency (Hz)
1  Waveforms Skipped 
30  Waveforms Averaged 
1  Cycles Averaged 
16  Acquisitions per Waveform 
10.0806  Updata Rate (Hz) 

#FILE INFORMATION
TRUE -- External MUX Channel results are PARSED.
FALSE -- AC DC and Phase are NOT grouped.
TRUE -- Companion Program Settings File CREATED.
FALSE -- AC data not excluded
FALSE -- DC data not excluded
FALSE -- Phase data not excluded
FALSE -- Auxillary Chn. data not excluded
Tab delimiters

#CALIBRATION STATE
TRUE -- Waveform Calibration Values APPLIED.


#AUX CALIBRATION VALUES
Val Type	aux-1	

Term	1.0000e+00	
Factor	0.0000e+00	


#WF CALIBRATION VALUES
A = Detector Channel
Val Type	A-AC1	A-AC2	A-AC3	A-AC4	A-AC5	A-AC6	A-AC7	A-AC8	A-AC9	A-AC10	A-AC11	A-AC12	A-AC13	A-AC14	A-AC15	A-AC16	A-DC1	A-DC2	A-DC3	A-DC4	A-DC5	A-DC6	A-DC7	A-DC8	A-DC9	A-DC10	A-DC11	A-DC12	A-DC13	A-DC14	A-DC15	A-DC16	A-Ph1	A-Ph2	A-Ph3	A-Ph4	A-Ph5	A-Ph6	A-Ph7	A-Ph8	A-Ph9	A-Ph10	A-Ph11	A-Ph12	A-Ph13	A-Ph14	A-Ph15	A-Ph16	

Term	0.00000e+00	0.00000e+00	0.00000e+00	0.00000e+00	0.00000e+00	0.00000e+00	0.00000e+00	0.00000e+00	0.00000e+00	0.00000e+00	0.00000e+00	0.00000e+00	0.00000e+00	0.00000e+00	0.00000e+00	0.00000e+00	0.00000e+00	0.00000e+00	0.00000e+00	0.00000e+00	0.00000e+00	0.00000e+00	0.00000e+00	0.00000e+00	0.00000e+00	0.00000e+00	0.00000e+00	0.00000e+00	0.00000e+00	0.00000e+00	0.00000e+00	0.00000e+00	0.00000e+00	0.00000e+00	0.00000e+00	0.00000e+00	0.00000e+00	0.00000e+00	0.00000e+00	0.00000e+00	0.00000e+00	0.00000e+00	0.00000e+00	0.00000e+00	0.00000e+00	0.00000e+00	0.00000e+00	0.00000e+00	
Factor	1.00000e+00	1.00000e+00	1.00000e+00	1.00000e+00	1.00000e+00	1.00000e+00	1.00000e+00	1.00000e+00	1.00000e+00	1.00000e+00	1.00000e+00	1.00000e+00	1.00000e+00	1.00000e+00	1.00000e+00	1.00000e+00	1.00000e+00	1.00000e+00	1.00000e+00	1.00000e+00	1.00000e+00	1.00000e+00	1.00000e+00	1.00000e+00	1.00000e+00	1.00000e+00	1.00000e+00	1.00000e+00	1.00000e+00	1.00000e+00	1.00000e+00	1.00000e+00	X	X	X	X	X	X	X	X	X	X	X	X	X	X	X	X	

B = Detector Channel
Val Type	B-AC1	B-AC2	B-AC3	B-AC4	B-AC5	B-AC6	B-AC7	B-AC8	B-AC9	B-AC10	B-AC11	B-AC12	B-AC13	B-AC14	B-AC15	B-AC16	B-DC1	B-DC2	B-DC3	B-DC4	B-DC5	B-DC6	B-DC7	B-DC8	B-DC9	B-DC10	B-DC11	B-DC12	B-DC13	B-DC14	B-DC15	B-DC16	B-Ph1	B-Ph2	B-Ph3	B-Ph4	B-Ph5	B-Ph6	B-Ph7	B-Ph8	B-Ph9	B-Ph10	B-Ph11	B-Ph12	B-Ph13	B-Ph14	B-Ph15	B-Ph16	

Term	0.00000e+00	0.00000e+00	0.00000e+00	0.00000e+00	0.00000e+00	0.00000e+00	0.00000e+00	0.00000e+00	0.00000e+00	0.00000e+00	0.00000e+00	0.00000e+00	0.00000e+00	0.00000e+00	0.00000e+00	0.00000e+00	0.00000e+00	0.00000e+00	0.00000e+00	0.00000e+00	0.00000e+00	0.00000e+00	0.00000e+00	0.00000e+00	0.00000e+00	0.00000e+00	0.00000e+00	0.00000e+00	0.00000e+00	0.00000e+00	0.00000e+00	0.00000e+00	-1.51084e+02	-1.28834e+02	-1.28025e+02	-1.86409e+02	-7.68898e+01	-6.93831e+01	-1.58531e+02	-1.62015e+02	-7.47914e+01	-6.79359e+01	-1.72014e+02	-1.71423e+02	-1.83400e+02	-1.77421e+02	-7.05656e+01	-1.49763e+02	
Factor	2.11876e-05	1.39541e-04	4.21210e-05	2.80485e-01	1.28048e-06	1.60148e-06	1.54187e-01	4.54447e-02	1.08396e-06	1.57593e-06	7.46426e-02	2.54121e-02	3.58899e-02	8.15869e-03	1.32146e-06	1.15051e-02	9.79520e-06	1.44465e-05	4.03494e-06	1.49735e-01	1.53051e-07	1.61647e-07	7.78450e-02	2.45314e-02	1.47844e-07	1.59374e-07	3.90137e-02	1.33397e-02	1.96024e-02	4.44578e-03	1.52412e-07	6.08456e-03	X	X	X	X	X	X	X	X	X	X	X	X	X	X	X	X	



#DISTANCE SETTINGS
A = Detector Channel
A-1	A-2	A-3	A-4	A-5	A-6	A-7	A-8	A-9	A-10	A-11	A-12	A-13	A-14	A-15	A-16	

2.5000e+00	3.0000e+00	2.5000e+00	3.0000e+00	2.0000e+00	3.0000e+00	1.5000e+00	3.0000e+00	3.0000e+00	3.0000e+00	3.0000e+00	3.0000e+00	3.0000e+00	3.0000e+00	1.5000e+00	3.0000e+00	

B = Detector Channel
B-1	B-2	B-3	B-4	B-5	B-6	B-7	B-8	B-9	B-10	B-11	B-12	B-13	B-14	B-15	B-16	

1.0000e+01	1.0000e+01	1.0000e+01	1.4400e+00	1.0000e+01	1.0000e+01	1.5100e+00	1.9400e+00	1.0000e+01	1.0000e+01	1.9900e+00	2.4900e+00	2.4100e+00	2.9000e+00	1.0000e+01	2.9800e+00	




#DATA BEGINS
time	group	step	mark	flag	A-AC1	A-AC2	A-AC3	A-AC4	A-AC5	A-AC6	A-AC7	A-AC8	A-AC9	A-AC10	A-AC11	A-AC12	A-AC13	A-AC14	A-AC15	A-AC16	A-DC1	A-DC2	A-DC3	A-DC4	A-DC5	A-DC6	A-DC7	A-DC8	A-DC9	A-DC10	A-DC11	A-DC12	A-DC13	A-DC14	A-DC15	A-DC16	A-Ph1	A-Ph2	A-Ph3	A-Ph4	A-Ph5	A-Ph6	A-Ph7	A-Ph8	A-Ph9	A-Ph10	A-Ph11	A-Ph12	A-Ph13	A-Ph14	A-Ph15	A-Ph16	B-AC1	B-AC2	B-AC3	B-AC4	B-AC5	B-AC6	B-AC7	B-AC8	B-AC9	B-AC10	B-AC11	B-AC12	B-AC13	B-AC14	B-AC15	B-AC16	B-DC1	B-DC2	B-DC3	B-DC4	B-DC5	B-DC6	B-DC7	B-DC8	B-DC9	B-DC10	B-DC11	B-DC12	B-DC13	B-DC14	B-DC15	B-DC16	B-Ph1	B-Ph2	B-Ph3	B-Ph4	B-Ph5	B-Ph6	B-Ph7	B-Ph8	B-Ph9	B-Ph10	B-Ph11	B-Ph12	B-Ph13	B-Ph14	B-Ph15	B-Ph16	aux-1	digaux	

29887.781	1	1	0	256	0.15969	0.11281	0.20711	0.14116	0.20149	0.31389	0.11849	0.12853	0.04506	0.16429	0.24346	0.17631	0.19854	0.13768	0.27859	0.12894	-2.125	-1.9937	-2.9333	-2.2062	-2.5854	-2.9229	-2.0646	-2.85	-2.5854	-2.1021	-3.0521	-2.2146	-2.4146	-2.8438	-2.0833	-2.6813	460.233	351.570	280.362	446.469	212.327	200.186	496.659	425.738	442.940	289.196	159.637	492.164	390.374	418.865	409.274	367.670	0.00021594	0.00014381	0.00011595	345.47	1.8799e-06	2.5207e-06	277.59	114.54	3.0449e-06	2.5625e-06	104.04	35.061	41.152	13.19	4.7075e-06	13.029	0.0019464	0.0027772	0.00076336	392.97	2.9504e-05	3.1002e-05	309.63	127.17	2.8629e-05	3.0755e-05	117.95	40.029	47.785	15.125	2.9214e-05	15.224	152.526	483.901	291.534	159.062	367.227	296.729	158.004	164.305	270.378	417.549	162.067	166.455	168.219	175.264	289.015	171.903	-8191	255	
29887.877	1	1	0	0	0.18703	0.11084	0.28546	0.095621	0.23249	0.11884	0.064233	0.10476	0.18588	0.17353	0.077731	0.23738	0.12034	0.21064	0.15739	0.11083	-2.2479	-2.2479	-2.8917	-2.2896	-2.3708	-2.8208	-2.2104	-2.8104	-2.5771	-2.2604	-2.8937	-2.375	-2.2896	-3.0563	-2.1417	-2.8937	195.052	210.940	157.536	494.961	380.142	294.020	479.996	191.757	329.352	261.556	178.317	419.269	442.572	478.288	158.754	501.760	0.00017023	0.00043758	0.00011133	344.82	9.8409e-07	1.0369e-06	279.71	114.62	2.118e-06	1.6681e-06	103.81	35.135	41.574	13.343	3.0321e-06	13.077	0.0019335	0.00278	0.00076629	393.7	2.9869e-05	3.0913e-05	312.13	127.63	2.8783e-05	3.0325e-05	118.26	39.988	48.102	15.254	2.9278e-05	15.243	158.920	266.787	271.225	159.502	350.225	357.379	157.754	164.225	279.720	270.181	162.632	166.525	168.060	175.081	240.742	172.096	-8191	255	
29887.973	1	1	0	0	0.062899	0.25368	0.10663	0.21854	0.062881	0.17921	0.12228	0.13946	0.27133	0.21611	0.078608	0.1408	0.03748	0.072939	0.088442	0.19354	-2.4083	-2.0521	-2.8979	-2.4333	-2.3688	-2.9646	-2.2271	-2.6417	-2.7917	-2.4125	-2.9542	-2.5833	-2.1896	-2.8854	-2.4938	-2.5854	445.842	304.627	323.605	443.334	379.631	491.263	360.238	390.229	502.326	361.879	195.180	177.547	247.682	445.328	174.868	318.928	0.0001778	0.00010741	4.1752e-05	344.39	1.0799e-06	4.4576e-06	279.31	114.56	2.2035e-06	3.4865e-06	104.09	34.998	41.309	13.396	4.8192e-07	13.077	0.0019277	0.0027502	0.00076433	393.36	2.9748e-05	3.0522e-05	311.33	127.65	2.8496e-05	3.0782e-05	118.24	39.925	47.98	15.247	2.9374e-05	15.279	177.497	358.714	489.004	159.423	213.208	328.401	158.506	164.442	260.572	368.296	162.546	166.256	168.381	175.270	337.919	171.823	-8191	255	
29888.045	1	1	0	0	0.13146	0.20752	0.14031	0.17934	0.056899	0.10748	0.19088	0.16653	0.32116	0.14741	0.18209	0.26195	0.083362	0.064653	0.11991	0.037344	-2.4625	-2.0354	-2.8292	-2.6562	-2.2042	-2.8958	-2.3604	-2.4583	-2.9437	-2.1333	-2.8104	-2.7417	-2.1292	-2.8479	-2.2938	-2.6729	312.807	245.831	371.608	466.833	277.999	163.621	369.921	211.359	367.509	172.912	391.913	408.026	479.046	471.904	156.595	163.867	0.00020168	4.2419e-05	3.4897e-05	344.87	1.4805e-06	2.0757e-07	277.56	115.4	1.6258e-06	2.7648e-06	104.49	35.095	41.013	13.245	5.1083e-06	13.1	0.0019414	0.0027735	0.00077863	394.13	2.943e-05	3.0573e-05	312.17	127.83	2.8192e-05	3.036e-05	118.49	39.992	47.742	15.236	2.9533e-05	15.244	174.171	279.810	210.666	159.543	313.685	214.842	158.106	164.572	323.091	435.252	162.561	166.536	168.037	175.272	302.233	172.188	-8191	255	
29888.141	1	1	0	0	0.10406	0.13891	0.076671	0.1968	0.33668	0.42614	0.046767	0.12925	0.14292	0.049392	0.060808	0.17549	0.26202	0.15281	0.27451	0.33769	-2.6521	-2.2104	-2.65	-2.8229	-2.1729	-2.8312	-2.2375	-2.4646	-2.9208	-2.2667	-2.7604	-2.8021	-2.1125	-2.9354	-2.4938	-2.4729	242.490	399.648	190.038	205.949	281.743	409.635	181.256	234.702	451.946	226.537	469.603	245.500	502.479	323.449	255.131	246.902	0.00022329	7.7064e-05	7.774e-05	345.52	1.0466e-06	1.1776e-06	279.39	114.32	1.2836e-06	4.4999e-06	103.57	34.849	40.959	13.238	2.3395e-06	12.851	0.0019253	0.0027655	0.0007742	394.72	2.9362e-05	3.053e-05	312.09	126.97	2.8248e-05	3.0251e-05	117.57	39.654	47.533	15.084	2.9389e-05	15.113	170.925	308.627	200.416	159.458	167.878	226.441	158.443	164.321	257.240	344.454	162.212	166.584	168.643	175.327	223.425	171.429	-8191	255	
29888.260	1	1	0	0	0.097534	0.18224	0.12068	0.087389	0.17536	0.21936	0.10656	0.17839	0.19533	0.069238	0.084619	0.10183	0.065933	0.14126	0.19373	0.2823	-2.6271	-2.25	-2.7417	-2.8937	-2.0354	-2.8646	-2.5563	-2.3333	-2.8937	-2.3688	-2.6354	-2.9021	-2.1792	-2.8042	-2.6458	-2.2479	235.613	234.637	258.211	464.974	470.349	271.715	406.199	219.888	269.018	320.856	170.303	505.194	173.717	342.249	487.013	484.438	0.00019448	0.00034333	9.7144e-05	344.17	2.0854e-06	8.2368e-07	279.82	114.23	2.0853e-06	9.8608e-07	103.09	34.611	40.823	13.089	4.6135e-06	12.842	0.0019306	0.0027249	0.00078124	393.44	2.9237e-05	3.1215e-05	312	126.84	2.8094e-05	3.0558e-05	117.17	39.357	47.354	14.983	2.9266e-05	14.958	171.245	213.952	308.564	159.364	274.322	315.677	158.233	164.136	394.134	459.129	162.313	166.322	168.413	175.043	241.144	171.479	-8191	255	
29888.355	1	1	0	0	0.29835	0.097732	0.021102	0.13581	0.064303	0.16625	0.17106	0.21461	0.234	0.33546	0.23867	0.0601	0.11964	0.025491	0.14609	0.31144	-2.4188	-2.1792	-2.5271	-2.9646	-2.2	-2.6729	-2.6979	-2.3542	-3.1146	-2.4521	-2.5208	-2.8583	-2.1854	-2.8083	-2.6521	-2.1604	162.666	376.466	473.037	164.320	302.058	276.589	499.100	148.029	175.025	156.549	415.956	221.329	313.834	346.001	186.845	399.909	0.00020297	5.2779e-05	8.7801e-05	343.51	1.3095e-06	1.1188e-06	275.19	113.39	2.3345e-06	3.2197e-06	102.23	34.221	40.632	13.063	3.2241e-06	12.611	0.0018992	0.0027981	0.00076653	394.06	2.9126e-05	3.0998e-05	310.1	125.98	2.7973e-05	3.0277e-05	116.29	38.995	47.04	14.89	2.9072e-05	14.778	171.371	316.879	254.173	159.287	282.244	151.276	158.415	164.229	503.747	314.433	162.422	166.673	168.543	175.034	201.196	171.841	-8191	255	
29888.453	1	1	0	0	0.17754	0.064955	0.058511	0.061633	0.18417	0.17576	0.19009	0.10075	0.22249	0.18446	0.16962	0.091367	0.076289	0.11434	0.19143	0.15486	-2.7354	-2.3146	-2.2833	-2.9979	-2.2083	-2.7104	-2.9417	-2.1396	-2.8208	-2.2792	-2.3083	-2.9583	-1.9479	-2.4875	-2.8417	-2.125	156.952	315.104	494.674	184.433	275.502	153.185	151.060	322.369	155.750	456.070	407.662	219.460	287.451	209.513	191.482	362.231	0.00024437	0.00014427	8.7267e-05	340.72	1.4386e-06	5.2939e-06	275.77	112.53	4.965e-06	2.6958e-06	100.64	33.863	40.51	13.038	4.1872e-06	12.568	0.001891	0.0027362	0.00076501	391.93	2.9043e-05	3.0845e-05	307.96	125.19	2.8066e-05	3.0263e-05	114.95	38.642	46.842	14.823	2.8538e-05	14.723	163.388	261.489	149.458	159.234	357.338	276.656	158.042	164.008	276.325	386.396	162.720	166.957	168.280	175.230	283.217	171.419	-8191	255	
29888.549	1	1	0	0	0.084616	0.34216	0.27684	0.13818	0.13484	0.08678	0.17588	0.080809	0.07804	0.19777	0.26924	0.042249	0.13302	0.071838	0.17365	0.16265	-2.3833	-2.5812	-2.2354	-2.7917	-2.3417	-2.3688	-2.7917	-2.1104	-2.7479	-2.525	-2.0979	-3.025	-2.3521	-2.5125	-2.9667	-2.0896	156.742	292.667	315.537	462.170	448.434	286.770	425.480	417.962	354.734	152.260	506.252	266.361	320.249	376.657	419.913	486.151	0.00019408	0.00050013	4.9932e-05	344.03	2.8498e-08	1.5455e-06	275.4	112.89	3.7678e-06	3.0694e-06	101.93	34.057	40.539	12.948	2.0075e-06	12.7	0.0019156	0.0027417	0.00075562	390.72	2.8741e-05	3.0524e-05	307.09	124.74	2.8064e-05	2.9934e-05	115.28	38.847	46.828	14.805	2.8335e-05	14.729	174.003	234.351	401.158	159.023	453.331	407.989	158.203	164.572	265.369	297.788	162.121	166.477	168.117	175.220	390.479	171.476	-8191	255	
29888.645	1	1	0	0	0.12495	0.19252	0.31419	0.092598	0.21315	0.31534	0.097122	0.1598	0.10515	0.11842	0.069113	0.029871	0.19271	0.13444	0.2642	0.35518	-2.3958	-2.5729	-2.0083	-3.0583	-2.5271	-2.3875	-2.9167	-1.9604	-2.8146	-2.6833	-2.1396	-2.9625	-2.5104	-2.45	-2.9771	-2.0958	384.375	395.184	267.392	459.640	413.581	195.342	214.454	307.043	319.613	316.048	340.096	405.171	162.876	477.693	436.970	208.263	0.00016753	0.00031517	0.00012475	343.8	2.8887e-06	5.7854e-06	272.75	111.87	4.3371e-06	1.533e-06	100.94	33.841	40.163	12.947	3.1584e-06	12.575	0.0019269	0.0027286	0.00075414	390.37	2.8774e-05	3.0318e-05	306.77	124.62	2.8523e-05	2.9994e-05	114.88	38.667	46.746	14.792	2.8525e-05	14.728	173.862	156.288	264.342	159.030	325.200	353.566	157.931	164.396	252.210	248.692	162.257	166.252	167.788	175.352	267.161	171.850	-8191	255	
29888.740	1	1	0	0	0.1626	0.1347	0.11625	0.33279	0.11112	0.17657	0.19977	0.11587	0.058693	0.27531	0.25366	0.084194	0.03556	0.0072572	0.11803	0.23382	-2.2792	-2.8	-2.0687	-2.9125	-2.5104	-2.325	-2.8979	-2.1562	-2.6	-2.9042	-2.2458	-2.9875	-2.525	-2.2104	-2.9854	-2.2667	459.079	491.986	384.306	297.727	438.505	389.401	182.957	230.589	318.295	341.638	256.756	222.481	249.843	163.118	287.342	505.817	0.00018026	0.00016397	5.6049e-05	341.51	4.0276e-06	3.1016e-06	274.78	111.82	2.2634e-06	3.6031e-06	100.07	33.96	40.091	12.93	1.7569e-06	12.537	0.0019241	0.0027145	0.00076245	390.57	2.911e-05	3.028e-05	306.37	124.55	2.8019e-05	3.0005e-05	114.52	38.619	46.661	14.789	2.8558e-05	14.67	161.868	265.164	479.616	159.570	319.260	380.242	158.374	163.969	316.694	348.766	162.141	165.953	167.975	175.488	174.703	170.865	-8191	255	
29888.861	1	1	0	0	0.18898	0.16475	0.10448	0.092729	0.23282	0.22889	0.18787	0.24191	0.012357	0.18967	0.22427	0.19192	0.1157	0.13232	0.23603	0.15222	-2.0438	-2.8563	-2.0812	-2.7812	-2.6917	-2.2146	-2.8854	-2.2792	-2.4125	-2.925	-2.4208	-2.7229	-2.7875	-2.2	-2.8646	-2.375	318.647	457.918	445.122	245.887	392.394	170.831	201.527	448.270	184.524	277.631	427.955	276.436	425.987	196.708	454.007	438.285	0.00012784	0.00011675	2.4037e-05	338.36	1.9994e-06	2.9954e-06	273.58	111.4	1.1441e-06	1.8725e-06	99.411	33.906	40.591	13.069	1.0803e-06	12.517	0.0019215	0.0027123	0.00076647	388.24	2.8945e-05	3.0298e-05	304.7	124.31	2.8113e-05	2.937e-05	114.09	38.706	46.887	14.905	2.8885e-05	14.692	177.260	164.313	261.781	159.132	318.890	299.529	158.656	164.193	310.039	468.594	162.322	166.272	168.692	174.824	267.218	172.149	-8191	255	
29888.955	1	1	0	0	0.16503	0.021979	0.063723	0.17872	0.24647	0.1215	0.26139	0.32723	0.19325	0.20472	0.32094	0.10128	0.17636	0.43896	0.11349	0.095053	-2.0229	-2.9292	-2.025	-2.6479	-2.6375	-2.1875	-2.8896	-2.5208	-2.2438	-2.7375	-1.9667	-2.5354	-2.7833	-2.0083	-2.9125	-2.5438	273.091	468.394	341.542	351.067	168.512	214.338	373.468	474.142	230.677	296.680	417.689	420.291	150.209	435.032	385.833	496.479	0.0002014	0.00044635	0.00012978	339.2	1.0603e-06	1.5952e-06	273.67	113.08	2.7299e-06	6.3263e-06	101.78	34.07	40.554	13.099	2.5926e-06	12.677	0.0019103	0.0027177	0.00075991	389.02	2.8936e-05	3.0672e-05	305.61	125.17	2.8171e-05	3.0114e-05	115.33	38.997	46.972	14.991	2.8887e-05	14.92	167.700	240.846	320.105	159.590	327.447	477.843	158.181	164.666	232.085	216.462	162.421	166.325	168.063	175.664	239.840	171.749	-8191	255	
29889.053	1	1	0	0	0.1055	0.17598	0.2609	0.2157	0.10221	0.1184	0.12222	0.1871	0.19203	0.23177	0.09027	0.18476	0.24339	0.15635	0.048753	0.22075	-1.9021	-2.9167	-2.0938	-2.5958	-2.8604	-2.2313	-2.9104	-2.6458	-2.0812	-3.0167	-2.3792	-2.6063	-2.9396	-2.2229	-2.875	-2.6937	405.049	328.885	464.555	297.475	370.982	162.427	460.009	437.742	472.756	202.087	460.151	458.817	447.291	248.247	176.858	451.155	0.00014577	0.00018606	6.4563e-05	343.27	2.2977e-06	2.1145e-06	274.59	112.77	3.0263e-06	3.8351e-06	103.11	34.528	41.334	13.168	2.5876e-06	12.924	0.0019188	0.0027137	0.00076186	390.9	2.8931e-05	3.062e-05	307.91	125.55	2.8203e-05	2.9958e-05	116.49	39.474	47.542	15.078	2.9015e-05	15.077	187.555	274.125	467.522	159.941	204.147	206.059	158.430	163.877	245.995	250.417	162.230	166.516	168.438	175.238	295.250	171.883	-8191	255	
29889.148	1	1	0	0	0.235	0.027705	0.13855	0.21578	0.21596	0.12568	0.20691	0.21825	0.18253	0.063729	0.15545	0.058446	0.083548	0.11587	0.20646	0.072032	-1.8333	-2.95	-2.3812	-2.4354	-2.9604	-2.2229	-2.8854	-2.8917	-2.2833	-3.0208	-2.3812	-2.1813	-3.0125	-2.0917	-2.6688	-2.7229	459.385	336.563	283.576	238.918	418.723	242.772	169.341	394.224	172.546	257.337	485.110	211.096	228.612	442.525	474.479	276.090	0.00014126	0.00034817	1.3943e-05	342.6	2.1003e-06	1.0285e-06	278.28	114.24	2.1125e-06	3.0916e-06	103.77	35.099	41.343	13.217	2.7658e-07	13.015	0.0019453	0.0027506	0.00076963	392.38	2.8951e-05	3.0755e-05	310.6	126.56	2.8325e-05	3.0551e-05	117.79	39.781	47.607	15.177	2.9197e-05	15.118	175.808	184.179	294.363	159.557	315.649	471.669	158.585	163.970	229.443	239.062	162.169	166.389	168.265	175.465	327.647	171.666	-8191	255	
29889.270	1	1	0	0	0.27592	0.12341	0.12693	0.084662	0.12837	0.48957	0.21832	0.11314	0.2857	0.25537	0.37367	0.14826	0.10049	0.0062369	0.061522	0.042151	-1.8583	-2.9229	-2.3792	-2.225	-2.9625	-2.2812	-2.6083	-2.7667	-2.2354	-2.9042	-2.6333	-2.4021	-2.875	-2.3563	-2.5187	-2.9021	422.505	257.664	331.713	494.981	283.109	329.979	400.979	407.098	274.543	421.701	157.742	483.515	337.357	310.619	316.121	384.978	0.00018061	0.00036558	9.176e-05	345.18	5.853e-06	4.1846e-06	277.14	114.03	5.3072e-06	3.2315e-06	103.69	34.92	41.434	13.396	4.4349e-06	12.997	0.0019233	0.0027003	0.000764	392.43	2.8946e-05	3.0598e-05	310.07	126.52	2.8446e-05	3.0059e-05	117.15	39.746	47.794	15.252	2.9178e-05	15.174	160.782	236.568	250.650	159.292	163.127	310.607	158.554	164.190	225.300	278.078	162.147	166.371	168.242	175.454	268.279	171.812	-8191	255	
29889.342	1	1	0	0	0.028988	0.011971	0.041059	0.06177	0.39513	0.016353	0.31347	0.12631	0.2208	0.10775	0.16098	0.084607	0.18822	0.046242	0.31737	0.083085	-1.8417	-2.8875	-2.4417	-2.1813	-2.9562	-2.3125	-2.5938	-2.9729	-2.1042	-2.8542	-2.7917	-2.1708	-2.9458	-2.2896	-2.4938	-2.9813	169.833	331.895	348.782	382.510	356.476	220.993	397.229	406.386	423.274	216.654	455.167	319.541	485.146	197.102	326.739	382.049	0.00021303	0.0001643	3.3805e-05	342.08	2.9179e-06	1.338e-06	277.13	114.14	5.7132e-06	7.0456e-07	103.59	34.873	41.076	13.229	2.6385e-06	12.973	0.0019522	0.0027473	0.00076361	391.49	2.9057e-05	3.0664e-05	309.46	126.58	2.8317e-05	3.0279e-05	117.73	39.843	47.706	15.152	2.9096e-05	15.095	183.466	480.135	310.439	159.398	199.886	379.034	158.249	164.155	288.677	282.842	162.207	166.830	168.027	175.270	259.798	171.493	-8191	255	
29889.461	1	1	0	0	0.18057	0.09752	0.18909	0.079466	0.16754	0.051428	0.098573	0.32235	0.12622	0.15386	0.11963	0.1269	0.26811	0.090477	0.4206	0.11547	-1.8979	-2.6417	-2.6583	-2.1437	-3.0563	-2.4292	-2.6437	-2.9583	-2.2354	-2.6042	-2.8354	-2.1167	-2.9729	-2.4979	-2.2271	-2.9833	317.608	163.174	185.719	458.823	184.130	345.384	491.873	382.287	255.149	358.984	374.659	458.754	488.477	467.600	174.061	161.468	0.00021154	0.00010226	8.9859e-05	344.67	3.2001e-06	6.0019e-06	278.76	112.95	2.381e-06	3.3931e-06	103.01	34.543	40.951	13.116	6.9275e-07	12.752	0.001931	0.0027123	0.00074807	392.2	2.8662e-05	3.0477e-05	310.12	125.76	2.7667e-05	2.9938e-05	116.62	39.469	47.258	14.978	2.8832e-05	14.89	165.420	445.652	254.779	159.331	206.595	283.269	158.474	164.632	502.009	358.663	162.722	166.592	167.969	175.547	152.402	171.220	-8191	255	
29889.557	1	1	0	0	0.17188	0.066349	0.040018	0.094531	0.3006	0.11147	0.11249	0.06851	0.26818	0.15245	0.31865	0.18191	0.16631	0.27035	0.068187	0.2309	-1.725	-2.6979	-2.6708	-2.0542	-2.8542	-2.4604	-2.0875	-3.0229	-2.5	-2.475	-2.9542	-2.0729	-3	-2.5875	-2.3042	-2.9417	174.053	224.984	432.890	391.277	331.611	401.235	172.135	269.767	320.662	383.792	469.948	277.841	147.377	418.334	485.681	441.623	0.00021575	0.00044202	0.00010298	340.13	6.6109e-07	3.0488e-06	276.82	113.11	2.1018e-06	4.2358e-06	101.9	34.465	40.336	13.034	4.4374e-06	12.66	0.0018968	0.0027548	0.00075698	390.62	2.8709e-05	3.0197e-05	308.08	125.36	2.8008e-05	2.971e-05	115.6	39.066	46.841	14.825	2.8824e-05	14.748	169.185	230.011	230.187	159.072	207.625	246.335	158.349	164.254	170.566	380.627	162.398	166.642	168.342	175.385	340.244	171.893	-8191	255	
29889.654	1	1	0	0	0.27179	0.040125	0.17731	0.2418	0.097858	0.2549	0.10748	0.16392	0.075404	0.13808	0.18726	0.011664	0.17423	0.23778	0.10469	0.21654	-1.8771	-2.4792	-2.6896	-2.1021	-2.9729	-2.725	-2.1333	-3.0854	-2.2687	-2.3979	-2.8438	-2.2188	-2.6896	-2.8271	-2.2833	-2.8979	419.101	426.657	161.790	204.499	342.076	502.373	238.086	358.730	187.179	283.696	390.587	192.234	200.839	367.943	232.895	191.827	0.0002079	0.00025501	0.0001076	341.6	3.2335e-06	3.0151e-06	274.58	111.9	1.7553e-06	1.4094e-06	101.21	33.987	40.03	12.869	4.0448e-06	12.632	0.0019087	0.0026778	0.00074686	389.14	2.8727e-05	3.0281e-05	306.57	124.19	2.7884e-05	2.9874e-05	114.84	38.734	46.704	14.782	2.8674e-05	14.697	153.656	221.447	278.201	159.442	279.995	263.765	158.518	164.315	424.324	482.764	162.321	166.305	168.726	175.189	304.093	171.869	-8191	255	
29889.750	1	1	0	0	0.14947	0.17012	0.073629	0.10027	0.22702	0.40107	0.2387	0.15149	0.10019	0.14976	0.14487	0.30446	0.19398	0.23151	0.067195	0.26985	-1.9104	-2.1833	-2.8688	-2.1292	-2.5917	-2.6667	-2.1979	-3.1021	-2.4583	-2.3958	-3.05	-2.2917	-2.6771	-2.9104	-2.1	-2.8917	188.045	370.103	338.796	244.576	405.725	177.044	392.595	456.248	359.335	172.443	421.070	373.540	347.451	295.159	198.241	209.389	0.00021745	0.00052866	8.9533e-05	339.29	3.3133e-06	2.9208e-06	273.62	112.3	2.3193e-06	4.4399e-06	100.78	34.086	40.078	12.905	3.9053e-06	12.567	0.0018892	0.0026756	0.00076184	388.27	2.8682e-05	2.9858e-05	305.77	124.34	2.7522e-05	2.9919e-05	114.52	38.745	46.592	14.742	2.8598e-05	14.68	178.158	241.453	273.123	159.876	207.525	369.508	158.420	164.322	334.597	378.429	162.325	166.628	168.284	175.393	320.979	172.156	-8191	255	
29889.846	1	1	0	0	0.14133	0.072055	0.15985	0.056894	0.27484	0.17192	0.32391	0.0663	0.070452	0.24099	0.21989	0.048038	0.086032	0.042704	0.092247	0.19796	-2.1458	-2.3229	-2.9021	-2.1771	-2.4854	-2.7896	-2.1833	-2.7146	-2.5021	-2.1167	-3.0375	-2.4188	-2.3771	-2.8958	-2.1667	-2.9729	441.389	329.772	183.543	201.874	223.014	181.626	371.067	290.043	478.650	484.035	426.132	321.347	389.876	492.202	465.708	481.813	0.00019657	0.00021406	0.00010784	340.14	1.9203e-06	4.7273e-06	274.28	111.84	4.7169e-06	1.5223e-06	100.24	33.779	40.343	12.879	1.5713e-06	12.606	0.0018802	0.0027221	0.00074374	387.48	2.8728e-05	2.9793e-05	306.03	124.11	2.7732e-05	2.9657e-05	114.57	38.641	46.602	14.792	2.8612e-05	14.737	182.169	476.076	204.324	159.501	239.356	335.156	158.330	164.242	265.390	417.536	162.200	166.586	168.149	175.348	479.800	171.396	-8191	255	
29889.941	1	1	0	0	0.26046	0.11462	0.047791	0.23968	0.062971	0.22423	0.11224	0.19171	0.024948	0.19895	0.14458	0.2854	0.096051	0.092861	0.17175	0.16498	-2.3354	-2.1958	-2.8667	-2.4479	-2.4125	-3.0917	-2.2646	-2.7396	-2.9833	-2.1271	-3.0125	-2.3417	-2.3	-2.7583	-2.1646	-2.5479	299.807	336.319	332.820	428.133	256.917	178.705	340.790	184.709	268.267	405.150	336.069	417.247	232.609	195.032	480.242	344.030	0.00016561	9.1861e-05	6.1777e-05	336.81	3.7098e-06	3.6071e-06	274.32	112.01	2.4914e-06	4.7032e-06	101.19	33.999	40.21	12.963	2.0394e-06	12.672	0.0018732	0.002745	0.00076905	387.82	2.8971e-05	3.0552e-05	305.94	124.09	2.8013e-05	3.0622e-05	115.03	38.846	46.855	14.826	2.9138e-05	14.849	155.990	339.287	187.579	158.978	221.101	354.878	158.517	164.497	264.303	231.347	162.456	166.766	168.563	175.349	259.333	171.781	-8191	255	
29890.035	1	1	0	0	0.36052	0.13206	0.40329	0.14926	0.18239	0.19677	0.1478	0.16294	0.1128	0.063572	0.10052	0.28209	0.31765	0.07419	0.084508	0.071888	-2.4792	-2.0375	-2.8146	-2.4813	-2.2812	-3.0187	-2.1688	-2.7083	-2.8958	-2.1958	-3.0771	-2.6646	-2.4396	-3.0958	-2.075	-2.5771	339.662	350.161	439.591	397.893	323.175	215.072	432.767	196.648	480.068	159.879	310.278	198.753	271.561	347.810	223.226	172.725	0.00019897	0.00040882	3.4711e-05	338.55	3.7363e-07	1.9032e-06	273.62	111.55	9.2342e-07	3.866e-06	101.54	33.834	40.437	13.012	3.001e-06	12.684	0.0019165	0.0027372	0.00076388	387.07	2.9212e-05	3.0752e-05	305.2	124.12	2.8166e-05	3.0014e-05	115.03	38.829	46.753	14.911	2.892e-05	14.834	162.673	255.480	186.336	159.618	314.092	391.709	158.093	164.318	159.729	271.892	162.226	166.417	168.354	175.670	365.744	171.913	-8191	255	
29890.133	1	1	0	0	0.077668	0.081725	0.067614	0.26461	0.052316	0.18178	0.25882	0.20383	0.050527	0.2369	0.24226	0.2165	0.28873	0.24726	0.07783	0.20614	-2.5646	-2.0646	-2.8354	-2.4792	-1.975	-2.8771	-2.4292	-2.425	-2.9854	-2.2292	-2.7917	-2.5	-2.1521	-2.8875	-2.3604	-2.2917	282.914	220.923	335.449	472.799	351.721	191.096	483.312	429.489	293.087	227.559	148.800	447.555	376.600	498.478	493.626	423.145	0.00019188	0.0002987	1.6485e-05	336.16	3.3763e-06	4.3953e-06	271.99	112.37	2.1169e-06	6.4251e-06	100.83	34.177	40.298	13.152	2.8055e-06	12.677	0.0019129	0.0027422	0.00076093	384.87	2.8797e-05	3.0469e-05	305.17	124.26	2.808e-05	3.0351e-05	114.94	39.002	46.836	14.981	2.8623e-05	14.926	175.444	229.116	502.632	159.836	238.237	333.312	158.320	164.423	216.803	303.489	162.448	166.454	168.530	175.201	281.684	171.922	-8191	255	
29890.230	1	1	0	0	0.27511	0.15365	0.17735	0.069565	0.2929	0.25683	0.2844	0.20868	0.075713	0.21397	0.20989	0.15369	0.22206	0.053254	0.12726	0.2394	-2.5021	-2.1604	-2.7062	-2.7354	-2.1208	-2.7979	-2.4979	-2.3104	-2.9562	-2.0104	-2.6604	-2.8458	-2.125	-2.8187	-2.5292	-2.3229	276.890	159.937	314.943	241.028	273.006	376.069	442.078	351.130	465.079	294.504	260.233	362.007	335.146	448.716	335.926	146.578	0.0001529	4.4357e-05	0.00012739	337.54	4.7588e-06	3.9349e-06	275.34	112.07	1.1639e-06	6.3803e-06	102.52	34.662	40.778	13.197	2.0345e-06	12.987	0.0018958	0.0027735	0.00076293	385.6	2.9128e-05	3.0755e-05	306.36	124.8	2.8034e-05	2.9988e-05	116.2	39.451	47.243	15.085	2.8687e-05	15.125	178.659	221.436	153.411	159.408	285.191	223.402	158.346	164.386	210.147	353.416	162.584	166.228	168.317	175.332	313.023	172.060	-8191	255	
29890.350	1	1	0	0	0.31249	0.19119	0.10421	0.1045	0.14571	0.13052	0.24743	0.20929	0.089237	0.15804	0.35446	0.36905	0.12368	0.23749	0.072339	0.054246	-2.6229	-2.2958	-2.6875	-2.8542	-1.9958	-2.8854	-2.5563	-2.1396	-3.0417	-2.2104	-2.525	-2.9292	-2.1479	-2.7625	-2.5271	-2.2938	158.164	459.530	392.513	236.963	307.029	249.923	486.283	311.863	396.404	269.750	331.877	480.914	240.762	246.269	268.190	213.559	0.00021179	0.00029486	0.0002157	337.05	2.3641e-06	2.8864e-06	276.24	112.84	2.1391e-06	2.0055e-06	102.87	34.93	40.884	13.176	7.3871e-07	13.011	0.0019187	0.0027502	0.00076546	387.55	2.908e-05	3.0791e-05	308.45	125.32	2.8296e-05	3.0266e-05	117.17	39.773	47.488	15.147	2.8972e-05	15.235	180.425	218.016	229.725	159.440	336.845	314.487	158.260	164.288	259.847	401.929	162.395	166.695	168.066	175.441	199.074	171.431	-8191	255	
29890.445	1	1	0	0	0.23617	0.16124	0.21819	0.12954	0.12534	0.23147	0.3022	0.18598	0.18872	0.11358	0.07133	0.18635	0.30818	0.11018	0.10002	0.13203	-2.6771	-2.2625	-2.4667	-3.0917	-2.2458	-2.7167	-2.5979	-2.2521	-2.775	-2.4417	-2.25	-2.8917	-2.2417	-2.7042	-2.725	-2.1958	171.079	409.898	460.652	214.823	274.272	158.758	394.801	315.369	192.572	487.211	410.706	282.414	498.182	496.575	184.731	433.347	0.00020555	0.00029975	5.5013e-05	339.9	1.1685e-06	2.8925e-06	278.94	113.86	3.4203e-06	4.5804e-06	103.22	35.026	40.688	13.267	1.8114e-06	12.987	0.0019299	0.0027502	0.00076127	389.63	2.9268e-05	3.0635e-05	311.07	126.04	2.8403e-05	3.0322e-05	117.47	39.791	47.417	15.108	2.917e-05	15.171	153.566	184.501	269.482	159.860	341.218	337.478	158.422	164.118	284.931	310.731	162.234	166.447	168.120	175.942	453.200	172.068	-8191	255	
29890.543	1	1	0	0	0.12142	0.27779	0.13159	0.11638	0.013597	0.079712	0.216	0.17397	0.25428	0.1826	0.23979	0.19004	0.30336	0.046025	0.024916	0.13895	-2.3812	-2.4042	-2.2854	-2.8979	-2.0917	-2.5854	-2.8458	-2.25	-2.9354	-2.5625	-2.3333	-3.1167	-1.9917	-2.4979	-2.775	-2.1896	367.332	398.683	379.182	376.323	487.637	452.763	497.918	453.259	431.288	353.816	409.364	287.119	483.224	147.305	205.955	481.428	0.00021694	0.0001329	5.6428e-05	339.99	2.0389e-06	2.7578e-06	277.11	112.29	3.3219e-06	1.8605e-06	101.44	34.019	40.128	12.933	1.5165e-06	12.689	0.0019503	0.0027471	0.00076993	390.39	2.9184e-05	3.0466e-05	307.71	124.77	2.7932e-05	3.0157e-05	115.29	38.864	46.701	14.786	2.8584e-05	14.844	182.808	228.897	223.336	159.587	400.660	281.808	158.177	164.256	318.201	232.302	162.405	166.621	168.693	175.136	466.249	171.547	-8191	255	
29890.639	1	1	0	0	0.12765	0.081925	0.039342	0.12991	0.17307	0.085841	0.24825	0.3443	0.21058	0.19552	0.045272	0.12027	0.22486	0.27056	0.1267	0.14494	-2.2667	-2.5958	-2.3	-2.8292	-2.3542	-2.5771	-2.9062	-2.2646	-2.7917	-2.5625	-2.0792	-2.9417	-2.3667	-2.3292	-3.0812	-2.1063	169.875	405.746	217.831	491.197	269.506	451.860	370.833	474.979	166.565	280.823	270.750	405.550	465.163	403.025	195.629	372.515	0.0001922	0.0002257	5.8669e-05	337.37	2.5609e-06	5.3842e-06	275.67	111.98	4.4769e-06	5.0983e-06	100.78	34.118	39.961	12.878	1.9511e-06	12.639	0.0019261	0.0026979	0.00077625	387.39	2.8804e-05	3.0417e-05	308.08	124.09	2.7899e-05	2.9597e-05	114.85	38.707	46.355	14.708	2.8996e-05	14.8	156.425	217.281	493.713	159.518	324.636	248.997	158.669	164.299	160.100	278.778	162.226	166.621	168.036	175.201	152.892	171.404	-8191	255	
29890.734	1	1	0	0	0.31173	0.16426	0.12473	0.07834	0.086458	0.15736	0.095435	0.18067	0.12583	0.11645	0.1344	0.12609	0.10475	0.12523	0.28745	0.12798	-2.3625	-2.7146	-2.0542	-3.0687	-2.5521	-2.4625	-3.0375	-1.9813	-2.6312	-2.775	-2.2792	-2.9833	-2.4479	-2.2479	-2.9646	-2.0125	407.976	186.159	488.393	484.108	392.535	162.783	198.380	331.316	412.578	336.668	401.740	432.914	466.486	401.612	352.821	324.257	0.0001948	0.00011023	6.28e-05	336.51	3.8284e-06	4.6095e-07	274	111.46	1.6858e-06	3.1097e-06	100.36	33.905	39.642	12.809	1.5133e-06	12.499	0.0018985	0.0027298	0.00076917	386.35	2.8879e-05	3.0565e-05	306.15	123.53	2.7765e-05	3.0007e-05	114.21	38.475	46.12	14.653	2.8776e-05	14.718	169.313	188.391	247.969	159.530	368.744	271.603	158.160	164.074	215.767	176.483	162.337	166.872	168.413	175.618	255.354	171.699	-8191	255	
29890.830	1	1	0	0	0.067009	0.16133	0.11833	0.15643	0.090989	0.059378	0.073719	0.1471	0.19746	0.22718	0.14043	0.12541	0.07833	0.05032	0.32098	0.15058	-2.2333	-2.8625	-2.1625	-2.8583	-2.3146	-2.1312	-2.9062	-2.175	-2.6125	-2.9292	-2.2229	-2.9771	-2.7062	-2.3396	-2.9354	-2.2104	166.555	230.078	248.295	400.736	251.556	434.701	215.710	214.056	335.206	228.753	401.173	167.942	462.837	175.034	266.568	434.864	0.00018086	0.00018322	4.9215e-05	335.46	3.5189e-06	3.7798e-06	273.96	110.79	1.6661e-06	3.6331e-06	100.28	33.586	39.642	12.808	2.5411e-06	12.543	0.0018933	0.0027345	0.0007741	384.8	2.8769e-05	3.0504e-05	305.5	123.09	2.8082e-05	3.0032e-05	113.78	38.223	45.997	14.674	2.8839e-05	14.671	165.492	269.073	438.871	159.299	187.031	208.645	158.646	164.161	200.494	239.648	162.307	166.117	168.186	175.360	299.273	171.685	-8191	255	
29890.951	1	1	0	0	0.17463	0.1799	0.11119	0.13567	0.14413	0.21077	0.11323	0.10266	0.16592	0.14784	0.11311	0.42057	0.11154	0.17293	0.19639	0.30191	-2.1792	-2.9021	-1.9958	-2.7208	-2.4979	-2.2146	-2.9333	-2.3771	-2.3771	-2.8125	-2.1021	-2.6458	-2.5938	-2.1396	-2.8979	-2.3792	426.665	340.647	318.212	417.271	147.005	266.488	176.614	330.524	391.423	357.466	222.662	398.818	416.292	347.426	477.015	258.755	0.00017311	0.00033798	9.5488e-05	335.76	2.7729e-06	3.1197e-06	269.89	110.39	3.143e-07	1.8351e-06	99.359	33.502	39.8	12.612	2.5039e-06	12.578	0.0018963	0.0027209	0.00076328	384.47	2.8906e-05	3.0854e-05	303.2	122.62	2.7912e-05	2.9834e-05	113.17	38.058	46.061	14.549	2.8513e-05	14.581	160.600	154.743	199.192	159.510	255.228	200.631	158.233	164.387	456.450	298.382	162.460	166.663	168.444	175.126	466.050	171.665	-8191	255	
29891.045	1	1	0	0	0.11037	0.30755	0.19447	0.14771	0.14542	0.23508	0.042419	0.028597	0.16361	0.12454	0.1762	0.15112	0.1828	0.19614	0.083674	0.17533	-1.9958	-3.0708	-2.1375	-2.7375	-2.9062	-2.2646	-3.0021	-2.2708	-2.3063	-3.05	-2.3187	-2.65	-2.7208	-2.1896	-2.9292	-2.5354	223.488	429.930	241.765	397.400	354.176	319.254	261.409	201.431	400.410	298.111	464.964	394.222	217.870	172.229	444.264	386.484	0.00017969	0.00039682	9.4254e-05	334.2	3.0823e-06	3.1318e-06	270.64	109.83	1.0694e-06	7.7814e-06	98.323	32.988	39.234	12.587	1.2256e-06	12.462	0.0018831	0.0027062	0.00075034	381.94	2.8885e-05	3.035e-05	302.29	121.92	2.7715e-05	2.9876e-05	112.28	37.854	45.681	14.47	2.837e-05	14.527	156.763	192.689	211.074	159.554	300.594	273.671	158.242	164.130	242.280	290.615	162.217	166.664	168.261	175.309	249.914	172.213	-8191	255	
29891.141	1	1	0	0	0.052657	0.049093	0.10827	0.071601	0.1084	0.40789	0.26605	0.14481	0.11365	0.10828	0.23539	0.043219	0.2995	0.099426	0.15142	0.074844	-1.7271	-3.0417	-2.2979	-2.5042	-2.9979	-2.1167	-2.9083	-2.8396	-2.2	-2.9646	-2.4896	-2.4229	-2.975	-2.175	-2.8521	-2.7646	278.886	496.358	325.495	385.158	493.142	392.419	352.956	403.312	286.857	235.923	440.760	497.253	469.819	434.105	495.523	295.441	0.00023612	0.0005345	2.069e-05	334.19	1.0091e-06	5.6738e-06	270.18	110.17	1.7663e-06	3.8201e-06	99.603	33.495	39.751	12.833	5.0221e-06	12.628	0.0019004	0.0026901	0.00074265	381.57	2.8625e-05	3.0097e-05	302.05	122.3	2.7803e-05	2.94e-05	113.02	38.143	45.994	14.595	2.8659e-05	14.727	177.771	238.862	358.611	159.475	330.454	352.858	158.695	164.023	271.482	246.380	162.228	166.205	168.010	175.312	276.408	171.873	-8191	255	
29891.236	1	1	0	0	0.099175	0.24422	0.080864	0.1073	0.011728	0.13812	0.29965	0.20887	0.06006	0.093488	0.038416	0.016545	0.056426	0.22372	0.081571	0.037327	-1.7812	-2.8958	-2.6	-2.3458	-2.9729	-2.1146	-2.6958	-2.6937	-1.9792	-3.0146	-2.4437	-2.3667	-3.0604	-2.0792	-2.6354	-2.7896	452.243	165.848	162.382	277.317	481.095	267.948	425.206	352.598	224.354	464.883	400.734	410.151	326.184	233.836	182.164	444.641	0.00021788	0.00011106	9.301e-05	337.93	2.2979e-06	3.2293e-06	269.94	110.29	2.2515e-06	2.0651e-06	100.64	33.729	39.701	12.885	4.4865e-06	12.696	0.0019236	0.0027111	0.00074839	384.16	2.9053e-05	3.0496e-05	302.65	122.67	2.8271e-05	2.9948e-05	113.88	38.54	46.234	14.732	2.8401e-05	14.886	168.727	165.351	223.699	159.578	226.917	273.963	158.497	164.223	184.013	225.486	162.622	166.713	168.579	175.590	235.489	172.136	-8191	255	
29891.334	1	1	0	0	0.076814	0.14856	0.22984	0.10282	0.031382	0.22186	0.052262	0.088011	0.23275	0.19437	0.20047	0.12967	0.15584	0.1473	0.13046	0.17854	-1.7	-2.7771	-2.3708	-2.2271	-2.9854	-2.2562	-2.875	-2.8833	-2.1562	-2.7833	-2.5083	-2.1292	-2.9417	-2.2604	-2.4813	-3.0833	197.990	149.143	381.535	434.037	415.445	456.546	328.016	439.257	461.879	477.575	501.465	452.119	324.173	436.109	287.129	461.081	0.00021849	0.00016384	9.857e-05	335.98	3.7088e-06	1.8895e-06	275.12	110.98	1.3713e-06	2.2918e-06	101.05	33.99	39.799	12.908	1.8861e-06	12.726	0.0019013	0.0027079	0.0007577	384.08	2.8751e-05	3.0213e-05	305.67	123.1	2.8147e-05	2.9791e-05	114.6	38.849	46.473	14.828	2.894e-05	14.874	169.574	261.725	231.751	159.381	217.548	396.192	158.589	164.285	240.338	283.873	162.738	166.436	168.655	175.244	367.053	172.219	-8191	255	
29891.430	1	1	0	0	0.16034	0.17806	0.1646	0.35919	0.12888	0.10851	0.18043	0.1896	0.26527	0.28867	0.19384	0.15575	0.18261	0.17272	0.14339	0.054353	-1.5979	-2.6896	-2.5396	-1.9146	-3.0479	-2.3375	-2.6354	-2.9437	-2.1979	-2.9458	-2.7479	-2.1396	-2.7812	-2.4271	-2.5125	-2.9479	196.213	223.349	485.577	242.615	196.569	435.090	500.996	458.507	396.202	449.477	202.906	221.153	158.593	226.296	216.439	261.122	0.00021287	0.00023718	0.00010418	334.42	1.0772e-06	3.1437e-06	271.67	111.74	1.1746e-06	3.5948e-06	100.58	33.817	39.753	13.004	2.4715e-06	12.66	0.001913	0.0026943	0.00075002	383.24	2.8715e-05	3.026e-05	303.87	123.41	2.7993e-05	2.9563e-05	114.56	38.737	46.364	14.832	2.8973e-05	14.904	169.784	405.847	281.634	159.765	298.900	384.182	158.310	164.405	449.245	420.672	162.370	166.498	168.098	175.536	288.603	171.843	-8191	255	
29891.525	1	1	0	0	0.28873	0.16217	0.17242	0.16837	0.22959	0.30517	0.092914	0.20979	0.14544	0.060991	0.23484	0.19928	0.021645	0.44852	0.14492	0.1262	-1.9042	-2.8229	-2.7417	-2.3083	-2.9542	-2.175	-2.4313	-2.8854	-2.1896	-2.8271	-2.9104	-2.1042	-2.8542	-2.5854	-2.3354	-3.0646	473.254	268.346	269.618	346.900	206.614	375.532	232.937	427.310	393.333	363.932	410.208	436.181	361.950	182.060	149.523	378.814	0.00015629	0.00018898	2.9811e-05	335.33	2.5095e-06	1.334e-06	273.56	110.68	4.6365e-06	3.2933e-06	100.45	34.018	40.101	12.955	1.0494e-06	12.799	0.0019055	0.0026876	0.00076462	383.2	2.8587e-05	3.0262e-05	304.82	123.29	2.8134e-05	2.9674e-05	114.45	38.856	46.511	14.886	2.927e-05	15.056	182.766	288.375	175.192	159.397	220.203	497.373	158.563	164.376	249.964	246.885	161.971	166.652	168.516	175.328	199.726	171.664	-8191	255	
29891.646	1	1	0	0	0.23701	0.12689	0.056509	0.274	0.34323	0.1408	0.17058	0.22294	0.10918	0.2103	0.2993	0.25414	0.26969	0.11603	0.024846	0.054569	-1.9375	-2.6083	-2.8229	-2.1437	-2.6562	-2.6479	-2.3958	-3.0667	-2.2313	-2.4208	-2.7854	-2.2292	-2.6167	-2.6333	-2.2042	-3.0125	478.897	434.206	410.503	430.456	465.440	163.868	463.824	210.199	485.241	390.233	383.785	473.660	315.785	429.334	452.793	465.974	0.00017402	0.00035161	3.5038e-05	334.32	3.5978e-06	5.1368e-06	273.29	111.6	1.4719e-06	2.59e-06	101.01	33.999	40.157	13.071	2.6416e-06	12.917	0.0018966	0.0027126	0.00076185	384.66	2.8487e-05	3.0552e-05	306.06	123.94	2.7812e-05	3.0153e-05	115.04	38.952	46.551	14.934	2.9189e-05	15.139	176.590	222.662	233.671	159.797	230.518	265.920	158.266	164.220	310.146	273.380	162.282	167.084	168.861	175.463	229.738	171.775	-8191	255	
29891.742	1	1	0	0	0.1712	0.15818	0.21887	0.27666	0.10993	0.26381	0.15583	0.34324	0.14311	0.043762	0.10141	0.17224	0.07865	0.1938	0.06808	0.1659	-1.8687	-2.35	-2.8979	-2.2521	-2.8042	-2.6875	-2.1562	-2.8937	-2.2875	-2.3833	-2.8521	-2.1833	-2.7229	-2.8104	-2.1271	-2.7729	465.911	385.686	227.275	494.779	163.388	422.306	167.638	415.093	267.700	166.054	201.254	158.615	493.802	233.898	468.521	462.353	0.00020716	0.00012433	0.00015473	335.44	1.4418e-06	3.4837e-06	273.63	111.3	2.3635e-06	5.1112e-06	100.62	33.804	39.852	12.907	7.3965e-07	12.794	0.0019082	0.002749	0.00077252	385.39	2.8705e-05	3.0773e-05	306.82	123.65	2.801e-05	3.0067e-05	114.94	38.793	46.173	14.788	2.9213e-05	14.921	194.868	244.820	252.472	159.568	423.564	303.957	158.651	164.088	321.302	319.105	162.274	166.546	168.172	175.736	248.817	171.873	-8191	255	
29891.814	1	1	0	0	0.25553	0.16238	0.12802	0.18068	0.10664	0.15258	0.083819	0.002048	0.067976	0.087975	0.05837	0.15635	0.083611	0.056293	0.27033	0.13035	-1.8229	-2.2208	-3.0583	-2.1917	-2.6188	-2.8063	-2.2229	-3.0125	-2.4271	-2.0187	-2.8542	-2.2208	-2.6542	-2.7917	-2.1521	-2.8417	505.039	343.858	255.470	244.451	279.008	299.239	176.594	180.000	300.177	266.615	380.552	151.277	297.668	228.988	393.664	359.696	0.00020889	6.183e-05	5.9804e-05	334.1	3.1767e-06	3.6432e-06	273.61	111.38	3.8909e-06	1.4949e-06	99.683	33.439	39.455	12.68	4.4496e-06	12.501	0.0018657	0.0027283	0.00075772	384.52	2.8333e-05	3.0147e-05	304.96	122.75	2.7886e-05	3.0063e-05	113.66	38.261	46.002	14.558	2.8715e-05	14.671	151.540	287.128	212.640	159.641	329.259	254.653	158.116	164.485	350.721	394.509	162.181	166.642	168.876	175.319	264.553	171.790	-8191	255	
29891.910	1	1	0	0	0.13651	0.17493	0.28151	0.17675	0.31377	0.08293	0.10897	0.21644	0.27277	0.11319	0.10562	0.33565	0.2618	0.19521	0.014757	0.14629	-2.2417	-2.1479	-2.9625	-2.3375	-2.4417	-2.8042	-2.1229	-2.8021	-2.4917	-2.2792	-2.95	-2.2958	-2.4542	-3.1229	-2.2708	-2.8083	381.744	495.020	402.853	497.168	503.849	276.046	407.936	281.985	488.824	503.704	471.513	371.391	370.090	425.065	342.605	433.754	0.00015594	0.00013058	0.00010982	333.69	3.0234e-06	4.8631e-06	270.63	110.18	3.0104e-06	4.1052e-06	98.654	33.083	39.313	12.596	1.257e-06	12.409	0.0018821	0.002735	0.00075779	382.43	2.8877e-05	3.0291e-05	303.07	122.02	2.7855e-05	2.9919e-05	112.42	37.802	45.584	14.442	2.8573e-05	14.57	193.502	479.023	343.314	159.223	275.584	312.832	158.492	164.555	230.657	341.301	162.620	166.763	168.487	175.217	392.855	172.120	-8191	255	
29892.029	1	1	0	0	0.21999	0.46792	0.058373	0.17131	0.1182	0.30298	0.068283	0.1794	0.37219	0.063357	0.2388	0.14591	0.36543	0.22624	0.069008	0.082353	-2.1417	-1.9583	-2.7854	-2.2833	-2.1854	-2.9417	-2.4021	-2.5646	-2.6792	-2.0792	-2.9042	-2.3542	-2.225	-2.9375	-2.1875	-2.4792	159.713	419.559	502.990	433.817	196.528	494.001	423.838	230.821	433.089	349.647	481.060	476.814	500.508	446.921	366.463	335.458	0.00021116	0.00026857	0.00017292	334.28	1.8316e-06	3.7926e-06	271.66	108.92	3.25e-06	3.8617e-06	98.685	33.069	38.822	12.571	2.1802e-06	12.437	0.0019105	0.0027441	0.00075533	380.88	2.8809e-05	3.0365e-05	302.32	121.51	2.7908e-05	3.0373e-05	112.19	37.888	45.521	14.453	2.8484e-05	14.568	165.752	241.020	297.949	159.503	159.811	165.420	158.439	164.717	258.294	411.283	162.508	166.279	168.908	175.666	196.579	171.717	-8191	255	
29892.125	1	1	0	0	0.24984	0.31727	0.20565	0.1632	0.24031	0.061591	0.21485	0.19928	0.4109	0.17134	0.28167	0.066791	0.1924	0.15436	0.026759	0.1434	-2.4083	-2.1646	-2.9396	-2.5583	-2.2875	-2.8625	-2.1875	-2.4854	-2.8604	-2.1583	-2.8396	-2.4979	-2.35	-2.9479	-2.2792	-2.4542	318.083	409.848	335.074	380.442	499.369	191.130	268.406	172.415	481.833	227.349	182.277	198.993	385.957	288.586	248.243	403.016	0.00017033	0.00021317	6.5781e-05	331.83	2.3399e-06	3.6195e-06	270.16	109.37	2.3793e-06	1.5835e-06	98.376	33.27	39.176	12.527	1.2204e-06	12.519	0.0019227	0.0027481	0.00075194	381.79	2.9156e-05	3.0429e-05	302.12	121.44	2.8318e-05	2.9796e-05	111.76	37.781	45.464	14.438	2.8574e-05	14.59	160.288	495.458	191.739	159.569	318.677	359.750	158.502	164.335	247.643	368.257	162.310	166.477	168.561	175.460	256.504	172.418	-8191	255	
29892.223	1	1	0	0	0.11279	0.070678	0.067639	0.048532	0.22569	0.27732	0.1284	0.15257	0.20241	0.20795	0.032703	0.0513	0.055407	0.061649	0.1465	0.11875	-2.4125	-2.0021	-2.8312	-2.575	-2.1146	-2.9625	-2.5167	-2.4625	-2.9208	-2.1208	-2.7396	-2.6312	-2.1479	-2.8667	-2.3729	-2.3063	325.554	475.948	419.930	179.563	475.393	256.664	353.382	455.916	361.450	477.758	352.200	182.647	424.277	152.868	186.797	281.105	0.00019881	0.0003421	0.0001683	333.19	8.6578e-07	3.5896e-06	268.76	109.01	2.1524e-06	1.2378e-06	97.869	32.644	39.122	12.523	2.9406e-07	12.164	0.0019235	0.0026981	0.00075867	380.73	2.9225e-05	3.0322e-05	301.04	120.92	2.7912e-05	3.0247e-05	111.65	37.55	45.32	14.341	2.8466e-05	14.434	159.829	204.076	238.565	159.753	248.951	253.724	158.356	164.335	356.012	412.438	162.176	166.594	168.219	175.845	466.699	172.248	-8191	255	
29892.342	1	1	0	0	0.045036	0.33474	0.17173	0.36691	0.12005	0.13097	0.18521	0.13453	0.12336	0.19094	0.18051	0.16818	0.18435	0.1188	0.1286	0.039732	-2.5417	-2.1208	-2.7292	-2.8979	-2.0854	-2.7917	-2.5125	-2.2542	-3.0729	-2.2104	-2.4021	-2.9146	-2.1375	-2.9021	-2.4062	-2.2271	451.251	256.034	269.000	430.076	358.377	363.135	408.675	294.346	220.238	500.762	267.719	436.897	347.271	208.915	312.905	419.579	0.00016999	0.00020669	3.9417e-05	330.21	3.3469e-06	4.0484e-06	268.29	108.09	1.2941e-06	3.744e-06	97.666	32.585	38.683	12.433	1.6181e-06	12.235	0.0018939	0.0026849	0.00075649	379.1	2.867e-05	2.9927e-05	299.02	120.3	2.7747e-05	2.9247e-05	110.72	37.192	44.996	14.231	2.8485e-05	14.319	166.764	242.090	235.291	159.086	319.944	225.250	158.734	164.197	369.350	265.455	162.579	166.400	168.304	175.678	339.461	172.089	-8191	255	
29892.438	1	1	0	0	0.12002	0.19094	0.27175	0.16574	0.092928	0.0548	0.19457	0.11741	0.069336	0.17924	0.17881	0.18448	0.10939	0.12612	0.12111	0.021597	-2.6333	-2.2625	-2.4083	-2.875	-2.1063	-3	-2.5583	-2.0833	-2.9375	-2.2958	-2.375	-2.9375	-2.2125	-2.9938	-2.7229	-2.0604	410.553	257.593	236.427	220.042	440.824	235.114	153.237	430.784	169.066	244.989	160.650	338.380	424.995	495.989	433.770	273.243	0.00021962	0.00032448	4.1055e-05	329.45	1.2481e-06	3.9321e-06	265.38	108.41	1.9685e-06	3.8642e-06	96.667	32.705	38.602	12.509	1.2288e-06	12.287	0.0019056	0.0026921	0.00075383	378.8	2.8605e-05	2.9961e-05	298.05	119.85	2.7541e-05	2.9507e-05	110.31	37.323	45.011	14.304	2.8953e-05	14.41	169.530	458.908	303.314	159.694	221.919	279.746	158.315	164.507	336.917	368.032	162.156	166.600	168.383	175.586	328.120	171.838	-8191	255	
29892.510	1	1	0	0	0.17231	0.19184	0.14472	0.079832	0.19301	0.13519	0.24662	0.49245	0.48814	0.13458	0.19498	0.13235	0.095945	0.16362	0.1149	0.17822	-2.5208	-2.3625	-2.4646	-2.8917	-2.1813	-2.7438	-2.775	-2.1063	-2.95	-2.3396	-2.1688	-2.8625	-2.2104	-2.775	-2.7458	-2.3333	425.154	273.888	320.270	232.690	166.028	341.555	449.982	153.178	214.331	491.427	357.120	424.157	199.412	365.798	468.001	498.003	0.00015733	0.00010804	0.00014467	329.6	1.9108e-06	1.5468e-06	266.7	108.01	8.1987e-07	1.8342e-06	97.594	32.89	38.756	12.504	1.0011e-06	12.442	0.0018877	0.0027105	0.000776	376.86	2.8587e-05	3.0438e-05	297.98	120.01	2.7611e-05	2.9863e-05	111.15	37.718	45.106	14.381	2.9148e-05	14.574	184.554	157.165	281.909	159.653	263.530	230.317	158.817	164.647	228.503	317.524	162.856	166.712	168.415	175.982	271.281	172.121	-8191	255	
29892.631	1	1	0	0	0.26386	0.12172	0.053918	0.23736	0.14774	0.11164	0.098727	0.020049	0.12378	0.050635	0.051933	0.27563	0.066719	0.29936	0.16688	0.25148	-2.5208	-2.4229	-2.4604	-3	-2.2062	-2.5542	-2.7333	-2.1833	-2.7271	-2.5021	-2.3667	-3.0021	-2.0125	-2.4354	-2.9	-2.2438	224.244	493.137	335.630	483.306	476.747	417.218	222.128	334.545	156.889	372.751	242.041	203.929	231.998	148.434	421.652	446.703	0.00018407	0.00057872	9.7355e-05	328.37	2.3821e-06	2.5508e-06	267.53	108.25	2.2773e-06	2.456e-06	96.899	33.204	39.228	12.576	1.4403e-06	12.571	0.0018989	0.0027804	0.00077673	377.67	2.8878e-05	3.0822e-05	299.37	120.18	2.7926e-05	3.054e-05	111.53	37.793	45.306	14.436	2.9261e-05	14.675	158.513	354.864	163.759	159.415	211.548	182.211	158.675	164.231	306.805	191.373	162.334	166.635	168.710	175.560	239.084	171.951	-8191	255	
29892.727	1	1	0	0	0.092576	0.22073	0.088737	0.055342	0.18131	0.046829	0.092956	0.24668	0.071654	0.13404	0.18155	0.12667	0.10333	0.25923	0.19206	0.18167	-2.3417	-2.6354	-2.1813	-2.8083	-2.1333	-2.4375	-2.8646	-2.2417	-2.7979	-2.4625	-2.0458	-2.8917	-2.2083	-2.2042	-2.8771	-2.0146	214.969	151.469	335.347	196.342	379.213	300.630	169.952	358.686	340.661	315.656	174.469	161.289	206.362	176.210	153.377	397.102	0.00013564	0.00013712	7.9467e-05	326.93	1.2425e-06	9.9499e-07	267.23	108.56	2.4692e-06	2.0088e-06	97.279	33.173	38.968	12.592	2.2086e-06	12.517	0.0019009	0.0027348	0.00076851	376.19	2.8875e-05	3.0763e-05	299.1	120.44	2.7756e-05	3.0644e-05	111.59	37.836	45.397	14.454	2.8969e-05	14.669	506.332	451.778	349.319	159.082	223.557	235.144	158.527	164.581	193.926	246.601	162.824	167.024	168.568	175.307	352.553	172.364	-8191	255	
29892.822	1	1	0	0	0.36848	0.18624	0.12834	0.092293	0.10223	0.095444	0.016101	0.12853	0.062991	0.19505	0.078194	0.18014	0.32626	0.28018	0.085018	0.056786	-2.3146	-2.5062	-2.0708	-3.1604	-2.4646	-2.3729	-2.9437	-2.1604	-2.6229	-2.8104	-1.9771	-2.7979	-2.3021	-2.2229	-2.9896	-2.2562	344.657	372.652	450.822	298.669	161.069	503.839	191.541	268.104	327.873	153.027	420.201	430.444	444.661	476.071	300.976	268.825	0.00019469	0.00045329	4.0697e-05	325.65	1.5591e-06	6.4817e-06	269.93	108.3	8.118e-07	1.9015e-06	98.961	33.421	38.905	12.728	3.4527e-06	12.682	0.0018985	0.0027715	0.00077003	376.73	2.9248e-05	3.0931e-05	299.9	120.51	2.8255e-05	3.0761e-05	112.51	38.199	45.371	14.613	2.945e-05	14.892	160.784	252.589	293.506	159.542	501.824	269.961	158.773	164.422	210.743	342.701	162.667	166.853	168.695	175.329	291.122	171.935	-8191	255	
29892.943	1	1	0	0	0.2069	0.28864	0.18495	0.15465	0.13853	0.30902	0.03968	0.082149	0.40599	0.18908	0.19738	0.13359	0.12882	0.14423	0.14628	0.16948	-2.1146	-2.8063	-1.9792	-2.8771	-2.5167	-2.4104	-3.0292	-2.2792	-2.4604	-3.1396	-2.2542	-2.6625	-2.6562	-2.1979	-2.9521	-2.3875	211.423	504.320	389.537	486.886	312.774	271.714	353.209	387.599	216.555	497.542	455.874	208.972	437.916	412.225	233.890	425.180	0.00015639	0.00056733	3.3832e-05	330.07	3.0807e-06	2.4675e-06	268.94	109	4.7568e-06	1.8578e-06	98.832	33.499	39.243	12.804	2.8385e-06	12.742	0.0019434	0.0028064	0.00077745	377.76	2.9726e-05	3.1525e-05	300.98	121.41	2.8575e-05	3.0813e-05	113.02	38.415	45.673	14.64	2.9045e-05	14.852	178.165	260.508	381.993	159.678	183.136	459.652	158.244	164.433	290.746	354.794	162.619	166.559	168.428	175.486	373.507	171.846	-8191	255	
29893.037	1	1	0	0	0.25356	0.3241	0.097971	0.13979	0.039698	0.26018	0.11489	0.096145	0.17533	0.23444	0.31299	0.19621	0.18566	0.1651	0.10453	0.14553	-1.9937	-2.8354	-1.9646	-2.6792	-2.7729	-2.1854	-2.9792	-2.2271	-2.2646	-2.8583	-2.1125	-2.7604	-2.7687	-2.2854	-2.8937	-2.4979	330.236	459.980	358.785	468.443	366.597	378.485	432.292	386.468	155.578	477.931	500.943	468.123	154.219	189.265	434.728	465.280	0.00021685	0.00011753	6.4021e-05	331.91	1.7204e-06	3.496e-06	273.04	108.8	1.5288e-06	1.7689e-06	99.342	33.69	39.037	12.713	3.4241e-06	12.845	0.0019322	0.0027567	0.0007634	379.54	2.918e-05	3.0867e-05	303.42	121.13	2.8602e-05	3.0689e-05	113.62	38.482	45.731	14.599	2.8968e-05	14.933	161.181	226.713	213.936	159.619	374.378	245.701	158.629	164.274	192.992	350.359	162.528	166.730	168.841	175.857	228.383	171.726	-8191	255	
29893.109	1	1	0	0	0.14395	0.25229	0.27584	0.080567	0.013982	0.19891	0.099545	0.23861	0.2905	0.32753	0.21439	0.28708	0.18552	0.37759	0.10735	0.081671	-2.0208	-2.8875	-2.1625	-2.7458	-2.625	-2.0083	-2.9354	-2.2792	-2.0917	-2.925	-2.2271	-2.4583	-2.7104	-2.1104	-2.8125	-2.6188	428.605	201.251	149.318	263.633	358.513	291.245	166.242	363.786	377.426	399.294	230.930	413.053	211.234	224.727	281.871	430.598	0.00019896	0.00034192	5.0028e-05	329.86	2.3242e-06	2.4485e-06	270.28	109.12	3.4291e-06	2.9907e-06	99.225	33.545	39.105	12.67	4.6292e-06	12.652	0.0019485	0.0027415	0.00075825	379.81	2.9328e-05	3.092e-05	303.31	121.34	2.8896e-05	3.0226e-05	112.78	38.394	45.602	14.505	2.868e-05	14.787	150.745	205.638	190.109	159.891	309.977	347.323	158.085	164.397	259.418	241.939	162.372	167.148	168.540	175.602	391.931	171.740	-8191	255	
29893.205	1	1	0	0	0.19908	0.1251	0.10611	0.17748	0.21888	0.24975	0.24601	0.077402	0.18776	0.038033	0.10172	0.24151	0.024886	0.17955	0.096469	0.095986	-1.7542	-2.9667	-2.1917	-2.5375	-2.7729	-2.1896	-2.9875	-2.7396	-2.1771	-3.0146	-2.3937	-2.3708	-2.9104	-2.0625	-2.7396	-2.6104	409.043	441.786	374.351	294.109	395.064	298.425	428.039	397.308	272.443	339.999	275.688	264.328	414.203	161.027	478.480	156.792	0.00019926	0.00037378	6.5385e-05	332.68	3.0374e-06	1.2114e-06	266.88	108.31	1.947e-06	1.5497e-06	98.446	33.098	38.999	12.662	2.6566e-06	12.527	0.0019278	0.0026979	0.00075357	379.69	2.9083e-05	3.0627e-05	300.44	120.5	2.8416e-05	2.991e-05	112.24	37.992	45.368	14.441	2.8958e-05	14.704	178.162	225.126	230.425	159.516	169.339	447.687	158.665	164.554	295.733	266.490	162.699	166.872	168.848	175.372	252.204	171.919	-8191	255	
29893.326	1	1	0	0	0.16627	0.030878	0.1874	0.16203	0.31557	0.074565	0.043273	0.098912	0.13536	0.263	0.18437	0.15041	0.041843	0.22875	0.093091	0.25385	-1.7333	-2.8667	-2.3625	-2.3875	-2.9188	-2.4437	-2.6167	-2.7292	-2.1542	-2.8729	-2.6021	-2.25	-2.95	-2.1958	-2.7854	-2.9625	418.478	163.534	334.783	300.960	325.066	317.342	267.307	275.054	188.675	450.319	294.635	295.383	169.999	380.237	250.838	214.424	0.00016775	0.00025317	3.389e-05	330.84	3.5947e-06	2.1702e-06	268.28	107.9	9.5408e-07	1.9782e-06	97.512	32.987	38.577	12.427	3.21e-06	12.292	0.001953	0.0027081	0.0007571	377.29	2.8932e-05	3.0327e-05	299.74	119.75	2.8006e-05	2.9617e-05	111.1	37.57	44.694	14.231	2.8548e-05	14.411	165.752	413.318	188.460	159.801	251.708	348.509	158.469	164.424	345.655	230.550	162.510	166.707	167.899	175.493	305.274	171.698	-8191	255	
29893.424	1	1	0	0	0.24456	0.1003	0.17721	0.093263	0.29591	0.043301	0.19588	0.22637	0.12872	0.28928	0.22403	0.24374	0.10818	0.17724	0.15395	0.24739	-1.6562	-2.8458	-2.4167	-2.2271	-2.9354	-2.3375	-2.6125	-2.8812	-2.1625	-2.8042	-2.7313	-2.1333	-3.0792	-2.3792	-2.2875	-2.95	431.354	405.888	149.544	175.221	414.303	436.657	489.472	483.989	173.360	278.027	375.702	437.329	157.556	445.079	192.801	264.486	0.00021408	0.00022805	0.00016027	327.08	1.6361e-06	1.6621e-06	266.7	106.63	2.3223e-06	3.9507e-06	96.751	32.87	38.746	12.363	2.6184e-06	12.454	0.0018866	0.0026913	0.00075047	376.04	2.8323e-05	2.9896e-05	299.36	118.8	2.7688e-05	2.9685e-05	110.64	37.492	44.854	14.196	2.8946e-05	14.542	173.801	407.079	204.183	159.473	329.340	474.287	158.422	164.406	397.405	224.527	162.860	166.959	168.647	175.350	231.746	171.907	-8191	255	
29893.520	1	1	0	0	0.14348	0.12626	0.22521	0.26932	0.10907	0.030855	0.20353	0.080418	0.29608	0.20807	0.17868	0.20362	0.053073	0.31159	0.26896	0.21795	-1.8438	-2.8312	-2.5104	-2.1167	-2.7917	-2.3521	-2.4229	-2.9437	-2.0271	-2.5542	-2.6042	-2.4104	-2.95	-2.2625	-2.2896	-2.9542	282.866	493.386	365.210	423.599	153.284	230.166	452.757	382.944	216.932	455.846	187.879	413.646	204.369	393.123	299.635	155.379	0.00018102	6.6551e-05	3.7819e-05	327.01	4.4155e-06	4.5375e-06	266.98	107.72	1.8753e-06	4.7316e-06	96.511	32.974	38.541	12.509	2.687e-06	12.456	0.0018948	0.0026979	0.00077053	376	2.8528e-05	3.0329e-05	298.65	119.14	2.7883e-05	3.0115e-05	110.36	37.561	44.896	14.304	2.9474e-05	14.567	169.033	340.683	362.301	159.603	320.965	297.666	158.462	164.194	340.456	258.743	162.635	166.989	168.757	175.511	380.317	172.069	-8191	255	
29893.615	1	1	0	0	0.088395	0.20394	0.10027	0.31558	0.32898	0.081513	0.13224	0.10765	0.14203	0.15857	0.048616	0.19807	0.17494	0.043037	0.096218	0.084001	-1.8417	-2.6312	-2.7062	-2.1208	-3.0979	-2.4813	-2.2521	-2.9875	-2.2	-2.6354	-2.8937	-2.0854	-2.8667	-2.6	-2.2104	-2.9604	308.407	424.636	392.887	163.029	275.096	469.014	411.491	152.766	494.077	501.102	180.284	237.463	456.319	170.963	436.216	166.234	0.0002061	2.768e-05	3.0829e-05	327.27	1.1251e-06	6.0811e-06	263.54	106.4	9.8589e-07	2.8563e-06	95.477	32.487	38.605	12.19	2.7098e-06	12.18	0.0019096	0.0027552	0.00077494	374.5	2.8644e-05	3.0365e-05	296.63	118.27	2.7904e-05	3.0094e-05	109.28	36.873	44.519	14.045	2.8575e-05	14.199	177.024	182.719	406.047	159.549	375.607	239.927	158.511	164.397	496.393	182.285	162.682	166.886	168.789	175.651	307.554	171.913	-8191	255	
29893.711	1	1	0	0	0.12912	0.086583	0.15861	0.20522	0.13271	0.1971	0.065961	0.15067	0.17358	0.17668	0.13007	0.14647	0.23772	0.31436	0.15269	0.18282	-1.8604	-2.5229	-2.9813	-2.1917	-2.8542	-2.4979	-2.2208	-2.925	-2.1146	-2.2646	-2.8625	-2.0438	-2.7188	-2.6937	-2.1562	-2.8542	498.337	329.460	292.306	335.540	423.263	369.771	433.230	335.341	487.702	374.084	456.066	163.998	344.620	444.993	494.461	196.094	0.00014861	0.00039846	2.8788e-05	324.01	3.146e-06	2.4693e-06	263.32	105.62	9.6549e-08	2.3923e-06	95.505	32.109	38.094	12.157	4.5958e-06	12.25	0.0018801	0.0027204	0.00075382	370.74	2.8368e-05	3.0172e-05	294.13	117.53	2.7162e-05	2.9994e-05	108.84	36.788	44.235	14.034	2.8595e-05	14.269	173.774	469.957	288.991	159.710	259.281	326.880	158.324	164.443	215.920	257.157	162.312	167.198	168.588	175.646	228.140	172.271	-8191	255	
29893.807	1	1	0	0	0.046429	0.25312	0.099053	0.28694	0.17231	0.12933	0.16821	0.089471	0.23485	0.036857	0.11066	0.062766	0.041719	0.13159	0.1954	0.14599	-1.8646	-2.3208	-2.9146	-2.1771	-2.8021	-2.8104	-2.3354	-2.8812	-2.4479	-2.3146	-2.9104	-2.0708	-2.6312	-2.8458	-2.05	-2.9083	223.603	250.626	481.770	380.604	289.804	436.695	327.673	303.109	189.866	412.174	338.928	166.266	402.104	357.692	265.313	240.256	0.00020362	0.00014149	0.00010409	324.45	6.9197e-07	3.6377e-06	264.27	106.58	1.3959e-06	4.4097e-06	96.312	32.475	38.396	12.414	2.7429e-06	12.364	0.0018957	0.0027265	0.00075566	371.89	2.8803e-05	3.0189e-05	295.34	118.18	2.7842e-05	3.0299e-05	109.62	37.194	44.645	14.214	2.9028e-05	14.51	170.897	167.891	497.890	159.306	415.604	211.884	158.176	164.752	243.109	275.984	163.226	166.933	168.511	175.379	244.624	172.033	-8191	255	
29893.902	1	1	0	0	0.17833	0.10267	0.21192	0.17061	0.31362	0.32756	0.26656	0.060482	0.2277	0.098117	0.028713	0.11313	0.24894	0.093085	0.12315	0.05065	-2.2729	-2.2292	-3.0604	-2.1229	-2.6458	-2.7771	-1.9354	-2.8896	-2.7229	-2.4854	-2.9104	-2.4042	-2.5479	-2.775	-2.1792	-2.9542	481.493	345.913	355.556	451.407	199.123	371.907	235.763	466.992	362.683	225.375	329.017	262.335	476.253	498.880	162.222	219.696	0.00017603	0.000342	0.00012703	325.87	3.6106e-06	1.7639e-06	264.74	106.41	1.9422e-06	1.4023e-06	97.23	33.158	38.736	12.581	7.0728e-06	12.571	0.0019419	0.0027877	0.00076255	374.07	2.9524e-05	3.0986e-05	296.53	118.48	2.8864e-05	3.0799e-05	111.09	37.836	45.21	14.445	2.9307e-05	14.771	189.277	246.450	202.832	159.588	271.431	380.223	158.714	164.633	177.098	420.589	162.668	166.902	168.958	175.900	192.158	172.476	-8191	255	
29894.023	1	1	0	0	0.023371	0.23771	0.18851	0.1661	0.21476	0.06005	0.17622	0.13902	0.12075	0.096931	0.11351	0.42075	0.080909	0.10883	0.034903	0.016174	-2.1792	-2.2313	-2.9583	-2.3625	-2.4979	-2.95	-2.2375	-2.6417	-2.4938	-2.3354	-2.9417	-2.2583	-2.3396	-2.9313	-2.1667	-2.7625	332.158	446.574	364.748	162.108	319.447	168.468	409.535	148.441	187.576	493.863	214.954	165.732	304.966	235.950	155.137	281.499	0.0001577	0.0002098	8.3063e-05	325.87	5.771e-06	7.1359e-06	266.41	107.17	2.7322e-06	3.6629e-06	96.908	32.709	38.812	12.456	3.1607e-06	12.453	0.0019501	0.0028153	0.00076326	373.38	2.9866e-05	3.1043e-05	297.52	118.86	2.8042e-05	3.0448e-05	110.75	37.573	45.203	14.31	2.8631e-05	14.572	170.906	498.426	208.656	159.704	247.909	345.216	158.616	164.731	323.712	328.894	162.507	166.818	168.818	175.883	368.413	172.451	-8191	255	
29894.117	1	1	0	0	0.13583	0.051376	0.0097009	0.036954	0.11396	0.03979	0.042305	0.14135	0.10654	0.16043	0.18057	0.16255	0.13258	0.067471	0.090797	0.098034	-2.4042	-2.1521	-2.875	-2.4229	-2.3208	-3.0104	-2.175	-2.8958	-2.8417	-2.1188	-2.9125	-2.525	-2.3667	-2.9688	-2.0812	-2.5042	443.136	184.769	301.221	472.126	439.658	334.667	403.956	295.686	392.277	241.735	183.828	379.929	490.948	336.405	252.185	353.808	0.00017143	0.0003135	0.00010445	326.36	2.5569e-06	2.2148e-06	265.46	106.57	3.1732e-06	4.5402e-06	96.454	32.987	38.24	12.476	1.7387e-06	12.534	0.0019117	0.0027394	0.00075316	373.94	2.9223e-05	3.061e-05	296.77	118.55	2.8197e-05	2.9981e-05	110.26	37.609	44.691	14.322	2.8906e-05	14.653	188.627	245.612	398.203	159.631	204.250	346.581	158.961	164.647	234.582	358.606	162.798	167.013	168.876	175.785	255.921	172.206	-8191	255	
29894.215	1	1	0	0	0.12109	0.27228	0.089533	0.15352	0.19235	0.16914	0.18207	0.14999	0.22929	0.061972	0.10144	0.12996	0.29753	0.2192	0.16578	0.15895	-2.3354	-2.1583	-2.7396	-2.4542	-2.1688	-3.0854	-2.2625	-2.6875	-2.9208	-2.1542	-2.6688	-2.7146	-2.0271	-3.0458	-2.1979	-2.4938	163.872	491.381	260.236	486.481	457.893	303.337	413.008	348.748	389.110	247.447	178.560	423.864	462.502	464.683	424.931	397.966	0.00016884	0.00021357	4.0065e-05	326.95	1.494e-06	4.4818e-06	267.67	106.47	3.4888e-06	3.6632e-06	96.929	33.184	38.457	12.428	5.8897e-06	12.577	0.0019094	0.0027073	0.00075568	373.35	2.9176e-05	3.0147e-05	298.44	118.68	2.8275e-05	3.0448e-05	111.1	37.732	44.857	14.314	2.9058e-05	14.783	166.907	172.453	179.348	159.714	150.916	335.836	158.761	164.567	279.361	239.051	162.361	166.930	168.481	176.093	298.837	172.190	-8191	255	
29894.311	1	1	0	0	0.044091	0.36952	0.096844	0.039094	0.14578	0.20832	0.37866	0.31103	0.070038	0.12659	0.11891	0.28323	0.08051	0.059826	0.29881	0.057277	-2.525	-2.1021	-2.7375	-2.7958	-2.1667	-3.0833	-2.4583	-2.3688	-2.9979	-2.1708	-2.7292	-2.8208	-2.1813	-3.0062	-2.5083	-2.4729	320.385	344.905	363.274	479.215	312.898	357.502	423.104	455.940	490.255	284.395	354.080	464.703	234.014	418.524	461.635	194.567	0.00018189	7.3108e-05	8.3852e-05	325.48	1.469e-06	3.2344e-06	266.04	105.94	2.2583e-06	3.0972e-07	97.659	32.866	38.426	12.345	1.2298e-06	12.578	0.0019509	0.0027834	0.0007824	374.43	2.9631e-05	3.0968e-05	298.11	118.42	2.8348e-05	3.0428e-05	110.98	37.614	44.724	14.241	2.9423e-05	14.654	176.193	491.152	168.625	159.857	490.637	349.263	158.390	164.845	344.463	374.388	162.423	166.746	168.962	175.818	490.847	172.368	-8191	255	
29894.406	1	1	0	0	0.091822	0.20195	0.26584	0.24877	0.11763	0.36444	0.19974	0.22644	0.084182	0.32608	0.1067	0.097247	0.014838	0.17057	0.11997	0.31541	-2.3354	-2.2313	-2.7479	-2.7729	-2.0875	-3.0521	-2.4979	-2.2812	-3.025	-2.3083	-2.6146	-2.8521	-2.1417	-2.9292	-2.6188	-2.2833	469.548	476.547	425.254	390.028	472.337	488.065	356.904	171.209	369.433	159.132	427.352	290.895	158.927	216.092	505.086	195.795	0.00018658	0.00010815	6.9312e-05	325.21	2.8128e-06	3.9703e-07	265.8	106.8	3.0073e-06	4.8966e-06	95.529	32.153	38.353	12.321	3.4293e-06	12.265	0.0019178	0.0027242	0.00077346	373.76	2.9096e-05	3.0506e-05	297.74	118.18	2.7573e-05	2.9849e-05	109.67	36.916	44.376	14.053	2.8663e-05	14.307	170.805	367.708	166.619	159.871	304.540	165.260	158.457	164.456	213.623	353.670	162.692	167.118	168.483	175.888	286.014	172.260	-8191	255	
29894.504	1	1	0	0	0.13343	0.086747	0.14389	0.1608	0.31429	0.23823	0.24505	0.45019	0.18565	0.2365	0.20614	0.059722	0.14952	0.19185	0.22232	0.085517	-2.6792	-2.3167	-2.3375	-2.8042	-2.1625	-2.8396	-2.7333	-2.4	-3.1083	-2.3354	-2.4604	-2.8833	-2.2833	-2.925	-2.6562	-2.3312	271.284	384.834	166.233	371.499	260.045	391.618	155.645	180.132	382.727	159.592	340.202	460.926	359.300	320.061	327.393	314.176	0.00025199	0.00037052	2.3486e-05	325.35	2.9465e-06	1.2998e-06	264.29	104.8	1.1699e-06	1.5878e-06	95.039	31.702	37.4	12.067	3.3723e-06	12.025	0.001861	0.0027101	0.00075954	372.62	2.8406e-05	3.0194e-05	295.68	116.81	2.777e-05	2.9983e-05	108.31	36.457	43.811	13.879	2.9061e-05	14.145	179.119	254.512	201.518	159.612	255.608	227.788	158.466	164.905	463.307	486.621	162.900	166.811	168.780	175.577	248.796	172.193	-8191	255	
29894.623	1	1	0	0	0.17509	0.084728	0.055474	0.09005	0.1609	0.15196	0.31838	0.11366	0.14479	0.054092	0.17165	0.36038	0.31024	0.21793	0.054756	0.10722	-2.6688	-2.525	-2.2833	-3.0604	-2.3333	-2.5729	-2.7771	-2.1625	-2.9479	-2.6167	-2.3521	-3.0292	-2.3667	-2.6833	-2.7396	-2.1604	378.098	161.781	328.080	450.155	207.770	190.273	468.228	252.232	407.599	326.006	419.652	266.995	437.808	383.134	277.352	284.129	0.00018938	0.00038582	6.9193e-05	323.35	2.2714e-06	5.2772e-06	262.81	105.05	1.0775e-06	1.6734e-06	94.394	31.511	37.515	12.01	4.2683e-06	11.969	0.0018817	0.0026839	0.00076809	370.85	2.8538e-05	3.0681e-05	293.37	116.5	2.7754e-05	2.9755e-05	108	36.267	43.745	13.82	2.8482e-05	14.04	171.098	224.236	414.083	159.397	360.997	396.042	158.728	164.468	497.872	193.821	162.656	166.958	168.703	175.502	306.245	172.487	-8191	255	
29894.721	1	1	0	0	0.24734	0.1065	0.12089	0.12405	0.098209	0.15045	0.098385	0.049949	0.26884	0.062983	0.1922	0.076313	0.097219	0.35586	0.071847	0.28989	-2.4792	-2.4292	-2.0958	-3.0083	-2.2687	-2.6542	-2.7021	-2.2812	-2.8312	-2.5625	-2.4	-2.95	-2.3125	-2.5104	-2.8542	-2.2208	317.547	193.628	181.026	433.237	452.736	396.800	335.012	308.201	473.126	481.169	166.956	497.785	217.201	148.243	466.497	391.195	0.0001849	0.00021837	0.00011343	326.32	8.5234e-07	3.6242e-06	263.44	104.67	1.7923e-06	2.1538e-06	94.546	31.842	37.554	12.209	2.4144e-06	12.115	0.0018928	0.0027364	0.00076179	372.23	2.8922e-05	3.0711e-05	293.64	116.67	2.7759e-05	2.9988e-05	108.25	36.507	43.995	13.999	2.8883e-05	14.273	171.280	174.014	272.784	159.837	330.818	188.733	158.729	164.487	268.594	488.762	163.060	166.622	168.490	175.729	385.283	171.949	-8191	255	
29894.816	1	1	0	0	0.28298	0.14483	0.074068	0.085287	0.22292	0.13693	0.029767	0.33317	0.13269	0.099537	0.10168	0.20591	0.13044	0.088132	0.12224	0.062626	-2.4667	-2.6958	-2.1542	-2.9083	-2.225	-2.2333	-3.0042	-2.2313	-2.8354	-2.575	-2.1854	-2.8063	-2.25	-2.1625	-2.8354	-2.0542	158.153	422.923	342.290	495.151	270.581	495.646	287.407	303.503	391.796	344.532	463.762	343.244	203.896	360.956	482.419	233.037	0.00014805	0.0002929	9.7377e-05	323.6	5.5211e-06	3.0571e-06	261.78	104.22	2.2575e-06	6.7086e-06	94.66	32.168	37.653	12.119	3.0603e-06	12.151	0.0019399	0.0027787	0.00077654	372.18	2.9382e-05	3.1246e-05	293.38	116.57	2.8492e-05	3.0475e-05	108.41	36.693	43.868	13.902	2.8666e-05	14.176	171.824	294.849	265.696	159.646	326.303	295.798	158.327	164.212	259.648	299.299	162.672	166.919	169.008	175.631	310.106	171.704	-8191	255	
29894.912	1	1	0	0	0.10987	0.028543	0.2841	0.06876	0.11196	0.25284	0.17562	0.13236	0.19721	0.1731	0.38823	0.13106	0.14133	0.33558	0.055562	0.13985	-2.1437	-2.4813	-1.9521	-2.7729	-2.3417	-2.2708	-3.025	-2.1583	-2.6729	-2.8083	-2.1	-2.8396	-2.425	-2.2479	-2.9542	-2.3625	344.864	280.928	391.134	347.407	488.931	244.215	360.117	503.174	453.679	164.048	427.494	465.828	190.095	314.639	323.648	371.335	0.00022625	0.00029391	8.4631e-05	324.72	1.2191e-06	2.5176e-06	263.43	103.99	1.1503e-06	1.8262e-06	94.647	31.733	37.647	11.964	3.1988e-06	11.909	0.0018994	0.0027349	0.00075414	371.58	2.8726e-05	3.0385e-05	292.14	115.94	2.8354e-05	2.9934e-05	107.41	36.188	43.779	13.766	2.8278e-05	13.998	168.523	241.427	281.168	159.256	176.328	342.547	158.456	164.466	285.314	274.648	162.587	166.817	168.563	175.850	269.943	171.912	-8191	255	
29894.984	1	1	0	0	0.075224	0.135	0.12589	0.24232	0.14248	0.145	0.051207	0.16824	0.25869	0.14519	0.3145	0.37723	0.11728	0.06895	0.12571	0.40435	-1.9562	-2.7313	-2.1479	-2.8396	-2.4792	-2.1479	-2.8875	-2.2625	-2.3708	-2.8688	-2.1604	-2.8229	-2.5104	-2.1625	-2.7667	-2.3187	313.007	221.240	303.375	421.995	273.657	322.179	464.714	476.911	195.459	300.783	494.737	162.581	243.267	212.143	449.712	306.737	0.00018894	3.0205e-05	4.3329e-05	324.15	2.0992e-06	2.3151e-06	258.52	103.44	2.0595e-06	3.1498e-06	93.051	31.738	37.641	11.985	2.0832e-06	11.969	0.0019266	0.0027214	0.00075865	369.35	2.9174e-05	3.0808e-05	290.27	115.54	2.8152e-05	2.9826e-05	106.5	36.077	43.691	13.761	2.8916e-05	14.093	179.469	330.968	348.995	159.556	308.777	413.199	158.459	164.622	274.030	453.049	162.459	166.574	168.745	175.800	292.462	171.933	-8191	255	
29895.104	1	1	0	0	0.34888	0.057535	0.15933	0.16215	0.037291	0.10406	0.088881	0.052243	0.067259	0.18648	0.26976	0.094238	0.16061	0.2297	0.28027	0.19745	-1.8458	-2.8438	-2.1708	-2.8146	-2.6125	-2.2396	-2.9042	-2.3771	-2.1042	-2.9542	-2.2313	-2.8479	-2.6958	-2.0667	-2.8688	-2.5292	159.367	472.822	348.327	449.831	496.968	472.667	457.964	404.410	295.721	156.658	299.576	243.213	269.481	494.234	347.672	419.150	0.00015148	0.00028611	0.00017303	321.67	2.9051e-07	1.7824e-06	261.01	103.17	2.502e-06	9.8478e-07	93.532	31.619	37.605	12.093	1.1498e-06	12	0.0019266	0.0027228	0.00076418	368.79	2.9023e-05	3.0733e-05	291.01	115.23	2.837e-05	2.9873e-05	107.09	36.37	43.792	13.925	2.913e-05	14.209	167.296	219.087	270.146	159.039	427.238	279.189	158.152	164.263	323.182	268.576	162.439	166.707	168.488	175.892	274.066	171.727	-8191	255	
29895.199	1	1	0	0	0.29146	0.079489	0.044753	0.14842	0.24087	0.17647	0.1849	0.094492	0.11281	0.16671	0.13049	0.13211	0.19308	0.29345	0.16809	0.10584	-1.9229	-2.9292	-2.1542	-2.4396	-2.6646	-2.1396	-2.8354	-2.4625	-2.1104	-2.9208	-2.2021	-2.3625	-2.8	-2.1479	-2.7521	-2.4833	338.544	422.087	348.220	200.755	452.988	394.935	275.776	347.702	313.601	267.029	475.003	270.571	384.073	162.740	504.723	171.063	0.00018052	7.1598e-05	9.1186e-05	323.05	9.8524e-07	3.6568e-06	261.71	104.25	7.4052e-07	5.4521e-06	95.063	32.2	37.978	12.273	5.764e-06	12.335	0.0019313	0.0027282	0.00076809	369.38	2.9256e-05	3.0809e-05	292.71	116.33	2.8626e-05	3.0095e-05	108.73	36.844	44.176	14.092	2.9776e-05	14.465	167.662	187.195	488.339	159.936	494.007	373.181	158.492	164.217	288.879	499.791	162.624	166.201	168.675	175.596	268.497	171.541	-8191	255	
29895.295	1	1	0	0	0.090635	0.16476	0.20951	0.17731	0.24235	0.14503	0.076588	0.15649	0.23908	0.20591	0.1983	0.21529	0.12646	0.13484	0.13609	0.026834	-1.8104	-3	-2.3521	-2.4167	-2.8292	-2.0021	-2.7917	-2.4688	-2.1208	-3.0625	-2.2896	-2.2833	-2.9542	-1.9875	-2.5604	-2.8458	168.042	415.485	471.480	157.967	159.993	381.000	191.597	207.125	281.383	197.571	171.462	184.234	222.683	474.959	250.004	361.367	0.00018811	0.00016224	7.6205e-05	326.07	5.0984e-06	4.4719e-06	262.9	104.81	2.1455e-06	5.9501e-06	95.314	32.148	37.75	12.332	2.4052e-06	12.381	0.0019487	0.0027688	0.00077711	372.69	2.951e-05	3.1204e-05	294.33	116.6	2.8539e-05	3.0367e-05	109.29	37.065	44.299	14.176	2.9806e-05	14.548	180.233	349.997	231.347	159.670	213.458	207.077	158.359	164.390	486.181	320.991	162.651	167.167	168.457	175.504	368.725	171.703	-8191	255	
29895.391	1	1	0	0	0.13753	0.081197	0.1924	0.048689	0.1882	0.063939	0.31505	0.15059	0.091151	0.14995	0.25045	0.21479	0.17673	0.2563	0.19339	0.14729	-1.7437	-2.9375	-2.5104	-2.1646	-2.9104	-2.0104	-2.6562	-2.7333	-1.9813	-2.8271	-2.5542	-2.2458	-2.7667	-2.3063	-2.5625	-2.8458	218.606	451.782	198.908	220.003	382.142	278.957	325.672	305.238	311.838	208.560	428.527	396.499	224.071	170.052	165.207	401.174	0.00018757	0.00030412	3.9881e-05	319.88	3.4852e-06	4.7022e-06	264.51	104.97	3.275e-06	5.6709e-06	96.687	32.668	38.464	12.475	6.7733e-07	12.588	0.0019272	0.0027855	0.00078298	370.26	2.9138e-05	3.1068e-05	295.56	116.85	2.8986e-05	3.0291e-05	109.77	37.464	44.721	14.277	2.9628e-05	14.695	183.753	242.788	210.568	159.692	287.708	268.837	158.440	164.144	277.181	303.746	162.847	166.894	168.727	175.910	180.024	171.987	-8191	255	
29895.512	1	1	0	0	0.11551	0.19218	0.23785	0.23483	0.24674	0.28781	0.20959	0.062608	0.088747	0.09782	0.31508	0.067917	0.07525	0.32163	0.11908	0.13379	-1.8062	-2.9208	-2.5583	-2.0604	-2.9	-2.3604	-2.6312	-2.8729	-2.15	-2.875	-2.6562	-2.15	-2.7354	-2.3458	-2.3333	-2.9375	436.887	385.650	231.014	201.572	505.954	362.329	149.500	328.844	185.551	292.793	463.211	212.062	495.698	434.457	324.200	383.752	0.0001621	3.6387e-05	7.0138e-05	324.85	7.8737e-07	6.7929e-07	265.89	105.51	2.0628e-06	2.3516e-06	97.465	33.172	38.808	12.54	4.5311e-06	12.599	0.0019367	0.002809	0.00078454	372.5	2.9294e-05	3.1292e-05	298	117.53	2.8677e-05	3.0855e-05	110.62	37.898	44.94	14.369	2.9684e-05	14.825	165.296	406.480	240.401	159.825	159.118	363.307	158.400	164.620	456.503	188.899	162.441	166.590	168.977	175.618	300.018	171.893	-8191	255	
29895.607	1	1	0	0	0.089982	0.17832	0.19045	0.074877	0.2161	0.16242	0.096124	0.12843	0.04811	0.20665	0.062928	0.43176	0.15231	0.05323	0.077417	0.21688	-1.6333	-2.6937	-2.725	-2.1333	-2.8854	-2.2646	-2.5229	-2.9729	-2.1729	-2.6542	-2.8042	-2.2313	-2.8583	-2.3604	-2.2229	-3.0812	369.758	217.223	356.934	302.574	495.733	202.449	206.607	160.579	302.568	348.557	166.126	419.838	211.162	308.669	203.774	401.886	0.00015274	0.00028924	7.5441e-05	324.82	1.7577e-06	3.3082e-06	266.65	106.33	2.4139e-06	2.1838e-06	97.732	33.255	38.494	12.442	4.4395e-06	12.502	0.0019608	0.0028326	0.00079517	373.98	2.9849e-05	3.1732e-05	298.9	118.11	2.9001e-05	3.1092e-05	111.1	37.909	44.814	14.29	2.9766e-05	14.715	174.419	163.274	361.081	159.501	328.706	501.614	158.192	164.737	219.648	154.637	163.115	167.320	168.612	175.669	235.735	172.083	-8191	255	
29895.703	1	1	0	0	0.1997	0.14194	0.08283	0.20917	0.032581	0.088156	0.2827	0.10873	0.34422	0.13429	0.17896	0.24291	0.086688	0.26086	0.2576	0.10156	-1.9583	-2.6167	-2.7938	-2.1104	-3.0208	-2.5479	-2.125	-2.9958	-2.2667	-2.6	-2.8292	-2.1333	-2.8667	-2.7854	-2.1083	-3.0021	326.632	494.814	446.312	279.305	442.960	387.603	455.724	455.554	196.719	326.186	459.887	486.254	246.825	483.671	410.568	148.195	0.00014932	0.00049654	8.2424e-05	322.59	3.967e-06	3.9112e-06	266.7	105.74	2.273e-06	9.5957e-07	96.636	32.543	37.825	12.328	4.9413e-06	12.506	0.001967	0.0028287	0.00077379	372.4	2.9581e-05	3.1372e-05	298.41	117.59	2.8653e-05	3.0686e-05	110.25	37.36	44.393	14.16	2.9788e-05	14.623	148.649	257.337	240.184	159.707	234.086	460.359	158.397	164.378	218.219	374.635	162.978	166.805	168.776	175.686	232.231	171.827	-8191	255	
29895.801	1	1	0	0	0.19163	0.22701	0.13624	0.12343	0.19162	0.083737	0.18603	0.17772	0.081997	0.35485	0.038632	0.23722	0.086317	0.20678	0.059125	0.20474	-1.7604	-2.4313	-2.8812	-2.1833	-2.9188	-2.5854	-2.2208	-2.9854	-2.4292	-2.5104	-3.0479	-2.1375	-2.7479	-2.6792	-2.1771	-3.2167	245.010	322.488	345.373	471.693	221.751	493.054	411.393	312.717	401.730	426.620	161.081	496.867	334.038	478.564	157.492	328.920	0.00015154	0.00054121	5.8176e-05	323.5	2.2258e-06	3.2145e-06	264.01	105.03	3.5965e-06	3.0968e-06	95.547	32.4	37.893	12.22	1.6193e-06	12.358	0.0019666	0.0028212	0.00077504	372.68	2.9654e-05	3.135e-05	295.86	117.24	2.8643e-05	3.0963e-05	109.62	37.207	44.334	14.058	2.9298e-05	14.449	179.685	164.965	246.340	159.787	335.295	249.831	158.406	164.626	280.885	342.833	162.533	166.583	168.998	175.463	311.441	172.338	-8191	255	
29895.896	1	1	0	0	0.28944	0.1206	0.53786	0.24679	0.21076	0.35102	0.067702	0.22088	0.15299	0.052468	0.079987	0.078826	0.12218	0.13984	0.14755	0.22028	-1.8813	-2.3479	-3.0958	-2.1854	-2.7229	-2.875	-2.1937	-2.9271	-2.4021	-2.2521	-3.1042	-2.25	-2.6104	-2.8333	-2.0875	-3.0958	374.087	368.901	212.801	236.211	169.676	217.521	413.617	486.424	190.281	444.100	475.468	483.714	241.262	443.730	182.873	156.115	0.00015701	9.7954e-05	7.441e-05	323.82	3.7266e-06	1.1395e-06	261.99	104.25	5.3511e-06	2.4755e-06	95.728	32.215	38.22	12.143	1.9313e-06	12.202	0.0019442	0.0027939	0.00076821	371.12	2.9328e-05	3.0972e-05	294.46	116.38	2.8652e-05	3.095e-05	109.09	37.086	44.259	13.987	2.9294e-05	14.407	184.772	150.356	186.094	159.949	208.836	341.139	158.408	164.185	226.365	385.765	163.097	167.112	168.626	175.620	278.553	172.084	-8191	255	
29895.992	1	1	0	0	0.16431	0.064491	0.10126	0.099287	0.064664	0.20507	0.11132	0.013615	0.31687	0.035082	0.13794	0.10032	0.10277	0.29492	0.17321	0.29842	-2.15	-2.3229	-2.8479	-2.2042	-2.5625	-2.8354	-2.1646	-2.9813	-2.5354	-2.2604	-3.0104	-2.1208	-2.4313	-2.9	-2.0625	-3.0062	426.077	468.776	290.266	158.643	241.352	426.029	244.636	151.550	478.600	181.793	453.603	228.952	364.129	169.451	389.069	361.058	0.00017586	0.00024078	9.723e-05	322.08	3.2245e-06	2.9708e-06	260.89	104.86	3.7397e-07	6.3794e-07	95.021	32.238	37.62	12.104	2.8712e-06	12.384	0.0019486	0.0027977	0.00077463	370.36	2.999e-05	3.076e-05	293.84	116.43	2.856e-05	3.1082e-05	108.82	37.02	44.108	13.954	2.9619e-05	14.435	172.195	331.103	210.597	159.949	323.771	303.604	158.485	164.556	354.101	226.653	162.709	167.087	168.484	175.786	358.133	171.810	-8191	255	
29896.111	1	1	0	0	0.078528	0.15118	0.11792	0.41935	0.08085	0.11587	0.031596	0.16939	0.2355	0.28195	0.22539	0.17534	0.16157	0.097581	0.20841	0.067085	-2.2188	-2.2583	-2.8229	-2.5	-2.3937	-2.9938	-2.1562	-2.7479	-2.6521	-2.0687	-2.8542	-2.3937	-2.1667	-2.9917	-2.225	-2.7896	449.279	284.286	488.512	408.114	312.899	251.830	358.897	496.969	300.731	408.738	445.503	416.623	471.252	401.455	205.212	268.199	0.00018814	8.0891e-05	3.8449e-05	321.57	3.0393e-06	8.5625e-06	262.35	104.51	4.4015e-06	4.1786e-06	94.966	32.166	37.956	12.265	2.2503e-06	12.487	0.0019369	0.0027748	0.00078028	370.53	2.9651e-05	3.0905e-05	294.17	116.26	2.8712e-05	3.0976e-05	108.8	37.073	44.231	14.015	2.9598e-05	14.559	174.314	268.333	373.420	159.823	223.588	342.933	158.466	164.490	278.053	468.886	162.753	166.394	168.513	175.682	425.869	171.805	-8191	255	
29896.207	1	1	0	0	0.1568	0.10644	0.26719	0.19969	0.18614	0.087784	0.074017	0.26421	0.031577	0.19971	0.18027	0.20364	0.060138	0.13756	0.28639	0.16282	-2.4479	-2.325	-2.8771	-2.4729	-2.1917	-2.8292	-2.2958	-2.6625	-2.7729	-2.1583	-2.9313	-2.6167	-2.2396	-2.9646	-2.2083	-2.6146	464.379	448.918	176.911	215.549	499.097	379.422	236.524	317.873	307.639	339.704	387.455	400.202	320.989	172.003	451.021	381.690	0.00022425	7.105e-05	3.4801e-05	321.22	3.1254e-06	9.5194e-06	262.05	103.95	2.4018e-06	1.3822e-06	95.582	32.343	37.625	12.176	4.6967e-06	12.352	0.0019293	0.0028159	0.00077776	369.74	2.9669e-05	3.0838e-05	294.23	116.1	2.8465e-05	3.0881e-05	108.91	37.057	44.095	14.051	2.9452e-05	14.504	166.829	247.619	501.816	159.479	211.428	309.176	158.216	164.700	251.646	303.364	162.984	166.582	169.071	175.552	184.012	172.309	-8191	255	
29896.279	1	1	0	0	0.26185	0.071973	0.12216	0.16653	0.13665	0.1882	0.11171	0.056639	0.035116	0.17938	0.026131	0.21835	0.11652	0.25869	0.1031	0.33996	-2.5042	-2.1729	-2.8333	-2.5833	-2.3229	-3.0958	-2.2562	-2.5271	-2.7479	-2.275	-2.7229	-2.6979	-2.1521	-2.9208	-2.3438	-2.4396	326.467	259.148	207.640	418.825	298.471	391.315	386.588	503.883	227.849	172.257	454.227	206.963	309.125	203.359	214.046	497.275	0.00013382	0.00023079	0.00013072	321.55	2.6075e-06	3.2104e-06	263.39	103.68	2.3449e-06	6.0013e-06	95.266	32.319	37.654	12.179	1.8076e-06	12.335	0.0019306	0.0028014	0.00077247	370.57	2.9678e-05	3.0725e-05	293.25	116.08	2.8668e-05	3.0795e-05	108.58	36.956	44.071	14	2.9283e-05	14.495	175.106	220.904	217.970	159.822	506.248	296.754	158.781	164.717	372.625	246.981	162.757	166.772	168.192	175.618	462.482	172.154	-8191	255	
29896.400	1	1	0	0	0.1796	0.25023	0.13328	0.32079	0.22176	0.13795	0.17484	0.17098	0.049254	0.32091	0.17113	0.080872	0.29805	0.3599	0.18386	0.10143	-2.5563	-2.3792	-2.6708	-2.6771	-2.0687	-2.8729	-2.3458	-2.2729	-2.8312	-2.1479	-2.9188	-2.75	-2.1562	-2.9958	-2.3563	-2.2333	255.210	266.641	404.794	331.253	153.611	444.116	286.311	445.355	403.498	480.487	411.517	173.239	403.233	461.099	167.911	453.440	0.00019323	0.00032785	4.7602e-05	318.66	1.9305e-06	9.5899e-07	260.85	103.85	2.9588e-06	3.916e-06	94.916	32.246	37.779	12.235	3.4667e-06	12.48	0.0019368	0.0028014	0.00078049	369.12	2.9464e-05	3.1013e-05	291.82	115.9	2.8356e-05	3.0699e-05	108.7	37.082	44.113	14.066	2.9596e-05	14.554	165.141	252.365	363.328	159.524	260.517	431.440	158.672	164.835	343.608	213.200	162.569	166.655	169.235	175.787	267.158	172.200	-8191	255	
29896.496	1	1	0	0	0.16081	0.072685	0.097145	0.14498	0.10937	0.30958	0.33448	0.068161	0.098493	0.18488	0.28316	0.10881	0.14583	0.18439	0.22617	0.14126	-2.4292	-2.1104	-2.6042	-2.9	-2.3021	-2.9042	-2.6042	-2.3354	-2.9562	-2.4583	-2.7938	-2.825	-2.1063	-2.7333	-2.6104	-2.2125	494.553	316.380	241.193	372.997	468.283	251.273	450.143	252.413	503.565	298.231	159.483	279.933	447.419	446.640	252.360	498.016	0.00020127	0.00058713	0.00013311	322.24	7.0997e-07	1.905e-06	262.12	103.99	2.92e-06	1.5833e-06	95.792	32.338	37.793	12.299	3.0311e-06	12.641	0.0019687	0.0027933	0.00078409	369.43	2.9705e-05	3.1287e-05	293.39	115.88	2.8947e-05	3.0693e-05	109.37	37.426	44.177	14.117	2.9474e-05	14.734	158.783	240.159	441.213	159.791	407.770	352.719	158.500	164.716	205.230	147.964	162.745	166.990	168.987	175.611	353.609	172.163	-8191	255	
29896.592	1	1	0	0	0.18478	0.2136	0.24826	0.24631	0.23951	0.1189	0.13787	0.26956	0.10518	0.27953	0.040584	0.28807	0.030403	0.35592	0.24078	0.1425	-2.4396	-2.0479	-2.4208	-2.8958	-2.2687	-3.0104	-2.7208	-2.225	-2.9792	-2.3458	-2.4208	-2.9104	-2.2687	-2.7521	-2.4208	-2.1562	478.816	382.478	466.024	296.748	371.638	223.438	395.211	496.547	254.935	302.514	156.728	202.965	335.001	171.027	252.954	387.817	0.00017402	0.00044562	7.7459e-05	319.89	6.9646e-07	4.0224e-06	263.01	104.43	1.5071e-06	4.5038e-06	96.796	32.618	38.168	12.356	1.2153e-06	12.56	0.0019619	0.0028075	0.00078586	369.25	2.9842e-05	3.1573e-05	294.96	116.39	2.9099e-05	3.1565e-05	110.33	37.628	44.358	14.252	2.952e-05	14.8	149.201	187.456	287.890	159.805	386.950	405.654	158.654	164.512	378.830	281.164	162.858	166.875	168.815	175.686	408.222	171.950	-8191	255	
29896.688	1	1	0	0	0.29922	0.032455	0.152	0.097536	0.18649	0.12836	0.14113	0.1176	0.038021	0.039858	0.24393	0.082488	0.14988	0.22371	0.27969	0.17405	-2.5208	-2.1854	-2.1562	-2.8875	-2.0875	-2.5042	-2.8458	-2.2604	-2.9396	-2.4708	-2.3229	-2.9729	-2.1833	-2.8708	-2.8146	-2.1437	211.994	422.818	437.078	153.441	383.437	279.008	200.277	227.493	162.115	339.431	485.983	326.944	401.908	174.431	446.283	427.762	0.00020685	0.00040837	3.127e-05	323.06	2.3523e-06	2.5282e-06	263.94	103.69	3.5067e-06	3.5787e-06	96.425	32.779	37.947	12.44	1.1851e-06	12.675	0.0019644	0.0028164	0.00078589	370.09	3.0271e-05	3.1613e-05	295.98	116.46	2.9046e-05	3.1159e-05	110.21	37.719	44.436	14.268	3.021e-05	14.82	174.897	250.234	328.402	159.840	372.627	373.390	158.375	164.792	292.411	360.012	163.010	167.281	168.648	175.609	213.735	172.128	-8191	255	
29896.809	1	1	0	0	0.078228	0.15985	0.20213	0.16135	0.14183	0.15425	0.056271	0.32145	0.14547	0.21694	0.056874	0.24401	0.24598	0.12251	0.054313	0.051947	-2.4708	-2.3667	-2.1396	-3.0146	-2.0854	-2.5563	-2.9375	-2.1458	-2.9938	-2.5021	-2.2479	-3.0542	-2.2938	-2.4917	-2.7562	-2.1979	174.895	247.034	164.053	430.643	148.119	497.821	383.032	495.046	409.477	184.079	436.000	178.106	495.584	408.626	436.873	188.637	0.00016743	0.00027818	0.00017874	322.51	1.5019e-06	4.4096e-06	265.25	104.78	3.7193e-06	2.6677e-06	96.588	33.013	38.332	12.388	4.1437e-06	12.68	0.0019729	0.0028209	0.00078377	370.66	2.9984e-05	3.1692e-05	296.12	116.64	2.8982e-05	3.0983e-05	110.44	37.821	44.656	14.285	2.9823e-05	14.857	171.286	196.991	312.210	159.795	305.010	431.510	158.622	164.803	227.605	466.616	162.547	167.146	168.882	176.225	293.233	172.418	-8191	255	
29896.902	1	1	0	0	0.088816	0.17149	0.077841	0.027117	0.13996	0.17898	0.21919	0.24832	0.1797	0.22149	0.24005	0.23515	0.070543	0.063611	0.24279	0.16772	-2.4313	-2.5542	-2.2125	-2.9458	-2.1833	-2.2667	-3.0917	-2.1208	-2.7479	-2.7146	-2.3458	-3.0667	-2.4688	-2.4125	-2.9021	-2.1417	457.530	368.786	171.488	189.217	435.629	318.354	225.667	393.779	469.147	415.041	313.341	374.583	363.583	319.988	342.166	469.684	0.00015948	0.00053229	0.00012038	321.02	1.2624e-06	9.5479e-07	264.25	104.58	2.9526e-06	5.1374e-06	97.556	33.15	38.466	12.504	1.153e-06	12.76	0.0019898	0.0028697	0.00079029	369.73	3.0105e-05	3.1785e-05	296.59	117.11	2.8964e-05	3.1268e-05	111.02	38.04	44.734	14.345	2.9712e-05	14.954	169.134	170.226	209.794	159.830	235.925	269.320	158.450	164.401	298.524	340.457	162.795	166.773	169.022	175.850	284.651	172.171	-8191	255	
29896.977	1	1	0	0	0.14364	0.016352	0.19701	0.13967	0.22662	0.32797	0.14917	0.16015	0.19496	0.25085	0.15433	0.0965	0.041364	0.099148	0.13904	0.018752	-2.1354	-2.5729	-2.1208	-2.8354	-2.5979	-2.2938	-2.9896	-2.1917	-2.6146	-2.9479	-2.1167	-2.7938	-2.3958	-2.1375	-2.9688	-2.3104	284.607	480.201	172.637	366.956	180.725	284.528	216.471	495.030	307.507	178.311	490.213	380.846	266.315	470.648	461.785	354.114	0.00013831	0.00029259	0.00012712	321.51	3.1383e-06	2.8611e-06	265.87	105.14	1.5643e-06	3.4705e-06	97.067	33.163	38.185	12.462	1.8664e-06	12.638	0.0019991	0.0028226	0.00079235	370.63	3.0076e-05	3.1937e-05	297.45	117.13	2.9182e-05	3.1625e-05	110.85	38.05	44.581	14.307	3.022e-05	14.863	175.378	176.840	232.000	160.000	359.178	241.988	158.623	164.703	205.505	322.325	162.111	167.362	168.454	175.782	215.935	172.242	-8191	255	
29897.072	1	1	0	0	0.24936	0.11276	0.12939	0.20865	0.13323	0.12622	0.053123	0.19819	0.21586	0.15948	0.093452	0.12917	0.17377	0.07439	0.1499	0.29141	-2.1104	-2.8729	-2.1771	-2.8625	-2.5917	-2.2292	-3.0521	-2.4938	-2.4688	-3.025	-2.1562	-2.8729	-2.625	-2.0062	-3.0438	-2.5062	324.103	412.112	367.461	500.824	420.186	300.313	286.028	364.609	295.897	423.844	417.182	279.750	390.007	403.321	445.328	234.221	0.00013063	0.00026801	0.00014224	322.27	2.4217e-06	6.1986e-06	266.4	105.57	2.1437e-06	1.7979e-06	96.756	32.821	37.926	12.308	6.0728e-06	12.675	0.0019929	0.0028244	0.00078878	371.33	2.9963e-05	3.1748e-05	298.02	117.23	2.9411e-05	3.0926e-05	110.82	37.737	44.478	14.183	2.9781e-05	14.779	161.903	240.548	205.861	159.847	333.361	265.228	158.613	164.357	243.375	441.080	162.673	167.131	169.199	176.000	267.902	172.135	-8191	255	
29897.191	1	1	0	0	0.41087	0.038492	0.17845	0.25562	0.32129	0.15231	0.13364	0.098005	0.22877	0.15101	0.1597	0.19123	0.16722	0.10881	0.071903	0.12503	-1.9417	-2.9188	-2.2292	-2.6729	-2.7104	-2.0563	-3	-2.4146	-2.4292	-3.0042	-1.9708	-2.5833	-2.7	-2.0833	-2.8521	-2.5708	160.479	191.683	356.280	380.973	476.329	225.806	467.105	211.520	149.971	230.084	491.156	476.271	202.417	200.195	452.724	271.463	0.00015947	0.00016908	0.00013263	323.11	2.0501e-06	4.0718e-06	263.32	104.94	2.6486e-06	2.4972e-06	95.922	32.384	38.07	12.235	2.4452e-06	12.416	0.0019748	0.002838	0.00078381	372.09	2.9549e-05	3.1921e-05	295.9	116.6	2.8939e-05	3.0858e-05	109.24	37.35	44.25	13.999	2.9977e-05	14.55	178.220	390.154	261.996	159.814	239.378	301.909	158.934	164.541	211.644	298.173	162.987	167.574	168.949	176.097	217.846	172.275	-8191	255	
29897.287	1	1	0	0	0.20231	0.13433	0.1229	0.043619	0.31553	0.31614	0.10106	0.092424	0.23141	0.28897	0.2086	0.23036	0.15399	0.10549	0.11142	0.269	-1.8062	-2.9083	-2.2208	-2.5229	-3.0125	-2.1229	-2.7479	-2.8083	-2.1667	-2.9646	-2.2104	-2.5396	-2.8271	-2.0542	-2.6937	-2.5542	253.748	384.998	221.452	412.464	226.102	193.924	155.424	173.503	229.380	350.458	465.022	503.554	208.074	300.127	382.878	446.963	0.0002047	6.9998e-05	0.00011194	319.85	3.219e-06	3.827e-06	262.49	103.59	2.5745e-06	2.4917e-06	95.201	32.392	37.885	12.269	3.0961e-06	12.42	0.001957	0.0028039	0.00078133	370.35	2.9579e-05	3.1466e-05	293.67	115.71	2.9018e-05	3.097e-05	109.03	37.154	44.114	14.01	2.9571e-05	14.553	163.509	385.713	257.618	159.736	337.260	404.141	158.722	164.610	411.352	301.537	162.953	167.255	168.943	175.821	365.789	172.477	-8191	255	
29897.385	1	1	0	0	0.044007	0.21318	0.18	0.097288	0.15165	0.040141	0.17294	0.022178	0.27656	0.073231	0.10714	0.1795	0.10062	0.25384	0.1192	0.22666	-1.6896	-2.8688	-2.0333	-2.4896	-2.8937	-2.1667	-2.7458	-2.8292	-2.1688	-3.1562	-2.5021	-2.2167	-3	-2.1063	-2.6125	-2.7188	448.826	357.162	472.588	432.812	172.985	429.171	472.482	203.478	277.012	395.825	299.678	183.500	393.167	450.799	181.536	468.676	0.00017355	0.00011983	5.6129e-05	322.92	3.2092e-06	4.9346e-07	261.81	104.1	2.2749e-06	9.4527e-07	93.917	32.149	37.583	12.055	1.7206e-06	12.308	0.0019691	0.0028095	0.00078536	369.7	2.9999e-05	3.1261e-05	292.97	115.89	2.9045e-05	3.0885e-05	108.41	37.056	44.103	13.965	2.9767e-05	14.526	159.202	281.949	302.431	159.691	209.469	455.994	158.402	164.722	311.498	316.246	163.054	167.405	168.824	176.144	481.676	173.116	-8191	255	
29897.506	1	1	0	0	0.1796	0.16798	0.079853	0.13033	0.035111	0.16847	0.10366	0.14829	0.12762	0.24543	0.23944	0.16764	0.12215	0.16006	0.11298	0.19515	-1.7667	-2.975	-2.1188	-2.5042	-2.9479	-2.3042	-2.4437	-2.8625	-2.0208	-2.9646	-2.475	-2.1229	-3.0354	-2.3375	-2.4854	-2.8083	349.994	449.067	187.730	198.171	408.243	436.175	409.794	383.916	294.029	362.565	460.396	165.257	252.109	382.882	413.246	172.131	0.00016027	0.00021358	9.4637e-05	321.06	2.4176e-06	1.2148e-06	263.89	103.63	2.9008e-06	3.2039e-06	95.253	32.523	37.742	12.094	3.0219e-06	12.507	0.0019649	0.0027995	0.00077928	369.53	2.9816e-05	3.1605e-05	294.38	115.64	2.9213e-05	3.0576e-05	109.04	37.276	44.078	13.981	2.954e-05	14.599	175.644	181.308	500.495	159.931	298.109	249.776	158.157	164.328	305.373	293.615	163.083	167.149	168.716	175.672	315.163	172.105	-8191	255	
29897.576	1	1	0	0	0.17649	0.16439	0.14929	0.23549	0.27694	0.26285	0.11689	0.03827	0.08434	0.038004	0.083803	0.11063	0.26991	0.34445	0.2861	0.2591	-1.4833	-2.8167	-2.5354	-2.0646	-3.1708	-2.2542	-2.3958	-2.8354	-1.9604	-2.8896	-2.4792	-2.1688	-3.0312	-2.325	-2.4104	-2.9771	437.146	242.532	439.519	385.225	234.269	479.898	157.521	344.382	323.415	258.689	489.938	337.466	196.894	185.132	491.112	326.615	0.00017231	0.00014488	0.00011851	318.54	4.8114e-06	5.5022e-06	262.03	104.09	6.6334e-06	4.4321e-06	94.633	32.265	37.703	12.19	7.1261e-06	12.359	0.0019887	0.002786	0.0007748	367.2	2.9983e-05	3.1371e-05	292.78	115.54	2.9021e-05	3.0517e-05	108.3	37.026	43.994	13.976	2.9234e-05	14.508	171.006	416.656	246.911	159.619	392.984	319.880	158.778	164.778	329.370	191.829	163.216	167.273	168.288	175.766	303.531	172.713	-8191	255	
#DATA ENDS
