BOXY.EXE: ISS Imagent and Oximeter Data Acquisition Program Version 0.80
Ascii Record File

#ACQ INFORMATION
2  Detector Channels 
16  External MUX Channels 
1  Auxiliary Channels 
5000  Waveform (CCF) Frequency (Hz)
1  Waveforms Skipped 
30  Waveforms Averaged 
1  Cycles Averaged 
16  Acquisitions per Waveform 
10.0806  Updata Rate (Hz) 

#FILE INFORMATION
TRUE -- External MUX Channel results are PARSED.
FALSE -- AC DC and Phase are NOT grouped.
TRUE -- Companion Program Settings File CREATED.
FALSE -- AC data not excluded
FALSE -- DC data not excluded
FALSE -- Phase data not excluded
FALSE -- Auxillary Chn. data not excluded
Tab delimiters

#CALIBRATION STATE
TRUE -- Waveform Calibration Values APPLIED.


#AUX CALIBRATION VALUES
Val Type	aux-1	

Term	1.0000e+00	
Factor	0.0000e+00	


#WF CALIBRATION VALUES
A = Detector Channel
Val Type	A-AC1	A-AC2	A-AC3	A-AC4	A-AC5	A-AC6	A-AC7	A-AC8	A-AC9	A-AC10	A-AC11	A-AC12	A-AC13	A-AC14	A-AC15	A-AC16	A-DC1	A-DC2	A-DC3	A-DC4	A-DC5	A-DC6	A-DC7	A-DC8	A-DC9	A-DC10	A-DC11	A-DC12	A-DC13	A-DC14	A-DC15	A-DC16	A-Ph1	A-Ph2	A-Ph3	A-Ph4	A-Ph5	A-Ph6	A-Ph7	A-Ph8	A-Ph9	A-Ph10	A-Ph11	A-Ph12	A-Ph13	A-Ph14	A-Ph15	A-Ph16	

Term	0.00000e+00	0.00000e+00	0.00000e+00	0.00000e+00	0.00000e+00	0.00000e+00	0.00000e+00	0.00000e+00	0.00000e+00	0.00000e+00	0.00000e+00	0.00000e+00	0.00000e+00	0.00000e+00	0.00000e+00	0.00000e+00	0.00000e+00	0.00000e+00	0.00000e+00	0.00000e+00	0.00000e+00	0.00000e+00	0.00000e+00	0.00000e+00	0.00000e+00	0.00000e+00	0.00000e+00	0.00000e+00	0.00000e+00	0.00000e+00	0.00000e+00	0.00000e+00	0.00000e+00	0.00000e+00	0.00000e+00	0.00000e+00	0.00000e+00	0.00000e+00	0.00000e+00	0.00000e+00	0.00000e+00	0.00000e+00	0.00000e+00	0.00000e+00	0.00000e+00	0.00000e+00	0.00000e+00	0.00000e+00	
Factor	1.00000e+00	1.00000e+00	1.00000e+00	1.00000e+00	1.00000e+00	1.00000e+00	1.00000e+00	1.00000e+00	1.00000e+00	1.00000e+00	1.00000e+00	1.00000e+00	1.00000e+00	1.00000e+00	1.00000e+00	1.00000e+00	1.00000e+00	1.00000e+00	1.00000e+00	1.00000e+00	1.00000e+00	1.00000e+00	1.00000e+00	1.00000e+00	1.00000e+00	1.00000e+00	1.00000e+00	1.00000e+00	1.00000e+00	1.00000e+00	1.00000e+00	1.00000e+00	X	X	X	X	X	X	X	X	X	X	X	X	X	X	X	X	

B = Detector Channel
Val Type	B-AC1	B-AC2	B-AC3	B-AC4	B-AC5	B-AC6	B-AC7	B-AC8	B-AC9	B-AC10	B-AC11	B-AC12	B-AC13	B-AC14	B-AC15	B-AC16	B-DC1	B-DC2	B-DC3	B-DC4	B-DC5	B-DC6	B-DC7	B-DC8	B-DC9	B-DC10	B-DC11	B-DC12	B-DC13	B-DC14	B-DC15	B-DC16	B-Ph1	B-Ph2	B-Ph3	B-Ph4	B-Ph5	B-Ph6	B-Ph7	B-Ph8	B-Ph9	B-Ph10	B-Ph11	B-Ph12	B-Ph13	B-Ph14	B-Ph15	B-Ph16	

Term	0.00000e+00	0.00000e+00	0.00000e+00	0.00000e+00	0.00000e+00	0.00000e+00	0.00000e+00	0.00000e+00	0.00000e+00	0.00000e+00	0.00000e+00	0.00000e+00	0.00000e+00	0.00000e+00	0.00000e+00	0.00000e+00	0.00000e+00	0.00000e+00	0.00000e+00	0.00000e+00	0.00000e+00	0.00000e+00	0.00000e+00	0.00000e+00	0.00000e+00	0.00000e+00	0.00000e+00	0.00000e+00	0.00000e+00	0.00000e+00	0.00000e+00	0.00000e+00	-1.96768e+02	-1.29699e+02	-1.34807e+02	-1.86339e+02	-7.54990e+01	-7.41266e+01	-1.58506e+02	-1.62015e+02	-8.93850e+01	-6.60437e+01	-1.71896e+02	-1.71132e+02	-1.83122e+02	-1.77420e+02	-7.77319e+01	-1.49721e+02	
Factor	4.32825e-05	1.44022e-04	4.41656e-05	2.97642e-01	1.53383e-06	1.64817e-06	1.64269e-01	5.16134e-02	1.72359e-06	1.70877e-06	8.37101e-02	2.83187e-02	3.98013e-02	9.20130e-03	1.82911e-06	1.31369e-02	6.94130e-06	8.10315e-06	2.27153e-06	1.56454e-01	8.77933e-08	8.93870e-08	8.17851e-02	2.74120e-02	8.57484e-08	8.94539e-08	4.31033e-02	1.45842e-02	2.12693e-02	4.93711e-03	8.74364e-08	6.82897e-03	X	X	X	X	X	X	X	X	X	X	X	X	X	X	X	X	



#DISTANCE SETTINGS
A = Detector Channel
A-1	A-2	A-3	A-4	A-5	A-6	A-7	A-8	A-9	A-10	A-11	A-12	A-13	A-14	A-15	A-16	

2.5000e+00	3.0000e+00	2.5000e+00	3.0000e+00	2.0000e+00	3.0000e+00	1.5000e+00	3.0000e+00	3.0000e+00	3.0000e+00	3.0000e+00	3.0000e+00	3.0000e+00	3.0000e+00	1.5000e+00	3.0000e+00	

B = Detector Channel
B-1	B-2	B-3	B-4	B-5	B-6	B-7	B-8	B-9	B-10	B-11	B-12	B-13	B-14	B-15	B-16	

1.0000e+01	1.0000e+01	1.0000e+01	1.4400e+00	1.0000e+01	1.0000e+01	1.5100e+00	1.9400e+00	1.0000e+01	1.0000e+01	1.9900e+00	2.4900e+00	2.4100e+00	2.9000e+00	1.0000e+01	2.9800e+00	




#DATA BEGINS
time	group	step	mark	flag	A-AC1	A-AC2	A-AC3	A-AC4	A-AC5	A-AC6	A-AC7	A-AC8	A-AC9	A-AC10	A-AC11	A-AC12	A-AC13	A-AC14	A-AC15	A-AC16	A-DC1	A-DC2	A-DC3	A-DC4	A-DC5	A-DC6	A-DC7	A-DC8	A-DC9	A-DC10	A-DC11	A-DC12	A-DC13	A-DC14	A-DC15	A-DC16	A-Ph1	A-Ph2	A-Ph3	A-Ph4	A-Ph5	A-Ph6	A-Ph7	A-Ph8	A-Ph9	A-Ph10	A-Ph11	A-Ph12	A-Ph13	A-Ph14	A-Ph15	A-Ph16	B-AC1	B-AC2	B-AC3	B-AC4	B-AC5	B-AC6	B-AC7	B-AC8	B-AC9	B-AC10	B-AC11	B-AC12	B-AC13	B-AC14	B-AC15	B-AC16	B-DC1	B-DC2	B-DC3	B-DC4	B-DC5	B-DC6	B-DC7	B-DC8	B-DC9	B-DC10	B-DC11	B-DC12	B-DC13	B-DC14	B-DC15	B-DC16	B-Ph1	B-Ph2	B-Ph3	B-Ph4	B-Ph5	B-Ph6	B-Ph7	B-Ph8	B-Ph9	B-Ph10	B-Ph11	B-Ph12	B-Ph13	B-Ph14	B-Ph15	B-Ph16	aux-1	digaux	

21298.660	1	1	0	256	0.33232	0.15753	0.22503	0.19308	0.25165	0.13881	0.17616	0.52317	0.15065	0.24319	0.28309	0.21352	0.2004	0.22059	0.17081	0.18483	-1.4083	-2.7271	-2.0604	-2.4146	-2.4979	-1.9729	-2.7354	-2.6146	-2.0104	-2.6833	-2.3958	-2.1646	-2.8438	-1.9167	-2.3271	-2.4938	-65.980	170.393	11.462	170.880	-3.162	-15.189	154.384	172.621	-90.690	231.520	262.605	259.581	242.804	248.174	-44.079	261.206	0.00034872	0.00029449	0.00015961	1379.5	3.1394e-06	5.7837e-06	1377.9	375.1	5.117e-06	6.5868e-06	429.81	145.54	125.54	43.88	4.1643e-06	54.265	0.00073236	0.00073811	0.00020994	1397.2	8.0014e-06	8.3635e-06	1397	382.86	8.1918e-06	8.2806e-06	439.2	149.24	129.53	45.151	8.334e-06	55.962	113.791	-33.216	-53.231	-80.829	68.198	62.132	-81.033	-76.433	36.340	110.084	-77.072	-72.631	-72.578	-67.613	23.928	-68.351	-8191	255	
21298.756	1	1	0	0	0.26628	0.10414	0.3071	0.29865	0.2049	0.24512	0.18434	0.30403	0.085654	0.077473	0.26601	0.20843	0.10702	0.20005	0.14648	0.078052	-1.3979	-2.4917	-2.0708	-2.2146	-2.6208	-1.8312	-2.6146	-2.6833	-1.9417	-2.775	-2.4771	-2.1167	-2.8604	-1.9792	-2.3229	-2.7438	207.799	168.904	73.957	-77.796	-29.464	204.274	252.178	193.670	204.695	214.114	196.082	101.610	203.236	-7.191	191.107	-66.329	0.00039492	0.00047547	0.00017578	1380.5	1.7712e-06	5.5608e-06	1386.3	379.47	2.6545e-06	7.398e-06	434.54	146.97	127.58	44.274	3.1006e-07	54.704	0.00073769	0.00076666	0.00021199	1402	8.2193e-06	8.356e-06	1408.5	386.16	8.2026e-06	8.3339e-06	442.96	150.25	130.6	45.565	8.4034e-06	56.378	125.684	-22.076	-14.031	-81.034	71.990	54.819	-81.237	-76.509	99.898	32.031	-76.675	-73.094	-72.350	-67.665	-43.143	-68.212	-8191	255	
21298.875	1	1	0	0	0.1995	0.14336	0.42828	0.12128	0.10811	0.079662	0.10646	0.17343	0.070286	0.088803	0.13956	0.23195	0.30193	0.057098	0.095696	0.18062	-1.4458	-2.6583	-2.2104	-2.1229	-2.9354	-2.1854	-2.4208	-2.7562	-1.7625	-2.6188	-2.5646	-2.0521	-2.5812	-2.2458	-2.1146	-2.7229	125.042	32.750	237.805	219.675	-72.387	139.846	242.439	240.811	-22.326	211.131	136.397	118.934	218.648	191.407	-56.245	248.063	0.00042625	0.0004297	0.00011572	1387	2.4614e-06	4.5389e-06	1386.9	379.27	8.9834e-06	5.286e-06	433.85	146.71	126.88	44.222	8.729e-06	54.597	0.00074299	0.00076355	0.00021301	1408.7	8.1842e-06	8.3977e-06	1409.9	386.88	8.2288e-06	8.3185e-06	441.37	149.98	130.22	45.404	8.0689e-06	56.209	121.222	31.281	-4.731	-81.054	29.148	27.192	-81.201	-76.233	-21.718	65.623	-76.891	-72.847	-72.255	-67.664	43.147	-68.327	-8191	255	
21298.971	1	1	0	0	0.1416	0.3299	0.26232	0.21158	0.21787	0.33262	0.34514	0.18591	0.1901	0.17261	0.18083	0.16043	0.13875	0.15076	0.077067	0.17926	-1.5312	-2.6312	-2.5104	-1.7854	-2.5083	-2.2042	-2.3063	-2.8396	-2.0396	-2.6312	-2.6292	-2.0187	-2.6792	-2.1813	-2.0312	-2.7875	1.529	202.292	265.213	240.277	198.349	166.065	155.203	235.558	-38.434	86.759	-45.891	138.958	188.596	-77.011	-54.420	185.962	0.00036762	0.00049697	0.00016673	1383.8	4.3918e-06	5.3203e-06	1384.3	378.6	3.3793e-06	7.747e-06	434.22	145.98	126.89	44.204	3.542e-06	54.457	0.00073088	0.00073474	0.00020597	1405.4	7.9164e-06	7.9497e-06	1404.2	384.8	8.0445e-06	7.9437e-06	441.6	149.65	130.02	45.318	7.9984e-06	56.169	130.958	-2.281	3.624	-80.849	73.852	22.326	-80.996	-76.792	31.786	40.515	-76.954	-72.851	-72.245	-67.749	34.987	-68.210	-8191	255	
21299.066	1	1	0	0	0.056742	0.19885	0.016767	0.21728	0.030399	0.018159	0.38029	0.19334	0.10938	0.10314	0.068006	0.19766	0.12153	0.28262	0.22112	0.25815	-1.5458	-2.2771	-2.4938	-1.9562	-2.6583	-2.0687	-2.1271	-2.8292	-2.1646	-2.4188	-2.7333	-2.0458	-2.6125	-2.5771	-1.9167	-2.6542	160.146	183.088	163.060	-45.007	264.486	158.725	210.200	236.033	245.476	215.089	-84.322	79.916	220.329	-86.435	-88.979	251.716	0.0004074	0.00053878	0.00013499	1380.5	2.7453e-06	4.215e-06	1380.5	378.92	4.0129e-06	7.7815e-06	433.27	145.5	126.81	44.285	5.0137e-06	54.705	0.0007107	0.00074203	0.00020359	1404.4	8.1278e-06	8.1236e-06	1404.8	386.02	8.1139e-06	8.1138e-06	441.52	149.48	130.21	45.384	8.2409e-06	56.185	121.143	14.159	-45.833	-81.000	116.682	64.526	-81.142	-76.515	14.574	75.127	-76.863	-72.548	-72.342	-67.305	42.128	-68.446	-8191	255	
21299.162	1	1	0	0	0.21796	0.12107	0.091105	0.13594	0.038063	0.09843	0.28333	0.44055	0.22203	0.15646	0.19726	0.22089	0.14781	0.29473	0.23509	0.087743	-1.6021	-2.2396	-2.4708	-1.8563	-2.6146	-2.4896	-1.9854	-2.8167	-2.1125	-2.2	-2.7146	-2.0042	-2.6021	-2.6208	-2.0167	-2.7458	24.774	-9.017	-62.140	0.085	44.686	-45.073	187.063	-79.586	87.881	122.821	159.500	71.950	-43.962	206.458	-57.398	14.922	0.00043097	0.00056174	0.00011549	1388.3	1.9772e-06	6.5084e-06	1381.6	378.24	8.1132e-06	5.7836e-06	432.08	145.11	126.54	44.105	6.822e-06	54.354	0.00073112	0.00074309	0.00020631	1404.5	8.0662e-06	8.051e-06	1402	385.59	8.057e-06	8.1515e-06	440.84	149.11	129.8	45.332	8.0585e-06	56.056	118.156	8.459	21.105	-81.020	-51.545	48.845	-81.086	-76.338	45.963	93.723	-76.910	-72.799	-72.529	-67.427	16.314	-68.183	-8191	255	
21299.260	1	1	0	0	0.37195	0.11803	0.3328	0.21462	0.15374	0.16021	0.37738	0.28423	0.13909	0.11715	0.31413	0.32281	0.3654	0.26611	0.048812	0.22163	-1.5479	-2.1104	-2.5438	-2.0354	-2.325	-2.525	-2.0771	-2.9167	-2.3104	-2.1729	-2.9125	-1.9438	-2.5333	-2.7333	-1.9458	-2.6646	6.500	-67.805	-6.571	-65.169	-67.810	215.702	200.206	247.777	-3.230	256.740	217.264	-84.537	63.271	192.732	143.528	235.561	0.00045989	0.00023814	0.0002548	1387.6	6.9993e-06	5.537e-06	1379.1	379.62	3.2609e-07	8.1267e-06	433.78	145.6	126.72	44.049	5.1559e-06	54.27	0.00072704	0.00073683	0.00020698	1403	8.2023e-06	8.334e-06	1400.5	385.52	8.2033e-06	8.2929e-06	441.58	149.37	130.2	45.221	8.3165e-06	56.01	131.437	14.493	10.800	-81.226	46.151	36.803	-81.072	-76.467	237.736	63.342	-76.938	-72.804	-72.299	-67.534	27.842	-68.258	-8191	255	
21299.355	1	1	0	0	0.17065	0.21698	0.090235	0.15264	0.16634	0.11559	0.32634	0.35488	0.16912	0.15076	0.18891	0.09174	0.3145	0.14473	0.23445	0.099535	-1.9479	-2.0187	-2.6708	-1.9917	-2.3438	-2.7146	-2.2438	-2.8688	-2.5563	-2.1708	-2.8646	-2.2875	-2.1104	-2.7396	-1.8792	-2.575	173.210	81.955	219.814	198.574	95.967	-67.435	166.209	218.337	46.451	-54.799	262.766	181.458	248.679	202.018	252.487	72.499	0.00040275	0.00044819	0.00021261	1386.2	7.7126e-06	3.7756e-06	1382.4	377.72	3.514e-06	6.3572e-06	434.01	145.71	127.13	44.05	5.7875e-06	54.413	0.00074516	0.00075218	0.00021274	1403.3	8.3358e-06	8.324e-06	1401.6	384.84	8.1936e-06	8.4359e-06	442.07	149.34	130.27	45.229	8.0059e-06	56.053	115.172	29.383	-38.949	-81.251	32.977	22.779	-81.088	-76.364	-41.450	15.568	-76.909	-72.766	-72.281	-67.304	30.462	-68.159	-8191	255	
21299.451	1	1	0	0	0.042004	0.10886	0.19911	0.17574	0.11173	0.079108	0.15179	0.086765	0.098321	0.21276	0.18951	0.25085	0.20937	0.46863	0.16357	0.063673	-2.0854	-2.0167	-2.6167	-2.3479	-2.1188	-2.8354	-2.2167	-2.4667	-2.6083	-1.875	-2.8458	-2.3187	-2.2396	-2.8208	-2.05	-2.4188	218.506	-87.201	203.368	-58.304	151.036	-43.882	204.948	213.102	-69.881	170.955	190.999	242.932	218.264	255.315	-74.520	-69.684	0.00034447	0.00029365	0.00021335	1381.4	5.0845e-06	8.3847e-06	1381.4	378.08	5.0669e-06	7.8727e-06	431.73	145.41	126.43	44.101	4.9848e-06	54.327	0.00072197	0.00074904	0.00020823	1401.2	8.0838e-06	8.2039e-06	1401.5	385.44	7.9792e-06	8.2926e-06	440.44	149.27	129.84	45.289	8.2463e-06	55.928	132.395	26.846	20.928	-81.007	55.424	43.782	-81.292	-76.250	54.929	51.512	-77.027	-72.716	-72.449	-67.636	46.814	-68.010	-8191	255	
21299.572	1	1	0	0	0.23174	0.22512	0.14004	0.2551	0.16454	0.46939	0.15385	0.25242	0.12973	0.16161	0.25133	0.18341	0.24432	0.091259	0.13702	0.17021	-1.8937	-2.0125	-2.6813	-2.3375	-1.9042	-2.6646	-2.3229	-2.5625	-2.5521	-1.8271	-2.5958	-2.4125	-2.0708	-2.7729	-2.0708	-2.4167	88.676	8.037	102.444	199.150	244.934	140.403	147.345	196.665	34.872	131.043	227.616	211.901	230.626	165.236	95.906	229.090	0.00042597	0.00010605	0.0001994	1378	1.5041e-06	5.6863e-06	1376.9	378.1	8.1624e-06	4.5096e-06	434.81	145.22	126.36	43.717	5.2428e-06	54.042	0.00072512	0.00074785	0.00020999	1400.1	8.0816e-06	8.1601e-06	1399.6	384.85	8.0614e-06	8.2672e-06	441.46	149.26	129.77	45.127	8.0928e-06	55.928	125.615	4.534	-25.730	-81.143	88.771	22.056	-81.230	-76.436	42.407	100.975	-76.647	-72.866	-72.169	-67.477	26.635	-68.203	-8191	255	
21299.670	1	1	0	0	0.34907	0.31616	0.1639	0.12807	0.33375	0.14678	0.15469	0.35518	0.26138	0.086468	0.48049	0.14543	0.18504	0.20779	0.26337	0.18692	-2.1479	-1.8312	-2.5187	-2.4896	-1.9937	-2.8063	-2.2521	-2.2625	-2.6333	-2.0729	-2.4667	-2.6688	-1.9937	-2.7479	-2.0833	-2.0646	-28.655	229.517	180.551	214.426	33.840	100.163	158.411	261.125	68.917	177.719	208.368	223.866	-79.315	-85.119	3.730	259.590	0.00043195	0.00035322	0.00015872	1381.9	5.6381e-06	5.6312e-06	1384.2	377.71	2.3762e-06	3.1228e-06	431.16	145.43	126.15	43.679	3.4406e-06	54.176	0.00072159	0.00073877	0.00020398	1402.8	8.2599e-06	7.9716e-06	1400.5	384.87	7.9457e-06	8.0984e-06	440.33	149.09	129.53	45.105	8.1207e-06	55.81	122.984	41.742	-34.397	-81.225	59.045	45.596	-81.104	-76.429	32.957	44.829	-76.764	-72.797	-72.339	-67.401	37.765	-67.920	-8191	255	
21299.766	1	1	0	0	0.083884	0.022615	0.094426	0.10662	0.057208	0.17587	0.087931	0.14525	0.18927	0.11496	0.23397	0.0070986	0.11615	0.26592	0.24961	0.26438	-2.3312	-1.7708	-2.3021	-2.6542	-1.8917	-2.5396	-2.6229	-2.1104	-2.7812	-1.9354	-2.4958	-2.7771	-1.8854	-2.7812	-2.2771	-2.2125	-7.920	194.602	30.240	178.801	217.739	165.663	164.713	198.868	138.319	93.385	-17.185	67.392	198.055	163.987	-50.262	76.500	0.00030949	0.00064828	0.00015506	1379.5	4.9437e-06	3.7542e-06	1370.8	377.51	6.8379e-06	5.3199e-06	433.16	146.01	126.22	44.058	7.5554e-06	54.132	0.0007114	0.0007355	0.00020934	1399.1	8.1483e-06	8.3765e-06	1396.3	384.48	8.0979e-06	8.4592e-06	440.06	149.3	129.59	45.156	8.4748e-06	55.783	132.191	16.224	2.497	-80.958	21.020	56.383	-81.076	-76.263	1.210	-7.504	-76.801	-72.881	-72.185	-67.577	44.261	-68.184	-8191	255	
21299.859	1	1	0	0	0.16951	0.31256	0.2218	0.30412	0.017813	0.16227	0.12336	0.22103	0.1216	0.026847	0.17997	0.26151	0.13456	0.044514	0.075073	0.061064	-2.1896	-2.0312	-2.4625	-2.7188	-1.8354	-2.5792	-2.5938	-2.1646	-2.7042	-2.1021	-2.6104	-2.7083	-1.8292	-2.6104	-2.2458	-2.1	220.178	133.464	165.666	257.930	123.394	-81.326	158.459	243.884	-45.929	10.099	220.670	180.904	231.875	265.303	252.789	210.556	0.0004757	0.00040484	0.00016049	1382.8	5.7683e-06	1.9467e-06	1378.3	378.58	7.4929e-06	4.8955e-06	431.9	145.35	125.48	43.839	1.427e-06	54.165	0.00073571	0.00078808	0.00021808	1401.3	8.5919e-06	8.4635e-06	1400.1	384.94	8.4975e-06	8.6558e-06	440.38	149.12	129.37	45.131	8.3644e-06	55.742	129.049	-18.175	-32.477	-80.972	31.726	46.743	-81.284	-76.281	30.591	36.275	-76.701	-72.791	-72.426	-67.589	30.724	-68.127	-8191	255	
21299.955	1	1	0	0	0.017307	0.20915	0.30459	0.17351	0.26449	0.34538	0.21309	0.11023	0.29677	0.085946	0.35108	0.10264	0.24055	0.097681	0.054495	0.13261	-2.3979	-1.9667	-2.1708	-2.7438	-1.9688	-2.5333	-2.6937	-2.025	-2.6896	-2.0875	-2.2396	-2.8271	-2.1354	-2.3167	-2.5312	-2.1354	-41.925	-20.700	69.269	184.001	178.613	236.542	-78.398	146.815	160.490	-52.685	165.884	239.857	210.450	-47.412	162.932	228.831	0.00045245	0.00035213	0.00010941	1384.4	6.5429e-06	4.1709e-06	1376.6	376.94	3.2748e-06	6.957e-06	430.88	145.58	126.22	43.912	7.2028e-06	54.255	0.00073281	0.00077039	0.00021672	1403.4	8.4693e-06	8.2141e-06	1398.5	384.61	8.3887e-06	8.3613e-06	439.34	149.28	129.57	45.211	8.6389e-06	55.798	126.526	-18.374	-3.522	-81.331	88.250	37.936	-81.355	-76.298	38.169	77.737	-76.781	-72.909	-72.318	-67.246	58.527	-68.269	-8191	255	
21300.051	1	1	0	0	0.078501	0.34032	0.042675	0.098753	0.19022	0.16737	0.32272	0.34448	0.29309	0.10686	0.235	0.054096	0.15058	0.18067	0.18741	0.35346	-2.2021	-2.325	-2.0167	-2.975	-1.8208	-2.5083	-2.7938	-2.1833	-2.6688	-2.3563	-2.2292	-2.8771	-2.1292	-2.3438	-2.7729	-1.9167	217.635	202.081	-27.747	176.574	41.120	-73.564	189.062	227.607	53.968	35.056	220.638	257.182	-80.493	-36.308	165.044	152.771	0.00049549	0.00042781	0.0001737	1381.7	3.0897e-06	7.4414e-06	1378.8	378.77	5.6361e-06	4.3789e-06	431.4	145.1	125.99	43.959	7.6242e-06	54.289	0.00076353	0.00080076	0.00022432	1401.1	8.8585e-06	9.0525e-06	1400.4	385.06	8.8348e-06	8.9597e-06	439.83	149.11	130	45.219	8.9387e-06	55.792	113.057	24.428	-44.600	-81.085	42.269	40.688	-81.220	-76.454	35.493	76.861	-76.721	-72.484	-72.620	-67.287	43.737	-68.117	-8191	255	
21300.172	1	1	0	0	0.35404	0.14925	0.2489	0.11334	0.14116	0.11829	0.14552	0.099068	0.298	0.27544	0.079624	0.0772	0.20235	0.25871	0.19764	0.0487	-2.2771	-2.4417	-1.8104	-2.5354	-1.8375	-2.1021	-2.9396	-2.0833	-2.4688	-2.2938	-2.125	-2.8479	-2.375	-2.3646	-2.8021	-1.7938	-14.300	165.435	102.316	173.635	200.710	221.673	257.524	122.210	136.683	204.894	-13.247	218.756	206.850	259.024	166.408	217.090	0.0002663	0.00051578	8.2601e-05	1377.7	3.2351e-06	4.3822e-06	1381.7	378.37	1.8629e-06	6.5737e-06	430.01	145.13	126.37	43.947	1.9199e-06	54.143	0.0007836	0.00081381	0.00022737	1401	8.9655e-06	9.0354e-06	1402.5	385.73	8.9495e-06	8.98e-06	440.68	148.99	129.76	45.262	8.8726e-06	55.771	138.106	-7.585	16.459	-81.077	-27.847	60.972	-81.130	-76.491	-15.876	32.398	-76.818	-72.807	-72.464	-67.366	-12.159	-67.907	-8191	255	
21300.268	1	1	0	0	0.23806	0.19624	0.2572	0.35378	0.11244	0.15689	0.137	0.10607	0.11214	0.067532	0.33423	0.24855	0.11397	0.04334	0.042682	0.13872	-1.9542	-2.6125	-1.9312	-2.7521	-2.0708	-2.0917	-2.6958	-2.0729	-2.4708	-2.4	-1.8646	-2.6813	-2.4208	-2.1521	-2.6813	-2.1479	225.215	155.783	18.847	207.943	-75.172	182.185	119.158	-88.483	-46.743	-47.053	235.351	-85.202	-81.076	-18.491	29.382	139.199	0.00044162	0.00047769	0.00018912	1381.4	5.1392e-06	6.181e-06	1380.8	377.9	1.8093e-06	6.1242e-06	430.93	145.13	125.52	43.936	5.6589e-06	54.544	0.00079141	0.00081916	0.00023079	1404.4	8.8787e-06	9.156e-06	1401.1	385.44	8.9018e-06	9.0544e-06	440.52	149.1	129.49	45.101	8.9719e-06	55.874	124.792	-26.209	-20.063	-81.226	47.984	66.336	-81.123	-76.407	28.983	60.783	-76.717	-72.607	-72.431	-67.417	6.113	-68.033	-8191	255	
21300.363	1	1	0	0	0.25844	0.06332	0.11848	0.19325	0.094442	0.1125	0.40027	0.12559	0.10229	0.052313	0.12354	0.33471	0.33279	0.12595	0.056216	0.34229	-1.8208	-2.3729	-1.7542	-2.625	-2.3438	-2.0708	-2.8396	-2.2062	-2.2896	-2.7021	-1.9333	-2.7438	-2.3312	-1.8542	-2.7125	-2.1125	199.395	-57.424	-32.091	262.157	45.680	51.858	-89.076	122.652	222.070	-41.162	-12.574	183.284	124.422	239.053	26.355	97.186	0.00039855	0.0007862	0.00011643	1380.8	3.4334e-06	2.7704e-06	1380.9	377.59	8.7243e-06	4.4493e-06	432.81	145.21	125.3	43.712	4.0929e-06	54.121	0.00078684	0.00081828	0.00023053	1401.6	9.0288e-06	9.0052e-06	1399.8	384.84	8.8776e-06	8.918e-06	440.05	149.1	129.61	45.115	8.862e-06	55.652	126.565	-17.394	-4.699	-80.868	103.197	86.523	-81.142	-76.621	51.674	65.631	-76.850	-72.693	-72.355	-67.508	49.502	-68.402	-8191	255	
21300.461	1	1	0	0	0.28916	0.1659	0.11475	0.34532	0.17501	0.062391	0.18227	0.25332	0.079961	0.093446	0.18346	0.14128	0.2123	0.14136	0.087958	0.16989	-1.7333	-2.5521	-1.8188	-2.5792	-2.5125	-1.9854	-2.9917	-2.2479	-2.2875	-2.7	-2.1271	-2.6708	-2.6167	-1.8417	-2.6208	-2.3146	235.238	69.997	12.716	251.612	156.471	-47.130	258.130	108.659	227.896	-77.614	-78.354	8.174	150.380	221.407	-34.223	-35.953	0.0004135	0.00056155	0.00018095	1375.4	4.211e-06	5.016e-06	1371	378.83	5.2421e-06	6.855e-06	430.78	144.58	125.73	43.797	5.5027e-06	53.958	0.00078213	0.00080628	0.00022907	1400.2	8.9242e-06	8.964e-06	1397.7	384.98	8.9057e-06	8.8841e-06	439.99	148.86	129.56	45.097	8.8733e-06	55.65	120.273	2.425	-5.822	-80.900	54.053	-3.759	-81.147	-76.551	-7.139	44.571	-76.875	-72.693	-72.474	-67.221	53.238	-68.104	-8191	255	
21300.531	1	1	0	0	0.36346	0.1669	0.066267	0.15664	0.16726	0.23943	0.16602	0.21617	0.14402	0.15174	0.049585	0.27844	0.076161	0.40359	0.12247	0.13013	-1.7854	-2.7313	-1.8083	-2.6021	-2.675	-1.9604	-2.8625	-2.3792	-2.0625	-2.9208	-1.9583	-2.4646	-2.6917	-1.8021	-2.5104	-2.3625	179.669	225.675	-75.957	205.967	24.011	196.716	150.171	227.955	65.655	-77.755	206.319	27.725	-9.988	260.574	127.039	-69.817	0.00045923	0.00035493	0.00021413	1383.7	5.7396e-06	5.2644e-06	1374.1	378.21	6.8225e-06	5.6784e-06	431.35	144.68	125.82	43.669	1.4547e-06	54.04	0.00079125	0.00080118	0.00023005	1402.6	8.7863e-06	9.1259e-06	1396.2	384.5	8.7136e-06	8.7147e-06	439.38	148.76	129.37	44.93	8.7163e-06	55.569	108.033	25.002	3.258	-80.933	69.645	97.790	-80.993	-76.460	30.389	34.462	-76.885	-72.507	-72.261	-67.563	-56.493	-68.187	-8191	255	
21300.652	1	1	0	0	0.13522	0.21542	0.19406	0.2753	0.018766	0.4224	0.032872	0.37297	0.25636	0.15251	0.10203	0.082186	0.10846	0.11507	0.20182	0.21787	-1.4917	-2.7604	-2.0896	-2.4417	-2.7146	-1.8896	-2.725	-2.5604	-1.8667	-2.7062	-2.2333	-2.1875	-2.5708	-2.025	-2.5812	-2.4229	-87.861	123.502	241.250	232.322	-5.741	158.293	210.415	242.965	3.590	-69.328	233.956	-90.824	129.891	261.679	59.303	201.638	0.00038012	0.00036708	0.00012271	1375.3	6.3217e-06	2.9517e-06	1373.8	376.61	4.8754e-06	8.2158e-06	428.97	144.39	125.49	43.511	4.0818e-06	54.04	0.00077851	0.00078974	0.00021969	1399.3	8.5717e-06	8.7195e-06	1396.2	383.5	8.6676e-06	8.6474e-06	438.14	148.44	128.9	44.8	8.4704e-06	55.467	134.876	-11.520	17.233	-80.804	46.645	43.602	-81.020	-76.553	-2.601	58.787	-76.803	-72.366	-72.519	-67.496	43.819	-68.056	-8191	255	
21300.748	1	1	0	0	0.20377	0.097218	0.12255	0.32148	0.2669	0.14045	0.27946	0.17433	0.18524	0.023696	0.063884	0.090351	0.18904	0.38315	0.1759	0.14732	-1.4021	-2.6	-1.95	-2.1104	-2.8021	-1.9958	-2.6729	-2.725	-1.8479	-2.6875	-2.2479	-2.1479	-2.7667	-1.9625	-2.2188	-2.5375	204.941	196.386	261.511	-54.973	178.616	181.264	-80.004	185.024	78.099	64.729	-80.870	240.618	130.890	211.719	252.784	245.476	0.00039625	0.00091199	6.8517e-05	1385.8	6.1648e-06	5.6939e-06	1373.8	375.79	5.2989e-06	5.0941e-06	429.88	144.77	125.58	43.637	4.6426e-06	53.607	0.00074768	0.00077248	0.00021784	1398.9	8.5171e-06	8.7346e-06	1396.1	383.61	8.3785e-06	8.5287e-06	438.54	148.36	128.93	44.799	8.352e-06	55.318	129.334	6.082	-55.116	-80.776	57.141	44.414	-81.030	-76.365	56.004	41.013	-76.517	-72.793	-72.344	-67.220	28.823	-68.003	-8191	255	
21300.846	1	1	0	0	0.070286	0.11749	0.12835	0.1039	0.20291	0.1863	0.3098	0.14991	0.1918	0.14247	0.19065	0.088043	0.036199	0.2629	0.21254	0.20946	-1.4167	-2.4396	-2.1167	-2.1229	-2.6729	-1.9042	-2.5167	-2.8771	-1.7979	-2.6562	-2.5271	-1.9062	-2.7438	-2.3063	-2.0667	-2.6937	249.721	62.167	133.430	156.841	25.441	75.711	235.988	224.352	0.100	6.531	84.532	151.827	-48.809	-77.467	-70.928	205.363	0.00035563	0.00040829	0.00018864	1376.2	7.5469e-06	5.3011e-06	1372.4	377.12	7.8955e-06	5.8901e-06	432.54	143.98	125	43.717	4.4753e-06	53.918	0.00076095	0.00077296	0.00021506	1400.5	8.4091e-06	8.4789e-06	1394.8	383.71	8.3326e-06	8.3738e-06	438.29	147.78	128.77	44.822	8.5112e-06	55.319	124.724	8.808	-21.805	-80.844	16.806	50.533	-80.873	-76.382	5.652	63.313	-76.863	-72.576	-72.225	-67.353	20.362	-67.753	-8191	255	
21300.965	1	1	0	0	0.17269	0.081858	0.087863	0.063092	0.10143	0.19556	0.1732	0.14829	0.29972	0.26264	0.18053	0.08807	0.14461	0.421	0.024289	0.12423	-1.3792	-2.4167	-2.2521	-2.0229	-2.7083	-2.1063	-2.275	-2.8958	-2.0417	-2.5125	-2.5146	-1.9854	-2.5521	-2.2479	-2.0771	-2.6333	227.630	215.313	177.960	202.073	144.699	69.461	189.380	169.982	-31.082	-45.055	225.562	213.766	12.409	256.868	118.071	237.218	0.0004227	0.00055748	0.00013195	1379.3	5.0094e-06	4.9571e-06	1371.3	376.18	2.0861e-06	7.0625e-06	427.73	143.66	124.88	43.597	7.3555e-06	53.583	0.00074127	0.00076077	0.00021413	1397.8	8.3652e-06	8.3845e-06	1395	383.27	8.418e-06	8.5022e-06	437.31	147.58	128.9	44.8	8.4593e-06	55.286	126.213	4.557	-14.842	-80.829	46.859	12.377	-80.932	-76.334	19.284	39.526	-76.422	-72.510	-72.499	-67.535	31.338	-68.132	-8191	255	
21301.061	1	1	0	0	0.11435	0.19826	0.16776	0.33785	0.097411	0.10463	0.35395	0.29511	0.096677	0.091575	0.10114	0.18058	0.26398	0.2537	0.10166	0.11645	-1.6042	-2.2146	-2.5333	-1.9146	-2.7229	-1.9854	-2.0896	-2.9104	-1.9438	-2.175	-2.6979	-1.8875	-2.5875	-2.2146	-1.9688	-2.7188	137.266	-77.461	220.117	-66.434	126.791	189.474	196.850	199.873	-2.025	71.750	234.468	147.561	227.249	207.518	191.112	214.239	0.0005079	0.00041009	0.00025056	1382	5.4156e-06	4.1136e-06	1369	375.71	4.4612e-06	4.5138e-06	427.88	143.83	124.85	43.587	4.145e-06	53.862	0.00074127	0.00076546	0.00021345	1397.1	8.2778e-06	8.3003e-06	1391.8	382.75	8.2846e-06	8.4115e-06	436.8	147.57	128.74	44.699	8.3862e-06	55.256	118.130	-9.698	-2.548	-80.958	54.357	25.088	-80.858	-76.312	48.902	62.991	-76.554	-72.567	-72.168	-67.192	75.781	-67.936	-8191	255	
21301.133	1	1	0	0	0.26929	0.19096	0.12352	0.028519	0.20613	0.1385	0.088782	0.34874	0.15359	0.26969	0.041037	0.41104	0.04944	0.28324	0.23161	0.22	-1.4729	-2.2833	-2.5917	-2.0354	-2.4833	-2.3583	-2.1021	-2.8458	-1.9667	-2.2771	-2.6875	-1.9333	-2.6271	-2.6188	-1.8188	-2.8187	67.621	79.476	-77.939	257.600	261.472	135.922	211.399	208.979	211.430	153.589	-83.745	194.314	244.527	258.611	108.030	76.930	0.00040504	0.00021069	0.00023283	1378.3	2.1021e-06	5.1375e-06	1371.2	373.6	3.5126e-06	8.5118e-06	430.77	143.14	124.76	43.295	2.5807e-06	53.374	0.00074996	0.00075479	0.00021055	1396.9	8.5042e-06	8.4804e-06	1389.8	382.13	8.2161e-06	8.4435e-06	436.9	147.37	128.47	44.576	8.4219e-06	55.107	129.054	76.331	-24.183	-80.580	121.022	58.972	-81.004	-76.266	-1.967	65.828	-76.710	-72.454	-72.326	-67.469	44.265	-67.934	-8191	255	
21301.252	1	1	0	0	0.26564	0.068985	0.079281	0.19997	0.2739	0.12268	0.026052	0.36494	0.059332	0.23692	0.22427	0.16814	0.25347	0.35904	0.24576	0.19834	-1.9604	-1.9729	-2.5667	-2.0083	-2.4854	-2.6354	-2.1063	-2.6042	-2.175	-2.1	-2.8729	-1.9458	-2.4062	-2.5667	-1.7375	-2.7229	208.736	34.351	64.649	-86.855	180.920	101.304	257.444	194.927	50.671	17.522	241.397	176.081	-56.802	249.138	71.055	141.094	0.00046838	0.00057875	0.00026815	1378.9	5.1287e-06	1.9916e-06	1370.2	376.03	7.6459e-07	6.2449e-06	429.09	143.87	124.84	43.313	7.023e-06	53.354	0.00074155	0.00076482	0.00021696	1394.8	8.5011e-06	8.4575e-06	1390.8	382.67	8.3723e-06	8.4372e-06	436.85	147.46	128.07	44.544	8.5808e-06	55.043	118.367	-17.314	19.672	-80.540	86.691	-14.818	-80.996	-76.022	-23.692	78.752	-76.646	-72.545	-72.029	-67.210	25.565	-67.865	-8191	255	
21301.350	1	1	0	0	0.23617	0.25835	0.14396	0.23571	0.25596	0.16179	0.2459	0.28003	0.1189	0.14521	0.40796	0.14948	0.074239	0.082095	0.21829	0.18537	-1.8646	-1.9271	-2.6	-2.1167	-2.3896	-2.8104	-1.9729	-2.5958	-2.1813	-1.8979	-2.8354	-2.0687	-2.3229	-2.7021	-2.0062	-2.5917	-59.663	-38.758	227.442	255.699	-10.844	-21.503	146.543	207.883	175.442	84.511	234.823	-56.427	166.258	-41.567	203.522	260.214	0.00037373	0.0002577	0.00023565	1374.4	3.128e-06	7.4878e-06	1370.1	375.78	7.987e-06	4.3127e-06	427.97	143.57	124.45	43.287	3.5251e-06	53.661	0.00074427	0.00078101	0.00021773	1394.1	8.56e-06	8.6141e-06	1390.1	382.78	8.4587e-06	8.5889e-06	436.54	147.26	128.16	44.573	8.6476e-06	55.151	123.502	-50.755	9.441	-80.678	15.965	54.154	-80.659	-75.906	28.499	31.962	-76.589	-72.663	-71.924	-67.437	24.854	-67.761	-8191	255	
21301.445	1	1	0	0	0.062745	0.13288	0.14211	0.082507	0.2079	0.054057	0.22541	0.12077	0.24844	0.24671	0.25397	0.13377	0.16281	0.17466	0.1872	0.14455	-1.9417	-1.9917	-2.6958	-1.9854	-2.1208	-2.6417	-2.1167	-2.4	-2.4708	-1.9083	-2.825	-2.3063	-2.1937	-2.6937	-1.6646	-2.4792	-21.994	127.027	46.371	262.091	13.467	-51.002	203.562	-80.725	-64.917	26.790	250.994	-92.371	-75.695	9.387	-54.559	85.844	0.00042494	0.00073931	0.00020499	1372.5	3.9726e-06	4.1035e-06	1367.8	375.67	6.8421e-06	3.8367e-06	428.76	143.51	124.53	43.353	1.0074e-06	53.585	0.00075472	0.00078584	0.00021169	1392.5	8.5516e-06	8.453e-06	1390	382.16	8.4584e-06	8.5033e-06	436.62	147.22	127.91	44.466	8.7376e-06	54.974	126.375	6.941	4.911	-80.656	36.801	-11.072	-80.909	-76.076	-13.439	40.365	-76.523	-72.563	-71.669	-67.262	-30.365	-67.819	-8191	255	
21301.564	1	1	0	0	0.25266	0.20958	0.15063	0.20308	0.15785	0.22912	0.35006	0.081379	0.091137	0.18688	0.23495	0.1018	0.11723	0.14237	0.12083	0.10416	-2.0458	-2.0354	-2.4333	-2.1708	-2.0354	-2.5938	-2.2458	-2.4646	-2.4167	-1.7958	-2.8083	-2.4042	-1.9813	-2.6792	-1.9062	-2.4062	-29.052	222.681	210.805	204.186	76.654	75.930	170.942	239.986	153.208	206.148	158.447	122.894	182.997	265.599	-60.531	-74.003	0.0002801	0.00046841	0.00022422	1369.1	3.4962e-06	5.8235e-06	1366	373.92	5.2939e-06	5.158e-06	430	143.12	125.14	43.335	7.075e-06	53.384	0.0007449	0.00078683	0.00021729	1390.3	8.5869e-06	8.3653e-06	1388.5	381.67	8.428e-06	8.6047e-06	436.67	147.02	128.29	44.46	8.4511e-06	54.917	124.633	-38.360	5.339	-80.877	23.398	31.671	-80.822	-76.173	38.182	58.110	-76.681	-72.299	-71.873	-67.128	71.385	-67.802	-8191	255	
21301.660	1	1	0	0	0.16067	0.12616	0.12958	0.13259	0.089909	0.12042	0.43841	0.32475	0.1275	0.18442	0.37707	0.122	0.1439	0.083453	0.053463	0.061158	-2.1104	-1.8771	-2.6083	-2.5812	-1.9208	-2.5604	-2.2146	-2.225	-2.7438	-2.0333	-2.6	-2.5021	-2.2042	-2.8021	-2.0375	-2.2042	-77.079	153.547	121.152	-39.183	-47.672	-53.452	197.734	178.160	159.338	223.315	244.175	207.059	216.514	222.999	207.666	164.496	0.00034221	0.00056144	0.00019439	1363.5	2.5654e-06	7.2635e-06	1370.1	376.37	2.051e-06	6.1054e-06	427.3	143.08	124.79	43.301	5.976e-06	53.367	0.00073547	0.00079095	0.00021644	1389.6	8.7056e-06	8.5164e-06	1390.7	382.12	8.6068e-06	8.6476e-06	435.81	146.81	127.91	44.485	8.6495e-06	54.975	121.482	-10.218	-41.329	-80.465	86.021	54.745	-80.834	-76.126	-27.748	96.830	-76.290	-72.503	-72.008	-66.947	35.987	-67.488	-8191	255	
21301.732	1	1	0	0	0.27922	0.10963	0.18186	0.21901	0.081609	0.18153	0.33249	0.20473	0.13598	0.090106	0.18207	0.17613	0.23737	0.27975	0.1242	0.2228	-2.1479	-1.7354	-2.3854	-2.5062	-1.9271	-2.5312	-2.3375	-2.3417	-2.5021	-1.8292	-2.5	-2.6292	-2.0083	-2.6	-2.2479	-1.9917	-14.571	15.658	214.890	-47.804	23.077	77.127	204.738	140.820	-22.166	173.020	256.669	155.256	161.134	235.108	155.018	38.871	0.0004449	0.00085879	8.6447e-05	1369.2	5.5646e-06	4.5897e-06	1366.3	375.02	5.8399e-06	5.8318e-06	428.76	143.56	123.53	43.242	5.7339e-06	53.374	0.00076414	0.00079029	0.00022425	1391.4	8.7457e-06	8.7218e-06	1389.2	381.65	8.6454e-06	8.789e-06	436.09	146.96	127.88	44.483	8.7701e-06	54.85	121.730	6.428	32.118	-80.877	29.307	11.715	-80.721	-76.053	28.238	68.679	-76.266	-72.485	-71.916	-66.864	79.104	-67.626	-8191	255	
21301.828	1	1	0	0	0.15852	0.25585	0.17032	0.24414	0.075589	0.28865	0.13744	0.205	0.11419	0.15183	0.068184	0.22612	0.20108	0.37106	0.16246	0.27878	-2.2333	-1.9667	-2.2375	-2.5521	-1.9021	-2.5229	-2.5354	-2.1583	-2.6417	-2.0229	-2.175	-2.7417	-2	-2.6917	-2.3354	-1.9583	62.773	211.613	-80.458	193.184	255.358	-23.367	155.001	176.652	141.898	-23.713	120.294	258.715	212.231	-91.005	173.315	249.709	0.00037559	0.00046534	0.0001473	1371.9	4.6547e-06	4.1106e-06	1366.7	375.76	3.9445e-06	4.4778e-06	426.68	143.45	124.6	43.221	3.7801e-06	53.403	0.00076497	0.00080144	0.0002249	1393.5	8.915e-06	8.7257e-06	1387.3	382.15	8.6931e-06	8.8224e-06	435.91	146.99	128.05	44.403	8.6693e-06	54.99	129.526	-10.631	-18.353	-80.712	70.194	72.821	-80.851	-76.079	-1.127	60.037	-76.365	-72.442	-72.037	-67.144	32.400	-67.711	-8191	255	
21301.947	1	1	0	0	0.19889	0.26242	0.05824	0.29684	0.17285	0.068271	0.1552	0.2855	0.19071	0.3279	0.071474	0.071581	0.16296	0.037929	0.15281	0.13174	-2.2625	-2.0521	-2.1667	-2.7646	-1.9104	-2.6063	-2.5229	-2.0958	-2.8021	-2.05	-2.1708	-2.6271	-1.9354	-2.5854	-2.5292	-1.8521	22.853	109.032	226.155	101.673	204.744	123.505	204.416	173.470	194.093	214.433	-33.321	-50.241	5.157	-12.543	160.053	64.983	0.00036467	0.00061462	0.00010954	1379	6.1195e-06	7.53e-06	1369.7	374.79	4.1361e-06	7.4941e-06	427.74	142.85	124.31	42.977	7.8518e-06	53.509	0.00077774	0.00078778	0.00022041	1392.2	8.8549e-06	8.7853e-06	1388	381.42	8.6604e-06	8.7628e-06	435.95	146.68	127.97	44.353	8.7194e-06	54.91	134.126	2.472	-20.721	-80.484	23.578	35.226	-80.654	-75.880	12.284	75.130	-76.423	-72.289	-71.912	-67.147	53.420	-67.829	-8191	255	
21302.045	1	1	0	0	0.21303	0.17049	0.16091	0.14668	0.13031	0.23102	0.12346	0.21966	0.067418	0.24684	0.35578	0.44807	0.17978	0.28334	0.12089	0.17951	-2.0458	-2.1021	-2.1688	-2.8667	-2.0104	-2.4833	-2.6937	-2.0021	-2.5771	-2.1063	-2.2875	-2.9562	-2.1167	-2.3479	-2.7042	-1.9708	10.741	112.810	17.872	209.855	1.627	160.534	-35.966	-86.925	43.480	89.279	214.587	232.596	96.301	-85.738	127.769	228.346	0.00045534	0.00047278	0.00012456	1374.4	3.6467e-06	7.9238e-06	1369.7	375.06	5.2208e-06	4.8612e-06	428.57	142.86	123.76	43.086	6.1907e-06	53.554	0.00077842	0.00079195	0.00022689	1394.7	8.8474e-06	8.8283e-06	1388.2	382.02	8.634e-06	8.8133e-06	435.71	146.5	127.73	44.404	8.8345e-06	54.997	115.016	12.072	-56.980	-80.776	32.377	40.954	-80.670	-75.891	28.815	112.032	-76.279	-72.105	-71.912	-66.934	91.153	-67.443	-8191	255	
21302.141	1	1	0	0	0.28207	0.4037	0.13823	0.31054	0.066758	0.10137	0.1526	0.18888	0.036166	0.18311	0.23272	0.047347	0.29967	0.11678	0.36383	0.17516	-2.1813	-2.2771	-1.9833	-2.6875	-2.1063	-2.1604	-2.8812	-2.0312	-2.6646	-2.5125	-2.2229	-2.8292	-2.475	-2.3875	-2.5083	-1.9333	76.026	236.323	65.598	-61.050	154.806	141.134	188.705	235.283	108.886	-65.166	185.787	-19.999	145.451	32.636	138.594	184.671	0.00030691	0.00020488	0.00017001	1377.8	4.5478e-06	6.6605e-06	1368.9	374.62	4.8466e-06	4.2756e-06	428.86	143.29	123.24	43.14	1.1618e-06	53.413	0.00077126	0.00079369	0.00022615	1394.7	8.715e-06	8.691e-06	1388.4	381.81	8.5879e-06	8.7137e-06	436.11	146.83	127.5	44.362	8.6999e-06	54.885	115.565	-42.216	6.087	-80.501	93.143	51.152	-80.666	-76.034	1.492	70.953	-76.367	-72.320	-71.680	-66.784	75.557	-67.580	-8191	255	
21302.262	1	1	0	0	0.093513	0.12132	0.040789	0.01842	0.10032	0.13304	0.098844	0.30225	0.13337	0.2768	0.23206	0.1707	0.084398	0.11466	0.17485	0.051206	-1.8354	-2.5563	-1.7854	-2.8396	-2.05	-2.2062	-3.0187	-2.0208	-2.3521	-2.4896	-1.9312	-2.7292	-2.3583	-2.1333	-2.6104	-2.2375	83.817	154.641	-16.257	199.207	255.917	192.769	82.684	224.817	88.762	245.543	252.455	-61.992	-69.237	258.362	122.545	81.688	0.00042157	0.00042284	0.00017477	1369.8	2.9054e-06	3.8231e-06	1366.1	374.38	5.4619e-06	3.857e-06	427.63	143.16	124.43	43.183	5.801e-06	52.898	0.00076298	0.00080245	0.00022504	1390.4	8.7199e-06	8.8767e-06	1386.5	381.76	8.7074e-06	8.8679e-06	436.46	146.81	127.77	44.28	8.6487e-06	54.65	123.260	26.035	-14.021	-80.732	73.999	81.078	-80.743	-76.145	88.307	64.582	-76.313	-72.297	-72.221	-67.500	58.257	-68.356	-8191	255	
21302.357	1	1	0	0	0.31822	0.083879	0.15088	0.067107	0.089337	0.082303	0.13593	0.43241	0.10337	0.17365	0.053254	0.050351	0.23635	0.17575	0.4821	0.16669	-2.0771	-2.675	-1.725	-2.7646	-2.2146	-2.0479	-2.9771	-2.1937	-2.2646	-2.7042	-1.9667	-2.7333	-2.2646	-2.0792	-2.6604	-2.3396	-59.761	-0.680	93.148	-54.902	211.059	128.462	124.068	233.597	-5.727	112.074	239.264	-3.049	265.167	226.125	192.411	251.354	0.00046268	0.00044874	0.00016682	1372.3	4.4894e-06	7.2709e-06	1365.2	374.26	5.0752e-06	1.068e-05	426.58	143.05	123.98	43.079	2.101e-06	53.221	0.00076202	0.00079033	0.00022624	1391.9	8.7393e-06	8.6832e-06	1386.8	381.34	8.6579e-06	8.672e-06	435.02	146.7	127.72	44.361	8.615e-06	54.751	128.896	11.511	-47.573	-80.984	64.030	93.470	-81.103	-76.551	-1.364	60.822	-76.754	-72.565	-72.748	-67.898	5.695	-68.342	-8191	255	
21302.430	1	1	0	0	0.068365	0.11133	0.19119	0.16328	0.20595	0.17481	0.21517	0.14206	0.030846	0.17217	0.29387	0.28132	0.28298	0.19877	0.2437	0.09502	-1.9146	-2.3875	-1.9188	-2.4271	-2.4188	-1.8917	-2.8333	-2.3042	-2.1833	-2.6604	-1.975	-2.65	-2.5979	-2.0958	-2.7167	-2.4938	-7.405	18.021	195.264	261.764	198.390	3.595	163.565	-73.998	174.353	87.172	235.065	-81.370	-9.488	239.436	215.498	221.839	0.00039804	0.00049912	0.00025008	1376.9	1.336e-06	9.8672e-06	1365.4	375.35	2.555e-06	4.3066e-06	430.14	142.48	124.27	42.898	7.2262e-06	53.02	0.00076846	0.00080361	0.00022367	1392.7	8.6751e-06	8.8214e-06	1387.7	381.25	8.7462e-06	8.6556e-06	436.42	146.49	127.55	44.26	8.5039e-06	54.741	131.157	-0.878	-2.189	-80.773	139.345	49.029	-81.243	-76.543	42.628	49.317	-77.172	-72.619	-72.419	-67.382	41.303	-68.052	-8191	255	
21302.525	1	1	0	0	0.3322	0.13024	0.20064	0.17805	0.14586	0.10574	0.16351	0.2527	0.278	0.10755	0.13819	0.10184	0.2396	0.169	0.27397	0.24583	-1.525	-2.7167	-1.8125	-2.4333	-2.4521	-1.8062	-2.6854	-2.35	-1.9458	-2.7896	-1.9771	-2.35	-2.5563	-1.9875	-2.6396	-2.3625	-19.243	177.832	80.367	238.993	130.052	-11.222	236.055	166.612	14.279	197.252	227.501	153.106	-38.899	176.335	146.440	147.907	0.00041448	0.00063544	0.00019011	1372.7	5.9624e-06	1.0343e-05	1367.9	374.67	4.5395e-06	7.3464e-06	427.27	142.91	123.79	43.22	7.9095e-06	53.223	0.00075333	0.00078565	0.00021661	1392.3	8.6892e-06	8.8873e-06	1388.6	381.18	8.7003e-06	8.7061e-06	435.52	146.5	127.7	44.275	8.5327e-06	54.747	106.942	3.925	1.230	-81.031	42.310	28.461	-81.295	-76.506	5.950	61.801	-77.048	-72.494	-72.571	-67.554	43.321	-68.363	-8191	255	
21302.646	1	1	0	0	0.12271	0.05126	0.33772	0.27301	0.036578	0.043211	0.39001	0.058046	0.19256	0.04421	0.11595	0.21296	0.1514	0.26422	0.28628	0.24383	-1.3583	-2.7771	-1.9083	-2.3438	-2.7146	-1.8687	-2.5625	-2.375	-1.8979	-2.6813	-2.1583	-2.1854	-2.7188	-1.8104	-2.4479	-2.4021	-26.073	93.792	235.518	83.054	-10.304	9.825	-85.453	177.975	100.152	35.854	79.984	256.332	244.603	260.073	230.031	-37.353	0.0003772	0.00065102	0.00018793	1376.3	6.9265e-06	7.4859e-06	1367.8	374.75	2.2489e-06	1.0274e-05	427.61	143.04	124.15	43.198	1.0085e-05	53.054	0.00075806	0.00078947	0.00022341	1394.2	8.6288e-06	8.5022e-06	1389.2	381.01	8.5904e-06	8.6138e-06	435.72	146.67	127.87	44.281	8.6311e-06	54.796	122.616	-2.503	-12.844	-80.991	93.857	25.518	-81.128	-76.512	-69.194	24.337	-76.920	-73.001	-72.586	-67.661	41.755	-68.373	-8191	255	
21302.742	1	1	0	0	0.039458	0.10448	0.083029	0.43273	0.21156	0.10497	0.4973	0.20205	0.080708	0.091706	0.0437	0.085265	0.30261	0.017264	0.17064	0.11307	-1.3208	-2.5812	-2.1146	-2.0417	-2.5938	-1.7979	-2.5542	-2.5125	-1.925	-2.8354	-2.3833	-2.0958	-2.6917	-2.0458	-2.4667	-2.7875	-43.622	90.509	-43.612	257.464	124.798	54.538	169.910	202.393	262.892	145.016	209.354	75.080	238.675	-73.303	217.151	-31.491	0.00033637	0.00039569	9.1357e-05	1368.9	4.2996e-06	8.0053e-06	1365.6	374.98	4.7752e-06	3.2734e-06	427.96	142.94	124.76	42.881	2.1443e-06	52.891	0.00074542	0.00078155	0.00022363	1390.9	8.5417e-06	8.7672e-06	1388.7	381.34	8.5631e-06	8.8125e-06	435.08	146.64	127.7	44.249	8.5203e-06	54.768	113.170	10.012	-3.127	-81.025	28.690	48.002	-80.962	-76.469	36.197	60.799	-76.904	-72.579	-72.519	-67.448	31.270	-68.427	-8191	255	
21302.836	1	1	0	0	0.12413	0.1897	0.13949	0.25169	0.19311	0.21007	0.29428	0.10248	0.20233	0.08616	0.13167	0.20895	0.23441	0.19451	0.35615	0.094931	-1.4083	-2.3917	-2.2896	-2.0271	-2.6771	-2.0479	-2.575	-2.8792	-1.9792	-2.7271	-2.4792	-2.2271	-2.7812	-2.0583	-2.1958	-2.6854	153.278	71.881	236.028	-43.155	86.355	-82.121	209.963	213.647	-11.842	115.023	158.863	240.388	-8.720	-67.611	-15.368	117.084	0.00039351	0.00038294	0.00012617	1364.5	2.6986e-06	6.2969e-06	1367.7	373.69	4.5837e-06	4.9168e-06	426.98	143.36	123.96	43.071	6.7354e-06	53.233	0.00077555	0.00078354	0.00022451	1389.1	8.6509e-06	8.5214e-06	1389.5	380.97	8.6779e-06	8.7204e-06	435.19	146.77	127.68	44.327	8.7393e-06	54.705	123.962	-3.567	-19.313	-80.806	42.959	66.049	-81.226	-76.674	10.449	55.159	-76.935	-72.704	-72.019	-67.309	55.855	-68.104	-8191	255	
21302.934	1	1	0	0	0.025743	0.15535	0.36513	0.11297	0.074149	0.12227	0.26757	0.11446	0.20256	0.1024	0.20485	0.37734	0.24581	0.28839	0.10668	0.19211	-1.4771	-2.4562	-2.3583	-2.0667	-2.6937	-2.1375	-2.5417	-3.0083	-1.8979	-2.5167	-2.5438	-2.1271	-2.8187	-2.3854	-2.1521	-2.8563	223.987	1.808	201.018	-94.144	84.897	245.743	204.449	213.196	-59.270	194.835	204.102	-92.332	164.758	223.466	-51.285	216.594	0.00031442	0.0003152	0.00016225	1369	2.6526e-06	3.7392e-06	1369.9	374.07	2.7027e-06	5.3803e-06	426.65	142.85	123.59	42.917	3.9369e-06	53.255	0.0007552	0.00078577	0.00022213	1392.5	8.4399e-06	8.5951e-06	1389.2	380.98	8.5797e-06	8.6371e-06	435.04	146.3	127.54	44.183	8.6852e-06	54.813	107.324	18.907	-51.510	-80.669	111.125	51.692	-81.003	-76.609	-78.225	53.234	-76.823	-72.771	-71.891	-67.716	77.373	-68.125	-8191	255	
21303.029	1	1	0	0	0.19864	0.32131	0.25368	0.35772	0.22899	0.18262	0.34594	0.093964	0.13207	0.24983	0.078155	0.076392	0.16117	0.34722	0.37748	0.089455	-1.6375	-2.4021	-2.475	-1.9979	-2.55	-2.2271	-2.3292	-2.8771	-2.0854	-2.2917	-2.6729	-2.1271	-2.7083	-2.2812	-2.0604	-2.9208	22.433	-54.660	230.150	214.440	-72.743	155.256	155.497	-60.588	116.312	-20.030	42.080	192.613	-69.951	-55.482	49.544	-61.912	0.00036509	0.00095308	0.00016789	1363.3	4.7371e-06	4.952e-06	1367.1	375.1	1.8056e-06	2.5752e-06	426.96	142.91	124.29	42.821	1.3427e-05	53.33	0.00077001	0.00078604	0.00022408	1388.8	8.4834e-06	8.6048e-06	1388.6	381.38	8.5082e-06	8.7195e-06	434.85	146.64	127.61	44.108	8.6764e-06	54.718	131.810	-18.645	9.436	-81.038	65.537	61.081	-80.995	-76.400	38.649	45.726	-76.865	-72.606	-72.376	-67.363	50.049	-68.233	-8191	255	
21303.125	1	1	0	0	0.12361	0.34367	0.16756	0.22875	0.17108	0.24824	0.28476	0.24652	0.1364	0.2299	0.12697	0.10975	0.21024	0.046868	0.12957	0.036328	-1.5604	-2.5083	-2.6979	-1.9958	-2.6604	-2.2188	-2.1833	-2.8854	-2.0708	-2.3521	-2.8604	-2.1479	-2.45	-2.4625	-2.0479	-2.8604	124.454	224.514	86.266	193.894	115.753	97.389	220.089	222.925	191.479	260.905	52.578	-60.465	-18.932	-16.584	133.123	60.647	0.00039236	0.00056557	0.00011135	1369.5	1.2192e-06	2.316e-06	1365.4	372.8	4.2229e-06	5.3531e-06	428.46	142.38	123.98	43.061	5.0455e-06	53.009	0.00076862	0.00078553	0.00021908	1389.2	8.5233e-06	8.5942e-06	1387.7	380.71	8.4539e-06	8.7711e-06	435.32	146.27	127.57	44.23	8.6181e-06	54.736	128.948	-13.292	-86.280	-80.983	121.494	111.779	-81.020	-76.291	27.408	65.039	-77.006	-72.683	-72.102	-67.454	7.141	-67.905	-8191	255	
21303.244	1	1	0	0	0.22422	0.11952	0.18192	0.23067	0.092168	0.24885	0.38257	0.13339	0.17783	0.38173	0.029564	0.13025	0.057563	0.29987	0.2751	0.082864	-1.7708	-1.9188	-2.5458	-2.0542	-2.4542	-2.625	-2.1792	-2.8771	-1.9979	-2.0646	-2.8563	-1.9562	-2.4292	-2.5479	-1.8479	-2.7458	114.357	231.001	90.927	207.294	157.203	175.632	179.006	202.439	60.881	245.756	-60.871	-50.671	-17.326	185.930	165.472	254.994	0.00026957	0.00048256	0.00024131	1371.3	4.8748e-06	5.206e-06	1364.9	374.53	9.4933e-07	4.2049e-06	427.23	143.16	123.77	43.052	5.9909e-06	53.102	0.00075491	0.00079705	0.0002235	1389.9	8.5518e-06	8.5884e-06	1386.8	381.19	8.5332e-06	8.4558e-06	435.46	146.38	127.49	44.238	8.5662e-06	54.669	123.185	-40.955	5.383	-81.064	25.356	86.413	-81.044	-76.320	-9.758	41.948	-76.840	-72.504	-71.966	-67.556	69.204	-68.120	-8191	255	
21303.342	1	1	0	0	0.25005	0.20641	0.16136	0.13573	0.10685	0.15669	0.27445	0.15225	0.040236	0.16576	0.10931	0.12879	0.28534	0.083459	0.12818	0.14788	-1.8167	-2.0062	-2.5667	-2.1104	-2.3354	-2.5083	-2.1292	-2.7708	-2.4104	-2.1625	-2.95	-1.9729	-2.2271	-2.8563	-1.8813	-2.5479	45.500	57.731	92.557	219.273	245.734	231.836	178.442	-80.564	-89.944	-66.957	172.538	-72.338	69.993	229.679	228.271	-55.846	0.00042383	0.0004667	0.00018949	1371.5	6.1764e-06	3.0341e-06	1366.7	374.18	3.9194e-06	8.4826e-06	426.78	143.09	124.43	43.034	9.6398e-06	52.935	0.0007627	0.00080314	0.00022257	1391.2	8.4891e-06	8.4756e-06	1387.4	381.4	8.4743e-06	8.7117e-06	434.83	146.39	127.61	44.21	8.511e-06	54.566	132.505	-13.581	-21.525	-80.828	76.835	8.019	-80.960	-76.202	6.999	75.392	-76.848	-72.753	-72.125	-67.411	45.270	-68.009	-8191	255	
21303.438	1	1	0	0	0.18435	0.16369	0.057502	0.19269	0.13781	0.21307	0.2242	0.16486	0.1264	0.13366	0.080018	0.18299	0.085007	0.18582	0.11484	0.06325	-1.8667	-2.1042	-2.7583	-2.3187	-2.2313	-2.7	-2.2854	-2.6937	-2.3354	-2.0083	-2.7833	-2.3958	-2.2604	-2.7625	-1.9021	-2.6208	189.102	-86.770	136.347	186.598	-80.941	158.552	201.500	264.074	-71.354	165.713	-16.807	-32.062	-40.468	-80.904	83.211	189.137	0.00039877	0.0005268	0.00012659	1364.8	7.0592e-06	6.2099e-06	1358.7	374.35	6.7629e-06	6.4067e-06	425.37	142.74	123.45	42.965	3.8412e-06	53.006	0.00074752	0.00078592	0.00021346	1389.2	8.5827e-06	8.5556e-06	1387.1	380.8	8.528e-06	8.5907e-06	434.2	146.36	127.32	44.153	8.6741e-06	54.654	122.200	-14.959	-37.023	-80.916	69.788	32.119	-80.874	-76.344	3.240	70.661	-76.709	-72.718	-72.125	-67.436	90.701	-67.949	-8191	255	
21303.533	1	1	0	0	0.065096	0.26617	0.07781	0.12334	0.19101	0.033294	0.11563	0.071717	0.11644	0.2536	0.11254	0.095414	0.075407	0.1413	0.14756	0.063935	-2.1125	-1.95	-2.6292	-2.2792	-2.0896	-2.8042	-2.1917	-2.6583	-2.6354	-2.0312	-2.9042	-2.4521	-2.2542	-2.8021	-1.8833	-2.4354	100.658	61.025	45.712	98.881	-4.798	112.949	59.119	119.876	149.148	64.386	-35.676	-59.998	232.906	-72.645	-25.899	-70.831	0.00039374	0.00055339	0.000169	1372.3	5.6716e-06	5.18e-06	1361	374.31	3.8386e-06	4.3415e-06	426.6	142.69	123.44	42.949	5.6368e-06	52.923	0.00074003	0.00078942	0.00021573	1389.1	8.6109e-06	8.4177e-06	1384	380.36	8.4071e-06	8.5104e-06	434.44	146.06	127.22	44.15	8.6904e-06	54.563	125.798	-18.070	1.865	-80.750	46.003	100.669	-80.975	-76.120	36.324	55.648	-76.839	-72.759	-71.844	-67.185	127.001	-67.873	-8191	255	
21303.654	1	1	0	0	0.33875	0.11208	0.14731	0.11851	0.16983	0.18323	0.18207	0.15645	0.18989	0.19905	0.22602	0.26832	0.11948	0.18175	0.45309	0.20948	-2.1854	-1.8042	-2.5167	-2.4042	-2.0479	-2.8125	-2.275	-2.2875	-2.575	-1.7479	-2.7188	-2.4458	-2.0521	-2.8083	-2.0042	-2.1479	81.841	203.653	249.356	249.128	-19.684	213.648	222.623	-78.510	106.316	137.425	192.128	230.175	-22.587	-56.843	60.620	259.859	0.00046033	0.00058721	0.00019689	1369.9	4.6725e-06	5.3924e-06	1363.4	373.24	4.2637e-06	6.2169e-06	426.4	142.42	123.92	42.842	5.9361e-06	52.994	0.00074954	0.00078783	0.00021621	1389.9	8.7113e-06	8.4428e-06	1383.4	380.32	8.644e-06	8.6638e-06	434.73	145.94	127.45	44.116	8.6766e-06	54.549	125.467	-26.164	41.625	-80.766	37.954	37.197	-80.940	-76.115	22.528	45.816	-76.524	-72.447	-72.264	-67.281	68.597	-68.181	-8191	255	
21303.727	1	1	0	0	0.2294	0.11041	0.14969	0.14119	0.40466	0.18558	0.34155	0.15248	0.2805	0.16372	0.26846	0.21045	0.11539	0.31657	0.065123	0.1918	-2.3	-1.8479	-2.4	-2.5479	-1.9521	-2.6271	-2.4792	-2.1562	-2.5354	-1.9271	-2.7083	-2.4729	-1.8292	-2.8937	-2.3417	-2.325	85.767	166.718	122.681	40.377	206.642	226.103	222.183	209.080	177.880	107.996	185.855	249.839	209.658	183.621	80.696	214.556	0.00035661	0.00063604	0.00014061	1367.7	7.9505e-06	4.6514e-06	1363.2	374.33	6.0199e-06	9.5318e-06	426.02	142.13	123.8	42.79	7.0042e-06	52.962	0.00076515	0.00080741	0.00021878	1386.5	8.676e-06	8.6216e-06	1385.8	380.7	8.4659e-06	8.656e-06	433.95	146.03	127.34	44.118	8.6021e-06	54.605	121.277	25.603	22.641	-81.010	58.119	27.184	-81.083	-76.080	41.401	67.185	-76.806	-72.626	-72.191	-67.075	20.184	-67.814	-8191	255	
21303.822	1	1	0	0	0.10543	0.057139	0.096551	0.043167	0.2096	0.098209	0.31091	0.22806	0.34575	0.074053	0.13675	0.060711	0.31	0.11836	0.22887	0.086949	-2.2646	-2.0687	-2.3979	-2.4979	-1.9271	-2.8271	-2.6917	-2.15	-2.7896	-2.0604	-2.4208	-2.7687	-1.8479	-2.6292	-2.3979	-2.1958	228.446	91.891	214.743	175.609	229.359	245.652	180.108	179.663	-87.129	199.950	188.053	190.907	237.126	209.708	-36.271	-36.772	0.0005327	0.00047215	0.0002032	1366.5	1.0848e-06	5.4413e-06	1358.2	374.08	9.917e-06	5.7342e-06	425.69	142.5	123.95	42.987	7.9298e-06	52.738	0.00076205	0.00079705	0.00021996	1387.4	8.6884e-06	8.7199e-06	1382.8	380.68	8.7162e-06	8.5455e-06	434.26	145.9	127.21	44.063	8.658e-06	54.451	124.634	-0.035	8.532	-80.656	13.259	-6.865	-80.823	-76.201	42.085	95.576	-76.576	-72.520	-72.026	-67.074	41.857	-67.901	-8191	255	
21303.918	1	1	0	0	0.29777	0.13231	0.15007	0.35288	0.28162	0.31398	0.099231	0.37747	0.083983	0.13593	0.15342	0.07371	0.20524	0.33462	0.21369	0.19054	-2.4062	-2.0521	-2.3438	-2.75	-2.0125	-2.5687	-2.7062	-2.0625	-2.5646	-2.0396	-2.2417	-2.8229	-2.05	-2.6375	-2.4042	-1.9604	201.284	182.025	257.318	175.635	242.624	163.918	-61.241	237.474	-75.083	236.561	80.940	67.791	210.413	203.873	-69.402	222.366	0.00042426	0.00042816	0.00017521	1366.8	3.1987e-06	3.9986e-06	1358	372.14	4.4642e-06	4.0961e-06	425.71	142.27	123.3	42.894	2.3819e-06	52.993	0.00074296	0.00078889	0.00021928	1387.1	8.627e-06	8.4149e-06	1381	379.63	8.3858e-06	8.538e-06	433.63	145.95	127.08	44.083	8.4934e-06	54.483	132.693	-33.458	-45.156	-80.770	61.956	93.130	-80.899	-76.226	-29.825	44.555	-76.616	-72.508	-72.353	-67.136	49.672	-67.982	-8191	255	
21304.037	1	1	0	0	0.15498	0.12221	0.016331	0.26076	0.12961	0.069546	0.26434	0.22139	0.15341	0.083662	0.10889	0.34813	0.32336	0.21485	0.19206	0.23138	-2.1229	-2.2896	-2.1688	-2.825	-1.7833	-2.4104	-2.7583	-2.1375	-2.5646	-2.1813	-2.1937	-2.6312	-2.0708	-2.35	-2.5208	-2.1708	59.295	105.275	-8.031	212.070	-76.056	205.833	215.837	173.189	235.301	248.100	264.250	-82.652	138.854	152.321	201.999	110.892	0.00042924	0.00038453	0.00017746	1362.6	3.1769e-06	3.2693e-06	1361.9	371.92	4.6679e-06	8.2743e-06	427.07	142.33	123.24	42.751	3.9998e-06	52.88	0.00075307	0.00078433	0.00022307	1385.8	8.4843e-06	8.3873e-06	1382.6	379.89	8.4832e-06	8.6077e-06	434.04	145.77	127.04	43.982	8.4899e-06	54.38	132.211	10.769	3.726	-81.057	-10.563	104.075	-81.001	-76.088	-15.221	75.510	-76.300	-72.708	-72.451	-67.363	0.636	-68.112	-8191	255	
21304.133	1	1	0	0	0.3263	0.079549	0.12988	0.17393	0.084689	0.23614	0.25082	0.18646	0.25815	0.23562	0.27399	0.24058	0.28647	0.019003	0.3519	0.090305	-2.2083	-2.4	-2.1229	-2.8667	-1.9937	-2.4354	-2.65	-1.9833	-2.55	-2.425	-2.1625	-2.8479	-2.0812	-2.3688	-2.5854	-2.0208	120.440	-19.855	-33.674	200.023	183.261	-37.823	206.165	208.315	122.943	-84.705	190.922	260.585	173.008	173.544	121.774	-77.460	0.00032118	0.00070055	8.1151e-05	1369.6	3.709e-06	4.4946e-06	1358.9	372.81	2.3754e-06	6.9495e-06	426.29	141.42	123.57	42.899	2.5765e-06	52.722	0.00075066	0.0007892	0.00022437	1386.5	8.6546e-06	8.602e-06	1381.8	380.18	8.4603e-06	8.6241e-06	434.31	145.53	126.89	44.039	8.7307e-06	54.314	114.183	-43.405	41.302	-80.771	14.650	21.799	-80.906	-76.287	88.082	68.891	-76.769	-72.646	-72.138	-67.237	-3.182	-68.118	-8191	255	
21304.230	1	1	0	0	0.18921	0.26313	0.12596	0.081216	0.20393	0.21875	0.12018	0.28881	0.13118	0.16107	0.15631	0.24695	0.38905	0.27679	0.031747	0.14923	-2.1792	-2.2896	-1.9	-2.9	-2.2208	-2.1688	-2.8396	-1.9979	-2.4229	-2.7292	-2.2125	-2.8771	-2.3458	-2.2521	-2.8187	-2.1854	118.063	-60.584	81.517	24.298	69.610	-1.901	198.020	212.783	196.279	193.973	214.976	176.559	185.358	240.431	59.192	221.915	0.00035098	0.00025107	0.0001735	1370.7	3.3376e-06	3.91e-06	1364.1	372.23	5.3205e-06	4.0092e-06	424.91	141.93	123.69	42.768	4.2394e-06	52.678	0.00075148	0.00078712	0.00021776	1388.4	8.4177e-06	8.3774e-06	1382	379.12	8.4977e-06	8.5822e-06	433.97	145.82	127.06	44.047	8.5609e-06	54.294	131.525	-37.779	-3.845	-80.651	36.204	90.136	-80.758	-76.320	8.885	31.888	-76.703	-72.279	-72.300	-67.239	41.236	-67.971	-8191	255	
21304.326	1	1	0	0	0.085747	0.14099	0.24348	0.058189	0.10717	0.12732	0.23035	0.39228	0.26509	0.098577	0.23972	0.1123	0.13107	0.15392	0.054506	0.20625	-1.9875	-2.65	-1.8937	-2.8875	-2.3417	-2.2458	-2.8917	-2.225	-2.4125	-2.6875	-2.0708	-2.7854	-2.3833	-2.0458	-2.6396	-2.1146	21.132	-63.851	141.471	-45.167	96.064	-1.592	223.881	264.956	-92.431	-5.602	265.648	202.719	-32.656	185.468	-8.902	177.606	0.00035946	0.00032752	0.00013171	1366.9	4.1212e-06	6.0826e-06	1359.9	372.45	6.4686e-06	5.1609e-06	426.18	142.51	123.64	42.54	4.3463e-06	52.763	0.00074544	0.00077594	0.00021926	1385.4	8.4188e-06	8.683e-06	1381	379.4	8.4521e-06	8.4569e-06	433.87	145.95	126.93	43.933	8.3975e-06	54.403	121.293	4.317	-4.743	-80.620	74.551	61.393	-80.822	-76.176	13.358	60.252	-76.470	-72.556	-72.120	-67.409	46.758	-68.139	-8191	255	
21304.422	1	1	0	0	0.25904	0.28843	0.25931	0.21273	0.17353	0.1388	0.17909	0.16365	0.088796	0.12989	0.047661	0.099439	0.36573	0.14079	0.053768	0.19554	-1.8604	-2.6604	-1.8271	-2.7229	-2.6167	-2.0563	-3.1042	-2.2208	-2.3167	-2.5771	-1.9396	-2.5729	-2.4604	-2.1167	-2.7354	-2.4792	128.985	166.192	6.963	-67.437	42.018	245.781	248.811	-62.471	5.938	205.540	143.908	109.093	246.245	163.348	233.507	168.375	0.0004684	0.00052643	0.00015938	1367.1	8.1625e-06	6.2845e-06	1359.4	372.88	4.3623e-06	7.6083e-06	424.8	141.76	123.31	42.81	2.2329e-06	52.633	0.0007392	0.00078628	0.00022125	1384.7	8.3581e-06	8.342e-06	1381.6	379.97	8.2879e-06	8.5814e-06	433.35	145.57	126.93	43.998	8.3578e-06	54.221	116.806	11.400	-17.101	-80.689	9.400	49.540	-80.878	-76.083	24.073	62.103	-76.401	-72.503	-72.308	-67.250	73.721	-68.256	-8191	255	
21304.518	1	1	0	0	0.20324	0.12612	0.48756	0.13588	0.084688	0.13413	0.10073	0.01556	0.36259	0.14152	0.24778	0.026033	0.29619	0.25235	0.2677	0.28855	-1.5063	-2.4646	-1.8625	-2.4688	-2.5271	-1.9458	-2.9646	-2.2917	-2.1375	-2.8312	-2.175	-2.5542	-2.6021	-2.0333	-2.6708	-2.5563	-44.954	-39.971	-82.024	-25.903	131.644	-7.039	-74.457	106.262	22.945	217.681	207.886	188.032	218.831	200.792	254.715	-38.884	0.00038787	0.00043617	0.00011798	1370.8	3.1843e-06	2.5193e-06	1359.1	373.28	4.9514e-06	5.6122e-06	426.02	142.13	123.61	42.703	1.0028e-05	52.721	0.00073007	0.0007556	0.00021818	1386.6	8.4497e-06	8.4787e-06	1380.4	379.78	8.3013e-06	8.3233e-06	432.95	145.69	126.75	43.868	8.2396e-06	54.282	118.603	0.713	-12.358	-80.894	32.992	36.675	-80.745	-76.280	-16.652	34.746	-76.574	-72.369	-72.422	-67.077	70.231	-67.597	-8191	255	
21304.613	1	1	0	0	0.10932	0.1141	0.27036	0.14346	0.054358	0.10571	0.40081	0.14748	0.3746	0.10475	0.27352	0.14292	0.15752	0.11632	0.098978	0.27564	-1.8	-2.5687	-2.0854	-2.4729	-2.5896	-1.9271	-2.7958	-2.4625	-1.9042	-2.8208	-2.1583	-2.4146	-2.7042	-1.9021	-2.4667	-2.4354	33.059	143.613	87.959	183.236	233.087	10.503	214.042	11.245	213.297	-70.333	251.507	249.611	-18.366	163.276	200.743	241.292	0.00035856	0.00027731	0.00014084	1361.4	6.0698e-06	2.8112e-06	1361.5	371.61	7.4004e-06	3.8562e-06	426.25	142.46	122.76	42.658	8.8092e-06	52.657	0.00073818	0.00075619	0.00021278	1383.7	8.4432e-06	8.2098e-06	1380.9	379.1	8.3973e-06	8.374e-06	433.17	145.57	126.53	43.929	8.3305e-06	54.222	122.518	33.816	-11.779	-80.390	48.906	66.432	-80.789	-76.106	39.443	79.880	-76.698	-72.448	-72.181	-66.866	55.026	-67.745	-8191	255	
21304.734	1	1	0	0	0.074809	0.096028	0.12563	0.066782	0.065938	0.33658	0.34233	0.10511	0.082569	0.21853	0.17957	0.1143	0.10396	0.33903	0.13431	0.161	-1.55	-2.6333	-2.2208	-2.2521	-2.7125	-1.8042	-2.6688	-2.5583	-2.1021	-2.7292	-2.2917	-2.1604	-2.6875	-2.1021	-2.3979	-2.7375	-26.971	-50.300	178.423	218.123	-5.044	98.381	215.775	180.529	-51.015	86.665	-28.163	-32.230	253.853	233.786	207.159	181.542	0.0002599	0.00029334	5.3097e-05	1358.3	5.3312e-06	4.9912e-06	1359.3	372.25	3.2398e-06	7.7087e-06	424.77	141.51	122.8	42.686	4.1727e-06	52.606	0.00074819	0.00076031	0.00021364	1383.8	8.3713e-06	8.5946e-06	1379.7	379.3	8.2349e-06	8.4506e-06	433.49	145.43	126.81	43.884	8.2822e-06	54.218	108.113	12.219	-21.201	-80.569	37.342	53.824	-80.891	-76.459	15.906	59.525	-76.533	-72.276	-71.864	-67.008	28.715	-68.082	-8191	255	
21304.828	1	1	0	0	0.23468	0.20204	0.19248	0.35238	0.22473	0.281	0.32059	0.18031	0.089992	0.10974	0.047452	0.13885	0.22788	0.0816	0.21586	0.14846	-1.4021	-2.5812	-2.2646	-2.0604	-2.5896	-2.0312	-2.6125	-2.6833	-1.9667	-2.7313	-2.4062	-2.1417	-2.9	-2.075	-2.3937	-2.7979	225.386	122.597	124.655	261.404	41.484	166.346	212.429	245.538	225.454	-21.314	227.202	-13.836	251.665	-4.584	21.619	208.363	0.00040975	0.00045972	0.00022047	1365.3	2.2666e-06	8.0972e-06	1356.8	373.86	6.3437e-06	7.9698e-06	426.13	142.57	123.04	42.622	3.3294e-06	52.674	0.00074036	0.00075906	0.00021374	1384.1	8.3711e-06	8.3022e-06	1379	379.6	8.3585e-06	8.3982e-06	433.33	145.97	126.77	43.891	8.4598e-06	54.228	108.799	23.349	16.243	-80.684	60.316	69.276	-80.962	-76.234	-28.769	33.425	-76.610	-72.291	-72.235	-67.290	30.874	-67.858	-8191	255	
21304.928	1	1	0	0	0.16626	0.16117	0.10484	0.15391	0.24212	0.18567	0.31086	0.075816	0.29079	0.11955	0.22106	0.20531	0.087589	0.086141	0.23927	0.089462	-1.4521	-2.5875	-2.2438	-1.9542	-2.8333	-2.1188	-2.3896	-2.8438	-1.9875	-2.6063	-2.5125	-2.0708	-2.725	-2.2583	-2.2667	-2.7792	2.175	-8.053	156.307	-84.925	170.034	-42.134	233.504	178.114	-7.838	148.305	208.050	254.123	121.834	52.805	42.503	-83.530	0.00041197	0.00085594	6.7857e-05	1368.8	4.5263e-06	4.7124e-06	1354.8	372.92	3.7853e-06	7.272e-06	424.05	141.81	123.24	42.696	5.8246e-06	52.575	0.0007413	0.00076055	0.00021428	1385.2	8.3215e-06	8.4283e-06	1379.5	379.54	8.2676e-06	8.4472e-06	432.93	145.49	126.81	43.84	8.421e-06	54.252	137.329	-28.024	-32.225	-80.578	28.558	78.852	-80.818	-76.291	45.153	43.598	-76.471	-72.203	-72.154	-67.000	50.172	-67.982	-8191	255	
21305.021	1	1	0	0	0.24046	0.12309	0.26116	0.39724	0.29399	0.14055	0.50206	0.25135	0.22496	0.13295	0.092071	0.26097	0.06378	0.19912	0.14284	0.14846	-1.3729	-2.4146	-2.4813	-1.9771	-2.7542	-2.1083	-2.1604	-2.8167	-1.8917	-2.425	-2.7687	-1.9937	-2.6542	-2.3396	-2.1583	-2.7104	199.843	251.262	-70.950	254.491	-76.409	-65.779	212.719	192.977	253.862	185.954	188.088	245.461	156.828	-89.339	227.326	156.829	0.0004033	0.00049143	0.0001397	1369.8	4.1502e-06	6.078e-06	1356.9	373.33	6.0457e-06	5.9764e-06	424.9	141.43	123.1	42.834	2.8289e-06	52.613	0.00074344	0.00076901	0.00021333	1384	8.295e-06	8.3206e-06	1379.2	379.57	8.3192e-06	8.4225e-06	432.5	145.36	126.75	43.936	8.2755e-06	54.302	123.815	-15.382	-13.369	-80.690	32.839	43.243	-80.755	-76.192	43.514	75.321	-76.458	-72.045	-72.091	-67.260	89.361	-68.020	-8191	255	
21305.117	1	1	0	0	0.32799	0.088211	0.21139	0.11625	0.089499	0.058089	0.34984	0.28676	0.21922	0.1759	0.20946	0.14604	0.1042	0.28459	0.2548	0.40454	-1.6833	-2.5396	-2.6625	-1.9583	-2.8021	-2.4313	-2.2083	-2.8187	-2.0396	-2.4375	-2.8833	-2.1479	-2.6021	-2.5521	-2.0354	-2.8312	88.025	156.346	-33.809	-61.162	135.506	217.522	137.231	171.424	9.171	260.315	240.974	-86.678	71.478	170.687	220.976	169.882	0.00036938	0.0005801	0.00018547	1367.6	4.1824e-06	3.871e-06	1358.8	372.51	4.3634e-06	6.0371e-06	423.52	141.93	122.45	42.687	4.0359e-06	52.827	0.00073816	0.00075871	0.00021421	1386.2	8.3594e-06	8.4651e-06	1380.1	379.3	8.3421e-06	8.5816e-06	432.83	145.63	126.41	43.924	8.3505e-06	54.287	115.956	3.251	4.861	-80.483	39.142	26.099	-80.633	-76.073	92.116	72.756	-76.458	-72.398	-71.945	-66.993	-25.895	-67.714	-8191	255	
21305.215	1	1	0	0	0.33326	0.22415	0.15787	0.30446	0.024811	0.28307	0.15643	0.14316	0.31513	0.39943	0.11017	0.12159	0.21652	0.34656	0.19186	0.26616	-1.8042	-2.2313	-2.7458	-1.9792	-2.4604	-2.5	-2.1646	-2.8875	-2.2708	-2.2229	-2.8854	-1.9667	-2.5583	-2.5583	-2.0375	-2.7687	209.894	28.572	80.448	-57.186	-50.013	-57.606	220.251	209.983	155.456	-78.042	200.310	206.706	241.506	129.709	-36.336	88.497	0.00042454	0.00061351	0.00020893	1368.5	7.1959e-06	4.0579e-06	1352.1	372.19	3.175e-06	4.9842e-06	424.35	141.63	123.39	42.573	7.3832e-06	52.436	0.00073455	0.00077225	0.00021963	1384	8.4697e-06	8.3108e-06	1376.2	379.52	8.4614e-06	8.5924e-06	432.21	145.28	126.94	43.851	8.3505e-06	54.087	120.731	5.620	-1.822	-80.755	27.179	78.438	-80.709	-75.911	11.502	83.532	-76.328	-72.582	-72.021	-67.063	38.947	-67.485	-8191	255	
21305.334	1	1	0	0	0.21375	0.11045	0.13784	0.1223	0.1807	0.15012	0.19301	0.2974	0.26556	0.31433	0.07964	0.33754	0.21459	0.21047	0.062849	0.2251	-1.8708	-1.9521	-2.8979	-2.2417	-2.2917	-2.5354	-2.1646	-2.7146	-2.3271	-1.8771	-2.8646	-1.875	-2.4646	-2.7938	-1.9354	-2.7229	258.116	77.063	-91.346	-77.833	174.726	-26.592	163.394	212.743	-67.480	218.851	-23.846	220.557	150.589	-51.814	-72.523	187.041	0.00036357	0.00064027	9.7366e-05	1360.9	2.6001e-06	5.7606e-06	1357.7	373.18	1.3787e-06	4.0807e-06	425.26	142.18	123.22	42.733	9.6323e-06	52.561	0.00073738	0.00078227	0.00021503	1383.4	8.5278e-06	8.4616e-06	1377.7	379.2	8.2763e-06	8.4651e-06	433.17	145.31	126.79	43.805	8.477e-06	54.163	115.333	7.857	1.343	-80.562	121.871	43.699	-80.801	-75.980	86.655	43.587	-76.283	-72.333	-71.909	-67.223	49.912	-67.875	-8191	255	
21305.432	1	1	0	0	0.21589	0.19554	0.10006	0.20185	0.15779	0.16528	0.27071	0.24391	0.18464	0.129	0.057507	0.28302	0.35423	0.084777	0.16297	0.12142	-1.8875	-1.8521	-2.7521	-2.0687	-2.2729	-2.7354	-2.2875	-2.6667	-2.4021	-1.9083	-2.675	-2.1604	-2.1521	-2.8021	-1.9854	-2.5521	-59.340	97.241	-93.398	163.986	238.668	84.987	140.186	235.615	107.926	240.577	215.632	235.190	249.237	-78.308	62.788	102.128	0.00037742	0.00081198	0.00019157	1367.5	3.906e-06	3.3947e-06	1363.1	372.22	3.9389e-06	3.5517e-06	427.36	141.57	123.49	42.573	6.9792e-06	52.931	0.00074675	0.00078003	0.00021753	1384.9	8.5101e-06	8.2862e-06	1381.6	379.12	8.2422e-06	8.4374e-06	433.32	145.33	126.83	43.857	8.2323e-06	54.208	118.233	40.740	6.526	-80.553	110.734	35.107	-80.700	-76.057	-27.266	78.357	-76.435	-72.233	-71.586	-66.789	22.786	-67.756	-8191	255	
21305.527	1	1	0	0	0.27117	0.14729	0.37796	0.36028	0.11618	0.224	0.30279	0.14613	0.18415	0.20367	0.11944	0.058173	0.17276	0.10023	0.26319	0.23874	-2.0854	-1.9854	-2.7062	-2.2146	-2.1458	-2.8042	-2.1708	-2.7396	-2.5729	-1.8896	-2.8667	-2.3896	-2.1562	-2.7646	-2.0167	-2.4667	-67.365	-53.130	194.922	179.914	170.302	-7.117	183.722	207.149	-14.489	36.520	129.734	146.244	142.106	-73.541	-83.908	224.850	0.0004807	0.00065257	0.00013883	1366.3	4.1922e-06	3.9405e-06	1354.1	370.99	2.5088e-06	9.7675e-06	425.22	141.91	122.77	42.711	4.6884e-06	52.954	0.00072052	0.0007527	0.00020766	1380.7	8.4062e-06	8.1763e-06	1377	378.85	7.9349e-06	8.3539e-06	432.83	145.26	126.55	43.849	8.105e-06	54.234	116.700	-19.053	-23.625	-80.326	49.247	57.194	-80.644	-75.922	-50.775	59.909	-76.147	-72.293	-71.964	-67.011	19.629	-67.831	-8191	255	
21305.598	1	1	0	0	0.21176	0.30359	0.21463	0.064864	0.20839	0.15883	0.17144	0.21247	0.18696	0.41278	0.1476	0.069043	0.35813	0.06648	0.10196	0.22796	-2.1396	-2.0021	-2.4583	-2.4542	-2.0771	-2.8333	-2.225	-2.3375	-2.6292	-1.8792	-2.7708	-2.4208	-2.0458	-2.975	-2.2771	-2.4437	109.207	189.928	260.483	66.428	245.332	33.637	-60.468	200.540	10.339	97.369	189.434	169.464	230.866	143.482	126.010	129.185	0.00031779	0.0004993	6.665e-05	1361.3	3.0668e-06	8.7572e-07	1356	372.13	1.4541e-06	5.3289e-06	424.89	141.68	123.12	42.616	8.1255e-06	52.825	0.00072247	0.00074748	0.00020882	1381.3	8.3307e-06	8.3113e-06	1376.8	378.79	8.2381e-06	8.2704e-06	432.75	145.36	126.59	43.802	8.1882e-06	54.298	131.694	5.128	234.377	-80.438	22.798	85.414	-80.774	-75.892	2.277	44.545	-76.320	-72.267	-72.006	-66.977	45.456	-67.574	-8191	255	
21305.717	1	1	0	0	0.13401	0.15238	0.071141	0.098742	0.14656	0.26462	0.17885	0.32912	0.073616	0.20017	0.34849	0.27866	0.2956	0.3556	0.18069	0.22941	-2.2604	-1.9604	-2.5729	-2.5208	-1.9604	-2.6604	-2.2625	-2.4188	-2.7313	-1.9104	-2.7479	-2.6604	-1.9521	-2.6979	-2.2104	-2.0687	13.721	174.752	101.075	-88.362	214.960	203.274	169.597	241.703	74.269	-82.950	235.245	139.868	259.689	189.963	68.200	18.019	0.00044357	0.00022721	0.00026394	1365.9	3.9996e-06	4.7855e-06	1351.9	372.95	7.3822e-06	5.5133e-06	427.13	141.43	123.16	42.547	3.7115e-06	52.538	0.00073523	0.00075199	0.00020923	1382.8	8.1416e-06	8.1869e-06	1376.2	379.6	8.1824e-06	8.1246e-06	434.46	145.16	126.58	43.76	8.2292e-06	54.241	141.467	-65.990	-34.133	-80.596	80.490	62.028	-80.755	-75.896	6.132	22.432	-76.408	-72.452	-71.899	-67.067	58.359	-67.359	-8191	255	
21305.812	1	1	0	0	0.16812	0.23226	0.16236	0.118	0.14383	0.20953	0.51761	0.12095	0.011375	0.077109	0.12729	0.067878	0.28025	0.1197	0.25005	0.06824	-2.4604	-1.9417	-2.4479	-2.4896	-1.7313	-2.5583	-2.4354	-2.2208	-2.6875	-2.0812	-2.3812	-2.7667	-1.9479	-2.7	-2.2896	-2.2354	-49.047	246.412	184.727	188.626	265.491	137.692	209.442	-20.049	194.933	41.500	104.024	192.838	-83.047	211.289	61.621	191.212	0.00034408	0.00048979	0.00011803	1370.7	3.0611e-06	2.672e-06	1356.6	373.2	5.7166e-07	3.6518e-06	424.86	141.69	123.58	42.725	2.6118e-06	52.751	0.00071919	0.00075461	0.00020696	1383.8	8.2511e-06	8.2175e-06	1377.7	379.35	8.1402e-06	8.0902e-06	432.2	145.27	126.71	43.857	8.1228e-06	54.253	104.806	-47.364	14.630	-80.454	38.852	128.479	-80.613	-76.008	202.606	32.966	-76.215	-72.237	-71.699	-66.913	-67.516	-67.691	-8191	255	
21305.910	1	1	0	0	0.096476	0.036164	0.20937	0.27444	0.17187	0.26506	0.44963	0.37535	0.077739	0.12284	0.15	0.24125	0.22028	0.14441	0.18271	0.21001	-2.3396	-2.0062	-2.3521	-2.7354	-1.9562	-2.5917	-2.5833	-2.0854	-2.8854	-2.025	-2.4	-2.8146	-2.0938	-2.6562	-2.5083	-2.0833	256.319	-90.987	64.783	244.660	69.055	188.629	204.635	202.412	83.391	-38.978	250.998	111.176	151.893	240.383	166.309	99.516	0.00044831	0.00056807	0.00016805	1357	6.7163e-06	7.5564e-06	1351.8	371.63	2.5463e-06	3.9763e-06	425.62	141.51	123.6	42.584	6.2551e-06	52.477	0.0007179	0.00072675	0.0002079	1380.7	7.9212e-06	8.1154e-06	1373.6	378.78	7.8978e-06	7.9599e-06	432.65	145.06	126.66	43.783	7.942e-06	54.113	126.634	-49.255	18.543	-80.757	20.946	38.888	-80.708	-75.987	-32.608	58.482	-75.937	-72.471	-71.920	-66.829	55.335	-67.779	-8191	255	
21306.008	1	1	0	0	0.13442	0.11247	0.1464	0.15529	0.11632	0.33133	0.43706	0.41745	0.10811	0.054666	0.1873	0.10742	0.060702	0.42122	0.05833	0.21437	-2.2333	-2.0208	-2.0042	-2.7479	-1.9062	-2.2958	-2.7208	-1.95	-2.6375	-2.1562	-2.1854	-2.7229	-2.0042	-2.4354	-2.5167	-1.975	49.592	-10.356	157.362	191.240	-73.555	73.677	249.252	202.033	46.561	59.934	244.862	196.232	176.707	259.606	-19.992	205.994	0.00040578	0.00072461	0.00019317	1361.6	4.3103e-06	6.2739e-06	1356.1	370.46	3.7953e-06	5.0168e-06	426.29	141.28	122.85	42.652	3.7928e-06	52.52	0.00071539	0.00073892	0.00020783	1379.4	7.9321e-06	8.1029e-06	1375.4	378.11	7.9242e-06	8.1068e-06	432.69	145.14	126.42	43.788	7.9698e-06	54.122	142.595	-2.429	-47.172	-80.136	53.177	45.287	-80.634	-76.012	48.636	46.035	-76.384	-72.333	-71.777	-66.899	69.999	-67.510	-8191	255	
21306.127	1	1	0	0	0.13086	0.12787	0.043938	0.082911	0.29806	0.097057	0.37041	0.20671	0.10002	0.26562	0.17532	0.083766	0.17599	0.53795	0.25147	0.029916	-2.2354	-2.0667	-2.0604	-2.6854	-1.9146	-2.5375	-2.6854	-2.1042	-2.5229	-2.3688	-1.9417	-2.6688	-2.0354	-2.1896	-2.65	-1.8729	-29.290	259.720	10.497	239.863	75.786	179.184	211.654	227.493	123.150	160.546	263.662	-67.777	105.908	-84.320	-20.389	39.094	0.00035239	0.0001264	0.00015143	1358.9	3.9567e-06	5.8699e-06	1356.2	371.66	4.6411e-06	8.5388e-06	423.03	141.91	123.47	42.623	3.4003e-06	52.485	0.00071344	0.00072888	0.00020547	1378.2	7.7966e-06	7.9767e-06	1375.1	378.14	7.7347e-06	8.0458e-06	432.46	144.98	126.49	43.732	7.8046e-06	54.076	138.091	18.479	-24.499	-80.386	46.112	43.464	-80.763	-75.905	49.847	59.454	-76.199	-72.106	-71.952	-66.871	40.966	-67.748	-8191	255	
21306.197	1	1	0	0	0.11108	0.22795	0.27344	0.16778	0.18501	0.20283	0.18113	0.26171	0.13015	0.1447	0.21612	0.2417	0.17421	0.1206	0.056249	0.20114	-2.0396	-2.3729	-1.9167	-2.8792	-2.1229	-2.1729	-2.9979	-2.1104	-2.3333	-2.4938	-1.9833	-2.8146	-2.2771	-2.1417	-2.7646	-1.9104	139.296	-43.643	201.249	111.555	-11.979	97.212	174.296	166.519	143.906	56.386	-81.980	181.694	229.719	260.426	254.461	165.900	0.00041345	0.00042838	0.00014369	1358.9	2.3724e-06	6.1925e-06	1354.6	371.08	7.4244e-06	5.6816e-06	424.24	141.77	122.88	42.714	7.4919e-06	52.543	0.00070781	0.00071306	0.000206	1379.1	8.0342e-06	7.8098e-06	1374.9	378.2	7.8905e-06	7.7804e-06	432.21	144.83	126.19	43.682	7.7256e-06	54.043	129.200	-15.860	-45.336	-80.463	69.868	70.266	-80.592	-75.795	16.787	72.662	-76.287	-72.148	-71.746	-66.957	47.255	-67.574	-8191	255	
21306.295	1	1	0	0	0.1701	0.054706	0.012427	0.28009	0.16561	0.22359	0.3158	0.38367	0.072187	0.15956	0.1458	0.20841	0.11514	0.17846	0.26713	0.049967	-1.9333	-2.5896	-1.8229	-2.6583	-2.0708	-2.0417	-2.9354	-2.0479	-2.3667	-2.5708	-2.0271	-2.6083	-2.3208	-2.1229	-2.5583	-2.1688	59.940	77.757	131.137	253.161	97.592	10.761	173.879	193.030	166.960	16.919	-55.402	193.863	165.407	248.236	201.287	174.721	0.00038155	0.00040762	0.00011259	1359.9	5.6931e-06	6.631e-06	1353	370.34	3.2623e-06	7.4012e-06	422.87	140.98	123.06	42.527	4.7078e-06	52.637	0.00069626	0.0007394	0.00020307	1378.7	7.7798e-06	8.0668e-06	1373.3	377.58	7.8399e-06	7.8302e-06	430.38	144.83	126.38	43.715	7.7999e-06	54.002	118.607	10.113	33.052	-80.330	37.138	78.723	-80.586	-75.790	79.291	25.664	-76.213	-72.100	-71.884	-66.985	7.014	-67.650	-8191	255	
21306.414	1	1	0	0	0.19843	0.10741	0.23217	0.19037	0.031346	0.3028	0.27243	0.072943	0.12716	0.39386	0.22083	0.1962	0.26405	0.14682	0.20811	0.42685	-2.1792	-2.4729	-1.8396	-2.7583	-2.3542	-1.7646	-2.8771	-2.2875	-2.0458	-2.6417	-2.1188	-2.6958	-2.3438	-2.0771	-2.6688	-2.4208	95.067	-51.693	104.705	-46.080	-79.360	86.933	123.174	117.464	-84.739	133.733	190.510	-60.082	-71.705	132.066	43.133	138.187	0.00035669	0.00031649	0.00014934	1359.4	8.0131e-06	4.5492e-06	1353.4	370.71	4.1107e-06	1.6226e-06	422.13	141.44	122.86	42.722	7.4378e-06	51.983	0.00068615	0.00073095	0.00020295	1378.1	8.0591e-06	7.8385e-06	1373.3	377.26	7.7034e-06	7.9111e-06	431	144.92	126.09	43.729	7.8527e-06	53.874	124.776	-14.080	7.852	-80.206	28.957	45.367	-80.434	-75.714	37.404	12.925	-76.407	-72.608	-72.193	-67.025	39.798	-67.941	-8191	255	
21306.512	1	1	0	0	0.10703	0.091755	0.14278	0.12151	0.14553	0.16766	0.077956	0.26565	0.17597	0.083224	0.14451	0.26309	0.17635	0.25148	0.062243	0.33725	-1.65	-2.6562	-1.9083	-2.5229	-2.5542	-2.2	-2.8396	-2.3563	-1.9813	-2.5729	-2.1979	-2.3896	-2.6	-1.8396	-2.6437	-2.2417	190.757	-61.968	231.473	147.559	-46.614	43.835	250.392	239.010	7.888	155.621	226.487	169.387	-42.667	199.836	-62.092	241.774	0.00042218	0.00050649	0.0002613	1361.7	3.8381e-06	4.2699e-06	1351.4	371.34	4.0936e-06	5.2314e-06	423.42	141.1	122.7	42.613	5.4629e-06	52.455	0.00070596	0.00071139	0.00019918	1376.2	7.9508e-06	7.8843e-06	1372	377.37	7.6811e-06	7.6373e-06	430.55	144.81	126.01	43.649	7.8948e-06	54.027	137.038	-40.326	-14.893	-80.625	108.181	33.704	-80.790	-76.211	16.724	64.774	-76.442	-72.333	-72.050	-67.042	20.164	-67.500	-8191	255	
21306.607	1	1	0	0	0.15343	0.2597	0.10303	0.16116	0.053144	0.12709	0.16141	0.2598	0.14728	0.17268	0.21159	0.10746	0.15407	0.10157	0.055785	0.20165	-1.6729	-2.8208	-1.9042	-2.3583	-2.6937	-1.7396	-2.7792	-2.5229	-1.8896	-2.5875	-2.2833	-2.3979	-2.6979	-1.9542	-2.4542	-2.3667	20.460	95.452	76.660	241.964	-6.580	-71.076	226.428	165.248	-29.755	189.240	208.657	204.825	160.292	128.743	-12.909	188.513	0.00040724	0.0005856	0.00012793	1356.9	3.2854e-06	2.9685e-06	1349	369.16	4.8587e-06	3.2866e-06	423.6	141.33	122.75	42.645	5.1667e-06	52.447	0.00070406	0.00071227	0.00019971	1374.7	7.7101e-06	7.8711e-06	1369.3	376.84	7.6784e-06	7.7879e-06	430.82	144.75	125.83	43.702	7.6951e-06	53.98	126.060	-29.937	-12.144	-80.624	64.283	26.457	-80.989	-76.214	23.834	41.986	-76.175	-71.903	-71.909	-67.004	35.075	-67.864	-8191	255	
21306.729	1	1	0	0	0.27246	0.18421	0.20796	0.25961	0.11887	0.23149	0.050074	0.075822	0.18903	0.21808	0.091805	0.065005	0.12185	0.056588	0.14035	0.12659	-1.6375	-2.7562	-2.0417	-2.3375	-2.7521	-1.7125	-2.7438	-2.6333	-1.8646	-2.6063	-2.1667	-2.25	-2.7396	-1.9042	-2.4188	-2.5917	231.285	-55.890	32.403	-92.319	7.893	79.080	105.349	177.124	6.908	84.554	-5.626	163.446	95.784	179.609	161.588	-75.638	0.0003879	0.00040386	0.00021513	1353.7	4.5251e-06	4.4334e-06	1350.4	371.77	1.9014e-06	5.9982e-06	424.08	140.85	122.49	42.482	6.0903e-06	52.589	0.00069718	0.00071598	0.00019619	1374.2	7.7494e-06	7.8042e-06	1370.1	377.87	7.7647e-06	7.7868e-06	430.99	144.54	125.96	43.641	7.8562e-06	54.066	127.868	-9.656	5.004	-80.325	28.440	57.278	-80.711	-76.120	28.024	70.221	-76.571	-72.062	-72.001	-67.023	72.388	-67.801	-8191	255	
21306.822	1	1	0	0	0.32923	0.19553	0.061777	0.22587	0.15961	0.11657	0.37254	0.42308	0.067886	0.16621	0.16101	0.20763	0.17335	0.25961	0.28834	0.063004	-1.2979	-2.5583	-2.2104	-2.075	-2.6937	-1.9	-2.6167	-2.7042	-1.9458	-2.7458	-2.4458	-2.1417	-2.7271	-2.1	-2.2875	-2.6042	51.460	123.083	111.476	-56.885	173.213	231.219	202.585	-86.651	249.863	81.048	-87.531	145.443	91.524	181.643	35.471	254.017	0.00037771	0.00096234	0.00013494	1355.4	2.3196e-06	3.5447e-06	1347.9	371.14	5.2244e-06	4.5385e-06	422.67	141.22	123.04	42.629	7.316e-06	52.315	0.00069614	0.0007211	0.00020009	1374.2	7.7571e-06	7.7893e-06	1369.7	377.4	7.7168e-06	7.4765e-06	430.3	144.51	126.09	43.658	7.7616e-06	53.96	115.813	-14.611	11.300	-80.491	17.599	26.643	-80.678	-76.109	6.209	37.663	-76.494	-72.187	-71.986	-66.867	21.497	-67.438	-8191	255	
21306.895	1	1	0	0	0.23268	0.11255	0.10524	0.098068	0.12493	0.090671	0.060893	0.26086	0.040274	0.085204	0.13813	0.14209	0.19584	0.54343	0.20121	0.26305	-1.4417	-2.6542	-2.35	-2.0833	-2.7771	-2.1688	-2.4875	-2.6146	-1.8687	-2.6896	-2.4354	-2.05	-2.6437	-2.1312	-2.2604	-2.7583	195.882	0.660	181.719	-91.811	-17.282	38.640	215.883	234.299	246.556	206.446	250.007	-86.600	-70.195	-46.664	10.261	221.996	0.00039916	0.00052451	0.00019971	1353.6	4.7631e-06	6.8131e-06	1346.1	370.54	4.1143e-06	9.065e-06	423.47	141.08	123.05	42.306	6.3456e-06	52.281	0.0006784	0.00070008	0.00019503	1373.9	7.574e-06	7.7826e-06	1366.1	377.02	7.6739e-06	7.5527e-06	430.18	144.49	125.8	43.574	7.6709e-06	53.952	133.605	22.655	-19.764	-80.368	19.264	59.275	-80.594	-76.048	29.945	50.485	-76.479	-72.355	-71.985	-67.101	69.069	-67.671	-8191	255	
21307.014	1	1	0	0	0.047001	0.13383	0.35719	0.035711	0.097796	0.1221	0.10839	0.24603	0.11399	0.33171	0.2438	0.2284	0.16921	0.27403	0.16092	0.2457	-1.4479	-2.3667	-2.4146	-1.8354	-2.7917	-2.0833	-2.2292	-2.9729	-1.8208	-2.4792	-2.6854	-2.0229	-2.5917	-2.2167	-2.0979	-2.9062	-8.461	236.604	183.142	-70.001	215.629	-44.754	-59.197	249.229	187.874	-11.888	223.806	198.376	-88.752	234.572	193.414	169.351	0.00038801	0.00062907	0.00013232	1357.2	5.429e-06	7.1014e-06	1345.9	372.91	5.4307e-06	5.8956e-06	420.79	141.51	123.17	42.324	5.835e-06	52.604	0.0006845	0.00070533	0.00019697	1372.6	7.5416e-06	7.7385e-06	1367.9	377.8	7.648e-06	7.6477e-06	430.08	144.59	126.11	43.585	7.7195e-06	53.935	134.856	-27.135	12.058	-80.304	35.494	46.092	-80.608	-75.903	-4.212	77.553	-76.373	-72.338	-71.742	-67.078	64.266	-67.570	-8191	255	
21307.111	1	1	0	0	0.24569	0.20109	0.08665	0.18766	0.21299	0.25001	0.25325	0.20345	0.12507	0.093548	0.157	0.085803	0.18779	0.12986	0.23113	0.14435	-1.5896	-2.5271	-2.5708	-2.0917	-2.6021	-2.3833	-2.2208	-2.9458	-1.8583	-2.4521	-2.7542	-2.1229	-2.8312	-2.4646	-1.9792	-2.7812	-93.772	82.542	-44.988	-76.876	183.504	153.842	214.429	116.213	-25.592	-55.422	65.240	-90.949	-78.054	208.760	116.115	70.533	0.00030529	0.00029323	0.00015477	1357.1	5.8961e-06	4.4139e-06	1346.1	371.38	2.0504e-06	5.8883e-06	423.58	140.87	121.87	42.718	6.8789e-06	52.665	0.00068363	0.00069793	0.00019602	1371.3	7.7633e-06	7.6385e-06	1367.3	377.46	7.766e-06	7.745e-06	430.64	144.4	125.8	43.57	7.8849e-06	53.988	128.275	-0.110	-38.389	-80.459	34.681	36.357	-80.734	-75.938	44.513	32.288	-76.352	-72.229	-72.015	-67.086	36.367	-67.665	-8191	255	
21307.207	1	1	0	0	0.23279	0.21651	0.24058	0.15067	0.13475	0.23797	0.3216	0.27334	0.1837	0.095069	0.33311	0.088732	0.20631	0.087611	0.25492	0.071296	-1.5333	-2.2979	-2.4667	-1.9833	-2.5396	-2.275	-2.0396	-2.5604	-2.0542	-2.0479	-2.5771	-1.9271	-2.4062	-2.425	-1.9729	-2.8042	114.880	-49.789	124.164	-52.311	-52.727	156.878	168.728	223.886	242.823	157.876	-67.685	219.591	236.655	-70.622	18.823	31.119	0.00032529	0.00074446	0.00012335	1351.3	3.2615e-06	1.9421e-06	1348.1	370.78	4.8871e-06	7.2232e-06	421.77	140.48	122.62	42.487	3.5396e-06	52.745	0.0006905	0.00070871	0.00019306	1371.4	7.7185e-06	7.6942e-06	1367.1	377.06	7.5164e-06	7.8581e-06	430.56	144.32	126.08	43.603	7.6844e-06	54.104	127.129	22.272	-18.535	-80.450	49.202	25.674	-80.601	-75.941	22.167	55.544	-76.343	-72.319	-71.865	-67.098	73.667	-67.415	-8191	255	
21307.303	1	1	0	0	0.22773	0.15533	0.11191	0.20609	0.14921	0.15112	0.046563	0.23189	0.27878	0.17773	0.22534	0.24089	0.30322	0.090336	0.17843	0.18658	-1.8354	-2.0771	-2.7854	-2.1042	-2.3417	-2.6146	-2.1667	-2.8708	-2.3063	-1.8813	-2.9	-2.2	-2.5021	-2.6375	-1.6958	-2.6917	103.244	-12.558	-5.529	244.545	87.392	-61.503	135.402	246.021	13.921	65.894	239.610	218.673	216.585	219.209	82.631	80.578	0.00039852	0.00058338	0.00021097	1348.3	6.6432e-06	4.1583e-06	1348	371.8	5.514e-06	2.7847e-06	422.09	140.09	122.68	42.656	3.6491e-06	52.456	0.00067682	0.00069969	0.00019358	1370.5	7.6684e-06	7.5962e-06	1367.7	377.78	7.7967e-06	7.6759e-06	430.12	144.22	126.11	43.622	7.8301e-06	53.866	128.410	12.669	-15.569	-80.509	39.175	67.129	-80.485	-75.851	34.410	65.901	-76.151	-72.036	-71.884	-66.731	58.544	-67.429	-8191	255	
21307.424	1	1	0	0	0.17284	0.16804	0.067052	0.40258	0.16993	0.16552	0.18929	0.28475	0.17689	0.17189	0.1844	0.34426	0.22274	0.16947	0.32091	0.29011	-1.9292	-1.8292	-2.6979	-2.0896	-2.2625	-2.5417	-2.3646	-2.7771	-2.1979	-1.9542	-2.8812	-2.1063	-2.2521	-2.7417	-1.9833	-2.7604	-47.633	-2.177	61.656	256.665	0.554	-71.368	191.757	253.329	160.205	232.290	177.893	-79.309	248.364	232.310	246.469	193.472	0.00031852	0.00059303	0.00014272	1350.3	5.1468e-06	5.4819e-06	1349.7	371.55	2.0031e-06	5.888e-06	423.82	140.62	123.02	42.498	2.9962e-06	52.409	0.00069365	0.000724	0.00019928	1372.2	8.0369e-06	7.9972e-06	1368.4	377.78	8.1527e-06	8.2452e-06	431.18	144.53	125.9	43.611	8.191e-06	54.026	127.519	-15.074	20.698	-80.331	13.113	64.050	-80.531	-75.893	54.763	46.467	-76.170	-72.283	-71.689	-66.837	75.405	-67.675	-8191	255	
21307.494	1	1	0	0	0.2404	0.21028	0.21034	0.19468	0.034734	0.36773	0.41005	0.21629	0.2033	0.089762	0.27228	0.34339	0.23367	0.21538	0.34737	0.087388	-1.9708	-2.0729	-2.6771	-2.1271	-2.3542	-2.7417	-2.1542	-2.8375	-2.5229	-1.9729	-2.6854	-2.375	-2.0938	-2.875	-2.1583	-2.5854	181.017	225.515	-69.174	236.700	252.082	255.754	138.223	194.406	-41.077	103.246	237.983	-64.007	191.342	206.551	-5.568	-32.812	0.00037527	0.0006845	0.00016921	1351.6	2.2575e-06	6.279e-06	1346.2	370.65	4.4695e-06	5.3815e-06	421.87	141.32	122.76	42.498	6.523e-06	52.519	0.00071792	0.00075812	0.00020835	1375.2	8.2314e-06	7.9888e-06	1367.1	377.32	8.1477e-06	8.1807e-06	430.22	144.93	126.09	43.686	8.0946e-06	54.021	130.239	12.322	-52.971	-80.641	1.430	70.621	-80.622	-75.678	-10.996	89.715	-76.116	-72.197	-71.673	-66.996	104.736	-67.562	-8191	255	
21307.592	1	1	0	0	0.053646	0.22994	0.070437	0.18906	0.060327	0.17263	0.10463	0.21518	0.26319	0.20497	0.15054	0.098912	0.12425	0.26501	0.21522	0.19091	-2.1875	-1.7958	-2.6167	-2.3104	-1.9042	-2.8	-2.1792	-2.5521	-2.7125	-1.8396	-2.9	-2.2771	-2.0167	-2.7042	-2.0646	-2.2375	-89.221	85.132	-60.468	-68.645	218.191	117.330	202.357	-91.619	121.345	-4.109	104.913	-46.430	188.709	224.772	192.462	165.555	0.00039132	0.0006934	0.00016503	1354.6	7.1009e-06	6.3772e-06	1355.1	371.05	2.9013e-06	2.9908e-06	424.6	140.59	122.29	42.575	8.8627e-07	52.666	0.0007082	0.00073119	0.00020204	1375.4	8.0585e-06	8.1245e-06	1372.7	377.26	8.0077e-06	8.1776e-06	431.39	144.62	126.04	43.678	8.1873e-06	54.163	120.534	-12.180	-18.017	-80.526	78.629	21.393	-80.623	-75.732	25.696	43.215	-76.209	-72.152	-71.704	-67.058	26.898	-67.388	-8191	255	
21307.688	1	1	0	0	0.27705	0.31102	0.30397	0.22427	0.062083	0.12141	0.06047	0.12097	0.14368	0.11116	0.13769	0.075564	0.20231	0.21743	0.26473	0.025534	-2.1312	-1.7958	-2.4479	-2.4958	-1.8896	-2.7604	-2.2708	-2.3479	-2.6688	-1.8625	-2.7604	-2.5417	-2.0333	-2.7792	-2.025	-2.35	199.098	212.240	119.739	-51.411	176.862	78.957	142.805	225.508	12.972	217.217	244.836	207.636	239.030	220.457	163.056	-1.599	0.00043451	0.0003972	0.00016658	1357.8	5.6585e-06	5.5862e-06	1350.9	371.4	1.1265e-06	9.551e-06	424.31	142.02	122.98	42.698	3.3605e-06	52.514	0.00071309	0.00074535	0.00021041	1377	8.4863e-06	8.1122e-06	1372	378.18	8.0725e-06	8.2566e-06	432.03	144.98	126.34	43.752	8.1992e-06	54.017	124.244	42.794	-15.661	-80.345	23.722	18.882	-80.538	-75.805	-55.416	76.945	-76.084	-72.266	-71.755	-66.751	24.369	-67.527	-8191	255	
21307.809	1	1	0	0	0.1652	0.28201	0.34388	0.34986	0.16436	0.19433	0.11338	0.040849	0.13027	0.078681	0.25459	0.16874	0.24698	0.28504	0.18906	0.19365	-2.2875	-2.2104	-2.2583	-2.6188	-1.8687	-2.7167	-2.3521	-2.2438	-2.7021	-1.7604	-2.4271	-2.7146	-1.8521	-2.675	-2.3771	-2.0896	-34.932	158.239	262.673	189.572	-39.161	-81.820	-62.990	-75.016	164.573	160.414	241.134	83.231	-82.965	192.123	69.471	18.463	0.00033165	0.00016627	0.00018636	1355.7	3.6328e-06	8.0544e-06	1349.1	370.55	7.5558e-06	5.2568e-06	421.31	141.27	122.7	42.491	6.5111e-06	52.57	0.00070754	0.00075324	0.00021116	1374.6	8.2063e-06	8.18e-06	1371.2	377.34	8.1088e-06	8.2381e-06	431.05	144.81	126.32	43.685	8.3179e-06	54.147	140.214	6.996	-3.410	-80.608	33.935	33.709	-80.557	-75.641	10.227	66.304	-76.035	-72.105	-71.542	-66.709	59.489	-67.281	-8191	255	
21307.902	1	1	0	0	0.075531	0.041385	0.16181	0.17093	0.1005	0.20218	0.092041	0.29912	0.18366	0.14343	0.36259	0.30563	0.15519	0.19309	0.22774	0.044686	-2.2687	-2.0146	-2.3458	-2.5542	-1.7354	-2.5292	-2.55	-2.1271	-2.6813	-2.1083	-2.1854	-2.6708	-1.9625	-2.4813	-2.3688	-2.1875	-31.663	-85.274	135.778	226.293	-91.873	-19.472	254.581	241.517	71.370	221.683	-44.933	221.767	229.547	170.547	-78.700	258.101	0.00041092	0.00060759	0.00017834	1366.3	2.8058e-06	3.3587e-06	1353.8	370.2	4.7546e-06	8.8833e-06	421.12	141.11	122.47	42.469	3.9678e-06	52.652	0.00074704	0.00077534	0.00021513	1381.4	8.4055e-06	8.4156e-06	1373	377.21	8.2445e-06	8.555e-06	430.42	144.93	126.23	43.769	8.6185e-06	54.197	110.015	22.755	-15.674	-80.450	48.984	81.294	-80.609	-75.654	20.878	67.350	-76.006	-72.171	-71.670	-66.687	80.957	-67.418	-8191	255	
21307.998	1	1	0	0	0.13479	0.11407	0.36719	0.25711	0.13604	0.098394	0.13199	0.38149	0.20476	0.11519	0.23694	0.33349	0.24167	0.19525	0.0969	0.076753	-2.3708	-2.0979	-2.0646	-2.8354	-2.0833	-2.4104	-2.7354	-2.0312	-2.9188	-2.2292	-2.1917	-2.8312	-2.0146	-2.4375	-2.5812	-1.8833	188.551	113.348	97.344	262.163	54.155	169.536	-77.225	186.616	262.047	227.489	182.817	184.180	227.627	87.056	-0.928	179.425	0.00041589	0.0002279	0.00023827	1361.5	3.0199e-06	5.2343e-06	1354.4	370.36	5.7622e-06	3.5393e-06	422.62	141.15	122.52	42.695	3.8491e-06	52.919	0.00073287	0.00078543	0.00021425	1381.4	8.5256e-06	8.4346e-06	1374	377.62	8.3183e-06	8.4741e-06	431.51	144.89	126.38	43.832	8.4915e-06	54.179	124.562	-32.976	7.269	-79.944	28.149	15.951	-80.462	-75.827	12.073	68.550	-75.993	-72.186	-71.381	-66.770	81.171	-67.565	-8191	255	
21308.096	1	1	0	0	0.35939	0.23938	0.1649	0.027466	0.1657	0.23574	0.11681	0.17998	0.056591	0.0983	0.4054	0.02254	0.15023	0.18716	0.10003	0.14063	-2.2562	-2.1208	-1.925	-2.6667	-2.0583	-2.3438	-2.6708	-2.0354	-2.5479	-2.2167	-2.2083	-2.6167	-2.1646	-2.3604	-2.4542	-1.9604	92.592	-26.366	30.952	-62.220	120.221	-24.489	124.523	139.025	-84.386	206.922	-77.898	53.201	186.793	170.324	193.580	-58.539	0.00046539	0.00044031	0.00023689	1365.4	3.5812e-06	8.6931e-06	1352.8	369.98	2.6613e-06	4.8612e-06	425.73	141.32	122.33	42.675	7.2281e-06	52.656	0.00074794	0.00076882	0.00021915	1382.6	8.5851e-06	8.7143e-06	1374.7	377.49	8.5339e-06	8.6856e-06	432.59	144.91	126.21	43.835	8.5054e-06	54.085	119.773	-29.706	-9.230	-80.183	46.133	48.560	-80.357	-75.843	74.882	42.556	-76.279	-72.064	-71.774	-66.864	40.366	-67.666	-8191	255	
21308.191	1	1	0	0	0.12304	0.15631	0.29121	0.13033	0.23983	0.092507	0.016766	0.088185	0.19153	0.10363	0.12765	0.16112	0.10278	0.29725	0.072496	0.23738	-2.3438	-2.2792	-1.875	-2.9188	-2.0458	-2.2687	-2.8021	-2.0917	-2.4708	-2.3146	-2.1625	-2.7562	-2.1583	-2.3396	-2.7354	-1.9854	176.978	-30.413	166.178	221.752	61.850	55.042	16.075	246.224	93.481	141.851	-88.682	105.668	157.509	226.134	-29.282	15.302	0.00038694	0.00066188	0.0001188	1367.1	6.0281e-06	8.0732e-06	1351.3	370.24	5.4842e-06	6.0378e-06	425.45	141.52	122.86	42.806	3.7065e-06	52.5	0.00073858	0.00078592	0.00021098	1383	8.5203e-06	8.7493e-06	1374.7	377.5	8.3773e-06	8.6619e-06	432.63	145.22	126.49	43.81	8.4409e-06	54.093	131.725	0.239	-15.260	-80.225	54.392	48.132	-80.365	-75.661	41.657	64.577	-76.126	-71.855	-71.758	-66.684	23.655	-67.361	-8191	255	
21308.287	1	1	0	0	0.14913	0.25282	0.37253	0.098188	0.25992	0.17796	0.15819	0.25923	0.13788	0.12497	0.24932	0.065951	0.23421	0.080974	0.089597	0.14023	-2.1688	-2.4521	-1.9417	-2.9042	-2.3417	-2.15	-2.8792	-2.3229	-2.3854	-2.5125	-2.125	-2.7125	-2.3333	-2.1813	-2.6604	-2.1625	248.803	3.174	126.826	170.549	155.718	175.361	178.940	-32.496	179.417	-19.399	173.922	-68.566	226.285	185.675	76.616	168.917	0.00039647	0.00047846	0.00015045	1361.4	4.8206e-06	7.541e-06	1357.1	371.21	4.5579e-06	8.6048e-06	423.69	142.08	123.11	42.455	5.1893e-06	52.621	0.0007509	0.00077481	0.00022237	1381.7	8.6557e-06	8.7843e-06	1377.5	378.85	8.4903e-06	8.53e-06	431.51	145.35	126.71	43.765	8.5085e-06	54.18	126.631	10.370	5.239	-80.175	41.615	65.364	-80.345	-75.649	35.933	41.652	-76.269	-72.221	-71.824	-66.706	41.248	-67.668	-8191	255	
21308.408	1	1	0	0	0.09967	0.17842	0.13352	0.32977	0.42529	0.11052	0.15713	0.21672	0.10838	0.30346	0.34134	0.10541	0.20774	0.17793	0.21332	0.2564	-2.0125	-2.4104	-1.875	-2.6646	-2.3417	-2.1083	-2.8396	-2.1875	-2.2917	-2.8125	-2.1188	-2.8729	-2.5312	-1.9917	-2.6771	-2.3458	57.739	-34.907	149.435	218.265	40.494	51.258	153.546	209.732	136.928	59.730	256.340	-32.424	189.531	10.788	108.674	260.057	0.00044512	0.00049109	0.00022651	1362.2	6.3734e-06	6.0067e-06	1357.7	372.28	2.9358e-06	7.8196e-06	423.77	141.28	122.57	42.782	6.0952e-06	52.345	0.00075443	0.00078626	0.00022513	1382.3	8.5895e-06	8.5841e-06	1377.4	378.8	8.5557e-06	8.486e-06	432.03	145.05	126.38	43.838	8.3298e-06	54.088	119.522	-2.026	-25.146	-80.100	33.684	89.740	-80.392	-75.658	16.201	26.569	-76.049	-72.065	-71.391	-66.406	-8.405	-67.198	-8191	255	
21308.504	1	1	0	0	0.17895	0.12016	0.21024	0.14808	0.22773	0.1281	0.079713	0.29145	0.048465	0.138	0.16155	0.15144	0.1548	0.17198	0.14773	0.20538	-1.8229	-2.5292	-1.8021	-2.6667	-2.65	-1.875	-2.8063	-2.2125	-2.0667	-2.7104	-2.1167	-2.6083	-2.6104	-2.1583	-2.6479	-2.4667	177.771	127.999	116.511	208.752	223.784	125.137	243.865	140.716	19.941	79.336	245.081	130.923	64.980	203.719	53.837	216.232	0.00036394	0.00057019	0.00016287	1363	5.8093e-06	6.7853e-06	1353.7	372.56	6.8626e-06	7.7836e-06	424.46	141.97	123.09	42.627	8.9697e-06	52.78	0.00076335	0.0007846	0.00021778	1380.7	8.5829e-06	8.5583e-06	1375	378.55	8.659e-06	8.7333e-06	431.78	145.22	126.31	43.93	8.5229e-06	54.322	126.771	-7.264	-23.837	-80.184	35.767	30.634	-80.345	-75.717	29.954	72.767	-76.012	-71.738	-71.366	-66.594	59.832	-67.233	-8191	255	
#DATA ENDS
