BOXY.EXE: ISS Imagent and Oximeter Data Acquisition Program Version 0.80
Ascii Record File

#ACQ INFORMATION
2  Detector Channels 
16  External MUX Channels 
1  Auxiliary Channels 
5000  Waveform (CCF) Frequency (Hz)
1  Waveforms Skipped 
30  Waveforms Averaged 
1  Cycles Averaged 
16  Acquisitions per Waveform 
10.0806  Updata Rate (Hz) 

#FILE INFORMATION
TRUE -- External MUX Channel results are PARSED.
FALSE -- AC DC and Phase are NOT grouped.
TRUE -- Companion Program Settings File CREATED.
FALSE -- AC data not excluded
FALSE -- DC data not excluded
FALSE -- Phase data not excluded
FALSE -- Auxillary Chn. data not excluded
Tab delimiters

#CALIBRATION STATE
TRUE -- Waveform Calibration Values APPLIED.


#AUX CALIBRATION VALUES
Val Type	aux-1	

Term	1.0000e+00	
Factor	0.0000e+00	


#WF CALIBRATION VALUES
A = Detector Channel
Val Type	A-AC1	A-AC2	A-AC3	A-AC4	A-AC5	A-AC6	A-AC7	A-AC8	A-AC9	A-AC10	A-AC11	A-AC12	A-AC13	A-AC14	A-AC15	A-AC16	A-DC1	A-DC2	A-DC3	A-DC4	A-DC5	A-DC6	A-DC7	A-DC8	A-DC9	A-DC10	A-DC11	A-DC12	A-DC13	A-DC14	A-DC15	A-DC16	A-Ph1	A-Ph2	A-Ph3	A-Ph4	A-Ph5	A-Ph6	A-Ph7	A-Ph8	A-Ph9	A-Ph10	A-Ph11	A-Ph12	A-Ph13	A-Ph14	A-Ph15	A-Ph16	

Term	0.00000e+00	0.00000e+00	0.00000e+00	0.00000e+00	0.00000e+00	0.00000e+00	0.00000e+00	0.00000e+00	0.00000e+00	0.00000e+00	0.00000e+00	0.00000e+00	0.00000e+00	0.00000e+00	0.00000e+00	0.00000e+00	0.00000e+00	0.00000e+00	0.00000e+00	0.00000e+00	0.00000e+00	0.00000e+00	0.00000e+00	0.00000e+00	0.00000e+00	0.00000e+00	0.00000e+00	0.00000e+00	0.00000e+00	0.00000e+00	0.00000e+00	0.00000e+00	0.00000e+00	0.00000e+00	0.00000e+00	0.00000e+00	0.00000e+00	0.00000e+00	0.00000e+00	0.00000e+00	0.00000e+00	0.00000e+00	0.00000e+00	0.00000e+00	0.00000e+00	0.00000e+00	0.00000e+00	0.00000e+00	
Factor	1.00000e+00	1.00000e+00	1.00000e+00	1.00000e+00	1.00000e+00	1.00000e+00	1.00000e+00	1.00000e+00	1.00000e+00	1.00000e+00	1.00000e+00	1.00000e+00	1.00000e+00	1.00000e+00	1.00000e+00	1.00000e+00	1.00000e+00	1.00000e+00	1.00000e+00	1.00000e+00	1.00000e+00	1.00000e+00	1.00000e+00	1.00000e+00	1.00000e+00	1.00000e+00	1.00000e+00	1.00000e+00	1.00000e+00	1.00000e+00	1.00000e+00	1.00000e+00	X	X	X	X	X	X	X	X	X	X	X	X	X	X	X	X	

B = Detector Channel
Val Type	B-AC1	B-AC2	B-AC3	B-AC4	B-AC5	B-AC6	B-AC7	B-AC8	B-AC9	B-AC10	B-AC11	B-AC12	B-AC13	B-AC14	B-AC15	B-AC16	B-DC1	B-DC2	B-DC3	B-DC4	B-DC5	B-DC6	B-DC7	B-DC8	B-DC9	B-DC10	B-DC11	B-DC12	B-DC13	B-DC14	B-DC15	B-DC16	B-Ph1	B-Ph2	B-Ph3	B-Ph4	B-Ph5	B-Ph6	B-Ph7	B-Ph8	B-Ph9	B-Ph10	B-Ph11	B-Ph12	B-Ph13	B-Ph14	B-Ph15	B-Ph16	

Term	0.00000e+00	0.00000e+00	0.00000e+00	0.00000e+00	0.00000e+00	0.00000e+00	0.00000e+00	0.00000e+00	0.00000e+00	0.00000e+00	0.00000e+00	0.00000e+00	0.00000e+00	0.00000e+00	0.00000e+00	0.00000e+00	0.00000e+00	0.00000e+00	0.00000e+00	0.00000e+00	0.00000e+00	0.00000e+00	0.00000e+00	0.00000e+00	0.00000e+00	0.00000e+00	0.00000e+00	0.00000e+00	0.00000e+00	0.00000e+00	0.00000e+00	0.00000e+00	-2.55034e+02	-1.42192e+02	-1.58171e+02	-1.83275e+02	-9.83914e+01	-9.52191e+01	-1.58166e+02	-1.62015e+02	-1.11076e+02	-8.25393e+01	-1.72759e+02	-1.71492e+02	-1.85060e+02	-1.78311e+02	-8.15946e+01	-1.51161e+02	
Factor	6.84074e-05	1.16036e-04	3.77825e-05	1.75057e-01	1.19124e-06	1.02847e-06	2.01126e-01	6.52604e-02	1.39494e-06	1.20521e-06	1.15205e-01	3.44855e-02	6.48392e-02	1.06986e-02	1.09788e-06	1.56755e-02	7.61801e-07	7.68646e-07	2.13154e-07	8.53154e-02	8.43469e-09	8.40861e-09	9.13502e-02	3.13959e-02	8.44513e-09	8.40387e-09	5.21703e-02	1.57552e-02	2.79534e-02	5.07005e-03	8.41014e-09	7.10043e-03	X	X	X	X	X	X	X	X	X	X	X	X	X	X	X	X	



#DISTANCE SETTINGS
A = Detector Channel
A-1	A-2	A-3	A-4	A-5	A-6	A-7	A-8	A-9	A-10	A-11	A-12	A-13	A-14	A-15	A-16	

2.5000e+00	3.0000e+00	2.5000e+00	3.0000e+00	2.0000e+00	3.0000e+00	1.5000e+00	3.0000e+00	3.0000e+00	3.0000e+00	3.0000e+00	3.0000e+00	3.0000e+00	3.0000e+00	1.5000e+00	3.0000e+00	

B = Detector Channel
B-1	B-2	B-3	B-4	B-5	B-6	B-7	B-8	B-9	B-10	B-11	B-12	B-13	B-14	B-15	B-16	

1.0000e+01	1.0000e+01	1.0000e+01	1.4400e+00	1.0000e+01	1.0000e+01	1.5100e+00	1.9400e+00	1.0000e+01	1.0000e+01	1.9900e+00	2.4900e+00	2.4100e+00	2.9000e+00	1.0000e+01	2.9800e+00	




#DATA BEGINS
time	group	step	mark	flag	A-AC1	A-AC2	A-AC3	A-AC4	A-AC5	A-AC6	A-AC7	A-AC8	A-AC9	A-AC10	A-AC11	A-AC12	A-AC13	A-AC14	A-AC15	A-AC16	A-DC1	A-DC2	A-DC3	A-DC4	A-DC5	A-DC6	A-DC7	A-DC8	A-DC9	A-DC10	A-DC11	A-DC12	A-DC13	A-DC14	A-DC15	A-DC16	A-Ph1	A-Ph2	A-Ph3	A-Ph4	A-Ph5	A-Ph6	A-Ph7	A-Ph8	A-Ph9	A-Ph10	A-Ph11	A-Ph12	A-Ph13	A-Ph14	A-Ph15	A-Ph16	B-AC1	B-AC2	B-AC3	B-AC4	B-AC5	B-AC6	B-AC7	B-AC8	B-AC9	B-AC10	B-AC11	B-AC12	B-AC13	B-AC14	B-AC15	B-AC16	B-DC1	B-DC2	B-DC3	B-DC4	B-DC5	B-DC6	B-DC7	B-DC8	B-DC9	B-DC10	B-DC11	B-DC12	B-DC13	B-DC14	B-DC15	B-DC16	B-Ph1	B-Ph2	B-Ph3	B-Ph4	B-Ph5	B-Ph6	B-Ph7	B-Ph8	B-Ph9	B-Ph10	B-Ph11	B-Ph12	B-Ph13	B-Ph14	B-Ph15	B-Ph16	aux-1	digaux	

2027.116	1	1	0	512	0.13444	0.06906	0.17866	0.21229	0.23075	0.16724	0.2177	0.16405	0.23424	0.11004	0.16917	0.13778	0.078318	0.1118	0.13456	0.10438	-2.4042	-1.9917	-2.5062	-2.6063	-2.0604	-2.9771	-2.3708	-2.3667	-2.8312	-2.2146	-2.7083	-3.0187	-2.05	-2.9125	-2.3187	-2.3	330.431	109.387	191.912	361.215	413.249	403.700	386.140	358.425	375.747	243.250	414.067	437.399	239.145	444.776	226.665	114.685	0.002838	0.0029877	0.0008592	744.32	3.5235e-05	9.6451e-06	1027.1	266.05	7.007e-06	4.5504e-05	472.27	205.3	114.19	53.941	7.7926e-06	105.74	0.0024973	0.0027495	0.00080164	974.23	2.7997e-05	3.1486e-05	1269	347.35	2.8861e-05	3.2505e-05	607.5	237.75	185.19	67.024	3.3399e-05	117.43	409.226	188.414	229.545	102.983	160.056	167.963	103.092	109.271	293.925	230.977	108.205	111.851	114.222	117.595	252.686	115.738	-8191	255	
2027.235	1	1	0	0	0.14815	0.29903	0.22569	0.11966	0.028979	0.075381	0.11326	0.29343	0.10737	0.066833	0.082713	0.3251	0.20408	0.13802	0.14253	0.25214	-2.6396	-1.9896	-2.5417	-2.7604	-2.0062	-2.9625	-2.5583	-2.1646	-2.8979	-1.9417	-2.4833	-2.9521	-1.9958	-2.7604	-2.4979	-2.4125	377.050	177.381	405.468	130.495	331.495	272.216	397.556	99.879	376.909	205.364	241.670	439.428	242.238	132.836	162.759	360.136	0.0049675	0.0022563	0.00087765	747.92	2.71e-05	1.3933e-05	1026.4	264.85	4.498e-05	3.2034e-05	476.62	207.78	115.83	54.479	1.0579e-05	105.94	0.0027243	0.0031165	0.0008381	983.22	3.0009e-05	3.4119e-05	1273.4	345.8	3.0396e-05	3.4296e-05	606.59	236.34	190.08	67.409	3.2165e-05	115.48	396.368	141.081	247.775	102.965	185.089	328.921	102.993	109.027	209.673	190.263	107.380	111.209	112.987	117.505	182.672	115.118	-8191	255	
2027.331	1	1	0	0	0.060614	0.16424	0.060124	0.31925	0.11126	0.1177	0.15929	0.24491	0.10616	0.28161	0.16668	0.1183	0.29724	0.15317	0.23541	0.13804	-2.5229	-2.2562	-2.2979	-2.9604	-2.0938	-2.7792	-2.8708	-2.1729	-2.8	-2.2833	-2.3542	-2.9292	-1.9979	-2.6312	-2.6562	-2.1854	102.131	326.311	358.981	91.866	123.875	346.964	440.176	371.432	177.432	324.288	106.081	413.768	389.756	414.286	133.784	383.123	0.0034598	0.0012625	0.00046924	741.02	1.5496e-05	1.9807e-05	1028.9	264.68	2.5483e-05	6.8366e-06	472.26	208.82	117	54.045	2.1102e-05	105.91	0.002776	0.0030347	0.00078398	951.03	3.0133e-05	3.207e-05	1241.2	334.68	2.9993e-05	3.1709e-05	586.83	230.48	189.66	65.709	2.9806e-05	113.83	395.763	228.363	434.771	103.308	185.529	128.301	102.906	109.264	124.670	366.402	107.711	111.805	113.413	117.511	369.751	115.380	-8191	255	
2027.405	1	1	0	0	0.099441	0.25174	0.096397	0.10969	0.16224	0.092919	0.11221	0.15833	0.24117	0.19662	0.16566	0.19772	0.029582	0.28558	0.26127	0.41851	-2.4604	-2.1896	-2.2438	-2.8521	-2.0062	-2.6479	-2.8937	-2.1854	-2.5667	-2.6	-2.0625	-2.9896	-1.9	-2.5354	-2.725	-2.025	162.175	214.277	327.549	283.266	207.086	404.333	389.510	329.902	441.736	267.514	138.010	394.751	136.403	410.728	428.746	394.296	0.0046532	0.0013565	0.00085831	741.66	1.8915e-05	1.6659e-05	1022.4	266.38	4.9171e-05	1.6691e-05	473.57	208.51	117.07	53.953	4.4986e-06	106.45	0.0028103	0.002881	0.0007485	939.85	3.157e-05	3.1365e-05	1235.3	335.75	3.1783e-05	3.1326e-05	583.33	231.22	193.88	64.95	2.8325e-05	113.65	406.777	409.379	300.111	103.339	194.290	380.760	102.976	109.415	195.554	418.925	107.525	112.106	112.409	117.791	433.006	115.227	-8191	255	
2027.523	1	1	0	0	0.17537	0.34224	0.22927	0.16446	0.16461	0.17376	0.25122	0.16574	0.15286	0.24223	0.22008	0.37528	0.072972	0.27979	0.064417	0.3012	-2.175	-2.2604	-2.0833	-2.9167	-2.2	-2.4104	-2.8292	-1.9729	-2.8104	-2.4708	-2.2479	-3.0708	-2.2354	-2.3792	-2.9729	-2.1188	117.853	107.433	309.389	365.445	280.657	127.758	401.580	398.229	134.114	156.267	278.979	368.073	132.594	158.795	330.041	443.147	0.0044454	0.0024038	0.00072641	748.35	2.2013e-05	9.2778e-06	1024.8	266.86	2.145e-05	1.044e-05	471.82	208.1	116.28	53.707	1.787e-05	105.07	0.0028223	0.0027177	0.00069321	938.24	3.0815e-05	2.9134e-05	1205.7	335.69	3.106e-05	2.9845e-05	572.58	233.29	194.95	64.73	2.7886e-05	115.66	410.201	261.326	216.695	102.908	146.060	410.717	103.108	108.892	268.948	402.666	107.676	111.948	113.741	117.830	225.386	115.237	-8191	255	
2027.620	1	1	0	0	0.16241	0.28086	0.097041	0.29456	0.16915	0.14782	0.27294	0.084755	0.19176	0.305	0.26264	0.2502	0.20073	0.24527	0.24041	0.18121	-2.2708	-2.6708	-2.0521	-2.9062	-2.0979	-2.1542	-2.9042	-1.8542	-2.5354	-2.7458	-2.1146	-2.9854	-2.5583	-2.2854	-2.8417	-2.2562	226.581	128.757	156.837	433.027	260.879	374.672	299.524	428.579	141.526	417.093	409.393	372.621	135.365	407.290	136.612	378.013	0.0020983	0.0017541	0.00017963	746.01	1.5954e-05	4.3446e-06	1021.5	265.28	7.6497e-06	1.5582e-05	471.14	208.24	113.86	53.408	1.95e-05	106.19	0.0029106	0.0027951	0.00070261	977.37	3.2473e-05	3.0339e-05	1213.8	349.87	3.22e-05	3.0681e-05	576.17	238.91	197.04	64.836	2.8535e-05	117.77	409.659	226.020	306.948	103.419	419.887	146.106	103.060	109.317	409.977	395.482	106.898	111.428	112.940	117.743	258.869	115.025	-8191	255	
2027.716	1	1	0	0	0.088252	0.090078	0.13724	0.15765	0.36259	0.22759	0.27482	0.35693	0.2204	0.14238	0.19552	0.10597	0.029988	0.19784	0.1559	0.32061	-2.0479	-2.7042	-2.0208	-2.6729	-2.2708	-2.1396	-2.9375	-2.1021	-2.2854	-2.9	-2.0542	-2.7958	-2.6625	-2.1917	-3.1	-2.2646	137.298	335.527	343.910	228.725	240.156	118.896	389.728	406.098	359.185	284.028	425.805	429.979	273.894	424.324	157.628	353.812	0.0029191	0.001627	0.00070021	746.82	2.573e-05	1.0826e-05	1032.9	266.31	1.4635e-05	1.9367e-05	473.88	208.05	115.22	53.18	2.7443e-05	105.98	0.0028948	0.0027508	0.00071524	985.91	3.1329e-05	2.8694e-05	1212.7	350.23	3.0111e-05	2.7907e-05	572.51	236.89	187.11	62.857	2.7724e-05	117	431.983	138.628	111.313	103.255	351.677	314.835	103.172	108.667	419.163	114.018	107.420	111.686	112.761	117.963	203.779	115.771	-8191	255	
2027.812	1	1	0	0	0.1588	0.3904	0.12883	0.26748	0.245	0.12332	0.16505	0.13738	0.18565	0.19627	0.15022	0.25193	0.077698	0.024975	0.25129	0.35267	-1.8979	-2.7938	-1.9646	-3.0167	-2.5646	-1.9958	-2.925	-2.2146	-2.1375	-3.0479	-1.9979	-2.75	-2.5812	-2.0229	-2.7292	-2.4479	373.633	364.918	120.182	360.582	205.628	292.627	358.458	121.338	299.634	237.702	101.095	337.389	209.390	433.357	308.861	450.007	0.0032493	0.0024869	0.00078064	747.73	2.8315e-05	2.0607e-05	1034.7	265.61	1.2168e-05	1.9178e-05	478.03	208.51	113.86	54.505	3.4587e-05	107.02	0.0026685	0.0024822	0.0007162	970.26	2.9142e-05	2.6327e-05	1216.8	346.94	2.8513e-05	2.6355e-05	582.54	234.46	182.95	62.172	2.8569e-05	115.77	395.053	185.739	144.623	103.459	436.150	331.894	103.405	109.226	130.275	416.233	107.046	111.377	112.721	117.215	177.515	114.584	-8191	255	
2027.933	1	1	0	0	0.095047	0.015102	0.1346	0.24331	0.30041	0.13114	0.14151	0.18915	0.18053	0.15389	0.12239	0.024312	0.14669	0.25164	0.10724	0.23562	-1.8979	-2.725	-2.0146	-2.7708	-2.4354	-1.9292	-2.9292	-2.3542	-2.1604	-2.9417	-2.1667	-2.5354	-2.8458	-2.1354	-2.7313	-2.5229	138.875	109.964	180.683	416.742	358.464	174.794	91.126	320.672	397.072	210.210	147.403	244.948	374.427	441.944	144.821	380.969	0.0024702	0.00065955	0.00084254	745.81	2.5395e-05	9.0678e-06	1044.3	263.93	2.7741e-05	6.5061e-06	475.92	207.21	114.69	54.843	2.785e-05	106.39	0.0025269	0.002337	0.00073101	957.84	2.7665e-05	2.5305e-05	1221.9	339.24	2.6554e-05	2.5027e-05	579.05	228.64	174.24	61.764	2.8053e-05	113.66	415.388	125.442	109.069	102.814	331.560	211.351	103.104	108.473	395.931	211.045	106.646	111.125	112.743	116.809	235.193	115.073	-8191	255	
2028.029	1	1	0	0	0.42193	0.26573	0.056054	0.33419	0.10401	0.15518	0.18838	0.086875	0.085243	0.087954	0.23347	0.29727	0.21285	0.46065	0.22441	0.19497	-1.5542	-2.9021	-2.0563	-2.4521	-2.725	-1.9979	-2.7583	-2.5021	-2.1292	-2.8229	-2.4854	-2.225	-2.7271	-2.1146	-2.5375	-2.7792	386.582	444.748	215.709	385.515	227.544	387.601	387.158	300.668	282.909	445.234	390.065	370.928	224.208	135.809	352.507	436.128	0.0021927	0.00085313	0.00067525	763.79	1.9052e-05	3.1426e-05	1039.2	269.29	2.1304e-05	1.8403e-05	477.31	207.48	115.91	55.743	8.0423e-06	108.2	0.0022882	0.002282	0.00071362	938.59	2.4711e-05	2.4706e-05	1205.3	331.43	2.3495e-05	2.4269e-05	568.63	223.58	164.39	62.064	2.5535e-05	112.35	401.378	138.560	176.472	102.737	302.864	208.414	103.007	108.510	337.802	154.531	107.536	111.407	112.870	117.049	447.230	114.959	-8191	255	
2028.125	1	1	0	0	0.12423	0.025628	0.15785	0.2543	0.12806	0.21177	0.35302	0.26042	0.18339	0.12001	0.12973	0.11993	0.30076	0.23328	0.21334	0.050654	-1.6562	-2.7875	-2.2125	-2.1604	-2.9083	-2.0792	-2.5979	-2.6063	-1.7875	-2.8812	-2.375	-2.4958	-2.8542	-2.0812	-2.5563	-2.9083	415.133	155.385	288.976	398.775	93.275	418.109	304.480	396.620	217.172	105.108	350.842	155.165	183.345	351.965	296.888	131.993	0.0036463	0.0026298	0.00049072	755.5	4.5111e-06	1.7366e-05	1042.8	269.88	1.6193e-05	1.3397e-05	475.37	207.42	115.54	55.396	5.6898e-06	108.35	0.0020058	0.0021911	0.00064171	906.31	2.1783e-05	2.4031e-05	1174.9	322.64	2.1278e-05	2.4091e-05	557.49	220.49	160.48	62.606	2.4179e-05	111.84	393.706	112.490	180.154	102.582	251.209	206.677	102.440	109.163	175.982	191.803	107.347	112.143	113.556	117.548	300.918	115.232	-8191	255	
2028.219	1	1	0	0	0.16012	0.17855	0.20732	0.39028	0.084276	0.053347	0.12261	0.19081	0.30141	0.035108	0.12003	0.1644	0.16094	0.14919	0.16055	0.21872	-1.5396	-2.8	-2.2812	-2.1562	-2.9167	-2.2104	-2.5604	-2.8563	-2.1083	-2.8438	-2.6104	-1.9354	-2.8958	-2.2167	-2.3042	-2.7812	176.125	377.080	424.614	404.471	399.004	442.930	309.362	331.982	204.878	323.207	307.948	299.878	418.888	345.119	353.336	380.819	0.0033027	0.0019182	0.00019545	749.06	1.9451e-05	1.0358e-05	1025.8	267.71	1.0137e-05	6.5783e-06	472.82	206.31	117.44	56.254	7.0179e-06	108.41	0.00197	0.002259	0.00061833	895.62	2.1895e-05	2.4804e-05	1163	318.19	2.1749e-05	2.4633e-05	551.86	218.14	162.8	63.134	2.3103e-05	110.42	402.422	450.497	115.417	103.245	211.186	269.451	103.010	108.893	183.152	273.203	107.432	112.077	112.542	117.118	257.649	115.229	-8191	255	
2028.315	1	1	0	0	0.12031	0.25261	0.1616	0.22648	0.26994	0.2846	0.23953	0.14669	0.084164	0.21772	0.085619	0.19458	0.15643	0.22366	0.062456	0.11364	-1.5208	-2.4792	-2.3979	-2.2167	-2.8375	-2.2625	-2.4167	-2.8958	-2.025	-2.5938	-2.85	-2.1312	-2.8958	-2.3438	-2.1833	-3.2417	308.309	308.358	450.227	340.207	172.803	160.706	119.141	225.472	113.437	184.852	278.590	384.010	180.874	121.790	201.947	393.926	0.0042773	0.00078474	0.00021018	756.6	1.9894e-05	1.3037e-05	1037.7	272.06	1.7412e-05	8.5551e-06	479.75	208.66	117.53	56.744	5.4608e-06	110.99	0.0019915	0.0021678	0.0005731	870.57	2.143e-05	2.3093e-05	1138.3	310.03	2.1279e-05	2.2249e-05	537.14	213.63	159.98	62.17	2.068e-05	110.09	403.255	245.745	227.548	102.434	179.434	364.196	102.580	108.642	126.923	421.478	106.991	110.788	112.604	116.829	217.114	114.625	-8191	255	
2028.412	1	1	0	0	0.28327	0.070848	0.038251	0.17706	0.11243	0.062077	0.022963	0.061914	0.13739	0.078414	0.21519	0.28838	0.19302	0.23022	0.065217	0.33057	-1.4917	-2.5292	-2.6604	-2.2792	-2.6542	-2.3375	-2.0458	-3.0396	-1.9854	-2.5042	-2.5312	-2.1792	-2.6417	-2.4458	-1.8479	-2.9875	325.526	97.747	377.463	98.656	370.292	90.542	95.329	255.266	400.842	217.417	396.338	430.312	400.593	370.990	105.033	343.080	0.0044828	0.00050205	0.00031296	759.87	2.6055e-05	1.0716e-05	1032.4	272.37	2.1021e-05	5.1203e-06	477.51	210.7	120.04	56.835	1.9797e-05	111.96	0.0019568	0.001995	0.00052987	859.89	2.1873e-05	2.2187e-05	1130.9	309.81	2.2157e-05	2.168e-05	533.19	214.88	164.65	62.2	2.0253e-05	111.28	398.707	343.314	163.466	102.804	213.349	376.088	102.730	108.510	164.846	365.979	107.127	111.074	112.803	117.280	418.254	114.784	-8191	255	
2028.532	1	1	0	0	0.12114	0.089607	0.079646	0.21036	0.33752	0.12315	0.17528	0.29108	0.092989	0.15182	0.19022	0.43406	0.26303	0.19242	0.36508	0.19218	-1.6271	-2.3625	-2.9229	-2.0646	-2.6021	-2.3	-2.3833	-2.9104	-2.1396	-2.3333	-2.625	-2.0667	-2.5896	-2.5417	-2.0667	-2.9688	329.035	439.428	152.713	358.828	189.115	335.933	385.039	404.035	204.922	380.274	261.556	416.047	282.985	428.944	359.795	448.593	0.0034834	0.00051769	0.00052867	768.85	1.215e-05	1.4041e-05	1039.7	273.15	1.1417e-05	8.0847e-06	480.12	212.64	119.59	57.452	7.3481e-06	111.79	0.0020832	0.0019908	0.00052202	877.41	2.2957e-05	2.2208e-05	1130.9	315.21	2.347e-05	2.2118e-05	534.75	219.74	168.6	62.735	2.0256e-05	112.72	396.378	153.363	284.343	102.355	394.476	283.682	102.296	108.945	198.194	196.648	107.149	111.413	113.039	117.049	399.723	115.365	-8191	255	
2028.628	1	1	0	0	0.3162	0.004674	0.085378	0.09279	0.097199	0.10852	0.043651	0.31166	0.018319	0.24721	0.29646	0.21103	0.057469	0.22459	0.16344	0.25378	-1.9958	-2.1771	-2.6688	-2.175	-2.4896	-2.7667	-2.1375	-2.9354	-2.3208	-2.0833	-2.9083	-1.9854	-2.5812	-2.8167	-1.9958	-2.6063	346.052	188.591	341.356	106.398	282.348	286.894	388.902	332.070	92.713	351.961	108.978	417.771	235.621	99.592	198.189	448.663	0.0034699	0.00078335	0.0002752	756.08	1.3575e-05	8.1862e-06	1040.7	272.83	1.1945e-05	3.1794e-05	475.9	211.24	117.24	56.683	1.733e-05	111.27	0.0021623	0.0020352	0.00052561	899.92	2.3966e-05	2.2919e-05	1129.6	323.9	2.4301e-05	2.2536e-05	534.66	223.91	169.4	62.432	2.0641e-05	114.08	397.401	207.564	190.669	103.267	396.504	349.860	102.603	108.425	102.581	97.168	107.506	111.640	113.180	117.092	250.224	115.141	-8191	255	
2028.700	1	1	0	0	0.23654	0.11086	0.027425	0.051239	0.053059	0.3053	0.085244	0.38079	0.23458	0.20167	0.098682	0.48122	0.12077	0.16309	0.078327	0.17755	-2.1354	-2.0021	-2.9208	-2.25	-2.3292	-2.6042	-2.0354	-2.7854	-2.4479	-2.0312	-3.0167	-1.9813	-2.5312	-2.9146	-1.8312	-2.8187	443.215	350.595	177.564	260.622	367.668	152.667	402.009	439.970	237.154	239.159	357.058	386.769	133.894	353.520	281.151	360.642	0.0026929	0.001013	0.00046985	760.74	2.1538e-05	1.2816e-05	1034.3	272.6	1.4121e-05	5.4913e-06	481.84	209.5	120.21	56.47	2.7038e-05	111.19	0.0021858	0.0020335	0.00053575	912.22	2.3515e-05	2.2181e-05	1134.6	327.01	2.379e-05	2.1999e-05	541.97	226.37	170	62.292	2.2233e-05	115.53	411.648	421.151	430.151	102.576	190.341	394.409	102.714	108.847	342.275	431.458	107.214	111.519	113.175	117.489	228.768	115.004	-8191	255	
2028.796	1	1	0	0	0.10291	0.10512	0.085041	0.096023	0.061456	0.057764	0.13469	0.33721	0.08321	0.12879	0.072393	0.33287	0.10459	0.23219	0.13308	0.21438	-2.1625	-2.0187	-2.7854	-2.175	-2.3063	-2.8917	-2.0938	-2.4583	-2.6042	-1.7792	-3.1646	-2.4646	-2.2646	-2.6937	-2.0104	-2.6125	363.910	357.521	361.996	132.727	361.495	301.105	314.042	379.288	216.114	238.842	277.937	415.594	261.796	391.483	339.149	414.325	0.0029473	0.0001734	0.00062487	756.3	1.6066e-05	2.0391e-05	1039.7	272.58	1.5767e-05	6.0582e-06	482.55	208.33	115.84	57.167	2.5771e-05	112.19	0.0021753	0.0019871	0.00056924	917.08	2.3149e-05	2.1486e-05	1151.7	327.74	2.3308e-05	2.1026e-05	549.18	225.22	167.06	61.958	2.3509e-05	115.69	402.200	296.338	157.158	102.857	430.664	381.800	102.604	108.165	217.090	222.877	107.252	111.672	113.600	117.127	205.810	115.094	-8191	255	
2028.917	1	1	0	0	0.062064	0.24927	0.23332	0.090092	0.17283	0.04718	0.044632	0.154	0.19477	0.2235	0.10282	0.22768	0.011758	0.22574	0.23633	0.34759	-2.4229	-1.7771	-2.6063	-2.2708	-2.2646	-2.6833	-2.1625	-2.5229	-2.5042	-2.0208	-2.7958	-2.5729	-2.0646	-2.8292	-1.8854	-2.6854	292.506	168.529	448.453	267.181	443.646	421.548	343.711	353.911	359.210	338.258	401.453	421.158	150.472	429.460	298.695	414.957	0.0035825	0.00080591	0.0010016	757.48	8.4575e-06	1.9032e-05	1041.3	272.47	3.8368e-06	1.5428e-05	484.25	211.01	120.51	57.227	2.0081e-05	112.39	0.0021472	0.0019705	0.00061895	920.27	2.3786e-05	2.2187e-05	1185.9	332.5	2.4289e-05	2.254e-05	567.86	228.74	170.88	63.086	2.634e-05	116.64	398.131	176.600	122.993	102.752	343.172	259.604	102.710	108.865	172.012	232.731	107.549	111.109	113.570	117.129	217.706	114.804	-8191	255	
2029.013	1	1	0	0	0.12084	0.084744	0.19624	0.29506	0.26232	0.20752	0.1481	0.11251	0.33914	0.21431	0.055314	0.19525	0.10256	0.2333	0.13879	0.55364	-2.2708	-1.8083	-2.6771	-2.4229	-1.7729	-2.6958	-2.2333	-2.5521	-2.7646	-1.9833	-2.8708	-2.4875	-2.0604	-2.7729	-2.1896	-2.3187	358.604	374.806	131.185	438.911	281.115	212.847	395.447	162.210	132.458	274.477	422.547	393.144	399.094	98.369	441.474	363.659	0.0035713	0.0022113	0.00029012	754.17	1.9687e-05	3.2138e-05	1038.7	271.3	1.2598e-05	2.0682e-05	480.88	211.22	119.39	57.536	1.1025e-05	112.11	0.0022121	0.0021493	0.00068158	932.95	2.4388e-05	2.4556e-05	1210.8	335.32	2.5044e-05	2.5412e-05	582.04	230.82	171.57	64.903	2.79e-05	117.23	400.885	184.749	189.073	102.602	357.436	147.510	102.513	108.734	149.288	192.512	107.355	111.311	112.859	116.990	201.918	115.252	-8191	255	
2029.109	1	1	0	0	0.075263	0.1523	0.088088	0.0096448	0.34556	0.058977	0.24313	0.16523	0.29633	0.3508	0.27891	0.085113	0.16584	0.11508	0.24971	0.31192	-2.5062	-1.8854	-2.5167	-2.6979	-2.1042	-2.6625	-2.4271	-2.2292	-2.9229	-1.8937	-2.5938	-2.7188	-1.9625	-2.9188	-2.4271	-2.175	373.110	141.228	303.855	332.834	179.946	320.243	395.382	375.694	187.862	314.535	358.514	122.782	150.169	420.975	330.610	432.756	0.0039832	0.00051602	0.0006108	760.47	6.7895e-06	1.982e-05	1037.1	272.37	8.6448e-06	2.9363e-05	479.47	211.61	118.72	57.528	2.589e-06	112.49	0.0022103	0.0023649	0.00069496	935.32	2.3713e-05	2.6071e-05	1209.1	331.93	2.3546e-05	2.6322e-05	575.68	228.94	169.56	65.771	2.7525e-05	117.04	425.929	203.316	353.474	102.540	329.444	195.481	102.488	108.442	157.798	177.691	106.659	110.976	112.472	117.055	231.118	114.566	-8191	255	
2029.205	1	1	0	0	0.39112	0.17545	0.29583	0.19952	0.32662	0.27605	0.062248	0.18447	0.16642	0.048658	0.25713	0.32368	0.071898	0.074486	0.28959	0.11449	-2.4646	-1.9271	-2.5771	-2.6813	-2.0042	-2.7021	-2.5521	-2.1688	-3.0104	-2.0958	-2.2562	-2.925	-2.1333	-2.8646	-2.3271	-2.2313	163.195	228.697	96.239	163.014	435.564	111.287	384.837	349.521	249.069	380.384	433.024	396.230	430.684	406.093	128.064	334.059	0.0036491	0.0017519	0.0002748	756.37	1.7363e-05	1.7796e-05	1044.2	271.15	4.496e-05	2.2975e-05	482.63	210.73	119.39	57.273	1.4124e-05	111.87	0.0022129	0.0025262	0.00069053	930.51	2.4398e-05	2.797e-05	1211.6	331.81	2.5117e-05	2.8704e-05	580.76	229.54	176.5	67.067	2.858e-05	116.97	416.889	178.655	260.801	102.444	231.017	173.821	102.351	108.427	170.802	246.495	106.874	110.839	112.272	117.110	257.296	114.390	-8191	255	
2029.300	1	1	0	0	0.15851	0.14638	0.23322	0.28337	0.054025	0.17758	0.13383	0.40345	0.10781	0.13389	0.129	0.207	0.25351	0.086207	0.26748	0.26065	-2.3396	-2.25	-2.15	-2.7479	-1.9	-2.6208	-2.5854	-2.025	-2.9104	-2.1312	-2.5875	-2.9604	-2.0146	-2.6604	-2.6854	-2.1646	366.579	442.868	158.851	390.829	112.588	102.940	347.192	349.326	298.135	361.185	153.949	393.250	358.718	341.474	417.751	367.117	0.0046582	0.00063374	0.0004874	760.84	1.9082e-05	5.1644e-06	1040	270.36	9.1005e-06	1.3854e-05	479.8	209.58	118.11	56.657	1.0898e-05	110.36	0.0024629	0.0027488	0.00072029	935.79	2.719e-05	2.9614e-05	1214.4	331.44	2.7213e-05	2.9215e-05	573.35	225.16	179.62	65.824	2.6944e-05	114.09	397.652	226.949	343.416	102.324	163.709	99.200	101.868	107.990	141.659	203.565	106.890	111.074	112.087	116.951	178.596	114.711	-8191	255	
2029.396	1	1	0	0	0.22982	0.21166	0.24442	0.13542	0.17345	0.052862	0.324	0.033313	0.10582	0.15237	0.31868	0.32903	0.070429	0.24181	0.26225	0.086717	-2.4313	-2.2	-2.1437	-2.8854	-2.075	-2.5729	-2.8104	-2.0833	-2.825	-2.2521	-2.2313	-3.1292	-2.075	-2.6417	-2.8271	-2.2375	153.934	380.920	312.086	175.570	423.928	338.290	93.530	238.113	104.956	355.515	390.479	436.171	278.907	96.472	439.760	292.419	0.0055052	0.0021803	0.00057108	765.47	2.8508e-05	9.1961e-06	1044.9	270.96	1.8138e-05	1.7245e-05	477.97	206.93	117.74	56.405	1.8653e-05	109.22	0.0024913	0.0025949	0.00067792	923.37	2.795e-05	2.7965e-05	1202.3	326.3	2.8047e-05	2.8073e-05	565.89	222.54	182.77	65.226	2.6256e-05	113.96	406.298	228.648	338.795	102.441	220.362	190.922	102.689	108.452	154.258	212.883	106.997	111.384	113.566	116.970	374.649	114.461	-8191	255	
2029.494	1	1	0	0	0.21603	0.059785	0.20364	0.15143	0.016223	0.14322	0.070086	0.068023	0.20244	0.13	0.033807	0.073428	0.15367	0.14575	0.16108	0.17714	-2.7479	-2.4333	-1.95	-3.0458	-2.0396	-2.4396	-2.9333	-2.1396	-2.8604	-2.6188	-2.1562	-2.8979	-2.2292	-2.5167	-2.8833	-2.225	244.645	306.260	209.615	380.512	239.381	354.394	235.257	98.478	122.473	265.953	412.767	100.410	149.274	327.997	211.531	116.535	0.0026033	0.00034321	0.00036381	763.86	1.9559e-05	1.9017e-05	1043.2	269.67	4.7342e-06	4.9834e-06	474.65	206.25	114.9	55.606	1.0326e-05	109.86	0.0026271	0.0025971	0.00066319	939.33	2.9722e-05	2.8394e-05	1205.7	334.72	3.0161e-05	2.8887e-05	566.56	226.78	188.51	65.256	2.6541e-05	116.06	387.981	179.995	315.147	102.304	187.556	315.352	102.101	108.081	133.892	105.986	106.874	111.352	111.983	116.913	246.846	115.031	-8191	255	
2029.613	1	1	0	0	0.019165	0.16284	0.090825	0.067174	0.10972	0.073756	0.26579	0.081752	0.084522	0.03455	0.097758	0.19716	0.053238	0.22758	0.20073	0.28651	-2.3958	-2.5438	-2.1229	-2.8917	-2.1542	-2.0979	-3.2062	-2.1646	-2.6937	-2.7104	-2.0271	-3.0083	-2.4562	-2.2333	-2.9479	-2.1937	284.646	266.730	446.501	110.623	237.427	288.474	400.805	417.202	107.538	282.945	381.733	124.714	428.629	436.458	98.723	416.078	0.001905	0.00096632	0.00054322	765.09	8.5979e-06	1.9161e-05	1042.2	270.87	3.9673e-05	2.947e-05	473.77	204.61	113.04	54.993	1.8434e-05	106.96	0.0027289	0.0026127	0.00065691	957.98	3.0062e-05	2.8122e-05	1196.6	339.52	2.9415e-05	2.8021e-05	557.07	226.79	183.04	63.551	2.5177e-05	114.84	439.836	365.818	385.382	102.791	137.022	352.958	102.476	108.625	160.254	365.974	107.156	111.427	113.100	117.410	287.675	114.766	-8191	255	
2029.709	1	1	0	0	0.13509	0.22239	0.11968	0.19714	0.20116	0.077118	0.30677	0.077878	0.49889	0.16673	0.31503	0.23285	0.1663	0.068059	0.17233	0.30706	-2.2062	-2.7208	-1.9792	-2.9146	-2.2313	-2.1917	-2.9708	-2.0812	-2.3208	-2.7896	-2.0542	-2.9917	-2.2812	-2.1458	-2.7708	-2.2354	268.137	443.852	358.026	395.800	224.037	155.457	402.777	349.285	347.171	421.956	141.111	385.213	114.670	95.800	288.481	391.688	0.0026578	0.0013091	0.00024687	758.38	5.323e-07	1.9051e-05	1050.2	267.77	1.8469e-05	2.5458e-05	478.94	198.67	111.63	53.841	2.4514e-06	105.7	0.002573	0.0024526	0.00063201	956.64	2.8265e-05	2.6321e-05	1193.3	339.99	2.7974e-05	2.6571e-05	559.03	224.85	179.39	61.906	2.6062e-05	114.43	381.706	160.687	245.342	103.119	407.060	344.475	102.562	108.693	354.787	93.390	107.440	111.651	113.519	116.735	104.607	115.084	-8191	255	
2029.805	1	1	0	0	0.04703	0.041753	0.17487	0.241	0.13735	0.089653	0.14147	0.12577	0.26629	0.085638	0.062771	0.34392	0.14102	0.074058	0.14084	0.034792	-1.9792	-2.75	-2.0396	-2.8146	-2.5292	-2.0479	-3.0812	-2.075	-2.3604	-2.7458	-2.1458	-2.6042	-2.4667	-1.9583	-2.7854	-2.5604	405.633	251.321	244.042	389.095	413.198	360.925	91.541	98.166	342.166	219.117	93.990	443.924	327.268	381.574	343.542	177.910	0.0029597	0.0015436	0.00057066	761.78	3.4955e-06	5.6469e-06	1060.6	267.75	7.9653e-06	1.1028e-05	472.95	195.91	110.38	53.266	3.2125e-05	105.09	0.0025315	0.0023594	0.00065463	964.52	2.7158e-05	2.45e-05	1204.7	336.73	2.6136e-05	2.4177e-05	559.38	218.77	170.96	60.074	2.5837e-05	112.47	421.121	344.462	142.992	102.901	177.339	380.096	102.905	108.800	286.641	351.043	107.224	111.597	112.446	117.109	230.578	114.526	-8191	255	
2029.926	1	1	0	0	0.16349	0.22422	0.1358	0.033553	0.0073104	0.11776	0.14404	0.30087	0.098327	0.058315	0.11474	0.28961	0.095892	0.41117	0.15547	0.12449	-1.9167	-2.8083	-2.0854	-2.7042	-2.5521	-2.1167	-2.9	-2.3229	-2.075	-2.9708	-2.0917	-2.5563	-2.7604	-2.1979	-2.7104	-2.4771	408.869	337.022	345.871	231.138	287.935	309.345	369.012	275.896	324.937	359.029	167.606	104.731	323.806	415.452	408.838	430.616	0.0026203	0.00073599	0.0006391	767.39	6.6365e-06	6.9803e-06	1063.9	267.12	2.4888e-05	1.0338e-05	475.5	195.63	108.41	53.486	1.471e-05	105.27	0.0023508	0.0021685	0.00066675	947.44	2.5383e-05	2.3066e-05	1207	329.59	2.4257e-05	2.2555e-05	557.96	213.35	161.44	58.84	2.4933e-05	110.25	415.819	421.519	411.874	102.671	368.746	191.338	102.391	108.096	321.516	91.266	107.048	111.283	112.404	116.288	145.404	114.768	-8191	255	
2029.997	1	1	0	0	0.12549	0.02873	0.18493	0.15192	0.19472	0.1409	0.053135	0.14471	0.080162	0.16904	0.14194	0.095293	0.23709	0.07189	0.25143	0.23559	-1.8771	-2.6125	-2.2792	-2.5333	-3.0542	-1.9854	-2.8042	-2.5917	-1.9604	-2.8688	-2.1437	-2.2958	-2.8667	-1.975	-2.5604	-2.625	222.046	248.216	308.282	267.299	328.666	96.867	387.652	326.454	379.955	417.855	395.216	250.746	119.784	105.045	203.255	341.784	0.0021675	0.0025177	0.00071743	765.31	1.6014e-05	1.8164e-05	1057.2	269.13	1.439e-05	1.9128e-05	466.88	192.49	106.55	52.903	7.2736e-06	105.51	0.0020789	0.0020127	0.00063574	917.64	2.2717e-05	2.2025e-05	1195.3	321.66	2.1981e-05	2.2124e-05	550.32	207.54	153.57	58.516	2.3615e-05	108.1	383.137	129.195	91.536	102.140	282.307	439.413	102.561	108.589	381.458	180.318	106.536	111.676	112.454	117.248	288.119	114.602	-8191	255	
2030.093	1	1	0	0	0.22403	0.12905	0.27539	0.10139	0.0071586	0.08147	0.20711	0.069318	0.23769	0.044761	0.025533	0.045848	0.16756	0.20033	0.10038	0.10435	-1.6042	-2.8042	-2.0667	-2.2271	-2.9688	-1.9229	-2.6396	-2.5792	-2.0542	-2.7958	-2.2812	-2.0792	-2.975	-2	-2.5125	-2.6708	211.132	92.155	142.298	245.161	172.614	418.121	94.597	443.449	153.436	377.903	286.332	378.745	391.273	109.239	154.255	440.028	0.0024842	0.0034414	0.00069443	763.31	1.3083e-05	2.1715e-05	1048.6	266.86	1.3635e-05	3.0725e-05	467.26	192.3	108.18	53.625	1.3525e-05	106.5	0.0018593	0.0019621	0.00058729	894.58	2.026e-05	2.1882e-05	1172.3	314.07	2.027e-05	2.2478e-05	542.96	205.36	151.15	59.865	2.333e-05	109	410.599	114.326	201.003	102.332	343.554	179.802	101.803	108.072	405.771	199.031	106.394	110.712	112.231	116.588	269.565	114.044	-8191	255	
2030.214	1	1	0	0	0.34137	0.31904	0.12136	0.083741	0.2511	0.18066	0.08671	0.23105	0.11348	0.17655	0.076905	0.075443	0.25405	0.4416	0.063793	0.082269	-1.4354	-2.7687	-2.1646	-2.3563	-2.8771	-1.9604	-2.5208	-2.7354	-1.9583	-2.8396	-2.4104	-2.2521	-2.6479	-2.2438	-2.2417	-3.0771	105.529	413.472	131.170	352.866	256.887	181.160	358.237	409.841	285.600	103.581	408.524	137.200	118.244	102.208	422.737	439.330	0.0029411	0.0015204	0.00060595	764.19	1.1751e-05	2.29e-05	1054.3	268.07	1.0939e-05	4.8745e-06	468.1	191.03	108.47	53.808	1.5059e-05	106.83	0.0018701	0.0021168	0.00059161	896.12	2.0495e-05	2.3395e-05	1170.5	312.82	2.0387e-05	2.3335e-05	536.1	202.29	150.6	60.226	2.2051e-05	107.88	398.424	439.468	294.793	102.339	209.276	215.473	101.995	108.397	200.778	269.185	106.062	111.090	112.499	116.981	402.250	114.340	-8191	255	
2030.308	1	1	0	0	0.25187	0.19888	0.12853	0.32362	0.29737	0.29298	0.20653	0.15092	0.10315	0.22621	0.12389	0.17217	0.085919	0.038173	0.15017	0.41159	-1.4875	-2.8417	-2.4688	-2.2354	-2.7875	-2.1375	-2.3542	-2.8438	-1.8813	-2.6229	-2.7042	-1.9958	-2.8833	-2.3104	-2.2667	-2.9208	372.844	311.045	128.181	450.045	92.861	207.626	110.556	307.129	298.852	197.286	113.297	428.784	362.935	386.054	123.792	129.777	0.0047992	0.0023417	0.00036203	768.62	1.9365e-05	1.3976e-05	1057.6	265.92	4.425e-05	6.4809e-06	468.59	192.36	108.33	53.399	1.1666e-05	106.29	0.0018838	0.0021009	0.0005589	880.88	2.0665e-05	2.2805e-05	1158.6	304.77	2.0469e-05	2.2284e-05	526.22	199.68	150.52	59.216	2.0774e-05	106.09	402.196	173.034	434.653	102.644	216.869	219.508	102.546	108.670	183.558	396.798	106.528	111.820	112.855	116.970	381.790	114.607	-8191	255	
2030.405	1	1	0	0	0.082161	0.12544	0.12023	0.20544	0.063541	0.071927	0.28404	0.20073	0.19659	0.1211	0.2343	0.047518	0.10112	0.072456	0.31818	0.27759	-1.4104	-2.6417	-2.6646	-1.9396	-2.8646	-2.2313	-2.2833	-2.7667	-1.9625	-2.5667	-2.6937	-2.1521	-2.6667	-2.4562	-1.9729	-3.05	441.821	103.000	244.144	318.731	374.895	125.598	308.361	397.353	109.166	251.022	107.897	223.704	381.278	415.356	182.717	413.534	0.0043815	0.0012904	0.0002363	763.67	1.1941e-05	7.3572e-06	1056.1	265.95	4.8037e-06	1.4244e-05	461.44	189.12	106.39	52.386	8.4848e-06	105.6	0.0019322	0.0020024	0.00053216	867.34	2.1179e-05	2.1692e-05	1143.7	300.52	2.1075e-05	2.1014e-05	515.67	195.78	151.03	57.897	1.9466e-05	105.03	393.230	249.748	310.346	102.682	280.965	350.254	102.540	108.358	444.494	140.610	107.349	111.736	114.012	117.314	358.882	115.211	-8191	255	
2030.501	1	1	0	0	0.061706	0.22028	0.14119	0.14365	0.082125	0.07358	0.15582	0.029674	0.13191	0.18867	0.11737	0.045624	0.069073	0.21252	0.19582	0.21945	-1.5958	-2.3812	-2.8417	-1.8188	-2.7521	-2.2188	-2.0625	-2.925	-1.8125	-2.3792	-2.9375	-2.125	-2.6792	-2.7	-2.1583	-2.9	402.809	154.673	382.198	101.101	333.672	248.153	423.024	96.537	392.455	281.749	396.447	396.260	303.507	98.728	298.712	388.506	0.0040806	0.00043416	0.00045462	765.04	1.4177e-05	1.3884e-05	1055.2	263.49	2.0687e-05	1.1233e-05	461.53	189.16	104.79	52.236	7.4164e-06	104.87	0.0019438	0.0018984	0.00049943	864.04	2.1603e-05	2.0991e-05	1133.4	300.9	2.1757e-05	2.0653e-05	511.36	197.77	152.42	57.442	1.9264e-05	105.83	393.790	158.742	320.315	102.685	156.777	153.660	102.740	109.000	172.801	134.958	107.108	111.655	113.671	117.485	112.586	115.077	-8191	255	
2030.597	1	1	0	0	0.0661	0.0164	0.26561	0.092528	0.093357	0.13999	0.42444	0.19331	0.13904	0.008724	0.045351	0.32224	0.13046	0.21303	0.11121	0.080735	-1.6792	-2.375	-2.8729	-2.0875	-2.6333	-2.5875	-2.15	-2.9062	-2.0792	-2.1583	-2.7979	-2.0104	-2.6104	-2.6937	-2.0771	-2.9521	181.344	165.237	357.687	121.757	339.225	325.837	359.523	107.040	412.397	272.930	373.031	103.917	123.343	126.645	160.595	410.084	0.0023558	0.0012739	0.00065119	764.25	1.2433e-05	1.0046e-05	1057.1	261.8	2.8968e-05	9.0688e-06	459.45	188.65	104.2	51.361	1.5178e-05	102.64	0.0020624	0.0019486	0.00050484	885.76	2.2806e-05	2.1928e-05	1142.6	309.16	2.3209e-05	2.1852e-05	513.96	202.12	155.94	57.401	2.0017e-05	106.22	404.629	166.590	234.459	102.865	172.746	214.419	102.994	109.193	280.671	327.152	107.280	111.610	113.315	117.105	288.593	115.208	-8191	255	
2030.693	1	1	0	0	0.30985	0.16545	0.25795	0.22498	0.15735	0.17101	0.31129	0.14945	0.12677	0.15765	0.1163	0.23377	0.069581	0.10751	0.044209	0.0057112	-1.9688	-2.0979	-2.8937	-2.1188	-2.5729	-2.7083	-2.2333	-2.6771	-2.2896	-2.2292	-2.9583	-2.0875	-2.4479	-2.9167	-1.9125	-3.0125	104.523	447.286	294.831	420.090	170.528	178.973	340.287	442.046	181.182	417.330	341.971	444.820	207.640	290.259	445.663	209.088	0.003171	0.00088479	0.00036415	763.78	2.2935e-05	2.7966e-05	1067.9	263.64	7.1762e-07	1.0066e-05	459.79	188.39	105.09	50.33	2.5546e-05	100.55	0.0021372	0.0020069	0.00052536	912.98	2.3563e-05	2.2411e-05	1159.1	317.27	2.4057e-05	2.2277e-05	520.4	206.64	159.46	57.135	2.1914e-05	106.75	411.641	356.424	206.676	102.771	348.356	350.517	102.926	108.665	299.963	373.600	106.766	111.431	113.093	116.929	181.261	114.616	-8191	255	
2030.789	1	1	0	0	0.1166	0.19279	0.13859	0.15864	0.26972	0.22595	0.31691	0.2491	0.06141	0.026204	0.054304	0.31207	0.11575	0.2927	0.19704	0.19966	-2.025	-2.0708	-2.8792	-2.0083	-2.4688	-2.7729	-1.9	-2.8917	-2.5125	-2.0104	-2.9958	-2.2896	-2.2458	-3.0687	-1.8479	-2.6979	420.988	366.675	236.040	93.287	291.049	171.411	305.260	354.870	398.680	264.663	108.781	119.705	340.290	445.620	257.926	364.096	0.0036306	0.00069696	0.00061455	764.91	1.2125e-05	1.6664e-05	1061.6	260.55	1.2497e-05	2.7739e-05	457.12	188.05	105.57	50.739	3.5244e-05	101.26	0.0021998	0.0020194	0.0005641	927.97	2.3871e-05	2.2357e-05	1176.4	321.13	2.4476e-05	2.228e-05	530.63	208.8	160.79	57.065	2.4269e-05	107.75	396.820	127.494	161.662	101.924	446.472	311.514	101.855	107.944	259.066	435.748	105.984	111.029	111.839	116.116	202.217	114.183	-8191	255	
2030.885	1	1	0	0	0.085675	0.149	0.061038	0.059432	0.23803	0.38021	0.35001	0.25651	0.11788	0.091094	0.19071	0.20077	0.25363	0.11469	0.1567	0.095215	-2.2458	-1.8312	-2.95	-2.2625	-2.0354	-2.9229	-2.2146	-2.6063	-2.7083	-1.9479	-2.9	-2.1813	-2.1292	-3.0125	-2.1125	-2.7771	427.224	246.608	437.819	447.229	298.851	393.299	389.070	369.989	400.238	404.067	181.481	129.488	112.743	373.221	255.815	430.324	0.0030839	0.00035634	0.00035736	765.35	4.9908e-06	9.6345e-06	1067.1	257.8	8.6248e-06	2.7422e-06	457.59	189.89	104.21	50.695	2.0736e-05	101.19	0.0022686	0.0020507	0.00063194	941.27	2.4587e-05	2.2724e-05	1206.1	322.76	2.4792e-05	2.2644e-05	545.18	210.56	161.12	57.446	2.6675e-05	108.24	416.528	197.078	224.725	102.260	372.194	384.531	101.655	108.460	329.512	269.870	106.651	110.721	111.732	116.530	194.136	114.632	-8191	255	
2031.006	1	1	0	0	0.13096	0.21147	0.1655	0.19465	0.034448	0.18986	0.204	0.18884	0.22594	0.28398	0.064823	0.17428	0.097132	0.26213	0.016251	0.36257	-2.3458	-2.0583	-2.7313	-2.4104	-2.1146	-2.8917	-2.2583	-2.4729	-2.8	-1.9729	-2.8854	-2.7083	-2.0083	-2.8688	-1.9979	-2.5125	189.994	332.561	390.463	91.616	398.890	433.783	104.716	380.293	205.850	300.825	102.128	446.937	194.113	122.838	276.999	325.796	0.0025485	0.00031326	4.4883e-05	762.27	2.4426e-05	1.6745e-05	1064.2	256.43	3.3923e-05	1.8195e-05	455.1	192.35	105.29	50.681	2.2059e-05	100.8	0.0023253	0.0022191	0.0007103	952.74	2.5988e-05	2.5594e-05	1252.7	329.02	2.6744e-05	2.6364e-05	572.62	219.32	170.57	60.053	3.1372e-05	110.76	435.948	202.015	394.153	102.575	326.669	256.111	102.251	108.157	336.019	183.653	106.537	110.809	112.290	116.592	234.993	114.884	-8191	255	
2031.102	1	1	0	0	0.28389	0.33506	0.20304	0.1703	0.084396	0.23569	0.18756	0.28889	0.15108	0.271	0.23332	0.25297	0.22845	0.14619	0.059819	0.18737	-2.3833	-1.9271	-2.6958	-2.7042	-1.9229	-2.8688	-2.3125	-2.2667	-2.9646	-1.8062	-2.6542	-2.8333	-1.9708	-2.8958	-2.2188	-2.3854	236.066	102.913	100.241	393.115	314.446	290.245	371.962	419.007	331.304	375.363	447.340	421.075	97.131	111.291	239.916	388.017	0.0023734	0.0028042	0.00033917	759.53	1.3326e-05	2.9067e-05	1063.4	255.84	1.1259e-05	1.4765e-05	453.4	193.94	107.77	50.581	1.3792e-05	100.41	0.002557	0.0026795	0.00081609	986.68	2.8305e-05	3.0449e-05	1293.9	338.86	2.8631e-05	3.1086e-05	585.87	224.05	175.05	62.185	3.2839e-05	110.85	429.653	113.749	247.185	101.996	305.113	188.660	102.014	108.068	261.619	165.631	106.875	110.919	112.456	116.968	449.226	114.819	-8191	255	
2031.196	1	1	0	0	0.058903	0.072021	0.25194	0.22148	0.13558	0.14839	0.19946	0.10498	0.22852	0.14917	0.10017	0.18506	0.20674	0.38502	0.094021	0.085502	-2.5812	-2.0146	-2.3333	-2.8083	-1.8604	-2.7917	-2.5896	-2.2146	-2.7708	-1.9646	-2.6854	-2.7792	-1.9521	-2.9271	-2.3875	-2.0229	309.887	417.010	256.181	439.923	357.401	162.188	355.855	372.447	172.560	270.612	432.780	323.819	93.415	437.193	447.353	341.190	0.0034213	0.0025858	0.00070784	755.92	2.2597e-05	2.5941e-05	1062.2	256.23	2.5316e-05	2.3963e-05	449.44	191.5	107.67	50.078	3.2324e-05	99.857	0.002612	0.0029526	0.00082656	985.22	2.8582e-05	3.2638e-05	1283	335.74	2.89e-05	3.3051e-05	581.4	221.04	176.27	62.525	3.1269e-05	108.81	396.571	119.225	248.705	102.664	193.146	147.978	102.297	108.042	193.193	217.979	106.778	110.856	112.081	116.948	376.946	114.640	-8191	255	
2031.294	1	1	0	0	0.1579	0.16515	0.14673	0.052542	0.13329	0.33564	0.41462	0.12351	0.21514	0.09875	0.097797	0.23081	0.30259	0.11507	0.21173	0.13213	-2.3812	-2.1292	-2.5146	-2.7208	-2.0375	-2.8083	-2.5146	-2.3583	-2.8438	-2.1396	-2.4896	-2.8937	-2.15	-2.8917	-2.6542	-1.8771	270.645	444.331	311.860	440.059	132.046	238.679	329.806	402.913	135.437	259.278	215.876	378.676	414.711	204.252	375.025	364.855	0.0025464	0.001555	0.00051652	763.57	4.7919e-05	9.8015e-06	1049	257.55	2.9989e-05	1.3457e-05	452.41	191.66	106.64	50.093	3.7693e-06	99.127	0.002568	0.0029156	0.00075899	954.53	2.7998e-05	3.1135e-05	1244.8	324.08	2.8654e-05	3.1833e-05	566.56	215.73	179.74	62.146	3.0257e-05	107.75	416.202	400.031	212.271	102.617	205.605	166.823	102.245	108.494	175.345	312.912	107.257	111.210	112.703	116.803	350.724	114.387	-8191	255	
2031.389	1	1	0	0	0.058948	0.10479	0.099032	0.20942	0.30007	0.18529	0.2208	0.23963	0.27128	0.20974	0.24816	0.16465	0.014598	0.053854	0.2144	0.29986	-2.5812	-2.1583	-2.4667	-3.1083	-2.2042	-2.4437	-2.825	-2.0312	-2.9833	-2.2313	-2.2438	-2.8521	-2.075	-2.6896	-2.775	-2.1083	295.096	101.661	384.209	354.139	410.196	365.499	442.765	329.507	439.110	416.954	390.295	395.872	402.427	212.934	400.728	126.363	0.0039641	0.00019627	0.00078	755.67	1.8061e-05	4.5712e-06	1053.1	255.63	3.3155e-06	2.3751e-05	447.7	190.67	108.11	49.31	1.2376e-05	99.279	0.002721	0.0028875	0.00073909	940.13	2.9281e-05	2.9996e-05	1231.6	317.25	2.9183e-05	2.9748e-05	552.31	212.67	181.55	61.043	2.9358e-05	107.57	388.344	449.812	95.457	102.582	247.201	133.707	102.534	108.861	204.070	402.047	107.175	111.681	113.087	117.769	421.099	114.691	-8191	255	
2031.485	1	1	0	0	0.052303	0.18699	0.1995	0.31739	0.068953	0.11282	0.14266	0.29537	0.21612	0.3018	0.25594	0.16972	0.21938	0.30829	0.15049	0.43265	-2.2479	-2.425	-2.0979	-2.9188	-1.9688	-2.3937	-2.8146	-2.0333	-2.6437	-2.5	-2.0229	-2.8146	-2.1542	-2.4292	-2.8229	-2	126.848	251.475	308.293	394.433	221.199	99.734	398.550	412.836	431.501	309.989	106.954	415.465	377.444	307.550	185.395	310.209	0.0039061	0.0010757	0.00032284	763.3	2.5576e-05	2.6498e-05	1060.4	250.62	1.6328e-05	2.3634e-05	450.46	198.2	109.83	49.957	2.2093e-05	100.01	0.0029525	0.0029703	0.00077085	971.97	3.4044e-05	3.2872e-05	1270	330.78	3.4398e-05	3.3187e-05	570.01	226.72	199.68	63.108	3.1333e-05	111.74	405.797	253.741	396.021	102.710	181.783	313.904	102.607	108.605	189.067	397.276	107.170	111.453	112.575	116.668	374.081	114.538	-8191	255	
2031.606	1	1	0	0	0.11422	0.17122	0.11275	0.10611	0.083919	0.017742	0.18107	0.14978	0.1267	0.33415	0.204	0.16035	0.18176	0.056505	0.078435	0.1642	-2.3479	-2.4292	-2.0479	-3.0187	-2.1042	-2.3646	-2.8229	-2.0958	-2.6271	-2.5292	-2.2958	-2.8312	-2.3375	-2.1937	-2.6729	-2.3625	246.147	148.241	195.044	144.876	125.753	113.525	419.462	445.658	343.042	120.291	374.156	136.710	129.895	153.895	360.332	92.628	0.0027111	0.00085846	0.00027712	775.58	1.0576e-05	1.6667e-05	1072.7	254.73	2.2121e-05	2.4738e-05	447.18	195.07	106.57	50.249	1.3434e-06	99.743	0.0032937	0.0031765	0.0008104	1028.6	3.7612e-05	3.5148e-05	1290.4	349.42	3.6818e-05	3.4275e-05	567.66	228.87	194.23	61.559	2.8046e-05	110.6	427.618	447.696	312.203	101.923	128.206	363.255	102.424	108.025	161.047	388.905	106.641	111.276	113.168	116.849	230.248	114.938	-8191	255	
2031.702	1	1	0	0	0.23431	0.18366	0.10684	0.20704	0.13666	0.09428	0.068532	0.048004	0.15251	0.23271	0.095433	0.20045	0.26539	0.014542	0.16853	0.21271	-1.9167	-2.6667	-1.7958	-2.7917	-2.4333	-2.2167	-2.9938	-2.1042	-2.5208	-2.7875	-2.1	-2.9729	-2.3354	-2.2021	-2.8917	-2.1708	179.601	175.322	249.566	435.142	98.186	276.319	234.968	274.173	381.312	123.997	143.530	446.272	95.624	102.357	218.975	413.716	0.0032498	0.00094255	0.00043038	776.16	6.2204e-06	8.1567e-06	1065.6	258.86	3.081e-06	1.1048e-05	453.68	188.36	103.78	49.931	1.3482e-05	100.79	0.0028197	0.0026291	0.00066084	976.81	2.9625e-05	2.7149e-05	1206.1	331.04	2.8224e-05	2.6421e-05	535.84	213.04	170.14	57.779	2.3461e-05	107.92	408.394	418.512	137.531	102.411	151.515	409.986	102.231	108.302	198.805	314.265	106.701	111.745	112.605	117.743	239.781	115.171	-8191	255	
2031.798	1	1	0	0	0.10042	0.19902	0.27389	0.10884	0.10969	0.19347	0.14065	0.16072	0.16205	0.16653	0.22308	0.17808	0.17456	0.17333	0.14525	0.15169	-2.0708	-2.7167	-1.8125	-2.7583	-2.4458	-2.3187	-2.9813	-2.2354	-2.2021	-2.8104	-2.1354	-2.8646	-2.45	-2.1437	-2.7542	-2.5208	92.600	96.455	227.036	339.302	434.319	226.793	374.232	221.742	114.005	379.246	418.459	204.510	127.832	126.724	90.639	383.528	0.0024276	0.00052522	0.000547	779.02	1.2057e-05	9.2501e-06	1071.1	267.16	1.15e-05	1.9258e-05	468.8	190.77	107.99	51.616	5.7876e-06	103.42	0.0022322	0.002045	0.00054766	926.27	2.2408e-05	2.0172e-05	1152.2	314.97	2.0881e-05	1.9215e-05	517.83	203.72	150.59	55.767	1.9983e-05	106.01	416.300	290.234	160.329	102.231	103.713	242.493	101.844	107.780	294.880	339.907	106.384	111.388	112.018	117.347	181.205	114.492	-8191	255	
2031.894	1	1	0	0	0.21938	0.34544	0.18229	0.054624	0.24364	0.22845	0.064874	0.1787	0.14079	0.24965	0.23161	0.022016	0.17486	0.24576	0.28818	0.17332	-1.9229	-2.7729	-2.0458	-2.6167	-2.5771	-1.9375	-3.025	-2.5979	-2.2271	-3.0292	-2.2562	-2.7125	-2.5812	-2.225	-2.8479	-2.4833	288.559	327.315	295.774	185.542	343.714	416.660	137.458	445.249	107.166	420.353	410.514	445.113	412.268	359.814	119.212	430.259	0.0028287	0.00019776	0.00070455	771.5	3.7656e-06	1.0857e-05	1060.2	270.83	1.8915e-05	1.0936e-05	471.51	193.76	109.84	52.55	2.3564e-05	103.18	0.0018302	0.0016745	0.00050401	892.92	1.9661e-05	1.7639e-05	1140.8	311.18	1.9286e-05	1.7865e-05	523.37	203.82	149.57	56.193	2.0981e-05	106.37	389.797	264.212	113.187	102.292	434.895	381.329	102.529	108.107	224.920	247.550	106.914	111.519	112.459	117.320	234.929	114.724	-8191	255	
2031.990	1	1	0	0	0.10393	0.038817	0.30291	0.13867	0.16903	0.06377	0.20165	0.18073	0.023384	0.12221	0.21098	0.08077	0.069422	0.069524	0.083218	0.099529	-1.7417	-2.875	-2.1167	-2.7667	-2.6208	-1.9833	-3.125	-2.3937	-1.9542	-2.9729	-2.2396	-2.6354	-2.7854	-2.0208	-2.7458	-2.6521	333.761	233.721	227.673	99.548	217.732	237.984	185.083	111.799	109.306	208.615	127.912	282.007	369.880	363.972	390.360	388.350	0.0023351	0.0024885	0.00043851	775.31	1.5437e-05	2.3472e-05	1058.9	266.89	1.9833e-05	2.5951e-05	470.19	194.72	109.34	52.838	6.1576e-06	104.95	0.0017993	0.0017057	0.00054494	895.24	1.9697e-05	1.8688e-05	1157.5	311.26	1.8948e-05	1.8628e-05	529.27	203.14	145.72	56.597	2.0984e-05	105.83	433.680	92.063	443.093	102.299	358.874	228.679	102.398	108.220	387.806	144.595	106.994	111.201	112.853	117.486	409.823	114.648	-8191	255	
2032.086	1	1	0	0	0.22493	0.11517	0.087865	0.21253	0.22639	0.27095	0.13312	0.21426	0.17596	0.17428	0.084945	0.20969	0.26113	0.20174	0.088665	0.10404	-1.6063	-2.8646	-1.9292	-2.4667	-2.9771	-1.825	-2.8208	-2.6813	-1.8521	-2.8083	-2.2354	-2.4583	-2.7979	-2.1417	-2.5375	-3	360.759	192.148	213.224	142.612	387.014	146.087	98.432	335.575	346.018	298.823	243.437	400.108	139.393	425.000	331.069	424.543	0.0023927	0.0021458	0.00053985	766.94	4.0142e-06	1.2382e-05	1055.7	269.63	1.1544e-05	2.984e-05	471.7	192.96	107.96	52.277	2.5987e-06	104.57	0.0016921	0.0017557	0.00054434	883.03	1.8758e-05	1.9831e-05	1156	310.32	1.8613e-05	2.0261e-05	534.72	203.51	146.41	57.794	2.22e-05	106.68	424.069	157.026	195.353	102.386	387.045	285.373	102.491	108.451	187.710	193.969	107.387	111.698	112.871	117.704	214.544	115.211	-8191	255	
2032.182	1	1	0	0	0.15524	0.096492	0.054589	0.12474	0.14586	0.095953	0.091597	0.12572	0.11946	0.06202	0.20018	0.30439	0.046644	0.12218	0.24495	0.13544	-1.5333	-3	-2.4	-2.1604	-3.0792	-1.9646	-2.7646	-2.6333	-2.0271	-2.6729	-2.5125	-2.2938	-3.0229	-2.2958	-2.45	-3.0271	386.774	221.813	431.020	419.638	214.061	314.768	110.726	191.363	364.612	329.243	447.859	428.675	280.540	110.209	191.847	370.683	0.0031937	0.0006869	0.00075521	769.71	4.6012e-06	1.6615e-05	1041.3	265.28	4.8573e-06	1.4085e-05	461.7	195.11	108.82	52.06	9.2009e-06	103.53	0.0017932	0.0020468	0.00059187	899.84	2.0712e-05	2.3836e-05	1182	318.32	2.1754e-05	2.526e-05	550.14	210.5	158.4	60.402	2.4608e-05	107.92	412.185	136.923	170.371	102.673	193.471	165.720	102.419	108.745	122.267	249.671	107.183	111.706	113.213	117.480	91.701	115.449	-8191	255	
2032.301	1	1	0	0	0.16354	0.26356	0.2055	0.40486	0.28233	0.21428	0.10327	0.24479	0.22981	0.15513	0.095841	0.14999	0.2397	0.25824	0.11153	0.37294	-1.5542	-2.6937	-2.5292	-2.1562	-2.9437	-2.45	-2.4396	-2.9833	-2.1021	-2.7396	-2.5979	-2.1646	-2.8708	-2.3292	-2.1542	-2.8667	175.337	375.210	370.931	369.374	249.966	351.075	437.322	405.797	379.181	332.188	309.152	320.585	348.538	428.560	416.883	426.657	0.00476	0.0017127	0.00076943	763.78	1.4925e-05	3.0633e-06	1033.6	262.97	6.7723e-06	9.3074e-06	461.87	194.79	109.19	52.038	3.8795e-06	104.12	0.0020309	0.0023181	0.00062082	903.75	2.2433e-05	2.5537e-05	1176.2	314.79	2.2873e-05	2.5581e-05	544.37	208.27	162.25	60.71	2.3859e-05	107.44	406.949	169.627	240.674	102.384	197.686	210.631	102.806	108.958	370.696	97.078	107.636	111.794	113.003	117.950	227.012	115.376	-8191	255	
2032.397	1	1	0	0	0.21493	0.24604	0.13149	0.16739	0.16106	0.25921	0.32456	0.15964	0.22894	0.14871	0.15417	0.090781	0.0075142	0.38873	0.056271	0.13491	-1.775	-2.5458	-2.5563	-2.0583	-2.7917	-2.45	-2.3688	-2.8542	-2.1396	-2.7	-2.6354	-1.9792	-2.9	-2.5438	-2.1667	-2.9125	108.701	212.240	159.902	370.702	392.445	389.972	351.268	277.584	99.679	211.820	126.077	219.511	361.347	425.013	333.211	300.896	0.0036914	0.0012245	0.00043653	754.52	3.8165e-05	8.7403e-06	1033.3	265.78	2.0533e-05	1.7104e-05	462.87	196.29	110.92	53.069	5.0652e-06	105.75	0.0021295	0.0022638	0.00058696	883.1	2.2734e-05	2.3907e-05	1150.6	307.42	2.2351e-05	2.2783e-05	528.08	204.39	160.13	59.533	2.1085e-05	106.49	385.253	247.598	242.471	102.716	223.986	274.161	103.289	109.127	161.697	304.232	107.376	112.158	113.786	117.718	401.428	115.454	-8191	255	
2032.469	1	1	0	0	0.1775	0.33763	0.3559	0.2756	0.31789	0.11814	0.41734	0.039242	0.31118	0.21944	0.25377	0.2135	0.20411	0.091456	0.20841	0.098882	-1.6271	-2.4604	-2.7438	-1.975	-2.6417	-2.4167	-2.1625	-2.9458	-1.9896	-2.5958	-2.8042	-2.2438	-2.7208	-2.6208	-2.0979	-3.1562	446.497	216.326	246.828	399.810	193.282	318.072	410.979	371.742	97.620	320.719	421.981	357.450	171.874	399.352	389.808	120.870	0.004451	0.001054	0.00033161	755.61	2.3552e-05	2.8626e-06	1046.2	269.58	1.4908e-05	8.1916e-06	470.64	198.15	111.99	53.582	7.5988e-06	107.5	0.002083	0.0020309	0.00053097	865.55	2.23e-05	2.1548e-05	1127.3	303.87	2.1405e-05	1.9925e-05	513.31	202.52	153.85	57.889	1.7708e-05	106.23	393.492	378.610	179.770	103.183	211.275	445.615	102.659	108.953	129.344	319.048	107.405	111.853	113.092	117.197	260.799	114.993	-8191	255	
2032.565	1	1	0	0	0.092601	0.042039	0.30555	0.24602	0.35462	0.18797	0.15247	0.19623	0.1769	0.12019	0.22812	0.090817	0.1379	0.20553	0.23262	0.24098	-1.7521	-2.4708	-2.6354	-2.1375	-2.775	-2.4271	-2.1292	-3.1229	-1.9292	-2.4917	-2.8021	-2.0583	-2.6063	-2.7229	-2.1542	-3.1188	226.978	191.339	360.807	93.766	228.964	384.362	327.531	447.507	356.289	446.244	384.674	391.661	172.214	99.549	289.132	429.776	0.0038599	0.0010169	0.00028173	759.47	3.1423e-06	1.2183e-05	1028	270.04	7.9867e-06	9.8197e-06	466.79	197.89	112.73	53.376	1.0789e-05	106.57	0.0018961	0.0017773	0.00046512	865.09	2.1425e-05	2.0481e-05	1112.5	310.18	2.2057e-05	2.0205e-05	512.42	207.65	156.46	57.995	1.7677e-05	107.12	406.917	224.945	328.695	102.896	125.424	171.832	103.242	109.302	178.745	398.899	107.810	112.136	112.703	117.635	294.331	114.894	-8191	255	
2032.686	1	1	0	0	0.05837	0.14541	0.091799	0.15704	0.26918	0.16091	0.13222	0.17488	0.32362	0.2201	0.19456	0.079191	0.14831	0.27219	0.13806	0.16396	-1.9062	-2.2958	-2.8292	-2.0938	-2.6792	-2.7188	-2.0438	-3.0146	-2.1792	-2.3771	-2.9896	-2.2479	-2.4813	-2.8729	-1.9917	-2.8563	159.142	229.801	384.810	290.715	263.422	383.193	296.172	418.645	182.405	145.959	389.350	323.187	210.213	413.377	205.809	387.466	0.0029866	0.00019352	0.00070582	758.41	1.0851e-05	1.0388e-05	1030.4	268.13	1.0713e-05	1.1867e-05	465.57	198.49	112.76	53.643	1.4428e-05	105.83	0.0018843	0.001726	0.00044356	870.83	2.0088e-05	1.9059e-05	1096.4	310.46	2.0694e-05	1.9089e-05	510.2	210.22	155.99	58.189	1.8505e-05	108.81	406.278	102.034	170.569	103.385	191.659	337.939	103.284	109.279	305.600	395.651	107.432	111.896	113.605	118.014	243.383	115.766	-8191	255	
2032.782	1	1	0	0	0.23368	0.086574	0.14375	0.38551	0.12269	0.21478	0.14006	0.26028	0.18631	0.31586	0.31076	0.22016	0.196	0.20807	0.19049	0.14666	-2.0312	-2.1083	-2.8208	-2.1854	-2.5271	-2.825	-2.1083	-2.7958	-2.5542	-2.1625	-3.0458	-2.275	-2.4708	-2.8354	-2.1104	-2.7042	174.363	195.366	150.349	301.234	219.450	259.709	136.655	390.909	423.856	389.883	318.470	435.093	361.944	431.543	309.699	385.985	0.0010601	0.0014664	0.00075464	765.17	7.2993e-06	4.8208e-07	1040.2	271.11	1.1515e-05	6.6125e-06	472.04	202.38	114.97	55.121	2.6217e-05	108.75	0.0019141	0.0017344	0.00047756	889.67	2.0049e-05	1.8517e-05	1108.2	312.34	1.9588e-05	1.7721e-05	511.07	211.14	151.82	58.052	1.8806e-05	109.99	384.069	268.918	164.369	102.972	437.342	233.214	102.921	108.460	265.054	133.355	107.074	111.352	113.229	117.400	210.864	114.765	-8191	255	
2032.878	1	1	0	0	0.42703	0.16815	0.097387	0.13694	0.15648	0.13025	0.075599	0.13747	0.18749	0.22479	0.2336	0.25075	0.17121	0.086259	0.16613	0.20013	-2.125	-2.1042	-2.8229	-2.3208	-2.1229	-2.9688	-2.1146	-2.7521	-2.5854	-2.2458	-2.9437	-2.5271	-2.2667	-2.9688	-1.9375	-2.7917	127.581	307.013	242.702	310.575	358.592	425.180	136.533	346.118	94.421	445.461	93.223	104.699	240.774	451.254	281.080	356.750	0.0028674	0.0012063	0.00049861	778.33	8.8879e-06	5.1138e-06	1032.7	270.11	1.2003e-05	1.4262e-05	471.73	203.89	116.31	56.051	1.164e-05	109.74	0.0018077	0.0016409	0.00050096	898.73	1.984e-05	1.8284e-05	1125.9	314.12	1.9531e-05	1.734e-05	519.13	211.15	148.92	58.04	1.9101e-05	109.05	409.261	251.109	144.057	102.996	393.774	407.353	102.929	109.378	175.845	332.607	107.441	111.331	112.954	117.366	164.316	115.052	-8191	255	
2032.974	1	1	0	0	0.27068	0.27444	0.36697	0.1148	0.045428	0.14061	0.24488	0.25137	0.14872	0.13154	0.12427	0.25882	0.15137	0.26049	0.15538	0.098316	-2.1896	-2.1167	-2.95	-2.4604	-2.2687	-2.8354	-2.3958	-2.5563	-2.975	-1.9042	-2.925	-2.7104	-2.0292	-2.9875	-2.0917	-2.6813	180.498	139.339	221.300	427.981	326.960	161.578	131.846	400.587	307.849	223.738	354.308	349.056	294.952	154.588	272.073	387.000	0.0028193	0.0011877	0.00041596	767.16	1.6336e-05	1.1621e-05	1035.9	272.79	1.0536e-06	2.2773e-05	471.64	202.67	117.06	56.033	4.1042e-06	109.9	0.0016338	0.0014901	0.00047915	869.39	1.7246e-05	1.6577e-05	1112.3	305.66	1.7439e-05	1.6644e-05	519.61	208.11	145.68	58.225	1.9083e-05	108.29	404.157	174.129	140.845	102.244	277.491	137.838	102.546	108.758	408.876	196.419	107.120	111.313	113.260	117.075	190.788	114.964	-8191	255	
2033.095	1	1	0	0	0.12084	0.22308	0.16539	0.20135	0.077697	0.03036	0.14903	0.19072	0.15478	0.24944	0.08833	0.22474	0.10894	0.17603	0.27309	0.43234	-2.5021	-1.8583	-2.7042	-2.6188	-1.9271	-2.7562	-2.3854	-2.3708	-2.7667	-1.8	-2.8542	-2.6729	-1.8979	-3.0896	-1.9583	-2.4104	386.755	350.719	153.877	429.116	412.807	334.755	189.785	355.918	222.377	129.424	176.971	436.178	264.190	248.425	175.708	358.966	0.0038309	0.0036341	0.00060909	765.92	9.7095e-06	8.3138e-06	1039	273.01	1.361e-05	2.1718e-05	472.92	205.12	118.93	56.781	9.5122e-06	112.06	0.0015199	0.0015258	0.00046979	852.39	1.5812e-05	1.6711e-05	1108.8	301.79	1.6156e-05	1.7327e-05	515.1	208.28	144.46	59.743	1.9543e-05	109.87	393.011	137.078	163.219	102.341	341.313	242.847	102.336	108.402	370.551	218.576	106.636	110.999	112.213	116.660	396.811	114.413	-8191	255	
2033.167	1	1	0	0	0.11	0.23952	0.12896	0.057558	0.063573	0.21852	0.33249	0.18621	0.036111	0.1321	0.073383	0.15562	0.33726	0.093431	0.075585	0.054336	-2.4458	-1.9479	-2.5271	-2.8104	-1.9333	-2.9104	-2.6729	-2.2583	-2.9208	-1.9896	-2.6458	-3.0187	-1.9667	-2.9562	-2.3667	-2.4833	149.394	322.828	234.674	219.047	211.182	360.130	291.209	433.957	258.513	152.108	324.543	339.486	103.613	345.930	351.057	389.624	0.0026097	0.0009203	0.00028701	770.24	8.64e-06	1.2386e-05	1043.3	275.27	2.166e-05	1.3997e-05	477.03	205.56	117.96	57.345	8.5362e-06	112.38	0.0015307	0.0017159	0.00048626	861.39	1.6413e-05	1.8572e-05	1112.5	303.04	1.5901e-05	1.8075e-05	512.55	206.3	140.94	59.893	1.7289e-05	108.61	410.481	109.010	241.704	101.766	346.542	212.577	101.498	108.034	169.297	246.770	106.516	110.837	112.362	116.492	406.800	114.419	-8191	255	
2033.287	1	1	0	0	0.16035	0.26813	0.26346	0.2155	0.03733	0.26577	0.27504	0.1326	0.068532	0.092748	0.26496	0.13193	0.18801	0.25437	0.070384	0.14385	-2.3417	-2.0042	-2.4396	-2.9729	-2.0604	-2.9042	-2.5604	-2.2042	-2.9938	-2.2354	-2.4958	-3.0708	-2.0938	-2.7958	-2.7917	-2.1875	258.360	103.835	390.858	412.587	144.587	250.154	357.037	303.787	376.731	379.501	341.920	425.832	343.761	106.073	283.811	125.055	0.0037741	0.0026613	0.00026871	757.27	2.8762e-05	8.229e-06	1038.3	278.02	2.0921e-05	2.6628e-05	480.39	206.73	119.34	57.396	7.1117e-06	112.2	0.0014244	0.0016245	0.00043145	830.56	1.5709e-05	1.8002e-05	1092.7	300.08	1.6086e-05	1.8119e-05	508.84	205.16	143.01	59.816	1.6341e-05	108.03	414.332	108.763	266.569	101.874	163.770	298.644	101.977	108.470	200.749	205.257	106.829	110.797	111.767	116.751	198.063	114.378	-8191	255	
2033.382	1	1	0	0	0.092668	0.25606	0.09427	0.085803	0.27424	0.15356	0.18876	0.06262	0.18673	0.16191	0.367	0.26373	0.23663	0.1362	0.017544	0.2446	-2.6229	-2.2729	-2.3771	-2.9	-2.1188	-2.6688	-2.7396	-1.8708	-3.1042	-2.2708	-2.3187	-3.0292	-2.1083	-2.8146	-2.7562	-2.2604	411.822	316.893	245.025	401.811	212.285	112.479	388.551	260.629	126.197	324.609	418.033	369.723	401.361	362.957	191.868	91.849	0.0042992	0.00073315	0.00043313	768.32	1.0265e-05	8.2462e-06	1047.9	279.43	1.8955e-05	2.9028e-06	481.35	208.04	118.63	57.934	7.7335e-06	113.4	0.0014652	0.0016072	0.00041685	830.62	1.6962e-05	1.8214e-05	1102.3	301.88	1.8349e-05	1.9401e-05	518.78	208.14	154.24	61.127	1.8195e-05	109.8	398.708	292.303	255.439	102.444	167.099	339.613	102.117	108.169	185.155	445.475	106.673	111.041	112.263	117.142	240.824	114.504	-8191	255	
2033.478	1	1	0	0	0.017799	0.22615	0.067725	0.08458	0.026412	0.14628	0.16905	0.09904	0.21363	0.10928	0.19824	0.027849	0.022501	0.22439	0.2758	0.095767	-2.4437	-2.3771	-2.125	-2.9	-2.1375	-2.4708	-2.8708	-2.2354	-2.8688	-2.3979	-2.1167	-2.9958	-2.3438	-2.4542	-2.9042	-2.1229	181.205	123.683	217.229	403.454	446.813	433.905	392.700	206.394	417.965	179.349	336.988	384.025	152.022	364.528	290.926	370.258	0.0036315	0.0012147	0.00021013	771.14	2.4899e-05	5.4308e-06	1041.9	280.52	1.4001e-05	1.5589e-05	484.48	209.41	119.3	58.006	1.6993e-05	114.49	0.0017304	0.0017292	0.00043276	840.71	1.8366e-05	1.7774e-05	1096.3	301.2	1.828e-05	1.7801e-05	511.24	208.45	154.3	60.787	1.6776e-05	110.88	389.526	437.600	344.736	102.299	235.844	105.135	102.101	108.515	208.425	422.082	106.955	111.438	112.297	117.210	254.960	114.770	-8191	255	
2033.574	1	1	0	0	0.13064	0.064353	0.13215	0.14343	0.065188	0.17895	0.10982	0.10309	0.20967	0.19827	0.13619	0.048912	0.12283	0.26356	0.11286	0.11197	-2.3354	-2.4375	-2.2042	-2.9562	-2.2083	-2.3083	-2.9208	-1.9688	-2.5417	-2.6896	-2.3167	-3.1375	-2.3063	-2.5208	-2.825	-2.3021	92.884	264.671	100.770	437.962	397.173	144.863	255.370	391.513	129.815	91.524	116.967	358.282	357.495	445.532	191.474	103.922	0.0039555	0.0006889	0.00025162	772.79	1.7318e-05	1.6532e-05	1045.9	282.39	1.7528e-05	1.18e-05	486.56	211.77	120.68	58.862	1.133e-05	115.02	0.0017453	0.0016535	0.00041632	849.92	1.8883e-05	1.7264e-05	1088.3	305.6	1.778e-05	1.6533e-05	502.14	209.96	150.29	60.388	1.4767e-05	111.29	387.579	322.775	320.713	102.338	176.545	387.600	102.181	108.054	427.552	346.997	106.778	111.014	113.196	117.218	286.162	114.858	-8191	255	
2033.695	1	1	0	0	0.27222	0.32914	0.19326	0.12211	0.16883	0.049664	0.19205	0.098936	0.11229	0.17225	0.095335	0.18889	0.33818	0.39432	0.23298	0.45726	-2.2875	-2.7229	-2.0792	-2.9896	-2.3896	-2.2625	-3.1792	-2.2396	-2.6958	-2.7313	-2.3125	-3.0417	-2.4188	-2.2542	-2.9958	-2.1354	350.381	395.280	374.095	139.416	189.994	239.210	376.994	181.956	354.055	361.159	379.886	295.894	404.040	405.102	363.161	447.490	0.003194	0.0012193	0.00040022	777.06	1.5771e-05	3.1464e-06	1043.9	282.51	9.3561e-06	9.1985e-06	483.21	210.71	122.37	58.842	1.5739e-05	114.76	0.0015776	0.001488	0.00037495	851.69	1.7543e-05	1.6231e-05	1075	308.97	1.7241e-05	1.6298e-05	500.58	211.64	150.24	60.071	1.5004e-05	111.75	409.119	401.909	121.879	102.827	111.396	284.194	102.108	108.523	184.924	349.427	106.642	111.304	112.357	117.204	212.283	114.116	-8191	255	
2033.766	1	1	0	0	0.076196	0.16143	0.16856	0.16357	0.3155	0.19251	0.29268	0.20129	0.27862	0.2081	0.1308	0.13973	0.19086	0.083311	0.10522	0.053264	-2.2521	-2.5833	-2.0312	-2.7792	-2.5229	-2.1521	-2.9833	-2.0646	-2.5396	-2.9688	-2.0167	-2.9479	-2.3958	-2.0542	-2.8979	-2.2646	319.737	186.059	339.750	377.092	142.984	274.675	407.090	347.435	414.854	392.493	420.052	388.074	232.858	436.649	249.603	90.675	0.0031596	0.0010066	0.00033937	773.39	1.6308e-05	4.5567e-06	1038.8	283.66	4.9838e-06	5.127e-06	481.57	209.85	121.98	58.77	8.6839e-06	115.13	0.001535	0.0014322	0.00038135	853.84	1.6818e-05	1.5298e-05	1075	311.21	1.6556e-05	1.5561e-05	504	212.34	148.59	59.753	1.5848e-05	112.49	404.333	222.292	202.772	102.219	292.369	436.836	102.260	108.521	303.005	372.901	106.757	111.356	112.452	117.106	226.987	114.585	-8191	255	
2033.862	1	1	0	0	0.1045	0.06942	0.18286	0.25921	0.23287	0.1511	0.16234	0.15915	0.32043	0.197	0.16273	0.19602	0.072085	0.34369	0.032586	0.17792	-1.9188	-2.7542	-1.9875	-2.6458	-2.5521	-2.1208	-2.9854	-2.4125	-2.3625	-2.9333	-2.0542	-2.7313	-2.7354	-2.2167	-2.8771	-2.5625	178.712	402.504	217.458	139.805	244.767	187.465	406.268	190.175	285.612	141.125	393.210	403.315	407.971	409.436	283.890	435.878	0.0031623	0.0015031	0.00048735	771.92	1.0577e-05	1.0274e-05	1038.3	281.64	7.1334e-06	7.5672e-06	482.62	212.01	121.62	59.513	2.1227e-05	117.12	0.0014879	0.0013708	0.00040288	851.61	1.6155e-05	1.4362e-05	1080.7	306.37	1.5438e-05	1.4197e-05	504.74	211.05	144.6	59.79	1.6069e-05	112.59	402.072	330.294	101.967	102.265	143.573	441.521	102.026	108.109	273.525	293.189	106.958	110.487	112.729	116.769	201.708	113.990	-8191	255	
2033.983	1	1	0	0	0.12575	0.25397	0.086257	0.15677	0.17314	0.080728	0.1482	0.14711	0.019797	0.23417	0.16295	0.236	0.10625	0.22247	0.073207	0.26252	-1.7271	-2.5958	-2.0667	-2.6417	-2.9	-2.025	-3.0208	-2.5833	-2.0438	-2.9313	-2.1708	-2.4646	-2.9854	-2.0396	-2.7938	-2.5917	214.071	291.193	421.954	440.566	418.616	295.062	424.702	159.329	307.118	369.826	269.023	254.904	101.213	429.472	355.395	385.651	0.0026184	0.00123	0.00033355	771.9	9.362e-06	1.4619e-05	1036.8	279.75	1.7523e-06	1.7655e-05	481.9	210.2	122.36	59.473	2.4339e-06	115.12	0.0014128	0.0013156	0.00041981	842.41	1.5527e-05	1.4522e-05	1090.9	304.84	1.5112e-05	1.4635e-05	510.55	209.26	144.06	59.84	1.7154e-05	111.46	423.546	138.483	437.476	101.675	352.073	232.613	102.071	108.364	243.415	237.810	106.464	110.708	111.914	116.617	127.650	114.029	-8191	255	
2034.079	1	1	0	0	0.082635	0.27401	0.25205	0.1846	0.15202	0.11462	0.22875	0.34116	0.10689	0.19039	0.14221	0.29473	0.011497	0.18556	0.032879	0.26411	-1.7854	-2.8583	-2.2896	-2.3833	-2.9188	-2.1396	-2.6667	-2.6646	-2.1375	-3.0958	-2.3354	-2.4229	-2.7354	-2.0896	-2.6896	-2.775	103.870	313.899	366.078	108.113	104.742	246.624	218.154	235.978	208.653	121.599	112.992	433.750	144.826	143.431	404.757	399.085	0.0026552	0.0010863	0.0003383	769.42	5.471e-06	7.7552e-06	1037.1	280.16	7.3972e-06	2.4677e-05	478.13	208.37	120.8	58.752	4.2736e-06	114.41	0.0013942	0.0014192	0.00044902	844.55	1.5548e-05	1.5964e-05	1099.2	307.29	1.5368e-05	1.6542e-05	515.25	209.16	144.16	60.525	1.7738e-05	110.86	412.565	210.385	447.553	101.630	447.717	268.985	102.205	108.116	322.574	232.480	106.798	110.952	112.024	117.000	169.208	114.294	-8191	255	
2034.174	1	1	0	0	0.098897	0.090559	0.23962	0.034932	0.12474	0.095737	0.32881	0.11385	0.24017	0.16219	0.19818	0.24104	0.26909	0.27166	0.16193	0.22386	-1.6125	-2.9083	-2.3854	-2.3354	-2.9021	-2.1396	-2.7542	-2.6625	-2.0333	-2.7583	-2.6271	-2.4542	-2.9333	-2.175	-2.5583	-2.9021	167.504	396.845	154.859	275.334	348.368	363.221	395.165	162.425	358.134	91.013	298.125	416.407	379.188	370.353	221.637	384.925	0.0026062	0.0019484	0.00011086	765.02	5.5644e-06	2.0999e-05	1030.6	278.83	1.9113e-05	1.7688e-05	479.19	209.22	121.37	59.112	4.9813e-06	114.26	0.0013925	0.0015631	0.00045661	843.26	1.561e-05	1.7707e-05	1098.6	306.99	1.5804e-05	1.8436e-05	520.14	210.52	147.25	62.069	1.8607e-05	111.98	395.645	154.134	393.051	102.162	224.662	218.302	102.129	108.331	175.109	225.520	106.865	111.054	112.644	117.188	310.081	114.308	-8191	255	
2034.270	1	1	0	0	0.30144	0.043076	0.1723	0.11459	0.18731	0.23452	0.34908	0.26718	0.13246	0.031999	0.25524	0.42206	0.28151	0.070805	0.17057	0.26236	-1.675	-2.8854	-2.5479	-2.1583	-2.9458	-2.2271	-2.6146	-2.8354	-1.9417	-2.7021	-2.6021	-2.1708	-2.925	-2.2208	-2.4688	-2.9437	93.364	120.579	396.480	447.666	193.538	198.757	362.293	96.884	237.356	100.338	98.664	128.686	116.187	333.348	167.633	400.322	0.0035162	0.00072488	0.00015021	767.72	1.7925e-05	7.284e-06	1042.1	280.29	3.7916e-05	1.8311e-05	477.82	211.24	121.95	58.834	7.9908e-06	115.21	0.0015308	0.0017624	0.00047893	848.77	1.707e-05	1.9705e-05	1109.1	307.73	1.7313e-05	1.9673e-05	520.44	211.22	150.78	62.467	1.8246e-05	112.02	398.893	221.229	405.694	102.492	216.433	136.208	101.757	108.226	183.268	251.375	106.112	110.346	111.518	116.308	333.263	113.772	-8191	255	
2034.368	1	1	0	0	0.16932	0.25706	0.1218	0.1981	0.10293	0.026441	0.070436	0.15948	0.44517	0.20902	0.05726	0.20745	0.16685	0.1334	0.14469	0.47683	-1.7021	-2.9292	-2.5208	-2.0438	-2.9	-2.1771	-2.5083	-2.8563	-2	-2.7667	-2.525	-2.2167	-2.7687	-2.4292	-2.0583	-3.0146	129.419	220.352	197.791	441.418	208.375	390.505	332.517	90.583	438.000	243.536	247.323	434.839	139.210	378.033	175.883	91.478	0.0041456	0.0016661	0.00060358	769.85	1.2167e-05	1.2083e-05	1035.1	277.24	2.7642e-05	2.5824e-05	474.85	209.9	122.25	58.976	6.4959e-06	114.38	0.0016388	0.0017847	0.00046928	841.82	1.8265e-05	1.9642e-05	1099.9	304.52	1.8502e-05	1.9537e-05	517.65	210.31	156.35	62.484	1.8291e-05	111.65	392.711	219.114	346.816	101.807	444.145	341.450	101.704	107.849	192.612	350.772	106.215	110.716	111.947	116.515	287.771	114.314	-8191	255	
2034.462	1	1	0	0	0.3246	0.125	0.24357	0.033735	0.1012	0.13652	0.27966	0.081452	0.052553	0.054222	0.17573	0.15337	0.17998	0.098614	0.13586	0.27775	-1.8	-2.3937	-2.5604	-2.1146	-2.7021	-2.2896	-2.1917	-3.0333	-2.0167	-2.4833	-2.825	-2.0208	-2.7167	-2.3812	-2.1396	-2.9917	397.085	290.630	438.617	98.121	131.593	97.757	390.445	323.666	311.524	405.352	133.002	402.519	118.565	428.159	377.438	417.310	0.0034472	0.0015775	0.00028191	766.91	1.6385e-05	1.1747e-05	1031.7	278.47	3.4717e-05	6.9016e-06	475.69	209.84	120.37	57.892	9.5665e-06	113.75	0.0018137	0.001832	0.0004837	852.1	2.0823e-05	2.1089e-05	1115.7	311.37	2.2223e-05	2.1643e-05	529.44	216.03	169.7	63.484	2.1065e-05	114.12	420.359	203.660	371.840	102.074	193.786	385.693	101.676	107.959	189.885	415.303	106.129	110.621	111.408	116.375	353.059	113.996	-8191	255	
2034.558	1	1	0	0	0.28128	0.24296	0.16893	0.30441	0.099052	0.088701	0.19808	0.24724	0.12656	0.17645	0.15905	0.06421	0.21377	0.16594	0.11103	0.34576	-1.725	-2.4729	-2.6688	-2.0333	-2.8417	-2.4542	-2.1417	-2.9354	-2.2521	-2.375	-2.8875	-2.1792	-2.6604	-2.8792	-2.0083	-3	320.283	164.041	361.302	420.514	442.705	326.584	96.599	397.211	277.312	341.034	332.652	341.879	353.385	352.741	269.301	386.434	0.0033104	0.0016893	0.00048836	760.38	2.5393e-05	1.5273e-05	1031.4	274.22	1.4716e-05	2.0133e-05	467.93	211.91	118.43	56.118	1.1352e-05	111.95	0.0022636	0.0021354	0.00055986	896	2.5732e-05	2.4539e-05	1146.2	326.29	2.6953e-05	2.5188e-05	544.45	227.59	184.23	64.442	2.4213e-05	117.05	405.336	424.933	328.278	101.909	258.702	380.061	101.622	108.077	140.872	273.112	106.191	111.110	112.082	116.876	133.148	114.537	-8191	255	
2034.679	1	1	0	0	0.28931	0.24979	0.088458	0.062163	0.17249	0.071868	0.033488	0.16709	0.28302	0.078202	0.085512	0.11208	0.11127	0.21798	0.33692	0.33487	-1.6625	-2.2104	-2.9042	-2.0146	-2.6521	-2.7792	-2.1729	-2.9771	-2.3604	-2.1375	-3.0021	-2.1583	-2.6	-2.8667	-1.9979	-3.0167	155.015	369.415	157.590	98.243	440.029	382.591	445.525	112.042	105.170	361.637	417.876	382.602	338.696	348.047	210.350	383.136	0.0020686	0.00066301	0.0001466	754.71	8.9705e-06	8.07e-06	1033.6	271.52	1.7304e-05	1.9934e-05	465.33	211.49	118.43	55.505	1.6689e-05	109.24	0.0026633	0.00247	0.00064146	952.51	2.9121e-05	2.7475e-05	1175.1	341.03	2.9142e-05	2.6825e-05	551.85	234.46	187.28	64.162	2.5539e-05	117.62	385.492	270.861	278.326	101.921	205.406	340.597	102.184	108.752	328.132	411.307	106.500	110.955	112.034	117.229	215.991	114.260	-8191	255	
2034.773	1	1	0	0	0.14825	0.10264	0.23228	0.17199	0.16237	0.08946	0.15611	0.07779	0.40709	0.12033	0.30562	0.16106	0.2138	0.26635	0.11035	0.25873	-2.0292	-2.1104	-2.8604	-2.2021	-2.4333	-2.7188	-2.1229	-2.975	-2.5771	-2.2479	-3.0729	-2.3583	-2.6604	-2.8854	-1.8917	-2.7854	393.566	176.671	384.555	108.714	193.961	439.042	329.438	296.313	422.361	203.726	400.807	390.809	405.447	434.187	259.589	397.489	0.0018215	0.0016412	0.00046025	759.46	6.7314e-06	6.3566e-06	1030.6	267.86	1.7083e-05	1.9494e-05	465.73	207.54	116.87	54.989	2.8375e-05	107.63	0.0026817	0.0024628	0.00066639	974.23	2.9004e-05	2.7008e-05	1188.1	344.54	2.8394e-05	2.5656e-05	552.67	232.14	179.89	62.311	2.5526e-05	115.77	419.458	183.404	101.885	101.801	223.984	315.239	102.115	108.242	368.121	341.301	106.624	110.398	112.506	116.586	203.340	114.415	-8191	255	
2034.869	1	1	0	0	0.040173	0.3342	0.29405	0.16041	0.2587	0.19388	0.28266	0.29151	0.049345	0.18899	0.26943	0.33818	0.21377	0.20127	0.16462	0.22838	-2.2313	-1.7938	-2.925	-2.2042	-2.475	-2.8688	-2.1042	-2.7562	-2.675	-2.2167	-3.125	-2.4437	-2.225	-2.9958	-2.0563	-2.8229	449.604	152.762	206.237	304.296	245.011	440.461	435.507	145.430	331.329	95.995	429.042	409.880	374.783	308.001	115.979	404.068	0.0017163	0.0009503	0.00085323	756.5	1.4353e-05	2.0525e-05	1029	268.68	4.9542e-06	1.0509e-05	466.41	205.68	117.57	55.143	1.8935e-05	107.8	0.0024368	0.002207	0.0006568	953.73	2.6193e-05	2.4395e-05	1189.3	338.5	2.6681e-05	2.4008e-05	560.75	230.44	177.52	61.88	2.7136e-05	114.85	407.362	314.895	136.040	102.198	207.191	438.029	102.189	108.440	149.132	158.996	107.179	111.362	112.224	116.903	178.226	114.751	-8191	255	
2034.966	1	1	0	0	0.18654	0.28941	0.16487	0.11342	0.29253	0.17041	0.23261	0.16222	0.15314	0.068782	0.081332	0.1684	0.13236	0.19774	0.020632	0.055644	-2.2396	-2.1188	-2.7479	-2.2687	-2.0667	-3.0521	-2.1979	-2.5208	-2.7979	-2.0729	-2.8729	-2.4167	-2.2333	-2.9604	-1.9667	-2.5854	202.041	212.828	241.637	114.492	353.139	322.320	437.026	391.406	311.237	431.893	353.627	348.265	222.893	94.536	306.653	258.933	0.002818	0.00054692	0.00053947	750.6	1.1831e-05	1.0405e-05	1034.6	265.87	8.5085e-06	1.4534e-05	466.27	207.08	117.19	55.521	6.8499e-06	108.21	0.002357	0.0021538	0.00068057	942.44	2.5203e-05	2.3868e-05	1202.4	333	2.5475e-05	2.4112e-05	567.19	228.07	173.98	62.43	2.8557e-05	114.93	431.417	157.714	115.789	102.322	306.795	182.550	102.474	108.339	280.617	241.936	106.640	110.908	112.191	116.745	271.056	114.320	-8191	255	
2035.062	1	1	0	0	0.12436	0.24235	0.21164	0.18746	0.2956	0.2161	0.12656	0.2337	0.14686	0.085526	0.21976	0.13938	0.1572	0.24258	0.45704	0.064947	-2.5021	-1.9729	-2.7521	-2.6458	-2.0021	-2.9354	-2.325	-2.4167	-2.8646	-1.8479	-2.8187	-2.5896	-1.9875	-2.8354	-2.0146	-2.4396	430.646	286.122	352.235	424.474	123.376	422.307	102.363	340.622	268.679	378.798	91.550	123.284	353.802	425.787	291.927	396.727	0.0021547	0.0026306	0.0005313	754.64	1.2162e-05	1.9014e-05	1037.4	265.01	1.0047e-05	1.8659e-05	463.21	206	115.74	55.234	4.9103e-06	107.34	0.0023391	0.0023104	0.00073587	948.23	2.532e-05	2.5961e-05	1223.5	333.72	2.5446e-05	2.6526e-05	573.48	228.22	172.78	63.796	2.9764e-05	114.58	406.241	109.031	99.908	102.121	351.949	194.575	102.037	107.981	297.175	169.493	107.041	111.294	112.786	116.898	97.349	114.648	-8191	255	
2035.158	1	1	0	0	0.17129	0.10135	0.18466	0.34102	0.06695	0.19604	0.31361	0.12529	0.22451	0.15704	0.30738	0.30587	0.074096	0.16859	0.19719	0.087943	-2.4104	-1.9312	-2.6396	-2.5542	-1.9771	-2.7438	-2.5333	-2.325	-2.775	-2.1063	-2.6208	-2.8625	-2.0104	-2.8854	-2.3771	-2.2083	354.518	226.215	371.469	439.355	197.010	335.791	427.626	443.499	130.473	242.220	360.315	383.585	145.453	100.389	103.409	403.511	0.0020753	0.0011633	9.7677e-05	754.13	1.0795e-05	2.4932e-05	1030.2	264.88	1.4059e-05	3.8501e-05	457.93	204.15	117.85	55.207	6.2746e-06	108.38	0.0023441	0.0025701	0.00074933	951.43	2.5489e-05	2.8811e-05	1230.8	335.13	2.612e-05	2.9331e-05	571.43	226.83	174.34	65.322	2.9419e-05	114.09	402.325	135.470	148.907	101.909	165.772	198.013	101.428	108.232	405.933	180.339	106.272	110.388	112.133	116.878	441.223	114.097	-8191	255	
2035.278	1	1	0	0	0.23166	0.18436	0.3595	0.14714	0.11236	0.10685	0.17217	0.11466	0.068148	0.051705	0.2114	0.16318	0.10644	0.28113	0.086303	0.23354	-2.6188	-1.9958	-2.4333	-2.9292	-2.0187	-2.7146	-2.7083	-2.1625	-3.0333	-2.1937	-2.4167	-2.9229	-1.8208	-3.0146	-2.7021	-2.3792	322.918	144.093	161.534	360.202	135.466	276.030	394.558	365.325	425.053	197.946	94.471	356.446	441.090	100.970	412.080	394.257	0.0030666	0.0027008	0.00059586	759.67	2.2474e-05	1.823e-05	1024.7	265.7	3.2932e-05	1.7435e-05	453.34	204.69	119.23	55.321	1.4318e-05	107.91	0.0023552	0.0027118	0.00072689	944.92	2.5687e-05	2.9857e-05	1211.5	329.23	2.6222e-05	2.9921e-05	559.53	223.63	176.68	65.297	2.7526e-05	112.65	416.248	148.424	307.873	102.086	216.573	194.694	101.519	107.956	171.184	152.724	106.459	110.550	111.923	116.718	160.529	114.166	-8191	255	
2035.375	1	1	0	0	0.20836	0.11362	0.21433	0.28464	0.10218	0.045235	0.1054	0.18913	0.066927	0.18715	0.19163	0.10907	0.10855	0.15799	0.076474	0.27598	-2.4625	-2.2542	-2.1667	-2.7792	-2.0125	-2.5875	-2.6958	-1.9833	-2.7896	-2.1854	-2.5687	-2.8833	-2.1125	-2.6583	-2.6229	-2.1688	151.886	398.159	343.939	91.061	364.839	318.592	393.225	116.775	153.211	433.553	230.353	445.029	308.931	124.339	431.194	353.391	0.0050907	0.002404	0.00060764	759.63	2.8303e-05	1.2369e-05	1022.4	267.03	3.2712e-05	3.762e-05	459.27	204.59	118.34	54.92	1.3087e-05	107.4	0.0023634	0.0026021	0.00066481	916.84	2.5679e-05	2.7612e-05	1184.4	319.97	2.5885e-05	2.7729e-05	546.98	219.07	177.28	63.988	2.5851e-05	111.33	394.335	348.825	333.702	101.770	217.092	329.673	101.613	107.988	199.714	293.766	106.360	110.313	111.628	116.904	332.070	114.034	-8191	255	
2035.471	1	1	0	0	0.14223	0.17073	0.040522	0.15685	0.10713	0.17432	0.17349	0.38997	0.083716	0.13579	0.12695	0.21473	0.16884	0.20938	0.076706	0.19528	-2.3542	-2.2521	-2.2562	-3.0125	-2.0729	-2.4875	-2.7	-2.0792	-2.9437	-2.2271	-2.1208	-3.1417	-2.1104	-2.4583	-2.8167	-2.1604	155.444	255.214	198.924	360.520	116.633	129.273	342.831	443.792	266.175	391.432	432.451	408.822	433.442	151.263	369.389	328.427	0.0039791	0.00082175	0.00070078	761.29	2.6504e-05	1.244e-05	1022.1	267.99	7.8636e-06	3.9719e-06	458.29	205.4	119.91	55.428	2.1045e-05	108.76	0.0024594	0.0025003	0.00063528	910.01	2.7023e-05	2.6765e-05	1171.2	319.31	2.6861e-05	2.6351e-05	536.9	217.84	178.47	63.1	2.3923e-05	111.35	402.890	210.536	333.134	101.724	183.952	157.661	101.635	107.864	217.343	313.306	106.358	110.646	112.357	116.605	385.338	113.898	-8191	255	
2035.565	1	1	0	0	0.22399	0.10827	0.16558	0.25127	0.19795	0.39354	0.12269	0.29708	0.26739	0.20004	0.21969	0.18197	0.044667	0.21283	0.31416	0.20777	-2.3187	-2.3	-2.0604	-2.8271	-2.1042	-2.3812	-2.9021	-1.9021	-2.6188	-2.6708	-2.0125	-2.9646	-2.2417	-2.4062	-2.7979	-2.0625	304.085	250.277	262.574	425.137	151.666	166.704	335.577	362.877	260.962	378.259	372.474	396.981	390.216	94.607	192.055	119.324	0.0031391	0.0011691	0.00045456	760.9	1.2349e-05	8.9326e-06	1024.5	269.38	1.1146e-05	1.057e-05	463.76	205.84	117.38	55.922	1.3729e-05	110.83	0.0024172	0.0023155	0.00058713	905.84	2.6931e-05	2.5044e-05	1155.9	322.9	2.6878e-05	2.5273e-05	532.1	220.1	178.22	62.734	2.2456e-05	113.47	421.987	292.358	258.767	102.093	258.826	244.909	101.953	108.207	323.081	425.583	106.290	111.126	111.718	117.117	381.232	114.601	-8191	255	
2035.639	1	1	0	0	0.28789	0.36865	0.28937	0.10583	0.16684	0.14023	0.33579	0.19115	0.21891	0.15712	0.067387	0.10931	0.18245	0.19911	0.2203	0.20881	-2.3083	-2.7854	-1.9396	-2.7833	-2.4167	-2.0833	-3.0146	-2.1208	-2.4708	-2.6292	-2.1	-2.8583	-2.3417	-2.2833	-2.8042	-2.125	300.251	314.534	171.132	413.517	125.770	109.746	110.497	352.404	94.000	413.158	127.312	413.937	428.345	380.363	301.241	411.139	0.002243	0.0017476	0.00042474	757.8	1.3434e-05	1.2657e-05	1034.4	271.33	1.8458e-05	2.4336e-05	467.19	208.42	119.19	56.27	1.5125e-05	110.97	0.0023373	0.0021927	0.00054823	909.82	2.5542e-05	2.3395e-05	1137.5	326.59	2.4996e-05	2.3486e-05	527.54	223.41	173.87	62.285	2.1553e-05	114.84	385.822	450.753	324.460	102.559	434.778	365.043	102.123	109.009	347.856	167.898	107.095	111.871	113.294	116.603	258.985	114.240	-8191	255	
2035.757	1	1	0	0	0.08955	0.11799	0.097096	0.061223	0.16628	0.1373	0.080347	0.19222	0.24578	0.14946	0.16793	0.22097	0.15988	0.052487	0.097649	0.21915	-2.075	-2.7542	-2.0917	-3.0125	-2.4271	-2.0417	-3.075	-2.2271	-2.4542	-2.6292	-2.2417	-2.7333	-2.3708	-2.1188	-2.7313	-2.2896	431.262	416.762	275.179	353.408	232.764	334.765	138.536	410.863	201.959	363.973	316.913	398.075	293.538	414.778	335.307	342.011	0.0027602	0.0013518	0.00018749	755.2	4.5588e-06	4.1657e-06	1037.5	274.05	2.2764e-05	2.3088e-06	468.99	208.27	118.6	56.523	1.5459e-05	110.52	0.0022146	0.0020761	0.00053831	916.04	2.4105e-05	2.2061e-05	1140.4	328.58	2.3487e-05	2.1811e-05	528.18	222.84	168.01	61.435	2.1671e-05	114.47	429.377	158.715	140.840	102.061	422.444	429.495	101.933	108.274	183.069	254.374	106.445	110.636	111.804	116.776	213.517	114.519	-8191	255	
2035.854	1	1	0	0	0.19284	0.14431	0.24238	0.20847	0.11859	0.11082	0.18622	0.031659	0.087035	0.11012	0.42661	0.16003	0.26416	0.3729	0.17122	0.25926	-2.1167	-2.7646	-1.8312	-2.7896	-2.5563	-2.1708	-2.8458	-2.1813	-2.2313	-2.8917	-2.1937	-2.5979	-2.6708	-1.7875	-2.8896	-2.3187	209.688	221.905	259.983	305.512	221.434	293.653	378.059	172.338	202.258	265.571	350.612	232.106	91.779	151.961	248.443	405.554	0.0033629	0.0016367	0.0011332	753	2.2524e-05	8.9983e-06	1035.8	274.06	2.7768e-05	1.9814e-05	467.61	206.01	117.07	56.573	1.022e-05	110.01	0.0020885	0.0019442	0.00055873	915.52	2.3013e-05	2.082e-05	1146.9	327.9	2.2362e-05	2.0623e-05	535.47	220.64	165.07	60.751	2.2562e-05	113.47	397.413	280.823	140.301	101.999	179.756	132.109	102.422	108.406	237.791	405.229	107.323	111.610	112.991	117.318	156.922	115.049	-8191	255	
2035.950	1	1	0	0	0.20812	0.23968	0.058875	0.20423	0.071634	0.078097	0.093342	0.15672	0.20178	0.20989	0.21178	0.12375	0.097779	0.24785	0.2418	0.086561	-1.7333	-2.7083	-2.1042	-2.5979	-2.8688	-1.925	-3.1063	-2.2542	-2.0938	-2.9146	-2.2062	-2.7083	-2.7083	-1.9771	-2.8042	-2.6021	108.833	350.015	246.986	380.110	141.514	177.099	373.002	125.307	168.475	439.481	176.886	161.841	111.206	234.126	331.548	228.795	0.0023483	0.0015198	0.0012735	750.2	1.6745e-05	1.005e-06	1030.7	269.76	1.709e-05	1.7747e-05	469.75	205.25	118.76	56.952	1.0668e-05	109.97	0.0019732	0.0018345	0.00057555	894.3	2.1437e-05	1.9792e-05	1147.1	321.54	2.0887e-05	1.9918e-05	538.32	217.98	159.82	60.544	2.2831e-05	112.29	402.778	148.465	134.473	102.933	149.684	268.272	102.865	108.888	112.348	264.015	107.395	111.833	113.128	117.414	224.985	114.932	-8191	255	
2036.046	1	1	0	0	0.080962	0.24425	0.16254	0.2288	0.14022	0.044996	0.12952	0.067612	0.21838	0.16034	0.19609	0.12181	0.041954	0.21617	0.16172	0.21431	-1.6375	-2.8208	-1.9875	-2.4729	-2.7229	-2	-2.8833	-2.5875	-2.0417	-2.9125	-2.4021	-2.5021	-2.8583	-2.1354	-2.8563	-2.5729	345.452	162.552	290.848	312.841	104.415	428.856	110.909	250.467	360.528	128.412	444.028	394.640	438.965	450.563	373.935	434.010	0.0026952	0.0021072	0.00056463	754.62	2.0648e-06	1.7071e-05	1027.9	272.37	1.033e-05	2.4976e-05	469.22	206.35	118.59	57.068	6.3411e-06	111.05	0.0018478	0.001821	0.00057876	883.38	2.0164e-05	1.9988e-05	1150.7	317.2	1.9476e-05	2.0349e-05	537.97	216.02	156.05	61.243	2.2338e-05	111.81	414.152	188.468	448.592	102.442	231.323	201.129	102.223	108.610	359.237	243.509	106.765	111.614	112.623	117.687	333.798	114.714	-8191	255	
2036.167	1	1	0	0	0.077321	0.085592	0.24503	0.095307	0.051729	0.41825	0.083539	0.091755	0.15632	0.051011	0.20425	0.23541	0.16569	0.14123	0.14647	0.19041	-1.6917	-2.7229	-2.225	-2.1208	-3.0458	-2.0563	-2.7729	-2.7646	-1.9521	-3.0354	-2.3208	-2.3333	-2.8688	-2.1042	-2.5104	-2.8625	397.492	292.547	166.759	371.043	382.925	106.632	324.613	308.355	153.787	366.484	442.018	399.251	131.313	143.125	337.031	395.643	0.0035189	0.0024224	0.00053993	763.25	1.744e-05	2.4129e-05	1030.6	273.41	3.2706e-06	2.3406e-05	465.33	206.29	119.36	56.963	5.361e-06	110.18	0.0017326	0.001885	0.00055779	872.25	1.8747e-05	2.0669e-05	1133.9	312.22	1.8257e-05	2.0967e-05	527.65	212.67	152.75	61.699	2.1054e-05	110.28	407.303	170.090	381.635	102.575	319.152	222.602	102.965	108.803	177.579	229.628	106.604	111.637	113.263	117.715	448.096	114.959	-8191	255	
2036.263	1	1	0	0	0.2276	0.20851	0.1823	0.23523	0.084746	0.095884	0.026949	0.20928	0.18256	0.34449	0.085232	0.18012	0.090171	0.24934	0.16551	0.16865	-1.6625	-2.65	-2.3833	-2.0792	-2.825	-2.1833	-2.5187	-2.7854	-1.7479	-2.8333	-2.5771	-1.9979	-2.9688	-2.2	-2.3063	-2.9979	368.296	114.936	134.574	443.745	232.653	232.379	323.800	447.130	320.382	289.520	395.090	91.777	277.361	447.183	91.922	311.815	0.0031763	0.0016427	0.00025625	755.22	7.4429e-06	1.5668e-05	1027.5	273.47	8.4253e-06	1.2037e-05	462.9	206.39	120.3	57.265	4.8041e-06	111.08	0.0016941	0.0019449	0.00053237	861.85	1.8589e-05	2.1259e-05	1122.4	309.04	1.8282e-05	2.1136e-05	517.23	209.69	152.51	61.845	1.9354e-05	109.64	402.044	173.256	280.619	102.908	171.401	221.203	102.979	108.575	198.017	197.469	107.108	111.469	113.304	117.417	204.305	115.173	-8191	255	
2036.359	1	1	0	0	0.091674	0.26835	0.16842	0.13693	0.082177	0.085135	0.025812	0.18577	0.071294	0.25606	0.36033	0.26057	0.21476	0.31861	0.15054	0.30755	-1.6125	-2.7188	-2.4396	-2.1167	-2.9708	-2.1375	-2.5167	-2.975	-2.0083	-2.5021	-2.6646	-2.1396	-2.9229	-2.1208	-2.2479	-3.0354	107.508	355.333	336.117	118.472	324.640	168.260	401.560	389.878	440.808	295.928	421.280	374.287	333.376	364.146	432.519	407.481	0.0045652	0.001167	0.00038246	750.89	1.6424e-05	7.7892e-06	1027.6	270.27	2.5739e-05	1.3696e-05	458.1	203.68	120.77	56.932	1.2473e-05	111.32	0.0017014	0.001905	0.00049881	848.19	1.9191e-05	2.1267e-05	1113	304.26	1.9644e-05	2.1164e-05	514.51	208.67	157.77	61.897	1.9281e-05	109.37	409.874	344.316	423.602	103.024	144.837	175.512	102.644	109.201	157.677	402.823	107.608	111.843	113.316	117.574	221.881	115.263	-8191	255	
2036.455	1	1	0	0	0.20296	0.061389	0.18443	0.22004	0.16443	0.1368	0.17664	0.21731	0.098137	0.15368	0.18506	0.34373	0.11516	0.25355	0.083409	0.078012	-1.5896	-2.5396	-2.5354	-2.0708	-2.8583	-2.4333	-2.2188	-2.9667	-1.925	-2.6542	-2.6312	-2.125	-2.7708	-2.4646	-2.1208	-3.0833	371.676	399.240	96.811	107.139	202.485	356.708	369.042	190.551	279.315	292.434	413.110	403.806	440.118	391.892	134.534	301.073	0.0042897	0.0011196	0.00034681	758.66	3.2162e-05	8.1484e-06	1033	271.93	2.1726e-05	1.8862e-05	460.7	206.31	120.32	57.702	1.1916e-05	111.38	0.001842	0.0018678	0.00048854	846.84	2.0375e-05	2.0687e-05	1108.9	304.62	2.1137e-05	2.0924e-05	515.29	210.74	163.77	62.26	1.979e-05	110.65	402.890	364.215	316.721	102.560	178.723	447.946	102.169	108.607	197.864	324.458	106.681	110.936	112.256	117.278	242.107	114.646	-8191	255	
2036.551	1	1	0	0	0.1991	0.040403	0.20451	0.19638	0.087996	0.065075	0.29647	0.26384	0.17806	0.14615	0.34666	0.054798	0.25318	0.078271	0.17151	0.29481	-1.5896	-2.4604	-2.9875	-2.0062	-2.8417	-2.4917	-2.3146	-2.9333	-2.2271	-2.5458	-2.8312	-2.4167	-2.6667	-2.5917	-2.1292	-3.1188	183.408	359.740	333.708	449.460	266.804	207.345	395.273	353.178	430.879	185.555	121.739	354.994	365.900	449.040	299.491	370.917	0.0043873	0.0015741	0.00044381	763.28	1.3557e-05	1.0802e-05	1024	273.01	3.2976e-05	1.1416e-05	460.5	206.24	120.19	57.662	3.8065e-06	111.79	0.002048	0.0019461	0.0005059	867.6	2.2317e-05	2.1251e-05	1104.8	308.26	2.1911e-05	2.0161e-05	507.02	211.57	162.98	61.637	1.8536e-05	111.49	409.303	379.210	282.742	101.939	184.818	108.949	102.188	108.140	248.684	160.763	106.767	110.978	112.599	116.987	430.006	114.653	-8191	255	
2036.647	1	1	0	0	0.28199	0.13867	0.20521	0.20775	0.18528	0.14937	0.22891	0.18074	0.18842	0.22772	0.14065	0.18262	0.27617	0.17568	0.079191	0.079007	-2.0354	-2.4437	-2.7625	-2.0896	-2.8375	-2.4979	-2.1417	-2.9792	-2.0875	-2.2021	-2.95	-2.2354	-2.5021	-2.875	-1.9625	-2.9042	275.346	393.832	290.534	384.228	185.488	215.246	412.156	424.346	353.490	432.887	361.710	431.521	392.938	415.896	252.867	108.490	0.0033285	0.00062839	0.00018059	764	2.1453e-05	1.1306e-05	1028.7	274.87	2.692e-05	2.9801e-06	465.25	207.25	119.34	57.588	1.6041e-05	113.06	0.0020397	0.0018726	0.000486	882.57	2.2288e-05	2.0902e-05	1103.7	317.46	2.2314e-05	2.0133e-05	508.45	215.86	163.03	61.939	1.835e-05	113.65	406.140	330.996	171.537	102.076	350.865	398.244	102.356	108.378	235.494	371.806	106.687	111.322	112.091	116.734	230.771	114.528	-8191	255	
2036.766	1	1	0	0	0.1194	0.087972	0.097931	0.14783	0.22329	0.091192	0.069181	0.16098	0.012973	0.16915	0.23011	0.15961	0.23103	0.17808	0.17243	0.30293	-2.1104	-2.0479	-2.8875	-2.275	-2.525	-2.8625	-2.2125	-2.7958	-2.4792	-2.2021	-3.0563	-2.2729	-2.5417	-2.9292	-2.1104	-3.0187	183.031	202.814	281.251	97.989	387.721	224.905	359.180	239.792	431.415	364.785	122.216	410.691	434.159	418.760	364.207	406.533	0.0016724	0.0013393	0.00043923	769.41	4.6131e-06	7.3036e-06	1031.4	273.71	7.831e-06	5.9297e-06	467.19	206.87	120.38	58.171	3.0442e-05	113.02	0.0019696	0.0018122	0.00048343	896.89	2.1674e-05	2.0653e-05	1115.8	323.89	2.2789e-05	2.0889e-05	522.67	222.13	167.4	62.945	2.1195e-05	116.48	408.360	325.157	90.928	102.260	335.570	360.174	102.197	108.443	268.784	228.897	106.487	111.064	112.827	116.939	171.836	114.281	-8191	255	
2036.862	1	1	0	0	0.25917	0.21014	0.0663	0.13225	0.062812	0.14257	0.11218	0.25812	0.16819	0.088617	0.032259	0.15924	0.24136	0.10505	0.055622	0.24582	-2.1125	-2.0667	-2.9667	-2.475	-2.525	-2.9938	-2.1458	-2.4646	-2.6542	-2.0938	-3.0812	-2.4437	-2.2896	-3.0042	-2.1188	-2.7604	131.307	183.259	354.345	400.300	424.859	102.888	303.123	333.981	370.262	329.285	426.098	119.292	196.185	394.569	118.442	398.725	0.002922	0.0014877	0.00058044	765.35	2.4051e-05	1.1264e-05	1036.6	273.6	1.6994e-05	1.7916e-05	464.59	208.43	120.42	58.367	2.2936e-05	113.51	0.0020945	0.0018831	0.00054617	917.04	2.218e-05	2.0758e-05	1139.6	326.45	2.2336e-05	2.0094e-05	528.35	221.52	164.77	62.413	2.2532e-05	115.84	403.142	377.342	131.994	101.733	93.511	368.977	101.687	108.278	253.272	351.034	106.586	110.763	112.483	116.901	196.312	113.959	-8191	255	
2036.934	1	1	0	0	0.12228	0.087911	0.13619	0.1971	0.24296	0.14508	0.21408	0.021204	0.10043	0.12756	0.22864	0.22761	0.21157	0.18058	0.040087	0.13955	-2.0729	-1.9562	-2.7917	-2.4271	-2.2833	-2.9479	-2.1312	-2.6229	-2.8125	-2.0187	-2.8083	-2.5792	-2.1146	-3.0417	-2.0354	-2.5021	209.300	273.303	210.520	125.381	307.617	405.229	120.333	288.841	97.812	366.806	386.147	444.054	139.383	399.995	109.405	114.571	0.0026386	0.0024461	0.00047328	759.91	1.7193e-05	8.1295e-06	1034.3	273.96	1.5596e-05	1.0552e-05	467.08	206.65	120.14	58.329	1.7193e-05	112.52	0.002023	0.001829	0.0005766	908.39	2.1289e-05	2.0048e-05	1148.7	322.21	2.1363e-05	1.9522e-05	533.87	218.94	160.34	62.045	2.2921e-05	114.51	421.903	96.205	117.713	101.978	368.838	299.428	102.173	108.538	348.728	272.364	106.907	110.835	112.240	117.262	172.250	114.626	-8191	255	
#DATA ENDS
