BOXY.EXE: ISS Imagent and Oximeter Data Acquisition Program Version 0.80
Ascii Record File

#ACQ INFORMATION
2  Detector Channels 
16  External MUX Channels 
1  Auxiliary Channels 
5000  Waveform (CCF) Frequency (Hz)
1  Waveforms Skipped 
30  Waveforms Averaged 
1  Cycles Averaged 
16  Acquisitions per Waveform 
10.0806  Updata Rate (Hz) 

#FILE INFORMATION
TRUE -- External MUX Channel results are PARSED.
FALSE -- AC DC and Phase are NOT grouped.
TRUE -- Companion Program Settings File CREATED.
FALSE -- AC data not excluded
FALSE -- DC data not excluded
FALSE -- Phase data not excluded
FALSE -- Auxillary Chn. data not excluded
Tab delimiters

#CALIBRATION STATE
TRUE -- Waveform Calibration Values APPLIED.


#AUX CALIBRATION VALUES
Val Type	aux-1	

Term	1.0000e+00	
Factor	0.0000e+00	


#WF CALIBRATION VALUES
A = Detector Channel
Val Type	A-AC1	A-AC2	A-AC3	A-AC4	A-AC5	A-AC6	A-AC7	A-AC8	A-AC9	A-AC10	A-AC11	A-AC12	A-AC13	A-AC14	A-AC15	A-AC16	A-DC1	A-DC2	A-DC3	A-DC4	A-DC5	A-DC6	A-DC7	A-DC8	A-DC9	A-DC10	A-DC11	A-DC12	A-DC13	A-DC14	A-DC15	A-DC16	A-Ph1	A-Ph2	A-Ph3	A-Ph4	A-Ph5	A-Ph6	A-Ph7	A-Ph8	A-Ph9	A-Ph10	A-Ph11	A-Ph12	A-Ph13	A-Ph14	A-Ph15	A-Ph16	

Term	0.00000e+00	0.00000e+00	0.00000e+00	0.00000e+00	0.00000e+00	0.00000e+00	0.00000e+00	0.00000e+00	0.00000e+00	0.00000e+00	0.00000e+00	0.00000e+00	0.00000e+00	0.00000e+00	0.00000e+00	0.00000e+00	0.00000e+00	0.00000e+00	0.00000e+00	0.00000e+00	0.00000e+00	0.00000e+00	0.00000e+00	0.00000e+00	0.00000e+00	0.00000e+00	0.00000e+00	0.00000e+00	0.00000e+00	0.00000e+00	0.00000e+00	0.00000e+00	0.00000e+00	0.00000e+00	0.00000e+00	0.00000e+00	0.00000e+00	0.00000e+00	0.00000e+00	0.00000e+00	0.00000e+00	0.00000e+00	0.00000e+00	0.00000e+00	0.00000e+00	0.00000e+00	0.00000e+00	0.00000e+00	
Factor	1.00000e+00	1.00000e+00	1.00000e+00	1.00000e+00	1.00000e+00	1.00000e+00	1.00000e+00	1.00000e+00	1.00000e+00	1.00000e+00	1.00000e+00	1.00000e+00	1.00000e+00	1.00000e+00	1.00000e+00	1.00000e+00	1.00000e+00	1.00000e+00	1.00000e+00	1.00000e+00	1.00000e+00	1.00000e+00	1.00000e+00	1.00000e+00	1.00000e+00	1.00000e+00	1.00000e+00	1.00000e+00	1.00000e+00	1.00000e+00	1.00000e+00	1.00000e+00	X	X	X	X	X	X	X	X	X	X	X	X	X	X	X	X	

B = Detector Channel
Val Type	B-AC1	B-AC2	B-AC3	B-AC4	B-AC5	B-AC6	B-AC7	B-AC8	B-AC9	B-AC10	B-AC11	B-AC12	B-AC13	B-AC14	B-AC15	B-AC16	B-DC1	B-DC2	B-DC3	B-DC4	B-DC5	B-DC6	B-DC7	B-DC8	B-DC9	B-DC10	B-DC11	B-DC12	B-DC13	B-DC14	B-DC15	B-DC16	B-Ph1	B-Ph2	B-Ph3	B-Ph4	B-Ph5	B-Ph6	B-Ph7	B-Ph8	B-Ph9	B-Ph10	B-Ph11	B-Ph12	B-Ph13	B-Ph14	B-Ph15	B-Ph16	

Term	0.00000e+00	0.00000e+00	0.00000e+00	0.00000e+00	0.00000e+00	0.00000e+00	0.00000e+00	0.00000e+00	0.00000e+00	0.00000e+00	0.00000e+00	0.00000e+00	0.00000e+00	0.00000e+00	0.00000e+00	0.00000e+00	0.00000e+00	0.00000e+00	0.00000e+00	0.00000e+00	0.00000e+00	0.00000e+00	0.00000e+00	0.00000e+00	0.00000e+00	0.00000e+00	0.00000e+00	0.00000e+00	0.00000e+00	0.00000e+00	0.00000e+00	0.00000e+00	-1.52421e+02	-1.26321e+02	-1.29806e+02	-1.86538e+02	-8.17425e+01	-9.44387e+01	-1.58482e+02	-1.62015e+02	-7.12364e+01	-6.93310e+01	-1.71970e+02	-1.71209e+02	-1.83751e+02	-1.77240e+02	-8.25703e+01	-1.49604e+02	
Factor	2.27753e-05	1.29415e-04	3.73414e-05	2.99145e-01	1.07142e-06	1.26760e-06	1.64991e-01	5.09512e-02	1.01362e-06	1.41088e-06	8.41624e-02	2.77432e-02	4.04098e-02	8.88480e-03	1.04482e-06	1.27305e-02	1.79682e-06	1.89931e-06	5.29689e-07	1.50663e-01	2.07622e-08	2.08323e-08	7.96040e-02	2.61946e-02	2.06444e-08	2.08380e-08	4.16293e-02	1.37790e-02	2.05187e-02	4.56761e-03	2.07884e-08	6.31791e-03	X	X	X	X	X	X	X	X	X	X	X	X	X	X	X	X	



#DISTANCE SETTINGS
A = Detector Channel
A-1	A-2	A-3	A-4	A-5	A-6	A-7	A-8	A-9	A-10	A-11	A-12	A-13	A-14	A-15	A-16	

2.5000e+00	3.0000e+00	2.5000e+00	3.0000e+00	2.0000e+00	3.0000e+00	1.5000e+00	3.0000e+00	3.0000e+00	3.0000e+00	3.0000e+00	3.0000e+00	3.0000e+00	3.0000e+00	1.5000e+00	3.0000e+00	

B = Detector Channel
B-1	B-2	B-3	B-4	B-5	B-6	B-7	B-8	B-9	B-10	B-11	B-12	B-13	B-14	B-15	B-16	

1.0000e+01	1.0000e+01	1.0000e+01	1.4400e+00	1.0000e+01	1.0000e+01	1.5100e+00	1.9400e+00	1.0000e+01	1.0000e+01	1.9900e+00	2.4900e+00	2.4100e+00	2.9000e+00	1.0000e+01	2.9800e+00	




#DATA BEGINS
time	group	step	mark	flag	A-AC1	A-AC2	A-AC3	A-AC4	A-AC5	A-AC6	A-AC7	A-AC8	A-AC9	A-AC10	A-AC11	A-AC12	A-AC13	A-AC14	A-AC15	A-AC16	A-DC1	A-DC2	A-DC3	A-DC4	A-DC5	A-DC6	A-DC7	A-DC8	A-DC9	A-DC10	A-DC11	A-DC12	A-DC13	A-DC14	A-DC15	A-DC16	A-Ph1	A-Ph2	A-Ph3	A-Ph4	A-Ph5	A-Ph6	A-Ph7	A-Ph8	A-Ph9	A-Ph10	A-Ph11	A-Ph12	A-Ph13	A-Ph14	A-Ph15	A-Ph16	B-AC1	B-AC2	B-AC3	B-AC4	B-AC5	B-AC6	B-AC7	B-AC8	B-AC9	B-AC10	B-AC11	B-AC12	B-AC13	B-AC14	B-AC15	B-AC16	B-DC1	B-DC2	B-DC3	B-DC4	B-DC5	B-DC6	B-DC7	B-DC8	B-DC9	B-DC10	B-DC11	B-DC12	B-DC13	B-DC14	B-DC15	B-DC16	B-Ph1	B-Ph2	B-Ph3	B-Ph4	B-Ph5	B-Ph6	B-Ph7	B-Ph8	B-Ph9	B-Ph10	B-Ph11	B-Ph12	B-Ph13	B-Ph14	B-Ph15	B-Ph16	aux-1	digaux	

8519.619	1	1	0	768	0.029831	0.05811	0.13676	0.13447	0.24766	0.20935	0.17845	0.1318	0.081893	0.090833	0.12209	0.34235	0.10875	0.1941	0.12561	0.05823	-1.7354	-2.4854	-2.8771	-2.1229	-3.0042	-2.575	-2.3854	-3.0458	-2.3542	-2.3563	-2.9896	-2.3354	-2.9146	-2.4375	-2.2271	-2.9625	219.188	-4.598	77.689	73.708	27.394	81.667	111.112	250.499	22.228	81.413	198.131	179.693	-59.600	-54.559	78.383	199.351	0.00013443	0.00090725	0.00031203	867.17	8.4541e-06	4.8602e-06	665.13	259.3	3.0756e-06	1.4942e-05	219.66	68.865	76.226	26.202	6.2239e-06	31.744	0.0027418	0.002888	0.00079328	1051.2	3.1671e-05	3.1499e-05	763.93	289.8	3.1396e-05	3.1699e-05	273.14	87.286	103.47	32.106	3.1566e-05	39.942	114.807	67.600	-22.921	-48.630	65.128	-19.611	-49.581	-43.616	242.075	93.422	-45.887	-41.398	-39.805	-34.098	44.332	-37.407	-8191	255	
8519.715	1	1	0	0	0.079892	0.29664	0.14996	0.21493	0.20563	0.20874	0.30235	0.30516	0.15147	0.29865	0.058909	0.18895	0.15222	0.21371	0.40447	0.20227	-1.8417	-2.5208	-2.9083	-2.2313	-2.7792	-2.5479	-2.3042	-2.9938	-2.2458	-2.5729	-2.9458	-2.1792	-2.8104	-2.6813	-2.1521	-2.8792	90.163	110.362	87.225	-18.169	269.700	43.978	247.060	226.187	221.941	115.566	256.580	252.797	-46.874	-42.353	277.776	107.604	0.00025432	0.0011279	6.1718e-05	868.04	5.4408e-06	1.0323e-05	672.66	260.98	6.86e-06	9.069e-06	222.42	69.639	77.189	26.543	3.6599e-06	32.016	0.0027588	0.002895	0.00080503	1058.1	3.1878e-05	3.1597e-05	769.7	291.92	3.1488e-05	3.1729e-05	276.03	88.429	104.22	32.471	3.182e-05	40.443	143.060	198.054	-31.741	-48.722	35.212	-50.470	-49.477	-43.512	-45.755	53.198	-45.633	-41.191	-39.636	-33.645	22.981	-36.591	-8191	255	
8519.811	1	1	0	0	0.14213	0.067804	0.19984	0.22259	0.10871	0.18292	0.29667	0.19519	0.11204	0.22363	0.13961	0.1535	0.09272	0.25818	0.097659	0.07792	-2.0458	-2.3167	-3.0062	-2.3667	-2.6229	-2.5729	-2.2687	-3.0938	-2.4417	-2.3917	-3.1583	-2.1896	-2.8125	-2.8312	-2.1188	-3.1958	-53.763	248.286	270.168	10.655	148.878	242.563	255.395	196.413	63.012	-38.140	162.807	162.904	288.105	231.168	3.317	68.700	0.00011644	0.0022054	0.00031258	870.73	3.1665e-06	2.564e-06	675.85	260.21	1.7013e-05	1.7626e-05	220.73	68.773	76.856	26.328	5.4459e-06	31.558	0.0027658	0.0029034	0.00081189	1059.9	3.1612e-05	3.1245e-05	771.27	292.34	3.0928e-05	3.125e-05	274.41	87.633	103.71	32.214	3.1575e-05	39.903	126.390	88.044	105.857	-48.486	-61.425	276.362	-49.687	-43.843	-28.475	121.836	-45.818	-41.396	-40.015	-34.442	64.919	-37.095	-8191	255	
8519.907	1	1	0	0	0.19081	0.18742	0.062676	0.039624	0.24144	0.21942	0.1146	0.18069	0.20971	0.22771	0.13364	0.068055	0.12659	0.17592	0.26869	0.086374	-2.2667	-2.3438	-2.8979	-2.2	-2.7938	-3.0625	-2.2604	-3.0875	-2.6208	-2.1979	-3.0104	-2.2042	-2.5625	-2.9083	-2.2271	-2.9604	278.953	-32.478	141.415	151.065	3.398	12.780	194.079	194.651	36.433	194.067	298.137	138.465	293.430	118.281	200.607	-27.415	7.6357e-05	0.0012772	0.00012252	874.08	6.4334e-06	8.998e-06	664.51	260.8	6.7784e-06	7.4567e-06	220.39	69.096	77.29	26.198	3.9091e-06	31.438	0.0027067	0.0028465	0.00079901	1053.3	3.1068e-05	3.1219e-05	763.87	290.98	3.0866e-05	3.1328e-05	273.9	87.209	103.64	32.11	3.17e-05	39.831	-42.021	35.092	44.026	-48.471	-39.289	-33.077	-49.483	-43.636	-36.193	59.381	-45.972	-41.702	-38.996	-34.309	39.798	-36.786	-8191	255	
8520.003	1	1	0	0	0.27032	0.042101	0.3253	0.20193	0.20217	0.20987	0.2002	0.18198	0.17446	0.47532	0.38669	0.07742	0.11798	0.288	0.079084	0.1845	-2.3771	-2.1167	-2.8771	-2.2354	-2.5271	-2.975	-2.3292	-2.7479	-2.75	-2.1646	-2.9771	-2.2687	-2.4437	-3.0292	-2.15	-2.6792	-49.761	265.781	257.861	80.502	-41.789	124.563	184.727	197.574	225.324	293.221	147.280	4.536	155.497	2.415	241.348	247.220	0.00037613	0.00046194	0.00041993	876	9.7558e-06	1.3073e-05	673.8	263.61	7.2981e-06	1.7707e-05	225.07	69.979	77.244	26.614	1.0259e-05	32.035	0.002711	0.002864	0.00080807	1057.2	3.1207e-05	3.1493e-05	768.93	292.56	3.1087e-05	3.1678e-05	276.14	87.683	103.88	32.336	3.173e-05	40.114	165.260	8.089	30.349	-48.687	52.126	69.803	-49.081	-43.700	272.170	123.749	-45.646	-41.115	-39.620	-33.851	107.004	-37.038	-8191	255	
8520.100	1	1	0	0	0.021409	0.10821	0.24529	0.0056761	0.10707	0.12731	0.19579	0.27195	0.2014	0.018595	0.16783	0.094739	0.092423	0.22722	0.085331	0.1197	-2.3583	-2.1979	-2.7542	-2.4333	-2.1521	-2.9688	-2.2396	-2.7542	-2.7479	-2.1333	-2.9479	-2.5062	-2.4354	-2.9375	-2.2854	-2.7146	49.626	214.846	212.302	227.543	205.100	-8.538	195.367	280.675	26.648	226.260	-30.966	-23.585	161.504	260.501	90.759	290.433	0.00029209	0.00049868	0.00025151	877.99	7.937e-06	8.5636e-06	681.38	264.32	3.3326e-06	1.3676e-05	224.49	70.157	78.914	26.92	5.8928e-06	32.293	0.0027153	0.0028953	0.00080525	1059.2	3.1378e-05	3.1913e-05	774.06	293.36	3.1441e-05	3.2033e-05	278.19	88.351	105.53	32.751	3.2291e-05	40.455	148.969	80.824	151.501	-48.681	-47.504	102.685	-49.552	-43.659	-52.774	142.820	-45.376	-41.853	-39.229	-34.026	45.828	-36.598	-8191	255	
8520.220	1	1	0	0	0.29402	0.10194	0.23792	0.035218	0.13507	0.34326	0.10117	0.22145	0.083418	0.082432	0.12533	0.043791	0.070791	0.36373	0.17201	0.026179	-2.4333	-2.1583	-2.9562	-2.6437	-2.0771	-3.0563	-2.4792	-2.6708	-3.0604	-2.2375	-2.8646	-2.5812	-2.1021	-2.9104	-2.4062	-2.4813	149.735	119.198	295.310	-44.304	259.606	253.955	54.855	198.416	183.794	117.444	275.128	-52.373	226.792	249.552	180.282	75.040	0.00017051	0.0011308	0.00059871	898.86	1.3623e-05	1.0424e-05	689.61	268.61	3.7683e-06	5.0481e-06	226.12	70.592	79.353	27.039	7.4697e-06	32.122	0.0027927	0.0029573	0.00082693	1080.1	3.2061e-05	3.2349e-05	782.03	298.01	3.17e-05	3.1901e-05	277.78	88.187	105.54	32.705	3.0983e-05	39.889	87.306	125.541	1.739	-48.625	119.179	33.639	-49.908	-43.567	119.081	53.400	-45.808	-41.546	-40.052	-33.706	110.890	-36.738	-8191	255	
8520.316	1	1	0	0	0.10471	0.1778	0.27586	0.28244	0.27323	0.082918	0.26793	0.27922	0.21747	0.098049	0.1031	0.01464	0.040199	0.13259	0.23398	0.092159	-2.6667	-2.0062	-2.6708	-2.7438	-2.0917	-2.8458	-2.2271	-2.3458	-3.0375	-2.3125	-2.8708	-3.0292	-2.1792	-2.8917	-2.5854	-2.4833	173.992	-41.993	296.746	257.284	48.964	-15.731	-3.748	245.279	-38.613	224.936	275.337	-52.558	-30.920	263.136	46.016	188.273	0.00014766	0.00091778	0.00040017	897.37	4.3133e-06	8.8393e-06	685.39	268.63	1.3822e-05	1.1207e-06	224.96	69.981	78.72	26.953	8.4241e-06	32.258	0.0026636	0.0028072	0.00077383	1068.5	3.0395e-05	3.0412e-05	771.21	295.2	2.9766e-05	3.0142e-05	273	86.604	103.91	32.19	2.9368e-05	39.385	141.649	85.089	184.174	-48.561	106.152	161.119	-49.282	-43.611	273.545	96.665	-45.612	-41.173	-39.386	-34.149	136.143	-36.692	-8191	255	
8520.412	1	1	0	0	0.10659	0.40849	0.20528	0.31399	0.14373	0.23434	0.13813	0.16622	0.28971	0.26804	0.21117	0.091202	0.19013	0.13125	0.19203	0.37003	-2.675	-2.3583	-2.5625	-2.9583	-2.1833	-2.8229	-2.5354	-2.2229	-2.9271	-2.2646	-2.7104	-3.0021	-2.5187	-2.7667	-2.8063	-2.2958	189.565	283.064	249.686	-37.789	36.702	43.846	149.624	201.744	282.123	221.183	200.567	113.756	155.009	-44.391	253.451	-54.390	0.00019949	0.0013221	0.00026231	898.25	3.861e-06	9.4555e-06	685.71	270.34	1.2792e-05	5.6996e-06	225.45	70.566	79.497	26.896	9.9708e-06	31.974	0.0025692	0.0026996	0.00074721	1060.1	2.9624e-05	2.9695e-05	768.9	295.72	2.9277e-05	2.9514e-05	272.25	86.801	103.83	32.243	2.9047e-05	39.408	207.569	44.634	-28.190	-48.566	228.714	296.715	-49.527	-43.483	119.214	154.899	-45.804	-41.128	-39.425	-33.695	179.277	-36.850	-8191	255	
8520.509	1	1	0	0	0.16452	0.089193	0.1073	0.20563	0.2394	0.25084	0.093756	0.25587	0.21317	0.15416	0.078752	0.16023	0.14029	0.051141	0.055531	0.24547	-2.7208	-2.4	-2.5833	-3.0271	-2.075	-3.0208	-2.7521	-2.3417	-3.1646	-2.5	-2.4	-2.7188	-2.2583	-2.8125	-2.6229	-2.2667	110.277	115.372	51.614	210.011	-29.217	-30.460	211.681	188.642	108.378	-17.061	208.923	-7.445	60.254	-13.798	-8.536	111.096	3.2158e-05	0.00071883	0.00050401	911.38	6.814e-06	1.3458e-05	692.2	270.39	2.7099e-06	8.2594e-06	227.27	70.66	81.116	27.225	2.6896e-06	32.171	0.0025376	0.0026705	0.00073571	1070.1	2.9201e-05	2.9004e-05	774.53	296.98	2.9147e-05	2.9209e-05	274.3	87.048	104.21	32.348	2.8831e-05	39.527	273.643	-8.287	-6.502	-48.433	71.760	-27.246	-49.716	-43.709	147.462	-26.236	-45.823	-41.202	-39.681	-33.693	213.291	-36.970	-8191	255	
8520.603	1	1	0	0	0.078194	0.15748	0.24593	0.20807	0.15669	0.11722	0.1879	0.24152	0.19514	0.035901	0.22391	0.40027	0.2088	0.17505	0.1472	0.18546	-2.5062	-2.3792	-2.3583	-2.9958	-2.2979	-2.6917	-2.8979	-2.3438	-2.875	-2.425	-2.325	-3.0625	-2.2125	-2.55	-2.6833	-2.0396	235.697	263.280	243.189	235.187	238.770	-23.531	253.717	284.670	71.861	171.604	190.141	266.581	90.208	250.383	177.915	-7.061	0.00040312	0.00038585	7.2473e-05	925.01	5.9186e-06	2.2712e-06	702.2	274.84	3.7348e-06	4.7651e-06	230.66	72.415	81.064	27.53	1.0548e-05	32.847	0.0025201	0.0026197	0.00072952	1077.7	2.8864e-05	2.8684e-05	780.53	299.39	2.8659e-05	2.8677e-05	276.89	88.432	104.81	32.632	2.8999e-05	40.007	200.727	78.015	-44.681	-48.259	59.312	114.632	-49.343	-43.875	-52.519	216.455	-45.918	-41.328	-39.684	-34.165	220.941	-36.676	-8191	255	
8520.699	1	1	0	0	0.13	0.11413	0.31261	0.11294	0.25482	0.084908	0.1389	0.29832	0.1615	0.26743	0.093152	0.14179	0.26293	0.14077	0.19525	0.14839	-2.4083	-2.6	-2.1833	-2.8438	-2.1646	-2.4062	-2.9833	-2.3333	-2.8354	-2.7479	-2.1208	-3.0146	-2.4813	-2.5208	-2.9854	-2.2646	239.108	190.119	32.689	-40.841	177.161	213.573	89.803	205.869	205.950	5.396	8.607	236.708	280.874	287.372	31.084	246.238	7.5959e-05	0.0014807	0.00020612	928.62	6.4644e-06	2.3973e-06	703.74	276.45	1.3075e-06	6.1528e-06	231.66	72.074	81.679	27.772	2.3584e-06	32.598	0.0025124	0.0026058	0.00073088	1079.9	2.8411e-05	2.828e-05	781.41	300.71	2.8072e-05	2.8239e-05	275.44	87.818	104.77	32.468	2.8175e-05	39.51	220.190	-40.683	74.989	-48.488	33.009	128.405	-49.449	-43.440	134.573	69.926	-45.556	-41.372	-39.404	-34.113	84.545	-37.270	-8191	255	
8520.820	1	1	0	0	0.18525	0.046239	0.30968	0.13304	0.23087	0.11743	0.24585	0.24746	0.050774	0.31549	0.095171	0.20182	0.21261	0.089188	0.32639	0.30286	-2.3708	-2.6854	-2.375	-2.8833	-2.2271	-2.2562	-3.0292	-2.225	-2.7188	-2.875	-2.2833	-2.9833	-2.4521	-2.4521	-2.8708	-2.3896	-58.990	29.816	275.718	158.062	188.178	25.639	246.108	217.837	93.255	-25.530	103.745	-31.735	-56.332	121.346	296.620	-20.643	0.00016291	0.0010693	0.0003561	925.67	1.6704e-05	6.9542e-06	701.17	277.1	6.8885e-06	6.1616e-06	231.08	72.293	82.293	27.515	1.4581e-06	32.411	0.0024203	0.0025398	0.00071901	1076.1	2.7672e-05	2.7967e-05	778.05	299.79	2.7501e-05	2.7601e-05	274.99	87.708	104.17	32.38	2.7669e-05	39.38	162.259	60.932	28.035	-48.330	77.460	37.254	-49.289	-43.838	190.020	66.991	-45.845	-40.961	-40.123	-33.715	122.302	-36.882	-8191	255	
8520.916	1	1	0	0	0.23878	0.30153	0.11754	0.033268	0.12159	0.39337	0.21853	0.18064	0.34325	0.19633	0.31323	0.26332	0.28921	0.26577	0.095473	0.1503	-2.2896	-2.6771	-2.0042	-2.9708	-2.4479	-2.2771	-3.2083	-2.4708	-2.5646	-2.7583	-2.325	-2.9875	-2.5333	-2.2542	-3.0167	-2.375	111.945	121.612	32.054	270.398	-52.318	143.646	244.050	264.732	280.040	72.464	-24.673	268.087	225.102	294.088	44.726	-30.713	0.00016489	0.0010747	0.00021609	927.62	1.4294e-05	1.0359e-05	703.28	277.14	1.011e-06	1.0452e-05	234.3	73.268	83.787	27.62	1.3067e-05	32.95	0.0023755	0.0025158	0.00071366	1072.3	2.7183e-05	2.759e-05	781.08	299.54	2.6891e-05	2.7553e-05	276.64	88.267	104.45	32.326	2.7437e-05	39.627	173.386	73.159	82.584	-48.599	85.536	-16.353	-49.233	-43.922	135.631	53.389	-45.530	-41.652	-39.600	-33.695	78.150	-37.027	-8191	255	
8521.012	1	1	0	0	0.26822	0.2894	0.32087	0.12842	0.15432	0.094256	0.39836	0.080013	0.2465	0.24245	0.15175	0.144	0.28871	0.20744	0.07376	0.091053	-2.2208	-2.775	-1.9625	-2.8604	-2.7812	-2.0187	-3.0125	-2.4729	-2.5312	-2.9229	-2.1312	-2.6688	-2.6708	-2.2375	-2.9354	-2.4188	244.446	97.344	117.975	211.074	-43.669	193.574	271.108	201.135	29.932	121.398	-42.392	-46.087	-51.052	193.528	205.742	177.254	1.3964e-05	0.00096462	0.00016236	930.61	5.5719e-06	1.0016e-05	710.55	278.85	2.5882e-06	2.7304e-06	235.01	74.272	83.34	28.009	7.0927e-06	33.338	0.0023582	0.0024986	0.00069477	1068.9	2.6828e-05	2.7451e-05	784.16	300.22	2.6839e-05	2.7245e-05	277.3	89.141	104.97	32.682	2.7121e-05	39.861	119.544	2.682	-9.748	-48.190	160.495	128.437	-49.221	-43.654	115.928	57.511	-45.732	-41.441	-39.301	-33.884	35.181	-36.882	-8191	255	
8521.108	1	1	0	0	0.17153	0.10413	0.18629	0.12925	0.073364	0.11641	0.18458	0.1916	0.064135	0.18795	0.14298	0.22975	0.16088	0.21187	0.2358	0.19206	-1.6396	-2.8333	-2.2875	-2.8438	-2.8208	-2.2479	-3.0854	-2.5208	-2.2958	-2.7438	-2.2917	-2.6083	-2.7375	-2.2771	-2.9479	-2.5875	16.886	75.036	91.509	230.812	46.056	-28.339	-30.095	266.386	163.494	140.231	-31.383	240.947	44.325	78.507	-23.689	96.288	8.3846e-05	0.00045412	0.00013674	933.78	4.6029e-06	1.3063e-05	710.65	279.45	3.1971e-06	9.9702e-06	235.18	74.209	82.736	27.718	6.4927e-06	32.852	0.0023357	0.0024861	0.00068451	1073	2.6715e-05	2.6927e-05	782.67	300.03	2.64e-05	2.694e-05	275.44	87.869	104.15	32.293	2.6514e-05	39.276	144.651	281.103	9.036	-48.704	54.376	47.582	-49.412	-43.355	-45.234	193.740	-45.379	-41.174	-39.887	-34.233	110.280	-37.091	-8191	255	
8521.180	1	1	0	0	0.17009	0.22627	0.069172	0.15608	0.3053	0.11923	0.46054	0.19489	0.19633	0.12253	0.14839	0.12055	0.038677	0.13653	0.16076	0.18361	-1.9271	-2.7771	-2.3208	-2.4938	-2.9208	-2.0896	-2.9188	-2.775	-2.0417	-2.7625	-2.25	-2.4	-2.7687	-2.1208	-2.6813	-2.5667	111.241	174.283	9.322	241.941	-40.586	-9.276	240.551	246.998	-10.898	119.692	-59.105	259.093	260.186	101.212	-52.959	-38.465	9.4307e-05	0.00065704	0.00037718	924.06	4.6032e-06	1.0983e-05	705.19	277.05	1.3014e-05	1.1474e-06	234.96	73.651	82.833	27.872	6.6801e-06	33.119	0.0023062	0.0024287	0.00067068	1061.5	2.6468e-05	2.6551e-05	774.11	297.87	2.6277e-05	2.6645e-05	274.15	87.881	104.49	32.262	2.626e-05	39.306	101.576	-26.551	61.610	-48.765	141.524	-11.487	-49.053	-43.431	-5.282	-57.716	-45.520	-41.305	-39.489	-33.915	35.217	-37.097	-8191	255	
8521.301	1	1	0	0	0.28143	0.062819	0.19381	0.20654	0.093748	0.2094	0.075856	0.097787	0.085453	0.24811	0.22337	0.28091	0.2335	0.23651	0.075719	0.16554	-1.7208	-2.925	-2.2896	-2.5521	-2.8958	-2.1146	-2.7792	-2.8625	-2.1646	-2.9042	-2.55	-2.4437	-3.0333	-2.4	-2.6375	-2.8729	132.930	-22.882	256.406	233.761	78.488	13.298	180.500	174.428	125.392	121.335	-46.790	-56.435	-26.364	-14.959	60.153	140.554	0.00026245	0.00039476	0.00029295	932.16	3.8445e-06	8.828e-06	712.39	279.22	5.5264e-06	1.6139e-05	236.14	74.476	84.209	27.812	9.5077e-06	33.152	0.0023237	0.0024139	0.00066613	1067.9	2.6683e-05	2.6555e-05	778.51	300.38	2.6442e-05	2.66e-05	275.6	88.825	105.22	32.5	2.6333e-05	39.544	69.880	285.035	-41.274	-47.895	270.725	95.371	-49.115	-43.683	167.386	-18.452	-45.594	-41.398	-39.383	-33.718	152.523	-37.183	-8191	255	
8521.397	1	1	0	0	0.11511	0.094009	0.15458	0.10069	0.14251	0.084783	0.21179	0.20043	0.099643	0.12575	0.23501	0.26381	0.1885	0.10574	0.10883	0.13208	-1.5938	-2.8271	-2.3771	-2.3542	-2.9271	-2.4083	-2.7521	-3.0917	-2.0917	-2.7917	-2.7042	-2.2958	-3.1	-2.5187	-2.4062	-2.9917	274.426	128.684	111.872	-20.458	271.051	-45.212	293.123	58.793	8.141	40.532	31.458	259.676	-10.689	148.742	-2.765	249.220	0.00017045	0.0017123	0.00041586	932.48	1.6621e-05	1.6819e-05	713.07	280.5	6.1777e-06	7.423e-06	237.92	75.146	84.116	27.916	3.6945e-06	33.112	0.0023212	0.0024294	0.00067143	1070.1	2.6573e-05	2.6605e-05	782.59	302.37	2.6647e-05	2.6522e-05	277.93	89.652	105.84	32.554	2.6622e-05	39.655	129.098	42.968	-30.884	-48.513	130.425	45.318	-49.039	-43.414	-47.798	43.587	-45.545	-41.589	-39.491	-34.000	73.565	-37.050	-8191	255	
8521.493	1	1	0	0	0.1543	0.029	0.22237	0.12831	0.35376	0.069628	0.18154	0.46867	0.02387	0.042602	0.06973	0.1186	0.14501	0.26099	0.074686	0.043858	-1.9	-2.7917	-2.6688	-2.2917	-2.8646	-2.3563	-2.5479	-2.9292	-2.3917	-2.6375	-2.8312	-2.0542	-2.9562	-2.4542	-2.425	-3.0354	167.135	6.366	-52.204	13.354	-16.314	275.185	217.979	199.714	159.098	164.791	201.593	98.471	272.997	19.066	207.564	31.035	0.00024598	0.00092535	0.00015931	931.02	4.1682e-06	1.4061e-05	713.14	280.37	4.8998e-06	8.6178e-06	236.85	74.021	84.375	28	2.1052e-06	33.064	0.0023202	0.00241	0.00067586	1072.4	2.6575e-05	2.6422e-05	784.18	302.09	2.6502e-05	2.6269e-05	276.45	88.854	105.32	32.292	2.636e-05	39.189	117.289	295.412	67.726	-48.080	35.719	277.084	-49.102	-43.651	229.788	79.886	-46.049	-41.434	-39.900	-34.196	208.163	-36.998	-8191	255	
8521.612	1	1	0	0	0.054067	0.062536	0.090137	0.33305	0.10127	0.25345	0.25641	0.25014	0.15271	0.13295	0.1152	0.18444	0.13128	0.34263	0.040115	0.27195	-1.8542	-2.5792	-2.5625	-2.2562	-2.9375	-2.5875	-2.5229	-3.1229	-2.1729	-2.6021	-2.7938	-2.1646	-2.7104	-2.5521	-2.2792	-3.0458	-23.684	-4.396	184.442	-26.102	-23.954	234.773	279.802	197.757	58.282	14.283	233.136	57.284	277.301	189.397	147.762	235.468	5.2657e-05	0.0014397	0.00017765	923.73	3.2059e-06	7.3934e-06	705.16	279.45	1.0557e-05	7.6152e-06	231.72	73.843	83.375	27.803	7.9566e-06	32.595	0.0022901	0.0023824	0.00066722	1063.8	2.6384e-05	2.5993e-05	772.72	300.37	2.5938e-05	2.592e-05	273	87.918	104.22	32.111	2.6279e-05	38.978	199.431	40.197	-46.618	-48.247	115.358	297.378	-49.392	-43.882	-52.981	-4.472	-46.073	-41.211	-39.412	-34.409	66.795	-37.033	-8191	255	
8521.708	1	1	0	0	0.078136	0.22499	0.13491	0.26555	0.061671	0.34955	0.13865	0.13325	0.33289	0.21719	0.17071	0.11548	0.015607	0.017274	0.17185	0.23834	-1.6917	-2.5708	-2.8729	-2.1042	-2.7812	-2.5333	-2.2417	-3.0438	-2.2521	-2.3708	-2.9792	-2.1042	-2.8042	-2.7562	-2.2292	-3.0583	163.505	276.541	57.147	51.661	120.892	273.060	155.479	281.953	-35.286	261.858	232.026	245.822	244.475	-5.431	-37.053	256.444	5.1843e-05	0.00067988	0.00021391	930.78	5.9591e-06	3.2867e-06	709.34	280.56	1.2194e-06	3.4822e-06	235.63	74.406	83.467	27.782	3.5484e-06	33.081	0.0022443	0.0023658	0.0006679	1062.8	2.5787e-05	2.6122e-05	776.17	300.65	2.5672e-05	2.6056e-05	274.88	88.068	104.21	32.196	2.6322e-05	39.123	69.401	198.298	32.464	-48.612	74.680	55.290	-49.118	-43.545	220.621	98.402	-45.674	-41.234	-39.687	-34.255	133.190	-37.147	-8191	255	
8521.781	1	1	0	0	0.34368	0.17899	0.28312	0.15654	0.18151	0.2931	0.20945	0.081203	0.075607	0.11807	0.097965	0.41816	0.24474	0.023954	0.1155	0.15706	-1.8667	-2.4333	-2.9146	-2.3667	-2.6958	-2.9021	-2.2396	-3.0042	-2.5187	-2.4958	-2.9917	-2.3167	-2.9042	-2.7354	-2.1854	-2.9417	32.139	-38.559	90.007	220.924	27.226	107.837	272.782	257.957	241.449	-57.656	174.112	245.786	9.043	30.855	41.726	206.897	0.00027482	0.00047954	0.00032458	927.54	4.502e-06	1.031e-05	709.3	280.17	4.6286e-06	2.1508e-05	236.1	75.092	84.575	27.897	2.1116e-06	33.104	0.0022522	0.0023828	0.0006655	1062.7	2.5748e-05	2.594e-05	778.71	300.77	2.552e-05	2.612e-05	275.57	88.482	104.46	32.355	2.6083e-05	39.21	135.507	36.512	229.863	-48.106	133.751	33.367	-49.199	-43.490	146.751	103.457	-45.625	-41.392	-39.916	-33.974	122.380	-36.967	-8191	255	
8521.900	1	1	0	0	0.1405	0.20528	0.073608	0.19988	0.13792	0.077819	0.23455	0.15901	0.12131	0.23994	0.15238	0.14353	0.031967	0.14112	0.096675	0.18862	-2.1417	-2.2146	-2.9479	-2.2625	-2.6312	-2.7896	-2.4208	-3.0271	-2.55	-2.3	-3.1104	-2.3292	-2.6146	-2.9792	-2.2313	-2.9167	127.233	39.267	126.725	275.633	103.581	21.460	198.600	175.473	119.313	59.065	168.763	43.412	7.373	161.509	252.905	-59.042	0.00015862	0.0012378	0.0002034	939.01	6.2511e-06	1.3425e-05	710.71	281.37	3.9827e-06	1.6908e-05	237.63	74.438	83.721	28.056	9.8681e-06	33.236	0.0022265	0.0023936	0.00066238	1065.1	2.5726e-05	2.6101e-05	778.87	301.79	2.5508e-05	2.6001e-05	276.44	88.469	104.36	32.435	2.5821e-05	39.233	150.695	78.925	293.715	-47.906	128.171	-17.180	-49.274	-43.308	61.599	97.215	-46.072	-41.405	-39.567	-34.002	10.814	-36.879	-8191	255	
8521.996	1	1	0	0	0.084721	0.071178	0.13957	0.091327	0.037754	0.071381	0.2485	0.19946	0.16838	0.14456	0.03086	0.24886	0.11444	0.22186	0.31258	0.13506	-2.2229	-2.2208	-2.8812	-2.4333	-2.5938	-3.0312	-2.2625	-3.0104	-2.5938	-1.9875	-2.9146	-2.3083	-2.525	-3.1667	-2.2604	-2.7604	-22.246	271.500	269.352	102.206	181.241	-47.388	-57.154	169.515	68.795	-20.163	150.051	168.385	-0.431	76.021	164.090	165.259	0.0001614	0.00064075	0.00016742	927.15	1.1201e-05	1.2573e-05	705.66	279.89	5.5867e-06	9.4332e-06	234.62	73.588	83.101	27.84	3.5621e-06	32.896	0.0022122	0.0023704	0.00065848	1054.2	2.5615e-05	2.5879e-05	772.07	299.71	2.5334e-05	2.5766e-05	272.91	87.127	103.59	32.186	2.5481e-05	38.79	137.515	37.832	232.812	-48.423	153.848	92.500	-49.093	-43.628	4.342	39.695	-45.454	-41.311	-39.078	-34.270	40.187	-36.995	-8191	255	
8522.092	1	1	0	0	0.091444	0.11114	0.013537	0.10534	0.29047	0.13283	0.087574	0.23602	0.055872	0.13336	0.10059	0.19167	0.10467	0.26688	0.098913	0.20989	-2.4437	-2.2271	-2.8604	-2.5833	-2.3646	-3.0729	-2.4625	-2.7708	-2.7313	-2.2625	-3.1562	-2.5896	-2.3438	-3.0271	-2.4375	-2.6833	193.811	119.366	225.250	259.607	287.635	101.961	11.019	266.706	125.351	33.709	214.717	156.358	-15.921	-56.916	78.926	40.817	9.1241e-05	0.00052902	5.2846e-05	920.18	3.1709e-06	5.6915e-06	707.67	281	2.0139e-06	1.1584e-05	236.61	74.563	83.797	27.879	4.3666e-06	32.857	0.0022149	0.0023571	0.00064472	1051.2	2.5619e-05	2.5761e-05	771.78	299.81	2.548e-05	2.5856e-05	273.83	87.863	104.39	32.303	2.5379e-05	39.044	140.426	-2.041	184.731	-48.390	225.601	26.380	-49.293	-43.593	182.552	50.947	-45.579	-40.633	-39.714	-34.184	83.061	-36.498	-8191	255	
8522.213	1	1	0	0	0.22333	0.12289	0.206	0.14331	0.25371	0.26801	0.16856	0.16215	0.0805	0.15326	0.034313	0.32796	0.19382	0.20901	0.17057	0.23379	-2.6271	-2.2313	-2.7375	-2.575	-2.2792	-2.8417	-2.4375	-2.6792	-3.1729	-2.2438	-3.075	-2.6417	-2.4146	-3.0417	-2.2833	-2.4625	10.078	198.955	275.818	-60.335	214.610	67.930	210.367	211.556	165.429	45.011	268.500	187.930	58.125	218.072	94.264	195.490	0.00029876	0.0016153	0.00010198	921.65	7.3875e-06	3.779e-06	705.92	279.38	1.2066e-05	1.0481e-05	236.04	74.67	84.259	28.105	1.5759e-06	33.149	0.0022439	0.002348	0.00065175	1055.1	2.586e-05	2.5858e-05	774.41	299.86	2.5765e-05	2.585e-05	275.2	88.616	104.97	32.409	2.5658e-05	39.309	171.929	22.138	7.919	-48.712	263.978	130.180	-49.346	-43.404	186.580	71.213	-45.597	-41.281	-39.248	-34.122	190.473	-37.090	-8191	255	
8522.309	1	1	0	0	0.18854	0.12922	0.22182	0.11451	0.1105	0.24664	0.1033	0.13444	0.062705	0.18963	0.0041901	0.046262	0.083346	0.129	0.12369	0.13528	-2.3729	-2.1208	-2.8187	-2.8438	-2.1833	-2.9375	-2.5917	-2.6	-3.1	-2.2208	-2.8688	-2.6458	-2.1312	-2.9646	-2.6188	-2.3812	154.794	258.120	208.549	-27.739	224.814	164.165	93.317	267.718	165.039	7.543	250.118	-22.500	220.258	246.746	245.416	92.210	0.00010888	0.00047823	0.00020003	926.53	3.977e-06	1.0058e-05	711.52	280.59	6.1641e-06	1.6313e-05	239.19	75.423	84.435	28.346	5.0858e-06	33.776	0.0022614	0.0023495	0.00065389	1059.8	2.6207e-05	2.5974e-05	777.45	302.06	2.5897e-05	2.6048e-05	277.47	89.195	105.3	32.652	2.5723e-05	39.732	221.258	126.289	280.706	-48.496	199.396	89.822	-49.326	-43.432	186.859	209.312	-45.706	-41.490	-38.911	-34.154	145.438	-36.836	-8191	255	
8522.405	1	1	0	0	0.070428	0.1686	0.095471	0.24097	0.074466	0.15653	0.19437	0.18572	0.083038	0.14649	0.26327	0.11521	0.14129	0.27038	0.13599	0.24612	-2.6229	-2.1208	-2.5896	-2.8542	-2.1917	-3.0396	-2.6063	-2.3583	-2.9062	-2.4271	-2.6375	-2.8312	-2.2625	-2.8125	-2.575	-2.2771	135.558	31.812	202.944	241.043	99.369	133.673	227.184	226.349	15.004	-23.434	69.047	-37.319	225.116	244.400	161.575	184.502	0.00029142	0.00063269	0.00026884	936.24	9.8726e-06	7.4641e-06	711.33	282.11	2.5742e-06	6.5602e-06	235.96	75.192	83.938	27.953	7.2415e-06	32.98	0.0022898	0.0023586	0.00066134	1066.9	2.6152e-05	2.5759e-05	777.06	302.37	2.587e-05	2.577e-05	275.9	88.642	104.8	32.376	2.5868e-05	39.274	98.441	265.874	5.110	-48.077	139.805	153.939	-49.121	-43.526	87.700	164.696	-45.296	-41.073	-39.777	-34.073	129.183	-36.680	-8191	255	
8522.477	1	1	0	0	0.20562	0.1135	0.060883	0.11418	0.11227	0.039077	0.13421	0.30628	0.13355	0.06958	0.1824	0.084099	0.068342	0.12326	0.043327	0.1951	-2.6146	-2.3833	-2.3854	-3.0083	-2.0375	-2.8542	-2.7646	-2.3229	-2.9792	-2.35	-2.4521	-3.0646	-2.2458	-2.7458	-2.5896	-2.2458	65.604	130.548	59.583	284.391	43.770	-50.441	296.084	215.602	73.242	225.544	195.902	131.232	-38.570	118.236	179.506	147.784	0.00021077	0.00058719	0.00019785	926.21	4.2691e-06	4.3674e-06	703.82	279.27	9.1131e-06	3.4022e-06	236.6	74.468	84.293	28.092	7.1682e-06	33.037	0.0022598	0.0023346	0.00065469	1060.9	2.5772e-05	2.5345e-05	773.44	301.16	2.5541e-05	2.5547e-05	275.31	88.345	104.83	32.394	2.5992e-05	39.331	82.075	155.126	180.158	-48.126	122.836	-24.495	-49.458	-43.392	64.633	27.602	-45.428	-41.494	-39.828	-33.992	-59.583	-36.414	-8191	255	
8522.596	1	1	0	0	0.13232	0.026561	0.052606	0.093692	0.13754	0.24058	0.42083	0.12553	0.10996	0.21247	0.073933	0.16032	0.30255	0.15004	0.20701	0.062456	-2.5271	-2.3229	-2.2521	-2.8708	-2.1688	-2.6604	-2.9813	-2.1958	-2.7812	-2.3646	-2.4292	-2.9917	-2.2292	-2.7646	-2.6729	-2.0812	24.552	217.218	292.247	226.394	106.301	289.347	222.406	156.600	105.370	122.225	279.717	212.157	267.130	-33.563	43.025	213.140	2.6334e-05	0.0016129	0.00056441	924.35	6.9823e-06	9.4079e-06	711.13	281.19	1.181e-05	1.6623e-05	237.24	75.201	84.085	28.172	8.8208e-06	33.526	0.0022377	0.0023598	0.00066508	1060	2.5856e-05	2.585e-05	777.66	301.61	2.5438e-05	2.5894e-05	276.86	88.882	104.49	32.496	2.6234e-05	39.601	92.271	124.109	11.520	-48.399	179.804	248.478	-49.086	-43.473	31.311	-33.017	-45.555	-41.252	-39.318	-33.584	164.867	-36.999	-8191	255	
8522.692	1	1	0	0	0.10538	0.21252	0.26981	0.10244	0.19314	0.16438	0.13203	0.44834	0.26545	0.26288	0.10063	0.189	0.24305	0.22091	0.14479	0.060241	-2.5042	-2.4042	-2.05	-2.8438	-2.3292	-2.5729	-3.0646	-2.4292	-2.8667	-2.7188	-2.2417	-3.1604	-2.1896	-2.5062	-2.95	-2.0729	9.872	293.693	-4.083	209.491	291.403	277.151	197.936	247.721	237.698	274.364	130.668	26.566	180.219	-57.017	250.884	119.690	0.00022351	0.0013774	7.9296e-05	927.5	1.9499e-06	4.277e-06	710.42	280.69	4.9365e-06	6.8406e-06	239.73	75.584	84.102	28.319	3.9798e-06	33.565	0.0022409	0.0023779	0.00067224	1062.2	2.5726e-05	2.6171e-05	779.96	301.7	2.5577e-05	2.6107e-05	279.16	89.636	105.24	32.834	2.6366e-05	39.909	169.515	73.242	227.177	-48.090	228.086	118.791	-49.505	-43.444	199.894	-54.358	-45.581	-41.593	-39.254	-33.801	153.603	-36.598	-8191	255	
8522.788	1	1	0	0	0.17269	0.2272	0.060977	0.25511	0.029164	0.092732	0.16063	0.13208	0.22288	0.17758	0.13643	0.09572	0.1867	0.08906	0.027791	0.077682	-2.3729	-2.7833	-2.2167	-2.9854	-2.4646	-2.5438	-2.925	-2.3417	-2.6771	-2.8833	-2.3	-2.7625	-2.6646	-2.3271	-2.9625	-2.4583	43.827	284.241	46.775	190.737	14.363	272.248	143.595	35.966	207.773	291.915	71.945	113.344	248.608	207.332	-1.933	51.964	0.00028899	0.00096261	0.00032104	929.93	8.7556e-06	2.152e-06	712.53	281.39	5.7033e-06	1.1743e-05	239.06	75.936	85.193	28.45	8.5172e-06	33.203	0.002261	0.0024019	0.0006758	1065.4	2.6014e-05	2.6509e-05	783.65	302.68	2.5781e-05	2.6361e-05	278.61	89.691	105.42	32.809	2.6197e-05	39.496	118.131	255.510	137.130	-48.410	217.524	88.117	-49.229	-43.775	134.965	111.151	-45.385	-41.233	-40.045	-33.557	-58.491	-36.869	-8191	255	
8522.884	1	1	0	0	0.25141	0.14943	0.235	0.15241	0.076462	0.10445	0.16804	0.26046	0.13159	0.17852	0.21607	0.053074	0.1443	0.34263	0.13241	0.21356	-2.1792	-2.7313	-2.1854	-2.8979	-2.5542	-2.3042	-3.0979	-2.5312	-2.4125	-2.8083	-2.0896	-2.7125	-2.6854	-2.2583	-3.0354	-2.3417	131.899	110.475	243.473	276.142	-2.394	-58.985	236.265	-40.627	-43.428	288.113	215.961	43.213	225.094	-32.052	124.564	165.869	0.00017509	0.00065515	5.9279e-05	930.17	1.084e-05	8.6684e-06	711.8	281.75	4.9303e-06	1.1958e-05	237.19	75.082	84.654	28.193	4.2381e-06	33.26	0.0022412	0.0024042	0.00066908	1059.2	2.5833e-05	2.6413e-05	776.01	301.23	2.5628e-05	2.6254e-05	275.84	88.801	105.13	32.572	2.6002e-05	39.263	260.157	-7.319	171.486	-48.113	112.626	180.922	-49.124	-43.445	217.543	90.163	-45.293	-41.459	-39.475	-33.845	113.868	-36.881	-8191	255	
8523.005	1	1	0	0	0.25502	0.19375	0.095447	0.33172	0.072019	0.18262	0.27722	0.080975	0.041724	0.33019	0.046645	0.24578	0.18453	0.072721	0.2091	0.11487	-2.1021	-2.7396	-2.1562	-3	-2.5458	-2.0292	-3.0417	-2.4708	-2.4167	-2.8271	-2.2271	-2.8521	-2.7833	-2.1625	-2.9875	-2.6042	197.713	-33.032	119.365	283.339	36.917	178.949	281.315	-29.769	-41.275	137.631	287.136	224.647	-27.965	261.914	-5.704	276.000	0.00029734	0.00063694	9.2081e-05	922.59	3.5241e-06	5.813e-06	707.43	279.9	1.1235e-05	7.3197e-06	236.59	74.985	84.424	28.184	5.2961e-06	33.292	0.0022608	0.0023975	0.00066128	1056.3	2.6063e-05	2.6499e-05	775.84	300.39	2.6119e-05	2.6428e-05	275.85	88.838	105.06	32.559	2.5962e-05	39.474	148.291	48.025	194.393	-47.937	195.750	76.818	-49.614	-43.687	-44.473	275.194	-45.335	-41.398	-39.497	-33.868	36.493	-36.581	-8191	255	
8523.077	1	1	0	0	0.1347	0.13104	0.17051	0.22515	0.36563	0.13204	0.33102	0.10167	0.32249	0.22406	0.072795	0.15116	0.16282	0.20104	0.12742	0.1114	-1.8979	-2.7833	-1.9146	-2.8375	-2.6104	-2.2375	-2.8854	-2.6583	-2.3229	-3.0938	-2.5646	-2.625	-2.9229	-2.2896	-2.7687	-2.6625	257.890	88.835	265.074	210.805	293.036	258.466	226.259	176.083	177.468	255.094	225.581	207.954	202.871	250.743	125.672	165.001	9.2269e-05	0.00046544	0.00028167	928.99	2.9485e-06	9.2617e-06	710.64	280.63	2.3701e-06	9.6001e-06	238.33	74.769	84.431	28.067	1.3308e-05	33.654	0.0022867	0.0023994	0.00066001	1060.8	2.6429e-05	2.6559e-05	778.66	301.28	2.6331e-05	2.6459e-05	277.44	89.198	105.5	32.675	2.6075e-05	39.805	66.058	46.203	294.702	-48.109	10.323	1.500	-49.127	-43.707	190.303	-37.769	-45.565	-41.173	-39.903	-33.692	101.174	-37.340	-8191	255	
8523.173	1	1	0	0	0.11265	0.15969	0.22316	0.079479	0.1586	0.039307	0.18013	0.12544	0.17486	0.42851	0.089268	0.4805	0.12288	0.068745	0.0921	0.10963	-1.9208	-2.8146	-2.1937	-2.6042	-2.975	-2.0604	-3.0812	-2.8646	-2.2313	-2.9667	-2.325	-2.5625	-3.0417	-2.2667	-2.6979	-2.6583	166.893	34.405	-59.896	-47.948	271.137	3.000	48.933	283.141	-56.030	210.225	174.782	166.634	-12.894	44.712	0.921	-33.960	0.00010512	0.00082562	0.00018805	938.99	4.2936e-06	1.6775e-05	715.01	281.8	5.2561e-06	6.0696e-06	238.75	75.669	84.579	28.193	1.0343e-05	33.346	0.0023127	0.0024096	0.00066399	1066	2.6506e-05	2.6388e-05	782.27	302.52	2.6386e-05	2.6258e-05	278.39	89.729	105.79	32.661	2.6128e-05	39.782	72.260	-2.759	-47.235	-48.098	5.036	89.299	-49.109	-43.573	133.275	27.262	-45.463	-40.905	-39.696	-33.627	175.609	-37.153	-8191	255	
8523.293	1	1	0	0	0.11171	0.082216	0.037949	0.16455	0.10374	0.032333	0.030665	0.12635	0.19013	0.21306	0.14665	0.088541	0.088963	0.097177	0.078053	0.085683	-1.7292	-2.9229	-2.4042	-2.4708	-2.9729	-2.2479	-2.7604	-2.9	-2.2542	-2.775	-2.6042	-2.4146	-2.85	-2.3729	-2.5292	-2.8979	243.468	155.722	150.932	265.223	43.755	90.999	172.847	240.475	108.158	109.814	65.983	-23.129	61.097	83.933	263.058	294.439	0.00016509	0.00085333	0.00026052	924.48	5.1732e-06	6.1355e-06	707.11	280.92	1.2154e-05	1.0934e-05	235.55	74.838	83.736	28.096	1.1703e-05	33.309	0.002301	0.0023752	0.00066473	1060.8	2.619e-05	2.5832e-05	775.11	301.18	2.5982e-05	2.5933e-05	274.79	88.643	104.73	32.376	2.596e-05	39.43	124.057	104.031	47.197	-48.024	25.785	85.156	-49.230	-43.411	110.813	165.595	-45.696	-40.953	-39.181	-33.933	272.989	-36.833	-8191	255	
8523.390	1	1	0	0	0.22928	0.18184	0.044944	0.28407	0.257	0.13804	0.16406	0.32159	0.16312	0.11516	0.10787	0.1311	0.094303	0.14189	0.076128	0.16178	-1.7729	-2.8854	-2.4167	-2.3792	-2.85	-2.3667	-2.7375	-2.8063	-2.1937	-2.9292	-2.65	-2.3229	-2.9521	-2.4604	-2.6354	-3.0208	232.136	235.359	45.183	265.593	101.390	163.967	159.537	232.894	189.640	244.048	159.756	-24.345	-55.294	9.565	249.053	264.317	2.8056e-05	0.00092202	9.6916e-05	920.15	7.8402e-06	5.2449e-06	708.21	280.21	4.4645e-06	1.0069e-05	236.77	75.166	84.604	28.17	3.5577e-06	33.522	0.0022643	0.0023561	0.00066033	1057.2	2.6011e-05	2.573e-05	776.43	300.87	2.6056e-05	2.5955e-05	276.27	89.153	105.13	32.505	2.6522e-05	39.684	92.618	8.492	92.062	-48.391	27.346	-5.527	-49.115	-43.680	217.874	15.225	-45.498	-41.099	-39.602	-33.755	38.897	-36.751	-8191	255	
8523.486	1	1	0	0	0.12675	0.24519	0.090386	0.23551	0.12126	0.16049	0.4131	0.24762	0.047499	0.23877	0.23881	0.28114	0.030574	0.35443	0.12784	0.22814	-1.775	-2.8271	-2.6604	-2.2417	-2.9396	-2.5771	-2.5771	-3.0958	-2.2687	-2.8771	-2.8021	-2.2979	-2.9417	-2.6188	-2.3708	-2.9333	-7.970	219.238	216.003	265.493	157.724	52.073	274.462	265.810	202.298	108.429	81.539	-58.651	250.171	259.108	-17.155	-52.246	0.0002323	7.0655e-05	0.0001162	924.32	2.744e-06	8.5515e-06	713.69	280.93	3.9576e-06	5.9785e-06	238.26	74.724	84.182	28.054	8.6981e-06	33.485	0.0022801	0.0023835	0.00067441	1062.2	2.6315e-05	2.6083e-05	779.27	301.94	2.6124e-05	2.6284e-05	278.28	89.179	104.69	32.597	2.6736e-05	39.867	97.122	53.510	-12.542	-47.831	93.899	59.681	-49.004	-43.600	116.339	289.433	-45.589	-41.119	-39.229	-33.817	-38.227	-37.025	-8191	255	
8523.582	1	1	0	0	0.13313	0.11576	0.010582	0.10129	0.24708	0.17688	0.17468	0.33013	0.272	0.14309	0.12054	0.26531	0.076191	0.25712	0.1412	0.1925	-1.725	-2.7396	-2.7958	-2.5458	-2.9083	-2.4583	-2.4167	-2.9896	-2.2771	-2.7375	-2.9042	-2.2917	-2.9479	-2.6396	-2.1792	-2.9625	34.941	-51.132	108.370	252.852	47.148	122.709	284.904	-46.993	17.361	146.391	116.385	273.673	196.053	273.629	167.847	224.311	0.00012985	0.00076264	8.0287e-05	930.58	1.6809e-06	2.3007e-06	710.55	282.09	3.8153e-06	4.6433e-06	237.64	74.951	84.087	28.286	5.6304e-06	33.758	0.0022751	0.002421	0.00067891	1065.7	2.6245e-05	2.6385e-05	781.83	302.88	2.5999e-05	2.6364e-05	278.98	89.684	105.05	32.747	2.6782e-05	39.979	61.572	240.515	209.006	-47.983	119.167	219.752	-49.136	-43.466	190.745	183.781	-45.915	-41.059	-38.852	-33.922	25.759	-36.846	-8191	255	
8523.676	1	1	0	0	0.095144	0.33431	0.22481	0.24358	0.28852	0.17011	0.27089	0.41879	0.18789	0.1091	0.12686	0.22185	0.38263	0.11921	0.36936	0.16151	-1.8375	-2.4167	-2.7708	-2.2771	-2.7521	-2.775	-2.3354	-2.9042	-2.4125	-2.4771	-3.1354	-2.1333	-2.85	-2.6396	-2.2396	-3.0708	202.153	118.921	245.472	296.082	232.233	-21.308	271.738	253.337	250.307	107.922	-2.717	276.920	-47.412	-0.853	12.123	246.757	0.00029435	0.00080227	0.00051352	925.6	1.3288e-05	1.2337e-05	708.98	281.01	3.3409e-06	7.9645e-06	235.27	75.032	84.095	28.279	9.1396e-06	32.868	0.0022664	0.0024236	0.00067937	1062.4	2.6116e-05	2.6425e-05	778.07	301.22	2.5844e-05	2.6409e-05	276.68	88.507	104.35	32.621	2.6285e-05	39.206	162.963	120.099	114.177	-48.215	1.400	69.664	-48.943	-43.538	77.568	125.058	-45.062	-41.262	-39.558	-33.838	84.601	-36.645	-8191	255	
8523.773	1	1	0	0	0.20323	0.19891	0.084222	0.27231	0.026785	0.065378	0.022813	0.12469	0.22731	0.11171	0.13284	0.30298	0.03094	0.23748	0.17085	0.16092	-1.9062	-2.3312	-2.9146	-2.3	-2.6292	-2.8083	-2.5312	-2.9583	-2.4313	-2.4354	-2.9854	-2.2	-2.6896	-2.8312	-2.0521	-3.05	185.984	183.487	44.466	235.995	-55.705	255.666	16.677	280.342	54.255	89.608	242.187	256.324	242.191	266.274	277.535	94.089	9.8986e-05	0.0011312	0.00031283	911.7	6.6796e-06	4.6313e-06	705.28	280.4	5.3956e-06	1.0997e-05	237.45	74.171	84.214	28.193	5.0617e-06	33.49	0.002247	0.0024183	0.00066798	1052.4	2.5773e-05	2.6311e-05	774.47	300.54	2.5896e-05	2.6444e-05	275.85	88.208	104.51	32.651	2.6206e-05	39.504	88.657	-16.762	57.045	-48.131	59.342	36.762	-49.411	-43.573	206.153	53.065	-45.361	-41.001	-39.216	-33.620	168.815	-36.591	-8191	255	
8523.893	1	1	0	0	0.12621	0.088764	0.053336	0.11535	0.19131	0.13614	0.20342	0.20401	0.21553	0.20032	0.40406	0.10927	0.11367	0.24319	0.24787	0.21429	-2.1417	-2.2292	-2.9333	-2.2687	-2.4896	-2.9083	-2.2458	-2.8521	-2.4188	-2.3458	-3.0583	-2.1458	-2.4292	-2.9688	-2.0687	-2.9458	3.724	89.204	298.408	214.839	29.777	25.657	249.810	138.790	253.259	11.913	-38.802	-9.557	277.110	242.312	209.386	227.142	8.5148e-05	0.0018122	0.00019984	925.96	7.0877e-06	6.9825e-06	711.37	280.1	4.3094e-06	2.4007e-06	236.91	74.634	85.067	28.192	1.1046e-05	33.479	0.0022694	0.0024196	0.00066806	1053.5	2.6215e-05	2.6447e-05	777.95	300.79	2.6158e-05	2.6617e-05	276.89	88.824	105.47	32.711	2.6334e-05	39.716	186.244	216.531	72.085	-48.199	183.369	51.729	-48.965	-43.567	-41.179	63.925	-45.262	-41.097	-39.548	-33.943	116.480	-36.762	-8191	255	
8523.989	1	1	0	0	0.28578	0.27533	0.031469	0.11358	0.20595	0.26629	0.058084	0.068586	0.15051	0.14736	0.11352	0.13566	0.13209	0.15771	0.14953	0.21826	-1.9646	-2.4104	-2.9021	-2.3854	-2.4521	-2.9417	-2.1896	-2.8083	-2.6208	-2.1896	-2.9	-2.4292	-2.2729	-3.0958	-2.0854	-2.5687	186.359	209.240	188.101	291.565	184.306	-24.193	221.492	275.593	155.904	184.800	-21.180	287.471	261.668	246.142	255.184	265.789	6.9961e-05	0.00087345	0.0002898	927.04	7.876e-06	9.795e-07	711.81	280.83	3.1285e-06	1.147e-05	238.78	75.628	84.865	28.502	1.2398e-05	34.052	0.0022912	0.0024348	0.00066941	1058.1	2.6412e-05	2.6601e-05	781.1	301.96	2.6555e-05	2.6856e-05	278.59	89.694	106.58	33.022	2.6286e-05	40.166	15.790	-9.757	-27.089	-48.154	118.642	271.060	-49.126	-43.306	249.041	237.403	-45.452	-41.394	-39.168	-33.884	60.721	-36.956	-8191	255	
8524.085	1	1	0	0	0.19885	0.12047	0.21025	0.17156	0.098537	0.12932	0.22533	0.086249	0.39475	0.052045	0.18386	0.088053	0.10545	0.13853	0.19553	0.095782	-2.3833	-2.125	-2.8021	-2.3604	-2.1958	-2.8063	-2.1771	-2.7812	-2.6875	-2.2208	-2.9583	-2.6104	-2.1917	-3.0187	-2.2167	-2.725	-57.800	235.519	154.742	238.617	85.316	-4.593	56.199	-53.177	-32.035	214.118	232.255	229.786	200.798	146.234	5.899	290.862	1.4468e-05	0.00080566	0.00034944	933.23	7.3861e-06	1.3793e-05	712.81	281.25	2.425e-06	2.9588e-06	237.05	75.8	85.031	28.282	1.0186e-05	33.66	0.0023272	0.0024503	0.00067027	1062.5	2.6741e-05	2.6524e-05	780.71	303.25	2.6525e-05	2.6646e-05	277.64	89.745	106.09	32.791	2.6091e-05	39.976	28.575	45.539	249.736	-48.108	167.300	69.247	-49.181	-43.465	-50.438	39.157	-45.563	-41.225	-39.405	-33.846	72.175	-36.813	-8191	255	
8524.182	1	1	0	0	0.14186	0.14926	0.11476	0.21671	0.19448	0.084093	0.15786	0.12449	0.23418	0.20861	0.21011	0.17083	0.28111	0.27944	0.13004	0.27016	-2.3417	-2.0812	-2.875	-2.5583	-2.1292	-2.8521	-2.2854	-2.5958	-2.8438	-2.1688	-2.575	-2.775	-2.1604	-2.8708	-2.3688	-2.1979	197.767	148.323	152.090	114.162	-42.184	61.773	261.621	236.696	273.359	69.418	-28.165	39.251	271.971	260.504	277.752	231.532	8.6346e-05	0.00024564	0.00030507	924.04	8.027e-06	1.3289e-05	707.88	280.5	5.4777e-06	5.9395e-06	235.96	74.703	83.782	28.333	4.3959e-06	33.458	0.0023053	0.0024143	0.00066559	1059.6	2.6728e-05	2.6229e-05	774.14	301.55	2.6193e-05	2.611e-05	275.86	88.774	105.12	32.56	2.6074e-05	39.667	273.337	172.001	-22.167	-48.320	117.600	148.160	-49.168	-43.299	82.761	197.862	-45.361	-41.444	-39.108	-33.825	235.084	-36.790	-8191	255	
8524.302	1	1	0	0	0.22916	0.042519	0.039116	0.10987	0.25751	0.047771	0.12398	0.09715	0.1355	0.075529	0.27783	0.19869	0.08311	0.0052209	0.28791	0.36188	-2.5854	-1.9438	-2.6063	-2.7354	-2.1896	-2.8937	-2.5542	-2.5687	-3.0708	-2.1333	-2.7292	-2.6437	-2.15	-2.8396	-2.4625	-2.2667	122.984	215.824	108.910	-38.590	14.905	97.722	275.006	290.138	56.490	242.128	28.222	241.877	271.027	271.032	164.813	284.804	1.4472e-05	0.00020381	5.3756e-05	932.72	6.8059e-06	6.9889e-06	708.66	280.65	3.8981e-06	7.631e-07	235.27	74.167	84.544	28.114	5.1844e-06	33.533	0.002298	0.0023542	0.0006672	1064.3	2.6364e-05	2.5995e-05	775.97	301.78	2.6022e-05	2.6114e-05	275.83	88.64	104.83	32.507	2.5973e-05	39.68	198.357	147.959	144.890	-48.411	-44.092	64.054	-49.344	-43.449	134.601	197.060	-45.934	-41.374	-39.499	-33.785	138.041	-36.542	-8191	255	
8524.374	1	1	0	0	0.20143	0.048077	0.24201	0.03043	0.14515	0.093738	0.19395	0.37786	0.17911	0.074673	0.14055	0.14003	0.15117	0.24426	0.10037	0.14067	-2.5271	-2.1375	-2.5979	-2.7958	-2.0667	-2.8833	-2.6583	-2.3396	-3.0687	-2.3187	-2.5563	-2.8396	-2.1833	-2.9729	-2.5354	-2.1417	-6.445	64.734	274.849	58.201	158.273	-57.655	175.291	207.783	21.196	8.311	-44.163	273.903	-12.631	1.588	157.353	76.258	6.46e-05	0.0008503	0.00018037	934.76	4.8813e-06	5.6858e-06	707.88	282.82	5.44e-06	7.6012e-06	239.49	75.459	84.301	28.52	1.0395e-05	33.702	0.0022585	0.0023578	0.00066553	1065.9	2.5905e-05	2.575e-05	778.34	302.66	2.575e-05	2.58e-05	278.15	89.261	104.92	32.73	2.6215e-05	40.017	119.919	6.566	281.122	-48.281	210.845	274.264	-49.027	-43.446	189.200	207.698	-45.355	-41.145	-39.643	-33.533	104.604	-36.858	-8191	255	
8524.470	1	1	0	0	0.28001	0.10392	0.1822	0.098688	0.15454	0.036616	0.11434	0.3432	0.17575	0.2203	0.23575	0.27839	0.16225	0.088003	0.26282	0.17627	-2.4396	-2.15	-2.3583	-2.8438	-2.0833	-2.6312	-2.6354	-2.225	-3.0521	-2.4458	-2.2042	-2.9	-2.1708	-2.65	-2.8854	-2.0417	250.643	295.858	137.248	118.672	157.151	83.643	140.050	211.092	285.468	157.373	191.828	224.389	186.680	280.040	256.208	-41.244	0.00021142	0.0012667	0.00013896	933.48	1.1381e-05	6.3367e-06	713.32	283.5	7.1626e-06	8.6496e-06	239.39	75.751	85.983	28.396	1.8612e-06	33.701	0.0022327	0.0023613	0.00066793	1063	2.5812e-05	2.5853e-05	782.88	303.41	2.546e-05	2.5904e-05	278.78	89.318	105	32.756	2.6114e-05	39.778	68.306	11.021	66.686	-48.222	80.813	176.720	-49.271	-43.313	-33.800	190.952	-45.395	-40.951	-39.556	-33.484	81.961	-36.900	-8191	255	
8524.566	1	1	0	0	0.13704	0.10536	0.15792	0.20811	0.18757	0.1382	0.24781	0.30534	0.1375	0.15375	0.21989	0.23357	0.26504	0.35253	0.021017	0.15061	-2.3979	-2.4042	-2.175	-2.8729	-2.2125	-2.6333	-2.8479	-2.1583	-2.8854	-2.5938	-2.3771	-2.8792	-2.1813	-2.6188	-2.6042	-2.1479	249.432	132.590	194.819	82.395	-40.373	84.079	232.125	286.397	281.692	210.673	21.750	205.044	144.316	-44.382	12.779	144.974	0.00015768	0.00093068	6.3215e-05	928.65	8.6968e-06	1.0895e-05	707.26	279.57	3.0596e-06	4.4703e-06	237.24	74.225	83.942	28.126	6.1367e-06	33.318	0.0022169	0.0023587	0.00066245	1057.6	2.5357e-05	2.5894e-05	774.3	300.2	2.5239e-05	2.5828e-05	275.46	87.848	103.78	32.53	2.5847e-05	39.336	114.899	171.699	-8.382	-48.250	242.158	254.518	-49.385	-43.450	35.876	85.053	-45.309	-41.065	-39.265	-33.825	221.739	-36.799	-8191	255	
8524.685	1	1	0	0	0.23218	0.26851	0.096203	0.25516	0.16096	0.31889	0.058499	0.25043	0.16208	0.24392	0.28777	0.18559	0.078829	0.19884	0.20051	0.30482	-2.4021	-2.5354	-2.1688	-3.0396	-2.125	-2.55	-2.8771	-2.1	-2.7208	-2.425	-2.2833	-2.8958	-2.2875	-2.3708	-2.8646	-2.0583	-5.542	-4.719	-6.717	6.520	252.995	163.736	157.600	216.694	69.835	34.812	-45.442	34.637	52.840	166.226	20.049	237.431	9.4291e-05	0.001258	0.00034632	917.4	6.9778e-06	3.3793e-06	704.28	278.91	2.5596e-06	4.3172e-06	235.96	74.491	84.124	28.2	8.3091e-06	33.428	0.0022098	0.0023525	0.00065841	1049.1	2.5261e-05	2.5745e-05	771.62	298.61	2.5197e-05	2.5856e-05	274.95	87.722	103.48	32.516	2.5798e-05	39.472	139.181	159.505	281.341	-48.641	-28.038	-10.374	-49.111	-43.020	111.088	7.038	-45.231	-41.190	-39.096	-33.724	57.795	-36.477	-8191	255	
8524.781	1	1	0	0	0.18892	0.22305	0.14231	0.075776	0.29316	0.098641	0.13359	0.18662	0.070572	0.07106	0.049188	0.1236	0.26744	0.046277	0.2926	0.14886	-2.175	-2.65	-2.0646	-2.8354	-2.2104	-2.3083	-3.0042	-2.1229	-2.7	-2.7333	-2.2438	-2.7583	-2.4917	-2.4	-2.9125	-2.2292	230.298	61.258	161.628	-46.315	149.931	36.992	-27.788	266.786	-41.966	127.515	206.903	228.072	278.136	79.516	266.618	215.529	0.00018564	0.00039605	7.5301e-05	919.64	1.105e-05	1.8961e-06	709.83	280.43	2.7493e-06	3.1536e-06	238	75.021	83.829	28.2	8.8331e-07	33.496	0.00222	0.0023574	0.00065995	1045.2	2.5591e-05	2.5929e-05	775.01	299.06	2.5632e-05	2.5814e-05	275.84	88.244	103.81	32.578	2.5644e-05	39.702	74.137	22.273	44.371	-47.901	169.682	94.817	-49.183	-43.452	280.413	264.339	-45.347	-41.029	-39.314	-33.611	83.226	-36.741	-8191	255	
8524.877	1	1	0	0	0.34337	0.37126	0.15617	0.21057	0.20161	0.15555	0.16873	0.0882	0.17684	0.20414	0.21255	0.056651	0.11424	0.15354	0.034211	0.081395	-2.2208	-2.7208	-2.0229	-2.8771	-2.4771	-2.2917	-3.0021	-2.3917	-2.5375	-2.8438	-2.2542	-2.9333	-2.4375	-2.3937	-2.9333	-2.3896	203.719	130.848	140.352	158.564	-27.000	-43.290	131.888	227.031	135.034	138.645	158.410	30.095	77.772	3.754	284.324	151.229	0.00020545	0.00088907	0.00024082	922.15	4.6193e-06	5.63e-06	706.17	279.91	6.0195e-06	9.329e-06	237.22	74.687	83.22	28.163	5.726e-06	33.559	0.0022645	0.0023765	0.00065663	1049.5	2.5811e-05	2.611e-05	774.02	298.66	2.5994e-05	2.6086e-05	275.94	88.498	103.86	32.576	2.542e-05	39.724	174.419	90.567	200.915	-48.484	99.762	241.415	-49.110	-43.407	2.373	-10.394	-45.231	-40.867	-38.715	-33.590	140.016	-36.842	-8191	255	
8524.974	1	1	0	0	0.11168	0.0629	0.16213	0.092429	0.019092	0.10472	0.074869	0.19114	0.23106	0.24995	0.34666	0.073874	0.16499	0.11764	0.23268	0.19769	-2.1646	-3.0062	-2.0979	-2.7146	-2.6771	-2.3479	-2.8563	-2.3854	-2.2958	-2.7313	-2.2396	-2.5833	-2.6188	-2.0875	-2.8958	-2.4896	58.073	274.481	12.768	-50.832	215.912	-26.831	-51.147	298.171	-58.698	227.048	184.954	-43.348	205.992	190.223	244.044	0.951	0.00017207	0.00036818	0.00056234	922.06	4.2168e-06	8.7516e-06	701.67	278.18	8.1066e-07	1.4012e-05	234.46	73.532	83.238	27.986	1.4724e-06	33.332	0.0022573	0.0023801	0.00064833	1047.5	2.5723e-05	2.5701e-05	769.54	298.17	2.5623e-05	2.5601e-05	272.2	87.287	102.84	32.206	2.5126e-05	39.302	76.361	177.276	18.546	-48.115	258.138	292.082	-49.221	-43.810	213.138	104.580	-45.736	-41.204	-38.903	-33.671	-57.260	-36.003	-8191	255	
8525.070	1	1	0	0	0.11289	0.012468	0.23688	0.34285	0.19324	0.20699	0.16339	0.30696	0.12951	0.019873	0.14623	0.042955	0.24104	0.09268	0.25171	0.11147	-2.0479	-2.7875	-2.225	-2.7354	-2.9437	-2.2792	-2.9396	-2.6312	-2.1896	-2.8396	-2.2083	-2.6458	-2.8708	-2.025	-2.9083	-2.45	224.096	-49.131	167.691	-40.265	187.547	-55.118	94.302	244.833	237.465	-1.289	168.571	3.488	27.510	150.647	193.837	160.831	0.00018185	0.00027671	0.00019958	916.83	1.1444e-05	4.7234e-06	702.99	277.3	7.9604e-06	1.2602e-05	233.92	73.842	82.449	28.127	3.959e-06	33.634	0.0022298	0.0023176	0.00064114	1042.4	2.5599e-05	2.533e-05	766.13	296.55	2.5348e-05	2.52e-05	271.83	87.398	103.09	32.29	2.5271e-05	39.378	130.041	238.298	128.485	-47.871	187.049	83.572	-48.809	-43.212	259.235	40.728	-45.648	-40.768	-39.298	-33.819	-21.218	-36.825	-8191	255	
8525.166	1	1	0	0	0.08666	0.057776	0.22553	0.34553	0.091517	0.080068	0.088426	0.075606	0.19459	0.097199	0.01659	0.20134	0.25093	0.21407	0.17129	0.45106	-1.825	-2.9417	-2.2313	-2.6125	-2.825	-2.1312	-2.8063	-2.725	-2.1021	-2.9396	-2.4417	-2.4333	-2.8833	-2.1063	-2.6958	-2.75	244.712	135.220	263.709	190.606	23.475	177.057	267.806	44.738	248.084	124.814	202.568	215.642	297.842	261.343	69.253	205.409	0.00016161	0.00075856	0.00020701	907.27	1.0375e-05	4.9305e-06	706.66	277.57	9.4065e-06	8.3666e-06	235.79	74.402	82.791	28.172	4.6899e-06	33.79	0.0022324	0.0023253	0.00064829	1045.8	2.5835e-05	2.5531e-05	771.41	297.91	2.5615e-05	2.5521e-05	273.82	88.084	103.54	32.424	2.5791e-05	39.81	63.090	298.539	4.441	-48.021	140.300	76.786	-49.194	-43.291	108.020	97.482	-45.179	-40.799	-38.921	-33.606	160.546	-36.023	-8191	255	
8525.262	1	1	0	0	0.15948	0.1828	0.084206	0.17079	0.12282	0.24955	0.22581	0.27737	0.19734	0.28185	0.15439	0.18913	0.033782	0.19259	0.085008	0.17126	-1.8292	-2.9562	-2.3063	-2.2833	-2.7521	-2.2771	-2.8354	-2.7646	-2.2521	-2.6667	-2.5438	-2.1229	-2.9542	-2.3479	-2.5646	-2.7313	210.389	242.077	272.826	200.046	12.816	78.099	162.905	217.649	49.764	3.458	269.108	229.596	60.269	6.997	247.816	-5.136	0.00019025	0.0008351	0.00032089	920.82	5.363e-06	3.8668e-06	707.69	279.8	2.9721e-06	8.3943e-06	237.51	75.796	84.06	28.173	1.3211e-05	34.125	0.0022428	0.0023177	0.0006596	1053.1	2.5859e-05	2.5629e-05	775.76	299.22	2.5692e-05	2.5789e-05	276.71	88.929	104.02	32.595	2.5958e-05	40.005	171.707	-29.908	-8.479	-47.978	112.178	49.969	-48.695	-43.402	119.554	254.925	-45.153	-41.013	-39.344	-33.458	42.756	-36.235	-8191	255	
8525.383	1	1	0	0	0.25858	0.17345	0.08828	0.09078	0.16829	0.18464	0.062008	0.14635	0.16326	0.083061	0.19118	0.24453	0.17346	0.12654	0.064972	0.0528	-1.7833	-2.8521	-2.4125	-2.2687	-2.7646	-2.3729	-2.7146	-2.8083	-2.0458	-2.7812	-2.475	-2.2333	-2.7875	-2.3792	-2.3646	-2.8479	293.366	248.888	-43.505	140.100	116.506	150.187	185.464	-33.742	249.599	221.212	278.088	295.927	252.003	10.962	123.123	218.296	0.00022073	0.0011957	0.00050399	926.42	4.6803e-06	1.0642e-05	708.84	279.28	7.0489e-06	1.2106e-05	237.04	74.673	84.395	28.411	4.7251e-07	33.771	0.0022414	0.0023526	0.00066388	1057	2.5487e-05	2.5555e-05	777.4	300.15	2.5237e-05	2.581e-05	275.18	88.472	103.69	32.568	2.6029e-05	39.704	216.447	-49.649	55.340	-48.183	176.562	70.242	-48.779	-43.570	68.731	119.955	-45.357	-41.062	-39.038	-33.748	220.031	-36.373	-8191	255	
8525.479	1	1	0	0	0.069714	0.21454	0.20332	0.15667	0.085768	0.33158	0.11574	0.27042	0.29574	0.075827	0.21796	0.16716	0.20956	0.21591	0.13958	0.029772	-1.6792	-2.6771	-2.4625	-2.1437	-2.8792	-2.4333	-2.475	-2.9146	-2.0917	-2.6479	-2.7354	-2.1833	-2.8937	-2.4646	-2.3688	-2.9854	-2.560	-46.737	-32.191	225.452	61.288	54.891	206.238	-36.500	121.142	249.518	251.692	-41.591	243.732	154.003	42.158	114.489	0.00014541	0.00088497	5.8694e-05	924.01	5.0469e-06	8.9156e-06	702.02	277.7	7.6266e-06	1.3738e-05	234.27	74.006	84.049	28.118	9.3786e-06	33.411	0.0021994	0.0023326	0.00065637	1051.2	2.5307e-05	2.5323e-05	769.73	297.81	2.5079e-05	2.5595e-05	273.06	87.61	103.45	32.397	2.5817e-05	39.388	125.239	63.587	118.596	-47.866	242.686	41.608	-48.840	-43.165	62.576	98.098	-45.591	-41.133	-39.152	-33.579	169.001	-36.805	-8191	255	
8525.575	1	1	0	0	0.27595	0.089191	0.04298	0.090916	0.28919	0.17231	0.43027	0.10304	0.17736	0.062614	0.14722	0.052458	0.17239	0.18027	0.31675	0.29677	-1.7083	-2.4813	-2.5667	-2.3146	-2.8708	-2.625	-2.2625	-2.9083	-2.1729	-2.5938	-2.6479	-2.1437	-2.8875	-2.6042	-2.2896	-2.7604	33.701	163.125	184.620	227.772	182.281	176.078	241.705	220.973	91.824	136.586	-22.129	216.050	255.841	102.961	-17.669	56.535	0.00024086	0.00070359	0.00014265	917.94	1.0324e-05	4.9585e-06	703.71	278.4	5.9885e-06	1.6345e-06	235.04	73.76	83.529	28.059	3.4066e-06	33.612	0.0022022	0.0023548	0.00065511	1048.8	2.521e-05	2.576e-05	770.33	297.94	2.5161e-05	2.5785e-05	273.66	87.471	103.42	32.475	2.5679e-05	39.401	169.011	30.643	66.671	-48.280	119.511	85.353	-48.807	-43.364	125.758	85.167	-45.446	-41.151	-39.420	-33.506	198.159	-36.638	-8191	255	
8525.671	1	1	0	0	0.047943	0.057081	0.040223	0.10853	0.37534	0.046776	0.15219	0.19578	0.16038	0.22728	0.13765	0.21793	0.038871	0.031862	0.14432	0.15803	-1.9479	-2.5854	-2.7729	-2.2167	-2.9	-2.6958	-2.2979	-3.0771	-2.275	-2.4292	-2.9958	-2.2125	-2.9021	-2.6437	-2.1646	-2.8937	280.003	59.495	79.623	67.372	15.810	45.920	238.586	262.415	114.622	31.461	263.798	-11.564	229.511	-49.598	47.547	214.145	0.00020749	0.00037841	0.000102	923.44	4.1352e-07	3.3558e-06	707.92	280.46	4.882e-06	6.988e-06	237.87	74.858	83.624	28.358	7.3369e-06	33.65	0.0022127	0.0023664	0.00065533	1049.2	2.5478e-05	2.5888e-05	774.39	299.19	2.5307e-05	2.5864e-05	274.93	88.139	103.89	32.68	2.5505e-05	39.714	204.100	37.718	76.593	-48.227	127.422	-9.889	-48.916	-43.244	-5.144	-29.920	-45.459	-41.059	-39.206	-33.799	103.969	-37.065	-8191	255	
8525.765	1	1	0	0	0.055235	0.011307	0.14371	0.22112	0.2689	0.070208	0.23498	0.1367	0.17252	0.1552	0.2389	0.10478	0.11232	0.13337	0.17274	0.27745	-2.0292	-2.3125	-2.7812	-2.2354	-2.8063	-2.6688	-2.1646	-2.9208	-2.3583	-2.2562	-2.8458	-2.1667	-2.6729	-2.7521	-2.075	-2.8063	249.074	27.540	78.352	139.957	58.870	244.396	208.446	239.832	84.046	130.346	17.917	228.030	140.956	141.083	155.632	213.562	0.00023	0.00049184	0.00013056	923.98	2.2498e-06	7.4302e-06	713.35	280.15	5.9557e-06	1.1537e-05	237.57	75.159	84.234	28.422	3.9684e-06	33.617	0.0022344	0.0023603	0.00065217	1052.8	2.5812e-05	2.5777e-05	776.91	300.56	2.5551e-05	2.5948e-05	275.25	88.661	104.4	32.606	2.5289e-05	39.549	112.582	-22.379	151.127	-48.370	123.518	121.927	-48.949	-43.230	82.685	123.340	-45.121	-41.121	-39.048	-33.684	57.717	-36.509	-8191	255	
8525.862	1	1	0	0	0.25173	0.19344	0.18857	0.18811	0.51324	0.11796	0.18033	0.27689	0.34879	0.082886	0.3316	0.15935	0.093749	0.012773	0.068124	0.30024	-2.1333	-2.1083	-2.9771	-2.1896	-2.4083	-2.8688	-2.2979	-2.9375	-2.4	-2.1104	-3.125	-2.4417	-2.5667	-2.8271	-1.9875	-2.7	294.757	-20.376	121.812	290.491	-8.470	123.807	193.352	264.391	254.380	-7.216	195.475	240.856	232.554	30.427	149.818	-44.702	0.000221	0.00060061	8.4484e-05	923.3	9.7209e-06	9.0814e-06	707.26	278.36	2.8537e-06	1.1851e-05	233.49	73.601	83.696	28.027	3.1143e-06	33.479	0.0022348	0.0023584	0.00064848	1051.6	2.5732e-05	2.5598e-05	767.84	298.31	2.5484e-05	2.5696e-05	271.78	86.87	103.45	32.286	2.5228e-05	39.204	97.022	-21.496	70.544	-47.727	67.419	107.361	-49.012	-43.049	260.247	87.500	-44.906	-41.110	-38.805	-33.610	168.888	-36.686	-8191	255	
8525.982	1	1	0	0	0.042923	0.26606	0.16837	0.20003	0.3405	0.15557	0.15482	0.23982	0.15398	0.025181	0.035273	0.097246	0.22875	0.050718	0.19682	0.027861	-2.2875	-2.2	-2.9313	-2.4042	-2.5354	-2.8958	-2.225	-2.7458	-2.6042	-2.3625	-3.0146	-2.4125	-2.4542	-2.9729	-2.0625	-2.7521	149.588	151.930	30.256	-60.660	-47.963	283.517	190.933	247.567	36.733	181.328	94.965	-45.547	291.668	57.539	72.484	298.727	1.9772e-05	0.00089147	0.00017838	913.35	5.465e-06	3.6709e-06	703.69	279.02	1.0983e-05	9.6525e-06	234.06	73.408	82.276	28.22	8.3525e-06	33.534	0.0022412	0.0023298	0.00064291	1048.9	2.5843e-05	2.558e-05	767.62	298.26	2.5682e-05	2.5722e-05	271.42	87.196	103.25	32.396	2.5304e-05	39.395	-9.017	57.025	-40.469	-48.566	131.251	119.023	-48.963	-43.164	17.771	95.781	-45.222	-40.757	-39.521	-33.721	-19.783	-36.731	-8191	255	
8526.078	1	1	0	0	0.2064	0.16797	0.2186	0.22012	0.21452	0.071227	0.23657	0.18309	0.07239	0.15414	0.13194	0.1512	0.21934	0.45054	0.074165	0.069167	-2.4396	-2.0417	-2.9417	-2.4792	-2.15	-3.0979	-2.3958	-2.6813	-2.8563	-2.0208	-2.8375	-2.7458	-2.3729	-2.7729	-2.3104	-2.6375	48.636	47.355	142.057	-23.645	1.102	124.758	52.651	222.901	-55.057	267.859	-45.699	64.082	222.843	260.003	106.897	169.848	8.5427e-05	0.0011507	0.00024791	919.12	5.879e-06	6.3024e-06	705.34	278.07	8.0788e-06	2.1337e-06	235.62	74.155	83.213	27.979	1.9992e-06	33.458	0.0022339	0.0023282	0.00064809	1051	2.5839e-05	2.5353e-05	769.11	298.38	2.5489e-05	2.5464e-05	273.91	87.616	103.53	32.297	2.5546e-05	39.471	133.887	-22.580	53.418	-48.107	257.508	255.781	-48.783	-42.956	196.701	56.334	-45.367	-41.516	-39.435	-33.110	149.406	-36.735	-8191	255	
8526.175	1	1	0	0	0.063329	0.025222	0.15062	0.074254	0.053874	0.13789	0.16034	0.071322	0.29963	0.079277	0.30252	0.35109	0.021913	0.10846	0.13714	0.16392	-2.5292	-2.1667	-2.75	-2.4583	-2.3875	-2.8542	-2.2583	-2.625	-2.8375	-2.1396	-2.8833	-2.6813	-2.1521	-2.9771	-2.3417	-2.4583	214.119	240.236	24.420	251.876	-30.663	28.860	99.294	5.380	161.205	9.685	297.319	281.152	170.311	174.130	202.664	12.127	0.00035855	0.00033958	0.00029399	920.57	4.3968e-06	4.0797e-06	707.09	278.63	4.1486e-06	1.1107e-05	236.35	73.232	82.64	27.873	6.4782e-06	33.495	0.0022319	0.0023215	0.00065463	1050.1	2.5694e-05	2.5448e-05	772.01	298.94	2.5501e-05	2.5388e-05	275.36	87.363	103.14	32.296	2.5542e-05	39.318	115.645	66.501	224.980	-48.032	248.059	-20.692	-49.257	-43.370	62.567	132.312	-45.296	-40.929	-39.160	-33.252	280.296	-36.149	-8191	255	
8526.246	1	1	0	0	0.063439	0.036182	0.24597	0.19728	0.042046	0.12983	0.1614	0.10153	0.041153	0.1915	0.15357	0.063023	0.12874	0.1444	0.099644	0.054797	-2.6125	-2.0979	-2.8771	-2.7458	-2.2042	-2.8875	-2.4708	-2.3937	-2.9104	-2.2896	-2.6625	-2.6479	-2.3604	-2.9667	-2.4	-2.4229	153.667	167.569	204.243	213.587	140.773	-61.317	221.427	261.294	186.095	271.938	146.730	142.834	-51.513	-59.111	239.741	-56.198	0.00010757	0.00037212	0.00053796	914.44	1.2192e-05	7.973e-06	697.51	276.36	2.7762e-06	2.7774e-06	234.48	72.661	82.384	27.676	2.8672e-06	32.903	0.0022136	0.0023256	0.00065252	1045.5	2.5448e-05	2.5312e-05	764.64	296.54	2.5031e-05	2.5488e-05	271.93	86.437	102.06	32.006	2.5543e-05	38.869	289.115	212.894	130.114	-47.999	52.148	125.251	-48.960	-43.405	34.103	290.640	-45.001	-41.138	-38.556	-33.803	155.247	-36.952	-8191	255	
8526.342	1	1	0	0	0.27997	0.22155	0.092469	0.24493	0.030753	0.14013	0.048792	0.15146	0.17211	0.052333	0.15453	0.19394	0.14864	0.25335	0.049073	0.37903	-2.4708	-2.2438	-2.6188	-2.8937	-2.15	-2.8937	-2.4354	-2.2792	-3.1604	-2.3312	-2.5312	-3.0271	-2.2604	-2.8	-2.6021	-2.2521	44.804	44.376	187.252	271.362	169.807	31.555	127.260	214.478	87.944	50.620	186.725	251.359	272.119	262.947	-26.075	-23.737	0.00011864	0.00017453	8.7012e-05	912.04	5.3917e-06	1.244e-05	698.13	275.83	4.1539e-06	1.3244e-05	233.86	72.84	82.917	27.846	7.1364e-06	33.224	0.0021939	0.0023189	0.00065155	1039.6	2.515e-05	2.5443e-05	762.81	295.33	2.5015e-05	2.5682e-05	271.6	86.415	102.25	32.232	2.5742e-05	39.083	69.582	-39.995	180.124	-48.226	142.569	73.809	-48.758	-43.078	124.509	214.855	-45.314	-40.639	-38.939	-33.312	59.842	-36.157	-8191	255	
8526.463	1	1	0	0	0.074133	0.11794	0.25972	0.20846	0.15971	0.14697	0.26055	0.21855	0.10102	0.039134	0.033823	0.14335	0.15288	0.2005	0.32738	0.22466	-2.6542	-2.3937	-2.4	-2.95	-2.0958	-2.8312	-2.6604	-2.2833	-2.6333	-2.4604	-2.4396	-2.9521	-2.2396	-2.8479	-2.875	-2.2708	175.238	4.373	196.782	251.004	188.546	157.376	268.673	249.982	262.490	133.675	243.295	-57.337	-57.165	278.467	-23.597	237.462	0.0002741	0.0013404	0.00017544	906.9	3.381e-06	4.2313e-06	699.09	276.98	7.419e-06	8.2689e-06	233.62	73.317	82.111	27.93	9.8072e-06	33.077	0.0022148	0.0023428	0.00065885	1037.2	2.5665e-05	2.5935e-05	767.13	295.78	2.5356e-05	2.5833e-05	272.63	86.92	102.43	32.344	2.5871e-05	39.127	147.895	277.412	202.706	-48.020	228.576	166.013	-48.760	-43.111	237.482	79.168	-45.045	-40.926	-38.919	-33.355	44.003	-36.950	-8191	255	
8526.559	1	1	0	0	0.18615	0.1701	0.071682	0.082802	0.20126	0.24495	0.11217	0.1313	0.20354	0.2318	0.14261	0.076772	0.15692	0.20033	0.1075	0.21102	-2.3375	-2.425	-2.4167	-2.9729	-2.2458	-2.6771	-2.9667	-1.9667	-2.8688	-2.5583	-2.1667	-2.8083	-2.2958	-2.6333	-2.7812	-2.3063	-57.143	66.023	-15.891	32.506	67.923	187.301	160.726	274.823	190.758	251.039	144.744	-40.309	72.465	234.215	201.390	145.275	0.00012196	0.00071033	0.00042938	903.94	3.4613e-06	1.1233e-05	699.58	276.81	7.4133e-06	9.3114e-06	236.52	73.794	81.962	28.179	3.276e-06	33.395	0.0022372	0.0023803	0.00066245	1038.3	2.5582e-05	2.6214e-05	768.11	296.23	2.5746e-05	2.6269e-05	274.2	87.26	102.88	32.476	2.5874e-05	39.324	220.559	-32.449	-35.436	-47.973	-10.996	-1.377	-48.909	-43.055	89.546	36.741	-45.299	-41.197	-39.132	-33.760	16.336	-36.522	-8191	255	
8526.655	1	1	0	0	0.079169	0.19428	0.16423	0.20594	0.095649	0.15599	0.12929	0.31175	0.17956	0.22906	0.21354	0.1758	0.21192	0.43431	0.23185	0.23018	-2.3833	-2.4125	-2.1688	-3.1229	-2.1208	-2.5917	-2.9	-2.2375	-2.6792	-2.7042	-2.3875	-2.9083	-2.25	-2.3958	-2.9479	-2.3438	17.334	297.358	79.816	294.699	89.919	276.214	234.405	279.992	215.134	-12.745	234.199	138.071	247.166	267.876	136.332	263.960	0.00011547	0.00046662	0.00020616	911.7	1.0341e-05	4.0937e-06	698.69	276.35	3.1513e-06	1.198e-05	233.28	73.564	82.437	28.081	6.2844e-06	33	0.0022541	0.0023849	0.00066067	1040.9	2.5982e-05	2.61e-05	766.31	296.43	2.5567e-05	2.5941e-05	271.42	86.781	102.68	32.336	2.5415e-05	38.861	120.353	272.994	52.006	-47.769	42.816	257.776	-48.648	-43.349	90.353	-25.580	-45.169	-41.238	-38.686	-33.427	147.042	-36.884	-8191	255	
8526.774	1	1	0	0	0.06286	0.032392	0.33435	0.17341	0.16791	0.14968	0.091729	0.1614	0.022576	0.11981	0.30787	0.12762	0.32851	0.3499	0.079521	0.39874	-2.2812	-2.6458	-2.1083	-2.8292	-2.5479	-2.4542	-3.05	-2.3083	-2.6292	-2.9896	-2.2438	-2.875	-2.4021	-2.1312	-2.9083	-2.1688	-49.884	75.660	110.384	207.595	-29.574	-6.526	102.964	273.760	59.914	32.023	276.916	227.987	220.227	198.079	123.953	211.917	7.8337e-05	0.00033916	0.00032146	916.67	6.6937e-06	9.8097e-06	698.5	275.93	5.7776e-06	7.0343e-06	232.41	73.047	82.662	27.988	2.4392e-06	32.998	0.0022266	0.0023385	0.00064662	1041.4	2.5532e-05	2.5553e-05	761.42	295.41	2.5374e-05	2.5633e-05	269.9	86.63	102.54	32.283	2.5093e-05	38.932	154.826	-7.718	18.861	-48.178	26.509	89.015	-48.953	-43.308	-5.922	165.045	-45.199	-41.180	-39.041	-33.286	25.016	-36.824	-8191	255	
8526.846	1	1	0	0	0.18329	0.29927	0.24052	0.074579	0.1164	0.11979	0.20527	0.077947	0.15152	0.10229	0.1855	0.080026	0.22417	0.04679	0.22388	0.38678	-2.175	-2.8354	-2.1312	-2.9917	-2.4667	-2.3625	-3.0625	-2.2146	-2.4542	-2.8646	-2.125	-2.8521	-2.3917	-2.2812	-2.9479	-2.3521	222.931	136.159	5.711	254.847	295.505	102.796	188.694	231.145	10.410	-18.394	-45.928	201.120	288.114	-37.015	127.931	266.096	0.00010511	0.00038222	0.00047547	912.31	3.9966e-06	9.4552e-06	702.6	276.37	6.3198e-06	1.9932e-05	234.61	73.669	82.553	28.164	7.5872e-06	33.446	0.0022301	0.002315	0.0006412	1041.3	2.553e-05	2.5557e-05	763.53	296.47	2.5355e-05	2.535e-05	272	87.112	103.09	32.373	2.5262e-05	39.134	19.791	194.963	96.793	-48.408	65.981	198.432	-48.862	-43.235	-47.209	101.252	-45.052	-40.903	-38.829	-33.358	205.435	-36.838	-8191	255	
8526.942	1	1	0	0	0.10491	0.047553	0.16832	0.12086	0.1404	0.15446	0.095868	0.11171	0.0624	0.023883	0.082783	0.38635	0.3628	0.0228	0.32841	0.21883	-2.0521	-2.8458	-2.2146	-2.8833	-2.6604	-2.2167	-3.0604	-2.4667	-2.4396	-2.8729	-2.2833	-2.7958	-2.6583	-2.1167	-2.8792	-2.5083	263.120	266.793	247.755	277.217	113.192	237.588	208.793	-15.562	285.247	289.839	-57.483	-50.675	188.421	141.103	128.212	21.938	0.00011725	0.00015607	0.00031619	906.28	2.4162e-06	4.4868e-06	703.58	278.33	8.4425e-06	1.8286e-05	235.45	73.728	83.394	28.144	4.7179e-06	33.283	0.002226	0.0023282	0.00064501	1044.1	2.5612e-05	2.5451e-05	769.32	297.9	2.5794e-05	2.5439e-05	273.57	87.812	103.27	32.402	2.576e-05	39.4	187.822	33.812	107.319	-48.127	162.249	-47.539	-48.706	-43.007	127.122	76.101	-45.620	-40.684	-39.361	-33.339	133.933	-36.466	-8191	255	
8527.063	1	1	0	0	0.22349	0.038838	0.020436	0.062911	0.28464	0.14364	0.050517	0.32985	0.1276	0.21911	0.14303	0.10001	0.17274	0.12948	0.14191	0.12481	-1.9958	-3.0438	-2.2313	-2.8208	-2.7938	-2.0333	-3.0396	-2.6312	-2.3792	-2.9	-2.2625	-2.4917	-2.7396	-2.1417	-2.6667	-2.6271	234.695	140.770	36.175	-20.913	126.462	167.883	87.944	292.796	8.311	113.667	281.088	98.384	144.678	235.919	151.584	168.508	0.0001892	0.00052021	0.00018834	915.04	1.4998e-05	8.6898e-06	701.31	279.88	5.363e-06	1.5846e-05	236.3	74.247	83.372	28.373	6.2185e-06	33.664	0.0022533	0.002334	0.00065728	1048.2	2.5729e-05	2.5758e-05	771.59	298.72	2.5751e-05	2.5649e-05	274.62	88.309	103.4	32.592	2.5751e-05	39.547	141.817	-52.264	34.824	-47.872	50.368	183.831	-48.338	-43.204	71.221	61.645	-45.216	-40.936	-39.220	-33.482	96.413	-36.693	-8191	255	
8527.159	1	1	0	0	0.053429	0.027881	0.13176	0.083797	0.13342	0.091477	0.20388	0.25076	0.040603	0.10984	0.22755	0.25411	0.26679	0.024381	0.19599	0.039861	-1.7437	-2.9479	-2.2687	-2.6417	-2.9104	-2.1	-2.8771	-2.8	-2.2958	-2.8604	-2.2833	-2.4708	-2.9708	-2.4062	-2.775	-2.7188	4.101	61.676	44.291	10.627	298.677	270.907	243.947	278.233	18.235	-3.229	223.929	251.384	-21.637	233.361	-55.238	187.396	0.00016513	0.00072667	9.9026e-05	915.29	6.9153e-06	9.4126e-06	698.56	276.1	5.0118e-06	8.042e-06	234.1	73.075	82.927	28.116	1.1008e-05	32.997	0.0022266	0.0023382	0.00066266	1045.2	2.5548e-05	2.5614e-05	767.51	297.12	2.5466e-05	2.5522e-05	272.29	87.367	102.89	32.36	2.6017e-05	39.167	113.526	202.807	-16.069	-47.911	116.137	11.487	-48.965	-43.287	110.310	65.673	-45.590	-40.959	-39.137	-33.659	12.903	-36.262	-8191	255	
8527.255	1	1	0	0	0.16556	0.076506	0.32114	0.043842	0.026667	0.27304	0.32835	0.23377	0.23341	0.13811	0.18944	0.081875	0.16632	0.30498	0.10802	0.14603	-1.8438	-2.8563	-2.3875	-2.4562	-2.9667	-2.3125	-2.6792	-2.9542	-2.0938	-2.9313	-2.6063	-2.3896	-3.1417	-1.9875	-2.6979	-2.8187	-22.256	264.598	154.044	191.403	104.401	46.419	192.221	167.447	161.233	15.526	-42.642	184.516	139.662	226.854	34.365	230.798	0.00016146	0.00018719	0.00040235	901.75	4.1513e-06	5.544e-06	695.6	274.53	7.2474e-06	8.3507e-06	232.98	73.075	82.109	27.928	6.3964e-06	33.309	0.0022182	0.0023622	0.00066195	1040.8	2.5539e-05	2.5974e-05	764.58	295.02	2.56e-05	2.6048e-05	272.95	87.252	102.46	32.387	2.6435e-05	39.256	130.437	2.590	43.459	-47.648	-33.496	25.190	-48.576	-43.366	45.239	80.503	-45.251	-40.628	-39.391	-33.589	58.545	-36.190	-8191	255	
8527.376	1	1	0	0	0.18276	0.13733	0.05647	0.15365	0.034452	0.10394	0.25147	0.27492	0.17432	0.046171	0.10533	0.23005	0.19486	0.13404	0.074789	0.20888	-1.6875	-2.9229	-2.4854	-2.2042	-2.8792	-2.1021	-2.675	-2.9708	-2.3021	-2.8167	-2.6771	-2.175	-2.8375	-2.2625	-2.4917	-2.8833	229.905	5.566	123.838	22.023	82.469	148.902	152.917	271.991	115.671	-58.247	0.901	231.579	292.990	250.136	62.632	269.977	0.00017505	0.00048173	0.00064762	911.44	5.0795e-06	6.0661e-06	699.24	275.86	3.2158e-06	7.772e-06	235.36	73.595	82.382	27.951	2.9005e-06	33.655	0.0022613	0.0023932	0.00066629	1041.5	2.576e-05	2.6348e-05	767.39	294.98	2.577e-05	2.6388e-05	274.25	87.389	102.64	32.483	2.6411e-05	39.548	78.582	141.936	169.443	-48.229	262.687	244.642	-48.559	-43.237	3.768	212.165	-45.467	-40.715	-39.090	-33.363	76.869	-36.580	-8191	255	
8527.472	1	1	0	0	0.093816	0.25183	0.23851	0.226	0.11789	0.1669	0.26157	0.19513	0.16784	0.14425	0.21106	0.12196	0.095501	0.065154	0.17815	0.095611	-1.6812	-2.7208	-2.5938	-2.2042	-2.9375	-2.3125	-2.5542	-3.0062	-2.2188	-2.8937	-2.7354	-2.3875	-2.8833	-2.4938	-2.3625	-2.8563	216.623	126.792	188.364	263.101	257.401	172.380	195.285	-59.984	128.406	120.472	65.301	205.306	-3.489	230.296	24.058	23.321	0.00012415	0.0014217	0.00016009	909.06	9.4373e-06	8.7555e-06	705.96	274.55	6.2669e-06	1.1078e-05	236.62	74.13	82.346	28.026	4.5784e-06	33.847	0.0022641	0.0024152	0.00067152	1040.6	2.5987e-05	2.6381e-05	771.63	295.95	2.5832e-05	2.6314e-05	275.28	87.881	102.79	32.59	2.6118e-05	39.69	105.841	56.961	23.592	-47.843	221.804	131.371	-48.666	-43.091	67.620	140.728	-45.240	-40.533	-38.495	-33.524	67.584	-36.749	-8191	255	
8527.543	1	1	0	0	0.36291	0.20649	0.22973	0.034857	0.032371	0.13555	0.27701	0.32173	0.11812	0.13212	0.2889	0.38095	0.11583	0.022707	0.20745	0.17769	-1.7208	-2.6688	-2.9	-1.9146	-2.8146	-2.3979	-2.3042	-3.2917	-2.1771	-2.5854	-2.9167	-2.4042	-2.9688	-2.5312	-2.3396	-3.0479	-0.200	285.305	47.948	205.789	69.915	43.218	227.940	262.719	125.052	145.706	184.270	70.990	285.438	116.676	241.062	161.812	7.3955e-05	0.00013299	4.9256e-05	902.5	1.3514e-05	3.615e-06	695.51	274.77	3.5363e-06	2.2158e-06	231.28	73.45	81.872	27.926	1.08e-05	33.337	0.0022484	0.0023948	0.00066217	1035.9	2.6032e-05	2.5925e-05	764.28	294.73	2.5811e-05	2.608e-05	271.29	86.674	101.63	32.277	2.5584e-05	39.252	-29.901	67.504	288.551	-48.168	162.902	229.508	-48.881	-43.150	42.946	186.873	-45.090	-40.714	-38.850	-33.573	21.351	-36.461	-8191	255	
8527.639	1	1	0	0	0.062863	0.064314	0.17433	0.16055	0.15141	0.18818	0.092032	0.19052	0.18178	0.12529	0.075721	0.19089	0.13212	0.16628	0.069403	0.10334	-1.8813	-2.4646	-2.8229	-2.1333	-2.7875	-2.725	-2.2125	-2.9437	-2.3312	-2.4333	-2.8312	-2.25	-2.8521	-2.5646	-2.0646	-3.0292	-23.656	-50.335	219.957	192.770	168.041	47.078	150.140	-27.581	32.212	-58.736	113.898	80.732	160.205	283.388	235.612	229.632	4.0102e-05	0.00089906	0.00048526	898.98	5.5515e-06	2.3383e-06	697.97	274.34	1.002e-05	5.6612e-06	233.26	73.235	81.368	28.114	9.5769e-07	33.224	0.0022265	0.0023617	0.0006497	1028.4	2.5593e-05	2.5821e-05	762.02	293.4	2.5632e-05	2.5683e-05	270.55	86.83	101.54	32.182	2.5435e-05	39.377	188.236	-35.685	54.584	-47.836	71.873	155.570	-48.777	-43.211	91.497	124.644	-45.132	-40.856	-39.059	-33.218	119.257	-36.554	-8191	255	
8527.758	1	1	0	0	0.035243	0.068082	0.12912	0.18832	0.24961	0.20302	0.076204	0.1424	0.2513	0.22065	0.23231	0.035432	0.11843	0.20768	0.029422	0.26494	-1.9042	-2.4625	-2.8875	-2.2	-2.7521	-2.7646	-2.4083	-2.8354	-2.4542	-2.3333	-3.0458	-2.2521	-2.5938	-2.8083	-2.2979	-2.9146	189.907	185.102	277.870	233.670	240.916	68.504	118.409	185.931	-16.447	187.868	-6.992	3.351	65.614	211.083	164.387	122.827	0.0003267	0.0014365	0.00041381	905.31	1.034e-05	1.4164e-05	695.6	274.33	2.8873e-06	8.4574e-06	233.52	74.286	80.91	27.828	5.6156e-06	33.639	0.0022351	0.0023428	0.00064639	1032.6	2.5727e-05	2.553e-05	762.55	293.49	2.5446e-05	2.5428e-05	271.76	87.288	101.51	32.143	2.5383e-05	39.603	81.746	63.299	280.781	-47.822	161.692	95.393	-48.820	-43.022	203.742	46.889	-45.211	-40.983	-38.732	-33.134	39.098	-36.318	-8191	255	
8527.855	1	1	0	0	0.018669	0.18013	0.25966	0.16012	0.13592	0.13698	0.30375	0.26264	0.0078045	0.18708	0.20404	0.24084	0.14264	0.10506	0.21343	0.23012	-2.0896	-2.3187	-3.0104	-2.3479	-2.5667	-2.9396	-2.4313	-2.9875	-2.625	-2.45	-2.9417	-2.4292	-2.5167	-2.8917	-1.9875	-2.8563	209.657	-17.209	220.618	159.364	152.474	150.794	117.780	216.592	65.454	-53.387	-37.847	78.312	270.812	266.501	187.868	208.022	0.0001551	0.0010064	6.194e-05	902.26	8.3751e-06	9.9592e-06	696.58	274.55	7.3291e-06	1.0303e-05	234.39	73.692	81.106	27.962	5.7108e-06	33.806	0.0022326	0.0023235	0.00065228	1032.5	2.5733e-05	2.5679e-05	765.17	294.4	2.559e-05	2.5632e-05	273.06	87.761	102.13	32.28	2.5474e-05	39.83	78.571	77.682	59.239	-48.018	150.735	-13.000	-48.516	-43.108	15.173	-8.716	-45.485	-41.022	-38.353	-33.182	227.902	-36.174	-8191	255	
8527.951	1	1	0	0	0.14962	0.035919	0.27111	0.071515	0.11943	0.1625	0.28284	0.32836	0.19997	0.12805	0.022094	0.02922	0.10305	0.19804	0.2791	0.010483	-2.1937	-1.9917	-2.8375	-2.4938	-2.3187	-2.7562	-2.1583	-2.8667	-2.6458	-2.1188	-3.0125	-2.4396	-2.4	-2.8854	-2.2208	-2.6917	52.142	-57.548	259.087	80.927	155.913	125.023	280.176	253.527	25.309	-28.333	-45.856	-59.998	-6.006	295.554	66.865	221.423	0.00014147	0.0010502	0.00026544	903.59	3.0383e-06	7.5911e-06	698.33	274.9	1.3142e-06	3.24e-06	233.75	73.191	81.428	27.934	7.8358e-06	33.36	0.0022327	0.0023443	0.00065278	1034.3	2.564e-05	2.5324e-05	766.19	294.23	2.5324e-05	2.5451e-05	272.1	87.048	101.53	32.14	2.559e-05	39.29	-12.533	73.323	5.831	-47.803	295.969	134.255	-48.753	-42.769	137.617	116.182	-45.158	-40.492	-38.325	-33.304	113.330	-35.836	-8191	255	
8528.047	1	1	0	0	0.2024	0.18538	0.079963	0.019218	0.10151	0.086433	0.22544	0.048871	0.14864	0.16025	0.25083	0.14491	0.15565	0.088745	0.21068	0.13965	-2.1792	-2.0542	-2.7479	-2.5021	-2.1521	-2.875	-2.4271	-2.7625	-2.7188	-2.1604	-2.95	-2.4542	-2.3271	-3.0979	-2.3646	-2.625	141.993	1.696	15.585	-4.214	114.889	231.546	277.732	-57.607	78.267	193.631	-23.463	146.770	181.141	175.438	92.880	285.655	0.00019645	0.00089418	0.00023403	896.02	1.913e-06	4.1607e-06	691.1	271.7	6.9216e-06	9.9991e-06	231.5	73.437	81.975	27.799	8.6419e-06	33.011	0.0021941	0.0023174	0.00065193	1027.4	2.5522e-05	2.5545e-05	758.26	292.79	2.5182e-05	2.5478e-05	270.45	86.619	101.18	32.034	2.5733e-05	39.211	130.642	56.086	-34.819	-48.171	218.283	125.222	-48.599	-43.179	157.401	135.964	-45.315	-40.439	-38.610	-33.159	48.447	-36.419	-8191	255	
8528.143	1	1	0	0	0.23043	0.32602	0.13848	0.18309	0.18488	0.26165	0.27459	0.063665	0.055298	0.072561	0.2127	0.13673	0.12015	0.081154	0.15507	0.24975	-2.4771	-2.1646	-2.8375	-2.6583	-2.3312	-2.8792	-2.5521	-2.5021	-2.7	-2.1937	-2.8854	-2.8	-2.0521	-2.9854	-2.3667	-2.6083	178.924	137.230	42.847	241.478	104.281	189.775	212.262	65.238	198.039	289.397	259.554	-25.085	-48.711	290.505	224.502	278.400	0.00019074	0.0010704	0.00018007	899.31	1.8909e-05	7.7293e-06	696.58	273.05	5.2604e-06	7.706e-06	233.73	72.927	80.96	27.859	3.3837e-06	33.154	0.0021969	0.002333	0.00065186	1030.9	2.5599e-05	2.5597e-05	763.64	293.21	2.5149e-05	2.5763e-05	271.79	86.599	101.22	32.209	2.5828e-05	39.279	208.123	104.609	31.381	-47.771	147.275	40.130	-48.906	-42.840	188.780	167.681	-45.122	-41.023	-38.664	-33.126	110.010	-36.184	-8191	255	
8528.239	1	1	0	0	0.1939	0.084597	0.21059	0.11253	0.15605	0.13469	0.15314	0.23772	0.26955	0.19301	0.077005	0.26347	0.26799	0.09555	0.20415	0.07956	-2.5771	-2.2417	-2.8604	-2.6771	-2.2188	-2.8146	-2.5979	-2.6	-2.9188	-2.3563	-2.6125	-2.8	-2.0938	-2.925	-2.4313	-2.3833	97.879	-19.097	66.004	176.965	85.834	95.774	222.400	-16.308	244.225	183.066	-38.166	203.090	283.611	266.963	125.534	298.038	0.00016598	0.00054342	0.00042969	897.88	1.1321e-05	1.2119e-05	699.85	274.05	4.6772e-06	9.6283e-06	234.79	72.962	82.275	28.138	5.7479e-06	33.543	0.0021966	0.0023402	0.00065704	1033.9	2.5389e-05	2.569e-05	766.48	294.12	2.5407e-05	2.5969e-05	273.01	87.021	101.98	32.403	2.5693e-05	39.496	146.576	-37.083	71.030	-47.942	131.455	150.498	-49.027	-42.929	96.916	-43.149	-44.991	-40.751	-38.801	-33.425	106.949	-36.134	-8191	255	
8528.335	1	1	0	0	0.17794	0.20781	0.24451	0.22845	0.1846	0.22116	0.11012	0.081243	0.096561	0.33731	0.038554	0.12448	0.23948	0.1322	0.14583	0.16248	-2.6375	-2.2375	-2.4771	-2.7188	-2.0208	-2.8937	-2.7667	-2.3333	-2.8833	-2.4208	-2.625	-2.8583	-2.0896	-3.0042	-2.6646	-2.4458	9.862	-58.708	167.254	200.468	117.602	276.623	261.622	278.674	294.937	-21.080	149.335	273.168	-56.102	14.533	101.881	215.867	0.00014413	0.00096966	8.9214e-05	903.86	1.1637e-05	5.4878e-06	702.3	275.25	9.9044e-06	1.4819e-05	232.95	74.198	82.229	27.986	9.1403e-06	33.164	0.0022243	0.0023693	0.00065823	1035.2	2.5629e-05	2.6046e-05	769.96	294.71	2.549e-05	2.5813e-05	272.69	87.297	101.94	32.388	2.5637e-05	39.255	119.282	155.248	287.228	-47.616	43.836	83.254	-48.691	-42.946	152.860	69.014	-44.708	-40.917	-39.306	-33.117	102.372	-36.030	-8191	255	
8528.456	1	1	0	0	0.29457	0.30643	0.23788	0.32279	0.16472	0.052736	0.094707	0.12308	0.021978	0.078772	0.090789	0.2577	0.093778	0.18135	0.21799	0.14206	-2.3937	-2.4333	-2.3042	-3.125	-2.2062	-2.8563	-2.6167	-2.3292	-2.9292	-2.3896	-2.5292	-3.0646	-2.2208	-2.7271	-2.7917	-2.1417	201.868	147.068	77.448	288.454	254.570	117.652	250.815	241.690	149.294	70.738	219.951	272.432	-30.291	-59.268	211.921	44.388	0.00025741	0.00034743	0.00040617	903.83	3.725e-06	3.0954e-06	699.91	274.01	6.1727e-06	9.051e-06	231.07	72.825	81.961	27.879	5.527e-06	33.131	0.0022167	0.0023487	0.00064931	1031	2.5569e-05	2.5773e-05	761.07	293.58	2.5466e-05	2.5737e-05	269.89	86.12	101.88	32.217	2.5387e-05	38.992	75.992	240.625	88.660	-47.941	-24.381	-37.649	-48.640	-43.100	221.449	153.536	-44.878	-40.988	-39.089	-33.135	134.959	-36.766	-8191	255	
8528.552	1	1	0	0	0.072505	0.037393	0.048174	0.21113	0.31831	0.10315	0.072123	0.15557	0.34971	0.23592	0.087529	0.1554	0.18808	0.18727	0.2253	0.075245	-2.5646	-2.4792	-2.3292	-3.0563	-2.2771	-2.7396	-2.9521	-2.3708	-2.9979	-2.6125	-2.5896	-3.0812	-2.3771	-2.7667	-2.7333	-2.2083	149.742	-47.959	100.710	292.159	-37.886	233.511	168.439	39.484	-20.984	151.451	-51.193	252.220	6.572	-25.531	38.339	202.856	0.00018469	0.0013334	0.000111	901.69	1.4007e-05	7.6349e-06	696.28	273.26	9.2879e-06	4.081e-06	234.11	72.59	81.369	27.939	1.026e-05	33.044	0.0022433	0.0023446	0.00064816	1031.6	2.5641e-05	2.567e-05	760.78	294.19	2.54e-05	2.566e-05	271.58	86.613	102.22	32.31	2.5364e-05	39.258	178.093	5.195	84.655	-47.479	27.869	109.286	-48.920	-43.037	130.052	126.397	-45.238	-40.490	-38.152	-33.212	47.561	-36.305	-8191	255	
8528.646	1	1	0	0	0.079295	0.015946	0.22178	0.13286	0.090113	0.077707	0.11289	0.30491	0.15951	0.065826	0.17983	0.091607	0.27059	0.32103	0.06298	0.15004	-2.4583	-2.5833	-2.1542	-3.1292	-2.2062	-2.4229	-2.9583	-2.1729	-2.5938	-2.7333	-2.2396	-3.0104	-2.4833	-2.6271	-2.8771	-2.2479	123.557	25.071	226.023	-27.908	34.205	78.096	252.629	208.976	298.243	103.494	20.622	233.068	210.656	-52.332	96.946	216.538	0.00013316	0.00084886	0.00020141	906.1	8.7894e-06	9.7428e-06	700.03	276.64	1.0477e-05	6.9346e-06	234.14	73.448	82.444	28.002	5.7837e-06	33.228	0.0022381	0.0023563	0.00064852	1039.3	2.5798e-05	2.5879e-05	765.07	295.79	2.5811e-05	2.5849e-05	272.75	87.276	102.68	32.427	2.5695e-05	39.492	62.465	279.576	27.232	-47.569	-42.284	80.119	-48.842	-43.045	181.954	-32.938	-45.173	-40.685	-39.073	-33.328	62.367	-36.622	-8191	255	
8528.744	1	1	0	0	0.15974	0.15732	0.079976	0.16816	0.22765	0.1124	0.10008	0.21464	0.030684	0.37564	0.18257	0.15939	0.19554	0.10412	0.122	0.055501	-2.3417	-2.6479	-2.075	-2.8229	-2.3771	-2.4979	-3.0458	-2.3729	-2.6479	-2.8625	-2.2521	-2.8833	-2.6542	-2.3792	-2.9292	-2.3146	249.452	296.883	199.118	260.946	82.356	266.296	217.841	-47.919	126.262	63.329	265.158	226.549	181.644	130.501	159.685	7.593	0.00013451	0.00084227	0.00023769	914.63	7.2362e-06	1.5297e-06	702.57	276.44	6.3283e-06	5.6596e-06	234.54	74.389	82.601	28.164	8.1824e-06	33.684	0.0022605	0.0023606	0.00066003	1043.1	2.613e-05	2.6001e-05	768.88	296.43	2.582e-05	2.6023e-05	274.75	88.096	103.37	32.642	2.6089e-05	39.74	190.032	230.000	-3.076	-48.145	2.334	-60.474	-48.661	-43.024	58.465	232.691	-44.620	-40.483	-39.050	-33.341	42.394	-36.374	-8191	255	
8528.839	1	1	0	0	0.28273	0.069855	0.16869	0.12805	0.15937	0.2073	0.40058	0.23347	0.11474	0.17429	0.14429	0.13567	0.095552	0.26693	0.073762	0.17682	-2.2896	-2.8458	-2.0917	-2.925	-2.6229	-2.1437	-2.95	-2.4125	-2.5833	-2.8937	-2.3187	-2.8958	-2.5292	-2.0563	-2.9479	-2.2833	73.465	188.338	214.010	-15.858	123.323	70.167	269.280	279.900	121.604	206.729	228.669	245.483	131.155	255.089	182.983	205.499	0.00016966	0.00054916	6.7133e-05	909.28	8.5693e-06	6.0225e-06	704.19	275.54	6.1914e-06	7.9241e-06	234.06	72.968	82.188	28.104	6.0716e-06	33.124	0.0022683	0.0023602	0.00066006	1044.2	2.5982e-05	2.6018e-05	767.24	296.24	2.5868e-05	2.5809e-05	271.81	87.285	102.56	32.406	2.6022e-05	39.225	208.674	-53.077	198.401	-47.858	141.088	136.807	-48.418	-43.022	92.967	50.490	-45.401	-40.443	-38.776	-33.235	233.861	-36.589	-8191	255	
8528.935	1	1	0	0	0.14593	0.21868	0.24463	0.15818	0.23402	0.11451	0.344	0.17375	0.16827	0.29828	0.12987	0.15178	0.029349	0.24889	0.22617	0.24634	-1.975	-2.9437	-2.2625	-2.8312	-2.6375	-2.1667	-3.0542	-2.3396	-2.3854	-3.0479	-2.2375	-2.6667	-2.7938	-2.3375	-2.9333	-2.4875	61.749	108.696	260.201	171.485	276.971	152.191	256.242	-60.257	52.568	-8.162	197.199	208.144	-15.998	-6.272	163.518	205.238	3.6797e-05	0.0014082	0.00032299	906.01	8.2067e-06	1.4006e-05	694.3	274.65	5.3139e-06	5.9726e-06	231.93	73.285	81.708	27.916	1.1692e-05	33.085	0.0022536	0.0023517	0.00066282	1038.4	2.5949e-05	2.5938e-05	762.88	294.76	2.5465e-05	2.5831e-05	271.9	86.992	102.1	32.264	2.6061e-05	39.176	234.277	64.495	236.197	-47.714	-30.831	71.690	-48.774	-42.884	138.683	198.361	-45.166	-40.347	-39.205	-33.175	38.209	-36.108	-8191	255	
8529.056	1	1	0	0	0.14003	0.10875	0.28589	0.092348	0.10462	0.3868	0.31278	0.1145	0.30092	0.18001	0.078992	0.074634	0.22709	0.25815	0.09585	0.27208	-1.9292	-2.85	-2.2083	-2.675	-2.9062	-2.2458	-3.0312	-2.5458	-2.1854	-2.9292	-2.4062	-2.725	-2.8958	-2.2438	-2.9354	-2.4292	279.204	8.479	100.059	275.485	199.554	0.179	218.154	210.585	171.007	136.382	-41.733	72.104	275.582	-7.868	222.885	218.890	0.00023618	0.0013764	0.0001553	906.73	6.506e-06	7.6692e-06	697.42	274.09	6.2379e-06	1.3906e-05	233.83	73.036	81.363	27.795	8.2488e-06	33.506	0.0022455	0.0023617	0.00066411	1037.3	2.5843e-05	2.6034e-05	765.33	294.6	2.5574e-05	2.6084e-05	272.81	87.353	102.09	32.333	2.6205e-05	39.425	131.895	69.691	15.551	-47.449	171.740	-37.689	-48.668	-43.249	77.960	82.383	-45.086	-40.949	-38.693	-32.729	219.732	-36.423	-8191	255	
8529.152	1	1	0	0	0.2151	0.26204	0.084034	0.030744	0.24441	0.24031	0.068855	0.1261	0.20982	0.19604	0.21701	0.26082	0.22158	0.23694	0.014568	0.27285	-1.7417	-2.6979	-2.1688	-2.4146	-2.7792	-2.2146	-2.9	-2.9542	-2.0458	-3.0417	-2.2917	-2.5208	-2.9208	-2.2313	-2.6958	-2.675	214.416	-15.060	184.443	-51.811	237.732	-18.878	157.572	-11.534	153.037	96.790	-53.979	-45.816	273.538	182.417	139.069	278.310	0.00014978	0.00082404	0.0002936	900.72	5.2959e-06	5.6116e-06	704.2	275.64	7.2425e-06	6.0086e-06	235.37	73.876	81.848	28.069	7.6837e-06	33.704	0.0022532	0.0023697	0.00066645	1035.8	2.5734e-05	2.6122e-05	768.51	295.32	2.5549e-05	2.5982e-05	274.52	88.031	102.55	32.519	2.6171e-05	39.668	100.448	51.791	276.392	-47.394	-43.143	223.714	-48.728	-43.121	187.315	189.619	-45.160	-40.472	-38.723	-33.192	136.359	-36.087	-8191	255	
8529.248	1	1	0	0	0.2504	0.16188	0.17955	0.20209	0.3355	0.070541	0.18566	0.13249	0.25955	0.029083	0.27276	0.25036	0.15772	0.10952	0.29079	0.3348	-1.8333	-2.8417	-2.2667	-2.3771	-2.9667	-2.1771	-2.8229	-2.9	-1.9833	-2.8021	-2.4146	-2.2896	-3.1	-2.1854	-2.6604	-2.7604	192.872	-39.533	84.821	283.130	-41.373	295.069	-58.727	237.969	263.164	-28.707	215.019	294.166	242.592	-40.729	42.081	148.012	0.00018948	0.00099926	0.00014503	905.57	2.2589e-06	2.5419e-06	703.34	274.71	2.7864e-06	9.6191e-06	233.48	73.642	82.253	27.906	8.3192e-06	33.041	0.0022714	0.002387	0.0006643	1037.3	2.5803e-05	2.6183e-05	768.34	295.1	2.563e-05	2.6027e-05	271.87	87.078	102.22	32.312	2.605e-05	39.01	140.874	1.690	125.258	-47.318	42.297	213.772	-48.974	-43.050	297.210	-42.571	-44.974	-40.588	-39.172	-33.378	31.312	-36.593	-8191	255	
8529.344	1	1	0	0	0.11847	0.034483	0.21676	0.26973	0.059916	0.16953	0.34116	0.28103	0.13952	0.13405	0.17921	0.30376	0.11285	0.18492	0.14543	0.16756	-1.8083	-2.7667	-2.5208	-2.2333	-2.9479	-2.6063	-2.7146	-2.9146	-2.1104	-2.8917	-2.6604	-2.1417	-2.8667	-2.3646	-2.3125	-2.8812	275.292	14.366	-12.382	277.406	154.763	27.996	291.018	213.715	94.543	184.659	208.210	222.646	263.809	213.620	-5.218	295.676	0.00012252	0.0012516	0.00014946	905.98	5.6238e-06	6.849e-06	697.43	274.47	2.6433e-06	1.4465e-05	231.45	73.171	81.725	28.002	4.8571e-06	33.092	0.0022563	0.0023758	0.00065516	1031.3	2.5881e-05	2.6089e-05	762.09	293.26	2.5718e-05	2.6118e-05	270.07	86.859	102.26	32.319	2.5737e-05	39.076	115.662	196.456	232.547	-47.704	70.222	112.987	-48.178	-42.961	175.732	49.656	-45.154	-40.951	-38.846	-33.309	203.124	-36.567	-8191	255	
8529.440	1	1	0	0	0.099489	0.055916	0.21237	0.1162	0.057939	0.15734	0.099637	0.26615	0.075825	0.040488	0.21819	0.18565	0.053226	0.18599	0.12904	0.12749	-1.7479	-2.7625	-2.8417	-2.2229	-3.0167	-2.3187	-2.5979	-3.0875	-2.1042	-2.7917	-2.8417	-2.2812	-3.0792	-2.5667	-2.4167	-3.0729	60.991	268.199	-50.508	8.809	237.563	19.879	143.936	219.438	-7.931	285.629	-53.106	141.898	30.303	45.566	42.859	22.371	0.00033066	0.0010892	9.672e-05	903.39	8.4645e-06	1.4867e-06	697.82	273.84	7.1824e-06	1.0836e-05	234.7	73.967	82.732	28.033	9.8559e-06	33.426	0.0022714	0.0023753	0.00065541	1033.8	2.6198e-05	2.6082e-05	763.06	293.67	2.5987e-05	2.6337e-05	271.78	87.632	103.08	32.435	2.5982e-05	39.351	99.004	30.529	-5.707	-47.647	152.969	128.091	-48.654	-42.711	15.220	71.828	-44.948	-40.579	-38.816	-33.253	119.630	-36.197	-8191	255	
#DATA ENDS
