BOXY.EXE: ISS Imagent and Oximeter Data Acquisition Program Version 0.80
Ascii Record File

#ACQ INFORMATION
2  Detector Channels 
16  External MUX Channels 
1  Auxiliary Channels 
5000  Waveform (CCF) Frequency (Hz)
1  Waveforms Skipped 
30  Waveforms Averaged 
1  Cycles Averaged 
16  Acquisitions per Waveform 
10.0806  Updata Rate (Hz) 

#FILE INFORMATION
TRUE -- External MUX Channel results are PARSED.
FALSE -- AC DC and Phase are NOT grouped.
TRUE -- Companion Program Settings File CREATED.
FALSE -- AC data not excluded
FALSE -- DC data not excluded
FALSE -- Phase data not excluded
FALSE -- Auxillary Chn. data not excluded
Tab delimiters

#CALIBRATION STATE
TRUE -- Waveform Calibration Values APPLIED.


#AUX CALIBRATION VALUES
Val Type	aux-1	

Term	1.0000e+00	
Factor	0.0000e+00	


#WF CALIBRATION VALUES
A = Detector Channel
Val Type	A-AC1	A-AC2	A-AC3	A-AC4	A-AC5	A-AC6	A-AC7	A-AC8	A-AC9	A-AC10	A-AC11	A-AC12	A-AC13	A-AC14	A-AC15	A-AC16	A-DC1	A-DC2	A-DC3	A-DC4	A-DC5	A-DC6	A-DC7	A-DC8	A-DC9	A-DC10	A-DC11	A-DC12	A-DC13	A-DC14	A-DC15	A-DC16	A-Ph1	A-Ph2	A-Ph3	A-Ph4	A-Ph5	A-Ph6	A-Ph7	A-Ph8	A-Ph9	A-Ph10	A-Ph11	A-Ph12	A-Ph13	A-Ph14	A-Ph15	A-Ph16	

Term	0.00000e+00	0.00000e+00	0.00000e+00	0.00000e+00	0.00000e+00	0.00000e+00	0.00000e+00	0.00000e+00	0.00000e+00	0.00000e+00	0.00000e+00	0.00000e+00	0.00000e+00	0.00000e+00	0.00000e+00	0.00000e+00	0.00000e+00	0.00000e+00	0.00000e+00	0.00000e+00	0.00000e+00	0.00000e+00	0.00000e+00	0.00000e+00	0.00000e+00	0.00000e+00	0.00000e+00	0.00000e+00	0.00000e+00	0.00000e+00	0.00000e+00	0.00000e+00	0.00000e+00	0.00000e+00	0.00000e+00	0.00000e+00	0.00000e+00	0.00000e+00	0.00000e+00	0.00000e+00	0.00000e+00	0.00000e+00	0.00000e+00	0.00000e+00	0.00000e+00	0.00000e+00	0.00000e+00	0.00000e+00	
Factor	1.00000e+00	1.00000e+00	1.00000e+00	1.00000e+00	1.00000e+00	1.00000e+00	1.00000e+00	1.00000e+00	1.00000e+00	1.00000e+00	1.00000e+00	1.00000e+00	1.00000e+00	1.00000e+00	1.00000e+00	1.00000e+00	1.00000e+00	1.00000e+00	1.00000e+00	1.00000e+00	1.00000e+00	1.00000e+00	1.00000e+00	1.00000e+00	1.00000e+00	1.00000e+00	1.00000e+00	1.00000e+00	1.00000e+00	1.00000e+00	1.00000e+00	1.00000e+00	X	X	X	X	X	X	X	X	X	X	X	X	X	X	X	X	

B = Detector Channel
Val Type	B-AC1	B-AC2	B-AC3	B-AC4	B-AC5	B-AC6	B-AC7	B-AC8	B-AC9	B-AC10	B-AC11	B-AC12	B-AC13	B-AC14	B-AC15	B-AC16	B-DC1	B-DC2	B-DC3	B-DC4	B-DC5	B-DC6	B-DC7	B-DC8	B-DC9	B-DC10	B-DC11	B-DC12	B-DC13	B-DC14	B-DC15	B-DC16	B-Ph1	B-Ph2	B-Ph3	B-Ph4	B-Ph5	B-Ph6	B-Ph7	B-Ph8	B-Ph9	B-Ph10	B-Ph11	B-Ph12	B-Ph13	B-Ph14	B-Ph15	B-Ph16	

Term	0.00000e+00	0.00000e+00	0.00000e+00	0.00000e+00	0.00000e+00	0.00000e+00	0.00000e+00	0.00000e+00	0.00000e+00	0.00000e+00	0.00000e+00	0.00000e+00	0.00000e+00	0.00000e+00	0.00000e+00	0.00000e+00	0.00000e+00	0.00000e+00	0.00000e+00	0.00000e+00	0.00000e+00	0.00000e+00	0.00000e+00	0.00000e+00	0.00000e+00	0.00000e+00	0.00000e+00	0.00000e+00	0.00000e+00	0.00000e+00	0.00000e+00	0.00000e+00	-1.43220e+02	-1.37795e+02	-1.29845e+02	-1.86439e+02	-7.10007e+01	-7.15790e+01	-1.58425e+02	-1.62015e+02	-7.22934e+01	-6.89348e+01	-1.72027e+02	-1.71135e+02	-1.83141e+02	-1.77212e+02	-7.04877e+01	-1.49516e+02	
Factor	1.98415e-05	1.40481e-04	3.80534e-05	3.00717e-01	1.29894e-06	1.56650e-06	1.64142e-01	4.74299e-02	1.09724e-06	1.60068e-06	7.71224e-02	2.57182e-02	3.63871e-02	8.29053e-03	1.33558e-06	1.17360e-02	1.58138e-05	3.46588e-05	9.71925e-06	1.60928e-01	3.54865e-07	3.98239e-07	8.30163e-02	2.56128e-02	3.24533e-07	3.93884e-07	4.04054e-02	1.35450e-02	1.99829e-02	4.52810e-03	3.50600e-07	6.21791e-03	X	X	X	X	X	X	X	X	X	X	X	X	X	X	X	X	



#DISTANCE SETTINGS
A = Detector Channel
A-1	A-2	A-3	A-4	A-5	A-6	A-7	A-8	A-9	A-10	A-11	A-12	A-13	A-14	A-15	A-16	

2.5000e+00	3.0000e+00	2.5000e+00	3.0000e+00	2.0000e+00	3.0000e+00	1.5000e+00	3.0000e+00	3.0000e+00	3.0000e+00	3.0000e+00	3.0000e+00	3.0000e+00	3.0000e+00	1.5000e+00	3.0000e+00	

B = Detector Channel
B-1	B-2	B-3	B-4	B-5	B-6	B-7	B-8	B-9	B-10	B-11	B-12	B-13	B-14	B-15	B-16	

1.0000e+01	1.0000e+01	1.0000e+01	1.4400e+00	1.0000e+01	1.0000e+01	1.5100e+00	1.9400e+00	1.0000e+01	1.0000e+01	1.9900e+00	2.4900e+00	2.4100e+00	2.9000e+00	1.0000e+01	2.9800e+00	




#DATA BEGINS
time	group	step	mark	flag	A-AC1	A-AC2	A-AC3	A-AC4	A-AC5	A-AC6	A-AC7	A-AC8	A-AC9	A-AC10	A-AC11	A-AC12	A-AC13	A-AC14	A-AC15	A-AC16	A-DC1	A-DC2	A-DC3	A-DC4	A-DC5	A-DC6	A-DC7	A-DC8	A-DC9	A-DC10	A-DC11	A-DC12	A-DC13	A-DC14	A-DC15	A-DC16	A-Ph1	A-Ph2	A-Ph3	A-Ph4	A-Ph5	A-Ph6	A-Ph7	A-Ph8	A-Ph9	A-Ph10	A-Ph11	A-Ph12	A-Ph13	A-Ph14	A-Ph15	A-Ph16	B-AC1	B-AC2	B-AC3	B-AC4	B-AC5	B-AC6	B-AC7	B-AC8	B-AC9	B-AC10	B-AC11	B-AC12	B-AC13	B-AC14	B-AC15	B-AC16	B-DC1	B-DC2	B-DC3	B-DC4	B-DC5	B-DC6	B-DC7	B-DC8	B-DC9	B-DC10	B-DC11	B-DC12	B-DC13	B-DC14	B-DC15	B-DC16	B-Ph1	B-Ph2	B-Ph3	B-Ph4	B-Ph5	B-Ph6	B-Ph7	B-Ph8	B-Ph9	B-Ph10	B-Ph11	B-Ph12	B-Ph13	B-Ph14	B-Ph15	B-Ph16	aux-1	digaux	

28662.877	1	1	0	768	0.09876	0.10245	0.34233	0.088779	0.006721	0.17739	0.26749	0.15264	0.091163	0.1992	0.28894	0.38133	0.057047	0.27837	0.13272	0.095719	-2.5563	-2.3417	-2.2062	-3.0687	-2.0375	-2.6792	-3.0375	-2.375	-2.8354	-2.4188	-2.4521	-3.1625	-2.1771	-2.5875	-2.8312	-2.2604	20.722	-54.549	-126.688	173.939	48.974	195.783	76.063	105.219	109.308	85.768	217.701	-77.599	-107.254	178.632	202.564	226.212	0.00032114	0.00062242	0.00013353	1369.2	4.0482e-06	5.5862e-06	1357.7	369.94	3.4481e-06	5.3753e-06	422.85	139.91	121.7	41.953	4.6198e-06	52.139	0.00048532	0.00053519	0.00015798	1377.9	5.9721e-06	5.8815e-06	1374.7	374.77	5.9761e-06	5.9312e-06	427.79	143.24	124.82	42.988	5.8755e-06	53.292	192.421	-42.101	-40.114	-116.111	11.928	11.336	-116.504	-111.675	-10.512	22.699	-111.918	-108.118	-107.702	-102.303	2.859	-103.330	-8191	255	
28662.973	1	1	0	0	0.26353	0.17452	0.12947	0.22461	0.040715	0.24616	0.3974	0.1765	0.29065	0.18591	0.21691	0.15433	0.082247	0.22231	0.16746	0.18494	-2.3937	-2.6208	-2.2229	-3.1125	-2.1937	-2.3438	-3.1542	-2.2854	-2.9542	-2.6083	-2.0812	-3.0396	-2.5312	-2.5375	-3.05	-2.4583	154.240	187.434	-91.144	141.513	35.387	76.045	155.533	162.919	145.081	214.146	134.565	-128.489	-101.095	185.709	77.978	205.753	0.00034803	0.00051157	0.00014374	1364.1	2.9541e-06	4.3924e-06	1358.4	369.18	4.1126e-06	6.2502e-06	421.89	139.87	121.26	42.179	3.206e-06	51.902	0.00048133	0.00054024	0.00015612	1377.7	5.927e-06	6.0283e-06	1375.5	373.91	5.8504e-06	5.9928e-06	427.24	143.19	124.54	42.967	5.7381e-06	53.215	192.079	-49.091	-36.306	-116.335	25.710	30.188	-116.383	-111.634	-18.528	10.729	-111.966	-107.852	-107.636	-102.640	9.136	-103.146	-8191	255	
28663.068	1	1	0	0	0.05008	0.0076919	0.065641	0.16084	0.12631	0.26842	0.22193	0.27738	0.3007	0.048266	0.20763	0.24471	0.17961	0.20797	0.23892	0.28386	-2.4062	-2.6625	-2.0875	-3.0042	-2.5229	-2.2958	-3.0771	-2.3271	-2.6979	-2.7729	-2.2708	-3.0687	-2.3979	-2.3625	-3.0375	-2.2854	149.633	-103.961	225.917	126.590	-79.411	45.629	181.753	165.641	43.752	49.490	160.088	215.188	-127.376	212.888	-73.695	150.293	0.00032406	0.00046997	0.00015467	1369.7	4.1295e-06	5.2455e-06	1359.1	370.18	3.9037e-06	5.1883e-06	419.81	139.64	120.76	42.219	3.8311e-06	51.702	0.00049339	0.00052718	0.00015553	1378.7	5.8545e-06	6.3353e-06	1375.8	373.93	5.9335e-06	5.809e-06	427.03	143.08	124.04	43.074	5.8353e-06	53.119	189.389	-51.753	-41.981	-116.092	13.196	12.086	-115.996	-111.677	7.712	12.283	-111.872	-107.894	-107.653	-102.494	1.441	-103.082	-8191	255	
28663.164	1	1	0	0	0.28563	0.2789	0.060307	0.19601	0.22854	0.11117	0.23953	0.22056	0.08448	0.086438	0.20025	0.10581	0.27163	0.32137	0.0032579	0.23583	-2.1833	-2.8458	-1.9417	-2.9	-2.4813	-2.2958	-3.2146	-2.3688	-2.5667	-2.8375	-2.2958	-2.8812	-2.6375	-2.175	-2.975	-2.1688	-129.441	73.672	-79.824	-123.591	116.574	162.103	196.604	212.267	203.750	182.005	-121.989	147.426	-97.035	157.750	-25.343	136.642	0.00034426	0.00056638	0.00012036	1365.9	4.3007e-06	5.0847e-06	1359.1	367.13	3.0482e-06	4.6784e-06	421.65	140.27	121.41	42.173	3.2641e-06	51.632	0.00048539	0.00054342	0.00015219	1377.2	6.0364e-06	6.0292e-06	1376.6	373.78	6.0113e-06	5.5579e-06	426.45	143.31	124.47	42.991	5.7893e-06	53.062	195.822	-46.737	-37.301	-115.844	5.585	15.964	-115.859	-111.484	-6.127	35.905	-111.710	-107.855	-107.302	-102.296	24.953	-103.035	-8191	255	
28663.262	1	1	0	0	0.050517	0.11387	0.093566	0.18654	0.1324	0.36117	0.067773	0.22301	0.092177	0.16262	0.13578	0.051238	0.074154	0.36334	0.31668	0.11978	-2.1208	-2.9458	-2.0917	-3.0042	-2.6063	-2.0042	-3.1896	-2.4896	-2.4542	-2.8396	-2.425	-2.9333	-2.8958	-2.1562	-2.8375	-2.5042	-46.790	210.537	98.864	223.653	122.674	92.324	102.308	224.282	-65.326	17.431	150.324	-34.025	223.228	228.820	12.979	-74.679	0.00032777	0.00046547	0.00014876	1369.8	2.0938e-06	6.0283e-06	1362.9	368.54	3.83e-06	5.2365e-06	422.86	139.51	121.07	42.143	3.5108e-06	51.937	0.00049339	0.0005318	0.00015279	1377.4	5.7429e-06	6.2598e-06	1376.9	373.24	6.1411e-06	5.7244e-06	427.32	143.25	124.3	43.004	6.0099e-06	53.164	193.203	-59.984	-36.058	-115.966	16.133	16.843	-116.184	-111.470	-14.368	18.090	-111.660	-107.915	-107.569	-102.130	1.686	-103.145	-8191	255	
28663.357	1	1	0	0	0.19482	0.1464	0.17977	0.10039	0.14069	0.068014	0.15064	0.3881	0.092177	0.21166	0.1107	0.35393	0.30008	0.20083	0.060593	0.17826	-1.9354	-2.8271	-2.0333	-2.6042	-2.7229	-2.1146	-3.0271	-2.6229	-2.3208	-3.1083	-2.225	-2.5354	-2.7438	-2.05	-2.8083	-2.6583	-33.659	184.903	46.190	13.707	-105.623	-38.716	160.603	186.615	185.789	-66.105	187.735	-122.327	193.966	-92.578	222.376	100.913	0.00034089	0.00053881	0.00013979	1364.4	3.3197e-06	6.6132e-06	1355.5	369.82	3.0388e-06	4.0463e-06	421.11	139.99	121.45	42.007	3.8164e-06	51.712	0.00050031	0.00054154	0.00015668	1375.3	5.9174e-06	6.1611e-06	1375.8	374.07	6.3081e-06	5.8213e-06	426.76	143.16	124.27	42.964	5.714e-06	53.167	193.200	-38.224	-39.576	-115.935	12.345	9.451	-115.863	-111.381	-25.369	24.982	-111.893	-107.919	-107.341	-102.421	0.065	-102.970	-8191	255	
28663.479	1	1	0	0	0.24023	0.088146	0.24804	0.21781	0.14546	0.14968	0.054552	0.16651	0.1555	0.41645	0.17557	0.23822	0.10252	0.3047	0.089138	0.1114	-1.8229	-2.875	-2.4167	-2.3875	-2.7229	-2.2167	-3.0333	-2.7229	-2.1188	-2.8042	-2.5146	-2.4896	-2.8958	-2.1875	-2.7354	-2.8167	108.116	57.381	107.173	89.789	219.693	-51.906	176.164	-19.088	102.961	77.944	-100.822	-126.781	64.444	204.872	-122.318	164.057	0.00031206	0.00058627	0.00015582	1363.8	3.9523e-06	4.2713e-06	1355.8	369.47	3.7418e-06	5.5965e-06	421.97	140.13	121.53	42.28	2.5278e-06	52.015	0.0004985	0.0005375	0.00014931	1375.5	5.9159e-06	6.0292e-06	1375.7	374.38	6.3629e-06	5.6949e-06	427.39	143.32	124.45	43.022	5.969e-06	53.25	194.017	-66.457	-50.189	-115.742	8.880	15.366	-116.057	-111.325	-10.523	30.972	-111.545	-107.746	-107.160	-102.429	-0.326	-102.942	-8191	255	
28663.574	1	1	0	0	0.11998	0.060688	0.18414	0.23939	0.054364	0.13844	0.43205	0.049295	0.14742	0.20928	0.27421	0.22149	0.24577	0.036045	0.24462	0.18614	-1.7458	-2.7917	-2.1292	-2.4604	-2.9562	-2.3583	-2.9771	-2.7979	-2.1479	-2.8875	-2.5583	-2.45	-3.1042	-2.2375	-2.6854	-3.0271	-83.868	26.098	-66.144	63.017	151.808	176.394	169.125	28.972	27.472	118.740	-104.572	186.672	-102.838	-118.213	43.938	140.220	0.00034017	0.000418	0.0001098	1363.9	3.1939e-06	6.7811e-06	1360.7	368.54	2.5351e-06	5.1406e-06	419.88	140.06	122.06	42.003	3.158e-06	51.971	0.00048473	0.00051786	0.0001436	1376.7	5.8072e-06	5.9918e-06	1377.3	373.53	6.1323e-06	5.4175e-06	426.99	143.33	124.51	42.944	6.1077e-06	53.327	189.485	-59.072	-46.740	-115.607	16.435	8.178	-116.029	-111.348	-4.337	2.925	-111.861	-107.918	-107.546	-102.517	-0.640	-103.218	-8191	255	
28663.670	1	1	0	0	0.070612	0.26651	0.11108	0.093175	0.16321	0.32502	0.25789	0.36171	0.12029	0.068371	0.31863	0.2817	0.064382	0.16469	0.16925	0.18365	-1.7229	-2.8063	-2.3479	-2.3792	-2.9208	-2.3667	-2.7562	-2.9458	-2.2604	-2.85	-2.6813	-2.2771	-3.0563	-2.45	-2.5417	-3.0396	155.407	-20.112	-78.724	28.592	-77.714	157.332	220.290	84.934	180.761	92.424	100.560	226.415	-90.383	138.733	25.016	-107.848	0.00032266	0.00046392	0.00014567	1363.7	3.705e-06	4.2136e-06	1361.5	368.49	4.0451e-06	4.9445e-06	421.53	140.42	121.91	42.016	3.2425e-06	51.942	0.00048493	0.00055173	0.00015439	1377.2	5.7252e-06	6.1827e-06	1376	373.96	6.1837e-06	5.9526e-06	426.38	143.34	124.71	42.959	6.145e-06	53.127	192.205	-43.169	-34.343	-115.693	21.659	20.512	-116.103	-111.286	-1.249	15.585	-111.803	-107.879	-107.324	-102.136	19.767	-103.027	-8191	255	
28663.766	1	1	0	0	0.091956	0.074788	0.28289	0.18112	0.13546	0.26762	0.23237	0.19164	0.30038	0.10048	0.18259	0.31017	0.19724	0.10543	0.29179	0.15624	-1.7146	-2.7583	-2.6083	-2.3937	-3.0354	-2.2083	-2.6167	-2.9229	-2.1354	-2.7667	-2.6396	-2.2375	-2.9771	-2.4896	-2.3417	-2.8812	49.912	-64.702	-92.942	107.778	170.488	217.112	181.940	174.849	33.504	20.908	99.104	181.853	11.747	-7.747	-52.581	131.170	0.00032985	0.00046555	0.00017814	1368	3.9152e-06	5.1517e-06	1355.2	368.34	3.0013e-06	5.7408e-06	421.58	139.97	121.26	42.052	3.0246e-06	51.848	0.00049069	0.00056147	0.00015304	1375.9	5.9906e-06	5.9877e-06	1374.9	373.82	5.9329e-06	5.9362e-06	427.53	143.31	124.37	42.962	6.08e-06	53.149	188.306	-47.818	-21.527	-116.250	5.117	32.413	-115.910	-111.409	-0.136	30.157	-111.711	-107.527	-106.869	-102.240	7.100	-102.806	-8191	255	
28663.859	1	1	0	0	0.13934	0.074494	0.1323	0.20408	0.18841	0.03072	0.18136	0.15094	0.019294	0.081607	0.35313	0.13901	0.18407	0.34498	0.12468	0.068425	-1.6688	-2.5896	-2.6604	-2.2833	-2.7875	-2.4146	-2.5667	-2.7917	-2.2167	-2.7292	-3.125	-2.475	-3.0167	-2.6583	-2.5708	-2.9896	110.938	46.761	-105.011	-129.146	169.887	223.806	228.721	157.817	-94.160	-18.695	-128.574	-117.708	-124.883	176.886	-15.151	89.394	0.00032673	0.00053796	0.00010075	1359.8	3.5287e-06	5.0667e-06	1357.9	369.15	2.3918e-06	6.1562e-06	422.19	140.72	121.99	42.163	4.2223e-06	51.702	0.00049837	0.00053598	0.00014939	1375.2	5.6919e-06	6.4548e-06	1375.9	373.96	5.9261e-06	6.1914e-06	427.11	143.4	124.81	42.982	6.0281e-06	53.213	192.320	-49.477	-40.703	-116.091	12.096	44.398	-115.926	-111.440	-32.085	12.039	-111.773	-107.702	-107.500	-102.379	34.431	-102.747	-8191	255	
28663.957	1	1	0	0	0.16351	0.09344	0.10159	0.34113	0.19735	0.03046	0.31567	0.45528	0.22335	0.23233	0.32964	0.084275	0.15316	0.27977	0.18867	0.17238	-1.6375	-2.6229	-2.9708	-2.2833	-2.8042	-2.6021	-2.3917	-3.1292	-2.4146	-2.4979	-3.1375	-2.1	-2.8708	-2.7875	-2.0583	-3.1	132.576	137.477	45.891	159.250	83.654	-60.344	196.517	219.880	221.095	170.439	137.157	218.581	-96.667	-106.734	197.617	102.318	0.00034003	0.00055262	0.0001475	1366.2	4.4905e-06	4.7036e-06	1361.1	368.75	3.703e-06	3.4826e-06	421.78	140.06	121.57	42.258	3.015e-06	51.954	0.00050453	0.00055952	0.00015091	1375.1	6.1177e-06	5.962e-06	1378	374.1	6.3615e-06	5.9714e-06	426.15	143.17	124.29	43.036	6.0544e-06	53.213	191.172	-49.478	-45.818	-116.080	8.233	37.674	-115.962	-111.184	-11.703	32.108	-111.547	-107.806	-107.338	-102.369	-26.924	-102.822	-8191	255	
28664.076	1	1	0	0	0.22973	0.087091	0.16741	0.17381	0.16117	0.10994	0.28736	0.096263	0.070521	0.073774	0.087662	0.36747	0.18364	0.17021	0.059066	0.25712	-1.8417	-2.2396	-2.9854	-2.1917	-2.5021	-2.6937	-2.3146	-2.9188	-2.2479	-2.2979	-2.9792	-2.0792	-2.8771	-2.7438	-2.2146	-2.9583	-19.207	143.691	29.422	112.958	-8.315	-112.462	135.686	-64.854	-96.106	-97.777	221.166	220.123	156.426	-63.658	130.443	73.808	0.00036453	0.00055496	0.00014285	1368.2	3.716e-06	5.5236e-06	1358.8	368.89	3.0847e-06	4.7663e-06	422.66	139.79	121.39	41.974	3.9617e-06	51.976	0.00050871	0.00057346	0.00015053	1378.3	6.015e-06	5.9338e-06	1377.3	374.14	5.9139e-06	6.0707e-06	427.22	143.26	124.63	42.944	5.8886e-06	53.195	190.469	-42.918	-39.067	-115.792	8.967	22.477	-116.033	-111.370	-12.493	12.376	-111.609	-107.930	-107.297	-102.200	30.870	-102.838	-8191	255	
28664.174	1	1	0	0	0.018731	0.11305	0.3116	0.37014	0.11293	0.31421	0.32347	0.27459	0.11329	0.24486	0.12169	0.25631	0.22981	0.098884	0.083852	0.1631	-2.1854	-2.4333	-2.8667	-2.3667	-2.7292	-2.8167	-2.525	-3.0479	-2.4458	-2.1583	-3.175	-2.3083	-2.6667	-3.0958	-2.1021	-2.9208	177.849	117.104	46.886	-109.364	-73.619	-55.244	193.913	189.692	87.810	169.311	82.705	-116.536	-109.811	-113.786	167.066	170.915	0.00033981	0.00048228	0.00013899	1364.7	3.8678e-06	5.4863e-06	1359.2	368.37	3.1726e-06	5.9098e-06	422.36	139.74	121.42	42.053	3.0376e-06	51.916	0.00049606	0.00055079	0.00014561	1376.9	6.0712e-06	6.1171e-06	1375	373.89	6.1296e-06	5.9977e-06	427.43	143.16	124.61	42.947	6.0961e-06	53.225	190.759	-40.037	-28.485	-116.060	20.082	4.554	-115.845	-111.055	-18.444	38.092	-111.581	-107.394	-107.284	-102.311	20.488	-102.731	-8191	255	
28664.270	1	1	0	0	0.25536	0.23047	0.065146	0.17431	0.11311	0.2247	0.14925	0.10404	0.24294	0.029553	0.13098	0.21572	0.31068	0.14862	0.28525	0.074367	-2.2083	-2.1896	-2.9854	-2.2292	-2.5917	-2.9042	-2.4396	-2.8375	-2.5312	-2.1729	-3.1208	-2.3771	-2.5354	-2.9333	-2.1917	-2.8354	27.051	132.658	-3.917	-60.462	162.766	67.154	203.142	138.780	100.368	135.508	-90.690	94.072	184.347	122.245	60.425	102.867	0.00035848	0.00038523	0.00013094	1368.7	4.5488e-06	5.4096e-06	1357.4	368.64	2.0458e-06	6.265e-06	420.98	139.65	121.52	41.988	5.5303e-06	52.049	0.00049669	0.00057021	0.00014291	1377.2	6.3469e-06	6.0101e-06	1375.1	374.41	5.9308e-06	6.2365e-06	425.8	142.94	124.72	42.955	6.0793e-06	53.268	192.925	-43.660	-37.596	-115.700	17.569	34.441	-116.050	-111.089	-4.850	16.883	-111.432	-107.727	-107.191	-102.347	-2.199	-102.774	-8191	255	
28664.365	1	1	0	0	0.064993	0.12947	0.16686	0.11235	0.05368	0.24911	0.28148	0.19012	0.091298	0.27602	0.23247	0.15901	0.26379	0.048467	0.11394	0.15149	-2.3146	-2.2875	-2.8396	-2.4333	-2.2812	-2.9833	-2.3771	-2.8875	-2.7188	-2.2458	-3.1396	-2.6458	-2.3375	-3.0646	-2.2104	-2.6771	-79.300	73.038	208.506	120.649	112.068	224.351	197.597	181.838	-76.341	-113.177	-107.479	153.798	200.773	-37.947	156.106	140.934	0.00034054	0.00040792	0.00017049	1364.3	4.5673e-06	4.8582e-06	1353.9	369.18	3.2015e-06	5.0687e-06	420.99	139.75	120.86	42.145	4.5205e-06	51.897	0.00049191	0.00057476	0.00014419	1377	6.0201e-06	5.6185e-06	1374	374.08	5.9045e-06	6.1553e-06	426.95	143.11	124.58	42.981	6.1669e-06	53.243	191.599	-59.898	-28.329	-115.889	18.470	24.710	-116.207	-111.419	-24.141	14.117	-111.985	-108.191	-107.468	-102.391	17.044	-102.865	-8191	255	
28664.438	1	1	0	0	0.23882	0.15626	0.090691	0.10525	0.25066	0.016545	0.18513	0.35018	0.20404	0.30457	0.22692	0.34059	0.31491	0.038611	0.30419	0.44056	-2.4646	-2.2208	-2.9646	-2.4979	-2.1833	-2.9125	-2.3792	-2.6958	-2.875	-1.9813	-3.1271	-2.5771	-2.1958	-2.9979	-2.2292	-2.4667	152.976	-43.781	-120.644	202.773	-120.509	-110.705	177.568	147.669	200.308	161.336	157.746	184.376	185.110	112.727	64.487	229.501	0.0003389	0.00036847	0.00015034	1365.9	4.2836e-06	6.1469e-06	1362.3	369.25	2.1011e-06	6.3648e-06	423.18	140.36	121.58	42.283	4.4376e-06	52.03	0.00049257	0.00056241	0.00015381	1377.1	6.1199e-06	5.7662e-06	1376.3	374.11	5.8064e-06	6.303e-06	427.24	143.09	124.82	43.067	5.9828e-06	53.262	192.815	-34.665	-29.069	-115.717	13.543	10.909	-116.066	-111.276	-25.659	28.546	-111.620	-107.609	-107.222	-102.334	19.910	-102.908	-8191	255	
28664.559	1	1	0	0	0.059949	0.061692	0.19571	0.38376	0.19976	0.21728	0.1631	0.11452	0.11148	0.2203	0.070159	0.026196	0.15416	0.18378	0.096797	0.3054	-2.5271	-2.1	-2.6625	-2.8896	-2.0375	-3.0042	-2.5375	-2.6896	-3.0292	-2.1917	-2.9917	-2.8688	-2.0938	-3.2104	-2.6188	-2.4104	144.617	117.320	-53.826	183.220	230.288	-20.257	205.254	151.739	-68.779	114.675	59.802	182.813	81.897	-81.508	38.699	180.853	0.00034206	0.00033751	0.00011345	1368.6	4.4733e-06	6.0922e-06	1362.5	368.98	4.3221e-06	4.8365e-06	420.29	139.89	122.25	42.207	2.8064e-06	51.886	0.00048275	0.00055729	0.00015002	1376.6	6.0963e-06	5.7911e-06	1376.6	373.8	5.7422e-06	6.0642e-06	427.08	143.33	124.37	43.073	5.9587e-06	53.162	189.980	-44.769	-56.837	-115.765	24.872	4.742	-115.899	-111.165	-10.278	29.452	-111.490	-107.876	-107.232	-102.179	8.029	-103.233	-8191	255	
28664.654	1	1	0	0	0.19651	0.16949	0.063822	0.27686	0.084379	0.1524	0.309	0.16719	0.15585	0.061896	0.28633	0.20394	0.19087	0.26033	0.026934	0.2071	-2.4333	-2.1271	-2.6958	-2.9396	-1.8854	-2.9021	-2.5979	-2.3688	-2.925	-2.325	-2.6521	-2.8458	-2.0438	-2.8625	-2.4958	-2.3063	145.337	74.429	149.261	127.937	56.286	-15.200	152.566	219.576	181.411	132.179	203.922	222.833	-84.540	-59.042	173.779	77.221	0.00034128	0.00048065	0.00012233	1364.5	2.6139e-06	4.7344e-06	1358.9	366.93	3.3572e-06	4.6233e-06	420.8	139.27	121.74	42.012	5.7659e-06	51.869	0.00049207	0.00051338	0.00014514	1374.4	5.6298e-06	5.5214e-06	1372.8	373.37	5.5387e-06	5.8451e-06	426.77	142.93	124.55	42.937	5.8148e-06	53.134	190.507	-46.239	-34.997	-116.499	5.709	2.098	-116.472	-111.539	-21.229	17.616	-112.226	-108.454	-107.833	-103.010	2.315	-103.436	-8191	255	
28664.750	1	1	0	0	0.031344	0.1203	0.21342	0.1809	0.16434	0.11162	0.36997	0.044382	0.17565	0.24076	0.095931	0.25825	0.24931	0.18247	0.09357	0.11883	-2.5812	-2.1813	-2.4354	-3.1188	-2.1333	-2.8167	-2.8021	-2.3063	-2.8083	-2.3187	-2.7125	-2.9667	-2.3187	-2.7646	-2.6521	-2.4021	60.716	159.874	-106.226	-76.497	77.677	52.558	165.341	134.246	78.999	228.374	140.440	192.571	122.075	165.703	-40.104	164.155	0.00033357	0.00044288	0.00012273	1362.2	3.7474e-06	5.1126e-06	1357.2	368.92	3.4909e-06	4.8616e-06	422.15	140.04	121.45	42.149	3.8799e-06	51.874	0.0004645	0.0005479	0.00015257	1374.3	6.0401e-06	5.7305e-06	1376	373.85	5.6476e-06	5.7827e-06	426.78	143.34	124.6	43.028	5.7455e-06	53.196	187.967	-62.735	-53.610	-116.662	2.723	11.010	-116.697	-112.130	8.945	24.567	-112.227	-108.455	-108.047	-102.996	6.244	-103.541	-8191	255	
28664.846	1	1	0	0	0.29481	0.27068	0.035106	0.23957	0.11578	0.071695	0.29082	0.087612	0.10255	0.093902	0.18648	0.13821	0.15265	0.27443	0.15451	0.076213	-2.5521	-2.4562	-2.3271	-3.0312	-2.1417	-2.6854	-2.85	-2.3583	-2.8646	-2.5438	-2.3771	-2.9667	-2.3187	-2.7229	-2.7146	-2.1875	-125.069	-21.172	-68.385	201.300	34.098	68.902	169.024	222.195	87.547	101.117	149.157	0.089	185.769	189.340	65.723	226.914	0.00033123	0.00053792	0.00013185	1360.9	4.1345e-06	3.5915e-06	1355.7	368.47	3.8538e-06	6.2694e-06	420.79	139.55	121.55	42.207	4.0546e-06	51.706	0.00048661	0.00051995	0.00013953	1374.2	6.0394e-06	5.9885e-06	1373.3	374.06	5.6239e-06	5.9517e-06	426.11	142.86	124.54	43.023	5.6016e-06	53.125	192.894	-55.357	-37.646	-116.813	15.456	-1.400	-116.613	-112.022	-15.540	14.018	-112.532	-108.666	-108.102	-103.122	30.786	-103.933	-8191	255	
28664.965	1	1	0	0	0.12395	0.057937	0.12921	0.11712	0.14372	0.19867	0.145	0.13052	0.12904	0.23519	0.34515	0.16591	0.2056	0.16294	0.029359	0.21031	-2.5458	-2.3521	-2.0583	-3.0958	-2.2604	-2.5667	-3.1771	-2.2542	-2.7729	-2.5875	-2.3146	-3.0292	-2.3854	-2.5333	-2.9167	-2.1667	167.702	189.214	46.726	-6.196	93.176	-95.727	111.002	164.586	155.032	196.686	109.079	161.958	126.073	-33.254	-89.906	-125.510	0.00034213	0.00054169	0.00014384	1360.3	4.4157e-06	5.5829e-06	1354	367.83	2.2526e-06	4.4193e-06	422.32	140.13	120.83	42.065	3.3786e-06	51.906	0.00049382	0.00054913	0.00014842	1372.7	5.5455e-06	5.6683e-06	1373	373.46	6.016e-06	5.777e-06	426.9	143.12	124.11	43.025	5.7849e-06	53.216	193.467	-48.085	-42.996	-116.762	11.156	9.100	-116.920	-111.986	-16.007	8.355	-112.260	-108.442	-108.205	-103.009	-5.777	-103.769	-8191	255	
28665.039	1	1	0	0	0.067047	0.0025726	0.15732	0.066752	0.12276	0.091811	0.52847	0.01723	0.24912	0.03585	0.31312	0.24741	0.211	0.098115	0.10785	0.16329	-2.3104	-2.6042	-2.1667	-3.0417	-2.2021	-2.4271	-3.0104	-2.275	-2.7042	-2.55	-2.3292	-2.8125	-2.2438	-2.6021	-3.0812	-2.3292	100.237	102.392	-67.111	126.805	164.986	-112.470	156.126	200.717	217.129	215.247	-127.091	186.747	201.235	154.437	-41.036	137.213	0.00034726	0.00048233	0.00012954	1363.1	5.1187e-06	4.5723e-06	1356.7	367.1	4.6029e-06	4.6475e-06	419.36	140.01	120.65	42.134	3.5685e-06	51.969	0.00048578	0.00052819	0.0001463	1375.4	5.7326e-06	5.621e-06	1374.3	373.56	5.8058e-06	5.539e-06	426.64	143.06	124.09	43.04	5.7637e-06	53.128	187.322	-51.609	-46.324	-116.731	10.640	8.994	-116.834	-112.194	-11.252	11.849	-112.354	-108.575	-107.840	-102.878	9.047	-103.689	-8191	255	
28665.158	1	1	0	0	0.14029	0.25058	0.12135	0.1539	0.14556	0.14871	0.074082	0.15451	0.023139	0.14124	0.22835	0.26344	0.086233	0.18741	0.076457	0.055713	-2.2125	-2.7	-2.0958	-2.8708	-2.3583	-2.3917	-3.1937	-2.2333	-2.6604	-2.6042	-2.2104	-2.9437	-2.5208	-2.2104	-3	-2.5187	198.130	-69.698	-5.157	86.739	-129.838	-94.906	197.309	142.001	-112.901	9.283	112.187	197.460	166.105	118.638	49.722	-34.325	0.00034403	0.00050745	0.00010203	1361.2	2.4501e-06	4.0395e-06	1354.7	366.53	3.6313e-06	4.7863e-06	421.27	139.67	121.05	42.135	3.1478e-06	51.848	0.00048947	0.00049548	0.00014538	1374	5.5115e-06	5.7297e-06	1372.5	373.32	5.868e-06	5.6342e-06	427.24	143.34	124.63	43.04	5.6001e-06	53.151	191.689	-50.375	-29.188	-116.684	-1.333	35.446	-116.794	-112.104	-15.309	17.636	-112.427	-108.691	-108.421	-103.273	14.116	-103.515	-8191	255	
28665.254	1	1	0	0	0.071552	0.22072	0.16251	0.18571	0.28501	0.14025	0.23285	0.38655	0.038577	0.097114	0.20731	0.14728	0.22914	0.14981	0.19787	0.1538	-2.0875	-2.8312	-2.1625	-2.7958	-2.4062	-2.2583	-3.0729	-2.5229	-2.3292	-2.8104	-2.1271	-2.8563	-2.6562	-2.25	-2.8625	-2.5	147.735	129.501	-87.421	224.512	137.734	-110.773	228.532	156.981	85.394	-59.182	92.229	63.270	203.729	227.717	57.284	146.355	0.0003586	0.00050971	0.00010854	1367.3	2.685e-06	3.8024e-06	1355.1	367.99	3.1838e-06	5.7577e-06	420.47	140.08	120.33	42.176	3.0374e-06	51.895	0.00048035	0.00051281	0.00015213	1377.1	5.8094e-06	6.059e-06	1373.5	373.7	5.8943e-06	5.6358e-06	426.54	143.34	124.14	43.05	5.3255e-06	53.165	190.842	-53.401	-39.574	-116.438	-11.488	9.868	-116.760	-112.078	-5.818	22.367	-112.687	-108.598	-108.435	-102.995	19.915	-103.769	-8191	255	
28665.350	1	1	0	0	0.14327	0.077912	0.12157	0.21698	0.10585	0.14003	0.13642	0.24348	0.16227	0.34655	0.13574	0.1911	0.28593	0.085496	0.21661	0.25159	-1.9062	-2.9167	-1.9375	-2.9375	-2.6562	-2.2333	-3.0938	-2.5438	-2.1063	-2.9917	-2.2979	-2.7896	-2.6917	-2.2708	-2.8604	-2.4646	-44.858	12.601	95.178	157.073	74.898	-104.243	111.183	127.951	3.856	64.291	155.817	159.612	179.627	78.905	159.379	154.579	0.00034997	0.00041695	0.00014237	1362.9	3.7816e-06	5.1026e-06	1357.7	368.96	3.2602e-06	6.0941e-06	420.6	139.13	120.92	41.983	4.1027e-06	51.826	0.00048628	0.00049851	0.00015273	1376.7	5.7562e-06	5.6401e-06	1374.4	374.16	6.0039e-06	5.539e-06	426.36	143.03	124.25	42.942	5.6563e-06	53.133	190.632	-41.405	-44.741	-116.676	4.654	22.016	-116.781	-112.120	-11.711	7.326	-112.664	-108.704	-108.444	-103.266	-16.627	-103.792	-8191	255	
28665.445	1	1	0	0	0.20203	0.18995	0.077873	0.26145	0.22047	0.15628	0.13354	0.13252	0.23735	0.086143	0.22268	0.25953	0.17301	0.062776	0.27186	0.08449	-1.8396	-2.9271	-2.1542	-2.7167	-2.775	-2.1	-3.0396	-2.65	-2.1562	-2.9104	-2.4208	-2.6125	-2.8688	-2.2417	-2.7792	-2.7354	-30.228	-103.752	-27.096	221.140	-127.560	59.627	-99.834	153.957	164.461	131.143	169.263	193.192	94.160	133.511	-85.241	-87.703	0.00034434	0.00051535	0.0001249	1371.4	3.6268e-06	4.5867e-06	1356.6	368.07	3.5934e-06	6.5936e-06	420.32	139.69	121.14	42.294	3.0146e-06	51.787	0.00049692	0.00050169	0.00014474	1377.2	5.5285e-06	6.1105e-06	1374.2	373.41	6.1127e-06	5.7819e-06	426.07	143.16	124.4	43.062	5.9514e-06	53.157	191.296	-45.058	-66.452	-116.817	15.751	32.634	-116.788	-112.218	0.614	4.567	-112.873	-108.358	-108.598	-103.405	5.396	-103.826	-8191	255	
28665.566	1	1	0	0	0.33497	0.10464	0.27031	0.0061752	0.14063	0.11882	0.17198	0.24368	0.26006	0.12961	0.20236	0.22111	0.19723	0.29019	0.3796	0.34578	-1.8208	-2.8125	-2.1042	-2.4875	-2.9313	-2.1646	-3.0687	-2.7646	-2.1604	-2.9125	-2.3646	-2.4062	-2.9583	-2.2458	-2.7188	-2.7583	-72.748	30.732	-25.735	-108.938	-95.357	-107.233	184.701	137.882	-38.073	-93.877	55.520	171.745	-119.322	205.828	14.067	214.121	0.00036745	0.00039998	0.0001018	1364.5	5.4212e-06	5.7379e-06	1357	369.47	2.7682e-06	4.4832e-06	420.61	139.92	120.97	42.059	4.362e-06	52.052	0.00050048	0.00050587	0.00014725	1375	5.6209e-06	6.074e-06	1374.7	374.05	6.0208e-06	5.7466e-06	427.07	142.98	124.38	43.002	5.7769e-06	53.186	188.741	-53.278	-22.642	-116.403	12.129	19.107	-116.734	-112.325	-23.089	30.920	-112.440	-108.682	-108.450	-103.274	8.798	-103.999	-8191	255	
28665.662	1	1	0	0	0.14223	0.13671	0.27369	0.30505	0.043979	0.31318	0.036252	0.043845	0.23581	0.24036	0.12069	0.086144	0.16675	0.32115	0.23029	0.23593	-1.6729	-2.8229	-2.2417	-2.4729	-2.9354	-2.2729	-2.7708	-3.0104	-2.1396	-2.8729	-2.6	-2.4	-2.9833	-2.3521	-2.7354	-2.8396	38.141	-19.905	-73.254	205.021	159.764	228.796	-29.688	182.607	-25.692	-62.211	162.953	187.672	139.274	-117.517	-36.311	161.314	0.00035717	0.00047397	0.0001349	1365.7	3.9915e-06	4.9924e-06	1355.6	367.5	2.9154e-06	5.9263e-06	420.24	139.72	121.61	42.227	4.0026e-06	51.899	0.0004897	0.00050602	0.00016004	1375.3	5.4634e-06	5.8649e-06	1373.7	372.97	5.801e-06	5.6514e-06	426.48	143.05	124.82	43.081	5.8704e-06	53.275	188.922	-43.965	-41.440	-116.666	3.276	31.220	-116.713	-112.450	-1.860	21.508	-112.562	-108.633	-107.792	-103.356	22.519	-103.821	-8191	255	
28665.734	1	1	0	0	0.16434	0.11595	0.17015	0.23459	0.10145	0.19564	0.2563	0.10348	0.090659	0.1334	0.24013	0.32897	0.14528	0.32669	0.25806	0.13386	-1.5708	-2.8479	-2.3167	-2.3667	-2.9333	-2.1896	-2.7833	-3.0417	-1.9958	-2.7854	-2.6354	-2.4042	-3.0125	-2.3875	-2.4229	-2.8833	216.401	-3.706	93.254	210.653	205.153	168.559	167.405	207.927	199.811	6.696	184.636	197.817	213.352	-116.214	-59.306	179.905	0.00032942	0.00053587	0.00012856	1363.7	4.7814e-06	5.219e-06	1358.5	368.01	3.9692e-06	5.0811e-06	418.96	139.87	121.56	42.061	4.7497e-06	52.122	0.00050176	0.00053931	0.00014235	1376.6	5.4775e-06	6.0889e-06	1376.8	373.71	6.131e-06	5.9517e-06	426.43	143.29	124.64	43.02	5.8893e-06	53.166	187.936	-47.590	-51.673	-116.963	8.875	-1.207	-116.891	-112.222	-2.437	27.902	-112.718	-108.709	-108.221	-103.400	8.453	-104.100	-8191	255	
28665.854	1	1	0	0	0.2529	0.194	0.071599	0.1187	0.21063	0.024383	0.331	0.23845	0.088932	0.25773	0.25391	0.11262	0.092346	0.19983	0.094482	0.30673	-1.8937	-2.7625	-2.5833	-2.1708	-2.9062	-2.3917	-2.6937	-3.1708	-2.1292	-2.8	-2.8604	-2.1125	-3.0333	-2.4396	-2.2812	-3.1437	131.916	-49.926	202.243	150.071	127.324	-1.899	177.309	199.127	123.332	167.811	-61.735	213.137	200.063	204.352	113.796	73.404	0.00034618	0.00054735	0.00014969	1355.9	3.9268e-06	5.0048e-06	1359.5	367.49	2.8024e-06	5.8119e-06	419.57	139.89	121.02	42.08	2.9784e-06	51.936	0.0004843	0.00054205	0.00014172	1374.1	5.7466e-06	5.913e-06	1375	373.15	5.9119e-06	5.8615e-06	426.48	143.07	124.28	42.984	5.8645e-06	53.216	191.435	-36.751	-39.168	-116.725	17.330	26.972	-116.862	-112.312	-13.493	12.194	-112.740	-108.682	-108.167	-103.567	8.435	-103.624	-8191	255	
28665.949	1	1	0	0	0.26664	0.17983	0.19543	0.12234	0.22959	0.096397	0.108	0.21772	0.13957	0.11684	0.13654	0.27494	0.11979	0.18402	0.1733	0.25159	-1.8188	-2.6958	-2.7333	-2.2146	-2.9208	-2.4896	-2.475	-3.1458	-2.2313	-2.5104	-2.9833	-2.1979	-2.9062	-2.6708	-2.1333	-3.0896	157.365	221.184	131.321	15.914	57.320	221.404	189.608	-128.229	191.211	-128.163	225.785	165.910	167.630	59.891	214.313	52.477	0.00035002	0.00048744	0.00015707	1365.1	4.175e-06	4.759e-06	1355.3	368.32	4.1615e-06	5.8841e-06	420.15	139.97	120.81	42.229	2.8974e-06	51.914	0.00049636	0.00052169	0.00014052	1375.9	5.3851e-06	5.7039e-06	1373.8	373.56	5.9957e-06	5.658e-06	426.35	143.17	124.22	43.003	5.9083e-06	53.171	190.162	-59.933	-43.572	-116.829	8.753	15.164	-116.801	-112.203	-4.604	17.342	-112.838	-108.663	-107.956	-103.239	10.100	-103.760	-8191	255	
28666.047	1	1	0	0	0.30064	0.13792	0.23847	0.25746	0.13149	0.23667	0.24026	0.25478	0.11805	0.17813	0.29138	0.04896	0.078031	0.10866	0.20473	0.30227	-1.8479	-2.4667	-2.8187	-2.2958	-2.8354	-2.4604	-2.4083	-3.1125	-2.3375	-2.4646	-2.8896	-2.1583	-2.6562	-2.6479	-2.0854	-3.1208	-107.416	-70.761	174.822	181.648	180.464	35.178	136.519	-95.195	46.666	-105.205	213.260	20.847	-15.779	203.523	71.082	116.970	0.00035813	0.00050007	0.00012322	1360.7	3.9663e-06	5.2994e-06	1358.3	368.97	3.3324e-06	4.1345e-06	418.68	139.76	120.97	42.103	4.4332e-06	51.718	0.00048661	0.00053353	0.00014382	1380.5	5.8087e-06	5.7687e-06	1377	374.17	6.2419e-06	6.1232e-06	425.72	142.95	124.47	42.929	6.481e-06	53.184	190.303	-55.848	-60.469	-116.932	-1.764	32.877	-116.812	-112.310	-19.649	9.115	-112.629	-108.725	-108.174	-103.220	8.176	-103.892	-8191	255	
28666.143	1	1	0	0	0.31471	0.0065308	0.063273	0.064761	0.15451	0.23265	0.35523	0.22242	0.073836	0.066858	0.21898	0.44888	0.21073	0.068512	0.23424	0.079705	-1.9583	-2.2833	-2.8937	-2.4021	-2.8083	-2.7354	-2.4896	-3.2771	-2.5354	-2.4417	-2.9521	-2.3896	-2.6729	-2.6917	-2.0458	-2.9417	51.870	-39.089	-96.099	-34.325	-114.432	203.258	195.758	-118.689	133.884	-26.668	166.185	198.741	196.771	82.741	-10.276	-100.391	0.00035424	0.00042481	0.00013024	1364.9	3.6389e-06	4.9506e-06	1355.9	366.84	4.8846e-06	4.5666e-06	421.16	139.33	121.48	42.016	3.6502e-06	51.903	0.00049876	0.00054306	0.00013856	1376.8	5.9876e-06	5.8425e-06	1374.6	373.02	6.083e-06	5.8254e-06	427.21	142.78	124.57	42.911	5.9324e-06	53.146	193.392	-24.062	-38.074	-117.042	24.101	-0.001	-116.831	-111.940	-5.637	26.401	-112.560	-108.757	-107.745	-103.242	21.795	-103.734	-8191	255	
28666.262	1	1	0	0	0.044356	0.068231	0.11456	0.26556	0.21415	0.23988	0.24626	0.37226	0.11691	0.29471	0.12025	0.062059	0.095593	0.1467	0.13937	0.21465	-1.9542	-2.1583	-2.8125	-2.2	-2.4979	-2.7604	-2.4479	-3.0687	-2.5563	-2.1188	-3.1396	-2.4813	-2.4958	-3.0542	-2.1854	-2.8958	123.225	-37.957	28.043	187.117	-73.097	60.865	156.436	175.030	186.645	67.895	127.510	33.081	168.446	155.410	90.046	159.487	0.00032874	0.00048945	0.00014188	1362.7	4.6785e-06	4.8584e-06	1356	367.74	3.9749e-06	4.5326e-06	420.57	140.03	120.76	41.984	4.5232e-06	52.06	0.00048166	0.00052335	0.00013552	1375.6	5.6786e-06	5.6069e-06	1373.7	373.51	5.6029e-06	5.745e-06	426.77	143.34	124.57	42.945	6.0632e-06	53.283	191.619	-52.838	-37.936	-116.711	4.718	14.670	-116.870	-112.142	-4.461	26.037	-112.524	-108.979	-108.155	-103.279	7.224	-103.808	-8191	255	
28666.334	1	1	0	0	0.30772	0.10228	0.13387	0.16725	0.12273	0.070337	0.17871	0.23564	0.32064	0.16079	0.24274	0.22899	0.1417	0.12376	0.074836	0.23548	-2.2438	-2.1146	-3.0396	-2.2708	-2.3583	-2.925	-2.3604	-2.9458	-2.65	-2.2521	-3.2979	-2.5542	-2.4729	-2.9396	-2.2	-2.85	-59.922	69.443	40.484	-112.636	-115.206	119.235	117.467	-106.706	59.299	-50.284	211.793	132.301	156.161	211.494	104.420	120.086	0.00035358	0.00047345	0.00012772	1362.5	3.6067e-06	5.2966e-06	1356.1	369.1	3.0919e-06	6.0467e-06	420.5	140.29	121.24	41.979	2.5897e-06	52.034	0.00048878	0.0005471	0.00014457	1376.4	5.981e-06	5.8798e-06	1375	373.74	5.7584e-06	6.0067e-06	426.77	143.25	124.4	42.94	5.8463e-06	53.315	190.620	-39.521	-41.993	-116.760	19.665	6.724	-116.766	-112.195	10.226	17.464	-112.812	-109.011	-107.956	-103.144	10.126	-103.754	-8191	255	
28666.430	1	1	0	0	0.17413	0.23221	0.1815	0.18514	0.063978	0.20575	0.19378	0.28359	0.33415	0.2367	0.20144	0.24006	0.28694	0.32245	0.12466	0.1108	-2.3458	-2.1167	-2.7792	-2.725	-2.2979	-2.7896	-2.3979	-2.7104	-2.7208	-2.0021	-3.2021	-2.5542	-2.2313	-3.1958	-2.1854	-2.6896	135.594	8.667	196.215	136.491	-58.589	-71.498	-102.447	120.252	77.706	10.337	173.244	135.113	69.721	170.780	78.919	-69.650	0.00034869	0.00046002	0.00015171	1361.1	3.8214e-06	5.0578e-06	1360.6	369.01	2.7621e-06	4.2006e-06	420.46	139.8	121.09	42.137	4.885e-06	51.902	0.00047903	0.00051887	0.00014949	1377.2	6.0667e-06	5.6508e-06	1375	374.19	5.536e-06	5.7647e-06	426.88	143.29	124.42	42.997	6.0756e-06	53.261	190.505	-47.044	-39.796	-116.924	4.223	25.802	-116.866	-112.073	-23.524	14.837	-112.638	-108.894	-108.272	-103.102	4.846	-103.935	-8191	255	
28666.525	1	1	0	0	0.11113	0.23261	0.1894	0.31535	0.034631	0.066671	0.13744	0.30241	0.095681	0.14388	0.22067	0.092469	0.209	0.015253	0.1097	0.28923	-2.4896	-1.9104	-2.7	-2.5958	-2.4458	-3.075	-2.4562	-2.7354	-2.8333	-2.2146	-2.9208	-2.7062	-2.0917	-3.0646	-2.3063	-2.6479	139.756	-105.632	67.322	193.032	127.679	150.184	-66.500	167.197	109.222	87.194	215.773	99.914	148.283	180.501	80.885	144.130	0.00034191	0.00053952	0.00015377	1366.4	3.8055e-06	3.9552e-06	1358.3	368.27	3.1988e-06	5.6549e-06	419.88	139.47	120.93	42.215	5.3229e-06	51.826	0.00047194	0.00054797	0.00014737	1377.2	6.0453e-06	5.4559e-06	1376.6	374.06	5.7185e-06	6.0149e-06	426.49	143.04	124.36	43.086	5.8397e-06	53.175	192.039	-38.698	-49.151	-116.846	22.597	6.394	-117.096	-112.066	1.640	15.790	-112.570	-108.912	-108.134	-103.169	16.118	-103.664	-8191	255	
28666.646	1	1	0	0	0.078447	0.29399	0.18904	0.19985	0.19346	0.14387	0.22705	0.17985	0.3208	0.16777	0.24185	0.070799	0.32896	0.13767	0.20212	0.2228	-2.4396	-2.0896	-2.8854	-2.8563	-2.2938	-3.1479	-2.6688	-2.4771	-2.7458	-2.1333	-2.8438	-2.7083	-2.1	-3.1625	-2.45	-2.4521	-41.327	55.141	91.792	78.139	139.764	46.413	223.318	222.182	-16.490	82.407	154.898	229.198	-66.146	125.275	124.434	55.318	0.00034896	0.00035219	0.00013733	1368.4	5.1937e-06	5.778e-06	1363.6	368.06	3.1022e-06	4.8939e-06	420.25	139.16	120.75	42.154	3.5235e-06	52.085	0.00047402	0.00053389	0.00014014	1376.5	5.9543e-06	5.7297e-06	1376.3	373.79	5.8436e-06	5.9419e-06	427.04	142.89	124.31	43.009	5.736e-06	53.234	191.967	-47.709	-36.225	-116.851	7.875	21.674	-117.048	-112.396	-33.051	22.977	-112.521	-108.787	-107.989	-102.970	-4.519	-103.937	-8191	255	
28666.742	1	1	0	0	0.20113	0.19191	0.30441	0.25288	0.043758	0.16785	0.2833	0.11197	0.11375	0.14129	0.12511	0.16701	0.10548	0.21321	0.22297	0.14354	-2.7479	-2.2729	-2.5625	-2.85	-2.3125	-2.8688	-2.6771	-2.5917	-2.9271	-2.2146	-2.7729	-2.9062	-2.1479	-2.9167	-2.4938	-2.2313	93.922	165.280	43.862	-55.991	0.996	196.407	166.141	201.903	-123.913	199.355	129.446	130.516	193.799	205.324	227.277	129.264	0.00036734	0.00054592	0.00014415	1370.9	2.8834e-06	4.3587e-06	1356.6	368.9	3.2129e-06	4.3887e-06	420.49	139.99	120.53	42.022	4.1122e-06	51.84	0.00048041	0.00054335	0.00014814	1377.9	5.7606e-06	5.7637e-06	1377.2	374.29	5.893e-06	6.001e-06	426.61	143.16	124.04	42.93	5.8601e-06	53.18	193.412	-49.897	-51.387	-116.845	17.534	29.922	-117.024	-112.282	-7.827	-1.366	-112.460	-108.697	-108.319	-103.232	10.014	-103.474	-8191	255	
28666.840	1	1	0	0	0.067729	0.23949	0.086332	0.32843	0.062051	0.25106	0.22018	0.32235	0.24343	0.24806	0.18596	0.087843	0.16338	0.15705	0.20531	0.19298	-2.5042	-2.3646	-2.3854	-3.0042	-2.0458	-2.8396	-2.9688	-2.325	-2.9688	-2.3021	-2.5687	-3.0583	-2.1604	-2.8646	-2.5979	-2.1188	111.321	73.043	109.220	172.006	-71.727	-15.838	140.466	153.965	163.220	19.119	196.223	177.681	80.231	159.597	229.241	190.124	0.00033802	0.00050938	0.00014365	1361.8	4.987e-06	4.5294e-06	1358.4	368.47	4.0558e-06	5.9537e-06	421.67	140.53	121.61	42.068	4.4695e-06	51.71	0.00048802	0.00055367	0.00014415	1376.7	6.0142e-06	5.6367e-06	1374.6	373.42	5.6983e-06	5.6465e-06	426.97	143.17	124.5	42.956	5.6111e-06	53.123	194.018	-44.850	-25.879	-116.777	9.807	14.711	-116.920	-112.223	-3.791	27.039	-112.377	-108.710	-108.322	-103.015	10.492	-103.817	-8191	255	
28666.934	1	1	0	0	0.11696	0.050824	0.11334	0.22878	0.10973	0.061244	0.41102	0.2963	0.19388	0.16656	0.18059	0.16266	0.24355	0.20442	0.20709	0.070236	-2.6167	-2.2875	-2.3167	-3.0146	-1.9937	-2.5833	-2.9292	-2.3667	-2.7958	-2.6188	-2.3542	-2.9875	-2.2875	-2.6437	-2.7042	-2.3438	86.351	227.392	17.521	106.151	-94.141	129.240	191.898	191.590	222.399	47.520	229.411	114.430	202.366	209.025	140.405	199.140	0.00034099	0.00039302	0.0001099	1369.1	5.1941e-06	6.0798e-06	1359.1	367.81	2.1026e-06	5.4396e-06	421.69	139.34	121.27	42.057	2.5595e-06	51.753	0.00047214	0.00052335	0.00014816	1376	5.9063e-06	5.7056e-06	1374	373.51	5.7949e-06	5.5423e-06	427.56	142.88	124.28	42.969	5.7433e-06	53.185	196.019	-71.010	-50.569	-116.733	11.764	27.925	-116.901	-112.043	1.680	35.322	-112.639	-108.785	-108.521	-103.211	6.370	-103.975	-8191	255	
28667.029	1	1	0	0	0.27798	0.13866	0.17957	0.38296	0.16244	0.043922	0.12945	0.1079	0.26692	0.23751	0.28427	0.16347	0.32995	0.16396	0.25766	0.34647	-2.6104	-2.5875	-2.3812	-3.3083	-2.0042	-2.4833	-2.8771	-2.3	-2.7938	-2.6542	-2.225	-3.1021	-2.4458	-2.4458	-2.8542	-2.3333	166.837	20.191	215.052	201.705	187.975	-53.153	156.153	-120.293	8.480	78.081	140.266	188.392	93.957	223.939	139.367	221.962	0.00035759	0.00046789	0.00014056	1363.7	4.0472e-06	4.6931e-06	1358.4	367.67	2.8802e-06	4.8237e-06	420.49	139.51	120.9	42.127	4.0823e-06	51.854	0.00048315	0.00051692	0.00014913	1376.2	6.0253e-06	5.9329e-06	1376.3	373.26	5.9051e-06	5.6112e-06	426.52	143.25	124.11	43.022	5.5402e-06	53.148	189.715	-48.341	-37.497	-116.797	-8.577	1.524	-116.712	-112.303	-25.796	15.508	-112.658	-108.639	-108.167	-102.933	-4.606	-103.791	-8191	255	
28667.129	1	1	0	0	0.032458	0.16634	0.29547	0.15014	0.073643	0.068846	0.070616	0.15563	0.10127	0.18898	0.17397	0.3116	0.30274	0.059706	0.2439	0.23541	-2.3167	-2.9083	-2.2229	-3.0583	-2.3083	-2.3979	-3.2333	-2.2812	-2.8042	-2.6708	-2.3229	-2.9437	-2.4021	-2.4979	-3.0083	-2.2562	78.887	-22.287	136.890	7.175	105.422	-105.273	175.052	165.232	134.301	131.245	144.520	192.114	115.630	-19.680	118.799	118.642	0.00036035	0.00057932	0.0001289	1372.6	4.8977e-06	4.978e-06	1351.1	368.59	2.7704e-06	5.4806e-06	419.85	139.64	121.88	42.159	3.9293e-06	51.82	0.00049688	0.00052465	0.00014907	1377.5	5.72e-06	6.1644e-06	1372	374.1	5.6888e-06	5.8607e-06	427.1	143.14	124.39	43.016	5.8243e-06	53.203	192.860	-47.227	-35.776	-116.688	21.753	19.632	-116.761	-112.128	-6.184	28.213	-112.410	-108.482	-108.365	-103.286	12.193	-103.753	-8191	255	
28667.246	1	1	0	0	0.39494	0.16582	0.25194	0.044473	0.17653	0.088117	0.25669	0.19586	0.14951	0.17015	0.18335	0.367	0.21206	0.16739	0.067005	0.40215	-2.1896	-2.7083	-2.2396	-2.925	-2.4396	-2.4313	-3.1792	-2.3625	-2.4333	-2.8354	-2.2604	-2.8958	-2.7896	-2.3625	-2.9313	-2.4208	-45.525	83.671	187.042	143.170	39.769	-29.637	88.085	116.225	175.335	158.212	136.704	221.491	185.046	-127.267	-26.644	106.542	0.00032933	0.00056242	0.00013972	1370.8	3.048e-06	5.1675e-06	1360.9	368.84	2.8613e-06	6.7159e-06	420.95	140.78	121.05	42.093	3.4934e-06	52.036	0.00047768	0.00049338	0.00014692	1379.8	5.8191e-06	6.0632e-06	1377	373.87	5.5975e-06	5.4914e-06	426.37	143.22	124.32	42.981	5.3072e-06	53.177	193.345	-41.236	-38.667	-116.921	24.318	13.685	-116.856	-112.179	-17.218	19.456	-112.438	-108.686	-108.316	-103.118	6.690	-104.036	-8191	255	
28667.344	1	1	0	0	0.12193	0.12242	0.2116	0.13247	0.12517	0.16608	0.037065	0.36584	0.14873	0.19258	0.21793	0.10873	0.26176	0.23898	0.10522	0.0411	-2.0146	-2.9562	-2.1167	-2.9813	-2.3812	-2.175	-3.2479	-2.4292	-2.4083	-2.825	-2.3708	-2.6437	-2.5854	-1.9917	-2.8167	-2.325	42.984	-11.645	55.281	176.960	130.732	216.231	-88.862	206.984	-21.957	56.238	174.968	191.783	170.435	182.787	213.992	197.676	0.00031928	0.00050922	0.00015397	1362	4.2053e-06	5.4989e-06	1356.2	368.15	2.9396e-06	3.6252e-06	419.53	139.84	121.43	42.108	3.1484e-06	51.494	0.00046111	0.00049273	0.00014362	1373.6	5.4538e-06	5.5289e-06	1372.4	372.85	5.5793e-06	5.0606e-06	425.81	143.07	124.33	42.934	5.3832e-06	53.114	191.248	-48.101	-41.567	-116.666	17.406	-0.088	-116.872	-112.307	-15.511	26.475	-112.780	-108.521	-108.284	-103.047	16.295	-103.732	-8191	255	
28667.439	1	1	0	0	0.052548	0.29002	0.17427	0.15554	0.29277	0.20031	0.30979	0.10611	0.24762	0.083821	0.20046	0.38837	0.13861	0.20974	0.17524	0.10528	-1.7979	-2.9062	-2.0833	-2.6167	-2.7458	-1.9792	-3.0354	-2.5875	-2.2167	-2.8854	-2.4062	-2.6604	-2.8375	-2.1021	-2.8958	-2.5792	-88.135	31.085	95.420	181.080	193.630	228.317	185.932	98.408	-85.998	33.536	134.289	222.461	197.596	227.524	119.376	106.096	0.00033017	0.00045336	0.00012467	1362.9	2.6913e-06	5.7841e-06	1354.7	366	4.6383e-06	5.592e-06	421.92	139.68	120.75	42.027	2.6988e-06	51.923	0.00047069	0.00047894	0.00014304	1371.7	5.198e-06	5.5463e-06	1372.7	372.58	5.7571e-06	5.347e-06	426.35	143.01	124.35	42.977	5.2875e-06	53.122	191.854	-48.487	-36.645	-116.866	35.151	2.027	-117.067	-112.366	-9.766	-3.766	-112.785	-108.650	-108.119	-103.299	7.812	-103.932	-8191	255	
28667.561	1	1	0	0	0.34504	0.21361	0.22107	0.17948	0.20151	0.15419	0.30194	0.32241	0.1307	0.089617	0.26363	0.20576	0.30093	0.15094	0.023106	0.16953	-1.6083	-2.9229	-2.0938	-2.7438	-2.8625	-2.0896	-2.9729	-2.7667	-2.2062	-2.8979	-2.2896	-2.6063	-3.0208	-2.125	-2.8312	-2.5979	191.122	45.356	-21.191	-57.798	-94.954	-2.326	161.187	143.767	112.225	82.392	-49.404	194.998	121.175	219.146	82.300	114.508	0.00036034	0.00045674	0.00014427	1357.4	4.1142e-06	6.0562e-06	1355.4	368.47	3.3952e-06	4.0921e-06	420.02	140.1	121.23	42.078	4.1756e-06	51.859	0.00048021	0.00048941	0.00014152	1374	5.7422e-06	5.8748e-06	1372.9	372.93	5.7043e-06	5.3658e-06	425.71	143.14	124.38	42.907	5.2868e-06	53.127	194.684	-41.804	-42.590	-116.777	15.187	14.837	-116.985	-112.289	-22.818	1.089	-112.210	-108.683	-108.410	-103.202	2.722	-104.162	-8191	255	
28667.631	1	1	0	0	0.21743	0.17856	0.16031	0.091527	0.20215	0.30351	0.089071	0.18578	0.34522	0.19012	0.11681	0.25321	0.26016	0.17199	0.213	0.16144	-1.7271	-2.8771	-2.2812	-2.5417	-3.0167	-2.1708	-3.0625	-2.7958	-2.0833	-2.8833	-2.6542	-2.5312	-2.9458	-2.2396	-2.7417	-2.8542	-100.267	30.849	-50.616	-77.294	-114.719	-59.503	0.421	177.682	16.984	-129.768	-69.439	199.222	-100.936	190.320	190.410	24.860	0.00032693	0.00032325	0.0001758	1353.9	3.401e-06	5.1672e-06	1355.7	367.94	3.1903e-06	5.1783e-06	420.17	139.73	120.9	42.167	4.1033e-06	51.87	0.000464	0.00046753	0.00013739	1371.5	5.3355e-06	5.6235e-06	1371.4	372.99	5.6597e-06	5.3527e-06	425.49	142.98	123.98	42.945	5.5212e-06	53.132	190.877	-23.372	-40.622	-116.506	19.232	13.332	-116.815	-112.358	-19.045	14.955	-112.582	-108.628	-108.525	-103.179	-11.849	-103.955	-8191	255	
28667.727	1	1	0	0	0.13877	0.12504	0.39565	0.046865	0.30408	0.18802	0.34488	0.20056	0.11731	0.060072	0.22659	0.20464	0.31377	0.30005	0.10501	0.32929	-1.7229	-2.9396	-2.4042	-2.4354	-2.8708	-2.2604	-2.6979	-2.7792	-2.2146	-2.8083	-2.6437	-2.1729	-3.0187	-2.3417	-2.4896	-2.9396	132.474	-4.032	-30.751	193.173	85.289	161.868	136.655	226.978	211.733	147.137	227.861	66.309	191.525	208.678	167.132	149.223	0.00034831	0.00059942	0.00010533	1360.7	3.4064e-06	4.8756e-06	1351.2	367.38	2.8575e-06	5.2927e-06	420.02	139.64	121.29	41.824	3.4905e-06	51.713	0.00048796	0.00050414	0.00014085	1373.4	5.303e-06	5.8151e-06	1373.6	372.42	6.0796e-06	5.3232e-06	425.86	142.82	124.29	42.927	5.668e-06	53.085	193.151	-47.676	-44.512	-116.660	-2.841	2.051	-116.737	-111.953	2.158	32.081	-112.557	-108.855	-108.513	-103.170	7.557	-103.951	-8191	255	
28667.824	1	1	0	0	0.19711	0.20185	0.12877	0.27773	0.18314	0.15192	0.34553	0.058334	0.095989	0.20488	0.25978	0.12943	0.40398	0.22005	0.1614	0.18061	-1.7604	-2.6854	-2.4875	-2.3021	-2.8333	-2.3229	-2.5833	-3.0292	-1.9583	-2.7167	-2.8542	-2.2583	-2.9813	-2.5396	-2.2938	-3.0958	-92.930	183.074	-87.287	205.693	20.650	89.495	171.378	132.730	177.831	19.797	154.536	-79.618	-129.740	47.075	-127.984	221.660	0.0003383	0.00058706	0.00012619	1362.4	2.993e-06	5.0033e-06	1354.9	367.11	2.3192e-06	3.7899e-06	420.54	139.71	120.45	42.008	5.5402e-06	51.829	0.00046704	0.00053389	0.00014121	1372.2	5.4598e-06	5.694e-06	1374.2	372.91	5.897e-06	5.2862e-06	426.23	142.86	124.13	42.923	5.8645e-06	53.09	191.698	-45.181	-45.351	-116.664	22.003	28.138	-116.915	-112.267	-38.702	24.022	-112.463	-108.443	-108.250	-103.212	24.965	-103.683	-8191	255	
28667.941	1	1	0	0	0.036393	0.16145	0.24704	0.15659	0.015894	0.14926	0.24339	0.23514	0.17269	0.13961	0.31493	0.10388	0.1125	0.33382	0.14227	0.31634	-1.8146	-2.725	-2.55	-2.2687	-2.9042	-2.3792	-2.4667	-3.1125	-2.0812	-2.7208	-2.8021	-2.1833	-3.0625	-2.5417	-2.2917	-3.0021	-82.162	-43.512	66.133	-38.360	116.787	124.136	153.653	224.184	171.963	46.061	128.917	185.255	144.619	137.141	-106.375	151.978	0.00033808	0.00040663	0.00011932	1356.6	3.0573e-06	5.2038e-06	1361.4	367.18	4.61e-06	5.3069e-06	419.84	140.07	121.24	42.02	2.99e-06	51.795	0.00048453	0.00049317	0.00014018	1370.8	5.5559e-06	5.6193e-06	1372.4	372.7	5.8206e-06	5.3806e-06	425.7	143.06	124.23	42.917	6.0142e-06	53.134	190.009	-41.450	-40.147	-116.954	11.953	10.922	-116.826	-111.994	-13.686	20.788	-112.740	-108.728	-108.075	-103.202	4.412	-103.730	-8191	255	
28668.039	1	1	0	0	0.17499	0.079557	0.04196	0.13083	0.20158	0.09885	0.34342	0.35551	0.16074	0.12968	0.22352	0.045029	0.11041	0.082146	0.24967	0.16037	-1.775	-2.6146	-2.7938	-2.1271	-2.8458	-2.5542	-2.4583	-3.2188	-2.3479	-2.55	-3.0438	-2.1229	-2.9979	-2.5729	-2.0833	-2.9792	35.229	23.211	115.289	-100.727	88.321	178.349	-126.763	184.848	100.952	113.484	188.805	206.824	-115.057	28.244	134.321	163.905	0.00033812	0.00041457	0.000127	1356.8	3.067e-06	5.4707e-06	1356.3	366.57	3.2764e-06	4.6466e-06	419.66	139.73	121.21	41.947	3.5627e-06	51.714	0.00048753	0.00050291	0.00013654	1371.3	5.6024e-06	5.767e-06	1372.8	373.05	5.5441e-06	5.4947e-06	425.43	142.6	124.21	42.907	5.8652e-06	53.106	191.657	-43.425	-20.673	-116.666	4.378	27.189	-116.937	-112.133	-9.723	14.852	-112.731	-108.527	-108.076	-103.510	6.281	-103.454	-8191	255	
28668.135	1	1	0	0	0.094623	0.14384	0.13401	0.1886	0.20194	0.051445	0.52463	0.48522	0.061657	0.13518	0.29586	0.30923	0.20617	0.09122	0.048345	0.11518	-1.8667	-2.3229	-3.1417	-2.3354	-2.7854	-2.6813	-2.3979	-3.0958	-2.2687	-2.1688	-3.1437	-2.1312	-2.7875	-2.9062	-1.9417	-3.0875	176.180	147.425	208.554	140.874	62.196	-125.455	191.359	180.694	167.770	60.461	169.117	-113.164	152.047	130.182	189.149	159.516	0.00033379	0.00039191	0.00012234	1360.4	3.2988e-06	5.5857e-06	1359.3	368.16	4.8174e-06	6.3075e-06	421.85	139.31	120.71	42.03	4.484e-06	51.867	0.00048061	0.00051887	0.00013317	1373.1	5.4117e-06	5.6318e-06	1374.7	373.12	6.0045e-06	5.8237e-06	426.61	142.85	124.12	42.943	5.9215e-06	53.152	192.303	-67.753	-57.562	-116.620	8.887	25.824	-116.551	-112.151	6.048	30.937	-112.531	-108.671	-107.976	-103.129	-8.914	-103.375	-8191	255	
28668.207	1	1	0	0	0.03773	0.12431	0.16762	0.025894	0.17369	0.2333	0.27665	0.10453	0.039294	0.12377	0.076713	0.16108	0.026195	0.20616	0.27155	0.11907	-2.0792	-2.3604	-2.9208	-2.2917	-2.4917	-2.5938	-2.3146	-3.175	-2.4792	-2.0938	-2.9125	-2.25	-2.55	-2.8604	-1.9854	-2.8771	-8.178	149.911	-82.360	132.091	121.485	-50.999	186.818	152.742	177.453	162.199	128.879	-123.550	204.544	179.043	42.603	207.508	0.00036382	0.00054924	0.00017321	1353.2	4.3293e-06	4.4763e-06	1357.7	367.91	2.9633e-06	4.8811e-06	420.5	139.22	121.04	41.831	3.9551e-06	51.955	0.00048308	0.0005427	0.0001399	1370.2	5.6793e-06	5.6434e-06	1373.7	372.95	5.6989e-06	6.0757e-06	425.61	142.65	124.26	42.855	5.8572e-06	53.177	190.029	-52.110	-41.073	-116.801	19.244	17.503	-116.830	-112.158	-16.450	9.515	-112.851	-108.832	-108.345	-103.359	12.106	-103.868	-8191	255	
28668.326	1	1	0	0	0.17575	0.15201	0.19022	0.20897	0.14908	0.075881	0.23162	0.27301	0.1569	0.038184	0.24815	0.35225	0.18586	0.089756	0.17217	0.28176	-2.2104	-2.0604	-2.8833	-2.3812	-2.5667	-2.8542	-2.2458	-2.9625	-2.5146	-2.1833	-3.1833	-2.3208	-2.35	-3.0187	-2.1896	-2.9396	48.426	-119.415	-74.353	172.384	-113.339	67.249	196.727	182.199	50.010	102.730	190.347	226.842	192.341	81.715	131.757	111.314	0.00035503	0.00043676	0.00013362	1360.5	3.8323e-06	4.553e-06	1352.4	367.98	2.8543e-06	6.0811e-06	419.29	139.17	121.58	42.049	3.7702e-06	51.698	0.0004782	0.00052263	0.0001452	1373.2	5.5263e-06	5.6276e-06	1371	372.94	5.8118e-06	6.1003e-06	425.43	142.73	124.24	42.871	5.904e-06	53.067	189.961	-53.206	-45.121	-116.856	-6.859	18.141	-116.745	-112.103	-6.929	22.868	-112.553	-108.613	-108.285	-102.896	25.438	-103.860	-8191	255	
28668.424	1	1	0	0	0.10961	0.25797	0.11413	0.22953	0.25723	0.10565	0.35153	0.18723	0.068793	0.25283	0.38755	0.13177	0.24286	0.17008	0.041209	0.16016	-2.2167	-2.1271	-2.7542	-2.5104	-2.3646	-2.7417	-2.2458	-2.6125	-2.6208	-2.1458	-2.8917	-2.6437	-2.3417	-2.8521	-2.2021	-2.7792	-59.816	178.572	131.995	142.986	143.054	156.807	180.393	167.397	-99.700	195.195	188.445	173.980	27.664	185.024	35.265	204.399	0.00034699	0.00044171	0.00014905	1354.2	3.1836e-06	4.398e-06	1353.6	367.14	4.2678e-06	3.3292e-06	420.22	139.65	120.67	42.138	3.2668e-06	51.758	0.00048773	0.00053519	0.00014719	1368.4	6.0046e-06	5.5919e-06	1370.9	372.76	5.6638e-06	6.0346e-06	426	142.84	124.22	42.956	5.8214e-06	53.123	192.343	-50.089	-39.639	-116.766	15.529	17.706	-116.816	-112.208	-18.426	23.189	-112.348	-108.883	-108.181	-103.137	-12.119	-103.735	-8191	255	
28668.520	1	1	0	0	0.27187	0.12108	0.079219	0.20719	0.13807	0.27701	0.20344	0.24953	0.24429	0.098061	0.26467	0.18645	0.12609	0.16818	0.14823	0.099498	-2.2771	-2.0438	-2.7	-2.4375	-2.3146	-3.0938	-2.2729	-2.5375	-2.8521	-1.9979	-2.9417	-2.6312	-2.2125	-2.9604	-2.2583	-2.5062	28.356	-93.687	-115.642	174.331	-42.316	73.090	111.864	129.164	43.216	-98.586	82.556	154.846	-54.945	-124.095	-54.283	5.853	0.00033157	0.0003698	0.00014873	1361.9	3.4668e-06	4.3841e-06	1353.3	368.37	2.909e-06	4.446e-06	422.26	139.65	121.26	41.875	2.0755e-06	51.767	0.00046374	0.00053959	0.00014184	1370.9	6.015e-06	5.416e-06	1372.2	373.22	5.4332e-06	5.6055e-06	426.53	142.84	124.13	42.874	5.7747e-06	53.139	193.371	-59.007	-31.446	-116.547	3.654	13.766	-116.723	-112.065	-13.444	8.835	-112.400	-108.772	-108.324	-102.998	21.487	-103.684	-8191	255	
28668.641	1	1	0	0	0.1366	0.18197	0.10384	0.21945	0.079113	0.15107	0.29681	0.41936	0.11771	0.094825	0.092023	0.27435	0.20762	0.25046	0.29779	0.17462	-2.3688	-2.1083	-2.7917	-2.8042	-2.2083	-2.9708	-2.5625	-2.4854	-2.9021	-2.0563	-2.8021	-2.7188	-2.2396	-3.0271	-2.4958	-2.4	-88.305	103.876	29.559	167.505	-83.558	89.056	198.950	-114.857	216.883	177.243	188.520	206.722	-122.241	-123.511	52.172	164.648	0.00032857	0.00048143	0.00012836	1364.5	4.5939e-06	5.3527e-06	1354.8	369.52	3.4504e-06	3.35e-06	420.32	139.35	120.9	42.001	4.5237e-06	51.889	0.00046305	0.00056703	0.00013724	1375.5	5.8538e-06	5.9371e-06	1372.6	373.8	5.6252e-06	5.7934e-06	426.21	142.77	124.2	42.938	5.5921e-06	53.041	194.223	-51.908	-54.395	-116.796	8.235	20.044	-116.680	-111.941	-11.290	27.675	-112.493	-108.626	-108.141	-103.081	-5.918	-103.423	-8191	255	
28668.736	1	1	0	0	0.24316	0.37872	0.29758	0.12607	0.13611	0.15922	0.33861	0.17133	0.2037	0.27265	0.22122	0.144	0.3338	0.25235	0.1378	0.21103	-2.5125	-2.0854	-2.7542	-2.8854	-1.9521	-2.8563	-2.6208	-2.5083	-2.9979	-2.2292	-2.8896	-2.8937	-2.2375	-2.8104	-2.4188	-2.3854	-110.273	78.626	-74.159	-124.092	-96.336	73.320	203.187	181.535	101.446	-74.451	200.251	-63.041	-109.135	-119.797	213.619	224.671	0.0003379	0.00054726	0.00013743	1360.9	4.0428e-06	4.7942e-06	1356.6	367.88	3.3169e-06	5.8267e-06	419.99	139.35	120.82	42.102	4.4131e-06	51.86	0.00046437	0.00053064	0.00014006	1368.8	5.9566e-06	5.3513e-06	1372	372.92	5.6949e-06	5.7384e-06	425.73	142.87	124.12	42.949	5.8316e-06	53.165	190.874	-59.270	-37.973	-116.746	17.023	12.942	-116.743	-112.019	-15.077	29.116	-112.298	-108.756	-108.263	-102.695	-5.422	-103.641	-8191	255	
28668.830	1	1	0	0	0.14807	0.09062	0.29156	0.30766	0.10476	0.10107	0.24555	0.31407	0.055951	0.17566	0.10079	0.12383	0.12716	0.18088	0.094405	0.16394	-2.5521	-2.1917	-2.4896	-3.0187	-2.1	-3.0083	-2.7604	-2.4896	-3.0021	-2.2729	-2.5896	-2.9042	-2.0646	-2.6437	-2.5646	-2.2812	140.093	-15.136	-18.593	209.257	30.097	-93.566	128.468	-110.395	44.040	188.665	153.043	39.090	163.151	218.063	171.983	207.441	0.00034661	0.00042125	0.00012033	1366.7	2.907e-06	4.3012e-06	1352.2	366.83	3.9726e-06	5.8651e-06	419.64	139.29	120.72	41.979	3.9051e-06	51.769	0.00047399	0.00053353	0.00013978	1374.6	5.8819e-06	5.718e-06	1369.8	372.56	5.7375e-06	6.0075e-06	425.96	142.83	123.9	42.932	5.6775e-06	53.073	193.497	-48.207	-27.816	-116.568	11.876	19.011	-116.770	-111.978	8.476	20.111	-112.466	-108.708	-108.038	-103.023	24.294	-103.447	-8191	255	
28668.928	1	1	0	0	0.082323	0.1558	0.13423	0.19693	0.36731	0.068599	0.10603	0.28863	0.33647	0.065876	0.093645	0.15537	0.18293	0.26909	0.29748	0.12547	-2.5375	-2.1562	-2.4354	-2.8396	-2.1583	-2.6875	-2.875	-2.1771	-2.8771	-2.3875	-2.5729	-3.1083	-2.2812	-2.6521	-2.6917	-2.2667	191.961	-20.830	140.143	-71.974	-57.008	107.063	-93.761	139.454	156.132	-38.192	104.057	96.177	225.686	193.826	15.313	-64.932	0.00034549	0.00046443	0.00017363	1364.1	2.7311e-06	6.0639e-06	1358.2	367.43	3.7857e-06	6.6304e-06	420.92	139.95	120.31	42.089	5.0674e-06	51.844	0.00048384	0.00053945	0.00015162	1372.4	5.9484e-06	5.7139e-06	1371.1	372.64	5.6063e-06	6.0609e-06	426.02	142.87	124.03	42.934	5.7725e-06	53.099	191.805	-49.589	-37.804	-116.527	23.514	6.778	-116.536	-111.816	-23.603	27.438	-112.383	-108.445	-107.760	-102.817	-0.549	-103.478	-8191	255	
28669.023	1	1	0	0	0.23586	0.10693	0.1008	0.31043	0.23347	0.35364	0.16042	0.053747	0.14804	0.12137	0.12877	0.13063	0.19872	0.18614	0.26123	0.26512	-2.3729	-2.4833	-2.3021	-2.9896	-2.2479	-2.725	-3	-2.2687	-2.8	-2.4021	-2.2708	-3.125	-2.2542	-2.6333	-2.9958	-2.1875	113.793	142.789	-85.879	190.065	79.528	109.262	198.734	93.959	215.861	203.089	198.071	-10.245	149.778	-81.974	171.921	182.915	0.00032183	0.00053856	0.00013248	1362.3	4.4137e-06	3.4911e-06	1351.3	367.78	3.3075e-06	4.911e-06	419.17	139.3	120.61	41.943	4.0471e-06	51.915	0.00047425	0.00052089	0.00014986	1373.4	5.9787e-06	5.6956e-06	1369.6	373	5.5346e-06	5.6916e-06	425.89	142.74	123.64	42.79	5.6512e-06	53.022	194.049	-43.583	-35.298	-116.619	10.308	20.575	-116.614	-111.852	-12.579	21.691	-112.019	-108.441	-108.214	-102.771	25.044	-103.407	-8191	255	
28669.119	1	1	0	0	0.13536	0.16632	0.20763	0.02088	0.15525	0.21948	0.16597	0.18435	0.038907	0.15129	0.23894	0.47691	0.076647	0.30794	0.070385	0.27417	-2.55	-2.7083	-2.1979	-3.05	-2.2729	-2.4313	-3.1708	-2.3896	-2.7271	-2.5833	-2.4313	-3.0333	-2.3125	-2.3646	-3.0104	-2.1042	124.747	32.922	15.966	24.124	-65.057	-108.194	203.902	154.560	-125.828	82.130	154.391	215.945	-65.699	107.809	-4.237	184.142	0.00035426	0.00040435	0.00011683	1358.1	4.097e-06	3.1925e-06	1356.5	367.29	4.3544e-06	4.3616e-06	419.97	140.21	120.44	42.048	3.6358e-06	51.616	0.00047735	0.00052248	0.00015417	1370.2	5.612e-06	5.9578e-06	1372.1	372.78	5.8619e-06	5.841e-06	425.94	142.95	123.68	42.897	5.6118e-06	53.044	190.030	-55.059	-40.558	-116.828	0.742	15.761	-116.490	-111.673	-4.096	9.417	-112.296	-108.512	-107.994	-102.817	16.459	-103.415	-8191	255	
28669.240	1	1	0	0	0.06353	0.3018	0.21577	0.21758	0.23896	0.10123	0.059666	0.3018	0.16212	0.13393	0.1558	0.25237	0.076289	0.17847	0.061255	0.19073	-2.3375	-2.7375	-2.0896	-2.9229	-2.3875	-2.4104	-3.2375	-2.1875	-2.6146	-2.8354	-2.4125	-3.0938	-2.4979	-2.2729	-2.9083	-2.4396	-69.073	-91.322	-127.517	203.266	65.078	34.254	214.450	146.930	-70.043	-87.519	135.647	128.868	167.668	192.727	180.545	183.523	0.0003304	0.00051753	0.00015576	1359.3	4.6746e-06	5.538e-06	1350.8	367.23	3.7849e-06	5.3327e-06	418.7	139.47	120.37	41.942	4.512e-06	51.746	0.00047498	0.0005279	0.00014806	1369.1	5.6002e-06	6.176e-06	1369.7	372.41	6.1878e-06	5.9181e-06	424.9	142.71	123.74	42.888	5.6731e-06	53.024	188.023	-48.406	-48.308	-116.324	21.528	6.345	-116.544	-112.030	-14.901	26.332	-112.276	-108.358	-108.190	-102.693	14.279	-103.196	-8191	255	
28669.336	1	1	0	0	0.13309	0.17856	0.19499	0.070676	0.11686	0.23953	0.28782	0.15124	0.17645	0.19596	0.12632	0.29662	0.32131	0.058237	0.1648	0.17519	-2.1896	-2.7646	-2.1229	-2.8604	-2.6208	-2.3479	-3.1854	-2.4042	-2.4375	-2.8792	-2.3583	-3.0375	-2.7104	-2.25	-2.8875	-2.3167	205.948	37.505	-30.506	150.382	-110.279	83.286	152.804	213.717	186.285	41.241	140.323	150.898	157.653	163.366	22.423	-23.135	0.00033597	0.00050263	0.00010741	1365.8	2.9452e-06	4.798e-06	1355.9	366.23	2.294e-06	4.8975e-06	418.83	139.64	120.74	41.964	5.4639e-06	51.681	0.0004785	0.00054718	0.00015083	1373	5.4723e-06	6.3644e-06	1370.2	372.78	6.0512e-06	5.7679e-06	424.74	142.77	123.77	42.908	5.7776e-06	52.96	189.827	-35.784	-38.965	-116.250	-4.350	8.567	-116.680	-111.916	-24.047	10.961	-112.390	-108.456	-108.029	-102.684	19.124	-103.626	-8191	255	
28669.432	1	1	0	0	0.15647	0.19237	0.36072	0.19436	0.18396	0.19609	0.31331	0.23714	0.14862	0.12646	0.026283	0.27296	0.26813	0.24224	0.23564	0.23975	-1.9104	-2.9188	-2.0396	-2.9521	-2.6333	-2.0854	-3.2667	-2.4188	-2.3667	-2.8125	-2.3521	-2.7917	-2.7375	-2.1167	-2.8125	-2.5208	102.676	-28.465	-99.533	167.042	108.137	57.927	150.254	-125.519	81.171	63.854	-97.525	208.011	179.025	187.219	-59.435	136.031	0.00033971	0.00046074	0.00017723	1367.5	4.8251e-06	4.6567e-06	1358.1	366.82	3.7769e-06	3.8589e-06	418.91	139.87	120.96	42.09	4.1983e-06	51.823	0.00049053	0.0005058	0.00014771	1373.7	5.7296e-06	5.7662e-06	1372.8	372.49	5.8801e-06	5.2419e-06	424.84	142.89	123.98	42.94	5.6834e-06	53.081	191.097	-47.681	-36.940	-116.387	-5.269	14.193	-116.627	-111.935	-15.038	14.530	-112.435	-108.497	-108.243	-102.913	17.871	-103.433	-8191	255	
28669.504	1	1	0	0	0.13358	0.12489	0.079393	0.1057	0.23272	0.17314	0.23842	0.037512	0.18807	0.21937	0.31075	0.11607	0.24019	0.27594	0.043021	0.1115	-1.9646	-2.9396	-2.2333	-2.7188	-2.6646	-2.1042	-3.0062	-2.5563	-2.1875	-2.8646	-2.3937	-2.5583	-2.65	-2.1604	-2.8521	-2.5354	147.682	165.745	113.880	161.688	132.899	-89.112	178.573	182.702	1.882	181.339	161.403	-33.091	218.828	-118.980	41.486	78.991	0.0003372	0.00053783	0.00010846	1360.7	4.2789e-06	4.5759e-06	1354.6	367.88	3.4318e-06	5.5352e-06	419.95	139.56	120.51	41.984	3.9834e-06	51.837	0.00047382	0.00049497	0.00014899	1370.1	5.4265e-06	5.7454e-06	1369.9	372.67	5.9518e-06	5.5718e-06	425.53	142.84	123.99	42.927	5.9463e-06	53.158	192.861	-64.126	-49.301	-116.591	19.901	12.290	-116.436	-111.970	-15.571	31.333	-112.433	-108.481	-107.824	-102.969	22.056	-103.781	-8191	255	
28669.623	1	1	0	0	0.24148	0.082935	0.11404	0.3194	0.1614	0.19585	0.28651	0.19234	0.1443	0.10077	0.031727	0.25712	0.17266	0.31374	0.097444	0.16026	-1.8062	-2.8083	-2.1979	-2.6021	-2.8479	-2.0542	-3.0458	-2.6625	-2.0958	-2.7604	-2.3625	-2.4729	-2.7729	-2.1146	-2.7938	-2.6667	13.797	108.356	-124.432	199.424	178.478	45.367	140.091	150.820	51.197	82.769	-113.052	227.172	224.166	201.930	-77.054	142.018	0.00033792	0.00055801	0.0001269	1359.9	3.6518e-06	6.0097e-06	1352	368.8	3.2426e-06	6.2545e-06	418.62	139.95	120.88	41.958	5.3734e-06	52.06	0.0004869	0.00050003	0.0001422	1371.3	5.6778e-06	5.6882e-06	1370.3	372.77	6.0194e-06	5.6169e-06	425.51	142.88	124.01	42.867	5.8455e-06	53.099	189.550	-60.522	-43.862	-116.795	-2.816	2.230	-116.601	-112.133	-19.387	26.656	-112.388	-108.563	-107.861	-103.124	1.148	-103.514	-8191	255	
28669.721	1	1	0	0	0.19401	0.088105	0.16445	0.26895	0.13218	0.40368	0.1515	0.22907	0.18193	0.11594	0.26914	0.36058	0.16301	0.10072	0.077659	0.061263	-1.7458	-2.8	-2.2021	-2.2896	-2.9646	-2.0333	-2.8021	-2.8063	-2.0083	-3.0146	-2.3167	-2.3083	-2.95	-2.2229	-2.6667	-2.9646	-105.965	-124.690	62.192	-93.143	205.062	181.534	161.113	152.224	143.730	-48.639	-68.240	118.998	177.021	80.923	105.218	14.317	0.00032425	0.00051254	0.00010299	1362.1	4.6533e-06	6.2105e-06	1352.8	368.23	4.0123e-06	4.6549e-06	418.57	139.77	120.55	42.033	5.0219e-06	51.842	0.00048044	0.00050263	0.00013564	1370.5	5.6446e-06	5.9719e-06	1369.1	372.86	6.0593e-06	5.251e-06	425.47	142.83	123.98	42.906	5.8441e-06	53.056	190.399	-59.080	-55.674	-116.497	5.065	17.357	-116.663	-112.015	3.768	19.817	-112.458	-108.569	-108.061	-103.120	5.177	-103.723	-8191	255	
28669.816	1	1	0	0	0.14903	0.10075	0.16625	0.19529	0.064754	0.11019	0.12314	0.18942	0.076002	0.065319	0.22952	0.16858	0.18113	0.23995	0.024919	0.3142	-1.6354	-2.875	-2.2271	-2.1292	-3.0396	-2.0896	-2.7313	-2.9437	-2.1792	-2.8875	-2.6604	-2.2667	-3.1458	-2.3625	-2.4	-2.8667	33.753	162.396	119.014	92.752	-56.954	-26.229	-120.339	210.863	-60.079	123.833	-90.009	186.534	134.973	-118.261	88.603	193.286	0.00035014	0.00044155	0.0001228	1360.3	3.3498e-06	3.7288e-06	1357.9	367.84	3.2829e-06	4.6978e-06	420.24	139.41	120.94	42.005	3.5001e-06	51.811	0.0004841	0.00051216	0.00014261	1370.1	5.5078e-06	5.7587e-06	1371	373.09	5.9437e-06	5.342e-06	425.07	143	124	42.912	5.885e-06	53.042	189.258	-35.778	-49.122	-116.563	5.716	19.786	-116.709	-111.991	1.809	32.010	-112.488	-108.406	-108.615	-103.193	7.878	-103.736	-8191	255	
28669.910	1	1	0	0	0.14055	0.16213	0.26018	0.17665	0.34346	0.26823	0.236	0.14113	0.12342	0.057933	0.038	0.30411	0.05692	0.20976	0.17346	0.29675	-1.6625	-2.7271	-2.6188	-2.2062	-2.8958	-2.3792	-2.4875	-2.9313	-2.075	-2.7021	-2.7917	-2.1229	-2.9458	-2.5271	-2.4	-3.0625	123.679	107.094	57.136	-118.769	149.295	77.441	188.530	154.460	-126.362	-71.809	-40.803	223.523	65.498	220.768	-105.349	180.226	0.00031848	0.00058376	0.00012006	1352.1	4.4282e-06	3.6298e-06	1352.2	367.51	2.652e-06	5.9776e-06	418.77	139.23	121.12	42.161	3.832e-06	51.854	0.00047455	0.00050205	0.00013639	1367.3	5.4553e-06	5.6359e-06	1370	373	5.7747e-06	5.8016e-06	424.99	142.62	124	42.873	5.7703e-06	53.106	191.943	-54.258	-36.617	-116.703	0.718	13.683	-116.595	-112.167	-14.801	34.569	-112.524	-108.416	-107.940	-102.952	16.287	-103.914	-8191	255	
28670.010	1	1	0	0	0.069699	0.079014	0.12481	0.14877	0.032644	0.33147	0.13884	0.37968	0.16953	0.28721	0.063129	0.25144	0.13859	0.067656	0.24114	0.15082	-1.7229	-2.5667	-2.6813	-2.0104	-2.9437	-2.2417	-2.3396	-3.0396	-2.2438	-2.6542	-2.8688	-2.0271	-2.9125	-2.6312	-2.1208	-3.1917	27.745	16.310	160.205	133.301	104.164	79.025	172.911	159.495	219.660	-109.177	188.506	-89.010	200.507	-119.763	41.998	-129.616	0.00034498	0.00055053	0.00015967	1362.9	3.3546e-06	6.0115e-06	1351.3	366.39	3.191e-06	4.8418e-06	421.19	139.07	121.15	41.995	3.4366e-06	51.577	0.00048479	0.00049988	0.00014146	1373	5.4605e-06	5.528e-06	1369.1	372.01	5.7375e-06	5.4536e-06	425.96	142.81	124.11	42.867	5.7418e-06	53.06	193.921	-39.195	-41.101	-116.454	-2.162	14.555	-116.712	-112.284	-15.322	5.756	-112.381	-108.415	-108.030	-103.069	-13.927	-103.598	-8191	255	
28670.104	1	1	0	0	0.13751	0.17228	0.08531	0.14831	0.10438	0.024124	0.1013	0.23006	0.19568	0.10348	0.19601	0.24792	0.072673	0.13237	0.15741	0.15638	-1.6688	-2.3604	-2.8187	-2.1417	-2.9354	-2.4167	-2.3167	-3.0042	-2.2083	-2.4583	-3.1562	-2.3083	-2.7812	-2.6104	-2.0042	-3.0042	179.990	-10.959	40.992	201.305	220.205	-21.083	-90.128	190.468	62.415	-6.714	147.187	212.217	-122.890	-67.990	195.325	220.465	0.00035558	0.00052117	0.00013225	1356	3.9841e-06	5.2029e-06	1344.1	367.23	2.888e-06	4.7027e-06	420.1	139.23	120.83	41.959	3.7229e-06	51.835	0.0004788	0.00053425	0.000145	1368.9	5.4598e-06	5.2792e-06	1369.2	372.47	5.7226e-06	5.5751e-06	425.26	142.54	123.89	42.801	5.4964e-06	53.04	187.901	-44.181	-44.179	-116.794	0.132	21.784	-116.955	-112.326	-33.117	39.160	-112.878	-108.684	-108.418	-103.244	2.261	-103.764	-8191	255	
28670.201	1	1	0	0	0.097704	0.096439	0.086744	0.29344	0.093731	0.20829	0.42921	0.29855	0.074035	0.097437	0.21222	0.17379	0.15349	0.16779	0.12837	0.093827	-1.8062	-2.2708	-2.6688	-2.1667	-2.6417	-2.6792	-2.4021	-3.0667	-2.3125	-2.2396	-3.0167	-2.2021	-2.6583	-2.7354	-2.0521	-2.9437	196.493	14.626	-67.220	-6.295	187.702	9.332	160.780	138.426	167.384	5.214	143.858	-90.810	-3.916	-65.828	224.491	-120.813	0.00033082	0.00048002	9.392e-05	1360.4	4.1945e-06	5.1109e-06	1352.3	366.36	2.8713e-06	6.0294e-06	421.9	139.41	120.41	42.099	2.6631e-06	51.926	0.00046384	0.00051678	0.00013546	1370.1	5.4036e-06	5.7122e-06	1369.1	372.41	5.6225e-06	5.4069e-06	425.76	142.66	123.91	42.91	5.4569e-06	53.187	190.268	-43.872	-52.102	-116.839	14.389	26.266	-116.650	-112.188	-5.317	11.400	-112.508	-108.819	-108.044	-103.170	7.289	-103.669	-8191	255	
28670.320	1	1	0	0	0.19344	0.025489	0.29671	0.2773	0.1198	0.070149	0.33119	0.12063	0.10148	0.18671	0.20924	0.049661	0.2148	0.20123	0.063579	0.18952	-2.0083	-2.2313	-3.0604	-2.3937	-2.5208	-2.8583	-2.1937	-2.9625	-2.5396	-2.2812	-3.0312	-2.4667	-2.6125	-2.8729	-1.8521	-2.9917	21.054	145.587	9.314	194.826	37.830	-88.468	191.463	146.563	-101.750	-111.044	-96.514	159.175	222.745	-103.483	-34.559	-74.493	0.00033839	0.0005258	0.00015237	1357.1	3.5756e-06	5.3351e-06	1352.6	367.22	3.1276e-06	4.7872e-06	418.41	138.99	120.39	41.865	3.5909e-06	51.607	0.00047669	0.00052234	0.00014026	1369.2	5.5847e-06	5.5322e-06	1368.7	372.5	5.6949e-06	5.5201e-06	425.09	142.83	123.97	42.864	5.5183e-06	53.152	191.134	-45.382	-42.591	-116.961	14.209	10.430	-116.737	-112.246	-20.649	8.417	-112.576	-108.640	-108.523	-103.098	13.514	-103.677	-8191	255	
28670.416	1	1	0	0	0.1395	0.056298	0.11936	0.15248	0.060868	0.14258	0.35215	0.16457	0.16727	0.13678	0.29274	0.22655	0.28565	0.12842	0.16192	0.024287	-2.1354	-2.1542	-2.9479	-2.425	-2.5229	-2.8937	-2.2542	-2.9417	-2.4208	-2.2208	-3.0187	-2.3646	-2.3812	-2.975	-2.1021	-2.8146	-26.311	178.452	157.979	138.728	218.761	177.511	179.153	93.480	151.434	213.612	154.491	-111.785	-28.277	106.227	210.613	172.707	0.00035944	0.00049452	0.00013717	1358.6	4.1189e-06	5.6506e-06	1351.7	366.7	3.9477e-06	4.7801e-06	418.52	139.31	120.41	42.149	3.6983e-06	52.02	0.00047211	0.00050696	0.00013716	1366.8	5.5677e-06	5.4617e-06	1368.1	372.61	5.7314e-06	5.4594e-06	424.62	142.56	123.76	42.928	5.5183e-06	53.062	190.220	-35.457	-35.295	-116.602	23.018	12.949	-116.988	-112.387	-18.653	7.567	-112.318	-108.789	-108.382	-103.192	24.433	-103.735	-8191	255	
28670.512	1	1	0	0	0.20713	0.20178	0.15295	0.17268	0.13066	0.29059	0.13382	0.41687	0.099986	0.24473	0.1575	0.27493	0.11498	0.11601	0.1913	0.073373	-2.2687	-2.1458	-2.8375	-2.4792	-2.4083	-2.9479	-2.2167	-2.7687	-2.8438	-2.0062	-2.9333	-2.4792	-2.25	-2.9104	-2.0208	-2.5917	23.369	-51.233	-30.268	216.030	-16.903	-86.861	181.501	174.972	131.355	138.543	55.213	199.405	177.883	61.804	58.551	-99.063	0.00037128	0.00064838	0.00013977	1349.4	3.534e-06	5.4372e-06	1353.5	369.16	3.4668e-06	6.4483e-06	419.14	139.44	121.29	41.773	3.4856e-06	51.756	0.00048196	0.00054133	0.00013052	1368.5	5.6815e-06	5.3771e-06	1369.4	372.75	5.6192e-06	6.074e-06	425.94	142.67	124.05	42.78	5.9061e-06	53.062	192.369	-44.364	-38.994	-116.819	15.064	3.218	-116.866	-112.042	-8.024	6.851	-112.618	-108.759	-108.266	-102.961	8.685	-103.574	-8191	255	
28670.607	1	1	0	0	0.10766	0.096154	0.1939	0.18602	0.192	0.019415	0.24689	0.24518	0.18237	0.16004	0.20329	0.089468	0.28841	0.1394	0.080441	0.23945	-2.3667	-2.0625	-2.6646	-2.5646	-2.1937	-2.9333	-2.4583	-2.5646	-2.9042	-2.075	-2.9083	-2.7521	-2.1146	-3.0104	-2.15	-2.4875	187.908	224.147	133.120	-124.117	45.256	27.385	217.670	195.580	117.143	99.738	214.591	144.680	19.475	-61.181	159.147	225.187	0.00032189	0.00045826	0.00012449	1354.9	4.5259e-06	4.358e-06	1348	367.77	2.2691e-06	4.6145e-06	421.57	139.93	121.32	42.08	4.427e-06	51.676	0.00046694	0.00051837	0.0001401	1368	5.6948e-06	5.2725e-06	1367.3	372.98	5.7152e-06	5.7745e-06	425.79	142.82	124.16	42.896	5.4949e-06	53.051	190.751	-47.021	-53.996	-116.609	-1.212	11.777	-116.711	-112.140	-3.688	11.978	-112.389	-108.781	-108.089	-103.043	21.670	-103.593	-8191	255	
28670.729	1	1	0	0	0.18773	0.094287	0.22619	0.092131	0.1983	0.21148	0.18513	0.07812	0.23217	0.23418	0.097626	0.16954	0.18954	0.080875	0.078026	0.194	-2.6437	-2.1271	-2.6333	-2.6021	-2.0271	-2.8812	-2.475	-2.5667	-2.8063	-1.9375	-2.7333	-2.8208	-2.0646	-3.1063	-2.2229	-2.5083	-62.903	-122.376	-80.752	187.163	174.955	-47.548	183.160	113.161	110.080	155.938	144.576	172.546	180.991	-107.198	-81.136	194.070	0.00035824	0.00061042	0.00011895	1354.3	3.5934e-06	4.859e-06	1348.2	366.5	3.7621e-06	6.4479e-06	418.64	139.22	121.59	41.895	4.2608e-06	51.873	0.0004675	0.00055642	0.00013953	1368.7	5.6387e-06	5.2211e-06	1367.8	372.53	5.4177e-06	5.9755e-06	425.08	142.69	124.39	42.864	5.6352e-06	53.063	190.773	-45.284	-37.919	-116.606	-1.640	26.135	-116.797	-111.907	-20.324	20.917	-112.324	-108.574	-108.135	-103.081	16.739	-103.485	-8191	255	
28670.801	1	1	0	0	0.31432	0.4419	0.10099	0.04855	0.25182	0.52137	0.22563	0.048519	0.19673	0.36009	0.058256	0.35807	0.39243	0.087584	0.067575	0.12857	-2.4375	-2.2375	-2.6167	-2.6542	-2.1437	-2.8312	-2.575	-2.1917	-2.8312	-2.2104	-2.6208	-2.8771	-2.1958	-2.9604	-2.4271	-2.2542	-18.953	65.378	45.296	201.803	174.715	108.770	196.927	-127.896	-81.443	-80.896	190.786	137.664	162.983	157.733	51.539	23.129	0.000364	0.00050805	0.00010328	1357.3	4.2622e-06	3.8775e-06	1355.8	368.66	2.1031e-06	5.4097e-06	419.85	139.14	122.06	41.798	4.2113e-06	51.861	0.00047649	0.00051764	0.00013635	1369.6	5.5189e-06	5.499e-06	1371	373.09	5.609e-06	5.7647e-06	425.73	142.68	124.44	42.824	5.6724e-06	53.028	192.041	-53.410	-45.968	-116.459	6.253	3.907	-116.776	-112.009	-12.444	22.901	-112.618	-108.757	-107.791	-102.994	12.912	-103.521	-8191	255	
28670.922	1	1	0	0	0.03915	0.074353	0.088578	0.14015	0.14441	0.12867	0.19139	0.32253	0.20844	0.088302	0.22784	0.1453	0.28148	0.28022	0.19176	0.15668	-2.5167	-2.1042	-2.2125	-2.6979	-2.2146	-2.725	-2.8479	-2.1958	-2.9729	-2.275	-2.3479	-3.0146	-2.125	-2.6292	-2.4938	-2.2917	209.501	49.353	212.360	-113.214	155.807	65.818	159.326	167.819	-77.748	-114.299	165.856	229.952	227.742	200.621	30.535	204.712	0.00032679	0.00025926	0.00011217	1362.9	3.251e-06	5.8133e-06	1352.9	366.47	3.7623e-06	6.4178e-06	421.22	139.37	120.72	41.839	4.8741e-06	51.552	0.0004528	0.00051476	0.00014536	1369.4	5.595e-06	5.5131e-06	1369.5	372.82	5.5292e-06	5.4947e-06	426.06	142.69	123.99	42.894	5.5322e-06	53.052	189.787	-47.099	-41.841	-116.503	5.797	30.333	-116.864	-111.891	-20.038	0.923	-112.320	-108.690	-108.253	-102.820	-1.878	-103.724	-8191	255	
28671.016	1	1	0	0	0.069753	0.01957	0.17482	0.11228	0.11776	0.14702	0.36045	0.20059	0.25683	0.35698	0.17187	0.047291	0.26553	0.20925	0.24489	0.22149	-2.5312	-2.2833	-2.0167	-3.0062	-2.1833	-2.7125	-2.7625	-2.2917	-2.8958	-2.3583	-2.2583	-3.0479	-2.1437	-2.6437	-2.7313	-2.2729	-128.150	181.746	86.025	167.166	-120.264	166.730	145.923	165.705	197.032	-1.679	185.264	188.082	158.698	200.004	-69.569	228.169	0.0003343	0.00041657	0.00013784	1363.6	3.4647e-06	5.3741e-06	1352.7	367.01	2.237e-06	4.1734e-06	420.78	139.47	121.43	41.996	2.8718e-06	51.732	0.00045471	0.00050479	0.00014931	1371.4	5.5462e-06	5.7355e-06	1369.9	372.25	5.5691e-06	5.7507e-06	425.71	142.56	124.09	42.864	5.3905e-06	53.132	185.683	-64.235	-37.623	-116.520	13.418	8.881	-116.788	-111.951	-9.890	8.994	-112.185	-108.621	-107.980	-102.984	18.529	-103.603	-8191	255	
28671.111	1	1	0	0	0.12115	0.11121	0.30917	0.13549	0.18952	0.0067446	0.11281	0.46371	0.23307	0.12113	0.36166	0.13095	0.24347	0.093501	0.020499	0.071809	-2.4021	-2.4437	-2.2104	-3.025	-2.1188	-2.375	-3.0187	-2.0812	-2.8292	-2.6	-2.4062	-2.9917	-2.4229	-2.3646	-2.9562	-2.2333	15.324	-62.976	18.514	145.130	94.636	-69.207	158.353	182.247	63.583	-66.859	170.578	-75.823	-103.877	222.807	54.839	-109.605	0.00033849	0.00047326	0.00012719	1357	5.1829e-06	5.342e-06	1353.3	368.19	2.9089e-06	4.4883e-06	421.07	140.24	121.28	42.056	2.5749e-06	52.064	0.00046229	0.00050031	0.0001402	1370.7	5.873e-06	5.6948e-06	1368.6	372.7	5.5698e-06	5.5644e-06	425.75	143.02	124.14	42.905	5.3927e-06	53.099	193.011	-52.794	-24.243	-116.613	24.921	14.866	-116.472	-112.084	-6.852	36.788	-112.245	-108.649	-108.420	-103.143	7.160	-103.534	-8191	255	
28671.207	1	1	0	0	0.1084	0.25908	0.14016	0.38926	0.07003	0.29791	0.22193	0.28173	0.30102	0.11087	0.28752	0.29196	0.18237	0.21439	0.071228	0.20143	-2.5917	-2.5354	-2.1021	-3.0187	-2.3104	-2.5708	-3.0312	-2.3167	-2.7687	-2.7792	-2.2292	-3.0438	-2.6333	-2.4688	-2.85	-2.2625	-79.351	-1.464	56.661	214.381	48.103	86.055	154.364	182.780	68.498	-33.327	180.875	142.787	78.372	-85.123	-59.064	167.566	0.00035472	0.00038235	0.00011693	1363.1	4.2335e-06	4.3066e-06	1352.8	366.68	3.808e-06	5.5091e-06	420.52	139.22	121.42	41.965	3.3212e-06	51.624	0.00047053	0.00049923	0.00014996	1371.7	5.5847e-06	5.6699e-06	1370.6	372.03	5.7787e-06	5.5332e-06	425.42	142.83	124.21	42.899	5.5643e-06	52.989	192.762	-44.943	-43.966	-116.751	26.733	-1.123	-116.602	-112.000	-4.389	16.475	-112.370	-108.534	-108.033	-102.883	1.433	-103.559	-8191	255	
28671.305	1	1	0	0	0.15084	0.01092	0.21748	0.10266	0.15818	0.45349	0.32121	0.095144	0.16318	0.12631	0.12218	0.28268	0.21235	0.13532	0.13502	0.15295	-2.1583	-2.7667	-2.0542	-2.8063	-2.4979	-2.1958	-3.1833	-2.3229	-2.4437	-2.7542	-2.2313	-2.9146	-2.6833	-2.2167	-2.8292	-2.1979	-86.078	153.561	59.606	184.594	197.637	74.666	184.282	224.496	-99.013	-47.374	142.008	202.558	62.649	213.876	182.077	127.850	0.00031832	0.00048992	0.00015184	1361.2	3.0021e-06	4.9334e-06	1355.3	367.6	2.841e-06	4.447e-06	419.05	139.09	120.96	41.96	4.529e-06	51.612	0.00047026	0.0005071	0.00015233	1371.9	5.6424e-06	5.3837e-06	1371.1	372.35	5.9599e-06	5.4446e-06	425.2	142.63	123.97	42.843	5.3138e-06	53.054	191.559	-50.194	-35.487	-116.399	3.319	23.111	-116.674	-112.093	-15.422	20.130	-112.231	-108.393	-108.069	-102.696	14.072	-103.563	-8191	255	
28671.400	1	1	0	0	0.13359	0.1627	0.20672	0.26927	0.1768	0.24663	0.22172	0.35605	0.20931	0.05681	0.111	0.13791	0.12968	0.26603	0.17343	0.20505	-2.1875	-2.5625	-2.0146	-2.975	-2.4042	-2.1292	-3.0625	-2.5125	-2.3208	-3.0292	-2.1688	-2.7687	-2.675	-2.1771	-2.7354	-2.4875	33.236	167.646	192.814	-127.888	186.743	-51.415	212.280	144.790	-89.628	-57.078	-84.269	176.555	-119.863	-7.480	-91.153	96.967	0.00032157	0.0004395	0.00013374	1361.7	3.1902e-06	5.5819e-06	1350.9	368.53	3.9955e-06	4.877e-06	419.44	139.83	120.6	41.959	2.7439e-06	51.886	0.00049036	0.00049504	0.00014146	1372.7	5.6549e-06	5.6683e-06	1370.6	372.93	5.8754e-06	5.3601e-06	424.91	142.92	123.79	42.909	5.3466e-06	53.115	193.531	-55.617	-43.681	-116.447	2.837	32.776	-116.554	-111.938	-12.715	12.722	-112.196	-108.294	-107.699	-103.023	19.667	-103.776	-8191	255	
28671.496	1	1	0	0	0.22363	0.11151	0.044129	0.35277	0.096299	0.30191	0.22285	0.29057	0.061623	0.047779	0.15445	0.17918	0.083518	0.17621	0.25935	0.17327	-2.0792	-2.825	-2.1	-2.7062	-2.5896	-2.15	-3.0979	-2.5375	-2.2271	-2.75	-2.1437	-2.7917	-2.8937	-2.0833	-2.7854	-2.45	-35.068	46.235	127.038	206.896	155.352	-5.085	128.621	169.174	16.656	50.298	-100.048	166.112	84.001	-116.913	177.232	-96.404	0.00033422	0.00051629	0.00013666	1354.3	3.9608e-06	5.3135e-06	1355.6	368.46	2.1644e-06	6.2417e-06	419.91	139.31	120.44	41.713	4.7577e-06	52	0.0004789	0.00050284	0.00014332	1369.7	5.4287e-06	5.8574e-06	1370.7	372.17	5.8328e-06	5.42e-06	424.98	142.67	123.99	42.791	5.4927e-06	53.079	193.621	-55.173	-45.479	-116.275	10.498	20.966	-116.529	-111.803	11.137	28.424	-112.490	-108.573	-108.311	-102.975	6.026	-103.656	-8191	255	
28671.594	1	1	0	0	0.13876	0.35525	0.23132	0.37799	0.031472	0.20989	0.44931	0.14372	0.12521	0.18547	0.22501	0.19146	0.22187	0.24633	0.12049	0.28315	-1.8583	-2.8771	-2.075	-2.6396	-2.8	-2.2188	-2.9917	-2.6937	-1.9937	-2.8771	-2.3458	-2.7604	-2.8271	-2.175	-2.7438	-2.525	-7.127	224.142	-110.312	173.226	110.208	140.592	204.473	215.541	123.835	76.744	119.115	140.962	229.714	134.374	-120.484	137.078	0.00033973	0.00048503	0.00015929	1355.7	5.1662e-06	4.6287e-06	1348.1	368.19	2.7824e-06	4.1153e-06	418.67	139.26	121.11	42.138	4.3434e-06	51.836	0.00048413	0.00048501	0.00014245	1367.9	5.4716e-06	5.8101e-06	1367.5	372.58	5.7294e-06	5.0425e-06	424.95	142.82	123.95	42.937	5.5015e-06	52.993	189.128	-37.434	-40.845	-116.068	1.446	24.441	-116.501	-111.987	-12.380	19.539	-112.556	-108.648	-107.790	-102.938	8.742	-103.355	-8191	255	
28671.689	1	1	0	0	0.012765	0.26304	0.11184	0.075093	0.11151	0.10284	0.15047	0.081288	0.11925	0.30704	0.24458	0.20815	0.17566	0.11081	0.085312	0.2184	-1.6792	-3.0812	-2.1021	-2.5187	-2.75	-2.0917	-2.9521	-2.5812	-1.9542	-2.8271	-2.4229	-2.4292	-3.0833	-2.1188	-2.6771	-2.875	-45.622	118.590	-111.536	175.366	44.218	47.072	154.931	162.359	199.665	-102.599	177.805	205.064	187.072	201.090	135.217	-127.098	0.00034145	0.00059899	0.0001079	1359.4	4.6221e-06	5.5852e-06	1354.7	368.22	3.5195e-06	5.5644e-06	418.47	139.63	121.15	42.266	3.9326e-06	51.523	0.00047735	0.00049107	0.00013813	1366.4	5.2335e-06	5.4526e-06	1370.6	372.28	5.5766e-06	5.5045e-06	424.76	142.64	124.49	42.939	5.4387e-06	53.005	194.299	-60.717	-48.798	-116.531	18.629	26.018	-116.604	-111.860	-11.504	16.363	-112.402	-108.133	-108.146	-102.568	8.788	-103.612	-8191	255	
28671.809	1	1	0	0	0.29456	0.096987	0.24729	0.12681	0.16166	0.10776	0.2227	0.30424	0.1247	0.25579	0.17743	0.043868	0.15729	0.33184	0.14631	0.43741	-1.7333	-2.8583	-2.2979	-2.3063	-2.9562	-2.1562	-2.925	-2.8729	-2.2083	-2.9542	-2.4979	-2.2958	-3.1604	-2.1146	-2.6208	-2.8958	2.460	-123.113	110.195	163.603	-114.109	-108.049	-125.658	203.214	119.751	-14.812	163.328	226.679	214.123	173.643	-49.391	161.379	0.00032727	0.00048087	0.00013419	1353.2	3.7576e-06	5.2112e-06	1357	366.79	4.1889e-06	5.9411e-06	418.53	139.32	121.08	42.004	3.9189e-06	51.882	0.00048143	0.00047273	0.00014285	1367.8	5.3607e-06	5.8052e-06	1370.9	372.08	5.6462e-06	5.324e-06	424.82	142.81	123.81	42.838	5.6154e-06	53.063	193.184	-51.999	-40.626	-116.420	28.340	13.552	-116.384	-111.995	-9.820	32.876	-112.344	-108.098	-108.265	-103.113	8.177	-103.391	-8191	255	
28671.904	1	1	0	0	0.16036	0.17132	0.13812	0.0555	0.056827	0.17558	0.17348	0.17422	0.30632	0.24937	0.22755	0.29316	0.17577	0.19307	0.24911	0.15278	-1.6688	-2.7562	-2.3208	-2.2521	-2.7062	-2.2542	-2.6333	-2.8583	-2.2562	-2.7958	-2.7375	-2.3542	-2.8333	-2.4125	-2.3521	-2.9208	24.311	-60.967	82.092	-78.187	-53.521	7.145	203.292	147.315	67.996	-22.376	-88.893	211.467	-66.301	170.109	202.514	199.249	0.00033147	0.00046734	9.97e-05	1363.4	4.3485e-06	5.3885e-06	1350.7	367.99	2.7478e-06	6.3302e-06	419.46	139.52	121.02	42.171	2.9193e-06	51.834	0.00048107	0.00048652	0.00013273	1372.8	5.3651e-06	5.699e-06	1368.3	372.95	5.5894e-06	4.9391e-06	425.19	142.7	124.26	42.897	5.6739e-06	53.133	191.210	-40.407	-35.237	-116.367	-0.418	6.831	-116.433	-111.967	-3.479	6.333	-112.173	-108.397	-108.164	-102.783	21.356	-103.734	-8191	255	
28672.002	1	1	0	0	0.050099	0.12606	0.22879	0.26778	0.033564	0.10861	0.25347	0.256	0.07207	0.22971	0.42377	0.17476	0.12238	0.19325	0.13204	0.1654	-1.6146	-2.5771	-2.4417	-2.1292	-2.8167	-2.2542	-2.3271	-3.2062	-2.1083	-2.625	-2.8167	-2.2167	-3.075	-2.4479	-2.2896	-2.9146	-9.336	202.941	22.085	184.591	21.185	129.310	200.963	153.468	127.208	224.024	126.444	193.645	155.896	218.734	197.920	30.851	0.00036013	0.00044117	0.00014337	1362.5	1.956e-06	4.8117e-06	1354.4	366.58	2.7173e-06	3.8598e-06	418.26	139.48	121.24	41.813	4.6854e-06	51.741	0.00047402	0.00047901	0.0001373	1371	5.2683e-06	5.4774e-06	1369.2	372.23	5.54e-06	5.2567e-06	424.38	142.85	124.19	42.796	5.595e-06	53.108	188.558	-35.696	-39.469	-116.307	-19.524	17.295	-116.378	-111.867	-30.076	23.803	-112.396	-108.151	-107.927	-103.072	27.523	-103.104	-8191	255	
28672.096	1	1	0	0	0.14439	0.20356	0.12909	0.31878	0.1276	0.14037	0.22848	0.070411	0.24034	0.072047	0.28437	0.18549	0.28466	0.12685	0.15409	0.055507	-1.8479	-2.5083	-2.7062	-2.2104	-2.8438	-2.3937	-2.325	-2.9708	-2.2354	-2.4562	-2.9313	-2.125	-2.8625	-2.4917	-2.3854	-2.9688	-9.834	-120.767	211.676	218.932	-91.760	54.073	148.290	182.319	111.527	28.156	121.463	219.443	212.884	43.682	-23.824	215.437	0.00033284	0.00054447	0.00013069	1363.7	3.9318e-06	4.4675e-06	1356.2	367.18	4.8436e-06	4.9311e-06	418.43	139.4	121.63	41.941	4.146e-06	51.95	0.00048051	0.00050457	0.00013174	1369.9	5.3171e-06	5.5256e-06	1369.2	372.39	5.7375e-06	5.2436e-06	425.12	142.78	124.37	42.951	5.5351e-06	53.197	192.131	-58.991	-44.533	-116.419	-1.194	21.748	-116.486	-111.806	-12.297	12.891	-112.113	-108.071	-107.887	-103.001	-0.211	-103.458	-8191	255	
28672.191	1	1	0	0	0.17326	0.084962	0.16186	0.31525	0.30435	0.077418	0.16911	0.22359	0.15759	0.1125	0.098546	0.090234	0.05163	0.052204	0.10133	0.15144	-1.9688	-2.3063	-2.8187	-2.1167	-2.8625	-2.6125	-2.3333	-3.0833	-2.3708	-2.3125	-2.9271	-2.3729	-2.5812	-2.6146	-2.15	-2.9813	-70.475	-34.065	-64.719	185.606	96.715	-64.452	150.305	137.447	136.878	5.559	43.899	-26.018	-117.906	132.692	-53.839	19.010	0.00032887	0.00035221	0.00013888	1357.2	3.2893e-06	6.5268e-06	1353.2	367.36	3.9756e-06	5.6099e-06	418.84	138.99	121	42.112	4.6986e-06	51.98	0.00047079	0.00050746	0.00012949	1368.1	5.2417e-06	5.4708e-06	1368.5	372.49	5.5705e-06	5.4873e-06	424.89	142.77	124.27	42.969	5.7915e-06	53.181	190.089	-61.360	-44.700	-116.288	-4.285	32.053	-116.503	-112.025	-20.326	15.427	-112.391	-108.611	-107.699	-102.772	7.650	-103.249	-8191	255	
28672.287	1	1	0	0	0.13778	0.076725	0.070225	0.097109	0.088797	0.071973	0.18893	0.29835	0.018262	0.18895	0.11982	0.073809	0.098936	0.20935	0.074195	0.28395	-1.9271	-2.2104	-3.0583	-2.0521	-2.6271	-2.8146	-2.1021	-3.0833	-2.5583	-2.2625	-2.9813	-2.2125	-2.4583	-2.725	-2.1854	-3.0229	-55.842	226.789	90.766	5.251	224.656	227.876	115.202	203.769	119.341	-114.744	194.004	-38.567	115.367	211.197	-61.183	209.144	0.00033756	0.00042602	0.00011372	1360.2	3.7711e-06	4.3288e-06	1357.9	366.89	3.1884e-06	4.4008e-06	420.15	139.73	120.86	41.94	2.9529e-06	51.854	0.00047175	0.00050501	0.00013076	1370.4	5.1877e-06	5.0228e-06	1371.4	372.21	5.5319e-06	5.4028e-06	425.71	142.85	124.1	42.89	5.6644e-06	53.253	192.997	-44.208	-35.996	-116.271	27.310	14.846	-116.435	-111.742	-6.547	16.909	-112.231	-108.325	-107.790	-102.689	5.939	-103.464	-8191	255	
28672.408	1	1	0	0	0.35811	0.088422	0.14699	0.31571	0.1692	0.083962	0.099311	0.19571	0.18482	0.12753	0.40292	0.21557	0.16206	0.071571	0.25059	0.1227	-1.9042	-2.15	-2.9417	-2.1917	-2.475	-2.7521	-2.1604	-2.8625	-2.5021	-2.2375	-3.0208	-2.3438	-2.5854	-2.9896	-2.1604	-2.875	190.460	139.934	199.422	191.891	94.846	-0.669	220.053	229.538	82.955	148.558	204.029	21.236	97.505	113.210	49.691	199.355	0.0003379	0.0003777	0.00015334	1355.2	3.708e-06	3.7956e-06	1351.9	367.28	4.309e-06	4.8265e-06	420.08	138.99	121.64	42.216	3.8083e-06	52.046	0.00048842	0.00048522	0.00014085	1369.4	5.3614e-06	4.9838e-06	1370.7	372.77	5.4819e-06	5.6933e-06	425.55	142.69	124.4	43	5.5534e-06	53.236	190.904	-53.575	-32.023	-116.674	14.227	-5.435	-116.764	-111.735	-34.082	16.944	-112.229	-108.758	-107.979	-102.859	2.946	-103.453	-8191	255	
28672.506	1	1	0	0	0.04837	0.13405	0.14109	0.11843	0.055454	0.21816	0.34775	0.022247	0.16709	0.08554	0.21825	0.20973	0.20205	0.24919	0.12547	0.20089	-2.2042	-1.8479	-2.8875	-2.4521	-2.2979	-2.875	-2.6	-2.8375	-2.575	-2.1333	-3.0438	-2.4979	-2.4917	-3.1562	-2.15	-2.7542	-127.252	-85.655	225.545	116.159	-36.445	180.226	189.460	-122.143	-39.140	141.892	206.297	163.736	139.848	-107.388	52.299	199.772	0.00034418	0.00052009	0.00014298	1362.7	4.2575e-06	5.2459e-06	1352.4	368.51	3.639e-06	3.9383e-06	420.79	139.63	121.51	42.171	3.0441e-06	51.946	0.00046041	0.00050833	0.00013544	1371.1	5.4228e-06	5.2592e-06	1370.4	372.95	5.2446e-06	5.6514e-06	426.87	142.74	124.41	42.998	5.6417e-06	53.114	189.629	-42.333	-37.826	-116.463	1.850	23.012	-116.643	-111.642	-22.138	11.313	-112.318	-108.147	-107.830	-102.803	-5.591	-103.183	-8191	255	
28672.602	1	1	0	0	0.1169	0.059132	0.18699	0.18056	0.097805	0.26288	0.22252	0.4937	0.30469	0.25105	0.33796	0.23228	0.056009	0.25975	0.098327	0.16757	-2.3625	-1.9625	-2.9437	-2.475	-2.2854	-2.9271	-2.4	-2.5833	-2.6625	-2.0667	-2.9958	-2.6437	-2.2083	-3.0104	-2.1625	-2.5125	67.950	89.707	52.072	194.769	-108.591	41.368	134.666	-119.465	17.373	-66.082	151.873	162.331	-7.130	109.004	-121.650	123.193	0.00034134	0.00047031	0.00012702	1354.6	3.9493e-06	5.734e-06	1355	367.95	3.0108e-06	4.7169e-06	420.48	139.73	120.73	41.985	2.9965e-06	52.086	0.00045788	0.0005266	0.00013143	1368.8	5.5773e-06	5.5347e-06	1371.6	373.18	5.561e-06	5.9009e-06	425.99	142.96	124.24	42.968	5.5964e-06	53.187	190.980	-48.797	-48.046	-116.330	12.850	25.137	-116.473	-111.729	-8.186	7.517	-112.192	-108.158	-107.801	-102.844	8.919	-103.409	-8191	255	
28672.697	1	1	0	0	0.15719	0.052934	0.12562	0.25261	0.098629	0.10453	0.26973	0.1542	0.18142	0.17057	0.0049921	0.056773	0.26556	0.051542	0.096507	0.15584	-2.5521	-2.1354	-2.5771	-2.6958	-2.1896	-2.9167	-2.4562	-2.5708	-2.7625	-2.1583	-2.875	-2.8792	-2.1854	-3.1	-2.2604	-2.4854	86.069	-11.105	207.922	108.485	175.142	127.643	164.203	104.668	149.864	107.630	113.722	-60.707	165.836	-102.052	-14.338	-99.882	0.0003222	0.00048292	0.00012297	1365.4	3.7853e-06	6.1369e-06	1355.3	368.6	2.5844e-06	4.6523e-06	420.08	140.01	121.6	42.057	3.7766e-06	51.846	0.00046664	0.00053079	0.00013755	1374.3	5.6246e-06	5.4443e-06	1371.4	373.59	5.4528e-06	5.5661e-06	426.38	142.83	124.5	42.947	5.5943e-06	53.135	192.074	-38.465	-39.394	-116.267	12.463	19.230	-116.733	-111.886	-28.538	17.949	-112.168	-108.598	-107.835	-102.855	9.437	-103.402	-8191	255	
#DATA ENDS
