BOXY.EXE: ISS Imagent and Oximeter Data Acquisition Program Version 0.80
Ascii Record File

#ACQ INFORMATION
2  Detector Channels 
16  External MUX Channels 
1  Auxiliary Channels 
5000  Waveform (CCF) Frequency (Hz)
1  Waveforms Skipped 
30  Waveforms Averaged 
1  Cycles Averaged 
16  Acquisitions per Waveform 
10.0806  Updata Rate (Hz) 

#FILE INFORMATION
TRUE -- External MUX Channel results are PARSED.
FALSE -- AC DC and Phase are NOT grouped.
TRUE -- Companion Program Settings File CREATED.
FALSE -- AC data not excluded
FALSE -- DC data not excluded
FALSE -- Phase data not excluded
FALSE -- Auxillary Chn. data not excluded
Tab delimiters

#CALIBRATION STATE
TRUE -- Waveform Calibration Values APPLIED.


#AUX CALIBRATION VALUES
Val Type	aux-1	

Term	1.0000e+00	
Factor	0.0000e+00	


#WF CALIBRATION VALUES
A = Detector Channel
Val Type	A-AC1	A-AC2	A-AC3	A-AC4	A-AC5	A-AC6	A-AC7	A-AC8	A-AC9	A-AC10	A-AC11	A-AC12	A-AC13	A-AC14	A-AC15	A-AC16	A-DC1	A-DC2	A-DC3	A-DC4	A-DC5	A-DC6	A-DC7	A-DC8	A-DC9	A-DC10	A-DC11	A-DC12	A-DC13	A-DC14	A-DC15	A-DC16	A-Ph1	A-Ph2	A-Ph3	A-Ph4	A-Ph5	A-Ph6	A-Ph7	A-Ph8	A-Ph9	A-Ph10	A-Ph11	A-Ph12	A-Ph13	A-Ph14	A-Ph15	A-Ph16	

Term	0.00000e+00	0.00000e+00	0.00000e+00	0.00000e+00	0.00000e+00	0.00000e+00	0.00000e+00	0.00000e+00	0.00000e+00	0.00000e+00	0.00000e+00	0.00000e+00	0.00000e+00	0.00000e+00	0.00000e+00	0.00000e+00	0.00000e+00	0.00000e+00	0.00000e+00	0.00000e+00	0.00000e+00	0.00000e+00	0.00000e+00	0.00000e+00	0.00000e+00	0.00000e+00	0.00000e+00	0.00000e+00	0.00000e+00	0.00000e+00	0.00000e+00	0.00000e+00	0.00000e+00	0.00000e+00	0.00000e+00	0.00000e+00	0.00000e+00	0.00000e+00	0.00000e+00	0.00000e+00	0.00000e+00	0.00000e+00	0.00000e+00	0.00000e+00	0.00000e+00	0.00000e+00	0.00000e+00	0.00000e+00	
Factor	1.00000e+00	1.00000e+00	1.00000e+00	1.00000e+00	1.00000e+00	1.00000e+00	1.00000e+00	1.00000e+00	1.00000e+00	1.00000e+00	1.00000e+00	1.00000e+00	1.00000e+00	1.00000e+00	1.00000e+00	1.00000e+00	1.00000e+00	1.00000e+00	1.00000e+00	1.00000e+00	1.00000e+00	1.00000e+00	1.00000e+00	1.00000e+00	1.00000e+00	1.00000e+00	1.00000e+00	1.00000e+00	1.00000e+00	1.00000e+00	1.00000e+00	1.00000e+00	X	X	X	X	X	X	X	X	X	X	X	X	X	X	X	X	

B = Detector Channel
Val Type	B-AC1	B-AC2	B-AC3	B-AC4	B-AC5	B-AC6	B-AC7	B-AC8	B-AC9	B-AC10	B-AC11	B-AC12	B-AC13	B-AC14	B-AC15	B-AC16	B-DC1	B-DC2	B-DC3	B-DC4	B-DC5	B-DC6	B-DC7	B-DC8	B-DC9	B-DC10	B-DC11	B-DC12	B-DC13	B-DC14	B-DC15	B-DC16	B-Ph1	B-Ph2	B-Ph3	B-Ph4	B-Ph5	B-Ph6	B-Ph7	B-Ph8	B-Ph9	B-Ph10	B-Ph11	B-Ph12	B-Ph13	B-Ph14	B-Ph15	B-Ph16	

Term	0.00000e+00	0.00000e+00	0.00000e+00	0.00000e+00	0.00000e+00	0.00000e+00	0.00000e+00	0.00000e+00	0.00000e+00	0.00000e+00	0.00000e+00	0.00000e+00	0.00000e+00	0.00000e+00	0.00000e+00	0.00000e+00	0.00000e+00	0.00000e+00	0.00000e+00	0.00000e+00	0.00000e+00	0.00000e+00	0.00000e+00	0.00000e+00	0.00000e+00	0.00000e+00	0.00000e+00	0.00000e+00	0.00000e+00	0.00000e+00	0.00000e+00	0.00000e+00	-1.51084e+02	-1.28834e+02	-1.28025e+02	-1.86409e+02	-7.68898e+01	-6.93831e+01	-1.58531e+02	-1.62015e+02	-7.47914e+01	-6.79359e+01	-1.72014e+02	-1.71423e+02	-1.83400e+02	-1.77421e+02	-7.05656e+01	-1.49763e+02	
Factor	2.11876e-05	1.39541e-04	4.21210e-05	2.80485e-01	1.28048e-06	1.60148e-06	1.54187e-01	4.54447e-02	1.08396e-06	1.57593e-06	7.46426e-02	2.54121e-02	3.58899e-02	8.15869e-03	1.32146e-06	1.15051e-02	9.79520e-06	1.44465e-05	4.03494e-06	1.49735e-01	1.53051e-07	1.61647e-07	7.78450e-02	2.45314e-02	1.47844e-07	1.59374e-07	3.90137e-02	1.33397e-02	1.96024e-02	4.44578e-03	1.52412e-07	6.08456e-03	X	X	X	X	X	X	X	X	X	X	X	X	X	X	X	X	



#DISTANCE SETTINGS
A = Detector Channel
A-1	A-2	A-3	A-4	A-5	A-6	A-7	A-8	A-9	A-10	A-11	A-12	A-13	A-14	A-15	A-16	

2.5000e+00	3.0000e+00	2.5000e+00	3.0000e+00	2.0000e+00	3.0000e+00	1.5000e+00	3.0000e+00	3.0000e+00	3.0000e+00	3.0000e+00	3.0000e+00	3.0000e+00	3.0000e+00	1.5000e+00	3.0000e+00	

B = Detector Channel
B-1	B-2	B-3	B-4	B-5	B-6	B-7	B-8	B-9	B-10	B-11	B-12	B-13	B-14	B-15	B-16	

1.0000e+01	1.0000e+01	1.0000e+01	1.4400e+00	1.0000e+01	1.0000e+01	1.5100e+00	1.9400e+00	1.0000e+01	1.0000e+01	1.9900e+00	2.4900e+00	2.4100e+00	2.9000e+00	1.0000e+01	2.9800e+00	




#DATA BEGINS
time	group	step	mark	flag	A-AC1	A-AC2	A-AC3	A-AC4	A-AC5	A-AC6	A-AC7	A-AC8	A-AC9	A-AC10	A-AC11	A-AC12	A-AC13	A-AC14	A-AC15	A-AC16	A-DC1	A-DC2	A-DC3	A-DC4	A-DC5	A-DC6	A-DC7	A-DC8	A-DC9	A-DC10	A-DC11	A-DC12	A-DC13	A-DC14	A-DC15	A-DC16	A-Ph1	A-Ph2	A-Ph3	A-Ph4	A-Ph5	A-Ph6	A-Ph7	A-Ph8	A-Ph9	A-Ph10	A-Ph11	A-Ph12	A-Ph13	A-Ph14	A-Ph15	A-Ph16	B-AC1	B-AC2	B-AC3	B-AC4	B-AC5	B-AC6	B-AC7	B-AC8	B-AC9	B-AC10	B-AC11	B-AC12	B-AC13	B-AC14	B-AC15	B-AC16	B-DC1	B-DC2	B-DC3	B-DC4	B-DC5	B-DC6	B-DC7	B-DC8	B-DC9	B-DC10	B-DC11	B-DC12	B-DC13	B-DC14	B-DC15	B-DC16	B-Ph1	B-Ph2	B-Ph3	B-Ph4	B-Ph5	B-Ph6	B-Ph7	B-Ph8	B-Ph9	B-Ph10	B-Ph11	B-Ph12	B-Ph13	B-Ph14	B-Ph15	B-Ph16	aux-1	digaux	

29056.465	1	1	0	768	0.33699	0.044425	0.072	0.23302	0.22903	0.07185	0.13062	0.42374	0.1543	0.19252	0.07512	0.067574	0.13285	0.28881	0.16474	0.061352	-2.7896	-2.4042	-2.6771	-2.8583	-2.2208	-2.6479	-2.7792	-2.45	-3.0625	-2.4958	-2.5938	-2.9729	-2.2687	-2.9292	-2.7583	-2.4833	308.993	216.037	322.761	470.491	197.018	416.843	387.207	408.211	380.578	427.717	394.378	320.955	464.751	446.360	195.377	277.438	0.00068532	0.00067646	0.00012827	1355.2	4.1789e-06	4.0633e-06	1356.9	367.9	4.7519e-06	3.7655e-06	417.11	140.46	122.48	41.793	4.3229e-06	51.523	0.00058628	0.0005328	0.00015247	1377.4	6.1402e-06	6.088e-06	1378.1	374.33	6.0037e-06	5.8288e-06	426.93	143.37	124.76	43.036	6.0869e-06	53.192	166.276	230.284	237.315	154.110	273.840	262.883	153.627	158.530	275.626	303.397	158.289	162.051	162.106	167.557	273.079	166.832	-8191	255	
29056.561	1	1	0	0	0.22306	0.26158	0.074355	0.2356	0.25281	0.017622	0.08219	0.24276	0.31697	0.10962	0.2616	0.28778	0.3303	0.27028	0.11877	0.03362	-2.6521	-2.525	-2.4604	-2.9792	-2.1458	-3.1063	-3.0125	-2.2208	-3.0104	-2.4188	-2.6063	-3.0646	-2.1771	-2.9188	-2.7938	-2.3917	219.610	161.812	216.143	411.140	312.866	240.938	421.928	387.809	364.759	300.215	475.292	459.913	434.472	484.270	277.496	487.389	0.00071402	0.00062982	0.00014778	1354.6	2.373e-06	5.2275e-06	1355.2	368.36	5.3768e-06	4.4536e-06	418.81	140.93	122.2	41.656	6.0407e-06	51.662	0.00059945	0.0005589	0.00015099	1378.7	5.9693e-06	5.8425e-06	1376.1	374.26	5.8916e-06	5.7926e-06	427.27	143.22	124.69	42.927	5.6662e-06	53.104	166.845	228.427	218.936	153.893	273.747	304.943	153.470	158.606	281.287	299.986	158.120	161.876	162.378	167.609	276.385	166.715	-8191	255	
29056.656	1	1	0	0	0.10144	0.12655	0.1413	0.2174	0.09513	0.08206	0.29185	0.23843	0.23316	0.15837	0.1808	0.16772	0.2178	0.085702	0.10681	0.2937	-2.6146	-2.5042	-2.3833	-3.0646	-2.2104	-2.875	-3.15	-2.4229	-2.9562	-2.4667	-2.4479	-3.4313	-2.6104	-2.7021	-3.1708	-2.3063	367.112	313.844	211.773	499.269	298.808	396.349	472.008	226.445	412.711	401.897	208.243	312.417	473.350	346.254	413.451	471.651	0.00070609	0.00057709	0.00014029	1355.1	3.2394e-06	3.6258e-06	1356.9	366.46	6.0018e-06	5.0198e-06	417.2	139.91	122.91	41.891	3.4624e-06	51.522	0.00058514	0.00055035	0.0001534	1377	5.8478e-06	6.0641e-06	1376.3	374	5.8417e-06	5.8201e-06	427.06	143.28	124.86	42.987	5.7192e-06	53.191	166.076	230.238	245.840	153.819	264.282	272.106	153.711	158.491	276.734	271.951	158.385	161.947	162.587	167.634	249.612	166.772	-8191	255	
29056.754	1	1	0	0	0.073129	0.15035	0.2551	0.12539	0.40504	0.15038	0.39034	0.29481	0.21136	0.2009	0.3801	0.20455	0.11528	0.35516	0.22882	0.22818	-2.3542	-2.6312	-2.1729	-3.2562	-2.2938	-2.7042	-3.1917	-2.3958	-2.8833	-2.6521	-2.4917	-3.1771	-2.4396	-2.6437	-3.0146	-2.4437	271.821	150.872	420.165	149.900	185.980	296.031	447.388	430.614	348.121	353.139	463.016	430.258	419.707	482.243	377.588	461.028	0.0006891	0.00047574	0.00012641	1352.8	5.1576e-06	5.4213e-06	1356.5	366.61	5.4594e-06	4.2862e-06	419.18	139.72	122.54	41.869	4.653e-06	51.276	0.00059032	0.00053621	0.00015038	1375.4	5.9339e-06	6.0456e-06	1377.9	373.78	5.9862e-06	5.9553e-06	426.99	143.13	124.68	43.042	5.8529e-06	53.089	165.217	225.546	222.299	154.222	258.997	300.661	153.771	158.470	277.924	302.485	157.960	162.117	162.069	167.583	265.313	166.846	-8191	255	
29056.850	1	1	0	0	0.13599	0.098128	0.2401	0.18302	0.21164	0.11376	0.12047	0.12413	0.18714	0.063575	0.059716	0.1653	0.20317	0.23158	0.020854	0.22754	-2.4271	-2.7333	-2.2	-3.0771	-2.4958	-2.4688	-3.25	-2.4646	-2.825	-2.9104	-2.4604	-3.1979	-2.4896	-2.4583	-3.1021	-2.5938	285.489	233.154	289.366	500.229	177.435	308.890	174.759	427.048	339.372	289.858	442.037	443.865	490.971	461.517	195.700	366.527	0.00068409	0.00053385	0.00017784	1362.8	4.7727e-06	5.892e-06	1352.6	367.91	4.9963e-06	5.3467e-06	419	140.46	121.68	41.772	7.3988e-06	51.46	0.00059943	0.00053738	0.00014906	1380.3	5.6935e-06	6.051e-06	1376.1	373.88	6.0219e-06	5.6565e-06	426.69	143.36	124.53	42.938	5.8971e-06	53.121	166.841	222.952	243.320	154.206	269.781	278.802	153.797	158.583	275.823	304.211	158.034	161.944	162.134	167.764	259.318	166.845	-8191	255	
29056.945	1	1	0	0	0.055687	0.14139	0.14365	0.18533	0.24377	0.21237	0.17734	0.22391	0.12079	0.16484	0.32728	0.081828	0.22684	0.13404	0.13857	0.25301	-2.4375	-2.9979	-2.1979	-3.0583	-2.525	-2.4896	-3.2667	-2.6542	-2.8479	-3.1771	-2.3479	-2.9729	-2.6417	-2.3708	-2.9667	-2.5292	175.827	343.522	460.772	442.204	492.506	155.122	392.145	148.392	207.329	350.527	433.210	271.364	440.379	160.554	165.708	476.806	0.00069725	0.0005906	0.00012683	1355.4	4.3543e-06	3.8153e-06	1355.8	366.2	6.7488e-06	3.3724e-06	417.04	140.19	121.75	41.402	5.2533e-06	51.434	0.0005891	0.00054635	0.00014721	1376.9	5.8121e-06	5.952e-06	1376.4	373.72	6.0481e-06	5.862e-06	426.16	143.11	124.54	42.811	6.0222e-06	53.11	169.422	230.080	222.503	154.082	281.864	264.376	153.821	158.639	270.069	288.042	158.268	162.064	162.542	167.523	267.669	166.651	-8191	255	
29057.066	1	1	0	0	0.2852	0.13627	0.039359	0.077971	0.18884	0.12706	0.42125	0.22564	0.232	0.20828	0.14642	0.19774	0.20929	0.20018	0.098762	0.1383	-2.1312	-2.8771	-2.0812	-3.1	-2.6354	-2.2458	-3.3646	-2.6458	-2.6021	-2.9688	-2.3458	-2.8688	-2.9354	-2.4437	-2.8312	-2.6354	332.587	220.633	311.939	380.382	438.150	440.635	466.101	463.609	498.235	387.872	467.315	379.872	418.870	428.064	274.654	415.159	0.00067465	0.00061556	0.0001179	1360.3	3.8753e-06	5.3624e-06	1358	365.89	3.1006e-06	6.3764e-06	418.71	139.87	120.87	41.757	5.7372e-06	51.526	0.00057524	0.00053088	0.00015104	1378	5.9122e-06	6.0843e-06	1377.9	373.49	5.9141e-06	5.6691e-06	426.59	143.29	124.2	42.932	5.8634e-06	53.218	166.755	217.647	237.869	154.215	262.065	297.784	153.825	158.590	253.973	282.559	158.022	162.135	162.371	167.708	276.831	167.044	-8191	255	
29057.162	1	1	0	0	0.1053	0.10158	0.12563	0.032107	0.17523	0.21814	0.25451	0.2709	0.12367	0.080467	0.46648	0.30349	0.025391	0.24028	0.1715	0.27055	-1.9854	-3.0167	-2.3083	-2.6813	-3.0292	-2.4292	-3.0833	-2.725	-2.3708	-2.9979	-2.4542	-2.7333	-2.9021	-2.4021	-2.9208	-2.5771	160.484	316.689	211.189	289.124	377.513	262.007	383.527	433.718	310.001	295.698	441.943	163.133	236.667	254.741	243.815	440.927	0.0007148	0.00052507	0.00012576	1366.8	6.1244e-06	4.4851e-06	1354.6	367.68	5.8237e-06	3.2999e-06	417.63	140.14	122.2	41.79	5.1011e-06	51.353	0.00058186	0.00054129	0.00015731	1380.8	5.8775e-06	5.9415e-06	1377.1	374.16	6.0856e-06	5.6259e-06	426.55	143.23	124.63	42.948	5.8999e-06	53.077	170.725	227.671	226.205	154.147	264.764	296.663	153.870	158.492	289.179	312.276	158.165	162.001	162.399	167.739	281.829	166.940	-8191	255	
29057.258	1	1	0	0	0.18281	0.16369	0.066336	0.091831	0.19668	0.011769	0.060612	0.27062	0.26259	0.061283	0.30559	0.10972	0.13209	0.023488	0.028248	0.13679	-1.8479	-3.1083	-2.2313	-2.7979	-3.0958	-2.1208	-3.2708	-2.8708	-2.1625	-3.075	-2.5021	-2.7021	-3.1417	-2.2667	-2.7375	-2.8187	380.578	237.779	251.990	446.222	442.027	269.600	343.855	490.155	258.497	464.721	421.693	156.784	418.905	494.997	183.923	345.394	0.00073908	0.00045175	0.00016909	1355.6	3.4958e-06	3.6865e-06	1358.8	365.82	5.3205e-06	6.1527e-06	416.32	140.87	122.62	41.711	5.3477e-06	51.657	0.00060022	0.00053133	0.00014597	1377	5.8268e-06	5.953e-06	1377.7	373.3	5.9341e-06	5.9556e-06	426.17	143.47	124.7	42.928	5.9002e-06	53.241	171.039	235.773	232.917	154.015	254.853	295.321	153.681	158.493	259.336	285.054	158.170	162.386	162.541	167.577	259.389	166.612	-8191	255	
29057.354	1	1	0	0	0.13156	0.079875	0.22998	0.166	0.16113	0.067221	0.20079	0.12315	0.063243	0.19796	0.32974	0.31804	0.20205	0.19661	0.045654	0.34537	-1.8438	-2.9271	-2.525	-2.4979	-3.0229	-2.1104	-3.0354	-2.8729	-2.3125	-3.0271	-2.6021	-2.5708	-3.0812	-2.45	-2.6375	-3.0438	309.869	305.357	318.600	435.110	392.639	473.084	440.673	446.870	430.868	336.092	434.230	447.824	496.035	471.029	206.881	470.183	0.0007033	0.00061298	0.00015838	1361.9	4.9152e-06	7.482e-06	1354.1	365.83	4.3351e-06	6.1268e-06	418.61	140.5	122	41.772	4.6345e-06	51.479	0.00060508	0.00053922	0.00014533	1379	5.8915e-06	5.9863e-06	1375.9	373.54	5.9803e-06	5.8158e-06	427.05	143.3	124.46	42.879	6.0365e-06	53.141	168.516	230.976	247.549	154.174	272.903	280.657	153.886	158.334	267.088	292.921	158.332	162.195	162.092	167.476	279.227	166.843	-8191	255	
29057.449	1	1	0	0	0.0043974	0.21463	0.19434	0.25271	0.10628	0.12581	0.2367	0.13817	0.24971	0.1029	0.14326	0.2425	0.093844	0.29612	0.20145	0.1425	-1.6729	-3.15	-2.5062	-2.5187	-2.8896	-2.3875	-2.9042	-3.0292	-2.3792	-2.9	-2.6542	-2.4896	-3.0042	-2.4021	-2.6417	-3.3083	308.316	479.537	342.873	337.820	311.715	206.424	436.320	474.704	156.953	388.365	419.147	371.897	183.325	418.029	143.276	482.018	0.00067935	0.00056923	0.00021814	1354.5	5.2772e-06	4.7725e-06	1353.6	365.96	4.9263e-06	2.9951e-06	420.25	140.18	122.15	41.747	5.6989e-06	51.408	0.00058357	0.0005316	0.00015088	1377.7	5.7107e-06	5.8809e-06	1376.7	373.72	5.9772e-06	5.7906e-06	427.09	143.12	124.49	42.937	5.7802e-06	53.105	168.232	233.852	231.063	154.090	286.478	273.713	153.845	158.600	261.969	294.985	158.218	162.388	162.529	167.575	281.599	166.749	-8191	255	
29057.545	1	1	0	0	0.023324	0.19305	0.1889	0.22732	0.22884	0.036909	0.28897	0.13036	0.26668	0.28124	0.33769	0.19916	0.24328	0.050274	0.085639	0.15799	-1.7896	-2.8896	-2.5708	-2.4958	-3.0438	-2.2646	-2.7083	-3.1021	-2.3438	-3.0187	-3.0938	-2.4646	-3.2583	-2.4229	-2.4188	-3.1396	169.950	326.580	395.888	198.251	160.868	342.510	431.750	491.025	476.472	379.776	445.681	439.235	485.661	180.201	245.516	178.092	0.00070196	0.00058466	7.9391e-05	1355.5	5.5747e-06	4.3532e-06	1352.7	366.85	4.4515e-06	5.886e-06	419.43	139.99	122.52	41.753	6.5012e-06	51.374	0.0005811	0.00053633	0.00014665	1375	5.4958e-06	6.0328e-06	1376.2	373.48	5.8944e-06	5.5173e-06	425.84	143.11	124.5	42.837	5.7618e-06	53.112	169.267	238.640	210.070	154.027	279.864	300.435	154.094	158.518	280.834	280.597	158.039	162.076	162.317	167.514	276.349	166.656	-8191	255	
29057.666	1	1	0	0	0.17836	0.35079	0.10327	0.31372	0.24674	0.28571	0.25222	0.23397	0.17687	0.31987	0.25288	0.29172	0.054747	0.28668	0.11362	0.36936	-1.9271	-2.7792	-2.8542	-2.3396	-3.1271	-2.6583	-2.5021	-3.0396	-2.2667	-2.7062	-2.9292	-2.1354	-2.8167	-2.6833	-2.3417	-3.2104	187.895	244.264	294.815	164.584	279.334	335.287	430.241	432.814	469.355	272.495	428.158	189.708	186.551	466.618	418.308	465.130	0.00073532	0.00049494	0.00011225	1356.7	5.6283e-06	5.6646e-06	1352.4	365.36	5.7282e-06	6.8014e-06	417.88	140.33	122.84	41.729	6.6107e-06	51.481	0.00058375	0.00051794	0.00014294	1374.7	5.9773e-06	5.6957e-06	1374.2	373.57	5.9449e-06	5.7235e-06	426.06	143.13	124.66	42.926	5.9044e-06	53.094	166.824	236.095	217.198	154.199	282.813	278.685	153.827	158.520	268.841	298.114	158.505	161.965	162.804	167.524	276.127	166.822	-8191	255	
29057.762	1	1	0	0	0.10398	0.094923	0.31146	0.046523	0.087743	0.15258	0.39508	0.26962	0.073842	0.25288	0.31531	0.32578	0.13733	0.13391	0.059556	0.059576	-1.8917	-2.3792	-2.9	-2.2021	-2.6771	-2.6688	-2.6562	-3.1625	-2.2354	-2.5625	-3.0354	-2.3812	-3.0229	-2.7667	-2.1167	-2.9875	246.325	221.476	428.994	176.255	256.468	386.569	432.437	385.433	268.461	144.597	439.479	474.768	472.775	228.019	232.283	269.756	0.00071426	0.00054532	0.00017692	1359	6.108e-06	5.4152e-06	1353.2	366.66	5.9098e-06	4.2041e-06	418.75	139.84	120.87	41.835	6.0978e-06	51.426	0.00058961	0.00053578	0.00015045	1377.3	5.9871e-06	5.8449e-06	1374.2	373.71	5.7419e-06	5.7939e-06	426.48	143.14	124.21	42.94	5.7666e-06	53.116	169.991	231.008	234.361	154.181	292.143	271.770	153.770	158.595	272.797	292.279	158.191	162.398	162.603	167.494	288.033	166.814	-8191	255	
29057.857	1	1	0	0	0.32706	0.10975	0.16082	0.26541	0.21151	0.12576	0.13965	0.2714	0.13538	0.11839	0.15385	0.20967	0.16781	0.1653	0.16592	0.23887	-1.9333	-2.5333	-3.0104	-2.2896	-2.8312	-2.7729	-2.3125	-3.2	-2.4833	-2.4813	-3.0833	-2.5167	-2.8458	-2.9854	-2.1708	-3.0542	355.050	306.247	493.788	412.407	151.675	445.537	496.393	427.869	274.526	488.444	487.237	157.831	320.242	456.324	152.823	493.665	0.00072713	0.0003643	0.00014174	1356.2	6.9738e-06	6.1994e-06	1351.8	365.65	3.0857e-06	6.313e-06	418.63	139.92	122.19	41.717	7.4827e-06	51.398	0.00058263	0.00052299	0.00014374	1377.8	5.5921e-06	5.7418e-06	1373.1	373.09	5.9523e-06	5.8245e-06	426.2	142.96	124.55	42.859	6.0568e-06	53.099	170.075	255.672	255.620	153.922	269.010	287.924	153.755	158.634	272.622	296.545	158.128	162.201	162.506	167.495	285.728	166.727	-8191	255	
29057.953	1	1	0	0	0.09476	0.34415	0.18853	0.13485	0.12099	0.17198	0.35097	0.20491	0.19602	0.089884	0.22139	0.31194	0.20276	0.25099	0.41914	0.16332	-2.0792	-2.4333	-2.9708	-2.3792	-2.8333	-2.8479	-2.5521	-3.0646	-2.5417	-2.3396	-3.1813	-2.4521	-2.7438	-3.0917	-2.2833	-3.0083	158.071	314.545	273.430	148.592	151.202	345.657	452.239	487.864	218.740	308.148	387.995	178.556	168.906	477.598	339.864	447.177	0.00070477	0.00061274	0.00016151	1347	4.9508e-06	5.2955e-06	1355.2	366.61	5.6347e-06	6.4362e-06	417.91	140.18	122.03	41.777	7.5129e-06	51.502	0.00058628	0.00052624	0.00014735	1372.8	5.8571e-06	5.6374e-06	1374.7	373.59	5.8805e-06	5.7365e-06	426.02	143.14	124.66	42.921	5.8752e-06	53.116	167.856	245.527	242.539	154.352	281.660	300.421	154.022	158.436	266.042	299.220	158.364	162.096	162.491	167.683	293.893	167.146	-8191	255	
29058.051	1	1	0	0	0.13997	0.050122	0.3211	0.18338	0.22882	0.10952	0.24169	0.12607	0.27911	0.1732	0.040913	0.25864	0.15296	0.082145	0.16366	0.13869	-2.1	-2.0521	-2.8896	-2.4229	-2.6562	-2.8583	-2.5833	-3.125	-2.6333	-2.2458	-3.0854	-2.5542	-2.5229	-2.9813	-2.0542	-2.8521	389.107	454.259	189.568	428.939	380.595	309.868	150.587	413.837	378.921	283.553	402.514	420.926	444.591	375.318	353.712	303.084	0.00064727	0.00059865	0.0001442	1351.6	6.7594e-06	8.2189e-06	1354	364.97	6.2647e-06	5.7386e-06	417.29	139.69	122.66	41.67	5.217e-06	51.407	0.00056726	0.00052937	0.00014456	1376.2	5.7046e-06	5.6634e-06	1374	373.08	5.7946e-06	5.769e-06	426.22	142.86	124.48	42.906	5.8828e-06	53.149	167.291	242.184	232.284	154.127	284.424	283.979	154.017	158.763	268.996	318.205	158.263	161.844	162.395	167.620	293.692	166.866	-8191	255	
29058.146	1	1	0	0	0.16612	0.082645	0.0073957	0.027538	0.17044	0.079925	0.097057	0.34133	0.057645	0.2688	0.22729	0.22831	0.32034	0.12542	0.32651	0.12052	-2.2896	-2.25	-2.9625	-2.6396	-2.2438	-2.8771	-2.4146	-3.0771	-2.7146	-2.4313	-2.9708	-2.7583	-2.4458	-3.2771	-2.3375	-2.6167	167.391	299.901	277.317	439.484	431.308	298.525	376.660	482.425	191.285	458.334	467.964	495.065	219.944	428.539	492.594	482.512	0.00069207	0.00040758	0.00014838	1350.7	5.0785e-06	4.1775e-06	1349.3	366.46	5.9895e-06	5.6869e-06	418.6	139.88	121.89	41.798	3.7088e-06	51.46	0.00056908	0.00053169	0.000145	1373.4	5.704e-06	5.6748e-06	1371.1	373.13	5.8876e-06	5.7468e-06	426.32	142.96	124.36	42.894	5.7993e-06	53.115	169.300	212.029	227.966	154.006	266.370	285.470	153.911	158.657	268.838	266.109	158.323	161.943	162.594	167.705	292.926	166.956	-8191	255	
29058.242	1	1	0	0	0.32304	0.09691	0.11121	0.2235	0.166	0.11317	0.36105	0.17363	0.031303	0.022298	0.066089	0.1315	0.12439	0.2286	0.30891	0.43791	-2.4292	-2.1813	-3.0104	-2.7458	-2.2354	-3.0625	-2.4813	-2.7229	-2.9521	-2.2521	-3.0792	-3.1125	-2.3333	-3.0729	-2.3292	-2.7521	154.672	177.254	350.496	495.426	375.751	146.852	459.893	428.571	445.700	168.674	182.661	238.222	197.500	489.128	325.158	167.650	0.00070728	0.00046679	0.00011222	1352.2	5.4996e-06	5.9779e-06	1350.4	366.56	5.732e-06	6.3398e-06	418.01	139.51	121.21	41.47	4.6718e-06	51.501	0.00057098	0.00053344	0.00014401	1371.5	5.888e-06	5.6304e-06	1371.8	373.18	5.826e-06	5.699e-06	426.34	142.71	124.24	42.813	5.6192e-06	53.004	169.280	226.133	235.595	154.288	279.191	325.543	153.742	158.736	293.912	267.822	158.519	162.298	162.591	168.164	288.755	167.034	-8191	255	
29058.340	1	1	0	0	0.26278	0.28906	0.13395	0.1888	0.28156	0.045858	0.19023	0.19748	0.25258	0.13676	0.080995	0.10692	0.37411	0.053941	0.0028073	0.29671	-2.6667	-2.2792	-2.8125	-2.9229	-2.3021	-3.0438	-2.4625	-2.4771	-3.0333	-2.1792	-2.8583	-3.1063	-2.1125	-3.0771	-2.5208	-2.4813	197.206	229.663	481.292	265.134	198.740	428.978	407.669	416.462	194.032	177.589	170.724	261.046	448.478	343.721	177.312	397.086	0.00071681	0.00040407	0.00017763	1350.7	4.5602e-06	7.2639e-06	1355.5	365.6	5.8791e-06	3.6837e-06	416.9	139.84	121.99	41.843	3.9046e-06	51.441	0.00056424	0.00053046	0.00014095	1372.7	5.7741e-06	5.5728e-06	1372.5	373.05	5.8047e-06	5.7677e-06	425.3	142.89	124.44	42.913	5.7088e-06	53.026	169.308	253.661	245.803	154.270	288.703	302.637	154.175	158.635	268.226	280.480	158.209	162.075	162.908	167.706	290.807	166.956	-8191	255	
29058.436	1	1	0	0	0.17838	0.097805	0.030992	0.33544	0.06417	0.03261	0.051613	0.26852	0.079684	0.099891	0.030125	0.33318	0.22356	0.22606	0.23614	0.22556	-2.5417	-2.4396	-2.675	-2.775	-2.2333	-3.0625	-2.75	-2.4583	-2.8729	-2.6583	-2.7583	-3.1021	-2.3521	-2.9229	-2.6229	-2.4792	264.553	278.335	469.438	358.509	313.028	385.213	331.084	498.267	465.867	287.952	315.039	211.806	289.080	143.601	443.975	452.548	0.00071502	0.0005463	0.00013963	1354.1	3.6743e-06	4.5255e-06	1345.9	367.88	4.0677e-06	4.8668e-06	416.58	140.25	121.01	41.582	4.246e-06	51.688	0.00056977	0.00052468	0.00014105	1374.1	5.7327e-06	5.6038e-06	1370.1	373.72	5.6015e-06	5.5784e-06	425.44	142.72	124.04	42.845	5.69e-06	53.183	168.397	235.654	222.125	154.233	282.806	283.790	153.844	158.549	274.850	310.096	158.206	162.050	162.444	167.647	269.657	166.907	-8191	255	
29058.555	1	1	0	0	0.042157	0.22373	0.017666	0.20907	0.26255	0.32176	0.25867	0.1574	0.0014994	0.079909	0.29208	0.088421	0.14517	0.20998	0.054848	0.20111	-2.6396	-2.3854	-2.5917	-3.1833	-2.0583	-2.8063	-2.8	-2.4437	-3.1417	-2.45	-2.6417	-2.9042	-2.125	-2.9958	-2.6271	-2.3333	279.818	294.790	391.368	171.031	331.253	200.786	435.280	443.896	180.000	496.936	499.052	192.709	160.638	416.285	497.284	347.551	0.00066173	0.00053108	0.00016049	1357.9	4.3654e-06	3.9923e-06	1351.5	365.2	6.238e-06	6.9348e-06	419.14	140.3	121.44	41.922	4.2525e-06	51.621	0.00056541	0.00051676	0.00014782	1375.1	5.8207e-06	5.7136e-06	1371.5	373.01	5.6498e-06	5.7361e-06	426.27	143.1	124.38	42.905	5.7631e-06	53.053	169.237	216.191	226.755	154.289	267.946	264.984	153.738	158.776	279.976	289.501	158.409	162.000	162.254	167.914	289.556	166.600	-8191	255	
29058.627	1	1	0	0	0.056422	0.22234	0.1881	0.31138	0.29823	0.15327	0.29392	0.25269	0.042292	0.014414	0.33252	0.11388	0.21268	0.26692	0.12448	0.19821	-2.6354	-2.3646	-2.3729	-3.0708	-2.3458	-2.9333	-3.0187	-2.3667	-2.8333	-2.4188	-2.4708	-3.0958	-2.3438	-2.7271	-2.8187	-2.2812	171.839	218.381	142.569	464.402	374.185	471.167	444.415	432.266	417.137	199.228	143.896	329.488	450.231	417.283	422.327	461.480	0.00071663	0.00054652	0.00014733	1353.7	3.8262e-06	5.912e-06	1358	366.8	5.8827e-06	5.9201e-06	418.66	140.78	121.83	41.829	5.5032e-06	51.475	0.0005933	0.00053554	0.00014984	1374.7	5.8178e-06	5.6843e-06	1375.7	373.59	5.7709e-06	5.7919e-06	426.81	143.38	124.33	42.877	5.798e-06	53.052	169.721	245.609	218.237	154.146	295.076	297.795	153.639	158.599	271.463	290.082	158.313	162.123	162.295	167.828	279.427	167.083	-8191	255	
29058.746	1	1	0	0	0.11495	0.25089	0.16298	0.31773	0.019894	0.06312	0.21391	0.27942	0.11762	0.10512	0.27546	0.25304	0.45683	0.25419	0.19803	0.16048	-2.5792	-2.4833	-2.2646	-3.0729	-2.3312	-2.7167	-3.1396	-2.2625	-2.7229	-2.5646	-2.4542	-2.9208	-2.2208	-2.7917	-2.7625	-2.4146	472.095	309.270	415.047	398.185	481.357	464.945	436.386	385.913	370.327	481.638	499.332	498.056	477.608	457.564	262.431	434.093	0.00067957	0.00055156	0.00013152	1356	2.8361e-06	4.366e-06	1354.8	364.94	3.8764e-06	6.3206e-06	419.52	140.59	121.64	41.796	5.2237e-06	51.421	0.00057022	0.00051752	0.00014853	1374.3	5.7305e-06	5.8988e-06	1374	372.68	5.7049e-06	5.7431e-06	427.4	143.21	124.1	42.939	5.6348e-06	53.091	168.813	217.441	234.223	154.291	278.954	295.737	153.658	158.406	282.941	300.624	158.168	162.156	162.185	167.885	272.861	167.143	-8191	255	
29058.842	1	1	0	0	0.05543	0.25657	0.018411	0.20113	0.0046428	0.1189	0.32121	0.25975	0.072226	0.15768	0.20867	0.076492	0.12761	0.05896	0.22194	0.0668	-2.35	-2.5417	-2.0833	-3.0875	-2.525	-2.4458	-3.3875	-2.2479	-2.9146	-2.6396	-2.3875	-3.1542	-2.4792	-2.5521	-2.8167	-2.1458	484.363	220.669	438.657	482.934	373.049	251.326	486.703	478.887	175.907	284.840	398.621	470.326	393.684	323.632	196.355	154.921	0.00073033	0.00050729	0.00014234	1354.3	4.8139e-06	6.5036e-06	1349.9	366.98	3.1388e-06	5.2048e-06	416.72	140.23	121.4	41.918	4.6599e-06	51.481	0.00057445	0.00051457	0.00014965	1374.6	5.7455e-06	5.9348e-06	1372.6	373.81	5.8158e-06	5.6648e-06	426.16	143.32	124.17	43.003	5.7494e-06	53.027	170.357	233.352	188.162	154.466	284.682	284.172	153.889	158.764	256.318	287.129	158.268	162.380	162.377	168.025	275.578	166.786	-8191	255	
29058.938	1	1	0	0	0.047385	0.1997	0.15792	0.077987	0.19553	0.055293	0.22823	0.29708	0.12914	0.21743	0.067981	0.18557	0.25479	0.16156	0.43019	0.27927	-2.2667	-2.6125	-2.2292	-3.1333	-2.4958	-2.275	-3.1417	-2.5479	-2.7333	-2.7979	-2.325	-3.2625	-2.5417	-2.3563	-2.8375	-2.2479	439.135	156.126	202.761	398.856	201.459	458.181	447.717	455.719	160.859	154.651	217.219	445.879	443.808	186.225	216.206	432.530	0.00070972	0.00043733	0.0001861	1354.1	6.337e-06	5.7533e-06	1351.9	366.41	5.4477e-06	5.4693e-06	420.03	140.11	121.64	41.881	3.4804e-06	51.475	0.00058253	0.00052095	0.00014993	1374.6	5.7754e-06	6.0278e-06	1374	373.44	5.8032e-06	5.7869e-06	426.46	143.14	124.25	42.948	5.7494e-06	53.071	168.557	250.398	236.894	154.327	252.782	302.333	153.646	158.358	281.598	291.219	158.123	162.306	162.638	167.825	286.353	167.015	-8191	255	
29059.033	1	1	0	0	0.062002	0.1689	0.16342	0.12093	0.16306	0.040065	0.37425	0.33128	0.14022	0.22302	0.12009	0.26968	0.06046	0.10869	0.29974	0.44518	-2.0438	-2.9979	-2.1958	-3.0958	-2.5438	-2.3667	-3.1542	-2.3479	-2.5812	-3.1333	-2.4792	-2.8417	-2.8021	-2.2562	-2.8937	-2.5583	281.580	456.184	404.188	181.593	388.671	367.721	435.083	478.519	372.586	486.524	497.623	485.103	259.314	307.868	314.523	452.642	0.00071465	0.00056767	0.00012529	1355.5	5.3051e-06	5.4529e-06	1350	365.92	5.8597e-06	5.8655e-06	419.55	140.1	121.62	41.679	2.4849e-06	51.357	0.00057728	0.00052492	0.00014274	1374.2	5.5561e-06	5.657e-06	1372.2	373.66	5.859e-06	5.7295e-06	427.09	142.92	124.25	42.953	5.6729e-06	53.055	168.860	242.471	248.934	154.299	286.722	302.294	153.901	158.521	256.924	306.133	157.937	161.904	162.582	167.878	296.346	166.964	-8191	255	
29059.154	1	1	0	0	0.28092	0.26225	0.16184	0.24835	0.11872	0.23473	0.043612	0.30118	0.13418	0.16647	0.24445	0.39562	0.19102	0.15638	0.063886	0.24056	-2.2938	-2.7958	-2.0021	-2.8229	-2.6354	-2.3479	-3.2729	-2.6104	-2.5062	-2.9333	-2.3812	-2.7979	-2.7521	-2.2792	-2.9792	-2.4292	447.870	488.338	464.527	141.839	148.307	363.343	140.784	443.026	297.298	254.785	477.631	457.520	390.193	489.947	452.544	160.227	0.00070489	0.00053203	0.00021207	1354.9	5.0978e-06	3.5406e-06	1348.3	365.73	4.8328e-06	2.8859e-06	418.13	140.53	122.77	41.796	4.3989e-06	51.414	0.00057816	0.00052992	0.00014781	1373.4	5.7199e-06	5.9079e-06	1370.9	372.96	6.0016e-06	5.7239e-06	426.08	143.43	124.75	42.899	5.7008e-06	53.134	170.358	210.174	229.810	154.254	294.111	251.605	154.048	158.526	272.025	314.235	158.041	162.243	162.428	167.690	268.533	166.721	-8191	255	
29059.252	1	1	0	0	0.10578	0.083823	0.1359	0.24839	0.26419	0.12365	0.22095	0.26123	0.20427	0.029518	0.16488	0.086641	0.023347	0.26223	0.20691	0.26559	-1.9354	-3.0438	-2.2979	-2.8292	-3.0104	-2.3729	-3.1583	-2.5125	-2.4625	-3.0708	-2.4271	-2.7167	-3.0917	-2.1896	-2.825	-2.7562	278.764	145.327	355.864	420.299	180.535	378.230	435.537	465.507	274.582	158.430	417.193	441.641	487.444	478.082	236.892	499.279	0.00067502	0.00058455	0.00014203	1355.4	4.017e-06	6.7298e-06	1348.4	365.79	4.649e-06	6.1829e-06	419.46	139.72	122.05	41.692	4.4613e-06	51.262	0.0005892	0.00053208	0.00014363	1373	5.7235e-06	6.0288e-06	1372	373.1	5.7752e-06	5.5376e-06	426.81	142.92	124.28	42.911	5.6723e-06	53.015	169.526	252.880	229.758	154.265	254.320	303.611	153.853	158.437	274.319	287.184	158.209	162.224	162.462	167.647	288.973	166.890	-8191	255	
29059.322	1	1	0	0	0.18909	0.18853	0.11775	0.25272	0.067821	0.20437	0.09079	0.29121	0.096892	0.18052	0.19956	0.257	0.055852	0.23942	0.099772	0.12673	-1.8	-3.125	-2.3667	-2.5854	-2.8812	-2.2417	-3.2354	-2.8937	-2.2125	-3.0312	-2.5979	-2.6063	-3.1354	-2.3563	-2.6833	-2.8833	469.200	237.636	484.138	475.606	457.843	228.389	464.160	423.439	477.394	386.617	186.388	408.983	269.614	369.528	408.406	475.148	0.00068197	0.00041277	0.00012818	1356	6.4508e-06	4.0395e-06	1348.4	366.54	4.5108e-06	5.0775e-06	415.71	139.92	121.3	41.728	5.6829e-06	51.59	0.00058694	0.00052074	0.00014272	1375.2	5.6208e-06	5.7449e-06	1371.6	373.36	5.9766e-06	5.4695e-06	425.6	143.02	124.12	42.885	5.5583e-06	53.102	171.448	224.408	232.789	154.040	280.873	304.789	153.834	158.536	269.077	308.390	158.180	161.895	162.813	167.669	283.595	166.540	-8191	255	
29059.441	1	1	0	0	0.20453	0.28742	0.054069	0.096075	0.24736	0.25291	0.29546	0.32543	0.11311	0.11004	0.040232	0.062515	0.1511	0.21325	0.1162	0.28553	-1.7458	-3.0938	-2.2854	-2.4167	-2.9771	-2.2062	-2.8896	-2.8958	-2.1208	-3.2292	-2.6958	-2.3625	-3.0792	-2.5979	-2.6063	-2.8167	357.868	398.889	377.874	382.324	389.684	437.916	396.944	448.558	478.130	196.319	396.519	331.608	355.691	400.068	247.863	413.226	0.00071957	0.00054844	0.00018953	1355.6	4.8932e-06	6.2481e-06	1348.5	364.63	4.0381e-06	7.9429e-06	415.61	140.38	122.44	41.702	4.931e-06	51.47	0.00058353	0.00051095	0.00014703	1377.5	5.6428e-06	5.8934e-06	1372.5	372.77	5.936e-06	5.5266e-06	425.73	143.25	124.44	42.867	5.6745e-06	53.018	168.554	224.906	232.066	154.241	283.279	284.462	153.881	158.729	271.110	276.316	157.971	162.300	162.782	167.625	268.275	166.782	-8191	255	
29059.537	1	1	0	0	0.20978	0.29152	0.1038	0.25149	0.12677	0.28021	0.24796	0.17679	0.22636	0.067757	0.25551	0.086831	0.073251	0.12416	0.14568	0.058149	-1.7792	-2.8812	-2.6542	-2.3896	-3.0854	-2.1146	-2.9	-3.1562	-2.0729	-2.8125	-2.6937	-2.35	-3.0208	-2.4125	-2.325	-3.1688	221.594	218.867	195.463	323.551	334.376	250.668	394.028	479.798	301.305	353.698	267.646	495.717	430.044	180.161	427.995	368.734	0.00073671	0.00039256	0.00021196	1355.4	4.0524e-06	3.9217e-06	1346.7	364.98	5.2192e-06	4.7505e-06	419.25	139.44	121.69	41.64	6.3189e-06	51.347	0.00060108	0.0005226	0.00015112	1374.2	5.6374e-06	5.7856e-06	1370.7	372.81	6.024e-06	5.869e-06	426.3	142.98	124.29	42.818	5.7818e-06	53	169.701	250.027	242.577	154.225	291.643	275.638	153.867	158.633	281.852	284.906	158.267	162.107	162.498	167.562	279.212	166.927	-8191	255	
29059.635	1	1	0	0	0.17667	0.32557	0.063617	0.22744	0.21156	0.41354	0.19437	0.296	0.095823	0.12669	0.31351	0.38862	0.09761	0.23893	0.09158	0.24778	-1.7917	-2.8563	-2.7292	-2.125	-3.0563	-2.3312	-2.5812	-3.3688	-2.2562	-2.7438	-2.775	-2.3333	-3.0771	-2.5563	-2.3854	-3.1354	214.403	418.297	226.312	474.956	235.137	254.304	425.375	415.745	322.889	216.211	443.829	155.811	196.948	476.230	272.925	401.503	0.00068192	0.00055778	0.00017772	1354.4	4.3088e-06	6.161e-06	1354.4	367.82	5.1095e-06	4.9509e-06	416.4	140.53	122.3	41.723	5.4938e-06	51.238	0.00058222	0.00052269	0.00014283	1376.7	5.7381e-06	5.7226e-06	1373.7	373.66	6.0317e-06	5.7315e-06	425.88	143.08	124.34	42.913	5.8005e-06	53.049	168.143	226.657	224.633	154.163	274.752	296.872	153.866	158.610	262.493	281.166	158.376	162.236	162.757	167.659	289.594	166.993	-8191	255	
29059.730	1	1	0	0	0.13421	0.13828	0.082792	0.16587	0.089929	0.063618	0.27199	0.1404	0.18776	0.13086	0.24995	0.28899	0.068041	0.19273	0.1771	0.34236	-1.7896	-2.6833	-2.8396	-2.3021	-3.0563	-2.4688	-2.5042	-3.1792	-2.1417	-2.6729	-3.0604	-2.2354	-2.9562	-2.6292	-2.2812	-3.2375	248.720	327.793	493.380	189.712	453.048	433.056	451.617	467.125	458.648	253.879	194.847	483.862	231.264	141.340	152.151	465.046	0.00067134	0.00039376	0.00014511	1353.3	4.2483e-06	7.1193e-06	1349.8	365.04	5.1653e-06	5.7515e-06	416.98	140.14	122.62	41.812	4.0655e-06	51.357	0.00057661	0.00052299	0.00014683	1374.6	5.6661e-06	6.0086e-06	1372.8	373.23	5.9335e-06	5.5794e-06	425.67	142.95	124.68	42.883	5.9583e-06	53.073	170.247	232.366	232.169	154.266	274.439	306.238	153.909	158.618	262.637	311.686	158.208	162.161	162.864	167.601	287.842	166.943	-8191	255	
29059.852	1	1	0	0	0.21041	0.039207	0.14992	0.039639	0.22773	0.18364	0.27554	0.14641	0.12402	0.057117	0.13564	0.1756	0.1336	0.028606	0.08581	0.1006	-1.8521	-2.5042	-2.7646	-2.3979	-2.75	-2.7021	-2.5542	-3.3083	-2.3979	-2.6417	-3.1021	-2.3479	-3.0292	-2.7833	-2.1813	-3.0438	164.203	348.606	153.758	227.465	335.497	312.412	429.500	430.154	216.653	242.338	476.556	320.474	428.849	365.260	189.791	482.196	0.000666	0.00046484	8.0207e-05	1357	4.8726e-06	4.0356e-06	1352.9	366.11	4.9486e-06	5.4801e-06	419.39	139.61	121.7	41.828	5.5969e-06	51.132	0.00057567	0.00052305	0.00014146	1372.9	5.8204e-06	5.8405e-06	1373.8	373.49	5.8377e-06	5.8205e-06	426.93	143.03	124.17	42.851	5.9498e-06	52.955	168.068	233.412	259.738	154.290	264.057	282.739	154.031	158.621	270.227	288.887	158.189	162.062	162.870	167.741	284.382	167.195	-8191	255	
29059.922	1	1	0	0	0.01642	0.18799	0.12213	0.17338	0.16298	0.085445	0.32373	0.17446	0.10566	0.31714	0.11355	0.056997	0.10304	0.06936	0.040449	0.032802	-2.0271	-2.1875	-2.9333	-2.3521	-2.9042	-2.9646	-2.2854	-3.1354	-2.3958	-2.5062	-3.1021	-2.4208	-2.8833	-3.0208	-2.2229	-3.0875	404.331	264.978	425.688	356.286	401.742	334.249	409.778	466.921	482.861	272.239	486.521	342.450	483.196	463.580	255.735	357.857	0.00068239	0.00067197	0.00015853	1352.3	4.715e-06	5.04e-06	1347.1	365.91	4.4957e-06	5.9104e-06	415.64	140.08	122.03	41.695	5.0784e-06	51.468	0.00057118	0.00054295	0.00014739	1373.8	5.8733e-06	5.6715e-06	1370.9	372.85	5.781e-06	5.8829e-06	425.26	143.23	124.63	42.913	5.9148e-06	53.136	167.861	219.337	237.580	154.269	268.507	283.735	154.091	158.499	269.581	300.924	158.251	162.215	162.772	167.345	285.342	166.986	-8191	255	
29060.020	1	1	0	0	0.082563	0.055597	0.089522	0.23216	0.21661	0.12539	0.48975	0.23326	0.092528	0.095963	0.034586	0.25697	0.25881	0.26065	0.124	0.22975	-2.0271	-2.3354	-2.9292	-2.3271	-2.4479	-3.0958	-2.225	-2.9417	-2.5396	-2.1688	-3.1542	-2.6083	-2.6146	-3.0646	-2.2479	-2.9896	198.552	192.303	408.517	163.607	326.171	458.711	438.752	413.117	433.073	203.839	364.473	447.054	209.053	159.598	372.736	400.118	0.00069545	0.00053407	0.00010918	1352.9	5.5858e-06	4.758e-06	1356.9	366.88	5.0879e-06	4.1473e-06	416.31	139.14	122.05	41.627	6.3791e-06	51.607	0.00057457	0.00053587	0.00014448	1375.5	5.822e-06	5.9048e-06	1373.9	374	5.6757e-06	5.9805e-06	425.74	142.63	124.48	42.948	5.8542e-06	53.199	170.130	232.508	238.480	154.336	287.990	296.256	153.994	158.740	275.824	265.210	158.264	162.182	162.569	167.625	295.762	166.735	-8191	255	
29060.115	1	1	0	0	0.23683	0.076855	0.19583	0.12976	0.19827	0.10331	0.059868	0.36621	0.18392	0.24862	0.097176	0.32653	0.19303	0.12889	0.11014	0.21905	-2.2458	-2.3271	-2.8542	-2.5812	-2.4271	-3.0833	-2.2979	-2.9333	-2.8354	-2.2417	-3.2812	-2.5875	-2.4604	-3.075	-2.3438	-2.85	207.007	387.387	187.032	157.631	391.754	242.835	440.628	425.124	217.296	165.815	411.921	477.815	420.052	174.620	334.615	209.052	0.00074776	0.00058551	0.00010621	1355.5	6.0966e-06	3.4164e-06	1350.1	366.68	5.8659e-06	5.9837e-06	419.03	139.95	121.69	41.679	5.2713e-06	51.647	0.00060038	0.00052989	0.0001429	1374.2	5.7955e-06	5.858e-06	1373	373.4	5.7946e-06	5.8653e-06	426.2	142.88	124.33	42.899	5.7119e-06	53.169	171.148	244.680	240.119	154.114	276.286	327.096	154.003	158.900	272.354	307.560	158.429	162.055	162.617	167.782	299.727	167.054	-8191	255	
29060.234	1	1	0	0	0.32257	0.17319	0.090555	0.10286	0.14276	0.060258	0.15301	0.35163	0.18303	0.37704	0.34907	0.12144	0.26725	0.13538	0.22491	0.077955	-2.6042	-2.0417	-3.0479	-2.6562	-2.3688	-3.15	-2.4688	-2.6625	-2.9813	-2.2979	-2.9875	-2.6396	-2.475	-3.1437	-2.2271	-2.7521	142.495	152.745	279.666	417.418	387.207	238.894	458.510	453.301	285.914	376.263	438.408	449.536	146.953	334.351	379.369	230.502	0.00073312	0.00062022	0.00015758	1347.8	4.3321e-06	5.5878e-06	1350.4	365.39	5.2951e-06	5.7982e-06	419.47	139.55	121.81	41.761	5.8242e-06	51.622	0.00057981	0.00053094	0.00014594	1372.4	5.8309e-06	5.7045e-06	1371.9	372.72	5.8836e-06	5.7976e-06	426.47	142.85	124.5	42.935	5.697e-06	53.12	168.403	222.536	223.411	154.048	280.664	289.240	153.792	158.942	277.933	285.106	158.092	162.278	162.693	167.711	253.980	167.147	-8191	255	
29060.332	1	1	0	0	0.38772	0.33977	0.23756	0.17851	0.21478	0.056522	0.36007	0.16059	0.15488	0.10718	0.24714	0.17468	0.14474	0.16943	0.17735	0.25972	-2.5187	-2.075	-2.8812	-2.7375	-2.3438	-3.0187	-2.5396	-2.7438	-2.9104	-2.0229	-2.9271	-2.9125	-2.3667	-3.2125	-2.3083	-2.7188	282.594	475.759	451.979	378.367	406.518	154.844	475.155	384.398	220.744	161.757	450.922	428.026	476.940	200.745	244.567	430.487	0.00071963	0.000681	0.00011857	1353.4	3.3802e-06	6.0471e-06	1350.4	366.02	4.0825e-06	4.667e-06	419.28	140.26	121.31	41.429	5.4455e-06	51.709	0.00057902	0.00054692	0.00014284	1373.7	5.8883e-06	5.7691e-06	1371.4	373.15	5.6455e-06	5.9231e-06	426.37	143.01	124.38	42.831	5.8348e-06	53.192	168.807	212.241	225.981	154.087	275.132	307.546	153.759	158.797	263.711	280.756	158.158	161.983	162.586	167.685	280.675	166.910	-8191	255	
29060.428	1	1	0	0	0.14614	0.18504	0.1065	0.13635	0.10235	0.1493	0.29903	0.32614	0.042544	0.21662	0.094576	0.13062	0.16486	0.31684	0.15153	0.34479	-2.6625	-2.2542	-2.8688	-2.9062	-1.9167	-3.1083	-2.8604	-2.7333	-3.0833	-2.2938	-2.6833	-2.9188	-2.2438	-3.1521	-2.4021	-2.3125	469.641	399.924	290.417	388.115	273.695	155.844	441.946	492.973	445.198	498.725	202.676	409.505	460.747	492.361	392.866	379.601	0.0006777	0.00046562	0.00012757	1354.8	4.7935e-06	6.2435e-06	1350	367.18	5.2863e-06	5.0674e-06	417.74	139.84	122.35	41.663	3.8601e-06	51.359	0.00057265	0.00053238	0.00014733	1372.5	5.9948e-06	5.8971e-06	1374.4	373.66	5.9218e-06	5.9812e-06	425.56	142.78	124.61	42.885	5.9215e-06	53.072	168.733	243.893	221.221	153.999	283.026	278.495	153.688	158.667	269.963	297.159	158.162	162.020	162.543	167.596	284.896	166.720	-8191	255	
29060.523	1	1	0	0	0.41509	0.089081	0.14767	0.11809	0.26084	0.060526	0.31532	0.27917	0.15269	0.11746	0.16533	0.19808	0.16197	0.33954	0.27349	0.15096	-2.7646	-2.1437	-2.5521	-2.9625	-2.2354	-2.8563	-2.625	-2.5083	-3.0021	-2.2417	-2.7646	-2.9604	-2.3583	-3.0458	-2.5604	-2.3625	460.424	476.735	320.540	430.611	195.906	414.673	448.604	262.711	202.428	349.017	420.400	163.594	362.471	159.422	350.367	142.924	0.000671	0.00054017	0.00015646	1357.9	3.277e-06	5.4604e-06	1351.2	366.5	5.0261e-06	6.5462e-06	416.51	139.77	122.47	41.654	5.4847e-06	51.432	0.00057298	0.0005375	0.00014686	1376.8	5.7461e-06	5.6742e-06	1374.2	373.52	5.8423e-06	5.6847e-06	425.76	142.85	124.69	42.86	5.8132e-06	53.137	167.750	246.746	248.070	154.054	295.148	283.025	153.788	158.772	267.019	297.717	158.559	162.071	162.449	167.750	276.203	166.801	-8191	255	
29060.617	1	1	0	0	0.31113	0.064548	0.12758	0.085647	0.13032	0.22849	0.11545	0.24571	0.21946	0.082333	0.29079	0.034829	0.033856	0.34087	0.16748	0.20814	-2.5667	-2.2292	-2.5312	-2.8979	-1.9583	-2.9604	-2.9479	-2.5375	-3.2396	-2.4062	-2.65	-3.1396	-2.3	-2.9354	-2.8417	-2.3937	298.825	457.832	465.751	450.318	477.309	489.941	457.402	464.339	328.602	291.442	419.605	316.728	417.864	172.609	207.757	480.387	0.00072843	0.00052408	0.00014451	1358	4.307e-06	4.2729e-06	1352.9	365.69	5.7379e-06	6.8927e-06	416.45	140.25	122.1	41.733	5.3351e-06	51.609	0.00057902	0.00053732	0.00014812	1376.5	6.0634e-06	6.0463e-06	1373.4	373.12	6.0752e-06	5.7986e-06	425.53	143.19	124.24	42.935	5.8221e-06	53.229	171.051	247.158	215.847	154.250	284.612	300.904	154.001	158.770	272.791	286.896	158.104	162.319	162.688	167.729	270.814	166.720	-8191	255	
29060.717	1	1	0	0	0.15766	0.17415	0.17665	0.27599	0.20326	0.27484	0.059603	0.015502	0.16739	0.26078	0.2681	0.34063	0.39613	0.27595	0.12011	0.16305	-2.5187	-2.4146	-2.2271	-3.0729	-2.2062	-2.7271	-3.0208	-2.475	-2.9396	-2.4208	-2.3271	-3.1708	-2.3854	-2.6458	-2.6875	-2.225	400.103	421.270	147.563	486.758	309.719	217.616	367.711	448.375	166.754	467.302	495.037	151.129	465.121	171.452	159.803	153.697	0.00068636	0.00063584	0.00017678	1359	6.8757e-06	3.4318e-06	1349.9	367.43	6.529e-06	4.8793e-06	417.6	139.84	122.32	41.696	6.1499e-06	51.654	0.0005773	0.00055161	0.00015346	1377.3	5.976e-06	5.9621e-06	1373	373.33	5.6492e-06	5.9065e-06	426.59	143.11	124.58	42.892	5.7967e-06	53.115	168.356	255.580	240.152	154.450	279.403	320.933	153.851	158.736	270.456	294.983	158.053	162.245	162.598	168.020	273.451	166.911	-8191	255	
29060.836	1	1	0	0	0.12044	0.12619	0.33992	0.063899	0.23953	0.16274	0.10231	0.33424	0.10703	0.2225	0.26943	0.11408	0.17486	0.25233	0.22491	0.053886	-2.6646	-2.375	-2.2354	-3.0521	-2.2875	-2.7167	-3.1208	-2.2708	-2.8229	-2.6208	-2.3083	-3.1042	-2.3917	-2.7708	-2.9792	-2.35	157.649	279.498	213.755	362.349	466.089	446.017	334.434	438.352	463.908	497.859	445.548	166.280	469.978	448.881	357.496	240.323	0.0007181	0.00048092	0.00018327	1359.7	5.0614e-06	4.2522e-06	1357.7	365.79	4.4897e-06	7.8874e-06	417.83	140.05	122.14	41.701	5.9068e-06	51.88	0.00057932	0.00052495	0.00015263	1376.8	5.9415e-06	5.8994e-06	1375.2	372.89	5.6926e-06	5.8899e-06	426.39	143.02	124.47	42.886	5.5957e-06	53.278	169.470	250.832	228.066	154.308	282.237	281.753	154.001	158.847	268.329	289.990	158.634	162.378	162.889	167.972	256.972	166.978	-8191	255	
29060.932	1	1	0	0	0.13167	0.14896	0.1009	0.22606	0.078318	0.10741	0.28452	0.081333	0.14673	0.22244	0.15878	0.14914	0.23831	0.11651	0.10627	0.092915	-2.3937	-2.5854	-2.25	-3.1271	-2.4292	-2.2687	-3.0854	-2.2792	-2.8333	-2.8583	-2.3104	-3.1271	-2.5771	-2.4208	-3.0375	-2.225	246.300	406.647	458.945	170.114	245.973	305.842	418.408	274.483	307.117	143.513	396.107	488.069	443.545	370.092	333.999	409.310	0.00070829	0.00064787	0.00020924	1357.7	7.6744e-06	7.1436e-06	1350.3	366.31	4.5372e-06	8.0373e-06	418.96	139.89	120.89	41.612	5.2982e-06	51.528	0.00059257	0.0005217	0.00014796	1375.2	5.8373e-06	5.8819e-06	1372.9	372.97	5.8827e-06	5.6807e-06	426.28	142.85	124.04	42.869	5.6453e-06	53.134	168.452	225.199	227.857	154.367	292.816	292.283	154.146	158.915	272.953	288.334	158.335	162.214	162.728	167.575	291.317	166.747	-8191	255	
29061.027	1	1	0	0	0.16068	0.24563	0.18672	0.26591	0.18106	0.018079	0.13057	0.37332	0.058528	0.30024	0.25936	0.1876	0.31154	0.29531	0.19062	0.28797	-2.0667	-2.6104	-2.0187	-3.1646	-2.4562	-2.3187	-3.2479	-2.3417	-2.6646	-2.8958	-2.275	-2.9125	-2.7687	-2.3479	-3.1167	-2.3979	227.280	404.520	374.302	155.029	324.493	405.244	154.667	441.895	293.775	366.987	466.828	459.159	407.315	494.643	419.219	464.511	0.00068377	0.00050337	0.00019018	1353.4	5.1518e-06	6.1709e-06	1351.4	365.73	6.4603e-06	2.9646e-06	418.16	140.25	122.07	41.498	4.5849e-06	51.435	0.00057922	0.00053672	0.00014918	1372.2	5.8134e-06	5.9109e-06	1374.5	372.97	5.7656e-06	5.5532e-06	426.23	142.92	124.59	42.869	5.8371e-06	53.087	170.326	226.751	235.089	154.181	271.471	279.035	153.727	158.590	277.404	315.244	158.157	161.917	162.383	167.494	281.076	166.713	-8191	255	
29061.148	1	1	0	0	0.2725	0.20143	0.20449	0.14954	0.23766	0.12673	0.32152	0.33822	0.24185	0.12206	0.12876	0.17387	0.32029	0.42163	0.19743	0.31297	-2.1458	-2.825	-2.0417	-3.0458	-2.55	-2.0271	-3.3229	-2.6667	-2.4792	-2.9062	-2.2625	-2.95	-2.9667	-2.2354	-3.0792	-2.4	205.484	244.159	415.444	462.434	341.714	451.882	468.874	456.986	415.329	493.515	492.165	488.201	145.764	147.941	340.317	386.704	0.00071008	0.00057869	0.00015384	1361	4.0681e-06	5.5403e-06	1348.1	366.93	4.6673e-06	5.942e-06	417.27	139.29	121.24	41.717	5.0907e-06	51.334	0.00059183	0.00053407	0.00015013	1376.9	5.7187e-06	5.8863e-06	1373.4	373.45	6.0595e-06	5.6601e-06	426.57	142.93	124.03	42.91	5.7364e-06	53.033	167.717	238.142	223.075	154.060	274.548	285.205	153.653	158.504	275.453	281.676	158.296	161.866	162.424	167.690	278.672	166.839	-8191	255	
29061.221	1	1	0	0	0.27577	0.073774	0.16665	0.15259	0.26455	0.22976	0.077787	0.13486	0.038668	0.10957	0.29956	0.19233	0.19978	0.10962	0.17492	0.21051	-2	-2.9729	-2.1458	-3.0062	-2.9562	-2.15	-3.2417	-2.6833	-2.4917	-3.0542	-2.3917	-2.875	-2.8771	-2.3438	-3.0062	-2.8667	279.356	248.176	342.645	447.027	498.746	357.250	438.477	403.390	156.922	424.399	410.510	479.425	154.965	381.574	182.403	448.831	0.00069752	0.00055263	0.000125	1357.5	3.1971e-06	5.371e-06	1352.3	366.69	6.3929e-06	6.0774e-06	418.89	140.63	121.79	41.594	5.3041e-06	51.759	0.00057637	0.0005189	0.00014686	1374.9	5.7639e-06	5.6967e-06	1374.6	372.97	5.9224e-06	5.6312e-06	426.23	143.08	124.47	42.944	5.5421e-06	53.169	171.355	234.798	226.180	154.288	260.249	264.459	153.770	158.587	286.399	310.560	158.323	162.205	162.542	167.647	282.550	166.976	-8191	255	
29061.316	1	1	0	0	0.077505	0.20678	0.098457	0.18269	0.11687	0.14026	0.21839	0.40249	0.11108	0.32426	0.27838	0.13456	0.21169	0.29849	0.241	0.1188	-1.7563	-3.2125	-2.0792	-2.6146	-2.7562	-2.1937	-3.2062	-2.9083	-2.2958	-3.2062	-2.5	-2.8042	-2.7917	-2.1792	-2.9583	-2.8958	178.424	415.898	165.420	445.556	362.732	252.064	448.437	449.581	280.320	153.630	406.541	375.305	178.409	465.094	215.545	467.992	0.00071576	0.00034366	0.00016468	1350.5	4.739e-06	6.8835e-06	1354.3	365.81	4.5044e-06	7.274e-06	418.11	140.95	122.55	41.74	5.4225e-06	51.555	0.00058443	0.00050692	0.00014853	1375.7	5.5851e-06	5.9395e-06	1373.3	373.02	5.8901e-06	5.7225e-06	426.77	143.26	124.46	42.954	5.8342e-06	53.185	169.316	225.817	251.802	154.102	246.344	296.600	153.755	158.504	280.033	292.548	158.101	162.288	162.690	167.740	270.458	166.897	-8191	255	
29061.412	1	1	0	0	0.3416	0.084071	0.1122	0.35691	0.05137	0.22144	0.073192	0.48755	0.28262	0.13829	0.23889	0.20187	0.11271	0.45659	0.16651	0.11615	-2.0563	-2.8875	-2.475	-2.5854	-3.0208	-2.1063	-2.975	-2.8187	-2.1625	-3.0208	-2.7167	-2.55	-2.9979	-2.375	-2.7167	-2.975	374.342	429.965	267.083	475.155	162.931	217.136	373.981	456.816	358.281	246.123	454.794	393.128	455.067	172.047	485.029	291.154	0.00071008	0.00056625	0.00016203	1354.4	4.4499e-06	5.0757e-06	1353.4	366.72	3.6161e-06	5.8092e-06	416.97	140.13	121.24	41.71	5.6174e-06	51.741	0.00059243	0.00051381	0.00014438	1371.9	5.6482e-06	5.6715e-06	1374.7	373.05	5.7767e-06	5.5233e-06	425.88	142.89	124.33	42.825	5.7329e-06	53.184	167.195	225.216	217.364	154.503	268.787	277.298	154.005	158.728	260.379	286.763	158.386	162.351	162.679	167.957	280.015	166.980	-8191	255	
29061.531	1	1	0	0	0.041338	0.16161	0.19923	0.11345	0.030328	0.18396	0.35608	0.26803	0.10536	0.10132	0.26094	0.13265	0.32986	0.26969	0.2389	0.22669	-1.8146	-2.9125	-2.3083	-2.3708	-3.0729	-2.3375	-2.8771	-3.1292	-2.0979	-2.9646	-2.6292	-2.4833	-3.0354	-2.1458	-2.4625	-3.0458	369.793	243.241	245.370	186.936	212.738	470.462	421.403	445.125	375.657	175.725	411.937	270.936	474.985	469.883	159.768	385.788	0.00071328	0.00069055	0.00020718	1354.6	5.0727e-06	5.4026e-06	1349.9	365.67	5.0661e-06	6.1445e-06	418.39	140.25	121.8	41.715	3.9498e-06	51.491	0.00057816	0.00050087	0.00014422	1375.7	5.6013e-06	5.6098e-06	1372.8	372.68	5.728e-06	5.5329e-06	426.51	143.11	124.31	42.886	5.7532e-06	53.101	170.844	239.039	231.155	154.460	281.436	274.776	153.827	158.691	281.518	287.369	158.176	161.892	162.663	167.498	282.207	166.413	-8191	255	
29061.627	1	1	0	0	0.060117	0.12272	0.1885	0.13555	0.048122	0.1526	0.1527	0.10737	0.1209	0.28277	0.39446	0.21671	0.24023	0.16227	0.089287	0.22895	-1.7708	-2.7604	-2.5187	-2.2771	-3.1958	-2.3104	-2.9396	-3.1667	-2.2125	-2.8187	-2.6646	-2.2771	-2.9792	-2.4354	-2.3812	-3.1375	355.876	439.297	219.809	173.425	193.456	288.396	423.328	401.868	183.810	497.801	469.407	470.412	186.118	482.894	323.798	353.024	0.00068649	0.00060166	0.00015619	1351.8	3.9153e-06	5.4678e-06	1351.8	365.76	3.8367e-06	7.5593e-06	417.83	139.57	122.61	41.685	5.5413e-06	51.143	0.00056667	0.00051709	0.00014579	1371.2	5.4142e-06	5.755e-06	1373	372.77	5.7662e-06	5.6747e-06	426.19	142.87	124.19	42.819	5.8345e-06	53.026	168.222	251.330	271.524	154.396	280.323	294.955	154.008	158.679	245.085	283.998	158.129	162.185	162.309	167.577	285.752	166.795	-8191	255	
29061.723	1	1	0	0	0.13561	0.090413	0.05574	0.15393	0.15756	0.30376	0.36335	0.21677	0.1115	0.27784	0.27931	0.072912	0.025655	0.20055	0.048966	0.10302	-1.6292	-2.6688	-2.7354	-2.2104	-3.0417	-2.3604	-2.5542	-3.3021	-2.2479	-2.6521	-2.9104	-2.1729	-3.1792	-2.5896	-2.3	-3.1375	370.956	411.078	483.762	481.954	341.650	386.199	458.780	423.478	215.068	257.975	451.257	271.038	255.236	441.887	397.997	444.946	0.00071815	0.00052484	9.9572e-05	1356	5.4625e-06	7.5156e-06	1350.1	364.9	5.8753e-06	6.9971e-06	418.88	139.58	121.62	41.877	5.001e-06	51.264	0.00055931	0.00052615	0.00014385	1374.3	5.4665e-06	5.8843e-06	1371.6	373.31	5.6612e-06	5.4519e-06	426.67	142.88	124.27	42.901	5.6465e-06	53.062	168.912	234.645	257.265	153.947	280.704	296.277	153.828	158.439	263.879	263.176	158.104	162.092	162.464	167.447	295.439	167.015	-8191	255	
29061.797	1	1	0	0	0.19083	0.22376	0.047548	0.25321	0.096145	0.14163	0.17991	0.2467	0.20459	0.073215	0.22007	0.13473	0.11666	0.13711	0.1262	0.24902	-1.7167	-2.6729	-2.9354	-2.1083	-2.8104	-2.5542	-2.4417	-3.1625	-2.2417	-2.675	-3.0208	-2.2687	-2.9813	-2.7687	-2.3021	-3.2021	288.517	366.314	445.666	462.722	464.698	499.725	399.173	484.085	420.642	303.295	241.086	492.812	490.138	406.559	193.452	486.692	0.00067339	0.00062532	0.00016692	1348.2	6.0254e-06	5.452e-06	1358	366.18	5.3603e-06	5.1518e-06	418.33	139.65	122.32	41.864	5.5181e-06	51.401	0.00054843	0.000504	0.00013666	1370.9	5.2694e-06	5.5189e-06	1373.9	372.44	5.6036e-06	5.4366e-06	425.56	142.72	124.3	42.846	5.3846e-06	53.09	169.364	225.793	231.828	154.236	260.516	263.651	154.036	158.545	259.397	287.274	158.493	162.236	162.837	167.509	274.745	166.688	-8191	255	
29061.914	1	1	0	0	0.13763	0.068016	0.090469	0.096464	0.22956	0.16319	0.24013	0.026186	0.11256	0.075696	0.24026	0.16431	0.2753	0.21323	0.28628	0.26095	-1.8792	-2.4479	-2.9625	-2.3458	-2.7958	-2.7875	-2.5563	-3.0417	-2.4833	-2.6021	-3.2	-2.2729	-2.9188	-2.8625	-2.2104	-3.1417	333.428	215.361	396.074	247.866	462.490	159.783	425.363	312.774	149.589	433.290	474.689	489.298	431.293	367.373	149.221	463.476	0.00069801	0.0005089	0.0001717	1348.9	6.1367e-06	5.2802e-06	1352.4	366.73	5.1451e-06	4.9839e-06	418.6	139.4	122.65	41.57	4.2748e-06	51.517	0.00055161	0.00052028	0.00013468	1369.9	5.4582e-06	5.5176e-06	1371.9	373.05	5.5676e-06	5.6206e-06	425.66	142.54	124.5	42.91	5.3376e-06	53.031	169.239	236.903	246.375	154.215	272.561	256.870	153.958	158.524	278.185	279.856	158.084	162.013	162.765	167.658	298.060	167.231	-8191	255	
29062.012	1	1	0	0	0.2101	0.084867	0.2782	0.1471	0.017529	0.10569	0.21699	0.20886	0.30487	0.17363	0.28329	0.26367	0.15979	0.26233	0.13806	0.30011	-2.0312	-2.2979	-3.0438	-2.2167	-2.7833	-2.7771	-2.3125	-3.1208	-2.5125	-2.2208	-3.0604	-2.3104	-2.7083	-2.9437	-2.1354	-3.0917	414.311	160.629	472.939	153.357	241.042	403.008	402.402	483.393	332.467	388.159	445.964	445.925	426.775	154.938	496.125	391.264	0.00067586	0.00052283	0.00019145	1348.9	3.2893e-06	5.147e-06	1347.8	365.26	7.6522e-06	7.243e-06	415.76	139.41	122.25	41.708	4.8803e-06	51.381	0.00056024	0.00048877	0.00013495	1371.8	5.3692e-06	5.1555e-06	1368.8	372.03	5.546e-06	5.4317e-06	424.7	142.36	124.16	42.797	5.3912e-06	52.972	169.888	234.200	242.087	154.104	250.381	288.579	153.734	158.657	273.379	288.830	158.184	162.113	162.698	167.531	271.380	166.911	-8191	255	
29062.107	1	1	0	0	0.26705	0.24134	0.11815	0.45173	0.24881	0.059312	0.23975	0.24612	0.23398	0.25947	0.089148	0.24835	0.078688	0.23429	0.15243	0.023155	-2.2979	-2.1917	-3.0187	-2.2583	-2.4479	-2.9562	-2.4417	-3.0833	-2.6375	-2.2458	-3.1354	-2.5	-2.5583	-3.1333	-2.025	-2.8896	326.500	217.675	214.330	499.113	406.521	416.338	359.356	407.358	218.289	483.867	186.608	483.613	309.164	392.682	407.883	342.993	0.0007363	0.00063448	0.00014235	1347.8	5.1124e-06	4.576e-06	1352	364.25	6.3427e-06	6.0118e-06	416.52	139.72	121.74	41.731	5.5818e-06	51.389	0.00055227	0.0005018	0.00012956	1367.3	5.3842e-06	5.4489e-06	1371.3	372.22	5.3073e-06	5.5333e-06	426	142.63	124.21	42.85	5.5075e-06	52.994	167.118	225.756	228.770	154.028	279.957	298.627	153.983	158.868	282.868	294.356	158.186	161.968	162.425	167.658	285.832	166.834	-8191	255	
29062.229	1	1	0	0	0.04352	0.13012	0.17101	0.087584	0.10989	0.12457	0.31869	0.53699	0.11456	0.072006	0.0093092	0.1481	0.099102	0.19761	0.22569	0.025603	-2.2729	-2.1646	-2.9188	-2.525	-2.4292	-3.0229	-2.3	-2.8542	-2.8312	-2.3083	-3.1188	-2.65	-2.3812	-3.2333	-2.1937	-2.8167	433.544	146.147	409.145	468.203	362.112	352.156	433.375	456.132	228.044	198.249	433.301	478.843	285.629	483.117	437.585	183.506	0.00070075	0.0006384	0.00015092	1347.8	5.4223e-06	4.7194e-06	1347.8	365.68	4.7666e-06	5.9543e-06	417.75	139.93	121.79	41.481	5.5475e-06	51.749	0.00057106	0.00049148	0.00013827	1371.1	5.4342e-06	5.232e-06	1371.8	372.86	5.5041e-06	5.3712e-06	425.87	142.71	124.36	42.783	5.5519e-06	53.15	168.325	232.665	230.021	154.024	274.991	286.426	153.795	158.420	276.214	293.475	158.271	161.959	162.334	167.725	279.315	167.036	-8191	255	
29062.324	1	1	0	0	0.15581	0.047115	0.17655	0.1944	0.12359	0.26253	0.23856	0.40127	0.21534	0.15339	0.24046	0.37677	0.13533	0.13835	0.13524	0.1255	-2.3583	-2.1771	-3.0729	-2.6146	-2.2854	-2.9667	-2.4729	-2.6417	-2.7083	-2.2687	-2.9604	-2.6417	-2.3667	-3.1167	-2.4208	-2.5896	448.764	462.187	215.695	404.329	419.275	378.574	465.936	451.919	196.912	483.681	409.210	339.040	195.130	151.227	305.556	244.374	0.00074221	0.00042677	0.00011978	1349.2	4.7114e-06	2.7975e-06	1351.1	364.8	4.1487e-06	3.4851e-06	415.72	139.43	120.98	41.838	4.1005e-06	51.404	0.00054945	0.00049726	0.00013547	1370.1	5.2971e-06	5.1831e-06	1371.2	372.27	5.3612e-06	5.3676e-06	425.29	142.64	123.94	42.83	5.1864e-06	53.019	168.433	221.537	237.821	153.993	260.106	266.432	153.638	158.549	282.284	303.133	158.089	161.842	162.433	167.590	288.585	166.828	-8191	255	
29062.420	1	1	0	0	0.20149	0.14936	0.23723	0.31122	0.1078	0.21146	0.13191	0.26152	0.15703	0.06739	0.25012	0.14519	0.2695	0.42463	0.17136	0.078905	-2.4396	-2.1458	-2.9271	-2.5667	-2.125	-3.1229	-2.5792	-2.6542	-2.95	-2.1104	-2.9833	-2.8792	-2.3667	-3.0875	-2.3187	-2.525	145.677	206.137	170.354	458.354	177.152	478.479	416.975	141.414	237.374	423.844	469.806	218.869	469.047	462.773	169.443	495.537	0.00070039	0.00049226	0.00016244	1346.2	4.7776e-06	3.4349e-06	1350.8	365.48	4.1537e-06	4.0052e-06	419.08	139.85	122.14	41.735	4.2511e-06	51.494	0.00054688	0.00048462	0.00013312	1369.2	5.4075e-06	5.3663e-06	1371	372.11	5.2466e-06	5.267e-06	426.05	142.86	124.38	42.837	5.3115e-06	53.005	167.958	236.621	232.490	154.002	299.321	296.624	153.816	158.799	267.089	308.992	158.088	162.064	162.511	167.595	279.795	167.062	-8191	255	
29062.518	1	1	0	0	0.27539	0.11011	0.055458	0.25506	0.17437	0.19731	0.29043	0.1434	0.064314	0.079083	0.077427	0.18082	0.30394	0.27345	0.069229	0.1983	-2.5604	-2.15	-2.675	-2.7667	-2.0458	-2.9646	-2.6542	-2.4708	-3.0708	-2.1729	-2.6542	-2.9583	-2.3333	-3.1167	-2.5125	-2.4958	454.678	488.576	167.745	162.728	467.418	233.188	421.537	223.511	424.690	185.998	493.030	414.802	497.758	163.046	383.196	472.351	0.0007015	0.00046762	0.00013132	1352.2	5.2362e-06	6.7739e-06	1350.6	365.82	5.5741e-06	6.0482e-06	418.68	139.77	121.87	41.667	5.9663e-06	51.198	0.00054102	0.00049184	0.00014064	1370.8	5.3606e-06	5.2135e-06	1371.3	372.2	5.1798e-06	5.1352e-06	425.52	142.59	124.25	42.8	5.4046e-06	52.996	168.128	231.996	221.021	153.808	280.576	294.505	153.593	158.547	275.662	303.553	158.286	161.905	162.655	167.819	289.029	167.037	-8191	255	
29062.611	1	1	0	0	0.21846	0.19246	0.15654	0.024068	0.15692	0.03023	0.37513	0.21127	0.13447	0.30309	0.050734	0.08436	0.11444	0.033755	0.23583	0.22412	-2.6437	-2.1229	-2.6146	-3.0563	-2.1104	-2.9521	-3.0021	-2.4521	-3.0333	-2.3833	-2.7521	-3.1479	-2.0875	-3.0438	-2.5125	-2.4833	376.974	494.864	421.784	239.279	376.203	223.130	438.436	432.372	450.099	174.595	146.895	301.653	169.775	170.350	306.289	453.644	0.00071655	0.0006152	0.00013015	1355.9	5.1185e-06	4.9183e-06	1348.3	364.83	4.092e-06	5.4166e-06	415.25	139.31	121.91	41.591	4.4593e-06	51.563	0.00053568	0.00048829	0.00013402	1372.2	5.2933e-06	5.1794e-06	1368.4	371.88	5.0957e-06	5.3284e-06	424.31	142.43	124.3	42.802	5.2579e-06	53.028	167.072	216.601	223.893	154.210	244.644	279.834	153.711	158.445	264.582	271.629	158.334	162.010	162.323	167.772	276.238	167.194	-8191	255	
29062.707	1	1	0	0	0.20041	0.25689	0.10859	0.36235	0.1279	0.2345	0.048262	0.31858	0.068538	0.16162	0.19331	0.15414	0.040799	0.41282	0.1892	0.42654	-2.5187	-2.2062	-2.4562	-3.0687	-2.0875	-2.8083	-2.8917	-2.4042	-3.1833	-2.4125	-2.6875	-3.0375	-2.2333	-2.7812	-2.6937	-2.4104	303.684	327.786	464.773	461.876	141.976	328.891	440.046	478.618	157.382	436.392	430.680	405.373	483.943	466.329	425.814	156.227	0.00070017	0.00053463	0.0001603	1344.5	6.8032e-06	4.782e-06	1345.1	364.5	3.4012e-06	5.0994e-06	416.06	139.78	121.83	41.254	5.474e-06	51.264	0.00053763	0.00048248	0.00013466	1367.8	5.2461e-06	5.0936e-06	1365.7	371.69	5.2275e-06	5.1269e-06	425.03	142.51	123.85	42.694	5.0836e-06	52.906	168.010	238.507	230.161	154.051	262.708	294.457	153.851	158.561	275.100	280.497	158.228	161.973	162.290	167.688	269.742	166.896	-8191	255	
29062.828	1	1	0	0	0.18774	0.18673	0.32685	0.2125	0.063492	0.27303	0.31242	0.22339	0.064629	0.075348	0.20285	0.21234	0.34947	0.14004	0.086101	0.10216	-2.6271	-2.5854	-2.1917	-3.0417	-2.3708	-2.7812	-3.0167	-2.1646	-2.9562	-2.4562	-2.35	-3.0542	-2.1937	-2.5021	-2.9896	-2.1917	483.871	353.398	224.095	177.604	418.330	277.350	405.882	390.728	168.754	432.939	453.834	500.004	438.463	388.103	301.376	440.041	0.00067151	0.00034066	0.00021789	1344.4	5.2217e-06	5.3132e-06	1342	364.98	4.8105e-06	6.002e-06	417.17	139.33	120.54	41.787	4.4831e-06	51.034	0.00053902	0.00046397	0.00013393	1366.9	5.2774e-06	5.2074e-06	1366.2	371.71	5.226e-06	5.2325e-06	425.22	142.56	123.79	42.875	4.994e-06	52.854	166.680	210.550	213.350	153.991	272.156	311.278	153.794	158.734	273.239	298.263	158.261	162.165	162.283	167.575	276.973	166.683	-8191	255	
29062.924	1	1	0	0	0.10022	0.20108	0.070788	0.36772	0.082483	0.085477	0.45023	0.42645	0.20741	0.058308	0.22331	0.054281	0.035888	0.17362	0.2218	0.291	-2.4146	-2.6354	-2.2229	-3.0083	-2.1708	-2.4708	-3.0563	-2.2208	-2.6708	-2.5187	-2.3354	-3.1104	-2.4813	-2.5187	-3.0229	-2.2438	244.088	145.956	431.490	420.748	209.923	392.349	454.071	443.531	339.490	243.009	421.240	457.542	216.655	232.953	408.544	172.219	0.00067778	0.0002999	0.00016773	1348.7	3.3416e-06	6.584e-06	1346.3	364.97	5.9868e-06	3.3707e-06	415.95	139.65	121.88	41.696	4.4896e-06	51.514	0.00054902	0.0004795	0.0001345	1368.8	5.3447e-06	5.5822e-06	1368.9	371.6	5.3923e-06	5.1594e-06	425.11	142.47	123.94	42.862	5.2071e-06	53.115	168.035	227.429	214.890	154.085	291.465	304.428	153.869	158.593	253.220	319.483	158.393	162.015	162.661	167.595	266.419	166.804	-8191	255	
29063.020	1	1	0	0	0.3938	0.30677	0.15342	0.36733	0.17723	0.24827	0.46391	0.30348	0.2299	0.15292	0.25746	0.16588	0.10026	0.10305	0.19746	0.20147	-2.3917	-2.5354	-2.1437	-3.3042	-2.5229	-2.2958	-3.1375	-2.4479	-2.7417	-2.5812	-2.2812	-2.9896	-2.5604	-2.0979	-2.8646	-2.1792	218.120	409.824	158.478	472.923	175.550	408.210	471.027	402.396	291.287	282.385	429.226	488.973	416.043	296.894	435.839	437.954	0.00068969	0.00057619	0.00017598	1345.8	5.6282e-06	5.6303e-06	1350.5	365.75	4.5615e-06	4.575e-06	419.61	139.13	122.36	41.877	5.4459e-06	51.733	0.0005408	0.00047749	0.00014084	1372.8	5.4094e-06	5.2862e-06	1373.2	372.28	5.461e-06	5.2494e-06	426.45	142.54	124.29	42.907	5.4151e-06	53.172	167.602	248.644	236.044	154.000	277.447	301.128	153.878	158.630	280.254	297.053	158.265	162.084	162.333	167.548	279.066	166.528	-8191	255	
29063.092	1	1	0	0	0.059317	0.12864	0.096253	0.04972	0.15603	0.065775	0.084894	0.35457	0.13598	0.15793	0.15137	0.10792	0.12038	0.17913	0.053673	0.17215	-2.1396	-2.7854	-2.1104	-2.7833	-2.5062	-2.2667	-3.2292	-2.3375	-2.5417	-2.9979	-2.4125	-2.9396	-2.6021	-2.1562	-2.8208	-2.6333	141.789	223.895	288.613	387.659	396.392	203.046	160.147	418.472	445.109	141.532	157.727	293.990	356.633	495.403	178.936	339.994	0.00072618	0.00054323	0.00015252	1352.4	4.8874e-06	5.2898e-06	1353.1	365.87	6.5618e-06	5.9019e-06	418.52	139.7	122.1	41.71	5.7665e-06	51.292	0.00054659	0.00048233	0.00013945	1373	5.2624e-06	5.4714e-06	1372.7	372.05	5.522e-06	5.3171e-06	425.72	142.56	124.17	42.875	5.1487e-06	53.031	168.884	241.415	232.329	154.104	282.336	305.139	153.711	158.627	262.108	303.329	158.027	162.328	162.504	167.688	288.082	166.644	-8191	255	
29063.188	1	1	0	0	0.40343	0.15295	0.11946	0.13706	0.14399	0.23223	0.15994	0.14686	0.050864	0.12791	0.45038	0.094901	0.050341	0.16081	0.095344	0.39111	-2.0625	-2.9854	-2.1042	-2.7667	-2.5583	-2.3104	-3.0958	-2.6021	-2.1479	-2.9042	-2.1333	-2.9375	-2.9104	-2.3396	-3.0625	-2.475	351.350	434.194	414.578	486.945	455.503	213.235	481.224	478.668	222.648	356.419	444.353	243.735	173.641	435.749	489.321	456.907	0.00069486	0.0004973	0.00018116	1352.4	4.9006e-06	4.8656e-06	1352.4	365.31	3.5492e-06	6.0918e-06	419.02	140.41	121.98	41.589	4.8876e-06	51.364	0.00055561	0.00047767	0.00013229	1372.8	5.2193e-06	5.3859e-06	1372.5	371.86	5.4838e-06	5.1202e-06	426.3	143.01	124.13	42.809	5.4897e-06	53.022	167.821	237.137	216.233	154.079	276.042	286.850	153.811	158.511	278.590	287.171	158.354	161.931	162.598	167.902	292.166	166.782	-8191	255	
29063.309	1	1	0	0	0.13091	0.12491	0.092614	0.068143	0.074057	0.098714	0.13861	0.077616	0.096906	0.33905	0.046068	0.24964	0.18288	0.30109	0.065905	0.12134	-2	-2.925	-2.3146	-2.5938	-2.8312	-2.3083	-3.1688	-2.5021	-2.2125	-2.9604	-2.4417	-2.6771	-2.7896	-2.2333	-2.9229	-2.625	258.308	202.704	141.805	274.568	498.561	496.389	426.055	431.960	351.473	378.472	368.114	231.500	476.426	156.898	388.767	400.941	0.00068583	0.00041753	0.00016969	1353.7	5.2333e-06	6.159e-06	1352.8	366.02	4.3679e-06	5.5707e-06	417.83	140.32	121.85	41.484	5.6563e-06	51.491	0.00053867	0.00049413	0.00013599	1372.1	5.3673e-06	5.4792e-06	1373.1	372.79	5.6067e-06	5.1637e-06	425.65	143	124.26	42.803	5.4382e-06	53.114	169.532	238.485	230.906	154.217	273.065	279.300	153.731	158.617	276.491	274.181	158.294	162.104	162.345	167.732	281.095	166.519	-8191	255	
29063.404	1	1	0	0	0.2736	0.31	0.15376	0.17786	0.27576	0.073983	0.27438	0.15303	0.12957	0.18052	0.22184	0.16556	0.22323	0.28129	0.018626	0.2346	-1.9792	-2.9313	-2.2354	-2.6146	-3.0354	-2.1729	-3.2062	-2.8229	-2.2417	-3.1063	-2.5667	-2.5208	-2.9167	-2.2896	-2.8229	-2.7146	267.503	290.462	301.021	466.988	258.642	227.627	470.379	480.049	142.533	333.697	157.818	474.878	428.929	446.077	455.287	151.325	0.00070418	0.00049095	0.00016809	1358.8	2.0212e-06	4.4167e-06	1347.7	365.31	5.4881e-06	4.6435e-06	416.62	139.81	121.65	41.591	5.1854e-06	51.421	0.00056539	0.00049497	0.00013901	1375.8	5.2716e-06	5.5452e-06	1372.4	372.57	5.4518e-06	5.4038e-06	425.88	143.09	124.42	42.803	5.5014e-06	52.995	169.229	222.376	225.467	154.383	291.978	269.079	153.825	158.355	274.979	274.621	158.110	162.313	162.415	167.662	287.905	166.743	-8191	255	
29063.498	1	1	0	0	0.081529	0.142	0.16092	0.20213	0.1351	0.25512	0.13518	0.13272	0.17371	0.10093	0.1733	0.17793	0.094119	0.2088	0.1419	0.16578	-1.8396	-2.975	-2.3146	-2.4042	-3.0771	-2.0979	-2.7438	-2.9292	-2.2104	-2.95	-2.65	-2.5333	-3.05	-2.2333	-2.6021	-2.8125	375.481	317.173	306.377	410.860	453.086	342.968	474.589	426.041	161.840	323.119	412.419	407.825	396.048	478.199	170.219	338.811	0.00066892	0.0006136	0.00016852	1353.3	4.1703e-06	4.4146e-06	1353.5	365.27	4.0336e-06	4.9136e-06	419.51	140.2	122.05	41.536	3.3801e-06	51.313	0.00055341	0.00049001	0.00014306	1375.4	5.3109e-06	5.6479e-06	1375.1	372.3	5.5331e-06	5.3214e-06	425.93	142.99	124.42	42.823	5.6224e-06	53.03	166.657	207.141	232.344	154.117	247.330	267.763	153.807	158.438	276.160	284.117	158.171	162.112	162.230	167.907	274.779	166.649	-8191	255	
29063.598	1	1	0	0	0.093502	0.09422	0.093885	0.13933	0.24578	0.36307	0.28227	0.23813	0.194	0.15989	0.2082	0.16912	0.21916	0.1034	0.019307	0.19546	-1.5458	-2.8667	-2.4688	-2.3125	-3.1479	-2.1896	-2.7667	-2.9292	-2.1625	-2.8375	-2.7188	-2.3333	-2.8833	-2.4771	-2.4458	-3.0187	499.932	376.773	217.828	346.201	305.395	467.574	447.682	404.500	171.014	492.403	142.929	439.582	149.644	207.454	377.578	393.810	0.00070317	0.00072755	0.00016672	1354.5	7.4146e-06	6.0699e-06	1349.1	364.33	5.0327e-06	6.1139e-06	417.31	140.06	122.06	41.707	5.3738e-06	51.477	0.00056547	0.00051005	0.00013643	1375.3	5.5353e-06	5.5573e-06	1374.1	371.83	5.5531e-06	5.5871e-06	425.81	142.99	124.15	42.829	5.4579e-06	52.994	167.692	226.989	247.551	154.066	276.036	269.127	153.705	158.437	272.402	262.772	157.975	162.188	162.496	167.449	285.157	166.617	-8191	255	
29063.691	1	1	0	0	0.2647	0.085764	0.18537	0.16652	0.11573	0.14626	0.20301	0.23197	0.096	0.19414	0.33939	0.14226	0.048767	0.12555	0.088104	0.093822	-1.6313	-2.6854	-2.5125	-1.9229	-3.0271	-2.3688	-2.5729	-3.1271	-2.2812	-2.7417	-2.8375	-2.3396	-2.975	-2.6042	-2.3396	-3.0271	238.756	274.941	217.534	482.352	393.336	150.087	475.182	492.863	353.878	249.412	457.725	379.491	492.749	217.586	497.986	327.407	0.00072261	0.00053137	0.00016134	1358.1	5.1409e-06	5.3597e-06	1347.8	365.67	7.1668e-06	3.0232e-06	416.47	139.52	121.79	41.925	6.1666e-06	51.48	0.00055992	0.00048799	0.00013711	1375.4	5.4684e-06	5.627e-06	1373.5	372.04	5.502e-06	5.5416e-06	425.24	142.77	124.45	42.89	5.7078e-06	53.186	169.554	239.196	244.656	154.166	261.454	291.655	154.031	158.591	272.882	306.277	158.023	161.882	162.439	167.603	278.278	166.943	-8191	255	
29063.787	1	1	0	0	0.081856	0.054494	0.087622	0.17568	0.17263	0.095024	0.4066	0.4159	0.21151	0.1339	0.04746	0.24496	0.30194	0.24477	0.48411	0.30085	-2.0354	-2.7062	-2.7625	-2.1792	-2.9104	-2.5521	-2.5958	-3.1875	-2.0979	-2.6708	-2.9437	-2.3146	-2.7542	-2.7896	-2.3375	-3.225	286.707	300.057	226.551	434.500	214.999	413.302	442.103	434.397	327.109	378.548	281.980	443.040	413.613	477.400	397.283	349.596	0.00070291	0.00060208	0.0001468	1347.5	4.1135e-06	5.0575e-06	1351.5	366.58	5.4604e-06	5.0774e-06	418.6	139.5	121.96	41.701	5.5723e-06	51.444	0.00057226	0.00050779	0.00014087	1369.7	5.4783e-06	5.4152e-06	1375.1	372.69	5.6378e-06	5.6584e-06	426.02	142.83	124.63	42.855	5.3989e-06	53.144	168.965	215.005	242.176	154.131	282.546	272.476	153.801	158.598	295.493	306.604	158.304	162.226	162.767	167.520	282.933	166.936	-8191	255	
29063.908	1	1	0	0	0.12361	0.48567	0.39374	0.18173	0.086489	0.23736	0.45591	0.32355	0.25637	0.19461	0.090761	0.10926	0.070061	0.2917	0.091568	0.38845	-1.7229	-2.3937	-2.8542	-2.0229	-2.7042	-2.6583	-2.2792	-3.1917	-2.3833	-2.4583	-3.0667	-2.2917	-2.8333	-2.5458	-2.1458	-3.0083	264.278	178.926	273.752	159.033	229.791	332.346	442.841	390.706	200.198	345.828	300.384	446.704	456.892	385.585	298.973	453.610	0.00070367	0.00041463	0.00012627	1347.5	4.052e-06	4.3832e-06	1351.8	364.98	4.3819e-06	5.4961e-06	416.28	139.73	121.69	41.426	6.3995e-06	51.553	0.00056137	0.00051643	0.00013504	1368.5	5.4508e-06	5.4216e-06	1372.5	372.79	5.4958e-06	5.4157e-06	425.38	142.72	124.38	42.736	5.4109e-06	53.14	168.559	239.634	261.635	154.200	291.810	268.809	153.860	158.710	254.798	275.977	158.107	162.073	162.733	167.624	294.043	166.741	-8191	255	
29064.006	1	1	0	0	0.37475	0.24765	0.079547	0.32111	0.24185	0.060547	0.16062	0.19208	0.1925	0.13688	0.23845	0.12712	0.017017	0.034979	0.18561	0.28562	-2.0083	-2.5292	-2.9042	-2.2812	-2.7896	-2.725	-2.4104	-3.1896	-2.3521	-2.4042	-3.0667	-2.3	-2.6937	-2.8458	-2.1833	-3.0167	467.473	283.272	457.723	182.490	404.509	211.885	413.426	472.606	491.261	191.038	397.370	442.731	372.683	438.211	451.074	149.628	0.00068522	0.00056013	0.00016671	1352.1	4.7977e-06	6.2167e-06	1356.1	365.91	4.6275e-06	5.9009e-06	417.55	139.79	122.14	41.572	5.6329e-06	51.394	0.00055059	0.00049994	0.00013954	1372.7	5.5468e-06	5.367e-06	1375.8	372.94	5.6643e-06	5.4924e-06	425.97	142.88	124.36	42.784	5.403e-06	53.178	167.535	231.395	233.034	154.054	274.727	298.698	153.782	158.445	279.175	286.604	158.338	162.128	162.443	167.632	276.849	166.752	-8191	255	
29064.102	1	1	0	0	0.11405	0.12625	0.20749	0.17512	0.24247	0.13694	0.2675	0.15448	0.044851	0.1763	0.25022	0.11502	0.18744	0.3142	0.17473	0.40188	-2.2021	-2.375	-2.9979	-2.2792	-2.7208	-2.9167	-2.2542	-2.9896	-2.5729	-2.2896	-3.0479	-2.4625	-2.4938	-2.8271	-2.1021	-2.8333	247.661	316.275	231.986	454.929	362.872	403.519	424.060	186.317	236.374	400.281	393.168	158.720	364.580	496.970	187.894	283.315	0.00069526	0.00077732	0.00017541	1352.4	5.2187e-06	6.0002e-06	1349.7	363.84	5.8332e-06	3.5785e-06	416.97	139.66	121.21	41.839	6.2689e-06	51.37	0.00055902	0.00049154	0.00013512	1373.5	5.3513e-06	5.3195e-06	1370.4	371.77	5.5038e-06	5.4858e-06	425.9	142.84	124.29	42.889	5.3547e-06	53.158	168.538	238.410	233.412	154.234	282.152	276.844	153.938	158.557	288.319	281.072	158.298	161.942	162.908	167.520	293.566	166.801	-8191	255	
29064.197	1	1	0	0	0.25676	0.16823	0.073165	0.17218	0.2346	0.05514	0.22986	0.16079	0.30887	0.49242	0.23265	0.16381	0.22975	0.24542	0.08845	0.21182	-2.2687	-2.3187	-2.9042	-2.3937	-2.3125	-2.7167	-2.3563	-3.1083	-2.65	-2.075	-3.15	-2.3792	-2.5979	-3.1063	-2.0021	-2.7854	381.296	364.833	253.894	419.507	216.968	471.452	464.627	374.920	388.721	445.314	344.205	442.294	141.590	168.083	153.862	450.393	0.00073919	0.00048187	0.00013109	1356.4	5.6638e-06	6.1831e-06	1344.2	364.45	5.6943e-06	6.059e-06	418.5	139.3	121.58	41.875	5.8296e-06	51.308	0.00056814	0.00049476	0.00013859	1374	5.5548e-06	5.4872e-06	1371.7	372.5	5.3668e-06	5.4851e-06	425.78	142.56	124.37	42.968	5.6135e-06	52.988	167.600	210.575	225.397	153.852	259.014	296.707	153.738	158.894	280.918	307.669	158.366	162.088	162.591	167.698	289.074	166.643	-8191	255	
29064.316	1	1	0	0	0.21213	0.26828	0.18356	0.20087	0.41928	0.2106	0.26758	0.27204	0.14599	0.10768	0.109	0.18351	0.097189	0.052946	0.28262	0.22679	-2.2583	-2.1583	-2.9542	-2.6625	-2.4229	-2.9458	-2.5125	-2.8354	-2.7562	-2.3208	-2.9729	-2.4813	-2.3688	-3.2167	-2.2667	-2.6063	381.551	238.193	487.516	465.227	241.154	186.816	456.730	404.367	207.625	393.736	261.304	181.895	486.296	391.491	422.591	294.128	0.00072004	0.00051049	0.00014267	1349.9	4.4766e-06	3.5606e-06	1349.5	366.44	4.9133e-06	4.1367e-06	417.18	139.58	121.43	41.661	5.1828e-06	51.422	0.00055365	0.00050394	0.00013847	1372	5.3459e-06	5.3391e-06	1371.7	372.94	5.3815e-06	5.3908e-06	425.3	142.68	124.06	42.821	5.6027e-06	53.168	166.017	242.852	240.141	154.095	281.751	285.888	154.072	158.876	272.775	295.519	158.345	162.014	162.514	167.821	271.997	167.181	-8191	255	
29064.389	1	1	0	0	0.027057	0.25906	0.18688	0.40403	0.38154	0.13275	0.19644	0.12359	0.12048	0.096407	0.12213	0.2101	0.10998	0.23173	0.11664	0.29525	-2.5917	-2.1271	-2.8688	-2.6167	-2.3208	-2.8958	-2.7125	-2.6875	-3.0375	-2.1479	-2.9604	-2.8083	-2.3125	-3.2687	-2.4021	-2.3583	292.327	461.021	288.995	378.861	494.294	392.653	434.775	142.457	447.400	290.447	396.346	495.111	437.284	463.544	298.107	375.031	0.00072048	0.00039897	0.00019447	1351	4.701e-06	6.8265e-06	1354.3	366.23	5.9783e-06	4.8933e-06	417.86	139.53	122.49	41.679	6.5207e-06	51.512	0.00056014	0.00050174	0.00014017	1370.1	5.5309e-06	5.431e-06	1373.9	372.97	5.6055e-06	5.5137e-06	425.37	143.02	124.39	42.864	5.8885e-06	53.077	167.420	269.867	229.755	154.260	266.134	297.523	153.618	158.686	288.995	282.943	158.447	162.397	162.639	167.675	273.922	166.785	-8191	255	
29064.510	1	1	0	0	0.11048	0.15833	0.16949	0.22225	0.22994	0.14605	0.27044	0.27776	0.1127	0.33345	0.42429	0.12978	0.24065	0.28534	0.23032	0.39701	-2.5354	-2.0958	-2.7812	-2.9208	-2.1646	-3.1354	-2.8063	-2.5792	-2.9979	-2.1104	-2.95	-2.9354	-2.4479	-3.0854	-2.4521	-2.6042	154.619	152.736	321.572	384.529	414.671	412.435	444.512	400.391	216.640	428.238	413.068	187.149	264.901	487.114	467.111	464.899	0.00074777	0.00053083	0.00010082	1356	4.7865e-06	5.8599e-06	1360.8	364.94	4.8371e-06	6.005e-06	418.65	140.26	121.27	41.957	5.2042e-06	51.54	0.00058971	0.00054484	0.00015035	1374.2	6.0165e-06	5.9981e-06	1378.9	373.12	5.9982e-06	6.2189e-06	427.06	143.18	124.65	43.07	6.2279e-06	53.258	168.635	226.275	254.841	154.021	282.531	274.019	153.615	158.615	284.213	287.138	158.383	161.861	162.468	167.788	282.129	167.033	-8191	255	
29064.604	1	1	0	0	0.10553	0.14628	0.047724	0.2501	0.090261	0.28696	0.43488	0.35222	0.20971	0.073533	0.20874	0.14393	0.22904	0.17699	0.15682	0.082599	-2.5896	-2.2417	-2.6583	-2.9938	-2.2667	-2.8208	-2.8063	-2.4792	-3.1771	-2.2438	-2.7729	-3.2146	-2.1646	-2.9375	-2.5979	-2.4313	241.784	290.140	422.334	174.667	355.873	326.126	429.076	420.169	180.892	429.746	483.321	445.245	449.959	436.121	257.016	195.293	0.00071398	0.00050674	6.5224e-05	1359.3	4.4726e-06	6.8404e-06	1357.9	365.84	4.1334e-06	4.9132e-06	419.43	140.27	122	41.971	5.858e-06	51.717	0.00058549	0.00056486	0.0001546	1380.1	6.0589e-06	5.7445e-06	1377.6	373.67	5.8318e-06	5.8779e-06	427.02	143.12	124.56	43.042	5.9475e-06	53.314	169.188	212.646	222.689	153.960	281.626	286.508	153.672	158.708	282.484	293.625	158.369	161.995	162.591	167.478	269.589	166.856	-8191	255	
29064.699	1	1	0	0	0.0094002	0.24778	0.073125	0.19531	0.062485	0.090067	0.072807	0.066577	0.2644	0.13353	0.01586	0.19526	0.17972	0.3168	0.13828	0.27116	-2.6146	-2.2292	-2.6292	-2.975	-2.2396	-2.7854	-3	-2.4333	-2.7979	-2.3583	-2.5938	-3.225	-2.2875	-2.9792	-2.8438	-2.3937	246.945	479.331	486.270	372.626	422.434	290.715	373.621	452.444	173.799	261.315	248.919	412.081	152.879	481.325	496.811	447.858	0.00071023	0.00038446	0.00020123	1360.7	4.2822e-06	6.3012e-06	1356.6	366.14	5.5332e-06	6.5465e-06	419.87	139.94	122.12	41.819	5.2953e-06	51.615	0.00058898	0.00054171	0.00015164	1379	6.1577e-06	6.1561e-06	1378.9	373.64	5.9794e-06	6.1864e-06	427.74	143.24	124.57	42.987	5.9393e-06	53.288	169.663	243.842	215.607	154.095	261.181	272.319	153.733	158.702	274.835	288.881	158.260	162.135	162.583	167.963	305.312	166.677	-8191	255	
29064.797	1	1	0	0	0.24675	0.23961	0.23223	0.40855	0.18868	0.20154	0.10009	0.21404	0.17349	0.16932	0.26026	0.25568	0.066081	0.16631	0.0088763	0.12541	-2.7479	-2.3104	-2.1375	-2.9979	-2.0687	-2.7083	-3.175	-2.6167	-2.9083	-2.5833	-2.4875	-3.3583	-2.1917	-2.8479	-2.9396	-2.2562	465.603	376.812	268.542	448.853	206.539	179.262	153.726	494.599	294.324	325.745	216.041	445.078	397.210	288.037	374.670	405.747	0.00069263	0.00057862	0.00019629	1362.3	3.9282e-06	5.5104e-06	1355.2	366.41	5.1566e-06	5.8689e-06	417.83	140.52	122.07	41.936	4.1794e-06	51.951	0.00058849	0.00053906	0.00015239	1381.4	5.9138e-06	5.8829e-06	1379.5	373.71	5.8771e-06	6.0366e-06	426.43	143.29	124.39	43.061	5.8491e-06	53.311	168.045	230.465	244.657	154.181	270.316	286.260	153.959	158.594	278.664	281.758	158.084	162.054	162.371	167.578	293.883	166.717	-8191	255	
29064.893	1	1	0	0	0.33259	0.20199	0.1121	0.32056	0.081119	0.20294	0.040303	0.039989	0.057554	0.16723	0.08371	0.26168	0.28435	0.16043	0.30713	0.24248	-2.5812	-2.6771	-2.3042	-3.1229	-2.2625	-2.7125	-3.3271	-2.3896	-3.0062	-2.6125	-2.4375	-3.1229	-2.5271	-2.5979	-3.1125	-2.4417	361.572	358.472	150.772	457.821	220.132	282.072	386.377	409.787	154.591	442.535	328.137	183.974	453.358	221.896	224.575	394.685	0.00070001	0.00064359	0.00014401	1356	3.8964e-06	6.9421e-06	1352.5	366.19	5.288e-06	4.4244e-06	418.46	140.05	122.14	41.968	5.8982e-06	51.665	0.0005839	0.00055399	0.00014957	1378.2	6.0123e-06	5.8944e-06	1377.4	373.24	5.8411e-06	5.9277e-06	426.89	143.2	124.66	42.993	6.0177e-06	53.225	170.916	213.303	229.751	154.258	295.849	281.427	153.893	158.575	259.102	298.949	158.637	162.097	162.567	167.675	280.247	166.726	-8191	255	
29064.988	1	1	0	0	0.22966	0.13738	0.18588	0.30685	0.13946	0.060031	0.3304	0.32452	0.12765	0.18564	0.27964	0.3092	0.053323	0.17006	0.17877	0.15918	-2.5625	-2.6875	-2.1646	-2.9688	-2.3833	-2.4979	-3.2375	-2.4354	-2.8417	-2.7708	-2.3667	-3.2479	-2.6271	-2.4813	-2.8958	-2.4	486.465	346.800	478.590	471.902	252.392	466.160	475.791	474.243	410.039	172.215	459.568	157.149	479.910	460.712	208.586	185.775	0.00070086	0.00060465	0.00012621	1357.8	4.6922e-06	4.4485e-06	1356.2	365.57	5.1589e-06	7.5516e-06	418.19	140.46	122.59	41.754	3.4011e-06	51.653	0.000589	0.00053329	0.00014557	1378.9	6.0104e-06	5.9833e-06	1377.8	373.01	5.8374e-06	5.513e-06	426.77	143.41	124.64	42.942	5.7148e-06	53.253	172.324	238.467	231.509	154.263	274.874	287.782	153.672	158.564	259.212	298.601	158.122	162.157	162.376	167.604	277.920	166.748	-8191	255	
29065.086	1	1	0	0	0.12541	0.06955	0.21106	0.021401	0.076062	0.13194	0.10132	0.50158	0.27369	0.15729	0.27546	0.25372	0.31788	0.050719	0.20411	0.26378	-2.3604	-2.6667	-2.1875	-3.0312	-2.4333	-2.3375	-3.2333	-2.4896	-2.7417	-3.0625	-2.3312	-3.0375	-2.6854	-2.4854	-2.8042	-2.4125	444.460	276.080	419.830	159.904	240.538	290.622	374.815	416.144	464.973	163.861	421.176	180.936	451.306	350.731	468.781	451.066	0.00074541	0.00045912	0.00020423	1359.5	4.2124e-06	5.1233e-06	1355.8	366.16	5.7961e-06	7.4708e-06	418.7	139.6	122.23	41.661	4.095e-06	51.365	0.00058877	0.00052134	0.00015113	1380.1	5.837e-06	5.885e-06	1377.8	372.94	5.8836e-06	5.7521e-06	426.4	143	124.62	42.964	5.6526e-06	53.098	166.265	234.950	222.093	154.112	282.131	261.396	153.884	158.412	278.342	291.001	158.351	162.221	162.518	167.732	276.124	167.163	-8191	255	
29065.182	1	1	0	0	0.22038	0.096533	0.19439	0.10271	0.10481	0.049007	0.10211	0.2183	0.085469	0.10666	0.39033	0.17104	0.1819	0.24277	0.12333	0.21475	-2.3187	-2.9479	-2.1208	-3.0167	-2.6875	-2.1792	-3.3271	-2.3479	-2.375	-3.075	-2.3333	-2.8833	-2.8063	-2.3229	-2.9917	-2.4771	198.906	401.316	235.425	194.178	368.426	286.233	448.391	462.219	149.560	331.020	170.942	421.398	141.453	447.028	327.200	458.517	0.00070554	0.00040898	0.00019524	1357.8	3.2965e-06	8.2608e-06	1351.6	366.91	5.908e-06	5.1886e-06	417.86	140.25	121.66	41.688	5.4636e-06	51.595	0.00059218	0.00052706	0.00014902	1377.9	5.6402e-06	5.8149e-06	1376.9	373.4	5.7305e-06	5.685e-06	426.86	143.22	124.38	42.943	5.6954e-06	53.118	166.731	223.560	219.656	154.305	259.260	288.206	153.711	158.754	284.328	300.673	158.180	162.337	162.858	167.689	278.468	166.713	-8191	255	
29065.277	1	1	0	0	0.2886	0.14872	0.15612	0.083709	0.15301	0.046776	0.13706	0.34155	0.26855	0.24867	0.086626	0.10623	0.15235	0.20202	0.14733	0.38041	-1.9979	-2.8333	-2.2188	-2.9229	-2.9396	-2.2667	-3.1396	-2.5208	-2.475	-3.1063	-2.45	-2.925	-2.9292	-2.3271	-2.9708	-2.8542	184.548	318.051	231.003	455.699	168.924	363.148	491.667	470.863	451.073	452.176	410.322	158.454	472.262	148.654	361.025	443.900	0.00069686	0.00051589	0.00016957	1359.2	5.1634e-06	5.9963e-06	1351.2	366.03	4.5054e-06	7.602e-06	417.66	140.51	122.97	41.699	6.3178e-06	51.478	0.00057179	0.00052134	0.00015046	1378.6	5.5905e-06	5.9799e-06	1375.9	373.06	5.7906e-06	5.8172e-06	425.51	143.21	124.66	42.948	5.7389e-06	53.228	168.507	236.535	244.261	154.449	251.484	274.057	153.950	158.547	277.775	268.624	158.288	162.068	162.325	167.764	269.290	166.671	-8191	255	
29065.398	1	1	0	0	0.10259	0.092645	0.042214	0.12333	0.18571	0.1742	0.10277	0.26014	0.090112	0.14349	0.027245	0.10502	0.098111	0.44271	0.217	0.13833	-2.0583	-3.1625	-2.4313	-2.6083	-2.875	-2.2792	-3.2188	-2.7417	-2.4021	-3.1188	-2.5625	-2.7625	-3.1562	-2.1917	-2.8438	-2.8292	259.384	149.400	143.367	203.438	386.181	368.515	432.388	409.952	268.240	484.414	417.470	418.237	467.773	290.413	369.597	436.172	0.00069708	0.00052341	0.00016474	1356.3	5.1473e-06	4.7799e-06	1357.1	366.79	3.262e-06	4.1531e-06	418.93	140.56	122.09	41.682	6.3445e-06	51.376	0.00057832	0.00054165	0.00014787	1376.2	5.7388e-06	6.0116e-06	1379.3	373.56	5.8399e-06	5.8255e-06	426.78	143.24	124.37	42.942	5.7777e-06	53.145	166.997	219.604	229.401	154.029	273.018	295.575	153.856	158.597	270.908	309.763	157.979	162.128	162.547	167.820	285.371	166.859	-8191	255	
29065.492	1	1	0	0	0.208	0.13262	0.026087	0.32039	0.20528	0.054879	0.075736	0.15366	0.1577	0.11915	0.025284	0.20507	0.16623	0.0095459	0.2379	0.18169	-1.8667	-2.925	-2.3167	-2.5833	-2.9604	-2.4313	-3.0958	-2.8604	-2.0521	-2.9437	-2.5896	-2.4625	-2.8854	-2.3979	-2.9229	-2.7812	268.213	140.767	164.167	426.607	228.919	428.325	472.188	494.977	338.339	349.894	402.305	349.326	189.723	312.243	498.887	323.001	0.00067755	0.00063127	0.00011992	1358.8	3.9233e-06	3.5718e-06	1353.3	366.86	6.6204e-06	5.7493e-06	417.38	140.29	122.31	41.914	4.2337e-06	51.252	0.00058167	0.00053747	0.00015141	1377.6	5.7069e-06	5.8489e-06	1377.2	373.46	5.9483e-06	5.8118e-06	427.04	143.23	124.6	42.962	5.912e-06	53.098	167.788	228.441	249.658	154.140	285.864	275.509	153.845	158.564	276.282	306.643	157.865	162.178	162.385	167.647	283.820	166.584	-8191	255	
29065.590	1	1	0	0	0.24322	0.19511	0.29738	0.10252	0.16596	0.14139	0.34792	0.40093	0.14228	0.31986	0.12936	0.30412	0.21242	0.048193	0.23166	0.13531	-1.7396	-3.0812	-2.3604	-2.4	-2.9417	-2.3104	-2.7271	-3.1437	-2.2833	-3.0125	-2.825	-2.3063	-3.1875	-2.3875	-2.6542	-3.1813	167.209	291.124	420.600	449.915	266.065	338.756	485.845	140.500	172.257	245.622	497.262	366.902	162.344	217.154	428.294	177.053	0.0006516	0.00045848	0.00011809	1358.2	5.314e-06	6.4489e-06	1359.7	367.26	5.4296e-06	4.3044e-06	419.03	140.08	122.04	41.726	3.9672e-06	51.548	0.00058475	0.0005335	0.00015464	1379.5	5.8453e-06	5.9601e-06	1379	373.46	6.1756e-06	5.7863e-06	427.17	143.15	124.68	42.944	5.8437e-06	53.137	167.483	227.159	241.707	154.314	280.396	282.213	153.678	158.464	276.266	289.741	158.093	161.993	162.395	167.742	296.453	166.820	-8191	255	
29065.686	1	1	0	0	0.36756	0.30591	0.16045	0.07279	0.2375	0.040359	0.19472	0.20021	0.10465	0.14164	0.20003	0.044502	0.1076	0.19937	0.073952	0.23997	-1.7292	-2.9167	-2.5417	-2.3812	-3.0271	-2.3708	-2.7917	-3.1417	-2.0875	-3.0521	-2.625	-2.3854	-2.9979	-2.5667	-2.5271	-3.0917	274.844	225.255	369.509	159.917	253.815	392.589	381.847	468.112	251.471	250.350	183.237	235.240	197.670	485.525	232.001	494.244	0.00069602	0.00038993	0.00014566	1356.7	3.6039e-06	3.0785e-06	1360.1	365.51	6.3909e-06	4.2967e-06	419.01	140.51	122.53	41.901	4.4044e-06	51.369	0.00059394	0.00054096	0.00014796	1376.2	5.8644e-06	5.8085e-06	1380	373.28	6.0321e-06	5.7398e-06	426.57	143.36	124.65	43.018	5.7167e-06	53.143	168.443	237.900	245.300	154.084	252.175	308.181	153.826	158.539	280.584	295.190	158.246	162.038	162.443	167.684	296.431	166.773	-8191	255	
29065.781	1	1	0	0	0.11254	0.13322	0.30874	0.16124	0.13944	0.11013	0.16761	0.10389	0.13997	0.065527	0.15179	0.13791	0.18438	0.21108	0.25433	0.058377	-1.675	-2.8167	-2.8729	-2.3542	-3.0604	-2.5542	-2.6375	-3.05	-2.2021	-2.6146	-2.9458	-2.4562	-3.0917	-2.6188	-2.3604	-3.2	320.861	314.552	462.319	174.064	165.785	318.452	380.213	393.025	364.062	370.188	147.962	142.656	497.720	484.935	305.266	423.717	0.00063549	0.00064065	0.00016803	1358.3	4.9128e-06	5.2281e-06	1353.4	365.25	6.3946e-06	5.5061e-06	418.61	140.6	121.01	41.66	5.4686e-06	51.692	0.00056673	0.00055113	0.00014204	1379.9	5.9922e-06	5.9574e-06	1377.6	373.4	6.0715e-06	5.6335e-06	427.38	143.34	124.37	42.914	5.9047e-06	53.249	168.258	210.672	231.293	154.176	284.185	313.498	153.894	158.558	270.319	286.339	158.177	162.066	162.358	167.877	265.282	166.738	-8191	255	
29065.877	1	1	0	0	0.050838	0.0923	0.3237	0.23467	0.15517	0.32837	0.20251	0.25957	0.11287	0.04158	0.19106	0.15286	0.15097	0.10403	0.11484	0.20971	-1.825	-2.7229	-2.925	-2.3563	-2.9062	-2.6312	-2.4938	-3.3646	-2.3937	-2.5646	-3.1104	-2.3021	-2.9542	-2.7146	-2.1937	-3.1667	433.002	254.370	209.456	403.604	183.808	437.966	460.241	368.041	248.880	228.834	436.309	448.275	161.603	209.595	425.630	199.167	0.00067849	0.00057502	0.00014457	1359.1	4.2513e-06	5.0558e-06	1357.4	367.11	5.0831e-06	7.8146e-06	418.23	140.2	122.96	41.841	4.3155e-06	51.379	0.00057204	0.00054072	0.00014528	1378.1	5.9237e-06	5.9072e-06	1379.3	373.82	5.8232e-06	5.7942e-06	426.02	143.34	125.05	42.924	5.9707e-06	53.149	168.305	218.595	240.348	153.952	304.569	318.694	153.838	158.562	252.293	285.714	158.206	162.096	162.443	167.586	287.129	166.966	-8191	255	
29065.996	1	1	0	0	0.28348	0.21036	0.15193	0.062605	0.033505	0.12982	0.31333	0.34797	0.21184	0.24911	0.16938	0.1298	0.11812	0.24151	0.050761	0.048856	-1.7812	-2.5417	-3.0979	-2.4	-2.9604	-2.6333	-2.5667	-3.1375	-2.3063	-2.5062	-3.0938	-2.3583	-2.9667	-2.9333	-2.2667	-3.0833	485.352	329.402	253.717	439.784	265.731	280.182	377.280	461.439	440.660	264.832	407.696	169.869	424.386	478.459	450.681	310.476	0.00071557	0.00062377	0.00016401	1356.5	5.7449e-06	3.5603e-06	1362.5	366.59	4.2919e-06	5.7632e-06	415.85	140.15	122.5	41.786	3.049e-06	51.612	0.0005711	0.00054072	0.00014754	1378.1	5.8038e-06	5.7075e-06	1379.8	373.55	5.8556e-06	5.8055e-06	426.3	143.11	124.61	42.92	5.6634e-06	53.15	168.253	207.674	233.776	154.196	272.751	295.257	153.881	158.655	250.829	292.908	158.227	162.097	162.375	167.515	270.763	166.704	-8191	255	
29066.094	1	1	0	0	0.18965	0.036868	0.095122	0.023948	0.10607	0.099523	0.43958	0.26083	0.10234	0.23994	0.28591	0.22553	0.094692	0.32455	0.11637	0.16695	-2.0583	-2.3417	-3.0667	-2.3083	-2.7146	-2.9375	-2.4042	-3.0187	-2.7167	-2.2771	-3.1521	-2.5104	-2.8292	-2.9854	-2.3438	-3.0271	167.381	274.391	423.571	244.550	189.766	378.173	437.746	498.038	472.664	434.622	143.926	332.839	322.827	446.251	285.353	291.470	0.00070446	0.00068562	0.00017162	1357	5.1412e-06	4.9845e-06	1356	366.5	5.9104e-06	6.3453e-06	418.58	140.11	122.1	41.686	3.3546e-06	51.425	0.00058294	0.00053031	0.00014507	1378.3	5.6884e-06	5.6991e-06	1378.2	374.1	5.7539e-06	5.7932e-06	426.78	143.24	124.69	42.926	5.8167e-06	53.22	166.970	239.083	242.776	154.317	269.309	274.679	153.931	158.777	258.838	288.599	158.261	162.075	162.632	167.765	311.217	166.674	-8191	255	
29066.189	1	1	0	0	0.26593	0.16784	0.12288	0.085237	0.10376	0.089846	0.11272	0.33761	0.23984	0.16045	0.28153	0.13705	0.083776	0.24762	0.091416	0.039101	-2.1813	-2.3271	-2.9479	-2.5292	-2.5167	-2.9479	-2.4479	-3.0083	-2.8292	-2.1583	-3.2854	-2.4354	-2.6708	-2.9667	-2.2104	-2.9646	161.006	304.413	475.633	156.228	318.499	333.521	475.378	452.444	400.981	484.895	141.792	466.972	281.002	491.019	333.579	453.483	0.00068198	0.0004993	0.00014016	1357.5	5.8596e-06	4.6287e-06	1353.9	366.81	5.4901e-06	5.6927e-06	419.52	140.03	122.53	42.106	5.6209e-06	51.602	0.0005662	0.00054538	0.00014959	1378.4	5.895e-06	5.7317e-06	1377	373.49	5.8583e-06	5.8696e-06	427.16	143.09	124.73	42.994	5.8345e-06	53.168	167.922	242.067	224.948	154.165	269.046	276.613	153.915	159.022	269.684	299.259	158.279	162.158	162.693	167.876	287.699	166.988	-8191	255	
29066.285	1	1	0	0	0.15087	0.076971	0.014727	0.094001	0.23409	0.371	0.33946	0.24392	0.2402	0.15933	0.096757	0.082989	0.38798	0.22761	0.2162	0.19557	-2.425	-2.1312	-2.8729	-2.4021	-2.5021	-3.0062	-2.3563	-2.9104	-2.8521	-2.075	-3.1708	-2.6833	-2.3729	-3.1813	-2.1375	-2.8042	142.696	405.634	390.836	355.549	299.812	209.404	407.931	396.723	189.913	466.308	155.143	496.625	492.390	357.496	422.398	392.086	0.00068812	0.00024344	0.00012013	1358.7	5.7788e-06	6.2667e-06	1356.2	365.63	2.8735e-06	3.9901e-06	420.08	140.63	121.83	41.874	5.7449e-06	51.703	0.00058128	0.00054232	0.00014891	1378.3	5.7432e-06	5.7644e-06	1377.9	373.69	5.9335e-06	5.8288e-06	427.52	143.25	124.62	43.011	6.0615e-06	53.313	168.839	273.393	242.830	154.228	284.576	294.677	154.007	158.714	266.332	282.899	158.216	162.098	162.597	167.927	303.229	167.076	-8191	255	
#DATA ENDS
