BOXY.EXE: ISS Imagent and Oximeter Data Acquisition Program Version 0.80
Ascii Record File

#ACQ INFORMATION
2  Detector Channels 
16  External MUX Channels 
1  Auxiliary Channels 
5000  Waveform (CCF) Frequency (Hz)
1  Waveforms Skipped 
30  Waveforms Averaged 
1  Cycles Averaged 
16  Acquisitions per Waveform 
10.0806  Updata Rate (Hz) 

#FILE INFORMATION
TRUE -- External MUX Channel results are PARSED.
FALSE -- AC DC and Phase are NOT grouped.
TRUE -- Companion Program Settings File CREATED.
FALSE -- AC data not excluded
FALSE -- DC data not excluded
FALSE -- Phase data not excluded
FALSE -- Auxillary Chn. data not excluded
Tab delimiters

#CALIBRATION STATE
TRUE -- Waveform Calibration Values APPLIED.


#AUX CALIBRATION VALUES
Val Type	aux-1	

Term	1.0000e+00	
Factor	0.0000e+00	


#WF CALIBRATION VALUES
A = Detector Channel
Val Type	A-AC1	A-AC2	A-AC3	A-AC4	A-AC5	A-AC6	A-AC7	A-AC8	A-AC9	A-AC10	A-AC11	A-AC12	A-AC13	A-AC14	A-AC15	A-AC16	A-DC1	A-DC2	A-DC3	A-DC4	A-DC5	A-DC6	A-DC7	A-DC8	A-DC9	A-DC10	A-DC11	A-DC12	A-DC13	A-DC14	A-DC15	A-DC16	A-Ph1	A-Ph2	A-Ph3	A-Ph4	A-Ph5	A-Ph6	A-Ph7	A-Ph8	A-Ph9	A-Ph10	A-Ph11	A-Ph12	A-Ph13	A-Ph14	A-Ph15	A-Ph16	

Term	0.00000e+00	0.00000e+00	0.00000e+00	0.00000e+00	0.00000e+00	0.00000e+00	0.00000e+00	0.00000e+00	0.00000e+00	0.00000e+00	0.00000e+00	0.00000e+00	0.00000e+00	0.00000e+00	0.00000e+00	0.00000e+00	0.00000e+00	0.00000e+00	0.00000e+00	0.00000e+00	0.00000e+00	0.00000e+00	0.00000e+00	0.00000e+00	0.00000e+00	0.00000e+00	0.00000e+00	0.00000e+00	0.00000e+00	0.00000e+00	0.00000e+00	0.00000e+00	0.00000e+00	0.00000e+00	0.00000e+00	0.00000e+00	0.00000e+00	0.00000e+00	0.00000e+00	0.00000e+00	0.00000e+00	0.00000e+00	0.00000e+00	0.00000e+00	0.00000e+00	0.00000e+00	0.00000e+00	0.00000e+00	
Factor	1.00000e+00	1.00000e+00	1.00000e+00	1.00000e+00	1.00000e+00	1.00000e+00	1.00000e+00	1.00000e+00	1.00000e+00	1.00000e+00	1.00000e+00	1.00000e+00	1.00000e+00	1.00000e+00	1.00000e+00	1.00000e+00	1.00000e+00	1.00000e+00	1.00000e+00	1.00000e+00	1.00000e+00	1.00000e+00	1.00000e+00	1.00000e+00	1.00000e+00	1.00000e+00	1.00000e+00	1.00000e+00	1.00000e+00	1.00000e+00	1.00000e+00	1.00000e+00	X	X	X	X	X	X	X	X	X	X	X	X	X	X	X	X	

B = Detector Channel
Val Type	B-AC1	B-AC2	B-AC3	B-AC4	B-AC5	B-AC6	B-AC7	B-AC8	B-AC9	B-AC10	B-AC11	B-AC12	B-AC13	B-AC14	B-AC15	B-AC16	B-DC1	B-DC2	B-DC3	B-DC4	B-DC5	B-DC6	B-DC7	B-DC8	B-DC9	B-DC10	B-DC11	B-DC12	B-DC13	B-DC14	B-DC15	B-DC16	B-Ph1	B-Ph2	B-Ph3	B-Ph4	B-Ph5	B-Ph6	B-Ph7	B-Ph8	B-Ph9	B-Ph10	B-Ph11	B-Ph12	B-Ph13	B-Ph14	B-Ph15	B-Ph16	

Term	0.00000e+00	0.00000e+00	0.00000e+00	0.00000e+00	0.00000e+00	0.00000e+00	0.00000e+00	0.00000e+00	0.00000e+00	0.00000e+00	0.00000e+00	0.00000e+00	0.00000e+00	0.00000e+00	0.00000e+00	0.00000e+00	0.00000e+00	0.00000e+00	0.00000e+00	0.00000e+00	0.00000e+00	0.00000e+00	0.00000e+00	0.00000e+00	0.00000e+00	0.00000e+00	0.00000e+00	0.00000e+00	0.00000e+00	0.00000e+00	0.00000e+00	0.00000e+00	-1.88609e+02	-1.27598e+02	-1.28064e+02	-1.86550e+02	-7.56069e+01	-6.93013e+01	-1.58582e+02	-1.62015e+02	-8.04884e+01	-6.78725e+01	-1.72035e+02	-1.71270e+02	-1.83419e+02	-1.77402e+02	-7.72896e+01	-1.49868e+02	
Factor	3.27749e-05	1.39329e-04	3.88666e-05	2.88475e-01	1.43949e-06	1.41513e-06	1.57872e-01	4.58217e-02	1.50912e-06	1.47195e-06	7.41059e-02	2.49279e-02	3.53259e-02	7.84877e-03	1.37570e-06	1.11498e-02	1.92326e-05	3.85017e-05	1.09289e-05	1.54926e-01	3.98288e-07	4.44642e-07	7.99822e-02	2.48168e-02	3.58251e-07	4.44534e-07	3.89740e-02	1.31152e-02	1.93336e-02	4.30545e-03	3.87079e-07	5.92357e-03	X	X	X	X	X	X	X	X	X	X	X	X	X	X	X	X	



#DISTANCE SETTINGS
A = Detector Channel
A-1	A-2	A-3	A-4	A-5	A-6	A-7	A-8	A-9	A-10	A-11	A-12	A-13	A-14	A-15	A-16	

2.5000e+00	3.0000e+00	2.5000e+00	3.0000e+00	2.0000e+00	3.0000e+00	1.5000e+00	3.0000e+00	3.0000e+00	3.0000e+00	3.0000e+00	3.0000e+00	3.0000e+00	3.0000e+00	1.5000e+00	3.0000e+00	

B = Detector Channel
B-1	B-2	B-3	B-4	B-5	B-6	B-7	B-8	B-9	B-10	B-11	B-12	B-13	B-14	B-15	B-16	

1.0000e+01	1.0000e+01	1.0000e+01	1.4400e+00	1.0000e+01	1.0000e+01	1.5100e+00	1.9400e+00	1.0000e+01	1.0000e+01	1.9900e+00	2.4900e+00	2.4100e+00	2.9000e+00	1.0000e+01	2.9800e+00	




#DATA BEGINS
time	group	step	mark	flag	A-AC1	A-AC2	A-AC3	A-AC4	A-AC5	A-AC6	A-AC7	A-AC8	A-AC9	A-AC10	A-AC11	A-AC12	A-AC13	A-AC14	A-AC15	A-AC16	A-DC1	A-DC2	A-DC3	A-DC4	A-DC5	A-DC6	A-DC7	A-DC8	A-DC9	A-DC10	A-DC11	A-DC12	A-DC13	A-DC14	A-DC15	A-DC16	A-Ph1	A-Ph2	A-Ph3	A-Ph4	A-Ph5	A-Ph6	A-Ph7	A-Ph8	A-Ph9	A-Ph10	A-Ph11	A-Ph12	A-Ph13	A-Ph14	A-Ph15	A-Ph16	B-AC1	B-AC2	B-AC3	B-AC4	B-AC5	B-AC6	B-AC7	B-AC8	B-AC9	B-AC10	B-AC11	B-AC12	B-AC13	B-AC14	B-AC15	B-AC16	B-DC1	B-DC2	B-DC3	B-DC4	B-DC5	B-DC6	B-DC7	B-DC8	B-DC9	B-DC10	B-DC11	B-DC12	B-DC13	B-DC14	B-DC15	B-DC16	B-Ph1	B-Ph2	B-Ph3	B-Ph4	B-Ph5	B-Ph6	B-Ph7	B-Ph8	B-Ph9	B-Ph10	B-Ph11	B-Ph12	B-Ph13	B-Ph14	B-Ph15	B-Ph16	aux-1	digaux	

28949.693	1	1	0	256	0.14803	0.1337	0.087079	0.038964	0.018531	0.098533	0.14885	0.2985	0.17174	0.15205	0.047187	0.092406	0.12307	0.023319	0.146	0.49002	-2.5958	-2.3688	-3.0792	-2.8063	-2.3812	-3.2708	-2.6604	-3.0854	-2.95	-2.3667	-3.0938	-2.6646	-2.5687	-3.0187	-2.3292	-2.7438	100.181	236.918	90.311	192.090	189.234	156.545	163.671	196.171	-64.861	-101.609	60.822	241.088	87.373	247.770	48.026	231.652	0.00015711	0.00026285	5.5776e-05	985.72	2.9294e-06	2.5208e-06	1072	197.76	1.3901e-06	2.3208e-06	253.24	70.406	55.19	15.21	3.1596e-07	21.721	0.00056031	0.00090559	0.00024936	972.99	9.4353e-06	9.331e-06	1059.1	197.41	8.2248e-06	1.029e-05	251.97	71.074	55.471	15.552	8.8101e-06	22.135	161.844	-32.516	39.999	-97.375	12.961	48.012	-97.062	-89.472	64.983	85.998	-90.035	-83.593	-83.362	-75.440	110.114	-75.961	-8191	255	
28949.789	1	1	0	0	0.21846	0.16999	0.061755	0.26324	0.071697	0.12935	0.016125	0.14066	0.21732	0.16745	0.14517	0.041701	0.11248	0.054453	0.24729	0.29111	-2.6375	-2.2167	-3.0938	-2.5687	-2.3625	-3.1229	-2.5667	-2.7542	-2.9646	-2.2833	-2.9146	-2.7021	-2.2	-2.9458	-2.4542	-2.4875	34.282	-11.084	229.564	156.885	184.198	143.276	-84.757	125.985	145.277	211.719	114.103	210.879	176.639	-34.340	51.870	-84.526	0.0001508	0.00032152	7.7275e-05	981.96	1.757e-06	1.1302e-06	1069.4	198.34	2.5149e-06	2.5674e-06	252.32	70.227	55.123	15.242	1.9682e-06	21.666	0.00056888	0.00082707	0.00024554	969.59	9.3913e-06	9.2347e-06	1056.9	197.52	7.9159e-06	9.9224e-06	251.43	70.912	55.379	15.526	8.552e-06	22.022	147.076	-20.670	-12.447	-97.367	52.012	63.683	-97.196	-89.659	23.195	94.487	-90.258	-83.719	-83.303	-75.296	65.105	-76.627	-8191	255	
28949.910	1	1	0	0	0.15929	0.24561	0.11119	0.19083	0.18279	0.15442	0.17809	0.16132	0.13203	0.21532	0.38657	0.40351	0.27146	0.10071	0.13655	0.16682	-2.5292	-2.3688	-2.8	-2.7833	-2.125	-3.0438	-2.6458	-2.4354	-2.9396	-2.3063	-2.7667	-2.9896	-2.4688	-3.1021	-2.3792	-2.3125	28.539	-3.683	-82.380	-24.872	186.783	-88.288	-95.758	218.838	162.290	71.180	222.680	88.586	169.281	226.758	203.317	113.814	0.00015695	0.000338	8.0235e-05	980.27	1.8477e-06	2.4142e-06	1064.7	196.77	2.3869e-06	1.2623e-06	251.31	69.951	54.383	15.171	1.4593e-06	21.556	0.00051439	0.00082618	0.00021801	963.48	8.8071e-06	9.0568e-06	1052.4	196.26	7.4695e-06	8.9342e-06	250.51	70.441	54.877	15.426	7.4488e-06	21.974	134.951	-40.997	-12.969	-97.421	-12.731	25.814	-96.932	-89.537	27.502	81.191	-89.678	-83.536	-83.352	-75.445	49.600	-75.683	-8191	255	
28950.008	1	1	0	0	0.19561	0.097755	0.15588	0.17888	0.05085	0.18019	0.16126	0.30005	0.037575	0.079084	0.20118	0.11268	0.15937	0.11327	0.046623	0.26132	-2.6625	-2.3187	-2.6875	-2.8563	-2.0563	-3.0563	-2.8917	-2.4437	-2.9146	-2.4375	-2.8563	-2.9833	-2.2875	-2.9229	-2.7479	-2.1854	-11.299	103.768	7.601	154.191	180.969	95.580	181.137	138.184	11.518	84.913	40.086	-31.499	220.458	-97.655	139.491	31.713	0.00014093	0.00030391	0.00012617	971.13	2.2913e-06	3.5055e-06	1058.4	196.92	1.7728e-06	2.4901e-06	250.43	69.687	54.033	15.264	2.5471e-06	21.447	0.00046595	0.00076193	0.00020357	958.65	8.1217e-06	7.9702e-06	1047.9	195.97	7.1673e-06	8.0025e-06	248.96	70.39	54.641	15.406	7.5835e-06	21.889	150.587	-32.447	-12.380	-97.274	17.449	68.413	-96.933	-89.222	17.464	49.513	-89.897	-83.310	-82.926	-75.314	41.633	-75.416	-8191	255	
28950.104	1	1	0	0	0.19227	0.15964	0.2489	0.23054	0.19921	0.042467	0.35148	0.10158	0.12511	0.073954	0.1507	0.29182	0.26746	0.28343	0.054622	0.22479	-2.6688	-2.4208	-2.6813	-2.7979	-2.0938	-2.8125	-2.75	-2.3417	-3.0479	-2.3646	-2.6188	-2.9104	-2.225	-2.8812	-2.6771	-2.325	91.345	-78.761	224.539	-102.877	-48.936	145.826	-103.363	178.228	-13.525	66.644	146.093	-51.735	9.569	93.878	27.092	204.237	0.00014503	0.00041386	3.7622e-05	968.83	1.3594e-06	2.0485e-06	1055.1	196.45	1.2335e-06	2.6284e-06	249.6	69.267	54.295	15.071	2.3786e-06	21.269	0.00045721	0.00071806	0.00020813	955.68	7.6787e-06	7.8859e-06	1044.8	195.33	6.8157e-06	8.2702e-06	248.23	69.933	54.463	15.362	7.4843e-06	21.795	132.526	-22.660	-76.588	-97.479	24.213	42.202	-97.338	-89.459	-6.303	66.980	-89.780	-83.444	-83.258	-75.418	21.156	-75.984	-8191	255	
28950.197	1	1	0	0	0.18508	0.12772	0.085137	0.21099	0.13536	0.16311	0.060458	0.34667	0.21179	0.090044	0.15942	0.17943	0.16508	0.24022	0.031071	0.18305	-2.5396	-2.3937	-2.3333	-3.2521	-2.6042	-2.8729	-3.0854	-2.3771	-2.9958	-2.5646	-2.1833	-3.0938	-2.2021	-2.675	-3.0521	-2.2208	-98.593	157.232	108.484	137.933	214.714	172.257	-32.756	170.506	227.446	29.121	225.363	236.341	-83.806	243.246	178.438	37.599	0.00014241	0.00019497	4.1608e-05	968.56	2.3945e-06	2.4589e-06	1051.8	195.1	7.4371e-07	2.6719e-06	248.45	69.172	53.997	15.201	1.9837e-06	21.44	0.00043578	0.0007053	0.00019736	952.41	7.6961e-06	7.8183e-06	1038.9	194.41	6.8232e-06	8.1211e-06	247.99	69.991	54.596	15.37	7.2376e-06	21.778	138.092	-29.843	-6.816	-96.972	14.905	66.211	-97.310	-89.657	-24.236	37.289	-89.796	-83.083	-83.460	-75.290	-0.646	-76.359	-8191	255	
28950.295	1	1	0	0	0.31341	0.23787	0.15086	0.039961	0.021579	0.067479	0.29908	0.1166	0.38253	0.26056	0.088299	0.21363	0.14867	0.015373	0.27558	0.29357	-2.5354	-2.65	-2.3146	-3.0146	-2.2167	-2.5125	-2.975	-2.1188	-2.9479	-2.7229	-2.325	-2.9792	-2.4792	-2.6208	-2.8875	-2.0875	-68.146	-27.773	-55.509	245.455	-45.153	152.761	174.799	148.574	149.798	-66.750	156.589	-85.798	150.586	192.781	108.556	203.722	0.00014463	0.00028225	6.2406e-05	962.71	1.7725e-06	4.6861e-06	1052.1	194.8	3.4204e-06	1.2878e-06	248.55	68.809	54.046	15.125	2.7532e-06	21.452	0.00045221	0.00071597	0.00021728	949.32	8.2255e-06	9.0605e-06	1039.9	194.43	8.439e-06	1.0685e-05	247.82	69.762	54.647	15.321	1.04e-05	21.86	159.653	5.187	-0.309	-97.048	-3.501	14.169	-97.003	-89.558	-3.549	53.457	-90.165	-83.449	-83.561	-75.201	-16.825	-75.824	-8191	255	
28950.391	1	1	0	0	0.028563	0.12757	0.020477	0.14526	0.2052	0.20414	0.14542	0.051878	0.082273	0.14465	0.060511	0.25917	0.25628	0.16075	0.17027	0.038503	-2.3292	-2.8292	-2.2104	-2.9333	-2.4313	-2.6542	-3.3417	-2.2792	-2.8333	-2.7812	-2.3396	-2.9542	-2.5958	-2.3875	-2.9083	-2.4292	-1.480	-66.306	-35.321	162.613	0.140	65.117	193.985	155.365	59.519	41.327	105.016	125.164	139.548	127.709	88.488	165.771	0.00011767	0.0002271	5.6371e-05	967.99	1.6413e-06	1.1603e-06	1050.1	195.53	3.4872e-06	2.0905e-06	248.18	69.382	54.523	15.004	3.3755e-06	21.466	0.00062983	0.0010766	0.00030489	951.45	1.1283e-05	1.2024e-05	1039.5	194.57	1.0063e-05	1.1091e-05	247.91	70.085	54.553	15.269	8.9407e-06	21.814	124.226	-33.558	-32.106	-97.444	71.376	19.577	-97.117	-89.477	-20.092	4.419	-89.986	-83.407	-82.875	-75.472	40.478	-76.157	-8191	255	
28950.512	1	1	0	0	0.13441	0.084261	0.16993	0.20447	0.11959	0.23483	0.22922	0.13453	0.2117	0.019561	0.21384	0.17044	0.1952	0.34036	0.21481	0.29107	-2.1813	-2.7771	-2.2667	-2.8792	-2.5854	-2.1667	-3.0708	-2.5146	-2.625	-2.7604	-2.1021	-2.9771	-2.5917	-2.3396	-2.8812	-2.3729	51.088	224.682	250.982	173.192	216.629	113.924	249.708	109.642	63.317	-60.001	-7.277	197.118	155.940	212.189	-31.081	172.535	0.00011583	0.00012827	0.00011462	959.46	2.2049e-06	3.1939e-06	1051	195.63	2.8281e-06	3.4474e-06	248.5	69.226	54.158	15.088	1.4899e-06	21.429	0.0005285	0.00074862	0.00022304	948.22	8.3242e-06	8.9494e-06	1035.8	194.33	7.8994e-06	8.8036e-06	247.08	69.763	54.352	15.306	8.1287e-06	21.813	126.191	-19.370	32.106	-97.043	36.577	67.567	-97.080	-89.681	18.246	62.197	-89.962	-82.722	-83.198	-74.966	21.345	-75.547	-8191	255	
28950.607	1	1	0	0	0.029524	0.14981	0.32664	0.22351	0.15898	0.2108	0.17591	0.11427	0.25112	0.22359	0.10171	0.12462	0.20254	0.22787	0.11555	0.11908	-2.1896	-2.9437	-2.3375	-2.8312	-2.675	-2.275	-3.1562	-2.4604	-2.4833	-2.9979	-2.0646	-3.0125	-2.7562	-2.4188	-3.1917	-2.4479	52.314	0.131	111.010	131.418	14.440	-10.808	175.558	-26.495	211.021	-44.039	186.636	210.406	215.220	-42.444	-95.435	119.076	0.00012355	0.00026727	8.38e-05	972.07	3.2616e-06	1.1995e-06	1053.2	195.96	4.1903e-06	2.6479e-06	247.48	69.018	54.337	15.042	1.9806e-06	21.563	0.0005448	0.00080805	0.00024479	952.83	8.7358e-06	9.5246e-06	1039.6	194.28	8.5144e-06	9.2787e-06	247.36	69.743	54.354	15.291	8.4923e-06	21.84	147.542	-9.872	3.646	-96.645	32.359	103.077	-96.969	-89.621	15.027	64.565	-89.593	-83.137	-83.316	-75.297	34.716	-76.097	-8191	255	
28950.703	1	1	0	0	0.20566	0.16315	0.077251	0.38424	0.083543	0.17481	0.17667	0.31546	0.18842	0.083233	0.080764	0.10699	0.14786	0.17746	0.12814	0.23822	-1.9396	-3.0938	-2.3833	-2.9833	-2.7938	-2.2562	-3.1312	-2.6354	-2.3146	-3.0958	-2.3396	-3.0354	-2.8833	-2.3833	-2.9417	-2.6354	151.907	156.251	56.460	242.832	133.895	-105.303	250.054	219.607	143.312	94.709	58.291	164.869	155.596	-18.560	-13.239	39.696	0.00020633	0.00023827	2.2904e-05	970.95	1.623e-06	2.046e-06	1052	195.38	1.9071e-06	3.7487e-06	247.85	68.985	53.682	15.165	3.952e-06	21.274	0.00055354	0.00088482	0.00024945	951.08	9.5913e-06	9.9989e-06	1039.6	193.98	8.4473e-06	9.6584e-06	247.27	69.719	54.254	15.345	8.4988e-06	21.752	153.966	-34.327	17.157	-96.947	-8.520	46.751	-96.991	-89.604	-6.332	49.972	-90.004	-83.073	-82.760	-75.261	69.768	-75.969	-8191	255	
28950.799	1	1	0	0	0.11887	0.27397	0.058133	0.22507	0.25645	0.09834	0.31664	0.16954	0.17067	0.29483	0.16019	0.18769	0.29528	0.085477	0.13692	0.14228	-1.9208	-3.1729	-2.1979	-2.6542	-2.8896	-2.3958	-3.1667	-2.8542	-2.3104	-2.9083	-2.4896	-2.4896	-3	-2.2604	-2.9521	-2.6625	15.325	0.356	101.135	-88.020	92.753	-21.993	242.051	166.332	249.293	148.110	88.126	102.654	-29.374	-58.695	-30.912	208.802	0.00016941	0.00020001	8.4887e-05	963.57	4.1281e-06	4.0841e-06	1047.8	194.49	1.1165e-06	1.9589e-06	246.81	69.18	54.036	15.078	1.2375e-06	21.367	0.00055666	0.00081567	0.00024303	948.37	8.9275e-06	9.8803e-06	1035.6	194.17	8.6413e-06	9.9094e-06	246.98	69.916	54.371	15.343	9.0496e-06	21.791	143.897	-16.952	-6.305	-97.096	13.346	38.509	-96.585	-89.653	-13.143	26.400	-89.805	-82.926	-83.288	-75.114	41.840	-75.920	-8191	255	
28950.895	1	1	0	0	0.32767	0.15218	0.10927	0.20767	0.080091	0.030566	0.085607	0.059788	0.11337	0.087842	0.30796	0.1174	0.087157	0.17866	0.20092	0.14301	-1.9083	-3.0667	-2.6021	-2.6958	-3.0938	-2.1562	-2.9542	-2.9437	-2.2479	-3.0521	-2.5542	-2.4208	-3.0021	-2.3771	-2.6542	-2.9417	73.013	90.672	36.495	-70.363	151.920	50.981	231.648	121.765	84.386	221.845	190.794	-91.586	199.238	168.589	217.482	61.078	0.00018132	0.00041611	2.8948e-05	969.29	2.2649e-06	1.6942e-06	1053.3	195.99	7.9646e-07	1.8403e-06	246.65	69.008	53.65	15.079	4.7304e-07	21.422	0.00057858	0.00087912	0.00025508	952.81	9.0453e-06	1.0017e-05	1040.6	194.38	8.8145e-06	9.9288e-06	246.7	69.853	54.513	15.274	8.9746e-06	21.86	149.946	8.557	-14.911	-97.001	23.954	31.824	-96.919	-89.601	70.868	11.172	-89.848	-82.846	-82.637	-74.639	56.055	-76.263	-8191	255	
28950.990	1	1	0	0	0.025371	0.16616	0.11132	0.127	0.15518	0.11415	0.50222	0.21763	0.22656	0.12532	0.1837	0.49185	0.39965	0.19885	0.090601	0.1259	-1.8521	-3.0771	-2.4792	-2.3833	-2.7833	-2.2354	-2.8896	-2.8042	-2.2958	-2.9979	-2.5854	-2.3812	-3	-2.3958	-2.7354	-2.7562	85.382	216.719	71.092	37.007	-56.550	115.239	145.056	159.618	119.129	-86.106	127.993	180.881	-63.503	41.161	88.136	136.858	0.00018567	0.00019476	0.00011269	960.78	1.5201e-06	2.8357e-06	1050.2	196.91	2.4237e-06	1.3425e-06	250.13	68.995	53.874	15.032	1.5826e-06	21.452	0.00058619	0.00088594	0.00025055	951.77	9.0453e-06	1.0582e-05	1041.9	194.39	8.8301e-06	9.8575e-06	248.09	69.823	54.473	15.296	9.5729e-06	21.805	142.024	-17.184	-1.132	-97.163	40.181	51.642	-96.883	-89.481	-56.346	75.326	-89.828	-83.077	-83.241	-75.086	61.448	-75.679	-8191	255	
28951.088	1	1	0	0	0.23068	0.092698	0.12379	0.21969	0.069529	0.03131	0.18997	0.13351	0.029302	0.19085	0.19839	0.31817	0.12835	0.19897	0.14784	0.18354	-1.9292	-2.9167	-2.4917	-2.4771	-2.975	-2.3688	-2.5729	-3.1562	-2.3042	-2.9125	-2.7396	-2.2583	-3.0604	-2.2771	-2.3875	-3.0625	-9.179	196.628	-75.320	-22.895	110.904	146.709	236.675	-67.696	-73.814	1.759	-51.497	234.433	-81.311	95.728	155.874	12.385	0.00015289	0.00029048	5.9314e-05	970.66	7.6869e-07	3.4649e-06	1051	194.48	3.3616e-06	7.3718e-07	248.44	69.238	53.835	15.029	1.7838e-06	21.551	0.00055466	0.00092581	0.00025066	953.52	9.3672e-06	1.0474e-05	1040.7	194.25	9.2399e-06	1.0046e-05	247.67	69.924	54.415	15.286	9.7802e-06	21.805	156.676	-21.785	-15.029	-97.146	121.371	49.113	-96.926	-89.576	-46.859	104.171	-90.067	-82.877	-83.275	-75.039	25.690	-75.579	-8191	255	
28951.184	1	1	0	0	0.10962	0.28518	0.096021	0.25737	0.081214	0.19664	0.2334	0.096388	0.26686	0.042417	0.22851	0.021983	0.081162	0.17175	0.22032	0.13047	-1.6167	-2.825	-2.6771	-2.1625	-3.0146	-2.4562	-2.7521	-3.1271	-2.25	-2.8438	-2.7708	-2.2812	-2.9125	-2.5187	-2.4542	-2.9917	98.732	209.548	-46.422	127.746	31.369	58.409	203.598	180.239	-78.739	63.491	232.798	-27.070	-81.307	-63.065	247.256	146.814	0.00015513	0.00032286	5.1628e-05	970.94	3.5569e-06	1.7941e-06	1050.7	195.83	3.0578e-06	1.8646e-06	248.55	69.048	53.743	14.999	2.3252e-06	21.331	0.00057894	0.00091105	0.00025098	954.49	9.6709e-06	1.0212e-05	1040.9	194.26	8.5674e-06	9.7427e-06	247.5	69.871	54.235	15.323	8.7165e-06	21.732	142.753	-37.747	-33.992	-96.862	22.280	-16.492	-97.056	-89.542	4.607	24.507	-89.538	-83.192	-82.273	-75.007	77.655	-75.846	-8191	255	
28951.303	1	1	0	0	0.17268	0.18296	0.19656	0.080588	0.24325	0.17611	0.27343	0.15828	0.23289	0.17923	0.084033	0.17859	0.076789	0.2492	0.243	0.18439	-1.9708	-2.7292	-2.7708	-2.3	-2.8583	-2.6667	-2.3688	-3.1	-2.35	-2.5271	-2.9958	-2.1833	-2.8771	-2.7667	-2.3958	-3.1188	163.998	66.938	-98.160	-101.582	-93.608	231.795	154.737	251.998	118.533	61.562	-87.223	-59.072	169.835	181.230	-61.668	206.111	0.00013283	0.00026607	7.0291e-05	969.77	2.8614e-06	1.2556e-06	1054.2	196.11	2.2159e-06	2.5014e-06	247.17	69.041	54.26	15.083	1.6549e-06	21.372	0.00054236	0.00088353	0.00023761	953.08	9.3871e-06	1.0164e-05	1041.8	194.65	8.6995e-06	1.0133e-05	247.25	69.899	54.454	15.341	9.3028e-06	21.708	148.803	-42.992	-2.421	-97.183	-1.196	68.639	-96.901	-89.509	-8.294	6.807	-89.611	-83.127	-83.238	-74.832	49.500	-75.397	-8191	255	
28951.398	1	1	0	0	0.072485	0.1468	0.35719	0.14256	0.10583	0.11363	0.20078	0.23464	0.092151	0.11336	0.24944	0.10908	0.14873	0.33203	0.43945	0.047157	-1.9937	-2.6417	-2.9292	-2.275	-2.8937	-2.6729	-2.4229	-3.1188	-2.3563	-2.4708	-3.075	-2.2479	-2.7458	-2.6271	-2.1229	-2.9729	-61.709	38.428	222.805	229.248	33.411	128.234	179.376	151.915	-83.821	145.555	239.070	-102.749	199.073	159.143	-30.862	100.605	0.00011772	0.00026813	5.8705e-05	966.67	3.032e-06	3.6788e-06	1053.4	195.72	1.8979e-06	3.4686e-06	249.87	69.345	53.983	15.138	1.1067e-06	21.499	0.00054621	0.00087736	0.00023702	953.8	9.534e-06	9.9748e-06	1038.6	194.76	8.8928e-06	1.0148e-05	247.71	69.922	54.364	15.337	8.9528e-06	21.837	130.687	2.535	-69.285	-97.122	7.610	37.171	-96.820	-89.380	30.902	30.575	-89.443	-83.066	-83.306	-74.780	18.708	-75.501	-8191	255	
28951.473	1	1	0	0	0.21888	0.23419	0.10716	0.046545	0.10507	0.03464	0.038206	0.18057	0.050219	0.025514	0.33674	0.13412	0.10256	0.33478	0.21807	0.023698	-1.9333	-2.3542	-3	-2.3125	-2.9021	-2.8521	-2.3208	-2.9896	-2.5417	-2.3229	-3.1917	-2.4188	-2.8646	-2.8333	-2.35	-3.1188	35.346	-13.186	-93.228	-29.477	-34.376	183.060	75.878	197.099	176.854	214.242	213.355	229.210	232.720	-12.668	-0.759	-59.799	0.00016305	0.00037301	3.4949e-05	965.92	3.0235e-06	2.1787e-06	1053.8	195.73	1.9111e-06	2.6261e-06	250.04	69.082	53.794	15.001	4.0928e-06	21.328	0.0005424	0.00093704	0.00025285	952.58	1.0369e-05	1.0721e-05	1041.3	194.66	9.7146e-06	1.0635e-05	248.44	69.821	54.178	15.249	9.9923e-06	21.797	144.469	-5.538	-17.036	-97.060	58.740	32.330	-96.779	-89.370	20.303	76.859	-89.783	-82.858	-82.754	-75.213	32.777	-75.289	-8191	255	
28951.592	1	1	0	0	0.24104	0.18187	0.27447	0.12726	0.13606	0.060161	0.33606	0.24039	0.29795	0.37829	0.15823	0.19115	0.21143	0.13292	0.096789	0.084406	-2.2604	-2.3438	-2.9708	-2.375	-2.6292	-2.8563	-2.3646	-3.0792	-2.5042	-2.1792	-3.0396	-2.4875	-2.6667	-3.1	-2.45	-2.875	238.311	-32.476	222.588	46.755	137.596	-77.662	164.780	204.430	37.367	-62.934	159.723	-44.435	170.587	232.370	146.704	188.036	0.00012926	0.00023947	5.7158e-05	966.32	1.1059e-06	2.8269e-06	1056.9	195.54	4.1252e-06	1.7585e-06	248.69	68.938	54.456	15.08	4.0625e-07	21.331	0.00056564	0.00093904	0.00026332	954.17	1.0465e-05	1.0411e-05	1042.9	194.69	9.1317e-06	1.0892e-05	247.68	69.717	54.727	15.325	9.5738e-06	21.772	127.841	-53.319	-31.503	-97.336	18.084	16.826	-96.749	-89.209	31.139	62.933	-89.377	-82.762	-82.005	-74.739	43.056	-75.654	-8191	255	
28951.688	1	1	0	0	0.12852	0.13511	0.19709	0.095301	0.22276	0.20504	0.27973	0.16266	0.24534	0.20041	0.14231	0.075716	0.34489	0.045695	0.16091	0.27818	-2.4333	-2.3688	-2.9208	-2.4542	-2.525	-3.0083	-2.3375	-2.8021	-2.8104	-2.1042	-3.0312	-2.375	-2.4708	-3.0208	-2.2313	-2.7833	-101.881	-56.232	-86.376	207.467	196.662	-49.608	221.498	212.711	45.169	-47.377	207.706	124.157	33.577	-92.608	163.962	200.483	0.00016848	0.00025507	0.00010069	968.78	2.4493e-06	1.072e-06	1053.9	195.32	2.784e-06	2.9549e-06	249.56	69.378	53.597	15.201	1.7849e-06	21.405	0.00057305	0.00096824	0.00026412	953.86	1.0321e-05	1.0034e-05	1043.8	194.48	9.0018e-06	1.1268e-05	247.93	69.857	54.525	15.346	9.5504e-06	21.842	131.905	7.895	11.160	-96.902	4.677	-1.463	-96.802	-89.040	-34.193	63.471	-89.788	-83.573	-83.039	-75.356	9.842	-75.194	-8191	255	
28951.783	1	1	0	0	0.094411	0.16385	0.22237	0.12615	0.14436	0.16363	0.29891	0.19041	0.17241	0.26278	0.10387	0.17407	0.28064	0.13956	0.057256	0.075926	-2.5708	-2.1188	-3.125	-2.4813	-2.4208	-2.8979	-2.5521	-2.7458	-2.8667	-2.2313	-2.8708	-2.6937	-2.1979	-3.1417	-2.3583	-2.6417	209.052	-4.801	112.456	-49.648	-98.581	-98.652	165.545	-91.382	-27.940	72.491	108.709	176.932	251.602	232.520	246.271	2.649	0.00014271	0.00030548	9.7976e-05	963.49	1.0783e-06	2.3065e-06	1049.6	196.46	3.3032e-06	3.7978e-06	249.91	69.122	53.797	15.097	1.5909e-06	21.565	0.00055803	0.00089902	0.00024877	951.01	9.4552e-06	9.9767e-06	1039.9	194.54	8.7786e-06	1.0222e-05	247.8	69.83	54.488	15.297	9.4592e-06	21.831	118.963	-34.918	5.701	-97.129	86.683	36.234	-96.782	-89.203	14.350	58.359	-89.206	-83.214	-82.643	-74.607	63.725	-75.218	-8191	255	
28951.904	1	1	0	0	0.13678	0.092841	0.13325	0.12541	0.25816	0.12927	0.19561	0.1776	0.15534	0.16979	0.2671	0.17503	0.23204	0.30538	0.049305	0.17604	-2.6604	-2.3417	-2.9417	-2.925	-2.2333	-3.0042	-2.625	-2.5708	-2.8833	-2.3167	-2.9979	-2.5771	-2.3937	-3.0917	-2.4771	-2.4833	-76.790	250.133	138.234	-10.996	151.929	53.619	167.334	191.077	-60.383	194.352	-39.034	196.643	190.999	176.111	-99.978	-48.715	0.00012594	0.00017278	5.0922e-05	968.92	1.8639e-06	2.5002e-06	1054.7	194.91	2.6919e-06	2.4171e-06	248.16	69.112	54.438	15.056	7.2852e-07	21.382	0.00052172	0.00085321	0.00024649	954.18	9.8236e-06	9.8155e-06	1042.1	194.04	8.4002e-06	9.9205e-06	247.1	69.811	54.642	15.361	8.7931e-06	21.783	134.378	-75.957	-25.746	-96.995	-11.909	93.449	-96.736	-89.433	28.716	33.491	-89.717	-83.116	-82.723	-75.030	99.442	-74.997	-8191	255	
28952.000	1	1	0	0	0.090704	0.20031	0.20998	0.16118	0.099579	0.27644	0.21638	0.060031	0.047691	0.059781	0.12498	0.10739	0.057758	0.12084	0.12154	0.35327	-2.6625	-2.0854	-2.7708	-2.8625	-2.0208	-3.0979	-2.4354	-2.6167	-2.9437	-2.2958	-2.8125	-2.8542	-2.0958	-3.1271	-2.5542	-2.2812	208.746	32.260	66.656	239.623	108.840	66.600	-95.426	186.020	44.022	-68.192	193.162	-78.801	221.504	27.454	131.743	80.869	0.0001194	0.0001247	9.143e-05	961.17	2.7775e-06	1.5806e-06	1051.7	194.64	2.5723e-06	3.6814e-06	249.1	69.441	54.134	15.185	9.0902e-08	21.244	0.000521	0.00086549	0.0002426	952.53	9.4311e-06	9.419e-06	1039.5	194.34	8.2368e-06	9.4639e-06	247.43	69.834	54.457	15.339	8.8641e-06	21.72	147.280	9.540	0.889	-96.547	-16.994	37.372	-96.743	-89.103	33.396	25.738	-89.826	-83.362	-83.010	-74.479	-46.851	-75.761	-8191	255	
28952.072	1	1	0	0	0.10609	0.075054	0.19276	0.3516	0.14904	0.1012	0.21861	0.13137	0.292	0.18328	0.084675	0.15071	0.18878	0.22871	0.028635	0.080477	-2.5958	-2.1792	-2.5396	-2.9104	-2.1521	-2.9646	-2.7729	-2.4125	-3.0333	-2.4229	-2.6292	-3.0021	-2.0396	-2.7417	-2.6167	-2.3875	59.566	157.596	203.226	215.380	42.495	-82.478	166.722	-96.995	48.490	193.247	200.617	174.686	110.642	232.606	-46.816	-79.689	0.00016534	0.00032832	4.9407e-05	967.59	1.8456e-06	2.3071e-06	1049.9	195.28	6.2808e-07	1.4202e-06	248.6	69.106	53.796	15.054	2.7362e-06	21.464	0.00052008	0.00088963	0.00024911	952.74	9.4685e-06	9.4255e-06	1040.6	193.99	8.4047e-06	1.0045e-05	247.98	69.692	54.372	15.296	8.8125e-06	21.777	142.746	-3.053	-23.432	-97.059	-1.344	4.730	-97.003	-89.549	168.966	120.217	-89.964	-83.166	-83.124	-74.893	16.991	-76.046	-8191	255	
28952.191	1	1	0	0	0.21861	0.2723	0.018485	0.30587	0.15037	0.096124	0.23338	0.30009	0.02255	0.22179	0.1789	0.28833	0.18531	0.081298	0.11404	0.26184	-2.6458	-2.2833	-2.4917	-3.0521	-2.2687	-2.7792	-2.925	-2.3271	-2.925	-2.4917	-2.6396	-2.9667	-2.2521	-2.6937	-2.625	-2.1521	161.304	119.940	-38.001	206.276	-95.489	56.700	199.728	184.678	238.234	200.455	47.916	241.094	226.420	186.624	-74.178	138.792	0.00016832	0.000195	6.4102e-05	967.83	1.7054e-06	1.4897e-06	1053.3	194.36	2.3044e-06	2.4042e-06	248.92	69.168	53.722	15.08	1.2279e-06	21.431	0.00051403	0.00088137	0.00024533	953.13	8.8138e-06	9.5348e-06	1040	194.23	8.6473e-06	9.5945e-06	248.01	69.805	54.206	15.322	8.4593e-06	21.789	148.034	-17.095	-31.099	-97.414	60.027	69.272	-96.847	-89.660	2.915	23.633	-89.721	-83.049	-83.149	-75.079	135.465	-76.211	-8191	255	
28952.287	1	1	0	0	0.15201	0.16366	0.063448	0.049449	0.28794	0.18734	0.17889	0.021746	0.23756	0.23226	0.25314	0.094024	0.11902	0.059792	0.093052	0.235	-2.6292	-2.4271	-2.4479	-3.1521	-2.2833	-2.6312	-2.9229	-2.3833	-3.1063	-2.8229	-2.4521	-3.2333	-2.225	-2.6646	-2.9292	-2.3187	-5.375	173.677	12.223	74.163	2.979	-47.581	184.604	233.966	174.069	-58.470	-93.915	204.720	-78.979	170.905	119.634	133.048	0.00015723	0.00014632	6.2749e-05	966.23	1.3291e-06	2.0921e-06	1054	195.78	1.842e-06	5.516e-06	247.4	68.913	53.775	15.208	3.2979e-06	21.471	0.00050666	0.00084832	0.00024515	952.46	8.9407e-06	9.5663e-06	1040.6	194.23	8.3629e-06	9.9372e-06	247.6	69.748	54.241	15.358	8.7181e-06	21.779	143.182	-11.693	-30.024	-97.620	71.670	22.596	-96.725	-89.669	4.713	45.358	-89.721	-83.187	-82.816	-75.275	21.296	-75.430	-8191	255	
28952.383	1	1	0	0	0.095841	0.06204	0.038448	0.15737	0.080384	0.098504	0.21772	0.086583	0.038879	0.12268	0.23313	0.13004	0.11329	0.26277	0.19034	0.083182	-2.4938	-2.5479	-2.3354	-3.1188	-2.2562	-2.6396	-3.0479	-2.2667	-2.9188	-2.6042	-2.5375	-3.0646	-2.4917	-2.7062	-2.7521	-2.3125	192.153	169.016	168.299	223.937	-12.918	138.433	167.096	205.705	207.638	202.553	194.425	-94.378	77.331	129.368	83.611	133.618	0.00014007	0.00032849	6.2622e-05	964.28	2.2326e-06	3.6565e-06	1057.5	195.24	2.2557e-06	3.8538e-06	247.67	69.471	53.549	14.997	3.5983e-06	21.596	0.00052673	0.00086958	0.00025114	951.14	9.0834e-06	9.4218e-06	1041.5	194.22	8.6085e-06	9.3945e-06	247.26	69.865	54.346	15.246	8.7359e-06	21.799	134.498	0.121	-28.366	-97.174	83.339	76.662	-96.691	-89.306	-7.426	17.707	-90.195	-83.079	-82.632	-74.816	42.742	-75.970	-8191	255	
28952.479	1	1	0	0	0.27998	0.16241	0.11933	0.20409	0.053843	0.10271	0.27826	0.4755	0.025669	0.096593	0.11655	0.29489	0.22259	0.15991	0.24452	0.16947	-2.6646	-2.95	-2.5104	-2.9208	-2.7146	-2.6375	-3.2146	-2.2167	-2.8354	-2.7375	-2.2229	-3.0708	-2.3771	-2.325	-3.1604	-2.3167	169.379	-85.031	142.203	3.544	-46.978	42.568	196.419	238.704	138.407	105.566	181.069	225.815	212.230	173.933	-11.107	176.358	0.00014739	0.00046873	8.1355e-05	964.67	1.3603e-06	2.9253e-06	1049.7	194.93	1.834e-06	8.4043e-07	246.75	69.623	53.807	15.084	1.3367e-06	21.609	0.00053066	0.00081503	0.00024171	954.26	9.2527e-06	9.8099e-06	1039.3	193.95	8.766e-06	9.1028e-06	247.32	70.188	54.189	15.308	8.2754e-06	21.836	141.170	-1.830	-17.255	-96.622	57.110	42.273	-96.699	-89.531	6.017	63.842	-89.364	-82.967	-83.156	-74.969	37.659	-75.348	-8191	255	
28952.600	1	1	0	0	0.17857	0.15301	0.21294	0.082087	0.38212	0.22442	0.28906	0.20869	0.1264	0.20107	0.47434	0.038166	0.1747	0.24679	0.057126	0.2359	-2.3312	-2.9167	-2.3375	-3.1896	-2.5938	-2.3417	-3.2333	-2.2812	-2.4271	-2.8458	-2.3167	-3.0021	-2.6354	-2.1521	-2.9542	-2.3042	-20.985	-82.317	122.131	-13.790	71.557	188.397	239.755	-39.313	-63.513	222.436	239.132	224.188	176.078	-96.454	184.516	-88.140	0.00014576	0.00015749	8.6068e-05	966.31	4.9664e-06	2.4139e-06	1054.3	195.71	1.3798e-06	1.933e-06	247.2	69.464	53.845	15.096	2.7002e-06	21.312	0.00052116	0.00083797	0.00024954	952.63	8.8428e-06	9.2838e-06	1039.9	194.05	8.6428e-06	9.2204e-06	247.41	69.893	54.328	15.331	8.2182e-06	21.699	138.195	-42.420	-29.961	-96.912	40.012	77.673	-96.826	-89.639	61.221	63.245	-89.460	-83.229	-83.165	-74.869	25.265	-75.237	-8191	255	
28952.695	1	1	0	0	0.18205	0.28399	0.089715	0.062538	0.11984	0.070378	0.098194	0.35334	0.19507	0.081206	0.13893	0.083773	0.33334	0.13512	0.21583	0.11226	-1.9646	-2.8854	-2.0583	-2.9667	-2.7458	-2.4729	-3.0104	-2.3979	-2.3937	-2.9583	-2.2917	-2.6875	-2.5979	-2.3667	-2.9708	-2.5208	128.189	-54.676	-102.821	184.508	166.253	-18.090	153.169	161.279	-66.687	220.930	132.527	252.206	220.412	-106.483	-14.075	128.441	0.00016002	0.00052604	6.2746e-05	968.43	1.3267e-06	2.5826e-06	1054.4	195.99	1.5117e-06	2.6433e-06	247.46	69.071	54.582	15.161	2.3936e-06	21.333	0.00053447	0.00084439	0.00023918	954.14	8.983e-06	9.6284e-06	1041.7	194.4	8.3346e-06	9.2e-06	247.12	70.015	54.404	15.343	8.4714e-06	21.757	131.824	-4.841	-12.782	-96.521	94.719	69.935	-96.733	-89.467	-11.525	-26.663	-89.576	-82.824	-83.300	-74.948	50.659	-75.505	-8191	255	
28952.768	1	1	0	0	0.16589	0.2296	0.1675	0.23084	0.17557	0.23072	0.16494	0.30582	0.23626	0.1696	0.17903	0.13448	0.11499	0.1264	0.049559	0.2759	-2.0542	-3.0167	-2.0958	-2.8438	-2.6937	-2.2083	-3.1229	-2.6021	-2.3208	-3.0125	-2.325	-2.7375	-2.9021	-2.1604	-3.0354	-2.9104	174.882	-104.198	189.902	76.801	101.350	81.997	177.883	241.196	221.196	-21.540	-67.837	-46.501	227.873	184.339	199.023	90.847	0.00014993	0.00025524	5.5377e-05	967.1	3.3843e-06	2.1591e-06	1051.1	195.85	1.7261e-06	1.6743e-06	248.36	69.264	53.647	15.071	2.9387e-06	21.33	0.00054945	0.00085714	0.00024683	953.17	9.276e-06	1.0144e-05	1040.7	194.45	8.5995e-06	9.4139e-06	247.47	69.723	54.382	15.322	8.4569e-06	21.791	144.438	-60.239	-33.407	-96.942	47.464	51.319	-96.768	-89.140	3.838	36.043	-89.668	-82.697	-82.566	-74.697	34.234	-75.518	-8191	255	
28952.863	1	1	0	0	0.062468	0.12567	0.081943	0.24177	0.063825	0.074058	0.062998	0.057211	0.23359	0.041253	0.30419	0.17851	0.096859	0.2476	0.16008	0.1538	-1.9583	-2.9542	-2.25	-2.675	-2.7792	-2.325	-3.0625	-2.6417	-2.0812	-2.9646	-2.325	-2.6875	-2.8312	-2.2646	-2.7938	-2.8479	215.598	-84.713	173.787	-41.691	-98.743	91.179	164.145	162.515	191.893	-52.466	144.295	-93.810	232.214	148.717	217.891	193.637	0.00015988	0.00029216	0.00010198	961.17	3.1677e-06	1.4403e-06	1054.1	194.25	1.1446e-06	3.1595e-06	248.13	69.25	54.245	14.958	1.4842e-06	21.526	0.00053471	0.00079201	0.00024196	950.61	8.983e-06	9.2449e-06	1040.7	193.63	8.6622e-06	9.1926e-06	247.73	69.79	54.606	15.28	8.0956e-06	21.783	157.083	-16.548	-13.750	-96.878	55.842	31.943	-96.621	-89.054	-21.725	40.669	-89.813	-82.698	-82.567	-74.252	-0.725	-75.850	-8191	255	
28952.984	1	1	0	0	0.19459	0.15701	0.15554	0.083723	0.063429	0.18646	0.34427	0.15681	0.12812	0.14337	0.02898	0.087921	0.089499	0.23745	0.16229	0.099222	-1.6625	-2.9458	-2.2521	-2.5396	-2.9562	-2.1042	-2.925	-2.7646	-2.2708	-3.0312	-2.5375	-2.4271	-3.0667	-2.1375	-2.6479	-2.8771	175.475	-97.373	244.689	-54.852	-84.109	-4.373	221.172	199.262	136.318	198.705	25.717	-34.872	20.835	62.667	-52.971	135.095	0.00020093	0.00015293	6.5841e-05	960.91	1.373e-06	3.6193e-06	1047.8	195.23	9.5026e-07	3.45e-06	246.44	69.11	53.501	15.104	1.0513e-06	21.244	0.00055189	0.00083821	0.0002383	951.62	8.7905e-06	9.7645e-06	1039.5	194.47	8.5361e-06	9.5834e-06	246.69	69.712	54.239	15.33	8.7399e-06	21.699	135.545	-29.054	-25.963	-96.516	82.297	56.949	-96.806	-89.055	57.772	55.325	-90.004	-82.704	-82.608	-74.886	215.347	-75.322	-8191	255	
28953.080	1	1	0	0	0.079455	0.18209	0.26973	0.30412	0.066083	0.30022	0.077712	0.13499	0.094264	0.12724	0.063509	0.23838	0.27425	0.18747	0.20036	0.10686	-1.7833	-2.7771	-2.525	-2.2521	-2.9229	-2.1729	-2.8458	-2.8833	-2.1	-3.0667	-2.725	-2.3479	-2.8833	-2.2729	-2.65	-2.8271	18.134	88.667	203.961	202.436	114.314	148.058	-7.116	196.478	192.574	-101.550	115.492	196.671	-82.162	-71.203	-43.986	192.911	0.00017172	0.00031486	0.00010367	961.01	3.1351e-06	2.0246e-06	1053.6	194.9	2.6577e-06	2.9529e-06	248.01	68.928	53.873	15.006	2.2133e-06	21.471	0.00054312	0.00080019	0.00024032	952.23	9.0403e-06	1.0125e-05	1041.7	193.76	8.8652e-06	8.9731e-06	247.54	69.844	54.295	15.219	8.6722e-06	21.773	127.979	-2.488	-39.567	-96.611	-0.361	55.135	-96.593	-89.289	43.695	20.511	-89.706	-83.071	-82.781	-74.560	2.799	-75.176	-8191	255	
28953.178	1	1	0	0	0.20958	0.19737	0.13778	0.16043	0.22178	0.090265	0.23082	0.18357	0.3128	0.11827	0.062881	0.29327	0.29015	0.16107	0.22455	0.14486	-1.75	-2.7625	-2.6667	-2.2146	-3	-2.2188	-2.5812	-2.9604	-1.9979	-2.8146	-2.8708	-2.0833	-3.0083	-2.4375	-2.4375	-3.1979	-73.912	2.641	90.401	220.513	203.330	228.467	252.296	181.701	33.613	13.797	21.588	213.817	-71.647	-70.574	31.456	47.591	0.00013338	0.00026117	8.6746e-05	962.5	3.2048e-06	2.335e-06	1053.6	195.18	1.4935e-06	4.1737e-06	248.62	69.422	54.083	15.001	1.4488e-06	21.345	0.00052898	0.00079747	0.00024155	952.99	8.9889e-06	9.5098e-06	1041	194.25	8.2756e-06	9.4547e-06	247.62	69.833	54.395	15.272	8.3415e-06	21.715	145.749	18.259	-1.528	-96.873	44.442	31.332	-96.631	-89.414	19.650	36.543	-90.023	-83.403	-83.050	-75.101	-5.944	-75.599	-8191	255	
28953.273	1	1	0	0	0.058745	0.081288	0.15319	0.18985	0.13625	0.1334	0.20484	0.10589	0.23574	0.20371	0.040766	0.15163	0.078382	0.011506	0.12746	0.17723	-1.9562	-2.7542	-2.9708	-2.35	-3.15	-2.5833	-2.6208	-3.1646	-2.3979	-2.7729	-2.9167	-2.2375	-3.1042	-2.4854	-2.3083	-3.1521	231.508	-84.228	-90.196	198.649	-75.197	193.236	228.579	127.201	26.334	183.040	247.708	100.465	-97.998	140.141	157.174	140.704	0.00013808	0.00015713	6.1679e-05	966.59	1.4342e-06	2.934e-06	1056.5	195.22	2.0603e-06	2.1585e-06	247.46	69.437	53.948	15.04	1.9497e-06	21.583	0.00054272	0.00083597	0.00023117	954.15	8.7142e-06	9.3134e-06	1042.2	194.01	8.1935e-06	9.3852e-06	246.65	69.931	54.562	15.257	8.5182e-06	21.784	129.406	-30.436	-38.747	-97.326	69.557	48.648	-96.744	-89.017	-23.836	60.409	-89.125	-82.867	-82.785	-75.169	34.647	-75.465	-8191	255	
28953.367	1	1	0	0	0.28573	0.062541	0.19721	0.083028	0.17911	0.1868	0.27068	0.2116	0.12235	0.27078	0.16825	0.14187	0.23432	0.24113	0.14827	0.2057	-1.7729	-2.5792	-2.9708	-2.2896	-2.8167	-2.6208	-2.6437	-3.1021	-2.2687	-2.4104	-2.95	-2.2562	-2.9125	-2.775	-2.3708	-3.1521	145.836	130.176	220.197	179.861	128.740	199.829	241.320	-105.369	230.936	-19.318	189.470	180.602	210.577	109.523	1.881	75.622	0.00014796	0.00022333	4.8748e-05	970.39	1.9965e-06	2.7758e-06	1051.1	195.22	1.3136e-06	3.3634e-06	247.39	69.029	53.496	15.106	2.3927e-06	21.319	0.00052982	0.00080348	0.00022823	952.68	8.4445e-06	8.5918e-06	1039.4	194.12	8.3331e-06	8.8916e-06	247.88	69.705	54.205	15.322	8.3174e-06	21.792	153.710	-3.548	25.703	-96.852	0.223	86.930	-96.669	-89.458	27.481	64.984	-89.193	-82.955	-82.079	-75.064	1.395	-75.403	-8191	255	
28953.465	1	1	0	0	0.20397	0.055506	0.075298	0.17744	0.17279	0.21408	0.3204	0.15209	0.19402	0.21587	0.21303	0.36919	0.27934	0.098928	0.16285	0.082437	-1.9646	-2.4542	-2.9313	-2.2417	-2.9188	-2.8604	-2.2583	-3.0583	-2.5021	-2.5208	-3.2354	-2.3438	-2.7021	-2.8146	-2.2333	-2.9792	22.929	163.708	59.091	188.538	64.546	189.645	227.640	214.825	136.265	122.639	-100.933	222.570	115.562	101.086	148.570	118.303	0.00016853	0.00019599	4.5706e-05	963.59	2.7309e-06	3.264e-06	1050.8	195.33	2.863e-06	2.4259e-06	248.12	68.968	54.301	15.049	2.4072e-06	21.364	0.00053871	0.00079739	0.00021837	951.04	8.6943e-06	8.727e-06	1042.2	194.21	7.8994e-06	9.4565e-06	247.34	69.696	54.467	15.295	8.3004e-06	21.773	139.731	-6.724	-3.410	-96.956	9.395	38.487	-96.834	-88.912	15.486	86.013	-89.435	-82.941	-83.037	-75.054	10.406	-75.053	-8191	255	
28953.584	1	1	0	0	0.36183	0.18035	0.049033	0.23991	0.15475	0.064042	0.23844	0.095208	0.17744	0.1528	0.065881	0.11662	0.15105	0.18926	0.29807	0.2885	-2.0875	-2.3104	-3.0646	-2.1729	-2.6354	-2.8875	-2.3667	-2.9313	-2.5563	-2.2917	-2.9479	-2.1646	-2.7021	-2.75	-2.2833	-3.0833	78.971	-17.750	56.736	-100.675	189.988	220.038	222.424	181.539	38.845	49.551	-48.906	220.325	-3.788	-98.750	170.671	233.404	0.00012443	0.00041396	0.00010898	967.7	3.3856e-06	1.8435e-06	1052.6	194.32	2.3985e-06	2.2433e-06	247.25	69.4	54.116	15.039	2.0682e-06	21.49	0.00050401	0.00081359	0.00022794	951.51	8.5997e-06	9.0188e-06	1040.4	193.82	8.0062e-06	9.6251e-06	247.36	69.861	54.497	15.262	8.5625e-06	21.83	142.510	1.301	-5.097	-96.622	22.316	2.320	-96.525	-89.116	23.112	22.124	-89.644	-82.855	-83.048	-74.782	59.346	-75.250	-8191	255	
28953.680	1	1	0	0	0.1077	0.085748	0.11715	0.2625	0.27654	0.14687	0.32929	0.31503	0.074482	0.29741	0.27897	0.21729	0.13206	0.15696	0.086297	0.071996	-2.3833	-2.4917	-3.0479	-2.2625	-2.5458	-2.9625	-2.3688	-2.8542	-2.5979	-2.2083	-3.1167	-2.5979	-2.4354	-2.9021	-2.1937	-2.8063	80.869	64.387	163.919	241.109	-84.151	-49.239	151.119	184.512	9.519	-15.197	181.703	201.831	80.912	-18.817	-9.067	-10.976	0.00013858	0.00025817	7.3755e-05	966.12	1.9558e-06	3.2192e-06	1052.4	195.89	1.7347e-06	2.3992e-06	248.92	68.84	54.234	14.948	1.7206e-06	21.354	0.00051635	0.00079979	0.00021343	953.61	8.5383e-06	9.0281e-06	1040.7	194.22	8.2114e-06	9.4112e-06	247.35	69.735	54.407	15.236	8.5448e-06	21.769	149.287	2.659	6.051	-96.431	25.971	33.848	-96.658	-88.760	42.489	64.246	-89.538	-82.999	-81.972	-74.321	27.006	-75.587	-8191	255	
28953.775	1	1	0	0	0.2963	0.11826	0.29168	0.22907	0.021418	0.19347	0.29302	0.37055	0.041237	0.13247	0.25514	0.20233	0.20334	0.32108	0.025954	0.093049	-2.2771	-2.3292	-2.8312	-2.5167	-2.5854	-3.2396	-2.4313	-2.95	-2.8896	-2.4521	-3.0417	-2.5187	-2.4083	-3.0083	-2.1667	-2.6125	-51.278	130.936	167.139	192.427	238.693	-60.662	161.316	237.367	47.853	89.379	-63.195	213.991	-40.654	41.772	-84.316	4.071	0.00016181	0.00018495	9.1696e-05	968.47	1.2237e-06	3.6446e-06	1050.9	196.12	2.6403e-06	1.7131e-06	245.51	69.187	54.037	15.125	1.6754e-06	21.373	0.00048975	0.00078134	0.00022584	952.86	8.652e-06	8.9595e-06	1041	194.26	8.0203e-06	8.9981e-06	247.15	69.846	54.243	15.278	8.4851e-06	21.729	147.385	-53.081	-25.906	-97.057	-8.855	63.024	-96.606	-89.286	-4.330	36.717	-89.472	-82.411	-82.237	-75.035	55.434	-75.781	-8191	255	
28953.871	1	1	0	0	0.2506	0.33055	0.11982	0.065809	0.099233	0.062132	0.19585	0.16165	0.072628	0.034723	0.20592	0.093688	0.16542	0.2441	0.059652	0.3005	-2.525	-2.0521	-2.9313	-2.6333	-2.3438	-2.8688	-2.4479	-2.8021	-2.9271	-2.2542	-2.8896	-2.6417	-2.3771	-3.0604	-2.2271	-2.4646	16.230	42.455	210.582	131.831	29.801	190.847	130.859	-80.124	-15.077	120.518	-103.618	244.333	62.047	192.649	-62.200	216.747	0.0001113	0.00035904	7.0392e-05	960.49	2.7493e-06	4.1266e-06	1052	195.34	4.2651e-06	5.6725e-07	248.12	69.002	53.807	15.023	2.2135e-06	21.49	0.00051844	0.00082442	0.00023839	950.44	9.1316e-06	9.3616e-06	1039.9	194.03	8.0241e-06	9.3648e-06	247.3	69.633	54.333	15.243	8.1617e-06	21.778	148.443	5.017	-5.041	-96.567	34.677	45.458	-96.599	-88.720	12.278	16.234	-89.176	-83.041	-82.536	-74.376	54.793	-75.106	-8191	255	
28953.992	1	1	0	0	0.069941	0.087444	0.1634	0.084899	0.080056	0.095219	0.22752	0.14611	0.12124	0.062877	0.40375	0.21988	0.083339	0.16179	0.22086	0.09929	-2.4437	-2.1625	-2.9042	-2.5792	-2.1146	-3.0458	-2.5229	-2.4958	-2.8917	-2.1979	-3.0396	-2.8083	-2.0792	-2.8438	-2.4229	-2.325	19.066	166.454	105.943	18.614	22.220	213.366	205.559	37.296	138.322	-12.227	-96.751	-83.181	193.067	235.668	90.041	99.557	8.0839e-05	0.00022947	4.6646e-05	964.78	2.7488e-06	1.9004e-06	1051	194.84	1.8396e-06	3.2384e-06	247.16	69.577	54.011	14.999	4.3524e-06	21.471	0.00050021	0.00083493	0.00023133	950.36	9.3307e-06	9.2754e-06	1038.8	193.81	7.9547e-06	9.3852e-06	247.04	70.037	54.525	15.257	8.3448e-06	21.801	162.488	-8.675	-7.028	-96.889	-21.055	76.410	-96.453	-88.908	2.295	45.149	-88.999	-82.955	-81.994	-74.947	49.884	-75.580	-8191	255	
28954.064	1	1	0	0	0.06556	0.081124	0.39727	0.26051	0.18771	0.13884	0.14484	0.13633	0.19538	0.2568	0.056976	0.036181	0.10715	0.10168	0.093345	0.098642	-2.4083	-2.1479	-2.6729	-2.8625	-2.2062	-3.1396	-2.5021	-2.3854	-2.8458	-2.3312	-2.725	-2.9979	-2.3063	-2.9938	-2.6875	-2.4437	17.543	-10.009	129.278	216.627	26.999	33.767	225.979	218.595	-15.222	120.605	179.326	76.426	-68.955	130.036	81.484	198.754	0.00018839	0.00025974	3.8391e-05	967.65	2.3217e-06	3.4424e-06	1054.3	195.19	1.4125e-06	6.0295e-07	247.19	69.422	53.858	15.064	2.4127e-06	21.321	0.00052457	0.0008492	0.00023162	952.02	9.315e-06	9.4829e-06	1041.3	194.37	7.9076e-06	9.2509e-06	247.16	69.793	54.245	15.354	8.3859e-06	21.78	158.092	-26.489	-40.660	-96.671	76.454	7.380	-96.874	-88.953	84.603	-76.731	-89.523	-82.861	-82.774	-74.881	40.786	-74.927	-8191	255	
28954.160	1	1	0	0	0.17954	0.066413	0.07315	0.2755	0.2158	0.11966	0.287	0.082154	0.16249	0.27478	0.24393	0.29476	0.30611	0.17364	0.027697	0.15459	-2.7687	-2.2396	-2.5208	-3.0292	-2.175	-2.9562	-2.7875	-2.2896	-2.9021	-2.4479	-2.5417	-2.8312	-2.1562	-2.8479	-2.7333	-2.2354	-82.028	-105.332	147.968	207.279	49.943	95.471	131.103	241.171	40.016	94.540	2.110	226.163	218.235	228.441	49.648	98.421	0.0001546	0.00031932	0.00012457	961.88	2.7847e-06	1.8981e-06	1053.3	195.39	1.0936e-06	1.9086e-06	247.81	69.377	54.107	15.006	2.351e-06	21.342	0.00049929	0.00081359	0.00023764	951.56	9.0718e-06	9.457e-06	1038.3	194.21	7.9435e-06	9.2741e-06	247.01	69.885	54.607	15.276	8.219e-06	21.762	143.756	-22.025	-18.254	-96.533	12.351	91.775	-96.855	-89.166	185.514	32.195	-89.351	-82.833	-82.684	-74.415	4.593	-75.607	-8191	255	
28954.258	1	1	0	0	0.094481	0.027248	0.23702	0.23714	0.08836	0.33102	0.15801	0.19644	0.35732	0.22215	0.16181	0.12009	0.34585	0.17097	0.25957	0.046449	-2.4875	-2.1771	-2.4	-3.0083	-2.3812	-2.9271	-3.0417	-2.1917	-2.8042	-2.4583	-2.475	-2.8667	-2.2896	-2.6896	-2.9188	-2.2917	136.538	58.357	191.529	-69.182	-28.023	216.677	224.227	176.780	-16.490	148.156	214.343	192.111	134.126	189.248	45.610	138.976	0.00017873	0.0003742	8.3975e-05	963.73	3.7886e-06	4.0076e-06	1050.9	194.47	2.3164e-06	3.2375e-06	248.33	69.4	54.041	15.044	1.4626e-06	21.493	0.00052914	0.00080541	0.00023677	950.05	9.276e-06	9.1346e-06	1039.4	194.06	8.1913e-06	9.0222e-06	247.25	69.877	54.232	15.297	8.2924e-06	21.816	148.407	-22.340	-26.767	-96.744	6.443	9.145	-96.811	-89.234	59.811	73.197	-89.565	-82.829	-82.678	-74.288	-11.655	-75.650	-8191	255	
28954.377	1	1	0	0	0.29636	0.058349	0.37342	0.11419	0.054837	0.047154	0.16864	0.1875	0.10688	0.42964	0.27175	0.1014	0.15936	0.11656	0.17851	0.33395	-2.5167	-2.5021	-2.475	-2.95	-2.3229	-2.6521	-3.0438	-2.3042	-2.8521	-2.4292	-2.4396	-3.0187	-2.3625	-2.7042	-2.8187	-2.3583	157.663	-57.771	-94.380	230.578	175.592	24.265	58.356	-97.867	-57.127	38.248	-93.267	22.744	71.581	102.801	41.303	19.101	0.00015925	0.00016259	0.00010685	966.62	2.5068e-06	2.5142e-06	1052.3	193.87	1.5701e-06	1.7424e-06	246.7	69.069	53.577	14.943	2.4268e-06	21.288	0.00050217	0.00081832	0.00022541	954.96	8.7183e-06	8.8326e-06	1039.3	193.49	7.9285e-06	8.8453e-06	246.79	69.744	54.255	15.234	8.2738e-06	21.64	132.169	-31.323	15.629	-97.179	20.275	60.617	-96.647	-88.955	-16.829	84.258	-89.474	-82.647	-82.739	-74.834	63.781	-75.047	-8191	255	
28954.473	1	1	0	0	0.17059	0.22816	0.025754	0.11296	0.13366	0.10515	0.061741	0.16747	0.24557	0.2117	0.14832	0.18124	0.27691	0.1009	0.34857	0.38935	-2.6771	-2.5583	-2.1167	-2.8667	-2.3958	-2.3937	-3.2083	-2.4375	-2.8292	-2.5667	-2.3333	-3.0687	-2.4396	-2.425	-2.9562	-2.1125	36.571	159.198	-70.324	-105.587	187.853	-3.938	225.653	142.925	106.132	-15.523	-53.061	-23.718	45.493	-17.577	-2.515	225.442	0.00013143	0.00040827	5.6966e-05	965.37	3.1084e-06	1.7269e-06	1056.2	195.68	1.6544e-06	2.4136e-06	247.76	68.717	53.683	15.024	2.0932e-06	21.323	0.00050974	0.00076121	0.00022108	953.08	8.5715e-06	9.1078e-06	1039.3	194.23	8.1704e-06	9.0518e-06	247.02	69.663	54.216	15.251	8.2956e-06	21.71	150.132	-40.474	2.130	-96.930	20.666	29.616	-96.567	-89.048	20.806	28.102	-89.181	-82.621	-82.581	-74.555	-5.551	-75.599	-8191	255	
28954.568	1	1	0	0	0.090323	0.31472	0.07356	0.12228	0.29541	0.34881	0.12673	0.18465	0.1734	0.1812	0.18079	0.21727	0.16512	0.06506	0.31544	0.1596	-2.3208	-2.7979	-2.0479	-2.9833	-2.3958	-2.5042	-3.3354	-2.2583	-2.6708	-2.8167	-2.3375	-2.9396	-2.6688	-2.2521	-2.9979	-2.125	104.311	60.073	-98.750	193.966	-38.080	-21.369	163.846	207.024	73.242	209.744	-70.654	201.485	198.464	234.792	149.222	228.859	0.00014229	0.00040469	6.3468e-05	963.54	3.1738e-06	3.1234e-06	1046.5	194.63	2.1675e-06	1.8508e-06	247.06	69.251	53.449	15.01	2.0504e-06	21.247	0.00051756	0.00079089	0.00023593	948.65	9.0743e-06	8.9873e-06	1037.8	193.75	8.239e-06	9.1583e-06	246.58	69.643	54.281	15.265	8.2359e-06	21.726	148.949	-15.520	8.633	-96.077	71.833	40.090	-96.461	-88.744	30.037	19.171	-89.261	-82.825	-82.464	-74.436	-9.085	-75.249	-8191	255	
28954.664	1	1	0	0	0.18426	0.088582	0.17245	0.22494	0.20317	0.13974	0.26228	0.13238	0.20355	0.31559	0.10634	0.21923	0.20359	0.1294	0.18594	0.14312	-2.1667	-2.8875	-2.2271	-3.0667	-2.3771	-2.2604	-3.1312	-2.3042	-2.5208	-2.9333	-2.3667	-2.8375	-2.4354	-2.3312	-2.9417	-2.425	37.810	-74.139	195.451	215.959	35.069	15.052	214.259	60.353	223.217	205.547	-21.859	-61.179	46.943	-11.521	56.656	140.694	0.00019419	0.00025307	8.3296e-05	965.3	2.5364e-06	3.7813e-06	1048.8	196.05	4.0313e-06	2.6738e-06	248.5	69.123	53.65	15.115	3.6978e-07	21.233	0.00050754	0.0007888	0.00023846	950.73	8.4736e-06	9.696e-06	1039.6	194.11	8.2465e-06	8.886e-06	247.55	69.625	54.294	15.296	8.0303e-06	21.694	145.034	-37.558	-20.295	-96.534	68.571	41.378	-96.237	-89.227	2.621	94.275	-89.091	-82.606	-82.163	-74.691	41.974	-75.898	-8191	255	
28954.760	1	1	0	0	0.041289	0.12982	0.021444	0.11274	0.07661	0.21199	0.091869	0.19774	0.22919	0.24371	0.076079	0.3426	0.21615	0.19462	0.16554	0.19956	-2.0375	-2.9062	-2.2417	-3.0062	-2.7583	-2.3646	-3.175	-2.4437	-2.3958	-2.9437	-2.1792	-2.6396	-2.7229	-2.0625	-2.9583	-2.4917	102.120	-19.257	180.951	182.238	-94.321	85.556	159.892	175.003	103.630	214.600	-43.994	106.596	199.852	149.054	209.499	43.094	0.00012665	0.00023713	9.3567e-05	961.13	2.1662e-06	1.6525e-06	1049	195.18	1.7335e-06	4.7164e-06	249.99	69.451	54.166	15.177	2.4902e-06	21.44	0.00052232	0.00080629	0.00023044	949.87	8.6221e-06	9.2569e-06	1038.2	193.99	7.8853e-06	9.263e-06	247.46	69.721	54.341	15.303	8.0738e-06	21.725	129.407	8.891	-22.341	-96.519	45.783	45.234	-96.074	-88.550	20.005	23.016	-89.078	-82.240	-82.503	-74.389	47.515	-75.287	-8191	255	
28954.857	1	1	0	0	0.17141	0.13847	0.036504	0.28931	0.34509	0.069144	0.14117	0.23878	0.14322	0.23867	0.29197	0.048767	0.23273	0.17586	0.26667	0.14046	-2.0229	-2.9333	-2.1167	-2.8083	-2.8667	-2.1437	-3.2062	-2.4833	-2.25	-2.9854	-2.2708	-2.7417	-2.9437	-2.2292	-3.0792	-2.6958	231.231	233.867	73.255	8.753	5.614	143.356	-91.782	86.145	51.155	56.459	207.378	103.256	149.288	8.327	-60.221	90.021	6.8866e-05	0.00022769	9.574e-05	961.73	3.0902e-06	2.68e-06	1054.4	194.89	3.0786e-06	3.4247e-06	245.61	69.034	53.85	15.002	2.8511e-06	21.142	0.00053899	0.00080196	0.0002339	948.38	8.5474e-06	9.4255e-06	1039.2	193.69	8.2226e-06	9.0509e-06	246.41	69.585	54.28	15.246	8.1367e-06	21.658	127.968	-12.772	0.434	-96.320	36.690	77.490	-96.370	-88.881	35.136	29.547	-89.326	-82.274	-82.964	-74.324	56.754	-74.693	-8191	255	
28954.953	1	1	0	0	0.15158	0.33672	0.20476	0.027064	0.068974	0.16688	0.26388	0.023628	0.019161	0.14712	0.18617	0.28536	0.098638	0.044733	0.32066	0.18594	-1.7917	-2.7708	-2.1271	-2.7313	-2.9979	-2.2562	-3.1125	-2.7562	-2.2375	-2.975	-2.3542	-2.5625	-3.0125	-2.2875	-2.8021	-2.7708	125.729	49.243	17.773	-86.383	182.529	64.704	167.738	66.047	93.458	252.447	130.940	7.625	245.320	182.392	176.560	83.634	0.00015096	0.0002515	5.9132e-05	963.33	3.4075e-06	3.4561e-06	1055.1	194.35	2.3393e-06	3.3728e-06	247.37	68.677	54.028	15.032	2.128e-06	21.326	0.00051595	0.00080156	0.00021177	949.94	8.2711e-06	9.3162e-06	1040	193.76	7.8524e-06	8.3489e-06	246.55	69.476	54.277	15.305	7.8601e-06	21.645	123.761	-0.501	-39.205	-96.663	-4.629	30.562	-96.099	-88.533	24.243	19.026	-89.000	-82.189	-82.374	-74.548	33.932	-75.359	-8191	255	
28955.072	1	1	0	0	0.10625	0.056826	0.38163	0.22822	0.23916	0.032924	0.077447	0.15466	0.21523	0.086191	0.1806	0.21793	0.1641	0.078993	0.14504	0.085849	-1.8479	-2.9833	-2.2771	-2.3646	-3.0187	-2.1792	-2.9167	-2.8979	-2.0604	-2.9396	-2.2938	-2.4	-2.9729	-2.2979	-2.5396	-2.8771	-72.020	189.164	97.717	-95.119	168.352	-66.414	218.842	224.354	-67.660	-82.534	-104.877	251.817	77.017	58.421	-59.169	94.810	0.00019247	0.00022295	3.5071e-05	968.94	3.0538e-06	2.0775e-06	1048.7	195.2	1.86e-06	2.1621e-06	247.33	68.919	53.732	15.045	1.546e-06	21.357	0.0004966	0.00075399	0.00021635	953.02	7.9301e-06	8.2481e-06	1036.4	193.3	7.8338e-06	8.5675e-06	246.79	69.728	54.263	15.226	7.7488e-06	21.687	151.729	18.629	-41.318	-96.227	28.621	72.125	-96.022	-88.460	-16.911	70.047	-89.099	-81.970	-82.212	-73.580	-11.421	-75.015	-8191	255	
28955.168	1	1	0	0	0.13273	0.34447	0.19326	0.30154	0.077112	0.13754	0.098551	0.066863	0.20369	0.17263	0.10411	0.22264	0.029978	0.48647	0.2452	0.32521	-1.7333	-2.9833	-2.3667	-2.2667	-3.0687	-2.2292	-2.6396	-3.0479	-2.1937	-2.95	-2.6625	-2.275	-2.9833	-2.175	-2.3937	-2.9458	54.019	-24.390	183.880	52.239	-10.145	25.876	163.491	205.641	-66.630	185.820	183.218	140.416	89.387	185.214	-49.355	-52.349	0.00016246	0.00036508	9.4979e-05	967.4	1.4264e-06	2.7843e-06	1051.6	195.41	2.716e-06	2.7863e-06	248.44	69.074	53.676	15.225	1.1907e-06	21.418	0.00051467	0.00074942	0.00022111	951.46	8.3549e-06	8.5797e-06	1039.3	193.79	8.0606e-06	8.4082e-06	246.76	69.722	54.125	15.321	7.6416e-06	21.779	165.436	-15.340	-3.253	-96.228	39.818	40.744	-96.186	-89.183	20.853	55.279	-89.420	-82.569	-82.934	-74.352	24.955	-75.641	-8191	255	
28955.266	1	1	0	0	0.32402	0.20764	0.094724	0.0029611	0.11565	0.042357	0.44877	0.10153	0.061516	0.26776	0.13729	0.16049	0.16457	0.25879	0.068569	0.48282	-1.7896	-2.875	-2.7938	-2.4333	-3.0958	-2.3625	-2.5812	-2.8958	-2.2562	-2.7917	-2.6937	-2.2792	-2.9917	-2.3833	-2.5938	-2.9938	218.376	47.309	97.153	18.363	201.970	219.946	214.205	-48.067	58.451	-9.766	-104.904	194.418	228.424	23.328	141.710	212.473	0.0001777	0.00027773	0.00010609	961.99	2.4053e-06	2.3872e-06	1050.8	193.7	2.2618e-06	2.0789e-06	246.05	69.034	53.652	15.019	3.9168e-06	21.475	0.00050325	0.00075159	0.00021327	947.42	8.1699e-06	8.4899e-06	1039.1	193.51	7.777e-06	8.8925e-06	246.37	69.773	54.143	15.228	8.2157e-06	21.728	127.803	12.117	-46.514	-96.244	31.110	32.757	-96.238	-89.220	-7.838	65.519	-89.296	-82.837	-82.686	-74.778	23.857	-75.205	-8191	255	
28955.359	1	1	0	0	0.42384	0.10373	0.12238	0.070578	0.19049	0.098182	0.10481	0.19601	0.21979	0.22654	0.0492	0.2174	0.17942	0.29037	0.14161	0.19266	-1.7854	-2.6771	-2.8229	-2.1583	-3.2104	-2.6312	-2.4542	-2.9604	-2.2375	-2.7021	-2.9271	-2.1521	-2.8292	-2.4833	-2.1937	-2.9958	-18.923	215.852	121.141	-62.407	130.814	199.650	-99.557	113.786	167.220	246.028	-100.036	185.891	-105.010	202.011	204.598	55.148	0.00014661	0.00016216	8.6158e-05	969.53	3.6107e-06	1.9925e-06	1055.6	195.81	1.7196e-06	2.3919e-06	246.59	69.335	54.169	14.941	2.3036e-06	21.453	0.00049716	0.00079947	0.0002064	953.84	8.2977e-06	8.6557e-06	1038.6	194.44	8.1092e-06	8.7166e-06	246.91	69.759	54.39	15.242	8.273e-06	21.788	149.220	-45.918	-17.044	-96.490	11.767	43.431	-96.712	-89.091	14.591	16.941	-89.308	-82.972	-82.144	-75.034	42.385	-75.127	-8191	255	
28955.455	1	1	0	0	0.15711	0.16034	0.016929	0.27544	0.14281	0.030449	0.11105	0.41482	0.24837	0.34416	0.052205	0.21051	0.071987	0.31578	0.12065	0.13324	-1.9896	-2.4646	-2.8125	-2.1667	-2.8146	-2.6354	-2.2979	-3.0396	-2.2458	-2.6813	-2.8875	-2.35	-2.9458	-2.6604	-2.3583	-3.1063	50.447	198.332	101.044	194.350	-92.617	-87.308	202.093	160.197	218.132	-90.746	224.284	90.874	163.388	234.774	45.016	34.511	0.00014781	0.00022127	6.3993e-05	968.09	1.808e-06	2.7924e-06	1047.9	195.09	4.7422e-07	4.0395e-06	247.67	69.155	54.294	14.981	3.3602e-06	21.356	0.0005061	0.000756	0.0002117	950.02	7.6911e-06	8.6548e-06	1038.3	193.96	7.6225e-06	8.4813e-06	246.97	69.753	54.308	15.212	8.1182e-06	21.671	150.657	-15.800	-9.398	-96.513	62.470	23.206	-96.085	-88.969	-59.362	45.961	-89.604	-82.747	-82.686	-74.478	41.115	-75.142	-8191	255	
28955.553	1	1	0	0	0.13241	0.21437	0.20035	0.38849	0.11513	0.21475	0.36941	0.29598	0.19762	0.078438	0.1933	0.1406	0.27097	0.15341	0.38215	0.15908	-1.9417	-2.5146	-2.8479	-2.2542	-2.9458	-2.7438	-2.3979	-3.1063	-2.3396	-2.35	-3.1542	-2.2104	-2.7	-2.7271	-2.1292	-2.9625	98.720	40.494	194.153	239.142	100.179	-100.765	177.788	125.353	86.672	-94.471	-97.898	-93.025	-34.094	194.425	-68.770	212.837	0.00014426	0.00024982	1.4446e-05	962.07	2.9793e-06	1.3961e-06	1050.4	194.34	2.5622e-06	2.7551e-06	248.29	68.804	53.879	14.984	2.5943e-06	21.346	0.00050181	0.00075856	0.00019995	949.53	8.2006e-06	8.2046e-06	1036.7	193.44	7.8226e-06	8.5758e-06	247.03	69.57	54.278	15.207	8.2835e-06	21.721	136.379	-33.019	16.582	-96.746	9.433	-22.276	-96.026	-89.037	-63.084	52.961	-89.369	-82.868	-82.860	-74.956	47.957	-75.404	-8191	255	
28955.674	1	1	0	0	0.19359	0.21772	0.10739	0.16245	0.1115	0.22612	0.12996	0.29953	0.16496	0.1132	0.072988	0.26412	0.14659	0.19116	0.12308	0.27609	-1.7812	-2.3792	-2.8021	-2.3271	-2.5125	-2.7771	-2.3937	-2.9417	-2.5812	-2.2333	-3.0458	-2.35	-2.5917	-2.9813	-2.2167	-3.0312	74.240	116.108	77.130	107.118	179.801	-3.344	43.246	232.684	146.549	183.828	236.710	15.442	192.669	233.958	153.395	187.754	0.0001392	0.00015966	2.9611e-05	960.98	9.8233e-07	2.0668e-06	1051	194.65	7.9975e-07	2.464e-06	247.65	68.982	54.072	15.027	3.2504e-06	21.386	0.00046531	0.00077413	0.00019738	947.89	8.3093e-06	8.7909e-06	1037.7	193.64	7.5106e-06	8.4082e-06	246.86	69.682	54.285	15.28	7.84e-06	21.709	155.384	2.856	-44.002	-96.397	-25.848	54.588	-96.553	-89.014	-98.986	35.148	-89.651	-83.247	-82.944	-75.293	46.750	-75.535	-8191	255	
28955.770	1	1	0	0	0.050151	0.06301	0.10251	0.11609	0.2372	0.092121	0.24181	0.25276	0.14008	0.24889	0.21524	0.08212	0.11675	0.21725	0.24649	0.033374	-2.2438	-2.3396	-2.9313	-2.3771	-2.5271	-2.875	-2.3271	-2.9125	-2.6708	-2.2188	-2.8875	-2.6312	-2.3063	-2.7687	-2.0583	-2.8021	57.670	139.595	-92.773	-75.040	187.682	96.793	231.341	220.128	149.405	-73.612	132.538	46.526	33.871	-15.289	210.340	80.657	0.00015948	0.00027911	8.2725e-05	964.94	3.2198e-06	1.3568e-06	1045.5	194.12	2.0728e-06	2.6496e-06	247.91	69.077	53.807	15.175	1.7815e-06	21.534	0.00047348	0.00076209	0.00019239	950.13	8.252e-06	8.6196e-06	1034.6	193.47	7.5867e-06	8.6434e-06	247.29	69.664	54.248	15.271	7.6109e-06	21.724	147.580	-14.532	-6.047	-97.233	54.889	9.619	-96.829	-89.621	-16.836	52.166	-89.817	-83.207	-83.271	-75.293	20.157	-76.067	-8191	255	
28955.865	1	1	0	0	0.14969	0.075045	0.21906	0.10321	0.33962	0.10201	0.22611	0.22698	0.29915	0.12928	0.33598	0.10729	0.092352	0.19867	0.33193	0.09889	-2.4313	-2.1771	-2.9813	-2.3875	-2.3458	-2.9042	-2.2271	-2.7208	-2.8208	-2.1917	-2.875	-2.45	-2.2417	-2.9958	-2.1854	-2.7875	-80.788	138.217	196.078	-75.934	78.208	73.932	169.086	205.630	249.171	-19.134	251.606	120.588	-81.138	116.048	188.623	-65.892	0.00015856	0.00013869	6.8331e-05	958.98	1.1285e-06	2.2838e-06	1051.1	194.64	3.3219e-06	2.2098e-06	244.79	69.142	53.305	15.063	3.0617e-06	21.432	0.00048715	0.00079803	0.00021591	945.82	8.6304e-06	8.6344e-06	1036.5	193.85	7.7002e-06	9.2185e-06	245.62	69.6	54.003	15.249	8.1714e-06	21.717	139.640	15.004	-19.576	-97.423	30.536	36.716	-96.987	-89.761	22.755	45.382	-89.855	-83.400	-82.433	-75.526	-6.671	-75.812	-8191	255	
28955.938	1	1	0	0	0.026287	0.055777	0.028644	0.10894	0.093345	0.28968	0.092959	0.081978	0.1266	0.11099	0.42143	0.18484	0.15654	0.28301	0.26819	0.19442	-2.5542	-2.3063	-2.9917	-2.6896	-2.2521	-2.9437	-2.3937	-2.7	-3.0521	-2.1875	-2.8937	-2.725	-2.3833	-2.9729	-2.3563	-2.5125	-52.439	137.673	43.281	50.366	114.900	164.370	189.162	68.126	-52.843	-16.386	-32.538	25.098	4.555	133.958	104.811	233.992	0.00014611	0.00021739	7.7771e-05	965.67	2.7693e-06	2.492e-06	1044.5	194.86	1.3636e-06	3.183e-06	245.84	68.849	53.207	14.948	3.4068e-06	21.291	0.00050846	0.00077806	0.00022507	948.61	8.6088e-06	8.3945e-06	1034	193.44	7.7942e-06	9.0231e-06	246.19	69.669	53.914	15.21	8.2045e-06	21.758	150.777	-45.652	-6.330	-97.232	35.828	45.305	-97.095	-89.271	-4.099	74.103	-90.031	-83.092	-83.375	-75.646	9.606	-75.902	-8191	255	
28956.059	1	1	0	0	0.12725	0.10876	0.059209	0.19673	0.18139	0.18445	0.36959	0.10776	0.20005	0.1141	0.085612	0.083427	0.2311	0.16068	0.14547	0.15345	-2.5604	-2.1542	-2.7542	-2.7604	-2.3208	-3.0187	-2.5042	-2.5438	-2.8208	-2.3271	-2.6937	-2.5938	-2.1979	-3.1312	-2.4271	-2.5187	97.187	-35.122	93.215	166.788	198.564	27.223	202.447	72.351	-62.866	116.336	-64.662	-8.207	9.018	-8.557	-21.352	130.884	0.0001617	0.0003894	6.245e-05	965.69	1.1242e-06	2.9201e-06	1046.6	195.27	2.3131e-06	2.1165e-06	249.97	69.175	53.56	15.049	2.4345e-06	21.393	0.00050121	0.00080645	0.00022709	950.54	8.5648e-06	8.6955e-06	1036.9	193.89	7.6203e-06	8.9824e-06	248.12	69.735	54.176	15.282	8.1553e-06	21.815	131.050	-21.311	-9.186	-97.307	117.493	69.724	-97.351	-89.745	42.992	62.095	-89.986	-83.598	-82.971	-75.360	25.089	-75.485	-8191	255	
28956.154	1	1	0	0	0.2728	0.15021	0.1736	0.17469	0.032784	0.14599	0.25357	0.15914	0.23214	0.14318	0.048098	0.037195	0.043752	0.22487	0.074554	0.17025	-2.6229	-2.0917	-2.7729	-2.975	-2.1521	-3.2	-2.6458	-2.2708	-3.0646	-2.1792	-2.6333	-2.9792	-2.1083	-3.0021	-2.6917	-2.4354	186.811	-50.538	123.322	213.079	67.220	209.464	225.067	-91.096	68.751	47.733	-79.688	145.057	-83.896	151.121	-10.477	235.662	0.00014975	0.00037464	7.8246e-06	961.48	2.6367e-06	3.7837e-06	1050	194.69	9.2139e-07	1.8758e-06	247.37	68.46	53.396	15.124	3.469e-06	21.415	0.00049977	0.00081961	0.00022609	948.1	8.4005e-06	8.9929e-06	1038	193.37	7.78e-06	9.0416e-06	246.99	69.526	54.076	15.307	8.0746e-06	21.749	137.608	-24.732	-29.526	-97.191	23.195	13.978	-97.022	-89.259	22.146	41.023	-89.990	-83.302	-83.160	-75.041	32.590	-75.595	-8191	255	
28956.248	1	1	0	0	0.11675	0.32027	0.2495	0.124	0.091182	0.12242	0.1906	0.19566	0.15874	0.29282	0.2914	0.058104	0.026093	0.14506	0.11118	0.23819	-2.6917	-2.1625	-2.5125	-2.9542	-2.0312	-2.8771	-2.9146	-2.0417	-3.0125	-2.2854	-2.7417	-2.9708	-2.175	-2.9167	-3.0417	-2.2417	-87.156	182.167	-51.561	143.619	154.892	-105.112	130.890	141.162	240.550	-104.525	149.638	63.939	165.617	-93.129	176.612	161.532	0.00017885	0.00039838	6.3896e-05	959.24	3.1939e-06	2.0257e-06	1048.7	194.71	1.4764e-06	2.2309e-06	247.78	68.964	53.514	15.043	2.0477e-06	21.346	0.00049929	0.00081455	0.00022598	946.74	8.9615e-06	8.6214e-06	1036.2	194.04	7.9136e-06	9.313e-06	246.84	69.668	54.164	15.256	7.7545e-06	21.778	138.227	-56.108	-9.303	-97.176	65.820	59.207	-97.174	-89.439	12.562	16.015	-90.321	-83.208	-83.155	-74.961	-6.801	-75.917	-8191	255	
28956.346	1	1	0	0	0.12308	0.048281	0.042925	0.14692	0.10303	0.0084689	0.30534	0.33836	0.1431	0.071801	0.14546	0.3072	0.13924	0.061991	0.22274	0.1227	-2.5646	-2.2917	-2.4771	-3.1354	-2.3625	-2.5708	-2.9896	-2.425	-3.05	-2.4062	-2.5396	-3.1063	-2.2458	-2.7375	-2.9688	-2.25	55.972	-58.255	-67.911	205.895	193.436	-13.265	234.305	-102.782	47.677	-101.871	217.291	143.011	37.172	32.732	187.551	152.253	0.00011235	0.00046186	4.5602e-05	963.28	1.1917e-06	1.5148e-06	1046.2	194.56	2.2085e-06	1.4861e-06	247.01	68.938	53.453	15.023	3.7379e-06	21.524	0.00049171	0.0008026	0.0002206	947.21	8.5175e-06	8.8882e-06	1036	193.66	7.2703e-06	8.4924e-06	246.15	69.639	54.004	15.237	8.1367e-06	21.76	133.480	-12.474	-9.028	-97.144	95.771	79.562	-97.052	-89.532	-19.805	62.344	-89.587	-82.833	-83.108	-75.363	20.904	-75.259	-8191	255	
28956.465	1	1	0	0	0.1331	0.20743	0.074771	0.22535	0.099307	0.23228	0.14987	0.1555	0.076778	0.16461	0.20445	0.17441	0.23508	0.16271	0.16421	0.1297	-2.5417	-2.5042	-2.275	-3.2521	-2.1333	-2.5833	-3.075	-2.2458	-2.7979	-2.4229	-2.1813	-3.1396	-2.3	-2.5708	-2.8438	-2.3417	62.892	207.374	235.760	115.036	-23.264	56.274	-79.657	252.709	110.117	-50.510	155.319	-25.005	215.370	-98.463	57.662	230.674	9.6663e-05	0.00016978	5.7506e-05	962.09	1.6359e-06	2.9145e-06	1048.9	195.12	6.3985e-07	2.2212e-06	246.56	69.277	53.701	15.13	2.0912e-06	21.489	0.00049328	0.00078776	0.00022509	949.59	8.8022e-06	8.64e-06	1035.3	193.85	7.7046e-06	9.0055e-06	246.28	69.734	54.22	15.26	8.0391e-06	21.778	139.613	-22.941	-31.007	-97.203	57.872	56.964	-97.064	-89.236	236.503	32.353	-89.468	-83.172	-83.093	-74.884	87.202	-75.771	-8191	255	
28956.537	1	1	0	0	0.33395	0.19562	0.046886	0.39225	0.11921	0.19283	0.050022	0.14569	0.082134	0.14121	0.40293	0.010147	0.22088	0.26064	0.13124	0.20665	-2.4688	-2.5729	-2.2875	-3.0062	-2.3917	-2.6354	-3.0958	-2.3417	-2.9833	-2.6479	-2.2042	-2.9625	-2.5875	-2.4771	-3.0396	-2.2271	-34.392	64.883	181.399	209.137	139.998	175.336	-6.662	247.219	108.595	250.233	220.781	27.968	161.189	35.194	251.378	64.211	0.0001932	0.00027821	5.6364e-05	959.17	2.6636e-06	2.3946e-06	1049.8	194.16	3.8042e-06	2.9486e-06	245.91	68.746	53.586	15.085	4.5243e-06	21.395	0.00049291	0.00078375	0.00022889	949.84	8.5134e-06	8.8428e-06	1037.3	193.66	7.9076e-06	9.0138e-06	246.19	69.541	54.123	15.241	7.8916e-06	21.748	152.424	-12.572	-51.735	-97.184	44.340	23.852	-96.824	-89.524	8.151	17.790	-89.460	-83.253	-83.291	-75.049	48.797	-75.900	-8191	255	
28956.633	1	1	0	0	0.086853	0.15673	0.32365	0.095393	0.18215	0.14504	0.21699	0.37	0.0747	0.16372	0.17915	0.071899	0.1593	0.086825	0.27748	0.20649	-2.4167	-2.7979	-2.3563	-2.9958	-2.3875	-2.3917	-3.225	-2.3063	-2.6979	-3.0271	-2.2167	-2.9521	-2.6104	-2.3354	-3.2062	-2.2771	-26.015	233.840	115.836	243.100	79.698	-38.391	199.117	-104.516	40.268	149.546	-92.494	-69.455	-70.647	109.498	-2.963	186.576	0.00012405	0.00015469	5.4113e-05	963.93	3.3932e-06	1.8791e-06	1044.8	194.25	1.2384e-06	1.3076e-06	247.64	68.902	53.183	15.005	2.5693e-06	21.383	0.00050518	0.00075151	0.00021544	949.82	8.179e-06	8.5844e-06	1033.7	193.36	7.9785e-06	8.4054e-06	246.81	69.608	53.914	15.246	7.7883e-06	21.701	148.931	-46.118	-50.192	-96.918	43.981	125.836	-97.306	-89.467	26.451	72.754	-89.916	-82.932	-83.117	-74.954	26.301	-75.853	-8191	255	
28956.754	1	1	0	0	0.10303	0.10668	0.070716	0.18346	0.078279	0.1794	0.44619	0.43161	0.087489	0.19576	0.23345	0.32501	0.082843	0.12533	0.34475	0.12235	-2.3646	-2.9833	-2.0458	-3.0375	-2.6271	-2.325	-3.1771	-2.3271	-2.5771	-2.8958	-2.3667	-3.0292	-2.6625	-2.3438	-3.1021	-2.3729	173.649	44.897	-4.693	165.933	67.324	-94.166	194.848	213.829	250.786	15.903	-101.057	193.078	134.063	219.856	-98.661	67.147	0.00016726	0.00025831	8.9711e-05	965	2.3045e-06	3.5255e-06	1047.4	193.64	3.4479e-07	2.9383e-06	247.15	69.5	54.157	14.925	3.4838e-06	21.241	0.00049893	0.00075929	0.00021582	950.99	8.3815e-06	8.7493e-06	1038.6	193.23	7.4374e-06	8.3193e-06	246.53	69.73	54.161	15.205	7.7609e-06	21.632	138.331	-47.216	7.272	-97.027	22.626	42.434	-97.003	-89.554	171.756	42.555	-90.137	-83.444	-83.455	-75.166	38.780	-75.739	-8191	255	
28956.850	1	1	0	0	0.18444	0.11876	0.051996	0.26089	0.11098	0.1692	0.051591	0.35717	0.093544	0.26287	0.25611	0.29163	0.020315	0.2019	0.19253	0.14832	-1.9146	-2.9583	-2.075	-2.8229	-2.8125	-2.2333	-3.1271	-2.3958	-2.4875	-2.8833	-2.3	-2.75	-2.9062	-2.2771	-3.0625	-2.4479	-15.083	92.625	-52.801	235.912	131.864	168.029	197.095	173.561	185.047	-39.290	116.541	245.278	117.208	165.985	177.558	149.067	0.00013012	0.00020166	9.4585e-05	962.49	1.5851e-06	3.9036e-06	1051.7	194.38	1.3617e-06	3.2262e-06	247.4	68.827	53.178	14.948	1.8835e-06	21.325	0.00048867	0.00073033	0.00022625	949.75	7.9931e-06	9.0772e-06	1037.8	193.42	8.1144e-06	8.2831e-06	246.21	69.501	54.031	15.273	7.7343e-06	21.64	140.360	-47.383	9.297	-97.366	48.357	40.160	-97.052	-89.887	28.050	22.217	-89.886	-82.962	-82.881	-75.321	68.962	-75.919	-8191	255	
28956.945	1	1	0	0	0.35512	0.17666	0.20332	0.06382	0.2776	0.011158	0.14811	0.094488	0.14657	0.13007	0.19379	0.17521	0.08524	0.39545	0.14557	0.068352	-2.0417	-3.0646	-2.1312	-2.8104	-2.9208	-2.1833	-3.0396	-2.6917	-2.2687	-3.1458	-2.5417	-2.8208	-2.9062	-2.2146	-2.9875	-2.7479	-82.777	205.625	245.029	26.387	235.587	57.368	126.000	100.425	17.847	134.095	219.640	-91.740	25.292	190.130	-62.509	47.961	0.00013931	0.00026517	6.7664e-05	956.06	3.4601e-06	1.0845e-06	1044.6	194.27	2.2943e-06	3.1924e-06	246.69	69.149	53.899	15.073	2.2491e-06	21.347	0.00050133	0.00074332	0.00020697	945.41	8.5192e-06	8.5603e-06	1033.4	193.2	7.9763e-06	8.523e-06	245.96	69.628	54.26	15.281	7.5924e-06	21.657	143.145	-5.376	-55.530	-97.765	64.584	39.192	-97.251	-89.566	52.728	39.993	-90.004	-82.787	-83.507	-75.093	18.382	-75.958	-8191	255	
28957.066	1	1	0	0	0.12805	0.31181	0.12826	0.054154	0.22718	0.40167	0.37823	0.14476	0.19825	0.045595	0.11487	0.11228	0.13288	0.21189	0.1305	0.041418	-1.9562	-2.9771	-2.3542	-2.6396	-3.0542	-2.1562	-2.9229	-2.7917	-2.1354	-2.9917	-2.4167	-2.5	-2.9813	-2.1354	-2.9437	-2.7396	229.333	39.928	212.297	230.077	243.238	227.999	152.607	124.723	161.117	-13.732	177.883	24.323	227.313	75.580	154.452	-34.851	0.00016121	0.00018006	5.9808e-05	960.1	1.1285e-06	4.1807e-06	1047	194.32	3.3128e-06	3.5961e-06	247.23	69.044	54.079	15.055	3.4921e-06	21.334	0.00049432	0.00072496	0.00021678	946.33	8.4047e-06	8.8549e-06	1035	193.15	7.9547e-06	8.5619e-06	246.02	69.489	54.113	15.253	7.9577e-06	21.734	152.491	10.132	-10.452	-97.240	55.431	52.642	-96.989	-89.347	-0.414	36.430	-89.826	-83.429	-83.032	-75.540	21.311	-75.870	-8191	255	
28957.160	1	1	0	0	0.21979	0.16472	0.31613	0.29851	0.11836	0.038386	0.20547	0.25252	0.17565	0.14597	0.29021	0.15549	0.2249	0.13743	0.16677	0.10432	-1.975	-3.0333	-2.2792	-2.4021	-3	-2.4125	-3.1292	-3.0854	-2.2104	-3.1292	-2.4896	-2.5396	-3.0521	-2.25	-2.7917	-3.0125	-73.704	24.736	169.496	230.119	-11.474	160.591	135.656	206.125	78.633	-57.896	177.791	0.195	38.725	-34.869	129.445	-97.218	0.00014866	0.00014613	4.8173e-05	959.65	1.9126e-06	2.6976e-06	1043.8	193.38	3.6948e-07	1.7918e-06	245.53	68.726	53.588	15.007	1.5863e-06	21.31	0.00049909	0.00073193	0.00021705	948.06	7.6397e-06	8.7215e-06	1032.6	193.05	7.889e-06	8.3276e-06	245.52	69.425	54.171	15.243	7.9085e-06	21.723	131.747	-30.608	-24.702	-97.115	41.288	31.308	-97.266	-89.801	-81.182	68.804	-90.551	-83.406	-82.931	-74.672	79.474	-75.736	-8191	255	
28957.234	1	1	0	0	0.16764	0.061592	0.36826	0.21834	0.095571	0.12546	0.036515	0.13437	0.13184	0.062972	0.14755	0.041724	0.044029	0.14606	0.19724	0.22167	-1.7646	-3.0083	-2.6271	-2.3771	-3.1083	-2.4792	-2.8688	-3.0812	-2.2396	-2.9354	-2.6104	-2.3875	-3.0729	-2.2188	-2.5354	-3.0042	-99.898	-82.312	41.442	149.890	237.380	-44.546	244.175	-13.081	111.337	-20.622	233.131	62.999	240.066	-79.319	236.532	124.353	0.00014144	0.0001756	7.5848e-05	962.12	3.2893e-06	3.5866e-06	1045.4	195.38	4.0962e-06	3.4488e-06	247.13	68.904	53.282	15.031	7.9232e-07	21.371	0.00049119	0.00075792	0.00022145	947.78	7.8172e-06	8.5825e-06	1035.4	193.53	7.8293e-06	8.4211e-06	246.26	69.468	53.903	15.233	7.6367e-06	21.72	147.799	12.094	-0.822	-97.510	33.296	47.929	-97.336	-89.738	13.879	5.649	-90.229	-82.879	-83.093	-75.149	34.477	-76.167	-8191	255	
28957.354	1	1	0	0	0.24569	0.12358	0.1009	0.27128	0.084918	0.25388	0.27725	0.17826	0.15413	0.16079	0.23653	0.33708	0.20719	0.11523	0.21749	0.20665	-1.9542	-2.8958	-2.5917	-2.425	-2.9792	-2.2646	-2.6833	-2.9792	-2.3125	-2.7625	-2.9188	-2.3375	-2.975	-2.6292	-2.6646	-3.1229	-4.068	135.685	189.255	-99.693	42.897	222.014	216.401	-73.575	224.660	-51.696	112.831	212.630	193.081	-104.554	239.992	199.383	0.00015069	0.00022847	7.4349e-05	961.66	1.1072e-06	1.2588e-06	1047.7	194.26	2.3118e-06	3.0208e-06	247.12	68.942	53.988	15.078	3.0538e-06	21.416	0.00051868	0.00071758	0.00020902	947.34	7.8264e-06	9.0355e-06	1035.7	193.01	7.6621e-06	8.5934e-06	246.67	69.55	54.207	15.238	7.698e-06	21.689	141.061	12.958	-29.863	-97.054	100.253	5.104	-97.161	-89.715	-15.513	25.722	-89.876	-82.924	-82.789	-75.701	17.353	-76.298	-8191	255	
28957.449	1	1	0	0	0.27385	0.10712	0.12882	0.31281	0.055672	0.29844	0.20815	0.15135	0.37173	0.14907	0.29182	0.20206	0.058519	0.35456	0.098382	0.21563	-1.7646	-2.8229	-2.7667	-2.3521	-2.9542	-2.5812	-2.4708	-3.0938	-2.2375	-2.6292	-3.0271	-2.2958	-3.0229	-2.7313	-2.45	-3.175	149.091	71.595	155.568	49.012	84.682	230.501	172.531	184.210	-70.274	61.301	-105.108	-18.438	27.787	26.016	81.390	35.210	0.00016251	0.00042218	0.00010015	959.54	2.2354e-06	2.3984e-06	1044.8	193.84	2.7038e-06	4.886e-06	245.67	69.115	53.644	15.029	3.8183e-06	21.259	0.00050277	0.0007791	0.00021689	945.61	8.0321e-06	8.9651e-06	1033.4	192.86	7.9703e-06	9.1379e-06	245.88	69.582	53.981	15.251	8.0585e-06	21.671	144.887	-15.615	-36.156	-97.703	-39.992	49.420	-96.817	-89.407	28.109	43.184	-89.870	-83.669	-82.844	-75.653	53.514	-76.054	-8191	255	
28957.545	1	1	0	0	0.14137	0.079831	0.169	0.13011	0.24823	0.21435	0.43783	0.14897	0.09856	0.048146	0.015035	0.019312	0.22216	0.12742	0.1768	0.12375	-1.9729	-2.5729	-2.7604	-2.1875	-2.9125	-2.6833	-2.5458	-3.1479	-2.4083	-2.4625	-2.9458	-2.2979	-2.8354	-2.725	-2.3479	-3.0646	93.939	-70.752	95.610	-68.880	-68.521	173.056	182.592	189.044	36.305	35.656	243.646	237.664	-82.130	1.331	3.561	-82.640	0.00016236	0.00022311	4.7292e-05	967.19	1.6802e-06	2.008e-06	1046.2	194.35	2.1932e-06	2.5785e-06	245.59	68.997	53.78	15.018	1.8398e-06	21.293	0.00051511	0.00081327	0.00021448	951.26	7.9624e-06	8.7011e-06	1036.5	193.27	7.8815e-06	9.0314e-06	245.24	69.533	54.236	15.232	8.2617e-06	21.645	146.037	-8.570	-28.130	-97.530	29.489	-1.577	-97.014	-89.695	-34.180	51.695	-90.108	-83.481	-83.085	-75.354	-12.278	-75.691	-8191	255	
28957.641	1	1	0	0	0.35244	0.054426	0.08258	0.41807	0.26072	0.20661	0.09947	0.058744	0.097749	0.2537	0.10243	0.19319	0.16224	0.091509	0.33092	0.19676	-1.9937	-2.4458	-2.9708	-2.3083	-2.8896	-2.7229	-2.3583	-2.9729	-2.5687	-2.6854	-3.15	-2.1896	-2.7354	-2.8958	-2.2333	-2.9229	-93.898	38.659	-92.376	202.416	-99.293	41.134	82.254	155.579	-38.070	68.021	181.821	89.603	188.672	21.070	-59.076	56.239	0.00015932	0.0003781	0.00011487	958.14	3.1946e-06	1.2588e-06	1044.9	194.43	7.597e-07	2.482e-06	246.77	69.495	53.932	15.028	2.2108e-06	21.368	0.00051371	0.00082209	0.00021391	946.54	8.2188e-06	8.9234e-06	1035	193.6	7.8547e-06	9.2583e-06	246.32	69.57	54.239	15.206	8.244e-06	21.671	150.709	-3.114	6.322	-97.528	24.563	16.071	-97.077	-89.249	-16.096	85.798	-90.004	-83.497	-83.297	-75.624	20.347	-75.918	-8191	255	
28957.762	1	1	0	0	0.11018	0.25004	0.20214	0.20338	0.078216	0.10638	0.21343	0.19373	0.41807	0.24461	0.064408	0.373	0.28764	0.22797	0.080272	0.10096	-1.9167	-2.2354	-3.0042	-2.3729	-2.6521	-2.8396	-2.4146	-3.1021	-2.5229	-2.3896	-2.9646	-2.2292	-2.7167	-2.9188	-2.0687	-2.8563	-104.505	230.911	9.964	205.559	-54.340	46.809	160.643	165.811	113.190	-80.304	208.628	183.637	193.519	216.950	2.734	169.140	0.00014805	0.00022639	8.5929e-05	957.25	2.4815e-06	9.1944e-07	1039	194.61	2.272e-06	3.7338e-06	247.47	68.982	53.905	15.09	2.6324e-06	21.452	0.0005051	0.00079225	0.00021143	946.07	8.4503e-06	9.0614e-06	1032.1	193.44	7.8323e-06	9.3787e-06	246.94	69.495	54.111	15.244	8.319e-06	21.723	140.774	-9.689	-22.700	-97.312	9.573	-21.881	-97.085	-89.464	39.821	23.270	-90.116	-83.062	-83.354	-75.590	14.169	-75.991	-8191	255	
28957.834	1	1	0	0	0.12831	0.12049	0.23341	0.095027	0.021969	0.11991	0.16059	0.16373	0.089303	0.20719	0.11621	0.3209	0.11398	0.015055	0.22526	0.1698	-2.1021	-2.2667	-3.0396	-2.2083	-2.5167	-3.0292	-2.1458	-2.8271	-2.7208	-2.1833	-3.2208	-2.5208	-2.2854	-3.0792	-2.125	-2.6521	27.998	-85.744	11.481	204.666	-96.456	84.924	78.203	-89.851	200.812	178.887	247.931	108.977	72.461	-77.022	-40.922	35.554	0.00016438	0.00022273	8.938e-05	969.31	2.1512e-06	2.7135e-06	1048.6	194.49	3.022e-06	2.4723e-06	247.92	68.773	53.995	14.999	2.1084e-06	21.506	0.0004948	0.00082931	0.00021853	947.87	8.6843e-06	8.8095e-06	1033.7	193.5	7.6479e-06	8.7323e-06	246.02	69.477	54.1	15.156	8.4012e-06	21.747	139.090	-8.413	-25.712	-97.450	26.850	51.243	-97.276	-89.766	-1.274	29.816	-90.173	-83.448	-82.592	-75.325	52.609	-75.977	-8191	255	
28957.930	1	1	0	0	0.21172	0.10865	0.17663	0.24155	0.38423	0.2131	0.30191	0.18503	0.15159	0.30793	0.15719	0.21575	0.066895	0.1789	0.086453	0.050567	-2.3646	-2.1354	-2.8833	-2.6104	-2.3396	-2.9667	-2.3646	-2.8229	-2.7875	-2.1104	-3.1146	-2.6562	-2.4021	-2.9417	-2.4979	-2.6104	9.184	250.214	150.179	-73.213	-47.400	90.525	207.442	232.235	-50.233	-19.116	-102.702	203.807	-7.924	-80.320	16.335	48.371	0.00015838	0.00033154	9.898e-05	956.38	2.2606e-06	2.9759e-06	1039.6	193.73	1.6415e-06	1.7751e-06	247.89	68.59	53.462	15.003	1.0824e-06	21.349	0.00048743	0.00081391	0.00021054	943.54	8.4254e-06	8.5909e-06	1030.4	192.99	7.9539e-06	9.1e-06	246.46	69.421	54.033	15.208	8.1593e-06	21.634	140.687	-25.298	-16.751	-96.963	22.069	47.408	-97.139	-89.453	22.523	38.156	-89.824	-83.373	-83.115	-74.792	22.576	-75.810	-8191	255	
28958.025	1	1	0	0	0.082385	0.25508	0.10574	0.0077628	0.29583	0.1132	0.084997	0.091915	0.12251	0.057068	0.18178	0.1761	0.17649	0.05803	0.047163	0.30398	-2.6437	-2.2	-2.95	-2.375	-2.4042	-3.1667	-2.4333	-2.6167	-2.8729	-2.2854	-3.0604	-2.6375	-2.2875	-2.8896	-2.4167	-2.7188	79.290	-107.502	184.552	160.642	-40.381	24.870	165.678	87.070	103.592	133.199	240.182	126.006	111.074	216.529	-105.729	-101.906	0.0001153	0.00031771	0.00013637	959.84	3.2397e-06	2.8561e-06	1042.1	194.28	5.7468e-07	3.3905e-06	245.31	69.09	53.436	14.996	2.9369e-06	21.369	0.00047665	0.00078134	0.00021819	944.99	8.5831e-06	8.9364e-06	1031.9	193.08	7.6905e-06	8.8712e-06	245.25	69.492	54.141	15.221	7.9045e-06	21.75	147.794	-36.539	-25.550	-97.286	20.550	35.996	-96.911	-89.617	-12.140	73.140	-90.174	-83.335	-82.722	-75.547	39.168	-75.894	-8191	255	
28958.145	1	1	0	0	0.068369	0.19341	0.33846	0.11606	0.095205	0.28169	0.086783	0.18652	0.14537	0.1493	0.28299	0.15206	0.25496	0.084732	0.21188	0.18699	-2.6312	-2.375	-2.7375	-2.675	-2.0438	-2.9188	-2.4229	-2.7458	-2.9896	-1.9979	-2.7667	-2.8208	-2.0979	-2.9771	-2.6125	-2.4167	235.822	92.634	51.881	220.039	48.802	-91.603	234.310	149.686	-18.935	176.956	238.394	191.041	125.045	-90.178	239.033	231.982	0.00018817	0.00029165	8.1275e-05	962.59	2.1965e-06	3.283e-06	1042.8	194.36	2.1897e-06	2.3651e-06	246.55	68.844	53.658	15.107	3.8436e-06	21.412	0.00049472	0.00080621	0.00021512	944.7	8.5922e-06	8.6048e-06	1030.2	193.08	7.8203e-06	9.2611e-06	246.22	69.522	53.942	15.241	8.1762e-06	21.702	158.542	14.957	-10.045	-97.178	4.156	49.858	-97.428	-89.740	23.517	40.647	-89.913	-83.832	-83.232	-75.013	37.917	-75.640	-8191	255	
28958.240	1	1	0	0	0.31442	0.059326	0.12576	0.34931	0.22725	0.07233	0.35624	0.094492	0.3443	0.22212	0.081173	0.10393	0.049204	0.12711	0.095487	0.14407	-2.6083	-2.2458	-2.7521	-2.7938	-2.2583	-2.8854	-2.4854	-2.3063	-3.1271	-2.1542	-2.6354	-2.8312	-2.1562	-2.7667	-2.5646	-2.1979	205.441	169.368	58.972	206.979	-25.579	134.902	193.904	113.402	219.821	98.805	70.816	143.258	-52.768	192.202	201.050	200.393	0.00012269	0.00031331	0.00011221	951.55	2.1321e-06	2.0028e-06	1051.1	194.49	1.3606e-06	2.3122e-06	244.37	68.65	53.503	14.942	2.2783e-06	21.275	0.00049071	0.00077485	0.00021694	942.54	8.1973e-06	8.577e-06	1031.5	192.99	7.5688e-06	8.6712e-06	245.57	69.301	53.866	15.21	7.8182e-06	21.686	169.422	-14.552	-45.007	-97.469	18.764	71.560	-97.427	-89.668	68.377	69.651	-89.849	-83.564	-83.051	-75.101	15.984	-75.745	-8191	255	
28958.338	1	1	0	0	0.21968	0.057215	0.20345	0.17017	0.14719	0.23083	0.30785	0.24415	0.27389	0.094094	0.15908	0.037045	0.26078	0.081562	0.12448	0.26998	-2.5417	-2.1396	-2.6104	-2.8125	-2.0917	-3.0875	-2.8167	-2.3458	-3.2083	-2.5625	-2.4854	-2.9	-2.2604	-2.8583	-2.8667	-2.2271	97.596	-48.860	184.719	-91.366	209.183	36.437	206.839	76.481	187.353	-37.519	202.562	0.442	-92.658	79.121	149.490	211.827	0.00020172	0.0002836	8.3601e-05	955.03	1.9414e-06	2.8753e-06	1042.6	194.36	2.8175e-06	3.7268e-06	245.82	68.457	53.679	14.971	1.8256e-06	21.424	0.00048602	0.00077372	0.00022129	945.56	8.2039e-06	9.004e-06	1031.1	193.27	7.4539e-06	8.7731e-06	245.91	69.124	54.164	15.216	7.8101e-06	21.684	140.948	17.398	-34.904	-97.627	8.858	18.760	-97.296	-89.805	12.798	22.332	-90.220	-83.436	-83.242	-75.330	57.313	-76.231	-8191	255	
28958.434	1	1	0	0	0.25294	0.16181	0.24728	0.22755	0.25476	0.097205	0.22977	0.27508	0.096352	0.059746	0.13983	0.15239	0.056824	0.23889	0.24358	0.12593	-2.5062	-2.4229	-2.5021	-3.0375	-2.1937	-2.7625	-2.9542	-2.3208	-3.0958	-2.4292	-2.5375	-3.1458	-2.1229	-2.6813	-2.7854	-2.0979	-53.840	-98.029	160.133	169.446	77.103	-76.662	203.700	109.515	107.452	21.576	182.978	157.791	128.472	181.965	141.885	-87.101	0.00015751	0.00015362	6.4097e-05	960.2	2.2206e-06	1.6754e-06	1043.6	193.93	5.6415e-07	3.2395e-06	246.93	68.567	53.367	15.057	2.9981e-06	21.181	0.00048682	0.00080011	0.00023386	945.75	8.8868e-06	9.0151e-06	1030.6	192.83	7.5375e-06	8.9185e-06	245.95	69.383	53.947	15.255	8.2367e-06	21.659	142.631	6.601	22.846	-97.210	18.213	42.011	-97.204	-89.852	-57.339	39.995	-90.021	-83.286	-83.372	-75.656	41.630	-75.784	-8191	255	
28958.529	1	1	0	0	0.08969	0.13138	0.20241	0.40139	0.22159	0.26096	0.16498	0.26396	0.37548	0.26004	0.29171	0.16187	0.13276	0.13383	0.29906	0.20242	-2.5229	-2.5896	-2.2313	-3.0958	-2.5083	-2.5312	-3.1417	-2.3542	-2.9125	-2.5542	-2.2208	-3.1854	-2.2729	-2.5458	-2.8146	-2.1875	-86.786	232.217	228.251	224.938	125.661	-25.939	248.670	179.563	225.381	88.194	77.418	66.774	237.290	75.286	-96.493	208.325	0.00013299	0.0002543	7.8586e-05	958.23	2.3277e-06	2.0503e-06	1049.6	193.87	1.5641e-06	1.728e-06	245.75	68.836	53.837	15.041	1.5829e-06	21.324	0.0005083	0.00080348	0.00022719	944.36	8.6055e-06	9.205e-06	1031.9	192.96	7.6576e-06	8.8722e-06	245.62	69.583	54.15	15.248	7.8037e-06	21.681	153.584	-4.664	-19.532	-97.588	25.575	35.898	-97.290	-89.768	109.280	56.956	-89.898	-83.321	-83.416	-75.264	108.633	-76.506	-8191	255	
28958.627	1	1	0	0	0.11416	0.06894	0.096272	0.146	0.041183	0.027685	0.23619	0.47314	0.17728	0.21997	0.22797	0.335	0.26355	0.47235	0.10953	0.26067	-2.4271	-2.6646	-2.2146	-2.875	-2.575	-2.55	-3.125	-2.3354	-2.8792	-2.7313	-2.2167	-3.0417	-2.3354	-2.4354	-2.8438	-2.3292	-22.965	190.328	163.535	169.136	110.200	27.799	209.928	211.561	47.677	196.667	206.884	182.881	80.775	-105.490	-86.235	163.969	0.00011753	0.00026114	8.2591e-05	960.09	1.9097e-06	3.803e-06	1044.5	193.04	2.0477e-06	3.3199e-06	248.31	68.498	53.421	14.998	1.7049e-06	21.18	0.00049211	0.00076225	0.00022138	944.24	8.3109e-06	9.1291e-06	1030.9	192.61	7.8763e-06	8.9203e-06	245.81	69.373	53.995	15.197	7.7521e-06	21.631	146.302	9.633	-2.831	-97.603	-5.142	79.894	-97.359	-89.784	72.644	71.369	-90.085	-83.222	-83.043	-75.186	87.359	-75.830	-8191	255	
28958.746	1	1	0	0	0.15761	0.19997	0.15015	0.097682	0.10446	0.21255	0.17433	0.40647	0.1612	0.12941	0.20792	0.12774	0.16758	0.1438	0.12565	0.085926	-2.3187	-2.7562	-2.1813	-2.8312	-2.5417	-2.2208	-3.1188	-2.1583	-2.5667	-2.6271	-2.0729	-2.8063	-2.4938	-2.2146	-2.8979	-2.2229	35.792	102.446	-106.390	94.117	-106.069	-21.911	-90.846	185.870	149.317	-67.373	-4.605	-54.902	220.128	188.660	217.691	36.927	0.00013633	0.00026711	5.802e-05	956.16	1.1529e-06	1.0734e-06	1045.6	194.27	2.3766e-06	2.9992e-06	246.56	68.573	53.562	15.003	1.1597e-06	21.302	0.00048775	0.00079618	0.00022459	943.39	8.496e-06	9.1763e-06	1033.4	193.03	8.0995e-06	9.3491e-06	245.93	69.228	54.005	15.205	8.048e-06	21.701	153.142	-12.011	-39.526	-97.353	39.400	41.016	-97.325	-90.016	20.440	38.213	-90.318	-83.189	-83.538	-75.258	26.714	-76.100	-8191	255	
28958.842	1	1	0	0	0.12883	0.087621	0.059282	0.20865	0.11271	0.078379	0.33279	0.029839	0.050506	0.25638	0.24064	0.11768	0.14967	0.06642	0.26669	0.1222	-2.1417	-2.7979	-2.0917	-2.9771	-2.6813	-2.225	-3.1688	-2.4229	-2.7375	-2.9604	-2.1979	-3.0125	-2.725	-2.1979	-3.1646	-2.3979	196.254	58.187	8.215	214.136	48.041	161.840	218.096	25.299	133.466	-47.155	195.108	208.930	251.681	195.930	140.075	157.739	0.00016204	0.00023944	8.5387e-05	957.82	5.2438e-06	3.3124e-06	1041.3	192.86	2.4782e-06	2.6827e-06	247.44	68.743	53.554	15.091	2.8696e-06	21.262	0.0005093	0.00080116	0.00023536	944.03	8.486e-06	9.2764e-06	1032.3	192.51	8.2741e-06	9.0342e-06	246.08	69.556	54.002	15.272	7.8021e-06	21.688	144.985	-7.339	1.949	-97.233	47.310	65.409	-97.059	-89.660	4.307	66.895	-90.090	-83.105	-83.226	-75.738	7.455	-75.981	-8191	255	
28958.938	1	1	0	0	0.22491	0.24795	0.12816	0.17506	0.32745	0.062353	0.22272	0.29089	0.18547	0.30461	0.082854	0.36743	0.11895	0.23956	0.048807	0.031384	-2.2646	-3.1396	-2.2771	-2.75	-2.6708	-2.4062	-3.0083	-2.3833	-2.1208	-3.0771	-2.2729	-2.8042	-2.7375	-2.3917	-3.0333	-2.4375	232.361	10.268	115.648	166.866	21.457	101.081	188.854	215.782	214.009	195.389	60.958	223.194	-21.797	176.316	119.070	78.211	0.00013934	0.00028054	9.3839e-05	957.93	4.2546e-06	3.4966e-06	1046.8	193.61	2.2993e-06	2.8901e-06	246.47	68.586	53.603	14.985	2.1355e-06	21.363	0.00052413	0.00080068	0.00022719	946.84	8.4429e-06	9.1309e-06	1033.3	192.88	8.1659e-06	8.9564e-06	245.89	69.242	53.985	15.214	8.2416e-06	21.657	139.735	-15.526	-8.742	-97.472	27.715	57.722	-97.143	-89.998	21.715	51.714	-89.865	-83.264	-83.481	-75.251	17.666	-75.470	-8191	255	
28959.057	1	1	0	0	0.18571	0.15232	0.16392	0.03919	0.11718	0.077002	0.2915	0.053889	0.14288	0.2583	0.061341	0.10282	0.09882	0.10397	0.41905	0.079539	-2.0208	-2.9208	-2.2729	-2.8312	-2.8042	-2.1292	-3.1354	-2.6292	-2.3042	-3.0479	-2.4521	-2.5938	-2.7875	-2.2188	-2.8708	-2.5354	151.786	-72.986	232.043	243.651	2.370	-69.765	209.205	161.529	47.046	171.889	145.109	-88.421	-19.500	247.310	177.349	-52.187	0.00015767	0.00045835	0.00010589	958.9	2.5087e-06	4.3609e-06	1044.2	192.89	1.3839e-06	1.0258e-06	247.97	68.92	53.417	15.038	1.9825e-06	21.127	0.00050369	0.000788	0.00023247	945.53	8.4404e-06	9.3264e-06	1034.2	192.71	8.142e-06	8.7657e-06	245.72	69.555	53.853	15.212	8.419e-06	21.661	138.492	-7.256	-8.354	-96.865	48.851	59.959	-97.310	-90.013	13.584	39.657	-90.137	-83.130	-82.707	-74.919	-7.005	-75.751	-8191	255	
28959.129	1	1	0	0	0.18424	0.24559	0.16961	0.067825	0.067902	0.1515	0.17895	0.10756	0.20951	0.076148	0.19288	0.13368	0.14138	0.077756	0.1197	0.26575	-1.8958	-3.0354	-2.2792	-2.4896	-2.7208	-2.0354	-3.0563	-2.6312	-2.2062	-3.1229	-2.2896	-2.5604	-3.1125	-2.2729	-2.8396	-2.7375	224.108	-40.829	-48.171	90.028	68.654	56.982	160.816	-38.247	-60.702	162.668	106.449	162.213	-34.833	-48.523	-95.629	191.693	0.00017341	0.00024184	5.1715e-05	955.32	2.2698e-06	1.6348e-06	1036.9	194.36	1.2099e-06	1.8385e-06	245.22	68.39	53.515	14.996	3.0413e-06	21.349	0.00050838	0.00078527	0.00022452	942.81	8.5731e-06	9.294e-06	1031.5	193.04	8.342e-06	8.7545e-06	245.16	69.221	53.888	15.245	7.723e-06	21.798	144.734	13.857	4.903	-97.512	33.585	27.729	-97.155	-89.478	-21.067	61.494	-90.418	-83.383	-83.307	-75.637	83.146	-76.212	-8191	255	
28959.225	1	1	0	0	0.31874	0.15765	0.1649	0.17776	0.10719	0.17674	0.26222	0.15886	0.15771	0.18707	0.25003	0.13335	0.19938	0.13753	0.1282	0.047004	-1.7812	-2.9062	-2.4521	-2.4458	-2.9542	-2.2104	-2.8146	-2.8167	-2.1646	-3.0375	-2.4021	-2.2292	-3.0521	-2.2042	-2.6208	-2.9917	195.349	-13.183	-22.358	160.317	93.750	-10.358	201.252	-13.304	116.198	96.249	213.752	-95.576	195.195	78.587	96.669	111.787	0.00017142	0.00041656	0.00010832	951.15	1.675e-06	2.4568e-06	1041.8	194.62	3.2964e-06	2.6807e-06	245.58	68.715	53.554	14.995	2.8551e-06	21.262	0.0004984	0.00078335	0.0002191	940.79	8.169e-06	8.891e-06	1032	193.15	7.6084e-06	8.9379e-06	245.33	69.4	53.927	15.207	7.9706e-06	21.642	149.778	-15.406	12.430	-97.116	-24.158	79.996	-97.337	-89.734	6.586	46.363	-90.215	-83.081	-83.498	-75.563	49.315	-76.636	-8191	255	
28959.320	1	1	0	0	0.12148	0.064247	0.072248	0.16931	0.14294	0.2051	0.26794	0.064162	0.19197	0.16166	0.084016	0.079319	0.26772	0.094455	0.17277	0.16944	-1.7833	-3.0312	-2.6729	-2.3396	-2.8625	-2.3312	-2.875	-2.9688	-2.0958	-2.8958	-2.5729	-2.2625	-3.0792	-2.3229	-2.5479	-3.1	211.614	-2.682	6.669	-87.638	-57.474	172.470	180.185	246.052	227.254	-83.852	245.234	-13.901	140.262	130.229	-66.278	-103.220	0.00016299	0.00022	0.00012557	960.86	2.4108e-06	2.4745e-06	1041.6	193.84	2.0017e-06	3.2851e-06	245.08	68.744	53.366	14.98	2.3735e-06	21.348	0.00051067	0.0007726	0.00022193	944.37	8.3748e-06	8.8808e-06	1030.9	193	7.7449e-06	8.7925e-06	245.7	69.376	53.931	15.21	7.7101e-06	21.678	150.456	-24.429	-48.186	-97.290	71.408	40.069	-97.089	-89.880	-33.677	39.129	-90.355	-82.972	-83.225	-75.568	-18.510	-75.875	-8191	255	
28959.441	1	1	0	0	0.17485	0.031117	0.097085	0.13761	0.1261	0.25472	0.33595	0.0046042	0.19671	0.34336	0.48077	0.2904	0.1416	0.35083	0.1189	0.15687	-1.7563	-3.0333	-2.7333	-2.3271	-3.0687	-2.4104	-2.6229	-3.0667	-2.1167	-2.8417	-2.8583	-2.1708	-3.0021	-2.4562	-2.5146	-2.8646	102.739	83.770	155.621	50.949	149.175	213.554	-92.868	17.832	210.075	179.256	193.512	-96.066	213.816	139.391	9.360	244.197	0.00011925	0.00024113	6.1378e-05	958.3	2.1631e-06	2.6242e-06	1038	192.65	1.1016e-06	3.4334e-06	246.7	68.354	53.428	15.063	1.9613e-06	21.414	0.00049989	0.00074028	0.000211	945.47	8.057e-06	8.6501e-06	1031.5	192.37	7.8479e-06	8.8518e-06	245.5	69.216	53.907	15.248	8.0303e-06	21.631	152.843	8.634	-6.091	-97.588	-11.703	23.313	-97.275	-90.123	-16.175	58.114	-90.097	-83.657	-83.280	-75.447	-14.493	-75.838	-8191	255	
28959.535	1	1	0	0	0.18523	0.22945	0.23721	0.21347	0.46286	0.1886	0.073142	0.044918	0.25679	0.1433	0.20745	0.32052	0.17726	0.16189	0.15544	0.030961	-1.7313	-2.7562	-2.8479	-2.3083	-2.9417	-2.4479	-2.5708	-3.0125	-2.4313	-2.5104	-2.8646	-2.1375	-2.9875	-2.4542	-2.2646	-3.0354	69.658	178.639	-102.864	-62.333	-81.948	222.857	5.342	207.461	-85.393	-55.177	243.869	113.120	-58.844	188.031	49.853	170.642	0.00018294	0.00037971	9.4151e-05	953.33	2.1462e-06	1.4291e-06	1044.7	194.24	1.5525e-06	3.262e-06	244.97	68.836	53.511	15.001	3.7455e-06	21.323	0.0005063	0.00075415	0.00022211	941.88	8.3267e-06	8.8011e-06	1032.7	193.13	7.6487e-06	9.2454e-06	244.86	69.515	53.953	15.21	8.0916e-06	21.622	143.912	-3.519	-41.910	-97.087	55.780	9.633	-97.347	-89.724	-24.600	14.135	-90.186	-83.562	-82.998	-75.797	48.585	-76.064	-8191	255	
#DATA ENDS
