BOXY.EXE: ISS Imagent and Oximeter Data Acquisition Program Version 0.80
Ascii Record File

#ACQ INFORMATION
2  Detector Channels 
16  External MUX Channels 
1  Auxiliary Channels 
5000  Waveform (CCF) Frequency (Hz)
1  Waveforms Skipped 
30  Waveforms Averaged 
1  Cycles Averaged 
16  Acquisitions per Waveform 
10.0806  Updata Rate (Hz) 

#FILE INFORMATION
TRUE -- External MUX Channel results are PARSED.
FALSE -- AC DC and Phase are NOT grouped.
TRUE -- Companion Program Settings File CREATED.
FALSE -- AC data not excluded
FALSE -- DC data not excluded
FALSE -- Phase data not excluded
FALSE -- Auxillary Chn. data not excluded
Tab delimiters

#CALIBRATION STATE
TRUE -- Waveform Calibration Values APPLIED.


#AUX CALIBRATION VALUES
Val Type	aux-1	

Term	1.0000e+00	
Factor	0.0000e+00	


#WF CALIBRATION VALUES
A = Detector Channel
Val Type	A-AC1	A-AC2	A-AC3	A-AC4	A-AC5	A-AC6	A-AC7	A-AC8	A-AC9	A-AC10	A-AC11	A-AC12	A-AC13	A-AC14	A-AC15	A-AC16	A-DC1	A-DC2	A-DC3	A-DC4	A-DC5	A-DC6	A-DC7	A-DC8	A-DC9	A-DC10	A-DC11	A-DC12	A-DC13	A-DC14	A-DC15	A-DC16	A-Ph1	A-Ph2	A-Ph3	A-Ph4	A-Ph5	A-Ph6	A-Ph7	A-Ph8	A-Ph9	A-Ph10	A-Ph11	A-Ph12	A-Ph13	A-Ph14	A-Ph15	A-Ph16	

Term	0.00000e+00	0.00000e+00	0.00000e+00	0.00000e+00	0.00000e+00	0.00000e+00	0.00000e+00	0.00000e+00	0.00000e+00	0.00000e+00	0.00000e+00	0.00000e+00	0.00000e+00	0.00000e+00	0.00000e+00	0.00000e+00	0.00000e+00	0.00000e+00	0.00000e+00	0.00000e+00	0.00000e+00	0.00000e+00	0.00000e+00	0.00000e+00	0.00000e+00	0.00000e+00	0.00000e+00	0.00000e+00	0.00000e+00	0.00000e+00	0.00000e+00	0.00000e+00	0.00000e+00	0.00000e+00	0.00000e+00	0.00000e+00	0.00000e+00	0.00000e+00	0.00000e+00	0.00000e+00	0.00000e+00	0.00000e+00	0.00000e+00	0.00000e+00	0.00000e+00	0.00000e+00	0.00000e+00	0.00000e+00	
Factor	1.00000e+00	1.00000e+00	1.00000e+00	1.00000e+00	1.00000e+00	1.00000e+00	1.00000e+00	1.00000e+00	1.00000e+00	1.00000e+00	1.00000e+00	1.00000e+00	1.00000e+00	1.00000e+00	1.00000e+00	1.00000e+00	1.00000e+00	1.00000e+00	1.00000e+00	1.00000e+00	1.00000e+00	1.00000e+00	1.00000e+00	1.00000e+00	1.00000e+00	1.00000e+00	1.00000e+00	1.00000e+00	1.00000e+00	1.00000e+00	1.00000e+00	1.00000e+00	X	X	X	X	X	X	X	X	X	X	X	X	X	X	X	X	

B = Detector Channel
Val Type	B-AC1	B-AC2	B-AC3	B-AC4	B-AC5	B-AC6	B-AC7	B-AC8	B-AC9	B-AC10	B-AC11	B-AC12	B-AC13	B-AC14	B-AC15	B-AC16	B-DC1	B-DC2	B-DC3	B-DC4	B-DC5	B-DC6	B-DC7	B-DC8	B-DC9	B-DC10	B-DC11	B-DC12	B-DC13	B-DC14	B-DC15	B-DC16	B-Ph1	B-Ph2	B-Ph3	B-Ph4	B-Ph5	B-Ph6	B-Ph7	B-Ph8	B-Ph9	B-Ph10	B-Ph11	B-Ph12	B-Ph13	B-Ph14	B-Ph15	B-Ph16	

Term	0.00000e+00	0.00000e+00	0.00000e+00	0.00000e+00	0.00000e+00	0.00000e+00	0.00000e+00	0.00000e+00	0.00000e+00	0.00000e+00	0.00000e+00	0.00000e+00	0.00000e+00	0.00000e+00	0.00000e+00	0.00000e+00	0.00000e+00	0.00000e+00	0.00000e+00	0.00000e+00	0.00000e+00	0.00000e+00	0.00000e+00	0.00000e+00	0.00000e+00	0.00000e+00	0.00000e+00	0.00000e+00	0.00000e+00	0.00000e+00	0.00000e+00	0.00000e+00	-1.51084e+02	-1.28834e+02	-1.28025e+02	-1.86409e+02	-7.68898e+01	-6.93831e+01	-1.58531e+02	-1.62015e+02	-7.47914e+01	-6.79359e+01	-1.72014e+02	-1.71423e+02	-1.83400e+02	-1.77421e+02	-7.05656e+01	-1.49763e+02	
Factor	2.11876e-05	1.39541e-04	4.21210e-05	2.80485e-01	1.28048e-06	1.60148e-06	1.54187e-01	4.54447e-02	1.08396e-06	1.57593e-06	7.46426e-02	2.54121e-02	3.58899e-02	8.15869e-03	1.32146e-06	1.15051e-02	9.79520e-06	1.44465e-05	4.03494e-06	1.49735e-01	1.53051e-07	1.61647e-07	7.78450e-02	2.45314e-02	1.47844e-07	1.59374e-07	3.90137e-02	1.33397e-02	1.96024e-02	4.44578e-03	1.52412e-07	6.08456e-03	X	X	X	X	X	X	X	X	X	X	X	X	X	X	X	X	



#DISTANCE SETTINGS
A = Detector Channel
A-1	A-2	A-3	A-4	A-5	A-6	A-7	A-8	A-9	A-10	A-11	A-12	A-13	A-14	A-15	A-16	

2.5000e+00	3.0000e+00	2.5000e+00	3.0000e+00	2.0000e+00	3.0000e+00	1.5000e+00	3.0000e+00	3.0000e+00	3.0000e+00	3.0000e+00	3.0000e+00	3.0000e+00	3.0000e+00	1.5000e+00	3.0000e+00	

B = Detector Channel
B-1	B-2	B-3	B-4	B-5	B-6	B-7	B-8	B-9	B-10	B-11	B-12	B-13	B-14	B-15	B-16	

1.0000e+01	1.0000e+01	1.0000e+01	1.4400e+00	1.0000e+01	1.0000e+01	1.5100e+00	1.9400e+00	1.0000e+01	1.0000e+01	1.9900e+00	2.4900e+00	2.4100e+00	2.9000e+00	1.0000e+01	2.9800e+00	




#DATA BEGINS
time	group	step	mark	flag	A-AC1	A-AC2	A-AC3	A-AC4	A-AC5	A-AC6	A-AC7	A-AC8	A-AC9	A-AC10	A-AC11	A-AC12	A-AC13	A-AC14	A-AC15	A-AC16	A-DC1	A-DC2	A-DC3	A-DC4	A-DC5	A-DC6	A-DC7	A-DC8	A-DC9	A-DC10	A-DC11	A-DC12	A-DC13	A-DC14	A-DC15	A-DC16	A-Ph1	A-Ph2	A-Ph3	A-Ph4	A-Ph5	A-Ph6	A-Ph7	A-Ph8	A-Ph9	A-Ph10	A-Ph11	A-Ph12	A-Ph13	A-Ph14	A-Ph15	A-Ph16	B-AC1	B-AC2	B-AC3	B-AC4	B-AC5	B-AC6	B-AC7	B-AC8	B-AC9	B-AC10	B-AC11	B-AC12	B-AC13	B-AC14	B-AC15	B-AC16	B-DC1	B-DC2	B-DC3	B-DC4	B-DC5	B-DC6	B-DC7	B-DC8	B-DC9	B-DC10	B-DC11	B-DC12	B-DC13	B-DC14	B-DC15	B-DC16	B-Ph1	B-Ph2	B-Ph3	B-Ph4	B-Ph5	B-Ph6	B-Ph7	B-Ph8	B-Ph9	B-Ph10	B-Ph11	B-Ph12	B-Ph13	B-Ph14	B-Ph15	B-Ph16	aux-1	digaux	

29078.098	1	1	0	256	0.29504	0.10507	0.13349	0.32051	0.35351	0.1463	0.32958	0.22783	0.077362	0.26516	0.12648	0.032419	0.11427	0.091134	0.14974	0.11956	-1.7708	-2.5667	-3.0187	-2.2354	-2.9396	-2.5896	-2.4125	-3.1833	-2.4208	-2.4458	-2.9583	-2.0729	-2.8667	-2.7917	-2.2542	-3.0771	226.512	476.687	427.073	458.469	289.690	289.709	411.164	170.502	175.706	402.903	175.673	411.008	457.525	159.266	359.675	369.233	0.0003247	0.00051368	6.9884e-05	1011.4	4.8808e-06	2.9577e-06	1105.8	207.42	2.2973e-06	3.2191e-06	267.84	75.877	59.277	16.687	3.8489e-06	23.406	0.00035799	0.00040387	0.00011152	999.7	4.2306e-06	4.3756e-06	1097.5	206.92	4.4027e-06	4.4177e-06	267.32	76.257	59.848	16.924	4.4428e-06	23.886	173.354	201.437	243.074	156.379	287.186	277.114	156.302	163.693	298.555	262.971	163.312	169.973	169.382	178.231	272.764	177.257	-8191	255	
29078.193	1	1	0	0	0.12246	0.22734	0.069288	0.25479	0.18177	0.033866	0.0397	0.057112	0.1846	0.18092	0.29693	0.20564	0.089971	0.13638	0.079804	0.29168	-1.8	-2.4313	-2.9167	-2.3979	-2.7042	-2.6979	-2.2458	-2.9354	-2.3521	-2.4458	-3.0125	-2.2438	-2.7396	-2.9479	-2.1562	-2.7896	233.121	198.854	282.397	412.075	276.278	505.315	333.272	429.124	266.503	347.191	497.482	148.675	353.517	470.259	247.421	396.685	0.00032064	0.00035779	5.0229e-05	1009.3	4.1581e-06	2.8759e-06	1106.8	208.94	3.8398e-06	2.8647e-06	268.35	76.292	59.602	16.592	2.1664e-06	23.256	0.00038546	0.0004349	0.00011493	997.9	4.6645e-06	4.6783e-06	1099.7	207.86	4.5511e-06	4.9054e-06	268.15	76.728	59.971	16.881	4.3583e-06	23.903	175.494	218.408	217.810	156.486	273.948	362.371	156.020	163.414	259.763	270.618	163.244	169.789	170.167	177.911	275.143	177.503	-8191	255	
29078.312	1	1	0	0	0.118	0.13236	0.14369	0.22025	0.20479	0.13207	0.29347	0.29773	0.42165	0.13426	0.10222	0.099585	0.22312	0.15444	0.1925	0.11095	-2.0542	-2.4958	-2.9833	-2.2313	-2.7417	-2.8604	-2.4354	-2.9396	-2.5563	-2.2354	-2.9313	-2.4583	-2.4729	-2.9333	-2.0521	-3.0625	409.864	366.895	271.317	174.260	475.433	500.143	475.598	464.401	457.938	194.362	474.299	303.756	214.417	167.202	188.172	417.818	0.00033033	0.00032254	7.944e-05	1012.1	2.282e-06	2e-06	1104.7	208.29	4.5359e-06	3.5585e-06	269.28	76.227	59.558	16.646	3.1506e-06	23.27	0.00038681	0.00042346	0.00011294	999.5	4.4519e-06	4.5611e-06	1098.8	207.79	4.6882e-06	4.5727e-06	267.92	76.663	59.799	16.951	4.552e-06	23.889	184.136	210.059	234.373	156.275	239.425	285.078	156.205	163.856	288.459	350.261	163.327	169.756	170.374	177.694	281.046	177.784	-8191	255	
29078.385	1	1	0	0	0.042499	0.13512	0.099382	0.16477	0.18595	0.18915	0.24124	0.19742	0.39553	0.13072	0.11907	0.023561	0.12229	0.21786	0.24967	0.25768	-2.1063	-2.1542	-3.1021	-2.2646	-2.4583	-2.9688	-2.3271	-2.9833	-2.6271	-2.3958	-3.0771	-2.3375	-2.4208	-2.9	-2.1813	-3.0438	435.262	291.558	382.147	202.130	263.686	457.001	190.637	440.994	441.948	314.626	331.986	227.363	333.071	408.586	423.638	426.835	0.00031326	0.00031586	0.00012233	1008.6	2.648e-06	2.2222e-06	1106.5	208.84	2.468e-06	4.3087e-06	268.22	76.582	59.494	16.769	1.8893e-06	23.631	0.00038073	0.00041768	0.00010882	997.95	4.4863e-06	4.384e-06	1099.5	207.77	4.2924e-06	4.4907e-06	267.5	76.694	59.921	16.98	4.2424e-06	23.929	168.437	231.265	251.555	156.151	322.046	341.881	156.055	163.695	265.106	301.069	163.376	169.339	170.483	178.057	298.285	177.681	-8191	255	
29078.480	1	1	0	0	0.27949	0.11473	0.20708	0.18045	0.23601	0.38064	0.22669	0.34047	0.25255	0.26067	0.20358	0.17839	0.18246	0.1451	0.079428	0.08479	-2.3875	-2.15	-2.9729	-2.4917	-2.3625	-3.1083	-2.4375	-2.9354	-2.7458	-2.0833	-3.0792	-2.4417	-2.3146	-2.9417	-2.2458	-2.6604	371.228	206.250	505.280	451.036	369.033	296.838	438.316	417.917	308.743	354.497	270.045	433.007	368.381	417.143	470.277	466.640	0.00032339	0.00040707	7.1884e-05	1011.1	3.0338e-06	2.7617e-06	1105	208.23	1.5328e-06	3.0467e-06	267.31	76.073	59.719	16.729	2.058e-06	23.351	0.00035836	0.00039261	0.00010844	998.35	4.2841e-06	4.217e-06	1096.5	207.8	4.0854e-06	4.3117e-06	267.25	76.486	60.052	16.901	4.2704e-06	23.866	169.816	218.275	278.663	155.758	305.927	324.301	156.241	164.101	268.288	313.721	163.301	169.845	170.087	177.898	271.472	177.308	-8191	255	
29078.602	1	1	0	0	0.29634	0.10515	0.22864	0.24316	0.19625	0.31804	0.20644	0.12673	0.25557	0.088771	0.08355	0.078654	0.17753	0.25398	0.010853	0.16807	-2.3146	-2.3583	-2.9813	-2.5812	-2.2938	-2.6917	-2.5396	-2.4188	-2.8208	-2.1396	-2.8833	-2.6354	-2.1312	-2.9854	-2.3896	-2.6125	153.532	434.075	193.434	456.447	473.897	422.716	504.308	455.927	379.160	336.886	469.955	466.917	395.503	500.960	180.095	423.250	0.000334	0.00040322	7.9244e-05	1006.2	2.8639e-06	4.6259e-06	1110.5	207.58	2.3047e-06	2.8191e-06	264.22	75.988	59.833	16.678	3.4907e-06	23.355	0.00036907	0.000407	0.00010661	999.56	4.471e-06	4.254e-06	1097.6	207.16	4.1695e-06	4.318e-06	266.32	76.37	59.81	16.934	4.1192e-06	23.851	172.868	236.182	254.917	156.207	259.433	302.732	156.498	163.760	257.379	302.748	163.710	169.473	169.924	178.217	257.541	177.421	-8191	255	
29078.697	1	1	0	0	0.16282	0.26942	0.2031	0.14899	0.14667	0.18892	0.23078	0.20057	0.20035	0.23088	0.10908	0.085125	0.36139	0.16888	0.3216	0.072414	-2.7604	-2.225	-2.9	-2.9437	-2.3104	-3.0875	-2.5312	-2.5146	-2.925	-2.1229	-3.025	-2.85	-2.3	-2.8875	-2.5792	-2.4708	180.631	254.528	244.204	436.950	250.825	181.546	425.593	504.429	399.454	341.448	386.633	462.900	459.704	482.590	179.505	264.826	0.00030744	0.00022917	5.1445e-05	1006	2.1071e-06	2.165e-06	1102.1	209.09	2.3206e-06	3.021e-06	266.2	75.956	59.425	16.538	3.6473e-06	23.364	0.00034712	0.00038762	0.00010662	996.48	4.2825e-06	3.9496e-06	1096	207.44	4.0854e-06	4.2636e-06	266.63	76.424	59.72	16.927	4.1497e-06	23.85	171.050	211.774	237.442	156.072	287.630	322.412	156.099	163.556	248.504	261.400	163.610	169.892	169.814	178.404	289.580	177.443	-8191	255	
29078.795	1	1	0	0	0.037	0.061781	0.11488	0.090165	0.13135	0.17217	0.29177	0.097803	0.19103	0.094805	0.10407	0.36255	0.24789	0.17796	0.096161	0.20287	-2.4479	-2.0812	-2.6979	-2.7521	-2.1479	-3.0229	-2.4813	-2.4562	-2.8812	-2.1625	-2.8229	-2.8271	-2.0833	-2.8771	-2.5271	-2.3333	357.773	192.145	284.911	156.718	290.252	433.897	432.154	232.319	386.821	476.233	386.609	465.646	500.273	220.051	198.427	439.894	0.00030605	0.00021223	6.2574e-05	1011.5	9.4755e-07	2.242e-06	1105	208.67	3.5048e-06	3.9456e-06	267.06	76.1	59.37	16.623	1.5487e-06	23.311	0.00035006	0.00038951	0.00010245	994.6	4.089e-06	4.1799e-06	1093.3	207.11	3.9481e-06	4.1062e-06	267.18	76.618	59.652	16.932	4.0805e-06	23.789	171.006	216.009	272.528	156.167	304.236	254.541	156.113	163.807	274.039	291.583	163.520	170.055	170.466	177.806	273.537	177.528	-8191	255	
29078.891	1	1	0	0	0.0985	0.073893	0.12413	0.13339	0.043104	0.14711	0.27213	0.10507	0.18258	0.081446	0.083585	0.07427	0.25036	0.18607	0.21226	0.034601	-2.6896	-2.1729	-2.5187	-2.8521	-2.0312	-2.8667	-2.8937	-2.1958	-3.0021	-2.2542	-2.4271	-3.1333	-2.2438	-2.9292	-2.6729	-2.2167	215.968	378.521	382.228	463.068	263.861	464.667	446.992	228.384	421.972	218.188	221.410	404.168	211.935	218.839	223.040	312.008	0.00030131	0.00031681	0.0001279	1001.9	3.0441e-06	1.5634e-06	1107.6	207.44	3.7881e-06	2.298e-06	267.78	75.893	59.729	16.584	3.8656e-06	23.281	0.00035042	0.00039987	0.00010654	994.52	4.2825e-06	4.1102e-06	1094.1	207.28	4.0399e-06	4.0581e-06	267.12	76.424	59.858	16.897	3.9398e-06	23.853	173.101	240.317	242.420	156.431	272.603	291.844	156.010	163.878	257.067	308.607	163.495	169.720	170.386	177.926	253.094	177.185	-8191	255	
29078.986	1	1	0	0	0.11562	0.091445	0.21039	0.16913	0.20741	0.17649	0.22357	0.14101	0.099082	0.23058	0.10418	0.14805	0.28794	0.24361	0.2396	0.15173	-2.6417	-2.3167	-2.3604	-2.9771	-2.2042	-2.7146	-2.8479	-2.3667	-2.8917	-2.3917	-2.5354	-2.9979	-2.2188	-2.7708	-2.7854	-2.0812	375.149	317.066	335.050	505.756	170.869	184.203	440.446	429.562	448.903	334.234	400.803	355.589	232.891	169.884	499.618	302.097	0.00034518	0.00035763	5.5877e-05	1007.1	4.092e-06	2.7858e-06	1106.4	207.42	3.1969e-06	3.7292e-06	266.99	75.781	59.701	16.68	2.946e-06	23.211	0.00035234	0.00037383	0.00010674	993.8	4.1391e-06	4.3965e-06	1096.6	206.96	4.1504e-06	4.1182e-06	266.87	76.591	59.881	16.91	3.9354e-06	23.781	173.599	221.573	239.782	156.263	288.776	252.601	156.317	164.012	291.305	331.965	163.917	169.915	170.181	178.592	292.096	177.726	-8191	255	
29079.080	1	1	0	0	0.11353	0.057163	0.040622	0.17732	0.099783	0.24322	0.051405	0.42033	0.21003	0.067466	0.25489	0.27427	0.024703	0.19218	0.16445	0.04845	-2.6021	-2.4625	-2.3604	-3.0042	-2.2083	-2.5396	-3.0354	-2.3521	-3.1417	-2.5687	-2.1771	-3.1688	-2.3604	-2.7375	-2.9229	-2.0167	360.028	478.873	465.924	164.845	230.600	299.103	217.494	455.015	167.692	323.243	147.899	500.166	195.150	241.824	200.430	202.595	0.00031661	0.00025214	3.7096e-05	1012.7	4.6151e-06	3.5274e-06	1102.5	208.3	3.7847e-06	1.5497e-06	266.19	76.055	59.838	16.762	3.1661e-06	23.405	0.00034514	0.00038398	0.00010601	999.49	4.4212e-06	4.0375e-06	1094.4	207.47	3.9499e-06	4.1145e-06	266.93	76.705	59.716	16.892	4.0659e-06	23.865	167.699	214.736	231.863	155.936	290.821	294.595	156.378	164.063	282.224	262.718	163.717	170.201	170.272	177.935	289.181	177.518	-8191	255	
29079.178	1	1	0	0	0.18039	0.14583	0.090663	0.078181	0.19251	0.19997	0.20006	0.25219	0.19006	0.18321	0.16514	0.037089	0.20948	0.059284	0.17243	0.19793	-2.4458	-2.8292	-2.1896	-3.1562	-2.4771	-2.5458	-3.0875	-2.2979	-2.7646	-2.7417	-2.3792	-2.9542	-2.2354	-2.4271	-3.1562	-2.3042	338.253	452.923	398.858	225.755	437.954	392.589	430.638	413.479	380.538	178.526	160.824	477.341	190.294	177.524	276.912	358.220	0.00029806	0.00034692	6.678e-05	1014	3.416e-06	2.9732e-06	1103.9	207.53	2.0602e-06	5.6011e-06	267.83	76.266	59.616	16.785	7.4668e-07	23.344	0.00034871	0.0003683	0.00010252	999.21	4.1665e-06	4.2793e-06	1095.8	206.83	4.0974e-06	4.0889e-06	267.47	76.505	59.899	16.944	3.8386e-06	23.868	166.423	256.064	281.852	156.852	301.250	328.421	156.408	163.648	297.074	282.516	163.407	169.980	170.029	178.326	318.084	177.401	-8191	255	
29079.273	1	1	0	0	0.14333	0.23657	0.061644	0.16679	0.12137	0.094301	0.044842	0.34551	0.15535	0.18218	0.17552	0.13309	0.29206	0.19177	0.19439	0.44704	-2.5458	-2.7333	-2.1729	-3.0167	-2.5021	-2.5187	-3.0854	-2.2812	-2.7542	-2.9125	-2.3646	-2.9375	-2.6479	-2.425	-2.8917	-2.4729	362.886	456.901	417.012	468.934	491.682	292.723	475.755	373.880	355.341	321.030	406.871	499.875	157.844	439.442	217.437	151.693	0.00030932	0.0002511	8.1986e-05	1007.8	3.7061e-06	2.9767e-06	1108	207.59	1.7665e-06	5.3247e-06	268.73	76.072	59.759	16.58	1.1356e-06	23.264	0.00035583	0.00039613	0.00010455	996.06	4.2213e-06	4.2742e-06	1096.8	206.7	3.9977e-06	4.0368e-06	267.77	76.548	59.797	16.881	3.8913e-06	23.807	168.240	251.663	220.723	156.387	267.207	307.967	156.324	163.839	294.164	322.755	163.945	170.203	170.543	178.146	348.636	177.386	-8191	255	
29079.395	1	1	0	0	0.062403	0.14765	0.29418	0.28367	0.13409	0.044648	0.1647	0.32243	0.081871	0.30173	0.16156	0.25749	0.26561	0.16512	0.056041	0.095332	-2.5042	-2.9313	-2.1708	-2.9958	-2.7479	-2.3229	-3.1792	-2.4292	-2.6271	-2.9958	-2.3104	-2.9708	-2.7	-2.2146	-3.0833	-2.4354	426.746	380.266	241.844	193.327	284.957	181.477	440.297	465.327	239.773	234.365	496.420	442.815	476.924	358.933	263.561	476.869	0.00031543	0.00022525	6.0299e-05	1012.1	3.7323e-06	2.9701e-06	1108.4	207.27	1.7003e-06	2.5069e-06	266.3	76.725	59.352	16.716	2.5683e-06	23.21	0.00035687	0.00036724	0.0001043	998.68	4.0479e-06	4.0152e-06	1094.8	207.1	3.9884e-06	3.8861e-06	266.7	76.518	59.73	16.869	3.9443e-06	23.758	174.524	231.708	254.371	156.154	313.907	260.171	156.451	163.710	324.775	293.182	163.607	169.964	170.591	178.308	284.488	177.625	-8191	255	
29079.490	1	1	0	0	0.15037	0.23206	0.17656	0.045593	0.15182	0.20049	0.27547	0.333	0.05546	0.17934	0.11776	0.12799	0.20371	0.08969	0.35025	0.22712	-1.9937	-3.0979	-2.1562	-2.8792	-2.8792	-2.2271	-3.1396	-2.3875	-2.2458	-2.8833	-2.4125	-2.9188	-2.875	-2.175	-2.9562	-2.5292	234.653	285.610	184.694	151.134	211.603	320.248	409.677	409.311	302.182	502.329	488.616	151.880	488.184	157.872	166.924	426.666	0.00031626	0.00022856	9.6186e-05	1007.9	1.4589e-06	4.7991e-06	1105.6	208.36	3.1828e-06	1.08e-06	266.38	75.903	60.25	16.594	2.8326e-06	23.139	0.00035314	0.00034973	0.00010408	997.52	4.1458e-06	4.1005e-06	1094.9	206.88	4.0993e-06	3.8844e-06	266.79	76.547	60.056	16.889	4.0316e-06	23.792	170.371	257.107	232.660	156.587	288.247	341.749	156.273	163.971	259.429	245.310	163.711	170.131	170.280	178.262	285.053	177.732	-8191	255	
29079.586	1	1	0	0	0.03686	0.074057	0.27649	0.27529	0.16276	0.15675	0.35131	0.37799	0.12652	0.24007	0.18735	0.12632	0.075001	0.15856	0.14716	0.11284	-2.0208	-2.9938	-2.0458	-2.8354	-2.8458	-2.1021	-2.9875	-2.7021	-2.3229	-3.1354	-2.3875	-2.5479	-3.1	-2.1813	-2.9333	-2.6354	212.614	178.233	500.211	166.295	391.205	390.424	387.465	461.997	184.451	352.328	402.356	337.735	154.876	444.894	317.018	307.749	0.00029872	0.00032445	7.369e-05	1013.6	2.3731e-06	3.3589e-06	1106.1	207.97	2.591e-06	2.0436e-06	267.31	76.478	59.242	16.544	4.0355e-06	23.261	0.00035836	0.00036414	0.00010366	997.34	4.0424e-06	4.2931e-06	1094.1	206.69	4.0574e-06	3.9907e-06	266.28	76.559	59.632	16.87	3.9586e-06	23.859	164.567	260.580	233.390	156.622	283.456	303.770	156.302	164.054	283.905	231.210	163.610	169.863	170.435	178.624	320.458	177.625	-8191	255	
29079.682	1	1	0	0	0.10997	0.058092	0.18455	0.14314	0.1163	0.16831	0.05164	0.23077	0.29154	0.12543	0.099907	0.093124	0.18586	0.15962	0.20368	0.15318	-1.9854	-3.1583	-2.35	-2.6312	-2.9062	-2.2979	-3.0958	-2.7896	-2.3125	-2.8937	-2.4667	-2.5563	-2.975	-2.3063	-2.8396	-2.8708	406.481	427.678	300.682	359.096	440.099	505.274	441.445	166.083	366.886	281.584	389.007	432.780	207.061	485.364	272.618	161.714	0.00030791	0.00040183	8.9259e-05	1007.8	2.8854e-06	3.0483e-06	1105.9	207.97	2.4622e-06	4.0018e-06	267.2	75.887	59.623	16.571	2.8491e-06	23.219	0.00035997	0.00037672	0.00010344	996.92	3.92e-06	4.2981e-06	1095.1	206.9	4.1286e-06	4.0624e-06	266.82	76.436	59.774	16.875	4.0138e-06	23.758	175.064	244.668	258.753	156.525	297.971	253.644	156.436	163.958	266.881	292.592	163.633	169.940	170.012	178.094	284.889	177.732	-8191	255	
29079.777	1	1	0	0	0.17942	0.15147	0.03209	0.16811	0.023166	0.11817	0.15721	0.13303	0.050629	0.13618	0.1021	0.24188	0.096027	0.19315	0.23763	0.23738	-1.85	-2.9167	-2.5458	-2.3458	-3.0312	-2.3208	-2.9688	-2.9979	-2.2229	-2.8688	-2.7146	-2.425	-3.0604	-2.2	-2.8375	-2.9771	411.551	331.427	154.913	200.517	146.102	304.859	463.031	157.638	291.131	202.754	403.164	350.286	241.352	411.334	185.934	491.848	0.00029119	0.00019609	5.6781e-05	1010.6	4.0518e-06	4.157e-06	1101.1	207.71	2.1846e-06	2.4455e-06	265.33	76.346	59.64	16.601	2.6644e-06	23.229	0.00035518	0.0003571	0.00010324	995.05	4.0134e-06	4.1654e-06	1092.6	206.84	4.1184e-06	3.9359e-06	265.99	76.363	59.694	16.859	3.9703e-06	23.741	173.865	237.164	194.636	156.358	260.440	289.627	156.579	163.962	290.359	334.522	163.997	170.305	170.210	178.366	286.861	177.857	-8191	255	
29079.875	1	1	0	0	0.39328	0.10982	0.23044	0.063904	0.19516	0.031109	0.22814	0.15215	0.22655	0.089381	0.22933	0.17674	0.022728	0.13212	0.12326	0.13016	-1.6958	-2.8375	-2.55	-2.2	-3.1042	-2.3625	-2.6396	-3.0042	-2.25	-2.9	-2.775	-2.325	-3.0563	-2.4625	-2.5917	-2.8937	173.249	479.433	421.108	346.485	346.011	434.276	489.186	271.958	330.031	192.871	490.683	166.275	389.456	494.681	174.280	386.465	0.00030522	0.00030517	0.00011973	1010	2.9185e-06	6.4216e-07	1106.2	207.07	2.0036e-06	3.7813e-06	265.7	75.831	59.482	16.705	9.1617e-07	23.304	0.00035624	0.00036763	0.00010459	996.67	3.8677e-06	4.0014e-06	1094	206.51	4.0001e-06	3.8419e-06	266.01	76.214	59.699	16.89	3.8449e-06	23.749	171.869	199.446	249.336	156.682	250.115	298.192	156.522	164.492	254.349	339.729	163.902	170.076	170.417	178.126	253.776	177.190	-8191	255	
29079.994	1	1	0	0	0.099254	0.14051	0.066153	0.02527	0.038054	0.20676	0.27726	0.19028	0.091316	0.14475	0.17701	0.073217	0.13898	0.29927	0.2168	0.032811	-1.7625	-2.9771	-2.7167	-2.3812	-3.2104	-2.4958	-2.6479	-2.9917	-2.2188	-2.8917	-2.85	-2.3958	-3.1042	-2.3875	-2.375	-3.0667	198.589	155.544	470.624	459.607	470.584	298.439	423.591	473.001	505.273	398.342	470.296	404.033	337.316	382.562	205.853	307.594	0.00031259	0.00028274	9.5263e-05	1006.8	3.6326e-06	2.4415e-06	1104	207.49	2.1719e-06	4.2798e-06	266.57	75.849	59.715	16.473	3.1696e-06	23.235	0.00034377	0.00037019	9.9495e-05	993.49	3.7411e-06	4.0435e-06	1090.3	206.79	4.0029e-06	3.9086e-06	265.41	76.208	59.609	16.816	4.0449e-06	23.759	169.554	229.230	265.420	156.618	294.965	319.123	156.612	164.064	241.398	311.280	163.722	170.253	170.332	177.834	293.528	177.557	-8191	255	
29080.090	1	1	0	0	0.07324	0.11169	0.21879	0.11731	0.20781	0.2792	0.36246	0.32555	0.22385	0.042577	0.20928	0.11254	0.20677	0.14165	0.082304	0.20095	-1.7958	-2.8104	-2.8354	-2.1854	-2.9896	-2.6208	-2.5646	-2.9146	-2.1312	-2.65	-2.8104	-2.3083	-2.9958	-2.6854	-2.2438	-3.0312	383.459	174.111	484.032	171.510	395.151	302.828	392.964	408.445	151.349	203.939	478.171	201.452	505.292	202.683	317.084	310.593	0.00031686	0.00031859	4.1929e-05	1004.8	2.6693e-06	1.6446e-06	1098.7	206.6	4.6057e-06	2.7995e-06	264.4	76.019	59.478	16.553	4.1357e-06	23.373	0.00034418	0.00035806	9.3157e-05	991.14	4.0571e-06	4.1934e-06	1090.6	206.36	3.9481e-06	4.1939e-06	265.53	76.224	59.586	16.828	3.7725e-06	23.808	168.106	272.658	191.028	156.641	298.245	310.185	156.524	164.033	252.630	339.295	163.607	169.964	170.317	178.323	312.704	177.345	-8191	255	
29080.186	1	1	0	0	0.043761	0.14683	0.098131	0.15042	0.32368	0.1144	0.31304	0.24904	0.17916	0.18123	0.20748	0.14464	0.19051	0.11304	0.10285	0.1135	-1.8896	-2.4646	-2.9708	-2.2188	-2.9625	-2.7458	-2.5187	-3.0979	-2.3875	-2.5583	-3.1083	-2.3167	-2.9062	-2.5563	-2.1771	-3.1375	486.986	265.578	159.630	445.876	499.397	181.174	357.074	172.728	299.317	302.414	477.185	299.505	413.788	485.424	335.115	207.409	0.00034362	0.00029321	0.00010261	1004	3.4369e-06	2.8035e-06	1101.1	207.56	2.5621e-06	4.0738e-06	265.9	76.082	59.358	16.503	1.8639e-06	23.327	0.00036318	0.00036622	9.6494e-05	992.23	4.0813e-06	3.9139e-06	1090.7	206.41	3.8085e-06	3.8871e-06	266.15	76.18	59.577	16.784	3.8782e-06	23.775	175.307	224.490	228.304	156.591	276.586	284.961	156.668	164.001	261.136	304.970	163.891	169.810	170.680	178.836	305.884	177.715	-8191	255	
29080.258	1	1	0	0	0.15343	0.040247	0.13769	0.1438	0.18005	0.19674	0.20418	0.1532	0.2473	0.19869	0.14126	0.20199	0.17754	0.19667	0.15081	0.24841	-2.1125	-2.2562	-3.025	-2.3167	-2.7271	-2.8771	-2.3542	-3.0687	-2.4604	-2.3458	-3.0083	-2.375	-2.6146	-3.1396	-2.3604	-2.8958	439.945	373.829	451.970	199.064	218.533	466.721	166.420	229.786	318.122	407.616	364.694	497.860	488.548	191.500	283.675	200.654	0.0003234	0.00031357	0.00014406	1005.8	2.0696e-06	3.4699e-06	1098.1	206.97	2.4508e-06	5.517e-06	265.5	76.383	59.057	16.499	2.4072e-06	23.278	0.00034357	0.00036568	9.5132e-05	992.51	3.8094e-06	4.022e-06	1092.3	205.93	3.932e-06	4.0023e-06	265.37	76.352	59.378	16.842	3.796e-06	23.739	180.226	248.745	240.376	156.617	330.774	285.539	156.541	164.004	298.538	312.652	164.150	170.253	170.196	178.120	303.558	178.096	-8191	255	
29080.379	1	1	0	0	0.19597	0.11463	0.13295	0.16926	0.27866	0.11523	0.17754	0.14456	0.27824	0.088689	0.25183	0.12169	0.088961	0.077225	0.33769	0.22046	-2.3063	-2.2354	-3.025	-2.3625	-2.6771	-3.0208	-2.4479	-3.1104	-2.5312	-2.4	-2.9896	-2.4458	-2.55	-3.0979	-2.1167	-2.8333	170.203	379.806	309.509	452.140	463.023	358.980	445.829	432.622	477.892	385.914	488.122	402.443	436.239	176.518	377.812	191.395	0.00033658	0.00039055	2.9354e-05	1002.8	2.1155e-06	2.3601e-06	1103.9	207.35	1.6307e-06	3.0932e-06	266	75.739	59.659	16.717	1.1787e-06	23.171	0.00033377	0.00037459	9.0282e-05	989.1	3.8904e-06	4.024e-06	1092.3	206.16	3.7867e-06	4.069e-06	266.16	76.327	59.674	16.905	3.8741e-06	23.736	168.773	242.513	307.184	156.473	298.618	322.194	156.888	164.034	296.328	312.018	164.010	170.097	170.758	178.368	283.195	177.867	-8191	255	
29080.475	1	1	0	0	0.15712	0.068947	0.17358	0.20245	0.10865	0.081646	0.52068	0.10155	0.081312	0.23623	0.31885	0.11536	0.21092	0.23554	0.35671	0.17514	-2.2854	-2.1292	-3.0563	-2.6896	-2.5062	-2.8438	-2.4104	-2.9167	-2.8604	-2.1958	-3.0604	-2.4313	-2.4583	-2.9	-2.1271	-2.9146	325.912	221.173	410.283	160.294	225.346	347.498	464.704	302.180	208.760	442.337	397.872	218.847	375.838	391.350	229.926	490.179	0.00030437	0.00036012	3.8641e-05	1004	2.5308e-06	3.2182e-06	1094.9	208.28	1.851e-06	3.3686e-06	266.62	75.664	58.626	16.526	4.7369e-06	23.336	0.00033908	0.00037459	0.00010013	990.59	4.0581e-06	3.726e-06	1088.9	206.72	3.9903e-06	4.084e-06	266.07	76.339	59.273	16.788	4.0761e-06	23.817	174.133	255.579	282.100	156.415	260.156	286.869	156.653	164.287	247.730	328.291	163.592	170.041	170.458	178.191	274.912	178.108	-8191	255	
29080.570	1	1	0	0	0.17398	0.13546	0.23776	0.20726	0.13577	0.17732	0.37463	0.080321	0.07126	0.029067	0.055127	0.10919	0.12618	0.2553	0.16676	0.24765	-2.3812	-2.2167	-2.875	-2.45	-2.2229	-3.0271	-2.3375	-2.6958	-2.7729	-2.1521	-3.0021	-2.425	-2.4604	-3.1354	-2.3854	-2.6937	266.521	439.194	149.374	497.023	233.438	272.266	471.208	356.392	461.882	346.336	494.533	296.490	147.686	491.374	220.330	192.769	0.00031864	0.0004398	9.2689e-05	1009.5	2.6876e-06	4.3729e-06	1105.5	206.82	4.2426e-06	2.9395e-06	267.17	75.483	59.224	16.638	3.5785e-06	23.225	0.00034699	0.00037314	0.00010447	992.62	4.2223e-06	4.2318e-06	1093.2	206.27	3.9693e-06	4.2722e-06	266.33	76.304	59.52	16.882	4.0053e-06	23.718	171.731	220.474	217.032	156.607	276.679	264.397	156.399	164.148	277.261	274.570	163.563	169.797	170.837	178.220	271.952	177.879	-8191	255	
29080.666	1	1	0	0	0.13405	0.17724	0.032838	0.042094	0.38278	0.14094	0.14868	0.090326	0.16094	0.1208	0.073071	0.032994	0.27966	0.093292	0.40584	0.11554	-2.425	-2.2875	-2.8979	-2.7271	-2.0667	-3.0458	-2.3833	-2.8104	-2.9646	-2.1417	-2.9604	-2.6354	-2.1708	-3.0625	-2.5583	-2.6604	470.303	307.495	286.165	450.728	242.526	171.010	487.153	382.170	414.717	147.775	404.044	345.828	195.865	468.754	173.882	409.193	0.00028995	0.00028941	0.00010184	1003.1	3.4316e-06	3.4352e-06	1105.7	208.42	2.9238e-06	3.3088e-06	266.02	75.736	59.16	16.612	4.0023e-06	23.421	0.00034644	0.00037296	0.00010516	992.53	4.1174e-06	3.8304e-06	1091.5	206.7	3.9247e-06	3.9744e-06	266.3	76.235	59.687	16.839	4.1881e-06	23.812	167.479	217.098	206.540	156.769	284.858	318.687	156.779	164.189	271.827	314.327	163.828	170.095	170.220	178.124	287.886	177.700	-8191	255	
29080.787	1	1	0	0	0.072208	0.1508	0.13906	0.28161	0.23301	0.17242	0.36599	0.11542	0.22533	0.10209	0.16709	0.18023	0.057795	0.016706	0.12988	0.29617	-2.6813	-2.2458	-2.8521	-2.8375	-2.1771	-3.0375	-2.6396	-2.4417	-2.8063	-2.2354	-2.8729	-2.6813	-2.3917	-2.9396	-2.575	-2.4271	304.890	346.742	452.019	160.433	383.768	503.152	449.427	231.545	330.438	324.308	440.964	398.059	450.380	502.534	296.593	445.828	0.00030306	0.00041656	9.0658e-05	1004.7	3.7335e-06	2.2087e-06	1097.6	207.45	3.0275e-06	5.1917e-06	268.84	75.641	59.183	16.52	3.2692e-06	23.107	0.00034265	0.00036839	0.00010257	992.32	4.0533e-06	3.9395e-06	1091.6	206.49	4.1532e-06	4.1109e-06	266.92	76.047	59.461	16.886	3.8757e-06	23.731	172.683	229.309	210.072	156.904	292.271	317.137	156.513	163.984	258.963	331.993	163.633	170.129	170.112	178.364	259.390	177.822	-8191	255	
29080.859	1	1	0	0	0.27452	0.11294	0.11316	0.087552	0.26413	0.098203	0.26826	0.28836	0.30313	0.13802	0.26229	0.24212	0.091634	0.055168	0.15196	0.1114	-2.7	-2.125	-2.725	-2.9646	-2.5229	-2.9104	-2.6875	-2.3667	-2.9979	-2.5021	-2.6937	-3.0896	-2.2604	-3.0187	-2.5292	-2.2396	157.022	224.190	344.620	243.472	470.720	393.746	439.788	327.890	469.381	226.980	380.274	450.717	208.345	379.048	308.258	329.611	0.0003255	0.00016554	4.2994e-05	1003	2.2566e-06	2.7744e-06	1097	207.04	2.3213e-06	2.3386e-06	267.13	75.905	59	16.682	1.7539e-06	23.357	0.00034544	0.00038699	0.00010637	992.02	4.177e-06	3.9668e-06	1089.3	206.34	3.953e-06	3.9611e-06	266.57	76.208	59.506	16.876	3.9544e-06	23.795	168.754	224.703	214.509	156.654	301.816	276.266	156.817	164.242	315.054	237.271	164.181	170.286	170.543	178.563	297.015	177.926	-8191	255	
29080.955	1	1	0	0	0.28411	0.29572	0.15805	0.27984	0.12167	0.15685	0.57221	0.24945	0.22785	0.22245	0.071176	0.045023	0.029523	0.37134	0.14979	0.21956	-2.6125	-2.3292	-2.4813	-2.9333	-2.175	-2.9792	-2.825	-2.4979	-3.0812	-2.45	-2.5083	-3.2042	-2.2354	-2.9417	-2.6792	-2.3	158.552	160.498	476.579	441.783	201.602	170.360	458.815	436.993	182.331	425.860	399.681	364.143	496.597	247.193	431.063	449.385	0.00032331	0.00033354	3.0748e-05	999.66	3.2175e-06	3.3268e-06	1097.1	207.51	4.9105e-06	3.6456e-06	268.73	76.77	59.452	16.585	2.8224e-06	23.183	0.00035118	0.00038241	0.00010254	992.26	4.1155e-06	4.2163e-06	1089.8	206.39	3.989e-06	4.1892e-06	266.64	76.493	59.495	16.882	3.8821e-06	23.713	175.280	256.473	298.829	156.489	258.709	291.762	156.543	163.925	256.957	319.378	164.137	170.067	171.047	178.128	289.586	178.069	-8191	255	
29081.076	1	1	0	0	0.25038	0.15136	0.12145	0.19938	0.10887	0.23123	0.19679	0.070961	0.28428	0.082151	0.29343	0.26667	0.25315	0.10114	0.1696	0.29337	-2.5021	-2.4958	-2.425	-2.9375	-2.2792	-2.7229	-2.9437	-2.2438	-2.9271	-2.5604	-2.45	-2.9333	-2.1333	-2.7125	-3.0083	-2.2875	447.163	358.206	162.275	159.170	232.396	421.842	172.259	378.491	458.517	486.011	464.209	192.660	154.443	469.523	279.656	207.369	0.00031403	0.00037915	9.0231e-05	1001.6	2.5073e-06	2.6764e-06	1097.9	206.62	3.4783e-06	2.6975e-06	266.91	75.613	58.846	16.707	1.283e-06	23.25	0.0003361	0.00037356	0.00010113	992.51	3.9576e-06	3.9981e-06	1089.7	205.98	4.0435e-06	3.9445e-06	266.07	75.986	59.276	16.91	3.8024e-06	23.71	170.598	283.289	222.526	157.029	282.362	302.656	156.381	164.058	266.186	319.177	164.021	170.324	170.277	178.963	248.760	177.691	-8191	255	
29081.170	1	1	0	0	0.053376	0.15152	0.033162	0.13016	0.075733	0.058011	0.29188	0.034097	0.20108	0.20329	0.20524	0.23226	0.30207	0.20988	0.19385	0.16689	-2.4458	-2.5646	-2.1833	-2.9958	-2.2562	-2.5104	-3.1188	-2.1771	-2.9708	-2.7521	-2.3667	-3.1312	-2.2792	-2.5687	-2.9896	-2.3646	280.788	264.014	212.268	166.113	433.384	393.812	428.476	294.576	171.453	443.861	156.658	425.471	459.957	373.366	402.493	147.161	0.00031412	0.00022199	6.0589e-05	1006.2	2.2709e-06	3.7169e-06	1103.8	207.51	7.2346e-07	2.4265e-06	266.11	76.279	58.794	16.53	2.2864e-06	23.064	0.00034295	0.00037067	0.00010298	993.65	4.0778e-06	3.9203e-06	1090.8	206.24	3.7506e-06	3.7589e-06	265.86	76.503	59.26	16.843	3.7157e-06	23.698	174.519	174.883	251.720	156.803	277.205	306.299	156.545	164.132	326.475	324.962	164.157	170.178	170.320	178.950	291.615	177.867	-8191	255	
29081.266	1	1	0	0	0.22867	0.36952	0.15056	0.36809	0.21417	0.14381	0.1824	0.23259	0.29225	0.23936	0.12298	0.18392	0.10117	0.26642	0.12047	0.17516	-2.5833	-2.7292	-2.4271	-3.1208	-2.4354	-2.4604	-3.2208	-2.35	-3.0021	-2.775	-2.425	-3.175	-2.6521	-2.4854	-3.1292	-2.3521	468.969	413.107	258.751	177.613	179.432	238.678	500.635	341.273	261.641	431.875	502.013	186.114	155.705	262.361	438.852	336.271	0.00035275	0.00034938	8.7092e-05	1008.7	3.5379e-06	2.3537e-06	1097	207.28	1.751e-06	3.189e-06	265.98	76.579	59.061	16.539	3.0095e-06	23.2	0.00034659	0.00035102	9.9848e-05	994.01	3.9898e-06	4.0715e-06	1090.6	206.46	4.0254e-06	3.98e-06	266.09	76.419	59.423	16.815	3.849e-06	23.727	171.081	258.964	259.003	157.085	267.987	304.056	156.607	164.265	280.159	289.663	163.550	170.084	170.157	178.182	282.297	177.920	-8191	255	
29081.387	1	1	0	0	0.20648	0.15038	0.19218	0.25745	0.29043	0.18069	0.21395	0.14738	0.12854	0.051921	0.10066	0.21298	0.08486	0.32604	0.21749	0.22103	-2.2417	-2.6688	-2.2396	-3.2562	-2.6167	-2.6521	-3.2375	-2.3167	-2.6417	-2.9958	-2.4875	-3.0292	-2.5417	-2.2292	-3.0917	-2.4813	474.989	267.370	367.977	176.292	268.423	284.138	424.410	206.925	300.716	296.658	432.422	487.949	503.260	184.158	436.751	448.185	0.00032708	0.00028558	0.00010119	1001.7	1.7791e-06	4.2202e-06	1106.1	206.78	3.4624e-06	1.2136e-06	265.78	76.238	59.483	16.56	2.7041e-06	23.266	0.00033771	0.00035725	0.00010126	992.03	3.9803e-06	3.888e-06	1091.7	206.53	4.1015e-06	3.9704e-06	265.97	76.395	59.608	16.82	3.8173e-06	23.764	166.649	259.110	224.765	156.654	259.177	298.888	156.570	164.345	282.253	281.362	164.048	170.290	170.962	178.904	280.614	177.596	-8191	255	
29081.482	1	1	0	0	0.088819	0.21011	0.15954	0.17857	0.23502	0.044114	0.053078	0.10201	0.040216	0.22777	0.19022	0.11954	0.15264	0.066229	0.034972	0.20958	-2.325	-2.8312	-2.2062	-2.8375	-2.6937	-2.2729	-3.1958	-2.3229	-2.6688	-3.0896	-2.4646	-2.8833	-2.8229	-2.2021	-3.2438	-2.6292	191.453	397.937	371.808	433.567	198.133	168.091	420.063	497.627	171.455	480.938	385.085	332.309	239.082	468.196	309.889	146.191	0.0003179	0.00010813	6.1133e-05	1009.9	2.9745e-06	1.9624e-06	1104.9	208.04	2.3414e-06	3.3034e-06	266.61	75.698	59.254	16.613	3.3657e-06	23.076	0.00034328	0.00035298	0.00010625	994.93	3.8256e-06	4.1173e-06	1091.9	206.13	3.8618e-06	3.9316e-06	266.07	76.337	59.561	16.851	3.8798e-06	23.751	169.172	165.014	230.871	156.510	292.514	264.480	156.924	163.873	308.407	258.070	164.039	170.145	170.934	178.433	295.129	177.928	-8191	255	
29081.555	1	1	0	0	0.081188	0.31002	0.070834	0.019326	0.10627	0.087862	0.22708	0.25131	0.2457	0.15804	0.028836	0.15042	0.18628	0.24992	0.046423	0.061955	-2.0125	-2.9062	-2.3479	-2.775	-2.8688	-2.3646	-3.1063	-2.65	-2.2917	-3.2292	-2.2833	-2.8042	-2.9375	-2.2521	-3.0667	-2.7188	303.274	196.309	237.245	416.847	172.600	298.930	399.638	447.976	327.386	342.105	440.192	380.574	195.898	226.307	181.020	250.012	0.00029146	0.00025663	8.6073e-05	1006.6	3.2391e-06	3.189e-06	1101.1	206.84	2.8482e-06	2.4622e-06	265.29	75.602	59.719	16.688	3.5471e-06	23.081	0.00034606	0.00035623	0.00010446	992.69	3.9605e-06	3.9897e-06	1090.2	206.17	3.9521e-06	3.9711e-06	265.5	76.19	59.792	16.839	4.0462e-06	23.706	175.229	239.416	211.998	156.766	281.505	296.083	157.001	164.099	301.194	323.923	164.156	170.202	170.658	178.789	282.481	177.752	-8191	255	
29081.676	1	1	0	0	0.21391	0.22966	0.11418	0.2812	0.16704	0.039555	0.12247	0.12352	0.080662	0.20112	0.1983	0.090501	0.24833	0.051425	0.16867	0.071928	-2.1208	-3.1479	-2.3354	-2.7396	-2.8542	-2.2271	-3.0208	-2.6896	-2.3312	-3.0062	-2.4521	-2.5771	-3.125	-2.1917	-2.8333	-2.8125	178.547	237.268	250.195	398.180	363.888	351.678	283.547	452.462	195.007	358.179	467.839	331.088	183.103	427.861	435.772	246.426	0.00033655	0.00038929	0.00011206	1009.3	2.1678e-06	2.6565e-06	1096.2	206.61	3.5075e-06	3.0902e-06	264.73	76.404	59.475	16.535	3.5351e-06	23.299	0.00035616	0.00035448	0.00010355	993.79	3.899e-06	4.2456e-06	1091	205.66	4.2262e-06	3.9996e-06	265.31	76.506	59.521	16.831	3.9046e-06	23.699	172.770	219.933	238.488	156.987	230.491	274.709	156.501	163.992	309.335	288.883	163.752	170.444	170.192	178.590	305.181	177.988	-8191	255	
29081.771	1	1	0	0	0.20688	0.089906	0.12058	0.25852	0.18332	0.26284	0.065156	0.11259	0.15744	0.13019	0.22001	0.26173	0.15669	0.041622	0.22716	0.11013	-1.9417	-3.2188	-2.4542	-2.7313	-2.9375	-2.2125	-2.9771	-2.7313	-2.2375	-2.9792	-2.3208	-2.5938	-3.0167	-2.1896	-2.6937	-2.8187	193.815	451.093	435.051	214.522	294.990	361.681	346.524	497.257	257.697	383.000	490.310	164.308	270.408	215.627	399.650	418.854	0.00029384	0.00038327	6.3827e-05	1012	1.7385e-06	2.9921e-06	1097.4	205.88	2.6743e-06	1.2092e-06	264.67	76.073	59.614	16.568	2.4014e-06	23.147	0.00034112	0.00036375	0.00010199	995.97	3.9414e-06	4.121e-06	1089.7	205.85	4.0223e-06	3.7848e-06	265.44	76.235	59.55	16.802	3.9586e-06	23.69	179.101	194.783	248.240	156.700	298.137	311.298	156.510	164.092	271.651	293.299	163.792	170.118	170.109	178.069	313.237	177.370	-8191	255	
29081.867	1	1	0	0	0.25781	0.10796	0.037383	0.25342	0.14238	0.053451	0.20294	0.085699	0.074753	0.096225	0.18229	0.23833	0.10468	0.33626	0.22397	0.26207	-1.7583	-2.9188	-2.5167	-2.3063	-2.9458	-2.3187	-2.8333	-2.7396	-2.1583	-3.0271	-2.6	-2.2708	-3.15	-2.3521	-2.5896	-3.0333	237.729	381.393	417.239	168.402	439.894	171.214	418.516	383.465	226.287	197.104	490.569	488.171	171.747	481.500	339.803	387.385	0.00028867	0.00029432	8.5992e-05	1008.2	1.7397e-06	4.739e-06	1098.3	206.52	2.9742e-06	5.354e-06	267.19	76.305	59.204	16.55	2.4433e-06	23.493	0.00034744	0.00034882	9.6595e-05	993.07	3.9057e-06	4.0169e-06	1090.8	205.89	4.0857e-06	3.9741e-06	266.09	76.371	59.555	16.828	3.9475e-06	23.836	173.381	235.260	232.957	156.883	265.553	263.607	156.709	164.284	270.011	295.285	163.617	170.257	170.581	178.399	340.028	177.568	-8191	255	
29081.965	1	1	0	0	0.16235	0.46867	0.2802	0.26967	0.24845	0.22038	0.28829	0.25048	0.22738	0.055431	0.041425	0.13976	0.058432	0.16607	0.30604	0.16585	-1.6792	-2.8	-2.6146	-2.2417	-2.975	-2.3979	-2.6167	-2.9625	-2.3646	-3.0896	-2.7021	-2.2583	-3.0458	-2.4271	-2.4792	-3.0833	389.628	240.071	292.493	151.217	305.531	260.043	425.117	401.942	364.079	206.057	275.290	186.212	467.458	199.629	146.244	467.455	0.00030745	0.00010596	6.9117e-05	1004.8	1.9623e-06	3.3249e-06	1097.5	207.31	2.2171e-06	1.1222e-06	266.75	76.112	59.789	16.518	1.9662e-06	23.277	0.00033926	0.00036203	0.00010447	990.62	3.9879e-06	4.1796e-06	1090.7	206.23	4.0057e-06	3.9126e-06	265.74	76.388	59.705	16.807	4.1202e-06	23.702	175.627	357.529	237.956	156.869	220.606	288.905	156.631	164.059	299.812	271.462	163.809	170.516	170.340	178.733	246.396	177.922	-8191	255	
29082.082	1	1	0	0	0.11311	0.15158	0.23891	0.14841	0.080657	0.20812	0.068023	0.15368	0.21189	0.074916	0.24684	0.17796	0.23274	0.254	0.34704	0.14267	-1.8083	-2.7792	-2.7062	-2.2188	-2.9771	-2.4542	-2.575	-3.0354	-2.2396	-2.7938	-2.8292	-2.1167	-2.8792	-2.5563	-2.3375	-3.0687	502.298	167.684	265.878	341.063	306.344	487.632	505.156	201.060	300.029	260.339	394.741	216.288	476.965	446.562	441.125	257.899	0.00032197	0.00021032	9.6328e-05	1000.5	3.714e-06	3.7918e-06	1101.9	208.17	3.1936e-06	5.2913e-06	265.71	76.263	60.007	16.515	2.2247e-06	23.381	0.00035638	0.00035668	0.00010171	992.32	3.8773e-06	4.0365e-06	1091.4	206.76	4.1538e-06	3.8167e-06	266	76.425	59.561	16.783	4.0357e-06	23.754	176.304	219.193	298.054	156.620	305.640	318.209	156.285	163.821	296.011	297.864	163.881	170.252	170.723	178.244	289.711	178.413	-8191	255	
29082.154	1	1	0	0	0.32506	0.20453	0.051228	0.14908	0.069335	0.18892	0.29269	0.027406	0.2259	0.12983	0.08484	0.044368	0.12376	0.13062	0.1145	0.19508	-1.7771	-2.6292	-2.9854	-2.3083	-2.9688	-2.6188	-2.2583	-2.8917	-2.2229	-2.5875	-3.2438	-2.1479	-2.9896	-2.8292	-2.4188	-3.0229	319.197	162.730	317.323	465.528	228.117	486.249	489.715	410.118	344.604	368.819	476.801	366.769	465.984	416.173	281.549	152.011	0.00033763	0.00026635	0.00013208	1005.6	2.8097e-06	3.7862e-06	1101	206.57	1.6556e-06	4.522e-06	265.81	76.12	59.254	16.648	4.1251e-06	23.27	0.00033438	0.00035638	9.699e-05	990.46	3.906e-06	4.1722e-06	1088.5	206.14	4.0149e-06	3.908e-06	266.01	76.355	59.609	16.82	3.9992e-06	23.723	174.408	192.706	223.055	156.501	299.792	269.840	156.481	164.076	248.821	254.905	163.673	170.098	170.818	178.068	267.732	177.560	-8191	255	
29082.250	1	1	0	0	0.24703	0.24648	0.081478	0.23414	0.17346	0.084986	0.21644	0.1481	0.29369	0.21242	0.19421	0.068235	0.28745	0.087749	0.17783	0.16727	-1.9917	-2.6188	-3.0479	-2.2854	-2.8688	-2.8021	-2.3083	-3.0583	-2.4125	-2.6854	-3.1271	-2.3104	-2.7125	-2.8583	-2.1896	-3.1042	307.474	479.679	357.766	483.646	172.028	322.368	448.537	166.182	491.507	308.375	357.665	244.891	368.078	481.557	259.186	285.485	0.00030123	0.00030026	9.8766e-05	1006.1	2.5035e-06	3.4865e-06	1100.9	206.52	2.1935e-06	1.611e-06	266.66	75.615	59.071	16.623	2.6618e-06	23.059	0.00034138	0.00036583	9.7158e-05	991.22	3.7925e-06	3.9829e-06	1090.3	206.01	3.9012e-06	3.8509e-06	265.99	76.095	59.678	16.819	3.9421e-06	23.724	173.279	271.184	230.973	156.337	265.320	288.468	156.322	164.016	267.469	269.503	163.463	169.992	169.997	178.069	267.297	178.001	-8191	255	
29082.346	1	1	0	0	0.11645	0.12536	0.037173	0.090141	0.19586	0.08213	0.43266	0.12919	0.086944	0.089623	0.13432	0.070787	0.13008	0.012857	0.092276	0.14148	-1.9604	-2.4021	-3.0958	-2.3208	-2.6521	-2.8958	-2.2083	-3.125	-2.5333	-2.3146	-3.0771	-2.5563	-2.625	-2.8354	-1.8646	-2.8333	302.236	281.963	214.578	167.269	276.095	319.292	375.635	147.872	242.793	412.380	284.367	321.327	502.971	235.197	162.032	342.658	0.00032054	0.00025158	8.4551e-05	998.35	1.719e-06	2.4054e-06	1099	207.07	1.8997e-06	1.8724e-06	268.22	75.992	58.789	16.672	1.8266e-06	23.227	0.00033038	0.00036565	0.0001001	988.51	3.8039e-06	3.9607e-06	1089.1	206.44	3.945e-06	3.9668e-06	266.4	76.144	59.478	16.82	3.9389e-06	23.731	172.130	250.188	241.085	156.731	301.757	315.082	156.215	164.227	298.304	314.787	163.812	169.692	170.665	178.181	306.084	178.263	-8191	255	
29082.467	1	1	0	0	0.019046	0.10433	0.12929	0.17982	0.30685	0.23113	0.21276	0.35357	0.095015	0.1753	0.044178	0.24676	0.10204	0.17198	0.16959	0.13595	-1.9625	-2.3958	-3.1583	-2.2729	-2.6875	-3.0583	-2.4833	-2.9833	-2.5708	-2.2104	-3.1521	-2.4708	-2.6729	-3.15	-2.2917	-2.8771	150.763	457.069	213.793	210.608	222.748	376.593	382.121	431.972	299.546	187.696	460.234	384.144	313.575	288.890	472.016	278.850	0.00031298	0.00015408	4.8892e-05	1006.3	2.4538e-06	3.8584e-06	1098.8	208.14	8.2185e-07	1.4974e-06	267.93	75.738	59.49	16.591	2.4823e-06	23.063	0.00033834	0.00035698	9.7393e-05	991.42	3.7332e-06	3.9041e-06	1088.6	206.18	3.8886e-06	4.0547e-06	265.84	76.034	59.561	16.78	4.0491e-06	23.668	170.254	213.540	251.807	156.904	249.032	295.123	156.683	164.188	169.712	349.668	164.122	170.229	170.953	178.270	293.383	177.653	-8191	255	
29082.562	1	1	0	0	0.079459	0.26344	0.10046	0.21675	0.13482	0.061376	0.35195	0.10473	0.11626	0.23823	0.23602	0.15666	0.071775	0.084492	0.14522	0.20402	-2.4354	-2.2042	-3.0687	-2.5542	-2.3417	-2.95	-2.3937	-2.6896	-2.8063	-2.5958	-3.0021	-2.4083	-2.4354	-3.0625	-2.2938	-2.8333	282.697	480.780	406.902	489.592	472.218	479.660	437.486	459.454	399.242	254.702	292.716	431.745	177.432	290.688	311.712	151.390	0.00032822	0.00015767	8.1101e-05	996.4	4.3902e-06	4.9154e-06	1095.6	206.26	1.9082e-06	2.4403e-06	265.67	76.037	59.278	16.516	2.4017e-06	23.125	0.00034714	0.0003596	9.9823e-05	987.15	4.0045e-06	4.0678e-06	1087.6	205.77	3.9536e-06	3.9412e-06	265.53	75.989	59.454	16.785	3.8303e-06	23.678	176.138	306.761	259.359	156.803	285.159	304.287	156.533	164.150	267.842	310.114	163.855	169.810	170.643	178.360	284.839	177.644	-8191	255	
29082.658	1	1	0	0	0.10666	0.066559	0.051396	0.096137	0.092732	0.11667	0.2974	0.14881	0.069176	0.22223	0.12974	0.50447	0.25416	0.052246	0.23166	0.29447	-2.3812	-2.125	-2.9104	-2.4458	-2.3667	-2.9708	-2.3604	-2.8937	-2.8896	-2.1396	-2.9583	-2.7396	-2.3125	-3.05	-2.2208	-2.825	463.939	405.829	163.901	461.687	205.387	247.028	440.750	359.746	220.969	165.885	273.052	490.374	412.446	501.857	151.070	235.857	0.00032346	0.00022102	9.7681e-05	1000.4	2.5426e-06	2.6959e-06	1097.2	206.62	3.541e-06	1.6279e-06	264.04	76.018	59.192	16.548	1.483e-06	23.167	0.00033067	0.00037356	9.9066e-05	988.11	3.8626e-06	3.725e-06	1085.7	206.07	3.9105e-06	3.9342e-06	264.67	75.918	59.437	16.797	3.7496e-06	23.615	172.585	237.048	253.469	156.522	306.441	331.790	156.692	164.081	277.178	294.390	164.160	169.966	170.535	178.413	315.554	177.928	-8191	255	
29082.756	1	1	0	0	0.16427	0.07786	0.13518	0.065354	0.22778	0.11376	0.44498	0.18477	0.16262	0.093765	0.38139	0.1859	0.15539	0.032646	0.18895	0.17419	-2.6625	-2.2687	-2.7917	-2.6667	-2.3563	-3.0729	-2.5229	-2.7042	-3.025	-2.1917	-2.9083	-2.8271	-2.1854	-3.0667	-2.3333	-2.5146	184.922	169.937	488.191	421.478	254.154	221.554	422.284	320.183	293.183	242.469	489.124	147.693	267.877	376.228	452.025	478.755	0.00032054	0.00019754	7.5059e-05	1001.2	2.7235e-06	2.5764e-06	1094.8	206.71	1.7049e-06	3.1148e-06	266.55	75.467	59.474	16.582	3.0714e-06	23.15	0.00033512	0.00035674	9.3543e-05	987.58	3.986e-06	3.727e-06	1083.8	205.83	3.9197e-06	4.075e-06	265.7	75.918	59.438	16.825	3.7804e-06	23.691	170.482	225.543	234.867	156.650	267.251	286.613	156.491	164.454	291.695	324.501	163.954	170.578	171.060	178.877	287.319	177.620	-8191	255	
29082.852	1	1	0	0	0.13091	0.19168	0.10695	0.15838	0.24036	0.073484	0.14528	0.14524	0.025396	0.22318	0.19304	0.25956	0.1053	0.1854	0.053247	0.1061	-2.4188	-2.1583	-2.6854	-2.9188	-2.3646	-2.9875	-2.5021	-2.4792	-2.9271	-2.3646	-2.7313	-3.0125	-2.1771	-3.0292	-2.6708	-2.6125	210.980	452.237	375.646	202.194	236.275	174.471	477.399	196.012	393.930	445.309	498.225	407.667	230.609	180.750	350.977	401.647	0.00030302	0.00011632	9.9966e-05	994.54	1.5875e-06	3.523e-06	1100	206.71	3.6093e-06	1.7805e-06	267.37	75.873	59.251	16.509	1.0782e-06	23.078	0.00032306	0.00034196	9.1576e-05	984.31	3.8212e-06	3.5886e-06	1086	205.81	3.6425e-06	3.6779e-06	265.84	76.047	59.334	16.761	3.8462e-06	23.623	173.978	267.452	263.567	156.619	264.523	306.518	156.627	164.124	255.628	284.771	164.159	170.115	170.762	178.636	260.405	178.221	-8191	255	
29082.947	1	1	0	0	0.29222	0.13402	0.062537	0.085443	0.20069	0.18819	0.14322	0.14616	0.22641	0.06248	0.19793	0.118	0.17673	0.03988	0.19998	0.073284	-2.6542	-2.2167	-2.5667	-2.9958	-2.2146	-3.05	-2.7417	-2.4625	-3.0667	-2.5125	-2.8354	-3.0917	-2.25	-2.9458	-2.625	-2.2104	289.602	264.385	280.539	163.088	474.029	238.784	409.588	175.121	158.587	272.914	501.102	242.280	354.484	472.908	355.236	483.896	0.00031696	0.00028329	0.00010084	996.92	3.0691e-06	4.0581e-06	1090.6	206.64	2.755e-06	2.039e-06	265.86	76.02	58.875	16.644	3.6472e-06	23.2	0.0003401	0.00036823	0.00010554	986.29	4.1725e-06	4.0486e-06	1082.6	205.67	3.993e-06	4.0826e-06	265.75	76.104	59.374	16.817	4.0307e-06	23.755	177.579	268.394	248.373	156.702	305.548	258.824	156.478	164.580	292.969	321.727	164.020	170.080	170.886	178.938	261.340	178.090	-8191	255	
29083.068	1	1	0	0	0.19603	0.0091836	0.13461	0.23883	0.1772	0.27599	0.27031	0.21071	0.036863	0.16544	0.14502	0.17049	0.22775	0.098173	0.25872	0.20347	-2.7292	-2.3042	-2.4208	-3.0125	-2.3042	-2.7875	-2.7938	-2.1604	-3.0208	-2.5521	-2.4333	-3.0104	-2.4083	-2.9104	-2.9021	-2.3438	473.544	501.051	399.631	456.404	351.860	254.089	457.808	467.381	438.741	361.585	170.248	454.439	490.020	269.372	383.967	487.049	0.00032655	0.00020969	9.9596e-05	1003.2	4.0743e-06	5.2608e-06	1093.8	207.04	4.8688e-06	1.6482e-06	267.72	75.875	59.78	16.625	3.1805e-06	23.324	0.00034995	0.00037495	0.00010704	992.69	4.243e-06	4.2995e-06	1088.6	206.34	4.0811e-06	4.4236e-06	267.2	76.407	59.753	16.906	4.1481e-06	23.804	172.264	221.619	200.179	157.272	273.133	290.415	156.736	164.385	255.816	311.032	163.784	169.987	170.428	179.339	330.022	178.169	-8191	255	
29083.164	1	1	0	0	0.17868	0.18652	0.21093	0.08145	0.3879	0.15117	0.094791	0.40113	0.37297	0.15366	0.25785	0.098718	0.24347	0.23975	0.16372	0.075729	-2.6833	-2.6167	-2.3229	-3.1729	-2.3542	-2.7625	-2.9437	-2.3396	-2.9062	-2.5292	-2.4604	-2.9667	-2.3729	-2.7583	-3.0312	-2.2354	493.333	498.286	317.811	204.051	160.956	385.857	432.517	449.961	497.576	421.997	158.491	292.250	506.136	253.437	159.707	479.053	0.0003012	0.00023779	9.1335e-05	1013.6	1.5511e-06	3.2221e-06	1107.2	206.71	3.44e-06	3.2923e-06	267.45	75.712	59.662	16.699	1.82e-06	23.374	0.0003532	0.00035583	0.00010656	996.36	4.1687e-06	3.9607e-06	1095.2	206.37	4.0442e-06	3.7871e-06	266.86	76.214	59.769	16.905	3.7296e-06	23.721	171.138	233.728	225.294	157.375	281.496	283.227	156.730	164.379	284.138	287.778	163.772	170.229	170.830	178.853	309.965	178.354	-8191	255	
29083.260	1	1	0	0	0.053817	0.11624	0.23729	0.10231	0.20621	0.18802	0.25617	0.10637	0.080274	0.23181	0.24107	0.11935	0.20163	0.08801	0.29058	0.16717	-2.4833	-2.5479	-2.2479	-3.0833	-2.4042	-2.7333	-3.3146	-2.2708	-2.8354	-2.8583	-2.2146	-3.0729	-2.4979	-2.6479	-3.0125	-2.0792	235.579	351.674	369.502	396.716	366.418	154.592	444.096	240.734	426.270	161.278	495.399	467.565	316.599	170.625	434.817	158.833	0.00034866	0.00027522	5.5528e-05	1012.5	3.2371e-06	2.7138e-06	1106.7	208.07	2.9048e-06	2.8078e-06	266.63	75.904	59.666	16.581	2.5897e-06	23.299	0.00033006	0.00034024	9.6629e-05	995.99	3.6939e-06	3.7287e-06	1093.8	206.89	3.7703e-06	3.6849e-06	266.61	76.49	59.646	16.874	3.6572e-06	23.782	176.741	232.305	202.989	156.860	286.909	289.853	157.004	164.363	270.973	263.062	164.469	170.799	170.494	178.630	293.597	177.847	-8191	255	
29083.355	1	1	0	0	0.10646	0.068439	0.16897	0.054531	0.17097	0.055658	0.49624	0.29937	0.28926	0.23991	0.19209	0.1679	0.29308	0.19642	0.13087	0.14114	-2.5208	-2.85	-2.1625	-2.9542	-2.3688	-2.2375	-3.0563	-2.1583	-2.7	-2.9375	-2.2479	-3.0812	-2.625	-2.45	-3.0167	-2.3354	470.612	165.669	220.129	476.580	441.835	469.959	462.369	482.085	230.186	320.453	169.185	298.928	461.352	146.208	158.067	346.753	0.00034017	0.00014371	5.7826e-05	1003.8	1.8657e-06	3.5077e-06	1101.3	208.47	3.0717e-06	2.7643e-06	265.89	75.552	59.599	16.524	2.2474e-06	23.175	0.0003251	0.00034976	9.5519e-05	995.72	3.7574e-06	3.7172e-06	1094.8	206.85	3.7503e-06	3.5564e-06	266.4	76.302	59.583	16.822	3.556e-06	23.698	171.342	236.826	223.213	157.062	308.193	279.106	156.563	164.030	273.188	323.764	163.892	170.358	170.411	178.396	295.931	177.719	-8191	255	
29083.451	1	1	0	0	0.18416	0.091862	0.22208	0.36182	0.18951	0.25048	0.3789	0.16588	0.033683	0.19368	0.11404	0.17728	0.19203	0.1628	0.052402	0.2149	-2.4667	-2.7042	-2.325	-2.8604	-2.7271	-2.2958	-3.25	-2.3667	-2.6937	-2.9	-2.2375	-3.0521	-2.6833	-2.2021	-3.1	-2.3333	421.644	209.018	484.937	146.704	425.110	423.201	502.716	456.998	447.944	277.350	171.572	356.331	409.885	497.783	499.685	283.960	0.00035879	0.00043526	9.035e-05	1009.1	2.0025e-06	2.8051e-06	1105.3	207.66	3.3371e-06	2.6122e-06	264.79	76.281	59.994	16.632	2.7309e-06	23.08	0.00034722	0.00034428	9.8654e-05	995.43	3.7112e-06	3.9135e-06	1092.3	206.57	3.7078e-06	3.6072e-06	265.98	76.468	59.722	16.906	3.5763e-06	23.68	168.626	223.017	229.272	156.854	284.966	273.240	156.886	164.420	273.446	265.164	164.014	170.530	170.698	178.422	281.641	177.699	-8191	255	
29083.547	1	1	0	0	0.073266	0.25921	0.15464	0.13007	0.2872	0.26887	0.26215	0.17887	0.30156	0.11132	0.18219	0.052646	0.11136	0.10436	0.095955	0.31729	-2.0042	-2.9667	-2.15	-2.7896	-2.625	-2.275	-3.1375	-2.5604	-2.3937	-2.9667	-2.3063	-2.8771	-2.7354	-2.1958	-2.9708	-2.7229	195.791	312.121	415.880	465.169	233.216	298.598	406.214	326.104	237.798	395.822	447.504	369.368	439.883	397.807	309.092	163.589	0.00030336	0.00030538	6.5683e-05	1007.5	3.0519e-06	3.555e-06	1095.4	207.21	3.8812e-06	2.8343e-06	266.81	75.714	59.375	16.62	4.3768e-06	23.41	0.00032975	0.00033037	9.3493e-05	993.61	3.7788e-06	3.8408e-06	1090.1	206.23	3.8067e-06	3.6297e-06	266.32	76.238	59.487	16.855	3.8303e-06	23.783	172.638	248.183	251.083	157.162	266.524	284.010	156.894	164.260	288.097	293.724	164.115	170.603	170.570	178.285	311.507	178.356	-8191	255	
29083.645	1	1	0	0	0.28868	0.10841	0.31378	0.36149	0.059532	0.1725	0.10568	0.22806	0.37598	0.24551	0.19851	0.12983	0.062942	0.075761	0.22318	0.098087	-2.075	-2.9646	-2.2292	-2.9583	-2.7	-2.2188	-3.0708	-2.5354	-2.1667	-3.0708	-2.4104	-2.825	-2.9333	-2.1146	-2.9313	-2.7896	262.715	242.944	402.388	483.541	207.621	296.927	306.909	405.359	412.409	312.982	357.580	425.926	441.454	402.838	487.944	296.793	0.00030763	0.00038108	9.3342e-05	1004	1.4546e-06	2.6906e-06	1101.2	207.74	2.7268e-06	2.2431e-06	266.42	75.693	58.877	16.628	1.4016e-06	23.289	0.00032855	0.00035307	9.5485e-05	991.46	3.8094e-06	3.8122e-06	1090.9	206.49	3.6856e-06	3.6151e-06	265.87	76.177	59.458	16.846	3.5439e-06	23.752	174.465	248.989	208.859	156.793	314.005	265.039	157.040	164.476	256.876	285.084	164.130	170.694	170.522	178.943	356.111	177.929	-8191	255	
29083.764	1	1	0	0	0.21922	0.41746	0.076346	0.19829	0.27426	0.055181	0.14109	0.097918	0.074214	0.2891	0.26082	0.39994	0.023323	0.17197	0.2057	0.20433	-1.95	-3.0354	-2.4188	-2.6625	-2.9667	-2.1604	-3.1875	-2.7	-2.4125	-3.1562	-2.5042	-2.5771	-2.9604	-2.2375	-2.7854	-2.9083	286.607	288.089	494.038	478.222	445.682	420.047	352.751	164.661	160.899	481.074	480.495	442.839	154.452	166.271	339.544	169.799	0.00031043	0.00042692	3.8405e-05	1008.3	3.2254e-06	4.4146e-06	1106.2	207.49	3.1088e-06	1.8366e-06	267.95	76.247	59.673	16.589	3.04e-06	23.102	0.0003312	0.00035201	9.0467e-05	993.53	3.7038e-06	3.6967e-06	1091	206.31	3.6958e-06	3.6802e-06	266.06	76.251	59.567	16.807	3.3756e-06	23.699	169.517	240.745	266.827	156.789	272.974	313.745	156.973	163.904	243.987	283.840	164.090	170.517	170.599	178.641	261.237	177.677	-8191	255	
29083.859	1	1	0	0	0.2953	0.076541	0.1991	0.2569	0.063216	0.06228	0.026421	0.34095	0.16299	0.14256	0.20983	0.0099683	0.33632	0.35201	0.051368	0.43258	-1.7	-3.0146	-2.4437	-2.5354	-2.9625	-2.3187	-2.9313	-3.0187	-2.25	-3.0521	-2.5896	-2.0583	-2.9292	-2.2604	-2.6604	-2.85	495.003	418.884	318.792	390.789	300.263	333.015	195.601	150.181	289.291	238.504	474.463	399.512	307.901	257.934	167.571	369.374	0.00028663	0.00031227	9.6631e-05	1007.2	3.2406e-06	4.0065e-06	1098.6	206.81	1.1652e-06	4.602e-06	266.51	76.117	59.323	16.53	4.0462e-06	23.195	0.00031414	0.00032264	8.9231e-05	991.88	3.5141e-06	3.6798e-06	1090.1	205.8	3.6533e-06	3.3807e-06	265.6	76.304	59.442	16.779	3.5204e-06	23.666	169.650	230.153	253.313	156.755	260.891	263.711	156.986	164.638	297.789	315.579	164.112	170.708	170.768	178.760	283.389	178.276	-8191	255	
29083.955	1	1	0	0	0.34448	0.14049	0.22688	0.073377	0.088947	0.12231	0.18891	0.18445	0.33201	0.095903	0.21112	0.10982	0.24028	0.22165	0.10137	0.1149	-1.8104	-2.8792	-2.45	-2.5021	-3.0458	-2.3438	-2.7792	-3.0917	-2.2021	-2.8167	-2.6854	-2.3083	-2.9854	-2.2812	-2.5521	-3.2333	155.324	215.656	228.418	456.167	304.344	272.533	470.806	414.124	489.341	214.102	439.623	304.238	493.735	474.244	307.509	466.961	0.00033338	0.00017296	0.00013891	1003.9	2.4611e-06	2.2966e-06	1101	207.53	2.4939e-06	3.0889e-06	266.7	75.927	59.721	16.619	1.8818e-06	23.273	0.0003334	0.0003103	8.7499e-05	990.87	3.552e-06	3.6408e-06	1090.4	206.31	3.7087e-06	3.4212e-06	265.73	76.221	59.545	16.828	3.4143e-06	23.739	173.647	229.888	236.972	157.005	304.771	274.189	157.280	164.208	286.088	311.355	164.323	170.131	170.405	178.743	307.965	178.151	-8191	255	
29084.027	1	1	0	0	0.28455	0.18528	0.048881	0.24176	0.14005	0.15584	0.11258	0.21943	0.16025	0.044229	0.12884	0.24987	0.19307	0.077314	0.064397	0.18176	-1.8042	-2.8187	-2.7396	-2.1917	-2.9979	-2.2354	-2.7188	-3.075	-2.3187	-2.7771	-2.7979	-2.2958	-2.9792	-2.4333	-2.2521	-3.0083	278.440	232.520	331.138	204.437	354.367	501.833	403.879	415.078	250.390	469.773	331.585	429.791	441.831	459.360	298.096	415.961	0.00032202	0.00029128	0.00012608	1004.3	3.5872e-06	3.3125e-06	1100.4	206.81	3.5011e-06	2.3098e-06	266.02	75.949	59.277	16.62	4.5023e-06	23.276	0.00032457	0.00031972	8.8466e-05	989.74	3.5919e-06	3.6829e-06	1088.6	206.13	3.6909e-06	3.303e-06	265.48	76.154	59.45	16.818	3.6601e-06	23.716	173.054	229.360	211.047	157.041	244.430	293.029	156.942	164.595	295.416	290.942	163.679	170.913	170.446	179.148	277.577	178.044	-8191	255	
29084.148	1	1	0	0	0.12811	0.17434	0.18637	0.25255	0.26203	0.12207	0.10159	0.23428	0.17476	0.17638	0.26419	0.12476	0.18549	0.090113	0.1558	0.14703	-1.825	-2.8458	-2.7271	-2.2833	-3.1333	-2.5229	-2.4125	-3.1063	-2.3333	-2.7354	-2.9125	-2.15	-2.9979	-2.4667	-2.3604	-3.0208	354.495	317.153	436.297	149.207	206.494	215.316	453.493	392.157	312.386	344.869	442.340	359.273	455.010	417.155	261.072	504.584	0.00031328	0.00024407	7.2397e-05	1006.3	2.401e-06	4.1676e-06	1101	207.05	2.2787e-06	1.993e-06	265.12	76.245	59.529	16.515	2.9938e-06	23.249	0.00033522	0.00033687	9.1173e-05	990.61	3.4631e-06	3.5903e-06	1090	205.99	3.5877e-06	3.6377e-06	265.75	76.426	59.456	16.785	3.6382e-06	23.751	169.628	248.049	276.017	157.148	244.151	293.977	157.154	164.463	253.142	292.832	164.474	170.632	171.252	178.655	276.107	178.007	-8191	255	
29084.242	1	1	0	0	0.037721	0.070498	0.16495	0.13408	0.163	0.38787	0.14321	0.20182	0.10949	0.097765	0.14585	0.11677	0.2174	0.26935	0.1137	0.16235	-2.1083	-2.5771	-2.8896	-2.1854	-2.8958	-2.6542	-2.3937	-3.2292	-2.1688	-2.675	-2.9333	-2.2833	-2.8792	-2.7229	-2.1813	-3.0708	345.137	147.851	173.456	473.359	172.285	471.103	460.617	464.380	254.174	345.663	220.315	199.529	397.940	493.626	268.409	321.390	0.00033181	0.00027996	4.9101e-05	1006.6	2.6125e-06	2.8558e-06	1096.7	207.78	3.7487e-06	3.2234e-06	264.66	75.731	59.561	16.444	2.1013e-06	23.335	0.00031975	0.00032577	9.087e-05	989.91	3.5463e-06	3.7115e-06	1086.3	205.77	3.7131e-06	3.6872e-06	265.59	76.054	59.468	16.779	3.6049e-06	23.703	175.191	235.998	244.502	157.138	281.796	266.957	156.767	164.289	274.684	330.084	164.338	170.136	171.489	179.248	293.763	177.746	-8191	255	
29084.340	1	1	0	0	0.042545	0.12739	0.10335	0.1624	0.14029	0.14667	0.060277	0.28767	0.12173	0.18358	0.11392	0.18683	0.22637	0.15363	0.078901	0.066162	-2.0604	-2.5354	-2.9479	-2.4646	-2.9896	-2.6854	-2.375	-3.0542	-2.4833	-2.5187	-3.0875	-2.2271	-2.5708	-2.9333	-2.1188	-2.9271	226.500	300.135	369.120	463.758	258.129	151.354	478.499	162.083	454.163	213.807	429.002	238.667	502.982	487.350	338.532	383.995	0.00031667	0.00029273	9.1632e-05	1000.5	3.2042e-06	2.6579e-06	1098.1	207.48	1.9003e-06	2.1722e-06	267.44	75.849	59.418	16.61	2.2286e-06	23.179	0.00032438	0.00033031	9.1383e-05	987.16	3.6027e-06	3.731e-06	1088	206.38	3.7254e-06	3.7194e-06	265.97	75.986	59.632	16.792	3.623e-06	23.682	175.789	244.066	217.781	156.872	285.426	297.966	157.261	164.386	258.419	279.069	164.021	170.832	170.803	178.877	293.099	177.947	-8191	255	
29084.436	1	1	0	0	0.28288	0.17796	0.11898	0.10059	0.18028	0.19887	0.13852	0.078713	0.23203	0.34133	0.18528	0.082307	0.18124	0.13631	0.069071	0.11401	-2.2042	-2.1167	-3.0958	-2.4708	-2.6104	-2.9625	-2.3792	-3.1125	-2.4417	-2.5417	-3.0812	-2.4062	-2.7854	-2.8937	-2.1125	-2.9104	502.366	413.469	429.004	452.080	466.096	175.785	505.089	354.804	341.763	270.930	502.655	468.989	188.394	243.147	433.076	504.816	0.00029424	0.00038544	9.5664e-05	1002	3.5822e-06	4.131e-06	1100.7	207.84	2.9616e-06	1.9661e-06	268.28	76.095	59.159	16.698	2.2608e-06	23.276	0.00033491	0.0003543	9.0215e-05	989.29	3.6636e-06	3.6502e-06	1089.5	206.53	3.7445e-06	3.8323e-06	266.12	76.141	59.421	16.84	3.6582e-06	23.709	174.422	243.724	200.457	156.986	254.703	257.810	156.805	164.514	292.984	304.395	164.258	170.678	170.883	178.922	288.766	178.110	-8191	255	
29084.557	1	1	0	0	0.066875	0.029085	0.13641	0.19268	0.18297	0.14939	0.30495	0.18911	0.097004	0.056866	0.18723	0.13838	0.21673	0.18438	0.15328	0.2465	-2.2729	-2.2229	-3.0312	-2.4042	-2.6271	-2.9417	-2.4729	-2.9167	-2.775	-2.4042	-3.1562	-2.4771	-2.4938	-2.9542	-2.2125	-2.9	188.864	271.958	236.644	399.654	307.796	335.858	475.706	465.856	363.150	436.236	175.960	474.405	194.767	475.355	291.591	197.141	0.00032741	0.00028827	8.5165e-05	1006.9	3.3906e-06	4.7973e-06	1098.3	207.99	7.7568e-07	3.6233e-06	267.15	76.432	59.556	16.598	3.7723e-06	23.291	0.00034112	0.0003639	9.1627e-05	991.12	3.8661e-06	3.8731e-06	1089.4	206.53	3.8708e-06	3.8751e-06	266.68	76.325	59.725	16.8	3.9481e-06	23.787	175.116	231.151	192.214	156.855	250.731	295.321	156.996	164.542	282.839	299.740	164.341	170.581	171.096	178.595	263.484	178.728	-8191	255	
29084.652	1	1	0	0	0.1989	0.10353	0.23	0.10771	0.039487	0.023457	0.11456	0.21953	0.19125	0.12573	0.15923	0.17313	0.3086	0.36082	0.15527	0.030481	-2.4083	-2.1562	-2.8625	-2.6375	-2.3146	-2.8083	-2.4813	-2.8708	-2.9396	-2.1646	-2.9854	-2.6813	-2.5229	-2.8312	-2.3729	-2.6646	437.558	323.414	290.346	472.785	366.785	176.671	168.560	495.394	407.791	498.389	506.682	164.070	179.041	173.008	470.510	414.177	0.00032044	0.00017452	9.9285e-05	1005.5	3.3654e-06	2.4308e-06	1100	207.59	3.2325e-06	1.2521e-06	268.52	75.926	59.301	16.589	2.8056e-06	23.414	0.00032708	0.00034795	9.541e-05	991.61	4.0829e-06	3.8681e-06	1090.4	206.43	3.8156e-06	3.9631e-06	266.66	76.299	59.534	16.826	3.8138e-06	23.789	171.094	254.607	260.248	157.310	263.644	304.255	156.989	164.734	274.756	226.241	164.585	170.785	171.008	179.165	279.911	178.489	-8191	255	
29084.748	1	1	0	0	0.058917	0.19469	0.082148	0.13843	0.026167	0.036325	0.058927	0.055678	0.14917	0.25332	0.13822	0.24685	0.02707	0.22153	0.068511	0.033586	-2.4542	-2.1271	-2.9708	-2.6	-2.0896	-2.9625	-2.5604	-2.5708	-3.0021	-2.2479	-2.9479	-2.6958	-2.3625	-3.0167	-2.3417	-2.5521	344.083	254.631	181.747	430.017	222.920	226.580	314.411	412.727	178.522	334.285	202.191	499.752	238.360	235.219	378.634	459.286	0.0003094	0.00030097	0.00012465	1004.6	3.7907e-06	4.7206e-06	1101.3	207.93	1.4686e-06	3.0777e-06	267.7	76.099	59.625	16.588	3.3383e-06	23.238	0.00035495	0.00037726	9.3535e-05	992.12	4.0319e-06	3.9395e-06	1089.8	206.58	3.8886e-06	3.8645e-06	266.67	76.455	59.872	16.868	3.9341e-06	23.764	170.918	254.811	247.085	157.413	276.752	306.825	157.044	164.640	274.038	279.893	164.653	170.976	171.108	178.828	282.226	178.589	-8191	255	
29084.846	1	1	0	0	0.10958	0.27946	0.12467	0.22594	0.17334	0.065735	0.24125	0.25391	0.18079	0.17314	0.11891	0.10757	0.29169	0.14453	0.19553	0.078464	-2.5729	-2.0812	-2.9813	-2.7542	-2.275	-2.9146	-2.5563	-2.4771	-3.0771	-2.1146	-2.8625	-2.8479	-2.1562	-3.0542	-2.4542	-2.3521	429.029	149.995	368.210	481.900	294.878	153.271	438.038	386.803	456.018	257.539	257.682	223.620	323.163	186.049	286.077	343.185	0.00034088	0.00041334	8.2035e-05	1006	2.4168e-06	1.8263e-06	1102.7	207.03	3.1939e-06	3.5877e-06	266.45	75.72	59.428	16.627	2.7729e-06	23.213	0.00034385	0.00036264	9.6351e-05	993.08	4.0303e-06	3.6997e-06	1089.6	206.86	3.7762e-06	3.8588e-06	266.87	76.016	59.557	16.821	3.8052e-06	23.701	173.776	222.190	245.448	156.853	269.087	278.258	157.059	164.971	292.753	308.388	164.580	171.149	171.188	179.360	281.222	178.293	-8191	255	
29084.941	1	1	0	0	0.14641	0.27443	0.1221	0.076074	0.033221	0.065489	0.40345	0.10391	0.082516	0.27254	0.29714	0.20815	0.1552	0.25518	0.089822	0.15227	-2.6104	-2.2208	-2.6021	-2.7854	-2.3312	-3.0438	-2.6229	-2.4167	-2.9292	-2.4	-2.8146	-3.0583	-2.1562	-2.8479	-2.6125	-2.3312	317.958	453.475	249.324	433.149	228.719	324.452	437.528	460.113	290.638	191.687	472.234	147.338	465.510	412.340	233.047	453.213	0.00030831	0.00040416	8.9384e-05	1000.3	2.4239e-06	2.3134e-06	1100.3	207.94	3.5609e-06	4.283e-06	265.89	76.298	59.876	16.577	3.0834e-06	23.286	0.00032683	0.00036216	9.6872e-05	990.61	3.8757e-06	3.9674e-06	1089.4	207.05	3.7365e-06	3.7715e-06	266.39	76.478	59.864	16.881	3.6709e-06	23.841	170.916	235.109	245.393	157.209	255.577	323.356	157.361	164.929	273.094	286.894	164.602	170.624	171.169	178.884	294.515	178.450	-8191	255	
29085.035	1	1	0	0	0.32574	0.21488	0.17896	0.24452	0.044394	0.14379	0.11492	0.19006	0.066748	0.19983	0.08255	0.1283	0.20135	0.056616	0.25883	0.18244	-2.5687	-2.2188	-2.4146	-2.875	-2.2146	-2.9313	-2.8917	-2.2521	-2.9167	-2.35	-2.5583	-3.1083	-2.2021	-2.9042	-2.7687	-2.1646	288.879	175.237	399.711	456.524	308.044	320.998	470.286	303.368	206.027	343.785	338.372	243.591	172.769	349.083	310.766	418.192	0.00030762	0.00020328	0.00011252	1003.6	5.6674e-07	3.5431e-06	1094.8	207.55	1.7415e-06	3.177e-06	266.48	76.56	59.529	16.59	2.5893e-06	23.222	0.000323	0.00034371	9.6351e-05	991.42	3.7705e-06	3.8553e-06	1088.4	206.27	3.7636e-06	3.8754e-06	266.45	76.463	59.428	16.834	3.6099e-06	23.729	172.464	267.810	247.901	157.459	363.414	260.088	157.258	164.695	287.347	323.775	164.500	171.151	171.269	179.752	275.285	178.732	-8191	255	
29085.156	1	1	0	0	0.25062	0.12845	0.076127	0.2683	0.12753	0.22041	0.38258	0.12347	0.095467	0.224	0.25143	0.014531	0.16409	0.28802	0.10093	0.31539	-2.7042	-2.5104	-2.4125	-3.0167	-2.2271	-2.8312	-2.9583	-2.4313	-2.7708	-2.3688	-2.4708	-3.2188	-2.2667	-2.8146	-2.9417	-2.3542	368.553	278.853	174.610	383.096	262.569	217.032	196.092	384.756	261.494	199.457	152.882	168.031	219.173	200.117	502.422	492.823	0.00030263	0.00042898	0.00010842	999.61	2.1879e-06	4.2428e-06	1099.9	207.03	2.4135e-06	3.1445e-06	265.61	76.08	59.477	16.712	1.3162e-06	23.255	0.00032502	0.00034148	9.7469e-05	991.29	3.7453e-06	3.6387e-06	1087.6	206.13	3.6733e-06	3.7443e-06	266.18	76.19	59.558	16.875	3.7503e-06	23.741	176.644	240.552	233.731	157.475	274.294	317.604	157.077	164.796	269.910	313.584	164.443	171.168	170.880	178.878	303.743	178.365	-8191	255	
29085.252	1	1	0	0	0.17888	0.20752	0.15731	0.2864	0.11199	0.28545	0.114	0.187	0.25557	0.12856	0.037285	0.2523	0.12955	0.21596	0.16852	0.14721	-2.4958	-2.5729	-2.3688	-3.1813	-2.3146	-2.45	-3.2229	-2.2708	-2.8729	-2.6917	-2.3583	-3.2458	-2.3667	-2.5875	-3.0604	-2.2125	485.645	490.541	239.426	158.866	373.287	444.825	454.553	149.094	200.302	168.245	358.546	474.945	462.844	312.083	486.588	434.284	0.00032609	3.5669e-05	3.882e-05	997.54	2.1527e-06	4.3218e-06	1096.7	206.55	2.6142e-06	2.1565e-06	266.9	76.573	59.116	16.506	1.6058e-06	23.259	0.00032696	0.00033919	9.4468e-05	988.29	3.7281e-06	3.7357e-06	1086.9	205.65	3.7115e-06	3.576e-06	265.62	76.34	59.44	16.827	3.6858e-06	23.782	175.386	262.159	228.043	157.297	276.810	321.392	156.935	165.103	262.277	287.192	164.528	170.985	170.937	179.189	247.046	178.750	-8191	255	
29085.324	1	1	0	0	0.22795	0.12305	0.088956	0.018023	0.10394	0.26816	0.20158	0.31987	0.11962	0.28258	0.11451	0.22001	0.071548	0.10886	0.22169	0.1565	-2.5146	-2.5896	-2.2479	-3.2313	-2.5708	-2.5792	-3.2042	-2.2833	-2.6458	-2.6792	-2.3417	-3.0417	-2.3937	-2.5458	-3.0042	-2.1083	479.187	481.725	385.487	286.531	240.586	422.042	403.118	368.981	332.579	199.854	285.668	475.604	340.836	335.989	328.315	448.016	0.00030198	0.00030788	6.9659e-05	1003.7	3.5884e-06	9.779e-07	1101.8	207.39	3.0745e-06	3.1413e-06	267.94	76.152	59.229	16.719	1.7614e-06	23.155	0.00032851	0.00036432	9.6317e-05	992.73	3.8773e-06	4.0422e-06	1090.2	206.33	3.8039e-06	3.6503e-06	266.81	76.447	59.531	16.869	3.6195e-06	23.678	179.520	225.589	242.153	157.472	297.300	257.160	157.072	164.802	251.978	318.578	164.753	170.900	171.230	179.406	277.315	178.525	-8191	255	
29085.420	1	1	0	0	0.021073	0.07593	0.24964	0.10691	0.13622	0.069414	0.17705	0.27822	0.10763	0.047164	0.29135	0.10781	0.14497	0.024084	0.30988	0.06663	-2.2229	-2.7521	-2.1312	-3.0875	-2.5917	-2.3458	-3.3354	-2.3229	-2.7875	-2.8187	-2.2917	-3.0854	-2.5292	-2.325	-2.8833	-2.4208	318.748	405.752	166.589	160.440	400.343	196.020	436.343	469.844	208.218	150.087	374.660	447.704	445.716	383.180	394.425	333.287	0.00030341	0.00029992	0.00012273	1005.1	3.7566e-06	2.0427e-06	1099.8	207.85	2.1425e-06	2.7662e-06	267.13	75.897	59.192	16.6	2.7437e-06	23.241	0.00033493	0.00034602	9.5645e-05	992.53	3.7153e-06	3.9045e-06	1090.9	206.45	3.8202e-06	3.729e-06	266.79	76.346	59.425	16.861	3.4007e-06	23.817	176.273	182.927	210.695	157.287	276.040	296.991	157.396	165.018	267.813	261.502	164.350	170.884	171.088	179.477	315.214	178.866	-8191	255	
29085.539	1	1	0	0	0.23661	0.042313	0.22952	0.32718	0.21645	0.085951	0.15703	0.20021	0.16372	0.18338	0.15376	0.039283	0.2625	0.21479	0.23832	0.26186	-2.05	-2.9188	-2.1521	-2.9938	-2.6229	-2.1521	-3.1604	-2.3271	-2.3396	-3.0146	-2.1958	-2.9917	-2.8	-2.2	-3.1562	-2.4	185.152	458.906	406.271	459.400	480.199	205.080	429.735	495.181	185.361	287.971	500.697	414.059	374.138	248.039	187.444	445.284	0.00031681	0.00020272	7.4986e-05	1008.3	3.1779e-06	3.6204e-06	1100.2	207.45	3.2098e-06	2.623e-06	267.44	76.294	58.814	16.592	3.655e-06	23.265	0.00033059	0.00033618	9.7763e-05	991.89	3.7517e-06	3.7697e-06	1089.2	206.15	3.8809e-06	3.7101e-06	266.57	76.435	59.366	16.854	3.5525e-06	23.73	169.715	240.958	220.941	157.439	292.236	316.096	157.207	164.872	296.865	303.656	164.434	171.225	171.136	179.263	261.503	178.422	-8191	255	
29085.637	1	1	0	0	0.12763	0.22946	0.075137	0.1134	0.084435	0.08014	0.077104	0.15058	0.13589	0.16135	0.34969	0.049293	0.16541	0.063868	0.17697	0.09869	-2.0479	-2.8	-2.2646	-2.7771	-2.8229	-2.2188	-3.3021	-2.4083	-2.4479	-2.9437	-2.4146	-2.85	-2.975	-2.1167	-2.8812	-2.5625	371.250	460.312	160.709	476.571	209.919	440.469	429.538	399.994	404.280	290.255	383.546	495.713	336.931	249.938	149.008	342.179	0.00032701	0.00026572	3.4485e-05	1008.2	5.163e-06	4.7274e-06	1095.8	207.75	2.782e-06	2.8919e-06	266.71	76.13	59.284	16.601	2.9418e-06	23.116	0.00031955	0.00033561	9.3838e-05	991.71	3.5543e-06	3.8846e-06	1088.6	206.05	3.7309e-06	3.6085e-06	266.09	76.22	59.531	16.804	3.4947e-06	23.687	170.845	197.518	309.764	157.313	285.676	312.220	157.507	164.985	314.428	274.065	164.468	170.580	170.404	178.898	286.567	177.956	-8191	255	
29085.732	1	1	0	0	0.21718	0.088468	0.21452	0.10083	0.12242	0.12645	0.039581	0.26569	0.14406	0.22723	0.1516	0.12672	0.1646	0.06253	0.19855	0.21101	-2.0521	-3.0646	-2.175	-2.6292	-2.9958	-2.2146	-3.1021	-2.6458	-2.1229	-3.1042	-2.3187	-2.7021	-3.0458	-2.0167	-2.8354	-2.7562	497.900	399.000	456.836	292.830	158.060	478.250	430.662	475.529	183.970	450.298	358.531	176.530	398.488	503.961	225.696	212.479	0.00031061	0.00030814	9.7332e-05	1003.6	2.9355e-06	3.8635e-06	1098.4	207.26	4.3015e-06	3.3374e-06	267.65	76.01	59.154	16.573	2.5151e-06	23.173	0.00032702	0.00032324	9.2056e-05	993.72	3.6974e-06	3.8671e-06	1089.4	206.22	3.9339e-06	3.4647e-06	265.88	76.127	59.423	16.831	3.5372e-06	23.723	172.483	251.404	199.245	157.167	256.063	311.828	157.242	164.190	275.884	295.638	164.225	170.530	170.392	178.959	284.585	178.265	-8191	255	
29085.828	1	1	0	0	0.15504	0.18807	0.11792	0.069624	0.19652	0.21816	0.14528	0.23388	0.048321	0.050939	0.26565	0.043194	0.19278	0.12326	0.20023	0.1571	-1.7521	-3.075	-2.1833	-2.575	-3.1021	-2.0896	-2.9688	-2.8604	-2.1333	-2.8958	-2.4917	-2.5208	-2.9646	-2.3854	-2.8208	-2.7875	276.789	176.881	491.466	153.717	376.696	434.082	435.456	449.016	477.121	166.879	414.827	297.391	375.959	318.809	485.670	459.730	0.00029929	0.00026892	0.00010506	1003.6	3.2728e-06	2.0752e-06	1101.4	207.07	3.6125e-06	2.369e-06	265.32	75.904	59.284	16.619	3.2651e-06	23.313	0.0003244	0.00032872	9.1139e-05	991.33	3.722e-06	3.8193e-06	1090.4	206.27	3.7944e-06	3.5096e-06	266.06	76.17	59.437	16.778	3.9379e-06	23.748	169.484	232.681	232.162	157.184	269.368	284.546	156.977	164.508	265.626	262.843	164.236	170.863	171.109	179.350	316.722	178.363	-8191	255	
29085.926	1	1	0	0	0.30747	0.20684	0.033231	0.20796	0.093079	0.094118	0.27902	0.13434	0.093239	0.28302	0.13602	0.31356	0.084441	0.13116	0.13504	0.12657	-1.9896	-3.025	-2.5021	-2.3958	-2.9271	-2.1646	-2.8312	-2.9562	-2.0938	-2.8917	-2.6688	-2.3604	-3.0062	-2.2667	-2.7062	-3.0958	266.632	464.152	170.676	188.754	176.286	453.057	479.539	452.368	389.656	501.496	461.607	419.818	304.425	203.634	335.266	402.572	0.00031468	0.00013804	4.139e-05	998.51	9.4505e-07	9.7608e-07	1104.3	207.14	3.3701e-06	2.1224e-06	265.99	75.853	59.373	16.614	3.3549e-06	23.357	0.00033081	0.00032824	9.7847e-05	990.83	3.6145e-06	3.8819e-06	1091.8	206.09	3.9314e-06	3.7602e-06	265.49	76.469	59.475	16.846	3.8014e-06	23.742	174.193	230.920	236.973	157.472	335.203	296.595	157.174	164.530	294.819	299.277	164.645	171.045	171.062	178.967	320.258	178.626	-8191	255	
29086.021	1	1	0	0	0.28517	0.15819	0.20388	0.29402	0.078279	0.17764	0.27807	0.32059	0.016805	0.071167	0.29251	0.088334	0.24802	0.23814	0.20184	0.081748	-1.8729	-2.7625	-2.7542	-2.3458	-2.9958	-2.5375	-2.8729	-3.0417	-2.2333	-2.9854	-2.8333	-2.2687	-3.1708	-2.4542	-2.4771	-3.0271	415.827	180.131	380.962	419.795	358.667	318.612	438.574	474.722	252.520	310.071	397.587	334.467	414.096	478.703	220.785	377.258	0.00033589	0.00014623	1.7301e-05	1008.2	2.3954e-06	3.7057e-06	1099.5	207.49	1.3027e-06	3.6303e-06	264.92	75.903	59.169	16.658	2.4482e-06	23.264	0.00034136	0.0003484	9.5199e-05	993.26	3.8304e-06	3.7694e-06	1089.9	206.45	3.8837e-06	3.8459e-06	265.82	76.236	59.513	16.849	3.7569e-06	23.762	176.644	232.897	493.459	157.046	278.623	301.280	157.239	164.283	271.884	302.831	164.475	170.562	170.674	178.659	303.166	178.319	-8191	255	
29086.117	1	1	0	0	0.063451	0.097215	0.20534	0.082295	0.04131	0.070569	0.21483	0.10055	0.16657	0.19657	0.12015	0.10772	0.09926	0.14613	0.10763	0.2232	-2.0333	-2.7354	-2.7562	-2.2354	-2.9688	-2.4292	-2.5667	-2.9958	-2.4083	-2.7521	-2.9792	-2.425	-3.05	-2.4188	-2.3708	-3.025	308.263	428.526	157.371	419.469	338.798	421.854	404.574	342.552	233.271	251.419	477.332	389.147	415.331	501.962	499.575	339.875	0.00030994	0.00022022	0.00011935	1008	2.2994e-06	2.2309e-06	1102.8	207.96	2.4674e-06	2.9769e-06	266.02	75.774	59.409	16.551	2.7385e-06	23.269	0.00034379	0.00035454	9.53e-05	994.18	3.686e-06	3.8287e-06	1091.2	206.51	3.7288e-06	3.6995e-06	265.78	76.164	59.739	16.834	3.9043e-06	23.735	176.396	235.363	224.913	156.681	262.644	293.137	157.383	164.318	295.241	275.577	164.372	170.595	170.840	178.683	284.389	177.745	-8191	255	
29086.236	1	1	0	0	0.25261	0.26366	0.12121	0.19791	0.33883	0.30166	0.19547	0.19971	0.21403	0.13207	0.17355	0.1419	0.099351	0.19182	0.17759	0.14383	-1.9021	-2.5333	-2.7229	-2.1667	-2.8146	-2.5542	-2.4167	-3.0396	-2.1417	-2.7	-2.9542	-2.2729	-2.8854	-2.6917	-2.1208	-3.0417	428.068	500.910	349.754	421.782	494.242	148.247	481.263	384.331	182.443	186.930	395.325	190.371	198.075	423.935	463.214	385.037	0.0003114	0.00045319	7.8077e-05	1004.5	2.4275e-06	4.301e-06	1099.3	207.67	2.4171e-06	2.5452e-06	268.18	75.938	59.261	16.565	2.4976e-06	23.284	0.00033728	0.00035538	9.5737e-05	991.46	3.7752e-06	3.895e-06	1089.7	206.38	3.9327e-06	3.6756e-06	266.55	76.206	59.55	16.855	3.7074e-06	23.714	168.398	218.708	227.657	156.898	246.577	324.108	157.192	164.384	308.701	327.981	164.303	170.562	171.099	179.063	256.774	178.099	-8191	255	
29086.332	1	1	0	0	0.16765	0.16525	0.076183	0.11583	0.16702	0.15163	0.30813	0.28168	0.066838	0.17462	0.27839	0.11368	0.028733	0.089825	0.12332	0.046063	-1.9271	-2.5583	-3.0771	-2.3563	-2.8833	-2.8771	-2.3917	-3.2125	-2.5208	-2.5312	-3.0729	-2.1354	-2.9313	-2.8833	-2.35	-2.8375	406.676	162.527	211.955	180.856	190.477	489.830	444.089	367.750	192.637	454.765	477.947	484.297	337.470	209.189	502.063	397.244	0.00032766	0.0002081	2.2361e-05	1005.3	2.7041e-06	2.4547e-06	1105.6	208	1.0041e-06	3.8813e-06	268.64	76.289	59.584	16.811	3.2883e-06	23.117	0.00032869	0.00034888	9.7595e-05	992.08	3.8754e-06	3.8398e-06	1090.9	206.58	3.9462e-06	3.8366e-06	266.86	76.33	59.68	16.919	3.9449e-06	23.752	175.529	250.981	253.748	157.363	311.328	322.980	156.974	164.778	280.093	304.221	164.367	170.481	171.433	178.990	303.992	178.535	-8191	255	
29086.428	1	1	0	0	0.12036	0.28176	0.092981	0.3538	0.16502	0.215	0.069041	0.21584	0.32588	0.12936	0.2952	0.060457	0.050892	0.2763	0.13825	0.088273	-2.1583	-2.4062	-2.8875	-2.2771	-2.7188	-2.9229	-2.2271	-3.0333	-2.5146	-2.4938	-3.1271	-2.2562	-2.7208	-3.1708	-2.1167	-3.1896	389.864	265.484	299.141	428.861	219.119	444.130	455.907	396.720	194.745	187.922	152.058	282.551	465.975	492.432	162.529	236.223	0.00029468	0.00027331	6.1353e-05	1004.6	2.3121e-06	6.9023e-07	1102.8	206.99	3.3509e-06	5.2396e-06	267.78	76.282	59.627	16.672	3.2223e-06	23.327	0.00033773	0.00035286	9.3064e-05	992.72	3.6487e-06	3.7179e-06	1091.7	206.54	3.9949e-06	3.9847e-06	266.09	76.301	59.605	16.873	3.8151e-06	23.819	170.111	232.750	247.552	157.461	264.258	290.962	157.185	164.601	282.867	301.578	164.314	170.833	171.048	178.740	269.713	178.171	-8191	255	
29086.549	1	1	0	0	0.037704	0.22346	0.16017	0.1984	0.26829	0.19377	0.17058	0.16208	0.22288	0.27396	0.32437	0.30318	0.16583	0.11426	0.2382	0.13803	-2.3563	-2.3438	-3.0146	-2.3729	-2.4813	-2.9958	-2.4125	-3.0542	-2.6083	-2.3208	-3.1	-2.475	-2.6167	-3.1312	-2.1729	-2.9021	487.068	436.799	454.632	475.880	381.893	400.016	494.638	367.752	314.877	324.205	463.276	505.313	437.618	460.128	362.681	476.480	0.00033708	0.00012764	0.00014705	1006.1	9.1318e-07	1.9554e-06	1104.2	208.06	1.017e-06	1.7896e-06	268.37	76.146	59.349	16.623	1.8641e-06	23.212	0.00034222	0.0003645	9.3182e-05	991.43	3.8511e-06	3.7852e-06	1091.9	206.46	3.8313e-06	3.733e-06	267.07	76.334	59.665	16.863	3.6509e-06	23.691	170.081	248.284	223.955	157.222	248.870	260.744	157.174	164.876	282.488	290.948	164.442	170.624	171.081	179.297	311.302	178.793	-8191	255	
29086.621	1	1	0	0	0.27936	0.12638	0.13572	0.21936	0.065938	0.10017	0.07232	0.059439	0.051657	0.20665	0.10399	0.11127	0.054501	0.10461	0.16506	0.20267	-2.2229	-2.1417	-2.9917	-2.5292	-2.5521	-3.0708	-2.475	-2.9229	-2.7229	-2.3104	-3.0104	-2.5521	-2.4083	-2.8917	-2.5021	-2.9854	371.475	367.337	324.816	178.764	333.745	422.317	383.792	162.700	296.756	178.113	423.631	368.468	292.795	370.195	188.462	192.406	0.00029377	0.00051196	0.00010007	1005.6	4.0253e-06	2.342e-06	1102.3	207.41	2.1009e-06	1.9326e-06	266.36	76.308	58.963	16.616	4.8973e-06	23.337	0.00034008	0.00037419	9.4107e-05	991.6	3.8581e-06	3.8122e-06	1090.3	206.55	3.5252e-06	3.811e-06	266.27	76.459	59.464	16.854	3.964e-06	23.785	173.997	234.553	232.533	157.259	283.121	349.274	157.030	164.507	310.545	271.785	164.671	170.895	171.071	179.084	261.528	178.737	-8191	255	
29086.717	1	1	0	0	0.15681	0.21168	0.17833	0.28217	0.19983	0.23567	0.16658	0.30136	0.17191	0.3257	0.29334	0.28793	0.22866	0.057863	0.17272	0.19012	-2.4521	-2.1229	-2.9	-2.5521	-2.2229	-3.0708	-2.4354	-2.85	-2.7958	-2.2313	-3.1771	-2.7354	-2.1917	-2.9354	-2.5146	-2.7792	266.848	492.457	290.537	402.774	173.047	409.486	454.511	443.026	201.296	454.117	469.536	502.907	497.603	234.121	417.273	364.613	0.00030457	0.00018894	9.9138e-05	1000.4	3.6904e-06	3.0134e-06	1103.7	208.77	2.2794e-06	4.373e-06	266.24	75.734	59.582	16.542	2.7837e-06	23.449	0.00033277	0.0003565	9.2451e-05	990.64	3.9289e-06	3.8145e-06	1092.6	206.64	3.8252e-06	3.6397e-06	266.59	76.174	59.743	16.848	3.6258e-06	23.826	173.655	208.438	242.050	157.353	263.135	346.667	157.326	164.710	269.676	306.818	164.551	170.519	170.945	179.419	322.217	178.278	-8191	255	
29086.838	1	1	0	0	0.028594	0.10852	0.29194	0.29696	0.10774	0.14823	0.35872	0.30251	0.022143	0.10234	0.090566	0.080031	0.11922	0.1047	0.25039	0.17325	-2.4896	-2.2917	-2.8917	-2.5375	-2.2479	-2.8812	-2.4708	-2.4792	-2.9917	-2.2313	-2.95	-2.8854	-2.2	-2.9917	-2.4083	-2.5729	240.560	204.507	295.550	168.330	417.608	216.124	453.805	483.876	258.072	405.766	465.425	494.444	495.399	268.096	443.173	172.978	0.00031386	0.00047267	9.4347e-05	1000	1.7954e-06	1.3073e-06	1098.1	206.28	1.7503e-06	3.6172e-06	267.38	75.997	59.67	16.621	3.4124e-06	23.277	0.00031014	0.00035626	9.156e-05	989.69	3.8234e-06	3.7239e-06	1088.6	205.97	3.5181e-06	3.6742e-06	266.45	76.163	59.794	16.858	3.6204e-06	23.809	169.651	243.243	225.283	157.108	338.084	323.012	156.920	164.509	273.484	293.793	164.461	169.981	170.867	179.264	269.389	178.078	-8191	255	
29086.932	1	1	0	0	0.064435	0.21971	0.027851	0.032557	0.13203	0.08244	0.14287	0.18894	0.028563	0.098532	0.27278	0.43491	0.058955	0.10001	0.053563	0.1708	-2.5958	-2.1729	-2.9	-2.7771	-2.1104	-3.0125	-2.5875	-2.4417	-2.9521	-2.2375	-2.7562	-2.775	-2.1396	-2.9771	-2.6083	-2.3063	286.705	460.782	422.780	387.903	172.728	189.797	452.260	215.713	470.093	281.735	407.209	491.414	461.855	223.245	300.921	280.724	0.00038878	0.0001158	0.0001143	998.33	2.4981e-06	1.9469e-06	1098.5	206.91	2.2848e-06	2.343e-06	266.45	75.648	58.778	16.613	2.8258e-06	23.154	0.00033534	0.00035376	9.7318e-05	991.4	3.8935e-06	3.595e-06	1088.6	206.39	3.6025e-06	3.8758e-06	266.1	76.119	59.353	16.896	3.6166e-06	23.728	169.309	297.702	217.300	156.730	290.822	316.042	156.845	164.513	283.548	303.812	164.242	170.668	170.955	179.206	280.635	178.322	-8191	255	
29087.027	1	1	0	0	0.15938	0.24978	0.085073	0.34346	0.15346	0.070507	0.12566	0.30293	0.15549	0.1665	0.16344	0.14537	0.10404	0.2793	0.14682	0.04026	-2.5542	-2.1667	-2.625	-2.7562	-2.1458	-2.8292	-2.7146	-2.3312	-2.7833	-2.2896	-2.7687	-2.95	-2.2062	-2.9208	-2.8187	-2.1021	244.815	291.628	418.323	497.532	181.918	483.454	386.224	392.678	445.949	237.594	282.982	498.844	476.329	424.883	397.531	378.084	0.00033891	0.00027846	7.8996e-05	1002.6	2.2135e-06	2.0121e-06	1102.2	207.69	2.9008e-06	2.7825e-06	267.33	76.581	59.763	16.698	3.2806e-06	23.176	0.00032124	0.00033973	9.4216e-05	991.83	3.6885e-06	3.8061e-06	1089.2	206.74	3.5366e-06	3.6859e-06	266.42	76.449	59.58	16.877	3.6823e-06	23.826	168.351	264.028	254.988	157.318	250.134	312.965	156.904	164.520	266.881	302.884	164.192	170.382	170.872	178.931	290.698	178.098	-8191	255	
29087.123	1	1	0	0	0.05438	0.003489	0.09119	0.14951	0.028882	0.25579	0.16402	0.12143	0.043216	0.19486	0.2562	0.15578	0.36277	0.15027	0.18206	0.25179	-2.5958	-2.3583	-2.4875	-3.0729	-2.1958	-2.7729	-2.9146	-2.3646	-2.9625	-2.4646	-2.2625	-3.1625	-2.3104	-2.8979	-2.7521	-2.2333	272.703	212.171	232.922	206.912	384.603	295.113	463.668	154.124	457.869	336.334	404.109	413.017	476.233	164.427	378.922	170.294	0.00032363	0.00027411	9.4418e-05	1006.7	3.0998e-06	1.7135e-06	1099.5	207.23	2.5367e-06	4.8404e-06	268.24	75.945	59.722	16.455	4.5605e-06	23.333	0.00032096	0.00032399	9.7478e-05	992.34	3.7619e-06	3.7485e-06	1088.8	206.46	3.5517e-06	3.4202e-06	266.86	76.36	59.667	16.83	3.5452e-06	23.797	169.755	217.629	244.624	157.083	264.690	304.606	157.130	164.731	269.552	288.955	164.472	170.499	170.745	178.654	296.006	178.584	-8191	255	
29087.221	1	1	0	0	0.16259	0.21615	0.12571	0.17368	0.12707	0.14459	0.26365	0.12607	0.22761	0.13632	0.10919	0.078127	0.195	0.17285	0.16007	0.273	-2.5167	-2.5563	-2.3	-3.0167	-2.2083	-2.6292	-2.9458	-2.2188	-2.6792	-2.4333	-2.5104	-2.9604	-2.1688	-2.6042	-2.8479	-2.2938	466.859	377.130	323.805	383.172	364.078	430.750	427.378	421.226	241.196	482.362	322.285	467.971	314.800	401.706	232.520	453.809	0.00032157	0.00036251	0.00012608	999.27	3.3292e-06	4.0135e-06	1101.3	206.98	3.8691e-06	3.7028e-06	265.88	75.952	59.408	16.614	2.6686e-06	23.378	0.00030806	0.0003332	9.3997e-05	989.49	3.4593e-06	3.5158e-06	1090.8	205.91	3.7103e-06	3.657e-06	266.03	76.224	59.392	16.861	3.5175e-06	23.771	171.727	286.075	224.579	157.035	277.911	290.158	157.047	164.615	274.263	289.721	164.404	170.703	171.078	179.276	299.982	178.071	-8191	255	
29087.316	1	1	0	0	0.15564	0.064895	0.092786	0.20069	0.22316	0.12914	0.32474	0.050251	0.15403	0.23044	0.087273	0.19775	0.026055	0.1696	0.10037	0.11394	-2.6333	-2.5	-2.0687	-2.9729	-2.1854	-2.4229	-3.0333	-2.2771	-2.9729	-2.6708	-2.2896	-3.0875	-2.4813	-2.45	-2.9313	-2.1521	408.152	207.219	431.504	162.664	431.514	184.603	460.297	165.951	242.408	492.625	372.507	275.410	438.375	383.144	208.758	267.667	0.00028597	0.00045732	0.00014255	1002.3	2.4898e-06	2.1089e-06	1099.4	206.8	3.9451e-06	2.8572e-06	267.64	75.451	59.838	16.587	3.701e-06	23.277	0.00032381	0.00031957	9.1072e-05	990.8	3.7937e-06	3.536e-06	1089.3	206.09	3.5726e-06	3.7054e-06	266.51	76.228	59.671	16.808	3.3626e-06	23.777	173.668	230.768	246.825	157.147	293.702	316.290	157.040	164.673	265.720	302.577	164.296	170.764	171.150	178.725	268.946	178.250	-8191	255	
29087.412	1	1	0	0	0.15561	0.2767	0.12624	0.25207	0.27104	0.057179	0.014367	0.19113	0.076715	0.18223	0.11402	0.18478	0.23894	0.23058	0.10999	0.18795	-2.2562	-2.8083	-2.3083	-2.9854	-2.5792	-2.5542	-3.2771	-2.3146	-2.8167	-2.9021	-2.2729	-3.1167	-2.6208	-2.4562	-2.925	-2.3958	286.050	422.257	365.363	453.621	228.288	487.049	388.080	458.216	321.705	501.072	500.378	233.389	466.224	190.487	334.853	346.747	0.00033162	0.00025254	9.3507e-05	1008.1	3.1347e-06	4.4861e-06	1102.5	205.8	1.2663e-06	1.1997e-06	266.06	76.188	59.672	16.553	2.0809e-06	23.347	0.00031494	0.00032309	9.5939e-05	993.37	3.6828e-06	3.8098e-06	1091.1	206	3.7275e-06	3.6762e-06	266.36	76.304	59.608	16.848	3.682e-06	23.748	167.189	273.994	226.220	157.339	285.669	287.740	157.022	164.573	264.253	229.207	164.825	170.817	171.499	178.721	279.186	178.106	-8191	255	
29087.510	1	1	0	0	0.10961	0.18893	0.14722	0.23164	0.18156	0.35288	0.20117	0.15756	0.17561	0.018321	0.16703	0.25692	0.41238	0.096742	0.145	0.13407	-2.3167	-2.8146	-2.3271	-2.9375	-2.8229	-2.2479	-3.1188	-2.3063	-2.4896	-3.0292	-2.2375	-2.8625	-2.6688	-2.3646	-3.1458	-2.4062	410.311	204.394	361.418	227.913	328.423	152.245	451.095	381.876	222.766	398.042	350.666	284.929	161.636	168.065	272.574	433.037	0.00030141	0.00036064	6.6501e-05	1007.3	3.5249e-06	4.5773e-06	1099.2	207.86	3.2677e-06	3.5391e-06	265.37	75.979	59.446	16.406	1.3182e-06	23.29	0.00032816	0.00032775	9.7259e-05	992.02	3.6761e-06	3.8839e-06	1089	206.5	3.7565e-06	3.5819e-06	265.84	76.256	59.448	16.795	3.5325e-06	23.791	169.888	233.558	213.763	157.229	309.288	265.203	157.146	164.643	292.529	273.322	164.484	170.605	171.336	179.107	315.150	178.379	-8191	255	
29087.629	1	1	0	0	0.13537	0.24187	0.11964	0.2484	0.12392	0.24498	0.045421	0.21603	0.094615	0.070436	0.18215	0.13244	0.14245	0.12457	0.093506	0.086844	-2.1958	-2.7646	-2.0854	-2.8563	-2.7167	-2.275	-3.225	-2.3937	-2.4375	-3.0417	-2.3063	-2.8417	-2.9083	-2.2042	-3.0917	-2.4417	292.216	454.087	270.783	164.004	278.636	168.778	331.461	263.021	414.534	243.860	483.065	277.983	167.023	503.547	370.116	180.665	0.00030125	0.00039851	9.6741e-05	1002.1	2.2219e-06	3.6289e-06	1106.5	207.21	2.6247e-06	2.0357e-06	267.84	76.421	59.67	16.579	2.1967e-06	23.073	0.00032053	0.00032992	9.7049e-05	992.14	3.6126e-06	3.731e-06	1091	206.33	3.84e-06	3.6062e-06	266.66	76.514	59.496	16.873	3.5636e-06	23.693	177.795	236.152	247.820	157.040	261.547	327.559	157.152	164.823	284.052	342.481	164.276	170.794	170.663	179.164	291.991	178.170	-8191	255	
29087.727	1	1	0	0	0.20423	0.094913	0.11875	0.1196	0.04181	0.069307	0.18499	0.2305	0.16326	0.051268	0.083556	0.13058	0.042436	0.18907	0.1806	0.084834	-2.2208	-3.1625	-2.2292	-2.7896	-2.9042	-2.3833	-3.125	-2.5542	-2.2833	-3.0479	-2.3646	-2.6125	-2.7646	-2.1833	-3.0458	-2.7354	504.177	239.034	258.124	170.537	335.022	188.236	354.023	501.723	467.756	415.349	441.747	151.447	172.909	226.198	430.265	497.708	0.00031274	0.00025365	9.68e-05	1005.4	2.272e-06	4.9432e-06	1102.7	206.65	1.3306e-06	5.2975e-07	266.37	75.973	59.417	16.528	2.2908e-06	23.188	0.00032075	0.00032775	9.256e-05	991.54	3.5766e-06	3.8314e-06	1089.9	206.08	3.7377e-06	3.3698e-06	266.43	76.335	59.566	16.804	3.4543e-06	23.753	177.951	273.256	241.381	157.527	305.045	310.846	157.039	164.659	301.460	355.979	164.585	171.011	171.065	178.848	316.858	178.016	-8191	255	
29087.822	1	1	0	0	0.14259	0.11619	0.057656	0.093037	0.11743	0.11378	0.38601	0.38085	0.28783	0.14111	0.16753	0.16207	0.14517	0.43684	0.36845	0.068034	-1.8521	-2.9708	-2.2979	-2.6104	-2.6937	-2.2396	-3.0979	-2.9	-2.2812	-3.1	-2.4604	-2.4562	-2.9125	-2.3917	-2.9104	-2.6625	479.626	213.742	239.087	344.094	253.817	444.847	479.022	446.244	295.290	183.578	176.619	167.722	211.245	458.880	234.634	238.544	0.00031651	0.00018259	7.5819e-05	1005.2	2.4647e-06	4.3697e-06	1103.7	207.61	2.737e-06	3.0618e-06	267.27	76.472	59.054	16.667	2.7318e-06	23.382	0.00033491	0.000314	9.7082e-05	991.99	3.5718e-06	3.9344e-06	1091.6	206.55	3.6964e-06	3.648e-06	266.62	76.389	59.356	16.874	3.7173e-06	23.833	171.835	246.660	269.715	157.131	275.421	263.231	157.199	164.857	287.640	308.618	164.498	170.805	171.064	179.196	292.063	178.523	-8191	255	
29087.918	1	1	0	0	0.16184	0.060578	0.21221	0.18392	0.25448	0.21754	0.21232	0.21661	0.2482	0.23934	0.10618	0.17715	0.11729	0.17057	0.082063	0.073408	-1.7521	-3.0042	-2.2854	-2.4813	-3.1562	-2.2854	-2.9562	-2.8229	-2.1813	-3.1813	-2.5417	-2.3312	-3.0708	-2.3833	-2.5771	-2.9479	361.504	184.571	320.048	425.389	175.333	356.917	481.782	156.594	376.088	358.483	238.696	363.155	187.114	458.019	257.823	158.271	0.0003002	0.0002609	9.3262e-05	1008.1	2.7764e-06	5.0384e-06	1102.6	208.12	2.1047e-06	1.5707e-06	266.45	75.92	59.954	16.639	3.049e-06	23.311	0.00034159	0.00034085	9.2812e-05	994.8	3.642e-06	3.7071e-06	1092.6	206.76	3.6413e-06	3.3256e-06	266.27	76.465	59.57	16.828	3.3007e-06	23.83	168.489	245.290	246.871	157.582	274.743	267.133	157.502	164.766	279.763	329.190	164.755	171.162	171.203	179.352	295.070	178.720	-8191	255	
#DATA ENDS
