BOXY.EXE: ISS Imagent and Oximeter Data Acquisition Program Version 0.80
Ascii Record File

#ACQ INFORMATION
2  Detector Channels 
16  External MUX Channels 
1  Auxiliary Channels 
5000  Waveform (CCF) Frequency (Hz)
1  Waveforms Skipped 
30  Waveforms Averaged 
1  Cycles Averaged 
16  Acquisitions per Waveform 
10.0806  Updata Rate (Hz) 

#FILE INFORMATION
TRUE -- External MUX Channel results are PARSED.
FALSE -- AC DC and Phase are NOT grouped.
TRUE -- Companion Program Settings File CREATED.
FALSE -- AC data not excluded
FALSE -- DC data not excluded
FALSE -- Phase data not excluded
FALSE -- Auxillary Chn. data not excluded
Tab delimiters

#CALIBRATION STATE
TRUE -- Waveform Calibration Values APPLIED.


#AUX CALIBRATION VALUES
Val Type	aux-1	

Term	1.0000e+00	
Factor	0.0000e+00	


#WF CALIBRATION VALUES
A = Detector Channel
Val Type	A-AC1	A-AC2	A-AC3	A-AC4	A-AC5	A-AC6	A-AC7	A-AC8	A-AC9	A-AC10	A-AC11	A-AC12	A-AC13	A-AC14	A-AC15	A-AC16	A-DC1	A-DC2	A-DC3	A-DC4	A-DC5	A-DC6	A-DC7	A-DC8	A-DC9	A-DC10	A-DC11	A-DC12	A-DC13	A-DC14	A-DC15	A-DC16	A-Ph1	A-Ph2	A-Ph3	A-Ph4	A-Ph5	A-Ph6	A-Ph7	A-Ph8	A-Ph9	A-Ph10	A-Ph11	A-Ph12	A-Ph13	A-Ph14	A-Ph15	A-Ph16	

Term	0.00000e+00	0.00000e+00	0.00000e+00	0.00000e+00	0.00000e+00	0.00000e+00	0.00000e+00	0.00000e+00	0.00000e+00	0.00000e+00	0.00000e+00	0.00000e+00	0.00000e+00	0.00000e+00	0.00000e+00	0.00000e+00	0.00000e+00	0.00000e+00	0.00000e+00	0.00000e+00	0.00000e+00	0.00000e+00	0.00000e+00	0.00000e+00	0.00000e+00	0.00000e+00	0.00000e+00	0.00000e+00	0.00000e+00	0.00000e+00	0.00000e+00	0.00000e+00	0.00000e+00	0.00000e+00	0.00000e+00	0.00000e+00	0.00000e+00	0.00000e+00	0.00000e+00	0.00000e+00	0.00000e+00	0.00000e+00	0.00000e+00	0.00000e+00	0.00000e+00	0.00000e+00	0.00000e+00	0.00000e+00	
Factor	1.00000e+00	1.00000e+00	1.00000e+00	1.00000e+00	1.00000e+00	1.00000e+00	1.00000e+00	1.00000e+00	1.00000e+00	1.00000e+00	1.00000e+00	1.00000e+00	1.00000e+00	1.00000e+00	1.00000e+00	1.00000e+00	1.00000e+00	1.00000e+00	1.00000e+00	1.00000e+00	1.00000e+00	1.00000e+00	1.00000e+00	1.00000e+00	1.00000e+00	1.00000e+00	1.00000e+00	1.00000e+00	1.00000e+00	1.00000e+00	1.00000e+00	1.00000e+00	X	X	X	X	X	X	X	X	X	X	X	X	X	X	X	X	

B = Detector Channel
Val Type	B-AC1	B-AC2	B-AC3	B-AC4	B-AC5	B-AC6	B-AC7	B-AC8	B-AC9	B-AC10	B-AC11	B-AC12	B-AC13	B-AC14	B-AC15	B-AC16	B-DC1	B-DC2	B-DC3	B-DC4	B-DC5	B-DC6	B-DC7	B-DC8	B-DC9	B-DC10	B-DC11	B-DC12	B-DC13	B-DC14	B-DC15	B-DC16	B-Ph1	B-Ph2	B-Ph3	B-Ph4	B-Ph5	B-Ph6	B-Ph7	B-Ph8	B-Ph9	B-Ph10	B-Ph11	B-Ph12	B-Ph13	B-Ph14	B-Ph15	B-Ph16	

Term	0.00000e+00	0.00000e+00	0.00000e+00	0.00000e+00	0.00000e+00	0.00000e+00	0.00000e+00	0.00000e+00	0.00000e+00	0.00000e+00	0.00000e+00	0.00000e+00	0.00000e+00	0.00000e+00	0.00000e+00	0.00000e+00	0.00000e+00	0.00000e+00	0.00000e+00	0.00000e+00	0.00000e+00	0.00000e+00	0.00000e+00	0.00000e+00	0.00000e+00	0.00000e+00	0.00000e+00	0.00000e+00	0.00000e+00	0.00000e+00	0.00000e+00	0.00000e+00	-2.55034e+02	-1.42192e+02	-1.58171e+02	-1.83275e+02	-9.83914e+01	-9.52191e+01	-1.58166e+02	-1.62015e+02	-1.11076e+02	-8.25393e+01	-1.72759e+02	-1.71492e+02	-1.85060e+02	-1.78311e+02	-8.15946e+01	-1.51161e+02	
Factor	6.84074e-05	1.16036e-04	3.77825e-05	1.75057e-01	1.19124e-06	1.02847e-06	2.01126e-01	6.52604e-02	1.39494e-06	1.20521e-06	1.15205e-01	3.44855e-02	6.48392e-02	1.06986e-02	1.09788e-06	1.56755e-02	7.61801e-07	7.68646e-07	2.13154e-07	8.53154e-02	8.43469e-09	8.40861e-09	9.13502e-02	3.13959e-02	8.44513e-09	8.40387e-09	5.21703e-02	1.57552e-02	2.79534e-02	5.07005e-03	8.41014e-09	7.10043e-03	X	X	X	X	X	X	X	X	X	X	X	X	X	X	X	X	



#DISTANCE SETTINGS
A = Detector Channel
A-1	A-2	A-3	A-4	A-5	A-6	A-7	A-8	A-9	A-10	A-11	A-12	A-13	A-14	A-15	A-16	

2.5000e+00	3.0000e+00	2.5000e+00	3.0000e+00	2.0000e+00	3.0000e+00	1.5000e+00	3.0000e+00	3.0000e+00	3.0000e+00	3.0000e+00	3.0000e+00	3.0000e+00	3.0000e+00	1.5000e+00	3.0000e+00	

B = Detector Channel
B-1	B-2	B-3	B-4	B-5	B-6	B-7	B-8	B-9	B-10	B-11	B-12	B-13	B-14	B-15	B-16	

1.0000e+01	1.0000e+01	1.0000e+01	1.4400e+00	1.0000e+01	1.0000e+01	1.5100e+00	1.9400e+00	1.0000e+01	1.0000e+01	1.9900e+00	2.4900e+00	2.4100e+00	2.9000e+00	1.0000e+01	2.9800e+00	




#DATA BEGINS
time	group	step	mark	flag	A-AC1	A-AC2	A-AC3	A-AC4	A-AC5	A-AC6	A-AC7	A-AC8	A-AC9	A-AC10	A-AC11	A-AC12	A-AC13	A-AC14	A-AC15	A-AC16	A-DC1	A-DC2	A-DC3	A-DC4	A-DC5	A-DC6	A-DC7	A-DC8	A-DC9	A-DC10	A-DC11	A-DC12	A-DC13	A-DC14	A-DC15	A-DC16	A-Ph1	A-Ph2	A-Ph3	A-Ph4	A-Ph5	A-Ph6	A-Ph7	A-Ph8	A-Ph9	A-Ph10	A-Ph11	A-Ph12	A-Ph13	A-Ph14	A-Ph15	A-Ph16	B-AC1	B-AC2	B-AC3	B-AC4	B-AC5	B-AC6	B-AC7	B-AC8	B-AC9	B-AC10	B-AC11	B-AC12	B-AC13	B-AC14	B-AC15	B-AC16	B-DC1	B-DC2	B-DC3	B-DC4	B-DC5	B-DC6	B-DC7	B-DC8	B-DC9	B-DC10	B-DC11	B-DC12	B-DC13	B-DC14	B-DC15	B-DC16	B-Ph1	B-Ph2	B-Ph3	B-Ph4	B-Ph5	B-Ph6	B-Ph7	B-Ph8	B-Ph9	B-Ph10	B-Ph11	B-Ph12	B-Ph13	B-Ph14	B-Ph15	B-Ph16	aux-1	digaux	

1223.201	1	1	0	768	0.257	0.054474	0.16407	0.077437	0.18469	0.054012	0.061567	0.32463	0.098852	0.061919	0.22604	0.18653	0.095876	0.09757	0.1726	0.025026	-1.9083	-2.6771	-2.0354	-2.7646	-2.6083	-1.7979	-2.9958	-2.2521	-2.1562	-3	-2.1229	-2.6042	-2.7438	-2.1896	-2.7729	-2.1875	118.945	84.616	23.878	146.048	23.826	118.279	181.984	96.900	3.890	-169.469	151.146	-82.291	68.673	10.093	123.013	16.927	0.00065055	0.00052315	6.3687e-05	1045.1	2.3455e-06	1.5453e-06	1138	216.87	4.6549e-06	1.8757e-06	272.27	78.312	61.294	17.819	1.5491e-06	24.694	0.00023107	0.00022331	6.5797e-05	1015.9	2.6157e-06	2.3534e-06	1101.8	213.47	2.472e-06	2.3914e-06	264.62	76.995	59.752	17.982	2.6185e-06	25.089	97.235	-37.572	-127.903	-161.058	-76.429	-109.109	-160.918	-153.316	-54.195	-128.425	-153.530	-147.223	-147.290	-139.162	-153.341	-140.233	-8191	255	
1223.295	1	1	0	0	0.064456	0.2112	0.12947	0.23055	0.10858	0.21207	0.16672	0.17343	0.10937	0.12731	0.20639	0.20227	0.14791	0.28008	0.10212	0.072507	-1.6458	-2.6437	-2.0146	-2.3396	-2.5479	-1.8396	-3.0229	-2.4938	-2.0146	-3.0938	-2.1917	-2.1958	-2.7896	-1.9646	-2.7708	-2.3167	166.562	-101.269	-134.429	152.674	-84.561	89.351	176.127	-149.125	-28.019	30.288	70.200	-71.308	-91.936	-44.252	-65.164	-74.709	0.00058658	6.5378e-05	4.628e-05	1048.6	4.8065e-06	1.8651e-06	1137.7	217.1	8.763e-07	3.465e-06	271.74	78.285	61.644	17.921	1.792e-06	24.738	0.0002161	0.00020962	6.5065e-05	1016.4	2.3523e-06	2.1383e-06	1102.2	211.96	2.2119e-06	2.1783e-06	263.54	76.437	58.795	17.928	2.4489e-06	24.873	79.731	-7.698	-108.899	-160.499	-45.254	31.855	-160.512	-153.113	-43.802	-66.873	-153.137	-146.861	-146.700	-139.265	-104.730	-140.506	-8191	255	
1223.391	1	1	0	0	0.13384	0.12818	0.25083	0.090981	0.15436	0.32297	0.14874	0.3114	0.18789	0.15433	0.21608	0.17065	0.20645	0.35504	0.21171	0.098951	-1.5562	-2.7	-2.075	-2.4333	-2.7625	-1.8417	-2.7292	-2.6813	-2.0229	-2.7896	-2.1833	-2.2396	-2.9042	-1.8104	-2.6625	-2.7708	118.334	-104.258	-70.686	-1.974	-130.101	132.138	22.180	118.611	-119.203	139.526	-162.700	139.011	96.095	-168.666	80.055	42.564	0.00058791	0.00026761	5.9491e-05	1047.3	4.9283e-06	2.4984e-06	1142.6	216.83	2.3645e-06	5.1915e-06	272.38	78.571	61.782	17.826	3.5025e-06	24.922	0.00019461	0.00019841	6.2333e-05	1013.3	2.1828e-06	2.1724e-06	1102.5	211.57	2.0759e-06	2.2389e-06	263.61	76.369	58.55	17.97	2.3836e-06	24.789	76.259	175.011	-110.704	-160.440	-25.062	-90.444	-160.466	-153.094	-22.337	-62.813	-153.294	-147.210	-147.085	-139.235	-26.655	-139.425	-8191	255	
1223.487	1	1	0	0	0.038159	0.17874	0.20156	0.1919	0.076509	0.19709	0.33525	0.13531	0.097426	0.10288	0.053561	0.12502	0.082055	0.16801	0.13409	0.17218	-1.7563	-2.8979	-2.2854	-2.1312	-2.8208	-2.1562	-2.5771	-2.6208	-1.8771	-2.7938	-2.4354	-2.1437	-2.8104	-1.9	-2.5208	-2.7292	-100.764	137.416	86.553	73.430	25.622	169.241	93.196	69.049	-62.996	-15.228	157.916	-0.375	-9.787	-124.800	-121.747	41.309	0.00069188	0.00061346	0.0001153	1041.1	3.1684e-06	2.7435e-06	1137.2	218.34	5.2562e-06	5.6625e-06	273.86	78.157	61.071	17.825	4.7166e-06	24.783	0.00019222	0.00021156	6.2256e-05	1010.6	2.1602e-06	2.371e-06	1100.4	212.27	2.209e-06	2.5357e-06	265.43	76.638	59.44	18.242	2.6405e-06	25.013	68.800	143.169	-86.646	-160.987	-68.448	-57.547	-160.802	-153.320	-74.910	178.382	-153.376	-147.244	-147.405	-139.511	-11.155	-139.989	-8191	255	
1223.583	1	1	0	0	0.20784	0.049443	0.17846	0.17013	0.23735	0.11217	0.15052	0.36759	0.17436	0.29559	0.24996	0.11723	0.23863	0.13024	0.31465	0.2161	-1.6375	-2.7792	-2.1729	-2.3229	-2.8646	-2.0167	-2.425	-2.7021	-1.8292	-2.65	-2.45	-1.875	-2.7604	-2.2104	-2.2271	-2.8458	-158.428	75.068	91.353	175.154	-51.667	11.102	29.609	-149.071	166.053	144.271	61.473	-49.230	27.398	-153.539	102.599	125.174	0.00050901	0.00024429	8.2334e-05	1045.6	5.3218e-06	1.0736e-06	1140.2	217.09	2.2421e-06	1.7001e-06	275.05	78.441	61.112	17.884	3.4663e-06	24.615	0.0002195	0.00025018	6.8553e-05	1014.7	2.458e-06	2.8005e-06	1103.8	213.11	2.4691e-06	2.8201e-06	266.44	76.921	60.134	18.399	2.5623e-06	25.041	41.122	166.329	105.224	-160.743	-50.800	34.041	-160.869	-153.297	-80.016	-135.365	-153.761	-147.416	-147.701	-139.382	-11.657	-139.943	-8191	255	
1223.680	1	1	0	0	0.18686	0.17856	0.17478	0.32522	0.022971	0.19975	0.27753	0.092429	0.18337	0.45143	0.36256	0.095719	0.27976	0.068099	0.12086	0.23523	-1.7521	-2.6396	-2.2396	-2.0021	-2.8	-2.2271	-2.2229	-2.8521	-1.8937	-2.5833	-2.3771	-2.1104	-2.7646	-2.0646	-2.2771	-2.8	8.189	-69.174	72.525	113.011	-14.588	-15.064	94.624	115.076	67.121	133.598	-7.485	138.322	-47.013	-42.112	-1.402	-8.658	0.0009628	0.00022581	0.00012667	1054.3	1.9895e-06	2.5325e-06	1146	219.2	2.9337e-06	6.2537e-06	274	78.513	61.72	17.981	1.0067e-06	24.907	0.0002339	0.00025869	6.6972e-05	1017.7	2.6142e-06	2.8555e-06	1106.4	213.81	2.6279e-06	2.8121e-06	266.37	77.012	60.84	18.37	2.5167e-06	25.03	66.759	-58.860	-76.841	-160.460	-62.443	-78.235	-161.139	-153.708	-138.663	-69.092	-153.622	-146.931	-147.087	-139.405	-89.463	-140.677	-8191	255	
1223.800	1	1	0	0	0.12192	0.24139	0.23821	0.40128	0.071304	0.15785	0.20125	0.074539	0.17111	0.082825	0.15695	0.071887	0.10716	0.2375	0.3982	0.28398	-1.4958	-2.3854	-2.675	-2.0604	-2.8	-2.3583	-2.2083	-2.925	-1.9521	-2.6896	-2.8667	-1.9229	-2.9521	-2.3104	-2.0771	-2.7958	122.705	-86.720	-86.223	156.429	-150.712	183.558	-133.184	186.466	68.146	118.612	174.808	84.321	142.000	171.661	-27.601	11.355	0.00077414	0.00024144	0.0001717	1051.6	3.0939e-06	4.9414e-06	1148.8	220.08	6.9957e-06	2.1136e-06	273.14	78.366	62.208	17.911	1.9968e-06	24.787	0.00024818	0.00024764	6.4006e-05	1020.2	2.6593e-06	2.7001e-06	1108.2	213.93	2.7132e-06	2.635e-06	266.24	76.97	61.097	18.27	2.4295e-06	25.014	72.080	-78.655	-111.226	-160.649	-127.955	-74.657	-160.783	-153.308	-110.972	-49.560	-153.647	-147.151	-147.892	-139.752	-14.772	-140.116	-8191	255	
1223.896	1	1	0	0	0.19723	0.033218	0.038418	0.20925	0.22495	0.087752	0.14795	0.41324	0.26455	0.13644	0.29313	0.15063	0.099469	0.084955	0.088653	0.13649	-1.8104	-2.4	-2.8354	-2.2562	-2.7292	-2.4271	-2.1646	-2.925	-1.9854	-2.4729	-2.75	-1.9958	-2.7167	-2.3937	-1.8396	-2.8896	150.325	-12.941	-141.352	173.142	8.878	-147.737	-168.339	76.822	60.584	83.608	-92.824	39.133	-144.626	-29.211	142.175	-138.295	0.00088687	0.00015836	5.292e-05	1056.1	1.3679e-06	4.3779e-06	1146.6	219.04	7.5018e-06	5.1612e-06	275.24	78.498	62.325	17.846	2.2184e-06	24.961	0.000259	0.00024029	6.3802e-05	1023.6	2.8193e-06	2.6299e-06	1107.7	214.23	2.7739e-06	2.4541e-06	266.07	77.125	61.025	18.15	2.2857e-06	25.075	66.450	130.053	-85.560	-160.664	184.365	60.034	-160.630	-153.257	-152.752	-31.097	-153.241	-147.185	-147.421	-139.538	-94.162	-140.144	-8191	255	
1223.992	1	1	0	0	0.24077	0.097318	0.33231	0.30957	0.1243	0.063554	0.18553	0.02386	0.14185	0.31758	0.1147	0.11584	0.24063	0.015851	0.10027	0.15376	-1.7292	-2.2396	-2.6937	-1.9958	-2.5979	-2.3896	-2.3021	-2.8625	-2.2438	-2.0812	-2.8667	-1.9042	-2.6479	-2.6292	-1.8083	-3.0042	66.718	-160.385	25.096	107.080	-10.472	-98.212	-142.491	136.219	63.644	184.270	-58.411	-166.759	18.190	-76.209	-86.607	-150.434	0.00060651	0.00043816	0.00013828	1059.3	5.8495e-06	2.4986e-06	1147.9	219.45	3.9041e-06	2.5891e-06	274.77	78.285	61.949	17.719	3.8111e-07	24.739	0.00025013	0.00022108	5.9199e-05	1027.2	2.6423e-06	2.4167e-06	1109.7	214.56	2.6281e-06	2.3059e-06	264.81	77.126	60.128	17.898	2.162e-06	24.974	79.141	-65.068	-77.365	-160.775	-125.024	-146.730	-160.665	-153.071	144.260	-80.726	-153.375	-147.318	-146.706	-139.172	29.227	-140.020	-8191	255	
1224.089	1	1	0	0	0.035508	0.11294	0.1338	0.31167	0.092697	0.020058	0.053762	0.21378	0.21188	0.12878	0.12446	0.13586	0.2817	0.3625	0.27928	0.078228	-1.7188	-2.1167	-2.7229	-2.1292	-2.5354	-2.8125	-1.9729	-2.725	-2.3312	-1.8563	-2.9333	-2.0604	-2.3271	-2.7125	-1.8563	-2.7604	168.418	114.774	17.683	128.452	165.596	-93.277	-111.536	145.817	55.286	-96.908	-132.873	115.644	53.937	115.591	63.456	40.316	0.00041088	0.00051384	4.4317e-05	1046	2.661e-06	3.3655e-06	1142.5	219.01	6.9894e-06	5.4145e-06	272.97	77.312	61.969	17.562	1.8789e-06	24.598	0.00023637	0.00020879	5.723e-05	1018.9	2.503e-06	2.3586e-06	1100.6	213.98	2.5501e-06	2.2267e-06	263.53	76.598	59.265	17.717	2.1818e-06	24.83	105.836	-57.257	130.356	-160.355	-47.026	-69.985	-160.672	-153.526	-91.740	-21.116	-153.188	-147.011	-146.841	-139.209	-68.649	-139.945	-8191	255	
1224.185	1	1	0	0	0.26367	0.06259	0.1462	0.13256	0.089886	0.22146	0.27259	0.15909	0.39947	0.30048	0.098681	0.25372	0.02961	0.11225	0.045926	0.13118	-1.9958	-1.975	-2.7271	-2.2583	-2.2729	-2.8854	-2.0521	-2.6021	-2.5312	-2.0917	-2.8271	-2.1562	-2.3146	-2.8271	-1.9542	-2.6104	89.053	115.463	116.816	99.143	36.793	143.654	44.924	25.165	113.709	105.367	64.007	-170.682	100.486	-121.865	31.979	-79.884	0.00074968	0.00017206	0.0001728	1045.5	3.5294e-06	2.3056e-06	1142	218.66	2.3046e-06	2.1411e-06	272.82	77.978	61.485	17.589	6.8797e-06	24.6	0.00022469	0.0001991	5.7822e-05	1016.3	2.3594e-06	2.2991e-06	1100.6	213.05	2.4727e-06	2.2204e-06	264.59	76.8	59.219	17.716	2.4311e-06	24.887	70.988	-70.269	-95.200	-160.508	-142.723	-77.881	-160.492	-152.863	-92.937	-53.087	-152.801	-146.803	-147.221	-139.381	171.943	-140.278	-8191	255	
1224.281	1	1	0	0	0.19722	0.30199	0.07075	0.18296	0.1574	0.17951	0.1566	0.143	0.12635	0.20034	0.20778	0.074522	0.028836	0.55959	0.16871	0.096629	-2.2375	-1.9	-2.8396	-2.2354	-2.2146	-2.9646	-2.1958	-2.6021	-2.5958	-1.7812	-2.8292	-2.2979	-2.0729	-2.8667	-2.1	-2.6625	-5.216	57.727	-40.849	-155.502	35.471	-110.371	60.550	-4.080	-63.498	-80.006	177.715	-51.870	97.429	-125.236	166.437	-104.514	0.00076745	0.0003597	4.8293e-05	1045.8	1.9879e-06	5.8582e-06	1137.3	217.18	7.5079e-06	3.143e-06	271.59	77.457	61.777	17.617	4.4238e-06	24.457	0.00022566	0.0002017	6.3122e-05	1016.8	2.3206e-06	2.2326e-06	1100.5	212.26	2.3949e-06	2.1455e-06	264.4	76.401	58.632	17.644	2.5102e-06	24.643	79.002	-93.931	14.394	-160.445	-42.218	-22.164	-160.547	-153.363	-109.718	185.750	-152.950	-147.027	-146.968	-138.922	170.958	-139.096	-8191	255	
1224.400	1	1	0	0	0.10751	0.24132	0.058823	0.30778	0.11612	0.22082	0.30418	0.15597	0.19142	0.1307	0.13105	0.089087	0.10391	0.067901	0.29242	0.12367	-2.2958	-1.7771	-2.6146	-2.4958	-2.0396	-2.9896	-2.1917	-2.4437	-2.8083	-1.8396	-3.0292	-2.5167	-2.1042	-3.0479	-2.0042	-2.2583	69.355	-159.014	-50.273	120.599	-82.324	-102.812	171.128	116.883	136.169	32.708	99.291	-139.746	152.659	74.499	-14.936	138.547	0.00072812	0.00020894	1.0905e-05	1044.6	5.5199e-06	2.5142e-06	1133.3	216.01	6.0703e-06	2.2354e-06	271.25	77.632	60.364	17.536	1.7822e-06	24.409	0.00021215	0.00019214	6.2214e-05	1012.8	2.1482e-06	2.1486e-06	1098.1	210.76	2.2182e-06	2.0842e-06	263.14	75.923	57.912	17.552	2.446e-06	24.432	79.555	-113.456	-76.632	-160.563	-80.349	-149.759	-160.717	-153.372	-35.266	-70.225	-153.463	-146.819	-147.076	-139.163	88.172	-139.346	-8191	255	
1224.496	1	1	0	0	0.24049	0.18657	0.21925	0.097741	0.3011	0.12246	0.060661	0.033786	0.086427	0.12722	0.062032	0.19249	0.18229	0.28133	0.17567	0.076272	-2.3812	-1.9708	-2.7292	-2.4188	-1.8917	-2.7812	-2.4188	-2.4479	-2.8	-2.0563	-2.6042	-2.45	-1.8646	-2.7208	-2.2542	-2.0896	78.928	-19.719	4.541	-114.789	185.980	-6.754	-68.910	-70.256	-108.842	-133.241	140.268	77.402	171.682	167.058	-154.448	22.557	0.000919	0.00013287	9.1858e-05	1040.4	2.5711e-06	2.2957e-06	1129	215.84	2.9536e-06	4.2778e-06	271.32	76.904	60.766	17.496	5.8528e-06	24.498	0.00020443	0.0001964	6.2053e-05	1009.1	2.1004e-06	2.2755e-06	1097.5	210.2	2.1781e-06	2.2625e-06	263.04	75.715	57.895	17.7	2.5447e-06	24.379	70.737	-118.165	-137.460	-160.686	-64.297	-65.632	-160.646	-153.458	3.466	-148.888	-153.510	-147.099	-146.568	-139.490	-20.737	-139.357	-8191	255	
1224.592	1	1	0	0	0.18857	0.21134	0.14669	0.10691	0.084187	0.22827	0.1634	0.072591	0.078262	0.20861	0.13784	0.28739	0.26441	0.30501	0.11013	0.18851	-2.45	-1.9292	-2.4562	-2.7188	-2.0625	-2.8	-2.4625	-2.0583	-2.9229	-2.0354	-2.5229	-2.6625	-1.9625	-2.8854	-2.4583	-2.0146	-156.163	-160.233	65.306	-15.657	-124.708	182.186	163.340	179.475	-77.799	119.366	76.991	39.878	-140.850	-59.404	-31.899	26.885	0.00056826	0.0004336	9.4491e-05	1044.8	3.0261e-06	3.4285e-06	1135.2	216.31	5.6662e-06	4.2112e-06	273.54	76.831	61.726	17.498	8.234e-07	24.359	0.0002078	0.00022118	6.3589e-05	1010.7	2.2121e-06	2.5393e-06	1099.9	210.94	2.3181e-06	2.5712e-06	264.01	75.807	58.783	17.863	2.5144e-06	24.474	85.559	185.481	-82.735	-160.612	-82.489	123.803	-160.636	-152.763	-125.368	-105.904	-153.093	-146.888	-147.544	-139.026	141.544	-140.117	-8191	255	
1224.688	1	1	0	0	0.18202	0.13884	0.22856	0.091345	0.24353	0.066072	0.21142	0.25715	0.095542	0.17409	0.23408	0.22056	0.066188	0.17914	0.16453	0.25412	-2.3479	-1.7979	-2.4292	-2.7958	-1.9479	-2.8937	-2.4813	-2	-2.8792	-2.2062	-2.2271	-2.9229	-1.8708	-2.8646	-2.5417	-2.3167	102.864	5.752	-11.435	170.169	29.418	44.002	64.147	-164.166	-45.142	-40.362	178.176	112.614	-71.925	140.694	31.689	147.782	0.00061588	0.00027156	9.7521e-05	1043.6	5.7303e-07	1.2692e-06	1136.1	216.2	4.3466e-06	5.4216e-06	271.69	77.256	60.477	17.669	1.2378e-06	24.293	0.00021264	0.00023511	6.1034e-05	1010.8	2.2308e-06	2.5844e-06	1098.9	210.46	2.3383e-06	2.6321e-06	262.83	75.633	58.761	17.916	2.4638e-06	24.357	85.524	25.455	-65.946	-160.870	-51.238	38.014	-160.256	-152.768	-54.642	-153.724	-153.128	-146.724	-147.422	-138.989	19.768	-139.681	-8191	255	
1224.762	1	1	0	0	0.051698	0.09706	0.14746	0.20744	0.077624	0.28745	0.1457	0.0031165	0.085492	0.30783	0.063949	0.047162	0.26274	0.16666	0.19815	0.31602	-2.3646	-2.0667	-2.2687	-3	-1.9062	-2.5125	-2.7146	-2.0417	-2.8604	-2.1208	-2.1021	-2.9625	-2.0312	-2.4708	-2.5	-1.8	91.747	-38.849	188.520	166.861	-159.640	-4.632	86.020	104.145	25.189	63.539	102.800	-127.728	-134.595	168.988	111.924	184.358	0.00068669	0.00061657	0.00013145	1045.6	2.3663e-06	6.2553e-06	1134.2	215.99	4.3613e-07	3.2938e-06	271.88	77.035	61.257	17.612	2.7753e-06	24.401	0.00022367	0.00024774	6.0933e-05	1013.7	2.4546e-06	2.6382e-06	1099.5	210.55	2.5108e-06	2.6481e-06	262.31	75.577	59.298	17.843	2.3835e-06	24.314	71.410	-106.935	186.826	-160.315	-73.179	-90.620	-160.665	-153.104	155.767	80.094	-153.607	-146.800	-146.976	-139.091	23.852	-139.340	-8191	255	
1224.881	1	1	0	0	0.1968	0.22672	0.23885	0.19596	0.12276	0.1589	0.31027	0.10469	0.12942	0.16191	0.32999	0.12769	0.14176	0.13524	0.12408	0.059338	-2.4771	-2.1146	-1.9958	-3.05	-1.9958	-2.5208	-2.8479	-1.95	-2.775	-2.4354	-1.9833	-2.7604	-2.1125	-2.2896	-2.8375	-1.9625	175.273	-153.736	4.325	104.662	37.043	100.173	180.505	55.057	139.536	-68.543	181.049	156.955	16.651	-150.897	-64.176	31.256	0.00066167	0.00028007	0.00010837	1046.7	1.1162e-06	2.7935e-06	1133.8	215.85	6.3014e-06	4.5997e-06	271.14	77.301	60.503	17.57	2.7036e-06	24.569	0.00023449	0.00023759	5.8521e-05	1012.3	2.6033e-06	2.5463e-06	1098.3	210.76	2.6709e-06	2.6231e-06	262.53	76.043	59.999	17.862	2.5291e-06	24.531	57.226	-45.335	-52.860	-160.276	171.279	-58.775	-160.531	-152.811	-107.784	-35.756	-152.918	-146.615	-147.178	-138.792	-22.156	-140.084	-8191	255	
1224.977	1	1	0	0	0.1544	0.068525	0.26782	0.1802	0.04961	0.039257	0.2145	0.26439	0.096926	0.12522	0.12451	0.14306	0.21259	0.33329	0.3537	0.097897	-2.2708	-2.3688	-1.9667	-3.0583	-2.0479	-2.3937	-2.8208	-1.9875	-2.7854	-2.6104	-2.1604	-2.9562	-2.0833	-2.4604	-2.9813	-2.0958	129.917	-141.911	28.303	181.286	-148.836	144.186	-12.481	134.648	-86.149	-3.196	-77.535	133.014	120.767	-63.665	-63.841	14.707	0.00046839	0.00010476	4.2185e-05	1048	1.3838e-06	4.2974e-06	1139.7	216.4	1.5076e-06	3.1742e-06	270.32	77.394	61.366	17.562	1.9087e-06	24.507	0.00026346	0.00024975	6.3097e-05	1017.1	2.9798e-06	2.6942e-06	1105.7	212.29	3.0455e-06	2.8645e-06	264.53	76.934	61.725	18.02	2.7924e-06	25.107	48.540	43.677	-11.097	-160.558	-114.970	-16.710	-160.364	-153.217	-154.634	-12.253	-153.052	-146.637	-147.068	-139.282	-34.365	-139.177	-8191	255	
1225.073	1	1	0	0	0.1043	0.091571	0.26886	0.19383	0.097754	0.081531	0.36623	0.18643	0.25875	0.26549	0.3679	0.11354	0.40923	0.24581	0.21529	0.18682	-2.2625	-2.5292	-1.9646	-3.0354	-2.2229	-2.1437	-2.7958	-1.9208	-2.5042	-2.6625	-2.1	-2.775	-2.2021	-2.1188	-2.9896	-2.1375	-64.921	34.911	-4.380	146.704	46.054	-57.389	95.521	106.265	175.819	179.030	116.124	168.146	1.542	176.983	172.443	-135.584	0.00038303	0.00051343	7.4984e-05	1058.7	3.5563e-06	1.2815e-06	1144.5	217.75	3.1019e-06	2.9823e-06	272.84	78.036	61.905	17.771	3.6301e-06	24.687	0.0002988	0.00027893	7.1177e-05	1031.2	3.3917e-06	3.0275e-06	1115.9	215.89	3.3662e-06	3.1526e-06	267.47	78.451	62.749	18.273	2.9128e-06	25.45	90.869	-49.891	25.900	-160.160	78.722	-11.475	-160.299	-153.017	127.686	-123.983	-153.013	-146.846	-145.923	-138.994	-165.575	-139.626	-8191	255	
1225.169	1	1	0	0	0.20525	0.1817	0.26978	0.19014	0.18737	0.1493	0.21146	0.49636	0.082521	0.14723	0.25858	0.36251	0.19727	0.23067	0.20269	0.08819	-2.1333	-2.7687	-2.0375	-2.8271	-2.2354	-2.1125	-3.0271	-2.0104	-2.2062	-2.6583	-1.9854	-2.7188	-2.3396	-2.0563	-2.8771	-2.1937	-120.771	133.329	98.380	47.250	33.029	127.799	98.349	126.863	78.994	19.392	107.041	88.649	-153.201	-34.947	-131.446	38.801	0.00070959	0.00014422	0.00015341	1056.6	6.5695e-06	8.0626e-06	1152.4	218.1	2.9859e-06	4.9341e-06	275.11	78.275	61.549	17.674	2.5744e-06	24.574	0.00029169	0.00027588	7.0685e-05	1035.9	3.2103e-06	2.8625e-06	1118.9	216.48	3.0749e-06	2.912e-06	267.91	78.288	61.952	18.129	2.8467e-06	25.45	69.587	-4.156	-151.288	-160.299	-59.696	57.593	-160.292	-152.791	-26.665	-58.451	-153.443	-146.940	-147.037	-139.131	120.179	-139.720	-8191	255	
1225.288	1	1	0	0	0.26567	0.2914	0.20308	0.19334	0.22652	0.26606	0.1806	0.23698	0.23078	0.028256	0.13254	0.10187	0.20647	0.10784	0.20072	0.059361	-1.7896	-2.8417	-1.7417	-2.8667	-2.4729	-2.1312	-3.0042	-2.1646	-2.2	-2.8104	-2.0354	-2.4583	-2.7708	-1.8521	-2.6833	-2.1937	-153.904	49.469	-44.019	149.696	57.871	-13.957	78.515	162.128	156.001	40.108	-114.802	-126.557	-77.612	34.508	-17.490	35.414	0.00090066	0.00052622	0.00017781	1061.3	2.3235e-06	3.8744e-06	1155.8	218.82	4.6912e-06	3.1214e-06	275.51	77.793	61.855	17.682	1.6858e-06	24.632	0.00027254	0.00025658	7.1783e-05	1036.7	3.003e-06	2.685e-06	1123.1	216.73	2.8529e-06	2.7882e-06	269.16	78.158	61.55	18.001	2.9715e-06	25.378	75.452	-85.909	4.334	-160.267	-131.216	-85.131	-160.288	-152.983	-111.727	-64.489	-152.964	-146.415	-146.573	-138.544	179.530	-139.547	-8191	255	
1225.361	1	1	0	0	0.033793	0.12094	0.27084	0.016268	0.10344	0.13691	0.1559	0.22015	0.18452	0.26964	0.27427	0.16895	0.19234	0.17477	0.24045	0.24737	-1.8479	-2.8729	-2.0667	-2.6937	-2.5563	-2.0771	-2.9875	-2.3854	-2.3458	-2.7792	-2.2271	-2.5062	-2.7042	-2.0938	-2.7979	-2.5208	170.881	-53.380	174.452	118.363	-83.270	30.249	182.226	86.625	111.277	-158.217	129.681	39.281	-96.212	101.949	-82.208	177.775	0.0007298	0.00030147	0.0001338	1059.4	1.4695e-06	3.8034e-06	1148.1	218.47	2.8426e-06	5.8786e-06	275.04	78.501	62.243	17.863	2.9793e-06	24.491	0.00025726	0.00024848	7.6002e-05	1036.6	2.9227e-06	2.64e-06	1121.6	216.44	2.8458e-06	2.8017e-06	270.38	78.349	61.613	18.149	3.2509e-06	25.418	83.725	-163.644	169.460	-160.094	-96.714	174.254	-160.045	-152.748	-11.167	87.278	-153.152	-146.480	-147.818	-139.025	-18.265	-139.829	-8191	255	
1225.482	1	1	0	0	0.21936	0.23211	0.18175	0.3123	0.090467	0.26356	0.24127	0.11954	0.063421	0.15727	0.19347	0.14369	0.17054	0.279	0.16607	0.21253	-1.6896	-2.9625	-2.0542	-2.6813	-2.6188	-1.9562	-3.0563	-2.4354	-2.0167	-3.0167	-2.1312	-2.6354	-2.6521	-1.9021	-2.5667	-2.4292	-136.367	37.744	-164.548	98.319	-72.126	88.802	125.253	-47.916	177.544	-34.616	70.101	148.885	-2.344	164.425	-11.823	70.773	0.00053668	0.00020351	0.00012284	1062	4.7204e-06	2.929e-06	1155.3	218	4.1562e-06	6.9432e-06	274.59	78.5	62.882	17.69	8.4025e-07	24.573	0.00026355	0.00026153	8.1977e-05	1037.3	2.9446e-06	2.7942e-06	1124.7	216.58	2.8575e-06	2.9612e-06	272.2	78.268	62.14	18.321	3.4322e-06	25.449	61.251	150.543	-92.445	-160.315	-0.633	164.942	-160.528	-153.102	184.805	-103.729	-152.881	-146.427	-147.130	-139.279	-28.924	-139.905	-8191	255	
1225.576	1	1	0	0	0.16486	0.087079	0.042136	0.16566	0.068853	0.21259	0.055283	0.093684	0.25488	0.10812	0.046772	0.1644	0.20839	0.30429	0.046803	0.089855	-1.5938	-2.8604	-1.9667	-2.3354	-2.8083	-2.0271	-2.9083	-2.5833	-2.1854	-2.8646	-2.2229	-2.3896	-2.7792	-1.9688	-2.5604	-2.6521	3.205	-98.879	98.551	95.975	-134.891	-119.195	-36.197	-159.986	-104.226	70.712	2.876	-114.577	-117.711	187.924	48.657	100.223	0.00058432	0.00054602	0.00021677	1063.8	1.4194e-06	4.3008e-06	1156	219.46	1.0742e-06	2.2766e-06	274.82	77.795	61.925	17.644	6.7638e-06	24.591	0.00026855	0.00028372	8.7277e-05	1036.3	2.9488e-06	3.0598e-06	1128.1	216.7	2.7764e-06	3.0943e-06	271.36	77.796	61.426	18.329	3.1814e-06	25.25	74.741	-164.849	-42.859	-160.701	105.045	-81.997	-160.242	-153.021	37.066	-117.676	-153.518	-146.710	-146.317	-139.190	-17.830	-140.060	-8191	255	
1225.672	1	1	0	0	0.17197	0.097648	0.21344	0.33675	0.14031	0.10313	0.1764	0.31722	0.057887	0.050076	0.14497	0.27635	0.30647	0.36835	0.092198	0.35428	-1.5833	-2.6792	-2.4167	-2.2667	-2.7229	-1.9813	-2.5438	-2.5729	-1.9958	-2.8292	-2.3896	-2.1104	-2.9062	-2.1562	-2.5021	-2.7146	-154.529	-71.099	165.326	167.374	53.846	-59.675	-154.958	152.213	72.815	183.749	-169.537	55.179	112.544	187.680	-57.100	148.436	0.00071781	0.00025717	0.00016303	1064	2.5822e-06	4.3429e-07	1151.1	219.5	3.7894e-06	3.7028e-06	277.08	77.433	61.423	17.744	6.0174e-06	24.516	0.00025387	0.0002849	8.1235e-05	1035.8	2.8131e-06	3.0509e-06	1123	216.1	2.6626e-06	3.0697e-06	271.21	77.332	60.911	18.346	2.9693e-06	25.112	70.667	123.994	-63.306	-160.283	-37.234	111.633	-160.353	-152.967	-109.780	-47.056	-153.258	-146.611	-147.308	-139.190	-72.752	-139.696	-8191	255	
1225.769	1	1	0	0	0.32982	0.05081	0.075738	0.2052	0.14135	0.098029	0.21034	0.25436	0.11427	0.046735	0.095655	0.17754	0.2776	0.010714	0.20555	0.080585	-1.6562	-2.8917	-2.4979	-2.3042	-2.7979	-2.1896	-2.5479	-2.7812	-1.9771	-2.7687	-2.675	-2.1271	-2.6854	-2.1063	-2.2062	-2.8583	-112.845	45.297	-123.615	-135.323	-10.548	104.417	-113.663	-167.849	-76.959	63.145	-41.350	141.591	-27.406	-79.516	-32.498	87.370	0.00055693	0.0004837	0.00021244	1055.6	2.317e-06	4.8441e-06	1148.1	216.79	5.1866e-06	2.1768e-06	272.72	77.646	61.831	17.691	6.228e-06	24.576	0.00025248	0.00028773	7.7402e-05	1032.7	2.8753e-06	3.2533e-06	1122.2	215.48	2.8763e-06	3.277e-06	269.91	77.381	61.819	18.457	2.97e-06	25.118	40.329	-138.351	-90.538	-160.371	69.420	-100.981	-160.548	-153.059	-142.372	102.060	-153.378	-146.145	-147.015	-139.316	20.006	-139.535	-8191	255	
1225.889	1	1	0	0	0.22631	0.27491	0.14272	0.15609	0.10185	0.31685	0.12848	0.34977	0.28605	0.17632	0.206	0.094976	0.26173	0.10631	0.14014	0.20047	-1.6833	-2.7625	-2.5292	-2.0458	-2.6146	-2.4021	-2.3812	-3.0417	-1.8729	-2.5438	-2.6896	-1.9646	-2.8333	-2.1792	-2.0146	-2.8271	19.732	-149.690	151.978	-168.096	119.434	-118.907	104.656	43.320	90.481	6.738	166.099	151.892	-149.395	51.991	114.308	157.217	0.00082522	0.00051296	0.0001191	1057.9	2.3714e-06	2.8215e-06	1152.3	218.75	3.3343e-06	6.3636e-06	273.71	77.176	61.692	17.662	1.4411e-06	24.516	0.00027261	0.00029391	7.5015e-05	1032.4	2.9721e-06	3.1159e-06	1120.3	215.08	2.9646e-06	3.0408e-06	268.8	76.955	61.844	18.31	2.7411e-06	24.989	70.048	-56.591	-94.128	-160.386	-91.428	-2.260	-160.531	-152.781	-99.236	-27.492	-153.165	-146.820	-147.170	-139.331	-137.806	-140.011	-8191	255	
1225.985	1	1	0	0	0.33217	0.13875	0.064871	0.31699	0.14931	0.18436	0.12221	0.25623	0.2281	0.22822	0.071033	0.13028	0.093924	0.23077	0.1935	0.048968	-1.4125	-2.6521	-2.5583	-1.9958	-2.85	-2.1875	-2.3063	-2.9854	-2.0938	-2.4188	-2.6396	-2.0792	-2.7292	-2.6646	-1.9979	-2.9542	75.009	-117.537	0.988	110.417	163.738	-89.925	133.700	-131.882	7.665	-124.157	146.374	112.720	187.223	49.037	136.819	-51.003	0.0010179	0.00066142	9.3411e-05	1059.1	3.667e-06	4.1684e-06	1150.8	218.79	6.751e-06	2.4489e-06	273.06	77.21	60.981	17.38	5.1757e-06	24.339	0.00028259	0.00027321	7.2614e-05	1032.6	3.1311e-06	3.127e-06	1120.5	215.48	3.2055e-06	3.0042e-06	269.08	77.262	62.288	18.197	2.7235e-06	25.1	80.268	-27.014	-124.331	-160.306	-70.766	-116.866	-160.295	-153.205	-95.555	-102.068	-153.246	-146.486	-146.868	-139.168	-22.878	-139.639	-8191	255	
1226.057	1	1	0	0	0.1457	0.047375	0.074111	0.27524	0.22153	0.10143	0.061144	0.38824	0.13591	0.048105	0.39446	0.24926	0.46087	0.085574	0.23277	0.11254	-1.5854	-2.4208	-2.8875	-2.0979	-2.4729	-2.4646	-2.3146	-2.9458	-2.1896	-2.2125	-2.8104	-1.7958	-2.4521	-2.4562	-1.9542	-2.8125	-77.749	-16.178	-81.665	172.366	-22.400	103.061	-30.314	165.234	5.310	-31.680	113.168	37.201	163.637	153.955	122.516	106.607	0.0010046	0.00058542	2.743e-05	1063.8	5.8703e-06	4.9594e-06	1154.1	218.49	8.5099e-06	9.8521e-06	273.88	78.155	62.31	17.593	3.1082e-06	24.696	0.00029742	0.00027131	7.2733e-05	1035.2	3.2683e-06	3.066e-06	1121.9	216.23	3.3898e-06	3.0023e-06	269.39	78.177	63.08	18.391	2.9129e-06	25.553	72.477	-40.393	-109.988	-159.986	-87.246	39.269	-159.959	-152.734	-140.318	-33.594	-152.874	-146.741	-146.864	-138.734	-80.207	-139.626	-8191	255	
1226.178	1	1	0	0	0.18785	0.16623	0.2853	0.16756	0.31055	0.0050027	0.071997	0.20528	0.21944	0.20693	0.15132	0.12041	0.065997	0.12498	0.26318	0.15258	-1.8229	-2.1063	-2.7542	-2.2833	-2.4667	-2.6458	-2.1292	-2.9396	-2.3271	-2.2625	-2.8917	-2.0563	-2.4875	-2.7604	-2.0354	-2.6292	-54.407	72.476	116.465	106.881	49.058	19.978	44.233	-129.795	-113.230	-26.979	-12.993	-41.154	22.012	142.813	-81.199	143.613	0.0010615	0.0006493	0.00012825	1066.5	9.3072e-06	1.5429e-06	1154.2	220.08	2.2169e-06	2.246e-06	275.7	78.085	62.088	17.892	2.6496e-06	24.834	0.00032435	0.00028291	7.6377e-05	1042.9	3.3893e-06	3.1519e-06	1124.8	218.08	3.3074e-06	2.8838e-06	269.96	78.413	62.344	18.311	2.7199e-06	25.48	95.988	-142.186	-1.326	-160.528	-10.178	-12.003	-160.358	-153.266	-126.218	109.488	-152.785	-146.359	-146.138	-139.293	-112.428	-139.568	-8191	255	
1226.274	1	1	0	0	0.16464	0.021629	0.10157	0.067321	0.24698	0.13673	0.10843	0.16831	0.064259	0.22636	0.087052	0.19284	0.19064	0.1341	0.15141	0.069739	-1.8167	-1.9792	-2.7792	-2.3312	-2.4167	-2.6771	-1.9896	-2.9146	-2.4083	-2.0542	-2.9813	-2.0896	-2.3646	-2.8187	-1.9104	-2.7229	63.778	-95.461	130.077	-135.945	145.727	-14.497	-21.901	31.902	-133.750	-147.020	180.289	183.655	100.940	168.922	-154.888	-80.520	0.00069089	0.0003645	3.8198e-05	1068.3	5.1948e-06	5.3353e-06	1161.1	219.95	5.2355e-06	5.4301e-06	276.71	78.606	62.522	17.859	1.1319e-06	24.581	0.00029297	0.00025478	7.2105e-05	1042.5	3.1317e-06	2.9659e-06	1124.9	218.26	3.2172e-06	2.8737e-06	270.87	79.027	62.393	18.349	3.0238e-06	25.709	85.526	82.677	-169.593	-160.611	-128.396	-20.211	-160.326	-152.756	-48.005	-31.678	-152.957	-146.661	-147.066	-139.227	-93.573	-139.743	-8191	255	
1226.368	1	1	0	0	0.075532	0.39022	0.16909	0.21331	0.097336	0.098993	0.196	0.14299	0.21779	0.30387	0.24592	0.24984	0.1499	0.18979	0.11411	0.20893	-2.0687	-1.9208	-2.8417	-2.2604	-2.3	-2.7458	-2.0938	-2.4875	-2.5479	-1.9813	-3.0729	-2.2583	-2.1854	-2.7833	-2.0521	-2.6229	-65.303	133.717	-118.293	137.562	-129.448	48.217	92.690	-4.525	113.260	81.002	-8.474	70.689	-115.709	140.309	129.259	-16.817	0.0008281	0.00029472	0.0001196	1068.7	1.4682e-06	6.6948e-06	1165.4	219.23	8.0998e-06	4.837e-06	277	78.67	62.937	17.873	3.3611e-06	24.776	0.00029939	0.0002682	8.1638e-05	1047.3	3.1979e-06	3.1064e-06	1131.5	218.86	3.3361e-06	3.0183e-06	273.42	79.392	63.01	18.465	3.3728e-06	25.819	75.053	-18.654	56.744	-160.399	134.644	-23.411	-160.349	-152.674	-37.443	101.151	-153.508	-146.798	-146.538	-139.179	-158.427	-139.454	-8191	255	
1226.464	1	1	0	0	0.067867	0.1931	0.16281	0.32413	0.043947	0.14684	0.19985	0.11046	0.37152	0.11189	0.1511	0.24756	0.11115	0.28843	0.30579	0.23368	-2.1458	-2.0458	-2.6375	-2.3146	-2.0958	-2.7333	-2.3	-2.5042	-2.575	-2.0083	-2.9062	-2.3396	-2.15	-2.8958	-1.9771	-2.5146	184.470	16.133	-6.625	177.040	58.267	0.176	162.887	-149.808	-145.718	-66.618	-163.054	-132.431	-17.398	179.280	-155.384	72.766	0.0010118	0.00023186	5.2125e-05	1070	3.1281e-06	9.2602e-07	1162.6	219.61	3.0918e-06	5.1848e-06	276.31	78.37	62.336	17.858	6.2656e-06	25.118	0.00030597	0.00027108	8.7012e-05	1048.4	3.0969e-06	3.0299e-06	1134.4	218.37	3.1708e-06	2.8585e-06	273.55	78.861	61.773	18.337	3.3389e-06	25.573	80.035	144.394	112.792	-160.801	-43.980	30.805	-161.125	-153.603	-42.966	-106.812	-153.229	-146.980	-147.054	-139.150	98.497	-139.549	-8191	255	
1226.585	1	1	0	0	0.22554	0.28626	0.25636	0.39551	0.26405	0.28014	0.28712	0.13122	0.058262	0.053418	0.12045	0.15319	0.044676	0.22811	0.15154	0.14255	-2.3125	-1.8229	-2.7417	-2.6437	-1.9604	-2.8688	-2.2438	-2.3	-2.7438	-1.9396	-2.7625	-2.5938	-1.8833	-2.8354	-1.9083	-2.3396	3.623	47.908	184.154	76.799	12.645	51.742	101.959	77.606	-44.706	32.253	156.085	-72.145	125.598	-26.002	-58.067	167.297	0.00053664	0.00079112	0.00011942	1070.3	3.5096e-06	5.0774e-07	1159.9	221.3	1.7499e-06	8.6555e-07	277.44	78.284	62.207	17.769	4.6055e-06	24.632	0.00027576	0.00026085	8.3427e-05	1044.3	2.8707e-06	2.9289e-06	1130.1	217.68	2.9144e-06	2.8595e-06	273.2	78.387	61.26	18.294	3.2796e-06	25.237	87.705	-95.428	-163.481	-160.503	-1.579	18.721	-160.239	-152.662	-2.089	-35.220	-153.222	-146.996	-147.165	-139.281	-136.228	-139.768	-8191	255	
1226.657	1	1	0	0	0.17602	0.15605	0.11243	0.26067	0.0674	0.2021	0.20269	0.16766	0.089042	0.060984	0.41966	0.1054	0.13496	0.18582	0.22735	0.31644	-2.3604	-1.9833	-2.6604	-2.8417	-2.1042	-3.0896	-2.3563	-2.0729	-2.7917	-2.0458	-2.5833	-2.5583	-2.0396	-2.7687	-2.2167	-2.2062	-44.052	69.270	-139.336	183.268	-94.343	-69.649	131.115	105.358	50.148	-53.852	-103.985	59.801	-0.468	118.667	51.338	149.285	0.00033832	0.00024995	0.00010388	1067.3	4.4914e-06	2.8834e-06	1158.2	219.71	8.5675e-06	3.0243e-06	276.92	78.658	61.764	17.833	2.6457e-06	24.73	0.00026618	0.00026919	8.2761e-05	1041.6	2.7729e-06	3.0407e-06	1130.8	216.72	2.8567e-06	3.0577e-06	271.91	78.24	61.061	18.405	3.2158e-06	25.197	100.661	-105.256	-100.712	-160.515	-140.944	-11.867	-160.617	-153.137	-38.635	155.355	-153.933	-147.439	-147.879	-139.399	-155.962	-140.222	-8191	255	
1226.753	1	1	0	0	0.088324	0.10921	0.19148	0.37239	0.056848	0.24891	0.1788	0.11457	0.16914	0.034134	0.13687	0.024551	0.10879	0.38554	0.15358	0.037038	-2.4917	-2.0792	-2.55	-2.85	-2.025	-2.9	-2.3917	-2.2229	-2.8458	-2.0312	-2.5021	-2.7687	-1.9333	-2.7521	-2.45	-2.0938	-86.054	107.985	151.629	171.201	-20.040	16.576	76.252	-97.214	-29.131	-170.982	158.885	80.611	-6.452	157.114	92.114	-82.420	0.00079643	0.00019867	0.00011564	1065.9	3.3567e-06	1.452e-06	1156	220.41	2.1116e-06	2.7769e-06	275.85	78.378	61.725	17.882	1.9411e-06	24.664	0.00026102	0.00028794	7.9309e-05	1039.7	2.7633e-06	3.1815e-06	1129.4	216.36	2.7963e-06	3.1655e-06	270.77	77.843	60.782	18.387	2.907e-06	24.933	84.720	152.685	-66.716	-161.117	-131.016	65.081	-161.128	-153.410	-122.693	165.210	-153.549	-147.607	-147.532	-139.770	-34.711	-140.483	-8191	255	
1226.849	1	1	0	0	0.13892	0.086913	0.25059	0.18029	0.091359	0.23601	0.18972	0.16804	0.04626	0.040788	0.18939	0.39603	0.28882	0.068957	0.041695	0.44184	-2.5771	-2.0187	-2.2521	-2.8458	-1.8604	-2.675	-2.7292	-2.2604	-2.9354	-2.225	-2.4062	-2.775	-1.9375	-2.6583	-2.4958	-1.9562	-39.321	98.114	-119.898	142.195	37.750	11.388	69.601	136.729	31.636	83.889	186.324	-139.865	171.401	165.569	100.719	-164.085	0.0009533	0.00017381	0.00015198	1064.7	5.7276e-06	5.1884e-06	1155.8	219.06	5.5487e-06	4.8348e-06	275.32	78.495	62.355	17.719	5.0725e-06	24.613	0.00024757	0.00027406	6.8621e-05	1034.5	2.6028e-06	2.9415e-06	1122.2	214.99	2.6676e-06	2.9655e-06	268.15	77.179	60.763	18.253	2.7442e-06	24.731	84.877	-148.804	-97.791	-161.425	183.943	-103.830	-161.100	-153.517	-98.381	-47.722	-154.066	-147.454	-147.678	-139.184	-52.782	-140.286	-8191	255	
1226.970	1	1	0	0	0.22249	0.040011	0.21794	0.15771	0.043044	0.16242	0.15391	0.33851	0.10289	0.1931	0.16976	0.077475	0.18313	0.20962	0.064674	0.075603	-2.3229	-1.9937	-2.2875	-2.9958	-2.0812	-2.5583	-2.8063	-1.8937	-2.8896	-2.5104	-2.15	-2.9542	-1.9917	-2.4875	-2.6292	-1.9896	-132.832	-166.114	144.967	95.245	-109.451	28.053	113.961	166.343	184.912	105.181	179.238	108.437	77.889	92.755	-109.704	-125.595	0.00083547	0.00052857	0.00016279	1063.7	6.4347e-06	1.377e-06	1158.1	218.74	1.2167e-06	1.6567e-06	274.1	78.061	62.708	17.754	3.1113e-06	24.64	0.00025561	0.00026853	6.6241e-05	1033.1	2.7351e-06	2.8515e-06	1121	213.95	2.7382e-06	2.831e-06	266.67	76.984	60.91	18.119	2.5326e-06	24.73	68.356	-54.426	-82.036	-160.771	175.279	-136.867	-161.034	-153.364	186.910	9.058	-153.166	-147.257	-147.191	-139.834	67.079	-139.888	-8191	255	
1227.066	1	1	0	0	0.2227	0.28732	0.026169	0.092278	0.38258	0.15281	0.23857	0.179	0.060608	0.20101	0.13745	0.25296	0.24095	0.29718	0.23588	0.15935	-2.5771	-2.1792	-2.0563	-2.9604	-2.0917	-2.3563	-2.9333	-2.0646	-2.7812	-2.375	-2.025	-2.925	-2.0333	-2.1688	-2.6312	-1.8937	156.910	-142.932	-75.484	95.703	-119.253	-14.550	63.585	174.694	23.197	188.314	126.109	121.339	165.654	-107.483	-125.783	143.077	0.00062038	0.00028738	0.00011238	1060.5	3.758e-06	3.3142e-06	1150.4	218.61	1.9438e-06	2.3414e-06	276.19	78.015	61.921	17.725	4.1957e-06	24.542	0.00025563	0.00025118	6.1821e-05	1030.7	2.8124e-06	2.6342e-06	1117	213.71	2.8233e-06	2.6902e-06	266.13	76.984	61.486	18.052	2.5347e-06	24.785	57.169	-132.174	-156.842	-160.993	-134.371	-111.956	-160.958	-153.398	-167.944	-45.739	-153.341	-147.472	-147.957	-139.403	4.646	-140.026	-8191	255	
1227.162	1	1	0	0	0.27297	0.09274	0.16727	0.14476	0.061568	0.13592	0.031765	0.20821	0.29886	0.18627	0.10157	0.12661	0.22639	0.17368	0.15139	0.1524	-2.0479	-2.2833	-1.8333	-2.9854	-2.2271	-2.3604	-2.975	-1.8937	-2.5958	-2.3375	-2.0521	-2.9083	-2.1396	-2.3396	-2.9375	-2.0812	133.558	-145.006	-132.668	-161.930	42.203	-53.612	146.492	140.250	34.539	-153.718	138.797	28.364	-34.929	-139.624	-42.437	185.663	0.00079157	0.00052805	2.3218e-05	1063.4	3.7104e-06	5.0278e-06	1153.6	219.39	2.5927e-06	7.3299e-06	275.84	78.666	61.824	17.831	2.6777e-06	24.787	0.00026822	0.00024956	6.2952e-05	1033.7	3.0321e-06	2.7175e-06	1118.6	215.31	3.0563e-06	2.8531e-06	267.72	77.905	62.382	18.179	2.713e-06	25.215	62.197	-127.077	74.276	-160.869	82.376	-13.942	-160.854	-153.390	35.067	-60.384	-153.450	-147.339	-147.540	-139.392	-83.132	-139.954	-8191	255	
1227.258	1	1	0	0	0.11607	0.18576	0.13829	0.19225	0.11332	0.091695	0.11164	0.1967	0.26763	0.11115	0.062288	0.31667	0.13962	0.36084	0.07214	0.15661	-2.0938	-2.7896	-1.8104	-3.0167	-2.2896	-2.2021	-2.9271	-2.0146	-2.4083	-2.6562	-1.8521	-2.7583	-2.3063	-2.1937	-2.7396	-2.1854	154.066	-18.448	-23.790	125.868	-67.895	58.382	154.298	107.001	-46.909	-157.870	147.929	-105.422	-19.162	137.704	-86.724	178.045	0.000688	0.00041237	7.4067e-05	1063.8	7.4158e-06	7.6079e-06	1159.4	218.37	6.1864e-06	3.4842e-06	276.31	78.664	61.775	17.747	2.4919e-06	24.487	0.00028498	0.00026187	6.7345e-05	1038.4	3.2101e-06	2.8832e-06	1124.4	217.08	3.2246e-06	3.0462e-06	269.39	78.802	62.962	18.257	2.9332e-06	25.549	80.133	-91.956	-107.698	-160.559	-25.769	-44.882	-160.780	-153.484	-3.611	65.540	-153.622	-147.517	-147.976	-139.590	-91.681	-140.195	-8191	255	
1227.354	1	1	0	0	0.12479	0.20179	0.21766	0.16579	0.10174	0.30146	0.20543	0.19025	0.12458	0.080875	0.034593	0.2214	0.17785	0.26491	0.1798	0.11342	-2.0563	-2.7208	-1.8479	-2.7375	-2.3417	-1.9208	-2.8875	-2.0896	-2.2896	-2.8208	-2	-2.6354	-2.4396	-2.0917	-2.725	-2.1396	5.814	178.373	132.067	183.366	127.639	-88.056	136.931	126.836	171.683	121.230	84.196	109.827	92.398	51.391	-27.855	150.382	0.00059574	0.00052324	4.8657e-05	1069.6	6.4885e-06	8.0786e-06	1160.6	220.18	8.8217e-06	7.9278e-06	275.49	78.904	62.091	17.93	1.7556e-06	24.6	0.00029315	0.00027648	7.2766e-05	1046.3	3.17e-06	2.8395e-06	1129	218.38	3.0494e-06	2.9002e-06	269.79	78.969	62.086	18.225	3.0024e-06	25.598	59.692	-106.214	35.679	-160.816	-27.437	-2.127	-160.898	-153.738	136.775	-42.176	-153.504	-147.251	-147.722	-139.221	3.767	-139.479	-8191	255	
1227.450	1	1	0	0	0.327	0.19637	0.11787	0.081346	0.044437	0.13934	0.20564	0.18332	0.19525	0.17859	0.37595	0.21933	0.11473	0.13409	0.10603	0.2561	-1.9375	-2.5708	-1.9458	-2.7875	-2.7271	-1.8563	-2.9708	-2.3563	-1.9521	-2.7062	-2.125	-2.7083	-2.4646	-1.9625	-2.8563	-2.0521	-60.376	-156.481	-28.071	144.161	41.866	171.842	118.636	128.610	-53.502	178.171	170.225	-65.741	149.868	-16.777	173.467	62.612	0.001052	9.3587e-05	0.0001564	1066.6	4.3559e-06	3.3643e-06	1166	221.13	1.9479e-06	4.7425e-06	276.33	78.586	61.926	17.895	3.0857e-06	24.693	0.00028079	0.00027249	7.7603e-05	1046.8	3.2256e-06	2.9655e-06	1134.5	219.5	3.2282e-06	3.1791e-06	273.99	79.722	63.764	18.526	3.7437e-06	26.142	77.210	38.814	87.947	-160.490	-44.326	-154.301	-160.600	-153.051	12.211	-25.767	-153.472	-146.444	-146.901	-138.582	-117.616	-139.744	-8191	255	
1227.569	1	1	0	0	0.097792	0.16545	0.2084	0.23362	0.13311	0.079096	0.10633	0.19387	0.13762	0.23834	0.09618	0.12076	0.20768	0.44302	0.13917	0.18585	-1.7396	-2.8312	-2.0125	-2.5938	-2.7	-1.9062	-2.9771	-2.3375	-2.0417	-2.9333	-2.0854	-2.3729	-2.7562	-1.9	-2.7521	-2.2271	184.300	146.461	154.711	-108.946	150.450	-103.480	109.075	107.685	-2.638	-37.921	28.497	122.092	-69.790	-107.506	-105.510	-75.441	0.00011332	4.3826e-05	8.6689e-05	1072.1	5.0904e-06	2.1523e-06	1166.6	221.81	5.8477e-06	9.531e-07	278.06	79.326	62.414	17.927	1.5025e-06	24.977	0.00032559	0.00031619	9.822e-05	1054.2	3.7282e-06	3.4085e-06	1147.5	221.18	3.5522e-06	3.5358e-06	278.32	80.252	64.186	18.708	3.9538e-06	26.114	34.239	118.284	10.256	-160.571	28.132	-79.375	-161.003	-153.251	-31.572	-129.057	-153.584	-147.117	-147.505	-139.402	-123.929	-139.770	-8191	255	
1227.665	1	1	0	0	0.15699	0.030947	0.19664	0.1516	0.20684	0.14047	0.22368	0.068794	0.24403	0.043357	0.097716	0.072495	0.17401	0.017793	0.20001	0.12155	-1.5708	-2.8167	-1.9625	-2.5312	-2.6667	-1.8854	-2.8229	-2.5438	-1.9417	-2.875	-2.2042	-2.1917	-2.7354	-1.8917	-2.4979	-2.475	109.365	16.352	-69.493	121.880	136.243	96.207	129.769	152.429	-87.474	-30.164	-128.578	162.154	-150.217	102.092	81.469	-71.794	0.00045868	0.0004471	0.0002373	1074.6	5.9944e-06	1.6711e-06	1172.9	221.19	1.4905e-06	6.5073e-06	278.09	78.879	62.581	18.125	3.9919e-06	24.833	0.00031582	0.00031852	0.00010011	1056.7	3.529e-06	3.4927e-06	1149.7	220.9	3.4562e-06	3.6998e-06	279.01	80.102	64.704	19.004	4.3095e-06	26.383	67.109	137.254	115.794	-160.783	-91.404	114.700	-160.947	-153.764	-71.486	-137.537	-153.173	-147.116	-147.136	-139.522	-94.590	-139.943	-8191	255	
1227.762	1	1	0	0	0.11816	0.05707	0.24372	0.344	0.074285	0.059627	0.16819	0.12905	0.097503	0.1157	0.13682	0.1446	0.18036	0.069172	0.26622	0.16595	-1.5083	-2.6875	-2.2229	-2.3917	-2.6229	-1.6917	-2.5146	-2.4958	-1.8979	-2.5896	-2.1604	-2.1063	-2.8312	-1.8687	-2.4146	-2.8042	-166.607	-47.170	2.787	117.128	-28.597	-77.178	94.749	136.695	-103.746	-102.229	106.338	99.486	94.961	-66.945	-5.351	146.389	0.0006002	0.0003179	0.00016876	1080.4	4.0197e-06	5.4956e-06	1179	222.79	1.2773e-05	2.1762e-06	278.11	79.697	63	17.996	9.3164e-06	24.837	0.00034677	0.00038094	0.00011625	1063.3	4.022e-06	4.2662e-06	1157.6	223.26	3.7716e-06	4.3074e-06	281.92	80.704	65.169	19.292	4.3122e-06	26.444	60.311	128.718	183.619	-160.924	-136.911	164.033	-161.026	-153.471	-86.663	-168.136	-153.524	-147.327	-148.041	-140.029	-7.927	-140.052	-8191	255	
1227.882	1	1	0	0	0.12068	0.048428	0.041822	0.25715	0.2666	0.36877	0.15355	0.1752	0.15436	0.12413	0.12111	0.16947	0.080763	0.13142	0.24802	0.11496	-1.5104	-2.7062	-2.225	-2.175	-2.7979	-1.9771	-2.5958	-2.5687	-2.0354	-2.675	-2.5333	-2.2042	-2.8708	-2.0417	-2.2646	-2.4708	50.420	39.144	-89.456	182.693	32.428	56.193	-162.600	108.737	44.788	-127.032	45.258	135.224	-6.496	-126.149	176.903	102.878	0.00080068	0.00045494	7.9859e-05	1079.8	4.6404e-06	9.3182e-07	1179.4	222.78	2.2442e-06	3.7267e-06	279.69	80.084	62.256	18.07	4.0638e-06	24.956	0.00035034	0.00040729	0.00011344	1066.1	4.0282e-06	4.554e-06	1160.2	223.6	3.9597e-06	4.5804e-06	281.79	80.87	65.805	19.429	4.0284e-06	26.246	84.394	178.900	-131.680	-160.868	-107.745	-21.509	-160.853	-153.267	-143.190	-124.140	-153.597	-147.346	-147.666	-139.371	1.032	-140.449	-8191	255	
1227.954	1	1	0	0	0.11602	0.083639	0.048838	0.11915	0.076738	0.12056	0.14144	0.022116	0.40459	0.19698	0.1993	0.27417	0.19065	0.16554	0.2448	0.054191	-1.4625	-2.5896	-2.4625	-2.2396	-2.7708	-2.2104	-2.2167	-2.6729	-1.8188	-2.4917	-2.4104	-2.2146	-2.8729	-2.0854	-2.175	-2.7958	136.781	-144.535	79.342	163.876	-32.905	-141.411	-7.268	15.553	-71.236	-94.854	83.444	171.352	170.443	-113.677	-152.814	143.315	0.00085133	0.0001365	7.9956e-05	1085.5	2.1973e-06	4.2903e-06	1176.6	221.36	3.1737e-06	5.5643e-06	278.46	78.736	63.339	18.051	4.6144e-06	24.967	0.00033745	0.00037823	9.6004e-05	1061.2	3.5636e-06	3.8835e-06	1147.8	220.09	3.3668e-06	3.7024e-06	274.58	78.977	64.213	18.962	3.3535e-06	25.701	60.174	-15.943	169.366	-160.714	-116.624	41.376	-160.931	-153.273	175.816	-97.546	-154.217	-147.227	-147.831	-139.811	48.123	-140.697	-8191	255	
1228.050	1	1	0	0	0.17534	0.17208	0.062736	0.21066	0.21516	0.2665	0.13881	0.2433	0.25929	0.18396	0.26577	0.34992	0.161	0.14301	0.19302	0.30627	-1.4208	-2.5542	-2.4146	-1.9042	-2.8063	-2.2271	-2.2146	-2.7875	-1.9729	-2.4271	-2.6646	-2.0333	-2.7333	-2.225	-1.9104	-2.8125	12.916	-52.996	-79.393	-138.673	-66.849	-87.521	73.897	74.916	-60.711	104.523	63.139	119.992	120.798	23.582	186.904	72.862	0.00077205	0.00039549	5.1116e-05	1078.6	2.3921e-06	5.8923e-06	1173.7	221.65	5.8631e-06	1.5233e-06	278.92	78.937	62.644	17.927	4.8939e-06	24.849	0.00032496	0.00034476	8.9824e-05	1053.9	3.6805e-06	3.7834e-06	1144.4	220.22	3.7118e-06	3.6706e-06	275.77	79.146	64.989	18.912	3.3653e-06	25.722	42.020	-102.518	-158.898	-160.775	-126.033	6.415	-160.604	-153.530	-162.354	-142.077	-153.487	-147.237	-147.770	-139.357	-17.668	-140.388	-8191	255	
1228.146	1	1	0	0	0.23364	0.18054	0.14637	0.066283	0.07914	0.20208	0.04688	0.17329	0.060423	0.091079	0.20216	0.14847	0.14989	0.17913	0.30793	0.035729	-1.6125	-2.4229	-2.7354	-2.1083	-2.6333	-2.4125	-2.1521	-2.9188	-2.0896	-2.3312	-2.8563	-1.9458	-2.6979	-2.4271	-2.0146	-2.9188	132.290	-43.150	-150.013	157.029	87.661	127.200	151.259	74.616	-100.286	54.140	182.851	-132.669	-143.216	-33.004	-85.818	45.613	0.00074283	0.00076177	0.00011544	1081.4	9.4277e-06	7.3614e-06	1174.1	222.32	5.9615e-06	5.6038e-06	278.53	78.736	62.69	17.965	1.9859e-06	24.744	0.00034827	0.00033448	8.7846e-05	1054.4	3.834e-06	3.6072e-06	1143	219.97	3.8006e-06	3.4777e-06	274.46	79.138	64.855	18.721	3.1199e-06	25.586	69.910	-66.481	-55.928	-161.435	-141.705	-93.074	-161.075	-152.954	-150.403	10.677	-153.470	-147.235	-147.643	-139.771	36.172	-140.360	-8191	255	
1228.265	1	1	0	0	0.067827	0.18499	0.1419	0.38458	0.34395	0.13397	0.38776	0.12336	0.059114	0.22074	0.20273	0.14748	0.099842	0.20263	0.46355	0.045858	-1.6854	-2.3542	-2.55	-2.1125	-2.5708	-2.6542	-2.0646	-2.9917	-2.1583	-2.1958	-2.9625	-1.9417	-2.4437	-2.3771	-1.7938	-2.9208	9.449	-59.865	44.419	122.975	140.736	183.074	118.369	168.871	-52.740	-105.728	-163.578	177.804	-103.598	-84.393	8.152	96.878	0.00041373	0.00025617	0.00018351	1072.6	2.3884e-06	2.9808e-06	1172.6	221.4	3.582e-06	2.6976e-06	277.84	79.211	62.18	17.869	3.5168e-06	24.752	0.00033933	0.00030252	8.0501e-05	1049.8	3.6467e-06	3.3918e-06	1137.7	219.86	3.7392e-06	3.3213e-06	273.54	79.543	64.528	18.667	3.0924e-06	25.779	85.823	16.207	-31.293	-160.609	9.049	-75.196	-160.478	-153.485	-101.332	-164.303	-154.260	-147.150	-147.342	-139.782	154.508	-139.790	-8191	255	
1228.361	1	1	0	0	0.14732	0.14625	0.16764	0.28334	0.19767	0.28744	0.16867	0.32876	0.20902	0.36007	0.10224	0.084723	0.14553	0.21544	0.24115	0.16742	-1.8937	-1.8583	-2.6292	-2.0104	-2.4896	-2.625	-2.1063	-2.5646	-2.1979	-2.1	-2.7771	-2.0375	-2.3396	-2.8521	-1.9479	-2.7313	-76.194	52.600	-74.594	157.250	-96.717	-59.843	6.517	-168.077	156.660	156.543	-86.906	48.686	152.936	-161.201	-76.819	167.269	0.00056749	0.00024621	0.00018185	1077.1	5.1319e-06	2.4116e-06	1170.9	221.83	7.2089e-07	1.4223e-06	275.17	79.108	62.447	17.662	2.0642e-06	24.583	0.00032454	0.00028285	7.5567e-05	1050.7	3.2021e-06	2.9447e-06	1130.9	218.34	3.097e-06	2.7615e-06	268.57	78.542	62.165	18.183	2.727e-06	25.381	82.487	-69.453	-147.371	-160.244	17.860	-75.547	-160.216	-152.720	141.470	-63.595	-153.404	-147.261	-146.797	-139.393	-168.402	-140.161	-8191	255	
1228.457	1	1	0	0	0.12066	0.079071	0.10141	0.11355	0.032279	0.043882	0.22447	0.10143	0.13651	0.11739	0.20026	0.13728	0.42245	0.30934	0.21927	0.11249	-1.9562	-1.7125	-2.8438	-1.9438	-2.1521	-2.7542	-2.0167	-2.7021	-2.2896	-1.9708	-2.7938	-2.0479	-2.225	-2.6667	-1.8333	-2.5292	126.707	-75.413	-72.119	111.674	-23.072	-21.793	98.742	-23.891	-106.752	69.887	58.651	-145.613	32.898	55.911	167.592	-82.873	0.00080919	0.00021567	4.3851e-05	1071.1	4.2674e-06	4.8211e-06	1166.2	221.07	6.0135e-06	5.3189e-06	275.49	78.649	62.175	17.921	4.0045e-06	24.474	0.000288	0.00025777	7.3264e-05	1047.9	3.0991e-06	2.9484e-06	1131.1	219.07	3.1353e-06	2.8252e-06	271.12	78.964	62.067	18.317	2.9607e-06	25.458	54.139	-4.179	92.455	-160.789	-82.401	-46.079	-161.109	-153.891	-124.654	55.621	-153.769	-147.430	-147.666	-139.259	-171.747	-139.900	-8191	255	
1228.531	1	1	0	0	0.10276	0.13915	0.085998	0.2193	0.23159	0.092379	0.10887	0.15496	0.39163	0.070966	0.1567	0.082177	0.18464	0.27227	0.21359	0.16236	-1.9917	-1.9583	-2.7687	-2.1854	-2.1396	-2.9062	-2.0187	-2.575	-2.4979	-1.9333	-2.9104	-2.3479	-2.1688	-2.7979	-1.8292	-2.5479	-40.356	-63.477	120.572	90.914	18.666	56.789	176.604	141.097	-169.084	93.346	12.907	-118.502	-138.481	-87.436	115.808	177.633	0.00068962	0.00048851	0.00020911	1070.1	7.6119e-06	3.5227e-06	1169.7	221.11	3.8234e-06	4.3954e-06	276.56	78.584	61.813	17.851	9.0791e-06	24.609	0.00028355	0.00025301	7.6824e-05	1045.6	2.946e-06	2.8378e-06	1133.1	218.61	3.0051e-06	2.7205e-06	271.62	78.675	61.653	18.228	3.1727e-06	25.512	105.536	177.607	171.375	-160.853	4.342	106.081	-160.766	-153.414	-116.029	-56.587	-153.510	-147.327	-147.452	-139.580	140.510	-139.663	-8191	255	
1228.650	1	1	0	0	0.1041	0.17551	0.13322	0.21515	0.21093	0.18308	0.24144	0.27672	0.24024	0.15357	0.19081	0.21174	0.10432	0.14484	0.21278	0.25937	-2.1125	-2.0167	-2.8042	-2.4208	-2.1771	-2.8438	-2.2396	-2.5292	-2.7833	-1.9167	-2.8771	-2.2104	-2.1396	-2.6458	-2.0687	-2.2729	23.397	95.105	97.483	43.800	-22.536	177.979	52.399	-42.747	16.807	-157.480	-68.189	108.263	44.522	-170.232	-101.559	118.877	0.00094482	0.00035241	0.00017774	1066.9	3.0221e-06	2.0955e-06	1163.8	220.64	5.4603e-06	6.4094e-06	276.98	78.351	62.281	17.857	2.6006e-06	24.749	0.00028728	0.00026424	8.4759e-05	1043.4	3.0745e-06	3.0264e-06	1134.5	218.4	3.1935e-06	3.0005e-06	273.21	78.8	62.101	18.399	3.5015e-06	25.51	100.546	-157.923	-94.919	-160.542	-75.519	-119.710	-160.836	-152.857	-94.609	-80.172	-153.281	-147.225	-147.391	-139.578	99.187	-140.186	-8191	255	
1228.746	1	1	0	0	0.33483	0.27936	0.37528	0.21901	0.073617	0.15874	0.16537	0.31035	0.13116	0.13712	0.16123	0.30035	0.1922	0.29965	0.088666	0.2277	-2.3083	-2.0354	-2.65	-2.5792	-1.9729	-2.9042	-2.1479	-2.3208	-2.6458	-2.0333	-2.7	-2.3646	-1.85	-2.8854	-2.0875	-2.3292	-13.915	-73.951	126.710	151.786	-144.180	-135.094	131.275	162.586	-30.969	184.704	-140.766	149.185	147.608	158.189	54.074	-171.205	0.00071029	0.00057985	0.00014533	1069.6	5.1306e-06	3.6998e-06	1163.5	220.84	5.1791e-06	2.9719e-06	276.58	78.621	62.485	17.849	3.8848e-06	24.622	0.00028429	0.0002736	8.7822e-05	1045.4	2.9686e-06	3.1161e-06	1135.4	218.34	3.1223e-06	3.1904e-06	273.93	78.877	62.318	18.588	3.6891e-06	25.506	84.193	-130.505	121.346	-161.024	-85.349	-89.096	-161.255	-153.334	-129.154	63.320	-153.243	-147.067	-147.022	-139.341	-98.926	-139.761	-8191	255	
1228.842	1	1	0	0	0.25888	0.037239	0.23845	0.18377	0.20924	0.014041	0.17453	0.11209	0.21182	0.06411	0.2349	0.078202	0.28437	0.085362	0.1515	0.23336	-2.3688	-2.0146	-2.5396	-2.8125	-1.9083	-2.8479	-2.2313	-2.0792	-2.8875	-2.0062	-2.7083	-2.6542	-1.9354	-2.6875	-2.2375	-1.9125	166.232	-92.200	-117.173	71.448	-2.209	8.434	112.746	163.476	184.253	86.297	130.179	-81.128	-150.389	52.573	-88.042	151.998	0.00060375	0.00032524	1.3792e-05	1072.4	3.8166e-06	3.0942e-06	1162.7	220.41	2.7857e-06	2.6985e-06	276.43	79.123	62.205	17.705	1.36e-06	24.507	0.00029901	0.00031796	9.3547e-05	1048.9	3.1763e-06	3.5733e-06	1139.2	218.66	3.2324e-06	3.5507e-06	274.57	79.165	62.666	18.736	3.6221e-06	25.448	93.071	-12.859	66.325	-160.095	-103.584	-112.753	-161.277	-153.351	-103.365	-107.905	-154.154	-147.693	-147.956	-140.105	-159.814	-140.648	-8191	255	
1228.963	1	1	0	0	0.073424	0.10237	0.066725	0.41849	0.18014	0.13645	0.38614	0.21853	0.085579	0.094345	0.046532	0.049135	0.1215	0.12619	0.24427	0.21328	-2.3583	-2.0625	-2.5354	-2.6854	-1.6958	-2.5646	-2.4896	-2.0104	-2.6813	-2.0875	-2.3833	-2.6292	-1.9562	-2.5458	-2.5021	-1.825	94.748	174.740	-28.386	173.610	-48.718	18.968	166.841	72.292	-49.426	185.239	113.220	118.342	62.821	-65.559	43.887	-88.037	0.00087316	0.00039235	0.00017815	1075.7	5.0157e-06	1.9628e-06	1164.1	220.26	3.2539e-06	3.1889e-06	276.75	78.967	62.27	17.833	3.8872e-06	24.679	0.00029672	0.0003346	9.0287e-05	1050.2	3.2171e-06	3.7416e-06	1138.9	218.75	3.3465e-06	3.7265e-06	274.21	78.943	62.723	18.745	3.383e-06	25.34	65.027	138.988	-143.112	-161.168	-75.971	-131.734	-160.927	-153.708	-114.734	-69.539	-153.909	-147.843	-147.560	-139.748	-21.210	-140.764	-8191	255	
1229.059	1	1	0	0	0.084078	0.10994	0.10401	0.24316	0.10338	0.19883	0.087585	0.10393	0.15567	0.11496	0.23573	0.19379	0.37005	0.21112	0.28264	0.2001	-2.5438	-2.0354	-2.2438	-2.9021	-1.8042	-2.6417	-2.6708	-1.9312	-2.8229	-2.1167	-2.0542	-2.7479	-1.8479	-2.5604	-2.5271	-1.9896	46.343	38.508	-49.656	183.431	-154.980	-96.439	132.635	-102.923	-125.540	-128.690	181.544	110.914	-17.134	120.347	-11.457	-6.037	0.00077994	0.00029591	0.00020923	1072.6	5.9348e-06	1.0685e-06	1166.5	221.66	1.6118e-06	5.5085e-06	275.98	78.671	61.842	17.818	2.178e-06	24.607	0.00028775	0.00031423	7.8609e-05	1045.7	2.9873e-06	3.246e-06	1132.6	217.02	3.0454e-06	3.2939e-06	270.53	78.298	62.49	18.529	3.1283e-06	25.119	72.851	-11.786	-79.355	-161.140	-105.478	-94.475	-161.753	-154.065	152.367	-32.093	-153.914	-147.724	-147.940	-139.714	18.974	-140.020	-8191	255	
1229.155	1	1	0	0	0.30261	0.24107	0.28491	0.16199	0.038236	0.22994	0.15857	0.3989	0.15962	0.2652	0.22	0.13107	0.18336	0.18371	0.089215	0.16173	-2.175	-2.0792	-2.0375	-2.7438	-1.9229	-2.4167	-2.7375	-1.8646	-2.8833	-2.2708	-2.0125	-2.7021	-1.9354	-2.5187	-2.5896	-2.0125	-82.764	47.171	-128.451	82.065	38.334	32.048	48.591	64.808	-153.084	83.106	-136.266	-98.413	-108.767	-112.640	-92.483	-108.703	0.00066934	0.0002614	0.00011741	1069.8	5.4563e-06	3.7969e-06	1166.2	221.14	5.2125e-06	7.397e-06	275.65	78.275	62.174	17.83	3.6761e-06	24.746	0.00029566	0.00030674	7.635e-05	1044.6	3.315e-06	3.3251e-06	1133.5	217.45	3.3306e-06	3.3662e-06	271.35	78.382	63.704	18.619	3.2181e-06	25.31	77.141	-15.417	-63.670	-161.349	-124.636	165.333	-161.511	-153.755	156.315	31.986	-153.641	-147.406	-148.200	-139.904	-34.980	-139.913	-8191	255	
1229.251	1	1	0	0	0.16856	0.20889	0.19021	0.12165	0.08624	0.32928	0.21674	0.15148	0.14716	0.10089	0.19615	0.059913	0.067642	0.13221	0.16521	0.13997	-2.2792	-2.35	-1.9271	-3.1354	-2.2521	-2.3	-2.8979	-1.9979	-2.5292	-2.425	-2	-2.9333	-1.9521	-2.3625	-2.7583	-1.925	110.266	87.591	9.866	124.067	-126.923	58.027	140.004	102.093	-151.187	64.236	-160.170	-90.493	102.840	-122.276	38.061	56.888	0.00071182	0.00013238	0.00011092	1074.6	3.6768e-06	4.0142e-06	1162.5	221.3	1.8725e-06	5.0651e-06	276.23	78.887	62.023	17.667	4.9142e-06	24.561	0.00033666	0.00032043	8.2364e-05	1050.2	3.7521e-06	3.5354e-06	1137.7	219.48	3.8532e-06	3.6462e-06	272.46	79.341	65.079	18.699	3.4024e-06	25.691	87.137	45.121	-92.402	-160.887	-152.844	-34.145	-160.862	-153.580	-159.059	27.916	-153.527	-147.084	-147.552	-139.118	-29.240	-140.249	-8191	255	
1229.347	1	1	0	0	0.2478	0.1713	0.21822	0.17172	0.24187	0.15104	0.25421	0.1655	0.20446	0.12215	0.10034	0.015373	0.23929	0.1147	0.13734	0.19424	-2.4083	-2.45	-1.8438	-2.7917	-2.1375	-2.1562	-2.9271	-1.8458	-2.4313	-2.5792	-2.0021	-2.6792	-2.2771	-2.1125	-2.6521	-2.0146	-99.378	-42.519	52.583	-149.474	-96.324	40.482	171.704	-64.628	159.674	-11.917	98.951	71.026	-145.656	-41.757	80.412	143.804	0.0006329	0.00043944	0.00016076	1070.7	4.0214e-06	4.7449e-06	1168	221.31	1.2276e-06	5.5004e-06	275.49	78.487	63.429	17.925	1.2625e-06	24.807	0.00035282	0.00032471	8.1945e-05	1050.5	3.8204e-06	3.3866e-06	1138.7	219.93	3.7088e-06	3.3863e-06	271.18	79.28	64.628	18.569	3.2413e-06	25.851	102.354	-105.696	-100.334	-161.204	61.959	-47.142	-161.448	-153.999	17.429	46.840	-153.793	-147.628	-147.160	-139.834	129.187	-140.228	-8191	255	
1229.442	1	1	0	0	0.13638	0.20202	0.24684	0.13744	0.071401	0.17851	0.047579	0.14753	0.24293	0.056128	0.10903	0.084563	0.12373	0.097555	0.13411	0.32354	-2.0625	-2.6229	-1.9042	-2.7583	-2.2125	-2.1188	-2.6083	-2.0146	-2.3375	-2.4938	-1.9229	-2.7188	-2.1646	-1.9542	-2.7	-2.1771	-133.685	1.990	-127.411	171.262	150.877	165.992	-154.436	-154.459	177.017	-100.821	-156.621	-13.127	41.225	-72.983	-3.644	74.514	0.00035083	0.00047094	0.00014421	1073.1	5.4301e-06	2.6188e-06	1169.1	220.5	1.2724e-05	1.8751e-06	275.1	78.461	62.564	17.88	2.3867e-06	24.501	0.00034008	0.000317	8.0837e-05	1054.6	3.7732e-06	3.3801e-06	1135.7	220.97	3.6675e-06	3.4921e-06	272.41	80.138	64.406	18.617	3.4041e-06	25.986	92.190	-71.021	144.491	-160.947	19.986	-149.803	-161.272	-153.350	-142.232	-49.805	-153.734	-147.643	-147.466	-139.738	-13.905	-140.599	-8191	255	
1229.562	1	1	0	0	0.1358	0.13359	0.081532	0.27465	0.3164	0.012491	0.085142	0.24938	0.20529	0.12699	0.26945	0.10186	0.19257	0.17555	0.073459	0.11523	-1.9125	-2.5521	-1.8396	-2.6396	-2.3812	-1.9562	-2.9938	-1.9917	-2.2208	-2.6979	-1.8229	-2.6521	-2.4729	-2.0958	-2.8021	-2.1396	165.188	146.453	163.770	167.365	143.700	12.978	100.759	93.741	-45.864	-111.120	100.960	-54.079	-155.635	-26.022	-142.237	8.172	0.00094638	0.0002273	0.00010693	1081.4	6.1502e-06	4.1278e-06	1169.1	221.63	4.8158e-06	3.8472e-06	275.09	78.688	63.284	17.887	3.7171e-06	24.657	0.00033287	0.00031682	8.5763e-05	1060.3	3.7124e-06	3.3398e-06	1140.2	222.15	3.6366e-06	3.4774e-06	274.07	80.26	64.904	18.583	3.6926e-06	26.17	88.005	169.036	119.421	-161.122	-66.123	-73.020	-161.146	-153.800	-116.591	-7.870	-153.386	-146.692	-147.841	-139.067	-131.737	-139.934	-8191	255	
1229.658	1	1	0	0	0.17902	0.088443	0.22645	0.11975	0.1026	0.27854	0.19699	0.1239	0.025163	0.15525	0.17449	0.094446	0.093177	0.22663	0.11901	0.1024	-1.7729	-2.8646	-1.9333	-2.6771	-2.4333	-1.9312	-2.9979	-2.1854	-2.1646	-2.7583	-1.8583	-2.5521	-2.6583	-1.9458	-2.6958	-2.2229	-66.260	108.848	118.479	31.914	-126.964	0.476	94.862	135.401	132.301	136.859	63.696	79.076	75.562	-142.197	88.013	175.060	0.00037885	0.00051483	4.9374e-05	1077.7	3.7917e-06	1.7662e-06	1172.2	221.61	5.9025e-07	1.4321e-06	277.07	79.193	62.806	17.972	8.905e-08	24.832	0.00033317	0.00031836	9.3652e-05	1058.9	3.6893e-06	3.3357e-06	1146	221.57	3.5377e-06	3.3121e-06	274.71	79.827	63.89	18.561	3.688e-06	25.904	62.819	-132.417	-138.198	-160.770	-104.114	164.346	-160.728	-153.044	-124.011	-55.762	-153.833	-147.019	-147.372	-139.140	-7.511	-139.881	-8191	255	
1229.755	1	1	0	0	0.12784	0.039053	0.089676	0.34093	0.20499	0.074575	0.071107	0.26909	0.26018	0.18128	0.10734	0.26908	0.21482	0.23761	0.16355	0.17483	-1.5854	-2.7458	-2.0687	-2.3146	-2.5438	-1.9458	-2.7521	-2.4771	-1.8521	-2.8875	-2.0021	-2.475	-2.7375	-1.725	-2.75	-2.1417	-107.170	-33.731	171.400	133.237	41.843	187.762	101.690	109.231	-19.844	98.102	-162.514	-105.325	-163.075	-82.611	-49.336	-107.185	0.00052143	0.00043054	0.00015148	1075.1	1.9417e-06	5.5333e-06	1171	221.27	2.9724e-06	2.1647e-06	278.15	79.036	62.692	17.908	2.8945e-06	24.532	0.00030419	0.00029605	9.1821e-05	1054.1	3.3438e-06	3.1522e-06	1142.6	220.1	3.2718e-06	3.2016e-06	275.63	79.413	63.238	18.501	3.6851e-06	25.718	82.302	143.845	40.093	-160.493	3.757	31.956	-160.607	-153.414	25.553	-75.487	-153.068	-147.030	-147.150	-139.571	-38.203	-140.824	-8191	255	
1229.826	1	1	0	0	0.29005	0.089291	0.11347	0.15252	0.094079	0.27628	0.16811	0.16101	0.14543	0.084045	0.2104	0.14186	0.2395	0.084096	0.20224	0.18554	-1.5562	-2.8229	-1.9937	-2.3646	-2.7729	-1.9958	-2.7042	-2.3771	-1.8188	-2.6562	-2.1688	-2.25	-2.75	-1.8792	-2.3375	-2.6688	148.732	-51.535	-46.145	-59.921	150.687	8.562	-36.291	143.754	28.863	56.166	147.967	151.191	138.530	-55.481	-76.413	-171.016	0.00043479	0.00023413	0.00022453	1079.8	2.504e-06	3.6049e-06	1165.6	221.22	3.3078e-06	7.4071e-06	275.21	79.715	62.212	17.782	7.0528e-06	24.597	0.00029341	0.0002999	9.394e-05	1051.3	3.1998e-06	3.2587e-06	1140.3	219.45	3.0828e-06	3.2759e-06	274.22	79.049	62.516	18.55	3.5468e-06	25.595	105.142	50.680	-122.665	-161.482	-16.432	-85.450	-161.261	-153.970	5.620	-126.969	-154.137	-148.054	-147.552	-140.423	-45.246	-140.923	-8191	255	
1229.947	1	1	0	0	0.27514	0.11303	0.2801	0.3351	0.19474	0.053311	0.17404	0.0039942	0.086155	0.14963	0.024696	0.060955	0.10924	0.18401	0.27564	0.2016	-1.4771	-2.7438	-2.1604	-2.15	-2.7313	-1.9333	-2.6208	-2.6729	-1.9062	-2.6979	-2.1958	-2.2833	-2.7875	-2.1229	-2.4292	-2.6396	135.416	140.005	-109.201	183.632	-138.163	117.505	111.101	-96.158	174.592	-62.120	39.084	-101.168	-155.257	157.830	-79.147	-124.790	0.00060654	0.00037392	9.6872e-05	1073.4	2.0071e-06	3.107e-06	1170.3	221.77	2.8904e-06	2.2115e-06	275.2	79.222	62.531	17.858	1.3901e-06	24.652	0.00028334	0.00031392	9.1326e-05	1048.9	3.1555e-06	3.4679e-06	1140.4	219.36	3.1191e-06	3.5861e-06	274.08	79.197	63.233	18.796	3.5958e-06	25.618	42.426	-102.509	84.725	-161.228	60.488	151.214	-161.578	-154.257	165.510	-57.577	-154.345	-147.758	-148.423	-140.003	6.155	-140.685	-8191	255	
1230.043	1	1	0	0	0.33928	0.17009	0.15663	0.067927	0.028602	0.046826	0.071813	0.26219	0.065672	0.21836	0.23845	0.060694	0.19214	0.17577	0.051234	0.22769	-1.5812	-2.7208	-2.2521	-2.2313	-2.8125	-2.1604	-2.6	-2.6604	-1.95	-2.6271	-2.4917	-1.9479	-2.8854	-2.0708	-2.3396	-2.8167	-118.857	-24.403	166.264	-106.268	-133.327	88.640	96.866	69.317	-4.355	85.388	-28.908	-17.785	-3.708	-101.191	60.662	157.164	0.00091425	0.0001906	0.00013751	1075.8	2.5139e-06	3.2229e-06	1166.8	221.26	7.9843e-06	4.4506e-06	274	78.688	62.804	17.765	5.6244e-06	24.753	0.00029736	0.00034139	9.1767e-05	1049.4	3.297e-06	3.7829e-06	1141	219.37	3.2577e-06	3.7434e-06	273.59	78.873	63.4	18.768	3.3654e-06	25.528	76.462	23.877	-63.968	-161.685	-48.012	34.103	-161.728	-154.406	-105.380	-114.139	-154.637	-147.964	-148.993	-140.702	76.491	-140.790	-8191	255	
1230.139	1	1	0	0	0.11179	0.30646	0.16925	0.32226	0.23799	0.10574	0.053699	0.062905	0.22275	0.21862	0.098668	0.11557	0.22565	0.095222	0.11903	0.16058	-1.4333	-2.5875	-2.5146	-2.1813	-2.9062	-2.1188	-2.425	-2.7604	-1.8292	-2.4958	-2.5729	-2.0229	-2.6729	-2.3083	-2.2271	-2.8604	51.352	-137.298	-77.875	126.153	-17.541	-81.383	-33.430	-35.415	-15.594	177.728	-58.185	-52.286	-74.204	64.792	-33.745	145.010	0.00086806	0.00045047	0.00013353	1072.8	6.1925e-06	2.9867e-06	1168.2	220.56	4.0177e-06	9.9726e-07	276.82	79.101	62.227	17.923	4.0825e-06	24.701	0.00030384	0.00033757	8.6608e-05	1046.6	3.3978e-06	3.7431e-06	1139.2	218.81	3.4389e-06	3.6928e-06	273.32	78.847	63.88	18.818	3.3306e-06	25.467	47.185	184.031	-30.946	-161.872	-97.741	5.893	-161.854	-154.328	-143.354	181.989	-154.205	-147.935	-148.303	-140.235	-58.273	-140.748	-8191	255	
1230.235	1	1	0	0	0.22341	0.074092	0.26085	0.084268	0.18549	0.059849	0.14706	0.088461	0.10627	0.14402	0.03509	0.04784	0.24798	0.11524	0.37526	0.18597	-1.5729	-2.4396	-2.3583	-2.0708	-2.8625	-2.2604	-2.2375	-2.8125	-1.925	-2.3604	-2.7167	-1.9021	-2.7	-2.2354	-2.0542	-2.8167	-65.279	-76.916	27.064	107.001	-92.043	97.412	65.264	103.957	110.629	-115.984	14.588	-100.338	180.168	45.276	-122.857	8.123	0.00073946	0.00064166	0.00013286	1066.7	3.5945e-06	5.7021e-06	1166.8	220.14	1.2356e-06	6.8237e-06	275.99	77.929	62.106	17.687	3.726e-06	24.466	0.000321	0.00032295	8.2783e-05	1041.6	3.3587e-06	3.362e-06	1129.2	216.67	3.2245e-06	3.051e-06	268.34	77.456	61.964	18.162	2.595e-06	24.862	93.063	-46.850	-84.560	-161.582	123.466	22.514	-161.205	-153.880	173.085	-13.452	-153.909	-147.453	-147.989	-139.508	-36.196	-140.416	-8191	255	
1230.331	1	1	0	0	0.13016	0.11704	0.11408	0.036303	0.29311	0.070135	0.062952	0.10503	0.26936	0.26922	0.1816	0.047415	0.1104	0.1958	0.098592	0.23654	-1.7	-2.3042	-2.675	-2.0792	-2.7188	-2.3042	-2.0687	-2.7687	-2.1375	-2.5354	-2.6562	-2.0042	-2.5563	-2.3688	-1.7979	-2.8438	30.900	-139.253	152.375	85.651	-116.892	-153.054	34.323	58.241	155.818	-132.073	141.892	81.364	102.577	105.836	-138.503	21.338	0.00075599	0.00081445	8.4336e-05	1064.9	2.3496e-06	3.9354e-06	1155.9	219.37	2.5869e-06	2.0022e-06	275.32	77.948	61.988	17.79	2.7078e-06	24.472	0.00027179	0.00025116	6.6637e-05	1031.3	2.9957e-06	2.84e-06	1119.2	215.1	3.0664e-06	2.7422e-06	266.4	77.356	61.719	18.095	2.5294e-06	24.884	44.176	-54.981	-113.588	-161.501	-68.793	-21.225	-161.312	-153.771	-157.257	-95.561	-154.387	-147.849	-147.330	-139.360	-16.763	-140.040	-8191	255	
1230.428	1	1	0	0	0.18568	0.028539	0.095663	0.16466	0.090088	0.2343	0.063508	0.07559	0.093356	0.19886	0.12537	0.10573	0.35218	0.26883	0.16305	0.10092	-1.6	-2.2229	-2.5625	-2.0958	-2.4708	-2.6583	-1.9396	-2.6688	-2.2354	-2.1146	-2.9208	-2.0187	-2.3083	-2.4979	-1.8854	-2.7167	-137.026	84.781	153.683	-162.820	-35.143	-166.095	63.839	99.010	-144.691	-110.198	-32.708	-148.150	-97.608	137.952	-59.885	144.992	0.00062009	0.00016314	0.00012688	1062.4	4.0144e-06	4.6593e-06	1154.5	220.11	6.7931e-06	2.6669e-06	274.39	78.143	61.659	17.712	2.8758e-06	24.551	0.00027304	0.00024595	6.4476e-05	1032.4	2.9101e-06	2.6661e-06	1116.8	215.3	2.9607e-06	2.6681e-06	265.94	77.544	61.679	18.093	2.5876e-06	25.126	67.638	47.324	-108.187	-161.420	-115.255	34.572	-160.988	-153.565	-95.923	-71.824	-153.525	-146.874	-146.704	-139.232	-76.418	-140.115	-8191	255	
1230.524	1	1	0	0	0.088997	0.23043	0.18355	0.1111	0.051487	0.088678	0.23147	0.16312	0.15638	0.28723	0.11932	0.14182	0.10519	0.26251	0.046861	0.25483	-1.7604	-2.0083	-2.8375	-2.1604	-2.5354	-2.7521	-2.1	-2.7542	-2.3667	-2.1958	-2.7042	-2.125	-2.2729	-2.5521	-1.875	-2.6021	78.197	-30.786	3.019	-163.445	84.639	96.485	88.795	-129.056	172.129	108.774	127.971	133.112	80.906	-112.993	-106.018	139.499	0.00086304	0.0004344	8.4379e-05	1060.2	1.6765e-06	2.7508e-06	1157.1	218.87	7.1729e-06	1.1489e-06	275.43	78.644	62.254	17.77	4.6501e-06	24.392	0.0002826	0.00025655	6.7984e-05	1035.5	3.0078e-06	2.8472e-06	1119.5	216.63	3.0765e-06	2.7234e-06	267.37	78.205	61.54	18.075	2.6489e-06	25.127	83.834	-73.707	49.922	-160.785	-16.204	-85.972	-160.980	-153.447	-36.186	-77.878	-153.544	-147.288	-146.938	-139.641	-86.598	-140.545	-8191	255	
1230.643	1	1	0	0	0.17727	0.051187	0.2446	0.20111	0.17135	0.05996	0.26875	0.057275	0.14459	0.067859	0.3106	0.077412	0.18858	0.17267	0.31295	0.29809	-1.9604	-1.6812	-2.9062	-2.3104	-2.3104	-2.7438	-2.1	-2.6063	-2.4646	-1.9979	-2.7854	-2.2625	-2.1646	-2.8792	-2.0979	-2.3896	-143.913	137.715	-86.609	79.846	76.301	157.394	73.751	26.883	161.636	-5.813	158.446	-109.509	19.812	166.636	143.465	185.972	0.00073733	0.00049813	0.00020339	1063	1.8753e-06	2.5941e-06	1150.1	220.44	4.1767e-06	1.9824e-06	274.08	78.49	61.595	17.659	3.5279e-06	24.431	0.00026793	0.00023847	6.8618e-05	1035.4	2.8013e-06	2.6486e-06	1116.9	216.46	2.8238e-06	2.553e-06	267.37	77.924	60.663	17.962	2.7398e-06	25.031	91.567	-158.259	-33.290	-160.874	56.142	-62.043	-161.252	-153.211	-88.459	-26.223	-153.542	-147.074	-147.088	-139.409	-169.781	-140.022	-8191	255	
1230.739	1	1	0	0	0.21806	0.24553	0.12094	0.12757	0.12231	0.17355	0.11516	0.11728	0.26966	0.081914	0.092955	0.061057	0.16568	0.23116	0.36307	0.018642	-2.2313	-1.8979	-2.7958	-2.3792	-2.0375	-2.9125	-2.0667	-2.7333	-2.5708	-1.975	-2.7917	-2.2979	-2.1625	-2.8542	-1.9604	-2.6333	-15.527	52.226	-139.024	96.306	-106.412	26.495	154.452	176.980	-84.755	-12.783	47.383	186.029	67.227	-110.143	10.041	-149.072	0.00068355	4.6787e-05	0.00013424	1059	3.5079e-06	2.6169e-07	1151.8	218.88	8.3694e-06	5.4224e-06	274.65	78.24	61.549	17.707	3.7195e-06	24.491	0.00025344	0.00022608	7.0891e-05	1030.3	2.6316e-06	2.5267e-06	1115.7	215.03	2.6745e-06	2.4293e-06	267.2	77.413	59.992	17.874	2.8109e-06	24.849	82.646	124.937	72.658	-160.776	106.970	186.399	-160.963	-153.364	-116.170	-74.490	-154.107	-146.914	-147.179	-139.434	-67.915	-140.094	-8191	255	
1230.835	1	1	0	0	0.40103	0.080703	0.10542	0.3528	0.2189	0.1457	0.18892	0.13266	0.10867	0.24247	0.21395	0.20911	0.06714	0.26313	0.23208	0.12336	-2.4271	-1.9604	-2.55	-2.5354	-2.2583	-2.9396	-2.125	-2.3812	-2.7562	-1.7417	-2.6604	-2.3896	-2	-2.6437	-2.0104	-2.5417	138.601	-137.109	15.959	158.049	-167.718	-125.709	131.765	79.016	-18.418	4.461	-138.669	146.348	15.141	1.051	-104.300	96.228	0.00067405	0.00030506	0.00022048	1056.5	5.8634e-06	5.4563e-06	1147.1	217.66	8.8501e-06	3.2752e-06	274.64	77.212	61.888	17.593	1.1059e-06	24.443	0.00024105	0.00022421	7.2072e-05	1028	2.5765e-06	2.6089e-06	1116.9	215.02	2.6892e-06	2.6716e-06	269.52	77.22	60.62	18.034	3.1714e-06	25.047	83.310	-31.498	-155.197	-161.277	-31.276	-140.077	-161.271	-153.659	-140.079	128.802	-154.351	-147.908	-148.074	-139.737	49.790	-140.184	-8191	255	
1230.931	1	1	0	0	0.08414	0.18812	0.064942	0.19022	0.27053	0.11419	0.39222	0.33469	0.086396	0.24996	0.10283	0.021287	0.16249	0.19751	0.10912	0.1699	-2.4958	-1.7479	-2.6042	-2.5104	-1.9792	-2.8125	-2.1	-2.3146	-2.8333	-1.9833	-2.6688	-2.675	-1.9417	-2.8937	-2.0896	-2.0292	3.132	-120.415	0.032	112.167	-48.251	19.950	105.143	92.767	108.424	133.353	7.757	156.638	-1.571	-123.508	-144.691	115.560	0.00065414	0.00043552	2.9971e-05	1058.4	2.393e-06	1.6795e-06	1151.1	219.63	6.2315e-06	3.3575e-06	273.44	78.469	61.633	17.785	4.6363e-06	24.469	0.0002599	0.00025954	8.1494e-05	1032.8	2.7647e-06	2.938e-06	1122.9	216.41	2.8353e-06	2.9864e-06	269.91	77.834	60.957	18.28	3.2783e-06	25.105	97.927	70.013	150.858	-161.176	122.945	45.681	-160.912	-153.285	-82.251	-57.890	-152.838	-146.199	-147.006	-139.189	-47.919	-139.503	-8191	255	
1231.052	1	1	0	0	0.060992	0.1289	0.11236	0.21623	0.053424	0.050956	0.059287	0.14162	0.07638	0.092518	0.14208	0.097684	0.086746	0.20691	0.24341	0.23044	-2.4125	-1.9333	-2.5042	-2.6521	-1.8563	-2.6271	-2.4	-2.1771	-2.7896	-1.9583	-2.425	-2.6271	-1.7313	-2.9542	-2.4437	-2.1167	-124.844	28.174	61.247	-122.585	-14.872	144.419	123.092	145.214	-128.535	49.293	-145.270	129.819	-108.585	-56.494	95.818	-165.407	0.00057932	0.00016144	0.00013814	1055.7	8.2981e-06	2.7945e-06	1152.4	219.06	8.8753e-06	3.5886e-06	275.31	77.517	62.813	17.676	5.0496e-06	24.742	0.00026556	0.00028856	8.265e-05	1033	2.8851e-06	3.2475e-06	1126.5	215.93	2.9199e-06	3.3118e-06	270.06	77.733	61.37	18.422	3.2082e-06	25.105	79.724	102.109	15.822	-160.638	-75.509	-1.433	-160.659	-152.941	-119.644	187.410	-153.021	-146.917	-147.211	-139.163	-5.849	-140.270	-8191	255	
1231.123	1	1	0	0	0.25935	0.15521	0.22633	0.42128	0.13475	0.12253	0.10872	0.070961	0.191	0.24797	0.22303	0.085626	0.12196	0.22665	0.036731	0.17467	-2.4938	-1.8958	-2.3604	-2.7438	-1.9708	-2.7729	-2.4229	-2.1188	-2.8042	-2.1583	-2.3563	-2.6896	-1.9396	-2.6437	-2.5792	-1.775	99.322	104.967	-63.368	138.852	-57.443	-137.178	-130.259	71.224	100.548	85.685	185.978	46.990	47.612	168.745	-158.908	103.849	0.00065175	0.00041926	2.5697e-05	1059.4	6.9908e-06	2.8191e-06	1148.3	218.25	5.7314e-06	5.5285e-06	273.86	78.056	61.837	17.685	4.2671e-06	24.438	0.00026975	0.0003013	7.9001e-05	1032.5	2.8844e-06	3.2623e-06	1119.2	215.43	2.9432e-06	3.2986e-06	268.5	77.428	61.622	18.427	3.1278e-06	24.952	74.146	106.550	126.288	-160.532	-63.424	-88.482	-160.881	-152.968	-80.179	-79.718	-152.590	-146.985	-146.723	-138.866	-30.511	-139.785	-8191	255	
1231.244	1	1	0	0	0.082231	0.091839	0.20483	0.18767	0.15651	0.10688	0.094322	0.16185	0.14036	0.15683	0.17459	0.12025	0.16451	0.076296	0.10439	0.30564	-2.4292	-2.0875	-2.0021	-2.8604	-2.025	-2.5938	-2.7542	-2.0708	-2.7854	-2.2479	-2.2979	-2.7417	-1.8542	-2.5708	-2.4062	-2.0187	23.798	-157.105	83.216	51.906	53.587	-154.655	55.296	49.750	31.716	65.327	165.358	120.718	154.385	-92.487	-22.329	168.812	0.00099251	0.00074175	0.00016187	1059.2	3.5885e-06	2.3943e-06	1154.5	219.6	6.3466e-06	5.0036e-07	273.87	78.323	62.474	17.72	2.3421e-06	24.508	0.00028534	0.00030594	7.7038e-05	1031.3	3.1021e-06	3.3045e-06	1120.8	215.64	3.1484e-06	3.3109e-06	268.43	77.544	62.249	18.335	3.0253e-06	24.982	86.615	-15.961	-78.180	-159.446	-104.121	111.354	-160.015	-152.346	-82.629	-45.482	-152.451	-146.479	-146.513	-138.496	75.676	-138.508	-8191	255	
1231.338	1	1	0	0	0.21622	0.44666	0.10071	0.29283	0.14788	0.30183	0.011875	0.2389	0.17102	0.10687	0.13612	0.036266	0.17227	0.22615	0.24944	0.1927	-2.4208	-2.1229	-2.0979	-2.8354	-1.9333	-2.4271	-2.8792	-1.8208	-2.725	-2.2521	-2.0729	-2.8063	-2.0812	-2.5396	-2.6042	-2.0292	-132.272	40.349	146.681	-126.785	-117.190	-142.725	69.143	-127.105	-18.042	100.532	-94.692	156.058	177.278	-122.359	38.820	157.786	0.00075852	0.00027992	7.3359e-05	1057.3	2.403e-06	3.2652e-06	1160.7	219.95	5.1633e-06	4.0657e-06	274.43	78.153	62.035	17.508	5.3703e-06	24.568	0.00030014	0.00029971	7.4972e-05	1028.4	3.2944e-06	3.209e-06	1120.7	215.23	3.2886e-06	3.2065e-06	267.92	77.553	62.824	18.261	3.0421e-06	25.097	73.994	96.221	-156.072	-159.275	187.201	-88.027	-159.863	-152.255	-93.280	-19.990	-153.243	-146.718	-146.550	-139.016	66.493	-140.334	-8191	255	
1231.435	1	1	0	0	0.35702	0.35235	0.036733	0.21633	0.23	0.20322	0.063777	0.076135	0.10701	0.17274	0.14037	0.28067	0.18807	0.20625	0.10784	0.083572	-2.1854	-2.3104	-1.7667	-2.8563	-1.9937	-2.3146	-2.7458	-1.8312	-2.5729	-2.75	-2.0167	-2.8083	-1.975	-2.3083	-2.7812	-1.8979	-57.674	137.879	-117.549	167.621	-92.387	-72.694	19.954	-147.172	54.718	171.847	172.099	102.711	-154.899	90.899	160.073	-134.808	0.00072646	0.00093847	0.00010985	1057.6	3.2456e-06	4.2756e-06	1149.9	218.16	2.1156e-06	4.9517e-07	273.3	78.149	61.758	17.775	3.7148e-06	24.507	0.00031232	0.0002903	7.4372e-05	1030	3.39e-06	3.0932e-06	1117.2	215.64	3.3474e-06	3.0962e-06	267.65	77.83	62.95	18.279	2.9833e-06	25.332	67.493	-54.226	-57.419	-160.633	-73.767	-19.367	-160.630	-153.122	-164.151	53.080	-152.813	-146.846	-146.482	-138.805	170.445	-139.611	-8191	255	
1231.531	1	1	0	0	0.16906	0.11975	0.40451	0.37759	0.059984	0.2	0.19051	0.076229	0.12312	0.17308	0.21334	0.29735	0.32265	0.14064	0.089603	0.18072	-2.2812	-2.5375	-1.6604	-2.8875	-2.0875	-2.2083	-2.7396	-1.9833	-2.375	-2.4292	-1.9354	-2.75	-2.25	-2.1542	-2.8417	-1.75	3.206	-82.511	-70.800	150.331	54.716	-90.908	126.410	126.863	-27.617	33.036	-134.452	16.015	111.570	102.360	5.141	141.036	0.00067488	0.00015697	0.0001119	1059.7	4.7032e-06	1.4926e-06	1152.2	219.73	2.3561e-06	3.5064e-06	274.86	77.987	61.647	17.644	5.5234e-06	24.513	0.00032499	0.00029867	7.697e-05	1037.6	3.6537e-06	3.2775e-06	1123.2	218.38	3.6944e-06	3.3623e-06	270.11	79.177	64.156	18.458	3.2991e-06	25.783	98.441	-10.088	-47.472	-160.345	4.635	-109.145	-160.576	-153.062	-60.726	-71.362	-153.121	-146.721	-146.647	-138.982	-10.776	-139.651	-8191	255	
1231.627	1	1	0	0	0.12654	0.15389	0.15544	0.20544	0.02437	0.048147	0.31921	0.17428	0.26786	0.17145	0.21979	0.24963	0.15677	0.085095	0.086433	0.073992	-2.2292	-2.6458	-1.8792	-2.6979	-2.3771	-1.8833	-2.9062	-2.2042	-2.3083	-2.5229	-1.8687	-2.8438	-2.5083	-2.0896	-2.8604	-2.0771	-136.195	-17.148	50.942	107.778	84.284	-34.909	165.479	155.525	130.053	-146.556	72.428	13.840	-161.961	-51.177	93.098	112.564	0.00068727	0.00067071	0.00012969	1066.6	5.2556e-06	5.8034e-06	1158.3	219.56	3.8992e-06	6.4415e-06	275.77	78.141	62.712	17.81	7.5985e-06	24.518	0.00033739	0.00031584	8.3046e-05	1047.5	3.7565e-06	3.4015e-06	1131.1	219.77	3.6655e-06	3.4683e-06	272.09	79.816	64.512	18.512	3.4564e-06	25.964	81.353	-105.700	-170.460	-160.937	28.705	-49.067	-160.877	-153.485	-62.198	36.035	-153.787	-147.773	-147.736	-139.781	-127.395	-141.032	-8191	255	
1231.723	1	1	0	0	0.13688	0.46912	0.39401	0.25113	0.24243	0.15198	0.306	0.081815	0.15017	0.15651	0.084516	0.13328	0.018323	0.05085	0.19335	0.20349	-1.8396	-2.6375	-1.7938	-2.5792	-2.2479	-1.9562	-3.1167	-2.0292	-1.95	-2.7083	-2	-2.7292	-2.4146	-1.9354	-2.7833	-2.3729	41.592	102.249	-101.846	-136.193	127.691	-44.229	164.311	-83.477	-82.369	-29.599	132.611	66.188	-103.493	4.177	173.672	-33.171	0.00061391	0.00027087	0.000157	1068.8	6.8152e-06	1.7866e-06	1160.6	219.42	4.0082e-06	5.0778e-06	272.99	78.498	61.744	17.686	2.7738e-06	24.649	0.00033405	0.00031545	8.9337e-05	1048.6	3.6967e-06	3.39e-06	1134.7	220.58	3.6132e-06	3.4438e-06	273.16	79.774	64.117	18.536	3.7728e-06	26.094	87.578	149.921	111.534	-161.303	-90.351	73.157	-161.813	-154.429	-43.984	-38.199	-154.735	-147.448	-148.074	-139.570	70.176	-141.166	-8191	255	
1231.819	1	1	0	0	0.12825	0.059611	0.13704	0.17452	0.047281	0.14151	0.085711	0.19976	0.18087	0.10826	0.33023	0.30298	0.13335	0.22464	0.25988	0.019079	-1.6875	-2.8854	-1.9292	-2.6792	-2.5229	-2.0417	-2.8479	-2.2708	-2.1188	-2.8646	-1.9208	-2.5021	-2.6375	-1.9438	-2.7604	-2.2958	28.686	-43.993	96.304	129.095	-137.520	34.697	-79.686	-136.699	143.910	166.679	160.128	112.965	-63.125	120.535	-37.230	50.079	0.00083945	0.00075207	0.00019169	1068.6	5.073e-06	3.1098e-06	1159.7	219.94	2.92e-06	4.0674e-06	275.31	78.394	61.384	17.784	3.9444e-06	24.671	0.00033258	0.00031506	9.6286e-05	1048.9	3.7078e-06	3.4371e-06	1137.1	220.86	3.5879e-06	3.4347e-06	275.45	79.698	63.751	18.495	3.8986e-06	25.918	104.683	-66.952	-123.106	-161.602	-139.114	158.411	-161.725	-154.223	22.118	146.408	-154.123	-147.871	-147.823	-140.233	-161.340	-140.840	-8191	255	
1231.915	1	1	0	0	0.065154	0.044339	0.082604	0.14112	0.18959	0.2116	0.23837	0.18123	0.096533	0.15465	0.13027	0.014522	0.11701	0.088751	0.25986	0.16899	-1.6771	-2.8646	-1.8417	-2.4417	-2.5271	-1.8771	-2.8417	-2.1958	-2.0167	-2.7292	-2.2104	-2.5146	-2.6521	-1.8062	-2.6667	-2.4437	-80.402	101.656	110.370	58.788	149.604	23.579	137.885	127.081	5.384	118.915	126.945	74.719	-37.057	-78.819	-123.680	110.761	0.00057447	0.00033194	0.00012475	1068	6.0159e-07	4.9621e-06	1162.1	219.06	3.2654e-06	6.2574e-06	276.4	78.636	62.328	17.813	5.5473e-06	24.621	0.0003145	0.00030693	9.7747e-05	1047.5	3.4108e-06	3.3554e-06	1137.9	219.41	3.3347e-06	3.3737e-06	275.65	79.175	62.983	18.533	3.8066e-06	25.664	91.154	-166.099	-114.827	-161.390	43.794	-72.985	-161.430	-153.978	-107.266	-42.881	-154.089	-148.076	-148.181	-140.158	-1.340	-140.510	-8191	255	
1232.011	1	1	0	0	0.076438	0.17823	0.072285	0.28935	0.16509	0.077768	0.34562	0.035581	0.16257	0.11817	0.11397	0.14199	0.19203	0.061556	0.10048	0.15276	-1.4104	-2.8021	-1.9771	-2.2604	-2.6292	-1.8875	-2.4646	-2.7208	-1.8521	-2.8875	-2.1167	-2.1063	-2.6521	-1.9604	-2.3937	-2.3792	-78.897	58.845	56.810	-141.338	-155.043	-133.599	115.866	-92.290	120.305	136.654	114.822	131.650	146.341	157.797	-160.416	-105.490	0.00080395	0.00025624	1.819e-05	1070.3	5.5375e-06	4.9886e-06	1160	219.97	6.1623e-06	9.6086e-07	274.42	77.622	62.515	17.773	5.4512e-06	24.414	0.00030012	0.00031317	9.6183e-05	1046	3.3046e-06	3.4449e-06	1135.1	218.95	3.2096e-06	3.5604e-06	274.28	78.81	63.022	18.673	3.8004e-06	25.609	75.664	-135.907	123.745	-161.313	-63.900	-124.730	-161.153	-153.911	-106.640	139.425	-153.874	-147.563	-148.277	-140.364	19.252	-140.826	-8191	255	
1232.132	1	1	0	0	0.18533	0.17884	0.1625	0.10927	0.14654	0.13692	0.27261	0.21253	0.16615	0.062745	0.033939	0.15292	0.11057	0.1424	0.32594	0.29726	-1.5875	-2.4375	-2.1104	-2.0792	-2.8146	-2.0292	-2.6104	-2.9354	-1.6646	-2.7958	-2.2188	-2.0479	-2.6458	-2.0542	-2.3542	-2.7396	-93.672	11.280	186.960	-64.129	45.448	-165.254	77.773	145.019	7.306	-121.375	61.764	169.491	55.605	81.406	45.633	69.292	0.00083007	0.0003412	0.00017766	1067	9.0508e-06	8.0109e-06	1161.6	219.61	4.3696e-07	4.2739e-06	274.47	78.312	61.452	17.789	8.1703e-06	24.736	0.0003049	0.0003464	9.8797e-05	1043.9	3.4156e-06	3.86e-06	1135.8	219.09	3.4029e-06	3.9081e-06	275.15	79.042	63.698	18.931	3.7531e-06	25.767	79.865	-42.051	-63.506	-161.382	-90.288	-96.124	-161.469	-154.044	139.067	-43.909	-154.225	-148.425	-148.114	-140.612	-24.680	-141.292	-8191	255	
1232.228	1	1	0	0	0.12541	0.26908	0.024413	0.1476	0.093582	0.052279	0.24755	0.16868	0.19657	0.20805	0.16028	0.2076	0.11382	0.057494	0.033867	0.015513	-1.3937	-2.7604	-2.4146	-2.1229	-2.8229	-2.2729	-2.4167	-2.6708	-1.7812	-2.5667	-2.5917	-1.8	-2.8396	-2.2271	-2.1875	-2.7854	-22.026	25.694	171.494	57.824	48.481	72.208	105.982	52.341	-108.067	31.135	-2.692	-10.929	182.972	-65.104	101.796	-142.314	0.0010491	0.00063514	0.00010473	1067.4	4.4421e-06	4.7828e-06	1156.2	219.16	1.5059e-06	1.8367e-06	274.29	78.082	61.874	17.761	3.6554e-06	24.542	0.0003194	0.00036692	9.6536e-05	1045.6	3.6186e-06	4.0862e-06	1138.2	219.22	3.6782e-06	4.1326e-06	274.73	79.092	64.628	19.059	3.7564e-06	25.755	73.835	-143.822	-73.543	-161.765	122.284	-34.530	-161.783	-154.077	158.385	71.053	-153.977	-147.809	-148.910	-140.786	-82.924	-140.729	-8191	255	
1232.324	1	1	0	0	0.060653	0.18944	0.28069	0.26719	0.20153	0.15959	0.40269	0.15735	0.08087	0.13239	0.27421	0.20699	0.21905	0.27607	0.077472	0.16616	-1.4667	-2.4292	-2.5729	-2.1458	-2.725	-2.2313	-2.2854	-2.9542	-1.8438	-2.6937	-2.525	-1.9438	-2.775	-2.2125	-2.0604	-2.925	89.530	-93.899	58.972	146.734	28.785	184.008	164.358	-163.681	-61.903	25.392	-158.864	-166.402	138.703	-7.011	-99.417	-12.648	0.00075102	0.00037287	0.00015094	1070.9	8.0639e-06	2.3114e-06	1163	219.66	9.281e-06	4.5033e-06	276.16	78.597	62.519	17.843	7.9099e-06	24.804	0.00035633	0.00037675	9.8347e-05	1048.2	3.9762e-06	4.2287e-06	1140.8	220.06	4.0712e-06	4.1852e-06	275.56	79.395	65.924	19.051	3.791e-06	25.907	43.897	-101.492	-38.406	-161.377	182.189	-80.691	-161.317	-154.050	-151.467	117.635	-153.625	-147.384	-147.089	-139.488	-40.425	-140.855	-8191	255	
1232.419	1	1	0	0	0.16142	0.12025	0.23484	0.09025	0.22856	0.024989	0.4672	0.16017	0.057112	0.13632	0.16646	0.062499	0.24024	0.10914	0.19156	0.095418	-1.5604	-2.3583	-2.7687	-1.8333	-2.7208	-2.3708	-2.1333	-2.7646	-1.8021	-2.4313	-2.7188	-1.9417	-2.6063	-2.3104	-1.9958	-2.8125	187.580	-4.591	20.486	-130.218	-73.778	-38.731	169.785	26.178	156.460	122.502	-112.680	-101.917	124.179	0.491	-105.419	-84.223	0.00063254	0.00060246	0.00018554	1067	6.3959e-06	2.9577e-06	1165.3	221.08	1.0943e-06	2.9356e-06	276.57	78.543	61.996	17.92	2.2898e-06	24.679	0.00038193	0.00037551	9.8359e-05	1049.5	4.2268e-06	4.0969e-06	1141.2	221.05	4.2097e-06	3.9467e-06	274.82	79.408	66.051	18.922	3.5391e-06	25.869	51.543	-17.228	-141.780	-160.811	-137.581	25.710	-161.190	-153.972	118.263	120.661	-153.726	-147.310	-146.883	-139.230	-52.580	-140.430	-8191	255	
1232.515	1	1	0	0	0.082343	0.064634	0.2029	0.2153	0.14923	0.26355	0.072706	0.070928	0.171	0.15542	0.1425	0.14634	0.15385	0.30272	0.148	0.22487	-1.8125	-2.1917	-2.6625	-2.1167	-2.5875	-2.3521	-2.0292	-2.8167	-2.1063	-2.1562	-2.8875	-1.6417	-2.5333	-2.4625	-1.8021	-2.8125	67.345	95.379	-159.075	100.165	77.010	87.174	-129.101	23.497	115.345	-60.415	134.418	142.482	-155.254	95.413	101.192	-62.233	0.00057745	0.0007275	0.00021594	1072.8	5.786e-06	1.1084e-06	1162	221.3	3.2698e-06	8.7854e-06	274.55	79.368	62.175	17.781	7.9845e-07	24.772	0.00037305	0.0003392	8.8465e-05	1051.7	4.0106e-06	3.697e-06	1136.2	220.21	3.9851e-06	3.5543e-06	272.85	79.569	65.002	18.661	3.2928e-06	25.843	49.358	-58.325	-143.500	-161.030	-59.648	133.864	-160.699	-153.529	116.260	13.881	-153.566	-147.197	-146.939	-139.363	56.936	-140.139	-8191	255	
1232.613	1	1	0	0	0.15908	0.14851	0.027575	0.15624	0.31143	0.18408	0.2246	0.087759	0.053734	0.20781	0.2669	0.077451	0.053391	0.032498	0.1676	0.11935	-1.7354	-1.8729	-2.6646	-2.1042	-2.35	-2.5542	-1.9896	-2.6688	-2.175	-2.05	-2.5896	-1.8875	-2.2771	-2.5292	-1.8396	-2.8625	157.038	173.320	100.341	130.434	-39.911	-14.736	-98.213	-110.984	182.725	-160.243	167.886	-102.623	64.845	99.619	-61.595	-149.151	0.00082936	0.00078288	0.00012496	1068.8	2.9329e-06	3.6284e-06	1162.4	220.09	3.3278e-06	4.9338e-06	274.75	78.355	62.345	17.901	3.1629e-06	24.287	0.00036108	0.00032387	8.5762e-05	1051.9	3.8881e-06	3.6001e-06	1135.3	220.92	3.9247e-06	3.5052e-06	273.38	79.847	64.753	18.692	3.3257e-06	25.918	72.901	-65.517	128.148	-160.801	-50.012	89.677	-161.001	-153.580	-84.184	-17.529	-153.859	-147.301	-147.064	-139.438	128.855	-139.676	-8191	255	
1232.732	1	1	0	0	0.099786	0.11284	0.19857	0.15989	0.30646	0.12587	0.12835	0.077107	0.19234	0.13432	0.10291	0.1758	0.11116	0.34228	0.20428	0.1602	-1.8687	-1.9688	-2.8646	-2.1875	-2.3479	-2.6479	-1.8708	-2.8396	-2.3125	-1.9917	-2.8479	-2.1021	-2.2396	-2.5604	-1.8958	-2.7583	54.512	120.739	20.117	155.214	-75.594	153.476	-30.289	-164.935	132.177	-62.565	9.114	-17.300	-31.205	-5.655	-162.697	0.213	0.00038426	0.00034083	0.00014899	1067.3	3.8735e-06	3.7454e-06	1168.9	220.67	8.6202e-07	3.6321e-06	275.54	78.178	61.706	17.792	6.5279e-06	24.568	0.00034502	0.00031222	8.5295e-05	1053.1	3.674e-06	3.4394e-06	1138.6	221.71	3.7461e-06	3.3743e-06	273.6	79.982	64.451	18.652	3.5472e-06	26.129	89.939	-97.474	-126.941	-160.150	-89.895	-38.717	-160.215	-152.482	82.146	163.223	-152.504	-146.666	-147.863	-139.114	184.951	-139.365	-8191	255	
1232.828	1	1	0	0	0.17986	0.086609	0.094834	0.19477	0.048855	0.15364	0.070382	0.20418	0.23342	0.046436	0.207	0.062362	0.073261	0.16511	0.14846	0.17967	-2.0125	-1.9021	-2.7521	-2.3187	-2.1937	-2.7792	-2.025	-2.4583	-2.4833	-1.9417	-2.6937	-2.1813	-2.175	-2.85	-1.9188	-2.5854	-106.072	55.306	-166.245	158.080	-6.297	70.665	-18.615	176.231	-8.503	-107.484	100.718	-153.587	128.534	53.256	-18.270	119.477	0.00054873	0.00021438	0.00021284	1068.6	4.6569e-06	4.0467e-06	1165.1	220.32	3.4225e-06	4.7341e-06	274.96	78.276	62.542	17.776	3.4277e-06	24.526	0.00034219	0.00030858	9.2459e-05	1055	3.6468e-06	3.49e-06	1140.5	221.5	3.7013e-06	3.3684e-06	275.35	80.107	64.235	18.605	3.8354e-06	26.08	61.554	-43.880	-141.437	-160.626	0.722	-66.415	-160.819	-153.156	22.852	-94.755	-152.931	-146.878	-146.134	-138.815	-148.833	-139.550	-8191	255	
1232.924	1	1	0	0	0.10005	0.34866	0.14739	0.14717	0.24477	0.34672	0.093121	0.30265	0.23474	0.20187	0.2332	0.029655	0.1695	0.03951	0.072685	0.30329	-2.2083	-1.9	-2.7604	-2.2625	-2.0229	-2.8542	-2.1708	-2.5187	-2.4979	-1.8833	-2.8354	-2.4542	-1.9417	-2.6708	-2.0396	-2.4583	-148.672	-19.444	-153.755	140.630	-130.903	104.436	68.206	-49.717	-114.138	120.200	159.329	51.669	-113.537	3.898	174.415	21.426	0.00044313	0.00023654	0.00011523	1062.2	2.9297e-06	1.6823e-06	1150.4	217.43	2.6925e-06	2.1779e-06	271.93	77.256	60.861	17.491	2.8273e-06	24.21	0.00034066	0.00031201	9.9875e-05	1053.7	3.6549e-06	3.5296e-06	1142.3	221.13	3.7285e-06	3.5202e-06	276.4	79.996	64.06	18.691	4.1322e-06	26.001	91.159	-137.180	-166.900	-160.625	-129.115	-80.457	-161.100	-153.440	171.981	-136.851	-153.528	-147.170	-147.536	-139.151	166.132	-140.818	-8191	255	
1233.020	1	1	0	0	0.15713	0.091396	0.34511	0.10971	0.23437	0.40193	0.12512	0.20828	0.19376	0.17348	0.1905	0.30577	0.15389	0.11329	0.042794	0.22889	-2.15	-1.8062	-2.6479	-2.5833	-1.9292	-2.825	-2.0896	-2.1542	-2.6521	-1.8042	-2.6917	-2.3917	-1.8833	-2.9021	-1.9854	-2.2146	133.117	-129.035	-143.816	-15.732	53.974	79.198	139.325	-135.078	-142.289	-41.791	112.961	134.344	-88.808	30.842	144.402	89.779	0.00082655	0.00074347	6.2738e-05	1056.1	5.7909e-06	4.2487e-06	1151	219.14	7.8092e-06	7.2364e-06	273.66	76.92	61.66	17.477	8.0841e-07	24.148	0.00034214	0.00033504	0.00010664	1052.4	3.6986e-06	3.7542e-06	1146	221.02	3.6826e-06	3.7152e-06	277.55	79.585	63.678	18.743	4.067e-06	25.806	74.049	-161.711	-138.308	-161.342	-165.664	-40.387	-161.686	-154.002	-113.206	-124.902	-153.662	-147.115	-147.198	-139.748	49.181	-140.545	-8191	255	
#DATA ENDS
